# wavelength flux
3719.99538 1.69319e-17
3721.50320 8.61539e-18
3723.00084 4.17892e-18
3724.49848 -4.08914e-18
3725.99611 2.07072e-18
3727.50394 6.89695e-18
3729.00157 3.61080e-18
3730.49921 1.16809e-17
3731.99684 1.65865e-17
3733.50467 1.35807e-17
3735.00230 2.30676e-17
3736.49994 1.77904e-17
3737.99758 4.71756e-18
3739.49521 2.42898e-18
3741.00304 2.24708e-17
3742.50067 1.92070e-17
3743.99831 7.09382e-18
3745.49594 5.14452e-18
3747.00377 1.37581e-17
3748.50140 1.60537e-17
3749.99904 -8.79374e-19
3751.49668 4.61958e-18
3753.00450 1.23765e-17
3754.50214 -3.64885e-18
3755.99977 3.28423e-18
3757.49741 1.20780e-17
3758.99504 7.75807e-18
3760.50287 9.71512e-18
3762.00050 1.66195e-17
3763.49814 3.71953e-18
3764.99578 8.58555e-18
3766.50360 1.18933e-17
3768.00124 -9.42741e-18
3769.49887 -3.45252e-18
3770.99651 8.88538e-18
3772.50433 2.14016e-17
3774.00197 3.00815e-17
3775.49960 1.12612e-17
3776.99724 -1.07977e-17
3778.49488 -9.99242e-18
3780.00270 -9.18711e-18
3781.50034 -8.13373e-18
3782.99797 -7.08031e-18
3784.49561 -6.02701e-18
3786.00343 -4.97403e-18
3787.50107 -3.92099e-18
3788.99870 -2.86809e-18
3790.49634 -1.81549e-18
3792.00416 -7.62850e-19
3793.50180 2.89493e-19
3794.99944 1.34188e-18
3796.49707 2.39414e-18
3798.00490 3.44610e-18
3799.50253 4.49811e-18
3801.00017 5.54999e-18
3802.49780 6.60157e-18
3803.99544 7.65320e-18
3805.50326 8.70453e-18
3807.00090 9.75591e-18
3808.49854 1.08072e-17
3809.99617 1.18581e-17
3811.50400 1.29091e-17
3813.00163 1.39600e-17
3814.49927 1.50106e-17
3815.99690 1.60613e-17
3817.50473 1.71116e-17
3819.00236 7.40571e-18
3820.50000 1.09554e-17
3821.99764 1.28549e-17
3823.49527 8.97149e-18
3825.00310 2.74182e-18
3826.50073 2.02636e-18
3827.99837 9.83894e-18
3829.49600 2.01431e-17
3831.00383 1.85995e-17
3832.50146 8.55792e-18
3833.99910 9.52943e-18
3835.49674 6.12564e-18
3837.00456 1.61814e-17
3838.50220 1.83159e-17
3839.99983 8.90327e-18
3841.49747 5.55591e-18
3842.99510 -1.69120e-19
3844.50293 1.01401e-18
3846.00056 1.64184e-17
3847.49820 2.92146e-17
3848.99584 1.21833e-17
3850.50366 5.69957e-18
3852.00130 6.58387e-18
3853.49893 -3.28285e-19
3854.99657 1.19273e-17
3856.50439 1.34159e-17
3858.00203 -1.18408e-19
3859.49966 2.17817e-17
3860.99730 2.15684e-17
3862.49494 1.59934e-17
3864.00276 1.44354e-17
3865.50040 1.78273e-17
3866.99803 -5.00396e-18
3868.49567 1.13519e-17
3870.00349 1.14255e-17
3871.50113 2.83654e-18
3872.99876 9.56564e-20
3874.49640 8.05534e-19
3876.00422 5.97970e-18
3877.50186 2.11901e-17
3878.99950 1.35848e-17
3880.49713 1.75977e-17
3881.99477 1.62001e-17
3883.50259 9.11773e-18
3885.00023 1.33796e-17
3886.49786 1.75233e-17
3887.99550 6.43027e-18
3889.50332 5.54375e-18
3891.00096 -2.41687e-18
3892.49860 1.66901e-18
3893.99623 3.81024e-18
3895.50406 1.54180e-17
3897.00169 1.96446e-17
3898.49933 5.61897e-18
3899.99696 9.84433e-18
3901.50479 1.54444e-17
3903.00242 6.12079e-18
3904.50006 -4.25719e-18
3905.99770 -3.06388e-18
3907.49533 6.36105e-18
3909.00316 1.08763e-17
3910.50079 1.19480e-17
3911.99843 7.41535e-18
3913.49606 -3.29131e-18
3915.00389 -7.25206e-19
3916.50152 1.09261e-17
3917.99916 1.99636e-17
3919.49680 1.47007e-17
3921.00462 3.64194e-18
3922.50226 1.16054e-17
3923.99989 2.30767e-17
3925.49753 2.30746e-17
3926.99516 1.20811e-17
3928.50299 1.44625e-17
3930.00062 1.98074e-17
3931.49826 1.93336e-17
3932.99590 2.70665e-17
3934.50372 1.83988e-17
3936.00136 1.56139e-17
3937.49899 2.24696e-17
3938.99663 1.10115e-17
3940.50445 3.58586e-18
3942.00209 1.91725e-17
3943.49972 2.55690e-17
3944.99736 4.97305e-18
3946.49500 -1.06809e-18
3948.00282 5.49426e-18
3949.50046 2.06915e-17
3950.99809 1.91174e-17
3952.49573 4.03144e-18
3954.00355 8.62102e-18
3955.50119 9.03896e-18
3956.99882 2.12653e-17
3958.49646 2.18241e-17
3960.00428 1.84920e-17
3961.50192 1.28154e-17
3962.99956 1.44727e-17
3964.49719 8.29347e-18
3965.99483 1.32344e-17
3967.50265 9.25186e-18
3969.00029 1.78404e-17
3970.49792 2.91211e-17
3971.99556 2.22853e-17
3973.50338 2.12435e-17
3975.00102 2.99168e-17
3976.49866 2.86814e-17
3977.99629 2.05463e-17
3979.50412 1.69598e-17
3981.00175 1.73084e-17
3982.49939 1.94846e-17
3983.99702 1.72001e-17
3985.50485 1.01933e-17
3987.00248 1.09621e-17
3988.50012 1.33123e-17
3989.99776 1.56787e-17
3991.49539 1.85822e-17
3993.00322 1.90935e-17
3994.50085 2.37921e-17
3995.99849 1.96771e-17
3997.49612 1.49104e-17
3999.00395 1.26939e-17
4000.50158 9.70850e-18
4001.99922 1.71968e-17
4003.49686 1.05120e-17
4005.00468 -5.03616e-18
4006.50232 6.11075e-18
4007.99995 1.63563e-17
4009.49759 9.50074e-18
4010.99522 1.21162e-17
4012.50305 1.34936e-17
4014.00068 1.50010e-17
4015.49832 1.95402e-17
4016.99596 2.03493e-17
4018.50378 7.68302e-18
4020.00142 5.68107e-18
4021.49905 2.02077e-17
4022.99669 1.92157e-17
4024.50451 1.01238e-17
4026.00215 1.56995e-17
4027.49978 1.35496e-17
4028.99742 1.48926e-17
4030.49506 1.97873e-17
4032.00288 1.50079e-17
4033.50052 9.08123e-18
4034.99815 1.32331e-17
4036.49579 6.46594e-18
4038.00361 1.28261e-17
4039.50125 2.20285e-17
4040.99888 7.78105e-18
4042.49652 5.61711e-18
4044.00434 1.55685e-17
4045.50198 1.52277e-17
4046.99962 8.19241e-18
4048.49725 7.99086e-18
4049.99489 1.31436e-17
4051.50271 1.59183e-17
4053.00035 1.81832e-17
4054.49798 2.07801e-17
4055.99562 1.84168e-17
4057.50344 1.34840e-17
4059.00108 4.57151e-18
4060.49872 5.50379e-19
4061.99635 1.32925e-17
4063.50418 1.69020e-17
4065.00181 5.33827e-18
4066.49945 9.14485e-18
4067.99708 9.84545e-18
4069.50491 4.30931e-18
4071.00254 1.20811e-17
4072.50018 1.31060e-17
4073.99782 1.04009e-17
4075.49545 7.34710e-18
4077.00328 4.86075e-18
4078.50091 1.51227e-17
4079.99855 1.79856e-17
4081.49618 1.07866e-17
4083.00401 8.22706e-18
4084.50164 2.71546e-17
4085.99928 2.90941e-17
4087.49692 1.88873e-17
4089.00474 1.63465e-17
4090.50238 2.34013e-17
4092.00001 6.50225e-18
4093.49765 7.89934e-18
4094.99528 1.85113e-17
4096.50311 1.45965e-17
4098.00074 1.45619e-17
4099.49838 1.44609e-17
4100.99602 1.28874e-17
4102.50384 6.22801e-18
4104.00148 7.25107e-18
4105.49911 8.75825e-18
4106.99675 1.26851e-17
4108.50457 2.32586e-17
4110.00221 2.08993e-17
4111.49984 1.49552e-17
4112.99748 1.16445e-17
4114.49512 4.49129e-18
4116.00294 8.73628e-18
4117.50058 2.11270e-17
4118.99821 1.70443e-17
4120.49585 1.28422e-17
4122.00367 1.05823e-17
4123.50131 1.57420e-17
4124.99894 2.15107e-17
4126.49658 1.60470e-17
4128.00440 1.77341e-17
4129.50204 1.06302e-17
4130.99968 7.13427e-18
4132.49731 6.70071e-18
4133.99495 5.15750e-18
4135.50277 1.22714e-17
4137.00041 1.65623e-17
4138.49804 1.88038e-17
4139.99568 1.18735e-17
4141.50350 4.96240e-18
4143.00114 1.17194e-17
4144.49878 1.94657e-17
4145.99641 1.23158e-17
4147.50424 1.71612e-17
4149.00187 1.77314e-17
4150.49951 1.05217e-17
4151.99714 1.25339e-17
4153.49478 1.71295e-17
4155.00260 7.29577e-18
4156.50024 5.94762e-18
4157.99788 1.62143e-17
4159.49551 2.62000e-17
4161.00334 1.90458e-17
4162.50097 2.03611e-17
4163.99861 2.06962e-17
4165.49624 9.25772e-18
4167.00407 6.89201e-18
4168.50170 9.19853e-18
4169.99934 6.37455e-18
4171.49698 1.10362e-17
4173.00480 1.67332e-17
4174.50244 1.28549e-17
4176.00007 1.25130e-17
4177.49771 1.89417e-17
4178.99534 2.08710e-17
4180.50317 1.94838e-17
4182.00080 1.77294e-17
4183.49844 1.64799e-17
4184.99608 1.56797e-17
4186.50390 1.11902e-17
4188.00154 1.41451e-17
4189.49917 1.07935e-17
4190.99681 1.23351e-17
4192.50463 1.39768e-17
4194.00227 9.85180e-18
4195.49990 1.32633e-17
4196.99754 1.64907e-17
4198.49518 1.36797e-17
4200.00300 1.18623e-17
4201.50064 9.45089e-18
4202.99827 1.62171e-17
4204.49591 1.80763e-17
4206.00373 1.60088e-17
4207.50137 2.07944e-17
4208.99900 1.39528e-17
4210.49664 -2.38771e-18
4212.00446 1.47072e-17
4213.50210 1.57917e-17
4214.99974 9.79471e-18
4216.49737 8.47667e-18
4218.00520 8.63241e-18
4219.50283 9.54136e-18
4221.00047 1.25886e-17
4222.49810 1.54353e-17
4223.99574 1.46670e-17
4225.50356 2.12004e-17
4227.00120 1.92218e-17
4228.49884 1.41800e-17
4229.99647 1.31871e-17
4231.50430 1.51755e-17
4233.00193 1.65303e-17
4234.49957 1.79460e-17
4235.99720 1.83826e-17
4237.50503 1.46632e-17
4239.00266 9.78562e-18
4240.50030 1.14387e-17
4241.99794 1.60486e-17
4243.49557 1.28969e-17
4245.00340 1.43886e-17
4246.50103 1.70712e-17
4247.99867 2.00809e-17
4249.49630 1.58993e-17
4251.00413 1.05645e-17
4252.50176 1.11406e-17
4253.99940 1.40171e-17
4255.49704 1.44467e-17
4257.00486 7.45127e-18
4258.50250 4.49955e-18
4260.00013 1.01261e-17
4261.49777 8.49252e-18
4262.99540 1.09311e-17
4264.50323 1.63663e-17
4266.00086 1.76801e-17
4267.49850 2.56357e-17
4268.99614 2.47122e-17
4270.50396 1.88917e-17
4272.00160 1.53275e-17
4273.49923 1.39574e-17
4274.99687 1.71613e-17
4276.50469 1.62087e-17
4278.00233 1.22938e-17
4279.49996 1.25833e-17
4280.99760 8.66028e-18
4282.49524 1.34177e-17
4284.00306 1.44362e-17
4285.50070 1.13642e-17
4286.99833 1.45712e-17
4288.49597 1.16094e-17
4290.00379 4.04408e-18
4291.50143 9.36831e-18
4292.99906 8.56843e-18
4294.49670 7.29983e-18
4296.00452 5.54121e-18
4297.50216 8.18660e-18
4298.99980 1.68086e-17
4300.49743 1.71892e-17
4301.99507 1.18869e-17
4303.50289 7.95612e-18
4305.00053 1.13084e-17
4306.49816 8.51098e-18
4307.99580 6.55938e-18
4309.50362 1.43526e-17
4311.00126 2.39925e-17
4312.49890 2.26617e-17
4313.99653 1.56316e-17
4315.50436 1.27963e-17
4317.00199 1.52508e-17
4318.49963 1.09261e-17
4319.99726 9.34282e-18
4321.49490 9.95908e-18
4323.00272 1.63959e-17
4324.50036 2.16434e-17
4325.99800 1.33742e-17
4327.49563 1.08111e-17
4329.00346 1.64445e-17
4330.50109 1.61311e-17
4331.99873 1.36477e-17
4333.49636 9.62178e-18
4335.00419 8.88641e-18
4336.50182 1.23279e-17
4337.99946 8.32133e-18
4339.49710 1.19157e-17
4341.00492 8.25283e-18
4342.50256 1.24240e-17
4344.00019 1.81468e-17
4345.49783 1.39325e-17
4346.99546 1.41420e-17
4348.50329 1.40839e-17
4350.00092 1.13057e-17
4351.49856 1.45587e-17
4352.99620 6.21157e-18
4354.50402 8.42668e-18
4356.00166 1.29870e-17
4357.49929 7.49731e-18
4358.99693 1.62028e-17
4360.50475 1.05990e-17
4362.00239 1.29990e-17
4363.50002 2.01420e-17
4364.99766 1.43582e-17
4366.49530 1.40082e-17
4368.00312 9.39232e-18
4369.50076 1.40249e-17
4370.99839 9.88369e-18
4372.49603 6.60354e-18
4374.00385 1.09239e-17
4375.50149 1.13941e-17
4376.99912 2.00470e-17
4378.49676 2.07191e-17
4380.00458 1.61101e-17
4381.50222 1.55249e-17
4382.99986 1.35349e-17
4384.49749 1.02354e-17
4385.99513 1.08182e-17
4387.50295 1.05602e-17
4389.00059 7.00080e-18
4390.49822 6.90473e-18
4391.99586 1.00093e-17
4393.50368 1.30775e-17
4395.00132 5.37019e-18
4396.49896 6.29532e-18
4397.99659 1.30101e-17
4399.50442 1.28563e-17
4401.00205 1.08050e-17
4402.49969 1.20896e-17
4403.99732 1.16735e-17
4405.50515 8.13757e-18
4407.00278 9.14285e-18
4408.50042 8.80107e-18
4409.99806 1.42334e-17
4411.49569 1.12787e-17
4413.00352 4.59428e-18
4414.50115 1.84509e-18
4415.99879 2.17364e-18
4417.49642 2.50204e-18
4419.00425 2.83040e-18
4420.50188 3.15884e-18
4421.99952 3.48714e-18
4423.49716 3.81540e-18
4425.00498 4.14373e-18
4426.50262 4.47192e-18
4428.00025 4.80007e-18
4429.49789 5.12830e-18
4430.99552 5.45638e-18
4432.50335 5.78443e-18
4434.00098 6.11244e-18
4435.49862 6.44052e-18
4436.99626 6.76846e-18
4438.50408 7.09637e-18
4440.00172 7.42434e-18
4441.49935 7.75217e-18
4442.99699 8.07997e-18
4444.50481 8.40784e-18
4446.00245 8.73556e-18
4447.50008 9.06325e-18
4448.99772 9.39101e-18
4450.49536 9.71862e-18
4452.00318 1.00462e-17
4453.50082 1.03739e-17
4454.99845 1.07014e-17
4456.49609 1.10288e-17
4458.00391 1.13563e-17
4459.50155 1.16838e-17
4460.99918 1.20111e-17
4462.49682 1.23385e-17
4464.00464 1.26659e-17
4465.50228 1.29931e-17
4466.99992 1.33203e-17
4468.49755 1.36476e-17
4469.99519 1.39748e-17
4471.50301 1.43019e-17
4473.00065 1.46291e-17
4474.49828 1.49561e-17
4475.99592 1.52831e-17
4477.50374 1.82627e-17
4479.00138 1.17565e-17
4480.49902 1.06258e-17
4481.99665 1.25160e-17
4483.50448 1.70551e-17
4485.00211 1.57470e-17
4486.49975 1.05270e-17
4487.99738 1.00580e-17
4489.49502 1.42806e-17
4491.00284 1.53149e-17
4492.50048 1.89027e-17
4493.99812 1.94301e-17
4495.49575 1.14622e-17
4497.00358 1.03153e-17
4498.50121 1.17574e-17
4499.99885 1.04913e-17
4501.49648 1.47870e-17
4503.00431 1.31978e-17
4504.50194 1.22673e-17
4505.99958 1.13370e-17
4507.49722 1.04067e-17
4508.99485 9.47660e-18
4510.50268 8.54655e-18
4512.00031 8.54607e-18
4513.49795 8.93614e-18
4514.99558 9.42249e-18
4516.50341 1.25608e-17
4518.00104 1.34961e-17
4519.49868 1.29353e-17
4520.99632 1.54487e-17
4522.50414 8.70132e-18
4524.00178 5.93317e-18
4525.49941 9.91358e-18
4526.99705 1.43644e-17
4528.50487 1.54268e-17
4530.00251 1.09046e-17
4531.50014 1.25910e-17
4532.99778 1.49032e-17
4534.49542 1.16921e-17
4536.00324 1.13411e-17
4537.50088 1.41494e-17
4538.99851 1.19644e-17
4540.49615 1.21193e-17
4542.00397 1.42308e-17
4543.50161 1.28419e-17
4544.99924 1.73240e-17
4546.49688 1.89201e-17
4548.00470 1.29106e-17
4549.50234 1.06330e-17
4550.99998 1.70188e-17
4552.49761 1.62223e-17
4553.99525 1.07120e-17
4555.50307 1.17662e-17
4557.00071 1.33161e-17
4558.49834 1.51141e-17
4559.99598 1.79731e-17
4561.50380 2.08458e-17
4563.00144 1.34380e-17
4564.49908 1.30352e-17
4565.99671 1.77738e-17
4567.50454 1.86840e-17
4569.00217 1.05612e-17
4570.49981 1.00522e-17
4571.99744 1.13485e-17
4573.49508 1.74384e-17
4575.00290 1.23636e-17
4576.50054 1.56410e-17
4577.99818 1.50902e-17
4579.49581 1.55268e-17
4581.00364 1.49111e-17
4582.50127 1.66856e-17
4583.99891 1.60396e-17
4585.49654 2.00286e-17
4587.00437 1.36884e-17
4588.50200 1.00533e-17
4589.99964 1.38110e-17
4591.49728 1.50357e-17
4593.00510 1.05774e-17
4594.50274 1.59362e-17
4596.00037 1.84502e-17
4597.49801 1.44575e-17
4598.99564 1.26556e-17
4600.50347 1.20755e-17
4602.00110 1.34486e-17
4603.49874 1.36108e-17
4604.99638 1.64467e-17
4606.50420 1.74081e-17
4608.00184 1.63992e-17
4609.49947 1.76720e-17
4610.99711 1.59893e-17
4612.50493 1.50347e-17
4614.00257 1.56272e-17
4615.50020 1.80169e-17
4616.99784 1.55022e-17
4618.49548 1.49053e-17
4620.00330 1.49232e-17
4621.50094 1.58429e-17
4622.99857 1.48332e-17
4624.49621 1.46307e-17
4626.00403 1.45529e-17
4627.50167 1.38401e-17
4628.99930 1.32820e-17
4630.49694 1.69475e-17
4632.00476 1.49706e-17
4633.50240 1.35085e-17
4635.00004 1.22139e-17
4636.49767 2.21063e-17
4637.99531 1.54514e-17
4639.50313 1.75640e-17
4641.00077 1.62169e-17
4642.49840 1.34941e-17
4643.99604 1.40406e-17
4645.50386 1.06219e-17
4647.00150 1.32220e-17
4648.49914 1.59477e-17
4649.99677 1.94766e-17
4651.50460 2.21981e-17
4653.00223 1.88448e-17
4654.49987 1.61107e-17
4655.99750 1.45646e-17
4657.49514 1.82292e-17
4659.00296 1.89382e-17
4660.50060 1.37601e-17
4661.99824 1.59476e-17
4663.49587 2.04545e-17
4665.00370 1.96111e-17
4666.50133 1.86500e-17
4667.99897 1.66291e-17
4669.49660 1.61757e-17
4671.00443 1.33947e-17
4672.50206 1.07256e-17
4673.99970 1.05368e-17
4675.49734 1.13965e-17
4676.99497 1.26110e-17
4678.50280 1.55987e-17
4680.00043 1.38580e-17
4681.49807 1.44396e-17
4682.99570 1.75895e-17
4684.50353 1.77851e-17
4686.00116 1.70640e-17
4687.49880 1.44196e-17
4688.99644 1.76229e-17
4690.50426 2.33774e-17
4692.00190 1.22667e-17
4693.49953 1.22725e-17
4694.99717 1.43550e-17
4696.49480 1.73605e-17
4698.00263 1.75343e-17
4699.50026 1.45112e-17
4700.99790 1.48905e-17
4702.49554 1.73556e-17
4704.00336 1.15265e-17
4705.50100 1.13939e-17
4706.99863 1.03019e-17
4708.49627 1.54330e-17
4710.00409 1.41946e-17
4711.50173 1.59617e-17
4712.99936 1.44200e-17
4714.49700 8.58148e-18
4716.00482 1.32442e-17
4717.50246 1.23585e-17
4719.00010 1.09479e-17
4720.49773 1.28067e-17
4721.99537 1.73955e-17
4723.50319 1.49223e-17
4725.00083 1.42995e-17
4726.49846 1.28698e-17
4727.99610 1.01942e-17
4729.50392 1.37293e-17
4731.00156 1.35466e-17
4732.49920 1.27920e-17
4733.99683 1.61097e-17
4735.50466 1.71298e-17
4737.00229 1.68844e-17
4738.49993 1.36602e-17
4739.99756 7.37213e-18
4741.49520 1.14281e-17
4743.00302 1.81084e-17
4744.50066 1.38131e-17
4745.99830 1.04313e-17
4747.49593 1.30234e-17
4749.00376 1.63976e-17
4750.50139 1.81658e-17
4751.99903 1.54681e-17
4753.49666 1.20324e-17
4755.00449 1.26127e-17
4756.50212 9.87108e-18
4757.99976 8.86492e-18
4759.49740 7.34228e-18
4761.00522 7.27036e-18
4762.50286 1.18722e-17
4764.00049 1.26592e-17
4765.49813 7.80192e-18
4766.99576 9.96733e-18
4768.50359 1.44026e-17
4770.00122 1.05540e-17
4771.49886 8.09004e-18
4772.99650 1.00664e-17
4774.50432 1.55961e-17
4776.00196 1.72707e-17
4777.49959 1.36891e-17
4778.99723 1.57933e-17
4780.50505 1.36756e-17
4782.00269 9.06632e-18
4783.50032 8.78162e-18
4784.99796 1.19232e-17
4786.49560 1.20550e-17
4788.00342 9.25693e-18
4789.50106 9.20312e-18
4790.99869 1.25013e-17
4792.49633 1.30093e-17
4794.00415 1.11394e-17
4795.50179 8.54608e-18
4796.99942 1.17170e-17
4798.49706 1.42625e-17
4800.00488 1.27995e-17
4801.50252 1.09038e-17
4803.00016 6.67181e-18
4804.49779 8.00578e-18
4805.99543 1.23198e-17
4807.50325 1.38473e-17
4809.00089 1.15780e-17
4810.49852 1.08202e-17
4811.99616 1.39457e-17
4813.50398 1.23712e-17
4815.00162 7.57203e-18
4816.49926 7.44139e-18
4817.99689 1.17424e-17
4819.50472 1.01750e-17
4821.00235 5.22449e-18
4822.49999 1.08858e-17
4823.99762 1.62261e-17
4825.49526 1.23523e-17
4827.00308 1.16672e-17
4828.50072 1.51775e-17
4829.99836 1.37292e-17
4831.49599 9.21833e-18
4833.00382 9.35953e-18
4834.50145 9.29610e-18
4835.99909 1.24931e-17
4837.49672 1.59889e-17
4839.00455 1.83526e-17
4840.50218 1.68569e-17
4841.99982 1.31843e-17
4843.49746 1.08090e-17
4844.99509 1.10103e-17
4846.50292 1.41513e-17
4848.00055 1.62253e-17
4849.49819 1.25592e-17
4850.99582 8.47513e-18
4852.50365 1.07434e-17
4854.00128 1.18300e-17
4855.49892 1.51579e-17
4856.99656 1.41989e-17
4858.50438 1.07481e-17
4860.00202 1.13832e-17
4861.49965 1.07438e-17
4862.99729 5.74673e-18
4864.49492 1.32903e-17
4866.00275 1.62610e-17
4867.50038 1.28810e-17
4868.99802 1.23709e-17
4870.49566 1.04022e-17
4872.00348 7.43347e-18
4873.50112 8.02239e-18
4874.99875 1.10481e-17
4876.49639 1.47272e-17
4878.00421 1.59917e-17
4879.50185 1.24943e-17
4880.99948 1.32465e-17
4882.49712 1.51708e-17
4884.00494 1.42776e-17
4885.50258 1.43466e-17
4887.00022 1.30694e-17
4888.49785 1.47736e-17
4889.99549 1.40887e-17
4891.50331 8.69146e-18
4893.00095 6.92143e-18
4894.49858 8.95727e-18
4895.99622 6.64075e-18
4897.50404 2.68418e-18
4899.00168 5.74407e-18
4900.49932 9.02173e-18
4901.99695 9.90322e-18
4903.50478 1.02561e-17
4905.00241 1.48229e-17
4906.50005 1.19618e-17
4907.99768 9.40657e-18
4909.49532 1.16757e-17
4911.00314 1.24044e-17
4912.50078 8.76087e-18
4913.99842 9.75035e-18
4915.49605 9.55119e-18
4917.00388 1.62517e-17
4918.50151 1.42221e-17
4919.99915 1.06158e-17
4921.49678 1.27286e-17
4923.00461 1.09488e-17
4924.50224 8.36464e-18
4925.99988 9.68011e-18
4927.49752 1.60156e-17
4928.99515 1.37633e-17
4930.50298 1.18880e-17
4932.00061 1.30457e-17
4933.49825 1.20609e-17
4934.99588 1.21019e-17
4936.50371 1.21430e-17
4938.00134 1.21841e-17
4939.49898 1.22252e-17
4940.99662 1.22662e-17
4942.50444 1.23073e-17
4944.00208 1.23483e-17
4945.49971 1.23894e-17
4946.99735 1.24304e-17
4948.50517 1.24715e-17
4950.00281 1.25125e-17
4951.50044 1.25535e-17
4952.99808 1.25945e-17
4954.49572 1.26356e-17
4956.00354 1.26766e-17
4957.50118 1.27176e-17
4958.99881 1.27586e-17
4960.49645 1.27996e-17
4962.00427 1.28406e-17
4963.50191 1.28816e-17
4964.99954 1.29225e-17
4966.49718 1.29635e-17
4968.00500 1.30045e-17
4969.50264 1.30455e-17
4971.00028 1.30864e-17
4972.49791 1.31274e-17
4973.99555 1.41316e-17
4975.50337 1.61748e-17
4977.00101 1.12596e-17
4978.49864 9.40265e-18
4979.99628 1.13180e-17
4981.50410 1.08382e-17
4983.00174 1.37539e-17
4984.49938 1.54651e-17
4985.99701 1.14675e-17
4987.50484 1.52111e-17
4989.00247 1.84324e-17
4990.50011 1.39381e-17
4991.99774 9.52966e-18
4993.49538 1.86749e-17
4995.00320 1.45174e-17
4996.50084 1.51236e-17
4997.99848 1.34908e-17
4999.49611 1.00689e-17
5001.00394 1.03162e-17
5002.50157 1.38739e-17
5003.99921 1.21124e-17
5005.49684 1.08541e-17
5007.00467 9.40192e-18
5008.50230 1.16451e-17
5009.99994 1.24580e-17
5011.49758 1.30925e-17
5012.99521 1.34960e-17
5014.50304 9.24427e-18
5016.00067 1.06120e-17
5017.49831 1.32585e-17
5018.99594 1.46644e-17
5020.50377 1.46317e-17
5022.00140 9.27526e-18
5023.49904 1.24835e-17
5024.99668 1.52733e-17
5026.50450 1.13910e-17
5028.00214 7.55766e-18
5029.49977 6.01513e-18
5030.99741 1.10945e-17
5032.49504 1.41836e-17
5034.00287 1.40046e-17
5035.50050 1.38256e-17
5036.99814 1.36467e-17
5038.49578 1.34678e-17
5040.00360 1.32889e-17
5041.50124 1.31100e-17
5042.99887 1.29312e-17
5044.49651 1.27523e-17
5046.00433 1.25735e-17
5047.50197 1.23947e-17
5048.99960 1.22160e-17
5050.49724 1.20372e-17
5051.99488 1.18584e-17
5053.50270 1.16798e-17
5055.00034 1.15010e-17
5056.49797 1.13224e-17
5057.99561 1.11437e-17
5059.50343 1.09651e-17
5061.00107 1.07865e-17
5062.49870 1.06079e-17
5063.99634 1.04293e-17
5065.50416 1.02508e-17
5067.00180 1.00723e-17
5068.49944 9.89380e-18
5069.99707 9.71528e-18
5071.50490 9.53684e-18
5073.00253 6.98884e-18
5074.50017 1.08589e-17
5075.99780 1.60952e-17
5077.49544 1.51455e-17
5079.00326 1.66952e-17
5080.50090 1.43813e-17
5081.99854 1.39834e-17
5083.49617 1.38336e-17
5085.00400 1.36839e-17
5086.50163 1.35343e-17
5087.99927 1.33846e-17
5089.49690 1.32349e-17
5091.00473 1.30853e-17
5092.50236 1.29357e-17
5094.00000 1.27861e-17
5095.49764 1.26365e-17
5096.99527 1.24870e-17
5098.50310 1.23374e-17
5100.00073 1.21879e-17
5101.49837 1.20384e-17
5102.99600 1.18889e-17
5104.50383 1.17394e-17
5106.00146 1.15900e-17
5107.49910 1.14405e-17
5108.99674 1.12911e-17
5110.50456 1.11417e-17
5112.00220 1.09923e-17
5113.49983 1.08429e-17
5114.99747 1.06936e-17
5116.49510 1.05442e-17
5118.00293 1.03949e-17
5119.50056 1.02456e-17
5120.99820 1.02356e-17
5122.49584 1.04275e-17
5124.00366 1.40305e-17
5125.50130 1.24136e-17
5126.99893 1.11820e-17
5128.49657 1.09568e-17
5130.00439 1.12171e-17
5131.50203 9.96749e-18
5132.99966 9.40568e-18
5134.49730 7.66655e-18
5136.00512 1.20240e-17
5137.50276 1.06694e-17
5139.00040 1.36764e-17
5140.49803 1.71444e-17
5141.99567 1.58252e-17
5143.50349 1.56010e-17
5145.00113 1.44062e-17
5146.49876 1.35972e-17
5147.99640 1.56858e-17
5149.50422 1.43282e-17
5151.00186 7.22874e-18
5152.49950 5.69607e-18
5153.99713 9.97611e-18
5155.50496 1.29204e-17
5157.00259 8.55887e-18
5158.50023 7.49934e-18
5159.99786 9.86767e-18
5161.49550 1.13400e-17
5163.00332 9.03825e-18
5164.50096 8.01019e-18
5165.99860 1.05568e-17
5167.49623 1.29607e-17
5169.00406 1.08483e-17
5170.50169 9.94875e-18
5171.99933 1.25441e-17
5173.49696 1.05091e-17
5175.00479 8.68171e-18
5176.50242 1.04651e-17
5178.00006 1.46495e-17
5179.49770 1.57557e-17
5180.99533 1.34393e-17
5182.50316 1.18961e-17
5184.00079 1.04864e-17
5185.49843 1.52761e-17
5186.99606 8.98562e-18
5188.50389 1.06022e-17
5190.00152 1.17825e-17
5191.49916 1.11011e-17
5192.99680 1.31641e-17
5194.50462 8.74792e-18
5196.00226 1.30765e-17
5197.49989 1.19333e-17
5198.99753 9.99417e-18
5200.49516 1.39768e-17
5202.00299 1.22393e-17
5203.50062 1.37190e-17
5204.99826 1.05510e-17
5206.49590 1.29464e-17
5208.00372 1.26585e-17
5209.50136 8.88124e-18
5210.99899 8.86155e-18
5212.49663 1.31475e-17
5214.00445 1.16771e-17
5215.50209 1.00025e-17
5216.99972 9.10499e-18
5218.49736 1.25556e-17
5219.99500 1.15768e-17
5221.50282 1.27382e-17
5223.00046 1.18160e-17
5224.49809 1.08897e-17
5225.99573 1.31549e-17
5227.50355 1.32860e-17
5229.00119 9.22769e-18
5230.49882 9.20596e-18
5231.99646 1.05410e-17
5233.50428 6.81053e-18
5235.00192 7.63158e-18
5236.49956 1.02192e-17
5237.99719 1.22471e-17
5239.49483 1.18202e-17
5241.00265 1.09469e-17
5242.50029 1.10097e-17
5243.99792 1.35820e-17
5245.49556 1.58725e-17
5247.00338 1.56767e-17
5248.50102 1.41269e-17
5249.99866 1.78000e-17
5251.49629 1.59622e-17
5253.00412 1.43822e-17
5254.50175 7.45720e-18
5255.99939 1.06831e-17
5257.49702 1.35187e-17
5259.00485 1.31526e-17
5260.50248 1.42999e-17
5262.00012 1.21914e-17
5263.49776 1.29409e-17
5264.99539 9.45742e-18
5266.50322 1.19762e-17
5268.00085 1.36146e-17
5269.49849 1.32633e-17
5270.99612 1.51024e-17
5272.50395 1.27937e-17
5274.00158 1.42054e-17
5275.49922 1.24942e-17
5276.99686 1.13705e-17
5278.50468 1.27099e-17
5280.00232 1.53966e-17
5281.49995 1.46783e-17
5282.99759 1.48822e-17
5284.49522 1.52406e-17
5286.00305 1.33632e-17
5287.50068 1.39991e-17
5288.99832 1.34276e-17
5290.49596 1.75828e-17
5292.00378 1.88361e-17
5293.50142 1.43602e-17
5294.99905 1.14227e-17
5296.49669 9.73678e-18
5298.00451 1.32289e-17
5299.50215 1.75244e-17
5300.99978 1.38670e-17
5302.49742 1.17209e-17
5303.99506 1.31129e-17
5305.50288 1.02590e-17
5307.00052 1.24505e-17
5308.49815 1.69549e-17
5309.99579 1.17283e-17
5311.50361 1.02996e-17
5313.00125 1.07526e-17
5314.49888 1.60179e-17
5315.99652 1.72878e-17
5317.50434 1.51946e-17
5319.00198 1.53538e-17
5320.49962 1.61782e-17
5321.99725 1.48969e-17
5323.50508 1.46322e-17
5325.00271 1.28146e-17
5326.50035 1.42708e-17
5327.99798 1.88503e-17
5329.49562 1.58394e-17
5331.00344 7.61323e-18
5332.50108 1.24895e-17
5333.99872 1.81841e-17
5335.49635 1.05387e-17
5337.00418 1.16558e-17
5338.50181 1.46270e-17
5339.99945 1.82318e-17
5341.49708 1.77783e-17
5343.00491 1.50102e-17
5344.50254 1.25559e-17
5346.00018 9.17449e-18
5347.49782 1.35680e-17
5348.99545 1.43161e-17
5350.50328 1.28165e-17
5352.00091 1.30598e-17
5353.49855 1.20380e-17
5354.99618 1.24113e-17
5356.50401 1.27846e-17
5358.00164 1.31577e-17
5359.49928 1.35309e-17
5360.99692 1.39041e-17
5362.50474 1.42772e-17
5364.00238 1.46503e-17
5365.50001 1.46496e-17
5366.99765 1.53886e-17
5368.49528 1.08758e-17
5370.00311 1.01255e-17
5371.50074 1.57032e-17
5372.99838 1.65190e-17
5374.49602 1.23357e-17
5376.00384 1.09598e-17
5377.50148 1.14099e-17
5378.99911 1.66874e-17
5380.49675 1.64541e-17
5382.00457 1.37098e-17
5383.50221 1.19523e-17
5384.99984 1.31950e-17
5386.49748 1.60625e-17
5387.99512 1.27324e-17
5389.50294 1.19328e-17
5391.00058 1.39368e-17
5392.49821 1.66946e-17
5393.99585 1.73140e-17
5395.50367 1.45047e-17
5397.00131 1.67849e-17
5398.49894 1.63203e-17
5399.99658 1.15837e-17
5401.50440 1.24529e-17
5403.00204 1.35789e-17
5404.49968 1.64048e-17
5405.99731 1.86781e-17
5407.49495 1.23634e-17
5409.00277 9.74084e-18
5410.50041 1.32811e-17
5411.99804 1.37872e-17
5413.49568 1.43686e-17
5415.00350 1.17381e-17
5416.50114 1.23145e-17
5417.99878 1.71211e-17
5419.49641 1.39939e-17
5421.00424 1.27118e-17
5422.50187 1.68048e-17
5423.99951 1.76722e-17
5425.49714 1.43236e-17
5426.99478 1.16187e-17
5428.50260 1.22955e-17
5430.00024 1.46480e-17
5431.49788 1.54274e-17
5432.99551 1.22036e-17
5434.50334 1.24808e-17
5436.00097 1.74637e-17
5437.49861 1.81797e-17
5438.99624 1.61282e-17
5440.50407 1.65777e-17
5442.00170 1.50900e-17
5443.49934 1.36180e-17
5444.99698 1.70829e-17
5446.50480 1.86370e-17
5448.00244 1.41325e-17
5449.50007 1.45186e-17
5450.99771 1.62559e-17
5452.49534 1.72486e-17
5454.00317 1.80323e-17
5455.50080 1.68120e-17
5456.99844 1.22336e-17
5458.49608 1.52961e-17
5460.00390 1.54390e-17
5461.50154 1.26484e-17
5462.99917 1.37669e-17
5464.49681 1.27248e-17
5466.00463 1.18364e-17
5467.50227 1.31540e-17
5468.99990 1.31564e-17
5470.49754 1.35815e-17
5471.99518 1.31144e-17
5473.50300 1.48581e-17
5475.00064 1.79262e-17
5476.49827 1.37523e-17
5477.99591 1.47415e-17
5479.50373 1.14291e-17
5481.00137 1.26383e-17
5482.49900 1.53686e-17
5483.99664 1.59894e-17
5485.50446 2.10129e-17
5487.00210 1.73905e-17
5488.49974 1.87982e-17
5489.99737 1.78761e-17
5491.49501 1.50544e-17
5493.00283 1.48247e-17
5494.50047 1.55845e-17
5495.99810 1.63395e-17
5497.49574 1.28218e-17
5499.00356 1.15134e-17
5500.50120 1.24353e-17
5501.99884 1.36965e-17
5503.49647 1.77551e-17
5505.00430 1.89996e-17
5506.50193 1.85312e-17
5507.99957 1.47369e-17
5509.49720 9.10929e-18
5511.00503 1.22879e-17
5512.50266 1.58506e-17
5514.00030 1.64735e-17
5515.49794 1.69643e-17
5516.99557 1.38180e-17
5518.50340 1.52456e-17
5520.00103 1.72468e-17
5521.49867 1.67845e-17
5522.99630 1.53305e-17
5524.50413 1.38730e-17
5526.00176 1.88979e-17
5527.49940 2.05798e-17
5528.99704 1.70024e-17
5530.50486 1.44001e-17
5532.00250 1.43354e-17
5533.50013 1.76486e-17
5534.99777 1.67356e-17
5536.49540 1.80317e-17
5538.00323 1.55331e-17
5539.50086 1.31537e-17
5540.99850 1.37382e-17
5542.49614 2.14962e-17
5544.00396 1.62535e-17
5545.50160 1.59247e-17
5546.99923 1.68724e-17
5548.49687 1.54652e-17
5550.00469 1.63869e-17
5551.50233 1.31792e-17
5552.99996 1.33984e-17
5554.49760 1.69663e-17
5555.99524 1.31460e-17
5557.50306 1.50395e-17
5559.00070 1.23900e-17
5560.49833 1.43562e-17
5561.99597 1.79627e-17
5563.50379 2.01191e-17
5565.00143 1.68855e-17
5566.49906 1.29548e-17
5567.99670 1.84980e-17
5569.50452 1.51871e-17
5571.00216 1.11789e-17
5572.49980 1.44554e-17
5573.99743 1.65698e-17
5575.49507 1.38544e-17
5577.00289 1.05388e-17
5578.50053 1.40061e-17
5579.99816 1.55575e-17
5581.49580 1.44479e-17
5583.00362 1.59673e-17
5584.50126 1.62606e-17
5585.99890 1.39525e-17
5587.49653 1.07189e-17
5589.00436 1.06168e-17
5590.50199 1.59809e-17
5591.99963 1.88884e-17
5593.49726 1.73361e-17
5594.99490 1.79776e-17
5596.50272 1.84025e-17
5598.00036 1.49356e-17
5599.49800 1.42466e-17
5600.99563 1.39278e-17
5602.50346 1.03237e-17
5604.00109 1.40538e-17
5605.49873 1.30373e-17
5606.99636 1.44296e-17
5608.50419 1.45303e-17
5610.00182 8.92138e-18
5611.49946 1.19989e-17
5612.99710 1.35273e-17
5614.50492 1.13636e-17
5616.00256 9.84099e-18
5617.50019 1.27866e-17
5618.99783 1.07269e-17
5620.49546 8.39144e-18
5622.00329 1.22832e-17
5623.50092 1.25384e-17
5624.99856 1.70387e-17
5626.49620 1.78071e-17
5628.00402 1.39842e-17
5629.50166 1.45718e-17
5630.99929 1.19005e-17
5632.49693 1.13103e-17
5634.00475 1.21791e-17
5635.50239 1.26250e-17
5637.00002 1.34864e-17
5638.49766 1.45473e-17
5639.99530 1.34642e-17
5641.50312 1.23457e-17
5643.00076 1.41184e-17
5644.49839 1.50459e-17
5645.99603 1.46569e-17
5647.50385 1.01647e-17
5649.00149 8.34681e-18
5650.49912 1.10401e-17
5651.99676 1.16731e-17
5653.50458 1.13647e-17
5655.00222 1.26212e-17
5656.49986 1.49582e-17
5657.99749 1.42929e-17
5659.49513 1.03584e-17
5661.00295 6.75680e-18
5662.50059 7.13813e-18
5663.99822 8.89019e-18
5665.49586 8.56301e-18
5667.00368 1.18081e-17
5668.50132 1.23327e-17
5669.99896 9.26764e-18
5671.49659 1.07274e-17
5673.00442 1.25553e-17
5674.50205 1.23931e-17
5675.99969 1.11492e-17
5677.49732 1.14900e-17
5679.00515 1.22090e-17
5680.50278 1.11202e-17
5682.00042 1.40894e-17
5683.49806 1.49139e-17
5684.99569 9.48753e-18
5686.50352 1.08811e-17
5688.00115 1.17022e-17
5689.49879 7.79610e-18
5690.99642 8.60809e-18
5692.50425 9.09898e-18
5694.00188 9.76608e-18
5695.49952 1.12024e-17
5696.99716 1.11028e-17
5698.50498 1.36225e-17
5700.00262 1.04044e-17
5701.50025 5.68875e-18
5702.99789 7.01394e-18
5704.49552 1.22658e-17
5706.00335 1.26839e-17
5707.50098 9.49432e-18
5708.99862 7.99897e-18
5710.49626 7.90382e-18
5712.00408 1.03724e-17
5713.50172 1.37582e-17
5714.99935 1.20898e-17
5716.49699 1.12439e-17
5718.00481 9.10804e-18
5719.50245 6.07077e-18
5721.00008 1.00261e-17
5722.49772 1.38698e-17
5723.99536 1.31471e-17
5725.50318 1.08071e-17
5727.00082 1.02334e-17
5728.49845 1.21827e-17
5729.99609 1.29432e-17
5731.50391 1.12197e-17
5733.00155 1.08502e-17
5734.49918 7.83783e-18
5735.99682 6.08288e-18
5737.50464 7.50945e-18
5739.00228 1.09289e-17
5740.49992 1.32633e-17
5741.99755 1.14181e-17
5743.49519 8.45044e-18
5745.00301 1.31632e-17
5746.50065 1.39038e-17
5747.99828 1.21206e-17
5749.49592 7.66254e-18
5751.00374 8.88801e-18
5752.50138 8.37147e-18
5753.99902 1.15143e-17
5755.49665 9.61182e-18
5757.00448 1.09422e-17
5758.50211 1.33678e-17
5759.99975 1.18019e-17
5761.49738 7.32334e-18
5762.99502 6.93055e-18
5764.50284 1.12356e-17
5766.00048 8.11754e-18
5767.49812 8.95025e-18
5768.99575 8.55045e-18
5770.50358 1.05440e-17
5772.00121 1.37673e-17
5773.49885 1.10354e-17
5774.99648 7.35575e-18
5776.50431 8.10261e-18
5778.00194 5.83485e-18
5779.49958 8.35345e-18
5780.99722 1.39957e-17
5782.49485 1.12056e-17
5784.00268 9.06838e-18
5785.50031 1.28270e-17
5786.99795 1.34149e-17
5788.49558 9.51771e-18
5790.00341 1.06296e-17
5791.50104 9.81656e-18
5792.99868 8.59340e-18
5794.49632 1.25947e-17
5796.00414 1.16121e-17
5797.50178 1.00439e-17
5798.99941 1.05290e-17
5800.49705 9.54385e-18
5802.00487 1.15903e-17
5803.50251 1.16880e-17
5805.00014 1.05591e-17
5806.49778 1.08382e-17
5807.99542 1.15650e-17
5809.50324 8.82864e-18
5811.00088 8.37750e-18
5812.49851 1.36956e-17
5813.99615 9.42975e-18
5815.50397 5.64133e-18
5817.00161 9.28940e-18
5818.49924 1.03497e-17
5819.99688 8.80847e-18
5821.50470 1.03441e-17
5823.00234 1.08245e-17
5824.49998 1.25635e-17
5825.99761 1.02503e-17
5827.49525 9.78901e-18
5829.00307 1.21014e-17
5830.50071 1.35602e-17
5831.99834 1.10661e-17
5833.49598 1.16849e-17
5835.00380 9.42967e-18
5836.50144 7.01482e-18
5837.99908 6.51647e-18
5839.49671 5.96467e-18
5841.00454 1.15315e-17
5842.50217 1.38727e-17
5843.99981 1.15866e-17
5845.49744 1.43879e-17
5846.99508 1.49091e-17
5848.50290 1.51562e-17
5850.00054 1.63470e-17
5851.49818 1.43113e-17
5852.99581 1.24614e-17
5854.50364 1.03885e-17
5856.00127 1.06307e-17
5857.49891 1.15602e-17
5858.99654 1.30755e-17
5860.50437 1.58117e-17
5862.00200 1.21566e-17
5863.49964 9.79965e-18
5864.99728 1.46662e-17
5866.50510 9.74524e-18
5868.00274 6.70008e-18
5869.50037 1.20924e-17
5870.99801 1.37160e-17
5872.49564 1.17297e-17
5874.00347 1.04847e-17
5875.50110 1.00520e-17
5876.99874 9.42521e-18
5878.49638 1.08076e-17
5880.00420 1.53549e-17
5881.50184 1.02819e-17
5882.99947 8.45369e-18
5884.49711 1.26770e-17
5886.00493 9.54134e-18
5887.50257 7.74388e-18
5889.00020 5.45131e-18
5890.49784 1.25141e-17
5891.99548 1.57379e-17
5893.50330 1.19620e-17
5895.00094 1.51784e-17
5896.49857 1.31323e-17
5897.99621 1.11500e-17
5899.50403 9.96178e-18
5901.00167 8.48316e-18
5902.49930 1.13443e-17
5903.99694 1.09744e-17
5905.50476 9.31413e-18
5907.00240 1.11000e-17
5908.50004 1.49827e-17
5909.99767 1.45867e-17
5911.49531 1.12050e-17
5913.00313 1.13490e-17
5914.50077 1.02533e-17
5915.99840 1.00061e-17
5917.49604 9.64178e-18
5919.00386 7.55798e-18
5920.50150 8.36271e-18
5921.99914 9.48988e-18
5923.49677 1.21043e-17
5925.00460 1.68267e-17
5926.50223 1.53199e-17
5927.99987 1.49953e-17
5929.49750 1.71489e-17
5930.99514 1.15784e-17
5932.50296 7.99242e-18
5934.00060 4.75971e-18
5935.49824 9.54860e-18
5936.99587 1.26330e-17
5938.50370 1.00418e-17
5940.00133 1.07631e-17
5941.49897 8.88541e-18
5942.99660 3.79559e-18
5944.50443 8.92138e-18
5946.00206 1.39218e-17
5947.49970 1.34301e-17
5948.99734 1.23814e-17
5950.49497 1.65871e-17
5952.00280 1.70333e-17
5953.50043 1.12196e-17
5954.99807 1.10494e-17
5956.49570 1.10704e-17
5958.00353 1.10915e-17
5959.50116 1.11125e-17
5960.99880 1.11335e-17
5962.49644 1.11546e-17
5964.00426 1.11756e-17
5965.50190 1.11966e-17
5966.99953 1.12177e-17
5968.49717 1.12387e-17
5969.99480 1.12597e-17
5971.50263 1.12808e-17
5973.00026 1.13018e-17
5974.49790 1.13228e-17
5975.99554 1.13439e-17
5977.50336 1.13649e-17
5979.00100 1.13859e-17
5980.49863 1.14069e-17
5981.99627 1.14280e-17
5983.50409 1.14490e-17
5985.00173 1.14700e-17
5986.49936 1.14910e-17
5987.99700 1.15120e-17
5989.50482 1.15331e-17
5991.00246 1.15541e-17
5992.50010 1.15751e-17
5993.99773 1.15961e-17
5995.49537 1.16171e-17
5997.00319 1.16381e-17
5998.50083 1.16592e-17
5999.99846 1.16802e-17
6001.49610 1.17012e-17
6003.00392 1.17222e-17
6004.50156 1.17432e-17
6005.99920 1.17642e-17
6007.49683 1.17852e-17
6009.00466 1.18062e-17
6010.50229 1.18272e-17
6011.99993 1.18482e-17
6013.49756 1.18692e-17
6014.99520 1.18902e-17
6016.50302 1.19112e-17
6018.00066 1.19322e-17
6019.49830 1.46326e-17
6020.99593 9.54718e-18
6022.50376 1.43571e-17
6024.00139 1.46843e-17
6025.49903 9.19806e-18
6026.99666 1.10593e-17
6028.50449 1.13763e-17
6030.00212 1.30294e-17
6031.49976 9.14569e-18
6032.99740 1.03445e-17
6034.49503 7.73328e-18
6036.00286 1.27931e-17
6037.50049 1.12801e-17
6038.99813 1.31072e-17
6040.49576 1.23546e-17
6042.00359 1.19367e-17
6043.50122 7.62512e-18
6044.99886 5.64585e-18
6046.49650 6.00940e-18
6048.00432 7.75406e-18
6049.50196 8.04442e-18
6050.99959 1.04397e-17
6052.49723 1.39726e-17
6054.00505 1.19080e-17
6055.50269 1.11976e-17
6057.00032 1.12087e-17
6058.49796 1.00657e-17
6059.99560 8.96589e-18
6061.50342 9.38012e-18
6063.00106 9.08977e-18
6064.49869 4.79383e-18
6065.99633 5.45468e-18
6067.50415 9.87729e-18
6069.00179 1.33664e-17
6070.49942 1.18445e-17
6071.99706 8.45108e-18
6073.50488 1.19143e-17
6075.00252 1.40032e-17
6076.50016 1.30191e-17
6077.99779 1.53578e-17
6079.49543 1.19637e-17
6081.00325 1.16091e-17
6082.50089 1.67553e-17
6083.99852 1.49298e-17
6085.49616 1.19798e-17
6087.00398 1.06364e-17
6088.50162 8.28754e-18
6089.99926 7.95217e-18
6091.49689 1.02154e-17
6093.00472 1.00987e-17
6094.50235 7.16292e-18
6095.99999 1.32865e-17
6097.49762 1.46098e-17
6098.99526 8.94131e-18
6100.50308 1.28064e-17
6102.00072 1.27924e-17
6103.49836 1.30871e-17
6104.99599 1.68081e-17
6106.50382 1.43110e-17
6108.00145 9.28784e-18
6109.49909 8.79874e-18
6110.99672 1.25650e-17
6112.50455 1.40808e-17
6114.00218 1.15579e-17
6115.49982 9.45762e-18
6116.99746 1.06388e-17
6118.49509 1.30414e-17
6120.00292 1.44495e-17
6121.50055 1.55996e-17
6122.99819 1.24994e-17
6124.49582 1.12261e-17
6126.00365 1.29079e-17
6127.50128 1.24954e-17
6128.99892 1.02514e-17
6130.49656 1.09505e-17
6132.00438 1.03375e-17
6133.50202 1.04770e-17
6134.99965 8.91785e-18
6136.49729 9.86656e-18
6137.99492 1.43064e-17
6139.50275 1.41790e-17
6141.00038 1.07952e-17
6142.49802 1.19493e-17
6143.99566 1.40373e-17
6145.50348 1.18233e-17
6147.00112 1.05950e-17
6148.49875 1.51158e-17
6149.99639 1.43230e-17
6151.50421 1.11286e-17
6153.00185 9.39414e-18
6154.49948 1.29117e-17
6155.99712 1.09355e-17
6157.50494 1.14936e-17
6159.00258 1.38441e-17
6160.50022 8.32489e-18
6161.99785 1.02337e-17
6163.49549 1.10557e-17
6165.00331 1.04912e-17
6166.50095 7.55128e-18
6167.99858 1.16000e-17
6169.49622 1.24595e-17
6171.00404 1.24971e-17
6172.50168 1.07554e-17
6173.99932 1.26471e-17
6175.49695 1.26490e-17
6177.00478 1.06511e-17
6178.50241 1.60676e-17
6180.00005 1.52068e-17
6181.49768 1.07602e-17
6182.99532 1.20836e-17
6184.50314 1.21237e-17
6186.00078 1.30680e-17
6187.49842 1.22538e-17
6188.99605 1.03014e-17
6190.50388 8.21883e-18
6192.00151 8.71848e-18
6193.49915 1.41733e-17
6194.99678 1.56241e-17
6196.50461 1.10200e-17
6198.00224 9.11103e-18
6199.49988 1.28823e-17
6200.99752 1.19059e-17
6202.49515 1.06308e-17
6204.00298 1.11203e-17
6205.50061 1.25150e-17
6206.99825 1.32369e-17
6208.49588 1.13951e-17
6210.00371 1.19029e-17
6211.50134 1.07142e-17
6212.99898 9.38749e-18
6214.49662 1.05229e-17
6216.00444 1.04570e-17
6217.50208 9.84765e-18
6218.99971 9.11794e-18
6220.49735 9.10988e-18
6221.99498 1.03279e-17
6223.50281 1.11876e-17
6225.00044 1.41332e-17
6226.49808 1.08179e-17
6227.99572 7.96288e-18
6229.50354 1.24897e-17
6231.00118 1.32461e-17
6232.49881 8.26226e-18
6233.99645 5.80501e-18
6235.50427 7.41170e-18
6237.00191 7.74234e-18
6238.49954 7.47664e-18
6239.99718 1.04836e-17
6241.50500 1.58159e-17
6243.00264 1.18269e-17
6244.50028 1.03863e-17
6245.99791 1.02153e-17
6247.49555 1.07953e-17
6249.00337 1.08820e-17
6250.50101 1.20016e-17
6251.99864 1.26485e-17
6253.49628 1.20893e-17
6255.00410 7.67082e-18
6256.50174 6.73101e-18
6257.99938 9.76934e-18
6259.49701 1.30718e-17
6261.00484 1.35688e-17
6262.50247 1.10856e-17
6264.00011 9.73437e-18
6265.49774 8.29418e-18
6266.99538 1.12071e-17
6268.50320 1.19467e-17
6270.00084 8.59389e-18
6271.49848 8.74659e-18
6272.99611 9.39872e-18
6274.50394 9.95718e-18
6276.00157 1.13794e-17
6277.49921 1.17837e-17
6278.99684 9.44361e-18
6280.50467 9.19259e-18
6282.00230 8.90463e-18
6283.49994 9.00587e-18
6284.99758 9.41594e-18
6286.49521 9.92158e-18
6288.00304 1.20071e-17
6289.50067 1.23758e-17
6290.99831 1.22509e-17
6292.49594 1.23278e-17
6294.00377 1.01121e-17
6295.50140 1.06118e-17
6296.99904 1.11271e-17
6298.49668 9.10913e-18
6300.00450 1.22054e-17
6301.50214 1.31326e-17
6302.99977 1.15857e-17
6304.49741 8.94527e-18
6305.99504 1.24273e-17
6307.50287 1.45638e-17
6309.00050 1.05101e-17
6310.49814 9.83387e-18
6311.99578 7.72277e-18
6313.50360 1.00344e-17
6315.00124 8.77063e-18
6316.49887 7.23437e-18
6317.99651 1.29854e-17
6319.50433 9.96695e-18
6321.00197 6.95894e-18
6322.49960 4.17174e-18
6323.99724 8.96677e-18
6325.49488 1.30596e-17
6327.00270 1.05808e-17
6328.50034 1.14645e-17
6329.99797 9.63003e-18
6331.49561 8.29251e-18
6333.00343 1.03356e-17
6334.50107 1.10788e-17
6335.99870 1.11686e-17
6337.49634 1.21005e-17
6339.00416 1.07792e-17
6340.50180 9.96846e-18
6341.99944 8.45090e-18
6343.49707 9.92672e-18
6345.00490 1.09036e-17
6346.50253 9.84005e-18
6348.00017 1.03060e-17
6349.49780 1.13323e-17
6350.99544 1.11420e-17
6352.50326 8.32341e-18
6354.00090 9.06817e-18
6355.49854 9.96497e-18
6356.99617 8.75712e-18
6358.50400 7.83008e-18
6360.00163 1.13413e-17
6361.49927 1.11406e-17
6362.99690 8.91545e-18
6364.50473 4.39474e-18
6366.00236 1.04429e-17
6367.50000 4.96788e-18
6368.99764 6.54865e-18
6370.49527 9.66004e-18
6372.00310 1.08236e-17
6373.50073 1.61525e-17
6374.99837 1.27677e-17
6376.49600 1.15623e-17
6378.00383 1.28085e-17
6379.50146 1.56278e-17
6380.99910 1.28530e-17
6382.49674 9.91127e-18
6384.00456 1.09082e-17
6385.50220 6.78478e-18
6386.99983 7.12532e-18
6388.49747 8.84951e-18
6389.99510 1.30550e-17
6391.50293 1.18404e-17
6393.00056 1.28253e-17
6394.49820 9.04439e-18
6395.99584 9.64581e-18
6397.50366 1.16717e-17
6399.00130 8.48780e-18
6400.49893 8.35100e-18
6401.99657 1.14535e-17
6403.50439 1.21545e-17
6405.00203 1.12861e-17
6406.49966 1.01593e-17
6407.99730 6.92966e-18
6409.49494 6.32921e-18
6411.00276 1.08358e-17
6412.50040 1.31120e-17
6413.99803 8.41434e-18
6415.49567 7.00602e-18
6417.00349 8.81736e-18
6418.50113 1.11722e-17
6419.99876 1.43771e-17
6421.49640 1.39611e-17
6423.00422 1.16482e-17
6424.50186 1.29170e-17
6425.99950 1.33099e-17
6427.49713 1.25115e-17
6429.00496 7.21451e-18
6430.50259 8.48688e-18
6432.00023 1.16018e-17
6433.49786 1.02542e-17
6434.99550 1.06851e-17
6436.50332 1.09981e-17
6438.00096 1.26269e-17
6439.49860 1.09214e-17
6440.99623 1.08251e-17
6442.50406 1.36042e-17
6444.00169 1.08885e-17
6445.49933 1.03923e-17
6446.99696 8.09352e-18
6448.50479 1.14110e-17
6450.00242 1.03764e-17
6451.50006 9.60777e-18
6452.99770 1.22847e-17
6454.49533 1.08185e-17
6456.00316 1.11155e-17
6457.50079 8.71159e-18
6458.99843 7.83234e-18
6460.49606 7.30881e-18
6462.00389 1.18357e-17
6463.50152 1.43855e-17
6464.99916 1.26983e-17
6466.49680 1.04216e-17
6468.00462 1.04475e-17
6469.50226 1.22946e-17
6470.99989 1.15933e-17
6472.49753 1.09986e-17
6473.99516 1.31639e-17
6475.50299 1.17999e-17
6477.00062 8.59846e-18
6478.49826 9.20798e-18
6479.99590 1.09460e-17
6481.50372 1.38733e-17
6483.00136 1.27637e-17
6484.49899 9.89343e-18
6485.99663 1.23622e-17
6487.50445 1.31062e-17
6489.00209 9.72194e-18
6490.49972 9.52572e-18
6491.99736 1.12147e-17
6493.49500 1.27786e-17
6495.00282 1.34703e-17
6496.50046 1.04914e-17
6497.99809 8.92088e-18
6499.49573 8.50565e-18
6501.00355 8.49284e-18
6502.50119 1.14075e-17
6503.99882 1.12929e-17
6505.49646 1.39710e-17
6507.00428 1.24604e-17
6508.50192 9.52663e-18
6509.99956 1.11718e-17
6511.49719 1.43080e-17
6512.99483 1.18506e-17
6514.50265 1.30652e-17
6516.00029 1.46382e-17
6517.49792 1.23579e-17
6518.99556 9.61861e-18
6520.50338 1.21377e-17
6522.00102 1.39619e-17
6523.49866 1.42889e-17
6524.99629 1.49137e-17
6526.50412 1.21815e-17
6528.00175 1.46710e-17
6529.49939 1.02910e-17
6530.99702 1.14807e-17
6532.50485 1.27493e-17
6534.00248 8.84327e-18
6535.50012 7.42876e-18
6536.99776 1.25328e-17
6538.49539 1.56788e-17
6540.00322 1.05628e-17
6541.50085 1.15444e-17
6542.99849 1.15531e-17
6544.49612 1.14127e-17
6546.00395 1.25555e-17
6547.50158 1.01074e-17
6548.99922 1.31219e-17
6550.49686 1.22264e-17
6552.00468 1.31869e-17
6553.50232 1.32961e-17
6554.99995 1.35268e-17
6556.49759 1.60926e-17
6557.99522 1.47447e-17
6559.50305 1.26285e-17
6561.00068 1.09438e-17
6562.49832 1.25379e-17
6563.99596 1.21965e-17
6565.50378 1.40655e-17
6567.00142 1.30417e-17
6568.49905 1.30096e-17
6569.99669 1.15587e-17
6571.50451 1.33037e-17
6573.00215 9.97628e-18
6574.49978 1.22922e-17
6575.99742 1.17735e-17
6577.49506 1.51389e-17
6579.00288 1.10600e-17
6580.50052 1.25838e-17
6581.99815 1.32371e-17
6583.49579 1.06389e-17
6585.00361 1.07164e-17
6586.50125 1.01478e-17
6587.99888 9.60465e-18
6589.49652 8.40029e-18
6591.00434 1.06462e-17
6592.50198 1.04418e-17
6593.99962 1.21112e-17
6595.49725 1.19564e-17
6596.99489 1.02401e-17
6598.50271 7.70350e-18
6600.00035 9.78431e-18
6601.49798 1.15743e-17
6602.99562 1.20893e-17
6604.50344 1.11562e-17
6606.00108 1.53839e-17
6607.49872 1.58939e-17
6608.99635 1.10410e-17
6610.50418 8.28200e-18
6612.00181 9.05172e-18
6613.49945 1.14331e-17
6614.99708 1.19113e-17
6616.50491 1.01840e-17
6618.00254 1.04850e-17
6619.50018 1.02877e-17
6620.99782 1.14229e-17
6622.49545 1.00614e-17
6624.00328 7.24259e-18
6625.50091 9.69570e-18
6626.99855 1.15185e-17
6628.49618 9.59481e-18
6630.00401 7.41334e-18
6631.50164 1.00878e-17
6632.99928 1.24002e-17
6634.49692 1.01528e-17
6636.00474 8.96772e-18
6637.50238 8.44478e-18
6639.00001 8.41929e-18
6640.49765 5.21447e-18
6641.99528 5.01396e-18
6643.50311 8.80555e-18
6645.00074 1.29823e-17
6646.49838 1.25676e-17
6647.99602 9.16442e-18
6649.50384 7.97512e-18
6651.00148 7.77585e-18
6652.49911 6.33631e-18
6653.99675 6.42794e-18
6655.50457 6.51959e-18
6657.00221 6.61122e-18
6658.49984 6.70283e-18
6659.99748 6.79447e-18
6661.49512 6.88608e-18
6663.00294 6.97768e-18
6664.50058 7.06931e-18
6665.99821 7.16091e-18
6667.49585 7.25250e-18
6669.00367 7.34408e-18
6670.50131 7.43569e-18
6671.99894 7.52726e-18
6673.49658 7.61883e-18
6675.00440 7.71043e-18
6676.50204 7.80199e-18
6677.99968 7.89355e-18
6679.49731 7.98513e-18
6680.99495 8.07668e-18
6682.50277 8.16822e-18
6684.00041 8.25979e-18
6685.49804 8.35132e-18
6686.99568 8.44285e-18
6688.50350 8.53440e-18
6690.00114 8.62592e-18
6691.49878 8.54388e-18
6692.99641 8.46184e-18
6694.50424 8.37977e-18
6696.00187 8.29774e-18
6697.49951 8.21571e-18
6698.99714 8.13366e-18
6700.49478 8.05164e-18
6702.00260 7.96963e-18
6703.50024 7.88759e-18
6704.99788 7.80558e-18
6706.49551 7.72358e-18
6708.00334 7.64155e-18
6709.50097 7.55955e-18
6710.99861 7.47756e-18
6712.49624 7.39555e-18
6714.00407 7.31357e-18
6715.50170 7.23159e-18
6716.99934 7.14961e-18
6718.49698 7.06762e-18
6720.00480 6.98565e-18
6721.50244 6.90369e-18
6723.00007 6.82170e-18
6724.49771 6.73975e-18
6725.99534 6.65780e-18
6727.50317 9.43573e-18
6729.00080 1.08062e-17
6730.49844 8.95374e-18
6731.99608 8.99980e-18
6733.50390 9.00036e-18
6735.00154 7.22386e-18
6736.49917 1.15649e-17
6737.99681 9.39511e-18
6739.50463 5.60486e-18
6741.00227 7.10329e-18
6742.49990 8.85172e-18
6743.99754 1.14107e-17
6745.49518 9.73671e-18
6747.00300 3.82886e-18
6748.50064 4.51517e-18
6749.99827 9.50420e-18
6751.49591 8.10449e-18
6753.00373 8.80672e-18
6754.50137 8.74446e-18
6755.99900 8.67984e-18
6757.49664 7.05535e-18
6759.00446 7.93849e-18
6760.50210 8.71781e-18
6761.99974 9.29279e-18
6763.49737 8.63910e-18
6764.99501 7.04900e-18
6766.50283 6.13273e-18
6768.00047 7.71514e-18
6769.49810 9.51700e-18
6770.99574 5.63675e-18
6772.50356 5.83257e-18
6774.00120 1.12092e-17
6775.49884 1.08531e-17
6776.99647 7.40105e-18
6778.50430 1.01248e-17
6780.00193 9.21969e-18
6781.49957 8.25790e-18
6782.99720 7.52018e-18
6784.50503 5.11207e-18
6786.00266 8.23040e-18
6787.50030 8.52051e-18
6788.99794 8.88213e-18
6790.49557 9.35253e-18
6792.00340 7.78469e-18
6793.50103 1.20076e-17
6794.99867 8.20032e-18
6796.49630 6.46413e-18
6798.00413 1.25618e-17
6799.50176 9.49510e-18
6800.99940 6.40054e-18
6802.49704 5.61749e-18
6804.00486 6.36704e-18
6805.50250 1.12587e-17
6807.00013 8.84565e-18
6808.49777 6.56022e-18
6809.99540 6.09305e-18
6811.50323 9.47656e-18
6813.00086 5.58553e-18
6814.49850 3.85739e-18
6815.99614 7.53040e-18
6817.50396 9.16071e-18
6819.00160 8.52394e-18
6820.49923 6.61238e-18
6821.99687 4.80595e-18
6823.50469 3.36884e-18
6825.00233 3.53660e-18
6826.49996 3.70435e-18
6827.99760 3.87215e-18
6829.49524 4.03988e-18
6831.00306 4.20761e-18
6832.50070 4.37532e-18
6833.99833 4.54309e-18
6835.49597 4.71079e-18
6837.00379 4.87848e-18
6838.50143 5.04622e-18
6839.99906 5.25467e-18
6841.49670 5.46310e-18
6843.00452 5.67160e-18
6844.50216 5.88002e-18
6845.99980 6.08842e-18
6847.49743 6.29688e-18
6848.99507 6.50527e-18
6850.50289 6.71364e-18
6852.00053 6.92207e-18
6853.49816 7.13043e-18
6854.99580 7.33877e-18
6856.50362 7.54710e-18
6858.00126 7.75549e-18
6859.49890 7.96380e-18
6860.99653 8.17210e-18
6862.50436 8.38046e-18
6864.00199 8.58873e-18
6865.49963 8.79700e-18
6866.99726 9.00533e-18
6868.49490 9.21357e-18
6870.00272 9.42181e-18
6871.50036 9.63010e-18
6872.99800 9.83832e-18
6874.49563 1.00465e-17
6876.00346 1.02548e-17
6877.50109 5.01879e-18
6878.99873 5.59709e-18
6880.49636 4.89349e-18
6882.00419 6.83169e-18
6883.50182 1.08653e-17
6884.99946 9.32818e-18
6886.49710 1.01894e-17
6888.00492 1.19129e-17
6889.50256 8.43844e-18
6891.00019 7.39642e-18
6892.49783 7.61556e-18
6893.99546 7.44912e-18
6895.50329 9.01378e-18
6897.00092 6.39666e-18
6898.49856 2.95015e-18
6899.99620 6.63480e-18
6901.50402 9.59449e-18
6903.00166 1.24243e-17
6904.49929 1.18006e-17
6905.99693 6.89167e-18
6907.50475 7.32826e-18
6909.00239 6.88905e-18
6910.50002 4.55299e-18
6911.99766 1.02246e-17
6913.49530 1.43095e-17
6915.00312 1.04033e-17
6916.50076 6.54582e-18
6917.99839 7.27454e-18
6919.49603 7.49659e-18
6921.00385 9.49416e-18
6922.50149 1.55802e-17
6923.99912 1.01746e-17
6925.49676 2.43256e-18
6927.00458 4.29305e-18
6928.50222 5.51109e-18
6929.99986 4.78040e-18
6931.49749 7.00769e-18
6932.99513 1.00225e-17
6934.50295 8.33393e-18
6936.00059 6.55047e-18
6937.49822 7.95190e-18
6938.99586 5.43904e-18
6940.50368 3.03386e-18
6942.00132 7.80699e-18
6943.49896 8.63076e-18
6944.99659 4.83432e-18
6946.50442 9.15180e-18
6948.00205 1.04231e-17
6949.49969 6.54092e-18
6950.99732 6.91400e-18
6952.49496 6.53746e-18
6954.00278 6.61132e-18
6955.50042 7.37260e-18
6956.99806 5.36227e-18
6958.49569 3.58255e-18
6960.00352 6.63599e-18
6961.50115 8.03568e-18
6962.99879 6.76562e-18
6964.49642 5.44610e-18
6966.00425 5.43749e-18
6967.50188 6.03894e-18
6968.99952 7.81020e-18
6970.49716 1.33851e-17
6972.00498 1.12671e-17
6973.50262 7.52830e-18
6975.00025 5.64005e-18
6976.49789 4.96583e-18
6977.99552 8.76201e-18
6979.50335 9.13926e-18
6981.00098 5.13090e-18
6982.49862 5.60704e-18
6983.99626 5.75539e-18
6985.50408 5.70838e-18
6987.00172 6.06569e-18
6988.49935 9.70575e-18
6989.99699 9.42074e-18
6991.50481 9.73886e-18
6993.00245 7.41656e-18
6994.50008 6.82051e-18
6995.99772 9.68716e-18
6997.49536 8.00703e-18
6999.00318 9.06815e-18
7000.50082 9.69332e-18
7001.99845 7.59573e-18
7003.49609 2.29050e-19
7005.00391 -2.06344e-18
7006.50155 3.76170e-18
7007.99918 3.28946e-18
7009.49682 3.06744e-18
7011.00464 5.99852e-18
7012.50228 9.63654e-18
7013.99992 7.71351e-18
7015.49755 5.61525e-18
7016.99519 6.27546e-18
7018.50301 8.58352e-18
7020.00065 7.76554e-18
7021.49828 8.86918e-18
7022.99592 8.33364e-18
7024.50374 5.76278e-18
7026.00138 5.38521e-18
7027.49902 5.84318e-18
7028.99665 4.95242e-18
7030.50448 6.09069e-18
7032.00211 6.86863e-18
7033.49975 1.05891e-17
7034.99738 1.28809e-17
7036.49502 8.49472e-18
7038.00284 8.59562e-18
7039.50048 6.42397e-18
7040.99812 6.09523e-18
7042.49575 8.08673e-18
7044.00358 6.29461e-18
7045.50121 8.35049e-18
7046.99885 8.12595e-18
7048.49648 1.14398e-17
7050.00431 7.46968e-18
7051.50194 7.83887e-18
7052.99958 8.64140e-18
7054.49722 7.01271e-18
7055.99485 8.73192e-18
7057.50268 8.50310e-18
7059.00031 4.00808e-18
7060.49795 7.98753e-18
7061.99558 8.72122e-18
7063.50341 1.03263e-17
7065.00104 8.31639e-18
7066.49868 8.87469e-18
7067.99632 8.42808e-18
7069.50414 9.75605e-18
7071.00178 8.59676e-18
7072.49941 8.65401e-18
7073.99705 7.99993e-18
7075.50487 9.83194e-18
7077.00251 9.47789e-18
7078.50014 8.67137e-18
7079.99778 7.19882e-18
7081.49542 7.89667e-18
7083.00324 9.18672e-18
7084.50088 7.58867e-18
7085.99851 8.42553e-18
7087.49615 1.22271e-17
7089.00397 1.30409e-17
7090.50161 1.21825e-17
7091.99924 1.13227e-17
7093.49688 7.65063e-18
7095.00470 1.02095e-17
7096.50234 1.19675e-17
7097.99998 6.24668e-18
7099.49761 6.36187e-18
7100.99525 8.86718e-18
7102.50307 8.14314e-18
7104.00071 7.86452e-18
7105.49834 5.91691e-18
7106.99598 7.09427e-18
7108.50380 8.27157e-18
7110.00144 9.44880e-18
7111.49908 9.44855e-18
7112.99671 8.45746e-18
7114.50454 8.19416e-18
7116.00217 6.22191e-18
7117.49981 8.30145e-18
7118.99744 9.65264e-18
7120.49508 1.28431e-17
7122.00290 7.72969e-18
7123.50054 4.04303e-18
7124.99818 4.52221e-18
7126.49581 7.69274e-18
7128.00364 8.38969e-18
7129.50127 9.64703e-18
7130.99891 8.63573e-18
7132.49654 9.78382e-18
7134.00437 5.42432e-18
7135.50200 7.74746e-18
7136.99964 1.07021e-17
7138.49728 5.32329e-18
7139.99491 2.50138e-18
7141.50274 4.35956e-18
7143.00037 9.31697e-18
7144.49801 7.20729e-18
7145.99564 3.81855e-18
7147.50347 7.42057e-18
7149.00110 6.40834e-18
7150.49874 2.73344e-18
7151.99638 6.94018e-18
7153.50420 1.07833e-17
7155.00184 8.56814e-18
7156.49947 7.66114e-18
7157.99711 5.22107e-18
7159.50493 5.98911e-18
7161.00257 1.03008e-17
7162.50020 8.52161e-18
7163.99784 6.22059e-18
7165.49548 8.39693e-18
7167.00330 9.10022e-18
7168.50094 6.52462e-18
7169.99857 6.88194e-18
7171.49621 8.29853e-18
7173.00403 8.30629e-18
7174.50167 8.81900e-18
7175.99930 9.13423e-18
7177.49694 9.96094e-18
7179.00476 1.01011e-17
7180.50240 7.56206e-18
7182.00004 6.42068e-18
7183.49767 9.02129e-18
7184.99531 7.60041e-18
7186.50313 6.30689e-18
7188.00077 8.32444e-18
7189.49840 8.98864e-18
7190.99604 6.75479e-18
7192.50386 6.21278e-18
7194.00150 7.06717e-18
7195.49914 9.97241e-18
7196.99677 1.25440e-17
7198.50460 8.98416e-18
7200.00223 6.16129e-18
7201.49987 6.53766e-18
7202.99750 7.74163e-18
7204.49514 8.53063e-18
7206.00296 5.64998e-18
7207.50060 7.75596e-18
7208.99824 7.28498e-18
7210.49587 8.92759e-18
7212.00370 1.05451e-17
7213.50133 6.88581e-18
7214.99897 9.95700e-18
7216.49660 1.01436e-17
7218.00443 8.40104e-18
7219.50206 1.00583e-17
7220.99970 1.00637e-17
7222.49734 9.10233e-18
7223.99497 9.06057e-18
7225.50280 8.95188e-18
7227.00043 8.85460e-18
7228.49807 9.91826e-18
7229.99570 8.22810e-18
7231.50353 7.48344e-18
7233.00116 7.83919e-18
7234.49880 8.28389e-18
7235.99644 7.39791e-18
7237.50426 3.34236e-18
7239.00190 3.34823e-18
7240.49953 8.08993e-18
7241.99717 1.12730e-17
7243.49480 1.56521e-17
7245.00263 1.80592e-17
7246.50026 1.20534e-17
7247.99790 7.38888e-18
7249.49554 5.31003e-18
7251.00336 2.98954e-18
7252.50100 5.37062e-18
7253.99863 1.20055e-17
7255.49627 1.12427e-17
7257.00409 1.09325e-17
7258.50173 1.12778e-17
7259.99936 9.52073e-18
7261.49700 7.69192e-18
7263.00482 6.95848e-18
7264.50246 1.17110e-17
7266.00010 1.28074e-17
7267.49773 7.38030e-18
7268.99537 5.90918e-18
7270.50319 8.52827e-18
7272.00083 1.06289e-17
7273.49846 1.44968e-17
7274.99610 1.31112e-17
7276.50392 5.78676e-18
7278.00156 5.45455e-18
7279.49920 2.72621e-18
7280.99683 7.67064e-18
7282.50466 1.07941e-17
7284.00229 6.16083e-18
7285.49993 3.73847e-18
7286.99756 7.55948e-18
7288.49520 1.26605e-17
7290.00302 1.31294e-17
7291.50066 1.08280e-17
7292.99830 8.08124e-18
7294.49593 5.52769e-18
7296.00376 2.94461e-18
7297.50139 4.62510e-18
7298.99903 9.94879e-18
7300.49666 8.48893e-18
7302.00449 9.03358e-18
7303.50212 1.13421e-17
7304.99976 8.88458e-18
7306.49740 9.20829e-18
7307.99503 1.07575e-17
7309.50286 1.09898e-17
7311.00049 7.78114e-18
7312.49813 8.75386e-18
7313.99576 7.97076e-18
7315.50359 5.96167e-18
7317.00122 1.38784e-17
7318.49886 1.41081e-17
7319.99650 1.01788e-17
7321.50432 1.50875e-17
7323.00196 1.09461e-17
7324.49959 5.74709e-18
7325.99723 9.10811e-18
7327.49486 1.21631e-17
7329.00269 1.53858e-17
7330.50032 1.15202e-17
7331.99796 7.53961e-18
7333.49560 1.01766e-17
7335.00342 1.05937e-17
7336.50106 1.30235e-17
7337.99869 1.47678e-17
7339.49633 7.14398e-18
7341.00415 1.22794e-17
7342.50179 7.81950e-18
7343.99942 1.04959e-17
7345.49706 1.20757e-17
7347.00488 1.24968e-17
7348.50252 6.51275e-18
7350.00016 7.99725e-18
7351.49779 7.84904e-18
7352.99543 9.68766e-18
7354.50325 7.64250e-18
7356.00089 1.20934e-17
7357.49852 1.14767e-17
7358.99616 1.34458e-17
7360.50398 1.16622e-17
7362.00162 8.23614e-18
7363.49926 9.09880e-18
7364.99689 1.07274e-17
7366.50472 1.36809e-17
7368.00235 1.37299e-17
7369.49999 8.95446e-18
7370.99762 1.09331e-17
7372.49526 1.08251e-17
7374.00308 1.00663e-17
7375.50072 9.60829e-18
7376.99836 1.37449e-17
7378.49599 1.24338e-17
7380.00382 8.50510e-18
7381.50145 8.47126e-18
7382.99909 9.34312e-18
7384.49672 1.11824e-17
7386.00455 1.17636e-17
7387.50218 9.58545e-18
7388.99982 8.30046e-18
7390.49746 8.03618e-18
7391.99509 7.98171e-18
7393.50292 9.07784e-18
7395.00055 7.38422e-18
7396.49819 1.00407e-17
7397.99582 1.03374e-17
7399.50365 1.23254e-17
7401.00128 1.06038e-17
7402.49892 2.42277e-18
7403.99656 6.90518e-18
7405.50438 6.87208e-18
7407.00202 1.12350e-17
7408.49965 9.38647e-18
7409.99729 9.67572e-18
7411.49492 1.22773e-17
7413.00275 9.56438e-18
7414.50038 1.20017e-17
7415.99802 1.07488e-17
7417.49566 6.66166e-18
7419.00348 1.21664e-17
7420.50112 1.31189e-17
7421.99875 9.88622e-18
7423.49639 1.24204e-17
7425.00421 1.21108e-17
7426.50185 7.10584e-18
7427.99948 1.21611e-17
7429.49712 1.60565e-17
7431.00494 1.31394e-17
7432.50258 7.31919e-18
7434.00022 7.45949e-18
7435.49785 1.05966e-17
7436.99549 9.04506e-18
7438.50331 2.10108e-18
7440.00095 4.92760e-18
7441.49858 1.36687e-17
7442.99622 9.82524e-18
7444.50404 3.89837e-18
7446.00168 6.07618e-18
7447.49932 8.23019e-18
7448.99695 9.96051e-18
7450.50478 1.20348e-17
7452.00241 1.05413e-17
7453.50005 7.57064e-18
7454.99768 9.78226e-18
7456.49532 1.18843e-17
7458.00314 1.38342e-17
7459.50078 1.35906e-17
7460.99842 1.41864e-17
7462.49605 9.17838e-18
7464.00388 8.50298e-18
7465.50151 1.11645e-17
7466.99915 1.05964e-17
7468.49678 7.82687e-18
7470.00461 4.79533e-18
7471.50224 1.11295e-17
7472.99988 1.94540e-18
7474.49752 2.67213e-18
7475.99515 9.18761e-18
7477.50298 6.18712e-18
7479.00061 1.03329e-17
7480.49825 6.02306e-18
7481.99588 7.51226e-18
