# wavelength flux
3476.05391 -7.15833e-18
3480.27174 -4.58401e-18
3484.48957 5.04484e-18
3488.70740 1.21794e-17
3492.92524 -3.18615e-18
3497.14307 4.80450e-19
3501.36090 1.31056e-17
3505.57873 4.10366e-18
3509.79656 1.34318e-17
3514.01440 1.16597e-17
3518.23223 1.59236e-17
3522.45006 7.94193e-18
3526.66789 2.47137e-18
3530.88572 9.14129e-18
3535.10356 2.42640e-19
3539.32139 7.53564e-18
3543.53922 1.03983e-17
3547.75705 3.20285e-18
3551.97488 4.20134e-18
3556.19272 4.96224e-18
3560.41055 6.06615e-18
3564.62838 1.30626e-17
3568.84621 3.58824e-18
3573.06404 -4.15683e-19
3577.28188 3.00899e-18
3581.49971 -2.18274e-18
3585.71754 6.53471e-19
3589.93537 5.93587e-18
3594.15320 9.47917e-18
3598.37104 6.06500e-18
3602.58887 7.29170e-18
3606.80670 8.01630e-18
3611.02453 6.67696e-18
3615.24236 3.42916e-18
3619.46020 4.59817e-18
3623.67803 4.10175e-18
3627.89586 1.62133e-18
3632.11369 -2.52251e-19
3636.33152 7.86179e-18
3640.54936 9.98398e-18
3644.76719 7.53284e-18
3648.98502 4.89530e-18
3653.20285 4.44945e-18
3657.42068 3.40456e-18
3661.63852 6.44021e-18
3665.85635 9.43867e-18
3670.07418 1.01180e-17
3674.29201 8.16867e-18
3678.50984 4.73130e-18
3682.72768 7.44548e-18
3686.94551 9.34904e-18
3691.16334 8.93781e-18
3695.39136 8.66430e-18
3699.60919 8.33795e-18
3703.82702 7.47154e-18
3708.04486 7.96706e-18
3712.26269 8.01205e-18
3716.48052 1.01015e-17
3720.69835 1.17937e-17
3724.91618 1.36294e-17
3729.13402 9.95480e-18
3733.35185 9.06533e-18
3737.56968 9.24426e-18
3741.78751 8.05402e-18
3746.00534 8.46510e-18
3750.22318 6.52154e-18
3754.44101 8.78371e-18
3758.65884 9.10641e-18
3762.87667 7.86893e-18
3767.09450 6.41406e-18
3771.31234 7.82904e-18
3775.53017 9.26330e-18
3779.74800 9.43636e-18
3783.96583 9.60936e-18
3788.18366 9.78231e-18
3792.40150 9.95523e-18
3796.61933 1.01281e-17
3800.83716 1.03009e-17
3805.05499 1.04737e-17
3809.27282 1.06464e-17
3813.49066 1.08190e-17
3817.70849 1.09917e-17
3821.92632 7.15189e-18
3826.14415 6.85437e-18
3830.36198 9.40556e-18
3834.57982 7.53843e-18
3838.79765 8.73207e-18
3843.01548 8.47732e-18
3847.23331 5.17352e-18
3851.45114 6.85806e-18
3855.66898 9.30046e-18
3859.88681 7.57920e-18
3864.10464 6.58718e-18
3868.32247 5.38373e-18
3872.54030 7.29669e-18
3876.75814 6.94062e-18
3880.97597 5.31604e-18
3885.19380 5.76862e-18
3889.41163 5.98998e-18
3893.62946 9.06165e-18
3897.84730 6.87252e-18
3902.06513 4.21614e-18
3906.28296 5.26597e-18
3910.50079 8.63179e-18
3914.71862 9.00311e-18
3918.93646 8.48376e-18
3923.15429 9.16442e-18
3927.37212 9.40965e-18
3931.58995 8.61525e-18
3935.80778 7.98408e-18
3940.02562 7.85044e-18
3944.24345 8.43929e-18
3948.46128 8.93406e-18
3952.67911 9.45328e-18
3956.89694 1.00506e-17
3961.11478 1.08449e-17
3965.33261 9.89879e-18
3969.55044 7.11773e-18
3973.77846 8.30719e-18
3977.99629 8.01990e-18
3982.21412 7.02523e-18
3986.43196 8.46279e-18
3990.64979 1.12385e-17
3994.86762 1.16229e-17
3999.08545 1.05781e-17
4003.30328 1.10253e-17
4007.52112 1.02779e-17
4011.73895 1.01811e-17
4015.95678 1.00477e-17
4020.17461 1.02857e-17
4024.39244 1.01715e-17
4028.61028 9.42307e-18
4032.82811 9.67236e-18
4037.04594 1.05612e-17
4041.26377 1.03536e-17
4045.48160 9.71278e-18
4049.69944 1.00143e-17
4053.91727 1.07837e-17
4058.13510 8.80426e-18
4062.35293 8.42382e-18
4066.57076 9.02204e-18
4070.78860 1.02565e-17
4075.00643 1.06525e-17
4079.22426 1.13406e-17
4083.44209 1.09573e-17
4087.65992 1.08838e-17
4091.87776 9.73523e-18
4096.09559 7.70938e-18
4100.31342 8.08426e-18
4104.53125 1.00695e-17
4108.74908 9.92236e-18
4112.96692 9.62455e-18
4117.18475 9.66511e-18
4121.40258 8.45255e-18
4125.62041 9.09721e-18
4129.83824 1.08054e-17
4134.05608 9.73094e-18
4138.27391 8.71099e-18
4142.49174 9.56817e-18
4146.70957 1.05000e-17
4150.92740 1.08328e-17
4155.14524 1.02549e-17
4159.36307 1.15517e-17
4163.58090 1.10096e-17
4167.79873 1.06753e-17
4172.01656 1.22721e-17
4176.23440 1.19871e-17
4180.45223 1.42547e-17
4184.67006 1.45524e-17
4188.88789 1.36736e-17
4193.10572 1.31554e-17
4197.32356 1.30411e-17
4201.54139 1.31692e-17
4205.75922 1.21835e-17
4209.97705 1.19190e-17
4214.19488 1.27556e-17
4218.41272 1.16680e-17
4222.63055 1.00329e-17
4226.84838 1.06914e-17
4231.06621 1.06881e-17
4235.28404 1.12908e-17
4239.50188 1.12175e-17
4243.72990 1.20498e-17
4247.94773 1.15070e-17
4252.16556 1.28977e-17
4256.38339 1.30025e-17
4260.60122 1.20099e-17
4264.81906 1.09310e-17
4269.03689 1.17060e-17
4273.25472 1.15244e-17
4277.47255 1.22933e-17
4281.69038 1.24338e-17
4285.90822 1.23321e-17
4290.12605 1.18258e-17
4294.34388 1.17111e-17
4298.56171 1.19136e-17
4302.77954 1.06304e-17
4306.99738 9.77283e-18
4311.21521 1.00695e-17
4315.43304 1.14663e-17
4319.65087 1.10529e-17
4323.86870 1.07027e-17
4328.08654 1.07147e-17
4332.30437 1.08443e-17
4336.52220 1.18553e-17
4340.74003 1.08515e-17
4344.95786 9.15372e-18
4349.17570 9.69414e-18
4353.39353 1.05455e-17
4357.61136 1.03849e-17
4361.82919 1.10357e-17
4366.04702 1.14078e-17
4370.26486 1.00972e-17
4374.48269 8.87182e-18
4378.70052 1.00710e-17
4382.91835 1.05602e-17
4387.13618 9.56330e-18
4391.35402 9.53040e-18
4395.57185 1.03749e-17
4399.78968 1.02585e-17
4404.00751 9.00892e-18
4408.22534 9.95689e-18
4412.44318 9.87160e-18
4416.66101 9.98395e-18
4420.87884 1.00962e-17
4425.09667 1.02085e-17
4429.31450 1.03207e-17
4433.53234 1.04329e-17
4437.75017 1.05450e-17
4441.96800 1.06571e-17
4446.18583 1.07692e-17
4450.40366 1.08812e-17
4454.62150 1.09933e-17
4458.83933 1.11052e-17
4463.05716 1.12171e-17
4467.27499 1.13290e-17
4471.49282 1.14408e-17
4475.71066 1.15526e-17
4479.92849 1.16644e-17
4484.14632 1.28498e-17
4488.36415 1.28128e-17
4492.58198 1.24292e-17
4496.79982 1.24395e-17
4501.01765 1.13490e-17
4505.23548 1.23315e-17
4509.45331 1.09939e-17
4513.67114 1.32720e-17
4517.88898 1.41379e-17
4522.11700 1.38764e-17
4526.33483 1.35193e-17
4530.55266 1.39082e-17
4534.77049 1.55590e-17
4538.98832 1.41239e-17
4543.20616 1.38993e-17
4547.42399 1.53434e-17
4551.64182 1.50297e-17
4555.85965 1.53174e-17
4560.07748 1.54816e-17
4564.29532 1.53000e-17
4568.51315 1.53718e-17
4572.73098 1.57368e-17
4576.94881 1.54059e-17
4581.16664 1.59890e-17
4585.38448 1.57503e-17
4589.60231 1.54117e-17
4593.82014 1.48188e-17
4598.03797 1.56693e-17
4602.25580 1.61036e-17
4606.47364 1.62376e-17
4610.69147 1.59422e-17
4614.90930 1.53439e-17
4619.12713 1.66265e-17
4623.34496 1.63905e-17
4627.56280 1.62017e-17
4631.78063 1.55367e-17
4635.99846 1.47247e-17
4640.21629 1.47621e-17
4644.43412 1.40568e-17
4648.65196 1.39203e-17
4652.86979 1.42286e-17
4657.08762 1.48039e-17
4661.30545 1.50968e-17
4665.52328 1.46049e-17
4669.74112 1.39260e-17
4673.95895 1.47392e-17
4678.17678 1.50635e-17
4682.39461 1.48339e-17
4686.61244 1.44106e-17
4690.83028 1.43725e-17
4695.04811 1.41195e-17
4699.26594 1.33947e-17
4703.48377 1.25468e-17
4707.70160 1.25250e-17
4711.91944 1.23098e-17
4716.13727 1.20862e-17
4720.35510 1.27605e-17
4724.57293 1.22157e-17
4728.79076 1.18556e-17
4733.00860 1.24901e-17
4737.22643 1.29067e-17
4741.44426 1.20955e-17
4745.66209 1.20959e-17
4749.87992 1.23194e-17
4754.09776 1.23034e-17
4758.31559 1.18270e-17
4762.53342 1.13862e-17
4766.75125 1.10216e-17
4770.96908 1.09525e-17
4775.18692 1.04114e-17
4779.40475 1.03030e-17
4783.62258 1.10198e-17
4787.84041 1.13864e-17
4792.06843 1.09585e-17
4796.27608 1.12461e-17
4800.50410 1.20171e-17
4804.72193 1.14423e-17
4808.93976 1.18977e-17
4813.15759 1.16198e-17
4817.37542 1.11499e-17
4821.59326 1.13337e-17
4825.81109 1.19378e-17
4830.02892 1.19019e-17
4834.24675 1.14643e-17
4838.46458 1.16549e-17
4842.68242 1.24140e-17
4846.90025 1.26387e-17
4851.11808 1.18745e-17
4855.33591 1.15022e-17
4859.55374 1.20256e-17
4863.77158 1.20124e-17
4867.98941 1.19142e-17
4872.20724 1.20671e-17
4876.42507 1.21591e-17
4880.64290 1.14342e-17
4884.86074 1.15994e-17
4889.07857 1.30787e-17
4893.29640 1.28732e-17
4897.51423 1.30868e-17
4901.73206 1.25557e-17
4905.94990 1.15280e-17
4910.16773 1.12556e-17
4914.38556 1.12594e-17
4918.60339 1.21337e-17
4922.82122 1.20013e-17
4927.03906 1.15548e-17
4931.25689 1.12378e-17
4935.47472 1.12285e-17
4939.69255 1.12192e-17
4943.91038 1.12100e-17
4948.12822 1.12007e-17
4952.34605 1.11915e-17
4956.56388 1.11823e-17
4960.78171 1.11730e-17
4964.99954 1.11638e-17
4969.21738 1.11546e-17
4973.43521 1.11453e-17
4977.65304 1.10153e-17
4981.87087 1.13748e-17
4986.08870 1.19349e-17
4990.30654 1.15485e-17
4994.52437 1.12410e-17
4998.74220 1.15502e-17
5002.96003 1.17453e-17
5007.17786 1.22076e-17
5011.39570 1.21508e-17
5015.61353 1.15878e-17
5019.83136 1.15175e-17
5024.04919 1.16426e-17
5028.26702 1.16251e-17
5032.48486 1.20336e-17
5036.70269 1.21176e-17
5040.92052 1.22015e-17
5045.13835 1.22854e-17
5049.35618 1.23694e-17
5053.57402 1.24532e-17
5057.79185 1.25371e-17
5062.00968 1.26209e-17
5066.22751 1.27047e-17
5070.45553 1.27885e-17
5074.66318 1.28723e-17
5078.89120 1.30538e-17
5083.10903 1.32625e-17
5087.32686 1.34711e-17
5091.54469 1.36797e-17
5095.76252 1.38881e-17
5099.98036 1.40966e-17
5104.19819 1.43049e-17
5108.41602 1.45132e-17
5112.63385 1.47215e-17
5116.85168 1.49296e-17
5121.06952 1.51378e-17
5125.28735 1.44819e-17
5129.50518 1.41799e-17
5133.72301 1.45522e-17
5137.94084 1.48987e-17
5142.15868 1.49574e-17
5146.37651 1.50560e-17
5150.59434 1.58009e-17
5154.81217 1.59590e-17
5159.03000 1.50501e-17
5163.24784 1.49491e-17
5167.46567 1.52595e-17
5171.68350 1.54704e-17
5175.90133 1.60897e-17
5180.11916 1.62707e-17
5184.33700 1.60875e-17
5188.55483 1.63378e-17
5192.77266 1.62044e-17
5196.99049 1.64073e-17
5201.20832 1.60708e-17
5205.42616 1.59681e-17
5209.64399 1.63389e-17
5213.86182 1.72240e-17
5218.07965 1.71810e-17
5222.29748 1.69920e-17
5226.51532 1.73697e-17
5230.73315 1.69147e-17
5234.95098 1.76131e-17
5239.16881 1.76166e-17
5243.38664 1.76427e-17
5247.60448 1.73649e-17
5251.82231 1.72176e-17
5256.04014 1.80976e-17
5260.25797 1.81596e-17
5264.47580 1.70706e-17
5268.69364 1.73709e-17
5272.91147 1.82886e-17
5277.12930 1.73013e-17
5281.34713 1.70289e-17
5285.56496 1.70798e-17
5289.78280 1.70942e-17
5294.00063 1.79839e-17
5298.21846 1.77215e-17
5302.43629 1.73994e-17
5306.65412 1.75667e-17
5310.87196 1.75418e-17
5315.08979 1.73833e-17
5319.30762 1.69906e-17
5323.52545 1.72712e-17
5327.74328 1.75408e-17
5331.96112 1.73794e-17
5336.17895 1.71061e-17
5340.39678 1.67850e-17
5344.61461 1.66563e-17
5348.84263 1.76403e-17
5353.06046 1.69248e-17
5357.27830 1.62904e-17
5361.49613 1.69133e-17
5365.71396 1.71326e-17
5369.93179 1.69699e-17
5374.14962 1.67185e-17
5378.36746 1.70731e-17
5382.58529 1.75226e-17
5386.80312 1.68442e-17
5391.02095 1.65851e-17
5395.23878 1.68010e-17
5399.45662 1.71616e-17
5403.67445 1.68782e-17
5407.89228 1.66247e-17
5412.11011 1.65672e-17
5416.32794 1.64963e-17
5420.54578 1.62689e-17
5424.76361 1.62482e-17
5428.98144 1.64670e-17
5433.19927 1.59526e-17
5437.41710 1.60855e-17
5441.63494 1.70203e-17
5445.85277 1.70751e-17
5450.07060 1.65673e-17
5454.28843 1.67264e-17
5458.50626 1.68040e-17
5462.72410 1.68949e-17
5466.94193 1.68316e-17
5471.15976 1.62986e-17
5475.37759 1.59474e-17
5479.59542 1.62031e-17
5483.81326 1.61625e-17
5488.03109 1.60061e-17
5492.24892 1.59145e-17
5496.46675 1.52705e-17
5500.68458 1.54095e-17
5504.90242 1.59415e-17
5509.12025 1.57973e-17
5513.33808 1.58098e-17
5517.55591 1.60174e-17
5521.77374 1.56207e-17
5525.99158 1.54574e-17
5530.20941 1.54174e-17
5534.42724 1.56295e-17
5538.64507 1.54648e-17
5542.86290 1.57124e-17
5547.08074 1.53364e-17
5551.29857 1.52348e-17
5555.51640 1.54365e-17
5559.73423 1.57308e-17
5563.95206 1.51874e-17
5568.16990 1.45347e-17
5572.38773 1.48147e-17
5576.60556 1.54739e-17
5580.82339 1.53881e-17
5585.04122 1.46246e-17
5589.25906 1.45907e-17
5593.47689 1.45040e-17
5597.69472 1.44111e-17
5601.91255 1.46908e-17
5606.13038 1.46510e-17
5610.34822 1.43989e-17
5614.56605 1.43898e-17
5618.78388 1.44218e-17
5623.01190 1.45572e-17
5627.22973 1.46882e-17
5631.44756 1.42547e-17
5635.66540 1.42207e-17
5639.88323 1.39842e-17
5644.10106 1.43551e-17
5648.31889 1.38754e-17
5652.53672 1.38572e-17
5656.75456 1.44978e-17
5660.97239 1.38403e-17
5665.19022 1.34225e-17
5669.40805 1.33356e-17
5673.62588 1.28859e-17
5677.84372 1.34219e-17
5682.06155 1.25210e-17
5686.27938 1.29168e-17
5690.49721 1.30270e-17
5694.71504 1.28011e-17
5698.93288 1.28012e-17
5703.15071 1.22892e-17
5707.36854 1.28851e-17
5711.58637 1.29685e-17
5715.80420 1.25290e-17
5720.02204 1.29858e-17
5724.23987 1.26356e-17
5728.45770 1.19754e-17
5732.67553 1.21554e-17
5736.89336 1.27607e-17
5741.11120 1.32987e-17
5745.32903 1.29084e-17
5749.54686 1.26455e-17
5753.76469 1.31211e-17
5757.98252 1.24483e-17
5762.20036 1.27541e-17
5766.41819 1.31164e-17
5770.63602 1.23023e-17
5774.85385 1.30336e-17
5779.07168 1.24388e-17
5783.28952 1.26852e-17
5787.50735 1.30048e-17
5791.72518 1.30632e-17
5795.94301 1.30079e-17
5800.16084 1.31253e-17
5804.37868 1.28196e-17
5808.59651 1.26229e-17
5812.81434 1.32409e-17
5817.03217 1.33354e-17
5821.25000 1.30205e-17
5825.46784 1.31011e-17
5829.68567 1.28335e-17
5833.90350 1.30356e-17
5838.12133 1.34922e-17
5842.33916 1.31105e-17
5846.55700 1.29140e-17
5850.77483 1.30958e-17
5854.99266 1.34465e-17
5859.21049 1.29526e-17
5863.42832 1.31939e-17
5867.64616 1.33515e-17
5871.86399 1.30748e-17
5876.08182 1.29681e-17
5880.29965 1.23670e-17
5884.51748 1.23026e-17
5888.73532 1.29150e-17
5892.96334 1.30429e-17
5897.17098 1.25683e-17
5901.39900 1.24105e-17
5905.61683 1.26089e-17
5909.83466 1.28471e-17
5914.05250 1.25309e-17
5918.27033 1.23960e-17
5922.48816 1.26282e-17
5926.70599 1.25564e-17
5930.92382 1.24105e-17
5935.14166 1.21924e-17
5939.35949 1.22153e-17
5943.57732 1.23846e-17
5947.79515 1.24360e-17
5952.01298 1.23505e-17
5956.23082 1.23278e-17
5960.44865 1.23051e-17
5964.66648 1.22824e-17
5968.88431 1.22597e-17
5973.10214 1.22370e-17
5977.31998 1.22143e-17
5981.53781 1.21917e-17
5985.75564 1.21690e-17
5989.97347 1.21463e-17
5994.19130 1.21237e-17
5998.40914 1.21010e-17
6002.62697 1.20784e-17
6006.84480 1.20558e-17
6011.06263 1.20332e-17
6015.28046 1.20105e-17
6019.49830 1.19879e-17
6023.71613 1.26348e-17
6027.93396 1.26964e-17
6032.15179 1.21638e-17
6036.36962 1.19763e-17
6040.58746 1.26114e-17
6044.80529 1.20922e-17
6049.02312 1.23703e-17
6053.24095 1.26854e-17
6057.45878 1.18533e-17
6061.67662 1.09748e-17
6065.89445 1.15994e-17
6070.11228 1.12858e-17
6074.33011 1.10966e-17
6078.54794 1.19343e-17
6082.76578 1.20770e-17
6086.98361 1.17124e-17
6091.20144 1.15057e-17
6095.41927 1.15510e-17
6099.63710 1.15487e-17
6103.85494 1.14128e-17
6108.07277 1.13764e-17
6112.29060 1.12284e-17
6116.50843 1.08677e-17
6120.72626 1.08178e-17
6124.94410 1.10321e-17
6129.16193 1.11099e-17
6133.37976 1.07033e-17
6137.59759 1.09289e-17
6141.81542 1.09003e-17
6146.03326 1.10099e-17
6150.25109 1.08328e-17
6154.46892 9.94040e-18
6158.68675 9.13818e-18
6162.91477 9.46748e-18
6167.12242 1.00369e-17
6171.35044 1.01697e-17
6175.55808 1.01544e-17
6179.78610 9.91432e-18
6184.00393 9.54235e-18
6188.22176 9.56228e-18
6192.43960 9.82776e-18
6196.65743 9.96122e-18
6200.87526 1.00841e-17
6205.09309 1.04511e-17
6209.31092 1.07573e-17
6213.52876 1.00617e-17
6217.74659 1.02598e-17
6221.96442 1.01799e-17
6226.18225 9.89524e-18
6230.40008 1.01249e-17
6234.61792 1.00967e-17
6238.83575 1.00909e-17
6243.05358 1.02241e-17
6247.27141 1.00542e-17
6251.48924 1.04483e-17
6255.70708 1.04874e-17
6259.92491 1.03630e-17
6264.14274 1.01532e-17
6268.36057 1.02350e-17
6272.57840 1.04355e-17
6276.79624 1.03054e-17
6281.01407 1.04602e-17
6285.23190 1.06491e-17
6289.44973 1.06053e-17
6293.66756 1.06713e-17
6297.88540 1.04292e-17
6302.10323 1.00554e-17
6306.32106 1.05039e-17
6310.53889 1.07736e-17
6314.75672 1.10714e-17
6318.97456 1.09815e-17
6323.19239 1.12182e-17
6327.41022 1.09829e-17
6331.62805 1.09186e-17
6335.84588 1.14100e-17
6340.06372 1.12610e-17
6344.28155 1.08985e-17
6348.49938 1.12686e-17
6352.71721 1.16982e-17
6356.93504 1.18892e-17
6361.15288 1.18489e-17
6365.37071 1.15990e-17
6369.58854 1.17265e-17
6373.80637 1.16532e-17
6378.02420 1.15630e-17
6382.24204 1.19199e-17
6386.45987 1.22746e-17
6390.67770 1.18162e-17
6394.89553 1.16791e-17
6399.11336 1.17119e-17
6403.33120 1.23899e-17
6407.54903 1.19138e-17
6411.76686 1.18288e-17
6415.98469 1.22571e-17
6420.20252 1.21756e-17
6424.42036 1.20379e-17
6428.63819 1.21662e-17
6432.85602 1.18688e-17
6437.07385 1.17818e-17
6441.30187 1.24377e-17
6445.50952 1.21488e-17
6449.73754 1.20670e-17
6453.95537 1.19644e-17
6458.17320 1.26019e-17
6462.39103 1.24949e-17
6466.60886 1.21493e-17
6470.82670 1.22296e-17
6475.04453 1.23633e-17
6479.26236 1.22503e-17
6483.48019 1.22520e-17
6487.69802 1.23950e-17
6491.91586 1.24003e-17
6496.13369 1.24592e-17
6500.35152 1.24083e-17
6504.56935 1.21140e-17
6508.78718 1.21531e-17
6513.00502 1.25134e-17
6517.22285 1.25958e-17
6521.44068 1.24562e-17
6525.65851 1.24923e-17
6529.87634 1.23241e-17
6534.09418 1.18949e-17
6538.31201 1.20146e-17
6542.52984 1.20325e-17
6546.74767 1.19791e-17
6550.96550 1.23163e-17
6555.18334 1.24037e-17
6559.40117 1.21015e-17
6563.61900 1.23653e-17
6567.83683 1.19617e-17
6572.05466 1.19276e-17
6576.27250 1.20246e-17
6580.49033 1.19411e-17
6584.70816 1.21549e-17
6588.92599 1.23677e-17
6593.14382 1.27039e-17
6597.36166 1.22999e-17
6601.57949 1.19048e-17
6605.79732 1.19565e-17
6610.01515 1.21517e-17
6614.23298 1.20891e-17
6618.45082 1.19407e-17
6622.66865 1.17331e-17
6626.88648 1.17151e-17
6631.10431 1.16275e-17
6635.32214 1.15777e-17
6639.53998 1.16879e-17
6643.75781 1.17290e-17
6647.97564 1.16733e-17
6652.19347 1.15582e-17
6656.41130 1.15235e-17
6660.62914 1.14888e-17
6664.84697 1.14541e-17
6669.06480 1.14195e-17
6673.28263 1.13848e-17
6677.50046 1.13501e-17
6681.71830 1.13155e-17
6685.93613 1.12808e-17
6690.15396 1.12461e-17
6694.37179 1.12611e-17
6698.58962 1.12760e-17
6702.80746 1.12909e-17
6707.02529 1.13059e-17
6711.24312 1.13208e-17
6715.46095 1.13357e-17
6719.68897 1.13506e-17
6723.90680 1.13656e-17
6728.12464 1.13805e-17
6732.34247 1.09085e-17
6736.56030 1.04759e-17
6740.77813 1.05840e-17
6744.99596 1.06973e-17
6749.21380 1.06238e-17
6753.43163 1.04772e-17
6757.64946 1.06175e-17
6761.86729 1.04544e-17
6766.08512 1.06372e-17
6770.30296 1.09656e-17
6774.52079 1.06168e-17
6778.73862 1.05146e-17
6782.95645 1.06842e-17
6787.17428 1.07235e-17
6791.39212 1.04313e-17
6795.60995 1.00416e-17
6799.82778 1.03095e-17
6804.04561 1.05799e-17
6808.26344 1.01778e-17
6812.48128 1.02485e-17
6816.69911 1.04721e-17
6820.91694 1.04110e-17
6825.13477 1.03140e-17
6829.35260 1.02171e-17
6833.57044 1.01202e-17
6837.78827 1.00233e-17
6842.00610 9.92068e-18
6846.22393 9.81808e-18
6850.44176 9.71551e-18
6854.65960 9.61294e-18
6858.87743 9.51039e-18
6863.09526 9.40786e-18
6867.31309 9.30534e-18
6871.53092 9.20283e-18
6875.74876 9.10034e-18
6879.96659 8.99785e-18
6884.18442 9.07942e-18
6888.40225 8.98059e-18
6892.62008 9.24381e-18
6896.83792 9.69547e-18
6901.05575 9.19441e-18
6905.27358 8.89798e-18
6909.49141 8.99302e-18
6913.70924 9.36249e-18
6917.92708 9.73284e-18
6922.14491 9.55173e-18
6926.36274 9.53264e-18
6930.58057 9.37970e-18
6934.79840 9.10136e-18
6939.01624 8.94932e-18
6943.23407 9.14556e-18
6947.45190 9.27114e-18
6951.66973 9.14374e-18
6955.88756 9.30735e-18
6960.10540 9.12724e-18
6964.32323 9.41912e-18
6968.54106 9.21454e-18
6972.75889 9.14557e-18
6976.97672 8.63816e-18
6981.19456 8.65197e-18
6985.41239 9.13457e-18
6989.63022 9.00275e-18
6993.85824 9.19162e-18
6998.07607 9.01901e-18
7002.29390 8.87537e-18
7006.51174 8.82412e-18
7010.72957 8.73572e-18
7014.94740 8.96557e-18
7019.16523 9.01191e-18
7023.38306 8.69536e-18
7027.60090 8.75147e-18
7031.81873 9.24015e-18
7036.03656 9.41494e-18
7040.25439 8.73119e-18
7044.47222 9.14340e-18
7048.69006 9.00762e-18
7052.90789 8.65927e-18
7057.12572 8.31519e-18
7061.34355 8.61730e-18
7065.56138 9.05808e-18
7069.77922 8.90839e-18
7073.99705 8.75947e-18
7078.21488 9.19325e-18
7082.43271 9.40642e-18
7086.65054 9.19368e-18
7090.86838 8.84599e-18
7095.08621 8.59638e-18
7099.30404 8.86123e-18
7103.52187 8.54584e-18
7107.73970 8.55841e-18
7111.95754 8.63177e-18
7116.17537 8.88796e-18
7120.39320 8.74249e-18
7124.61103 8.50650e-18
7128.82886 8.49567e-18
7133.04670 8.71515e-18
7137.26453 8.59917e-18
7141.48236 8.46636e-18
7145.70019 8.93859e-18
7149.91802 9.13813e-18
7154.13586 8.76642e-18
7158.35369 8.79455e-18
7162.57152 8.59563e-18
7166.78935 8.17705e-18
7171.00718 8.60466e-18
7175.22502 8.78714e-18
7179.44285 8.84755e-18
7183.66068 8.44813e-18
7187.87851 8.55126e-18
7192.09634 8.68902e-18
7196.31418 8.70950e-18
7200.53201 8.46430e-18
7204.74984 8.20220e-18
7208.96767 8.12693e-18
7213.18550 8.49768e-18
7217.40334 8.64730e-18
7221.62117 8.56367e-18
7225.83900 8.67762e-18
7230.05683 8.68577e-18
7234.27466 8.53631e-18
7238.49250 8.35111e-18
7242.71033 8.33244e-18
7246.92816 8.46228e-18
7251.14599 8.44042e-18
7255.36382 8.39640e-18
7259.58166 8.47919e-18
7263.80968 8.61878e-18
7268.01732 8.79638e-18
7272.24534 8.65080e-18
7276.46317 8.43946e-18
7280.68100 8.35472e-18
7284.89884 8.06289e-18
7289.11667 8.30490e-18
7293.33450 8.58537e-18
7297.55233 7.96730e-18
7301.77016 7.94018e-18
7305.98800 8.37546e-18
7310.20583 8.36986e-18
7314.42366 8.41315e-18
7318.64149 8.21409e-18
7322.85932 8.12190e-18
7327.07716 8.06483e-18
7331.29499 7.84560e-18
7335.51282 7.63995e-18
7339.73065 7.80692e-18
7343.94848 8.03849e-18
7348.16632 7.69455e-18
7352.38415 7.75313e-18
7356.60198 7.52085e-18
7360.81981 7.51654e-18
7365.03764 7.79311e-18
7369.25548 7.86855e-18
7373.47331 7.80018e-18
7377.69114 7.52380e-18
7381.90897 7.39348e-18
7386.12680 7.51378e-18
7390.34464 7.66350e-18
7394.56247 7.61838e-18
7398.78030 7.41053e-18
7402.99813 7.60964e-18
7407.21596 7.27339e-18
7411.43380 7.14308e-18
7415.65163 7.12958e-18
7419.86946 7.11506e-18
7424.08729 7.15851e-18
7428.30512 7.08952e-18
7432.52296 7.59730e-18
7436.74079 7.67803e-18
7440.95862 7.14135e-18
7445.17645 7.21649e-18
7449.39428 7.28980e-18
7453.61212 7.09929e-18
7457.82995 7.16840e-18
7462.04778 7.36588e-18
7466.26561 7.46038e-18
7470.48344 -6.62696e-20
