# wavelength flux
3483.11419 1.11776e-17
3487.33202 1.10585e-17
3491.54986 9.16771e-18
3495.76769 1.61937e-17
3499.98552 1.81061e-17
3504.20335 1.61510e-17
3508.42118 1.68297e-17
3512.63902 1.57885e-17
3516.85685 2.23456e-17
3521.07468 2.46442e-17
3525.29251 2.24009e-17
3529.51034 2.03154e-17
3533.72818 1.52211e-17
3537.94601 1.29829e-17
3542.16384 1.49687e-17
3546.38167 1.25781e-17
3550.59950 1.34350e-17
3554.81734 1.43567e-17
3559.03517 1.40859e-17
3563.25300 1.84254e-17
3567.47083 1.43176e-17
3571.67848 1.29797e-17
3575.89631 1.37585e-17
3580.11414 1.26138e-17
3584.33197 1.33293e-17
3588.54980 1.38349e-17
3592.76764 1.62882e-17
3596.98547 1.55999e-17
3601.20330 1.34964e-17
3605.42113 1.27370e-17
3609.63896 1.60639e-17
3613.85680 1.65406e-17
3618.07463 1.57143e-17
3622.29246 1.71048e-17
3626.51029 1.59595e-17
3630.72812 1.27863e-17
3634.94596 9.98160e-18
3639.16379 1.43816e-17
3643.38162 1.36473e-17
3647.59945 1.42439e-17
3651.81728 1.37114e-17
3656.03512 1.46454e-17
3660.25295 1.76618e-17
3664.47078 2.06598e-17
3668.67842 2.02204e-17
3672.89626 1.88173e-17
3677.11409 1.56336e-17
3681.33192 1.41219e-17
3685.54975 1.48265e-17
3689.76758 1.41122e-17
3693.98542 1.41753e-17
3698.20325 1.45984e-17
3702.42108 1.59595e-17
3706.63891 1.49417e-17
3710.85674 1.35091e-17
3715.07458 1.40833e-17
3719.29241 1.47209e-17
3723.51024 1.40676e-17
3727.72807 1.45729e-17
3731.94590 1.54491e-17
3736.16374 1.55023e-17
3740.38157 1.36155e-17
3744.59940 1.27877e-17
3748.81723 1.30873e-17
3753.03506 1.41157e-17
3757.25290 1.43251e-17
3761.47073 1.39296e-17
3765.67837 1.44073e-17
3769.89620 1.33532e-17
3774.11404 1.44279e-17
3778.33187 1.42684e-17
3782.54970 1.41921e-17
3786.76753 1.41158e-17
3790.98536 1.40395e-17
3795.20320 1.39633e-17
3799.42103 1.38871e-17
3803.63886 1.38110e-17
3807.85669 1.37349e-17
3812.07452 1.36588e-17
3816.29236 1.35828e-17
3820.51019 1.35069e-17
3824.72802 1.36319e-17
3828.94585 1.32421e-17
3833.16368 1.33917e-17
3837.38152 1.33342e-17
3841.59935 1.37109e-17
3845.81718 1.34280e-17
3850.03501 1.33287e-17
3854.25284 1.29654e-17
3858.47068 1.30944e-17
3862.67832 1.27639e-17
3866.89615 1.31490e-17
3871.11398 1.36917e-17
3875.33182 1.37287e-17
3879.54965 1.33053e-17
3883.76748 1.33448e-17
3887.98531 1.36834e-17
3892.20314 1.34866e-17
3896.42098 1.38960e-17
3900.63881 1.42376e-17
3904.85664 1.38670e-17
3909.07447 1.38396e-17
3913.29230 1.39374e-17
3917.51014 1.34101e-17
3921.72797 1.37099e-17
3925.94580 1.35976e-17
3930.16363 1.36321e-17
3934.38146 1.37001e-17
3938.59930 1.36186e-17
3942.81713 1.38010e-17
3947.03496 1.35291e-17
3951.25279 1.43943e-17
3955.47062 1.46319e-17
3959.67827 1.43439e-17
3963.89610 1.45899e-17
3968.11393 1.41649e-17
3972.33176 1.42688e-17
3976.54960 1.44138e-17
3980.76743 1.43094e-17
3984.98526 1.44028e-17
3989.20309 1.48326e-17
3993.42092 1.52689e-17
3997.63876 1.51181e-17
4001.85659 1.45373e-17
4006.07442 1.46989e-17
4010.29225 1.46570e-17
4014.51008 1.48636e-17
4018.72792 1.49111e-17
4022.94575 1.51847e-17
4027.16358 1.52416e-17
4031.38141 1.50637e-17
4035.59924 1.52464e-17
4039.81708 1.58864e-17
4044.03491 1.55822e-17
4048.25274 1.52148e-17
4052.47057 1.53695e-17
4056.67822 1.53653e-17
4060.89605 1.59324e-17
4065.11388 1.60457e-17
4069.33171 1.55267e-17
4073.54954 1.52794e-17
4077.76738 1.56805e-17
4081.98521 1.57573e-17
4086.20304 1.52556e-17
4090.42087 1.49406e-17
4094.63870 1.52232e-17
4098.85654 1.54055e-17
4103.07437 1.48576e-17
4107.29220 1.45609e-17
4111.51003 1.48971e-17
4115.72786 1.52688e-17
4119.94570 1.50624e-17
4124.16353 1.45265e-17
4128.38136 1.45422e-17
4132.59919 1.47138e-17
4136.81702 1.48257e-17
4141.03486 1.45729e-17
4145.25269 1.43518e-17
4149.47052 1.42373e-17
4153.67816 1.46439e-17
4157.89600 1.48232e-17
4162.11383 1.47013e-17
4166.33166 1.46944e-17
4170.54949 1.46859e-17
4174.76732 1.51640e-17
4178.98516 1.51547e-17
4183.20299 1.48391e-17
4187.42082 1.49147e-17
4191.63865 1.47147e-17
4195.85648 1.47963e-17
4200.07432 1.46344e-17
4204.29215 1.42827e-17
4208.50998 1.40042e-17
4212.72781 1.41007e-17
4216.94564 1.43298e-17
4221.16348 1.42217e-17
4225.38131 1.43072e-17
4229.59914 1.41734e-17
4233.81697 1.38406e-17
4238.03480 1.35054e-17
4242.25264 1.35563e-17
4246.47047 1.38808e-17
4250.67811 1.36758e-17
4254.89594 1.37629e-17
4259.11378 1.34487e-17
4263.33161 1.36271e-17
4267.54944 1.35169e-17
4271.76727 1.34513e-17
4275.98510 1.33616e-17
4280.20294 1.33324e-17
4284.42077 1.31577e-17
4288.63860 1.29507e-17
4292.85643 1.27341e-17
4297.07426 1.28179e-17
4301.29210 1.28199e-17
4305.50993 1.27675e-17
4309.72776 1.28482e-17
4313.94559 1.27455e-17
4318.16342 1.24573e-17
4322.38126 1.23201e-17
4326.59909 1.23065e-17
4330.81692 1.23846e-17
4335.03475 1.28291e-17
4339.25258 1.28260e-17
4343.46023 1.24585e-17
4347.68825 1.23667e-17
4351.89589 1.25173e-17
4356.11372 1.29287e-17
4360.33156 1.31578e-17
4364.54939 1.28864e-17
4368.76722 1.26012e-17
4372.98505 1.26209e-17
4377.20288 1.31251e-17
4381.42072 1.33810e-17
4385.63855 1.34414e-17
4389.85638 1.35389e-17
4394.07421 1.34741e-17
4398.29204 1.35344e-17
4402.50988 1.33236e-17
4406.72771 1.36062e-17
4410.94554 1.42715e-17
4415.16337 1.43037e-17
4419.38120 1.43360e-17
4423.59904 1.43682e-17
4427.81687 1.44004e-17
4432.03470 1.44326e-17
4436.25253 1.44648e-17
4440.46018 1.44970e-17
4444.68820 1.45292e-17
4448.89584 1.45613e-17
4453.11367 1.45934e-17
4457.33150 1.46255e-17
4461.54934 1.46576e-17
4465.76717 1.46897e-17
4469.98500 1.47218e-17
4474.20283 1.47538e-17
4478.42066 1.47859e-17
4482.63850 1.50785e-17
4486.85633 1.51326e-17
4491.07416 1.51514e-17
4495.29199 1.51563e-17
4499.50982 1.49888e-17
4503.72766 1.53098e-17
4507.94549 1.54178e-17
4512.16332 1.51970e-17
4516.38115 1.51604e-17
4520.59898 1.51739e-17
4524.81682 1.51623e-17
4529.03465 1.51729e-17
4533.25248 1.53886e-17
4537.46012 1.52945e-17
4541.67796 1.54986e-17
4545.89579 1.55269e-17
4550.11362 1.57837e-17
4554.33145 1.57722e-17
4558.54928 1.55817e-17
4562.76712 1.55499e-17
4566.98495 1.56495e-17
4571.20278 1.55962e-17
4575.42061 1.54744e-17
4579.63844 1.54888e-17
4583.85628 1.56306e-17
4588.07411 1.53999e-17
4592.29194 1.53894e-17
4596.50977 1.55221e-17
4600.72760 1.54502e-17
4604.94544 1.52924e-17
4609.16327 1.51786e-17
4613.38110 1.50145e-17
4617.59893 1.47813e-17
4621.81676 1.49571e-17
4626.03460 1.49423e-17
4630.25243 1.50804e-17
4634.47026 1.51544e-17
4638.67790 1.51410e-17
4642.89574 1.52943e-17
4647.11357 1.51581e-17
4651.33140 1.50563e-17
4655.54923 1.51741e-17
4659.76706 1.51022e-17
4663.98490 1.50362e-17
4668.20273 1.49339e-17
4672.42056 1.47819e-17
4676.63839 1.47393e-17
4680.85622 1.45654e-17
4685.07406 1.44411e-17
4689.29189 1.43625e-17
4693.50972 1.42209e-17
4697.72755 1.40838e-17
4701.94538 1.40676e-17
4706.16322 1.40054e-17
4710.38105 1.40182e-17
4714.59888 1.38802e-17
4718.81671 1.38229e-17
4723.03454 1.38381e-17
4727.25238 1.37435e-17
4731.47021 1.38361e-17
4735.67785 1.38652e-17
4739.89568 1.37534e-17
4744.11352 1.34595e-17
4748.33135 1.32797e-17
4752.54918 1.34057e-17
4756.76701 1.32963e-17
4760.98484 1.31118e-17
4765.20268 1.30542e-17
4769.42051 1.31394e-17
4773.63834 1.28908e-17
4777.85617 1.29004e-17
4782.07400 1.29492e-17
4786.29184 1.29514e-17
4790.50967 1.28775e-17
4794.72750 1.29185e-17
4798.94533 1.28279e-17
4803.16316 1.29288e-17
4807.38100 1.29271e-17
4811.59883 1.30083e-17
4815.81666 1.28452e-17
4820.03449 1.27410e-17
4824.25232 1.26719e-17
4828.47016 1.26679e-17
4832.67780 1.26430e-17
4836.89563 1.26756e-17
4841.11346 1.28121e-17
4845.33130 1.24846e-17
4849.54913 1.24403e-17
4853.76696 1.23843e-17
4857.98479 1.25441e-17
4862.20262 1.25678e-17
4866.42046 1.24485e-17
4870.63829 1.22119e-17
4874.85612 1.22631e-17
4879.07395 1.22398e-17
4883.29178 1.22413e-17
4887.50962 1.21519e-17
4891.72745 1.20978e-17
4895.94528 1.20784e-17
4900.16311 1.19975e-17
4904.38094 1.18211e-17
4908.59878 1.18319e-17
4912.81661 1.21370e-17
4917.03444 1.20945e-17
4921.25227 1.20363e-17
4925.47010 1.17506e-17
4929.67775 1.18654e-17
4933.89558 1.19609e-17
4938.11341 1.19385e-17
4942.33124 1.19162e-17
4946.54908 1.18939e-17
4950.76691 1.18715e-17
4954.98474 1.18492e-17
4959.20257 1.18269e-17
4963.42040 1.18047e-17
4967.63824 1.17824e-17
4971.85607 1.17601e-17
4976.07390 1.16183e-17
4980.29173 1.16548e-17
4984.50956 1.17385e-17
4988.72740 1.16737e-17
4992.94523 1.19572e-17
4997.16306 1.19250e-17
5001.38089 1.15524e-17
5005.59872 1.15097e-17
5009.81656 1.16667e-17
5014.03439 1.16476e-17
5018.25222 1.16168e-17
5022.47005 1.16594e-17
5026.67770 1.20076e-17
5030.89553 1.21464e-17
5035.11336 1.22377e-17
5039.33119 1.23290e-17
5043.54902 1.24203e-17
5047.76686 1.25115e-17
5051.98469 1.26027e-17
5056.20252 1.26939e-17
5060.42035 1.27851e-17
5064.63818 1.28762e-17
5068.85602 1.29673e-17
5073.07385 1.30584e-17
5077.29168 1.30011e-17
5081.50951 1.30597e-17
5085.72734 1.31283e-17
5089.94518 1.31970e-17
5094.16301 1.32656e-17
5098.38084 1.33342e-17
5102.59867 1.34028e-17
5106.81650 1.34713e-17
5111.03434 1.35399e-17
5115.25217 1.36084e-17
5119.45981 1.36769e-17
5123.67764 1.36845e-17
5127.89548 1.37451e-17
5132.11331 1.39151e-17
5136.33114 1.39411e-17
5140.54897 1.39151e-17
5144.76680 1.38980e-17
5148.98464 1.38879e-17
5153.20247 1.40561e-17
5157.42030 1.40872e-17
5161.63813 1.41104e-17
5165.85596 1.40461e-17
5170.07380 1.39609e-17
5174.29163 1.40537e-17
5178.50946 1.39496e-17
5182.72729 1.40588e-17
5186.94512 1.40896e-17
5191.16296 1.41169e-17
5195.38079 1.42659e-17
5199.59862 1.42656e-17
5203.81645 1.41235e-17
5208.03428 1.41495e-17
5212.25212 1.42301e-17
5216.46995 1.42486e-17
5220.67759 1.40974e-17
5224.89542 1.39618e-17
5229.11326 1.40667e-17
5233.33109 1.41034e-17
5237.54892 1.40878e-17
5241.76675 1.41035e-17
5245.98458 1.40641e-17
5250.20242 1.41436e-17
5254.42025 1.41331e-17
5258.63808 1.40426e-17
5262.85591 1.40408e-17
5267.07374 1.39557e-17
5271.29158 1.38276e-17
5275.50941 1.39411e-17
5279.72724 1.38835e-17
5283.94507 1.36888e-17
5288.16290 1.36651e-17
5292.38074 1.37060e-17
5296.59857 1.35870e-17
5300.81640 1.34489e-17
5305.03423 1.34566e-17
5309.25206 1.34212e-17
5313.46990 1.32437e-17
5317.67754 1.31710e-17
5321.89537 1.30283e-17
5326.11320 1.31652e-17
5330.33104 1.32064e-17
5334.54887 1.29618e-17
5338.76670 1.27477e-17
5342.98453 1.27550e-17
5347.20236 1.26830e-17
5351.42020 1.28473e-17
5355.63803 1.28415e-17
5359.85586 1.27120e-17
5364.07369 1.27449e-17
5368.29152 1.26336e-17
5372.50936 1.25163e-17
5376.72719 1.24839e-17
5380.94502 1.26582e-17
5385.16285 1.28445e-17
5389.38068 1.27808e-17
5393.59852 1.25409e-17
5397.81635 1.23284e-17
5402.03418 1.22990e-17
5406.25201 1.22744e-17
5410.45966 1.22362e-17
5414.67749 1.20672e-17
5418.89532 1.20555e-17
5423.11315 1.22564e-17
5427.33098 1.20452e-17
5431.54882 1.19847e-17
5435.76665 1.21359e-17
5439.98448 1.20752e-17
5444.20231 1.19813e-17
5448.42014 1.19549e-17
5452.63798 1.19132e-17
5456.85581 1.19076e-17
5461.07364 1.16799e-17
5465.29147 1.17076e-17
5469.50930 1.15718e-17
5473.72714 1.14631e-17
5477.94497 1.16362e-17
5482.16280 1.16831e-17
5486.38063 1.15101e-17
5490.59846 1.16538e-17
5494.81630 1.15108e-17
5499.03413 1.13175e-17
5503.25196 1.12529e-17
5507.45960 1.13402e-17
5511.67744 1.12989e-17
5515.89527 1.12284e-17
5520.11310 1.11310e-17
5524.33093 1.11627e-17
5528.54876 1.11830e-17
5532.76660 1.11195e-17
5536.98443 1.11141e-17
5541.20226 1.09955e-17
5545.42009 1.09608e-17
5549.63792 1.09095e-17
5553.85576 1.08266e-17
5558.07359 1.07384e-17
5562.29142 1.05498e-17
5566.50925 1.04019e-17
5570.72708 1.04743e-17
5574.94492 1.05975e-17
5579.16275 1.04857e-17
5583.38058 1.03839e-17
5587.59841 1.04008e-17
5591.81624 1.05687e-17
5596.03408 1.06338e-17
5600.25191 1.04324e-17
5604.45955 1.03829e-17
5608.67738 1.03529e-17
5612.89522 1.01628e-17
5617.11305 1.01981e-17
5621.33088 1.00475e-17
5625.54871 1.00383e-17
5629.76654 1.00641e-17
5633.98438 1.00815e-17
5638.20221 1.01059e-17
5642.42004 1.00653e-17
5646.63787 9.98067e-18
5650.85570 9.95883e-18
5655.07354 9.88382e-18
5659.29137 9.83988e-18
5663.50920 9.86052e-18
5667.72703 9.81384e-18
5671.94486 9.72988e-18
5676.16270 9.65865e-18
5680.38053 9.70254e-18
5684.59836 9.57481e-18
5688.81619 9.49360e-18
5693.03402 9.45555e-18
5697.25186 9.43412e-18
5701.46969 9.55256e-18
5705.67733 9.52880e-18
5709.89516 9.51262e-18
5714.11300 9.54285e-18
5718.33083 9.51639e-18
5722.54866 9.55640e-18
5726.76649 9.54484e-18
5730.98432 9.50631e-18
5735.20216 9.55041e-18
5739.41999 9.59022e-18
5743.63782 9.44510e-18
5747.85565 9.41576e-18
5752.07348 9.51406e-18
5756.29132 9.54057e-18
5760.50915 9.52159e-18
5764.72698 9.53365e-18
5768.94481 9.44203e-18
5773.16264 9.46588e-18
5777.38048 9.49402e-18
5781.59831 9.49999e-18
5785.81614 9.43826e-18
5790.03397 9.43263e-18
5794.25180 9.38337e-18
5798.45945 9.45493e-18
5802.67728 9.52500e-18
5806.89511 9.52552e-18
5811.11294 9.52758e-18
5815.33078 9.56112e-18
5819.54861 9.64276e-18
5823.76644 9.66739e-18
5827.98427 9.65999e-18
5832.20210 9.57555e-18
5836.41994 9.46105e-18
5840.63777 9.60453e-18
5844.85560 9.68549e-18
5849.07343 9.47282e-18
5853.29126 9.42817e-18
5857.50910 9.45486e-18
5861.72693 9.38420e-18
5865.94476 9.38772e-18
5870.16259 9.33332e-18
5874.38042 9.25513e-18
5878.59826 9.01032e-18
5882.81609 8.89403e-18
5887.03392 8.92891e-18
5891.25175 9.07441e-18
5895.45940 8.64201e-18
5899.67723 8.55202e-18
5903.89506 8.70205e-18
5908.11289 8.93111e-18
5912.33072 8.81145e-18
5916.54856 8.72745e-18
5920.76639 8.80559e-18
5924.98422 8.77369e-18
5929.20205 8.55648e-18
5933.41988 8.56640e-18
5937.63772 8.42610e-18
5941.85555 8.36090e-18
5946.07338 8.48163e-18
5950.29121 8.54269e-18
5954.50904 8.45137e-18
5958.72688 8.42598e-18
5962.94471 8.40059e-18
5967.16254 8.37521e-18
5971.38037 8.34984e-18
5975.59820 8.32447e-18
5979.81604 8.29911e-18
5984.03387 8.27375e-18
5988.25170 8.24841e-18
5992.45934 8.22306e-18
5996.67718 8.19773e-18
6000.89501 8.17240e-18
6005.11284 8.14708e-18
6009.33067 8.12176e-18
6013.54850 8.09646e-18
6017.76634 8.07116e-18
6021.98417 8.00300e-18
6026.20200 8.11972e-18
6030.41983 8.15814e-18
6034.63766 7.96297e-18
6038.85550 8.05831e-18
6043.07333 8.10341e-18
6047.29116 8.00418e-18
6051.50899 8.01399e-18
6055.72682 7.94293e-18
6059.94466 7.76228e-18
6064.16249 7.64331e-18
6068.38032 7.61706e-18
6072.59815 7.65829e-18
6076.81598 7.73097e-18
6081.03382 7.79015e-18
6085.25165 7.64339e-18
6089.45929 7.60127e-18
6093.67712 7.51683e-18
6097.89496 7.47596e-18
6102.11279 7.35572e-18
6106.33062 7.28620e-18
6110.54845 7.25740e-18
6114.76628 7.28499e-18
6118.98412 7.23813e-18
6123.20195 7.16071e-18
6127.41978 7.19044e-18
6131.63761 6.98998e-18
6135.85544 6.96248e-18
6140.07328 7.04426e-18
6144.29111 6.89943e-18
6148.50894 6.76805e-18
6152.72677 6.82112e-18
6156.94460 6.84615e-18
6161.16244 6.67973e-18
6165.38027 6.67733e-18
6169.59810 6.68451e-18
6173.81593 6.71241e-18
6178.03376 6.73936e-18
6182.25160 6.72586e-18
6186.45924 6.70992e-18
6190.67707 6.77332e-18
6194.89490 6.67574e-18
6199.11274 6.68846e-18
6203.33057 6.68689e-18
6207.54840 6.68749e-18
6211.76623 6.76465e-18
6215.98406 6.81928e-18
6220.20190 6.75132e-18
6224.41973 6.75571e-18
6228.63756 6.89680e-18
6232.85539 6.96123e-18
6237.07322 6.94826e-18
6241.29106 6.92785e-18
6245.50889 6.97617e-18
6249.72672 6.99139e-18
6253.94455 6.88169e-18
6258.16238 6.88897e-18
6262.38022 6.89486e-18
6266.59805 6.86576e-18
6270.81588 6.80795e-18
6275.03371 6.70973e-18
6279.25154 6.55135e-18
6283.46938 6.34348e-18
6287.67702 6.52998e-18
6291.89485 6.69408e-18
6296.11268 6.86965e-18
6300.33052 6.88624e-18
6304.54835 6.73847e-18
6308.76618 6.53511e-18
6312.98401 7.21403e-18
6317.20184 7.25350e-18
6321.41968 6.86880e-18
6325.63751 6.84400e-18
6329.85534 6.90173e-18
6334.07317 6.92461e-18
6338.29100 6.84856e-18
6342.50884 6.82885e-18
6346.72667 6.90807e-18
6350.94450 6.97336e-18
6355.16233 7.00127e-18
6359.38016 6.99634e-18
6363.59800 7.06943e-18
6367.81583 7.23821e-18
6372.03366 7.28721e-18
6376.24130 7.37193e-18
6380.46932 7.33452e-18
6384.67697 7.21889e-18
6388.89480 7.18510e-18
6393.11263 7.19303e-18
6397.33046 7.35253e-18
6401.54830 7.43564e-18
6405.76613 7.40069e-18
6409.98396 7.36434e-18
6414.20179 7.28249e-18
6418.41962 7.37683e-18
6422.63746 7.55560e-18
6426.85529 7.48760e-18
6431.07312 7.41380e-18
6435.29095 7.42409e-18
6439.50878 7.36885e-18
6443.72662 7.28494e-18
6447.94445 7.38676e-18
6452.16228 7.44708e-18
6456.38011 7.36404e-18
6460.59794 7.21759e-18
6464.81578 7.34130e-18
6469.03361 7.41309e-18
6473.24125 7.35051e-18
6477.45908 7.42747e-18
6481.67692 7.46382e-18
6485.89475 7.36914e-18
6490.11258 7.29600e-18
6494.33041 7.28144e-18
6498.54824 7.30664e-18
6502.76608 7.41677e-18
6506.98391 7.41845e-18
6511.20174 7.33615e-18
6515.41957 7.35751e-18
6519.63740 7.33180e-18
6523.85524 7.33498e-18
6528.07307 7.28054e-18
6532.29090 7.25054e-18
6536.50873 7.23103e-18
6540.72656 7.30925e-18
6544.94440 7.34066e-18
6549.16223 7.21186e-18
6553.38006 7.21925e-18
6557.59789 7.22818e-18
6561.81572 7.22453e-18
6566.03356 7.24143e-18
6570.25139 7.17796e-18
6574.45903 7.11734e-18
6578.67686 7.11334e-18
6582.89470 7.09217e-18
6587.11253 7.11511e-18
6591.33036 7.22402e-18
6595.54819 7.21018e-18
6599.76602 7.12861e-18
6603.98386 7.07163e-18
6608.20169 7.02401e-18
6612.41952 7.05539e-18
6616.63735 7.09633e-18
6620.85518 7.07970e-18
6625.07302 6.99698e-18
6629.29085 6.94341e-18
6633.50868 6.93432e-18
6637.72651 6.94411e-18
6641.94434 6.93515e-18
6646.16218 6.88683e-18
6650.38001 6.81103e-18
6654.59784 6.79420e-18
6658.81567 6.77738e-18
6663.03350 6.76056e-18
6667.25134 6.74374e-18
6671.45898 6.72692e-18
6675.67681 6.71011e-18
6679.89464 6.69329e-18
6684.11248 6.67649e-18
6688.33031 6.65968e-18
6692.54814 6.64288e-18
6696.76597 6.61048e-18
6700.98380 6.57809e-18
6705.20164 6.54571e-18
6709.41947 6.51333e-18
6713.63730 6.48096e-18
6717.85513 6.44859e-18
6722.07296 6.41622e-18
6726.29080 6.38386e-18
6730.50863 6.35736e-18
6734.72646 6.30423e-18
6738.94429 6.24955e-18
6743.16212 6.18306e-18
6747.37996 6.24946e-18
6751.59779 6.26963e-18
6755.81562 6.16563e-18
6760.03345 6.05299e-18
6764.25128 6.03429e-18
6768.45893 6.12266e-18
6772.67676 6.16581e-18
6776.89459 6.06955e-18
6781.11242 5.98210e-18
6785.33026 6.03547e-18
6789.54809 6.06060e-18
6793.76592 6.04493e-18
6797.98375 6.00034e-18
6802.20158 5.90690e-18
6806.41942 5.93425e-18
6810.63725 5.92251e-18
6814.85508 5.90438e-18
6819.07291 5.85561e-18
6823.29074 5.87835e-18
6827.50858 5.79487e-18
6831.72641 5.71139e-18
6835.94424 5.62793e-18
6840.16207 5.61793e-18
6844.37990 5.60793e-18
6848.59774 5.59793e-18
6852.81557 5.58793e-18
6857.03340 5.57794e-18
6861.25123 5.56794e-18
6865.45888 5.55795e-18
6869.67671 5.54796e-18
6873.89454 5.53797e-18
6878.11237 5.52798e-18
6882.33020 5.37285e-18
6886.54804 5.12258e-18
6890.76587 5.08869e-18
6894.98370 5.11233e-18
6899.20153 5.14374e-18
6903.41936 5.12228e-18
6907.63720 5.12824e-18
6911.85503 5.16623e-18
6916.07286 5.16460e-18
6920.29069 5.10884e-18
6924.50852 5.04640e-18
6928.72636 5.03640e-18
6932.94419 5.10465e-18
6937.16202 5.05445e-18
6941.37985 4.95927e-18
6945.59768 4.97093e-18
6949.81552 5.08987e-18
6954.03335 5.05439e-18
6958.25118 4.96809e-18
6962.45882 4.97306e-18
6966.67666 4.97242e-18
6970.89449 4.98097e-18
6975.11232 4.94951e-18
6979.33015 4.91251e-18
6983.54798 4.82946e-18
6987.76582 4.79340e-18
6991.98365 4.82342e-18
6996.20148 4.85940e-18
7000.41931 4.87913e-18
7004.63714 4.78516e-18
7008.85498 4.75034e-18
7013.07281 4.82273e-18
7017.29064 4.80434e-18
7021.50847 4.84736e-18
7025.72630 4.81850e-18
7029.94414 4.78886e-18
7034.16197 4.78276e-18
7038.37980 4.80583e-18
7042.59763 4.80676e-18
7046.81546 4.92310e-18
7051.03330 4.92103e-18
7055.24094 4.84317e-18
7059.45877 4.84864e-18
7063.67660 4.81873e-18
7067.89444 4.82963e-18
7072.11227 4.90706e-18
7076.33010 4.93185e-18
7080.54793 4.90091e-18
7084.76576 4.83658e-18
7088.98360 4.82117e-18
7093.20143 4.81794e-18
7097.41926 4.85889e-18
7101.63709 4.85733e-18
7105.85492 4.81463e-18
7110.07276 4.82941e-18
7114.29059 4.76825e-18
7118.50842 4.80198e-18
7122.72625 4.85679e-18
7126.94408 4.79278e-18
7131.16192 4.79919e-18
7135.37975 4.84710e-18
7139.59758 4.83653e-18
7143.81541 4.85317e-18
7148.03324 4.89108e-18
7152.25108 4.84189e-18
7156.45872 4.71997e-18
7160.67655 4.65592e-18
7164.89438 4.64327e-18
7169.11222 4.79810e-18
7173.33005 4.93639e-18
7177.54788 5.02723e-18
7181.76571 5.18300e-18
7185.98354 5.20388e-18
7190.20138 5.09253e-18
7194.41921 5.02892e-18
7198.63704 5.06415e-18
7202.85487 5.17249e-18
7207.07270 5.20415e-18
7211.29054 5.02824e-18
7215.50837 4.80865e-18
7219.72620 4.69239e-18
7223.94403 4.70061e-18
7228.16186 4.74795e-18
7232.37970 4.82981e-18
7236.59753 4.93333e-18
7240.81536 4.94667e-18
7245.03319 4.85264e-18
7249.25102 4.82830e-18
7253.45867 4.93546e-18
7257.67650 4.87951e-18
7261.89433 4.76494e-18
7266.11216 4.79417e-18
7270.33000 4.72501e-18
7274.54783 4.62628e-18
7278.76566 4.72044e-18
7282.98349 4.80850e-18
7287.20132 4.70494e-18
7291.41916 4.59363e-18
7295.63699 4.55203e-18
7299.85482 4.51799e-18
7304.07265 4.45087e-18
7308.29048 4.34786e-18
7312.50832 4.32126e-18
7316.72615 4.36017e-18
7320.94398 4.34383e-18
7325.16181 4.26818e-18
7329.37964 4.22699e-18
7333.59748 4.19934e-18
7337.81531 4.21584e-18
7342.03314 4.13622e-18
7346.25097 4.11873e-18
7350.45862 4.12790e-18
7354.67645 4.01164e-18
7358.89428 3.89136e-18
7363.11211 3.86079e-18
7367.32994 3.87009e-18
7371.54778 3.80871e-18
7375.76561 3.82892e-18
7379.98344 3.88953e-18
7384.20127 3.92608e-18
7388.41910 3.85644e-18
7392.63694 3.76300e-18
7396.85477 3.73055e-18
7401.07260 3.66613e-18
7405.29043 3.59424e-18
7409.50826 3.66898e-18
7413.72610 3.71082e-18
7417.94393 3.59332e-18
7422.16176 3.58275e-18
7426.37959 3.56822e-18
7430.59742 3.51507e-18
7434.81526 3.56432e-18
7439.03309 3.53971e-18
7443.25092 3.49274e-18
7447.45856 3.44772e-18
7451.67640 3.43018e-18
7455.89423 3.45330e-18
7460.11206 3.51498e-18
7464.32989 3.52503e-18
7468.54772 3.41947e-18
7472.76556 3.32266e-18
7476.98339 3.30940e-18
