# wavelength flux
3719.99538 1.09791e-17
3721.50320 1.10231e-17
3723.00084 8.25822e-18
3724.49848 4.12069e-18
3725.99611 5.84647e-18
3727.50394 7.07823e-18
3729.00157 7.39238e-18
3730.49921 6.93368e-18
3731.99684 1.25953e-17
3733.50467 1.39900e-17
3735.00230 6.02109e-18
3736.49994 1.07338e-17
3737.99758 1.05418e-17
3739.49521 1.16859e-17
3741.00304 1.20482e-17
3742.50067 4.71912e-18
3743.99831 1.48535e-17
3745.49594 5.30485e-18
3747.00377 3.16447e-18
3748.50140 1.04303e-17
3749.99904 8.12661e-18
3751.49668 4.84148e-18
3753.00450 1.18890e-17
3754.50214 1.24850e-17
3755.99977 6.45145e-18
3757.49741 8.57558e-18
3758.99504 8.53818e-18
3760.50287 9.40030e-18
3762.00050 4.30045e-19
3763.49814 3.58350e-18
3764.99578 1.26803e-17
3766.50360 6.69703e-18
3768.00124 2.88318e-18
3769.49887 3.77107e-18
3770.99651 1.84495e-18
3772.50433 4.90706e-18
3774.00197 1.01202e-17
3775.49960 9.54040e-18
3776.99724 7.51352e-18
3778.49488 7.66694e-18
3780.00270 7.82036e-18
3781.50034 7.91926e-18
3782.99797 8.01816e-18
3784.49561 8.11705e-18
3786.00343 8.21591e-18
3787.50107 8.31478e-18
3788.99870 8.41363e-18
3790.49634 8.51246e-18
3792.00416 8.61130e-18
3793.50180 8.71011e-18
3794.99944 8.80892e-18
3796.49707 8.90772e-18
3798.00490 9.00649e-18
3799.50253 9.10527e-18
3801.00017 9.20404e-18
3802.49780 9.30279e-18
3803.99544 9.40153e-18
3805.50326 9.50026e-18
3807.00090 9.59898e-18
3808.49854 9.69770e-18
3809.99617 9.79639e-18
3811.50400 9.89509e-18
3813.00163 9.99377e-18
3814.49927 1.00924e-17
3815.99690 1.01911e-17
3817.50473 1.02897e-17
3819.00236 5.71442e-18
3820.50000 7.85800e-18
3821.99764 8.87121e-18
3823.49527 8.29667e-18
3825.00310 8.73447e-18
3826.50073 1.43847e-17
3827.99837 9.11374e-18
3829.49600 5.69046e-18
3831.00383 4.55716e-18
3832.50146 6.71603e-18
3833.99910 5.81796e-18
3835.49674 6.34549e-18
3837.00456 1.01126e-17
3838.50220 7.38372e-18
3839.99983 8.11625e-18
3841.49747 9.25873e-18
3842.99510 3.71627e-18
3844.50293 5.81659e-18
3846.00056 6.96331e-18
3847.49820 6.02882e-18
3848.99584 7.78493e-18
3850.50366 1.04415e-17
3852.00130 1.06586e-17
3853.49893 1.06247e-17
3854.99657 9.20675e-18
3856.50439 6.49111e-18
3858.00203 6.59088e-18
3859.49966 7.25926e-18
3860.99730 6.46234e-18
3862.49494 1.06108e-17
3864.00276 8.18253e-18
3865.50040 5.64634e-18
3866.99803 1.02200e-17
3868.49567 1.12810e-17
3870.00349 1.02716e-17
3871.50113 1.54553e-17
3872.99876 1.06466e-17
3874.49640 7.37729e-18
3876.00422 9.96837e-18
3877.50186 1.32767e-17
3878.99950 7.92391e-18
3880.49713 1.02230e-17
3881.99477 6.92184e-18
3883.50259 8.35718e-18
3885.00023 7.70501e-18
3886.49786 1.02137e-17
3887.99550 9.44342e-18
3889.50332 1.12910e-17
3891.00096 9.60916e-18
3892.49860 4.79080e-18
3893.99623 6.82511e-18
3895.50406 1.15650e-17
3897.00169 1.12224e-17
3898.49933 1.20572e-17
3899.99696 1.32632e-17
3901.50479 9.88069e-18
3903.00242 1.16820e-17
3904.50006 1.15372e-17
3905.99770 9.06711e-18
3907.49533 7.50231e-18
3909.00316 7.92522e-18
3910.50079 8.58587e-18
3911.99843 1.09001e-17
3913.49606 1.10131e-17
3915.00389 8.78599e-18
3916.50152 9.00772e-18
3917.99916 1.06437e-17
3919.49680 1.05138e-17
3921.00462 1.18292e-17
3922.50226 1.38490e-17
3923.99989 1.04215e-17
3925.49753 1.06303e-17
3926.99516 1.28102e-17
3928.50299 1.04981e-17
3930.00062 1.18842e-17
3931.49826 1.41499e-17
3932.99590 6.94095e-18
3934.50372 4.73659e-18
3936.00136 9.81591e-18
3937.49899 1.14977e-17
3938.99663 1.12324e-17
3940.50445 1.24642e-17
3942.00209 1.32009e-17
3943.49972 1.32728e-17
3944.99736 1.46488e-17
3946.49500 1.40404e-17
3948.00282 1.24417e-17
3949.50046 1.02835e-17
3950.99809 1.16618e-17
3952.49573 1.41959e-17
3954.00355 1.10878e-17
3955.50119 1.00741e-17
3956.99882 1.19975e-17
3958.49646 1.34337e-17
3960.00428 1.23482e-17
3961.50192 1.33286e-17
3962.99956 1.44562e-17
3964.49719 1.58638e-17
3965.99483 1.39924e-17
3967.50265 1.26815e-17
3969.00029 1.17150e-17
3970.49792 1.47723e-17
3971.99556 1.49086e-17
3973.50338 1.20804e-17
3975.00102 8.36165e-18
3976.49866 1.02340e-17
3977.99629 1.43619e-17
3979.50412 1.52507e-17
3981.00175 1.24403e-17
3982.49939 1.26720e-17
3983.99702 1.24313e-17
3985.50485 1.36565e-17
3987.00248 1.30819e-17
3988.50012 1.08963e-17
3989.99776 8.45627e-18
3991.49539 5.04144e-18
3993.00322 4.99003e-18
3994.50085 9.25967e-18
3995.99849 1.13757e-17
3997.49612 1.52886e-17
3999.00395 1.35949e-17
4000.50158 1.03884e-17
4001.99922 1.15566e-17
4003.49686 8.44030e-18
4005.00468 7.33037e-18
4006.50232 1.17313e-17
4007.99995 1.15539e-17
4009.49759 8.05969e-18
4010.99522 9.76122e-18
4012.50305 1.07284e-17
4014.00068 9.74803e-18
4015.49832 9.31857e-18
4016.99596 7.37639e-18
4018.50378 1.12931e-17
4020.00142 1.28473e-17
4021.49905 1.13365e-17
4022.99669 1.42284e-17
4024.50451 1.37217e-17
4026.00215 1.13336e-17
4027.49978 1.28682e-17
4028.99742 1.14746e-17
4030.49506 5.55456e-18
4032.00288 2.50261e-18
4033.50052 1.06639e-17
4034.99815 1.09447e-17
4036.49579 8.69268e-18
4038.00361 1.28914e-17
4039.50125 1.02371e-17
4040.99888 1.08259e-17
4042.49652 8.62583e-18
4044.00434 9.06674e-18
4045.50198 1.31908e-17
4046.99962 1.52526e-17
4048.49725 1.08517e-17
4049.99489 1.03450e-17
4051.50271 1.15327e-17
4053.00035 9.73956e-18
4054.49798 8.88691e-18
4055.99562 1.01870e-17
4057.50344 8.12314e-18
4059.00108 9.95276e-18
4060.49872 9.84994e-18
4061.99635 1.15256e-17
4063.50418 1.30656e-17
4065.00181 1.26975e-17
4066.49945 1.05956e-17
4067.99708 6.92689e-18
4069.50491 9.83726e-18
4071.00254 1.19432e-17
4072.50018 1.03228e-17
4073.99782 9.42471e-18
4075.49545 1.06435e-17
4077.00328 1.19485e-17
4078.50091 1.31004e-17
4079.99855 1.25023e-17
4081.49618 1.40516e-17
4083.00401 1.24058e-17
4084.50164 9.73214e-18
4085.99928 1.25140e-17
4087.49692 9.79017e-18
4089.00474 8.60580e-18
4090.50238 1.10147e-17
4092.00001 1.10580e-17
4093.49765 9.00756e-18
4094.99528 8.21233e-18
4096.50311 1.02657e-17
4098.00074 1.30341e-17
4099.49838 1.33543e-17
4100.99602 1.10875e-17
4102.50384 1.22058e-17
4104.00148 1.12221e-17
4105.49911 1.07608e-17
4106.99675 1.24006e-17
4108.50457 1.09092e-17
4110.00221 1.26441e-17
4111.49984 1.38098e-17
4112.99748 1.16520e-17
4114.49512 1.27017e-17
4116.00294 1.24708e-17
4117.50058 7.86614e-18
4118.99821 1.09968e-17
4120.49585 1.04123e-17
4122.00367 1.02362e-17
4123.50131 1.07198e-17
4124.99894 1.22674e-17
4126.49658 1.13390e-17
4128.00440 7.29860e-18
4129.50204 5.25702e-18
4130.99968 1.03523e-17
4132.49731 1.17717e-17
4133.99495 1.20009e-17
4135.50277 1.27048e-17
4137.00041 1.10552e-17
4138.49804 9.21714e-18
4139.99568 8.70271e-18
4141.50350 9.22244e-18
4143.00114 1.10500e-17
4144.49878 1.01694e-17
4145.99641 1.00116e-17
4147.50424 8.44420e-18
4149.00187 7.14186e-18
4150.49951 1.00883e-17
4151.99714 1.01343e-17
4153.49478 9.76350e-18
4155.00260 9.30890e-18
4156.50024 9.21877e-18
4157.99788 1.27265e-17
4159.49551 1.50925e-17
4161.00334 1.17054e-17
4162.50097 8.57190e-18
4163.99861 8.75880e-18
4165.49624 1.10461e-17
4167.00407 1.09998e-17
4168.50170 6.28719e-18
4169.99934 7.88559e-18
4171.49698 8.02444e-18
4173.00480 9.36578e-18
4174.50244 1.22476e-17
4176.00007 1.04652e-17
4177.49771 1.28085e-17
4178.99534 1.23649e-17
4180.50317 1.02077e-17
4182.00080 1.01814e-17
4183.49844 9.92152e-18
4184.99608 8.78302e-18
4186.50390 1.11064e-17
4188.00154 1.19074e-17
4189.49917 9.86241e-18
4190.99681 9.78556e-18
4192.50463 1.12862e-17
4194.00227 1.07868e-17
4195.49990 9.58201e-18
4196.99754 9.13028e-18
4198.49518 9.00633e-18
4200.00300 7.05587e-18
4201.50064 8.12604e-18
4202.99827 1.04079e-17
4204.49591 8.32181e-18
4206.00373 8.95652e-18
4207.50137 9.91753e-18
4208.99900 8.81169e-18
4210.49664 1.06970e-17
4212.00446 1.18579e-17
4213.50210 1.03476e-17
4214.99974 1.00654e-17
4216.49737 1.08584e-17
4218.00520 8.74425e-18
4219.50283 7.17612e-18
4221.00047 7.22763e-18
4222.49810 1.10951e-17
4223.99574 1.35849e-17
4225.50356 9.22269e-18
4227.00120 8.58546e-18
4228.49884 1.14807e-17
4229.99647 1.08441e-17
4231.50430 1.19544e-17
4233.00193 1.16224e-17
4234.49957 9.05533e-18
4235.99720 1.07956e-17
4237.50503 1.02375e-17
4239.00266 1.06457e-17
4240.50030 1.09233e-17
4241.99794 9.73784e-18
4243.49557 9.20301e-18
4245.00340 1.16757e-17
4246.50103 9.91823e-18
4247.99867 1.12053e-17
4249.49630 1.08255e-17
4251.00413 9.71382e-18
4252.50176 9.50206e-18
4253.99940 1.08197e-17
4255.49704 1.03610e-17
4257.00486 9.42312e-18
4258.50250 1.10902e-17
4260.00013 1.10191e-17
4261.49777 1.01995e-17
4262.99540 9.42838e-18
4264.50323 8.25675e-18
4266.00086 1.05667e-17
4267.49850 1.07517e-17
4268.99614 9.63138e-18
4270.50396 9.40466e-18
4272.00160 1.05464e-17
4273.49923 1.16774e-17
4274.99687 7.63220e-18
4276.50469 8.51835e-18
4278.00233 1.00387e-17
4279.49996 8.72348e-18
4280.99760 9.03867e-18
4282.49524 8.03806e-18
4284.00306 8.44676e-18
4285.50070 1.05207e-17
4286.99833 1.01172e-17
4288.49597 1.06744e-17
4290.00379 1.13577e-17
4291.50143 1.08774e-17
4292.99906 1.33657e-17
4294.49670 1.39689e-17
4296.00452 1.16723e-17
4297.50216 1.25358e-17
4298.99980 1.08311e-17
4300.49743 1.13530e-17
4301.99507 1.18466e-17
4303.50289 1.05235e-17
4305.00053 9.93726e-18
4306.49816 7.08712e-18
4307.99580 1.17013e-17
4309.50362 1.14165e-17
4311.00126 1.06395e-17
4312.49890 1.02112e-17
4313.99653 1.15774e-17
4315.50436 1.22223e-17
4317.00199 8.51637e-18
4318.49963 9.88420e-18
4319.99726 1.19393e-17
4321.49490 9.65914e-18
4323.00272 9.62016e-18
4324.50036 6.93656e-18
4325.99800 6.91750e-18
4327.49563 7.43933e-18
4329.00346 8.78865e-18
4330.50109 1.05387e-17
4331.99873 1.11782e-17
4333.49636 8.99173e-18
4335.00419 8.50798e-18
4336.50182 1.10181e-17
4337.99946 9.79524e-18
4339.49710 9.07445e-18
4341.00492 1.16861e-17
4342.50256 1.29729e-17
4344.00019 1.05395e-17
4345.49783 1.05894e-17
4346.99546 1.03955e-17
4348.50329 8.48237e-18
4350.00092 8.77852e-18
4351.49856 8.74361e-18
4352.99620 8.79518e-18
4354.50402 9.60748e-18
4356.00166 1.02517e-17
4357.49929 1.13869e-17
4358.99693 8.82230e-18
4360.50475 9.17150e-18
4362.00239 1.17604e-17
4363.50002 1.09711e-17
4364.99766 1.05171e-17
4366.49530 1.06469e-17
4368.00312 1.09075e-17
4369.50076 8.77915e-18
4370.99839 7.60530e-18
4372.49603 9.51378e-18
4374.00385 1.08258e-17
4375.50149 6.94244e-18
4376.99912 6.65889e-18
4378.49676 1.03937e-17
4380.00458 1.05230e-17
4381.50222 1.19030e-17
4382.99986 9.30421e-18
4384.49749 7.95661e-18
4385.99513 7.81703e-18
4387.50295 9.20606e-18
4389.00059 8.71109e-18
4390.49822 9.33830e-18
4391.99586 9.98091e-18
4393.50368 8.57407e-18
4395.00132 8.68451e-18
4396.49896 9.82957e-18
4397.99659 1.09042e-17
4399.50442 9.62680e-18
4401.00205 9.03678e-18
4402.49969 1.08730e-17
4403.99732 9.71173e-18
4405.50515 9.82726e-18
4407.00278 9.87929e-18
4408.50042 8.96128e-18
4409.99806 6.72977e-18
4411.49569 8.18003e-18
4413.00352 9.57775e-18
4414.50115 9.65706e-18
4415.99879 9.68513e-18
4417.49642 9.71318e-18
4419.00425 9.74123e-18
4420.50188 9.76928e-18
4421.99952 9.79732e-18
4423.49716 9.82536e-18
4425.00498 9.85340e-18
4426.50262 9.88143e-18
4428.00025 9.90945e-18
4429.49789 9.93749e-18
4430.99552 9.96550e-18
4432.50335 9.99352e-18
4434.00098 1.00215e-17
4435.49862 1.00496e-17
4436.99626 1.00776e-17
4438.50408 1.01056e-17
4440.00172 1.01336e-17
4441.49935 1.01616e-17
4442.99699 1.01896e-17
4444.50481 1.02176e-17
4446.00245 1.02455e-17
4447.50008 1.02735e-17
4448.99772 1.03015e-17
4450.49536 1.03295e-17
4452.00318 1.03575e-17
4453.50082 1.03854e-17
4454.99845 1.04134e-17
4456.49609 1.04414e-17
4458.00391 1.04693e-17
4459.50155 1.04973e-17
4460.99918 1.05252e-17
4462.49682 1.05532e-17
4464.00464 1.05811e-17
4465.50228 1.06091e-17
4466.99992 1.06370e-17
4468.49755 1.06649e-17
4469.99519 1.06929e-17
4471.50301 1.07208e-17
4473.00065 1.07487e-17
4474.49828 1.07766e-17
4475.99592 1.08046e-17
4477.50374 1.08880e-17
4479.00138 1.06135e-17
4480.49902 1.22040e-17
4481.99665 1.12594e-17
4483.50448 1.03505e-17
4485.00211 9.72164e-18
4486.49975 1.15909e-17
4487.99738 8.29493e-18
4489.49502 1.07908e-17
4491.00284 1.13672e-17
4492.50048 8.71061e-18
4493.99812 9.34539e-18
4495.49575 9.75452e-18
4497.00358 1.00837e-17
4498.50121 1.04494e-17
4499.99885 1.06231e-17
4501.49648 1.12961e-17
4503.00431 1.07684e-17
4504.50194 1.10855e-17
4505.99958 1.12893e-17
4507.49722 1.16999e-17
4508.99485 1.06216e-17
4510.50268 7.67452e-18
4512.00031 8.90191e-18
4513.49795 1.23998e-17
4514.99558 1.18379e-17
4516.50341 9.71525e-18
4518.00104 9.94884e-18
4519.49868 1.24982e-17
4520.99632 1.42612e-17
4522.50414 1.33654e-17
4524.00178 1.23265e-17
4525.49941 1.23664e-17
4526.99705 1.41214e-17
4528.50487 1.12453e-17
4530.00251 1.11845e-17
4531.50014 1.32479e-17
4532.99778 1.23205e-17
4534.49542 1.04039e-17
4536.00324 1.19132e-17
4537.50088 1.23313e-17
4538.99851 9.65435e-18
4540.49615 1.08171e-17
4542.00397 1.04544e-17
4543.50161 1.14580e-17
4544.99924 1.19790e-17
4546.49688 1.33886e-17
4548.00470 1.38359e-17
4549.50234 1.12815e-17
4550.99998 1.01877e-17
4552.49761 1.05434e-17
4553.99525 1.11661e-17
4555.50307 1.18792e-17
4557.00071 1.26995e-17
4558.49834 1.30643e-17
4559.99598 1.08128e-17
4561.50380 1.06141e-17
4563.00144 1.16664e-17
4564.49908 1.22086e-17
4565.99671 1.41810e-17
4567.50454 1.25110e-17
4569.00217 1.34519e-17
4570.49981 1.50214e-17
4571.99744 1.49015e-17
4573.49508 1.54282e-17
4575.00290 1.35362e-17
4576.50054 1.33231e-17
4577.99818 1.47302e-17
4579.49581 1.33901e-17
4581.00364 1.24193e-17
4582.50127 1.25472e-17
4583.99891 1.31130e-17
4585.49654 1.35722e-17
4587.00437 1.34324e-17
4588.50200 1.32316e-17
4589.99964 1.30481e-17
4591.49728 1.36399e-17
4593.00510 1.37830e-17
4594.50274 1.29100e-17
4596.00037 1.36308e-17
4597.49801 1.68145e-17
4598.99564 1.53820e-17
4600.50347 1.26535e-17
4602.00110 1.28548e-17
4603.49874 1.47057e-17
4604.99638 1.43406e-17
4606.50420 1.43238e-17
4608.00184 1.58483e-17
4609.49947 1.15730e-17
4610.99711 1.12261e-17
4612.50493 1.37640e-17
4614.00257 1.33064e-17
4615.50020 1.42487e-17
4616.99784 1.39832e-17
4618.49548 1.44688e-17
4620.00330 1.40773e-17
4621.50094 1.35755e-17
4622.99857 1.44950e-17
4624.49621 1.52527e-17
4626.00403 1.57718e-17
4627.50167 1.40074e-17
4628.99930 1.24350e-17
4630.49694 1.39630e-17
4632.00476 1.36731e-17
4633.50240 1.49245e-17
4635.00004 1.42123e-17
4636.49767 1.37065e-17
4637.99531 1.55132e-17
4639.50313 1.57228e-17
4641.00077 1.41763e-17
4642.49840 1.33077e-17
4643.99604 1.32789e-17
4645.50386 1.62486e-17
4647.00150 1.76758e-17
4648.49914 1.46337e-17
4649.99677 1.65652e-17
4651.50460 1.92378e-17
4653.00223 1.70126e-17
4654.49987 1.40441e-17
4655.99750 1.51331e-17
4657.49514 1.94076e-17
4659.00296 2.10168e-17
4660.50060 1.88308e-17
4661.99824 2.00013e-17
4663.49587 1.81786e-17
4665.00370 1.73504e-17
4666.50133 1.66829e-17
4667.99897 1.47314e-17
4669.49660 1.45942e-17
4671.00443 1.38662e-17
4672.50206 1.34689e-17
4673.99970 1.11875e-17
4675.49734 1.20409e-17
4676.99497 1.50952e-17
4678.50280 1.44268e-17
4680.00043 1.35660e-17
4681.49807 1.41798e-17
4682.99570 1.51915e-17
4684.50353 1.27632e-17
4686.00116 1.29784e-17
4687.49880 1.24301e-17
4688.99644 1.30955e-17
4690.50426 1.32083e-17
4692.00190 1.30372e-17
4693.49953 1.34394e-17
4694.99717 1.28572e-17
4696.49480 1.19484e-17
4698.00263 1.07941e-17
4699.50026 1.07163e-17
4700.99790 1.21801e-17
4702.49554 1.07253e-17
4704.00336 1.11531e-17
4705.50100 9.45123e-18
4706.99863 1.05666e-17
4708.49627 1.23606e-17
4710.00409 1.12695e-17
4711.50173 1.05440e-17
4712.99936 1.05755e-17
4714.49700 1.00280e-17
4716.00482 1.07531e-17
4717.50246 1.14726e-17
4719.00010 1.05854e-17
4720.49773 9.36743e-18
4721.99537 1.13182e-17
4723.50319 1.19626e-17
4725.00083 1.00293e-17
4726.49846 1.01994e-17
4727.99610 1.11276e-17
4729.50392 9.42196e-18
4731.00156 1.27260e-17
4732.49920 1.21244e-17
4733.99683 1.20931e-17
4735.50466 1.23304e-17
4737.00229 1.15846e-17
4738.49993 1.06476e-17
4739.99756 1.11469e-17
4741.49520 1.11833e-17
4743.00302 1.15987e-17
4744.50066 1.37585e-17
4745.99830 1.03557e-17
4747.49593 1.08345e-17
4749.00376 1.20831e-17
4750.50139 1.10482e-17
4751.99903 1.12412e-17
4753.49666 1.01566e-17
4755.00449 1.06185e-17
4756.50212 1.03135e-17
4757.99976 1.12818e-17
4759.49740 9.76868e-18
4761.00522 9.32871e-18
4762.50286 9.78366e-18
4764.00049 1.05478e-17
4765.49813 1.03060e-17
4766.99576 1.12951e-17
4768.50359 1.08473e-17
4770.00122 8.76781e-18
4771.49886 1.05539e-17
4772.99650 1.08600e-17
4774.50432 9.38902e-18
4776.00196 9.97376e-18
4777.49959 1.02182e-17
4778.99723 9.62606e-18
4780.50505 8.93595e-18
4782.00269 8.05048e-18
4783.50032 1.00190e-17
4784.99796 1.12775e-17
4786.49560 9.00869e-18
4788.00342 1.00557e-17
4789.50106 1.04917e-17
4790.99869 1.01301e-17
4792.49633 1.14065e-17
4794.00415 1.04910e-17
4795.50179 9.78660e-18
4796.99942 9.90100e-18
4798.49706 1.04781e-17
4800.00488 9.99183e-18
4801.50252 9.27424e-18
4803.00016 1.02723e-17
4804.49779 1.19749e-17
4805.99543 1.07889e-17
4807.50325 9.79182e-18
4809.00089 1.10924e-17
4810.49852 1.03956e-17
4811.99616 9.23712e-18
4813.50398 9.43804e-18
4815.00162 1.07176e-17
4816.49926 9.60245e-18
4817.99689 1.17921e-17
4819.50472 1.02623e-17
4821.00235 9.86538e-18
4822.49999 1.00627e-17
4823.99762 1.18235e-17
4825.49526 1.07829e-17
4827.00308 1.04316e-17
4828.50072 1.07436e-17
4829.99836 1.09205e-17
4831.49599 1.08031e-17
4833.00382 1.03462e-17
4834.50145 1.01731e-17
4835.99909 1.04373e-17
4837.49672 1.24566e-17
4839.00455 1.26437e-17
4840.50218 1.03285e-17
4841.99982 9.44538e-18
4843.49746 1.00514e-17
4844.99509 1.06785e-17
4846.50292 1.04778e-17
4848.00055 1.01515e-17
4849.49819 1.11592e-17
4850.99582 1.15747e-17
4852.50365 1.10438e-17
4854.00128 1.08427e-17
4855.49892 1.06786e-17
4856.99656 1.09559e-17
4858.50438 1.16524e-17
4860.00202 1.14097e-17
4861.49965 1.16144e-17
4862.99729 1.23193e-17
4864.49492 1.10500e-17
4866.00275 1.18523e-17
4867.50038 1.13559e-17
4868.99802 9.11935e-18
4870.49566 1.01275e-17
4872.00348 1.10434e-17
4873.50112 9.46001e-18
4874.99875 9.10983e-18
4876.49639 1.20394e-17
4878.00421 1.19640e-17
4879.50185 9.37543e-18
4880.99948 8.28982e-18
4882.49712 9.95408e-18
4884.00494 1.15180e-17
4885.50258 1.06853e-17
4887.00022 1.06103e-17
4888.49785 1.17221e-17
4889.99549 1.03221e-17
4891.50331 1.06677e-17
4893.00095 1.12006e-17
4894.49858 1.19123e-17
4895.99622 9.18431e-18
4897.50404 9.27894e-18
4899.00168 1.08717e-17
4900.49932 1.30044e-17
4901.99695 1.12483e-17
4903.50478 8.89767e-18
4905.00241 1.04513e-17
4906.50005 1.07647e-17
4907.99768 1.07883e-17
4909.49532 1.10465e-17
4911.00314 1.03157e-17
4912.50078 9.61304e-18
4913.99842 1.13327e-17
4915.49605 1.16061e-17
4917.00388 1.16000e-17
4918.50151 1.25384e-17
4919.99915 1.04332e-17
4921.49678 1.09173e-17
4923.00461 1.19473e-17
4924.50224 1.25483e-17
4925.99988 1.17896e-17
4927.49752 1.07963e-17
4928.99515 1.17628e-17
4930.50298 1.29081e-17
4932.00061 1.28015e-17
4933.49825 1.07212e-17
4934.99588 1.08562e-17
4936.50371 1.09911e-17
4938.00134 1.11260e-17
4939.49898 1.12610e-17
4940.99662 1.13959e-17
4942.50444 1.15307e-17
4944.00208 1.16656e-17
4945.49971 1.18005e-17
4946.99735 1.19353e-17
4948.50517 1.20701e-17
4950.00281 1.22049e-17
4951.50044 1.23397e-17
4952.99808 1.24745e-17
4954.49572 1.26093e-17
4956.00354 1.27440e-17
4957.50118 1.28787e-17
4958.99881 1.30134e-17
4960.49645 1.31481e-17
4962.00427 1.32828e-17
4963.50191 1.34175e-17
4964.99954 1.35521e-17
4966.49718 1.36867e-17
4968.00500 1.38214e-17
4969.50264 1.39560e-17
4971.00028 1.40905e-17
4972.49791 1.42251e-17
4973.99555 1.43252e-17
4975.50337 1.19913e-17
4977.00101 1.31245e-17
4978.49864 1.27201e-17
4979.99628 1.18594e-17
4981.50410 1.21631e-17
4983.00174 1.07421e-17
4984.49938 1.05993e-17
4985.99701 9.82754e-18
4987.50484 9.33750e-18
4989.00247 1.01925e-17
4990.50011 1.10476e-17
4991.99774 1.06145e-17
4993.49538 1.14372e-17
4995.00320 1.23525e-17
4996.50084 1.18288e-17
4997.99848 9.67325e-18
4999.49611 1.02350e-17
5001.00394 1.11992e-17
5002.50157 1.06033e-17
5003.99921 9.07102e-18
5005.49684 8.80733e-18
5007.00467 9.23663e-18
5008.50230 1.06803e-17
5009.99994 1.12801e-17
5011.49758 1.01116e-17
5012.99521 1.05067e-17
5014.50304 1.24301e-17
5016.00067 1.18986e-17
5017.49831 1.02696e-17
5018.99594 8.90935e-18
5020.50377 9.10510e-18
5022.00140 8.89138e-18
5023.49904 8.58146e-18
5024.99668 1.01912e-17
5026.50450 1.06192e-17
5028.00214 9.64013e-18
5029.49977 1.03048e-17
5030.99741 8.27743e-18
5032.49504 7.54053e-18
5034.00287 7.63340e-18
5035.50050 7.72628e-18
5036.99814 7.81912e-18
5038.49578 7.91195e-18
5040.00360 8.00480e-18
5041.50124 8.09761e-18
5042.99887 8.19041e-18
5044.49651 8.28320e-18
5046.00433 8.37601e-18
5047.50197 8.46878e-18
5048.99960 8.56154e-18
5050.49724 8.65432e-18
5051.99488 8.74705e-18
5053.50270 8.83978e-18
5055.00034 8.93252e-18
5056.49797 9.02523e-18
5057.99561 9.11792e-18
5059.50343 9.21064e-18
5061.00107 9.30331e-18
5062.49870 9.39597e-18
5063.99634 9.48866e-18
5065.50416 9.58130e-18
5067.00180 9.67393e-18
5068.49944 9.76656e-18
5069.99707 9.85920e-18
5071.50490 9.95180e-18
5073.00253 1.01414e-17
5074.50017 9.76161e-18
5075.99780 8.84270e-18
5077.49544 9.77001e-18
5079.00326 8.54444e-18
5080.50090 8.06283e-18
5081.99854 9.14140e-18
5083.49617 9.16798e-18
5085.00400 9.19456e-18
5086.50163 9.22113e-18
5087.99927 9.24770e-18
5089.49690 9.27427e-18
5091.00473 9.30083e-18
5092.50236 9.32739e-18
5094.00000 9.35396e-18
5095.49764 9.38051e-18
5096.99527 9.40707e-18
5098.50310 9.43362e-18
5100.00073 9.46017e-18
5101.49837 9.48672e-18
5102.99600 9.51326e-18
5104.50383 9.53980e-18
5106.00146 9.56634e-18
5107.49910 9.59288e-18
5108.99674 9.61941e-18
5110.50456 9.64594e-18
5112.00220 9.67247e-18
5113.49983 9.69899e-18
5114.99747 9.72551e-18
5116.49510 9.75203e-18
5118.00293 9.77855e-18
5119.50056 9.80506e-18
5120.99820 9.96554e-18
5122.49584 1.31580e-17
5124.00366 1.32318e-17
5125.50130 1.15468e-17
5126.99893 1.16964e-17
5128.49657 1.05735e-17
5130.00439 1.09450e-17
5131.50203 1.23332e-17
5132.99966 1.17092e-17
5134.49730 1.03480e-17
5136.00512 7.88726e-18
5137.50276 9.05204e-18
5139.00040 9.91436e-18
5140.49803 1.03923e-17
5141.99567 1.08511e-17
5143.50349 1.07166e-17
5145.00113 1.06160e-17
5146.49876 1.01537e-17
5147.99640 1.00155e-17
5149.50422 9.18196e-18
5151.00186 8.54448e-18
5152.49950 9.56741e-18
5153.99713 9.52969e-18
5155.50496 1.06076e-17
5157.00259 1.03969e-17
5158.50023 1.00552e-17
5159.99786 1.17509e-17
5161.49550 1.19501e-17
5163.00332 1.08357e-17
5164.50096 9.27848e-18
5165.99860 9.45868e-18
5167.49623 9.48792e-18
5169.00406 1.03119e-17
5170.50169 1.01740e-17
5171.99933 1.07345e-17
5173.49696 9.73803e-18
5175.00479 9.30484e-18
5176.50242 1.03506e-17
5178.00006 1.13676e-17
5179.49770 1.21268e-17
5180.99533 1.09716e-17
5182.50316 1.03732e-17
5184.00079 1.02256e-17
5185.49843 8.62503e-18
5186.99606 1.00047e-17
5188.50389 1.13950e-17
5190.00152 1.06848e-17
5191.49916 1.04718e-17
5192.99680 1.02502e-17
5194.50462 1.11217e-17
5196.00226 9.14504e-18
5197.49989 1.04881e-17
5198.99753 1.27455e-17
5200.49516 1.10583e-17
5202.00299 1.10503e-17
5203.50062 1.25113e-17
5204.99826 1.15785e-17
5206.49590 1.09692e-17
5208.00372 1.07161e-17
5209.50136 1.11999e-17
5210.99899 1.20822e-17
5212.49663 1.16543e-17
5214.00445 1.11372e-17
5215.50209 1.09601e-17
5216.99972 1.25724e-17
5218.49736 1.20016e-17
5219.99500 1.14432e-17
5221.50282 1.08118e-17
5223.00046 9.76733e-18
5224.49809 9.66782e-18
5225.99573 1.09520e-17
5227.50355 1.14895e-17
5229.00119 1.09648e-17
5230.49882 1.12031e-17
5231.99646 1.31690e-17
5233.50428 1.39286e-17
5235.00192 1.33193e-17
5236.49956 1.10983e-17
5237.99719 1.18071e-17
5239.49483 1.28529e-17
5241.00265 1.50385e-17
5242.50029 1.32675e-17
5243.99792 1.18909e-17
5245.49556 1.20647e-17
5247.00338 1.19532e-17
5248.50102 1.16210e-17
5249.99866 1.01946e-17
5251.49629 9.78483e-18
5253.00412 1.15502e-17
5254.50175 1.27909e-17
5255.99939 1.32355e-17
5257.49702 1.39807e-17
5259.00485 1.48019e-17
5260.50248 1.35252e-17
5262.00012 1.18530e-17
5263.49776 1.32811e-17
5264.99539 1.33820e-17
5266.50322 1.43423e-17
5268.00085 1.41323e-17
5269.49849 1.29673e-17
5270.99612 1.16327e-17
5272.50395 1.38273e-17
5274.00158 1.44914e-17
5275.49922 1.29467e-17
5276.99686 1.10573e-17
5278.50468 1.26456e-17
5280.00232 1.40193e-17
5281.49995 1.24460e-17
5282.99759 1.36427e-17
5284.49522 1.46588e-17
5286.00305 1.20701e-17
5287.50068 1.03590e-17
5288.99832 1.24713e-17
5290.49596 1.31658e-17
5292.00378 1.30879e-17
5293.50142 1.35765e-17
5294.99905 1.39102e-17
5296.49669 1.56567e-17
5298.00451 1.60695e-17
5299.50215 1.50049e-17
5300.99978 1.42796e-17
5302.49742 1.31555e-17
5303.99506 1.26831e-17
5305.50288 1.55985e-17
5307.00052 1.40089e-17
5308.49815 1.18277e-17
5309.99579 1.27561e-17
5311.50361 1.46519e-17
5313.00125 1.39875e-17
5314.49888 1.32440e-17
5315.99652 1.23895e-17
5317.50434 1.28366e-17
5319.00198 1.35677e-17
5320.49962 1.40477e-17
5321.99725 1.50187e-17
5323.50508 1.38017e-17
5325.00271 1.36807e-17
5326.50035 1.36719e-17
5327.99798 1.30169e-17
5329.49562 1.50329e-17
5331.00344 1.56549e-17
5332.50108 1.58007e-17
5333.99872 1.46081e-17
5335.49635 1.44764e-17
5337.00418 1.61177e-17
5338.50181 1.60934e-17
5339.99945 1.47601e-17
5341.49708 1.52147e-17
5343.00491 1.54050e-17
5344.50254 1.64944e-17
5346.00018 1.64881e-17
5347.49782 1.49251e-17
5348.99545 1.46665e-17
5350.50328 1.63373e-17
5352.00091 1.71707e-17
5353.49855 1.66775e-17
5354.99618 1.57398e-17
5356.50401 1.51720e-17
5358.00164 1.54443e-17
5359.49928 1.52644e-17
5360.99692 1.40185e-17
5362.50474 1.52257e-17
5364.00238 1.63689e-17
5365.50001 1.55611e-17
5366.99765 1.48415e-17
5368.49528 1.38802e-17
5370.00311 1.36560e-17
5371.50074 1.40350e-17
5372.99838 1.59371e-17
5374.49602 1.62849e-17
5376.00384 1.50986e-17
5377.50148 1.46683e-17
5378.99911 1.45983e-17
5380.49675 1.42993e-17
5382.00457 1.40633e-17
5383.50221 1.55871e-17
5384.99984 1.66334e-17
5386.49748 1.70551e-17
5387.99512 1.56212e-17
5389.50294 1.58804e-17
5391.00058 1.50618e-17
5392.49821 1.41443e-17
5393.99585 1.39772e-17
5395.50367 1.56121e-17
5397.00131 1.52003e-17
5398.49894 1.58226e-17
5399.99658 1.53582e-17
5401.50440 1.44227e-17
5403.00204 1.62802e-17
5404.49968 1.56048e-17
5405.99731 1.47548e-17
5407.49495 1.42834e-17
5409.00277 1.64050e-17
5410.50041 1.62340e-17
5411.99804 1.52337e-17
5413.49568 1.49933e-17
5415.00350 1.47506e-17
5416.50114 1.55608e-17
5417.99878 1.49962e-17
5419.49641 1.45454e-17
5421.00424 1.50089e-17
5422.50187 1.44988e-17
5423.99951 1.59036e-17
5425.49714 1.69291e-17
5426.99478 1.58725e-17
5428.50260 1.52271e-17
5430.00024 1.43043e-17
5431.49788 1.50382e-17
5432.99551 1.70954e-17
5434.50334 1.68121e-17
5436.00097 1.55091e-17
5437.49861 1.50699e-17
5438.99624 1.48830e-17
5440.50407 1.50402e-17
5442.00170 1.60150e-17
5443.49934 1.50431e-17
5444.99698 1.40103e-17
5446.50480 1.52719e-17
5448.00244 1.55113e-17
5449.50007 1.55553e-17
5450.99771 1.57797e-17
5452.49534 1.65319e-17
5454.00317 1.69937e-17
5455.50080 1.70920e-17
5456.99844 1.69100e-17
5458.49608 1.68159e-17
5460.00390 1.71112e-17
5461.50154 1.54004e-17
5462.99917 1.41785e-17
5464.49681 1.37312e-17
5466.00463 1.53553e-17
5467.50227 1.73338e-17
5468.99990 1.76510e-17
5470.49754 1.57096e-17
5471.99518 1.51112e-17
5473.50300 1.81936e-17
5475.00064 1.68306e-17
5476.49827 1.57175e-17
5477.99591 1.57200e-17
5479.50373 1.66845e-17
5481.00137 1.73958e-17
5482.49900 1.75714e-17
5483.99664 1.78674e-17
5485.50446 1.84838e-17
5487.00210 1.68585e-17
5488.49974 1.70151e-17
5489.99737 1.79433e-17
5491.49501 1.73109e-17
5493.00283 1.66534e-17
5494.50047 1.83152e-17
5495.99810 1.76991e-17
5497.49574 1.71594e-17
5499.00356 1.83843e-17
5500.50120 1.86399e-17
5501.99884 1.68465e-17
5503.49647 1.75138e-17
5505.00430 1.78173e-17
5506.50193 1.65860e-17
5507.99957 1.76451e-17
5509.49720 1.87489e-17
5511.00503 1.84091e-17
5512.50266 1.88594e-17
5514.00030 1.83891e-17
5515.49794 1.85328e-17
5516.99557 1.92520e-17
5518.50340 1.83941e-17
5520.00103 1.68370e-17
5521.49867 1.86915e-17
5522.99630 1.91287e-17
5524.50413 1.86362e-17
5526.00176 1.80416e-17
5527.49940 1.75906e-17
5528.99704 1.86219e-17
5530.50486 1.84412e-17
5532.00250 1.93023e-17
5533.50013 2.13029e-17
5534.99777 1.99929e-17
5536.49540 1.93780e-17
5538.00323 1.99903e-17
5539.50086 1.80483e-17
5540.99850 1.80476e-17
5542.49614 1.86445e-17
5544.00396 1.89844e-17
5545.50160 1.90174e-17
5546.99923 2.05333e-17
5548.49687 1.99385e-17
5550.00469 2.05043e-17
5551.50233 1.82259e-17
5552.99996 1.78536e-17
5554.49760 2.01788e-17
5555.99524 1.91227e-17
5557.50306 2.15797e-17
5559.00070 2.08753e-17
5560.49833 1.87008e-17
5561.99597 1.97324e-17
5563.50379 1.86133e-17
5565.00143 1.78950e-17
5566.49906 1.74053e-17
5567.99670 1.57792e-17
5569.50452 1.63280e-17
5571.00216 1.83705e-17
5572.49980 2.09809e-17
5573.99743 2.00157e-17
5575.49507 2.03069e-17
5577.00289 1.97513e-17
5578.50053 1.57614e-17
5579.99816 1.37741e-17
5581.49580 1.64294e-17
5583.00362 1.81160e-17
5584.50126 1.69030e-17
5585.99890 1.84479e-17
5587.49653 1.80996e-17
5589.00436 1.76824e-17
5590.50199 1.72653e-17
5591.99963 1.74395e-17
5593.49726 1.72729e-17
5594.99490 1.67584e-17
5596.50272 1.76543e-17
5598.00036 1.65237e-17
5599.49800 1.66906e-17
5600.99563 1.61325e-17
5602.50346 1.70739e-17
5604.00109 1.72121e-17
5605.49873 1.75432e-17
5606.99636 1.76607e-17
5608.50419 1.59958e-17
5610.00182 1.52364e-17
5611.49946 1.53612e-17
5612.99710 1.54928e-17
5614.50492 1.51282e-17
5616.00256 1.53776e-17
5617.50019 1.56911e-17
5618.99783 1.50566e-17
5620.49546 1.71950e-17
5622.00329 1.70533e-17
5623.50092 1.63759e-17
5624.99856 1.69406e-17
5626.49620 1.61462e-17
5628.00402 1.67631e-17
5629.50166 1.70976e-17
5630.99929 1.69315e-17
5632.49693 1.64396e-17
5634.00475 1.56724e-17
5635.50239 1.54813e-17
5637.00002 1.48643e-17
5638.49766 1.50927e-17
5639.99530 1.61039e-17
5641.50312 1.54335e-17
5643.00076 1.42701e-17
5644.49839 1.41325e-17
5645.99603 1.46404e-17
5647.50385 1.49706e-17
5649.00149 1.49668e-17
5650.49912 1.45756e-17
5651.99676 1.47201e-17
5653.50458 1.53830e-17
5655.00222 1.63828e-17
5656.49986 1.68543e-17
5657.99749 1.52401e-17
5659.49513 1.50003e-17
5661.00295 1.50478e-17
5662.50059 1.60029e-17
5663.99822 1.62480e-17
5665.49586 1.47710e-17
5667.00368 1.37181e-17
5668.50132 1.35097e-17
5669.99896 1.47309e-17
5671.49659 1.49806e-17
5673.00442 1.46083e-17
5674.50205 1.63069e-17
5675.99969 1.50081e-17
5677.49732 1.44299e-17
5679.00515 1.47580e-17
5680.50278 1.41104e-17
5682.00042 1.66398e-17
5683.49806 1.62174e-17
5684.99569 1.64602e-17
5686.50352 1.62687e-17
5688.00115 1.43457e-17
5689.49879 1.36140e-17
5690.99642 1.31004e-17
5692.50425 1.31637e-17
5694.00188 1.45881e-17
5695.49952 1.35522e-17
5696.99716 1.30058e-17
5698.50498 1.38507e-17
5700.00262 1.34776e-17
5701.50025 1.50391e-17
5702.99789 1.47361e-17
5704.49552 1.34829e-17
5706.00335 1.20665e-17
5707.50098 1.26972e-17
5708.99862 1.40604e-17
5710.49626 1.37582e-17
5712.00408 1.13632e-17
5713.50172 1.10356e-17
5714.99935 1.32882e-17
5716.49699 1.37885e-17
5718.00481 1.36887e-17
5719.50245 1.45334e-17
5721.00008 1.41619e-17
5722.49772 1.28887e-17
5723.99536 1.28687e-17
5725.50318 1.27251e-17
5727.00082 1.34790e-17
5728.49845 1.47182e-17
5729.99609 1.48658e-17
5731.50391 1.32709e-17
5733.00155 1.29439e-17
5734.49918 1.56398e-17
5735.99682 1.47659e-17
5737.50464 1.12734e-17
5739.00228 1.14928e-17
5740.49992 1.35596e-17
5741.99755 1.31227e-17
5743.49519 1.25073e-17
5745.00301 1.35460e-17
5746.50065 1.42520e-17
5747.99828 1.25395e-17
5749.49592 1.03083e-17
5751.00374 9.98107e-18
5752.50138 1.11350e-17
5753.99902 1.12173e-17
5755.49665 1.09682e-17
5757.00448 1.33176e-17
5758.50211 1.21689e-17
5759.99975 1.18047e-17
5761.49738 1.22103e-17
5762.99502 1.10174e-17
5764.50284 1.14621e-17
5766.00048 1.11229e-17
5767.49812 1.02758e-17
5768.99575 1.09690e-17
5770.50358 1.09350e-17
5772.00121 1.21707e-17
5773.49885 1.33761e-17
5774.99648 1.41214e-17
5776.50431 1.26080e-17
5778.00194 1.18304e-17
5779.49958 1.22917e-17
5780.99722 1.20814e-17
5782.49485 1.25166e-17
5784.00268 1.28383e-17
5785.50031 1.32258e-17
5786.99795 1.31003e-17
5788.49558 1.18480e-17
5790.00341 1.11284e-17
5791.50104 1.17813e-17
5792.99868 1.31185e-17
5794.49632 1.15040e-17
5796.00414 1.14356e-17
5797.50178 1.22795e-17
5798.99941 1.25643e-17
5800.49705 1.23593e-17
5802.00487 1.25501e-17
5803.50251 1.33380e-17
5805.00014 1.28379e-17
5806.49778 1.33693e-17
5807.99542 1.19977e-17
5809.50324 1.10170e-17
5811.00088 1.11050e-17
5812.49851 1.12593e-17
5813.99615 1.25898e-17
5815.50397 1.31184e-17
5817.00161 1.39356e-17
5818.49924 1.34519e-17
5819.99688 1.25287e-17
5821.50470 1.29078e-17
5823.00234 1.34934e-17
5824.49998 1.27432e-17
5825.99761 1.19301e-17
5827.49525 1.39501e-17
5829.00307 1.43862e-17
5830.50071 1.24359e-17
5831.99834 1.29813e-17
5833.49598 1.35560e-17
5835.00380 1.26474e-17
5836.50144 1.36566e-17
5837.99908 1.32985e-17
5839.49671 1.27708e-17
5841.00454 1.18749e-17
5842.50217 1.18062e-17
5843.99981 1.46801e-17
5845.49744 1.40396e-17
5846.99508 1.26154e-17
5848.50290 1.38511e-17
5850.00054 1.46628e-17
5851.49818 1.50555e-17
5852.99581 1.41673e-17
5854.50364 1.20213e-17
5856.00127 1.09963e-17
5857.49891 1.30405e-17
5858.99654 1.21304e-17
5860.50437 1.12908e-17
5862.00200 1.34848e-17
5863.49964 1.34573e-17
5864.99728 1.19272e-17
5866.50510 1.41611e-17
5868.00274 1.33936e-17
5869.50037 1.19780e-17
5870.99801 1.30311e-17
5872.49564 1.26955e-17
5874.00347 1.24199e-17
5875.50110 1.30563e-17
5876.99874 1.22894e-17
5878.49638 1.21284e-17
5880.00420 1.33926e-17
5881.50184 1.41594e-17
5882.99947 1.42192e-17
5884.49711 1.47413e-17
5886.00493 1.26939e-17
5887.50257 1.51816e-17
5889.00020 1.36774e-17
5890.49784 1.37013e-17
5891.99548 1.17493e-17
5893.50330 1.24503e-17
5895.00094 1.33379e-17
5896.49857 1.42224e-17
5897.99621 1.21521e-17
5899.50403 1.11638e-17
5901.00167 1.16560e-17
5902.49930 1.04751e-17
5903.99694 1.31765e-17
5905.50476 1.42623e-17
5907.00240 1.37427e-17
5908.50004 1.38590e-17
5909.99767 1.54082e-17
5911.49531 1.44131e-17
5913.00313 1.48849e-17
5914.50077 1.42672e-17
5915.99840 1.31713e-17
5917.49604 1.30234e-17
5919.00386 1.29442e-17
5920.50150 1.33246e-17
5921.99914 1.43313e-17
5923.49677 1.35035e-17
5925.00460 1.23553e-17
5926.50223 1.31304e-17
5927.99987 1.37249e-17
5929.49750 1.38682e-17
5930.99514 1.39925e-17
5932.50296 1.36800e-17
5934.00060 1.25373e-17
5935.49824 1.32737e-17
5936.99587 1.31235e-17
5938.50370 1.24644e-17
5940.00133 1.31961e-17
5941.49897 1.40589e-17
5942.99660 1.49479e-17
5944.50443 1.35332e-17
5946.00206 1.33097e-17
5947.49970 1.49960e-17
5948.99734 1.46447e-17
5950.49497 1.40746e-17
5952.00280 1.39668e-17
5953.50043 1.35205e-17
5954.99807 1.23255e-17
5956.49570 1.23469e-17
5958.00353 1.23683e-17
5959.50116 1.23897e-17
5960.99880 1.24110e-17
5962.49644 1.24324e-17
5964.00426 1.24538e-17
5965.50190 1.24752e-17
5966.99953 1.24966e-17
5968.49717 1.25180e-17
5969.99480 1.25394e-17
5971.50263 1.25607e-17
5973.00026 1.25821e-17
5974.49790 1.26035e-17
5975.99554 1.26249e-17
5977.50336 1.26462e-17
5979.00100 1.26676e-17
5980.49863 1.26890e-17
5981.99627 1.27104e-17
5983.50409 1.27317e-17
5985.00173 1.27531e-17
5986.49936 1.27745e-17
5987.99700 1.27959e-17
5989.50482 1.28172e-17
5991.00246 1.28386e-17
5992.50010 1.28600e-17
5993.99773 1.28813e-17
5995.49537 1.29027e-17
5997.00319 1.29241e-17
5998.50083 1.29454e-17
5999.99846 1.29668e-17
6001.49610 1.29881e-17
6003.00392 1.30095e-17
6004.50156 1.30309e-17
6005.99920 1.30522e-17
6007.49683 1.30736e-17
6009.00466 1.30949e-17
6010.50229 1.31163e-17
6011.99993 1.31376e-17
6013.49756 1.31590e-17
6014.99520 1.31803e-17
6016.50302 1.32017e-17
6018.00066 1.32230e-17
6019.49830 1.28025e-17
6020.99593 1.16922e-17
6022.50376 1.26764e-17
6024.00139 1.09581e-17
6025.49903 1.16141e-17
6026.99666 1.34956e-17
6028.50449 1.15740e-17
6030.00212 1.17607e-17
6031.49976 1.32382e-17
6032.99740 1.37242e-17
6034.49503 1.33509e-17
6036.00286 1.30439e-17
6037.50049 1.28306e-17
6038.99813 9.77487e-18
6040.49576 1.04850e-17
6042.00359 1.12872e-17
6043.50122 1.26728e-17
6044.99886 1.03177e-17
6046.49650 1.08967e-17
6048.00432 1.13469e-17
6049.50196 9.95564e-18
6050.99959 1.00038e-17
6052.49723 1.11924e-17
6054.00505 1.16680e-17
6055.50269 1.12479e-17
6057.00032 1.09791e-17
6058.49796 1.12025e-17
6059.99560 1.19820e-17
6061.50342 1.17856e-17
6063.00106 1.04015e-17
6064.49869 9.71954e-18
6065.99633 1.03713e-17
6067.50415 1.26861e-17
6069.00179 1.34005e-17
6070.49942 1.33239e-17
6071.99706 1.23053e-17
6073.50488 1.09743e-17
6075.00252 7.81103e-18
6076.50016 8.32716e-18
6077.99779 1.22462e-17
6079.49543 1.18110e-17
6081.00325 1.05131e-17
6082.50089 1.03840e-17
6083.99852 1.11841e-17
6085.49616 1.12505e-17
6087.00398 1.02970e-17
6088.50162 1.13174e-17
6089.99926 1.19890e-17
6091.49689 1.20535e-17
6093.00472 1.28864e-17
6094.50235 1.31571e-17
6095.99999 1.23140e-17
6097.49762 1.07448e-17
6098.99526 1.05211e-17
6100.50308 1.07129e-17
6102.00072 1.09740e-17
6103.49836 1.12678e-17
6104.99599 1.29835e-17
6106.50382 1.12855e-17
6108.00145 1.10236e-17
6109.49909 1.10674e-17
6110.99672 1.15007e-17
6112.50455 1.09807e-17
6114.00218 1.17029e-17
6115.49982 1.05930e-17
6116.99746 1.14526e-17
6118.49509 1.19897e-17
6120.00292 1.24710e-17
6121.50055 1.17820e-17
6122.99819 1.11687e-17
6124.49582 1.28327e-17
6126.00365 1.25881e-17
6127.50128 1.16798e-17
6128.99892 1.09660e-17
6130.49656 1.03580e-17
6132.00438 1.06489e-17
6133.50202 1.09611e-17
6134.99965 1.14369e-17
6136.49729 1.15000e-17
6137.99492 1.11984e-17
6139.50275 1.14095e-17
6141.00038 1.21995e-17
6142.49802 1.21058e-17
6143.99566 1.22997e-17
6145.50348 1.21522e-17
6147.00112 1.19795e-17
6148.49875 1.14967e-17
6149.99639 1.06424e-17
6151.50421 1.15668e-17
6153.00185 1.23280e-17
6154.49948 1.18397e-17
6155.99712 1.15829e-17
6157.50494 1.18501e-17
6159.00258 1.19463e-17
6160.50022 1.18717e-17
6161.99785 1.20787e-17
6163.49549 1.18207e-17
6165.00331 1.17815e-17
6166.50095 1.19024e-17
6167.99858 1.12674e-17
6169.49622 1.14197e-17
6171.00404 1.19472e-17
6172.50168 1.11273e-17
6173.99932 1.23558e-17
6175.49695 1.19322e-17
6177.00478 1.11156e-17
6178.50241 1.31575e-17
6180.00005 1.26635e-17
6181.49768 1.15062e-17
6182.99532 1.25719e-17
6184.50314 1.35697e-17
6186.00078 1.22838e-17
6187.49842 1.16482e-17
6188.99605 1.21420e-17
6190.50388 1.23769e-17
6192.00151 1.25918e-17
6193.49915 1.19029e-17
6194.99678 1.08127e-17
6196.50461 1.23630e-17
6198.00224 1.30807e-17
6199.49988 1.20845e-17
6200.99752 1.19727e-17
6202.49515 1.20757e-17
6204.00298 1.17731e-17
6205.50061 1.10943e-17
6206.99825 1.12856e-17
6208.49588 1.27877e-17
6210.00371 1.27920e-17
6211.50134 1.22525e-17
6212.99898 1.13986e-17
6214.49662 1.11371e-17
6216.00444 1.10719e-17
6217.50208 1.18065e-17
6218.99971 1.28047e-17
6220.49735 1.18236e-17
6221.99498 1.13118e-17
6223.50281 1.20652e-17
6225.00044 1.33033e-17
6226.49808 1.43234e-17
6227.99572 1.35558e-17
6229.50354 1.16791e-17
6231.00118 1.12669e-17
6232.49881 1.25717e-17
6233.99645 1.17612e-17
6235.50427 1.16524e-17
6237.00191 1.16531e-17
6238.49954 1.23552e-17
6239.99718 1.19115e-17
6241.50500 1.36091e-17
6243.00264 1.33666e-17
6244.50028 1.40949e-17
6245.99791 1.43102e-17
6247.49555 1.09212e-17
6249.00337 1.27587e-17
6250.50101 1.29521e-17
6251.99864 9.66879e-18
6253.49628 1.15472e-17
6255.00410 1.13198e-17
6256.50174 1.10896e-17
6257.99938 1.04437e-17
6259.49701 1.06771e-17
6261.00484 1.11937e-17
6262.50247 1.21946e-17
6264.00011 1.12806e-17
6265.49774 9.93944e-18
6266.99538 1.14950e-17
6268.50320 1.21619e-17
6270.00084 1.16401e-17
6271.49848 1.28809e-17
6272.99611 1.28975e-17
6274.50394 1.20169e-17
6276.00157 1.12738e-17
6277.49921 9.86533e-18
6278.99684 9.40210e-18
6280.50467 1.06274e-17
6282.00230 1.01882e-17
6283.49994 1.07963e-17
6284.99758 1.12610e-17
6286.49521 1.10148e-17
6288.00304 1.14368e-17
6289.50067 1.19115e-17
6290.99831 1.13548e-17
6292.49594 1.13548e-17
6294.00377 9.18970e-18
6295.50140 9.41753e-18
6296.99904 1.20765e-17
6298.49668 8.50836e-18
6300.00450 9.50756e-18
6301.50214 1.20174e-17
6302.99977 1.39678e-17
6304.49741 1.50932e-17
6305.99504 1.04809e-17
6307.50287 8.61034e-18
6309.00050 9.22405e-18
6310.49814 9.76748e-18
6311.99578 1.06879e-17
6313.50360 8.98983e-18
6315.00124 1.01598e-17
6316.49887 9.55739e-18
6317.99651 8.70856e-18
6319.50433 1.06050e-17
6321.00197 1.17789e-17
6322.49960 9.85451e-18
6323.99724 8.80602e-18
6325.49488 9.28637e-18
6327.00270 9.30546e-18
6328.50034 9.95832e-18
6329.99797 1.04345e-17
6331.49561 1.00628e-17
6333.00343 8.60907e-18
6334.50107 8.86636e-18
6335.99870 8.99492e-18
6337.49634 9.99512e-18
6339.00416 1.03804e-17
6340.50180 1.05391e-17
6341.99944 1.05580e-17
6343.49707 1.03452e-17
6345.00490 1.05191e-17
6346.50253 1.01382e-17
6348.00017 1.05970e-17
6349.49780 9.92573e-18
6350.99544 9.33708e-18
6352.50326 1.06589e-17
6354.00090 1.11956e-17
6355.49854 1.00204e-17
6356.99617 9.21367e-18
6358.50400 1.03764e-17
6360.00163 1.00367e-17
6361.49927 9.10988e-18
6362.99690 1.10230e-17
6364.50473 1.24724e-17
6366.00236 1.08650e-17
6367.50000 9.76384e-18
6368.99764 1.00784e-17
6370.49527 9.91096e-18
6372.00310 1.03509e-17
6373.50073 1.00531e-17
6374.99837 1.07047e-17
6376.49600 1.17873e-17
6378.00383 1.07030e-17
6379.50146 1.04487e-17
6380.99910 1.02405e-17
6382.49674 9.88639e-18
6384.00456 9.46025e-18
6385.50220 9.57557e-18
6386.99983 1.06325e-17
6388.49747 1.19705e-17
6389.99510 1.14515e-17
6391.50293 1.16241e-17
6393.00056 1.24649e-17
6394.49820 1.10279e-17
6395.99584 1.00357e-17
6397.50366 1.01882e-17
6399.00130 1.06679e-17
6400.49893 1.12275e-17
6401.99657 1.24968e-17
6403.50439 1.14518e-17
6405.00203 1.22345e-17
6406.49966 1.38635e-17
6407.99730 1.26787e-17
6409.49494 1.15146e-17
6411.00276 1.19677e-17
6412.50040 1.25537e-17
6413.99803 1.33307e-17
6415.49567 1.27318e-17
6417.00349 1.22562e-17
6418.50113 1.19706e-17
6419.99876 1.20991e-17
6421.49640 1.38812e-17
6423.00422 1.37684e-17
6424.50186 1.21615e-17
6425.99950 1.22534e-17
6427.49713 1.16932e-17
6429.00496 1.23024e-17
6430.50259 1.25489e-17
6432.00023 1.17775e-17
6433.49786 1.18479e-17
6434.99550 1.16688e-17
6436.50332 1.11703e-17
6438.00096 1.06264e-17
6439.49860 1.24963e-17
6440.99623 1.39855e-17
6442.50406 1.25746e-17
6444.00169 1.09741e-17
6445.49933 1.15304e-17
6446.99696 1.32493e-17
6448.50479 1.20175e-17
6450.00242 1.08059e-17
6451.50006 1.30380e-17
6452.99770 1.25857e-17
6454.49533 1.30657e-17
6456.00316 1.34158e-17
6457.50079 1.31115e-17
6458.99843 1.37796e-17
6460.49606 1.14670e-17
6462.00389 1.26433e-17
6463.50152 1.25130e-17
6464.99916 1.18263e-17
6466.49680 1.26692e-17
6468.00462 1.26737e-17
6469.50226 1.25372e-17
6470.99989 1.24689e-17
6472.49753 1.21944e-17
6473.99516 1.20667e-17
6475.50299 1.53819e-17
6477.00062 1.44430e-17
6478.49826 1.35613e-17
6479.99590 1.20204e-17
6481.50372 1.25335e-17
6483.00136 1.40584e-17
6484.49899 1.38931e-17
6485.99663 1.28042e-17
6487.50445 1.32170e-17
6489.00209 1.50977e-17
6490.49972 1.47092e-17
6491.99736 1.32307e-17
6493.49500 1.28536e-17
6495.00282 1.38501e-17
6496.50046 1.35684e-17
6497.99809 1.31267e-17
6499.49573 1.43645e-17
6501.00355 1.30232e-17
6502.50119 1.21709e-17
6503.99882 1.27520e-17
6505.49646 1.35109e-17
6507.00428 1.38939e-17
6508.50192 1.37503e-17
6509.99956 1.32923e-17
6511.49719 1.20578e-17
6512.99483 1.37567e-17
6514.50265 1.38038e-17
6516.00029 1.29717e-17
6517.49792 1.32649e-17
6518.99556 1.31237e-17
6520.50338 1.42150e-17
6522.00102 1.39556e-17
6523.49866 1.39603e-17
6524.99629 1.35840e-17
6526.50412 1.29310e-17
6528.00175 1.32589e-17
6529.49939 1.50846e-17
6530.99702 1.57265e-17
6532.50485 1.45391e-17
6534.00248 1.52006e-17
6535.50012 1.25703e-17
6536.99776 1.31746e-17
6538.49539 1.45636e-17
6540.00322 1.31784e-17
6541.50085 1.36449e-17
6542.99849 1.30675e-17
6544.49612 1.34051e-17
6546.00395 1.34235e-17
6547.50158 1.24938e-17
6548.99922 1.24145e-17
6550.49686 1.34556e-17
6552.00468 1.27977e-17
6553.50232 1.32843e-17
6554.99995 1.33375e-17
6556.49759 1.31164e-17
6557.99522 1.49277e-17
6559.50305 1.59619e-17
6561.00068 1.38033e-17
6562.49832 1.36395e-17
6563.99596 1.38730e-17
6565.50378 1.31917e-17
6567.00142 1.33248e-17
6568.49905 1.23484e-17
6569.99669 1.24792e-17
6571.50451 1.24937e-17
6573.00215 1.11959e-17
6574.49978 1.13254e-17
6575.99742 1.29904e-17
6577.49506 1.24288e-17
6579.00288 1.23559e-17
6580.50052 1.37963e-17
6581.99815 1.33793e-17
6583.49579 1.29458e-17
6585.00361 1.34738e-17
6586.50125 1.39450e-17
6587.99888 1.31385e-17
6589.49652 1.19330e-17
6591.00434 1.26519e-17
6592.50198 1.28455e-17
6593.99962 1.20410e-17
6595.49725 1.20950e-17
6596.99489 1.20217e-17
6598.50271 1.27625e-17
6600.00035 1.22445e-17
6601.49798 1.24076e-17
6602.99562 1.36067e-17
6604.50344 1.27028e-17
6606.00108 1.33922e-17
6607.49872 1.18270e-17
6608.99635 1.08274e-17
6610.50418 1.28411e-17
6612.00181 1.23618e-17
6613.49945 1.13678e-17
6614.99708 1.23880e-17
6616.50491 1.19362e-17
6618.00254 1.24022e-17
6619.50018 1.33613e-17
6620.99782 1.37263e-17
6622.49545 1.13112e-17
6624.00328 1.00557e-17
6625.50091 1.08781e-17
6626.99855 1.13872e-17
6628.49618 1.26495e-17
6630.00401 1.19777e-17
6631.50164 1.10289e-17
6632.99928 1.11001e-17
6634.49692 1.16651e-17
6636.00474 1.34009e-17
6637.50238 1.44165e-17
6639.00001 1.44191e-17
6640.49765 1.41780e-17
6641.99528 1.39375e-17
6643.50311 1.40827e-17
6645.00074 1.30109e-17
6646.49838 1.34693e-17
6647.99602 1.29706e-17
6649.50384 1.22054e-17
6651.00148 1.18526e-17
6652.49911 1.19537e-17
6653.99675 1.19544e-17
6655.50457 1.19551e-17
6657.00221 1.19559e-17
6658.49984 1.19566e-17
6659.99748 1.19573e-17
6661.49512 1.19580e-17
6663.00294 1.19587e-17
6664.50058 1.19594e-17
6665.99821 1.19601e-17
6667.49585 1.19608e-17
6669.00367 1.19615e-17
6670.50131 1.19622e-17
6671.99894 1.19629e-17
6673.49658 1.19636e-17
6675.00440 1.19643e-17
6676.50204 1.19650e-17
6677.99968 1.19657e-17
6679.49731 1.19664e-17
6680.99495 1.19671e-17
6682.50277 1.19678e-17
6684.00041 1.19685e-17
6685.49804 1.19692e-17
6686.99568 1.19699e-17
6688.50350 1.19706e-17
6690.00114 1.19713e-17
6691.49878 1.19448e-17
6692.99641 1.19184e-17
6694.50424 1.18919e-17
6696.00187 1.18654e-17
6697.49951 1.18390e-17
6698.99714 1.18125e-17
6700.49478 1.17861e-17
6702.00260 1.17596e-17
6703.50024 1.17332e-17
6704.99788 1.17067e-17
6706.49551 1.16803e-17
6708.00334 1.16539e-17
6709.50097 1.16274e-17
6710.99861 1.16010e-17
6712.49624 1.15745e-17
6714.00407 1.15481e-17
6715.50170 1.15217e-17
6716.99934 1.14952e-17
6718.49698 1.14688e-17
6720.00480 1.14424e-17
6721.50244 1.14159e-17
6723.00007 1.13895e-17
6724.49771 1.13631e-17
6725.99534 1.13366e-17
6727.50317 1.09530e-17
6729.00080 1.03768e-17
6730.49844 1.11161e-17
6731.99608 1.00670e-17
6733.50390 1.04302e-17
6735.00154 1.16883e-17
6736.49917 1.15708e-17
6737.99681 1.12400e-17
6739.50463 1.10127e-17
6741.00227 1.17645e-17
6742.49990 1.28699e-17
6743.99754 9.90582e-18
6745.49518 9.57802e-18
6747.00300 9.64014e-18
6748.50064 1.08478e-17
6749.99827 1.15973e-17
6751.49591 1.26626e-17
6753.00373 1.19259e-17
6754.50137 1.10542e-17
6755.99900 1.17283e-17
6757.49664 1.18283e-17
6759.00446 1.05756e-17
6760.50210 1.09896e-17
6761.99974 1.21114e-17
6763.49737 1.22187e-17
6764.99501 1.21217e-17
6766.50283 1.22008e-17
6768.00047 1.08891e-17
6769.49810 9.48467e-18
6770.99574 9.31042e-18
6772.50356 9.32471e-18
6774.00120 1.02270e-17
6775.49884 1.16873e-17
6776.99647 1.08046e-17
6778.50430 9.74424e-18
6780.00193 9.91103e-18
6781.49957 1.12452e-17
6782.99720 1.16033e-17
6784.50503 1.04303e-17
6786.00266 9.74587e-18
6787.50030 9.71086e-18
6788.99794 9.66799e-18
6790.49557 1.03647e-17
6792.00340 1.14616e-17
6793.50103 1.06028e-17
6794.99867 9.36170e-18
6796.49630 9.14038e-18
6798.00413 9.88525e-18
6799.50176 1.16349e-17
6800.99940 1.20098e-17
6802.49704 1.04795e-17
6804.00486 1.03961e-17
6805.50250 1.13030e-17
6807.00013 1.01933e-17
6808.49777 9.28081e-18
6809.99540 1.11738e-17
6811.50323 1.05505e-17
6813.00086 8.08290e-18
6814.49850 8.89994e-18
6815.99614 1.04220e-17
6817.50396 9.96492e-18
6819.00160 9.70615e-18
6820.49923 9.14317e-18
6821.99687 1.02633e-17
6823.50469 1.06647e-17
6825.00233 1.06297e-17
6826.49996 1.05947e-17
6827.99760 1.05597e-17
6829.49524 1.05247e-17
6831.00306 1.04897e-17
6832.50070 1.04547e-17
6833.99833 1.04197e-17
6835.49597 1.03847e-17
6837.00379 1.03497e-17
6838.50143 1.03147e-17
6839.99906 1.02887e-17
6841.49670 1.02626e-17
6843.00452 1.02365e-17
6844.50216 1.02105e-17
6845.99980 1.01844e-17
6847.49743 1.01583e-17
6848.99507 1.01323e-17
6850.50289 1.01062e-17
6852.00053 1.00801e-17
6853.49816 1.00541e-17
6854.99580 1.00280e-17
6856.50362 1.00020e-17
6858.00126 9.97592e-18
6859.49890 9.94987e-18
6860.99653 9.92382e-18
6862.50436 9.89777e-18
6864.00199 9.87172e-18
6865.49963 9.84568e-18
6866.99726 9.81962e-18
6868.49490 9.79358e-18
6870.00272 9.76754e-18
6871.50036 9.74149e-18
6872.99800 9.71545e-18
6874.49563 9.68942e-18
6876.00346 9.66337e-18
6877.50109 8.99362e-18
6878.99873 9.31526e-18
6880.49636 1.08528e-17
6882.00419 9.94211e-18
6883.50182 9.44804e-18
6884.99946 9.50856e-18
6886.49710 7.57432e-18
6888.00492 8.63594e-18
6889.50256 9.47381e-18
6891.00019 8.68389e-18
6892.49783 8.27094e-18
6893.99546 8.71878e-18
6895.50329 1.06617e-17
6897.00092 8.70978e-18
6898.49856 8.64636e-18
6899.99620 8.96509e-18
6901.50402 7.71876e-18
6903.00166 9.41484e-18
6904.49929 1.08319e-17
6905.99693 1.00397e-17
6907.50475 9.29786e-18
6909.00239 7.26413e-18
6910.50002 9.20562e-18
6911.99766 9.32817e-18
6913.49530 1.03727e-17
6915.00312 1.06869e-17
6916.50076 1.05088e-17
6917.99839 1.06783e-17
6919.49603 1.06444e-17
6921.00385 1.13954e-17
6922.50149 1.02753e-17
6923.99912 8.10668e-18
6925.49676 9.37244e-18
6927.00458 9.51596e-18
6928.50222 9.36028e-18
6929.99986 1.08169e-17
6931.49749 9.75809e-18
6932.99513 8.53332e-18
6934.50295 8.63528e-18
6936.00059 9.50912e-18
6937.49822 1.09117e-17
6938.99586 9.13869e-18
6940.50368 7.42710e-18
6942.00132 9.74005e-18
6943.49896 9.71875e-18
6944.99659 1.00278e-17
6946.50442 1.07453e-17
6948.00205 9.25738e-18
6949.49969 8.82000e-18
6950.99732 8.04094e-18
6952.49496 8.23938e-18
6954.00278 9.57599e-18
6955.50042 9.46578e-18
6956.99806 8.36506e-18
6958.49569 9.61834e-18
6960.00352 1.04537e-17
6961.50115 1.00276e-17
6962.99879 9.06658e-18
6964.49642 8.33068e-18
6966.00425 9.56715e-18
6967.50188 9.62863e-18
6968.99952 8.14621e-18
6970.49716 8.49022e-18
6972.00498 8.90955e-18
6973.50262 9.52376e-18
6975.00025 9.66209e-18
6976.49789 8.67497e-18
6977.99552 9.02879e-18
6979.50335 8.93867e-18
6981.00098 1.04014e-17
6982.49862 9.81864e-18
6983.99626 1.05354e-17
6985.50408 1.06842e-17
6987.00172 9.31286e-18
6988.49935 9.79506e-18
6989.99699 1.01973e-17
6991.50481 1.04880e-17
6993.00245 1.06357e-17
6994.50008 9.65484e-18
6995.99772 9.19018e-18
6997.49536 1.02750e-17
6999.00318 9.96691e-18
7000.50082 1.12328e-17
7001.99845 1.15861e-17
7003.49609 9.26673e-18
7005.00391 8.82484e-18
7006.50155 9.55754e-18
7007.99918 1.03675e-17
7009.49682 1.08759e-17
7011.00464 9.91051e-18
7012.50228 8.75087e-18
7013.99992 8.69065e-18
7015.49755 9.72990e-18
7016.99519 9.89326e-18
7018.50301 9.06665e-18
7020.00065 1.00594e-17
7021.49828 9.39600e-18
7022.99592 7.78793e-18
7024.50374 8.83034e-18
7026.00138 9.27178e-18
7027.49902 9.16989e-18
7028.99665 1.04766e-17
7030.50448 1.10740e-17
7032.00211 9.91629e-18
7033.49975 1.01255e-17
7034.99738 1.05647e-17
7036.49502 9.68128e-18
7038.00284 1.00365e-17
7039.50048 9.77247e-18
7040.99812 1.01798e-17
7042.49575 1.11023e-17
7044.00358 1.07498e-17
7045.50121 1.02851e-17
7046.99885 1.01091e-17
7048.49648 1.02369e-17
7050.00431 9.70257e-18
7051.50194 1.01594e-17
7052.99958 9.84298e-18
7054.49722 9.78368e-18
7055.99485 1.04431e-17
7057.50268 9.68324e-18
7059.00031 9.96746e-18
7060.49795 1.05933e-17
7061.99558 9.17292e-18
7063.50341 7.74866e-18
7065.00104 9.36655e-18
7066.49868 1.00905e-17
7067.99632 9.13687e-18
7069.50414 9.29183e-18
7071.00178 9.39191e-18
7072.49941 9.87241e-18
7073.99705 1.07813e-17
7075.50487 1.01967e-17
7077.00251 8.69458e-18
7078.50014 9.08115e-18
7079.99778 9.13832e-18
7081.49542 7.03319e-18
7083.00324 7.89574e-18
7084.50088 9.06824e-18
7085.99851 9.63380e-18
7087.49615 1.02989e-17
7089.00397 9.71548e-18
7090.50161 9.21404e-18
7091.99924 1.00911e-17
7093.49688 9.42296e-18
7095.00470 7.92592e-18
7096.50234 9.94667e-18
7097.99998 1.08638e-17
7099.49761 1.00280e-17
7100.99525 8.64789e-18
7102.50307 8.27605e-18
7104.00071 8.67073e-18
7105.49834 8.72688e-18
7106.99598 8.60189e-18
7108.50380 7.89346e-18
7110.00144 8.36190e-18
7111.49908 1.03071e-17
7112.99671 9.18516e-18
7114.50454 7.70619e-18
7116.00217 8.68620e-18
7117.49981 1.13567e-17
7118.99744 9.53928e-18
7120.49508 7.00351e-18
7122.00290 7.24349e-18
7123.50054 8.39852e-18
7124.99818 9.49270e-18
7126.49581 9.50540e-18
7128.00364 9.22224e-18
7129.50127 8.31800e-18
7130.99891 7.53211e-18
7132.49654 7.79202e-18
7134.00437 8.56874e-18
7135.50200 1.00400e-17
7136.99964 1.03025e-17
7138.49728 7.59257e-18
7139.99491 7.00369e-18
7141.50274 1.02551e-17
7143.00037 1.05423e-17
7144.49801 7.61753e-18
7145.99564 8.79018e-18
7147.50347 1.03545e-17
7149.00110 8.99905e-18
7150.49874 7.85573e-18
7151.99638 9.31281e-18
7153.50420 9.79403e-18
7155.00184 8.20740e-18
7156.49947 7.95196e-18
7157.99711 9.27205e-18
7159.50493 9.45084e-18
7161.00257 1.05935e-17
7162.50020 1.04786e-17
7163.99784 9.16484e-18
7165.49548 8.56045e-18
7167.00330 8.93678e-18
7168.50094 9.61402e-18
7169.99857 9.57152e-18
7171.49621 7.88196e-18
7173.00403 7.91408e-18
7174.50167 9.34912e-18
7175.99930 7.88945e-18
7177.49694 7.94357e-18
7179.00476 8.71791e-18
7180.50240 8.91612e-18
7182.00004 9.51788e-18
7183.49767 1.07972e-17
7184.99531 9.69061e-18
7186.50313 8.96864e-18
7188.00077 9.86453e-18
7189.49840 1.05704e-17
7190.99604 9.39634e-18
7192.50386 8.46407e-18
7194.00150 1.01289e-17
7195.49914 9.70630e-18
7196.99677 1.06472e-17
7198.50460 9.58663e-18
7200.00223 9.65437e-18
7201.49987 9.72212e-18
7202.99750 9.78986e-18
7204.49514 9.85765e-18
7206.00296 9.92538e-18
7207.50060 9.92512e-18
7208.99824 9.98122e-18
7210.49587 1.08945e-17
7212.00370 1.07333e-17
7213.50133 9.82436e-18
7214.99897 8.46863e-18
7216.49660 9.26379e-18
7218.00443 1.00328e-17
7219.50206 9.57243e-18
7220.99970 8.65526e-18
7222.49734 1.03834e-17
7223.99497 1.04487e-17
7225.50280 1.03397e-17
7227.00043 1.01426e-17
7228.49807 1.04095e-17
7229.99570 1.11948e-17
7231.50353 1.01999e-17
7233.00116 1.04035e-17
7234.49880 9.42815e-18
7235.99644 1.05739e-17
7237.50426 1.14345e-17
7239.00190 1.10226e-17
7240.49953 1.14120e-17
7241.99717 1.11187e-17
7243.49480 1.10521e-17
7245.00263 1.07492e-17
7246.50026 9.05668e-18
7247.99790 1.04926e-17
7249.49554 1.16900e-17
7251.00336 1.01160e-17
7252.50100 1.17533e-17
7253.99863 1.09508e-17
7255.49627 9.12550e-18
7257.00409 1.00922e-17
7258.50173 1.04216e-17
7259.99936 9.01133e-18
7261.49700 1.12958e-17
7263.00482 1.15271e-17
7264.50246 9.34505e-18
7266.00010 7.88308e-18
7267.49773 1.03936e-17
7268.99537 1.06015e-17
7270.50319 1.10980e-17
7272.00083 1.04615e-17
7273.49846 1.15988e-17
7274.99610 1.13513e-17
7276.50392 1.27127e-17
7278.00156 1.16920e-17
7279.49920 1.07359e-17
7280.99683 1.08433e-17
7282.50466 1.09764e-17
7284.00229 9.99399e-18
7285.49993 8.91749e-18
7286.99756 9.60577e-18
7288.49520 9.54810e-18
7290.00302 8.79547e-18
7291.50066 9.81924e-18
7292.99830 1.11550e-17
7294.49593 1.13698e-17
7296.00376 1.04832e-17
7297.50139 1.05062e-17
7298.99903 1.00670e-17
7300.49666 1.01419e-17
7302.00449 9.46108e-18
7303.50212 9.37158e-18
7304.99976 1.00751e-17
7306.49740 1.02327e-17
7307.99503 1.13523e-17
7309.50286 8.33848e-18
7311.00049 8.58211e-18
7312.49813 1.13166e-17
7313.99576 1.01990e-17
7315.50359 9.15373e-18
7317.00122 1.24036e-17
7318.49886 1.16279e-17
7319.99650 1.03460e-17
7321.50432 1.22636e-17
7323.00196 1.00500e-17
7324.49959 1.09373e-17
7325.99723 1.16157e-17
7327.49486 9.58370e-18
7329.00269 9.79310e-18
7330.50032 1.02641e-17
7331.99796 9.54345e-18
7333.49560 1.06112e-17
7335.00342 1.24852e-17
7336.50106 1.10874e-17
7337.99869 1.06687e-17
7339.49633 1.17392e-17
7341.00415 1.11317e-17
7342.50179 1.12293e-17
7343.99942 1.16704e-17
7345.49706 9.85989e-18
7347.00488 9.50148e-18
7348.50252 1.04330e-17
7350.00016 1.06819e-17
7351.49779 1.08321e-17
7352.99543 1.09255e-17
7354.50325 1.09156e-17
7356.00089 1.09402e-17
7357.49852 1.13679e-17
7358.99616 1.10599e-17
7360.50398 1.07826e-17
7362.00162 1.14245e-17
7363.49926 1.30235e-17
7364.99689 1.35785e-17
7366.50472 1.18600e-17
7368.00235 1.29568e-17
7369.49999 1.27241e-17
7370.99762 9.60696e-18
7372.49526 8.79687e-18
7374.00308 1.05661e-17
7375.50072 1.18444e-17
7376.99836 1.27243e-17
7378.49599 1.32230e-17
7380.00382 1.11750e-17
7381.50145 1.01437e-17
7382.99909 1.26322e-17
7384.49672 1.38645e-17
7386.00455 1.16458e-17
7387.50218 1.14400e-17
7388.99982 1.32558e-17
7390.49746 1.28010e-17
7391.99509 1.09899e-17
7393.50292 9.52560e-18
7395.00055 1.13500e-17
7396.49819 1.18224e-17
7397.99582 1.15447e-17
7399.50365 1.05977e-17
7401.00128 1.09964e-17
7402.49892 1.18951e-17
7403.99656 1.05218e-17
7405.50438 1.08488e-17
7407.00202 1.07937e-17
7408.49965 1.18958e-17
7409.99729 1.10490e-17
7411.49492 9.57867e-18
7413.00275 9.38164e-18
7414.50038 9.08937e-18
7415.99802 9.43993e-18
7417.49566 1.10133e-17
7419.00348 9.82257e-18
7420.50112 9.26522e-18
7421.99875 1.03103e-17
7423.49639 1.06431e-17
7425.00421 1.06363e-17
7426.50185 1.02204e-17
7427.99948 1.16190e-17
7429.49712 1.16154e-17
7431.00494 1.17404e-17
7432.50258 1.08043e-17
7434.00022 9.81444e-18
7435.49785 1.05188e-17
7436.99549 1.06834e-17
7438.50331 1.09079e-17
7440.00095 1.18444e-17
7441.49858 1.23969e-17
7442.99622 1.09811e-17
7444.50404 9.08131e-18
7446.00168 9.32458e-18
7447.49932 1.03119e-17
7448.99695 1.00917e-17
7450.50478 1.10753e-17
7452.00241 1.18378e-17
7453.50005 1.04969e-17
7454.99768 8.69265e-18
7456.49532 9.26294e-18
7458.00314 1.12648e-17
7459.50078 1.20231e-17
7460.99842 1.21699e-17
7462.49605 1.30564e-17
7464.00388 1.14929e-17
7465.50151 9.70173e-18
7466.99915 1.05342e-17
7468.49678 1.23748e-17
7470.00461 1.17264e-17
7471.50224 1.11055e-17
7472.99988 1.17918e-17
7474.49752 8.46069e-18
7475.99515 8.66206e-18
7477.50298 9.27231e-18
7479.00061 1.02523e-17
7480.49825 1.19304e-17
7481.99588 1.07431e-17
7483.50371 1.13042e-17
7485.00134 1.23889e-17
7486.49898 1.07420e-17
7487.99662 9.82743e-18
7489.50444 1.02734e-17
7491.00208 1.03628e-17
7492.49971 1.05098e-17
7493.99735 9.33326e-18
7495.49498 9.83144e-18
7497.00281 9.17527e-18
7498.50044 8.81474e-18
7499.99808 9.78526e-18
7501.49572 9.74582e-18
7503.00354 9.69625e-18
7504.50118 1.00529e-17
7505.99881 1.01204e-17
7507.49645 8.98674e-18
7509.00427 8.79035e-18
7510.50191 8.65912e-18
7511.99954 8.78336e-18
7513.49718 1.02508e-17
7514.99482 1.07786e-17
7516.50264 9.88716e-18
7518.00028 9.21543e-18
7519.49791 9.92411e-18
7520.99555 1.02311e-17
7522.50337 9.49144e-18
7524.00101 1.00212e-17
7525.49864 1.05059e-17
7526.99628 9.05059e-18
7528.50410 8.74523e-18
7530.00174 7.76589e-18
7531.49938 7.27119e-18
7532.99701 8.81401e-18
7534.50484 8.76015e-18
7536.00247 1.03833e-17
7537.50011 8.37169e-18
7538.99774 7.36646e-18
7540.49538 8.70834e-18
