# wavelength flux
3524.19369 -5.54167e-18
3526.80819 -4.57126e-18
3529.42269 -6.44735e-18
3532.02686 -5.79333e-18
3534.64136 -6.03294e-18
3537.25586 -6.56592e-18
3539.87036 -7.29837e-18
3542.48487 -5.41517e-18
3545.09937 -6.19852e-18
3547.70354 -5.35717e-18
3550.31804 -5.68957e-18
3552.93254 -4.82459e-18
3555.54704 -4.59364e-18
3558.16154 -6.09123e-18
3560.76571 2.69002e-18
3563.38021 -3.35286e-18
3565.99472 -4.26925e-19
3568.60922 -9.44896e-19
3571.22372 -3.28547e-18
3573.83822 -8.03994e-20
3576.44239 -7.33866e-19
3579.05689 -1.82290e-18
3581.67139 -3.29063e-18
3584.28590 -5.96282e-18
3586.90040 -1.22700e-18
3589.50457 -3.62138e-18
3592.11907 -4.35687e-18
3594.73357 -4.74923e-18
3597.34807 -5.91963e-18
3599.96257 -5.22972e-18
3602.57708 -2.47584e-18
3605.18124 -3.26206e-18
3607.79575 1.38522e-20
3610.41025 9.41539e-19
3613.02475 -1.09361e-18
3615.63925 -1.73306e-19
3618.24342 1.79701e-19
3620.85792 -6.48724e-19
3623.47242 -4.11825e-19
3626.08693 6.48992e-19
3628.70143 1.01031e-18
3631.31593 1.70821e-18
3633.92010 -9.14557e-20
3636.53460 -1.34426e-18
3639.14910 -8.55964e-20
3641.76360 -2.99619e-18
3644.37811 5.17189e-19
3646.98227 -1.01459e-19
3649.59678 -8.44287e-19
3652.21128 -2.32291e-19
3654.82578 -1.36097e-18
3657.44028 5.21628e-19
3660.05478 -1.92133e-18
3662.65895 9.29552e-19
3665.27345 -2.47631e-19
3667.88796 5.23013e-19
3670.50246 -1.67133e-18
3673.11696 -2.94925e-18
3675.72113 -1.27880e-18
3678.33563 -6.56576e-19
3680.95013 -2.55117e-18
3683.56463 -3.53771e-18
3686.17914 -4.92598e-18
3688.78330 -3.24187e-18
3691.39781 6.48249e-19
3694.01231 -2.82720e-18
3696.62681 -4.33990e-18
3699.24131 -3.44950e-18
3701.85581 -2.26184e-18
3704.45998 -4.12754e-18
3707.07448 -5.71669e-18
3709.68899 -6.02054e-18
3712.30349 -5.17095e-18
3714.91799 -3.99068e-18
3717.52216 -2.02569e-18
3720.13666 -1.83953e-18
3722.75116 -1.41588e-18
3725.36566 -1.03075e-18
3727.98017 -9.64908e-19
3730.59467 -1.10214e-18
3733.19884 -1.40593e-18
3735.81334 -1.13702e-18
3738.42784 -3.82718e-19
3741.04234 1.35368e-18
3743.65684 1.40760e-18
3746.26101 1.20408e-18
3748.87551 1.19250e-18
3751.49002 6.77512e-20
3754.10452 1.34509e-18
3756.71902 2.06622e-18
3759.33352 6.12039e-19
3761.93769 8.28833e-20
3764.55219 1.46922e-18
3767.16669 2.25995e-18
3769.78120 1.46113e-18
3772.39570 4.98431e-19
3774.99987 5.54690e-19
3777.61437 3.64889e-18
3780.22887 3.92257e-18
3782.84337 3.58599e-18
3785.45787 4.31373e-18
3788.06204 9.94737e-19
3790.67654 7.55948e-19
3793.29105 2.50681e-18
3795.90555 4.86068e-18
3798.52005 1.60660e-18
3801.13455 2.18383e-18
3803.73872 3.52985e-18
3806.35322 2.25084e-18
3808.96772 4.13119e-18
3811.58223 3.41168e-18
3814.19673 3.81694e-18
3816.80090 3.02125e-18
3819.41540 2.52337e-18
3822.02990 3.63311e-18
3824.64440 3.44640e-18
3827.25890 2.92519e-18
3829.87341 3.42042e-18
3858.61226 5.85959e-18
3861.21643 4.44015e-18
3863.83093 2.80371e-18
3866.44543 2.66546e-18
3869.05993 3.21114e-18
3871.67444 3.92427e-18
3874.27860 3.98682e-18
3876.89311 3.84284e-18
3879.50761 5.28244e-18
3882.12211 4.18531e-18
3884.73661 4.23386e-18
3887.34078 3.45332e-18
3889.95528 3.86321e-18
3892.56978 4.05845e-18
3895.18429 4.77629e-18
3897.79879 4.22464e-18
3900.41329 5.72558e-18
3903.01746 4.48734e-18
3905.63196 4.50809e-18
3908.24646 4.92786e-18
3910.86096 4.17549e-18
3913.47547 4.82832e-18
3916.07963 5.12348e-18
3918.69414 4.96750e-18
3921.30864 6.66594e-18
3923.92314 6.48342e-18
3926.53764 6.44155e-18
3929.15214 4.58834e-18
3931.75631 4.59250e-18
3934.37081 5.44882e-18
3936.98532 5.56696e-18
3939.59982 4.36147e-18
3942.21432 4.87187e-18
3944.81849 5.08634e-18
3947.43299 5.81481e-18
3950.04749 6.29000e-18
3952.66199 5.79772e-18
3955.27650 6.26990e-18
3957.89100 5.90423e-18
3960.49517 7.04462e-18
3963.10967 6.46350e-18
3965.72417 6.06243e-18
3968.33867 5.43255e-18
3970.95317 6.43192e-18
3973.55734 5.76392e-18
3976.17184 5.49370e-18
3978.78635 5.85930e-18
3981.40085 5.64810e-18
3984.01535 5.91213e-18
3986.62985 5.43413e-18
3989.23402 6.79691e-18
3991.84852 6.88119e-18
3994.46302 7.60548e-18
3997.07753 7.19317e-18
3999.69203 5.85709e-18
4002.29620 6.08229e-18
4004.91070 5.72951e-18
4007.52520 5.68011e-18
4010.13970 6.16870e-18
4012.75420 6.93820e-18
4015.36871 7.05363e-18
4017.97287 6.89616e-18
4020.58738 5.58359e-18
4023.20188 6.83781e-18
4025.81638 6.99949e-18
4028.43088 5.80110e-18
4031.03505 6.33762e-18
4033.64955 6.52519e-18
4036.26405 7.26002e-18
4038.87856 7.50305e-18
4041.49306 6.85595e-18
4044.10756 7.33975e-18
4046.71173 6.47680e-18
4049.32623 5.97601e-18
4051.94073 6.72745e-18
4054.55523 6.90772e-18
4057.16974 7.53079e-18
4059.77390 7.09681e-18
4062.38841 6.55444e-18
4065.00291 6.19699e-18
4067.61741 6.07451e-18
4070.23191 5.91276e-18
4072.83608 5.58561e-18
4075.45058 5.82139e-18
4078.06508 6.62235e-18
4080.67959 6.48638e-18
4083.29409 6.31796e-18
4085.90859 6.90546e-18
4088.51276 6.87379e-18
4091.12726 7.95497e-18
4093.74176 7.26255e-18
4096.35626 7.37423e-18
4098.97077 7.25318e-18
4101.57493 7.05918e-18
4104.18944 7.89953e-18
4106.80394 7.37296e-18
4109.41844 7.13179e-18
4112.03294 6.39498e-18
4114.64744 5.56134e-18
4117.25161 6.99906e-18
4119.86611 6.12386e-18
4122.48062 7.26782e-18
4125.09512 8.14945e-18
4127.70962 7.49583e-18
4130.31379 7.28885e-18
4132.92829 7.53892e-18
4135.54279 8.08263e-18
4138.15729 7.33408e-18
4140.77180 6.92130e-18
4143.37596 6.64204e-18
4145.99047 6.97406e-18
4148.60497 8.17253e-18
4151.21947 8.42725e-18
4153.83397 7.03424e-18
4156.44847 7.61050e-18
4159.05264 7.54927e-18
4161.66714 8.33202e-18
4164.28165 8.49768e-18
4166.89615 8.10583e-18
4169.51065 7.47788e-18
4172.11482 7.98862e-18
4174.72932 7.99180e-18
4177.34382 8.36258e-18
4179.95832 8.95581e-18
4182.57283 7.40055e-18
4185.18733 6.45208e-18
4187.79150 9.36520e-18
4190.40600 1.26331e-17
4193.02050 1.09861e-17
4195.63500 8.25404e-18
4198.24950 8.94253e-18
4200.85367 8.47163e-18
4203.46817 8.70209e-18
4206.08268 9.08623e-18
4208.69718 9.21476e-18
4211.31168 8.71221e-18
4213.91585 8.63227e-18
4216.53035 8.34394e-18
4219.14485 9.55446e-18
4221.75935 9.44897e-18
4224.37386 9.16865e-18
4226.98836 9.39163e-18
4229.59253 8.16151e-18
4232.20703 9.78919e-18
4234.82153 1.07306e-17
4237.43603 1.05622e-17
4240.05053 1.05833e-17
4242.66504 9.56102e-18
4245.26920 8.98557e-18
4247.88371 9.77667e-18
4250.49821 9.99888e-18
4253.11271 9.71924e-18
4255.72721 1.01143e-17
4258.33138 9.24554e-18
4260.94588 1.00766e-17
4263.56038 9.75341e-18
4266.17489 1.01347e-17
4268.78939 9.71331e-18
4271.39356 9.84071e-18
4274.00806 9.82993e-18
4276.62256 1.07749e-17
4279.23706 9.96099e-18
4281.85156 9.96079e-18
4284.46607 1.01078e-17
4287.07023 9.79993e-18
4289.68474 1.03949e-17
4292.29924 1.01799e-17
4294.91374 9.35694e-18
4297.52824 8.88010e-18
4300.13241 8.97286e-18
4302.74691 9.38191e-18
4305.36141 9.99582e-18
4307.97592 1.02125e-17
4310.59042 9.56814e-18
4313.20492 1.02132e-17
4315.80909 9.66963e-18
4318.42359 9.73155e-18
4321.03809 9.72078e-18
4323.65259 9.14745e-18
4326.26710 1.00649e-17
4328.87126 1.05054e-17
4331.48577 9.66716e-18
4334.10027 9.55483e-18
4336.71477 9.37928e-18
4339.32927 9.57557e-18
4341.93344 9.88770e-18
4344.54794 9.68979e-18
4347.16244 9.27468e-18
4349.77695 9.71960e-18
4352.39145 8.94801e-18
4355.00595 8.95982e-18
4357.61012 9.53070e-18
4360.22462 1.02472e-17
4362.83912 9.81162e-18
4365.45362 9.27639e-18
4368.06813 9.78472e-18
4370.68263 9.24062e-18
4373.28680 1.03225e-17
4375.90130 9.77066e-18
4378.51580 9.01181e-18
4381.13030 1.01702e-17
4383.74480 1.04281e-17
4386.34897 1.04131e-17
4388.96347 1.02422e-17
4391.57798 9.94427e-18
4394.19248 1.03775e-17
4396.80698 9.74834e-18
4399.41115 1.04392e-17
4402.02565 1.04387e-17
4404.64015 1.08869e-17
4407.25465 1.09084e-17
4409.86916 1.08737e-17
4412.48366 1.08285e-17
4415.08783 1.04619e-17
4417.70233 9.99363e-18
4420.31683 1.05782e-17
4422.93133 1.03818e-17
4425.54583 1.08197e-17
4428.15000 1.10551e-17
4430.76450 1.10530e-17
4433.37901 1.08292e-17
4435.99351 1.15272e-17
4438.60801 1.13646e-17
4441.22251 1.07579e-17
4443.82668 1.14435e-17
4446.44118 1.21260e-17
4449.05568 1.17982e-17
4451.67019 1.17372e-17
4454.28469 1.21368e-17
4456.88886 1.13398e-17
4459.50336 1.23242e-17
4462.11786 1.32286e-17
4464.73236 1.28204e-17
4467.34686 1.17450e-17
4490.85671 1.44647e-17
4493.47122 1.44083e-17
4496.08572 1.45072e-17
4498.68989 1.50460e-17
4501.30439 1.52481e-17
4503.91889 1.59284e-17
4506.53339 1.63886e-17
4509.14789 1.59311e-17
4511.76240 1.62489e-17
4514.36656 1.64761e-17
4516.98107 1.59803e-17
4519.59557 1.54461e-17
4522.21007 1.54540e-17
4524.82457 1.57843e-17
4527.42874 1.57921e-17
4530.04324 1.62381e-17
4532.65774 1.63101e-17
4535.27225 1.64208e-17
4537.88675 1.66858e-17
4540.50125 1.70922e-17
4543.10542 1.62890e-17
4545.71992 1.67210e-17
4548.33442 1.74999e-17
4550.94892 1.71086e-17
4553.56343 1.70901e-17
4556.16759 1.67891e-17
4558.78210 1.76440e-17
4561.39660 1.81388e-17
4564.01110 1.77222e-17
4566.62560 1.72674e-17
4569.22977 1.71976e-17
4571.84427 1.75125e-17
4574.45877 1.71223e-17
4577.07328 1.73985e-17
4579.68778 1.79307e-17
4582.30228 1.78479e-17
4584.90645 1.76885e-17
4587.52095 1.77338e-17
4590.13545 1.78686e-17
4592.74995 1.83614e-17
4595.36446 1.79207e-17
4597.97896 1.74548e-17
4600.58313 1.77811e-17
4603.19763 1.76092e-17
4605.81213 1.72587e-17
4608.42663 1.77123e-17
4611.04113 1.77320e-17
4613.64530 1.70629e-17
4616.25980 1.64198e-17
4618.87431 1.71025e-17
4621.48881 1.75427e-17
4624.10331 1.76387e-17
4626.70748 1.74292e-17
4629.32198 1.72197e-17
4631.93648 1.72521e-17
4634.55098 1.71573e-17
4637.16549 1.66430e-17
4639.77999 1.70441e-17
4642.38416 1.74958e-17
4644.99866 1.68167e-17
4647.61316 1.64810e-17
4650.22766 1.65389e-17
4652.84216 1.67110e-17
4655.44633 1.66419e-17
4658.06083 1.61038e-17
4660.67534 1.65673e-17
4663.28984 1.64224e-17
4665.90434 1.57074e-17
4668.50851 1.62973e-17
4671.12301 1.65323e-17
4673.73751 1.59699e-17
4676.35201 1.65591e-17
4678.96652 1.62626e-17
4681.58102 1.61054e-17
4684.18519 1.64285e-17
4686.79969 1.65114e-17
4689.41419 1.56344e-17
4692.02869 1.61594e-17
4694.64319 1.66965e-17
4697.25770 1.66026e-17
4699.86186 1.55249e-17
4702.47637 1.54944e-17
4705.09087 1.60437e-17
4707.70537 1.59879e-17
4710.31987 1.63477e-17
4712.92404 1.74249e-17
4715.53854 1.64876e-17
4718.15304 1.59787e-17
4720.76755 1.67153e-17
4723.38205 1.66342e-17
4725.99655 1.56356e-17
4728.60072 1.64344e-17
4731.21522 1.65669e-17
4733.82972 1.58832e-17
4736.44422 1.62669e-17
4739.05873 1.69389e-17
4741.66289 1.63687e-17
4744.27740 1.73161e-17
4746.89190 1.77488e-17
4749.50640 1.71288e-17
4752.12090 1.73359e-17
4754.72507 1.73425e-17
4757.33957 1.73991e-17
4759.95407 1.74933e-17
4762.56858 1.77375e-17
4765.18308 1.79315e-17
4767.79758 1.78753e-17
4770.40175 1.77567e-17
4773.01625 1.74758e-17
4775.63075 1.75573e-17
4778.24525 1.74888e-17
4780.85976 1.74329e-17
4783.46392 1.68656e-17
4786.07843 1.68224e-17
4788.69293 1.75771e-17
4791.30743 1.76832e-17
4793.92193 1.64065e-17
4796.53643 1.64507e-17
4799.14060 1.74285e-17
4801.75510 1.77959e-17
4804.36961 1.75161e-17
4806.98411 1.69256e-17
4809.59861 1.69819e-17
4812.20278 1.70631e-17
4814.81728 1.79393e-17
4817.43178 1.79331e-17
4820.04628 1.80635e-17
4822.66079 1.79084e-17
4825.27529 1.86839e-17
4827.87946 1.79334e-17
4830.49396 1.79644e-17
4833.10846 1.88382e-17
4835.72296 1.88193e-17
4838.33746 1.93702e-17
4840.94163 1.98836e-17
4843.55613 1.96045e-17
4846.17064 1.95235e-17
4848.78514 1.96158e-17
4851.39964 1.95596e-17
4854.00381 1.98495e-17
4856.61831 1.98674e-17
4859.23281 1.99224e-17
4861.84731 1.99155e-17
4864.46182 1.99704e-17
4867.07632 1.97292e-17
4869.68049 1.95744e-17
4872.29499 1.92718e-17
4874.90949 1.92529e-17
4877.52399 1.95790e-17
4880.13849 2.00650e-17
4882.75300 1.96641e-17
4885.35716 1.96204e-17
4887.97167 1.98352e-17
4890.58617 1.89674e-17
4893.20067 1.91085e-17
4895.81517 1.91880e-17
4898.41934 1.89848e-17
4901.03384 1.90275e-17
4903.64834 1.95122e-17
4906.26285 1.97142e-17
4908.87735 1.93271e-17
4911.48152 1.93328e-17
4914.09602 1.88725e-17
4916.71052 1.85841e-17
4919.32502 1.87248e-17
4921.93952 1.86939e-17
4924.55403 1.92142e-17
4927.15819 1.91831e-17
4929.77270 1.87361e-17
4932.38720 1.93659e-17
4935.00170 1.85154e-17
4937.61620 1.83869e-17
4940.23070 1.83562e-17
4942.83487 1.80812e-17
4945.44937 1.80995e-17
4948.06388 1.89236e-17
4950.67838 1.85022e-17
4953.29288 1.82519e-17
4955.89705 1.77945e-17
4958.51155 1.83493e-17
4961.12605 1.85381e-17
4963.74055 1.83735e-17
4966.35506 1.81358e-17
4968.95922 1.80688e-17
4971.57373 1.82088e-17
4974.18823 1.73996e-17
4976.80273 1.79168e-17
4979.41723 1.83728e-17
4982.02140 1.71146e-17
4984.63590 1.76678e-17
4987.25040 1.75768e-17
4989.86491 1.75345e-17
4992.47941 1.78442e-17
4995.09391 1.77412e-17
4997.69808 1.76260e-17
5029.05143 1.83530e-17
5031.66594 1.72357e-17
5034.28044 1.69281e-17
5036.89494 1.64638e-17
5039.49911 1.67359e-17
5042.11361 1.74058e-17
5044.72811 1.73397e-17
5047.34261 1.70688e-17
5049.95712 1.68945e-17
5052.57162 1.69612e-17
5055.17579 1.68953e-17
5057.79029 1.69981e-17
5060.40479 1.76424e-17
5063.01929 1.70471e-17
5065.63379 1.68370e-17
5068.23796 1.62784e-17
5070.85246 1.68139e-17
5073.46697 1.69886e-17
5076.08147 1.70671e-17
5078.69597 1.71456e-17
5081.31047 1.74160e-17
5083.91464 1.78543e-17
5086.52914 1.69488e-17
5089.14364 1.68953e-17
5091.75815 1.75012e-17
5094.37265 1.75554e-17
5096.97682 1.66153e-17
5185.80788 2.05236e-17
5188.42238 2.04580e-17
5191.03688 1.98950e-17
5193.65139 2.04096e-17
5196.26589 2.06755e-17
5198.87006 2.08110e-17
5201.48456 2.06389e-17
5204.09906 2.09872e-17
5206.71356 2.08033e-17
5209.32806 2.09150e-17
5211.93223 2.16173e-17
5214.54673 2.17759e-17
5217.16124 2.17456e-17
5219.77574 2.15264e-17
5222.39024 2.21451e-17
5224.99441 2.22916e-17
5227.60891 2.22139e-17
5230.22341 2.25843e-17
5232.83791 2.27423e-17
5235.45242 2.28296e-17
5238.06692 2.24811e-17
5240.67109 2.25330e-17
5243.28559 2.30793e-17
5245.90009 2.32605e-17
5248.51459 2.34298e-17
5251.12909 2.35168e-17
5253.73326 2.36154e-17
5256.34776 2.37140e-17
5258.96227 2.39535e-17
5261.57677 2.39462e-17
5264.19127 2.37981e-17
5266.79544 2.41430e-17
5269.40994 2.41123e-17
5272.02444 2.41754e-17
5274.63894 2.41915e-17
5277.25345 2.40436e-17
5279.86795 2.39661e-17
5282.47212 2.37597e-17
5285.08662 2.42797e-17
5287.70112 2.38509e-17
5290.31562 2.41715e-17
5292.93012 2.40590e-17
5295.53429 2.40518e-17
5298.14879 2.43955e-17
5300.76330 2.49144e-17
5303.37780 2.44395e-17
5305.99230 2.44206e-17
5308.60680 2.44250e-17
5311.21097 2.45463e-17
5313.82547 2.48776e-17
5316.43997 2.52087e-17
5319.05448 2.55980e-17
5321.66898 2.55088e-17
5324.27315 2.56180e-17
5326.88765 2.59369e-17
5329.50215 2.61507e-17
5332.11665 2.64460e-17
5334.73115 2.64150e-17
5337.33532 2.66169e-17
5339.94982 2.68303e-17
5342.56433 2.70669e-17
5345.17883 2.66519e-17
5347.79333 2.75630e-17
5350.40783 2.77294e-17
5353.01200 2.82096e-17
5355.62650 2.76670e-17
5358.24100 2.74267e-17
5360.85551 2.88124e-17
5363.47001 2.89783e-17
5366.08451 2.81227e-17
5368.68868 2.83467e-17
5371.30318 2.90115e-17
5373.91768 2.88988e-17
5376.53218 2.92848e-17
5379.14669 2.94387e-17
5381.75085 2.98707e-17
5384.36536 3.03024e-17
5386.97986 2.97496e-17
5389.59436 2.98338e-17
5392.20886 3.03578e-17
5394.81303 3.06038e-17
5397.42753 3.02135e-17
5400.04203 3.02860e-17
5402.65654 3.11214e-17
5405.27104 3.16559e-17
5407.88554 3.09654e-17
5410.48971 3.11185e-17
5413.10421 3.07288e-17
5415.71871 3.12282e-17
5418.33321 3.15889e-17
5420.94772 3.08878e-17
5423.55188 3.06717e-17
5426.16639 3.12975e-17
5428.78089 3.11390e-17
5431.39539 3.15453e-17
5434.00989 3.19169e-17
5436.62439 3.21846e-17
5439.22856 3.15885e-17
5441.84306 3.15223e-17
5444.45757 3.18820e-17
5447.07207 3.21840e-17
5449.68657 3.24859e-17
5452.29074 3.25346e-17
5454.90524 3.28017e-17
5457.51974 3.25974e-17
5460.13424 3.21520e-17
5462.74875 3.25109e-17
5465.35291 3.25022e-17
5467.96742 3.30790e-17
5470.58192 3.23929e-17
5473.19642 3.23613e-17
5475.81092 3.29263e-17
5478.42542 3.30895e-17
5481.02959 3.31036e-17
5483.64409 3.28197e-17
5486.25860 3.29371e-17
5488.87310 3.37304e-17
5491.48760 3.35496e-17
5494.09177 3.35522e-17
5496.70627 3.32228e-17
5499.32077 3.37864e-17
5501.93527 3.36631e-17
5504.54978 3.39059e-17
5507.16428 3.35425e-17
5509.76845 3.33051e-17
5512.38295 3.39365e-17
5514.99745 3.37448e-17
5517.61195 3.35989e-17
5520.22645 3.40014e-17
5522.83062 3.38327e-17
5525.44512 3.39267e-17
5528.05963 3.35642e-17
5530.67413 3.40576e-17
5533.28863 3.40488e-17
5535.89280 3.42225e-17
5538.50730 3.39173e-17
5541.12180 3.42734e-17
5543.73630 3.42190e-17
5546.35081 3.36065e-17
5548.96531 3.38827e-17
5551.56948 3.38627e-17
5554.18398 3.38428e-17
5556.79848 3.44487e-17
5559.41298 3.36550e-17
5562.02748 3.37944e-17
5564.64199 3.39792e-17
5567.24615 3.33795e-17
5569.86066 3.30528e-17
5572.47516 3.36355e-17
5575.08966 3.32749e-17
5577.70416 3.29599e-17
5580.30833 3.23045e-17
5582.92283 3.23873e-17
5585.53733 3.32418e-17
5588.15184 3.31201e-17
5590.76634 3.34635e-17
5593.38084 3.28996e-17
5595.98501 3.25173e-17
5598.59951 3.26453e-17
5601.21401 3.21047e-17
5603.82851 3.23348e-17
5606.44302 3.19984e-17
5609.04718 3.20019e-17
5611.66169 3.16544e-17
5614.27619 3.17486e-17
5616.89069 3.17070e-17
5619.50519 3.15522e-17
5622.11969 3.14202e-17
5624.72386 3.12769e-17
5627.33836 3.19250e-17
5629.95287 3.14314e-17
5632.56737 3.10735e-17
5635.18187 3.14050e-17
5637.78604 3.07085e-17
5640.40054 3.03851e-17
5643.01504 3.07278e-17
5645.62954 3.09913e-17
5648.24405 3.06342e-17
5650.84821 3.04126e-17
5653.46272 3.04730e-17
5656.07722 3.02516e-17
5658.69172 2.97710e-17
5661.30622 2.96964e-17
5663.91039 3.01176e-17
5666.52489 3.00542e-17
5669.13939 2.97656e-17
5671.75390 2.99276e-17
5674.36840 2.95829e-17
5676.98290 2.93509e-17
5679.58707 2.96817e-17
5682.20157 2.99448e-17
5684.81607 2.94317e-17
5687.43057 2.89752e-17
5690.04508 2.92158e-17
5692.65958 2.97485e-17
5695.26375 2.95282e-17
5697.87825 2.88362e-17
5700.49275 2.90655e-17
5703.10725 2.91374e-17
5705.72175 2.91757e-17
5708.32592 2.93262e-17
5710.94042 2.91176e-17
5713.55493 2.88866e-17
5716.16943 2.91156e-17
5718.78393 2.91763e-17
5721.39843 2.87549e-17
5724.00260 2.83786e-17
5726.61710 2.86748e-17
5729.23160 2.83098e-17
5731.84611 2.84043e-17
5734.46061 2.91034e-17
5737.06478 2.89850e-17
5739.67928 2.86427e-17
5742.29378 2.83454e-17
5744.90828 2.81490e-17
5747.52278 2.80085e-17
5750.12695 2.81253e-17
5752.74145 2.81079e-17
5755.35596 2.79788e-17
5757.97046 2.81291e-17
5760.58496 2.78660e-17
5763.19946 2.76141e-17
5765.80363 2.75634e-17
5768.41813 2.76132e-17
5771.03263 2.73505e-17
5773.64714 2.75119e-17
5776.26164 2.74837e-17
5778.86581 2.72881e-17
5781.48031 2.71260e-17
5784.09481 2.74435e-17
5786.70931 2.75380e-17
5789.32381 2.74652e-17
5791.93832 2.73924e-17
5794.54248 2.73643e-17
5797.15699 2.72136e-17
5799.77149 2.70965e-17
5802.38599 2.71575e-17
5805.00049 2.74857e-17
5807.60466 2.77470e-17
5810.21916 2.73405e-17
5812.83366 2.72680e-17
5815.44817 2.68618e-17
5818.06267 2.73344e-17
5820.67717 2.72285e-17
5823.28134 2.75230e-17
5825.89584 2.73172e-17
5828.51034 2.70337e-17
5831.12484 2.72058e-17
5833.73935 2.70224e-17
5836.34351 2.74610e-17
5838.95802 2.72776e-17
5841.57252 2.69057e-17
5844.18702 2.66116e-17
5846.80152 2.67171e-17
5849.40569 2.68003e-17
5852.02019 2.64954e-17
5854.63469 2.64234e-17
5857.24920 2.61519e-17
5859.86370 2.63461e-17
5862.47820 2.64294e-17
5865.08237 2.64240e-17
5867.69687 2.63965e-17
5870.31137 2.60921e-17
5872.92587 2.58875e-17
5875.54038 2.53730e-17
5878.15488 2.55893e-17
5880.75905 2.52189e-17
5883.37355 2.42513e-17
5885.98805 2.35717e-17
5888.60255 2.30583e-17
5891.21705 2.29763e-17
5893.82122 2.34360e-17
5896.43572 2.38513e-17
5899.05023 2.38687e-17
5901.66473 2.40849e-17
5904.27923 2.40580e-17
5906.89373 2.41968e-17
5909.49790 2.41700e-17
5912.11240 2.41542e-17
5914.72690 2.40170e-17
5917.34141 2.38909e-17
5919.95591 2.37427e-17
5922.56008 2.37602e-17
5925.17458 2.42849e-17
5927.78908 2.43794e-17
5930.40358 2.42203e-17
5933.01808 2.42266e-17
5935.62225 2.40236e-17
5938.23675 2.40189e-17
5940.85126 2.38490e-17
5943.46576 2.35911e-17
5946.08026 2.38288e-17
5948.68443 2.40224e-17
5951.29893 2.42049e-17
5953.91343 2.41783e-17
5956.52793 2.39206e-17
5959.14244 2.38280e-17
5961.75694 2.37025e-17
5964.36111 2.36210e-17
5966.97561 2.37044e-17
5969.59011 2.39198e-17
5972.20461 2.35745e-17
5974.81911 2.32514e-17
5977.43362 2.34668e-17
5980.03778 2.37040e-17
5982.65229 2.33371e-17
5985.26679 2.37280e-17
5987.88129 2.30869e-17
5990.49579 2.33679e-17
5993.09996 2.39561e-17
5995.71446 2.34908e-17
5998.32896 2.31464e-17
6000.94347 2.34821e-17
6003.55797 2.35874e-17
6006.17247 2.36050e-17
6008.77664 2.38308e-17
6011.39114 2.38593e-17
6014.00564 2.35152e-17
6016.62014 2.34561e-17
6019.23465 2.35503e-17
6021.83881 2.37870e-17
6024.45332 2.33884e-17
6027.06782 2.32856e-17
6029.68232 2.35003e-17
6032.29682 2.33865e-17
6034.90099 2.31306e-17
6037.51549 2.35531e-17
6040.12999 2.40301e-17
6042.74450 2.40366e-17
6045.35900 2.44696e-17
6047.97350 2.40389e-17
6050.57767 2.37941e-17
6053.19217 2.37024e-17
6055.80667 2.42007e-17
6058.42117 2.39124e-17
6061.03568 2.40719e-17
6063.63984 2.44607e-17
6066.25435 2.48057e-17
6068.86885 2.45830e-17
6071.48335 2.46441e-17
6074.09785 2.43233e-17
6076.71235 2.39916e-17
6079.31652 2.32456e-17
6081.93102 2.31325e-17
6084.54553 2.27685e-17
6087.16003 2.24047e-17
6089.77453 2.24662e-17
6092.37870 2.29309e-17
6094.99320 2.30685e-17
6097.60770 2.26940e-17
6100.22220 2.27119e-17
6102.83671 2.28059e-17
6105.44087 2.24099e-17
6108.05538 2.22100e-17
6110.66988 2.23586e-17
6113.28438 2.18867e-17
6115.89888 2.17523e-17
6118.51338 2.20097e-17
6121.12789 2.19841e-17
6123.73205 2.19477e-17
6126.34656 2.15959e-17
6128.96106 2.16683e-17
6131.57556 2.15341e-17
6134.19006 2.16500e-17
6136.79423 2.18310e-17
6139.40873 2.13710e-17
6142.02323 2.13782e-17
6144.63774 2.12659e-17
6147.25224 2.12732e-17
6149.85641 2.13564e-17
6152.47091 2.13853e-17
6155.08541 2.09367e-17
6157.69991 2.15191e-17
6160.31441 2.15264e-17
6162.91858 2.13383e-17
6165.53308 2.10635e-17
6168.14759 2.11142e-17
6170.76209 2.06770e-17
6173.37659 2.10529e-17
6175.99109 2.10169e-17
6178.59526 2.07207e-17
6181.20976 2.07064e-17
6183.82426 2.02263e-17
6186.43877 2.08295e-17
6189.05327 2.04470e-17
6191.65744 2.02920e-17
6194.27194 2.06026e-17
6196.88644 2.03393e-17
6199.50094 2.00221e-17
6202.11544 2.01919e-17
6204.72995 2.01129e-17
6207.33411 2.03583e-17
6209.94862 2.03982e-17
6212.56312 2.02219e-17
6215.17762 2.05321e-17
6217.79212 2.04422e-17
6220.39629 2.05686e-17
6223.01079 2.01545e-17
6225.62529 1.98055e-17
6228.23980 2.01912e-17
6230.85430 2.00690e-17
6233.46880 2.00334e-17
6236.07297 2.00517e-17
6238.68747 2.00808e-17
6241.30197 2.05849e-17
6243.91647 2.08190e-17
6246.53098 2.07401e-17
6249.13514 1.98952e-17
6251.74965 2.03666e-17
6254.36415 2.11291e-17
6256.97865 2.06835e-17
6259.59315 2.10684e-17
6262.20765 2.11081e-17
6264.81182 2.08460e-17
6267.42632 2.06918e-17
6270.04083 2.06130e-17
6272.65533 1.97371e-17
6275.26983 1.91846e-17
6277.87400 2.01508e-17
6280.48850 2.00399e-17
6283.10300 2.01228e-17
6285.71750 2.03457e-17
6288.33201 1.99550e-17
6290.93617 1.93169e-17
6293.55068 2.10569e-17
6296.16518 2.18927e-17
6298.77968 2.14589e-17
6301.39418 2.09286e-17
6303.99835 2.05489e-17
6306.61285 2.15778e-17
6309.22735 2.17356e-17
6311.84186 2.13130e-17
6314.45636 2.09980e-17
6317.07086 2.16179e-17
6319.67503 2.14319e-17
6322.28953 2.14715e-17
6324.90403 2.18977e-17
6327.51853 2.23238e-17
6330.13304 2.22988e-17
6332.74754 2.18767e-17
6335.35171 2.20342e-17
6337.96621 2.17089e-17
6340.58071 2.17591e-17
6343.19521 2.21527e-17
6345.80971 2.19454e-17
6348.41388 2.19420e-17
6351.02838 2.20244e-17
6353.64289 2.16993e-17
6356.25739 2.16424e-17
6358.87189 2.19713e-17
6361.48639 2.22572e-17
6364.09056 2.23073e-17
6366.70506 2.25289e-17
6369.31956 2.23005e-17
6371.93407 2.25969e-17
6374.54857 2.29360e-17
6377.15274 2.25792e-17
6379.76724 2.24366e-17
6382.38174 2.23475e-17
6384.99624 2.24725e-17
6387.61074 2.29933e-17
6390.22525 2.32252e-17
6392.82941 2.29542e-17
6395.44392 2.27689e-17
6398.05842 2.28189e-17
6400.67292 2.31682e-17
6403.28742 2.33036e-17
6405.89159 2.29794e-17
6408.50609 2.35316e-17
6411.12059 2.34746e-17
6413.73510 2.38663e-17
6416.34960 2.41191e-17
6418.95377 2.37843e-17
6421.56827 2.35778e-17
6424.18277 2.36810e-17
6426.79727 2.36134e-17
6429.41177 2.35671e-17
6432.02628 2.36596e-17
6434.63044 2.35493e-17
6437.24495 2.35137e-17
6439.85945 2.35315e-17
6442.47395 2.36986e-17
6445.08845 2.37057e-17
6447.70295 2.38407e-17
6450.30712 2.41037e-17
6452.92162 2.37696e-17
6455.53613 2.38726e-17
6458.15063 2.38903e-17
6460.76513 2.42703e-17
6463.36930 2.41601e-17
6465.98380 2.42950e-17
6468.59830 2.39399e-17
6471.21280 2.37553e-17
6473.82731 2.33791e-17
6476.43147 2.36418e-17
6479.04598 2.40959e-17
6481.66048 2.39539e-17
6484.27498 2.37376e-17
6486.88948 2.38191e-17
6489.49365 2.41347e-17
6492.10815 2.44608e-17
6494.72265 2.45422e-17
6497.33716 2.42515e-17
6499.95166 2.42160e-17
6502.56616 2.47119e-17
6505.17033 2.50908e-17
6507.78483 2.49171e-17
6510.39933 2.46159e-17
6513.01383 2.45167e-17
6515.62834 2.42581e-17
6518.23250 2.41059e-17
6520.84701 2.41235e-17
6523.46151 2.41624e-17
6526.07601 2.39996e-17
6528.69051 2.43782e-17
6531.30501 2.40774e-17
6533.90918 2.37874e-17
6536.52368 2.38157e-17
6539.13819 2.36107e-17
6541.75269 2.39041e-17
6544.36719 2.41445e-17
6546.97136 2.41409e-17
6549.58586 2.41374e-17
6552.20036 2.41868e-17
6554.81486 2.36852e-17
6557.42937 2.37347e-17
6560.04387 2.41232e-17
6562.64804 2.43209e-17
6565.26254 2.36607e-17
6567.87704 2.39325e-17
6570.49154 2.43102e-17
6573.10604 2.40420e-17
6575.71021 2.37632e-17
6578.32471 2.35057e-17
6580.93922 2.36187e-17
6583.55372 2.41125e-17
6586.16822 2.42253e-17
6588.77239 2.39679e-17
6591.38689 2.39115e-17
6594.00139 2.39080e-17
6596.61589 2.41054e-17
6599.23040 2.43873e-17
6601.84490 2.41301e-17
6604.44907 2.40315e-17
6607.06357 2.42181e-17
6609.67807 2.39822e-17
6612.29257 2.37568e-17
6614.90707 2.38062e-17
6617.52158 2.38238e-17
6620.12574 2.38943e-17
6622.74025 2.39963e-17
6625.35475 2.40667e-17
6627.96925 2.40843e-17
6630.58375 2.38170e-17
6633.18792 2.39402e-17
6635.80242 2.39156e-17
6638.41692 2.37644e-17
6641.03143 2.39613e-17
6643.64593 2.36837e-17
6646.25010 2.37646e-17
6648.86460 2.39087e-17
6651.47910 2.36734e-17
6654.09360 2.38385e-17
6656.70810 2.36454e-17
6659.31227 2.36946e-17
6661.92677 2.35121e-17
6664.54128 2.35298e-17
6667.15578 2.35369e-17
6669.77028 2.37230e-17
6672.38478 2.35827e-17
6674.98895 2.30635e-17
6677.60345 2.30706e-17
6680.21795 2.29200e-17
6682.83246 2.29482e-17
6685.44696 2.30922e-17
6688.06146 2.32466e-17
6690.66563 2.30855e-17
6693.28013 2.29980e-17
6695.89463 2.29946e-17
6698.50913 2.29808e-17
6701.12364 2.31667e-17
6703.72780 2.31002e-17
6706.34231 2.28237e-17
6708.95681 2.26523e-17
6711.57131 2.34474e-17
6714.18581 2.35490e-17
6716.80031 2.26844e-17
6719.40448 2.27966e-17
6722.01898 2.25204e-17
6724.63349 2.23282e-17
6727.24799 2.27133e-17
6729.86249 2.28569e-17
6732.46666 2.26018e-17
6735.08116 2.25146e-17
6737.69566 2.23225e-17
6740.31016 2.23822e-17
6742.92467 2.19699e-17
6745.52883 2.21660e-17
6748.14334 2.17644e-17
6928.41997 1.84957e-17
6931.02413 1.92299e-17
6933.63864 1.97355e-17
6936.25314 1.94940e-17
6938.86764 1.93770e-17
6941.48214 1.92290e-17
6944.08631 1.86247e-17
6946.70081 1.86945e-17
6949.31531 1.92102e-17
6951.92982 1.90726e-17
6954.54432 1.92874e-17
6957.15882 1.90981e-17
6959.76299 1.87326e-17
6962.37749 1.88853e-17
6964.99199 1.88514e-17
6967.60649 1.88072e-17
6970.22100 1.84421e-17
6972.83550 1.84187e-17
6975.43967 1.86851e-17
6978.05417 1.83201e-17
6980.66867 1.79862e-17
6983.28317 1.80974e-17
6985.89767 1.80947e-17
6988.50184 1.79369e-17
6991.11634 1.78102e-17
6993.73085 1.78179e-17
6996.34535 1.78876e-17
6998.95985 1.79367e-17
7001.57435 1.79030e-17
7004.17852 1.75697e-17
7006.79302 1.73191e-17
7009.40752 1.74095e-17
7012.02203 1.73863e-17
7014.63653 1.71874e-17
7017.24070 1.69474e-17
7019.85520 1.72443e-17
7022.46970 1.70559e-17
7025.08420 1.74250e-17
7027.69870 1.74224e-17
7030.30287 1.72548e-17
7032.91737 1.71077e-17
7035.53188 1.68576e-17
7038.14638 1.73090e-17
7040.76088 1.71826e-17
7043.37538 1.72832e-17
7045.97955 1.69404e-17
7048.59405 1.69276e-17
7051.20855 1.71312e-17
7053.82306 1.69019e-17
7056.43756 1.71158e-17
7059.04173 1.71545e-17
7061.65623 1.70489e-17
7064.27073 1.68404e-17
7066.88523 1.70439e-17
7069.49973 1.68148e-17
7072.11424 1.66167e-17
7074.71840 1.70877e-17
7077.33291 1.71057e-17
7079.94741 1.70209e-17
7082.56191 1.71212e-17
7085.17641 1.72524e-17
7087.79091 1.73013e-17
7090.39508 1.71033e-17
7093.00958 1.68025e-17
7095.62409 1.64504e-17
7098.23859 1.68283e-17
7100.84276 1.70519e-17
7103.45726 1.69569e-17
7106.07176 1.68824e-17
7108.68626 1.69210e-17
7111.30076 1.67644e-17
7113.91527 1.70494e-17
7116.51943 1.69031e-17
7119.13394 1.69314e-17
7121.74844 1.67338e-17
7124.36294 1.68134e-17
7126.97744 1.67801e-17
7129.58161 1.65518e-17
7132.19611 1.63338e-17
7134.81061 1.64237e-17
7137.42512 1.59905e-17
7140.03962 1.60086e-17
7142.65412 1.62112e-17
7145.25829 1.59730e-17
7147.87279 1.61038e-17
7150.48729 1.60912e-17
7153.10179 1.58223e-17
7155.71630 1.58506e-17
7158.33080 1.57765e-17
7160.93497 1.57639e-17
7163.54947 1.53314e-17
7166.16397 1.43256e-17
7168.77847 1.39446e-17
7171.39297 1.35739e-17
7173.99714 1.33058e-17
7176.61164 1.34573e-17
7179.22615 1.33017e-17
7181.84065 1.32588e-17
7184.45515 1.29704e-17
7187.05932 1.29275e-17
7189.67382 1.31914e-17
7192.28832 1.29849e-17
7194.90282 1.28501e-17
7197.51733 1.32365e-17
7200.13183 1.35717e-17
7202.73600 1.36208e-17
7205.35050 1.41091e-17
7207.96500 1.49854e-17
7210.57950 1.46972e-17
7213.19400 1.52055e-17
7215.79817 1.55504e-17
7218.41267 1.57624e-17
7221.02718 1.51884e-17
7223.64168 1.43288e-17
7226.25618 1.42756e-17
7228.87068 1.39367e-17
7231.47485 1.34551e-17
7234.08935 1.30961e-17
7236.70385 1.30227e-17
7239.31836 1.30615e-17
7241.93286 1.31105e-17
7244.53703 1.38831e-17
7247.15153 1.41766e-17
7249.76603 1.36241e-17
7252.38053 1.35813e-17
7254.99503 1.38950e-17
7257.60954 1.37197e-17
7260.21370 1.38704e-17
7262.82821 1.39700e-17
7265.44271 1.30415e-17
7268.05721 1.35280e-17
7270.67171 1.35260e-17
7273.27588 1.33712e-17
7275.89038 1.38983e-17
7278.50488 1.38554e-17
7281.11939 1.42398e-17
7283.73389 1.39325e-17
7286.33806 1.38999e-17
7288.95256 1.34199e-17
7291.56706 1.35601e-17
7294.18156 1.36800e-17
7296.79606 1.38405e-17
7299.40023 1.39094e-17
7302.01473 1.37651e-17
7304.62924 1.35395e-17
7307.24374 1.38420e-17
7309.85824 1.40328e-17
7312.47274 1.37870e-17
7315.07691 1.39270e-17
7317.69141 1.41785e-17
7320.30591 1.42474e-17
7322.92042 1.42756e-17
7325.53492 1.42734e-17
7328.14942 1.43624e-17
7330.75359 1.44312e-17
7333.36809 1.44898e-17
7335.98259 1.42645e-17
7338.59709 1.38974e-17
7341.21160 1.44222e-17
7343.81576 1.41666e-17
7346.43027 1.39618e-17
7349.04477 1.41217e-17
7351.65927 1.41701e-17
7354.27377 1.42793e-17
7356.88827 1.37202e-17
7359.49244 1.43457e-17
7362.10694 1.44852e-17
7364.72145 1.43412e-17
7367.33595 1.44807e-17
7369.95045 1.47718e-17
7372.55462 1.46886e-17
7375.16912 1.45750e-17
7377.78362 1.40469e-17
7380.39812 1.37009e-17
7383.01263 1.38706e-17
7385.62713 1.40099e-17
7388.23130 1.39269e-17
7390.84580 1.36215e-17
7393.46030 1.35386e-17
7396.07480 1.39607e-17
7398.68930 1.40595e-17
7401.29347 1.36332e-17
7403.90797 1.34695e-17
7406.52248 1.36087e-17
7409.13698 1.36368e-17
7411.75148 1.35640e-17
7414.35565 1.33904e-17
7416.97015 1.33681e-17
7419.58465 1.33357e-17
7422.19915 1.30512e-17
7424.81366 1.29785e-17
7427.42816 1.30269e-17
7430.03233 1.34583e-17
7432.64683 1.31236e-17
7435.26133 1.33331e-17
7437.87583 1.30590e-17
7440.49033 1.31778e-17
7443.10484 1.30246e-17
7445.70900 1.27103e-17
7448.32351 1.27083e-17
7450.93801 1.27264e-17
7453.55251 1.25633e-17
7456.16701 1.27627e-17
7458.77118 1.28613e-17
7461.38568 1.29498e-17
7464.00018 1.30986e-17
7466.61469 1.30060e-17
7469.22919 1.27827e-17
7471.83336 1.26399e-17
7474.44786 1.27987e-17
7477.06236 1.28168e-17
7479.67686 1.27444e-17
7482.29136 1.25314e-17
7484.89553 1.22882e-17
7487.51003 1.24570e-17
7490.12454 1.23847e-17
7492.73904 1.24832e-17
7495.35354 1.20896e-17
7497.96804 1.23186e-17
7500.57221 1.23066e-17
7503.18671 1.25354e-17
7505.80121 1.26137e-17
7508.41572 1.22706e-17
7511.03022 1.19175e-17
7513.63439 1.21062e-17
7516.24889 1.24653e-17
7518.86339 1.24933e-17
7521.47789 1.24412e-17
7524.09239 1.20683e-17
7526.70690 1.18660e-17
7529.31106 1.19643e-17
7531.92557 1.20425e-17
7534.54007 1.21708e-17
7537.15457 1.21588e-17
7539.76907 1.17964e-17
7542.37324 1.15842e-17
7544.98774 1.17726e-17
7547.60224 1.18808e-17
7550.21675 1.18288e-17
7552.83125 1.17669e-17
7555.44575 1.19151e-17
7558.04992 1.21032e-17
7560.66442 1.18412e-17
7563.27892 1.19493e-17
7565.89342 1.18674e-17
7568.50793 1.21554e-17
7571.11209 1.23533e-17
7573.72660 1.21315e-17
7576.34110 1.17698e-17
7578.95560 1.16780e-17
7581.57010 1.15063e-17
7584.18460 1.10151e-17
7586.78877 9.74728e-18
7686.06751 1.13823e-17
7688.68201 1.14003e-17
7691.29651 1.18944e-17
7693.91102 1.20214e-17
7696.52552 1.19500e-17
7699.12969 1.20770e-17
7701.74419 1.19858e-17
7704.35869 1.19541e-17
7706.97319 1.20314e-17
7709.58769 1.19799e-17
7712.20220 1.18194e-17
7714.80636 1.18869e-17
7717.42087 1.18651e-17
7720.03537 1.20810e-17
7722.64987 1.25048e-17
7725.26437 1.22850e-17
7727.86854 1.24908e-17
7730.48304 1.25382e-17
7733.09754 1.26153e-17
7735.71205 1.24847e-17
7738.32655 1.21958e-17
7740.93072 1.21344e-17
7743.54522 1.22709e-17
7746.15972 1.21799e-17
7748.77422 1.20988e-17
7751.38872 1.21265e-17
7754.00323 1.22629e-17
7756.60739 1.29129e-17
7759.22190 1.29009e-17
7761.83640 1.26124e-17
7764.45090 1.26004e-17
7767.06540 1.29045e-17
7769.66957 1.29320e-17
7772.28407 1.31766e-17
7774.89857 1.26317e-17
7777.51308 1.24520e-17
7780.12758 1.26768e-17
7782.74208 1.24084e-17
7785.34625 1.24360e-17
7787.96075 1.30354e-17
7790.57525 1.25699e-17
7793.18975 1.24397e-17
7795.80426 1.25264e-17
7798.41876 1.28889e-17
7801.02293 1.30445e-17
7803.63743 1.26483e-17
7806.25193 1.25871e-17
7808.86643 1.26244e-17
7811.48093 1.27504e-17
7814.08510 1.30141e-17
7816.69960 1.28446e-17
7819.31411 1.30984e-17
7821.92861 1.34701e-17
7824.54311 1.31924e-17
7827.14728 1.32886e-17
7829.76178 1.30996e-17
7832.37628 1.31269e-17
7834.99078 1.33017e-17
7837.60529 1.28179e-17
7840.20945 1.28060e-17
7842.82396 1.27744e-17
7845.43846 1.29098e-17
7848.05296 1.29077e-17
7850.66746 1.34654e-17
7853.28196 1.29329e-17
7855.88613 1.31272e-17
7858.50063 1.32330e-17
7861.11514 1.31131e-17
7863.72964 1.32777e-17
7866.34414 1.30891e-17
7868.94831 1.27044e-17
7871.56281 1.26728e-17
7874.17731 1.28081e-17
7876.79181 1.27079e-17
7879.40632 1.26372e-17
7882.02082 1.26547e-17
7884.62499 1.27408e-17
7887.23949 1.28367e-17
7889.85399 1.26681e-17
7892.46849 1.27640e-17
7895.08299 1.24876e-17
7897.69750 1.23681e-17
7900.30166 1.25521e-17
7902.91617 1.22661e-17
7905.53067 1.25969e-17
7908.14517 1.25263e-17
7910.75967 1.21818e-17
7913.36384 1.22287e-17
7915.97834 1.23343e-17
7918.59284 1.23420e-17
7921.20735 1.17533e-17
7923.82185 1.21425e-17
7926.42602 1.22675e-17
7929.04052 1.24219e-17
7931.65502 1.26055e-17
7934.26952 1.24960e-17
7936.88402 1.18980e-17
7939.49853 1.17691e-17
7942.10269 1.18941e-17
7944.71720 1.20289e-17
7947.33170 1.21050e-17
7949.94620 1.16443e-17
7952.56070 1.17400e-17
7955.16487 1.17966e-17
7957.77937 1.15410e-17
7960.39387 1.11977e-17
7963.00838 1.15080e-17
7965.62288 1.14963e-17
7968.23738 1.15822e-17
7970.84155 1.16290e-17
7973.45605 1.16271e-17
7976.07055 1.16349e-17
7978.68505 1.17402e-17
7981.29956 1.13486e-17
7983.90372 1.16390e-17
7986.51823 1.15981e-17
7989.13273 1.13625e-17
7991.74723 1.15359e-17
7994.36173 1.13199e-17
7996.97623 1.10650e-17
7999.58040 1.11021e-17
8002.19490 1.12657e-17
8004.80941 1.14584e-17
8007.42391 1.13301e-17
8010.03841 1.11532e-17
8012.64258 1.10833e-17
8015.25708 1.09357e-17
8017.87158 1.08950e-17
8020.48608 1.09419e-17
8023.10059 1.09595e-17
8025.70475 1.06663e-17
8028.31926 1.06840e-17
8030.93376 1.08959e-17
8033.54826 1.05737e-17
8036.16276 1.04263e-17
8038.77726 1.02984e-17
8041.38143 1.01997e-17
8043.99593 1.01398e-17
8046.61044 1.04195e-17
8049.22494 1.04663e-17
8051.83944 1.01834e-17
8054.44361 9.62802e-18
8057.05811 9.84072e-18
8059.67261 1.02075e-17
8062.28711 9.88598e-18
8064.90162 9.88437e-18
8067.51612 9.95059e-18
8070.12029 9.90053e-18
8072.73479 9.85050e-18
8075.34929 9.54578e-18
8077.96379 9.42513e-18
8080.57829 9.28032e-18
8083.19280 9.43078e-18
8085.79696 9.34505e-18
8088.41147 9.31257e-18
8091.02597 9.17271e-18
8093.64047 8.84137e-18
8096.24464 9.06239e-18
8098.85914 8.56194e-18
8101.47364 8.66207e-18
8104.08814 8.75057e-18
8106.70265 8.87094e-18
8109.31715 8.59602e-18
8111.92132 8.51443e-18
8114.53582 8.33916e-18
8117.15032 8.31270e-18
8119.76482 8.38669e-18
8122.37932 8.32643e-18
8124.98349 8.01132e-18
8127.59799 7.87391e-18
8130.21250 7.75490e-18
8132.82700 7.17080e-18
8135.44150 6.95834e-18
8138.05600 7.08263e-18
8140.66017 6.87219e-18
8143.27467 6.90001e-18
8145.88917 6.80827e-18
8148.50368 6.55749e-18
8151.11818 6.54775e-18
8153.72235 6.58043e-18
8156.33685 6.60154e-18
8158.95135 6.66599e-18
8161.56585 5.92898e-18
8164.18035 5.85579e-18
8166.79486 6.33249e-18
8169.39902 6.74260e-18
8172.01353 6.54609e-18
8174.62803 6.72600e-18
8177.24253 6.62965e-18
8179.85703 6.33031e-18
8182.46120 6.52074e-18
8185.07570 6.87175e-18
8187.69020 6.87450e-18
8190.30471 6.50031e-18
8192.91921 6.33487e-18
8195.53371 6.55591e-18
8198.13788 6.53180e-18
8200.75238 6.53652e-18
8203.36688 7.11486e-18
8205.98138 7.39136e-18
8208.59589 6.92625e-18
8211.20005 6.70139e-18
8213.81456 6.80787e-18
8216.42906 6.47653e-18
8219.04356 6.32287e-18
8221.65806 6.07618e-18
8224.26223 5.87082e-18
8226.87673 5.55423e-18
8229.49123 5.19266e-18
8232.10574 5.67524e-18
8234.72024 6.22576e-18
8237.33474 6.86336e-18
8239.93891 6.88433e-18
8242.55341 6.89666e-18
8245.16791 6.87066e-18
8247.78241 6.95677e-18
8250.39692 6.96525e-18
8253.01142 6.83388e-18
8255.61559 6.65466e-18
8258.23009 6.64020e-18
8260.84459 6.90055e-18
8263.45909 6.79033e-18
8266.07359 7.01516e-18
8268.67776 6.61880e-18
8271.29226 6.52112e-18
8273.90677 6.18907e-18
8276.52127 6.12306e-18
8279.13577 6.22348e-18
8281.75027 6.37073e-18
8284.35444 6.12592e-18
8286.96894 6.20335e-18
8289.58344 6.66979e-18
8292.19795 6.45181e-18
8294.81245 6.55686e-18
8297.41662 7.03067e-18
8300.03112 6.93405e-18
8302.64562 6.57195e-18
8305.26012 6.45920e-18
8307.87462 6.85348e-18
8310.47879 6.65385e-18
8313.09329 6.36361e-18
8315.70780 6.68805e-18
8318.32230 6.49618e-18
8320.93680 6.48086e-18
8323.55130 6.75840e-18
8326.15547 6.71157e-18
8328.76997 6.92033e-18
8331.38447 7.24630e-18
8333.99898 6.83144e-18
8336.61348 7.00863e-18
8339.21765 7.26487e-18
8341.83215 6.98170e-18
8344.44665 8.14391e-18
8347.06115 7.39203e-18
8349.67565 7.45185e-18
8352.29016 7.86876e-18
8354.89432 7.55049e-18
8357.50883 7.99201e-18
8360.12333 8.16498e-18
8362.73783 7.68693e-18
8365.35233 7.81421e-18
8367.95650 7.75499e-18
8370.57100 7.78995e-18
8373.18550 8.03796e-18
8375.80001 8.09950e-18
8378.41451 8.66972e-18
8381.02901 8.56859e-18
8383.63318 7.98935e-18
8386.24768 7.94727e-18
8388.86218 7.84154e-18
8391.47668 8.00282e-18
8394.09119 8.45950e-18
8396.69535 9.12310e-18
8399.30986 8.92514e-18
8401.92436 8.70730e-18
8404.53886 8.93195e-18
8407.15336 8.77492e-18
8409.75753 8.68628e-18
8412.37203 8.51796e-18
8414.98653 8.84877e-18
8417.60104 8.82183e-18
8420.21554 8.33011e-18
8422.81971 8.32223e-18
8425.43421 8.46986e-18
8428.04871 8.63926e-18
8430.66321 9.02569e-18
8433.27771 9.21391e-18
8435.89222 9.16421e-18
8438.50672 9.23202e-18
8441.11089 9.50255e-18
8443.72539 9.58640e-18
8446.33989 9.23643e-18
8448.95439 8.96612e-18
8451.56889 9.58214e-18
8454.17306 9.35540e-18
8456.78756 8.79081e-18
8459.40207 8.99300e-18
8462.01657 9.05697e-18
8464.63107 8.83140e-18
8467.24557 9.24918e-18
8469.84974 8.83164e-18
8472.46424 8.69416e-18
8475.07874 9.03803e-18
8477.69325 9.75714e-18
8480.30775 9.67064e-18
8482.91192 9.61252e-18
8485.52642 9.75287e-18
8488.14092 1.00633e-17
8490.75542 1.02791e-17
8493.36992 9.88086e-18
8495.97409 1.00211e-17
8498.58859 9.72689e-18
8501.20310 9.83879e-18
8503.81760 1.01772e-17
8506.43210 9.89258e-18
8509.04660 1.03064e-17
8511.65077 9.31786e-18
8514.26527 9.65242e-18
8516.87977 9.95292e-18
8519.49428 1.01307e-17
8522.09844 1.04311e-17
8524.71295 1.05616e-17
8527.32745 1.05695e-17
8529.94195 1.07377e-17
8532.55645 1.06513e-17
8535.17095 1.03482e-17
8537.78546 1.04033e-17
8540.38962 1.01945e-17
8543.00413 9.94814e-18
8545.61863 1.04365e-17
8548.23313 1.08871e-17
8550.84763 1.09609e-17
8553.45180 1.10158e-17
8556.06630 1.08448e-17
8558.68080 1.07774e-17
8561.29531 1.08041e-17
8563.90981 1.05297e-17
8566.51398 1.04153e-17
8569.12848 1.01881e-17
8571.74298 1.04218e-17
8574.35748 1.11539e-17
8576.97198 1.08703e-17
8579.58649 1.08970e-17
8582.19065 1.13185e-17
8584.80516 1.12605e-17
8587.41966 1.10616e-17
8590.03416 1.08533e-17
8592.64866 1.07485e-17
8595.25283 1.10194e-17
8597.86733 1.09052e-17
8600.48183 1.09413e-17
8603.09634 1.12966e-17
8605.71084 1.11636e-17
8608.31501 1.08429e-17
8610.92951 1.06067e-17
8613.54401 1.08962e-17
8616.15851 1.09229e-17
8618.77301 1.07619e-17
8621.38752 1.11075e-17
8623.99168 1.09841e-17
8626.60619 1.05887e-17
8629.22069 1.09999e-17
8631.83519 1.11859e-17
8634.44969 1.17938e-17
8637.06419 1.16797e-17
8639.66836 1.09471e-17
8642.28286 1.09081e-17
8644.89737 1.10940e-17
8647.51187 1.08958e-17
8650.11604 1.06133e-17
8652.73054 1.08367e-17
8655.34504 1.04326e-17
8657.95954 1.02907e-17
8660.57404 1.06264e-17
8663.18855 1.04471e-17
8665.79271 1.11009e-17
8668.40722 1.15300e-17
8671.02172 1.16127e-17
8673.63622 1.17983e-17
8676.25072 1.16190e-17
8678.85489 1.13462e-17
8681.46939 1.11109e-17
8684.08389 1.15957e-17
8686.69840 1.15287e-17
8689.31290 1.13683e-17
8691.92740 1.14229e-17
8694.53157 1.14307e-17
8697.14607 1.16349e-17
8699.76057 1.12502e-17
8702.37507 1.11460e-17
8704.98958 1.08363e-17
8707.60408 1.09377e-17
8710.20825 1.14779e-17
8712.82275 1.13457e-17
8715.43725 1.10175e-17
8718.05175 1.09134e-17
8720.66625 1.07813e-17
8723.27042 1.08453e-17
8725.88492 1.08999e-17
8728.49943 1.03666e-17
8731.11393 1.05239e-17
8733.72843 1.08771e-17
8736.34293 1.10343e-17
8738.94710 1.13127e-17
8741.56160 1.00617e-17
8744.17610 1.06292e-17
8746.79061 1.12991e-17
8749.40511 1.12883e-17
8752.00928 1.12776e-17
8754.62378 1.13042e-17
8757.23828 1.15823e-17
8759.85278 1.18324e-17
8762.46728 1.21477e-17
8765.08179 1.21928e-17
8767.68595 1.22192e-17
8770.30046 1.20780e-17
8772.91496 1.15272e-17
8775.52946 1.16654e-17
8778.14396 1.21481e-17
8780.74813 1.15881e-17
8783.36263 1.07584e-17
8785.97713 1.12689e-17
8788.59164 1.08395e-17
8791.20614 1.09778e-17
8793.81031 1.03811e-17
8796.42481 1.02404e-17
8799.03931 1.03693e-17
8801.65381 1.03402e-17
8804.26831 1.07480e-17
8806.88282 1.17415e-17
8809.48698 1.15821e-17
8812.10149 1.10509e-17
8814.71599 1.10124e-17
8817.33049 1.07510e-17
8819.94499 1.00900e-17
8822.55949 9.26018e-18
8825.16366 8.76121e-18
8827.77816 8.37103e-18
8830.39267 8.38676e-18
8833.00717 9.63841e-18
8835.61134 1.09000e-17
8838.22584 1.17064e-17
8840.84034 1.16400e-17
8843.45484 1.19264e-17
8846.06934 1.10434e-17
8848.68385 9.98432e-18
8851.28801 1.03357e-17
8853.90252 1.01305e-17
8856.51702 1.02035e-17
8859.13152 9.90556e-18
8861.74602 1.01456e-17
8864.35019 1.08584e-17
8866.96469 1.07459e-17
8869.57919 1.05964e-17
8872.19370 1.07899e-17
8874.80820 1.09369e-17
8877.42270 9.75874e-18
8880.02687 8.58914e-18
8882.64137 9.04497e-18
8885.25587 9.18109e-18
8887.87037 8.87438e-18
8890.48488 8.82060e-18
8893.09938 8.99467e-18
8895.70355 8.89645e-18
8898.31805 9.43529e-18
8900.93255 1.00175e-17
8903.54705 1.02571e-17
8906.16155 1.05615e-17
8908.76572 1.02642e-17
8911.38022 1.00965e-17
