# wavelength flux
3501.08686 6.45738e-18
3504.33174 1.31832e-17
3507.56628 9.13543e-18
3510.81116 7.43502e-18
3514.04570 1.12207e-17
3517.29057 7.08007e-18
3520.53545 4.39204e-18
3523.76999 2.00277e-18
3527.01487 5.32984e-18
3530.24941 1.66068e-17
3533.49429 1.16619e-17
3536.73916 7.37633e-18
3539.97370 1.06014e-17
3543.21858 1.13107e-17
3546.45312 5.04358e-18
3549.69800 4.15427e-18
3552.94287 1.04009e-17
3556.17742 1.50849e-18
3559.42229 7.13459e-18
3562.65683 6.44385e-18
3565.90171 9.86452e-18
3569.14659 1.63762e-18
3572.38113 3.25496e-18
3575.62600 1.82120e-18
3578.87088 3.40187e-18
3582.10542 -2.06870e-18
3585.35030 -3.66940e-18
3588.58484 2.06142e-18
3591.82972 8.04041e-18
3595.07459 3.10139e-18
3598.30913 -2.31246e-18
3601.55401 1.19431e-18
3604.78855 2.38339e-18
3608.03343 3.87315e-18
3611.27830 1.85138e-18
3614.51285 1.84268e-18
3617.75772 4.17179e-18
3620.99226 2.54913e-18
3624.23714 -2.83267e-18
3627.48202 9.13332e-19
3630.71656 4.01381e-18
3633.96143 2.03813e-18
3637.19598 -9.75703e-19
3640.44085 -5.71696e-19
3643.68573 8.33560e-19
3646.92027 2.98208e-18
3650.16515 8.90149e-19
3653.39969 3.66829e-18
3656.64456 4.71938e-18
3659.88944 5.36672e-18
3663.12398 4.08466e-18
3666.36886 -2.32704e-20
3669.61373 2.05624e-19
3672.84828 3.26330e-19
3676.09315 4.41713e-18
3679.32769 6.36584e-18
3682.57257 4.36817e-18
3685.81745 1.80184e-18
3689.05199 3.54431e-18
3692.29686 5.59883e-18
3695.53141 5.20132e-18
3698.77628 3.58599e-18
3702.02116 -1.76527e-18
3705.25570 5.24803e-19
3708.50058 -4.64380e-19
3711.73512 1.99096e-18
3714.97999 2.30271e-18
3718.22487 1.99840e-18
3721.45941 2.62226e-19
3724.70429 2.22339e-18
3727.93883 4.40528e-18
3731.18371 5.18356e-18
3734.42858 2.97213e-18
3737.66312 3.47894e-18
3740.90800 6.06587e-18
3744.15288 4.01895e-18
3747.38742 5.30688e-18
3750.63229 5.76498e-18
3753.86684 5.32438e-18
3757.11171 5.32007e-18
3760.35659 4.78028e-18
3763.59113 2.66321e-18
3766.83601 2.66946e-18
3770.07055 2.41671e-18
3773.31542 2.16979e-18
3776.56030 4.64109e-18
3779.79484 3.18573e-18
3783.03972 3.20293e-18
3786.27426 3.27961e-18
3789.51914 4.90798e-18
3792.76401 7.18323e-18
3795.99855 5.12097e-18
3799.24343 5.73589e-18
3802.47797 5.72138e-18
3805.72285 6.61368e-18
3808.96772 6.97419e-18
3812.20227 5.63629e-18
3815.44714 5.99508e-18
3818.68168 4.04781e-18
3821.92656 6.49620e-18
3825.17144 6.09305e-18
3828.40598 6.74138e-18
3831.65085 7.23856e-18
3860.81340 6.73277e-18
3864.05828 6.77799e-18
3867.30315 6.46160e-18
3870.53770 6.36712e-18
3873.78257 6.60000e-18
3877.01711 7.29497e-18
3880.26199 6.95044e-18
3883.50687 5.33618e-18
3886.74141 4.70627e-18
3889.98628 4.83294e-18
3893.22083 6.28036e-18
3896.46570 5.24281e-18
3899.71058 7.88234e-18
3902.94512 7.25636e-18
3906.19000 6.21598e-18
3909.42454 6.66685e-18
3912.66941 6.64333e-18
3915.91429 5.05636e-18
3919.14883 7.06184e-18
3922.39371 6.23924e-18
3925.63858 6.44896e-18
3928.87313 6.83028e-18
3932.11800 6.45705e-18
3935.35254 6.12334e-18
3938.59742 6.47427e-18
3941.84230 5.21495e-18
3945.07684 8.37356e-18
3948.32171 6.59125e-18
3951.55626 6.49595e-18
3954.80113 7.45279e-18
3958.04601 5.52796e-18
3961.28055 6.07850e-18
3964.52543 6.97898e-18
3967.75997 5.86045e-18
3971.00484 6.63581e-18
3974.24972 6.81980e-18
3977.48426 6.85284e-18
3980.72914 4.99114e-18
3983.96368 4.04600e-18
3987.20856 4.80249e-18
3990.45343 5.63740e-18
3993.68797 6.75654e-18
3996.93285 5.25991e-18
4000.17773 5.93790e-18
4003.41227 7.19623e-18
4006.65714 7.03523e-18
4009.89169 4.40241e-18
4013.13656 5.00011e-18
4016.38144 5.43724e-18
4019.61598 5.22100e-18
4022.86086 5.52032e-18
4026.09540 6.67454e-18
4029.34027 4.42769e-18
4032.58515 5.99793e-18
4035.81969 7.31606e-18
4039.06457 6.69342e-18
4042.29911 6.30944e-18
4045.54399 6.73036e-18
4048.78886 5.48454e-18
4052.02340 5.50612e-18
4055.26828 4.69411e-18
4058.50282 4.89521e-18
4061.74770 5.46179e-18
4064.99257 5.31771e-18
4068.22712 5.29881e-18
4071.47199 4.52963e-18
4074.70653 5.01104e-18
4077.95141 6.88380e-18
4081.19629 5.71764e-18
4084.43083 4.43547e-18
4087.67570 5.39854e-18
4090.92058 5.76392e-18
4094.15512 6.20714e-18
4097.40000 5.55278e-18
4100.63454 6.20295e-18
4103.87942 5.95429e-18
4107.12429 5.65202e-18
4110.35883 4.34645e-18
4113.60371 5.62940e-18
4116.83825 5.76897e-18
4120.08313 6.73192e-18
4123.32800 6.51758e-18
4126.56255 4.98225e-18
4129.80742 6.34597e-18
4133.04196 5.21397e-18
4136.28684 5.34981e-18
4139.53172 6.66468e-18
4142.76626 4.72558e-18
4146.01113 5.86569e-18
4149.24568 5.94848e-18
4152.49055 6.79838e-18
4155.73543 5.91323e-18
4158.96997 6.37745e-18
4162.21485 7.21831e-18
4165.44939 7.87152e-18
4168.69426 6.66572e-18
4171.93914 7.12815e-18
4175.17368 7.01359e-18
4178.41856 6.55393e-18
4181.66343 6.85851e-18
4184.89798 6.38409e-18
4188.14285 5.80157e-18
4191.37739 7.27524e-18
4194.62227 6.94681e-18
4197.86715 7.17880e-18
4201.10169 8.84750e-18
4204.34656 8.29085e-18
4207.58111 7.32039e-18
4210.82598 8.08299e-18
4214.07086 8.46396e-18
4217.30540 7.92325e-18
4220.55028 7.36608e-18
4223.78482 7.60611e-18
4227.02969 7.47957e-18
4230.27457 9.42252e-18
4233.50911 9.67572e-18
4236.75399 1.01056e-17
4239.98853 9.66898e-18
4243.23341 8.38009e-18
4246.47828 8.40542e-18
4249.71282 9.22622e-18
4252.95770 8.90525e-18
4256.19224 8.79008e-18
4259.43712 9.41053e-18
4262.68199 9.61881e-18
4265.91654 9.95914e-18
4269.16141 9.75298e-18
4272.39595 9.28275e-18
4275.64083 8.67550e-18
4278.88571 1.00682e-17
4282.12025 9.57199e-18
4285.36512 7.62936e-18
4288.61000 8.65612e-18
4291.84454 9.07839e-18
4295.08942 9.84824e-18
4298.32396 8.95772e-18
4301.56884 8.39792e-18
4304.81371 9.25843e-18
4308.04825 8.88665e-18
4311.29313 8.62475e-18
4314.52767 9.71303e-18
4317.77255 9.19249e-18
4321.01742 9.04024e-18
4324.25197 8.75236e-18
4327.49684 8.44106e-18
4330.73138 9.01288e-18
4333.97626 9.60440e-18
4337.22114 9.25987e-18
4340.45568 8.02054e-18
4343.70055 8.78126e-18
4346.93510 1.00096e-17
4350.17997 9.47329e-18
4353.42485 9.67054e-18
4356.65939 9.18711e-18
4359.90427 9.01800e-18
4363.14914 9.17159e-18
4366.38368 9.92639e-18
4369.62856 9.53938e-18
4372.86310 9.37037e-18
4376.10798 9.14924e-18
4379.35285 9.56352e-18
4382.58740 1.05342e-17
4385.83227 8.49725e-18
4389.06681 8.73570e-18
4392.31169 9.61869e-18
4395.55657 1.02491e-17
4398.79111 1.08530e-17
4402.03598 1.04236e-17
4405.27053 1.04978e-17
4408.51540 1.07540e-17
4411.76028 1.02817e-17
4414.99482 9.67988e-18
4418.23970 1.01786e-17
4421.47424 8.93645e-18
4424.71911 8.95035e-18
4427.96399 9.07671e-18
4431.19853 9.90357e-18
4434.44341 9.41559e-18
4437.68828 1.04837e-17
4440.92283 1.16027e-17
4444.16770 1.01215e-17
4447.40224 1.07132e-17
4450.64712 1.16152e-17
4453.89200 1.04634e-17
4457.12654 1.09508e-17
4460.37141 1.10242e-17
4463.60596 1.08906e-17
4466.85083 1.15840e-17
4489.53396 1.35878e-17
4492.77884 1.25006e-17
4496.01338 1.22468e-17
4499.25826 1.23106e-17
4502.50313 1.28717e-17
4505.73767 1.36466e-17
4508.98255 1.42067e-17
4512.22743 1.40383e-17
4515.46197 1.41869e-17
4518.70684 1.40785e-17
4521.94139 1.37905e-17
4525.18626 1.47941e-17
4528.42080 1.44890e-17
4531.66568 1.41072e-17
4534.91056 1.45201e-17
4538.14510 1.45740e-17
4541.38997 1.57971e-17
4544.63485 1.52020e-17
4547.86939 1.42835e-17
4551.11427 1.39453e-17
4554.34881 1.52347e-17
4557.59369 1.48027e-17
4560.83856 1.51117e-17
4564.07310 1.54630e-17
4567.31798 1.49123e-17
4570.55252 1.59436e-17
4573.79740 1.47896e-17
4577.04227 1.53868e-17
4580.27682 1.48795e-17
4583.52169 1.54082e-17
4586.75623 1.52576e-17
4590.00111 1.44625e-17
4593.24599 1.58641e-17
4596.48053 1.53151e-17
4599.72540 1.52495e-17
4602.95995 1.60393e-17
4606.20482 1.55078e-17
4609.44970 1.52561e-17
4612.68424 1.47169e-17
4615.92912 1.46770e-17
4619.17399 1.47808e-17
4622.40853 1.50450e-17
4625.65341 1.53005e-17
4628.88795 1.53533e-17
4632.13283 1.49419e-17
4635.37770 1.38394e-17
4638.61225 1.32688e-17
4641.85712 1.44767e-17
4645.09166 1.44791e-17
4648.33654 1.40100e-17
4651.58142 1.31625e-17
4654.81596 1.33169e-17
4658.06083 1.38579e-17
4661.29538 1.33814e-17
4664.54025 1.36615e-17
4667.78513 1.34458e-17
4671.01967 1.46910e-17
4674.26455 1.31912e-17
4677.49909 1.38735e-17
4680.74396 1.40521e-17
4683.98884 1.37612e-17
4687.22338 1.37554e-17
4690.46826 1.33980e-17
4693.70280 1.36937e-17
4696.94768 1.43656e-17
4700.19255 1.36069e-17
4703.42709 1.40275e-17
4706.67197 1.32194e-17
4709.91685 1.29632e-17
4713.15139 1.35672e-17
4716.39626 1.41373e-17
4719.63081 1.34390e-17
4722.87568 1.33416e-17
4726.12056 1.31359e-17
4729.35510 1.34469e-17
4732.59998 1.37327e-17
4735.83452 1.33023e-17
4739.07939 1.35380e-17
4742.32427 1.33410e-17
4745.55881 1.34268e-17
4748.80369 1.36538e-17
4752.03823 1.36812e-17
4755.28311 1.33101e-17
4758.52798 1.33542e-17
4761.76252 1.37551e-17
4765.00740 1.42634e-17
4768.24194 1.37268e-17
4771.48682 1.36298e-17
4774.73169 1.42535e-17
4777.96624 1.40156e-17
4781.21111 1.36704e-17
4784.44565 1.35488e-17
4787.69053 1.33611e-17
4790.93541 1.22563e-17
4794.16995 1.29780e-17
4797.41482 1.38478e-17
4800.65970 1.40152e-17
4803.89424 1.41660e-17
4807.13912 1.41353e-17
4810.37366 1.40715e-17
4813.61854 1.45517e-17
4816.86341 1.49491e-17
4820.09795 1.47205e-17
4823.34283 1.43192e-17
4826.57737 1.48971e-17
4829.82225 1.52279e-17
4833.06712 1.56488e-17
4836.30167 1.50424e-17
4839.54654 1.49704e-17
4842.78108 1.52759e-17
4846.02596 1.62950e-17
4849.27084 1.53449e-17
4852.50538 1.62402e-17
4855.75025 1.54302e-17
4858.98480 1.59643e-17
4862.22967 1.56627e-17
4865.47455 1.59835e-17
4868.70909 1.56494e-17
4871.95397 1.56264e-17
4875.18851 1.59631e-17
4878.43338 1.51638e-17
4881.67826 1.49124e-17
4884.91280 1.53714e-17
4888.15768 1.47447e-17
4891.39222 1.49587e-17
4894.63710 1.42920e-17
4897.88197 1.42778e-17
4901.11651 1.45405e-17
4904.36139 1.48927e-17
4907.60627 1.47236e-17
4910.84081 1.57343e-17
4914.08568 1.50852e-17
4917.32023 1.46643e-17
4920.56510 1.45768e-17
4923.80998 1.47737e-17
4927.04452 1.44184e-17
4930.28940 1.51265e-17
4933.52394 1.49254e-17
4936.76881 1.47326e-17
4940.01369 1.48642e-17
4943.24823 1.49633e-17
4946.49311 1.49570e-17
4949.72765 1.41655e-17
4952.97253 1.46936e-17
4956.21740 1.49381e-17
4959.45194 1.41315e-17
4962.69682 1.44731e-17
4965.94170 1.49678e-17
4969.17624 1.53007e-17
4972.42111 1.42209e-17
4975.65566 1.36582e-17
4978.90053 1.46686e-17
4982.14541 1.46141e-17
4985.37995 1.48336e-17
4988.62483 1.44409e-17
4991.85937 1.43463e-17
4995.10424 1.54911e-17
4998.34912 1.46561e-17
5027.51167 1.63005e-17
5030.75654 1.41469e-17
5033.99109 1.44534e-17
5037.23596 1.42874e-17
5040.47050 1.43135e-17
5043.71538 1.42836e-17
5046.96026 1.40859e-17
5050.19480 1.43118e-17
5053.43967 1.49450e-17
5056.68455 1.54898e-17
5059.91909 1.53079e-17
5063.16397 1.45756e-17
5066.39851 1.44501e-17
5069.64339 1.48906e-17
5072.88826 1.50439e-17
5076.12280 1.48386e-17
5079.36768 1.42992e-17
5082.60222 1.49619e-17
5085.84710 1.48763e-17
5089.09197 1.45203e-17
5092.32652 1.47847e-17
5095.57139 1.42941e-17
5186.31425 1.78842e-17
5189.54879 1.75395e-17
5192.79366 1.77447e-17
5196.03854 1.84912e-17
5199.27308 1.85939e-17
5202.51796 1.83828e-17
5205.75250 1.84619e-17
5208.99738 1.93090e-17
5212.24225 1.95522e-17
5215.47679 1.91219e-17
5218.72167 1.91380e-17
5221.95621 1.88803e-17
5225.20109 1.89278e-17
5228.44596 1.97962e-17
5231.68051 1.92338e-17
5234.92538 1.92968e-17
5238.17026 1.98049e-17
5241.40480 1.96100e-17
5244.64968 1.98132e-17
5247.88422 1.95951e-17
5251.12909 1.99464e-17
5254.37397 2.04923e-17
5257.60851 2.02976e-17
5260.85339 2.05236e-17
5264.08793 2.06950e-17
5267.33281 2.02202e-17
5270.57768 2.00571e-17
5273.81222 2.03296e-17
5277.05710 1.98167e-17
5280.29164 2.00036e-17
5283.53652 2.03302e-17
5286.78139 2.01440e-17
5290.01594 2.02219e-17
5293.26081 2.02377e-17
5296.49535 2.07888e-17
5299.74023 2.06028e-17
5302.98511 2.08277e-17
5306.21965 2.10061e-17
5309.46452 2.09674e-17
5312.70940 2.09287e-17
5315.94394 2.16796e-17
5319.18882 2.14551e-17
5322.42336 2.15555e-17
5325.66824 2.12075e-17
5328.90278 2.18258e-17
5332.14765 2.25210e-17
5335.39253 2.19568e-17
5338.62707 2.20879e-17
5341.87195 2.24812e-17
5345.11682 2.21800e-17
5348.35137 2.26270e-17
5351.59624 2.32742e-17
5354.83078 2.32351e-17
5358.07566 2.29803e-17
5361.32054 2.34804e-17
5364.55508 2.37569e-17
5367.79995 2.41640e-17
5371.03450 2.41708e-17
5374.27937 2.37547e-17
5377.52425 2.37694e-17
5380.75879 2.44219e-17
5384.00367 2.39524e-17
5387.24854 2.45584e-17
5390.48308 2.50641e-17
5393.72796 2.38506e-17
5396.96250 2.43562e-17
5400.20738 2.48692e-17
5403.44192 2.37107e-17
5406.68680 2.41470e-17
5409.93167 2.47208e-17
5413.16621 2.40997e-17
5416.41109 2.49564e-17
5419.64563 2.47642e-17
5422.89051 2.50081e-17
5426.13538 2.47243e-17
5429.36993 2.50446e-17
5432.61480 2.52959e-17
5435.85968 2.45768e-17
5439.09422 2.49274e-17
5442.33910 2.41249e-17
5445.57364 2.44297e-17
5448.81851 2.53217e-17
5452.06339 2.49242e-17
5455.29793 2.45880e-17
5458.54281 2.51590e-17
5461.78768 2.55925e-17
5465.02223 2.53783e-17
5468.26710 2.49282e-17
5471.50164 2.50494e-17
5474.74652 2.51324e-17
5477.98106 2.53903e-17
5481.22594 2.48648e-17
5484.47081 2.45298e-17
5487.70536 2.52664e-17
5490.95023 2.54936e-17
5494.18477 2.51283e-17
5497.42965 2.52567e-17
5500.67453 2.57342e-17
5503.90907 2.48913e-17
5507.15394 2.58692e-17
5510.38849 2.59821e-17
5513.63336 2.55189e-17
5516.87824 2.56016e-17
5520.11278 2.52071e-17
5523.35766 2.60243e-17
5526.60253 2.59251e-17
5529.83707 2.53569e-17
5533.08195 2.54623e-17
5536.31649 2.61574e-17
5539.56137 2.61113e-17
5542.80624 2.56118e-17
5546.04079 2.58908e-17
5549.28566 2.60790e-17
5552.52020 2.54215e-17
5555.76508 2.53154e-17
5559.00996 2.50811e-17
5562.24450 2.45678e-17
5565.48937 2.49221e-17
5568.72392 2.56531e-17
5571.96879 2.59165e-17
5575.21367 2.51550e-17
5578.44821 2.51397e-17
5581.69309 2.41984e-17
5584.92763 2.37619e-17
5588.17250 2.42813e-17
5591.41738 2.48982e-17
5594.65192 2.43116e-17
5597.89680 2.49356e-17
5601.14167 2.47852e-17
5604.37622 2.42292e-17
5607.62109 2.41543e-17
5610.85563 2.38316e-17
5614.10051 2.36293e-17
5617.34539 2.38773e-17
5620.57993 2.39076e-17
5623.82480 2.39980e-17
5627.05935 2.37359e-17
5630.30422 2.32267e-17
5633.54910 2.36993e-17
5636.78364 2.33402e-17
5640.02852 2.31086e-17
5643.26306 2.26901e-17
5646.50793 2.26459e-17
5649.75281 2.20856e-17
5652.98735 2.26925e-17
5656.23223 2.28129e-17
5659.46677 2.23503e-17
5662.71165 2.23512e-17
5665.95652 2.26286e-17
5669.19106 2.28909e-17
5672.43594 2.30635e-17
5675.67048 2.29449e-17
5678.91536 2.32890e-17
5682.16023 2.29093e-17
5685.39478 2.28057e-17
5688.63965 2.28290e-17
5691.88453 2.27480e-17
5695.11907 2.27862e-17
5698.36395 2.24371e-17
5701.59849 2.22296e-17
5704.84336 2.24318e-17
5708.08824 2.23659e-17
5711.32278 2.25084e-17
5714.56766 2.21153e-17
5717.80220 2.19901e-17
5721.04708 2.18873e-17
5724.29195 2.15913e-17
5727.52649 2.19866e-17
5730.77137 2.18913e-17
5734.01625 2.17961e-17
5737.25079 2.21539e-17
5740.49566 2.17321e-17
5743.73021 2.14961e-17
5746.97508 2.17202e-17
5750.20962 2.18403e-17
5753.45450 2.22421e-17
5756.69938 2.15171e-17
5759.93392 2.07184e-17
5763.17879 2.04090e-17
5766.41334 2.13737e-17
5769.65821 2.09829e-17
5772.90309 2.08588e-17
5776.13763 2.11196e-17
5779.38251 2.12323e-17
5782.62738 2.13375e-17
5785.86192 2.13614e-17
5789.10680 2.10083e-17
5792.34134 2.13722e-17
5795.58622 2.15069e-17
5798.83109 2.15529e-17
5802.06564 2.17392e-17
5805.31051 2.15120e-17
5808.54505 2.12776e-17
5811.78993 2.16409e-17
5815.03481 2.18418e-17
5818.26935 2.17181e-17
5821.51422 2.16977e-17
5824.74877 2.12130e-17
5827.99364 2.11706e-17
5831.23852 2.14082e-17
5834.47306 2.17783e-17
5837.71794 2.14782e-17
5840.95248 2.10973e-17
5844.19735 2.12758e-17
5847.44223 2.10129e-17
5850.67677 2.06986e-17
5853.92165 2.02594e-17
5857.16652 2.04528e-17
5860.40107 2.05726e-17
5863.64594 2.00016e-17
5866.88048 2.03785e-17
5870.12536 2.08434e-17
5873.37024 2.04270e-17
5876.60478 1.99814e-17
5879.84965 1.94040e-17
5883.08420 1.88709e-17
5886.32907 1.85655e-17
5889.57395 1.79815e-17
5892.80849 1.83876e-17
5896.05337 1.90574e-17
5899.28791 1.88842e-17
5902.53278 1.92165e-17
5905.77766 1.91972e-17
5909.01220 1.94927e-17
5912.25708 1.92829e-17
5915.50195 1.90220e-17
5918.73650 1.91784e-17
5921.98137 1.94005e-17
5925.21591 2.01784e-17
5928.46079 1.95593e-17
5931.70567 1.99201e-17
5934.94021 1.97910e-17
5938.18508 1.92675e-17
5941.41963 1.95332e-17
5944.66450 1.97476e-17
5947.90938 1.97867e-17
5951.14392 1.95922e-17
5954.38880 1.93832e-17
5957.62334 1.87949e-17
5960.86821 1.92281e-17
5964.11309 1.87495e-17
5967.34763 1.90222e-17
5970.59251 1.93384e-17
5973.82705 1.90132e-17
5977.07193 1.92201e-17
5980.31680 1.90407e-17
5983.55134 1.88542e-17
5986.79622 1.87042e-17
5990.04110 1.89255e-17
5993.27564 1.94961e-17
5996.52051 1.90332e-17
5999.75506 1.87669e-17
6002.99993 1.88790e-17
6006.24481 1.91800e-17
6009.47935 1.95754e-17
6012.72423 1.93456e-17
6015.95877 1.91959e-17
6019.20364 1.90680e-17
6022.43819 1.90128e-17
6025.68306 1.96983e-17
6028.92794 1.89389e-17
6032.16248 1.87241e-17
6035.40736 1.88505e-17
6038.65223 1.97893e-17
6041.88677 1.96181e-17
6045.13165 1.98747e-17
6048.36619 1.93048e-17
6051.61107 1.97208e-17
6054.85594 1.97817e-17
6058.09049 1.91397e-17
6061.33536 1.92297e-17
6064.56990 1.95295e-17
6067.81478 1.93008e-17
6071.05966 1.91300e-17
6074.29420 1.87568e-17
6077.53907 1.84415e-17
6080.77362 1.83218e-17
6084.01849 1.76669e-17
6087.26337 1.75907e-17
6090.49791 1.82880e-17
6093.74279 1.83130e-17
6096.98766 1.80778e-17
6100.22220 1.79799e-17
6103.46708 1.79616e-17
6106.70162 1.81093e-17
6109.94650 1.78961e-17
6113.19137 1.76541e-17
6116.42592 1.73616e-17
6119.67079 1.73074e-17
6122.90533 1.69791e-17
6126.15021 1.73577e-17
6129.39509 1.73684e-17
6132.62963 1.72133e-17
6135.87450 1.71448e-17
6139.10905 1.69538e-17
6142.35392 1.68710e-17
6145.59880 1.75948e-17
6148.83334 1.66838e-17
6152.07822 1.64427e-17
6155.31276 1.67200e-17
6158.55763 1.71050e-17
6161.80251 1.67993e-17
6165.03705 1.66879e-17
6168.28193 1.68714e-17
6171.51647 1.69901e-17
6174.76135 1.62964e-17
6178.00622 1.62787e-17
6181.24076 1.61891e-17
6184.48564 1.57906e-17
6187.73052 1.61752e-17
6190.96506 1.63154e-17
6194.20993 1.61111e-17
6197.44448 1.62082e-17
6200.68935 1.63269e-17
6203.93423 1.61370e-17
6207.16877 1.58252e-17
6210.41365 1.60443e-17
6213.64819 1.65645e-17
6216.89306 1.64034e-17
6220.13794 1.62710e-17
6223.37248 1.67120e-17
6226.61736 1.64865e-17
6229.85190 1.64187e-17
6233.09678 1.67019e-17
6236.33132 1.71138e-17
6239.57619 1.64732e-17
6242.82107 1.74004e-17
6246.06595 1.69603e-17
6249.30049 1.65420e-17
6252.54536 1.66746e-17
6255.77991 1.72577e-17
6259.02478 1.71970e-17
6262.26966 1.69863e-17
6265.50420 1.71544e-17
6268.74908 1.73225e-17
6271.98362 1.72190e-17
6275.22849 1.63656e-17
6278.46304 1.63409e-17
6281.70791 1.68732e-17
6284.95279 1.69198e-17
6288.18733 1.71235e-17
6291.43221 1.70987e-17
6294.67708 1.72452e-17
6297.91162 1.71704e-17
6301.15650 1.68960e-17
6304.39104 1.69212e-17
6307.63592 1.72102e-17
6310.87046 1.77343e-17
6314.11534 1.78877e-17
6317.36021 1.77844e-17
6320.59475 1.75601e-17
6323.83963 1.80196e-17
6327.08451 1.82013e-17
6330.31905 1.80340e-17
6333.56392 1.80020e-17
6336.79847 1.82903e-17
6340.04334 1.84362e-17
6343.28822 1.83971e-17
6346.52276 1.78601e-17
6349.76764 1.79989e-17
6353.00218 1.80523e-17
6356.24705 1.79066e-17
6359.49193 1.78677e-17
6362.72647 1.85606e-17
6365.97135 1.84576e-17
6369.20589 1.79497e-17
6372.45077 1.84008e-17
6375.69564 1.84186e-17
6378.93018 1.83938e-17
6382.17506 1.86600e-17
6385.40960 1.89687e-17
6388.65448 1.87522e-17
6391.89935 1.90466e-17
6395.13390 1.92416e-17
6398.37877 1.92876e-17
6401.62365 1.86955e-17
6404.85819 1.96205e-17
6408.10307 1.96877e-17
6411.33761 1.93793e-17
6414.58248 1.88726e-17
6417.82736 1.97403e-17
6421.06190 1.89930e-17
6424.30678 1.90460e-17
6427.54132 1.96159e-17
6430.78620 1.93361e-17
6434.03107 1.94033e-17
6437.26561 1.96402e-17
6440.51049 1.99690e-17
6443.74503 2.01350e-17
6446.98991 1.99615e-17
6450.23478 1.98235e-17
6453.46933 1.99046e-17
6456.71420 1.98302e-17
6459.95908 1.94944e-17
6463.19362 1.97239e-17
6466.43850 2.00805e-17
6469.67304 2.01120e-17
6472.91791 2.00659e-17
6476.16279 2.00269e-17
6479.39733 1.97480e-17
6482.64221 1.98925e-17
6485.87675 1.97265e-17
6489.12163 1.96453e-17
6492.36650 1.96346e-17
6495.60104 1.97791e-17
6498.84592 1.99658e-17
6502.08046 2.02088e-17
6505.32534 2.02403e-17
6508.57021 2.03000e-17
6511.80476 2.01835e-17
6515.04963 2.00389e-17
6518.29451 1.96831e-17
6521.52905 1.96514e-17
6524.77393 2.02532e-17
6528.00847 1.98553e-17
6531.25334 1.97250e-17
6534.48789 2.03616e-17
6537.73276 1.96685e-17
6540.97764 1.91515e-17
6544.21218 1.97106e-17
6547.45706 2.01147e-17
6550.69160 2.00619e-17
6553.93647 2.00722e-17
6557.18135 2.01740e-17
6560.41589 1.93975e-17
6563.66077 2.02650e-17
6566.89531 2.00576e-17
6570.14019 1.97942e-17
6573.38506 1.99590e-17
6576.61960 1.98712e-17
6579.86448 1.97693e-17
6583.10936 1.99552e-17
6586.34390 1.99094e-17
6589.58877 1.98427e-17
6592.82332 1.99233e-17
6596.06819 2.01650e-17
6599.31307 1.99651e-17
6602.54761 2.00035e-17
6605.79249 1.99579e-17
6609.02703 1.97581e-17
6612.27190 1.98315e-17
6615.51678 1.94848e-17
6618.75132 1.94742e-17
6621.99620 1.99748e-17
6625.23074 1.99572e-17
6628.47562 1.96526e-17
6631.72049 1.99080e-17
6634.95503 1.98694e-17
6638.19991 1.99498e-17
6641.44479 2.01560e-17
6644.67933 2.01733e-17
6647.92420 2.02326e-17
6651.15875 1.98585e-17
6654.40362 1.99737e-17
6657.64850 1.99072e-17
6660.88304 1.98268e-17
6664.12792 2.00188e-17
6667.36246 1.99383e-17
6670.60733 1.97323e-17
6673.85221 2.00219e-17
6677.08675 2.00253e-17
6680.33163 1.93238e-17
6683.56617 1.92157e-17
6686.81105 1.96727e-17
6690.05592 1.98365e-17
6693.29046 1.98818e-17
6696.53534 1.98991e-17
6699.76988 1.97422e-17
6703.01476 1.92368e-17
6706.25963 1.95887e-17
6709.49418 1.92508e-17
6712.73905 1.92403e-17
6715.98393 1.92717e-17
6719.21847 1.92891e-17
6722.46335 1.97104e-17
6725.69789 1.91778e-17
6728.94276 1.91395e-17
6732.18764 1.91222e-17
6735.42218 1.91883e-17
6738.66706 1.91153e-17
6741.90160 1.93136e-17
6745.14648 1.89485e-17
6748.39135 1.92371e-17
6929.87706 1.67520e-17
6933.11160 1.72788e-17
6936.35648 1.80669e-17
6939.59102 1.84763e-17
6942.83590 1.81635e-17
6946.08077 1.75000e-17
6949.31531 1.68781e-17
6952.56019 1.80092e-17
6955.79473 1.85214e-17
6959.03961 1.79133e-17
6962.28448 1.76902e-17
6965.51903 1.75634e-17
6968.76390 1.73954e-17
6972.00878 1.73098e-17
6975.24332 1.71419e-17
6978.48820 1.72005e-17
6981.72274 1.72523e-17
6984.96761 1.70776e-17
6988.21249 1.71842e-17
6991.44703 1.69479e-17
6994.69191 1.67254e-17
6997.92645 1.69417e-17
7001.17133 1.70277e-17
7004.41620 1.70041e-17
7007.65074 1.69324e-17
7010.89562 1.67101e-17
7014.13016 1.65152e-17
7017.37504 1.68272e-17
7020.61991 1.66393e-17
7023.85446 1.64308e-17
7027.09933 1.67632e-17
7030.33387 1.64864e-17
7033.57875 1.61686e-17
7036.82363 1.64188e-17
7040.05817 1.64773e-17
7043.30304 1.65700e-17
7046.53759 1.66353e-17
7049.78246 1.67143e-17
7053.02734 1.71145e-17
7056.26188 1.67355e-17
7059.50676 1.66094e-17
7062.75163 1.65790e-17
7065.98617 1.64735e-17
7069.23105 1.65388e-17
7072.46559 1.64196e-17
7075.71047 1.65941e-17
7078.95534 1.66524e-17
7082.18989 1.65265e-17
7085.43476 1.66463e-17
7088.66930 1.66500e-17
7091.91418 1.65173e-17
7095.15906 1.62756e-17
7098.39360 1.60204e-17
7101.63847 1.63309e-17
7104.87302 1.65392e-17
7108.11789 1.64816e-17
7111.36277 1.65262e-17
7114.59731 1.65504e-17
7117.84219 1.66358e-17
7121.07673 1.64761e-17
7124.32160 1.64799e-17
7127.56648 1.59868e-17
7130.80102 1.61607e-17
7134.04590 1.64026e-17
7137.28044 1.59438e-17
7140.52532 1.61109e-17
7143.77019 1.61827e-17
7147.00473 1.60369e-17
7150.24961 1.58707e-17
7153.49449 1.46989e-17
7156.72903 1.50767e-17
7159.97390 1.58482e-17
7163.20845 1.56211e-17
7166.45332 1.50071e-17
7169.69820 1.47666e-17
7172.93274 1.47028e-17
7176.17762 1.44421e-17
7179.41216 1.39780e-17
7182.65703 1.40025e-17
7185.90191 1.43254e-17
7189.13645 1.38141e-17
7192.38133 1.41302e-17
7195.61587 1.41343e-17
7198.86075 1.41452e-17
7202.10562 1.46101e-17
7205.34016 1.48919e-17
7208.58504 1.51533e-17
7211.81958 1.54010e-17
7215.06446 1.54523e-17
7218.30933 1.56051e-17
7221.54388 1.57375e-17
7224.78875 1.57074e-17
7228.02329 1.49534e-17
7231.26817 1.40846e-17
7234.51305 1.40482e-17
7237.74759 1.37615e-17
7240.99246 1.38197e-17
7244.23734 1.45742e-17
7247.47188 1.46187e-17
7250.71676 1.45821e-17
7253.95130 1.46942e-17
7257.19618 1.45428e-17
7260.44105 1.44995e-17
7263.67559 1.45980e-17
7266.92047 1.46290e-17
7270.15501 1.39783e-17
7273.39989 1.42253e-17
7276.64476 1.42630e-17
7279.87931 1.45436e-17
7283.12418 1.41632e-17
7286.35872 1.34996e-17
7289.60360 1.40364e-17
7292.84848 1.48426e-17
7296.08302 1.46241e-17
7299.32789 1.47897e-17
7302.56244 1.46723e-17
7305.80731 1.43126e-17
7309.05219 1.43165e-17
7312.28673 1.43542e-17
7315.53161 1.47755e-17
7318.76615 1.45775e-17
7322.01102 1.42853e-17
7325.25590 1.48141e-17
7328.49044 1.49928e-17
7331.73532 1.47075e-17
7334.96986 1.43348e-17
7338.21474 1.52261e-17
7341.45961 1.49275e-17
7344.69415 1.48977e-17
7347.93903 1.49150e-17
7351.18391 1.49255e-17
7354.41845 1.50368e-17
7357.66332 1.51883e-17
7360.89787 1.47490e-17
7364.14274 1.44844e-17
7367.38762 1.50319e-17
7370.62216 1.49954e-17
7373.86704 1.50394e-17
7377.10158 1.52377e-17
7380.34645 1.43563e-17
7383.59133 1.41323e-17
7386.82587 1.44781e-17
7390.07075 1.40196e-17
7393.30529 1.40437e-17
7396.55017 1.41481e-17
7399.79504 1.42324e-17
7403.02958 1.40823e-17
7406.27446 1.39256e-17
7409.50900 1.42174e-17
7412.75388 1.41343e-17
7415.99875 1.42720e-17
7419.23330 1.43295e-17
7422.47817 1.40591e-17
7425.71271 1.38758e-17
7428.95759 1.39667e-17
7432.20247 1.40910e-17
7435.43701 1.41483e-17
7438.68188 1.40721e-17
7441.92676 1.37954e-17
7445.16130 1.35856e-17
7448.40618 1.38033e-17
7451.64072 1.39141e-17
7454.88560 1.36377e-17
7458.13047 1.38219e-17
7461.36501 1.37925e-17
7464.60989 1.35763e-17
7467.84443 1.35536e-17
7471.08931 1.33242e-17
7474.33418 1.37549e-17
7477.56873 1.32989e-17
7480.81360 1.32963e-17
7484.04814 1.32603e-17
7487.29302 1.32910e-17
7490.53790 1.36281e-17
7493.77244 1.33923e-17
7497.01731 1.32898e-17
7500.25186 1.35734e-17
7503.49673 1.34775e-17
7506.74161 1.32619e-17
7509.97615 1.32926e-17
7513.22103 1.27179e-17
7516.45557 1.19971e-17
7519.70044 1.28059e-17
7522.94532 1.34083e-17
7526.17986 1.27610e-17
7529.42474 1.30375e-17
7532.66961 1.31014e-17
7535.90416 1.28198e-17
7539.14903 1.30629e-17
7542.38357 1.27948e-17
7545.62845 1.27391e-17
7548.87333 1.30684e-17
7552.10787 1.30393e-17
7555.35274 1.29769e-17
7558.58729 1.31137e-17
7561.83216 1.28657e-17
7565.07704 1.28764e-17
7568.31158 1.33909e-17
7571.55646 1.31893e-17
7574.79100 1.29084e-17
7578.03587 1.29787e-17
7581.28075 1.27575e-17
7584.51529 1.27285e-17
7587.76017 1.18056e-17
7688.22732 1.25546e-17
7691.46186 1.27297e-17
7694.70673 1.27666e-17
7697.95161 1.30994e-17
7701.18615 1.32808e-17
7704.43103 1.31466e-17
7707.66557 1.31045e-17
7710.91045 1.34041e-17
7714.15532 1.33948e-17
7717.38986 1.31491e-17
7720.63474 1.34091e-17
7723.86928 1.34917e-17
7727.11416 1.38369e-17
7730.35903 1.39457e-17
7733.59358 1.39363e-17
7736.83845 1.42418e-17
7740.07299 1.38126e-17
7743.31787 1.25835e-17
7746.56275 1.34595e-17
7749.79729 1.36862e-17
7753.04216 1.33557e-17
7756.27671 1.37592e-17
7759.52158 1.39202e-17
7762.76646 1.34720e-17
7766.00100 1.34758e-17
7769.24588 1.37939e-17
7772.48042 1.35423e-17
7775.72529 1.30815e-17
7778.97017 1.34256e-17
7782.20471 1.38350e-17
7785.44959 1.35379e-17
7788.69446 1.37117e-17
7791.92901 1.40423e-17
7795.17388 1.39806e-17
7798.40842 1.42195e-17
7801.65330 1.43538e-17
7804.89818 1.46057e-17
7808.13272 1.42435e-17
7811.37759 1.36791e-17
7814.61214 1.40092e-17
7817.85701 1.44763e-17
7821.10189 1.42449e-17
7824.33643 1.41964e-17
7827.58131 1.43370e-17
7830.81585 1.41775e-17
7834.06072 1.42985e-17
7837.30560 1.44130e-17
7840.54014 1.43644e-17
7843.78502 1.38793e-17
7847.01956 1.39742e-17
7850.26444 1.46487e-17
7853.50931 1.44764e-17
7856.74385 1.44539e-17
7859.98873 1.40214e-17
7863.22327 1.40250e-17
7866.46815 1.43150e-17
7869.71302 1.45853e-17
7872.94757 1.44978e-17
7876.19244 1.42087e-17
7879.43732 1.41603e-17
7882.67186 1.40989e-17
7885.91674 1.44664e-17
7889.15128 1.48209e-17
7892.39615 1.45970e-17
7895.64103 1.45226e-17
7898.87557 1.43183e-17
7902.12045 1.40881e-17
7905.35499 1.39879e-17
7908.59987 1.41992e-17
7911.84474 1.42223e-17
7915.07928 1.39664e-17
7918.32416 1.37949e-17
7921.55870 1.36235e-17
7924.80358 1.38995e-17
7928.04845 1.41235e-17
7931.28300 1.39911e-17
7934.52787 1.38327e-17
7937.76241 1.36874e-17
7941.00729 1.38789e-17
7944.25217 1.43293e-17
7947.48671 1.40416e-17
7950.73158 1.40452e-17
7953.97646 1.36152e-17
7957.21100 1.38583e-17
7960.45588 1.36679e-17
7963.69042 1.35164e-17
7966.93530 1.37787e-17
7970.18017 1.37242e-17
7973.41471 1.37279e-17
7976.65959 1.38802e-17
7979.89413 1.35285e-17
7983.13901 1.30155e-17
7986.38388 1.32130e-17
7989.61843 1.36946e-17
7992.86330 1.38661e-17
7996.09784 1.38052e-17
7999.34272 1.33443e-17
8002.58760 1.31609e-17
8005.82214 1.32227e-17
8009.06701 1.35554e-17
8012.30156 1.34946e-17
8015.54643 1.26732e-17
8018.79131 1.26642e-17
8022.02585 1.31707e-17
8025.27073 1.26204e-17
8028.51560 1.23795e-17
8031.75014 1.25509e-17
8034.99502 1.25806e-17
8038.22956 1.27647e-17
8041.47444 1.24275e-17
8044.71931 1.24056e-17
8047.95386 1.23195e-17
8051.19873 1.17703e-17
8054.43327 1.19801e-17
8057.67815 1.23570e-17
8060.91269 1.24253e-17
8064.15757 1.24485e-17
8067.40244 1.19512e-17
8070.63699 1.18331e-17
8073.88186 1.18886e-17
8077.12674 1.19054e-17
8080.36128 1.17361e-17
8083.60616 1.11881e-17
8086.84070 1.11987e-17
8090.08557 1.14980e-17
8093.33045 1.10531e-17
8096.56499 1.09162e-17
8099.80987 1.12731e-17
8103.04441 1.10208e-17
8106.28929 1.08455e-17
8109.53416 1.05549e-17
8112.76870 1.09116e-17
8116.01358 1.09543e-17
8119.24812 1.06126e-17
8122.49300 1.01495e-17
8125.73787 1.00962e-17
8128.97242 9.72295e-18
8132.21729 8.57548e-18
8135.46217 9.11122e-18
8138.69671 9.94741e-18
8141.94159 9.31225e-18
8145.17613 9.06100e-18
8148.42100 9.13591e-18
8151.66588 9.24915e-18
8154.90042 8.62102e-18
8158.14530 8.47873e-18
8161.37984 8.52815e-18
8164.62472 8.78831e-18
8167.86959 8.76102e-18
8171.10413 9.21896e-18
8174.34901 9.06393e-18
8177.58355 9.05575e-18
8180.82843 9.25175e-18
8184.07330 8.93095e-18
8187.30785 8.99934e-18
8190.55272 9.10596e-18
8193.78726 9.15516e-18
8197.03214 9.10873e-18
8200.27702 9.25988e-18
8203.51156 9.55115e-18
8206.75643 9.58749e-18
8210.00131 9.62381e-18
8213.23585 9.23347e-18
8216.48073 9.03429e-18
8219.71527 8.70787e-18
8222.96015 8.24794e-18
8226.20502 7.92181e-18
8229.43956 8.03476e-18
8232.68444 8.72011e-18
8235.91898 9.59596e-18
8239.16386 9.44149e-18
8242.40873 9.32522e-18
8245.64328 9.55855e-18
8248.88815 8.91490e-18
8252.12269 8.64634e-18
8255.36757 8.95588e-18
8258.61245 9.29071e-18
8261.84699 9.27620e-18
8265.09186 8.99508e-18
8268.33674 8.38404e-18
8271.57128 8.16666e-18
8274.81616 8.33637e-18
8278.05070 8.39818e-18
8281.29558 8.90390e-18
8284.54045 9.04800e-18
8287.77499 8.76098e-18
8291.01987 9.06351e-18
8294.25441 8.87799e-18
8297.49929 8.99665e-18
8300.74416 8.87456e-18
8303.97871 9.15151e-18
8307.22358 9.44102e-18
8310.45812 9.14799e-18
8313.70300 8.88038e-18
8316.94788 8.82805e-18
8320.18242 9.19966e-18
8323.42729 9.69131e-18
8326.66184 9.78433e-18
8329.90671 9.11849e-18
8333.15159 8.34542e-18
8336.38613 9.10868e-18
8339.63101 9.80213e-18
8342.86555 9.19998e-18
8346.11042 9.52674e-18
8349.35530 1.01313e-17
8352.58984 1.01041e-17
8355.83472 1.01843e-17
8359.07959 1.02896e-17
8362.31414 1.06096e-17
8365.55901 1.06328e-17
8368.79355 1.05425e-17
8372.03843 1.09126e-17
8375.28331 1.08727e-17
8378.51785 1.07194e-17
8381.76272 1.06165e-17
8384.99727 1.01102e-17
8388.24214 1.01461e-17
8391.48702 1.05853e-17
8394.72156 1.08353e-17
8397.96644 1.10033e-17
8401.20098 1.10201e-17
8404.44585 1.07536e-17
8407.69073 1.08901e-17
8410.92527 1.15867e-17
8414.17015 1.12322e-17
8417.40469 1.10162e-17
8420.64957 1.11588e-17
8423.89444 1.15278e-17
8427.12898 1.14753e-17
8430.37386 1.11903e-17
8433.60840 1.12762e-17
8436.85328 1.13056e-17
8440.09815 1.12469e-17
8443.33270 1.14899e-17
8446.57757 1.16887e-17
8449.81211 1.14794e-17
8453.05699 1.17284e-17
8456.30187 1.16258e-17
8459.53641 1.15735e-17
8462.78128 1.18600e-17
8466.01583 1.17073e-17
8469.26070 1.20000e-17
8472.50558 1.21232e-17
8475.74012 1.20270e-17
8478.98500 1.19245e-17
8482.22987 1.21292e-17
8485.46441 1.21458e-17
8488.70929 1.22125e-17
8491.94383 1.22040e-17
8495.18871 1.19012e-17
8498.43358 1.22873e-17
8501.66813 1.25731e-17
8504.91300 1.27462e-17
8508.14754 1.26625e-17
8511.39242 1.27604e-17
8514.63730 1.30584e-17
8517.87184 1.30811e-17
8521.11671 1.33603e-17
8524.35126 1.32954e-17
8527.59613 1.28491e-17
8530.84101 1.30093e-17
8534.07555 1.30070e-17
8537.32043 1.30047e-17
8540.55497 1.35523e-17
8543.79984 1.37748e-17
8547.04472 1.31540e-17
8550.27926 1.34702e-17
8553.52414 1.34366e-17
8556.76901 1.34155e-17
8560.00356 1.37689e-17
8563.24843 1.37853e-17
8566.48297 1.37829e-17
8569.72785 1.35996e-17
8572.97273 1.37718e-17
8576.20727 1.38443e-17
8579.45214 1.37546e-17
8582.68669 1.41076e-17
8585.93156 1.39368e-17
8589.17644 1.40030e-17
8592.41098 1.39196e-17
8595.65586 1.39546e-17
8598.89040 1.42387e-17
8602.13527 1.39996e-17
8605.38015 1.40408e-17
8608.61469 1.43186e-17
8611.85957 1.39676e-17
8615.09411 1.39528e-17
8618.33899 1.41371e-17
8621.58386 1.37925e-17
8624.81840 1.38959e-17
8628.06328 1.36200e-17
8631.29782 1.34871e-17
8634.54270 1.35097e-17
8637.78757 1.35447e-17
8641.02212 1.36606e-17
8644.26699 1.32668e-17
8647.50153 1.37741e-17
8650.74641 1.39147e-17
8653.99129 1.40366e-17
8657.22583 1.40405e-17
8660.47070 1.40257e-17
8663.71558 1.38186e-17
8666.95012 1.37232e-17
8670.19500 1.40747e-17
8673.42954 1.41096e-17
8676.67442 1.39336e-17
8679.91929 1.39995e-17
8683.15383 1.32531e-17
8686.39871 1.25130e-17
8689.63325 1.30628e-17
8692.87813 1.36991e-17
8696.12300 1.40750e-17
8699.35755 1.43082e-17
8702.60242 1.41820e-17
8705.83696 1.44275e-17
8709.08184 1.43942e-17
8712.32672 1.36736e-17
8715.56126 1.37581e-17
8718.80613 1.45236e-17
8722.04068 1.45894e-17
8725.28555 1.40177e-17
8728.53043 1.43001e-17
8731.76497 1.42979e-17
8735.00985 1.40791e-17
8738.25472 1.39285e-17
8741.48926 1.40562e-17
8744.73414 1.35222e-17
8747.96868 1.37860e-17
8751.21356 1.33759e-17
8754.45843 1.33244e-17
8757.69298 1.35695e-17
8760.93785 1.30423e-17
8764.17239 1.33677e-17
8767.41727 1.43909e-17
8770.66215 1.37958e-17
8773.89669 1.30837e-17
8777.14156 1.40139e-17
8780.37611 1.41414e-17
8783.62098 1.40837e-17
8786.86586 1.41248e-17
8790.10040 1.39067e-17
8793.34528 1.37813e-17
8796.57982 1.36990e-17
8799.82469 1.37155e-17
8803.06957 1.31708e-17
8806.30411 1.25647e-17
8809.54899 1.30560e-17
8812.79386 1.36149e-17
8816.02841 1.29535e-17
8819.27328 1.17132e-17
8822.50782 1.24631e-17
8825.75270 1.36316e-17
8828.98724 1.25765e-17
8832.23212 1.34799e-17
8835.47699 1.36011e-17
8838.71154 1.29158e-17
8841.95641 1.23845e-17
8845.19095 1.24997e-17
8848.43583 1.30210e-17
8851.68071 1.33514e-17
8854.91525 1.28389e-17
8858.16012 1.28678e-17
8861.40500 1.25646e-17
8864.63954 1.16282e-17
8867.88442 1.21430e-17
8871.11896 1.21352e-17
8874.36384 1.18876e-17
8877.60871 1.20827e-17
8880.84325 1.21301e-17
8884.08813 1.26691e-17
8887.32267 1.31957e-17
8890.56755 1.28684e-17
8893.81242 1.21481e-17
8897.04697 1.20420e-17
8900.29184 1.27587e-17
8903.53672 1.31254e-17
8906.77126 1.22642e-17
8910.01614 1.20110e-17
8913.25068 1.20339e-17
8916.49555 1.16703e-17
8919.74043 1.16319e-17
8922.97497 1.13605e-17
8926.21985 1.20520e-17
8929.45439 1.18481e-17
8932.69927 1.13069e-17
8935.94414 1.12871e-17
8939.17868 1.19906e-17
8942.42356 1.12167e-17
8945.65810 1.07311e-17
8948.90298 1.02763e-17
8952.14785 1.04343e-17
8955.38240 1.09292e-17
8958.62727 1.08849e-17
8961.86181 1.06324e-17
8965.10669 1.00860e-17
8968.35157 1.02317e-17
8971.58611 1.00713e-17
8974.83098 9.57415e-18
8978.07586 9.46891e-18
8981.31040 1.00859e-17
8984.55528 1.02315e-17
8987.78982 1.03281e-17
8991.03470 1.02229e-17
8994.27957 1.05642e-17
8997.51411 1.07953e-17
9000.75899 1.02986e-17
9003.99353 1.07254e-17
9007.23841 1.10788e-17
9010.47295 1.09552e-17
9013.71783 1.13818e-17
9016.96270 1.16310e-17
9020.19724 1.15013e-17
9023.44212 1.09011e-17
9026.68700 1.13886e-17
9029.92154 1.20471e-17
9033.16641 1.13371e-17
9036.40096 1.11648e-17
9039.64583 1.12429e-17
9042.89071 1.07959e-17
9046.12525 1.05810e-17
9049.37013 1.07690e-17
9052.60467 1.06091e-17
9055.84954 1.07056e-17
9059.09442 1.07105e-17
9062.32896 1.04164e-17
9065.57384 1.05007e-17
9068.80838 1.07679e-17
9072.05326 1.09498e-17
9075.29813 1.05765e-17
9078.53267 1.05876e-17
9081.77755 1.09340e-17
9085.01209 1.07926e-17
9088.25697 1.09012e-17
9091.50184 1.07404e-17
9094.73639 1.09647e-17
9097.98126 1.10244e-17
9101.22614 1.08891e-17
9104.46068 1.08148e-17
9107.70556 1.04907e-17
9110.94010 9.83166e-18
9114.18497 1.04457e-17
9117.42985 1.06638e-17
9120.66439 1.06017e-17
9123.90927 1.05823e-17
9127.14381 1.05994e-17
9130.38869 9.98337e-18
9133.63356 1.04753e-17
9136.86810 1.07845e-17
9140.11298 1.07225e-17
9143.34752 1.04718e-17
9146.59240 1.07748e-17
9149.83727 1.02383e-17
9153.07182 1.04987e-17
9156.31669 1.08686e-17
9159.55123 1.08552e-17
9162.79611 1.08297e-17
9166.04099 1.07495e-17
9169.27553 1.08881e-17
9172.52040 1.09356e-17
9175.76528 1.11896e-17
9178.99982 1.14619e-17
9182.24470 1.12480e-17
9185.47924 1.08457e-17
9188.72412 1.07352e-17
9191.96899 1.10863e-17
9195.20353 1.10973e-17
9198.44841 1.09321e-17
9201.69329 1.15989e-17
9204.92783 1.16158e-17
9208.16237 1.11228e-17
9211.40725 1.12248e-17
9214.65212 1.08290e-17
9217.88666 1.11010e-17
9221.13154 1.14700e-17
9224.37642 1.12928e-17
9227.61096 1.12855e-17
9230.85583 1.11204e-17
9234.09038 1.14953e-17
9237.33525 1.15123e-17
9240.58013 1.16324e-17
9243.81467 1.08246e-17
9247.05955 1.06172e-17
9250.30442 1.03008e-17
9253.53896 1.00148e-17
9256.78384 9.84401e-18
9260.01838 9.98842e-18
9263.26326 9.97523e-18
9266.50813 9.11976e-18
9269.74268 8.71283e-18
9272.98755 8.42716e-18
9276.22209 7.94770e-18
9279.46697 7.74092e-18
9282.71185 7.80671e-18
9285.94639 7.03680e-18
9289.19126 5.53438e-18
9292.42581 5.86800e-18
9295.67068 5.63431e-18
9298.91556 5.27294e-18
9302.15010 5.24757e-18
9305.39498 5.34626e-18
9308.62952 5.16477e-18
9311.87439 4.57247e-18
9315.11927 5.26592e-18
9318.35381 3.53041e-18
9321.59869 5.26784e-18
9324.84356 6.16301e-18
9328.07811 5.79407e-18
9331.32298 6.36731e-18
9334.55752 6.65686e-18
9337.80240 6.10601e-18
9341.04728 6.58897e-18
9344.28182 8.06913e-18
9347.52669 7.82050e-18
9350.76124 4.64890e-18
9354.00611 2.43630e-18
9357.25099 4.27153e-18
9360.48553 7.72662e-18
9363.73041 8.99432e-18
9366.96495 8.82427e-18
9370.20982 8.43081e-18
9373.45470 8.31520e-18
9376.68924 8.44113e-18
9379.93412 7.77615e-18
9383.16866 8.09529e-18
9386.41354 8.40833e-18
9389.65841 7.39350e-18
9392.89295 6.07110e-18
9396.13783 5.78083e-18
9399.37237 6.15432e-18
9402.61725 5.64389e-18
9405.86212 5.81282e-18
9409.09667 5.73924e-18
9412.34154 6.24829e-18
9415.58642 7.41757e-18
9418.82096 6.75955e-18
9422.06584 5.97746e-18
9425.30038 7.04754e-18
9428.54525 7.40851e-18
9431.79013 7.72118e-18
9435.02467 7.95544e-18
9438.26955 7.23751e-18
9441.50409 7.16447e-18
9444.74897 6.44074e-18
9447.99384 6.52442e-18
9451.22838 7.07193e-18
9454.47326 7.84820e-18
9457.70780 6.63085e-18
9460.95268 5.06507e-18
9464.19755 5.83348e-18
9467.43210 6.98406e-18
9470.67697 7.67567e-18
9473.91151 8.53568e-18
9477.15639 6.89768e-18
9480.40127 2.72208e-18
9483.63581 6.31257e-18
9486.88068 6.70907e-18
9490.11523 6.63018e-18
9493.36010 6.60545e-18
9496.60498 7.56724e-18
9499.83952 7.62662e-18
9503.08440 7.66194e-18
9506.31894 7.15605e-18
9509.56381 6.65626e-18
9512.80869 6.79989e-18
9516.04323 4.77628e-18
9519.28811 3.11795e-18
9522.52265 5.49539e-18
9525.76753 6.70704e-18
9529.01240 6.87463e-18
9532.24694 7.66109e-18
9535.49182 7.20972e-18
9538.73670 7.71364e-18
9541.97124 7.89909e-18
9545.21611 7.27365e-18
9548.45066 6.88856e-18
9551.69553 6.53358e-18
9554.94041 6.88120e-18
9558.17495 7.94922e-18
9561.41983 8.28463e-18
9564.65437 8.07372e-18
9567.89924 8.26499e-18
9571.14412 8.33020e-18
9574.37866 7.15319e-18
9577.62354 7.21249e-18
9580.85808 7.80576e-18
9584.10296 7.66102e-18
9587.34783 8.01419e-18
9590.58237 8.05539e-18
9593.82725 7.63478e-18
9597.06179 7.25624e-18
9600.30667 7.36946e-18
9603.55154 7.60857e-18
9606.78609 8.17737e-18
