# wavelength flux
3502.76097 1.04682e-17
3506.01618 5.97893e-18
3509.28172 9.28941e-18
3512.54727 6.77255e-18
3515.81281 9.18283e-18
3519.06802 7.76664e-18
3522.33357 6.12959e-18
3525.59911 4.61132e-18
3528.86465 5.41150e-18
3532.13020 4.34671e-18
3535.39574 5.95565e-18
3538.65095 6.82176e-18
3541.91650 7.54811e-18
3545.18204 5.58391e-18
3548.44758 6.22811e-18
3551.70279 6.53293e-18
3554.96834 6.58947e-18
3558.23388 6.17488e-18
3561.49943 5.31662e-18
3564.76497 6.38702e-18
3568.02018 7.23428e-18
3571.28572 5.07763e-18
3574.55127 4.87416e-18
3577.81681 7.77396e-18
3581.08236 9.18373e-18
3584.33757 7.18254e-18
3587.60311 6.33222e-18
3590.86865 6.22801e-18
3594.13420 6.58234e-18
3597.39974 5.59672e-18
3600.65495 5.37292e-18
3603.92050 5.64704e-18
3607.18604 8.58991e-18
3610.45158 7.02630e-18
3613.71713 6.37177e-18
3616.97234 6.71626e-18
3620.23788 6.25929e-18
3623.50343 6.64760e-18
3626.76897 7.07118e-18
3630.03451 6.50360e-18
3633.28972 6.83872e-18
3636.55527 6.96696e-18
3639.82081 6.15214e-18
3643.08636 5.84190e-18
3646.35190 6.59637e-18
3649.60711 6.03314e-18
3652.87265 7.38571e-18
3656.13820 7.32945e-18
3659.40374 6.92343e-18
3662.66929 6.32792e-18
3665.92450 7.58359e-18
3669.19004 6.63914e-18
3672.45558 5.57796e-18
3675.72113 6.58420e-18
3678.98667 6.88573e-18
3682.24188 7.16408e-18
3685.50743 8.33226e-18
3688.77297 6.73158e-18
3692.03851 6.53179e-18
3695.30406 6.12457e-18
3698.55927 6.56975e-18
3701.82481 6.36729e-18
3705.09036 5.89862e-18
3708.35590 6.91109e-18
3711.62144 6.76991e-18
3714.87665 7.99213e-18
3718.14220 8.17960e-18
3721.40774 8.28624e-18
3724.67329 8.00933e-18
3727.93883 8.07777e-18
3731.19404 8.94642e-18
3734.45958 9.17848e-18
3737.72513 8.31064e-18
3740.99067 8.94393e-18
3744.24588 9.05617e-18
3747.51143 8.29270e-18
3750.77697 9.16096e-18
3754.04251 9.80407e-18
3757.30806 9.47035e-18
3760.56327 9.49376e-18
3763.82881 9.63228e-18
3767.09436 1.04991e-17
3770.35990 1.05662e-17
3773.62544 9.46115e-18
3776.88065 8.84444e-18
3780.14620 1.03572e-17
3783.41174 1.13058e-17
3786.67729 1.19361e-17
3789.94283 1.14905e-17
3793.19804 1.21201e-17
3796.46358 1.19511e-17
3799.72913 1.28153e-17
3802.99467 1.31063e-17
3806.26022 1.32029e-17
3809.51543 1.28193e-17
3812.78097 1.38349e-17
3816.04651 1.31861e-17
3819.31206 1.43435e-17
3822.57760 1.45211e-17
3825.83281 1.43112e-17
3829.09836 1.44479e-17
3832.36390 1.45031e-17
3858.46758 1.60501e-17
3861.73313 1.59220e-17
3864.99867 1.66460e-17
3868.26422 1.61122e-17
3871.52976 1.56498e-17
3874.78497 1.58464e-17
3878.05051 1.62048e-17
3881.31606 1.63808e-17
3884.58160 1.63239e-17
3887.84715 1.66211e-17
3891.10236 1.69181e-17
3894.36790 1.72351e-17
3897.63344 1.75722e-17
3900.89899 1.82625e-17
3904.16453 1.80032e-17
3907.41974 1.80166e-17
3910.68529 1.83125e-17
3913.95083 1.79931e-17
3917.21637 1.84703e-17
3920.48192 1.86449e-17
3923.73713 1.86884e-17
3927.00267 1.83491e-17
3930.26822 1.74061e-17
3933.53376 1.78929e-17
3936.78897 1.79367e-17
3940.05451 1.76385e-17
3943.32006 1.77829e-17
3946.58560 1.73042e-17
3949.85115 1.74787e-17
3953.11669 1.80549e-17
3956.37190 1.80183e-17
3959.63744 1.80419e-17
3962.90299 1.71427e-17
3966.16853 1.75277e-17
3969.42374 1.75114e-17
3972.68929 1.70142e-17
3975.95483 1.73989e-17
3979.22037 1.76631e-17
3982.48592 1.72765e-17
3985.74113 1.74605e-17
3989.00667 1.72743e-17
3992.27222 1.85782e-17
3995.53776 1.94013e-17
3998.80330 1.83454e-17
4002.05851 1.82890e-17
4005.32406 1.82227e-17
4008.58960 1.80667e-17
4011.85515 1.73620e-17
4015.12069 1.80043e-17
4018.37590 1.78086e-17
4021.64144 1.71645e-17
4024.90699 1.71586e-17
4028.17253 1.74117e-17
4031.43808 1.77243e-17
4034.69329 1.75590e-17
4037.95883 1.75629e-17
4041.22437 1.73579e-17
4044.48992 1.70537e-17
4047.75546 1.69186e-17
4051.01067 1.69526e-17
4054.27622 1.69269e-17
4057.54176 1.70800e-17
4060.80730 1.63495e-17
4064.07285 1.69493e-17
4067.32806 1.68443e-17
4070.59360 1.71658e-17
4073.85915 1.78638e-17
4077.12469 1.70352e-17
4080.39023 1.69601e-17
4083.64544 1.70830e-17
4086.91099 1.74534e-17
4090.17653 1.74376e-17
4093.44208 1.70755e-17
4096.70762 1.75741e-17
4099.96283 1.77659e-17
4103.22837 1.74930e-17
4106.49392 1.78229e-17
4109.75946 1.74218e-17
4113.01467 1.79589e-17
4116.28022 1.80712e-17
4119.54576 1.81835e-17
4122.81130 1.86507e-17
4126.07685 1.83190e-17
4129.33206 1.89633e-17
4132.59760 1.88189e-17
4135.86315 1.87829e-17
4139.12869 1.87568e-17
4142.39423 1.88784e-17
4145.64944 1.83603e-17
4148.91499 1.85114e-17
4152.18053 1.88886e-17
4155.44608 1.87838e-17
4158.71162 1.85416e-17
4161.96683 1.90460e-17
4165.23237 1.84798e-17
4168.49792 1.85029e-17
4171.76346 1.86732e-17
4175.02901 1.87845e-17
4178.28422 1.91801e-17
4181.54976 1.85657e-17
4184.81530 1.85005e-17
4188.08085 1.87195e-17
4191.34639 1.87815e-17
4194.60160 1.91862e-17
4197.86715 1.93753e-17
4201.13269 1.99066e-17
4204.39823 1.92347e-17
4207.66378 1.91010e-17
4210.91899 1.89673e-17
4214.18453 1.88826e-17
4217.45008 1.88955e-17
4220.71562 1.93672e-17
4223.98116 1.98972e-17
4227.23637 1.97732e-17
4230.50192 1.93079e-17
4233.76746 2.05294e-17
4237.03301 2.09607e-17
4240.29855 2.06709e-17
4243.55376 2.01670e-17
4246.81930 2.01015e-17
4250.08485 2.00749e-17
4253.35039 1.99900e-17
4256.61594 2.01385e-17
4259.87115 2.01411e-17
4263.13669 1.99105e-17
4266.40223 2.03405e-17
4269.66778 2.04206e-17
4272.93332 1.98018e-17
4276.18853 2.05613e-17
4279.45408 2.01854e-17
4282.71962 2.01878e-17
4285.98516 1.99286e-17
4289.25071 1.97567e-17
4292.50592 1.99821e-17
4295.77146 2.01588e-17
4299.03701 1.95902e-17
4302.30255 1.95347e-17
4305.55776 1.98081e-17
4308.82330 1.97042e-17
4312.08885 1.97841e-17
4315.35439 1.92358e-17
4318.61994 1.94703e-17
4321.87515 1.92314e-17
4325.14069 1.96683e-17
4328.40623 1.93910e-17
4331.67178 1.93839e-17
4334.93732 1.94153e-17
4338.20287 1.89745e-17
4341.45808 1.93143e-17
4344.72362 1.89894e-17
4347.98916 1.83759e-17
4351.25471 1.89657e-17
4354.50992 1.95262e-17
4357.77546 1.92785e-17
4361.04101 1.92425e-17
4364.30655 1.97446e-17
4367.57209 1.99581e-17
4370.82730 2.03538e-17
4374.09285 2.02118e-17
4377.35839 2.03194e-17
4380.62394 2.06282e-17
4383.88948 2.03999e-17
4387.14469 2.06989e-17
4390.41023 2.04994e-17
4393.67578 2.08077e-17
4396.94132 2.12209e-17
4400.20687 2.10215e-17
4403.46208 2.11091e-17
4406.72762 2.15313e-17
4409.99316 2.17811e-17
4413.25871 2.07601e-17
4416.52425 2.06949e-17
4419.77946 2.19757e-17
4423.04501 2.15378e-17
4426.31055 2.22068e-17
4429.57609 2.22459e-17
4432.83130 2.19037e-17
4436.09685 2.28575e-17
4439.36239 2.30105e-17
4442.62794 2.26493e-17
4445.89348 2.29451e-17
4449.15902 2.33832e-17
4452.41423 2.33456e-17
4455.67978 2.39448e-17
4458.94532 2.39830e-17
4462.21087 2.42300e-17
4465.47641 2.47902e-17
4491.58009 2.69171e-17
4494.84564 2.65847e-17
4498.10085 2.71132e-17
4501.36639 2.76412e-17
4504.63194 2.81026e-17
4507.89748 2.83086e-17
4511.16302 2.84389e-17
4514.42857 2.85030e-17
4517.68378 2.83123e-17
4520.94932 2.81406e-17
4524.21487 2.83555e-17
4527.48041 2.86079e-17
4530.74595 2.89166e-17
4534.00116 2.82175e-17
4537.26671 2.87143e-17
4540.53225 2.84863e-17
4543.79780 2.92553e-17
4547.05301 2.89990e-17
4550.31855 2.92221e-17
4553.58409 2.95389e-17
4556.84964 2.99681e-17
4560.11518 3.01905e-17
4563.37039 2.99717e-17
4566.63594 2.99688e-17
4569.90148 2.98816e-17
4573.16702 2.98974e-17
4576.43257 2.97915e-17
4579.68778 2.97886e-17
4582.95332 2.93271e-17
4586.21887 2.93244e-17
4589.48441 2.95273e-17
4592.74995 2.90572e-17
4596.00516 2.87836e-17
4599.27071 2.86316e-17
4602.53625 2.83864e-17
4605.80180 2.86265e-17
4609.06734 2.81763e-17
4612.32255 2.79221e-17
4615.58809 2.81808e-17
4618.85364 2.80386e-17
4622.11918 2.81387e-17
4625.38473 2.78105e-17
4628.63994 2.75570e-17
4631.90548 2.79082e-17
4635.17102 2.74782e-17
4638.43657 2.75410e-17
4641.70211 2.70744e-17
4644.95732 2.74622e-17
4648.22287 2.72929e-17
4651.48841 2.73650e-17
4654.75395 2.78727e-17
4658.01950 2.78517e-17
4661.27471 2.76269e-17
4664.54025 2.68281e-17
4667.80580 2.69371e-17
4671.07134 2.70738e-17
4674.32655 2.69514e-17
4677.59209 2.65425e-17
4680.85764 2.60230e-17
4684.12318 2.62891e-17
4687.38873 2.62872e-17
4690.65427 2.60177e-17
4693.90948 2.57206e-17
4697.17502 2.55622e-17
4700.44057 2.55513e-17
4703.70611 2.52917e-17
4706.96132 2.51705e-17
4710.22687 2.52334e-17
4713.49241 2.50018e-17
4716.75795 2.52764e-17
4720.02350 2.49714e-17
4723.28904 2.47769e-17
4726.54425 2.53176e-17
4729.80980 2.52150e-17
4733.07534 2.55897e-17
4736.34088 2.55329e-17
4739.60643 2.53937e-17
4742.86164 2.52270e-17
4746.12718 2.52712e-17
4749.39273 2.52879e-17
4752.65827 2.58447e-17
4755.91348 2.55225e-17
4759.17902 2.50542e-17
4762.44457 2.57293e-17
4765.71011 2.54075e-17
4768.97566 2.52231e-17
4772.23087 2.53949e-17
4775.49641 2.52472e-17
4778.76195 2.52911e-17
4782.02750 2.50249e-17
4785.29304 2.48684e-17
4788.54825 2.46663e-17
4791.81380 2.47924e-17
4795.07934 2.48819e-17
4798.34488 2.54446e-17
4801.61043 2.51699e-17
4804.86564 2.49318e-17
4808.13118 2.53301e-17
4811.39673 2.55646e-17
4814.66227 2.52812e-17
4817.92781 2.53157e-17
4821.18302 2.57586e-17
4824.44857 2.58382e-17
4827.71411 2.59087e-17
4830.97966 2.60789e-17
4834.24520 2.61673e-17
4837.50041 2.58392e-17
4840.76595 2.55838e-17
4844.03150 2.60885e-17
4847.29704 2.61316e-17
4850.56259 2.58583e-17
4853.81780 2.57298e-17
4857.08334 2.60078e-17
4860.34888 2.59064e-17
4863.61443 2.56607e-17
4866.86964 2.57309e-17
4870.13518 2.58731e-17
4873.40073 2.54926e-17
4876.66627 2.49503e-17
4879.93181 2.50567e-17
4883.19736 2.51000e-17
4886.45257 2.43516e-17
4889.71811 2.38287e-17
4892.98366 2.44207e-17
4896.24920 2.48415e-17
4899.50441 2.43730e-17
4902.76995 2.42279e-17
4906.03550 2.41368e-17
4909.30104 2.37588e-17
4912.56659 2.44301e-17
4915.82180 2.45003e-17
4919.08734 2.44989e-17
4922.35288 2.39960e-17
4925.61843 2.42364e-17
4928.88397 2.43424e-17
4932.14952 2.41890e-17
4935.40473 2.40536e-17
4938.67027 2.37932e-17
4941.93581 2.37831e-17
4945.20136 2.39070e-17
4948.45657 2.38969e-17
4951.72211 2.40651e-17
4954.98766 2.38767e-17
4958.25320 2.37240e-17
4961.51874 2.34912e-17
4964.77395 2.34457e-17
4968.03950 2.38898e-17
4971.30504 2.39865e-17
4974.57059 2.42076e-17
4977.83613 2.40818e-17
4981.09134 2.38496e-17
4984.35688 2.39728e-17
4987.62243 2.40160e-17
4990.88797 2.39704e-17
4994.15352 2.40668e-17
4997.40873 2.39503e-17
5026.78829 2.61220e-17
5030.04350 2.41508e-17
5033.30904 2.43615e-17
5036.57459 2.42896e-17
5039.84013 2.40326e-17
5043.10567 2.44106e-17
5046.36088 2.42154e-17
5049.62643 2.38883e-17
5052.89197 2.42747e-17
5056.15752 2.46431e-17
5059.42306 2.45450e-17
5062.67827 2.47371e-17
5065.94381 2.47006e-17
5069.20936 2.48574e-17
5072.47490 2.48033e-17
5075.74045 2.50302e-17
5078.99566 2.53973e-17
5082.26120 2.55009e-17
5085.52674 2.55256e-17
5088.79229 2.57256e-17
5092.05783 2.58991e-17
5095.31304 2.59060e-17
5186.69660 2.85882e-17
5189.95181 2.88541e-17
5193.21736 2.88774e-17
5196.48290 2.92121e-17
5199.74845 2.92526e-17
5203.01399 2.92066e-17
5206.26920 2.94372e-17
5209.53474 2.93221e-17
5212.80029 2.94402e-17
5216.06583 2.98776e-17
5219.33138 2.96590e-17
5222.58659 2.95613e-17
5225.85213 2.97137e-17
5229.11767 2.99263e-17
5232.38322 3.00354e-17
5235.64876 3.03081e-17
5238.90397 3.00382e-17
5242.16952 3.00698e-17
5245.43506 2.98433e-17
5248.70060 2.99867e-17
5251.96615 3.01214e-17
5255.22136 2.98951e-17
5258.48690 2.99525e-17
5261.75245 3.02073e-17
5265.01799 3.03074e-17
5268.28353 3.04332e-17
5271.53874 3.05075e-17
5274.80429 3.05132e-17
5278.06983 3.00305e-17
5281.33538 3.03618e-17
5284.60092 3.05816e-17
5287.85613 3.02963e-17
5291.12167 3.01396e-17
5294.38722 3.06158e-17
5297.65276 3.05788e-17
5300.91831 3.07982e-17
5304.17352 3.09747e-17
5307.43906 3.10487e-17
5310.70460 3.10628e-17
5313.97015 3.08722e-17
5317.23569 3.10229e-17
5320.49090 3.09775e-17
5323.75645 3.08553e-17
5327.02199 3.08525e-17
5330.28753 3.09094e-17
5333.54274 3.09833e-17
5336.80829 3.10061e-17
5340.07383 3.07992e-17
5343.33938 3.08561e-17
5346.60492 3.10319e-17
5349.86013 3.12502e-17
5353.12567 3.12135e-17
5356.39122 3.10409e-17
5359.65676 3.12165e-17
5362.92231 3.10696e-17
5366.18785 3.12281e-17
5369.44306 3.11576e-17
5372.70860 3.12144e-17
5375.97415 3.13473e-17
5379.23969 3.14294e-17
5382.49490 3.12743e-17
5385.76045 3.13564e-17
5389.02599 3.05668e-17
5392.29153 3.09282e-17
5395.55708 3.12472e-17
5398.81229 3.13123e-17
5402.07783 3.09802e-17
5405.34338 3.03274e-17
5408.60892 3.08742e-17
5411.87446 3.12180e-17
5415.12967 3.08865e-17
5418.39522 3.07071e-17
5421.66076 3.06543e-17
5424.92631 3.08882e-17
5428.19185 3.06922e-17
5431.44706 3.08417e-17
5434.71260 3.07890e-17
5437.97815 3.06691e-17
5441.24369 3.05913e-17
5444.50924 3.02528e-17
5447.76445 3.03939e-17
5451.02999 3.05181e-17
5454.29553 3.03396e-17
5457.56108 3.03714e-17
5460.82662 3.04703e-17
5464.08183 3.07204e-17
5467.34738 3.04667e-17
5470.61292 3.05152e-17
5473.87846 3.04966e-17
5477.14401 3.03858e-17
5480.39922 3.04009e-17
5483.66476 3.03321e-17
5486.93031 3.03304e-17
5490.19585 3.01111e-17
5493.46139 3.00342e-17
5496.71660 3.01498e-17
5499.98215 3.03490e-17
5503.24769 3.01802e-17
5506.51324 3.01536e-17
5509.76845 3.01939e-17
5513.03399 2.99919e-17
5516.29953 2.98569e-17
5519.56508 2.99891e-17
5522.83062 3.00295e-17
5526.08583 2.98529e-17
5529.35138 2.97849e-17
5532.61692 2.97920e-17
5535.88246 2.96491e-17
5539.14801 2.96563e-17
5542.41355 2.96968e-17
5545.66876 2.93959e-17
5548.93431 2.99277e-17
5552.19985 2.95769e-17
5555.46539 2.88937e-17
5558.72060 2.92339e-17
5561.98615 2.88589e-17
5565.25169 2.91573e-17
5568.51724 2.89986e-17
5571.78278 2.90477e-17
5575.03799 2.92628e-17
5578.30353 2.87805e-17
5581.56908 2.83898e-17
5584.83462 2.86714e-17
5588.10017 2.87455e-17
5591.35538 2.84878e-17
5594.62092 2.81310e-17
5597.88646 2.82715e-17
5601.15201 2.77824e-17
5604.41755 2.79892e-17
5607.68310 2.78978e-17
5610.93831 2.79059e-17
5614.20385 2.74176e-17
5617.46939 2.78062e-17
5620.73494 2.75911e-17
5623.99015 2.76076e-17
5627.25569 2.75497e-17
5630.52124 2.68971e-17
5633.78678 2.71781e-17
5637.05232 2.66994e-17
5640.30753 2.72114e-17
5643.57308 2.75415e-17
5646.83862 2.71622e-17
5650.10417 2.72861e-17
5653.36971 2.69977e-17
5656.62492 2.73524e-17
5659.89046 2.74597e-17
5663.15601 2.74104e-17
5666.42155 2.70236e-17
5669.68710 2.69581e-17
5672.94231 2.73699e-17
5676.20785 2.73455e-17
5679.47339 2.71155e-17
5682.73894 2.68610e-17
5686.00448 2.69766e-17
5689.25969 2.67962e-17
5692.52524 2.67803e-17
5695.79078 2.68630e-17
5699.05632 2.69784e-17
5702.31153 2.67081e-17
5705.57708 2.64953e-17
5708.84262 2.65944e-17
5712.10817 2.63163e-17
5715.37371 2.61859e-17
5718.63925 2.60227e-17
5721.89446 2.60564e-17
5725.16001 2.64341e-17
5728.42555 2.61728e-17
5731.69110 2.59362e-17
5734.95664 2.57653e-17
5738.21185 2.54227e-17
5741.47739 2.55465e-17
5744.74294 2.57847e-17
5748.00848 2.58839e-17
5751.27403 2.61874e-17
5754.52924 2.60821e-17
5757.79478 2.59116e-17
5761.06032 2.58881e-17
5764.32587 2.58158e-17
5767.58108 2.57924e-17
5770.84662 2.55406e-17
5774.11217 2.53705e-17
5777.37771 2.50700e-17
5780.64325 2.51203e-17
5783.89846 2.54641e-17
5787.16401 2.53431e-17
5790.42955 2.55645e-17
5793.69510 2.55169e-17
5796.96064 2.53391e-17
5800.21585 2.53893e-17
5803.48139 2.52280e-17
5806.74694 2.53596e-17
5810.01248 2.52390e-17
5813.27803 2.53381e-17
5816.53324 2.52257e-17
5819.79878 2.53735e-17
5823.06432 2.52693e-17
5826.32987 2.51003e-17
5829.59541 2.51100e-17
5832.85062 2.53389e-17
5836.11617 2.49914e-17
5839.38171 2.46035e-17
5842.64725 2.46377e-17
5845.91280 2.43475e-17
5849.16801 2.43169e-17
5852.43355 2.45863e-17
5855.69910 2.44747e-17
5858.96464 2.37797e-17
5862.23018 2.43326e-17
5865.48539 2.42940e-17
5868.75094 2.41988e-17
5872.01648 2.41036e-17
5875.28203 2.37658e-17
5878.54757 2.39863e-17
5881.80278 2.39317e-17
5885.06832 2.35942e-17
5888.33387 2.36125e-17
5891.59941 2.35177e-17
5894.86496 2.31645e-17
5898.12017 2.32718e-17
5901.38571 2.34841e-17
5904.65125 2.34298e-17
5907.91680 2.34079e-17
5911.18234 2.31600e-17
5914.43755 2.30091e-17
5917.70310 2.30680e-17
5920.96864 2.30462e-17
5924.23418 2.32905e-17
5927.49973 2.35024e-17
5930.75494 2.33758e-17
5934.02048 2.33218e-17
5937.28603 2.31873e-17
5940.55157 2.28355e-17
5943.80678 2.27897e-17
5947.07232 2.29935e-17
5950.33787 2.31247e-17
5953.60341 2.32157e-17
5956.86896 2.30091e-17
5960.13450 2.28509e-17
5963.38971 2.29821e-17
5966.65525 2.27436e-17
5969.92080 2.26418e-17
5973.18634 2.28051e-17
5976.44155 2.31450e-17
5979.70710 2.30111e-17
5982.97264 2.29977e-17
5986.23818 2.34337e-17
5989.50373 2.30431e-17
5992.75894 2.31660e-17
5996.02448 2.31366e-17
5999.29003 2.30029e-17
6002.55557 2.31339e-17
6005.82111 2.29682e-17
6009.08666 2.31392e-17
6012.34187 2.29096e-17
6015.60741 2.28562e-17
6018.87296 2.27869e-17
6022.13850 2.26376e-17
6025.39371 2.23603e-17
6028.65925 2.26993e-17
6031.92480 2.25341e-17
6035.19034 2.23211e-17
6038.45589 2.25559e-17
6041.71110 2.23030e-17
6044.97664 2.19702e-17
6048.24218 2.17735e-17
6051.50773 2.16648e-17
6054.77327 2.18117e-17
6058.02848 2.15193e-17
6061.29403 2.11153e-17
6064.55957 2.15735e-17
6067.82511 2.17363e-17
6071.09066 2.14443e-17
6074.34587 2.08892e-17
6077.61141 2.05177e-17
6080.87696 2.05212e-17
6084.14250 1.98232e-17
6087.40804 1.94602e-17
6090.66325 1.97826e-17
6093.92880 1.97703e-17
6097.19434 1.97739e-17
6100.45989 1.96979e-17
6103.72543 1.97812e-17
6106.98064 1.96893e-17
6110.24618 1.94304e-17
6113.51173 1.95615e-17
6116.77727 1.95175e-17
6120.03248 1.93701e-17
6123.29803 1.93580e-17
6126.56357 1.95048e-17
6129.82911 1.93338e-17
6133.09466 1.93217e-17
6136.34987 1.91269e-17
6139.61541 1.93611e-17
6142.88096 1.95395e-17
6146.14650 1.93925e-17
6149.41204 1.93249e-17
6152.66725 1.93208e-17
6155.93280 1.91263e-17
6159.19834 1.92967e-17
6162.46389 1.88882e-17
6165.72943 1.89873e-17
6168.98464 1.89595e-17
6172.25018 1.90110e-17
6175.51573 1.88644e-17
6178.78127 1.90664e-17
6182.04682 1.90862e-17
6185.30203 1.89397e-17
6188.56757 1.87537e-17
6191.83311 1.90347e-17
6195.09866 1.91732e-17
6198.36420 1.89319e-17
6201.62975 1.91257e-17
6204.88496 1.90901e-17
6208.15050 1.90941e-17
6211.41604 1.95407e-17
6214.68159 1.96394e-17
6217.93680 1.93826e-17
6221.20234 1.93075e-17
6224.46789 1.93904e-17
6227.73343 1.91732e-17
6230.99897 1.94614e-17
6234.25418 1.99469e-17
6237.51973 1.98955e-17
6240.78527 1.97652e-17
6244.05082 2.02266e-17
6247.31636 2.00411e-17
6250.57157 1.99345e-17
6253.83711 2.00961e-17
6257.10266 1.99423e-17
6260.36820 2.00801e-17
6263.63375 2.00130e-17
6266.88896 1.97727e-17
6270.15450 1.98711e-17
6273.42004 1.96782e-17
6276.68559 1.99104e-17
6279.95113 1.96073e-17
6283.20634 1.92414e-17
6286.47189 1.92455e-17
6289.73743 1.74874e-17
6293.00297 1.80423e-17
6296.26852 1.98709e-17
6299.52373 2.01029e-17
6302.78927 1.94779e-17
6306.05482 1.97177e-17
6309.32036 2.01067e-17
6312.58590 2.01027e-17
6315.84111 2.01851e-17
6319.10666 2.00948e-17
6322.37220 2.01458e-17
6325.63775 2.03146e-17
6328.89296 2.04283e-17
6332.15850 2.06205e-17
6335.42404 2.04596e-17
6338.68959 2.04399e-17
6341.95513 2.06084e-17
6345.21034 2.03849e-17
6348.47589 2.04907e-17
6351.74143 2.07218e-17
6355.00697 2.04122e-17
6358.27252 2.04553e-17
6361.52773 2.07020e-17
6364.79327 2.09877e-17
6368.05882 2.07096e-17
6371.32436 2.06978e-17
6374.58990 2.08112e-17
6377.84511 2.08307e-17
6381.11066 2.10145e-17
6384.37620 2.13312e-17
6387.64175 2.10690e-17
6390.90729 2.09086e-17
6394.16250 2.09984e-17
6397.42804 2.13930e-17
6400.69359 2.07715e-17
6403.95913 2.10254e-17
6407.22468 2.13261e-17
6410.47989 2.10409e-17
6413.74543 2.10212e-17
6417.01097 2.12359e-17
6420.27652 2.11850e-17
6423.54206 2.10639e-17
6426.79727 2.08336e-17
6430.06282 2.11184e-17
6433.32836 2.11924e-17
6436.59390 2.08842e-17
6439.85945 2.11766e-17
6443.11466 2.11960e-17
6446.38020 2.09737e-17
6449.64575 2.10321e-17
6452.91129 2.09659e-17
6456.17683 2.09853e-17
6459.43204 2.09035e-17
6462.69759 2.10631e-17
6465.96313 2.11603e-17
6469.22868 2.08450e-17
6472.49422 2.10590e-17
6475.74943 2.07905e-17
6479.01497 2.07089e-17
6482.28052 2.07050e-17
6485.54606 2.06312e-17
6488.81161 2.07828e-17
6492.06682 2.06701e-17
6495.33236 2.08139e-17
6498.59790 2.08956e-17
6501.86345 2.06974e-17
6505.12899 2.09888e-17
6508.38420 2.07053e-17
6511.64975 2.08179e-17
6514.91529 2.06821e-17
6518.18083 2.06550e-17
6521.44638 2.07908e-17
6524.70159 2.09965e-17
6527.96713 2.09538e-17
6531.23268 2.06940e-17
6534.49822 2.07522e-17
6537.75343 2.09112e-17
6541.01897 2.08996e-17
6544.28452 2.06787e-17
6547.55006 2.05432e-17
6550.81561 2.05162e-17
6554.07082 2.05899e-17
6557.33636 2.08262e-17
6560.60190 2.06597e-17
6563.86745 2.07179e-17
6567.13299 2.05670e-17
6570.39854 2.06484e-17
6573.65375 2.07142e-17
6576.91929 2.07955e-17
6580.18483 2.04437e-17
6583.45038 2.05714e-17
6586.70559 2.05676e-17
6589.97113 2.04015e-17
6593.23668 2.01968e-17
6596.50222 2.05100e-17
6599.76776 2.04212e-17
6603.02297 2.04098e-17
6606.28852 2.05065e-17
6609.55406 2.04796e-17
6612.81961 2.02828e-17
6616.08515 2.01401e-17
6619.34036 2.04838e-17
6622.60590 2.05264e-17
6625.87145 2.00674e-17
6629.13699 2.02258e-17
6632.40254 2.05923e-17
6635.65775 2.02724e-17
6638.92329 2.00374e-17
6642.18883 2.03498e-17
6645.45438 2.02305e-17
6648.71992 2.00265e-17
6651.97513 2.02386e-17
6655.24068 2.00962e-17
6658.50622 2.01080e-17
6661.77176 2.02737e-17
6665.03731 2.02316e-17
6668.29252 2.03818e-17
6671.55806 2.00703e-17
6674.82361 1.99282e-17
6678.08915 1.99245e-17
6681.35469 1.99978e-17
6684.60990 1.98789e-17
6687.87545 1.99522e-17
6691.14099 1.99101e-17
6694.40654 2.00679e-17
6697.67208 1.99336e-17
6700.92729 1.98148e-17
6704.19283 1.93964e-17
6707.45838 1.97692e-17
6710.72392 1.95890e-17
6713.98947 1.93091e-17
6717.24468 1.94898e-17
6720.51022 1.97165e-17
6723.77576 1.96976e-17
6727.04131 1.95866e-17
6730.29652 1.95677e-17
6733.56206 1.94722e-17
6736.82761 1.93153e-17
6740.09315 1.93885e-17
6743.35869 1.93849e-17
6746.62424 1.93125e-17
6749.87945 1.92323e-17
6929.37069 1.67654e-17
6932.63624 1.69216e-17
6935.90178 1.75101e-17
6939.16733 1.77646e-17
6942.42254 1.74885e-17
6945.68808 1.71670e-17
6948.95362 1.70123e-17
6952.21917 1.74410e-17
6955.47438 1.75363e-17
6958.73992 1.73210e-17
6962.00547 1.69468e-17
6965.27101 1.69891e-17
6968.53655 1.68043e-17
6971.79176 1.67104e-17
6975.05731 1.68663e-17
6978.32285 1.70145e-17
6981.58840 1.68449e-17
6984.85394 1.66301e-17
6988.11948 1.65363e-17
6991.37469 1.64577e-17
6994.64024 1.65302e-17
6997.90578 1.66632e-17
7001.17133 1.64712e-17
7004.42654 1.63322e-17
7007.69208 1.65331e-17
7010.95762 1.64999e-17
7014.22317 1.63458e-17
7017.48871 1.64183e-17
7020.74392 1.63775e-17
7024.00947 1.62010e-17
7027.27501 1.63489e-17
7030.54055 1.63458e-17
7033.80610 1.63956e-17
7037.06131 1.61739e-17
7040.32685 1.60201e-17
7043.59240 1.61754e-17
7046.85794 1.60971e-17
7050.12348 1.61845e-17
7053.37869 1.60986e-17
7056.64424 1.61183e-17
7059.90978 1.62207e-17
7063.17533 1.61951e-17
7066.44087 1.60491e-17
7069.69608 1.59106e-17
7072.96162 1.58775e-17
7076.22717 1.58595e-17
7079.49271 1.59092e-17
7082.75826 1.60416e-17
7086.01347 1.60838e-17
7089.27901 1.59906e-17
7092.54455 1.58222e-17
7095.81010 1.58719e-17
7099.07564 1.60117e-17
7102.33085 1.57683e-17
7105.59640 1.57803e-17
7108.86194 1.58525e-17
7112.12748 1.57144e-17
7115.39303 1.58541e-17
7118.64824 1.58286e-17
7121.91378 1.56155e-17
7125.17933 1.56651e-17
7128.44487 1.56396e-17
7131.71041 1.56967e-17
7134.96562 1.57237e-17
7138.23117 1.56683e-17
7141.49671 1.55155e-17
7144.76226 1.55500e-17
7148.02780 1.54347e-17
7151.28301 1.54917e-17
7154.54855 1.44927e-17
7157.81410 1.43626e-17
7161.07964 1.51685e-17
7164.34519 1.47914e-17
7167.60040 1.42123e-17
7170.86594 1.36559e-17
7174.13148 1.34363e-17
7177.39703 1.34263e-17
7180.66257 1.33266e-17
7183.91778 1.30623e-17
7187.18333 1.27907e-17
7190.44887 1.31097e-17
7193.71441 1.30923e-17
7196.96962 1.31645e-17
7200.23517 1.29827e-17
7203.50071 1.26143e-17
7206.76626 1.21489e-17
7210.03180 1.30574e-17
7213.28701 1.43911e-17
7216.55255 1.47241e-17
7219.81810 1.46094e-17
7223.08364 1.46738e-17
7226.34919 1.42757e-17
7229.60440 1.37509e-17
7232.86994 1.33979e-17
7236.13548 1.32239e-17
7239.40103 1.31617e-17
7242.66657 1.32933e-17
7245.92178 1.34249e-17
7249.18733 1.33032e-17
7252.45287 1.33304e-17
7255.71841 1.34619e-17
7258.98396 1.37496e-17
7262.23917 1.36279e-17
7265.50471 1.34318e-17
7268.77026 1.32730e-17
7272.03580 1.30696e-17
7275.30134 1.30447e-17
7278.55655 1.31017e-17
7281.82210 1.35973e-17
7285.08764 1.38251e-17
7288.35319 1.30347e-17
7291.61873 1.27053e-17
7294.87394 1.31634e-17
7298.13948 1.33391e-17
7301.40503 1.31880e-17
7304.67057 1.29924e-17
7307.93612 1.29379e-17
7311.19133 1.30616e-17
7314.45687 1.31333e-17
7317.72241 1.31456e-17
7320.98796 1.34323e-17
7324.25350 1.38153e-17
7327.50871 1.38645e-17
7330.77426 1.34615e-17
7334.03980 1.31699e-17
7337.30534 1.36934e-17
7340.57089 1.36018e-17
7343.82610 1.35325e-17
7347.09164 1.34336e-17
7350.35719 1.33125e-17
7353.62273 1.32063e-17
7356.88827 1.36552e-17
7360.14348 1.33122e-17
7363.40903 1.31394e-17
7366.67457 1.33809e-17
7369.94012 1.32896e-17
7373.20566 1.34792e-17
7376.46087 1.36836e-17
7379.72641 1.33557e-17
7382.99196 1.29762e-17
7386.25750 1.32175e-17
7389.51271 1.33848e-17
7392.77826 1.29612e-17
7396.04380 1.28774e-17
7399.30934 1.31775e-17
7402.57489 1.31454e-17
7405.83010 1.29362e-17
7409.09564 1.28378e-17
7412.36119 1.31524e-17
7415.62673 1.31277e-17
7418.89227 1.29482e-17
7422.14748 1.29972e-17
7425.41303 1.29652e-17
7428.67857 1.26457e-17
7431.94412 1.27316e-17
7435.20966 1.28544e-17
7438.46487 1.27487e-17
7441.73041 1.27241e-17
7444.99596 1.26259e-17
7448.26150 1.26013e-17
7451.52705 1.24001e-17
7454.79259 1.25007e-17
7458.04780 1.27336e-17
7461.31334 1.27163e-17
7464.57889 1.25668e-17
7467.84443 1.24907e-17
7471.09964 1.25397e-17
7474.36519 1.24637e-17
7477.63073 1.25274e-17
7480.89627 1.25763e-17
7484.16182 1.24196e-17
7487.41703 1.24538e-17
7490.68257 1.22384e-17
7493.94812 1.22287e-17
7497.21366 1.22849e-17
7500.47920 1.22311e-17
7503.73441 1.22874e-17
7506.99996 1.21602e-17
7510.26550 1.21431e-17
7513.53105 1.21040e-17
7516.79659 1.19330e-17
7520.05180 1.19013e-17
7523.31734 1.19869e-17
7526.58289 1.21603e-17
7529.84843 1.20993e-17
7533.11398 1.17673e-17
7536.36919 1.18162e-17
7539.63473 1.20847e-17
7542.90027 1.19432e-17
7546.16582 1.17433e-17
7549.43136 1.19238e-17
7552.68657 1.19141e-17
7555.95212 1.17508e-17
7559.21766 1.19166e-17
7562.48320 1.17242e-17
7565.74875 1.16853e-17
7569.00396 1.20117e-17
7572.26950 1.21115e-17
7575.53505 1.19119e-17
7578.80059 1.16247e-17
7582.06613 1.18049e-17
7585.32134 1.18244e-17
7686.49120 1.14747e-17
7689.75675 1.15884e-17
7693.02229 1.17021e-17
7696.27750 1.19534e-17
7699.54305 1.19654e-17
7702.80859 1.20717e-17
7706.07413 1.17939e-17
7709.33968 1.20016e-17
7712.59489 1.22164e-17
7715.86043 1.23804e-17
7719.12598 1.23127e-17
7722.39152 1.22740e-17
7725.65706 1.23294e-17
7728.91227 1.22328e-17
7732.17782 1.19917e-17
7735.44336 1.22568e-17
7738.70891 1.25796e-17
7741.97445 1.21433e-17
7745.22966 1.20830e-17
7748.49520 1.25285e-17
7751.76075 1.24032e-17
7755.02629 1.22851e-17
7758.29184 1.24053e-17
7761.54705 1.23811e-17
7764.81259 1.23786e-17
7768.07813 1.23905e-17
7771.34368 1.24240e-17
7774.60922 1.23638e-17
7777.86443 1.26209e-17
7781.12998 1.26543e-17
7784.39552 1.24355e-17
7787.66106 1.22743e-17
7790.92661 1.24304e-17
7794.18182 1.25287e-17
7797.44736 1.26126e-17
7800.71291 1.25524e-17
7803.97845 1.26506e-17
7807.23366 1.27920e-17
7810.49920 1.25590e-17
7813.76475 1.23694e-17
7817.03029 1.26690e-17
7820.29584 1.29685e-17
7823.55105 1.29658e-17
7826.81659 1.28553e-17
7830.08213 1.26514e-17
7833.34768 1.28357e-17
7836.61322 1.29839e-17
7839.86843 1.29956e-17
7843.13398 1.27057e-17
7846.39952 1.24948e-17
7849.66506 1.28656e-17
7852.93061 1.26476e-17
7856.18582 1.23938e-17
7859.45136 1.24200e-17
7862.71691 1.24246e-17
7865.98245 1.26372e-17
7869.24799 1.29286e-17
7872.50320 1.27611e-17
7875.76875 1.24646e-17
7879.03429 1.26197e-17
7882.29984 1.27317e-17
7885.56538 1.26145e-17
7888.82059 1.25188e-17
7892.08613 1.23802e-17
7895.35168 1.24421e-17
7898.61722 1.24968e-17
7901.87243 1.25873e-17
7905.13798 1.22055e-17
7908.40352 1.18954e-17
7911.66906 1.23721e-17
7914.93461 1.23696e-17
7918.20015 1.22026e-17
7921.45536 1.22930e-17
7924.72091 1.18475e-17
7927.98645 1.19165e-17
7931.25199 1.20426e-17
7934.51754 1.20187e-17
7937.77275 1.20948e-17
7941.03829 1.22065e-17
7944.30384 1.21327e-17
7947.56938 1.20374e-17
7950.83492 1.19707e-17
7954.09013 1.18827e-17
7957.35568 1.18803e-17
7960.62122 1.18564e-17
7963.88677 1.18825e-17
7967.15231 1.16235e-17
7970.40752 1.16639e-17
7973.67306 1.16829e-17
7976.93861 1.17446e-17
7980.20415 1.17920e-17
7983.46970 1.14835e-17
7986.72491 1.13602e-17
7989.99045 1.14219e-17
7993.25599 1.15690e-17
7996.52154 1.16733e-17
7999.78708 1.15144e-17
8003.04229 1.12419e-17
8006.30784 1.14102e-17
8009.57338 1.15429e-17
8012.83892 1.16756e-17
8016.10447 1.16519e-17
8019.35968 1.09960e-17
8022.62522 1.08304e-17
8025.89077 1.11477e-17
8029.15631 1.10461e-17
8032.41152 1.11645e-17
8035.67706 1.09848e-17
8038.94261 1.10464e-17
8042.20815 1.11364e-17
8045.47370 1.10348e-17
8048.72891 1.09120e-17
8051.99445 1.10162e-17
8055.25999 1.06525e-17
8058.52554 1.09337e-17
8061.79108 1.10165e-17
8065.04629 1.07664e-17
8068.31184 1.06792e-17
8071.57738 1.07408e-17
8074.84292 1.06324e-17
8078.10847 1.04958e-17
8081.36368 1.05220e-17
8084.62922 1.02368e-17
8087.89477 9.99428e-18
8091.16031 1.02822e-17
8094.42585 1.02448e-17
8097.68106 1.02003e-17
8100.94661 1.01275e-17
8104.21215 1.00831e-17
8107.47770 1.01376e-17
8110.74324 9.96601e-18
8113.99845 9.96400e-18
8117.26399 9.72194e-18
8120.52954 9.79056e-18
8123.79508 9.76742e-18
8127.06063 9.60316e-18
8130.31584 9.39665e-18
8133.58138 9.30306e-18
8136.84692 9.05438e-18
8140.11247 8.97501e-18
8143.37801 8.83927e-18
8146.63322 8.66131e-18
8149.89877 8.60320e-18
8153.16431 8.28447e-18
8156.42985 8.37437e-18
8159.69540 8.24594e-18
8162.95061 8.06828e-18
8166.21615 7.89772e-18
8169.48170 8.10727e-18
8172.74724 8.22526e-18
8176.00245 8.34321e-18
8179.26799 8.25714e-18
8182.53354 8.04453e-18
8185.79908 8.42961e-18
8189.06463 7.90777e-18
8192.31984 8.03269e-18
8195.58538 8.28404e-18
8198.85092 8.31752e-18
8202.11647 8.53359e-18
8205.38201 8.74256e-18
8208.63722 9.07782e-18
8211.90277 9.13217e-18
8215.16831 8.80051e-18
8218.43385 8.88998e-18
8221.69940 9.04255e-18
8224.95461 8.56383e-18
8228.22015 7.87492e-18
8231.48570 7.12318e-18
8234.75124 7.24795e-18
8238.01678 7.90529e-18
8241.28233 8.63945e-18
8244.53754 8.87593e-18
8247.80308 8.80414e-18
8251.06863 9.13854e-18
8254.33417 9.00372e-18
8257.58938 8.69395e-18
8260.85492 8.46129e-18
8264.12047 8.65555e-18
8267.38601 8.98266e-18
8270.65156 8.93893e-18
8273.90677 8.59452e-18
8277.17231 8.22227e-18
8280.43785 8.24863e-18
8283.70340 8.14917e-18
8286.96894 8.16156e-18
8290.22415 8.50928e-18
8293.48970 8.04662e-18
8296.75524 8.29646e-18
8300.02078 8.53224e-18
8303.28633 8.87962e-18
8306.54154 8.49403e-18
8309.80708 8.77848e-18
8313.07263 9.23027e-18
8316.33817 9.04015e-18
8319.60371 8.85010e-18
8322.85892 8.77169e-18
8326.12447 8.78394e-18
8329.39001 8.97044e-18
8332.65556 9.16383e-18
8335.92110 9.18297e-18
8339.17631 8.74931e-18
8342.44185 8.40636e-18
8345.70740 8.73899e-18
8348.97294 8.90440e-18
8352.23849 9.02103e-18
8355.49370 9.40903e-18
8358.75924 9.62293e-18
8362.02478 9.43326e-18
8365.29033 9.59839e-18
8368.55587 9.72173e-18
8371.81108 9.71988e-18
8375.07663 9.84316e-18
8378.34217 9.71619e-18
8381.60771 9.87416e-18
8384.86292 1.00182e-17
8388.12847 1.00232e-17
8391.39401 9.85467e-18
8394.65956 9.71394e-18
8397.92510 9.96203e-18
8401.18031 1.03211e-17
8404.44585 1.02289e-17
8407.71140 9.90090e-18
8410.97694 1.01973e-17
8414.24249 1.01815e-17
8417.50803 1.02698e-17
8420.76324 1.03372e-17
8424.02878 1.02036e-17
8427.29433 1.00769e-17
8430.55987 1.08303e-17
8433.81508 1.06274e-17
8437.08063 1.04730e-17
8440.34617 1.04434e-17
8443.61171 1.03930e-17
8446.87726 1.05503e-17
8450.13247 1.07144e-17
8453.39801 1.08024e-17
8456.66356 1.09319e-17
8459.92910 1.06739e-17
8463.19464 1.03261e-17
8466.44985 1.05594e-17
8469.71540 1.07510e-17
8472.98094 1.08735e-17
8476.24649 1.06434e-17
8479.51203 1.10975e-17
8482.76724 1.11577e-17
8486.03278 1.10244e-17
8489.29833 1.12227e-17
8492.56387 1.11930e-17
8495.82942 1.10322e-17
8499.08463 1.10578e-17
8502.35017 1.09868e-17
8505.61571 1.13505e-17
8508.88126 1.16451e-17
8512.14680 1.13947e-17
8515.40201 1.14616e-17
8518.66756 1.16043e-17
8521.93310 1.15747e-17
8525.19864 1.17105e-17
8528.46419 1.16808e-17
8531.71940 1.18028e-17
8534.98494 1.16973e-17
8538.25049 1.16746e-17
8541.51603 1.15485e-17
8544.78157 1.18150e-17
8548.03678 1.17234e-17
8551.30233 1.18521e-17
8554.56787 1.20634e-17
8557.83342 1.19924e-17
8561.09896 1.18665e-17
8564.35417 1.19057e-17
8567.61971 1.19449e-17
8570.88526 1.19978e-17
8574.15080 1.20782e-17
8577.41635 1.21860e-17
8580.67156 1.21977e-17
8583.93710 1.22436e-17
8587.20264 1.23858e-17
8590.46819 1.22463e-17
8593.72340 1.21549e-17
8596.98894 1.22970e-17
8600.25449 1.22125e-17
8603.52003 1.23065e-17
8606.78557 1.25994e-17
8610.05112 1.24395e-17
8613.30633 1.22933e-17
8616.57187 1.21129e-17
8619.83742 1.22411e-17
8623.10296 1.22253e-17
8626.35817 1.21547e-17
8629.62371 1.21321e-17
8632.88926 1.20204e-17
8636.15480 1.21965e-17
8639.42035 1.22013e-17
8642.67556 1.20143e-17
8645.94110 1.21424e-17
8649.20664 1.21335e-17
8652.47219 1.21863e-17
8655.73773 1.21089e-17
8658.99294 1.18742e-17
8662.25849 1.20912e-17
8665.52403 1.20961e-17
8668.78957 1.22104e-17
8672.05512 1.24204e-17
8675.31033 1.22063e-17
8678.57587 1.20334e-17
8681.84142 1.22980e-17
8685.10696 1.19611e-17
8688.37250 1.20753e-17
8691.62771 1.23467e-17
8694.89326 1.21192e-17
8698.15880 1.20968e-17
8701.42435 1.21153e-17
8704.68989 1.20929e-17
8707.94510 1.23435e-17
8711.21064 1.23484e-17
8714.47619 1.21416e-17
8717.74173 1.20169e-17
8721.00728 1.20900e-17
8724.26249 1.21017e-17
8727.52803 1.18474e-17
8730.79357 1.19206e-17
8734.05912 1.19323e-17
8737.32466 1.19850e-17
8740.57987 1.21194e-17
8743.84542 1.19267e-17
8747.11096 1.18840e-17
8750.37650 1.19434e-17
8753.63171 1.19211e-17
8756.89726 1.17626e-17
8760.16280 1.16042e-17
8763.42835 1.16773e-17
8766.69389 1.16006e-17
8769.95943 1.12789e-17
8773.21464 1.10254e-17
8776.48019 1.09420e-17
8779.74573 1.14030e-17
8783.01128 1.18570e-17
8786.27682 1.17872e-17
8789.53203 1.10646e-17
8792.79757 1.10561e-17
8796.06312 1.15643e-17
8799.32866 1.16034e-17
8802.58387 1.14453e-17
8805.84942 1.14164e-17
8809.11496 1.13264e-17
8812.38050 1.13451e-17
8815.64605 1.12619e-17
8818.91159 1.11991e-17
8822.16680 1.11432e-17
8825.43235 1.03947e-17
8828.69789 1.01352e-17
8831.96343 1.11043e-17
8835.21864 1.08313e-17
8838.48419 9.92043e-18
8841.74973 1.05093e-17
8845.01528 1.06298e-17
8848.28082 9.88901e-18
8851.54636 1.08302e-17
8854.80157 1.11135e-17
8858.06712 1.08882e-17
8861.33266 1.07104e-17
8864.59821 1.08105e-17
8867.85342 1.06464e-17
8871.11896 1.06178e-17
8874.38450 1.07585e-17
8877.65005 1.04454e-17
8880.91559 1.04914e-17
8884.17080 1.04561e-17
8887.43635 9.87909e-18
8890.70189 1.01011e-17
8893.96743 9.70713e-18
8897.23298 9.37416e-18
8900.48819 1.03068e-17
8903.75373 1.03663e-17
8907.01928 1.05678e-17
8910.28482 1.07896e-17
8913.55036 1.06867e-17
8916.80557 1.01713e-17
8920.07112 9.90625e-18
8923.33666 1.01010e-17
8926.60221 1.04715e-17
8929.86775 1.04836e-17
8933.12296 1.03133e-17
8936.38850 1.00484e-17
8939.65405 9.99299e-18
8942.91959 9.99844e-18
8946.18514 9.58510e-18
8949.44035 9.45554e-18
8952.70589 9.55561e-18
8955.97143 9.25053e-18
8959.23698 9.08732e-18
8962.50252 9.57895e-18
8965.75773 9.57098e-18
8969.02328 9.32006e-18
8972.28882 8.59011e-18
8975.55436 8.69024e-18
8978.81991 8.79035e-18
8982.07512 8.58689e-18
8985.34066 8.92305e-18
8988.60621 8.71964e-18
8991.87175 8.67811e-18
8995.13729 8.30624e-18
8998.39250 7.19291e-18
9001.65805 7.36055e-18
9004.92359 8.35712e-18
9008.18914 8.28873e-18
9011.45468 7.74196e-18
9014.70989 8.11158e-18
9017.97543 8.33292e-18
9021.24098 8.57441e-18
9024.50652 8.39156e-18
9027.77207 8.31650e-18
9031.02728 8.52426e-18
9034.29282 8.46267e-18
9037.55836 8.85213e-18
9040.82391 9.40305e-18
9044.08945 9.65771e-18
9047.34466 9.52202e-18
9050.61021 9.27871e-18
9053.87575 9.35167e-18
9057.14129 9.56588e-18
9060.40684 9.55136e-18
9063.66205 9.35525e-18
9066.92759 9.30041e-18
9070.19314 9.21870e-18
9073.45868 8.69326e-18
9076.71389 8.43686e-18
9079.97943 8.30822e-18
9083.24498 8.23339e-18
9086.51052 8.62901e-18
9089.77607 8.30554e-18
9093.04161 8.25673e-18
9096.29682 8.47076e-18
9099.56236 8.44965e-18
9102.82791 8.11290e-18
9106.09345 8.09184e-18
9109.34866 8.09765e-18
9112.61421 8.09002e-18
9115.87975 8.19652e-18
9119.14529 8.37683e-18
9122.41084 8.72489e-18
9125.66605 8.65680e-18
9128.93159 8.43441e-18
9132.19714 8.58107e-18
9135.46268 8.47277e-18
9138.72822 7.96204e-18
9141.98343 7.58556e-18
9145.24898 7.63837e-18
9148.51452 7.82527e-18
9151.78007 8.41442e-18
9155.04561 8.71516e-18
9158.30082 8.53991e-18
9161.56636 7.69445e-18
9164.83191 7.28479e-18
9168.09745 7.89378e-18
9171.35266 8.40212e-18
9174.61821 8.36770e-18
9177.88375 8.21940e-18
9181.14929 8.37255e-18
9184.41484 8.61943e-18
9187.67005 8.41089e-18
9190.93559 8.48362e-18
9194.20114 8.55633e-18
9197.46668 8.75622e-18
9200.73222 8.83559e-18
9203.99777 8.86808e-18
9207.25298 8.94742e-18
9210.51852 9.22748e-18
9213.78407 9.58108e-18
9217.04961 9.33920e-18
9220.30482 9.23115e-18
9223.57036 9.06962e-18
9226.83591 8.85462e-18
9230.10145 9.02084e-18
9233.36700 9.22713e-18
9236.62221 9.19270e-18
9239.88775 9.23850e-18
9243.15329 9.22413e-18
9246.41884 8.88896e-18
9249.68438 8.82117e-18
9252.93959 8.67990e-18
9256.20514 8.67896e-18
9259.47068 8.83168e-18
9262.73622 8.86413e-18
9266.00177 8.86985e-18
9269.25698 8.95572e-18
9272.52252 8.83456e-18
9275.78807 8.88035e-18
9279.05361 8.91945e-18
9282.31915 8.80502e-18
9285.57436 8.49703e-18
9288.83991 7.92215e-18
9292.10545 7.49421e-18
9295.37100 7.47339e-18
9298.63654 7.50595e-18
9301.89175 7.33170e-18
9305.15729 6.95737e-18
9308.42284 6.50375e-18
9311.68838 6.21495e-18
9314.95393 5.72683e-18
9318.20914 6.02027e-18
9321.47468 5.74828e-18
9324.74022 5.73368e-18
9328.00577 4.11800e-18
9331.27131 3.80032e-18
9334.52652 3.70395e-18
9337.79207 3.49899e-18
9341.05761 4.17090e-18
9344.32315 4.16379e-18
9347.58870 3.47990e-18
9350.84391 3.14850e-18
9354.10945 2.81251e-18
9357.37500 2.99001e-18
9360.64054 4.10301e-18
9363.90608 4.70512e-18
9367.16129 3.82056e-18
9370.42684 3.62978e-18
9373.69238 4.30763e-18
9376.95793 4.52680e-18
9380.22347 3.77371e-18
9383.47868 4.18385e-18
9386.74422 5.10486e-18
9390.00977 5.06441e-18
9393.27531 3.48945e-18
9396.54086 3.86952e-18
9399.79607 5.53434e-18
9403.06161 6.54118e-18
9406.32715 6.61696e-18
9409.59270 6.17351e-18
9412.84791 6.12235e-18
9416.11345 5.99676e-18
9419.37900 5.86122e-18
9422.64454 5.84334e-18
9425.91008 5.67197e-18
9429.17563 5.96838e-18
9432.43084 5.95913e-18
9435.69638 5.42510e-18
9438.96193 4.65341e-18
9442.22747 4.04392e-18
9445.49301 4.07272e-18
9448.74822 4.48598e-18
9452.01377 3.94707e-18
9455.27931 2.75437e-18
9458.54486 3.72589e-18
9461.81040 5.28992e-18
9465.06561 5.26283e-18
9468.33115 4.38237e-18
9471.59670 3.80466e-18
9474.86224 4.16917e-18
9478.11745 4.42615e-18
9481.38300 4.97559e-18
9484.64854 5.06728e-18
9487.91408 5.69680e-18
9491.17963 5.07753e-18
9494.44517 4.17990e-18
9497.70038 4.33595e-18
9500.96593 5.59042e-18
9504.23147 5.84439e-18
9507.49701 3.89057e-18
9510.75222 2.23801e-18
9514.01777 2.97333e-18
9517.28331 4.49103e-18
9520.54886 5.50490e-18
9523.81440 6.12242e-18
9527.07994 5.88070e-18
9530.33515 4.91709e-18
9533.60070 4.27156e-18
9536.86624 4.23935e-18
9540.13179 4.56469e-18
9543.38700 5.19716e-18
9546.65254 5.63753e-18
9549.91808 5.89976e-18
9553.18363 5.68340e-18
9556.44917 5.15671e-18
9559.70438 4.78497e-18
9562.96993 4.92014e-18
9566.23547 4.97986e-18
9569.50101 4.70416e-18
9572.76656 4.27242e-18
9576.02177 4.39105e-18
9579.28731 4.47263e-18
9582.55286 4.25992e-18
9585.81840 4.74218e-18
9589.08394 5.69838e-18
9592.33915 6.09645e-18
9595.60470 5.50755e-18
9598.87024 5.18579e-18
9602.13579 5.18000e-18
9605.39100 4.63894e-18
9608.65654 4.79773e-18
9611.92208 5.38461e-18
9615.18763 5.70845e-18
9618.45317 6.23040e-18
9621.71872 6.15515e-18
9624.97393 6.30315e-18
9628.23947 6.28735e-18
9631.50501 6.18175e-18
9634.77056 3.37514e-18
9638.03610 2.20696e-19
9641.29131 2.73747e-18
9644.55686 6.51993e-18
9647.82240 6.65262e-18
9651.08794 6.29892e-18
9654.34315 5.43060e-18
9657.60870 5.40038e-18
9660.87424 5.34115e-18
9664.13979 3.46983e-18
