# wavelength flux
3521.21749 -3.14810e-18
3523.83200 -3.18809e-18
3526.44650 -3.12520e-18
3529.05067 -3.22950e-18
3531.66517 -3.32115e-18
3534.27967 -2.99651e-18
3536.88384 -3.30598e-18
3539.49834 -3.17509e-18
3542.10251 -3.51155e-18
3544.71701 -3.42137e-18
3547.33151 -3.25233e-18
3549.93568 -3.26396e-18
3552.55018 -3.16547e-18
3555.16468 -3.17636e-18
3557.76885 1.47230e-18
3560.38335 1.51212e-18
3562.99786 1.72649e-18
3565.60202 2.50470e-18
3568.21653 1.74736e-18
3570.83103 2.09361e-18
3573.43520 2.06847e-18
3576.04970 1.85363e-18
3578.66420 1.52011e-18
3581.26837 2.21768e-18
3583.88287 2.50077e-18
3586.49737 2.28460e-18
3589.10154 2.23386e-18
3591.71604 2.60647e-18
3594.33054 2.64862e-18
3596.93471 2.97963e-18
3599.54921 3.00918e-18
3602.16372 2.70520e-18
3604.76788 3.15793e-18
3607.38239 3.67208e-18
3609.98655 3.60314e-18
3612.60106 3.65244e-18
3615.21556 3.63453e-18
3617.81973 4.33272e-18
3620.43423 4.46724e-18
3623.04873 4.35495e-18
3625.65290 4.15800e-18
3628.26740 4.48807e-18
3630.88190 5.14274e-18
3633.48607 5.03114e-18
3636.10057 5.32655e-18
3638.71507 5.20499e-18
3641.31924 4.93447e-18
3643.93374 5.79183e-18
3646.54825 5.82229e-18
3649.15241 6.04612e-18
3651.76692 6.21914e-18
3654.38142 6.51701e-18
3656.98559 6.30033e-18
3659.60009 6.51748e-18
3662.21459 6.47790e-18
3664.81876 6.48737e-18
3667.43326 7.09365e-18
3670.04776 7.16634e-18
3672.65193 7.26880e-18
3675.26643 7.46365e-18
3677.88093 7.96694e-18
3680.48510 8.00178e-18
3683.09960 7.58020e-18
3685.70377 7.27189e-18
3688.31827 7.79354e-18
3690.93278 7.73696e-18
3693.53694 7.93952e-18
3696.15145 7.58364e-18
3698.76595 8.42030e-18
3701.37012 9.01810e-18
3703.98462 9.11335e-18
3706.59912 8.60782e-18
3709.20329 9.06805e-18
3711.81779 9.16321e-18
3714.43229 9.57731e-18
3717.03646 1.03251e-17
3719.65096 1.01921e-17
3722.26546 1.03929e-17
3724.86963 1.07983e-17
3727.48413 1.14991e-17
3730.09864 1.12977e-17
3732.70280 1.15433e-17
3735.31731 1.08726e-17
3737.93181 1.17539e-17
3740.53598 1.15376e-17
3743.15048 1.17980e-17
3745.76498 1.22849e-17
3748.36915 1.27413e-17
3750.98365 1.24646e-17
3753.58782 1.21050e-17
3756.20232 1.27875e-17
3758.81682 1.33487e-17
3761.42099 1.29440e-17
3764.03549 1.36029e-17
3766.64999 1.33492e-17
3769.25416 1.42410e-17
3771.86866 1.43413e-17
3774.48317 1.41027e-17
3777.08733 1.33525e-17
3779.70184 1.44237e-17
3782.31634 1.47947e-17
3784.92051 1.46240e-17
3787.53501 1.48744e-17
3790.14951 1.48166e-17
3792.75368 1.54123e-17
3795.36818 1.49715e-17
3797.98268 1.45234e-17
3800.58685 1.45484e-17
3803.20135 1.58110e-17
3805.81585 1.52807e-17
3808.42002 1.61825e-17
3811.03452 1.63643e-17
3813.64903 1.62988e-17
3816.25319 1.58291e-17
3818.86770 1.66247e-17
3821.48220 1.66790e-17
3824.08637 1.65612e-17
3826.70087 1.63314e-17
3829.30504 1.64456e-17
3831.91954 1.65373e-17
3860.63772 1.73275e-17
3863.25223 1.73891e-17
3865.86673 1.73910e-17
3868.47090 1.73856e-17
3871.08540 1.72834e-17
3873.69990 1.72111e-17
3876.30407 1.70794e-17
3878.91857 1.71707e-17
3881.53307 1.76259e-17
3884.13724 1.78061e-17
3886.75174 1.75483e-17
3889.36624 1.74242e-17
3891.97041 1.73892e-17
3894.58491 1.74135e-17
3897.18908 1.84685e-17
3899.80358 1.84481e-17
3902.41809 1.82202e-17
3905.02225 1.82147e-17
3907.63676 1.81574e-17
3910.25126 1.83296e-17
3912.85543 1.84056e-17
3915.46993 1.88292e-17
3918.08443 1.75884e-17
3920.68860 1.79012e-17
3923.30310 1.82433e-17
3925.91760 1.83709e-17
3928.52177 1.79666e-17
3931.13627 1.82567e-17
3933.75077 1.79044e-17
3936.35494 1.78106e-17
3938.96944 1.82408e-17
3941.58395 1.83756e-17
3944.18811 1.80163e-17
3946.80262 1.84313e-17
3949.41712 1.87134e-17
3952.02129 1.84870e-17
3954.63579 1.78998e-17
3957.23996 1.82997e-17
3959.85446 1.85668e-17
3962.46896 1.78476e-17
3965.08346 1.78719e-17
3967.68763 1.82199e-17
3970.30213 1.81633e-17
3972.90630 1.80846e-17
3975.52080 1.81750e-17
3978.13530 1.82948e-17
3980.73947 1.78195e-17
3983.35397 1.84901e-17
3985.96848 1.81031e-17
3988.57264 1.83476e-17
3991.18715 1.84892e-17
3993.80165 1.89021e-17
3996.40582 1.93808e-17
3999.02032 1.91848e-17
4001.63482 1.85784e-17
4004.23899 1.92107e-17
4006.85349 1.89490e-17
4009.46799 1.92440e-17
4012.07216 1.95461e-17
4014.68666 1.93870e-17
4017.30116 1.94402e-17
4019.90533 1.95884e-17
4022.51983 1.95464e-17
4025.13434 1.96872e-17
4027.73850 1.93968e-17
4030.35301 1.92161e-17
4032.95717 1.93642e-17
4035.57168 1.92055e-17
4038.18618 1.93389e-17
4040.79035 1.89030e-17
4043.40485 1.88541e-17
4046.01935 1.93522e-17
4048.62352 1.93396e-17
4051.23802 1.90865e-17
4053.85252 1.89355e-17
4056.45669 1.92072e-17
4059.07119 1.89397e-17
4061.68569 1.89273e-17
4064.28986 1.83178e-17
4066.90436 1.87131e-17
4069.51887 1.91810e-17
4072.12303 1.93722e-17
4074.73754 1.91996e-17
4077.35204 1.90199e-17
4079.95621 1.89130e-17
4082.57071 1.90459e-17
4085.18521 1.92005e-17
4087.78938 1.96020e-17
4090.40388 1.93498e-17
4093.01838 1.92720e-17
4095.62255 1.97312e-17
4098.23705 1.98201e-17
4100.84122 1.96479e-17
4103.45572 2.00631e-17
4106.07022 1.98475e-17
4108.67439 2.04218e-17
4111.28889 2.01047e-17
4113.90340 2.06135e-17
4116.50756 2.03834e-17
4119.12207 2.04358e-17
4121.73657 2.10888e-17
4124.34074 2.06128e-17
4126.95524 2.02961e-17
4129.56974 2.02979e-17
4132.17391 2.00465e-17
4134.78841 2.01784e-17
4137.40291 2.03824e-17
4140.00708 2.01674e-17
4142.62158 1.99091e-17
4145.23608 2.03369e-17
4147.84025 1.96601e-17
4150.45475 1.97197e-17
4153.06926 1.97143e-17
4155.67342 2.00695e-17
4158.28793 1.99847e-17
4160.89209 2.02170e-17
4163.50660 1.94837e-17
4166.12110 1.94208e-17
4168.72527 2.00420e-17
4171.33977 2.01445e-17
4173.95427 2.01821e-17
4176.55844 2.00830e-17
4179.17294 2.00847e-17
4181.78744 1.97555e-17
4184.39161 2.03469e-17
4187.00611 2.08875e-17
4189.62061 2.08602e-17
4192.22478 2.04162e-17
4194.83928 2.05973e-17
4197.45379 2.03260e-17
4200.05795 2.04065e-17
4202.67246 2.07955e-17
4205.28696 2.06606e-17
4207.89113 2.05114e-17
4210.50563 2.05559e-17
4213.12013 2.03710e-17
4215.72430 2.07164e-17
4218.33880 2.05029e-17
4220.95330 2.04542e-17
4223.55747 2.05487e-17
4226.17197 2.03569e-17
4228.78647 2.07018e-17
4231.39064 2.04957e-17
4234.00514 2.05544e-17
4236.61965 2.13422e-17
4239.22381 2.13219e-17
4241.83832 2.10658e-17
4244.44248 2.05955e-17
4247.05699 2.02398e-17
4249.67149 2.01841e-17
4252.27566 2.00570e-17
4254.89016 2.05509e-17
4257.50466 2.02668e-17
4260.10883 2.03324e-17
4262.72333 2.07473e-17
4265.33783 2.02139e-17
4267.94200 2.04647e-17
4270.55650 2.00600e-17
4273.17100 2.02180e-17
4275.77517 2.04899e-17
4278.38967 2.02065e-17
4281.00418 2.03643e-17
4283.60834 2.03087e-17
4286.22285 1.99117e-17
4288.83735 2.01264e-17
4291.44152 2.03125e-17
4294.05602 2.00367e-17
4296.67052 1.99670e-17
4299.27469 2.05080e-17
4301.88919 2.02252e-17
4304.50369 2.03329e-17
4307.10786 2.04192e-17
4309.72236 2.02359e-17
4312.32653 2.00812e-17
4314.94103 2.01320e-17
4317.55553 2.01049e-17
4320.17004 2.05383e-17
4322.77420 2.05110e-17
4325.38871 2.06324e-17
4327.99287 2.05627e-17
4330.60738 2.05920e-17
4333.22188 2.07133e-17
4335.82605 2.05233e-17
4338.44055 2.05244e-17
4341.05505 2.06455e-17
4343.65922 2.07172e-17
4346.27372 2.06404e-17
4348.88822 2.07190e-17
4351.49239 2.06705e-17
4354.10689 2.10455e-17
4356.72139 2.09475e-17
4359.32556 2.10047e-17
4361.94006 2.10408e-17
4364.55457 2.10838e-17
4367.15873 2.11057e-17
4369.77324 2.13812e-17
4372.37740 2.12198e-17
4374.99191 2.11430e-17
4377.60641 2.14253e-17
4380.22091 2.15173e-17
4382.82508 2.16445e-17
4385.43958 2.17083e-17
4388.04375 2.17720e-17
4390.65825 2.17724e-17
4393.27275 2.17799e-17
4395.87692 2.19559e-17
4398.49142 2.17947e-17
4401.10592 2.24830e-17
4403.71009 2.21042e-17
4406.32459 2.21747e-17
4408.93910 2.23432e-17
4411.54326 2.25257e-17
4414.15777 2.22594e-17
4416.77227 2.20985e-17
4419.37644 2.24489e-17
4421.99094 2.22179e-17
4424.60544 2.23371e-17
4427.20961 2.24631e-17
4429.82411 2.22673e-17
4432.43861 2.25681e-17
4435.04278 2.26940e-17
4437.65728 2.27848e-17
4440.27178 2.29035e-17
4442.87595 2.33853e-17
4445.49045 2.34967e-17
4448.09462 2.33847e-17
4450.70912 2.34611e-17
4453.32363 2.34399e-17
4455.92779 2.41299e-17
4458.54230 2.38017e-17
4461.15680 2.40660e-17
4463.76097 2.40933e-17
4466.37547 2.38350e-17
4489.87498 2.52952e-17
4492.48949 2.49747e-17
4495.09365 2.45017e-17
4497.70816 2.46674e-17
4500.32266 2.49162e-17
4502.92683 2.49706e-17
4505.54133 2.50805e-17
4508.14550 2.51556e-17
4510.76000 2.53138e-17
4513.37450 2.52849e-17
4515.97867 2.52006e-17
4518.59317 2.51579e-17
4521.20767 2.53158e-17
4523.81184 2.55290e-17
4526.42634 2.54309e-17
4529.04084 2.54227e-17
4531.64501 2.53799e-17
4534.25951 2.53855e-17
4536.87402 2.54532e-17
4539.47818 2.53345e-17
4542.09269 2.52090e-17
4544.70719 2.52836e-17
4547.31136 2.55236e-17
4549.92586 2.55498e-17
4552.54036 2.54725e-17
4555.14453 2.56433e-17
4557.75903 2.56694e-17
4560.37353 2.55990e-17
4562.97770 2.54530e-17
4565.59220 2.53965e-17
4568.20670 2.53125e-17
4570.81087 2.55655e-17
4573.42537 2.53096e-17
4576.03988 2.51226e-17
4578.64404 2.49220e-17
4581.25855 2.51610e-17
4583.86271 2.49605e-17
4586.47722 2.49454e-17
4589.09172 2.51636e-17
4591.69589 2.51210e-17
4594.31039 2.43380e-17
4596.92489 2.46794e-17
4599.52906 2.47192e-17
4602.14356 2.44302e-17
4604.75806 2.43057e-17
4607.36223 2.44140e-17
4609.97673 2.45290e-17
4612.59123 2.42746e-17
4615.19540 2.46221e-17
4617.80990 2.44294e-17
4620.42441 2.45510e-17
4623.02857 2.45155e-17
4625.64308 2.45483e-17
4628.25758 2.44582e-17
4630.86175 2.41225e-17
4633.47625 2.42372e-17
4636.09075 2.45564e-17
4638.69492 2.43369e-17
4641.30942 2.43014e-17
4643.91359 2.40549e-17
4646.52809 2.44213e-17
4649.14259 2.46786e-17
4651.74676 2.43641e-17
4654.36126 2.42471e-17
4656.97576 2.44157e-17
4659.57993 2.43123e-17
4662.19443 2.40119e-17
4664.80894 2.38271e-17
4667.41310 2.39753e-17
4670.02761 2.39469e-17
4672.64211 2.38777e-17
4675.24628 2.35846e-17
4677.86078 2.35631e-17
4680.47528 2.36365e-17
4683.07945 2.35404e-17
4685.69395 2.36950e-17
4688.30845 2.36057e-17
4690.91262 2.33404e-17
4693.52712 2.33934e-17
4696.14162 2.35411e-17
4698.74579 2.32761e-17
4701.36029 2.26867e-17
4703.97480 2.31657e-17
4706.57896 2.34078e-17
4709.19347 2.33391e-17
4711.80797 2.33446e-17
4714.41214 2.31342e-17
4717.02664 2.27754e-17
4719.64114 2.33545e-17
4722.24531 2.30566e-17
4724.85981 2.27993e-17
4727.46398 2.30341e-17
4730.07848 2.31543e-17
4732.69298 2.28029e-17
4735.29715 2.29029e-17
4737.91165 2.30835e-17
4740.52615 2.29613e-17
4743.13032 2.28324e-17
4745.74482 2.29792e-17
4748.35933 2.28638e-17
4750.96349 2.30038e-17
4753.57800 2.30497e-17
4756.19250 2.26255e-17
4758.79667 2.27453e-17
4761.41117 2.30059e-17
4764.02567 2.28639e-17
4766.62984 2.25275e-17
4769.24434 2.24059e-17
4771.84851 2.25054e-17
4774.46301 2.24241e-17
4777.07751 2.23226e-17
4779.69201 2.24489e-17
4782.29618 2.22338e-17
4784.91068 2.20188e-17
4787.52519 2.21316e-17
4790.12935 2.22042e-17
4792.74386 2.18224e-17
4795.34802 2.20087e-17
4797.96253 2.19945e-17
4800.57703 2.19469e-17
4803.18120 2.18926e-17
4805.79570 2.17717e-17
4808.41020 2.17976e-17
4811.01437 2.19635e-17
4813.62887 2.16428e-17
4816.24337 2.16953e-17
4818.84754 2.15747e-17
4821.46204 2.14408e-17
4824.07654 2.16663e-17
4826.68071 2.20314e-17
4829.29521 2.18177e-17
4831.90972 2.16972e-17
4834.51388 2.18692e-17
4837.12839 2.17887e-17
4839.74289 2.17015e-17
4842.34706 2.15281e-17
4844.96156 2.18194e-17
4847.56573 2.17456e-17
4850.18023 2.16386e-17
4852.79473 2.16246e-17
4855.39890 2.16636e-17
4858.01340 2.18814e-17
4860.62790 2.17150e-17
4863.23207 2.13898e-17
4865.84657 2.13758e-17
4868.46107 2.14281e-17
4871.06524 2.13546e-17
4873.67974 2.09837e-17
4876.29425 2.13070e-17
4878.89841 2.11676e-17
4881.51292 2.05329e-17
4884.12742 2.09550e-17
4886.73159 2.07961e-17
4889.34609 2.08813e-17
4891.96059 2.10523e-17
4894.56476 2.10781e-17
4897.17926 2.08336e-17
4899.79376 2.10966e-17
4902.39793 2.10763e-17
4905.01243 2.08847e-17
4907.62693 2.08776e-17
4910.23110 2.08508e-17
4912.84560 2.07910e-17
4915.46011 2.07708e-17
4918.06427 2.09675e-17
4920.67878 2.06844e-17
4923.29328 2.07562e-17
4925.89745 2.08082e-17
4928.51195 2.07683e-17
4931.12645 2.10697e-17
4933.73062 2.09969e-17
4936.34512 2.08193e-17
4938.94929 2.06025e-17
4941.56379 2.08183e-17
4944.17829 2.06737e-17
4946.78246 2.06405e-17
4949.39696 2.10918e-17
4952.01146 2.07705e-17
4954.61563 2.06850e-17
4957.23013 2.08807e-17
4959.84464 2.10502e-17
4962.44880 2.08862e-17
4965.06331 2.11405e-17
4967.67781 2.11072e-17
4970.28198 2.11262e-17
4972.89648 2.07993e-17
4975.51098 2.11576e-17
4978.11515 2.11375e-17
4980.72965 2.11564e-17
4983.33382 2.11363e-17
4985.94832 2.14484e-17
4988.56282 2.14933e-17
4991.16699 2.16684e-17
4993.78149 2.16612e-17
4996.39599 2.16149e-17
4999.00016 2.16662e-17
5027.72868 2.32652e-17
5030.33285 2.18646e-17
5032.94735 2.17019e-17
5035.56185 2.19537e-17
5038.16602 2.19853e-17
5040.78052 2.19327e-17
5043.39503 2.20095e-17
5045.99919 2.19828e-17
5048.61370 2.20337e-17
5051.22820 2.22784e-17
5053.83237 2.26651e-17
5056.44687 2.24639e-17
5059.06137 2.24694e-17
5061.66554 2.24556e-17
5064.28004 2.26030e-17
5066.88421 2.25698e-17
5069.49871 2.25623e-17
5072.11321 2.28320e-17
5074.72771 2.28825e-17
5077.33188 2.29266e-17
5079.94638 2.32860e-17
5082.55055 2.34457e-17
5085.16505 2.31228e-17
5087.77956 2.30124e-17
5090.38372 2.30627e-17
5092.99823 2.30166e-17
5095.61273 2.32790e-17
5186.99629 2.38269e-17
5189.60046 2.32731e-17
5192.21496 2.34500e-17
5194.82946 2.36204e-17
5197.43363 2.34607e-17
5200.04813 2.31235e-17
5202.66263 2.33446e-17
5205.26680 2.32105e-17
5207.88130 2.32857e-17
5210.48547 2.35636e-17
5213.09997 2.34550e-17
5215.71448 2.33780e-17
5218.31864 2.32442e-17
5220.93315 2.33889e-17
5223.54765 2.34196e-17
5226.15182 2.32100e-17
5228.76632 2.31460e-17
5231.38082 2.34107e-17
5233.98499 2.33908e-17
5236.59949 2.31879e-17
5239.21399 2.32439e-17
5241.81816 2.32620e-17
5244.43266 2.31224e-17
5247.04716 2.35128e-17
5249.65133 2.34993e-17
5252.26583 2.33030e-17
5254.88034 2.32518e-17
5257.48450 2.31503e-17
5260.09901 2.33826e-17
5262.71351 2.31677e-17
5265.31768 2.32048e-17
5267.93218 2.32418e-17
5270.54668 2.29832e-17
5273.15085 2.29637e-17
5275.76535 2.29568e-17
5278.36952 2.30693e-17
5280.98402 2.33138e-17
5283.59852 2.33131e-17
5286.20269 2.30737e-17
5288.81719 2.31045e-17
5291.43169 2.29972e-17
5294.03586 2.29966e-17
5296.65036 2.30337e-17
5299.26487 2.32212e-17
5301.86903 2.33084e-17
5304.48354 2.32827e-17
5307.09804 2.32695e-17
5309.70221 2.29996e-17
5312.31671 2.27486e-17
5314.93121 2.30424e-17
5317.53538 2.32609e-17
5320.14988 2.31790e-17
5322.76438 2.30033e-17
5325.36855 2.29654e-17
5327.98305 2.30461e-17
5330.59755 2.30144e-17
5333.20172 2.28765e-17
5335.81622 2.28324e-17
5338.42039 2.29943e-17
5341.03489 2.29315e-17
5343.64940 2.27689e-17
5346.25356 2.26999e-17
5348.86807 2.27308e-17
5351.48257 2.27679e-17
5354.08674 2.27675e-17
5356.70124 2.26924e-17
5359.31574 2.26236e-17
5361.91991 2.27666e-17
5364.53441 2.28223e-17
5367.14891 2.27598e-17
5369.75308 2.28715e-17
5372.36758 2.28650e-17
5374.98208 2.25227e-17
5377.58625 2.23050e-17
5380.20075 2.27150e-17
5382.81526 2.27956e-17
5385.41942 2.27519e-17
5388.03393 2.24660e-17
5390.64843 2.22114e-17
5393.25260 2.23355e-17
5395.86710 2.25402e-17
5398.48160 2.26083e-17
5401.08577 2.25709e-17
5403.70027 2.23910e-17
5406.31477 2.22794e-17
5408.91894 2.23476e-17
5411.53344 2.23785e-17
5414.13761 2.23909e-17
5416.75211 2.22485e-17
5419.36661 2.19453e-17
5421.97078 2.17536e-17
5424.58528 2.20569e-17
5427.19979 2.21126e-17
5429.80395 2.19829e-17
5432.41846 2.21190e-17
5435.03296 2.21500e-17
5437.63713 2.21501e-17
5440.25163 2.20885e-17
5442.86613 2.20146e-17
5445.47030 2.19716e-17
5448.08480 2.17928e-17
5450.69930 2.14415e-17
5453.30347 2.15035e-17
5455.91797 2.17936e-17
5458.52214 2.19480e-17
5461.13664 2.21824e-17
5463.75114 2.21025e-17
5466.36565 2.19487e-17
5468.96981 2.19859e-17
5471.58432 2.19493e-17
5474.18848 2.19680e-17
5476.80299 2.18637e-17
5479.41749 2.17534e-17
5482.02166 2.19505e-17
5484.63616 2.18033e-17
5487.25066 2.18712e-17
5489.85483 2.18224e-17
5492.46933 2.16263e-17
5495.08383 2.16636e-17
5497.68800 2.17131e-17
5500.30250 2.16767e-17
5502.91700 2.14624e-17
5505.52117 2.16224e-17
5508.13567 2.17517e-17
5510.75018 2.17337e-17
5513.35434 2.16116e-17
5515.96885 2.15202e-17
5518.58335 2.15208e-17
5521.18752 2.13621e-17
5523.80202 2.08116e-17
5526.41652 2.07205e-17
5529.02069 2.10640e-17
5531.63519 2.10035e-17
5534.24969 2.10471e-17
5536.85386 2.12068e-17
5539.46836 2.10974e-17
5542.08286 2.09454e-17
5544.68703 2.11905e-17
5547.30153 2.13256e-17
5549.91604 2.08988e-17
5552.52020 2.08508e-17
5555.13471 2.09004e-17
5557.73887 2.09501e-17
5560.35338 2.09265e-17
5562.96788 2.08907e-17
5565.57205 2.05928e-17
5568.18655 2.02828e-17
5570.80105 2.06617e-17
5573.40522 2.06748e-17
5576.01972 2.07427e-17
5578.63422 2.06888e-17
5581.23839 2.04097e-17
5583.85289 2.06177e-17
5586.46739 2.07647e-17
5589.07156 2.07474e-17
5591.68606 2.08579e-17
5594.30057 2.08041e-17
5596.90473 2.05983e-17
5599.51924 2.04839e-17
5602.12340 2.03573e-17
5604.73791 2.03037e-17
5607.35241 2.03352e-17
5609.96691 2.03424e-17
5612.57108 2.04346e-17
5615.18558 2.04964e-17
5617.78975 2.02426e-17
5620.40425 2.02013e-17
5623.01875 2.00873e-17
5625.62292 2.01067e-17
5628.23742 2.01079e-17
5630.85192 2.01879e-17
5633.45609 2.02073e-17
5636.07059 2.02267e-17
5638.68510 2.01068e-17
5641.28926 2.01323e-17
5643.90377 2.00670e-17
5646.51827 2.00925e-17
5649.12244 2.01724e-17
5651.73694 1.99438e-17
5654.35144 1.97940e-17
5656.95561 2.00674e-17
5659.57011 2.01110e-17
5662.18461 2.01788e-17
5664.78878 2.00593e-17
5667.40328 1.99459e-17
5670.01778 1.98084e-17
5672.62195 2.00936e-17
5675.23645 2.00527e-17
5677.84062 1.98911e-17
5680.45512 1.98985e-17
5683.06963 1.97914e-17
5685.68413 1.99557e-17
5688.28830 1.99692e-17
5690.90280 2.01514e-17
5693.50697 2.00624e-17
5696.12147 1.99132e-17
5698.73597 1.99930e-17
5701.34014 2.02715e-17
5703.95464 1.99297e-17
5706.56914 1.99853e-17
5709.17331 1.98965e-17
5711.78781 1.98078e-17
5714.40231 1.96830e-17
5717.00648 1.95703e-17
5719.62098 1.98365e-17
5722.23549 1.96036e-17
5724.83965 1.98516e-17
5727.45416 1.95767e-17
5730.06866 1.96564e-17
5732.67283 1.97061e-17
5735.28733 1.95276e-17
5737.89150 1.94752e-17
5740.50600 1.94949e-17
5743.12050 1.95446e-17
5745.72467 1.94622e-17
5748.33917 1.94639e-17
5750.95367 1.92138e-17
5753.55784 1.93774e-17
5756.17234 1.93492e-17
5758.78684 1.93569e-17
5761.39101 1.91669e-17
5764.00551 1.90609e-17
5766.62002 1.89070e-17
5769.22418 1.90706e-17
5771.83869 1.89228e-17
5774.45319 1.87212e-17
5777.05736 1.88428e-17
5779.67186 1.88746e-17
5782.28636 1.88406e-17
5784.89053 1.87708e-17
5787.50503 1.87608e-17
5790.11953 1.88583e-17
5792.72370 1.87527e-17
5795.33820 1.87069e-17
5797.95270 1.91449e-17
5800.55687 1.88960e-17
5803.17137 1.86591e-17
5805.78588 1.87686e-17
5808.39004 1.89616e-17
5811.00455 1.88024e-17
5813.60871 1.89058e-17
5816.22322 1.87169e-17
5818.83772 1.87011e-17
5821.44189 1.89595e-17
5824.05639 1.89496e-17
5826.67089 1.88204e-17
5829.28539 1.87867e-17
5831.88956 1.88603e-17
5834.50406 1.87729e-17
5837.10823 1.88524e-17
5839.72273 1.88068e-17
5842.33723 1.85887e-17
5844.94140 1.86622e-17
5847.55590 1.85632e-17
5850.17041 1.85177e-17
5852.77457 1.86923e-17
5855.38908 1.86290e-17
5858.00358 1.85895e-17
5860.60775 1.84847e-17
5863.22225 1.85047e-17
5865.83675 1.87089e-17
5868.44092 1.85091e-17
5871.05542 1.83687e-17
5873.66992 1.83294e-17
5876.27409 1.83197e-17
5878.88859 1.80727e-17
5881.50309 1.77605e-17
5884.10726 1.74010e-17
5886.72176 1.70475e-17
5889.32593 1.70322e-17
5891.94043 1.72067e-17
5894.55494 1.73041e-17
5897.16944 1.73480e-17
5899.77361 1.77535e-17
5902.38811 1.79336e-17
5904.99228 1.79241e-17
5907.60678 1.80509e-17
5910.22128 1.81598e-17
5912.82545 1.81385e-17
5915.43995 1.78508e-17
5918.05445 1.79242e-17
5920.65862 1.78734e-17
5923.27312 1.79645e-17
5925.88762 1.79078e-17
5928.49179 1.79102e-17
5931.10629 1.78476e-17
5933.72080 1.80806e-17
5936.32496 1.75275e-17
5938.93947 1.74237e-17
5941.55397 1.76802e-17
5944.15814 1.75823e-17
5946.77264 1.76852e-17
5949.38714 1.76228e-17
5951.99131 1.76843e-17
5954.60581 1.76809e-17
5957.20998 1.75655e-17
5959.82448 1.74913e-17
5962.43898 1.73464e-17
5965.04315 1.73019e-17
5967.65765 1.73104e-17
5970.27215 1.74898e-17
5972.87632 1.73510e-17
5975.49082 1.76482e-17
5978.10533 1.75094e-17
5980.70949 1.72587e-17
5983.32400 1.73673e-17
5985.93850 1.72463e-17
5988.54267 1.69664e-17
5991.15717 1.71869e-17
5993.77167 1.71013e-17
5996.37584 1.69687e-17
5998.99034 1.69361e-17
6001.60484 1.68976e-17
6004.20901 1.68651e-17
6006.82351 1.67914e-17
6009.43801 1.68118e-17
6012.04218 1.69204e-17
6014.65668 1.68174e-17
6017.27119 1.67614e-17
6019.87535 1.65939e-17
6022.48986 1.65615e-17
6025.10436 1.65232e-17
6027.70853 1.65789e-17
6030.32303 1.67755e-17
6032.92720 1.65024e-17
6035.54170 1.61767e-17
6038.15620 1.62031e-17
6040.77070 1.63116e-17
6043.37487 1.60448e-17
6045.98937 1.59950e-17
6048.59354 1.60918e-17
6051.20804 1.60537e-17
6053.82254 1.58457e-17
6056.42671 1.57198e-17
6059.04121 1.58107e-17
6061.65572 1.58548e-17
6064.25988 1.58344e-17
6066.87439 1.59018e-17
6069.48889 1.60102e-17
6072.09306 1.58493e-17
6074.70756 1.58758e-17
6077.32206 1.55511e-17
6079.92623 1.52618e-17
6082.54073 1.51538e-17
6085.15523 1.50693e-17
6087.75940 1.51368e-17
6090.37390 1.51399e-17
6092.98840 1.52133e-17
6095.59257 1.52047e-17
6098.20707 1.51203e-17
6100.81124 1.51702e-17
6103.42574 1.52902e-17
6106.04025 1.52116e-17
6108.64441 1.51623e-17
6111.25892 1.50546e-17
6113.87342 1.52854e-17
6116.47759 1.53061e-17
6119.09209 1.51693e-17
6121.70659 1.52833e-17
6124.31076 1.52807e-17
6126.92526 1.53830e-17
6129.53976 1.52463e-17
6132.14393 1.51970e-17
6134.75843 1.54042e-17
6137.37293 1.51627e-17
6139.97710 1.50843e-17
6142.59160 1.52624e-17
6145.20611 1.52190e-17
6147.81027 1.50999e-17
6150.42478 1.51672e-17
6153.03928 1.51355e-17
6155.64345 1.53134e-17
6158.25795 1.54970e-17
6160.87245 1.53257e-17
6163.47662 1.52067e-17
6166.09112 1.52449e-17
6168.70562 1.53005e-17
6171.30979 1.54258e-17
6173.92429 1.53128e-17
6176.52846 1.51242e-17
6179.14296 1.52728e-17
6181.75746 1.53864e-17
6184.36163 1.52386e-17
6186.97613 1.51141e-17
6189.59064 1.54252e-17
6192.19480 1.53181e-17
6194.80931 1.52749e-17
6197.42381 1.54639e-17
6200.02798 1.51422e-17
6202.64248 1.53486e-17
6205.25698 1.52590e-17
6207.86115 1.52681e-17
6210.47565 1.55498e-17
6213.09015 1.56458e-17
6215.69432 1.53591e-17
6218.30882 1.54320e-17
6220.92332 1.54932e-17
6223.52749 1.55080e-17
6226.14199 1.54476e-17
6228.75650 1.55319e-17
6231.36066 1.56394e-17
6233.97517 1.54052e-17
6236.58967 1.48295e-17
6239.19384 1.52497e-17
6241.80834 1.53977e-17
6244.41251 1.52911e-17
6247.02701 1.50860e-17
6249.64151 1.53035e-17
6252.24568 1.55035e-17
6254.86018 1.54084e-17
6257.47468 1.53654e-17
6260.07885 1.50739e-17
6262.69335 1.50021e-17
6265.30785 1.52424e-17
6267.91202 1.51764e-17
6270.52652 1.49428e-17
6273.14103 1.44783e-17
6275.74519 1.40369e-17
6278.35970 1.40520e-17
6280.97420 1.41595e-17
6283.57837 1.44344e-17
6286.19287 1.47149e-17
6288.80737 1.46433e-17
6291.41154 1.46583e-17
6294.02604 1.46560e-17
6296.64054 1.45787e-17
6299.24471 1.46513e-17
6301.85921 1.47009e-17
6304.47371 1.48658e-17
6307.07788 1.49557e-17
6309.69238 1.48784e-17
6312.29655 1.49164e-17
6314.91105 1.48277e-17
6317.52556 1.48080e-17
6320.12972 1.48806e-17
6322.74423 1.47343e-17
6325.35873 1.49105e-17
6327.96290 1.50809e-17
6330.57740 1.48310e-17
6333.19190 1.49150e-17
6335.79607 1.48781e-17
6338.41057 1.49737e-17
6341.02507 1.50174e-17
6343.62924 1.51473e-17
6346.24374 1.50242e-17
6348.85824 1.49298e-17
6351.46241 1.50310e-17
6354.07691 1.49022e-17
6356.69142 1.48539e-17
6359.29558 1.47539e-17
6361.91009 1.49298e-17
6364.52459 1.50539e-17
6367.12876 1.50745e-17
6369.74326 1.48884e-17
6372.35776 1.49722e-17
6374.96193 1.49872e-17
6377.57643 1.49217e-17
6380.19093 1.48907e-17
6382.79510 1.47851e-17
6385.40960 1.51616e-17
6388.01377 1.52740e-17
6390.62827 1.49734e-17
6393.24277 1.49481e-17
6395.84694 1.48254e-17
6398.46144 1.46339e-17
6401.07595 1.47234e-17
6403.68011 1.46409e-17
6406.29462 1.47189e-17
6408.90912 1.47912e-17
6411.51329 1.44967e-17
6414.12779 1.43971e-17
6416.74229 1.44522e-17
6419.34646 1.43068e-17
6421.96096 1.43562e-17
6424.57546 1.46632e-17
6427.17963 1.46037e-17
6429.79413 1.45786e-17
6432.39830 1.45478e-17
6435.01280 1.46372e-17
6437.62730 1.43718e-17
6440.23147 1.40893e-17
6442.84597 1.45505e-17
6445.46048 1.46169e-17
6448.06464 1.45518e-17
6450.67915 1.45896e-17
6453.29365 1.45417e-17
6455.89782 1.44995e-17
6458.51232 1.46345e-17
6461.12682 1.44095e-17
6463.73099 1.44073e-17
6466.34549 1.44965e-17
6468.95999 1.45686e-17
6471.56416 1.45036e-17
6474.17866 1.42560e-17
6476.79316 1.43109e-17
6479.39733 1.43773e-17
6482.01183 1.41469e-17
6484.62634 1.43102e-17
6487.23050 1.44621e-17
6489.84501 1.43345e-17
6492.45951 1.43951e-17
6495.06368 1.43758e-17
6497.67818 1.43965e-17
6500.29268 1.43658e-17
6502.89685 1.44834e-17
6505.51135 1.44699e-17
6508.12585 1.43196e-17
6510.73002 1.42548e-17
6513.34452 1.42299e-17
6515.94869 1.41651e-17
6518.56319 1.40149e-17
6521.17769 1.41154e-17
6523.78186 1.41873e-17
6526.39636 1.40543e-17
6529.01087 1.40977e-17
6531.61503 1.40729e-17
6534.22954 1.39968e-17
6536.84404 1.40858e-17
6539.44821 1.41918e-17
6542.06271 1.40418e-17
6544.67721 1.40511e-17
6547.28138 1.41400e-17
6549.89588 1.40868e-17
6552.51038 1.40620e-17
6555.11455 1.42815e-17
6557.72905 1.39953e-17
6560.34355 1.39592e-17
6562.94772 1.38549e-17
6565.56222 1.39721e-17
6568.16639 1.39644e-17
6570.78089 1.39340e-17
6573.39540 1.40057e-17
6575.99956 1.40320e-17
6578.61407 1.39619e-17
6581.22857 1.36931e-17
6583.83274 1.36401e-17
6586.44724 1.37458e-17
6589.06174 1.35567e-17
6591.66591 1.35944e-17
6594.28041 1.35867e-17
6596.89491 1.36641e-17
6599.49908 1.35317e-17
6602.11358 1.34901e-17
6604.72808 1.36524e-17
6607.33225 1.36901e-17
6609.94675 1.35125e-17
6612.56126 1.33632e-17
6615.16542 1.35029e-17
6617.77993 1.36538e-17
6620.39443 1.35895e-17
6622.99860 1.35253e-17
6625.61310 1.35573e-17
6628.22760 1.35383e-17
6630.83177 1.34684e-17
6633.44627 1.33646e-17
6636.06077 1.34193e-17
6638.66494 1.34852e-17
6641.27944 1.33531e-17
6643.88361 1.33512e-17
6646.49811 1.33719e-17
6649.11261 1.33586e-17
6651.72712 1.32323e-17
6654.33128 1.32021e-17
6656.94579 1.32624e-17
6659.54995 1.33339e-17
6662.16446 1.32246e-17
6664.77896 1.31832e-17
6667.38313 1.32264e-17
6669.99763 1.34109e-17
6672.61213 1.31436e-17
6675.21630 1.32376e-17
6677.83080 1.32075e-17
6680.44530 1.29968e-17
6683.04947 1.29497e-17
6685.66397 1.30663e-17
6688.27847 1.31096e-17
6690.88264 1.32148e-17
6693.49714 1.31847e-17
6696.11165 1.29009e-17
6698.71581 1.28934e-17
6701.33032 1.30944e-17
6703.94482 1.29798e-17
6706.54899 1.29047e-17
6709.16349 1.30380e-17
6711.76766 1.29685e-17
6714.38216 1.27808e-17
6716.99666 1.28127e-17
6719.60083 1.28278e-17
6722.21533 1.27302e-17
6724.82983 1.27227e-17
6727.43400 1.26083e-17
6730.04850 1.27753e-17
6732.66300 1.26272e-17
6735.26717 1.25128e-17
6737.88167 1.25279e-17
6740.49618 1.24979e-17
6743.10034 1.25636e-17
6745.71485 1.25280e-17
6748.32935 1.26780e-17
6928.48197 1.01359e-17
6931.08614 1.03181e-17
6933.70064 1.07172e-17
6936.31514 1.09326e-17
6938.91931 1.07308e-17
6941.53381 1.07626e-17
6944.14831 1.06220e-17
6946.75248 1.06593e-17
6949.36698 1.06633e-17
6951.98149 1.07118e-17
6954.58565 1.07936e-17
6957.20016 1.06198e-17
6959.81466 1.04793e-17
6962.41883 1.02889e-17
6965.03333 1.01540e-17
6967.64783 1.03803e-17
6970.25200 1.04620e-17
6972.86650 1.03939e-17
6975.48100 1.03035e-17
6978.08517 1.01688e-17
6980.69967 1.02450e-17
6983.31417 1.00992e-17
6985.91834 9.97012e-18
6988.53284 9.82997e-18
6991.14735 1.00116e-17
6993.75151 1.00655e-17
6996.36602 9.85336e-18
6998.97018 9.84082e-18
7001.58469 1.01054e-17
7004.19919 9.91551e-18
7006.80336 9.91959e-18
7009.41786 1.00234e-17
7012.03236 9.92220e-18
7014.63653 9.88196e-18
7017.25103 9.74758e-18
7019.86553 9.78491e-18
7022.46970 9.77792e-18
7025.08420 9.81523e-18
7027.69870 9.93555e-18
7030.30287 9.86213e-18
7032.91737 9.89941e-18
7035.53188 9.84815e-18
7038.13604 9.79137e-18
7040.75055 9.78992e-18
7043.36505 9.61704e-18
7045.96922 9.65432e-18
7048.58372 9.80215e-18
7051.19822 9.53537e-18
7053.80239 9.35156e-18
7056.41689 9.74253e-18
7059.03139 9.91789e-18
7061.63556 9.66229e-18
7064.25006 9.64981e-18
7066.85423 9.55448e-18
7069.46873 9.57515e-18
7072.08323 9.73936e-18
7074.68740 9.67719e-18
7077.30190 9.52120e-18
7079.91641 9.55289e-18
7082.52057 9.66734e-18
7085.13508 9.59418e-18
7087.74958 9.73065e-18
7090.35375 9.58029e-18
7092.96825 9.51268e-18
7095.58275 9.42304e-18
7098.18692 9.48227e-18
7100.80142 9.65724e-18
7103.41592 9.56211e-18
7106.02009 9.36781e-18
7108.63459 9.28927e-18
7111.24909 9.32093e-18
7113.85326 9.45724e-18
7116.46776 9.42278e-18
7119.08227 9.43238e-18
7121.68643 9.43096e-18
7124.30094 9.38551e-18
7126.91544 9.42263e-18
7129.51961 9.38819e-18
7132.13411 9.29325e-18
7134.74861 9.23684e-18
7137.35278 9.26845e-18
7139.96728 9.21756e-18
7142.57145 9.19418e-18
7145.18595 9.17080e-18
7147.80045 9.14193e-18
7150.40462 9.18453e-18
7153.01912 9.07323e-18
7155.63362 9.15428e-18
7158.23779 9.02654e-18
7160.85229 8.70658e-18
7163.46680 8.66132e-18
7166.07096 8.48429e-18
7168.68547 8.21946e-18
7171.29997 8.11940e-18
7173.90414 8.08523e-18
7176.51864 7.95230e-18
7179.13314 8.09376e-18
7181.73731 7.90599e-18
7184.35181 7.62503e-18
7186.96631 7.58548e-18
7189.57048 7.73240e-18
7192.18498 7.75864e-18
7194.79948 7.60944e-18
7197.40365 7.63021e-18
7200.01815 7.70578e-18
7202.62232 7.80324e-18
7205.23682 7.98834e-18
7207.85133 8.27747e-18
7210.45549 8.48982e-18
7213.07000 8.40638e-18
7215.68450 8.52009e-18
7218.28867 8.49142e-18
7220.90317 8.29306e-18
7223.51767 8.23159e-18
7226.12184 8.06069e-18
7228.73634 7.98286e-18
7231.35084 7.88864e-18
7233.95501 7.66317e-18
7236.56951 7.73857e-18
7239.18401 7.69364e-18
7241.78818 7.65419e-18
7244.40268 7.68582e-18
7247.01719 7.72837e-18
7249.62135 7.70532e-18
7252.23586 7.43094e-18
7254.85036 7.66472e-18
7257.45453 7.79463e-18
7260.06903 7.55860e-18
7262.68353 7.55744e-18
7265.28770 7.73099e-18
7267.90220 7.73526e-18
7270.51670 7.73952e-18
7273.12087 7.59645e-18
7275.73537 7.56254e-18
7278.33954 7.75232e-18
7280.95404 7.65294e-18
7283.56854 7.60813e-18
7286.17271 7.57969e-18
7288.78721 7.32772e-18
7291.40172 7.51193e-18
7294.00588 7.65249e-18
7296.62039 7.56956e-18
7299.23489 7.48666e-18
7301.83906 7.44192e-18
7304.45356 7.38629e-18
7307.06806 7.35247e-18
7309.67223 7.47658e-18
7312.28673 7.43731e-18
7314.90123 7.61036e-18
7317.50540 7.64728e-18
7320.11990 7.51004e-18
7322.73440 7.46534e-18
7325.33857 7.59476e-18
7327.95307 7.67517e-18
7330.56758 7.46187e-18
7333.17174 7.41720e-18
7335.78625 7.59003e-18
7338.39041 7.69214e-18
7341.00492 7.50071e-18
7343.61942 7.44519e-18
7346.22359 7.37340e-18
7348.83809 7.43744e-18
7351.45259 7.62097e-18
7354.05676 7.48400e-18
7356.67126 7.34708e-18
7359.28576 7.21562e-18
7361.88993 7.21993e-18
7364.50443 7.45762e-18
7367.11893 7.62468e-18
7369.72310 7.54753e-18
7372.33760 7.33477e-18
7374.95211 7.56144e-18
7377.55627 7.32162e-18
7380.17078 7.20118e-18
7382.78528 7.39523e-18
7385.38945 7.34528e-18
7388.00395 7.28451e-18
7390.61845 7.12621e-18
7393.22262 7.13051e-18
7395.83712 7.31359e-18
7398.44129 7.24202e-18
7401.05579 7.12715e-18
7403.67029 7.16393e-18
7406.28479 7.22236e-18
7408.88896 7.16168e-18
7411.50346 7.04689e-18
7414.10763 7.01331e-18
7416.72213 6.99057e-18
7419.33664 6.95160e-18
7421.94080 7.06950e-18
7424.55531 7.21440e-18
7427.16981 7.13756e-18
7429.77398 7.07696e-18
7432.38848 7.03260e-18
7435.00298 6.98825e-18
7437.60715 7.08982e-18
7440.22165 6.90500e-18
7442.83615 6.92011e-18
7445.44032 7.09186e-18
7448.05482 6.99352e-18
7450.66932 6.96542e-18
7453.27349 6.95892e-18
7455.88799 6.87685e-18
7458.50250 6.87036e-18
7461.10666 6.85848e-18
7463.72117 7.00306e-18
7466.33567 6.85090e-18
7468.93984 6.86600e-18
7471.55434 6.93501e-18
7474.16884 6.90156e-18
7476.77301 6.96515e-18
7479.38751 6.96943e-18
7481.99168 6.77431e-18
7484.60618 6.78940e-18
7487.22068 6.84219e-18
7489.82485 6.76030e-18
7492.43935 6.67305e-18
7495.05385 6.46736e-18
7497.65802 6.52017e-18
7500.27252 6.93364e-18
7502.88703 6.95944e-18
7505.49119 6.75921e-18
7508.10570 6.59133e-18
7510.72020 6.32667e-18
7513.32437 6.55695e-18
7515.93887 6.73876e-18
7518.55337 6.83447e-18
7521.15754 6.62370e-18
7523.77204 6.49900e-18
7526.38654 6.53021e-18
7528.99071 6.53991e-18
7531.60521 6.61408e-18
7534.21971 6.47335e-18
7536.82388 6.45620e-18
7539.43838 6.61090e-18
7542.04255 6.51319e-18
7544.65705 6.57120e-18
7547.27156 6.53257e-18
7549.87572 6.49395e-18
7552.49023 6.62706e-18
7555.10473 6.67428e-18
7557.70890 6.63030e-18
7560.32340 6.67750e-18
7562.93790 6.62280e-18
7565.54207 6.42871e-18
7568.15657 6.50809e-18
7570.77107 6.67320e-18
7573.37524 6.55959e-18
7575.98974 6.54781e-18
7578.60424 6.60569e-18
7581.20841 6.41179e-18
7583.82291 6.23401e-18
7586.43742 5.91172e-18
7688.25832 6.05535e-18
7690.87282 5.97988e-18
7693.47699 6.06933e-18
7696.09149 6.36086e-18
7698.70599 6.40768e-18
7701.31016 6.32688e-18
7703.92466 6.22485e-18
7706.53916 6.08033e-18
7709.14333 6.04745e-18
7711.75783 6.16336e-18
7714.37234 6.18891e-18
7716.97650 6.09761e-18
7719.59101 6.21344e-18
7722.20551 6.13278e-18
7724.80968 6.10524e-18
7727.42418 6.37495e-18
7730.03868 6.20408e-18
7732.64285 6.23490e-18
7735.25735 6.37182e-18
7737.87185 6.20634e-18
7740.47602 6.09395e-18
7743.09052 6.08765e-18
7745.70502 6.02833e-18
7748.30919 6.28180e-18
7750.92369 6.27017e-18
7753.52786 6.22145e-18
7756.14236 6.07737e-18
7758.75687 6.03399e-18
7761.36103 6.05949e-18
7763.97554 6.05850e-18
7766.59004 6.27460e-18
7769.19421 6.40063e-18
7771.80871 6.31489e-18
7774.42321 6.18684e-18
7777.02738 6.28636e-18
7779.64188 6.34353e-18
7782.25638 6.04097e-18
7784.86055 6.11403e-18
7787.47505 6.19763e-18
7790.08955 6.17018e-18
7792.69372 6.30662e-18
7795.30822 6.17344e-18
7797.92273 6.27812e-18
7800.52689 6.27181e-18
7803.14140 6.38172e-18
7805.75590 6.29088e-18
7808.36007 6.18423e-18
7810.97457 6.17265e-18
7813.58907 6.35114e-18
7816.19324 6.38177e-18
7818.80774 6.50738e-18
7821.41191 6.42716e-18
7824.02641 6.49997e-18
7826.64091 6.52528e-18
7829.24508 6.38181e-18
7831.85958 6.25947e-18
7834.47408 6.21099e-18
7837.07825 6.24160e-18
7839.69275 6.23003e-18
7842.30726 6.19739e-18
7844.91142 6.20165e-18
7847.52593 6.22697e-18
7850.14043 6.31022e-18
7852.74460 6.30392e-18
7855.35910 6.22390e-18
7857.97360 6.21762e-18
7860.57777 6.34819e-18
7863.19227 6.43662e-18
7865.80677 6.31453e-18
7868.41094 6.26614e-18
7871.02544 6.20725e-18
7873.63994 6.06422e-18
7876.24411 6.18944e-18
7878.85861 6.08852e-18
7881.47312 5.80891e-18
7884.07728 5.88679e-18
7886.69179 6.00144e-18
7889.29595 6.22114e-18
7891.91046 6.18334e-18
7894.52496 6.03525e-18
7897.12913 5.87146e-18
7899.74363 5.88625e-18
7902.35813 5.90103e-18
7904.96230 6.15727e-18
7907.57680 6.12477e-18
7910.19130 5.89813e-18
7912.79547 5.94438e-18
7915.40997 5.54473e-18
7918.02447 5.43367e-18
7920.62864 5.67925e-18
7923.24314 5.59443e-18
7925.85765 5.95523e-18
7928.46181 6.22680e-18
7931.07632 6.16814e-18
7933.69082 6.25620e-18
7936.29499 6.08229e-18
7938.90949 5.82463e-18
7941.52399 4.99569e-18
7944.12816 5.23626e-18
7946.74266 6.03118e-18
7949.35716 6.04067e-18
7951.96133 5.63668e-18
7954.57583 5.21765e-18
7957.19033 5.66622e-18
7959.79450 5.92685e-18
7962.40900 5.82651e-18
7965.01317 5.67913e-18
7967.62767 5.45860e-18
7970.24218 5.46293e-18
7972.84634 5.83315e-18
7975.46085 6.04645e-18
7978.07535 5.93574e-18
7980.67952 5.86685e-18
7983.29402 5.89201e-18
7985.90852 5.76048e-18
7988.51269 5.70210e-18
7991.12719 6.03530e-18
7993.74169 6.01343e-18
7996.34586 5.76193e-18
7998.96036 5.67228e-18
8001.57486 5.79135e-18
8004.17903 5.77997e-18
8006.79353 5.85726e-18
8009.40804 5.88238e-18
8012.01220 5.91270e-18
8014.62671 5.81269e-18
8017.24121 5.80131e-18
8019.84538 5.72741e-18
8022.45988 5.63789e-18
8025.07438 5.77764e-18
8027.67855 5.74544e-18
8030.29305 5.65597e-18
8032.89722 5.60818e-18
8035.51172 5.61768e-18
8038.12622 5.67402e-18
8040.73039 5.73555e-18
8043.34489 5.72421e-18
8045.95939 5.71808e-18
8048.56356 5.60790e-18
8051.17806 5.39373e-18
8053.79257 5.45006e-18
8056.39673 5.46997e-18
8059.01124 5.54187e-18
8061.62574 5.71250e-18
8064.22991 5.76874e-18
8066.84441 5.57554e-18
8069.45891 5.59022e-18
8072.06308 5.69320e-18
8074.67758 5.54166e-18
8077.29208 5.55634e-18
8079.89625 5.45160e-18
8082.51075 5.54935e-18
8085.12525 5.70934e-18
8087.72942 5.69804e-18
8090.34392 5.46363e-18
8092.95843 5.57169e-18
8095.56259 5.56560e-18
8098.17710 5.54914e-18
8100.79160 5.52750e-18
8103.39577 5.56290e-18
8106.01027 5.54126e-18
8108.61444 5.51964e-18
8111.22894 5.37883e-18
8113.84344 5.29506e-18
8116.44761 5.47034e-18
8119.06211 5.28300e-18
8121.67661 5.15786e-18
8124.28078 5.22434e-18
8126.89528 5.29597e-18
8129.50978 4.93020e-18
8132.11395 4.55938e-18
8134.72845 4.85203e-18
8137.34296 4.93610e-18
8139.94712 4.95186e-18
8142.56163 5.00744e-18
8145.17613 4.81427e-18
8147.78030 4.66459e-18
8150.39480 4.77757e-18
8153.00930 4.78972e-18
8155.61347 4.72332e-18
8158.22797 4.71171e-18
8160.83214 4.66188e-18
8163.44664 4.58469e-18
8166.06114 4.62682e-18
8168.66531 4.47375e-18
8171.27981 4.60623e-18
8173.89431 4.87701e-18
8176.49848 4.82565e-18
8179.11298 4.75832e-18
8181.72749 4.71989e-18
8184.33165 4.80941e-18
8186.94616 4.90149e-18
8189.56066 4.78467e-18
8192.16483 4.87672e-18
8194.77933 5.18114e-18
8197.39383 4.97877e-18
8199.99800 5.01972e-18
8202.61250 5.28172e-18
8205.22700 5.40968e-18
8207.83117 5.35216e-18
8210.44567 5.19680e-18
8213.06017 5.23717e-18
8215.66434 5.16940e-18
8218.27884 4.99870e-18
8220.89335 4.92430e-18
8223.49751 4.71870e-18
8226.11202 4.45964e-18
8228.71618 4.30511e-18
8231.33069 4.48189e-18
8233.94519 4.86229e-18
8236.54936 5.04613e-18
8239.16386 5.14148e-18
8241.77836 5.27432e-18
8244.38253 5.30433e-18
8246.99703 5.38058e-18
8249.61153 5.39001e-18
8252.21570 5.23504e-18
8254.83020 5.22908e-18
8257.44470 5.24880e-18
8260.04887 5.23257e-18
8262.66337 5.19581e-18
8265.27788 5.22066e-18
8267.88204 5.17364e-18
8270.49655 5.04608e-18
8273.11105 4.96524e-18
8275.71522 5.00346e-18
8278.32972 5.01293e-18
8280.94422 5.00446e-18
8283.54839 5.17904e-18
8286.16289 5.39357e-18
8288.77739 5.31071e-18
8291.38156 5.18174e-18
8293.99606 5.41667e-18
8296.60023 5.44657e-18
8299.21473 5.19469e-18
8301.82923 5.02229e-18
8304.44374 5.24429e-18
8307.04790 5.41246e-18
8309.66241 5.16587e-18
8312.27691 5.06166e-18
8314.88108 5.20009e-18
8317.49558 5.16858e-18
8320.09975 5.05931e-18
8322.71425 5.21814e-18
8325.32875 5.38102e-18
8327.93292 5.29325e-18
8330.54742 5.36913e-18
8333.16192 5.30184e-18
8335.76609 5.16811e-18
8338.38059 5.28999e-18
8340.99509 5.44759e-18
8343.59926 5.46719e-18
8346.21376 5.98745e-18
8348.82827 5.74135e-18
8351.43243 5.47489e-18
8354.04694 5.46384e-18
8356.66144 5.40684e-18
8359.26561 5.62553e-18
8361.88011 5.77779e-18
8364.49461 5.72587e-18
8367.09878 5.56172e-18
8369.71328 5.65270e-18
8372.31745 5.84058e-18
8374.93195 5.74789e-18
8377.54645 5.60423e-18
8380.15062 5.50651e-18
8382.76512 5.51587e-18
8385.37962 5.55071e-18
8387.98379 5.41227e-18
8390.59829 5.60508e-18
8393.21280 5.84369e-18
8395.81696 5.62376e-18
8398.43147 5.72478e-18
8401.04597 5.86141e-18
8403.65014 5.69250e-18
8406.26464 5.72219e-18
8408.87914 5.86386e-18
8411.48331 5.83753e-18
8414.09781 5.29217e-18
8416.71231 5.40840e-18
8419.31648 5.58055e-18
8421.93098 5.63058e-18
8424.54548 5.88910e-18
8427.14965 5.98484e-18
8429.76415 5.61281e-18
8432.37866 5.59164e-18
8434.98282 5.93133e-18
8437.59733 5.39686e-18
8440.21183 5.36558e-18
8442.81600 5.79152e-18
8445.43050 5.71447e-18
8448.03467 5.87107e-18
8450.64917 5.43857e-18
8453.26367 5.20929e-18
8455.86784 5.68571e-18
8458.48234 5.62396e-18
8461.09684 5.80076e-18
8463.70101 5.90647e-18
8466.31551 5.61641e-18
8468.93001 5.95039e-18
8471.53418 6.01038e-18
8474.14868 5.95879e-18
8476.76319 5.89707e-18
8479.36735 6.07872e-18
8481.98186 5.81424e-18
8484.59636 5.80832e-18
8487.20053 5.91896e-18
8489.81503 6.07011e-18
8492.42953 6.07429e-18
8495.03370 6.11900e-18
8497.64820 5.99656e-18
8500.26270 5.84377e-18
8502.86687 6.13153e-18
8505.48137 6.26733e-18
8508.09587 5.82099e-18
8510.70004 5.74424e-18
8513.31454 5.94076e-18
8515.91871 5.80330e-18
8518.53321 5.90870e-18
8521.14772 5.98878e-18
8523.75188 6.02333e-18
8526.36639 6.24496e-18
8528.98089 6.08733e-18
8531.58506 5.76799e-18
8534.19956 5.85309e-18
8536.81406 5.71581e-18
8539.41823 5.92722e-18
8542.03273 5.78491e-18
8544.64723 6.09224e-18
8547.25140 5.99541e-18
8549.86590 6.04507e-18
8552.48040 6.22094e-18
8555.08457 6.13928e-18
8557.69907 5.82544e-18
8560.31358 5.75396e-18
8562.91774 5.81371e-18
8565.53225 5.85831e-18
8568.14675 5.83731e-18
8570.75092 5.78100e-18
8573.36542 5.86594e-18
8575.97992 6.09206e-18
8578.58409 6.13659e-18
8581.19859 6.07019e-18
8583.80276 6.06431e-18
8586.41726 6.04835e-18
8589.03176 5.98703e-18
8591.63593 5.82496e-18
8594.25043 5.88965e-18
8596.86493 5.81831e-18
8599.47944 5.89810e-18
8602.08360 6.01816e-18
8604.69811 5.85620e-18
8607.30227 5.88057e-18
8609.91678 5.90493e-18
8612.53128 5.87896e-18
8615.13545 5.95868e-18
8617.74995 5.94277e-18
8620.36445 5.97215e-18
8622.96862 6.11219e-18
8625.58312 6.00070e-18
8628.19762 5.90433e-18
8630.80179 5.95885e-18
8633.41629 5.79715e-18
8636.03079 5.57015e-18
8638.63496 5.63474e-18
8641.24946 5.59880e-18
8643.86397 5.64830e-18
8646.46813 5.83848e-18
8649.08264 5.61665e-18
8651.68680 5.53552e-18
8654.30131 5.74071e-18
8656.91581 5.87553e-18
8659.51998 6.09568e-18
8662.13448 6.08985e-18
8664.74898 6.08905e-18
8667.35315 6.15349e-18
8669.96765 5.87164e-18
8672.58215 5.86585e-18
8675.18632 6.09587e-18
8677.80082 6.02985e-18
8680.41532 5.87859e-18
8683.01949 6.02827e-18
8685.63399 5.78679e-18
8688.24850 5.91138e-18
8690.85266 5.86549e-18
8693.46717 5.99004e-18
8696.08167 5.90907e-18
8698.68584 5.77300e-18
8701.30034 5.76223e-18
8703.91484 5.62622e-18
8706.51901 5.47021e-18
8709.13351 5.59472e-18
8711.74801 5.75927e-18
8714.35218 5.68842e-18
8716.96668 5.65766e-18
8719.58118 5.72702e-18
8722.18535 5.73630e-18
8724.79985 5.66550e-18
8727.40402 5.59973e-18
8730.01852 5.63905e-18
8732.63303 5.76841e-18
8735.23719 5.83271e-18
8737.85170 5.77696e-18
8740.46620 5.75123e-18
8743.07037 5.78551e-18
8745.68487 5.89978e-18
8748.29937 5.93904e-18
8750.90354 5.84832e-18
8753.51804 5.92756e-18
8756.13254 6.09673e-18
8758.73671 6.16093e-18
8761.35121 6.14019e-18
8763.96571 5.79474e-18
8766.56988 5.90891e-18
8769.18438 5.63849e-18
8771.79889 5.38812e-18
8774.40305 5.48732e-18
8777.01756 5.41176e-18
8779.62172 5.63574e-18
8782.23623 5.74985e-18
8784.85073 5.31996e-18
8787.46523 5.18458e-18
8790.06940 5.24882e-18
8792.68390 5.20827e-18
8795.29840 5.52190e-18
8797.90257 5.72074e-18
8800.51707 5.90956e-18
8803.12124 5.99362e-18
8805.73574 5.83336e-18
8808.35024 5.54353e-18
8810.95441 5.63757e-18
8813.56891 5.48739e-18
8816.18342 4.99338e-18
8818.78758 4.73119e-18
8821.40209 4.93740e-18
8824.01659 4.97418e-18
8826.62076 5.09065e-18
8829.23526 5.98156e-18
8831.84976 6.32946e-18
8834.45393 6.23909e-18
8837.06843 6.10892e-18
8839.68293 5.97878e-18
8842.28710 5.56495e-18
8844.90160 5.30053e-18
8847.51610 5.39945e-18
8850.12027 5.35902e-18
8852.73477 5.46289e-18
8855.33894 5.55678e-18
8857.95344 5.54123e-18
8860.56795 5.89870e-18
8863.17211 6.02733e-18
8865.78662 5.90234e-18
8868.40112 6.00111e-18
8871.00529 5.98055e-18
8873.61979 5.79099e-18
8876.23429 6.03388e-18
8878.83846 5.61078e-18
8881.45296 5.32692e-18
8884.06746 5.12758e-18
8886.67163 5.17173e-18
8889.28613 4.77922e-18
8891.90063 4.94856e-18
8894.50480 5.14519e-18
8897.11930 5.61638e-18
8899.73381 5.68031e-18
8902.33797 5.40663e-18
8904.95248 5.57979e-18
