# wavelength flux
3502.95732 5.72868e-18
3506.22286 7.85811e-18
3509.48840 2.08635e-18
3512.75395 3.71881e-18
3516.01949 6.57537e-18
3519.28504 4.20986e-18
3522.55058 4.83215e-18
3525.81612 5.82289e-18
3529.08167 2.92226e-18
3532.33688 1.11957e-18
3535.60242 5.36473e-18
3538.86797 5.95012e-18
3542.13351 4.73854e-18
3545.39905 1.82483e-18
3548.66460 9.93497e-19
3551.93014 3.01149e-18
3555.19569 3.27120e-18
3558.46123 1.51484e-18
3561.72677 3.01351e-18
3564.99232 3.80596e-18
3568.25786 4.88690e-18
3571.52341 5.98076e-18
3574.78895 4.18002e-18
3578.05449 4.83083e-18
3581.32004 6.71245e-18
3584.58558 4.37897e-18
3587.85113 4.10650e-18
3591.11667 4.38462e-18
3594.38221 3.87025e-18
3597.64776 5.31610e-18
3600.90297 4.98273e-18
3604.16851 4.66719e-18
3607.43406 5.04109e-18
3610.69960 4.75855e-18
3613.96514 6.38127e-18
3617.23069 5.91574e-18
3620.49623 6.33045e-18
3623.76178 5.04387e-18
3627.02732 5.32087e-18
3630.29286 7.04818e-18
3633.55841 5.05371e-18
3636.82395 4.66209e-18
3640.08950 4.98635e-18
3643.35504 5.10689e-18
3646.62058 5.13326e-18
3649.88613 5.96677e-18
3653.15167 5.59632e-18
3656.41722 6.44596e-18
3659.68276 5.68301e-18
3662.93797 6.34519e-18
3666.20351 5.05403e-18
3669.46906 4.89409e-18
3672.73460 5.79142e-18
3676.00015 6.74591e-18
3679.26569 7.20154e-18
3682.53123 6.33043e-18
3685.79678 5.88993e-18
3689.06232 5.67323e-18
3692.32787 6.13389e-18
3695.59341 6.66597e-18
3698.85895 6.85554e-18
3702.12450 5.41522e-18
3705.39004 4.38119e-18
3708.65559 4.82428e-18
3711.92113 5.70880e-18
3715.18667 6.18824e-18
3718.45222 7.39829e-18
3721.71776 7.56346e-18
3724.98331 9.27673e-18
3728.24885 8.37468e-18
3731.50406 8.70133e-18
3734.76960 7.37825e-18
3738.03515 6.88770e-18
3741.30069 7.81542e-18
3744.56624 7.45399e-18
3747.83178 8.72009e-18
3751.09732 9.87758e-18
3754.36287 8.74174e-18
3757.62841 9.74622e-18
3760.89396 9.18832e-18
3764.15950 8.98663e-18
3767.42504 1.01807e-17
3770.69059 9.87697e-18
3773.95613 9.83223e-18
3777.22168 1.00981e-17
3780.48722 1.03044e-17
3783.75276 1.08007e-17
3787.01831 1.19179e-17
3790.28385 1.23358e-17
3793.53906 1.18334e-17
3796.80461 1.20925e-17
3800.07015 1.27952e-17
3803.33569 1.25785e-17
3806.60124 1.26575e-17
3809.86678 1.27366e-17
3813.13233 1.35433e-17
3816.39787 1.29999e-17
3819.66341 1.33528e-17
3822.92896 1.35579e-17
3826.19450 1.41419e-17
3829.46005 1.46413e-17
3858.83961 1.63604e-17
3862.10515 1.52637e-17
3865.37070 1.60017e-17
3868.63624 1.64458e-17
3871.90178 1.61253e-17
3875.16733 1.65691e-17
3878.43287 1.67824e-17
3881.69842 1.62216e-17
3884.96396 1.59958e-17
3888.22950 1.57388e-17
3891.49505 1.74878e-17
3894.76059 1.75752e-17
3898.02614 1.84453e-17
3901.29168 1.81984e-17
3904.55722 1.80142e-17
3907.82277 1.76112e-17
3911.08831 1.78652e-17
3914.35386 1.83170e-17
3917.61940 1.77894e-17
3920.87461 1.83346e-17
3924.14015 1.81717e-17
3927.40570 1.77281e-17
3930.67124 1.71288e-17
3933.93679 1.76319e-17
3937.20233 1.77398e-17
3940.46787 1.69126e-17
3943.73342 1.64080e-17
3946.99896 1.61841e-17
3950.26451 1.68735e-17
3953.53005 1.63695e-17
3956.79559 1.64466e-17
3960.06114 1.65858e-17
3963.32668 1.64556e-17
3966.59223 1.65429e-17
3969.85777 1.66095e-17
3973.12331 1.63656e-17
3976.38886 1.62356e-17
3979.65440 1.66022e-17
3982.91995 1.67618e-17
3986.18549 1.63838e-17
3989.44070 1.63677e-17
3992.70624 1.80250e-17
3995.97179 1.85454e-17
3999.23733 1.69389e-17
4002.50288 1.67163e-17
4005.76842 1.63701e-17
4009.03396 1.56736e-17
4012.29951 1.54310e-17
4015.56505 1.55493e-17
4018.83060 1.56264e-17
4022.09614 1.51885e-17
4025.36168 1.51935e-17
4028.62723 1.54353e-17
4031.89277 1.54608e-17
4035.15832 1.50236e-17
4038.42386 1.53782e-17
4041.68940 1.47461e-17
4044.95495 1.48130e-17
4048.22049 1.57116e-17
4051.47570 1.55112e-17
4054.74125 1.52493e-17
4058.00679 1.43824e-17
4061.27233 1.45211e-17
4064.53788 1.46084e-17
4067.80342 1.43472e-17
4071.06897 1.50184e-17
4074.33451 1.50031e-17
4077.60005 1.46396e-17
4080.86560 1.53715e-17
4084.13114 1.44558e-17
4087.39669 1.50849e-17
4090.66223 1.45482e-17
4093.92777 1.45534e-17
4097.19332 1.52024e-17
4100.45886 1.53606e-17
4103.72441 1.44978e-17
4106.98995 1.50133e-17
4110.25549 1.49266e-17
4113.51070 1.47074e-17
4116.78658 1.48859e-17
4120.04179 1.48095e-17
4123.30734 1.50490e-17
4126.57288 1.52985e-17
4129.83842 1.56598e-17
4133.10397 1.48504e-17
4136.36951 1.56084e-17
4139.63506 1.51963e-17
4142.90060 1.55673e-17
4146.16614 1.52469e-17
4149.43169 1.56380e-17
4152.69723 1.55310e-17
4155.96278 1.51399e-17
4159.22832 1.51753e-17
4162.49386 1.51802e-17
4165.75941 1.53475e-17
4169.02495 1.58087e-17
4172.29050 1.55904e-17
4175.54571 1.55546e-17
4178.81125 1.51947e-17
4182.07679 1.51490e-17
4185.34234 1.52349e-17
4188.60788 1.57457e-17
4191.87343 1.55481e-17
4195.13897 1.56236e-17
4198.40451 1.54767e-17
4201.67006 1.58755e-17
4204.93560 1.61327e-17
4208.20115 1.59251e-17
4211.46669 1.55864e-17
4214.73223 1.57021e-17
4217.99778 1.58883e-17
4221.26332 1.59937e-17
4224.52887 1.63308e-17
4227.79441 1.63755e-17
4231.05995 1.66015e-17
4234.32550 1.64446e-17
4237.59104 1.62576e-17
4240.85659 1.63827e-17
4244.11180 1.61456e-17
4247.37734 1.59891e-17
4250.64288 1.67876e-17
4253.90843 1.70229e-17
4257.17397 1.69465e-17
4260.43952 1.66493e-17
4263.70506 1.71252e-17
4266.97060 1.67779e-17
4270.23615 1.69425e-17
4273.50169 1.69465e-17
4276.76724 1.70607e-17
4280.03278 1.70847e-17
4283.29832 1.69784e-17
4286.56387 1.71024e-17
4289.82941 1.67159e-17
4293.09496 1.65398e-17
4296.36050 1.70540e-17
4299.62604 1.67378e-17
4302.89159 1.68317e-17
4306.14680 1.65459e-17
4309.41234 1.64200e-17
4312.67789 1.65338e-17
4315.94343 1.64679e-17
4319.20897 1.64120e-17
4322.47452 1.64060e-17
4325.74006 1.64299e-17
4329.00561 1.65834e-17
4332.27115 1.70057e-17
4335.53669 1.64218e-17
4338.80224 1.63461e-17
4342.06778 1.67779e-17
4345.33333 1.71994e-17
4348.59887 1.68251e-17
4351.86441 1.70376e-17
4355.12996 1.76771e-17
4358.39550 1.73527e-17
4361.66105 1.70185e-17
4364.92659 1.75085e-17
4368.19213 1.73928e-17
4371.45768 1.73367e-17
4374.71289 1.72409e-17
4377.97843 1.75417e-17
4381.24398 1.79214e-17
4384.50952 1.76077e-17
4387.77506 1.81257e-17
4391.04061 1.78318e-17
4394.30615 1.78053e-17
4397.57170 1.80952e-17
4400.83724 1.81871e-17
4404.10278 1.82889e-17
4407.36833 1.84498e-17
4410.63387 1.85316e-17
4413.89942 1.87416e-17
4417.16496 1.91685e-17
4420.43050 1.86483e-17
4423.69605 1.88876e-17
4426.96159 1.92745e-17
4430.22714 1.94148e-17
4433.48235 1.97223e-17
4436.74789 1.96655e-17
4440.01343 2.03859e-17
4443.27898 1.96699e-17
4446.54452 1.97409e-17
4449.81007 2.05390e-17
4453.07561 2.06882e-17
4456.34115 2.10041e-17
4459.60670 2.09861e-17
4462.87224 2.16156e-17
4466.13779 2.17346e-17
4492.26214 2.39635e-17
4495.52768 2.41983e-17
4498.79323 2.40812e-17
4502.05877 2.43059e-17
4505.31398 2.50771e-17
4508.57952 2.57208e-17
4511.84507 2.60129e-17
4515.11061 2.59147e-17
4518.37616 2.55047e-17
4521.64170 2.55821e-17
4524.90724 2.55426e-17
4528.17279 2.57951e-17
4531.43833 2.56581e-17
4534.70388 2.61827e-17
4537.96942 2.63374e-17
4541.23496 2.62100e-17
4544.50051 2.60245e-17
4547.76605 2.64703e-17
4551.03160 2.64013e-17
4554.29714 2.69533e-17
4557.56268 2.71944e-17
4560.82823 2.73093e-17
4564.09377 2.73660e-17
4567.34898 2.73160e-17
4570.61453 2.69756e-17
4573.88007 2.71388e-17
4577.14561 2.71663e-17
4580.41116 2.72615e-17
4583.67670 2.75789e-17
4586.94225 2.73453e-17
4590.20779 2.67931e-17
4593.47333 2.65696e-17
4596.73888 2.65104e-17
4600.00442 2.64029e-17
4603.26997 2.59773e-17
4606.53551 2.62654e-17
4609.80105 2.59461e-17
4613.06660 2.57620e-17
4616.33214 2.56357e-17
4619.59769 2.57983e-17
4622.86323 2.58164e-17
4626.12877 2.51518e-17
4629.39432 2.49779e-17
4632.64953 2.46312e-17
4635.91507 2.49858e-17
4639.18062 2.58776e-17
4642.44616 2.47154e-17
4645.71170 2.47146e-17
4648.97725 2.45317e-17
4652.24279 2.45980e-17
4655.50834 2.48176e-17
4658.77388 2.44625e-17
4662.03942 2.44234e-17
4665.30497 2.40879e-17
4668.57051 2.38100e-17
4671.83606 2.40962e-17
4675.10160 2.42867e-17
4678.36714 2.41523e-17
4681.63269 2.37411e-17
4684.89823 2.36547e-17
4688.16378 2.34635e-17
4691.42932 2.35298e-17
4694.69486 2.32149e-17
4697.95007 2.27669e-17
4701.21562 2.31000e-17
4704.48116 2.29189e-17
4707.74671 2.28520e-17
4711.01225 2.28613e-17
4714.27779 2.23953e-17
4717.54334 2.24713e-17
4720.80888 2.22338e-17
4724.07443 2.24047e-17
4727.33997 2.24331e-17
4730.60551 2.28409e-17
4733.87106 2.29544e-17
4737.13660 2.28973e-17
4740.40215 2.31433e-17
4743.66769 2.29156e-17
4746.93323 2.28869e-17
4750.19878 2.26500e-17
4753.46432 2.26214e-17
4756.72987 2.26779e-17
4759.99541 2.26493e-17
4763.25062 2.28852e-17
4766.51616 2.31587e-17
4769.78171 2.29883e-17
4773.04725 2.27710e-17
4776.31280 2.30724e-17
4779.57834 2.29400e-17
4782.84388 2.29396e-17
4786.10943 2.27037e-17
4789.37497 2.27693e-17
4792.64052 2.26937e-17
4795.90606 2.24207e-17
4799.17160 2.25051e-17
4802.43715 2.27303e-17
4805.70269 2.26079e-17
4808.96824 2.28423e-17
4812.23378 2.32173e-17
4815.49932 2.32636e-17
4818.76487 2.33380e-17
4822.03041 2.32812e-17
4825.28562 2.32337e-17
4828.55117 2.37013e-17
4831.81671 2.37848e-17
4835.08225 2.37839e-17
4838.34780 2.37831e-17
4841.61334 2.38477e-17
4844.87889 2.37534e-17
4848.14443 2.34443e-17
4851.40997 2.40131e-17
4854.67552 2.36482e-17
4857.94106 2.35821e-17
4861.20661 2.34788e-17
4864.47215 2.39068e-17
4867.73769 2.40456e-17
4871.00324 2.37374e-17
4874.26878 2.36341e-17
4877.53433 2.35496e-17
4880.79987 2.32233e-17
4884.06541 2.31669e-17
4887.33096 2.27667e-17
4890.58617 2.28592e-17
4893.85171 2.28494e-17
4897.11726 2.28211e-17
4900.38280 2.27186e-17
4903.64834 2.24215e-17
4906.91389 2.24212e-17
4910.17943 2.28563e-17
4913.44498 2.27077e-17
4916.71052 2.27721e-17
4919.97606 2.26236e-17
4923.24161 2.28267e-17
4926.50715 2.27431e-17
4929.77270 2.25763e-17
4933.03824 2.22711e-17
4936.30378 2.24094e-17
4939.56933 2.23168e-17
4942.83487 2.19383e-17
4946.10042 2.19383e-17
4949.36596 2.19751e-17
4952.63150 2.20948e-17
4955.88671 2.17631e-17
4959.15226 2.17078e-17
4962.41780 2.14410e-17
4965.68335 2.17999e-17
4968.94889 2.19378e-17
4972.21443 2.15701e-17
4975.47998 2.13406e-17
4978.74552 2.17907e-17
4982.01107 2.20110e-17
4985.27661 2.19009e-17
4988.54215 2.21118e-17
4991.80770 2.18183e-17
4995.07324 2.18000e-17
4998.33879 2.18366e-17
5027.71835 2.34156e-17
5030.98389 2.20558e-17
5034.24944 2.20193e-17
5037.51498 2.20284e-17
5040.78052 2.19646e-17
5044.04607 2.21104e-17
5047.31161 2.24562e-17
5050.57716 2.20284e-17
5053.84270 2.20648e-17
5057.10824 2.23830e-17
5060.37379 2.19194e-17
5063.63933 2.20648e-17
5066.90488 2.21193e-17
5070.17042 2.24369e-17
5073.43596 2.24549e-17
5076.70151 2.26090e-17
5079.96705 2.27810e-17
5083.23260 2.25724e-17
5086.48781 2.22642e-17
5089.75335 2.29433e-17
5093.01889 2.30878e-17
5096.28444 2.33136e-17
5187.70934 2.69814e-17
5190.97488 2.66847e-17
5194.24042 2.64954e-17
5197.50597 2.72982e-17
5200.77151 2.75823e-17
5204.03706 2.77412e-17
5207.30260 2.76144e-17
5210.56814 2.78178e-17
5213.83369 2.77179e-17
5217.09923 2.78854e-17
5220.35444 2.82935e-17
5223.61999 2.85409e-17
5226.88553 2.84854e-17
5230.15107 2.85812e-17
5233.41662 2.85791e-17
5236.68216 2.86838e-17
5239.94771 2.87084e-17
5243.21325 2.89374e-17
5246.47879 2.86687e-17
5249.74434 2.86844e-17
5253.00988 2.89842e-17
5256.27543 2.89820e-17
5259.54097 2.86251e-17
5262.80651 2.89512e-17
5266.07206 2.87985e-17
5269.33760 2.89825e-17
5272.60315 2.88388e-17
5275.85836 2.90227e-17
5279.12390 2.89499e-17
5282.38944 2.94079e-17
5285.65499 2.90608e-17
5288.92053 2.91561e-17
5292.18608 2.95075e-17
5295.45162 2.96291e-17
5298.71716 2.96092e-17
5301.98271 3.01279e-17
5305.24825 2.98608e-17
5308.51380 2.97087e-17
5311.77934 2.99093e-17
5315.04488 3.00922e-17
5318.31043 3.01252e-17
5321.57597 3.02551e-17
5324.84152 3.02881e-17
5328.10706 3.05410e-17
5331.37260 3.00636e-17
5334.63815 3.00438e-17
5337.90369 3.01560e-17
5341.16924 3.01890e-17
5344.43478 3.03099e-17
5347.68999 3.03428e-17
5350.95553 3.05514e-17
5354.22108 3.05579e-17
5357.48662 3.08891e-17
5360.75217 3.07114e-17
5364.01771 3.09371e-17
5367.28325 3.12590e-17
5370.54880 3.09675e-17
5373.81434 3.10003e-17
5377.07989 3.10243e-17
5380.34543 3.11271e-17
5383.61097 3.13610e-17
5386.87652 3.11051e-17
5390.14206 3.12252e-17
5393.40761 3.11618e-17
5396.67315 3.10198e-17
5399.93869 3.12448e-17
5403.20424 3.11553e-17
5406.46978 3.09611e-17
5409.72499 3.13516e-17
5412.99054 3.10181e-17
5416.25608 3.07371e-17
5419.52162 3.09966e-17
5422.78717 3.06026e-17
5426.05271 3.06356e-17
5429.31826 3.06773e-17
5432.58380 3.09278e-17
5435.84934 3.06910e-17
5439.11489 3.05501e-17
5442.38043 3.05657e-17
5445.64598 3.03381e-17
5448.91152 3.04494e-17
5452.17706 3.06388e-17
5455.44261 3.08368e-17
5458.70815 3.06268e-17
5461.97370 3.03215e-17
5465.23924 3.07276e-17
5468.49445 3.05439e-17
5471.77033 3.07590e-17
5475.02554 3.05408e-17
5478.29108 3.09723e-17
5481.55663 3.01914e-17
5484.82217 3.03285e-17
5488.08771 3.05954e-17
5491.35326 3.05593e-17
5494.61880 3.02466e-17
5497.88435 3.05132e-17
5501.14989 3.05896e-17
5504.41543 3.05105e-17
5507.68098 3.04142e-17
5510.94652 3.03524e-17
5514.21207 3.02476e-17
5517.47761 3.00998e-17
5520.74315 3.04695e-17
5524.00870 3.06234e-17
5527.27424 3.06222e-17
5530.53979 3.01126e-17
5533.80533 3.00082e-17
5537.06054 3.01794e-17
5540.32608 2.99287e-17
5543.59163 2.97470e-17
5546.85717 2.97806e-17
5550.12272 2.96507e-17
5553.38826 2.96757e-17
5556.65380 2.98726e-17
5559.91935 2.96827e-17
5563.18489 2.93642e-17
5566.45044 2.93635e-17
5569.71598 2.93629e-17
5572.98152 2.92422e-17
5576.24707 2.92588e-17
5579.51261 2.88552e-17
5582.77816 2.86834e-17
5586.04370 2.87345e-17
5589.30924 2.85028e-17
5592.57479 2.84512e-17
5595.84033 2.84767e-17
5599.10588 2.81513e-17
5602.36109 2.79629e-17
5605.62663 2.78689e-17
5608.89217 2.76380e-17
5612.15772 2.76980e-17
5615.42326 2.73648e-17
5618.68881 2.74932e-17
5621.95435 2.73824e-17
5625.21989 2.78011e-17
5628.48544 2.75793e-17
5631.75098 2.73406e-17
5635.01653 2.75287e-17
5638.28207 2.73925e-17
5641.54761 2.74611e-17
5644.81316 2.71972e-17
5648.07870 2.70784e-17
5651.34425 2.70022e-17
5654.60979 2.69602e-17
5657.87533 2.74375e-17
5661.14088 2.71570e-17
5664.40642 2.72256e-17
5667.66163 2.69455e-17
5670.92718 2.68526e-17
5674.19272 2.68618e-17
5677.45826 2.68795e-17
5680.72381 2.70586e-17
5683.98935 2.69743e-17
5687.25490 2.69410e-17
5690.52044 2.64325e-17
5693.78598 2.66710e-17
5697.05153 2.67312e-17
5700.31707 2.67490e-17
5703.58262 2.67159e-17
5706.84816 2.63862e-17
5710.11370 2.62008e-17
5713.37925 2.65237e-17
5716.64479 2.61182e-17
5719.91034 2.59923e-17
5723.17588 2.58749e-17
5726.44142 2.61384e-17
5729.70697 2.60127e-17
5732.96218 2.60815e-17
5736.22772 2.60912e-17
5739.49327 2.57036e-17
5742.75881 2.56626e-17
5746.02435 2.56302e-17
5749.28990 2.58005e-17
5752.55544 2.57680e-17
5755.82099 2.56343e-17
5759.08653 2.56020e-17
5762.35207 2.54178e-17
5765.61762 2.54530e-17
5768.88316 2.55726e-17
5772.14871 2.52959e-17
5775.41425 2.50699e-17
5778.67979 2.51642e-17
5781.94534 2.51238e-17
5785.21088 2.51507e-17
5788.47643 2.51187e-17
5791.74197 2.49689e-17
5795.00751 2.51978e-17
5798.26272 2.52079e-17
5801.52827 2.52096e-17
5804.79381 2.53710e-17
5808.05936 2.51374e-17
5811.32490 2.52568e-17
5814.59044 2.53173e-17
5817.85599 2.52854e-17
5821.12153 2.53879e-17
5824.38708 2.49784e-17
5827.65262 2.47118e-17
5830.91816 2.49905e-17
5834.18371 2.51769e-17
5837.44925 2.47512e-17
5840.71480 2.46693e-17
5843.98034 2.47300e-17
5847.24588 2.44974e-17
5850.51143 2.44074e-17
5853.77697 2.42169e-17
5857.04252 2.39930e-17
5860.30806 2.39785e-17
5863.56327 2.42067e-17
5866.82881 2.40249e-17
5870.09436 2.39602e-17
5873.35990 2.35946e-17
5876.62545 2.37893e-17
5879.89099 2.33655e-17
5883.15653 2.26912e-17
5886.42208 2.21677e-17
5889.68762 2.17530e-17
5892.95317 2.19896e-17
5896.21871 2.28689e-17
5899.48425 2.27630e-17
5902.74980 2.29826e-17
5906.01534 2.31521e-17
5909.28089 2.32631e-17
5912.54643 2.31490e-17
5915.81197 2.32933e-17
5919.07752 2.30127e-17
5922.33273 2.30237e-17
5925.60861 2.31929e-17
5928.86382 2.31956e-17
5932.12936 2.33065e-17
5935.39490 2.31511e-17
5938.66045 2.29541e-17
5941.92599 2.31232e-17
5945.19154 2.30761e-17
5948.45708 2.28128e-17
5951.72262 2.28738e-17
5954.98817 2.30844e-17
5958.25371 2.27964e-17
5961.51926 2.25169e-17
5964.78480 2.26859e-17
5968.05034 2.25477e-17
5971.31589 2.22187e-17
5974.58143 2.25204e-17
5977.84698 2.27225e-17
5981.11252 2.25264e-17
5984.37806 2.28528e-17
5987.64361 2.30630e-17
5990.89882 2.28338e-17
5994.16436 2.26876e-17
5997.42991 2.26575e-17
6000.69545 2.26688e-17
6003.96099 2.24151e-17
6007.22654 2.26748e-17
6010.49208 2.30669e-17
6013.75763 2.29540e-17
6017.02317 2.27915e-17
6020.28871 2.25630e-17
6023.55426 2.27728e-17
6026.81980 2.26353e-17
6030.08535 2.26054e-17
6033.35089 2.25011e-17
6036.61643 2.23307e-17
6039.88198 2.25734e-17
6043.14752 2.25105e-17
6046.41307 2.18285e-17
6049.67861 2.18731e-17
6052.93382 2.19012e-17
6056.20970 2.17477e-17
6059.46491 2.14542e-17
6062.73045 2.16555e-17
6065.99600 2.19228e-17
6069.26154 2.18272e-17
6072.52708 2.15587e-17
6075.79263 2.10513e-17
6079.05817 2.05935e-17
6082.32372 2.03337e-17
6085.58926 1.96129e-17
6088.85480 1.96991e-17
6092.12035 1.96619e-17
6095.38589 1.96575e-17
6098.65144 1.98260e-17
6101.91698 1.99121e-17
6105.18252 1.97269e-17
6108.44807 1.97884e-17
6111.71361 1.96443e-17
6114.97916 1.95004e-17
6118.24470 1.93976e-17
6121.49991 1.91798e-17
6124.76545 1.92988e-17
6128.03100 1.92701e-17
6131.29654 1.92741e-17
6134.56209 1.93110e-17
6137.82763 1.91592e-17
6141.09317 1.93028e-17
6144.35872 1.92494e-17
6147.62426 1.92617e-17
6150.88981 1.93478e-17
6154.15535 1.90568e-17
6157.42089 1.91593e-17
6160.68644 1.90734e-17
6163.95198 1.87007e-17
6167.21753 1.87377e-17
6170.48307 1.89958e-17
6173.74861 1.90327e-17
6177.01416 1.87996e-17
6180.26937 1.87138e-17
6183.54525 1.84072e-17
6186.80046 1.89187e-17
6190.06600 1.87512e-17
6193.33154 1.87391e-17
6196.59709 1.84818e-17
6199.86263 1.85597e-17
6203.12818 1.87846e-17
6206.39372 1.87808e-17
6209.65926 1.88667e-17
6212.92481 1.90915e-17
6216.19035 1.90549e-17
6219.45590 1.90592e-17
6222.72144 1.90797e-17
6225.98698 1.91248e-17
6229.25253 1.89985e-17
6232.51807 1.92067e-17
6235.78362 1.95289e-17
6239.04916 1.92885e-17
6242.31470 1.93172e-17
6245.58025 1.95415e-17
6248.84579 1.93420e-17
6252.10100 1.94032e-17
6255.36655 1.96029e-17
6258.63209 1.97211e-17
6261.89763 1.97904e-17
6265.16318 1.95748e-17
6268.42872 1.95221e-17
6271.69427 1.93961e-17
6274.95981 1.87171e-17
6278.22535 1.83067e-17
6281.49090 1.84901e-17
6284.75644 1.84701e-17
6288.02199 1.88241e-17
6291.28753 1.93729e-17
6294.55307 1.91903e-17
6297.81862 1.90484e-17
6301.08416 1.94183e-17
6304.34971 1.90734e-17
6307.61525 1.91995e-17
6310.87046 1.95691e-17
6314.14634 1.96464e-17
6317.40155 1.98129e-17
6320.66709 1.97766e-17
6323.93264 2.03566e-17
6327.19818 2.03607e-17
6330.46372 2.04540e-17
6333.72927 2.01907e-17
6336.99481 1.99760e-17
6340.26036 2.01585e-17
6343.52590 2.02275e-17
6346.79144 2.00778e-17
6350.05699 2.02277e-17
6353.32253 2.02724e-17
6356.58808 2.01713e-17
6359.85362 2.02240e-17
6363.11916 2.04467e-17
6366.38471 2.02810e-17
6369.65025 2.02123e-17
6372.91580 2.06370e-17
6376.18134 2.08514e-17
6379.43655 2.06453e-17
6382.70209 2.06655e-17
6385.96764 2.10737e-17
6389.23318 2.11908e-17
6392.49873 2.10010e-17
6395.76427 2.09324e-17
6399.02981 2.10656e-17
6402.29536 2.11262e-17
6405.56090 2.13885e-17
6408.82645 2.12634e-17
6412.09199 2.09528e-17
6415.35753 2.08762e-17
6418.62308 2.09529e-17
6421.88862 2.10054e-17
6425.15417 2.11707e-17
6428.41971 2.11344e-17
6431.68525 2.12110e-17
6434.95080 2.09895e-17
6438.21634 2.10580e-17
6441.48189 2.13762e-17
6444.74743 2.12997e-17
6448.00264 2.11749e-17
6451.26818 2.13078e-17
6454.53373 2.14004e-17
6457.79927 2.13320e-17
6461.06482 2.12716e-17
6464.33036 2.15894e-17
6467.59590 2.14326e-17
6470.86145 2.10828e-17
6474.12699 2.12316e-17
6477.39254 2.12839e-17
6480.65808 2.15853e-17
6483.92362 2.12599e-17
6487.18917 2.08864e-17
6490.45471 2.11475e-17
6493.72026 2.08626e-17
6496.98580 2.07142e-17
6500.25134 2.09511e-17
6503.50655 2.10596e-17
6506.78243 2.08791e-17
6510.03764 2.08432e-17
6513.30319 2.09356e-17
6516.56873 2.11081e-17
6519.83427 2.07675e-17
6523.09982 2.08358e-17
6526.36536 2.09201e-17
6529.63091 2.10444e-17
6532.89645 2.09684e-17
6536.16199 2.10607e-17
6539.42754 2.09527e-17
6542.69308 2.08287e-17
6545.95863 2.10811e-17
6549.22417 2.09811e-17
6552.48971 2.08732e-17
6555.75526 2.11255e-17
6559.02080 2.09376e-17
6562.28635 2.11097e-17
6565.55189 2.12018e-17
6568.80710 2.10460e-17
6572.08298 2.10661e-17
6575.33819 2.13820e-17
6578.60373 2.12582e-17
6581.86928 2.09586e-17
6585.13482 2.07710e-17
6588.40036 2.08471e-17
6591.66591 2.08992e-17
6594.93145 2.06798e-17
6598.19700 2.07878e-17
6601.46254 2.08957e-17
6604.72808 2.06605e-17
6607.99363 2.05211e-17
6611.25917 2.05812e-17
6614.52472 2.05295e-17
6617.79026 2.05418e-17
6621.05580 2.08091e-17
6624.32135 2.06060e-17
6627.58689 2.04110e-17
6630.85244 2.06702e-17
6634.10765 2.06187e-17
6637.37319 2.05034e-17
6640.63873 2.04280e-17
6643.90428 2.09816e-17
6647.16982 2.06435e-17
6650.43537 2.04328e-17
6653.70091 2.05723e-17
6656.96645 2.05606e-17
6660.23200 2.06762e-17
6663.49754 2.08713e-17
6666.76309 2.07482e-17
6670.02863 2.02674e-17
6673.29417 2.03273e-17
6676.55972 2.03236e-17
6679.82526 2.04153e-17
6683.09081 2.03321e-17
6686.35635 2.01378e-17
6689.62189 2.02215e-17
6692.88744 2.01146e-17
6696.15298 2.01983e-17
6699.41853 2.04407e-17
6702.67374 2.01751e-17
6705.93928 1.99413e-17
6709.20482 2.01916e-17
6712.47037 2.01562e-17
6715.73591 1.98908e-17
6719.00146 1.97286e-17
6722.26700 1.96141e-17
6725.53254 1.96898e-17
6728.79809 1.97100e-17
6732.06363 1.96272e-17
6735.32918 1.94018e-17
6738.59472 1.95567e-17
6741.86026 1.95294e-17
6745.12581 1.93517e-17
6748.39135 1.96173e-17
6931.23081 1.73186e-17
6934.49636 1.77699e-17
6937.76190 1.82758e-17
6941.02745 1.80689e-17
6944.29299 1.76740e-17
6947.55853 1.76160e-17
6950.82408 1.78554e-17
6954.08962 1.81339e-17
6957.35517 1.80523e-17
6960.62071 1.75327e-17
6963.87592 1.72713e-17
6967.14146 1.72603e-17
6970.40701 1.71086e-17
6973.67255 1.73478e-17
6976.93810 1.73524e-17
6980.20364 1.69194e-17
6983.46918 1.69866e-17
6986.73473 1.68741e-17
6990.00027 1.68242e-17
6993.26582 1.68757e-17
6996.53136 1.66930e-17
6999.79690 1.66041e-17
7003.06245 1.69913e-17
7006.32799 1.68711e-17
7009.59354 1.69850e-17
7012.85908 1.67479e-17
7016.12462 1.66824e-17
7019.39017 1.67417e-17
7022.64538 1.66060e-17
7025.91092 1.65484e-17
7029.18680 1.66934e-17
7032.44201 1.67449e-17
7035.70755 1.67184e-17
7038.97310 1.67776e-17
7042.23864 1.67122e-17
7045.50419 1.67169e-17
7048.76973 1.67761e-17
7052.03527 1.66640e-17
7055.30082 1.65753e-17
7058.56636 1.64866e-17
7061.83191 1.63902e-17
7065.09745 1.62861e-17
7068.36299 1.62830e-17
7071.62854 1.63889e-17
7074.89408 1.64946e-17
7078.15963 1.65382e-17
7081.42517 1.64341e-17
7084.69071 1.62990e-17
7087.95626 1.63425e-17
7091.21147 1.62463e-17
7094.47701 1.60026e-17
7097.74256 1.64188e-17
7101.00810 1.64002e-17
7104.27364 1.62341e-17
7107.53919 1.62156e-17
7110.80473 1.60031e-17
7114.07028 1.60234e-17
7117.33582 1.61134e-17
7120.60136 1.59941e-17
7123.86691 1.60609e-17
7127.13245 1.61431e-17
7130.39800 1.60936e-17
7133.66354 1.59046e-17
7136.92908 1.56925e-17
7140.19463 1.57360e-17
7143.46017 1.57795e-17
7146.72572 1.58075e-17
7149.99126 1.58510e-17
7153.24647 1.57319e-17
7156.51201 1.55742e-17
7159.78789 1.56254e-17
7163.04310 1.54910e-17
7166.30865 1.51246e-17
7169.57419 1.47198e-17
7172.83973 1.43846e-17
7176.10528 1.42273e-17
7179.37082 1.40160e-17
7182.63637 1.37739e-17
7185.90191 1.38176e-17
7189.16745 1.40775e-17
7192.43300 1.39513e-17
7195.69854 1.40722e-17
7198.96409 1.39152e-17
7202.22963 1.38199e-17
7205.49517 1.43111e-17
7208.76072 1.49640e-17
7212.02626 1.52156e-17
7215.29181 1.52127e-17
7218.54702 1.51636e-17
7221.81256 1.48909e-17
7225.07810 1.48187e-17
7228.34365 1.45693e-17
7231.60919 1.42507e-17
7234.87474 1.39245e-17
7238.14028 1.39065e-17
7241.40582 1.41733e-17
7244.67137 1.40243e-17
7247.93691 1.41832e-17
7251.20246 1.40728e-17
7254.46800 1.40393e-17
7257.73354 1.42751e-17
7260.99909 1.42262e-17
7264.26463 1.42158e-17
7267.53018 1.38364e-17
7270.79572 1.37107e-17
7274.06126 1.36466e-17
7277.32681 1.37208e-17
7280.59235 1.40945e-17
7283.85790 1.43760e-17
7287.11311 1.38664e-17
7290.37865 1.41478e-17
7293.64419 1.47514e-17
7296.90974 1.41654e-17
7300.17528 1.41626e-17
7303.44083 1.40525e-17
7306.70637 1.37200e-17
7309.97191 1.38247e-17
7313.23746 1.41057e-17
7316.50300 1.38730e-17
7319.76855 1.42151e-17
7323.03409 1.43120e-17
7326.29963 1.43628e-17
7329.56518 1.43294e-17
7332.83072 1.38289e-17
7336.09627 1.38492e-17
7339.36181 1.41526e-17
7342.62735 1.41193e-17
7345.88256 1.40018e-17
7349.14811 1.40220e-17
7352.41365 1.38739e-17
7355.67920 1.40012e-17
7358.94474 1.36850e-17
7362.21028 1.34760e-17
7365.47583 1.38784e-17
7368.74137 1.39139e-17
7372.00692 1.39112e-17
7375.27246 1.41758e-17
7378.53800 1.40050e-17
7381.80355 1.35212e-17
7385.06909 1.35339e-17
7388.33464 1.36152e-17
7391.60018 1.33302e-17
7394.86572 1.31444e-17
7398.13127 1.32563e-17
7401.39681 1.33376e-17
7404.66236 1.34722e-17
7407.92790 1.32866e-17
7411.19344 1.34592e-17
7414.44865 1.35023e-17
7417.71420 1.32940e-17
7420.97974 1.31618e-17
7424.24529 1.33116e-17
7427.51083 1.33698e-17
7430.77637 1.31693e-17
7434.04192 1.31134e-17
7437.30746 1.31260e-17
7440.57301 1.30474e-17
7443.83855 1.30676e-17
7447.10409 1.30650e-17
7450.36964 1.28875e-17
7453.63518 1.28394e-17
7456.90073 1.29204e-17
7460.16627 1.27887e-17
7463.43181 1.29381e-17
7466.69736 1.28216e-17
7469.96290 1.26975e-17
7473.22845 1.25811e-17
7476.48366 1.26697e-17
7479.74920 1.25002e-17
7483.01474 1.26571e-17
7486.28029 1.26090e-17
7489.54583 1.25534e-17
7492.81138 1.24979e-17
7496.07692 1.24044e-17
7499.34246 1.24019e-17
7502.60801 1.25662e-17
7505.87355 1.24879e-17
7509.13910 1.23945e-17
7512.40464 1.23617e-17
7515.67018 1.22229e-17
7518.93573 1.22659e-17
7522.20127 1.22861e-17
7525.46682 1.21399e-17
7528.73236 1.22661e-17
7531.99790 1.22485e-17
7535.26345 1.22007e-17
7538.52899 1.24327e-17
7541.79454 1.20975e-17
7545.04975 1.20724e-17
7548.31529 1.20246e-17
7551.58083 1.21658e-17
7554.84638 1.20047e-17
7558.11192 1.17983e-17
7561.37747 1.18035e-17
7564.64301 1.21937e-17
7567.90855 1.21309e-17
7571.17410 1.20379e-17
7574.43964 1.21034e-17
7577.70519 1.19878e-17
7580.97073 1.18647e-17
7584.23627 1.18623e-17
7587.50182 1.13849e-17
7688.71301 1.18080e-17
7691.97856 1.19929e-17
7695.24410 1.20204e-17
7698.50965 1.21003e-17
7701.77519 1.21876e-17
7705.04073 1.20579e-17
7708.30628 1.23024e-17
7711.57182 1.26590e-17
7714.83737 1.25442e-17
7718.10291 1.25641e-17
7721.36845 1.24718e-17
7724.63400 1.25739e-17
7727.89954 1.27507e-17
7731.16509 1.26435e-17
7734.42030 1.26633e-17
7737.68584 1.26309e-17
7740.95138 1.24416e-17
7744.21693 1.24614e-17
7747.48247 1.27948e-17
7750.74802 1.25086e-17
7754.01356 1.28493e-17
7757.27910 1.28839e-17
7760.54465 1.25457e-17
7763.81019 1.24909e-17
7767.07574 1.27120e-17
7770.34128 1.26572e-17
7773.60682 1.27664e-17
7776.87237 1.28160e-17
7780.13791 1.28282e-17
7783.40346 1.26692e-17
7786.66900 1.25474e-17
7789.93454 1.27906e-17
7793.20009 1.28698e-17
7796.46563 1.27109e-17
7799.73118 1.26860e-17
7802.98639 1.27949e-17
7806.25193 1.28593e-17
7809.51747 1.28046e-17
7812.78302 1.27573e-17
7816.04856 1.27993e-17
7819.31411 1.30122e-17
7822.57965 1.27941e-17
7825.84519 1.31034e-17
7829.11074 1.32121e-17
7832.37628 1.30238e-17
7835.64183 1.28058e-17
7838.90737 1.33228e-17
7842.17291 1.29193e-17
7845.43846 1.23825e-17
7848.70400 1.32181e-17
7851.96955 1.36530e-17
7855.23509 1.30570e-17
7858.50063 1.28467e-17
7861.76618 1.29553e-17
7865.02139 1.28785e-17
7868.28693 1.30981e-17
7871.55248 1.32140e-17
7874.81802 1.29372e-17
7878.08356 1.29938e-17
7881.34911 1.30356e-17
7884.61465 1.30107e-17
7887.88020 1.29562e-17
7891.14574 1.28500e-17
7894.41128 1.30396e-17
7897.67683 1.29113e-17
7900.94237 1.30565e-17
7904.20792 1.27729e-17
7907.47346 1.25560e-17
7910.73900 1.25460e-17
7914.00455 1.28759e-17
7917.27009 1.26664e-17
7920.53564 1.24054e-17
7923.80118 1.23954e-17
7927.05639 1.26069e-17
7930.32193 1.27446e-17
7933.58748 1.26682e-17
7936.85302 1.25181e-17
7940.11857 1.25302e-17
7943.38411 1.28005e-17
7946.64965 1.26062e-17
7949.91520 1.22867e-17
7953.18074 1.24242e-17
7956.44629 1.22374e-17
7959.71183 1.20950e-17
7962.97737 1.19157e-17
7966.24292 1.22594e-17
7969.50846 1.23010e-17
7972.77401 1.19158e-17
7976.03955 1.22592e-17
7979.30509 1.21169e-17
7982.57064 1.20335e-17
7985.83618 1.18619e-17
7989.10173 1.18374e-17
7992.36727 1.19306e-17
7995.62248 1.13696e-17
7998.88802 1.12791e-17
8002.15357 1.18645e-17
8005.41911 1.20163e-17
8008.68466 1.18817e-17
8011.95020 1.18205e-17
8015.21574 1.19429e-17
8018.48129 1.16249e-17
8021.74683 1.16445e-17
8025.01238 1.17668e-17
8028.27792 1.16251e-17
8031.54346 1.15054e-17
8034.80901 1.13931e-17
8038.07455 1.14054e-17
8041.34010 1.15570e-17
8044.60564 1.12396e-17
8047.87118 1.10834e-17
8051.13673 1.11251e-17
8054.40227 1.11375e-17
8057.66782 1.10474e-17
8060.92303 1.09646e-17
8064.18857 1.10136e-17
8067.45411 1.10626e-17
8070.71966 1.10091e-17
8073.98520 1.07071e-17
8077.25075 1.06098e-17
8080.51629 1.09367e-17
8083.78183 1.07298e-17
8087.04738 1.05376e-17
8090.31292 1.04697e-17
8093.57847 1.04968e-17
8096.84401 1.03340e-17
8100.10955 1.01567e-17
8103.37510 1.03517e-17
8106.64064 1.03934e-17
8109.90619 1.01286e-17
8113.17173 1.01704e-17
8116.43727 1.00224e-17
8119.70282 9.87454e-18
8122.96836 9.82151e-18
8126.22357 9.84868e-18
8129.48912 9.76652e-18
8132.75466 9.41478e-18
8136.02020 9.30360e-18
8139.28575 9.36000e-18
8142.55129 9.14693e-18
8145.81684 8.94850e-18
8149.08238 8.87390e-18
8152.34792 8.90123e-18
8155.61347 8.84851e-18
8158.87901 8.75215e-18
8162.14456 8.55400e-18
8165.41010 8.38502e-18
8168.67564 8.39789e-18
8171.94119 8.42528e-18
8175.20673 8.58349e-18
8178.47228 8.53818e-18
8181.73782 8.58733e-18
8185.00336 8.65099e-18
8188.26891 8.72188e-18
8191.52412 8.70562e-18
8194.78966 8.60225e-18
8198.05521 8.76747e-18
8201.32075 8.79475e-18
8204.58629 8.66241e-18
8207.85184 8.96534e-18
8211.11738 9.19562e-18
8214.38293 9.20830e-18
8217.64847 9.01074e-18
8220.91401 9.13216e-18
8224.17956 8.71732e-18
8227.44510 7.96937e-18
8230.71065 7.60562e-18
8233.97619 7.67653e-18
8237.24173 8.19634e-18
8240.50728 8.72318e-18
8243.77282 8.94583e-18
8247.03837 9.02366e-18
8250.30391 9.10870e-18
8253.55912 9.00564e-18
8256.82466 8.76521e-18
8260.09021 8.69842e-18
8263.35575 8.92081e-18
8266.62130 9.17203e-18
8269.88684 9.11242e-18
8273.15238 8.75662e-18
8276.41793 8.29982e-18
8279.68347 8.22598e-18
8282.94902 8.44099e-18
8286.21456 8.38881e-18
8289.48010 8.63979e-18
8292.74565 8.41440e-18
8296.01119 8.71579e-18
8299.27674 9.06757e-18
8302.54228 8.69798e-18
8305.80782 8.50160e-18
8309.07337 8.94693e-18
8312.33891 9.11098e-18
8315.59412 9.15966e-18
8318.85967 8.99938e-18
8322.12521 8.79593e-18
8325.39075 8.84465e-18
8328.65630 8.96536e-18
8331.92184 9.25882e-18
8335.18739 9.35061e-18
8338.45293 9.16889e-18
8341.71847 9.01602e-18
8344.98402 9.21573e-18
8348.24956 9.26431e-18
8351.51511 9.48547e-18
8354.78065 9.98695e-18
8358.04619 9.87721e-18
8361.31174 9.60221e-18
8364.57728 9.63630e-18
8367.84283 9.88592e-18
8371.10837 1.00205e-17
8374.37391 9.88934e-18
8377.63946 9.81566e-18
8380.90500 1.00148e-17
8384.16021 1.02282e-17
8387.43609 1.01402e-17
8390.69130 9.87997e-18
8393.95684 9.69159e-18
8397.22239 9.81169e-18
8400.48793 1.02759e-17
8403.75348 1.03887e-17
8407.01902 1.01789e-17
8410.28456 1.00480e-17
8413.55011 1.04617e-17
8416.81565 1.06603e-17
8420.08120 1.04076e-17
8423.34674 1.03269e-17
8426.61228 1.03250e-17
8429.87783 1.06738e-17
8433.14337 1.12445e-17
8436.40892 1.09418e-17
8439.67446 1.05963e-17
8442.94000 1.05228e-17
8446.20555 1.06353e-17
8449.46076 1.08050e-17
8452.72630 1.07958e-17
8455.99185 1.08439e-17
8459.25739 1.07918e-17
8462.52293 1.08970e-17
8465.78848 1.10236e-17
8469.05402 1.07145e-17
8472.31957 1.06554e-17
8475.58511 1.08533e-17
8478.85065 1.10941e-17
8482.11620 1.13205e-17
8485.38174 1.11543e-17
8488.64729 1.11380e-17
8491.91283 1.11645e-17
8495.17837 1.12266e-17
8498.44392 1.12959e-17
8501.70946 1.14008e-17
8504.97501 1.13489e-17
8508.24055 1.14894e-17
8511.50609 1.15514e-17
8514.76130 1.13997e-17
8518.02685 1.15045e-17
8521.29239 1.16307e-17
8524.55794 1.17924e-17
8527.82348 1.18330e-17
8531.08902 1.19946e-17
8534.35457 1.17291e-17
8537.62011 1.17199e-17
8540.88566 1.18174e-17
8544.15120 1.20501e-17
8547.41674 1.19413e-17
8550.68229 1.17827e-17
8553.94783 1.23067e-17
8557.21338 1.21837e-17
8560.47892 1.20608e-17
8563.74446 1.19236e-17
8567.01001 1.19144e-17
8570.27555 1.21539e-17
8573.54110 1.22725e-17
8576.79631 1.24763e-17
8580.06185 1.24670e-17
8583.32739 1.21880e-17
8586.59294 1.22497e-17
8589.85848 1.23044e-17
8593.12403 1.22810e-17
8596.38957 1.22221e-17
8599.65511 1.22342e-17
8602.92066 1.24661e-17
8606.18620 1.25490e-17
8609.45175 1.24264e-17
8612.71729 1.22045e-17
8615.98283 1.24009e-17
8619.24838 1.25617e-17
8622.51392 1.25100e-17
8625.77947 1.23733e-17
8629.04501 1.24916e-17
8632.31055 1.24328e-17
8635.57610 1.22467e-17
8638.83131 1.23083e-17
8642.10719 1.23416e-17
8645.36240 1.24457e-17
8648.62794 1.24719e-17
8651.89348 1.24415e-17
8655.15903 1.23192e-17
8658.42457 1.23172e-17
8661.69012 1.23575e-17
8664.95566 1.24191e-17
8668.22120 1.26715e-17
8671.48675 1.26835e-17
8674.75229 1.26108e-17
8678.01784 1.24533e-17
8681.28338 1.24936e-17
8684.54892 1.23716e-17
8687.81447 1.23201e-17
8691.08001 1.25793e-17
8694.34556 1.25843e-17
8697.61110 1.22365e-17
8700.87664 1.21357e-17
8704.14219 1.22678e-17
8707.40773 1.22376e-17
8710.66294 1.24049e-17
8713.92849 1.25721e-17
8717.19403 1.23163e-17
8720.45957 1.21170e-17
8723.72512 1.20446e-17
8726.99066 1.21625e-17
8730.25621 1.22169e-17
8733.52175 1.21586e-17
8736.78729 1.22483e-17
8740.05284 1.22745e-17
8743.31838 1.23289e-17
8746.58393 1.24115e-17
8749.84947 1.24095e-17
8753.11501 1.22176e-17
8756.38056 1.22086e-17
8759.64610 1.22771e-17
8762.91165 1.19727e-17
8766.17719 1.18443e-17
8769.44273 1.17370e-17
8772.69794 1.14680e-17
8775.96349 1.16068e-17
8779.22903 1.15629e-17
8782.49458 1.24115e-17
8785.76012 1.20583e-17
8789.02566 1.16279e-17
8792.29121 1.14997e-17
8795.55675 1.17016e-17
8798.82230 1.14892e-17
8802.08784 1.16630e-17
8805.35338 1.17525e-17
8808.61893 1.14560e-17
8811.88447 1.15104e-17
8815.15002 1.17262e-17
8818.41556 1.16824e-17
8821.68110 1.14492e-17
8824.94665 1.09284e-17
8828.21219 1.11302e-17
8831.47774 1.21524e-17
8834.74328 1.14425e-17
8837.99849 1.09431e-17
8841.26403 1.11868e-17
8844.52958 1.14866e-17
8847.79512 1.13518e-17
8851.06067 1.11960e-17
8854.32621 1.14396e-17
8857.59175 1.13259e-17
8860.85730 1.10442e-17
8864.12284 1.10006e-17
8867.38839 1.10200e-17
8870.65393 1.09275e-17
8873.91947 1.09749e-17
8877.18502 1.09594e-17
8880.45056 1.08529e-17
8883.71611 1.06625e-17
8886.98165 1.03462e-17
8890.24719 1.04287e-17
8893.51274 1.01965e-17
8896.77828 1.05657e-17
8900.03349 1.06762e-17
8903.29904 1.09963e-17
8906.56458 1.10297e-17
8909.83012 1.06019e-17
8913.09567 1.10617e-17
8916.36121 1.08296e-17
8919.62676 9.94097e-18
8922.89230 1.01492e-17
8926.15784 1.06716e-17
8929.42339 1.06423e-17
8932.68893 1.04594e-17
8935.95448 1.05767e-17
8939.22002 1.05543e-17
8942.48556 1.00853e-17
8945.75111 9.91654e-18
8949.01665 1.01804e-17
8952.28220 1.05000e-17
8955.54774 1.00662e-17
8958.81328 9.77193e-18
8962.07883 9.81253e-18
8965.34437 1.00902e-17
8968.59958 9.77518e-18
8971.86513 9.13955e-18
8975.13067 8.99899e-18
8978.39621 8.94907e-18
8981.66176 9.40093e-18
8984.92730 9.50428e-18
8988.19285 9.35680e-18
8991.45839 9.06307e-18
8994.72393 8.63010e-18
8997.98948 8.23207e-18
9001.25502 8.14054e-18
9004.52057 8.89850e-18
9007.78611 9.21768e-18
9011.05165 8.80587e-18
9014.31720 8.81178e-18
9017.58274 8.99167e-18
9020.84829 9.13674e-18
9024.11383 9.11479e-18
9027.37937 9.01632e-18
9030.63458 8.98048e-18
9033.90013 9.07681e-18
9037.16567 9.56258e-18
9040.43122 9.70751e-18
9043.69676 9.99147e-18
9046.96230 1.00390e-17
9050.22785 9.83626e-18
9053.49339 1.01618e-17
9056.75894 1.03831e-17
9060.02448 1.00762e-17
9063.29002 9.84573e-18
9066.55557 9.79601e-18
9069.82111 9.71156e-18
9073.08666 9.39098e-18
9076.35220 9.12603e-18
9079.61774 8.83337e-18
9082.88329 9.14488e-18
9086.14883 9.18555e-18
9089.41438 8.95548e-18
9092.67992 8.96050e-18
9095.94546 9.23709e-18
9099.20067 9.04175e-18
9102.46622 8.93665e-18
9105.73176 8.99809e-18
9108.99731 8.92770e-18
9112.26285 8.92670e-18
9115.52839 9.07827e-18
9118.79394 9.40317e-18
9122.05948 9.68640e-18
9125.32503 9.42880e-18
9128.59057 9.01874e-18
9131.85611 9.14943e-18
9135.12166 9.20386e-18
9138.38720 8.91870e-18
9141.65275 8.62669e-18
9144.91829 8.86822e-18
9148.18383 8.77717e-18
9151.44938 9.15717e-18
9154.71492 9.32930e-18
9157.98047 9.08588e-18
9161.23568 8.65556e-18
9164.50122 8.16994e-18
9167.76676 8.66056e-18
9171.03231 9.46257e-18
9174.29785 9.44076e-18
9177.56340 9.10061e-18
9180.82894 8.83665e-18
9184.09448 8.68346e-18
9187.36003 8.64099e-18
9190.62557 9.22804e-18
9193.89112 9.46911e-18
9197.15666 9.16376e-18
9200.42220 8.89306e-18
9203.68775 7.96554e-18
9206.95329 8.84963e-18
9210.21884 9.86488e-18
9213.48438 1.01541e-17
9216.74992 9.77978e-18
9220.00513 9.46082e-18
9223.27068 9.49434e-18
9226.53622 9.65222e-18
9229.80177 9.77552e-18
9233.06731 9.85045e-18
9236.33285 1.00013e-17
9239.59840 9.94500e-18
9242.86394 9.70913e-18
9246.12949 9.73570e-18
9249.39503 9.65870e-18
9252.66057 9.75430e-18
9255.92612 9.60830e-18
9259.19166 9.58656e-18
9262.45721 9.89607e-18
9265.72275 9.70869e-18
9268.98829 9.65935e-18
9272.25384 9.64452e-18
9275.51938 9.80904e-18
9278.78493 9.84247e-18
9282.05047 9.63452e-18
9285.31601 9.24042e-18
9288.58156 8.88779e-18
9291.83677 8.81100e-18
9295.10231 8.68597e-18
9298.36786 8.71951e-18
9301.63340 8.81507e-18
9304.89894 8.14566e-18
9308.16449 7.77270e-18
9311.43003 7.46871e-18
9314.69558 7.71593e-18
9317.96112 7.49468e-18
9321.22666 7.05307e-18
9324.49221 6.88015e-18
9327.75775 5.39611e-18
9331.02330 5.27780e-18
9334.28884 5.64007e-18
9337.55438 5.48114e-18
9340.81993 5.73318e-18
9344.08547 5.48342e-18
9347.35102 4.91027e-18
9350.60623 4.67097e-18
9353.87177 4.24183e-18
9357.13731 4.46154e-18
9360.40286 5.46541e-18
9363.66840 5.79294e-18
9366.93395 4.99177e-18
9370.19949 4.94586e-18
9373.46503 5.49682e-18
9376.73058 5.81939e-18
9379.99612 5.69229e-18
9383.26167 6.66093e-18
9386.52721 7.21010e-18
9389.79275 6.73033e-18
9393.05830 5.44184e-18
9396.32384 5.74636e-18
9399.58939 6.77358e-18
9402.85493 7.64603e-18
9406.12047 8.20850e-18
9409.38602 7.93291e-18
9412.65156 7.77414e-18
9415.91711 7.56046e-18
9419.18265 7.18891e-18
9422.44819 7.33234e-18
9425.70340 7.18056e-18
9428.96895 7.33770e-18
9432.23449 7.04182e-18
9435.50004 6.60875e-18
9438.76558 6.24507e-18
9442.03112 5.34423e-18
9445.29667 5.04525e-18
9448.56221 5.46662e-18
9451.82776 5.40981e-18
9455.09330 4.45251e-18
9458.35884 5.28595e-18
9461.62439 5.35741e-18
9464.88993 5.18614e-18
9468.15548 5.68334e-18
9471.42102 4.56266e-18
9474.68656 4.69106e-18
9477.95211 4.78036e-18
9481.20732 4.79358e-18
9484.47286 5.14598e-18
9487.73841 6.57811e-18
9491.00395 5.98622e-18
9494.26949 5.76025e-18
9497.53504 5.66172e-18
9500.80058 6.93090e-18
9504.06613 7.08086e-18
9507.33167 5.70794e-18
9510.59721 4.65161e-18
9513.86276 5.11051e-18
9517.12830 6.07381e-18
9520.39385 6.90618e-18
9523.65939 7.34350e-18
9526.92493 6.93217e-18
9530.19048 6.15554e-18
9533.45602 5.45979e-18
9536.72157 5.28001e-18
9539.98711 5.68170e-18
9543.25265 6.23721e-18
9546.50786 6.49442e-18
9549.77341 6.75979e-18
9553.03895 6.63194e-18
9556.30450 6.53214e-18
9559.57004 6.12746e-18
9562.83558 6.19043e-18
9566.10113 6.26295e-18
9569.36667 5.89396e-18
9572.63222 5.68768e-18
9575.89776 5.77868e-18
9579.16330 5.95097e-18
9582.42885 6.05764e-18
9585.69439 6.30364e-18
9588.95994 6.96009e-18
9592.22548 7.17113e-18
9595.49102 6.60225e-18
9598.75657 6.38788e-18
9602.02211 6.24387e-18
9605.28766 5.79678e-18
9608.55320 5.59142e-18
9611.80841 5.52398e-18
9615.07395 6.63454e-18
9618.33950 7.23375e-18
9621.60504 7.13069e-18
9624.87059 7.16411e-18
9628.13613 7.12248e-18
9631.40167 7.10814e-18
9634.66722 6.52630e-18
9637.93276 6.10008e-18
9641.19831 6.46911e-18
9644.46385 7.05083e-18
9647.72939 7.58197e-18
9650.99494 7.16536e-18
9654.26048 6.33572e-18
9657.52603 6.23355e-18
9660.79157 6.44423e-18
9664.05711 3.92341e-18
