# wavelength flux
3200.17106 4.52018e-18
3201.67361 -1.56383e-19
3203.17616 -1.65625e-18
3204.66869 -3.15585e-18
3206.17124 -1.81624e-20
3207.67379 3.11895e-18
3209.17634 2.72553e-18
3210.66887 2.33219e-18
3212.17142 5.22251e-18
3213.67397 8.11228e-18
3215.17652 9.16362e-18
3216.66906 1.02147e-17
3218.17161 7.88457e-18
3219.67416 5.55484e-18
3221.17671 7.61548e-18
3222.66924 9.67572e-18
3224.17179 6.91707e-18
3225.67434 4.15896e-18
3227.17689 4.82451e-18
3228.67944 5.48993e-18
3230.17197 8.33936e-18
3231.67452 1.11882e-17
3233.17707 9.79941e-18
3234.67962 8.41090e-18
3236.17216 9.96095e-18
3237.67471 1.15107e-17
3239.17726 8.99205e-18
3240.67981 6.47394e-18
3242.17234 6.14141e-18
3243.67489 5.80895e-18
3245.17744 7.46236e-18
3246.67999 9.11541e-18
3248.17252 7.46725e-18
3249.67507 5.81944e-18
3251.17762 6.57986e-18
3252.68017 7.34011e-18
3254.17271 8.38724e-18
3255.67526 9.43413e-18
3257.17781 1.01265e-17
3258.68036 1.08187e-17
3260.17289 1.02878e-17
3261.67544 9.75699e-18
3263.17799 1.02766e-17
3264.68054 1.07960e-17
3266.17307 1.03244e-17
3267.67562 9.85297e-18
3269.17817 1.10893e-17
3270.68072 1.23253e-17
3272.18327 1.12153e-17
3273.67580 1.01056e-17
3275.17835 1.04326e-17
3276.68090 1.07594e-17
3278.18345 1.11690e-17
3279.67599 1.15784e-17
3281.17854 1.14931e-17
3282.68109 1.14079e-17
3284.18364 1.09185e-17
3285.67617 1.04292e-17
3287.17872 1.11979e-17
3288.68127 1.19664e-17
3290.18382 1.23148e-17
3291.67635 1.26631e-17
3293.17890 1.37662e-17
3294.68145 1.48689e-17
3296.18400 1.49919e-17
3297.67654 1.51148e-17
3299.17909 1.34994e-17
3300.68164 1.18844e-17
3302.18419 1.28957e-17
3303.67672 1.39069e-17
3305.17927 1.37124e-17
3306.68182 1.35180e-17
3308.18437 1.43453e-17
3309.67690 1.51723e-17
3311.17945 1.49215e-17
3312.68200 1.46708e-17
3314.18455 1.54286e-17
3315.68710 1.61862e-17
3317.17964 1.59399e-17
3318.68219 1.56937e-17
3320.18474 1.58146e-17
3321.68729 1.59353e-17
3323.17982 1.58368e-17
3324.68237 1.57382e-17
3326.18492 1.63707e-17
3327.68747 1.70030e-17
3329.18000 1.76422e-17
3330.68255 1.82812e-17
3332.18510 1.71064e-17
3333.68765 1.59320e-17
3335.18018 1.68763e-17
3336.68273 1.78203e-17
3338.18528 1.82381e-17
3339.68783 1.86558e-17
3341.18037 1.83622e-17
3342.68292 1.80687e-17
3344.18547 1.79610e-17
3345.68802 1.78534e-17
3347.18055 1.77155e-17
3348.68310 1.75778e-17
3350.18565 1.76660e-17
3351.68820 1.77543e-17
3353.18073 1.77960e-17
3354.68328 1.78378e-17
3356.18583 1.87349e-17
3357.68838 1.96317e-17
3359.19093 1.92321e-17
3360.68347 1.88325e-17
3362.18602 1.90936e-17
3363.68857 1.93545e-17
3365.19112 2.00304e-17
3366.68365 2.07062e-17
3368.18620 2.16841e-17
3369.68875 2.26617e-17
3371.19130 2.19295e-17
3372.68383 2.11975e-17
3374.18638 2.17802e-17
3375.68893 2.23627e-17
3377.19148 2.28862e-17
3378.68401 2.34097e-17
3380.18656 2.35312e-17
3381.68912 2.36526e-17
3383.19166 2.37870e-17
3384.68420 2.39212e-17
3386.18675 2.31777e-17
3387.68930 2.24343e-17
3389.19185 2.30975e-17
3390.68438 2.37605e-17
3392.18693 2.42066e-17
3393.68948 2.46525e-17
3395.19203 2.49704e-17
3396.68456 2.52882e-17
3398.18711 2.48986e-17
3399.68966 2.45092e-17
3401.19221 2.48239e-17
3402.69476 2.51386e-17
3404.18730 2.48418e-17
3405.68985 2.45451e-17
3407.19240 2.50141e-17
3408.69495 2.54831e-17
3410.18748 2.57323e-17
3411.69003 2.59814e-17
3413.19258 2.57092e-17
3414.69513 2.54370e-17
3416.18766 2.57495e-17
3417.69021 2.60620e-17
3419.19276 2.63478e-17
3420.69531 2.66336e-17
3422.18785 2.56935e-17
3423.69040 2.47536e-17
3425.19295 2.56621e-17
3426.69550 2.65703e-17
3428.18803 2.62654e-17
3429.69058 2.59605e-17
3431.19313 2.63350e-17
3432.69568 2.67094e-17
3434.18821 2.66562e-17
3435.69076 2.66030e-17
3437.19331 2.68253e-17
3438.69586 2.70476e-17
3440.18840 2.76517e-17
3441.69094 2.82556e-17
3443.19349 2.84770e-17
3444.69605 2.86984e-17
3446.19859 2.85661e-17
3447.69113 2.84337e-17
3449.19368 2.80527e-17
3450.69623 2.76718e-17
3452.19878 2.74211e-17
3453.69131 2.71704e-17
3455.19386 2.60474e-17
3456.69641 2.49248e-17
3458.19896 2.57329e-17
3459.69149 2.65407e-17
3461.19404 2.68608e-17
3462.69659 2.71808e-17
3464.19914 2.65968e-17
3465.69168 2.60129e-17
3467.19423 2.65741e-17
3468.69678 2.71351e-17
3470.19933 2.70209e-17
3471.69186 2.69067e-17
3473.19441 2.65560e-17
3474.69696 2.62054e-17
3476.19951 2.61471e-17
3477.69204 2.60889e-17
3479.19459 2.67263e-17
3480.69714 2.73636e-17
3482.19969 2.70627e-17
3483.69223 2.67619e-17
3485.19478 2.69812e-17
3486.69733 2.72003e-17
3488.19988 2.68517e-17
3489.70243 2.65032e-17
3491.19496 2.63240e-17
3492.69751 2.61447e-17
3494.20006 2.65734e-17
3495.70261 2.70020e-17
3497.19514 2.71302e-17
3498.69769 2.72583e-17
3500.20024 2.70927e-17
3501.70279 2.69272e-17
3503.19533 2.66407e-17
3504.69788 2.63543e-17
3506.20042 2.65080e-17
3507.70298 2.66616e-17
3509.19551 2.66137e-17
3510.69806 2.65659e-17
3512.20061 2.74564e-17
3513.70316 2.83466e-17
3515.19569 2.76749e-17
3516.69824 2.70032e-17
3518.20079 2.65347e-17
3519.70334 2.60664e-17
3521.19587 2.64108e-17
3522.69842 2.67551e-17
3524.20097 2.71901e-17
3525.70352 2.76250e-17
3527.19606 2.67512e-17
3528.69861 2.58777e-17
3530.20116 2.68509e-17
3531.70371 2.78239e-17
3533.20626 2.78052e-17
3534.69879 2.77865e-17
3536.20134 2.74229e-17
3537.70389 2.70595e-17
3539.20644 2.70079e-17
3540.69897 2.69563e-17
3542.20152 2.63546e-17
3543.70407 2.57530e-17
3545.20662 2.59537e-17
3546.69916 2.61544e-17
3548.20171 2.60915e-17
3549.70426 2.60287e-17
3551.20681 2.57142e-17
3552.69934 2.53999e-17
3554.20189 2.50107e-17
3555.70444 2.46216e-17
3557.20699 2.49865e-17
3558.69952 2.53513e-17
3560.20207 2.54907e-17
3561.70462 2.56300e-17
3563.20717 2.47570e-17
3564.69970 2.38843e-17
3566.20226 2.50445e-17
3567.70481 2.62044e-17
3569.20736 2.61137e-17
3570.69989 2.60231e-17
3572.20244 2.55429e-17
3573.70499 2.50629e-17
3575.20754 2.46087e-17
3576.71009 2.41547e-17
3578.20262 2.41978e-17
3579.70517 2.42408e-17
3581.20772 2.44628e-17
3582.71027 2.46848e-17
3584.20280 2.41738e-17
3585.70535 2.36630e-17
3587.20790 2.42261e-17
3588.71045 2.47891e-17
3590.20299 2.46875e-17
3591.70554 2.45859e-17
3593.20809 2.41182e-17
3594.71064 2.36506e-17
3596.20317 2.37988e-17
3597.70572 2.39471e-17
3599.20827 2.44133e-17
3600.71082 2.48794e-17
3602.20335 2.46544e-17
3603.70590 2.44294e-17
3605.20845 2.45026e-17
3606.71100 2.45757e-17
3608.20354 2.44844e-17
3609.70609 2.43931e-17
3611.20864 2.43492e-17
3612.71119 2.43053e-17
3614.20372 2.42270e-17
3615.70627 2.41487e-17
3617.20882 2.40499e-17
3618.71137 2.39510e-17
3620.20390 2.38020e-17
3621.70645 2.36530e-17
3623.20900 2.34516e-17
3624.71155 2.32503e-17
3626.21410 2.32863e-17
3627.70664 2.33224e-17
3629.20919 2.34855e-17
3630.71174 2.36486e-17
3632.21429 2.33695e-17
3633.70682 2.30904e-17
3635.20937 2.37706e-17
3636.71192 2.44507e-17
3638.21447 2.45834e-17
3639.70700 2.47160e-17
3641.20955 2.44571e-17
3642.71210 2.41983e-17
3644.21465 2.42868e-17
3645.70718 2.43753e-17
3647.20973 2.46838e-17
3648.71228 2.49923e-17
3650.21483 2.51845e-17
3651.70737 2.53767e-17
3653.20992 2.54639e-17
3654.71247 2.55511e-17
3656.21502 2.53986e-17
3657.70755 2.52462e-17
3659.21010 2.51728e-17
3660.71265 2.50995e-17
3662.21520 2.51523e-17
3663.70773 2.52051e-17
3665.21028 2.45836e-17
3666.71283 2.39622e-17
3668.21538 2.39374e-17
3669.71793 2.39125e-17
3671.21047 2.38791e-17
3672.71302 2.38456e-17
3674.21557 2.32860e-17
3675.71812 2.27264e-17
3677.21065 2.26375e-17
3678.71320 2.25487e-17
3680.21575 2.20958e-17
3681.71830 2.16430e-17
3683.21083 2.17092e-17
3684.71338 2.17754e-17
3686.21593 2.13322e-17
3687.71848 2.08892e-17
3689.21101 2.05705e-17
3690.71357 2.02518e-17
3692.21612 1.96782e-17
3693.71866 1.91047e-17
3695.21120 1.86463e-17
3696.71375 1.81881e-17
3698.21630 1.81726e-17
3699.71885 1.81570e-17
3701.21138 1.78960e-17
3702.71393 1.76351e-17
3704.21648 1.80089e-17
3705.71903 1.83827e-17
3707.21156 1.80772e-17
3708.71411 1.77717e-17
3710.21666 1.80680e-17
3711.71921 1.83643e-17
3713.22176 1.84165e-17
3714.71430 1.83377e-17
3716.21685 1.82589e-17
3717.71940 1.81706e-17
3719.22195 1.80823e-17
3720.71448 1.79940e-17
3722.21703 1.79058e-17
3723.71958 1.78175e-17
3725.22213 1.77293e-17
3726.71466 1.76411e-17
3728.21721 1.75530e-17
3729.71976 1.74648e-17
3731.22231 1.73767e-17
3732.71485 1.72886e-17
3734.21740 1.72005e-17
3735.71995 1.71124e-17
3737.22250 1.70243e-17
3738.71503 1.69363e-17
3740.21758 1.68483e-17
3741.72013 1.67603e-17
3743.22268 1.66724e-17
3744.71521 1.65844e-17
3746.21776 1.64965e-17
3747.72031 1.64086e-17
3749.22286 1.63207e-17
3750.71540 1.62328e-17
3752.21794 1.61449e-17
3753.72050 1.60571e-17
3755.22305 1.61737e-17
3756.72559 1.62903e-17
3758.21813 1.62666e-17
3759.72068 1.62429e-17
3761.22323 1.59665e-17
3762.72578 1.56902e-17
3764.21831 1.54644e-17
3765.72086 1.52386e-17
3767.22341 1.56531e-17
3768.72596 1.60675e-17
3770.21849 1.61202e-17
3771.72104 1.61730e-17
3773.22359 1.61362e-17
3774.72614 1.60995e-17
3776.21868 1.59615e-17
3777.72123 1.58235e-17
3779.22378 1.60259e-17
3780.72633 1.62282e-17
3782.21886 1.64470e-17
3783.72141 1.66656e-17
3785.22396 1.66524e-17
3786.72651 1.66391e-17
3788.21904 1.65459e-17
3789.72159 1.64527e-17
3791.22414 1.66384e-17
3792.72669 1.68241e-17
3794.21923 1.68320e-17
3795.72178 1.68399e-17
3797.22433 1.65455e-17
3798.72688 1.62512e-17
3800.22943 1.64560e-17
3801.72196 1.66608e-17
3803.22451 1.69678e-17
3804.72706 1.72747e-17
3806.22961 1.70826e-17
3807.72214 1.68904e-17
3809.22469 1.69898e-17
3810.72724 1.70891e-17
3812.22979 1.67771e-17
3813.72233 1.64652e-17
3815.22488 1.65495e-17
3816.72743 1.66339e-17
3818.22998 1.69114e-17
3819.72251 1.71889e-17
3821.22506 1.71431e-17
3822.72761 1.70973e-17
3824.23016 1.73830e-17
3825.72269 1.76687e-17
3827.22524 1.79525e-17
3828.72779 1.82364e-17
3830.23034 1.84508e-17
3831.72287 1.86652e-17
3833.22542 1.88720e-17
3834.72797 1.90787e-17
3836.23052 1.95349e-17
3837.72306 1.99910e-17
3839.22561 2.03787e-17
3840.72816 2.07663e-17
3842.23071 2.09651e-17
3843.73326 2.11638e-17
3845.22579 2.15069e-17
3846.72834 2.18500e-17
3848.23089 2.24475e-17
3849.73344 2.30449e-17
3851.22597 2.38044e-17
3852.72852 2.45637e-17
3854.23107 2.49051e-17
3855.73362 2.52464e-17
3857.22616 2.54336e-17
3858.72871 2.56208e-17
3860.23126 2.62375e-17
3861.73381 2.68541e-17
3863.22634 2.69641e-17
3864.72889 2.70742e-17
3866.23144 2.79628e-17
3867.73399 2.88513e-17
3869.22652 2.95049e-17
3870.72907 3.01583e-17
3872.23162 3.01616e-17
3873.73417 3.01649e-17
3875.22671 3.07794e-17
3876.72926 3.13938e-17
3878.23181 3.18919e-17
3879.73436 3.23900e-17
3881.23691 3.28584e-17
3882.72944 3.33266e-17
3884.23199 3.38159e-17
3885.73454 3.43051e-17
3887.23709 3.46638e-17
3888.72962 3.50225e-17
3890.23217 3.56231e-17
3891.73472 3.62235e-17
3893.23727 3.63002e-17
3894.72980 3.63769e-17
3896.23235 3.66389e-17
3897.73490 3.69010e-17
3899.23745 3.71839e-17
3900.72999 3.74668e-17
3902.23254 3.79577e-17
3903.73509 3.84486e-17
3905.23764 3.86625e-17
3906.73017 3.88764e-17
3908.23272 3.88587e-17
3909.73527 3.88411e-17
3911.23782 3.84495e-17
3912.73035 3.80579e-17
3914.23290 3.84369e-17
3915.73545 3.88158e-17
3917.23800 3.92234e-17
3918.73054 3.96309e-17
3920.23309 3.94291e-17
3921.73564 3.92274e-17
3923.23819 3.90982e-17
3924.73072 3.89690e-17
3926.23327 3.88204e-17
3927.73582 3.86717e-17
3929.23837 3.85752e-17
3930.74092 3.84788e-17
3932.23345 3.84484e-17
3933.73600 3.84180e-17
3935.23855 3.80423e-17
3936.74110 3.76667e-17
3938.23364 3.83443e-17
3939.73619 3.90218e-17
3941.23874 3.94328e-17
3942.74129 3.98438e-17
3944.23382 3.98836e-17
3945.73637 3.99234e-17
3947.23892 4.02282e-17
3948.74147 4.05330e-17
3950.23400 4.09248e-17
3951.73655 4.13165e-17
3953.23910 4.13150e-17
3954.74165 4.13135e-17
3956.23418 4.09839e-17
3957.73673 4.06543e-17
3959.23928 4.03809e-17
3960.74183 4.01075e-17
3962.23437 3.96732e-17
3963.73692 3.92390e-17
3965.23947 3.93368e-17
3966.74202 3.94346e-17
3968.23455 3.93269e-17
3969.73710 3.92193e-17
3971.23965 3.91784e-17
3972.74220 3.91375e-17
3974.24475 3.92737e-17
3975.73728 3.94099e-17
3977.23983 3.93614e-17
3978.74238 3.93129e-17
3980.24493 3.90121e-17
3981.73747 3.87113e-17
3983.24002 3.87757e-17
3984.74257 3.88402e-17
3986.24512 3.89309e-17
3987.73765 3.90216e-17
3989.24020 3.87425e-17
3990.74275 3.84633e-17
3992.24530 3.85573e-17
3993.73783 3.86511e-17
3995.24038 3.85909e-17
3996.74293 3.85306e-17
3998.24548 3.83855e-17
3999.73801 3.82405e-17
4001.24057 3.79858e-17
4002.74311 3.77312e-17
4004.24566 3.75676e-17
4005.73820 3.74040e-17
4007.24075 3.70783e-17
4008.74330 3.67527e-17
4010.24585 3.61994e-17
4011.73838 3.56463e-17
4013.24093 3.58265e-17
4014.74348 3.60066e-17
4016.24603 3.56711e-17
4017.74858 3.53356e-17
4019.24111 3.51942e-17
4020.74366 3.50528e-17
4022.24621 3.46944e-17
4023.74876 3.43360e-17
4025.24130 3.39227e-17
4026.74385 3.35094e-17
4028.24640 3.33519e-17
4029.74895 3.31944e-17
4031.24148 3.29671e-17
4032.74403 3.27398e-17
4034.24658 3.27006e-17
4035.74913 3.26613e-17
4037.24166 3.25860e-17
4038.74421 3.25106e-17
4040.24676 3.22664e-17
4041.74931 3.20223e-17
4043.24185 3.18029e-17
4044.74440 3.15836e-17
4046.24695 3.15784e-17
4047.74950 3.15732e-17
4049.24203 3.10278e-17
4050.74458 3.04825e-17
4052.24713 3.06062e-17
4053.74968 3.07298e-17
4055.24221 3.05581e-17
4056.74476 3.03865e-17
4058.24731 3.04452e-17
4059.74986 3.05039e-17
4061.24240 3.03103e-17
4062.74494 3.01167e-17
4064.24750 3.00315e-17
4065.75005 2.99464e-17
4067.25259 2.97582e-17
4068.74513 2.95701e-17
4070.24768 2.94649e-17
4071.75023 2.93598e-17
4073.25278 2.91058e-17
4074.74531 2.88519e-17
4076.24786 2.88953e-17
4077.75041 2.89387e-17
4079.25296 2.86967e-17
4080.74549 2.84548e-17
4082.24804 2.83827e-17
4083.75059 2.83105e-17
4085.25314 2.82802e-17
4086.74568 2.82498e-17
4088.24823 2.79650e-17
4089.75078 2.76803e-17
4091.25333 2.75868e-17
4092.74586 2.74933e-17
4094.24841 2.72960e-17
4095.75096 2.70987e-17
4097.25351 2.69141e-17
4098.74604 2.67295e-17
4100.24859 2.69779e-17
4101.75114 2.72263e-17
4103.25369 2.73657e-17
4104.75624 2.75051e-17
4106.24878 2.73115e-17
4107.75133 2.71179e-17
4109.25388 2.69933e-17
4110.75643 2.68688e-17
4112.24896 2.72835e-17
4113.75151 2.76981e-17
4115.25406 2.73649e-17
4116.75661 2.70318e-17
4118.24914 2.69229e-17
4119.75169 2.68141e-17
4121.25424 2.68984e-17
4122.75679 2.69826e-17
4124.24932 2.69853e-17
4125.75187 2.69880e-17
4127.25443 2.68468e-17
4128.75698 2.67057e-17
4130.24951 2.64221e-17
4131.75206 2.61386e-17
4133.25461 2.63702e-17
4134.75716 2.66017e-17
4136.24969 2.64218e-17
4137.75224 2.62420e-17
4139.25479 2.60878e-17
4140.75734 2.59336e-17
4142.24987 2.57303e-17
4143.75242 2.55270e-17
4145.25497 2.54454e-17
4146.75752 2.53637e-17
4148.26007 2.53806e-17
4149.75261 2.53974e-17
4151.25516 2.51721e-17
4152.75771 2.49470e-17
4154.26026 2.48101e-17
4155.75279 2.46733e-17
4157.25534 2.44834e-17
4158.75789 2.42935e-17
4160.26044 2.41145e-17
4161.75297 2.39356e-17
4163.25552 2.37761e-17
4164.75807 2.36167e-17
4166.26062 2.39153e-17
4167.75316 2.42138e-17
4169.25571 2.39540e-17
4170.75826 2.36942e-17
4172.26081 2.39571e-17
4173.75334 2.42200e-17
4175.25589 2.44016e-17
4176.75844 2.45832e-17
4178.26099 2.45644e-17
4179.75352 2.45456e-17
4181.25607 2.48530e-17
4182.75862 2.51604e-17
4184.26117 2.51084e-17
4185.75371 2.50564e-17
4187.25625 2.52538e-17
4188.75880 2.54512e-17
4190.26135 2.54964e-17
4191.76390 2.55417e-17
4193.25644 2.57351e-17
4194.75899 2.59286e-17
4196.26154 2.57233e-17
4197.76409 2.55180e-17
4199.25662 2.53704e-17
4200.75917 2.52227e-17
4202.26172 2.53988e-17
4203.76427 2.55749e-17
4205.25680 2.56161e-17
4206.75935 2.56572e-17
4208.26190 2.57402e-17
4209.76445 2.58232e-17
4211.25699 2.56710e-17
4212.75954 2.55189e-17
4214.26209 2.54993e-17
4215.76464 2.54797e-17
4217.25717 2.56939e-17
4218.75972 2.59081e-17
4220.26227 2.57242e-17
4221.76482 2.55404e-17
4223.25735 2.54998e-17
4224.75990 2.54591e-17
4226.26245 2.55327e-17
4227.76500 2.56063e-17
4229.25754 2.55843e-17
4230.76009 2.55623e-17
4232.26264 2.54909e-17
4233.76519 2.54196e-17
4235.25772 2.53300e-17
4236.76027 2.52405e-17
4238.26282 2.55682e-17
4239.76537 2.58958e-17
4241.26792 2.57039e-17
4242.76045 2.55121e-17
4244.26300 2.52156e-17
4245.76555 2.49191e-17
4247.26810 2.48541e-17
4248.76064 2.47890e-17
4250.26319 2.48204e-17
4251.76573 2.48519e-17
4253.26829 2.49086e-17
4254.76082 2.49653e-17
4256.26337 2.50113e-17
4257.76592 2.50573e-17
4259.26847 2.48032e-17
4260.76100 2.45491e-17
4262.26355 2.46927e-17
4263.76610 2.48363e-17
4265.26865 2.50216e-17
4266.76118 2.52068e-17
4268.26373 2.50731e-17
4269.76628 2.49393e-17
4271.26883 2.51489e-17
4272.76137 2.53584e-17
4274.26392 2.53355e-17
4275.76647 2.53126e-17
4277.26902 2.52712e-17
4278.76155 2.52299e-17
4280.26410 2.52369e-17
4281.76665 2.52440e-17
4283.26920 2.51757e-17
4284.77175 2.51074e-17
4286.26428 2.52428e-17
4287.76683 2.53782e-17
4289.26938 2.53368e-17
4290.77193 2.52955e-17
4292.26447 2.52958e-17
4293.76702 2.52961e-17
4295.26957 2.50978e-17
4296.77212 2.48995e-17
4298.26465 2.49594e-17
4299.76720 2.50193e-17
4301.26975 2.50591e-17
4302.77230 2.50989e-17
4304.26483 2.47706e-17
4305.76738 2.44423e-17
4307.26993 2.44186e-17
4308.77248 2.43950e-17
4310.26501 2.43038e-17
4311.76757 2.42126e-17
4313.27012 2.41672e-17
4314.77267 2.41218e-17
4316.26520 2.40123e-17
4317.76775 2.39028e-17
4319.27030 2.38161e-17
4320.77285 2.37295e-17
4322.26538 2.33951e-17
4323.76793 2.30608e-17
4325.27048 2.29571e-17
4326.77303 2.28535e-17
4328.27558 2.26968e-17
4329.76811 2.25402e-17
4331.27066 2.24979e-17
4332.77321 2.24556e-17
4334.27576 2.23476e-17
4335.76830 2.22396e-17
4337.27085 2.19328e-17
4338.77340 2.16260e-17
4340.27595 2.16167e-17
4341.76848 2.16074e-17
4343.27103 2.14483e-17
4344.77358 2.12893e-17
4346.27613 2.12065e-17
4347.76866 2.11237e-17
4349.27121 2.09742e-17
4350.77376 2.08248e-17
4352.27631 2.05466e-17
4353.76885 2.04802e-17
4355.27140 2.04138e-17
4356.77395 2.03475e-17
4358.27650 2.02811e-17
4359.76903 2.02147e-17
4361.27158 2.01484e-17
4362.77413 2.00820e-17
4364.27668 2.00157e-17
4365.76921 1.99494e-17
4367.27176 1.98831e-17
4368.77431 1.98168e-17
4370.27686 1.97505e-17
4371.76940 1.96842e-17
4373.27195 1.96179e-17
4374.77450 1.95516e-17
4376.27705 1.94854e-17
4377.77960 1.94191e-17
4379.27213 1.93528e-17
4380.77468 1.92866e-17
4382.27723 1.92204e-17
4383.77978 1.91542e-17
4385.27231 1.90880e-17
4386.77486 1.90217e-17
4388.27741 1.89556e-17
4389.77996 1.88893e-17
4391.27249 1.88262e-17
4392.77504 1.87630e-17
4394.27759 1.87169e-17
4395.78014 1.86709e-17
4397.27268 1.88741e-17
4398.77523 1.90773e-17
4400.27778 1.89801e-17
4401.78033 1.88830e-17
4403.27286 1.89881e-17
4404.77541 1.90933e-17
4406.27796 1.92139e-17
4407.78051 1.93344e-17
4409.27304 1.92426e-17
4410.77559 1.91508e-17
4412.27814 1.92417e-17
4413.78069 1.93326e-17
4415.28324 1.94107e-17
4416.77578 1.94888e-17
4418.27833 1.94401e-17
4419.78088 1.93915e-17
4421.28343 1.93269e-17
4422.77596 1.92623e-17
4424.27851 1.92737e-17
4425.78106 1.92851e-17
4427.28361 1.95480e-17
4428.77614 1.98108e-17
4430.27869 1.97645e-17
4431.78124 1.97182e-17
4433.28379 1.99338e-17
4434.77632 2.01494e-17
4436.27887 2.01658e-17
4437.78143 2.01823e-17
4439.28398 2.03189e-17
4440.77651 2.04554e-17
4442.27906 2.04229e-17
4443.78161 2.03905e-17
4445.28416 2.05073e-17
4446.77669 2.06242e-17
4448.27924 2.09613e-17
4449.78179 2.12984e-17
4451.28434 2.15049e-17
4452.78689 2.17114e-17
4454.27942 2.18243e-17
4455.78197 2.19371e-17
4457.28452 2.20076e-17
4458.77706 2.20782e-17
4460.27961 2.23369e-17
4461.78216 2.25955e-17
4463.28471 2.28235e-17
4464.78726 2.30514e-17
4466.27979 2.29670e-17
4467.78234 2.28826e-17
4469.28489 2.28242e-17
4470.78744 2.27658e-17
4472.27997 2.29621e-17
4473.78252 2.31583e-17
4475.28507 2.35069e-17
4476.78762 2.38555e-17
4478.28016 2.38877e-17
4479.78271 2.39199e-17
4481.28526 2.39193e-17
4482.78781 2.39189e-17
4484.28034 2.44086e-17
4485.78289 2.48982e-17
4487.28544 2.49181e-17
4488.78799 2.49380e-17
4490.28052 2.47950e-17
4491.78307 2.46520e-17
4493.28562 2.51141e-17
4494.78817 2.55761e-17
4496.28071 2.57195e-17
4497.78325 2.58629e-17
4499.28580 2.59860e-17
4500.78835 2.61090e-17
4502.29090 2.62613e-17
4503.78344 2.64136e-17
4505.28599 2.63692e-17
4506.78854 2.63248e-17
4508.29109 2.64913e-17
4509.78362 2.66578e-17
4511.28617 2.65785e-17
4512.78872 2.64993e-17
4514.29127 2.66663e-17
4515.78380 2.68332e-17
4517.28635 2.71794e-17
4518.78890 2.75256e-17
4520.29145 2.75895e-17
4521.78399 2.76534e-17
4523.28654 2.76386e-17
4524.78909 2.76239e-17
4526.29164 2.79025e-17
4527.78417 2.81811e-17
4529.28672 2.84463e-17
4530.78927 2.87114e-17
4532.29182 2.89532e-17
4533.78435 2.91950e-17
4535.28690 2.92786e-17
4536.78945 2.93622e-17
4538.29200 2.94874e-17
4539.78454 2.96126e-17
4541.28709 2.96692e-17
4542.78964 2.97258e-17
4544.29219 2.96011e-17
4545.79474 2.94765e-17
4547.28727 2.95934e-17
4548.78982 2.97103e-17
4550.29237 3.00253e-17
4551.79492 3.03403e-17
4553.28745 3.04956e-17
4554.79000 3.06510e-17
4556.29255 3.06031e-17
4557.79510 3.05551e-17
4559.28764 3.04851e-17
4560.79019 3.04150e-17
4562.29273 3.03973e-17
4563.79529 3.03796e-17
4565.28782 3.06431e-17
4566.79037 3.09066e-17
4568.29292 3.09055e-17
4569.79547 3.09044e-17
4571.28800 3.10433e-17
4572.79055 3.11821e-17
4574.29310 3.12253e-17
4575.79565 3.12686e-17
4577.28818 3.10543e-17
4578.79073 3.08400e-17
4580.29328 3.11146e-17
4581.79583 3.13890e-17
4583.28837 3.13782e-17
4584.79092 3.13674e-17
4586.29347 3.12297e-17
4587.79602 3.10920e-17
4589.29857 3.10363e-17
4590.79110 3.09806e-17
4592.29365 3.09829e-17
4593.79620 3.09852e-17
4595.29875 3.08830e-17
4596.79128 3.07808e-17
4598.29383 3.07423e-17
4599.79638 3.07037e-17
4601.29893 3.05410e-17
4602.79147 3.03783e-17
4604.29402 3.04659e-17
4605.79657 3.05535e-17
4607.29912 3.06077e-17
4608.79165 3.06620e-17
4610.29420 3.05658e-17
4611.79675 3.04696e-17
4613.29930 3.03076e-17
4614.79183 3.01456e-17
4616.29438 3.00626e-17
4617.79693 2.99795e-17
4619.29948 2.99181e-17
4620.79201 2.98566e-17
4622.29457 2.97930e-17
4623.79712 2.97294e-17
4625.29966 2.96808e-17
4626.79220 2.96322e-17
4628.29475 2.96192e-17
4629.79730 2.96063e-17
4631.29985 2.96519e-17
4632.80240 2.96975e-17
4634.29493 2.95138e-17
4635.79748 2.93302e-17
4637.30003 2.90005e-17
4638.80258 2.86708e-17
4640.29511 2.88576e-17
4641.79766 2.90445e-17
4643.30021 2.87667e-17
4644.80276 2.84891e-17
4646.29530 2.83986e-17
4647.79785 2.83081e-17
4649.30040 2.83769e-17
4650.80295 2.84456e-17
4652.29548 2.81650e-17
4653.79803 2.78845e-17
4655.30058 2.77486e-17
4656.80313 2.76127e-17
4658.29566 2.76662e-17
4659.79821 2.77196e-17
4661.30076 2.76583e-17
4662.80331 2.75970e-17
4664.29585 2.73703e-17
4665.79840 2.71437e-17
4667.30095 2.68435e-17
4668.80350 2.65433e-17
4670.29603 2.65873e-17
4671.79858 2.66313e-17
4673.30113 2.65572e-17
4674.80368 2.64830e-17
4676.29621 2.59010e-17
4677.79876 2.53191e-17
4679.30131 2.52417e-17
4680.80386 2.51643e-17
4682.30641 2.51137e-17
4683.79895 2.50631e-17
4685.30150 2.49286e-17
4686.80405 2.47940e-17
4688.30660 2.45140e-17
4689.79913 2.42341e-17
4691.30168 2.40022e-17
4692.80423 2.37704e-17
4694.30678 2.36629e-17
4695.79931 2.35553e-17
4697.30186 2.33288e-17
4698.80441 2.31022e-17
4700.30696 2.29639e-17
4701.79949 2.28257e-17
4703.30204 2.25228e-17
4704.80459 2.22201e-17
4706.30714 2.20052e-17
4707.79968 2.17904e-17
4709.30223 2.16383e-17
4710.80478 2.14861e-17
4712.30733 2.14459e-17
4713.79986 2.14056e-17
4715.30241 2.12168e-17
4716.80496 2.10281e-17
4718.30751 2.09171e-17
4719.80004 2.08062e-17
4721.30259 2.06172e-17
4722.80514 2.04283e-17
4724.30769 2.03181e-17
4725.81024 2.02078e-17
4727.30278 2.01384e-17
4728.80533 2.00689e-17
4730.30788 1.97060e-17
4731.81043 1.93431e-17
4733.30296 1.92230e-17
4734.80551 1.91029e-17
4736.30806 1.90461e-17
4737.81061 1.89893e-17
4739.30314 1.87643e-17
4740.80569 1.85395e-17
4742.30824 1.84753e-17
4743.81079 1.84112e-17
4745.30332 1.83152e-17
4746.80588 1.82192e-17
4748.30843 1.80806e-17
4749.81098 1.79420e-17
4751.30351 1.76768e-17
4752.80606 1.74116e-17
4754.30861 1.72093e-17
4755.81116 1.70070e-17
4757.30369 1.68567e-17
4758.80624 1.67065e-17
4760.30879 1.66663e-17
4761.81134 1.66261e-17
4763.30387 1.66701e-17
4764.80642 1.67142e-17
4766.30897 1.65747e-17
4767.81152 1.64352e-17
4769.31407 1.64463e-17
4770.80661 1.64574e-17
4772.30916 1.65058e-17
4773.81171 1.65541e-17
4775.31426 1.64904e-17
4776.80679 1.64268e-17
4778.30934 1.65437e-17
4779.81189 1.66607e-17
4781.31444 1.67871e-17
4782.80697 1.69134e-17
4784.30952 1.69734e-17
4785.81207 1.70332e-17
4787.31462 1.69743e-17
4788.80716 1.69154e-17
4790.30971 1.68604e-17
4791.81226 1.68053e-17
4793.31481 1.69970e-17
4794.80734 1.71885e-17
4796.30989 1.70125e-17
4797.81244 1.68365e-17
4799.31499 1.69206e-17
4800.80752 1.70046e-17
4802.31007 1.71774e-17
4803.81262 1.73501e-17
4805.31517 1.72237e-17
4806.81772 1.70972e-17
4808.31025 1.72470e-17
4809.81280 1.73967e-17
4811.31535 1.72989e-17
4812.81790 1.72011e-17
4814.31044 1.72053e-17
4815.81299 1.72095e-17
4817.31554 1.70896e-17
4818.81809 1.69696e-17
4820.31062 1.70636e-17
4821.81317 1.71575e-17
4823.31572 1.72221e-17
4824.81827 1.72866e-17
4826.31080 1.71714e-17
4827.81335 1.70563e-17
4829.31590 1.69775e-17
4830.81845 1.68987e-17
4832.31099 1.69252e-17
4833.81354 1.69518e-17
4835.31609 1.70220e-17
4836.81864 1.70922e-17
4838.31117 1.69908e-17
4839.81372 1.68894e-17
4841.31627 1.67265e-17
4842.81882 1.65636e-17
4844.31135 1.65411e-17
4845.81390 1.65186e-17
4847.31645 1.65753e-17
4848.81900 1.66320e-17
4850.31154 1.65877e-17
4851.81409 1.66721e-17
4853.31664 1.67566e-17
4854.81919 1.68410e-17
4856.32174 1.69254e-17
4857.81427 1.70098e-17
4859.31682 1.70942e-17
4860.81937 1.71786e-17
4862.32192 1.72630e-17
4863.81445 1.73473e-17
4865.31700 1.74317e-17
4866.81955 1.75160e-17
4868.32210 1.76003e-17
4869.81464 1.76846e-17
4871.31719 1.77688e-17
4872.81974 1.78531e-17
4874.32229 1.79374e-17
4875.81482 1.80216e-17
4877.31737 1.81058e-17
4878.81992 1.81900e-17
4880.32247 1.82742e-17
4881.81500 1.83584e-17
4883.31755 1.84426e-17
4884.82010 1.85268e-17
4886.32265 1.86109e-17
4887.81518 1.86950e-17
4889.31773 1.88840e-17
4890.82028 1.90730e-17
4892.32283 1.91144e-17
4893.82538 1.91558e-17
4895.31792 1.91485e-17
4896.82047 1.91413e-17
4898.32302 1.93107e-17
4899.82557 1.94800e-17
4901.31810 1.94321e-17
4902.82065 1.93841e-17
4904.32320 1.95176e-17
4905.82575 1.96511e-17
4907.31828 1.96273e-17
4908.82083 1.96035e-17
4910.32338 1.97094e-17
4911.82593 1.98152e-17
4913.31847 1.97543e-17
4914.82102 1.96933e-17
4916.32357 1.97157e-17
4917.82612 1.97380e-17
4919.31865 1.97799e-17
4920.82120 1.98219e-17
4922.32375 1.98650e-17
4923.82630 1.99080e-17
4925.31883 1.96873e-17
4926.82138 1.94665e-17
4928.32393 1.93808e-17
4929.82648 1.92952e-17
4931.31902 1.93254e-17
4932.82157 1.93557e-17
4934.32412 1.92485e-17
4935.82666 1.91414e-17
4937.31920 1.91472e-17
4938.82175 1.91530e-17
4940.32430 1.90823e-17
4941.82685 1.90116e-17
4943.32940 1.89958e-17
4944.82193 1.89799e-17
4946.32448 1.89515e-17
4947.82703 1.89231e-17
4949.32958 1.88140e-17
4950.82211 1.87048e-17
4952.32466 1.85956e-17
4953.82721 1.84865e-17
4955.32976 1.83774e-17
4956.82230 1.82683e-17
4958.32485 1.81592e-17
4959.82740 1.80501e-17
4961.32995 1.79411e-17
4962.82248 1.78320e-17
4964.32503 1.77230e-17
4965.82758 1.76140e-17
4967.33013 1.75051e-17
4968.82266 1.73961e-17
4970.32521 1.72872e-17
4971.82776 1.71783e-17
4973.33031 1.70693e-17
4974.82285 1.69605e-17
4976.32540 1.68516e-17
4977.82795 1.67427e-17
4979.33050 1.66339e-17
4980.83305 1.65251e-17
4982.32558 1.64163e-17
4983.82813 1.63076e-17
4985.33068 1.61988e-17
4986.83323 1.60901e-17
4988.32576 1.61165e-17
4989.82831 1.61429e-17
4991.33086 1.60263e-17
4992.83341 1.59098e-17
4994.32595 1.60317e-17
4995.82850 1.61536e-17
4997.33105 1.61824e-17
4998.83360 1.62112e-17
5000.32613 1.62399e-17
5001.82868 1.62687e-17
5003.33123 1.62975e-17
5004.83378 1.63262e-17
5006.32631 1.63550e-17
5007.82886 1.63837e-17
5009.33141 1.64125e-17
5010.83396 1.64412e-17
5012.32649 1.64699e-17
5013.82904 1.64987e-17
5015.33159 1.65274e-17
5016.83414 1.65561e-17
5018.32668 1.65848e-17
5019.82923 1.66136e-17
5021.33178 1.66423e-17
5022.83433 1.66710e-17
5024.32686 1.66997e-17
5025.82941 1.67284e-17
5027.33196 1.67571e-17
5028.83451 1.67858e-17
5030.32704 1.68144e-17
5031.82959 1.68431e-17
5033.33214 1.68718e-17
5034.83469 1.69005e-17
5036.33724 1.69749e-17
5037.82978 1.70493e-17
5039.33233 1.71102e-17
5040.83488 1.71710e-17
5042.33743 1.71938e-17
5043.82996 1.72165e-17
5045.33251 1.72434e-17
5046.83506 1.72704e-17
5048.33761 1.74233e-17
5049.83014 1.75762e-17
5051.33269 1.78167e-17
5052.83524 1.80572e-17
5054.33779 1.79388e-17
5055.83032 1.78205e-17
5057.33288 1.79462e-17
5058.83543 1.80718e-17
5060.33798 1.81091e-17
5061.83051 1.81464e-17
5063.33306 1.81823e-17
5064.83561 1.82183e-17
5066.33816 1.82071e-17
5067.83069 1.81959e-17
5069.33324 1.82022e-17
5070.83579 1.82086e-17
5072.33834 1.83383e-17
5073.84089 1.84680e-17
5075.33342 1.87227e-17
5076.83597 1.89774e-17
5078.33852 1.88740e-17
5079.84107 1.87707e-17
5081.33361 1.87088e-17
5082.83616 1.86470e-17
5084.33871 1.87233e-17
5085.84126 1.87996e-17
5087.33379 1.88717e-17
5088.83634 1.89437e-17
5090.33889 1.88898e-17
5091.84144 1.88360e-17
5093.33397 1.88747e-17
5094.83652 1.89135e-17
5096.33907 1.87868e-17
5097.84162 1.86601e-17
5099.33416 1.87865e-17
5100.83671 1.89130e-17
5102.33926 1.88001e-17
5103.84181 1.86874e-17
5105.33434 1.88241e-17
5106.83689 1.89608e-17
5108.33944 1.89774e-17
5109.84199 1.89940e-17
5111.33452 1.90236e-17
5112.83707 1.90533e-17
5114.33962 1.91426e-17
5115.84217 1.92318e-17
5117.33471 1.90969e-17
5118.83725 1.89620e-17
5120.33980 1.90515e-17
5121.84235 1.91409e-17
5123.34490 1.91279e-17
5124.83744 1.91149e-17
5126.33999 1.91151e-17
5127.84254 1.91154e-17
5129.34509 1.92220e-17
5130.83762 1.93285e-17
5132.34017 1.92159e-17
5133.84272 1.91034e-17
5135.34527 1.91429e-17
5136.83780 1.91825e-17
5138.34035 1.92176e-17
5139.84290 1.92527e-17
5141.34545 1.92117e-17
5142.83799 1.91708e-17
5144.34054 1.92396e-17
5145.84309 1.93085e-17
5147.34564 1.93042e-17
5148.83817 1.92999e-17
5150.34072 1.93295e-17
5151.84327 1.93591e-17
5153.34582 1.93446e-17
5154.83835 1.93302e-17
5156.34090 1.94681e-17
5157.84345 1.96059e-17
5159.34600 1.96283e-17
5160.83854 1.96507e-17
5162.34109 1.98447e-17
5163.84364 2.00386e-17
5165.34619 1.99822e-17
5166.84874 1.99258e-17
5168.34127 2.01503e-17
5169.84382 2.03747e-17
5171.34637 2.04221e-17
5172.84892 2.04695e-17
5174.34145 2.05854e-17
5175.84400 2.07013e-17
5177.34655 2.09149e-17
5178.84910 2.11285e-17
5180.34164 2.10667e-17
5181.84418 2.10050e-17
5183.34674 2.10939e-17
5184.84929 2.11828e-17
5186.34182 2.11139e-17
5187.84437 2.10452e-17
5189.34692 2.11333e-17
5190.84947 2.12215e-17
5192.34200 2.13340e-17
5193.84455 2.14465e-17
5195.34710 2.15572e-17
5196.84965 2.16678e-17
5198.34218 2.17541e-17
5199.84473 2.18403e-17
5201.34728 2.18897e-17
5202.84983 2.19391e-17
5204.34237 2.18816e-17
5205.84492 2.18242e-17
5207.34747 2.19876e-17
5208.85002 2.21510e-17
5210.35257 2.22221e-17
5211.84510 2.22932e-17
5213.34765 2.24035e-17
5214.85020 2.25138e-17
5216.35275 2.27074e-17
5217.84528 2.29009e-17
5219.34783 2.28062e-17
5220.85038 2.27115e-17
5222.35293 2.27097e-17
5223.84547 2.27079e-17
5225.34802 2.28306e-17
5226.85057 2.29533e-17
5228.35312 2.29974e-17
5229.84565 2.30415e-17
5231.34820 2.30475e-17
5232.85075 2.30534e-17
5234.35330 2.31411e-17
5235.84583 2.32288e-17
5237.34838 2.32926e-17
5238.85093 2.33564e-17
5240.35348 2.31820e-17
5241.84602 2.30077e-17
5243.34857 2.30835e-17
5244.85112 2.31593e-17
5246.35366 2.33880e-17
5247.85621 2.36166e-17
5249.34875 2.35145e-17
5250.85130 2.34123e-17
5252.35385 2.33407e-17
5253.85640 2.32690e-17
5255.34893 2.33631e-17
5256.85148 2.34572e-17
5258.35403 2.36148e-17
5259.85658 2.37724e-17
5261.34911 2.37516e-17
5262.85166 2.37309e-17
5264.35421 2.36320e-17
5265.85676 2.35331e-17
5267.34930 2.35989e-17
5268.85185 2.36647e-17
5270.35440 2.36582e-17
5271.85695 2.36517e-17
5273.34948 2.36831e-17
5274.85203 2.37144e-17
5276.35458 2.38466e-17
5277.85713 2.39787e-17
5279.34966 2.37697e-17
5280.85221 2.35607e-17
5282.35476 2.34516e-17
5283.85731 2.33424e-17
5285.34985 2.33440e-17
5286.85240 2.33456e-17
5288.35495 2.34145e-17
5289.85750 2.34834e-17
5291.36005 2.33729e-17
5292.85258 2.32623e-17
5294.35513 2.32546e-17
5295.85768 2.32469e-17
5297.36023 2.31557e-17
5298.85276 2.30644e-17
5300.35531 2.29535e-17
5301.85786 2.28425e-17
5303.36041 2.29814e-17
5304.85295 2.31202e-17
5306.35550 2.31478e-17
5307.85805 2.31753e-17
5309.36060 2.30697e-17
5310.85313 2.29641e-17
5312.35568 2.28686e-17
5313.85823 2.27732e-17
5315.36078 2.26829e-17
5316.85331 2.25927e-17
5318.35586 2.25893e-17
5319.85841 2.25858e-17
5321.36096 2.26119e-17
5322.85349 2.26379e-17
5324.35604 2.25302e-17
5325.85859 2.24225e-17
5327.36114 2.23893e-17
5328.85368 2.23561e-17
5330.35623 2.22915e-17
5331.85878 2.22269e-17
5333.36133 2.21112e-17
5334.86388 2.19955e-17
5336.35641 2.19462e-17
5337.85896 2.18969e-17
5339.36151 2.17899e-17
5340.86406 2.16828e-17
5342.35659 2.16342e-17
5343.85914 2.15855e-17
5345.36169 2.16296e-17
5346.86424 2.16737e-17
5348.35678 2.16080e-17
5349.85933 2.15423e-17
5351.36188 2.14247e-17
5352.86443 2.13072e-17
5354.35696 2.12847e-17
5355.85951 2.12623e-17
5357.36206 2.13797e-17
5358.86461 2.14971e-17
5360.35714 2.14169e-17
5361.85969 2.13368e-17
5363.36224 2.13051e-17
5364.86479 2.12734e-17
5366.35732 2.12208e-17
5367.85988 2.11682e-17
5369.36243 2.11412e-17
5370.86498 2.11142e-17
5372.35751 2.12021e-17
5373.86006 2.12900e-17
5375.36261 2.12053e-17
5376.86516 2.11206e-17
5378.35769 2.09667e-17
5379.86024 2.08128e-17
5381.36279 2.08827e-17
5382.86534 2.09525e-17
5384.36789 2.09819e-17
5385.86042 2.10113e-17
5387.36297 2.09870e-17
5388.86552 2.09627e-17
5390.36807 2.09988e-17
5391.86061 2.10349e-17
5393.36316 2.09761e-17
5394.86571 2.09173e-17
5396.36826 2.10211e-17
5397.86079 2.11249e-17
5399.36334 2.10282e-17
5400.86589 2.09315e-17
5402.36844 2.07809e-17
5403.86097 2.06302e-17
5405.36352 2.06149e-17
5406.86607 2.05996e-17
5408.36862 2.06449e-17
5409.86116 2.06901e-17
5411.36371 2.06794e-17
5412.86626 2.06686e-17
5414.36881 2.07223e-17
5415.86134 2.07760e-17
5417.36389 2.07413e-17
5418.86644 2.07066e-17
5420.36899 2.05891e-17
5421.87154 2.04716e-17
5423.36407 2.04046e-17
5424.86662 2.03375e-17
5426.36917 2.04105e-17
5427.87172 2.04835e-17
5429.36425 2.04290e-17
5430.86680 2.03745e-17
5432.36935 2.03498e-17
5433.87190 2.03250e-17
5435.36444 2.02655e-17
5436.86699 2.02060e-17
5438.36954 2.00861e-17
5439.87209 1.99661e-17
5441.36462 2.00461e-17
5442.86717 2.01261e-17
5444.36972 2.00963e-17
5445.87227 2.00665e-17
5447.36480 1.99893e-17
5448.86735 1.99122e-17
5450.36990 1.99183e-17
5451.87245 1.99244e-17
5453.36499 1.98966e-17
5454.86754 1.98688e-17
5456.37009 1.97376e-17
5457.87264 1.96063e-17
5459.36517 1.95769e-17
5460.86772 1.95475e-17
5462.37027 1.95160e-17
5463.87282 1.94845e-17
5465.36535 1.95151e-17
5466.86790 1.95457e-17
5468.37045 1.96201e-17
5469.87300 1.96944e-17
5471.36554 1.96147e-17
5472.86809 1.95350e-17
5474.37064 1.93961e-17
5475.87319 1.92572e-17
5477.37574 1.91613e-17
5478.86827 1.90655e-17
5480.37082 1.91728e-17
5481.87337 1.92802e-17
5483.37592 1.92318e-17
5484.86845 1.91835e-17
5486.37100 1.90816e-17
5487.87355 1.89796e-17
5489.37610 1.89904e-17
5490.86864 1.90012e-17
5492.37118 1.89388e-17
5493.87374 1.88765e-17
5495.37629 1.87927e-17
5496.86882 1.87090e-17
5498.37137 1.87095e-17
5499.87392 1.87100e-17
5501.37647 1.86697e-17
5502.86900 1.86293e-17
5504.37155 1.84227e-17
5505.87410 1.82161e-17
5507.37665 1.82968e-17
5508.86918 1.83775e-17
5510.37173 1.82773e-17
5511.87428 1.81771e-17
5513.37683 1.80307e-17
5514.87938 1.78843e-17
5516.37192 1.78533e-17
5517.87447 1.78223e-17
5519.37702 1.78095e-17
5520.87957 1.77967e-17
5522.37210 1.76426e-17
5523.87465 1.74885e-17
5525.37720 1.74851e-17
5526.87975 1.74817e-17
5528.37228 1.74975e-17
5529.87483 1.75133e-17
5531.37738 1.74245e-17
5532.87993 1.73358e-17
5534.37247 1.73910e-17
5535.87502 1.74462e-17
5537.37757 1.74645e-17
5538.88012 1.74828e-17
5540.37265 1.73540e-17
5541.87520 1.72253e-17
5543.37775 1.72101e-17
5544.88030 1.71949e-17
5546.37283 1.72590e-17
5547.87538 1.73232e-17
5549.37793 1.72158e-17
5550.88048 1.71085e-17
5552.37302 1.71384e-17
5553.87557 1.71683e-17
5555.37812 1.70623e-17
5556.88066 1.69562e-17
5558.37320 1.68591e-17
5559.87575 1.67619e-17
5561.37830 1.67228e-17
5562.88085 1.66838e-17
5564.38340 1.67496e-17
5565.87593 1.68155e-17
5567.37848 1.68338e-17
5568.88103 1.68521e-17
5570.38358 1.67918e-17
5571.87611 1.67315e-17
5573.37866 1.67184e-17
5574.88121 1.67053e-17
5576.38376 1.67052e-17
5577.87630 1.67051e-17
5579.37885 1.66977e-17
5580.88140 1.66904e-17
5582.38395 1.66260e-17
5583.87648 1.65616e-17
5585.37903 1.64758e-17
5586.88158 1.63901e-17
5588.38413 1.63823e-17
5589.87666 1.63746e-17
5591.37921 1.64197e-17
5592.88176 1.64648e-17
5594.38431 1.64205e-17
5595.87685 1.63762e-17
5597.37940 1.62172e-17
5598.88195 1.60583e-17
5600.38450 1.60899e-17
5601.88705 1.61216e-17
5603.37958 1.62582e-17
5604.88213 1.63948e-17
5606.38468 1.64182e-17
5607.88723 1.64417e-17
5609.37976 1.63881e-17
5610.88231 1.63345e-17
5612.38486 1.62109e-17
5613.88741 1.60873e-17
5615.37995 1.60167e-17
5616.88250 1.59460e-17
5618.38505 1.59045e-17
5619.88760 1.58630e-17
5621.38013 1.58008e-17
5622.88268 1.57386e-17
5624.38523 1.56220e-17
5625.88778 1.55055e-17
5627.38031 1.56135e-17
5628.88286 1.57215e-17
5630.38541 1.56245e-17
5631.88796 1.55277e-17
5633.38049 1.55983e-17
5634.88304 1.56688e-17
5636.38559 1.55128e-17
5637.88814 1.53568e-17
5639.38068 1.52374e-17
5640.88323 1.51181e-17
5642.38578 1.50999e-17
5643.88833 1.50817e-17
5645.39088 1.50203e-17
5646.88341 1.49589e-17
5648.38596 1.50644e-17
5649.88851 1.51698e-17
5651.39106 1.50813e-17
5652.88359 1.49929e-17
5654.38614 1.49352e-17
5655.88869 1.48774e-17
5657.39124 1.47563e-17
5658.88378 1.46352e-17
5660.38633 1.45403e-17
5661.88888 1.44455e-17
5663.39143 1.44886e-17
5664.88396 1.45316e-17
5666.38651 1.44308e-17
5667.88906 1.43299e-17
5669.39161 1.42204e-17
5670.88414 1.41109e-17
5672.38669 1.40879e-17
5673.88924 1.40649e-17
5675.39179 1.40823e-17
5676.88432 1.40997e-17
5678.38688 1.41081e-17
5679.88943 1.41165e-17
5681.39198 1.40037e-17
5682.88451 1.38910e-17
5684.38706 1.38494e-17
5685.88961 1.38079e-17
5687.39216 1.37956e-17
5688.89471 1.37834e-17
5690.38724 1.37929e-17
5691.88979 1.38024e-17
5693.39234 1.37263e-17
5694.89489 1.36503e-17
5696.38742 1.34995e-17
5697.88997 1.33488e-17
5699.39252 1.32888e-17
5700.89507 1.32288e-17
5702.38761 1.31873e-17
5703.89016 1.31458e-17
5705.39271 1.30836e-17
5706.89526 1.30215e-17
5708.38779 1.30933e-17
5709.89034 1.31650e-17
5711.39289 1.31913e-17
5712.89544 1.32175e-17
5714.38797 1.30814e-17
5715.89052 1.29453e-17
5717.39307 1.29069e-17
5718.89562 1.28685e-17
5720.38816 1.28808e-17
5721.89071 1.28932e-17
5723.39326 1.28716e-17
5724.89581 1.28501e-17
5726.38834 1.27845e-17
5727.89089 1.27189e-17
5729.39344 1.27219e-17
5730.89599 1.27250e-17
5732.39854 1.26930e-17
5733.89107 1.26610e-17
5735.39362 1.26404e-17
5736.89617 1.26198e-17
5738.39872 1.26938e-17
5739.89125 1.27677e-17
5741.39380 1.28341e-17
5742.89635 1.29004e-17
5744.39891 1.29730e-17
5745.89144 1.30456e-17
5747.39399 1.30505e-17
5748.89654 1.30553e-17
5750.39909 1.31171e-17
5751.89162 1.31789e-17
5753.39417 1.32609e-17
5754.89672 1.33429e-17
5756.39927 1.32645e-17
5757.89180 1.31861e-17
5759.39435 1.32504e-17
5760.89690 1.33148e-17
5762.39945 1.32625e-17
5763.89199 1.32101e-17
5765.39454 1.32122e-17
5766.89709 1.32144e-17
5768.39964 1.33899e-17
5769.89217 1.35653e-17
5771.39472 1.35406e-17
5772.89727 1.35158e-17
5774.39982 1.35486e-17
5775.90237 1.35815e-17
5777.39490 1.36102e-17
5778.89745 1.36390e-17
5780.40000 1.37303e-17
5781.90255 1.38217e-17
5783.39509 1.38072e-17
5784.89764 1.37927e-17
5786.40019 1.39445e-17
5787.90274 1.40963e-17
5789.39527 1.40970e-17
5790.89782 1.40978e-17
5792.40037 1.39595e-17
5793.90292 1.38213e-17
5795.39545 1.38704e-17
5796.89800 1.39194e-17
5798.40055 1.39207e-17
5799.90310 1.39220e-17
5801.39564 1.38918e-17
5802.89819 1.38616e-17
5804.40074 1.38591e-17
5805.90329 1.38567e-17
5807.39582 1.39620e-17
5808.89837 1.40673e-17
5810.40092 1.41498e-17
5811.90347 1.42323e-17
5813.39600 1.41796e-17
5814.89855 1.41268e-17
5816.40110 1.41130e-17
5817.90365 1.40992e-17
5819.39618 1.41493e-17
5820.89873 1.41994e-17
5822.40128 1.40842e-17
5823.90383 1.39691e-17
5825.40638 1.38899e-17
5826.89892 1.38106e-17
5828.40147 1.39079e-17
5829.90402 1.40051e-17
5831.40657 1.39727e-17
5832.89910 1.39403e-17
5834.40165 1.38877e-17
5835.90420 1.38351e-17
5837.40675 1.37275e-17
5838.89928 1.36199e-17
5840.40183 1.36384e-17
5841.90438 1.36570e-17
5843.40693 1.37002e-17
5844.89947 1.37434e-17
5846.40202 1.37969e-17
5847.90457 1.38505e-17
5849.40712 1.37800e-17
5850.89965 1.37095e-17
5852.40220 1.38045e-17
5853.90475 1.38995e-17
5855.40730 1.38590e-17
5856.89983 1.38186e-17
5858.40238 1.38372e-17
5859.90493 1.38558e-17
5861.40748 1.38450e-17
5862.91003 1.38342e-17
5864.40257 1.38103e-17
5865.90511 1.37863e-17
5867.40766 1.37507e-17
5868.91021 1.37152e-17
5870.40275 1.36675e-17
5871.90530 1.36198e-17
5873.40785 1.36094e-17
5874.91040 1.35991e-17
5876.40293 1.35247e-17
5877.90548 1.34504e-17
5879.40803 1.32649e-17
5880.91058 1.30793e-17
5882.40311 1.28640e-17
5883.90566 1.26486e-17
5885.40821 1.26166e-17
5886.91076 1.25845e-17
5888.40330 1.25834e-17
5889.90585 1.25822e-17
5891.40840 1.25402e-17
5892.91095 1.24981e-17
5894.40348 1.26148e-17
5895.90603 1.27316e-17
5897.40858 1.28742e-17
5898.91113 1.30168e-17
5900.41368 1.30676e-17
5901.90621 1.31183e-17
5903.40876 1.30943e-17
5904.91131 1.30703e-17
5906.40385 1.31704e-17
5907.90640 1.32704e-17
5909.40895 1.31981e-17
5910.91150 1.31258e-17
5912.41405 1.31159e-17
5913.90658 1.31060e-17
5915.40913 1.30878e-17
5916.91168 1.30696e-17
5918.41423 1.31333e-17
5919.90676 1.31969e-17
5921.40931 1.32173e-17
5922.91186 1.32378e-17
5924.41441 1.31594e-17
5925.90695 1.30810e-17
5927.40950 1.30940e-17
5928.91205 1.31071e-17
5930.41460 1.30855e-17
5931.90713 1.30639e-17
5933.40968 1.29260e-17
5934.91223 1.27881e-17
5936.41478 1.26927e-17
5937.90731 1.25973e-17
5939.40986 1.25843e-17
5940.91241 1.25713e-17
5942.41496 1.25507e-17
5943.90749 1.25302e-17
5945.41004 1.25419e-17
5946.91259 1.25535e-17
5948.41514 1.25765e-17
5949.90768 1.25995e-17
5951.41023 1.24890e-17
5952.91278 1.23786e-17
5954.41533 1.23032e-17
5955.91788 1.22278e-17
5957.41041 1.22997e-17
5958.91296 1.23716e-17
5960.41551 1.24212e-17
5961.91806 1.24707e-17
5963.41059 1.24106e-17
5964.91314 1.23506e-17
5966.41569 1.22574e-17
5967.91824 1.21642e-17
5969.41078 1.22039e-17
5970.91333 1.22436e-17
5972.41588 1.21782e-17
5973.91843 1.21129e-17
5975.41096 1.21554e-17
5976.91351 1.21980e-17
5978.41606 1.22163e-17
5979.91861 1.22347e-17
5981.41114 1.21457e-17
5982.91369 1.20568e-17
5984.41624 1.20093e-17
5985.91879 1.19619e-17
5987.41133 1.20525e-17
5988.91388 1.21431e-17
5990.41643 1.21769e-17
5991.91898 1.22106e-17
5993.42153 1.21488e-17
5994.91406 1.20870e-17
5996.41661 1.20735e-17
5997.91916 1.20601e-17
5999.41169 1.21180e-17
6000.91424 1.21759e-17
6002.41679 1.20787e-17
6003.91934 1.19815e-17
6005.42189 1.19651e-17
6006.91442 1.19487e-17
6008.41697 1.19566e-17
6009.91952 1.19646e-17
6011.42207 1.20115e-17
6012.91461 1.20584e-17
6014.41716 1.20332e-17
6015.91971 1.20080e-17
6017.42226 1.19266e-17
6018.91479 1.18453e-17
6020.41734 1.18906e-17
6021.91989 1.19360e-17
6023.42244 1.19834e-17
6024.91497 1.20309e-17
6026.41752 1.21396e-17
6027.92007 1.22483e-17
6029.42262 1.22735e-17
6030.91516 1.22987e-17
6032.41771 1.21528e-17
6033.92026 1.20070e-17
6035.42281 1.20713e-17
6036.91534 1.21355e-17
6038.41789 1.22756e-17
6039.92044 1.24157e-17
6041.42299 1.23996e-17
6042.92554 1.23835e-17
6044.41807 1.22738e-17
6045.92062 1.21641e-17
6047.42317 1.22399e-17
6048.92572 1.23158e-17
6050.41825 1.23376e-17
6051.92080 1.23594e-17
6053.42335 1.23549e-17
6054.92591 1.23503e-17
6056.41844 1.23194e-17
6057.92099 1.22884e-17
6059.42354 1.22989e-17
6060.92609 1.23093e-17
6062.41862 1.22263e-17
6063.92117 1.21432e-17
6065.42372 1.21533e-17
6066.92627 1.21633e-17
6068.41880 1.22691e-17
6069.92135 1.23749e-17
6071.42390 1.23450e-17
6072.92645 1.23152e-17
6074.41899 1.23128e-17
6075.92154 1.23105e-17
6077.42409 1.23096e-17
6078.92664 1.23086e-17
6080.41917 1.22778e-17
6081.92172 1.22471e-17
6083.42427 1.23335e-17
6084.92682 1.24199e-17
6086.42937 1.24239e-17
6087.92190 1.24279e-17
6089.42445 1.23973e-17
6090.92700 1.23667e-17
6092.42955 1.23995e-17
6093.92209 1.24323e-17
6095.42464 1.24093e-17
6096.92719 1.23862e-17
6098.42974 1.23880e-17
6099.92227 1.23897e-17
6101.42482 1.23139e-17
6102.92737 1.22382e-17
6104.42992 1.22185e-17
6105.92245 1.21989e-17
6107.42500 1.23303e-17
6108.92755 1.24617e-17
6110.43010 1.24173e-17
6111.92264 1.23729e-17
6113.42519 1.22904e-17
6114.92774 1.22079e-17
6116.43029 1.22260e-17
6117.92282 1.22440e-17
6119.42537 1.21930e-17
6120.92792 1.21421e-17
6122.43047 1.20102e-17
6123.92300 1.18784e-17
6125.42555 1.18155e-17
6126.92810 1.17526e-17
6128.43065 1.17712e-17
6129.93320 1.17898e-17
6131.42573 1.17512e-17
6132.92828 1.17126e-17
6134.43083 1.16083e-17
6135.93338 1.15040e-17
6137.42592 1.14735e-17
6138.92847 1.14430e-17
6140.43102 1.13789e-17
6141.93357 1.13147e-17
6143.42610 1.10948e-17
6144.92865 1.08750e-17
6146.43120 1.07429e-17
6147.93375 1.06108e-17
6149.42628 1.05991e-17
6150.92883 1.05875e-17
6152.43138 1.05078e-17
6153.93393 1.04281e-17
6155.42647 1.03728e-17
6156.92902 1.03175e-17
6158.43157 1.02051e-17
6159.93412 1.00926e-17
6161.42665 1.00125e-17
6162.92920 9.93228e-18
6164.43175 9.89683e-18
6165.93430 9.86137e-18
6167.42683 9.77555e-18
6168.92938 9.68974e-18
6170.43193 9.71575e-18
6171.93448 9.74176e-18
6173.43703 9.72996e-18
6174.92957 9.71817e-18
6176.43211 9.73782e-18
6177.93466 9.75746e-18
6179.43721 9.62516e-18
6180.92975 9.49288e-18
6182.43230 9.38993e-18
6183.93485 9.28700e-18
6185.43740 9.25658e-18
6186.92993 9.22616e-18
6188.43248 9.18000e-18
6189.93503 9.13385e-18
6191.43758 9.12854e-18
6192.93011 9.12323e-18
6194.43266 9.15856e-18
6195.93521 9.19388e-18
6197.43776 9.20972e-18
6198.93030 9.22555e-18
6200.43285 9.25307e-18
6201.93540 9.28059e-18
6203.43795 9.32089e-18
6204.93048 9.36117e-18
6206.43303 9.25557e-18
6207.93558 9.14998e-18
6209.43813 9.10640e-18
6210.93066 9.06284e-18
6212.43321 9.18999e-18
6213.93576 9.31713e-18
6215.43831 9.40186e-18
6216.94086 9.48657e-18
6218.43340 9.42758e-18
6219.93595 9.36861e-18
6221.43850 9.43153e-18
6222.94105 9.49443e-18
6224.43358 9.47621e-18
6225.93613 9.45799e-18
6227.43868 9.44585e-18
6228.94123 9.43371e-18
6230.43376 9.56808e-18
6231.93631 9.70243e-18
6233.43886 9.73699e-18
6234.94141 9.77154e-18
6236.43395 9.74760e-18
6237.93650 9.72367e-18
6239.43905 9.78245e-18
6240.94160 9.84123e-18
6242.43413 9.92612e-18
6243.93668 1.00110e-17
6245.43923 1.00384e-17
6246.94178 1.00658e-17
6248.43431 1.01262e-17
6249.93686 1.01866e-17
6251.43941 1.02320e-17
6252.94196 1.02774e-17
6254.43449 1.02490e-17
6255.93704 1.02206e-17
6257.43959 1.02768e-17
6258.94214 1.03330e-17
6260.43468 1.04480e-17
6261.93723 1.05630e-17
6263.43978 1.06281e-17
6264.94233 1.06932e-17
6266.44488 1.05081e-17
6267.93741 1.03230e-17
6269.43996 1.02921e-17
6270.94251 1.02611e-17
6272.44506 1.03336e-17
6273.93759 1.04062e-17
6275.44014 1.04545e-17
6276.94269 1.05028e-17
6278.44524 1.06355e-17
6279.93778 1.07683e-17
6281.44033 1.08367e-17
6282.94288 1.09051e-17
6284.44543 1.09575e-17
6285.93796 1.10099e-17
6287.44051 1.10162e-17
6288.94306 1.10224e-17
6290.44561 1.09382e-17
6291.93814 1.08541e-17
6293.44069 1.10099e-17
6294.94324 1.11658e-17
6296.44579 1.13162e-17
6297.93833 1.14665e-17
6299.44088 1.14211e-17
6300.94343 1.13758e-17
6302.44598 1.14376e-17
6303.93851 1.14994e-17
6305.44106 1.16553e-17
6306.94361 1.18111e-17
6308.44616 1.18307e-17
6309.94871 1.18502e-17
6311.44124 1.17741e-17
6312.94379 1.16980e-17
6314.44634 1.17396e-17
6315.94889 1.17812e-17
6317.44142 1.18689e-17
6318.94397 1.19565e-17
6320.44652 1.19799e-17
6321.94907 1.20033e-17
6323.44161 1.19975e-17
6324.94416 1.19917e-17
6326.44671 1.21260e-17
6327.94926 1.22603e-17
6329.44179 1.22169e-17
6330.94434 1.21736e-17
6332.44689 1.22031e-17
6333.94944 1.22327e-17
6335.44197 1.22874e-17
6336.94452 1.23421e-17
6338.44707 1.23849e-17
6339.94962 1.24277e-17
6341.45217 1.24027e-17
6342.94471 1.23777e-17
6344.44726 1.24612e-17
6345.94981 1.25446e-17
6347.44234 1.25714e-17
6348.94489 1.25982e-17
6350.44744 1.25022e-17
6351.94999 1.24062e-17
6353.45254 1.22740e-17
6354.94507 1.21418e-17
6356.44762 1.20779e-17
6357.95017 1.20139e-17
6359.45272 1.20460e-17
6360.94525 1.20780e-17
6362.44780 1.20110e-17
6363.95035 1.19440e-17
6365.45291 1.18813e-17
6366.94544 1.18186e-17
6368.44799 1.17925e-17
6369.95054 1.17664e-17
6371.45309 1.17928e-17
6372.94562 1.18191e-17
6374.44817 1.17422e-17
6375.95072 1.16654e-17
6377.45327 1.14998e-17
6378.94580 1.13341e-17
6380.44835 1.12888e-17
6381.95090 1.12435e-17
6383.45345 1.11050e-17
6384.94599 1.09666e-17
6386.44854 1.09764e-17
6387.95109 1.09862e-17
6389.45364 1.10323e-17
6390.94617 1.10784e-17
6392.44872 1.10450e-17
6393.95127 1.10116e-17
6395.45382 1.09421e-17
6396.95637 1.08727e-17
6398.44890 1.08279e-17
6399.95145 1.07832e-17
6401.45400 1.06727e-17
6402.95655 1.05621e-17
6404.44909 1.05539e-17
6405.95164 1.05457e-17
6407.45419 1.06203e-17
6408.95674 1.06949e-17
6410.44927 1.07333e-17
6411.95182 1.07717e-17
6413.45437 1.09017e-17
6414.95692 1.10317e-17
6416.44945 1.10407e-17
6417.95200 1.10497e-17
6419.45455 1.11040e-17
6420.95710 1.11583e-17
6422.44964 1.11313e-17
6423.95219 1.11043e-17
6425.45474 1.10810e-17
6426.95729 1.10577e-17
6428.44982 1.10522e-17
6429.95237 1.10466e-17
6431.45492 1.11975e-17
6432.95747 1.13483e-17
6434.46002 1.13962e-17
6435.95255 1.14440e-17
6437.45510 1.14403e-17
6438.95765 1.14366e-17
6440.45018 1.15487e-17
6441.95273 1.16608e-17
6443.45528 1.17315e-17
6444.95783 1.18022e-17
6446.46038 1.18305e-17
6447.95292 1.18588e-17
6449.45547 1.18240e-17
6450.95802 1.17892e-17
6452.46057 1.16422e-17
6453.95310 1.14953e-17
6455.45565 1.14774e-17
6456.95820 1.14596e-17
6458.46075 1.15842e-17
6459.95328 1.17088e-17
6461.45583 1.16957e-17
6462.95838 1.16826e-17
6464.46093 1.16313e-17
6465.95347 1.15800e-17
6467.45602 1.16098e-17
6468.95857 1.16396e-17
6470.46112 1.16645e-17
6471.95365 1.16895e-17
6473.45620 1.16646e-17
6474.95875 1.16397e-17
6476.46130 1.16537e-17
6477.95383 1.16676e-17
6479.45638 1.15946e-17
6480.95893 1.15215e-17
6482.46148 1.15185e-17
6483.96403 1.15155e-17
6485.45657 1.15017e-17
6486.95911 1.14878e-17
6488.46166 1.14829e-17
6489.96421 1.14780e-17
6491.45675 1.15433e-17
6492.95930 1.16086e-17
6494.46185 1.16239e-17
6495.96440 1.16391e-17
6497.45693 1.16484e-17
6498.95948 1.16577e-17
6500.46203 1.16877e-17
6501.96458 1.17177e-17
6503.45711 1.16359e-17
6504.95966 1.15541e-17
6506.46221 1.14357e-17
6507.96476 1.13173e-17
6509.45730 1.13570e-17
6510.95985 1.13968e-17
6512.46240 1.14068e-17
6513.96495 1.14168e-17
6515.45748 1.12854e-17
6516.96003 1.11539e-17
6518.46258 1.12091e-17
6519.96513 1.12643e-17
6521.46768 1.12784e-17
6522.96021 1.12925e-17
6524.46276 1.13034e-17
6525.96531 1.13144e-17
6527.46786 1.14002e-17
6528.96040 1.14861e-17
6530.46295 1.15089e-17
6531.96550 1.15316e-17
6533.46805 1.15555e-17
6534.96058 1.15794e-17
6536.46313 1.15178e-17
6537.96568 1.14562e-17
6539.46823 1.13331e-17
6540.96076 1.12101e-17
6542.46331 1.11025e-17
6543.96586 1.10867e-17
6545.46841 1.10710e-17
6546.96095 1.10552e-17
6548.46350 1.10394e-17
6549.96605 1.10237e-17
6551.46860 1.10079e-17
6552.96113 1.09922e-17
6554.46368 1.09764e-17
6555.96623 1.09606e-17
6557.46878 1.09449e-17
6558.96131 1.09291e-17
6560.46386 1.09134e-17
6561.96641 1.08976e-17
6563.46896 1.08819e-17
6564.96149 1.08661e-17
6566.46404 1.08504e-17
6567.96659 1.08346e-17
6569.46914 1.08189e-17
6570.97169 1.08031e-17
6572.46423 1.07874e-17
6573.96678 1.07716e-17
6575.46933 1.07559e-17
6576.97188 1.07402e-17
6578.46441 1.07244e-17
6579.96696 1.07087e-17
6581.46951 1.06929e-17
6582.97206 1.06772e-17
6584.46459 1.06615e-17
6585.96714 1.06457e-17
6587.46969 1.06300e-17
6588.97224 1.06143e-17
6590.46478 1.05985e-17
6591.96733 1.05828e-17
6593.46988 1.05671e-17
6594.97243 1.05514e-17
6596.46496 1.05356e-17
6597.96751 1.05199e-17
6599.47006 1.05042e-17
6600.97261 1.04885e-17
6602.46514 1.04727e-17
6603.96769 1.04570e-17
6605.47024 1.04413e-17
6606.97279 1.04288e-17
6608.46533 1.04268e-17
6609.96788 1.04247e-17
6611.47043 1.04877e-17
6612.97298 1.05506e-17
6614.47552 1.05323e-17
6615.96806 1.05140e-17
6617.47061 1.04571e-17
6618.97316 1.04002e-17
6620.47571 1.03603e-17
6621.96824 1.03204e-17
6623.47079 1.01876e-17
6624.97334 1.00548e-17
6626.47589 1.00121e-17
6627.96842 9.96943e-18
6629.47097 9.95498e-18
6630.97352 9.94054e-18
6632.47607 9.96868e-18
6633.96861 9.99681e-18
6635.47116 9.97634e-18
6636.97371 9.95588e-18
6638.47626 1.00623e-17
6639.96879 1.01686e-17
6641.47134 1.01624e-17
6642.97389 1.01561e-17
6644.47644 9.98968e-18
6645.96897 9.82331e-18
6647.47152 9.74821e-18
6648.97407 9.67313e-18
6650.47662 9.66234e-18
6651.96916 9.65157e-18
6653.47171 9.71310e-18
6654.97426 9.77461e-18
6656.47681 9.69651e-18
6657.97936 9.61843e-18
6659.47189 9.63018e-18
6660.97444 9.64193e-18
6662.47699 9.71694e-18
6663.97954 9.79191e-18
6665.47207 9.68394e-18
6666.97462 9.57600e-18
6668.47717 9.65176e-18
6669.97972 9.72753e-18
6671.47225 9.85404e-18
6672.97480 9.98054e-18
6674.47735 9.92115e-18
6675.97991 9.86176e-18
6677.47244 9.70658e-18
6678.97499 9.55142e-18
6680.47754 9.47432e-18
6681.98009 9.39724e-18
6683.47262 9.40223e-18
6684.97517 9.40724e-18
6686.47772 9.53302e-18
6687.98027 9.65879e-18
6689.47280 9.67881e-18
6690.97535 9.69881e-18
6692.47790 9.56413e-18
6693.98045 9.42946e-18
6695.47299 9.35862e-18
6696.97554 9.28779e-18
6698.47809 9.28926e-18
6699.98064 9.29075e-18
6701.47317 9.44328e-18
6702.97572 9.59579e-18
6704.47827 9.57640e-18
6705.98082 9.55700e-18
6707.48337 9.42898e-18
6708.97590 9.30099e-18
6710.47845 9.31056e-18
6711.98100 9.32014e-18
6713.48355 9.35348e-18
6714.97609 9.38682e-18
6716.47864 9.46276e-18
6717.98119 9.53870e-18
6719.48374 9.51081e-18
6720.97627 9.48291e-18
6722.47882 9.32616e-18
6723.98137 9.16944e-18
6725.48392 9.26624e-18
6726.97645 9.36301e-18
6728.47900 9.28579e-18
6729.98155 9.20858e-18
6731.48410 9.13725e-18
6732.97663 9.06593e-18
6734.47919 9.10122e-18
6735.98174 9.13649e-18
6737.48429 8.98338e-18
6738.97682 8.83030e-18
6740.47937 8.81363e-18
6741.98192 8.79697e-18
6743.48447 8.90554e-18
6744.97700 9.01410e-18
6746.47955 9.11316e-18
6747.98210 9.21221e-18
6749.48465 9.21189e-18
6750.98720 9.21157e-18
6752.47973 9.15807e-18
6753.98228 9.10459e-18
6755.48483 9.05096e-18
6756.98738 8.99733e-18
6758.47992 8.90565e-18
6759.98247 8.81398e-18
6761.48502 8.69947e-18
6762.98757 8.58498e-18
6764.48010 8.51917e-18
6765.98265 8.45340e-18
6767.48520 8.61223e-18
6768.98775 8.77105e-18
6770.48028 8.91638e-18
6771.98283 9.06169e-18
6773.48538 9.05843e-18
6774.98793 9.05516e-18
6776.48047 9.02045e-18
6777.98302 8.98574e-18
6779.48557 8.99148e-18
6780.98812 8.99720e-18
6782.48065 8.93538e-18
6783.98320 8.87356e-18
6785.48575 8.72802e-18
6786.98830 8.58251e-18
6788.48083 8.55215e-18
6789.98338 8.52180e-18
6791.48593 8.53896e-18
6792.98848 8.55614e-18
6794.49103 8.65206e-18
6795.98357 8.74797e-18
6797.48611 8.73334e-18
6798.98866 8.71872e-18
6800.49122 8.72486e-18
6801.98375 8.73100e-18
6803.48630 8.81857e-18
6804.98885 8.90613e-18
6806.49140 8.95059e-18
6807.98393 8.99503e-18
6809.48648 8.82029e-18
6810.98903 8.64557e-18
6812.49158 8.52670e-18
6813.98411 8.40784e-18
6815.48666 8.38042e-18
6816.98921 8.35299e-18
6818.49176 8.38987e-18
6819.98430 8.42673e-18
6821.48685 8.44645e-18
6822.98940 8.46616e-18
6824.49195 8.44577e-18
6825.98448 8.42539e-18
6827.48703 8.45618e-18
6828.98958 8.48696e-18
6830.49213 8.51731e-18
6831.99468 8.54766e-18
6833.48721 8.66660e-18
6834.98976 8.78552e-18
6836.49231 8.75961e-18
6837.99486 8.73370e-18
6839.48740 8.66052e-18
6840.98995 8.58734e-18
6842.49250 8.47698e-18
6843.99505 8.36661e-18
6845.48758 8.35366e-18
6846.99013 8.34072e-18
6848.49268 8.32778e-18
6849.99523 8.31484e-18
6851.48776 8.30190e-18
6852.99031 8.28896e-18
6854.49286 8.27602e-18
6855.99541 8.26309e-18
6857.48795 8.25015e-18
6858.99050 8.23722e-18
6860.49305 8.22428e-18
6861.99560 8.21135e-18
6863.48813 8.19842e-18
6864.99068 8.18549e-18
6866.49323 8.17255e-18
6867.99578 8.15963e-18
6869.48831 8.14670e-18
6870.99086 8.13377e-18
6872.49341 8.12084e-18
6873.99596 8.10792e-18
6875.49851 8.09499e-18
6876.99104 8.08206e-18
6878.49359 8.06914e-18
6879.99614 8.05622e-18
6881.48868 8.04330e-18
6882.99123 8.03037e-18
6884.49378 8.01745e-18
6885.99633 8.00454e-18
6887.49888 7.99162e-18
6888.99141 7.97870e-18
6890.49396 7.96578e-18
6891.99651 7.95287e-18
6893.49906 7.93995e-18
6894.99159 7.92704e-18
6896.49414 7.91412e-18
6897.99669 7.90121e-18
6899.49924 7.88830e-18
6900.99178 7.87539e-18
6902.49433 7.86248e-18
6903.99688 7.84957e-18
6905.49943 7.83666e-18
6906.99196 7.82376e-18
6908.49451 7.81085e-18
6909.99706 7.79794e-18
6911.49961 7.78504e-18
6912.99214 7.77214e-18
6914.49469 7.75924e-18
6915.99724 7.74633e-18
6917.49979 7.73343e-18
6918.99233 7.72053e-18
6920.49488 7.70763e-18
6921.99743 7.69473e-18
6923.49998 7.68184e-18
6925.00252 7.66894e-18
6926.49506 7.65604e-18
6927.99761 7.64315e-18
6929.50016 7.63025e-18
6931.00271 7.61736e-18
6932.49524 7.60447e-18
6933.99779 7.59158e-18
6935.50034 7.57869e-18
6937.00289 7.69562e-18
6938.49542 7.84281e-18
6939.99797 7.98998e-18
6941.50052 8.06728e-18
6943.00307 8.14458e-18
6944.49561 8.19266e-18
6945.99816 8.24076e-18
6947.50071 8.37655e-18
6949.00326 8.51231e-18
6950.49579 8.45695e-18
6951.99834 8.40157e-18
6953.50089 8.21537e-18
6955.00344 8.02920e-18
6956.49597 8.07648e-18
6957.99852 8.12373e-18
6959.50107 7.99568e-18
6961.00362 7.86765e-18
6962.50617 7.87506e-18
6963.99871 7.88249e-18
6965.50126 7.94480e-18
6967.00381 8.00711e-18
6968.50636 8.01353e-18
6969.99889 8.01996e-18
6971.50144 8.11789e-18
6973.00399 8.21581e-18
6974.50654 8.27444e-18
6975.99907 8.33308e-18
6977.50162 8.37892e-18
6979.00417 8.42476e-18
6980.50672 8.49827e-18
6981.99925 8.57177e-18
6983.50180 8.54584e-18
6985.00436 8.51990e-18
6986.50691 8.37492e-18
6987.99944 8.22996e-18
6989.50199 8.16138e-18
6991.00454 8.09281e-18
6992.50709 8.08220e-18
6993.99962 8.07158e-18
6995.50217 8.00158e-18
6997.00472 7.93159e-18
6998.50727 7.87546e-18
6999.99980 7.81934e-18
7001.50235 7.73832e-18
7003.00490 7.65732e-18
7004.50745 7.65827e-18
7005.99999 7.65921e-18
7007.50254 7.59756e-18
7009.00509 7.53594e-18
7010.50764 7.58990e-18
7012.01019 7.64386e-18
7013.50272 7.70917e-18
7015.00527 7.77448e-18
7016.50782 7.86988e-18
7018.01037 7.96527e-18
7019.50290 8.06898e-18
7021.00545 8.17268e-18
7022.50800 8.24063e-18
7024.01055 8.30856e-18
7025.50309 8.27848e-18
7027.00564 8.24840e-18
7028.50819 8.12938e-18
7030.01074 8.01037e-18
7031.50327 7.89581e-18
7033.00582 7.78127e-18
7034.50837 7.69342e-18
7036.01092 7.60558e-18
7037.50345 7.54337e-18
7039.00600 7.48116e-18
7040.50855 7.40533e-18
7042.01110 7.32950e-18
7043.50364 7.15976e-18
7045.00619 6.99004e-18
7046.50874 6.98537e-18
7048.01129 6.98070e-18
7049.50382 6.98200e-18
7051.00637 6.98332e-18
7052.50892 7.06353e-18
7054.01147 7.14374e-18
7055.51402 7.16739e-18
7057.00655 7.19105e-18
7058.50910 7.33545e-18
7060.01165 7.47984e-18
7061.51420 7.63777e-18
7063.00673 7.79568e-18
7064.50928 7.85920e-18
7066.01183 7.92270e-18
7067.51438 7.95795e-18
7069.00692 7.99319e-18
7070.50947 8.03633e-18
7072.01202 8.07946e-18
7073.51457 8.07393e-18
7075.00710 8.06838e-18
7076.50965 7.96827e-18
7078.01220 7.86816e-18
7079.51475 7.75033e-18
7081.00728 7.63251e-18
7082.50983 7.55385e-18
7084.01238 7.47520e-18
7085.51493 7.43659e-18
7087.00747 7.39799e-18
7088.51002 7.42688e-18
7090.01257 7.45577e-18
7091.51512 7.65144e-18
7093.00765 7.84709e-18
7094.51020 8.00772e-18
7096.01275 8.16834e-18
7097.51530 8.25222e-18
7099.01785 8.33609e-18
7100.51038 8.38097e-18
7102.01293 8.42585e-18
7103.51548 8.42108e-18
7105.01803 8.41631e-18
7106.51057 8.38022e-18
7108.01311 8.34412e-18
7109.51566 8.17673e-18
7111.01822 8.00934e-18
7112.51075 7.85151e-18
7114.01330 7.69370e-18
7115.51585 7.67100e-18
7117.01840 7.64831e-18
7118.51093 7.62546e-18
7120.01348 7.60263e-18
7121.51603 7.75266e-18
7123.01858 7.90268e-18
7124.51111 8.05544e-18
7126.01366 8.20820e-18
7127.51621 8.42273e-18
7129.01876 8.63724e-18
7130.51130 8.70460e-18
7132.01385 8.77194e-18
7133.51640 8.77983e-18
7135.01895 8.78773e-18
7136.51148 8.80544e-18
7138.01403 8.82315e-18
7139.51658 8.85968e-18
7141.01913 8.89620e-18
7142.52168 8.83718e-18
7144.01421 8.77817e-18
7145.51676 8.72886e-18
7147.01931 8.67954e-18
7148.52186 8.58074e-18
7150.01440 8.48193e-18
7151.51695 8.32015e-18
7153.01950 8.15839e-18
7154.52205 8.09347e-18
7156.01458 8.02855e-18
7157.51713 7.97767e-18
7159.01968 7.92680e-18
7160.52223 7.97811e-18
7162.01476 8.02944e-18
7163.51731 8.29793e-18
7165.01986 8.56639e-18
7166.52241 8.72151e-18
7168.01495 8.87660e-18
7169.51750 8.89585e-18
7171.02005 8.91509e-18
7172.52260 8.83815e-18
7174.01513 8.76120e-18
7175.51768 8.60716e-18
7177.02023 8.45312e-18
7178.52278 8.15670e-18
7180.01531 7.86034e-18
7181.51786 7.99266e-18
7183.02041 8.12496e-18
7184.52296 8.22304e-18
7186.01549 8.32108e-18
7187.51804 8.18656e-18
7189.02059 8.05206e-18
7190.52314 7.99239e-18
7192.02569 7.93273e-18
7193.51823 7.79675e-18
7195.02078 7.66079e-18
7196.52333 7.61358e-18
7198.02588 7.56639e-18
7199.51841 7.68149e-18
7201.02096 7.79659e-18
7202.52351 8.05467e-18
7204.02606 8.31273e-18
7205.51859 8.60157e-18
7207.02114 8.89036e-18
7208.52369 8.91453e-18
7210.02624 8.93869e-18
7211.51878 8.89439e-18
7213.02133 8.85010e-18
7214.52388 8.86085e-18
7216.02643 8.87162e-18
7217.51896 9.05355e-18
7219.02151 9.23543e-18
7220.52406 9.15286e-18
7222.02661 9.07026e-18
7223.51914 8.67204e-18
7225.02169 8.27389e-18
7226.52424 8.12364e-18
7228.02679 7.97341e-18
7229.51933 7.81094e-18
7231.02188 7.64848e-18
7232.52443 7.43699e-18
7234.02698 7.22557e-18
7235.52952 7.47812e-18
7237.02206 7.73066e-18
7238.52461 8.08659e-18
7240.02716 8.44248e-18
7241.52971 8.75758e-18
7243.02224 9.07261e-18
7244.52479 9.02289e-18
7246.02734 8.97316e-18
7247.52989 8.79450e-18
7249.02242 8.61587e-18
7250.52497 8.58966e-18
7252.02752 8.56343e-18
7253.53007 8.37453e-18
7255.02261 8.18565e-18
7256.52516 7.98130e-18
7258.02771 7.77698e-18
7259.53026 7.62426e-18
7261.02279 7.47158e-18
7262.52534 7.49487e-18
7264.02789 7.51817e-18
7265.53044 7.61775e-18
7267.02297 7.71730e-18
7268.52552 7.62950e-18
7270.02807 7.54171e-18
7271.53062 7.55997e-18
7273.03317 7.57826e-18
7274.52571 7.80073e-18
7276.02826 8.02319e-18
7277.53081 8.16608e-18
7279.03336 8.30895e-18
7280.52589 8.35605e-18
7282.02844 8.40313e-18
7283.53099 8.40581e-18
7285.03354 8.40849e-18
7286.52607 8.38569e-18
7288.02862 8.36289e-18
7289.53117 8.30660e-18
7291.03372 8.25030e-18
7292.52625 8.11270e-18
7294.02880 7.97512e-18
7295.53136 7.93647e-18
7297.03391 7.89784e-18
7298.52644 7.86990e-18
7300.02899 7.84195e-18
7301.53154 7.69100e-18
7303.03409 7.54006e-18
7304.52662 7.42945e-18
7306.02917 7.31887e-18
7307.53172 7.28767e-18
7309.03427 7.25647e-18
7310.52680 7.24593e-18
7312.02935 7.23540e-18
7313.53190 7.19318e-18
7315.03445 7.15099e-18
7316.53700 7.29285e-18
7318.02954 7.43469e-18
7319.53209 7.57696e-18
7321.03464 7.71922e-18
7322.53719 7.81301e-18
7324.02972 7.90680e-18
7325.53227 8.09986e-18
7327.03482 8.29288e-18
7328.53737 8.23293e-18
7330.02990 8.17299e-18
7331.53245 8.05736e-18
7333.03500 7.94174e-18
7334.53755 7.84176e-18
7336.03009 7.74178e-18
7337.53264 7.62654e-18
7339.03519 7.51131e-18
7340.53774 7.39438e-18
7342.03027 7.27747e-18
7343.53282 7.16217e-18
7345.03537 7.04690e-18
7346.53792 7.05669e-18
7348.03045 7.06649e-18
7349.53300 7.20637e-18
7351.03555 7.34623e-18
7352.53810 7.43153e-18
7354.03064 7.51682e-18
7355.53319 7.50962e-18
7357.03574 7.50244e-18
7358.53829 7.64766e-18
7360.03082 7.79288e-18
7361.53337 8.00161e-18
7363.03592 8.21030e-18
7364.53847 8.20094e-18
7366.04102 8.19157e-18
7367.53355 8.16008e-18
7369.03610 8.12859e-18
7370.53865 8.10376e-18
7372.04120 8.07892e-18
7373.53373 7.99913e-18
7375.03628 7.91933e-18
7376.53883 7.78690e-18
7378.04138 7.65447e-18
7379.53392 7.46082e-18
7381.03647 7.26720e-18
7382.53902 7.14950e-18
7384.04157 7.03181e-18
7385.53410 6.99345e-18
7387.03665 6.95507e-18
7388.53920 6.78168e-18
7390.04175 6.60832e-18
7391.53428 6.65151e-18
7393.03683 6.69471e-18
7394.53938 6.95121e-18
7396.04193 7.20764e-18
7397.53447 7.12617e-18
7399.03702 7.04472e-18
7400.53957 7.11610e-18
7402.04212 7.18748e-18
7403.54467 7.37209e-18
7405.03720 7.55668e-18
7406.53975 7.64691e-18
7408.04230 7.73712e-18
7409.54485 7.72776e-18
7411.03738 7.71838e-18
7412.53993 7.62721e-18
7414.04248 7.53603e-18
7415.54503 7.37523e-18
7417.03756 7.21445e-18
7418.54011 7.14225e-18
7420.04266 7.07005e-18
7421.54522 6.95870e-18
7423.03775 6.84735e-18
7424.54030 6.59667e-18
7426.04285 6.34604e-18
7427.54540 6.42992e-18
7429.03793 6.51375e-18
7430.54048 6.21696e-18
7432.04303 5.92023e-18
7433.54558 5.91210e-18
7435.03811 5.90397e-18
7436.54066 5.90393e-18
7438.04321 5.90388e-18
7439.54576 5.87474e-18
7441.03830 5.84558e-18
7442.54085 5.71164e-18
7444.04340 5.57771e-18
7445.54595 5.51003e-18
7447.03848 5.44239e-18
7448.54103 5.67448e-18
7450.04358 5.90653e-18
7451.54613 6.01340e-18
7453.04868 6.12022e-18
7454.54121 5.97839e-18
7456.04376 5.83660e-18
7457.54631 5.86295e-18
7459.04886 5.88930e-18
7460.54140 5.92614e-18
7462.04395 5.96296e-18
7463.54650 5.82916e-18
7465.04905 5.69535e-18
7466.54158 5.36555e-18
7468.04413 5.03580e-18
7469.54668 4.85453e-18
7471.04923 4.67329e-18
7472.54176 4.63913e-18
7474.04431 4.60496e-18
7475.54686 4.43346e-18
7477.04941 4.26199e-18
7478.54195 4.15855e-18
7480.04450 4.05515e-18
7481.54705 4.19821e-18
7483.04960 4.34124e-18
7484.54213 4.39960e-18
7486.04468 4.45795e-18
7487.54723 4.59264e-18
7489.04978 4.72732e-18
7490.54231 4.87960e-18
7492.04486 5.03183e-18
7493.54741 4.85856e-18
7495.04996 4.68531e-18
7496.55251 4.54747e-18
7498.04504 4.40964e-18
7499.54759 4.24590e-18
7501.05014 4.08218e-18
7502.55269 3.97599e-18
7504.04523 3.86981e-18
7505.54778 3.67079e-18
7507.05033 3.47179e-18
7508.55288 3.25706e-18
7510.04541 3.04235e-18
7511.54796 2.84845e-18
7513.05051 2.65461e-18
7514.55306 2.74888e-18
7516.04559 2.84314e-18
7517.54814 2.89341e-18
7519.05069 2.94367e-18
7520.55324 2.97382e-18
7522.04578 3.00396e-18
7523.54833 3.00849e-18
7525.05088 3.01301e-18
7526.55343 3.05118e-18
7528.04596 3.08935e-18
7529.54851 3.26180e-18
7531.05106 3.43421e-18
7532.55361 3.36040e-18
7534.04614 3.28661e-18
7535.54869 3.34283e-18
7537.05124 3.39908e-18
7538.55379 3.76168e-18
7540.05634 4.12419e-18
7541.54888 4.03806e-18
7543.05143 3.95195e-18
7544.55397 3.91220e-18
7546.05652 3.87246e-18
7547.54906 3.78039e-18
7549.05161 3.68834e-18
7550.55416 3.72105e-18
7552.05671 3.75376e-18
7553.54924 3.78649e-18
7555.05179 3.81919e-18
7556.55434 3.85190e-18
7558.05689 3.88461e-18
7559.54942 3.91731e-18
7561.05197 3.95002e-18
7562.55452 3.98271e-18
7564.05707 4.01540e-18
7565.54961 4.04810e-18
7567.05216 4.08079e-18
7568.55471 4.11347e-18
7570.05726 4.14617e-18
7571.54979 4.17885e-18
7573.05234 4.21152e-18
7574.55489 4.24421e-18
7576.05744 4.27688e-18
7577.55999 4.30956e-18
7579.05252 4.34222e-18
7580.55507 4.37488e-18
7582.05762 4.40756e-18
7583.56017 4.44021e-18
7585.05271 4.47287e-18
7586.55526 4.50553e-18
7588.05781 4.53818e-18
7589.56036 4.57083e-18
7591.05289 4.60348e-18
7592.55544 4.63613e-18
7594.05799 4.66877e-18
7595.56054 4.70141e-18
7597.05307 4.73405e-18
7598.55562 4.76669e-18
7600.05817 4.79932e-18
7601.56072 4.83194e-18
7603.05325 4.86458e-18
7604.55580 4.89720e-18
7606.05836 4.92982e-18
7607.56091 4.96245e-18
7609.05344 4.99506e-18
7610.55599 5.02767e-18
7612.05854 5.06029e-18
7613.56109 5.09289e-18
7615.05362 5.12551e-18
7616.55617 5.15811e-18
7618.05872 5.19070e-18
7619.56127 5.22331e-18
7621.05380 5.25590e-18
7622.55635 5.28849e-18
7624.05890 5.32109e-18
7625.56145 5.35367e-18
7627.05399 5.38625e-18
7628.55654 5.41884e-18
7630.05909 5.45142e-18
7631.56164 5.48399e-18
7633.06419 5.51658e-18
7634.55672 5.54914e-18
7636.05927 5.58172e-18
7637.56182 5.61428e-18
7639.06437 5.64684e-18
7640.55690 5.67941e-18
7642.05945 5.71197e-18
7643.56200 5.74452e-18
7645.06455 5.77708e-18
7646.55709 5.80963e-18
7648.05964 5.84217e-18
7649.56219 5.87473e-18
7651.06474 5.90727e-18
7652.55727 5.93981e-18
7654.05982 5.97235e-18
7655.56237 6.00488e-18
7657.06492 6.03742e-18
7658.55745 6.06994e-18
7660.06000 6.10247e-18
7661.56255 6.13500e-18
7663.06510 6.16752e-18
7664.55764 6.20003e-18
7666.06019 6.23256e-18
7667.56274 6.26507e-18
7669.06529 6.29759e-18
7670.56784 6.33009e-18
7672.06037 6.36259e-18
7673.56292 6.39511e-18
7675.06547 6.42760e-18
7676.56802 6.46010e-18
7678.06055 6.49260e-18
7679.56310 6.52509e-18
7681.06565 6.55758e-18
7682.56820 6.26615e-18
7684.06073 5.97478e-18
7685.56328 5.95444e-18
7687.06583 5.93411e-18
7688.56838 6.06781e-18
7690.06092 6.20152e-18
7691.56347 6.55431e-18
7693.06602 6.90709e-18
7694.56857 7.34788e-18
7696.06110 7.78857e-18
7697.56365 7.73425e-18
7699.06620 7.67990e-18
7700.56875 7.44980e-18
7702.06128 7.21974e-18
7703.56383 7.15080e-18
7705.06638 7.08185e-18
7706.56893 6.89487e-18
7708.06147 6.70793e-18
7709.56402 6.63254e-18
7711.06657 6.55715e-18
7712.56912 6.50379e-18
7714.07167 6.45043e-18
7715.56420 6.38966e-18
7717.06675 6.32892e-18
7718.56930 6.42331e-18
7720.07185 6.51771e-18
7721.56438 6.69858e-18
7723.06693 6.87945e-18
7724.56948 7.16117e-18
7726.07203 7.44284e-18
7727.56456 7.59150e-18
7729.06711 7.74013e-18
7730.56966 7.68022e-18
7732.07222 7.62032e-18
7733.56475 7.58939e-18
7735.06730 7.55846e-18
7736.56985 7.55467e-18
7738.07240 7.55090e-18
7739.56493 7.57097e-18
7741.06748 7.59107e-18
7742.57003 7.76289e-18
7744.07258 7.93469e-18
7745.56511 8.01738e-18
7747.06766 8.10006e-18
7748.57021 8.16019e-18
7750.07276 8.22035e-18
7751.56530 8.47776e-18
7753.06785 8.73509e-18
7754.57040 8.51847e-18
7756.07295 8.30185e-18
7757.57550 8.01714e-18
7759.06803 7.73248e-18
7760.57058 7.60726e-18
7762.07313 7.48204e-18
7763.57568 7.24128e-18
7765.06821 7.00054e-18
7766.57076 6.74731e-18
7768.07331 6.49415e-18
7769.57586 6.50684e-18
7771.06840 6.51955e-18
7772.57095 6.64242e-18
7774.07350 6.76527e-18
7775.57605 6.84923e-18
7777.06858 6.93319e-18
7778.57113 7.08524e-18
7780.07368 7.23728e-18
7781.57623 7.37562e-18
7783.06876 7.51398e-18
7784.57131 7.78043e-18
7786.07386 8.04686e-18
7787.57641 8.25050e-18
7789.06895 8.45411e-18
7790.57150 8.54289e-18
7792.07405 8.63162e-18
7793.57660 8.48564e-18
7795.06913 8.33970e-18
7796.57168 8.38896e-18
7798.07423 8.43819e-18
7799.57678 8.24877e-18
7801.06931 8.05934e-18
7802.57186 7.78668e-18
7804.07441 7.51404e-18
7805.57696 7.34680e-18
7807.07951 7.17957e-18
7808.57204 6.97906e-18
7810.07459 6.77859e-18
7811.57714 6.79203e-18
7813.07969 6.80545e-18
7814.57223 6.75085e-18
7816.07478 6.69626e-18
7817.57733 6.67416e-18
7819.07988 6.65208e-18
7820.57241 6.72349e-18
7822.07496 6.79491e-18
7823.57751 6.91147e-18
7825.08006 7.02803e-18
7826.57259 7.28512e-18
7828.07514 7.54217e-18
7829.57769 7.70593e-18
7831.08024 7.86968e-18
7832.57278 8.07373e-18
7834.07533 8.27777e-18
7835.57788 8.50325e-18
7837.08043 8.72869e-18
7838.57296 8.76078e-18
7840.07551 8.79282e-18
7841.57806 8.52677e-18
7843.08061 8.26072e-18
7844.58316 7.88195e-18
7846.07569 7.50322e-18
7847.57824 7.30579e-18
7849.08079 7.10836e-18
7850.58334 6.87989e-18
7852.07588 6.65146e-18
7853.57843 6.58176e-18
7855.08097 6.51207e-18
7856.58353 6.51489e-18
7858.07606 6.51771e-18
7859.57861 6.54537e-18
7861.08116 6.57303e-18
7862.58371 6.62652e-18
7864.07624 6.68001e-18
7865.57879 6.85918e-18
7867.08134 7.03834e-18
7868.58389 7.28072e-18
7870.07642 7.52308e-18
7871.57897 7.72098e-18
7873.08152 7.91885e-18
7874.58407 8.04239e-18
7876.07661 8.16593e-18
7877.57916 8.27822e-18
7879.08171 8.39049e-18
7880.58426 8.46521e-18
7882.07679 8.53988e-18
7883.57934 8.40502e-18
7885.08189 8.27016e-18
7886.58444 8.09217e-18
7888.07697 7.91419e-18
7889.57952 7.61694e-18
7891.08207 7.31972e-18
7892.58462 7.06832e-18
7894.08717 6.81695e-18
7895.57971 6.64243e-18
7897.08226 6.46791e-18
7898.58481 6.31224e-18
7900.08736 6.15659e-18
7901.57989 6.07390e-18
7903.08244 5.99122e-18
7904.58499 5.96457e-18
7906.08754 5.93793e-18
7907.58007 6.01521e-18
7909.08262 6.09250e-18
7910.58517 6.32740e-18
7912.08772 6.56227e-18
7913.58025 6.74771e-18
7915.08281 6.93313e-18
7916.58536 7.03480e-18
7918.08791 7.13648e-18
7919.58044 7.35155e-18
7921.08299 7.56658e-18
7922.58554 7.61229e-18
7924.08809 7.65801e-18
7925.58062 7.84953e-18
7927.08317 8.04099e-18
7928.58572 7.99678e-18
7930.08827 7.95259e-18
7931.58080 7.98654e-18
7933.08335 8.02048e-18
7934.58590 7.89287e-18
7936.08845 7.76526e-18
7937.59100 7.49816e-18
7939.08354 7.23110e-18
7940.58609 7.01695e-18
7942.08864 6.80282e-18
7943.59119 6.59770e-18
7945.08372 6.39261e-18
7946.58627 6.29682e-18
7948.08882 6.20104e-18
7949.59137 6.06026e-18
7951.08390 5.91948e-18
7952.58645 5.69886e-18
7954.08900 5.47828e-18
7955.59155 5.49980e-18
7957.08409 5.52133e-18
7958.58664 5.64911e-18
7960.08919 5.77687e-18
7961.59174 5.89038e-18
7963.08427 6.00389e-18
7964.58682 6.14111e-18
7966.08937 6.27833e-18
7967.59192 6.47443e-18
7969.08445 6.67051e-18
7970.58700 6.76650e-18
7972.08955 6.86248e-18
7973.59210 6.90156e-18
7975.08464 6.94064e-18
7976.58719 6.99905e-18
7978.08974 7.05744e-18
7979.59229 7.07454e-18
7981.08482 7.09164e-18
7982.58737 7.11719e-18
7984.08992 7.14273e-18
7985.59247 7.02973e-18
7987.09502 6.91675e-18
7988.58755 6.80085e-18
7990.09010 6.68497e-18
7991.59265 6.58030e-18
7993.09520 6.47564e-18
7994.58773 6.29199e-18
7996.09028 6.10835e-18
7997.59283 5.83896e-18
7999.09538 5.56959e-18
8000.58792 5.26729e-18
8002.09047 4.96501e-18
8003.59302 4.72564e-18
8005.09557 4.48633e-18
8006.58810 4.48854e-18
8008.09065 4.49075e-18
8009.59320 4.56052e-18
8011.09575 4.63025e-18
8012.58828 4.52153e-18
8014.09083 4.41284e-18
8015.59338 4.42471e-18
8017.09593 4.43660e-18
8018.58847 4.57568e-18
8020.09102 4.71473e-18
8021.59357 4.76275e-18
8023.09612 4.81078e-18
8024.59867 4.95355e-18
8026.09120 5.09631e-18
8027.59375 5.25258e-18
8029.09630 5.40884e-18
8030.59885 5.48027e-18
8032.09138 5.55168e-18
8033.59393 5.47435e-18
8035.09648 5.39701e-18
8036.59903 5.23350e-18
8038.09156 5.07001e-18
8039.59411 4.92093e-18
8041.09667 4.77189e-18
8042.59922 4.78481e-18
8044.09175 4.79773e-18
8045.59430 4.83476e-18
8047.09685 4.87174e-18
8048.59940 4.59233e-18
8050.09193 4.31295e-18
8051.59448 4.05843e-18
8053.09703 3.80394e-18
8054.59958 3.71324e-18
8056.09211 3.62256e-18
8057.59466 3.63200e-18
8059.09721 3.64144e-18
8060.59976 3.60705e-18
8062.10231 3.57266e-18
8063.59485 3.49650e-18
8065.09740 3.42036e-18
8066.59995 3.38331e-18
8068.09248 3.34630e-18
8069.59503 3.50775e-18
8071.09758 3.66920e-18
8072.60013 3.93995e-18
8074.10268 4.21066e-18
8075.59521 4.35067e-18
8077.09776 4.49065e-18
8078.60031 4.48902e-18
8080.10286 4.48739e-18
8081.59540 4.42978e-18
8083.09795 4.37217e-18
8084.60050 4.30233e-18
8086.10305 4.23251e-18
8087.59558 4.21717e-18
8089.09813 4.20184e-18
8090.60068 4.22861e-18
8092.10323 4.25537e-18
8093.59576 4.17351e-18
8095.09831 4.09165e-18
8096.60086 4.05922e-18
8098.10341 4.02679e-18
8099.59595 4.04110e-18
8101.09850 4.05540e-18
8102.60105 3.95600e-18
8104.10360 3.85659e-18
8105.59613 3.71087e-18
8107.09868 3.56516e-18
8108.60123 3.41252e-18
8110.10378 3.25990e-18
8111.60633 3.11069e-18
8113.09886 2.96151e-18
8114.60141 2.95208e-18
8116.10396 2.94264e-18
8117.60651 2.88252e-18
8119.09904 2.82242e-18
8120.60159 2.83240e-18
8122.10414 2.84237e-18
8123.60669 2.76322e-18
8125.09923 2.68411e-18
8126.60178 2.81153e-18
8128.10433 2.93895e-18
8129.60688 3.15226e-18
8131.09941 3.36553e-18
8132.60196 3.45892e-18
8134.10451 3.55228e-18
8135.60706 3.48647e-18
8137.09959 3.42068e-18
8138.60214 3.39459e-18
8140.10469 3.36852e-18
8141.60724 3.43660e-18
8143.09978 3.50466e-18
8144.60233 3.48637e-18
8146.10488 3.46808e-18
8147.60743 3.42798e-18
8149.09996 3.38788e-18
8150.60251 3.36732e-18
8152.10506 3.34675e-18
8153.60761 3.23436e-18
8155.11016 3.12197e-18
8156.60269 3.03817e-18
8158.10524 2.95437e-18
8159.60779 2.82541e-18
8161.11034 2.69647e-18
8162.60288 2.60622e-18
8164.10543 2.51599e-18
8165.60797 2.48402e-18
8167.11053 2.45205e-18
8168.60306 2.32609e-18
8170.10561 2.20015e-18
8171.60816 2.17430e-18
8173.11071 2.14847e-18
8174.60324 2.28257e-18
8176.10579 2.41662e-18
8177.60834 2.36328e-18
8179.11089 2.30992e-18
8180.60342 2.18831e-18
8182.10597 2.06673e-18
8183.60852 2.06178e-18
8185.11107 2.05685e-18
8186.60361 2.15766e-18
8188.10616 2.25847e-18
8189.60871 2.37104e-18
8191.11126 2.48360e-18
8192.60379 2.64388e-18
8194.10634 2.80414e-18
8195.60889 2.90347e-18
8197.11144 3.00279e-18
8198.61399 3.02846e-18
8200.10652 3.05413e-18
8201.60907 3.07638e-18
8203.11162 3.09861e-18
8204.61417 3.11573e-18
8206.10671 3.13285e-18
8207.60926 3.19417e-18
8209.11181 3.25548e-18
8210.61436 3.31014e-18
8212.10689 3.36476e-18
8213.60944 3.21334e-18
8215.11199 3.06195e-18
8216.61454 2.97792e-18
8218.10707 2.89392e-18
8219.60962 2.93362e-18
8221.11217 2.97331e-18
8222.61472 3.01216e-18
8224.10726 3.05099e-18
8225.60981 3.00062e-18
8227.11235 2.95026e-18
8228.61491 2.97849e-18
8230.10744 3.00669e-18
8231.60999 2.86545e-18
8233.11254 2.72420e-18
8234.61509 2.53586e-18
8236.10762 2.34754e-18
8237.61017 2.29664e-18
8239.11272 2.24575e-18
8240.61527 2.20723e-18
8242.10780 2.16874e-18
8243.61035 2.23171e-18
8245.11290 2.29466e-18
8246.61545 2.25198e-18
8248.11800 2.20931e-18
8249.61054 2.22060e-18
8251.11309 2.23191e-18
8252.61564 2.41093e-18
8254.11819 2.58991e-18
8255.61072 2.60530e-18
8257.11327 2.62071e-18
8258.61582 2.86288e-18
8260.11837 3.10500e-18
8261.61090 3.19813e-18
8263.11345 3.29124e-18
8264.61600 3.27821e-18
8266.11855 3.26520e-18
8267.61109 3.33557e-18
8269.11364 3.40593e-18
8270.61619 3.47191e-18
8272.11874 3.53788e-18
8273.61127 3.64736e-18
8275.11382 3.75681e-18
8276.61637 3.69804e-18
8278.11892 3.63927e-18
8279.62147 3.47749e-18
8281.11400 3.31574e-18
8282.61655 3.31301e-18
8284.11910 3.31027e-18
8285.61163 3.28034e-18
8287.11419 3.25040e-18
8288.61673 3.13620e-18
8290.11928 3.02201e-18
8291.61182 2.95459e-18
8293.11437 2.88716e-18
8294.61692 2.75288e-18
8296.11947 2.61862e-18
8297.62202 2.60611e-18
8299.11455 2.59363e-18
8300.61710 2.77226e-18
8302.11965 2.95086e-18
8303.62220 3.03820e-18
8305.11473 3.12552e-18
8306.61728 3.10556e-18
8308.11983 3.08561e-18
8309.62238 3.08679e-18
8311.11492 3.08799e-18
8312.61747 3.21453e-18
8314.12002 3.34106e-18
8315.62257 3.50532e-18
8317.11510 3.66955e-18
8318.61765 3.70635e-18
8320.12020 3.74316e-18
8321.62275 3.80495e-18
8323.12530 3.86674e-18
8324.61783 3.99668e-18
8326.12038 4.12661e-18
8327.62293 4.17152e-18
8329.12548 4.21642e-18
8330.61802 4.22356e-18
8332.12057 4.23070e-18
8333.62312 4.22000e-18
8335.12567 4.20929e-18
8336.61820 4.12618e-18
8338.12075 4.04308e-18
8339.62330 4.00364e-18
8341.12585 3.96419e-18
8342.61838 3.88079e-18
8344.12093 3.79739e-18
8345.62348 3.59962e-18
8347.12603 3.40190e-18
8348.61857 3.44506e-18
8350.12112 3.48822e-18
8351.62367 3.60587e-18
8353.12622 3.72349e-18
8354.61875 3.76156e-18
8356.12130 3.79965e-18
8357.62385 3.94611e-18
8359.12640 4.09254e-18
8360.61893 4.11605e-18
8362.12148 4.13954e-18
8363.62403 4.09053e-18
8365.12658 4.04155e-18
8366.61911 4.15939e-18
8368.12166 4.27722e-18
8369.62421 4.35728e-18
8371.12676 4.43734e-18
8372.62931 4.54174e-18
8374.12185 4.64614e-18
8375.62440 4.77772e-18
8377.12695 4.90926e-18
8378.62950 4.84751e-18
8380.12203 4.78579e-18
8381.62458 4.89843e-18
8383.12713 5.01103e-18
8384.62968 4.89220e-18
8386.12221 4.77337e-18
8387.62476 4.62982e-18
8389.12731 4.48628e-18
8390.62986 4.37411e-18
8392.12240 4.26195e-18
8393.62495 4.22105e-18
8395.12750 4.18017e-18
8396.63005 4.25394e-18
8398.12258 4.32771e-18
8399.62513 4.43616e-18
8401.12768 4.54461e-18
8402.63023 4.73058e-18
8404.12276 4.91652e-18
8405.62531 4.98617e-18
8407.12786 5.05581e-18
8408.63041 5.04225e-18
8410.12295 5.02872e-18
8411.62550 5.11319e-18
8413.12805 5.19764e-18
8414.63060 5.25049e-18
8416.12313 5.30332e-18
8417.62568 5.34031e-18
8419.12823 5.37729e-18
8420.63078 5.39765e-18
8422.13333 5.41803e-18
8423.62586 5.62824e-18
8425.12841 5.83843e-18
8426.63096 6.05362e-18
8428.13351 6.26876e-18
8429.62604 6.19574e-18
8431.12859 6.12272e-18
8432.63114 6.01900e-18
8434.13369 5.91530e-18
8435.62623 5.86769e-18
8437.12878 5.82008e-18
8438.63133 5.70349e-18
8440.13388 5.58693e-18
8441.62641 5.53839e-18
8443.12896 5.48985e-18
8444.63151 5.41386e-18
8446.13406 5.33785e-18
8447.62659 5.17084e-18
8449.12914 5.00386e-18
8450.63169 4.91271e-18
8452.13424 4.82160e-18
8453.63679 4.89350e-18
8455.12933 4.96542e-18
8456.63188 5.22607e-18
8458.13443 5.48672e-18
8459.62696 5.84731e-18
8461.12951 6.20783e-18
8462.63206 6.29694e-18
8464.13461 6.38602e-18
8465.63716 6.27615e-18
8467.12969 6.16635e-18
8468.63224 6.46147e-18
8470.13479 6.75656e-18
8471.63734 6.88253e-18
8473.12988 7.00847e-18
8474.63242 6.94033e-18
8476.13498 6.87223e-18
8477.63753 6.92702e-18
8479.13006 6.98181e-18
8480.63261 6.96189e-18
8482.13516 6.94196e-18
8483.63771 6.85566e-18
8485.13024 6.76935e-18
8486.63279 6.55043e-18
8488.13534 6.33152e-18
8489.63789 6.09567e-18
8491.13042 5.85988e-18
8492.63297 5.85842e-18
8494.13552 5.85697e-18
8495.63807 5.98090e-18
8497.13061 6.10480e-18
8498.63316 6.18668e-18
8500.13571 6.26853e-18
8501.63826 6.25285e-18
8503.13079 6.23722e-18
8504.63334 6.45577e-18
8506.13589 6.67431e-18
8507.63844 6.96703e-18
8509.14099 7.25970e-18
8510.63352 7.28430e-18
8512.13607 7.30889e-18
8513.63862 7.24137e-18
8515.14117 7.17391e-18
8516.63371 7.39518e-18
8518.13626 7.61644e-18
8519.63881 7.91489e-18
8521.14136 8.21326e-18
8522.63389 8.18466e-18
8524.13644 8.15603e-18
8525.63899 7.91948e-18
8527.14154 7.68294e-18
8528.63407 7.45953e-18
8530.13662 7.23612e-18
8531.63917 6.95135e-18
8533.14172 6.66661e-18
8534.63425 6.46186e-18
8536.13681 6.25715e-18
8537.63935 6.22607e-18
8539.14191 6.19502e-18
8540.63444 6.29130e-18
8542.13699 6.38759e-18
8543.63954 6.53231e-18
8545.14209 6.67704e-18
8546.63462 6.96063e-18
8548.13717 7.24416e-18
8549.63972 7.32559e-18
8551.14227 7.40700e-18
8552.63480 7.42082e-18
8554.13735 7.43467e-18
8555.63990 7.65191e-18
8557.14245 7.86908e-18
8558.64500 7.78087e-18
8560.13754 7.69263e-18
8561.64009 7.43903e-18
8563.14264 7.18551e-18
8564.64519 7.34393e-18
8566.13772 7.50239e-18
8567.64027 7.93886e-18
8569.14282 8.37525e-18
8570.64537 8.49967e-18
8572.13790 8.62404e-18
8573.64045 8.46998e-18
8575.14300 8.31594e-18
8576.64555 8.17480e-18
8578.13809 8.03366e-18
8579.64064 7.80945e-18
8581.14319 7.58523e-18
8582.64574 7.24431e-18
8584.13827 6.90344e-18
8585.64082 6.72446e-18
8587.14337 6.54552e-18
8588.64592 6.53242e-18
8590.14847 6.51931e-18
8591.64100 6.48759e-18
8593.14355 6.45589e-18
8594.64610 6.57378e-18
8596.14865 6.69167e-18
8597.64119 6.79048e-18
8599.14373 6.88932e-18
8600.64628 7.16685e-18
8602.13882 7.44434e-18
8603.64137 7.58371e-18
8605.14392 7.72307e-18
8606.64647 7.89585e-18
8608.14902 8.06862e-18
8609.64155 8.26817e-18
8611.14410 8.46770e-18
8612.64665 8.56957e-18
8614.14920 8.67141e-18
8615.64173 8.63518e-18
8617.14428 8.59894e-18
8618.64683 8.47078e-18
8620.14938 8.34265e-18
8621.64192 8.34355e-18
8623.14447 8.34445e-18
8624.64702 8.33409e-18
8626.14957 8.32368e-18
8627.64210 8.05869e-18
8629.14465 7.79371e-18
8630.64720 7.52160e-18
8632.14975 7.24950e-18
8633.65230 6.98957e-18
8635.14483 6.72965e-18
8636.64738 6.48049e-18
8638.14993 6.23137e-18
8639.65248 6.19314e-18
8641.14502 6.15495e-18
8642.64757 6.30642e-18
8644.15012 6.45787e-18
8645.65267 6.50596e-18
8647.14520 6.55403e-18
8648.64775 6.50643e-18
8650.15030 6.45885e-18
8651.65285 6.53551e-18
8653.14538 6.61216e-18
8654.64793 6.67460e-18
8656.15048 6.73704e-18
8657.65303 6.77553e-18
8659.14557 6.81405e-18
8660.64812 7.02757e-18
8662.15067 7.24106e-18
8663.65322 7.40127e-18
8665.14575 7.56147e-18
8666.64830 7.75244e-18
8668.15085 7.94338e-18
8669.65340 8.06348e-18
8671.14593 8.18355e-18
8672.64848 8.14202e-18
8674.15103 8.10050e-18
8675.65358 8.06360e-18
8677.14611 8.02673e-18
8678.64866 8.19798e-18
8680.15121 8.36919e-18
8681.65376 8.38750e-18
8683.15631 8.40573e-18
8684.64885 7.96391e-18
8686.15140 7.52218e-18
8687.65395 7.50133e-18
8689.15650 7.48042e-18
8690.64903 7.07826e-18
8692.15158 6.67617e-18
8693.65413 6.52419e-18
8695.15668 6.37220e-18
8696.64921 6.08667e-18
8698.15176 5.80117e-18
8699.65431 5.55929e-18
8701.15686 5.31747e-18
8702.64940 5.36401e-18
8704.15195 5.41054e-18
8705.65450 5.40587e-18
8707.15705 5.40120e-18
8708.64958 5.32351e-18
8710.15213 5.24586e-18
8711.65468 5.31808e-18
8713.15723 5.39030e-18
8714.64976 5.46772e-18
8716.15231 5.54515e-18
8717.65486 5.72893e-18
8719.15741 5.91271e-18
8720.65996 6.11800e-18
8722.15250 6.32328e-18
8723.65505 6.53120e-18
8725.15760 6.73911e-18
8726.65013 6.94413e-18
8728.15268 7.14911e-18
8729.65523 7.17676e-18
8731.15778 7.20438e-18
8732.65031 7.08402e-18
8734.15286 6.96369e-18
8735.65541 6.90824e-18
8737.15796 6.85281e-18
8738.66051 6.90832e-18
8740.15304 6.96380e-18
8741.65559 6.87956e-18
8743.15814 6.79528e-18
8744.66069 6.42405e-18
8746.15323 6.05284e-18
8747.65578 5.69849e-18
8749.15833 5.34421e-18
8750.66088 5.21523e-18
8752.15341 5.08627e-18
8753.65596 5.02513e-18
8755.15851 4.96400e-18
8756.66106 4.87541e-18
8758.15359 4.78680e-18
8759.65614 4.56421e-18
8761.15869 4.34166e-18
8762.66124 4.26459e-18
8764.16379 4.18754e-18
8765.65633 4.29971e-18
8767.15888 4.41186e-18
8768.66143 4.44668e-18
8770.16398 4.48150e-18
8771.65651 4.49003e-18
8773.15906 4.49859e-18
8774.66161 4.66601e-18
8776.16416 4.83341e-18
8777.65669 4.98100e-18
8779.15924 5.12858e-18
8780.66179 5.18049e-18
8782.16434 5.23242e-18
8783.65688 5.36132e-18
8785.15942 5.49017e-18
8786.66198 5.36997e-18
8788.16453 5.24982e-18
8789.65706 5.32811e-18
8791.15961 5.40639e-18
8792.66216 5.47650e-18
8794.16471 5.54659e-18
8795.65724 5.53230e-18
8797.15979 5.51800e-18
8798.66234 5.46692e-18
8800.16489 5.41580e-18
8801.65742 5.20378e-18
8803.15997 4.99177e-18
8804.66252 4.80270e-18
8806.16507 4.61365e-18
8807.65761 4.48095e-18
8809.16016 4.34825e-18
8810.66271 4.26718e-18
8812.16526 4.18611e-18
8813.66781 4.08490e-18
8815.16034 3.98370e-18
8816.66289 3.82305e-18
8818.16544 3.66246e-18
8819.66799 3.74429e-18
8821.16052 3.82611e-18
8822.66307 3.88306e-18
8824.16562 3.93999e-18
8825.66817 3.87394e-18
8827.16071 3.80792e-18
8828.66326 3.89286e-18
8830.16581 3.97782e-18
8831.66836 4.23300e-18
8833.16089 4.48815e-18
8834.66344 4.68203e-18
8836.16599 4.87589e-18
8837.66854 5.00113e-18
8839.16107 5.12639e-18
8840.66362 5.42985e-18
8842.16617 5.73328e-18
8843.66872 5.89803e-18
8845.17127 6.06277e-18
8846.66381 6.18530e-18
8848.16635 6.30780e-18
8849.66891 6.33155e-18
8851.16144 6.35527e-18
8852.66399 6.27336e-18
8854.16654 6.19145e-18
8855.66909 6.09489e-18
8857.16162 5.99834e-18
8858.66417 5.88166e-18
8860.16672 5.76497e-18
8861.66927 5.49921e-18
8863.17182 5.23345e-18
8864.66435 4.85106e-18
8866.16690 4.46872e-18
8867.66945 4.24503e-18
8869.17200 4.02139e-18
8870.66454 3.97258e-18
8872.16709 3.92376e-18
8873.66964 3.82290e-18
8875.17219 3.72204e-18
8876.66472 3.68903e-18
8878.16727 3.65605e-18
8879.66982 3.83030e-18
8881.17237 4.00455e-18
8882.66490 4.31109e-18
8884.16745 4.61758e-18
8885.67000 4.78950e-18
8887.17255 4.96141e-18
8888.66509 5.13669e-18
8890.16764 5.31196e-18
8891.67019 5.52639e-18
8893.17274 5.74077e-18
8894.66527 5.73803e-18
8896.16782 5.73529e-18
8897.67037 5.78495e-18
8899.17292 5.83464e-18
8900.66545 6.06239e-18
8902.16800 6.29012e-18
8903.67055 6.46092e-18
8905.17310 6.63171e-18
8906.67565 6.71064e-18
8908.16819 6.78955e-18
8909.67073 6.76980e-18
8911.17328 6.75005e-18
8912.67584 6.76246e-18
8914.16837 6.77483e-18
8915.67092 6.61236e-18
8917.17347 6.44986e-18
8918.67602 6.14581e-18
8920.16855 5.84176e-18
8921.67110 5.48228e-18
8923.17365 5.12281e-18
8924.67620 4.69898e-18
8926.16873 4.27522e-18
8927.67128 4.05512e-18
8929.17383 3.83503e-18
8930.67638 3.62892e-18
8932.16892 3.42283e-18
8933.67147 3.33614e-18
8935.17402 3.24945e-18
8936.67657 3.21171e-18
8938.16910 3.17395e-18
8939.67165 3.03293e-18
8941.17420 2.89197e-18
8942.67675 3.06237e-18
8944.16928 3.23276e-18
8945.67183 3.44617e-18
8947.17438 3.65955e-18
8948.67693 3.76790e-18
8950.17948 3.87625e-18
8951.67202 3.98777e-18
8953.17457 4.09928e-18
8954.67712 4.17612e-18
8956.17967 4.25298e-18
8957.67220 4.53554e-18
8959.17475 4.81809e-18
8960.67730 5.14574e-18
8962.17985 5.47334e-18
8963.67238 5.64656e-18
8965.17493 5.81973e-18
8966.67748 5.80882e-18
8968.18003 5.79789e-18
8969.67257 5.62008e-18
8971.17512 5.44227e-18
8972.67767 5.20384e-18
8974.18022 4.96540e-18
8975.67275 4.60125e-18
8977.17530 4.23711e-18
8978.67785 3.82202e-18
8980.18040 3.40700e-18
8981.67293 3.29008e-18
8983.17548 3.17320e-18
8984.67803 3.19799e-18
8986.18058 3.22274e-18
8987.67311 3.00687e-18
8989.17566 2.79106e-18
8990.67821 2.86573e-18
8992.18076 2.94045e-18
8993.68331 3.27507e-18
8995.17585 3.60964e-18
8996.67840 3.68904e-18
8998.18095 3.76842e-18
8999.68350 3.71858e-18
9001.17603 3.66877e-18
9002.67858 3.79118e-18
9004.18113 3.91360e-18
9005.68368 4.17157e-18
9007.17621 4.42951e-18
9008.67876 4.58595e-18
9010.18131 4.74236e-18
9011.68386 4.73874e-18
9013.17640 4.73511e-18
9014.67895 4.70748e-18
9016.18150 4.67986e-18
9017.68405 4.77010e-18
9019.17658 4.86035e-18
9020.67913 5.05686e-18
9022.18168 5.25330e-18
9023.68423 5.16011e-18
9025.17676 5.06689e-18
9026.67931 4.78860e-18
9028.18186 4.51037e-18
9029.68441 4.54577e-18
9031.18696 4.58114e-18
9032.67950 4.45114e-18
9034.18205 4.32114e-18
9035.68460 4.17651e-18
9037.18714 4.03189e-18
9038.67968 3.87943e-18
9040.18223 3.72695e-18
9041.68478 3.36417e-18
9043.17731 3.00145e-18
9044.67986 2.83654e-18
9046.18241 2.67170e-18
9047.68496 2.84559e-18
9049.18751 3.01947e-18
9050.68004 3.17867e-18
9052.18259 3.33782e-18
9053.68514 3.24179e-18
9055.18769 3.14577e-18
9056.68023 3.14440e-18
9058.18278 3.14308e-18
9059.68533 3.39744e-18
9061.18788 3.65181e-18
9062.68041 3.98889e-18
9064.18296 4.32593e-18
9065.68551 4.50847e-18
9067.18806 4.69102e-18
9068.68059 4.93268e-18
9070.18314 5.17432e-18
9071.68569 5.30789e-18
9073.18824 5.44142e-18
9074.69079 5.31951e-18
9076.18333 5.19766e-18
9077.68588 5.35566e-18
9079.18843 5.51362e-18
9080.69098 5.43913e-18
9082.18351 5.36463e-18
9083.68606 5.19336e-18
9085.18861 5.02214e-18
9086.69116 5.12332e-18
9088.18369 5.22446e-18
9089.68624 5.09609e-18
9091.18879 4.96747e-18
9092.69134 4.67601e-18
9094.18388 4.38464e-18
9095.68642 4.52248e-18
9097.18898 4.66034e-18
9098.69153 4.97175e-18
9100.18406 5.28307e-18
9101.68661 5.13366e-18
9103.18916 4.98421e-18
9104.69171 4.49720e-18
9106.18424 4.01023e-18
9107.68679 3.62795e-18
9109.18934 3.24573e-18
9110.69189 3.06184e-18
