# wavelength flux
3300.98630 2.88879e-18
3302.98472 1.89144e-18
3304.98313 1.94990e-18
3306.98154 3.82996e-18
3308.97996 2.15471e-18
3310.98846 2.68846e-18
3312.98688 3.35148e-18
3314.98529 -4.66227e-19
3316.98371 -8.87805e-19
3318.98212 -1.55701e-18
3320.99063 5.17580e-18
3322.98904 1.58851e-18
3324.98746 2.92227e-18
3326.98587 -3.29005e-20
3328.99438 8.04585e-19
3330.99279 4.18578e-18
3332.99120 2.11594e-18
3334.98962 7.94178e-19
3336.98803 3.77390e-18
3338.99654 2.74585e-18
3340.99495 3.72190e-18
3342.99337 4.79419e-18
3344.99178 3.95506e-18
3346.99020 3.10977e-18
3348.99870 1.65397e-18
3350.99712 2.27871e-19
3352.99553 1.15747e-18
3354.99394 3.57988e-18
3357.00245 3.76841e-18
3359.00087 2.61978e-18
3360.99928 1.63497e-18
3362.99769 3.17944e-18
3364.99611 4.53651e-18
3367.00461 5.74506e-18
3369.00303 2.31809e-18
3371.00144 2.55684e-18
3372.99986 -2.40106e-19
3375.00836 -1.36106e-18
3377.00678 1.00696e-18
3379.00519 3.18503e-18
3381.00361 4.19077e-18
3383.00202 2.20777e-18
3385.01053 1.83811e-18
3387.00894 4.41089e-18
3389.00735 3.86212e-18
3391.00577 2.88299e-18
3393.00418 2.49766e-18
3395.01269 4.76221e-18
3397.01110 3.20300e-18
3399.00952 2.30061e-18
3401.00793 4.09479e-18
3403.01644 9.96423e-19
3405.01485 1.61331e-18
3407.01327 2.21379e-18
3409.01168 9.66965e-19
3411.01009 3.29677e-18
3413.01860 4.11326e-18
3415.01702 7.91513e-19
3417.01543 2.50269e-18
3419.01384 1.76739e-18
3421.01226 2.30588e-18
3423.02076 3.75243e-18
3425.01918 1.87394e-18
3427.01759 3.03895e-18
3429.01601 2.64712e-18
3431.02451 2.87764e-18
3433.02293 3.27804e-18
3435.02134 -5.90394e-19
3437.01976 6.19208e-19
3439.01817 1.86226e-18
3441.02668 3.93085e-18
3443.02509 3.80392e-18
3445.02350 3.18607e-18
3447.02192 2.73735e-18
3449.02033 5.60020e-18
3451.02884 1.72639e-18
3453.02725 3.96227e-18
3455.02567 4.51810e-18
3457.02408 4.41148e-18
3459.03259 4.38913e-18
3461.03100 2.91719e-18
3463.02942 2.81191e-18
3465.02783 3.80322e-18
3467.02624 3.36524e-18
3469.03475 2.78288e-18
3471.03317 3.25413e-18
3473.03158 3.44270e-18
3475.02999 3.08356e-18
3477.03850 3.33703e-18
3479.03691 3.20320e-18
3481.03533 2.71714e-18
3483.03374 3.05527e-18
3485.03216 3.65251e-18
3487.04066 4.08540e-18
3489.03908 5.28292e-18
3491.03749 4.91657e-18
3493.03591 4.27669e-18
3495.03432 3.53818e-18
3497.04283 3.37062e-18
3499.04124 3.21612e-18
3501.03965 2.99898e-18
3503.03807 3.45355e-18
3505.04658 3.95575e-18
3507.04499 3.73074e-18
3509.04340 4.32553e-18
3511.04182 3.66425e-18
3513.04023 2.34153e-18
3515.04874 2.94210e-18
3517.04715 3.75524e-18
3519.04557 3.13153e-18
3521.04398 2.40580e-18
3523.04239 2.55028e-18
3525.05090 4.72444e-18
3527.04932 3.13375e-18
3529.04773 3.46608e-18
3531.04614 1.84217e-18
3533.05465 3.17643e-18
3535.05306 2.73758e-18
3537.05148 2.28979e-18
3539.04989 3.20996e-18
3541.04831 2.71214e-18
3543.05681 3.06947e-18
3545.05523 4.14703e-18
3547.05364 5.22397e-18
3549.05206 3.54673e-18
3551.06056 2.26096e-18
3553.05898 3.85831e-18
3555.05739 4.90778e-18
3557.05580 3.64261e-18
3559.05422 3.42047e-18
3561.06273 2.90620e-18
3563.06114 3.79075e-18
3565.05955 3.16058e-18
3567.05797 3.07047e-18
3569.05638 3.21984e-18
3571.06489 4.57426e-18
3573.06330 3.90422e-18
3575.06172 2.80682e-18
3577.06013 2.85233e-18
3579.06864 2.44911e-18
3581.06705 2.89098e-18
3583.06547 3.73200e-18
3585.06388 2.54963e-18
3587.06229 3.48270e-18
3589.07080 2.89975e-18
3591.06921 4.40860e-18
3593.06763 3.80413e-18
3595.06604 4.74534e-18
3597.06446 3.96135e-18
3599.07296 4.15369e-18
3601.07138 3.83217e-18
3603.06979 4.08882e-18
3605.06821 3.32148e-18
3607.07671 4.14895e-18
3609.07513 4.24552e-18
3611.07354 4.18142e-18
3613.07195 4.18774e-18
3615.07037 4.42774e-18
3617.07888 5.75851e-18
3619.07729 4.82376e-18
3621.07570 3.36188e-18
3623.07412 4.69964e-18
3625.08262 3.94769e-18
3627.08104 3.77046e-18
3629.07945 4.49855e-18
3631.07787 3.05934e-18
3633.07628 3.85838e-18
3635.08479 3.93827e-18
3637.08320 3.67997e-18
3639.08162 3.64358e-18
3641.08003 2.69160e-18
3643.07844 4.16938e-18
3645.08695 4.94019e-18
3647.08536 3.97117e-18
3649.08378 4.02685e-18
3651.08219 5.53180e-18
3653.09070 4.37102e-18
3655.08911 4.50608e-18
3657.08753 2.97889e-18
3659.08594 2.71199e-18
3661.08436 3.34643e-18
3663.09286 3.80449e-18
3665.09128 4.13543e-18
3667.08969 4.53547e-18
3669.08810 4.02805e-18
3671.08652 3.57666e-18
3673.09503 3.98462e-18
3675.09344 4.65889e-18
3677.09185 4.96129e-18
3679.09027 4.32228e-18
3681.09877 4.33409e-18
3683.09719 5.22281e-18
3685.09560 5.66603e-18
3687.09402 4.69208e-18
3689.09243 3.64474e-18
3691.10094 4.12636e-18
3693.09935 3.90613e-18
3695.09777 4.45352e-18
3697.09618 4.18331e-18
3699.10469 3.79648e-18
3701.10310 4.18208e-18
3703.10151 3.91905e-18
3705.09993 3.72974e-18
3707.09834 3.76854e-18
3709.10685 3.62799e-18
3711.10526 2.88150e-18
3713.10368 3.14445e-18
3715.10209 4.05926e-18
3717.10051 4.14540e-18
3719.10901 3.47902e-18
3721.10743 3.79305e-18
3723.10584 3.47670e-18
3725.10425 3.50186e-18
3727.11276 3.75515e-18
3729.11118 3.71951e-18
3731.10959 3.12514e-18
3733.10800 2.56145e-18
3735.10642 3.00804e-18
3737.11492 4.75231e-18
3739.11334 3.60739e-18
3741.11175 3.19432e-18
3743.11017 2.12214e-18
3745.10858 2.09907e-18
3747.11709 2.37252e-18
3749.11550 2.23201e-18
3751.11392 1.43711e-18
3753.11233 1.36976e-18
3755.12084 1.63264e-18
3757.11925 2.56043e-18
3759.11766 3.09206e-18
3761.11608 2.16535e-18
3763.11449 2.67180e-18
3765.12300 3.22831e-18
3767.12141 2.20119e-18
3769.11983 2.00723e-18
3771.11824 1.15009e-18
3773.11666 1.22196e-18
3775.12516 2.75652e-18
3777.12358 1.89235e-18
3779.12199 1.52279e-18
3781.12040 1.09392e-18
3783.12891 1.48990e-18
3785.12733 1.73636e-18
3787.12574 1.56065e-18
3789.12415 2.24061e-18
3791.12257 2.57635e-18
3793.13107 1.48389e-18
3795.12949 1.86515e-18
3797.12790 1.95747e-18
3799.12632 1.44858e-18
3801.13482 8.10351e-19
3803.13324 9.57128e-19
3805.13165 1.12960e-18
3807.13007 7.53236e-19
3809.12848 8.67172e-19
3811.13699 1.49605e-18
3813.13540 1.79343e-18
3815.13381 1.00037e-18
3817.13223 1.93298e-18
3819.13064 1.63345e-18
3821.13915 1.02180e-18
3823.13756 1.11257e-18
3825.13598 1.48392e-18
3827.13439 1.85416e-18
3829.14290 1.34887e-18
3831.14131 1.62779e-18
3833.13973 1.55334e-18
3835.13814 1.37494e-18
3837.13655 1.79523e-18
3839.14506 1.47947e-18
3841.14348 1.08516e-18
3843.14189 1.90219e-18
3845.14030 1.41741e-18
3847.14881 6.05635e-19
3849.14722 1.60932e-18
3851.14564 1.20405e-18
3853.14405 1.94477e-18
3855.14247 1.63109e-18
3857.15097 1.60096e-18
3859.14939 2.16937e-18
3861.14780 2.69819e-18
3863.14622 2.40017e-18
3865.14463 2.53205e-18
3867.15314 2.29194e-18
3869.15155 1.16554e-18
3871.14996 1.00102e-18
3873.14838 1.77307e-18
3875.15689 1.99568e-18
3877.15530 2.16418e-18
3879.15371 2.25771e-18
3881.15213 2.06687e-18
3883.15054 1.88526e-18
3885.15905 1.88816e-18
3887.15746 2.18589e-18
3889.15588 3.05705e-18
3891.15429 2.86306e-18
3893.15270 2.95927e-18
3895.16121 2.78653e-18
3897.15963 3.00448e-18
3899.15804 3.55130e-18
3901.15645 3.04394e-18
3903.16496 3.00600e-18
3905.16337 3.72619e-18
3907.16179 4.02767e-18
3909.16020 3.69975e-18
3911.15862 3.89126e-18
3913.16712 3.01087e-18
3915.16554 3.93740e-18
3917.16395 4.53042e-18
3919.16237 4.77212e-18
3921.16078 5.55095e-18
3923.16929 5.27663e-18
3925.16770 5.21516e-18
3927.16611 5.84801e-18
3929.16453 5.84231e-18
3931.17304 5.77435e-18
3933.17145 6.02529e-18
3935.16986 5.51008e-18
3937.16828 5.32691e-18
3939.16669 5.70092e-18
3941.17520 5.44242e-18
3943.17361 5.43786e-18
3945.17203 5.77377e-18
3947.17044 6.08247e-18
3949.17895 6.11365e-18
3951.17736 5.39791e-18
3953.17578 5.50598e-18
3955.17419 5.88296e-18
3957.17260 5.92262e-18
3959.18111 7.11846e-18
3961.17952 6.88821e-18
3963.17794 6.65178e-18
3965.17635 6.45325e-18
3967.17477 7.21532e-18
3969.18327 7.10994e-18
3971.18169 7.07601e-18
3973.18010 7.52464e-18
3975.17852 7.85328e-18
3977.18702 8.00633e-18
3979.18544 8.21727e-18
3981.18385 8.36455e-18
3983.18226 7.96627e-18
3985.18068 8.45257e-18
3987.18919 8.47976e-18
3989.18760 7.81333e-18
3991.18601 8.10927e-18
3993.18443 8.66955e-18
3995.18284 8.75267e-18
3997.19135 9.16815e-18
3999.18976 9.64837e-18
4001.18818 1.00015e-17
4003.18659 9.78507e-18
4005.19510 1.07874e-17
4007.19351 1.04527e-17
4009.19193 1.00350e-17
4011.19034 1.04079e-17
4013.18875 1.00223e-17
4015.19726 1.04571e-17
4017.19567 1.09127e-17
4019.19409 1.07064e-17
4021.19250 1.15416e-17
4023.19092 1.15059e-17
4025.19942 1.06329e-17
4027.19784 1.11896e-17
4029.19625 1.13488e-17
4031.19467 1.07781e-17
4033.20317 1.11251e-17
4035.20159 1.09882e-17
4037.20000 1.08735e-17
4039.19841 1.12188e-17
4041.19683 1.09073e-17
4043.20534 1.14765e-17
4045.20375 1.21383e-17
4047.20216 1.28277e-17
4049.20058 1.28787e-17
4051.20908 1.06240e-17
4053.20750 1.10265e-17
4055.20591 1.24366e-17
4057.20433 1.23453e-17
4059.20274 1.17213e-17
4061.21125 1.15610e-17
4063.20966 1.14288e-17
4065.20808 1.19350e-17
4067.20649 1.20317e-17
4069.20490 1.16507e-17
4071.21341 1.11919e-17
4073.21182 1.15778e-17
4075.21024 1.10293e-17
4077.20865 1.07835e-17
4079.21716 1.10638e-17
4081.21557 1.04990e-17
4083.21399 1.16796e-17
4085.21240 1.13854e-17
4087.21082 1.10830e-17
4089.21932 1.13519e-17
4091.21774 1.18627e-17
4093.21615 1.16270e-17
4095.21456 1.18888e-17
4097.22307 1.24752e-17
4099.22149 1.17933e-17
4101.21990 1.08378e-17
4103.21831 1.12479e-17
4105.21673 1.16559e-17
4107.22523 1.15834e-17
4109.22365 1.10485e-17
4111.22206 1.05417e-17
4113.22048 1.10757e-17
4115.21889 1.09501e-17
4117.22740 1.02402e-17
4119.22581 1.07744e-17
4121.22422 1.01026e-17
4123.22264 9.91704e-18
4125.23115 9.94238e-18
4127.22956 9.99519e-18
4129.22797 1.01791e-17
4131.22639 9.19412e-18
4133.22480 8.96072e-18
4135.23331 9.19936e-18
4137.23172 9.71559e-18
4139.23014 1.01456e-17
4141.22855 9.87123e-18
4143.22697 9.48862e-18
4145.23547 9.44598e-18
4147.23389 9.36340e-18
4149.23230 8.64825e-18
4151.23071 9.18494e-18
4153.23922 9.71558e-18
4155.23764 9.73668e-18
4157.23605 9.52333e-18
4159.23446 1.01643e-17
4161.23288 9.85313e-18
4163.24138 9.41303e-18
4165.23980 1.02869e-17
4167.23821 9.93407e-18
4169.23663 9.48295e-18
4171.24513 9.20302e-18
4173.24355 9.04204e-18
4175.24196 8.75135e-18
4177.24038 8.90956e-18
4179.23879 8.91901e-18
4181.24730 8.45218e-18
4183.24571 8.05331e-18
4185.24412 8.09825e-18
4187.24254 8.60101e-18
4189.24095 7.51010e-18
4191.24946 7.84851e-18
4193.24787 7.54697e-18
4195.24629 7.74232e-18
4197.24470 8.35175e-18
4199.25321 7.68254e-18
4201.25162 7.68712e-18
4203.25004 7.94300e-18
4205.24845 8.82783e-18
4207.24686 8.59931e-18
4209.25537 7.25450e-18
4211.25378 5.77829e-18
4213.25220 7.47499e-18
4215.25061 8.40227e-18
4217.24903 8.55192e-18
4219.25753 8.73384e-18
4221.25595 8.37434e-18
4223.25436 8.12958e-18
4225.25278 8.37724e-18
4227.26128 8.45782e-18
4229.25970 8.30872e-18
4231.25811 8.37748e-18
4233.25653 8.10812e-18
4235.25494 8.09043e-18
4237.26345 8.04394e-18
4239.26186 8.00686e-18
4241.26027 8.24784e-18
4243.25869 7.79191e-18
4245.26720 7.00204e-18
4247.26561 6.97297e-18
4249.26402 6.81034e-18
4251.26244 7.57503e-18
4253.26085 7.34599e-18
4255.26936 7.16273e-18
4257.26777 7.27545e-18
4259.26619 7.50185e-18
4261.26460 7.61964e-18
4263.26301 7.54348e-18
4265.27152 7.31683e-18
4267.26994 6.96182e-18
4269.26835 7.22557e-18
4271.26676 7.05757e-18
4273.27527 7.32613e-18
4275.27368 7.66339e-18
4277.27210 7.22286e-18
4279.27051 7.43636e-18
4281.26893 7.43882e-18
4283.27743 6.91795e-18
4285.27585 7.15253e-18
4287.27426 7.86015e-18
4289.27268 8.07925e-18
4291.27109 7.31865e-18
4293.27960 7.43338e-18
4295.27801 7.81858e-18
4297.27642 7.46035e-18
4299.27484 7.12713e-18
4301.28334 7.02951e-18
4303.28176 7.76474e-18
4305.28017 7.95420e-18
4307.27859 7.75064e-18
4309.27700 7.87255e-18
4311.28551 7.12759e-18
4313.28392 6.91624e-18
4315.28234 7.12471e-18
4317.28075 7.39159e-18
4319.27916 7.87760e-18
4321.28767 7.36707e-18
4323.28609 7.37971e-18
4325.28450 7.57308e-18
4327.28291 7.29744e-18
4329.29142 7.56183e-18
4331.28983 7.59749e-18
4333.28825 7.50483e-18
4335.28666 6.92696e-18
4337.28508 7.11655e-18
4339.29358 7.43673e-18
4341.29200 7.15784e-18
4343.29041 6.97536e-18
4345.28883 6.77185e-18
4347.29733 6.81151e-18
4349.29575 7.18793e-18
4351.29416 6.95233e-18
4353.29257 6.82350e-18
4355.29099 6.68169e-18
4357.29950 7.03554e-18
4359.29791 7.68302e-18
4361.29632 7.15780e-18
4363.29474 6.39349e-18
4365.29315 6.15339e-18
4367.30166 6.14556e-18
4369.30007 6.21938e-18
4371.29849 6.42152e-18
4373.29690 5.88412e-18
4375.30541 5.84637e-18
4377.30382 6.04575e-18
4379.30224 5.48702e-18
4381.30065 5.58976e-18
4383.29906 5.47469e-18
4385.30757 5.32983e-18
4387.30598 5.29994e-18
4389.30440 5.41361e-18
4391.30281 4.86295e-18
4393.30123 4.60433e-18
4395.30973 4.89965e-18
4397.30815 4.89557e-18
4399.30656 4.81495e-18
4401.30498 5.47356e-18
4403.31348 5.34375e-18
4405.31190 5.09536e-18
4407.31031 5.22463e-18
4409.30872 5.80038e-18
4411.30714 5.58115e-18
4413.31564 4.83492e-18
4415.31406 5.56586e-18
4417.31247 5.80247e-18
4419.31089 6.14099e-18
4421.31939 6.09188e-18
4423.31781 6.21001e-18
4425.31622 6.28025e-18
4427.31464 6.46366e-18
4429.31305 6.74954e-18
4431.32156 6.85017e-18
4433.31997 6.65540e-18
4435.31839 6.04657e-18
4437.31680 6.99140e-18
4439.31521 7.14969e-18
4441.32372 6.88087e-18
4443.32213 6.78695e-18
4445.32055 7.09857e-18
4447.31896 7.51263e-18
4449.32747 6.88945e-18
4451.32588 7.13664e-18
4453.32430 7.63162e-18
4455.32271 7.09503e-18
4457.32113 7.32011e-18
4459.32963 7.76036e-18
4461.32805 7.49369e-18
4463.32646 7.78894e-18
4465.32487 7.56474e-18
4467.32329 7.79585e-18
4469.33180 7.97598e-18
4471.33021 7.42276e-18
4473.32862 8.08852e-18
4475.32704 7.51998e-18
4477.33554 7.33451e-18
4479.33396 7.80977e-18
4481.33237 7.68269e-18
4483.33079 7.49111e-18
4485.32920 7.17480e-18
4487.33771 7.50156e-18
4489.33612 7.80085e-18
4491.33453 7.59574e-18
4493.33295 7.14181e-18
4495.34146 7.86618e-18
4497.33987 8.12145e-18
4499.33828 7.90775e-18
4501.33670 8.22756e-18
4503.33511 8.43710e-18
4505.34362 8.45041e-18
4507.34203 8.23252e-18
4509.34045 7.84235e-18
4511.33886 8.09624e-18
4513.33728 8.20975e-18
4515.34578 8.45000e-18
4517.34420 8.37500e-18
4519.34261 8.09691e-18
4521.34102 7.98000e-18
4523.34953 8.27446e-18
4525.34795 8.48670e-18
4527.34636 8.63590e-18
4529.34477 9.06836e-18
4531.34319 9.01147e-18
4533.35169 9.04839e-18
4535.35011 8.90865e-18
4537.34852 9.46977e-18
4539.34694 9.69577e-18
4541.34535 9.66680e-18
4543.35386 9.70928e-18
4545.35227 9.79761e-18
4547.35069 1.00876e-17
4549.34910 1.07730e-17
4551.35761 1.07509e-17
4553.35602 1.04108e-17
4555.35443 1.05546e-17
4557.35285 1.10082e-17
4559.35126 1.12448e-17
4561.35977 1.13249e-17
4563.35818 1.15232e-17
4565.35660 1.14393e-17
4567.35501 1.19856e-17
4569.35343 1.19375e-17
4571.36193 1.22712e-17
4573.36035 1.21461e-17
4575.35876 1.20952e-17
4577.35717 1.21325e-17
4579.36568 1.23350e-17
4581.36409 1.22756e-17
4583.36251 1.29069e-17
4585.36092 1.31983e-17
4587.35934 1.28908e-17
4589.36784 1.25712e-17
4591.36626 1.23455e-17
4593.36467 1.28078e-17
4595.36309 1.27630e-17
4597.37159 1.30909e-17
4599.37001 1.33662e-17
4601.36842 1.27928e-17
4603.36683 1.28744e-17
4605.36525 1.39899e-17
4607.37376 1.39287e-17
4609.37217 1.40705e-17
4611.37058 1.39261e-17
4613.36900 1.41156e-17
4615.36741 1.39718e-17
4617.37592 1.37273e-17
4619.37433 1.44455e-17
4621.37275 1.46046e-17
4623.37116 1.41723e-17
4625.37967 1.40212e-17
4627.37808 1.40408e-17
4629.37650 1.37992e-17
4631.37491 1.40613e-17
4633.37332 1.45878e-17
4635.38183 1.41435e-17
4637.38025 1.35521e-17
4639.37866 1.43181e-17
4641.37707 1.48161e-17
4643.37549 1.43804e-17
4645.38399 1.42061e-17
4647.38241 1.47245e-17
4649.38082 1.51130e-17
4651.37924 1.50638e-17
4653.38774 1.48701e-17
4655.38616 1.44701e-17
4657.38457 1.51892e-17
4659.38299 1.49475e-17
4661.38140 1.49892e-17
4663.38991 1.50856e-17
4665.38832 1.47109e-17
4667.38673 1.55586e-17
4669.38515 1.54937e-17
4671.39366 1.52216e-17
4673.39207 1.56682e-17
4675.39048 1.56638e-17
4677.38890 1.54664e-17
4679.38731 1.56138e-17
4681.39582 1.56516e-17
4683.39423 1.50396e-17
4685.39265 1.50057e-17
4687.39106 1.55715e-17
4689.38947 1.56946e-17
4691.39798 1.55956e-17
4693.39639 1.52694e-17
4695.39481 1.49062e-17
4697.39322 1.54546e-17
4699.40173 1.53835e-17
4701.40014 1.52314e-17
4703.39856 1.53432e-17
4705.39697 1.49747e-17
4707.39539 1.56939e-17
4709.40389 1.57443e-17
4711.40231 1.49837e-17
4713.40072 1.57188e-17
4715.39914 1.63062e-17
4717.40764 1.61034e-17
4719.40606 1.61879e-17
4721.40447 1.60657e-17
4723.40288 1.61292e-17
4725.40130 1.55447e-17
4727.40981 1.61072e-17
4729.40822 1.58999e-17
4731.40663 1.55558e-17
4733.40505 1.56272e-17
4735.40346 1.52418e-17
4737.41197 1.51488e-17
4739.41038 1.53191e-17
4741.40880 1.52404e-17
4743.40721 1.46340e-17
4745.41572 1.47822e-17
4747.41413 1.46525e-17
4749.41255 1.45050e-17
4751.41096 1.44356e-17
4753.40937 1.42293e-17
4755.41788 1.42948e-17
4757.41629 1.46075e-17
4759.41471 1.37107e-17
4761.41312 1.42968e-17
4763.41154 1.42597e-17
4765.42004 1.43283e-17
4767.41846 1.41128e-17
4769.41687 1.39283e-17
4771.41529 1.39007e-17
4773.42379 1.35350e-17
4775.42221 1.32686e-17
4777.42062 1.27629e-17
4779.41903 1.30837e-17
4781.41745 1.30899e-17
4783.42596 1.27903e-17
4785.42437 1.26315e-17
4787.42278 1.24933e-17
4789.42120 1.25165e-17
4791.41961 1.29466e-17
4793.42812 1.29102e-17
4795.42653 1.26344e-17
4797.42495 1.22765e-17
4799.42336 1.23343e-17
4801.43187 1.27058e-17
4803.43028 1.22955e-17
4805.42869 1.20489e-17
4807.42711 1.19566e-17
4809.42552 1.12242e-17
4811.43403 1.09576e-17
4813.43244 1.13336e-17
4815.43086 1.11759e-17
4817.42927 1.12573e-17
4819.42769 1.15199e-17
4821.43619 1.12074e-17
4823.43461 1.08286e-17
4825.43302 1.05369e-17
4827.43144 1.04285e-17
4829.43994 1.00501e-17
4831.43836 9.98617e-18
4833.43677 1.00298e-17
4835.43518 9.54685e-18
4837.43360 9.63531e-18
4839.44211 9.39042e-18
4841.44052 9.86261e-18
4843.43893 9.98917e-18
4845.43735 8.70234e-18
4847.44585 8.68756e-18
4849.44427 8.75463e-18
4851.44268 8.61315e-18
4853.44110 8.37061e-18
4855.43951 7.99050e-18
4857.44802 7.87136e-18
4859.44643 8.08344e-18
4861.44484 8.07300e-18
4863.44326 7.81421e-18
4865.44167 7.78087e-18
4867.45018 8.04811e-18
4869.44859 8.08808e-18
4871.44701 7.64841e-18
4873.44542 7.58986e-18
4875.45393 7.77276e-18
4877.45234 8.06088e-18
4879.45076 8.22505e-18
4881.44917 7.96643e-18
4883.44758 7.81884e-18
4885.45609 7.39696e-18
4887.45451 7.45034e-18
4889.45292 7.42657e-18
4891.45133 7.34695e-18
4893.44975 7.56095e-18
4895.45826 7.32176e-18
4897.45667 7.29612e-18
4899.45508 6.95282e-18
4901.45350 7.15034e-18
4903.46200 6.69787e-18
4905.46042 7.41723e-18
4907.45883 7.14883e-18
4909.45725 6.69336e-18
4911.45566 6.53554e-18
4913.46417 6.59520e-18
4915.46258 6.69661e-18
4917.46100 6.20345e-18
4919.45941 6.46531e-18
4921.46792 6.61575e-18
4923.46633 6.74365e-18
4925.46474 6.42457e-18
4927.46316 6.58569e-18
4929.46157 6.60322e-18
4931.47008 6.76141e-18
4933.46849 7.03516e-18
4935.46691 7.21462e-18
4937.46532 7.50186e-18
4939.46374 7.59215e-18
4941.47224 7.45488e-18
4943.47066 7.49758e-18
4945.46907 8.08176e-18
4947.46748 8.25870e-18
4949.47599 8.35447e-18
4951.47441 9.18754e-18
4953.47282 9.31342e-18
4955.47123 9.12807e-18
4957.46965 9.20657e-18
4959.47815 9.35634e-18
4961.47657 9.32039e-18
4963.47498 9.65964e-18
4965.47340 1.05254e-17
4967.48190 1.05336e-17
4969.48032 1.08074e-17
4971.47873 1.14762e-17
4973.47714 1.13100e-17
4975.47556 1.14992e-17
4977.48407 1.16528e-17
4979.48248 1.24004e-17
4981.48089 1.30455e-17
4983.47931 1.31692e-17
4985.47772 1.29745e-17
4987.48623 1.33783e-17
4989.48464 1.37245e-17
4991.48306 1.42450e-17
4993.48147 1.49878e-17
4995.48998 1.55190e-17
4997.48839 1.60730e-17
4999.48681 1.57592e-17
5001.48522 1.58498e-17
5003.48363 1.70147e-17
5005.49214 1.71374e-17
5007.49056 1.68379e-17
5009.48897 1.72472e-17
5011.48738 1.66263e-17
5013.48580 1.67357e-17
5015.49430 1.75151e-17
5017.49272 1.75097e-17
5019.49113 1.75515e-17
5021.48955 1.78662e-17
5023.49805 1.76186e-17
5025.49647 1.78326e-17
5027.49488 1.78743e-17
5029.49330 1.81605e-17
5031.49171 1.81040e-17
5033.50022 1.75681e-17
5035.49863 1.77440e-17
5037.49704 1.84916e-17
5039.49546 1.78313e-17
5041.49387 1.75997e-17
5043.50238 1.79924e-17
5045.50079 1.79180e-17
5047.49921 1.78898e-17
5049.49762 1.79013e-17
5051.50613 1.81169e-17
5053.50454 1.77733e-17
5055.50296 1.76946e-17
5057.50137 1.76412e-17
5059.49978 1.76089e-17
5061.50829 1.75530e-17
5063.50671 1.75003e-17
5065.50512 1.76710e-17
5067.50353 1.74723e-17
5069.50195 1.66823e-17
5071.51045 1.63407e-17
5073.50887 1.65920e-17
5075.50728 1.62304e-17
5077.50570 1.60579e-17
5079.51420 1.60075e-17
5081.51262 1.56008e-17
5083.51103 1.60685e-17
5085.50944 1.59510e-17
5087.50786 1.58581e-17
5089.51637 1.53556e-17
5091.51478 1.45303e-17
5093.51319 1.45491e-17
5095.51161 1.45679e-17
5097.52012 1.39341e-17
5099.51853 1.35545e-17
5101.51694 1.28312e-17
5103.51536 1.26099e-17
5105.51377 1.30086e-17
5107.52228 1.28336e-17
5109.52069 1.22211e-17
5111.51911 1.23200e-17
5113.51752 1.27125e-17
5115.51593 1.24243e-17
5117.52444 1.24009e-17
5119.52286 1.15853e-17
5121.52127 1.17947e-17
5123.51968 1.27254e-17
5125.52819 1.27312e-17
5127.52660 1.24580e-17
5129.52502 1.23645e-17
5131.52343 1.25630e-17
5133.52185 1.26744e-17
5135.53035 1.24991e-17
5137.52877 1.32154e-17
5139.52718 1.30224e-17
5141.52560 1.24284e-17
5143.53410 1.25330e-17
5145.53252 1.27871e-17
5147.53093 1.32126e-17
5149.52934 1.36123e-17
5151.52776 1.30441e-17
5153.53627 1.29480e-17
5155.53468 1.36455e-17
5157.53309 1.39809e-17
5159.53151 1.37685e-17
5161.52992 1.34241e-17
5163.53843 1.35898e-17
5165.53684 1.31742e-17
5167.53526 1.29861e-17
5169.53367 1.30876e-17
5171.54218 1.35960e-17
5173.54059 1.34678e-17
5175.53901 1.35824e-17
5177.53742 1.39712e-17
5179.53583 1.38827e-17
5181.54434 1.36663e-17
5183.54275 1.35957e-17
5185.54117 1.34625e-17
5187.53958 1.34514e-17
5189.53800 1.30359e-17
5191.54650 1.39214e-17
5193.54492 1.39987e-17
5195.54333 1.36219e-17
5197.54175 1.37416e-17
5199.55025 1.39438e-17
5201.54867 1.38235e-17
5203.54708 1.36240e-17
5205.54549 1.36054e-17
5207.54391 1.38071e-17
5209.55242 1.42267e-17
5211.55083 1.44035e-17
5213.54924 1.41584e-17
5215.54766 1.42247e-17
5217.55616 1.44238e-17
5219.55458 1.42982e-17
5221.55299 1.43721e-17
5223.55141 1.44910e-17
5225.54982 1.40236e-17
5227.55833 1.41060e-17
5229.55674 1.41043e-17
5231.55516 1.39863e-17
5233.55357 1.37581e-17
5235.55198 1.37077e-17
5237.56049 1.40255e-17
5239.55890 1.40394e-17
5241.55732 1.39941e-17
5243.55573 1.39033e-17
5245.56424 1.37264e-17
5247.56265 1.35486e-17
5249.56107 1.36152e-17
5251.55948 1.37899e-17
5253.55789 1.39538e-17
5255.56640 1.39963e-17
5257.56482 1.39789e-17
5259.56323 1.41492e-17
5261.56164 1.41488e-17
5263.56006 1.39397e-17
5265.56857 1.37972e-17
5267.56698 1.37970e-17
5269.56539 1.41662e-17
5271.56381 1.43667e-17
5273.57231 1.41409e-17
5275.57073 1.37313e-17
5277.56914 1.37202e-17
5279.56756 1.41698e-17
5281.56597 1.43590e-17
5283.57448 1.43379e-17
5285.57289 1.45117e-17
5287.57131 1.44665e-17
5289.56972 1.44968e-17
5291.56813 1.49361e-17
5293.57664 1.49901e-17
5295.57505 1.48068e-17
5297.57347 1.44804e-17
5299.57188 1.50083e-17
5301.58039 1.54802e-17
5303.57880 1.53648e-17
5305.57722 1.51970e-17
5307.57563 1.53707e-17
5309.57405 1.55336e-17
5311.58255 1.56687e-17
5313.58097 1.57771e-17
5315.57938 1.57485e-17
5317.57779 1.62113e-17
5319.58630 1.59564e-17
5321.58472 1.59476e-17
5323.58313 1.54194e-17
5325.58154 1.56306e-17
5327.57996 1.61855e-17
5329.58846 1.60236e-17
5331.58688 1.60882e-17
5333.58529 1.61810e-17
5335.58371 1.61094e-17
5337.58212 1.63804e-17
5339.59063 1.68125e-17
5341.58904 1.68263e-17
5343.58746 1.63495e-17
5345.58587 1.69852e-17
5347.59438 1.72587e-17
5349.59279 1.69331e-17
5351.59120 1.71246e-17
5353.58962 1.72394e-17
5355.58803 1.69776e-17
5357.59654 1.73753e-17
5359.59495 1.70281e-17
5361.59337 1.71096e-17
5363.59178 1.73360e-17
5365.59019 1.75643e-17
5367.59870 1.75983e-17
5369.59712 1.77035e-17
5371.59553 1.74493e-17
5373.59394 1.75255e-17
5375.60245 1.75851e-17
5377.60087 1.76109e-17
5379.59928 1.76219e-17
5381.59769 1.76442e-17
5383.59611 1.77194e-17
5385.60461 1.79605e-17
5387.60303 1.82030e-17
5389.60144 1.83177e-17
5391.59986 1.83585e-17
5393.60836 1.84196e-17
5395.60678 1.85179e-17
5397.60519 1.85680e-17
5399.60361 1.84805e-17
5401.60202 1.83770e-17
5403.61053 1.83695e-17
5405.60894 1.83884e-17
5407.60735 1.83665e-17
5409.60577 1.82977e-17
5411.60418 1.82169e-17
5413.61269 1.81647e-17
5415.61110 1.81831e-17
5417.60952 1.84134e-17
5419.60793 1.86728e-17
5421.61644 1.88515e-17
5423.61485 1.89031e-17
5425.61327 1.88556e-17
5427.61168 1.87213e-17
5429.61009 1.85356e-17
5431.61860 1.83219e-17
5433.61702 1.81528e-17
5435.61543 1.81541e-17
5437.61384 1.82086e-17
5439.61226 1.81585e-17
5441.62076 1.79577e-17
5443.61918 1.77674e-17
5445.61759 1.77551e-17
5447.61601 1.77925e-17
5449.62451 1.78515e-17
5451.62293 1.78710e-17
5453.62134 1.78070e-17
5455.61976 1.76400e-17
5457.61817 1.73957e-17
5459.62668 1.70987e-17
5461.62509 1.68131e-17
5463.62350 1.66121e-17
5465.62192 1.65116e-17
5467.63043 1.65546e-17
5469.62884 1.67041e-17
5471.62725 1.69180e-17
5473.62567 1.71251e-17
5475.62408 1.73036e-17
5477.63259 1.73669e-17
5479.63100 1.73663e-17
5481.62942 1.72548e-17
5483.62783 1.71614e-17
5485.62624 1.72439e-17
5487.63475 1.75306e-17
5489.63317 1.77881e-17
5491.63158 1.77121e-17
5493.62999 1.76116e-17
5495.63850 1.76848e-17
5497.63691 1.78673e-17
5499.63533 1.80883e-17
5501.63374 1.82955e-17
5503.63216 1.84902e-17
5505.64066 1.86454e-17
5507.63908 1.88031e-17
5509.63749 1.90304e-17
5511.63591 1.92419e-17
5513.63432 1.93470e-17
5515.64283 1.93803e-17
5517.64124 1.94337e-17
5519.63965 1.95916e-17
5521.63807 1.97959e-17
5523.64658 2.00668e-17
5525.64499 2.03011e-17
5527.64340 2.04124e-17
5529.64182 2.04095e-17
5531.64023 2.03200e-17
5533.64874 2.01996e-17
5535.64715 2.00972e-17
5537.64557 2.01228e-17
5539.64398 2.01884e-17
5541.64239 2.02839e-17
5543.65090 2.03473e-17
5545.64932 2.03369e-17
5547.64773 2.02237e-17
5549.64614 2.00435e-17
5551.65465 1.98173e-17
5553.65306 1.95438e-17
5555.65148 1.91775e-17
5557.64989 1.88436e-17
5559.64831 1.86452e-17
5561.65681 1.86029e-17
5563.65523 1.86753e-17
5565.65364 1.87975e-17
5567.65206 1.88455e-17
5569.66056 1.85146e-17
5571.65898 1.81292e-17
5573.65739 1.78945e-17
5575.65580 1.78185e-17
5577.65422 1.77960e-17
5579.66273 1.77647e-17
5581.66114 1.77443e-17
5583.65955 1.77058e-17
5585.65797 1.77027e-17
5587.65638 1.78384e-17
5589.66489 1.79698e-17
5591.66330 1.79291e-17
5593.66172 1.76810e-17
5595.66013 1.74003e-17
5597.66864 1.72619e-17
5599.66705 1.71875e-17
5601.66547 1.72134e-17
5603.66388 1.72482e-17
5605.66229 1.72067e-17
5607.67080 1.70844e-17
5609.66921 1.69657e-17
5611.66763 1.69135e-17
5613.66604 1.68490e-17
5615.66446 1.66818e-17
5617.67296 1.64981e-17
5619.67138 1.63252e-17
5621.66979 1.62251e-17
5623.66821 1.62516e-17
5625.67671 1.64202e-17
5627.67513 1.66010e-17
5629.67354 1.66064e-17
5631.67195 1.65563e-17
5633.67037 1.64768e-17
5635.67888 1.63948e-17
5637.67729 1.63097e-17
5639.67570 1.62465e-17
5641.67412 1.62214e-17
5643.68262 1.62796e-17
5645.68104 1.63191e-17
5647.67945 1.62314e-17
5649.67787 1.60829e-17
5651.67628 1.59455e-17
5653.68479 1.58285e-17
5655.68320 1.56735e-17
5657.68162 1.54353e-17
5659.68003 1.51728e-17
5661.67844 1.49238e-17
5663.68695 1.46963e-17
5665.68536 1.45118e-17
5667.68378 1.43520e-17
5669.68219 1.41952e-17
5671.69070 1.40059e-17
5673.68911 1.37745e-17
5675.68753 1.34265e-17
5677.68594 1.30704e-17
5679.68436 1.27764e-17
5681.69286 1.25392e-17
5683.69128 1.23356e-17
5685.68969 1.21330e-17
5687.68810 1.19040e-17
5689.69661 1.15766e-17
5691.69503 1.12692e-17
5693.69344 1.10902e-17
5695.69185 1.09798e-17
5697.69027 1.08805e-17
5699.69877 1.07538e-17
5701.69719 1.06179e-17
5703.69560 1.04689e-17
5705.69402 1.03113e-17
5707.69243 1.01375e-17
5709.70094 9.97180e-18
5711.69935 9.84622e-18
5713.69777 9.74065e-18
5715.69618 9.61504e-18
5717.70469 9.43156e-18
5719.70310 9.22127e-18
5721.70151 8.98896e-18
5723.69993 8.76105e-18
5725.69834 8.56657e-18
5727.70685 8.39485e-18
5729.70526 8.21913e-18
5731.70368 8.02949e-18
5733.70209 7.85055e-18
5735.70051 7.71027e-18
5737.70901 7.58704e-18
5739.70743 7.47625e-18
5741.70584 7.36804e-18
5743.70425 7.23589e-18
5745.71276 7.10720e-18
5747.71118 7.04792e-18
5749.70959 7.14420e-18
5751.70800 7.25979e-18
5753.70642 7.26174e-18
5755.71492 7.22809e-18
5757.71334 7.21655e-18
5759.71175 7.25014e-18
5761.71017 7.31334e-18
5763.70858 7.39576e-18
5765.71709 7.46428e-18
5767.71550 7.43202e-18
5769.71392 7.40823e-18
5771.71233 7.47225e-18
5773.72084 7.61409e-18
5775.71925 7.78981e-18
5777.71766 7.95774e-18
5779.71608 8.11430e-18
5781.71449 8.21042e-18
5783.72300 8.31455e-18
5785.72141 8.46157e-18
5787.71983 8.66817e-18
5789.71824 8.95746e-18
5791.71666 9.30213e-18
5793.72516 9.63572e-18
5795.72358 9.86444e-18
5797.72199 1.00627e-17
5799.72040 1.02510e-17
5801.72891 1.04593e-17
5803.72733 1.07109e-17
5805.72574 1.10122e-17
5807.72415 1.13437e-17
5809.72257 1.16888e-17
5811.73107 1.20414e-17
5813.72949 1.23762e-17
5815.72790 1.27187e-17
5817.72632 1.30901e-17
5819.73482 1.34840e-17
5821.73324 1.38899e-17
5823.73165 1.42881e-17
5825.73007 1.46654e-17
5827.72848 1.49649e-17
5829.73699 1.52699e-17
5831.73540 1.56658e-17
5833.73381 1.60816e-17
5835.73223 1.64132e-17
5837.73064 1.66362e-17
5839.73915 1.68575e-17
5841.73756 1.71872e-17
5843.73598 1.75817e-17
5845.73439 1.80698e-17
5847.74290 1.85918e-17
5849.74131 1.91124e-17
5851.73973 1.95883e-17
5853.73814 2.00246e-17
5855.73655 2.04018e-17
5857.74506 2.07340e-17
5859.74348 2.10168e-17
5861.74189 2.12740e-17
5863.74030 2.15210e-17
5865.74881 2.17676e-17
5867.74722 2.20102e-17
5869.74564 2.22481e-17
5871.74405 2.24710e-17
5873.74247 2.26821e-17
5875.75097 2.28423e-17
5877.74939 2.29016e-17
5879.74780 2.28971e-17
5881.74622 2.28882e-17
5883.74463 2.28949e-17
5885.75314 2.28538e-17
5887.75155 2.26920e-17
5889.74996 2.24774e-17
5891.74838 2.21719e-17
5893.75689 2.19379e-17
5895.75530 2.19116e-17
5897.75371 2.21473e-17
5899.75213 2.25591e-17
5901.75054 2.30757e-17
5903.75905 2.35301e-17
5905.75746 2.36064e-17
5907.75588 2.35657e-17
5909.75429 2.35954e-17
5911.75270 2.37460e-17
5913.76121 2.39446e-17
5915.75963 2.41285e-17
5917.75804 2.42249e-17
5919.75645 2.40045e-17
5921.76496 2.37457e-17
5923.76337 2.36185e-17
5925.76179 2.36316e-17
5927.76020 2.37199e-17
5929.75862 2.38253e-17
5931.76712 2.39198e-17
5933.76554 2.39366e-17
5935.76395 2.38777e-17
5937.76237 2.36906e-17
5939.77087 2.34410e-17
5941.76929 2.31658e-17
5943.76770 2.29360e-17
5945.76611 2.27671e-17
5947.76453 2.27189e-17
5949.77304 2.27534e-17
5951.77145 2.28762e-17
5953.76986 2.30453e-17
5955.76828 2.32484e-17
5957.76669 2.34380e-17
5959.77520 2.35987e-17
5961.77361 2.36876e-17
5963.77203 2.37128e-17
5965.77044 2.36132e-17
5967.77895 2.35062e-17
5969.77736 2.34862e-17
5971.77578 2.35404e-17
5973.77419 2.35937e-17
5975.77260 2.36177e-17
5977.78111 2.36791e-17
5979.77952 2.38817e-17
5981.77794 2.40847e-17
5983.77635 2.42149e-17
5985.77477 2.42427e-17
5987.78327 2.41573e-17
5989.78169 2.39693e-17
5991.78010 2.37176e-17
5993.77852 2.34472e-17
5995.78702 2.32254e-17
5997.78544 2.31776e-17
5999.78385 2.32100e-17
6001.78226 2.32733e-17
6003.78068 2.32866e-17
6005.78919 2.32039e-17
6007.78760 2.29684e-17
6009.78601 2.27566e-17
6011.78443 2.28447e-17
6013.79293 2.29624e-17
6015.79135 2.29095e-17
6017.78976 2.27102e-17
6019.78818 2.25002e-17
6021.78659 2.23810e-17
6023.79510 2.23035e-17
6025.79351 2.22934e-17
6027.79193 2.22798e-17
6029.79034 2.21915e-17
6031.78875 2.20703e-17
6033.79726 2.19892e-17
6035.79567 2.19619e-17
6037.79409 2.19144e-17
6039.79250 2.17642e-17
6041.79092 2.15688e-17
6043.79942 2.13301e-17
6045.79784 2.10935e-17
6047.79625 2.08980e-17
6049.79467 2.07520e-17
6051.80317 2.06174e-17
6053.80159 2.04637e-17
6055.80000 2.03189e-17
6057.79841 2.02146e-17
6059.79683 2.01107e-17
6061.80534 1.99764e-17
6063.80375 1.98093e-17
6065.80216 1.96270e-17
6067.80058 1.94427e-17
6069.80908 1.92552e-17
6071.80750 1.90600e-17
6073.80591 1.88829e-17
6075.80433 1.87428e-17
6077.80274 1.86427e-17
6079.81125 1.85848e-17
6081.80966 1.85556e-17
6083.80808 1.85341e-17
6085.80649 1.84941e-17
6087.80490 1.84049e-17
6089.81341 1.81669e-17
6091.81182 1.79160e-17
6093.81024 1.78167e-17
6095.80865 1.78559e-17
6097.81716 1.78320e-17
6099.81557 1.75422e-17
6101.81399 1.72272e-17
6103.81240 1.70882e-17
6105.81082 1.70194e-17
6107.81932 1.69412e-17
6109.81774 1.68479e-17
6111.81615 1.67859e-17
6113.81456 1.67868e-17
6115.82307 1.68299e-17
6117.82149 1.69646e-17
6119.81990 1.70510e-17
6121.81831 1.69064e-17
6123.81673 1.66861e-17
6125.82523 1.66229e-17
6127.82365 1.68374e-17
6129.82206 1.71090e-17
6131.82048 1.72602e-17
6133.81889 1.72610e-17
6135.82740 1.68856e-17
6137.82581 1.64260e-17
6139.82423 1.61789e-17
6141.82264 1.62535e-17
6143.83115 1.64003e-17
6145.82956 1.64166e-17
6147.82797 1.64104e-17
6149.82639 1.64170e-17
6151.82480 1.64015e-17
6153.83331 1.63215e-17
6155.83172 1.61945e-17
6157.83014 1.60675e-17
6159.82855 1.59860e-17
6161.82697 1.59142e-17
6163.83547 1.58310e-17
6165.83389 1.57465e-17
6167.83230 1.56669e-17
6169.83071 1.55882e-17
6171.83922 1.54995e-17
6173.83764 1.54019e-17
6175.83605 1.53176e-17
6177.83446 1.52988e-17
6179.83288 1.52624e-17
6181.84138 1.51293e-17
6183.83980 1.49533e-17
6185.83821 1.47965e-17
6187.83663 1.46979e-17
6189.84513 1.46260e-17
6191.84355 1.45705e-17
6193.84196 1.45145e-17
6195.84038 1.44219e-17
6197.83879 1.43280e-17
6199.84730 1.42594e-17
6201.84571 1.42317e-17
6203.84412 1.42326e-17
6205.84254 1.42606e-17
6207.84095 1.43198e-17
6209.84946 1.44359e-17
6211.84787 1.45555e-17
6213.84629 1.46214e-17
6215.84470 1.46620e-17
6217.85321 1.47491e-17
6219.85162 1.49157e-17
6221.85004 1.50755e-17
6223.84845 1.51121e-17
6225.84686 1.51167e-17
6227.85537 1.51005e-17
6229.85379 1.51198e-17
6231.85220 1.52286e-17
6233.85061 1.54312e-17
6235.85912 1.56426e-17
6237.85753 1.57657e-17
6239.85595 1.58338e-17
6241.85436 1.58174e-17
6243.85278 1.57671e-17
6245.86128 1.57118e-17
6247.85970 1.56918e-17
6249.85811 1.57213e-17
6251.85653 1.58251e-17
6253.85494 1.59008e-17
6255.86345 1.57929e-17
6257.86186 1.56418e-17
6259.86027 1.55447e-17
6261.85869 1.55188e-17
6263.86719 1.55213e-17
6265.86561 1.55162e-17
6267.86402 1.54827e-17
6269.86244 1.53298e-17
6271.86085 1.51743e-17
6273.86936 1.50897e-17
6275.86777 1.50693e-17
6277.86619 1.50789e-17
6279.86460 1.50939e-17
6281.86301 1.51174e-17
6283.87152 1.51396e-17
6285.86994 1.51540e-17
6287.86835 1.51489e-17
6289.86676 1.51285e-17
6291.87527 1.50988e-17
6293.87368 1.50610e-17
6295.87210 1.50118e-17
6297.87051 1.49485e-17
6299.86893 1.48695e-17
6301.87743 1.47481e-17
6303.87585 1.46404e-17
6305.87426 1.46007e-17
6307.87268 1.46201e-17
6309.87109 1.46522e-17
6311.87960 1.46546e-17
6313.87801 1.46431e-17
6315.87642 1.46027e-17
6317.87484 1.45603e-17
6319.88335 1.45378e-17
6321.88176 1.45300e-17
6323.88017 1.45225e-17
6325.87859 1.45058e-17
6327.87700 1.44861e-17
6329.88551 1.44619e-17
6331.88392 1.44445e-17
6333.88234 1.44420e-17
6335.88075 1.44571e-17
6337.87916 1.44973e-17
6339.88767 1.45513e-17
6341.88609 1.46000e-17
6343.88450 1.46158e-17
6345.88291 1.46099e-17
6347.89142 1.45782e-17
6349.88983 1.45290e-17
6351.88825 1.44694e-17
6353.88666 1.44013e-17
6355.88508 1.43115e-17
6357.89358 1.42006e-17
6359.89200 1.41098e-17
6361.89041 1.41184e-17
6363.88883 1.41450e-17
6365.89733 1.41418e-17
6367.89575 1.40995e-17
6369.89416 1.40370e-17
6371.89257 1.39656e-17
6373.89099 1.38898e-17
6375.89950 1.38238e-17
6377.89791 1.37613e-17
6379.89632 1.37048e-17
6381.89474 1.36481e-17
6383.89315 1.35832e-17
6385.90166 1.35102e-17
6387.90007 1.34423e-17
6389.89849 1.33961e-17
6391.89690 1.33418e-17
6393.90541 1.32411e-17
6395.90382 1.31306e-17
6397.90224 1.30313e-17
6399.90065 1.29707e-17
6401.89906 1.29528e-17
6403.90757 1.29940e-17
6405.90598 1.30710e-17
6407.90440 1.31906e-17
6409.90281 1.32947e-17
6411.90123 1.33224e-17
6413.90973 1.32963e-17
6415.90815 1.32755e-17
6417.90656 1.33029e-17
6419.90498 1.33374e-17
6421.91348 1.33508e-17
6423.91190 1.33537e-17
6425.91031 1.33278e-17
6427.90872 1.33104e-17
6429.90714 1.33454e-17
6431.91565 1.34437e-17
6433.91406 1.35519e-17
6435.91247 1.36121e-17
6437.91089 1.36593e-17
6439.91939 1.37214e-17
6441.91781 1.37584e-17
6443.91622 1.37230e-17
6445.91464 1.36233e-17
6447.91305 1.35120e-17
6449.92156 1.34438e-17
6451.91997 1.33876e-17
6453.91838 1.33417e-17
6455.91680 1.32928e-17
6457.91521 1.32363e-17
6459.92372 1.31585e-17
6461.92213 1.30414e-17
6463.92055 1.28851e-17
6465.91896 1.27445e-17
6467.92747 1.27334e-17
6469.92588 1.27281e-17
6471.92430 1.26405e-17
6473.92271 1.25094e-17
6475.92113 1.24082e-17
6477.92963 1.23721e-17
6479.92805 1.23461e-17
6481.92646 1.22812e-17
6483.92487 1.22119e-17
6485.93338 1.21632e-17
6487.93180 1.21084e-17
6489.93021 1.20150e-17
6491.92862 1.18834e-17
6493.92704 1.17451e-17
6495.93554 1.16336e-17
6497.93396 1.15419e-17
6499.93237 1.14963e-17
6501.93079 1.14539e-17
6503.92920 1.13940e-17
6505.93771 1.12863e-17
6507.93612 1.11148e-17
6509.93454 1.08682e-17
6511.93295 1.06085e-17
6513.94146 1.04174e-17
6515.93987 1.02537e-17
6517.93828 1.01278e-17
6519.93670 9.99121e-18
6521.93511 9.78563e-18
6523.94362 9.49482e-18
6525.94203 9.21080e-18
6527.94045 9.05924e-18
6529.93886 8.92838e-18
6531.93728 8.75313e-18
6533.94578 8.55734e-18
6535.94420 8.37144e-18
6537.94261 8.21721e-18
6539.94102 8.08745e-18
6541.94953 7.98763e-18
6543.94794 7.92083e-18
6545.94636 7.90879e-18
6547.94477 7.91375e-18
6549.94319 7.89254e-18
6551.95169 7.85968e-18
6553.95011 7.86606e-18
6555.94852 7.95610e-18
6557.94694 8.08134e-18
6559.94535 8.21884e-18
6561.95386 8.34814e-18
6563.95227 8.44088e-18
6565.95069 8.50860e-18
6567.94910 8.58330e-18
6569.95761 8.67759e-18
6571.95602 8.75468e-18
6573.95443 8.73838e-18
6575.95285 8.75706e-18
6577.95126 8.93282e-18
6579.95977 9.18667e-18
6581.95818 9.42783e-18
6583.95660 9.59292e-18
6585.95501 9.72236e-18
6587.95343 9.82157e-18
6589.96193 9.90687e-18
6591.96035 9.98185e-18
6593.95876 1.00796e-17
6595.95717 1.02378e-17
6597.96568 1.04452e-17
6599.96410 1.06480e-17
6601.96251 1.08002e-17
6603.96092 1.09710e-17
6605.95934 1.12609e-17
6607.96784 1.15541e-17
6609.96626 1.17663e-17
6611.96467 1.18971e-17
6613.96309 1.19861e-17
6615.97159 1.20795e-17
6617.97001 1.22030e-17
6619.96842 1.24466e-17
6621.96684 1.27212e-17
6623.96525 1.29814e-17
6625.97376 1.32277e-17
6627.97217 1.34857e-17
6629.97058 1.37539e-17
6631.96900 1.40081e-17
6633.96741 1.42146e-17
6635.97592 1.44152e-17
6637.97433 1.46446e-17
6639.97275 1.48830e-17
6641.97116 1.51015e-17
6643.97967 1.53075e-17
6645.97808 1.55433e-17
6647.97650 1.58440e-17
6649.97491 1.61137e-17
6651.97332 1.61884e-17
6653.98183 1.62567e-17
6655.98025 1.64848e-17
6657.97866 1.68416e-17
6659.97707 1.72110e-17
6661.98558 1.74677e-17
6663.98399 1.76073e-17
6665.98241 1.74646e-17
6667.98082 1.72663e-17
6669.97924 1.71063e-17
6671.98774 1.70808e-17
6673.98616 1.72550e-17
6675.98457 1.76168e-17
6677.98299 1.79911e-17
6679.98140 1.81370e-17
6681.98991 1.82234e-17
6683.98832 1.83248e-17
6685.98673 1.84179e-17
6687.98515 1.84655e-17
6689.99366 1.84629e-17
6691.99207 1.84339e-17
6693.99048 1.84002e-17
6695.98890 1.83514e-17
6697.98731 1.82773e-17
6699.99582 1.82003e-17
6701.99423 1.81241e-17
6703.99265 1.80779e-17
6705.99106 1.80900e-17
6707.98947 1.81798e-17
6709.99798 1.82777e-17
6711.99640 1.82839e-17
6713.99481 1.82738e-17
6715.99322 1.83060e-17
6718.00173 1.83394e-17
6720.00014 1.82919e-17
6721.99856 1.81465e-17
6723.99697 1.80128e-17
6725.99539 1.80370e-17
6728.00389 1.81067e-17
6730.00231 1.81947e-17
6732.00072 1.82577e-17
6733.99914 1.82848e-17
6736.00764 1.82372e-17
6738.00606 1.80945e-17
6740.00447 1.78105e-17
6742.00288 1.75353e-17
6744.00130 1.74557e-17
6746.00981 1.74395e-17
6748.00822 1.73612e-17
6750.00663 1.72248e-17
6752.00505 1.71456e-17
6754.00346 1.72002e-17
6756.01197 1.72559e-17
6758.01038 1.71350e-17
6760.00880 1.70072e-17
6762.00721 1.70000e-17
6764.01572 1.70756e-17
6766.01413 1.71269e-17
6768.01255 1.70910e-17
6770.01096 1.70478e-17
6772.00937 1.70785e-17
6774.01788 1.71081e-17
6776.01629 1.70783e-17
6778.01471 1.70350e-17
6780.01312 1.70367e-17
6782.01154 1.71055e-17
6784.02004 1.71978e-17
6786.01846 1.72796e-17
6788.01687 1.73354e-17
6790.01529 1.73123e-17
6792.02379 1.72647e-17
6794.02221 1.72324e-17
6796.02062 1.72423e-17
6798.01903 1.72894e-17
6800.01745 1.73740e-17
6802.02596 1.74405e-17
6804.02437 1.73923e-17
6806.02278 1.73182e-17
6808.02120 1.72690e-17
6810.01961 1.72659e-17
6812.02812 1.73096e-17
6814.02653 1.73819e-17
6816.02495 1.74194e-17
6818.02336 1.72731e-17
6820.03187 1.71129e-17
6822.03028 1.70475e-17
6824.02869 1.70460e-17
6826.02711 1.70567e-17
6828.02552 1.70257e-17
6830.03403 1.69425e-17
6832.03244 1.67527e-17
6834.03086 1.65339e-17
6836.02927 1.63235e-17
6838.03778 1.61543e-17
6840.03619 1.60670e-17
6842.03461 1.60386e-17
6844.03302 1.59921e-17
6846.03144 1.58478e-17
6848.03994 1.57092e-17
6850.03836 1.56971e-17
6852.03677 1.56949e-17
6854.03518 1.56201e-17
6856.03360 1.54575e-17
6858.04211 1.52375e-17
6860.04052 1.49967e-17
6862.03893 1.47792e-17
6864.03735 1.47110e-17
6866.04585 1.46564e-17
6868.04427 1.45378e-17
6870.04268 1.43576e-17
6872.04110 1.41506e-17
6874.03951 1.39388e-17
6876.04802 1.37174e-17
6878.04643 1.34864e-17
6880.04485 1.32818e-17
6882.04326 1.31948e-17
6884.04167 1.30962e-17
6886.05018 1.28361e-17
6888.04859 1.24132e-17
6890.04701 1.19892e-17
6892.04542 1.17281e-17
6894.05393 1.15247e-17
6896.05234 1.13698e-17
6898.05076 1.12053e-17
6900.04917 1.09594e-17
6902.04759 1.06659e-17
6904.05609 1.04167e-17
6906.05451 1.02868e-17
6908.05292 1.01871e-17
6910.05133 1.00496e-17
6912.05984 9.88894e-18
6914.05826 9.67947e-18
6916.05667 9.46228e-18
6918.05508 9.27867e-18
6920.05350 9.16719e-18
6922.06200 9.09998e-18
6924.06042 9.07493e-18
6926.05883 9.06266e-18
6928.05725 9.04504e-18
6930.05566 9.00291e-18
6932.06417 8.90489e-18
6934.06258 8.77709e-18
6936.06099 8.68664e-18
6938.05941 8.72281e-18
6940.06792 8.81869e-18
6942.06633 8.97631e-18
6944.06474 9.12516e-18
6946.06316 9.18969e-18
6948.06157 9.18785e-18
6950.07008 9.20082e-18
6952.06849 9.30591e-18
6954.06691 9.45748e-18
6956.06532 9.67765e-18
6958.06374 9.88454e-18
6960.07224 9.98807e-18
6962.07066 1.00355e-17
6964.06907 1.01109e-17
6966.06748 1.02853e-17
6968.07599 1.05155e-17
6970.07441 1.08154e-17
6972.07282 1.11103e-17
6974.07123 1.13153e-17
6976.06965 1.14832e-17
6978.07815 1.16761e-17
6980.07657 1.19373e-17
6982.07498 1.22423e-17
6984.07340 1.25932e-17
6986.08190 1.29489e-17
6988.08032 1.32808e-17
6990.07873 1.35654e-17
6992.07715 1.37781e-17
6994.07556 1.39264e-17
6996.08407 1.40375e-17
6998.08248 1.41468e-17
7000.08089 1.42718e-17
7002.07931 1.44562e-17
7004.07772 1.46819e-17
7006.08623 1.49645e-17
7008.08464 1.52571e-17
7010.08306 1.55045e-17
7012.08147 1.56698e-17
7014.08998 1.58318e-17
7016.08839 1.60980e-17
7018.08681 1.63761e-17
7020.08522 1.66319e-17
7022.08363 1.68487e-17
7024.09214 1.70311e-17
7026.09056 1.71720e-17
7028.08897 1.72731e-17
7030.08738 1.73301e-17
7032.08580 1.73573e-17
7034.09430 1.73067e-17
7036.09272 1.73128e-17
7038.09113 1.75365e-17
7040.08955 1.79406e-17
7042.09805 1.83249e-17
7044.09647 1.84794e-17
7046.09488 1.85573e-17
7048.09330 1.86255e-17
7050.09171 1.86755e-17
7052.10022 1.86985e-17
7054.09863 1.87098e-17
7056.09704 1.87274e-17
7058.09546 1.87622e-17
7060.09387 1.87800e-17
7062.10238 1.87298e-17
7064.10079 1.86550e-17
7066.09921 1.85713e-17
7068.09762 1.84902e-17
7070.10613 1.84214e-17
7072.10454 1.83577e-17
7074.10296 1.82612e-17
7076.10137 1.80543e-17
7078.09978 1.78854e-17
7080.10829 1.78970e-17
7082.10671 1.80105e-17
7084.10512 1.81742e-17
7086.10353 1.82926e-17
7088.11204 1.83159e-17
7090.11045 1.81421e-17
7092.10887 1.79337e-17
7094.10728 1.78683e-17
7096.10570 1.78124e-17
7098.11420 1.76407e-17
7100.11262 1.73763e-17
7102.11103 1.71279e-17
7104.10945 1.69861e-17
7106.10786 1.68782e-17
7108.11637 1.67582e-17
7110.11478 1.66544e-17
7112.11319 1.66003e-17
7114.11161 1.65532e-17
7116.12012 1.64491e-17
7118.11853 1.62679e-17
7120.11694 1.60977e-17
7122.11536 1.60603e-17
7124.11377 1.60378e-17
7126.12228 1.59747e-17
7128.12069 1.58591e-17
7130.11911 1.56904e-17
7132.11752 1.54780e-17
7134.11593 1.52422e-17
7136.12444 1.50103e-17
7138.12286 1.47996e-17
7140.12127 1.46440e-17
7142.11968 1.45323e-17
7144.12819 1.44549e-17
7146.12660 1.44102e-17
7148.12502 1.44112e-17
7150.12343 1.44578e-17
7152.12185 1.45071e-17
7154.13035 1.44878e-17
7156.12877 1.44576e-17
7158.12718 1.44383e-17
7160.12560 1.44556e-17
7162.13410 1.45219e-17
7164.13252 1.46430e-17
7166.13093 1.47830e-17
7168.12934 1.48908e-17
7170.12776 1.50039e-17
7172.13627 1.51495e-17
7174.13468 1.53005e-17
7176.13309 1.54306e-17
7178.13151 1.55184e-17
7180.12992 1.55690e-17
7182.13843 1.55686e-17
7184.13684 1.55997e-17
7186.13526 1.57888e-17
7188.13367 1.60161e-17
7190.14218 1.61684e-17
7192.14059 1.62265e-17
7194.13901 1.62828e-17
7196.13742 1.64019e-17
7198.13583 1.65021e-17
7200.14434 1.64937e-17
7202.14275 1.64564e-17
7204.14117 1.64251e-17
7206.13958 1.64395e-17
7208.14809 1.65236e-17
7210.14650 1.66821e-17
7212.14492 1.68348e-17
7214.14333 1.68548e-17
7216.14174 1.68321e-17
7218.15025 1.68038e-17
7220.14867 1.67627e-17
7222.14708 1.66667e-17
7224.14549 1.65346e-17
7226.14391 1.64309e-17
7228.15242 1.64451e-17
7230.15083 1.65382e-17
7232.14924 1.67547e-17
7234.14766 1.69907e-17
7236.15616 1.71650e-17
7238.15458 1.72327e-17
7240.15299 1.72413e-17
7242.15141 1.72150e-17
7244.14982 1.71765e-17
7246.15833 1.71806e-17
7248.15674 1.71800e-17
7250.15516 1.71341e-17
7252.15357 1.70505e-17
7254.15198 1.69620e-17
7256.16049 1.68954e-17
7258.15890 1.68338e-17
7260.15732 1.67765e-17
7262.15573 1.67133e-17
7264.16424 1.66257e-17
7266.16265 1.65335e-17
7268.16107 1.64356e-17
7270.15948 1.63780e-17
7272.15790 1.64171e-17
7274.16640 1.66826e-17
7276.16482 1.69891e-17
7278.16323 1.72113e-17
7280.16164 1.73587e-17
7282.16006 1.74627e-17
7284.16857 1.75352e-17
7286.16698 1.75758e-17
7288.16539 1.75911e-17
7290.16381 1.75799e-17
7292.17231 1.75182e-17
7294.17073 1.74656e-17
7296.16914 1.74866e-17
7298.16756 1.75598e-17
7300.16597 1.76171e-17
7302.17448 1.75973e-17
7304.17289 1.75476e-17
7306.17131 1.75018e-17
7308.16972 1.74292e-17
7310.16813 1.72940e-17
7312.17664 1.71330e-17
7314.17505 1.69721e-17
7316.17347 1.68683e-17
7318.17188 1.68471e-17
7320.18039 1.70081e-17
7322.17880 1.72134e-17
7324.17722 1.74053e-17
7326.17563 1.75209e-17
7328.17405 1.75031e-17
7330.18255 1.73668e-17
7332.18097 1.72169e-17
7334.17938 1.71776e-17
7336.17779 1.71723e-17
7338.18630 1.72200e-17
7340.18472 1.72240e-17
7342.18313 1.70721e-17
7344.18154 1.68031e-17
7346.17996 1.65372e-17
7348.18846 1.64047e-17
7350.18688 1.63638e-17
7352.18529 1.65051e-17
7354.18371 1.66548e-17
7356.18212 1.66662e-17
7358.19063 1.65687e-17
7360.18904 1.64699e-17
7362.18746 1.64463e-17
7364.18587 1.64504e-17
7366.19438 1.64936e-17
7368.19279 1.65044e-17
7370.19120 1.63930e-17
7372.18962 1.62279e-17
7374.18803 1.60830e-17
7376.19654 1.60145e-17
7378.19495 1.59950e-17
7380.19337 1.60342e-17
7382.19178 1.60542e-17
7384.19020 1.59450e-17
7386.19870 1.57947e-17
7388.19712 1.56844e-17
7390.19553 1.56347e-17
7392.19394 1.55906e-17
7394.20245 1.55153e-17
7396.20087 1.54389e-17
7398.19928 1.53704e-17
7400.19769 1.53229e-17
7402.19611 1.53190e-17
7404.20461 1.53405e-17
7406.20303 1.53658e-17
7408.20144 1.53632e-17
7410.19986 1.53298e-17
7412.20836 1.52187e-17
7414.20678 1.50960e-17
7416.20519 1.49936e-17
7418.20361 1.49291e-17
7420.20202 1.49175e-17
7422.21053 1.49426e-17
7424.20894 1.49460e-17
7426.20735 1.48315e-17
7428.20577 1.47379e-17
7430.20418 1.48084e-17
7432.21269 1.49293e-17
7434.21110 1.49772e-17
7436.20952 1.49353e-17
7438.20793 1.49157e-17
7440.21644 1.50094e-17
7442.21485 1.50950e-17
7444.21327 1.50494e-17
7446.21168 1.49625e-17
7448.21009 1.48959e-17
7450.21860 1.48612e-17
7452.21702 1.48212e-17
7454.21543 1.47616e-17
7456.21384 1.47084e-17
7458.22235 1.46990e-17
7460.22076 1.46959e-17
7462.21918 1.46852e-17
7464.21759 1.46530e-17
7466.21601 1.45874e-17
7468.22451 1.44935e-17
7470.22293 1.44039e-17
7472.22134 1.43649e-17
7474.21976 1.43488e-17
7476.21817 1.43844e-17
7478.22668 1.43907e-17
7480.22509 1.42673e-17
7482.22350 1.40331e-17
7484.22192 1.38258e-17
7486.23043 1.37961e-17
7488.22884 1.38038e-17
7490.22725 1.37365e-17
7492.22567 1.36788e-17
7494.22408 1.37130e-17
7496.23259 1.38204e-17
7498.23100 1.39292e-17
7500.22942 1.39735e-17
7502.22783 1.39930e-17
7504.22624 1.40038e-17
7506.23475 1.39913e-17
7508.23317 1.39388e-17
7510.23158 1.38628e-17
7512.22999 1.37753e-17
7514.23850 1.37018e-17
7516.23691 1.36512e-17
7518.23533 1.36531e-17
7520.23374 1.36909e-17
7522.23216 1.38063e-17
7524.24066 1.39006e-17
7526.23908 1.38647e-17
7528.23749 1.36871e-17
7530.23591 1.34944e-17
7532.23432 1.34185e-17
7534.24283 1.33869e-17
7536.24124 1.33938e-17
7538.23965 1.34158e-17
7540.23807 1.34357e-17
7542.24658 1.34458e-17
7544.24499 1.34619e-17
7546.24340 1.34894e-17
7548.24182 1.35092e-17
7550.24023 1.35094e-17
7552.24874 1.34749e-17
7554.24715 1.33748e-17
7556.24557 1.32392e-17
7558.24398 1.30969e-17
7560.24239 1.29943e-17
7562.25090 1.29398e-17
7564.24932 1.30140e-17
7566.24773 1.30835e-17
7568.24614 1.30355e-17
7570.25465 1.29243e-17
7572.25306 1.28285e-17
7574.25148 1.27897e-17
7576.24989 1.27666e-17
7578.24831 1.27399e-17
7580.25681 1.26936e-17
7582.25523 1.25791e-17
7584.25364 1.24540e-17
7586.25206 1.24004e-17
7588.26056 1.23790e-17
7590.25898 1.22642e-17
7592.25739 1.19427e-17
7594.25580 1.16099e-17
7596.25422 1.14502e-17
7598.26273 1.13947e-17
7600.26114 1.14514e-17
7602.25955 1.15429e-17
7604.25797 1.16170e-17
7606.25638 1.15869e-17
7608.26489 1.14679e-17
7610.26330 1.11158e-17
7612.26172 1.08236e-17
7614.26013 1.08433e-17
7616.26864 1.10641e-17
7618.26705 1.13388e-17
7620.26547 1.15103e-17
7622.26388 1.15730e-17
7624.26229 1.13991e-17
7626.27080 1.11745e-17
7628.26921 1.10383e-17
7630.26763 1.09566e-17
7632.26604 1.08733e-17
7634.27455 1.07887e-17
7636.27296 1.07487e-17
7638.27138 1.07915e-17
7640.26979 1.08334e-17
7642.26821 1.07878e-17
7644.27671 1.06943e-17
7646.27513 1.05550e-17
7648.27354 1.04159e-17
7650.27195 1.03258e-17
7652.27037 1.03198e-17
7654.27888 1.03081e-17
7656.27729 1.01506e-17
7658.27570 9.98427e-18
7660.27412 9.87823e-18
7662.28262 9.84357e-18
7664.28104 9.86133e-18
7666.27945 9.91563e-18
7668.27787 9.98982e-18
7670.27628 1.00502e-17
7672.28479 1.01210e-17
7674.28320 1.02454e-17
7676.28162 1.03486e-17
7678.28003 1.03481e-17
7680.27844 1.02381e-17
7682.28695 1.01053e-17
7684.28536 1.00365e-17
7686.28378 9.98908e-18
7688.28219 9.96219e-18
7690.29070 9.94616e-18
7692.28911 9.92100e-18
7694.28753 9.90691e-18
7696.28594 9.94946e-18
7698.28436 1.00742e-17
7700.29286 1.01936e-17
7702.29128 1.01993e-17
7704.28969 1.01467e-17
7706.28810 1.00238e-17
7708.29661 9.89562e-18
7710.29503 9.81707e-18
7712.29344 9.83690e-18
7714.29185 9.89984e-18
7716.29027 9.96890e-18
7718.29877 1.00482e-17
7720.29719 1.01324e-17
7722.29560 1.02122e-17
7724.29402 1.02777e-17
7726.29243 1.03318e-17
7728.30094 1.03886e-17
7730.29935 1.04644e-17
7732.29777 1.05752e-17
7734.29618 1.07587e-17
7736.30469 1.09795e-17
7738.30310 1.12326e-17
7740.30151 1.14664e-17
7742.29993 1.16433e-17
7744.29834 1.17095e-17
7746.30685 1.17236e-17
7748.30526 1.16883e-17
7750.30368 1.16895e-17
7752.30209 1.18188e-17
7754.30051 1.20433e-17
7756.30901 1.22944e-17
7758.30743 1.25006e-17
7760.30584 1.26697e-17
7762.30425 1.27510e-17
7764.31276 1.28012e-17
7766.31118 1.28487e-17
7768.30959 1.28993e-17
7770.30800 1.29394e-17
7772.30642 1.29797e-17
7774.31492 1.30393e-17
7776.31334 1.31490e-17
7778.31175 1.32749e-17
7780.31017 1.34150e-17
7782.30858 1.35286e-17
7784.31709 1.35720e-17
7786.31550 1.35537e-17
7788.31392 1.35215e-17
7790.31233 1.35263e-17
7792.32084 1.35557e-17
7794.31925 1.36579e-17
7796.31766 1.37431e-17
7798.31608 1.37285e-17
7800.31449 1.36357e-17
7802.32300 1.35305e-17
7804.32141 1.34725e-17
7806.31983 1.34397e-17
7808.31824 1.34882e-17
7810.32675 1.34934e-17
7812.32516 1.33272e-17
7814.32358 1.30771e-17
7816.32199 1.28346e-17
7818.32040 1.27066e-17
7820.32891 1.26939e-17
7822.32733 1.28835e-17
7824.32574 1.31256e-17
7826.32415 1.33325e-17
7828.32257 1.34617e-17
7830.33107 1.34749e-17
7832.32949 1.33902e-17
7834.32790 1.32747e-17
7836.32632 1.32082e-17
7838.33482 1.31806e-17
7840.33324 1.32270e-17
7842.33165 1.33263e-17
7844.33007 1.34997e-17
7846.32848 1.36788e-17
7848.33699 1.37924e-17
7850.33540 1.37689e-17
7852.33381 1.36964e-17
7854.33223 1.36214e-17
7856.33064 1.35856e-17
7858.33915 1.36967e-17
7860.33756 1.38347e-17
7862.33598 1.38437e-17
7864.33439 1.36436e-17
7866.34290 1.33828e-17
7868.34131 1.31813e-17
7870.33973 1.30541e-17
7872.33814 1.30830e-17
7874.33655 1.32167e-17
7876.34506 1.34345e-17
7878.34348 1.36552e-17
7880.34189 1.38264e-17
7882.34030 1.38459e-17
7884.34881 1.37972e-17
7886.34722 1.36869e-17
7888.34564 1.35921e-17
7890.34405 1.36004e-17
7892.34247 1.36809e-17
7894.35097 1.37378e-17
7896.34939 1.36799e-17
7898.34780 1.35622e-17
7900.34622 1.33826e-17
7902.34463 1.31817e-17
7904.35314 1.29760e-17
7906.35155 1.28010e-17
7908.34996 1.26636e-17
7910.34838 1.25933e-17
7912.35689 1.25922e-17
7914.35530 1.26935e-17
7916.35371 1.28489e-17
7918.35213 1.30629e-17
7920.35054 1.32591e-17
7922.35905 1.33794e-17
7924.35746 1.33877e-17
7926.35588 1.33294e-17
7928.35429 1.32309e-17
7930.35270 1.31338e-17
7932.36121 1.30892e-17
7934.35963 1.31003e-17
7936.35804 1.31835e-17
7938.35645 1.33136e-17
7940.36496 1.34565e-17
7942.36337 1.35660e-17
7944.36179 1.36543e-17
7946.36020 1.37385e-17
7948.35862 1.37523e-17
7950.36712 1.36138e-17
7952.36554 1.33773e-17
7954.36395 1.30994e-17
7956.36237 1.28851e-17
7958.37087 1.27799e-17
7960.36929 1.29899e-17
7962.36770 1.32404e-17
7964.36611 1.33860e-17
7966.36453 1.33823e-17
7968.37304 1.32026e-17
7970.37145 1.29067e-17
7972.36986 1.26437e-17
7974.36828 1.26357e-17
7976.36669 1.26598e-17
7978.37520 1.25622e-17
7980.37361 1.24106e-17
7982.37203 1.22416e-17
7984.37044 1.21277e-17
7986.37895 1.21246e-17
7988.37736 1.23027e-17
7990.37578 1.24952e-17
7992.37419 1.24888e-17
7994.37260 1.24476e-17
7996.38111 1.25053e-17
7998.37952 1.26222e-17
8000.37794 1.26741e-17
8002.37635 1.25827e-17
8004.37477 1.24573e-17
8006.38327 1.24098e-17
8008.38169 1.23716e-17
8010.38010 1.22983e-17
8012.37852 1.22396e-17
8014.38702 1.22733e-17
8016.38544 1.24043e-17
8018.38385 1.25308e-17
8020.38226 1.25320e-17
8022.38068 1.24613e-17
8024.38919 1.22783e-17
8026.38760 1.20798e-17
8028.38601 1.19449e-17
8030.38443 1.19109e-17
8032.39293 1.19248e-17
8034.39135 1.19532e-17
8036.38976 1.19822e-17
8038.38818 1.19832e-17
8040.38659 1.19538e-17
8042.39510 1.18864e-17
8044.39351 1.17863e-17
8046.39193 1.16408e-17
8048.39034 1.14772e-17
8050.38875 1.13798e-17
8052.39726 1.15534e-17
8054.39567 1.17688e-17
8056.39409 1.19168e-17
8058.39250 1.19457e-17
8060.40101 1.18510e-17
8062.39942 1.16500e-17
8064.39784 1.14268e-17
8066.39625 1.13091e-17
8068.39467 1.12011e-17
8070.40317 1.10302e-17
8072.40159 1.08696e-17
8074.40000 1.08020e-17
8076.39841 1.08423e-17
8078.39683 1.09216e-17
8080.40534 1.09752e-17
8082.40375 1.09961e-17
8084.40216 1.09239e-17
8086.40058 1.08159e-17
8088.40908 1.06855e-17
8090.40750 1.05991e-17
8092.40591 1.06077e-17
8094.40433 1.07657e-17
8096.40274 1.09649e-17
8098.41125 1.10920e-17
8100.40966 1.11943e-17
8102.40808 1.12958e-17
8104.40649 1.13734e-17
8106.40490 1.13983e-17
8108.41341 1.13491e-17
8110.41182 1.12488e-17
8112.41024 1.11005e-17
8114.40865 1.09435e-17
8116.41716 1.08162e-17
8118.41557 1.07138e-17
8120.41399 1.06162e-17
8122.41240 1.05261e-17
8124.41082 1.04604e-17
8126.41932 1.04391e-17
8128.41774 1.04533e-17
8130.41615 1.05233e-17
8132.41456 1.06011e-17
8134.42307 1.06500e-17
8136.42149 1.06544e-17
8138.41990 1.06272e-17
8140.41831 1.05817e-17
8142.41673 1.05582e-17
8144.42523 1.06463e-17
8146.42365 1.07527e-17
8148.42206 1.08307e-17
8150.42048 1.08476e-17
8152.41889 1.07925e-17
8154.42740 1.06712e-17
8156.42581 1.05492e-17
8158.42423 1.05426e-17
8160.42264 1.05458e-17
8162.43115 1.05218e-17
8164.42956 1.04406e-17
8166.42797 1.02660e-17
8168.42639 1.00262e-17
8170.42480 9.81238e-18
8172.43331 9.75175e-18
8174.43172 9.75128e-18
8176.43014 9.79458e-18
8178.42855 9.83301e-18
8180.43706 9.82510e-18
8182.43547 9.76504e-18
8184.43389 9.69045e-18
8186.43230 9.63697e-18
8188.43071 9.61083e-18
8190.43922 9.63266e-18
8192.43764 9.71002e-18
8194.43605 9.87617e-18
8196.43446 1.00859e-17
8198.43288 1.02962e-17
8200.44138 1.04416e-17
8202.43980 1.05245e-17
8204.43821 1.04936e-17
8206.43663 1.03913e-17
8208.44513 1.02077e-17
8210.44355 1.00029e-17
8212.44196 9.81454e-18
8214.44038 9.69241e-18
8216.43879 9.61686e-18
8218.44730 9.59484e-18
8220.44571 9.62820e-18
8222.44412 9.76217e-18
8224.44254 9.90548e-18
8226.44095 9.98515e-18
8228.44946 9.96084e-18
8230.44787 9.87523e-18
8232.44629 9.75036e-18
8234.44470 9.60764e-18
8236.45321 9.47901e-18
8238.45162 9.36564e-18
8240.45004 9.27228e-18
8242.44845 9.19740e-18
8244.44686 9.13438e-18
8246.45537 9.07717e-18
8248.45378 9.02795e-18
8250.45220 8.96863e-18
8252.45061 8.94256e-18
8254.45912 9.01552e-18
8256.45753 9.11739e-18
8258.45595 9.16638e-18
8260.45436 9.10116e-18
8262.45278 8.97861e-18
8264.46128 8.81573e-18
8266.45970 8.66825e-18
8268.45811 8.63229e-18
8270.45653 8.62185e-18
8272.45494 8.52742e-18
8274.46345 8.34520e-18
8276.46186 8.18474e-18
8278.46027 8.15876e-18
8280.45869 8.20942e-18
8282.46720 8.38123e-18
8284.46561 8.54910e-18
8286.46402 8.59945e-18
8288.46244 8.53352e-18
8290.46085 8.45485e-18
8292.46936 8.43602e-18
8294.46777 8.39802e-18
8296.46619 8.25962e-18
8298.46460 8.09453e-18
8300.46301 7.93232e-18
8302.47152 7.80074e-18
8304.46994 7.70421e-18
8306.46835 7.65369e-18
8308.46676 7.63420e-18
8310.47527 7.65284e-18
8312.47368 7.64482e-18
8314.47210 7.53397e-18
8316.47051 7.36664e-18
8318.46893 7.18918e-18
8320.47743 7.04493e-18
8322.47585 6.92614e-18
8324.47426 6.85126e-18
8326.47268 6.79613e-18
8328.47109 6.75359e-18
8330.47960 6.70318e-18
8332.47801 6.60658e-18
8334.47642 6.49783e-18
8336.47484 6.45656e-18
8338.48335 6.54640e-18
8340.48176 6.62578e-18
8342.48017 6.51879e-18
8344.47859 6.35180e-18
8346.47700 6.19907e-18
8348.48551 6.06312e-18
8350.48392 5.88129e-18
8352.48234 5.65242e-18
8354.48075 5.46365e-18
8356.48926 5.46829e-18
8358.48767 5.51550e-18
8360.48609 5.54502e-18
8362.48450 5.52122e-18
8364.48291 5.42535e-18
8366.49142 5.26716e-18
8368.48983 5.10754e-18
8370.48825 5.02653e-18
8372.48666 4.95996e-18
8374.48508 4.87588e-18
8376.49358 4.78040e-18
8378.49200 4.67194e-18
8380.49041 4.56865e-18
8382.48883 4.49122e-18
8384.49733 4.46687e-18
8386.49575 4.46715e-18
8388.49416 4.47954e-18
8390.49257 4.49216e-18
8392.49099 4.49767e-18
8394.49950 4.48656e-18
8396.49791 4.44335e-18
8398.49632 4.37652e-18
8400.49474 4.34300e-18
8402.50324 4.47053e-18
8404.50166 4.61946e-18
8406.50007 4.70309e-18
8408.49849 4.74586e-18
8410.49690 4.81230e-18
8412.50541 4.92009e-18
8414.50382 5.01464e-18
8416.50224 5.03333e-18
8418.50065 5.04517e-18
8420.49906 5.11163e-18
8422.50757 5.18495e-18
8424.50598 5.21322e-18
8426.50440 5.18674e-18
8428.50281 5.14171e-18
8430.51132 5.11106e-18
8432.50973 5.10521e-18
8434.50815 5.17027e-18
8436.50656 5.25864e-18
8438.50497 5.32992e-18
8440.51348 5.38742e-18
8442.51190 5.46636e-18
8444.51031 5.58820e-18
8446.50872 5.72196e-18
8448.50714 5.84451e-18
8450.51564 5.95318e-18
8452.51406 6.01111e-18
8454.51247 6.07548e-18
8456.51089 6.21951e-18
8458.51939 6.47193e-18
8460.51781 6.74584e-18
8462.51622 6.95340e-18
8464.51464 7.11539e-18
8466.51305 7.21754e-18
8468.52156 7.26084e-18
8470.51997 7.23537e-18
8472.51839 7.16398e-18
8474.51680 7.07197e-18
8476.52531 7.00101e-18
8478.52372 6.97183e-18
8480.52213 7.06891e-18
8482.52055 7.18683e-18
8484.51896 7.24332e-18
8486.52747 7.21730e-18
8488.52588 7.14924e-18
8490.52430 7.07369e-18
8492.52271 7.01971e-18
8494.52113 7.04111e-18
8496.52963 7.13067e-18
8498.52805 7.33403e-18
8500.52646 7.57343e-18
8502.52487 7.76692e-18
8504.53338 7.84499e-18
8506.53180 7.87666e-18
8508.53021 7.89315e-18
8510.52862 7.92535e-18
8512.52704 8.04273e-18
8514.53554 8.17841e-18
8516.53396 8.27097e-18
8518.53237 8.27018e-18
8520.53079 8.19353e-18
8522.52920 8.02656e-18
8524.53771 7.86039e-18
8526.53612 7.77842e-18
8528.53454 7.78133e-18
8530.53295 7.90351e-18
8532.54146 8.08069e-18
8534.53987 8.21315e-18
8536.53828 8.19746e-18
8538.53670 8.17366e-18
8540.53511 8.28735e-18
8542.54362 8.43295e-18
8544.54203 8.54033e-18
8546.54045 8.62186e-18
8548.53886 8.72924e-18
8550.53728 8.89383e-18
8552.54578 9.08297e-18
8554.54420 9.29168e-18
8556.54261 9.47459e-18
8558.54102 9.57767e-18
8560.54953 9.62919e-18
8562.54795 9.66146e-18
8564.54636 9.70771e-18
8566.54477 9.76158e-18
8568.54319 9.83336e-18
8570.55169 9.94748e-18
8572.55011 1.01612e-17
8574.54852 1.04072e-17
8576.54694 1.06233e-17
8578.54535 1.07952e-17
8580.55386 1.09726e-17
8582.55227 1.11915e-17
8584.55069 1.14188e-17
8586.54910 1.16574e-17
8588.55761 1.18571e-17
8590.55602 1.19379e-17
8592.55443 1.19688e-17
8594.55285 1.20713e-17
8596.55126 1.23287e-17
8598.55977 1.26042e-17
8600.55818 1.27291e-17
8602.55660 1.28385e-17
8604.55501 1.30103e-17
8606.55343 1.32031e-17
8608.56193 1.33424e-17
8610.56035 1.34040e-17
8612.55876 1.34538e-17
8614.55717 1.35554e-17
8616.56568 1.36919e-17
8618.56409 1.38959e-17
8620.56251 1.41148e-17
8622.56092 1.42921e-17
8624.55934 1.44256e-17
8626.56784 1.45811e-17
8628.56626 1.48167e-17
8630.56467 1.50443e-17
8632.56309 1.51467e-17
8634.57159 1.52477e-17
8636.57001 1.54599e-17
8638.56842 1.57622e-17
8640.56684 1.60493e-17
8642.56525 1.62486e-17
8644.57376 1.64504e-17
8646.57217 1.67544e-17
8648.57058 1.70737e-17
8650.56900 1.74192e-17
8652.56741 1.76763e-17
8654.57592 1.77195e-17
8656.57433 1.75174e-17
8658.57275 1.72637e-17
8660.57116 1.71836e-17
8662.57967 1.71893e-17
8664.57808 1.73199e-17
8666.57650 1.74985e-17
8668.57491 1.76674e-17
8670.57332 1.77777e-17
8672.58183 1.78660e-17
8674.58025 1.79401e-17
8676.57866 1.79439e-17
8678.57707 1.77732e-17
8680.57549 1.75463e-17
8682.58399 1.73400e-17
8684.58241 1.72065e-17
8686.58082 1.71176e-17
8688.57924 1.70828e-17
8690.58774 1.71119e-17
8692.58616 1.72615e-17
8694.58457 1.74316e-17
8696.58299 1.75545e-17
8698.58140 1.76215e-17
8700.58991 1.76618e-17
8702.58832 1.76935e-17
8704.58673 1.77205e-17
8706.58515 1.77623e-17
8708.59366 1.78034e-17
8710.59207 1.78432e-17
8712.59048 1.78692e-17
8714.58890 1.78381e-17
8716.58731 1.77950e-17
8718.59582 1.78408e-17
8720.59423 1.81198e-17
8722.59265 1.84719e-17
8724.59106 1.88447e-17
8726.58947 1.91364e-17
8728.59798 1.92422e-17
8730.59640 1.91828e-17
8732.59481 1.90871e-17
8734.59322 1.90697e-17
8736.60173 1.90272e-17
8738.60014 1.88733e-17
8740.59856 1.86800e-17
8742.59697 1.84574e-17
8744.59539 1.82758e-17
8746.60389 1.81884e-17
8748.60231 1.82401e-17
8750.60072 1.83505e-17
8752.59914 1.84633e-17
8754.60764 1.85410e-17
8756.60606 1.85269e-17
8758.60447 1.84323e-17
8760.60288 1.82686e-17
8762.60130 1.80747e-17
8764.60981 1.78819e-17
8766.60822 1.77491e-17
8768.60663 1.76702e-17
8770.60505 1.76869e-17
8772.60346 1.77453e-17
8774.61197 1.78105e-17
8776.61038 1.78469e-17
8778.60880 1.78612e-17
8780.60721 1.78404e-17
8782.61572 1.77982e-17
8784.61413 1.77162e-17
8786.61254 1.76584e-17
8788.61096 1.76763e-17
8790.60937 1.77747e-17
8792.61788 1.79304e-17
8794.61629 1.81144e-17
8796.61471 1.83017e-17
8798.61312 1.84679e-17
8800.61154 1.85572e-17
8802.62004 1.85016e-17
8804.61846 1.83284e-17
8806.61687 1.80609e-17
8808.61529 1.77627e-17
8810.62379 1.74827e-17
8812.62221 1.73348e-17
8814.62062 1.71960e-17
8816.61903 1.69749e-17
8818.61745 1.67178e-17
8820.62596 1.64445e-17
8822.62437 1.62241e-17
8824.62278 1.60998e-17
8826.62120 1.61536e-17
8828.62970 1.63273e-17
8830.62812 1.67094e-17
8832.62653 1.70366e-17
8834.62495 1.70551e-17
8836.62336 1.68102e-17
8838.63187 1.65279e-17
8840.63028 1.63974e-17
8842.62870 1.63024e-17
8844.62711 1.62287e-17
8846.62552 1.61334e-17
8848.63403 1.59332e-17
8850.63244 1.57158e-17
8852.63086 1.56138e-17
8854.62927 1.56713e-17
8856.63778 1.57281e-17
8858.63619 1.55957e-17
8860.63461 1.54023e-17
8862.63302 1.51814e-17
8864.63144 1.49600e-17
8866.63994 1.47481e-17
8868.63836 1.45588e-17
8870.63677 1.43797e-17
8872.63518 1.42053e-17
8874.63360 1.40365e-17
8876.64211 1.38534e-17
8878.64052 1.36981e-17
8880.63893 1.36188e-17
8882.63735 1.35976e-17
8884.64585 1.35836e-17
8886.64427 1.35254e-17
8888.64268 1.34491e-17
8890.64110 1.33352e-17
8892.63951 1.32377e-17
8894.64802 1.32027e-17
8896.64643 1.32216e-17
8898.64485 1.32816e-17
8900.64326 1.33410e-17
8902.65177 1.33535e-17
8904.65018 1.31999e-17
8906.64859 1.30214e-17
8908.64701 1.28562e-17
8910.64542 1.27981e-17
8912.65393 1.29669e-17
8914.65234 1.33126e-17
8916.65076 1.36219e-17
8918.64917 1.36253e-17
8920.64759 1.34630e-17
8922.65609 1.31072e-17
8924.65451 1.26791e-17
8926.65292 1.22711e-17
8928.65133 1.19226e-17
8930.65984 1.15471e-17
8932.65826 1.11186e-17
8934.65667 1.07813e-17
8936.65508 1.07674e-17
8938.65350 1.08648e-17
8940.66200 1.09727e-17
8942.66042 1.10122e-17
8944.65883 1.09752e-17
8946.65725 1.08466e-17
8948.66575 1.07066e-17
8950.66417 1.06844e-17
8952.66258 1.06559e-17
8954.66100 1.05218e-17
8956.65941 1.03608e-17
8958.66792 1.02964e-17
8960.66633 1.03428e-17
8962.66474 1.03498e-17
8964.66316 1.01343e-17
8966.66157 9.91360e-18
8968.67008 9.87667e-18
8970.66849 9.89835e-18
8972.66691 9.86304e-18
8974.66532 9.72687e-18
8976.67383 9.55037e-18
8978.67224 9.36748e-18
8980.67066 9.17505e-18
8982.66907 8.95360e-18
8984.66748 8.78074e-18
8986.67599 8.74828e-18
8988.67441 8.80696e-18
8990.67282 8.85594e-18
8992.67123 8.80963e-18
8994.66965 8.73969e-18
8996.67815 8.68425e-18
8998.67657 8.63903e-18
9000.67498 8.59270e-18
9002.67340 8.58685e-18
9004.68190 8.68924e-18
9006.68032 8.88351e-18
9008.67873 9.04647e-18
9010.67714 9.00725e-18
9012.67556 8.88842e-18
9014.68407 8.71205e-18
9016.68248 8.53591e-18
9018.68089 8.41267e-18
9020.67931 8.34292e-18
9022.67772 8.24818e-18
9024.68623 8.05793e-18
9026.68464 7.89364e-18
9028.68306 7.89109e-18
9030.68147 7.95121e-18
9032.68998 8.00249e-18
9034.68839 8.03230e-18
9036.68681 8.08551e-18
9038.68522 8.18186e-18
9040.68363 8.28807e-18
9042.69214 8.36737e-18
9044.69056 8.44231e-18
9046.68897 8.52621e-18
9048.68738 8.60999e-18
9050.68580 8.67566e-18
9052.69430 8.72027e-18
9054.69272 8.77019e-18
9056.69113 8.87189e-18
9058.68955 8.94933e-18
9060.69805 8.90666e-18
9062.69647 8.84093e-18
9064.69488 8.86419e-18
9066.69330 8.99730e-18
9068.69171 9.13726e-18
9070.70022 9.18732e-18
9072.69863 9.19765e-18
9074.69704 9.16011e-18
9076.69546 9.11300e-18
9078.69387 9.06394e-18
9080.70238 9.06219e-18
9082.70079 9.15225e-18
9084.69921 9.37103e-18
9086.69762 9.60257e-18
9088.70613 9.72604e-18
9090.70454 9.76460e-18
9092.70296 9.68193e-18
9094.70137 9.53341e-18
9096.69978 9.36424e-18
9098.70829 9.24715e-18
9100.70671 9.18733e-18
9102.70512 9.25756e-18
9104.70353 9.37558e-18
9106.70195 9.50010e-18
9108.71045 9.61998e-18
9110.70887 9.75573e-18
9112.70728 9.88213e-18
9114.70570 9.95936e-18
9116.71420 9.92410e-18
9118.71262 9.87187e-18
9120.71103 9.90567e-18
9122.70945 9.94314e-18
9124.70786 9.92129e-18
9126.71637 9.80687e-18
9128.71478 9.60796e-18
9130.71319 9.33368e-18
9132.71161 9.07619e-18
9134.72012 8.97269e-18
9136.71853 8.94610e-18
9138.71694 8.99645e-18
9140.71536 9.04237e-18
9142.71377 9.00314e-18
9144.72228 8.83058e-18
9146.72069 8.65538e-18
9148.71911 8.61969e-18
9150.71752 8.67972e-18
9152.71593 8.92828e-18
9154.72444 9.19243e-18
9156.72286 9.28903e-18
9158.72127 9.14415e-18
9160.71968 8.94581e-18
9162.72819 8.86980e-18
9164.72660 8.82897e-18
9166.72502 8.80609e-18
9168.72343 8.81172e-18
9170.72185 8.86931e-18
9172.73035 8.95989e-18
9174.72877 9.05158e-18
9176.72718 9.10184e-18
9178.72559 9.12137e-18
9180.73410 9.07611e-18
9182.73252 9.02648e-18
9184.73093 9.00805e-18
9186.72934 9.04632e-18
9188.72776 9.15021e-18
9190.73626 9.31237e-18
9192.73468 9.46617e-18
9194.73309 9.47303e-18
9196.73151 9.47311e-18
9198.72992 9.56812e-18
9200.73843 9.69882e-18
9202.73684 9.75922e-18
9204.73526 9.71837e-18
9206.73367 9.68538e-18
9208.74218 9.78894e-18
9210.74059 9.89835e-18
9212.73901 9.90434e-18
9214.73742 9.89047e-18
9216.73583 9.94700e-18
9218.74434 1.00960e-17
9220.74275 1.02773e-17
9222.74117 1.04397e-17
9224.73958 1.05625e-17
9226.73800 1.05707e-17
9228.74650 1.05366e-17
9230.74492 1.05208e-17
9232.74333 1.05211e-17
9234.74175 1.04841e-17
9236.75025 1.03808e-17
9238.74867 1.02665e-17
9240.74708 1.01839e-17
9242.74549 1.01469e-17
9244.74391 1.01908e-17
9246.75242 1.02920e-17
9248.75083 1.04305e-17
9250.74924 1.05631e-17
9252.74766 1.06647e-17
9254.75616 1.06518e-17
9256.75458 1.06474e-17
9258.75299 1.07725e-17
9260.75141 1.09377e-17
9262.74982 1.10578e-17
9264.75833 1.10702e-17
9266.75674 1.10011e-17
9268.75516 1.08419e-17
9270.75357 1.06556e-17
9272.75198 1.04900e-17
9274.76049 1.03726e-17
9276.75890 1.03266e-17
9278.75732 1.03571e-17
9280.75573 1.04610e-17
9282.76424 1.06139e-17
9284.76265 1.07364e-17
9286.76107 1.06629e-17
9288.75948 1.05512e-17
9290.75790 1.05138e-17
9292.76640 1.05209e-17
9294.76482 1.04668e-17
9296.76323 1.03202e-17
9298.76164 1.01942e-17
9300.76006 1.02169e-17
9302.76857 1.03418e-17
9304.76698 1.06863e-17
9306.76539 1.10069e-17
9308.76381 1.10620e-17
9310.77231 1.07608e-17
9312.77073 1.03100e-17
9314.76914 9.87450e-18
9316.76756 9.61081e-18
9318.76597 9.94443e-18
9320.77448 1.04084e-17
9322.77289 1.05974e-17
9324.77131 1.04171e-17
9326.76972 1.01422e-17
9328.77823 9.96774e-18
9330.77664 9.81654e-18
9332.77505 9.66455e-18
9334.77347 9.59962e-18
9336.77188 9.75078e-18
9338.78039 1.00075e-17
9340.77880 1.02429e-17
9342.77722 1.02851e-17
9344.77563 1.01369e-17
9346.77405 9.47914e-18
9348.78255 8.94400e-18
9350.78097 9.11394e-18
9352.77938 9.67069e-18
9354.77779 1.01871e-17
9356.78630 1.03748e-17
9358.78471 1.04375e-17
9360.78313 1.04308e-17
9362.78154 1.03540e-17
9364.77996 1.02000e-17
9366.78846 1.00335e-17
9368.78688 9.82972e-18
9370.78529 9.73674e-18
9372.78371 9.93859e-18
9374.79221 1.06400e-17
9376.79063 1.13696e-17
9378.78904 1.16802e-17
9380.78746 1.16749e-17
9382.78587 1.12740e-17
9384.79438 1.06926e-17
9386.79279 1.01533e-17
9388.79120 9.90522e-18
9390.78962 9.76566e-18
9392.78803 9.64000e-18
9394.79654 9.57668e-18
9396.79495 9.62289e-18
9398.79337 9.70244e-18
9400.79178 9.70224e-18
9402.80029 9.61616e-18
9404.79870 9.62318e-18
9406.79712 9.98495e-18
9408.79553 1.03568e-17
9410.79394 1.04819e-17
9412.80245 1.04449e-17
9414.80086 1.03529e-17
9416.79928 1.02509e-17
9418.79769 1.00763e-17
9420.79611 9.80454e-18
9422.80461 9.59118e-18
9424.80303 9.65588e-18
9426.80144 9.83326e-18
9428.79986 1.00623e-17
9430.80836 1.02100e-17
9432.80678 1.01884e-17
9434.80519 9.91688e-18
9436.80361 9.61464e-18
9438.80202 9.53140e-18
9440.81053 9.56665e-18
9442.80894 9.78852e-18
9444.80735 1.00249e-17
9446.80577 1.00978e-17
9448.81428 9.89688e-18
9450.81269 9.60784e-18
9452.81110 9.34779e-18
9454.80952 9.25290e-18
9456.80793 9.69434e-18
9458.81644 1.02229e-17
9460.81485 1.03526e-17
9462.81327 9.95941e-18
9464.81168 9.46702e-18
9466.81009 9.25459e-18
9468.81860 9.23802e-18
9470.81702 9.59287e-18
9472.81543 1.00974e-17
9474.81384 1.06785e-17
9476.82235 1.11055e-17
9478.82076 1.12439e-17
9480.81918 1.09099e-17
9482.81759 1.03989e-17
9484.81601 9.89751e-18
9486.82451 9.52945e-18
9488.82293 9.49828e-18
9490.82134 9.69586e-18
9492.81976 9.97353e-18
9494.81817 1.01274e-17
9496.82668 1.01191e-17
9498.82509 9.67360e-18
9500.82350 9.16317e-18
9502.82192 8.78554e-18
9504.83043 8.60840e-18
9506.82884 8.65930e-18
9508.82725 8.89401e-18
9510.82567 9.18441e-18
9512.82408 9.36195e-18
9514.83259 9.44602e-18
9516.83100 9.28971e-18
9518.82942 9.11222e-18
9520.82783 9.14008e-18
9522.82624 9.35148e-18
9524.83475 9.52773e-18
9526.83317 9.46717e-18
9528.83158 9.29522e-18
9530.82999 8.97765e-18
9532.83850 8.68808e-18
9534.83691 8.60324e-18
9536.83533 8.66213e-18
9538.83374 8.70707e-18
9540.83216 8.61657e-18
9542.84066 8.47981e-18
9544.83908 8.29891e-18
9546.83749 8.16777e-18
9548.83591 8.20200e-18
9550.83432 8.32816e-18
9552.84283 8.47131e-18
9554.84124 8.54358e-18
9556.83965 8.54136e-18
9558.83807 8.39544e-18
9560.84658 8.21343e-18
9562.84499 8.08498e-18
9564.84340 7.97645e-18
9566.84182 7.84899e-18
9568.84023 7.69476e-18
9570.84874 7.52716e-18
9572.84715 7.36088e-18
9574.84557 7.23346e-18
9576.84398 7.18557e-18
9578.84239 7.23219e-18
9580.85090 7.44271e-18
9582.84931 7.72071e-18
9584.84773 7.95759e-18
9586.84614 8.02442e-18
9588.85465 7.98374e-18
9590.85306 7.77820e-18
9592.85148 7.55563e-18
9594.84989 7.39374e-18
9596.84831 7.35138e-18
9598.85681 7.46914e-18
9600.85523 7.72312e-18
9602.85364 7.98765e-18
9604.85206 8.09239e-18
9606.86056 8.10886e-18
9608.85898 7.96135e-18
9610.85739 7.82022e-18
9612.85580 7.86269e-18
9614.85422 8.10087e-18
9616.86273 8.35786e-18
9618.86114 8.45888e-18
9620.85955 8.45081e-18
9622.85797 8.22263e-18
9624.85638 7.96377e-18
9626.86489 7.80854e-18
9628.86330 7.81023e-18
9630.86172 7.93736e-18
9632.86013 8.14305e-18
9634.86864 8.29258e-18
9636.86705 8.04983e-18
9638.86547 7.80261e-18
9640.86388 7.82758e-18
9642.86229 8.04605e-18
9644.87080 8.27308e-18
9646.86921 8.37180e-18
9648.86763 8.40884e-18
9650.86604 8.37140e-18
9652.86446 8.29892e-18
9654.87296 8.19053e-18
9656.87138 8.11541e-18
9658.86979 8.14153e-18
9660.86821 8.27415e-18
9662.87671 8.43300e-18
9664.87513 8.53499e-18
9666.87354 8.59742e-18
9668.87195 8.59144e-18
9670.87037 8.54075e-18
9672.87888 8.43949e-18
9674.87729 8.33673e-18
9676.87570 8.27931e-18
9678.87412 8.32162e-18
9680.88262 8.39296e-18
9682.88104 8.43745e-18
9684.87945 8.46654e-18
9686.87787 8.46479e-18
9688.87628 8.45729e-18
9690.88479 8.48752e-18
9692.88320 8.56299e-18
9694.88162 8.61151e-18
9696.88003 8.52678e-18
9698.87844 8.39533e-18
9700.88695 8.22062e-18
9702.88536 8.07755e-18
9704.88378 8.02101e-18
9706.88219 8.08593e-18
9708.89070 8.23145e-18
9710.88911 8.43965e-18
9712.88753 8.60274e-18
9714.88594 8.52909e-18
9716.88436 8.39963e-18
9718.89286 8.39627e-18
9720.89128 8.51766e-18
9722.88969 8.58021e-18
9724.88810 8.45231e-18
9726.89661 8.36143e-18
9728.89503 8.60229e-18
9730.89344 8.90432e-18
9732.89185 9.10237e-18
9734.89027 9.15969e-18
9736.89877 9.13017e-18
9738.89719 9.06528e-18
9740.89560 9.02427e-18
9742.89402 9.18182e-18
9744.89243 9.32933e-18
9746.90094 9.34637e-18
9748.89935 9.23666e-18
9750.89776 9.00914e-18
9752.89618 8.73907e-18
9754.90469 8.52862e-18
9756.90310 8.56221e-18
9758.90151 8.63443e-18
9760.89993 8.62774e-18
9762.89834 8.53310e-18
9764.90685 8.31270e-18
9766.90526 8.04032e-18
9768.90368 7.83855e-18
9770.90209 7.85421e-18
9772.90051 7.92585e-18
9774.90901 7.92605e-18
9776.90743 7.91570e-18
9778.90584 7.91461e-18
9780.90425 7.95762e-18
9782.91276 8.08247e-18
9784.91118 8.29752e-18
9786.90959 8.50052e-18
9788.90800 8.53086e-18
9790.90642 8.50082e-18
9792.91492 8.45809e-18
9794.91334 8.39453e-18
9796.91175 8.25806e-18
9798.91017 8.06620e-18
9800.91867 7.89974e-18
9802.91709 7.87753e-18
9804.91550 7.91125e-18
9806.91392 7.98262e-18
9808.91233 8.05193e-18
9810.92084 8.08049e-18
9812.91925 8.07295e-18
9814.91766 8.09490e-18
9816.91608 8.20913e-18
9818.91449 8.29928e-18
9820.92300 8.26054e-18
9822.92141 8.12379e-18
9824.91983 7.86616e-18
9826.91824 7.56805e-18
9828.92675 7.30343e-18
9830.92516 7.17345e-18
9832.92358 7.12924e-18
9834.92199 7.17659e-18
9836.92040 7.29659e-18
9838.92891 7.55058e-18
9840.92733 7.78489e-18
9842.92574 7.80643e-18
9844.92415 7.55865e-18
9846.92257 7.32741e-18
9848.93107 7.48903e-18
9850.92949 7.72357e-18
9852.92790 7.89415e-18
9854.92632 7.97337e-18
9856.93482 7.97127e-18
9858.93324 7.89055e-18
9860.93165 7.75452e-18
9862.93007 7.59012e-18
9864.92848 7.40961e-18
9866.93699 7.19242e-18
9868.93540 7.04207e-18
9870.93381 7.07829e-18
9872.93223 7.25731e-18
9874.94074 7.44110e-18
9876.93915 7.49883e-18
9878.93756 7.52888e-18
9880.93598 7.60117e-18
9882.93439 7.64892e-18
9884.94290 7.63738e-18
9886.94131 7.55257e-18
9888.93973 7.36582e-18
9890.93814 7.11848e-18
9892.93655 6.93789e-18
9894.94506 7.08722e-18
9896.94348 7.27144e-18
9898.94189 7.29571e-18
9900.94030 7.22329e-18
9902.94881 7.17093e-18
9904.94722 7.17777e-18
9906.94564 7.15858e-18
9908.94405 7.03314e-18
9910.94247 6.96800e-18
9912.95097 7.15859e-18
9914.94939 7.45319e-18
9916.94780 7.78125e-18
9918.94621 7.99715e-18
9920.95472 8.01292e-18
9922.95314 7.71130e-18
9924.95155 7.36671e-18
9926.94996 7.29504e-18
9928.94838 7.31536e-18
9930.95689 7.33287e-18
9932.95530 7.33177e-18
9934.95371 7.37913e-18
9936.95213 7.46953e-18
9938.95054 7.50459e-18
9940.95905 7.22541e-18
9942.95746 7.01695e-18
9944.95588 7.20701e-18
9946.95429 7.61107e-18
9948.96280 8.04465e-18
9950.96121 8.25198e-18
9952.95963 8.14672e-18
9954.95804 7.39493e-18
9956.95645 6.67276e-18
9958.96496 6.63473e-18
9960.96337 6.95157e-18
9962.96179 7.36604e-18
9964.96020 7.63232e-18
9966.95862 7.72330e-18
9968.96712 7.49912e-18
9970.96554 7.23012e-18
9972.96395 7.21002e-18
9974.96236 7.26398e-18
9976.97087 7.24311e-18
9978.96929 7.20279e-18
9980.96770 7.32746e-18
9982.96611 7.68977e-18
9984.96453 8.01557e-18
9986.97304 7.89126e-18
9988.97145 7.64726e-18
9990.96986 7.41598e-18
9992.96828 7.23096e-18
9994.97678 7.02756e-18
9996.97520 6.83620e-18
9998.97361 6.73147e-18
10000.97203 6.84613e-18
10002.97044 7.02241e-18
