# wavelength flux
3431.02451 2.51213e-18
3433.96158 8.00735e-18
3436.90873 8.87629e-18
3439.85589 8.74902e-18
3442.79295 1.05485e-17
3445.74011 1.19683e-17
3448.68726 3.23670e-18
3451.63442 9.24791e-18
3454.57148 1.27567e-17
3457.51864 9.82143e-18
3460.46579 7.26378e-18
3463.41295 1.14791e-17
3466.35001 9.50279e-18
3469.29717 9.69948e-18
3472.24433 1.27357e-17
3475.18139 1.01213e-17
3478.12854 8.64988e-18
3481.07570 9.48387e-18
3484.02286 9.90449e-18
3486.95992 9.23924e-18
3489.90708 9.50718e-18
3492.85423 1.28573e-17
3495.79129 6.47060e-18
3498.73845 4.71325e-18
3501.68561 5.40595e-18
3504.63276 8.37385e-18
3507.56983 7.71442e-18
3510.51698 4.33992e-18
3513.46414 4.90286e-18
3516.41129 5.25977e-18
3519.34836 9.17911e-18
3522.29551 9.25734e-18
3525.24267 6.02433e-18
3528.17973 7.81961e-18
3531.12689 9.67990e-18
3534.07404 6.69250e-18
3537.02120 8.49595e-18
3539.95826 8.95684e-18
3542.90542 5.11100e-18
3545.85257 3.35447e-18
3548.79973 4.83243e-18
3551.73679 7.19791e-18
3554.68395 6.25588e-18
3557.63111 6.86195e-18
3560.56817 8.41110e-18
3563.51532 8.30166e-18
3566.46248 6.66540e-18
3569.40964 9.17161e-18
3572.34670 7.64707e-18
3575.29386 5.61354e-18
3578.24101 4.34490e-18
3581.18817 4.71045e-18
3584.12523 6.45161e-18
3587.07239 8.54477e-18
3590.01954 8.80989e-18
3592.95661 6.85675e-18
3595.90376 7.38922e-18
3598.85092 7.71118e-18
3601.79807 5.93362e-18
3604.73514 5.31926e-18
3607.68229 5.66899e-18
3610.62945 6.30118e-18
3613.57660 9.20244e-18
3616.51367 9.54692e-18
3619.46082 7.34008e-18
3622.40798 9.60956e-18
3625.34504 9.58529e-18
3628.29220 8.37237e-18
3631.23935 6.21562e-18
3634.18651 5.88958e-18
3637.12357 6.74369e-18
3640.07073 7.48847e-18
3643.01789 6.11546e-18
3645.95495 5.71071e-18
3648.90210 7.67418e-18
3651.84926 7.69804e-18
3654.79642 6.65397e-18
3657.73348 7.96729e-18
3660.68064 7.38411e-18
3663.62779 6.47180e-18
3666.57495 7.35961e-18
3669.51201 6.97259e-18
3672.45917 6.70518e-18
3675.40632 7.53420e-18
3678.34339 6.43410e-18
3681.29054 4.20594e-18
3684.23770 5.58716e-18
3687.18485 6.69133e-18
3690.12192 6.78009e-18
3693.06907 7.18254e-18
3696.01623 7.82510e-18
3698.96338 9.08834e-18
3701.90045 7.90092e-18
3704.84760 7.83194e-18
3707.79476 8.66464e-18
3710.73182 8.08476e-18
3713.67898 8.04901e-18
3716.62613 8.09089e-18
3719.57329 8.69761e-18
3722.51035 8.38446e-18
3725.45751 6.45325e-18
3728.40467 5.41110e-18
3731.34173 5.91256e-18
3734.28888 6.53469e-18
3737.23604 5.68280e-18
3740.18320 5.46675e-18
3743.12026 4.13162e-18
3746.06742 4.06264e-18
3749.01457 5.29773e-18
3751.96173 4.80242e-18
3754.89879 6.23826e-18
3757.84595 8.35736e-18
3760.79310 7.94995e-18
3763.73017 6.84794e-18
3766.67732 6.68480e-18
3769.62448 5.10252e-18
3772.57163 3.17759e-18
3775.50870 3.43853e-18
3778.45585 3.68504e-18
3781.40301 3.51536e-18
3784.35016 4.22421e-18
3787.28723 2.85872e-18
3790.23438 2.70134e-18
3793.18154 3.22702e-18
3796.11860 2.66476e-18
3799.06576 3.61011e-18
3802.01291 4.07184e-18
3804.96007 3.76104e-18
3807.89713 3.46937e-18
3810.84429 2.30191e-18
3813.79145 2.49788e-18
3816.72851 2.86746e-18
3819.67566 3.09848e-18
3822.62282 3.49900e-18
3825.56998 3.29528e-18
3828.50704 2.28527e-18
3831.45420 2.75091e-18
3834.40135 3.51542e-18
3837.34851 2.52893e-18
3840.28557 2.34846e-18
3843.23273 3.59767e-18
3846.17988 3.86272e-18
3849.11695 3.99562e-18
3852.06410 4.05798e-18
3855.01126 4.41006e-18
3857.95841 4.79650e-18
3860.89548 4.25843e-18
3863.84263 4.34179e-18
3866.78979 5.45551e-18
3869.73694 5.36729e-18
3872.67401 5.33707e-18
3875.62116 5.91589e-18
3878.56832 5.71878e-18
3881.50538 5.80445e-18
3884.45254 7.39774e-18
3887.39969 7.10323e-18
3890.34685 5.98681e-18
3893.28391 6.96375e-18
3896.23107 8.13291e-18
3899.17823 7.36913e-18
3902.12538 7.66918e-18
3905.06244 8.16255e-18
3908.00960 8.59027e-18
3910.95676 1.05793e-17
3913.89382 1.12238e-17
3916.84098 1.07870e-17
3919.78813 1.12126e-17
3922.73529 1.23055e-17
3925.67235 1.18654e-17
3928.61951 1.07524e-17
3931.56666 1.12670e-17
3934.51382 1.19747e-17
3937.45088 1.16709e-17
3940.39804 1.25702e-17
3943.34519 1.34728e-17
3946.28226 1.27128e-17
3949.22941 1.28449e-17
3952.17657 1.41068e-17
3955.12372 1.48901e-17
3958.06079 1.53805e-17
3961.00794 1.53645e-17
3963.95510 1.46957e-17
3966.89216 1.50493e-17
3969.83932 1.55359e-17
3972.78647 1.55118e-17
3975.73363 1.67353e-17
3978.67069 1.80281e-17
3981.61785 1.85960e-17
3984.56501 1.94738e-17
3987.51216 1.86680e-17
3990.44922 1.84627e-17
3993.39638 1.92367e-17
3996.34354 1.90008e-17
3999.28060 1.91092e-17
4002.22776 1.91389e-17
4005.17491 1.96096e-17
4008.12207 2.02955e-17
4011.05913 1.94198e-17
4014.00629 1.97103e-17
4016.95344 1.99420e-17
4019.90060 1.97074e-17
4022.83766 1.98834e-17
4025.78482 1.96208e-17
4028.73197 1.94372e-17
4031.66904 1.98805e-17
4034.61619 1.92697e-17
4037.56335 1.88703e-17
4040.51050 1.90765e-17
4043.44757 1.90646e-17
4046.39472 1.85035e-17
4049.34188 1.80728e-17
4052.27894 1.81953e-17
4055.22610 1.82354e-17
4058.17325 1.79817e-17
4061.12041 1.83795e-17
4064.05747 1.86914e-17
4067.00463 1.82823e-17
4069.95179 1.77999e-17
4072.89894 1.78103e-17
4075.83600 1.78252e-17
4078.78316 1.72597e-17
4081.73032 1.62900e-17
4084.66738 1.61188e-17
4087.61454 1.68149e-17
4090.56169 1.67988e-17
4093.50885 1.67568e-17
4096.44591 1.60291e-17
4099.39307 1.55799e-17
4102.34022 1.60664e-17
4105.28738 1.53771e-17
4108.22444 1.49193e-17
4111.17160 1.56139e-17
4114.11875 1.59561e-17
4117.05582 1.55250e-17
4120.00297 1.49963e-17
4122.95013 1.48260e-17
4125.89728 1.50916e-17
4128.83435 1.51476e-17
4131.78150 1.53339e-17
4134.72866 1.48139e-17
4137.67582 1.44768e-17
4140.61288 1.46748e-17
4143.56003 1.47467e-17
4146.50719 1.44792e-17
4149.44425 1.37373e-17
4152.39141 1.33327e-17
4155.33857 1.35107e-17
4158.28572 1.37242e-17
4161.22278 1.38225e-17
4164.16994 1.38370e-17
4167.11710 1.35424e-17
4170.05416 1.41871e-17
4173.00132 1.44269e-17
4175.94847 1.38395e-17
4178.89563 1.39058e-17
4181.83269 1.42447e-17
4184.77985 1.41958e-17
4187.72700 1.42696e-17
4190.67416 1.47754e-17
4193.61122 1.38446e-17
4196.55838 1.36547e-17
4199.50553 1.42598e-17
4202.44260 1.40501e-17
4205.38975 1.42718e-17
4208.33691 1.42486e-17
4211.28406 1.40267e-17
4214.22113 1.39066e-17
4217.16828 1.40647e-17
4220.11544 1.43320e-17
4223.06260 1.49416e-17
4225.99966 1.44988e-17
4228.94681 1.43414e-17
4231.89397 1.44268e-17
4234.83103 1.38565e-17
4237.77819 1.33366e-17
4240.72534 1.36041e-17
4243.67250 1.43503e-17
4246.60956 1.44619e-17
4249.55672 1.38594e-17
4252.50388 1.37707e-17
4255.44094 1.40949e-17
4258.38810 1.41677e-17
4261.33525 1.42391e-17
4264.28241 1.44732e-17
4267.21947 1.39927e-17
4270.16663 1.37811e-17
4273.11378 1.40122e-17
4276.06094 1.39342e-17
4278.99800 1.37839e-17
4281.94516 1.37535e-17
4284.89231 1.33460e-17
4287.82938 1.32839e-17
4290.77653 1.31665e-17
4293.72369 1.30974e-17
4296.67084 1.31159e-17
4299.60791 1.29532e-17
4302.55506 1.28998e-17
4305.50222 1.29421e-17
4308.44938 1.28825e-17
4311.38644 1.23545e-17
4314.33359 1.25968e-17
4317.28075 1.27054e-17
4320.21781 1.24369e-17
4323.16497 1.23833e-17
4326.11213 1.25023e-17
4329.05928 1.24318e-17
4331.99634 1.27560e-17
4334.94350 1.25153e-17
4337.89066 1.23287e-17
4340.83781 1.22241e-17
4343.77488 1.18797e-17
4346.72203 1.15096e-17
4349.66919 1.14335e-17
4352.60625 1.13573e-17
4355.55341 1.12812e-17
4358.50056 1.12051e-17
4361.44772 1.11290e-17
4364.38478 1.10529e-17
4367.33194 1.09768e-17
4370.27909 1.09008e-17
4373.21616 1.08248e-17
4376.16331 1.09977e-17
4379.11047 1.11457e-17
4382.05762 1.13144e-17
4384.99469 1.12339e-17
4387.94184 1.11740e-17
4390.88900 1.09829e-17
4393.83616 1.09043e-17
4396.77322 1.09209e-17
4399.72037 1.08767e-17
4402.66753 1.12236e-17
4405.60459 1.18198e-17
4408.55175 1.21107e-17
4411.49891 1.20403e-17
4414.44606 1.21778e-17
4417.38312 1.23497e-17
4420.33028 1.21381e-17
4423.27744 1.21068e-17
4426.22459 1.24630e-17
4429.16166 1.24971e-17
4432.10881 1.21550e-17
4435.05597 1.23771e-17
4437.99303 1.21536e-17
4440.94019 1.23556e-17
4443.88734 1.20594e-17
4446.83450 1.22666e-17
4449.77156 1.26940e-17
4452.71872 1.24172e-17
4455.66587 1.23423e-17
4458.61303 1.24665e-17
4461.55009 1.24943e-17
4464.49725 1.26310e-17
4467.44440 1.29907e-17
4470.38147 1.32994e-17
4473.32862 1.35596e-17
4476.27578 1.33534e-17
4479.22293 1.33317e-17
4482.16000 1.32148e-17
4485.10715 1.36710e-17
4488.05431 1.36227e-17
4490.99137 1.36906e-17
4493.93853 1.43541e-17
4496.88569 1.43234e-17
4499.83284 1.42713e-17
4502.76990 1.44120e-17
4505.71706 1.43731e-17
4508.66422 1.47862e-17
4511.61137 1.49451e-17
4514.54844 1.50735e-17
4517.49559 1.53410e-17
4520.44275 1.57682e-17
4523.37981 1.56319e-17
4526.32697 1.59521e-17
4529.27412 1.64303e-17
4532.22128 1.66862e-17
4535.15834 1.70685e-17
4538.10550 1.70372e-17
4541.05265 1.73391e-17
4543.98972 1.73966e-17
4546.93687 1.75955e-17
4549.88403 1.76377e-17
4552.83118 1.77803e-17
4555.76825 1.82011e-17
4558.71540 1.82083e-17
4561.66256 1.85545e-17
4564.60972 1.92538e-17
4567.54678 1.93658e-17
4570.49393 1.93274e-17
4573.44109 1.96016e-17
4576.38825 1.99653e-17
4579.32531 2.02096e-17
4582.27247 2.03946e-17
4585.21962 2.03945e-17
4588.15668 2.07325e-17
4591.10384 2.11766e-17
4594.05100 2.12933e-17
4596.99815 2.09067e-17
4599.93522 2.10682e-17
4602.88237 2.14746e-17
4605.82953 2.08997e-17
4608.76659 2.13753e-17
4611.71375 2.20560e-17
4614.66090 2.15483e-17
4617.60806 2.11861e-17
4620.54512 2.12901e-17
4623.49228 2.15257e-17
4626.43943 2.13980e-17
4629.38659 2.15460e-17
4632.32365 2.13257e-17
4635.27081 2.15365e-17
4638.21796 2.20287e-17
4641.15503 2.17055e-17
4644.10218 2.15772e-17
4647.04934 2.20482e-17
4649.99650 2.20741e-17
4652.93356 2.19364e-17
4655.88071 2.21311e-17
4658.82787 2.17371e-17
4661.77503 2.21079e-17
4664.71209 2.21101e-17
4667.65924 2.19396e-17
4670.60640 2.20758e-17
4673.54346 2.20692e-17
4676.49062 2.15335e-17
4679.43778 2.14152e-17
4682.38493 2.18093e-17
4685.32200 2.17537e-17
4688.26915 2.17587e-17
4691.21631 2.19058e-17
4694.15337 2.19324e-17
4697.10053 2.15849e-17
4700.04768 2.16221e-17
4702.99484 2.13539e-17
4705.93190 2.12867e-17
4708.87906 2.14354e-17
4711.82621 2.08416e-17
4714.77337 2.02444e-17
4717.71043 2.04789e-17
4720.65759 2.09187e-17
4723.60474 2.07457e-17
4726.55190 2.02543e-17
4729.48896 1.98866e-17
4732.43612 1.94878e-17
4735.38328 1.96069e-17
4738.32034 1.95237e-17
4741.26749 1.92579e-17
4744.21465 1.92728e-17
4747.16181 1.88653e-17
4750.09887 1.85639e-17
4753.04603 1.86217e-17
4755.99318 1.88194e-17
4758.93024 1.85837e-17
4761.87740 1.81092e-17
4764.82456 1.82036e-17
4767.77171 1.83369e-17
4770.70878 1.79663e-17
4773.65593 1.77317e-17
4776.60309 1.76330e-17
4779.55024 1.74667e-17
4782.48731 1.74460e-17
4785.43446 1.71252e-17
4788.38162 1.65234e-17
4791.31868 1.64243e-17
4794.26584 1.62544e-17
4797.21299 1.56956e-17
4800.16015 1.53315e-17
4803.09721 1.50137e-17
4806.04437 1.46237e-17
4808.99152 1.44299e-17
4811.92859 1.42810e-17
4814.87574 1.43088e-17
4817.82290 1.42678e-17
4820.77006 1.36334e-17
4823.70712 1.31571e-17
4826.65427 1.29796e-17
4829.60143 1.31909e-17
4832.54859 1.37170e-17
4835.48565 1.35907e-17
4838.43281 1.31082e-17
4841.37996 1.30784e-17
4844.31702 1.33820e-17
4847.26418 1.32977e-17
4850.21134 1.30056e-17
4853.15849 1.26767e-17
4856.09556 1.28756e-17
4859.04271 1.34468e-17
4861.98987 1.33964e-17
4864.92693 1.33935e-17
4867.87409 1.35194e-17
4870.82124 1.33832e-17
4873.76840 1.34869e-17
4876.70546 1.33609e-17
4879.65262 1.30845e-17
4882.59977 1.28243e-17
4885.54693 1.26049e-17
4888.48399 1.30753e-17
4891.43115 1.29832e-17
4894.37830 1.28440e-17
4897.32546 1.27504e-17
4900.26252 1.31823e-17
4903.20968 1.32722e-17
4906.15684 1.30880e-17
4909.09390 1.34475e-17
4912.04105 1.33834e-17
4914.98821 1.32930e-17
4917.93537 1.32982e-17
4920.87243 1.38207e-17
4923.81959 1.40609e-17
4926.76674 1.40841e-17
4929.70380 1.40682e-17
4932.65096 1.43885e-17
4935.59812 1.50912e-17
4938.54527 1.55052e-17
4941.48234 1.59903e-17
4944.42949 1.65012e-17
4947.37665 1.69904e-17
4950.32380 1.75317e-17
4953.26087 1.78059e-17
4956.20802 1.77661e-17
4959.15518 1.79984e-17
4962.09224 1.84597e-17
4965.03940 1.91229e-17
4967.98655 1.94324e-17
4970.93371 1.92241e-17
4973.87077 1.92218e-17
4976.81793 1.96069e-17
4979.76508 1.98008e-17
4982.71224 1.96055e-17
4985.64930 1.96963e-17
4988.59646 2.03860e-17
4991.54362 2.08684e-17
4994.48068 2.05816e-17
4997.42783 2.05866e-17
5000.37499 2.06137e-17
5003.32215 2.06809e-17
5006.25921 2.07244e-17
5009.20637 2.09800e-17
5012.15352 2.05867e-17
5015.09058 1.98179e-17
5018.03774 1.97072e-17
5020.98490 1.96968e-17
5023.93205 1.96550e-17
5026.86912 1.96011e-17
5029.81627 1.87563e-17
5032.76343 1.75722e-17
5035.71058 1.75556e-17
5038.64765 1.77920e-17
5041.59480 1.75937e-17
5044.54196 1.72553e-17
5047.48911 1.70005e-17
5050.42618 1.71569e-17
5053.37333 1.72574e-17
5056.32049 1.72234e-17
5059.25755 1.67378e-17
5062.20471 1.65899e-17
5065.15186 1.65690e-17
5068.09902 1.61130e-17
5071.03608 1.57781e-17
5073.98324 1.58124e-17
5076.93040 1.62460e-17
5079.86746 1.65545e-17
5082.81461 1.60412e-17
5085.76177 1.57501e-17
5088.70893 1.59438e-17
5091.64599 1.62136e-17
5094.59314 1.67059e-17
5097.54030 1.66947e-17
5100.48746 1.66461e-17
5103.42452 1.68396e-17
5106.37168 1.68973e-17
5109.31883 1.66958e-17
5112.25590 1.69035e-17
5115.20305 1.69795e-17
5118.15021 1.72192e-17
5121.09736 1.76094e-17
5124.03443 1.76368e-17
5126.98158 1.77839e-17
5129.92874 1.78382e-17
5132.86580 1.80494e-17
5135.81296 1.81912e-17
5138.76011 1.82092e-17
5141.70727 1.82414e-17
5144.64433 1.81413e-17
5147.59149 1.82175e-17
5150.53864 1.83266e-17
5153.48580 1.87333e-17
5156.42286 1.87457e-17
5159.37002 1.82592e-17
5162.31718 1.85596e-17
5165.25424 1.90896e-17
5168.20139 1.92685e-17
5171.14855 1.90580e-17
5174.09571 1.88114e-17
5177.03277 1.92766e-17
5179.97993 1.93227e-17
5182.92708 1.89626e-17
5185.86414 1.90782e-17
5188.81130 1.92440e-17
5191.75846 1.91801e-17
5194.70561 1.94343e-17
5197.64268 1.96114e-17
5200.58983 1.95647e-17
5203.53699 1.98013e-17
5206.48414 1.98128e-17
5209.42121 1.91999e-17
5212.36836 1.89807e-17
5215.31552 1.93960e-17
5218.26267 1.95187e-17
5221.19974 1.98005e-17
5224.14689 2.01934e-17
5227.09405 2.04959e-17
5230.03111 2.04497e-17
5232.97827 2.02088e-17
5235.92542 2.03588e-17
5238.87258 2.06279e-17
5241.80964 2.09219e-17
5244.75680 2.12444e-17
5247.70396 2.14907e-17
5250.64102 2.15113e-17
5253.58817 2.14259e-17
5256.53533 2.18426e-17
5259.48249 2.23388e-17
5262.41955 2.24360e-17
5265.36671 2.28891e-17
5268.31386 2.33814e-17
5271.26102 2.33669e-17
5274.19808 2.30098e-17
5277.14524 2.25379e-17
5280.09239 2.24261e-17
5283.02946 2.29057e-17
5285.97661 2.31421e-17
5288.92377 2.28918e-17
5291.87092 2.31687e-17
5294.80799 2.32142e-17
5297.75514 2.29635e-17
5300.70230 2.30207e-17
5303.64945 2.34668e-17
5306.58652 2.36933e-17
5309.53367 2.40035e-17
5312.48083 2.41755e-17
5315.41789 2.40555e-17
5318.36505 2.37772e-17
5321.31220 2.40715e-17
5324.25936 2.43459e-17
5327.19642 2.44316e-17
5330.14358 2.43784e-17
5333.09074 2.43106e-17
5336.02780 2.46678e-17
5338.97495 2.50949e-17
5341.92211 2.46169e-17
5344.86927 2.45559e-17
5347.80633 2.47561e-17
5350.75349 2.48850e-17
5353.70064 2.51077e-17
5356.64780 2.48526e-17
5359.58486 2.47889e-17
5362.53202 2.49210e-17
5365.47917 2.52369e-17
5368.42633 2.49968e-17
5371.36339 2.46267e-17
5374.31055 2.48136e-17
5377.25770 2.50848e-17
5380.19477 2.48304e-17
5383.14192 2.44942e-17
5386.08908 2.45450e-17
5389.03623 2.42677e-17
5391.97330 2.42489e-17
5394.92045 2.42170e-17
5397.86761 2.43870e-17
5400.80467 2.42521e-17
5403.75183 2.41385e-17
5406.69898 2.42165e-17
5409.64614 2.42446e-17
5412.58320 2.41909e-17
5415.53036 2.41520e-17
5418.47752 2.41477e-17
5421.42467 2.41706e-17
5424.36173 2.38832e-17
5427.30889 2.38420e-17
5430.25605 2.40192e-17
5433.19311 2.43625e-17
5436.14027 2.41539e-17
5439.08742 2.39527e-17
5442.03458 2.44538e-17
5444.97164 2.43782e-17
5447.91880 2.40246e-17
5450.86595 2.40736e-17
5453.80302 2.42101e-17
5456.75017 2.43467e-17
5459.69733 2.44832e-17
5462.64448 2.46196e-17
5465.58155 2.47561e-17
5468.52870 2.48926e-17
5471.47586 2.50289e-17
5474.42301 2.51653e-17
5477.36008 2.54119e-17
5480.30723 2.53097e-17
5483.25439 2.51997e-17
5486.20154 2.49519e-17
5489.13861 2.51336e-17
5492.08576 2.51416e-17
5495.03292 2.51595e-17
5497.96998 2.52453e-17
5500.91714 2.51216e-17
5503.86430 2.52179e-17
5506.81145 2.54197e-17
5509.74851 2.48031e-17
5512.69567 2.47048e-17
5515.64283 2.45240e-17
5518.57989 2.44762e-17
5521.52704 2.45623e-17
5524.47420 2.43400e-17
5527.42136 2.40548e-17
5530.35842 2.40721e-17
5533.30558 2.41172e-17
5536.25273 2.38420e-17
5539.19989 2.38640e-17
5542.13695 2.41401e-17
5545.08411 2.40393e-17
5548.03126 2.36486e-17
5550.96833 2.37904e-17
5553.91548 2.37882e-17
5556.86264 2.34371e-17
5559.80979 2.34697e-17
5562.74686 2.32661e-17
5565.69401 2.29990e-17
5568.64117 2.34664e-17
5571.57823 2.32593e-17
5574.52539 2.25860e-17
5577.47254 2.28236e-17
5580.41970 2.33937e-17
5583.35676 2.36685e-17
5586.30392 2.32507e-17
5589.25108 2.29631e-17
5592.19823 2.31693e-17
5595.13529 2.33135e-17
5598.08245 2.27671e-17
5601.02961 2.23938e-17
5603.96667 2.27726e-17
5606.91383 2.29795e-17
5609.86098 2.27815e-17
5612.80814 2.26404e-17
5615.74520 2.26376e-17
5618.69236 2.26137e-17
5621.63951 2.17812e-17
5624.58667 2.18244e-17
5627.52373 2.19994e-17
5630.47089 2.18528e-17
5633.41804 2.16977e-17
5636.35511 2.09682e-17
5639.30226 2.06466e-17
5642.24942 2.01550e-17
5645.19657 1.96743e-17
5648.13364 1.93378e-17
5651.08079 1.84854e-17
5654.02795 1.80006e-17
5656.97511 1.75485e-17
5659.91217 1.67797e-17
5662.85932 1.63350e-17
5665.80648 1.59134e-17
5668.74354 1.54031e-17
5671.69070 1.49752e-17
5674.63786 1.42733e-17
5677.58501 1.37897e-17
5680.52207 1.36362e-17
5683.46923 1.33117e-17
5686.41639 1.32043e-17
5689.36354 1.30080e-17
5692.30061 1.29094e-17
5695.24776 1.30351e-17
5698.19492 1.26063e-17
5701.13198 1.24041e-17
5704.07914 1.24726e-17
5707.02629 1.23575e-17
5709.97345 1.24046e-17
5712.91051 1.21874e-17
5715.85767 1.25995e-17
5718.80482 1.22263e-17
5721.74189 1.18611e-17
5724.68904 1.20862e-17
5727.63620 1.19532e-17
5730.58335 1.19589e-17
5733.52042 1.18882e-17
5736.46757 1.21866e-17
5739.41473 1.24514e-17
5742.36189 1.24576e-17
5745.29895 1.24758e-17
5748.24610 1.27291e-17
5751.19326 1.30768e-17
5754.13032 1.32792e-17
5757.07748 1.35130e-17
5760.02464 1.35379e-17
5762.97179 1.36777e-17
5765.90885 1.38009e-17
5768.85601 1.37376e-17
5771.80317 1.41536e-17
5774.74023 1.44247e-17
5777.68739 1.47541e-17
5780.63454 1.52460e-17
5783.58170 1.57175e-17
5786.51876 1.61012e-17
5789.46592 1.62097e-17
5792.41307 1.63717e-17
5795.36023 1.71200e-17
5798.29729 1.74156e-17
5801.24445 1.73425e-17
5804.19160 1.79340e-17
5807.12867 1.86606e-17
5810.07582 1.91631e-17
5813.02298 1.96584e-17
5815.97013 1.99089e-17
5818.90720 1.98922e-17
5821.85435 2.05124e-17
5824.80151 2.10830e-17
5827.74867 2.13458e-17
5830.68573 2.17186e-17
5833.63288 2.20884e-17
5836.58004 2.24817e-17
5839.51710 2.29757e-17
5842.46426 2.31494e-17
5845.41142 2.33811e-17
5848.35857 2.37973e-17
5851.29563 2.37121e-17
5854.24279 2.36584e-17
5857.18995 2.40547e-17
5860.13710 2.43462e-17
5863.07417 2.43374e-17
5866.02132 2.47780e-17
5868.96848 2.40869e-17
5871.90554 2.35557e-17
5874.85270 2.38061e-17
5877.79985 2.41323e-17
5880.74701 2.40665e-17
5883.68407 2.34170e-17
5886.63123 2.29262e-17
5889.57838 2.26879e-17
5892.52554 2.22789e-17
5895.46260 2.21937e-17
5898.40976 2.29133e-17
5901.35691 2.29958e-17
5904.29398 2.30105e-17
5907.24113 2.34413e-17
5910.18829 2.33201e-17
5913.13544 2.31205e-17
5916.07251 2.32810e-17
5919.01966 2.34753e-17
5921.96682 2.34529e-17
5924.90388 2.32262e-17
5927.85104 2.32393e-17
5930.79820 2.32353e-17
5933.74535 2.31024e-17
5936.68241 2.31246e-17
5939.62957 2.32584e-17
5942.57673 2.26482e-17
5945.52388 2.22900e-17
5948.46094 2.24088e-17
5951.40810 2.19954e-17
5954.35526 2.24797e-17
5957.29232 2.28953e-17
5960.23948 2.29545e-17
5963.18663 2.27084e-17
5966.13379 2.23388e-17
5969.07085 2.22290e-17
5972.01801 2.22779e-17
5974.96516 2.20517e-17
5977.91232 2.17212e-17
5980.84938 2.17042e-17
5983.79654 2.17528e-17
5986.74369 2.16608e-17
5989.68076 2.16108e-17
5992.62791 2.15066e-17
5995.57507 2.12409e-17
5998.52223 2.10259e-17
6001.45929 2.10471e-17
6004.40644 2.12727e-17
6007.35360 2.13388e-17
6010.30076 2.10241e-17
6013.23782 2.06742e-17
6016.18498 2.05087e-17
6019.13213 2.02162e-17
6022.06919 2.01532e-17
6025.01635 1.96506e-17
6027.96351 1.98112e-17
6030.91066 1.99196e-17
6033.84773 1.94625e-17
6036.79488 1.92614e-17
6039.74204 1.92771e-17
6042.67910 1.90396e-17
6045.62626 1.91798e-17
6048.57341 1.93512e-17
6051.52057 1.90570e-17
6054.45763 1.91315e-17
6057.40479 1.91691e-17
6060.35194 1.88312e-17
6063.29910 1.87740e-17
6066.23616 1.85896e-17
6069.18332 1.85033e-17
6072.13047 1.84096e-17
6075.06754 1.84476e-17
6078.01469 1.81352e-17
6080.96185 1.81971e-17
6083.90901 1.82702e-17
6086.84607 1.79214e-17
6089.79322 1.81273e-17
6092.74038 1.81389e-17
6095.67744 1.79602e-17
6098.62460 1.74448e-17
6101.57176 1.72701e-17
6104.51891 1.74070e-17
6107.45597 1.73413e-17
6110.40313 1.72566e-17
6113.35029 1.73869e-17
6116.29744 1.73618e-17
6119.23451 1.72351e-17
6122.18166 1.72344e-17
6125.12882 1.70723e-17
6128.06588 1.69832e-17
6131.01304 1.67933e-17
6133.96019 1.67178e-17
6136.90735 1.68662e-17
6139.84441 1.66817e-17
6142.79157 1.61685e-17
6145.73872 1.64658e-17
6148.68588 1.64475e-17
6151.62294 1.66523e-17
6154.57010 1.65418e-17
6157.51725 1.62009e-17
6160.45432 1.63476e-17
6163.40147 1.65212e-17
6166.34863 1.65536e-17
6169.29579 1.67929e-17
6172.23285 1.66135e-17
6175.18000 1.61396e-17
6178.12716 1.61479e-17
6181.07432 1.62264e-17
6184.01138 1.60539e-17
6186.95854 1.59357e-17
6189.90569 1.58284e-17
6192.84275 1.56118e-17
6195.78991 1.55823e-17
6198.73707 1.54300e-17
6201.68422 1.55484e-17
6204.62129 1.53344e-17
6207.56844 1.47464e-17
6210.51560 1.43538e-17
6213.46275 1.42735e-17
6216.39982 1.41976e-17
6219.34697 1.40310e-17
6222.29413 1.39215e-17
6225.23119 1.39723e-17
6228.17835 1.41367e-17
6231.12550 1.40181e-17
6234.07266 1.36191e-17
6237.00972 1.33445e-17
6239.95688 1.32933e-17
6242.90403 1.34416e-17
6245.84110 1.34171e-17
6248.78825 1.31117e-17
6251.73541 1.30955e-17
6254.68257 1.29636e-17
6257.61963 1.30179e-17
6260.56678 1.30924e-17
6263.51394 1.31493e-17
6266.46110 1.30250e-17
6269.39816 1.29808e-17
6272.34532 1.29233e-17
6275.29247 1.27887e-17
6278.22953 1.25560e-17
6281.17669 1.22424e-17
6284.12385 1.22542e-17
6287.07100 1.24914e-17
6290.00807 1.26462e-17
6292.95522 1.27539e-17
6295.90238 1.26491e-17
6298.84953 1.25056e-17
6301.78660 1.27505e-17
6304.73375 1.29619e-17
6307.68091 1.29370e-17
6310.61797 1.27453e-17
6313.56513 1.22882e-17
6316.51228 1.24014e-17
6319.45944 1.23768e-17
6322.39650 1.24723e-17
6325.34366 1.25554e-17
6328.29081 1.26100e-17
6331.23797 1.22378e-17
6334.17503 1.21241e-17
6337.12219 1.23517e-17
6340.06934 1.25406e-17
6343.00641 1.25346e-17
6345.95356 1.21681e-17
6348.90072 1.19329e-17
6351.84788 1.19459e-17
6354.78494 1.18972e-17
6357.73210 1.21129e-17
6360.67925 1.23123e-17
6363.61631 1.23562e-17
6366.56347 1.24065e-17
6369.51063 1.22306e-17
6372.45778 1.21455e-17
6375.39484 1.22187e-17
6378.34200 1.22255e-17
6381.28916 1.21329e-17
6384.23631 1.21608e-17
6387.17338 1.21581e-17
6390.12053 1.23329e-17
6393.06769 1.27074e-17
6396.00475 1.28027e-17
6398.95191 1.27713e-17
6401.89906 1.28152e-17
6404.84622 1.26906e-17
6407.78328 1.25661e-17
6410.73044 1.27343e-17
6413.67759 1.29337e-17
6416.62475 1.27806e-17
6419.56181 1.27220e-17
6422.50897 1.29557e-17
6425.45613 1.28953e-17
6428.39319 1.30381e-17
6431.34034 1.28487e-17
6434.28750 1.28405e-17
6437.23466 1.26275e-17
6440.17172 1.25196e-17
6443.11888 1.26353e-17
6446.06603 1.24031e-17
6449.00309 1.20663e-17
6451.95025 1.20864e-17
6454.89741 1.22339e-17
6457.84456 1.22514e-17
6460.78163 1.19655e-17
6463.72878 1.15772e-17
6466.67594 1.16667e-17
6469.62309 1.17254e-17
6472.56016 1.17221e-17
6475.50731 1.15577e-17
6478.45447 1.13620e-17
6481.39153 1.15487e-17
6484.33869 1.13768e-17
6487.28584 1.13230e-17
6490.23300 1.13246e-17
6493.17006 1.12236e-17
6496.11722 1.11977e-17
6499.06437 1.11232e-17
6502.01153 1.11915e-17
6504.94859 1.11920e-17
6507.89575 1.08891e-17
6510.84291 1.06486e-17
6513.77997 1.06188e-17
6516.72712 1.06553e-17
6519.67428 1.04583e-17
6522.62144 1.04361e-17
6525.55850 1.03191e-17
6528.50566 1.02413e-17
6531.45281 1.04785e-17
6534.39997 1.07766e-17
6537.33703 1.03408e-17
6540.28419 1.01912e-17
6543.23134 1.03848e-17
6546.16841 1.04842e-17
6549.11556 1.03839e-17
6552.06272 1.04061e-17
6555.00987 1.05130e-17
6557.94694 1.04134e-17
6560.89409 1.04941e-17
6563.84125 1.07277e-17
6566.77831 1.08301e-17
6569.72547 1.10195e-17
6572.67262 1.10792e-17
6575.61978 1.14377e-17
6578.55684 1.14749e-17
6581.50400 1.15571e-17
6584.45115 1.20413e-17
6587.39831 1.22910e-17
6590.33537 1.21880e-17
6593.28253 1.23322e-17
6596.22969 1.24413e-17
6599.16675 1.26905e-17
6602.11390 1.28341e-17
6605.06106 1.29245e-17
6608.00822 1.30867e-17
6610.94528 1.30089e-17
6613.89244 1.32689e-17
6616.83959 1.37080e-17
6619.78675 1.40015e-17
6622.72381 1.47598e-17
6625.67097 1.50894e-17
6628.61812 1.45889e-17
6631.55519 1.43855e-17
6634.50234 1.42805e-17
6637.44950 1.41067e-17
6640.39665 1.44553e-17
6643.33372 1.45323e-17
6646.28087 1.43889e-17
6649.22803 1.44305e-17
6652.17518 1.45034e-17
6655.11225 1.47431e-17
6658.05940 1.47470e-17
6661.00656 1.45292e-17
6663.94362 1.46878e-17
6666.89078 1.47620e-17
6669.83793 1.48055e-17
6672.78509 1.44573e-17
6675.72215 1.42621e-17
6678.66931 1.45013e-17
6681.61647 1.45966e-17
6684.55353 1.44615e-17
6687.50068 1.42457e-17
6690.44784 1.42892e-17
6693.39500 1.43533e-17
6696.33206 1.41585e-17
6699.27922 1.37013e-17
6702.22637 1.36914e-17
6705.17353 1.38618e-17
6708.11059 1.35789e-17
6711.05775 1.34407e-17
6714.00490 1.35048e-17
6716.94197 1.37657e-17
6719.88912 1.39384e-17
6722.83628 1.34057e-17
6725.78343 1.30787e-17
6728.72050 1.33334e-17
6731.66765 1.35300e-17
6734.61481 1.32793e-17
6737.56196 1.32710e-17
6740.49903 1.36916e-17
6743.44618 1.38064e-17
6746.39334 1.34874e-17
6749.33040 1.30308e-17
6752.27756 1.29237e-17
6755.22471 1.31582e-17
6758.17187 1.32237e-17
6761.10893 1.31447e-17
6764.05609 1.30051e-17
6767.00324 1.29350e-17
6769.94031 1.27804e-17
6772.88746 1.28578e-17
6775.83462 1.31685e-17
6778.78178 1.33687e-17
6781.71884 1.30412e-17
6784.66600 1.26873e-17
6787.61315 1.25048e-17
6790.56031 1.27457e-17
6793.49737 1.25180e-17
6796.44453 1.20661e-17
6799.39168 1.17580e-17
6802.32874 1.14389e-17
6805.27590 1.16816e-17
6808.22306 1.18712e-17
6811.17021 1.15025e-17
6814.10728 1.12629e-17
6817.05443 1.10270e-17
6820.00159 1.09689e-17
6822.94874 1.07415e-17
6825.88581 1.05319e-17
6828.83296 1.05732e-17
6831.78012 1.04864e-17
6834.71718 1.03388e-17
6837.66434 1.03113e-17
6840.61149 1.02017e-17
6843.55865 1.01617e-17
6846.49571 1.00233e-17
6849.44287 9.86684e-18
6852.39003 1.00350e-17
6855.33718 9.96375e-18
6858.27424 9.66939e-18
6861.22140 9.48214e-18
6864.16856 9.14811e-18
6867.10562 8.66488e-18
6870.05278 7.87838e-18
6872.99993 7.18573e-18
6875.94709 7.14052e-18
6878.88415 7.58921e-18
6881.83131 8.08923e-18
6884.77846 8.25285e-18
6887.71553 8.06305e-18
6890.66268 7.83437e-18
6893.60984 7.78066e-18
6896.55699 7.75129e-18
6899.49406 7.73756e-18
6902.44121 7.87835e-18
6905.38837 7.98715e-18
6908.33552 8.23624e-18
6911.27259 8.66598e-18
6914.21974 8.72721e-18
6917.16690 8.62616e-18
6920.10396 8.70673e-18
6923.05112 8.81954e-18
6925.99827 8.79840e-18
6928.94543 8.96459e-18
6931.88249 9.16489e-18
6934.82965 9.25825e-18
6937.77681 9.29803e-18
6940.72396 9.26810e-18
6943.66102 9.23294e-18
6946.60818 9.22263e-18
6949.55534 9.34264e-18
6952.49240 9.71522e-18
6955.43956 1.00008e-17
6958.38671 9.98007e-18
6961.33387 1.00390e-17
6964.27093 1.04737e-17
6967.21809 1.07603e-17
6970.16524 1.07297e-17
6973.10231 1.07845e-17
6976.04946 1.09461e-17
6978.99662 1.09740e-17
6981.94377 1.09478e-17
6984.88084 1.10840e-17
6987.82799 1.12110e-17
6990.77515 1.12004e-17
6993.72230 1.12716e-17
6996.65937 1.14851e-17
6999.60652 1.16761e-17
7002.55368 1.15991e-17
7005.49074 1.16469e-17
7008.43790 1.17977e-17
7011.38505 1.18832e-17
7014.33221 1.17166e-17
7017.26927 1.14334e-17
7020.21643 1.15855e-17
7023.16359 1.16313e-17
7026.11074 1.15052e-17
7029.04780 1.16547e-17
7031.99496 1.19685e-17
7034.94212 1.20160e-17
7037.87918 1.18128e-17
7040.82634 1.16033e-17
7043.77349 1.13766e-17
7046.72065 1.15558e-17
7049.65771 1.16906e-17
7052.60487 1.20137e-17
7055.55202 1.20834e-17
7058.49918 1.17431e-17
7061.43624 1.14623e-17
7064.38340 1.12994e-17
7067.33055 1.13207e-17
7070.26762 1.14029e-17
7073.21477 1.13808e-17
7076.16193 1.11765e-17
7079.10908 1.09990e-17
7082.04615 1.09967e-17
7084.99330 1.10212e-17
7087.94046 1.10650e-17
7090.87752 1.10248e-17
7093.82468 1.11487e-17
7096.77183 1.09972e-17
7099.71899 1.09338e-17
7102.65605 1.08415e-17
7105.60321 1.08446e-17
7108.55037 1.07969e-17
7111.49752 1.05818e-17
7114.43458 1.03745e-17
7117.38174 1.04266e-17
7120.32890 1.04866e-17
7123.26596 1.02474e-17
7126.21312 1.00714e-17
7129.16027 1.00740e-17
7132.10743 1.00594e-17
7135.04449 1.02233e-17
7137.99165 1.02226e-17
7140.93880 1.02405e-17
7143.88596 1.00762e-17
7146.82302 9.81715e-18
7149.77018 9.81222e-18
7152.71733 9.74367e-18
7155.65440 9.75052e-18
7158.60155 9.73293e-18
7161.54871 9.71627e-18
7164.49586 9.68441e-18
7167.43293 9.61758e-18
7170.38008 9.32548e-18
7173.32724 8.91415e-18
7176.27440 8.97704e-18
7179.21146 8.90150e-18
7182.15861 8.68287e-18
7185.10577 8.59454e-18
7188.04283 8.50880e-18
7190.98999 8.50389e-18
7193.93714 8.82188e-18
7196.88430 8.88731e-18
7199.82136 9.11256e-18
7202.76852 9.08512e-18
7205.71568 9.02465e-18
7208.65274 9.39508e-18
7211.59990 9.69349e-18
7214.54705 9.83594e-18
7217.49421 9.93851e-18
7220.43127 9.79393e-18
7223.37843 9.60943e-18
7226.32558 9.59862e-18
7229.27274 9.74096e-18
7232.20980 9.59008e-18
7235.15696 9.60513e-18
7238.10411 9.69558e-18
7241.04118 9.55598e-18
7243.98833 9.36655e-18
7246.93549 9.42884e-18
7249.88264 9.43965e-18
7252.81971 9.41755e-18
7255.76686 9.37042e-18
7258.71402 9.24654e-18
7261.66118 9.42602e-18
7264.59824 9.62059e-18
7267.54539 9.53771e-18
7270.49255 9.43103e-18
7273.42961 9.33125e-18
7276.37677 8.92581e-18
7279.32393 9.03000e-18
7282.27108 9.30811e-18
7285.20814 9.26687e-18
7288.15530 9.29031e-18
7291.10246 9.16915e-18
7294.03952 9.07409e-18
7296.98668 9.27832e-18
7299.93383 9.30778e-18
7302.88099 9.04415e-18
7305.81805 8.87873e-18
7308.76521 8.81965e-18
7311.71236 8.78055e-18
7314.65952 9.06941e-18
7317.59658 9.31044e-18
7320.54374 9.58713e-18
7323.49089 9.39262e-18
7326.42796 9.25976e-18
7329.37511 9.21065e-18
7332.32227 9.02623e-18
7335.26942 9.02175e-18
7338.20649 9.18363e-18
7341.15364 9.20831e-18
7344.10080 9.10766e-18
7347.04796 9.05472e-18
7349.98502 9.15655e-18
7352.93217 9.24703e-18
7355.87933 9.10747e-18
7358.81639 9.23207e-18
7361.76355 9.32455e-18
7364.71071 9.17591e-18
7367.65786 8.96789e-18
7370.59492 9.04979e-18
7373.54208 9.08127e-18
7376.48924 9.22650e-18
7379.43639 9.34792e-18
7382.37346 9.41911e-18
7385.32061 9.37335e-18
7388.26777 9.04260e-18
7391.20483 8.93203e-18
7394.15199 9.02440e-18
7397.09914 9.16215e-18
7400.04630 9.13754e-18
7402.98336 9.06303e-18
7405.93052 8.97193e-18
7408.87767 8.81191e-18
7411.81474 9.02709e-18
7414.76189 9.30234e-18
7417.70905 9.21372e-18
7420.65620 9.07645e-18
7423.59327 9.04449e-18
7426.54042 9.06611e-18
7429.48758 8.95263e-18
7432.43474 8.65034e-18
7435.37180 8.72417e-18
7438.31895 9.03514e-18
7441.26611 9.02903e-18
7444.20317 8.89431e-18
7447.15033 9.12106e-18
7450.09749 9.18814e-18
7453.04464 8.96022e-18
7455.98170 8.82784e-18
7458.92886 8.79001e-18
7461.87602 8.88221e-18
7464.82317 8.83328e-18
7467.76024 8.98436e-18
7470.70739 9.12738e-18
7473.65455 8.68439e-18
7476.59161 8.62031e-18
7479.53877 8.67773e-18
7482.48592 8.58800e-18
7485.43308 8.71188e-18
7488.37014 8.56927e-18
7491.31730 8.53864e-18
7494.26445 8.55093e-18
7497.21161 8.55717e-18
7500.14867 8.57839e-18
7503.09583 8.57456e-18
7506.04298 8.64515e-18
7508.98005 8.61775e-18
7511.92720 8.57741e-18
7514.87436 8.57646e-18
7517.82152 8.38028e-18
7520.75858 8.45272e-18
7523.70573 8.37274e-18
7526.65289 8.19037e-18
7529.58995 8.13562e-18
7532.53711 8.24673e-18
7535.48427 8.16632e-18
7538.43142 8.07839e-18
7541.36848 8.17026e-18
7544.31564 8.01867e-18
7547.26280 7.86570e-18
7550.20995 7.92258e-18
7553.14702 7.85116e-18
7556.09417 7.67271e-18
7559.04133 7.48497e-18
7561.97839 7.42175e-18
7564.92555 7.46647e-18
7567.87270 7.37097e-18
7570.81986 7.33588e-18
7573.75692 7.38740e-18
7576.70408 7.02209e-18
7579.65123 7.04049e-18
7582.59839 7.05825e-18
7585.53545 6.69945e-18
7588.48261 6.18821e-18
7591.42976 5.32599e-18
7594.36683 4.10270e-18
7597.31398 3.02352e-18
7600.26114 2.46851e-18
7603.20830 2.31236e-18
7606.14536 2.53678e-18
7609.09251 3.11739e-18
7612.03967 3.84585e-18
7614.97673 4.44595e-18
7617.92389 4.60430e-18
7620.87104 4.33931e-18
7623.81820 3.97079e-18
7626.75526 3.89192e-18
7629.70242 3.88965e-18
7632.64958 3.88932e-18
7635.59673 4.09695e-18
7638.53380 4.23933e-18
7641.48095 4.43479e-18
7644.42811 4.79416e-18
7647.36517 5.02236e-18
7650.31233 5.14481e-18
7653.25948 5.44630e-18
7656.20664 5.68509e-18
7659.14370 5.81940e-18
7662.09086 5.80706e-18
7665.03801 5.89418e-18
7667.98517 6.20538e-18
7670.92223 6.35429e-18
7673.86939 6.50560e-18
7676.81654 6.89440e-18
7679.75361 7.04287e-18
7682.70076 7.01506e-18
7685.64792 6.76202e-18
7688.59508 6.63955e-18
7691.53214 6.76964e-18
7694.47929 6.86995e-18
7697.42645 7.07225e-18
7700.37361 6.98895e-18
7703.31067 7.06447e-18
7706.25783 7.37109e-18
7709.20498 7.45232e-18
7712.14204 7.42783e-18
7715.08920 7.27743e-18
7718.03636 6.97914e-18
7720.98351 6.89974e-18
7723.92058 6.96630e-18
7726.86773 7.22216e-18
7729.81489 7.25181e-18
7732.75195 7.34240e-18
7735.69911 7.44204e-18
7738.64626 7.38122e-18
7741.59342 7.37620e-18
7744.53048 7.22690e-18
7747.47764 7.23309e-18
7750.42479 7.39550e-18
7753.37195 7.16418e-18
7756.30901 7.00113e-18
7759.25617 7.18678e-18
7762.20332 7.22935e-18
7765.14039 6.95330e-18
7768.08754 7.22110e-18
7771.03470 7.61692e-18
7773.98186 7.56597e-18
7776.91892 7.15818e-18
7779.86607 7.12049e-18
7782.81323 7.13447e-18
7785.76039 7.09276e-18
7788.69745 7.17926e-18
7791.64461 7.16185e-18
7794.59176 7.24519e-18
7797.52882 7.56952e-18
7800.47598 7.79790e-18
7803.42314 7.52782e-18
7806.37029 7.65969e-18
7809.30736 7.75275e-18
7812.25451 7.63979e-18
7815.20167 7.59541e-18
7818.14882 7.49037e-18
7821.08589 7.45089e-18
7824.03304 7.46374e-18
7826.98020 7.59255e-18
7829.91726 7.71781e-18
7832.86442 7.58868e-18
7835.81157 7.74618e-18
7838.75873 7.89169e-18
7841.69579 7.73195e-18
7844.64295 7.60916e-18
7847.59010 7.27768e-18
7850.52717 7.22167e-18
7853.47432 7.25594e-18
7856.42148 7.32907e-18
7859.36864 7.50342e-18
7862.30570 7.63696e-18
7865.25285 7.73010e-18
7868.20001 7.80546e-18
7871.14717 7.68683e-18
7874.08423 7.40513e-18
7877.03139 7.38294e-18
7879.97854 7.48671e-18
7882.91560 7.70087e-18
7885.86276 7.41066e-18
7888.80992 7.06607e-18
7891.75707 7.28218e-18
7894.69414 7.52255e-18
7897.64129 7.52311e-18
7900.58845 7.59087e-18
7903.53560 7.54006e-18
7906.47267 7.33286e-18
7909.41982 7.27707e-18
7912.36698 7.17202e-18
7915.30404 7.20798e-18
7918.25120 7.19818e-18
7921.19835 7.00270e-18
7924.14551 6.87564e-18
7927.08257 7.16536e-18
7930.02973 7.22917e-18
7932.97688 7.04914e-18
7935.91395 7.17398e-18
7938.86110 7.40206e-18
7941.80826 7.33895e-18
7944.75542 7.15067e-18
7947.69248 7.07233e-18
7950.63963 7.15653e-18
7953.58679 7.22235e-18
7956.53395 6.73495e-18
7959.47101 6.70983e-18
7962.41817 6.87858e-18
7965.36532 6.89628e-18
7968.30238 6.98501e-18
7971.24954 7.15560e-18
7974.19670 7.24193e-18
7977.14385 7.12865e-18
7980.08092 6.77218e-18
7983.02807 6.62577e-18
7985.97523 6.76839e-18
7988.92238 6.39390e-18
7991.85945 6.57479e-18
7994.80660 6.63703e-18
7997.75376 6.71982e-18
8000.69082 6.65129e-18
8003.63798 6.58053e-18
8006.58513 6.64756e-18
8009.53229 6.44211e-18
8012.46935 6.29678e-18
8015.41651 6.34264e-18
8018.36366 6.07557e-18
8021.31082 5.89438e-18
8024.24788 5.85777e-18
8027.19504 5.96517e-18
8030.14220 6.19977e-18
8033.07926 6.40840e-18
8036.02641 6.34179e-18
8038.97357 6.16994e-18
8041.92073 6.10098e-18
8044.85779 5.97907e-18
8047.80495 5.78694e-18
8050.75210 5.75840e-18
8053.68916 5.76524e-18
8056.63632 5.66168e-18
8059.58348 5.70451e-18
8062.53063 5.75781e-18
8065.46770 5.89143e-18
8068.41485 5.70864e-18
8071.36201 5.79320e-18
8074.30916 5.70757e-18
8077.24623 5.47182e-18
8080.19338 5.38892e-18
8083.14054 5.30957e-18
8086.07760 5.28205e-18
8089.02476 5.30602e-18
8091.97191 5.21765e-18
8094.91907 5.20316e-18
8097.85613 5.25775e-18
8100.80329 5.18199e-18
8103.75044 4.88059e-18
8106.69760 4.70757e-18
8109.63466 4.50944e-18
8112.58182 4.51420e-18
8115.52898 4.64105e-18
8118.46604 4.76497e-18
8121.41319 4.88882e-18
8124.36035 4.78195e-18
8127.30751 4.61211e-18
8130.24457 4.67907e-18
8133.19173 4.80180e-18
8136.13888 4.73456e-18
8139.08604 4.63490e-18
8142.02310 4.47100e-18
8144.97026 4.46972e-18
8147.91741 4.62741e-18
8150.85448 4.67758e-18
8153.80163 4.39815e-18
8156.74879 4.11246e-18
8159.69594 4.28308e-18
8162.63301 4.63188e-18
8165.58016 4.81241e-18
8168.52732 4.80333e-18
8171.46438 4.59843e-18
8174.41154 4.39359e-18
8177.35869 4.37128e-18
8180.30585 4.41637e-18
8183.24291 4.37030e-18
8186.19007 4.45302e-18
8189.13722 4.54710e-18
8192.08438 4.52944e-18
8195.02144 4.75299e-18
8197.96860 4.94343e-18
8200.91576 4.74211e-18
8203.86291 4.70477e-18
8206.79997 4.59633e-18
8209.74713 4.52465e-18
8212.69429 4.23399e-18
8215.63135 3.73355e-18
8218.57851 3.58246e-18
8221.52566 3.51200e-18
8224.47282 3.51579e-18
8227.40988 3.76421e-18
8230.35704 3.75096e-18
8233.30419 3.76571e-18
8236.24126 4.02179e-18
8239.18841 4.05480e-18
8242.13557 3.90226e-18
8245.08272 3.62001e-18
8248.01979 3.44071e-18
8250.96694 3.38336e-18
8253.91410 3.64973e-18
8256.85116 3.95684e-18
8259.79832 3.71545e-18
8262.74547 3.43184e-18
8265.69263 3.50393e-18
8268.62969 3.23386e-18
8271.57685 3.10076e-18
8274.52400 3.22532e-18
8277.47116 3.19031e-18
8280.40822 3.31031e-18
8283.35538 3.34354e-18
8286.30254 3.03393e-18
8289.24969 2.79852e-18
8292.18675 2.98460e-18
8295.13391 3.35430e-18
8298.08107 3.47190e-18
8301.01813 3.30526e-18
8303.96529 3.22016e-18
8306.91244 3.24847e-18
8309.85960 3.15372e-18
8312.79666 3.04383e-18
8315.74382 3.03394e-18
8318.69097 2.96003e-18
8321.63813 2.87522e-18
8324.57519 2.84301e-18
8327.52235 2.95742e-18
8330.46950 3.18337e-18
8333.40657 3.24304e-18
8336.35372 3.27472e-18
8339.30088 3.27409e-18
8342.24803 3.29163e-18
8345.18510 3.20427e-18
8348.13225 3.11746e-18
8351.07941 3.01227e-18
8354.01647 2.93774e-18
8356.96363 2.96849e-18
8359.91078 3.02101e-18
8362.85794 3.12763e-18
8365.79500 3.26135e-18
8368.74216 3.19642e-18
8371.68931 3.18833e-18
8374.62638 3.30056e-18
8377.57353 3.25174e-18
8380.52069 3.11863e-18
8383.46785 3.06849e-18
8386.40491 2.99442e-18
8389.35206 3.02405e-18
8392.29922 3.04120e-18
8395.24638 3.12362e-18
8398.18344 3.33657e-18
8401.13060 3.23158e-18
8404.07775 3.40590e-18
8407.01482 3.43520e-18
8409.96197 3.63066e-18
8412.90913 3.52393e-18
8415.85628 3.42896e-18
8418.79335 3.34853e-18
8421.74050 3.31955e-18
8424.68766 3.41995e-18
8427.63481 3.56771e-18
8430.57188 3.71895e-18
8433.51903 3.64558e-18
8436.46619 3.64374e-18
8439.40325 3.71506e-18
8442.35041 3.71676e-18
8445.29756 3.84520e-18
8448.24472 3.94322e-18
8451.18178 3.82701e-18
8454.12894 3.77746e-18
8457.07610 3.84999e-18
8460.01316 3.83222e-18
8462.96031 3.84766e-18
8465.90747 4.00902e-18
8468.85463 4.11982e-18
8471.79169 4.12717e-18
8474.73884 4.14841e-18
8477.68600 4.12432e-18
8480.63316 4.30014e-18
8483.57022 4.34266e-18
8486.51738 4.34454e-18
8489.46453 4.40159e-18
8492.41169 4.32543e-18
8495.34875 4.38133e-18
8498.29591 4.52706e-18
8501.24306 4.44859e-18
8504.18013 4.25908e-18
8507.12728 4.47894e-18
8510.07444 4.76175e-18
8513.02159 4.87655e-18
8515.95866 4.92620e-18
8518.90581 5.03453e-18
8521.85297 5.31494e-18
8524.80013 5.44352e-18
8527.73719 5.20316e-18
8530.68434 5.25358e-18
8533.63150 5.44651e-18
8536.56856 5.10636e-18
8539.51572 5.12545e-18
8542.46288 5.48746e-18
8545.41003 5.56786e-18
8548.34709 5.77113e-18
8551.29425 5.94827e-18
8554.24141 5.84707e-18
8557.17847 5.88300e-18
8560.12563 6.02008e-18
8563.07278 6.25338e-18
8566.01994 6.27531e-18
8568.95700 5.86229e-18
8571.90416 5.84123e-18
8574.85131 6.19045e-18
8577.78838 6.52092e-18
8580.73553 6.41570e-18
8583.68269 6.35418e-18
8586.62984 6.71044e-18
8589.56691 6.84827e-18
8592.51406 6.71238e-18
8595.46122 6.60204e-18
8598.40837 6.69781e-18
8601.34544 6.65730e-18
8604.29259 6.55049e-18
8607.23975 6.53749e-18
8610.17681 6.28714e-18
8613.12397 6.15248e-18
8616.07112 6.62281e-18
8619.01828 7.01893e-18
8621.95534 6.90536e-18
8624.90250 7.11680e-18
8627.84966 7.57667e-18
8630.79681 7.52651e-18
8633.73387 7.57998e-18
8636.68103 7.34916e-18
8639.62819 7.31234e-18
8642.56525 7.35825e-18
8645.51241 7.16756e-18
8648.45956 7.13839e-18
8651.40672 7.24273e-18
8654.34378 7.23010e-18
8657.29094 7.17680e-18
8660.23809 7.33130e-18
8663.18525 7.24341e-18
8666.12231 7.50961e-18
8669.06947 7.63240e-18
8672.01662 7.76169e-18
8674.95369 7.78783e-18
8677.90084 7.58199e-18
8680.84800 7.52574e-18
8683.79515 7.35298e-18
8686.73222 7.27909e-18
8689.67937 7.13449e-18
8692.62653 6.97497e-18
8695.57369 7.14322e-18
8698.51075 7.09788e-18
8701.45790 7.29576e-18
8704.40506 7.89007e-18
8707.34212 8.29951e-18
8710.28928 8.16065e-18
8713.23644 7.66892e-18
8716.18359 7.46764e-18
8719.12065 7.17617e-18
8722.06781 6.97470e-18
8725.01497 7.13242e-18
8727.96212 7.28214e-18
8730.89919 7.14109e-18
8733.84634 7.12133e-18
8736.79350 7.32706e-18
8739.73056 7.33777e-18
8742.67772 7.22870e-18
8745.62487 7.42758e-18
8748.57203 7.78213e-18
8751.50909 7.73364e-18
8754.45625 7.49212e-18
8757.40340 7.72397e-18
8760.34047 7.34443e-18
8763.28762 6.84319e-18
8766.23478 6.85912e-18
8769.18193 6.69264e-18
8772.11900 6.34416e-18
8775.06615 6.37953e-18
8778.01331 7.01203e-18
8780.95037 7.08707e-18
8783.89753 7.08043e-18
8786.84468 7.35754e-18
8789.79184 7.19791e-18
8792.72890 7.11462e-18
8795.67606 7.37635e-18
8798.62321 7.22885e-18
8801.57037 6.72739e-18
8804.50743 6.51106e-18
8807.45459 6.67800e-18
8810.40175 6.52923e-18
8813.33881 6.32266e-18
8816.28596 6.52652e-18
8819.23312 6.79499e-18
8822.18028 6.59661e-18
8825.11734 6.58295e-18
8828.06450 6.93067e-18
8831.01165 6.87446e-18
8833.95881 6.78648e-18
8836.89587 6.69701e-18
8839.84303 6.39912e-18
8842.79018 6.33253e-18
8845.72725 6.40497e-18
8848.67440 6.11782e-18
8851.62156 5.90556e-18
8854.56871 6.02492e-18
8857.50578 6.11338e-18
8860.45293 6.16325e-18
8863.40009 6.46613e-18
8866.34725 7.01868e-18
8869.28431 6.78349e-18
8872.23146 6.74906e-18
8875.17862 6.34817e-18
8878.11568 6.22641e-18
8881.06284 6.06057e-18
8884.01000 5.89225e-18
8886.95715 6.02290e-18
8889.89421 5.56485e-18
8892.84137 5.61972e-18
8895.78853 5.72090e-18
8898.72559 5.74838e-18
8901.67274 5.66559e-18
8904.61990 5.81587e-18
8907.56706 5.97127e-18
8910.50412 5.84766e-18
8913.45128 5.96311e-18
8916.39843 6.00242e-18
8919.34559 5.35741e-18
8922.28265 5.16375e-18
8925.22981 5.01951e-18
8928.17696 5.22472e-18
8931.12412 5.06193e-18
8934.06118 4.84543e-18
8937.00834 4.96833e-18
8939.95549 5.00874e-18
8942.89256 4.83179e-18
8945.83971 4.81076e-18
8948.78687 5.00045e-18
8951.73403 4.97333e-18
8954.67109 4.85904e-18
8957.61824 5.09780e-18
8960.56540 4.72536e-18
8963.51256 4.37117e-18
8966.44962 4.58538e-18
8969.39678 4.62031e-18
8972.34393 4.49121e-18
8975.28099 4.56212e-18
8978.22815 4.44050e-18
8981.17531 4.48202e-18
8984.12246 4.34703e-18
8987.05953 4.48423e-18
8990.00668 4.47790e-18
8992.95384 4.17738e-18
8995.89090 4.20251e-18
8998.83806 4.24922e-18
9001.78521 3.98132e-18
9004.73237 4.10202e-18
9007.66943 4.16119e-18
9010.61659 4.07229e-18
9013.56374 4.14464e-18
9016.50081 4.07271e-18
9019.44796 4.16531e-18
9022.39512 4.47348e-18
9025.34227 4.55754e-18
9028.27934 4.44150e-18
9031.22649 4.42025e-18
