# wavelength flux
3601.07138 1.32271e-17
3603.95798 1.26058e-17
3606.83448 1.17716e-17
3609.72108 1.06356e-17
3612.60768 1.07565e-17
3615.49427 1.32627e-17
3618.37078 1.30138e-17
3621.25738 1.04537e-17
3624.14398 1.06156e-17
3627.02048 8.39196e-18
3629.90708 9.44883e-18
3632.79368 1.29665e-17
3635.68027 1.24128e-17
3638.55678 9.80917e-18
3641.44338 1.05212e-17
3644.32998 1.18537e-17
3647.21657 1.23222e-17
3650.09308 1.09700e-17
3652.97968 1.16267e-17
3655.86627 1.07327e-17
3658.75287 1.03532e-17
3661.62938 1.20920e-17
3664.51598 1.15358e-17
3667.40257 1.22472e-17
3670.27908 1.01353e-17
3673.16568 1.08315e-17
3676.05227 1.12921e-17
3678.93887 1.28152e-17
3681.81538 1.21678e-17
3684.70198 1.01578e-17
3687.58857 9.86179e-18
3690.47517 9.87017e-18
3693.35168 9.76439e-18
3696.23827 1.09584e-17
3699.12487 1.20316e-17
3702.00138 1.08802e-17
3704.88798 1.05113e-17
3707.77457 9.12305e-18
3710.66117 9.15096e-18
3713.53768 9.27153e-18
3716.42427 9.99000e-18
3719.31087 8.70493e-18
3722.19747 7.25116e-18
3725.07398 7.39894e-18
3727.96057 6.43486e-18
3730.84717 7.32181e-18
3733.72368 8.81419e-18
3736.61027 9.10486e-18
3739.49687 8.79068e-18
3742.38347 8.76980e-18
3745.25998 6.65420e-18
3748.14657 7.05417e-18
3751.03317 8.01039e-18
3753.91977 7.44872e-18
3756.79627 7.35691e-18
3759.68287 8.71286e-18
3762.56947 8.63691e-18
3765.45607 9.54990e-18
3768.33257 7.80986e-18
3771.21917 6.50372e-18
3774.10577 6.50151e-18
3776.98227 5.01271e-18
3779.86887 6.75355e-18
3782.75547 7.31398e-18
3785.64207 6.60876e-18
3788.51857 5.62023e-18
3791.40517 6.36947e-18
3794.29177 6.24435e-18
3797.17837 6.89136e-18
3800.05487 7.79775e-18
3802.94147 7.61212e-18
3805.82807 7.51195e-18
3808.70457 5.61756e-18
3811.59117 6.36235e-18
3814.47777 6.80654e-18
3817.36437 5.26823e-18
3820.24087 5.34695e-18
3823.12747 5.53587e-18
3826.01407 5.82882e-18
3828.90067 7.70010e-18
3831.77717 7.38224e-18
3834.66377 7.03529e-18
3837.55037 7.06658e-18
3840.43697 7.06292e-18
3843.31347 6.30636e-18
3846.20007 7.02983e-18
3849.08667 8.55380e-18
3851.96317 8.09162e-18
3854.84977 8.59161e-18
3857.73637 9.09160e-18
3860.62297 9.50526e-18
3863.49947 9.65569e-18
3866.38607 9.61602e-18
3869.27267 9.42135e-18
3872.15926 1.01241e-17
3875.03577 1.06005e-17
3877.92237 1.08211e-17
3880.80897 1.19331e-17
3883.68547 1.25138e-17
3886.57207 1.14557e-17
3889.45867 1.20090e-17
3892.34526 1.33982e-17
3895.22177 1.26687e-17
3898.10837 1.37426e-17
3900.99497 1.44528e-17
3903.88156 1.51004e-17
3906.75807 1.45802e-17
3909.64467 1.45849e-17
3912.53126 1.55417e-17
3915.40777 1.53270e-17
3918.29437 1.60041e-17
3921.18097 1.72509e-17
3924.06756 1.62122e-17
3926.94407 1.64672e-17
3929.83067 1.71964e-17
3932.71726 1.68540e-17
3935.60386 1.68603e-17
3938.48037 1.72978e-17
3941.36697 1.86280e-17
3944.25356 1.80687e-17
3947.14016 1.81957e-17
3950.01667 1.89095e-17
3952.90326 1.92847e-17
3955.78986 1.84191e-17
3958.66637 1.98533e-17
3961.55297 2.01516e-17
3964.43956 1.88017e-17
3967.32616 1.91078e-17
3970.20267 1.85050e-17
3973.08926 1.75304e-17
3975.97586 1.87455e-17
3978.86246 1.90746e-17
3981.73897 1.89250e-17
3984.62556 1.95164e-17
3987.51216 1.98421e-17
3990.38867 2.00368e-17
3993.27526 2.07412e-17
3996.16186 2.06009e-17
3999.04846 2.04289e-17
4001.92497 2.11793e-17
4004.81156 2.08601e-17
4007.69816 2.00096e-17
4010.58476 1.99992e-17
4013.46126 1.93039e-17
4016.34786 2.00814e-17
4019.23446 1.99838e-17
4022.12106 1.98091e-17
4024.99756 1.94236e-17
4027.88416 1.83449e-17
4030.77076 1.85416e-17
4033.64726 1.86850e-17
4036.53386 1.89998e-17
4039.42046 1.83186e-17
4042.30706 1.81139e-17
4045.18356 1.84505e-17
4048.07016 1.84715e-17
4050.95676 1.77749e-17
4053.84336 1.77244e-17
4056.71986 1.76569e-17
4059.60646 1.76007e-17
4062.49306 1.68339e-17
4065.36956 1.66127e-17
4068.25616 1.66249e-17
4071.14276 1.60990e-17
4074.02936 1.56973e-17
4076.90586 1.66002e-17
4079.79246 1.51264e-17
4082.67906 1.50497e-17
4085.56566 1.63297e-17
4088.44216 1.56094e-17
4091.32876 1.43799e-17
4094.21536 1.47314e-17
4097.09186 1.47325e-17
4099.97846 1.45484e-17
4102.86506 1.52131e-17
4105.75166 1.54316e-17
4108.62816 1.42019e-17
4111.51476 1.38068e-17
4114.40136 1.39802e-17
4117.28796 1.43359e-17
4120.16446 1.51486e-17
4123.05106 1.60332e-17
4125.93766 1.58071e-17
4128.82425 1.53083e-17
4131.70076 1.56458e-17
4134.58736 1.58919e-17
4137.47396 1.55098e-17
4140.35046 1.57804e-17
4143.23706 1.62905e-17
4146.12366 1.64109e-17
4149.01025 1.65517e-17
4151.88676 1.61632e-17
4154.77336 1.65586e-17
4157.65996 1.64037e-17
4160.54655 1.65987e-17
4163.42306 1.66134e-17
4166.30966 1.62128e-17
4169.19625 1.52125e-17
4172.07276 1.51079e-17
4174.95936 1.52855e-17
4177.84596 1.60153e-17
4180.73255 1.68651e-17
4183.60906 1.57690e-17
4186.49566 1.52992e-17
4189.38225 1.63176e-17
4192.26885 1.61757e-17
4195.14536 1.53843e-17
4198.03196 1.47261e-17
4200.91855 1.50021e-17
4203.79506 1.48068e-17
4206.68166 1.56094e-17
4209.56825 1.52103e-17
4212.45485 1.59827e-17
4215.33136 1.68092e-17
4218.21796 1.60007e-17
4221.10455 1.50672e-17
4223.99115 1.51766e-17
4226.86766 1.50804e-17
4229.75425 1.46166e-17
4232.64085 1.40300e-17
4235.52745 1.41992e-17
4238.40396 1.38572e-17
4241.29055 1.37827e-17
4244.17715 1.38754e-17
4247.05366 1.44356e-17
4249.94025 1.38937e-17
4252.82685 1.40393e-17
4255.71345 1.45764e-17
4258.58996 1.43707e-17
4261.47655 1.42238e-17
4264.36315 1.41046e-17
4267.24975 1.33879e-17
4270.12625 1.36124e-17
4273.01285 1.39660e-17
4275.89945 1.34530e-17
4278.77596 1.35823e-17
4281.66255 1.37404e-17
4284.54915 1.38619e-17
4287.43575 1.37075e-17
4290.31225 1.34843e-17
4293.19885 1.36448e-17
4296.08545 1.32144e-17
4298.97205 1.27587e-17
4301.84855 1.28759e-17
4304.73515 1.30565e-17
4307.62175 1.33367e-17
4310.50835 1.27878e-17
4313.38485 1.21141e-17
4316.27145 1.22476e-17
4319.15805 1.25120e-17
4322.03455 1.26611e-17
4324.92115 1.29498e-17
4327.80775 1.26609e-17
4330.69435 1.23666e-17
4333.57085 1.20690e-17
4336.45745 1.17177e-17
4339.34405 1.18649e-17
4342.23065 1.17880e-17
4345.10715 1.18842e-17
4347.99375 1.19995e-17
4350.88035 1.14836e-17
4353.75685 1.18307e-17
4356.64345 1.22396e-17
4359.53005 1.28459e-17
4362.41665 1.23473e-17
4365.29315 1.14160e-17
4368.17975 1.16443e-17
4371.06635 1.23276e-17
4373.95294 1.25667e-17
4376.82945 1.27508e-17
4379.71605 1.24177e-17
4382.60265 1.19057e-17
4385.48924 1.28487e-17
4388.36575 1.30644e-17
4391.25235 1.30586e-17
4394.13894 1.31569e-17
4397.01545 1.29367e-17
4399.90205 1.30077e-17
4402.78865 1.34707e-17
4405.67524 1.36115e-17
4408.55175 1.34987e-17
4411.43835 1.33800e-17
4414.32495 1.31524e-17
4417.21154 1.31779e-17
4420.08805 1.36758e-17
4422.97465 1.44259e-17
4425.86124 1.41310e-17
4428.73775 1.38786e-17
4431.62435 1.38079e-17
4434.51094 1.38346e-17
4437.39754 1.40844e-17
4440.27405 1.46180e-17
4443.16065 1.45689e-17
4446.04724 1.46519e-17
4448.93384 1.48751e-17
4451.81035 1.45338e-17
4454.69694 1.47630e-17
4457.58354 1.46553e-17
4460.47014 1.46230e-17
4463.34665 1.52791e-17
4466.23324 1.55122e-17
4469.11984 1.57973e-17
4471.99635 1.56494e-17
4474.88295 1.64878e-17
4477.76954 1.66491e-17
4480.65614 1.64015e-17
4483.53265 1.65265e-17
4486.41924 1.73487e-17
4489.30584 1.76390e-17
4492.18235 1.75950e-17
4495.06894 1.79476e-17
4497.95554 1.82506e-17
4500.84214 1.82010e-17
4503.71865 1.88537e-17
4506.60524 1.95230e-17
4509.49184 1.96212e-17
4512.37844 1.98059e-17
4515.25494 1.96222e-17
4518.14154 1.93730e-17
4521.02814 1.99482e-17
4523.91474 2.05749e-17
4526.79124 2.06779e-17
4529.67784 2.07458e-17
4532.56444 2.05372e-17
4535.44095 2.10541e-17
4538.32754 2.15079e-17
4541.21414 2.10275e-17
4544.10074 2.06003e-17
4546.97724 2.11127e-17
4549.86384 2.15933e-17
4552.75044 2.18015e-17
4555.63704 2.19002e-17
4558.51354 2.25237e-17
4561.40014 2.30111e-17
4564.28674 2.25568e-17
4567.16324 2.28036e-17
4570.04984 2.32163e-17
4572.93644 2.26841e-17
4575.82304 2.31885e-17
4578.69954 2.33288e-17
4581.58614 2.31835e-17
4584.47274 2.35120e-17
4587.35934 2.40453e-17
4590.23584 2.40406e-17
4593.12244 2.33932e-17
4596.00904 2.38603e-17
4598.89564 2.40785e-17
4601.77214 2.33832e-17
4604.65874 2.30972e-17
4607.54534 2.29701e-17
4610.42184 2.33308e-17
4613.30844 2.36860e-17
4616.19504 2.33351e-17
4619.08164 2.29301e-17
4621.95814 2.33628e-17
4624.84474 2.32561e-17
4627.73134 2.31608e-17
4630.61794 2.27611e-17
4633.49444 2.27257e-17
4636.38104 2.28493e-17
4639.26764 2.29562e-17
4642.15423 2.31924e-17
4645.03074 2.31356e-17
4647.91734 2.31350e-17
4650.80393 2.28805e-17
4653.68044 2.29304e-17
4656.56704 2.29942e-17
4659.45364 2.23681e-17
4662.34023 2.23100e-17
4665.21674 2.23697e-17
4668.10334 2.24749e-17
4670.98994 2.24773e-17
4673.87653 2.19515e-17
4676.75304 2.19502e-17
4679.63964 2.16207e-17
4682.52623 2.13821e-17
4685.40274 2.16048e-17
4688.28934 2.14171e-17
4691.17594 2.14791e-17
4694.06253 2.10542e-17
4696.93904 2.07314e-17
4699.82564 2.09966e-17
4702.71223 2.08841e-17
4705.59883 2.00938e-17
4708.47534 1.95830e-17
4711.36193 1.96073e-17
4714.24853 1.90075e-17
4717.13513 1.84285e-17
4720.01164 1.82376e-17
4722.89823 1.83167e-17
4725.78483 1.83233e-17
4728.66134 1.79692e-17
4731.54794 1.77597e-17
4734.43453 1.76149e-17
4737.32113 1.75939e-17
4740.19764 1.81087e-17
4743.08423 1.77534e-17
4745.97083 1.70706e-17
4748.85743 1.70985e-17
4751.73394 1.68278e-17
4754.62053 1.68155e-17
4757.50713 1.72279e-17
4760.38364 1.69052e-17
4763.27023 1.66057e-17
4766.15683 1.65134e-17
4769.04343 1.58349e-17
4771.91993 1.56706e-17
4774.80653 1.56210e-17
4777.69313 1.53026e-17
4780.57973 1.51917e-17
4783.45623 1.47144e-17
4786.34283 1.47780e-17
4789.22943 1.53344e-17
4792.10594 1.57489e-17
4794.99253 1.52292e-17
4797.87913 1.44461e-17
4800.76573 1.41353e-17
4803.64223 1.45172e-17
4806.52883 1.44651e-17
4809.41543 1.46635e-17
4812.30203 1.44564e-17
4815.17853 1.44111e-17
4818.06513 1.48852e-17
4820.95173 1.48842e-17
4823.82823 1.45555e-17
4826.71483 1.48331e-17
4829.60143 1.50619e-17
4832.48803 1.47023e-17
4835.36453 1.43966e-17
4838.25113 1.47281e-17
4841.13773 1.45755e-17
4844.02433 1.50856e-17
4846.90083 1.56967e-17
4849.78743 1.48454e-17
4852.67403 1.48801e-17
4855.56063 1.53387e-17
4858.43713 1.50981e-17
4861.32373 1.51504e-17
4864.21033 1.52286e-17
4867.08683 1.48041e-17
4869.97343 1.47387e-17
4872.86003 1.46875e-17
4875.74663 1.44595e-17
4878.62313 1.45135e-17
4881.50973 1.51090e-17
4884.39633 1.51963e-17
4887.28293 1.51357e-17
4890.15943 1.56051e-17
4893.04603 1.54832e-17
4895.93263 1.54211e-17
4898.80913 1.58406e-17
4901.69573 1.61324e-17
4904.58233 1.62948e-17
4907.46893 1.65191e-17
4910.34543 1.70023e-17
4913.23203 1.68930e-17
4916.11863 1.69733e-17
4919.00522 1.68577e-17
4921.88173 1.66401e-17
4924.76833 1.62442e-17
4927.65493 1.60648e-17
4930.53143 1.64130e-17
4933.41803 1.69713e-17
4936.30463 1.67058e-17
4939.19122 1.69753e-17
4942.06773 1.71960e-17
4944.95433 1.70526e-17
4947.84093 1.67326e-17
4950.72752 1.71921e-17
4953.60403 1.73475e-17
4956.49063 1.73698e-17
4959.37722 1.69408e-17
4962.26382 1.68160e-17
4965.14033 1.71983e-17
4968.02693 1.69594e-17
4970.91352 1.70777e-17
4973.79003 1.71543e-17
4976.67663 1.72752e-17
4979.56322 1.69943e-17
4982.44982 1.68627e-17
4985.32633 1.68097e-17
4988.21293 1.65374e-17
4991.09952 1.60016e-17
4993.98612 1.61169e-17
4996.86263 1.60467e-17
4999.74922 1.62159e-17
5002.63582 1.66369e-17
5005.52242 1.61847e-17
5008.39893 1.56946e-17
5011.28552 1.55738e-17
5014.17212 1.54821e-17
5017.04863 1.52688e-17
5019.93522 1.51686e-17
5022.82182 1.54178e-17
5025.70842 1.51212e-17
5028.58493 1.46509e-17
5031.47152 1.47349e-17
5034.35812 1.49398e-17
5037.24472 1.51740e-17
5040.12122 1.50702e-17
5043.00782 1.49079e-17
5045.89442 1.51667e-17
5048.77093 1.56908e-17
5051.65752 1.62429e-17
5054.54412 1.63819e-17
5057.43072 1.62876e-17
5060.30722 1.60334e-17
5063.19382 1.59925e-17
5066.08042 1.61124e-17
5068.96702 1.59890e-17
5071.84352 1.58958e-17
5074.73012 1.62969e-17
5077.61672 1.64084e-17
5080.50332 1.64932e-17
5083.37982 1.66769e-17
5086.26642 1.64217e-17
5089.15302 1.64387e-17
5092.02952 1.68535e-17
5094.91612 1.63192e-17
5097.80272 1.64578e-17
5100.68932 1.64053e-17
5103.56582 1.67145e-17
5106.45242 1.69054e-17
5109.33902 1.70820e-17
5112.21552 1.72409e-17
5115.10212 1.69926e-17
5117.98872 1.69464e-17
5120.87532 1.73153e-17
5123.75182 1.71942e-17
5126.63842 1.71115e-17
5129.52502 1.73249e-17
5132.41162 1.75205e-17
5135.28812 1.74551e-17
5138.17472 1.73945e-17
5141.06132 1.75919e-17
5143.94792 1.76953e-17
5146.82442 1.74718e-17
5149.71102 1.73754e-17
5152.59762 1.75296e-17
5155.47412 1.75213e-17
5158.36072 1.76202e-17
5161.24732 1.80311e-17
5164.13392 1.82703e-17
5167.01042 1.81416e-17
5169.89702 1.79375e-17
5172.78362 1.82918e-17
5175.67021 1.85543e-17
5178.54672 1.82688e-17
5181.43332 1.83855e-17
5184.31992 1.89302e-17
5187.19642 1.96056e-17
5190.08302 1.98030e-17
5192.96962 1.96509e-17
5195.85621 1.96067e-17
5198.73272 1.97559e-17
5201.61932 2.03471e-17
5204.50592 2.02917e-17
5207.39251 2.02400e-17
5210.26902 2.04209e-17
5213.15562 2.09243e-17
5216.04221 2.10459e-17
5218.92881 2.07055e-17
5221.80532 2.07473e-17
5224.69192 2.08920e-17
5227.57851 2.14427e-17
5230.45502 2.17615e-17
5233.34162 2.15376e-17
5236.22821 2.19080e-17
5239.11481 2.20346e-17
5241.99132 2.19548e-17
5244.87792 2.20584e-17
5247.76451 2.20011e-17
5250.65111 2.17406e-17
5253.52762 2.20919e-17
5256.41421 2.27434e-17
5259.30081 2.20609e-17
5262.17732 2.19714e-17
5265.06392 2.25837e-17
5267.95051 2.26068e-17
5270.83711 2.24090e-17
5273.71362 2.21423e-17
5276.60021 2.20834e-17
5279.48681 2.21294e-17
5282.37341 2.22087e-17
5285.24992 2.24680e-17
5288.13651 2.25706e-17
5291.02311 2.23402e-17
5293.89962 2.23450e-17
5296.78621 2.28633e-17
5299.67281 2.24319e-17
5302.55941 2.24918e-17
5305.43592 2.26853e-17
5308.32251 2.22597e-17
5311.20911 2.26811e-17
5314.09571 2.28165e-17
5316.97221 2.29152e-17
5319.85881 2.25052e-17
5322.74541 2.23707e-17
5325.63201 2.26754e-17
5328.50851 2.24150e-17
5331.39511 2.26998e-17
5334.28171 2.26371e-17
5337.15821 2.21731e-17
5340.04481 2.19478e-17
5342.93141 2.23105e-17
5345.81801 2.23993e-17
5348.69451 2.20598e-17
5351.58111 2.19189e-17
5354.46771 2.19250e-17
5357.35431 2.21616e-17
5360.23081 2.24881e-17
5363.11741 2.21308e-17
5366.00401 2.18854e-17
5368.89061 2.21083e-17
5371.76711 2.20862e-17
5374.65371 2.21322e-17
5377.54031 2.21183e-17
5380.41681 2.20542e-17
5383.30341 2.23098e-17
5386.19001 2.23373e-17
5389.07661 2.19605e-17
5391.95311 2.20326e-17
5394.83971 2.21747e-17
5397.72631 2.22460e-17
5400.61291 2.22802e-17
5403.48941 2.22046e-17
5406.37601 2.19750e-17
5409.26261 2.20225e-17
5412.13911 2.20429e-17
5415.02571 2.20114e-17
5417.91231 2.20720e-17
5420.79891 2.21749e-17
5423.67541 2.23903e-17
5426.56201 2.21327e-17
5429.44861 2.17774e-17
5432.33520 2.17613e-17
5435.21171 2.16346e-17
5438.09831 2.18471e-17
5440.98491 2.20442e-17
5443.86141 2.17119e-17
5446.74801 2.14115e-17
5449.63461 2.14133e-17
5452.52120 2.14161e-17
5455.39771 2.13083e-17
5458.28431 2.13173e-17
5461.17091 2.13155e-17
5464.05750 2.12306e-17
5466.93401 2.11700e-17
5469.82061 2.11119e-17
5472.70720 2.08570e-17
5475.59380 2.10352e-17
5478.47031 2.09100e-17
5481.35691 2.08264e-17
5484.24350 2.07148e-17
5487.12001 2.06631e-17
5490.00661 2.05934e-17
5492.89320 2.03487e-17
5495.77980 2.00380e-17
5498.65631 1.99459e-17
5501.54291 2.03356e-17
5504.42950 2.01934e-17
5507.31610 1.96893e-17
5510.19261 1.94050e-17
5513.07920 1.95702e-17
5515.96580 1.96522e-17
5518.84231 1.93591e-17
5521.72891 1.91329e-17
5524.61550 1.92183e-17
5527.50210 1.92255e-17
5530.37861 1.88829e-17
5533.26520 1.91660e-17
5536.15180 1.94014e-17
5539.03840 1.89376e-17
5541.91491 1.91545e-17
5544.80150 1.90180e-17
5547.68810 1.83624e-17
5550.56461 1.82353e-17
5553.45120 1.81102e-17
5556.33780 1.82226e-17
5559.22440 1.83864e-17
5562.10091 1.85105e-17
5564.98750 1.82074e-17
5567.87410 1.78512e-17
5570.76070 1.75649e-17
5573.63720 1.72964e-17
5576.52380 1.71673e-17
5579.41040 1.69007e-17
5582.28691 1.73210e-17
5585.17350 1.77306e-17
5588.06010 1.77202e-17
5590.94670 1.79450e-17
5593.82320 1.74201e-17
5596.70980 1.67904e-17
5599.59640 1.68735e-17
5602.48300 1.70245e-17
5605.35950 1.70722e-17
5608.24610 1.73025e-17
5611.13270 1.67725e-17
5614.01930 1.64542e-17
5616.89580 1.63329e-17
5619.78240 1.57217e-17
5622.66900 1.56465e-17
5625.54550 1.56596e-17
5628.43210 1.54250e-17
5631.31870 1.51909e-17
5634.20530 1.50453e-17
5637.08180 1.47072e-17
5639.96840 1.42908e-17
5642.85500 1.42137e-17
5645.74160 1.40080e-17
5648.61810 1.34394e-17
5651.50470 1.31557e-17
5654.39130 1.29841e-17
5657.27790 1.25678e-17
5660.15440 1.22999e-17
5663.04100 1.21160e-17
5665.92760 1.20705e-17
5668.80410 1.20718e-17
5671.69070 1.15587e-17
5674.57730 1.15774e-17
5677.46389 1.17991e-17
5680.34040 1.18585e-17
5683.22700 1.20776e-17
5686.11360 1.17892e-17
5689.00019 1.16504e-17
5691.87670 1.21740e-17
5694.76330 1.22402e-17
5697.64990 1.19688e-17
5700.52640 1.22296e-17
5703.41300 1.22961e-17
5706.29960 1.21443e-17
5709.18619 1.25723e-17
5712.06270 1.28311e-17
5714.94930 1.26577e-17
5717.83590 1.28018e-17
5720.72249 1.29372e-17
5723.59900 1.27282e-17
5726.48560 1.25679e-17
5729.37219 1.30853e-17
5732.24870 1.30934e-17
5735.13530 1.35628e-17
5738.02189 1.37624e-17
5740.90849 1.36413e-17
5743.78500 1.37324e-17
5746.67160 1.40872e-17
5749.55819 1.44741e-17
5752.44479 1.50735e-17
5755.32130 1.49438e-17
5758.20790 1.45600e-17
5761.09449 1.47862e-17
5763.98109 1.51832e-17
5766.85760 1.53604e-17
5769.74419 1.54280e-17
5772.63079 1.57416e-17
5775.50730 1.59618e-17
5778.39390 1.58647e-17
5781.28049 1.61467e-17
5784.16709 1.61015e-17
5787.04360 1.62827e-17
5789.93019 1.66623e-17
5792.81679 1.67450e-17
5795.70339 1.66501e-17
5798.57989 1.65868e-17
5801.46649 1.67949e-17
5804.35309 1.68109e-17
5807.22960 1.70766e-17
5810.11619 1.69887e-17
5813.00279 1.70702e-17
5815.88939 1.71627e-17
5818.76590 1.68942e-17
5821.65249 1.70608e-17
5824.53909 1.73643e-17
5827.42569 1.73319e-17
5830.30219 1.72303e-17
5833.18879 1.73308e-17
5836.07539 1.75530e-17
5838.96199 1.74715e-17
5841.83849 1.74301e-17
5844.72509 1.78906e-17
5847.61169 1.80498e-17
5850.48819 1.80516e-17
5853.37479 1.82538e-17
5856.26139 1.83605e-17
5859.14799 1.84222e-17
5862.02449 1.86992e-17
5864.91109 1.87605e-17
5867.79769 1.86936e-17
5870.67419 1.86137e-17
5873.56079 1.86926e-17
5876.44739 1.89589e-17
5879.33399 1.90884e-17
5882.21049 1.90343e-17
5885.09709 1.83925e-17
5887.98369 1.82325e-17
5890.87029 1.85582e-17
5893.74679 1.85411e-17
5896.63339 1.83363e-17
5899.51999 1.84079e-17
5902.40659 1.85998e-17
5905.28309 1.86569e-17
5908.16969 1.89907e-17
5911.05629 1.87942e-17
5913.93279 1.88055e-17
5916.81939 1.90806e-17
5919.70599 1.89188e-17
5922.59259 1.87060e-17
5925.46909 1.87858e-17
5928.35569 1.89859e-17
5931.24229 1.90422e-17
5934.12889 1.86898e-17
5937.00539 1.80917e-17
5939.89199 1.81730e-17
5942.77859 1.79418e-17
5945.66518 1.75036e-17
5948.54169 1.72591e-17
5951.42829 1.73795e-17
5954.31489 1.77123e-17
5957.19139 1.76283e-17
5960.07799 1.75287e-17
5962.96459 1.79073e-17
5965.85118 1.78850e-17
5968.72769 1.75350e-17
5971.61429 1.74333e-17
5974.50089 1.73441e-17
5977.38748 1.71528e-17
5980.26399 1.70261e-17
5983.15059 1.72751e-17
5986.03718 1.72400e-17
5988.91369 1.69606e-17
5991.80029 1.71820e-17
5994.68689 1.70486e-17
5997.57348 1.71303e-17
6000.44999 1.71320e-17
6003.33659 1.70190e-17
6006.22318 1.70017e-17
6009.10978 1.69660e-17
6011.98629 1.69346e-17
6014.87289 1.69249e-17
6017.75948 1.67731e-17
6020.64608 1.64474e-17
6023.52259 1.64640e-17
6026.40918 1.65665e-17
6029.29578 1.61568e-17
6032.17229 1.63647e-17
6035.05889 1.65560e-17
6037.94548 1.62822e-17
6040.83208 1.62640e-17
6043.70859 1.62514e-17
6046.59518 1.61788e-17
6049.48178 1.62494e-17
6052.36838 1.60386e-17
6055.24489 1.56980e-17
6058.13148 1.57696e-17
6061.01808 1.58790e-17
6063.89459 1.57557e-17
6066.78118 1.57924e-17
6069.66778 1.56551e-17
6072.55438 1.53247e-17
6075.43089 1.53493e-17
6078.31748 1.50661e-17
6081.20408 1.49762e-17
6084.09068 1.47078e-17
6086.96718 1.47057e-17
6089.85378 1.44843e-17
6092.74038 1.43537e-17
6095.61689 1.43515e-17
6098.50348 1.40422e-17
6101.39008 1.37806e-17
6104.27668 1.41656e-17
6107.15318 1.43954e-17
6110.03978 1.41691e-17
6112.92638 1.39832e-17
6115.81298 1.38565e-17
6118.68948 1.39206e-17
6121.57608 1.37236e-17
6124.46268 1.34180e-17
6127.34928 1.35005e-17
6130.22578 1.37490e-17
6133.11238 1.38080e-17
6135.99898 1.38314e-17
6138.87548 1.34380e-17
6141.76208 1.31698e-17
6144.64868 1.33227e-17
6147.53528 1.30247e-17
6150.41178 1.25363e-17
6153.29838 1.25975e-17
6156.18498 1.26470e-17
6159.07158 1.24994e-17
6161.94808 1.23951e-17
6164.83468 1.20224e-17
6167.72128 1.20960e-17
6170.59778 1.20852e-17
6173.48438 1.15752e-17
6176.37098 1.13864e-17
6179.25758 1.12171e-17
6182.13408 1.13080e-17
6185.02068 1.11245e-17
6187.90728 1.10796e-17
6190.79388 1.10520e-17
6193.67038 1.08195e-17
6196.55698 1.09188e-17
6199.44358 1.10921e-17
6202.32008 1.09007e-17
6205.20668 1.08515e-17
6208.09328 1.09668e-17
6210.97988 1.07411e-17
6213.85638 1.05861e-17
6216.74298 1.06507e-17
6219.62958 1.08476e-17
6222.51617 1.09443e-17
6225.39268 1.06272e-17
6228.27928 1.06170e-17
6231.16588 1.05571e-17
6234.05247 1.06212e-17
6236.92898 1.06985e-17
6239.81558 1.04510e-17
6242.70217 1.03397e-17
6245.57868 1.05963e-17
6248.46528 1.08974e-17
6251.35188 1.06306e-17
6254.23847 1.07492e-17
6257.11498 1.03784e-17
6260.00158 1.01956e-17
6262.88817 1.01826e-17
6265.77477 1.03275e-17
6268.65128 1.06315e-17
6271.53788 1.07062e-17
6274.42447 1.05245e-17
6277.30098 1.03144e-17
6280.18758 1.03110e-17
6283.07417 1.04074e-17
6285.96077 1.03137e-17
6288.83728 1.03527e-17
6291.72388 1.06732e-17
6294.61047 1.07532e-17
6297.49707 1.05320e-17
6300.37358 1.06858e-17
6303.26017 1.08377e-17
6306.14677 1.12735e-17
6309.03337 1.15809e-17
6311.90988 1.14316e-17
6314.79647 1.14302e-17
6317.68307 1.13342e-17
6320.55958 1.13836e-17
6323.44617 1.17798e-17
6326.33277 1.17305e-17
6329.21937 1.15139e-17
6332.09588 1.13543e-17
6334.98247 1.14410e-17
6337.86907 1.15023e-17
6340.75567 1.15239e-17
6343.63217 1.15964e-17
6346.51877 1.18735e-17
6349.40537 1.19596e-17
6352.28188 1.19647e-17
6355.16847 1.21204e-17
6358.05507 1.21205e-17
6360.94167 1.20253e-17
6363.81817 1.21049e-17
6366.70477 1.22351e-17
6369.59137 1.23045e-17
6372.47797 1.23899e-17
6375.35447 1.26886e-17
6378.24107 1.25121e-17
6381.12767 1.25355e-17
6384.01427 1.25984e-17
6386.89077 1.26378e-17
6389.77737 1.27139e-17
6392.66397 1.29903e-17
6395.54047 1.28820e-17
6398.42707 1.27283e-17
6401.31367 1.28122e-17
6404.20027 1.25073e-17
6407.07677 1.23155e-17
6409.96337 1.24565e-17
6412.84997 1.25604e-17
6415.73657 1.25285e-17
6418.61307 1.25034e-17
6421.49967 1.25995e-17
6424.38627 1.23184e-17
6427.26277 1.22801e-17
6430.14937 1.23049e-17
6433.03597 1.20619e-17
6435.92257 1.19554e-17
6438.79907 1.19919e-17
6441.68567 1.18363e-17
6444.57227 1.16836e-17
6447.45887 1.17593e-17
6450.33537 1.17287e-17
6453.22197 1.15662e-17
6456.10857 1.15107e-17
6458.99516 1.11674e-17
6461.87167 1.13417e-17
6464.75827 1.14891e-17
6467.64487 1.14676e-17
6470.52137 1.14044e-17
6473.40797 1.13325e-17
6476.29457 1.15323e-17
6479.18116 1.17773e-17
6482.05767 1.17308e-17
6484.94427 1.17480e-17
6487.83087 1.18807e-17
6490.70737 1.17900e-17
6493.59397 1.15588e-17
6496.48057 1.15925e-17
6499.36716 1.15291e-17
6502.24367 1.17913e-17
6505.13027 1.19958e-17
6508.01687 1.19424e-17
6510.90346 1.16820e-17
6513.77997 1.17110e-17
6516.66657 1.18620e-17
6519.55316 1.15779e-17
6522.43976 1.16852e-17
6525.31627 1.18713e-17
6528.20287 1.20030e-17
6531.08946 1.20185e-17
6533.96597 1.18008e-17
6536.85257 1.18404e-17
6539.73916 1.20575e-17
6542.62576 1.19977e-17
6545.50227 1.18113e-17
6548.38887 1.20971e-17
6551.27546 1.23534e-17
6554.16206 1.21343e-17
6557.03857 1.21707e-17
6559.92516 1.23828e-17
6562.81176 1.25768e-17
6565.68827 1.27644e-17
6568.57487 1.25670e-17
6571.46146 1.28136e-17
6574.34806 1.27371e-17
6577.22457 1.26378e-17
6580.11116 1.24215e-17
6582.99776 1.23561e-17
6585.88436 1.27958e-17
6588.76087 1.30591e-17
6591.64746 1.28731e-17
6594.53406 1.28101e-17
6597.42066 1.30275e-17
6600.29716 1.30769e-17
6603.18376 1.30714e-17
6606.07036 1.30392e-17
6608.94687 1.31047e-17
6611.83346 1.30468e-17
6614.72006 1.30712e-17
6617.60666 1.33566e-17
6620.48316 1.37016e-17
6623.36976 1.39379e-17
6626.25636 1.39111e-17
6629.14296 1.34918e-17
6632.01946 1.29766e-17
6634.90606 1.28036e-17
6637.79266 1.29903e-17
6640.66916 1.32372e-17
6643.55576 1.30460e-17
6646.44236 1.28999e-17
6649.32896 1.27438e-17
6652.20546 1.28258e-17
6655.09206 1.30184e-17
6657.97866 1.29447e-17
6660.86526 1.28397e-17
6663.74176 1.28451e-17
6666.62836 1.28105e-17
6669.51496 1.26826e-17
6672.40156 1.24804e-17
6675.27806 1.26175e-17
6678.16466 1.25967e-17
6681.05126 1.25012e-17
6683.92776 1.26653e-17
6686.81436 1.24093e-17
6689.70096 1.23603e-17
6692.58756 1.25105e-17
6695.46406 1.22457e-17
6698.35066 1.21225e-17
6701.23726 1.20605e-17
6704.12386 1.19953e-17
6707.00036 1.21753e-17
6709.88696 1.21174e-17
6712.77356 1.25052e-17
6715.65006 1.25373e-17
6718.53666 1.24045e-17
6721.42326 1.21477e-17
6724.30986 1.18364e-17
6727.18636 1.17566e-17
6730.07296 1.17348e-17
6732.95956 1.16585e-17
6735.84615 1.17506e-17
6738.72266 1.18581e-17
6741.60926 1.16539e-17
6744.49586 1.16563e-17
6747.38245 1.15799e-17
6750.25896 1.13450e-17
6753.14556 1.13494e-17
6756.03215 1.14654e-17
6758.90866 1.13107e-17
6761.79526 1.11271e-17
6764.68186 1.11087e-17
6767.56845 1.11587e-17
6770.44496 1.12347e-17
6773.33156 1.10589e-17
6776.21815 1.10120e-17
6779.10475 1.11393e-17
6781.98126 1.08865e-17
6784.86786 1.06392e-17
6787.75445 1.06934e-17
6790.63096 1.05927e-17
6793.51756 1.05067e-17
6796.40415 1.04657e-17
6799.29075 1.04041e-17
6802.16726 1.02211e-17
6805.05386 9.66886e-18
6807.94045 9.62743e-18
6810.82705 9.68701e-18
6813.70356 9.68778e-18
6816.59015 9.70758e-18
6819.47675 9.58531e-18
6822.35326 9.42553e-18
6825.23986 9.25171e-18
6828.12645 9.07479e-18
6831.01305 9.10277e-18
6833.88956 9.40598e-18
6836.77615 9.64727e-18
6839.66275 9.42891e-18
6842.54935 9.11480e-18
6845.42586 9.28006e-18
6848.31245 9.23385e-18
6851.19905 9.14388e-18
6854.07556 9.08879e-18
6856.96215 9.28331e-18
6859.84875 9.29863e-18
6862.73535 8.93938e-18
6865.61186 8.32171e-18
6868.49845 7.66731e-18
6871.38505 7.38750e-18
6874.27165 7.25659e-18
6877.14815 7.51830e-18
6880.03475 7.90297e-18
6882.92135 8.06718e-18
6885.80795 8.36475e-18
6888.68445 8.37274e-18
6891.57105 8.29722e-18
6894.45765 8.29151e-18
6897.33415 8.40522e-18
6900.22075 8.43177e-18
6903.10735 8.32966e-18
6905.99395 8.62585e-18
6908.87045 8.67624e-18
6911.75705 8.96070e-18
6914.64365 9.00139e-18
6917.53025 9.02527e-18
6920.40675 9.29039e-18
6923.29335 9.36471e-18
6926.17995 9.02560e-18
6929.05645 9.07875e-18
6931.94305 9.50516e-18
6934.82965 9.65058e-18
6937.71625 9.76816e-18
6940.59275 9.72573e-18
6943.47935 9.74798e-18
6946.36595 9.77622e-18
6949.25255 9.76376e-18
6952.12905 9.72751e-18
6955.01565 9.76645e-18
6957.90225 9.94165e-18
6960.78885 9.81513e-18
6963.66535 9.68408e-18
6966.55195 1.00097e-17
6969.43855 1.01076e-17
6972.31505 1.00131e-17
6975.20165 1.01371e-17
6978.08825 9.87660e-18
6980.97485 9.88109e-18
6983.85135 1.01219e-17
6986.73795 1.01057e-17
6989.62455 1.00729e-17
6992.51114 1.00600e-17
6995.38765 1.00788e-17
6998.27425 1.00963e-17
7001.16085 9.86389e-18
7004.03735 9.71908e-18
7006.92395 9.86980e-18
7009.81055 1.00825e-17
7012.69714 9.81761e-18
7015.57365 9.78408e-18
7018.46025 9.68404e-18
7021.34685 9.61451e-18
7024.23344 9.36701e-18
7027.10995 9.53285e-18
7029.99655 9.90527e-18
7032.88314 9.61831e-18
7035.76974 9.81849e-18
7038.64625 9.92099e-18
7041.53285 9.67851e-18
7044.41944 9.53641e-18
7047.29595 9.53084e-18
7050.18255 9.66449e-18
7053.06914 9.57457e-18
7055.95574 9.56372e-18
7058.83225 9.73559e-18
7061.71885 9.62559e-18
7064.60544 9.45107e-18
7067.49204 9.59248e-18
7070.36855 9.73387e-18
7073.25514 9.59228e-18
7076.14174 9.33592e-18
7079.01825 9.21452e-18
7081.90485 9.32560e-18
7084.79144 9.55457e-18
7087.67804 9.31156e-18
7090.55455 8.90307e-18
7093.44114 9.05745e-18
7096.32774 9.29230e-18
7099.21434 9.26755e-18
7102.09085 9.39508e-18
7104.97744 9.32421e-18
7107.86404 9.32920e-18
7110.74055 9.30438e-18
7113.62714 9.18956e-18
7116.51374 9.24969e-18
7119.40034 9.13381e-18
7122.27685 8.92555e-18
7125.16344 8.95834e-18
7128.05004 8.94794e-18
7130.93664 8.96624e-18
7133.81314 9.04649e-18
7136.69974 8.91939e-18
7139.58634 8.92187e-18
7142.47294 9.17518e-18
7145.34944 9.13912e-18
7148.23604 9.08747e-18
7151.12264 9.02163e-18
7153.99914 8.79125e-18
7156.88574 8.80625e-18
7159.77234 8.98787e-18
7162.65894 8.98397e-18
7165.53544 9.12539e-18
7168.42204 9.20594e-18
7171.30864 8.99698e-18
7174.19524 9.00996e-18
7177.07174 8.94349e-18
7179.95834 8.97658e-18
7182.84494 8.90782e-18
7185.72144 8.74643e-18
7188.60804 8.75362e-18
7191.49464 8.77084e-18
7194.38124 9.10572e-18
7197.25774 9.12485e-18
7200.14434 8.77762e-18
7203.03094 8.74709e-18
7205.91754 8.82131e-18
7208.79404 9.02377e-18
7211.68064 9.06897e-18
7214.56724 8.97986e-18
7217.45384 8.99921e-18
7220.33034 8.93879e-18
7223.21694 8.93267e-18
7226.10354 9.06786e-18
7228.98004 8.90948e-18
7231.86664 8.85838e-18
7234.75324 8.72318e-18
7237.63984 8.54416e-18
7240.51634 8.71380e-18
7243.40294 8.88604e-18
7246.28954 8.96815e-18
7249.17613 8.81829e-18
7252.05264 8.32808e-18
7254.93924 8.38119e-18
7257.82584 8.83306e-18
7260.70234 8.92151e-18
7263.58894 8.70371e-18
7266.47554 8.66955e-18
7269.36213 8.47628e-18
7272.23864 8.18438e-18
7275.12524 8.10390e-18
7278.01184 8.30094e-18
7280.89843 8.51095e-18
7283.77494 8.51894e-18
7286.66154 8.51323e-18
7289.54813 8.46699e-18
7292.42464 8.81729e-18
7295.31124 8.91521e-18
7298.19784 8.77833e-18
7301.08443 8.45710e-18
7303.96094 8.23513e-18
7306.84754 8.27854e-18
7309.73413 8.44094e-18
7312.62073 8.50848e-18
7315.49724 8.37016e-18
7318.38384 8.37748e-18
7321.27043 8.55547e-18
7324.15703 8.49901e-18
7327.03354 8.26775e-18
7329.92013 8.29529e-18
7332.80673 8.37185e-18
7335.68324 8.37956e-18
7338.56984 8.28218e-18
7341.45643 8.20198e-18
7344.34303 8.28297e-18
7347.21954 8.29941e-18
7350.10613 8.53446e-18
7352.99273 8.63560e-18
7355.87933 8.42858e-18
7358.75584 8.16043e-18
7361.64243 8.19490e-18
7364.52903 8.26191e-18
7367.40554 8.24051e-18
7370.29213 8.22734e-18
7373.17873 8.12346e-18
7376.06533 8.12961e-18
7378.94184 8.22365e-18
7381.82843 8.02032e-18
7384.71503 8.20941e-18
7387.60163 8.08025e-18
7390.47813 7.92912e-18
7393.36473 8.00337e-18
7396.25133 8.01134e-18
7399.13793 8.02071e-18
7402.01443 8.11627e-18
7404.90103 8.05345e-18
7407.78763 8.01095e-18
7410.66413 8.19170e-18
7413.55073 8.08712e-18
7416.43733 8.28155e-18
7419.32393 8.24310e-18
7422.20043 7.99541e-18
7425.08703 7.84849e-18
7427.97363 7.83261e-18
7430.86023 7.77493e-18
7433.73673 7.66117e-18
7436.62333 7.64639e-18
7439.50993 7.53900e-18
7442.38643 7.53034e-18
7445.27303 7.60836e-18
7448.15963 7.59429e-18
7451.04623 7.62251e-18
7453.92273 7.64576e-18
7456.80933 7.47104e-18
7459.69593 7.27943e-18
7462.58253 7.19986e-18
7465.45903 7.03137e-18
7468.34563 7.03408e-18
7471.23223 7.34638e-18
7474.10873 7.15580e-18
7476.99533 6.97417e-18
7479.88193 7.13465e-18
7482.76853 7.22287e-18
7485.64503 7.10661e-18
7488.53163 6.99617e-18
7491.41823 6.96442e-18
7494.30483 6.96867e-18
7497.18133 6.93102e-18
7500.06793 6.87618e-18
7502.95453 6.95089e-18
7505.84112 6.69390e-18
7508.71763 6.73961e-18
7511.60423 6.88621e-18
7514.49083 6.99037e-18
7517.36733 7.17111e-18
7520.25393 7.16221e-18
7523.14053 6.92699e-18
7526.02712 6.84256e-18
7528.90363 6.79309e-18
7531.79023 6.63889e-18
7534.67683 7.02999e-18
7537.56342 7.08696e-18
7540.43993 6.64559e-18
7543.32653 6.71021e-18
7546.21312 6.88675e-18
7549.08963 6.76449e-18
7551.97623 6.69345e-18
7554.86283 6.61188e-18
7557.74942 6.59329e-18
7560.62593 6.53972e-18
7563.51253 6.53141e-18
7566.39912 6.76661e-18
7569.28572 6.50983e-18
7572.16223 6.39993e-18
7575.04883 6.40230e-18
7577.93542 6.54649e-18
7580.81193 6.67883e-18
7583.69853 6.45555e-18
7586.58512 6.52175e-18
7589.47172 6.29951e-18
7592.34823 5.71450e-18
7595.23483 4.88461e-18
7598.12142 4.16805e-18
7601.00802 3.24565e-18
7603.88453 2.70337e-18
7606.77112 2.73785e-18
7609.65772 2.77178e-18
7612.54432 3.03990e-18
7615.42083 3.89350e-18
7618.30742 4.54192e-18
7621.19402 4.42747e-18
7624.07053 4.27634e-18
7626.95712 4.11827e-18
7629.84372 3.92655e-18
7632.73032 3.91287e-18
7635.60683 3.95738e-18
7638.49342 4.10477e-18
7641.38002 4.28943e-18
7644.26662 4.37119e-18
7647.14312 4.68507e-18
7650.02972 4.92787e-18
7652.91632 5.21776e-18
7655.79283 5.22103e-18
7658.67942 5.34197e-18
7661.56602 5.51796e-18
7664.45262 5.45660e-18
7667.32912 5.61203e-18
7670.21572 6.03981e-18
7673.10232 6.14207e-18
7675.98892 6.00244e-18
7678.86542 5.96960e-18
7681.75202 6.20665e-18
7684.63862 6.31211e-18
7687.52522 6.37635e-18
7690.40172 6.57994e-18
7693.28832 6.49751e-18
7696.17492 6.30198e-18
7699.05142 6.22515e-18
7701.93802 6.17288e-18
7704.82462 6.31593e-18
7707.71122 6.30747e-18
7710.58772 6.34511e-18
7713.47432 6.34342e-18
7716.36092 6.45253e-18
7719.24752 6.56275e-18
7722.12402 6.73476e-18
7725.01062 6.73625e-18
7727.89722 6.55524e-18
7730.77372 6.40322e-18
7733.66032 6.47116e-18
7736.54692 7.03514e-18
7739.43352 6.97289e-18
7742.31002 6.75477e-18
7745.19662 6.91462e-18
7748.08322 6.88352e-18
7750.96982 6.67694e-18
7753.84632 6.62662e-18
7756.73292 6.78562e-18
7759.61952 6.83798e-18
7762.50611 6.66418e-18
7765.38262 6.73239e-18
7768.26922 6.83838e-18
7771.15582 6.95692e-18
7774.03232 6.87613e-18
7776.91892 6.98744e-18
7779.80552 7.09356e-18
7782.69211 6.99873e-18
7785.56862 6.89370e-18
7788.45522 6.77708e-18
7791.34182 6.63295e-18
7794.22841 6.67141e-18
7797.10492 6.79697e-18
7799.99152 6.66318e-18
7802.87811 6.66265e-18
7805.75462 6.57454e-18
7808.64122 6.70383e-18
7811.52782 7.04322e-18
7814.41441 7.20502e-18
7817.29092 7.24418e-18
7820.17752 7.09658e-18
7823.06411 6.59706e-18
7825.95071 6.41233e-18
7828.82722 6.71833e-18
7831.71382 6.73393e-18
7834.60041 6.89884e-18
7837.48701 6.88642e-18
7840.36352 6.76108e-18
7843.25011 6.97665e-18
7846.13671 7.09277e-18
7849.01322 6.90250e-18
7851.89982 6.92020e-18
7854.78641 6.87638e-18
7857.67301 6.69928e-18
7860.54952 6.73840e-18
7863.43611 6.81780e-18
7866.32271 6.88611e-18
7869.19922 6.89957e-18
7872.08582 6.77492e-18
7874.97241 6.79113e-18
7877.85901 6.97332e-18
7880.73552 6.97143e-18
7883.62211 6.91666e-18
7886.50871 6.83387e-18
7889.39531 6.91759e-18
7892.27182 6.87330e-18
7895.15841 6.39986e-18
7898.04501 6.24726e-18
7900.93161 6.60331e-18
7903.80811 6.86158e-18
7906.69471 6.86079e-18
7909.58131 6.73444e-18
7912.45782 6.48371e-18
7915.34441 6.36383e-18
7918.23101 6.52584e-18
7921.11761 6.41569e-18
7923.99411 6.33738e-18
7926.88071 6.24552e-18
7929.76731 6.06873e-18
7932.65391 6.04549e-18
7935.53041 6.17416e-18
7938.41701 6.39711e-18
7941.30361 6.62288e-18
7944.18011 6.52152e-18
7947.06671 6.25336e-18
7949.95331 5.88426e-18
7952.83991 5.88759e-18
7955.71641 5.90003e-18
7958.60301 5.84787e-18
7961.48961 5.88709e-18
7964.37621 5.89850e-18
7967.25271 5.73565e-18
7970.13931 5.61158e-18
7973.02591 5.92218e-18
7975.91251 5.81064e-18
7978.78901 5.75772e-18
7981.67561 5.57129e-18
7984.56221 5.35413e-18
7987.43871 5.24377e-18
7990.32531 5.03109e-18
7993.21191 5.05622e-18
7996.09851 5.35853e-18
7998.97501 5.29594e-18
8001.86161 5.27764e-18
8004.74821 5.37118e-18
8007.63481 5.16133e-18
8010.51131 5.17790e-18
8013.39791 5.40113e-18
8016.28451 5.17504e-18
8019.16101 4.79656e-18
8022.04761 4.88852e-18
8024.93421 5.11882e-18
8027.82081 4.99798e-18
8030.69731 4.94470e-18
8033.58391 5.28547e-18
8036.47051 5.23387e-18
8039.35710 5.13958e-18
8042.23361 4.99104e-18
8045.12021 5.01479e-18
8048.00681 5.15437e-18
8050.89340 4.98475e-18
8053.76991 4.69105e-18
8056.65651 4.54433e-18
8059.54310 4.38606e-18
8062.41961 4.39837e-18
8065.30621 4.54281e-18
8068.19281 4.86757e-18
8071.07940 4.92926e-18
8073.95591 4.87155e-18
8076.84251 4.76712e-18
8079.72910 4.75830e-18
8082.61570 4.80703e-18
8085.49221 4.61507e-18
8088.37881 4.50578e-18
8091.26540 4.50910e-18
8094.14191 4.50852e-18
8097.02851 4.50440e-18
8099.91510 4.45598e-18
8102.80170 4.48769e-18
8105.67821 4.60421e-18
8108.56481 4.61464e-18
8111.45140 4.46110e-18
8114.33800 4.36223e-18
8117.21451 4.33114e-18
8120.10110 4.09587e-18
8122.98770 3.99741e-18
8125.87430 4.16749e-18
8128.75081 4.28975e-18
8131.63740 4.38250e-18
8134.52400 4.68064e-18
8137.40051 4.73086e-18
8140.28710 4.31764e-18
8143.17370 4.16216e-18
8146.06030 4.37949e-18
8148.93681 4.22054e-18
8151.82340 4.17467e-18
8154.71000 4.12881e-18
8157.59660 4.08296e-18
8160.47310 4.03711e-18
8163.35970 3.99127e-18
8166.24630 3.94544e-18
8169.12281 3.89960e-18
8172.00940 4.05726e-18
8174.89600 4.14027e-18
8177.78260 4.17050e-18
8180.65910 4.25685e-18
8183.54570 4.10549e-18
8186.43230 3.94321e-18
8189.31890 3.93180e-18
8192.19540 3.94103e-18
8195.08200 3.94315e-18
8197.96860 3.99209e-18
8200.85520 3.94716e-18
8203.73170 3.80724e-18
8206.61830 3.83258e-18
8209.50490 3.83966e-18
8212.38140 3.74597e-18
8215.26800 3.89617e-18
8218.15460 3.69533e-18
8221.04120 3.46347e-18
8223.91770 3.48394e-18
8226.80430 3.30260e-18
8229.69090 3.28319e-18
8232.56740 3.51981e-18
8235.45400 3.44897e-18
8238.34060 3.61588e-18
8241.22720 3.51649e-18
8244.10370 3.67938e-18
8246.99030 3.51980e-18
8249.87690 3.48731e-18
8252.76350 3.39720e-18
8255.64000 3.12395e-18
8258.52660 3.19593e-18
8261.41320 3.06818e-18
8264.29980 2.68958e-18
8267.17630 3.16570e-18
8270.06290 3.24671e-18
8272.94950 3.00874e-18
8275.82600 2.97785e-18
8278.71260 3.18090e-18
8281.59920 3.32911e-18
8284.48580 3.50793e-18
8287.36230 3.49110e-18
8290.24890 3.22283e-18
8293.13550 2.98489e-18
8296.02209 2.76393e-18
8298.89860 2.99360e-18
8301.78520 3.32629e-18
8304.67180 3.32788e-18
8307.54830 3.34093e-18
8310.43490 3.41021e-18
8313.32150 3.49367e-18
8316.20809 3.51571e-18
8319.08460 3.41835e-18
8321.97120 3.34658e-18
8324.85779 3.30426e-18
8327.74439 3.16508e-18
8330.62090 3.06613e-18
8333.50750 3.09013e-18
8336.39409 3.30557e-18
8339.28069 3.43749e-18
8342.15720 3.62974e-18
8345.04379 3.54846e-18
8347.93039 3.48138e-18
8350.81699 3.72555e-18
8353.69350 3.69938e-18
8356.58009 3.47996e-18
8359.46669 3.25253e-18
8362.34320 3.24741e-18
8365.22980 3.15770e-18
8368.11639 3.28897e-18
8371.00299 3.35886e-18
8373.87950 3.19300e-18
8376.76609 3.40293e-18
8379.65269 3.79650e-18
8382.52920 3.84324e-18
8385.41580 3.81652e-18
8388.30239 3.58747e-18
8391.18899 3.41334e-18
8394.06550 3.56916e-18
8396.95209 3.47874e-18
8399.83869 3.45128e-18
8402.72529 3.84340e-18
8405.60180 3.69535e-18
8408.48839 3.29875e-18
8411.37499 3.57863e-18
8414.25150 4.07714e-18
8417.13809 4.30542e-18
8420.02469 4.10972e-18
8422.91129 4.14428e-18
8425.78780 4.00115e-18
8428.67439 3.92798e-18
8431.56099 3.85887e-18
8434.44759 3.94612e-18
8437.32409 3.84378e-18
8440.21069 3.82309e-18
8443.09729 4.29044e-18
8445.98389 4.53789e-18
8448.86039 4.57366e-18
8451.74699 4.37948e-18
8454.63359 4.45098e-18
8457.51009 4.28222e-18
8460.39669 4.38515e-18
8463.28329 4.14979e-18
8466.16989 4.20982e-18
8469.04639 4.58610e-18
8471.93299 4.47604e-18
8474.81959 4.44808e-18
8477.70619 4.66061e-18
8480.58269 4.77287e-18
8483.46929 4.74959e-18
8486.35589 4.88063e-18
8489.24249 4.96668e-18
8492.11899 4.75718e-18
8495.00559 4.80084e-18
8497.89219 5.18445e-18
8500.76869 5.03907e-18
8503.65529 4.64933e-18
8506.54189 4.84977e-18
8509.42849 4.96059e-18
8512.30499 4.99299e-18
8515.19159 5.11523e-18
8518.07819 5.17192e-18
8520.96479 5.20984e-18
8523.84129 5.30292e-18
8526.72789 5.40798e-18
8529.61449 5.57060e-18
8532.50108 5.56568e-18
8535.37759 5.51916e-18
8538.26419 5.70327e-18
8541.15079 5.63999e-18
8544.02729 5.71580e-18
8546.91389 5.51182e-18
8549.80049 5.25871e-18
8552.68708 5.37306e-18
8555.56359 5.74829e-18
8558.45019 5.80711e-18
8561.33679 5.79342e-18
8564.21329 6.04932e-18
8567.09989 6.07577e-18
8569.98649 5.76294e-18
8572.87308 5.57816e-18
8575.74959 5.75803e-18
8578.63619 5.95454e-18
8581.52279 5.85246e-18
8584.40938 5.62331e-18
8587.28589 5.79473e-18
8590.17249 6.22109e-18
8593.05908 6.39733e-18
8595.93559 6.31156e-18
8598.82219 6.18456e-18
8601.70879 6.07483e-18
8604.59538 5.97908e-18
8607.47189 5.96888e-18
8610.35849 6.18244e-18
8613.24508 5.98794e-18
8616.13168 6.03274e-18
8619.00819 5.93361e-18
8621.89479 5.84652e-18
8624.78138 6.21591e-18
8627.66798 6.61819e-18
8630.54449 6.70594e-18
8633.43108 6.46149e-18
8636.31768 6.44979e-18
8639.19419 6.54403e-18
8642.08079 6.62625e-18
8644.96738 6.35463e-18
8647.85398 5.69353e-18
8650.73049 5.77823e-18
8653.61708 6.25080e-18
8656.50368 6.22732e-18
8659.39028 6.04841e-18
8662.26679 6.14969e-18
8665.15338 6.57462e-18
8668.03998 6.67785e-18
8670.92658 6.31596e-18
8673.80308 6.38550e-18
8676.68968 6.70124e-18
8679.57628 6.72850e-18
8682.45279 6.48745e-18
8685.33938 6.17996e-18
8688.22598 5.97912e-18
8691.11258 5.95601e-18
8693.98908 6.07571e-18
8696.87568 6.26638e-18
8699.76228 6.31006e-18
8702.64888 6.41417e-18
8705.52538 6.66026e-18
8708.41198 6.45102e-18
8711.29858 6.40087e-18
8714.17508 6.34941e-18
8717.06168 6.52746e-18
8719.94828 6.72335e-18
8722.83488 6.37321e-18
8725.71138 6.02625e-18
8728.59798 5.95996e-18
8731.48458 6.18095e-18
8734.36108 5.91120e-18
8737.24768 5.83758e-18
8740.13428 6.22381e-18
8743.02088 6.67829e-18
8745.89738 6.63288e-18
8748.78398 6.47999e-18
8751.67058 6.62734e-18
8754.55718 6.45112e-18
8757.43368 6.38190e-18
8760.32028 6.81443e-18
8763.20688 6.24761e-18
8766.09348 6.33562e-18
8768.96998 6.30317e-18
8771.85658 5.89896e-18
8774.74318 5.66818e-18
8777.62978 5.85057e-18
8780.50628 6.26998e-18
8783.39288 6.06760e-18
8786.27948 5.71450e-18
8789.15598 6.19956e-18
8792.04258 6.36303e-18
8794.92918 6.07151e-18
8797.81578 6.17960e-18
8800.69228 5.79369e-18
8803.57888 5.86950e-18
8806.46548 5.85672e-18
8809.35207 5.56315e-18
8812.22858 5.57218e-18
8815.11518 5.95868e-18
8818.00178 5.99413e-18
8820.87828 5.76835e-18
8823.76488 6.03065e-18
8826.65148 6.16071e-18
8829.53807 6.05827e-18
8832.41458 5.67220e-18
8835.30118 5.61947e-18
8838.18778 6.02826e-18
8841.07437 5.76785e-18
8843.95088 5.52946e-18
8846.83748 5.78296e-18
8849.72407 5.61807e-18
8852.61067 5.26578e-18
8855.48718 5.38925e-18
8858.37378 5.37611e-18
8861.26037 5.30830e-18
8864.13688 5.62678e-18
8867.02348 5.65420e-18
8869.91007 5.59301e-18
8872.79667 5.59020e-18
8875.67318 5.57880e-18
8878.55978 5.58812e-18
8881.44637 5.39756e-18
8884.32288 4.92243e-18
8887.20948 4.73763e-18
8890.09607 4.94336e-18
8892.98267 4.81157e-18
8895.85918 4.64088e-18
8898.74578 4.75440e-18
8901.63237 4.96588e-18
8904.51897 5.30166e-18
8907.39548 5.26174e-18
8910.28207 4.76978e-18
8913.16867 4.77360e-18
8916.05527 4.87066e-18
8918.93178 4.49883e-18
8921.81837 4.29473e-18
8924.70497 4.18155e-18
8927.58148 4.30271e-18
8930.46807 4.31781e-18
8933.35467 4.35033e-18
8936.24127 4.50341e-18
8939.11778 4.29723e-18
8942.00437 4.31580e-18
8944.89097 4.70666e-18
8947.77757 4.79944e-18
8950.65407 4.52570e-18
8953.54067 4.25607e-18
8956.42727 4.13495e-18
8959.30378 4.05034e-18
8962.19037 3.85819e-18
8965.07697 4.06664e-18
8967.96357 4.14049e-18
8970.84007 4.05514e-18
8973.72667 3.91020e-18
8976.61327 4.30476e-18
8979.49987 4.57363e-18
8982.37637 4.24328e-18
8985.26297 4.09304e-18
8988.14957 4.24754e-18
8991.03617 4.15691e-18
8993.91267 3.80974e-18
8996.79927 3.65233e-18
8999.68587 3.84998e-18
9002.56237 3.64595e-18
9005.44897 3.82889e-18
9008.33557 3.71083e-18
9011.22217 3.92983e-18
9014.09867 4.25072e-18
9016.98527 4.04225e-18
9019.87187 3.91041e-18
9022.75847 3.71290e-18
9025.63497 3.64089e-18
9028.52157 3.82322e-18
