# wavelength flux
3311.92711 2.96920e-17
3316.97361 3.55370e-17
3322.02011 3.54029e-17
3327.07671 2.86606e-17
3332.12321 2.31728e-17
3337.16971 1.78553e-17
3342.22630 1.33749e-17
3347.27280 1.14650e-17
3352.31930 1.63849e-17
3357.36580 1.98959e-17
3362.42239 1.74614e-17
3367.46889 2.09108e-17
3372.51539 2.70917e-17
3377.57199 3.04518e-17
3382.61848 2.44617e-17
3387.66498 2.02899e-17
3392.71149 1.58540e-17
3397.76808 1.05870e-17
3402.81458 2.12208e-18
3407.86108 1.12494e-17
3412.91767 2.22285e-17
3417.96417 2.19730e-17
3423.01067 2.09884e-17
3428.06726 1.99135e-17
3433.11376 1.88563e-17
3438.16026 1.79216e-17
3443.20676 1.72052e-17
3448.26336 1.80288e-17
3453.30986 2.23588e-17
3458.35636 1.69346e-17
3463.41295 1.41899e-17
3468.45945 1.59873e-17
3473.50595 1.84571e-17
3478.56254 2.33448e-17
3483.60904 2.40592e-17
3488.65554 1.49903e-17
3493.70204 1.70458e-17
3498.75864 2.24593e-17
3503.80514 5.36264e-18
3508.85164 3.19531e-18
3513.90823 4.40579e-18
3518.95473 1.42826e-17
3524.00123 2.17072e-17
3529.05782 1.17633e-17
3534.10432 5.26150e-18
3539.15082 5.25454e-18
3544.19732 6.68714e-18
3549.25392 9.18389e-18
3554.30042 7.47464e-18
3559.34692 3.45883e-18
3564.40351 1.43850e-18
3569.45001 2.60209e-18
3574.49651 4.77121e-18
3579.54301 7.10371e-18
3584.59960 1.67112e-17
3589.64610 1.91627e-17
3594.69260 1.63577e-17
3599.74919 1.30866e-17
3604.79569 4.43471e-18
3609.84219 6.17182e-18
3614.89879 7.28435e-18
3619.94529 6.17749e-18
3624.99179 1.43696e-17
3630.03829 6.99451e-18
3635.09488 2.89552e-18
3640.14138 7.78579e-18
3645.18788 1.97419e-17
3650.24447 1.37195e-17
3655.29097 6.10872e-18
3660.33747 5.04179e-18
3665.39407 1.09243e-17
3670.44057 9.93011e-18
3675.48707 6.87570e-18
3680.53357 6.39605e-18
3685.59016 9.22087e-18
3690.63666 1.20490e-17
3695.68316 1.01940e-17
3700.73975 8.87001e-18
3705.78625 9.18887e-18
3710.83275 1.07016e-17
3715.88935 1.48194e-17
3720.93585 7.54938e-18
3725.98235 9.55066e-18
3731.02885 5.78540e-18
3736.08544 6.01254e-18
3741.13194 9.32783e-18
3746.17844 9.27471e-18
3751.23503 8.44827e-18
3756.28153 8.71229e-18
3761.32803 1.13877e-17
3766.38462 7.72985e-18
3771.43112 1.66078e-18
3776.47762 6.02708e-18
3781.52412 4.03483e-18
3786.58072 7.22950e-19
3791.62722 3.71923e-18
3796.67372 5.66116e-18
3801.73031 4.51435e-18
3806.77681 4.79607e-18
3811.82331 3.92986e-18
3816.86981 2.36018e-18
3821.92640 7.84344e-19
3826.97290 5.78890e-19
3832.01940 5.61914e-19
3837.07600 5.12861e-18
3842.12250 6.56422e-18
3847.16900 6.07072e-18
3852.22559 4.50557e-18
3857.27209 4.97518e-18
3862.31859 6.14488e-18
3867.36509 6.87635e-18
3872.42168 4.26113e-18
3877.46818 1.58720e-18
3882.51468 7.99339e-18
3887.57128 9.23595e-18
3892.61778 8.60677e-18
3897.66428 9.37446e-18
3902.72087 9.34304e-18
3907.76737 1.10821e-17
3912.81387 1.29025e-17
3917.86037 9.25025e-18
3922.91696 7.76427e-18
3927.96346 1.49792e-17
3933.00996 1.62906e-17
3938.06655 1.47998e-17
3943.11305 1.41638e-17
3948.15955 1.52928e-17
3953.21615 1.69918e-17
3958.26265 1.75981e-17
3963.30915 1.91921e-17
3968.35565 2.04336e-17
3973.41224 2.19602e-17
3978.45874 1.88453e-17
3983.50524 1.53927e-17
3988.56183 1.98678e-17
3993.60833 1.82867e-17
3998.65483 2.05383e-17
4003.70133 1.88062e-17
4008.75793 1.18611e-17
4013.80443 9.79298e-18
4018.85093 1.81444e-17
4023.90752 1.49166e-17
4028.95402 1.40777e-17
4034.00052 1.61424e-17
4039.05711 1.94564e-17
4044.10361 2.18225e-17
4049.15011 2.34429e-17
4054.19661 2.04849e-17
4059.25321 1.23505e-17
4064.29971 8.27882e-18
4069.34621 1.72194e-18
4074.40280 3.03705e-18
4079.44930 6.07737e-18
4084.49580 1.14331e-17
4089.55239 1.63861e-17
4094.59889 1.44685e-17
4099.64539 1.14805e-17
4104.69189 1.56916e-17
4109.74848 1.46541e-17
4114.79498 1.18291e-17
4119.84148 1.07638e-17
4124.89808 7.40674e-18
4129.94458 1.14166e-17
4134.99108 1.22820e-17
4140.04767 1.18440e-17
4145.09417 1.41707e-17
4150.14067 1.35158e-17
4155.18717 7.84513e-18
4160.24376 1.00568e-17
4165.29026 1.12450e-17
4170.33676 1.22454e-17
4175.39336 1.58094e-17
4180.43986 9.07558e-18
4185.48636 5.70469e-18
4190.53286 9.62119e-18
4195.58945 1.41092e-17
4200.63595 1.41909e-17
4205.68245 1.04025e-17
4210.73904 1.03495e-17
4215.78554 1.09364e-17
4220.83204 1.01256e-17
4225.88864 1.03502e-17
4230.93514 1.38881e-17
4235.98164 1.58287e-17
4241.03823 1.39672e-17
4246.08473 1.72877e-17
4251.13123 1.86889e-17
4256.17773 1.50262e-17
4261.23432 1.49404e-17
4266.28082 1.30075e-17
4271.32732 1.09587e-17
4276.38391 8.26518e-18
4281.43041 1.11566e-17
4286.47691 1.18251e-17
4291.52341 9.96259e-18
4296.58001 9.71253e-18
4301.62651 1.04943e-17
4306.67301 1.24593e-17
4311.72960 1.08918e-17
4316.77610 1.33429e-17
4321.82260 1.10952e-17
4326.87919 9.95773e-18
4331.92569 1.17270e-17
4336.97219 1.15222e-17
4342.01869 9.57562e-18
4347.07529 1.11671e-17
4352.12179 1.30972e-17
4357.16829 1.31798e-17
4362.22488 1.30928e-17
4367.27138 1.03156e-17
4372.31788 1.20217e-17
4377.37447 1.36362e-17
4382.42097 9.20689e-18
4387.46747 1.03190e-17
4392.51397 1.63837e-17
4397.57057 1.73444e-17
4402.61707 1.24964e-17
4407.66357 8.59251e-18
4412.72016 7.69240e-18
4417.76666 1.07174e-17
4422.81316 1.12269e-17
4427.85966 9.62274e-18
4432.91625 1.07547e-17
4437.96275 9.14836e-18
4443.00925 1.09464e-17
4448.06584 1.05351e-17
4453.11234 1.12658e-17
4458.15884 1.32415e-17
4463.21544 1.20399e-17
4468.26194 1.34374e-17
4473.30844 1.35905e-17
4478.35494 1.42816e-17
4483.41153 1.31853e-17
4488.45803 1.18944e-17
4493.50453 1.47671e-17
4498.56112 1.72954e-17
4503.60762 1.43998e-17
4508.65412 1.26860e-17
4513.71072 1.24215e-17
4518.75722 1.44333e-17
4523.80372 1.63996e-17
4528.85022 1.67342e-17
4533.90681 1.62612e-17
4538.95331 1.36927e-17
4543.99981 1.47034e-17
4549.05640 1.62587e-17
4554.10290 1.63000e-17
4559.14940 1.71739e-17
4564.20600 1.85146e-17
4569.25249 1.77509e-17
4574.29900 1.81909e-17
4579.34549 1.58068e-17
4584.40209 1.52715e-17
4589.44859 1.36681e-17
4594.49509 1.63211e-17
4599.55168 1.75038e-17
4604.59818 1.66221e-17
4609.64468 1.67064e-17
4614.70127 1.57133e-17
4619.74777 1.66690e-17
4624.79427 1.98456e-17
4629.84077 1.79354e-17
4634.89737 1.74923e-17
4639.94387 1.85861e-17
4644.99037 1.73915e-17
4650.04696 1.67805e-17
4655.09346 1.83713e-17
4660.13996 1.82729e-17
4665.19655 1.77027e-17
4670.24305 1.74708e-17
4675.28955 1.64229e-17
4680.33605 1.72872e-17
4685.39265 1.68064e-17
4690.43915 1.82695e-17
4695.48565 2.01207e-17
4700.54224 1.90296e-17
4705.58874 1.48611e-17
4710.63524 1.49128e-17
4715.68174 1.93542e-17
4720.73833 1.72109e-17
4725.78483 1.50312e-17
4730.83133 1.45118e-17
4735.88792 1.59946e-17
4740.93443 1.55837e-17
4745.98093 1.33134e-17
4751.03752 1.14267e-17
4756.08402 1.15485e-17
4761.13052 1.22310e-17
4766.17702 1.47151e-17
4771.23361 1.53019e-17
4776.28011 1.47440e-17
4781.32661 1.46619e-17
4786.38320 1.51101e-17
4791.42970 1.33011e-17
4796.47620 1.28830e-17
4801.53280 1.41928e-17
4806.57930 1.28292e-17
4811.62580 1.30377e-17
4816.67230 1.22944e-17
4821.72889 1.19524e-17
4826.77539 1.16964e-17
4831.82189 1.08627e-17
4836.87848 1.09485e-17
4841.92498 1.18356e-17
4846.97148 1.10400e-17
4852.01798 1.19334e-17
4857.07458 1.08088e-17
4862.12108 1.01401e-17
4867.16758 1.02842e-17
4872.22417 9.00438e-18
4877.27067 1.07928e-17
4882.31717 1.04220e-17
4887.37376 8.41266e-18
4892.42026 8.87883e-18
4897.46676 1.14377e-17
4902.51326 1.05530e-17
4907.56986 1.56855e-17
4912.61636 2.04471e-17
4917.66286 1.06831e-17
4922.71945 1.10789e-17
4927.76595 1.11336e-17
4932.81245 1.24494e-17
4937.86904 1.63167e-17
4942.91554 1.50858e-17
4947.96204 1.53934e-17
4953.00854 1.54205e-17
4958.06513 1.46228e-17
4963.11163 1.49302e-17
4968.15813 1.58907e-17
4973.21473 1.64912e-17
4978.26123 1.44938e-17
4983.30773 1.61379e-17
4988.36432 1.69438e-17
4993.41082 1.68271e-17
4998.45732 1.46519e-17
5003.50382 1.47281e-17
5008.56041 1.60369e-17
5013.60691 1.39115e-17
5018.65341 1.55276e-17
5023.71001 1.41563e-17
5028.75651 1.77927e-17
5033.80301 2.31145e-17
5038.85960 1.37987e-17
5043.90610 1.08237e-17
5048.95260 1.35457e-17
5053.99910 1.40754e-17
5059.05569 1.17167e-17
5064.10219 1.20881e-17
5069.14869 1.42301e-17
5074.20529 1.34320e-17
5079.25179 1.34238e-17
5084.29828 1.45281e-17
5089.35488 1.21264e-17
5094.40138 1.08278e-17
5099.44788 1.16302e-17
5104.49438 1.33373e-17
5109.55097 1.69141e-17
5114.59747 1.56295e-17
5119.64397 1.13798e-17
5124.70056 1.29498e-17
5129.74706 1.44465e-17
5134.79356 1.48157e-17
5139.84006 1.47371e-17
5144.89666 1.42605e-17
5149.94316 1.40491e-17
5154.98966 1.39379e-17
5160.04625 1.28935e-17
5165.09275 1.38443e-17
5170.13925 1.67716e-17
5175.19584 1.68160e-17
5180.24234 1.45201e-17
5185.28884 1.47006e-17
5190.33534 1.56647e-17
5195.39194 1.57863e-17
5200.43844 1.62096e-17
5205.48494 1.49888e-17
5210.54153 1.42935e-17
5215.58803 1.60218e-17
5220.63453 1.62597e-17
5225.69112 1.64722e-17
5230.73762 1.65235e-17
5235.78412 1.61634e-17
5240.83062 1.53468e-17
5245.88722 1.59383e-17
5250.93372 1.69538e-17
5255.98022 1.75647e-17
5261.03681 1.65544e-17
5266.08331 1.69613e-17
5271.12981 1.87215e-17
5276.17631 1.75119e-17
5281.23290 1.64836e-17
5286.27940 1.67602e-17
5291.32590 1.78568e-17
5296.38249 1.83703e-17
5301.42899 1.66479e-17
5306.47549 1.64151e-17
5311.53209 1.80014e-17
5316.57859 1.77614e-17
5321.62509 1.67414e-17
5326.67159 1.67110e-17
5331.72818 1.79629e-17
5336.77468 1.95755e-17
5341.82118 1.87982e-17
5346.87777 1.82788e-17
5351.92427 1.75605e-17
5356.97077 1.73622e-17
5362.02737 1.71390e-17
5367.07387 1.72878e-17
5372.12037 1.95935e-17
5377.16687 1.87218e-17
5382.22346 1.77593e-17
5387.26996 1.87284e-17
5392.31646 1.83708e-17
5397.37305 1.72018e-17
5402.41955 1.75427e-17
5407.46605 1.88488e-17
5412.52265 1.81188e-17
5417.56915 1.61934e-17
5422.61564 1.65395e-17
5427.66215 1.76752e-17
5432.71874 1.81733e-17
5437.76524 1.66967e-17
5442.81174 1.88098e-17
5447.86833 1.82598e-17
5452.91483 1.77758e-17
5457.96133 1.89636e-17
5463.01792 1.81558e-17
5468.06442 1.66454e-17
5473.11092 1.71352e-17
5478.15742 1.81727e-17
5483.21402 1.92133e-17
5488.26052 2.01462e-17
5493.30702 1.91985e-17
5498.36361 1.73575e-17
5503.41011 1.85499e-17
5508.45661 1.89614e-17
5513.51320 1.75443e-17
5518.55970 1.76706e-17
5523.60620 2.08176e-17
5528.65270 2.05627e-17
5533.70930 1.75523e-17
5538.75580 1.70652e-17
5543.80230 1.79715e-17
5548.85889 1.85391e-17
5553.90539 1.81303e-17
5558.95189 1.74173e-17
5563.99839 1.63012e-17
5569.05498 1.57597e-17
5574.10148 1.97598e-17
5579.14798 2.09155e-17
5584.20458 1.63499e-17
5589.25108 1.69740e-17
5594.29758 1.83172e-17
5599.35417 1.56514e-17
5604.40067 1.49301e-17
5609.44717 1.76605e-17
5614.49367 1.72613e-17
5619.55026 1.65484e-17
5624.59676 1.48472e-17
5629.64326 1.75292e-17
5634.69985 1.65636e-17
5639.74635 1.22492e-17
5644.79285 1.19944e-17
5649.84945 1.17844e-17
5654.89595 1.15009e-17
5659.94245 1.12524e-17
5664.98895 1.19772e-17
5670.04554 1.20738e-17
5675.09204 9.94600e-18
5680.13854 9.01026e-18
5685.19513 1.03099e-17
5690.24163 9.91158e-18
5695.28813 1.05033e-17
5700.33463 1.13707e-17
5705.39123 1.02774e-17
5710.43773 8.48172e-18
5715.48423 9.40897e-18
5720.54082 9.67259e-18
5725.58732 9.46016e-18
5730.63382 1.06758e-17
5735.69041 8.51520e-18
5740.73691 8.63762e-18
5745.78341 1.16885e-17
5750.82991 1.05461e-17
5755.88651 1.01539e-17
5760.93301 1.15018e-17
5765.97951 1.04983e-17
5771.03610 1.10041e-17
5776.08260 1.09449e-17
5781.12910 1.29150e-17
5786.18569 1.25275e-17
5791.23219 1.20806e-17
5796.27869 1.31098e-17
5801.32519 1.37528e-17
5806.38178 1.33434e-17
5811.42828 1.45641e-17
5816.47478 1.59974e-17
5821.53138 1.68246e-17
5826.57788 1.72443e-17
5831.62438 1.58007e-17
5836.68097 1.69290e-17
5841.72747 1.86345e-17
5846.77397 1.72679e-17
5851.82047 1.73067e-17
5856.87706 1.69028e-17
5861.92356 1.81485e-17
5866.97006 1.67159e-17
5872.02666 1.55741e-17
5877.07316 1.74130e-17
5882.11966 1.70434e-17
5887.17625 1.48791e-17
5892.22275 1.47259e-17
5897.26925 1.52784e-17
5902.31575 1.62116e-17
5907.37234 1.67355e-17
5912.41884 1.62030e-17
5917.46534 1.61321e-17
5922.52194 1.52297e-17
5927.56844 1.46588e-17
5932.61494 1.67311e-17
5937.67153 1.75588e-17
5942.71803 1.62757e-17
5947.76453 1.59955e-17
5952.81103 1.64433e-17
5957.86762 1.51647e-17
5962.91412 1.64997e-17
5967.96062 1.78283e-17
5973.01721 1.61741e-17
5978.06371 1.69869e-17
5983.11021 1.54957e-17
5988.15671 1.43809e-17
5993.21331 1.58848e-17
5998.25981 1.56385e-17
6003.30631 1.59970e-17
6008.36290 1.51535e-17
6013.40940 1.54642e-17
6018.45590 1.52174e-17
6023.51249 1.44087e-17
6028.55899 1.52862e-17
6033.60549 1.63219e-17
6038.65199 1.63403e-17
6043.70859 1.55578e-17
6048.75509 1.39021e-17
6053.80159 1.44947e-17
6058.85818 1.49115e-17
6063.90468 1.54706e-17
6068.95118 1.60911e-17
6074.00777 1.45769e-17
6079.05427 1.38671e-17
6084.10077 1.40629e-17
6089.14727 1.37622e-17
6094.20387 1.36148e-17
6099.25037 1.32624e-17
6104.29687 1.26491e-17
6109.35346 1.31854e-17
6114.39996 1.40438e-17
6119.44646 1.40044e-17
6124.49296 1.50143e-17
6129.54955 1.44737e-17
6134.59605 1.32879e-17
6139.64255 1.23215e-17
6144.69914 1.47190e-17
6149.74564 1.45948e-17
6154.79214 1.30839e-17
6159.84874 1.43747e-17
6164.89524 1.37753e-17
6169.94174 1.33528e-17
6174.98824 1.33085e-17
6180.04483 1.41075e-17
6185.09133 1.44272e-17
6190.13783 1.19422e-17
6195.19442 1.17196e-17
6200.24092 1.26691e-17
6205.28742 1.13818e-17
6210.34402 1.08942e-17
6215.39052 1.13710e-17
6220.43702 1.11977e-17
6225.48352 1.11548e-17
6230.54011 1.14477e-17
6235.58661 1.00305e-17
6240.63311 1.03682e-17
6245.68970 1.04267e-17
6250.73620 1.03138e-17
6255.78270 1.12663e-17
6260.83929 1.06289e-17
6265.88580 1.11643e-17
6270.93230 1.04141e-17
6275.97879 9.27902e-18
6281.03539 9.67505e-18
6286.08189 9.94472e-18
6291.12839 1.05660e-17
6296.18498 1.03976e-17
6301.23148 1.17343e-17
6306.27798 1.08990e-17
6311.33457 1.01243e-17
6316.38107 9.97933e-18
6321.42757 1.01741e-17
6326.47407 9.88803e-18
6331.53067 9.44414e-18
6336.57717 1.01341e-17
6341.62367 1.15825e-17
6346.68026 1.18726e-17
6351.72676 1.12816e-17
6356.77326 1.10372e-17
6361.82985 9.94083e-18
6366.87635 9.47926e-18
6371.92285 1.07423e-17
6376.96935 1.24387e-17
6382.02595 1.23849e-17
6387.07245 1.19682e-17
6392.11895 1.05376e-17
6397.17554 9.97690e-18
6402.22204 1.14389e-17
6407.26854 1.17074e-17
6412.31504 1.10511e-17
6417.37163 1.17642e-17
6422.41813 1.34155e-17
6427.46463 1.23949e-17
6432.52123 1.04487e-17
6437.56773 1.04011e-17
6442.61423 1.17802e-17
6447.67082 1.22854e-17
6452.71732 1.14332e-17
6457.76382 1.05329e-17
6462.81032 1.08022e-17
6467.86691 1.07288e-17
6472.91341 1.06826e-17
6477.95991 1.06713e-17
6483.01650 1.07442e-17
6488.06300 1.03035e-17
6493.10950 9.66662e-18
6498.16610 9.96374e-18
6503.21260 1.04549e-17
6508.25910 9.84855e-18
6513.30560 9.64434e-18
6518.36219 1.05036e-17
6523.40869 1.19136e-17
6528.45519 1.03338e-17
6533.51178 8.81606e-18
6538.55828 1.02387e-17
6543.60478 1.05301e-17
6548.65128 1.09430e-17
6553.70788 1.06347e-17
6558.75438 1.12178e-17
6563.80088 1.11426e-17
6568.85747 1.13044e-17
6573.90397 1.15526e-17
6578.95047 1.16048e-17
6584.00706 1.20212e-17
6589.05356 1.24942e-17
6594.10006 1.31839e-17
6599.15666 1.31762e-17
6604.20316 1.41173e-17
6609.24966 1.31488e-17
6614.29616 1.40556e-17
6619.35275 1.47430e-17
6624.39925 1.44421e-17
6629.44575 1.45868e-17
6634.50234 1.51993e-17
6639.54884 1.44354e-17
6644.59534 1.47618e-17
6649.65193 1.55876e-17
6654.69843 1.40460e-17
6659.74493 1.31016e-17
6664.79143 1.38703e-17
6669.84803 1.37072e-17
6674.89453 1.32375e-17
6679.94103 1.24423e-17
6684.99762 1.24319e-17
6690.04412 1.34647e-17
6695.09062 1.41992e-17
6700.13712 1.38129e-17
6705.19371 1.43453e-17
6710.24021 1.38868e-17
6715.28671 1.29124e-17
6720.34331 1.30834e-17
6725.38981 1.17970e-17
6730.43631 1.25427e-17
6735.49290 1.38758e-17
6740.53940 1.26167e-17
6745.58590 1.21245e-17
6750.63240 1.26438e-17
6755.68899 1.34615e-17
6760.73549 1.26168e-17
6765.78199 1.17485e-17
6770.83859 1.13722e-17
6775.88509 1.18681e-17
6780.93159 1.26993e-17
6785.98818 1.29909e-17
6791.03468 1.22383e-17
6796.08118 1.15876e-17
6801.12768 1.10775e-17
6806.18427 1.09358e-17
6811.23077 1.09617e-17
6816.27727 1.11011e-17
6821.33386 1.07909e-17
6826.38036 1.01661e-17
6831.42686 9.25492e-18
6836.47336 9.37495e-18
6841.52996 1.04163e-17
6846.57646 1.01500e-17
6851.62296 1.05165e-17
6856.67955 9.46844e-18
6861.72605 7.57544e-18
6866.77255 6.64624e-18
6871.82914 7.40829e-18
6876.87564 8.75596e-18
6881.92214 9.52408e-18
6886.96864 9.04412e-18
6892.02524 7.76926e-18
6897.07174 8.50496e-18
6902.11824 9.28187e-18
6907.17483 8.52723e-18
6912.22133 8.23427e-18
6917.26783 9.56505e-18
6922.32442 8.66981e-18
6927.37092 8.58890e-18
6932.41742 1.02277e-17
6937.46392 9.29719e-18
6942.52052 8.22536e-18
6947.56702 8.53086e-18
6952.61352 1.03316e-17
6957.67011 1.07975e-17
6962.71661 1.00661e-17
6967.76311 1.15574e-17
6972.80961 1.18435e-17
6977.86620 1.03114e-17
6982.91270 1.17767e-17
6987.95920 1.27338e-17
6993.01579 1.09951e-17
6998.06229 1.06763e-17
7003.10879 1.27406e-17
7008.16539 1.20426e-17
7013.21189 1.21034e-17
7018.25839 1.23195e-17
7023.31498 1.17393e-17
7028.36148 1.16600e-17
7033.40798 1.17793e-17
7038.45448 1.19725e-17
7043.51107 1.13059e-17
7048.55757 1.16302e-17
7053.60407 1.18584e-17
7058.66067 1.14908e-17
7063.70717 1.21952e-17
7068.75367 1.21600e-17
7073.80017 1.22785e-17
7078.85676 1.28932e-17
7083.90326 1.10162e-17
7088.94976 1.06568e-17
7094.00635 1.10910e-17
7099.05285 1.09144e-17
7104.09935 1.09432e-17
7109.15595 1.18994e-17
7114.20244 1.14108e-17
7119.24895 1.11665e-17
7124.29545 1.18444e-17
7129.35204 1.04896e-17
7134.39854 9.77626e-18
7139.44504 1.13543e-17
7144.50163 9.75216e-18
7149.54813 9.18466e-18
7154.59463 1.01055e-17
7159.65122 1.04084e-17
7164.69772 9.63105e-18
7169.74422 8.34589e-18
7174.79072 8.77235e-18
7179.84732 8.74435e-18
7184.89382 9.48653e-18
7189.94032 9.29605e-18
7194.99691 8.58834e-18
7200.04341 7.98165e-18
7205.08991 8.07950e-18
7210.14650 8.26365e-18
7215.19300 9.91329e-18
7220.23950 1.16282e-17
7225.28600 1.07521e-17
7230.34260 8.96220e-18
7235.38910 8.21929e-18
7240.43560 7.73879e-18
7245.49219 7.85750e-18
7250.53869 8.68289e-18
7255.58519 9.46993e-18
7260.63169 9.13699e-18
7265.68828 1.01293e-17
7270.73478 9.16812e-18
7275.78128 8.37101e-18
7280.83788 8.61647e-18
7285.88438 7.72491e-18
7290.93088 8.54275e-18
7295.98747 1.12041e-17
7301.03397 1.45851e-17
7306.08047 1.41260e-17
7311.12697 1.01785e-17
7316.18356 9.21215e-18
7321.23006 7.73348e-18
7326.27656 9.31389e-18
7331.33315 1.15338e-17
7336.37965 1.00029e-17
7341.42615 9.43539e-18
7346.48275 1.02920e-17
7351.52925 1.13034e-17
7356.57575 1.09269e-17
7361.62225 9.24840e-18
7366.67884 9.52027e-18
7371.72534 9.92907e-18
7376.77184 1.02619e-17
7381.82843 1.13286e-17
7386.87493 1.10790e-17
7391.92143 1.00749e-17
7396.97803 1.15900e-17
7402.02453 1.16380e-17
7407.07103 1.08572e-17
7412.11753 1.10094e-17
7417.17412 8.70233e-18
7422.22062 9.32812e-18
7427.26712 9.66978e-18
7432.32371 9.71505e-18
7437.37021 1.04367e-17
7442.41671 8.67640e-18
7447.47331 9.05863e-18
7452.51981 1.10451e-17
7457.56631 1.10726e-17
7462.61281 1.04072e-17
7467.66940 1.02991e-17
7472.71590 1.06469e-17
7477.76240 1.05117e-17
7482.81899 1.08184e-17
7487.86549 1.17590e-17
7492.91199 1.10206e-17
7497.96858 1.14994e-17
7503.01508 1.04836e-17
7508.06158 8.25730e-18
7513.10808 8.67971e-18
7518.16468 1.03028e-17
7523.21118 9.80364e-18
7528.25768 9.23986e-18
7533.31427 9.27125e-18
7538.36077 1.01634e-17
7543.40727 9.77274e-18
7548.45377 9.68717e-18
7553.51036 9.21339e-18
7558.55686 8.88379e-18
7563.60336 8.55411e-18
7568.65996 7.96593e-18
7573.70646 8.61889e-18
7578.75296 7.63744e-18
7583.80955 6.68646e-18
7588.85605 5.88820e-18
7593.90255 5.02294e-18
7598.94905 3.12157e-18
7604.00564 1.52541e-18
7609.05214 2.94725e-18
7614.09864 4.13984e-18
7619.15524 3.57850e-18
7624.20174 4.05125e-18
7629.24824 4.00060e-18
7634.30483 3.92316e-18
7639.35133 4.23700e-18
7644.39783 4.95982e-18
7649.44433 5.83264e-18
7654.50092 6.30213e-18
7659.54742 6.19251e-18
7664.59392 4.74352e-18
7669.65051 5.30047e-18
7674.69701 5.94451e-18
7679.74351 5.80641e-18
7684.79001 7.76095e-18
7689.84661 7.60348e-18
7694.89311 6.47173e-18
7699.93961 7.51322e-18
7704.99620 8.54318e-18
7710.04270 8.76189e-18
7715.08920 6.37993e-18
7720.14579 7.31337e-18
7725.19229 9.03305e-18
7730.23879 8.34018e-18
7735.28529 7.19886e-18
7740.34189 9.59938e-18
7745.38839 8.92747e-18
7750.43489 8.51805e-18
7755.49148 7.25430e-18
7760.53798 7.00629e-18
7765.58448 6.77062e-18
7770.64107 7.33442e-18
7775.68757 6.85321e-18
7780.73407 8.89280e-18
7785.78057 9.12206e-18
7790.83717 8.01694e-18
7795.88367 7.39564e-18
7800.93017 6.66641e-18
7805.98676 7.30093e-18
7811.03326 8.03767e-18
7816.07976 7.69117e-18
7821.13635 8.58260e-18
7826.18285 7.56181e-18
7831.22935 7.47644e-18
7836.27585 8.28318e-18
7841.33244 9.36439e-18
7846.37894 1.07321e-17
7851.42544 8.82611e-18
7856.48204 8.17037e-18
7861.52854 9.34481e-18
7866.57504 9.67161e-18
7871.63163 8.48631e-18
7876.67813 6.96143e-18
7881.72463 8.35759e-18
7886.77113 8.96091e-18
7891.82772 8.84737e-18
7896.87422 9.93472e-18
7901.92072 8.04893e-18
7906.97732 7.48884e-18
7912.02382 8.71146e-18
7917.07032 1.01757e-17
7922.11682 1.11135e-17
7927.17341 8.99786e-18
7932.21991 9.66489e-18
7937.26641 1.23052e-17
7942.32300 1.09999e-17
7947.36950 9.34352e-18
7952.41600 9.57431e-18
7957.47260 8.55945e-18
7962.51910 7.08195e-18
7967.56560 7.82424e-18
7972.61210 7.65431e-18
7977.66869 8.40726e-18
7982.71519 8.32580e-18
7987.76169 7.66041e-18
7992.81828 8.81888e-18
7997.86478 8.97933e-18
8002.91128 8.64116e-18
8007.96787 7.28811e-18
8013.01437 7.08296e-18
8018.06087 8.73837e-18
8023.10737 9.05651e-18
8028.16397 9.08725e-18
8033.21047 8.87154e-18
8038.25697 9.58469e-18
8043.31356 6.30452e-18
8048.36006 1.60401e-18
8053.40656 3.19975e-18
8058.46315 7.33633e-18
8063.50965 8.05793e-18
8068.55615 8.48898e-18
8073.60265 8.69741e-18
8078.65925 7.15379e-18
8083.70575 6.22318e-18
8088.75225 7.71560e-18
8093.80884 6.88897e-18
8098.85534 6.92372e-18
8103.90184 7.40391e-18
8108.94834 7.64867e-18
8114.00493 7.25438e-18
8119.05143 6.06582e-18
8124.09793 6.82976e-18
8129.15453 6.76330e-18
8134.20103 8.96863e-18
8139.24753 8.01843e-18
8144.30412 5.43976e-18
8149.35062 6.83157e-18
8154.39712 8.61119e-18
8159.44362 7.01249e-18
8164.50021 3.76031e-18
8169.54671 6.74605e-18
8174.59321 8.42472e-18
8179.64980 8.53591e-18
8184.69630 8.59705e-18
8189.74280 9.30343e-18
8194.79940 7.07800e-18
8199.84590 5.74063e-18
8204.89240 6.19561e-18
8209.93890 8.56837e-18
8214.99549 6.41965e-18
8220.04199 4.48741e-18
8225.08849 3.91622e-18
8230.14508 4.46069e-18
8235.19158 7.25099e-18
8240.23808 9.79051e-18
8245.29468 1.14717e-17
8250.34118 7.68435e-18
8255.38768 5.27887e-18
8260.43418 4.95346e-18
8265.49077 6.89206e-18
8270.53727 7.47105e-18
8275.58377 5.93555e-18
8280.64036 5.60238e-18
8285.68686 5.09934e-18
8290.73336 1.02375e-17
8295.77986 1.42499e-17
