# wavelength flux
3300.98630 3.04414e-18
3302.98472 8.55127e-18
3304.98313 9.86571e-18
3306.98154 1.28751e-17
3308.97996 1.21053e-17
3310.98846 8.06437e-18
3312.98688 9.88467e-18
3314.98529 7.75963e-18
3316.98371 6.85594e-18
3318.98212 7.90130e-18
3320.99063 1.85389e-17
3322.98904 9.63770e-18
3324.98746 6.07796e-18
3326.98587 7.14331e-18
3328.99438 1.17191e-17
3330.99279 3.80516e-18
3332.99120 9.94508e-18
3334.98962 5.09170e-18
3336.98803 2.77807e-18
3338.99654 9.58406e-18
3340.99495 1.14677e-17
3342.99337 6.31971e-18
3344.99178 6.16610e-18
3346.99020 6.45019e-18
3348.99870 4.12883e-18
3350.99712 9.88088e-18
3352.99553 1.05750e-17
3354.99394 5.27304e-18
3357.00245 6.44765e-18
3359.00087 6.69310e-18
3360.99928 8.09893e-18
3362.99769 9.48453e-18
3364.99611 1.13503e-17
3367.00461 6.91134e-18
3369.00303 8.43741e-18
3371.00144 3.31959e-18
3372.99986 4.79144e-18
3375.00836 3.70597e-18
3377.00678 8.78879e-18
3379.00519 9.72835e-18
3381.00361 1.22363e-17
3383.00202 1.10540e-17
3385.01053 7.29496e-18
3387.00894 1.28671e-17
3389.00735 1.53099e-17
3391.00577 9.85886e-18
3393.00418 8.04087e-18
3395.01269 1.11560e-17
3397.01110 9.76068e-18
3399.00952 5.79278e-18
3401.00793 5.16900e-18
3403.01644 9.34584e-18
3405.01485 8.78173e-18
3407.01327 7.94079e-18
3409.01168 9.82621e-18
3411.01009 7.99847e-18
3413.01860 8.13852e-18
3415.01702 7.92022e-18
3417.01543 1.00408e-17
3419.01384 4.55168e-18
3421.01226 8.24745e-20
3423.02076 8.70652e-18
3425.01918 1.32987e-17
3427.01759 8.68990e-18
3429.01601 6.69856e-18
3431.02451 8.21537e-18
3433.02293 1.08287e-17
3435.02134 8.92929e-18
3437.01976 8.06415e-18
3439.01817 3.49512e-18
3441.02668 4.10021e-18
3443.02509 1.05879e-17
3445.02350 1.01280e-17
3447.02192 4.17358e-18
3449.02033 7.33231e-18
3451.02884 8.58654e-18
3453.02725 8.05962e-18
3455.02567 8.76946e-18
3457.02408 6.29689e-18
3459.03259 4.06073e-18
3461.03100 7.07033e-18
3463.02942 5.45163e-18
3465.02783 9.15095e-18
3467.02624 1.12242e-17
3469.03475 8.82181e-18
3471.03317 6.71187e-18
3473.03158 8.99949e-18
3475.02999 9.10401e-18
3477.03850 8.88426e-18
3479.03691 1.02785e-17
3481.03533 7.09280e-18
3483.03374 7.62309e-18
3485.03216 7.36505e-18
3487.04066 8.43900e-18
3489.03908 8.06379e-18
3491.03749 9.15355e-18
3493.03591 7.70529e-18
3495.03432 7.59984e-18
3497.04283 7.97874e-18
3499.04124 1.05822e-17
3501.03965 1.10337e-17
3503.03807 1.11910e-17
3505.04658 9.27985e-18
3507.04499 8.09736e-18
3509.04340 8.68180e-18
3511.04182 8.62275e-18
3513.04023 1.00887e-17
3515.04874 1.09230e-17
3517.04715 6.04066e-18
3519.04557 1.19173e-17
3521.04398 9.36926e-18
3523.04239 7.97987e-18
3525.05090 9.34139e-18
3527.04932 8.79543e-18
3529.04773 7.59006e-18
3531.04614 7.15854e-18
3533.05465 8.08378e-18
3535.05306 7.35846e-18
3537.05148 1.07317e-17
3539.04989 1.10831e-17
3541.04831 1.04349e-17
3543.05681 6.71375e-18
3545.05523 7.52662e-18
3547.05364 8.89091e-18
3549.05206 7.57399e-18
3551.06056 6.94333e-18
3553.05898 8.15806e-18
3555.05739 6.07196e-18
3557.05580 8.73088e-18
3559.05422 8.08530e-18
3561.06273 7.13459e-18
3563.06114 9.50418e-18
3565.05955 7.54274e-18
3567.05797 8.16855e-18
3569.05638 7.15882e-18
3571.06489 7.65217e-18
3573.06330 5.93300e-18
3575.06172 1.03093e-17
3577.06013 1.08455e-17
3579.06864 8.86884e-18
3581.06705 7.56509e-18
3583.06547 7.87301e-18
3585.06388 7.39411e-18
3587.06229 8.02066e-18
3589.07080 8.09918e-18
3591.06921 9.19378e-18
3593.06763 1.17063e-17
3595.06604 9.43187e-18
3597.06446 9.12979e-18
3599.07296 7.86104e-18
3601.07138 6.32191e-18
3603.06979 8.88645e-18
3605.06821 9.43637e-18
3607.07671 5.93285e-18
3609.07513 4.75304e-18
3611.07354 9.69871e-18
3613.07195 1.14062e-17
3615.07037 1.04206e-17
3617.07888 9.60391e-18
3619.07729 6.31341e-18
3621.07570 7.79537e-18
3623.07412 9.35581e-18
3625.08262 7.74973e-18
3627.08104 5.82280e-18
3629.07945 7.47097e-18
3631.07787 6.88602e-18
3633.07628 5.15657e-18
3635.08479 8.71228e-18
3637.08320 8.25973e-18
3639.08162 4.15618e-18
3641.08003 7.20609e-18
3643.07844 8.29134e-18
3645.08695 7.37276e-18
3647.08536 9.85789e-18
3649.08378 9.45588e-18
3651.08219 8.00177e-18
3653.09070 5.05995e-18
3655.08911 5.18752e-18
3657.08753 7.71398e-18
3659.08594 9.12064e-18
3661.08436 9.69995e-18
3663.09286 1.14251e-17
3665.09128 8.59835e-18
3667.08969 8.52093e-18
3669.08810 7.56748e-18
3671.08652 6.77233e-18
3673.09503 8.07697e-18
3675.09344 8.20649e-18
3677.09185 7.51010e-18
3679.09027 7.96503e-18
3681.09877 9.30860e-18
3683.09719 9.62834e-18
3685.09560 9.82923e-18
3687.09402 1.03225e-17
3689.09243 1.00742e-17
3691.10094 8.35433e-18
3693.09935 6.42164e-18
3695.09777 8.23909e-18
3697.09618 8.07234e-18
3699.10469 8.41862e-18
3701.10310 9.11022e-18
3703.10151 8.47416e-18
3705.09993 7.35784e-18
3707.09834 8.07221e-18
3709.10685 9.82471e-18
3711.10526 9.56929e-18
3713.10368 6.75210e-18
3715.10209 7.44633e-18
3717.10051 9.03582e-18
3719.10901 9.62372e-18
3721.10743 7.33794e-18
3723.10584 7.91692e-18
3725.10425 9.24477e-18
3727.11276 8.61431e-18
3729.11118 9.03717e-18
3731.10959 7.47818e-18
3733.10800 7.47675e-18
3735.10642 6.23985e-18
3737.11492 7.13888e-18
3739.11334 8.91494e-18
3741.11175 6.14152e-18
3743.11017 7.38523e-18
3745.10858 7.91055e-18
3747.11709 7.31364e-18
3749.11550 6.52794e-18
3751.11392 6.42431e-18
3753.11233 4.49839e-18
3755.12084 7.06760e-18
3757.11925 1.05488e-17
3759.11766 2.22260e-17
3761.11608 3.54432e-17
3763.11449 3.52674e-17
3765.12300 1.70221e-17
3767.12141 4.35684e-18
3769.11983 4.87282e-18
3771.11824 6.95999e-18
3773.11666 6.44727e-18
3775.12516 7.62410e-18
3777.12358 8.04983e-18
3779.12199 7.28501e-18
3781.12040 6.80246e-18
3783.12891 7.39199e-18
3785.12733 7.02733e-18
3787.12574 6.34646e-18
3789.12415 6.85213e-18
3791.12257 6.35421e-18
3793.13107 6.52750e-18
3795.12949 4.69986e-18
3797.12790 5.51868e-18
3799.12632 7.33205e-18
3801.13482 7.98562e-18
3803.13324 6.17818e-18
3805.13165 5.22411e-18
3807.13007 5.97219e-18
3809.12848 6.76927e-18
3811.13699 6.88390e-18
3813.13540 6.54876e-18
3815.13381 8.10363e-18
3817.13223 6.86175e-18
3819.13064 7.60171e-18
3821.13915 8.98859e-18
3823.13756 7.84656e-18
3825.13598 7.32888e-18
3827.13439 6.50192e-18
3829.14290 5.33840e-18
3831.14131 6.49481e-18
3833.13973 5.05483e-18
3835.13814 6.14385e-18
3837.13655 6.74272e-18
3839.14506 6.76497e-18
3841.14348 7.64877e-18
3843.14189 8.71309e-18
3845.14030 8.56028e-18
3847.14881 7.35568e-18
3849.14722 6.88350e-18
3851.14564 8.13033e-18
3853.14405 8.99489e-18
3855.14247 8.58690e-18
3857.15097 6.48051e-18
3859.14939 7.14630e-18
3861.14780 7.28727e-18
3863.14622 8.01866e-18
3865.14463 6.55812e-18
3867.15314 6.17386e-18
3869.15155 7.84446e-18
3871.14996 7.03760e-18
3873.14838 7.17495e-18
3875.15689 8.40641e-18
3877.15530 8.36787e-18
3879.15371 8.69445e-18
3881.15213 8.66746e-18
3883.15054 9.06012e-18
3885.15905 9.38817e-18
3887.15746 9.38719e-18
3889.15588 9.72278e-18
3891.15429 8.87172e-18
3893.15270 8.24650e-18
3895.16121 9.96420e-18
3897.15963 8.93870e-18
3899.15804 9.08959e-18
3901.15645 1.07517e-17
3903.16496 1.12383e-17
3905.16337 1.27360e-17
3907.16179 1.15477e-17
3909.16020 1.03266e-17
3911.15862 8.01409e-18
3913.16712 9.57215e-18
3915.16554 9.89237e-18
3917.16395 8.76009e-18
3919.16237 8.68052e-18
3921.16078 9.14173e-18
3923.16929 1.12529e-17
3925.16770 1.18264e-17
3927.16611 1.07154e-17
3929.16453 1.05159e-17
3931.17304 1.16812e-17
3933.17145 1.15530e-17
3935.16986 1.19731e-17
3937.16828 1.17997e-17
3939.16669 1.07606e-17
3941.17520 1.09202e-17
3943.17361 1.28735e-17
3945.17203 1.14454e-17
3947.17044 1.16239e-17
3949.17895 1.20554e-17
3951.17736 1.15171e-17
3953.17578 1.16831e-17
3955.17419 1.23991e-17
3957.17260 1.35980e-17
3959.18111 1.22933e-17
3961.17952 1.25842e-17
3963.17794 1.24886e-17
3965.17635 1.35169e-17
3967.17477 1.25350e-17
3969.18327 1.08157e-17
3971.18169 1.19366e-17
3973.18010 1.25344e-17
3975.17852 1.29846e-17
3977.18702 1.21412e-17
3979.18544 1.29628e-17
3981.18385 1.47789e-17
3983.18226 1.53598e-17
3985.18068 1.46321e-17
3987.18919 1.47466e-17
3989.18760 1.55719e-17
3991.18601 1.42790e-17
3993.18443 1.31143e-17
3995.18284 1.37576e-17
3997.19135 1.46912e-17
3999.18976 1.39764e-17
4001.18818 1.32081e-17
4003.18659 1.30739e-17
4005.19510 1.39386e-17
4007.19351 1.36186e-17
4009.19193 1.35770e-17
4011.19034 1.53186e-17
4013.18875 1.32473e-17
4015.19726 1.21632e-17
4017.19567 1.44477e-17
4019.19409 1.52418e-17
4021.19250 1.52771e-17
4023.19092 1.44915e-17
4025.19942 1.47110e-17
4027.19784 1.61351e-17
4029.19625 1.65829e-17
4031.19467 1.74061e-17
4033.20317 1.60951e-17
4035.20159 1.68513e-17
4037.20000 1.70212e-17
4039.19841 1.70629e-17
4041.19683 1.66223e-17
4043.20534 1.69371e-17
4045.20375 1.87972e-17
4047.20216 1.96802e-17
4049.20058 1.84538e-17
4051.20908 1.54070e-17
4053.20750 1.60414e-17
4055.20591 1.73024e-17
4057.20433 1.59945e-17
4059.20274 1.52782e-17
4061.21125 1.63695e-17
4063.20966 1.65473e-17
4065.20808 1.47104e-17
4067.20649 1.53719e-17
4069.20490 1.50211e-17
4071.21341 1.46462e-17
4073.21182 1.58469e-17
4075.21024 1.69003e-17
4077.20865 1.75513e-17
4079.21716 1.66536e-17
4081.21557 1.47621e-17
4083.21399 1.46733e-17
4085.21240 1.49437e-17
4087.21082 1.61993e-17
4089.21932 1.58972e-17
4091.21774 1.65208e-17
4093.21615 1.69621e-17
4095.21456 1.44619e-17
4097.22307 1.34509e-17
4099.22149 1.48597e-17
4101.21990 1.44663e-17
4103.21831 1.51038e-17
4105.21673 1.55744e-17
4107.22523 1.53176e-17
4109.22365 1.44011e-17
4111.22206 1.29096e-17
4113.22048 1.53178e-17
4115.21889 1.48292e-17
4117.22740 1.43308e-17
4119.22581 1.47512e-17
4121.22422 1.43961e-17
4123.22264 1.32126e-17
4125.23115 1.35022e-17
4127.22956 1.44404e-17
4129.22797 1.24995e-17
4131.22639 1.10183e-17
4133.22480 1.30775e-17
4135.23331 1.28206e-17
4137.23172 1.18323e-17
4139.23014 1.39263e-17
4141.22855 1.40992e-17
4143.22697 1.24633e-17
4145.23547 1.22754e-17
4147.23389 1.20561e-17
4149.23230 1.03197e-17
4151.23071 1.02566e-17
4153.23922 1.31990e-17
4155.23764 1.39517e-17
4157.23605 1.38391e-17
4159.23446 1.27238e-17
4161.23288 1.27782e-17
4163.24138 1.30499e-17
4165.23980 1.25671e-17
4167.23821 1.25720e-17
4169.23663 1.30765e-17
4171.24513 1.38713e-17
4173.24355 1.33945e-17
4175.24196 1.27553e-17
4177.24038 1.28854e-17
4179.23879 1.18334e-17
4181.24730 1.19696e-17
4183.24571 1.21971e-17
4185.24412 1.24600e-17
4187.24254 1.20340e-17
4189.24095 1.14623e-17
4191.24946 1.27857e-17
4193.24787 1.24973e-17
4195.24629 1.08512e-17
4197.24470 1.10658e-17
4199.25321 1.14292e-17
4201.25162 1.25021e-17
4203.25004 1.32147e-17
4205.24845 1.29912e-17
4207.24686 1.28407e-17
4209.25537 1.28101e-17
4211.25378 1.32390e-17
4213.25220 1.15696e-17
4215.25061 1.13645e-17
4217.24903 1.12929e-17
4219.25753 1.20571e-17
4221.25595 1.16100e-17
4223.25436 1.18138e-17
4225.25278 1.20788e-17
4227.26128 1.18962e-17
4229.25970 1.14237e-17
4231.25811 1.12252e-17
4233.25653 1.24947e-17
4235.25494 1.15656e-17
4237.26345 1.09274e-17
4239.26186 1.17445e-17
4241.26027 1.19540e-17
4243.25869 1.08580e-17
4245.26720 1.04227e-17
4247.26561 1.08745e-17
4249.26402 1.13344e-17
4251.26244 1.17118e-17
4253.26085 1.15676e-17
4255.26936 1.20096e-17
4257.26777 1.19324e-17
4259.26619 1.19401e-17
4261.26460 1.17928e-17
4263.26301 1.09252e-17
4265.27152 1.13113e-17
4267.26994 1.19601e-17
4269.26835 1.18991e-17
4271.26676 1.19066e-17
4273.27527 1.14085e-17
4275.27368 1.18104e-17
4277.27210 1.11513e-17
4279.27051 1.14150e-17
4281.26893 1.29203e-17
4283.27743 1.31744e-17
4285.27585 1.28461e-17
4287.27426 1.27990e-17
4289.27268 1.10888e-17
4291.27109 1.19798e-17
4293.27960 1.17481e-17
4295.27801 1.10199e-17
4297.27642 1.03599e-17
4299.27484 1.18834e-17
4301.28334 1.24102e-17
4303.28176 1.21351e-17
4305.28017 1.20828e-17
4307.27859 1.11250e-17
4309.27700 1.11627e-17
4311.28551 1.10468e-17
4313.28392 1.13748e-17
4315.28234 1.21224e-17
4317.28075 1.18004e-17
4319.27916 1.09845e-17
4321.28767 1.10727e-17
4323.28609 1.14186e-17
4325.28450 1.07144e-17
4327.28291 1.01536e-17
4329.29142 1.07188e-17
4331.28983 1.06940e-17
4333.28825 1.14718e-17
4335.28666 1.16282e-17
4337.28508 1.11857e-17
4339.29358 1.00898e-17
4341.29200 1.04106e-17
4343.29041 1.02325e-17
4345.28883 9.64704e-18
4347.29733 1.00045e-17
4349.29575 1.01240e-17
4351.29416 9.34348e-18
4353.29257 9.45753e-18
4355.29099 8.98094e-18
4357.29950 9.60470e-18
4359.29791 1.07387e-17
4361.29632 1.16426e-17
4363.29474 1.14798e-17
4365.29315 1.05360e-17
4367.30166 1.01026e-17
4369.30007 1.02099e-17
4371.29849 1.00418e-17
4373.29690 9.35381e-18
4375.30541 1.00256e-17
4377.30382 1.09634e-17
4379.30224 1.12623e-17
4381.30065 1.21525e-17
4383.29906 1.09096e-17
4385.30757 8.68611e-18
4387.30598 8.20274e-18
4389.30440 8.87348e-18
4391.30281 1.07212e-17
4393.30123 9.31424e-18
4395.30973 8.69447e-18
4397.30815 9.23137e-18
4399.30656 1.03822e-17
4401.30498 1.01854e-17
4403.31348 1.05666e-17
4405.31190 1.12205e-17
4407.31031 1.06553e-17
4409.30872 1.04564e-17
4411.30714 1.12416e-17
4413.31564 1.04630e-17
4415.31406 1.12533e-17
4417.31247 1.11765e-17
4419.31089 1.06726e-17
4421.31939 1.10809e-17
4423.31781 1.11702e-17
4425.31622 9.94807e-18
4427.31464 1.02411e-17
4429.31305 1.09126e-17
4431.32156 1.03101e-17
4433.31997 1.02801e-17
4435.31839 1.06541e-17
4437.31680 1.10985e-17
4439.31521 1.07609e-17
4441.32372 1.08413e-17
4443.32213 1.09464e-17
4445.32055 1.16773e-17
4447.31896 1.23096e-17
4449.32747 1.17903e-17
4451.32588 1.11485e-17
4453.32430 1.07320e-17
4455.32271 1.08610e-17
4457.32113 1.07414e-17
4459.32963 1.11073e-17
4461.32805 1.14807e-17
4463.32646 1.04426e-17
4465.32487 1.14533e-17
4467.32329 1.11603e-17
4469.33180 1.12887e-17
4471.33021 1.10828e-17
4473.32862 1.07863e-17
4475.32704 1.11575e-17
4477.33554 1.15122e-17
4479.33396 1.14791e-17
4481.33237 1.16240e-17
4483.33079 1.19526e-17
4485.32920 1.11255e-17
4487.33771 1.15192e-17
4489.33612 1.21323e-17
4491.33453 1.21044e-17
4493.33295 1.21649e-17
4495.34146 1.16761e-17
4497.33987 1.10710e-17
4499.33828 1.14488e-17
4501.33670 1.22662e-17
4503.33511 1.17015e-17
4505.34362 1.07126e-17
4507.34203 1.11401e-17
4509.34045 1.18195e-17
4511.33886 1.16381e-17
4513.33728 1.21281e-17
4515.34578 1.18003e-17
4517.34420 1.25273e-17
4519.34261 1.22496e-17
4521.34102 1.20361e-17
4523.34953 1.19799e-17
4525.34795 1.21124e-17
4527.34636 1.27436e-17
4529.34477 1.23977e-17
4531.34319 1.25571e-17
4533.35169 1.31479e-17
4535.35011 1.35149e-17
4537.34852 1.26819e-17
4539.34694 1.29370e-17
4541.34535 1.42107e-17
4543.35386 1.36348e-17
4545.35227 1.36909e-17
4547.35069 1.33274e-17
4549.34910 1.36647e-17
4551.35761 1.37062e-17
4553.35602 1.34187e-17
4555.35443 1.40151e-17
4557.35285 1.32771e-17
4559.35126 1.36173e-17
4561.35977 1.37328e-17
4563.35818 1.28922e-17
4565.35660 1.35701e-17
4567.35501 1.40648e-17
4569.35343 1.34428e-17
4571.36193 1.38257e-17
4573.36035 1.39387e-17
4575.35876 1.39259e-17
4577.35717 1.38212e-17
4579.36568 1.38902e-17
4581.36409 1.43071e-17
4583.36251 1.40301e-17
4585.36092 1.50065e-17
4587.35934 1.56405e-17
4589.36784 1.47494e-17
4591.36626 1.53029e-17
4593.36467 1.47757e-17
4595.36309 1.42229e-17
4597.37159 1.48141e-17
4599.37001 1.42698e-17
4601.36842 1.46089e-17
4603.36683 1.41249e-17
4605.36525 1.36057e-17
4607.37376 1.42296e-17
4609.37217 1.56232e-17
4611.37058 1.52985e-17
4613.36900 1.46548e-17
4615.36741 1.60801e-17
4617.37592 1.62602e-17
4619.37433 1.53333e-17
4621.37275 1.54613e-17
4623.37116 1.61919e-17
4625.37967 1.55863e-17
4627.37808 1.58546e-17
4629.37650 1.52488e-17
4631.37491 1.54116e-17
4633.37332 1.60452e-17
4635.38183 1.56492e-17
4637.38025 1.57018e-17
4639.37866 1.56388e-17
4641.37707 1.54993e-17
4643.37549 1.46753e-17
4645.38399 1.50701e-17
4647.38241 1.65874e-17
4649.38082 1.62552e-17
4651.37924 1.61657e-17
4653.38774 1.58572e-17
4655.38616 1.59933e-17
4657.38457 1.54480e-17
4659.38299 1.60955e-17
4661.38140 1.65747e-17
4663.38991 1.71843e-17
4665.38832 1.66569e-17
4667.38673 1.63636e-17
4669.38515 1.67585e-17
4671.39366 1.63093e-17
4673.39207 1.63200e-17
4675.39048 1.67323e-17
4677.38890 1.60027e-17
4679.38731 1.59360e-17
4681.39582 1.59839e-17
4683.39423 1.55076e-17
4685.39265 1.69364e-17
4687.39106 1.64596e-17
4689.38947 1.59871e-17
4691.39798 1.54400e-17
4693.39639 1.56104e-17
4695.39481 1.50112e-17
4697.39322 1.40786e-17
4699.40173 1.56258e-17
4701.40014 1.68300e-17
4703.39856 1.55192e-17
4705.39697 1.58682e-17
4707.39539 1.65452e-17
4709.40389 1.53438e-17
4711.40231 1.48345e-17
4713.40072 1.55471e-17
4715.39914 1.56428e-17
4717.40764 1.58819e-17
4719.40606 1.64580e-17
4721.40447 1.65846e-17
4723.40288 1.63958e-17
4725.40130 1.58546e-17
4727.40981 1.56865e-17
4729.40822 1.53142e-17
4731.40663 1.54606e-17
4733.40505 1.55654e-17
4735.40346 1.61890e-17
4737.41197 1.64690e-17
4739.41038 1.65877e-17
4741.40880 1.58855e-17
4743.40721 1.45271e-17
4745.41572 1.50194e-17
4747.41413 1.58440e-17
4749.41255 1.56335e-17
4751.41096 1.49791e-17
4753.40937 1.48871e-17
4755.41788 1.41275e-17
4757.41629 1.44633e-17
4759.41471 1.49576e-17
4761.41312 1.51609e-17
4763.41154 1.60187e-17
4765.42004 1.54433e-17
4767.41846 1.49761e-17
4769.41687 1.57503e-17
4771.41529 1.54976e-17
4773.42379 1.43666e-17
4775.42221 1.45361e-17
4777.42062 1.47753e-17
4779.41903 1.45484e-17
4781.41745 1.47092e-17
4783.42596 1.39569e-17
4785.42437 1.39304e-17
4787.42278 1.42718e-17
4789.42120 1.41422e-17
4791.41961 1.43635e-17
4793.42812 1.38281e-17
4795.42653 1.42537e-17
4797.42495 1.40586e-17
4799.42336 1.35603e-17
4801.43187 1.30279e-17
4803.43028 1.29439e-17
4805.42869 1.32726e-17
4807.42711 1.28029e-17
4809.42552 1.25514e-17
4811.43403 1.28318e-17
4813.43244 1.31612e-17
4815.43086 1.34887e-17
4817.42927 1.29066e-17
4819.42769 1.36529e-17
4821.43619 1.28137e-17
4823.43461 1.23660e-17
4825.43302 1.27597e-17
4827.43144 1.26407e-17
4829.43994 1.18880e-17
4831.43836 1.17970e-17
4833.43677 1.25764e-17
4835.43518 1.24085e-17
4837.43360 1.24449e-17
4839.44211 1.16654e-17
4841.44052 1.11210e-17
4843.43893 1.13160e-17
4845.43735 1.14215e-17
4847.44585 1.17054e-17
4849.44427 1.14564e-17
4851.44268 1.06515e-17
4853.44110 1.04851e-17
4855.43951 1.10530e-17
4857.44802 1.10283e-17
4859.44643 1.10240e-17
4861.44484 1.11334e-17
4863.44326 1.20109e-17
4865.44167 1.18762e-17
4867.45018 1.09943e-17
4869.44859 1.12799e-17
4871.44701 1.12913e-17
4873.44542 1.12189e-17
4875.45393 1.10477e-17
4877.45234 1.04930e-17
4879.45076 1.04023e-17
4881.44917 1.15561e-17
4883.44758 1.15847e-17
4885.45609 1.09126e-17
4887.45451 1.05801e-17
4889.45292 1.08785e-17
4891.45133 1.04670e-17
4893.44975 1.02226e-17
4895.45826 1.01556e-17
4897.45667 9.91666e-18
4899.45508 9.20397e-18
4901.45350 9.77482e-18
4903.46200 1.28278e-17
4905.46042 1.78862e-17
4907.45883 1.79675e-17
4909.45725 1.29726e-17
4911.45566 1.08060e-17
4913.46417 1.03613e-17
4915.46258 1.01721e-17
4917.46100 1.00527e-17
4919.45941 1.00775e-17
4921.46792 1.01891e-17
4923.46633 1.08168e-17
4925.46474 1.06472e-17
4927.46316 9.85125e-18
4929.46157 1.03609e-17
4931.47008 1.07319e-17
4933.46849 1.06423e-17
4935.46691 1.06343e-17
4937.46532 1.12893e-17
4939.46374 1.10811e-17
4941.47224 1.14905e-17
4943.47066 1.19630e-17
4945.46907 1.15492e-17
4947.46748 1.09721e-17
4949.47599 9.39074e-18
4951.47441 1.01444e-17
4953.47282 1.17808e-17
4955.47123 1.16826e-17
4957.46965 1.23579e-17
4959.47815 1.25383e-17
4961.47657 1.27303e-17
4963.47498 1.24155e-17
4965.47340 1.22283e-17
4967.48190 1.29555e-17
4969.48032 1.30394e-17
4971.47873 1.34420e-17
4973.47714 1.38923e-17
4975.47556 1.43454e-17
4977.48407 1.45895e-17
4979.48248 1.35824e-17
4981.48089 1.33820e-17
4983.47931 1.36840e-17
4985.47772 1.46305e-17
4987.48623 1.51148e-17
4989.48464 1.47912e-17
4991.48306 1.53529e-17
4993.48147 1.55368e-17
4995.48998 1.57258e-17
4997.48839 1.63729e-17
4999.48681 1.54304e-17
5001.48522 1.56320e-17
5003.48363 1.84076e-17
5005.49214 1.99716e-17
5007.49056 1.81536e-17
5009.48897 1.63555e-17
5011.48738 1.57506e-17
5013.48580 1.57754e-17
5015.49430 1.55511e-17
5017.49272 1.54933e-17
5019.49113 1.54838e-17
5021.48955 1.52462e-17
5023.49805 1.58503e-17
5025.49647 1.59559e-17
5027.49488 1.56251e-17
5029.49330 1.46253e-17
5031.49171 1.52262e-17
5033.50022 1.53480e-17
5035.49863 1.59536e-17
5037.49704 1.61803e-17
5039.49546 1.49854e-17
5041.49387 1.49842e-17
5043.50238 1.45358e-17
5045.50079 1.50801e-17
5047.49921 1.54150e-17
5049.49762 1.70086e-17
5051.50613 2.19921e-17
5053.50454 2.46296e-17
5055.50296 2.17134e-17
5057.50137 1.73708e-17
5059.49978 1.52721e-17
5061.50829 1.42733e-17
5063.50671 1.31605e-17
5065.50512 1.31646e-17
5067.50353 1.41938e-17
5069.50195 1.39710e-17
5071.51045 1.41345e-17
5073.50887 1.46047e-17
5075.50728 1.28840e-17
5077.50570 1.27903e-17
5079.51420 1.32533e-17
5081.51262 1.37833e-17
5083.51103 1.38437e-17
5085.50944 1.36670e-17
5087.50786 1.34007e-17
5089.51637 1.31469e-17
5091.51478 1.28957e-17
5093.51319 1.32950e-17
5095.51161 1.26528e-17
5097.52012 1.36246e-17
5099.51853 1.35072e-17
5101.51694 1.31352e-17
5103.51536 1.29655e-17
5105.51377 1.30855e-17
5107.52228 1.25026e-17
5109.52069 1.24347e-17
5111.51911 1.33450e-17
5113.51752 1.32776e-17
5115.51593 1.27706e-17
5117.52444 1.34905e-17
5119.52286 1.33780e-17
5121.52127 1.27925e-17
5123.51968 1.29028e-17
5125.52819 1.24908e-17
5127.52660 1.28877e-17
5129.52502 1.26403e-17
5131.52343 1.21142e-17
5133.52185 1.27908e-17
5135.53035 1.26223e-17
5137.52877 1.29716e-17
5139.52718 1.31450e-17
5141.52560 1.25925e-17
5143.53410 1.27567e-17
5145.53252 1.22513e-17
5147.53093 1.25754e-17
5149.52934 1.37751e-17
5151.52776 1.33770e-17
5153.53627 1.30970e-17
5155.53468 1.32197e-17
5157.53309 1.33479e-17
5159.53151 1.31931e-17
5161.52992 1.30858e-17
5163.53843 1.42784e-17
5165.53684 1.39607e-17
5167.53526 1.32026e-17
5169.53367 1.38807e-17
5171.54218 1.30303e-17
5173.54059 1.29725e-17
5175.53901 1.26717e-17
5177.53742 1.27050e-17
5179.53583 1.36661e-17
5181.54434 1.36910e-17
5183.54275 1.36352e-17
5185.54117 1.24519e-17
5187.53958 1.20443e-17
5189.53800 1.32532e-17
5191.54650 1.31697e-17
5193.54492 1.35766e-17
5195.54333 1.31489e-17
5197.54175 1.26549e-17
5199.55025 1.30593e-17
5201.54867 1.37037e-17
5203.54708 1.38255e-17
5205.54549 1.34105e-17
5207.54391 1.34702e-17
5209.55242 1.36475e-17
5211.55083 1.30187e-17
5213.54924 1.32871e-17
5215.54766 1.35359e-17
5217.55616 1.28374e-17
5219.55458 1.28643e-17
5221.55299 1.35419e-17
5223.55141 1.28417e-17
5225.54982 1.33557e-17
5227.55833 1.40595e-17
5229.55674 1.35876e-17
5231.55516 1.27909e-17
5233.55357 1.27756e-17
5235.55198 1.31617e-17
5237.56049 1.31869e-17
5239.55890 1.28961e-17
5241.55732 1.31438e-17
5243.55573 1.33206e-17
5245.56424 1.44689e-17
5247.56265 1.42991e-17
5249.56107 1.43372e-17
5251.55948 1.38510e-17
5253.55789 1.35560e-17
5255.56640 1.32077e-17
5257.56482 1.30823e-17
5259.56323 1.33871e-17
5261.56164 1.34059e-17
5263.56006 1.37093e-17
5265.56857 1.40267e-17
5267.56698 1.42162e-17
5269.56539 1.39158e-17
5271.56381 1.38022e-17
5273.57231 1.37342e-17
5275.57073 1.38868e-17
5277.56914 1.39582e-17
5279.56756 1.40542e-17
5281.56597 1.46778e-17
5283.57448 1.49169e-17
5285.57289 1.47409e-17
5287.57131 1.44289e-17
5289.56972 1.41150e-17
5291.56813 1.42524e-17
5293.57664 1.44681e-17
5295.57505 1.43522e-17
5297.57347 1.44480e-17
5299.57188 1.44429e-17
5301.58039 1.44166e-17
5303.57880 1.44766e-17
5305.57722 1.45863e-17
5307.57563 1.46864e-17
5309.57405 1.47483e-17
5311.58255 1.47336e-17
5313.58097 1.45787e-17
5315.57938 1.44410e-17
5317.57779 1.44662e-17
5319.58630 1.47253e-17
5321.58472 1.44339e-17
5323.58313 1.45018e-17
5325.58154 1.48208e-17
5327.57996 1.53644e-17
5329.58846 1.54214e-17
5331.58688 1.57601e-17
5333.58529 1.54432e-17
5335.58371 1.56284e-17
5337.58212 1.54429e-17
5339.59063 1.57065e-17
5341.58904 1.57769e-17
5343.58746 1.57988e-17
5345.58587 1.57444e-17
5347.59438 1.63322e-17
5349.59279 1.63337e-17
5351.59120 1.61657e-17
5353.58962 1.58720e-17
5355.58803 1.55937e-17
5357.59654 1.54582e-17
5359.59495 1.57317e-17
5361.59337 1.60460e-17
5363.59178 1.61138e-17
5365.59019 1.60326e-17
5367.59870 1.58556e-17
5369.59712 1.57052e-17
5371.59553 1.56638e-17
5373.59394 1.58661e-17
5375.60245 1.61625e-17
5377.60087 1.65682e-17
5379.59928 1.68173e-17
5381.59769 1.65412e-17
5383.59611 1.59985e-17
5385.60461 1.56739e-17
5387.60303 1.59318e-17
5389.60144 1.63072e-17
5391.59986 1.63445e-17
5393.60836 1.63228e-17
5395.60678 1.63341e-17
5397.60519 1.63639e-17
5399.60361 1.63460e-17
5401.60202 1.62748e-17
5403.61053 1.62136e-17
5405.60894 1.62435e-17
5407.60735 1.62913e-17
5409.60577 1.63506e-17
5411.60418 1.63541e-17
5413.61269 1.62055e-17
5415.61110 1.59552e-17
5417.60952 1.57587e-17
5419.60793 1.57928e-17
5421.61644 1.58957e-17
5423.61485 1.60026e-17
5425.61327 1.60596e-17
5427.61168 1.59711e-17
5429.61009 1.58148e-17
5431.61860 1.57461e-17
5433.61702 1.58813e-17
5435.61543 1.60361e-17
5437.61384 1.59756e-17
5439.61226 1.59112e-17
5441.62076 1.59973e-17
5443.61918 1.61471e-17
5445.61759 1.62232e-17
5447.61601 1.61333e-17
5449.62451 1.59606e-17
5451.62293 1.57313e-17
5453.62134 1.55138e-17
5455.61976 1.53872e-17
5457.61817 1.53356e-17
5459.62668 1.53316e-17
5461.62509 1.53610e-17
5463.62350 1.54381e-17
5465.62192 1.55669e-17
5467.63043 1.56781e-17
5469.62884 1.56851e-17
5471.62725 1.56305e-17
5473.62567 1.55009e-17
5475.62408 1.53866e-17
5477.63259 1.53847e-17
5479.63100 1.55926e-17
5481.62942 1.58536e-17
5483.62783 1.60066e-17
5485.62624 1.61379e-17
5487.63475 1.63084e-17
5489.63317 1.64657e-17
5491.63158 1.65221e-17
5493.62999 1.64454e-17
5495.63850 1.63434e-17
5497.63691 1.63323e-17
5499.63533 1.63786e-17
5501.63374 1.65434e-17
5503.63216 1.67204e-17
5505.64066 1.67900e-17
5507.63908 1.67320e-17
5509.63749 1.66859e-17
5511.63591 1.67964e-17
5513.63432 1.69036e-17
5515.64283 1.68744e-17
5517.64124 1.67929e-17
5519.63965 1.67177e-17
5521.63807 1.66900e-17
5523.64658 1.67075e-17
5525.64499 1.67780e-17
5527.64340 1.68421e-17
5529.64182 1.68127e-17
5531.64023 1.67516e-17
5533.64874 1.66895e-17
5535.64715 1.66377e-17
5537.64557 1.65739e-17
5539.64398 1.65106e-17
5541.64239 1.64897e-17
5543.65090 1.66247e-17
5545.64932 1.67457e-17
5547.64773 1.67288e-17
5549.64614 1.66087e-17
5551.65465 1.64496e-17
5553.65306 1.62917e-17
5555.65148 1.61119e-17
5557.64989 1.59043e-17
5559.64831 1.57135e-17
5561.65681 1.56021e-17
5563.65523 1.55201e-17
5565.65364 1.53631e-17
5567.65206 1.52181e-17
5569.66056 1.52780e-17
5571.65898 1.57308e-17
5573.65739 1.62566e-17
5575.65580 1.67111e-17
5577.65422 1.68306e-17
5579.66273 1.60381e-17
5581.66114 1.49534e-17
5583.65955 1.45941e-17
5585.65797 1.55916e-17
5587.65638 1.66659e-17
5589.66489 1.61403e-17
5591.66330 1.53520e-17
5593.66172 1.48464e-17
5595.66013 1.46701e-17
5597.66864 1.46325e-17
5599.66705 1.46586e-17
5601.66547 1.47584e-17
5603.66388 1.49113e-17
5605.66229 1.50323e-17
5607.67080 1.49787e-17
5609.66921 1.48734e-17
5611.66763 1.48504e-17
5613.66604 1.49252e-17
5615.66446 1.49781e-17
5617.67296 1.49060e-17
5619.67138 1.48048e-17
5621.66979 1.47267e-17
5623.66821 1.46720e-17
5625.67671 1.46572e-17
5627.67513 1.46617e-17
5629.67354 1.46556e-17
5631.67195 1.46081e-17
5633.67037 1.45413e-17
5635.67888 1.44588e-17
5637.67729 1.43726e-17
5639.67570 1.42954e-17
5641.67412 1.42239e-17
5643.68262 1.41512e-17
5645.68104 1.40701e-17
5647.67945 1.39807e-17
5649.67787 1.38796e-17
5651.67628 1.37620e-17
5653.68479 1.36202e-17
5655.68320 1.34583e-17
5657.68162 1.32847e-17
5659.68003 1.30953e-17
5661.67844 1.28698e-17
5663.68695 1.25881e-17
5665.68536 1.23224e-17
5667.68378 1.21734e-17
5669.68219 1.20570e-17
5671.69070 1.19315e-17
5673.68911 1.17422e-17
5675.68753 1.14670e-17
5677.68594 1.10795e-17
5679.68436 1.06633e-17
5681.69286 1.02375e-17
5683.69128 9.95561e-18
5685.68969 1.00410e-17
5687.68810 1.03180e-17
5689.69661 1.05534e-17
5691.69503 1.05471e-17
5693.69344 1.04284e-17
5695.69185 1.01932e-17
5697.69027 9.98318e-18
5699.69877 9.96699e-18
5701.69719 1.00489e-17
5703.69560 1.01413e-17
5705.69402 1.01438e-17
5707.69243 1.00358e-17
5709.70094 9.73155e-18
5711.69935 9.42707e-18
5713.69777 9.32719e-18
5715.69618 9.32421e-18
5717.70469 9.34744e-18
5719.70310 9.34119e-18
5721.70151 9.30087e-18
5723.69993 9.20667e-18
5725.69834 9.12867e-18
5727.70685 9.19847e-18
5729.70526 9.25971e-18
5731.70368 9.16997e-18
5733.70209 8.99853e-18
5735.70051 8.88212e-18
5737.70901 8.91699e-18
5739.70743 9.00714e-18
5741.70584 9.12297e-18
5743.70425 9.17879e-18
5745.71276 9.01885e-18
5747.71118 8.79488e-18
5749.70959 8.68403e-18
5751.70800 8.76019e-18
5753.70642 8.87245e-18
5755.71492 8.89148e-18
5757.71334 8.90928e-18
5759.71175 8.96814e-18
5761.71017 9.05357e-18
5763.70858 9.16303e-18
5765.71709 9.27183e-18
5767.71550 9.34465e-18
5769.71392 9.35227e-18
5771.71233 9.39747e-18
5773.72084 9.65507e-18
5775.71925 9.93721e-18
5777.71766 1.00983e-17
5779.71608 1.01573e-17
5781.71449 1.02263e-17
5783.72300 1.03738e-17
5785.72141 1.05266e-17
5787.71983 1.06189e-17
5789.71824 1.06995e-17
5791.71666 1.07870e-17
5793.72516 1.08832e-17
5795.72358 1.09713e-17
5797.72199 1.10642e-17
5799.72040 1.11954e-17
5801.72891 1.14206e-17
5803.72733 1.16609e-17
5805.72574 1.18543e-17
5807.72415 1.20224e-17
5809.72257 1.21866e-17
5811.73107 1.23608e-17
5813.72949 1.25416e-17
5815.72790 1.27335e-17
5817.72632 1.29324e-17
5819.73482 1.31441e-17
5821.73324 1.33489e-17
5823.73165 1.35365e-17
5825.73007 1.36948e-17
5827.72848 1.38231e-17
5829.73699 1.39156e-17
5831.73540 1.39773e-17
5833.73381 1.39759e-17
5835.73223 1.40004e-17
5837.73064 1.41135e-17
5839.73915 1.43202e-17
5841.73756 1.46298e-17
5843.73598 1.49876e-17
5845.73439 1.52906e-17
5847.74290 1.53395e-17
5849.74131 1.53902e-17
5851.73973 1.56442e-17
5853.73814 1.60092e-17
5855.73655 1.64116e-17
5857.74506 1.67527e-17
5859.74348 1.70007e-17
5861.74189 1.70692e-17
5863.74030 1.70652e-17
5865.74881 1.70725e-17
5867.74722 1.70612e-17
5869.74564 1.69874e-17
5871.74405 1.68916e-17
5873.74247 1.68390e-17
5875.75097 1.68858e-17
5877.74939 1.69522e-17
5879.74780 1.69070e-17
5881.74622 1.69236e-17
5883.74463 1.72440e-17
5885.75314 1.76062e-17
5887.75155 1.76598e-17
5889.74996 1.72107e-17
5891.74838 1.66034e-17
5893.75689 1.61179e-17
5895.75530 1.57746e-17
5897.75371 1.57428e-17
5899.75213 1.59167e-17
5901.75054 1.62205e-17
5903.75905 1.65260e-17
5905.75746 1.68045e-17
5907.75588 1.69470e-17
5909.75429 1.69604e-17
5911.75270 1.67123e-17
5913.76121 1.64166e-17
5915.75963 1.62408e-17
5917.75804 1.62365e-17
5919.75645 1.63017e-17
5921.76496 1.63758e-17
5923.76337 1.64743e-17
5925.76179 1.65929e-17
5927.76020 1.67081e-17
5929.75862 1.68111e-17
5931.76712 1.68774e-17
5933.76554 1.69130e-17
5935.76395 1.68837e-17
5937.76237 1.67454e-17
5939.77087 1.63361e-17
5941.76929 1.59532e-17
5943.76770 1.58342e-17
5945.76611 1.59056e-17
5947.76453 1.60721e-17
5949.77304 1.62247e-17
5951.77145 1.63340e-17
5953.76986 1.62956e-17
5955.76828 1.62279e-17
5957.76669 1.61987e-17
5959.77520 1.62189e-17
5961.77361 1.63084e-17
5963.77203 1.64443e-17
5965.77044 1.65911e-17
5967.77895 1.66969e-17
5969.77736 1.67512e-17
5971.77578 1.66656e-17
5973.77419 1.65650e-17
5975.77260 1.65627e-17
5977.78111 1.66201e-17
5979.77952 1.66069e-17
5981.77794 1.64771e-17
5983.77635 1.63952e-17
5985.77477 1.66735e-17
5987.78327 1.69090e-17
5989.78169 1.67605e-17
5991.78010 1.64465e-17
5993.77852 1.62693e-17
5995.78702 1.63786e-17
5997.78544 1.65651e-17
5999.78385 1.66824e-17
6001.78226 1.67431e-17
6003.78068 1.66685e-17
6005.78919 1.65316e-17
6007.78760 1.63830e-17
6009.78601 1.62717e-17
6011.78443 1.61922e-17
6013.79293 1.61637e-17
6015.79135 1.61524e-17
6017.78976 1.61447e-17
6019.78818 1.61090e-17
6021.78659 1.59843e-17
6023.79510 1.58292e-17
6025.79351 1.57399e-17
6027.79193 1.57887e-17
6029.79034 1.58701e-17
6031.78875 1.58938e-17
6033.79726 1.58755e-17
6035.79567 1.57882e-17
6037.79409 1.56552e-17
6039.79250 1.55029e-17
6041.79092 1.53541e-17
6043.79942 1.51923e-17
6045.79784 1.50016e-17
6047.79625 1.48429e-17
6049.79467 1.47855e-17
6051.80317 1.47868e-17
6053.80159 1.48250e-17
6055.80000 1.48449e-17
6057.79841 1.48035e-17
6059.79683 1.46352e-17
6061.80534 1.44873e-17
6063.80375 1.45710e-17
6065.80216 1.46776e-17
6067.80058 1.46197e-17
6069.80908 1.44270e-17
6071.80750 1.42659e-17
6073.80591 1.42588e-17
6075.80433 1.42807e-17
6077.80274 1.41982e-17
6079.81125 1.41498e-17
6081.80966 1.42430e-17
6083.80808 1.44225e-17
6085.80649 1.46435e-17
6087.80490 1.47847e-17
6089.81341 1.47449e-17
6091.81182 1.42148e-17
6093.81024 1.37153e-17
6095.80865 1.37131e-17
6097.81716 1.39657e-17
6099.81557 1.42144e-17
6101.81399 1.42778e-17
6103.81240 1.42206e-17
6105.81082 1.40056e-17
6107.81932 1.37874e-17
6109.81774 1.37510e-17
6111.81615 1.37909e-17
6113.81456 1.38432e-17
6115.82307 1.38557e-17
6117.82149 1.38236e-17
6119.81990 1.37281e-17
6121.81831 1.36277e-17
6123.81673 1.35812e-17
6125.82523 1.35829e-17
6127.82365 1.36878e-17
6129.82206 1.38044e-17
6131.82048 1.38099e-17
6133.81889 1.36490e-17
6135.82740 1.34832e-17
6137.82581 1.35148e-17
6139.82423 1.35865e-17
6141.82264 1.36561e-17
6143.83115 1.36713e-17
6145.82956 1.35739e-17
6147.82797 1.33900e-17
6149.82639 1.32406e-17
6151.82480 1.32799e-17
6153.83331 1.33478e-17
6155.83172 1.33558e-17
6157.83014 1.32944e-17
6159.82855 1.31233e-17
6161.82697 1.29038e-17
6163.83547 1.27225e-17
6165.83389 1.26906e-17
6167.83230 1.27566e-17
6169.83071 1.29856e-17
6171.83922 1.32170e-17
6173.83764 1.33254e-17
6175.83605 1.33073e-17
6177.83446 1.32342e-17
6179.83288 1.31562e-17
6181.84138 1.30629e-17
6183.83980 1.29667e-17
6185.83821 1.28807e-17
6187.83663 1.28264e-17
6189.84513 1.27915e-17
6191.84355 1.27513e-17
6193.84196 1.27074e-17
6195.84038 1.26939e-17
6197.83879 1.27567e-17
6199.84730 1.28252e-17
6201.84571 1.28284e-17
6203.84412 1.28159e-17
6205.84254 1.28352e-17
6207.84095 1.28988e-17
6209.84946 1.29827e-17
6211.84787 1.30662e-17
6213.84629 1.31273e-17
6215.84470 1.31182e-17
6217.85321 1.30730e-17
6219.85162 1.30068e-17
6221.85004 1.29359e-17
6223.84845 1.28394e-17
6225.84686 1.27454e-17
6227.85537 1.27248e-17
6229.85379 1.29781e-17
6231.85220 1.32518e-17
6233.85061 1.34048e-17
6235.85912 1.34271e-17
6237.85753 1.33449e-17
6239.85595 1.32148e-17
6241.85436 1.31098e-17
6243.85278 1.31680e-17
6245.86128 1.32524e-17
6247.85970 1.32686e-17
6249.85811 1.32615e-17
6251.85653 1.33045e-17
6253.85494 1.33766e-17
6255.86345 1.33879e-17
6257.86186 1.32453e-17
6259.86027 1.30737e-17
6261.85869 1.29920e-17
6263.86719 1.29252e-17
6265.86561 1.28137e-17
6267.86402 1.26637e-17
6269.86244 1.25180e-17
6271.86085 1.24103e-17
6273.86936 1.23185e-17
6275.86777 1.22373e-17
6277.86619 1.21611e-17
6279.86460 1.20621e-17
6281.86301 1.19838e-17
6283.87152 1.19897e-17
6285.86994 1.20914e-17
6287.86835 1.21971e-17
6289.86676 1.21856e-17
6291.87527 1.21605e-17
6293.87368 1.21979e-17
6295.87210 1.22379e-17
6297.87051 1.22234e-17
6299.86893 1.21188e-17
6301.87743 1.19312e-17
6303.87585 1.16528e-17
6305.87426 1.14332e-17
6307.87268 1.15113e-17
6309.87109 1.16759e-17
6311.87960 1.17675e-17
6313.87801 1.17426e-17
6315.87642 1.16671e-17
6317.87484 1.15995e-17
6319.88335 1.16095e-17
6321.88176 1.19344e-17
6323.88017 1.22582e-17
6325.87859 1.23539e-17
6327.87700 1.22523e-17
6329.88551 1.20792e-17
6331.88392 1.19434e-17
6333.88234 1.18405e-17
6335.88075 1.18588e-17
6337.87916 1.18902e-17
6339.88767 1.18276e-17
6341.88609 1.17639e-17
6343.88450 1.18274e-17
6345.88291 1.20253e-17
6347.89142 1.22174e-17
6349.88983 1.22527e-17
6351.88825 1.22500e-17
6353.88666 1.22761e-17
6355.88508 1.23006e-17
6357.89358 1.23168e-17
6359.89200 1.22837e-17
6361.89041 1.21486e-17
6363.88883 1.18739e-17
6365.89733 1.16068e-17
6367.89575 1.15334e-17
6369.89416 1.15516e-17
6371.89257 1.16606e-17
6373.89099 1.17630e-17
6375.89950 1.17647e-17
6377.89791 1.16108e-17
6379.89632 1.14501e-17
6381.89474 1.14819e-17
6383.89315 1.15362e-17
6385.90166 1.15200e-17
6387.90007 1.14649e-17
6389.89849 1.14299e-17
6391.89690 1.14364e-17
6393.90541 1.14420e-17
6395.90382 1.14067e-17
6397.90224 1.13997e-17
6399.90065 1.15148e-17
6401.89906 1.16525e-17
6403.90757 1.17356e-17
6405.90598 1.17205e-17
6407.90440 1.16275e-17
6409.90281 1.14671e-17
6411.90123 1.13272e-17
6413.90973 1.13446e-17
6415.90815 1.14301e-17
6417.90656 1.15349e-17
6419.90498 1.16431e-17
6421.91348 1.17848e-17
6423.91190 1.19528e-17
6425.91031 1.21025e-17
6427.90872 1.21456e-17
6429.90714 1.21646e-17
6431.91565 1.22243e-17
6433.91406 1.22733e-17
6435.91247 1.22293e-17
6437.91089 1.20777e-17
6439.91939 1.19111e-17
6441.91781 1.18339e-17
6443.91622 1.17881e-17
6445.91464 1.17542e-17
6447.91305 1.17454e-17
6449.92156 1.17934e-17
6451.91997 1.18717e-17
6453.91838 1.19333e-17
6455.91680 1.19165e-17
6457.91521 1.18467e-17
6459.92372 1.16872e-17
6461.92213 1.15209e-17
6463.92055 1.14019e-17
6465.91896 1.13597e-17
6467.92747 1.14015e-17
6469.92588 1.15062e-17
6471.92430 1.15676e-17
6473.92271 1.13419e-17
6475.92113 1.10993e-17
6477.92963 1.10119e-17
6479.92805 1.10431e-17
6481.92646 1.10919e-17
6483.92487 1.10907e-17
6485.93338 1.10716e-17
6487.93180 1.10294e-17
6489.93021 1.09740e-17
6491.92862 1.08871e-17
6493.92704 1.08247e-17
6495.93554 1.08636e-17
6497.93396 1.09785e-17
6499.93237 1.10576e-17
6501.93079 1.09739e-17
6503.92920 1.08431e-17
6505.93771 1.07241e-17
6507.93612 1.06232e-17
6509.93454 1.05503e-17
6511.93295 1.05032e-17
6513.94146 1.04786e-17
6515.93987 1.04575e-17
6517.93828 1.03992e-17
6519.93670 1.01775e-17
6521.93511 9.96599e-18
6523.94362 9.89632e-18
6525.94203 9.93542e-18
6527.94045 1.00005e-17
6529.93886 1.00212e-17
6531.93728 1.00147e-17
6533.94578 9.95406e-18
6535.94420 9.86095e-18
6537.94261 9.70746e-18
6539.94102 9.57528e-18
6541.94953 9.54169e-18
6543.94794 9.63148e-18
6545.94636 9.77736e-18
6547.94477 9.92158e-18
6549.94319 1.00224e-17
6551.95169 9.97781e-18
6553.95011 9.87026e-18
6555.94852 9.73384e-18
6557.94694 9.64458e-18
6559.94535 9.64863e-18
6561.95386 9.80268e-18
6563.95227 9.98258e-18
6565.95069 1.00267e-17
6567.94910 1.00630e-17
6569.95761 1.01933e-17
6571.95602 1.03652e-17
6573.95443 1.04745e-17
6575.95285 1.04592e-17
6577.95126 1.04094e-17
6579.95977 1.03939e-17
6581.95818 1.04161e-17
6583.95660 1.05155e-17
6585.95501 1.06657e-17
6587.95343 1.08375e-17
6589.96193 1.10092e-17
6591.96035 1.11989e-17
6593.95876 1.14166e-17
6595.95717 1.16132e-17
6597.96568 1.17147e-17
6599.96410 1.17906e-17
6601.96251 1.18846e-17
6603.96092 1.20432e-17
6605.95934 1.22862e-17
6607.96784 1.26323e-17
6609.96626 1.29421e-17
6611.96467 1.27681e-17
6613.96309 1.28490e-17
6615.97159 1.38603e-17
6617.97001 1.55982e-17
6619.96842 1.76999e-17
6621.96684 1.95221e-17
6623.96525 2.06676e-17
6625.97376 1.97930e-17
6627.97217 1.82750e-17
6629.97058 1.66013e-17
6631.96900 1.52543e-17
6633.96741 1.43549e-17
6635.97592 1.41437e-17
6637.97433 1.44441e-17
6639.97275 1.52599e-17
6641.97116 1.61316e-17
6643.97967 1.66416e-17
6645.97808 1.67538e-17
6647.97650 1.63719e-17
6649.97491 1.56914e-17
6651.97332 1.50240e-17
6653.98183 1.47726e-17
6655.98025 1.46769e-17
6657.97866 1.46748e-17
6659.97707 1.47091e-17
6661.98558 1.47152e-17
6663.98399 1.47049e-17
6665.98241 1.47480e-17
6667.98082 1.48830e-17
6669.97924 1.50428e-17
6671.98774 1.51781e-17
6673.98616 1.52681e-17
6675.98457 1.52482e-17
6677.98299 1.51842e-17
6679.98140 1.51670e-17
6681.98991 1.52314e-17
6683.98832 1.52789e-17
6685.98673 1.51972e-17
6687.98515 1.50947e-17
6689.99366 1.50475e-17
6691.99207 1.50134e-17
6693.99048 1.49243e-17
6695.98890 1.47972e-17
6697.98731 1.47176e-17
6699.99582 1.47764e-17
6701.99423 1.48537e-17
6703.99265 1.48237e-17
6705.99106 1.47883e-17
6707.98947 1.48618e-17
6709.99798 1.49874e-17
6711.99640 1.50273e-17
6713.99481 1.48743e-17
6715.99322 1.46743e-17
6718.00173 1.45510e-17
6720.00014 1.44712e-17
6721.99856 1.44484e-17
6723.99697 1.44660e-17
6725.99539 1.45227e-17
6728.00389 1.45805e-17
6730.00231 1.45940e-17
6732.00072 1.44494e-17
6733.99914 1.43087e-17
6736.00764 1.43098e-17
6738.00606 1.43780e-17
6740.00447 1.44354e-17
6742.00288 1.44234e-17
6744.00130 1.43564e-17
6746.00981 1.42153e-17
6748.00822 1.40774e-17
6750.00663 1.40385e-17
6752.00505 1.40378e-17
6754.00346 1.40308e-17
6756.01197 1.39996e-17
6758.01038 1.39577e-17
6760.00880 1.39137e-17
6762.00721 1.38898e-17
6764.01572 1.39222e-17
6766.01413 1.39949e-17
6768.01255 1.40432e-17
6770.01096 1.41855e-17
6772.00937 1.45926e-17
6774.01788 1.53164e-17
6776.01629 1.61044e-17
6778.01471 1.67269e-17
6780.01312 1.70642e-17
6782.01154 1.67322e-17
6784.02004 1.61564e-17
6786.01846 1.57645e-17
6788.01687 1.58058e-17
6790.01529 1.60079e-17
6792.02379 1.62289e-17
6794.02221 1.63309e-17
6796.02062 1.60089e-17
6798.01903 1.55171e-17
6800.01745 1.50412e-17
6802.02596 1.46993e-17
6804.02437 1.44190e-17
6806.02278 1.42073e-17
6808.02120 1.40836e-17
6810.01961 1.41305e-17
6812.02812 1.42067e-17
6814.02653 1.42155e-17
6816.02495 1.41349e-17
6818.02336 1.40135e-17
6820.03187 1.38686e-17
6822.03028 1.36833e-17
6824.02869 1.33865e-17
6826.02711 1.31532e-17
6828.02552 1.31843e-17
6830.03403 1.33203e-17
6832.03244 1.33601e-17
6834.03086 1.32042e-17
6836.02927 1.30018e-17
6838.03778 1.28613e-17
6840.03619 1.27699e-17
6842.03461 1.28183e-17
6844.03302 1.28718e-17
6846.03144 1.27863e-17
6848.03994 1.25692e-17
6850.03836 1.23717e-17
6852.03677 1.23318e-17
6854.03518 1.23243e-17
6856.03360 1.22772e-17
6858.04211 1.21995e-17
6860.04052 1.20804e-17
6862.03893 1.19369e-17
6864.03735 1.17937e-17
6866.04585 1.16721e-17
6868.04427 1.15483e-17
6870.04268 1.13549e-17
6872.04110 1.12216e-17
6874.03951 1.12846e-17
6876.04802 1.14419e-17
6878.04643 1.15932e-17
6880.04485 1.16099e-17
6882.04326 1.14742e-17
6884.04167 1.10324e-17
6886.05018 1.06210e-17
6888.04859 1.06739e-17
6890.04701 1.07884e-17
6892.04542 1.07093e-17
6894.05393 1.06267e-17
6896.05234 1.05441e-17
6898.05076 1.04615e-17
6900.04917 1.03789e-17
6902.04759 1.02964e-17
6904.05609 1.02138e-17
6906.05451 1.01312e-17
6908.05292 1.01308e-17
6910.05133 1.01543e-17
6912.05984 1.01914e-17
6914.05826 1.01440e-17
6916.05667 1.01793e-17
6918.05508 1.01892e-17
6920.05350 1.00971e-17
6922.06200 9.96992e-18
6924.06042 9.89269e-18
6926.05883 9.92637e-18
6928.05725 1.00116e-17
6930.05566 1.01257e-17
6932.06417 1.02247e-17
6934.06258 1.02342e-17
6936.06099 1.02109e-17
6938.05941 1.02068e-17
6940.06792 1.02609e-17
6942.06633 1.03575e-17
6944.06474 1.05025e-17
6946.06316 1.06591e-17
6948.06157 1.07613e-17
6950.07008 1.08822e-17
6952.06849 1.11168e-17
6954.06691 1.14108e-17
6956.06532 1.16358e-17
6958.06374 1.16837e-17
6960.07224 1.17009e-17
6962.07066 1.18621e-17
6964.06907 1.20047e-17
6966.06748 1.19827e-17
6968.07599 1.18938e-17
6970.07441 1.19107e-17
6972.07282 1.21199e-17
6974.07123 1.23461e-17
6976.06965 1.23989e-17
6978.07815 1.24090e-17
6980.07657 1.24153e-17
6982.07498 1.24358e-17
6984.07340 1.24606e-17
6986.08190 1.25120e-17
6988.08032 1.26101e-17
6990.07873 1.27916e-17
6992.07715 1.30071e-17
6994.07556 1.32515e-17
6996.08407 1.34592e-17
6998.08248 1.35490e-17
7000.08089 1.35558e-17
7002.07931 1.35946e-17
7004.07772 1.37660e-17
7006.08623 1.39380e-17
7008.08464 1.39547e-17
7010.08306 1.39649e-17
7012.08147 1.41009e-17
7014.08998 1.42965e-17
7016.08839 1.44022e-17
7018.08681 1.43428e-17
7020.08522 1.42768e-17
7022.08363 1.44032e-17
7024.09214 1.45569e-17
7026.09056 1.46637e-17
7028.08897 1.47248e-17
7030.08738 1.47595e-17
7032.08580 1.47896e-17
7034.09430 1.48340e-17
7036.09272 1.49323e-17
7038.09113 1.50252e-17
7040.08955 1.50662e-17
7042.09805 1.50680e-17
7044.09647 1.50282e-17
7046.09488 1.49793e-17
7048.09330 1.49523e-17
7050.09171 1.49931e-17
7052.10022 1.50728e-17
7054.09863 1.52235e-17
7056.09704 1.53460e-17
7058.09546 1.53400e-17
7060.09387 1.52392e-17
7062.10238 1.51404e-17
7064.10079 1.51139e-17
7066.09921 1.50905e-17
7068.09762 1.49737e-17
7070.10613 1.49033e-17
7072.10454 1.50401e-17
7074.10296 1.52274e-17
7076.10137 1.52683e-17
7078.09978 1.50667e-17
7080.10829 1.47891e-17
7082.10671 1.45644e-17
7084.10512 1.44064e-17
7086.10353 1.44366e-17
7088.11204 1.45244e-17
7090.11045 1.45346e-17
7092.10887 1.44454e-17
7094.10728 1.43852e-17
7096.10570 1.44573e-17
7098.11420 1.45195e-17
7100.11262 1.44440e-17
7102.11103 1.42937e-17
7104.10945 1.40491e-17
7106.10786 1.38286e-17
7108.11637 1.37702e-17
7110.11478 1.39742e-17
7112.11319 1.42045e-17
7114.11161 1.41758e-17
7116.12012 1.40513e-17
7118.11853 1.38768e-17
7120.11694 1.36686e-17
7122.11536 1.33806e-17
7124.11377 1.30599e-17
7126.12228 1.28061e-17
7128.12069 1.27892e-17
7130.11911 1.28776e-17
7132.11752 1.30578e-17
7134.11593 1.32354e-17
7136.12444 1.33415e-17
7138.12286 1.33391e-17
7140.12127 1.32874e-17
7142.11968 1.32272e-17
7144.12819 1.31648e-17
7146.12660 1.31432e-17
7148.12502 1.31198e-17
7150.12343 1.30319e-17
7152.12185 1.29262e-17
7154.13035 1.28978e-17
7156.12877 1.30235e-17
7158.12718 1.31830e-17
7160.12560 1.32547e-17
7162.13410 1.33015e-17
7164.13252 1.33239e-17
7166.13093 1.33675e-17
7168.12934 1.34812e-17
7170.12776 1.36803e-17
7172.13627 1.38843e-17
7174.13468 1.39912e-17
7176.13309 1.40642e-17
7178.13151 1.41197e-17
7180.12992 1.41635e-17
7182.13843 1.41863e-17
7184.13684 1.42032e-17
7186.13526 1.42375e-17
7188.13367 1.43249e-17
7190.14218 1.44007e-17
7192.14059 1.43847e-17
7194.13901 1.43494e-17
7196.13742 1.43882e-17
7198.13583 1.44567e-17
7200.14434 1.44249e-17
7202.14275 1.41885e-17
7204.14117 1.39298e-17
7206.13958 1.38375e-17
7208.14809 1.38155e-17
7210.14650 1.38415e-17
7212.14492 1.38736e-17
7214.14333 1.38948e-17
7216.14174 1.38749e-17
7218.15025 1.38326e-17
7220.14867 1.37579e-17
7222.14708 1.36964e-17
7224.14549 1.36776e-17
7226.14391 1.37156e-17
7228.15242 1.38319e-17
7230.15083 1.39999e-17
7232.14924 1.41593e-17
7234.14766 1.42244e-17
7236.15616 1.42370e-17
7238.15458 1.41817e-17
7240.15299 1.41067e-17
7242.15141 1.40369e-17
7244.14982 1.40102e-17
7246.15833 1.40406e-17
7248.15674 1.41487e-17
7250.15516 1.42521e-17
7252.15357 1.42597e-17
7254.15198 1.41999e-17
7256.16049 1.40360e-17
7258.15890 1.38583e-17
7260.15732 1.37636e-17
7262.15573 1.38396e-17
7264.16424 1.39831e-17
7266.16265 1.41386e-17
7268.16107 1.42622e-17
7270.15948 1.42609e-17
7272.15790 1.42127e-17
7274.16640 1.42252e-17
7276.16482 1.43382e-17
7278.16323 1.44540e-17
7280.16164 1.44830e-17
7282.16006 1.44458e-17
7284.16857 1.42774e-17
7286.16698 1.40881e-17
7288.16539 1.39691e-17
7290.16381 1.39626e-17
7292.17231 1.40136e-17
7294.17073 1.40886e-17
7296.16914 1.41652e-17
7298.16756 1.41854e-17
7300.16597 1.41940e-17
7302.17448 1.42180e-17
7304.17289 1.42693e-17
7306.17131 1.43561e-17
7308.16972 1.44640e-17
7310.16813 1.45272e-17
7312.17664 1.43865e-17
7314.17505 1.42285e-17
7316.17347 1.41696e-17
7318.17188 1.41937e-17
7320.18039 1.42594e-17
7322.17880 1.43015e-17
7324.17722 1.42679e-17
7326.17563 1.40138e-17
7328.17405 1.37780e-17
7330.18255 1.37872e-17
7332.18097 1.39040e-17
7334.17938 1.40047e-17
7336.17779 1.39881e-17
7338.18630 1.38622e-17
7340.18472 1.35849e-17
7342.18313 1.33226e-17
7344.18154 1.32786e-17
7346.17996 1.33327e-17
7348.18846 1.34113e-17
7350.18688 1.34725e-17
7352.18529 1.35376e-17
7354.18371 1.35973e-17
7356.18212 1.36453e-17
7358.19063 1.36708e-17
7360.18904 1.36696e-17
7362.18746 1.36180e-17
7364.18587 1.35508e-17
7366.19438 1.35114e-17
7368.19279 1.35224e-17
7370.19120 1.35349e-17
7372.18962 1.34993e-17
7374.18803 1.34401e-17
7376.19654 1.33459e-17
7378.19495 1.32493e-17
7380.19337 1.31654e-17
7382.19178 1.31268e-17
7384.19020 1.31475e-17
7386.19870 1.32616e-17
7388.19712 1.33830e-17
7390.19553 1.34392e-17
7392.19394 1.34324e-17
7394.20245 1.33411e-17
7396.20087 1.32067e-17
7398.19928 1.30862e-17
7400.19769 1.30435e-17
7402.19611 1.30204e-17
7404.20461 1.29738e-17
7406.20303 1.29308e-17
7408.20144 1.29155e-17
7410.19986 1.29075e-17
7412.20836 1.28705e-17
7414.20678 1.27912e-17
7416.20519 1.27164e-17
7418.20361 1.27004e-17
7420.20202 1.27203e-17
7422.21053 1.27888e-17
7424.20894 1.28770e-17
7426.20735 1.29675e-17
7428.20577 1.30332e-17
7430.20418 1.30775e-17
7432.21269 1.30884e-17
7434.21110 1.30535e-17
7436.20952 1.29031e-17
7438.20793 1.27570e-17
7440.21644 1.27336e-17
7442.21485 1.28304e-17
7444.21327 1.29397e-17
7446.21168 1.29633e-17
7448.21009 1.29478e-17
7450.21860 1.28720e-17
7452.21702 1.27928e-17
7454.21543 1.27528e-17
7456.21384 1.27577e-17
7458.22235 1.27872e-17
7460.22076 1.28246e-17
7462.21918 1.28631e-17
7464.21759 1.28879e-17
7466.21601 1.28910e-17
7468.22451 1.28577e-17
7470.22293 1.27943e-17
7472.22134 1.26999e-17
7474.21976 1.25953e-17
7476.21817 1.25051e-17
7478.22668 1.24749e-17
7480.22509 1.24583e-17
7482.22350 1.24115e-17
7484.22192 1.23742e-17
7486.23043 1.24012e-17
7488.22884 1.24741e-17
7490.22725 1.25195e-17
7492.22567 1.24664e-17
7494.22408 1.24138e-17
7496.23259 1.24639e-17
7498.23100 1.25427e-17
7500.22942 1.26065e-17
7502.22783 1.26373e-17
7504.22624 1.26499e-17
7506.23475 1.26464e-17
7508.23317 1.26298e-17
7510.23158 1.25874e-17
7512.22999 1.25632e-17
7514.23850 1.26020e-17
7516.23691 1.26795e-17
7518.23533 1.27793e-17
7520.23374 1.28510e-17
7522.23216 1.28556e-17
7524.24066 1.26980e-17
7526.23908 1.24945e-17
7528.23749 1.23007e-17
7530.23591 1.21509e-17
7532.23432 1.20596e-17
7534.24283 1.20407e-17
7536.24124 1.20837e-17
7538.23965 1.21813e-17
7540.23807 1.22800e-17
7542.24658 1.23106e-17
7544.24499 1.22982e-17
7546.24340 1.22470e-17
7548.24182 1.21816e-17
7550.24023 1.21211e-17
7552.24874 1.20893e-17
7554.24715 1.20618e-17
7556.24557 1.20357e-17
7558.24398 1.19806e-17
7560.24239 1.18271e-17
7562.25090 1.16625e-17
7564.24932 1.16052e-17
7566.24773 1.17048e-17
7568.24614 1.18251e-17
7570.25465 1.18282e-17
7572.25306 1.17554e-17
7574.25148 1.15276e-17
7576.24989 1.12885e-17
7578.24831 1.11831e-17
7580.25681 1.12485e-17
7582.25523 1.13469e-17
7584.25364 1.13539e-17
7586.25206 1.13277e-17
7588.26056 1.12449e-17
7590.25898 1.11696e-17
7592.25739 1.12191e-17
7594.25580 1.12876e-17
7596.25422 1.11425e-17
7598.26273 1.06223e-17
7600.26114 1.01283e-17
7602.25955 9.87707e-18
7604.25797 1.02413e-17
7606.25638 1.04017e-17
7608.26489 1.05620e-17
7610.26330 1.07223e-17
7612.26172 1.08826e-17
7614.26013 1.10429e-17
7616.26864 1.12032e-17
7618.26705 1.12027e-17
7620.26547 1.09881e-17
7622.26388 1.09049e-17
7624.26229 1.08125e-17
7626.27080 1.06003e-17
7628.26921 1.03645e-17
7630.26763 1.01406e-17
7632.26604 1.00033e-17
7634.27455 1.01108e-17
7636.27296 1.03031e-17
7638.27138 1.04820e-17
7640.26979 1.05465e-17
7642.26821 1.04818e-17
7644.27671 1.02488e-17
7646.27513 1.00058e-17
7648.27354 9.94044e-18
7650.27195 9.97213e-18
7652.27037 1.01253e-17
7654.27888 1.02847e-17
7656.27729 1.03381e-17
7658.27570 1.01918e-17
7660.27412 9.97716e-18
7662.28262 9.79225e-18
7664.28104 9.64640e-18
7666.27945 9.59732e-18
7668.27787 9.61081e-18
7670.27628 9.64473e-18
7672.28479 9.66783e-18
7674.28320 9.69524e-18
7676.28162 9.72156e-18
7678.28003 9.78068e-18
7680.27844 9.96989e-18
7682.28695 1.01375e-17
7684.28536 1.01178e-17
7686.28378 9.92772e-18
7688.28219 9.73800e-18
7690.29070 9.71503e-18
7692.28911 9.75649e-18
7694.28753 9.86722e-18
7696.28594 9.96376e-18
7698.28436 9.94705e-18
7700.29286 9.86703e-18
7702.29128 9.83185e-18
7704.28969 9.92891e-18
7706.28810 1.00791e-17
7708.29661 1.02814e-17
7710.29503 1.04259e-17
7712.29344 1.03709e-17
7714.29185 1.02184e-17
7716.29027 1.01008e-17
7718.29877 1.01064e-17
7720.29719 1.01540e-17
7722.29560 1.02046e-17
7724.29402 1.02560e-17
7726.29243 1.02751e-17
7728.30094 1.02970e-17
7730.29935 1.03617e-17
7732.29777 1.04689e-17
7734.29618 1.05839e-17
7736.30469 1.06689e-17
7738.30310 1.07151e-17
7740.30151 1.06390e-17
7742.29993 1.05754e-17
7744.29834 1.06469e-17
7746.30685 1.08358e-17
7748.30526 1.10534e-17
7750.30368 1.12070e-17
7752.30209 1.12954e-17
7754.30051 1.12252e-17
7756.30901 1.10989e-17
7758.30743 1.09538e-17
7760.30584 1.08360e-17
7762.30425 1.07556e-17
7764.31276 1.07397e-17
7766.31118 1.07732e-17
7768.30959 1.08618e-17
7770.30800 1.09745e-17
7772.30642 1.11106e-17
7774.31492 1.12140e-17
7776.31334 1.12337e-17
7778.31175 1.11609e-17
7780.31017 1.10469e-17
7782.30858 1.09421e-17
7784.31709 1.08691e-17
7786.31550 1.08830e-17
7788.31392 1.09613e-17
7790.31233 1.11261e-17
7792.32084 1.13040e-17
7794.31925 1.14263e-17
7796.31766 1.13992e-17
7798.31608 1.12751e-17
7800.31449 1.10022e-17
7802.32300 1.07339e-17
7804.32141 1.05870e-17
7806.31983 1.05647e-17
7808.31824 1.06069e-17
7810.32675 1.06775e-17
7812.32516 1.07871e-17
7814.32358 1.09355e-17
7816.32199 1.10928e-17
7818.32040 1.12369e-17
7820.32891 1.13581e-17
7822.32733 1.14718e-17
7824.32574 1.15511e-17
7826.32415 1.15545e-17
7828.32257 1.14179e-17
7830.33107 1.12492e-17
7832.32949 1.11003e-17
7834.32790 1.10348e-17
7836.32632 1.11663e-17
7838.33482 1.13967e-17
7840.33324 1.15186e-17
7842.33165 1.13396e-17
7844.33007 1.11307e-17
7846.32848 1.11367e-17
7848.33699 1.12548e-17
7850.33540 1.15138e-17
7852.33381 1.17793e-17
7854.33223 1.19140e-17
7856.33064 1.18189e-17
7858.33915 1.16692e-17
7860.33756 1.16407e-17
7862.33598 1.16512e-17
7864.33439 1.17065e-17
7866.34290 1.17725e-17
7868.34131 1.18301e-17
7870.33973 1.18503e-17
7872.33814 1.18417e-17
7874.33655 1.17983e-17
7876.34506 1.16955e-17
7878.34348 1.14335e-17
7880.34189 1.11798e-17
7882.34030 1.10924e-17
7884.34881 1.11888e-17
7886.34722 1.13403e-17
7888.34564 1.14325e-17
7890.34405 1.14872e-17
7892.34247 1.14676e-17
7894.35097 1.13853e-17
7896.34939 1.11960e-17
7898.34780 1.09935e-17
7900.34622 1.08901e-17
7902.34463 1.09715e-17
7904.35314 1.10967e-17
7906.35155 1.10948e-17
7908.34996 1.11041e-17
7910.34838 1.11956e-17
7912.35689 1.13452e-17
7914.35530 1.15371e-17
7916.35371 1.17038e-17
7918.35213 1.17815e-17
7920.35054 1.16370e-17
7922.35905 1.14129e-17
7924.35746 1.11631e-17
7926.35588 1.09498e-17
7928.35429 1.08343e-17
7930.35270 1.08012e-17
7932.36121 1.07483e-17
7934.35963 1.05769e-17
7936.35804 1.04205e-17
7938.35645 1.03965e-17
7940.36496 1.04491e-17
7942.36337 1.05854e-17
7944.36179 1.07212e-17
7946.36020 1.07709e-17
7948.35862 1.06611e-17
7950.36712 1.05235e-17
7952.36554 1.05024e-17
7954.36395 1.05212e-17
7956.36237 1.05559e-17
7958.37087 1.06118e-17
7960.36929 1.07186e-17
7962.36770 1.08652e-17
7964.36611 1.10042e-17
7966.36453 1.10747e-17
7968.37304 1.10781e-17
7970.37145 1.09781e-17
7972.36986 1.08072e-17
7974.36828 1.05583e-17
7976.36669 1.03080e-17
7978.37520 1.01407e-17
7980.37361 1.01824e-17
7982.37203 1.02524e-17
7984.37044 1.01437e-17
7986.37895 1.00410e-17
7988.37736 1.01352e-17
7990.37578 1.03650e-17
7992.37419 1.05471e-17
7994.37260 1.05108e-17
7996.38111 1.03662e-17
7998.37952 1.00597e-17
8000.37794 9.81118e-18
8002.37635 9.83788e-18
8004.37477 1.00522e-17
8006.38327 1.02978e-17
8008.38169 1.04268e-17
8010.38010 1.04733e-17
8012.37852 1.03725e-17
8014.38702 1.01938e-17
8016.38544 9.90975e-18
8018.38385 9.66372e-18
8020.38226 9.59573e-18
8022.38068 9.73264e-18
8024.38919 9.91928e-18
8026.38760 1.00034e-17
8028.38601 1.00360e-17
8030.38443 9.97435e-18
8032.39293 9.88382e-18
8034.39135 9.80308e-18
8036.38976 9.77158e-18
8038.38818 9.79547e-18
8040.38659 9.88622e-18
8042.39510 9.97633e-18
8044.39351 9.98409e-18
8046.39193 9.93983e-18
8048.39034 9.83809e-18
8050.38875 9.70681e-18
8052.39726 9.54797e-18
8054.39567 9.40965e-18
8056.39409 9.34333e-18
8058.39250 9.50261e-18
8060.40101 9.68023e-18
8062.39942 9.73653e-18
8064.39784 9.69925e-18
8066.39625 9.61781e-18
8068.39467 9.54602e-18
8070.40317 9.50771e-18
8072.40159 9.56855e-18
8074.40000 9.62720e-18
8076.39841 9.59365e-18
8078.39683 9.51052e-18
8080.40534 9.40610e-18
8082.40375 9.31189e-18
8084.40216 9.22922e-18
8086.40058 9.17984e-18
8088.40908 9.16696e-18
8090.40750 9.24530e-18
8092.40591 9.31660e-18
8094.40433 9.28876e-18
8096.40274 9.19133e-18
8098.41125 9.11766e-18
8100.40966 9.11854e-18
8102.40808 9.10434e-18
8104.40649 8.94627e-18
8106.40490 8.78480e-18
8108.41341 8.68697e-18
8110.41182 8.67141e-18
8112.41024 8.74216e-18
8114.40865 8.87576e-18
8116.41716 9.01954e-18
8118.41557 9.09465e-18
8120.41399 9.14452e-18
8122.41240 9.19426e-18
8124.41082 9.20950e-18
8126.41932 9.15011e-18
8128.41774 9.02195e-18
8130.41615 8.85615e-18
8132.41456 8.69524e-18
8134.42307 8.58725e-18
8136.42149 8.65820e-18
8138.41990 8.77619e-18
8140.41831 8.85578e-18
8142.41673 8.86523e-18
8144.42523 8.83220e-18
8146.42365 8.77408e-18
8148.42206 8.72019e-18
8150.42048 8.73910e-18
8152.41889 8.76960e-18
8154.42740 8.77779e-18
8156.42581 8.77145e-18
8158.42423 8.77493e-18
8160.42264 8.79561e-18
8162.43115 8.81574e-18
8164.42956 8.82090e-18
8166.42797 8.80361e-18
8168.42639 8.73939e-18
8170.42480 8.65509e-18
8172.43331 8.55850e-18
8174.43172 8.48829e-18
8176.43014 8.47676e-18
8178.42855 8.57414e-18
8180.43706 8.68144e-18
8182.43547 8.70622e-18
8184.43389 8.67929e-18
8186.43230 8.58819e-18
8188.43071 8.49578e-18
8190.43922 8.47625e-18
8192.43764 8.59371e-18
8194.43605 8.73064e-18
8196.43446 8.76770e-18
8198.43288 8.75135e-18
8200.44138 8.65973e-18
8202.43980 8.55174e-18
8204.43821 8.47597e-18
8206.43663 8.48516e-18
8208.44513 8.55138e-18
8210.44355 8.69584e-18
8212.44196 8.82668e-18
8214.44038 8.86507e-18
8216.43879 8.81993e-18
8218.44730 8.69618e-18
8220.44571 8.53557e-18
8222.44412 8.38159e-18
8224.44254 8.30598e-18
8226.44095 8.27160e-18
8228.44946 8.28112e-18
8230.44787 8.31386e-18
8232.44629 8.37207e-18
8234.44470 8.41760e-18
8236.45321 8.42189e-18
8238.45162 8.34446e-18
8240.45004 8.22135e-18
8242.44845 8.05707e-18
8244.44686 7.88864e-18
8246.45537 7.72886e-18
8248.45378 7.61769e-18
8250.45220 7.60108e-18
8252.45061 7.67601e-18
8254.45912 7.73192e-18
8256.45753 7.58565e-18
8258.45595 7.41047e-18
8260.45436 7.29197e-18
8262.45278 7.23340e-18
8264.46128 7.22327e-18
8266.45970 7.23574e-18
8268.45811 7.23298e-18
8270.45653 7.15282e-18
8272.45494 7.09023e-18
8274.46345 7.16215e-18
8276.46186 7.25403e-18
8278.46027 7.27344e-18
8280.45869 7.18327e-18
8282.46720 7.02961e-18
8284.46561 6.83835e-18
8286.46402 6.62468e-18
8288.46244 6.38037e-18
8290.46085 6.19677e-18
8292.46936 6.16174e-18
8294.46777 6.25632e-18
8296.46619 6.46173e-18
8298.46460 6.67746e-18
8300.46301 6.76543e-18
8302.47152 6.32984e-18
8304.46994 5.86515e-18
8306.46835 5.68785e-18
8308.46676 5.73786e-18
8310.47527 5.87568e-18
8312.47368 5.99139e-18
8314.47210 6.08884e-18
8316.47051 6.10212e-18
8318.46893 6.07133e-18
8320.47743 5.97172e-18
8322.47585 5.88609e-18
8324.47426 5.90442e-18
8326.47268 6.01450e-18
8328.47109 6.11025e-18
8330.47960 6.09095e-18
8332.47801 6.04893e-18
8334.47642 6.02218e-18
8336.47484 6.04062e-18
8338.48335 6.11567e-18
8340.48176 6.28540e-18
8342.48017 6.64446e-18
8344.47859 7.15371e-18
8346.47700 7.50691e-18
8348.48551 7.09004e-18
8350.48392 6.48102e-18
8352.48234 5.88949e-18
8354.48075 5.47628e-18
8356.48926 5.29027e-18
8358.48767 5.35209e-18
8360.48609 5.49330e-18
8362.48450 5.51587e-18
8364.48291 5.52813e-18
8366.49142 5.57641e-18
8368.48983 5.61137e-18
8370.48825 5.55884e-18
8372.48666 5.44576e-18
8374.48508 5.38485e-18
8376.49358 5.49310e-18
8378.49200 5.58651e-18
8380.49041 5.42909e-18
8382.48883 5.25359e-18
8384.49733 5.28755e-18
8386.49575 5.46161e-18
8388.49416 5.52535e-18
8390.49257 5.31750e-18
8392.49099 5.11726e-18
8394.49950 5.27876e-18
8396.49791 5.50548e-18
8398.49632 5.68336e-18
8400.49474 5.73587e-18
8402.50324 5.63295e-18
8404.50166 5.38901e-18
8406.50007 5.12990e-18
8408.49849 5.01085e-18
8410.49690 5.02451e-18
8412.50541 5.32086e-18
8414.50382 5.68263e-18
8416.50224 5.94142e-18
8418.50065 5.95218e-18
8420.49906 5.75566e-18
8422.50757 5.31543e-18
8424.50598 4.91060e-18
8426.50440 4.88256e-18
8428.50281 5.05619e-18
8430.51132 5.36898e-18
8432.50973 5.65997e-18
8434.50815 5.82394e-18
8436.50656 5.72606e-18
8438.50497 5.57255e-18
8440.51348 5.54099e-18
8442.51190 5.59422e-18
8444.51031 5.77377e-18
8446.50872 6.01785e-18
8448.50714 6.28520e-18
8450.51564 6.48459e-18
8452.51406 6.57685e-18
8454.51247 6.37789e-18
8456.51089 6.18675e-18
8458.51939 6.24613e-18
8460.51781 6.45999e-18
8462.51622 6.74729e-18
8464.51464 6.95018e-18
8466.51305 6.96540e-18
8468.52156 6.57273e-18
8470.51997 6.12208e-18
8472.51839 5.87588e-18
8474.51680 5.81018e-18
8476.52531 5.95201e-18
8478.52372 6.19916e-18
8480.52213 6.42192e-18
8482.52055 6.46047e-18
8484.51896 6.44004e-18
8486.52747 6.40415e-18
8488.52588 6.38785e-18
8490.52430 6.43476e-18
8492.52271 6.53569e-18
8494.52113 6.65479e-18
8496.52963 6.76721e-18
8498.52805 6.89223e-18
8500.52646 7.06595e-18
8502.52487 7.20638e-18
8504.53338 7.26168e-18
8506.53180 7.21844e-18
8508.53021 7.05463e-18
8510.52862 6.81366e-18
8512.52704 6.57728e-18
8514.53554 6.46610e-18
8516.53396 6.44366e-18
8518.53237 6.56602e-18
8520.53079 6.73750e-18
8522.52920 6.88544e-18
8524.53771 6.96846e-18
8526.53612 7.02025e-18
8528.53454 7.05502e-18
8530.53295 7.10495e-18
8532.54146 7.24993e-18
8534.53987 7.39748e-18
8536.53828 7.47394e-18
8538.53670 7.48682e-18
8540.53511 7.48066e-18
8542.54362 7.50151e-18
8544.54203 7.55530e-18
8546.54045 7.72537e-18
8548.53886 7.88373e-18
8550.53728 7.95301e-18
8552.54578 7.92788e-18
8554.54420 7.79607e-18
8556.54261 7.62330e-18
8558.54102 7.52638e-18
8560.54953 7.71351e-18
8562.54795 7.94836e-18
8564.54636 8.09294e-18
8566.54477 8.14270e-18
8568.54319 8.08568e-18
8570.55169 7.97209e-18
8572.55011 7.87908e-18
8574.54852 7.90897e-18
8576.54694 7.98351e-18
8578.54535 8.08042e-18
8580.55386 8.17060e-18
8582.55227 8.19998e-18
8584.55069 8.21702e-18
8586.54910 8.31467e-18
8588.55761 8.55716e-18
8590.55602 8.82399e-18
8592.55443 8.96396e-18
8594.55285 9.09256e-18
8596.55126 9.29123e-18
8598.55977 9.50225e-18
8600.55818 9.63863e-18
8602.55660 9.65428e-18
8604.55501 9.62140e-18
8606.55343 9.59551e-18
8608.56193 9.57805e-18
8610.56035 9.62514e-18
8612.55876 9.66178e-18
8614.55717 9.58780e-18
8616.56568 9.41976e-18
8618.56409 9.26139e-18
8620.56251 9.23559e-18
8622.56092 9.39215e-18
8624.55934 1.00586e-17
8626.56784 1.07140e-17
8628.56626 1.08580e-17
8630.56467 1.05618e-17
8632.56309 1.02999e-17
8634.57159 1.04399e-17
8636.57001 1.06268e-17
8638.56842 1.05694e-17
8640.56684 1.04693e-17
8642.56525 1.04290e-17
8644.57376 1.04419e-17
8646.57217 1.04185e-17
8648.57058 1.03633e-17
8650.56900 1.04020e-17
8652.56741 1.07647e-17
8654.57592 1.11494e-17
8656.57433 1.13462e-17
8658.57275 1.14080e-17
8660.57116 1.14029e-17
8662.57967 1.14155e-17
8664.57808 1.14893e-17
8666.57650 1.17254e-17
8668.57491 1.19649e-17
8670.57332 1.20699e-17
8672.58183 1.20940e-17
8674.58025 1.20844e-17
8676.57866 1.20494e-17
8678.57707 1.19597e-17
8680.57549 1.18027e-17
8682.58399 1.16195e-17
8684.58241 1.14285e-17
8686.58082 1.12795e-17
8688.57924 1.12518e-17
8690.58774 1.12813e-17
8692.58616 1.12413e-17
8694.58457 1.10875e-17
8696.58299 1.09947e-17
8698.58140 1.12263e-17
8700.58991 1.15251e-17
8702.58832 1.17827e-17
8704.58673 1.19503e-17
8706.58515 1.20225e-17
8708.59366 1.19972e-17
8710.59207 1.19196e-17
8712.59048 1.18397e-17
8714.58890 1.17436e-17
8716.58731 1.15951e-17
8718.59582 1.14930e-17
8720.59423 1.15505e-17
8722.59265 1.17389e-17
8724.59106 1.19240e-17
8726.58947 1.19742e-17
8728.59798 1.19955e-17
8730.59640 1.20841e-17
8732.59481 1.21295e-17
8734.59322 1.20086e-17
8736.60173 1.18013e-17
8738.60014 1.16467e-17
8740.59856 1.16601e-17
8742.59697 1.17360e-17
8744.59539 1.18315e-17
8746.60389 1.19035e-17
8748.60231 1.18846e-17
8750.60072 1.18096e-17
8752.59914 1.17477e-17
8754.60764 1.17067e-17
8756.60606 1.16085e-17
8758.60447 1.13570e-17
8760.60288 1.10438e-17
8762.60130 1.06299e-17
8764.60981 1.03122e-17
8766.60822 1.02836e-17
8768.60663 1.05515e-17
8770.60505 1.09161e-17
8772.60346 1.11876e-17
8774.61197 1.14551e-17
8776.61038 1.17849e-17
8778.60880 1.20317e-17
8780.60721 1.20150e-17
8782.61572 1.18449e-17
8784.61413 1.17421e-17
8786.61254 1.18895e-17
8788.61096 1.20946e-17
8790.60937 1.22834e-17
8792.61788 1.23302e-17
8794.61629 1.20010e-17
8796.61471 1.15132e-17
8798.61312 1.11141e-17
8800.61154 1.10124e-17
8802.62004 1.10787e-17
8804.61846 1.13234e-17
8806.61687 1.15709e-17
8808.61529 1.16402e-17
8810.62379 1.15842e-17
8812.62221 1.14768e-17
8814.62062 1.13489e-17
8816.61903 1.11872e-17
8818.61745 1.09907e-17
8820.62596 1.06723e-17
8822.62437 9.97598e-18
8824.62278 9.29270e-18
8826.62120 8.95694e-18
8828.62970 8.97834e-18
8830.62812 9.11451e-18
8832.62653 9.17123e-18
8834.62495 9.21709e-18
8836.62336 9.13633e-18
8838.63187 9.15395e-18
8840.63028 9.55074e-18
8842.62870 1.00851e-17
8844.62711 1.03951e-17
8846.62552 1.02904e-17
8848.63403 1.01291e-17
8850.63244 1.02718e-17
8852.63086 1.04939e-17
8854.62927 1.07070e-17
8856.63778 1.09518e-17
8858.63619 1.13285e-17
8860.63461 1.17888e-17
8862.63302 1.22067e-17
8864.63144 1.24167e-17
8866.63994 1.24085e-17
8868.63836 1.19913e-17
8870.63677 1.14189e-17
8872.63518 1.08533e-17
8874.63360 1.04235e-17
8876.64211 1.00926e-17
8878.64052 9.88685e-18
8880.63893 9.73949e-18
8882.63735 9.57926e-18
8884.64585 9.43065e-18
8886.64427 9.31195e-18
8888.64268 9.19774e-18
8890.64110 9.01390e-18
8892.63951 8.78627e-18
8894.64802 8.68823e-18
8896.64643 9.02454e-18
8898.64485 9.51501e-18
8900.64326 1.01745e-17
8902.65177 1.06762e-17
8904.65018 1.06482e-17
8906.64859 1.01130e-17
8908.64701 9.60541e-18
8910.64542 9.74561e-18
8912.65393 1.02637e-17
8914.65234 1.14166e-17
8916.65076 1.26021e-17
8918.64917 1.34713e-17
8920.64759 1.36166e-17
8922.65609 1.29498e-17
8924.65451 1.13164e-17
8926.65292 9.56232e-18
8928.65133 8.72314e-18
8930.65984 8.33717e-18
8932.65826 8.30070e-18
8934.65667 8.38113e-18
8936.65508 8.45337e-18
8938.65350 8.34294e-18
8940.66200 8.20360e-18
8942.66042 8.10209e-18
8944.65883 8.08035e-18
8946.65725 8.27497e-18
8948.66575 8.52075e-18
8950.66417 8.60911e-18
8952.66258 8.47864e-18
8954.66100 8.37645e-18
8956.65941 8.59521e-18
8958.66792 8.71010e-18
8960.66633 8.22666e-18
8962.66474 7.61352e-18
8964.66316 7.28987e-18
8966.66157 7.41871e-18
8968.67008 7.76379e-18
8970.66849 8.17314e-18
8972.66691 8.57760e-18
8974.66532 8.82350e-18
8976.67383 8.93125e-18
8978.67224 8.87033e-18
8980.67066 8.69659e-18
8982.66907 8.45669e-18
8984.66748 8.23898e-18
8986.67599 8.06689e-18
8988.67441 8.08132e-18
8990.67282 8.12231e-18
8992.67123 8.12012e-18
8994.66965 8.03281e-18
8996.67815 7.80116e-18
8998.67657 7.49204e-18
9000.67498 7.31413e-18
9002.67340 7.62919e-18
9004.68190 7.97193e-18
9006.68032 7.95502e-18
9008.67873 7.79055e-18
9010.67714 7.70819e-18
9012.67556 7.80269e-18
9014.68407 7.96163e-18
9016.68248 8.12171e-18
9018.68089 8.24557e-18
9020.67931 8.21795e-18
9022.67772 8.15216e-18
9024.68623 8.13671e-18
9026.68464 8.18167e-18
9028.68306 8.23695e-18
9030.68147 8.26070e-18
9032.68998 8.24708e-18
9034.68839 8.10282e-18
9036.68681 7.98724e-18
9038.68522 8.01651e-18
9040.68363 8.17733e-18
9042.69214 8.43828e-18
9044.69056 8.71608e-18
9046.68897 8.92975e-18
9048.68738 8.91143e-18
9050.68580 8.76740e-18
9052.69430 8.44041e-18
9054.69272 8.12994e-18
9056.69113 8.02639e-18
9058.68955 8.17650e-18
9060.69805 8.39104e-18
9062.69647 8.49558e-18
9064.69488 8.52825e-18
9066.69330 8.38728e-18
9068.69171 8.22200e-18
9070.70022 8.15373e-18
9072.69863 8.20812e-18
9074.69704 8.30913e-18
9076.69546 8.40155e-18
9078.69387 8.48934e-18
9080.70238 8.54188e-18
9082.70079 8.57485e-18
9084.69921 8.59458e-18
9086.69762 8.60104e-18
9088.70613 8.58524e-18
9090.70454 8.55196e-18
9092.70296 8.52043e-18
9094.70137 8.51970e-18
9096.69978 8.53649e-18
9098.70829 8.61156e-18
9100.70671 8.65274e-18
9102.70512 8.55662e-18
9104.70353 8.30927e-18
9106.70195 8.01939e-18
9108.71045 7.79570e-18
9110.70887 7.68499e-18
9112.70728 7.88481e-18
9114.70570 8.15138e-18
9116.71420 8.28744e-18
9118.71262 8.22303e-18
9120.71103 8.05573e-18
9122.70945 7.85872e-18
9124.70786 7.71739e-18
9126.71637 7.84592e-18
9128.71478 8.03981e-18
9130.71319 8.17194e-18
9132.71161 8.22104e-18
9134.72012 8.24522e-18
9136.71853 8.27687e-18
9138.71694 8.31400e-18
9140.71536 8.37783e-18
9142.71377 8.45461e-18
9144.72228 8.51024e-18
9146.72069 8.60741e-18
9148.71911 8.85004e-18
9150.71752 9.21207e-18
9152.71593 9.53064e-18
9154.72444 9.59720e-18
9156.72286 9.51622e-18
9158.72127 9.23446e-18
9160.71968 8.90857e-18
9162.72819 8.66943e-18
9164.72660 8.56008e-18
9166.72502 8.47149e-18
9168.72343 8.33266e-18
9170.72185 8.22088e-18
9172.73035 8.20312e-18
9174.72877 8.23566e-18
9176.72718 8.29769e-18
9178.72559 8.37284e-18
9180.73410 8.46670e-18
9182.73252 8.56877e-18
9184.73093 8.66985e-18
9186.72934 8.76550e-18
9188.72776 8.82395e-18
9190.73626 8.79573e-18
9192.73468 8.72538e-18
9194.73309 8.67184e-18
9196.73151 8.66326e-18
9198.72992 8.64136e-18
9200.73843 8.53839e-18
9202.73684 8.46468e-18
9204.73526 8.51937e-18
9206.73367 8.65215e-18
9208.74218 8.83000e-18
9210.74059 8.99673e-18
9212.73901 9.12257e-18
9214.73742 9.15201e-18
9216.73583 9.18261e-18
9218.74434 9.33162e-18
9220.74275 9.50172e-18
9222.74117 9.63931e-18
9224.73958 9.70072e-18
9226.73800 9.68499e-18
9228.74650 9.58088e-18
9230.74492 9.43168e-18
9232.74333 9.25944e-18
9234.74175 9.11953e-18
9236.75025 9.08042e-18
9238.74867 9.11094e-18
9240.74708 9.16155e-18
9242.74549 9.18676e-18
9244.74391 9.20412e-18
9246.75242 9.22466e-18
9248.75083 9.16973e-18
9250.74924 8.88041e-18
9252.74766 8.55818e-18
9254.75616 8.40105e-18
9256.75458 8.48354e-18
9258.75299 8.66370e-18
9260.75141 8.83332e-18
9262.74982 8.94040e-18
9264.75833 8.81812e-18
9266.75674 8.62168e-18
9268.75516 8.45098e-18
9270.75357 8.37211e-18
9272.75198 8.35987e-18
9274.76049 8.42273e-18
9276.75890 8.53156e-18
9278.75732 8.65602e-18
9280.75573 8.80036e-18
9282.76424 8.97973e-18
9284.76265 9.15621e-18
9286.76107 9.29395e-18
9288.75948 9.36345e-18
9290.75790 9.39448e-18
9292.76640 9.35606e-18
9294.76482 9.42183e-18
9296.76323 9.66264e-18
9298.76164 1.02337e-17
9300.76006 1.14226e-17
9302.76857 1.30068e-17
9304.76698 1.44386e-17
9306.76539 1.49789e-17
9308.76381 1.48698e-17
9310.77231 1.34738e-17
9312.77073 1.20916e-17
9314.76914 1.21718e-17
9316.76756 1.33296e-17
9318.76597 1.38612e-17
9320.77448 1.22945e-17
9322.77289 1.03063e-17
9324.77131 9.06920e-18
9326.76972 8.43192e-18
9328.77823 8.71262e-18
9330.77664 9.48905e-18
9332.77505 1.02051e-17
9334.77347 1.04201e-17
9336.77188 1.06457e-17
9338.78039 1.14753e-17
9340.77880 1.21702e-17
9342.77722 1.21870e-17
9344.77563 1.17609e-17
9346.77405 1.11929e-17
9348.78255 1.07592e-17
9350.78097 1.04107e-17
9352.77938 1.02580e-17
9354.77779 1.03080e-17
9356.78630 1.08013e-17
9358.78471 1.13085e-17
9360.78313 1.14221e-17
9362.78154 1.11017e-17
9364.77996 1.06334e-17
9366.78846 1.03239e-17
9368.78688 1.03965e-17
9370.78529 1.15615e-17
9372.78371 1.30439e-17
9374.79221 1.44138e-17
9376.79063 1.53958e-17
9378.78904 1.62175e-17
9380.78746 1.66984e-17
9382.78587 1.64497e-17
9384.79438 1.42030e-17
9386.79279 1.17877e-17
9388.79120 1.03830e-17
9390.78962 9.86296e-18
9392.78803 9.66785e-18
9394.79654 9.48981e-18
9396.79495 9.48704e-18
9398.79337 9.70260e-18
9400.79178 9.81761e-18
9402.80029 9.34829e-18
9404.79870 8.74613e-18
9406.79712 8.41858e-18
9408.79553 8.54953e-18
9410.79394 8.91753e-18
9412.80245 9.39709e-18
9414.80086 9.91381e-18
9416.79928 1.03588e-17
9418.79769 1.06669e-17
9420.79611 1.06753e-17
9422.80461 1.05596e-17
9424.80303 1.06654e-17
9426.80144 1.11791e-17
9428.79986 1.15511e-17
9430.80836 1.10540e-17
9432.80678 1.01599e-17
9434.80519 8.62474e-18
9436.80361 7.32260e-18
9438.80202 7.20392e-18
9440.81053 8.61377e-18
9442.80894 1.02805e-17
9444.80735 1.07862e-17
9446.80577 1.09206e-17
9448.81428 1.08368e-17
9450.81269 1.06127e-17
9452.81110 1.02464e-17
9454.80952 9.80818e-18
9456.80793 9.27370e-18
9458.81644 8.67278e-18
9460.81485 8.23466e-18
9462.81327 8.24120e-18
9464.81168 8.61177e-18
9466.81009 9.27137e-18
9468.81860 1.02475e-17
9470.81702 1.19155e-17
9472.81543 1.41561e-17
9474.81384 1.55993e-17
9476.82235 1.36209e-17
9478.82076 1.06962e-17
9480.81918 7.90744e-18
9482.81759 5.97540e-18
9484.81601 4.87263e-18
9486.82451 4.77970e-18
9488.82293 5.25583e-18
9490.82134 5.86473e-18
9492.81976 6.72039e-18
9494.81817 7.84123e-18
9496.82668 9.06450e-18
9498.82509 1.04141e-17
9500.82350 1.15878e-17
9502.82192 1.23142e-17
9504.83043 1.21107e-17
9506.82884 1.14562e-17
9508.82725 1.04980e-17
9510.82567 9.52064e-18
9512.82408 8.60433e-18
9514.83259 8.07156e-18
9516.83100 8.12655e-18
9518.82942 9.00031e-18
9520.82783 1.00891e-17
9522.82624 1.08308e-17
9524.83475 1.12451e-17
9526.83317 1.11367e-17
9528.83158 1.06882e-17
9530.82999 1.01269e-17
9532.83850 9.70453e-18
9534.83691 9.33745e-18
9536.83533 9.06186e-18
9538.83374 8.91413e-18
9540.83216 8.90190e-18
9542.84066 9.10341e-18
9544.83908 9.72685e-18
9546.83749 1.05891e-17
9548.83591 1.12325e-17
9550.83432 1.10001e-17
9552.84283 1.04561e-17
9554.84124 9.62775e-18
9556.83965 9.08518e-18
9558.83807 9.49398e-18
9560.84658 1.06353e-17
9562.84499 1.17689e-17
9564.84340 1.20361e-17
9566.84182 1.15311e-17
9568.84023 9.28740e-18
9570.84874 6.87436e-18
9572.84715 5.32256e-18
9574.84557 4.98670e-18
9576.84398 5.60139e-18
9578.84239 6.88803e-18
9580.85090 8.29439e-18
9582.84931 8.75820e-18
9584.84773 8.94636e-18
9586.84614 9.01737e-18
9588.85465 9.07602e-18
9590.85306 9.12261e-18
9592.85148 9.20692e-18
9594.84989 9.29955e-18
9596.84831 9.40087e-18
9598.85681 9.48181e-18
9600.85523 9.54278e-18
9602.85364 9.52144e-18
9604.85206 9.32135e-18
9606.86056 9.00216e-18
9608.85898 8.70712e-18
9610.85739 8.60782e-18
9612.85580 8.61348e-18
9614.85422 8.71240e-18
9616.86273 8.89570e-18
9618.86114 9.21491e-18
9620.85955 9.55561e-18
9622.85797 9.81491e-18
9624.85638 9.85561e-18
9626.86489 9.73994e-18
9628.86330 9.38543e-18
9630.86172 8.99133e-18
9632.86013 8.68374e-18
9634.86864 8.49623e-18
9636.86705 8.41281e-18
9638.86547 8.40395e-18
9640.86388 8.40445e-18
9642.86229 8.30050e-18
9644.87080 8.20729e-18
9646.86921 8.18336e-18
9648.86763 8.23819e-18
9650.86604 8.38900e-18
9652.86446 8.60340e-18
9654.87296 8.82591e-18
9656.87138 8.98137e-18
9658.86979 9.11384e-18
9660.86821 9.27983e-18
9662.87671 9.37342e-18
9664.87513 9.25871e-18
9666.87354 9.01590e-18
9668.87195 8.79728e-18
9670.87037 8.76681e-18
9672.87888 8.84916e-18
9674.87729 9.16357e-18
9676.87570 9.41734e-18
9678.87412 9.39117e-18
9680.88262 9.08940e-18
9682.88104 8.55741e-18
9684.87945 7.94192e-18
9686.87787 7.42150e-18
9688.87628 7.36607e-18
9690.88479 7.46401e-18
9692.88320 7.58144e-18
9694.88162 7.69566e-18
9696.88003 7.84255e-18
9698.87844 7.99162e-18
9700.88695 8.10546e-18
9702.88536 8.12607e-18
9704.88378 8.14180e-18
9706.88219 8.22429e-18
9708.89070 8.35468e-18
9710.88911 8.58817e-18
9712.88753 8.79567e-18
9714.88594 8.80040e-18
9716.88436 8.43672e-18
9718.89286 7.98895e-18
9720.89128 7.75113e-18
9722.88969 7.57342e-18
9724.88810 7.38905e-18
9726.89661 7.20561e-18
9728.89503 7.01497e-18
9730.89344 6.89067e-18
9732.89185 6.96760e-18
9734.89027 7.58950e-18
9736.89877 8.28342e-18
9738.89719 8.77050e-18
9740.89560 9.02058e-18
9742.89402 9.06768e-18
9744.89243 8.97145e-18
9746.90094 8.80610e-18
9748.89935 8.68558e-18
9750.89776 8.67493e-18
9752.89618 9.09184e-18
9754.90469 9.46230e-18
9756.90310 9.27987e-18
9758.90151 8.61906e-18
9760.89993 8.00253e-18
9762.89834 7.90949e-18
9764.90685 7.96348e-18
9766.90526 7.94411e-18
9768.90368 7.96357e-18
9770.90209 8.13069e-18
9772.90051 8.34764e-18
9774.90901 8.46732e-18
9776.90743 8.38709e-18
9778.90584 8.26058e-18
9780.90425 8.21945e-18
9782.91276 8.23834e-18
9784.91118 8.42325e-18
9786.90959 8.59903e-18
9788.90800 8.54801e-18
9790.90642 8.23018e-18
9792.91492 7.92388e-18
9794.91334 7.95599e-18
9796.91175 7.98924e-18
9798.91017 7.80240e-18
9800.91867 7.46500e-18
9802.91709 6.93096e-18
9804.91550 6.43508e-18
9806.91392 6.28983e-18
9808.91233 6.85855e-18
9810.92084 7.50578e-18
9812.91925 7.56158e-18
9814.91766 7.42380e-18
9816.91608 7.30627e-18
9818.91449 7.30594e-18
9820.92300 7.36258e-18
9822.92141 7.48261e-18
9824.91983 7.65748e-18
9826.91824 7.99717e-18
9828.92675 8.20709e-18
9830.92516 7.95199e-18
9832.92358 7.48708e-18
9834.92199 7.15394e-18
9836.92040 7.15744e-18
9838.92891 7.24807e-18
9840.92733 7.24861e-18
9842.92574 7.24338e-18
9844.92415 7.25408e-18
9846.92257 7.25492e-18
9848.93107 7.19065e-18
9850.92949 7.10279e-18
9852.92790 7.10277e-18
9854.92632 7.31230e-18
9856.93482 7.50795e-18
9858.93324 7.37809e-18
9860.93165 7.24289e-18
9862.93007 7.36569e-18
9864.92848 7.74716e-18
9866.93699 8.26386e-18
9868.93540 8.73365e-18
9870.93381 8.98185e-18
9872.93223 8.48071e-18
9874.94074 7.79665e-18
9876.93915 7.15182e-18
9878.93756 6.77143e-18
9880.93598 6.78555e-18
9882.93439 7.19150e-18
9884.94290 7.60323e-18
9886.94131 7.42718e-18
9888.93973 7.29557e-18
9890.93814 7.73964e-18
9892.93655 8.36629e-18
9894.94506 8.73018e-18
9896.94348 8.67586e-18
9898.94189 8.53157e-18
9900.94030 8.54965e-18
9902.94881 8.53741e-18
9904.94722 8.33341e-18
9906.94564 8.11764e-18
9908.94405 8.09453e-18
9910.94247 8.18645e-18
9912.95097 8.12444e-18
9914.94939 7.72356e-18
9916.94780 7.35597e-18
9918.94621 7.52635e-18
9920.95472 7.78780e-18
9922.95314 7.85388e-18
9924.95155 7.77002e-18
9926.94996 7.71176e-18
9928.94838 7.80962e-18
9930.95689 8.01235e-18
9932.95530 8.34148e-18
9934.95371 8.77870e-18
9936.95213 9.40996e-18
9938.95054 1.00314e-17
9940.95905 1.04587e-17
9942.95746 1.05998e-17
9944.95588 1.06163e-17
9946.95429 1.06312e-17
9948.96280 1.05935e-17
9950.96121 1.05468e-17
9952.95963 1.03943e-17
9954.95804 1.00005e-17
9956.95645 9.44096e-18
9958.96496 8.97417e-18
9960.96337 8.76851e-18
9962.96179 8.29076e-18
9964.96020 6.38238e-18
9966.95862 4.64175e-18
9968.96712 4.48958e-18
9970.96554 5.42922e-18
9972.96395 6.10455e-18
9974.96236 5.73007e-18
9976.97087 5.47324e-18
9978.96929 6.78308e-18
9980.96770 8.12033e-18
9982.96611 8.60315e-18
9984.96453 8.34987e-18
9986.97304 7.58134e-18
9988.97145 6.73581e-18
9990.96986 6.18453e-18
9992.96828 6.68430e-18
9994.97678 7.42331e-18
9996.97520 8.00011e-18
9998.97361 8.25342e-18
10000.97203 7.91009e-18
10002.97044 7.24043e-18
