# wavelength flux
3491.03749 2.08766e-17
3493.91400 1.78911e-17
3496.80059 1.38992e-17
3499.67710 1.70171e-17
3502.56370 1.11947e-17
3505.44020 1.20207e-17
3508.32680 1.65658e-17
3511.20331 9.77539e-18
3514.08990 1.24030e-17
3516.96641 1.76183e-17
3519.84291 1.86634e-17
3522.72951 1.95058e-17
3525.60602 2.12829e-17
3528.49261 1.49925e-17
3531.36912 1.44488e-17
3534.25572 2.46575e-17
3537.13222 2.34494e-17
3540.00873 1.63153e-17
3542.89533 1.82067e-17
3545.77183 1.69173e-17
3548.65843 1.39945e-17
3551.53493 1.52493e-17
3554.42153 1.95931e-17
3557.29804 2.00916e-17
3560.18463 1.32335e-17
3563.06114 1.23292e-17
3565.93764 1.29002e-17
3568.82424 1.45777e-17
3571.70075 1.72022e-17
3574.58735 1.75103e-17
3577.46385 1.56038e-17
3580.35045 1.31159e-17
3583.22695 1.34402e-17
3586.10346 1.00327e-17
3588.99006 9.34874e-18
3591.86656 1.16006e-17
3594.75316 1.17640e-17
3597.62966 1.19000e-17
3600.51626 1.06769e-17
3603.39277 1.35189e-17
3606.27937 1.28916e-17
3609.15587 6.86021e-18
3612.03238 1.00897e-17
3614.91897 1.41789e-17
3617.79548 1.20196e-17
3620.68208 1.29209e-17
3623.55858 1.29625e-17
3626.44518 1.24446e-17
3629.32168 1.67558e-17
3632.19819 1.70929e-17
3635.08479 1.44913e-17
3637.96129 1.59145e-17
3640.84789 1.45904e-17
3643.72440 1.10670e-17
3646.61099 1.18593e-17
3649.48750 1.35068e-17
3652.37410 1.24700e-17
3655.25060 1.02151e-17
3658.12711 9.84402e-18
3661.01370 1.17539e-17
3663.89021 1.15857e-17
3666.77681 1.20939e-17
3669.65331 1.47625e-17
3672.53991 1.36775e-17
3675.41642 1.30141e-17
3678.29292 1.54001e-17
3681.17952 1.45206e-17
3684.05602 1.16846e-17
3686.94262 1.51703e-17
3689.81913 1.83315e-17
3692.70572 1.51129e-17
3695.58223 1.31137e-17
3698.46883 1.28035e-17
3701.34533 1.04310e-17
3704.22184 1.05388e-17
3707.10844 1.59038e-17
3709.98494 1.76699e-17
3712.87154 1.31689e-17
3715.74804 8.58651e-18
3718.63464 1.00882e-17
3721.51115 1.35577e-17
3724.38765 1.21795e-17
3727.27425 1.13134e-17
3730.15075 1.17486e-17
3733.03735 1.14733e-17
3735.91386 1.02785e-17
3738.80046 9.98939e-18
3741.67696 1.08429e-17
3744.56356 9.28238e-18
3747.44006 8.64076e-18
3750.31657 7.51905e-18
3753.20317 5.54852e-18
3756.07967 5.50622e-18
3758.96627 4.85247e-18
3761.84277 3.66820e-18
3764.72937 4.45521e-18
3767.60588 5.80829e-18
3770.48238 6.79377e-18
3773.36898 7.26678e-18
3776.24548 6.62825e-18
3779.13208 5.92029e-18
3782.00859 5.55426e-18
3784.89519 6.57797e-18
3787.77169 5.90571e-18
3790.65829 4.82865e-18
3793.53479 5.24961e-18
3796.41130 6.43575e-18
3799.29790 7.60640e-18
3802.17440 7.69987e-18
3805.06100 7.19228e-18
3807.93751 7.77167e-18
3810.82410 7.79239e-18
3813.70061 8.43659e-18
3816.57711 9.18967e-18
3819.46371 8.75714e-18
3822.34022 8.87160e-18
3825.22681 7.84364e-18
3828.10332 7.57500e-18
3830.98992 7.73111e-18
3833.86642 5.74856e-18
3836.75302 5.21956e-18
3839.62953 6.57312e-18
3842.50603 7.28636e-18
3845.39263 8.65112e-18
3848.26913 8.28759e-18
3851.15573 7.38788e-18
3854.03224 8.54675e-18
3856.91883 8.88652e-18
3859.79534 8.66076e-18
3862.67184 1.05351e-17
3865.55844 1.09448e-17
3868.43495 9.46104e-18
3871.32155 1.05318e-17
3874.19805 1.19937e-17
3877.08465 1.15320e-17
3879.96115 1.17045e-17
3882.84775 1.24490e-17
3885.72426 1.21942e-17
3888.60076 1.12966e-17
3891.48736 1.25152e-17
3894.36386 1.55289e-17
3897.25046 1.69542e-17
3900.12697 1.69969e-17
3903.01357 1.72288e-17
3905.89007 1.73985e-17
3908.76658 1.65648e-17
3911.65317 1.66991e-17
3914.52968 1.73649e-17
3917.41628 1.77933e-17
3920.29278 1.85743e-17
3923.17938 1.89055e-17
3926.05588 1.91817e-17
3928.94248 1.89815e-17
3931.81899 1.90657e-17
3934.69549 1.97206e-17
3937.58209 1.92463e-17
3940.45860 1.81833e-17
3943.34519 1.88782e-17
3946.22170 2.11770e-17
3949.10830 2.22048e-17
3951.98480 2.20760e-17
3954.86131 2.27367e-17
3957.74790 2.25257e-17
3960.62441 2.15146e-17
3963.51101 2.09756e-17
3966.38751 2.04687e-17
3969.27411 2.15915e-17
3972.15062 2.39961e-17
3975.03721 2.31373e-17
3977.91372 2.11636e-17
3980.79022 2.16090e-17
3983.67682 2.44280e-17
3986.55333 2.50702e-17
3989.43992 2.32753e-17
3992.31643 2.42746e-17
3995.20303 2.42335e-17
3998.07953 2.33481e-17
4000.95604 2.35205e-17
4003.84263 2.35734e-17
4006.71914 2.41449e-17
4009.60574 2.52500e-17
4012.48224 2.50543e-17
4015.36884 2.33490e-17
4018.24535 2.28175e-17
4021.12185 2.30825e-17
4024.00845 2.33341e-17
4026.88495 2.31722e-17
4029.77155 2.13094e-17
4032.64806 2.14547e-17
4035.53466 2.22919e-17
4038.41116 2.15480e-17
4041.29776 2.22797e-17
4044.17426 2.27775e-17
4047.05077 2.11185e-17
4049.93737 1.95625e-17
4052.81387 1.91016e-17
4055.70047 1.92620e-17
4058.57697 1.97165e-17
4061.46357 2.03113e-17
4064.34008 2.06285e-17
4067.21658 2.07795e-17
4070.10318 1.97314e-17
4072.97969 1.93763e-17
4075.86628 1.93836e-17
4078.74279 1.84267e-17
4081.62939 1.86885e-17
4084.50589 1.93185e-17
4087.39249 1.90917e-17
4090.26899 1.82574e-17
4093.14550 1.83025e-17
4096.03210 1.85470e-17
4098.90860 1.86109e-17
4101.79520 1.85405e-17
4104.67171 1.78870e-17
4107.55830 1.83020e-17
4110.43481 1.81893e-17
4113.31131 1.65921e-17
4116.19791 1.49688e-17
4119.07442 1.55657e-17
4121.96101 1.69086e-17
4124.83752 1.66373e-17
4127.72412 1.64296e-17
4130.60062 1.51130e-17
4133.48722 1.52858e-17
4136.36373 1.63963e-17
4139.24023 1.65445e-17
4142.12683 1.70605e-17
4145.00333 1.66532e-17
4147.88993 1.64264e-17
4150.76644 1.65488e-17
4153.65303 1.66936e-17
4156.52954 1.68315e-17
4159.40604 1.69684e-17
4162.29264 1.71218e-17
4165.16915 1.72016e-17
4168.05574 1.67662e-17
4170.93225 1.67459e-17
4173.81885 1.69470e-17
4176.69535 1.59336e-17
4179.58195 1.57607e-17
4182.45846 1.69614e-17
4185.33496 1.69476e-17
4188.22156 1.60804e-17
4191.09806 1.58986e-17
4193.98466 1.59189e-17
4196.86117 1.64958e-17
4199.74777 1.73533e-17
4202.62427 1.71843e-17
4205.50078 1.67421e-17
4208.38737 1.77692e-17
4211.26388 1.82933e-17
4214.15048 1.79037e-17
4217.02698 1.73089e-17
4219.91358 1.62785e-17
4222.79008 1.62472e-17
4225.67668 1.65369e-17
4228.55319 1.62905e-17
4231.42969 1.77424e-17
4234.31629 1.91989e-17
4237.19279 1.72930e-17
4240.07939 1.55030e-17
4242.95590 1.63384e-17
4245.84250 1.67747e-17
4248.71900 1.56352e-17
4251.59551 1.57962e-17
4254.48210 1.64607e-17
4257.35861 1.57049e-17
4260.24521 1.48291e-17
4263.12171 1.41344e-17
4266.00831 1.39922e-17
4268.88482 1.44359e-17
4271.77141 1.51869e-17
4274.64792 1.57939e-17
4277.52442 1.58735e-17
4280.41102 1.56092e-17
4283.28753 1.48508e-17
4286.17412 1.53630e-17
4289.05063 1.55121e-17
4291.93723 1.41349e-17
4294.81373 1.26457e-17
4297.69024 1.28947e-17
4300.57683 1.39002e-17
4303.45334 1.33183e-17
4306.33994 1.33646e-17
4309.21644 1.40105e-17
4312.10304 1.49709e-17
4314.97955 1.64988e-17
4317.86614 1.62597e-17
4320.74265 1.41624e-17
4323.61915 1.31240e-17
4326.50575 1.29317e-17
4329.38226 1.25438e-17
4332.26886 1.18739e-17
4335.14536 1.18031e-17
4338.03196 1.17190e-17
4340.90846 1.24559e-17
4343.79506 1.34672e-17
4346.67157 1.26468e-17
4349.54807 1.24562e-17
4352.43467 1.26477e-17
4355.31117 1.21099e-17
4358.19777 1.26379e-17
4361.07428 1.31187e-17
4363.96088 1.23599e-17
4366.83738 1.15848e-17
4369.71389 1.18226e-17
4372.60048 1.27800e-17
4375.47699 1.33271e-17
4378.36359 1.28859e-17
4381.24009 1.21086e-17
4384.12669 1.12560e-17
4387.00319 1.08712e-17
4389.88979 1.10686e-17
4392.76630 1.21145e-17
4395.64280 1.18773e-17
4398.52940 1.08876e-17
4401.40591 1.18734e-17
4404.29250 1.24243e-17
4407.16901 1.27349e-17
4410.05561 1.25834e-17
4412.93211 1.26101e-17
4415.80862 1.28750e-17
4418.69521 1.32996e-17
4421.57172 1.34957e-17
4424.45832 1.32075e-17
4427.33482 1.24393e-17
4430.22142 1.22301e-17
4433.09793 1.22418e-17
4435.97443 1.26438e-17
4438.86103 1.33860e-17
4441.73753 1.37843e-17
4444.62413 1.44034e-17
4447.50064 1.40242e-17
4450.38723 1.26430e-17
4453.26374 1.24935e-17
4456.15034 1.35373e-17
4459.02684 1.43533e-17
4461.90335 1.47741e-17
4464.78995 1.46501e-17
4467.66645 1.44831e-17
4470.55305 1.52430e-17
4473.42955 1.49665e-17
4476.31615 1.45705e-17
4479.19266 1.52401e-17
4482.06916 1.58074e-17
4484.95576 1.57228e-17
4487.83226 1.53712e-17
4490.71886 1.55377e-17
4493.59537 1.56878e-17
4496.48197 1.63161e-17
4499.35847 1.74216e-17
4502.24507 1.71828e-17
4505.12157 1.72472e-17
4507.99808 1.76104e-17
4510.88468 1.70843e-17
4513.76118 1.70571e-17
4516.64778 1.75301e-17
4519.52428 1.79737e-17
4522.41088 1.83005e-17
4525.28739 1.88386e-17
4528.16389 1.88919e-17
4531.05049 1.89879e-17
4533.92699 2.00054e-17
4536.81359 2.03890e-17
4539.69010 2.02926e-17
4542.57670 2.02081e-17
4545.45320 1.95733e-17
4548.33980 1.98578e-17
4551.21630 1.97527e-17
4554.09281 1.99942e-17
4556.97941 2.03882e-17
4559.85591 2.04944e-17
4562.74251 2.06620e-17
4565.61902 2.06752e-17
4568.50561 2.09083e-17
4571.38212 2.17761e-17
4574.25862 2.19104e-17
4577.14522 2.14317e-17
4580.02173 2.11140e-17
4582.90832 2.09761e-17
4585.78483 2.19349e-17
4588.67143 2.23937e-17
4591.54793 2.19425e-17
4594.43453 2.20910e-17
4597.31104 2.26197e-17
4600.18754 2.28667e-17
4603.07414 2.31206e-17
4605.95064 2.40919e-17
4608.83724 2.37026e-17
4611.71375 2.22781e-17
4614.60034 2.19253e-17
4617.47685 2.22706e-17
4620.35335 2.24925e-17
4623.23995 2.19593e-17
4626.11646 2.09314e-17
4629.00306 2.04954e-17
4631.87956 2.07158e-17
4634.76616 2.14304e-17
4637.64266 2.15777e-17
4640.52926 2.07024e-17
4643.40577 2.00273e-17
4646.28227 2.05501e-17
4649.16887 2.13597e-17
4652.04537 2.08015e-17
4654.93197 2.02250e-17
4657.80848 2.07543e-17
4660.69508 2.07757e-17
4663.57158 1.98754e-17
4666.44808 1.98556e-17
4669.33468 1.96432e-17
4672.21119 1.99109e-17
4675.09779 2.00069e-17
4677.97429 1.90821e-17
4680.86089 1.86267e-17
4683.73739 1.84010e-17
4686.62399 1.88463e-17
4689.50050 1.90697e-17
4692.37700 1.90184e-17
4695.26360 1.89394e-17
4698.14011 1.82144e-17
4701.02670 1.68493e-17
4703.90321 1.54824e-17
4706.78981 1.55095e-17
4709.66631 1.71009e-17
4712.54282 1.80732e-17
4715.42941 1.75137e-17
4718.30592 1.68771e-17
4721.19252 1.66195e-17
4724.06902 1.64325e-17
4726.95562 1.76780e-17
4729.83213 1.81136e-17
4732.70863 1.65114e-17
4735.59523 1.54092e-17
4738.47173 1.56703e-17
4741.35833 1.58279e-17
4744.23484 1.56157e-17
4747.12143 1.54173e-17
4749.99794 1.57281e-17
4752.88454 1.57675e-17
4755.76104 1.47260e-17
4758.63755 1.43780e-17
4761.52415 1.47036e-17
4764.40065 1.51045e-17
4767.28725 1.53381e-17
4770.16375 1.49378e-17
4773.05035 1.43148e-17
4775.92686 1.44798e-17
4778.80336 1.44255e-17
4781.68996 1.35172e-17
4784.56646 1.37450e-17
4787.45306 1.42127e-17
4790.32957 1.37282e-17
4793.21617 1.35250e-17
4796.09267 1.37716e-17
4798.97927 1.34052e-17
4801.85577 1.28672e-17
4804.73228 1.28633e-17
4807.61888 1.28327e-17
4810.49538 1.25817e-17
4813.38198 1.25554e-17
4816.25848 1.28392e-17
4819.14508 1.26883e-17
4822.02159 1.27145e-17
4824.89809 1.30419e-17
4827.78469 1.32755e-17
4830.66119 1.36734e-17
4833.54779 1.36192e-17
4836.42430 1.29628e-17
4839.31090 1.23480e-17
4842.18740 1.21168e-17
4845.07400 1.21765e-17
4847.95050 1.26698e-17
4850.82701 1.33087e-17
4853.71361 1.40450e-17
4856.59011 1.40467e-17
4859.47671 1.34174e-17
4862.35322 1.35295e-17
4865.23981 1.36307e-17
4868.11632 1.30491e-17
4871.00292 1.24180e-17
4873.87942 1.23071e-17
4876.75593 1.25295e-17
4879.64252 1.24696e-17
4882.51903 1.23870e-17
4885.40563 1.23063e-17
4888.28213 1.30769e-17
4891.16873 1.38956e-17
4894.04524 1.34828e-17
4896.92174 1.26376e-17
4899.80834 1.23276e-17
4902.68484 1.29361e-17
4905.57144 1.31545e-17
4908.44795 1.35585e-17
4911.33454 1.50286e-17
4914.21105 1.57247e-17
4917.09765 1.51970e-17
4919.97415 1.48597e-17
4922.85066 1.51641e-17
4925.73726 1.60205e-17
4928.61376 1.62745e-17
4931.50036 1.59034e-17
4934.37686 1.60810e-17
4937.26346 1.60761e-17
4940.13997 1.64061e-17
4943.01647 1.70249e-17
4945.90307 1.62912e-17
4948.77957 1.53408e-17
4951.66617 1.58092e-17
4954.54268 1.62757e-17
4957.42928 1.64137e-17
4960.30578 1.68280e-17
4963.19238 1.68128e-17
4966.06888 1.63284e-17
4968.94539 1.63003e-17
4971.83199 1.67562e-17
4974.70849 1.68751e-17
4977.59509 1.65051e-17
4980.47159 1.66642e-17
4983.35819 1.73774e-17
4986.23470 1.68544e-17
4989.11120 1.57717e-17
4991.99780 1.60462e-17
4994.87431 1.62688e-17
4997.76090 1.52539e-17
5000.63741 1.45826e-17
5003.52401 1.51457e-17
5006.40051 1.55777e-17
5009.27702 1.53261e-17
5012.16361 1.53366e-17
5015.04012 1.55315e-17
5017.92672 1.46950e-17
5020.80322 1.45303e-17
5023.68982 1.51414e-17
5026.56633 1.45737e-17
5029.45292 1.36440e-17
5032.32943 1.37297e-17
5035.20593 1.35850e-17
5038.09253 1.36926e-17
5040.96904 1.38096e-17
5043.85563 1.32453e-17
5046.73214 1.18488e-17
5049.61874 1.15039e-17
5052.49524 1.23991e-17
5055.37175 1.37735e-17
5058.25835 1.42795e-17
5061.13485 1.36826e-17
5064.02145 1.32678e-17
5066.89795 1.33618e-17
5069.78455 1.36414e-17
5072.66106 1.39473e-17
5075.54765 1.46924e-17
5078.42416 1.46190e-17
5081.30066 1.38540e-17
5084.18726 1.43587e-17
5087.06377 1.51415e-17
5089.95037 1.52907e-17
5092.82687 1.56181e-17
5095.71347 1.54456e-17
5098.58997 1.50443e-17
5101.47657 1.56181e-17
5104.35308 1.60801e-17
5107.22958 1.55494e-17
5110.11618 1.48349e-17
5112.99268 1.45958e-17
5115.87928 1.48900e-17
5118.75579 1.56282e-17
5121.64239 1.57923e-17
5124.51889 1.56344e-17
5127.39540 1.60650e-17
5130.28199 1.62334e-17
5133.15850 1.51982e-17
5136.04510 1.51992e-17
5138.92160 1.67171e-17
5141.80820 1.67706e-17
5144.68470 1.61761e-17
5147.56121 1.61810e-17
5150.44781 1.57986e-17
5153.32431 1.59661e-17
5156.21091 1.61506e-17
5159.08742 1.63371e-17
5161.97401 1.65379e-17
5164.85052 1.61805e-17
5167.73712 1.57348e-17
5170.61362 1.61901e-17
5173.49013 1.67376e-17
5176.37672 1.67465e-17
5179.25323 1.64619e-17
5182.13983 1.63749e-17
5185.01633 1.63902e-17
5187.90293 1.64732e-17
5190.77944 1.65800e-17
5193.65594 1.64549e-17
5196.54254 1.69348e-17
5199.41904 1.78758e-17
5202.30564 1.79037e-17
5205.18215 1.69758e-17
5208.06874 1.70607e-17
5210.94525 1.82603e-17
5213.83185 1.83759e-17
5216.70835 1.70851e-17
5219.58486 1.74108e-17
5222.47146 1.84536e-17
5225.34796 1.84368e-17
5228.23456 1.84640e-17
5231.11106 1.92977e-17
5233.99766 1.92384e-17
5236.87417 1.91383e-17
5239.75067 1.89541e-17
5242.63727 1.89761e-17
5245.51377 1.96983e-17
5248.40037 2.03007e-17
5251.27688 2.02956e-17
5254.16348 1.90421e-17
5257.03998 1.87271e-17
5259.92658 1.96305e-17
5262.80308 2.03697e-17
5265.67959 2.07965e-17
5268.56619 2.11391e-17
5271.44269 2.12169e-17
5274.32929 2.07761e-17
5277.20579 2.03947e-17
5280.09239 2.04393e-17
5282.96890 2.05256e-17
5285.85549 1.99071e-17
5288.73200 2.00156e-17
5291.60851 2.09968e-17
5294.49510 2.10040e-17
5297.37161 2.15559e-17
5300.25821 2.19011e-17
5303.13471 2.14690e-17
5306.02131 2.14060e-17
5308.89781 2.19559e-17
5311.77432 2.21385e-17
5314.66092 2.18769e-17
5317.53742 2.19005e-17
5320.42402 2.18334e-17
5323.30053 2.19531e-17
5326.18712 2.17146e-17
5329.06363 2.09769e-17
5331.94013 2.04696e-17
5334.82673 2.12115e-17
5337.70324 2.18083e-17
5340.58983 2.20299e-17
5343.46634 2.24246e-17
5346.35294 2.25004e-17
5349.22944 2.20428e-17
5352.11604 2.08657e-17
5354.99255 2.01652e-17
5357.86905 2.06625e-17
5360.75565 2.14179e-17
5363.63215 2.14285e-17
5366.51875 2.13794e-17
5369.39526 2.11877e-17
5372.28185 2.10679e-17
5375.15836 2.15082e-17
5378.03486 2.14998e-17
5380.92146 2.04223e-17
5383.79797 2.06390e-17
5386.68457 2.11802e-17
5389.56107 2.12962e-17
5392.44767 2.09425e-17
5395.32417 2.07159e-17
5398.21077 2.03732e-17
5401.08728 2.09032e-17
5403.96378 2.16549e-17
5406.85038 2.14352e-17
5409.72688 2.06997e-17
5412.61348 2.07265e-17
5415.48999 2.14711e-17
5418.37658 2.15394e-17
5421.25309 2.14776e-17
5424.12960 2.16020e-17
5427.01619 2.12219e-17
5429.89270 2.06254e-17
5432.77930 2.04282e-17
5435.65580 2.10524e-17
5438.54240 2.14012e-17
5441.41890 2.14335e-17
5444.30550 2.15123e-17
5447.18201 2.11517e-17
5450.05851 2.10244e-17
5452.94511 2.11425e-17
5455.82162 2.17082e-17
5458.70821 2.18729e-17
5461.58472 2.18846e-17
5464.47132 2.16831e-17
5467.34782 2.08107e-17
5470.22433 2.03311e-17
5473.11092 2.04490e-17
5475.98743 2.07647e-17
5478.87403 2.12788e-17
5481.75053 2.13878e-17
5484.63713 2.06899e-17
5487.51364 2.03305e-17
5490.40023 2.08720e-17
5493.27674 2.10574e-17
5496.15324 2.07930e-17
5499.03984 2.07134e-17
5501.91635 2.05562e-17
5504.80294 2.02019e-17
5507.67945 2.01628e-17
5510.56605 1.97241e-17
5513.44255 1.94889e-17
5516.31906 2.00568e-17
5519.20566 1.98920e-17
5522.08216 1.93977e-17
5524.96876 1.94648e-17
5527.84526 1.96646e-17
5530.73186 1.92427e-17
5533.60837 1.87543e-17
5536.49496 1.88981e-17
5539.37147 1.92811e-17
5542.24797 1.90126e-17
5545.13457 1.85542e-17
5548.01108 1.85656e-17
5550.89768 1.84567e-17
5553.77418 1.87206e-17
5556.66078 1.94017e-17
5559.53728 1.92562e-17
5562.41379 1.81479e-17
5565.30039 1.79029e-17
5568.17689 1.86398e-17
5571.06349 1.88634e-17
5573.93999 1.80494e-17
5576.82659 1.77465e-17
5579.70310 1.86973e-17
5582.58969 1.89127e-17
5585.46620 1.90416e-17
5588.34271 1.90496e-17
5591.22930 1.89196e-17
5594.10581 1.83944e-17
5596.99241 1.72767e-17
5599.86891 1.69607e-17
5602.75551 1.74867e-17
5605.63201 1.75856e-17
5608.50852 1.75292e-17
5611.39512 1.77783e-17
5614.27162 1.73188e-17
5617.15822 1.70747e-17
5620.03473 1.73412e-17
5622.92132 1.67447e-17
5625.79783 1.60607e-17
5628.68443 1.58747e-17
5631.56093 1.54810e-17
5634.43744 1.49191e-17
5637.32403 1.46229e-17
5640.20054 1.45416e-17
5643.08714 1.44629e-17
5645.96364 1.38369e-17
5648.85024 1.31492e-17
5651.72674 1.31445e-17
5654.60325 1.30777e-17
5657.48985 1.22385e-17
5660.36635 1.16746e-17
5663.25295 1.18594e-17
5666.12946 1.19770e-17
5669.01605 1.20989e-17
5671.89256 1.17007e-17
5674.77916 1.08399e-17
5677.65566 1.06894e-17
5680.53217 1.08315e-17
5683.41877 1.11812e-17
5686.29527 1.07173e-17
5689.18187 1.03076e-17
5692.05837 1.05987e-17
5694.94497 1.06390e-17
5697.82148 1.06418e-17
5700.69798 1.09901e-17
5703.58458 1.09153e-17
5706.46108 1.07073e-17
5709.34768 1.06315e-17
5712.22419 1.09551e-17
5715.11078 1.14709e-17
5717.98729 1.12674e-17
5720.87389 1.10885e-17
5723.75039 1.10676e-17
5726.62690 1.09085e-17
5729.51350 1.08962e-17
5732.39000 1.14709e-17
5735.27660 1.15404e-17
5738.15310 1.11703e-17
5741.03970 1.18768e-17
5743.91621 1.26687e-17
5746.79271 1.24385e-17
5749.67931 1.25808e-17
5752.55582 1.29704e-17
5755.44241 1.29988e-17
5758.31892 1.30603e-17
5761.20552 1.34781e-17
5764.08202 1.37272e-17
5766.95853 1.34749e-17
5769.84512 1.36626e-17
5772.72163 1.40501e-17
5775.60823 1.37754e-17
5778.48473 1.40303e-17
5781.37133 1.50117e-17
5784.24784 1.55167e-17
5787.13443 1.57351e-17
5790.01094 1.54938e-17
5792.88744 1.51454e-17
5795.77404 1.58215e-17
5798.65055 1.67533e-17
5801.53714 1.73592e-17
5804.41365 1.72992e-17
5807.30025 1.68009e-17
5810.17675 1.64401e-17
5813.06335 1.65398e-17
5815.93986 1.70190e-17
5818.81636 1.69579e-17
5821.70296 1.63804e-17
5824.57946 1.63392e-17
5827.46606 1.70314e-17
5830.34257 1.78891e-17
5833.22916 1.77876e-17
5836.10567 1.77312e-17
5838.98217 1.77409e-17
5841.86877 1.72260e-17
5844.74528 1.74731e-17
5847.63188 1.79641e-17
5850.50838 1.79204e-17
5853.39498 1.73358e-17
5856.27148 1.72835e-17
5859.15808 1.77860e-17
5862.03459 1.77243e-17
5864.91109 1.80467e-17
5867.79769 1.88843e-17
5870.67419 1.87034e-17
5873.56079 1.81483e-17
5876.43730 1.79712e-17
5879.32390 1.81027e-17
5882.20040 1.84805e-17
5885.07691 1.82073e-17
5887.96350 1.77052e-17
5890.84001 1.79107e-17
5893.72661 1.83815e-17
5896.60311 1.80236e-17
5899.48971 1.81697e-17
5902.36621 1.82669e-17
5905.24272 1.80540e-17
5908.12932 1.82107e-17
5911.00582 1.83572e-17
5913.89242 1.85376e-17
5916.76893 1.85532e-17
5919.65552 1.81266e-17
5922.53203 1.78305e-17
5925.41863 1.81920e-17
5928.29513 1.88130e-17
5931.17164 1.86076e-17
5934.05823 1.85940e-17
5936.93474 1.86359e-17
5939.82134 1.83051e-17
5942.69784 1.79501e-17
5945.58444 1.76898e-17
5948.46094 1.71971e-17
5951.33745 1.70921e-17
5954.22405 1.74442e-17
5957.10055 1.74244e-17
5959.98715 1.75753e-17
5962.86366 1.76596e-17
5965.75025 1.70119e-17
5968.62676 1.71532e-17
5971.51336 1.78796e-17
5974.38986 1.78973e-17
5977.26637 1.75669e-17
5980.15297 1.71467e-17
5983.02947 1.68621e-17
5985.91607 1.69759e-17
5988.79257 1.64533e-17
5991.67917 1.56994e-17
5994.55568 1.62825e-17
5997.44227 1.70584e-17
6000.31878 1.66418e-17
6003.19528 1.60776e-17
6006.08188 1.63179e-17
6008.95839 1.67547e-17
6011.84499 1.68326e-17
6014.72149 1.66708e-17
6017.60809 1.63596e-17
6020.48459 1.61651e-17
6023.36110 1.61585e-17
6026.24770 1.68116e-17
6029.12420 1.68309e-17
6032.01080 1.61717e-17
6034.88730 1.62971e-17
6037.77390 1.64134e-17
6040.65041 1.62073e-17
6043.53701 1.61242e-17
6046.41351 1.58260e-17
6049.29002 1.58073e-17
6052.17661 1.61857e-17
6055.05312 1.62057e-17
6057.93972 1.61906e-17
6060.81622 1.60480e-17
6063.70282 1.56637e-17
6066.57932 1.58072e-17
6069.45583 1.56413e-17
6072.34243 1.59388e-17
6075.21893 1.61120e-17
6078.10553 1.59945e-17
6080.98203 1.59409e-17
6083.86863 1.58729e-17
6086.74514 1.53423e-17
6089.63174 1.47428e-17
6092.50824 1.46626e-17
6095.38475 1.45882e-17
6098.27134 1.41632e-17
6101.14785 1.42090e-17
6104.03445 1.47644e-17
6106.91095 1.46109e-17
6109.79755 1.48092e-17
6112.67406 1.50073e-17
6115.55056 1.46703e-17
6118.43716 1.41814e-17
6121.31366 1.39143e-17
6124.20026 1.39932e-17
6127.07677 1.43280e-17
6129.96336 1.45297e-17
6132.83987 1.40368e-17
6135.72647 1.35753e-17
6138.60297 1.35536e-17
6141.47948 1.38510e-17
6144.36608 1.42673e-17
6147.24258 1.38954e-17
6150.12918 1.36571e-17
6153.00568 1.33539e-17
6155.89228 1.34121e-17
6158.76879 1.37402e-17
6161.64529 1.34752e-17
6164.53189 1.35351e-17
6167.40839 1.34160e-17
6170.29499 1.28722e-17
6173.17150 1.26640e-17
6176.05810 1.23144e-17
6178.93460 1.23380e-17
6181.81111 1.25937e-17
6184.69770 1.21973e-17
6187.57421 1.22248e-17
6190.46081 1.21453e-17
6193.33731 1.14383e-17
6196.22391 1.09295e-17
6199.10041 1.06582e-17
6201.98701 1.07165e-17
6204.86352 1.09150e-17
6207.74002 1.15205e-17
6210.62662 1.13512e-17
6213.50313 1.08288e-17
6216.38972 1.05692e-17
6219.26623 1.07693e-17
6222.15283 1.11953e-17
6225.02933 1.09292e-17
6227.90584 1.06145e-17
6230.79243 1.08965e-17
6233.66894 1.09937e-17
6236.55554 1.03080e-17
6239.43204 1.03103e-17
6242.31864 1.09948e-17
6245.19515 1.09893e-17
6248.08174 1.08918e-17
6250.95825 1.11500e-17
6253.83475 1.13383e-17
6256.72135 1.11436e-17
6259.59786 1.10305e-17
6262.48445 1.12667e-17
6265.36096 1.13334e-17
6268.24756 1.14556e-17
6271.12406 1.16216e-17
6274.00057 1.12023e-17
6276.88717 1.11442e-17
6279.76367 1.08781e-17
6282.65027 1.02803e-17
6285.52677 1.06071e-17
6288.41337 1.08124e-17
6291.28988 1.05369e-17
6294.17647 1.06793e-17
6297.05298 1.07729e-17
6299.92948 1.04407e-17
6302.81608 1.02920e-17
6305.69259 1.02601e-17
6308.57919 1.06288e-17
6311.45569 1.15583e-17
6314.34229 1.16715e-17
6317.21879 1.14311e-17
6320.09530 1.10665e-17
6322.98190 1.11604e-17
6325.85840 1.16744e-17
6328.74500 1.18854e-17
6331.62150 1.18488e-17
6334.50810 1.17889e-17
6337.38461 1.19416e-17
6340.27121 1.20913e-17
6343.14771 1.18163e-17
6346.02422 1.14032e-17
6348.91081 1.12916e-17
6351.78732 1.14415e-17
6354.67392 1.16875e-17
6357.55042 1.16925e-17
6360.43702 1.12910e-17
6363.31352 1.13173e-17
6366.19003 1.14389e-17
6369.07663 1.20550e-17
6371.95313 1.27686e-17
6374.83973 1.24258e-17
6377.71624 1.17571e-17
6380.60283 1.18900e-17
6383.47934 1.22433e-17
6386.36594 1.24750e-17
6389.24244 1.28392e-17
6392.11895 1.26203e-17
6395.00554 1.22483e-17
6397.88205 1.28196e-17
6400.76865 1.34524e-17
6403.64515 1.32342e-17
6406.53175 1.28536e-17
6409.40826 1.30456e-17
6412.28476 1.32257e-17
6415.17136 1.31840e-17
6418.04786 1.31949e-17
6420.93446 1.29134e-17
6423.81097 1.32217e-17
6426.69756 1.38118e-17
6429.57407 1.31093e-17
6432.46067 1.28113e-17
6435.33717 1.29147e-17
6438.21368 1.26177e-17
6441.10028 1.24392e-17
6443.97678 1.20163e-17
6446.86338 1.22335e-17
6449.73988 1.18615e-17
6452.62648 1.11112e-17
6455.50299 1.10099e-17
6458.38958 1.13622e-17
6461.26609 1.13740e-17
6464.14259 1.10912e-17
6467.02919 1.10845e-17
6469.90570 1.08052e-17
6472.79230 1.06305e-17
6475.66880 1.06684e-17
6478.54531 1.12647e-17
6481.43190 1.08997e-17
6484.30841 1.07497e-17
6487.19501 1.12278e-17
6490.07151 1.14066e-17
6492.95811 1.14363e-17
6495.83461 1.17263e-17
6498.72121 1.16788e-17
6501.59772 1.13067e-17
6504.47422 1.14194e-17
6507.36082 1.15501e-17
6510.23733 1.15077e-17
6513.12392 1.15860e-17
6516.00043 1.12571e-17
6518.88703 1.10723e-17
6521.76353 1.14695e-17
6524.65013 1.19464e-17
6527.52663 1.20028e-17
6530.40314 1.20210e-17
6533.28974 1.21350e-17
6536.16624 1.20904e-17
6539.05284 1.19406e-17
6541.92935 1.19171e-17
6544.81594 1.21233e-17
6547.69245 1.23826e-17
6550.56895 1.26105e-17
6553.45555 1.23770e-17
6556.33206 1.21402e-17
6559.21865 1.24302e-17
6562.09516 1.25124e-17
6564.98176 1.20583e-17
6567.85826 1.19812e-17
6570.74486 1.24691e-17
6573.62137 1.28446e-17
6576.49787 1.27477e-17
6579.38447 1.25365e-17
6582.26097 1.27825e-17
6585.14757 1.31980e-17
6588.02408 1.33632e-17
6590.91067 1.34521e-17
6593.78718 1.35682e-17
6596.66368 1.34595e-17
6599.55028 1.36745e-17
6602.42679 1.34481e-17
6605.31339 1.33049e-17
6608.18989 1.39686e-17
6611.07649 1.38285e-17
6613.95299 1.30328e-17
6616.83959 1.23887e-17
6619.71610 1.10580e-17
6622.59260 1.04185e-17
6625.47920 1.12693e-17
6628.35570 1.30391e-17
6631.24230 1.37245e-17
6634.11881 1.37817e-17
6637.00541 1.35113e-17
6639.88191 1.30254e-17
6642.75842 1.27442e-17
6645.64501 1.30769e-17
6648.52152 1.35742e-17
6651.40812 1.37205e-17
6654.28462 1.39221e-17
6657.17122 1.40308e-17
6660.04772 1.41100e-17
6662.93432 1.44213e-17
6665.81083 1.42251e-17
6668.68733 1.42954e-17
6671.57393 1.40825e-17
6674.45044 1.40112e-17
6677.33703 1.39806e-17
6680.21354 1.41039e-17
6683.10014 1.41117e-17
6685.97664 1.38068e-17
6688.85315 1.36793e-17
6691.73974 1.38705e-17
6694.61625 1.43280e-17
6697.50285 1.36929e-17
6700.37935 1.29538e-17
6703.26595 1.27073e-17
6706.14246 1.24696e-17
6709.02905 1.23154e-17
6711.90556 1.26954e-17
6714.78206 1.29174e-17
6717.66866 1.28651e-17
6720.54517 1.34057e-17
6723.43176 1.35378e-17
6726.30827 1.26429e-17
6729.19487 1.26038e-17
6732.07137 1.31131e-17
6734.94788 1.26491e-17
6737.83448 1.25202e-17
6740.71098 1.28314e-17
6743.59758 1.27697e-17
6746.47408 1.23901e-17
6749.36068 1.22511e-17
6752.23719 1.27282e-17
6755.12378 1.26184e-17
6758.00029 1.20677e-17
6760.87679 1.23525e-17
6763.76339 1.22060e-17
6766.63990 1.14231e-17
6769.52650 1.17606e-17
6772.40300 1.19166e-17
6775.28960 1.16366e-17
6778.16610 1.12074e-17
6781.04261 1.06135e-17
6783.92921 1.07140e-17
6786.80571 1.09694e-17
6789.69231 1.08080e-17
6792.56881 1.04497e-17
6795.45541 1.05877e-17
6798.33192 1.10028e-17
6801.20842 1.07103e-17
6804.09502 1.09316e-17
6806.97153 1.14588e-17
6809.85812 1.13386e-17
6812.73463 1.08200e-17
6815.62123 1.03516e-17
6818.49773 1.01727e-17
6821.38433 1.01106e-17
6824.26083 1.01461e-17
6827.13734 1.02590e-17
6830.02394 1.00205e-17
6832.90044 9.75390e-18
6835.78704 1.00646e-17
6838.66355 1.02240e-17
6841.55014 9.57958e-18
6844.42665 8.19091e-18
6847.30315 7.19041e-18
6850.18975 8.22996e-18
6853.06626 9.06260e-18
6855.95285 9.18781e-18
6858.82936 9.72477e-18
6861.71596 1.00661e-17
6864.59246 9.77439e-18
6867.47906 9.35068e-18
6870.35557 9.35457e-18
6873.23207 9.31174e-18
6876.11867 8.73016e-18
6878.99517 8.91901e-18
6881.88177 9.11864e-18
6884.75828 9.01523e-18
6887.64487 8.86798e-18
6890.52138 9.02793e-18
6893.39788 9.37597e-18
6896.28448 9.13626e-18
6899.16099 8.78368e-18
6902.04759 9.10697e-18
6904.92409 9.48576e-18
6907.81069 9.34339e-18
6910.68719 9.22110e-18
6913.57379 9.07365e-18
6916.45030 9.06752e-18
6919.32680 9.45352e-18
6922.21340 9.64092e-18
6925.08990 9.44951e-18
6927.97650 9.35623e-18
6930.85301 9.39966e-18
6933.73961 9.71973e-18
6936.61611 1.00864e-17
6939.50271 1.00501e-17
6942.37921 1.00052e-17
6945.25572 9.87352e-18
6948.14232 9.77708e-18
6951.01882 1.01550e-17
6953.90542 1.05521e-17
6956.78192 1.04537e-17
6959.66852 1.06281e-17
6962.54503 1.10204e-17
6965.42153 1.11478e-17
6968.30813 1.09099e-17
6971.18464 1.08413e-17
6974.07123 1.10156e-17
6976.94774 1.06578e-17
6979.83434 1.04934e-17
6982.71084 1.05078e-17
6985.59744 1.06470e-17
6988.47394 1.07282e-17
6991.35045 1.09929e-17
6994.23705 1.08362e-17
6997.11355 1.05423e-17
7000.00015 1.04961e-17
7002.87666 1.07119e-17
7005.76325 1.07497e-17
7008.63976 1.03578e-17
7011.51626 1.03680e-17
7014.40286 1.03680e-17
7017.27937 1.05561e-17
7020.16596 1.07078e-17
7023.04247 1.07579e-17
7025.92907 1.07656e-17
7028.80557 1.11049e-17
7031.69217 1.11067e-17
7034.56868 1.08096e-17
7037.44518 1.08188e-17
7040.33178 1.09686e-17
7043.20828 1.10455e-17
7046.09488 1.07819e-17
7048.97139 1.05624e-17
7051.85798 1.06709e-17
7054.73449 1.07633e-17
7057.61099 1.10734e-17
7060.49759 1.10127e-17
7063.37410 1.03492e-17
7066.26069 1.00416e-17
7069.13720 1.02068e-17
7072.02380 1.03073e-17
7074.90030 1.07032e-17
7077.77681 1.08955e-17
7080.66341 1.00737e-17
7083.53991 1.00969e-17
7086.42651 1.05863e-17
7089.30301 1.05550e-17
7092.18961 1.04084e-17
7095.06612 1.00841e-17
7097.95272 9.79343e-18
7100.82922 1.00174e-17
7103.70573 1.02750e-17
7106.59232 9.99950e-18
7109.46883 9.92680e-18
7112.35543 1.04361e-17
7115.23193 1.04728e-17
7118.11853 1.02707e-17
7120.99503 1.01955e-17
7123.87154 9.79727e-18
7126.75814 9.26254e-18
7129.63464 9.21263e-18
7132.52124 9.52872e-18
7135.39775 9.64953e-18
7138.28434 9.85872e-18
7141.16085 1.02669e-17
7144.04745 1.00048e-17
7146.92395 9.36131e-18
7149.80046 8.97420e-18
7152.68705 9.12151e-18
7155.56356 9.36146e-18
7158.45016 9.42159e-18
7161.32666 1.00470e-17
7164.21326 1.03370e-17
7167.08977 9.65433e-18
7169.97636 9.34719e-18
7172.85287 9.42323e-18
7175.72937 9.39449e-18
7178.61597 9.66404e-18
7181.49248 9.34722e-18
7184.37907 9.16107e-18
7187.25558 9.71438e-18
7190.14218 9.46111e-18
7193.01868 9.34995e-18
7195.89519 9.96408e-18
7198.78179 1.02494e-17
7201.65829 1.01024e-17
7204.54489 9.81699e-18
7207.42139 9.57007e-18
7210.30799 9.92051e-18
7213.18450 1.03853e-17
7216.06100 1.01056e-17
7218.94760 9.78572e-18
7221.82410 9.69648e-18
7224.71070 1.00088e-17
7227.58721 1.02247e-17
7230.47381 9.90781e-18
7233.35031 9.35175e-18
7236.23691 9.18304e-18
7239.11341 9.47870e-18
7241.98992 9.68108e-18
7244.87652 9.96406e-18
7247.75302 1.03662e-17
7250.63962 9.98862e-18
7253.51612 9.80227e-18
7256.40272 9.93903e-18
7259.27923 9.83157e-18
7262.15573 9.93700e-18
7265.04233 9.95892e-18
7267.91884 9.60398e-18
7270.80543 9.34106e-18
7273.68194 9.16350e-18
7276.56854 9.32864e-18
7279.44504 9.95911e-18
7282.33164 9.77639e-18
7285.20814 9.58713e-18
7288.08465 9.44544e-18
7290.97125 9.32335e-18
7293.84775 9.15822e-18
7296.73435 8.97528e-18
7299.61086 9.02546e-18
7302.49745 8.94565e-18
7305.37396 8.81211e-18
7308.25046 9.09205e-18
7311.13706 9.34672e-18
7314.01357 9.17495e-18
7316.90016 9.09199e-18
7319.77667 9.33511e-18
7322.66327 9.49340e-18
7325.53977 9.01426e-18
7328.42637 8.98828e-18
7331.30288 9.22801e-18
7334.17938 9.42319e-18
7337.06598 9.59883e-18
7339.94248 9.30453e-18
7342.82908 9.10336e-18
7345.70559 8.97910e-18
7348.59218 8.88593e-18
7351.46869 8.76756e-18
7354.34519 9.31505e-18
7357.23179 9.63107e-18
7360.10830 9.51373e-18
7362.99489 9.33445e-18
7365.87140 8.98402e-18
7368.75800 8.60651e-18
7371.63450 8.67608e-18
7374.52110 9.10422e-18
7377.39761 8.94945e-18
7380.27411 8.64541e-18
7383.16071 8.99906e-18
7386.03721 9.72618e-18
7388.92381 9.90394e-18
7391.80032 9.35767e-18
7394.68692 9.15170e-18
7397.56342 8.90017e-18
7400.43993 8.24746e-18
7403.32652 8.24534e-18
7406.20303 8.65220e-18
7409.08963 8.90928e-18
7411.96613 8.73853e-18
7414.85273 8.42748e-18
7417.72923 8.34576e-18
7420.61583 8.69369e-18
7423.49234 9.10034e-18
7426.36884 9.19710e-18
7429.25544 8.91972e-18
7432.13195 8.34509e-18
7435.01854 8.06289e-18
7437.89505 8.53526e-18
7440.78165 9.00207e-18
7443.65815 8.74532e-18
7446.53466 8.23724e-18
7449.42125 8.41847e-18
7452.29776 8.79777e-18
7455.18436 8.84914e-18
7458.06086 8.69118e-18
7460.94746 8.39138e-18
7463.82397 8.39364e-18
7466.71056 8.55852e-18
7469.58707 8.22924e-18
7472.46357 8.28117e-18
7475.35017 8.40749e-18
7478.22668 8.33407e-18
7481.11327 8.06211e-18
7483.98978 7.55247e-18
7486.87638 7.52446e-18
7489.75288 8.20729e-18
7492.62939 8.61540e-18
7495.51599 8.21105e-18
7498.39249 7.78440e-18
7501.27909 7.99656e-18
7504.15559 8.32505e-18
7507.04219 8.27382e-18
7509.91870 7.84262e-18
7512.80529 7.28740e-18
7515.68180 7.17283e-18
7518.55830 7.11952e-18
7521.44490 7.43257e-18
7524.32141 7.45941e-18
7527.20801 6.55226e-18
7530.08451 6.64624e-18
7532.97111 7.36375e-18
7535.84761 7.37119e-18
7538.72412 7.41574e-18
7541.61072 7.90965e-18
7544.48722 8.12231e-18
7547.37382 7.51690e-18
7550.25032 6.94813e-18
7553.13692 6.90872e-18
7556.01343 6.92315e-18
7558.90003 6.94220e-18
7561.77653 6.96540e-18
7564.65304 6.95524e-18
7567.53963 7.17584e-18
7570.41614 7.00017e-18
7573.30274 6.93985e-18
7576.17924 7.11722e-18
7579.06584 7.07997e-18
7581.94234 6.87379e-18
7584.81885 6.59609e-18
7587.70545 6.38854e-18
7590.58195 6.40643e-18
7593.46855 6.39402e-18
7596.34506 5.89072e-18
7599.23165 5.60436e-18
7602.10816 4.63599e-18
7604.99476 4.42066e-18
7607.87126 4.70189e-18
7610.74777 5.08180e-18
7613.63436 6.23368e-18
7616.51087 6.80139e-18
7619.39747 5.88621e-18
7622.27397 5.20701e-18
7625.16057 5.78181e-18
7628.03708 5.97270e-18
7630.91358 5.49212e-18
7633.80018 5.26034e-18
7636.67668 5.93974e-18
7639.56328 6.01127e-18
7642.43979 5.48932e-18
7645.32638 5.56620e-18
7648.20289 5.82278e-18
7651.08949 5.94581e-18
7653.96599 5.99540e-18
7656.84250 5.79331e-18
7659.72910 6.47564e-18
7662.60560 6.80038e-18
7665.49220 6.70372e-18
7668.36870 6.98232e-18
7671.25530 6.95046e-18
7674.13181 6.62570e-18
7677.00831 6.65976e-18
7679.89491 6.78845e-18
7682.77141 6.86240e-18
7685.65801 6.58355e-18
7688.53452 6.56682e-18
7691.42112 6.55998e-18
7694.29762 6.59149e-18
7697.18422 6.66214e-18
7700.06072 6.99808e-18
7702.93723 7.11666e-18
7705.82383 6.81215e-18
7708.70033 6.84967e-18
7711.58693 7.10238e-18
7714.46343 7.05878e-18
7717.35003 6.76469e-18
7720.22654 6.59729e-18
7723.10304 7.35162e-18
7725.98964 7.51570e-18
7728.86614 7.56327e-18
7731.75274 7.85317e-18
7734.62925 7.64324e-18
7737.51585 7.75055e-18
7740.39235 7.74145e-18
7743.27895 7.42441e-18
7746.15545 7.35786e-18
7749.03196 7.07830e-18
7751.91856 6.95315e-18
7754.79506 6.75479e-18
7757.68166 6.62800e-18
7760.55817 6.96751e-18
7763.44476 7.20093e-18
7766.32127 7.22611e-18
7769.19777 7.46428e-18
7772.08437 7.61967e-18
7774.96088 7.84738e-18
7777.84747 7.82819e-18
7780.72398 7.72746e-18
7783.61058 7.73586e-18
7786.48708 7.55795e-18
7789.37368 7.01282e-18
7792.25019 6.87909e-18
7795.12669 7.49710e-18
7798.01329 7.90924e-18
7800.88979 7.94332e-18
7803.77639 7.61549e-18
7806.65290 7.51235e-18
7809.53949 7.51421e-18
7812.41600 7.51127e-18
7815.29250 7.77700e-18
7818.17910 7.84742e-18
7821.05561 7.80325e-18
7823.94221 8.07240e-18
7826.81871 8.02016e-18
7829.70531 7.76367e-18
7832.58181 7.63415e-18
7835.45832 7.83794e-18
7838.34492 7.94992e-18
7841.22142 7.76177e-18
7844.10802 7.60602e-18
7846.98452 7.39638e-18
7849.87112 7.38134e-18
7852.74763 7.68261e-18
7855.63423 7.48803e-18
7858.51073 7.47296e-18
7861.38724 8.00376e-18
7864.27383 7.68709e-18
7867.15034 7.43781e-18
7870.03694 7.33159e-18
7872.91344 7.36761e-18
7875.80004 7.39602e-18
7878.67654 7.25508e-18
7881.56314 7.63821e-18
7884.43965 7.86398e-18
7887.31615 7.61915e-18
7890.20275 7.47637e-18
7893.07926 7.45589e-18
7895.96585 7.64269e-18
7898.84236 8.18764e-18
7901.72896 8.02903e-18
7904.60546 7.46733e-18
7907.48197 7.41667e-18
7910.36856 7.31675e-18
7913.24507 7.39387e-18
7916.13167 7.33469e-18
7919.00817 7.34020e-18
7921.89477 7.34807e-18
7924.77128 7.36105e-18
7927.64778 7.17390e-18
7930.53438 7.11385e-18
7933.41088 7.25748e-18
7936.29748 7.21546e-18
7939.17399 7.31505e-18
7942.06058 7.41945e-18
7944.93709 7.23973e-18
7947.82369 6.58576e-18
7950.70019 6.70226e-18
7953.57670 7.19607e-18
7956.46330 7.18368e-18
7959.33980 7.02484e-18
7962.22640 6.72236e-18
7965.10290 6.25816e-18
7967.98950 6.20532e-18
7970.86601 6.26990e-18
7973.74251 6.49291e-18
7976.62911 6.40360e-18
7979.50561 6.95730e-18
7982.39221 7.25020e-18
7985.26872 7.11589e-18
7988.15532 7.15615e-18
7991.03182 6.75355e-18
7993.91842 6.28294e-18
7996.79492 6.17239e-18
7999.67143 6.37930e-18
8002.55803 6.75629e-18
8005.43453 7.19642e-18
8008.32113 6.70163e-18
8011.19763 6.10370e-18
8014.08423 6.22621e-18
8016.96074 6.31436e-18
8019.83724 6.22036e-18
8022.72384 6.10082e-18
8025.60035 5.80173e-18
8028.48694 5.25403e-18
8031.36345 5.05561e-18
8034.25005 5.53270e-18
8037.12655 5.72852e-18
8040.01315 5.66467e-18
8042.88965 6.19082e-18
8045.76616 6.45553e-18
8048.65276 5.80813e-18
8051.52926 5.67976e-18
8054.41586 5.83316e-18
8057.29237 5.77806e-18
8060.17896 5.53615e-18
8063.05547 5.40373e-18
8065.93197 5.58097e-18
8068.81857 5.60603e-18
8071.69508 5.47768e-18
8074.58167 5.62114e-18
8077.45818 5.57487e-18
8080.34478 5.40764e-18
8083.22128 5.21786e-18
8086.10788 5.17055e-18
8088.98439 4.96123e-18
8091.86089 4.77074e-18
8094.74749 4.98059e-18
8097.62399 5.16166e-18
8100.51059 5.28676e-18
8103.38710 5.41294e-18
8106.27369 4.72451e-18
8109.15020 4.65525e-18
8112.03680 4.53079e-18
8114.91330 4.68826e-18
8117.78981 4.85222e-18
8120.67641 4.88921e-18
8123.55291 5.07509e-18
8126.43951 4.81297e-18
8129.31601 4.64806e-18
8132.20261 4.99383e-18
8135.07912 4.96252e-18
8137.95562 4.55243e-18
8140.84222 4.63173e-18
8143.71872 4.59658e-18
8146.60532 4.18057e-18
8149.48183 4.41562e-18
8152.36843 4.94056e-18
8155.24493 4.69368e-18
8158.13153 4.60592e-18
8161.00803 4.74665e-18
8163.88454 4.44416e-18
8166.77114 4.37277e-18
8169.64764 4.67256e-18
8172.53424 4.55021e-18
8175.41074 3.87415e-18
8178.29734 3.61589e-18
8181.17385 4.31170e-18
8184.05035 4.95166e-18
8186.93695 4.96401e-18
8189.81346 4.68229e-18
8192.70005 4.48203e-18
8195.57656 4.23298e-18
8198.46316 4.17732e-18
8201.33966 4.58017e-18
8204.21617 5.21035e-18
8207.10276 5.55282e-18
8209.97927 4.90273e-18
8212.86587 3.83906e-18
8215.74237 3.54959e-18
8218.62897 3.63234e-18
8221.50547 3.63015e-18
8224.39207 3.03932e-18
8227.26858 2.38303e-18
8230.14508 2.74338e-18
8233.03168 3.35649e-18
8235.90819 3.57931e-18
8238.79478 4.06775e-18
8241.67129 4.42143e-18
8244.55789 4.22406e-18
8247.43439 3.86923e-18
8250.31090 3.63140e-18
8253.19750 3.28571e-18
8256.07400 2.85070e-18
8258.96060 2.77400e-18
8261.83710 3.00471e-18
8264.72370 3.20129e-18
8267.60021 3.42591e-18
8270.48680 3.39168e-18
8273.36331 3.10851e-18
8276.23981 3.13318e-18
8279.12641 3.24753e-18
8282.00292 3.06048e-18
8284.88952 3.05096e-18
8287.76602 3.23357e-18
8290.65262 3.32625e-18
8293.52912 2.96796e-18
8296.40563 2.97573e-18
8299.29223 3.09463e-18
8302.16873 3.08269e-18
8305.05533 3.28788e-18
8307.93183 3.15862e-18
8310.81843 2.65910e-18
8313.69494 2.63069e-18
8316.58154 2.85641e-18
8319.45804 3.02307e-18
8322.33454 3.04732e-18
8325.22114 2.87666e-18
8328.09765 2.66861e-18
8330.98425 2.66012e-18
8333.86075 3.00706e-18
8336.74735 3.32144e-18
8339.62385 3.01309e-18
8342.50036 3.37140e-18
8345.38696 3.97091e-18
8348.26346 4.04989e-18
8351.15006 3.98131e-18
8354.02657 3.68676e-18
8356.91316 3.35465e-18
8359.78967 3.41340e-18
8362.67627 3.19487e-18
8365.55277 3.44086e-18
8368.42928 3.75180e-18
8371.31587 3.73715e-18
8374.19238 3.48914e-18
8377.07898 3.40345e-18
8379.95548 3.84539e-18
8382.84208 4.21706e-18
8385.71859 3.85634e-18
8388.59509 3.31863e-18
8391.48169 3.01671e-18
8394.35819 2.89675e-18
8397.24479 3.01993e-18
8400.12130 3.15529e-18
8403.00789 3.33079e-18
8405.88440 3.70214e-18
8408.77100 3.89067e-18
8411.64750 3.90233e-18
8414.52401 4.06344e-18
8417.41061 3.94557e-18
8420.28711 3.55763e-18
8423.17371 3.53906e-18
8426.05021 3.79353e-18
8428.93681 3.72566e-18
8431.81332 3.11219e-18
8434.68982 2.63694e-18
8437.57642 3.22531e-18
8440.45292 3.80304e-18
8443.33952 4.54694e-18
8446.21603 4.36716e-18
8449.10263 3.97022e-18
8451.97913 4.15525e-18
8454.86573 4.07290e-18
8457.74223 4.08366e-18
8460.61874 4.36091e-18
8463.50534 4.45429e-18
8466.38184 4.06788e-18
8469.26844 3.83127e-18
8472.14494 4.01596e-18
8475.03154 4.31465e-18
8477.90805 4.51649e-18
8480.78455 4.80685e-18
8483.67115 5.08429e-18
8486.54766 4.73307e-18
8489.43425 4.92556e-18
8492.31076 5.39270e-18
8495.19736 5.18278e-18
8498.07386 4.63894e-18
8500.96046 4.50694e-18
8503.83696 4.62318e-18
8506.71347 4.56208e-18
8509.60007 4.64648e-18
8512.47657 4.79213e-18
8515.36317 5.00880e-18
8518.23968 5.19058e-18
8521.12627 5.73625e-18
8524.00278 5.98790e-18
8526.87928 5.70435e-18
8529.76588 5.80249e-18
8532.64239 5.55838e-18
8535.52898 5.30906e-18
8538.40549 5.55956e-18
8541.29209 5.90407e-18
8544.16859 5.58770e-18
8547.05519 5.15063e-18
8549.93170 5.49199e-18
8552.80820 6.16246e-18
8555.69480 6.44815e-18
8558.57130 6.42013e-18
8561.45790 6.43659e-18
8564.33441 6.42315e-18
8567.22100 6.58916e-18
8570.09751 6.47682e-18
8572.97401 6.15974e-18
8575.86061 6.28226e-18
8578.73712 6.02099e-18
8581.62371 5.44288e-18
8584.50022 5.87793e-18
8587.38682 5.93135e-18
8590.26332 6.04104e-18
8593.14992 6.42362e-18
8596.02643 6.66190e-18
8598.90293 6.90706e-18
8601.78953 6.49327e-18
8604.66603 6.08632e-18
8607.55263 6.43994e-18
8610.42914 6.22261e-18
8613.31574 5.74595e-18
8616.19224 6.00259e-18
8619.06875 6.45203e-18
8621.95534 6.58671e-18
8624.83185 6.47009e-18
8627.71845 5.95049e-18
8630.59495 5.91733e-18
8633.48155 6.32209e-18
8636.35805 6.83234e-18
8639.24465 6.67338e-18
8642.12116 6.61629e-18
8644.99766 7.06844e-18
8647.88426 6.76227e-18
8650.76077 6.88296e-18
8653.64736 7.28834e-18
8656.52387 6.88169e-18
8659.41047 6.57786e-18
8662.28697 6.58305e-18
8665.16348 6.14288e-18
8668.05007 5.95710e-18
8670.92658 6.79932e-18
8673.81318 7.27745e-18
8676.68968 6.73027e-18
8679.57628 6.94277e-18
8682.45279 7.41050e-18
8685.32929 7.31513e-18
8688.21589 6.98841e-18
8691.09239 6.92349e-18
8693.97899 7.24475e-18
8696.85550 6.98587e-18
8699.74209 6.37850e-18
8702.61860 6.48694e-18
8705.50520 7.20148e-18
8708.38170 7.56596e-18
8711.25821 7.66254e-18
8714.14481 7.64436e-18
8717.02131 7.20297e-18
8719.90791 7.27883e-18
8722.78441 7.55907e-18
8725.67101 7.26681e-18
8728.54752 7.03596e-18
8731.42402 6.90942e-18
8734.31062 6.54059e-18
8737.18712 6.43071e-18
8740.07372 6.56253e-18
8742.95023 6.50020e-18
8745.83683 6.93605e-18
8748.71333 7.06367e-18
8751.59993 7.09519e-18
8754.47643 7.27967e-18
8757.35294 7.36584e-18
8760.23954 7.58364e-18
8763.11604 7.63143e-18
8766.00264 7.40923e-18
8768.87914 7.33463e-18
8771.76574 7.09174e-18
8774.64225 6.77086e-18
8777.51875 7.01471e-18
8780.40535 7.43293e-18
8783.28186 7.12686e-18
8786.16845 6.63150e-18
8789.04496 6.92760e-18
8791.93156 7.48378e-18
8794.80806 7.69274e-18
8797.69466 7.75049e-18
8800.57116 7.46605e-18
8803.44767 7.28928e-18
8806.33427 7.75667e-18
8809.21077 7.34543e-18
8812.09737 6.34189e-18
8814.97388 6.22818e-18
8817.86047 6.28228e-18
8820.73698 6.37371e-18
8823.61348 6.81942e-18
8826.50008 7.00622e-18
8829.37659 7.04106e-18
8832.26318 7.12855e-18
8835.13969 6.82191e-18
8838.02629 7.14037e-18
8840.90279 7.39442e-18
8843.78939 7.08451e-18
8846.66590 6.89350e-18
8849.54240 6.83747e-18
8852.42900 6.85103e-18
8855.30550 6.69339e-18
8858.19210 6.33736e-18
8861.06861 6.23605e-18
8863.95520 6.29325e-18
8866.83171 6.24091e-18
8869.70821 6.35002e-18
8872.59481 6.88900e-18
8875.47132 7.35345e-18
8878.35792 6.88854e-18
8881.23442 6.38337e-18
8884.12102 7.10709e-18
8886.99752 7.65351e-18
8889.88412 7.01324e-18
8892.76063 6.03018e-18
8895.63713 5.07326e-18
8898.52373 5.04426e-18
8901.40023 5.80136e-18
8904.28683 6.41934e-18
8907.16334 6.25141e-18
8910.04994 5.68881e-18
8912.92644 5.53824e-18
8915.81304 5.53664e-18
8918.68954 5.34314e-18
8921.56605 6.04991e-18
8924.45265 6.79552e-18
8927.32915 6.34840e-18
8930.21575 5.59854e-18
8933.09225 5.40666e-18
8935.96876 5.40465e-18
8938.85536 5.22118e-18
8941.73186 4.91880e-18
8944.61846 5.48795e-18
8947.49496 5.77372e-18
8950.38156 5.63735e-18
8953.25807 5.48704e-18
8956.14467 5.38272e-18
8959.02117 5.88016e-18
8961.90777 6.18383e-18
8964.78427 5.59847e-18
8967.66078 5.00223e-18
8970.54738 4.60173e-18
8973.42388 4.40924e-18
8976.31048 4.35761e-18
8979.18699 4.38228e-18
8982.07358 4.83834e-18
8984.95009 4.89053e-18
8987.82659 4.50961e-18
8990.71319 4.26273e-18
8993.58970 4.38760e-18
8996.47629 4.51308e-18
8999.35280 4.68103e-18
9002.23940 5.14086e-18
9005.11590 4.85393e-18
9008.00250 4.15006e-18
9010.87901 4.13223e-18
9013.75551 3.88982e-18
9016.64211 3.29248e-18
9019.51861 3.48743e-18
9022.40521 4.05735e-18
9025.28172 3.94420e-18
9028.16831 3.67223e-18
9031.04482 4.42230e-18
9033.92132 5.16620e-18
9036.80792 5.02067e-18
