# wavelength flux
6209.99767 1.37288e-17
6211.94778 1.37717e-17
6213.89789 1.34283e-17
6215.84800 1.30488e-17
6217.79811 1.28562e-17
6219.74822 1.32743e-17
6221.69833 1.36719e-17
6223.64844 1.40249e-17
6225.59855 1.42802e-17
6227.54866 1.39953e-17
6229.49877 1.40448e-17
6231.44888 1.48459e-17
6233.39899 1.57237e-17
6235.34910 1.54123e-17
6237.29921 1.52212e-17
6239.24932 1.53044e-17
6241.19943 1.55499e-17
6243.14954 1.52532e-17
6245.09965 1.51722e-17
6247.04976 1.57034e-17
6248.99987 1.58875e-17
6250.94998 1.55148e-17
6252.90009 1.54790e-17
6254.85020 1.58018e-17
6256.80031 1.56179e-17
6258.75042 1.52754e-17
6260.70053 1.57710e-17
6262.65064 1.57255e-17
6264.60075 1.50245e-17
6266.55086 1.50286e-17
6268.50097 1.51313e-17
6270.45108 1.47905e-17
6272.40119 1.46592e-17
6274.35130 1.50281e-17
6276.30141 1.50275e-17
6278.25152 1.48213e-17
6280.20163 1.47973e-17
6282.15174 1.44679e-17
6284.10185 1.41485e-17
6286.05196 1.42512e-17
6288.00207 1.41604e-17
6289.95218 1.39076e-17
6291.90229 1.39009e-17
6293.85240 1.33166e-17
6295.80251 1.27258e-17
6297.75262 1.31473e-17
6299.70273 1.37788e-17
6301.65284 1.39875e-17
6303.60295 1.34187e-17
6305.55306 1.33350e-17
6307.50317 1.37560e-17
6309.45328 1.40906e-17
6311.40339 1.44347e-17
6313.35350 1.38051e-17
6315.30361 1.37658e-17
6317.25372 1.45281e-17
6319.20383 1.46477e-17
6321.15394 1.45523e-17
6323.10405 1.46807e-17
6325.05416 1.49423e-17
6327.00427 1.56494e-17
6328.95438 1.60103e-17
6330.90449 1.59270e-17
6332.85460 1.59546e-17
6334.79450 1.54210e-17
6336.75482 1.55309e-17
6338.70493 1.60528e-17
6340.64483 1.57112e-17
6342.60515 1.57461e-17
6344.54505 1.63373e-17
6346.49516 1.64215e-17
6348.44527 1.65309e-17
6350.39538 1.65946e-17
6352.34549 1.62762e-17
6354.29560 1.71160e-17
6356.24571 1.70089e-17
6358.19582 1.62799e-17
6360.14593 1.67625e-17
6362.09604 1.76511e-17
6364.04615 1.73475e-17
6365.99626 1.72456e-17
6367.94637 1.73711e-17
6369.89648 1.73486e-17
6371.84659 1.73428e-17
6373.79670 1.74973e-17
6375.74681 1.72290e-17
6377.69692 1.70362e-17
6379.64703 1.72319e-17
6381.59714 1.69677e-17
6383.54725 1.71415e-17
6385.49736 1.70913e-17
6387.44747 1.70899e-17
6389.39758 1.67163e-17
6391.34769 1.66539e-17
6393.29780 1.67022e-17
6395.24791 1.58244e-17
6397.19802 1.59708e-17
6399.14813 1.58518e-17
6401.09824 1.60470e-17
6403.04835 1.58956e-17
6404.99846 1.53389e-17
6406.94857 1.55060e-17
6408.89868 1.63196e-17
6410.84879 1.52227e-17
6412.79890 1.48945e-17
6414.74901 1.52302e-17
6416.69912 1.52104e-17
6418.64923 1.49902e-17
6420.59934 1.48045e-17
6422.54945 1.50828e-17
6424.49956 1.53028e-17
6426.44967 1.46613e-17
6428.39978 1.44744e-17
6430.34989 1.48886e-17
6432.30000 1.48365e-17
6434.25011 1.47642e-17
6436.20022 1.43553e-17
6438.15033 1.37843e-17
6440.10044 1.38960e-17
6442.05055 1.42003e-17
6444.00066 1.48697e-17
6445.95077 1.45548e-17
6447.90088 1.38308e-17
6449.85099 1.36596e-17
6451.80110 1.37585e-17
6453.75121 1.47094e-17
6455.70132 1.40952e-17
6457.65143 1.36259e-17
6459.60154 1.38465e-17
6461.55165 1.39205e-17
6463.50176 1.38782e-17
6465.45187 1.40973e-17
6467.40198 1.41425e-17
6469.35209 1.38255e-17
6471.30220 1.33431e-17
6473.25231 1.31803e-17
6475.20242 1.32171e-17
6477.15253 1.34523e-17
6479.10264 1.32837e-17
6481.05275 1.36881e-17
6483.00286 1.41395e-17
6484.95297 1.37247e-17
6486.90308 1.34424e-17
6488.85319 1.27775e-17
6490.80330 1.28429e-17
6492.75341 1.31251e-17
6494.70352 1.29001e-17
6496.65363 1.26305e-17
6498.60374 1.31486e-17
6500.55385 1.24892e-17
6502.50396 1.27886e-17
6504.45407 1.27518e-17
6506.40418 1.24941e-17
6508.35429 1.29086e-17
6510.30440 1.34140e-17
6512.25451 1.27141e-17
6514.20462 1.25443e-17
6516.14452 1.18600e-17
6518.10484 1.16020e-17
6520.04474 1.25944e-17
6521.99485 1.29436e-17
6523.95517 1.22407e-17
6525.89507 1.20419e-17
6527.84518 1.24520e-17
6529.79529 1.24388e-17
6531.74540 1.23171e-17
6533.69551 1.30830e-17
6535.64562 1.33720e-17
6537.59573 1.32234e-17
6539.54584 1.37068e-17
6541.49595 1.31961e-17
6543.44606 1.34349e-17
6545.39617 1.37844e-17
6547.34628 1.38117e-17
6549.29639 1.40231e-17
6551.24650 1.37944e-17
6553.19661 1.27262e-17
6555.14672 1.25756e-17
6557.09683 1.28322e-17
6559.04694 1.28682e-17
6560.99705 1.32986e-17
6562.94716 1.36256e-17
6564.89727 1.34831e-17
6566.84738 1.28379e-17
6568.79749 1.28612e-17
6570.74760 1.29384e-17
6572.69771 1.30520e-17
6574.64782 1.33257e-17
6576.59793 1.30673e-17
6578.54804 1.29934e-17
6580.49815 1.28830e-17
6582.44826 1.25155e-17
6584.39837 1.19584e-17
6586.34848 1.19738e-17
6588.29859 1.16969e-17
6590.24870 1.10832e-17
6592.19881 1.08600e-17
6594.14892 1.13061e-17
6596.09903 1.14399e-17
6598.04914 1.13632e-17
6599.99925 1.13222e-17
6601.94936 1.11678e-17
6603.89947 1.11182e-17
6605.84958 1.04643e-17
6607.79969 1.04623e-17
6609.74980 1.04706e-17
6611.69991 1.00123e-17
6613.65002 9.78595e-18
6615.60013 9.56531e-18
6617.55024 9.33449e-18
6619.50035 9.33152e-18
6621.45046 8.73906e-18
6623.40057 8.65597e-18
6625.35068 9.09808e-18
6627.30079 9.06373e-18
6629.25090 8.79645e-18
6631.20101 8.95608e-18
6633.15112 9.03578e-18
6635.10123 8.81529e-18
6637.05134 8.99607e-18
6639.00145 9.08077e-18
6640.95156 8.71000e-18
6642.90167 8.51555e-18
6644.85178 8.49557e-18
6646.80189 8.52599e-18
6648.75200 8.89600e-18
6650.70211 9.46454e-18
6652.65222 9.95106e-18
6654.60233 1.00237e-17
6656.55244 1.00836e-17
6658.50255 1.05828e-17
6660.45266 1.07552e-17
6662.40277 1.09028e-17
6664.35288 1.17138e-17
6666.30299 1.16849e-17
6668.25310 1.14582e-17
6670.20321 1.19309e-17
6672.15332 1.23912e-17
6674.10343 1.31471e-17
6676.05354 1.34281e-17
6678.00365 1.34319e-17
6679.95376 1.36836e-17
6681.90387 1.43306e-17
6683.85398 1.45204e-17
6685.80409 1.43618e-17
6687.75420 1.44143e-17
6689.70431 1.49664e-17
6691.65442 1.51110e-17
6693.60453 1.45510e-17
6695.54443 1.50994e-17
6697.50475 1.53392e-17
6699.45486 1.56613e-17
6701.39476 1.64131e-17
6703.35508 1.68080e-17
6705.29498 1.66806e-17
6707.24509 1.62890e-17
6709.19520 1.64934e-17
6711.14531 1.69546e-17
6713.09542 1.69349e-17
6715.04553 1.64126e-17
6716.99564 1.62700e-17
6718.94575 1.64400e-17
6720.89586 1.67576e-17
6722.84597 1.69504e-17
6724.79608 1.66391e-17
6726.74619 1.60897e-17
6728.69630 1.55897e-17
6730.64641 1.57308e-17
6732.59652 1.58305e-17
6734.54663 1.64921e-17
6736.49674 1.57474e-17
6738.44685 1.59251e-17
6740.39696 1.63856e-17
6742.34707 1.58872e-17
6744.29718 1.60998e-17
6746.24729 1.63209e-17
6748.19740 1.67014e-17
6750.14751 1.63838e-17
6752.09762 1.58881e-17
6754.04773 1.57665e-17
6755.99784 1.57836e-17
6757.94795 1.62400e-17
6759.89806 1.59499e-17
6761.84817 1.59702e-17
6763.79828 1.52694e-17
6765.74839 1.50488e-17
6767.69850 1.54367e-17
6769.64861 1.54433e-17
6771.59872 1.48834e-17
6773.54883 1.53252e-17
6775.49894 1.57934e-17
6777.44905 1.58571e-17
6779.39916 1.54113e-17
6781.34927 1.53750e-17
6783.29938 1.54892e-17
6785.24949 1.58813e-17
6787.19960 1.59838e-17
6789.14971 1.64629e-17
6791.09982 1.61968e-17
6793.04993 1.58058e-17
6795.00004 1.61290e-17
6796.95015 1.60837e-17
6798.90026 1.56410e-17
6800.85037 1.59241e-17
6802.80048 1.57842e-17
6804.75059 1.51427e-17
6806.70070 1.55983e-17
6808.65081 1.57131e-17
6810.60092 1.48025e-17
6812.55103 1.44361e-17
6814.50114 1.44159e-17
6816.45125 1.43839e-17
6818.40136 1.49305e-17
6820.35147 1.47447e-17
6822.30158 1.48234e-17
6824.25169 1.42221e-17
6826.20180 1.44357e-17
6828.15191 1.48755e-17
6830.10202 1.40902e-17
6832.05213 1.43954e-17
6834.00224 1.52702e-17
6835.95235 1.57339e-17
6837.90246 1.57003e-17
6839.85257 1.50282e-17
6841.80268 1.57587e-17
6843.75279 1.54039e-17
6845.70290 1.46068e-17
6847.65301 1.48081e-17
6849.60312 1.47309e-17
6851.55323 1.43930e-17
6853.50334 1.40985e-17
6855.45345 1.44581e-17
6857.40356 1.35572e-17
6859.35367 1.27203e-17
6861.30378 1.35462e-17
6863.25389 1.42646e-17
6865.20400 1.40424e-17
6867.15411 1.34225e-17
6869.10422 1.31881e-17
6871.05433 1.36108e-17
6873.00444 1.43127e-17
6874.95455 1.42310e-17
6876.90466 1.46192e-17
6878.85477 1.54263e-17
6880.79467 1.53200e-17
6882.75499 1.50787e-17
6884.70510 1.52746e-17
6886.64500 1.50933e-17
6888.59511 1.53080e-17
6890.54522 1.47346e-17
6892.49533 1.39254e-17
6894.44544 1.32596e-17
6896.39555 1.32457e-17
6898.34566 1.32712e-17
6900.29577 1.27082e-17
6902.24588 1.32572e-17
6904.19599 1.36302e-17
6906.14610 1.33855e-17
6908.09621 1.36571e-17
6910.04632 1.40527e-17
6911.99643 1.45057e-17
6913.94654 1.51769e-17
6915.89665 1.49411e-17
6917.84676 1.41983e-17
6919.79687 1.39220e-17
6921.74698 1.40314e-17
6923.69709 1.46408e-17
6925.64720 1.52237e-17
6927.59731 1.41570e-17
6929.54742 1.36636e-17
6931.49753 1.36806e-17
6933.44764 1.34408e-17
6935.39775 1.28351e-17
6937.34786 1.20585e-17
6939.29797 1.23517e-17
6941.24808 1.28115e-17
6943.19819 1.25537e-17
6945.14830 1.21527e-17
6947.09841 1.24895e-17
6949.04852 1.19798e-17
6950.99863 1.24590e-17
6952.94874 1.31143e-17
6954.89885 1.32511e-17
6956.84896 1.35997e-17
6958.79907 1.36795e-17
6960.74918 1.38960e-17
6962.69929 1.33154e-17
6964.64940 1.25446e-17
6966.59951 1.29063e-17
6968.54962 1.29356e-17
6970.49973 1.22460e-17
6972.44984 1.15970e-17
6974.39995 1.14798e-17
6976.35006 1.22145e-17
6978.30017 1.22667e-17
6980.25028 1.18082e-17
6982.20039 1.10810e-17
6984.15050 1.10622e-17
6986.10061 1.16687e-17
6988.05072 1.15970e-17
6990.00083 1.17133e-17
6991.95094 1.14712e-17
6993.90105 1.08235e-17
6995.85116 1.03539e-17
6997.80127 1.05562e-17
6999.75138 1.02296e-17
7001.70149 1.00637e-17
7003.65160 1.03663e-17
7005.60171 1.02382e-17
7007.55182 1.01890e-17
7009.50193 9.98882e-18
7011.45204 9.41626e-18
7013.40215 8.98687e-18
7015.35226 8.22862e-18
7017.30237 8.13960e-18
7019.25248 8.55124e-18
7021.20259 8.55611e-18
7023.15270 8.45605e-18
7025.10281 8.70638e-18
7027.05292 9.04743e-18
7029.00303 9.07565e-18
7030.95314 8.57634e-18
7032.90325 8.55200e-18
7034.85336 9.62748e-18
7036.80347 9.95285e-18
7038.75358 9.39571e-18
7040.70369 9.35785e-18
7042.65380 9.42082e-18
7044.60391 9.64849e-18
7046.55402 1.02560e-17
7048.50413 1.03731e-17
7050.45424 1.03708e-17
7052.40435 1.05086e-17
7054.35446 1.04971e-17
7056.30457 1.04947e-17
7058.25468 1.08147e-17
7060.20479 1.10332e-17
7062.15490 1.11843e-17
7064.10501 1.12312e-17
7066.04491 1.16200e-17
7067.99502 1.18853e-17
7069.94513 1.19313e-17
7071.89524 1.19035e-17
7073.84535 1.20417e-17
7075.79546 1.15672e-17
7077.74557 1.21120e-17
7079.69568 1.28516e-17
7081.64579 1.28056e-17
7083.59590 1.23577e-17
7085.54601 1.21204e-17
7087.49612 1.21005e-17
7089.44623 1.23077e-17
7091.39634 1.24168e-17
7093.34645 1.18728e-17
7095.29656 1.22299e-17
7097.24667 1.26799e-17
7099.19678 1.35917e-17
7101.14689 1.34820e-17
7103.09700 1.31717e-17
7105.04711 1.28398e-17
7106.99722 1.28550e-17
7108.94733 1.38259e-17
7110.89744 1.36913e-17
7112.84755 1.33262e-17
7114.79766 1.38645e-17
7116.74777 1.36052e-17
7118.69788 1.39437e-17
7120.64799 1.41161e-17
7122.59810 1.38051e-17
7124.54821 1.43413e-17
7126.49832 1.39293e-17
7128.44843 1.28509e-17
7130.39854 1.27074e-17
7132.34865 1.27079e-17
7134.29876 1.24002e-17
7136.24887 1.29120e-17
7138.19898 1.28806e-17
7140.14909 1.30610e-17
7142.09920 1.33200e-17
7144.04931 1.40256e-17
7145.99942 1.41731e-17
7147.94953 1.31548e-17
7149.89964 1.32565e-17
7151.84975 1.39825e-17
7153.79986 1.31917e-17
7155.74997 1.35266e-17
7157.70008 1.31844e-17
7159.65019 1.28923e-17
7161.60030 1.27367e-17
7163.55041 1.29530e-17
7165.50052 1.23984e-17
7167.45063 1.27696e-17
7169.40074 1.28808e-17
7171.35085 1.22145e-17
7173.30096 1.27781e-17
7175.25107 1.29745e-17
7177.20118 1.29923e-17
7179.15129 1.33430e-17
7181.10140 1.38356e-17
7183.05151 1.36514e-17
7185.00162 1.38244e-17
7186.95173 1.43075e-17
7188.90184 1.39234e-17
7190.85195 1.35373e-17
7192.80206 1.34918e-17
7194.75217 1.36453e-17
7196.70228 1.36615e-17
7198.65239 1.33808e-17
7200.60250 1.29647e-17
7202.55261 1.31732e-17
7204.50272 1.33580e-17
7206.45283 1.35122e-17
7208.40294 1.40767e-17
7210.35305 1.36776e-17
7212.30316 1.37009e-17
7214.25327 1.37116e-17
7216.20338 1.42957e-17
7218.15349 1.43769e-17
7220.10360 1.40976e-17
7222.05371 1.35404e-17
7224.00382 1.34961e-17
7225.95393 1.34551e-17
7227.90404 1.31797e-17
7229.85415 1.38341e-17
7231.80426 1.39003e-17
7233.75437 1.31707e-17
7235.70448 1.30816e-17
7237.65459 1.29859e-17
7239.60470 1.26337e-17
7241.54460 1.23334e-17
7243.50492 1.21283e-17
7245.45503 1.22783e-17
7247.39493 1.34840e-17
7249.34504 1.41780e-17
7251.29515 1.44177e-17
7253.24526 1.42370e-17
7255.19537 1.38569e-17
7257.14548 1.46924e-17
7259.09559 1.51327e-17
7261.04570 1.41005e-17
7262.99581 1.35526e-17
7264.94592 1.39647e-17
7266.89603 1.37167e-17
7268.84614 1.34500e-17
7270.79625 1.34525e-17
7272.74636 1.32336e-17
7274.69647 1.32998e-17
7276.64658 1.32876e-17
7278.59669 1.32226e-17
7280.54680 1.35029e-17
7282.49691 1.33569e-17
7284.44702 1.32099e-17
7286.39713 1.31285e-17
7288.34724 1.34668e-17
7290.29735 1.42200e-17
7292.24746 1.42347e-17
7294.19757 1.46397e-17
7296.14768 1.44498e-17
7298.09779 1.40022e-17
7300.04790 1.35419e-17
7301.99801 1.32952e-17
7303.94812 1.39883e-17
7305.89823 1.41973e-17
7307.84834 1.39930e-17
7309.79845 1.35897e-17
7311.74856 1.34593e-17
7313.69867 1.38922e-17
7315.64878 1.38063e-17
7317.59889 1.33529e-17
7319.54900 1.31614e-17
7321.49911 1.35445e-17
7323.44922 1.41347e-17
7325.39933 1.43119e-17
7327.34944 1.43687e-17
7329.29955 1.45990e-17
7331.24966 1.46712e-17
7333.19977 1.42139e-17
7335.14988 1.38067e-17
7337.09999 1.44487e-17
7339.05010 1.43477e-17
7341.00021 1.36314e-17
7342.95032 1.33584e-17
7344.90043 1.38192e-17
7346.85054 1.43739e-17
7348.80065 1.39847e-17
7350.75076 1.44448e-17
7352.70087 1.48620e-17
7354.65098 1.37586e-17
7356.60109 1.37421e-17
7358.55120 1.40327e-17
7360.50131 1.42593e-17
7362.45142 1.47825e-17
7364.40153 1.40871e-17
7366.35164 1.38281e-17
7368.30175 1.40478e-17
7370.25186 1.40091e-17
7372.20197 1.34460e-17
7374.15208 1.33673e-17
7376.10219 1.39324e-17
7378.05230 1.37327e-17
7380.00241 1.30754e-17
7381.95252 1.26959e-17
7383.90263 1.33694e-17
7385.85274 1.43170e-17
7387.80285 1.43328e-17
7389.75296 1.43148e-17
7391.70307 1.42674e-17
7393.65318 1.49068e-17
7395.60329 1.49416e-17
7397.55340 1.43465e-17
7399.50351 1.44974e-17
7401.45362 1.45330e-17
7403.40373 1.44069e-17
7405.35384 1.37188e-17
7407.30395 1.35786e-17
7409.25406 1.36895e-17
7411.20417 1.32486e-17
7413.15428 1.31568e-17
7415.10439 1.30933e-17
7417.05450 1.31005e-17
7419.00461 1.34313e-17
7420.95472 1.37653e-17
7422.90483 1.45606e-17
7424.85494 1.55586e-17
7426.79484 1.59421e-17
7428.74495 1.57901e-17
7430.69506 1.54216e-17
7432.64517 1.54790e-17
7434.59528 1.49376e-17
7436.54539 1.43670e-17
7438.49550 1.45179e-17
7440.44561 1.37935e-17
7442.39572 1.23175e-17
7444.34583 1.22052e-17
7446.29594 1.29063e-17
7448.24605 1.29434e-17
7450.19616 1.34228e-17
7452.14627 1.41327e-17
7454.09638 1.40234e-17
7456.04649 1.42580e-17
7457.99660 1.47690e-17
7459.94671 1.53595e-17
7461.89682 1.58835e-17
7463.84693 1.60629e-17
7465.79704 1.56838e-17
7467.74715 1.45523e-17
7469.69726 1.34150e-17
7471.64737 1.33389e-17
7473.59748 1.32990e-17
7475.54759 1.29845e-17
7477.49770 1.24282e-17
7479.44781 1.24897e-17
7481.39792 1.25464e-17
7483.34803 1.26310e-17
7485.29814 1.28119e-17
7487.24825 1.36425e-17
7489.19836 1.39745e-17
7491.14847 1.46720e-17
7493.09858 1.54070e-17
7495.04869 1.63327e-17
7496.99880 1.56015e-17
7498.94891 1.47447e-17
7500.89902 1.44288e-17
7502.84913 1.37293e-17
7504.79924 1.31276e-17
7506.74935 1.19146e-17
7508.69946 1.17419e-17
7510.64957 1.20560e-17
7512.59968 1.15313e-17
7514.54979 1.18287e-17
7516.49990 1.25289e-17
7518.45001 1.30728e-17
7520.40012 1.28220e-17
7522.35023 1.43444e-17
7524.30034 1.41274e-17
7526.25045 1.44935e-17
7528.20056 1.39012e-17
7530.15067 1.36290e-17
7532.10078 1.34234e-17
7534.05089 1.31928e-17
7536.00100 1.24162e-17
7537.95111 1.15813e-17
7539.90122 1.09933e-17
7541.85133 1.14036e-17
7543.80144 1.11606e-17
7545.75155 1.03755e-17
7547.70166 1.17868e-17
7549.65177 1.19504e-17
7551.60188 1.26031e-17
7553.55199 1.32800e-17
7555.50210 1.45353e-17
7557.45221 1.44103e-17
7559.40232 1.48898e-17
7561.35243 1.53746e-17
7563.30254 1.52440e-17
7565.25265 1.53009e-17
7567.20276 1.48091e-17
7569.15287 1.41596e-17
7571.10298 1.32531e-17
7573.05309 1.41288e-17
7575.00320 1.37320e-17
7576.95331 1.38185e-17
7578.90342 1.28849e-17
7580.85353 1.28997e-17
7582.80364 1.37835e-17
7584.75375 1.38495e-17
7586.70386 1.52573e-17
7588.65397 1.46262e-17
7590.60408 1.44980e-17
7592.55419 1.42957e-17
7594.50430 1.48202e-17
7596.45441 1.66091e-17
7598.40452 1.42218e-17
7600.35463 1.58741e-17
7602.30474 1.63402e-17
7604.25485 1.66419e-17
7606.20496 1.48248e-17
7608.14486 1.27674e-17
7610.09497 1.25854e-17
7612.04508 1.31405e-17
7613.99519 1.38259e-17
7615.94530 1.37529e-17
7617.89541 1.34384e-17
7619.84552 1.47807e-17
7621.79563 1.64347e-17
7623.74574 1.58855e-17
7625.69585 1.48379e-17
7627.64596 1.51460e-17
7629.59607 1.64934e-17
7631.54618 1.74289e-17
7633.49629 1.53939e-17
7635.44640 1.57116e-17
7637.39651 1.54562e-17
7639.34662 1.47076e-17
7641.29673 1.54122e-17
7643.24684 1.47298e-17
7645.19695 1.38932e-17
7647.14706 1.37926e-17
7649.09717 1.35389e-17
7651.04728 1.41072e-17
7652.99739 1.50845e-17
7654.94750 1.53184e-17
7656.89761 1.51712e-17
7658.84772 1.52830e-17
7660.79783 1.60742e-17
7662.74794 1.46512e-17
7664.69805 1.46089e-17
7666.64816 1.56104e-17
7668.59827 1.51256e-17
7670.54838 1.58848e-17
7672.49849 1.66084e-17
7674.44860 1.51342e-17
7676.39871 1.39635e-17
7678.34882 1.44067e-17
7680.29893 1.38405e-17
7682.24904 1.26047e-17
7684.19915 1.32844e-17
7686.14926 1.28915e-17
7688.09937 1.26377e-17
7690.04948 1.34899e-17
7691.99959 1.37084e-17
7693.94970 1.41230e-17
7695.89981 1.43179e-17
7697.84992 1.51175e-17
7699.80003 1.50060e-17
7701.75014 1.50142e-17
7703.70025 1.45491e-17
7705.65036 1.39464e-17
7707.60047 1.42955e-17
7709.55058 1.43411e-17
7711.50069 1.42298e-17
7713.45080 1.39711e-17
7715.40091 1.34421e-17
7717.35102 1.38367e-17
7719.30113 1.37648e-17
7721.25124 1.28109e-17
7723.20135 1.21410e-17
7725.15146 1.17982e-17
7727.10157 1.10868e-17
7729.05168 1.09679e-17
7731.00179 1.11698e-17
7732.95190 1.08684e-17
7734.90201 1.13149e-17
7736.85212 1.18622e-17
7738.80223 1.21082e-17
7740.75234 1.26972e-17
7742.70245 1.22864e-17
7744.65256 1.26057e-17
7746.60267 1.28492e-17
7748.55278 1.26441e-17
7750.50289 1.32924e-17
7752.45300 1.24191e-17
7754.40311 1.11610e-17
7756.35322 1.07725e-17
7758.30333 1.03888e-17
7760.25344 1.07439e-17
7762.20355 1.05212e-17
7764.15366 1.00335e-17
7766.10377 9.42939e-18
7768.05388 8.50708e-18
7770.00399 7.82646e-18
7771.95410 7.34074e-18
7773.90421 7.06359e-18
7775.85432 7.45602e-18
7777.80443 7.81039e-18
7779.75454 7.42330e-18
7781.70465 6.83552e-18
7783.65476 6.60335e-18
7785.60487 7.80600e-18
7787.54477 8.19794e-18
7789.49488 7.68584e-18
7791.44499 8.28838e-18
7793.39510 9.19149e-18
7795.34521 9.37658e-18
7797.29532 7.90486e-18
7799.24543 6.75654e-18
7801.19554 6.80282e-18
7803.14565 6.92150e-18
7805.09576 7.29244e-18
7807.04587 7.30871e-18
7808.99598 7.16474e-18
7810.94609 6.94184e-18
7812.89620 6.79947e-18
7814.84631 7.41385e-18
7816.79642 6.82257e-18
7818.74653 5.64709e-18
7820.69664 5.86619e-18
7822.64675 6.73355e-18
7824.59686 7.20762e-18
7826.54697 7.13422e-18
7828.49708 7.41952e-18
7830.44719 7.55553e-18
7832.39730 7.88900e-18
7834.34741 8.76369e-18
7836.29752 9.27865e-18
7838.24763 9.41193e-18
7840.19774 1.04671e-17
7842.14785 1.06562e-17
7844.09796 1.06848e-17
7846.04807 1.12269e-17
7847.99818 1.10176e-17
7849.94829 1.08296e-17
7851.89840 1.09702e-17
7853.84851 1.13345e-17
7855.79862 1.11890e-17
7857.74873 1.07798e-17
7859.69884 1.09303e-17
7861.64895 1.10511e-17
7863.59906 1.05309e-17
7865.54917 1.07848e-17
7867.49928 1.13783e-17
7869.44939 1.25620e-17
7871.39950 1.34892e-17
7873.34961 1.18451e-17
7875.29972 1.13970e-17
7877.24983 1.17789e-17
7879.19994 1.18466e-17
7881.15005 1.23601e-17
7883.10016 1.27672e-17
7885.05027 1.31029e-17
7887.00038 1.44546e-17
7888.95049 1.53853e-17
7890.90060 1.54813e-17
7892.85071 1.52918e-17
7894.80082 1.53878e-17
7896.75093 1.56961e-17
7898.70104 1.53929e-17
7900.65115 1.63786e-17
7902.60126 1.70366e-17
7904.55137 1.69781e-17
7906.50148 1.68606e-17
7908.45159 1.64624e-17
7910.40170 1.72851e-17
7912.35181 1.73537e-17
7914.30192 1.57668e-17
7916.25203 1.42823e-17
7918.20214 1.31838e-17
7920.15225 1.24280e-17
7922.10236 1.17488e-17
7924.05247 1.32522e-17
7926.00258 1.29024e-17
7927.95269 1.25904e-17
7929.90280 1.23092e-17
7931.85291 1.28687e-17
7933.80302 1.34823e-17
7935.75313 1.20342e-17
7937.70324 1.28819e-17
7939.65335 1.33857e-17
7941.60346 1.37196e-17
7943.55357 1.40922e-17
7945.50368 1.55743e-17
7947.45379 1.57864e-17
7949.40390 1.56242e-17
7951.35401 1.50888e-17
7953.30412 1.52973e-17
7955.25423 1.49860e-17
7957.20434 1.46966e-17
7959.15445 1.50526e-17
7961.10456 1.62042e-17
7963.05467 1.70041e-17
7965.00478 1.61301e-17
7966.94468 1.58216e-17
7968.89479 1.53521e-17
7970.84490 1.45117e-17
7972.79501 1.35504e-17
7974.74512 1.45985e-17
7976.69523 1.53935e-17
7978.64534 1.37834e-17
7980.59545 1.51939e-17
7982.54556 1.43023e-17
7984.49567 1.42258e-17
7986.44578 1.34755e-17
7988.39589 1.42076e-17
7990.34600 1.30751e-17
7992.29611 1.19239e-17
7994.24622 1.24353e-17
7996.19633 1.29155e-17
7998.14644 1.32882e-17
8000.09655 1.46965e-17
8002.04666 1.45855e-17
8003.99677 1.40789e-17
8005.94688 1.39444e-17
8007.89699 1.33654e-17
8009.84710 1.40263e-17
8011.79721 1.37089e-17
8013.74732 1.23196e-17
8015.69743 1.31580e-17
8017.64754 1.43314e-17
8019.59765 1.41897e-17
8021.54776 1.42086e-17
8023.49787 1.46358e-17
8025.44798 1.55955e-17
8027.39809 1.70373e-17
8029.34820 1.57533e-17
8031.29831 1.54803e-17
8033.24842 1.53024e-17
8035.19853 1.45901e-17
8037.14864 1.49347e-17
8039.09875 1.53930e-17
8041.04886 1.49115e-17
8042.99897 1.53384e-17
8044.94908 1.59140e-17
8046.89919 1.51710e-17
8048.84930 1.57425e-17
8050.79941 1.57725e-17
8052.74952 1.35453e-17
8054.69963 1.32528e-17
8056.64974 1.34574e-17
8058.59985 1.39698e-17
8060.54996 1.53056e-17
8062.50007 1.46033e-17
8064.45018 1.36565e-17
8066.40029 1.36500e-17
8068.35040 1.40348e-17
8070.30051 1.30846e-17
8072.25062 1.20616e-17
8074.20073 1.25144e-17
8076.15084 1.31029e-17
8078.10095 1.24005e-17
8080.05106 1.23011e-17
8082.00117 1.24363e-17
8083.95128 1.18105e-17
8085.90139 1.21714e-17
8087.85150 1.25009e-17
8089.80161 1.30520e-17
8091.75172 1.34266e-17
8093.70183 1.28956e-17
8095.65194 1.20224e-17
8097.60205 1.19048e-17
8099.55216 1.09036e-17
8101.50227 1.02853e-17
8103.45238 1.16186e-17
8105.40249 1.09801e-17
8107.35260 1.06891e-17
8109.30271 1.05043e-17
8111.25282 1.02834e-17
8113.20293 1.10237e-17
8115.15304 1.15972e-17
8117.10315 1.07852e-17
8119.05326 1.04504e-17
8121.00337 1.10193e-17
8122.95348 1.14949e-17
8124.90359 1.06039e-17
8126.85370 1.06664e-17
8128.80381 1.13115e-17
8130.75392 1.07587e-17
8132.70403 9.93540e-18
8134.65414 9.70002e-18
8136.60425 1.02614e-17
8138.55436 1.07188e-17
8140.50447 1.08585e-17
8142.45458 1.13979e-17
8144.40469 1.07128e-17
8146.35480 1.00821e-17
8148.29470 1.05232e-17
8150.24481 1.05037e-17
8152.19492 1.06140e-17
8154.14503 1.09564e-17
8156.09514 1.07372e-17
8158.04525 1.12069e-17
8159.99536 1.11286e-17
8161.94547 1.07502e-17
8163.89558 1.13494e-17
8165.84569 1.15338e-17
8167.79580 1.07944e-17
8169.74591 1.00803e-17
8171.69602 1.07992e-17
8173.64613 1.10115e-17
8175.59624 1.07198e-17
8177.54635 1.07973e-17
8179.49646 1.12428e-17
8181.44657 1.20076e-17
8183.39668 1.20941e-17
8185.34679 1.19873e-17
8187.29690 1.13891e-17
8189.24701 1.15187e-17
8191.19712 1.26544e-17
8193.14723 1.28213e-17
8195.09734 1.23943e-17
8197.04745 1.27335e-17
8198.99756 1.24920e-17
8200.94767 1.22915e-17
8202.89778 1.26849e-17
8204.84789 1.25542e-17
8206.79800 1.21191e-17
8208.74811 1.21653e-17
8210.69822 1.26646e-17
8212.64833 1.29653e-17
8214.59844 1.26186e-17
8216.54855 1.20816e-17
8218.49866 1.19855e-17
8220.44877 1.24640e-17
8222.39888 1.19530e-17
8224.34899 1.12196e-17
8226.29910 1.19393e-17
8228.24921 1.20296e-17
8230.19932 1.09697e-17
8232.14943 1.08512e-17
8234.09954 1.10383e-17
8236.04965 1.11717e-17
8237.99976 1.08695e-17
8239.94987 1.09722e-17
8241.89998 1.14441e-17
8243.85009 1.16050e-17
8245.80020 1.16689e-17
8247.75031 1.23535e-17
8249.70042 1.21125e-17
8251.65053 1.16343e-17
8253.60064 1.09567e-17
8255.55075 1.02489e-17
8257.50086 1.04234e-17
8259.45097 9.85831e-18
8261.40108 7.63490e-18
8263.35119 7.36403e-18
8265.30130 9.95145e-18
8267.25141 9.61919e-18
8269.20152 9.79301e-18
8271.15163 1.01942e-17
8273.10174 1.00642e-17
8275.05185 9.82868e-18
8277.00196 1.01438e-17
8278.95207 1.03838e-17
8280.90218 1.05958e-17
8282.85229 9.49996e-18
8284.80240 9.25955e-18
8286.75251 9.93190e-18
8288.70262 1.03084e-17
8290.65273 1.08670e-17
8292.60284 1.07438e-17
8294.55295 1.15239e-17
8296.50306 1.09589e-17
8298.45317 1.16104e-17
8300.40328 1.29166e-17
8302.35339 1.18680e-17
8304.30350 1.20092e-17
8306.25361 1.05591e-17
8308.20372 9.89805e-18
8310.15383 1.01626e-17
8312.10394 1.05232e-17
8314.05405 9.24279e-18
8316.00416 9.05733e-18
8317.95427 1.03333e-17
8319.90438 9.66656e-18
8321.85449 9.69503e-18
8323.80460 9.32937e-18
8325.75471 9.27394e-18
8327.70482 8.96588e-18
8329.65493 9.70470e-18
8331.59483 9.38146e-18
8333.54494 8.57601e-18
8335.49505 8.08327e-18
8337.44516 7.60187e-18
8339.40548 7.06104e-18
8341.34538 7.79831e-18
8343.29549 8.79141e-18
8345.24560 7.71623e-18
8347.19571 6.49330e-18
8349.14582 6.64177e-18
8351.09593 6.05685e-18
8353.04604 5.93317e-18
8354.99615 8.22085e-18
8356.94626 8.12742e-18
8358.89637 7.99076e-18
8360.84648 7.21092e-18
8362.79659 8.22594e-18
8364.74670 6.07255e-18
8366.69681 6.73406e-18
8368.64692 6.41315e-18
8370.59703 7.69183e-18
8372.54714 6.96571e-18
8374.49725 6.83732e-18
8376.44736 7.41304e-18
8378.39747 8.08033e-18
8380.34758 7.69265e-18
8382.29769 7.58013e-18
8384.24780 6.29745e-18
8386.19791 5.94829e-18
8388.14802 6.93033e-18
8390.09813 7.49063e-18
8392.04824 8.45406e-18
8393.99835 7.91333e-18
8395.94846 7.54107e-18
8397.89857 9.74584e-18
8399.84868 9.83626e-18
8401.79879 8.05965e-18
8403.74890 7.24438e-18
8405.69901 8.16351e-18
8407.64912 8.18339e-18
8409.59923 8.86663e-18
8411.54934 9.59739e-18
8413.49945 8.36275e-18
8415.44956 9.16242e-18
8417.39967 8.06415e-18
8419.34978 8.18475e-18
8421.29989 8.49927e-18
8423.25000 8.58476e-18
8425.20011 8.17787e-18
8427.15022 6.55212e-18
8429.10033 6.93698e-18
8431.05044 7.68070e-18
8433.00055 7.94224e-18
8434.95066 6.48539e-18
8436.90077 7.00670e-18
8438.85088 6.71791e-18
8440.80099 5.32395e-18
8442.75110 6.13818e-18
8444.70121 7.14620e-18
8446.65132 6.30479e-18
8448.60143 6.05092e-18
8450.55154 5.68040e-18
8452.50165 5.52768e-18
8454.45176 5.19096e-18
8456.40187 4.87905e-18
8458.35198 4.92014e-18
8460.30209 5.18109e-18
8462.25220 4.60193e-18
8464.20231 5.91185e-18
8466.15242 5.27182e-18
8468.10253 4.42790e-18
8470.05264 4.32664e-18
8472.00275 4.40083e-18
8473.95286 4.29311e-18
8475.90297 3.68887e-18
8477.85308 4.02786e-18
8479.80319 4.03145e-18
8481.75330 3.24962e-18
8483.70341 2.30641e-18
8485.65352 3.25986e-18
8487.60363 3.57016e-18
8489.55374 3.84289e-18
8491.50385 3.60608e-18
8493.45396 2.40740e-18
8495.40407 2.35778e-18
8497.35418 2.59348e-18
8499.30429 3.02947e-18
8501.25440 3.21709e-18
8503.20451 2.90155e-18
8505.15462 2.61149e-18
8507.09452 2.75107e-18
8509.05484 2.31144e-18
8511.00495 2.71504e-18
8512.95506 3.15377e-18
8514.89496 2.51830e-18
8516.84507 2.56697e-18
8518.79518 3.09301e-18
8520.74529 3.65582e-18
8522.69540 2.89664e-18
8524.64551 2.97981e-18
8526.59562 3.63320e-18
8528.54573 3.06237e-18
8530.49584 3.36753e-18
8532.44595 3.78505e-18
8534.39606 3.74803e-18
8536.34617 3.98896e-18
8538.29628 4.23414e-18
8540.24639 4.00761e-18
8542.19650 3.92812e-18
8544.14661 4.71023e-18
8546.09672 4.50860e-18
8548.04683 3.84787e-18
8549.99694 4.44507e-18
8551.94705 4.93437e-18
8553.89716 4.27999e-18
8555.84727 3.61854e-18
8557.79738 3.78958e-18
8559.74749 3.99000e-18
8561.69760 4.01636e-18
8563.64771 3.83703e-18
8565.59782 3.70923e-18
8567.54793 4.13893e-18
8569.49804 4.65035e-18
8571.44815 4.67030e-18
8573.39826 4.14777e-18
8575.34837 4.64078e-18
8577.29848 5.16978e-18
8579.24859 4.70025e-18
8581.19870 5.29393e-18
8583.14881 5.93051e-18
8585.09892 5.56842e-18
8587.04903 5.42980e-18
8588.99914 5.71460e-18
8590.94925 5.38092e-18
8592.89936 5.82087e-18
8594.84947 5.87414e-18
8596.79958 5.77171e-18
8598.74969 5.90270e-18
8600.69980 6.04994e-18
8602.64991 5.75690e-18
8604.60002 5.06813e-18
8606.55013 5.50826e-18
8608.50024 5.73284e-18
8610.45035 5.48701e-18
8612.40046 4.50465e-18
8614.35057 4.65012e-18
8616.30068 6.04267e-18
8618.25079 6.03480e-18
8620.20090 5.79189e-18
8622.15101 5.27902e-18
8624.10112 4.94583e-18
8626.05123 4.78443e-18
8628.00134 4.18466e-18
8629.95145 5.02579e-18
8631.90156 5.62794e-18
8633.85167 5.90667e-18
8635.80178 5.39245e-18
8637.75189 4.78756e-18
8639.70200 4.60126e-18
8641.65211 5.37618e-18
8643.60222 5.80912e-18
8645.55233 5.62235e-18
8647.50244 6.52300e-18
8649.45255 6.15589e-18
8651.40266 5.85628e-18
8653.35277 4.84926e-18
8655.30288 5.85308e-18
8657.25299 6.82724e-18
8659.20310 7.55813e-18
8661.15321 6.96004e-18
8663.10332 6.60140e-18
8665.05343 7.04717e-18
8667.00354 6.94164e-18
8668.95365 5.79083e-18
8670.90376 6.04652e-18
8672.85387 6.22692e-18
8674.80398 6.39393e-18
8676.75409 6.20512e-18
8678.70420 6.30469e-18
8680.65431 7.04704e-18
8682.59421 5.89388e-18
8684.54432 6.16150e-18
8686.49443 6.98845e-18
8688.45475 6.93911e-18
8690.40486 6.39328e-18
8692.34476 6.76270e-18
8694.29487 6.79366e-18
8696.24498 8.03667e-18
8698.19509 7.42915e-18
8700.15541 7.91526e-18
8702.09531 8.70134e-18
8704.04542 8.33530e-18
8705.99553 8.57533e-18
8707.94564 8.88718e-18
8709.89575 9.25464e-18
8711.84586 9.68890e-18
8713.79597 9.24565e-18
8715.74608 8.60121e-18
8717.69619 8.75379e-18
8719.64630 9.38109e-18
8721.59641 9.30194e-18
8723.54652 9.38683e-18
8725.49663 9.58201e-18
8727.44674 1.01221e-17
8729.39685 1.05568e-17
8731.34696 1.03750e-17
8733.29707 1.04519e-17
8735.24718 1.08701e-17
8737.19729 1.09073e-17
8739.14740 1.14079e-17
8741.09751 1.16870e-17
8743.04762 1.16027e-17
8744.99773 1.21582e-17
8746.94784 1.12984e-17
8748.89795 1.08344e-17
8750.84806 1.22100e-17
8752.79817 1.31609e-17
8754.74828 1.47605e-17
8756.69839 1.38304e-17
8758.64850 1.09525e-17
8760.59861 1.31795e-17
8762.54872 1.18141e-17
8764.49883 1.08583e-17
8766.44894 1.32327e-17
8768.39905 1.29509e-17
8770.34916 1.39198e-17
8772.29927 1.41274e-17
8774.24938 1.29867e-17
8776.19949 1.28425e-17
8778.14960 1.29051e-17
8780.09971 1.29488e-17
8782.04982 1.44485e-17
8783.99993 1.08187e-17
8785.95004 9.97519e-18
8787.90015 1.50083e-17
8789.85026 1.54443e-17
8791.80037 1.57358e-17
8793.75048 1.59424e-17
8795.70059 1.61610e-17
8797.65070 1.63247e-17
8799.60081 1.62284e-17
8801.55092 1.75016e-17
8803.50103 1.73963e-17
8805.45114 1.69412e-17
8807.40125 1.71527e-17
8809.35136 1.63058e-17
8811.30147 1.49854e-17
8813.25158 1.52011e-17
8815.20169 1.69808e-17
8817.15180 1.64453e-17
8819.10191 1.46498e-17
8821.05202 1.40477e-17
8823.00213 1.40977e-17
8824.95224 1.58428e-17
8826.90235 1.70998e-17
8828.85246 1.64965e-17
8830.80257 1.52106e-17
8832.75268 1.42486e-17
8834.70279 1.42563e-17
8836.65290 1.45035e-17
8838.60301 1.50413e-17
8840.55312 1.65985e-17
8842.50323 1.65819e-17
8844.45334 1.56517e-17
8846.40345 1.52528e-17
8848.35356 1.58608e-17
8850.30367 1.64942e-17
8852.25378 1.58837e-17
8854.20389 1.55587e-17
8856.15400 1.57854e-17
8858.10411 1.58277e-17
8860.05422 1.71274e-17
8862.00433 1.63729e-17
8863.95444 1.48398e-17
8865.90455 1.63911e-17
8867.85466 1.68215e-17
8869.80477 1.59643e-17
8871.75488 1.45990e-17
8873.70499 1.32545e-17
8875.64489 1.32008e-17
8877.59500 1.49785e-17
8879.54511 1.65608e-17
8881.49522 1.58386e-17
8883.44533 1.42329e-17
8885.39544 1.43078e-17
8887.34555 1.48388e-17
8889.29566 1.48193e-17
8891.24577 1.50761e-17
8893.19588 1.51404e-17
8895.14599 1.40850e-17
8897.09610 1.30083e-17
8899.04621 1.31064e-17
8900.99632 1.48331e-17
8902.94643 1.36128e-17
8904.89654 1.27330e-17
8906.84665 1.26037e-17
8908.79676 1.40204e-17
8910.74687 1.50711e-17
8912.69698 1.40980e-17
8914.64709 1.37202e-17
8916.59720 1.33168e-17
8918.54731 1.27637e-17
8920.49742 1.36593e-17
8922.44753 1.51477e-17
8924.39764 1.45708e-17
8926.34775 1.43197e-17
8928.29786 1.52702e-17
8930.24797 1.49651e-17
8932.19808 1.45122e-17
8934.14819 1.50846e-17
8936.09830 1.57856e-17
8938.04841 1.52853e-17
8939.99852 1.46585e-17
8941.94863 1.58966e-17
8943.89874 1.52544e-17
8945.84885 1.37810e-17
8947.79896 1.41239e-17
8949.74907 1.43832e-17
8951.69918 1.46444e-17
8953.64929 1.35411e-17
8955.59940 1.20431e-17
8957.54951 1.25423e-17
8959.49962 1.34440e-17
8961.44973 1.22360e-17
8963.39984 1.26699e-17
8965.34995 1.42652e-17
8967.30006 1.18854e-17
8969.25017 9.57562e-18
8971.20028 1.25297e-17
8973.15039 1.23713e-17
8975.10050 1.33333e-17
8977.05061 1.47025e-17
8979.00072 1.45199e-17
8980.95083 1.45640e-17
8982.90094 1.42128e-17
8984.85105 1.51785e-17
8986.80116 1.63415e-17
8988.75127 1.27882e-17
8990.70138 1.32405e-17
8992.65149 1.25250e-17
8994.60160 1.27948e-17
8996.55171 1.26176e-17
8998.50182 1.19667e-17
9000.45193 1.22482e-17
9002.40204 1.18029e-17
9004.35215 1.22758e-17
9006.30226 1.34150e-17
9008.25237 1.27055e-17
9010.20248 1.24502e-17
9012.15259 1.29186e-17
9014.10270 1.15019e-17
9016.05281 1.21506e-17
9018.00292 1.13337e-17
9019.95303 9.01496e-18
9021.90314 1.02310e-17
9023.85325 1.26470e-17
9025.80336 1.15289e-17
9027.75347 9.29924e-18
9029.70358 1.05459e-17
9031.65369 1.02510e-17
9033.60380 8.33259e-18
9035.55391 7.93651e-18
9037.50402 1.08929e-17
9039.45413 1.01533e-17
9041.40424 9.34178e-18
9043.34414 7.36313e-18
9045.29425 8.54901e-18
9047.25457 1.08674e-17
9049.20468 8.48268e-18
9051.15479 8.14289e-18
9053.09469 8.23149e-18
9055.04480 7.11488e-18
9056.99491 7.59654e-18
9058.94502 8.93048e-18
9060.90534 7.85100e-18
9062.84524 5.97632e-18
9064.79535 7.19406e-18
9066.74546 7.69344e-18
9068.69557 7.62217e-18
9070.64568 7.07314e-18
9072.59579 5.68076e-18
9074.54590 4.48010e-18
9076.49601 4.48004e-18
9078.44612 4.26015e-18
9080.39623 5.70838e-18
9082.34634 6.19772e-18
9084.29645 4.32674e-18
9086.24656 5.26381e-18
9088.19667 6.68974e-18
9090.14678 5.56988e-18
9092.09689 4.31935e-18
9094.04700 3.47446e-18
9095.99711 4.82761e-18
9097.94722 5.24190e-18
9099.89733 3.85725e-18
9101.84744 4.43369e-18
9103.79755 3.69777e-18
9105.74766 3.28460e-18
9107.69777 5.10027e-18
9109.64788 5.32111e-18
9111.59799 3.35273e-18
9113.54810 3.90639e-18
9115.49821 5.44227e-18
9117.44832 3.49266e-18
9119.39843 2.04799e-18
9121.34854 4.09415e-18
9123.29865 5.34030e-18
9125.24876 4.60094e-18
9127.19887 3.44165e-18
9129.14898 2.14659e-18
9131.09909 5.01275e-18
9133.04920 4.57429e-18
9134.99931 3.01803e-18
9136.94942 4.38321e-18
9138.89953 5.06166e-18
9140.84964 4.06456e-18
9142.79975 4.80334e-18
9144.74986 5.33938e-18
9146.69997 4.21522e-18
9148.65008 3.73524e-18
9150.60019 4.68585e-18
9152.55030 5.21339e-18
9154.50041 3.50765e-18
9156.45052 3.93761e-18
9158.40063 4.53646e-18
9160.35074 4.34470e-18
9162.30085 4.92330e-18
9164.25096 4.25816e-18
9166.20107 4.52409e-18
9168.15118 5.49513e-18
9170.10129 5.35731e-18
9172.05140 4.83400e-18
9174.00151 4.73424e-18
9175.95162 5.07257e-18
9177.90173 4.85003e-18
9179.85184 5.78186e-18
9181.80195 5.44887e-18
9183.75206 5.23755e-18
9185.70217 5.19457e-18
9187.65228 5.00145e-18
9189.60239 5.94473e-18
9191.55250 5.62307e-18
9193.50261 5.19603e-18
9195.45272 5.78190e-18
9197.40283 5.37385e-18
9199.35294 4.88102e-18
9201.30305 5.39966e-18
9203.25316 6.57810e-18
9205.20327 6.94985e-18
9207.15338 6.83318e-18
9209.10349 6.99183e-18
9211.05360 5.88884e-18
9213.00371 5.80546e-18
9214.95382 7.22547e-18
9216.90393 6.24983e-18
9218.85404 5.04263e-18
9220.80415 6.92007e-18
9222.75426 9.09358e-18
9224.70437 7.69676e-18
9226.65448 5.61277e-18
9228.60459 5.88988e-18
9230.55470 5.94042e-18
9232.50481 5.54558e-18
9234.44471 4.95790e-18
9236.39482 5.07713e-18
9238.34493 5.36451e-18
9240.29504 5.04902e-18
9242.24515 4.80872e-18
9244.19526 3.94888e-18
9246.14537 5.85289e-18
9248.09548 6.13138e-18
9250.04559 3.21686e-18
9251.99570 2.75758e-18
9253.94581 4.26538e-18
9255.89592 4.28850e-18
9257.84603 3.82162e-18
9259.79614 3.70991e-18
9261.74625 4.53577e-18
9263.69636 5.48637e-18
9265.64647 3.41908e-18
9267.59658 2.42296e-18
9269.54669 3.83803e-18
9271.49680 4.28914e-18
9273.44691 4.05190e-18
9275.39702 2.67980e-18
9277.34713 3.01132e-18
9279.29724 4.32854e-18
9281.24735 3.32640e-18
9283.19746 3.63024e-18
9285.14757 4.63979e-18
9287.09768 4.28277e-18
9289.04779 2.69495e-18
9290.99790 1.73969e-18
9292.94801 3.09381e-18
9294.89812 3.38639e-18
9296.84823 1.91356e-18
9298.79834 1.99689e-18
9300.74845 2.67041e-18
9302.69856 1.70256e-18
9304.64867 7.05926e-19
9306.59878 1.99070e-18
9308.54889 3.87384e-18
9310.49900 2.95393e-18
9312.44911 2.06034e-18
9314.39922 2.40295e-18
9316.34933 7.93080e-19
9318.29944 1.10426e-19
9320.24955 1.39896e-18
9322.19966 1.99815e-18
9324.14977 7.98842e-19
9326.09988 -2.48052e-19
9328.04999 1.86044e-18
9330.00010 3.21752e-18
9331.95021 1.29508e-18
9333.90032 5.33615e-19
9335.85043 1.81143e-18
9337.80054 1.75601e-18
9339.75065 1.21567e-18
9341.70076 5.31289e-19
9343.65087 3.33529e-19
9345.60098 1.29296e-18
9347.55109 1.28356e-18
9349.50120 8.46061e-19
9351.45131 1.37718e-18
9353.40142 1.21478e-18
9355.35153 9.76633e-19
9357.30164 1.39556e-18
9359.25175 1.21426e-18
9361.20186 1.62402e-18
9363.15197 1.27915e-18
9365.10208 7.86513e-19
9367.05219 4.46059e-19
9369.00230 1.57444e-18
9370.95241 2.26733e-18
9372.90252 2.20500e-18
9374.85263 1.80655e-18
9376.80274 3.29015e-19
9378.75285 1.58216e-18
9380.70296 2.24040e-18
9382.65307 1.46289e-19
9384.60318 5.08551e-19
9386.55329 1.43342e-18
9388.50340 1.10215e-18
9390.45351 4.29207e-19
9392.40362 1.18483e-18
9394.35373 1.25172e-18
9396.30384 1.02703e-18
9398.25395 1.81687e-18
9400.20406 1.78323e-18
9402.15417 1.61204e-18
9404.09407 1.20155e-18
9406.04418 8.18340e-19
9408.00450 1.22710e-18
9409.95461 9.66936e-19
9411.90472 1.07447e-19
9413.84462 1.36562e-20
9415.79473 5.29388e-19
9417.74484 9.55570e-19
9419.70516 1.15932e-18
9421.65527 1.69440e-18
9423.59517 1.21705e-18
9425.54528 5.20703e-19
9427.49539 4.44272e-19
9429.44550 2.41359e-19
9431.39561 1.18042e-18
9433.34572 7.95891e-19
9435.29583 7.30288e-19
9437.24594 1.14336e-18
9439.19605 9.09988e-19
9441.14616 1.99330e-18
9443.09627 1.80811e-18
9445.04638 6.53892e-19
9446.99649 -4.94932e-19
9448.94660 4.72341e-19
9450.89671 1.41938e-18
9452.84682 5.92986e-19
9454.79693 3.53760e-19
9456.74704 1.33370e-18
9458.69715 1.01996e-19
9460.64726 -3.35460e-19
9462.59737 6.98710e-20
9464.54748 1.20658e-18
9466.49759 -3.33924e-19
9468.44770 -7.73753e-19
9470.39781 6.01145e-19
9472.34792 1.09902e-18
9474.29803 2.24426e-18
9476.24814 1.68954e-18
9478.19825 3.40001e-19
9480.14836 5.27993e-19
9482.09847 5.52928e-19
9484.04858 6.14501e-19
9485.99869 1.64782e-18
9487.94880 1.52863e-18
9489.89891 1.12749e-18
9491.84902 9.36982e-19
9493.79913 2.04605e-18
9495.74924 1.44521e-18
9497.69935 7.67281e-19
9499.64946 -2.57918e-19
9501.59957 1.47345e-18
9503.54968 -1.13278e-19
9505.49979 1.59551e-18
9507.44990 7.15544e-19
9509.40001 8.40333e-19
9511.35012 8.61615e-19
9513.30023 2.81156e-19
9515.25034 1.31777e-18
9517.20045 1.74278e-18
9519.15056 1.13159e-19
9521.10067 9.98224e-21
9523.05078 5.01480e-19
9525.00089 1.81223e-18
9526.95100 1.92165e-18
9528.90111 2.73954e-19
9530.85122 -6.92836e-19
9532.80133 1.20439e-18
9534.75144 1.42354e-18
9536.70155 1.46858e-18
9538.65166 6.93979e-19
9540.60177 1.67760e-18
9542.55188 1.10782e-18
9544.50199 1.07882e-18
9546.45210 1.80414e-18
9548.40221 1.19626e-18
9550.35232 9.03042e-19
9552.30243 -1.85543e-19
9554.25254 1.13271e-18
9556.20265 1.06739e-18
9558.15276 4.41128e-19
9560.10287 5.29669e-19
9562.05298 1.61992e-18
9564.00309 1.77754e-18
9565.95320 1.70781e-19
9567.90331 8.08319e-19
9569.85342 2.60327e-19
9571.80353 3.32215e-19
9573.75364 1.03873e-18
9575.70375 6.22621e-19
9577.65386 6.72215e-19
9579.60397 6.37362e-19
9581.55408 -8.34791e-20
9583.50419 -2.15918e-19
9585.45430 5.52624e-19
9587.40441 4.19439e-19
9589.35452 -3.23994e-19
9591.30463 6.27457e-19
9593.25474 2.14283e-19
9595.19464 2.06592e-19
9597.14475 4.15993e-19
9599.09486 -2.24729e-19
9601.04497 1.13651e-19
9602.99508 -1.96726e-19
9604.94519 -2.67285e-20
9606.89530 2.11074e-19
9608.84541 6.00660e-20
9610.79552 3.96157e-19
9612.74563 5.36692e-19
9614.69574 5.01228e-19
9616.64585 3.46189e-19
9618.59596 4.30732e-19
9620.54607 4.71748e-19
9622.49618 3.75664e-19
9624.44629 3.07808e-19
9626.39640 -8.92714e-20
9628.34651 -3.25540e-19
9630.29662 1.55832e-19
9632.24673 2.83445e-19
9634.19684 -7.87596e-20
9636.14695 -2.44153e-19
9638.09706 -2.57183e-19
9640.04717 -2.10899e-19
9641.99728 8.90222e-21
9643.94739 6.46235e-19
9645.89750 9.62055e-19
9647.84761 2.32235e-19
9649.79772 1.92503e-19
9651.74783 8.08105e-19
9653.69794 3.02252e-19
9655.64805 -3.92686e-20
9657.59816 1.03278e-19
9659.54827 -3.24582e-20
9661.49838 3.05446e-19
9663.44849 6.95478e-19
9665.39860 1.62235e-20
9667.34871 -3.57799e-20
9669.29882 4.71154e-19
9671.24893 5.94402e-20
9673.19904 1.54189e-19
9675.14915 2.48930e-19
9677.09926 3.43664e-19
9679.04937 4.38390e-19
9680.99948 5.33107e-19
9682.94959 6.27817e-19
9684.89970 7.22520e-19
9686.84981 7.22490e-19
9688.79992 3.07375e-19
9690.75003 1.60031e-19
9692.70014 -1.21391e-19
9694.65025 -2.24234e-19
9696.60036 -1.38102e-19
9698.55047 -1.88807e-19
9700.50058 -8.69973e-20
9702.45069 3.54238e-20
9704.40080 1.59202e-19
9706.35091 1.45694e-19
9708.30102 4.67113e-20
9710.25113 1.92445e-19
9712.20124 -2.09297e-20
9714.15135 -7.39099e-20
9716.10146 3.09405e-20
9718.05157 9.09902e-20
9720.00168 -1.14509e-19
