# wavelength flux
3300.0 9.112296224896387e-18
3301.0 9.10401765370394e-18
3302.0 9.095745850948934e-18
3303.0 9.08748081246494e-18
3304.0 9.079222534085562e-18
3305.0 9.070971011644468e-18
3306.0 9.062726240975407e-18
3307.0 9.054488217912176e-18
3308.0 9.046256938288657e-18
3309.0 9.038032397938803e-18
3310.0 9.029814592696664e-18
3311.0 9.021603518396374e-18
3312.0 9.013399170872163e-18
3313.0 9.005201545958359e-18
3314.0 8.997010639489408e-18
3315.0 8.988826447299859e-18
3316.0 8.98064896522438e-18
3317.0 8.972478189097759e-18
3318.0 8.964314114754923e-18
3319.0 8.956156738030918e-18
3320.0 8.94800605476094e-18
3321.0 8.939862060780318e-18
3322.0 8.931724751924548e-18
3323.0 8.923594124029259e-18
3324.0 8.915470172930257e-18
3325.0 8.907352894463502e-18
3326.0 8.899242284465135e-18
3327.0 8.89113833877146e-18
3328.0 8.883041053218968e-18
3329.0 8.874950423644339e-18
3330.0 8.866866445884444e-18
3331.0 8.858789115776344e-18
3332.0 8.850718429157306e-18
3333.0 8.842654381864797e-18
3334.0 8.834596969736514e-18
3335.0 8.826546188610352e-18
3336.0 8.818502034324434e-18
3337.0 8.810464502717112e-18
3338.0 8.802433589626971e-18
3339.0 8.794409290892835e-18
3340.0 8.786391602353764e-18
3341.0 8.778380519849067e-18
3342.0 8.770376039218322e-18
3343.0 8.762378156301338e-18
3344.0 8.754386866938206e-18
3345.0 8.746402166969277e-18
3346.0 8.73842405223518e-18
3347.0 8.730452518576823e-18
3348.0 8.72248756183539e-18
3349.0 8.714529177852354e-18
3350.0 8.706577362469488e-18
3351.0 8.698632111528861e-18
3352.0 8.69069342087284e-18
3353.0 8.682761286344103e-18
3354.0 8.674835703785646e-18
3355.0 8.666916669040777e-18
3356.0 8.659004177953128e-18
3357.0 8.651098226366655e-18
3358.0 8.643198810125657e-18
3359.0 8.635305925074765e-18
3360.0 8.627419567058953e-18
3361.0 8.619539731923532e-18
3362.0 8.61166641551419e-18
3363.0 8.603799613676952e-18
3364.0 8.59593932225821e-18
3365.0 8.588085537104721e-18
3366.0 8.580238254063625e-18
3367.0 8.572397468982423e-18
3368.0 8.564563177709014e-18
3369.0 8.556735376091661e-18
3370.0 8.548914059979045e-18
3371.0 8.541099225220225e-18
3372.0 8.533290867664662e-18
3373.0 8.525488983162227e-18
3374.0 8.517693567563205e-18
3375.0 8.50990461671829e-18
3376.0 8.502122126478593e-18
3377.0 8.494346092695654e-18
3378.0 8.486576511221445e-18
3379.0 8.478813377908368e-18
3380.0 8.471056688609265e-18
3381.0 8.463306439177422e-18
3382.0 8.455562625466562e-18
3383.0 8.447825243330888e-18
3384.0 8.44009428862503e-18
3385.0 8.4323697572041e-18
3386.0 8.424651644923668e-18
3387.0 8.416939947639779e-18
3388.0 8.409234661208953e-18
3389.0 8.401535781488189e-18
3390.0 8.393843304334972e-18
3391.0 8.38615722560728e-18
3392.0 8.378477541163583e-18
3393.0 8.370804246862851e-18
3394.0 8.36313733856455e-18
3395.0 8.355476812128673e-18
3396.0 8.347822663415706e-18
3397.0 8.340174888286664e-18
3398.0 8.332533482603074e-18
3399.0 8.324898442227005e-18
3400.0 8.317269763021041e-18
3401.0 8.309647440848313e-18
3402.0 8.302031471572479e-18
3403.0 8.29442185105776e-18
3404.0 8.286818575168911e-18
3405.0 8.279221639771242e-18
3406.0 8.271631040730625e-18
3407.0 8.264046773913497e-18
3408.0 8.256468835186855e-18
3409.0 8.248897220418275e-18
3410.0 8.24133192547589e-18
3411.0 8.233772946228445e-18
3412.0 8.226220278545238e-18
3413.0 8.218673918296177e-18
3414.0 8.211133861351748e-18
3415.0 8.20360010358305e-18
3416.0 8.196072640861773e-18
3417.0 8.188551469060215e-18
3418.0 8.181036584051285e-18
3419.0 8.173527981708515e-18
3420.0 8.166025657906043e-18
3421.0 8.158529608518642e-18
3422.0 8.151039829421703e-18
3423.0 8.143556316491262e-18
3424.0 8.136079065603981e-18
3425.0 8.128608072637167e-18
3426.0 8.121143333468767e-18
3427.0 8.113684843977392e-18
3428.0 8.10623260004229e-18
3429.0 8.098786597543375e-18
3430.0 8.091346832361221e-18
3431.0 8.083913300377076e-18
3432.0 8.076485997472845e-18
3433.0 8.06906491953112e-18
3434.0 8.061650062435164e-18
3435.0 8.05424142206893e-18
3436.0 8.046838994317054e-18
3437.0 8.039442775064864e-18
3438.0 8.032052760198383e-18
3439.0 8.024668945604343e-18
3440.0 8.017291327170168e-18
3441.0 8.009919900783997e-18
3442.0 8.002554662334676e-18
3443.0 7.995195607711772e-18
3444.0 7.98784273280558e-18
3445.0 7.980496033507103e-18
3446.0 7.973155505708084e-18
3447.0 7.965821145300997e-18
3448.0 7.958492948179055e-18
3449.0 7.951170910236208e-18
3450.0 7.943855027367147e-18
3451.0 7.936545295467327e-18
3452.0 7.929241710432947e-18
3453.0 7.92194426816096e-18
3454.0 7.914652964549079e-18
3455.0 7.9073677954958e-18
3456.0 7.900088756900367e-18
3457.0 7.892815844662809e-18
3458.0 7.885549054683927e-18
3459.0 7.878288382865308e-18
3460.0 7.871033825109326e-18
3461.0 7.86378537731913e-18
3462.0 7.856543035398679e-18
3463.0 7.849306795252722e-18
3464.0 7.842076652786812e-18
3465.0 7.834852603907302e-18
3466.0 7.827634644521351e-18
3467.0 7.820422770536946e-18
3468.0 7.81321697786288e-18
3469.0 7.80601726240876e-18
3470.0 7.798823620085031e-18
3471.0 7.79163604680296e-18
3472.0 7.784454538474648e-18
3473.0 7.777279091013031e-18
3474.0 7.770109700331876e-18
3475.0 7.762946362345815e-18
3476.0 7.755789072970311e-18
3477.0 7.74863782812168e-18
3478.0 7.741492623717096e-18
3479.0 7.734353455674594e-18
3480.0 7.727220319913069e-18
3481.0 7.720093212352284e-18
3482.0 7.712972128912867e-18
3483.0 7.705857065516334e-18
3484.0 7.698748018085062e-18
3485.0 7.69164498254232e-18
3486.0 7.684547954812255e-18
3487.0 7.677456930819919e-18
3488.0 7.670371906491237e-18
3489.0 7.663292877753042e-18
3490.0 7.656219840533063e-18
3491.0 7.649152790759935e-18
3492.0 7.642091724363203e-18
3493.0 7.63503663727332e-18
3494.0 7.627987525421647e-18
3495.0 7.620944384740484e-18
3496.0 7.613907211163032e-18
3497.0 7.60687600062343e-18
3498.0 7.599850749056736e-18
3499.0 7.592831452398961e-18
3500.0 7.585818106587033e-18
3501.0 7.57881070755883e-18
3502.0 7.57180925125317e-18
3503.0 7.564813733609816e-18
3504.0 7.557824150569496e-18
3505.0 7.550840498073881e-18
3506.0 7.543862772065602e-18
3507.0 7.53689096848825e-18
3508.0 7.52992508328639e-18
3509.0 7.522965112405546e-18
3510.0 7.516011051792225e-18
3511.0 7.509062897393897e-18
3512.0 7.502120645159027e-18
3513.0 7.495184291037047e-18
3514.0 7.488253830978393e-18
3515.0 7.48132926093447e-18
3516.0 7.474410576857702e-18
3517.0 7.467497774701488e-18
3518.0 7.460590850420241e-18
3519.0 7.453689799969365e-18
3520.0 7.446794619305291e-18
3521.0 7.439905304385444e-18
3522.0 7.433021851168271e-18
3523.0 7.426144255613229e-18
3524.0 7.419272513680812e-18
3525.0 7.412406621332522e-18
3526.0 7.405546574530898e-18
3527.0 7.398692369239504e-18
3528.0 7.39184400142295e-18
3529.0 7.385001467046875e-18
3530.0 7.37816476207796e-18
3531.0 7.37133388248393e-18
3532.0 7.364508824233566e-18
3533.0 7.357689583296692e-18
3534.0 7.350876155644193e-18
3535.0 7.344068537248004e-18
3536.0 7.337266724081136e-18
3537.0 7.33047071211765e-18
3538.0 7.323680497332683e-18
3539.0 7.316896075702438e-18
3540.0 7.310117443204202e-18
3541.0 7.303344595816331e-18
3542.0 7.29657752951827e-18
3543.0 7.289816240290536e-18
3544.0 7.28306072411475e-18
3545.0 7.276310976973615e-18
3546.0 7.269566994850926e-18
3547.0 7.262828773731579e-18
3548.0 7.256096309601574e-18
3549.0 7.249369598448013e-18
3550.0 7.2426486362591e-18
3551.0 7.23593341902415e-18
3552.0 7.229223942733605e-18
3553.0 7.222520203379004e-18
3554.0 7.215822196953022e-18
3555.0 7.209129919449444e-18
3556.0 7.202443366863192e-18
3557.0 7.195762535190314e-18
3558.0 7.189087420427986e-18
3559.0 7.182418018574522e-18
3560.0 7.175754325629381e-18
3561.0 7.169096337593156e-18
3562.0 7.162444050467587e-18
3563.0 7.155797460255561e-18
3564.0 7.149156562961125e-18
3565.0 7.142521354589466e-18
3566.0 7.13589183114694e-18
3567.0 7.12926798864105e-18
3568.0 7.122649823080487e-18
3569.0 7.11603733047508e-18
3570.0 7.109430506835843e-18
3571.0 7.10282934817496e-18
3572.0 7.096233850505794e-18
3573.0 7.089644009842879e-18
3574.0 7.08305982220194e-18
3575.0 7.076481283599874e-18
3576.0 7.069908390054777e-18
3577.0 7.063341137585932e-18
3578.0 7.056779522213817e-18
3579.0 7.050223539960097e-18
3580.0 7.043673186847652e-18
3581.0 7.037128458900558e-18
3582.0 7.030589352144089e-18
3583.0 7.024055862604735e-18
3584.0 7.0175279863102e-18
3585.0 7.011005719289396e-18
3586.0 7.004489057572456e-18
3587.0 6.997977997190725e-18
3588.0 6.991472534176786e-18
3589.0 6.984972664564433e-18
3590.0 6.978478384388699e-18
3591.0 6.971989689685841e-18
3592.0 6.965506576493358e-18
3593.0 6.959029040849984e-18
3594.0 6.952557078795686e-18
3595.0 6.946090686371681e-18
3596.0 6.939629859620437e-18
3597.0 6.933174594585659e-18
3598.0 6.9267248873123094e-18
3599.0 6.920280733846604e-18
3600.0 6.913842130236021e-18
3601.0 6.9074090725292916e-18
3602.0 6.900981556776411e-18
3603.0 6.894559579028642e-18
3604.0 6.888143135338517e-18
3605.0 6.8817322217598375e-18
3606.0 6.875326834347676e-18
3607.0 6.868926969158385e-18
3608.0 6.862532622249602e-18
3609.0 6.8561437896802365e-18
3610.0 6.849760467510486e-18
3611.0 6.843382651801835e-18
3612.0 6.837010338617067e-18
3613.0 6.83064352402025e-18
3614.0 6.824282204076745e-18
3615.0 6.817926374853216e-18
3616.0 6.8115760324176336e-18
3617.0 6.805231172839265e-18
3618.0 6.798891792188683e-18
3619.0 6.792557886537769e-18
3620.0 6.786229451959729e-18
3621.0 6.779906484529068e-18
3622.0 6.7735889803216135e-18
3623.0 6.767276935414512e-18
3624.0 6.7609703458862394e-18
3625.0 6.754669207816587e-18
3626.0 6.7483735172866766e-18
3627.0 6.742083270378964e-18
3628.0 6.735798463177232e-18
3629.0 6.7295190917666024e-18
3630.0 6.723245152233537e-18
3631.0 6.716976640665834e-18
3632.0 6.710713553152634e-18
3633.0 6.70445588578443e-18
3634.0 6.6982036346530585e-18
3635.0 6.691956795851706e-18
3636.0 6.685715365474911e-18
3637.0 6.679479339618576e-18
3638.0 6.673248714379956e-18
3639.0 6.667023485857664e-18
3640.0 6.6608036501516775e-18
3641.0 6.654589203363354e-18
3642.0 6.648380141595396e-18
3643.0 6.642176460951897e-18
3644.0 6.635978157538309e-18
3645.0 6.6297852274614734e-18
3646.0 6.623597666829602e-18
3647.0 6.6174154717522854e-18
3648.0 6.6112386383405e-18
3649.0 6.6050671627066165e-18
3650.0 6.598901040964381e-18
3651.0 6.592740269228936e-18
3652.0 6.586584843616816e-18
3653.0 6.580434760245955e-18
3654.0 6.5742900152356805e-18
3655.0 6.5681506047067164e-18
3656.0 6.562016524781196e-18
3657.0 6.555887771582664e-18
3658.0 6.5497643412360544e-18
3659.0 6.543646229867728e-18
3660.0 6.537533433605444e-18
3661.0 6.531425948578387e-18
3662.0 6.525323770917159e-18
3663.0 6.51922689675377e-18
3664.0 6.5131353222216586e-18
3665.0 6.507049043455696e-18
3666.0 6.500968056592162e-18
3667.0 6.49489235776878e-18
3668.0 6.488821943124691e-18
3669.0 6.482756808800487e-18
3670.0 6.476696950938179e-18
3671.0 6.470642365681222e-18
3672.0 6.4645930491745095e-18
3673.0 6.458548997564387e-18
3674.0 6.45251020699863e-18
3675.0 6.446476673626471e-18
3676.0 6.440448393598583e-18
3677.0 6.434425363067104e-18
3678.0 6.428407578185611e-18
3679.0 6.422395035109148e-18
3680.0 6.416387729994209e-18
3681.0 6.410385658998754e-18
3682.0 6.404388818282204e-18
3683.0 6.398397204005445e-18
3684.0 6.392410812330826e-18
3685.0 6.386429639422173e-18
3686.0 6.380453681444778e-18
3687.0 6.374482934565408e-18
3688.0 6.368517394952301e-18
3689.0 6.362557058775185e-18
3690.0 6.356601922205256e-18
3691.0 6.350651981415198e-18
3692.0 6.344707232579175e-18
3693.0 6.338767671872846e-18
3694.0 6.3328332954733525e-18
3695.0 6.326904099559327e-18
3696.0 6.320980080310891e-18
3697.0 6.315061233909674e-18
3698.0 6.3091475565387894e-18
3699.0 6.3032390443828575e-18
3700.0 6.2973356936279915e-18
3701.0 6.291437500461823e-18
3702.0 6.2855444610734745e-18
3703.0 6.279656571653584e-18
3704.0 6.273773828394292e-18
3705.0 6.267896227489261e-18
3706.0 6.2620237651336615e-18
3707.0 6.256156437524179e-18
3708.0 6.250294240859015e-18
3709.0 6.244437171337902e-18
3710.0 6.23858522516208e-18
3711.0 6.23273839853432e-18
3712.0 6.22689668765892e-18
3713.0 6.2210600887417075e-18
3714.0 6.215228597990033e-18
3715.0 6.209402211612785e-18
3716.0 6.203580925820381e-18
3717.0 6.197764736824781e-18
3718.0 6.191953640839481e-18
3719.0 6.186147634079512e-18
3720.0 6.1803467127614505e-18
3721.0 6.1745508731034175e-18
3722.0 6.168760111325081e-18
3723.0 6.1629744236476525e-18
3724.0 6.157193806293896e-18
3725.0 6.1514182554881256e-18
3726.0 6.145647767456215e-18
3727.0 6.139882338425582e-18
3728.0 6.1341219646252094e-18
3729.0 6.128366642285642e-18
3730.0 6.1226163676389806e-18
3731.0 6.116871136918887e-18
3732.0 6.111130946360592e-18
3733.0 6.105395792200896e-18
3734.0 6.099665670678164e-18
3735.0 6.0939405780323295e-18
3736.0 6.088220510504902e-18
3737.0 6.082505464338967e-18
3738.0 6.076795435779181e-18
3739.0 6.071090421071785e-18
3740.0 6.065390416464589e-18
3741.0 6.059695418207001e-18
3742.0 6.054005422549997e-18
3743.0 6.048320425746147e-18
3744.0 6.042640424049602e-18
3745.0 6.036965413716113e-18
3746.0 6.03129539100301e-18
3747.0 6.02563035216922e-18
3748.0 6.019970293475263e-18
3749.0 6.0143152111832605e-18
3750.0 6.008665101556926e-18
3751.0 6.003019960861573e-18
3752.0 5.997379785364119e-18
3753.0 5.991744571333082e-18
3754.0 5.98611431503859e-18
3755.0 5.980489012752373e-18
3756.0 5.974868660747767e-18
3757.0 5.969253255299724e-18
3758.0 5.963642792684807e-18
3759.0 5.958037269181191e-18
3760.0 5.9524366810686656e-18
3761.0 5.946841024628634e-18
3762.0 5.941250296144128e-18
3763.0 5.935664491899794e-18
3764.0 5.9300836081818994e-18
3765.0 5.924507641278331e-18
3766.0 5.9189365874786155e-18
3767.0 5.913370443073893e-18
3768.0 5.907809204356938e-18
3769.0 5.902252867622154e-18
3770.0 5.896701429165579e-18
3771.0 5.8911548852848805e-18
3772.0 5.885613232279365e-18
3773.0 5.8800764664499744e-18
3774.0 5.8745445840992906e-18
3775.0 5.869017581531535e-18
3776.0 5.86349545505257e-18
3777.0 5.857978200969901e-18
3778.0 5.8524658155926815e-18
3779.0 5.846958295231711e-18
3780.0 5.841455636199434e-18
3781.0 5.835957834809944e-18
3782.0 5.830464887378997e-18
3783.0 5.82497679022399e-18
3784.0 5.8194935396639785e-18
3785.0 5.814015132019671e-18
3786.0 5.808541563613444e-18
3787.0 5.8030728307693235e-18
3788.0 5.7976089298129985e-18
3789.0 5.792149857071817e-18
3790.0 5.786695608874805e-18
3791.0 5.781246181552636e-18
3792.0 5.775801571437663e-18
3793.0 5.770361774863896e-18
3794.0 5.76492678816703e-18
3795.0 5.75949660768442e-18
3796.0 5.754071229755097e-18
3797.0 5.748650650719765e-18
3798.0 5.7432348669208095e-18
3799.0 5.737823874702291e-18
3800.0 5.7324176704099434e-18
3801.0 5.727016250391183e-18
3802.0 5.721619610995118e-18
3803.0 5.716227748572527e-18
3804.0 5.710840659475882e-18
3805.0 5.705458340059332e-18
3806.0 5.7000807866787264e-18
3807.0 5.694707995691595e-18
3808.0 5.689339963457159e-18
3809.0 5.683976686336329e-18
3810.0 5.678618160691718e-18
3811.0 5.673264382887629e-18
3812.0 5.667915349290057e-18
3813.0 5.662571056266696e-18
3814.0 5.6572315001869495e-18
3815.0 5.6518966774219074e-18
3816.0 5.646566584344367e-18
3817.0 5.6412412173288295e-18
3818.0 5.635920572751504e-18
3819.0 5.630604646990297e-18
3820.0 5.625293436424828e-18
3821.0 5.619986937436424e-18
3822.0 5.6146851464081246e-18
3823.0 5.609388059724676e-18
3824.0 5.604095673772541e-18
3825.0 5.598807984939891e-18
3826.0 5.593524989616621e-18
3827.0 5.588246684194337e-18
3828.0 5.5829730650663625e-18
3829.0 5.577704128627742e-18
3830.0 5.5724398712752454e-18
3831.0 5.5671802894073554e-18
3832.0 5.5619253794242834e-18
3833.0 5.556675137727964e-18
3834.0 5.55142956072206e-18
3835.0 5.546188644811958e-18
3836.0 5.540952386404775e-18
3837.0 5.5357207819093535e-18
3838.0 5.5304938277362745e-18
3839.0 5.525271520297845e-18
3840.0 5.52005385600811e-18
3841.0 5.514840831282841e-18
3842.0 5.509632442539557e-18
3843.0 5.504428686197508e-18
3844.0 5.499229558677679e-18
3845.0 5.4940350564027975e-18
3846.0 5.488845175797338e-18
3847.0 5.483659913287509e-18
3848.0 5.478479265301266e-18
3849.0 5.4733032282683014e-18
3850.0 5.46813179862007e-18
3851.0 5.462964972789761e-18
3852.0 5.45780274721231e-18
3853.0 5.452645118324406e-18
3854.0 5.4474920825644924e-18
3855.0 5.4423436363727585e-18
3856.0 5.437199776191149e-18
3857.0 5.432060498463359e-18
3858.0 5.426925799634844e-18
3859.0 5.421795676152813e-18
3860.0 5.416670124466233e-18
3861.0 5.411549141025828e-18
3862.0 5.406432722284084e-18
3863.0 5.401320864695247e-18
3864.0 5.3962135647153254e-18
3865.0 5.391110818802087e-18
3866.0 5.386012623415071e-18
3867.0 5.380918975015578e-18
3868.0 5.375829870066671e-18
3869.0 5.370745305033187e-18
3870.0 5.3656652763817315e-18
3871.0 5.360589780580674e-18
3872.0 5.355518814100161e-18
3873.0 5.350452373412104e-18
3874.0 5.3453904549901984e-18
3875.0 5.340333055309901e-18
3876.0 5.3352801708484536e-18
3877.0 5.3302317980848684e-18
3878.0 5.325187933499936e-18
3879.0 5.320148573576229e-18
3880.0 5.315113714798096e-18
3881.0 5.3100833536516646e-18
3882.0 5.305057486624847e-18
3883.0 5.300036110207338e-18
3884.0 5.295019220890612e-18
3885.0 5.290006815167934e-18
3886.0 5.2849988895343465e-18
3887.0 5.279995440486687e-18
3888.0 5.274996464523577e-18
3889.0 5.270001958145424e-18
3890.0 5.265011917854427e-18
3891.0 5.260026340154579e-18
3892.0 5.2550452215516605e-18
3893.0 5.250068558553245e-18
3894.0 5.245096347668698e-18
3895.0 5.2401285854091855e-18
3896.0 5.2351652682876656e-18
3897.0 5.230206392818889e-18
3898.0 5.225251955519405e-18
3899.0 5.220301952907571e-18
3900.0 5.215356381503532e-18
3901.0 5.210415237829238e-18
3902.0 5.2054785184084354e-18
3903.0 5.200546219766683e-18
3904.0 5.195618338431334e-18
3905.0 5.190694870931548e-18
3906.0 5.185775813798288e-18
3907.0 5.180861163564328e-18
3908.0 5.175950916764243e-18
3909.0 5.171045069934419e-18
3910.0 5.166143619613044e-18
3911.0 5.161246562340129e-18
3912.0 5.1563538946574844e-18
3913.0 5.1514656131087314e-18
3914.0 5.1465817142393074e-18
3915.0 5.141702194596464e-18
3916.0 5.136827050729264e-18
3917.0 5.131956279188584e-18
3918.0 5.127089876527116e-18
3919.0 5.122227839299375e-18
3920.0 5.1173701640616845e-18
3921.0 5.112516847372191e-18
3922.0 5.107667885790857e-18
3923.0 5.102823275879471e-18
3924.0 5.097983014201635e-18
3925.0 5.0931470973227764e-18
3926.0 5.088315521810141e-18
3927.0 5.083488284232805e-18
3928.0 5.078665381161664e-18
3929.0 5.073846809169439e-18
3930.0 5.06903256483067e-18
3931.0 5.064222644721736e-18
3932.0 5.059417045420837e-18
3933.0 5.054615763508e-18
3934.0 5.0498187955650785e-18
3935.0 5.045026138175764e-18
3936.0 5.04023778792557e-18
3937.0 5.035453741401845e-18
3938.0 5.0306739951937664e-18
3939.0 5.02589854589235e-18
3940.0 5.021127390090443e-18
3941.0 5.01636052438272e-18
3942.0 5.011597945365698e-18
3943.0 5.00683964963773e-18
3944.0 5.002085633799002e-18
3945.0 4.9973358944515384e-18
3946.0 4.992590428199199e-18
3947.0 4.987849231647687e-18
3948.0 4.983112301404544e-18
3949.0 4.9783796340791486e-18
3950.0 4.9736512262827184e-18
3951.0 4.968927074628324e-18
3952.0 4.964207175730864e-18
3953.0 4.959491526207091e-18
3954.0 4.954780122675591e-18
3955.0 4.950072961756806e-18
3956.0 4.945370040073014e-18
3957.0 4.940671354248342e-18
3958.0 4.935976900908762e-18
3959.0 4.931286676682098e-18
3960.0 4.926600678198016e-18
3961.0 4.921918902088032e-18
3962.0 4.9172413449855096e-18
3963.0 4.91256800352567e-18
3964.0 4.907898874345575e-18
3965.0 4.9032339540841436e-18
3966.0 4.8985732393821416e-18
3967.0 4.893916726882194e-18
3968.0 4.8892644132287704e-18
3969.0 4.884616295068204e-18
3970.0 4.8799723690486704e-18
3971.0 4.875332631820214e-18
3972.0 4.870697080034723e-18
3973.0 4.866065710345947e-18
3974.0 4.8614385194094895e-18
3975.0 4.856815503882818e-18
3976.0 4.85219666042525e-18
3977.0 4.847581985697966e-18
3978.0 4.8429714763640036e-18
3979.0 4.8383651290882646e-18
3980.0 4.833762940537505e-18
3981.0 4.829164907380346e-18
3982.0 4.8245710262872674e-18
3983.0 4.819981293930617e-18
3984.0 4.815395706984598e-18
3985.0 4.810814262125279e-18
3986.0 4.8062369560305944e-18
3987.0 4.8016637853803446e-18
3988.0 4.79709474685619e-18
3989.0 4.792529837141659e-18
3990.0 4.787969052922147e-18
3991.0 4.783412390884913e-18
3992.0 4.778859847719089e-18
3993.0 4.77431142011567e-18
3994.0 4.769767104767515e-18
3995.0 4.765226898369364e-18
3996.0 4.760690797617815e-18
3997.0 4.756158799211342e-18
3998.0 4.751630899850284e-18
3999.0 4.7471070962368585e-18
4000.0 4.742587385075148e-18
4001.0 4.7380717630711076e-18
4002.0 4.7335602269325675e-18
4003.0 4.729052773369227e-18
4004.0 4.724549399092665e-18
4005.0 4.720050100816328e-18
4006.0 4.7155548752555386e-18
4007.0 4.711063719127492e-18
4008.0 4.706576629151265e-18
4009.0 4.702093602047808e-18
4010.0 4.697614634539941e-18
4011.0 4.693139723352366e-18
4012.0 4.688668865211666e-18
4013.0 4.684202056846294e-18
4014.0 4.679739294986586e-18
4015.0 4.675280576364751e-18
4016.0 4.670825897714887e-18
4017.0 4.666375255772962e-18
4018.0 4.661928647276826e-18
4019.0 4.65748606896621e-18
4020.0 4.6530475175827294e-18
4021.0 4.648612989869874e-18
4022.0 4.64418248257302e-18
4023.0 4.639755992439422e-18
4024.0 4.635333516218221e-18
4025.0 4.630915050660439e-18
4026.0 4.6265005925189795e-18
4027.0 4.622090138548628e-18
4028.0 4.617683685506063e-18
4029.0 4.613281230149838e-18
4030.0 4.608882769240395e-18
4031.0 4.6044882995400585e-18
4032.0 4.6000978178130455e-18
4033.0 4.595711320825449e-18
4034.0 4.5913288053452576e-18
4035.0 4.586950268142338e-18
4036.0 4.5825757059884545e-18
4037.0 4.578205115657248e-18
4038.0 4.573838493924253e-18
4039.0 4.56947583756689e-18
4040.0 4.565117143364472e-18
4041.0 4.560762408098196e-18
4042.0 4.5564116285511496e-18
4043.0 4.55206480150831e-18
4044.0 4.547721923756547e-18
4045.0 4.543382992084614e-18
4046.0 4.539048003283164e-18
4047.0 4.534716954144732e-18
4048.0 4.53038984146375e-18
4049.0 4.52606666203654e-18
4050.0 4.521747412661316e-18
4051.0 4.5174320901381784e-18
4052.0 4.513120691269133e-18
4053.0 4.508813212858066e-18
4054.0 4.504509651710763e-18
4055.0 4.500210004634899e-18
4056.0 4.495914268440048e-18
4057.0 4.4916224399376736e-18
4058.0 4.487334515941136e-18
4059.0 4.483050493265683e-18
4060.0 4.478770368728471e-18
4061.0 4.4744941391485396e-18
4062.0 4.470221801346829e-18
4063.0 4.465953352146171e-18
4064.0 4.4616887883713e-18
4065.0 4.457428106848839e-18
4066.0 4.4531713044073146e-18
4067.0 4.448918377877141e-18
4068.0 4.444669324090642e-18
4069.0 4.440424139882026e-18
4070.0 4.436182822087406e-18
4071.0 4.431945367544789e-18
4072.0 4.4277117730940856e-18
4073.0 4.423482035577098e-18
4074.0 4.419256151837532e-18
4075.0 4.415034118720984e-18
4076.0 4.410815933074961e-18
4077.0 4.406601591748861e-18
4078.0 4.402391091593982e-18
4079.0 4.398184429463521e-18
4080.0 4.3939816022125816e-18
4081.0 4.389782606698158e-18
4082.0 4.385587439779151e-18
4083.0 4.381396098316355e-18
4084.0 4.377208579172473e-18
4085.0 4.3730248792121056e-18
4086.0 4.3688449953017515e-18
4087.0 4.364668924309811e-18
4088.0 4.360496663106592e-18
4089.0 4.356328208564297e-18
4090.0 4.352163557557031e-18
4091.0 4.348002706960803e-18
4092.0 4.3438456536535245e-18
4093.0 4.3396923945150065e-18
4094.0 4.3355429264269635e-18
4095.0 4.331397246273013e-18
4096.0 4.327255350938674e-18
4097.0 4.323117237311372e-18
4098.0 4.31898290228043e-18
4099.0 4.3148523427370735e-18
4100.0 4.310725555574441e-18
4101.0 4.306602537687565e-18
4102.0 4.3024832859733824e-18
4103.0 4.298367797330736e-18
4104.0 4.294256068660376e-18
4105.0 4.290148096864949e-18
4106.0 4.2860438788490104e-18
4107.0 4.281943411519015e-18
4108.0 4.277846691783332e-18
4109.0 4.273753716552224e-18
4110.0 4.269664482737864e-18
4111.0 4.265578987254327e-18
4112.0 4.2614972270175954e-18
4113.0 4.257419198945555e-18
4114.0 4.253344899957998e-18
4115.0 4.249274326976615e-18
4116.0 4.245207476925012e-18
4117.0 4.2411443467286945e-18
4118.0 4.237084933315073e-18
4119.0 4.2330292336134636e-18
4120.0 4.22897724455509e-18
4121.0 4.22492896307308e-18
4122.0 4.220884386102467e-18
4123.0 4.216843510580188e-18
4124.0 4.212806333445093e-18
4125.0 4.208772851637929e-18
4126.0 4.204743062101355e-18
4127.0 4.2007169617799315e-18
4128.0 4.196694547620127e-18
4129.0 4.192675816570321e-18
4130.0 4.188660765580789e-18
4131.0 4.184649391603721e-18
4132.0 4.180641691593209e-18
4133.0 4.1766376625052555e-18
4134.0 4.172637301297764e-18
4135.0 4.1686406049305465e-18
4136.0 4.16464757036532e-18
4137.0 4.160658194565715e-18
4138.0 4.156672474497258e-18
4139.0 4.152690407127389e-18
4140.0 4.14871198942545e-18
4141.0 4.1447372183626956e-18
4142.0 4.140766090912281e-18
4143.0 4.136798604049271e-18
4144.0 4.1328347547506325e-18
4145.0 4.128874539995247e-18
4146.0 4.124917956763896e-18
4147.0 4.120965002039268e-18
4148.0 4.117015672805961e-18
4149.0 4.1130699660504774e-18
4150.0 4.1091278787612264e-18
4151.0 4.105189407928525e-18
4152.0 4.101254550544593e-18
4153.0 4.0973233036035634e-18
4154.0 4.093395664101469e-18
4155.0 4.0894716290362506e-18
4156.0 4.085551195407756e-18
4157.0 4.0816343602177426e-18
4158.0 4.077721120469869e-18
4159.0 4.073811473169703e-18
4160.0 4.069905415324716e-18
4161.0 4.066002943944292e-18
4162.0 4.0621040560397116e-18
4163.0 4.05820874862417e-18
4164.0 4.054317018712761e-18
4165.0 4.0504288633224936e-18
4166.0 4.046544279472275e-18
4167.0 4.042663264182921e-18
4168.0 4.038785814477151e-18
4169.0 4.034911927379596e-18
4170.0 4.031041599916789e-18
4171.0 4.027174829117166e-18
4172.0 4.023311612011071e-18
4173.0 4.019451945630758e-18
4174.0 4.0155958270103786e-18
4175.0 4.011743253185993e-18
4176.0 4.0078942211955685e-18
4177.0 4.0040487280789746e-18
4178.0 4.00020677087799e-18
4179.0 3.996368346636292e-18
4180.0 3.992533452399468e-18
4181.0 3.9887020852150114e-18
4182.0 3.984874242132314e-18
4183.0 3.981049920202678e-18
4184.0 3.9772291164793036e-18
4185.0 3.973411828017305e-18
4186.0 3.9695980518736915e-18
4187.0 3.965787785107383e-18
4188.0 3.9619810247791975e-18
4189.0 3.958177767951864e-18
4190.0 3.954378011690009e-18
4191.0 3.950581753060165e-18
4192.0 3.946788989130769e-18
4193.0 3.942999716972162e-18
4194.0 3.939213933656585e-18
4195.0 3.9354316362581845e-18
4196.0 3.931652821853008e-18
4197.0 3.927877487519011e-18
4198.0 3.924105630336046e-18
4199.0 3.9203372473858696e-18
4200.0 3.9165723357521414e-18
4201.0 3.912810892520426e-18
4202.0 3.9090529147781855e-18
4203.0 3.905298399614787e-18
4204.0 3.901547344121496e-18
4205.0 3.897799745391484e-18
4206.0 3.894055600519824e-18
4207.0 3.890314906603486e-18
4208.0 3.886577660741342e-18
4209.0 3.88284386003417e-18
4210.0 3.879113501584644e-18
4211.0 3.87538658249734e-18
4212.0 3.8716630998787334e-18
4213.0 3.867943050837203e-18
4214.0 3.864226432483026e-18
4215.0 3.860513241928377e-18
4216.0 3.856803476287332e-18
4217.0 3.8530971326758716e-18
4218.0 3.849394208211865e-18
4219.0 3.845694700015094e-18
4220.0 3.841998605207224e-18
4221.0 3.838305920911833e-18
4222.0 3.8346166442543916e-18
4223.0 3.830930772362267e-18
4224.0 3.827248302364724e-18
4225.0 3.823569231392934e-18
4226.0 3.8198935565799546e-18
4227.0 3.8162212750607495e-18
4228.0 3.812552383972173e-18
4229.0 3.808886880452983e-18
4230.0 3.805224761643828e-18
4231.0 3.80156602468726e-18
4232.0 3.79791066672772e-18
4233.0 3.794258684911549e-18
4234.0 3.790610076386985e-18
4235.0 3.78696483830416e-18
4236.0 3.783322967815099e-18
4237.0 3.779684462073728e-18
4238.0 3.7760493182358636e-18
4239.0 3.772417533459219e-18
4240.0 3.768789104903398e-18
4241.0 3.765164029729906e-18
4242.0 3.7615423051021354e-18
4243.0 3.7579239281853754e-18
4244.0 3.754308896146807e-18
4245.0 3.750697206155509e-18
4246.0 3.747088855382448e-18
4247.0 3.7434838410004826e-18
4248.0 3.7398821601843674e-18
4249.0 3.736283810110751e-18
4250.0 3.73268878795817e-18
4251.0 3.72909709090705e-18
4252.0 3.725508716139713e-18
4253.0 3.7219236608403695e-18
4254.0 3.718341922195123e-18
4255.0 3.7147634973919655e-18
4256.0 3.711188383620779e-18
4257.0 3.7076165780733364e-18
4258.0 3.704048077943302e-18
4259.0 3.700482880426224e-18
4260.0 3.696920982719544e-18
4261.0 3.693362382022591e-18
4262.0 3.6898070755365854e-18
4263.0 3.686255060464628e-18
4264.0 3.682706334011718e-18
4265.0 3.679160893384732e-18
4266.0 3.67561873579244e-18
4267.0 3.6720798584454984e-18
4268.0 3.668544258556447e-18
4269.0 3.665011933339715e-18
4270.0 3.661482880011617e-18
4271.0 3.657957095790352e-18
4272.0 3.654434577896005e-18
4273.0 3.650915323550546e-18
4274.0 3.6473993299778304e-18
4275.0 3.643886594403598e-18
4276.0 3.64037711405547e-18
4277.0 3.636870886162953e-18
4278.0 3.6333679079574395e-18
4279.0 3.629868176672202e-18
4280.0 3.626371689542395e-18
4281.0 3.622878443805057e-18
4282.0 3.6193884366991104e-18
4283.0 3.615901665465355e-18
4284.0 3.6124181273464744e-18
4285.0 3.608937819587032e-18
4286.0 3.605460739433474e-18
4287.0 3.601986884134126e-18
4288.0 3.598516250939191e-18
4289.0 3.5950488371007536e-18
4290.0 3.591584639872779e-18
4291.0 3.58812365651111e-18
4292.0 3.584665884273466e-18
4293.0 3.581211320419446e-18
4294.0 3.577759962210528e-18
4295.0 3.574311806910067e-18
4296.0 3.5708668517832926e-18
4297.0 3.567425094097311e-18
4298.0 3.5639865311211106e-18
4299.0 3.56055116012555e-18
4300.0 3.5571189783833624e-18
4301.0 3.55368998316916e-18
4302.0 3.550264171759427e-18
4303.0 3.5468415414325255e-18
4304.0 3.543422089468687e-18
4305.0 3.5400058131500175e-18
4306.0 3.536592709760501e-18
4307.0 3.533182776585988e-18
4308.0 3.529776010914206e-18
4309.0 3.526372410034748e-18
4310.0 3.522971971239089e-18
4311.0 3.519574691820565e-18
4312.0 3.51618056907439e-18
4313.0 3.512789600297642e-18
4314.0 3.509401782789276e-18
4315.0 3.50601711385011e-18
4316.0 3.502635590782836e-18
4317.0 3.499257210892011e-18
4318.0 3.4958819714840645e-18
4319.0 3.492509869867291e-18
4320.0 3.489140903351852e-18
4321.0 3.4857750692497765e-18
4322.0 3.482412364874963e-18
4323.0 3.479052787543173e-18
4324.0 3.475696334572034e-18
4325.0 3.47234300328104e-18
4326.0 3.468992790991551e-18
4327.0 3.4656456950267883e-18
4328.0 3.4623017127118408e-18
4329.0 3.458960841373655e-18
4330.0 3.4556230783410507e-18
4331.0 3.4522884209447007e-18
4332.0 3.448956866517146e-18
4333.0 3.445628412392785e-18
4334.0 3.442303055907883e-18
4335.0 3.4389807944005616e-18
4336.0 3.435661625210806e-18
4337.0 3.4323455456804563e-18
4338.0 3.4290325531532216e-18
4339.0 3.4257226449746597e-18
4340.0 3.4224158184921952e-18
4341.0 3.419112071055104e-18
4342.0 3.4158114000145278e-18
4343.0 3.4125138027234593e-18
4344.0 3.409219276536751e-18
4345.0 3.405927818811108e-18
4346.0 3.4026394269050975e-18
4347.0 3.399354098179138e-18
4348.0 3.396071829995504e-18
4349.0 3.3927926197183213e-18
4350.0 3.389516464713578e-18
4351.0 3.3862433623491073e-18
4352.0 3.3829733099945998e-18
4353.0 3.3797063050215962e-18
4354.0 3.3764423448034934e-18
4355.0 3.3731814267155353e-18
4356.0 3.3699235481348208e-18
4357.0 3.3666687064402955e-18
4358.0 3.3634168990127597e-18
4359.0 3.360168123234859e-18
4360.0 3.3569223764910922e-18
4361.0 3.3536796561678014e-18
4362.0 3.350439959653185e-18
4363.0 3.347203284337283e-18
4364.0 3.343969627611983e-18
4365.0 3.340738986871019e-18
4366.0 3.3375113595099764e-18
4367.0 3.33428674292628e-18
4368.0 3.331065134519204e-18
4369.0 3.3278465316898627e-18
4370.0 3.324630931841221e-18
4371.0 3.3214183323780826e-18
4372.0 3.318208730707095e-18
4373.0 3.315002124236749e-18
4374.0 3.311798510377379e-18
4375.0 3.3085978865411594e-18
4376.0 3.305400250142106e-18
4377.0 3.3022055985960746e-18
4378.0 3.2990139293207604e-18
4379.0 3.295825239735701e-18
4380.0 3.2926395272622722e-18
4381.0 3.2894567893236842e-18
4382.0 3.2862770233449904e-18
4383.0 3.2831002267530797e-18
4384.0 3.2799263969766778e-18
4385.0 3.2767555314463452e-18
4386.0 3.27358762759448e-18
4387.0 3.2704226828553167e-18
4388.0 3.2672606946649225e-18
4389.0 3.2641016604611982e-18
4390.0 3.2609455776838795e-18
4391.0 3.257792443774537e-18
4392.0 3.2546422561765715e-18
4393.0 3.251495012335215e-18
4394.0 3.248350709697532e-18
4395.0 3.24520934571242e-18
4396.0 3.242070917830605e-18
4397.0 3.2389354235046412e-18
4398.0 3.2358028601889143e-18
4399.0 3.2326732253396393e-18
4400.0 3.229546516414857e-18
4401.0 3.226422730874438e-18
4402.0 3.2233018661800768e-18
4403.0 3.2201839197953e-18
4404.0 3.217068889185454e-18
4405.0 3.2139567718177136e-18
4406.0 3.2108475651610773e-18
4407.0 3.20774126668637e-18
4408.0 3.204637873866238e-18
4409.0 3.201537384175151e-18
4410.0 3.1984397950894e-18
4411.0 3.195345104087103e-18
4412.0 3.1922533086481926e-18
4413.0 3.1891644062544274e-18
4414.0 3.186078394389382e-18
4415.0 3.182995270538454e-18
4416.0 3.1799150321888594e-18
4417.0 3.1768376768296304e-18
4418.0 3.1737632019516173e-18
4419.0 3.1706916050474933e-18
4420.0 3.1676228836117405e-18
4421.0 3.164557035140662e-18
4422.0 3.1614940571323735e-18
4423.0 3.1584339470868093e-18
4424.0 3.1553767025057136e-18
4425.0 3.152322320892648e-18
4426.0 3.1492707997529838e-18
4427.0 3.146222136593909e-18
4428.0 3.1431763289244204e-18
4429.0 3.140133374255327e-18
4430.0 3.1370932700992467e-18
4431.0 3.134056013970612e-18
4432.0 3.131021603385661e-18
4433.0 3.127990035862443e-18
4434.0 -0.0010666
4434.63 0.0070374
4435.26 -0.030172
4435.9 -0.26149
4436.53 -0.078871
4437.16 -0.0058913
4437.79 0.095754
4438.42 0.17955
4439.05 -0.025322
4439.68 0.023516
4440.31 0.083432
4440.94 -0.059623
4441.57 0.0015275
4442.2 -0.063457
4442.83 0.037556
4443.46 0.14404
4444.09 0.08276
4444.72 0.071686
4445.35 0.081948
4445.98 0.0036448
4446.61 0.015707
4447.24 0.16593
4447.87 0.13229
4448.5 -0.084082
4449.13 -0.11502
4449.76 0.054508
4450.39 0.038989
4451.02 0.093336
4451.65 -0.045997
4452.28 0.080122
4452.91 0.089529
4453.54 0.0024437
4454.17 0.055102
4454.8 0.15736
4455.43 0.053756
4456.07 0.084306
4456.7 0.05795
4457.33 0.19246
4457.96 0.085986
4458.59 0.034923
4459.22 0.083932
4459.85 0.041653
4460.48 0.02925
4461.11 0.12363
4461.74 0.16759
4462.37 -0.0093179
4463.0 0.0011128
4463.63 -0.010273
4464.26 -0.033565
4464.89 0.060039
4465.52 0.058939
4466.15 0.038733
4466.78 0.047202
4467.41 0.069997
4468.04 0.014514
4468.67 0.097101
4469.3 0.063494
4469.93 0.08934
4470.56 0.042619
4471.19 0.0089284
4471.82 -0.038761
4472.45 -0.011809
4473.08 -0.034531
4473.71 0.14416
4474.34 0.10065
4474.97 0.02591
4475.6 0.048403
4476.24 0.033455
4476.87 0.071511
4477.5 0.055871
4478.13 0.029576
4478.76 0.01939
4479.39 0.032771
4480.02 0.018149
4480.65 -0.074605
4481.28 -0.021975
4481.91 0.037083
4482.54 0.0076741
4483.17 -0.038533
4483.8 -0.057856
4484.43 -0.011135
4485.06 0.083423
4485.69 0.010487
4486.32 -0.016358
4486.95 -0.069019
4487.58 -0.021103
4488.21 0.059622
4488.84 -0.0064533
4489.47 0.0075043
4490.1 0.059532
4490.73 -0.052015
4491.36 0.013913
4491.99 0.059333
4492.62 -0.0079583
4493.25 -0.032475
4493.88 0.0037253
4494.51 0.033968
4495.14 0.069257
4495.78 0.047019
4496.41 0.018432
4497.04 0.029568
4497.67 0.034476
4498.3 0.018095
4498.93 0.032418
4499.56 0.0279
4500.19 0.013204
4500.82 0.016653
4501.45 -0.025037
4502.08 -0.0078311
4502.71 0.053368
4503.34 0.033503
4503.97 0.0064896
4504.6 0.039031
4505.23 -0.0029453
4505.86 -0.010992
4506.49 0.040766
4507.12 0.036311
4507.75 0.013554
4508.38 0.0046574
4509.01 0.014783
4509.64 0.0077174
4510.27 0.013387
4510.9 0.011203
4511.53 -0.0055306
4512.16 0.011371
4512.79 0.032106
4513.42 -0.011284
4514.05 -0.01567
4514.68 0.0074254
4515.31 0.019238
4515.95 0.0014828
4516.58 0.013356
4517.21 -0.010204
4517.84 0.0088255
4518.47 -0.029649
4519.1 0.030328
4519.73 0.042822
4520.36 -0.015649
4520.99 -0.0054317
4521.62 -0.015654
4522.25 -0.0071229
4522.88 0.020054
4523.51 -0.030114
4524.14 -0.0125
4524.77 -0.039096
4525.4 -0.033238
4526.03 -0.00014782
4526.66 -0.019132
4527.29 -0.026541
4527.92 0.0043396
4528.55 0.0091871
4529.18 0.0060482
4529.81 -0.011878
4530.44 -0.025499
4531.07 -0.0085202
4531.7 -0.0085728
4532.33 -0.016488
4532.96 0.022944
4533.59 0.030184
4534.22 0.010936
4534.85 -0.011931
4535.48 0.0010032
4536.12 -0.031031
4536.75 -0.011467
4537.38 -0.02383
4538.01 -0.0021434
4538.64 0.0019474
4539.27 -0.0091696
4539.9 -0.00029993
4540.53 0.0011394
4541.16 -0.01686
4541.79 -0.01904
4542.42 -0.0028906
4543.05 -0.016326
4543.68 -0.033292
4544.31 -0.027448
4544.94 0.013273
4545.57 0.024184
4546.2 -0.024281
4546.83 -0.039392
4547.46 -0.018004
4548.09 -0.0029838
4548.72 -0.026845
4549.35 -0.015652
4549.98 0.027542
4550.61 -0.0027742
4551.24 0.0011916
4551.87 -0.00073585
4552.5 0.0025692
4553.13 -0.026804
4553.76 -0.016913
4554.39 -0.03136
4555.02 -0.028426
4555.65 -0.033471
4556.29 -0.015263
4556.92 -0.0062674
4557.55 -0.008736
4558.18 -0.013784
4558.81 -0.011529
4559.44 0.0047893
4560.07 0.014143
4560.7 0.015869
4561.33 0.023858
4561.96 0.015076
4562.59 -0.0075042
4563.22 -0.012554
4563.85 -0.018102
4564.48 -0.017698
4565.11 -0.004933
4565.74 -0.0071402
4566.37 -0.0044108
4567.0 -0.0075104
4567.63 -0.021778
4568.26 -0.0034327
4568.89 -0.014369
4569.52 -0.01768
4570.15 -0.0061499
4570.78 -0.0095607
4571.41 -0.018868
4572.04 -0.0051163
4572.67 0.013684
4573.3 -0.0032999
4573.93 -0.0044994
4574.56 0.011959
4575.19 -0.0011879
4575.82 0.0033541
4576.46 -0.0078113
4577.09 -0.0044263
4577.72 -0.0093144
4578.35 -0.012878
4578.98 -0.0026613
4579.61 0.0047639
4580.24 0.007882
4580.87 0.0009838
4581.5 0.0051487
4582.13 -0.0063079
4582.76 -0.0086666
4583.39 -0.0020085
4584.02 0.0059088
4584.65 -0.00030558
4585.28 -0.0025391
4585.91 0.0013823
4586.54 0.0056088
4587.17 0.018109
4587.8 0.0094519
4588.43 0.014088
4589.06 0.0070284
4589.69 0.010969
4590.32 0.0086787
4590.95 0.0039937
4591.58 0.0021356
4592.21 -0.010289
4592.84 -0.012247
4593.47 -0.0066626
4594.1 0.015553
4594.73 -0.017999
4595.36 0.00073873
4595.99 0.00058824
4596.63 0.01433
4597.26 -0.0056715
4597.89 -0.018799
4598.52 0.0018629
4599.15 0.0044431
4599.78 0.00057723
4600.41 -0.0070841
4601.04 -0.0090584
4601.67 -0.022858
4602.3 -0.016801
4602.93 -0.0060039
4603.56 -0.0086605
4604.19 -0.0057269
4604.82 -0.023217
4605.45 -0.01769
4606.08 -0.013247
4606.71 -0.007319
4607.34 -0.0036212
4607.97 -0.01442
4608.6 -0.014059
4609.23 -0.016706
4609.86 -0.016322
4610.49 -0.020454
4611.12 -0.02318
4611.75 -0.0079823
4612.38 0.00067569
4613.01 -0.0040371
4613.64 0.001012
4614.27 0.003321
4614.9 -0.0048778
4615.53 -0.0098205
4616.16 -0.010977
4616.8 -0.0019473
4617.43 -0.015398
4618.06 -0.024242
4618.69 -0.016918
4619.32 -0.012548
4619.95 -0.011631
4620.58 -0.0086619
4621.21 5.4558e-05
4621.84 -0.015786
4622.47 -0.023448
4623.1 -0.011586
4623.73 -0.012108
4624.36 -0.0014258
4624.99 8.304e-05
4625.62 -0.021803
4626.25 -0.010921
4626.88 -0.023504
4627.51 -0.015615
4628.14 -0.02065
4628.77 -0.038574
4629.4 -0.027281
4630.03 -0.022767
4630.66 -0.016633
4631.29 -0.017392
4631.92 -0.0052269
4632.55 -0.011924
4633.18 -0.029679
4633.81 -0.0088999
4634.44 -0.0020981
4635.07 -0.010047
4635.7 -0.012426
4636.34 -0.0093906
4636.97 -0.0069113
4637.6 0.010303
4638.23 -0.0018104
4638.86 -0.021365
4639.49 -0.021723
4640.12 -0.021169
4640.75 -0.018752
4641.38 -0.015591
4642.01 -0.0089076
4642.64 -0.014193
4643.27 0.00096012
4643.9 -0.0037238
4644.53 -0.018458
4645.16 -0.016416
4645.79 -0.010471
4646.42 -0.0011046
4647.05 -0.0019094
4647.68 -0.0078974
4648.31 -0.015738
4648.94 -0.0095274
4649.57 -0.00046404
4650.2 -0.01483
4650.83 -0.010033
4651.46 -0.0050018
4652.09 0.0027733
4652.72 -0.013997
4653.35 -0.016759
4653.98 -0.015771
4654.61 -0.011314
4655.24 -0.0089915
4655.87 -0.0044372
4656.51 -0.00011622
4657.14 -0.018764
4657.77 -0.021548
4658.4 -0.0178
4659.03 -0.018723
4659.66 -0.011617
4660.29 -0.012226
4660.92 -0.007089
4661.55 -0.0077173
4662.18 -0.019381
4662.81 -0.028462
4663.44 -0.013096
4664.07 -0.013035
4664.7 -0.012866
4665.33 -0.001899
4665.96 0.0089854
4666.59 -0.002523
4667.22 -0.0028654
4667.85 -0.0007694
4668.48 -0.0028064
4669.11 -0.0051627
4669.74 0.01009
4670.37 -0.013822
4671.0 -0.0018703
4671.63 -0.015123
4672.26 -0.015853
4672.89 -0.017177
4673.52 -0.028023
4674.15 -0.020818
4674.78 -0.020187
4675.41 -0.016782
4676.04 -0.035971
4676.68 -0.021035
4677.31 -0.010283
4677.94 -0.017263
4678.57 -0.02051
4679.2 -0.017803
4679.83 -0.013206
4680.46 -0.0067406
4681.09 -0.0097085
4681.72 -0.010389
4682.35 -0.01149
4682.98 -0.01293
4683.61 -0.011648
4684.24 -0.0059828
4684.87 -0.0039544
4685.5 -0.0044462
4686.13 -0.00052542
4686.76 -0.0044862
4687.39 -0.014358
4688.02 -0.009743
4688.65 -0.0033912
4689.28 -0.018271
4689.91 -0.013964
4690.54 -0.011887
4691.17 -0.017489
4691.8 -0.020885
4692.43 -0.0037069
4693.06 -0.010976
4693.69 -0.013026
4694.32 -0.0039243
4694.95 -0.0072341
4695.58 -0.015269
4696.21 -0.0031141
4696.85 -0.015228
4697.48 -0.019477
4698.11 -0.018611
4698.74 -0.011175
4699.37 -0.0097404
4700.0 -0.01964
4700.63 -0.01975
4701.26 -0.023429
4701.89 -0.024341
4702.52 -0.017247
4703.15 -0.011844
4703.78 -0.017336
4704.41 -0.015907
4705.04 -0.0098477
4705.67 -0.012161
4706.3 -0.02365
4706.93 -0.015947
4707.56 -0.01663
4708.19 -0.015056
4708.82 -0.012976
4709.45 -0.019599
4710.08 -0.019029
4710.71 -0.010365
4711.34 -0.0063924
4711.97 -0.020735
4712.6 -0.013636
4713.23 -0.015759
4713.86 -0.018683
4714.49 -0.018768
4715.12 -0.0043348
4715.75 -0.0095642
4716.38 -0.0021973
4717.02 -0.010985
4717.65 -0.0092108
4718.28 -0.018752
4718.91 -0.001458
4719.54 -0.0026517
4720.17 -0.0057093
4720.8 -0.012212
4721.43 -0.012527
4722.06 0.00059596
4722.69 -0.0060738
4723.32 -0.015122
4723.95 -0.0088149
4724.58 -0.0083967
4725.21 -0.013772
4725.84 -0.012251
4726.47 -0.012639
4727.1 -0.0052482
4727.73 -0.0086511
4728.36 -0.021184
4728.99 -0.0078827
4729.62 -0.00097601
4730.25 -0.012534
4730.88 -0.012324
4731.51 -0.0058746
4732.14 -0.017645
4732.77 -0.013674
4733.4 -0.0064785
4734.03 0.0015131
4734.66 -0.018226
4735.29 -0.019682
4735.92 -0.013227
4736.55 -0.01995
4737.19 -0.019919
4737.82 -0.018755
4738.45 -0.0035887
4739.08 -1.9061e-05
4739.71 -0.0077085
4740.34 0.013805
4740.97 -0.010339
4741.6 -0.014152
4742.23 -0.0094612
4742.86 -0.011497
4743.49 -0.0094303
4744.12 -0.01166
4744.75 -0.017362
4745.38 -0.0055271
4746.01 -0.0083938
4746.64 -0.012837
4747.27 -0.018837
4747.9 -0.016433
4748.53 -0.012793
4749.16 -0.013295
4749.79 -0.019327
4750.42 -0.014885
4751.05 -0.008736
4751.68 -0.014482
4752.31 -0.019298
4752.94 -0.020044
4753.57 -0.013255
4754.2 -0.0094144
4754.83 -0.016865
4755.46 -0.010598
4756.09 -0.013683
4756.72 -0.017899
4757.36 -0.018846
4757.99 -0.011756
4758.62 -0.015412
4759.25 -0.0074919
4759.88 -0.0027899
4760.51 0.0027484
4761.14 -0.0060511
4761.77 -0.030753
4762.4 -0.017258
4763.03 -0.017892
4763.66 -0.018546
4764.29 -0.018374
4764.92 0.00032473
4765.55 -0.0098673
4766.18 -0.014002
4766.81 -0.018058
4767.44 -0.010735
4768.07 -0.016723
4768.7 -0.011144
4769.33 0.00023536
4769.96 -0.0013413
4770.59 -0.0092837
4771.22 -0.0063518
4771.85 -0.0040918
4772.48 -0.004353
4773.11 -0.011685
4773.74 -0.016565
4774.37 -0.024621
4775.0 -0.021947
4775.63 -0.01769
4776.26 -0.019964
4776.9 -0.017231
4777.53 -0.01522
4778.16 -0.022813
4778.79 -0.0097617
4779.42 -0.0034388
4780.05 -0.0097136
4780.68 -0.020239
4781.31 -0.0080828
4781.94 -0.013311
4782.57 0.00345
4783.2 -0.0152
4783.83 -0.021918
4784.46 -0.0031197
4785.09 -0.017994
4785.72 -0.0067729
4786.35 -0.010043
4786.98 -0.0068522
4787.61 -0.019519
4788.24 -0.0076138
4788.87 -0.0097708
4789.5 -0.0062465
4790.13 -0.026314
4790.76 -0.030796
4791.39 -0.014105
4792.02 -0.020226
4792.65 -0.017301
4793.28 -0.0087914
4793.91 -0.011924
4794.54 -0.014776
4795.17 -0.013217
4795.8 -0.0090233
4796.43 -0.013702
4797.07 -0.019272
4797.7 -0.023808
4798.33 -0.013162
4798.96 -0.0037821
4799.59 -0.015061
4800.22 -0.018823
4800.85 -0.0081908
4801.48 -0.014468
4802.11 -0.018231
4802.74 -0.018239
4803.37 -0.013322
4804.0 -0.010612
4804.63 -0.0053278
4805.26 -0.0059587
4805.89 -0.0093746
4806.52 -0.0043011
4807.15 -0.0092707
4807.78 -0.014067
4808.41 -0.021787
4809.04 -0.018173
4809.67 -0.019049
4810.3 -0.012626
4810.93 -0.011541
4811.56 -0.0044633
4812.19 -0.0079153
4812.82 -0.0046536
4813.45 -0.0078056
4814.08 -0.027342
4814.71 -0.018532
4815.34 -0.015805
4815.97 -0.017761
4816.6 -0.015702
4817.24 -0.0043758
4817.87 -0.0068513
4818.5 -0.0096435
4819.13 -0.0093151
4819.76 -0.010628
4820.39 -0.01737
4821.02 -0.018303
4821.65 -0.01454
4822.28 -0.012207
4822.91 -0.013301
4823.54 -0.0094872
4824.17 -0.00714
4824.8 -0.013574
4825.43 -0.015607
4826.06 -0.0017604
4826.69 -0.005749
4827.32 -0.010053
4827.95 0.0014361
4828.58 -0.0065932
4829.21 -0.016783
4829.84 -0.019876
4830.47 -0.019528
4831.1 -0.0022646
4831.73 0.0052236
4832.36 -0.0058974
4832.99 -0.0063448
4833.62 -0.0067667
4834.25 -0.011905
4834.88 -0.0044684
4835.51 -0.016523
4836.14 -0.014477
4836.77 -0.0031486
4837.41 -0.0073743
4838.04 -0.01308
4838.67 -0.0082577
4839.3 -0.0038505
4839.93 -0.012982
4840.56 -0.012705
4841.19 -0.012651
4841.82 -0.019718
4842.45 -0.016059
4843.08 -0.017871
4843.71 -0.011626
4844.34 -0.00070312
4844.97 -0.0046075
4845.6 -0.017422
4846.23 -0.019528
4846.86 -0.018413
4847.49 -0.022424
4848.12 -0.022013
4848.75 -0.01419
4849.38 -0.0055352
4850.01 -0.006538
4850.64 -0.0085651
4851.27 -0.013704
4851.9 -0.016131
4852.53 -0.0061733
4853.16 0.0031663
4853.79 -0.0086243
4854.42 -0.021914
4855.05 -0.026749
4855.68 -0.017355
4856.31 -0.014741
4856.94 -0.016891
4857.58 -0.012597
4858.21 -0.0058718
4858.84 -0.0082475
4859.47 -0.014728
4860.1 -0.019208
4860.73 -0.0011646
4861.36 -0.0073903
4861.99 -0.021113
4862.62 -0.021418
4863.25 -0.010442
4863.88 -0.013965
4864.51 -0.012831
4865.14 -0.020011
4865.77 -0.021488
4866.4 -0.014788
4867.03 -0.0093251
4867.66 -0.019095
4868.29 -0.017219
4868.92 -0.013071
4869.55 -0.018389
4870.18 -0.011649
4870.81 -0.0087647
4871.44 -0.0085131
4872.07 -0.015876
4872.7 -0.015793
4873.33 -0.0087031
4873.96 -0.0071628
4874.59 -0.013007
4875.22 -0.013939
4875.85 -0.0080082
4876.48 -0.0094128
4877.11 -0.010552
4877.75 -0.0089915
4878.38 -0.010668
4879.01 -0.0053217
4879.64 -0.0079563
4880.27 -0.020549
4880.9 -0.014296
4881.53 -0.0092554
4882.16 -0.011078
4882.79 -0.0083014
4883.42 -0.015048
4884.05 -0.01305
4884.68 -0.015159
4885.31 -0.0082114
4885.94 -0.0020353
4886.57 0.0019847
4887.2 -0.012531
4887.83 -0.011449
4888.46 -0.0101
4889.09 -0.016127
4889.72 -0.010123
4890.35 -0.0074647
4890.98 -0.014446
4891.61 -0.0078318
4892.24 -0.0046086
4892.87 -0.00017423
4893.5 -0.012805
4894.13 -0.013856
4894.76 -0.0071498
4895.39 -0.0027259
4896.02 -0.011363
4896.65 -0.011398
4897.28 -0.0013534
4897.92 -0.0014085
4898.55 -0.0045454
4899.18 -0.012767
4899.81 -0.010525
4900.44 -0.011788
4901.07 -0.011651
4901.7 -0.0081879
4902.33 -0.00039243
4902.96 -0.0063299
4903.59 3.0535e-05
4904.22 -0.0013713
4904.85 -0.0029082
4905.48 -0.0056209
4906.11 -0.0016557
4906.74 -0.0025501
4907.37 -0.00050719
4908.0 -0.0052151
4908.63 -0.0069102
4909.26 -0.0045953
4909.89 -0.0012332
4910.52 -0.010613
4911.15 -0.013415
4911.78 -0.012911
4912.41 -0.010646
4913.04 -0.0063399
4913.67 -0.0039323
4914.3 -0.0032935
4914.93 -0.010979
4915.56 -0.01956
4916.19 -0.0010112
4916.82 -0.011345
4917.46 -0.014845
4918.09 -0.0085042
4918.72 -0.0083641
4919.35 -0.0041437
4919.98 -0.013405
4920.61 -0.012905
4921.24 -0.0066281
4921.87 -0.0075149
4922.5 -0.015936
4923.13 -0.012789
4923.76 -0.018969
4924.39 -0.017961
4925.02 -0.0012171
4925.65 -0.014685
4926.28 -0.013803
4926.91 -0.0099439
4927.54 -0.011538
4928.17 -0.015912
4928.8 -0.0078261
4929.43 -0.010433
4930.06 -0.011087
4930.69 -0.018925
4931.32 -0.020937
4931.95 -0.012603
4932.58 -0.0089111
4933.21 -0.013989
4933.84 -0.018489
4934.47 -0.026441
4935.1 -0.0175
4935.73 -0.0072043
4936.36 -0.005232
4936.99 -0.0067948
4937.63 -0.0079234
4938.26 -0.014818
4938.89 -0.011193
4939.52 -0.0015183
4940.15 -0.012922
4940.78 -0.016209
4941.41 -0.006043
4942.04 -0.011844
4942.67 -0.0072433
4943.3 -0.0040154
4943.93 -0.015254
4944.56 -0.011414
4945.19 -0.0084874
4945.82 -0.013833
4946.45 -0.012634
4947.08 -0.01157
4947.71 -0.014258
4948.34 -0.012579
4948.97 -0.0061925
4949.6 -0.011583
4950.23 -0.0073765
4950.86 -0.011555
4951.49 -0.018349
4952.12 -0.0076726
4952.75 -0.002701
4953.38 -0.0050408
4954.01 -0.0068662
4954.64 -0.001166
4955.27 -0.0031571
4955.9 -0.017512
4956.53 -0.012102
4957.16 -0.013457
4957.8 -0.0089009
4958.43 -0.011602
4959.06 -0.0093831
4959.69 -0.0021712
4960.32 -0.0093404
4960.95 -0.013936
4961.58 -0.013562
4962.21 -0.017301
4962.84 -0.017954
4963.47 -0.013373
4964.1 -0.0021817
4964.73 0.0015245
4965.36 -0.0057561
4965.99 -0.014197
4966.62 -0.0091747
4967.25 -0.0092659
4967.88 -0.021844
4968.51 -0.017972
4969.14 -0.0063204
4969.77 -0.009817
4970.4 -0.016492
4971.03 -0.020232
4971.66 -0.014657
4972.29 -0.0084606
4972.92 -0.010558
4973.55 -0.0082889
4974.18 -0.013
4974.81 -0.013591
4975.44 -0.0083837
4976.07 -0.013179
4976.7 -0.014846
4977.33 -0.010794
4977.97 -0.012185
4978.6 -0.011795
4979.23 -0.021865
4979.86 -0.011108
4980.49 -0.011773
4981.12 -0.01326
4981.75 -0.0088818
4982.38 -0.012707
4983.01 -0.01381
4983.64 -0.0086749
4984.27 -0.0010455
4984.9 0.0021616
4985.53 -0.0083631
4986.16 -0.014535
4986.79 -0.0065285
4987.42 -0.0085111
4988.05 -0.015662
4988.68 -0.0087278
4989.31 -0.011404
4989.94 -0.015648
4990.57 -0.027131
4991.2 -0.014668
4991.83 -0.013567
4992.46 -0.0024624
4993.09 -0.021618
4993.72 -0.032971
4994.35 -0.012793
4994.98 -0.0038103
4995.61 -0.010842
4996.24 -0.0073775
4996.87 -0.0010766
4997.5 -0.0025604
4998.14 -0.0034545
4998.77 -0.0091118
4999.4 -0.009632
5000.03 -0.010664
5000.66 -0.017023
5001.29 -0.013367
5001.92 -0.0069626
5002.55 -0.0094655
5003.18 -0.01163
5003.81 -0.0056525
5004.44 -0.0011378
5005.07 -0.0021138
5005.7 -0.0031633
5006.33 -0.0088528
5006.96 -0.0088432
5007.59 -0.012842
5008.22 -0.019966
5008.85 -0.012007
5009.48 -0.0093245
5010.11 -0.012081
5010.74 -0.011858
5011.37 -0.016304
5012.0 -0.020637
5012.63 -0.014561
5013.26 -0.00696
5013.89 -0.0049637
5014.52 -0.0099125
5015.15 -0.011456
5015.78 -0.010074
5016.41 -0.0061645
5017.04 -0.0033368
5017.67 -0.0029453
5018.31 -0.013395
5018.94 -0.0078349
5019.57 -0.0055171
5020.2 -0.00016974
5020.83 -0.0064629
5021.46 -0.011175
5022.09 -0.0067347
5022.72 -0.0086345
5023.35 -0.0095991
5023.98 -0.0019353
5024.61 -0.015493
5025.24 -0.012581
5025.87 -0.0098381
5026.5 -0.0057949
5027.13 -0.0036987
5027.76 0.0040072
5028.39 -0.0019459
5029.02 -0.0056665
5029.65 -0.0065784
5030.28 -0.003758
5030.91 -0.016317
5031.54 -0.014517
5032.17 -0.0011779
5032.8 0.0023303
5033.43 0.0024781
5034.06 0.00039333
5034.69 -0.002511
5035.32 -0.0060457
5035.95 -0.00080829
5036.58 0.00020514
5037.21 -0.0023949
5037.84 0.0010337
5038.48 0.0028616
5039.11 0.00066615
5039.74 -0.0030456
5040.37 6.0547e-05
5041.0 0.00025491
5041.63 -0.0033572
5042.26 -0.0051363
5042.89 -0.0080216
5043.52 -0.014849
5044.15 -0.016168
5044.78 -0.013477
5045.41 -0.0159
5046.04 -0.015893
5046.67 -0.0058043
5047.3 -0.0036201
5047.93 -0.011223
5048.56 -0.015046
5049.19 -0.012536
5049.82 -0.0083828
5050.45 -0.0057439
5051.08 -0.0043251
5051.71 -0.010757
5052.34 -0.013593
5052.97 -0.0084348
5053.6 0.0011049
5054.23 -0.0049987
5054.86 -0.012473
5055.49 0.0045277
5056.12 -0.0036692
5056.75 0.00013636
5057.38 -0.0034828
5058.02 -0.007661
5058.65 -0.0055452
5059.28 -0.0085237
5059.91 -0.013668
5060.54 -0.0097112
5061.17 -0.0038412
5061.8 -0.0098267
5062.43 -0.0088958
5063.06 -0.008587
5063.69 -0.012733
5064.32 -0.011531
5064.95 0.0080165
5065.58 0.0031481
5066.21 5.798e-05
5066.84 -0.0028415
5067.47 -0.010493
5068.1 -0.014372
5068.73 -0.0097726
5069.36 -0.0092014
5069.99 -0.0097235
5070.62 -0.012439
5071.25 -0.014146
5071.88 -0.0097938
5072.51 -0.0068337
5073.14 -0.0039582
5073.77 -0.0086353
5074.4 -0.0085679
5075.03 -0.0074476
5075.66 -0.0042055
5076.29 -0.0019601
5076.92 -0.012183
5077.55 -0.012211
5078.19 -0.0076376
5078.82 -0.012639
5079.45 -0.010911
5080.08 -0.010327
5080.71 -0.013428
5081.34 -0.0087006
5081.97 -0.0077764
5082.6 -0.010252
5083.23 -0.010072
5083.86 -0.01011
5084.49 -0.013189
5085.12 -0.0049279
5085.75 -0.010964
5086.38 -0.01148
5087.01 -0.0077797
5087.64 -0.0089865
5088.27 -0.014148
5088.9 -0.011915
5089.53 -0.0086161
5090.16 -0.012897
5090.79 -0.011594
5091.42 -0.007513
5092.05 -0.014378
5092.68 -0.011051
5093.31 -0.010053
5093.94 -0.0090935
5094.57 -0.010794
5095.2 -0.0072165
5095.83 -0.0067782
5096.46 -0.016617
5097.09 -0.0072651
5097.72 -0.0093644
5098.36 -0.0093374
5098.99 -0.0097462
5099.62 -0.0061747
5100.25 -0.010315
5100.88 -0.0091813
5101.51 -0.011999
5102.14 -0.0031645
5102.77 -0.013366
5103.4 -0.0040135
5104.03 -0.011045
5104.66 -0.0091281
5105.29 -0.0039547
5105.92 -0.0029491
5106.55 -0.0092489
5107.18 -0.0048938
5107.81 -0.0094227
5108.44 -0.010378
5109.07 -0.0053497
5109.7 -0.0050467
5110.33 -0.011655
5110.96 -0.0080291
5111.59 -0.010087
5112.22 -0.017134
5112.85 -0.01306
5113.48 -0.010315
5114.11 -0.0095379
5114.74 -0.0073464
5115.37 -0.0042821
5116.0 -0.0074703
5116.63 -0.01805
5117.26 -0.016104
5117.89 -0.010684
5118.53 -0.011136
5119.16 -0.0083303
5119.79 -0.0072575
5120.42 -0.0054353
5121.05 -0.0046855
5121.68 -0.013023
5122.31 -0.015
5122.94 -0.0063131
5123.57 0.0019095
5124.2 0.0017468
5124.83 -0.0031724
5125.46 -0.0098475
5126.09 -0.011468
5126.72 -0.0038043
5127.35 0.0023396
5127.98 -0.0094778
5128.61 -0.013072
5129.24 -0.0098629
5129.87 -0.011726
5130.5 -0.008959
5131.13 -0.00055074
5131.76 -0.0015178
5132.39 -0.0051407
5133.02 -0.0077671
5133.65 -0.0080181
5134.28 -0.0063831
5134.91 -0.0036176
5135.54 -0.01217
5136.17 -0.017792
5136.8 -0.010679
5137.43 -0.0083845
5138.06 -0.0083527
5138.7 -0.015049
5139.33 -0.011156
5139.96 -0.012701
5140.59 -0.012751
5141.22 -0.0034005
5141.85 -0.0036455
5142.48 -0.0015633
5143.11 0.0013344
5143.74 -0.01226
5144.37 -0.012789
5145.0 -0.0024511
5145.63 -0.0053475
5146.26 -0.013558
5146.89 -0.0053968
5147.52 -0.0038347
5148.15 -0.012954
5148.78 -0.009888
5149.41 0.0030255
5150.04 0.0011418
5150.67 -0.011493
5151.3 -0.012835
5151.93 -0.01573
5152.56 -0.0089986
5153.19 -0.0064481
5153.82 -0.012201
5154.45 -0.013989
5155.08 -0.012231
5155.71 -0.0018481
5156.34 -0.0085352
5156.97 -0.014234
5157.6 -0.0076202
5158.23 -0.0064484
5158.87 -0.014799
5159.5 -0.015113
5160.13 -0.0078913
5160.76 -0.0051111
5161.39 -0.0078759
5162.02 -0.0065923
5162.65 -0.0019268
5163.28 -0.002353
5163.91 -0.0037598
5164.54 -0.0059789
5165.17 5.2271e-05
5165.8 -0.0011913
5166.43 -0.0057464
5167.06 -0.0052442
5167.69 -0.0044868
5168.32 -0.010124
5168.95 -0.0090323
5169.58 -0.0024629
5170.21 0.0021112
5170.84 -0.0012389
5171.47 -0.0051773
5172.1 -0.0029001
5172.73 -0.0040741
5173.36 -0.0042156
5173.99 -0.0052099
5174.62 -0.0035557
5175.25 0.0011679
5175.88 0.0010938
5176.51 0.0013494
5177.14 -0.0050213
5177.77 -0.0056046
5178.4 -0.0040217
5179.04 0.0019811
5179.67 0.0049571
5180.3 -0.004375
5180.93 0.002289
5181.56 -0.0029866
5182.19 -0.0044694
5182.82 0.0059298
5183.45 0.0093286
5184.08 0.0043345
5184.71 0.0097255
5185.34 0.010333
5185.97 0.0010322
5186.6 -0.00048654
5187.23 0.002565
5187.86 0.0059091
5188.49 0.0033263
5189.12 0.0040894
5189.75 0.0016277
5190.38 -0.0044679
5191.01 -0.0034439
5191.64 0.0014271
5192.27 0.0028113
5192.9 -0.0041154
5193.53 -0.0045967
5194.16 -0.0020848
5194.79 0.0032015
5195.42 -0.0050906
5196.05 0.0056141
5196.68 -0.0018915
5197.31 -0.004451
5197.94 -0.0031134
5198.58 0.0047918
5199.21 0.0062078
5199.84 -0.0037639
5200.47 -0.005238
5201.1 -0.0061262
5201.73 -0.00041009
5202.36 -0.0076189
5202.99 0.00019603
5203.62 -0.0034795
5204.25 -0.0046065
5204.88 -0.0017017
5205.51 -0.0046078
5206.14 -0.006386
5206.77 -0.010019
5207.4 -0.0037348
5208.03 -0.0032547
5208.66 -0.014471
5209.29 -0.0077897
5209.92 -0.0080358
5210.55 -0.0076408
5211.18 -0.0099709
5211.81 -0.0083624
5212.44 -0.0063273
5213.07 -0.009144
5213.7 -0.0078184
5214.33 -0.010332
5214.96 -0.0038298
5215.59 0.0033323
5216.22 -0.001153
5216.85 -0.0047035
5217.48 -0.0011425
5218.11 -7.3246e-05
5218.75 -0.0052026
5219.38 -0.0098645
5220.01 -0.0069036
5220.64 -0.011406
5221.27 -0.016336
5221.9 -0.0087789
5222.53 -0.0015743
5223.16 -0.0050503
5223.79 7.4695e-05
5224.42 0.0053784
5225.05 0.0011306
5225.68 -0.0024997
5226.31 -0.0062525
5226.94 -0.0091951
5227.57 -0.0073773
5228.2 -0.0024478
5228.83 -0.00068065
5229.46 -0.0037867
5230.09 -0.0050036
5230.72 9.1485e-05
5231.35 -0.0020586
5231.98 -0.01005
5232.61 -0.0055471
5233.24 0.0025424
5233.87 0.0017567
5234.5 -0.0048444
5235.13 -0.010159
5235.76 -0.0080167
5236.39 -0.007036
5237.02 -0.0046062
5237.65 -0.0035963
5238.28 -0.0022949
5238.92 -0.0032339
5239.55 -0.0055926
5240.18 -0.0079341
5240.81 -0.0077798
5241.44 -0.0030358
5242.07 -0.0074964
5242.7 -0.0059005
5243.33 0.0033378
5243.96 -0.0018378
5244.59 -0.0079451
5245.22 -0.0096629
5245.85 -0.013378
5246.48 -0.0018626
5247.11 -0.0047103
5247.74 -0.01245
5248.37 -0.0047197
5249.0 -0.014708
5249.63 -0.0094963
5250.26 -0.0103
5250.89 0.0056983
5251.52 -0.011813
5252.15 -0.010069
5252.78 -0.0086387
5253.41 -0.0096166
5254.04 -0.009034
5254.67 -0.01376
5255.3 -0.013331
5255.93 -0.01232
5256.56 -0.0084861
5257.19 -0.014929
5257.82 -0.012518
5258.45 -0.014082
5259.09 -0.010857
5259.72 -0.01252
5260.35 -0.010762
5260.98 -0.011981
5261.61 -0.0084597
5262.24 -0.012522
5262.87 -0.007639
5263.5 -0.0070726
5264.13 -0.010424
5264.76 -0.015472
5265.39 -0.013407
5266.02 -0.008844
5266.65 -0.0074721
5267.28 -0.0057543
5267.91 -0.0049056
5268.54 -0.0055018
5269.17 -0.0013174
5269.8 -0.0051178
5270.43 -0.015247
5271.06 -0.012272
5271.69 -0.0069845
5272.32 -0.002129
5272.95 -0.0070367
5273.58 -0.0049916
5274.21 -0.0017376
5274.84 -0.0065159
5275.47 -0.011903
5276.1 -0.0078784
5276.73 -0.0014546
5277.36 0.0018227
5277.99 -0.0017971
5278.62 -0.0045972
5279.26 0.0019369
5279.89 -0.0026017
5280.52 -0.0072303
5281.15 3.81e-05
5281.78 0.0081657
5282.41 0.0071275
5283.04 0.005095
5283.67 0.0050272
5284.3 0.0037974
5284.93 0.0030247
5285.56 0.002827
5286.19 0.0037319
5286.82 0.0051032
5287.45 0.0061426
5288.08 0.0050443
5288.71 0.0060868
5289.34 0.0007289
5289.97 -0.00022084
5290.6 0.0024059
5291.23 -0.0059572
5291.86 -0.0072603
5292.49 0.0028566
5293.12 0.0035869
5293.75 0.0026206
5294.38 0.0072582
5295.01 0.0014099
5295.64 -0.0037087
5296.27 -0.0035132
5296.9 0.00095355
5297.53 -0.0051525
5298.16 0.001106
5298.79 0.004798
5299.43 0.0025018
5300.06 0.00012303
5300.69 -0.00061965
5301.32 0.0023482
5301.95 0.0032654
5302.58 -0.00089932
5303.21 -0.0004474
5303.84 -0.0096442
5304.47 -0.0054142
5305.1 -0.0055401
5305.73 -0.0063638
5306.36 -0.0087292
5306.99 -0.012648
5307.62 -0.010109
5308.25 -0.0052603
5308.88 -0.0049124
5309.51 -0.0030282
5310.14 -0.0028887
5310.77 -0.0078794
5311.4 -0.012643
5312.03 -0.0074864
5312.66 -0.0066881
5313.29 -0.0057981
5313.92 -0.01977
5314.55 -0.015794
5315.18 -0.0020568
5315.81 -0.0056395
5316.44 -0.011093
5317.07 -0.010452
5317.7 -0.012483
5318.33 -0.0073629
5318.96 -0.0010226
5319.6 -0.0096501
5320.23 -0.0083195
5320.86 -0.0031234
5321.49 -0.0043147
5322.12 -0.014895
5322.75 -0.014753
5323.38 -0.017129
5324.01 -0.011421
5324.64 -0.011746
5325.27 -0.011627
5325.9 -0.0099138
5326.53 -0.0032073
5327.16 -0.010341
5327.79 -0.01339
5328.42 -0.0073008
5329.05 0.00064828
5329.68 -0.0095824
5330.31 -0.0095391
5330.94 -0.016687
5331.57 -0.014335
5332.2 -0.0036506
5332.83 -0.0075053
5333.46 -0.0051849
5334.09 -0.008376
5334.72 -0.01079
5335.35 -0.013285
5335.98 -0.019247
5336.61 -0.01438
5337.24 -0.0097063
5337.87 -0.0062315
5338.5 -0.0047617
5339.14 -0.011392
5339.77 -0.0049258
5340.4 -0.0060181
5341.03 -0.0037632
5341.66 0.00049954
5342.29 -0.0055709
5342.92 0.0018151
5343.55 0.0067671
5344.18 -0.0032096
5344.81 0.0049894
5345.44 0.0017836
5346.07 -0.00096184
5346.7 0.0020437
5347.33 0.0013755
5347.96 0.002513
5348.59 0.0056881
5349.22 0.0073155
5349.85 0.0063877
5350.48 0.002162
5351.11 0.00026915
5351.74 -0.0004161
5352.37 -0.0032983
5353.0 -0.0026648
5353.63 -0.003561
5354.26 -0.0029565
5354.89 -0.003236
5355.52 -0.0042963
5356.15 -0.0033234
5356.78 -0.0036442
5357.41 -0.0062937
5358.04 -0.0080415
5358.67 -0.0064649
5359.31 -0.0062791
5359.94 -0.0047439
5360.57 -0.0034573
5361.2 -0.00076593
5361.83 0.0014319
5362.46 -0.0027863
5363.09 -0.0032003
5363.72 -0.00043009
5364.35 -0.0072047
5364.98 -0.011931
5365.61 -0.013402
5366.24 -0.0070794
5366.87 -0.0037984
5367.5 -0.010681
5368.13 -0.011389
5368.76 -0.0036036
5369.39 -0.0023752
5370.02 -0.0035031
5370.65 -0.0026803
5371.28 -0.0035765
5371.91 -0.0071254
5372.54 -0.013973
5373.17 -0.011856
5373.8 -0.0077853
5374.43 -0.0083411
5375.06 -0.0082245
5375.69 -0.0054869
5376.32 -0.0062414
5376.95 -0.015365
5377.58 -0.014602
5378.21 -0.011397
5378.84 -0.010687
5379.48 -0.0077802
5380.11 -0.0093235
5380.74 -0.009859
5381.37 -0.0080674
5382.0 -0.0046501
5382.63 -0.0083111
5383.26 -0.0094849
5383.89 -0.0064619
5384.52 -0.0064726
5385.15 -0.010734
5385.78 -0.0084009
5386.41 -0.0039918
5387.04 -0.0066716
5387.67 -0.0034607
5388.3 -0.0059396
5388.93 -0.0091388
5389.56 -0.0016916
5390.19 -0.0036959
5390.82 -0.0057774
5391.45 -0.004797
5392.08 -0.0061265
5392.71 -0.0044733
5393.34 -0.016224
5393.97 -0.010268
5394.6 -0.0077145
5395.23 -0.0032467
5395.86 -0.0015489
5396.49 -0.0045451
5397.12 -0.0009941
5397.75 0.0024547
5398.38 -0.0064927
5399.01 -0.0094048
5399.65 0.00052836
5400.28 -0.0045387
5400.91 -0.00054985
5401.54 -0.0023729
5402.17 -0.0055797
5402.8 -0.010018
5403.43 -0.011999
5404.06 -0.0059254
5404.69 -0.0024283
5405.32 -0.0075284
5405.95 -0.0051181
5406.58 -0.0030883
5407.21 -0.0085334
5407.84 -0.012067
5408.47 -0.015584
5409.1 -0.016306
5409.73 -0.0088444
5410.36 -0.0025242
5410.99 0.0015483
5411.62 0.001985
5412.25 -0.0034116
5412.88 -0.011156
5413.51 -0.0081236
5414.14 -0.0031205
5414.77 -0.0023588
5415.4 -0.012343
5416.03 -0.011484
5416.66 -0.01124
5417.29 0.0036301
5417.92 0.0027824
5418.55 -0.0014912
5419.18 0.0022597
5419.82 -0.0014719
5420.45 0.0013145
5421.08 0.0060778
5421.71 -0.008422
5422.34 -0.0019973
5422.97 -0.0092404
5423.6 -0.013744
5424.23 -0.015018
5424.86 -0.0075453
5425.49 -0.00090224
5426.12 -0.0034098
5426.75 -0.0068062
5427.38 -0.0039301
5428.01 -0.0039562
5428.64 -0.0028922
5429.27 -0.0055827
5429.9 0.00072654
5430.53 0.0094731
5431.16 0.0012552
5431.79 -0.0028321
5432.42 -0.0014791
5433.05 -0.0062981
5433.68 -0.0078206
5434.31 -0.0087871
5434.94 -0.0064392
5435.57 -0.0092469
5436.2 -0.005456
5436.83 0.0014768
5437.46 -0.0079738
5438.09 -0.0036626
5438.72 -0.0092492
5439.35 -0.0063152
5439.99 -0.0041698
5440.62 -0.0014304
5441.25 -0.004084
5441.88 -0.0030035
5442.51 0.0014751
5443.14 -0.005675
5443.77 -0.0085039
5444.4 -0.0032221
5445.03 -0.0012823
5445.66 -0.0020149
5446.29 -0.0040996
5446.92 -0.012884
5447.55 -0.010674
5448.18 -0.011319
5448.81 -0.0026356
5449.44 -0.0096271
5450.07 -0.018284
5450.7 -0.010092
5451.33 -0.008867
5451.96 -0.0065395
5452.59 -0.0047622
5453.22 0.0022746
5453.85 -0.0061543
5454.48 -0.0049644
5455.11 0.0006567
5455.74 -0.0050914
5456.37 -0.0068988
5457.0 -0.010552
5457.63 -0.010739
5458.26 -0.0079549
5458.89 -0.0017417
5459.52 -0.0026545
5460.16 -0.0067507
5460.79 -0.0075472
5461.42 -0.0035911
5462.05 -0.0061461
5462.68 -0.012278
5463.31 -0.0065377
5463.94 -0.0084854
5464.57 -0.0094899
5465.2 -0.0012784
5465.83 -0.002673
5466.46 -0.0050067
5467.09 -0.0041936
5467.72 -0.0078423
5468.35 -0.0071819
5468.98 -0.0071279
5469.61 -0.0039375
5470.24 -0.0038079
5470.87 -0.0046157
5471.5 -0.0138
5472.13 -0.013394
5472.76 -0.0075206
5473.39 -0.0032481
5474.02 -0.0056543
5474.65 -0.0055276
5475.28 -0.00082496
5475.91 -0.0046966
5476.54 -0.0089457
5477.17 -0.0094189
5477.8 -0.0053381
5478.43 -0.00289
5479.06 -0.0014565
5479.7 -0.011399
5480.33 -0.012884
5480.96 -0.010033
5481.59 -0.008825
5482.22 -0.0073864
5482.85 -0.0099311
5483.48 -0.0094679
5484.11 -0.0029173
5484.74 -0.006141
5485.37 -0.0084824
5486.0 -0.0051063
5486.63 -0.0058305
5487.26 -0.015601
5487.89 -0.0093126
5488.52 -0.0049269
5489.15 -0.011691
5489.78 -0.0074004
5490.41 0.0011853
5491.04 -0.00063223
5491.67 -0.0065402
5492.3 -0.0080325
5492.93 -0.0078169
5493.56 -0.012385
5494.19 -0.012033
5494.82 -0.0085543
5495.45 -0.0057988
5496.08 -0.0055813
5496.71 -0.0066525
5497.34 -0.0079232
5497.97 -0.0051355
5498.6 -0.0043409
5499.23 -0.008597
5499.87 -0.0053128
5500.5 0.00066346
5501.13 -0.0067443
5501.76 -0.010535
5502.39 -0.0098636
5503.02 -0.0087656
5503.65 -0.0098823
5504.28 -0.013071
5504.91 -0.010502
5505.54 -0.0042511
5506.17 -0.002772
5506.8 -0.0032138
5507.43 -0.0050058
5508.06 -0.0081482
5508.69 -0.0064929
5509.32 -0.0061956
5509.95 -0.01103
5510.58 -0.0089706
5511.21 -0.0078757
5511.84 -0.0096433
5512.47 -0.011179
5513.1 -0.012107
5513.73 -0.012092
5514.36 -0.010446
5514.99 -0.0064354
5515.62 -0.0067551
5516.25 -0.0067729
5516.88 -0.0063016
5517.51 -0.0043433
5518.14 -0.0043544
5518.77 -0.0033597
5519.4 -0.00036086
5520.04 -0.0017443
5520.67 -0.0054098
5521.3 -0.007918
5521.93 -0.0091769
5522.56 -0.0090533
5523.19 -0.011717
5523.82 -0.012476
5524.45 -0.0059067
5525.08 -0.003691
5525.71 -0.0040725
5526.34 -0.0080536
5526.97 -0.0085356
5527.6 -0.0066456
5528.23 -0.012364
5528.86 -0.0071975
5529.49 -0.00544
5530.12 -0.0058718
5530.75 -0.0045779
5531.38 -0.0074696
5532.01 -0.0055854
5532.64 -0.00457
5533.27 -0.0049778
5533.9 -0.0092262
5534.53 -0.010355
5535.16 -0.0079157
5535.79 -0.0051557
5536.42 -0.0050448
5537.05 -0.0087486
5537.68 -0.010075
5538.31 -0.0072776
5538.94 -0.0049947
5539.57 -0.0044542
5540.21 0.0019087
5540.84 0.0018035
5541.47 -0.00038724
5542.1 -0.0043536
5542.73 -0.0012045
5543.36 -0.00039858
5543.99 0.0017637
5544.62 0.0040155
5545.25 0.0004608
5545.88 -0.00075994
5546.51 -0.0070005
5547.14 -0.0037391
5547.77 -0.0012589
5548.4 -0.0045061
5549.03 -0.0066518
5549.66 -0.0051545
5550.29 -0.0064627
5550.92 -0.0067882
5551.55 -0.0046702
5552.18 -0.0064646
5552.81 -0.0080406
5553.44 -0.0019674
5554.07 0.0025983
5554.7 0.00045153
5555.33 -0.00087088
5555.96 -0.0042683
5556.59 -0.0099752
5557.22 -0.0092776
5557.85 -0.0089008
5558.48 -0.0075358
5559.11 -0.011867
5559.74 -0.0039921
5560.38 -0.01151
5561.01 -0.012506
5561.64 -0.0050847
5562.27 -0.010316
5562.9 -0.0080641
5563.53 -0.004786
5564.16 -0.0050395
5564.79 -0.0016325
5565.42 -0.0010938
5566.05 -0.0074951
5566.68 -0.01256
5567.31 -0.0051463
5567.94 0.00040676
5568.57 -0.0066634
5569.2 -0.011257
5569.83 -0.010474
5570.46 -0.0084885
5571.09 -0.011678
5571.72 -0.013501
5572.35 -0.010827
5572.98 -0.0042237
5573.61 -0.0028672
5574.24 -0.014087
5574.87 -0.0051277
5575.5 0.002789
5576.13 0.010047
5576.76 -0.038212
5577.39 -0.014231
5578.02 -0.001171
5578.65 -0.015896
5579.28 -0.0060658
5579.91 -0.0076551
5580.55 -0.0095716
5581.18 -0.007023
5581.81 -0.0047098
5582.44 -0.0057992
5583.07 -0.0001462
5583.7 -0.00041788
5584.33 -0.0072187
5584.96 -0.0064614
5585.59 -0.0056158
5586.22 -0.0084748
5586.85 -0.0062401
5587.48 0.0024584
5588.11 -0.00024103
5588.74 -0.0032668
5589.37 -0.0069637
5590.0 -0.00065352
5590.63 0.0013123
5591.26 -0.0039925
5591.89 -0.0080535
5592.52 -0.0018808
5593.15 0.0020161
5593.78 0.00092577
5594.41 -0.0085433
5595.04 -0.0096492
5595.67 -0.0078754
5596.3 -0.0057196
5596.93 -0.0040293
5597.56 -0.0035252
5598.19 -0.010867
5598.82 -0.011561
5599.45 -0.0037625
5600.08 -0.0036523
5600.72 -0.0068588
5601.35 -0.0093626
5601.98 -0.010231
5602.61 -0.0057846
5603.24 -0.01331
5603.87 -0.016022
5604.5 -0.012596
5605.13 -0.00401
5605.76 -0.0031432
5606.39 -0.0043339
5607.02 -0.0048542
5607.65 -0.0058428
5608.28 -0.0025974
5608.91 -0.0061177
5609.54 -0.0049155
5610.17 -0.0079759
5610.8 -0.0087958
5611.43 -0.0047203
5612.06 -0.0044838
5612.69 -0.0053902
5613.32 -0.0083363
5613.95 -0.0099836
5614.58 -0.0075531
5615.21 -0.0083053
5615.84 -0.011064
5616.47 -0.0069164
5617.1 -0.0038858
5617.73 -0.0055997
5618.36 -0.0097292
5618.99 -0.014555
5619.62 -0.011677
5620.26 -0.0085804
5620.89 -0.001063
5621.52 -0.00273
5622.15 -0.0065889
5622.78 -0.011705
5623.41 -0.013591
5624.04 -0.0090914
5624.67 -0.010096
5625.3 -0.0076831
5625.93 -0.012389
5626.56 -0.016044
5627.19 -0.011771
5627.82 -0.015333
5628.45 -0.012379
5629.08 -0.0016214
5629.71 -0.0061192
5630.34 -0.016691
5630.97 -0.011462
5631.6 -0.0060294
5632.23 -0.012102
5632.86 -0.016301
5633.49 -0.011643
5634.12 -0.0071012
5634.75 -0.0082053
5635.38 -0.0048824
5636.01 -0.003788
5636.64 -0.006864
5637.27 -0.014087
5637.9 -0.012539
5638.53 -0.004383
5639.16 -0.0045681
5639.79 -0.0077863
5640.43 -0.011386
5641.06 -0.013013
5641.69 -0.011647
5642.32 -0.0098501
5642.95 -0.011427
5643.58 -0.010406
5644.21 -0.0091091
5644.84 -0.0035816
5645.47 -0.0014073
5646.1 -0.005992
5646.73 -0.0084303
5647.36 -0.0051538
5647.99 -0.0078712
5648.62 -0.0090859
5649.25 -0.0080153
5649.88 -0.0078751
5650.51 -0.0082178
5651.14 -0.0035488
5651.77 -0.0039945
5652.4 -0.009502
5653.03 -0.0090449
5653.66 -0.010119
5654.29 -0.0097934
5654.92 -0.0032084
5655.55 0.0014949
5656.18 -0.0012386
5656.81 -0.0059419
5657.44 -0.0037064
5658.07 -0.0027175
5658.7 -0.0099285
5659.33 -0.015879
5659.96 -0.0068269
5660.6 0.00026872
5661.23 -0.0012521
5661.86 -0.0040282
5662.49 -0.0079925
5663.12 -0.010388
5663.75 -0.0084903
5664.38 -0.0067607
5665.01 0.00026613
5665.64 -0.0020172
5666.27 -0.0029237
5666.9 -0.0012649
5667.53 -0.0050216
5668.16 -0.0060626
5668.79 -0.0027445
5669.42 -0.0041487
5670.05 -0.0064328
5670.68 -0.0060304
5671.31 -0.0045262
5671.94 -0.0035039
5672.57 -0.0094687
5673.2 -0.0093158
5673.83 -0.0065796
5674.46 -0.0054214
5675.09 -0.0077218
5675.72 -0.01177
5676.35 -0.0096028
5676.98 -0.0056828
5677.61 -0.006622
5678.24 -0.0033241
5678.87 -0.00044594
5679.5 0.0012936
5680.13 0.00088341
5680.77 -0.00073921
5681.4 -0.0033345
5682.03 -0.0056581
5682.66 -0.0086412
5683.29 -0.0076165
5683.92 -0.0035233
5684.55 -0.0051474
5685.18 -0.005189
5685.81 -0.00016303
5686.44 0.0043354
5687.07 0.0016974
5687.7 -0.0065284
5688.33 -0.0023411
5688.96 0.003957
5689.59 -0.002459
5690.22 -0.008472
5690.85 -0.007901
5691.48 -0.0059817
5692.11 -0.0073184
5692.74 -0.0049404
5693.37 -0.0055691
5694.0 -0.0087608
5694.63 -0.0069899
5695.26 -0.0061823
5695.89 -0.0069595
5696.52 -0.011241
5697.15 -0.006722
5697.78 -0.0025076
5698.41 -0.0011218
5699.04 -0.0033171
5699.67 -0.007556
5700.3 -0.006571
5700.94 -0.0078769
5701.57 -0.0066133
5702.2 -0.0064723
5702.83 -0.011262
5703.46 -0.0051664
5704.09 -0.0018541
5704.72 -0.0050053
5705.35 -0.0068365
5705.98 -0.0066699
5706.61 -0.007662
5707.24 -0.0030283
5707.87 -0.00366
5708.5 -0.0051226
5709.13 -0.00077791
5709.76 -0.0010763
5710.39 -0.0025689
5711.02 -0.0012137
5711.65 0.0011983
5712.28 -0.0010505
5712.91 -0.0069518
5713.54 -0.0065493
5714.17 -0.0048857
5714.8 -0.0043378
5715.43 -0.0034949
5716.06 -0.0058303
5716.69 -0.0077356
5717.32 -0.0095101
5717.95 -0.011346
5718.58 -0.0041388
5719.21 -0.0016616
5719.84 -0.0043924
5720.47 -0.0020278
5721.11 -0.0020574
5721.74 -0.0058801
5722.37 -0.0065427
5723.0 -0.0029937
5723.63 -0.00098019
5724.26 -0.0033356
5724.89 -0.004506
5725.52 -0.0042521
5726.15 -0.0030358
5726.78 -0.0014278
5727.41 0.0036646
5728.04 -0.0019451
5728.67 -0.0034025
5729.3 -0.0048092
5729.93 -0.0049664
5730.56 -0.0065
5731.19 -0.0072843
5731.82 -0.0080911
5732.45 -0.01218
5733.08 -0.010636
5733.71 -0.00083904
5734.34 0.0038543
5734.97 0.00092301
5735.6 -0.0032325
5736.23 -0.0040219
5736.86 -0.0016032
5737.49 -0.0036972
5738.12 -0.0052399
5738.75 -0.015173
5739.38 -0.012076
5740.01 -0.0044273
5740.64 -0.008602
5741.28 -0.007158
5741.91 -0.010545
5742.54 -0.013205
5743.17 -0.016076
5743.8 -0.012477
5744.43 -0.007447
5745.06 -0.010719
5745.69 -0.0075105
5746.32 -0.01035
5746.95 -0.0092415
5747.58 -0.0041163
5748.21 -0.0097854
5748.84 -0.012626
5749.47 -0.013892
5750.1 -0.010286
5750.73 -0.01155
5751.36 -0.0060235
5751.99 -0.0081236
5752.62 -0.012996
5753.25 -0.013835
5753.88 -0.01288
5754.51 -0.0059996
5755.14 -0.0024183
5755.77 -0.0036809
5756.4 -0.0057443
5757.03 -0.0047046
5757.66 -0.0070017
5758.29 -0.0026043
5758.92 -0.0045121
5759.55 -0.0051417
5760.18 -0.0089873
5760.82 -0.012647
5761.45 -0.0052336
5762.08 -0.0029442
5762.71 -0.0055726
5763.34 -0.0096611
5763.97 -0.0082085
5764.6 -0.0074407
5765.23 -0.0058209
5765.86 -0.0016937
5766.49 -0.00048635
5767.12 -0.0065117
5767.75 -0.004589
5768.38 -0.0016467
5769.01 -0.0088829
5769.64 -0.010256
5770.27 -0.012891
5770.9 -0.0092073
5771.53 -0.0078607
5772.16 -0.0086775
5772.79 -0.0039154
5773.42 -5.8953e-06
5774.05 -0.010559
5774.68 -0.0061598
5775.31 -0.0022302
5775.94 -0.0098153
5776.57 -0.014838
5777.2 -0.0094524
5777.83 -0.011932
5778.46 -0.0082643
5779.09 -0.012452
5779.72 -0.0050229
5780.35 -0.011555
5780.99 -0.010815
5781.62 -0.0048617
5782.25 -0.011886
5782.88 -0.0072079
5783.51 -0.011736
5784.14 -0.016625
5784.77 -0.014863
5785.4 -0.0099339
5786.03 -0.013208
5786.66 -0.0063934
5787.29 -0.010616
5787.92 -0.012726
5788.55 -0.011761
5789.18 -0.0037984
5789.81 -0.0090121
5790.44 -0.0073187
5791.07 -0.0076448
5791.7 -0.0094013
5792.33 -0.014966
5792.96 -0.01256
5793.59 -0.013702
5794.22 -0.0092573
5794.85 -0.0029116
5795.48 -0.0084862
5796.11 -0.014006
5796.74 -0.011543
5797.37 -0.0050413
5798.0 -0.0036286
5798.63 -0.0063532
5799.26 -0.0042371
5799.89 -0.0088915
5800.52 -0.008253
5801.16 -0.0059907
5801.79 -0.0041416
5802.42 -0.0095503
5803.05 -0.010005
5803.68 -0.0085554
5804.31 -0.0048643
5804.94 -0.004076
5805.57 -0.0014302
5806.2 -0.01253
5806.83 -0.0031961
5807.46 -0.0057481
5808.09 -0.0069754
5808.72 -0.012385
5809.35 -0.0061122
5809.98 -0.012023
5810.61 -0.013992
5811.24 -0.0084658
5811.87 -0.0026702
5812.5 -0.01426
5813.13 -0.014602
5813.76 -0.0089215
5814.39 -0.010326
5815.02 -0.0076493
5815.65 -0.0018476
5816.28 -0.0037208
5816.91 -0.010094
5817.54 -0.0084073
5818.17 -0.0038719
5818.8 -0.0081614
5819.43 -0.012145
5820.06 -0.011695
5820.69 -0.0058607
5821.33 -0.0083969
5821.96 -0.012143
5822.59 -0.0069896
5823.22 -0.0063494
5823.85 -0.0035286
5824.48 -0.0072576
5825.11 -0.005754
5825.74 -0.0085731
5826.37 -0.010941
5827.0 -0.013265
5827.63 -0.004626
5828.26 -0.0072119
5828.89 -0.0092884
5829.52 -0.010611
5830.15 -0.012033
5830.78 -0.0070953
5831.41 -0.0028807
5832.04 -0.0063864
5832.67 -0.008266
5833.3 -0.0072008
5833.93 -0.006619
5834.56 -0.0068072
5835.19 -0.0093674
5835.82 -0.0070895
5836.45 -0.0084617
5837.08 -0.01316
5837.71 -0.011092
5838.34 -0.012012
5838.97 -0.010023
5839.6 -0.0040811
5840.23 -0.0094599
5840.86 -0.01375
5841.5 -0.010348
5842.13 -0.0040844
5842.76 -0.0055787
5843.39 -0.0091259
5844.02 -0.006792
5844.65 -0.011178
5845.28 -0.012504
5845.91 -0.010734
5846.54 -0.011867
5847.17 -0.010399
5847.8 -0.0068955
5848.43 -0.013924
5849.06 -0.012947
5849.69 -0.0057683
5850.32 -0.004549
5850.95 -0.0073054
5851.58 -0.011596
5852.21 -0.0096846
5852.84 -0.010935
5853.47 -0.0083128
5854.1 -0.0020341
5854.73 -0.0060609
5855.36 -0.011163
5855.99 -0.013443
5856.62 -0.013405
5857.25 -0.013001
5857.88 -0.016517
5858.51 -0.011739
5859.14 -0.00813
5859.77 -0.0082107
5860.4 -0.013884
5861.03 -0.013431
5861.67 -0.0097003
5862.3 -0.010113
5862.93 -0.0063771
5863.56 0.0041589
5864.19 -0.0078221
5864.82 -0.015583
5865.45 -0.0088945
5866.08 -0.0078363
5866.71 -0.0062635
5867.34 -0.00046107
5867.97 -0.0031092
5868.6 -0.0087181
5869.23 -0.018403
5869.86 -0.01612
5870.49 -0.0089062
5871.12 -0.016881
5871.75 -0.015129
5872.38 -0.0073969
5873.01 -0.0082642
5873.64 -0.012483
5874.27 -0.0037507
5874.9 -0.0048976
5875.53 -0.010161
5876.16 -0.010822
5876.79 -0.0020948
5877.42 -0.0030902
5878.05 -0.007938
5878.68 -0.0063452
5879.31 -0.0072307
5879.94 -0.01644
5880.57 -0.012688
5881.2 -0.0098676
5881.84 -0.011477
5882.47 -0.015498
5883.1 -0.014966
5883.73 -0.0097175
5884.36 -0.00071278
5884.99 -0.0029435
5885.62 -0.0070521
5886.25 -0.0059287
5886.88 -0.0077599
5887.51 -0.0060865
5888.14 -0.0049192
5888.77 -0.011674
5889.4 -0.0044619
5890.03 -0.0060739
5890.66 -0.0065712
5891.29 -0.0070181
5891.92 -0.0002736
5892.55 -0.00045582
5893.18 -6.681e-05
5893.81 -0.0027754
5894.44 -0.0051733
5895.07 -0.0036886
5895.7 0.0046036
5896.33 -0.0080381
5896.96 -0.011186
5897.59 -0.00086673
5898.22 -0.0034343
5898.85 -0.00041514
5899.48 -0.0066487
5900.11 -0.0073718
5900.74 -0.0035054
5901.37 0.00013633
5902.01 0.001977
5902.64 -0.001368
5903.27 -0.00056366
5903.9 0.0048236
5904.53 0.0069216
5905.16 0.0033179
5905.79 0.0080014
5906.42 0.0025316
5907.05 0.0057592
5907.68 0.013053
5908.31 0.010288
5908.94 0.013384
5909.57 0.0022614
5910.2 0.0077123
5910.83 0.012395
5911.46 0.010209
5912.09 0.007734
5912.72 0.011031
5913.35 0.016629
5913.98 0.012974
5914.61 0.013601
5915.24 0.011151
5915.87 0.0063547
5916.5 0.0038536
5917.13 0.019842
5917.76 0.012555
5918.39 0.016704
5919.02 0.015784
5919.65 0.014198
5920.28 0.0088255
5920.91 0.0064525
5921.55 0.012159
5922.18 0.011606
5922.81 0.010146
5923.44 0.011412
5924.07 0.010824
5924.7 0.0076721
5925.33 0.010198
5925.96 0.0024002
5926.59 0.010296
5927.22 0.006706
5927.85 0.0062759
5928.48 0.00398
5929.11 -0.0026894
5929.74 -0.0010335
5930.37 0.0049827
5931.0 0.0060193
5931.63 0.0022126
5932.26 0.0030653
5932.89 0.0051028
5933.52 0.0065603
5934.15 0.0065921
5934.78 -0.0014327
5935.41 -0.0070984
5936.04 -0.0030618
5936.67 0.0033176
5937.3 0.00052586
5937.93 -0.0052688
5938.56 -0.0070165
5939.19 -0.0060289
5939.82 -0.0046516
5940.45 0.00092269
5941.08 -0.0016954
5941.72 -0.0091753
5942.35 -0.0059021
5942.98 0.0012872
5943.61 0.0065468
5944.24 0.0018171
5944.87 -0.0011089
5945.5 -0.0016441
5946.13 -0.0032242
5946.76 -0.0039591
5947.39 -0.0029223
5948.02 -0.0023058
5948.65 -0.0054901
5949.28 -0.0041068
5949.91 0.0016445
5950.54 -0.001285
5951.17 -0.0063094
5951.8 0.00034371
5952.43 -0.00058927
5953.06 -8.1733e-05
5953.69 0.0063641
5954.32 0.0033531
5954.95 -0.0013867
5955.58 -0.00070946
5956.21 -0.00070638
5956.84 -0.002763
5957.47 -0.0091035
5958.1 -0.0019843
5958.73 -0.0057453
5959.36 -0.0089131
5959.99 -0.0067732
5960.62 -0.0035675
5961.25 -0.0031595
5961.89 -0.00060106
5962.52 -0.0039792
5963.15 -0.00052434
5963.78 0.001262
5964.41 -0.006188
5965.04 -0.0040279
5965.67 -0.0014863
5966.3 -0.00066015
5966.93 -0.0057191
5967.56 -0.00062804
5968.19 -0.00774
5968.82 -0.012223
5969.45 -0.0081078
5970.08 0.0019959
5970.71 -0.0061318
5971.34 -0.0075708
5971.97 -0.0030434
5972.6 -0.005551
5973.23 -0.0040291
5973.86 -0.014792
5974.49 -0.013523
5975.12 -0.0059097
5975.75 -0.00333
5976.38 0.0044641
5977.01 -0.0016847
5977.64 -0.0019733
5978.27 -0.0063564
5978.9 -0.0041392
5979.53 -0.0041071
5980.16 -0.0062591
5980.79 0.0005706
5981.42 -0.0063397
5982.06 -0.0071581
5982.69 -0.0042389
5983.32 -0.0069543
5983.95 -0.005335
5984.58 -0.0011305
5985.21 -0.0020595
5985.84 -0.0018483
5986.47 -0.0091532
5987.1 -0.0091007
5987.73 -0.0052743
5988.36 -0.0047608
5988.99 -0.0037635
5989.62 -0.0010657
5990.25 0.0027735
5990.88 -0.0072366
5991.51 -0.0043114
5992.14 -0.0034569
5992.77 -0.011293
5993.4 -0.0070997
5994.03 -0.0084599
5994.66 -0.012238
5995.29 -0.010005
5995.92 -0.0034513
5996.55 -0.0047295
5997.18 -0.0087874
5997.81 -0.010205
5998.44 -0.011236
5999.07 -0.015972
5999.7 -0.0076179
6000.33 -0.008432
6000.96 -0.0070081
6001.59 -0.0024489
6002.23 -0.0052814
6002.86 -0.0067166
6003.49 -0.0090564
6004.12 -0.0077152
6004.75 -0.0039418
6005.38 -0.008313
6006.01 -0.0095765
6006.64 -0.0045216
6007.27 -0.004928
6007.9 -0.00011967
6008.53 -0.0022436
6009.16 -0.0026053
6009.79 -0.0056393
6010.42 -0.0046348
6011.05 -0.0030227
6011.68 -0.0023132
6012.31 -0.0069292
6012.94 -0.009
6013.57 -0.0036532
6014.2 -0.0059165
6014.83 -0.0096927
6015.46 -0.0081269
6016.09 -0.0056764
6016.72 -0.0095427
6017.35 -0.011504
6017.98 -0.007611
6018.61 -0.0057804
6019.24 -0.0044709
6019.87 -0.0046068
6020.5 -0.0065083
6021.13 -0.0049129
6021.76 -0.0053255
6022.4 -0.0055449
6023.03 -0.0015855
6023.66 -0.0029641
6024.29 -0.0088825
6024.92 -0.0053755
6025.55 -0.0045467
6026.18 -0.0058987
6026.81 -0.0050227
6027.44 -0.0056484
6028.07 -0.0048973
6028.7 -0.00683
6029.33 -0.004407
6029.96 -0.0013158
6030.59 -0.0063816
6031.22 -0.009557
6031.85 -0.0046631
6032.48 -0.0068249
6033.11 -0.0040129
6033.74 -0.009456
6034.37 -0.015082
6035.0 -0.012535
6035.63 -0.012649
6036.26 -0.014375
6036.89 -0.014789
6037.52 -0.011035
6038.15 -0.012141
6038.78 -0.0078871
6039.41 -0.0062233
6040.04 -0.006967
6040.67 -0.007243
6041.3 -0.0069029
6041.93 -0.0085702
6042.57 -0.007888
6043.2 -0.0061566
6043.83 -0.0014262
6044.46 -0.0090451
6045.09 -0.015025
6045.72 -0.01006
6046.35 -0.0019396
6046.98 -0.0059644
6047.61 -0.0094631
6048.24 -0.0067823
6048.87 -0.0095716
6049.5 -0.009654
6050.13 -0.0010556
6050.76 -0.0036461
6051.39 -0.0054683
6052.02 -0.010824
6052.65 -0.0058767
6053.28 -0.0051941
6053.91 -0.006252
6054.54 -0.0054843
6055.17 -0.017121
6055.8 -0.014617
6056.43 -0.012329
6057.06 -0.0044268
6057.69 -0.005059
6058.32 -0.013092
6058.95 -0.0085464
6059.58 -0.014668
6060.21 -0.014018
6060.84 -0.01227
6061.47 -0.014339
6062.11 -0.0097252
6062.74 -0.00869
6063.37 -0.0043815
6064.0 -0.0097111
6064.63 -0.0083734
6065.26 -0.0068055
6065.89 -0.0078112
6066.52 -0.0063029
6067.15 -0.0083576
6067.78 -0.0072311
6068.41 -0.0061939
6069.04 -0.0070407
6069.67 -0.010083
6070.3 -0.0064936
6070.93 -0.0056401
6071.56 -0.0066667
6072.19 -0.0058825
6072.82 -0.010554
6073.45 -0.017138
6074.08 -0.019862
6074.71 -0.010974
6075.34 -0.0084477
6075.97 -0.0081161
6076.6 -0.0078238
6077.23 -0.011285
6077.86 -0.015037
6078.49 -0.015264
6079.12 -0.0097591
6079.75 -0.0044075
6080.38 -0.0045571
6081.01 -0.0065389
6081.64 -0.0053318
6082.28 -0.0069084
6082.91 -0.009667
6083.54 -0.0058264
6084.17 -0.0052122
6084.8 -0.013211
6085.43 -0.0072515
6086.06 -0.001148
6086.69 -0.0022137
6087.32 -0.0037203
6087.95 -0.0054223
6088.58 -0.0065711
6089.21 -0.0069647
6089.84 -0.0073124
6090.47 -0.014182
6091.1 -0.010591
6091.73 -0.0072067
6092.36 -0.0044267
6092.99 -0.0036452
6093.62 -0.0078583
6094.25 -0.011364
6094.88 -0.0094062
6095.51 -0.0082845
6096.14 -0.0029941
6096.77 -0.0030039
6097.4 -0.0063609
6098.03 -0.0089055
6098.66 -0.014141
6099.29 -0.010771
6099.92 0.001588
6100.55 -0.012119
6101.18 -0.013133
6101.81 -0.0061821
6102.45 -0.0094263
6103.08 -0.0091765
6103.71 -0.0030027
6104.34 -0.0084467
6104.97 -0.0094022
6105.6 -0.009454
6106.23 -0.0041609
6106.86 -0.0090369
6107.49 -0.01569
6108.12 -0.013888
6108.75 -0.0082095
6109.38 -0.0079981
6110.01 -0.0059428
6110.64 -0.0055404
6111.27 -0.0096929
6111.9 -0.0079744
6112.53 -0.0040228
6113.16 -0.012143
6113.79 -0.0066369
6114.42 -0.0071767
6115.05 -0.0056083
6115.68 -0.0044383
6116.31 -0.0056568
6116.94 -0.0091346
6117.57 -0.010899
6118.2 -0.014552
6118.83 -0.01413
6119.46 -0.010192
6120.09 -0.0055526
6120.72 -0.0032008
6121.35 -0.0087377
6121.98 -0.0050345
6122.62 -0.012778
6123.25 -0.0089917
6123.88 -0.0087073
6124.51 -0.0088028
6125.14 -0.0050034
6125.77 -0.011263
6126.4 -0.010274
6127.03 -0.0026628
6127.66 -0.0052431
6128.29 -0.0088319
6128.92 -0.0088894
6129.55 -0.0074882
6130.18 -0.0060716
6130.81 -0.011303
6131.44 -0.013384
6132.07 -0.0041262
6132.7 -0.0020003
6133.33 -0.0098165
6133.96 -0.013572
6134.59 -0.0081465
6135.22 -0.0069802
6135.85 -0.0093907
6136.48 -0.0042349
6137.11 -0.0044396
6137.74 -0.006906
6138.37 -0.0058464
6139.0 -0.007592
6139.63 -0.0066499
6140.26 -0.0048675
6140.89 -0.0038558
6141.52 -0.0080077
6142.15 -0.0056683
6142.79 -0.0013915
6143.42 -0.0034666
6144.05 -0.0072635
6144.68 -0.0080591
6145.31 -0.014402
6145.94 -0.010932
6146.57 -0.0044743
6147.2 -0.0055963
6147.83 -0.0046638
6148.46 -0.0052717
6149.09 -0.0093263
6149.72 -0.003327
6150.35 0.0021163
6150.98 -0.0035843
6151.61 -0.012403
6152.24 -0.0083861
6152.87 -0.002497
6153.5 -0.0034119
6154.13 -0.0023448
6154.76 -0.0035425
6155.39 -0.0058694
6156.02 0.0012296
6156.65 -0.0028851
6157.28 0.003962
6157.91 -0.0017848
6158.54 -0.0048071
6159.17 -0.0091908
6159.8 -0.0048146
6160.43 -0.0064009
6161.06 -0.0053634
6161.69 -0.0067621
6162.32 -0.0039879
6162.96 -0.0032817
6163.59 -0.00080175
6164.22 0.0034886
6164.85 -0.0054127
6165.48 -0.0012615
6166.11 -0.0055077
6166.74 -0.00038937
6167.37 -0.0054165
6168.0 -0.0018463
6168.63 -0.0018915
6169.26 -0.0066033
6169.89 -0.0083082
6170.52 -0.0032022
6171.15 -0.0018236
6171.78 -0.0045692
6172.41 -0.004379
6173.04 -0.0079288
6173.67 -0.0091952
6174.3 -0.0033562
6174.93 -0.0021369
6175.56 0.001689
6176.19 -0.0010831
6176.82 0.0026409
6177.45 -0.0034483
6178.08 -0.0022937
6178.71 0.005754
6179.34 0.0035098
6179.97 -0.0013167
6180.6 -0.0035148
6181.23 -0.0030752
6181.86 -0.0042038
6182.49 -0.0039156
6183.13 -0.005838
6183.76 -0.0047359
6184.39 -0.0013292
6185.02 -0.0043758
6185.65 -0.0046657
6186.28 -0.0042073
6186.91 -0.0046347
6187.54 -0.00086179
6188.17 -0.006347
6188.8 -0.0083773
6189.43 -0.0054803
6190.06 -0.0094585
6190.69 -0.0091405
6191.32 -0.0024925
6191.95 -0.0056485
6192.58 -0.013788
6193.21 -0.0069951
6193.84 -0.0017621
6194.47 -0.0086393
6195.1 -0.011505
6195.73 -0.0075352
6196.36 -0.005321
6196.99 -0.0057182
6197.62 -0.0041608
6198.25 -0.00050327
6198.88 -0.00077201
6199.51 -0.0030357
6200.14 -0.0090984
6200.77 -0.0066312
6201.4 -0.0083808
6202.03 -0.0061675
6202.67 -0.011176
6203.3 -0.011791
6203.93 -0.0094683
6204.56 -0.0021661
6205.19 -0.0015006
6205.82 -0.0039831
6206.45 -0.0049851
6207.08 -0.0037744
6207.71 -0.0041991
6208.34 -0.0051431
6208.97 -0.0050988
6209.6 -0.0029928
6210.23 -0.005734
6210.86 -0.0069063
6211.49 -0.0040697
6212.12 -0.0085995
6212.75 -0.0054168
6213.38 -0.0058984
6214.01 -0.0014974
6214.64 -0.0044951
6215.27 -0.0045716
6215.9 -0.0045396
6216.53 -0.003229
6217.16 0.0045768
6217.79 0.0001103
6218.42 -0.0095993
6219.05 -0.0075847
6219.68 -0.0045329
6220.31 -7.8484e-05
6220.94 -0.0069472
6221.57 -0.0098635
6222.2 -0.002098
6222.84 0.0013895
6223.47 0.0013268
6224.1 -0.0057141
6224.73 -0.0036434
6225.36 -0.0011006
6225.99 -0.0036433
6226.62 -0.0054775
6227.25 -0.00839
6227.88 -0.0091511
6228.51 -0.010662
6229.14 -0.0060148
6229.77 -0.007001
6230.4 -0.0045372
6231.03 -0.0029912
6231.66 -0.0011443
6232.29 -0.005463
6232.92 -0.0061116
6233.55 -0.0055849
6234.18 -0.0050098
6234.81 -0.0028009
6235.44 -0.0049871
6236.07 -0.0073912
6236.7 -0.0043619
6237.33 -0.004972
6237.96 -0.0054431
6238.59 -0.0058102
6239.22 -0.0057315
6239.85 -0.0010831
6240.48 5.2655e-05
6241.11 -0.0014716
6241.74 -0.0037777
6242.37 -0.0052644
6243.01 -0.006114
6243.64 -0.0042273
6244.27 -0.0046234
6244.9 -0.0062129
6245.53 -0.0079171
6246.16 -0.0066363
6246.79 -0.0028294
6247.42 -0.0019962
6248.05 -0.0066721
6248.68 -0.0044352
6249.31 -0.0013578
6249.94 -0.003772
6250.57 -0.0028249
6251.2 -0.0051706
6251.83 -0.012252
6252.46 -0.011231
6253.09 -0.0010983
6253.72 -0.0023166
6254.35 -0.00052634
6254.98 0.0037862
6255.61 -0.0019866
6256.24 -0.0059893
6256.87 0.00058961
6257.5 -0.0059339
6258.13 -0.0013901
6258.76 0.0035174
6259.39 -0.0022874
6260.02 0.0036603
6260.65 0.0027514
6261.28 0.0023794
6261.91 0.0021704
6262.54 0.002893
6263.18 -0.0021103
6263.81 0.0050182
6264.44 0.0061567
6265.07 0.0085288
6265.7 0.0053746
6266.33 -0.0029503
6266.96 -0.0040464
6267.59 -0.0021936
6268.22 -0.0057912
6268.85 -0.0059991
6269.48 -0.0082107
6270.11 -0.0010982
6270.74 0.005841
6271.37 0.0038525
6272.0 -0.00037901
6272.63 3.6788e-05
6273.26 -0.0016433
6273.89 -0.00522
6274.52 -0.0028142
6275.15 -0.0031863
6275.78 -0.0053289
6276.41 -0.0044101
6277.04 0.001761
6277.67 0.003827
6278.3 -0.0016575
6278.93 -0.0013205
6279.56 0.0053356
6280.19 0.0013857
6280.82 0.00052494
6281.45 0.0020819
6282.08 -0.0016939
6282.71 -0.0028889
6283.35 -0.0031379
6283.98 0.0025721
6284.61 0.0065227
6285.24 -0.00032062
6285.87 -0.0032644
6286.5 0.0021668
6287.13 0.0063727
6287.76 -0.00094506
6288.39 0.0037971
6289.02 0.0040867
6289.65 -0.0031576
6290.28 -0.0047717
6290.91 -0.0010064
6291.54 0.0013059
6292.17 -0.003651
6292.8 -0.00044874
6293.43 -0.0012669
6294.06 -0.0052551
6294.69 0.0013449
6295.32 0.0037427
6295.95 0.0007879
6296.58 0.00046133
6297.21 -0.0068387
6297.84 -0.0084497
6298.47 0.006135
6299.1 -0.026926
6299.73 -0.014571
6300.36 -0.0048657
6300.99 0.0038249
6301.62 0.018178
6302.25 0.0054263
6302.88 -0.011699
6303.52 0.0040204
6304.15 -0.0023886
6304.78 0.0023367
6305.41 -0.0087025
6306.04 0.00086379
6306.67 0.00086958
6307.3 -0.0015063
6307.93 0.0062686
6308.56 0.006752
6309.19 0.0039404
6309.82 0.0050314
6310.45 0.010113
6311.08 0.019468
6311.71 0.023625
6312.34 0.029133
6312.97 0.043477
6313.6 0.047076
6314.23 0.04542
6314.86 0.04969
6315.49 0.058405
6316.12 0.05496
6316.75 0.05292
6317.38 0.050394
6318.01 0.053864
6318.64 0.054603
6319.27 0.058036
6319.9 0.057943
6320.53 0.056373
6321.16 0.055599
6321.79 0.053859
6322.42 0.045667
6323.05 0.035835
6323.69 0.042608
6324.32 0.046146
6324.95 0.037771
6325.58 0.037919
6326.21 0.041357
6326.84 0.036296
6327.47 0.033841
6328.1 0.037287
6328.73 0.029971
6329.36 0.019084
6329.99 0.021605
6330.62 0.020754
6331.25 0.014695
6331.88 0.017211
6332.51 0.012521
6333.14 0.016359
6333.77 0.0088198
6334.4 0.0099208
6335.03 0.011659
6335.66 0.0061729
6336.29 0.0047226
6336.92 0.00064562
6337.55 0.0058478
6338.18 -0.00091342
6338.81 0.0013765
6339.44 0.0096843
6340.07 0.0072039
6340.7 0.0064068
6341.33 -3.3361e-05
6341.96 0.0039411
6342.59 0.0065318
6343.23 0.0016358
6343.86 0.0015198
6344.49 -0.00050798
6345.12 -0.00090109
6345.75 0.0035567
6346.38 -0.0016157
6347.01 0.0009424
6347.64 0.0047435
6348.27 0.0033532
6348.9 -0.0015496
6349.53 -0.0026089
6350.16 -0.0040245
6350.79 -0.00074597
6351.42 -0.0015944
6352.05 -0.0036819
6352.68 0.0019907
6353.31 0.0026592
6353.94 0.0033418
6354.57 3.1048e-05
6355.2 -0.0010032
6355.83 0.0026
6356.46 0.00072013
6357.09 -0.0024585
6357.72 -0.00033198
6358.35 -0.0075889
6358.98 -0.010392
6359.61 -0.0058437
6360.24 -0.001646
6360.87 -0.00055302
6361.5 -0.00086375
6362.13 -0.0029018
6362.76 0.0082966
6363.4 0.0071712
6364.03 -0.0059417
6364.66 -0.0080347
6365.29 -0.00945
6365.92 -0.009877
6366.55 -0.0066982
6367.18 -0.0043804
6367.81 -0.0034232
6368.44 -0.00025788
6369.07 -0.0040798
6369.7 -0.0087833
6370.33 -0.0097436
6370.96 -0.0053764
6371.59 -0.004986
6372.22 -0.0046008
6372.85 -0.001231
6373.48 -0.0030878
6374.11 0.0023035
6374.74 0.012131
6375.37 0.010468
6376.0 0.019079
6376.63 0.011958
6377.26 0.014279
6377.89 0.012186
6378.52 0.017903
6379.15 0.026479
6379.78 0.016855
6380.41 0.018289
6381.04 0.018269
6381.67 0.024902
6382.3 0.021608
6382.93 0.016191
6383.57 0.020926
6384.2 0.023029
6384.83 0.023482
6385.46 0.027339
6386.09 0.026862
6386.72 0.019263
6387.35 0.021271
6387.98 0.014359
6388.61 0.014528
6389.24 0.011548
6389.87 0.0057645
6390.5 0.01008
6391.13 0.012301
6391.76 0.004844
6392.39 0.012745
6393.02 0.0098601
6393.65 0.0050234
6394.28 0.012137
6394.91 0.005597
6395.54 0.0031367
6396.17 0.0012917
6396.8 0.0029934
6397.43 -0.00073227
6398.06 -0.0023174
6398.69 0.00053093
6399.32 0.002122
6399.95 -0.0007093
6400.58 -0.0057336
6401.21 -0.0016143
6401.84 0.00034415
6402.47 0.00022573
6403.1 -0.0045572
6403.74 -0.0017851
6404.37 -0.0026893
6405.0 -0.010034
6405.63 -0.0078021
6406.26 -0.0023535
6406.89 -0.00045052
6407.52 0.00040301
6408.15 0.001457
6408.78 -0.0032502
6409.41 -0.0077218
6410.04 -0.0037917
6410.67 -0.0032336
6411.3 -0.0039496
6411.93 -0.0042722
6412.56 -0.0062627
6413.19 -0.0014836
6413.82 -0.0059823
6414.45 -0.00097213
6415.08 0.0019321
6415.71 -0.00085569
6416.34 -0.0044007
6416.97 0.001145
6417.6 -0.0030607
6418.23 -0.0021244
6418.86 0.0027312
6419.49 -0.00096916
6420.12 0.0010822
6420.75 0.0038308
6421.38 0.0046719
6422.01 0.0035032
6422.64 -0.00066156
6423.27 -0.00023616
6423.91 -2.0116e-05
6424.54 0.001929
6425.17 -0.00013866
6425.8 -0.0047965
6426.43 0.001084
6427.06 -0.00085971
6427.69 -0.004106
6428.32 -0.0051606
6428.95 -0.0014361
6429.58 -0.0046197
6430.21 -0.0051788
6430.84 -0.002708
6431.47 -0.0045206
6432.1 -0.0039274
6432.73 0.0015934
6433.36 -0.0032228
6433.99 -0.0068016
6434.62 -0.0036453
6435.25 -0.0050626
6435.88 -0.0063487
6436.51 -0.0044796
6437.14 -0.002826
6437.77 0.00055103
6438.4 -0.0024452
6439.03 -0.0082683
6439.66 -0.0080451
6440.29 -0.0035674
6440.92 -0.0024654
6441.55 -0.00081499
6442.18 -0.0028326
6442.81 -0.0033169
6443.44 -0.0038024
6444.08 -0.0078877
6444.71 -0.0042435
6445.34 0.00071923
6445.97 0.002532
6446.6 0.002651
6447.23 0.00061731
6447.86 -0.0036718
6448.49 -0.0065978
6449.12 -0.0060325
6449.75 -0.0047344
6450.38 -0.0017276
6451.01 -0.0021563
6451.64 0.0022682
6452.27 0.0028425
6452.9 3.156e-05
6453.53 0.0054025
6454.16 0.0078797
6454.79 0.0032466
6455.42 0.0021237
6456.05 0.0021854
6456.68 0.0045065
6457.31 0.0016689
6457.94 -0.00083613
6458.57 -0.002386
6459.2 0.0065541
6459.83 0.0041909
6460.46 -0.0020759
6461.09 0.0026804
6461.72 -0.0018323
6462.35 -0.0038689
6462.98 -0.0016317
6463.61 -0.0063645
6464.25 0.00030824
6464.88 0.00018088
6465.51 -0.0033851
6466.14 0.00022252
6466.77 0.00049782
6467.4 -0.0012602
6468.03 0.0017958
6468.66 -0.0093155
6469.29 -0.0031122
6469.92 0.0020388
6470.55 -0.002675
6471.18 -0.0023382
6471.81 -0.0030123
6472.44 0.00030302
6473.07 0.0035596
6473.7 0.0012775
6474.33 0.0027691
6474.96 -0.00071375
6475.59 -0.0034447
6476.22 -0.0041317
6476.85 0.0010847
6477.48 -0.0010239
6478.11 -0.0012689
6478.74 -0.0037216
6479.37 -0.0052265
6480.0 -0.00057274
6480.63 -0.00052026
6481.26 -0.00078745
6481.89 0.00073917
6482.52 0.0035119
6483.15 0.0022142
6483.79 -0.003006
6484.42 0.003087
6485.05 0.0034365
6485.68 0.00086552
6486.31 0.0024228
6486.94 0.00041717
6487.57 -0.0043263
6488.2 -0.0008169
6488.83 0.00034148
6489.46 -0.0018149
6490.09 -0.0047541
6490.72 -0.0070158
6491.35 0.0016743
6491.98 0.0027236
6492.61 -0.001732
6493.24 9.6967e-05
6493.87 -0.00040818
6494.5 -0.01142
6495.13 -0.0053696
6495.76 -0.0030264
6496.39 -0.0048531
6497.02 -0.0037794
6497.65 -0.0049143
6498.28 -0.004967
6498.91 -0.00382
6499.54 -0.012108
6500.17 -0.010698
6500.8 -0.0077351
6501.43 -0.003449
6502.06 -0.0032116
6502.69 -0.0012655
6503.32 -9.8183e-05
6503.96 -0.0070146
6504.59 -0.0094757
6505.22 -0.0068566
6505.85 -0.0085884
6506.48 -0.0049049
6507.11 -0.0055288
6507.74 -0.00087544
6508.37 -0.0030563
6509.0 -0.002619
6509.63 -0.0049814
6510.26 -0.0047434
6510.89 -0.0046848
6511.52 -0.0051501
6512.15 0.0011543
6512.78 0.0011527
6513.41 -0.0017709
6514.04 0.001541
6514.67 0.0047497
6515.3 0.0037573
6515.93 0.00082678
6516.56 -0.0005605
6517.19 0.00075704
6517.82 0.0011179
6518.45 -0.00071639
6519.08 0.0012248
6519.71 0.0020982
6520.34 -0.0016341
6520.97 -0.00062091
6521.6 -0.0015706
6522.23 -0.00019592
6522.86 -0.00098466
6523.49 0.0034092
6524.13 0.0026893
6524.76 -0.0012017
6525.39 0.0010191
6526.02 0.00053055
6526.65 0.00021345
6527.28 0.0001641
6527.91 -0.001942
6528.54 -0.0037406
6529.17 -0.0071918
6529.8 -0.0015657
6530.43 -0.008757
6531.06 -0.0041201
6531.69 0.001584
6532.32 -0.0080494
6532.95 -0.0021289
6533.58 0.0065729
6534.21 -0.0027365
6534.84 0.00035413
6535.47 -0.0029973
6536.1 -0.00083374
6536.73 -0.0065885
6537.36 -0.0080961
6537.99 -0.0065222
6538.62 -0.00065002
6539.25 -0.010483
6539.88 -0.0079317
6540.51 -0.006926
6541.14 -0.0013474
6541.77 -0.0061294
6542.4 -0.0099256
6543.03 -0.0078608
6543.66 -0.003858
6544.3 -0.0072349
6544.93 0.0010509
6545.56 0.0001371
6546.19 -0.01104
6546.82 -0.0084674
6547.45 -0.0033007
6548.08 -0.0025672
6548.71 -0.0032712
6549.34 -0.0081413
6549.97 -0.0077406
6550.6 -0.0034527
6551.23 -0.0083393
6551.86 -0.0083142
6552.49 -0.0066958
6553.12 -0.0050877
6553.75 0.00036106
6554.38 -0.0036631
6555.01 -0.0036415
6555.64 -0.0014368
6556.27 -0.003081
6556.9 -0.0020983
6557.53 -0.0037254
6558.16 0.00012119
6558.79 -0.0043152
6559.42 -0.0046105
6560.05 -0.0036012
6560.68 0.0010178
6561.31 0.00071562
6561.94 -0.0035613
6562.57 -0.00030413
6563.2 0.0016587
6563.83 -0.0010348
6564.47 0.0025636
6565.1 0.00018982
6565.73 0.012675
6566.36 0.010876
6566.99 0.01435
6567.62 0.011974
6568.25 0.016516
6568.88 0.016296
6569.51 0.016689
6570.14 0.026004
6570.77 0.02508
6571.4 0.032468
6572.03 0.033501
6572.66 0.047261
6573.29 0.050324
6573.92 0.057021
6574.55 0.073176
6575.18 0.080092
6575.81 0.07997
6576.44 0.088214
6577.07 0.091526
6577.7 0.099625
6578.33 0.10234
6578.96 0.10888
6579.59 0.10928
6580.22 0.10764
6580.85 0.11583
6581.48 0.10937
6582.11 0.10395
6582.74 0.11284
6583.37 0.10968
6584.0 0.10162
6584.64 0.11056
6585.27 0.11954
6585.9 0.11592
6586.53 0.11021
6587.16 0.1097
6587.79 0.11017
6588.42 0.11092
6589.05 0.10908
6589.68 0.10931
6590.31 0.10414
6590.94 0.097616
6591.57 0.091786
6592.2 0.092334
6592.83 0.094634
6593.46 0.095241
6594.09 0.088094
6594.72 0.084807
6595.35 0.091246
6595.98 0.086514
6596.61 0.075803
6597.24 0.074465
6597.87 0.075705
6598.5 0.075129
6599.13 0.063777
6599.76 0.065284
6600.39 0.061218
6601.02 0.05988
6601.65 0.052235
6602.28 0.042081
6602.91 0.048101
6603.54 0.044046
6604.17 0.042098
6604.81 0.025726
6605.44 0.016476
6606.07 0.016289
6606.7 0.0084306
6607.33 0.0051276
6607.96 0.0091217
6608.59 0.0095564
6609.22 0.014166
6609.85 0.013346
6610.48 0.01067
6611.11 0.012647
6611.74 0.013082
6612.37 0.0096021
6613.0 0.006145
6613.63 0.0035359
6614.26 0.0065766
6614.89 0.0095812
6615.52 0.007287
6616.15 0.0053987
6616.78 -0.00065395
6617.41 -0.00064331
6618.04 0.0075146
6618.67 0.0069202
6619.3 0.0073934
6619.93 0.0088201
6620.56 0.0034234
6621.19 0.00231
6621.82 0.0045278
6622.45 0.0049552
6623.08 0.0018895
6623.71 0.0014031
6624.35 0.0010889
6624.98 0.002741
6625.61 0.0029828
6626.24 0.0041065
6626.87 0.0062825
6627.5 0.0045981
6628.13 0.0069484
6628.76 0.0099967
6629.39 0.0013271
6630.02 0.0013616
6630.65 0.002597
6631.28 0.0018006
6631.91 -0.0047757
6632.54 -0.00091779
6633.17 0.0065638
6633.8 -0.00049469
6634.43 0.00064457
6635.06 -0.0035864
6635.69 -0.00081659
6636.32 -0.0014728
6636.95 -0.0031573
6637.58 -0.0056602
6638.21 0.0022427
6638.84 -0.0018378
6639.47 -0.0073274
6640.1 -0.0028472
6640.73 0.0026922
6641.36 -0.0016504
6641.99 -0.005754
6642.62 -0.0020661
6643.25 -0.0010504
6643.88 -0.0051079
6644.52 -0.0054386
6645.15 -0.0075973
6645.78 -0.0070837
6646.41 -0.0060694
6647.04 -0.0078678
6647.67 -0.0051469
6648.3 -0.0033346
6648.93 -0.0036372
6649.56 0.0018037
6650.19 0.0056262
6650.82 0.0001632
6651.45 -0.007557
6652.08 -0.0083772
6652.71 -0.002777
6653.34 -0.0030425
6653.97 -0.0061042
6654.6 -0.006798
6655.23 -0.0043426
6655.86 -0.0011325
6656.49 -0.0022534
6657.12 -0.0039416
6657.75 -0.004561
6658.38 -0.0016073
6659.01 -0.0079436
6659.64 -0.0075951
6660.27 -0.005511
6660.9 -0.0033508
6661.53 -0.0056957
6662.16 -0.0046837
6662.79 -0.0083019
6663.42 -0.0054161
6664.05 -0.0051038
6664.69 -0.010753
6665.32 -0.0058606
6665.95 -0.00158
6666.58 0.006322
6667.21 -0.0023678
6667.84 -0.0071235
6668.47 -0.0088745
6669.1 -0.0051726
6669.73 -0.0035828
6670.36 0.0010483
6670.99 -0.0029322
6671.62 -0.0088465
6672.25 -0.00042712
6672.88 -0.0023061
6673.51 -0.0037745
6674.14 -0.0019169
6674.77 -0.0009796
6675.4 -0.0014148
6676.03 3.1105e-05
6676.66 -0.001371
6677.29 -0.00045715
6677.92 -0.00012936
6678.55 -0.0051765
6679.18 -0.0047702
6679.81 -0.0024753
6680.44 -0.0031184
6681.07 -0.0052946
6681.7 -0.0061839
6682.33 -0.00082203
6682.96 -0.00010788
6683.59 -0.0053966
6684.22 -0.0022936
6684.86 0.0015677
6685.49 -0.0006924
6686.12 -0.0020911
6686.75 0.0047348
6687.38 0.0037276
6688.01 0.00058743
6688.64 -0.0025849
6689.27 -0.00022242
6689.9 0.0018861
6690.53 -0.0020256
6691.16 -0.0056618
6691.79 -0.0049169
6692.42 -0.0094346
6693.05 -0.0029803
6693.68 0.0056245
6694.31 -0.0051111
6694.94 -0.0094232
6695.57 -0.0017975
6696.2 -0.00090856
6696.83 0.0031113
6697.46 5.5046e-05
6698.09 -0.0062189
6698.72 -0.0030084
6699.35 0.00025429
6699.98 -0.00037422
6700.61 0.0001094
6701.24 -0.0012519
6701.87 0.0030361
6702.5 0.003288
6703.13 0.0036154
6703.76 0.0012964
6704.39 -0.0048087
6705.03 -0.005693
6705.66 -0.0046834
6706.29 -0.0075652
6706.92 -0.0056269
6707.55 -0.003466
6708.18 -0.0073777
6708.81 0.00032978
6709.44 0.0029258
6710.07 -0.00090788
6710.7 -0.005163
6711.33 -0.0038871
6711.96 -0.001727
6712.59 0.0023825
6713.22 -0.0011761
6713.85 -0.0038707
6714.48 0.00095064
6715.11 0.00066398
6715.74 -0.0012293
6716.37 -0.0039778
6717.0 -0.0082751
6717.63 -0.0056621
6718.26 0.0011348
6718.89 -0.0026113
6719.52 -0.008891
6720.15 -0.0054056
6720.78 -0.0011866
6721.41 -0.0029345
6722.04 -0.0014772
6722.67 -0.0022354
6723.3 -0.0042344
6723.93 -0.005119
6724.56 -0.0077119
6725.2 -0.0030739
6725.83 -0.0067107
6726.46 -0.009612
6727.09 -0.0038909
6727.72 -0.0025086
6728.35 -0.0052581
6728.98 -0.0010972
6729.61 -0.0026705
6730.24 -0.003529
6730.87 0.0022971
6731.5 -0.0021607
6732.13 -0.0040589
6732.76 -0.0022868
6733.39 -0.0057094
6734.02 -0.0075461
6734.65 -0.0013417
6735.28 -0.0070095
6735.91 -0.0063536
6736.54 -0.0049699
6737.17 0.00039166
6737.8 -0.0046255
6738.43 -0.0088747
6739.06 -0.010192
6739.69 -0.010938
6740.32 -0.01241
6740.95 -0.012878
6741.58 -0.0070434
6742.21 -1.6476e-05
6742.84 -0.0019777
6743.47 -0.0028362
6744.1 -0.0035403
6744.73 -0.0061686
6745.37 -0.0033956
6746.0 -0.0063283
6746.63 -0.007295
6747.26 -0.0045986
6747.89 -0.0039567
6748.52 -0.0021802
6749.15 0.0037127
6749.78 -0.0070615
6750.41 -0.0046028
6751.04 0.0032056
6751.67 -0.001609
6752.3 -0.011511
6752.93 -0.0039561
6753.56 -0.0044623
6754.19 -0.0041343
6754.82 -0.0078063
6755.45 -0.0068986
6756.08 -0.0032706
6756.71 -0.0056229
6757.34 -0.0021485
6757.97 -0.0024758
6758.6 -0.0041123
6759.23 -0.0091393
6759.86 -0.0066148
6760.49 -0.0015519
6761.12 -0.00097524
6761.75 -0.0039165
6762.38 -0.0031231
6763.01 -0.0065819
6763.64 -0.0054877
6764.27 -0.0068521
6764.91 -0.0061709
6765.54 -0.0089222
6766.17 -0.0013384
6766.8 0.00020336
6767.43 -0.00081846
6768.06 -0.0019024
6768.69 -0.0031284
6769.32 6.9159e-05
6769.95 0.0011563
6770.58 0.00082507
6771.21 -0.0025432
6771.84 -0.0067469
6772.47 -0.0025168
6773.1 0.0011424
6773.73 -0.0012616
6774.36 -0.0042873
6774.99 -0.0086069
6775.62 -0.0081607
6776.25 -0.0041608
6776.88 -0.00616
6777.51 -0.0059558
6778.14 -0.0001939
6778.77 -0.0002655
6779.4 0.00030564
6780.03 -0.0053612
6780.66 -0.0099713
6781.29 -0.007567
6781.92 -0.0038777
6782.55 -0.0091344
6783.18 -0.0059496
6783.81 -0.007945
6784.44 0.001928
6785.08 -0.00026609
6785.71 -0.0043918
6786.34 -0.0040146
6786.97 -0.0061683
6787.6 -0.00080506
6788.23 -0.0046269
6788.86 -0.0074617
6789.49 0.0022118
6790.12 -0.00055437
6790.75 -0.0017103
6791.38 -0.0033935
6792.01 -0.010124
6792.64 -0.0095248
6793.27 -0.0037496
6793.9 -0.0024275
6794.53 -0.0044714
6795.16 -0.0045353
6795.79 -0.0067682
6796.42 -0.0019259
6797.05 -0.0039718
6797.68 -0.0075242
6798.31 -0.0042144
6798.94 -0.0049637
6799.57 -0.0065395
6800.2 -0.0064416
6800.83 -0.0013054
6801.46 0.0046067
6802.09 0.0017712
6802.72 -0.0026581
6803.35 -0.0044183
6803.98 -0.0039877
6804.61 -0.0055445
6805.25 -0.0080886
6805.88 -0.0068422
6806.51 -0.0037149
6807.14 -0.0050903
6807.77 -0.00032059
6808.4 0.0018937
6809.03 -0.00070565
6809.66 -0.004079
6810.29 -0.0083548
6810.92 -0.0045779
6811.55 0.00014183
6812.18 -0.0022453
6812.81 -0.0046368
6813.44 -0.0063113
6814.07 -0.0011207
6814.7 -0.0040611
6815.33 -0.0058991
6815.96 -0.010834
6816.59 -0.010467
6817.22 -0.0012104
6817.85 -0.011164
6818.48 -0.0060499
6819.11 0.0027917
6819.74 -0.0080729
6820.37 -0.0071564
6821.0 0.00097386
6821.63 -0.0086128
6822.26 -0.0083455
6822.89 -0.0064101
6823.52 -0.0057274
6824.15 -0.0057546
6824.78 -0.004184
6825.42 -0.0032717
6826.05 -0.0085479
6826.68 -0.0096752
6827.31 -0.0054112
6827.94 -0.00040751
6828.57 -0.0043235
6829.2 -0.0059774
6829.83 -0.0061669
6830.46 -0.0046258
6831.09 -0.002091
6831.72 -0.002792
6832.35 -0.0085066
6832.98 -0.0099876
6833.61 -0.0064926
6834.24 -0.0015969
6834.87 0.00019626
6835.5 -0.0040568
6836.13 -0.0003326
6836.76 -0.0036969
6837.39 -0.0018899
6838.02 -0.0039088
6838.65 -0.0073493
6839.28 -0.0062903
6839.91 -0.0059922
6840.54 -0.0073005
6841.17 -0.010687
6841.8 -0.0052044
6842.43 0.00069623
6843.06 -0.0074208
6843.69 -0.0097407
6844.32 -0.0058845
6844.95 -0.010088
6845.59 0.0010454
6846.22 -0.0045838
6846.85 -0.0096276
6847.48 -0.0069635
6848.11 -0.0097909
6848.74 -0.0084748
6849.37 -0.009885
6850.0 -0.0081821
6850.63 -0.0051694
6851.26 -0.0058993
6851.89 -0.0038342
6852.52 -0.0064318
6853.15 -0.0062301
6853.78 -0.0051936
6854.41 -0.0092556
6855.04 -0.0095919
6855.67 -0.003641
6856.3 -0.0052369
6856.93 -0.00086032
6857.56 -0.0056459
6858.19 -0.005163
6858.82 -0.0012001
6859.45 -0.0028496
6860.08 -0.0061308
6860.71 -0.0084844
6861.34 -0.0071893
6861.97 -0.0081427
6862.6 -0.018864
6863.23 -0.022728
6863.86 -0.0080791
6864.49 0.0021681
6865.12 -0.0075191
6865.76 -0.0086005
6866.39 -0.0053477
6867.02 -0.0063066
6867.65 -0.0069885
6868.28 -0.0087783
6868.91 -0.011529
6869.54 -0.0096758
6870.17 -0.00049264
6870.8 0.0036418
6871.43 -0.00011182
6872.06 0.0023
6872.69 -0.0020001
6873.32 -0.0069953
6873.95 -0.0026875
6874.58 -0.00062351
6875.21 -0.0028905
6875.84 -0.0057143
6876.47 -0.0032901
6877.1 -0.0049023
6877.73 -0.0046766
6878.36 0.0026009
6878.99 -0.00099101
6879.62 -0.0054963
6880.25 -0.0051082
6880.88 -0.0077325
6881.51 -0.0046373
6882.14 -0.0036581
6882.77 -0.0071292
6883.4 -0.0074179
6884.03 -0.0094244
6884.66 -0.0093097
6885.29 -0.0022603
6885.93 7.1337e-06
6886.56 -0.0047184
6887.19 -0.010912
6887.82 -0.008243
6888.45 -0.0021271
6889.08 -0.00090771
6889.71 -0.0029902
6890.34 -0.0066107
6890.97 -0.0065938
6891.6 -0.0025859
6892.23 -0.0045538
6892.86 -0.007653
6893.49 -0.0010358
6894.12 -0.00027093
6894.75 -0.0048523
6895.38 -0.010908
6896.01 -0.0079677
6896.64 -0.0040459
6897.27 -0.0030567
6897.9 -0.0024068
6898.53 -0.003477
6899.16 -0.00079042
6899.79 -0.0083268
6900.42 -0.008888
6901.05 -0.0051817
6901.68 -0.0035711
6902.31 -0.011729
6902.94 -0.012855
6903.57 -0.0025166
6904.2 -0.0052082
6904.83 -0.0052363
6905.47 -0.0069354
6906.1 -0.0011548
6906.73 -0.0049306
6907.36 -0.0071902
6907.99 -0.004622
6908.62 -0.010744
6909.25 -0.0099102
6909.88 -0.0045953
6910.51 -0.0052182
6911.14 -0.0070025
6911.77 -0.0054615
6912.4 -0.0021253
6913.03 -0.0043814
6913.66 -0.00652
6914.29 -0.0038712
6914.92 -0.0030827
6915.55 -0.0037458
6916.18 -0.0046027
6916.81 -0.0041735
6917.44 -0.0060047
6918.07 -0.0067144
6918.7 -0.0040034
6919.33 -0.0037174
6919.96 -0.0037847
6920.59 -0.00011183
6921.22 -0.0017325
6921.85 -0.0074229
6922.48 -0.0067267
6923.11 -0.0069365
6923.74 -0.0048411
6924.37 -0.0031127
6925.0 -0.0022262
6925.64 -0.0002848
6926.27 -0.0031986
6926.9 -0.0032598
6927.53 0.0023636
6928.16 -0.00055783
6928.79 -2.415e-05
6929.42 -0.0057017
6930.05 0.0031921
6930.68 -0.0063766
6931.31 -0.0037196
6931.94 -0.00039152
6932.57 -0.0026815
6933.2 -0.005776
6933.83 -0.0081432
6934.46 -0.0035715
6935.09 -0.002733
6935.72 -0.0056024
6936.35 -0.0052728
6936.98 -0.0023968
6937.61 -0.0050832
6938.24 -0.0056563
6938.87 0.0021022
6939.5 0.0055908
6940.13 0.0043055
6940.76 -0.0012967
6941.39 -0.0062856
6942.02 -0.0086819
6942.65 -0.0047393
6943.28 -0.0006072
6943.91 -0.0053253
6944.54 -0.006089
6945.17 -0.0039106
6945.81 -0.0051806
6946.44 -0.0053032
6947.07 -0.0068355
6947.7 -0.0056497
6948.33 -0.0034395
6948.96 -0.0041653
6949.59 -0.005058
6950.22 -0.005253
6950.85 -0.0069474
6951.48 -0.0025993
6952.11 -0.0018784
6952.74 -0.007455
6953.37 -0.00065035
6954.0 -0.0007486
6954.63 -0.0070517
6955.26 -0.0065788
6955.89 -0.0060845
6956.52 -0.0073366
6957.15 -0.00080946
6957.78 -0.003996
6958.41 -0.0037371
6959.04 0.0016914
6959.67 -0.0024666
6960.3 -0.0042729
6960.93 -0.0039364
6961.56 -0.0038509
6962.19 -0.0046132
6962.82 -0.0030274
6963.45 -0.00079408
6964.08 -0.0012
6964.71 -0.0039066
6965.34 -0.0048826
6965.98 -0.00777
6966.61 -0.0061892
6967.24 -0.0050926
6967.87 -0.0075601
6968.5 -0.0070825
6969.13 -0.0028328
6969.76 -0.0062937
6970.39 -0.0063839
6971.02 -0.0012003
6971.65 -0.0043164
6972.28 -0.0054432
6972.91 -0.0051084
6973.54 -0.0033745
6974.17 6.5937e-05
6974.8 -0.00092439
6975.43 -0.004508
6976.06 -0.0081977
6976.69 -0.0042943
6977.32 -0.0066713
6977.95 -0.0092614
6978.58 -0.0053881
6979.21 0.0054763
6979.84 -0.0079518
6980.47 -0.0016886
6981.1 0.002234
6981.73 -0.0046616
6982.36 -0.013695
6982.99 -0.0097416
6983.62 -0.0039977
6984.25 -0.0046903
6984.88 -0.0086937
6985.51 -0.0036438
6986.15 -0.00015492
6986.78 -0.0033204
6987.41 -0.00113
6988.04 -0.0025926
6988.67 -0.0035493
6989.3 -0.0039959
6989.93 -0.0036957
6990.56 -0.0040641
6991.19 -0.0024651
6991.82 -0.0038204
6992.45 -0.0024603
6993.08 8.9443e-05
6993.71 -0.00023177
6994.34 0.002291
6994.97 -0.0025821
6995.6 -0.0052397
6996.23 -0.003097
6996.86 -0.0018702
6997.49 -0.0023966
6998.12 -0.0036852
6998.75 -0.0050319
6999.38 -0.0042839
7000.01 -0.0035167
7000.64 -0.0004391
7001.27 0.0021727
7001.9 0.0011941
7002.53 0.001309
7003.16 -8.4521e-05
7003.79 0.0030423
7004.42 -0.0025369
7005.05 -0.0081334
7005.68 -0.0060209
7006.32 -0.0042637
7006.95 -0.0050169
7007.58 -0.005903
7008.21 -0.0034915
7008.84 -0.0044963
7009.47 -0.0037659
7010.1 -0.00706
7010.73 -0.0016916
7011.36 -6.0188e-05
7011.99 0.00011079
7012.62 -0.0080999
7013.25 -0.011003
7013.88 -0.0077954
7014.51 0.057044
7015.14 0.0087999
7015.77 -0.008009
7025.85 -2.2677e-06
7026.49 1.7627e-06
7027.12 2.8215e-05
7027.75 -0.00088825
7028.38 -0.0030595
7029.01 -0.00113
7029.64 0.0031211
7030.27 -0.0021487
7030.9 -0.0040283
7031.53 -0.0037763
7032.16 -0.0046986
7032.79 -0.0092284
7033.42 -0.0030124
7034.05 -0.0018442
7034.68 -0.0016183
7035.31 -0.0016508
7035.94 -0.0022909
7036.57 5.7414e-05
7037.2 -0.0012405
7037.83 -0.0017406
7038.46 -0.0015411
7039.09 -0.0047179
7039.72 -0.0050095
7040.35 -0.0024361
7040.98 0.0015973
7041.61 -0.00061816
7042.24 -0.0048842
7042.87 0.0014329
7043.5 -0.0015063
7044.13 -0.0058899
7044.76 -0.0048439
7045.39 -0.0077351
7046.03 -0.002778
7046.66 0.00045322
7047.29 -0.0053109
7047.92 -0.0051674
7048.55 0.00027744
7049.18 -0.00040911
7049.81 -0.0090448
7050.44 -0.0049036
7051.07 -0.0010983
7051.7 0.00013326
7052.33 -0.0015033
7052.96 -0.0042879
7053.59 -0.0058607
7054.22 -0.0021292
7054.85 -0.0025901
7055.48 -0.0024271
7056.11 -0.0023001
7056.74 -0.0047509
7057.37 -0.0042559
7058.0 -0.0029847
7058.63 -0.0047248
7059.26 -0.0039228
7059.89 -0.0074431
7060.52 -0.0063152
7061.15 -0.0022228
7061.78 -0.0026461
7062.41 -0.0042178
7063.04 -0.0077015
7063.67 -0.0086454
7064.3 -0.0038336
7064.93 -0.0030251
7065.56 -0.0037675
7066.2 -0.0028758
7066.83 -0.0030092
7067.46 -0.0052872
7068.09 -0.007478
7068.72 -0.0017145
7069.35 0.0048166
7069.98 0.0015464
7070.61 -0.0039393
7071.24 -0.0038182
7071.87 -0.0047387
7072.5 -0.0024931
7073.13 0.0014084
7073.76 -0.0029321
7074.39 -0.0022487
7075.02 -0.0027067
7075.65 -0.0030401
7076.28 -0.0019709
7076.91 0.00056207
7077.54 0.00023633
7078.17 0.0038271
7078.8 0.0034615
7079.43 -0.00083339
7080.06 0.0014648
7080.69 -0.0017306
7081.32 -0.0026223
7081.95 -0.00046327
7082.58 -0.0017025
7083.21 -0.00043435
7083.84 0.0034393
7084.47 -0.001658
7085.1 0.0015507
7085.73 0.0057699
7086.37 0.0038003
7087.0 -0.00014535
7087.63 0.00064714
7088.26 0.0044521
7088.89 0.0063791
7089.52 0.0038334
7090.15 -0.0012245
7090.78 -0.00016367
7091.41 0.003247
7092.04 0.0024898
7092.67 -0.00070621
7093.3 -0.00063226
7093.93 -0.00060049
7094.56 -0.0010098
7095.19 0.00060245
7095.82 -0.0011525
7096.45 -0.00077108
7097.08 0.0026441
7097.71 0.0036764
7098.34 0.002995
7098.97 0.0015391
7099.6 0.000822
7100.23 0.0013317
7100.86 0.00010553
7101.49 -0.0044188
7102.12 -0.003121
7102.75 0.0038973
7103.38 -0.0010524
7104.01 -0.0042511
7104.64 -0.0029669
7105.27 -0.0084179
7105.9 -0.0031903
7106.54 0.00045381
7107.17 0.0024049
7107.8 -0.0033468
7108.43 -0.0036301
7109.06 0.001108
7109.69 0.0020125
7110.32 -0.0021234
7110.95 0.0007641
7111.58 0.0039247
7112.21 0.00024686
7112.84 -0.0039981
7113.47 -0.0025078
7114.1 -0.001005
7114.73 -0.0003364
7115.36 -0.0029243
7115.99 -0.0066177
7116.62 -0.0063342
7117.25 -0.006629
7117.88 -0.0044834
7118.51 -8.198e-05
7119.14 -9.6118e-05
7119.77 -0.0020254
7120.4 0.00057462
7121.03 -0.0013528
7121.66 -0.0057542
7122.29 -0.0051896
7122.92 -0.0059279
7123.55 -0.0013181
7124.18 0.0004673
7124.81 -0.0028437
7125.44 0.00020544
7126.07 -0.0021733
7126.71 -0.0009414
7127.34 -0.00071681
7127.97 0.001081
7128.6 0.0043771
7129.23 0.0020695
7129.86 -0.0015501
7130.49 -0.0072212
7131.12 -0.0051388
7131.75 -0.0044967
7132.38 -0.0051485
7133.01 -0.0010266
7133.64 0.0057689
7134.27 0.0027452
7134.9 -0.0021398
7135.53 0.0035448
7136.16 0.00052342
7136.79 -0.0048078
7137.42 -0.0026313
7138.05 0.001149
7138.68 0.0030127
7139.31 -0.0036131
7139.94 -0.0030799
7140.57 0.0012641
7141.2 0.0019536
7141.83 0.00059117
7142.46 -0.00046945
7143.09 -0.0039062
7143.72 -0.0022525
7144.35 0.0019517
7144.98 -0.0027746
7145.61 -0.002669
7146.24 5.1743e-05
7146.88 -0.002812
7147.51 0.0019412
7148.14 0.0076182
7148.77 0.0022498
7149.4 -0.0012776
7150.03 0.0022809
7150.66 0.0012255
7151.29 -0.0042002
7151.92 -0.0039452
7152.55 0.0010412
7153.18 0.0023739
7153.81 -0.0011038
7154.44 -0.0030006
7155.07 -0.0020654
7155.7 -8.2109e-05
7156.33 -0.0017385
7156.96 -0.0033548
7157.59 0.0011919
7158.22 0.0006882
7158.85 -0.0019035
7159.48 0.0011499
7160.11 0.0011666
7160.74 -0.0012079
7161.37 -0.00054508
7162.0 -0.0011951
7162.63 -0.00050725
7163.26 0.0011281
7163.89 0.0033397
7164.52 0.0062914
7165.15 0.0062815
7165.78 0.0070511
7166.41 0.0074765
7167.05 0.0066937
7167.68 0.012206
7168.31 0.019744
7168.94 0.02036
7169.57 0.021963
7170.2 0.023983
7170.83 0.023735
7171.46 0.027453
7172.09 0.034179
7172.72 0.036549
7173.35 0.031712
7173.98 0.029735
7174.61 0.033751
7175.24 0.035615
7175.87 0.035704
7176.5 0.038317
7177.13 0.039695
7177.76 0.037657
7178.39 0.038295
7179.02 0.043751
7179.65 0.045687
7180.28 0.039328
7180.91 0.034315
7181.54 0.036959
7182.17 0.037974
7182.8 0.036582
7183.43 0.037548
7184.06 0.035635
7184.69 0.032089
7185.32 0.02621
7185.95 0.02691
7186.58 0.037036
7187.22 0.03678
7187.85 0.029527
7188.48 0.030022
7189.11 0.035754
7189.74 0.039935
7190.37 0.037429
7191.0 0.027911
7191.63 0.026122
7192.26 0.028922
7192.89 0.027755
7193.52 0.023418
7194.15 0.022207
7194.78 0.020115
7195.41 0.017553
7196.04 0.021969
7196.67 0.025458
7197.3 0.020322
7197.93 0.016621
7198.56 0.015603
7199.19 0.013523
7199.82 0.0088091
7200.45 0.0090658
7201.08 0.015409
7201.71 0.015534
7202.34 0.013484
7202.97 0.014782
7203.6 0.011097
7204.23 0.0055691
7204.86 0.0027582
7205.49 0.0033649
7206.12 0.0085043
7206.76 0.010502
7207.39 0.0055498
7208.02 0.0015645
7208.65 0.006944
7209.28 0.0098617
7209.91 0.0080911
7210.54 0.0082242
7211.17 0.0028406
7211.8 -0.0030425
7212.43 0.0017507
7213.06 0.0043595
7213.69 0.0027115
7214.32 0.0029295
7214.95 0.0035345
7215.58 0.0028663
7216.21 0.003555
7216.84 -0.00084766
7217.47 0.00097975
7218.1 0.0047846
7218.73 0.0034574
7219.36 0.0016084
7219.99 -0.0025323
7220.62 0.00079249
7221.25 -0.0004905
7221.88 -0.0036114
7222.51 0.00067494
7223.14 0.0037375
7223.77 0.0070593
7224.4 0.0067711
7225.03 -0.0003987
7225.66 0.0026137
7226.29 0.0041287
7226.93 0.0010516
7227.56 -0.0017663
7228.19 -0.0055299
7228.82 -0.0071919
7229.45 -0.0017239
7230.08 -0.00046212
7230.71 -0.0022756
7231.34 0.0021877
7231.97 0.0037359
7232.6 -0.0018893
7233.23 -0.0058933
7233.86 -0.0023725
7234.49 0.0042385
7235.12 0.0040279
7235.75 -0.0012145
7236.38 0.0011771
7237.01 0.001463
7237.64 -0.0038035
7238.27 -0.0040462
7238.9 0.00064966
7239.53 0.001075
7240.16 -0.00095021
7240.79 0.0058382
7241.42 0.011033
7242.05 0.0032077
7242.68 0.01022
7243.31 0.0051614
7243.94 -0.0028348
7244.57 0.0017403
7245.2 -0.00043331
7245.83 -0.0042259
7246.46 0.0051324
7247.1 0.0073074
7247.73 0.0015822
7248.36 0.0029911
7248.99 0.0039084
7249.62 0.0015151
7250.25 0.00024442
7250.88 -6.5268e-05
7251.51 -0.002025
7252.14 -0.0030496
7252.77 -0.0072182
7253.4 -0.0025459
7254.03 -0.00015364
7254.66 -0.00032249
7255.29 0.0048331
7255.92 0.0044911
7256.55 0.0014479
7257.18 -0.00062945
7257.81 -0.0048994
7258.44 -0.0024407
7259.07 -0.0007101
7259.7 -0.0021621
7260.33 -0.00021808
7260.96 0.00055944
7261.59 0.0016075
7262.22 -0.0013142
7262.85 -0.0021954
7263.48 -0.0016778
7264.11 -0.0044512
7264.74 0.00040105
7265.37 0.00064358
7266.0 0.001461
7266.63 0.0049776
7267.27 0.0018833
7267.9 0.00093859
7268.53 0.0022154
7269.16 2.9306e-05
7269.79 0.0061092
7270.42 0.0015539
7271.05 -0.0020802
7271.68 -0.0014718
7272.31 0.0038218
7272.94 0.00042577
7273.57 0.0001144
7274.2 -0.011043
7274.83 -0.0095008
7275.46 -0.00039853
7276.09 0.0018655
7276.72 0.0022686
7277.35 0.014815
7277.98 0.020883
7278.61 0.0095055
7279.24 0.005319
7279.87 0.0048342
7280.5 -0.0002744
7281.13 0.0035577
7281.76 -0.00023555
7282.39 -0.0020853
7283.02 -0.0025775
7283.65 -0.0015867
7284.28 0.001172
7284.91 0.0035067
7285.54 0.01041
7286.17 0.0095564
7286.8 0.0019461
7287.44 0.0012748
7288.07 0.001226
7288.7 0.0013804
7289.33 0.0012596
7289.96 -0.0016592
7290.59 0.00097017
7291.22 0.00031224
7291.85 0.00075616
7292.48 0.0058252
7293.11 0.0051903
7293.74 0.0061172
7294.37 -7.2615e-06
7295.0 0.0025522
7295.63 0.0029033
7296.26 0.0063672
7296.89 0.011275
7297.52 0.013559
7298.15 0.017456
7298.78 0.02134
7299.41 0.023118
7300.04 0.023816
7300.67 0.022646
7301.3 0.019123
7301.93 0.028455
7302.56 0.03269
7303.19 0.047147
7303.82 0.067552
7304.45 0.076023
7305.08 0.09411
7305.71 0.10335
7306.34 0.1173
7306.97 0.13061
7307.61 0.1368
7308.24 0.15507
7308.87 0.16534
7309.5 0.17974
7310.13 0.195
7310.76 0.19381
7311.39 0.19303
7312.02 0.19705
7312.65 0.19264
7313.28 0.19345
7313.91 0.19704
7314.54 0.20429
7315.17 0.20877
7315.8 0.20712
7316.43 0.21133
7317.06 0.21542
7317.69 0.21758
7318.32 0.20195
7318.95 0.19458
7319.58 0.19032
7320.21 0.1789
7320.84 0.17031
7321.47 0.15814
7322.1 0.14989
7322.73 0.14625
7323.36 0.14367
7323.99 0.13671
7324.62 0.13332
7325.25 0.1252
7325.88 0.1135
7326.51 0.11346
7327.14 0.10322
7327.78 0.10569
7328.41 0.083654
7329.04 0.076865
7329.67 0.082523
7330.3 0.071509
7330.93 0.070722
7331.56 0.0665
7332.19 0.063085
7332.82 0.05996
7333.45 0.055889
7334.08 0.05418
7334.71 0.055791
7335.34 0.062019
7335.97 0.061735
7336.6 0.067875
7337.23 0.079403
7337.86 0.079479
7338.49 0.075501
7339.12 0.083099
7339.75 0.098026
7340.38 0.10711
7341.01 0.12028
7341.64 0.13831
7342.27 0.15003
7342.9 0.1554
7343.53 0.15337
7344.16 0.15103
7344.79 0.14707
7345.42 0.14493
7346.05 0.14728
7346.68 0.15324
7347.32 0.16138
7347.95 0.15147
7348.58 0.14961
7349.21 0.15607
7349.84 0.15195
7350.47 0.148
7351.1 0.13652
7351.73 0.13567
7352.36 0.1423
7352.99 0.13888
7353.62 0.13238
7354.25 0.12206
7354.88 0.11445
7355.51 0.11426
7356.14 0.097453
7356.77 0.085567
7357.4 0.083769
7358.03 0.082563
7358.66 0.077932
7359.29 0.071122
7359.92 0.072488
7360.55 0.072758
7361.18 0.060628
7361.81 0.04835
7362.44 0.04556
7363.07 0.04268
7363.7 0.033684
7364.33 0.029001
7364.96 0.03079
7365.59 0.026037
7366.22 0.02433
7366.85 0.024
7367.49 0.013483
7368.12 0.0026301
7368.75 0.010792
7369.38 0.019691
7370.01 0.023191
7370.64 0.026033
7371.27 0.018416
7371.9 0.013228
7372.53 0.012788
7373.16 0.014046
7373.79 0.0099471
7374.42 0.014552
7375.05 0.01294
7375.68 0.0090935
7376.31 0.011295
7376.94 0.015541
7377.57 0.0066746
7378.2 0.0071671
7378.83 0.005569
7379.46 0.0062844
7380.09 0.010623
7380.72 0.0042725
7381.35 0.003137
7381.98 0.0070563
7382.61 0.0086116
7383.24 0.0091107
7383.87 0.0075275
7384.5 0.0070156
7385.13 0.0078751
7385.76 0.0076957
7386.39 0.01163
7387.02 0.012086
7387.66 0.010258
7388.29 0.011272
7388.92 0.011278
7389.55 0.013456
7390.18 0.0075684
7390.81 0.010747
7391.44 0.010608
7392.07 0.010498
7392.7 0.01113
7393.33 0.01746
7393.96 0.022738
7394.59 0.017179
7395.22 0.01807
7395.85 0.019382
7396.48 0.016848
7397.11 0.019117
7397.74 0.020566
7398.37 0.024319
7399.0 0.024515
7399.63 0.01579
7400.26 0.0095341
7400.89 0.013528
7401.52 0.024192
7402.15 0.025114
7402.78 0.028178
7403.41 0.030432
7404.04 0.03046
7404.67 0.026923
7405.3 0.027566
7405.93 0.026871
7406.56 0.023924
7407.19 0.027931
7407.83 0.02994
7408.46 0.023931
7409.09 0.019813
7409.72 0.02234
7410.35 0.024265
7410.98 0.022207
7411.61 0.018304
7412.24 0.01892
7412.87 0.024106
7413.5 0.025499
7414.13 0.020021
7414.76 0.014638
7415.39 0.019657
7416.02 0.024832
7416.65 0.020649
7417.28 0.014425
7417.91 0.013533
7418.54 0.013711
7419.17 0.012798
7419.8 0.014098
7420.43 0.011807
7421.06 0.009616
7421.69 0.01116
7422.32 0.0092612
7422.95 0.0097673
7423.58 0.013134
7424.21 0.011772
7424.84 0.012219
7425.47 0.015061
7426.1 0.01232
7426.73 0.0072925
7427.36 0.0096018
7428.0 0.014597
7428.63 0.010508
7429.26 0.0068826
7429.89 0.0090483
7430.52 0.0099082
7431.15 0.011015
7431.78 0.010241
7432.41 0.011578
7433.04 0.013323
7433.67 0.012258
7434.3 0.01157
7434.93 0.0085809
7435.56 0.0080963
7436.19 0.0077759
7436.82 0.0078032
7437.45 0.0090492
7438.08 0.012497
7438.71 0.011756
7439.34 0.007022
7439.97 0.0088941
7440.6 0.0095354
7441.23 0.007095
7441.86 0.0074358
7442.49 0.006602
7443.12 0.0051228
7443.75 0.0036677
7444.38 0.002417
7445.01 0.0030497
7445.64 0.005768
7446.27 0.0052837
7446.9 0.0019859
7447.53 0.0014205
7448.17 0.0033631
7448.8 0.0027496
7449.43 0.0017625
7450.06 0.0022273
7450.69 0.0044552
7451.32 0.0055943
7451.95 0.0033605
7452.58 6.7166e-05
7453.21 -0.0023112
7453.84 -0.0025185
7454.47 -0.0015522
7455.1 -0.00020246
7455.73 0.0013552
7456.36 0.0041971
7456.99 0.0060207
7457.62 0.0068142
7458.25 0.0053931
7458.88 0.001156
7459.51 -0.0010445
7460.14 2.4887e-05
7460.77 -0.00075835
7461.4 -0.001838
7462.03 0.0013338
7462.66 0.0041763
7463.29 0.0022657
7463.92 -0.00078666
7464.55 0.00087117
7465.18 0.0078303
7465.81 0.0072187
7466.44 0.0051197
7467.07 0.003061
7467.7 0.007876
7468.34 0.0090088
7468.97 0.006223
7469.6 0.0034011
7470.23 0.0071954
7470.86 0.013034
7471.49 0.0096749
7472.12 0.0089557
7472.75 0.01143
7473.38 0.0058202
7474.01 0.010238
7474.64 0.018598
7475.27 0.016034
7475.9 0.0093463
7476.53 0.010145
7477.16 0.0092416
7477.79 0.0063359
7478.42 0.0071554
7479.05 0.0098091
7479.68 0.0091489
7480.31 0.0078649
7480.94 0.012302
7481.57 0.013392
7482.2 0.01052
7482.83 0.0065186
7483.46 0.0056504
7484.09 0.0087966
7484.72 0.0028845
7485.35 0.0011649
7485.98 0.0061641
7486.61 0.0057684
7487.24 0.012118
7487.88 0.01471
7488.51 0.0083007
7489.14 0.0055598
7489.77 0.0069157
7490.4 0.0070002
7491.03 0.0067346
7491.66 -0.0020784
7492.29 -0.0062684
7492.92 -0.0011278
7493.55 0.0011499
7494.18 -0.0018854
7494.81 0.001296
7495.44 -0.00019852
7496.07 -6.7369e-05
7496.7 -0.0013854
7497.33 -0.0043179
7497.96 -0.00076571
7498.59 0.00084153
7499.22 0.0017287
7499.85 -0.00096028
7500.48 -6.2752e-06
7501.11 0.00077215
7501.74 -0.00075471
7502.37 0.0012935
7503.0 0.00040352
7503.63 -0.0011783
7504.26 0.0011946
7504.89 -0.00022236
7505.52 -0.00098714
7506.15 0.00065718
7506.78 -0.0001157
7507.41 0.0016266
7508.05 0.0019545
7508.68 -0.0023187
7509.31 -0.0012347
7509.94 0.001482
7510.57 -0.00073204
7511.2 0.00090302
7511.83 0.0023681
7512.46 -0.001339
7513.09 -0.0030073
7513.72 -0.004534
7514.35 -0.0031867
7514.98 -8.3695e-05
7515.61 -0.0046498
7516.24 -0.0048736
7516.87 -0.0063072
7517.5 0.0016032
7518.13 0.0030183
7518.76 0.00020588
7519.39 -0.00020447
7520.02 0.00035458
7520.65 -0.0010974
7521.28 -0.0058929
7521.91 -0.009758
7522.54 -0.0078653
7523.17 -0.01122
7523.8 -0.0063252
7524.43 0.00032787
7525.06 0.0049487
7525.69 0.010004
7526.32 0.0025714
7526.95 -0.0016158
7527.58 -0.0020983
7528.22 -0.0030611
7528.85 -0.0021948
7529.48 -0.0021652
7530.11 -0.0018515
7530.74 -0.0027785
7531.37 -0.0013042
7532.0 0.0023963
7532.63 0.00089259
7533.26 -0.0020774
7533.89 -0.00069176
7534.52 0.0012502
7535.15 -0.0010859
7535.78 -0.0038083
7536.41 -0.005041
7537.04 -0.00030171
7537.67 0.003302
7538.3 -0.003469
7538.93 -0.00060586
7539.56 0.0022596
7540.19 0.0039663
7540.82 0.0012584
7541.45 -0.0057377
7542.08 -0.0022275
7542.71 0.00082535
7543.34 -0.00082644
7543.97 -0.0031198
7544.6 0.002495
7545.23 0.0022573
7545.86 -0.0016054
7546.49 -0.0029558
7547.12 -0.0027597
7547.75 0.0028808
7548.39 -0.0054242
7549.02 -0.0018352
7549.65 0.00012219
7550.28 0.00059402
7550.91 -0.00021135
7551.54 0.00064429
7552.17 -0.0043132
7552.8 -0.0045176
7553.43 -0.0028365
7554.06 -0.0020178
7554.69 -0.0054841
7555.32 -0.0088507
7555.95 -0.0033383
7556.58 -0.0015801
7557.21 -0.0003651
7557.84 0.00010278
7558.47 0.00025572
7559.1 0.0022675
7559.73 0.0041048
7560.36 -0.0016171
7560.99 0.00095607
7561.62 0.003947
7562.25 -0.0033738
7562.88 -0.0037878
7563.51 -0.00012493
7564.14 -0.00032916
7564.77 -0.0048115
7565.4 -0.0057972
7566.03 -0.0027915
7566.66 -0.00092014
7567.29 -0.0044476
7567.92 -0.00072803
7568.56 -4.553e-05
7569.19 -0.0069243
7569.82 -0.011514
7570.45 -0.0074648
7571.08 -0.005951
7571.71 -0.010114
7572.34 -0.00020923
7572.97 0.0033179
7573.6 0.0033403
7574.23 0.00033881
7574.86 -0.0009416
7575.49 -0.00095766
7576.12 0.0015897
7576.75 8.3479e-05
7577.38 -0.0043651
7578.01 -0.0013585
7578.64 -0.0035284
7579.27 -0.0051623
7579.9 -0.0015391
7580.53 -0.0056848
7581.16 -0.0047602
7581.79 -0.00012495
7582.42 -0.0037539
7583.05 -0.0055337
7583.68 -0.0062026
7584.31 -0.0038327
7584.94 -5.2452e-05
7585.57 0.0038209
7586.2 -0.0018671
7586.83 -0.0034059
7587.46 0.0015898
7588.09 0.00096434
7588.73 -0.0017531
7589.36 -0.0036042
7589.99 0.00054389
7590.62 0.0037827
7591.25 -0.0022738
7591.88 -0.0035743
7592.51 -0.0010279
7593.14 -0.0024647
7593.77 -0.00074612
7594.4 0.0019343
7595.03 0.0025634
7595.66 -0.0028437
7596.29 -0.0037951
7596.92 0.0031555
7597.55 0.0045165
7598.18 -0.0027478
7598.81 -0.0060742
7599.44 -0.0037728
7600.07 0.0016131
7600.7 0.0063941
7601.33 0.0095111
7601.96 0.010081
7602.59 0.0055582
7603.22 0.0050195
7603.85 0.0027254
7604.48 0.0018011
7605.11 0.0027342
7605.74 0.0044213
7606.37 0.0057612
7607.0 -0.00010799
7607.63 0.0055696
7608.26 0.0017428
7608.9 -0.0016799
7609.53 0.0021312
7610.16 0.0035124
7610.79 -0.0076747
7611.42 -0.0030483
7612.05 0.001058
7612.68 0.0040039
7613.31 0.0051567
7613.94 -0.0047856
7614.57 -0.001124
7615.2 0.009709
7615.83 0.0063638
7616.46 -0.0055603
7617.09 -0.003466
7617.72 0.0072514
7618.35 0.00057458
7618.98 -0.0081418
7619.61 -0.0060653
7620.24 -0.0039622
7620.87 -0.0027039
7621.5 -0.0031422
7622.13 -0.0055916
7622.76 -0.0044857
7623.39 0.0011457
7624.02 0.0037502
7624.65 0.0046158
7625.28 0.0042389
7625.91 -0.0022073
7626.54 -0.00067124
7627.17 0.00090882
7627.8 -0.0065355
7628.44 -0.0091857
7629.07 -0.0039994
7629.7 -0.0065974
7630.33 0.00081509
7630.96 0.004456
7631.59 -0.00084335
7632.22 0.002022
7632.85 -0.0015585
7633.48 -0.0080799
7634.11 -0.0075858
7634.74 -0.0048614
7635.37 -0.00029919
7636.0 0.0018641
7636.63 -0.0039034
7637.26 -0.0036602
7637.89 -0.0038787
7638.52 -5.4753e-05
7639.15 0.0037175
7639.78 -0.0025151
7640.41 -0.0036902
7641.04 -0.0028085
7641.67 -0.0055234
7642.3 -0.0056775
7642.93 -0.0050555
7643.56 -0.0028642
7644.19 -0.0010922
7644.82 -0.0034344
7645.45 -0.004277
7646.08 0.0009606
7646.71 0.0026282
7647.34 -0.00084784
7647.97 -0.0009109
7648.61 -0.0035962
7649.24 -0.0040686
7649.87 -0.008047
7650.5 -0.0094091
7651.13 -0.0033873
7651.76 -0.0026205
7652.39 -0.002747
7653.02 0.0029078
7653.65 -9.1299e-05
7654.28 -0.0013671
7654.91 -0.0015373
7655.54 -0.0058525
7656.17 -0.011247
7656.8 -0.0061624
7657.43 0.003392
7658.06 0.0018021
7658.69 -0.00044054
7659.32 -0.00055548
7659.95 -0.0029272
7660.58 -0.0043749
7661.21 -0.0069891
7661.84 -0.0080415
7662.47 -0.0031182
7663.1 0.00017441
7663.73 -0.0040374
7664.36 -0.0060577
7664.99 -0.0062526
7665.62 -0.0015573
7666.25 0.00019515
7666.88 -0.0034814
7667.51 -0.0015054
7668.14 -0.00039089
7668.78 -0.0054475
7669.41 -0.008697
7670.04 -0.009465
7670.67 -0.0043975
7671.3 0.0013156
7671.93 0.0014096
7672.56 0.00063123
7673.19 -0.0010519
7673.82 -0.0021895
7674.45 -0.0034515
7675.08 -0.0043687
7675.71 -0.0029814
7676.34 -0.0035606
7676.97 -0.0038094
7677.6 -0.0047751
7678.23 -0.0044932
7678.86 -0.0014924
7679.49 -0.00080975
7680.12 -0.0026705
7680.75 -0.004137
7681.38 0.0001611
7682.01 -0.0089543
7682.64 -0.0065237
7683.27 -0.0023245
7683.9 -0.00018271
7684.53 -0.0052888
7685.16 -0.0049155
7685.79 -0.010466
7686.42 -0.0067379
7687.05 -0.00016336
7687.68 0.0028157
7688.31 0.0016001
7688.95 -0.0018262
7689.58 0.00039073
7690.21 -0.0015855
7690.84 -0.003603
7691.47 -0.0037178
7692.1 0.00036616
7692.73 -0.0040054
7693.36 -0.0037119
7693.99 0.0010104
7694.62 0.0014955
7695.25 0.0003776
7695.88 0.0029255
7696.51 0.0032765
7697.14 -0.0043098
7697.77 -0.0038321
7698.4 0.00093928
7699.03 0.0019703
7699.66 -0.001131
7700.29 -0.0031906
7700.92 0.0032701
7701.55 0.0034229
7702.18 0.0027576
7702.81 0.0042145
7703.44 0.00040534
7704.07 0.0022336
7704.7 0.0030118
7705.33 0.001379
7705.96 0.0024104
7706.59 0.0039454
7707.22 0.0057205
7707.85 0.0056719
7708.48 0.0027038
7709.12 0.00071007
7709.75 -0.0023219
7710.38 -0.0074934
7711.01 -0.0060515
7711.64 -0.010258
7712.27 -0.010019
7712.9 0.008812
7713.53 0.011324
7714.16 0.014389
7714.79 0.00082258
7715.42 -0.00066239
7716.05 0.0048261
7716.68 0.00016504
7717.31 0.00425
7717.94 0.013718
7718.57 0.017435
7719.2 0.010166
7719.83 0.006231
7720.46 0.0098934
7721.09 0.0066287
7721.72 0.0055836
7722.35 0.0082451
7722.98 0.0026273
7723.61 0.006619
7724.24 0.0043839
7724.87 0.00090208
7725.5 0.0045692
7726.13 -0.00017591
7726.76 0.0033371
7727.39 0.014149
7728.02 0.0096463
7728.65 0.0070141
7729.29 0.010662
7729.92 0.0051588
7730.55 0.0046005
7731.18 0.0063143
7731.81 0.0072911
7732.44 0.0066021
7733.07 0.0052114
7733.7 0.0085276
7734.33 0.0098068
7734.96 0.0062472
7735.59 0.0038457
7736.22 0.0070325
7736.85 0.010007
7737.48 0.0065299
7738.11 0.0039995
7738.74 0.006893
7739.37 0.010014
7740.0 0.0089725
7740.63 0.011322
7741.26 0.010706
7741.89 0.004271
7742.52 0.0039019
7743.15 0.0062867
7743.78 0.0084881
7744.41 0.0094236
7745.04 0.005854
7745.67 0.004119
7746.3 0.00686
7746.93 0.0054606
7747.56 0.0028301
7748.19 -0.0090844
7748.82 -0.015411
7749.46 0.0033666
7750.09 0.018956
7750.72 0.015078
7751.35 0.014419
7751.98 0.022736
7752.61 0.018491
7753.24 0.010325
7753.87 0.005671
7754.5 0.00010284
7755.13 -0.0005509
7755.76 0.0027111
7756.39 0.0018582
7757.02 -0.0011444
7757.65 -0.0021695
7758.28 -0.0060616
7758.91 -0.0056559
7759.54 -0.0019062
7760.17 0.0067314
7760.8 0.0066965
7761.43 0.0069468
7762.06 0.0081104
7762.69 -0.0018309
7763.32 -0.0012918
7763.95 0.0021612
7764.58 -0.00026795
7765.21 -0.00069215
7765.84 -0.0007909
7766.47 -0.0029089
7767.1 -0.00096642
7767.73 0.0014716
7768.36 -0.0016875
7769.0 5.5256e-05
7769.63 -0.0019915
7770.26 -0.004349
7770.89 -6.1032e-06
7771.52 0.0028676
7772.15 0.0041665
7772.78 0.0065555
7773.41 0.0020021
7774.04 -0.0030054
7774.67 0.0036279
7775.3 0.0029573
7775.93 -0.0028341
7776.56 -0.0025171
7777.19 -0.0017579
7777.82 -0.00020266
7778.45 -0.0038853
7779.08 -0.0017401
7779.71 0.0047748
7780.34 0.0025101
7780.97 -0.0010068
7781.6 0.0033141
7782.23 0.0062076
7782.86 0.0019627
7783.49 -9.0544e-05
7784.12 0.0014961
7784.75 0.00099312
7785.38 -0.00076071
7786.01 -0.00096134
7786.64 -0.0025292
7787.27 -0.0035782
7787.9 -0.0018686
7788.53 -0.001327
7789.17 -0.003131
7789.8 -0.0042898
7790.43 -0.0057255
7791.06 -0.001577
7791.69 -0.0047387
7792.32 -0.0084893
7792.95 0.00054134
7793.58 0.0088052
7794.21 0.0065185
7794.84 0.011308
7795.47 0.022707
7796.1 0.02051
7796.73 0.0091405
7797.36 -0.00073176
7797.99 -0.0042352
7798.62 -0.00039567
7799.25 0.0072342
7799.88 0.0067555
7800.51 0.0011408
7801.14 -0.0019827
7801.77 -0.00030832
7802.4 -0.00074499
7803.03 -0.0025981
7803.66 -0.0027913
7804.29 -0.001451
7804.92 0.00089041
7805.55 0.0041545
7806.18 0.0022817
7806.81 -0.0028451
7807.44 -0.0035171
7808.07 -0.0010198
7808.7 0.0022532
7809.34 0.012683
7809.97 0.016812
7810.6 0.0096867
7811.23 0.0061409
7811.86 0.0020333
7812.49 -0.0020878
7813.12 -0.00066961
7813.75 0.0029534
7814.38 0.0019211
7815.01 -0.00066967
7815.64 -0.00088222
7816.27 -0.00090196
7816.9 -0.0029242
7817.53 -0.0045759
7818.16 -0.0045296
7818.79 -0.001949
7819.42 -0.0082925
7820.05 -0.0097316
7820.68 0.0033383
7821.31 -0.00066956
7821.94 -0.0012116
7822.57 0.011385
7823.2 0.014458
7823.83 0.0052321
7824.46 0.0052607
7825.09 0.0043793
7825.72 0.0015464
7826.35 -8.1628e-05
7826.98 0.0024584
7827.61 0.001048
7828.24 0.00069763
7828.87 0.0008141
7829.51 0.0006501
7830.14 -0.00085336
7830.77 -0.0029766
7831.4 -0.0017158
7832.03 0.0028971
7832.66 -0.00069844
7833.29 -0.0031742
7833.92 -0.0028315
7834.55 -0.00032506
7835.18 0.0018063
7835.81 -0.0014563
7836.44 -0.0037606
7837.07 -0.0038337
7837.7 -0.0034986
7838.33 -0.0012009
7838.96 -0.0041817
7839.59 -0.0067812
7840.22 0.00022147
7840.85 0.0011776
7841.48 -0.0010563
7842.11 0.00090909
7842.74 0.0011443
7843.37 0.0050067
7844.0 0.00097
7844.63 -0.0011769
7845.26 0.0016798
7845.89 0.0045342
7846.52 0.0011512
7847.15 -0.0011332
7847.78 -0.0014605
7848.41 -0.0060471
7849.04 -0.0058231
7849.68 -0.00025835
7850.31 -0.0056184
7850.94 -0.0032934
7851.57 -0.010322
7852.2 -0.012936
7852.83 -0.012325
7853.46 -0.015864
7854.09 0.005462
7854.72 0.025175
7855.35 0.018793
7855.98 0.00050021
7856.61 -0.0018623
7857.24 -0.0043683
7857.87 -0.0023699
7858.5 0.0016221
7859.13 0.0022269
7859.76 -0.0024826
7860.39 0.00015886
7861.02 0.0073642
7861.65 0.0021242
7862.28 0.0066153
7862.91 0.0095087
7863.54 -0.00034028
7864.17 -0.0038019
7864.8 0.0044397
7865.43 0.0045196
7866.06 -0.0042423
7866.69 -0.00073273
7867.32 -0.001958
7867.95 -0.0061447
7868.58 -0.004665
7869.21 -0.0064491
7869.85 -0.00337
7870.48 -0.0037261
7871.11 -0.0065931
7871.74 0.0010148
7872.37 0.012341
7873.0 0.006301
7873.63 0.00090123
7874.26 0.0011434
7874.89 -0.00024727
7875.52 0.00072585
7876.15 0.0031863
7876.78 -0.0021276
7877.41 -0.0012921
7878.04 -0.0027824
7878.67 -0.0021359
7879.3 9.1852e-05
7879.93 -0.0004316
7880.56 0.005814
7881.19 0.0077497
7881.82 0.0045135
7882.45 0.0052671
7883.08 0.003082
7883.71 -0.0027117
7884.34 -0.0090001
7884.97 -0.0062251
7885.6 -0.0014806
7886.23 0.00025584
7886.86 -0.0028366
7887.49 -0.0067115
7888.12 -0.00075492
7888.75 0.00078962
7889.38 0.0041039
7890.02 0.0085377
7890.65 0.0074759
7891.28 0.0069426
7891.91 0.0067836
7892.54 0.0047277
7893.17 0.0011941
7893.8 0.00057562
7894.43 0.00051552
7895.06 -0.0012259
7895.69 0.00093861
7896.32 0.006339
7896.95 0.007845
7897.58 0.0023793
7898.21 0.0011735
7898.84 0.0035659
7899.47 -0.0007054
7900.1 -0.0013932
7900.73 -0.0002854
7901.36 0.0036964
7901.99 -0.0040499
7902.62 0.0031917
7903.25 0.0074217
7903.88 -0.0010707
7904.51 -0.004176
7905.14 -0.0038979
7905.77 0.0090744
7906.4 0.0011451
7907.03 -0.007245
7907.66 -0.0026884
7908.29 0.00036917
7908.92 -0.0015249
7909.56 -0.0022729
7910.19 -0.0034834
7910.82 -0.0035595
7911.45 -0.015719
7912.08 -0.0216
7912.71 -0.0073637
7913.34 -0.01131
7913.97 -0.0050911
7914.6 0.014576
7915.23 0.022913
7915.86 0.011368
7916.49 0.0023346
7917.12 0.0098856
7917.75 0.0084592
7918.38 -0.0042289
7919.01 -0.013851
7919.64 -0.0082644
7920.27 0.0028973
7920.9 0.0022845
7921.53 -0.00013685
7922.16 0.0036375
7922.79 0.0098762
7923.42 0.0050007
7924.05 -0.0017638
7924.68 0.0028079
7925.31 0.0034733
7925.94 -0.00085006
7926.57 -0.00061851
7927.2 0.0026063
7927.83 0.00087505
7928.46 -0.00040838
7929.09 0.00075961
7929.73 -0.00077539
7930.36 0.00066584
7930.99 0.0073836
7931.62 0.0086174
7932.25 0.0037411
7932.88 0.015129
7933.51 0.016257
7934.14 0.006241
7934.77 0.0027237
7935.4 0.0067323
7936.03 0.0081384
7936.66 0.014183
7937.29 0.016026
7937.92 0.0084675
7938.55 0.0048143
7939.18 0.0064291
7939.81 0.011782
7940.44 0.013676
7941.07 0.008767
7941.7 0.0038799
7942.33 0.0049278
7942.96 0.00626
7943.59 0.0061867
7944.22 0.0033231
7944.85 0.0063931
7945.48 0.0059988
7946.11 0.0039059
7946.74 0.0047596
7947.37 0.0017058
7948.0 0.0037928
7948.63 0.0088212
7949.26 0.007285
7949.9 0.00369
7950.53 0.006514
7951.16 0.009356
7951.79 0.0042096
7952.42 0.0016886
7953.05 0.0043486
7953.68 0.0053258
7954.31 0.0050157
7954.94 0.0019922
7955.57 0.00045352
7956.2 0.0020711
7956.83 0.0044324
7957.46 0.0067684
7958.09 0.0053466
7958.72 -0.0011274
7959.35 0.0023198
7959.98 0.0056755
7960.61 0.00088599
7961.24 -0.0029999
7961.87 -0.0074239
7962.5 -0.011674
7963.13 -0.0060015
7963.76 0.0016433
7964.39 0.012038
7965.02 0.011195
7965.65 0.011936
7966.28 0.019589
7966.91 0.014463
7967.54 0.0066929
7968.17 0.0050481
7968.8 0.0011032
7969.43 -0.0013144
7970.07 0.0022335
7970.7 0.0027583
7971.33 0.0023121
7971.96 0.0030694
7972.59 0.00088285
7973.22 0.00030773
7973.85 0.0027759
7974.48 0.0036453
7975.11 0.0045432
7975.74 0.0056014
7976.37 0.0044418
7977.0 0.00057106
7977.63 -0.004476
7978.26 -0.0024385
7978.89 0.0051729
7979.52 0.0047826
7980.15 -0.00037367
7980.78 0.0051636
7981.41 0.010751
7982.04 0.0048826
7982.67 0.0010361
7983.3 0.0015444
7983.93 0.0026251
7984.56 -0.0011476
7985.19 -0.0029327
7985.82 0.0013465
7986.45 -0.00024126
7987.08 -0.00075565
7987.71 0.0012701
7988.34 0.0007311
7988.97 -0.002005
7989.6 0.0015775
7990.24 -6.0213e-06
7990.87 -0.012305
7991.5 -0.020861
7992.13 -0.0059881
7992.76 0.0044831
7993.39 0.0071037
7994.02 0.0099242
7994.65 0.021461
7995.28 0.018649
7995.91 0.0055965
7996.54 0.0034497
7997.17 0.00020982
7997.8 -0.0038924
7998.43 -0.0029404
7999.06 -0.0028926
7999.69 -0.00233
8000.32 -0.0013223
8000.95 0.0012717
8001.58 0.0030187
8002.21 0.00066819
8002.84 0.00021039
8003.47 0.00018181
8004.1 -0.0010483
8004.73 0.001548
8005.36 0.0053579
8005.99 0.0054452
8006.62 0.0014404
8007.25 -0.0018855
8007.88 -0.0012944
8008.51 0.0031526
8009.14 0.0036872
8009.77 -0.00028651
8010.41 -0.0048159
8011.04 -0.0019494
8011.67 -0.00099273
8012.3 -0.0028918
8012.93 -0.0013697
8013.56 0.0025953
8014.19 0.0036976
8014.82 0.010971
8015.45 0.022336
8016.08 0.016108
8016.71 0.013294
8017.34 0.011361
8017.97 0.0054894
8018.6 0.0032087
8019.23 0.0016871
8019.86 0.0060253
8020.49 0.0093493
8021.12 0.010299
8021.75 0.012282
8022.38 0.013366
8023.01 0.0047539
8023.64 -0.0051144
8024.27 -0.0038009
8024.9 0.0057576
8025.53 0.0092835
8026.16 0.014446
8026.79 0.021562
8027.42 0.026897
8028.05 0.020338
8028.68 0.010146
8029.31 0.0084999
8029.94 0.0069546
8030.58 0.005061
8031.21 0.0081022
8031.84 0.0098076
8032.47 0.004683
8033.1 0.0055327
8033.73 0.0082948
8034.36 0.0039937
8034.99 0.0071523
8035.62 0.0087344
8036.25 0.0039049
8036.88 0.00075289
8037.51 0.0013594
8038.14 -0.00023503
8038.77 0.0032142
8039.4 0.0080941
8040.03 0.0061299
8040.66 0.0022402
8041.29 0.0035678
8041.92 0.0019573
8042.55 0.0033428
8043.18 0.0039917
8043.81 0.0027199
8044.44 0.0024809
8045.07 -0.0021188
8045.7 0.0047517
8046.33 0.0021276
8046.96 0.0045051
8047.59 0.0014585
8048.22 -0.00078758
8048.85 -0.0002903
8049.48 0.0016313
8050.12 -0.00038875
8050.75 -0.0001556
8051.38 0.0022058
8052.01 0.0040135
8052.64 0.0043516
8053.27 0.0080117
8053.9 0.010342
8054.53 0.0044096
8055.16 0.0014866
8055.79 0.0014433
8056.42 7.0541e-05
8057.05 0.00051686
8057.68 0.0010301
8058.31 0.0020875
8058.94 0.002495
8059.57 -0.0013012
8060.2 -0.0039123
8060.83 0.0012948
8061.46 0.0034807
8062.09 0.0028845
8062.72 0.010302
8063.35 0.0065048
8063.98 0.0061132
8064.61 0.0095504
8065.24 0.0045837
8065.87 0.0087964
8066.5 0.013645
8067.13 0.0093866
8067.76 0.01378
8068.39 0.014035
8069.02 0.011546
8069.65 0.016028
8070.29 0.0088323
8070.92 0.010318
8071.55 0.011943
8072.18 0.014465
8072.81 0.015486
8073.44 0.01417
8074.07 0.01131
8074.7 0.012274
8075.33 0.012748
8075.96 0.013747
8076.59 0.012914
8077.22 0.011689
8077.85 0.009333
8078.48 0.0070138
8079.11 0.012282
8079.74 0.01283
8080.37 0.0047107
8081.0 0.0050475
8081.63 0.0085783
8082.26 0.0057475
8082.89 0.0058662
8083.52 0.0091977
8084.15 0.0061899
8084.78 0.0033529
8085.41 0.0070518
8086.04 0.010776
8086.67 0.0091534
8087.3 0.008884
8087.93 0.010433
8088.56 0.0068299
8089.19 0.0082055
8089.82 0.010938
8090.46 0.0092275
8091.09 0.0022523
8091.72 0.00097908
8092.35 0.0067067
8092.98 0.008873
8093.61 0.0054461
8094.24 0.0049891
8094.87 0.0099105
8095.5 0.0094272
8096.13 0.0085561
8096.76 0.0092222
8097.39 0.0072316
8098.02 0.006826
8098.65 0.010466
8099.28 0.0080037
8099.91 0.0072623
8100.54 0.0039662
8101.17 0.0099802
8101.8 0.014577
8102.43 0.011199
8103.06 0.0039513
8103.69 0.004875
8104.32 0.0026989
8104.95 0.0082862
8105.58 0.0090673
8106.21 0.0060076
8106.84 0.0022374
8107.47 0.002559
8108.1 0.0073661
8108.73 0.0049133
8109.36 0.0058466
8109.99 0.007244
8110.63 0.0047666
8111.26 0.006459
8111.89 0.007931
8112.52 0.0039874
8113.15 0.00099967
8113.78 0.00086894
8114.41 0.00054589
8115.04 0.0028418
8115.67 0.0010987
8116.3 0.00046876
8116.93 0.0047624
8117.56 0.00092432
8118.19 -0.0008359
8118.82 0.0026338
8119.45 0.00052584
8120.08 0.0042205
8120.71 0.0025566
8121.34 -0.0015078
8121.97 -0.00046596
8122.6 0.0021259
8123.23 -0.0017421
8123.86 0.0014822
8124.49 0.0010744
8125.12 -0.0048773
8125.75 0.0019496
8126.38 0.0023771
8127.01 0.001135
8127.64 -0.00084791
8128.27 0.001514
8128.9 0.0013486
8129.53 -0.002749
8130.16 -4.4019e-05
8130.8 0.0011612
8131.43 0.00046984
8132.06 0.00024502
8132.69 0.0045986
8133.32 0.0047495
8133.95 0.0027433
8134.58 -0.00056732
8135.21 0.0013073
8135.84 0.007722
8136.47 0.0050538
8137.1 0.0001736
8137.73 0.0020589
8138.36 0.0043734
8138.99 0.0061635
8139.62 0.0034724
8140.25 -0.0014294
8140.88 0.001131
8141.51 0.0039359
8142.14 0.0046794
8142.77 0.0068854
8143.4 0.0069237
8144.03 0.0082521
8144.66 0.0083454
8145.29 0.0049588
8145.92 0.0043067
8146.55 0.0077111
8147.18 0.0067509
8147.81 0.0066903
8148.44 0.0073536
8149.07 0.01022
8149.7 0.011341
8150.33 0.011086
8150.97 0.0067655
8151.6 0.0016605
8152.23 0.0054117
8152.86 0.006906
8153.49 0.0055393
8154.12 0.0058275
8154.75 0.0063709
8155.38 0.0043762
8156.01 0.0023154
8156.64 0.00042552
8157.27 -0.0008287
8157.9 0.00071378
8158.53 0.0025159
8159.16 0.0084111
8159.79 0.0081863
8160.42 0.0044543
8161.05 0.0037024
8161.68 0.0055668
8162.31 0.0064328
8162.94 0.0062215
8163.57 0.0054253
8164.2 0.0034447
8164.83 0.005263
8165.46 0.0056354
8166.09 0.0045055
8166.72 0.005654
8167.35 0.005498
8167.98 0.0031363
8168.61 0.0042806
8169.24 0.010208
8169.87 0.0077461
8170.5 -0.00027312
8171.14 -0.00092406
8171.77 0.0014905
8172.4 0.0028474
8173.03 0.00086406
8173.66 -0.0021727
8174.29 -0.0015235
8174.92 0.0047516
8175.55 0.0080955
8176.18 0.0034564
8176.81 0.0015515
8177.44 0.0056683
8178.07 0.0028407
8178.7 0.00074244
8179.33 0.005886
8179.96 0.0086018
8180.59 0.0021537
8181.22 0.00034922
8181.85 -0.002617
8182.48 -0.0041031
8183.11 0.00053334
8183.74 0.0051429
8184.37 0.0053746
8185.0 0.0020425
8185.63 0.0031573
8186.26 0.0052716
8186.89 0.002164
8187.52 -0.0018096
8188.15 -0.0008704
8188.78 0.0019974
8189.41 0.0027957
8190.04 0.00074203
8190.68 -0.0036403
8191.31 -0.0037714
8191.94 -0.0009953
8192.57 0.001318
8193.2 -0.001331
8193.83 -0.0045767
8194.46 -0.0007186
8195.09 0.0018424
8195.72 0.00025344
8196.35 0.00073008
8196.98 -4.1692e-05
8197.61 -0.0010508
8198.24 -0.00081165
8198.87 -0.00066423
8199.5 0.0025285
8200.13 0.0017448
8200.76 -0.003372
8201.39 -0.0053309
8202.02 0.00027345
8202.65 0.00060279
8203.28 -0.0017653
8203.91 -0.0043027
8204.54 -0.00031044
8205.17 -0.00046535
8205.8 -0.0020958
8206.43 0.0029048
8207.06 0.0060415
8207.69 -0.0039609
8208.32 -0.0032062
8208.95 0.0011271
8209.58 -0.00020295
8210.21 -0.0017045
8210.85 0.0013614
8211.48 0.0017395
8212.11 0.0020925
8212.74 0.0062491
8213.37 0.0032887
8214.0 -0.001727
8214.63 0.0020161
8215.26 0.0047446
8215.89 0.0055296
8216.52 0.0051355
8217.15 0.0034575
8217.78 0.0027856
8218.41 0.0038565
8219.04 0.0062522
8219.67 0.0048252
8220.3 0.0031612
8220.93 0.0047631
8221.56 0.0067025
8222.19 0.0085202
8222.82 0.010681
8223.45 0.012492
8224.08 0.0090731
8224.71 0.0069375
8225.34 0.008157
8225.97 0.0055203
8226.6 0.006991
8227.23 0.007721
8227.86 0.0093619
8228.49 0.013419
8229.12 0.0088289
8229.75 0.0018582
8230.38 0.0063747
8231.02 0.0091355
8231.65 0.0098428
8232.28 0.0081284
8232.91 0.010874
8233.54 0.013877
8234.17 0.011334
8234.8 0.011138
8235.43 0.012444
8236.06 0.012916
8236.69 0.012571
8237.32 0.0075719
8237.95 0.0054321
8238.58 0.0059536
8239.21 0.0059962
8239.84 0.0045596
8240.47 0.0069773
8241.1 0.0079278
8241.73 0.0078025
8242.36 0.008288
8242.99 0.0054816
8243.62 0.003827
8244.25 0.0059994
8244.88 0.0065578
8245.51 0.0037752
8246.14 0.0026901
8246.77 0.00037575
8247.4 0.0018027
8248.03 0.006951
8248.66 0.009417
8249.29 0.0090232
8249.92 0.0098042
8250.55 0.0074185
8251.19 0.0034822
8251.82 0.0039461
8252.45 0.0029345
8253.08 0.0013177
8253.71 0.0036213
8254.34 0.0069643
8254.97 0.0032105
8255.6 0.0010652
8256.23 0.0058966
8256.86 0.013341
8257.49 0.0045221
8258.12 0.0042779
8258.75 0.0032977
8259.38 0.0029742
8260.01 0.0060404
8260.64 0.0038229
8261.27 0.0053275
8261.9 0.0014387
8262.53 0.0053965
8263.16 0.0078878
8263.79 0.0094604
8264.42 0.006202
8265.05 0.0016834
8265.68 0.0028359
8266.31 0.0076138
8266.94 0.0076246
8267.57 0.0028316
8268.2 0.0062882
8268.83 0.0052768
8269.46 0.007011
8270.09 0.012194
8270.72 0.0057599
8271.36 0.0030626
8271.99 -0.00033665
8272.62 0.0020581
8273.25 0.0025437
8273.88 0.0018761
8274.51 0.0061415
8275.14 0.0033509
8275.77 0.0011192
8276.4 -0.00053883
8277.03 -0.005787
8277.66 2.611e-05
8278.29 0.0052055
8278.92 0.0008977
8279.55 -0.0043617
8280.18 -0.0041306
8280.81 0.00087506
8281.44 0.0050998
8282.07 0.01588
8282.7 0.015625
8283.33 0.014293
8283.96 0.0053819
8284.59 -0.0010261
8285.22 0.0026717
8285.85 -0.0034128
8286.48 -0.01075
8287.11 -0.010919
8287.74 -0.0018849
8288.37 0.0035605
8289.0 -0.0037672
8289.63 0.0021282
8290.26 0.028094
8290.89 0.017561
8291.53 0.0036956
8292.16 0.0045099
8292.79 0.0035763
8293.42 0.0031299
8294.05 -0.0072138
8294.68 -0.0016511
8295.31 -0.00032595
8295.94 -0.0015999
8296.57 -0.013303
8297.2 -0.022659
8297.83 0.0046127
8298.46 6.2747e-06
8299.09 -0.0040649
8299.72 0.0066661
8300.35 0.023989
8300.98 0.024052
8301.61 0.0057317
8302.24 0.0013541
8302.87 -0.0022006
8303.5 -0.0010718
8304.13 0.0049932
8304.76 0.0041153
8305.39 0.00067476
8306.02 -0.0010929
8306.65 0.0014202
8307.28 -0.0011509
8307.91 -0.0035757
8308.54 -0.0050914
8309.17 -0.0069552
8309.8 0.00099466
8310.43 0.00027993
8311.06 -0.00079117
8311.7 0.0066592
8312.33 0.0056963
8312.96 0.0046183
8313.59 0.0039378
8314.22 -0.00073077
8314.85 -0.00046767
8315.48 0.00024682
8316.11 0.00042275
8316.74 0.00065533
8317.37 -0.00080781
8318.0 -0.0014545
8318.63 0.0031206
8319.26 0.0037331
8319.89 0.0025236
8320.52 0.0041711
8321.15 0.00057306
8321.78 -0.0012791
8322.41 0.0013189
8323.04 0.0033897
8323.67 0.0017939
8324.3 0.0012715
8324.93 7.5483e-05
8325.56 0.0080699
8326.19 0.0071857
8326.82 0.0038703
8327.45 0.0088118
8328.08 0.0060709
8328.71 0.0049494
8329.34 0.0047726
8329.97 0.0034586
8330.6 0.0052337
8331.24 0.0098632
8331.87 0.010768
8332.5 0.0052196
8333.13 0.0070487
8333.76 0.0099109
8334.39 0.0065043
8335.02 0.0091536
8335.65 0.0076789
8336.28 0.0066356
8336.91 0.012267
8337.54 0.0089382
8338.17 0.0082131
8338.8 0.0075711
8339.43 0.0066374
8340.06 0.00064857
8340.69 0.0018146
8341.32 0.00019998
8341.95 -0.0068498
8342.58 -0.026596
8343.21 -0.037562
8343.84 -0.013977
8344.47 -0.00071486
8345.1 0.0091467
8345.73 0.040367
8346.36 0.05971
8346.99 0.030969
8347.62 0.011015
8348.25 0.0057457
8348.88 0.010812
8349.51 0.006991
8350.14 -0.0037979
8350.77 -0.0050005
8351.41 -0.0051051
8352.04 -0.0063292
8352.67 -0.012528
8353.3 0.0010255
8353.93 0.017184
8354.56 0.024194
8355.19 0.014505
8355.82 0.0057928
8356.45 0.0057558
8357.08 0.0053903
8357.71 0.0051378
8358.34 0.006514
8358.97 0.0031642
8359.6 0.0013265
8360.23 0.0017085
8360.86 0.0020962
8361.49 0.0084988
8362.12 0.0086339
8362.75 0.0028254
8363.38 0.007457
8364.01 0.013982
8364.64 0.012141
8365.27 0.011489
8365.9 0.010324
8366.53 0.006329
8367.16 0.0075066
8367.79 0.0086101
8368.42 0.0073714
8369.05 0.0070405
8369.68 0.0079243
8370.31 0.0049518
8370.94 0.0068261
8371.58 0.0067061
8372.21 0.0095954
8372.84 0.0091116
8373.47 0.0056689
8374.1 0.010625
8374.73 0.0059306
8375.36 0.0070342
8375.99 0.011619
8376.62 0.013294
8377.25 0.013125
8377.88 0.010947
8378.51 0.010157
8379.14 0.0060598
8379.77 -0.0010713
8380.4 -0.0038964
8381.03 0.0046661
8381.66 0.0022836
8382.29 0.0060181
8382.92 0.011498
8383.55 0.013379
8384.18 0.016022
8384.81 0.011837
8385.44 0.010244
8386.07 0.008769
8386.7 0.0062324
8387.33 0.0041819
8387.96 0.0056827
8388.59 0.0094597
8389.22 0.0052591
8389.85 0.0032974
8390.48 0.003498
8391.11 0.0021546
8391.75 0.0035822
8392.38 0.0032848
8393.01 -0.00034833
8393.64 -0.0011801
8394.27 0.0015788
8394.9 0.00039931
8395.53 0.0022207
8396.16 -0.0051902
8396.79 -0.022066
8397.42 -0.021064
8398.05 -0.012022
8398.68 0.012117
8399.31 0.016089
8399.94 0.018228
8400.57 0.048992
8401.2 0.035808
8401.83 0.013673
8402.46 0.0087354
8403.09 0.0039518
8403.72 -0.00052877
8404.35 0.0025463
8404.98 0.0069056
8405.61 0.0050422
8406.24 0.0056456
8406.87 0.00357
8407.5 0.0060056
8408.13 0.0091372
8408.76 0.0098798
8409.39 0.0098137
8410.02 0.009113
8410.65 0.0090898
8411.28 0.0068985
8411.92 0.0063039
8412.55 0.0042398
8413.18 -0.0068165
8413.81 -0.0043047
8414.44 0.0012149
8415.07 0.0035379
8415.7 0.013369
8416.33 0.021556
8416.96 0.022914
8417.59 0.014759
8418.22 0.0089381
8418.85 0.0080634
8419.48 0.0098085
8420.11 0.010639
8420.74 0.011002
8421.37 0.0092866
8422.0 0.0028267
8422.63 0.0038938
8423.26 0.0096537
8423.89 0.0070305
8424.52 0.0039044
8425.15 0.0090928
8425.78 0.013053
8426.41 0.0068619
8427.04 0.0013603
8427.67 -0.012148
8428.3 -0.031886
8428.93 -0.02495
8429.56 -0.0018737
8430.19 0.012591
8430.82 0.0020599
8431.45 0.02832
8432.09 0.041635
8432.72 0.020691
8433.35 0.0072766
8433.98 0.0038146
8434.61 0.0033459
8435.24 0.0020752
8435.87 0.004025
8436.5 0.0020312
8437.13 0.0018245
8437.76 0.0048821
8438.39 0.0047239
8439.02 0.0041242
8439.65 0.0024941
8440.28 0.0016007
8440.91 0.0035528
8441.54 0.0040007
8442.17 0.0024874
8442.8 0.0043666
8443.43 0.0042882
8444.06 -0.0017867
8444.69 -0.002444
8445.32 3.1702e-05
8445.95 0.0012104
8446.58 0.0042269
8447.21 0.0022221
8447.84 0.0017656
8448.47 0.0046252
8449.1 0.0025697
8449.73 -0.00092674
8450.36 -0.0057585
8450.99 -0.0052674
8451.62 0.0055456
8452.26 0.0034902
8452.89 0.0044925
8453.52 0.012947
8454.15 0.014976
8454.78 0.012018
8455.41 0.0093936
8456.04 0.0051269
8456.67 0.00198
8457.3 0.0044321
8457.93 0.0068459
8458.56 0.0050228
8459.19 0.0034274
8459.82 0.0040061
8460.45 0.0020433
8461.08 0.0031083
8461.71 0.006434
8462.34 0.0038622
8462.97 -0.0089004
8463.6 -0.015809
8464.23 -0.0038688
8464.86 0.0048055
8465.49 0.010939
8466.12 0.027994
8466.75 0.045531
8467.38 0.039515
8468.01 0.020677
8468.64 0.015985
8469.27 0.016511
8469.9 0.013662
8470.53 0.0074997
8471.16 0.0045774
8471.8 0.010763
8472.43 0.015
8473.06 0.01639
8473.69 0.015375
8474.32 0.015707
8474.95 0.016244
8475.58 0.010656
8476.21 0.011958
8476.84 0.011755
8477.47 0.0081208
8478.1 0.010483
8478.73 0.0092048
8479.36 0.0083099
8479.99 0.011393
8480.62 0.011621
8481.25 0.010502
8481.88 0.0074092
8482.51 0.0079799
8483.14 0.0066438
8483.77 0.0048079
8484.4 0.0067991
8485.03 0.0069292
8485.66 0.007541
8486.29 0.0067782
8486.92 0.0055738
8487.55 0.007638
8488.18 0.0065235
8488.81 0.0020792
8489.44 0.00038344
8490.07 0.002909
8490.7 0.0019407
8491.33 -0.0039333
8491.97 -0.001816
8492.6 0.0036974
8493.23 0.0050122
8493.86 0.0060841
8494.49 0.0084431
8495.12 0.011713
8495.75 0.0092839
8496.38 0.0022726
8497.01 0.0019668
8497.64 0.0039541
8498.27 0.0016961
8498.9 0.0013256
8499.53 0.0023151
8500.16 0.0022321
8500.79 0.0035204
8501.42 0.0030273
8502.05 -0.00084935
8502.68 -0.0071441
8503.31 -0.0089795
8503.94 -0.0039425
8504.57 -0.0077174
8505.2 -0.0034983
8505.83 0.017819
8506.46 0.027206
8507.09 0.017775
8507.72 0.010194
8508.35 0.008995
8508.98 0.0036542
8509.61 0.00049219
8510.24 0.0033636
8510.87 0.0059679
8511.5 0.0073363
8512.14 0.0044964
8512.77 0.0046282
8513.4 0.0077515
8514.03 0.0082252
8514.66 0.010379
8515.29 0.013199
8515.92 0.01368
8516.55 0.014408
8517.18 0.01542
8517.81 0.016242
8518.44 0.015917
8519.07 0.015511
8519.7 0.01807
8520.33 0.018951
8520.96 0.01932
8521.59 0.018377
8522.22 0.016072
8522.85 0.016602
8523.48 0.018132
8524.11 0.013485
8524.74 0.01035
8525.37 0.016078
8526.0 0.018561
8526.63 0.014272
8527.26 0.013692
8527.89 0.016241
8528.52 0.015325
8529.15 0.014001
8529.78 0.01281
8530.41 0.010664
8531.04 0.01057
8531.67 0.012729
8532.31 0.013453
8532.94 0.0098258
8533.57 0.0069135
8534.2 0.010988
8534.83 0.011482
8535.46 0.0082899
8536.09 0.0054139
8536.72 0.0039775
8537.35 0.0039134
8537.98 0.0060965
8538.61 0.0081778
8539.24 0.0094906
8539.87 0.011069
8540.5 0.0099865
8541.13 0.0095906
8541.76 0.010172
8542.39 0.0090731
8543.02 0.0093374
8543.65 0.0077336
8544.28 0.0084232
8544.91 0.009489
8545.54 0.0086966
8546.17 0.0048703
8546.8 0.00099088
8547.43 0.0061495
8548.06 0.0093811
8548.69 0.0065398
8549.32 0.0089528
8549.95 0.01364
8550.58 0.016239
8551.21 0.013183
8551.84 0.010261
8552.48 0.010695
8553.11 0.010718
8553.74 0.010144
8554.37 0.010908
8555.0 0.016897
8555.63 0.019997
8556.26 0.019168
8556.89 0.019305
8557.52 0.018431
8558.15 0.021463
8558.78 0.025329
8559.41 0.026512
8560.04 0.027749
8560.67 0.030986
8561.3 0.033198
8561.93 0.036454
8562.56 0.03854
8563.19 0.040209
8563.82 0.042581
8564.45 0.045771
8565.08 0.041669
8565.71 0.042477
8566.34 0.04535
8566.97 0.043827
8567.6 0.044098
8568.23 0.047183
8568.86 0.047529
8569.49 0.045858
8570.12 0.049131
8570.75 0.052461
8571.38 0.051681
8572.01 0.05127
8572.65 0.05063
8573.28 0.052325
8573.91 0.050036
8574.54 0.047448
8575.17 0.048283
8575.8 0.040898
8576.43 0.038517
8577.06 0.041038
8577.69 0.040574
8578.32 0.042098
8578.95 0.04079
8579.58 0.035387
8580.21 0.031844
8580.84 0.029815
8581.47 0.032778
8582.1 0.035781
8582.73 0.031097
8583.36 0.029456
8583.99 0.030105
8584.62 0.029296
8585.25 0.029373
8585.88 0.024637
8586.51 0.021687
8587.14 0.023942
8587.77 0.024306
8588.4 0.017915
8589.03 0.01945
8589.66 0.025909
8590.29 0.024242
8590.92 0.018591
8591.55 0.018142
8592.18 0.021296
8592.82 0.016947
8593.45 0.015176
8594.08 0.014464
8594.71 0.011063
8595.34 0.010598
8595.97 0.010038
8596.6 0.0093112
8597.23 0.0092191
8597.86 0.013118
8598.49 0.016272
8599.12 0.017232
8599.75 0.015764
8600.38 0.015976
8601.01 0.015679
8601.64 0.012614
8602.27 0.01265
8602.9 0.012567
8603.53 0.013934
8604.16 0.01613
8604.79 0.012515
8605.42 0.0099028
8606.05 0.010161
8606.68 0.013286
8607.31 0.015869
8607.94 0.011387
8608.57 0.010634
8609.2 0.015745
8609.83 0.014781
8610.46 0.013368
8611.09 0.014538
8611.72 0.011222
8612.35 0.0086536
8612.99 0.0096063
8613.62 0.010556
8614.25 0.011034
8614.88 0.0096108
8615.51 0.0059365
8616.14 0.0058803
8616.77 0.0089665
8617.4 0.0072798
8618.03 0.0040682
8618.66 0.010189
8619.29 0.01374
8619.92 0.0069449
8620.55 0.0086962
8621.18 0.0099902
8621.81 0.0095764
8622.44 0.0040497
8623.07 0.0043063
8623.7 0.004363
8624.33 0.00028859
8624.96 0.0035463
8625.59 0.0067685
8626.22 0.0074673
8626.85 0.0041461
8627.48 -0.0047154
8628.11 -0.00083592
8628.74 0.00022111
8629.37 -0.0012119
8630.0 0.0051318
8630.63 0.010125
8631.26 0.0031848
8631.89 0.0032459
8632.53 0.013721
8633.16 0.015747
8633.79 0.012785
8634.42 0.012009
8635.05 0.0081603
8635.68 0.0076348
8636.31 0.01239
8636.94 0.014007
8637.57 0.0092304
8638.2 0.0073271
8638.83 0.01297
8639.46 0.0087671
8640.09 0.003939
8640.72 0.0057739
8641.35 0.0030102
8641.98 0.0042086
8642.61 0.0079411
8643.24 0.0032589
8643.87 0.0051053
8644.5 0.0057444
8645.13 0.0031486
8645.76 0.0057159
8646.39 0.006481
8647.02 0.0055054
8647.65 0.0055709
8648.28 0.0067032
8648.91 0.0049315
8649.54 0.00052737
8650.17 0.0019909
8650.8 0.0080595
8651.43 0.0081789
8652.06 0.0060618
8652.7 0.010077
8653.33 0.0049854
8653.96 -0.0073068
8654.59 -0.00056347
8655.22 0.0093886
8655.85 0.0080345
8656.48 0.0036293
8657.11 0.0042234
8657.74 0.0046507
8658.37 0.0018631
8659.0 0.0038093
8659.63 0.0068704
8660.26 0.0079009
8660.89 0.0089963
8661.52 0.0085718
8662.15 0.0060175
8662.78 0.0036032
8663.41 0.002546
8664.04 0.0021754
8664.67 0.0045203
8665.3 0.012323
8665.93 0.012242
8666.56 0.0059311
8667.19 0.010071
8667.82 0.010893
8668.45 0.0077021
8669.08 0.0049226
8669.71 0.0042637
8670.34 0.007752
8670.97 0.014218
8671.6 0.009148
8672.23 0.008193
8672.87 0.0091407
8673.5 0.00075813
8674.13 -0.0025599
8674.76 -0.0010017
8675.39 0.010047
8676.02 0.017536
8676.65 0.018875
8677.28 0.021637
8677.91 0.021317
8678.54 0.018646
8679.17 0.01917
8679.8 0.026636
8680.43 0.028011
8681.06 0.023781
8681.69 0.027768
8682.32 0.031706
8682.95 0.035984
8683.58 0.039628
8684.21 0.036852
8684.84 0.032735
8685.47 0.031377
8686.1 0.031998
8686.73 0.03167
8687.36 0.031541
8687.99 0.033824
8688.62 0.036622
8689.25 0.033534
8689.88 0.031424
8690.51 0.035058
8691.14 0.038904
8691.77 0.036789
8692.4 0.033102
8693.04 0.035245
8693.67 0.035513
8694.3 0.0353
8694.93 0.03154
8695.56 0.025035
8696.19 0.025628
8696.82 0.026905
8697.45 0.025132
8698.08 0.02277
8698.71 0.02173
8699.34 0.021865
8699.97 0.02038
8700.6 0.018159
8701.23 0.02373
8701.86 0.026384
8702.49 0.020503
8703.12 0.020058
8703.75 0.020214
8704.38 0.01787
8705.01 0.014899
8705.64 0.012788
8706.27 0.01332
8706.9 0.014505
8707.53 0.013361
8708.16 0.012448
8708.79 0.017792
8709.42 0.02302
8710.05 0.018157
8710.68 0.012133
8711.31 0.012805
8711.94 0.013155
8712.57 0.012292
8713.21 0.014354
8713.84 0.014692
8714.47 0.011835
8715.1 0.011242
8715.73 0.013478
8716.36 0.014939
8716.99 0.016823
8717.62 0.015223
8718.25 0.012573
8718.88 0.016332
8719.51 0.01719
8720.14 0.013638
8720.77 0.016158
8721.4 0.017509
8722.03 0.014012
8722.66 0.015756
8723.29 0.014378
8723.92 0.0095855
8724.55 0.010993
8725.18 0.012877
8725.81 0.015842
8726.44 0.015043
8727.07 0.0095095
8727.7 0.0099368
8728.33 0.015597
8728.96 0.016578
8729.59 0.015963
8730.22 0.015299
8730.85 0.012435
8731.48 0.0096954
8732.11 0.012108
8732.74 0.015559
8733.38 0.01681
8734.01 0.01657
8734.64 0.014045
8735.27 0.010898
8735.9 0.011325
8736.53 0.013602
8737.16 0.01709
8737.79 0.017093
8738.42 0.014501
8739.05 0.012071
8739.68 0.012343
8740.31 0.015662
8740.94 0.019471
8741.57 0.022675
8742.2 0.025825
8742.83 0.030167
8743.46 0.033997
8744.09 0.03971
8744.72 0.045609
8745.35 0.048753
8745.98 0.0491
8746.61 0.050203
8747.24 0.054523
8747.87 0.0567
8748.5 0.055617
8749.13 0.051601
8749.76 0.049533
8750.39 0.053089
8751.02 0.051068
8751.65 0.043242
8752.28 0.04878
8752.91 0.049264
8753.55 0.043999
8754.18 0.043358
8754.81 0.048484
8755.44 0.051252
8756.07 0.04669
8756.7 0.0426
8757.33 0.04161
8757.96 0.031241
8758.59 0.042023
8759.22 0.040214
8759.85 0.035013
8760.48 0.042564
8761.11 0.043493
8761.74 0.050183
8762.37 0.065447
8763.0 0.068575
8763.63 0.053285
8764.26 0.036775
8764.89 0.027741
8765.52 0.017335
8766.15 0.003014
8766.78 0.0071785
8767.41 0.02534
8768.04 0.038281
8768.67 0.04966
8769.3 0.057661
8769.93 0.047575
8770.56 0.0311
8771.19 0.023608
8771.82 0.022498
8772.45 0.021246
8773.09 0.016054
8773.72 0.010547
8774.35 0.00096312
8774.98 -0.0052982
8775.61 -0.0031454
8776.24 -0.016947
8776.87 -0.026061
8777.5 -0.0043935
8778.13 0.011999
8778.76 0.014176
8779.39 0.031241
8780.02 0.046386
8780.65 0.029738
8781.28 0.016986
8781.91 0.012726
8782.54 0.0092364
8783.17 0.0065841
8783.8 0.010717
8784.43 0.0066558
8785.06 0.0054407
8785.69 0.0042311
8786.32 -0.0012494
8786.95 0.0042705
8787.58 0.0083216
8788.21 0.0070956
8788.84 -0.0032992
8789.47 -0.0076154
8790.1 -0.0036564
8790.73 0.001537
8791.36 0.0054596
8791.99 0.013302
8792.62 0.017386
8793.26 0.013557
8793.89 0.010634
8794.52 0.0064269
8795.15 6.6507e-05
8795.78 0.0016537
8796.41 0.0053996
8797.04 0.0039202
8797.67 0.0042607
8798.3 0.0048202
8798.93 0.0010159
8799.56 0.00091644
8800.19 0.0060181
8800.82 0.0049888
8801.45 0.0068537
8802.08 0.0070486
8802.71 0.0051578
8803.34 0.01056
8803.97 0.0062269
8804.6 0.0048654
8805.23 0.0069665
8805.86 0.007217
8806.49 0.0062246
8807.12 0.000516
8807.75 -0.002382
8808.38 -0.00061299
8809.01 0.00013275
8809.64 0.0015452
8810.27 -0.0010383
8810.9 0.0024767
8811.53 0.005089
8812.16 0.003588
8812.79 0.0016112
8813.43 0.00093398
8814.06 0.0018953
8814.69 0.0021461
8815.32 0.0024199
8815.95 0.0049553
8816.58 0.00062302
8817.21 0.0037564
8817.84 0.0052183
8818.47 0.0076166
8819.1 0.0018244
8819.73 0.0028387
8820.36 0.0023605
8820.99 0.00018648
8821.62 -0.0014889
8822.25 0.0030755
8822.88 0.0070218
8823.51 -0.0049097
8824.14 -0.023171
8824.77 -0.032743
8825.4 -0.059391
8826.03 -0.0518
8826.66 0.0042357
8827.29 0.012567
8827.92 0.061403
8828.55 0.12374
8829.18 0.080565
8829.81 0.035396
8830.44 0.020309
8831.07 0.0071633
8831.7 -3.0019e-05
8832.33 -0.00050436
8832.96 0.0043098
8833.6 0.0040765
8834.23 -0.0058093
8834.86 -0.00075547
8835.49 0.0063736
8836.12 -0.0041147
8836.75 0.0057931
8837.38 0.029452
8838.01 0.046261
8838.64 0.034894
8839.27 0.024571
8839.9 0.015159
8840.53 0.0089814
8841.16 0.0089239
8841.79 0.006279
8842.42 0.0053624
8843.05 0.0077289
8843.68 0.0054721
8844.31 0.0099542
8844.94 0.0081232
8845.57 0.0081038
8846.2 0.006174
8846.83 -0.0022689
8847.46 -0.0048949
8848.09 -0.0091569
8848.72 -0.0013489
8849.35 -0.00018862
8849.98 0.0078625
8850.61 0.015057
8851.24 0.021405
8851.87 0.018769
8852.5 0.017412
8853.13 0.010308
8853.77 0.0063075
8854.4 0.0086302
8855.03 0.0052241
8855.66 0.0059443
8856.29 0.0080581
8856.92 0.007483
8857.55 0.0029596
8858.18 -0.00089344
8858.81 0.0038651
8859.44 0.0052418
8860.07 0.0041717
8860.7 0.0085647
8861.33 0.012191
8861.96 0.010631
8862.59 0.0057857
8863.22 0.0051192
8863.85 0.010747
8864.48 0.0041428
8865.11 -0.0073343
8865.74 -0.0094834
8866.37 0.0095984
8867.0 0.016444
8867.63 0.018159
8868.26 0.025735
8868.89 0.036796
8869.52 0.032935
8870.15 0.022679
8870.78 0.020494
8871.41 0.014232
8872.04 0.0016083
8872.67 0.003564
8873.3 0.0076899
8873.94 0.0050861
8874.57 0.0039409
8875.2 0.0054318
8875.83 0.010029
8876.46 0.012426
8877.09 0.0049742
8877.72 0.0071585
8878.35 0.011532
8878.98 0.010112
8879.61 0.007098
8880.24 0.0043457
8880.87 0.0028901
8881.5 0.0048761
8882.13 0.00067546
8882.76 -0.0047746
8883.39 -0.02414
8884.02 -0.050606
8884.65 -0.036695
8885.28 -0.015643
8885.91 0.010249
8886.54 0.054355
8887.17 0.068996
8887.8 0.063953
8888.43 0.034244
8889.06 0.018105
8889.69 0.0049458
8890.32 0.0072625
8890.95 0.005961
8891.58 0.0026091
8892.21 0.0054942
8892.84 0.0073335
8893.47 0.00018929
8894.11 0.0004488
8894.74 4.6552e-05
8895.37 0.0043663
8896.0 0.0086269
8896.63 0.0095858
8897.26 0.0010772
8897.89 0.0054877
8898.52 0.010895
8899.15 0.0074009
8899.78 -0.00072652
8900.41 -0.0050862
8901.04 -0.017501
8901.67 -0.017774
8902.3 -0.010692
8902.93 -0.00085112
8903.56 0.0092477
8904.19 0.02561
8904.82 0.034
8905.45 0.02596
8906.08 0.016541
8906.71 0.011228
8907.34 0.0089969
8907.97 0.005034
8908.6 0.0096422
8909.23 0.014166
8909.86 0.012057
8910.49 0.0080942
8911.12 0.0055417
8911.75 0.0074644
8912.38 0.0064188
8913.01 0.0052882
8913.65 0.0043871
8914.28 0.0062284
8914.91 0.0079048
8915.54 0.0039564
8916.17 -0.00021017
8916.8 -0.018041
8917.43 -0.046174
8918.06 -0.052438
8918.69 -0.033239
8919.32 -0.016309
8919.95 0.015682
8920.58 0.049979
8921.21 0.085018
8921.84 0.067897
8922.47 0.025595
8923.1 0.021389
8923.73 0.011949
8924.36 0.0069505
8924.99 0.010163
8925.62 0.010269
8926.25 0.0049879
8926.88 0.0045429
8927.51 0.0017091
8928.14 0.0073896
8928.77 0.0096382
8929.4 0.01244
8930.03 0.014024
8930.66 0.006463
8931.29 0.0031681
8931.92 0.0067174
8932.55 0.0064589
8933.18 0.0042339
8933.82 0.007451
8934.45 0.0042801
8935.08 -0.0018851
8935.71 0.0020252
8936.34 0.0018929
8936.97 -0.00080061
8937.6 0.0040709
8938.23 0.0043297
8938.86 0.0021882
8939.49 0.0037642
8940.12 0.0031467
8940.75 -0.0044055
8941.38 -0.010604
8942.01 -0.0087428
8942.64 -0.01357
8943.27 -0.0056819
8943.9 0.017557
8944.53 0.026495
8945.16 0.031136
8945.79 0.018424
8946.42 0.0088907
8947.05 0.012738
8947.68 0.011806
8948.31 0.006358
8948.94 0.0095097
8949.57 0.0088624
8950.2 0.006191
8950.83 0.0074342
8951.46 0.0066297
8952.09 0.0054763
8952.72 0.0082327
8953.35 0.0012643
8953.99 0.00070187
8954.62 0.0065175
8955.25 -0.0013385
8955.88 -0.030458
8956.51 -0.028762
8957.14 2.7094e-05
8957.77 0.0081368
8958.4 0.018819
8959.03 0.043842
8959.66 0.05139
8960.29 0.043397
8960.92 0.030874
8961.55 0.016236
8962.18 0.0051591
8962.81 0.0036419
8963.44 0.00403
8964.07 0.0040297
8964.7 0.0056058
8965.33 0.0079354
8965.96 0.0076939
8966.59 0.0040038
8967.22 0.0039199
8967.85 0.0047955
8968.48 0.0057765
8969.11 0.0099703
8969.74 0.0094016
8970.37 0.0056037
8971.0 0.0057424
8971.63 0.0053836
8972.26 0.0026967
8972.89 0.0045574
8973.52 0.0039979
8974.16 0.002606
8974.79 0.0052118
8975.42 0.0050869
8976.05 0.0040188
8976.68 0.00097859
8977.31 0.0020479
8977.94 0.0075282
8978.57 0.0042176
8979.2 0.0044594
8979.83 0.0061088
8980.46 0.0070968
8981.09 0.0053867
8981.72 0.0047205
8982.35 0.0038034
8982.98 0.0058675
8983.61 0.007468
8984.24 0.0018836
8984.87 -0.00017748
8985.5 -0.0030498
8986.13 -0.0089712
8986.76 -0.0010458
8987.39 0.0013499
8988.02 -0.00258
8988.65 -0.0037604
8989.28 0.0089378
8989.91 0.011728
8990.54 0.0063523
8991.17 0.004429
8991.8 0.0047834
8992.43 0.0071507
8993.06 0.011628
8993.69 0.013546
8994.33 0.0079397
8994.96 0.0030853
8995.59 0.0010411
8996.22 0.0053897
8996.85 0.010649
8997.48 0.0077065
8998.11 0.0021455
8998.74 -0.013826
8999.37 -0.02375
9000.0 -0.0090736
9000.63 -0.0008301
9001.26 -0.012719
9001.89 0.010457
9002.52 0.036346
9003.15 0.037751
9003.78 0.022077
9004.41 0.017016
9005.04 0.0076338
9005.67 0.0034692
9006.3 0.011657
9006.93 0.010194
9007.56 0.0062142
9008.19 0.0072191
9008.82 0.0044753
9009.45 0.0032543
9010.08 0.0065052
9010.71 0.0019198
9011.34 0.008043
9011.97 0.010829
9012.6 0.007762
9013.23 0.0080621
9013.86 0.0059146
9014.5 0.0042634
9015.13 0.0025657
9015.76 0.0057108
9016.39 0.0062438
9017.02 0.008492
9017.65 0.00056418
9018.28 -0.0058577
9018.91 0.00017189
9019.54 0.0076693
9020.17 0.0097105
9020.8 0.0041832
9021.43 0.0062287
9022.06 0.0077715
9022.69 0.003354
9023.32 0.0044129
9023.95 0.001271
9024.58 0.0040996
9025.21 0.0069901
9025.84 0.0016625
9026.47 0.002186
9027.1 0.0038531
9027.73 0.0019201
9028.36 0.0064376
9028.99 0.0081943
9029.62 0.0048539
9030.25 0.0057101
9030.88 0.0065932
9031.51 0.004861
9032.14 0.0067199
9032.77 0.0086136
9033.4 0.0073488
9034.03 0.0094791
9034.67 0.0092027
9035.3 0.011589
9035.93 0.00016295
9036.56 0.0020334
9037.19 0.0046836
9037.82 0.017937
9038.45 0.021956
9039.08 0.013866
9039.71 0.013153
9040.34 0.01165
9040.97 0.0082468
9041.6 0.0089646
9042.23 0.010834
9042.86 0.0080243
9043.49 0.00755
9044.12 0.0089555
9044.75 0.0072668
9045.38 0.010368
9046.01 0.0076101
9046.64 0.00065827
9047.27 -0.0020403
9047.9 0.00093052
9048.53 0.002357
9049.16 0.0067419
9049.79 0.015349
9050.42 0.017458
9051.05 0.015322
9051.68 0.013287
9052.31 0.01957
9052.94 0.011165
9053.57 0.006455
9054.21 0.009766
9054.84 0.0076867
9055.47 0.0053064
9056.1 0.0042204
9056.73 0.0096998
9057.36 0.010923
9057.99 0.0047894
9058.62 0.0079313
9059.25 0.0099603
9059.88 0.0079385
9060.51 0.010798
9061.14 0.011572
9061.77 0.0079886
9062.4 0.008132
9063.03 0.004717
9063.66 0.0069925
9064.29 0.0056057
9064.92 0.0096422
9065.55 0.013402
9066.18 0.0064727
9066.81 0.0028944
9067.44 0.0037379
9068.07 0.0071406
9068.7 0.0060309
9069.33 0.0064775
9069.96 0.0077587
9070.59 0.0073559
9071.22 0.0058491
9071.85 0.0078334
9072.48 0.010434
9073.11 0.0076238
9073.74 0.0046856
9074.38 0.0058635
9075.01 0.0079883
9075.64 0.0071665
9076.27 0.0075062
9076.9 0.012025
9077.53 0.012951
9078.16 0.011579
9078.79 0.011891
9079.42 0.011058
9080.05 0.0095413
9080.68 0.0089682
9081.31 0.010189
9081.94 0.0097032
9082.57 0.0095652
9083.2 0.0061589
9083.83 0.0027789
9084.46 0.0067698
9085.09 0.010631
9085.72 0.0095409
9086.35 0.0105
9086.98 0.010708
9087.61 0.012253
9088.24 0.01038
9088.87 0.0081198
9089.5 0.0052718
9090.13 -0.00059089
9090.76 0.0019424
9091.39 0.0025623
9092.02 0.011021
9092.65 0.01989
9093.28 0.015478
9093.91 0.01849
9094.55 0.01865
9095.18 0.011407
9095.81 0.0075748
9096.44 0.0044134
9097.07 0.0056563
9097.7 0.010155
9098.33 0.012823
9098.96 0.013146
9099.59 0.0076043
9100.22 0.0015531
9100.85 0.00058785
9101.48 0.0038263
9102.11 0.0045532
9102.74 0.0050212
9103.37 0.0088676
9104.0 0.01436
9104.63 0.018037
9105.26 0.015896
9105.89 0.010822
9106.52 0.0059071
9107.15 0.0064258
9107.78 0.0070717
9108.41 0.0058238
9109.04 0.0084018
9109.67 0.0099218
9110.3 0.012607
9110.93 0.01254
9111.56 0.016628
9112.19 0.018487
9112.82 0.015584
9113.45 0.013032
9114.08 0.010605
9114.72 0.0062443
9115.35 0.01253
9115.98 0.010537
9116.61 0.012827
9117.24 0.010457
9117.87 0.0083592
9118.5 0.01387
9119.13 0.010363
9119.76 0.0089583
9120.39 0.0087032
9121.02 0.014295
9121.65 0.013174
9122.28 0.01054
9122.91 0.01151
9123.54 0.0094049
9124.17 0.0080084
9124.8 0.010859
9125.43 0.0083328
9126.06 0.0084624
9126.69 0.016821
9127.32 0.016573
9127.95 0.0078898
9128.58 0.0072256
9129.21 0.0094088
9129.84 0.010135
9130.47 0.0085652
9131.1 0.0073331
9131.73 0.012367
9132.36 0.01098
9132.99 0.0065295
9133.62 0.0087306
9134.25 0.0064955
9134.89 0.0036292
9135.52 0.0068963
9136.15 0.010594
9136.78 0.0061529
9137.41 0.0092676
9138.04 0.0087575
9138.67 0.0069446
9139.3 0.0068959
9139.93 0.010908
9140.56 0.0096864
9141.19 0.0048957
9141.82 0.011085
9142.45 0.0092448
9143.08 0.0098519
9143.71 0.0076812
9144.34 0.010116
9144.97 0.006126
9145.6 0.0042782
9146.23 0.0014216
9146.86 0.0094751
9147.49 0.014107
9148.12 0.009193
9148.75 0.0022945
9149.38 0.0044317
9150.01 0.0033481
9150.64 0.0060424
9151.27 0.0056808
9151.9 0.0063542
9152.53 0.0072296
9153.16 0.0073137
9153.79 0.012441
9154.42 0.0059536
9155.06 0.0033481
9155.69 0.0060813
9156.32 0.0084233
9156.95 0.0088965
9157.58 0.0017232
9158.21 0.0015315
9158.84 0.0075938
9159.47 0.0023865
9160.1 -0.00083767
9160.73 -0.00045164
9161.36 -0.00036903
9161.99 0.0061418
9162.62 0.0054669
9163.25 0.0042113
9163.88 0.0023283
9164.51 0.0050386
9165.14 0.0098105
9165.77 0.0039089
9166.4 0.00037548
9167.03 0.0027972
9167.66 0.0096267
9168.29 0.0091466
9168.92 0.0056084
9169.55 0.0042154
9170.18 0.0014057
9170.81 0.0045211
9171.44 0.0040378
9172.07 0.0082707
9172.7 0.0096591
9173.33 0.0060598
9173.96 0.0061511
9174.59 0.0036556
9175.23 0.0025367
9175.86 0.0033318
9176.49 0.0033505
9177.12 0.003114
9177.75 0.0024642
9178.38 0.0060771
9179.01 0.012657
9179.64 0.013692
9180.27 0.0074262
9180.9 0.0057367
9181.53 0.0087177
9182.16 0.0096064
9182.79 0.0050766
9183.42 0.0027791
9184.05 0.0039118
9184.68 0.0046421
9185.31 0.0051847
9185.94 0.0051469
9186.57 0.0053887
9187.2 0.0067858
9187.83 0.0066132
9188.46 0.0063382
9189.09 0.010084
9189.72 0.0098137
9190.35 0.0061612
9190.98 0.0067205
9191.61 0.0057318
9192.24 0.0033011
9192.87 0.0023292
9193.5 0.0050718
9194.13 0.0080789
9194.77 0.0078914
9195.4 0.0053412
9196.03 0.0039083
9196.66 0.0033638
9197.29 0.0031519
9197.92 0.0055389
9198.55 0.0097137
9199.18 0.0080274
9199.81 0.0031183
9200.44 0.0031808
9201.07 0.0067956
9201.7 0.0074705
9202.33 0.0022604
9202.96 0.0029973
9203.59 0.0082689
9204.22 0.00989
9204.85 0.0076078
9205.48 0.0054821
9206.11 0.0081382
9206.74 0.0076608
9207.37 0.0042779
9208.0 0.0037114
9208.63 0.0046186
9209.26 -0.0011321
9209.89 -0.00030168
9210.52 0.0040551
9211.15 0.0031347
9211.78 0.0028329
9212.41 0.0057808
9213.04 0.0050126
9213.67 0.0014647
9214.3 -0.00034136
9214.94 -0.0013623
9215.57 0.0068413
9216.2 0.0086476
9216.83 0.0024615
9217.46 0.012242
9218.09 0.012124
9218.72 0.007308
9219.35 0.013568
9219.98 0.012089
9220.61 0.0060434
9221.24 0.0098216
9221.87 0.0098476
9222.5 0.0084322
9223.13 0.0065494
9223.76 0.0064532
9224.39 0.0099361
9225.02 0.012162
9225.65 0.022746
9226.28 0.017245
9226.91 0.013019
9227.54 0.010266
9228.17 0.010545
9228.8 0.0063271
9229.43 0.011789
9230.06 0.014287
9230.69 0.0088173
9231.32 0.0067332
9231.95 0.01161
9232.58 0.011723
9233.21 0.013516
9233.84 0.0090701
9234.47 0.011176
9235.11 0.016964
9235.74 0.012667
9236.37 0.013837
9237.0 0.0083286
9237.63 0.0057195
9238.26 0.01142
9238.89 0.013923
9239.52 0.013332
9240.15 0.012754
9240.78 0.012719
9241.41 0.0092974
9242.04 0.0082952
9242.67 0.0090118
9243.3 0.0059938
9243.93 0.0093077
9244.56 0.013938
9245.19 0.0091889
9245.82 0.0092808
9246.45 0.01358
9247.08 0.0073959
9247.71 0.017568
9248.34 0.014871
9248.97 0.012983
9249.6 0.014052
9250.23 0.00724
9250.86 0.0055503
9251.49 0.010575
9252.12 0.0094752
9252.75 0.012042
9253.38 0.016873
9254.01 0.012253
9254.64 0.011526
9255.28 0.013718
9255.91 0.016206
9256.54 0.018196
9257.17 0.016554
9257.8 0.016843
9258.43 0.010899
9259.06 0.010742
9259.69 0.011909
9260.32 0.0077137
9260.95 0.010091
9261.58 0.014086
9262.21 0.016065
9262.84 0.018726
9263.47 0.014292
9264.1 0.0083945
9264.73 0.0099972
9265.36 0.014034
9265.99 0.0096893
9266.62 0.011864
9267.25 0.016336
9267.88 0.013136
9268.51 0.014549
9269.14 0.014722
9269.77 0.012012
9270.4 0.012409
9271.03 0.013173
9271.66 0.011877
9272.29 0.0063985
9272.92 0.0073337
9273.55 0.014298
9274.18 0.016263
9274.81 0.013425
9275.45 0.0079355
9276.08 0.011892
9276.71 0.016819
9277.34 0.013638
9277.97 0.0053328
9278.6 0.0070713
9279.23 0.01047
9279.86 0.010179
9280.49 0.010504
9281.12 0.0069231
9281.75 0.0053772
9282.38 0.005757
9283.01 0.0051767
9283.64 0.0033791
9284.27 0.0096946
9284.9 0.0078909
9285.53 0.01002
9286.16 0.011786
9286.79 0.010463
9287.42 0.011308
9288.05 0.0079338
9288.68 0.0077372
9289.31 0.016837
9289.94 0.011843
9290.57 0.0090852
9291.2 0.0065078
9291.83 0.0049655
9292.46 0.010632
9293.09 0.0097133
9293.72 0.014609
9294.35 0.019666
9294.98 0.019031
9295.62 0.013028
9296.25 0.00071736
9296.88 0.0031804
9297.51 0.0060732
9298.14 0.0018909
9298.77 0.0032738
9299.4 0.004231
9300.03 0.0067209
9300.66 0.0095437
9301.29 0.013738
9301.92 0.0074151
9302.55 0.0069637
9303.18 0.0045887
9303.81 -0.010056
9304.44 -0.011242
9305.07 -0.019641
9305.7 -0.020113
9306.33 0.004255
9306.96 0.011762
9307.59 0.05036
9308.22 0.020974
9308.85 0.049593
9309.48 0.033204
9310.11 0.0067679
9310.74 -0.031219
9311.37 -0.048008
9312.0 -0.0026627
9312.63 -0.024093
9313.26 -0.014353
9313.89 0.027038
9314.52 0.128
9315.15 0.077319
9315.79 0.028917
9316.42 0.023715
9317.05 0.022948
9317.68 0.022579
9318.31 0.014091
9318.94 0.012542
9319.57 0.013158
9320.2 -0.0025215
9320.83 -0.031217
9321.46 -0.059268
9322.09 -0.067795
9322.72 -0.036084
9323.35 -0.0030986
9323.98 0.0033072
9324.61 0.050266
9325.24 0.075944
9325.87 0.036611
9326.5 0.021887
9327.13 0.010974
9327.76 0.008045
9328.39 0.0039475
9329.02 0.0088993
9329.65 0.01902
9330.28 0.0021255
9330.91 -0.0012491
9331.54 0.010266
9332.17 0.0079626
9332.8 0.0065562
9333.43 0.01391
9334.06 0.0097311
9334.69 0.0028249
9335.33 -0.005312
9335.96 -0.0056886
9336.59 -0.0023681
9337.22 -0.0045097
9337.85 -0.0070771
9338.48 0.0053254
9339.11 0.03627
9339.74 0.034977
9340.37 0.019951
9341.0 0.015601
9341.63 0.012865
9342.26 0.0044166
9342.89 0.00076391
9343.52 0.0060767
9344.15 0.0082036
9344.78 -0.0011404
9345.41 -0.0029152
9346.04 0.0054016
9346.67 0.0080359
9347.3 7.4666e-05
9347.93 0.0015885
9348.56 0.009877
9349.19 0.0096932
9349.82 0.010466
9350.45 0.014301
9351.08 0.012844
9351.71 0.0054306
9352.34 0.0015784
9352.97 0.0016908
9353.6 -0.00020718
9354.23 0.0029792
9354.86 0.0043317
9355.5 0.0043411
9356.13 0.0056791
9356.76 0.0027354
9357.39 0.0041435
9358.02 0.0025431
9358.65 0.0014976
9359.28 0.0046273
9359.91 0.010362
9360.54 0.0098241
9361.17 0.0071139
9361.8 0.0052464
9362.43 0.0084814
9363.06 0.010069
9363.69 0.01527
9364.32 0.010859
9364.95 0.0075581
9365.58 0.008429
9366.21 0.0038684
9366.84 0.0060885
9367.47 0.0047053
9368.1 0.0068655
9368.73 0.006561
9369.36 0.0029708
9369.99 0.00014598
9370.62 -0.0081488
9371.25 -0.0053559
9371.88 -0.0026708
9372.51 -0.019859
9373.14 -0.073395
9373.77 -0.12254
9374.4 -0.097893
9375.03 -0.055169
9375.67 -0.0052943
9376.3 0.087347
9376.93 0.19426
9377.56 0.19344
9378.19 0.10938
9378.82 0.054981
9379.45 0.028267
9380.08 0.014734
9380.71 0.0094436
9381.34 0.0099195
9381.97 0.0059093
9382.6 0.0089053
9383.23 0.0094201
9383.86 0.010661
9384.49 0.015418
9385.12 0.015516
9385.75 0.0079937
9386.38 0.011337
9387.01 0.023939
9387.64 0.019809
9388.27 0.017529
9388.9 0.01747
9389.53 0.012601
9390.16 0.012066
9390.79 0.010429
9391.42 0.012949
9392.05 0.010398
9392.68 0.016174
9393.31 0.016353
9393.94 0.0096858
9394.57 0.0044013
9395.2 0.0068569
9395.84 0.013084
9396.47 0.013201
9397.1 0.010107
9397.73 0.011298
9398.36 0.011188
9398.99 -0.00040817
9399.62 -0.014461
9400.25 -0.010499
9400.88 0.0018658
9401.51 0.0080973
9402.14 0.018593
9402.77 0.020504
9403.4 0.02541
9404.03 0.033367
9404.66 0.0283
9405.29 0.016059
9405.92 0.013855
9406.55 0.016862
9407.18 0.0065812
9407.81 0.0035807
9408.44 0.009404
9409.07 0.0093509
9409.7 0.010822
9410.33 0.009282
9410.96 0.01222
9411.59 0.010634
9412.22 0.0068683
9412.85 0.0088363
9413.48 0.0057687
9414.11 0.0013697
9414.74 0.0022645
9415.37 0.010225
9416.01 0.0083017
9416.64 -0.0045425
9417.27 -0.024861
9417.9 -0.019332
9418.53 -0.0014419
9419.16 0.012553
9419.79 0.014007
9420.42 0.042693
9421.05 0.050019
9421.68 0.026767
9422.31 0.035286
9422.94 0.018416
9423.57 0.0091189
9424.2 0.0086875
9424.83 0.0078954
9425.46 0.011549
9426.09 0.015307
9426.72 0.011574
9427.35 0.010062
9427.98 0.0075611
9428.61 0.0055948
9429.24 -0.00019168
9429.87 0.0025574
9430.5 0.016024
9431.13 0.017807
9431.76 0.014128
9432.39 0.014566
9433.02 0.0057845
9433.65 0.013299
9434.28 0.018152
9434.91 0.015892
9435.54 0.011949
9436.18 -0.011279
9436.81 -0.035785
9437.44 -0.079223
9438.07 -0.048851
9438.7 -0.003506
9439.33 -0.015785
9439.96 0.062151
9440.59 0.11009
9441.22 0.10259
9441.85 0.067529
9442.48 0.047457
9443.11 0.037839
9443.74 0.025287
9444.37 0.01939
9445.0 0.016096
9445.63 0.0010299
9446.26 0.016196
9446.89 0.012603
9447.52 0.011414
9448.15 0.013634
9448.78 0.021691
9449.41 0.020919
9450.04 0.015511
9450.67 0.006104
9451.3 0.0067675
9451.93 0.0077142
9452.56 0.0075436
9453.19 0.0082654
9453.82 0.0053411
9454.45 0.0011105
9455.08 -0.0036926
9455.71 -0.011789
9456.35 -0.0085201
9456.98 -0.01143
9457.61 -0.0043662
9458.24 0.0093473
9458.87 0.031753
9459.5 0.071135
9460.13 0.070801
9460.76 0.0413
9461.39 0.030727
9462.02 0.020253
9462.65 0.011027
9463.28 0.011996
9463.91 0.0098735
9464.54 0.010776
9465.17 0.0093056
9465.8 0.0060006
9466.43 0.011787
9467.06 0.0062536
9467.69 0.0034148
9468.32 0.0022906
9468.95 0.0058621
9469.58 0.0073836
9470.21 0.0052825
9470.84 0.0029653
9471.47 -0.00018953
9472.1 0.0038231
9472.73 0.012955
9473.36 -0.00441
9473.99 -0.056158
9474.62 -0.074569
9475.25 -0.028819
9475.89 -0.038993
9476.52 -0.018832
9477.15 0.0074085
9477.78 0.079932
9478.41 0.093877
9479.04 0.052415
9479.67 0.044092
9480.3 0.02565
9480.93 0.0065592
9481.56 0.0041509
9482.19 0.0040251
9482.82 0.011993
9483.45 0.012209
9484.08 0.004292
9484.71 0.007985
9485.34 0.014687
9485.97 0.008081
9486.6 0.0034562
9487.23 0.005917
9487.86 0.0004762
9488.49 -0.0011592
9489.12 0.0021728
9489.75 0.0051635
9490.38 0.0089362
9491.01 0.0077809
9491.64 0.008216
9492.27 0.0094758
9492.9 0.0082191
9493.53 0.0015613
9494.16 0.0005853
9494.79 0.0090252
9495.42 0.006463
9496.06 0.010079
9496.69 0.010836
9497.32 0.0095162
9497.95 0.0052202
9498.58 0.0064147
9499.21 0.00035641
9499.84 -0.015144
9500.47 -0.030467
9501.1 -0.029032
9501.73 0.011627
9502.36 0.025477
9502.99 0.027975
9503.62 0.051385
9504.25 0.048971
9504.88 0.028672
9505.51 0.023033
9506.14 0.018372
9506.77 0.0081792
9507.4 0.0020777
9508.03 0.0033984
9508.66 0.0074456
9509.29 0.0096857
9509.92 0.0058998
9510.55 0.0038083
9511.18 0.00036618
9511.81 -0.0041349
9512.44 -0.0055322
9513.07 -0.0029364
9513.7 -0.0020563
9514.33 0.0043812
9514.96 0.0062115
9515.59 -0.0035518
9516.23 -0.026432
9516.86 -0.039531
9517.49 -0.036145
9518.12 -0.020895
9518.75 0.0020002
9519.38 0.011962
9520.01 0.04982
9520.64 0.080098
9521.27 0.05619
9521.9 0.035166
9522.53 0.037245
9523.16 0.030667
9523.79 0.01908
9524.42 -0.00089383
9525.05 -0.0022048
9525.68 0.0017035
9526.31 0.0065457
9526.94 0.0085551
9527.57 -0.002768
9528.2 0.0070484
9528.83 0.0066062
9529.46 0.0032763
9530.09 0.0060891
9530.72 -0.00025708
9531.35 0.0073694
9531.98 0.0098644
9532.61 0.0063141
9533.24 0.0093642
9533.87 0.00050927
9534.5 0.0079589
9535.13 0.010205
9535.76 0.0025982
9536.4 0.00078779
9537.03 0.014991
9537.66 0.012134
9538.29 0.0063078
9538.92 0.01172
9539.55 0.0077089
9540.18 -0.0037715
9540.81 0.0037161
9541.44 0.014246
9542.07 0.0073748
9542.7 0.00019135
9543.33 0.0030934
9543.96 0.003508
9544.59 -0.0028305
9545.22 0.0030701
9545.85 0.0079293
9546.48 0.004076
9547.11 0.012809
9547.74 0.0079235
9548.37 -0.0025753
9549.0 -0.00018669
9549.63 -0.0079769
9550.26 -0.014319
9550.89 -0.0054095
9551.52 0.00042315
9552.15 -0.013657
9552.78 0.011744
9553.41 0.038199
9554.04 0.038054
9554.67 0.02053
9555.3 0.010165
9555.93 0.0026196
9556.57 7.2544e-05
9557.2 0.0052592
9557.83 0.006178
9558.46 0.0026381
9559.09 0.0074228
9559.72 0.014497
9560.35 0.011267
9560.98 0.01048
9561.61 0.01134
9562.24 0.0069583
9562.87 0.0041753
9563.5 -0.0013861
9564.13 -0.0054554
9564.76 -0.024655
9565.39 -0.027797
9566.02 -0.0079643
9566.65 0.012938
9567.28 0.043291
9567.91 0.067936
9568.54 0.07365
9569.17 0.051933
9569.8 0.033811
9570.43 0.025199
9571.06 0.015198
9571.69 0.011755
9572.32 0.0057398
9572.95 0.0013168
9573.58 0.0086428
9574.21 0.016718
9574.84 0.014401
9575.47 0.0077289
9576.1 0.0028414
9576.74 0.013227
9577.37 0.011631
9578.0 0.010759
9578.63 0.010077
9579.26 0.0029475
9579.89 0.00069367
9580.52 0.0086487
9581.15 0.010697
9581.78 0.01066
9582.41 0.005533
9583.04 0.0041881
9583.67 0.0069942
9584.3 0.0031824
9584.93 0.0040845
9585.56 0.0086215
9586.19 0.0099601
9586.82 0.010541
9587.45 0.0039562
9588.08 0.0080781
9588.71 0.012595
9589.34 0.0031904
9589.97 0.0057547
9590.6 0.0019277
9591.23 0.0095258
9591.86 0.012163
9592.49 0.0042309
9593.12 0.00046173
9593.75 0.0067476
9594.38 0.01565
9595.01 0.0059407
9595.64 -0.000497
9596.27 0.001532
9596.91 0.0051833
9597.54 0.0049349
9598.17 0.0017914
9598.8 0.0039664
9599.43 0.0066859
9600.06 0.00687
9600.69 0.0060508
9601.32 0.0080326
9601.95 0.0091082
9602.58 0.0076141
9603.21 0.0097321
9603.84 0.013452
9604.47 0.005608
9605.1 -0.0081627
9605.73 -0.0094964
9606.36 0.0037629
9606.99 0.0091708
9607.62 0.0081933
9608.25 0.019525
9608.88 0.018758
9609.51 0.017183
9610.14 0.019889
9610.77 0.013604
9611.4 0.010138
9612.03 0.002823
9612.66 -0.0034257
9613.29 0.011677
9613.92 0.0093231
9614.55 0.0019458
9615.18 0.0104
9615.81 0.0090266
9616.45 0.0053782
9617.08 0.0096756
9617.71 0.0044184
9618.34 -0.012104
9618.97 -0.0095909
9619.6 0.0067178
9620.23 0.0015628
9620.86 0.01345
9621.49 0.033669
9622.12 0.028972
9622.75 0.019456
9623.38 0.01333
9624.01 0.017724
9624.64 0.011935
9625.27 0.0092725
9625.9 0.0080057
9626.53 0.013031
9627.16 0.015331
9627.79 0.0058601
9628.42 0.01109
9629.05 0.010303
9629.68 0.0081508
9630.31 0.0054892
9630.94 0.016301
9631.57 0.014996
9632.2 0.0071202
9632.83 0.0027075
9633.46 -0.0014131
9634.09 0.0097984
9634.72 0.012149
9635.35 0.0042544
9635.98 0.010595
9636.62 0.0043132
9637.25 0.0016126
9637.88 0.0075712
9638.51 0.00934
9639.14 0.0073333
9639.77 0.01778
9640.4 0.022189
9641.03 0.013392
9641.66 0.005015
9642.29 0.0056251
9642.92 0.01251
9643.55 0.012444
9644.18 0.0088813
9644.81 0.012931
9645.44 0.013389
9646.07 0.0050806
9646.7 0.014825
9647.33 0.017674
9647.96 0.008135
9648.59 0.0075286
9649.22 0.0047477
9649.85 0.0066795
9650.48 0.0069592
9651.11 0.0076848
9651.74 0.0084918
9652.37 0.0098214
9653.0 0.011382
9653.63 0.0067591
9654.26 0.0016147
9654.89 0.0059276
9655.52 0.011118
9656.15 0.010768
9656.79 0.0082023
9657.42 0.0039294
9658.05 0.00079029
9658.68 -0.0020474
9659.31 0.010877
9659.94 0.011463
9660.57 0.014028
9661.2 0.0066723
9661.83 0.0038865
9662.46 0.004549
9663.09 0.0062566
9663.72 0.016155
9664.35 0.03539
9664.98 0.048987
9665.61 0.0035001
9666.24 -0.0010883
9666.87 0.00019635
