# wavelength flux
3429.23224 9.08398e-19
3430.74918 1.60346e-18
3432.26613 2.29846e-18
3433.79312 3.12034e-18
3435.31007 3.94214e-18
3436.82701 3.82955e-18
3438.34396 3.71698e-18
3439.86091 3.44555e-18
3441.38790 3.17415e-18
3442.90484 3.67774e-18
3444.42179 4.18130e-18
3445.93874 4.29331e-18
3447.45568 4.40531e-18
3448.97263 4.91899e-18
3450.49962 5.43263e-18
3452.01657 5.85892e-18
3453.53351 6.28516e-18
3455.05046 5.49597e-18
3456.56740 4.70684e-18
3458.09440 4.59905e-18
3459.61134 4.49127e-18
3461.12829 5.05107e-18
3462.64523 5.61082e-18
3464.16218 5.80250e-18
3465.67913 5.99416e-18
3467.20612 5.33808e-18
3468.72306 4.68206e-18
3470.24001 4.96966e-18
3471.75696 5.25724e-18
3473.27390 4.53064e-18
3474.80089 3.80409e-18
3476.31784 4.47323e-18
3477.83479 5.14232e-18
3479.35173 5.11008e-18
3480.86868 5.07784e-18
3482.38562 5.51014e-18
3483.91262 5.94241e-18
3485.42956 5.95212e-18
3486.94651 5.96183e-18
3488.46345 5.63023e-18
3489.98040 5.29865e-18
3491.49735 5.34211e-18
3493.02434 5.38557e-18
3494.54128 6.03949e-18
3496.05823 6.69335e-18
3497.57518 5.98587e-18
3499.09212 5.27843e-18
3500.61911 5.18422e-18
3502.13606 5.09002e-18
3503.65301 4.60815e-18
3505.16995 4.12631e-18
3506.68690 4.22045e-18
3508.20384 4.31459e-18
3509.73084 5.75067e-18
3511.24778 7.18663e-18
3512.76473 6.83281e-18
3514.28167 6.47899e-18
3515.79862 5.84808e-18
3517.31557 5.21723e-18
3518.84256 5.23981e-18
3520.35950 5.26241e-18
3521.87645 4.80645e-18
3523.39340 4.35053e-18
3524.91034 4.03606e-18
3526.43733 3.72163e-18
3527.95428 4.41310e-18
3529.47123 5.10453e-18
3530.98817 5.44143e-18
3532.50512 5.77829e-18
3534.02206 5.26510e-18
3535.54906 4.75193e-18
3537.06600 4.50436e-18
3538.58295 4.25682e-18
3540.09989 4.24414e-18
3541.61684 4.23146e-18
3543.14383 4.78563e-18
3544.66078 5.33976e-18
3546.17772 5.37681e-18
3547.69467 5.41385e-18
3549.21162 4.92074e-18
3550.72856 4.42767e-18
3552.25555 3.83071e-18
3553.77250 3.23380e-18
3555.28945 3.62071e-18
3556.80639 4.00761e-18
3558.32334 4.20993e-18
3559.84028 4.41223e-18
3561.36728 4.51988e-18
3562.88422 4.62752e-18
3564.40117 4.72669e-18
3565.91811 4.82586e-18
3567.43506 5.00488e-18
3568.96205 5.18389e-18
3570.47900 5.28244e-18
3571.99594 5.38099e-18
3573.51289 4.70550e-18
3575.02984 4.03004e-18
3576.54678 4.44345e-18
3578.07377 4.85686e-18
3579.59072 5.31639e-18
3581.10767 5.77588e-18
3582.62461 4.74589e-18
3584.14156 3.71595e-18
3585.66855 4.55240e-18
3587.18550 5.38884e-18
3588.70244 5.48521e-18
3590.21939 5.58155e-18
3591.73633 5.39258e-18
3593.25328 5.20362e-18
3594.78027 6.05521e-18
3596.29722 6.90677e-18
3597.81416 6.67496e-18
3599.33111 6.44312e-18
3600.84806 6.54473e-18
3602.37505 6.64633e-18
3603.89199 6.09794e-18
3605.40894 5.54957e-18
3606.92589 5.53448e-18
3608.44283 5.51940e-18
3609.95978 4.74645e-18
3611.48677 3.97353e-18
3613.00372 4.21606e-18
3614.52066 4.45860e-18
3616.03761 4.59882e-18
3617.55455 4.73902e-18
3619.07150 4.65598e-18
3620.59849 4.57293e-18
3622.11544 4.42726e-18
3623.63238 4.28159e-18
3625.14933 4.16721e-18
3626.66628 4.05283e-18
3628.19327 4.10166e-18
3629.71021 4.15050e-18
3631.22716 4.40874e-18
3632.74411 4.66698e-18
3634.26105 4.88829e-18
3635.77800 5.10959e-18
3637.30499 5.00368e-18
3638.82194 4.89776e-18
3640.33888 5.12596e-18
3641.85583 5.35415e-18
3643.37277 4.39151e-18
3644.89977 3.42889e-18
3646.41671 3.72594e-18
3647.93366 4.02303e-18
3649.45060 4.49533e-18
3650.96755 4.96760e-18
3652.48450 5.08009e-18
3654.01149 5.19256e-18
3655.52843 4.98336e-18
3657.04538 4.77416e-18
3658.56233 4.51541e-18
3660.07927 4.25668e-18
3661.59622 4.40568e-18
3663.12321 4.55469e-18
3664.64016 5.14977e-18
3666.15710 5.74483e-18
3667.67405 5.12853e-18
3669.19099 4.51223e-18
3670.71799 4.18436e-18
3672.23493 3.85652e-18
3673.75188 4.00978e-18
3675.26882 4.16306e-18
3676.78577 4.32102e-18
3678.30272 4.47897e-18
3679.82971 4.49072e-18
3681.34665 4.50246e-18
3682.86360 4.58553e-18
3684.38055 4.66861e-18
3685.89749 4.14581e-18
3687.41444 3.62302e-18
3688.94143 4.28923e-18
3690.45838 4.95545e-18
3691.97532 4.91564e-18
3693.49227 4.87580e-18
3695.00921 4.94758e-18
3696.53621 5.01936e-18
3698.05315 4.45918e-18
3699.57010 3.89901e-18
3701.08704 4.41176e-18
3702.60399 4.92454e-18
3704.12094 5.55507e-18
3705.64793 6.18556e-18
3707.16487 6.49653e-18
3708.68182 6.80746e-18
3710.19877 6.31956e-18
3711.71571 5.83165e-18
3713.24270 5.83808e-18
3714.75965 5.84454e-18
3716.27660 5.58791e-18
3717.79354 5.33127e-18
3719.31049 5.36486e-18
3720.82743 5.39846e-18
3722.35443 5.51772e-18
3723.87137 5.63699e-18
3725.38832 5.95151e-18
3726.90526 6.26602e-18
3728.42221 5.71003e-18
3729.93916 5.15403e-18
3731.46615 5.71166e-18
3732.98309 6.26933e-18
3734.50004 6.59019e-18
3736.01699 6.91102e-18
3737.53393 6.81465e-18
3739.06092 6.71826e-18
3740.57787 6.90841e-18
3742.09482 7.09857e-18
3743.61176 6.41806e-18
3745.12871 5.73755e-18
3746.64565 5.21196e-18
3748.17265 4.68641e-18
3749.68959 4.70964e-18
3751.20654 4.73291e-18
3752.72348 4.41348e-18
3754.24043 4.09406e-18
3755.76742 3.91094e-18
3757.28437 3.72783e-18
3758.80131 4.33767e-18
3760.31826 4.94752e-18
3761.83521 4.75921e-18
3763.35215 4.57085e-18
3764.87914 4.63522e-18
3766.39609 4.69960e-18
3767.91304 4.06765e-18
3769.42998 3.43570e-18
3770.94693 3.04161e-18
3772.47392 2.64756e-18
3773.99087 2.68900e-18
3775.50781 2.73047e-18
3777.02476 2.65561e-18
3778.54170 2.58074e-18
3780.05865 2.23096e-18
3781.58564 1.88119e-18
3783.10259 1.78402e-18
3784.61953 1.68687e-18
3786.13648 1.84656e-18
3787.65343 2.00625e-18
3789.17037 2.05943e-18
3790.69736 2.11260e-18
3792.21431 1.82945e-18
3793.73126 1.54628e-18
3795.24820 1.69070e-18
3796.76515 1.83515e-18
3798.29214 1.72020e-18
3799.80909 1.60525e-18
3801.32603 1.24139e-18
3802.84298 8.77544e-19
3804.35992 1.66807e-18
3805.87687 2.45863e-18
3807.40386 2.21633e-18
3808.92081 1.97396e-18
3810.43775 1.49020e-18
3811.95470 1.00645e-18
3813.47165 1.42902e-18
3814.99864 1.85162e-18
3816.51558 1.83477e-18
3818.03253 1.81788e-18
3819.54948 1.62915e-18
3821.06642 1.44042e-18
3822.58337 1.89146e-18
3824.11036 2.34251e-18
3825.62731 2.25400e-18
3827.14425 2.16545e-18
3828.66120 1.80510e-18
3830.17814 1.44475e-18
3831.69509 1.50896e-18
3833.22208 1.57319e-18
3834.73903 1.79489e-18
3836.25597 2.01659e-18
3837.77292 2.08343e-18
3839.28987 2.15026e-18
3840.81686 2.19270e-18
3842.33380 2.23513e-18
3843.85075 2.27269e-18
3845.36770 2.31025e-18
3846.88464 2.33380e-18
3848.40159 2.35735e-18
3849.92858 2.23133e-18
3851.44553 2.10530e-18
3852.96247 2.58149e-18
3854.47942 3.05769e-18
3855.99636 2.95410e-18
3857.51331 2.85046e-18
3859.04030 3.02911e-18
3860.55725 3.20778e-18
3862.07419 3.04834e-18
3863.59114 2.88888e-18
3865.10809 2.74601e-18
3866.63508 2.60314e-18
3868.15202 3.14958e-18
3869.66897 3.69606e-18
3871.18592 3.75787e-18
3872.70286 3.81964e-18
3874.21981 3.77298e-18
3875.74680 3.72633e-18
3877.26375 3.81985e-18
3878.78069 3.91338e-18
3880.29764 4.04815e-18
3881.81458 4.18292e-18
3883.34158 4.38753e-18
3884.85852 4.59213e-18
3886.37547 4.95650e-18
3887.89241 5.32087e-18
3889.40936 5.58841e-18
3890.92631 5.85593e-18
3892.45330 5.61460e-18
3893.97024 5.37323e-18
3895.48719 5.64465e-18
3897.00414 5.91611e-18
3898.52108 6.39099e-18
3900.04807 6.86586e-18
3901.56502 6.56217e-18
3903.08197 6.25843e-18
3904.59891 6.31713e-18
3906.11586 6.37587e-18
3907.63280 6.77078e-18
3909.15980 7.16569e-18
3910.67674 7.48316e-18
3912.19369 7.80060e-18
3913.71063 8.25324e-18
3915.22758 8.70586e-18
3916.74453 8.77820e-18
3918.27152 8.85050e-18
3919.78846 9.27210e-18
3921.30541 9.69371e-18
3922.82236 9.94241e-18
3924.33930 1.01911e-17
3925.86629 1.01758e-17
3927.38324 1.01605e-17
3928.90019 1.05750e-17
3930.41713 1.09896e-17
3931.93408 1.11265e-17
3933.45102 1.12634e-17
3934.97802 1.21462e-17
3936.49496 1.30291e-17
3938.01191 1.30257e-17
3939.52885 1.30222e-17
3941.04580 1.29182e-17
3942.57279 1.28143e-17
3944.08974 1.30300e-17
3945.60668 1.32458e-17
3947.12363 1.31450e-17
3948.64058 1.30441e-17
3950.15752 1.32759e-17
3951.68451 1.35077e-17
3953.20146 1.35745e-17
3954.71841 1.36412e-17
3956.23535 1.41251e-17
3957.75230 1.46091e-17
3959.26924 1.51347e-17
3960.79624 1.56603e-17
3962.31318 1.61222e-17
3963.83013 1.65840e-17
3965.34707 1.66034e-17
3966.86402 1.66227e-17
3968.39101 1.68051e-17
3969.90796 1.69875e-17
3971.42490 1.65738e-17
3972.94185 1.61601e-17
3974.45880 1.69943e-17
3975.97574 1.78286e-17
3977.50273 1.79269e-17
3979.01968 1.80251e-17
3980.53663 1.78715e-17
3982.05357 1.77178e-17
3983.57052 1.76267e-17
3985.09751 1.75357e-17
3986.61446 1.74662e-17
3988.13140 1.73968e-17
3989.64835 1.76439e-17
3991.16529 1.78911e-17
3992.68224 1.83949e-17
3994.20923 1.88988e-17
3995.72618 1.90772e-17
3997.24312 1.92555e-17
3998.76007 1.91519e-17
4000.27702 1.90484e-17
4001.79396 1.89904e-17
4003.32095 1.89325e-17
4004.83790 1.87296e-17
4006.35485 1.85267e-17
4007.87179 1.88760e-17
4009.38874 1.92254e-17
4010.91573 1.99982e-17
4012.43268 2.07710e-17
4013.94962 2.07554e-17
4015.46657 2.07397e-17
4016.98351 2.08196e-17
4018.50046 2.08996e-17
4020.02745 2.09076e-17
4021.54440 2.09157e-17
4023.06134 2.10120e-17
4024.57829 2.11083e-17
4026.09524 2.11957e-17
4027.62223 2.12832e-17
4029.13917 2.09581e-17
4030.65612 2.06330e-17
4032.17307 2.11325e-17
4033.69001 2.16320e-17
4035.20696 2.19388e-17
4036.73395 2.22455e-17
4038.25090 2.18764e-17
4039.76784 2.15072e-17
4041.28479 2.13287e-17
4042.80173 2.11503e-17
4044.31868 2.11459e-17
4045.84567 2.11415e-17
4047.36262 2.15164e-17
4048.87956 2.18913e-17
4050.39651 2.17849e-17
4051.91346 2.16785e-17
4053.44045 2.16989e-17
4054.95739 2.17194e-17
4056.47434 2.23015e-17
4057.99129 2.28836e-17
4059.50823 2.23616e-17
4061.02518 2.18394e-17
4062.55217 2.18610e-17
4064.06912 2.18827e-17
4065.58606 2.15515e-17
4067.10301 2.12204e-17
4068.61995 2.13884e-17
4070.14695 2.15566e-17
4071.66389 2.11699e-17
4073.18084 2.07832e-17
4074.69778 2.03124e-17
4076.21473 1.98416e-17
4077.73168 2.06348e-17
4079.25867 2.14282e-17
4080.77561 2.17458e-17
4082.29256 2.20635e-17
4083.80951 2.12133e-17
4085.32645 2.03631e-17
4086.84340 2.03221e-17
4088.37039 2.02812e-17
4089.88734 1.98064e-17
4091.40428 1.93316e-17
4092.92123 1.95637e-17
4094.43817 1.97959e-17
4095.96517 1.97703e-17
4097.48211 1.97445e-17
4098.99906 1.92694e-17
4100.51600 1.87942e-17
4102.03295 1.85384e-17
4103.54990 1.82826e-17
4105.07689 1.80503e-17
4106.59383 1.78180e-17
4108.11078 1.73330e-17
4109.62773 1.68480e-17
4111.14467 1.69260e-17
4112.67166 1.70040e-17
4114.18861 1.69800e-17
4115.70556 1.69560e-17
4117.22250 1.70231e-17
4118.73945 1.70903e-17
4120.25639 1.62754e-17
4121.78339 1.54605e-17
4123.30033 1.51858e-17
4124.81728 1.49112e-17
4126.33422 1.47695e-17
4127.85117 1.46279e-17
4129.36812 1.46476e-17
4130.89511 1.46674e-17
4132.41205 1.43404e-17
4133.92900 1.40133e-17
4135.44595 1.45110e-17
4136.96289 1.50087e-17
4138.48988 1.47825e-17
4140.00683 1.45562e-17
4141.52378 1.39330e-17
4143.04072 1.33098e-17
4144.55767 1.33690e-17
4146.07461 1.34284e-17
4147.60161 1.30191e-17
4149.11855 1.26098e-17
4150.63550 1.28901e-17
4152.15244 1.31704e-17
4153.66939 1.31574e-17
4155.19638 1.31442e-17
4156.71333 1.29245e-17
4158.23027 1.27047e-17
4159.74722 1.29260e-17
4161.26417 1.31473e-17
4162.78111 1.29641e-17
4164.30810 1.27809e-17
4165.82505 1.33136e-17
4167.34200 1.38463e-17
4168.85894 1.34590e-17
4170.37589 1.30715e-17
4171.89283 1.26968e-17
4173.41983 1.23222e-17
4174.93677 1.22881e-17
4176.45372 1.22540e-17
4177.97066 1.22627e-17
4179.48761 1.22715e-17
4181.01460 1.24482e-17
4182.53155 1.26248e-17
4184.04849 1.24666e-17
4185.56544 1.23083e-17
4187.08239 1.22221e-17
4188.59933 1.21358e-17
4190.12632 1.21466e-17
4191.64327 1.21574e-17
4193.16022 1.15831e-17
4194.67716 1.10088e-17
4196.19411 1.14067e-17
4197.72110 1.18047e-17
4199.23805 1.20029e-17
4200.75499 1.22011e-17
4202.27194 1.22456e-17
4203.78888 1.22901e-17
4205.30583 1.23706e-17
4206.83282 1.24510e-17
4208.34977 1.21749e-17
4209.86671 1.18987e-17
4211.38366 1.20037e-17
4212.90061 1.21087e-17
4214.41755 1.24367e-17
4215.94454 1.27648e-17
4217.46149 1.24845e-17
4218.97844 1.22041e-17
4220.49538 1.22430e-17
4222.01233 1.22819e-17
4223.53932 1.20586e-17
4225.05627 1.18352e-17
4226.57321 1.16310e-17
4228.09016 1.14269e-17
4229.60710 1.15151e-17
4231.12405 1.16032e-17
4232.65104 1.12840e-17
4234.16799 1.09646e-17
4235.68493 1.11957e-17
4237.20188 1.14269e-17
4238.71883 1.12989e-17
4240.24582 1.11708e-17
4241.76276 1.09816e-17
4243.27971 1.07923e-17
4244.79666 1.07699e-17
4246.31360 1.07475e-17
4247.83055 1.06805e-17
4249.35754 1.06134e-17
4250.87449 1.02508e-17
4252.39143 9.88812e-18
4253.90838 1.01380e-17
4255.42532 1.03879e-17
4256.95232 1.02786e-17
4258.46926 1.01693e-17
4259.98621 1.02307e-17
4261.50315 1.02921e-17
4263.02010 1.05080e-17
4264.53705 1.07239e-17
4266.06404 1.08505e-17
4267.58098 1.09771e-17
4269.09793 1.11169e-17
4270.61488 1.12566e-17
4272.13182 1.09791e-17
4273.64877 1.07015e-17
4275.17576 1.04269e-17
4276.69271 1.01523e-17
4278.20965 1.05242e-17
4279.72660 1.08963e-17
4281.24354 1.11375e-17
4282.77054 1.13787e-17
4284.28748 1.14177e-17
4285.80443 1.14566e-17
4287.32137 1.12365e-17
4288.83832 1.10163e-17
4290.35527 1.09083e-17
4291.88226 1.08004e-17
4293.39920 1.09219e-17
4294.91615 1.10434e-17
4296.43310 1.12207e-17
4297.95004 1.13979e-17
4299.47703 1.14553e-17
4300.99398 1.15127e-17
4302.51093 1.14179e-17
4304.02787 1.13231e-17
4305.54482 1.12826e-17
4307.06176 1.12420e-17
4308.58876 1.12841e-17
4310.10570 1.13263e-17
4311.62265 1.11410e-17
4313.13959 1.09558e-17
4314.65654 1.10766e-17
4316.17349 1.11974e-17
4317.70048 1.09508e-17
4319.21742 1.07042e-17
4320.73437 1.05642e-17
4322.25132 1.04241e-17
4323.76826 1.04396e-17
4325.28521 1.04551e-17
4326.81220 1.05408e-17
4328.32915 1.06266e-17
4329.84609 1.08924e-17
4331.36304 1.11583e-17
4332.87998 1.08376e-17
4334.40698 1.05169e-17
4335.92392 1.05072e-17
4337.44087 1.04976e-17
4338.95781 1.04836e-17
4340.47476 1.04696e-17
4341.99171 1.03037e-17
4343.51870 1.01378e-17
4345.03564 1.01480e-17
4346.55259 1.01582e-17
4348.06954 1.00483e-17
4349.58648 9.93841e-18
4351.11347 1.00169e-17
4352.63042 1.00954e-17
4354.14737 1.02058e-17
4355.66431 1.03162e-17
4357.18126 1.00658e-17
4358.69820 9.81542e-18
4360.22520 9.83532e-18
4361.74214 9.85528e-18
4363.25909 9.80564e-18
4364.77603 9.75599e-18
4366.29298 9.51198e-18
4367.81997 9.26795e-18
4369.33692 9.36510e-18
4370.85386 9.46231e-18
4372.37081 9.25305e-18
4373.88776 9.04375e-18
4375.40470 8.74523e-18
4376.93169 8.44671e-18
4378.44864 9.06102e-18
4379.96559 9.67546e-18
4381.48253 9.67875e-18
4382.99948 9.68193e-18
4384.51642 9.31139e-18
4386.04342 8.94079e-18
4387.56036 8.75076e-18
4389.07731 8.56077e-18
4390.59425 8.53310e-18
4392.11120 8.50547e-18
4393.63819 8.98153e-18
4395.15514 9.45767e-18
4396.67208 9.12453e-18
4398.18903 8.79125e-18
4399.70598 8.97073e-18
4401.22292 9.15029e-18
4402.74991 9.66245e-18
4404.26686 1.01746e-17
4405.78381 9.96201e-18
4407.30075 9.74925e-18
4408.81770 9.82428e-18
4410.34469 9.89936e-18
4411.86164 1.00524e-17
4413.37858 1.02054e-17
4414.89553 1.01433e-17
4416.41247 1.00812e-17
4417.92942 1.00509e-17
4419.45641 1.00206e-17
4420.97336 9.91851e-18
4422.49030 9.81644e-18
4424.00725 1.00397e-17
4425.52420 1.02631e-17
4427.04114 1.00783e-17
4428.56813 9.89346e-18
4430.08508 1.03072e-17
4431.60203 1.07210e-17
4433.11897 1.04208e-17
4434.63592 1.01204e-17
4436.16291 9.93492e-18
4437.67986 9.74943e-18
4439.19680 9.53062e-18
4440.71375 9.31181e-18
4442.23069 9.34565e-18
4443.74764 9.37954e-18
4445.27463 9.59866e-18
4446.79158 9.81780e-18
4448.30852 9.81941e-18
4449.82547 9.82098e-18
4451.34242 9.54082e-18
4452.86941 9.26062e-18
4454.38635 9.28460e-18
4455.90330 9.30863e-18
4457.42025 9.39651e-18
4458.93719 9.48439e-18
4460.45414 9.37774e-18
4461.98113 9.27107e-18
4463.49808 9.02475e-18
4465.01502 8.77842e-18
4466.53197 9.06370e-18
4468.04891 9.34907e-18
4469.56586 9.54778e-18
4471.09285 9.74646e-18
4472.60980 9.48298e-18
4474.12674 9.21942e-18
4475.64369 9.10764e-18
4477.16064 8.99590e-18
4478.68763 9.03685e-18
4480.20457 9.07782e-18
4481.72152 8.73347e-18
4483.23847 8.38905e-18
4484.75541 8.51496e-18
4486.27236 8.64096e-18
4487.79935 9.04738e-18
4489.31630 9.45384e-18
4490.83324 9.32684e-18
4492.35019 9.19973e-18
4493.86713 8.97891e-18
4495.39413 8.75807e-18
4496.91107 8.99562e-18
4498.42802 9.23324e-18
4499.94496 9.37900e-18
4501.46191 9.52474e-18
4502.97886 9.50223e-18
4504.50585 9.47969e-18
4506.02279 9.53303e-18
4507.53974 9.58639e-18
4509.05669 9.80972e-18
4510.57363 1.00331e-17
4512.09058 9.94997e-18
4513.61757 9.86682e-18
4515.13452 9.82806e-18
4516.65146 9.78932e-18
4518.16841 1.00865e-17
4519.68535 1.03838e-17
4521.21235 1.07204e-17
4522.72929 1.10569e-17
4524.24624 1.05519e-17
4525.76318 1.00467e-17
4527.28013 1.03899e-17
4528.79708 1.07334e-17
4530.32407 1.12670e-17
4531.84101 1.18006e-17
4533.35796 1.19498e-17
4534.87491 1.20990e-17
4536.39185 1.19678e-17
4537.91884 1.18366e-17
4539.43579 1.17906e-17
4540.95274 1.17446e-17
4542.46968 1.20640e-17
4543.98663 1.23835e-17
4545.50357 1.28519e-17
4547.03057 1.33204e-17
4548.54751 1.33459e-17
4550.06446 1.33713e-17
4551.58140 1.31844e-17
4553.09835 1.29976e-17
4554.62534 1.36763e-17
4556.14229 1.43553e-17
4557.65923 1.44135e-17
4559.17618 1.44716e-17
4560.69313 1.42806e-17
4562.21007 1.40897e-17
4563.73706 1.42194e-17
4565.25401 1.43493e-17
4566.77096 1.46615e-17
4568.28790 1.49737e-17
4569.80485 1.48862e-17
4571.32179 1.47986e-17
4572.84879 1.50418e-17
4574.36573 1.52851e-17
4575.88268 1.55054e-17
4577.39962 1.57256e-17
4578.91657 1.58204e-17
4580.44356 1.59151e-17
4581.96051 1.62426e-17
4583.47745 1.65701e-17
4584.99440 1.64124e-17
4586.51135 1.62547e-17
4588.02829 1.64924e-17
4589.55528 1.67302e-17
4591.07223 1.64989e-17
4592.58918 1.62676e-17
4594.10612 1.65035e-17
4595.62307 1.67395e-17
4597.15006 1.68382e-17
4598.66701 1.69369e-17
4600.18395 1.67935e-17
4601.70090 1.66501e-17
4603.21784 1.67921e-17
4604.73479 1.69342e-17
4606.26178 1.71463e-17
4607.77873 1.73585e-17
4609.29567 1.71456e-17
4610.81262 1.69326e-17
4612.32957 1.72122e-17
4613.84651 1.74919e-17
4615.37350 1.76667e-17
4616.89045 1.78415e-17
4618.40740 1.85711e-17
4619.92434 1.93008e-17
4621.44129 1.90150e-17
4622.96828 1.87290e-17
4624.48523 1.84271e-17
4626.00217 1.81253e-17
4627.51912 1.85256e-17
4629.03606 1.89260e-17
4630.55301 1.88163e-17
4632.08000 1.87064e-17
4633.59695 1.86746e-17
4635.11389 1.86427e-17
4636.63084 1.86191e-17
4638.14779 1.85955e-17
4639.67478 1.81372e-17
4641.19172 1.76788e-17
4642.70867 1.81249e-17
4644.22562 1.85711e-17
4645.74256 1.86972e-17
4647.25951 1.88232e-17
4648.78650 1.89608e-17
4650.30345 1.90984e-17
4651.82039 1.94892e-17
4653.33734 1.98801e-17
4654.85428 1.99108e-17
4656.37123 1.99415e-17
4657.89822 2.04819e-17
4659.41517 2.10224e-17
4660.93211 2.08450e-17
4662.44906 2.06673e-17
4663.96601 2.08465e-17
4665.48295 2.10258e-17
4667.00994 2.12357e-17
4668.52689 2.14456e-17
4670.04384 2.15148e-17
4671.56078 2.15840e-17
4673.07773 2.17806e-17
4674.60472 2.19773e-17
4676.12167 2.16021e-17
4677.63861 2.12267e-17
4679.15556 2.07785e-17
4680.67250 2.03303e-17
4682.18945 2.07862e-17
4683.71644 2.12424e-17
4685.23339 2.10614e-17
4686.75033 2.08803e-17
4688.26728 2.12148e-17
4689.78423 2.15494e-17
4691.31122 2.11879e-17
4692.82816 2.08263e-17
4694.34511 2.08498e-17
4695.86206 2.08734e-17
4697.37900 2.09894e-17
4698.89595 2.11055e-17
4700.42294 2.10493e-17
4701.93989 2.09930e-17
4703.45683 2.08440e-17
4704.97378 2.06949e-17
4706.49072 2.05280e-17
4708.01772 2.03612e-17
4709.53466 2.07963e-17
4711.05161 2.12316e-17
4712.56855 2.09559e-17
4714.08550 2.06800e-17
4715.60245 2.04046e-17
4717.12944 2.01291e-17
4718.64638 2.04090e-17
4720.16333 2.06890e-17
4721.68028 2.08176e-17
4723.19722 2.09462e-17
4724.71417 2.07896e-17
4726.24116 2.06329e-17
4727.75811 2.06330e-17
4729.27505 2.06330e-17
4730.79200 2.07294e-17
4732.30894 2.08257e-17
4733.83594 2.05780e-17
4735.35288 2.03301e-17
4736.86983 2.05089e-17
4738.38677 2.06878e-17
4739.90372 2.03059e-17
4741.42067 1.99238e-17
4742.94766 1.98285e-17
4744.46460 1.97332e-17
4745.98155 1.92685e-17
4747.49850 1.88037e-17
4749.01544 1.89578e-17
4750.54243 1.91121e-17
4752.05938 1.92169e-17
4753.57633 1.93217e-17
4755.09327 1.90392e-17
4756.61022 1.87567e-17
4758.12716 1.88616e-17
4759.65416 1.89666e-17
4761.17110 1.90272e-17
4762.68805 1.90878e-17
4764.20499 1.92193e-17
4765.72194 1.93507e-17
4767.24893 1.92581e-17
4768.76588 1.91655e-17
4770.28282 1.88812e-17
4771.79977 1.85968e-17
4773.31672 1.84762e-17
4774.83366 1.83557e-17
4776.36065 1.81601e-17
4777.87760 1.79645e-17
4779.39455 1.78979e-17
4780.91149 1.78314e-17
4782.42844 1.74186e-17
4783.94538 1.70058e-17
4785.47238 1.70837e-17
4786.98932 1.71618e-17
4788.50627 1.70339e-17
4790.02321 1.69060e-17
4791.54016 1.69147e-17
4793.06715 1.69234e-17
4794.58410 1.65524e-17
4796.10104 1.61812e-17
4797.61799 1.61131e-17
4799.13494 1.60451e-17
4800.65188 1.58724e-17
4802.17887 1.56997e-17
4803.69582 1.56236e-17
4805.21277 1.55476e-17
4806.72971 1.53011e-17
4808.24666 1.50545e-17
4809.77365 1.50766e-17
4811.29060 1.50987e-17
4812.80754 1.47844e-17
4814.32449 1.44700e-17
4815.84143 1.40536e-17
4817.35838 1.36372e-17
4818.88537 1.36073e-17
4820.40232 1.35776e-17
4821.91926 1.33300e-17
4823.43621 1.30824e-17
4824.95316 1.26635e-17
4826.48015 1.22446e-17
4827.99709 1.22027e-17
4829.51404 1.21609e-17
4831.03099 1.20295e-17
4832.54793 1.18980e-17
4834.06488 1.14493e-17
4835.59187 1.10005e-17
4837.10882 1.07933e-17
4838.62576 1.05863e-17
4840.14271 1.05779e-17
4841.65965 1.05695e-17
4843.17660 1.01471e-17
4844.70359 9.72467e-18
4846.22054 9.44047e-18
4847.73748 9.15632e-18
4849.25443 9.02124e-18
4850.77138 8.88621e-18
4852.28832 8.75430e-18
4853.81531 8.62240e-18
4855.33226 8.53578e-18
4856.84921 8.44918e-18
4858.36615 8.52170e-18
4859.88310 8.59425e-18
4861.41009 8.32988e-18
4862.92704 8.06543e-18
4864.44398 8.16049e-18
4865.96093 8.25565e-18
4867.47787 8.00129e-18
4868.99482 7.74684e-18
4870.52181 7.77674e-18
4872.03876 7.80671e-18
4873.55570 7.81002e-18
4875.07265 7.81332e-18
4876.58960 7.64064e-18
4878.11659 7.46793e-18
4879.63353 7.82223e-18
4881.15048 8.17666e-18
4882.66743 8.15988e-18
4884.18437 8.14300e-18
4885.70132 8.10161e-18
4887.22831 8.06022e-18
4888.74526 8.00338e-18
4890.26220 7.94653e-18
4891.77915 8.04847e-18
4893.29609 8.15045e-18
4894.82309 8.25225e-18
4896.34003 8.35404e-18
4897.85698 8.33928e-18
4899.37392 8.32449e-18
4900.89087 8.50354e-18
4902.40782 8.68263e-18
4903.93481 8.87057e-18
4905.45175 9.05851e-18
4906.96870 9.11847e-18
4908.48565 9.17840e-18
4910.00259 9.51781e-18
4911.51954 9.85728e-18
4913.04653 9.99175e-18
4914.56348 1.01262e-17
4916.08042 9.98054e-18
4917.59737 9.83484e-18
4919.11431 1.00297e-17
4920.64131 1.02247e-17
4922.15825 1.03216e-17
4923.67520 1.04185e-17
4925.19214 1.02355e-17
4926.70909 1.00525e-17
4928.22604 1.00129e-17
4929.75303 9.97346e-18
4931.26997 1.00701e-17
4932.78692 1.01667e-17
4934.30387 9.97687e-18
4935.82081 9.78694e-18
4937.34780 1.00143e-17
4938.86475 1.02417e-17
4940.38170 1.04218e-17
4941.89864 1.06018e-17
4943.41559 1.04314e-17
4944.93253 1.02609e-17
4946.45953 1.05946e-17
4947.97647 1.09284e-17
4949.49342 1.09451e-17
4951.01036 1.09617e-17
4952.52731 1.07316e-17
4954.04426 1.05014e-17
4955.57125 1.06163e-17
4957.08819 1.07313e-17
4958.60514 1.10270e-17
4960.12209 1.13228e-17
4961.63903 1.16534e-17
4963.16602 1.19841e-17
4964.68297 1.22346e-17
4966.19992 1.24850e-17
4967.71686 1.25298e-17
4969.23381 1.25746e-17
4970.75075 1.30177e-17
4972.27775 1.34610e-17
4973.79469 1.36754e-17
4975.31164 1.38896e-17
4976.82858 1.43775e-17
4978.34553 1.48654e-17
4979.87252 1.51574e-17
4981.38947 1.54493e-17
4982.90641 1.55615e-17
4984.42336 1.56736e-17
4985.94031 1.59539e-17
4987.45725 1.62343e-17
4988.98424 1.67618e-17
4990.50119 1.72894e-17
4992.01814 1.73985e-17
4993.53508 1.75075e-17
4995.05203 1.80845e-17
4996.56897 1.86617e-17
4998.09597 1.90309e-17
4999.61291 1.94000e-17
5001.12986 1.96336e-17
5002.64680 1.98672e-17
5004.16375 2.01792e-17
5005.69074 2.04911e-17
5007.20769 2.07352e-17
5008.72463 2.09792e-17
5010.24158 2.12821e-17
5011.75853 2.15850e-17
5013.27547 2.18677e-17
5014.80246 2.21503e-17
5016.31941 2.21737e-17
5017.83636 2.21971e-17
5019.35330 2.24216e-17
5020.87025 2.26462e-17
5022.39724 2.28950e-17
5023.91419 2.31437e-17
5025.43113 2.38857e-17
5026.94808 2.46277e-17
5028.46502 2.47984e-17
5029.98197 2.49690e-17
5031.50896 2.44826e-17
5033.02591 2.39961e-17
5034.54285 2.39127e-17
5036.05980 2.38296e-17
5037.57675 2.37772e-17
5039.09369 2.37248e-17
5040.62068 2.31912e-17
5042.13763 2.26575e-17
5043.65458 2.27463e-17
5045.17152 2.28354e-17
5046.68847 2.27141e-17
5048.21546 2.25927e-17
5049.73241 2.24207e-17
5051.24935 2.22486e-17
5052.76630 2.21835e-17
5054.28324 2.21184e-17
5055.80019 2.17032e-17
5057.32718 2.12880e-17
5058.84413 2.11604e-17
5060.36107 2.10330e-17
5061.87802 2.07687e-17
5063.39497 2.05043e-17
5064.92196 2.04620e-17
5066.43890 2.04198e-17
5067.95585 1.97925e-17
5069.47280 1.91649e-17
5070.98974 1.84833e-17
5072.50669 1.78017e-17
5074.03368 1.73934e-17
5075.55063 1.69852e-17
5077.06757 1.65505e-17
5078.58452 1.61159e-17
5080.10146 1.58172e-17
5081.61841 1.55186e-17
5083.14540 1.51011e-17
5084.66235 1.46836e-17
5086.17929 1.42555e-17
5087.69624 1.38274e-17
5089.21319 1.36629e-17
5090.74018 1.34984e-17
5092.25712 1.34433e-17
5093.77407 1.33882e-17
5095.29102 1.32881e-17
5096.80796 1.31880e-17
5098.32491 1.31441e-17
5099.85190 1.31003e-17
5101.36885 1.27989e-17
5102.88579 1.24975e-17
5104.40274 1.28431e-17
5105.91968 1.31889e-17
5107.44668 1.31370e-17
5108.96362 1.30849e-17
5110.48057 1.26986e-17
5111.99751 1.23123e-17
5113.51446 1.25412e-17
5115.03141 1.27703e-17
5116.55840 1.28127e-17
5118.07534 1.28550e-17
5119.59229 1.27987e-17
5121.10924 1.27424e-17
5122.62618 1.28553e-17
5124.15317 1.29683e-17
5125.67012 1.29415e-17
5127.18707 1.29147e-17
5128.70401 1.28034e-17
5130.22096 1.26921e-17
5131.73790 1.29871e-17
5133.26490 1.32822e-17
5134.78184 1.35987e-17
5136.29879 1.39153e-17
5137.81573 1.40858e-17
5139.33268 1.42563e-17
5140.84963 1.43086e-17
5142.37662 1.43609e-17
5143.89356 1.44518e-17
5145.41051 1.45427e-17
5146.92746 1.45956e-17
5148.44440 1.46485e-17
5149.97139 1.50540e-17
5151.48834 1.54596e-17
5153.00529 1.52643e-17
5154.52223 1.50687e-17
5156.03918 1.50629e-17
5157.55612 1.50572e-17
5159.08312 1.51711e-17
5160.60006 1.52851e-17
5162.11701 1.53899e-17
5163.63395 1.54946e-17
5165.15090 1.55430e-17
5166.67789 1.55915e-17
5168.19484 1.55184e-17
5169.71178 1.54452e-17
5171.22873 1.58670e-17
5172.74568 1.62889e-17
5174.26262 1.62236e-17
5175.78961 1.61582e-17
5177.30656 1.59778e-17
5178.82351 1.57973e-17
5180.34045 1.56977e-17
5181.85740 1.55982e-17
5183.37434 1.58066e-17
5184.90134 1.60151e-17
5186.41828 1.61192e-17
5187.93523 1.62234e-17
5189.45217 1.62144e-17
5190.96912 1.62055e-17
5192.48607 1.61283e-17
5194.01306 1.60512e-17
5195.53000 1.60880e-17
5197.04695 1.61248e-17
5198.56390 1.62060e-17
5200.08084 1.62873e-17
5201.60783 1.63441e-17
5203.12478 1.64010e-17
5204.64173 1.59873e-17
5206.15867 1.55734e-17
5207.67562 1.59445e-17
5209.19256 1.63159e-17
5210.71956 1.60507e-17
5212.23650 1.57853e-17
5213.75345 1.61721e-17
5215.27039 1.65591e-17
5216.78734 1.64656e-17
5218.31433 1.63720e-17
5219.83128 1.60878e-17
5221.34822 1.58036e-17
5222.86517 1.58909e-17
5224.38212 1.59783e-17
5225.89906 1.56120e-17
5227.42605 1.52457e-17
5228.94300 1.52281e-17
5230.45995 1.52107e-17
5231.97689 1.52321e-17
5233.49384 1.52536e-17
5235.02083 1.52387e-17
5236.53778 1.52239e-17
5238.05472 1.51226e-17
5239.57167 1.50214e-17
5241.08861 1.47463e-17
5242.60556 1.44712e-17
5244.13255 1.43033e-17
5245.64950 1.41355e-17
5247.16644 1.40858e-17
5248.68339 1.40362e-17
5250.20034 1.41051e-17
5251.71728 1.41742e-17
5253.24427 1.42541e-17
5254.76122 1.43340e-17
5256.27817 1.42169e-17
5257.79511 1.40996e-17
5259.31206 1.41036e-17
5260.83905 1.41075e-17
5262.35600 1.39924e-17
5263.87294 1.38772e-17
5265.38989 1.42549e-17
5266.90683 1.46329e-17
5268.42378 1.48211e-17
5269.95077 1.50093e-17
5271.46772 1.51922e-17
5272.98466 1.53751e-17
5274.50161 1.53122e-17
5276.01856 1.52492e-17
5277.54555 1.53030e-17
5279.06249 1.53569e-17
5280.57944 1.53257e-17
5282.09639 1.52945e-17
5283.61333 1.53667e-17
5285.13028 1.54390e-17
5286.65727 1.54873e-17
5288.17422 1.55356e-17
5289.69116 1.58287e-17
5291.20811 1.61220e-17
5292.72505 1.59771e-17
5294.24200 1.58321e-17
5295.76899 1.57696e-17
5297.28594 1.57070e-17
5298.80288 1.60824e-17
5300.31983 1.64579e-17
5301.83678 1.64251e-17
5303.36377 1.63921e-17
5304.88071 1.66256e-17
5306.39766 1.68592e-17
5307.91461 1.71495e-17
5309.43155 1.74397e-17
5310.94850 1.73827e-17
5312.47549 1.73255e-17
5313.99244 1.75958e-17
5315.50938 1.78662e-17
5317.02633 1.81277e-17
5318.54327 1.83891e-17
5320.07027 1.84722e-17
5321.58721 1.85553e-17
5323.10416 1.85409e-17
5324.62110 1.85264e-17
5326.13805 1.86383e-17
5327.65500 1.87503e-17
5329.18199 1.87281e-17
5330.69893 1.87060e-17
5332.21588 1.88167e-17
5333.73283 1.89274e-17
5335.24977 1.89127e-17
5336.76672 1.88980e-17
5338.29371 1.88877e-17
5339.81066 1.88774e-17
5341.32760 1.89147e-17
5342.84455 1.89520e-17
5344.36149 1.91198e-17
5345.88849 1.92876e-17
5347.40543 1.94321e-17
5348.92238 1.95766e-17
5350.43932 1.96291e-17
5351.95627 1.96816e-17
5353.47322 1.96390e-17
5355.00021 1.95964e-17
5356.51715 1.96862e-17
5358.03410 1.97760e-17
5359.55105 1.96236e-17
5361.06799 1.94712e-17
5362.59498 1.99469e-17
5364.11193 2.04228e-17
5365.62888 2.04386e-17
5367.14582 2.04542e-17
5368.66277 2.04699e-17
5370.17971 2.04856e-17
5371.70671 2.05322e-17
5373.22365 2.05788e-17
5374.74060 2.04455e-17
5376.25754 2.03122e-17
5377.77449 2.04023e-17
5379.29144 2.04925e-17
5380.81843 2.07487e-17
5382.33537 2.10050e-17
5383.85232 2.09208e-17
5385.36927 2.08365e-17
5386.88621 2.07533e-17
5388.41320 2.06701e-17
5389.93015 2.07171e-17
5391.44710 2.07642e-17
5392.96404 2.08054e-17
5394.48099 2.08466e-17
5395.99793 2.04664e-17
5397.52493 2.00861e-17
5399.04187 2.01259e-17
5400.55882 2.01660e-17
5402.07576 2.00192e-17
5403.59271 1.98723e-17
5405.11970 2.01806e-17
5406.63665 2.04891e-17
5408.15359 2.05102e-17
5409.67054 2.05312e-17
5411.18749 2.02403e-17
5412.70443 1.99493e-17
5414.23142 2.01017e-17
5415.74837 2.02543e-17
5417.26532 2.00944e-17
5418.78226 1.99343e-17
5420.29921 2.01815e-17
5421.82620 2.04287e-17
5423.34315 2.03940e-17
5424.86009 2.03591e-17
5426.37704 2.03655e-17
5427.89398 2.03719e-17
5429.41093 1.97599e-17
5430.93792 1.91476e-17
5432.45487 1.93602e-17
5433.97181 1.95732e-17
5435.48876 1.93843e-17
5437.00571 1.91954e-17
5438.52265 1.88988e-17
5440.04964 1.86021e-17
5441.56659 1.86093e-17
5443.08354 1.86166e-17
5444.60048 1.87183e-17
5446.11743 1.88200e-17
5447.64442 1.85755e-17
5449.16137 1.83309e-17
5450.67831 1.84203e-17
5452.19526 1.85098e-17
5453.71220 1.85604e-17
5455.22915 1.86109e-17
5456.75614 1.84647e-17
5458.27309 1.83183e-17
5459.79003 1.81890e-17
5461.30698 1.80596e-17
5462.82393 1.81073e-17
5464.35092 1.81551e-17
5465.86786 1.80842e-17
5467.38481 1.80133e-17
5468.90176 1.83799e-17
5470.41870 1.87466e-17
5471.93565 1.87134e-17
5473.46264 1.86800e-17
5474.97959 1.82416e-17
5476.49653 1.78030e-17
5478.01348 1.79116e-17
5479.53042 1.80204e-17
5481.04737 1.79238e-17
5482.57436 1.78271e-17
5484.09131 1.79488e-17
5485.60825 1.80705e-17
5487.12520 1.82498e-17
5488.64215 1.84291e-17
5490.16914 1.83344e-17
5491.68608 1.82396e-17
5493.20303 1.79065e-17
5494.71998 1.75733e-17
5496.23692 1.76835e-17
5497.75387 1.77939e-17
5499.28086 1.78432e-17
5500.79781 1.78924e-17
5502.31475 1.76838e-17
5503.83170 1.74752e-17
5505.34864 1.76458e-17
5506.87564 1.78166e-17
5508.39258 1.79616e-17
5509.90953 1.81066e-17
5511.42647 1.82320e-17
5512.94342 1.83574e-17
5514.46037 1.84117e-17
5515.98736 1.84659e-17
5517.50430 1.87653e-17
5519.02125 1.90648e-17
5520.53820 1.90658e-17
5522.05514 1.90666e-17
5523.57209 1.91534e-17
5525.09908 1.92402e-17
5526.61603 1.92770e-17
5528.13297 1.93138e-17
5529.64992 1.92028e-17
5531.16686 1.90918e-17
5532.68381 1.91084e-17
5534.21080 1.91251e-17
5535.72775 1.94342e-17
5537.24469 1.97434e-17
5538.76164 1.98959e-17
5540.27859 2.00483e-17
5541.80558 2.00245e-17
5543.32252 2.00006e-17
5544.83947 1.98962e-17
5546.35642 1.97917e-17
5547.87336 1.98086e-17
5549.39031 1.98256e-17
5550.91730 1.98483e-17
5552.43425 1.98710e-17
5553.95119 2.01279e-17
5555.46814 2.03849e-17
5556.98508 1.99614e-17
5558.51208 1.95376e-17
5560.02902 1.97100e-17
5561.54597 1.98827e-17
5563.06291 1.98522e-17
5564.57986 1.98217e-17
5566.09681 1.98047e-17
5567.62380 1.97877e-17
5569.14074 1.94886e-17
5570.65769 1.91894e-17
5572.17464 1.93479e-17
5573.69158 1.95065e-17
5575.21857 1.89414e-17
5576.73552 1.83759e-17
5578.25247 1.86300e-17
5579.76941 1.88844e-17
5581.28636 1.92439e-17
5582.80330 1.96034e-17
5584.33030 1.93403e-17
5585.84724 1.90769e-17
5587.36419 1.91002e-17
5588.88113 1.91237e-17
5590.39808 1.87990e-17
5591.91503 1.84741e-17
5593.44202 1.83649e-17
5594.95896 1.82557e-17
5596.47591 1.84616e-17
5597.99286 1.86677e-17
5599.50980 1.87300e-17
5601.03679 1.87921e-17
5602.55374 1.83907e-17
5604.07069 1.79891e-17
5605.58763 1.78774e-17
5607.10458 1.77658e-17
5608.62152 1.79552e-17
5610.14852 1.81446e-17
5611.66546 1.80784e-17
5613.18241 1.80120e-17
5614.69935 1.79050e-17
5616.21630 1.77979e-17
5617.74329 1.76596e-17
5619.26024 1.75212e-17
5620.77718 1.76898e-17
5622.29413 1.78585e-17
5623.81108 1.79197e-17
5625.32802 1.79808e-17
5626.85501 1.77910e-17
5628.37196 1.76011e-17
5629.88891 1.73036e-17
5631.40585 1.70062e-17
5632.92280 1.70191e-17
5634.44979 1.70322e-17
5635.96674 1.69004e-17
5637.48368 1.67684e-17
5639.00063 1.66107e-17
5640.51757 1.64529e-17
5642.03452 1.65189e-17
5643.56151 1.65850e-17
5645.07846 1.64568e-17
5646.59540 1.63286e-17
5648.11235 1.65607e-17
5649.62930 1.67929e-17
5651.14624 1.67847e-17
5652.67323 1.67765e-17
5654.19018 1.66646e-17
5655.70713 1.65527e-17
5657.22407 1.63291e-17
5658.74102 1.61056e-17
5660.26801 1.59809e-17
5661.78496 1.58563e-17
5663.30190 1.57756e-17
5664.81885 1.56948e-17
5666.33579 1.55368e-17
5667.85274 1.53788e-17
5669.37973 1.51487e-17
5670.89668 1.49185e-17
5672.41362 1.48009e-17
5673.93057 1.46834e-17
5675.44752 1.47042e-17
5676.97451 1.47251e-17
5678.49145 1.44422e-17
5680.00840 1.41593e-17
5681.52535 1.37643e-17
5683.04229 1.33693e-17
5684.55924 1.33079e-17
5686.08623 1.32466e-17
5687.60318 1.31173e-17
5689.12012 1.29880e-17
5690.63707 1.26605e-17
5692.15401 1.23328e-17
5693.67096 1.22422e-17
5695.19795 1.21517e-17
5696.71490 1.20310e-17
5698.23184 1.19102e-17
5699.74879 1.15454e-17
5701.26574 1.11806e-17
5702.79273 1.11765e-17
5704.30967 1.11726e-17
5705.82662 1.08918e-17
5707.34357 1.06109e-17
5708.86051 1.05795e-17
5710.37746 1.05482e-17
5711.90445 1.02474e-17
5713.42140 9.94648e-18
5714.93834 9.75082e-18
5716.45529 9.55521e-18
5717.97223 9.52136e-18
5719.48918 9.48758e-18
5721.01617 9.59177e-18
5722.53312 9.69601e-18
5724.05006 9.25661e-18
5725.56701 8.81698e-18
5727.08396 8.67265e-18
5728.61095 8.52846e-18
5730.12789 8.74262e-18
5731.64484 8.95695e-18
5733.16179 8.88266e-18
5734.67873 8.80824e-18
5736.19568 8.70173e-18
5737.72267 8.59520e-18
5739.23962 8.78924e-18
5740.75656 8.98340e-18
5742.27351 8.85559e-18
5743.79045 8.72765e-18
5745.31745 8.83855e-18
5746.83439 8.94956e-18
5748.35134 8.91837e-18
5749.86828 8.88711e-18
5751.38523 8.73497e-18
5752.90218 8.58277e-18
5754.42917 8.36764e-18
5755.94611 8.15249e-18
5757.46306 8.35454e-18
5758.98001 8.55677e-18
5760.49695 8.46300e-18
5762.02394 8.36909e-18
5763.54089 8.40880e-18
5765.05784 8.44855e-18
5766.57478 8.61056e-18
5768.09173 8.77263e-18
5769.60867 8.42787e-18
5771.13567 8.08291e-18
5772.65261 8.23177e-18
5774.16956 8.38085e-18
5775.68650 8.43420e-18
5777.20345 8.48749e-18
5778.72040 8.54383e-18
5780.24739 8.60016e-18
5781.76433 8.67554e-18
5783.28128 8.75092e-18
5784.79823 8.78021e-18
5786.31517 8.80947e-18
5787.84216 8.81322e-18
5789.35911 8.81697e-18
5790.87606 9.08790e-18
5792.39300 9.35894e-18
5793.90995 9.27540e-18
5795.42689 9.19170e-18
5796.95389 9.41717e-18
5798.47083 9.64278e-18
5799.98778 9.56738e-18
5801.50472 9.49184e-18
5803.02167 9.76698e-18
5804.54866 1.00423e-17
5806.06561 1.04113e-17
5807.58255 1.07804e-17
5809.09950 1.08385e-17
5810.61645 1.08964e-17
5812.13339 1.10672e-17
5813.66038 1.12381e-17
5815.17733 1.13252e-17
5816.69428 1.14122e-17
5818.21122 1.17817e-17
5819.72817 1.21512e-17
5821.24511 1.21543e-17
5822.77211 1.21572e-17
5824.28905 1.25185e-17
5825.80600 1.28800e-17
5827.32294 1.31368e-17
5828.83989 1.33936e-17
5830.36688 1.36596e-17
5831.88383 1.39257e-17
5833.40077 1.41728e-17
5834.91772 1.44198e-17
5836.43467 1.47550e-17
5837.95161 1.50902e-17
5839.47860 1.56795e-17
5840.99555 1.62688e-17
5842.51250 1.64243e-17
5844.02944 1.65797e-17
5845.54639 1.72128e-17
5847.07338 1.78461e-17
5848.59033 1.79048e-17
5850.10727 1.79632e-17
5851.62422 1.81184e-17
5853.14116 1.82735e-17
5854.65811 1.84116e-17
5856.18510 1.85496e-17
5857.70205 1.87858e-17
5859.21899 1.90219e-17
5860.73594 1.91295e-17
5862.25289 1.92370e-17
5863.76983 1.95197e-17
5865.29682 1.98025e-17
5866.81377 2.01043e-17
5868.33072 2.04061e-17
5869.84766 2.09862e-17
5871.36461 2.15665e-17
5872.89160 2.16702e-17
5874.40855 2.17738e-17
5875.92549 2.19364e-17
5877.44244 2.20990e-17
5878.95938 2.23632e-17
5880.47633 2.26274e-17
5882.00332 2.29073e-17
5883.52027 2.31872e-17
5885.03721 2.34581e-17
5886.55416 2.37290e-17
5888.07111 2.35895e-17
5889.58805 2.34498e-17
5891.11504 2.34932e-17
5892.63199 2.35367e-17
5894.14894 2.36757e-17
5895.66588 2.38147e-17
5897.18283 2.38408e-17
5898.70982 2.38668e-17
5900.22677 2.41754e-17
5901.74371 2.44841e-17
5903.26066 2.43806e-17
5904.77760 2.42769e-17
5906.29455 2.44167e-17
5907.82154 2.45566e-17
5909.33849 2.46298e-17
5910.85543 2.47030e-17
5912.37238 2.46763e-17
5913.88933 2.46495e-17
5915.41632 2.40906e-17
5916.93326 2.35315e-17
5918.45021 2.35630e-17
5919.96716 2.35947e-17
5921.48410 2.38905e-17
5923.00105 2.41863e-17
5924.52804 2.39869e-17
5926.04499 2.37872e-17
5927.56193 2.46385e-17
5929.07888 2.54903e-17
5930.59582 2.51727e-17
5932.12282 2.48546e-17
5933.63976 2.48764e-17
5935.15671 2.48984e-17
5936.67365 2.50182e-17
5938.19060 2.51380e-17
5939.70755 2.53388e-17
5941.23454 2.55396e-17
5942.75148 2.49652e-17
5944.26843 2.43904e-17
5945.78538 2.42155e-17
5947.30232 2.40408e-17
5948.81927 2.40712e-17
5950.34626 2.41017e-17
5951.86321 2.41130e-17
5953.38015 2.41243e-17
5954.89710 2.45742e-17
5956.41404 2.50243e-17
5957.94104 2.43672e-17
5959.45798 2.37096e-17
5960.97493 2.35801e-17
5962.49187 2.34507e-17
5964.00882 2.33566e-17
5965.52577 2.32625e-17
5967.05276 2.36277e-17
5968.56970 2.39932e-17
5970.08665 2.36991e-17
5971.60360 2.34047e-17
5973.12054 2.29903e-17
5974.64753 2.25759e-17
5976.16448 2.26055e-17
5977.68143 2.26353e-17
5979.19837 2.26160e-17
5980.71532 2.25966e-17
5982.23226 2.25265e-17
5983.75926 2.24563e-17
5985.27620 2.24312e-17
5986.79315 2.24062e-17
5988.31009 2.23965e-17
5989.82704 2.23868e-17
5991.35403 2.19959e-17
5992.87098 2.16048e-17
5994.38792 2.16080e-17
5995.90487 2.16113e-17
5997.42182 2.17123e-17
5998.93876 2.18133e-17
6000.46575 2.14664e-17
6001.98270 2.11193e-17
6003.49965 2.09285e-17
6005.01659 2.07377e-17
6006.53354 2.09309e-17
6008.05048 2.11242e-17
6009.57748 2.08423e-17
6011.09442 2.05602e-17
6012.61137 2.04401e-17
6014.12831 2.03201e-17
6015.64526 2.00619e-17
6017.17225 1.98037e-17
6018.68920 1.97639e-17
6020.20614 1.97242e-17
6021.72309 1.96462e-17
6023.24004 1.95681e-17
6024.75698 1.95389e-17
6026.28397 1.95098e-17
6027.80092 1.93224e-17
6029.31787 1.91350e-17
6030.83481 1.91238e-17
6032.35176 1.91127e-17
6033.87875 1.90335e-17
6035.39570 1.89543e-17
6036.91264 1.87650e-17
6038.42959 1.85756e-17
6039.94653 1.86651e-17
6041.46348 1.87547e-17
6042.99047 1.87416e-17
6044.50742 1.87284e-17
6046.02436 1.86630e-17
6047.54131 1.85975e-17
6049.05826 1.84116e-17
6050.57520 1.82255e-17
6052.10219 1.81636e-17
6053.61914 1.81018e-17
6055.13609 1.79200e-17
6056.65303 1.77382e-17
6058.16998 1.78387e-17
6059.68692 1.79393e-17
6061.21392 1.75443e-17
6062.73086 1.71491e-17
6064.24781 1.70155e-17
6065.76475 1.68821e-17
6067.28170 1.68599e-17
6068.80869 1.68378e-17
6070.32564 1.67632e-17
6071.84258 1.66884e-17
6073.35953 1.65389e-17
6074.87648 1.63894e-17
6076.39342 1.61712e-17
6077.92041 1.59531e-17
6079.43736 1.61589e-17
6080.95431 1.63650e-17
6082.47125 1.63247e-17
6083.98820 1.62843e-17
6085.51519 1.61231e-17
6087.03214 1.59617e-17
6088.54908 1.60660e-17
6090.06603 1.61705e-17
6091.58297 1.60551e-17
6093.09992 1.59396e-17
6094.62691 1.58345e-17
6096.14386 1.57294e-17
6097.66080 1.55356e-17
6099.17775 1.53419e-17
6100.69470 1.54166e-17
6102.22169 1.54916e-17
6103.73863 1.55340e-17
6105.25558 1.55764e-17
6106.77253 1.57015e-17
6108.28947 1.58268e-17
6109.80642 1.58735e-17
6111.33341 1.59201e-17
6112.85036 1.57914e-17
6114.36730 1.56627e-17
6115.88425 1.56696e-17
6117.40119 1.56765e-17
6118.91814 1.54414e-17
6120.44513 1.52061e-17
6121.96208 1.52726e-17
6123.47902 1.53392e-17
6124.99597 1.53718e-17
6126.51292 1.54044e-17
6128.03991 1.53679e-17
6129.55685 1.53315e-17
6131.07380 1.52145e-17
6132.59075 1.50975e-17
6134.10769 1.52738e-17
6135.62464 1.54502e-17
6137.15163 1.55850e-17
6138.66858 1.57198e-17
6140.18552 1.56560e-17
6141.70247 1.55921e-17
6143.21941 1.52751e-17
6144.74641 1.49580e-17
6146.26335 1.51879e-17
6147.78030 1.54182e-17
6149.29724 1.53481e-17
6150.81419 1.52778e-17
6152.33114 1.51660e-17
6153.85813 1.50542e-17
6155.37507 1.50469e-17
6156.89202 1.50397e-17
6158.40897 1.49648e-17
6159.92591 1.48898e-17
6161.44286 1.49886e-17
6162.96985 1.50876e-17
6164.48680 1.48693e-17
6166.00374 1.46509e-17
6167.52069 1.44723e-17
6169.03763 1.42937e-17
6170.56463 1.41986e-17
6172.08157 1.41034e-17
6173.59852 1.42224e-17
6175.11546 1.43414e-17
6176.63241 1.46169e-17
6178.14936 1.48926e-17
6179.67635 1.46024e-17
6181.19329 1.43120e-17
6182.71024 1.42533e-17
6184.22719 1.41947e-17
6185.74413 1.41715e-17
6187.27112 1.41483e-17
6188.78807 1.42795e-17
6190.30502 1.44107e-17
6191.82196 1.47758e-17
6193.33891 1.51411e-17
6194.85585 1.48816e-17
6196.38285 1.46218e-17
6197.89979 1.44253e-17
6199.41674 1.42288e-17
6200.93368 1.44223e-17
6202.45063 1.46160e-17
6203.96758 1.45003e-17
6205.49457 1.43843e-17
6207.01151 1.44190e-17
6208.52846 1.44537e-17
6210.04541 1.43673e-17
6211.56235 1.42808e-17
6213.08934 1.44523e-17
6214.60629 1.46240e-17
6216.12324 1.46387e-17
6217.64018 1.46533e-17
6219.15713 1.47003e-17
6220.67407 1.47473e-17
6222.20107 1.48558e-17
6223.71801 1.49643e-17
6225.23496 1.49834e-17
6226.75190 1.50024e-17
6228.26885 1.52069e-17
6229.79584 1.54116e-17
6231.31279 1.54768e-17
6232.82973 1.55419e-17
6234.34668 1.56688e-17
6235.86363 1.57957e-17
6237.38057 1.56080e-17
6238.90756 1.54201e-17
6240.42451 1.53662e-17
6241.94146 1.53123e-17
6243.45840 1.54460e-17
6244.97535 1.55799e-17
6246.50234 1.55164e-17
6248.01929 1.54529e-17
6249.53623 1.54397e-17
6251.05318 1.54265e-17
6252.57012 1.54477e-17
6254.08707 1.54688e-17
6255.61406 1.52288e-17
6257.13101 1.49887e-17
6258.64795 1.49746e-17
6260.16490 1.49606e-17
6261.68185 1.48208e-17
6263.19879 1.46810e-17
6264.72578 1.45797e-17
6266.24273 1.44784e-17
6267.75968 1.45662e-17
6269.27662 1.46542e-17
6270.79357 1.44983e-17
6272.32056 1.43423e-17
6273.83751 1.42668e-17
6275.35445 1.41914e-17
6276.87140 1.39172e-17
6278.38834 1.36430e-17
6279.90529 1.41015e-17
6281.43228 1.45603e-17
6282.94923 1.43428e-17
6284.46617 1.41249e-17
6285.98312 1.40485e-17
6287.50007 1.39723e-17
6289.02706 1.40928e-17
6290.54400 1.42134e-17
6292.06095 1.41913e-17
6293.57790 1.41690e-17
6295.09484 1.39617e-17
6296.61179 1.37543e-17
6298.13878 1.41163e-17
6299.65573 1.44786e-17
6301.17267 1.42743e-17
6302.68962 1.40697e-17
6304.20656 1.41374e-17
6305.72351 1.42053e-17
6307.25050 1.41053e-17
6308.76745 1.40051e-17
6310.28439 1.37997e-17
6311.80134 1.35941e-17
6313.31829 1.34871e-17
6314.84528 1.33802e-17
6316.36222 1.34259e-17
6317.87917 1.34718e-17
6319.39612 1.34468e-17
6320.91306 1.34218e-17
6322.43001 1.33038e-17
6323.95700 1.31858e-17
6325.47395 1.30582e-17
6326.99089 1.29307e-17
6328.50784 1.29372e-17
6330.02478 1.29437e-17
6331.55178 1.30102e-17
6333.06872 1.30767e-17
6334.58567 1.26899e-17
6336.10261 1.23028e-17
6337.61956 1.24045e-17
6339.13651 1.25065e-17
6340.66350 1.26703e-17
6342.18044 1.28342e-17
6343.69739 1.25501e-17
6345.21434 1.22659e-17
6346.73128 1.23179e-17
6348.24823 1.23701e-17
6349.77522 1.23114e-17
6351.29217 1.22526e-17
6352.80911 1.22871e-17
6354.32606 1.23217e-17
6355.84300 1.21480e-17
6357.37000 1.19741e-17
6358.88694 1.19343e-17
6360.40389 1.18947e-17
6361.92083 1.23432e-17
6363.43778 1.27920e-17
6364.95473 1.26043e-17
6366.48172 1.24162e-17
6367.99866 1.24423e-17
6369.51561 1.24684e-17
6371.03256 1.21397e-17
6372.54950 1.18108e-17
6374.07649 1.17001e-17
6375.59344 1.15894e-17
6377.11039 1.18133e-17
6378.62733 1.20374e-17
6380.14428 1.21950e-17
6381.66122 1.23525e-17
6383.18822 1.22575e-17
6384.70516 1.21624e-17
6386.22211 1.21205e-17
6387.73905 1.20788e-17
6389.25600 1.22192e-17
6390.77295 1.23598e-17
6392.29994 1.22079e-17
6393.81688 1.20559e-17
6395.33383 1.22149e-17
6396.85078 1.23741e-17
6398.36772 1.22813e-17
6399.88467 1.21883e-17
6401.41166 1.21733e-17
6402.92861 1.21583e-17
6404.44555 1.22575e-17
6405.96250 1.23568e-17
6407.47944 1.24907e-17
6409.00644 1.26247e-17
6410.52338 1.24908e-17
6412.04033 1.23567e-17
6413.55727 1.22334e-17
6415.07422 1.21101e-17
6416.59117 1.22907e-17
6418.11816 1.24714e-17
6419.63510 1.24647e-17
6421.15205 1.24578e-17
6422.66900 1.24672e-17
6424.18594 1.24765e-17
6425.71293 1.25429e-17
6427.22988 1.26093e-17
6428.74683 1.25894e-17
6430.26377 1.25695e-17
6431.78072 1.26202e-17
6433.29766 1.26709e-17
6434.82466 1.25505e-17
6436.34160 1.24299e-17
6437.85855 1.25253e-17
6439.37549 1.26207e-17
6440.89244 1.29449e-17
6442.41943 1.32693e-17
6443.93638 1.32362e-17
6445.45332 1.32030e-17
6446.97027 1.31543e-17
6448.48722 1.31056e-17
6450.00416 1.31442e-17
6451.53115 1.31828e-17
6453.04810 1.32098e-17
6454.56505 1.32368e-17
6456.08199 1.32696e-17
6457.59894 1.33024e-17
6459.11588 1.31679e-17
6460.64288 1.30332e-17
6462.15982 1.28774e-17
6463.67677 1.27217e-17
6465.19371 1.26780e-17
6466.71066 1.26344e-17
6468.23765 1.27535e-17
6469.75460 1.28726e-17
6471.27154 1.27258e-17
6472.78849 1.25788e-17
6474.30544 1.27260e-17
6475.82238 1.28734e-17
6477.34937 1.27646e-17
6478.86632 1.26556e-17
6480.38327 1.25998e-17
6481.90021 1.25441e-17
6483.41716 1.25043e-17
6484.94415 1.24644e-17
6486.46110 1.24090e-17
6487.97804 1.23536e-17
6489.49499 1.20644e-17
6491.01193 1.17751e-17
6492.52888 1.16987e-17
6494.05587 1.16224e-17
6495.57282 1.16528e-17
6497.08976 1.16833e-17
6498.60671 1.17508e-17
6500.12366 1.18183e-17
6501.65065 1.16777e-17
6503.16759 1.15369e-17
6504.68454 1.13349e-17
6506.20149 1.11328e-17
6507.71843 1.11529e-17
6509.23538 1.11732e-17
6510.76237 1.11002e-17
6512.27932 1.10271e-17
6513.79626 1.10015e-17
6515.31321 1.09760e-17
6516.83015 1.09402e-17
6518.34710 1.09044e-17
6519.87409 1.05872e-17
6521.39104 1.02699e-17
6522.90798 9.87174e-18
6524.42493 9.47356e-18
6525.94188 9.98209e-18
6527.46887 1.04912e-17
6528.98581 1.02638e-17
6530.50276 1.00359e-17
6532.01971 9.61614e-18
6533.53665 9.19624e-18
6535.05360 9.58382e-18
6536.58059 9.97188e-18
6538.09754 9.69305e-18
6539.61448 9.41381e-18
6541.13143 9.60125e-18
6542.64837 9.78896e-18
6544.17537 9.62514e-18
6545.69231 9.46112e-18
6547.20926 9.31936e-18
6548.72620 9.17762e-18
6550.24315 9.30631e-18
6551.76010 9.43517e-18
6553.28709 9.51371e-18
6554.80403 9.59223e-18
6556.32098 9.23082e-18
6557.83793 8.86916e-18
6559.35487 9.16063e-18
6560.87182 9.45250e-18
6562.39881 9.57146e-18
6563.91576 9.69031e-18
6565.43270 9.85610e-18
6566.94965 1.00219e-17
6568.46659 1.00578e-17
6569.99359 1.00936e-17
6571.51053 1.00264e-17
6573.02748 9.95908e-18
6574.54442 1.00706e-17
6576.06137 1.01822e-17
6577.57832 1.01980e-17
6579.10531 1.02137e-17
6580.62225 1.03625e-17
6582.13920 1.05114e-17
6583.65615 1.05110e-17
6585.17309 1.05106e-17
6586.70008 1.08477e-17
6588.21703 1.11850e-17
6589.73398 1.15866e-17
6591.25092 1.19883e-17
6592.76787 1.18645e-17
6594.28481 1.17404e-17
6595.81181 1.14029e-17
6597.32875 1.10652e-17
6598.84570 1.09840e-17
6600.36264 1.09029e-17
6601.87959 1.09916e-17
6603.39654 1.10805e-17
6604.92353 1.10172e-17
6606.44047 1.09538e-17
6607.95742 1.12544e-17
6609.47437 1.15553e-17
6610.99131 1.12291e-17
6612.51830 1.09026e-17
6614.03525 1.12823e-17
6615.55220 1.16625e-17
6617.06914 1.16720e-17
6618.58609 1.16813e-17
6620.10303 1.12780e-17
6621.63003 1.08745e-17
6623.14697 1.11486e-17
6624.66392 1.14231e-17
6626.18086 1.16105e-17
6627.69781 1.17977e-17
6629.22480 1.17801e-17
6630.74175 1.17624e-17
6632.25869 1.18106e-17
6633.77564 1.18589e-17
6635.29259 1.20625e-17
6636.80953 1.22661e-17
6638.33652 1.22971e-17
6639.85347 1.23281e-17
6641.37042 1.23796e-17
6642.88736 1.24311e-17
6644.40431 1.28069e-17
6645.92125 1.31828e-17
6647.44825 1.33071e-17
6648.96519 1.34313e-17
6650.48214 1.35809e-17
6651.99908 1.37305e-17
6653.51603 1.39186e-17
6655.04302 1.41067e-17
6656.55997 1.41253e-17
6658.07691 1.41437e-17
6659.59386 1.42267e-17
6661.11081 1.43096e-17
6662.62775 1.43413e-17
6664.15474 1.43729e-17
6665.67169 1.43341e-17
6667.18864 1.42952e-17
6668.70558 1.46580e-17
6670.22253 1.50210e-17
6671.74952 1.50949e-17
6673.26647 1.51686e-17
6674.78341 1.54670e-17
6676.30036 1.57655e-17
6677.81730 1.56827e-17
6679.33425 1.55997e-17
6680.86124 1.57479e-17
6682.37819 1.58963e-17
6683.89513 1.58770e-17
6685.41208 1.58577e-17
6686.92903 1.60184e-17
6688.44597 1.61793e-17
6689.97296 1.64481e-17
6691.48991 1.67171e-17
6693.00686 1.65504e-17
6694.52380 1.63836e-17
6696.04075 1.61852e-17
6697.56774 1.59869e-17
6699.08469 1.59907e-17
6700.60163 1.59946e-17
6702.11858 1.60356e-17
6703.63552 1.60766e-17
6705.15247 1.62851e-17
6706.67946 1.64937e-17
6708.19641 1.61223e-17
6709.71335 1.57506e-17
6711.23030 1.60162e-17
6712.74725 1.62821e-17
6714.27424 1.64554e-17
6715.79118 1.66287e-17
6717.30813 1.67239e-17
6718.82508 1.68190e-17
6720.34202 1.65977e-17
6721.85897 1.63762e-17
6723.38596 1.63466e-17
6724.90291 1.63172e-17
6726.41985 1.64630e-17
6727.93680 1.66090e-17
6729.45374 1.65746e-17
6730.97069 1.65401e-17
6732.49768 1.64600e-17
6734.01463 1.63799e-17
6735.53157 1.64258e-17
6737.04852 1.64717e-17
6738.56547 1.64865e-17
6740.09246 1.65013e-17
6741.60940 1.68190e-17
6743.12635 1.71369e-17
6744.64330 1.72953e-17
6746.16024 1.74536e-17
6747.67719 1.73234e-17
6749.20418 1.71929e-17
6750.72113 1.68315e-17
6752.23807 1.64699e-17
6753.75502 1.66653e-17
6755.27196 1.68610e-17
6756.78891 1.69544e-17
6758.31590 1.70476e-17
6759.83285 1.69204e-17
6761.34979 1.67931e-17
6762.86674 1.68625e-17
6764.38369 1.69320e-17
6765.91068 1.66236e-17
6767.42762 1.63149e-17
6768.94457 1.64964e-17
6770.46152 1.66782e-17
6771.97846 1.65920e-17
6773.49541 1.65056e-17
6775.02240 1.65283e-17
6776.53935 1.65512e-17
6778.05629 1.65064e-17
6779.57324 1.64615e-17
6781.09018 1.62103e-17
6782.61718 1.59589e-17
6784.13412 1.57822e-17
6785.65107 1.56055e-17
6787.16801 1.55881e-17
6788.68496 1.55709e-17
6790.20191 1.57615e-17
6791.72890 1.59522e-17
6793.24584 1.58136e-17
6794.76279 1.56748e-17
6796.27974 1.55241e-17
6797.79668 1.53734e-17
6799.32367 1.51684e-17
6800.84062 1.49633e-17
6802.35757 1.48921e-17
6803.87451 1.48210e-17
6805.39146 1.47916e-17
6806.90840 1.47623e-17
6808.43540 1.48947e-17
6809.95234 1.50271e-17
6811.46929 1.50856e-17
6812.98623 1.51440e-17
6814.50318 1.51131e-17
6816.02013 1.50822e-17
6817.54712 1.49809e-17
6819.06406 1.48795e-17
6820.58101 1.46411e-17
6822.09796 1.44027e-17
6823.61490 1.43472e-17
6825.14189 1.42919e-17
6826.65884 1.43078e-17
6828.17579 1.43237e-17
6829.69273 1.41832e-17
6831.20968 1.40426e-17
6832.72662 1.42094e-17
6834.25362 1.43764e-17
6835.77056 1.42249e-17
6837.28751 1.40732e-17
6838.80445 1.40438e-17
6840.32140 1.40145e-17
6841.84839 1.37650e-17
6843.36534 1.35153e-17
6844.88228 1.34534e-17
6846.39923 1.33914e-17
6847.91618 1.33294e-17
6849.43312 1.32675e-17
6850.96011 1.32055e-17
6852.47706 1.31436e-17
6853.99401 1.30817e-17
6855.51095 1.30197e-17
6857.02790 1.29578e-17
6858.55489 1.28958e-17
6860.07184 1.28339e-17
6861.58878 1.27719e-17
6863.10573 1.27100e-17
6864.62267 1.26481e-17
6866.13962 1.25861e-17
6867.66661 1.25242e-17
6869.18356 1.24623e-17
6870.70050 1.24003e-17
6872.21745 1.23384e-17
6873.73440 1.22765e-17
6875.25134 1.22146e-17
6876.77833 1.21526e-17
6878.29528 1.20907e-17
6879.81223 1.20288e-17
6881.32917 1.19669e-17
6882.84612 1.19050e-17
6884.37311 1.18431e-17
6885.89006 1.17811e-17
6887.40700 1.17192e-17
6888.92395 1.16573e-17
6890.44089 1.15954e-17
6891.95784 1.15335e-17
6893.48483 1.14716e-17
6895.00178 1.14097e-17
6896.51872 1.13478e-17
6898.03567 1.12859e-17
6899.55262 1.12240e-17
6901.07961 1.11621e-17
6902.59655 1.11002e-17
6904.11350 1.10383e-17
6905.63045 1.09764e-17
6907.14739 1.09145e-17
6908.66434 1.08526e-17
6910.19133 1.07907e-17
6911.70828 1.07289e-17
6913.22522 1.06670e-17
6914.74217 1.06051e-17
6916.25911 1.05432e-17
6917.77606 1.04813e-17
6919.30305 1.04194e-17
6920.82000 1.03576e-17
6922.33694 1.02957e-17
6923.85389 1.02338e-17
6925.37084 1.01719e-17
6926.89783 1.01100e-17
6928.41477 1.00482e-17
6929.93172 9.98631e-18
6931.44867 9.92445e-18
6932.96561 9.86257e-18
6934.48256 9.80072e-18
6936.00955 9.73885e-18
6937.52650 1.00140e-17
6939.04344 1.00349e-17
6940.56039 1.00556e-17
6942.07733 1.01177e-17
6943.59428 1.01798e-17
6945.12127 1.03123e-17
6946.63822 1.04447e-17
6948.15516 1.02783e-17
6949.67211 1.01117e-17
6951.18906 1.00142e-17
6952.71605 9.91676e-18
6954.23299 1.04025e-17
6955.74994 1.08887e-17
6957.26689 1.09089e-17
6958.78383 1.09289e-17
6960.30078 1.07770e-17
6961.82777 1.06250e-17
6963.34472 1.06019e-17
6964.86166 1.05788e-17
6966.37861 1.10402e-17
6967.89555 1.15019e-17
6969.42255 1.17331e-17
6970.93949 1.19642e-17
6972.45644 1.18746e-17
6973.97338 1.17848e-17
6975.49033 1.16457e-17
6977.00728 1.15067e-17
6978.53427 1.15709e-17
6980.05121 1.16352e-17
6981.56816 1.19196e-17
6983.08511 1.22041e-17
6984.60205 1.22239e-17
6986.11900 1.22434e-17
6987.64599 1.21020e-17
6989.16294 1.19605e-17
6990.67988 1.21657e-17
6992.19683 1.23711e-17
6993.71377 1.21582e-17
6995.24077 1.19451e-17
6996.75771 1.20663e-17
6998.27466 1.21878e-17
6999.79160 1.22314e-17
7001.30855 1.22749e-17
7002.82550 1.22124e-17
7004.35249 1.21498e-17
7005.86943 1.22528e-17
7007.38638 1.23559e-17
7008.90333 1.24646e-17
7010.42027 1.25734e-17
7011.94726 1.25853e-17
7013.46421 1.25972e-17
7014.98116 1.30102e-17
7016.49810 1.34235e-17
7018.01505 1.33857e-17
7019.53199 1.33475e-17
7021.05899 1.32632e-17
7022.57593 1.31788e-17
7024.09288 1.33370e-17
7025.60982 1.34955e-17
7027.12677 1.36698e-17
7028.64372 1.38440e-17
7030.17071 1.40077e-17
7031.68765 1.41713e-17
7033.20460 1.40389e-17
7034.72155 1.39062e-17
7036.23849 1.38198e-17
7037.76548 1.37333e-17
7039.28243 1.39252e-17
7040.79938 1.41172e-17
7042.31632 1.43274e-17
7043.83327 1.45376e-17
7045.35021 1.45745e-17
7046.87721 1.46112e-17
7048.39415 1.44035e-17
7049.91110 1.41956e-17
7051.42804 1.43052e-17
7052.94499 1.44150e-17
7054.47198 1.46617e-17
7055.98893 1.49084e-17
7057.50587 1.48865e-17
7059.02282 1.48645e-17
7060.53977 1.48323e-17
7062.05671 1.48001e-17
7063.58370 1.48481e-17
7065.10065 1.48961e-17
7066.61760 1.50572e-17
7068.13454 1.52183e-17
7069.65149 1.49752e-17
7071.16843 1.47319e-17
7072.69543 1.46091e-17
7074.21237 1.44864e-17
7075.72932 1.47298e-17
7077.24626 1.49734e-17
7078.76321 1.47272e-17
7080.29020 1.44807e-17
7081.80715 1.44427e-17
7083.32409 1.44049e-17
7084.84104 1.47118e-17
7086.35799 1.50189e-17
7087.87493 1.50852e-17
7089.40192 1.51513e-17
7090.91887 1.50172e-17
7092.43582 1.48830e-17
7093.95276 1.48131e-17
7095.46971 1.47432e-17
7096.99670 1.49095e-17
7098.51365 1.50758e-17
7100.03059 1.49946e-17
7101.54754 1.49132e-17
7103.06448 1.50341e-17
7104.58143 1.51550e-17
7106.10842 1.51394e-17
7107.62537 1.51236e-17
7109.14231 1.51437e-17
7110.65926 1.51637e-17
7112.17621 1.49548e-17
7113.69315 1.47458e-17
7115.22014 1.45903e-17
7116.73709 1.44349e-17
7118.25404 1.46191e-17
7119.77098 1.48035e-17
7121.28793 1.48498e-17
7122.81492 1.48961e-17
7124.33187 1.48065e-17
7125.84881 1.47167e-17
7127.36576 1.47536e-17
7128.88270 1.47905e-17
7130.39965 1.46139e-17
7131.92664 1.44371e-17
7133.44359 1.42811e-17
7134.96053 1.41250e-17
7136.47748 1.41405e-17
7137.99443 1.41561e-17
7139.52142 1.44440e-17
7141.03836 1.47322e-17
7142.55531 1.45046e-17
7144.07226 1.42766e-17
7145.58920 1.39311e-17
7147.10615 1.35855e-17
7148.63314 1.38657e-17
7150.15009 1.41464e-17
7151.66703 1.41488e-17
7153.18398 1.41509e-17
7154.70092 1.41574e-17
7156.22792 1.41638e-17
7157.74486 1.40180e-17
7159.26181 1.38720e-17
7160.77875 1.38386e-17
7162.29570 1.38052e-17
7163.81265 1.37172e-17
7165.33964 1.36291e-17
7166.85658 1.35533e-17
7168.37353 1.34775e-17
7169.89048 1.30213e-17
7171.40742 1.25650e-17
7172.92437 1.27530e-17
7174.45136 1.29415e-17
7175.96831 1.30556e-17
7177.48525 1.31696e-17
7179.00220 1.32419e-17
7180.51914 1.33141e-17
7182.04614 1.33157e-17
7183.56308 1.33172e-17
7185.08003 1.32299e-17
7186.59697 1.31425e-17
7188.11392 1.31094e-17
7189.63087 1.30764e-17
7191.15786 1.33969e-17
7192.67480 1.37177e-17
7194.19175 1.34611e-17
7195.70870 1.32040e-17
7197.22564 1.29711e-17
7198.75263 1.27382e-17
7200.26958 1.29186e-17
7201.78653 1.30992e-17
7203.30347 1.30906e-17
7204.82042 1.30817e-17
7206.33736 1.31814e-17
7207.86436 1.32811e-17
7209.38130 1.29703e-17
7210.89825 1.26592e-17
7212.41519 1.29703e-17
7213.93214 1.32818e-17
7215.44909 1.31526e-17
7216.97608 1.30231e-17
7218.49302 1.30048e-17
7220.00997 1.29865e-17
7221.52692 1.27380e-17
7223.04386 1.24893e-17
7224.57085 1.26101e-17
7226.08780 1.27312e-17
7227.60475 1.27850e-17
7229.12169 1.28387e-17
7230.63864 1.27127e-17
7232.15558 1.25867e-17
7233.68258 1.25424e-17
7235.19952 1.24982e-17
7236.71647 1.24714e-17
7238.23341 1.24447e-17
7239.75036 1.21309e-17
7241.27735 1.18170e-17
7242.79430 1.19466e-17
7244.31124 1.20766e-17
7245.82819 1.21139e-17
7247.34514 1.21511e-17
7248.86208 1.22446e-17
7250.38907 1.23382e-17
7251.90602 1.25024e-17
7253.42297 1.26666e-17
7254.93991 1.24194e-17
7256.45686 1.21718e-17
7257.97380 1.22473e-17
7259.50080 1.23231e-17
7261.01774 1.21716e-17
7262.53469 1.20199e-17
7264.05163 1.17753e-17
7265.56858 1.15306e-17
7267.09557 1.16741e-17
7268.61252 1.18179e-17
7270.12946 1.23215e-17
7271.64641 1.28254e-17
7273.16336 1.26325e-17
7274.68030 1.24392e-17
7276.20729 1.21465e-17
7277.72424 1.18538e-17
7279.24119 1.16544e-17
7280.75813 1.14552e-17
7282.27508 1.17543e-17
7283.79202 1.20538e-17
7285.31902 1.18161e-17
7286.83596 1.15781e-17
7288.35291 1.19330e-17
7289.86985 1.22882e-17
7291.38680 1.18193e-17
7292.91379 1.13497e-17
7294.43074 1.14010e-17
7295.94768 1.14527e-17
7297.46463 1.17540e-17
7298.98158 1.20555e-17
7300.49852 1.22511e-17
7302.02551 1.24467e-17
7303.54246 1.23377e-17
7305.05941 1.22284e-17
7306.57635 1.19121e-17
7308.09330 1.15956e-17
7309.62029 1.20454e-17
7311.13724 1.24959e-17
7312.65418 1.23861e-17
7314.17113 1.22758e-17
7315.68807 1.20949e-17
7317.20502 1.19139e-17
7318.73201 1.17099e-17
7320.24896 1.15060e-17
7321.76590 1.18455e-17
7323.28285 1.21855e-17
7324.79980 1.24724e-17
7326.31674 1.27592e-17
7327.84373 1.27201e-17
7329.36068 1.26806e-17
7330.87763 1.30169e-17
7332.39457 1.33534e-17
7333.91152 1.31903e-17
7335.43851 1.30268e-17
7336.95546 1.27477e-17
7338.47240 1.24684e-17
7339.98935 1.24298e-17
7341.50629 1.23913e-17
7343.02324 1.24523e-17
7344.55023 1.25133e-17
7346.06718 1.25151e-17
7347.58412 1.25168e-17
7349.10107 1.25177e-17
7350.61802 1.25186e-17
7352.14501 1.23725e-17
7353.66195 1.22263e-17
7355.17890 1.21332e-17
7356.69585 1.20401e-17
7358.21279 1.22873e-17
7359.72974 1.25347e-17
7361.25673 1.24051e-17
7362.77368 1.22753e-17
7364.29062 1.21849e-17
7365.80757 1.20945e-17
7367.32451 1.20289e-17
7368.84146 1.19633e-17
7370.36845 1.18804e-17
7371.88540 1.17975e-17
7373.40234 1.17279e-17
7374.91929 1.16584e-17
7376.43624 1.17438e-17
7377.96323 1.18293e-17
7379.48017 1.17990e-17
7380.99712 1.17687e-17
7382.51407 1.16255e-17
7384.03101 1.14822e-17
7385.54796 1.17159e-17
7387.07495 1.19499e-17
7388.59190 1.19152e-17
7390.10884 1.18802e-17
7391.62579 1.16141e-17
7393.14273 1.13478e-17
7394.66973 1.14534e-17
7396.18667 1.15593e-17
7397.70362 1.15952e-17
7399.22056 1.16311e-17
7400.73751 1.13924e-17
7402.25446 1.11536e-17
7403.78145 1.13357e-17
7405.29839 1.15181e-17
7406.81534 1.16490e-17
7408.33229 1.17799e-17
7409.84923 1.17423e-17
7411.37622 1.17045e-17
7412.89317 1.16055e-17
7414.41012 1.15063e-17
7415.92706 1.14512e-17
7417.44401 1.13960e-17
7418.96095 1.12350e-17
7420.48795 1.10738e-17
7422.00489 1.12987e-17
7423.52184 1.15237e-17
7425.03878 1.15486e-17
7426.55573 1.15733e-17
7428.07268 1.13346e-17
7429.59967 1.10958e-17
7431.11661 1.10550e-17
7432.63356 1.10144e-17
7434.15051 1.09703e-17
7435.66745 1.09262e-17
7437.19444 1.09676e-17
7438.71139 1.10090e-17
7440.22834 1.10055e-17
7441.74528 1.10019e-17
7443.26223 1.10736e-17
7444.77917 1.11453e-17
7446.30617 1.11169e-17
7447.82311 1.10885e-17
7449.34006 1.10870e-17
7450.85700 1.10855e-17
7452.37395 1.11043e-17
7453.90094 1.11230e-17
7455.41789 1.09779e-17
7456.93483 1.08327e-17
7458.45178 1.08548e-17
7459.96873 1.08771e-17
7461.48567 1.08071e-17
7463.01266 1.07370e-17
7464.52961 1.10329e-17
7466.04656 1.13292e-17
7467.56350 1.12292e-17
7469.08045 1.11289e-17
7470.59739 1.08903e-17
7472.12439 1.06517e-17
7473.64133 1.06613e-17
7475.15828 1.06710e-17
7476.67522 1.06297e-17
7478.19217 1.05884e-17
7479.71916 1.06009e-17
7481.23611 1.06134e-17
7482.75305 1.07621e-17
7484.27000 1.09109e-17
7485.78695 1.07312e-17
7487.30389 1.05512e-17
7488.83088 1.06986e-17
7490.34783 1.08462e-17
7491.86478 1.08445e-17
7493.38172 1.08428e-17
7494.89867 1.10461e-17
7496.42566 1.12497e-17
7497.94261 1.11363e-17
7499.45955 1.10227e-17
7500.97650 1.09326e-17
7502.49344 1.08425e-17
7504.01039 1.08758e-17
7505.53738 1.09092e-17
7507.05433 1.07511e-17
7508.57127 1.05928e-17
7510.08822 1.08981e-17
7511.60517 1.12037e-17
7513.12211 1.13419e-17
7514.64910 1.14799e-17
7516.16605 1.10722e-17
7517.68300 1.06641e-17
7519.19994 1.04244e-17
7520.71689 1.01848e-17
7522.24388 1.04058e-17
7523.76083 1.06271e-17
7525.27777 1.10323e-17
7526.79472 1.14378e-17
7528.31166 1.14731e-17
7529.82861 1.15081e-17
7531.35560 1.12159e-17
7532.87255 1.09234e-17
7534.38949 1.06557e-17
7535.90644 1.03879e-17
7537.42339 1.04704e-17
7538.95038 1.05532e-17
7540.46732 1.04266e-17
7541.98427 1.02998e-17
7543.50122 1.00951e-17
7545.01816 9.89027e-18
7546.53511 1.00095e-17
7548.06210 1.01290e-17
7549.57905 1.03395e-17
7551.09599 1.03172e-17
7552.61294 1.02950e-17
7554.12988 1.02727e-17
7555.64683 1.02504e-17
7557.17382 1.02281e-17
7558.69077 1.02058e-17
7560.20771 1.01836e-17
7561.72466 1.01613e-17
7563.24161 1.01390e-17
7564.76860 1.01167e-17
7566.28554 1.00944e-17
7567.80249 1.00722e-17
7569.31944 1.00499e-17
7570.83638 1.00276e-17
7572.35333 1.00053e-17
7573.88032 9.98305e-18
7575.39727 9.96077e-18
7576.91421 9.93850e-18
7578.43116 9.91622e-18
7579.94810 9.89395e-18
7581.47510 9.87167e-18
7582.99204 9.84940e-18
7584.50899 9.82713e-18
7586.02593 9.80486e-18
7587.54288 9.78259e-18
7589.05983 9.76032e-18
7590.58682 9.73805e-18
7592.10376 9.71578e-18
7593.62071 9.69351e-18
7595.13766 9.67125e-18
7596.65460 9.64898e-18
7598.17155 9.62671e-18
7599.69854 9.60444e-18
7601.21549 9.58218e-18
7602.73243 9.55991e-18
7604.24938 9.53765e-18
7605.76632 9.51539e-18
7607.29332 9.49313e-18
7608.81026 9.47086e-18
7610.32721 9.44859e-18
7611.84415 9.42634e-18
7613.36110 9.40407e-18
7614.87805 9.38182e-18
7616.40504 9.35955e-18
7617.92198 9.33730e-18
7619.43893 9.31504e-18
7620.95588 9.29278e-18
7622.47282 9.27052e-18
7623.98977 9.24827e-18
7625.51676 9.22601e-18
7627.03371 9.20376e-18
7628.55065 9.18150e-18
7630.06760 9.15925e-18
7631.58454 9.13699e-18
7633.11154 9.11475e-18
7634.62848 9.09249e-18
7636.14543 9.07024e-18
7637.66237 9.04799e-18
7639.17932 9.02574e-18
7640.69627 9.00349e-18
7642.22326 8.98124e-18
7643.74020 8.95899e-18
7645.25715 8.93674e-18
7646.77410 8.91449e-18
7648.29104 8.89225e-18
7649.81803 8.87000e-18
7651.33498 8.84776e-18
7652.85193 8.82551e-18
7654.36887 8.80327e-18
7655.88582 8.78102e-18
7657.40276 8.75878e-18
7658.92976 8.73654e-18
7660.44670 8.71430e-18
7661.96365 8.69205e-18
7663.48059 8.66982e-18
7664.99754 8.64757e-18
7666.52453 8.62534e-18
7668.04148 8.60309e-18
7669.55842 8.58086e-18
7671.07537 8.55862e-18
7672.59232 8.53639e-18
7674.10926 8.51415e-18
7675.63625 8.49191e-18
7677.15320 8.46968e-18
7678.67015 8.44744e-18
7680.18709 8.42521e-18
7681.70404 8.73580e-18
7683.22098 8.55161e-18
7684.74798 8.36701e-18
7686.26492 8.48662e-18
7687.78187 8.60649e-18
7689.29881 8.73337e-18
7690.81576 8.86025e-18
7692.34275 8.62378e-18
7693.85970 8.38702e-18
7695.37664 8.53385e-18
7696.89359 8.68099e-18
7698.41054 8.58406e-18
7699.92748 8.48692e-18
7701.45447 8.85514e-18
7702.97142 9.22373e-18
7704.48837 9.02992e-18
7706.00531 8.83565e-18
7707.52226 8.83828e-18
7709.04925 8.84108e-18
7710.56620 9.40323e-18
7712.08314 9.96582e-18
7713.60009 9.54410e-18
7715.11703 9.12158e-18
7716.63398 8.95983e-18
7718.16097 8.79831e-18
7719.67792 8.47140e-18
7721.19486 8.14436e-18
7722.71181 8.13167e-18
7724.22876 8.11925e-18
7725.75575 8.18001e-18
7727.27269 8.24083e-18
7728.78964 8.59641e-18
7730.30659 8.95223e-18
7731.82353 8.88449e-18
7733.34048 8.81640e-18
7734.86747 8.71104e-18
7736.38442 8.60565e-18
7737.90136 8.64259e-18
7739.41831 8.67965e-18
7740.93525 8.79374e-18
7742.45220 8.90790e-18
7743.97919 8.65211e-18
7745.49614 8.39601e-18
7747.01308 8.28191e-18
7748.53003 8.16792e-18
7750.04698 8.50595e-18
7751.57397 8.84434e-18
7753.09091 8.87911e-18
7754.60786 8.91361e-18
7756.12481 8.78109e-18
7757.64175 8.64844e-18
7759.15870 8.99958e-18
7760.68569 9.35112e-18
7762.20264 9.20806e-18
7763.71958 9.06458e-18
7765.23653 8.68811e-18
7766.75347 8.31145e-18
7768.28047 8.32100e-18
7769.79741 8.33087e-18
7771.31436 8.60646e-18
7772.83130 8.88227e-18
7774.34825 8.54690e-18
7775.86520 8.21102e-18
7777.39219 8.40133e-18
7778.90913 8.59209e-18
7780.42608 8.71368e-18
7781.94303 8.83521e-18
7783.45997 8.99920e-18
7784.97692 9.16322e-18
7786.50391 9.39145e-18
7788.02086 9.61972e-18
7789.53780 9.20089e-18
7791.05475 8.78152e-18
7792.57169 8.96164e-18
7794.09869 9.14226e-18
7795.61563 9.49835e-18
7797.13258 9.85458e-18
7798.64952 9.89421e-18
7800.16647 9.93357e-18
7801.68342 9.73011e-18
7803.21041 9.52644e-18
7804.72735 9.54789e-18
7806.24430 9.56953e-18
7807.76125 9.62363e-18
7809.27819 9.67775e-18
7810.79514 9.31679e-18
7812.32213 8.95549e-18
7813.83908 8.92362e-18
7815.35602 8.89203e-18
7816.87297 9.11714e-18
7818.38991 9.34247e-18
7819.91691 9.86218e-18
7821.43385 1.03821e-17
7822.95080 1.04295e-17
7824.46774 1.04765e-17
7825.98469 1.00565e-17
7827.50164 9.63616e-18
7829.02863 9.68268e-18
7830.54557 9.72960e-18
7832.06252 9.62571e-18
7833.57947 9.52170e-18
7835.09641 9.46775e-18
7836.62340 9.41384e-18
7838.14035 9.19334e-18
7839.65730 8.97271e-18
7841.17424 9.18780e-18
7842.69119 9.40325e-18
7844.20813 9.45278e-18
7845.73513 9.50217e-18
7847.25207 9.19437e-18
7848.76902 8.88628e-18
7850.28596 8.58237e-18
7851.80291 8.27847e-18
7853.31986 8.59465e-18
7854.84685 8.91134e-18
7856.36379 8.56567e-18
7857.88074 8.21944e-18
7859.39769 8.32133e-18
7860.91463 8.42360e-18
7862.44162 9.29559e-18
7863.95857 1.01682e-17
7865.47552 9.78763e-18
7866.99246 9.40597e-18
7868.50941 9.01706e-18
7870.02635 8.62817e-18
7871.55335 8.84404e-18
7873.07029 9.06043e-18
7874.58724 8.85463e-18
7876.10418 8.64847e-18
7877.62113 8.59499e-18
7879.14812 8.54165e-18
7880.66507 8.81585e-18
7882.18201 9.09033e-18
7883.69896 9.12398e-18
7885.21591 9.15743e-18
7886.73285 9.14628e-18
7888.25984 9.13509e-18
7889.77679 9.13486e-18
7891.29374 9.13465e-18
7892.81068 9.04184e-18
7894.32763 8.94895e-18
7895.84457 9.16319e-18
7897.37157 9.37768e-18
7898.88851 9.58973e-18
7900.40546 9.80178e-18
7901.92240 9.50051e-18
7903.43935 9.19880e-18
7904.96634 9.33777e-18
7906.48329 9.47712e-18
7908.00023 9.67456e-18
7909.51718 9.87205e-18
7911.03413 9.81981e-18
7912.55107 9.76736e-18
7914.07806 9.57660e-18
7915.59501 9.38572e-18
7917.11196 8.88212e-18
7918.62890 8.37825e-18
7920.14585 8.46407e-18
7921.67284 8.55040e-18
7923.18979 8.40605e-18
7924.70673 8.26149e-18
7926.22368 8.36607e-18
7927.74062 8.47087e-18
7929.25757 8.46474e-18
7930.78456 8.45852e-18
7932.30151 8.50009e-18
7933.81845 8.54170e-18
7935.33540 8.41152e-18
7936.85235 8.28119e-18
7938.36929 8.52780e-18
7939.89628 8.77473e-18
7941.41323 8.89508e-18
7942.93018 9.01532e-18
7944.44712 8.68614e-18
7945.96407 8.35658e-18
7947.49106 8.40192e-18
7949.00801 8.44757e-18
7950.52495 8.65007e-18
7952.04190 8.85269e-18
7953.55884 9.15412e-18
7955.07579 9.45563e-18
7956.60278 9.31980e-18
7958.11973 9.18359e-18
7959.63667 8.95740e-18
7961.15362 8.73113e-18
7962.67057 8.86042e-18
7964.19756 8.99002e-18
7965.71450 9.05375e-18
7967.23145 9.11742e-18
7968.74840 9.41468e-18
7970.26534 9.71214e-18
7971.78229 9.74534e-18
7973.30928 9.77831e-18
7974.82623 9.27247e-18
7976.34317 8.76616e-18
7977.86012 8.81086e-18
7979.37706 8.85605e-18
7980.89401 8.28529e-18
7982.42100 7.71400e-18
7983.93795 7.69926e-18
7985.45489 7.68502e-18
7986.97184 7.94074e-18
7988.48879 8.19669e-18
7990.01578 8.27236e-18
7991.53272 8.34787e-18
7993.04967 8.50552e-18
7994.56662 8.66325e-18
7996.08356 8.42620e-18
7997.60051 8.18881e-18
7999.12750 8.30765e-18
8000.64445 8.42679e-18
8002.16139 8.41963e-18
8003.67834 8.41234e-18
8005.19528 8.34646e-18
8006.72228 8.28052e-18
8008.23922 8.57388e-18
8009.75617 8.86755e-18
8011.27311 8.79082e-18
8012.79006 8.71377e-18
8014.30701 8.65829e-18
8015.83400 8.60284e-18
8017.35094 8.70626e-18
8018.86789 8.80981e-18
8020.38484 8.47998e-18
8021.90178 8.14977e-18
8023.42877 8.30688e-18
8024.94572 8.46442e-18
8026.46267 8.58831e-18
8027.97961 8.71216e-18
8029.49656 8.83087e-18
8031.01350 8.94957e-18
8032.54050 9.01300e-18
8034.05744 9.07639e-18
8035.57439 8.78816e-18
8037.09133 8.49962e-18
8038.60828 8.05797e-18
8040.12523 7.61620e-18
8041.65222 8.01313e-18
8043.16916 8.41081e-18
8044.68611 8.01461e-18
8046.20306 7.61770e-18
8047.72000 7.81424e-18
8049.24699 8.01132e-18
8050.76394 8.05874e-18
8052.28089 8.10602e-18
8053.79783 8.09621e-18
8055.31478 8.08635e-18
8056.83172 7.87418e-18
8058.35872 7.66183e-18
8059.87566 7.60045e-18
8061.39261 7.53921e-18
8062.90955 8.03222e-18
8064.42650 8.52571e-18
8065.95349 8.20626e-18
8067.47044 7.88609e-18
8068.98738 7.90593e-18
8070.50433 7.92607e-18
8072.02128 7.80215e-18
8073.53822 7.67811e-18
8075.06521 7.69921e-18
8076.58216 7.72044e-18
8078.09911 7.79899e-18
8079.61605 7.87758e-18
8081.13300 8.40037e-18
8082.64994 8.92355e-18
8084.17694 8.52869e-18
8085.69388 8.13300e-18
8087.21083 8.21829e-18
8088.72777 8.30402e-18
8090.24472 8.18333e-18
8091.77171 8.06247e-18
8093.28866 8.17570e-18
8094.80560 8.28915e-18
8096.32255 8.29932e-18
8097.83950 8.30940e-18
8099.35644 8.08323e-18
8100.88343 7.85685e-18
8102.40038 7.55570e-18
8103.91733 7.25448e-18
8105.43427 7.68800e-18
8106.95122 8.12217e-18
8108.47821 7.94589e-18
8109.99516 7.76906e-18
8111.51210 7.83633e-18
8113.02905 7.90383e-18
8114.54599 7.84262e-18
8116.06294 7.78130e-18
8117.58993 7.57524e-18
8119.10688 7.36907e-18
8120.62382 7.13173e-18
8122.14077 6.89436e-18
8123.65772 7.38823e-18
8125.18471 7.88275e-18
8126.70165 7.37025e-18
8128.21860 6.85685e-18
8129.73555 7.12570e-18
8131.25249 7.39526e-18
8132.76944 6.69134e-18
8134.29643 5.98655e-18
8135.81338 6.44526e-18
8137.33032 6.90501e-18
8138.84727 7.04992e-18
8140.36421 7.19454e-18
8141.88116 7.22334e-18
8143.40815 7.25204e-18
8144.92510 7.34228e-18
8146.44204 7.43257e-18
8147.95899 7.30156e-18
8149.47594 7.17037e-18
8150.99288 7.19630e-18
8152.51987 7.22237e-18
8154.03682 7.06695e-18
8155.55377 6.91136e-18
8157.07071 6.98204e-18
8158.58766 7.05292e-18
8160.11465 7.40194e-18
8161.63160 7.75121e-18
8163.14854 7.72700e-18
8164.66549 7.70244e-18
8166.18243 7.51378e-18
8167.69938 7.32498e-18
8169.22637 7.26103e-18
8170.74332 7.19719e-18
8172.26026 7.44453e-18
8173.77721 7.69216e-18
8175.29416 7.59077e-18
8176.82115 7.48907e-18
8178.33809 7.45453e-18
8179.85504 7.42005e-18
8181.37199 7.43561e-18
8182.88893 7.45121e-18
8184.40588 7.89461e-18
8185.93287 8.33838e-18
8187.44982 7.95749e-18
8188.96676 7.57585e-18
8190.48371 7.87245e-18
8192.00065 8.16968e-18
8193.51760 7.80361e-18
8195.04459 7.43693e-18
8196.56154 7.33184e-18
8198.07848 7.22699e-18
8199.59543 7.22185e-18
8201.11238 7.21680e-18
8202.63937 7.12636e-18
8204.15631 7.03584e-18
8205.67326 7.18540e-18
8207.19021 7.33518e-18
8208.70715 7.31380e-18
8210.22410 7.29226e-18
8211.75109 7.20106e-18
8213.26804 7.10979e-18
8214.78498 7.37823e-18
8216.30193 7.64699e-18
8217.81887 7.34992e-18
8219.34587 7.05233e-18
8220.86281 6.69900e-18
8222.37976 6.34562e-18
8223.89670 6.74623e-18
8225.41365 7.14753e-18
8226.93060 6.97914e-18
8228.45759 6.81022e-18
8229.97453 6.55741e-18
8231.49148 6.30453e-18
8233.00843 6.35757e-18
8234.52537 6.41089e-18
8236.04232 6.54929e-18
8237.56931 6.68776e-18
8239.08626 6.47780e-18
8240.60320 6.26752e-18
8242.12015 6.14557e-18
8243.63709 6.02371e-18
8245.16409 5.90889e-18
8246.68103 5.79410e-18
8248.19798 5.95012e-18
8249.71492 6.10639e-18
8251.23187 6.08062e-18
8252.74882 6.05468e-18
8254.27581 6.09945e-18
8255.79275 6.14428e-18
8257.30970 5.91278e-18
8258.82665 5.68103e-18
8260.34359 5.58028e-18
8261.87058 5.47965e-18
8263.38753 5.05180e-18
8264.90448 4.62365e-18
8266.42142 4.86925e-18
8267.93837 5.11548e-18
8269.45531 4.87877e-18
8270.98231 4.64161e-18
8272.49925 4.80252e-18
8274.01620 4.96380e-18
8275.53314 4.39114e-18
8277.05009 3.81780e-18
8278.57708 3.44447e-18
8280.09403 3.07133e-18
8281.61097 2.23196e-18
8283.12792 1.39218e-18
8284.64487 1.86953e-18
8286.16181 2.34810e-18
8287.68880 2.85428e-18
8289.20575 3.36048e-18
8290.72270 3.00757e-18
8292.23964 2.65386e-18
8293.75659 2.41767e-18
8295.27353 2.18161e-18
8296.80053 2.92022e-18
8298.31747 3.65974e-18
8299.83442 3.59476e-18
8301.35136 3.52901e-18
8302.86831 3.46340e-18
8304.39530 3.39780e-18
8305.91225 3.24229e-18
8307.42919 3.08670e-18
8308.94614 2.73952e-18
8310.46309 2.39218e-18
8311.98003 2.03751e-18
8313.50702 1.68285e-18
8315.02397 1.87448e-18
8316.54092 2.06663e-18
8318.05786 2.22230e-18
8319.57481 2.37794e-18
8321.10180 2.03330e-18
8322.61875 1.68820e-18
8324.13569 2.01360e-18
8325.65264 2.33964e-18
8327.16958 2.12651e-18
8328.68653 1.91288e-18
8330.21352 1.68866e-18
8331.73047 1.46445e-18
8333.24741 1.38871e-18
8334.76436 1.31312e-18
8336.28131 1.11147e-18
8337.79825 9.09698e-19
8339.32524 2.71179e-19
8340.84219 -3.67739e-19
8342.35914 8.74943e-21
8343.87608 3.86198e-19
8345.39303 3.48425e-19
8346.92002 3.10255e-19
8348.43697 8.48197e-19
8349.95391 1.38668e-18
8351.47086 1.49528e-18
8352.98780 1.60347e-18
8354.50475 1.49224e-18
8356.03174 1.38079e-18
8357.54869 1.73447e-18
8359.06563 2.08859e-18
8360.58258 1.78442e-18
8362.09953 1.47964e-18
8363.62652 1.38518e-18
8365.14346 1.29091e-18
8366.66041 1.46663e-18
8368.17736 1.64259e-18
8369.69430 1.43306e-18
8371.21125 1.22317e-18
8372.73824 1.56535e-18
8374.25519 1.90804e-18
8375.77213 2.11912e-18
8377.28908 2.33006e-18
8378.80602 2.04831e-18
8380.33302 1.76608e-18
8381.84996 1.81648e-18
8383.36691 1.86721e-18
8384.88385 1.88855e-18
8386.40080 1.90987e-18
8387.91775 1.78038e-18
8389.44474 1.65074e-18
8390.96168 1.87312e-18
8392.47863 2.09583e-18
8393.99558 2.64358e-18
8395.51252 3.19163e-18
8397.02947 2.85444e-18
8398.55646 2.51640e-18
8400.07341 2.42779e-18
8401.59035 2.33942e-18
8403.10730 2.28253e-18
8404.62424 2.22568e-18
8406.14119 1.81058e-18
8407.66818 1.39515e-18
8409.18513 1.77563e-18
8410.70207 2.15687e-18
8412.21902 2.19982e-18
8413.73597 2.24245e-18
8415.26296 2.30653e-18
8416.77990 2.37063e-18
8418.29685 2.53706e-18
8419.81380 2.70359e-18
8421.33074 2.24652e-18
8422.84769 1.78885e-18
8424.37468 1.69681e-18
8425.89163 1.60513e-18
8427.40857 2.03776e-18
8428.92552 2.47089e-18
8430.44246 2.90694e-18
8431.96946 3.34298e-18
8433.48640 3.23303e-18
8435.00335 3.12254e-18
8436.52029 3.39126e-18
8438.03724 3.66034e-18
8439.55419 3.16688e-18
8441.08118 2.67269e-18
8442.59812 2.70472e-18
8444.11507 2.73726e-18
8445.63202 3.03820e-18
8447.14896 3.33939e-18
8448.66591 3.75295e-18
8450.19290 4.16661e-18
8451.70985 3.72729e-18
8453.22679 3.28714e-18
8454.74374 3.57922e-18
8456.26068 3.87200e-18
8457.78768 4.02581e-18
8459.30462 4.17947e-18
8460.82157 3.53903e-18
8462.33851 2.89783e-18
8463.85546 2.47193e-18
8465.37241 2.04625e-18
8466.89940 2.60302e-18
8468.41634 3.16075e-18
8469.93329 3.13803e-18
8471.45024 3.11474e-18
8472.96718 3.28798e-18
8474.49417 3.46141e-18
8476.01112 3.42273e-18
8477.52807 3.38385e-18
8479.04501 3.01958e-18
8480.56196 2.65500e-18
8482.07890 2.87590e-18
8483.60590 3.09737e-18
8485.12284 3.35308e-18
8486.63979 3.60881e-18
8488.15673 3.27123e-18
8489.67368 2.93308e-18
8491.20067 2.77949e-18
8492.71762 2.62609e-18
8494.23456 3.16102e-18
8495.75151 3.69662e-18
8497.26846 3.94994e-18
8498.78540 4.20298e-18
8500.31239 4.19629e-18
8501.82934 4.18935e-18
8503.34629 4.06697e-18
8504.86323 3.94447e-18
8506.38018 3.83319e-18
8507.89712 3.72192e-18
8509.42412 3.39639e-18
8510.94106 3.07065e-18
8512.45801 3.01224e-18
8513.97495 2.95410e-18
8515.49190 3.25999e-18
8517.01889 3.56624e-18
8518.53584 3.60118e-18
8520.05278 3.63584e-18
8521.56973 3.60469e-18
8523.08668 3.57347e-18
8524.60362 3.91868e-18
8526.13061 4.26424e-18
8527.64756 4.16595e-18
8529.16451 4.06721e-18
8530.68145 3.75820e-18
8532.19840 3.44899e-18
8533.72539 3.75067e-18
8535.24234 4.05295e-18
8536.75928 4.23569e-18
8538.27623 4.41831e-18
8539.79317 4.45219e-18
8541.31012 4.48592e-18
8542.83711 5.08308e-18
8544.35406 5.68077e-18
8545.87100 5.26581e-18
8547.38795 4.84985e-18
8548.90490 4.31712e-18
8550.42184 3.78428e-18
8551.94883 4.39422e-18
8553.46578 5.00529e-18
8554.98273 5.22709e-18
8556.49967 5.44850e-18
8558.01662 5.22921e-18
8559.54361 5.00949e-18
8561.06056 5.03061e-18
8562.57750 5.05198e-18
8564.09445 5.49762e-18
8565.61139 5.94367e-18
8567.12834 5.47687e-18
8568.65533 5.00917e-18
8570.17228 5.62526e-18
8571.68922 6.24242e-18
8573.20617 5.78259e-18
8574.72312 5.32170e-18
8576.25011 5.99486e-18
8577.76705 6.66914e-18
8579.28400 6.56697e-18
8580.80095 6.46403e-18
8582.31789 6.68560e-18
8583.83484 6.90749e-18
8585.36183 7.00366e-18
8586.87878 7.09971e-18
8588.39572 6.94426e-18
8589.91267 6.78857e-18
8591.42961 6.63639e-18
8592.94656 6.48423e-18
8594.47355 6.38907e-18
8595.99050 6.29398e-18
8597.50744 6.20338e-18
8599.02439 6.11278e-18
8600.54134 6.36157e-18
8602.06833 6.61070e-18
8603.58527 7.07304e-18
8605.10222 7.53559e-18
8606.61917 7.10615e-18
8608.13611 6.67582e-18
8609.65306 7.12506e-18
8611.18005 7.57518e-18
8612.69700 7.38446e-18
8614.21394 7.19311e-18
8615.73089 7.41577e-18
8617.24783 7.63885e-18
8618.77483 7.81089e-18
8620.29177 7.98288e-18
8621.80872 8.14725e-18
8623.32566 8.31160e-18
8624.84261 9.05585e-18
8626.35956 9.80067e-18
8627.88655 8.76807e-18
8629.40349 7.73371e-18
8630.92044 8.49602e-18
8632.43739 9.26013e-18
8633.95433 9.12107e-18
8635.48132 8.98110e-18
8636.99827 8.79882e-18
8638.51522 8.61650e-18
8640.03216 8.89914e-18
8641.54911 9.18224e-18
8643.06605 9.01612e-18
8644.59305 8.84956e-18
8646.10999 9.78255e-18
8647.62694 1.07166e-17
8649.14388 1.02144e-17
8650.66083 9.71076e-18
8652.17778 9.53169e-18
8653.70477 9.35295e-18
8655.22171 9.11433e-18
8656.73866 8.87566e-18
8658.25561 9.21069e-18
8659.77255 9.54630e-18
8661.29954 1.04479e-17
8662.81649 1.13501e-17
8664.33344 1.09098e-17
8665.85038 1.04680e-17
8667.36733 1.02447e-17
8668.88427 1.00216e-17
8670.41127 1.02470e-17
8671.92821 1.04729e-17
8673.44516 1.05167e-17
8674.96210 1.05604e-17
8676.47905 1.07230e-17
8678.00604 1.08857e-17
8679.52299 1.06780e-17
8681.03993 1.04700e-17
8682.55688 1.03146e-17
8684.07383 1.01592e-17
8685.59077 9.98908e-18
8687.11776 9.81898e-18
8688.63471 9.74727e-18
8690.15166 9.67567e-18
8691.66860 9.87446e-18
8693.18555 1.00735e-17
8694.70249 1.04256e-17
8696.22949 1.07779e-17
8697.74643 1.02434e-17
8699.26338 9.70790e-18
8700.78032 9.80944e-18
8702.29727 9.91163e-18
8703.82426 9.71555e-18
8705.34121 9.51916e-18
8706.85815 9.65455e-18
8708.37510 9.79028e-18
8709.89205 1.03565e-17
8711.40899 1.09232e-17
8712.93598 1.09818e-17
8714.45293 1.10399e-17
8715.96988 1.07559e-17
8717.48682 1.04715e-17
8719.00377 1.06380e-17
8720.53076 1.08050e-17
8722.04771 1.13886e-17
8723.56465 1.19727e-17
8725.08160 1.16237e-17
8726.59854 1.12738e-17
8728.11549 1.12098e-17
8729.64248 1.11461e-17
8731.15943 1.05062e-17
8732.67637 9.86577e-18
8734.19332 9.97130e-18
8735.71027 1.00776e-17
8737.22721 1.02832e-17
8738.75420 1.04890e-17
8740.27115 1.06183e-17
8741.78810 1.07476e-17
8743.30504 1.02378e-17
8744.82199 9.72734e-18
8746.33893 9.57578e-18
8747.86593 9.42460e-18
8749.38287 9.74971e-18
8750.89982 1.00753e-17
8752.41676 1.02461e-17
8753.93371 1.04166e-17
8755.46070 1.06802e-17
8756.97765 1.09439e-17
8758.49459 1.09301e-17
8760.01154 1.09160e-17
8761.52849 1.05218e-17
8763.04543 1.01272e-17
8764.57242 9.31154e-18
8766.08937 8.49541e-18
8767.60632 8.31237e-18
8769.12326 8.12999e-18
8770.64021 8.72435e-18
8772.16720 9.31951e-18
8773.68415 9.34051e-18
8775.20109 9.36091e-18
8776.71804 9.44030e-18
8778.23498 9.51975e-18
8779.75193 9.14933e-18
8781.27892 8.77845e-18
8782.79587 9.67425e-18
8784.31281 1.05713e-17
8785.82976 1.03753e-17
8787.34671 1.01782e-17
8788.86365 9.37569e-18
8790.39064 8.57261e-18
8791.90759 9.29788e-18
8793.42454 1.00247e-17
8794.94148 1.03785e-17
8796.45843 1.07319e-17
8797.98542 1.05380e-17
8799.50237 1.03436e-17
8801.01931 1.02394e-17
8802.53626 1.01353e-17
8804.05320 9.79226e-18
8805.57015 9.44898e-18
8807.09714 9.34720e-18
8808.61409 9.24568e-18
8810.13103 9.14474e-18
8811.64798 9.04381e-18
8813.16493 8.68722e-18
8814.69192 8.33038e-18
8816.20886 8.30999e-18
8817.72581 8.28996e-18
8819.24276 8.26992e-18
8820.75970 8.24987e-18
8822.27665 8.22984e-18
8823.80364 8.20980e-18
8825.32059 8.18976e-18
8826.83753 8.16972e-18
8828.35448 8.14969e-18
8829.87142 8.12966e-18
8831.39842 8.10962e-18
8832.91536 8.08958e-18
8834.43231 8.06955e-18
8835.94925 8.04952e-18
8837.46620 8.02948e-18
8838.98315 8.00945e-18
8840.51014 7.98942e-18
8842.02708 7.96939e-18
8843.54403 7.94936e-18
8845.06098 7.92932e-18
8846.57792 7.90930e-18
8848.09487 7.88927e-18
8849.62186 7.86923e-18
8851.13881 7.84920e-18
8852.65575 7.82918e-18
8854.17270 7.80916e-18
8855.68964 7.78912e-18
8857.21664 7.76909e-18
8858.73358 7.74907e-18
8860.25053 7.72904e-18
8861.76747 7.84738e-18
8863.28442 7.96586e-18
8864.80137 8.57409e-18
8866.32836 9.18284e-18
8867.84530 8.59782e-18
8869.36225 8.01155e-18
8870.87920 8.12130e-18
8872.39614 8.23179e-18
8873.92313 7.82490e-18
8875.44008 7.41746e-18
8876.95703 7.55175e-18
8878.47397 7.68662e-18
8879.99092 7.89181e-18
8881.50786 8.09707e-18
8883.03486 8.18903e-18
8884.55180 8.28087e-18
8886.06875 8.17777e-18
8887.58569 8.07446e-18
8889.10264 8.16664e-18
8890.62963 8.25902e-18
8892.14658 7.30074e-18
8893.66352 6.34135e-18
8895.18047 6.48793e-18
8896.69742 6.63568e-18
8898.21436 6.36945e-18
8899.74135 6.10279e-18
8901.25830 5.15474e-18
8902.77525 4.20598e-18
8904.29219 5.09765e-18
8905.80914 5.99127e-18
8907.32608 5.75569e-18
8908.85308 5.51892e-18
8910.37002 5.58599e-18
8911.88697 5.65339e-18
8913.40391 6.89897e-18
8914.92086 8.14580e-18
8916.44785 7.78563e-18
8917.96480 7.42376e-18
8919.48174 6.91840e-18
8920.99869 6.41290e-18
8922.51564 6.30359e-18
8924.03258 6.19469e-18
8925.55957 5.75123e-18
8927.07652 5.30742e-18
8928.59347 4.94508e-18
8930.11041 4.58284e-18
8931.62736 4.38617e-18
8933.15435 4.18969e-18
8934.67130 4.99624e-18
8936.18824 5.80384e-18
8937.70519 5.69305e-18
8939.22213 5.58127e-18
8940.73908 5.26828e-18
8942.26607 4.95509e-18
8943.78302 5.26477e-18
8945.29996 5.57512e-18
8946.81691 5.97797e-18
8948.33386 6.38091e-18
8949.86085 6.16322e-18
8951.37779 5.94485e-18
8952.89474 5.94044e-18
8954.41169 5.93625e-18
8955.92863 5.84190e-18
8957.44558 5.74745e-18
8958.97257 4.89484e-18
8960.48952 4.04143e-18
8962.00646 4.50246e-18
8963.52341 4.96489e-18
8965.04035 4.98623e-18
8966.55730 5.00710e-18
8968.08429 5.03902e-18
8969.60124 5.07095e-18
8971.11818 5.22327e-18
8972.63513 5.37573e-18
8974.15208 5.37265e-18
8975.67907 5.36940e-18
8977.19601 5.00180e-18
8978.71296 4.63381e-18
8980.22991 5.34377e-18
8981.74685 6.05489e-18
8983.26380 5.50367e-18
8984.79079 4.95110e-18
8986.30774 4.14376e-18
8987.82468 3.33616e-18
8989.34163 3.60726e-18
8990.85857 3.87952e-18
8992.38557 4.32579e-18
8993.90251 4.77225e-18
8995.41946 3.95130e-18
8996.93640 3.12900e-18
8998.45335 3.95481e-18
8999.97030 4.78239e-18
9001.49729 4.57354e-18
9003.01423 4.36357e-18
9004.53118 4.61330e-18
9006.04813 4.86353e-18
9007.56507 5.34300e-18
9009.08202 5.82272e-18
9010.60901 5.48156e-18
9012.12596 5.13952e-18
9013.64290 4.72936e-18
9015.15985 4.31913e-18
9016.67679 4.45534e-18
9018.20379 4.59213e-18
9019.72073 4.59694e-18
9021.23768 4.60159e-18
9022.75462 5.06425e-18
9024.27157 5.52740e-18
9025.78852 4.92335e-18
9027.31551 4.31815e-18
9028.83245 4.28392e-18
9030.34940 4.25032e-18
9031.86635 4.14961e-18
9033.38329 4.04883e-18
9034.91028 4.13363e-18
9036.42723 4.21862e-18
9037.94418 4.64448e-18
9039.46112 5.07070e-18
9040.97807 5.27648e-18
9042.49501 5.48202e-18
9044.02201 5.37762e-18
9045.53895 5.27289e-18
9047.05590 5.20343e-18
9048.57284 5.13400e-18
9050.08979 4.80304e-18
9051.61678 4.47180e-18
9053.13373 4.29641e-18
9054.65067 4.12120e-18
9056.16762 4.15987e-18
9057.68457 4.19879e-18
9059.20151 4.13961e-18
9060.72850 4.08032e-18
9062.24545 4.52327e-18
9063.76240 4.96676e-18
9065.27934 4.97379e-18
9066.79629 4.98033e-18
9068.31323 5.12484e-18
9069.84023 5.26950e-18
9071.35717 5.06139e-18
9072.87412 4.85289e-18
9074.39106 4.59112e-18
9075.90801 4.32930e-18
9077.43500 4.12144e-18
9078.95195 3.91363e-18
9080.46889 4.21016e-18
9081.98584 4.50723e-18
9083.50279 4.69392e-18
9085.01973 4.88048e-18
9086.53668 4.72280e-18
9088.06367 4.56474e-18
9089.58062 4.33529e-18
9091.09756 4.10571e-18
9092.61451 3.82654e-18
9094.13145 3.54731e-18
9095.65845 3.62282e-18
9097.17539 3.69872e-18
9098.69234 4.01413e-18
9100.20928 4.32981e-18
9101.72623 4.49115e-18
9103.24318 4.65231e-18
9104.77017 4.67899e-18
9106.28711 4.70552e-18
9107.80406 4.69672e-18
9109.32101 4.68789e-18
9110.83795 4.36380e-18
9112.36494 4.03935e-18
9113.88189 3.72854e-18
9115.39884 3.41774e-18
9116.91578 3.39462e-18
9118.43273 3.37181e-18
9119.94967 3.42575e-18
9121.47667 3.47978e-18
9122.99361 3.90367e-18
9124.51056 4.32797e-18
9126.02750 4.22189e-18
9127.54445 4.11521e-18
9129.06140 4.53353e-18
9130.58839 4.95242e-18
9132.10533 4.39360e-18
9133.62228 3.83370e-18
9135.13923 3.73236e-18
9136.65617 3.63153e-18
9138.18316 3.69869e-18
9139.70011 3.76603e-18
9141.21706 3.93796e-18
9142.73400 4.11001e-18
9144.25095 4.13637e-18
9145.76789 4.16256e-18
9147.29489 4.25342e-18
9148.81183 4.34435e-18
9150.32878 4.46877e-18
9151.84572 4.59322e-18
9153.36267 4.70384e-18
9154.88966 4.81443e-18
9156.40661 4.22480e-18
9157.92355 3.63440e-18
9159.44050 3.67141e-18
9160.95745 3.70913e-18
9162.47439 3.91332e-18
9164.00138 4.11770e-18
9165.51833 3.83564e-18
9167.03528 3.55304e-18
9168.55222 3.85259e-18
9170.06917 4.15278e-18
9171.59616 4.74079e-18
9173.11311 5.32911e-18
9174.63005 4.70156e-18
9176.14700 4.07266e-18
9177.66394 3.44896e-18
9179.18089 2.82528e-18
9180.70788 3.29759e-18
9182.22483 3.77113e-18
9183.74177 3.76917e-18
9185.25872 3.76668e-18
9186.77567 4.15875e-18
9188.29261 4.55125e-18
9189.81960 4.11674e-18
9191.33655 3.68132e-18
9192.85350 3.89583e-18
9194.37044 4.11107e-18
9195.88739 4.52192e-18
9197.41438 4.93298e-18
9198.93133 5.02961e-18
9200.44827 5.12589e-18
9201.96522 5.14027e-18
9203.48216 5.15457e-18
9204.99911 4.76750e-18
9206.52610 4.37999e-18
9208.04305 4.26677e-18
9209.55999 4.15387e-18
9211.07694 4.21363e-18
9212.59389 4.27358e-18
9214.12088 4.05042e-18
9215.63782 3.82695e-18
9217.15477 3.98399e-18
9218.67172 4.14146e-18
9220.18866 4.25177e-18
9221.70561 4.36202e-18
9223.23260 4.16503e-18
9224.74955 3.96769e-18
9226.26649 4.20817e-18
9227.78344 4.44914e-18
9229.30038 4.23841e-18
9230.81733 4.02717e-18
9232.34432 4.20568e-18
9233.86127 4.38463e-18
9235.37821 4.08685e-18
9236.89516 3.78853e-18
9238.41211 3.76826e-18
9239.93910 3.74830e-18
9241.45604 4.10205e-18
9242.97299 4.45622e-18
9244.48994 4.20264e-18
9246.00688 3.94837e-18
9247.52383 3.66580e-18
9249.05082 3.38319e-18
9250.56777 3.68481e-18
9252.08471 3.98709e-18
9253.60166 4.02256e-18
9255.11860 4.05772e-18
9256.64560 4.13220e-18
9258.16254 4.20672e-18
9259.67949 3.70908e-18
9261.19643 3.21080e-18
9262.71338 2.86685e-18
9264.23033 2.52308e-18
9265.75732 3.29790e-18
9267.27426 4.07397e-18
9268.79121 4.22889e-18
9270.30816 4.38309e-18
9271.82510 4.53609e-18
9273.34205 4.68908e-18
9274.86904 4.30152e-18
9276.38599 3.91335e-18
9277.90293 3.78268e-18
9279.41988 3.65231e-18
9280.93682 4.20524e-18
9282.46382 4.75893e-18
9283.98076 4.85121e-18
9285.49771 4.94296e-18
9287.01465 4.99238e-18
9288.53160 5.04176e-18
9290.04855 4.74883e-18
9291.57554 4.45552e-18
9293.09248 4.37570e-18
9294.60943 4.29613e-18
9296.12638 3.48877e-18
9297.64332 2.68058e-18
9299.17031 3.10027e-18
9300.68726 3.52136e-18
9302.20421 3.42944e-18
9303.72115 3.33694e-18
9305.23810 3.04923e-18
9306.75504 2.76130e-18
9308.28204 1.48354e-18
9309.79898 2.04671e-19
9311.31593 1.24478e-18
9312.83287 2.28753e-18
9314.34982 2.02898e-18
9315.87681 1.76896e-18
9317.39376 9.17194e-19
9318.91070 6.47677e-20
9320.42765 1.27689e-18
9321.94460 2.49135e-18
9323.46154 3.08310e-18
9324.98853 3.67411e-18
9326.50548 4.89622e-18
9328.02243 6.11902e-18
9329.53937 5.92572e-18
9331.05632 5.73079e-18
9332.57326 4.91762e-18
9334.10026 4.10375e-18
9335.61720 4.50727e-18
9337.13415 4.91218e-18
9338.65109 3.49639e-18
9340.16804 2.07851e-18
9341.69503 2.05301e-18
9343.21198 2.02911e-18
9344.72892 2.00574e-18
9346.24587 1.98237e-18
9347.76282 2.25355e-18
9349.27976 2.52506e-18
9350.80675 2.82018e-18
9352.32370 3.11532e-18
9353.84065 1.66409e-18
9355.35759 2.10881e-19
9356.87454 1.09881e-18
9358.40153 1.98943e-18
9359.91848 2.61457e-18
9361.43542 3.23940e-18
9362.95237 2.60530e-18
9364.46931 1.96976e-18
9365.98626 2.44692e-18
9367.51325 2.92536e-18
9369.03020 3.79341e-18
9370.54714 4.66191e-18
9372.06409 5.67036e-18
9373.58104 6.67895e-18
9375.09798 4.84210e-18
9376.62497 3.00198e-18
9378.14192 9.28907e-19
9379.65887 -1.14440e-18
9381.17581 1.47927e-19
9382.69276 1.44413e-18
9384.21975 2.40743e-18
9385.73670 3.37032e-18
9387.25364 3.56627e-18
9388.77059 3.76134e-18
9390.28753 3.61784e-18
9391.80448 3.47394e-18
9393.33147 3.38237e-18
9394.84842 3.29086e-18
9396.36536 3.64115e-18
9397.88231 3.99195e-18
9399.39926 4.50028e-18
9400.92625 5.00879e-18
9402.44319 4.28479e-18
9403.96014 3.55936e-18
9405.47709 2.89510e-18
9406.99403 2.23092e-18
9408.51098 2.53672e-18
9410.03797 2.84364e-18
9411.55492 2.30194e-18
9413.07186 1.75925e-18
9414.58881 2.29543e-18
9416.10575 2.83287e-18
9417.62270 2.95322e-18
9419.14969 3.07308e-18
9420.66664 3.67992e-18
9422.18358 4.28732e-18
9423.70053 3.68280e-18
9425.21748 3.07688e-18
9426.74447 3.04961e-18
9428.26141 3.02301e-18
9429.77836 3.96833e-18
9431.29531 4.91477e-18
9432.81225 3.84736e-18
9434.32920 2.77762e-18
9435.85619 2.26250e-18
9437.37314 1.74803e-18
9438.89008 2.15660e-18
9440.40703 2.56624e-18
9441.92397 4.64197e-18
9443.45097 6.71961e-18
9444.96791 5.89480e-18
9446.48486 5.06659e-18
9448.00180 4.06672e-18
9449.51875 3.06665e-18
9451.03570 3.65306e-18
9452.56269 4.24132e-18
9454.07963 3.93969e-18
9455.59658 3.63703e-18
9457.11353 3.55081e-18
9458.63047 3.46484e-18
9460.14742 2.94631e-18
9461.67441 2.42727e-18
9463.19136 2.19042e-18
9464.70830 1.95391e-18
9466.22525 2.04676e-18
9467.74219 2.14001e-18
9469.26919 2.53073e-18
9470.78613 2.92180e-18
9472.30308 2.73191e-18
9473.82002 2.54134e-18
9475.33697 1.78274e-18
9476.85392 1.02348e-18
9478.38091 1.19346e-18
9479.89785 1.36453e-18
9481.41480 2.41038e-18
9482.93175 3.45724e-18
9484.44869 3.39217e-18
9485.97568 3.32580e-18
9487.49263 2.85912e-18
9489.00958 2.39198e-18
9490.52652 2.26580e-18
9492.04347 2.14002e-18
9493.56041 2.51060e-18
9495.08741 2.88177e-18
9496.60435 2.96612e-18
9498.12130 3.05013e-18
9499.63824 2.90939e-18
9501.15519 2.76839e-18
9502.68218 2.92855e-18
9504.19913 3.08906e-18
9505.71607 2.53063e-18
9507.23302 1.97136e-18
9508.74997 1.74404e-18
9510.26691 1.51712e-18
9511.79390 1.58509e-18
9513.31085 1.65341e-18
9514.82780 2.68934e-18
9516.34474 3.72639e-18
9517.86169 3.18126e-18
9519.37863 2.63426e-18
9520.90563 1.96915e-18
9522.42257 1.30390e-18
9523.93952 1.76669e-18
9525.45646 2.23081e-18
9526.97341 2.53606e-18
9528.50040 2.84112e-18
9530.01735 2.39096e-18
9531.53429 1.93992e-18
9533.05124 2.67571e-18
9534.56819 3.41291e-18
9536.08513 3.10600e-18
9537.61212 2.79786e-18
9539.12907 2.58599e-18
9540.64602 2.37425e-18
9542.16296 2.33610e-18
9543.67991 2.29816e-18
9545.20690 2.51999e-18
9546.72385 2.74212e-18
9548.24079 2.34624e-18
9549.75774 1.94963e-18
9551.27468 2.15932e-18
9552.79163 2.36973e-18
9554.31862 1.92231e-18
9555.83557 1.47411e-18
9557.35251 2.08906e-18
9558.86946 2.70526e-18
9560.38641 2.38610e-18
9561.90335 2.06582e-18
9563.43034 2.20082e-18
9564.94729 2.33637e-18
9566.46424 2.93505e-18
9567.98118 3.53429e-18
9569.49813 3.12940e-18
9571.02512 2.72331e-18
9572.54207 2.07015e-18
9574.05901 1.41669e-18
9575.57596 1.81691e-18
9577.09290 2.21838e-18
9578.60985 2.32180e-18
9580.13684 2.42487e-18
9581.65379 2.24643e-18
9583.17073 2.06766e-18
9584.68768 1.98626e-18
9586.20463 1.90498e-18
9587.73162 1.66369e-18
9589.24856 1.42221e-18
9590.76551 2.41699e-18
9592.28246 3.41323e-18
9593.79940 3.50757e-18
9595.31635 3.60082e-18
9596.84334 2.93073e-18
9598.36029 2.25974e-18
9599.87723 2.34755e-18
9601.39418 2.43627e-18
9602.91112 2.50215e-18
9604.42807 2.56801e-18
9605.95506 2.46806e-18
9607.47201 2.36792e-18
9608.98895 2.50246e-18
9610.50590 2.63729e-18
9612.02285 2.99563e-18
9613.54984 3.35422e-18
9615.06678 4.04657e-18
9616.58373 4.73931e-18
9618.10068 3.77947e-18
9619.61762 2.81764e-18
9621.13457 1.88743e-18
9622.66156 9.57261e-19
9624.17851 2.14450e-18
9625.69545 3.33428e-18
9627.21240 2.51156e-18
9628.72934 1.68642e-18
9630.25634 1.88512e-18
9631.77328 2.08506e-18
9633.29023 2.16257e-18
9634.80717 2.23994e-18
9636.32412 1.90168e-18
9637.84107 1.56293e-18
9639.36806 2.08369e-18
9640.88500 2.60547e-18
9642.40195 2.42302e-18
9643.91890 2.23972e-18
9645.43584 2.18361e-18
9646.95279 2.12766e-18
