# wavelength flux
3788.72835 -2.07757e-17
3789.65258 -2.83972e-17
3790.58686 -3.60184e-17
3791.51109 -1.08442e-17
3792.43532 1.43291e-17
3793.35955 -3.28227e-18
3794.29383 -2.08930e-17
3795.21806 -1.98913e-17
3796.14230 -1.88896e-17
3797.06653 -1.85954e-17
3798.00081 -1.83012e-17
3798.92504 -1.80071e-17
3799.84927 -1.77129e-17
3800.77350 -1.74188e-17
3801.70778 -1.71247e-17
3802.63201 -1.68306e-17
3803.55624 -1.65365e-17
3804.48048 -1.62424e-17
3805.41475 -1.59483e-17
3806.33899 -1.56542e-17
3807.26322 -1.53602e-17
3808.18745 -1.50661e-17
3809.12173 -1.47721e-17
3810.04596 -2.13793e-17
3810.97019 -2.79861e-17
3811.89442 -1.35215e-17
3812.82870 9.42482e-19
3813.75293 -8.18799e-18
3814.67717 -1.73181e-17
3815.60140 -2.60074e-17
3816.53568 -3.46963e-17
3817.45991 -2.65924e-17
3818.38414 -1.84888e-17
3819.30837 -1.73829e-17
3820.24265 -1.62771e-17
3821.16688 -1.51711e-17
3822.09111 -1.40652e-17
3823.01535 -1.29594e-17
3823.94962 -1.18537e-17
3824.87386 -1.07481e-17
3825.79809 -9.64244e-18
3826.72232 -8.53686e-18
3827.65660 -7.43131e-18
3828.58083 -6.32566e-18
3829.50506 -5.22004e-18
3830.42929 -4.11461e-18
3831.36357 -3.00922e-18
3832.28780 -1.90387e-18
3833.21204 -7.98551e-19
3834.13627 3.06726e-19
3835.07055 1.41196e-18
3835.99478 2.51716e-18
3836.91901 3.62242e-18
3837.84324 1.22372e-17
3838.77752 2.08514e-17
3839.70175 1.01630e-17
3840.62598 -5.25154e-19
3841.55022 -1.22473e-17
3842.48449 -2.39688e-17
3843.40873 -1.07011e-17
3844.33296 2.56597e-18
3845.25719 1.57082e-18
3846.19147 5.75893e-19
3847.11570 1.30905e-17
3848.03993 2.56043e-17
3848.96416 9.87708e-18
3849.89844 -5.84949e-18
3850.82267 -1.13289e-17
3851.74691 -1.68083e-17
3852.67114 -2.82485e-17
3853.60542 -3.96880e-17
3854.52965 -3.07055e-17
3855.45388 -2.17233e-17
3856.37811 -6.83710e-18
3857.31239 8.04822e-18
3858.23662 1.00225e-18
3859.16085 -6.04322e-18
3860.08509 3.18721e-18
3861.01936 1.24172e-17
3861.94360 1.30687e-17
3862.86783 1.37200e-17
3863.79206 3.05516e-18
3864.72634 -7.60884e-18
3865.65057 6.80045e-18
3866.57480 2.12092e-17
3867.49903 3.32016e-17
3868.43331 4.51931e-17
3869.35754 3.22795e-17
3870.28178 1.93663e-17
3871.20601 9.75468e-18
3872.14029 1.43441e-19
3873.06452 -5.26508e-18
3873.98875 -1.06733e-17
3874.91298 -9.32984e-18
3875.84726 -7.98649e-18
3876.77149 -9.05215e-18
3877.69572 -1.01176e-17
3878.61996 -1.76770e-18
3879.55423 6.58212e-18
3880.47847 2.47355e-17
3881.40270 4.28876e-17
3882.32693 2.59105e-17
3883.26121 8.93436e-18
3884.18544 4.59770e-18
3885.10967 2.61513e-19
3886.03390 1.00087e-17
3886.96818 1.97553e-17
3887.89241 1.81643e-17
3888.81665 1.65733e-17
3889.74088 1.27895e-17
3890.67516 9.00611e-18
3891.59939 1.67342e-17
3892.52362 2.44614e-17
3893.44785 8.01559e-18
3894.38213 -8.42896e-18
3895.30636 3.44903e-18
3896.23059 1.53265e-17
3897.15483 1.98627e-17
3898.08910 2.43986e-17
3899.01334 2.17579e-17
3899.93757 1.91170e-17
3900.86180 2.15959e-18
3901.79608 -1.47966e-17
3902.72031 -5.23693e-18
3903.64454 4.32189e-18
3904.56877 -4.33802e-18
3905.50305 -1.29973e-17
3906.42728 -7.19764e-18
3907.35152 -1.39805e-18
3908.27575 9.95284e-18
3909.21003 2.13030e-17
3910.13426 2.19210e-17
3911.05849 2.25389e-17
3911.98272 2.09806e-17
3912.91700 1.94224e-17
3913.84123 1.99287e-17
3914.76546 2.04350e-17
3915.68970 2.44092e-17
3916.62397 2.83833e-17
3917.54821 3.41350e-17
3918.47244 3.98858e-17
3919.39667 2.37987e-17
3920.33095 7.71267e-18
3921.25518 7.79026e-18
3922.17941 7.86798e-18
3923.10364 1.17704e-17
3924.03792 1.56727e-17
3924.96215 2.17160e-17
3925.88639 2.77587e-17
3926.81062 2.19650e-17
3927.74490 1.61719e-17
3928.66913 2.17527e-17
3929.59336 2.73329e-17
3930.51759 2.14454e-17
3931.45187 1.55585e-17
3932.37610 2.14325e-17
3933.30033 2.73055e-17
3934.22457 1.04911e-17
3935.15884 -6.32185e-18
3936.08308 5.87877e-18
3937.00731 1.80785e-17
3937.93154 1.58679e-17
3938.86582 1.36572e-17
3939.79005 6.51996e-18
3940.71428 -6.16445e-19
3941.63851 8.36148e-18
3942.57279 1.73389e-17
3943.49702 1.97267e-17
3944.42126 2.21143e-17
3945.34549 2.25295e-17
3946.27977 2.29448e-17
3947.20400 2.53486e-17
3948.12823 2.77523e-17
3949.05246 3.19890e-17
3949.98674 3.62249e-17
3950.91097 2.42344e-17
3951.83520 1.22448e-17
3952.75944 1.48964e-17
3953.69371 1.75481e-17
3954.61795 2.48284e-17
3955.54218 3.21078e-17
3956.46641 2.34360e-17
3957.40069 1.47650e-17
3958.32492 1.91054e-17
3959.24915 2.34453e-17
3960.17338 1.74141e-17
3961.10766 1.13834e-17
3962.03189 1.13366e-17
3962.95613 1.12900e-17
3963.88036 1.44441e-17
3964.81464 1.75980e-17
3965.73887 1.56221e-17
3966.66310 1.36462e-17
3967.58733 1.07740e-17
3968.52161 7.90236e-18
3969.44584 1.30222e-17
3970.37007 1.81419e-17
3971.29431 2.35204e-17
3972.22858 2.88983e-17
3973.15282 2.50193e-17
3974.07705 2.11406e-17
3975.00128 2.15158e-17
3975.93556 2.18910e-17
3976.85979 2.27001e-17
3977.78402 2.35095e-17
3978.70825 3.04089e-17
3979.64253 3.73076e-17
3980.56676 3.38690e-17
3981.49100 3.04305e-17
3982.41523 2.47934e-17
3983.34951 1.91570e-17
3984.27374 2.22338e-17
3985.19797 2.53107e-17
3986.12220 3.00137e-17
3987.05648 3.47159e-17
3987.98071 2.66959e-17
3988.90494 1.86766e-17
3989.82918 2.29620e-17
3990.76345 2.72469e-17
3991.68769 2.45796e-17
3992.61192 2.19125e-17
3993.53615 2.21091e-17
3994.47043 2.23058e-17
3995.39466 2.36106e-17
3996.31889 2.49158e-17
3997.24312 3.30271e-17
3998.17740 4.11375e-17
3999.10163 3.56448e-17
4000.02587 3.01526e-17
4000.95010 3.15767e-17
4001.88438 3.30005e-17
4002.80861 2.95401e-17
4003.73284 2.60804e-17
4004.65707 3.29709e-17
4005.59135 3.98608e-17
4006.51558 3.68089e-17
4007.43981 3.37571e-17
4008.36405 3.06215e-17
4009.29832 2.74861e-17
4010.22256 2.69493e-17
4011.14679 2.64124e-17
4012.07102 2.44412e-17
4013.00530 2.24701e-17
4013.92953 2.32648e-17
4014.85376 2.40596e-17
4015.77799 2.67798e-17
4016.71227 2.94996e-17
4017.63650 2.59412e-17
4018.56074 2.23831e-17
4019.48497 2.49021e-17
4020.41925 2.74209e-17
4021.34348 2.88370e-17
4022.26771 3.02531e-17
4023.19194 2.95170e-17
4024.12622 2.87810e-17
4025.05045 2.86382e-17
4025.97468 2.84955e-17
4026.89892 3.06138e-17
4027.83319 3.27319e-17
4028.75743 3.12405e-17
4029.68166 2.97490e-17
4030.61594 2.61020e-17
4031.54017 2.24556e-17
4032.46440 2.54897e-17
4033.38863 2.85235e-17
4034.31286 2.72018e-17
4035.24714 2.58806e-17
4036.17137 3.04675e-17
4037.09561 3.50534e-17
4038.01984 2.57158e-17
4038.95412 1.63793e-17
4039.87835 1.91768e-17
4040.80258 2.19743e-17
4041.72681 2.57960e-17
4042.66109 2.96177e-17
4043.58532 3.43725e-17
4044.50955 3.91267e-17
4045.43379 3.66468e-17
4046.36806 3.41669e-17
4047.29230 3.11467e-17
4048.21653 2.81270e-17
4049.14076 3.15720e-17
4050.07504 3.50165e-17
4050.99927 3.28249e-17
4051.92350 3.06333e-17
4052.84773 2.84673e-17
4053.78201 2.63015e-17
4054.70624 2.68373e-17
4055.63048 2.73729e-17
4056.56475 2.44136e-17
4057.48899 2.14548e-17
4058.41322 2.30851e-17
4059.33745 2.47155e-17
4060.26168 2.81028e-17
4061.19596 3.14899e-17
4062.12019 3.14228e-17
4063.04442 3.13555e-17
4063.96866 2.92348e-17
4064.90293 2.71144e-17
4065.82717 2.65772e-17
4066.75140 2.60398e-17
4067.67563 2.22064e-17
4068.60991 1.83737e-17
4069.53414 2.40339e-17
4070.45837 2.96934e-17
4071.39265 2.74986e-17
4072.31688 2.53040e-17
4073.24111 2.44424e-17
4074.16535 2.35808e-17
4075.09962 2.03077e-17
4076.02386 1.70354e-17
4076.94809 2.28850e-17
4077.87232 2.87340e-17
4078.80660 2.76683e-17
4079.73083 2.66025e-17
4080.65506 2.32753e-17
4081.57929 1.99487e-17
4082.51357 2.26584e-17
4083.43780 2.53676e-17
4084.36204 2.15851e-17
4085.28627 1.78028e-17
4086.22055 1.45671e-17
4087.14478 1.13317e-17
4088.06901 1.26088e-17
4088.99324 1.38861e-17
4089.92752 1.81894e-17
4090.85175 2.24921e-17
4091.77598 2.04282e-17
4092.70022 1.83646e-17
4093.63449 1.91384e-17
4094.55873 1.99121e-17
4095.48296 1.98901e-17
4096.40719 1.98680e-17
4097.33142 1.96644e-17
4098.26570 1.94606e-17
4099.18993 1.62499e-17
4100.11416 1.30399e-17
4101.04844 1.65445e-17
4101.97267 2.00485e-17
4102.89691 1.60279e-17
4103.82114 1.20080e-17
4104.75542 1.58273e-17
4105.67965 1.96463e-17
4106.60388 1.93431e-17
4107.52811 1.90400e-17
4108.46239 2.05713e-17
4109.38662 2.21023e-17
4110.31085 2.14241e-17
4111.23509 2.07459e-17
4112.16936 1.78208e-17
4113.09360 1.48960e-17
4114.01783 1.38707e-17
4114.94206 1.28455e-17
4115.87634 1.27307e-17
4116.80057 1.26162e-17
4117.72480 1.49443e-17
4118.64903 1.72720e-17
4119.58331 1.42679e-17
4120.50754 1.12644e-17
4121.43178 1.45452e-17
4122.35601 1.78254e-17
4123.29029 1.61572e-17
4124.21452 1.44890e-17
4125.13875 1.25697e-17
4126.06298 1.06505e-17
4126.99726 1.03538e-17
4127.92149 1.00574e-17
4128.84572 1.29021e-17
4129.76996 1.57463e-17
4130.70423 1.23491e-17
4131.62847 8.95230e-18
4132.55270 9.52139e-18
4133.47693 1.00905e-17
4134.41121 1.07249e-17
4135.33544 1.13594e-17
4136.25967 1.32873e-17
4137.18390 1.52151e-17
4138.11818 1.65766e-17
4139.04241 1.79379e-17
4139.96665 1.78818e-17
4140.89088 1.78254e-17
4141.82516 1.51486e-17
4142.74939 1.24721e-17
4143.67362 1.24715e-17
4144.59785 1.24711e-17
4145.53213 1.39230e-17
4146.45636 1.53747e-17
4147.38059 1.51324e-17
4148.30483 1.48901e-17
4149.23910 1.51444e-17
4150.16334 1.53988e-17
4151.08757 1.51973e-17
4152.01180 1.49956e-17
4152.94608 1.28479e-17
4153.87031 1.07007e-17
4154.79454 1.43781e-17
4155.71877 1.80549e-17
4156.65305 1.63723e-17
4157.57728 1.46897e-17
4158.50152 1.14570e-17
4159.42575 8.22504e-18
4160.36003 1.14952e-17
4161.28426 1.47650e-17
4162.20849 1.40380e-17
4163.13272 1.33112e-17
4164.06700 1.37894e-17
4164.99123 1.42673e-17
4165.91546 1.12819e-17
4166.83970 8.29697e-18
4167.77397 1.07646e-17
4168.69821 1.32321e-17
4169.62244 1.40796e-17
4170.54667 1.49271e-17
4171.48095 1.59905e-17
4172.40518 1.70537e-17
4173.32941 1.61251e-17
4174.25364 1.51963e-17
4175.18792 1.22209e-17
4176.11215 9.24584e-18
4177.03639 9.02829e-18
4177.96062 8.81089e-18
4178.89490 1.00838e-17
4179.81913 1.13568e-17
4180.74336 1.35591e-17
4181.66759 1.57610e-17
4182.60187 1.41758e-17
4183.52610 1.25908e-17
4184.45033 1.24693e-17
4185.37457 1.23474e-17
4186.30884 9.45956e-18
4187.23308 6.57207e-18
4188.15731 6.70721e-18
4189.08154 6.84270e-18
4190.01582 1.06054e-17
4190.94005 1.43677e-17
4191.86428 1.46435e-17
4192.78851 1.49191e-17
4193.72279 1.35118e-17
4194.64702 1.21044e-17
4195.57126 9.82006e-18
4196.49549 7.53618e-18
4197.42977 9.48022e-18
4198.35400 1.14237e-17
4199.27823 8.89381e-18
4200.20246 6.36424e-18
4201.13674 6.79020e-18
4202.06097 7.21633e-18
4202.98520 9.50636e-18
4203.90944 1.17959e-17
4204.84371 9.77078e-18
4205.76795 7.74615e-18
4206.69218 9.81605e-18
4207.61641 1.18853e-17
4208.55069 8.59706e-18
4209.47492 5.30942e-18
4210.39915 7.40919e-18
4211.32338 9.50879e-18
4212.25766 1.05304e-17
4213.18189 1.15517e-17
4214.10613 1.11807e-17
4215.03036 1.08099e-17
4215.96464 1.16267e-17
4216.88887 1.24432e-17
4217.81310 1.12436e-17
4218.73733 1.00441e-17
4219.67161 9.54066e-18
4220.59584 9.03718e-18
4221.52007 8.55326e-18
4222.44431 8.06961e-18
4223.37858 1.00609e-17
4224.30282 1.20519e-17
4225.22705 1.16748e-17
4226.15128 1.12978e-17
4227.08556 1.22751e-17
4228.00979 1.32525e-17
4228.93402 1.43253e-17
4229.85825 1.53979e-17
4230.79253 1.46360e-17
4231.71676 1.38740e-17
4232.64100 1.22878e-17
4233.56523 1.07017e-17
4234.49951 1.06169e-17
4235.42374 1.05321e-17
4236.34797 1.16083e-17
4237.27220 1.26841e-17
4238.20648 1.12229e-17
4239.13071 9.76190e-18
4240.05494 9.01917e-18
4240.97918 8.27688e-18
4241.91345 1.12772e-17
4242.83769 1.42770e-17
4243.76192 1.28955e-17
4244.68615 1.15140e-17
4245.62043 9.43157e-18
4246.54466 7.34960e-18
4247.46889 9.11611e-18
4248.39312 1.08825e-17
4249.32740 1.25292e-17
4250.25163 1.41754e-17
4251.17587 1.30179e-17
4252.10010 1.18606e-17
4253.03438 1.15749e-17
4253.95861 1.12891e-17
4254.88284 1.01836e-17
4255.80707 9.07853e-18
4256.74135 1.09073e-17
4257.66558 1.27358e-17
4258.58981 1.24195e-17
4259.51405 1.21032e-17
4260.44832 1.14559e-17
4261.37256 1.08088e-17
4262.29679 1.12010e-17
4263.22102 1.15934e-17
4264.15530 1.31518e-17
4265.07953 1.47099e-17
4266.00376 1.39906e-17
4266.92799 1.32715e-17
4267.86227 1.37488e-17
4268.78650 1.42259e-17
4269.71074 1.41428e-17
4270.63497 1.40599e-17
4271.56925 1.50474e-17
4272.49348 1.60346e-17
4273.41771 1.53249e-17
4274.34194 1.46152e-17
4275.27622 1.36506e-17
4276.20045 1.26862e-17
4277.12468 1.32713e-17
4278.04892 1.38560e-17
4278.98319 1.25005e-17
4279.90743 1.11452e-17
4280.83166 1.16355e-17
4281.75589 1.21258e-17
4282.69017 1.18280e-17
4283.61440 1.15301e-17
4284.53863 9.73998e-18
4285.46286 7.95039e-18
4286.39714 9.69660e-18
4287.32137 1.14425e-17
4288.24561 1.10627e-17
4289.16984 1.06831e-17
4290.10412 1.28831e-17
4291.02835 1.50828e-17
4291.95258 1.48740e-17
4292.87681 1.46650e-17
4293.81109 1.26973e-17
4294.73532 1.07298e-17
4295.65955 1.00398e-17
4296.58379 9.35011e-18
4297.51806 1.10012e-17
4298.44230 1.26521e-17
4299.36653 1.30992e-17
4300.29076 1.35461e-17
4301.22504 1.26612e-17
4302.14927 1.17765e-17
4303.07350 1.17703e-17
4303.99773 1.17643e-17
4304.93201 1.25295e-17
4305.85624 1.32945e-17
4306.78048 1.24068e-17
4307.70471 1.15192e-17
4308.63899 1.10572e-17
4309.56322 1.05953e-17
4310.48745 1.04650e-17
4311.41168 1.03348e-17
4312.34596 1.09291e-17
4313.27019 1.15233e-17
4314.19442 1.19287e-17
4315.11866 1.23342e-17
4316.05293 1.29851e-17
4316.97717 1.36360e-17
4317.90140 1.32014e-17
4318.82563 1.27669e-17
4319.75991 1.17909e-17
4320.68414 1.08150e-17
4321.60837 1.06517e-17
4322.53260 1.04885e-17
4323.46688 1.07921e-17
4324.39111 1.10957e-17
4325.31535 1.14317e-17
4326.23958 1.17676e-17
4327.17386 1.15415e-17
4328.09809 1.13156e-17
4329.02232 1.24391e-17
4329.94655 1.35622e-17
4330.88083 1.25098e-17
4331.80506 1.14577e-17
4332.72929 1.24722e-17
4333.65353 1.34863e-17
4334.58780 1.21384e-17
4335.51204 1.07908e-17
4336.43627 1.12960e-17
4337.36050 1.18011e-17
4338.29478 1.23765e-17
4339.21901 1.29518e-17
4340.14324 1.34560e-17
4341.06747 1.39600e-17
4342.00175 1.33693e-17
4342.92598 1.27785e-17
4343.85022 1.23978e-17
4344.77445 1.20172e-17
4345.70873 1.19692e-17
4346.63296 1.19213e-17
4347.55719 1.26772e-17
4348.48142 1.34328e-17
4349.41570 1.28774e-17
4350.33993 1.23219e-17
4351.26416 1.19308e-17
4352.18840 1.15397e-17
4353.12267 1.14163e-17
4354.04691 1.12929e-17
4354.97114 1.10569e-17
4355.89537 1.08212e-17
4356.82965 1.28574e-17
4357.75388 1.48931e-17
4358.67811 1.35575e-17
4359.60234 1.22219e-17
4360.53662 1.11372e-17
4361.46085 1.00526e-17
4362.38509 9.57575e-18
4363.30932 9.09913e-18
4364.24360 1.01790e-17
4365.16783 1.12586e-17
4366.09206 1.15522e-17
4367.01629 1.18459e-17
4367.95057 1.28761e-17
4368.87480 1.39063e-17
4369.79903 1.44347e-17
4370.72327 1.49630e-17
4371.65754 1.49351e-17
4372.58178 1.49070e-17
4373.50601 1.30103e-17
4374.43024 1.11140e-17
4375.36452 1.13505e-17
4376.28875 1.15870e-17
4377.21298 1.16522e-17
4378.13721 1.17174e-17
4379.07149 1.17979e-17
4379.99572 1.18783e-17
4380.91996 1.08868e-17
4381.84419 9.89581e-18
4382.77847 1.14543e-17
4383.70270 1.30124e-17
4384.62693 1.31438e-17
4385.55116 1.32750e-17
4386.48544 1.21365e-17
4387.40967 1.09983e-17
4388.33390 1.17350e-17
4389.25814 1.24714e-17
4390.19241 1.23601e-17
4391.11665 1.22487e-17
4392.04088 1.23277e-17
4392.96511 1.24067e-17
4393.89939 1.24507e-17
4394.82362 1.24947e-17
4395.74785 1.25367e-17
4396.67208 1.25788e-17
4397.60636 1.30804e-17
4398.53059 1.35818e-17
4399.45483 1.27655e-17
4400.37906 1.19496e-17
4401.31334 1.32398e-17
4402.23757 1.45297e-17
4403.16180 1.40180e-17
4404.08603 1.35061e-17
4405.02031 1.25411e-17
4405.94454 1.15764e-17
4406.86877 1.24403e-17
4407.79301 1.33039e-17
4408.72728 1.30451e-17
4409.65152 1.27860e-17
4410.57575 1.14924e-17
4411.49998 1.01989e-17
4412.43426 1.00731e-17
4413.35849 9.94733e-18
4414.28272 1.03030e-17
4415.20695 1.06585e-17
4416.14123 1.04966e-17
4417.06546 1.03347e-17
4417.98970 9.56819e-18
4418.91393 8.80207e-18
4419.84821 1.02498e-17
4420.77244 1.16972e-17
4421.69667 1.18490e-17
4422.63095 1.20009e-17
4423.55518 1.20921e-17
4424.47941 1.21833e-17
4425.40364 1.17486e-17
4426.32788 1.13139e-17
4427.26215 1.13674e-17
4428.18639 1.14209e-17
4429.11062 1.13588e-17
4430.03485 1.12965e-17
4430.96913 1.05733e-17
4431.89336 9.85006e-18
4432.81759 9.12999e-18
4433.74182 8.41010e-18
4434.67610 8.76257e-18
4435.60033 9.11497e-18
4436.52457 9.07559e-18
4437.44880 9.03617e-18
4438.38308 8.76664e-18
4439.30731 8.49713e-18
4440.23154 8.30151e-18
4441.15577 8.10598e-18
4442.09005 8.40051e-18
4443.01428 8.69498e-18
4443.93851 8.65298e-18
4444.86275 8.61097e-18
4445.79702 8.50165e-18
4446.72126 8.39243e-18
4447.64549 8.85771e-18
4448.56972 9.32284e-18
4449.50400 8.92188e-18
4450.42823 8.52093e-18
4451.35246 8.16115e-18
4452.28674 7.80149e-18
4453.21097 8.11801e-18
4454.13520 8.43442e-18
4455.05944 8.19887e-18
4455.98367 7.96334e-18
4456.91795 7.80805e-18
4457.84218 7.65287e-18
4458.76641 8.11446e-18
4459.69064 8.57599e-18
4460.62492 8.79610e-18
4461.54915 9.01606e-18
4462.47338 8.33148e-18
4463.39762 7.64714e-18
4464.33189 8.30758e-18
4465.25613 8.96783e-18
4466.18036 8.62554e-18
4467.10459 8.28316e-18
4468.03887 7.28615e-18
4468.96310 6.28944e-18
4469.88733 6.87758e-18
4470.82161 7.46567e-18
4471.74584 7.87013e-18
4472.67007 8.27451e-18
4473.59431 8.26971e-18
4474.52858 8.26479e-18
4475.45282 7.49268e-18
4476.37705 6.72080e-18
4477.30128 7.11468e-18
4478.23556 7.50840e-18
4479.15979 6.99197e-18
4480.08402 6.47562e-18
4481.00825 6.34246e-18
4481.94253 6.20939e-18
4482.86676 6.61294e-18
4483.79100 7.01646e-18
4484.71523 7.34069e-18
4485.64951 7.66486e-18
4486.57374 7.67326e-18
4487.49797 7.68185e-18
4488.42220 8.77145e-18
4489.34643 9.86071e-18
4490.28071 9.17745e-18
4491.20494 8.49428e-18
4492.12918 8.19758e-18
4493.05341 7.90094e-18
4493.98769 7.83276e-18
4494.91192 7.76464e-18
4495.83615 8.01607e-18
4496.76038 8.26734e-18
4497.69466 7.66138e-18
4498.61889 7.05579e-18
4499.54312 8.50799e-18
4500.47740 9.95973e-18
4501.40163 9.09840e-18
4502.32587 8.23730e-18
4503.25010 8.52735e-18
4504.18438 8.81730e-18
4505.10861 8.58322e-18
4506.03284 8.34915e-18
4506.95707 8.07839e-18
4507.89135 7.80769e-18
4508.81558 7.73883e-18
4509.73981 7.67013e-18
4510.66405 8.41146e-18
4511.59832 9.15268e-18
4512.52256 9.35441e-18
4513.44679 9.55595e-18
4514.37102 8.73387e-18
4515.29525 7.91213e-18
4516.22953 8.84797e-18
4517.15376 9.78358e-18
4518.07799 9.59020e-18
4519.01227 9.39713e-18
4519.93650 1.08617e-17
4520.86074 1.23259e-17
4521.78497 1.21526e-17
4522.71925 1.19791e-17
4523.64348 1.07339e-17
4524.56771 9.48887e-18
4525.49194 9.25989e-18
4526.42622 9.03114e-18
4527.35045 1.00077e-17
4528.27468 1.09841e-17
4529.19892 1.12081e-17
4530.13319 1.14321e-17
4531.05743 1.15861e-17
4531.98166 1.17401e-17
4532.90589 1.18396e-17
4533.84017 1.19389e-17
4534.76440 1.14367e-17
4535.68863 1.09347e-17
4536.61286 1.13652e-17
4537.54714 1.17958e-17
4538.47137 1.19739e-17
4539.39561 1.21519e-17
4540.31984 1.19675e-17
4541.25412 1.17833e-17
4542.17835 1.21466e-17
4543.10258 1.25099e-17
4544.02681 1.26604e-17
4544.96109 1.28108e-17
4545.88532 1.24773e-17
4546.80955 1.21441e-17
4547.73379 1.29701e-17
4548.66806 1.37960e-17
4549.59230 1.36850e-17
4550.51653 1.35742e-17
4551.44076 1.40374e-17
4552.37504 1.45004e-17
4553.29927 1.41678e-17
4554.22350 1.38354e-17
4555.14773 1.48056e-17
4556.08201 1.57754e-17
4557.00624 1.43082e-17
4557.93048 1.28415e-17
4558.85471 1.34564e-17
4559.78899 1.40713e-17
4560.71322 1.42622e-17
4561.63745 1.44531e-17
4562.56168 1.46780e-17
4563.49596 1.49028e-17
4564.42019 1.48768e-17
4565.34442 1.48510e-17
4566.26866 1.52445e-17
4567.20293 1.56379e-17
4568.12717 1.59500e-17
4569.05140 1.62620e-17
4569.97563 1.59283e-17
4570.90991 1.55947e-17
4571.83414 1.58048e-17
4572.75837 1.60149e-17
4573.68260 1.61089e-17
4574.61688 1.62029e-17
4575.54111 1.66739e-17
4576.46535 1.71446e-17
4577.38958 1.66492e-17
4578.32386 1.61540e-17
4579.24809 1.63008e-17
4580.17232 1.64477e-17
4581.09655 1.68848e-17
4582.03083 1.73218e-17
4582.95506 1.72837e-17
4583.87929 1.72456e-17
4584.80353 1.73027e-17
4585.73780 1.73599e-17
4586.66204 1.73678e-17
4587.58627 1.73757e-17
4588.51050 1.69637e-17
4589.44478 1.65518e-17
4590.36901 1.70506e-17
4591.29324 1.75492e-17
4592.21747 1.71096e-17
4593.15175 1.66702e-17
4594.07598 1.68696e-17
4595.00022 1.70690e-17
4595.92445 1.79741e-17
4596.85873 1.88788e-17
4597.78296 1.78068e-17
4598.70719 1.67353e-17
4599.63142 1.77236e-17
4600.56570 1.87116e-17
4601.48993 1.85098e-17
4602.41416 1.83081e-17
4603.33840 1.86763e-17
4604.27267 1.90444e-17
4605.19691 1.92712e-17
4606.12114 1.94979e-17
4607.04537 1.96380e-17
4607.97965 1.97781e-17
4608.90388 1.96539e-17
4609.82811 1.95298e-17
4610.75234 1.96450e-17
4611.68662 1.97602e-17
4612.61085 2.03377e-17
4613.53509 2.09150e-17
4614.45932 2.08818e-17
4615.39360 2.08485e-17
4616.31783 2.08870e-17
4617.24206 2.09256e-17
4618.16629 2.22026e-17
4619.10057 2.34791e-17
4620.02480 2.30895e-17
4620.94903 2.26998e-17
4621.87327 2.21482e-17
4622.80754 2.15968e-17
4623.73178 2.18256e-17
4624.65601 2.20543e-17
4625.58024 2.17222e-17
4626.51452 2.13902e-17
4627.43875 2.15794e-17
4628.36298 2.17685e-17
4629.28721 2.16919e-17
4630.22149 2.16154e-17
4631.14572 2.18622e-17
4632.06996 2.21088e-17
4632.99419 2.21787e-17
4633.92847 2.22487e-17
4634.85270 2.25021e-17
4635.77693 2.27554e-17
4636.70116 2.27826e-17
4637.63544 2.28098e-17
4638.55967 2.28795e-17
4639.48390 2.29490e-17
4640.40814 2.20671e-17
4641.34241 2.11856e-17
4642.26665 2.16898e-17
4643.19088 2.21940e-17
4644.11511 2.27826e-17
4645.04939 2.33711e-17
4645.97362 2.33911e-17
4646.89785 2.34109e-17
4647.82208 2.29135e-17
4648.75636 2.24163e-17
4649.68059 2.27001e-17
4650.60483 2.29841e-17
4651.52906 2.34656e-17
4652.46334 2.39471e-17
4653.38757 2.43874e-17
4654.31180 2.48275e-17
4655.23603 2.47589e-17
4656.17031 2.46903e-17
4657.09454 2.47646e-17
4658.01877 2.48389e-17
4658.94301 2.52514e-17
4659.87728 2.56638e-17
4660.80152 2.56488e-17
4661.72575 2.56338e-17
4662.64998 2.55155e-17
4663.58426 2.53972e-17
4664.50849 2.50083e-17
4665.43272 2.46195e-17
4666.35695 2.41854e-17
4667.29123 2.37515e-17
4668.21546 2.37971e-17
4669.13970 2.38429e-17
4670.06393 2.42404e-17
4670.99821 2.46379e-17
4671.92244 2.49725e-17
4672.84667 2.53070e-17
4673.77090 2.49916e-17
4674.70518 2.46762e-17
4675.62941 2.46080e-17
4676.55364 2.45397e-17
4677.47788 2.44381e-17
4678.41215 2.43364e-17
4679.33639 2.43225e-17
4680.26062 2.43087e-17
4681.18485 2.41516e-17
4682.11913 2.39946e-17
4683.04336 2.39872e-17
4683.96759 2.39798e-17
4684.89182 2.41383e-17
4685.82610 2.42967e-17
4686.75033 2.40555e-17
4687.67457 2.38143e-17
4688.59880 2.35849e-17
4689.53308 2.33554e-17
4690.45731 2.31308e-17
4691.38154 2.29063e-17
4692.30577 2.31227e-17
4693.24005 2.33392e-17
4694.16428 2.37863e-17
4695.08851 2.42333e-17
4696.01275 2.39767e-17
4696.94702 2.37200e-17
4697.87126 2.30999e-17
4698.79549 2.24799e-17
4699.71972 2.22709e-17
4700.65400 2.20620e-17
4701.57823 2.24623e-17
4702.50246 2.28625e-17
4703.42669 2.26527e-17
4704.36097 2.24430e-17
4705.28520 2.22254e-17
4706.20944 2.20079e-17
4707.13367 2.22652e-17
4708.06795 2.25225e-17
4708.99218 2.23080e-17
4709.91641 2.20935e-17
4710.84064 2.22452e-17
4711.77492 2.23969e-17
4712.69915 2.24384e-17
4713.62338 2.24800e-17
4714.54762 2.25570e-17
4715.48189 2.26340e-17
4716.40613 2.26740e-17
4717.33036 2.27138e-17
4718.25459 2.22529e-17
4719.18887 2.17920e-17
4720.11310 2.18318e-17
4721.03733 2.18717e-17
4721.96156 2.21220e-17
4722.89584 2.23722e-17
4723.82007 2.23800e-17
4724.74431 2.23878e-17
4725.66854 2.21207e-17
4726.60282 2.18538e-17
4727.52705 2.19740e-17
4728.45128 2.20941e-17
4729.37551 2.17455e-17
4730.30979 2.13970e-17
4731.23402 2.14433e-17
4732.15825 2.14896e-17
4733.08249 2.09009e-17
4734.01676 2.03124e-17
4734.94100 2.02198e-17
4735.86523 2.01272e-17
4736.78946 2.02134e-17
4737.72374 2.02994e-17
4738.64797 1.97361e-17
4739.57220 1.91731e-17
4740.49643 1.94883e-17
4741.43071 1.98033e-17
4742.35494 1.96575e-17
4743.27918 1.95116e-17
4744.20341 1.93459e-17
4745.13769 1.91803e-17
4746.06192 1.93247e-17
4746.98615 1.94691e-17
4747.91038 1.92448e-17
4748.84466 1.90206e-17
4749.76889 1.88746e-17
4750.69312 1.87286e-17
4751.61736 1.84180e-17
4752.55163 1.81075e-17
4753.47587 1.81438e-17
4754.40010 1.81801e-17
4755.32433 1.83136e-17
4756.25861 1.84469e-17
4757.18284 1.78135e-17
4758.10707 1.71803e-17
4759.03130 1.74174e-17
4759.96558 1.76545e-17
4760.88981 1.75910e-17
4761.81405 1.75274e-17
4762.73828 1.72829e-17
4763.67256 1.70384e-17
4764.59679 1.70443e-17
4765.52102 1.70502e-17
4766.44525 1.68201e-17
4767.37953 1.65901e-17
4768.30376 1.68722e-17
4769.22799 1.71541e-17
4770.15223 1.66603e-17
4771.08650 1.61666e-17
4772.01074 1.64222e-17
4772.93497 1.66776e-17
4773.85920 1.61335e-17
4774.79348 1.55896e-17
4775.71771 1.58290e-17
4776.64194 1.60683e-17
4777.56617 1.57591e-17
4778.50045 1.54500e-17
4779.42468 1.54606e-17
4780.34892 1.54712e-17
4781.27315 1.54455e-17
4782.20743 1.54197e-17
4783.13166 1.50045e-17
4784.05589 1.45895e-17
4784.98012 1.46611e-17
4785.91440 1.47327e-17
4786.83863 1.47959e-17
4787.76286 1.48590e-17
4788.68710 1.45151e-17
4789.62137 1.41712e-17
4790.54561 1.40120e-17
4791.46984 1.38530e-17
4792.39407 1.39286e-17
4793.32835 1.40043e-17
4794.25258 1.40571e-17
4795.17681 1.41098e-17
4796.10104 1.37757e-17
4797.03532 1.34417e-17
4797.95955 1.35179e-17
4798.88379 1.35940e-17
4799.80802 1.31987e-17
4800.74230 1.28035e-17
4801.66653 1.26163e-17
4802.59076 1.24291e-17
4803.51499 1.22871e-17
4804.44927 1.21451e-17
4805.37350 1.20104e-17
4806.29773 1.18757e-17
4807.22197 1.19109e-17
4808.15624 1.19462e-17
4809.08048 1.23418e-17
4810.00471 1.27371e-17
4810.92894 1.20982e-17
4811.86322 1.14596e-17
4812.78745 1.15833e-17
4813.71168 1.17070e-17
4814.63591 1.15198e-17
4815.57019 1.13325e-17
4816.49442 1.10564e-17
4817.41866 1.07802e-17
4818.34289 1.04405e-17
4819.27717 1.01008e-17
4820.20140 9.90242e-18
4821.12563 9.70410e-18
4822.04986 9.88000e-18
4822.98414 1.00558e-17
4823.90837 9.96537e-18
4824.83260 9.87485e-18
4825.75684 9.52675e-18
4826.69111 9.17871e-18
4827.61535 8.99091e-18
4828.53958 8.80320e-18
4829.46381 8.93889e-18
4830.39809 9.07454e-18
4831.32232 9.07550e-18
4832.24655 9.07643e-18
4833.17078 8.97722e-18
4834.10506 8.87799e-18
4835.02929 8.69531e-18
4835.95353 8.51262e-18
4836.87776 8.26419e-18
4837.81204 8.01581e-18
4838.73627 7.91889e-18
4839.66050 7.82206e-18
4840.58473 8.04724e-18
4841.51901 8.27231e-18
4842.44324 8.10116e-18
4843.36747 7.92998e-18
4844.29171 7.62438e-18
4845.22598 7.31885e-18
4846.15022 7.22304e-18
4847.07445 7.12728e-18
4847.99868 7.25558e-18
4848.93296 7.38387e-18
4849.85719 7.52706e-18
4850.78142 7.67027e-18
4851.70565 7.92506e-18
4852.63993 8.17978e-18
4853.56416 8.22439e-18
4854.48840 8.26899e-18
4855.42267 8.25669e-18
4856.34691 8.24439e-18
4857.27114 8.23479e-18
4858.19537 8.22522e-18
4859.12965 8.36359e-18
4860.05388 8.50183e-18
4860.97811 8.15642e-18
4861.90234 7.81108e-18
4862.82658 7.62744e-18
4863.76085 7.44399e-18
4864.68509 7.97723e-18
4865.60932 8.51032e-18
4866.53355 8.50665e-18
4867.46783 8.50307e-18
4868.39206 8.83722e-18
4869.31629 9.17120e-18
4870.25057 8.92178e-18
4871.17480 8.67231e-18
4872.09903 8.19616e-18
4873.02327 7.72021e-18
4873.94750 7.95847e-18
4874.88178 8.19677e-18
4875.80601 8.59614e-18
4876.73024 8.99547e-18
4877.65447 9.29676e-18
4878.58875 9.59785e-18
4879.51298 9.19248e-18
4880.43721 8.78720e-18
4881.36145 8.64434e-18
4882.29572 8.50153e-18
4883.21996 8.55402e-18
4884.14419 8.60650e-18
4885.07847 8.61052e-18
4886.00270 8.61459e-18
4886.92693 8.81095e-18
4887.85116 9.00724e-18
4888.78544 9.01734e-18
4889.70967 9.02751e-18
4890.63390 9.30698e-18
4891.55814 9.58640e-18
4892.48237 9.75487e-18
4893.41665 9.92327e-18
4894.34088 9.84176e-18
4895.26511 9.76031e-18
4896.18934 9.87409e-18
4897.12362 9.98790e-18
4898.04785 1.02089e-17
4898.97208 1.04298e-17
4899.89632 1.02885e-17
4900.83059 1.01471e-17
4901.75483 1.00096e-17
4902.67906 9.87210e-18
4903.61334 9.85908e-18
4904.53757 9.84604e-18
4905.46180 9.75841e-18
4906.38603 9.67081e-18
4907.32031 9.73223e-18
4908.24454 9.79358e-18
4909.16877 9.60671e-18
4910.09301 9.41989e-18
4911.02728 9.32900e-18
4911.95152 9.23819e-18
4912.87575 9.42793e-18
4913.79998 9.61756e-18
4914.73426 9.41775e-18
4915.65849 9.21801e-18
4916.58272 9.25591e-18
4917.50695 9.29384e-18
4918.44123 9.42746e-18
4919.36546 9.56105e-18
4920.28970 9.55610e-18
4921.21393 9.55113e-18
4922.14821 9.47738e-18
4923.07244 9.40354e-18
4923.99667 9.00584e-18
4924.92090 8.60840e-18
4925.85518 9.09209e-18
4926.77941 9.57567e-18
4927.70364 9.66537e-18
4928.62788 9.75494e-18
4929.55211 9.35848e-18
4930.48639 8.96220e-18
4931.41062 9.14061e-18
4932.33485 9.31902e-18
4933.26913 9.56059e-18
4934.19336 9.80210e-18
4935.11759 9.85698e-18
4936.04182 9.91184e-18
4936.97610 9.92096e-18
4937.90033 9.93004e-18
4938.82457 9.77972e-18
4939.74880 9.62945e-18
4940.68308 9.64253e-18
4941.60731 9.65571e-18
4942.53154 1.00254e-17
4943.45577 1.03951e-17
4944.39005 1.04724e-17
4945.31428 1.05497e-17
4946.23851 1.05537e-17
4947.16275 1.05577e-17
4948.09702 1.07364e-17
4949.02126 1.09151e-17
4949.94549 1.08933e-17
4950.86972 1.08717e-17
4951.80400 1.10392e-17
4952.72823 1.12067e-17
4953.65246 1.12786e-17
4954.57669 1.13507e-17
4955.51097 1.18657e-17
4956.43520 1.23805e-17
4957.35944 1.22327e-17
4958.28367 1.20849e-17
4959.21795 1.22434e-17
4960.14218 1.24018e-17
4961.06641 1.26525e-17
4961.99064 1.29030e-17
4962.92492 1.29362e-17
4963.84915 1.29693e-17
4964.77338 1.31896e-17
4965.69762 1.34099e-17
4966.63189 1.36364e-17
4967.55613 1.38629e-17
4968.48036 1.40217e-17
4969.40459 1.41804e-17
4970.33887 1.41604e-17
4971.26310 1.41403e-17
4972.18733 1.43072e-17
4973.11156 1.44741e-17
4974.04584 1.48176e-17
4974.97007 1.51611e-17
4975.89431 1.55320e-17
4976.81854 1.59027e-17
4977.75282 1.61074e-17
4978.67705 1.63121e-17
4979.60128 1.65177e-17
4980.52551 1.67231e-17
4981.45979 1.65270e-17
4982.38402 1.63311e-17
4983.30825 1.65778e-17
4984.23249 1.68244e-17
4985.16676 1.68950e-17
4986.09100 1.69656e-17
4987.01523 1.72337e-17
4987.93946 1.75018e-17
4988.87374 1.77483e-17
4989.79797 1.79950e-17
4990.72220 1.85231e-17
4991.64643 1.90511e-17
4992.58071 1.90823e-17
4993.50494 1.91136e-17
4994.42918 1.93077e-17
4995.35341 1.95019e-17
4996.28769 1.97783e-17
4997.21192 2.00546e-17
4998.13615 2.01119e-17
4999.06038 2.01694e-17
4999.99466 2.06137e-17
5000.91889 2.10578e-17
5001.84312 2.09727e-17
5002.76736 2.08877e-17
5003.70163 2.10662e-17
5004.62587 2.12447e-17
5005.55010 2.16827e-17
5006.47433 2.21205e-17
5007.40861 2.14873e-17
5008.33284 2.08545e-17
5009.25707 2.13674e-17
5010.18130 2.18802e-17
5011.11558 2.20992e-17
5012.03981 2.23180e-17
5012.96405 2.20839e-17
5013.88828 2.18498e-17
5014.82256 2.15190e-17
5015.74679 2.11884e-17
5016.67102 2.13904e-17
5017.59525 2.15924e-17
5018.52953 2.15931e-17
5019.45376 2.15938e-17
5020.37799 2.17331e-17
5021.30223 2.18723e-17
5022.23650 2.14606e-17
5023.16074 2.10490e-17
5024.08497 2.08428e-17
5025.00920 2.06367e-17
5025.94348 2.11025e-17
5026.86771 2.15682e-17
5027.79194 2.18797e-17
5028.71617 2.21911e-17
5029.65045 2.22000e-17
5030.57468 2.22088e-17
5031.49892 2.20088e-17
5032.42315 2.18086e-17
5033.35743 2.08820e-17
5034.28166 1.99556e-17
5035.20589 1.98940e-17
5036.13012 1.98325e-17
5037.06440 1.98400e-17
5037.98863 1.98473e-17
5038.91286 1.93556e-17
5039.83710 1.88640e-17
5040.77137 1.87647e-17
5041.69561 1.86655e-17
5042.61984 1.86134e-17
5043.54407 1.85614e-17
5044.47835 1.83967e-17
5045.40258 1.82320e-17
5046.32681 1.80524e-17
5047.25104 1.78728e-17
5048.18532 1.76765e-17
5049.10955 1.74801e-17
5050.03379 1.69269e-17
5050.95802 1.63739e-17
5051.89230 1.62420e-17
5052.81653 1.61100e-17
5053.74076 1.59680e-17
5054.66499 1.58261e-17
5055.59927 1.56622e-17
5056.52350 1.54984e-17
5057.44773 1.54349e-17
5058.37197 1.53712e-17
5059.30624 1.49247e-17
5060.23048 1.44783e-17
5061.15471 1.43164e-17
5062.07894 1.41545e-17
5063.01322 1.41312e-17
5063.93745 1.41078e-17
5064.86168 1.40166e-17
5065.78591 1.39254e-17
5066.72019 1.36466e-17
5067.64442 1.33677e-17
5068.56866 1.29829e-17
5069.49289 1.25982e-17
5070.42717 1.27709e-17
5071.35140 1.29435e-17
5072.27563 1.27766e-17
5073.19986 1.26097e-17
5074.13414 1.22511e-17
5075.05837 1.18925e-17
5075.98260 1.17970e-17
5076.90684 1.17015e-17
5077.84111 1.15623e-17
5078.76535 1.14230e-17
5079.68958 1.12728e-17
5080.61381 1.11226e-17
5081.54809 1.11537e-17
5082.47232 1.11848e-17
5083.39655 1.08332e-17
5084.32078 1.04819e-17
5085.25506 1.06782e-17
5086.17929 1.08745e-17
5087.10353 1.09860e-17
5088.02776 1.10975e-17
5088.96204 1.09611e-17
5089.88627 1.08247e-17
5090.81050 1.08363e-17
5091.73473 1.08480e-17
5092.66901 1.08829e-17
5093.59324 1.09178e-17
5094.51747 1.09796e-17
5095.44171 1.10413e-17
5096.37598 1.07909e-17
5097.30022 1.05407e-17
5098.22445 1.08594e-17
5099.14868 1.11782e-17
5100.08296 1.16449e-17
5101.00719 1.21113e-17
5101.93142 1.19398e-17
5102.85565 1.17683e-17
5103.78993 1.17339e-17
5104.71416 1.16995e-17
5105.63840 1.18310e-17
5106.56263 1.19623e-17
5107.49691 1.16203e-17
5108.42114 1.12785e-17
5109.34537 1.13254e-17
5110.26960 1.13724e-17
5111.20388 1.14775e-17
5112.12811 1.15825e-17
5113.05234 1.15198e-17
5113.97658 1.14571e-17
5114.91085 1.16887e-17
5115.83509 1.19202e-17
5116.75932 1.20597e-17
5117.68355 1.21992e-17
5118.61783 1.21532e-17
5119.54206 1.21072e-17
5120.46629 1.21310e-17
5121.39052 1.21548e-17
5122.32480 1.23708e-17
5123.24903 1.25868e-17
5124.17327 1.27015e-17
5125.09750 1.28161e-17
5126.03178 1.28000e-17
5126.95601 1.27839e-17
5127.88024 1.30315e-17
5128.80447 1.32790e-17
5129.73875 1.33365e-17
5130.66298 1.33940e-17
5131.58721 1.31626e-17
5132.51145 1.29313e-17
5133.44572 1.30745e-17
5134.36996 1.32178e-17
5135.29419 1.34956e-17
5136.21842 1.37733e-17
5137.15270 1.37496e-17
5138.07693 1.37258e-17
5139.00116 1.36031e-17
5139.92539 1.34803e-17
5140.85967 1.34751e-17
5141.78390 1.34700e-17
5142.70814 1.38109e-17
5143.63237 1.41517e-17
5144.56665 1.42003e-17
5145.49088 1.42490e-17
5146.41511 1.44901e-17
5147.33934 1.47311e-17
5148.27362 1.48656e-17
5149.19785 1.50001e-17
5150.12208 1.48177e-17
5151.04632 1.46353e-17
5151.98059 1.46364e-17
5152.90483 1.46375e-17
5153.82906 1.46546e-17
5154.75329 1.46717e-17
5155.68757 1.47545e-17
5156.61180 1.48372e-17
5157.53603 1.48636e-17
5158.46026 1.48900e-17
5159.39454 1.48675e-17
5160.31877 1.48449e-17
5161.24301 1.48379e-17
5162.16724 1.48309e-17
5163.10152 1.50710e-17
5164.02575 1.53110e-17
5164.94998 1.52328e-17
5165.87421 1.51547e-17
5166.80849 1.49920e-17
5167.73272 1.48294e-17
5168.65695 1.49321e-17
5169.58119 1.50347e-17
5170.51546 1.50371e-17
5171.43970 1.50394e-17
5172.36393 1.50106e-17
5173.28816 1.49817e-17
5174.22244 1.48226e-17
5175.14667 1.46637e-17
5176.07090 1.49250e-17
5176.99513 1.51862e-17
5177.92941 1.50682e-17
5178.85364 1.49501e-17
5179.77788 1.48130e-17
5180.70211 1.46758e-17
5181.63639 1.46091e-17
5182.56062 1.45423e-17
5183.48485 1.45088e-17
5184.40908 1.44753e-17
5185.34336 1.44496e-17
5186.26759 1.44240e-17
5187.19182 1.46842e-17
5188.11606 1.49443e-17
5189.05033 1.51171e-17
5189.97457 1.52897e-17
5190.89880 1.50292e-17
5191.82303 1.47687e-17
5192.75731 1.45985e-17
5193.68154 1.44284e-17
5194.60577 1.44994e-17
5195.53000 1.45704e-17
5196.46428 1.46327e-17
5197.38851 1.46949e-17
5198.31275 1.45271e-17
5199.23698 1.43593e-17
5200.17126 1.42238e-17
5201.09549 1.40883e-17
5202.01972 1.43002e-17
5202.94395 1.45119e-17
5203.87823 1.44766e-17
5204.80246 1.44413e-17
5205.72669 1.42050e-17
5206.65093 1.39688e-17
5207.58520 1.40466e-17
5208.50944 1.41245e-17
5209.43367 1.43205e-17
5210.35790 1.45165e-17
5211.29218 1.43941e-17
5212.21641 1.42718e-17
5213.14064 1.42061e-17
5214.06487 1.41404e-17
5214.99915 1.42598e-17
5215.92338 1.43790e-17
5216.84762 1.43162e-17
5217.77185 1.42532e-17
5218.70613 1.40565e-17
5219.63036 1.38599e-17
5220.55459 1.38887e-17
5221.47882 1.39175e-17
5222.41310 1.42214e-17
5223.33733 1.45252e-17
5224.26156 1.43645e-17
5225.18580 1.42038e-17
5226.12007 1.39743e-17
5227.04431 1.37448e-17
5227.96854 1.37528e-17
5228.89277 1.37609e-17
5229.82705 1.38318e-17
5230.75128 1.39026e-17
5231.67551 1.38101e-17
5232.59974 1.37177e-17
5233.53402 1.37671e-17
5234.45825 1.38164e-17
5235.38249 1.38164e-17
5236.30672 1.38163e-17
5237.24100 1.36460e-17
5238.16523 1.34758e-17
5239.08946 1.35891e-17
5240.01369 1.37024e-17
5240.94797 1.35309e-17
5241.87220 1.33595e-17
5242.79643 1.33608e-17
5243.72067 1.33622e-17
5244.65494 1.36058e-17
5245.57918 1.38492e-17
5246.50341 1.36001e-17
5247.42764 1.33513e-17
5248.36192 1.35109e-17
5249.28615 1.36704e-17
5250.21038 1.36683e-17
5251.13461 1.36661e-17
5252.06889 1.37839e-17
5252.99312 1.39016e-17
5253.91736 1.40273e-17
5254.84159 1.41529e-17
5255.77587 1.41708e-17
5256.70010 1.41886e-17
5257.62433 1.42161e-17
5258.54856 1.42435e-17
5259.48284 1.41892e-17
5260.40707 1.41350e-17
5261.33130 1.44002e-17
5262.25554 1.46652e-17
5263.18981 1.45572e-17
5264.11405 1.44494e-17
5265.03828 1.47078e-17
5265.96251 1.49661e-17
5266.89679 1.49879e-17
5267.82102 1.50098e-17
5268.74525 1.53225e-17
5269.66948 1.56351e-17
5270.60376 1.56474e-17
5271.52799 1.56596e-17
5272.45223 1.55849e-17
5273.37646 1.55102e-17
5274.31074 1.54359e-17
5275.23497 1.53617e-17
5276.15920 1.58451e-17
5277.08343 1.63282e-17
5278.01771 1.61145e-17
5278.94194 1.59008e-17
5279.86617 1.58310e-17
5280.79041 1.57614e-17
5281.72468 1.60915e-17
5282.64892 1.64214e-17
5283.57315 1.63178e-17
5284.49738 1.62143e-17
5285.43166 1.64355e-17
5286.35589 1.66566e-17
5287.28012 1.69116e-17
5288.21440 1.71665e-17
5289.13863 1.72818e-17
5290.06286 1.73971e-17
5290.98710 1.74938e-17
5291.92137 1.75905e-17
5292.84561 1.77763e-17
5293.76984 1.79620e-17
5294.69407 1.78722e-17
5295.62835 1.77826e-17
5296.55258 1.80519e-17
5297.47681 1.83211e-17
5298.40104 1.82118e-17
5299.32528 1.81026e-17
5300.25955 1.81652e-17
5301.18379 1.82278e-17
5302.10802 1.84409e-17
5303.04230 1.86540e-17
5303.96653 1.87088e-17
5304.89076 1.87636e-17
5305.81499 1.87976e-17
5306.74927 1.88316e-17
5307.67350 1.88802e-17
5308.59773 1.89290e-17
5309.52197 1.91944e-17
5310.45624 1.94598e-17
5311.38048 1.94651e-17
5312.30471 1.94703e-17
5313.22894 1.96727e-17
5314.15317 1.98750e-17
5315.08745 1.98864e-17
5316.01168 1.98979e-17
5316.93591 1.99973e-17
5317.86015 2.00967e-17
5318.79442 2.02959e-17
5319.71866 2.04951e-17
5320.64289 2.05568e-17
5321.57717 2.06185e-17
5322.50140 2.06443e-17
5323.42563 2.06701e-17
5324.34986 2.07029e-17
5325.28414 2.07356e-17
5326.20837 2.07767e-17
5327.13260 2.08176e-17
5328.05684 2.06672e-17
5328.98107 2.05169e-17
5329.91535 2.06866e-17
5330.83958 2.08563e-17
5331.76381 2.08865e-17
5332.68804 2.09167e-17
5333.62232 2.09481e-17
5334.54655 2.09796e-17
5335.47078 2.10797e-17
5336.40506 2.11797e-17
5337.32929 2.11084e-17
5338.25353 2.10373e-17
5339.17776 2.12794e-17
5340.11204 2.15213e-17
5341.03627 2.12873e-17
5341.96050 2.10534e-17
5342.88473 2.11849e-17
5343.81901 2.13165e-17
5344.74324 2.16697e-17
5345.66747 2.20228e-17
5346.59171 2.20742e-17
5347.52598 2.21257e-17
5348.45022 2.19888e-17
5349.37445 2.18520e-17
5350.29868 2.19049e-17
5351.23296 2.19579e-17
5352.15719 2.19810e-17
5353.08142 2.20042e-17
5354.00565 2.20906e-17
5354.93993 2.21769e-17
5355.86416 2.19965e-17
5356.78840 2.18162e-17
5357.71263 2.19046e-17
5358.64691 2.19931e-17
5359.57114 2.19790e-17
5360.49537 2.19650e-17
5361.41960 2.19774e-17
5362.35388 2.19898e-17
5363.27811 2.20044e-17
5364.20234 2.20191e-17
5365.12658 2.20206e-17
5366.06085 2.20222e-17
5366.98509 2.21759e-17
5367.90932 2.23296e-17
5368.83355 2.23017e-17
5369.76783 2.22738e-17
5370.69206 2.22251e-17
5371.61629 2.21765e-17
5372.54052 2.21572e-17
5373.47480 2.21379e-17
5374.39903 2.20952e-17
5375.32327 2.20525e-17
5376.24750 2.19457e-17
5377.18178 2.18391e-17
5378.10601 2.20436e-17
5379.03024 2.22480e-17
5379.95447 2.23353e-17
5380.88875 2.24225e-17
5381.81298 2.23799e-17
5382.73721 2.23372e-17
5383.66145 2.20567e-17
5384.59572 2.17764e-17
5385.51996 2.18392e-17
5386.44419 2.19019e-17
5387.36842 2.19278e-17
5388.30270 2.19536e-17
5389.22693 2.18262e-17
5390.15116 2.16990e-17
5391.07539 2.16923e-17
5392.00967 2.16857e-17
5392.93390 2.17687e-17
5393.85814 2.18516e-17
5394.78237 2.16188e-17
5395.71665 2.13862e-17
5396.64088 2.13672e-17
5397.56511 2.13482e-17
5398.48934 2.14515e-17
5399.42362 2.15548e-17
5400.34785 2.15973e-17
5401.27208 2.16399e-17
5402.19632 2.17038e-17
5403.13059 2.17675e-17
5404.05483 2.13583e-17
5404.97906 2.09492e-17
5405.90329 2.11587e-17
5406.83757 2.13682e-17
5407.76180 2.15379e-17
5408.68603 2.17073e-17
5409.61026 2.13762e-17
5410.54454 2.10453e-17
5411.46877 2.11622e-17
5412.39301 2.12791e-17
5413.31724 2.13672e-17
5414.25152 2.14551e-17
5415.17575 2.12169e-17
5416.09998 2.09788e-17
5417.02421 2.08757e-17
5417.95849 2.07727e-17
5418.88272 2.08518e-17
5419.80695 2.09308e-17
5420.73119 2.08431e-17
5421.66546 2.07553e-17
5422.58970 2.05935e-17
5423.51393 2.04318e-17
5424.43816 2.04782e-17
5425.37244 2.05247e-17
5426.29667 2.06763e-17
5427.22090 2.08278e-17
5428.14513 2.07510e-17
5429.07941 2.06743e-17
5430.00364 2.06072e-17
5430.92788 2.05400e-17
5431.85211 2.05035e-17
5432.78639 2.04668e-17
5433.71062 2.02763e-17
5434.63485 2.00858e-17
5435.55908 1.99803e-17
5436.49336 1.98747e-17
5437.41759 1.96712e-17
5438.34182 1.94679e-17
5439.26606 1.96848e-17
5440.20033 1.99016e-17
5441.12457 1.97570e-17
5442.04880 1.96123e-17
5442.97303 1.92738e-17
5443.90731 1.89353e-17
5444.83154 1.88067e-17
5445.75577 1.86779e-17
5446.68000 1.83660e-17
5447.61428 1.80544e-17
5448.53851 1.82026e-17
5449.46275 1.83507e-17
5450.38698 1.83984e-17
5451.32126 1.84462e-17
5452.24549 1.87061e-17
5453.16972 1.89658e-17
5454.09395 1.86877e-17
5455.02823 1.84097e-17
5455.95246 1.81767e-17
5456.87669 1.79439e-17
5457.80093 1.80530e-17
5458.73520 1.81620e-17
5459.65944 1.81391e-17
5460.58367 1.81163e-17
5461.50790 1.82434e-17
5462.44218 1.83703e-17
5463.36641 1.80559e-17
5464.29064 1.77418e-17
5465.21487 1.80010e-17
5466.14915 1.82601e-17
5467.07338 1.82299e-17
5467.99762 1.81995e-17
5468.92185 1.79148e-17
5469.85613 1.76303e-17
5470.78036 1.76318e-17
5471.70459 1.76332e-17
5472.62882 1.74769e-17
5473.56310 1.73208e-17
5474.48733 1.76216e-17
5475.41156 1.79223e-17
5476.33580 1.78460e-17
5477.27007 1.77697e-17
5478.19431 1.77585e-17
5479.11854 1.77473e-17
5480.04277 1.77041e-17
5480.97705 1.76608e-17
5481.90128 1.75861e-17
5482.82551 1.75114e-17
5483.74974 1.77401e-17
5484.68402 1.79685e-17
5485.60825 1.77302e-17
5486.53249 1.74920e-17
5487.45672 1.76315e-17
5488.39100 1.77709e-17
5489.31523 1.78169e-17
5490.23946 1.78628e-17
5491.16369 1.76830e-17
5492.09797 1.75033e-17
5493.02220 1.76101e-17
5493.94643 1.77168e-17
5494.87067 1.77076e-17
5495.80494 1.76983e-17
5496.72918 1.76563e-17
5497.65341 1.76144e-17
5498.57764 1.77276e-17
5499.51192 1.78408e-17
5500.43615 1.79549e-17
5501.36038 1.80689e-17
5502.28461 1.79487e-17
5503.21889 1.78285e-17
5504.14312 1.80173e-17
5505.06736 1.82060e-17
5505.99159 1.82405e-17
5506.92587 1.82749e-17
5507.85010 1.80678e-17
5508.77433 1.78609e-17
5509.69856 1.81305e-17
5510.63284 1.84000e-17
5511.55707 1.84117e-17
5512.48130 1.84234e-17
5513.40554 1.85623e-17
5514.33981 1.87013e-17
5515.26405 1.87525e-17
5516.18828 1.88036e-17
5517.11251 1.87409e-17
5518.04679 1.86783e-17
5518.97102 1.86872e-17
5519.89525 1.86963e-17
5520.81948 1.88964e-17
5521.75376 1.90964e-17
5522.67799 1.90299e-17
5523.60223 1.89635e-17
5524.52646 1.90433e-17
5525.46074 1.91231e-17
5526.38497 1.93418e-17
5527.30920 1.95604e-17
5528.23343 1.96136e-17
5529.16771 1.96667e-17
5530.09194 1.96555e-17
5531.01617 1.96442e-17
5531.94041 1.96327e-17
5532.87468 1.96212e-17
5533.79892 1.96321e-17
5534.72315 1.96429e-17
5535.64738 1.97715e-17
5536.58166 1.98999e-17
5537.50589 1.98095e-17
5538.43012 1.97191e-17
5539.35435 1.96869e-17
5540.28863 1.96547e-17
5541.21286 1.98049e-17
5542.13710 1.99550e-17
5543.06133 1.98824e-17
5543.99561 1.98097e-17
5544.91984 1.97785e-17
5545.84407 1.97471e-17
5546.76830 1.94851e-17
5547.70258 1.92233e-17
5548.62681 1.92804e-17
5549.55104 1.93375e-17
5550.47528 1.93119e-17
5551.40955 1.92863e-17
5552.33379 1.92232e-17
5553.25802 1.91602e-17
5554.18225 1.92252e-17
5555.11653 1.92903e-17
5556.04076 1.93915e-17
5556.96499 1.94927e-17
5557.88922 1.94718e-17
5558.82350 1.94509e-17
5559.74773 1.92884e-17
5560.67197 1.91258e-17
5561.59620 1.88662e-17
5562.53048 1.86069e-17
5563.45471 1.88041e-17
5564.37894 1.90014e-17
5565.30317 1.90851e-17
5566.23745 1.91687e-17
5567.16168 1.90168e-17
5568.08591 1.88650e-17
5569.01015 1.86974e-17
5569.94442 1.85300e-17
5570.86866 1.88566e-17
5571.79289 1.91832e-17
5572.71712 1.94239e-17
5573.65140 1.96644e-17
5574.57563 1.95353e-17
5575.49986 1.94060e-17
5576.42409 1.89530e-17
5577.35837 1.85002e-17
5578.28260 1.86407e-17
5579.20684 1.87810e-17
5580.13107 1.85204e-17
5581.06535 1.82599e-17
5581.98958 1.81898e-17
5582.91381 1.81197e-17
5583.83804 1.80960e-17
5584.77232 1.80722e-17
5585.69655 1.79927e-17
5586.62078 1.79131e-17
5587.54502 1.77559e-17
5588.47929 1.75989e-17
5589.40353 1.77374e-17
5590.32776 1.78759e-17
5591.25199 1.80061e-17
5592.18627 1.81361e-17
5593.11050 1.78351e-17
5594.03473 1.75344e-17
5594.95896 1.76787e-17
5595.89324 1.78228e-17
5596.81747 1.77359e-17
5597.74171 1.76489e-17
5598.66594 1.76465e-17
5599.60022 1.76441e-17
5600.52445 1.76312e-17
5601.44868 1.76182e-17
5602.37291 1.74950e-17
5603.30719 1.73720e-17
5604.23142 1.75066e-17
5605.15565 1.76412e-17
5606.07989 1.76920e-17
5607.01416 1.77427e-17
5607.93840 1.76587e-17
5608.86263 1.75747e-17
5609.78686 1.74076e-17
5610.72114 1.72407e-17
5611.64537 1.74715e-17
5612.56960 1.77021e-17
5613.49383 1.76898e-17
5614.42811 1.76775e-17
5615.35234 1.76071e-17
5616.27658 1.75367e-17
5617.20081 1.74678e-17
5618.13509 1.73988e-17
5619.05932 1.72630e-17
5619.98355 1.71273e-17
5620.90778 1.71927e-17
5621.84206 1.72580e-17
5622.76629 1.72971e-17
5623.69052 1.73361e-17
5624.61476 1.73603e-17
5625.54903 1.73845e-17
5626.47327 1.72898e-17
5627.39750 1.71951e-17
5628.32173 1.70795e-17
5629.25601 1.69640e-17
5630.18024 1.70649e-17
5631.10447 1.71657e-17
5632.02870 1.71883e-17
5632.96298 1.72108e-17
5633.88721 1.71807e-17
5634.81145 1.71505e-17
5635.73568 1.70541e-17
5636.66996 1.69577e-17
5637.59419 1.69393e-17
5638.51842 1.69210e-17
5639.44265 1.68574e-17
5640.37693 1.67937e-17
5641.30116 1.66223e-17
5642.22539 1.64510e-17
5643.14963 1.65350e-17
5644.08390 1.66188e-17
5645.00814 1.65203e-17
5645.93237 1.64218e-17
5646.85660 1.64501e-17
5647.79088 1.64784e-17
5648.71511 1.65186e-17
5649.63934 1.65588e-17
5650.56357 1.64938e-17
5651.49785 1.64287e-17
5652.42208 1.63786e-17
5653.34632 1.63283e-17
5654.27055 1.61294e-17
5655.20483 1.59307e-17
5656.12906 1.60279e-17
5657.05329 1.61250e-17
5657.97752 1.60762e-17
5658.91180 1.60274e-17
5659.83603 1.58422e-17
5660.76026 1.56570e-17
5661.68450 1.55687e-17
5662.61877 1.54805e-17
5663.54301 1.55069e-17
5664.46724 1.55333e-17
5665.39147 1.56130e-17
5666.32575 1.56925e-17
5667.24998 1.55912e-17
5668.17421 1.54898e-17
5669.09844 1.52073e-17
5670.03272 1.49248e-17
5670.95695 1.48601e-17
5671.88119 1.47954e-17
5672.80542 1.47359e-17
5673.73970 1.46764e-17
5674.66393 1.45390e-17
5675.58816 1.44018e-17
5676.51239 1.45783e-17
5677.44667 1.47546e-17
5678.37090 1.45496e-17
5679.29513 1.43448e-17
5680.21937 1.43468e-17
5681.15364 1.43488e-17
5682.07788 1.42172e-17
5683.00211 1.40856e-17
5683.92634 1.40512e-17
5684.86062 1.40169e-17
5685.78485 1.38545e-17
5686.70908 1.36922e-17
5687.64336 1.36339e-17
5688.56759 1.35757e-17
5689.49182 1.35178e-17
5690.41606 1.34599e-17
5691.35033 1.33698e-17
5692.27457 1.32797e-17
5693.19880 1.31276e-17
5694.12303 1.29754e-17
5695.05731 1.26896e-17
5695.98154 1.24038e-17
5696.90577 1.23448e-17
5697.83000 1.22859e-17
5698.75424 1.23830e-17
5699.68851 1.24800e-17
5700.61275 1.23365e-17
5701.53698 1.21928e-17
5702.46121 1.19726e-17
5703.39549 1.17525e-17
5704.31972 1.18195e-17
5705.24395 1.18864e-17
5706.16818 1.18636e-17
5707.10246 1.18409e-17
5708.02669 1.19571e-17
5708.95093 1.20731e-17
5709.87516 1.17548e-17
5710.80944 1.14367e-17
5711.73367 1.13957e-17
5712.65790 1.13548e-17
5713.58213 1.14187e-17
5714.51641 1.14826e-17
5715.44064 1.15113e-17
5716.36487 1.15399e-17
5717.28911 1.16088e-17
5718.22338 1.16776e-17
5719.14762 1.16340e-17
5720.07185 1.15905e-17
5721.00613 1.16648e-17
5721.93036 1.17390e-17
5722.85459 1.14982e-17
5723.77882 1.12575e-17
5724.71310 1.11071e-17
5725.63733 1.09567e-17
5726.56156 1.09404e-17
5727.48580 1.09241e-17
5728.42007 1.10923e-17
5729.34431 1.12605e-17
5730.26854 1.12755e-17
5731.19277 1.12904e-17
5732.12705 1.11330e-17
5733.05128 1.09757e-17
5733.97551 1.09492e-17
5734.89974 1.09227e-17
5735.83402 1.09750e-17
5736.75825 1.10273e-17
5737.68249 1.09813e-17
5738.60672 1.09354e-17
5739.54100 1.10587e-17
5740.46523 1.11820e-17
5741.38946 1.13185e-17
5742.31369 1.14549e-17
5743.24797 1.13995e-17
5744.17220 1.13441e-17
5745.09643 1.11488e-17
5746.02067 1.09536e-17
5746.95494 1.10261e-17
5747.87918 1.10985e-17
5748.80341 1.11884e-17
5749.72764 1.12781e-17
5750.66192 1.11912e-17
5751.58615 1.11043e-17
5752.51038 1.10563e-17
5753.43461 1.10084e-17
5754.36889 1.09964e-17
5755.29312 1.09844e-17
5756.21736 1.09864e-17
5757.14159 1.09885e-17
5758.07587 1.11308e-17
5759.00010 1.12729e-17
5759.92433 1.11752e-17
5760.84856 1.10776e-17
5761.78284 1.11300e-17
5762.70707 1.11824e-17
5763.63130 1.11041e-17
5764.55554 1.10260e-17
5765.47977 1.11297e-17
5766.41405 1.12334e-17
5767.33828 1.11533e-17
5768.26251 1.10734e-17
5769.19679 1.10971e-17
5770.12102 1.11209e-17
5771.04525 1.12497e-17
5771.96948 1.13786e-17
5772.90376 1.14682e-17
5773.82799 1.15578e-17
5774.75223 1.14873e-17
5775.67646 1.14167e-17
5776.61074 1.13108e-17
5777.53497 1.12051e-17
5778.45920 1.13779e-17
5779.38343 1.15506e-17
5780.31771 1.14992e-17
5781.24194 1.14479e-17
5782.16617 1.14485e-17
5783.09041 1.14491e-17
5784.02468 1.15927e-17
5784.94892 1.17362e-17
5785.87315 1.18284e-17
5786.79738 1.19205e-17
5787.73166 1.18760e-17
5788.65589 1.18316e-17
5789.58012 1.18127e-17
5790.50435 1.17939e-17
5791.43863 1.18647e-17
5792.36286 1.19354e-17
5793.28710 1.18869e-17
5794.21133 1.18385e-17
5795.14561 1.19388e-17
5796.06984 1.20392e-17
5796.99407 1.22013e-17
5797.91830 1.23634e-17
5798.85258 1.23947e-17
5799.77681 1.24260e-17
5800.70104 1.24230e-17
5801.62528 1.24200e-17
5802.55955 1.22655e-17
5803.48379 1.21112e-17
5804.40802 1.22865e-17
5805.33225 1.24617e-17
5806.26653 1.25251e-17
5807.19076 1.25885e-17
5808.11499 1.26010e-17
5809.03922 1.26135e-17
5809.97350 1.25982e-17
5810.89773 1.25830e-17
5811.82197 1.26085e-17
5812.74620 1.26340e-17
5813.68048 1.26927e-17
5814.60471 1.27515e-17
5815.52894 1.27956e-17
5816.45317 1.28396e-17
5817.38745 1.28592e-17
5818.31168 1.28788e-17
5819.23591 1.29834e-17
5820.16015 1.30878e-17
5821.09442 1.30343e-17
5822.01866 1.29809e-17
5822.94289 1.30986e-17
5823.86712 1.32163e-17
5824.80140 1.33343e-17
5825.72563 1.34521e-17
5826.64986 1.33633e-17
5827.57409 1.32745e-17
5828.50837 1.33564e-17
5829.43260 1.34383e-17
5830.35684 1.34840e-17
5831.28107 1.35298e-17
5832.21535 1.36704e-17
5833.13958 1.38110e-17
5834.06381 1.38411e-17
5834.98804 1.38714e-17
5835.92232 1.41385e-17
5836.84655 1.44055e-17
5837.77078 1.45283e-17
5838.69502 1.46510e-17
5839.62929 1.45991e-17
5840.55353 1.45473e-17
5841.47776 1.46613e-17
5842.40199 1.47753e-17
5843.33627 1.48507e-17
5844.26050 1.49262e-17
5845.18473 1.50844e-17
5846.10896 1.52427e-17
5847.04324 1.53172e-17
5847.96747 1.53917e-17
5848.89171 1.53280e-17
5849.81594 1.52644e-17
5850.75022 1.54487e-17
5851.67445 1.56330e-17
5852.59868 1.58195e-17
5853.52291 1.60060e-17
5854.45719 1.61135e-17
5855.38142 1.62212e-17
5856.30565 1.65134e-17
5857.22989 1.68055e-17
5858.16416 1.69316e-17
5859.08840 1.70578e-17
5860.01263 1.72660e-17
5860.93686 1.74741e-17
5861.87114 1.74337e-17
5862.79537 1.73933e-17
5863.71960 1.75894e-17
5864.64383 1.77854e-17
5865.57811 1.78710e-17
5866.50234 1.79566e-17
5867.42658 1.79557e-17
5868.35081 1.79550e-17
5869.28509 1.81178e-17
5870.20932 1.82806e-17
5871.13355 1.83826e-17
5872.05778 1.84848e-17
5872.99206 1.87354e-17
5873.91629 1.89858e-17
5874.84052 1.89179e-17
5875.76476 1.88502e-17
5876.69903 1.89749e-17
5877.62327 1.90995e-17
5878.54750 1.89727e-17
5879.47173 1.88461e-17
5880.40601 1.89248e-17
5881.33024 1.90036e-17
5882.25447 1.91438e-17
5883.17870 1.92840e-17
5884.11298 1.94371e-17
5885.03721 1.95900e-17
5885.96145 1.93762e-17
5886.88568 1.91625e-17
5887.81996 1.93435e-17
5888.74419 1.95246e-17
5889.66842 1.97778e-17
5890.59265 2.00309e-17
5891.52693 1.98806e-17
5892.45116 1.97305e-17
5893.37539 1.97966e-17
5894.29963 1.98627e-17
5895.23390 2.00360e-17
5896.15814 2.02092e-17
5897.08237 2.01851e-17
5898.00660 2.01611e-17
5898.94088 2.02338e-17
5899.86511 2.03066e-17
5900.78934 2.03119e-17
5901.71357 2.03173e-17
5902.64785 2.03074e-17
5903.57208 2.02977e-17
5904.49632 2.03662e-17
5905.42055 2.04347e-17
5906.35483 2.05085e-17
5907.27906 2.05823e-17
5908.20329 2.05254e-17
5909.12752 2.04686e-17
5910.06180 2.05190e-17
5910.98603 2.05693e-17
5911.91026 2.03761e-17
5912.83450 2.01829e-17
5913.76877 2.01912e-17
5914.69301 2.01995e-17
5915.61724 2.00579e-17
5916.54147 1.99164e-17
5917.47575 1.97236e-17
5918.39998 1.95311e-17
5919.32421 1.96474e-17
5920.24844 1.97637e-17
5921.18272 2.00021e-17
5922.10695 2.02403e-17
5923.03119 2.02737e-17
5923.95542 2.03071e-17
5924.88970 2.06261e-17
5925.81393 2.09449e-17
5926.73816 2.11069e-17
5927.66239 2.12687e-17
5928.59667 2.11376e-17
5929.52090 2.10066e-17
5930.44513 2.10763e-17
5931.36937 2.11459e-17
5932.30364 2.10685e-17
5933.22788 2.09911e-17
5934.15211 2.09800e-17
5935.07634 2.09688e-17
5936.01062 2.09814e-17
5936.93485 2.09940e-17
5937.85908 2.10312e-17
5938.78331 2.10682e-17
5939.71759 2.09888e-17
5940.64182 2.09094e-17
5941.56606 2.09356e-17
5942.49029 2.09617e-17
5943.42457 2.08571e-17
5944.34880 2.07525e-17
5945.27303 2.06839e-17
5946.19726 2.06154e-17
5947.13154 2.05592e-17
5948.05577 2.05030e-17
5948.98000 2.04402e-17
5949.90424 2.03775e-17
5950.83851 2.04208e-17
5951.76275 2.04640e-17
5952.68698 2.05539e-17
5953.61121 2.06436e-17
5954.54549 2.04068e-17
5955.46972 2.01702e-17
5956.39395 2.03076e-17
5957.31818 2.04450e-17
5958.25246 2.03836e-17
5959.17669 2.03221e-17
5960.10093 2.01613e-17
5961.02516 2.00006e-17
5961.95944 1.99769e-17
5962.88367 1.99533e-17
5963.80790 1.99028e-17
5964.73213 1.98523e-17
5965.66641 1.98252e-17
5966.59064 1.97982e-17
5967.51487 1.97320e-17
5968.43911 1.96658e-17
5969.37338 1.97227e-17
5970.29762 1.97794e-17
5971.22185 1.96810e-17
5972.14608 1.95826e-17
5973.08036 1.94794e-17
5974.00459 1.93763e-17
5974.92882 1.95098e-17
5975.85305 1.96433e-17
5976.78733 1.95438e-17
5977.71156 1.94444e-17
5978.63580 1.93188e-17
5979.56003 1.91931e-17
5980.49431 1.90866e-17
5981.41854 1.89801e-17
5982.34277 1.89149e-17
5983.26700 1.88499e-17
5984.20128 1.89492e-17
5985.12551 1.90484e-17
5986.04974 1.90240e-17
5986.97398 1.89995e-17
5987.90825 1.88971e-17
5988.83249 1.87949e-17
5989.75672 1.89217e-17
5990.68095 1.90483e-17
5991.61523 1.88459e-17
5992.53946 1.86435e-17
5993.46369 1.86704e-17
5994.38792 1.86972e-17
5995.32220 1.87363e-17
5996.24643 1.87753e-17
5997.17067 1.86690e-17
5998.09490 1.85626e-17
5999.02918 1.84968e-17
5999.95341 1.84310e-17
6000.87764 1.83120e-17
6001.80187 1.81932e-17
6002.73615 1.81869e-17
6003.66038 1.81804e-17
6004.58461 1.79314e-17
6005.50885 1.76826e-17
6006.44312 1.76821e-17
6007.36736 1.76815e-17
6008.29159 1.75720e-17
6009.21582 1.74627e-17
6010.15010 1.75346e-17
6011.07433 1.76063e-17
6011.99856 1.74754e-17
6012.92279 1.73445e-17
6013.85707 1.74002e-17
6014.78130 1.74557e-17
6015.70554 1.73202e-17
6016.62977 1.71846e-17
6017.56405 1.70725e-17
6018.48828 1.69605e-17
6019.41251 1.69918e-17
6020.33674 1.70230e-17
6021.27102 1.69644e-17
6022.19525 1.69059e-17
6023.11948 1.69972e-17
6024.04372 1.70882e-17
6024.97799 1.68555e-17
6025.90223 1.66228e-17
6026.82646 1.66616e-17
6027.75069 1.67003e-17
6028.68497 1.67769e-17
6029.60920 1.68534e-17
6030.53343 1.67166e-17
6031.45766 1.65798e-17
6032.39194 1.66127e-17
6033.31617 1.66456e-17
6034.24041 1.66517e-17
6035.16464 1.66578e-17
6036.09892 1.65862e-17
6037.02315 1.65146e-17
6037.94738 1.63356e-17
6038.87161 1.61567e-17
6039.80589 1.60538e-17
6040.73012 1.59510e-17
6041.65435 1.60053e-17
6042.57859 1.60595e-17
6043.51286 1.59669e-17
6044.43710 1.58743e-17
6045.36133 1.57680e-17
6046.28556 1.56617e-17
6047.21984 1.54929e-17
6048.14407 1.53242e-17
6049.06830 1.53066e-17
6049.99253 1.52890e-17
6050.92681 1.54700e-17
6051.85104 1.56508e-17
6052.77528 1.54675e-17
6053.69951 1.52841e-17
6054.63379 1.51122e-17
6055.55802 1.49404e-17
6056.48225 1.48932e-17
6057.40648 1.48461e-17
6058.34076 1.48013e-17
6059.26499 1.47566e-17
6060.18922 1.47408e-17
6061.11346 1.47251e-17
6062.04773 1.46351e-17
6062.97197 1.45452e-17
6063.89620 1.45646e-17
6064.82043 1.45838e-17
6065.75471 1.45547e-17
6066.67894 1.45253e-17
6067.60317 1.42741e-17
6068.52740 1.40230e-17
6069.46168 1.40549e-17
6070.38591 1.40866e-17
6071.31015 1.40967e-17
6072.23438 1.41068e-17
6073.16866 1.39790e-17
6074.09289 1.38512e-17
6075.01712 1.38696e-17
6075.94135 1.38880e-17
6076.87563 1.39230e-17
6077.79986 1.39580e-17
6078.72409 1.40085e-17
6079.64833 1.40591e-17
6080.58260 1.41259e-17
6081.50684 1.41926e-17
6082.43107 1.41393e-17
6083.35530 1.40861e-17
6084.28958 1.41114e-17
6085.21381 1.41366e-17
6086.13804 1.41375e-17
6087.06227 1.41384e-17
6087.99655 1.41149e-17
6088.92078 1.40913e-17
6089.84502 1.40968e-17
6090.76925 1.41023e-17
6091.70353 1.40340e-17
6092.62776 1.39657e-17
6093.55199 1.39553e-17
6094.47622 1.39450e-17
6095.41050 1.40358e-17
6096.33473 1.41266e-17
6097.25896 1.40766e-17
6098.18320 1.40268e-17
6099.11747 1.41296e-17
6100.04171 1.42323e-17
6100.96594 1.42467e-17
6101.89017 1.42610e-17
6102.82445 1.41928e-17
6103.74868 1.41247e-17
6104.67291 1.40033e-17
6105.60719 1.38819e-17
6106.53142 1.39086e-17
6107.45565 1.39352e-17
6108.37989 1.38321e-17
6109.30412 1.37291e-17
6110.23840 1.39101e-17
6111.16263 1.40910e-17
6112.08686 1.40747e-17
6113.01109 1.40584e-17
6113.94537 1.40268e-17
6114.86960 1.39954e-17
6115.79383 1.40589e-17
6116.71807 1.41223e-17
6117.65234 1.40082e-17
6118.57658 1.38942e-17
6119.50081 1.38896e-17
6120.42504 1.38852e-17
6121.35932 1.40218e-17
6122.28355 1.41582e-17
6123.20778 1.40130e-17
6124.14206 1.38679e-17
6125.06629 1.38627e-17
6125.99052 1.38575e-17
6126.91476 1.38927e-17
6127.84903 1.39279e-17
6128.77327 1.39538e-17
6129.69750 1.39798e-17
6130.62173 1.40845e-17
6131.55601 1.41892e-17
6132.48024 1.41713e-17
6133.40447 1.41535e-17
6134.32870 1.41451e-17
6135.26298 1.41368e-17
6136.18721 1.41348e-17
6137.11145 1.41329e-17
6138.03568 1.41763e-17
6138.95991 1.42197e-17
6139.89419 1.41332e-17
6140.81842 1.40468e-17
6141.74265 1.39618e-17
6142.66688 1.38770e-17
6143.60116 1.39764e-17
6144.52539 1.40758e-17
6145.44963 1.41161e-17
6146.37386 1.41563e-17
6147.30814 1.39853e-17
6148.23237 1.38144e-17
6149.15660 1.37264e-17
6150.08083 1.36385e-17
6151.01511 1.36798e-17
6151.93934 1.37211e-17
6152.86357 1.36568e-17
6153.79785 1.35927e-17
6154.72208 1.36226e-17
6155.64632 1.36524e-17
6156.57055 1.35967e-17
6157.50483 1.35411e-17
6158.42906 1.36138e-17
6159.35329 1.36865e-17
6160.27752 1.36023e-17
6161.21180 1.35180e-17
6162.13603 1.33623e-17
6163.06026 1.32068e-17
6163.98450 1.32726e-17
6164.91877 1.33383e-17
6165.84301 1.33112e-17
6166.76724 1.32840e-17
6167.69147 1.32632e-17
6168.62575 1.32424e-17
6169.54998 1.32958e-17
6170.47421 1.33492e-17
6171.39844 1.33956e-17
6172.33272 1.34419e-17
6173.25695 1.34476e-17
6174.18119 1.34531e-17
6175.10542 1.32482e-17
6176.03970 1.30435e-17
6176.96393 1.30650e-17
6177.88816 1.30866e-17
6178.81239 1.32558e-17
6179.74667 1.34249e-17
6180.67090 1.33669e-17
6181.59513 1.33088e-17
6182.51937 1.33748e-17
6183.45364 1.34408e-17
6184.37788 1.35055e-17
6185.30211 1.35701e-17
6186.22634 1.34559e-17
6187.16062 1.33417e-17
6188.08485 1.33286e-17
6189.00908 1.33155e-17
6189.93331 1.33606e-17
6190.86759 1.34056e-17
6191.79182 1.32527e-17
6192.71606 1.31000e-17
6193.64029 1.32872e-17
6194.57457 1.34743e-17
6195.49880 1.36766e-17
6196.42303 1.38787e-17
6197.34726 1.37207e-17
6198.28154 1.35628e-17
6199.20577 1.35450e-17
6200.13000 1.35273e-17
6201.05424 1.35897e-17
6201.98851 1.36520e-17
6202.91275 1.36324e-17
6203.83698 1.36127e-17
6204.76121 1.35765e-17
6205.69549 1.35403e-17
6206.61972 1.36215e-17
6207.54395 1.37028e-17
6208.46818 1.37862e-17
6209.40246 1.38694e-17
6210.32669 1.38170e-17
6211.25093 1.37646e-17
6212.17516 1.37454e-17
6213.10944 1.37263e-17
6214.03367 1.38964e-17
6214.95790 1.40664e-17
6215.88213 1.40714e-17
6216.81641 1.40763e-17
6217.74064 1.40306e-17
6218.66487 1.39851e-17
6219.58911 1.41673e-17
6220.52338 1.43494e-17
6221.44762 1.43437e-17
6222.37185 1.43380e-17
6223.29608 1.43507e-17
6224.23036 1.43635e-17
6225.15459 1.44802e-17
6226.07882 1.45970e-17
6227.00305 1.47360e-17
6227.93733 1.48748e-17
6228.86156 1.48316e-17
6229.78580 1.47884e-17
6230.71003 1.48556e-17
6231.64431 1.49229e-17
6232.56854 1.49610e-17
6233.49277 1.49991e-17
6234.41700 1.49891e-17
6235.35128 1.49791e-17
6236.27551 1.49434e-17
6237.19974 1.49077e-17
6238.12398 1.48802e-17
6239.05825 1.48528e-17
6239.98249 1.49600e-17
6240.90672 1.50672e-17
6241.83095 1.50954e-17
6242.76523 1.51234e-17
6243.68946 1.50312e-17
6244.61369 1.49390e-17
6245.53792 1.47814e-17
6246.47220 1.46240e-17
6247.39643 1.46143e-17
6248.32067 1.46046e-17
6249.24490 1.45953e-17
6250.17918 1.45861e-17
6251.10341 1.46413e-17
6252.02764 1.46964e-17
6252.95187 1.46302e-17
6253.88615 1.45640e-17
6254.81038 1.45683e-17
6255.73461 1.45726e-17
6256.65885 1.44611e-17
6257.59312 1.43496e-17
6258.51736 1.41494e-17
6259.44159 1.39494e-17
6260.36582 1.40896e-17
6261.30010 1.42296e-17
6262.22433 1.42213e-17
6263.14856 1.42129e-17
6264.07279 1.39796e-17
6265.00707 1.37464e-17
6265.93130 1.37622e-17
6266.85554 1.37780e-17
6267.77977 1.37549e-17
6268.71405 1.37318e-17
6269.63828 1.37561e-17
6270.56251 1.37803e-17
6271.48674 1.37132e-17
6272.42102 1.36461e-17
6273.34525 1.34951e-17
6274.26948 1.33441e-17
6275.19372 1.32195e-17
6276.12799 1.30950e-17
6277.05223 1.30073e-17
6277.97646 1.29196e-17
6278.90069 1.30148e-17
6279.83497 1.31099e-17
6280.75920 1.29827e-17
6281.68343 1.28557e-17
6282.60766 1.28398e-17
6283.54194 1.28238e-17
6284.46617 1.27180e-17
6285.39041 1.26122e-17
6286.31464 1.24867e-17
6287.24892 1.23613e-17
6288.17315 1.23735e-17
6289.09738 1.23857e-17
6290.02161 1.24179e-17
6290.95589 1.24500e-17
6291.88012 1.24612e-17
6292.80435 1.24723e-17
6293.72859 1.22959e-17
6294.66286 1.21196e-17
6295.58710 1.22626e-17
6296.51133 1.24056e-17
6297.43556 1.24260e-17
6298.36984 1.24461e-17
6299.29407 1.20441e-17
6300.21830 1.16426e-17
6301.14253 1.19544e-17
6302.07681 1.22660e-17
6303.00104 1.23443e-17
6303.92528 1.24223e-17
6304.84951 1.21158e-17
6305.78379 1.18095e-17
6306.70802 1.16575e-17
6307.63225 1.15055e-17
6308.55648 1.13892e-17
6309.49076 1.12730e-17
6310.41499 1.12762e-17
6311.33922 1.12794e-17
6312.26346 1.13037e-17
6313.19773 1.13280e-17
6314.12197 1.13225e-17
6315.04620 1.13171e-17
6315.97043 1.13522e-17
6316.90471 1.13873e-17
6317.82894 1.13065e-17
6318.75317 1.12257e-17
6319.67740 1.12807e-17
6320.61168 1.13357e-17
6321.53591 1.13907e-17
6322.46015 1.14456e-17
6323.38438 1.12608e-17
6324.31866 1.10761e-17
6325.24289 1.11150e-17
6326.16712 1.11539e-17
6327.09135 1.11194e-17
6328.02563 1.10849e-17
6328.94986 1.09591e-17
6329.87409 1.08334e-17
6330.79833 1.09892e-17
6331.73260 1.11450e-17
6332.65684 1.12707e-17
6333.58107 1.13963e-17
6334.50530 1.13214e-17
6335.43958 1.12465e-17
6336.36381 1.10167e-17
6337.28804 1.07872e-17
6338.21227 1.09052e-17
6339.14655 1.10232e-17
6340.07078 1.10907e-17
6340.99502 1.11581e-17
6341.91925 1.11469e-17
6342.85353 1.11358e-17
6343.77776 1.10954e-17
6344.70199 1.10549e-17
6345.62622 1.10213e-17
6346.56050 1.09878e-17
6347.48473 1.10378e-17
6348.40896 1.10879e-17
6349.33320 1.11270e-17
6350.26747 1.11661e-17
6351.19171 1.10896e-17
6352.11594 1.10132e-17
6353.04017 1.11594e-17
6353.97445 1.13056e-17
6354.89868 1.13251e-17
6355.82291 1.13446e-17
6356.74714 1.12944e-17
6357.68142 1.12443e-17
6358.60565 1.11915e-17
6359.52989 1.11388e-17
6360.45412 1.12266e-17
6361.38840 1.13145e-17
6362.31263 1.13605e-17
6363.23686 1.14065e-17
6364.16109 1.14591e-17
6365.09537 1.15116e-17
6366.01960 1.13154e-17
6366.94383 1.11193e-17
6367.86807 1.10228e-17
6368.80234 1.09264e-17
6369.72658 1.10278e-17
6370.65081 1.11290e-17
6371.57504 1.10746e-17
6372.50932 1.10203e-17
6373.43355 1.10397e-17
6374.35778 1.10590e-17
6375.28201 1.10106e-17
6376.21629 1.09623e-17
6377.14052 1.09680e-17
6378.06476 1.09739e-17
6378.98899 1.12100e-17
6379.92327 1.14458e-17
6380.84750 1.14184e-17
6381.77173 1.13910e-17
6382.69596 1.13776e-17
6383.63024 1.13641e-17
6384.55447 1.14154e-17
6385.47870 1.14666e-17
6386.40294 1.14659e-17
6387.33721 1.14653e-17
6388.26145 1.15689e-17
6389.18568 1.16724e-17
6390.10991 1.16876e-17
6391.04419 1.17029e-17
6391.96842 1.17441e-17
6392.89265 1.17852e-17
6393.81688 1.17668e-17
6394.75116 1.17485e-17
6395.67539 1.17614e-17
6396.59963 1.17743e-17
6397.52386 1.19104e-17
6398.45814 1.20464e-17
6399.38237 1.21112e-17
6400.30660 1.21760e-17
6401.23083 1.21640e-17
6402.16511 1.21520e-17
6403.08934 1.22238e-17
6404.01357 1.22956e-17
6404.93781 1.23261e-17
6405.87208 1.23566e-17
6406.79632 1.23174e-17
6407.72055 1.22783e-17
6408.64478 1.23377e-17
6409.57906 1.23970e-17
6410.50329 1.24047e-17
6411.42752 1.24125e-17
6412.35175 1.25136e-17
6413.28603 1.26146e-17
6414.21026 1.25200e-17
6415.13450 1.24257e-17
6416.05873 1.26021e-17
6416.99301 1.27785e-17
6417.91724 1.27881e-17
6418.84147 1.27978e-17
6419.76570 1.28162e-17
6420.69998 1.28347e-17
6421.62421 1.27986e-17
6422.54844 1.27625e-17
6423.47268 1.27403e-17
6424.40695 1.27181e-17
6425.33119 1.27715e-17
6426.25542 1.28250e-17
6427.17965 1.29323e-17
6428.11393 1.30395e-17
6429.03816 1.31626e-17
6429.96239 1.32857e-17
6430.88662 1.34325e-17
6431.82090 1.35793e-17
6432.74513 1.35142e-17
6433.66937 1.34493e-17
6434.59360 1.34337e-17
6435.52788 1.34183e-17
6436.45211 1.36791e-17
6437.37634 1.39396e-17
6438.30057 1.38715e-17
6439.23485 1.38035e-17
6440.15908 1.38303e-17
6441.08331 1.38571e-17
6442.00755 1.37735e-17
6442.94182 1.36901e-17
6443.86606 1.38112e-17
6444.79029 1.39323e-17
6445.71452 1.40613e-17
6446.64880 1.41901e-17
6447.57303 1.40249e-17
6448.49726 1.38600e-17
6449.42149 1.40600e-17
6450.35577 1.42598e-17
6451.28000 1.41851e-17
6452.20424 1.41104e-17
6453.12847 1.40786e-17
6454.06275 1.40468e-17
6454.98698 1.40541e-17
6455.91121 1.40614e-17
6456.83544 1.40136e-17
6457.76972 1.39659e-17
6458.69395 1.40860e-17
6459.61818 1.42060e-17
6460.54242 1.41447e-17
6461.47669 1.40835e-17
6462.40093 1.40054e-17
6463.32516 1.39273e-17
6464.24939 1.39447e-17
6465.18367 1.39621e-17
6466.10790 1.39704e-17
6467.03213 1.39788e-17
6467.95636 1.40415e-17
6468.89064 1.41041e-17
6469.81487 1.40869e-17
6470.73911 1.40697e-17
6471.66334 1.39017e-17
6472.59762 1.37339e-17
6473.52185 1.39057e-17
6474.44608 1.40774e-17
6475.37031 1.39799e-17
6476.30459 1.38824e-17
6477.22882 1.38189e-17
6478.15305 1.37555e-17
6479.07729 1.38042e-17
6480.01156 1.38530e-17
6480.93580 1.38944e-17
6481.86003 1.39357e-17
6482.78426 1.38488e-17
6483.71854 1.37618e-17
6484.64277 1.36437e-17
6485.56700 1.35257e-17
6486.49123 1.35268e-17
6487.42551 1.35280e-17
6488.34974 1.34854e-17
6489.27398 1.34429e-17
6490.19821 1.34183e-17
6491.13249 1.33939e-17
6492.05672 1.35833e-17
6492.98095 1.37725e-17
6493.90518 1.37023e-17
6494.83946 1.36320e-17
6495.76369 1.36165e-17
6496.68792 1.36010e-17
6497.61216 1.36370e-17
6498.54643 1.36730e-17
6499.47067 1.35386e-17
6500.39490 1.34044e-17
6501.31913 1.33975e-17
6502.25341 1.33906e-17
6503.17764 1.34040e-17
6504.10187 1.34173e-17
6505.02610 1.32879e-17
6505.96038 1.31587e-17
6506.88461 1.32503e-17
6507.80885 1.33418e-17
6508.74312 1.32169e-17
6509.66736 1.30922e-17
6510.59159 1.30686e-17
6511.51582 1.30450e-17
6512.44005 1.30259e-17
6513.37433 1.30068e-17
6514.29856 1.29300e-17
6515.22279 1.28530e-17
6516.14703 1.25526e-17
6517.08130 1.22524e-17
6518.00554 1.22701e-17
6518.92977 1.22879e-17
6519.85400 1.24543e-17
6520.78828 1.26206e-17
6521.71251 1.25623e-17
6522.63674 1.25041e-17
6523.56097 1.24543e-17
6524.49525 1.24046e-17
6525.41948 1.24523e-17
6526.34372 1.25000e-17
6527.26795 1.25293e-17
6528.20223 1.25584e-17
6529.12646 1.24365e-17
6530.05069 1.23148e-17
6530.97492 1.23844e-17
6531.90920 1.24539e-17
6532.83343 1.23599e-17
6533.75766 1.22660e-17
6534.68190 1.22206e-17
6535.61617 1.21753e-17
6536.54041 1.21706e-17
6537.46464 1.21658e-17
6538.39892 1.20823e-17
6539.32315 1.19989e-17
6540.24738 1.20188e-17
6541.17161 1.20388e-17
6542.10589 1.20954e-17
6543.03012 1.21520e-17
6543.95435 1.21086e-17
6544.87859 1.20652e-17
6545.80282 1.18762e-17
6546.73710 1.16875e-17
6547.66133 1.18259e-17
6548.58556 1.19642e-17
6549.50979 1.19847e-17
6550.44407 1.20051e-17
6551.36830 1.19014e-17
6552.29253 1.17977e-17
6553.21677 1.18404e-17
6554.15104 1.18832e-17
6555.07528 1.19365e-17
6555.99951 1.19898e-17
6556.93379 1.19773e-17
6557.85802 1.19648e-17
6558.78225 1.18681e-17
6559.70648 1.17714e-17
6560.64076 1.18477e-17
6561.56499 1.19240e-17
6562.48922 1.20664e-17
6563.41346 1.22086e-17
6564.34773 1.20578e-17
6565.27197 1.19071e-17
6566.19620 1.19537e-17
6567.12043 1.20002e-17
6568.05471 1.20365e-17
6568.97894 1.20728e-17
6569.90317 1.20581e-17
6570.82740 1.20433e-17
6571.76168 1.20369e-17
6572.68591 1.20306e-17
6573.61015 1.21781e-17
6574.53438 1.23255e-17
6575.46866 1.22571e-17
6576.39289 1.21887e-17
6577.31712 1.20900e-17
6578.24135 1.19915e-17
6579.16558 1.20905e-17
6580.09986 1.21894e-17
6581.02409 1.22032e-17
6581.94833 1.22170e-17
6582.87256 1.22944e-17
6583.80684 1.23717e-17
6584.73107 1.22310e-17
6585.65530 1.20904e-17
6586.58958 1.22219e-17
6587.51381 1.23534e-17
6588.43804 1.24761e-17
6589.36227 1.25988e-17
6590.29655 1.26411e-17
6591.22078 1.26835e-17
6592.14502 1.28345e-17
6593.06925 1.29854e-17
6594.00353 1.29296e-17
6594.92776 1.28737e-17
6595.85199 1.26531e-17
6596.77622 1.24328e-17
6597.71050 1.25654e-17
6598.63473 1.26978e-17
6599.55896 1.25742e-17
6600.48320 1.24507e-17
6601.41747 1.25509e-17
6602.34171 1.26510e-17
6603.26594 1.25944e-17
6604.19017 1.25379e-17
6605.12445 1.25239e-17
6606.04868 1.25100e-17
6606.97291 1.26150e-17
6607.89714 1.27199e-17
6608.83142 1.26179e-17
6609.75565 1.25159e-17
6610.67989 1.25750e-17
6611.60412 1.26341e-17
6612.53840 1.27539e-17
6613.46263 1.28736e-17
6614.38686 1.27344e-17
6615.31109 1.25953e-17
6616.24537 1.26442e-17
6617.16960 1.26930e-17
6618.09383 1.26753e-17
6619.01807 1.26577e-17
6619.95234 1.26805e-17
6620.87658 1.27032e-17
6621.80081 1.25116e-17
6622.72504 1.23202e-17
6623.65932 1.23815e-17
6624.58355 1.24429e-17
6625.50778 1.24928e-17
6626.43201 1.25427e-17
6627.36629 1.25889e-17
6628.29052 1.26350e-17
6629.21476 1.25612e-17
6630.13899 1.24873e-17
6631.07327 1.23700e-17
6631.99750 1.22528e-17
6632.92173 1.22794e-17
6633.84596 1.23060e-17
6634.78024 1.24403e-17
6635.70447 1.25745e-17
6636.62870 1.25269e-17
6637.55294 1.24793e-17
6638.48721 1.24436e-17
6639.41145 1.24079e-17
6640.33568 1.25078e-17
6641.25991 1.26076e-17
6642.19419 1.26351e-17
6643.11842 1.26627e-17
6644.04265 1.27567e-17
6644.96688 1.28506e-17
6645.90116 1.28513e-17
6646.82539 1.28521e-17
6647.74963 1.29076e-17
6648.67386 1.29630e-17
6649.60814 1.28684e-17
6650.53237 1.27740e-17
6651.45660 1.28784e-17
6652.38083 1.29828e-17
6653.31511 1.29945e-17
6654.23934 1.30064e-17
6655.16357 1.32377e-17
6655.16357 1.32377e-17
6656.10790 1.32437e-17
6657.05222 1.32497e-17
6657.99655 1.32557e-17
6658.93082 1.32617e-17
6659.87515 1.32676e-17
6660.81947 1.32736e-17
6661.76380 1.32796e-17
6662.70812 1.32856e-17
6663.65244 1.32915e-17
6664.59677 1.32975e-17
6665.53105 1.33035e-17
6666.47537 1.33095e-17
6667.41969 1.33154e-17
6668.36402 1.33214e-17
6669.30834 1.33274e-17
6670.25267 1.33334e-17
6671.18694 1.33393e-17
6672.13127 1.33453e-17
6673.07559 1.33513e-17
6674.01992 1.33573e-17
6674.96424 1.33632e-17
6675.90856 1.33692e-17
6676.85289 1.33752e-17
6677.78717 1.33812e-17
6678.73149 1.33871e-17
6679.67581 1.33931e-17
6680.62014 1.33991e-17
6681.56446 1.34051e-17
6682.50879 1.34110e-17
6683.44306 1.34170e-17
6684.38739 1.34230e-17
6685.33171 1.34290e-17
6686.27604 1.34349e-17
6687.22036 1.34409e-17
6688.16468 1.34469e-17
6689.10901 1.34529e-17
6690.04329 1.34588e-17
6690.98761 1.34648e-17
6691.93193 1.34708e-17
6692.87626 1.34767e-17
6693.82058 1.34827e-17
6694.76491 1.34887e-17
6695.69918 1.34947e-17
6696.64351 1.35006e-17
6697.58783 1.35066e-17
6698.53216 1.35126e-17
6699.47648 1.35186e-17
6700.42080 1.35245e-17
6701.36513 1.35305e-17
6702.29941 1.35365e-17
6703.24373 1.35424e-17
6704.18805 1.35484e-17
6705.13238 1.35544e-17
6706.07670 1.35604e-17
6707.02103 1.35663e-17
6707.95530 1.35723e-17
6708.89963 1.35783e-17
6709.84395 1.35842e-17
6710.78828 1.35902e-17
6711.73260 1.35962e-17
6712.67692 1.36022e-17
6713.62125 1.36081e-17
6714.55553 1.36141e-17
6715.49985 1.36201e-17
6716.44417 1.36260e-17
6717.38850 1.36320e-17
6718.33282 1.36380e-17
6719.27715 1.36440e-17
6720.21142 1.36499e-17
6721.15575 1.36559e-17
6722.10007 1.36619e-17
6723.04440 1.36678e-17
6723.98872 1.36738e-17
6724.93304 1.36798e-17
6725.87737 1.36858e-17
6726.81165 1.36917e-17
6727.75597 1.36977e-17
6728.70029 1.37037e-17
6729.64462 1.37096e-17
6730.58894 1.37156e-17
6731.53327 1.37216e-17
6732.46754 1.37275e-17
6733.41187 1.37335e-17
6734.35619 1.37395e-17
6735.30052 1.37454e-17
6736.24484 1.37514e-17
6737.18916 1.37574e-17
6738.13349 1.37634e-17
6739.06777 1.37693e-17
6740.01209 1.37753e-17
6740.95641 1.37813e-17
6741.90074 1.37872e-17
6742.84506 1.37932e-17
6743.78939 1.37992e-17
6744.72366 1.38051e-17
6745.66799 1.38111e-17
6746.61231 1.38171e-17
6747.55664 1.38230e-17
6748.50096 1.38290e-17
6749.44528 1.38350e-17
6750.38961 1.38409e-17
6751.32389 1.38469e-17
6752.26821 1.38529e-17
6753.21253 1.38588e-17
6754.15686 1.38648e-17
6755.10118 1.38708e-17
6756.04551 1.38767e-17
6756.97978 1.38827e-17
6757.92411 1.38887e-17
6758.86843 1.38946e-17
6759.81276 1.39006e-17
6760.75708 1.39066e-17
6761.70140 1.39125e-17
6762.64573 1.39185e-17
6762.64573 1.39185e-17
6763.65033 1.38675e-17
6764.65493 1.38166e-17
6765.65953 1.37899e-17
6766.66413 1.37631e-17
6767.66873 1.37585e-17
6768.67333 1.37539e-17
6769.67793 1.37074e-17
6770.68253 1.36610e-17
6771.68713 1.36310e-17
6772.69173 1.36011e-17
6773.69633 1.35187e-17
6774.70093 1.34363e-17
6775.70553 1.35787e-17
6776.72017 1.37210e-17
6777.72477 1.35708e-17
6778.72937 1.34206e-17
6779.73397 1.33461e-17
6780.73857 1.32716e-17
6781.74317 1.33144e-17
6782.74777 1.33572e-17
6783.75237 1.33632e-17
6784.75697 1.33692e-17
6785.76157 1.33180e-17
6786.76617 1.32669e-17
6787.77077 1.32425e-17
6788.77537 1.32181e-17
6789.77997 1.31763e-17
6790.79462 1.31345e-17
6791.79922 1.31309e-17
6792.80382 1.31273e-17
6793.80842 1.30345e-17
6794.81302 1.29417e-17
6795.81762 1.29808e-17
6796.82222 1.30198e-17
6797.82682 1.29293e-17
6798.83142 1.28389e-17
6799.83602 1.28899e-17
6800.84062 1.29410e-17
6801.84522 1.27837e-17
6802.84982 1.26263e-17
6803.86447 1.25232e-17
6804.86907 1.24202e-17
6805.87367 1.25090e-17
6806.87827 1.25979e-17
6807.88287 1.26064e-17
6808.88747 1.26149e-17
6809.89207 1.26001e-17
6810.89667 1.25854e-17
6811.90127 1.25610e-17
6812.90587 1.25365e-17
6813.91047 1.24530e-17
6814.91507 1.23695e-17
6815.91967 1.23347e-17
6816.92427 1.23000e-17
6817.93891 1.23297e-17
6818.94351 1.23593e-17
6819.94811 1.22254e-17
6820.95271 1.20914e-17
6821.95731 1.20952e-17
6822.96191 1.20990e-17
6823.96651 1.21047e-17
6824.97111 1.21105e-17
6825.97571 1.20812e-17
6826.98031 1.20519e-17
6827.98491 1.20630e-17
6828.98951 1.20740e-17
6829.99411 1.20062e-17
6830.99871 1.19384e-17
6832.01336 1.20776e-17
6833.01796 1.22169e-17
6834.02256 1.21845e-17
6835.02716 1.21522e-17
6836.03176 1.19807e-17
6837.03636 1.18093e-17
6838.04096 1.17610e-17
6839.04556 1.17126e-17
6840.05016 1.17487e-17
6841.05476 1.17848e-17
6842.05936 1.17800e-17
6843.06396 1.17753e-17
6844.06856 1.16678e-17
6845.07316 1.16513e-17
6846.08780 1.16348e-17
6847.09240 1.16182e-17
6848.09700 1.16017e-17
6849.10160 1.15852e-17
6850.10620 1.15687e-17
6851.11080 1.15522e-17
6852.11540 1.15357e-17
6853.12000 1.15192e-17
6854.12460 1.15026e-17
6855.12920 1.14861e-17
6856.13380 1.14696e-17
6857.13840 1.14531e-17
6858.14300 1.14366e-17
6859.15765 1.14201e-17
6860.16225 1.14036e-17
6861.16685 1.13871e-17
6862.17145 1.13705e-17
6863.17605 1.13540e-17
6864.18065 1.13375e-17
6865.18525 1.13210e-17
6866.18985 1.13045e-17
6867.19445 1.12880e-17
6868.19905 1.12715e-17
6869.20365 1.12550e-17
6870.20825 1.12385e-17
6871.21285 1.12220e-17
6872.21745 1.12055e-17
6873.23210 1.11889e-17
6874.23670 1.11724e-17
6875.24130 1.11559e-17
6876.24590 1.11394e-17
6877.25050 1.11229e-17
6878.25510 1.11064e-17
6879.25970 1.10899e-17
6880.26430 1.10734e-17
6881.26890 1.10569e-17
6882.27350 1.10404e-17
6883.27810 1.10239e-17
6884.28270 1.10074e-17
6885.28730 1.09909e-17
6886.29190 1.09744e-17
6887.30654 1.09579e-17
6888.31114 1.09413e-17
6889.31574 1.09248e-17
6890.32034 1.09083e-17
6891.32494 1.08918e-17
6892.32954 1.08753e-17
6893.33414 1.08588e-17
6894.33874 1.08423e-17
6895.34334 1.08258e-17
6896.34794 1.08093e-17
6897.35254 1.07928e-17
6898.35714 1.07763e-17
6899.36174 1.07598e-17
6900.36634 1.07433e-17
6901.38099 1.07268e-17
6902.38559 1.07103e-17
6903.39019 1.06938e-17
6904.39479 1.06773e-17
6905.39939 1.06608e-17
6906.40399 1.06443e-17
6907.40859 1.06278e-17
6908.41319 1.06113e-17
6909.41779 1.05948e-17
6910.42239 1.05783e-17
6911.42699 1.05618e-17
6912.43159 1.05453e-17
6913.43619 1.05288e-17
6914.45083 1.05123e-17
6915.45543 1.04958e-17
6916.46003 1.04793e-17
6917.46463 1.04628e-17
6918.46923 1.04463e-17
6919.47383 1.04298e-17
6920.47843 1.04134e-17
6921.48303 1.03969e-17
6922.48763 1.03804e-17
6923.49223 1.03639e-17
6924.49683 1.03474e-17
6925.50143 1.03309e-17
6926.50603 1.03144e-17
6927.51063 1.02979e-17
6928.52528 1.02814e-17
6929.52988 1.02649e-17
6930.53448 1.02484e-17
6931.53908 1.02319e-17
6932.54368 1.02154e-17
6933.54828 1.01989e-17
6934.55288 1.01824e-17
6935.55748 1.01659e-17
6936.56208 1.01684e-17
6937.56668 1.01708e-17
6938.57128 1.02140e-17
6939.57588 1.02571e-17
6940.58048 1.02830e-17
6941.58508 1.03088e-17
6942.59973 1.02142e-17
6943.60433 1.01196e-17
6944.60893 1.01516e-17
6945.61353 1.01836e-17
6946.61813 1.02889e-17
6947.62273 1.03943e-17
6948.62733 1.04201e-17
6949.63193 1.04459e-17
6950.63653 1.04717e-17
6951.64113 1.04975e-17
6952.64573 1.05233e-17
6953.65033 1.05491e-17
6954.65493 1.05749e-17
6955.65953 1.06007e-17
6956.67417 1.05450e-17
6957.67877 1.04892e-17
6958.68337 1.04788e-17
6959.68797 1.04684e-17
6960.69257 1.05946e-17
6961.69717 1.07208e-17
6962.70177 1.07143e-17
6963.70637 1.07079e-17
6964.71097 1.07669e-17
6965.71557 1.08258e-17
6966.72017 1.08179e-17
6967.72477 1.08100e-17
6968.72937 1.08543e-17
6969.74402 1.08986e-17
6970.74862 1.08162e-17
6971.75322 1.07339e-17
6972.75782 1.08878e-17
6973.76242 1.10418e-17
6974.76702 1.10376e-17
6975.77162 1.10334e-17
6976.77622 1.11117e-17
6977.78082 1.11900e-17
6978.78542 1.11516e-17
6979.79002 1.11131e-17
6980.79462 1.11495e-17
6981.79922 1.11859e-17
6982.80382 1.11961e-17
6983.81846 1.12064e-17
6984.82306 1.12268e-17
6985.82766 1.12472e-17
6986.83226 1.13132e-17
6987.83686 1.13793e-17
6988.84146 1.14594e-17
6989.84606 1.15396e-17
6990.85066 1.15142e-17
6991.85526 1.14889e-17
6992.85986 1.15763e-17
6993.86446 1.16637e-17
6994.86906 1.16905e-17
6995.87366 1.17173e-17
6996.88831 1.16155e-17
6997.89291 1.15138e-17
6998.89751 1.16496e-17
6999.90211 1.17853e-17
7000.90671 1.18023e-17
7001.91131 1.18193e-17
7002.91591 1.17621e-17
7003.92051 1.17049e-17
7004.92511 1.16894e-17
7005.92971 1.16740e-17
7006.93431 1.17506e-17
7007.93891 1.18273e-17
7008.94351 1.17344e-17
7009.94811 1.16416e-17
7010.96276 1.15925e-17
7011.96736 1.15434e-17
7012.97196 1.15875e-17
7013.97656 1.16317e-17
7014.98116 1.15964e-17
7015.98576 1.15611e-17
7016.99036 1.15713e-17
7017.99496 1.15815e-17
7018.99956 1.16162e-17
7020.00416 1.16508e-17
7021.00876 1.16432e-17
7022.01336 1.16357e-17
7023.01796 1.16181e-17
7024.03260 1.16006e-17
7025.03720 1.16611e-17
7026.04180 1.17217e-17
7027.04640 1.16850e-17
7028.05100 1.16484e-17
7029.05560 1.16302e-17
7030.06020 1.16120e-17
7031.06480 1.16571e-17
7032.06940 1.17023e-17
7033.07400 1.16993e-17
7034.07860 1.16963e-17
7035.08320 1.17054e-17
7036.08780 1.17144e-17
7037.09240 1.17498e-17
7038.10705 1.17853e-17
7039.11165 1.17441e-17
7040.11625 1.17029e-17
7041.12085 1.17939e-17
7042.12545 1.18850e-17
7043.13005 1.18898e-17
7044.13465 1.18946e-17
7045.13925 1.19185e-17
7046.14385 1.19423e-17
7047.14845 1.20241e-17
7048.15305 1.21059e-17
7049.15765 1.20436e-17
7050.16225 1.19813e-17
7051.16685 1.19685e-17
7052.18149 1.19557e-17
7053.18609 1.19868e-17
7054.19069 1.20179e-17
7055.19529 1.20251e-17
7056.19989 1.20323e-17
7057.20449 1.20999e-17
7058.20909 1.21675e-17
7059.21369 1.21248e-17
7060.21829 1.20820e-17
7061.22289 1.21359e-17
7062.22749 1.21897e-17
7063.23209 1.21671e-17
7064.23669 1.21446e-17
7065.25134 1.20711e-17
7066.25594 1.19977e-17
7067.26054 1.20811e-17
7068.26514 1.21645e-17
7069.26974 1.21184e-17
7070.27434 1.20723e-17
7071.27894 1.20561e-17
7072.28354 1.20399e-17
7073.28814 1.20140e-17
7074.29274 1.19882e-17
7075.29734 1.20559e-17
7076.30194 1.21236e-17
7077.30654 1.22007e-17
7078.31114 1.22779e-17
7079.31574 1.22863e-17
7080.33039 1.22947e-17
7081.33499 1.22714e-17
7082.33959 1.22481e-17
7083.34419 1.21502e-17
7084.34879 1.20523e-17
7085.35339 1.22435e-17
7086.35799 1.24346e-17
7087.36259 1.23777e-17
7088.36719 1.23208e-17
7089.37179 1.22990e-17
7090.37639 1.22773e-17
7091.38099 1.23727e-17
7092.38559 1.24682e-17
7093.40023 1.24547e-17
7094.40483 1.24412e-17
7095.40943 1.24857e-17
7096.41403 1.25302e-17
7097.41863 1.26697e-17
7098.42323 1.28092e-17
7099.42783 1.27189e-17
7100.43243 1.26287e-17
7101.43703 1.26596e-17
7102.44163 1.26904e-17
7103.44623 1.26406e-17
7104.45083 1.25909e-17
7105.45543 1.26491e-17
7106.46003 1.27073e-17
7107.47468 1.27618e-17
7108.47928 1.28162e-17
7109.48388 1.27042e-17
7110.48848 1.25922e-17
7111.49308 1.26416e-17
7112.49768 1.26910e-17
7113.50228 1.26914e-17
7114.50688 1.26919e-17
7115.51148 1.26815e-17
7116.51608 1.26710e-17
7117.52068 1.26229e-17
7118.52528 1.25747e-17
7119.52988 1.25987e-17
7120.54452 1.26226e-17
7121.54912 1.25498e-17
7122.55372 1.24769e-17
7123.55832 1.24766e-17
7124.56292 1.24762e-17
7125.56752 1.24991e-17
7126.57212 1.25219e-17
7127.57672 1.24693e-17
7128.58132 1.24167e-17
7129.58592 1.24191e-17
7130.59052 1.24216e-17
7131.59512 1.24364e-17
7132.59972 1.24512e-17
7133.60432 1.23645e-17
7134.60892 1.22777e-17
7135.62357 1.23332e-17
7136.62817 1.23886e-17
7137.63277 1.24618e-17
7138.63737 1.25349e-17
7139.64197 1.24651e-17
7140.64657 1.23953e-17
7141.65117 1.23258e-17
7142.65577 1.22564e-17
7143.66037 1.22610e-17
7144.66497 1.22656e-17
7145.66957 1.22624e-17
7146.67417 1.22592e-17
7147.67877 1.22993e-17
7148.69342 1.23394e-17
7149.69802 1.22715e-17
7150.70262 1.22036e-17
7151.70722 1.21653e-17
7152.71182 1.21270e-17
7153.71642 1.21895e-17
7154.72102 1.22520e-17
7155.72562 1.21048e-17
7156.73022 1.19576e-17
7157.73482 1.20245e-17
7158.73942 1.20914e-17
7159.74402 1.20601e-17
7160.74862 1.20287e-17
7161.75322 1.19833e-17
7162.76786 1.19378e-17
7163.77246 1.20095e-17
7164.77706 1.20811e-17
7165.78166 1.20763e-17
7166.78626 1.20715e-17
7167.79086 1.19997e-17
7168.79546 1.19279e-17
7169.80006 1.19732e-17
7170.80466 1.20185e-17
7171.80926 1.19388e-17
7172.81386 1.18591e-17
7173.81846 1.18540e-17
7174.82306 1.18489e-17
7175.83771 1.17568e-17
7176.84231 1.16647e-17
7177.84691 1.17274e-17
7178.85151 1.17900e-17
7179.85611 1.17383e-17
7180.86071 1.16866e-17
7181.86531 1.17161e-17
7182.86991 1.17456e-17
7183.87451 1.17172e-17
7184.87911 1.16889e-17
7185.88371 1.16773e-17
7186.88831 1.16657e-17
7187.89291 1.17222e-17
7188.89751 1.17786e-17
7189.90211 1.16885e-17
7190.91675 1.15984e-17
7191.92135 1.15929e-17
7192.92595 1.15873e-17
7193.93055 1.14338e-17
7194.93515 1.12804e-17
7195.93975 1.13265e-17
7196.94435 1.13725e-17
7197.94895 1.15388e-17
7198.95355 1.17049e-17
7199.95815 1.15826e-17
7200.96275 1.14602e-17
7201.96735 1.14250e-17
7202.97195 1.13897e-17
7203.98660 1.13773e-17
7204.99120 1.13650e-17
7205.99580 1.13406e-17
7207.00040 1.13163e-17
7208.00500 1.12875e-17
7209.00960 1.12586e-17
7210.01420 1.13028e-17
7211.01880 1.13469e-17
7212.02340 1.14156e-17
7213.02800 1.14843e-17
7214.03260 1.14005e-17
7215.03720 1.13166e-17
7216.04180 1.13070e-17
7217.04640 1.12975e-17
7218.06105 1.12055e-17
7219.06565 1.11136e-17
7220.07025 1.10693e-17
7221.07485 1.10250e-17
7222.07945 1.10873e-17
7223.08405 1.11497e-17
7224.08865 1.11537e-17
7225.09325 1.11577e-17
7226.09785 1.09099e-17
7227.10245 1.06623e-17
7228.10705 1.07911e-17
7229.11165 1.09199e-17
7230.11625 1.09510e-17
7231.13089 1.09822e-17
7232.13549 1.09412e-17
7233.14009 1.09002e-17
7234.14469 1.07536e-17
7235.14929 1.06070e-17
7236.15389 1.05505e-17
7237.15849 1.04941e-17
7238.16309 1.06519e-17
7239.16769 1.08096e-17
7240.17229 1.06370e-17
7241.17689 1.04644e-17
7242.18149 1.05463e-17
7243.18609 1.06281e-17
7244.19069 1.06370e-17
7245.20534 1.06458e-17
7246.20994 1.06051e-17
7247.21454 1.05643e-17
7248.21914 1.04537e-17
7249.22374 1.03432e-17
7250.22834 1.04083e-17
7251.23294 1.04734e-17
7252.23754 1.04439e-17
7253.24214 1.04143e-17
7254.24674 1.03432e-17
7255.25134 1.02720e-17
7256.25594 1.02946e-17
7257.26054 1.03171e-17
7258.27518 1.04291e-17
7259.27978 1.05410e-17
7260.28438 1.04946e-17
7261.28898 1.04483e-17
7262.29358 1.04289e-17
7263.29818 1.04095e-17
7264.30278 1.04134e-17
7265.30738 1.04174e-17
7266.31198 1.03592e-17
7267.31658 1.03011e-17
7268.32118 1.03703e-17
7269.32578 1.04394e-17
7270.33038 1.03906e-17
7271.33498 1.03419e-17
7272.34963 1.03673e-17
7273.35423 1.03928e-17
7274.35883 1.04594e-17
7275.36343 1.05259e-17
7276.36803 1.04534e-17
7277.37263 1.03809e-17
7278.37723 1.03668e-17
7279.38183 1.03526e-17
7280.38643 1.04010e-17
7281.39103 1.04493e-17
7282.39563 1.04621e-17
7283.40023 1.04750e-17
7284.40483 1.05509e-17
7285.40943 1.06267e-17
7286.42408 1.05891e-17
7287.42868 1.05516e-17
7288.43328 1.05346e-17
7289.43788 1.05176e-17
7290.44248 1.04737e-17
7291.44708 1.04298e-17
7292.45168 1.05012e-17
7293.45628 1.05725e-17
7294.46088 1.06338e-17
7295.46548 1.06950e-17
7296.47008 1.06981e-17
7297.47468 1.07011e-17
7298.47928 1.06423e-17
7299.48388 1.05836e-17
7300.49852 1.06188e-17
7301.50312 1.06540e-17
7302.50772 1.06760e-17
7303.51232 1.06980e-17
7304.51692 1.05088e-17
7305.52152 1.03197e-17
7306.52612 1.03384e-17
7307.53072 1.03572e-17
7308.53532 1.04413e-17
7309.53992 1.05255e-17
7310.54452 1.04463e-17
7311.54912 1.03671e-17
7312.55372 1.03981e-17
7313.56837 1.04291e-17
7314.57297 1.05244e-17
7315.57757 1.06197e-17
7316.58217 1.05954e-17
7317.58677 1.05711e-17
7318.59137 1.05049e-17
7319.59597 1.04387e-17
7320.60057 1.04201e-17
7321.60517 1.04016e-17
7322.60977 1.05057e-17
7323.61437 1.06096e-17
7324.61897 1.05839e-17
7325.62357 1.05582e-17
7326.62817 1.05744e-17
7327.64281 1.05906e-17
7328.64741 1.05267e-17
7329.65201 1.04628e-17
7330.65661 1.04613e-17
7331.66121 1.04598e-17
7332.66581 1.04193e-17
7333.67041 1.03788e-17
7334.67501 1.03573e-17
7335.67961 1.03357e-17
7336.68421 1.03382e-17
7337.68881 1.03407e-17
7338.69341 1.04376e-17
7339.69801 1.05345e-17
7340.70261 1.04522e-17
7341.71726 1.03699e-17
7342.72186 1.03966e-17
7343.72646 1.04232e-17
7344.73106 1.03329e-17
7345.73566 1.02427e-17
7346.74026 1.02976e-17
7347.74486 1.03525e-17
7348.74946 1.02992e-17
7349.75406 1.02460e-17
7350.75866 1.03126e-17
7351.76326 1.03791e-17
7352.76786 1.02839e-17
7353.77246 1.01887e-17
7354.77706 1.00945e-17
7355.79171 1.00003e-17
7356.79631 9.99664e-18
7357.80091 9.99304e-18
7358.80551 1.00512e-17
7359.81011 1.01093e-17
7360.81471 1.00955e-17
7361.81931 1.00817e-17
7362.82391 1.00474e-17
7363.82851 1.00131e-17
7364.83311 9.83742e-18
7365.83771 9.66176e-18
7366.84231 9.71812e-18
7367.84691 9.77450e-18
7368.86155 9.86217e-18
7369.86615 9.94982e-18
7370.87075 9.95611e-18
7371.87535 9.96237e-18
7372.87995 9.84400e-18
7373.88455 9.72566e-18
7374.88915 9.68476e-18
7375.89375 9.64391e-18
7376.89835 9.71641e-18
7377.90295 9.78890e-18
7378.90755 9.83495e-18
7379.91215 9.88096e-18
7380.91675 9.78430e-18
7381.92135 9.68769e-18
7382.93600 9.72393e-18
7383.94060 9.76014e-18
7384.94520 9.69186e-18
7385.94980 9.62358e-18
7386.95440 9.56911e-18
7387.95900 9.51467e-18
7388.96360 9.57151e-18
7389.96820 9.62836e-18
7390.97280 9.73941e-18
7391.97740 9.85039e-18
7392.98200 9.70831e-18
7393.98660 9.56628e-18
7394.99120 9.56439e-18
7395.99580 9.56248e-18
7397.01044 9.49306e-18
7398.01504 9.42368e-18
7399.01964 9.48473e-18
7400.02424 9.54574e-18
7401.02884 9.50263e-18
7402.03344 9.45948e-18
7403.03804 9.30229e-18
7404.04264 9.14520e-18
7405.04724 9.27661e-18
7406.05184 9.40795e-18
7407.05644 9.34508e-18
7408.06104 9.28221e-18
7409.06564 9.24375e-18
7410.08029 9.20533e-18
7411.08489 9.30688e-18
7412.08949 9.40839e-18
7413.09409 9.38859e-18
7414.09869 9.36876e-18
7415.10329 9.24391e-18
7416.10789 9.11911e-18
7417.11249 9.17951e-18
7418.11709 9.23991e-18
7419.12169 9.28060e-18
7420.12629 9.32127e-18
7421.13089 9.26413e-18
7422.13549 9.20701e-18
7423.14009 9.21785e-18
7424.15474 9.22867e-18
7425.15934 9.19952e-18
7426.16394 9.17039e-18
7427.16854 9.21056e-18
7428.17314 9.25069e-18
7429.17774 9.16512e-18
7430.18234 9.07959e-18
7431.18694 9.12881e-18
7432.19154 9.17802e-18
7433.19614 9.17820e-18
7434.20074 9.17840e-18
7435.20534 9.22885e-18
7436.20994 9.27929e-18
7437.21454 9.27796e-18
7438.22918 9.27662e-18
7439.23378 9.22525e-18
7440.23838 9.17392e-18
7441.24298 9.21001e-18
7442.24758 9.24609e-18
7443.25218 9.21094e-18
7444.25678 9.17581e-18
7445.26138 9.20527e-18
7446.26598 9.23470e-18
7447.27058 9.16779e-18
7448.27518 9.10093e-18
7449.27978 9.16162e-18
7450.28438 9.22230e-18
7451.28898 9.26041e-18
7452.30363 9.29849e-18
7453.30823 9.27786e-18
7454.31283 9.25723e-18
7455.31743 9.26638e-18
7456.32203 9.27550e-18
7457.32663 9.23231e-18
7458.33123 9.18911e-18
7459.33583 9.11489e-18
7460.34043 9.04070e-18
7461.34503 9.04946e-18
7462.34963 9.05822e-18
7463.35423 9.11703e-18
7464.35883 9.17579e-18
7465.37347 9.14400e-18
7466.37807 9.11221e-18
7467.38267 9.08249e-18
7468.38727 9.05277e-18
7469.39187 9.03073e-18
7470.39647 9.00871e-18
7471.40107 9.04985e-18
7472.40567 9.09099e-18
7473.41027 9.15778e-18
7474.41487 9.22456e-18
7475.41947 9.27458e-18
7476.42407 9.32458e-18
7477.42867 9.31193e-18
7478.43327 9.29932e-18
7479.44792 9.43437e-18
7480.45252 9.56932e-18
7481.45712 9.45384e-18
7482.46172 9.33839e-18
7483.46632 9.31813e-18
7484.47092 9.29786e-18
7485.47552 9.25341e-18
7486.48012 9.20898e-18
7487.48472 9.21524e-18
7488.48932 9.22151e-18
7489.49392 9.22885e-18
7490.49852 9.23617e-18
7491.50312 9.16722e-18
7492.51777 9.09830e-18
7493.52237 9.14444e-18
7494.52697 9.19057e-18
7495.53157 9.21535e-18
7496.53617 9.24012e-18
7497.54077 9.23842e-18
7498.54537 9.23673e-18
7499.54997 9.26337e-18
7500.55457 9.28999e-18
7501.55917 9.24923e-18
7502.56377 9.20849e-18
7503.56837 9.23478e-18
7504.57297 9.26102e-18
7505.57757 9.16009e-18
7506.59221 9.05918e-18
7507.59681 9.03534e-18
7508.60141 9.01154e-18
7509.60601 9.10245e-18
7510.61061 9.19333e-18
7511.61521 9.19496e-18
7512.61981 9.19657e-18
7513.62441 9.15070e-18
7514.62901 9.10484e-18
7515.63361 9.13226e-18
7516.63821 9.15965e-18
7517.64281 9.11017e-18
7518.64741 9.06068e-18
7519.65201 8.98809e-18
7520.66666 8.91558e-18
7521.67126 9.05485e-18
7522.67586 9.19405e-18
7523.68046 9.12819e-18
7524.68506 9.06233e-18
7525.68966 8.99732e-18
7526.69426 8.93233e-18
7527.69886 8.94271e-18
7528.70346 8.95311e-18
7529.70806 9.02084e-18
7530.71266 9.08854e-18
7531.71726 9.11364e-18
7532.72186 9.13870e-18
7533.72646 9.06481e-18
7534.74110 8.99095e-18
7535.74570 8.98473e-18
7536.75030 8.97847e-18
7537.75490 8.86421e-18
7538.75950 8.74999e-18
7539.76410 8.74013e-18
7540.76870 8.73028e-18
7541.77330 8.77624e-18
7542.77790 8.82217e-18
7543.78250 8.81989e-18
7544.78710 8.81758e-18
7545.79170 8.75253e-18
7546.79630 8.68751e-18
7547.81095 8.70231e-18
7548.81555 8.71711e-18
7549.82015 8.71020e-18
7550.82475 8.70329e-18
7551.82935 8.69638e-18
7552.83395 8.68947e-18
7553.83855 8.68256e-18
7554.84315 8.67565e-18
7555.84775 8.66874e-18
7556.85235 8.66183e-18
7557.85695 8.65492e-18
7558.86155 8.64802e-18
7559.86615 8.64111e-18
7560.87075 8.63420e-18
7561.88540 8.62729e-18
7562.89000 8.62038e-18
7563.89460 8.61347e-18
7564.89920 8.60657e-18
7565.90380 8.59966e-18
7566.90840 8.59275e-18
7567.91300 8.58584e-18
7568.91760 8.57893e-18
7569.92220 8.57203e-18
7570.92680 8.56512e-18
7571.93140 8.55821e-18
7572.93600 8.55130e-18
7573.94060 8.54440e-18
7574.94520 8.53749e-18
7575.95984 8.53058e-18
7576.96444 8.52368e-18
7577.96904 8.51677e-18
7578.97364 8.50987e-18
7579.97824 8.50296e-18
7580.98284 8.49605e-18
7581.98744 8.48915e-18
7582.99204 8.48224e-18
7583.99664 8.47533e-18
7585.00124 8.46843e-18
7586.00584 8.46152e-18
7587.01044 8.45462e-18
7588.01504 8.44771e-18
7589.01964 8.44081e-18
7590.03429 8.43390e-18
7591.03889 8.42700e-18
7592.04349 8.42009e-18
7593.04809 8.41319e-18
7594.05269 8.40628e-18
7595.05729 8.39938e-18
7596.06189 8.39247e-18
7597.06649 8.38557e-18
7598.07109 8.37867e-18
7599.07569 8.37176e-18
7600.08029 8.36486e-18
7601.08489 8.35795e-18
7602.08949 8.35105e-18
7603.10413 8.34415e-18
7604.10873 8.33724e-18
7605.11333 8.33034e-18
7606.11793 8.32344e-18
7607.12253 8.31653e-18
7608.12713 8.30963e-18
7609.13173 8.30273e-18
7610.13633 8.29583e-18
7611.14093 8.28892e-18
7612.14553 8.28202e-18
7613.15013 8.27512e-18
7614.15473 8.26822e-18
7615.15933 8.26131e-18
7616.16393 8.25441e-18
7617.17858 8.24751e-18
7618.18318 8.24061e-18
7619.18778 8.23371e-18
7620.19238 8.22681e-18
7621.19698 8.21990e-18
7622.20158 8.21300e-18
7623.20618 8.20610e-18
7624.21078 8.19920e-18
7625.21538 8.19230e-18
7626.21998 8.18540e-18
7627.22458 8.17850e-18
7628.22918 8.17160e-18
7629.23378 8.16470e-18
7630.23838 8.15780e-18
7631.25303 8.15090e-18
7632.25763 8.14400e-18
7633.26223 8.13710e-18
7634.26683 8.13020e-18
7635.27143 8.12330e-18
7636.27603 8.11640e-18
7637.28063 8.10950e-18
7638.28523 8.10260e-18
7639.28983 8.09570e-18
7640.29443 8.08880e-18
7641.29903 8.08190e-18
7642.30363 8.07500e-18
7643.30823 8.06810e-18
7644.31283 8.06120e-18
7645.32747 8.05430e-18
7646.33207 8.04741e-18
7647.33667 8.04051e-18
7648.34127 8.03361e-18
7649.34587 8.02671e-18
7650.35047 8.01981e-18
7651.35507 8.01292e-18
7652.35967 8.00602e-18
7653.36427 7.99912e-18
7654.36887 7.99222e-18
7655.37347 7.98533e-18
7656.37807 7.97843e-18
7657.38267 7.97153e-18
7658.39732 7.96463e-18
7659.40192 7.95774e-18
7660.40652 7.95084e-18
7661.41112 7.94394e-18
7662.41572 7.93705e-18
7663.42032 7.93015e-18
7664.42492 7.92326e-18
7665.42952 7.91636e-18
7666.43412 7.90946e-18
7667.43872 7.90257e-18
7668.44332 7.89567e-18
7669.44792 7.88878e-18
7670.45252 7.88188e-18
7671.45712 7.87498e-18
7672.47176 7.86809e-18
7673.47636 7.86119e-18
7674.48096 7.85430e-18
7675.48556 7.84740e-18
7676.49016 7.84051e-18
7677.49476 7.83362e-18
7678.49936 7.82672e-18
7679.50396 7.81983e-18
7680.50856 7.81293e-18
7681.51316 7.89669e-18
7682.51776 7.93851e-18
7683.52236 7.98033e-18
7684.52696 8.02127e-18
7685.53156 8.06220e-18
7686.54621 8.09741e-18
7687.55081 8.13259e-18
7688.55541 8.09550e-18
7689.56001 8.05845e-18
7690.56461 8.12775e-18
7691.56921 8.19701e-18
7692.57381 8.18073e-18
7693.57841 8.16446e-18
7694.58301 8.16174e-18
7695.58761 8.15904e-18
7696.59221 8.18795e-18
7697.59681 8.21684e-18
7698.60141 8.22007e-18
7699.60601 8.22327e-18
7700.62066 8.15661e-18
7701.62526 8.09003e-18
7702.62986 8.18810e-18
7703.63446 8.28612e-18
7704.63906 8.29984e-18
7705.64366 8.31356e-18
7706.64826 8.36716e-18
7707.65286 8.42069e-18
7708.65746 8.32503e-18
7709.66206 8.22940e-18
7710.66666 8.20220e-18
7711.67126 8.17501e-18
7712.67586 8.19676e-18
7713.69050 8.21846e-18
7714.69510 8.12142e-18
7715.69970 8.02443e-18
7716.70430 8.00814e-18
7717.70890 7.99189e-18
7718.71350 8.06708e-18
7719.71810 8.14223e-18
7720.72270 8.12961e-18
7721.72730 8.11701e-18
7722.73190 8.11707e-18
7723.73650 8.11707e-18
7724.74110 7.97595e-18
7725.74570 7.83491e-18
7726.75030 7.88019e-18
7727.76495 7.92544e-18
7728.76955 7.90780e-18
7729.77415 7.89021e-18
7730.77875 7.95875e-18
7731.78335 8.02719e-18
7732.78795 7.90256e-18
7733.79255 7.77795e-18
7734.79715 7.72408e-18
7735.80175 7.67029e-18
7736.80635 7.80197e-18
7737.81095 7.93359e-18
7738.81555 7.93909e-18
7739.82015 7.94458e-18
7740.82475 7.90518e-18
7741.83939 7.86582e-18
7742.84399 7.90752e-18
7743.84859 7.94920e-18
7744.85319 7.95717e-18
7745.85779 7.96516e-18
7746.86239 7.99589e-18
7747.86699 8.02657e-18
7748.87159 7.95333e-18
7749.87619 7.88014e-18
7750.88079 7.93473e-18
7751.88539 7.98936e-18
7752.88999 8.10507e-18
7753.90464 8.22067e-18
7754.90924 8.12633e-18
7755.91384 8.03210e-18
7756.91844 8.16869e-18
7757.92304 8.30519e-18
7758.92764 8.26872e-18
7759.93224 8.23226e-18
7760.93684 8.20429e-18
7761.94144 8.17633e-18
7762.94604 8.19408e-18
7763.95064 8.21183e-18
7764.95524 8.23327e-18
7765.95984 8.25469e-18
7766.96444 8.23373e-18
7767.96904 8.21280e-18
7768.98369 8.26446e-18
7769.98829 8.31607e-18
7770.99289 8.27225e-18
7771.99749 8.22842e-18
7773.00209 8.17709e-18
7774.00669 8.12580e-18
7775.01129 8.16972e-18
7776.01589 8.21359e-18
7777.02049 8.16953e-18
7778.02509 8.12552e-18
7779.02969 8.18377e-18
7780.03429 8.24200e-18
7781.03889 8.25029e-18
7782.05353 8.25860e-18
7783.05813 8.30254e-18
7784.06273 8.34641e-18
7785.06733 8.24170e-18
7786.07193 8.13708e-18
7787.07653 8.17782e-18
7788.08113 8.21856e-18
7789.08573 8.23951e-18
7790.09033 8.26048e-18
7791.09493 8.29352e-18
7792.09953 8.32655e-18
7793.10413 8.32914e-18
7794.10873 8.33175e-18
7795.11333 8.35971e-18
7796.12798 8.38766e-18
7797.13258 8.40782e-18
7798.13718 8.42790e-18
7799.14178 8.30277e-18
7800.14638 8.17777e-18
7801.15098 8.31692e-18
7802.15558 8.45599e-18
7803.16018 8.42374e-18
7804.16478 8.39147e-18
7805.16938 8.32575e-18
7806.17398 8.26009e-18
7807.17858 8.29141e-18
7808.18318 8.32271e-18
7809.18778 8.32676e-18
7810.20242 8.33080e-18
7811.20702 8.34470e-18
7812.21162 8.35859e-18
7813.21622 8.37490e-18
7814.22082 8.39116e-18
7815.22542 8.32146e-18
7816.23002 8.25182e-18
7817.23462 8.29136e-18
7818.23922 8.33091e-18
7819.24382 8.39845e-18
7820.24842 8.46592e-18
7821.25302 8.40541e-18
7822.25762 8.34498e-18
7823.26222 8.43572e-18
7824.27687 8.52638e-18
7825.28147 8.47850e-18
7826.28607 8.43064e-18
7827.29067 8.42639e-18
7828.29527 8.42213e-18
7829.29987 8.40531e-18
7830.30447 8.38850e-18
7831.30907 8.37937e-18
7832.31367 8.37025e-18
7833.31827 8.37253e-18
7834.32287 8.37477e-18
7835.32747 8.29647e-18
7836.33207 8.21817e-18
7837.34672 8.14755e-18
7838.35132 8.07701e-18
7839.35592 8.16645e-18
7840.36052 8.25583e-18
7841.36512 8.24564e-18
7842.36972 8.23541e-18
7843.37432 8.16263e-18
7844.37892 8.08989e-18
7845.38352 8.10157e-18
7846.38812 8.11318e-18
7847.39272 7.99618e-18
7848.39732 7.87929e-18
7849.40192 7.94600e-18
7850.40652 8.01272e-18
7851.42116 8.08880e-18
7852.42576 8.16481e-18
7853.43036 8.09275e-18
7854.43496 8.02073e-18
7855.43956 8.02775e-18
7856.44416 8.03478e-18
7857.44876 8.05440e-18
7858.45336 8.07404e-18
7859.45796 8.11780e-18
7860.46256 8.16158e-18
7861.46716 8.22842e-18
7862.47176 8.29522e-18
7863.47636 8.29401e-18
7864.48096 8.29274e-18
7865.49561 8.19375e-18
7866.50021 8.09479e-18
7867.50481 8.03811e-18
7868.50941 7.98150e-18
7869.51401 8.04268e-18
7870.51861 8.10379e-18
7871.52321 8.05499e-18
7872.52781 8.00626e-18
7873.53241 8.08756e-18
7874.53701 8.16886e-18
7875.54161 8.23727e-18
7876.54621 8.30564e-18
7877.55081 8.28963e-18
7878.55541 8.27362e-18
7879.57005 8.25357e-18
7880.57465 8.23355e-18
7881.57925 8.25105e-18
7882.58385 8.26855e-18
7883.58845 8.26861e-18
7884.59305 8.26862e-18
7885.59765 8.18764e-18
7886.60225 8.10677e-18
7887.60685 8.22750e-18
7888.61145 8.34814e-18
7889.61605 8.28323e-18
7890.62065 8.21830e-18
7891.62525 8.11914e-18
7892.63990 8.02008e-18
7893.64450 8.12425e-18
7894.64910 8.22831e-18
7895.65370 8.13277e-18
7896.65830 8.03728e-18
7897.66290 8.00111e-18
7898.66750 7.96499e-18
7899.67210 8.01472e-18
7900.67670 8.06442e-18
7901.68130 8.04362e-18
7902.68590 8.02281e-18
7903.69050 7.99065e-18
7904.69510 7.95851e-18
7905.69970 7.95727e-18
7906.71435 7.95604e-18
7907.71895 7.98594e-18
7908.72355 8.01580e-18
7909.72815 7.99493e-18
7910.73275 7.97402e-18
7911.73735 7.88603e-18
7912.74195 7.79813e-18
7913.74655 7.87926e-18
7914.75115 7.96036e-18
7915.75575 7.98624e-18
7916.76035 8.01207e-18
7917.76495 7.95325e-18
7918.76955 7.89445e-18
7919.77415 7.86478e-18
7920.78879 7.83519e-18
7921.79339 7.92908e-18
7922.79799 8.02289e-18
7923.80259 7.97076e-18
7924.80719 7.91867e-18
7925.81179 7.93070e-18
7926.81639 7.94271e-18
7927.82099 7.93102e-18
7928.82559 7.91933e-18
7929.83019 7.91690e-18
7930.83479 7.91443e-18
7931.83939 7.84242e-18
7932.84399 7.77042e-18
7933.84859 7.72280e-18
7934.86324 7.67523e-18
7935.86784 7.71591e-18
7936.87244 7.75657e-18
7937.87704 7.74927e-18
7938.88164 7.74199e-18
7939.88624 7.76240e-18
7940.89084 7.78279e-18
7941.89544 7.77924e-18
7942.90004 7.77568e-18
7943.90464 7.75503e-18
7944.90924 7.73433e-18
7945.91384 7.64591e-18
7946.91844 7.55762e-18
7947.93308 7.68666e-18
7948.93768 7.81564e-18
7949.94228 7.83306e-18
7950.94688 7.85043e-18
7951.95148 7.78763e-18
7952.95608 7.72485e-18
7953.96068 7.68752e-18
7954.96528 7.65021e-18
7955.96988 7.62620e-18
7956.97448 7.60221e-18
7957.97908 7.59247e-18
7958.98368 7.58273e-18
7959.98828 7.56564e-18
7960.99288 7.54859e-18
7962.00753 7.59516e-18
7963.01213 7.64171e-18
7964.01673 7.66896e-18
7965.02133 7.69619e-18
7966.02593 7.68313e-18
7967.03053 7.67006e-18
7968.03513 7.61562e-18
7969.03973 7.56121e-18
7970.04433 7.56093e-18
7971.04893 7.56063e-18
7972.05353 7.52449e-18
7973.05813 7.48838e-18
7974.06273 7.48873e-18
7975.06733 7.48908e-18
7976.08198 7.50246e-18
7977.08658 7.51584e-18
7978.09118 7.53904e-18
7979.09578 7.56217e-18
7980.10038 7.47874e-18
7981.10498 7.39538e-18
7982.10958 7.41444e-18
7983.11418 7.43350e-18
7984.11878 7.45421e-18
7985.12338 7.47487e-18
7986.12798 7.40127e-18
7987.13258 7.32770e-18
7988.13718 7.30935e-18
7989.14178 7.29106e-18
7990.15642 7.36265e-18
7991.16102 7.43417e-18
7992.16562 7.39239e-18
7993.17022 7.35065e-18
7994.17482 7.36316e-18
7995.17942 7.37569e-18
7996.18402 7.42459e-18
7997.18862 7.47339e-18
7998.19322 7.36372e-18
7999.19782 7.25407e-18
8000.20242 7.17418e-18
8001.20702 7.09438e-18
8002.21162 7.14497e-18
8003.22627 7.19550e-18
8004.23087 7.13628e-18
8005.23547 7.07711e-18
8006.24007 7.07564e-18
8007.24467 7.07420e-18
8008.24927 7.11427e-18
8009.25387 7.15434e-18
8010.25847 7.20463e-18
8011.26307 7.25485e-18
8012.26767 7.20274e-18
8013.27227 7.15062e-18
8014.27687 7.06968e-18
8015.28147 6.98878e-18
8016.29611 6.98147e-18
8017.30071 6.97418e-18
8018.30531 7.01700e-18
8019.30991 7.05974e-18
8020.31451 6.97406e-18
8021.31911 6.88846e-18
8022.32371 6.94801e-18
8023.32831 7.00757e-18
8024.33291 7.09247e-18
8025.33751 7.17728e-18
8026.34211 7.10033e-18
8027.34671 7.02342e-18
8028.35131 7.00785e-18
8029.35591 6.99229e-18
8030.37056 6.98301e-18
8031.37516 6.97368e-18
8032.37976 6.87963e-18
8033.38436 6.78567e-18
8034.38896 6.82734e-18
8035.39356 6.86904e-18
8036.39816 6.94777e-18
8037.40276 7.02644e-18
8038.40736 7.01279e-18
8039.41196 6.99912e-18
8040.41656 6.95225e-18
8041.42116 6.90539e-18
8042.42576 6.88383e-18
8043.43036 6.86228e-18
8044.44501 6.86171e-18
8045.44961 6.86116e-18
8046.45421 6.88071e-18
8047.45881 6.90027e-18
8048.46341 6.93783e-18
8049.46801 6.97533e-18
8050.47261 6.93312e-18
8051.47721 6.89091e-18
8052.48181 6.85524e-18
8053.48641 6.81964e-18
8054.49101 6.90023e-18
8055.49561 6.98075e-18
8056.50021 6.97363e-18
8057.51485 6.96648e-18
8058.51945 6.90662e-18
8059.52405 6.84683e-18
8060.52865 6.89013e-18
8061.53325 6.93344e-18
8062.53785 6.98527e-18
8063.54245 7.03708e-18
8064.54705 7.03474e-18
8065.55165 7.03236e-18
8066.55625 6.96945e-18
8067.56085 6.90657e-18
8068.56545 6.86938e-18
8069.57005 6.83222e-18
8070.57465 6.83299e-18
8071.57925 6.83375e-18
8072.59390 6.79396e-18
8073.59850 6.75422e-18
8074.60310 6.79473e-18
8075.60770 6.83521e-18
8076.61230 6.81584e-18
8077.61690 6.79646e-18
8078.62150 6.77595e-18
8079.62610 6.75545e-18
8080.63070 6.75302e-18
8081.63530 6.75066e-18
8082.63990 6.84913e-18
8083.64450 6.94748e-18
8084.64910 6.84260e-18
8085.66374 6.73774e-18
8086.66834 6.67592e-18
8087.67294 6.61420e-18
8088.67754 6.70036e-18
8089.68214 6.78644e-18
8090.68674 6.74216e-18
8091.69134 6.69791e-18
8092.69594 6.69192e-18
8093.70054 6.68596e-18
8094.70514 6.73410e-18
8095.70974 6.78216e-18
8096.71434 6.70728e-18
8097.71894 6.63246e-18
8098.73359 6.63035e-18
8099.73819 6.62818e-18
8100.74279 6.53594e-18
8101.74739 6.44378e-18
8102.75199 6.47659e-18
8103.75659 6.50936e-18
8104.76119 6.49279e-18
8105.76579 6.47624e-18
8106.77039 6.48458e-18
8107.77499 6.49287e-18
8108.77959 6.41735e-18
8109.78419 6.34196e-18
8110.78879 6.45276e-18
8111.79339 6.56345e-18
8112.80804 6.50188e-18
8113.81264 6.44030e-18
8114.81724 6.37170e-18
8115.82184 6.30320e-18
8116.82644 6.38880e-18
8117.83104 6.47431e-18
8118.83564 6.41119e-18
8119.84024 6.34810e-18
8120.84484 6.35261e-18
8121.84944 6.35708e-18
8122.85404 6.30712e-18
8123.85864 6.25715e-18
8124.86324 6.20248e-18
8125.86784 6.14789e-18
8126.88248 6.22630e-18
8127.88708 6.30469e-18
8128.89168 6.35843e-18
8129.89628 6.41204e-18
8130.90088 6.27412e-18
8131.90548 6.13628e-18
8132.91008 6.11653e-18
8133.91468 6.09679e-18
8134.91928 6.07043e-18
8135.92388 6.04414e-18
8136.92848 6.12795e-18
8137.93308 6.21171e-18
8138.93768 6.22447e-18
8139.94228 6.23724e-18
8140.95693 6.25368e-18
8141.96153 6.27012e-18
8142.96613 6.28815e-18
8143.97073 6.30621e-18
8144.97533 6.36289e-18
8145.97993 6.41950e-18
8146.98453 6.36685e-18
8147.98913 6.31419e-18
8148.99373 6.24276e-18
8149.99833 6.17140e-18
8151.00293 6.20723e-18
8152.00753 6.24308e-18
8153.01213 6.30770e-18
8154.02677 6.37220e-18
8155.03137 6.26716e-18
8156.03597 6.16222e-18
8157.04057 6.19845e-18
8158.04517 6.23467e-18
8159.04977 6.24066e-18
8160.05437 6.24663e-18
8161.05897 6.22150e-18
8162.06357 6.19634e-18
8163.06817 6.11841e-18
8164.07277 6.04050e-18
8165.07737 5.99163e-18
8166.08197 5.94287e-18
8167.08657 6.06391e-18
8168.10122 6.18480e-18
8169.10582 6.10360e-18
8170.11042 6.02239e-18
8171.11502 5.93134e-18
8172.11962 5.84039e-18
8173.12422 5.90236e-18
8174.12882 5.96430e-18
8175.13342 5.99216e-18
8176.13802 6.01997e-18
8177.14262 5.97511e-18
8178.14722 5.93020e-18
8179.15182 5.82828e-18
8180.15642 5.72646e-18
8181.16102 5.77482e-18
8182.17567 5.82313e-18
8183.18027 5.78943e-18
8184.18487 5.75574e-18
8185.18947 5.72385e-18
8186.19407 5.69196e-18
8187.19867 5.66990e-18
8188.20327 5.64786e-18
8189.20787 5.64260e-18
8190.21247 5.63734e-18
8191.21707 5.63239e-18
8192.22167 5.62746e-18
8193.22627 5.64022e-18
8194.23087 5.65296e-18
8195.23547 5.66005e-18
8196.25011 5.66711e-18
8197.25471 5.63704e-18
8198.25931 5.60697e-18
8199.26391 5.56755e-18
8200.26851 5.52810e-18
8201.27311 5.44167e-18
8202.27771 5.35535e-18
8203.28231 5.42393e-18
8204.28691 5.49242e-18
8205.29151 5.42975e-18
8206.29611 5.36705e-18
8207.30071 5.25751e-18
8208.30531 5.14802e-18
8209.31996 5.10829e-18
8210.32456 5.06858e-18
8211.32916 5.05355e-18
8212.33376 5.03854e-18
8213.33836 5.04993e-18
8214.34296 5.06124e-18
8215.34756 4.94962e-18
8216.35216 4.83809e-18
8217.35676 4.86021e-18
8218.36136 4.88222e-18
8219.36596 4.74681e-18
8220.37056 4.61140e-18
8221.37516 4.46237e-18
8222.37976 4.31333e-18
8223.39440 4.15611e-18
8224.39900 3.99900e-18
8225.40360 3.99425e-18
8226.40820 3.98957e-18
8227.41280 4.08940e-18
8228.41740 4.18902e-18
8229.42200 4.01069e-18
8230.42660 3.83251e-18
8231.43120 3.85594e-18
8232.43580 3.87936e-18
8233.44040 3.87404e-18
8234.44500 3.86874e-18
8235.44960 3.88688e-18
8236.46425 3.90499e-18
8237.46885 3.86579e-18
8238.47345 3.82662e-18
8239.47805 3.82672e-18
8240.48265 3.82682e-18
8241.48725 3.83403e-18
8242.49185 3.84115e-18
8243.49645 3.72275e-18
8244.50105 3.60442e-18
8245.50565 3.60025e-18
8246.51025 3.59608e-18
8247.51485 3.59771e-18
8248.51945 3.59932e-18
8249.52405 3.57247e-18
8250.52865 3.54559e-18
8251.54330 3.49133e-18
8252.54790 3.43707e-18
8253.55250 3.38634e-18
8254.55710 3.33561e-18
8255.56170 3.26328e-18
8256.56630 3.19102e-18
8257.57090 3.22663e-18
8258.57550 3.26220e-18
8259.58010 3.24594e-18
8260.58470 3.22965e-18
8261.58930 3.17075e-18
8262.59390 3.11187e-18
8263.59850 3.08390e-18
8264.61314 3.05593e-18
8265.61774 3.02332e-18
8266.62234 2.99071e-18
8267.62694 2.95685e-18
8268.63154 2.92298e-18
8269.63614 2.85905e-18
8270.64074 2.79514e-18
8271.64534 2.73896e-18
8272.64994 2.68278e-18
8273.65454 2.62269e-18
8274.65914 2.56267e-18
8275.66374 2.59286e-18
8276.66834 2.62302e-18
8277.67294 2.62800e-18
8278.68759 2.63298e-18
8279.69219 2.66231e-18
8280.69679 2.69159e-18
8281.70139 2.65919e-18
8282.70599 2.62677e-18
8283.71059 2.57766e-18
8284.71519 2.52860e-18
8285.71979 2.53420e-18
8286.72439 2.53977e-18
8287.72899 2.51608e-18
8288.73359 2.49232e-18
8289.73819 2.37021e-18
8290.74279 2.24821e-18
8291.74739 2.28354e-18
8292.76203 2.31888e-18
8293.76663 2.37177e-18
8294.77123 2.42464e-18
8295.77583 2.44660e-18
8296.78043 2.46850e-18
8297.78503 2.40829e-18
8298.78963 2.34811e-18
8299.79423 2.33091e-18
8300.79883 2.31370e-18
8301.80343 2.27888e-18
8302.80803 2.24412e-18
8303.81263 2.27785e-18
8304.81723 2.31153e-18
8305.82183 2.26701e-18
8306.83648 2.22248e-18
8307.84108 2.17087e-18
8308.84568 2.11937e-18
8309.85028 2.22128e-18
8310.85488 2.32304e-18
8311.85948 2.23461e-18
8312.86408 2.14621e-18
8313.86868 2.09305e-18
8314.87328 2.03998e-18
8315.87788 2.10676e-18
8316.88248 2.17351e-18
8317.88708 2.18801e-18
8318.89168 2.20248e-18
8319.89628 2.19894e-18
8320.91093 2.19541e-18
8321.91553 2.21961e-18
8322.92013 2.24373e-18
8323.92473 2.17977e-18
8324.92933 2.11586e-18
8325.93393 2.11575e-18
8326.93853 2.11564e-18
8327.94313 2.09463e-18
8328.94773 2.07366e-18
8329.95233 2.10012e-18
8330.95693 2.12659e-18
8331.96153 2.18109e-18
8332.96613 2.23553e-18
8333.98077 2.22238e-18
8334.98537 2.20921e-18
8335.98997 2.16998e-18
8336.99457 2.13077e-18
8337.99917 2.12804e-18
8339.00377 2.12534e-18
8340.00837 2.15818e-18
8341.01297 2.19100e-18
8342.01757 2.18383e-18
8343.02217 2.17669e-18
8344.02677 2.20404e-18
8345.03137 2.23128e-18
8346.03597 2.10262e-18
8347.05062 1.97410e-18
8348.05522 2.01012e-18
8349.05982 2.04608e-18
8350.06442 2.01377e-18
8351.06902 1.98155e-18
8352.07362 2.07233e-18
8353.07822 2.16303e-18
8354.08282 2.13589e-18
8355.08742 2.10872e-18
8356.09202 2.03485e-18
8357.09662 1.96109e-18
8358.10122 2.03178e-18
8359.10582 2.10245e-18
8360.11042 2.15700e-18
8361.11502 2.21148e-18
8362.12966 2.18194e-18
8363.13426 2.15247e-18
8364.13886 2.21970e-18
8365.14346 2.28689e-18
8366.14806 2.29874e-18
8367.15266 2.31047e-18
8368.15726 2.16446e-18
8369.16186 2.01861e-18
8370.16646 2.07423e-18
8371.17106 2.12980e-18
8372.17566 2.11980e-18
8373.18026 2.10982e-18
8374.18486 2.11944e-18
8375.19951 2.12907e-18
8376.20411 2.14552e-18
8377.20871 2.16197e-18
8378.21331 2.16633e-18
8379.21791 2.17067e-18
8380.22251 2.17138e-18
8381.22711 2.17207e-18
8382.23171 2.13891e-18
8383.23631 2.10584e-18
8384.24091 2.18321e-18
8385.24551 2.26053e-18
8386.25011 2.27848e-18
8387.25471 2.29646e-18
8388.25931 2.34967e-18
8389.27396 2.40281e-18
8390.27856 2.37800e-18
8391.28316 2.35318e-18
8392.28776 2.30959e-18
8393.29236 2.26606e-18
8394.29696 2.29196e-18
8395.30156 2.31781e-18
8396.30616 2.29349e-18
8397.31076 2.26910e-18
8398.31536 2.14976e-18
8399.31996 2.03054e-18
8400.32456 2.06626e-18
8401.32916 2.10206e-18
8402.34380 2.23375e-18
8403.34840 2.36539e-18
8404.35300 2.43301e-18
8405.35760 2.50055e-18
8406.36220 2.46842e-18
8407.36680 2.43629e-18
8408.37140 2.39775e-18
8409.37600 2.35924e-18
8410.38060 2.34951e-18
8411.38520 2.33981e-18
8412.38980 2.37789e-18
8413.39440 2.41597e-18
8414.39900 2.45991e-18
8415.41365 2.50383e-18
8416.41825 2.52726e-18
8417.42285 2.55067e-18
8418.42745 2.55257e-18
8419.43205 2.55447e-18
8420.43665 2.56919e-18
8421.44125 2.58391e-18
8422.44585 2.60725e-18
8423.45045 2.63057e-18
8424.45505 2.63767e-18
8425.45965 2.64478e-18
8426.46425 2.64661e-18
8427.46885 2.64845e-18
8428.47345 2.65256e-18
8429.47805 2.65668e-18
8430.49269 2.66823e-18
8431.49729 2.67980e-18
8432.50189 2.72042e-18
8433.50649 2.76101e-18
8434.51109 2.76834e-18
8435.51569 2.77566e-18
8436.52029 2.76099e-18
8437.52489 2.74640e-18
8438.52949 2.80899e-18
8439.53409 2.87161e-18
8440.53869 2.95044e-18
8441.54329 3.02917e-18
8442.54789 2.98035e-18
8443.55249 2.93159e-18
8444.56714 2.96026e-18
8445.57174 2.98887e-18
8446.57634 2.95317e-18
8447.58094 2.91743e-18
8448.58554 2.83280e-18
8449.59014 2.74828e-18
8450.59474 2.81018e-18
8451.59934 2.87199e-18
8452.60394 2.83323e-18
8453.60854 2.79451e-18
8454.61314 2.80179e-18
8455.61774 2.80909e-18
8456.63239 2.85467e-18
8457.63699 2.90026e-18
8458.64159 2.96487e-18
8459.64619 3.02939e-18
8460.65079 2.98314e-18
8461.65539 2.93695e-18
8462.65999 2.97768e-18
8463.66459 3.01830e-18
8464.66919 2.93238e-18
8465.67379 2.84652e-18
8466.67839 2.83215e-18
8467.68299 2.81785e-18
8468.68759 2.87520e-18
8469.69219 2.93252e-18
8470.70683 2.95611e-18
8471.71143 2.97974e-18
8472.71603 3.03731e-18
8473.72063 3.09484e-18
8474.72523 3.08956e-18
8475.72983 3.08426e-18
8476.73443 3.05796e-18
8477.73903 3.03168e-18
8478.74363 3.03895e-18
8479.74823 3.04623e-18
8480.75283 3.07733e-18
8481.75743 3.10841e-18
8482.76203 3.10061e-18
8483.76663 3.09280e-18
8484.78128 3.06623e-18
8485.78588 3.03976e-18
8486.79048 3.12729e-18
8487.79508 3.21481e-18
8488.79968 3.29801e-18
8489.80428 3.38101e-18
8490.80888 3.24276e-18
8491.81348 3.10464e-18
8492.81808 3.11958e-18
8493.82268 3.13455e-18
8494.82728 3.19261e-18
8495.83188 3.25061e-18
8496.83648 3.22520e-18
8497.84108 3.19986e-18
8498.85572 3.24907e-18
8499.86032 3.29829e-18
8500.86492 3.34912e-18
8501.86952 3.39996e-18
8502.87412 3.47049e-18
8503.87872 3.54092e-18
8504.88332 3.47531e-18
8505.88792 3.40975e-18
8506.89252 3.39561e-18
8507.89712 3.38153e-18
8508.90172 3.43713e-18
8509.90632 3.49265e-18
8510.91092 3.47216e-18
8511.91552 3.45169e-18
8512.93017 3.44194e-18
8513.93477 3.43227e-18
8514.93937 3.51740e-18
8515.94397 3.60246e-18
8516.94857 3.60539e-18
8517.95317 3.60832e-18
8518.95777 3.61602e-18
8519.96237 3.62371e-18
8520.96697 3.62522e-18
8521.97157 3.62681e-18
8522.97617 3.71422e-18
8523.98077 3.80154e-18
8524.98537 3.79618e-18
8526.00002 3.79084e-18
8527.00462 3.79863e-18
8528.00922 3.80647e-18
8529.01382 3.86733e-18
8530.01842 3.92813e-18
8531.02302 3.91229e-18
8532.02762 3.89653e-18
8533.03222 3.96701e-18
8534.03682 4.03742e-18
8535.04142 4.02443e-18
8536.04602 4.01146e-18
8537.05062 4.02220e-18
8538.05522 4.03295e-18
8539.05982 4.04668e-18
8540.06442 4.06042e-18
8541.07906 4.08860e-18
8542.08366 4.11676e-18
8543.08826 4.11981e-18
8544.09286 4.12298e-18
8545.09746 4.24988e-18
8546.10206 4.37672e-18
8547.10666 4.42163e-18
8548.11126 4.46648e-18
8549.11586 4.43939e-18
8550.12046 4.41238e-18
8551.12506 4.47055e-18
8552.12966 4.52868e-18
8553.13426 4.53159e-18
8554.13886 4.53455e-18
8555.15351 4.57571e-18
8556.15811 4.61688e-18
8557.16271 4.65805e-18
8558.16731 4.69921e-18
8559.17191 4.74038e-18
8560.17651 4.78154e-18
8561.18111 4.82271e-18
8562.18571 4.86376e-18
8563.19031 4.77924e-18
8564.19491 4.69487e-18
8565.19951 4.78371e-18
8566.20411 4.87243e-18
8567.21875 4.82820e-18
8568.22335 4.78402e-18
8569.22795 4.79663e-18
8570.23255 4.80936e-18
8571.23715 4.95414e-18
8572.24175 5.09874e-18
8573.24635 5.03938e-18
8574.25095 4.98013e-18
8575.25555 5.04291e-18
8576.26015 5.10566e-18
8577.26475 5.13050e-18
8578.26935 5.15530e-18
8579.27395 5.14783e-18
8580.27855 5.14043e-18
8581.29320 5.20874e-18
8582.29780 5.27701e-18
8583.30240 5.29433e-18
8584.30700 5.31160e-18
8585.31160 5.28592e-18
8586.31620 5.26034e-18
8587.32080 5.34760e-18
8588.32540 5.43484e-18
8589.33000 5.50505e-18
8590.33460 5.57519e-18
8591.33920 5.56513e-18
8592.34380 5.55510e-18
8593.34840 5.57868e-18
8594.35300 5.60220e-18
8595.35760 5.56142e-18
8596.37225 5.52073e-18
8597.37685 5.57979e-18
8598.38145 5.63882e-18
8599.38605 5.66083e-18
8600.39065 5.68281e-18
8601.39525 5.67759e-18
8602.39985 5.67235e-18
8603.40445 5.64485e-18
8604.40905 5.61744e-18
8605.41365 5.69448e-18
8606.41825 5.77147e-18
8607.42285 5.79568e-18
8608.42745 5.81996e-18
8609.44209 5.91582e-18
8610.44669 6.01158e-18
8611.45129 5.99659e-18
8612.45589 5.98160e-18
8613.46049 5.98033e-18
8614.46509 5.97903e-18
8615.46969 5.93868e-18
8616.47429 5.89841e-18
8617.47889 5.94168e-18
8618.48349 5.98506e-18
8619.48809 6.16713e-18
8620.49269 6.34898e-18
8621.49729 6.29695e-18
8622.50189 6.24494e-18
8623.51654 6.21941e-18
8624.52114 6.19395e-18
8625.52574 6.23898e-18
8626.53034 6.28398e-18
8627.53494 6.29725e-18
8628.53954 6.31054e-18
8629.54414 6.35153e-18
8630.54874 6.39251e-18
8631.55334 6.41936e-18
8632.55794 6.44625e-18
8633.56254 6.51347e-18
8634.56714 6.58069e-18
8635.57174 6.63497e-18
8636.58638 6.68911e-18
8637.59098 6.57562e-18
8638.59558 6.46223e-18
8639.60018 6.45024e-18
8640.60478 6.43835e-18
8641.60938 6.53310e-18
8642.61398 6.62785e-18
8643.61858 6.71526e-18
8644.62318 6.80256e-18
8645.62778 6.77982e-18
8646.63238 6.75714e-18
8647.63698 6.79640e-18
8648.64158 6.83559e-18
8649.64618 6.80381e-18
8650.66083 6.77207e-18
8651.66543 6.78991e-18
8652.67003 6.80780e-18
8653.67463 6.88409e-18
8654.67923 6.96024e-18
8655.68383 6.88835e-18
8656.68843 6.81658e-18
8657.69303 6.87922e-18
8658.69763 6.94172e-18
8659.70223 6.85171e-18
8660.70683 6.76179e-18
8661.71143 6.76222e-18
8662.71603 6.76272e-18
8663.72063 6.84085e-18
8664.73528 6.91888e-18
8665.73988 6.89998e-18
8666.74448 6.88110e-18
8667.74908 6.88647e-18
8668.75368 6.89185e-18
8669.75828 6.89089e-18
8670.76288 6.88989e-18
8671.76748 6.83667e-18
8672.77208 6.78349e-18
8673.77668 6.77958e-18
8674.78128 6.77570e-18
8675.78588 6.78831e-18
8676.79048 6.80090e-18
8677.80512 6.80362e-18
8678.80972 6.80632e-18
8679.81432 6.79233e-18
8680.81892 6.77832e-18
8681.82352 6.73501e-18
8682.82812 6.69170e-18
8683.83272 6.63790e-18
8684.83732 6.58423e-18
8685.84192 6.66945e-18
8686.84652 6.75461e-18
8687.85112 6.78087e-18
8688.85572 6.80711e-18
8689.86032 6.81722e-18
8690.87497 6.82730e-18
8691.87957 6.80166e-18
8692.88417 6.77606e-18
8693.88877 6.78164e-18
8694.89337 6.78728e-18
8695.89797 6.86383e-18
8696.90257 6.94031e-18
8697.90717 6.94577e-18
8698.91177 6.95118e-18
8699.91637 6.89894e-18
8700.92097 6.84670e-18
8701.92557 6.78806e-18
8702.93017 6.72943e-18
8703.93477 6.69234e-18
8704.93937 6.65524e-18
8705.94397 6.62072e-18
8706.95861 6.58629e-18
8707.96321 6.64785e-18
8708.96781 6.70939e-18
8709.97241 6.73928e-18
8710.97701 6.76908e-18
8711.98161 6.69747e-18
8712.98621 6.62602e-18
8713.99081 6.72105e-18
8714.99541 6.81593e-18
8716.00001 6.74814e-18
8717.00461 6.68045e-18
8718.00921 6.71285e-18
8719.02386 6.74528e-18
8720.02846 6.80073e-18
8721.03306 6.85600e-18
8722.03766 6.72836e-18
8723.04226 6.60075e-18
8724.04686 6.49216e-18
8725.05146 6.38380e-18
8726.05606 6.51495e-18
8727.06066 6.64594e-18
8728.06526 6.60251e-18
8729.06986 6.55911e-18
8730.07446 6.53308e-18
8731.07906 6.50708e-18
8732.08366 6.49610e-18
8733.09831 6.48514e-18
8734.10291 6.50305e-18
8735.10751 6.52095e-18
8736.11211 6.54467e-18
8737.11671 6.56834e-18
8738.12131 6.54243e-18
8739.12591 6.51658e-18
8740.13051 6.54390e-18
8741.13511 6.57123e-18
8742.13971 6.60595e-18
8743.14431 6.64058e-18
8744.14891 6.57196e-18
8745.15351 6.50338e-18
8746.15811 6.48511e-18
8747.17275 6.46686e-18
8748.17735 6.46386e-18
8749.18195 6.46083e-18
8750.18655 6.42258e-18
8751.19115 6.38440e-18
8752.19575 6.41984e-18
8753.20035 6.45528e-18
8754.20495 6.48724e-18
8755.20955 6.51923e-18
8756.21415 6.57756e-18
8757.21875 6.63585e-18
8758.22335 6.64947e-18
8759.22795 6.66304e-18
8760.23255 6.61878e-18
8761.24720 6.57452e-18
8762.25180 6.52784e-18
8763.25640 6.48109e-18
8764.26100 6.36500e-18
8765.26560 6.24903e-18
8766.27020 6.24657e-18
8767.27480 6.24415e-18
8768.27940 6.28653e-18
8769.28400 6.32877e-18
8770.28860 6.22195e-18
8771.29320 6.11531e-18
8772.29780 6.19633e-18
8773.30240 6.27722e-18
8774.30700 6.21766e-18
8775.32164 6.15816e-18
8776.32624 6.15633e-18
8777.33084 6.15451e-18
8778.33544 6.16053e-18
8779.34004 6.16658e-18
8780.34464 6.20825e-18
8781.34924 6.24977e-18
8782.35384 6.13202e-18
8783.35844 6.01429e-18
8784.36304 5.91145e-18
8785.36764 5.80882e-18
8786.37224 5.90789e-18
8787.37684 6.00675e-18
8788.39149 5.87795e-18
8789.39609 5.74928e-18
8790.40069 5.74791e-18
8791.40529 5.74664e-18
8792.40989 5.84039e-18
8793.41449 5.93403e-18
8794.41909 5.92676e-18
8795.42369 5.91946e-18
8796.42829 5.89069e-18
8797.43289 5.86180e-18
8798.43749 5.70964e-18
8799.44209 5.55774e-18
8800.44669 5.66394e-18
8801.46134 5.77006e-18
8802.46594 5.79545e-18
8803.47054 5.82081e-18
8804.47514 5.82200e-18
8805.47974 5.82317e-18
8806.48434 5.80840e-18
8807.48894 5.79373e-18
8808.49354 5.89174e-18
8809.49814 5.98964e-18
8810.50274 5.96808e-18
8811.50734 5.94644e-18
8812.51194 5.83836e-18
8813.51654 5.73040e-18
8814.52114 5.73647e-18
8815.53578 5.74250e-18
8816.54038 5.70361e-18
8817.54498 5.66471e-18
8818.54958 5.62585e-18
8819.55418 5.58709e-18
8820.55878 5.65661e-18
8821.56338 5.72608e-18
8822.56798 5.75398e-18
8823.57258 5.78176e-18
8824.57718 5.69694e-18
8825.58178 5.61206e-18
8826.58638 5.47208e-18
8827.59098 5.33222e-18
8828.59558 5.31307e-18
8829.61023 5.29402e-18
8830.61483 5.37734e-18
8831.61943 5.46059e-18
8832.62403 5.48407e-18
8833.62863 5.50751e-18
8834.63323 5.49445e-18
8835.63783 5.48137e-18
8836.64243 5.45820e-18
8837.64703 5.43503e-18
8838.65163 5.41166e-18
8839.65623 5.38834e-18
8840.66083 5.41892e-18
8841.66543 5.44949e-18
8842.67003 5.46547e-18
8843.68467 5.48137e-18
8844.68927 5.40978e-18
8845.69387 5.33831e-18
8846.69847 5.38376e-18
8847.70307 5.42914e-18
8848.70767 5.39719e-18
8849.71227 5.36523e-18
8850.71687 5.31729e-18
8851.72147 5.26937e-18
8852.72607 5.24655e-18
8853.73067 5.22377e-18
8854.73527 5.24844e-18
8855.73987 5.27303e-18
8856.74447 5.21602e-18
8857.75912 5.15906e-18
8858.76372 5.14374e-18
8859.76832 5.12850e-18
8860.77292 5.18367e-18
8861.77752 5.23881e-18
8862.78212 5.26470e-18
8863.78672 5.29058e-18
8864.79132 5.32381e-18
8865.79592 5.35694e-18
8866.80052 5.29559e-18
8867.80512 5.23432e-18
8868.80972 5.24232e-18
8869.81432 5.25023e-18
8870.82897 5.17208e-18
8871.83357 5.09399e-18
8872.83817 5.06889e-18
8873.84277 5.04388e-18
8874.84737 5.10619e-18
8875.85197 5.16843e-18
8876.85657 5.16388e-18
8877.86117 5.15926e-18
8878.86577 5.09134e-18
8879.87037 5.02343e-18
8880.87497 4.97556e-18
8881.87957 4.92778e-18
8882.88417 4.97130e-18
8883.88877 5.01486e-18
8884.89337 5.09621e-18
8885.90801 5.17749e-18
8886.91261 5.18986e-18
8887.91721 5.20206e-18
8888.92181 5.04015e-18
8889.92641 4.87846e-18
8890.93101 4.91844e-18
8891.93561 4.95845e-18
8892.94021 5.02395e-18
8893.94481 5.08933e-18
8894.94941 5.04178e-18
8895.95401 4.99427e-18
8896.95861 4.98314e-18
8897.96321 4.97202e-18
8898.97786 4.95374e-18
8899.98246 4.93554e-18
8900.98706 4.99630e-18
8901.99166 5.05694e-18
8902.99626 4.99383e-18
8904.00086 4.93090e-18
8905.00546 5.04399e-18
8906.01006 5.15690e-18
8907.01466 5.10079e-18
8908.01926 5.04469e-18
8909.02386 5.00066e-18
8910.02846 4.95679e-18
8911.03306 5.06806e-18
8912.04770 5.17913e-18
8913.05230 5.10038e-18
8914.05690 5.02168e-18
8915.06150 4.97830e-18
8916.06610 4.93504e-18
8917.07070 5.00763e-18
8918.07530 5.08012e-18
8919.07990 5.06347e-18
8920.08450 5.04676e-18
8921.08910 4.96407e-18
8922.09370 4.88159e-18
8923.09830 4.99286e-18
8924.10290 5.10390e-18
8925.11755 5.00531e-18
8926.12215 4.90680e-18
8927.12675 4.87878e-18
8928.13135 4.85072e-18
8929.13595 4.77738e-18
8930.14055 4.70418e-18
8931.14515 4.76662e-18
8932.14975 4.82890e-18
8933.15435 4.73064e-18
8934.15895 4.63249e-18
8935.16355 4.63674e-18
8936.16815 4.64099e-18
8937.17275 4.63425e-18
8938.17735 4.62749e-18
8939.18195 4.58933e-18
8940.19660 4.55133e-18
8941.20120 4.66561e-18
8942.20580 4.77971e-18
8943.21040 4.72324e-18
8944.21500 4.66681e-18
8945.21960 4.63683e-18
8946.22420 4.60685e-18
8947.22880 4.57735e-18
8948.23340 4.54787e-18
8949.23800 4.55219e-18
8950.24260 4.55652e-18
8951.24720 4.57921e-18
8952.25180 4.60192e-18
8953.26644 4.63150e-18
8954.27104 4.66094e-18
8955.27564 4.55317e-18
8956.28024 4.44552e-18
8957.28484 4.45190e-18
8958.28944 4.45834e-18
8959.29404 4.51754e-18
8960.29864 4.57664e-18
8961.30324 4.52949e-18
8962.30784 4.48239e-18
8963.31244 4.47254e-18
8964.31704 4.46267e-18
8965.32164 4.42869e-18
8966.32624 4.39479e-18
8967.34089 4.44507e-18
8968.34549 4.49534e-18
8969.35009 4.53234e-18
8970.35469 4.56927e-18
8971.35929 4.54919e-18
8972.36389 4.52908e-18
8973.36849 4.48115e-18
8974.37309 4.43331e-18
8975.37769 4.47820e-18
8976.38229 4.52306e-18
8977.38689 4.54550e-18
8978.39149 4.56793e-18
8979.39609 4.57065e-18
8980.40069 4.57331e-18
8981.41533 4.51646e-18
8982.41993 4.45970e-18
8983.42453 4.47738e-18
8984.42913 4.49502e-18
8985.43373 4.46991e-18
8986.43833 4.44473e-18
8987.44293 4.34700e-18
8988.44753 4.24947e-18
8989.45213 4.33908e-18
8990.45673 4.42856e-18
8991.46133 4.40378e-18
8992.46593 4.37898e-18
8993.47053 4.34555e-18
8994.47513 4.31222e-18
8995.48978 4.36567e-18
8996.49438 4.41909e-18
8997.49898 4.44141e-18
8998.50358 4.46370e-18
8999.50818 4.46404e-18
9000.51278 4.46438e-18
9001.51738 4.47402e-18
9002.52198 4.48368e-18
9003.52658 4.51971e-18
9004.53118 4.55561e-18
9005.53578 4.47288e-18
9006.54038 4.39020e-18
9007.54498 4.35576e-18
9008.54958 4.32141e-18
9009.56423 4.36753e-18
9010.56883 4.41362e-18
9011.57343 4.42780e-18
9012.57803 4.44188e-18
9013.58263 4.36684e-18
9014.58723 4.29193e-18
9015.59183 4.33946e-18
9016.59643 4.38692e-18
9017.60103 4.37898e-18
9018.60563 4.37108e-18
9019.61023 4.40120e-18
9020.61483 4.43133e-18
9021.61943 4.46848e-18
9022.63407 4.50552e-18
9023.63867 4.43753e-18
9024.64327 4.36965e-18
9025.64787 4.38974e-18
9026.65247 4.40986e-18
9027.65707 4.46085e-18
9028.66167 4.51180e-18
9029.66627 4.53480e-18
9030.67087 4.55778e-18
9031.67547 4.56929e-18
9032.68007 4.58072e-18
9033.68467 4.51943e-18
9034.68927 4.45828e-18
9035.70392 4.52781e-18
9036.70852 4.59726e-18
9037.71312 4.59500e-18
9038.71772 4.59267e-18
9039.72232 4.52799e-18
9040.72692 4.46338e-18
9041.73152 4.46432e-18
9042.73612 4.46532e-18
9043.74072 4.51890e-18
9044.74532 4.57246e-18
9045.74992 4.60192e-18
9046.75452 4.63122e-18
9047.75912 4.52721e-18
9048.76372 4.42331e-18
9049.76832 4.43177e-18
9050.78296 4.44023e-18
9051.78756 4.44489e-18
9052.79216 4.44955e-18
9053.79676 4.44817e-18
9054.80136 4.44687e-18
9055.80596 4.51073e-18
9056.81056 4.57448e-18
9057.81516 4.54392e-18
9058.81976 4.51338e-18
9059.82436 4.50056e-18
9060.82896 4.48774e-18
9061.83356 4.47745e-18
9062.83816 4.46714e-18
9063.85281 4.44081e-18
9064.85741 4.41458e-18
9065.86201 4.48097e-18
9066.86661 4.54723e-18
9067.87121 4.49286e-18
9068.87581 4.43857e-18
9069.88041 4.45390e-18
9070.88501 4.46928e-18
9071.88961 4.53356e-18
9072.89421 4.59772e-18
9073.89881 4.54315e-18
9074.90341 4.48869e-18
9075.90801 4.52618e-18
9076.91261 4.56361e-18
9077.92726 4.54247e-18
9078.93186 4.52140e-18
9079.93646 4.57204e-18
9080.94106 4.62252e-18
9081.94566 4.52836e-18
9082.95026 4.43431e-18
9083.95486 4.43191e-18
9084.95946 4.42961e-18
9085.96406 4.51229e-18
9086.96866 4.59486e-18
9087.97326 4.58220e-18
9088.97786 4.56955e-18
9089.98246 4.55638e-18
9090.98706 4.54319e-18
9092.00170 4.56481e-18
9093.00630 4.58642e-18
9094.01090 4.60772e-18
9095.01550 4.62897e-18
9096.02010 4.61517e-18
9097.02470 4.60140e-18
9098.02930 4.61466e-18
9099.03390 4.62779e-18
9100.03850 4.51304e-18
9101.04310 4.39845e-18
9102.04770 4.43306e-18
9103.05230 4.46766e-18
9104.06695 4.50119e-18
9105.07155 4.53463e-18
9106.07615 4.48680e-18
9107.08075 4.43904e-18
9108.08535 4.44860e-18
9109.08995 4.45815e-18
9110.09455 4.45195e-18
9111.09915 4.44580e-18
9112.10375 4.48347e-18
9113.10835 4.52108e-18
9114.11295 4.51205e-18
9115.11755 4.50294e-18
9116.12215 4.42979e-18
9117.12675 4.35672e-18
9118.13135 4.34476e-18
9119.13595 4.33280e-18
9120.15059 4.32419e-18
9121.15519 4.31571e-18
9122.15979 4.42788e-18
9123.16439 4.53990e-18
9124.16899 4.52003e-18
9125.17359 4.50012e-18
9126.17819 4.44630e-18
9127.18279 4.39255e-18
9128.18739 4.40076e-18
9129.19199 4.40899e-18
9130.19659 4.43689e-18
9131.20119 4.46476e-18
9132.20579 4.47058e-18
9133.22044 4.47637e-18
9134.22504 4.44918e-18
9135.22964 4.42206e-18
9136.23424 4.45332e-18
9137.23884 4.48443e-18
9138.24344 4.38146e-18
9139.24804 4.27871e-18
9140.25264 4.36631e-18
9141.25724 4.45381e-18
9142.26184 4.45495e-18
9143.26644 4.45611e-18
9144.27104 4.47041e-18
9145.27564 4.48471e-18
9146.29029 4.50078e-18
9147.29489 4.51678e-18
9148.29949 4.47608e-18
9149.30409 4.43548e-18
9150.30869 4.48059e-18
9151.31329 4.52554e-18
9152.31789 4.43593e-18
9153.32249 4.34641e-18
9154.32709 4.33555e-18
9155.33169 4.32476e-18
9156.33629 4.36117e-18
9157.34089 4.39756e-18
9158.34549 4.41913e-18
9159.35009 4.44068e-18
9160.36473 4.43460e-18
9161.36933 4.42848e-18
9162.37393 4.38508e-18
9163.37853 4.34174e-18
9164.38313 4.34620e-18
9165.38773 4.35067e-18
9166.39233 4.36061e-18
9167.39693 4.37044e-18
9168.40153 4.27901e-18
9169.40613 4.18772e-18
9170.41073 4.22203e-18
9171.41533 4.25627e-18
9172.41993 4.23431e-18
9173.42453 4.21242e-18
9174.43918 4.25189e-18
9175.44378 4.29131e-18
9176.44838 4.29071e-18
9177.45298 4.29012e-18
9178.45758 4.29403e-18
9179.46218 4.29797e-18
9180.46678 4.31712e-18
9181.47138 4.33628e-18
9182.47598 4.36254e-18
9183.48058 4.38873e-18
9184.48518 4.35218e-18
9185.48978 4.31567e-18
9186.49438 4.32287e-18
9187.50902 4.33011e-18
9188.51362 4.37263e-18
9189.51822 4.41506e-18
9190.52282 4.38977e-18
9191.52742 4.36449e-18
9192.53202 4.34057e-18
9193.53662 4.31666e-18
9194.54122 4.30725e-18
9195.54582 4.29782e-18
9196.55042 4.27304e-18
9197.55502 4.24828e-18
9198.55962 4.24143e-18
9199.56422 4.23466e-18
9200.56882 4.29152e-18
9201.58347 4.34831e-18
9202.58807 4.34206e-18
9203.59267 4.33585e-18
9204.59727 4.36627e-18
9205.60187 4.39662e-18
9206.60647 4.36677e-18
9207.61107 4.33701e-18
9208.61567 4.37587e-18
9209.62027 4.41473e-18
9210.62487 4.44004e-18
9211.62947 4.46531e-18
9212.63407 4.45056e-18
9213.63867 4.43575e-18
9214.65332 4.37728e-18
9215.65792 4.31890e-18
9216.66252 4.33707e-18
9217.66712 4.35517e-18
9218.67172 4.31910e-18
9219.67632 4.28314e-18
9220.68092 4.34428e-18
9221.68552 4.40539e-18
9222.69012 4.43690e-18
9223.69472 4.46839e-18
9224.69932 4.47535e-18
9225.70392 4.48233e-18
9226.70852 4.49815e-18
9227.71312 4.51390e-18
9228.71772 4.47255e-18
9229.73236 4.43118e-18
9230.73696 4.36930e-18
9231.74156 4.30751e-18
9232.74616 4.31678e-18
9233.75076 4.32606e-18
9234.75536 4.33953e-18
9235.75996 4.35297e-18
9236.76456 4.34702e-18
9237.76916 4.34112e-18
9238.77376 4.37386e-18
9239.77836 4.40654e-18
9240.78296 4.38945e-18
9241.78756 4.37240e-18
9242.79216 4.38419e-18
9243.80681 4.39597e-18
9244.81141 4.39879e-18
9245.81601 4.40158e-18
9246.82061 4.38280e-18
9247.82521 4.36408e-18
9248.82981 4.39066e-18
9249.83441 4.41723e-18
9250.83901 4.43600e-18
9251.84361 4.45477e-18
9252.84821 4.48065e-18
9253.85281 4.50645e-18
9254.85741 4.46521e-18
9255.87205 4.42401e-18
9256.87665 4.42387e-18
9257.88125 4.42371e-18
9258.88585 4.40014e-18
9259.89045 4.37660e-18
9260.89505 4.37895e-18
9261.89965 4.38125e-18
9262.90425 4.33134e-18
9263.90885 4.28157e-18
9264.91345 4.34450e-18
9265.91805 4.40738e-18
9266.92265 4.42741e-18
9267.92725 4.44736e-18
9268.93185 4.40544e-18
9269.94650 4.36353e-18
9270.95110 4.33207e-18
9271.95570 4.30068e-18
9272.96030 4.32738e-18
9273.96490 4.35401e-18
9274.96950 4.31449e-18
9275.97410 4.27496e-18
9276.97870 4.22413e-18
9277.98330 4.17336e-18
9278.98790 4.17702e-18
9279.99250 4.18071e-18
9280.99710 4.22336e-18
9282.00170 4.26589e-18
9283.00630 4.21362e-18
9284.01090 4.16145e-18
9285.02555 4.19845e-18
9286.03015 4.23536e-18
9287.03475 4.20194e-18
9288.03935 4.16853e-18
9289.04395 4.14896e-18
9290.04855 4.12941e-18
9291.05315 4.12373e-18
9292.05775 4.11799e-18
9293.06235 4.05446e-18
9294.06695 3.99108e-18
9295.07155 4.05120e-18
9296.07615 4.11124e-18
9297.08075 4.10771e-18
9298.09539 4.10414e-18
9299.09999 4.06535e-18
9300.10459 4.02666e-18
9301.10919 4.07529e-18
9302.11379 4.12385e-18
9303.11839 4.11895e-18
9304.12299 4.11407e-18
9305.12759 4.12831e-18
9306.13219 4.14252e-18
9307.13679 4.12813e-18
9308.14139 4.11346e-18
9309.14599 3.86859e-18
9310.15059 3.62419e-18
9311.15519 3.75317e-18
9312.16984 3.88203e-18
9313.17444 3.91100e-18
9314.17904 3.93981e-18
9315.18364 3.84386e-18
9316.18824 3.74798e-18
9317.19284 3.70978e-18
9318.19744 3.67157e-18
9319.20204 3.63070e-18
9320.20664 3.58987e-18
9321.21124 3.58563e-18
9322.21584 3.58145e-18
9323.22044 3.62657e-18
9324.22504 3.67158e-18
9325.22964 3.62108e-18
9326.24428 3.57070e-18
9327.24888 3.61442e-18
9328.25348 3.65805e-18
9329.25808 3.63604e-18
9330.26268 3.61406e-18
9331.26728 3.62067e-18
9332.27188 3.62722e-18
9333.27648 3.58718e-18
9334.28108 3.54719e-18
9335.28568 3.53859e-18
9336.29028 3.53008e-18
9337.29488 3.59530e-18
9338.29948 3.66032e-18
9339.30408 3.56134e-18
9340.31873 3.46247e-18
9341.32333 3.44865e-18
9342.32793 3.43478e-18
9343.33253 3.37686e-18
9344.33713 3.31910e-18
9345.34173 3.38872e-18
9346.34633 3.45839e-18
9347.35093 3.57505e-18
9348.35553 3.69151e-18
9349.36013 3.65359e-18
9350.36473 3.61573e-18
9351.36933 3.63338e-18
9352.37393 3.65086e-18
9353.37853 3.53459e-18
9354.39318 3.41840e-18
9355.39778 3.35736e-18
9356.40238 3.29644e-18
9357.40698 3.33164e-18
9358.41158 3.36681e-18
9359.41618 3.38452e-18
9360.42078 3.40230e-18
9361.42538 3.48753e-18
9362.42998 3.57265e-18
9363.43458 3.57406e-18
9364.43918 3.57524e-18
9365.44378 3.39595e-18
9366.45842 3.21679e-18
9367.46302 3.13570e-18
9368.46762 3.05473e-18
9369.47222 3.06184e-18
9370.47682 3.06895e-18
9371.48142 3.06434e-18
9372.48602 3.05977e-18
9373.49062 3.08373e-18
9374.49522 3.10781e-18
9375.49982 3.23271e-18
9376.50442 3.35740e-18
9377.50902 3.30803e-18
9378.51362 3.25865e-18
9379.51822 3.19215e-18
9380.53287 3.12574e-18
9381.53747 3.11896e-18
9382.54207 3.11230e-18
9383.54667 3.19898e-18
9384.55127 3.28562e-18
9385.55587 3.33645e-18
9386.56047 3.38720e-18
9387.56507 3.37955e-18
9388.56967 3.37183e-18
9389.57427 3.31629e-18
9390.57887 3.26084e-18
9391.58347 3.27745e-18
9392.58807 3.29408e-18
9393.59267 3.32647e-18
9394.59727 3.35880e-18
9395.61191 3.33309e-18
9396.61651 3.30746e-18
9397.62111 3.34229e-18
9398.62571 3.37708e-18
9399.63031 3.37356e-18
9400.63491 3.37004e-18
9401.63951 3.36761e-18
9402.64411 3.36517e-18
9403.64871 3.35891e-18
9404.65331 3.35261e-18
9405.65791 3.30990e-18
9406.66251 3.26724e-18
9407.66711 3.26786e-18
9408.68176 3.26850e-18
9409.68636 3.28568e-18
9410.69096 3.30283e-18
9411.69556 3.29998e-18
9412.70016 3.29716e-18
9413.70476 3.31326e-18
9414.70936 3.32932e-18
9415.71396 3.31636e-18
9416.71856 3.30336e-18
9417.72316 3.26174e-18
9418.72776 3.22021e-18
9419.73236 3.24999e-18
9420.73696 3.27967e-18
9421.75161 3.22961e-18
9422.75621 3.17943e-18
9423.76081 3.02679e-18
9424.76541 2.87441e-18
9425.77001 2.91795e-18
9426.77461 2.96146e-18
9427.77921 2.98285e-18
9428.78381 3.00412e-18
9429.78841 2.94072e-18
9430.79301 2.87749e-18
9431.79761 2.94710e-18
9432.80221 3.01667e-18
9433.80681 3.04718e-18
9434.81141 3.07759e-18
9435.82605 3.02400e-18
9436.83065 2.97031e-18
9437.83525 2.83542e-18
9438.83985 2.70063e-18
9439.84445 2.64505e-18
9440.84905 2.58949e-18
9441.85365 2.55032e-18
9442.85825 2.51136e-18
9443.86285 2.63630e-18
9444.86745 2.76113e-18
9445.87205 2.80330e-18
9446.87665 2.84535e-18
9447.88125 2.80516e-18
9448.88585 2.76500e-18
9449.90050 2.75839e-18
9450.90510 2.75174e-18
9451.90970 2.72392e-18
9452.91430 2.69606e-18
9453.91890 2.62911e-18
9454.92350 2.56237e-18
9455.92810 2.65237e-18
9456.93270 2.74217e-18
9457.93730 2.68634e-18
9458.94190 2.63049e-18
9459.94650 2.55916e-18
9460.95110 2.48796e-18
9461.95570 2.51818e-18
9462.96030 2.54847e-18
9463.97494 2.63647e-18
9464.97954 2.72427e-18
9465.98414 2.65299e-18
9466.98874 2.58179e-18
9467.99334 2.56444e-18
9468.99794 2.54713e-18
9470.00254 2.56364e-18
9471.00714 2.57993e-18
9472.01174 2.42610e-18
9473.01634 2.27252e-18
9474.02094 2.30690e-18
9475.02554 2.34130e-18
9476.03014 2.38490e-18
9477.04479 2.42838e-18
9478.04939 2.37781e-18
9479.05399 2.32731e-18
9480.05859 2.32818e-18
9481.06319 2.32902e-18
9482.06779 2.31434e-18
9483.07239 2.29969e-18
9484.07699 2.31045e-18
9485.08159 2.32128e-18
9486.08619 2.38229e-18
9487.09079 2.44326e-18
9488.09539 2.46691e-18
9489.09999 2.49048e-18
9490.11464 2.45497e-18
9491.11924 2.41947e-18
9492.12384 2.40194e-18
9493.12844 2.38437e-18
9494.13304 2.33186e-18
9495.13764 2.27943e-18
9496.14224 2.28634e-18
9497.14684 2.29320e-18
9498.15144 2.25153e-18
9499.15604 2.20999e-18
9500.16064 2.26316e-18
9501.16524 2.31629e-18
9502.16984 2.34338e-18
9503.17444 2.37043e-18
9504.18908 2.36272e-18
9505.19368 2.35507e-18
9506.19828 2.39837e-18
9507.20288 2.44174e-18
9508.20748 2.53250e-18
9509.21208 2.62308e-18
9510.21668 2.57302e-18
9511.22128 2.52296e-18
9512.22588 2.47437e-18
9513.23048 2.42576e-18
9514.23508 2.36158e-18
9515.23968 2.29750e-18
9516.24428 2.31242e-18
9517.24888 2.32735e-18
9518.26353 2.34407e-18
9519.26813 2.36077e-18
9520.27273 2.35189e-18
9521.27733 2.34294e-18
9522.28193 2.28325e-18
9523.28653 2.22364e-18
9524.29113 2.22741e-18
9525.29573 2.23123e-18
9526.30033 2.27169e-18
9527.30493 2.31219e-18
9528.30953 2.37619e-18
9529.31413 2.44001e-18
9530.31873 2.36115e-18
9531.32333 2.28239e-18
9532.33797 2.27881e-18
9533.34257 2.27519e-18
9534.34717 2.23935e-18
9535.35177 2.20355e-18
9536.35637 2.20492e-18
9537.36097 2.20627e-18
9538.36557 2.19718e-18
9539.37017 2.18809e-18
9540.37477 2.17428e-18
9541.37937 2.16050e-18
9542.38397 2.17340e-18
9543.38857 2.18635e-18
9544.39317 2.23573e-18
9545.39777 2.28510e-18
9546.41242 2.32187e-18
9547.41702 2.35854e-18
9548.42162 2.32333e-18
9549.42622 2.28826e-18
9550.43082 2.36697e-18
9551.43542 2.44545e-18
9552.44002 2.34948e-18
9553.44462 2.25363e-18
9554.44922 2.24610e-18
9555.45382 2.23862e-18
9556.45842 2.26748e-18
9557.46302 2.29636e-18
9558.46762 2.33507e-18
9559.48227 2.37374e-18
9560.48687 2.37589e-18
9561.49147 2.37802e-18
9562.49607 2.36700e-18
9563.50067 2.35597e-18
9564.50527 2.34089e-18
9565.50987 2.32587e-18
9566.51447 2.35653e-18
9567.51907 2.38714e-18
9568.52367 2.37514e-18
9569.52827 2.36321e-18
9570.53287 2.41231e-18
9571.53747 2.46139e-18
9572.54207 2.49207e-18
9573.54667 2.52272e-18
9574.56131 2.52618e-18
9575.56591 2.52965e-18
9576.57051 2.54588e-18
9577.57511 2.56200e-18
9578.57971 2.49832e-18
9579.58431 2.43475e-18
9580.58891 2.44836e-18
9581.59351 2.46192e-18
9582.59811 2.42870e-18
9583.60271 2.39553e-18
9584.60731 2.39318e-18
9585.61191 2.39084e-18
9586.61651 2.39901e-18
9587.62111 2.40715e-18
9588.63576 2.39213e-18
9589.64036 2.37707e-18
9590.64496 2.33057e-18
9591.64956 2.28416e-18
9592.65416 2.31129e-18
9593.65876 2.33843e-18
9594.66336 2.37400e-18
9595.66796 2.40948e-18
9596.67256 2.38481e-18
9597.67716 2.36023e-18
9598.68176 2.39766e-18
9599.68636 2.43507e-18
9600.70100 2.46027e-18
9601.70560 2.48546e-18
9602.71020 2.50495e-18
9603.71480 2.52435e-18
9604.71940 2.47534e-18
9605.72400 2.42641e-18
9606.72860 2.43124e-18
9607.73320 2.43624e-18
9608.73780 2.57204e-18
9609.74240 2.70758e-18
9610.74700 2.66138e-18
9611.75160 2.61519e-18
9612.75620 2.57026e-18
9613.76080 2.52537e-18
9614.77545 2.51541e-18
9615.78005 2.50551e-18
9616.78465 2.54589e-18
9617.78925 2.58620e-18
9618.79385 2.57451e-18
9619.79845 2.56274e-18
9620.80305 2.49742e-18
9621.80765 2.43226e-18
9622.81225 2.48763e-18
9623.81685 2.54294e-18
9624.82145 2.54727e-18
9625.82605 2.55159e-18
9626.83065 2.55497e-18
9627.83525 2.55830e-18
9628.84990 2.52702e-18
9629.85450 2.49580e-18
9630.85910 2.50468e-18
9631.86370 2.51352e-18
9632.86830 2.49088e-18
9633.87290 2.46823e-18
9634.87750 2.43837e-18
9635.88210 2.40859e-18
9636.88670 2.44091e-18
9637.89130 2.47327e-18
9638.89590 2.53947e-18
9639.90050 2.60560e-18
9640.90510 2.61837e-18
9641.90970 2.63110e-18
9642.92434 2.61439e-18
9643.92894 2.59761e-18
9644.93354 2.53039e-18
9645.93814 2.46329e-18
9646.94274 2.48907e-18
9647.94734 2.51482e-18
9648.95194 2.53030e-18
9649.95654 2.54575e-18
9650.96114 2.54385e-18
9651.96574 2.54197e-18
9652.97034 2.55866e-18
9653.97494 2.57528e-18
9654.97954 2.55166e-18
9655.98414 2.52814e-18
9656.99879 2.57426e-18
9658.00339 2.62030e-18
9659.00799 2.61552e-18
9660.01259 2.61065e-18
9661.01719 2.54147e-18
9662.02179 2.47240e-18
9663.02639 2.47418e-18
9664.03099 2.47596e-18
9665.03559 2.47702e-18
9666.04019 2.47803e-18
9667.04479 2.44522e-18
9668.04939 2.41243e-18
9669.05399 2.38508e-18
9670.06863 2.35788e-18
9671.07323 2.42649e-18
9672.07783 2.49506e-18
9673.08243 2.53548e-18
9674.08703 2.57585e-18
9675.09163 2.58226e-18
9676.09623 2.58862e-18
9677.10083 2.55598e-18
9678.10543 2.52343e-18
9679.11003 2.55369e-18
9680.11463 2.58390e-18
9681.11923 2.58002e-18
9682.12383 2.57612e-18
9683.12843 2.55269e-18
9684.14308 2.52936e-18
9685.14768 2.57557e-18
9686.15228 2.62176e-18
9687.15688 2.65279e-18
9688.16148 2.68372e-18
9689.16608 2.64979e-18
9690.17068 2.61584e-18
9691.17528 2.56634e-18
9692.17988 2.51705e-18
9693.18448 2.62200e-18
9694.18908 2.72670e-18
9695.19368 2.66089e-18
9696.19828 2.59509e-18
9697.20288 2.52839e-18
9698.21753 2.46188e-18
9699.22213 2.52648e-18
9700.22673 2.59097e-18
9701.23133 2.58059e-18
9702.23593 2.57018e-18
9703.24053 2.53650e-18
9704.24513 2.50285e-18
9705.24973 2.48794e-18
9706.25433 2.47312e-18
9707.25893 2.51453e-18
9708.26353 2.55579e-18
9709.26813 2.48765e-18
9710.27273 2.41965e-18
9711.28737 2.44998e-18
9712.29197 2.48026e-18
9713.29657 2.47375e-18
9714.30117 2.46741e-18
9715.30577 2.58732e-18
9716.31037 2.70697e-18
9717.31497 2.64431e-18
9718.31957 2.58181e-18
9719.32417 2.63322e-18
9720.32877 2.68469e-18
9721.33337 2.78277e-18
9722.33797 2.88063e-18
9723.34257 2.82297e-18
9724.35722 2.76532e-18
9725.36182 2.70666e-18
9726.36642 2.64804e-18
9727.37102 2.62047e-18
9728.37562 2.59303e-18
9729.38022 2.65440e-18
9730.38482 2.71572e-18
9731.38942 2.73632e-18
9732.39402 2.75675e-18
9733.39862 2.66193e-18
9734.40322 2.56715e-18
9735.40782 2.49741e-18
9736.41242 2.42791e-18
9737.41702 2.53120e-18
9738.42162 2.63449e-18
9739.43626 2.74384e-18
9740.44086 2.85293e-18
9741.44546 2.78618e-18
9742.45006 2.71957e-18
9743.45466 2.75155e-18
9744.45926 2.78339e-18
9745.46386 2.71591e-18
9746.46846 2.64858e-18
9747.47306 2.69197e-18
9748.47766 2.73523e-18
9749.48226 2.69164e-18
9750.48686 2.64821e-18
9751.49146 2.71837e-18
9752.50611 2.78849e-18
9753.51071 2.82745e-18
9754.51531 2.86630e-18
9755.51991 2.83154e-18
9756.52451 2.79687e-18
9757.52911 2.82677e-18
9758.53371 2.85661e-18
9759.53831 2.83486e-18
9760.54291 2.81320e-18
9761.54751 2.84257e-18
9762.55211 2.87195e-18
9763.55671 2.90593e-18
9764.56131 2.93986e-18
9765.56591 2.93939e-18
9766.58056 2.93902e-18
9767.58516 3.01695e-18
9768.58976 3.09477e-18
9769.59436 3.09702e-18
9770.59896 3.09925e-18
9771.60356 3.09172e-18
9772.60816 3.08416e-18
9773.61276 3.05467e-18
9774.61736 3.02523e-18
9775.62196 3.03400e-18
9776.62656 3.04279e-18
9777.63116 3.05670e-18
9778.63576 3.07070e-18
9779.64036 3.13737e-18
9780.65500 3.20402e-18
9781.65960 3.25766e-18
9782.66420 3.31126e-18
9783.66880 3.34253e-18
9784.67340 3.37361e-18
9785.67800 3.27693e-18
9786.68260 3.18045e-18
9787.68720 3.22119e-18
9788.69180 3.26194e-18
9789.69640 3.29826e-18
9790.70100 3.33459e-18
9791.70560 3.38005e-18
9792.72025 3.42529e-18
9793.72485 3.31792e-18
9794.72945 3.21075e-18
9795.73405 3.23645e-18
9796.73865 3.26218e-18
9797.74325 3.31042e-18
9798.74785 3.35855e-18
9799.75245 3.32980e-18
9800.75705 3.30120e-18
9801.76165 3.37084e-18
9802.76625 3.44039e-18
9803.77085 3.43848e-18
9804.77545 3.43664e-18
9805.78005 3.48339e-18
9806.78465 3.53002e-18
9807.78925 3.50398e-18
9808.80389 3.47801e-18
9809.80849 3.50112e-18
9810.81309 3.52428e-18
9811.81769 3.57487e-18
9812.82229 3.62528e-18
9813.82689 3.55051e-18
9814.83149 3.47585e-18
9815.83609 3.48152e-18
9816.84069 3.48709e-18
9817.84529 3.42355e-18
9818.84989 3.36025e-18
9819.85449 3.45442e-18
9820.85909 3.54842e-18
9821.87374 3.52796e-18
9822.87834 3.50752e-18
9823.88294 3.50190e-18
9824.88754 3.49645e-18
9825.89214 3.59945e-18
9826.89674 3.70238e-18
9827.90134 3.75428e-18
9828.90594 3.80599e-18
9829.91054 3.73113e-18
9830.91514 3.65631e-18
9831.91974 3.61062e-18
9832.92434 3.56512e-18
9833.92894 3.64536e-18
9834.94359 3.72551e-18
9835.94819 3.73865e-18
9836.95279 3.75183e-18
9837.95739 3.78520e-18
9838.96199 3.81852e-18
9839.96659 3.81491e-18
9840.97119 3.81129e-18
9841.97579 3.80492e-18
9842.98039 3.79864e-18
9843.98499 3.85923e-18
9844.98959 3.91962e-18
9845.99419 3.84332e-18
9846.99879 3.76720e-18
9848.00339 3.81322e-18
9849.01803 3.85913e-18
9850.02263 3.82650e-18
9851.02723 3.79398e-18
9852.03183 3.83756e-18
9853.03643 3.88100e-18
9854.04103 3.83832e-18
9855.04563 3.79560e-18
9856.05023 3.72976e-18
9857.05483 3.66404e-18
9858.05943 3.68516e-18
9859.06403 3.70630e-18
9860.06863 3.74001e-18
9861.07323 3.77366e-18
9862.07783 3.77069e-18
9863.09248 3.76777e-18
9864.09708 3.79313e-18
9865.10168 3.81842e-18
9866.10628 3.79303e-18
9867.11088 3.76762e-18
9868.11548 3.72815e-18
9869.12008 3.68881e-18
9870.12468 3.73237e-18
9871.12928 3.77586e-18
9872.13388 3.77423e-18
9873.13848 3.77260e-18
9874.14308 3.76835e-18
9875.14768 3.76418e-18
9876.15228 3.81222e-18
9877.16692 3.86017e-18
9878.17152 3.85380e-18
9879.17612 3.84736e-18
9880.18072 3.79973e-18
9881.18532 3.75221e-18
9882.18992 3.77884e-18
9883.19452 3.80544e-18
9884.19912 3.80914e-18
9885.20372 3.81284e-18
9886.20832 3.81162e-18
9887.21292 3.81042e-18
9888.21752 3.81960e-18
9889.22212 3.82877e-18
9890.22672 3.83305e-18
9891.24137 3.83722e-18
9892.24597 3.76635e-18
9893.25057 3.69550e-18
9894.25517 3.63806e-18
9895.25977 3.58067e-18
9896.26437 3.56087e-18
9897.26897 3.54121e-18
9898.27357 3.61074e-18
9899.27817 3.68009e-18
9900.28277 3.63652e-18
9901.28737 3.59290e-18
9902.29197 3.51769e-18
9903.29657 3.44265e-18
9904.31122 3.48304e-18
9905.31582 3.52342e-18
9906.32042 3.56014e-18
9907.32502 3.59680e-18
9908.32962 3.58662e-18
9909.33422 3.57626e-18
9910.33882 3.44736e-18
9911.34342 3.31866e-18
9912.34802 3.32496e-18
9913.35262 3.33131e-18
9914.35722 3.37869e-18
9915.36182 3.42589e-18
9916.36642 3.35793e-18
9917.37102 3.29031e-18
9918.37562 3.45285e-18
9919.39026 3.61505e-18
9920.39486 3.55708e-18
9921.39946 3.49893e-18
9922.40406 3.31826e-18
9923.40866 3.13793e-18
9924.41326 3.18400e-18
9925.41786 3.22988e-18
9926.42246 3.15516e-18
9927.42706 3.08065e-18
9928.43166 3.13711e-18
9929.43626 3.19345e-18
9930.44086 3.16841e-18
9931.44546 3.14332e-18
9932.46011 3.08094e-18
9933.46471 3.01851e-18
9934.46931 2.91853e-18
9935.47391 2.81880e-18
9936.47851 2.87473e-18
9937.48311 2.93072e-18
9938.48771 3.02176e-18
9939.49231 3.11262e-18
9940.49691 3.08523e-18
9941.50151 3.05782e-18
9942.50611 3.02265e-18
9943.51071 2.98736e-18
9944.52535 2.87129e-18
9945.52995 2.75559e-18
9946.53455 2.88278e-18
9947.53915 3.00976e-18
9948.54375 3.00795e-18
9949.54835 3.00599e-18
9950.55295 2.91070e-18
9951.55755 2.81565e-18
9952.56215 2.86789e-18
9953.56675 2.91992e-18
9954.57135 2.83474e-18
9955.57595 2.74970e-18
9956.58055 2.76172e-18
9957.58515 2.77366e-18
9958.59980 2.74423e-18
9959.60440 2.71479e-18
9960.60900 2.67638e-18
9961.61360 2.63801e-18
9962.61820 2.62284e-18
9963.62280 2.60773e-18
9964.62740 2.62770e-18
9965.63200 2.64769e-18
9966.63660 2.68287e-18
9967.64120 2.71794e-18
9968.64580 2.67632e-18
9969.65040 2.63483e-18
9970.65500 2.68351e-18
9971.65960 2.73223e-18
9972.66420 2.81363e-18
9973.67885 2.89482e-18
9974.68345 2.84503e-18
9975.68805 2.79524e-18
9976.69265 2.74427e-18
9977.69725 2.69335e-18
9978.70185 2.67073e-18
9979.70645 2.64806e-18
9980.71105 2.60151e-18
9981.71565 2.55521e-18
9982.72025 2.67520e-18
9983.72485 2.79487e-18
9984.72945 2.71646e-18
9985.73405 2.63819e-18
9986.74869 2.65777e-18
9987.75329 2.67730e-18
9988.75789 2.67268e-18
9989.76249 2.66800e-18
9990.76709 2.62525e-18
9991.77169 2.58260e-18
9992.77629 2.60009e-18
9993.78089 2.61749e-18
9994.78549 2.57444e-18
9995.79009 2.53150e-18
9996.79469 2.55104e-18
9997.79929 2.57055e-18
9998.80389 2.57417e-18
