# wavelength flux
3300.77404 1.96836e-17
3301.81882 1.94200e-17
3302.87365 1.91564e-17
3303.91843 1.89199e-17
3304.97326 1.86834e-17
3306.02809 1.93419e-17
3307.07288 2.00004e-17
3308.12771 1.80374e-17
3309.18254 1.60745e-17
3310.22732 1.72744e-17
3311.28215 1.84743e-17
3312.32694 1.91374e-17
3313.38177 1.98004e-17
3314.43660 1.90564e-17
3315.48138 1.83124e-17
3316.53621 1.61353e-17
3317.58099 1.39582e-17
3318.63582 1.41701e-17
3319.69065 1.43820e-17
3320.73544 1.65991e-17
3321.79027 1.88160e-17
3322.84510 1.86172e-17
3323.88988 1.84184e-17
3324.94471 1.92128e-17
3325.98950 2.00070e-17
3327.04433 1.81421e-17
3328.09916 1.62773e-17
3329.14394 1.70520e-17
3330.19877 1.78266e-17
3331.25360 1.90395e-17
3332.29838 2.02524e-17
3333.35321 2.07418e-17
3334.39800 2.12312e-17
3335.45283 2.09170e-17
3336.50766 2.06029e-17
3337.55244 2.08743e-17
3338.60727 2.11457e-17
3339.65206 2.06770e-17
3340.70689 2.02084e-17
3341.76172 2.04505e-17
3342.80650 2.06925e-17
3343.86133 1.90643e-17
3344.91616 1.74361e-17
3345.96094 1.53917e-17
3347.01577 1.33475e-17
3348.06056 1.32873e-17
3349.11539 1.32272e-17
3350.17022 1.56785e-17
3351.21500 1.81296e-17
3352.26983 2.00712e-17
3353.32466 2.20127e-17
3354.36945 2.35816e-17
3355.42428 2.51503e-17
3356.46906 2.45703e-17
3357.52389 2.39902e-17
3358.57872 2.24596e-17
3359.62350 2.09290e-17
3360.67833 2.01471e-17
3361.72312 1.93652e-17
3362.77795 1.90980e-17
3363.83278 1.88309e-17
3364.87756 1.87889e-17
3365.93239 1.87469e-17
3366.98722 2.03410e-17
3368.03201 2.19350e-17
3369.08684 2.05527e-17
3370.13162 1.91705e-17
3371.18645 1.94338e-17
3372.24128 1.96972e-17
3373.28606 2.15576e-17
3374.34089 2.34180e-17
3375.39572 2.37328e-17
3376.44051 2.40476e-17
3377.49534 2.42300e-17
3378.54012 2.44124e-17
3379.59495 2.37468e-17
3380.64978 2.30813e-17
3381.69457 2.09440e-17
3382.74940 1.88068e-17
3383.79418 2.05684e-17
3384.84901 2.23298e-17
3385.90384 2.37418e-17
3386.94862 2.51538e-17
3388.00345 2.35162e-17
3389.05828 2.18788e-17
3390.10307 2.18478e-17
3391.15790 2.18168e-17
3392.20268 2.25109e-17
3393.25751 2.32049e-17
3394.31234 2.26747e-17
3395.35713 2.21445e-17
3396.41196 2.13938e-17
3397.46679 2.06432e-17
3398.51157 2.11175e-17
3399.56640 2.15919e-17
3400.61118 2.30664e-17
3401.66601 2.45408e-17
3402.72084 2.44265e-17
3403.76563 2.43122e-17
3404.82046 2.34460e-17
3405.87529 2.25799e-17
3406.92007 2.16771e-17
3407.97490 2.07744e-17
3409.01969 1.92525e-17
3410.07452 1.77308e-17
3411.12935 1.74309e-17
3412.17413 1.71311e-17
3413.22896 1.83746e-17
3414.27374 1.96181e-17
3415.32857 2.12006e-17
3416.38340 2.27830e-17
3417.42819 2.40944e-17
3418.48302 2.54056e-17
3419.53785 2.55772e-17
3420.58263 2.57487e-17
3421.63746 2.59456e-17
3422.68225 2.61425e-17
3423.73708 2.61293e-17
3424.79191 2.61162e-17
3425.83669 2.52195e-17
3426.89152 2.43228e-17
3427.94635 2.41949e-17
3428.99113 2.40670e-17
3430.04596 2.41620e-17
3431.09075 2.42569e-17
3432.14558 2.50345e-17
3433.20041 2.58120e-17
3434.24519 2.58835e-17
3435.30002 2.59551e-17
3436.34481 2.63801e-17
3437.39964 2.68051e-17
3438.45447 2.73141e-17
3439.49925 2.78230e-17
3440.55408 2.71661e-17
3441.60891 2.65093e-17
3442.65369 2.74927e-17
3443.70852 2.84760e-17
3444.75331 2.89231e-17
3445.80814 2.93702e-17
3446.86297 2.87696e-17
3447.90775 2.81690e-17
3448.96258 2.57795e-17
3450.01741 2.33901e-17
3451.06220 2.40582e-17
3452.11703 2.47263e-17
3453.16181 2.51423e-17
3454.21664 2.55583e-17
3455.27147 2.63475e-17
3456.31625 2.71366e-17
3457.37108 2.67879e-17
3458.41587 2.64393e-17
3459.47070 2.55830e-17
3460.52553 2.47269e-17
3461.57031 2.58480e-17
3462.62514 2.69690e-17
3463.67997 2.92628e-17
3464.72476 3.15565e-17
3465.77959 3.18661e-17
3466.82437 3.21757e-17
3467.87920 3.03386e-17
3468.93403 2.85015e-17
3469.97881 2.76550e-17
3471.03364 2.68085e-17
3472.08847 2.82973e-17
3473.13326 2.97860e-17
3474.18809 3.04768e-17
3475.23287 3.11675e-17
3476.28770 3.02094e-17
3477.34253 2.92513e-17
3478.38732 2.95501e-17
3479.44215 2.98489e-17
3480.49698 2.94757e-17
3481.54176 2.91025e-17
3482.59659 2.85429e-17
3483.64137 2.79833e-17
3484.69620 2.80239e-17
3485.75103 2.80644e-17
3486.79582 2.90787e-17
3487.85065 3.00930e-17
3488.89543 3.06555e-17
3489.95026 3.12180e-17
3491.00509 3.04465e-17
3492.04988 2.96750e-17
3493.10471 2.93631e-17
3494.15954 2.90512e-17
3495.20432 2.91093e-17
3496.25915 2.91674e-17
3497.30393 2.90964e-17
3498.35876 2.90254e-17
3499.41359 2.94673e-17
3500.45838 2.99091e-17
3501.51321 3.01020e-17
3502.56804 3.02948e-17
3503.61282 3.10613e-17
3504.66765 3.18278e-17
3505.71244 3.01590e-17
3506.76727 2.84902e-17
3507.82210 2.89660e-17
3508.86688 2.94418e-17
3509.92171 3.04418e-17
3510.96649 3.14418e-17
3512.02132 3.00587e-17
3513.07615 2.86757e-17
3514.12094 2.88073e-17
3515.17577 2.89389e-17
3516.23060 2.88172e-17
3517.27538 2.86955e-17
3518.33021 2.87195e-17
3519.37500 2.87435e-17
3520.42983 2.87709e-17
3521.48466 2.87984e-17
3522.52944 2.81866e-17
3523.58427 2.75748e-17
3524.63910 2.75736e-17
3525.68388 2.75724e-17
3526.73871 2.66266e-17
3527.78350 2.56808e-17
3528.83833 2.66040e-17
3529.89316 2.75271e-17
3530.93794 2.89361e-17
3531.99277 3.03449e-17
3533.03756 2.99176e-17
3534.09239 2.94903e-17
3535.14722 2.85720e-17
3536.19200 2.76537e-17
3537.24683 2.79572e-17
3538.30166 2.82606e-17
3539.34644 2.85027e-17
3540.40127 2.87448e-17
3541.44606 2.84960e-17
3542.50089 2.82473e-17
3543.55572 2.80210e-17
3544.60050 2.77947e-17
3545.65533 2.75534e-17
3546.71016 2.73120e-17
3547.75495 2.76097e-17
3548.80978 2.79074e-17
3549.85456 2.81755e-17
3550.90939 2.84435e-17
3551.96422 2.86728e-17
3553.00900 2.89020e-17
3554.06383 2.85059e-17
3555.10862 2.81099e-17
3556.16345 2.75849e-17
3557.21828 2.70600e-17
3558.26306 2.74276e-17
3559.31789 2.77951e-17
3560.37272 2.81313e-17
3561.41751 2.84674e-17
3562.47234 2.81119e-17
3563.51712 2.77563e-17
3564.57195 2.70097e-17
3565.62678 2.62631e-17
3566.67156 2.64315e-17
3567.72639 2.66000e-17
3568.78122 2.70989e-17
3569.82601 2.75979e-17
3570.88084 2.81291e-17
3571.92562 2.86603e-17
3572.98045 2.80802e-17
3574.03528 2.75001e-17
3575.08007 2.76158e-17
3576.13490 2.77315e-17
3577.18973 2.78927e-17
3578.23451 2.80537e-17
3579.28934 2.80567e-17
3580.33412 2.80596e-17
3581.38895 2.77507e-17
3582.44378 2.74418e-17
3583.48857 2.60480e-17
3584.54340 2.46544e-17
3585.58818 2.45863e-17
3586.64301 2.45183e-17
3587.69784 2.51043e-17
3588.74263 2.56903e-17
3589.79746 2.73432e-17
3590.85229 2.89960e-17
3591.89707 2.88101e-17
3592.95190 2.86242e-17
3593.99668 2.93778e-17
3595.05151 3.01313e-17
3596.10634 2.97736e-17
3597.15113 2.94159e-17
3598.20596 2.90441e-17
3599.26079 2.86723e-17
3600.30557 2.81444e-17
3601.36040 2.76166e-17
3602.40519 2.74393e-17
3603.46002 2.72620e-17
3604.51485 2.70236e-17
3605.55963 2.67851e-17
3606.61446 2.76963e-17
3607.66929 2.86074e-17
3608.71407 2.80725e-17
3609.76890 2.75375e-17
3610.81369 2.78543e-17
3611.86852 2.81711e-17
3612.92335 2.76880e-17
3613.96813 2.72049e-17
3615.02296 2.74849e-17
3616.06775 2.77649e-17
3617.12258 2.76234e-17
3618.17741 2.74819e-17
3619.22219 2.73120e-17
3620.27702 2.71421e-17
3621.33185 2.72063e-17
3622.37663 2.72705e-17
3623.43146 2.74734e-17
3624.47625 2.76763e-17
3625.53108 2.80121e-17
3626.58591 2.83478e-17
3627.63069 2.86781e-17
3628.68552 2.90084e-17
3629.73031 2.83507e-17
3630.78514 2.76930e-17
3631.83997 2.72186e-17
3632.88475 2.67442e-17
3633.93958 2.67564e-17
3634.99441 2.67686e-17
3636.03919 2.74225e-17
3637.09402 2.80763e-17
3638.13881 2.78833e-17
3639.19364 2.76903e-17
3640.24847 2.75274e-17
3641.29325 2.73646e-17
3642.34808 2.77970e-17
3643.40291 2.82294e-17
3644.44770 2.80467e-17
3645.50253 2.78641e-17
3646.54731 2.71622e-17
3647.60214 2.64604e-17
3648.65697 2.62343e-17
3649.70175 2.60083e-17
3650.75658 2.62434e-17
3651.81141 2.64785e-17
3652.85620 2.65509e-17
3653.91103 2.66232e-17
3654.95581 2.62361e-17
3656.01064 2.58489e-17
3657.06547 2.51800e-17
3658.11026 2.45111e-17
3659.16509 2.48570e-17
3660.20987 2.52029e-17
3661.26470 2.46124e-17
3662.31953 2.40219e-17
3663.36431 2.38024e-17
3664.41914 2.35829e-17
3665.47397 2.39105e-17
3666.51876 2.42382e-17
3667.57359 2.48275e-17
3668.61837 2.54166e-17
3669.67320 2.52846e-17
3670.72803 2.51525e-17
3671.77282 2.40796e-17
3672.82765 2.30067e-17
3673.88248 2.28568e-17
3674.92726 2.27069e-17
3675.98209 2.28566e-17
3677.02687 2.30063e-17
3678.08170 2.37582e-17
3679.13653 2.45101e-17
3680.18132 2.44044e-17
3681.23615 2.42986e-17
3682.28093 2.41660e-17
3683.33576 2.40334e-17
3684.39059 2.46417e-17
3685.43538 2.52500e-17
3686.49021 2.51032e-17
3687.54504 2.49564e-17
3688.58982 2.45605e-17
3689.64465 2.41646e-17
3690.68943 2.40284e-17
3691.74426 2.38923e-17
3692.79909 2.43507e-17
3693.84388 2.48092e-17
3694.89871 2.57425e-17
3695.95354 2.66758e-17
3696.99832 2.66010e-17
3698.05315 2.65261e-17
3699.09794 2.62584e-17
3700.15277 2.59907e-17
3701.20760 2.48624e-17
3702.25238 2.37342e-17
3703.30721 2.41632e-17
3704.36204 2.45922e-17
3705.40682 2.44333e-17
3706.46165 2.42743e-17
3707.50644 2.43839e-17
3708.56127 2.44935e-17
3709.61610 2.47869e-17
3710.66088 2.50804e-17
3711.71571 2.57538e-17
3712.76050 2.64272e-17
3713.81533 2.70125e-17
3714.87016 2.75978e-17
3715.91494 2.72592e-17
3716.96977 2.69205e-17
3718.02460 2.63373e-17
3719.06938 2.57541e-17
3720.12421 2.60064e-17
3721.16900 2.62587e-17
3722.22383 2.63951e-17
3723.27866 2.65315e-17
3724.32344 2.59120e-17
3725.37827 2.52924e-17
3726.43310 2.48241e-17
3727.47789 2.43559e-17
3728.53272 2.44718e-17
3729.57750 2.45877e-17
3730.63233 2.43044e-17
3731.68716 2.40211e-17
3732.73194 2.39777e-17
3733.78677 2.39343e-17
3734.83156 2.34952e-17
3735.88639 2.30561e-17
3736.94122 2.29289e-17
3737.98600 2.28016e-17
3739.04083 2.20901e-17
3740.09566 2.13787e-17
3741.14045 2.13775e-17
3742.19528 2.13763e-17
3743.24006 2.17874e-17
3744.29489 2.21985e-17
3745.34972 2.17313e-17
3746.39450 2.12641e-17
3747.44933 2.03492e-17
3748.50416 1.94342e-17
3749.54895 1.90293e-17
3750.60378 1.86245e-17
3751.64856 1.86639e-17
3752.70339 1.87033e-17
3753.75822 1.82290e-17
3754.80301 1.77547e-17
3755.85784 1.75390e-17
3756.91267 1.73233e-17
3757.95745 1.75017e-17
3759.01228 1.76801e-17
3760.05706 1.76624e-17
3761.11189 1.76446e-17
3762.16672 1.78488e-17
3763.21151 1.80531e-17
3764.26634 1.76145e-17
3765.31112 1.71759e-17
3766.36595 1.63440e-17
3767.42078 1.55122e-17
3768.46557 1.59245e-17
3769.52040 1.63368e-17
3770.57523 1.65775e-17
3771.62001 1.68183e-17
3772.67484 1.65360e-17
3773.71962 1.62538e-17
3774.77445 1.57104e-17
3775.82928 1.51671e-17
3776.87407 1.52537e-17
3777.92890 1.53402e-17
3778.98373 1.59969e-17
3780.02851 1.66536e-17
3781.08334 1.73347e-17
3782.12813 1.80157e-17
3783.18296 1.76679e-17
3784.23779 1.73200e-17
3785.28257 1.62907e-17
3786.33740 1.52615e-17
3787.38218 1.47930e-17
3788.43701 1.43245e-17
3789.49184 1.47808e-17
3790.53663 1.52371e-17
3791.59146 1.51216e-17
3792.64629 1.50061e-17
3793.69107 1.48224e-17
3794.74590 1.46387e-17
3795.79069 1.42215e-17
3796.84552 1.38044e-17
3797.90035 1.36831e-17
3798.94513 1.35619e-17
3799.99996 1.40752e-17
3801.05479 1.45885e-17
3802.09957 1.46747e-17
3803.15440 1.47607e-17
3804.19919 1.44606e-17
3805.25402 1.41604e-17
3806.30885 1.37718e-17
3807.35363 1.33831e-17
3808.40846 1.37298e-17
3809.45325 1.40764e-17
3810.50808 1.41525e-17
3811.56291 1.42286e-17
3812.60769 1.42634e-17
3813.66252 1.42982e-17
3814.71735 1.40457e-17
3815.76213 1.37932e-17
3816.81696 1.41901e-17
3817.86175 1.45870e-17
3818.91658 1.44535e-17
3819.97141 1.43199e-17
3821.01619 1.42684e-17
3822.07102 1.42169e-17
3823.12585 1.40695e-17
3824.17064 1.39220e-17
3825.22547 1.38409e-17
3826.27025 1.37599e-17
3827.32508 1.40079e-17
3828.37991 1.42560e-17
3829.42469 1.42712e-17
3830.47952 1.42863e-17
3831.52431 1.38793e-17
3832.57914 1.34722e-17
3833.63397 1.31556e-17
3834.67875 1.28391e-17
3835.73358 1.27501e-17
3836.78841 1.26612e-17
3837.83320 1.33217e-17
3838.88803 1.39822e-17
3839.93281 1.43030e-17
3840.98764 1.46238e-17
3842.04247 1.47347e-17
3843.08725 1.48457e-17
3844.14208 1.44581e-17
3845.19691 1.40704e-17
3846.24170 1.40791e-17
3847.29653 1.40878e-17
3848.34131 1.40539e-17
3849.39614 1.40201e-17
3850.45097 1.40271e-17
3851.49576 1.40340e-17
3852.55059 1.41421e-17
3853.59537 1.42501e-17
3854.65020 1.44488e-17
3855.70503 1.46475e-17
3856.74981 1.44945e-17
3857.80464 1.43415e-17
3858.85947 1.45497e-17
3859.90426 1.47579e-17
3860.95909 1.44384e-17
3862.00387 1.41188e-17
3863.05870 1.44520e-17
3864.11353 1.47852e-17
3865.15832 1.53832e-17
3866.21315 1.59811e-17
3867.26798 1.59648e-17
3868.31276 1.59484e-17
3869.36759 1.58520e-17
3870.41237 1.57556e-17
3871.46720 1.57440e-17
3872.52203 1.57325e-17
3873.56682 1.61773e-17
3874.62165 1.66221e-17
3875.67648 1.69918e-17
3876.72126 1.73614e-17
3877.77609 1.73384e-17
3878.82088 1.73154e-17
3879.87571 1.71991e-17
3880.93054 1.70829e-17
3881.97532 1.70278e-17
3883.03015 1.69728e-17
3884.07493 1.71804e-17
3885.12976 1.73880e-17
3886.18459 1.79563e-17
3887.22938 1.85246e-17
3888.28421 1.84958e-17
3889.33904 1.84671e-17
3890.38382 1.83635e-17
3891.43865 1.82600e-17
3892.48344 1.83506e-17
3893.53827 1.84411e-17
3894.59310 1.88040e-17
3895.63788 1.91669e-17
3896.69271 1.92061e-17
3897.74754 1.92452e-17
3898.79232 1.95386e-17
3899.84715 1.98321e-17
3900.89194 2.03220e-17
3901.94677 2.08120e-17
3903.00160 2.10405e-17
3904.04638 2.12689e-17
3905.10121 2.11456e-17
3906.14600 2.10223e-17
3907.20083 2.12692e-17
3908.25566 2.15160e-17
3909.30044 2.19962e-17
3910.35527 2.24763e-17
3911.41010 2.37241e-17
3912.45488 2.49719e-17
3913.50971 2.56644e-17
3914.55450 2.63569e-17
3915.60933 2.64163e-17
3916.66416 2.64757e-17
3917.70894 2.57420e-17
3918.76377 2.50083e-17
3919.81860 2.50915e-17
3920.86339 2.51747e-17
3921.91822 2.64130e-17
3922.96300 2.76512e-17
3924.01783 2.83503e-17
3925.07266 2.90494e-17
3926.11744 2.91707e-17
3927.17227 2.92920e-17
3928.22710 2.96343e-17
3929.27189 2.99765e-17
3930.32672 3.00923e-17
3931.37150 3.02081e-17
3932.42633 2.99038e-17
3933.48116 2.95996e-17
3934.52595 2.96286e-17
3935.58078 2.96577e-17
3936.62556 3.02420e-17
3937.68039 3.08264e-17
3938.73522 3.13070e-17
3939.78000 3.17876e-17
3940.83483 3.20479e-17
3941.88966 3.23082e-17
3942.93445 3.27449e-17
3943.98928 3.31815e-17
3945.03406 3.32168e-17
3946.08889 3.32521e-17
3947.14372 3.29703e-17
3948.18851 3.26885e-17
3949.24334 3.29830e-17
3950.29817 3.32775e-17
3951.34295 3.39491e-17
3952.39778 3.46207e-17
3953.44256 3.48973e-17
3954.49739 3.51739e-17
3955.55222 3.54893e-17
3956.59701 3.58046e-17
3957.65184 3.61396e-17
3958.69662 3.64745e-17
3959.75145 3.65636e-17
3960.80628 3.66526e-17
3961.85107 3.67900e-17
3962.90590 3.69273e-17
3963.96073 3.67163e-17
3965.00551 3.65054e-17
3966.06034 3.68180e-17
3967.10512 3.71307e-17
3968.15995 3.72119e-17
3969.21478 3.72931e-17
3970.25957 3.73793e-17
3971.31440 3.74655e-17
3972.36923 3.74471e-17
3973.41401 3.74288e-17
3974.46884 3.74660e-17
3975.51363 3.75032e-17
3976.56846 3.71940e-17
3977.62329 3.68849e-17
3978.66807 3.65634e-17
3979.72290 3.62419e-17
3980.76768 3.64389e-17
3981.82251 3.66359e-17
3982.87734 3.66594e-17
3983.92213 3.66828e-17
3984.97696 3.69050e-17
3986.03179 3.71272e-17
3987.07657 3.70427e-17
3988.13140 3.69583e-17
3989.17619 3.70699e-17
3990.23102 3.71815e-17
3991.28585 3.69904e-17
3992.33063 3.67993e-17
3993.38546 3.61261e-17
3994.44029 3.54529e-17
3995.48507 3.51755e-17
3996.53990 3.48981e-17
3997.58469 3.47595e-17
3998.63952 3.46209e-17
3999.69435 3.48752e-17
4000.73913 3.51295e-17
4001.79396 3.56882e-17
4002.83875 3.62468e-17
4003.89358 3.61500e-17
4004.94841 3.60532e-17
4005.99319 3.56427e-17
4007.04802 3.52321e-17
4008.10285 3.54146e-17
4009.14763 3.55972e-17
4010.20246 3.56981e-17
4011.24725 3.57989e-17
4012.30208 3.50554e-17
4013.35691 3.43120e-17
4014.40169 3.40756e-17
4015.45652 3.38392e-17
4016.51135 3.40954e-17
4017.55614 3.43516e-17
4018.61097 3.44572e-17
4019.65575 3.45627e-17
4020.71058 3.44213e-17
4021.76541 3.42799e-17
4022.81019 3.42699e-17
4023.86502 3.42599e-17
4024.90981 3.43345e-17
4025.96464 3.44090e-17
4027.01947 3.35692e-17
4028.06425 3.27295e-17
4029.11908 3.24943e-17
4030.17391 3.22591e-17
4031.21870 3.20982e-17
4032.27353 3.19372e-17
4033.31831 3.23612e-17
4034.37314 3.27853e-17
4035.42797 3.24138e-17
4036.47275 3.20423e-17
4037.52758 3.17069e-17
4038.58241 3.13714e-17
4039.62720 3.13191e-17
4040.68203 3.12668e-17
4041.72681 3.16316e-17
4042.78164 3.19964e-17
4043.83647 3.16930e-17
4044.88126 3.13897e-17
4045.93609 3.10618e-17
4046.99092 3.07339e-17
4048.03570 3.07908e-17
4049.09053 3.08478e-17
4050.13531 3.02686e-17
4051.19014 2.96894e-17
4052.24497 2.95340e-17
4053.28976 2.93786e-17
4054.34459 2.93039e-17
4055.38937 2.92293e-17
4056.44420 2.95105e-17
4057.49903 2.97918e-17
4058.54382 2.91706e-17
4059.59865 2.85494e-17
4060.65348 2.85523e-17
4061.69826 2.85553e-17
4062.75309 2.86000e-17
4063.79787 2.86448e-17
4064.85270 2.77628e-17
4065.90753 2.68807e-17
4066.95232 2.67272e-17
4068.00715 2.65737e-17
4069.06198 2.62193e-17
4070.10676 2.58649e-17
4071.16159 2.55753e-17
4072.20638 2.52857e-17
4073.26121 2.50921e-17
4074.31604 2.48985e-17
4075.36082 2.49619e-17
4076.41565 2.50252e-17
4077.46043 2.48200e-17
4078.51526 2.46149e-17
4079.57009 2.46494e-17
4080.61488 2.46839e-17
4081.66971 2.46959e-17
4082.72454 2.47079e-17
4083.76932 2.40964e-17
4084.82415 2.34849e-17
4085.86894 2.34503e-17
4086.92377 2.34158e-17
4087.97860 2.33827e-17
4089.02338 2.33496e-17
4090.07821 2.34930e-17
4091.13304 2.36363e-17
4092.17782 2.35466e-17
4093.23265 2.34568e-17
4094.27744 2.28520e-17
4095.33227 2.22471e-17
4096.38710 2.20370e-17
4097.43188 2.18270e-17
4098.48671 2.15228e-17
4099.54154 2.12187e-17
4101.11876 2.17989e-17
4102.78640 2.13069e-17
4104.44399 2.16629e-17
4106.10158 2.21055e-17
4107.75917 2.18144e-17
4109.42681 2.17948e-17
4111.08440 2.20988e-17
4112.74199 2.23761e-17
4114.40962 2.27173e-17
4116.06721 2.29605e-17
4117.72480 2.24212e-17
4119.38239 2.20942e-17
4121.05003 2.16714e-17
4122.70762 2.09836e-17
4124.36521 2.14272e-17
4126.02280 2.17810e-17
4127.69043 2.26031e-17
4129.34802 2.33401e-17
4131.00561 2.32575e-17
4132.67325 2.32411e-17
4134.33084 2.27595e-17
4135.98843 2.22782e-17
4137.64602 2.21610e-17
4139.31366 2.20529e-17
4140.97125 2.18746e-17
4142.62884 2.16815e-17
4144.28643 2.19266e-17
4145.95406 2.23663e-17
4147.61165 2.24876e-17
4149.26924 2.20058e-17
4150.93688 2.14987e-17
4152.59447 2.13277e-17
4154.25206 2.23889e-17
4155.90965 2.32178e-17
4157.57728 2.34166e-17
4159.23487 2.34396e-17
4160.89246 2.33360e-17
4162.56010 2.33323e-17
4164.21769 2.38377e-17
4165.87528 2.42046e-17
4167.53287 2.41376e-17
4169.20051 2.42805e-17
4170.85810 2.37420e-17
4172.51569 2.32885e-17
4174.17328 2.34217e-17
4175.84091 2.35683e-17
4177.49850 2.37923e-17
4179.15609 2.39571e-17
4180.82373 2.37579e-17
4182.48132 2.35899e-17
4184.13891 2.36258e-17
4185.79650 2.35033e-17
4187.46413 2.35093e-17
4189.12172 2.39047e-17
4190.77931 2.33650e-17
4192.43690 2.26040e-17
4194.10454 2.32794e-17
4195.76213 2.40417e-17
4197.41972 2.34766e-17
4199.08736 2.28781e-17
4200.74495 2.33184e-17
4202.40254 2.36510e-17
4204.06013 2.34511e-17
4205.72776 2.34448e-17
4207.38535 2.39426e-17
4209.04294 2.41266e-17
4210.70053 2.37901e-17
4212.36817 2.38443e-17
4214.02576 2.38963e-17
4215.68335 2.37600e-17
4217.35098 2.28552e-17
4219.00857 2.24933e-17
4220.66616 2.29666e-17
4222.32375 2.33358e-17
4223.99139 2.36170e-17
4225.64898 2.37623e-17
4227.30657 2.36412e-17
4228.96416 2.32664e-17
4230.63180 2.28384e-17
4232.28939 2.24751e-17
4233.94698 2.29264e-17
4235.61461 2.33425e-17
4237.27220 2.38511e-17
4238.92979 2.43499e-17
4240.58738 2.41728e-17
4242.25502 2.40745e-17
4243.91261 2.36000e-17
4245.57020 2.32974e-17
4247.23783 2.28736e-17
4248.89542 2.26933e-17
4250.55301 2.25934e-17
4252.21060 2.26564e-17
4253.87824 2.37265e-17
4255.53583 2.44954e-17
4257.19342 2.39675e-17
4258.85101 2.36899e-17
4260.51865 2.32407e-17
4262.17624 2.31142e-17
4263.83383 2.33092e-17
4265.50146 2.29022e-17
4267.15905 2.33650e-17
4268.81664 2.39632e-17
4270.47423 2.37186e-17
4272.14187 2.33147e-17
4273.79946 2.31946e-17
4275.45705 2.35320e-17
4277.12468 2.33475e-17
4278.78227 2.30314e-17
4280.43986 2.30616e-17
4282.09745 2.28418e-17
4283.76509 2.28048e-17
4285.42268 2.29820e-17
4287.08027 2.35079e-17
4288.73786 2.40665e-17
4290.40550 2.42939e-17
4292.06309 2.38705e-17
4293.72068 2.37719e-17
4295.37827 2.37175e-17
4297.04590 2.33863e-17
4298.70349 2.32243e-17
4300.36108 2.32582e-17
4302.02872 2.31410e-17
4303.68631 2.24945e-17
4305.34390 2.18857e-17
4307.00149 2.22780e-17
4308.66912 2.27364e-17
4310.32671 2.27544e-17
4311.98430 2.25277e-17
4313.65194 2.21774e-17
4315.30953 2.21524e-17
4316.96712 2.23179e-17
4318.62471 2.24223e-17
4320.29235 2.24473e-17
4321.94994 2.26612e-17
4323.60753 2.28299e-17
4325.26512 2.30021e-17
4326.93275 2.26369e-17
4328.59034 2.21836e-17
4330.24793 2.19163e-17
4331.91557 2.16400e-17
4333.57316 2.16200e-17
4335.23075 2.15775e-17
4336.88834 2.21308e-17
4338.55597 2.21649e-17
4340.21356 2.17713e-17
4341.87115 2.13998e-17
4343.53879 2.20347e-17
4345.19638 2.25139e-17
4346.85397 2.18889e-17
4348.51156 2.13555e-17
4350.17920 2.10036e-17
4351.83679 2.10337e-17
4353.49438 2.10413e-17
4355.15197 2.07963e-17
4356.81960 2.09094e-17
4358.47719 2.11008e-17
4360.13478 2.08662e-17
4361.80242 2.05655e-17
4363.46001 2.03953e-17
4365.11760 2.01526e-17
4366.77519 2.00468e-17
4368.44282 1.97477e-17
4370.10041 1.96772e-17
4371.75800 1.94088e-17
4373.41559 1.93152e-17
4375.08323 1.94177e-17
4376.74082 1.91289e-17
4378.39841 1.88103e-17
4380.06605 1.88303e-17
4381.72364 1.88357e-17
4383.38123 1.84733e-17
4385.03882 1.83240e-17
4386.70645 1.81302e-17
4388.36404 1.78687e-17
4390.02163 1.79531e-17
4391.67922 1.77288e-17
4393.34686 1.75897e-17
4395.00445 1.75461e-17
4396.66204 1.72505e-17
4398.32967 1.70224e-17
4399.98726 1.67194e-17
4401.64485 1.65611e-17
4403.30244 1.64307e-17
4404.97008 1.63537e-17
4406.62767 1.66035e-17
4408.28526 1.67992e-17
4409.94285 1.67967e-17
4411.61049 1.66353e-17
4413.26808 1.64211e-17
4414.92567 1.63169e-17
4416.59330 1.62246e-17
4418.25089 1.61227e-17
4419.90848 1.60383e-17
4421.56607 1.58119e-17
4423.23371 1.49608e-17
4424.89130 1.43729e-17
4426.54889 1.47377e-17
4428.21652 1.50172e-17
4429.87411 1.52021e-17
4431.53170 1.52500e-17
4433.18929 1.49906e-17
4434.85693 1.50013e-17
4436.51452 1.49870e-17
4438.17211 1.48835e-17
4439.82970 1.49990e-17
4441.49734 1.49369e-17
4443.15493 1.50434e-17
4444.81252 1.51598e-17
4446.48015 1.50107e-17
4448.13774 1.47653e-17
4449.79533 1.44418e-17
4451.45292 1.42284e-17
4453.12056 1.45008e-17
4454.77815 1.44941e-17
4456.43574 1.49165e-17
4458.09333 1.54769e-17
4459.76096 1.56370e-17
4461.41855 1.58252e-17
4463.07614 1.62317e-17
4464.74378 1.63177e-17
4466.40137 1.69957e-17
4468.05896 1.77268e-17
4469.71655 1.79698e-17
4471.38419 1.81065e-17
4473.04178 1.81208e-17
4474.69937 1.80680e-17
4476.35696 1.80102e-17
4478.02459 1.80311e-17
4479.68218 1.82307e-17
4481.33977 1.86701e-17
4483.00741 1.93647e-17
4484.66500 2.01087e-17
4486.32259 1.98446e-17
4487.98018 1.94584e-17
4489.64781 1.94886e-17
4491.30540 1.95663e-17
4492.96299 1.93574e-17
4494.63063 1.91458e-17
4496.28822 1.93120e-17
4497.94581 1.95462e-17
4499.60340 2.04353e-17
4501.27104 2.13065e-17
4502.92863 2.17243e-17
4504.58622 2.17394e-17
4506.24381 2.17965e-17
4507.91144 2.20056e-17
4509.56903 2.25791e-17
4511.22662 2.28044e-17
4512.89426 2.29579e-17
4514.55185 2.29376e-17
4516.20944 2.29544e-17
4517.86703 2.30361e-17
4519.53466 2.33078e-17
4521.19225 2.37168e-17
4522.84984 2.36980e-17
4524.50743 2.34439e-17
4526.17507 2.39896e-17
4527.83266 2.44639e-17
4529.49025 2.43257e-17
4531.15789 2.43326e-17
4532.81548 2.47009e-17
4534.47307 2.46395e-17
4536.13066 2.44209e-17
4537.79829 2.46606e-17
4539.45588 2.52262e-17
4541.11347 2.58275e-17
4542.77106 2.51091e-17
4544.43870 2.48181e-17
4546.09629 2.48114e-17
4547.75388 2.49041e-17
4549.42151 2.54670e-17
4551.07910 2.58237e-17
4552.73669 2.54709e-17
4554.39428 2.51730e-17
4556.06192 2.53075e-17
4557.71951 2.56783e-17
4559.37710 2.56542e-17
4561.03469 2.56152e-17
4562.70233 2.59537e-17
4564.35992 2.65178e-17
4566.01751 2.68703e-17
4567.68514 2.68717e-17
4569.34273 2.63305e-17
4571.00032 2.59010e-17
4572.65791 2.65440e-17
4574.32555 2.69671e-17
4575.98314 2.71424e-17
4577.64073 2.73142e-17
4579.30836 2.74978e-17
4580.96595 2.74041e-17
4582.62354 2.73306e-17
4584.28113 2.72855e-17
4585.94877 2.75478e-17
4587.60636 2.78100e-17
4589.26395 2.74020e-17
4590.92154 2.67966e-17
4592.58918 2.65047e-17
4594.24677 2.62735e-17
4595.90436 2.62488e-17
4597.57199 2.62038e-17
4599.22958 2.59734e-17
4600.88717 2.59154e-17
4602.54476 2.62268e-17
4604.21240 2.65548e-17
4605.86999 2.69761e-17
4607.52758 2.71571e-17
4609.18517 2.68898e-17
4610.85280 2.65848e-17
4612.51039 2.61817e-17
4614.16798 2.61456e-17
4615.83562 2.61426e-17
4617.49321 2.62607e-17
4619.15080 2.63825e-17
4620.80839 2.62056e-17
4622.47603 2.62318e-17
4624.13362 2.60955e-17
4625.79121 2.57427e-17
4627.45884 2.53893e-17
4629.11643 2.56595e-17
4630.77402 2.53912e-17
4632.43161 2.52563e-17
4634.09925 2.52166e-17
4635.75684 2.47302e-17
4637.41443 2.42632e-17
4639.07202 2.46299e-17
4640.73965 2.49858e-17
4642.39724 2.45419e-17
4644.05483 2.39959e-17
4645.72247 2.43066e-17
4647.38006 2.49401e-17
4649.03765 2.45555e-17
4650.69524 2.40785e-17
4652.36288 2.39119e-17
4654.02047 2.36633e-17
4655.67806 2.41989e-17
4657.33565 2.45386e-17
4659.00328 2.36680e-17
4660.66087 2.28571e-17
4662.31846 2.28000e-17
4663.98610 2.28727e-17
4665.64369 2.31276e-17
4667.30128 2.34225e-17
4668.95887 2.31380e-17
4670.62650 2.27570e-17
4672.28409 2.28859e-17
4673.94168 2.29962e-17
4675.59927 2.32739e-17
4677.26691 2.36227e-17
4678.92450 2.28839e-17
4680.58209 2.22652e-17
4682.24973 2.21407e-17
4683.90732 2.21603e-17
4685.56491 2.20214e-17
4687.22250 2.20680e-17
4688.89013 2.23815e-17
4690.54772 2.28489e-17
4692.20531 2.32767e-17
4693.87295 2.30124e-17
4695.53054 2.26294e-17
4697.18813 2.21749e-17
4698.84572 2.18470e-17
4700.51335 2.19935e-17
4702.17094 2.16725e-17
4703.82853 2.13699e-17
4705.48612 2.12058e-17
4707.15376 2.10409e-17
4708.81135 2.07772e-17
4710.46894 2.07145e-17
4712.13658 2.10693e-17
4713.79417 2.13050e-17
4715.45176 2.08907e-17
4717.10935 2.07602e-17
4718.77698 2.07927e-17
4720.43457 2.05816e-17
4722.09216 1.99276e-17
4723.74975 1.92808e-17
4725.41739 1.89136e-17
4727.07498 1.87453e-17
4728.73257 1.90077e-17
4730.40020 1.93574e-17
4732.05779 1.92255e-17
4733.71538 1.88551e-17
4735.37297 1.83878e-17
4737.04061 1.78787e-17
4738.69820 1.76523e-17
4740.35579 1.76587e-17
4742.01338 1.77425e-17
4743.68102 1.77970e-17
4745.33861 1.73503e-17
4746.99620 1.68398e-17
4748.66383 1.67196e-17
4750.32142 1.65213e-17
4751.97901 1.59375e-17
4753.63660 1.53138e-17
4755.30424 1.53253e-17
4756.96183 1.56370e-17
4758.61942 1.58343e-17
4760.28705 1.58380e-17
4761.94464 1.52402e-17
4763.60223 1.48869e-17
4765.25982 1.47456e-17
4766.92746 1.47094e-17
4768.58505 1.48430e-17
4770.24264 1.48194e-17
4771.90023 1.46316e-17
4773.56787 1.42925e-17
4775.22546 1.43146e-17
4776.88305 1.43916e-17
4778.55068 1.40586e-17
4780.20827 1.35666e-17
4781.86586 1.39192e-17
4783.52345 1.41481e-17
4785.19109 1.37007e-17
4786.84868 1.35402e-17
4788.50627 1.33913e-17
4790.16386 1.31456e-17
4791.83149 1.30426e-17
4793.48908 1.29696e-17
4795.14667 1.32379e-17
4796.81431 1.33983e-17
4798.47190 1.30463e-17
4800.12949 1.27513e-17
4801.78708 1.30333e-17
4803.45472 1.33317e-17
4805.11231 1.29526e-17
4806.76990 1.24335e-17
4808.42749 1.23259e-17
4810.09512 1.22156e-17
4811.75271 1.23568e-17
4813.41030 1.24716e-17
4815.07794 1.25260e-17
4816.73553 1.24825e-17
4818.39312 1.24476e-17
4820.05071 1.24433e-17
4821.71834 1.22793e-17
4823.37593 1.20338e-17
4825.03352 1.20765e-17
4826.69111 1.21024e-17
4828.35875 1.20644e-17
4830.01634 1.20670e-17
4831.67393 1.21375e-17
4833.34157 1.24208e-17
4834.99916 1.22058e-17
4836.65675 1.20016e-17
4838.31434 1.18925e-17
4839.98197 1.18802e-17
4841.63956 1.20051e-17
4843.29715 1.15582e-17
4844.96479 1.14265e-17
4846.62238 1.14576e-17
4848.27997 1.13556e-17
4849.93756 1.15355e-17
4851.60519 1.15123e-17
4853.26278 1.15493e-17
4854.92037 1.14554e-17
4856.57796 1.13517e-17
4858.24560 1.13188e-17
4859.90319 1.12964e-17
4861.56078 1.14111e-17
4863.22842 1.14760e-17
4864.88601 1.15882e-17
4866.54360 1.16928e-17
4868.20119 1.16135e-17
4869.86882 1.14994e-17
4871.52641 1.12826e-17
4873.18400 1.09663e-17
4874.84159 1.10314e-17
4876.50923 1.12525e-17
4878.16682 1.14048e-17
4879.82441 1.15256e-17
4881.49204 1.14604e-17
4883.14963 1.12444e-17
4884.80722 1.13312e-17
4886.46481 1.15459e-17
4888.13245 1.17571e-17
4889.79004 1.17951e-17
4891.44763 1.16264e-17
4893.10522 1.15503e-17
4894.77286 1.14849e-17
4896.43045 1.14149e-17
4898.08804 1.17957e-17
4899.75567 1.22381e-17
4901.41326 1.26477e-17
4903.07085 1.29924e-17
4904.72844 1.30787e-17
4906.39608 1.33174e-17
4908.05367 1.34244e-17
4909.71126 1.34250e-17
4911.36885 1.34267e-17
4913.03648 1.34466e-17
4914.69407 1.38062e-17
4916.35166 1.42682e-17
4918.01930 1.46295e-17
4919.67689 1.47919e-17
4921.33448 1.46785e-17
4922.99207 1.47825e-17
4924.65971 1.47875e-17
4926.31730 1.47447e-17
4927.97489 1.47000e-17
4929.64252 1.48096e-17
4931.30011 1.52398e-17
4932.95770 1.56110e-17
4934.61529 1.53449e-17
4936.28293 1.50110e-17
4937.94052 1.51896e-17
4939.59811 1.53313e-17
4941.25570 1.59009e-17
4942.92333 1.64698e-17
4944.58092 1.66135e-17
4946.23851 1.63977e-17
4947.90615 1.62682e-17
4949.56374 1.62472e-17
4951.22133 1.59789e-17
4952.87892 1.62637e-17
4954.54656 1.64203e-17
4956.20415 1.64452e-17
4957.86174 1.62738e-17
4959.51933 1.60244e-17
4961.18696 1.60307e-17
4962.84455 1.61875e-17
4964.50214 1.60645e-17
4966.16978 1.58295e-17
4967.82737 1.56543e-17
4969.48496 1.55758e-17
4971.14255 1.57784e-17
4972.81018 1.59420e-17
4974.46777 1.57091e-17
4976.12536 1.55619e-17
4977.79300 1.54252e-17
4979.45059 1.53566e-17
4981.10818 1.52644e-17
4982.76577 1.51734e-17
4984.43341 1.49209e-17
4986.09100 1.45861e-17
4987.74859 1.46314e-17
4989.40618 1.47911e-17
4991.07381 1.50299e-17
4992.73140 1.54149e-17
4994.38899 1.52234e-17
4996.05663 1.50104e-17
4997.71422 1.47094e-17
4999.37181 1.44573e-17
5001.02940 1.44283e-17
5002.69703 1.45182e-17
5004.35462 1.45985e-17
5006.01221 1.46751e-17
5007.66980 1.46939e-17
5009.33744 1.48541e-17
5010.99503 1.42543e-17
5012.65262 1.35088e-17
5014.32026 1.35268e-17
5015.97785 1.39497e-17
5017.63544 1.39981e-17
5019.29303 1.39187e-17
5020.96066 1.37826e-17
5022.61825 1.35891e-17
5024.27584 1.34814e-17
5025.93343 1.35835e-17
5027.60107 1.38933e-17
5029.25866 1.42225e-17
5030.91625 1.42524e-17
5032.58388 1.39264e-17
5034.24147 1.38260e-17
5035.89906 1.38519e-17
5037.55665 1.35794e-17
5039.22429 1.31050e-17
5040.88188 1.31849e-17
5042.53947 1.35578e-17
5044.19706 1.37960e-17
5045.86470 1.40897e-17
5047.52229 1.40555e-17
5049.17988 1.40384e-17
5050.84751 1.43137e-17
5052.50510 1.45145e-17
5054.16269 1.46452e-17
5055.82028 1.49830e-17
5057.48792 1.45384e-17
5059.14551 1.41752e-17
5060.80310 1.42319e-17
5062.47073 1.43365e-17
5064.12832 1.42345e-17
5065.78591 1.41081e-17
5067.44350 1.40543e-17
5069.11114 1.40095e-17
5070.76873 1.44839e-17
5072.42632 1.49394e-17
5074.08391 1.48734e-17
5075.75155 1.48148e-17
5077.40914 1.47865e-17
5079.06673 1.46603e-17
5080.73436 1.45919e-17
5082.39195 1.46026e-17
5084.04954 1.48370e-17
5085.70713 1.52417e-17
5087.37477 1.50319e-17
5089.03236 1.48440e-17
5090.68995 1.47287e-17
5092.35758 1.46723e-17
5094.01517 1.46913e-17
5095.67276 1.46853e-17
5097.33035 1.48539e-17
5098.99799 1.50475e-17
5100.65558 1.48280e-17
5102.31317 1.46138e-17
5103.97076 1.46995e-17
5105.63840 1.47852e-17
5107.29599 1.47239e-17
5108.95358 1.46626e-17
5110.62121 1.50921e-17
5112.27880 1.55216e-17
5113.93639 1.51267e-17
5115.59398 1.47318e-17
5117.26162 1.49236e-17
5118.91921 1.51153e-17
5120.57680 1.55667e-17
5122.23439 1.60181e-17
5123.90202 1.59556e-17
5125.55961 1.58930e-17
5127.21720 1.54789e-17
5128.88484 1.50648e-17
5130.54243 1.55904e-17
5132.20002 1.61159e-17
5133.85761 1.62851e-17
5135.52525 1.64543e-17
5137.18284 1.66184e-17
5138.84043 1.67826e-17
5140.49802 1.69912e-17
5142.16565 1.71997e-17
5143.82324 1.71553e-17
5145.48083 1.71110e-17
5147.14847 1.72614e-17
5148.80606 1.74119e-17
5150.46365 1.76843e-17
5152.12124 1.79567e-17
5153.78887 1.80912e-17
5155.44646 1.82257e-17
5157.10405 1.80807e-17
5158.76164 1.79358e-17
5160.42928 1.84143e-17
5162.08687 1.88927e-17
5163.74446 1.83728e-17
5165.41210 1.78530e-17
5167.06969 1.79903e-17
5168.72728 1.81277e-17
5170.38487 1.84545e-17
5172.05250 1.87811e-17
5173.71009 1.87138e-17
5175.36768 1.86466e-17
5177.03532 1.88718e-17
5178.69291 1.90969e-17
5180.35050 1.90231e-17
5182.00809 1.89493e-17
5183.67572 1.88396e-17
5185.33331 1.87300e-17
5186.99090 1.91922e-17
5188.64849 1.96544e-17
5190.31613 1.95648e-17
5191.97372 1.94751e-17
5193.63131 1.90846e-17
5195.29895 1.86942e-17
5196.95654 1.88392e-17
5198.61413 1.89842e-17
5200.27172 1.90350e-17
5201.93935 1.90857e-17
5203.59694 1.93330e-17
5205.25453 1.95803e-17
5206.91212 1.92359e-17
5208.57976 1.88916e-17
5210.23735 1.88994e-17
5211.89494 1.89072e-17
5213.56257 1.91938e-17
5215.22016 1.94804e-17
5216.87775 1.88850e-17
5218.53534 1.82898e-17
5220.20298 1.83859e-17
5221.86057 1.84821e-17
5223.51816 1.92388e-17
5225.17575 1.99952e-17
5226.84339 1.96707e-17
5228.50098 1.93462e-17
5230.15857 1.92495e-17
5231.82620 1.91529e-17
5233.48379 1.91807e-17
5235.14138 1.92085e-17
5236.79897 1.94376e-17
5238.46661 1.96667e-17
5240.12420 1.95916e-17
5241.78179 1.95165e-17
5243.44942 1.95857e-17
5245.10701 1.96548e-17
5246.76460 1.92821e-17
5248.42219 1.89094e-17
5250.08983 1.93716e-17
5251.74742 1.98338e-17
5253.40501 2.01728e-17
5255.06260 2.05117e-17
5256.73024 2.04594e-17
5258.38783 2.04071e-17
5260.04542 2.02550e-17
5261.71305 2.01029e-17
5263.37064 2.00559e-17
5265.02823 2.00089e-17
5266.68582 1.99737e-17
5268.35346 1.99385e-17
5270.01105 2.01386e-17
5271.66864 2.03387e-17
5273.32623 2.03424e-17
5274.99386 2.03461e-17
5276.65145 2.01529e-17
5278.30904 1.99598e-17
5279.97668 2.03943e-17
5281.63427 2.08286e-17
5283.29186 2.09511e-17
5284.94945 2.10735e-17
5286.61709 2.08988e-17
5288.27468 2.07242e-17
5289.93227 2.06822e-17
5291.58986 2.06402e-17
5293.25749 2.05685e-17
5294.91508 2.04968e-17
5296.57267 2.06680e-17
5298.24031 2.08392e-17
5299.89790 2.07787e-17
5301.55549 2.07183e-17
5303.21308 2.06686e-17
5304.88071 2.06189e-17
5306.53830 2.05474e-17
5308.19589 2.04760e-17
5309.85348 2.04947e-17
5311.52112 2.05134e-17
5313.17871 2.04235e-17
5314.83630 2.03337e-17
5316.50394 2.03104e-17
5318.16153 2.02872e-17
5319.81912 2.04243e-17
5321.47671 2.05613e-17
5323.14434 1.99989e-17
5324.80193 1.94367e-17
5326.45952 1.97408e-17
5328.12716 2.00449e-17
5329.78475 1.99036e-17
5331.44234 1.97624e-17
5333.09993 1.98312e-17
5334.76756 1.98999e-17
5336.42515 1.95649e-17
5338.08274 1.92299e-17
5339.74033 1.92906e-17
5341.40797 1.93514e-17
5343.06556 1.93380e-17
5344.72315 1.93247e-17
5346.39079 1.89753e-17
5348.04838 1.86260e-17
5349.70597 1.88179e-17
5351.36356 1.90097e-17
5353.03119 1.89447e-17
5354.68878 1.88796e-17
5356.34637 1.88788e-17
5358.01401 1.88780e-17
5359.67160 1.91114e-17
5361.32919 1.93447e-17
5362.98678 1.92352e-17
5364.65441 1.91257e-17
5366.31200 1.89525e-17
5367.96959 1.87793e-17
5369.62718 1.86409e-17
5371.29482 1.85025e-17
5372.95241 1.82867e-17
5374.61000 1.80709e-17
5376.26759 1.80850e-17
5377.93523 1.80990e-17
5379.59282 1.77270e-17
5381.25041 1.73551e-17
5382.91804 1.75289e-17
5384.57563 1.77026e-17
5386.23322 1.74738e-17
5387.89081 1.72450e-17
5389.55845 1.69972e-17
5391.21604 1.67495e-17
5392.87363 1.70084e-17
5394.53122 1.72672e-17
5396.19885 1.68008e-17
5397.85644 1.63345e-17
5399.51403 1.64407e-17
5401.18167 1.65469e-17
5402.83926 1.67780e-17
5404.49685 1.70089e-17
5406.15444 1.66266e-17
5407.82208 1.62443e-17
5409.47967 1.63082e-17
5411.13726 1.63722e-17
5412.80489 1.65466e-17
5414.46248 1.67209e-17
5416.12007 1.66180e-17
5417.77766 1.65152e-17
5419.44530 1.63435e-17
5421.10289 1.61719e-17
5422.76048 1.63874e-17
5424.41807 1.66029e-17
5426.08570 1.62507e-17
5427.74329 1.58985e-17
5429.40088 1.57240e-17
5431.06852 1.55495e-17
5432.72611 1.53748e-17
5434.38370 1.52002e-17
5436.04129 1.50999e-17
5437.70893 1.49996e-17
5439.36652 1.50646e-17
5441.02411 1.51296e-17
5442.69174 1.54044e-17
5444.34933 1.56791e-17
5446.00692 1.52757e-17
5447.66451 1.48723e-17
5449.33215 1.48240e-17
5450.98974 1.47757e-17
5452.64733 1.47666e-17
5454.30492 1.47575e-17
5455.97255 1.48218e-17
5457.63014 1.48861e-17
5459.28773 1.52201e-17
5460.95537 1.55541e-17
5462.61296 1.57431e-17
5464.27055 1.59320e-17
5465.92814 1.55342e-17
5467.59578 1.51365e-17
5469.25337 1.55077e-17
5470.91096 1.58788e-17
5472.56855 1.58906e-17
5474.23618 1.59023e-17
5475.89377 1.57473e-17
5477.55136 1.55924e-17
5479.21900 1.54565e-17
5480.87659 1.53207e-17
5482.53418 1.47749e-17
5484.19177 1.42293e-17
5485.85940 1.40855e-17
5487.51699 1.39419e-17
5489.17458 1.43878e-17
5490.83217 1.48337e-17
5492.49981 1.52018e-17
5494.15740 1.55699e-17
5495.81499 1.55194e-17
5497.48263 1.54689e-17
5499.14022 1.55019e-17
5500.79781 1.55349e-17
5502.45540 1.55155e-17
5504.12303 1.54961e-17
5505.78062 1.53170e-17
5507.43821 1.51380e-17
5509.09580 1.49886e-17
5510.76344 1.48392e-17
5512.42103 1.47526e-17
5514.07862 1.46660e-17
5515.74625 1.45809e-17
5517.40384 1.44958e-17
5519.06143 1.48934e-17
5520.71902 1.52910e-17
5522.38666 1.53173e-17
5524.04425 1.53435e-17
5525.70184 1.50826e-17
5527.36948 1.48218e-17
5529.02707 1.48624e-17
5530.68466 1.49032e-17
5532.34225 1.53020e-17
5534.00988 1.57008e-17
5535.66747 1.55865e-17
5537.32506 1.54721e-17
5538.98265 1.48865e-17
5540.65029 1.43010e-17
5542.30788 1.42362e-17
5543.96547 1.41714e-17
5545.63310 1.43524e-17
5547.29069 1.45333e-17
5548.94828 1.45088e-17
5550.60587 1.44843e-17
5552.27351 1.46081e-17
5553.93110 1.47318e-17
5555.58869 1.43208e-17
5557.24628 1.39099e-17
5558.91392 1.40435e-17
5560.57151 1.41771e-17
5562.22910 1.42911e-17
5563.89673 1.44050e-17
5565.55432 1.40274e-17
5567.21191 1.36499e-17
5568.86950 1.36092e-17
5570.53714 1.35686e-17
5572.19473 1.36098e-17
5573.85232 1.36509e-17
5575.50991 1.37285e-17
5577.17754 1.38062e-17
5578.83513 1.40807e-17
5580.49272 1.43550e-17
5582.16036 1.39040e-17
5583.81795 1.34530e-17
5585.47554 1.35863e-17
5587.13313 1.37196e-17
5588.80077 1.39837e-17
5590.45836 1.42476e-17
5592.11595 1.39975e-17
5593.78358 1.37474e-17
5595.44117 1.34733e-17
5597.09876 1.31993e-17
5598.75635 1.33931e-17
5600.42399 1.35868e-17
5602.08158 1.37211e-17
5603.73917 1.38555e-17
5605.39676 1.40233e-17
5607.06439 1.41910e-17
5608.72198 1.40156e-17
5610.37957 1.38403e-17
5612.04721 1.39373e-17
5613.70480 1.40343e-17
5615.36239 1.40935e-17
5617.01998 1.41527e-17
5618.68762 1.37390e-17
5620.34521 1.33254e-17
5622.00280 1.33405e-17
5623.66039 1.33555e-17
5625.32802 1.37177e-17
5626.98561 1.40797e-17
5628.64320 1.35919e-17
5630.31084 1.31042e-17
5631.96843 1.32080e-17
5633.62602 1.33118e-17
5635.28361 1.37921e-17
5636.95124 1.42723e-17
5638.60883 1.41909e-17
5640.26642 1.41094e-17
5641.92401 1.37843e-17
5643.59165 1.34592e-17
5645.24924 1.35299e-17
5646.90683 1.36006e-17
5648.57447 1.34945e-17
5650.23206 1.33884e-17
5651.88965 1.34797e-17
5653.54724 1.35709e-17
5655.21487 1.35679e-17
5656.87246 1.35650e-17
5658.53005 1.35234e-17
5660.18764 1.34819e-17
5661.85528 1.32098e-17
5663.51287 1.29377e-17
5665.17046 1.29070e-17
5666.83809 1.28762e-17
5668.49568 1.24816e-17
5670.15327 1.20870e-17
5671.81086 1.24324e-17
5673.47850 1.27778e-17
5675.13609 1.28272e-17
5676.79368 1.28766e-17
5678.46132 1.29266e-17
5680.11891 1.29767e-17
5681.77650 1.31729e-17
5683.43409 1.33690e-17
5685.10172 1.26480e-17
5686.75931 1.19271e-17
5688.41690 1.20822e-17
5690.07449 1.22374e-17
5691.74213 1.27315e-17
5693.39972 1.32254e-17
5695.05731 1.24591e-17
5696.72494 1.16930e-17
5698.38253 1.17217e-17
5700.04012 1.17505e-17
5701.69771 1.18100e-17
5703.36535 1.18696e-17
5705.02294 1.20030e-17
5706.68053 1.21363e-17
5708.34817 1.19857e-17
5710.00576 1.18351e-17
5711.66335 1.17096e-17
5713.32094 1.15842e-17
5714.98857 1.15315e-17
5716.64616 1.14788e-17
5718.30375 1.14565e-17
5719.96134 1.14342e-17
5721.62898 1.12486e-17
5723.28657 1.10630e-17
5724.94416 1.11531e-17
5726.61179 1.12430e-17
5728.26938 1.10717e-17
5729.92697 1.09004e-17
5731.58456 1.09636e-17
5733.25220 1.10268e-17
5734.90979 1.10675e-17
5736.56738 1.11082e-17
5738.22497 1.11281e-17
5739.89261 1.11480e-17
5741.55020 1.13593e-17
5743.20779 1.15706e-17
5744.86538 1.14604e-17
5746.53301 1.13502e-17
5748.19060 1.13592e-17
5749.84819 1.13682e-17
5751.51583 1.15518e-17
5753.17342 1.17353e-17
5754.83101 1.14334e-17
5756.48860 1.11315e-17
5758.15623 1.11353e-17
5759.81382 1.11391e-17
5761.47141 1.12103e-17
5763.13905 1.12814e-17
5764.79664 1.13194e-17
5766.45423 1.13575e-17
5768.11182 1.16764e-17
5769.77946 1.19953e-17
5771.43705 1.18847e-17
5773.09464 1.17741e-17
5774.75223 1.20016e-17
5776.41986 1.22289e-17
5778.07745 1.19923e-17
5779.73504 1.17557e-17
5781.40268 1.16453e-17
5783.06027 1.15350e-17
5784.71786 1.18243e-17
5786.37545 1.21136e-17
5788.04308 1.21310e-17
5789.70067 1.21484e-17
5791.35826 1.20855e-17
5793.02590 1.20227e-17
5794.68349 1.23195e-17
5796.34108 1.26163e-17
5797.99867 1.27235e-17
5799.66631 1.28308e-17
5801.32390 1.27990e-17
5802.98149 1.27671e-17
5804.63908 1.25698e-17
5806.30671 1.23724e-17
5807.96430 1.24591e-17
5809.62189 1.25458e-17
5811.28953 1.30289e-17
5812.94712 1.35118e-17
5814.60471 1.32738e-17
5816.26230 1.30357e-17
5817.92993 1.29696e-17
5819.58752 1.29035e-17
5821.24511 1.30882e-17
5822.90270 1.32729e-17
5824.57034 1.33389e-17
5826.22793 1.34049e-17
5827.88552 1.35634e-17
5829.55316 1.37219e-17
5831.21075 1.36706e-17
5832.86834 1.36192e-17
5834.52593 1.37729e-17
5836.19356 1.39267e-17
5837.85115 1.41707e-17
5839.50874 1.44148e-17
5841.16633 1.46438e-17
5842.83397 1.48728e-17
5844.49156 1.47459e-17
5846.14915 1.46191e-17
5847.81678 1.49648e-17
5849.47437 1.53104e-17
5851.13196 1.51401e-17
5852.78955 1.49698e-17
5854.45719 1.53203e-17
5856.11478 1.56707e-17
5857.77237 1.58064e-17
5859.42996 1.59421e-17
5861.09760 1.61452e-17
5862.75519 1.63481e-17
5864.41278 1.57959e-17
5866.08041 1.52437e-17
5867.73800 1.53456e-17
5869.39559 1.54475e-17
5871.05318 1.55243e-17
5872.72082 1.56011e-17
5874.37841 1.57290e-17
5876.03600 1.58569e-17
5877.70363 1.61200e-17
5879.36122 1.63829e-17
5881.01881 1.61649e-17
5882.67640 1.59470e-17
5884.34404 1.57759e-17
5886.00163 1.56048e-17
5887.65922 1.58687e-17
5889.31681 1.61325e-17
5890.98445 1.64696e-17
5892.64204 1.68067e-17
5894.29963 1.65788e-17
5895.96726 1.63510e-17
5897.62485 1.68045e-17
5899.28244 1.72578e-17
5900.94003 1.66918e-17
5902.60767 1.61260e-17
5904.26526 1.64956e-17
5905.92285 1.68652e-17
5907.58044 1.66102e-17
5909.24807 1.63552e-17
5910.90566 1.62261e-17
5912.56325 1.60971e-17
5914.23089 1.60428e-17
5915.88848 1.59886e-17
5917.54607 1.65019e-17
5919.20366 1.70150e-17
5920.87130 1.68276e-17
5922.52889 1.66402e-17
5924.18648 1.66289e-17
5925.84407 1.66177e-17
5927.51170 1.67179e-17
5929.16929 1.68181e-17
5930.82688 1.64438e-17
5932.49452 1.60697e-17
5934.15211 1.61716e-17
5935.80970 1.62735e-17
5937.46729 1.63919e-17
5939.13492 1.65104e-17
5940.79251 1.66441e-17
5942.45010 1.67777e-17
5944.11774 1.68249e-17
5945.77533 1.68721e-17
5947.43292 1.66460e-17
5949.09051 1.64199e-17
5950.75815 1.61428e-17
5952.41574 1.58658e-17
5954.07333 1.60465e-17
5955.73092 1.62270e-17
5957.39855 1.59830e-17
5959.05614 1.57389e-17
5960.71373 1.55512e-17
5962.38137 1.53635e-17
5964.03896 1.54688e-17
5965.69655 1.55740e-17
5967.35414 1.51723e-17
5969.02177 1.47707e-17
5970.67936 1.46394e-17
5972.33695 1.45081e-17
5973.99454 1.49852e-17
5975.66218 1.54622e-17
5977.31977 1.52878e-17
5978.97736 1.51135e-17
5980.64500 1.47384e-17
5982.30259 1.43635e-17
5983.96018 1.42021e-17
5985.61777 1.40409e-17
5987.28540 1.42007e-17
5988.94299 1.43605e-17
5990.60058 1.42703e-17
5992.25817 1.41802e-17
5993.92581 1.41866e-17
5995.58340 1.41931e-17
5997.24099 1.41102e-17
5998.90862 1.40273e-17
6000.56621 1.37121e-17
6002.22380 1.33969e-17
6003.88139 1.34068e-17
6005.54903 1.34167e-17
6007.20662 1.34377e-17
6008.86421 1.34588e-17
6010.52180 1.33809e-17
6012.18944 1.33031e-17
6013.84703 1.31217e-17
6015.50462 1.29404e-17
6017.17225 1.29459e-17
6018.82984 1.29515e-17
6020.48743 1.29610e-17
6022.14502 1.29705e-17
6023.81266 1.30290e-17
6025.47025 1.30876e-17
6027.12784 1.30535e-17
6028.79547 1.30194e-17
6030.45306 1.29464e-17
6032.11065 1.28734e-17
6033.76824 1.27071e-17
6035.43588 1.25409e-17
6037.09347 1.29888e-17
6038.75106 1.34365e-17
6040.40865 1.30349e-17
6042.07629 1.26334e-17
6043.73388 1.25721e-17
6045.39147 1.25109e-17
6047.05910 1.22245e-17
6048.71669 1.19382e-17
6050.37428 1.20596e-17
6052.03187 1.21811e-17
6053.69951 1.21460e-17
6055.35710 1.21109e-17
6057.01469 1.21754e-17
6058.68232 1.22399e-17
6060.33991 1.25826e-17
6061.99750 1.29251e-17
6063.65509 1.25551e-17
6065.32273 1.21851e-17
6066.98032 1.20230e-17
6068.63791 1.18610e-17
6070.29550 1.22897e-17
6071.96314 1.27183e-17
6073.62073 1.23011e-17
6075.27832 1.18841e-17
6076.94595 1.19373e-17
6078.60354 1.19907e-17
6080.26113 1.24332e-17
6081.91872 1.28755e-17
6083.58636 1.25642e-17
6085.24395 1.22529e-17
6086.90154 1.22270e-17
6088.55913 1.22010e-17
6090.22676 1.20496e-17
6091.88435 1.18983e-17
6093.54194 1.19485e-17
6095.20958 1.19987e-17
6096.86717 1.18588e-17
6098.52476 1.17189e-17
6100.18235 1.16555e-17
6101.84999 1.15922e-17
6103.50758 1.17133e-17
6105.16517 1.18344e-17
6106.82276 1.19184e-17
6108.49039 1.20023e-17
6110.14798 1.21402e-17
6111.80557 1.22780e-17
6113.47321 1.21326e-17
6115.13080 1.19872e-17
6116.78839 1.20142e-17
6118.44598 1.20410e-17
6120.11361 1.17768e-17
6121.77120 1.15126e-17
6123.42879 1.13889e-17
6125.08638 1.12652e-17
6126.75402 1.12868e-17
6128.41161 1.13084e-17
6130.06920 1.16239e-17
6131.73684 1.19393e-17
6133.39443 1.17534e-17
6135.05202 1.15675e-17
6136.70961 1.16203e-17
6138.37724 1.16731e-17
6140.03483 1.16410e-17
6141.69242 1.16089e-17
6143.36006 1.13758e-17
6145.01765 1.11428e-17
6146.67524 1.13700e-17
6148.33283 1.15971e-17
6150.00046 1.16549e-17
6151.65805 1.17127e-17
6153.31564 1.18804e-17
6154.97323 1.20479e-17
6156.64087 1.18491e-17
6158.29846 1.16504e-17
6159.95605 1.15634e-17
6161.62369 1.14764e-17
6163.28128 1.12423e-17
6164.93887 1.10083e-17
6166.59646 1.16308e-17
6168.26409 1.22531e-17
6169.92168 1.19505e-17
6171.57927 1.16480e-17
6173.23686 1.16090e-17
6174.90450 1.15701e-17
6176.56209 1.16297e-17
6178.21968 1.16894e-17
6179.88731 1.15831e-17
6181.54490 1.14768e-17
6183.20249 1.16405e-17
6184.86008 1.18041e-17
6186.52772 1.18972e-17
6188.18531 1.19902e-17
6189.84290 1.16684e-17
6191.50049 1.13467e-17
6193.16813 1.13307e-17
6194.82572 1.13147e-17
6196.48331 1.13698e-17
6198.15094 1.14249e-17
6199.80853 1.14356e-17
6201.46612 1.14463e-17
6203.12371 1.13696e-17
6204.79135 1.12930e-17
6206.44894 1.12359e-17
6208.10653 1.11788e-17
6209.77416 1.11680e-17
6211.43175 1.11572e-17
6213.08934 1.09574e-17
6214.74693 1.07576e-17
6216.41457 1.04456e-17
6218.07216 1.01337e-17
6219.72975 1.02273e-17
6221.38734 1.03210e-17
6223.05498 1.03190e-17
6224.71257 1.03170e-17
6226.37016 9.98470e-18
6228.03779 9.65247e-18
6229.69538 9.63059e-18
6231.35297 9.60873e-18
6233.01056 9.76376e-18
6234.67820 9.91877e-18
6236.33579 1.00287e-17
6237.99338 1.01386e-17
6239.65097 9.64190e-18
6241.31860 9.14531e-18
6242.97619 9.16169e-18
6244.63378 9.17809e-18
6246.30142 9.28615e-18
6247.95901 9.39419e-18
6249.61660 9.40366e-18
6251.27419 9.41310e-18
6252.94183 9.23040e-18
6254.59942 9.04775e-18
6256.25701 9.04773e-18
6257.91460 9.04768e-18
6259.58223 8.86600e-18
6261.23982 8.68439e-18
6262.89741 8.86436e-18
6264.56505 9.04425e-18
6266.22264 8.85756e-18
6267.88023 8.67094e-18
6269.53782 8.85659e-18
6271.20545 9.04218e-18
6272.86304 8.90618e-18
6274.52063 8.77019e-18
6276.17822 8.68510e-18
6277.84586 8.60010e-18
6279.50345 9.04415e-18
6281.16104 9.48799e-18
6282.82868 8.81664e-18
6284.48627 8.14547e-18
6286.14386 8.36699e-18
6287.80145 8.58848e-18
6289.46908 8.72157e-18
6291.12667 8.85462e-18
6292.78426 8.75693e-18
6294.45190 8.65927e-18
6296.10949 8.70385e-18
6297.76708 8.74846e-18
6299.42467 8.94147e-18
6301.09230 9.13446e-18
6302.74989 9.15958e-18
6304.40748 9.18467e-18
6306.06507 8.96925e-18
6307.73271 8.75385e-18
6309.39030 8.67547e-18
6311.04789 8.59713e-18
6312.71553 8.73229e-18
6314.37312 8.86746e-18
6316.03071 9.11359e-18
6317.68830 9.35967e-18
6319.35593 9.32947e-18
6321.01352 9.29927e-18
6322.67111 9.30511e-18
6324.32870 9.31100e-18
6325.99634 9.55372e-18
6327.65393 9.79640e-18
6329.31152 9.82849e-18
6330.97915 9.86057e-18
6332.63674 9.84604e-18
6334.29433 9.83152e-18
6335.95192 9.82402e-18
6337.61956 9.81654e-18
6339.27715 9.91451e-18
6340.93474 1.00124e-17
6342.59233 9.94368e-18
6344.25997 9.87497e-18
6345.91756 1.00756e-17
6347.57515 1.02763e-17
6349.24278 1.05681e-17
6350.90037 1.08597e-17
6352.55796 1.04449e-17
6354.21555 1.00301e-17
6355.88319 1.02146e-17
6357.54078 1.03992e-17
6359.19837 1.05434e-17
6360.86600 1.06877e-17
6362.52359 1.10467e-17
6364.18118 1.14056e-17
6365.83877 1.12255e-17
6367.50641 1.10455e-17
6369.16400 1.10717e-17
6370.82159 1.10980e-17
6372.47918 1.11100e-17
6374.14682 1.11221e-17
6375.80441 1.13464e-17
6377.46200 1.15706e-17
6379.12963 1.17998e-17
6380.78722 1.20291e-17
6382.44481 1.22100e-17
6384.10240 1.23908e-17
6385.77004 1.20941e-17
6387.42763 1.17974e-17
6389.08522 1.17349e-17
6390.74281 1.16724e-17
6392.41044 1.18060e-17
6394.06803 1.19395e-17
6395.72562 1.18566e-17
6397.39326 1.17738e-17
6399.05085 1.18233e-17
6400.70844 1.18729e-17
6402.36603 1.20918e-17
6404.03367 1.23106e-17
6405.69126 1.20024e-17
6407.34885 1.16944e-17
6409.01648 1.18928e-17
6410.67407 1.20912e-17
6412.33166 1.22249e-17
6413.98925 1.23585e-17
6415.65689 1.19518e-17
6417.31448 1.15451e-17
6418.97207 1.16849e-17
6420.62966 1.18246e-17
6422.29729 1.18444e-17
6423.95488 1.18641e-17
6425.61247 1.18277e-17
6427.28011 1.17912e-17
6428.93770 1.18319e-17
6430.59529 1.18725e-17
6432.25288 1.17553e-17
6433.92052 1.16381e-17
6435.57811 1.17876e-17
6437.23570 1.19370e-17
6438.89329 1.18984e-17
6440.56092 1.18598e-17
6442.21851 1.18467e-17
6443.87610 1.18336e-17
6445.54374 1.17124e-17
6447.20133 1.15913e-17
6448.85892 1.16985e-17
6450.51651 1.18056e-17
6452.18414 1.15995e-17
6453.84173 1.13935e-17
6455.49932 1.15852e-17
6457.15691 1.17769e-17
6458.82455 1.19984e-17
6460.48214 1.22197e-17
6462.13973 1.17514e-17
6463.80737 1.12832e-17
6465.46496 1.11520e-17
6467.12255 1.10209e-17
6468.78014 1.10751e-17
6470.44777 1.11293e-17
6472.10536 1.11909e-17
6473.76295 1.12524e-17
6475.42054 1.10696e-17
6477.08818 1.08868e-17
6478.74577 1.08391e-17
6480.40336 1.07915e-17
6482.07099 1.09282e-17
6483.72858 1.10649e-17
6485.38617 1.09622e-17
6487.04376 1.08594e-17
6488.71140 1.07169e-17
6490.36899 1.05744e-17
6492.02658 1.06783e-17
6493.69422 1.07821e-17
6495.35181 1.06505e-17
6497.00940 1.05189e-17
6498.66699 1.04120e-17
6500.33462 1.03050e-17
6501.99221 1.01192e-17
6503.64980 9.93343e-18
6505.30739 1.00314e-17
6506.97503 1.01294e-17
6508.63262 1.00332e-17
6510.29021 9.93700e-18
6511.95784 1.00690e-17
6513.61543 1.02009e-17
6515.27302 1.00102e-17
6516.93061 9.81965e-18
6518.59825 9.79980e-18
6520.25584 9.77994e-18
6521.91343 9.67170e-18
6523.57102 9.56350e-18
6525.23866 9.57736e-18
6526.89625 9.59120e-18
6528.55384 9.47329e-18
6530.22147 9.35540e-18
6531.87906 9.27328e-18
6533.53665 9.19120e-18
6535.19424 9.25923e-18
6536.86188 9.32727e-18
6538.51947 9.41882e-18
6540.17706 9.51030e-18
6541.84469 9.20625e-18
6543.50228 8.90228e-18
6545.15987 8.96159e-18
6546.81746 9.02085e-18
6548.48510 8.82361e-18
6550.14269 8.62646e-18
6551.80028 8.85016e-18
6553.45787 9.07386e-18
6555.12551 9.36078e-18
6556.78310 9.64766e-18
6558.44069 9.74330e-18
6560.10832 9.83891e-18
6561.76591 9.81319e-18
6563.42350 9.78743e-18
6565.08109 9.63357e-18
6566.74873 9.47974e-18
6568.40632 9.47080e-18
6570.06391 9.46190e-18
6571.72150 9.63687e-18
6573.38913 9.81187e-18
6575.04672 1.01228e-17
6576.70431 1.04336e-17
6578.37195 1.04322e-17
6580.02954 1.04307e-17
6581.68713 1.02090e-17
6583.34472 9.98731e-18
6585.01236 1.00182e-17
6586.66995 1.00491e-17
6588.32754 1.00930e-17
6589.98513 1.01368e-17
6591.65276 1.00701e-17
6593.31035 1.00034e-17
6594.96794 1.00052e-17
6596.63558 1.00071e-17
6598.29317 1.01280e-17
6599.95076 1.02487e-17
6601.60835 1.02343e-17
6603.27598 1.02200e-17
6604.93357 1.03734e-17
6606.59116 1.05267e-17
6608.24875 1.04024e-17
6609.91639 1.02781e-17
6611.57398 1.02503e-17
6613.23157 1.02225e-17
6614.89921 1.02648e-17
6616.55680 1.03070e-17
6618.21439 1.02041e-17
6619.87198 1.01012e-17
6621.53961 1.01487e-17
6623.19720 1.01963e-17
6624.85479 9.97434e-18
6626.52243 9.75248e-18
6628.18002 9.75990e-18
6629.83761 9.76732e-18
6631.49520 9.74198e-18
6633.16283 9.71668e-18
6634.82042 9.88354e-18
6636.47801 1.00504e-17
6638.13560 1.00385e-17
6639.80324 1.00267e-17
6641.46083 1.00897e-17
6643.11842 1.01527e-17
6644.78606 1.01588e-17
6646.44365 1.01649e-17
6648.10124 1.03234e-17
6649.75883 1.04819e-17
6651.42646 1.03750e-17
6653.08405 1.02682e-17
6654.74164 1.04230e-17
6656.39923 1.05778e-17
6658.06687 1.07002e-17
6659.72446 1.08225e-17
6661.38205 1.07317e-17
6663.04968 1.06409e-17
6664.70727 1.06719e-17
6666.36486 1.07029e-17
6668.02245 1.05453e-17
6669.69009 1.03879e-17
6671.34768 1.07094e-17
6673.00527 1.10309e-17
6674.66286 1.08470e-17
6676.33050 1.06631e-17
6677.98809 1.03437e-17
6679.64568 1.00243e-17
6681.31331 1.01201e-17
6682.97090 1.02159e-17
6684.62849 1.04861e-17
6686.28608 1.07563e-17
6687.95372 1.06278e-17
6689.61131 1.04994e-17
6691.26890 1.04017e-17
6692.92649 1.03040e-17
6694.59412 1.01720e-17
6696.25171 1.00400e-17
6697.90930 1.03773e-17
6699.57694 1.07145e-17
6701.23453 1.08508e-17
6702.89212 1.09869e-17
6704.54971 1.08155e-17
6706.21735 1.06439e-17
6707.87494 1.03746e-17
6709.53253 1.01053e-17
6711.20016 1.02378e-17
6712.85775 1.03703e-17
6714.51534 1.04480e-17
6716.17293 1.05257e-17
6717.84057 1.04754e-17
6719.49816 1.04252e-17
6721.15575 1.05231e-17
6722.81334 1.06209e-17
6724.48097 1.04459e-17
6726.13856 1.02709e-17
6727.79615 1.01789e-17
6729.46379 1.00869e-17
6731.12138 1.00473e-17
6732.77897 1.00077e-17
6734.43656 1.03972e-17
6736.10420 1.07866e-17
6737.76179 1.08506e-17
6739.41938 1.09147e-17
6741.07697 1.07181e-17
6742.74460 1.05216e-17
6744.40219 1.06717e-17
6746.05978 1.08217e-17
6747.72742 1.06714e-17
6749.38501 1.05211e-17
6751.04260 1.06168e-17
6752.70019 1.07125e-17
6754.36782 1.05793e-17
6756.02541 1.04461e-17
6757.68300 1.04587e-17
6759.35064 1.04712e-17
6761.00823 1.03182e-17
6762.66582 1.01652e-17
6764.32341 1.03423e-17
6765.99105 1.05194e-17
6767.64864 1.03610e-17
6769.30623 1.02027e-17
6770.96382 1.00904e-17
6772.63145 9.97826e-18
6774.28904 1.00475e-17
6775.94663 1.01166e-17
6777.61427 9.97331e-18
6779.27186 9.83008e-18
6780.92945 9.89843e-18
6782.58704 9.96675e-18
6784.25467 9.89622e-18
6785.91226 9.82572e-18
6787.56985 9.89210e-18
6789.22744 9.95844e-18
6790.89508 9.81513e-18
6792.55267 9.67189e-18
6794.21026 9.76535e-18
6795.87790 9.85875e-18
6797.53549 9.66885e-18
6799.19308 9.47902e-18
6800.85067 9.55804e-18
6802.51830 9.63706e-18
6804.17589 9.68068e-18
6805.83348 9.72423e-18
6807.49107 9.48959e-18
6809.15871 9.25501e-18
6810.81630 9.29213e-18
6812.47389 9.32924e-18
6814.14152 9.31844e-18
6815.79911 9.30766e-18
6817.45670 9.40413e-18
6819.11429 9.50055e-18
6820.78193 9.40378e-18
6822.43952 9.30705e-18
6824.09711 9.42139e-18
6825.75470 9.53568e-18
6827.42234 9.40274e-18
6829.07993 9.26976e-18
6830.73752 8.99103e-18
6832.40515 8.71237e-18
6834.06274 8.71797e-18
6835.72033 8.72362e-18
6837.37792 8.94138e-18
6839.04556 9.15908e-18
6840.70315 9.11758e-18
6842.36074 9.07605e-18
6844.02837 8.90530e-18
6845.68596 8.89671e-18
6847.34355 8.88812e-18
6849.00114 8.87952e-18
6850.66878 8.87093e-18
6852.32637 8.86234e-18
6853.98396 8.85375e-18
6855.64155 8.84515e-18
6857.30919 8.83656e-18
6858.96678 8.82797e-18
6860.62437 8.81937e-18
6862.29200 8.81078e-18
6863.94959 8.80219e-18
6865.60718 8.79360e-18
6867.26477 8.78501e-18
6868.93241 8.77642e-18
6870.59000 8.76782e-18
6872.24759 8.75924e-18
6873.90518 8.75064e-18
6875.57281 8.74205e-18
6877.23040 8.73346e-18
6878.88799 8.72487e-18
6880.55563 8.71629e-18
6882.21322 8.70770e-18
6883.87081 8.69911e-18
6885.52840 8.69052e-18
6887.19604 8.68193e-18
6888.85363 8.67334e-18
6890.51122 8.66475e-18
6892.17885 8.65616e-18
6893.83644 8.64758e-18
6895.49403 8.63899e-18
6897.15162 8.63040e-18
6898.81926 8.62182e-18
6900.47685 8.61323e-18
6902.13444 8.60465e-18
6903.79203 8.59606e-18
6905.45966 8.58747e-18
6907.11725 8.57888e-18
6908.77484 8.57030e-18
6910.44248 8.56171e-18
6912.10007 8.55313e-18
6913.75766 8.54454e-18
6915.41525 8.53596e-18
6917.08289 8.52737e-18
6918.74048 8.51879e-18
6920.39807 8.51020e-18
6922.05566 8.50162e-18
6923.72329 8.49304e-18
6925.38088 8.48445e-18
6927.03847 8.47587e-18
6928.70611 8.46729e-18
6930.36370 8.45870e-18
6932.02129 8.45012e-18
6933.67888 8.44154e-18
6935.34651 8.43296e-18
6937.00410 8.50183e-18
6938.66169 8.57066e-18
6940.31928 8.43607e-18
6941.98692 8.30154e-18
6943.64451 8.47698e-18
6945.30210 8.65232e-18
6946.96974 8.46025e-18
6948.62733 8.26825e-18
6950.28492 8.36659e-18
6951.94251 8.46491e-18
6953.61014 8.46021e-18
6955.26773 8.45547e-18
6956.92532 8.26946e-18
6958.59296 8.08354e-18
6960.25055 8.29557e-18
6961.90814 8.50755e-18
6963.56573 8.51933e-18
6965.23336 8.53110e-18
6966.89095 8.48581e-18
6968.54854 8.44053e-18
6970.20613 8.43451e-18
6971.87377 8.42851e-18
6973.53136 8.47543e-18
6975.18895 8.52239e-18
6976.85659 8.75369e-18
6978.51418 8.98497e-18
6980.17177 9.18016e-18
6981.82936 9.37524e-18
6983.49699 9.09606e-18
6985.15458 8.81694e-18
6986.81217 8.78530e-18
6988.46976 8.75368e-18
6990.13740 8.83361e-18
6991.79499 8.91354e-18
6993.45258 8.99214e-18
6995.12021 9.07070e-18
6996.77780 9.02819e-18
6998.43539 8.98566e-18
7000.09298 8.86717e-18
7001.76062 8.74875e-18
7003.41821 8.91453e-18
7005.07580 9.08028e-18
7006.73339 9.13397e-18
7008.40103 9.18763e-18
7010.05862 9.07278e-18
7011.71621 8.95796e-18
7013.38384 8.90580e-18
7015.04143 8.85367e-18
7016.69902 8.96286e-18
7018.35661 9.07201e-18
7020.02425 9.00677e-18
7021.68184 8.94153e-18
7023.33943 8.89292e-18
7024.99702 8.84431e-18
7026.66465 8.79730e-18
7028.32224 8.75038e-18
7029.97983 9.08138e-18
7031.64747 9.41230e-18
7033.30506 9.40695e-18
7034.96265 9.40157e-18
7036.62024 9.24630e-18
7038.28788 9.09114e-18
7039.94547 9.35059e-18
7041.60306 9.60993e-18
7043.27069 9.45854e-18
7044.92828 9.30721e-18
7046.58587 9.38710e-18
7048.24346 9.46696e-18
7049.91110 9.44426e-18
7051.56869 9.42154e-18
7053.22628 9.31421e-18
7054.88387 9.20691e-18
7056.55150 9.21348e-18
7058.20909 9.22004e-18
7059.86668 9.16977e-18
7061.53432 9.11948e-18
7063.19191 8.95644e-18
7064.84950 8.79348e-18
7066.50709 8.94855e-18
7068.17473 9.10362e-18
7069.83232 9.34509e-18
7071.48991 9.58645e-18
7073.14750 9.41760e-18
7074.81513 9.24878e-18
7076.47272 9.15480e-18
7078.13031 9.06083e-18
7079.79795 9.03714e-18
7081.45554 9.01352e-18
7083.11313 9.28394e-18
7084.77072 9.55430e-18
7086.43835 9.59695e-18
7088.09594 9.63956e-18
7089.75353 9.50958e-18
7091.41112 9.37956e-18
7093.07876 9.08944e-18
7094.73635 8.79940e-18
7096.39394 8.83697e-18
7098.06158 8.87454e-18
7099.71917 8.94876e-18
7101.37676 9.02301e-18
7103.03435 9.26915e-18
7104.70198 9.51515e-18
7106.35957 9.22703e-18
7108.01716 8.93901e-18
7109.67475 9.04292e-18
7111.34239 9.14682e-18
7112.99998 9.14861e-18
7114.65757 9.15041e-18
7116.32520 9.16181e-18
7117.98279 9.17327e-18
7119.64038 9.41591e-18
7121.29797 9.65846e-18
7122.96561 9.59522e-18
7124.62320 9.53192e-18
7126.28079 9.22613e-18
7127.94843 8.92044e-18
7129.60602 8.98488e-18
7131.26361 9.04932e-18
7132.92120 9.11410e-18
7134.58883 9.17886e-18
7136.24642 9.13066e-18
7137.90401 9.08241e-18
7139.57165 8.80185e-18
7141.22924 8.52142e-18
7142.88683 8.74224e-18
7144.54442 8.96295e-18
7146.21205 8.78345e-18
7147.86964 8.60405e-18
7149.52723 8.76740e-18
7151.18482 8.93066e-18
7152.85246 8.76180e-18
7154.51005 8.59300e-18
7156.16764 8.68196e-18
7157.83528 8.77091e-18
7159.49287 8.86726e-18
7161.15046 8.96358e-18
7162.80805 8.93646e-18
7164.47568 8.90935e-18
7166.13327 8.90336e-18
7167.79086 8.89736e-18
7169.44845 8.79090e-18
7171.11609 8.68443e-18
7172.77368 8.49142e-18
7174.43127 8.29850e-18
7176.08886 8.43188e-18
7177.75649 8.56521e-18
7179.41408 8.50314e-18
7181.07167 8.44106e-18
7182.73931 8.37392e-18
7184.39690 8.30685e-18
7186.05449 8.57038e-18
7187.71208 8.83380e-18
7189.37972 8.65390e-18
7191.03731 8.47405e-18
7192.69490 8.42254e-18
7194.36253 8.37097e-18
7196.02012 8.08220e-18
7197.67771 7.79353e-18
7199.33530 7.84805e-18
7201.00294 7.90261e-18
7202.66053 8.13151e-18
7204.31812 8.36037e-18
7205.97571 8.48483e-18
7207.64334 8.60925e-18
7209.30093 8.57979e-18
7210.95852 8.55033e-18
7212.62616 8.47033e-18
7214.28375 8.39039e-18
7215.94134 8.50743e-18
7217.59893 8.62444e-18
7219.26657 8.56219e-18
7220.92416 8.49996e-18
7222.58175 8.50427e-18
7224.24938 8.50854e-18
7225.90697 8.35883e-18
7227.56456 8.20922e-18
7229.22215 8.40360e-18
7230.88979 8.59791e-18
7232.54738 8.49797e-18
7234.20497 8.39804e-18
7235.86256 8.32907e-18
7237.53019 8.26015e-18
7239.18778 8.36190e-18
7240.84537 8.46363e-18
7242.51301 8.45320e-18
7244.17060 8.44279e-18
7245.82819 8.51561e-18
7247.48578 8.58836e-18
7249.15342 8.44466e-18
7250.81101 8.30104e-18
7252.46860 8.48180e-18
7254.12619 8.66250e-18
7255.79382 8.60541e-18
7257.45141 8.54838e-18
7259.10900 8.65938e-18
7260.77664 8.77029e-18
7262.43423 8.55388e-18
7264.09182 8.33748e-18
7265.74941 8.14186e-18
7267.41704 7.94633e-18
7269.07463 8.06434e-18
7270.73222 8.18233e-18
7272.38981 8.23258e-18
7274.05745 8.28284e-18
7275.71504 8.35702e-18
7277.37263 8.43119e-18
7279.04027 8.49843e-18
7280.69786 8.56558e-18
7282.35545 8.24832e-18
7284.01304 7.93117e-18
7285.68067 7.98962e-18
7287.33826 8.04807e-18
7288.99585 8.14383e-18
7290.65344 8.23957e-18
7292.32108 8.22081e-18
7293.97867 8.20203e-18
7295.63626 8.07271e-18
7297.30389 7.94344e-18
7298.96148 8.03005e-18
7300.61907 8.11665e-18
7302.27666 8.16644e-18
7303.94430 8.21624e-18
7305.60189 8.34311e-18
7307.25948 8.46995e-18
7308.92712 8.54502e-18
7310.58471 8.62001e-18
7312.24230 8.39589e-18
7313.89989 8.17180e-18
7315.56752 7.99968e-18
7317.22511 7.82769e-18
7318.88270 8.06859e-18
7320.54029 8.30941e-18
7322.20793 8.23361e-18
7323.86552 8.15780e-18
7325.52311 8.04686e-18
7327.19074 7.93593e-18
7328.84833 7.82342e-18
7330.50592 7.71096e-18
7332.16351 7.75021e-18
7333.83115 7.78944e-18
7335.48874 7.79715e-18
7337.14633 7.80486e-18
7338.80392 7.81128e-18
7340.47156 7.81775e-18
7342.12915 8.02264e-18
7343.78674 8.22748e-18
7345.45437 8.31510e-18
7347.11196 8.40264e-18
7348.76955 8.16223e-18
7350.42714 7.92187e-18
7352.09478 7.84068e-18
7353.75237 7.75956e-18
7355.40996 7.92563e-18
7357.06755 8.09162e-18
7358.73518 7.99567e-18
7360.39277 7.89968e-18
7362.05036 7.62837e-18
7363.71800 7.35718e-18
7365.37559 7.49438e-18
7367.03318 7.63157e-18
7368.69077 7.75042e-18
7370.35841 7.86917e-18
7372.01600 7.67481e-18
7373.67359 7.48050e-18
7375.33118 7.49768e-18
7376.99881 7.51485e-18
7378.65640 7.49520e-18
7380.31399 7.47560e-18
7381.98163 7.64584e-18
7383.63922 7.81601e-18
7385.29681 7.76065e-18
7386.95440 7.70529e-18
7388.62203 7.67072e-18
7390.27962 7.63621e-18
7391.93721 7.82563e-18
7393.60485 8.01493e-18
7395.26244 7.81532e-18
7396.92003 7.61578e-18
7398.57762 7.63790e-18
7400.24526 7.65997e-18
7401.90285 7.51503e-18
7403.56044 7.37012e-18
7405.21803 7.30824e-18
7406.88566 7.24639e-18
7408.54325 7.31255e-18
7410.20084 7.37872e-18
7411.86848 7.51143e-18
7413.52607 7.64409e-18
7415.18366 7.62669e-18
7416.84125 7.60923e-18
7418.50888 7.39333e-18
7420.16647 7.17753e-18
7421.82406 7.31835e-18
7423.48165 7.45915e-18
7425.14929 7.52380e-18
7426.80688 7.58843e-18
7428.46447 7.56391e-18
7430.13211 7.53934e-18
7431.78970 7.36120e-18
7433.44729 7.18310e-18
7435.10488 7.12365e-18
7436.77251 7.06427e-18
7438.43010 7.21869e-18
7440.08769 7.37304e-18
7441.74528 7.27619e-18
7443.41292 7.17938e-18
7445.07051 7.18750e-18
7446.72810 7.19563e-18
7448.39573 7.27989e-18
7450.05332 7.36413e-18
7451.71091 7.36206e-18
7453.36850 7.36000e-18
7455.03614 7.38274e-18
7456.69373 7.40550e-18
7458.35132 7.49268e-18
7460.00891 7.57984e-18
7461.67655 7.59339e-18
7463.33414 7.60693e-18
7464.99173 7.56356e-18
7466.65936 7.52014e-18
7468.31695 7.25334e-18
7469.97454 6.98662e-18
7471.63213 6.96221e-18
7473.29977 6.93785e-18
7474.95736 7.06462e-18
7476.61495 7.19134e-18
7478.28258 7.18348e-18
7479.94017 7.17558e-18
7481.59776 7.03030e-18
7483.25535 6.88509e-18
7484.92299 7.02568e-18
7486.58058 7.16625e-18
7488.23817 7.22569e-18
7489.89576 7.28513e-18
7491.56340 7.35579e-18
7493.22099 7.42639e-18
7494.87858 7.32422e-18
7496.54621 7.22206e-18
7498.20380 7.13302e-18
7499.86139 7.04395e-18
7501.51898 6.87469e-18
7503.18662 6.70550e-18
7504.84421 6.75456e-18
7506.50180 6.80361e-18
7508.16943 6.83783e-18
7509.82702 6.87204e-18
7511.48461 6.83786e-18
7513.14220 6.80374e-18
7514.80984 6.96345e-18
7516.46743 7.12306e-18
7518.12502 6.93527e-18
7519.78261 6.74756e-18
7521.45025 6.81667e-18
7523.10784 6.88578e-18
7524.76543 6.94958e-18
7526.43306 7.01336e-18
7528.09065 6.98882e-18
7529.74824 6.96424e-18
7531.40583 6.79337e-18
7533.07347 6.62259e-18
7534.73106 6.74085e-18
7536.38865 6.85907e-18
7538.04624 6.89202e-18
7539.71387 6.92494e-18
7541.37146 6.90248e-18
7543.02905 6.87997e-18
7544.69669 6.71024e-18
7546.35428 6.54059e-18
7548.01187 6.64101e-18
7549.66946 6.74142e-18
7551.33710 6.73061e-18
7552.99469 6.71980e-18
7554.65228 6.70899e-18
7556.30987 6.69819e-18
7557.97750 6.68738e-18
7559.63509 6.67658e-18
7561.29268 6.66577e-18
7562.96032 6.65497e-18
7564.61791 6.64416e-18
7566.27550 6.63336e-18
7567.93309 6.62255e-18
7569.60072 6.61175e-18
7571.25831 6.60094e-18
7572.91590 6.59014e-18
7574.58354 6.57934e-18
7576.24113 6.56853e-18
7577.89872 6.55773e-18
7579.55631 6.54693e-18
7581.22395 6.53613e-18
7582.88154 6.52533e-18
7584.53913 6.51453e-18
7586.19672 6.50372e-18
7587.86435 6.49293e-18
7589.52194 6.48212e-18
7591.17953 6.47132e-18
7592.84717 6.46053e-18
7594.50476 6.44972e-18
7596.16235 6.43893e-18
7597.81994 6.42813e-18
7599.48757 6.41733e-18
7601.14516 6.40653e-18
7602.80275 6.39573e-18
7604.46034 6.38493e-18
7606.12798 6.37414e-18
7607.78557 6.36334e-18
7609.44316 6.35255e-18
7611.11080 6.34175e-18
7612.76839 6.33095e-18
7614.42598 6.32016e-18
7616.08357 6.30936e-18
7617.75120 6.29857e-18
7619.40879 6.28777e-18
7621.06638 6.27698e-18
7622.72397 6.26618e-18
7624.39161 6.25539e-18
7626.04920 6.24459e-18
7627.70679 6.23380e-18
7629.37442 6.22301e-18
7631.03201 6.21222e-18
7632.68960 6.20142e-18
7634.34719 6.19064e-18
7636.01483 6.17984e-18
7637.67242 6.16905e-18
7639.33001 6.15826e-18
7640.99765 6.14747e-18
7642.65524 6.13668e-18
7644.31283 6.12589e-18
7645.97042 6.11510e-18
7647.63805 6.10431e-18
7649.29564 6.09352e-18
7650.95323 6.08273e-18
7652.61082 6.07194e-18
7654.27846 6.06115e-18
7655.93605 6.05037e-18
7657.59364 6.03958e-18
7659.26127 6.02879e-18
7660.91886 6.01801e-18
7662.57645 6.00722e-18
7664.23404 5.99643e-18
7665.90168 5.98565e-18
7667.55927 5.97486e-18
7669.21686 5.96407e-18
7670.87445 5.95329e-18
7672.54209 5.94251e-18
7674.19968 5.93172e-18
7675.85727 5.92094e-18
7677.52490 5.91016e-18
7679.18249 5.89937e-18
7680.84008 5.88859e-18
7682.49767 5.75653e-18
7684.16531 5.74297e-18
7685.82290 5.72950e-18
7687.48049 6.01776e-18
7689.13808 6.30589e-18
7690.80571 6.19245e-18
7692.46330 6.07904e-18
7694.12089 6.09660e-18
7695.78853 6.11413e-18
7697.44612 6.04919e-18
7699.10371 5.98433e-18
7700.76130 6.17964e-18
7702.42894 6.37482e-18
7704.08653 6.13997e-18
7705.74412 5.90523e-18
7707.40171 6.05667e-18
7709.06934 6.20805e-18
7710.72693 6.18333e-18
7712.38452 6.15864e-18
7714.05216 6.24644e-18
7715.70975 6.33417e-18
7717.36734 6.20124e-18
7719.02493 6.06838e-18
7720.69256 6.17247e-18
7722.35015 6.27648e-18
7724.00774 6.11084e-18
7725.67538 5.94521e-18
7727.33297 5.81583e-18
7728.99056 5.68654e-18
7730.64815 5.86266e-18
7732.31579 6.03874e-18
7733.97338 6.08983e-18
7735.63097 6.14087e-18
7737.28856 6.05817e-18
7738.95619 5.97550e-18
7740.61378 6.03100e-18
7742.27137 6.08649e-18
7743.93901 6.10641e-18
7745.59660 6.12637e-18
7747.25419 6.26472e-18
7748.91178 6.40295e-18
7750.57941 6.17094e-18
7752.23700 5.93898e-18
7753.89459 5.85683e-18
7755.55218 5.77476e-18
7757.21982 5.91628e-18
7758.87741 6.05786e-18
7760.53500 6.38487e-18
7762.20264 6.71173e-18
7763.86023 6.58033e-18
7765.51782 6.44898e-18
7767.17541 6.47665e-18
7768.84304 6.50429e-18
7770.50063 6.47032e-18
7772.15822 6.43634e-18
7773.81581 6.38308e-18
7775.48345 6.32981e-18
7777.14104 6.26138e-18
7778.79863 6.19301e-18
7780.46626 6.29052e-18
7782.12385 6.38797e-18
7783.78144 6.25975e-18
7785.43903 6.13163e-18
7787.10667 6.29543e-18
7788.76426 6.45920e-18
7790.42185 6.56278e-18
7792.07944 6.66631e-18
7793.74708 6.60120e-18
7795.40467 6.53613e-18
7797.06226 6.57774e-18
7798.72989 6.61936e-18
7800.38748 6.66014e-18
7802.04507 6.70088e-18
7803.70266 6.64637e-18
7805.37030 6.59189e-18
7807.02789 6.62457e-18
7808.68548 6.65721e-18
7810.35311 6.56576e-18
7812.01070 6.47442e-18
7813.66829 6.74308e-18
7815.32588 7.01160e-18
7816.99352 6.85034e-18
7818.65111 6.68912e-18
7820.30870 6.64006e-18
7821.96629 6.59098e-18
7823.63393 6.44144e-18
7825.29152 6.29195e-18
7826.94911 6.29382e-18
7828.61674 6.29568e-18
7830.27433 6.25981e-18
7831.93192 6.22398e-18
7833.58951 6.32984e-18
7835.25715 6.43571e-18
7836.91474 6.56705e-18
7838.57233 6.69826e-18
7840.22992 6.43135e-18
7841.89755 6.16457e-18
7843.55514 6.28884e-18
7845.21273 6.41306e-18
7846.88037 6.39862e-18
7848.53796 6.38421e-18
7850.19555 6.52567e-18
7851.85314 6.66718e-18
7853.52078 7.02332e-18
7855.17837 7.37929e-18
7856.83596 7.17254e-18
7858.50359 6.96581e-18
7860.16118 6.79567e-18
7861.81877 6.62565e-18
7863.47636 6.82740e-18
7865.14400 7.02904e-18
7866.80159 6.86842e-18
7868.45918 6.70788e-18
7870.11677 6.79278e-18
7871.78440 6.87761e-18
7873.44199 6.76220e-18
7875.09958 6.64682e-18
7876.76722 6.64213e-18
7878.42481 6.63747e-18
7880.08240 6.72750e-18
7881.73999 6.81746e-18
7883.40763 6.67882e-18
7885.06522 6.54030e-18
7886.72281 6.78707e-18
7888.38040 7.03374e-18
7890.04803 6.95576e-18
7891.70562 6.87774e-18
7893.36321 6.65185e-18
7895.03085 6.42603e-18
7896.68844 6.38188e-18
7898.34603 6.33773e-18
7900.00362 6.31047e-18
7901.67125 6.28327e-18
7903.32884 6.43860e-18
7904.98643 6.59388e-18
7906.64402 6.59554e-18
7908.31166 6.59718e-18
7909.96925 6.52044e-18
7911.62684 6.44368e-18
7913.29448 6.27208e-18
7914.95207 6.10061e-18
7916.60966 6.32396e-18
7918.26725 6.54720e-18
7919.93488 6.42573e-18
7921.59247 6.30437e-18
7923.25006 6.50572e-18
7924.90765 6.70700e-18
7926.57529 6.69201e-18
7928.23288 6.67697e-18
7929.89047 6.50488e-18
7931.55810 6.33281e-18
7933.21569 6.23951e-18
7934.87328 6.14627e-18
7936.53087 6.24591e-18
7938.19851 6.34547e-18
7939.85610 6.20303e-18
7941.51369 6.06066e-18
7943.18133 6.14719e-18
7944.83892 6.23378e-18
7946.49651 6.51289e-18
7948.15410 6.79184e-18
7949.82173 6.57321e-18
7951.47932 6.35457e-18
7953.13691 6.11411e-18
7954.79450 5.87382e-18
7956.46214 6.11737e-18
7958.11973 6.36075e-18
7959.77732 6.07544e-18
7961.44495 5.79028e-18
7963.10254 5.98489e-18
7964.76013 6.17943e-18
7966.41772 6.14544e-18
7968.08536 6.11146e-18
7969.74295 6.13152e-18
7971.40054 6.15159e-18
7973.05813 6.22367e-18
7974.72577 6.29567e-18
7976.38336 6.10400e-18
7978.04095 5.91237e-18
7979.70858 5.81822e-18
7981.36617 5.72418e-18
7983.02376 5.94491e-18
7984.68135 6.16558e-18
7986.34899 6.23153e-18
7988.00658 6.29741e-18
7989.66417 6.18637e-18
7991.33180 6.07539e-18
7992.98939 6.18868e-18
7994.64698 6.30183e-18
7996.30457 6.02190e-18
7997.97221 5.74214e-18
7999.62980 5.95508e-18
8001.28739 6.16789e-18
8002.94498 6.00926e-18
8004.61262 5.85068e-18
8006.27021 5.79848e-18
8007.92780 5.74639e-18
8009.59543 6.00847e-18
8011.25302 6.27038e-18
8012.91061 6.05320e-18
8014.56820 5.83610e-18
8016.23584 5.85780e-18
8017.89343 5.87952e-18
8019.55102 5.97637e-18
8021.20861 6.07319e-18
8022.87624 6.07834e-18
8024.53383 6.08343e-18
8026.19142 5.94235e-18
8027.85906 5.80129e-18
8029.51665 5.74619e-18
8031.17424 5.69108e-18
8032.83183 5.58657e-18
8034.49947 5.48215e-18
8036.15706 5.66464e-18
8037.81465 5.84706e-18
8039.47224 5.84594e-18
8041.13987 5.84480e-18
8042.79746 5.77366e-18
8044.45505 5.70253e-18
8046.12269 5.62436e-18
8047.78028 5.54625e-18
8049.43787 5.67663e-18
8051.09546 5.80695e-18
8052.76309 5.76719e-18
8054.42068 5.72740e-18
8056.07827 5.59578e-18
8057.73586 5.46423e-18
8059.40350 5.54165e-18
8061.06109 5.61906e-18
8062.71868 5.64311e-18
8064.38632 5.66710e-18
8066.04391 5.51777e-18
8067.70150 5.36848e-18
8069.35909 5.31872e-18
8071.02672 5.26901e-18
8072.68431 5.35645e-18
8074.34190 5.44390e-18
8076.00954 5.52972e-18
8077.66713 5.61551e-18
8079.32472 5.60400e-18
8080.98231 5.59243e-18
8082.64994 5.39445e-18
8084.30753 5.19649e-18
8085.96512 5.09953e-18
8087.62271 5.00261e-18
8089.29035 5.06177e-18
8090.94794 5.12094e-18
8092.60553 5.18610e-18
8094.27317 5.25125e-18
8095.93076 5.25467e-18
8097.58835 5.25809e-18
8099.24594 5.25331e-18
8100.91357 5.24855e-18
8102.57116 5.29061e-18
8104.22875 5.33262e-18
8105.88634 5.23992e-18
8107.55398 5.14728e-18
8109.21157 5.22664e-18
8110.86916 5.30591e-18
8112.53679 5.11019e-18
8114.19438 4.91460e-18
8115.85197 5.08006e-18
8117.50956 5.24553e-18
8119.17720 5.45202e-18
8120.83479 5.65837e-18
8122.49238 5.47025e-18
8124.16002 5.28211e-18
8125.81761 5.01029e-18
8127.47520 4.73859e-18
8129.13279 4.80717e-18
8130.80042 4.87577e-18
8132.45801 5.03221e-18
8134.11560 5.18859e-18
8135.77319 5.20968e-18
8137.44083 5.23077e-18
8139.09842 5.26176e-18
8140.75601 5.29272e-18
8142.41360 5.23722e-18
8144.08123 5.18169e-18
8145.73882 4.99635e-18
8147.39641 4.81114e-18
8149.06405 5.00087e-18
8150.72164 5.19051e-18
8152.37923 5.15335e-18
8154.03682 5.11614e-18
8155.70446 4.92548e-18
8157.36205 4.73493e-18
8159.01964 4.85760e-18
8160.68727 4.98024e-18
8162.34486 5.04384e-18
8164.00245 5.10736e-18
8165.66004 4.95524e-18
8167.32768 4.80325e-18
8168.98527 5.05183e-18
8170.64286 5.30031e-18
8172.30045 5.29081e-18
8173.96808 5.28117e-18
8175.62567 4.85970e-18
8177.28326 4.43842e-18
8178.95090 4.56443e-18
8180.60849 4.69046e-18
8182.26608 4.85699e-18
8183.92367 5.02348e-18
8185.59131 5.10130e-18
8187.24890 5.17899e-18
8188.90649 4.86201e-18
8190.56408 4.54516e-18
8192.23171 4.59359e-18
8193.88930 4.64208e-18
8195.54689 4.88113e-18
8197.21453 5.12009e-18
8198.87212 5.11995e-18
8200.52971 5.11977e-18
8202.18730 5.01676e-18
8203.85493 4.91379e-18
8205.51252 4.93346e-18
8207.17011 4.95313e-18
8208.82770 4.97704e-18
8210.49534 5.00085e-18
8212.15293 4.73015e-18
8213.81052 4.45958e-18
8215.47816 4.58543e-18
8217.13575 4.71120e-18
8218.79334 4.59621e-18
8220.45093 4.48132e-18
8222.11856 4.66499e-18
8223.77615 4.84856e-18
8225.43374 4.72286e-18
8227.09133 4.59725e-18
8228.75897 4.69886e-18
8230.41656 4.80041e-18
8232.07415 4.71169e-18
8233.74178 4.62300e-18
8235.39937 4.61943e-18
8237.05696 4.61584e-18
8238.71455 4.51816e-18
8240.38219 4.42050e-18
8242.03978 4.33217e-18
8243.69737 4.24396e-18
8245.36501 4.50456e-18
8247.02260 4.76505e-18
8248.68019 4.70228e-18
8250.33778 4.63954e-18
8252.00541 4.65769e-18
8253.66300 4.67572e-18
8255.32059 4.33890e-18
8256.97818 4.00231e-18
8258.64582 4.28212e-18
8260.30341 4.56185e-18
8261.96100 4.63805e-18
8263.62863 4.71419e-18
8265.28622 4.62520e-18
8266.94381 4.53620e-18
8268.60140 4.38755e-18
8270.26904 4.23896e-18
8271.92663 4.22470e-18
8273.58422 4.21046e-18
8275.25186 4.25849e-18
8276.90945 4.30647e-18
8278.56704 4.23794e-18
8280.22463 4.16941e-18
8281.89226 4.07404e-18
8283.54985 3.97874e-18
8285.20744 4.09094e-18
8286.86503 4.20307e-18
8288.53267 4.13052e-18
8290.19026 4.05802e-18
8291.84785 4.13720e-18
8293.51548 4.21638e-18
8295.17307 4.28400e-18
8296.83066 4.35159e-18
8298.48825 4.31450e-18
8300.15589 4.27735e-18
8301.81348 4.07328e-18
8303.47107 3.86930e-18
8305.12866 3.92254e-18
8306.79630 3.97574e-18
8308.45389 3.94070e-18
8310.11148 3.90565e-18
8311.77911 3.83083e-18
8313.43670 3.75605e-18
8315.09429 3.82962e-18
8316.75188 3.90319e-18
8318.41952 4.02113e-18
8320.07711 4.13901e-18
8321.73470 4.06020e-18
8323.40233 3.98135e-18
8325.05992 3.75479e-18
8326.71751 3.52836e-18
8328.37510 3.61582e-18
8330.04274 3.70329e-18
8331.70033 3.78420e-18
8333.35792 3.86509e-18
8335.01551 3.87904e-18
8336.68315 3.89300e-18
8338.34074 3.92245e-18
8339.99833 3.95191e-18
8341.65592 4.01543e-18
8343.32355 4.07900e-18
8344.98114 4.25822e-18
8346.63873 4.43734e-18
8348.30637 4.32591e-18
8349.96396 4.21444e-18
8351.62155 3.98356e-18
8353.27914 3.75278e-18
8354.94677 3.80603e-18
8356.60436 3.85929e-18
8358.26195 3.97890e-18
8359.92959 4.09846e-18
8361.58718 4.07691e-18
8363.24477 4.05532e-18
8364.90236 3.93667e-18
8366.57000 3.81803e-18
8368.22759 3.73315e-18
8369.88518 3.64836e-18
8371.54277 3.81626e-18
8373.21040 3.98401e-18
8374.86799 3.73042e-18
8376.52558 3.47700e-18
8378.19322 3.71564e-18
8379.85081 3.95416e-18
8381.50840 3.83091e-18
8383.16599 3.70772e-18
8384.83362 3.77691e-18
8386.49121 3.84601e-18
8388.14880 3.68425e-18
8389.81644 3.52260e-18
8391.47403 3.68787e-18
8393.13162 3.85313e-18
8394.78921 3.99990e-18
8396.45685 4.14659e-18
8398.11444 4.06293e-18
8399.77203 3.97928e-18
8401.42962 3.90969e-18
8403.09725 3.84015e-18
8404.75484 3.90852e-18
8406.41243 3.97694e-18
8408.08007 4.17358e-18
8409.73766 4.37009e-18
8411.39525 4.19517e-18
8413.05284 4.02031e-18
8414.72047 4.03238e-18
8416.37806 4.04440e-18
8418.03565 3.93267e-18
8419.69324 3.82098e-18
8421.36088 3.79573e-18
8423.01847 3.77051e-18
8424.67606 3.81933e-18
8426.34370 3.86806e-18
8428.00129 3.63476e-18
8429.65888 3.40162e-18
8431.31647 3.59247e-18
8432.98410 3.78330e-18
8434.64169 3.92675e-18
8436.29928 4.07013e-18
8437.95687 4.03847e-18
8439.62451 4.00681e-18
8441.28210 3.95119e-18
8442.93969 3.89551e-18
8444.60732 3.65282e-18
8446.26491 3.41025e-18
8447.92250 3.50256e-18
8449.58009 3.59490e-18
8451.24773 3.80572e-18
8452.90532 4.01648e-18
8454.56291 4.08232e-18
8456.22050 4.14808e-18
8457.88814 3.99331e-18
8459.54573 3.83857e-18
8461.20332 3.76423e-18
8462.87095 3.68994e-18
8464.52854 3.75228e-18
8466.18613 3.81459e-18
8467.84372 3.82870e-18
8469.51136 3.84280e-18
8471.16895 3.83124e-18
8472.82654 3.81966e-18
8474.48413 3.78881e-18
8476.15176 3.75801e-18
8477.80935 3.83951e-18
8479.46694 3.92107e-18
8481.13458 4.15719e-18
8482.79217 4.39315e-18
8484.44976 4.20194e-18
8486.10735 4.01080e-18
8487.77499 4.00045e-18
8489.43258 3.99019e-18
8491.09017 4.23340e-18
8492.75780 4.47645e-18
8494.41539 4.27995e-18
8496.07298 4.08353e-18
8497.73057 4.12786e-18
8499.39821 4.17217e-18
8501.05580 4.18371e-18
8502.71339 4.19525e-18
8504.37098 4.19061e-18
8506.03861 4.18596e-18
8507.69620 4.16407e-18
8509.35379 4.14220e-18
8511.01138 4.19274e-18
8512.67902 4.24324e-18
8514.33661 4.19337e-18
8515.99420 4.14356e-18
8517.66184 4.26667e-18
8519.31943 4.38970e-18
8520.97702 4.27377e-18
8522.63461 4.15785e-18
8524.30224 4.06731e-18
8525.95983 3.97688e-18
8527.61742 4.19679e-18
8529.28506 4.41666e-18
8530.94265 4.56890e-18
8532.60024 4.72101e-18
8534.25783 4.48610e-18
8535.92546 4.25135e-18
8537.58305 4.47216e-18
8539.24064 4.69284e-18
8540.89823 4.55839e-18
8542.56587 4.42400e-18
8544.22346 4.41268e-18
8545.88105 4.40137e-18
8547.54869 4.41442e-18
8549.20628 4.42754e-18
8550.86387 4.64099e-18
8552.52146 4.85436e-18
8554.18909 4.85143e-18
8555.84668 4.84855e-18
8557.50427 4.96613e-18
8559.17191 5.08362e-18
8560.82950 4.97304e-18
8562.48709 4.86248e-18
8564.14468 4.77595e-18
8565.81231 4.68951e-18
8567.46990 4.83666e-18
8569.12749 4.98375e-18
8570.78508 4.97083e-18
8572.45272 4.95786e-18
8574.11031 4.80409e-18
8575.76790 4.65033e-18
8577.43554 4.55437e-18
8579.09313 4.45848e-18
8580.75072 4.57904e-18
8582.40831 4.69952e-18
8584.07594 4.64791e-18
8585.73353 4.59635e-18
8587.39112 4.71090e-18
8589.04871 4.82546e-18
8590.71635 4.95841e-18
8592.37394 5.09126e-18
8594.03153 4.95231e-18
8595.69916 4.81339e-18
8597.35675 4.73519e-18
8599.01434 4.65704e-18
8600.67193 4.69485e-18
8602.33957 4.73273e-18
8603.99716 4.96064e-18
8605.65475 5.18842e-18
8607.32239 5.09884e-18
8608.97998 5.00923e-18
8610.63757 4.87611e-18
8612.29516 4.74304e-18
8613.96279 4.75350e-18
8615.62038 4.76396e-18
8617.27797 4.78416e-18
8618.93556 4.80435e-18
8620.60320 4.78655e-18
8622.26079 4.76882e-18
8623.91838 4.97805e-18
8625.58601 5.18724e-18
8627.24360 5.28222e-18
8628.90119 5.37710e-18
8630.55878 5.22224e-18
8632.22642 5.06741e-18
8633.88401 4.96780e-18
8635.54160 4.86830e-18
8637.20924 5.04654e-18
8638.86683 5.22475e-18
8640.52442 5.30573e-18
8642.18201 5.38656e-18
8643.84964 5.03437e-18
8645.50723 4.68233e-18
8647.16482 4.74108e-18
8648.82241 4.79988e-18
8650.49005 5.02847e-18
8652.14764 5.25696e-18
8653.80523 5.25673e-18
8655.46282 5.25646e-18
8657.13045 5.16896e-18
8658.78804 5.08153e-18
8660.44563 5.16855e-18
8662.11327 5.25546e-18
8663.77086 5.06491e-18
8665.42845 4.87444e-18
8667.08604 4.91887e-18
8668.75368 4.96327e-18
8670.41127 4.94828e-18
8672.06886 4.93331e-18
8673.73649 4.98600e-18
8675.39408 5.03862e-18
8677.05167 4.91597e-18
8678.70926 4.79340e-18
8680.37690 4.88290e-18
8682.03449 4.97237e-18
8683.69208 5.01223e-18
8685.34967 5.05200e-18
8687.01730 4.88085e-18
8688.67489 4.70982e-18
8690.33248 4.87100e-18
8691.99007 5.03214e-18
8693.65771 5.09345e-18
8695.31530 5.15468e-18
8696.97289 5.02885e-18
8698.64053 4.90308e-18
8700.29812 4.93612e-18
8701.95571 4.96918e-18
8703.61330 5.06232e-18
8705.28093 5.15539e-18
8706.93852 5.06804e-18
8708.59611 4.98068e-18
8710.26375 4.89325e-18
8711.92134 4.80591e-18
8713.57893 4.91834e-18
8715.23652 5.03071e-18
8716.90415 4.96890e-18
8718.56174 4.90708e-18
8720.21933 4.82510e-18
8721.87692 4.74315e-18
8723.54456 4.77356e-18
8725.20215 4.80400e-18
8726.85974 4.89372e-18
8728.52738 4.98345e-18
8730.18497 5.10574e-18
8731.84256 5.22792e-18
8733.50015 5.08120e-18
8735.16778 4.93458e-18
8736.82537 5.03038e-18
8738.48296 5.12611e-18
8740.14055 5.01399e-18
8741.80819 4.90195e-18
8743.46578 5.01120e-18
8745.12337 5.12032e-18
8746.79100 4.87525e-18
8748.44859 4.63031e-18
8750.10618 4.71953e-18
8751.76377 4.80885e-18
8753.43141 5.16000e-18
8755.08900 5.51102e-18
8756.74659 5.54397e-18
8758.40418 5.57676e-18
8760.07182 5.19481e-18
8761.72941 4.81298e-18
8763.38700 4.76067e-18
8765.05463 4.70840e-18
8766.71222 4.77362e-18
8768.36981 4.83879e-18
8770.02740 4.76465e-18
8771.69504 4.69055e-18
8773.35263 4.69966e-18
8775.01022 4.70875e-18
8776.67785 4.69132e-18
8778.33544 4.67389e-18
8779.99303 4.67081e-18
8781.65062 4.66775e-18
8783.31826 4.72046e-18
8784.97585 4.77307e-18
8786.63344 4.55912e-18
8788.29103 4.34522e-18
8789.95867 4.25880e-18
8791.61626 4.17251e-18
8793.27385 4.45722e-18
8794.94148 4.74177e-18
8796.59907 4.60567e-18
8798.25666 4.46962e-18
8799.91425 4.44234e-18
8801.58189 4.41506e-18
8803.23948 4.39149e-18
8804.89707 4.36792e-18
8806.56470 4.38339e-18
8808.22229 4.39887e-18
8809.87988 4.47139e-18
8811.53747 4.54389e-18
8813.20511 4.55466e-18
8814.86270 4.56544e-18
8816.52029 4.62140e-18
8818.17788 4.67734e-18
8819.84552 4.70158e-18
8821.50311 4.72582e-18
8823.16070 4.71817e-18
8824.82833 4.71053e-18
8826.48592 4.70667e-18
8828.14351 4.70264e-18
8829.80110 4.29130e-18
8831.46874 3.88026e-18
8833.12633 4.24808e-18
8834.78392 4.61572e-18
8836.44151 4.52821e-18
8838.10914 4.44074e-18
8839.76673 4.43371e-18
8841.42432 4.42666e-18
8843.09196 4.34483e-18
8844.74955 4.26303e-18
8846.40714 4.25772e-18
8848.06473 4.25242e-18
8849.73237 4.25409e-18
8851.38996 4.25580e-18
8853.04755 4.35730e-18
8854.71518 4.45870e-18
8856.37277 4.33447e-18
8858.03036 4.21026e-18
8859.68795 4.12452e-18
8861.35559 4.03881e-18
8863.01318 4.03096e-18
8864.67077 4.02314e-18
8866.32836 4.08750e-18
8867.99599 4.15188e-18
8869.65358 4.24759e-18
8871.31117 4.34327e-18
8872.97881 4.33870e-18
8874.63640 4.33407e-18
8876.29399 4.17781e-18
8877.95158 4.02166e-18
8879.61922 4.14897e-18
8881.27681 4.27620e-18
8882.93440 4.23219e-18
8884.60203 4.18825e-18
8886.25962 4.30517e-18
8887.91721 4.42206e-18
8889.57480 4.44349e-18
8891.24244 4.46482e-18
8892.90003 4.22616e-18
8894.55762 3.98762e-18
8896.21521 4.07475e-18
8897.88284 4.16185e-18
8899.54043 4.16310e-18
8901.19802 4.16433e-18
8902.85561 4.13990e-18
8904.52325 4.11547e-18
8906.18084 4.09947e-18
8907.83843 4.08342e-18
8909.50607 3.91458e-18
8911.16366 3.74583e-18
8912.82125 3.78841e-18
8914.47884 3.83093e-18
8916.14647 3.70945e-18
8917.80406 3.58810e-18
8919.46165 3.75873e-18
8921.11924 3.92927e-18
8922.78688 3.87787e-18
8924.44447 3.82660e-18
8926.10206 4.11773e-18
8927.76969 4.40872e-18
8929.42728 4.36278e-18
8931.08487 4.31670e-18
8932.74246 3.93547e-18
8934.41010 3.55439e-18
8936.06769 3.53395e-18
8937.72528 3.51360e-18
8939.38287 3.72921e-18
8941.05051 3.94463e-18
8942.70810 3.69176e-18
8944.36569 3.43901e-18
8946.03332 3.50741e-18
8947.69091 3.57573e-18
8949.34850 3.48748e-18
8951.00609 3.39932e-18
8952.67373 3.55494e-18
8954.33132 3.71040e-18
8955.98891 3.45093e-18
8957.64650 3.19163e-18
8959.31413 3.33509e-18
8960.97172 3.47852e-18
8962.62931 3.58148e-18
8964.29695 3.68445e-18
8965.95454 3.83680e-18
8967.61213 3.98903e-18
8969.26972 3.88170e-18
8970.93736 3.77440e-18
8972.59495 3.75631e-18
8974.25254 3.73821e-18
8975.92017 3.70650e-18
8977.57776 3.67477e-18
8979.23535 3.58274e-18
8980.89294 3.49079e-18
8982.56058 3.57291e-18
8984.21817 3.65503e-18
8985.87576 3.75924e-18
8987.53335 3.86334e-18
8989.20098 3.69385e-18
8990.85857 3.52441e-18
8992.51616 3.46808e-18
8994.18380 3.41179e-18
8995.84139 3.48254e-18
8997.49898 3.55328e-18
8999.15657 3.61913e-18
9000.82421 3.68501e-18
9002.48180 3.80182e-18
9004.13939 3.91857e-18
9005.79698 3.87062e-18
9007.46461 3.82268e-18
9009.12220 3.79833e-18
9010.77979 3.77403e-18
9012.44743 3.88202e-18
9014.10502 3.98990e-18
9015.76261 3.79014e-18
9017.42020 3.59049e-18
9019.08783 3.62748e-18
9020.74542 3.66441e-18
9022.40301 3.56127e-18
9024.07065 3.45817e-18
9025.72824 3.48848e-18
9027.38583 3.51880e-18
9029.04342 3.59257e-18
9030.71106 3.66637e-18
9032.36865 3.82540e-18
9034.02624 3.98428e-18
9035.68383 3.77448e-18
9037.35146 3.56474e-18
9039.00905 3.49992e-18
9040.66664 3.43517e-18
9042.33428 3.55578e-18
9043.99187 3.67628e-18
9045.64946 3.51300e-18
9047.30705 3.34972e-18
9048.97468 3.17759e-18
9050.63227 3.00564e-18
9052.28986 3.27050e-18
9053.95750 3.53527e-18
9055.61509 3.57414e-18
9057.27268 3.61291e-18
9058.93027 3.41930e-18
9060.59791 3.22575e-18
9062.25550 3.18424e-18
9063.91309 3.14277e-18
9065.57068 3.18414e-18
9067.23831 3.22545e-18
9068.89590 3.08797e-18
9070.55349 2.95061e-18
9072.21108 3.10374e-18
9073.87872 3.25680e-18
9075.53631 3.25926e-18
9077.19390 3.26173e-18
9078.86153 3.29254e-18
9080.51912 3.32322e-18
9082.17671 3.06004e-18
9083.83430 2.79705e-18
9085.50194 2.99101e-18
9087.15953 3.18494e-18
9088.81712 3.30909e-18
9090.48476 3.43313e-18
9092.14235 3.31627e-18
9093.79994 3.19960e-18
9095.45753 3.42907e-18
9097.12516 3.65834e-18
9098.78275 3.40696e-18
9100.44034 3.15576e-18
9102.09793 3.31227e-18
9103.76557 3.46885e-18
9105.42316 3.77666e-18
9107.08075 4.08427e-18
9108.74838 3.92085e-18
9110.40597 3.75742e-18
9112.06356 3.53683e-18
9113.72115 3.31632e-18
9115.38879 3.25116e-18
9117.04638 3.18607e-18
9118.70397 3.26185e-18
9120.36156 3.33759e-18
9122.02920 3.29861e-18
9123.68679 3.25967e-18
9125.34438 3.33471e-18
9127.01201 3.40974e-18
9128.66960 3.50781e-18
9130.32719 3.60585e-18
9131.98478 3.65598e-18
9133.65242 3.70609e-18
9135.31001 3.69939e-18
9136.96760 3.69271e-18
9138.63523 3.75648e-18
9140.29282 3.82018e-18
9141.95041 3.69791e-18
9143.60800 3.57570e-18
9145.27564 3.60307e-18
9146.93323 3.63040e-18
9148.59082 3.57823e-18
9150.24841 3.52602e-18
9151.91605 3.38061e-18
9153.57364 3.23536e-18
9155.23123 3.49519e-18
9156.89886 3.75491e-18
9158.55645 3.78314e-18
9160.21404 3.81132e-18
9161.87163 3.74381e-18
9163.53927 3.67624e-18
9165.19686 3.46990e-18
9166.85445 3.26370e-18
9168.51204 3.41077e-18
9170.17967 3.55779e-18
9171.83726 3.56366e-18
9173.49485 3.56952e-18
9175.15244 3.52968e-18
9176.82008 3.48993e-18
9178.47767 3.67468e-18
9180.13526 3.85938e-18
9181.80290 3.91352e-18
9183.46049 3.96761e-18
9185.11808 3.89680e-18
9186.77567 3.82604e-18
9188.44330 3.87127e-18
9190.10089 3.91645e-18
9191.75848 3.86196e-18
9193.42612 3.80743e-18
9195.08371 3.65131e-18
9196.74130 3.49534e-18
9198.39889 3.72045e-18
9200.06652 3.94547e-18
9201.72411 3.95381e-18
9203.38170 3.96206e-18
9205.03929 3.77670e-18
9206.70693 3.59141e-18
9208.36452 3.58652e-18
9210.02211 3.58170e-18
9211.68975 3.73821e-18
9213.34734 3.89463e-18
9215.00493 3.85158e-18
9216.66252 3.80852e-18
9218.33015 3.73810e-18
9219.98774 3.66768e-18
9221.64533 3.59309e-18
9223.31297 3.51855e-18
9224.97056 3.57541e-18
9226.62815 3.63217e-18
9228.28574 3.42844e-18
9229.95337 3.22492e-18
9231.61096 3.55443e-18
9233.26855 3.88385e-18
9234.92614 4.04323e-18
9236.59378 4.20244e-18
9238.25137 3.96208e-18
9239.90896 3.72178e-18
9241.56655 3.59792e-18
9243.23419 3.47421e-18
9244.89178 3.71788e-18
9246.54937 3.96137e-18
9248.21700 3.77964e-18
9249.87459 3.59800e-18
9251.53218 3.61100e-18
9253.18977 3.62397e-18
9254.85741 3.58281e-18
9256.51500 3.54169e-18
9258.17259 3.59115e-18
9259.84022 3.64062e-18
9261.49781 3.73104e-18
9263.15540 3.82140e-18
9264.81299 3.75493e-18
9266.48063 3.68839e-18
9268.13822 3.45482e-18
9269.79581 3.22146e-18
9271.45340 3.48926e-18
9273.12104 3.75689e-18
9274.77863 3.62960e-18
9276.43622 3.50243e-18
9278.10385 3.69514e-18
9279.76144 3.88768e-18
9281.41903 3.69886e-18
9283.07662 3.51013e-18
9284.74426 3.51512e-18
9286.40185 3.52014e-18
9288.05944 3.60904e-18
9289.71703 3.69779e-18
9291.38466 3.40503e-18
9293.04225 3.11243e-18
9294.69984 3.19964e-18
9296.36748 3.28687e-18
9298.02507 3.41396e-18
9299.68266 3.54099e-18
9301.34025 3.54769e-18
9303.00789 3.55437e-18
9304.66548 3.53376e-18
9306.32307 3.51310e-18
9307.99070 3.37292e-18
9309.64829 3.23277e-18
9311.30588 3.16694e-18
9312.96347 3.10117e-18
9314.63111 3.16360e-18
9316.28870 3.22593e-18
9317.94629 3.02687e-18
9319.60388 2.82779e-18
9321.27151 2.56094e-18
9322.92910 2.29433e-18
9324.58669 2.57894e-18
9326.25433 2.86344e-18
9327.91192 2.90269e-18
9329.56951 2.94196e-18
9331.22710 3.03433e-18
9332.89474 3.12660e-18
9334.55233 2.97069e-18
9336.20992 2.81487e-18
9337.87755 2.86953e-18
9339.53514 2.92418e-18
9341.19273 2.95516e-18
9342.85032 2.98621e-18
9344.51796 3.15187e-18
9346.17555 3.31748e-18
9347.83314 3.35711e-18
9349.49073 3.39655e-18
9351.15836 2.97795e-18
9352.81595 2.55951e-18
9354.47354 2.48584e-18
9356.13113 2.41237e-18
9357.79877 2.80672e-18
9359.45636 3.20089e-18
9361.11395 3.16398e-18
9362.78159 3.12716e-18
9364.43918 3.30198e-18
9366.09677 3.47672e-18
9367.75436 3.47656e-18
9369.42199 3.47639e-18
9371.07958 3.45013e-18
9372.73717 3.42368e-18
9374.40481 2.92019e-18
9376.06240 2.41693e-18
9377.71999 2.42992e-18
9379.37758 2.44299e-18
9381.04521 2.65289e-18
9382.70280 2.86270e-18
9384.36039 2.87299e-18
9386.01798 2.88327e-18
9387.68562 2.88502e-18
9389.34321 2.88675e-18
9391.00080 2.87539e-18
9392.66844 2.86410e-18
9394.32603 2.99643e-18
9395.98362 3.12865e-18
9397.64121 2.99308e-18
9399.30884 2.85757e-18
9400.96643 2.86575e-18
9402.62402 2.87394e-18
9404.28161 2.91207e-18
9405.94925 2.95015e-18
9407.60684 2.87375e-18
9409.26443 2.79745e-18
9410.93206 2.94903e-18
9412.58965 3.10055e-18
9414.24724 3.12908e-18
9415.90483 3.15755e-18
9417.57247 3.03758e-18
9419.23006 2.91766e-18
9420.88765 2.88316e-18
9422.54524 2.84862e-18
9424.21288 2.72459e-18
9425.87047 2.60076e-18
9427.52806 2.93760e-18
9429.19569 3.27420e-18
9430.85328 3.06996e-18
9432.51087 2.86577e-18
9434.16846 2.80067e-18
9435.83610 2.73544e-18
9437.49369 2.37654e-18
9439.15128 2.01773e-18
9440.80887 1.88503e-18
9442.47650 1.75264e-18
9444.13409 2.34146e-18
9445.79168 2.93002e-18
9447.45932 2.91927e-18
9449.11691 2.90855e-18
9450.77450 2.98130e-18
9452.43209 3.05394e-18
9454.09973 2.87804e-18
9455.75732 2.70214e-18
9457.41491 2.48629e-18
9459.07250 2.27057e-18
9460.74013 2.32880e-18
9462.39772 2.38709e-18
9464.05531 2.59358e-18
9465.72295 2.79986e-18
9467.38054 2.52383e-18
9469.03813 2.24801e-18
9470.69572 2.44895e-18
9472.36335 2.64990e-18
9474.02094 2.87641e-18
9475.67853 3.10288e-18
9477.34617 3.21917e-18
9479.00376 3.33535e-18
9480.66135 3.20947e-18
9482.31894 3.08365e-18
9483.98658 3.08660e-18
9485.64417 3.08947e-18
9487.30176 2.88078e-18
9488.95935 2.67217e-18
9490.62698 2.65033e-18
9492.28457 2.62848e-18
9493.94216 2.56045e-18
9495.60980 2.49260e-18
9497.26739 2.82450e-18
9498.92498 3.15620e-18
9500.58257 3.00962e-18
9502.25020 2.86312e-18
9503.90779 2.90663e-18
9505.56538 2.95016e-18
9507.23302 3.01880e-18
9508.89061 3.08731e-18
9510.54820 2.86717e-18
9512.20579 2.64708e-18
9513.87343 2.55232e-18
9515.53102 2.45757e-18
9517.18861 2.40998e-18
9518.84620 2.36254e-18
9520.51383 2.66418e-18
9522.17142 2.96560e-18
9523.82901 2.78233e-18
9525.49665 2.59918e-18
9527.15424 2.66826e-18
9528.81183 2.73727e-18
9530.46942 2.63372e-18
9532.13705 2.53027e-18
9533.79464 2.65129e-18
9535.45223 2.77226e-18
9537.10982 2.80055e-18
9538.77746 2.82885e-18
9540.43505 2.89607e-18
9542.09264 2.96325e-18
9543.76028 2.93157e-18
9545.41787 2.89980e-18
9547.07546 2.66731e-18
9548.73305 2.43487e-18
9550.40068 2.31623e-18
9552.05827 2.19789e-18
9553.71586 2.77166e-18
9555.37345 3.34506e-18
9557.04109 3.08328e-18
9558.69868 2.82159e-18
9560.35627 2.78412e-18
9562.02390 2.74672e-18
9563.68149 2.85847e-18
9565.33908 2.97010e-18
9566.99667 2.81590e-18
9568.66431 2.66178e-18
9570.32190 2.68402e-18
9571.97949 2.70629e-18
9573.64713 2.77486e-18
9575.30472 2.84330e-18
9576.96231 2.62777e-18
9578.61990 2.41234e-18
9580.28753 2.41200e-18
9581.94512 2.41170e-18
9583.60271 2.48831e-18
9585.27035 2.56485e-18
9586.92794 2.46895e-18
9588.58553 2.37308e-18
9590.24312 2.33849e-18
9591.91075 2.30401e-18
9593.56834 2.52122e-18
9595.22593 2.73829e-18
9596.88352 2.63748e-18
9598.55116 2.53679e-18
9600.20875 2.71517e-18
9601.86634 2.89347e-18
9603.52393 2.88878e-18
9605.19157 2.88414e-18
9606.84916 3.00759e-18
9608.50675 3.13084e-18
9610.17438 2.80598e-18
9611.83197 2.48126e-18
9613.48956 2.46912e-18
9615.14715 2.45697e-18
9616.81479 2.43031e-18
9618.47238 2.40368e-18
9620.12997 2.44824e-18
9621.79760 2.49281e-18
9623.45519 2.54968e-18
9625.11278 2.60655e-18
9626.77037 2.66080e-18
9628.43801 2.71505e-18
9630.09560 2.78649e-18
9631.75319 2.85789e-18
9633.41078 2.85076e-18
9635.07842 2.84369e-18
9636.73601 2.99545e-18
9638.39360 3.14705e-18
9640.06123 2.96349e-18
9641.71882 2.78004e-18
9643.37641 2.84356e-18
9645.03400 2.90693e-18
9646.70164 2.65270e-18
9648.35923 2.39866e-18
9650.01682 2.56440e-18
9651.67441 2.73005e-18
9653.34204 2.70759e-18
9654.99963 2.68506e-18
9656.65722 2.49835e-18
9658.31481 2.31177e-18
9659.98245 2.38925e-18
9661.64004 2.46682e-18
9663.29763 2.73052e-18
9664.96527 2.99395e-18
9666.62286 2.63669e-18
9668.28045 2.27968e-18
9669.93804 2.46715e-18
9671.60567 2.65462e-18
9673.26326 2.84636e-18
9674.92085 3.03803e-18
9676.58849 3.08795e-18
9678.24608 3.13778e-18
9679.90367 2.99885e-18
9681.56126 2.86013e-18
9683.22889 3.15854e-18
9684.88648 3.45672e-18
9686.54407 3.22332e-18
9688.20166 2.98987e-18
9689.86930 2.66244e-18
9691.52689 2.33531e-18
9693.18448 2.64748e-18
9694.85212 2.95953e-18
9696.50971 3.00005e-18
9698.16730 3.04065e-18
9699.82489 3.26107e-18
9701.49252 3.48110e-18
9703.15011 2.85127e-18
9704.80770 2.22179e-18
9706.46529 2.35947e-18
9708.13293 2.49712e-18
9709.79052 2.55490e-18
9711.44811 2.61254e-18
9713.11574 2.33683e-18
9714.77333 2.06137e-18
9716.43092 2.34174e-18
9718.08851 2.62210e-18
9719.75615 2.87726e-18
9721.41374 3.13219e-18
9723.07133 2.88572e-18
9724.73897 2.63940e-18
9726.39656 2.69188e-18
9728.05415 2.74437e-18
9729.71174 2.82577e-18
9731.37937 2.90705e-18
9733.03696 2.74391e-18
9734.69455 2.58087e-18
9736.35214 2.65186e-18
9738.01978 2.72286e-18
9739.67737 2.84075e-18
9741.33496 2.95858e-18
9743.00259 2.95661e-18
9744.66018 2.95458e-18
9746.31777 2.80279e-18
9747.97536 2.65101e-18
9749.64300 2.52169e-18
9751.30059 2.39255e-18
9752.95818 2.65657e-18
9754.62582 2.92036e-18
9756.28341 2.70891e-18
9757.94100 2.49760e-18
9759.59859 2.59705e-18
9761.26622 2.69648e-18
9762.92381 2.77006e-18
9764.58140 2.84359e-18
9766.23899 2.79660e-18
9767.90663 2.74970e-18
9769.56422 2.87554e-18
9771.22181 3.00128e-18
9772.87940 2.90150e-18
9774.54703 2.80171e-18
9776.20462 2.64727e-18
9777.86221 2.49284e-18
9779.52985 2.36260e-18
9781.18744 2.23253e-18
9782.84503 2.46607e-18
9784.50262 2.69949e-18
9786.17026 2.64522e-18
9787.82785 2.59128e-18
9789.48544 3.23283e-18
9791.15307 3.87393e-18
9792.81066 3.55010e-18
9794.46825 3.22636e-18
9796.12584 3.06190e-18
9797.79348 2.89756e-18
9799.45107 2.99587e-18
9801.10866 3.09387e-18
9802.76625 2.53932e-18
9804.43388 1.98495e-18
9806.09147 1.80300e-18
9807.74906 1.62134e-18
9809.41670 2.04528e-18
9811.07429 2.46906e-18
9812.73188 2.55720e-18
9814.38947 2.64533e-18
9816.05711 2.73560e-18
9817.71470 2.82579e-18
9819.37229 2.75627e-18
9821.03992 2.68669e-18
9822.69751 2.47430e-18
9824.35510 2.26216e-18
9826.01269 2.57635e-18
9827.68033 2.89032e-18
9829.33792 2.71719e-18
9830.99551 2.54419e-18
9832.65310 2.64028e-18
9834.32073 2.73628e-18
9835.97832 2.65858e-18
9837.63591 2.58084e-18
9839.30355 2.41620e-18
9840.96114 2.25179e-18
9842.61873 2.56424e-18
9844.27632 2.87670e-18
9845.94396 3.20515e-18
9847.60155 3.53337e-18
9849.25914 3.38239e-18
9850.91673 3.23140e-18
9852.58436 3.07829e-18
9854.24195 2.92518e-18
9855.89954 2.78953e-18
9857.56718 2.65394e-18
9859.22477 2.63153e-18
9860.88236 2.60913e-18
9862.53995 2.60250e-18
9864.20758 2.59611e-18
9865.86517 3.10536e-18
9867.52276 3.61432e-18
9869.18035 3.48303e-18
9870.84799 3.35186e-18
9872.50558 3.47146e-18
9874.16317 3.59115e-18
9875.83081 3.91762e-18
9877.48840 4.24367e-18
9879.14599 3.68953e-18
9880.80358 3.13541e-18
9882.47121 2.60350e-18
9884.12880 2.07205e-18
9885.78639 2.50266e-18
9887.44398 2.93318e-18
9889.11162 3.16259e-18
9890.76921 3.39192e-18
9892.42680 3.46184e-18
9894.09443 3.53178e-18
9895.75202 3.63819e-18
9897.40961 3.74457e-18
9899.06720 3.80128e-18
9900.73484 3.85765e-18
9902.39243 3.18649e-18
9904.05002 2.51562e-18
9905.70761 2.45074e-18
9907.37525 2.38584e-18
9909.03284 2.28428e-18
9910.69043 2.18277e-18
9912.35806 2.20904e-18
9914.01565 2.23548e-18
9915.67324 2.61221e-18
9917.33083 2.98869e-18
9918.99847 2.85843e-18
9920.65606 2.72827e-18
9922.31365 2.78715e-18
9923.98128 2.84605e-18
9925.63887 2.92096e-18
9927.29646 2.99591e-18
9928.95405 3.13832e-18
9930.62169 3.28037e-18
9932.27928 2.62453e-18
9933.93687 1.96892e-18
9935.59446 1.78455e-18
9937.26210 1.60057e-18
9938.91969 2.21945e-18
9940.57728 2.83815e-18
9942.23487 3.09172e-18
9943.90250 3.34517e-18
9945.56009 3.34699e-18
9947.21768 3.34860e-18
9948.88532 2.88566e-18
9950.54291 2.42319e-18
9952.20050 2.95723e-18
9953.85809 3.49101e-18
9955.52572 3.48276e-18
9957.18331 3.47434e-18
9958.84090 3.10091e-18
9960.50854 2.72760e-18
9962.16613 2.56478e-18
9963.82372 2.40201e-18
9965.48131 2.30886e-18
9967.14895 2.21566e-18
9968.80654 1.99088e-18
9970.46413 1.76617e-18
9972.12172 1.65880e-18
9973.78935 1.55149e-18
9975.44694 1.56595e-18
9977.10453 1.58062e-18
9978.77217 2.02164e-18
9980.42976 2.46243e-18
9982.08735 2.43982e-18
9983.74494 2.41730e-18
9985.41257 2.58376e-18
9987.07016 2.75025e-18
9988.72775 3.01019e-18
9990.39539 3.26996e-18
9992.05298 3.18372e-18
9993.71057 3.09736e-18
9995.36816 2.78794e-18
9997.03580 2.47841e-18
9998.69339 1.91727e-18
