# wavelength flux
3509.66572 6.53397e-18
3513.91377 1.71703e-18
3518.15181 3.56999e-18
3522.39987 2.70535e-18
3526.64792 6.16848e-18
3530.89598 5.20054e-18
3535.14404 4.22585e-18
3539.39209 3.55664e-18
3543.64015 4.61027e-18
3547.88820 4.74364e-18
3552.13626 5.64724e-18
3556.38432 4.39418e-18
3560.63237 5.69494e-18
3564.88043 6.29819e-18
3569.12848 4.85790e-18
3573.37654 4.42647e-18
3577.62460 4.47694e-18
3581.87265 3.97903e-18
3586.12071 5.53569e-18
3590.36876 3.58668e-18
3594.61682 4.61304e-18
3598.85486 3.92021e-18
3603.10291 3.46318e-18
3607.35097 2.69068e-18
3611.59902 3.44342e-18
3615.84708 4.14528e-18
3620.09514 3.90813e-18
3624.34319 3.87340e-18
3628.59125 4.01499e-18
3632.83930 2.39914e-18
3637.08736 3.11186e-18
3641.33542 4.98736e-18
3645.58347 5.35360e-18
3649.83153 4.61581e-18
3654.07958 5.26458e-18
3658.32764 3.47704e-18
3662.57570 4.35155e-18
3666.82375 5.32685e-18
3671.07181 5.51455e-18
3675.31986 4.91226e-18
3679.55790 4.46556e-18
3683.80596 4.47253e-18
3688.05401 5.07179e-18
3692.30207 5.19950e-18
3696.55013 4.99348e-18
3700.79818 4.96337e-18
3705.04624 5.37652e-18
3709.29429 5.78553e-18
3713.54235 5.49994e-18
3717.79041 5.21395e-18
3722.03846 4.93949e-18
3726.28652 4.66508e-18
3730.53457 4.39074e-18
3734.78263 4.11644e-18
3739.03069 3.84220e-18
3743.27874 3.56801e-18
3747.52680 3.29387e-18
3751.77485 3.01979e-18
3756.02291 2.74577e-18
3760.26095 2.56752e-18
3764.50900 2.03853e-18
3768.75706 1.29132e-18
3773.00511 1.30652e-18
3777.25317 2.13755e-18
3781.50123 1.92199e-18
3785.74928 1.39616e-18
3789.99734 1.27555e-18
3794.24540 1.66591e-18
3798.49345 1.43460e-18
3802.74151 1.43993e-18
3806.98956 1.46041e-18
3811.23762 1.29199e-18
3815.48567 8.84400e-19
3819.73373 1.07922e-18
3823.98179 1.39783e-18
3828.22984 1.58870e-18
3832.47790 1.62036e-18
3836.72595 1.37572e-18
3840.96399 1.87239e-18
3845.21205 1.74741e-18
3849.46010 1.98740e-18
3853.70816 2.43975e-18
3857.95622 2.60464e-18
3862.20427 2.76145e-18
3866.45233 2.86769e-18
3870.70038 2.74251e-18
3874.94844 3.28428e-18
3879.19650 3.57530e-18
3883.44455 3.79875e-18
3887.69261 4.54558e-18
3891.94066 4.90679e-18
3896.18872 4.97967e-18
3900.43678 5.59068e-18
3904.68483 6.39707e-18
3908.93289 6.53501e-18
3913.18094 7.12355e-18
3917.42900 7.28338e-18
3921.67706 7.22590e-18
3925.91509 7.74906e-18
3930.16315 7.74937e-18
3934.41120 8.12633e-18
3938.65926 8.04985e-18
3942.90732 7.99645e-18
3947.15537 8.34025e-18
3951.40343 8.61331e-18
3955.65149 9.24865e-18
3959.89954 1.05310e-17
3964.14760 1.12621e-17
3968.39565 1.16242e-17
3972.64371 1.23902e-17
3976.89176 1.25129e-17
3981.13982 1.26266e-17
3985.38788 1.29054e-17
3989.63593 1.29980e-17
3993.88399 1.30555e-17
3998.13205 1.34461e-17
4002.38010 1.32902e-17
4006.61814 1.30353e-17
4010.86619 1.36837e-17
4015.11425 1.35334e-17
4019.36231 1.33466e-17
4023.61036 1.38670e-17
4027.85842 1.36811e-17
4032.10647 1.37275e-17
4036.35453 1.36528e-17
4040.60259 1.32152e-17
4044.85064 1.29944e-17
4049.09870 1.25600e-17
4053.34675 1.22792e-17
4057.59481 1.16568e-17
4061.84287 1.14734e-17
4066.09092 1.13429e-17
4070.33898 1.09605e-17
4074.58703 1.06994e-17
4078.83509 1.03187e-17
4083.08315 1.02156e-17
4087.32118 9.82436e-18
4091.56924 9.90018e-18
4095.81730 9.40271e-18
4100.06535 8.87050e-18
4104.31341 8.95434e-18
4108.56146 8.70378e-18
4112.80952 8.50379e-18
4117.05757 8.43126e-18
4121.30563 8.38358e-18
4125.55369 8.51933e-18
4129.80174 8.03218e-18
4134.04980 7.77154e-18
4138.29785 7.79992e-18
4142.54591 7.99265e-18
4146.79397 7.83152e-18
4151.04202 7.29434e-18
4155.29008 7.31712e-18
4159.53813 7.36898e-18
4163.78619 7.38466e-18
4168.02423 7.07488e-18
4172.27228 6.75382e-18
4176.52034 7.10970e-18
4180.76840 7.38845e-18
4185.01645 7.41351e-18
4189.26451 7.39788e-18
4193.51256 7.70682e-18
4197.76062 7.62958e-18
4202.00868 7.32512e-18
4206.25673 7.54014e-18
4210.50479 7.51634e-18
4214.75284 7.50956e-18
4219.00090 7.80555e-18
4223.24896 7.87610e-18
4227.49701 7.83751e-18
4231.74507 7.74351e-18
4235.99312 7.90128e-18
4240.24118 7.85262e-18
4244.48924 7.77582e-18
4248.72727 8.09638e-18
4252.97533 8.31064e-18
4257.22338 8.08046e-18
4261.47144 8.20897e-18
4265.71950 8.04067e-18
4269.96755 8.17924e-18
4274.21561 8.23125e-18
4278.46367 7.95787e-18
4282.71172 7.98661e-18
4286.95978 8.03946e-18
4291.20783 8.02218e-18
4295.45589 8.01029e-18
4299.70395 8.14193e-18
4303.95200 7.86820e-18
4308.20006 7.56658e-18
4312.44811 7.35704e-18
4316.69617 7.25309e-18
4320.94423 7.28514e-18
4325.19228 7.45788e-18
4329.44034 7.34759e-18
4333.67837 7.38406e-18
4337.92643 7.16595e-18
4342.17449 7.15480e-18
4346.42254 7.02056e-18
4350.67060 6.61028e-18
4354.91865 6.64677e-18
4359.16671 6.68325e-18
4363.41477 6.71972e-18
4367.66282 6.75619e-18
4371.91088 6.79266e-18
4376.15893 6.82911e-18
4380.40699 6.86556e-18
4384.65505 6.90200e-18
4388.90310 6.93844e-18
4393.15116 6.97487e-18
4397.39921 7.14876e-18
4401.64727 7.46616e-18
4405.89533 7.43676e-18
4410.13336 7.71161e-18
4414.38142 8.03438e-18
4418.62947 8.02777e-18
4422.87753 7.84863e-18
4427.12559 7.91756e-18
4431.37364 7.73103e-18
4435.62170 7.33987e-18
4439.86975 7.18467e-18
4444.11781 7.33202e-18
4448.36587 7.30544e-18
4452.61392 7.24248e-18
4456.86198 7.29508e-18
4461.11003 7.24355e-18
4465.35809 7.31033e-18
4469.60615 7.45689e-18
4473.85420 7.48360e-18
4478.10226 7.53858e-18
4482.35032 7.64873e-18
4486.59837 7.98156e-18
4490.83641 7.91932e-18
4495.08446 7.91778e-18
4499.33252 8.18617e-18
4503.58058 8.26049e-18
4507.82863 8.25289e-18
4512.07669 8.64896e-18
4516.32474 9.13954e-18
4520.57280 9.35434e-18
4524.82086 9.60453e-18
4529.06891 9.92936e-18
4533.31697 1.00998e-17
4537.56502 1.06198e-17
4541.81308 1.05885e-17
4546.06114 1.05880e-17
4550.30919 1.09799e-17
4554.55725 1.12395e-17
4558.80530 1.12978e-17
4563.05336 1.14146e-17
4567.30142 1.16776e-17
4571.53945 1.19235e-17
4575.78751 1.19335e-17
4580.03557 1.19385e-17
4584.28362 1.20713e-17
4588.53168 1.22277e-17
4592.77973 1.23541e-17
4597.02779 1.24390e-17
4601.27585 1.26206e-17
4605.52390 1.26642e-17
4609.77196 1.27330e-17
4614.02001 1.29211e-17
4618.26807 1.31058e-17
4622.51613 1.30086e-17
4626.76418 1.31641e-17
4631.01224 1.33613e-17
4635.26029 1.35143e-17
4639.50835 1.34920e-17
4643.75641 1.37310e-17
4648.00446 1.40716e-17
4652.24250 1.42777e-17
4656.49055 1.44465e-17
4660.73861 1.45569e-17
4664.98667 1.45747e-17
4669.23472 1.44608e-17
4673.48278 1.42150e-17
4677.73083 1.38850e-17
4681.97889 1.39304e-17
4686.22695 1.39237e-17
4690.47500 1.37710e-17
4694.72306 1.37062e-17
4698.97111 1.37382e-17
4703.21917 1.39931e-17
4707.46723 1.42992e-17
4711.71528 1.44426e-17
4715.96334 1.47950e-17
4720.21139 1.48961e-17
4724.45945 1.46516e-17
4728.70751 1.45151e-17
4732.94554 1.43685e-17
4737.19360 1.40251e-17
4741.44165 1.37902e-17
4745.68971 1.35508e-17
4749.93777 1.33943e-17
4754.18582 1.30866e-17
4758.43388 1.27657e-17
4762.68193 1.25642e-17
4766.92999 1.23223e-17
4771.17805 1.20881e-17
4775.42610 1.18570e-17
4779.67416 1.15014e-17
4783.92222 1.11095e-17
4788.17027 1.07723e-17
4792.41833 1.05559e-17
4796.66638 1.02596e-17
4800.91444 9.87199e-18
4805.16250 9.61614e-18
4809.41055 9.33116e-18
4813.64859 8.93016e-18
4817.89664 8.39884e-18
4822.14470 8.18412e-18
4826.39276 7.95917e-18
4830.64081 7.68948e-18
4834.88887 7.48015e-18
4839.13692 7.32700e-18
4843.38498 7.29561e-18
4847.63304 7.39923e-18
4851.88109 7.45114e-18
4856.12915 7.43992e-18
4860.37720 7.42871e-18
4864.62526 7.41750e-18
4868.87332 7.40629e-18
4873.12137 7.39509e-18
4877.36943 7.38388e-18
4881.61748 7.37268e-18
4885.86554 7.36148e-18
4890.11360 7.35029e-18
4894.36165 7.38106e-18
4898.59969 7.48747e-18
4902.84775 7.69357e-18
4907.09580 7.78366e-18
4911.34386 8.02938e-18
4915.59191 8.09415e-18
4919.83997 8.37461e-18
4924.08803 8.81046e-18
4928.33608 9.11657e-18
4932.58414 9.45154e-18
4936.83219 9.85672e-18
4941.08025 1.03604e-17
4945.32831 1.08392e-17
4949.57636 1.15114e-17
4953.82442 1.19564e-17
4958.07247 1.24013e-17
4962.32053 1.28461e-17
4966.56858 1.32908e-17
4970.81664 1.37355e-17
4975.05468 1.41801e-17
4979.30273 1.46247e-17
4983.55079 1.50691e-17
4987.79885 1.55135e-17
4992.04690 1.58437e-17
4996.29496 1.61920e-17
5000.54301 1.59888e-17
5004.79107 1.57856e-17
5009.03913 1.55825e-17
5013.28718 1.53794e-17
5017.53524 1.51764e-17
5021.78329 1.49734e-17
5026.03135 1.47704e-17
5030.27941 1.45675e-17
5034.52746 1.43646e-17
5038.77552 1.37997e-17
5043.02357 1.32126e-17
5047.27163 1.27450e-17
5051.51969 1.19738e-17
5055.76774 1.13203e-17
5060.00578 1.07321e-17
5064.25383 1.01778e-17
5068.50189 9.97652e-18
5072.74995 9.68190e-18
5076.99800 9.56112e-18
5081.24606 9.55747e-18
5085.49412 9.63574e-18
5089.74217 9.66949e-18
5093.99023 9.89739e-18
5098.23828 1.01092e-17
5102.48634 1.03268e-17
5106.73440 1.06907e-17
5110.98245 1.10780e-17
5115.23051 1.14392e-17
5119.47856 1.15504e-17
5123.72662 1.16768e-17
5127.97468 1.17912e-17
5132.22273 1.21297e-17
5136.47079 1.21391e-17
5140.70882 1.23065e-17
5144.95688 1.22730e-17
5149.20494 1.24072e-17
5153.45299 1.25700e-17
5157.70105 1.26542e-17
5161.94910 1.26178e-17
5166.19716 1.26567e-17
5170.44522 1.24255e-17
5174.69327 1.22946e-17
5178.94133 1.24850e-17
5183.18938 1.23825e-17
5187.43744 1.22010e-17
5191.68550 1.21473e-17
5195.93355 1.19768e-17
5200.18161 1.18433e-17
5204.42966 1.18466e-17
5208.67772 1.17581e-17
5212.92578 1.18408e-17
5217.17383 1.18192e-17
5221.41187 1.18032e-17
5225.65992 1.19077e-17
5229.90798 1.18611e-17
5234.15604 1.17909e-17
5238.40409 1.18668e-17
5242.65215 1.21042e-17
5246.90020 1.24289e-17
5251.14826 1.26325e-17
5255.39632 1.28031e-17
5259.64437 1.29341e-17
5263.89243 1.30627e-17
5268.14048 1.32751e-17
5272.38854 1.35812e-17
5276.63660 1.38730e-17
5280.88465 1.40877e-17
5285.13271 1.43791e-17
5289.38077 1.47027e-17
5293.62882 1.49746e-17
5297.87688 1.52650e-17
5302.11491 1.54509e-17
5306.36297 1.55094e-17
5310.61103 1.57308e-17
5314.85908 1.58860e-17
5319.10714 1.60157e-17
5323.35519 1.62612e-17
5327.60325 1.64526e-17
5331.85131 1.64056e-17
5336.09936 1.62482e-17
5340.34742 1.64245e-17
5344.59547 1.66064e-17
5348.84353 1.65996e-17
5353.09159 1.67252e-17
5357.33964 1.68041e-17
5361.58770 1.67359e-17
5365.83575 1.66867e-17
5370.08381 1.67314e-17
5374.33187 1.67686e-17
5378.57992 1.66735e-17
5382.82798 1.63549e-17
5387.06602 1.64150e-17
5391.31407 1.66413e-17
5395.56213 1.65841e-17
5399.81018 1.66898e-17
5404.05824 1.65867e-17
5408.30630 1.63982e-17
5412.55435 1.61763e-17
5416.80241 1.59815e-17
5421.05046 1.61129e-17
5425.29852 1.58992e-17
5429.54658 1.58783e-17
5433.79463 1.58513e-17
5438.04269 1.57587e-17
5442.29074 1.55725e-17
5446.53880 1.54068e-17
5450.78686 1.55051e-17
5455.03491 1.54985e-17
5459.28297 1.55000e-17
5463.53102 1.55974e-17
5467.76906 1.55641e-17
5472.01712 1.53475e-17
5476.26517 1.53679e-17
5480.51323 1.56442e-17
5484.76128 1.57637e-17
5489.00934 1.58871e-17
5493.25740 1.60992e-17
5497.50545 1.63398e-17
5501.75351 1.65098e-17
5506.00156 1.66107e-17
5510.24962 1.67340e-17
5514.49768 1.66532e-17
5518.74573 1.68139e-17
5522.99379 1.72391e-17
5527.24184 1.74443e-17
5531.48990 1.73973e-17
5535.73796 1.74095e-17
5539.98601 1.73048e-17
5544.22405 1.71596e-17
5548.47210 1.70161e-17
5552.72016 1.69658e-17
5556.96822 1.67645e-17
5561.21627 1.67280e-17
5565.46433 1.66335e-17
5569.71238 1.63975e-17
5573.96044 1.62509e-17
5578.20850 1.62678e-17
5582.45655 1.60939e-17
5586.70461 1.59832e-17
5590.95267 1.58838e-17
5595.20072 1.58710e-17
5599.44878 1.58743e-17
5603.69683 1.58514e-17
5607.94489 1.57936e-17
5612.19295 1.57160e-17
5616.44100 1.55117e-17
5620.68906 1.55276e-17
5624.92709 1.56084e-17
5629.17515 1.54897e-17
5633.42321 1.54504e-17
5637.67126 1.54344e-17
5641.91932 1.51747e-17
5646.16737 1.47398e-17
5650.41543 1.42250e-17
5654.66349 1.36113e-17
5658.91154 1.31150e-17
5663.15960 1.27182e-17
5667.40765 1.21771e-17
5671.65571 1.16126e-17
5675.90377 1.11273e-17
5680.15182 1.05293e-17
5684.39988 9.92273e-18
5688.64793 9.27930e-18
5692.89599 8.89533e-18
5697.14405 8.42343e-18
5701.39210 7.98274e-18
5705.63014 7.79070e-18
5709.87820 7.59994e-18
5714.12625 7.45246e-18
5718.37431 7.46834e-18
5722.62236 7.24445e-18
5726.87042 7.32280e-18
5731.11848 7.58469e-18
5735.36653 7.76072e-18
5739.61459 7.99395e-18
5743.86264 8.29589e-18
5748.11070 8.68992e-18
5752.35876 9.11569e-18
5756.60681 9.73501e-18
5760.85487 1.03713e-17
5765.10292 1.09275e-17
5769.35098 1.16404e-17
5773.59903 1.23909e-17
5777.84709 1.30002e-17
5782.09515 1.35929e-17
5786.33318 1.42711e-17
5790.58124 1.49530e-17
5794.82930 1.54729e-17
5799.07735 1.56982e-17
5803.32541 1.60400e-17
5807.57346 1.64692e-17
5811.82152 1.69860e-17
5816.06958 1.74010e-17
5820.31763 1.75062e-17
5824.56569 1.77415e-17
5828.81374 1.81584e-17
5833.06180 1.86236e-17
5837.30986 1.89656e-17
5841.55791 1.91928e-17
5845.80597 1.96327e-17
5850.05402 2.01618e-17
5854.30208 2.07721e-17
5858.55014 2.11257e-17
5862.79819 2.10608e-17
5867.04625 2.12206e-17
5871.28428 2.12514e-17
5875.53234 2.13816e-17
5879.78040 2.15500e-17
5884.02845 2.13732e-17
5888.27651 2.09924e-17
5892.52457 2.05925e-17
5896.77262 2.01842e-17
5901.02068 1.94938e-17
5905.26873 1.88120e-17
5909.51679 1.82116e-17
5913.76485 1.76659e-17
5918.01290 1.79491e-17
5922.26096 1.86817e-17
5926.50901 1.91073e-17
5930.75707 1.90465e-17
5935.00512 1.89363e-17
5939.25318 1.90435e-17
5943.50124 1.88242e-17
5947.74929 1.86178e-17
5951.98733 1.83218e-17
5956.23539 1.82778e-17
5960.48344 1.82913e-17
5964.73150 1.80146e-17
5968.97955 1.79577e-17
5973.22761 1.79626e-17
5977.47567 1.77676e-17
5981.72372 1.75923e-17
5985.97178 1.73389e-17
5990.21983 1.71245e-17
5994.46789 1.70768e-17
5998.71595 1.67336e-17
6002.96400 1.63618e-17
6007.21206 1.63073e-17
6011.46011 1.61812e-17
6015.70817 1.60015e-17
6019.95623 1.56699e-17
6024.20428 1.53775e-17
6028.45234 1.53537e-17
6032.69038 1.51631e-17
6036.93843 1.51857e-17
6041.18649 1.51340e-17
6045.43454 1.49036e-17
6049.68260 1.47704e-17
6053.93066 1.47109e-17
6058.17871 1.46794e-17
6062.42677 1.41856e-17
6066.67482 1.39987e-17
6070.92288 1.40275e-17
6075.17094 1.41345e-17
6079.41899 1.40959e-17
6083.66705 1.41180e-17
6087.91510 1.40689e-17
6092.16316 1.40214e-17
6096.41122 1.40664e-17
6100.65927 1.41646e-17
6104.90733 1.42623e-17
6109.15538 1.41804e-17
6113.39342 1.41314e-17
6117.64148 1.40653e-17
6121.88953 1.39306e-17
6126.13759 1.40504e-17
6130.38564 1.40867e-17
6134.63370 1.40460e-17
6138.88176 1.39915e-17
6143.12981 1.37899e-17
6147.37787 1.37115e-17
6151.62592 1.36544e-17
6155.87398 1.33856e-17
6160.12204 1.32427e-17
6164.37009 1.33900e-17
6168.61815 1.33558e-17
6172.86620 1.32558e-17
6177.11426 1.31704e-17
6181.36232 1.32193e-17
6185.61037 1.33856e-17
6189.85843 1.33323e-17
6194.09647 1.32911e-17
6198.34452 1.32889e-17
6202.59258 1.31910e-17
6206.84063 1.31741e-17
6211.08869 1.30343e-17
6215.33675 1.28442e-17
6219.58480 1.27615e-17
6223.83286 1.25213e-17
6228.08091 1.23708e-17
6232.32897 1.22738e-17
6236.57703 1.18942e-17
6240.82508 1.14495e-17
6245.07314 1.11437e-17
6249.32119 1.06932e-17
6253.56925 1.00997e-17
6257.81730 9.55094e-18
6262.06536 9.12929e-18
6266.31342 8.79703e-18
6270.56147 8.38135e-18
6274.79951 7.85749e-18
6279.04757 7.44002e-18
6283.29562 6.99525e-18
6287.54368 6.73760e-18
6291.79173 6.81462e-18
6296.03979 6.85114e-18
6300.28785 6.88391e-18
6304.53590 7.13818e-18
6308.78396 7.44554e-18
6313.03201 7.70288e-18
6317.28007 7.93001e-18
6321.52813 8.08383e-18
6325.77618 8.35718e-18
6330.02424 8.59390e-18
6334.27229 8.70181e-18
6338.52035 8.86348e-18
6342.76841 9.18312e-18
6347.01646 9.59933e-18
6351.26452 1.00970e-17
6355.51257 1.05367e-17
6359.75061 1.10414e-17
6363.99867 1.14816e-17
6368.24672 1.17001e-17
6372.49478 1.20161e-17
6376.74284 1.24237e-17
6380.99089 1.26977e-17
6385.23895 1.29511e-17
6389.48700 1.31525e-17
6393.73506 1.32971e-17
6397.98311 1.35097e-17
6402.23117 1.37013e-17
6406.47923 1.38310e-17
6410.72728 1.38512e-17
6414.97534 1.40067e-17
6419.22339 1.41492e-17
6423.47145 1.43045e-17
6427.71951 1.43032e-17
6431.96756 1.44550e-17
6436.20560 1.43316e-17
6440.45366 1.43763e-17
6444.70171 1.44716e-17
6448.94977 1.42832e-17
6453.19782 1.41136e-17
6457.44588 1.40306e-17
6461.69394 1.38248e-17
6465.94199 1.32582e-17
6470.19005 1.28472e-17
6474.43810 1.26548e-17
6478.68616 1.22505e-17
6482.93422 1.19363e-17
6487.18227 1.18158e-17
6491.43033 1.15664e-17
6495.67838 1.11989e-17
6499.92644 1.10516e-17
6504.17450 1.09089e-17
6508.42255 1.08348e-17
6512.67061 1.07109e-17
6516.90865 1.06155e-17
6521.15670 1.05909e-17
6525.40476 1.06974e-17
6529.65281 1.09096e-17
6533.90087 1.09612e-17
6538.14893 1.10009e-17
6542.39698 1.12309e-17
6546.64504 1.15703e-17
6550.89309 1.19098e-17
6555.14115 1.22492e-17
6559.38920 1.25886e-17
6563.63726 1.29280e-17
6567.88532 1.32673e-17
6572.13337 1.36066e-17
6576.38143 1.39459e-17
6580.62948 1.42852e-17
6584.87754 1.46245e-17
6589.12560 1.49637e-17
6593.37365 1.53029e-17
6597.61169 1.56421e-17
6601.85975 1.59812e-17
6606.10780 1.63203e-17
6610.35586 1.64178e-17
6614.60391 1.64098e-17
6618.85197 1.64440e-17
6623.10003 1.65032e-17
6627.34808 1.66009e-17
6631.59614 1.67292e-17
6635.84419 1.67659e-17
6640.09225 1.68742e-17
6644.34031 1.71737e-17
6648.58836 1.73162e-17
6652.83642 1.74374e-17
6657.08447 1.78256e-17
6661.33253 1.81326e-17
6665.58059 1.83911e-17
6669.82864 1.84524e-17
6674.07670 1.82961e-17
6678.31473 1.83216e-17
6682.56279 1.82601e-17
6686.81085 1.80237e-17
6691.05890 1.79176e-17
6695.30696 1.78577e-17
6699.55502 1.75444e-17
6703.80307 1.74741e-17
6708.05113 1.73666e-17
6712.29918 1.71187e-17
6716.54724 1.69228e-17
6720.79529 1.67471e-17
6725.04335 1.65932e-17
6729.29141 1.64928e-17
6733.53946 1.63958e-17
6737.78752 1.62492e-17
6742.03557 1.61147e-17
6746.28363 1.60849e-17
6750.53169 1.60605e-17
6754.77974 1.59943e-17
6759.02780 1.59671e-17
6763.26584 1.57921e-17
6767.51389 1.56828e-17
6771.76195 1.55902e-17
6776.01000 1.56995e-17
6780.25806 1.55712e-17
6784.50612 1.52170e-17
6788.75417 1.50662e-17
6793.00223 1.47447e-17
6797.25028 1.44985e-17
6801.49834 1.45402e-17
6805.74640 1.44271e-17
6809.99445 1.40453e-17
6814.24251 1.37067e-17
6818.49056 1.36288e-17
6822.73862 1.34529e-17
6826.98668 1.30578e-17
6831.23473 1.29065e-17
6835.48279 1.25888e-17
6839.72083 1.22657e-17
6843.96888 1.21110e-17
6848.21694 1.17879e-17
6852.46499 1.12675e-17
6856.71305 1.09341e-17
6860.96111 1.08742e-17
6865.20916 1.08863e-17
6869.45722 1.09685e-17
6873.70527 1.10066e-17
6877.95333 1.05205e-17
6882.20138 9.95502e-18
6886.44944 9.85241e-18
6890.69750 9.93506e-18
6894.94555 1.00410e-17
6899.19361 1.01286e-17
6903.44167 1.01137e-17
6907.68972 1.02034e-17
6911.93778 1.04106e-17
6916.18583 1.05125e-17
6920.43389 1.06884e-17
6924.67193 1.09724e-17
6928.91998 1.12696e-17
6933.16804 1.15046e-17
6937.41609 1.16848e-17
6941.66415 1.20370e-17
6945.91221 1.25504e-17
6950.16026 1.29265e-17
6954.40832 1.32045e-17
6958.65637 1.35321e-17
6962.90443 1.38716e-17
6967.15249 1.41949e-17
6971.40054 1.45290e-17
6975.64860 1.47987e-17
6979.89665 1.49976e-17
6984.14471 1.51913e-17
6988.39277 1.53151e-17
6992.64082 1.53830e-17
6996.88888 1.52538e-17
7001.12692 1.51775e-17
7005.37497 1.52534e-17
7009.62303 1.52262e-17
7013.87108 1.52113e-17
7018.11914 1.53159e-17
7022.36720 1.54022e-17
7026.61525 1.55127e-17
7030.86331 1.56738e-17
7035.11136 1.59343e-17
7039.35942 1.61084e-17
7043.60747 1.61779e-17
7047.85553 1.62493e-17
7052.10359 1.63778e-17
7056.35164 1.64315e-17
7060.59970 1.62093e-17
7064.84775 1.61116e-17
7069.09581 1.58400e-17
7073.34387 1.56788e-17
7077.59192 1.56103e-17
7081.83998 1.54627e-17
7086.08803 1.51027e-17
7090.32607 1.49974e-17
7094.57413 1.47726e-17
7098.82218 1.44714e-17
7103.07024 1.42709e-17
7107.31830 1.40294e-17
7111.56635 1.38652e-17
7115.81441 1.36175e-17
7120.06246 1.33826e-17
7124.31052 1.32345e-17
7128.55858 1.30773e-17
7132.80663 1.31218e-17
7137.05469 1.30748e-17
7141.30274 1.30906e-17
7145.55080 1.29547e-17
7149.79886 1.27937e-17
7154.04691 1.28824e-17
7158.29497 1.29374e-17
7162.54302 1.30257e-17
7166.78106 1.31727e-17
7171.02912 1.34052e-17
7175.27717 1.34048e-17
7179.52523 1.33138e-17
7183.77328 1.32887e-17
7188.02134 1.32294e-17
7192.26940 1.32132e-17
7196.51745 1.31749e-17
7200.76551 1.31197e-17
7205.01357 1.31770e-17
7209.26162 1.30810e-17
7213.50968 1.28615e-17
7217.75773 1.28675e-17
7222.00579 1.30605e-17
7226.25385 1.31184e-17
7230.50190 1.31028e-17
7234.74996 1.30068e-17
7238.99801 1.31019e-17
7243.24607 1.29560e-17
7247.49413 1.28572e-17
7251.73216 1.29535e-17
7255.98022 1.31299e-17
7260.22827 1.33047e-17
7264.47633 1.33810e-17
7268.72439 1.34747e-17
7272.97244 1.35603e-17
7277.22050 1.34387e-17
7281.46855 1.33895e-17
7285.71661 1.35141e-17
7289.96467 1.34797e-17
7294.21272 1.34992e-17
7298.46078 1.33700e-17
7302.70883 1.32737e-17
7306.95689 1.33413e-17
7311.20495 1.32417e-17
7315.45300 1.30690e-17
7319.70106 1.29537e-17
7323.94911 1.28224e-17
7328.18715 1.27025e-17
7332.43521 1.26280e-17
7336.68326 1.25247e-17
7340.93132 1.24293e-17
7345.17937 1.23467e-17
7349.42743 1.22887e-17
7353.67549 1.22985e-17
7357.92354 1.22066e-17
7362.17160 1.21335e-17
7366.41965 1.19847e-17
7370.66771 1.18388e-17
7374.91577 1.16969e-17
7379.16382 1.16484e-17
7383.41188 1.16246e-17
7387.65993 1.16940e-17
7391.90799 1.17099e-17
7396.15605 1.18148e-17
7400.40410 1.18793e-17
7404.65216 1.18136e-17
7408.90022 1.17605e-17
7413.13825 1.16739e-17
7417.38631 1.15861e-17
7421.63436 1.15718e-17
7425.88242 1.16633e-17
7430.13048 1.18211e-17
7434.37853 1.17453e-17
7438.62659 1.17124e-17
7442.87464 1.17531e-17
7447.12270 1.18010e-17
7451.37076 1.17541e-17
7455.61881 1.18697e-17
7459.86687 1.18950e-17
7464.11492 1.18057e-17
7468.36298 1.18297e-17
7472.61104 1.18902e-17
7476.85909 1.19103e-17
7481.10715 1.19477e-17
7485.35520 1.20264e-17
7489.60326 1.20347e-17
7493.84130 1.18659e-17
7498.08935 1.17118e-17
7502.33741 1.16809e-17
7506.58547 1.16499e-17
7510.83352 1.14964e-17
7515.08158 1.14173e-17
7519.32963 1.15525e-17
7523.57769 1.15648e-17
7527.82575 1.14935e-17
7532.07380 1.14575e-17
7536.32186 1.14110e-17
7540.56991 1.13373e-17
7544.81797 1.12546e-17
7549.06603 1.11840e-17
7553.31408 1.10974e-17
7557.56214 1.10547e-17
7561.81019 1.09816e-17
7566.05825 1.07996e-17
7570.29629 1.08906e-17
7574.54434 1.08243e-17
7578.79240 1.06637e-17
7583.04045 1.05355e-17
7587.28851 1.04081e-17
7591.53657 1.00833e-17
7595.78462 9.97589e-18
7600.03268 1.01236e-17
7604.28073 1.00094e-17
7608.52879 9.50808e-18
7612.77685 8.89835e-18
7617.02490 8.25336e-18
7621.27296 7.92024e-18
7625.52101 8.19681e-18
7629.76907 8.58683e-18
7634.01713 8.76079e-18
7638.26518 8.68908e-18
7642.51324 8.71255e-18
7646.76129 8.74923e-18
7651.00935 8.77317e-18
7655.24739 8.90564e-18
7659.49544 8.96080e-18
7663.74350 9.00075e-18
7667.99155 9.21501e-18
7672.23961 9.40217e-18
7676.48767 9.42305e-18
7680.73572 9.44742e-18
7684.98378 9.63281e-18
7689.23183 9.79166e-18
7693.47989 9.89261e-18
7697.72795 9.97662e-18
7701.97600 1.00585e-17
7706.22406 1.01015e-17
7710.47212 1.00999e-17
7714.72017 1.02091e-17
7718.96823 1.01959e-17
7723.21628 1.02069e-17
7727.46434 1.01154e-17
7731.70238 1.01190e-17
7735.95043 1.01021e-17
7740.19849 1.00155e-17
7744.44654 1.00521e-17
7748.69460 1.01265e-17
7752.94266 1.01594e-17
7757.19071 1.01810e-17
7761.43877 1.01980e-17
7765.68682 1.02471e-17
7769.93488 1.01530e-17
7774.18294 1.01269e-17
7778.43099 1.02126e-17
7782.67905 1.01916e-17
7786.92710 1.01474e-17
7791.17516 1.00547e-17
7795.42322 1.00603e-17
7799.67127 1.00554e-17
7803.91933 1.00058e-17
7808.16738 1.00233e-17
7812.41544 1.00099e-17
7816.65348 9.95873e-18
7820.90153 9.96128e-18
7825.14959 9.92360e-18
7829.39765 9.84059e-18
7833.64570 9.74251e-18
7837.89376 9.66559e-18
7842.14181 1.02270e-17
7846.38987 1.02269e-17
7850.63792 1.02324e-17
7854.88598 1.02431e-17
7859.13404 1.02597e-17
7863.38209 1.02752e-17
7867.63015 1.02842e-17
7871.87820 1.02783e-17
7876.12626 1.02619e-17
7880.37432 1.02419e-17
7884.62237 1.02252e-17
7888.87043 1.02145e-17
7893.11848 1.02035e-17
7897.35652 1.01888e-17
7901.60458 1.01667e-17
7905.85263 1.01340e-17
7910.10069 1.00880e-17
7914.34875 1.00258e-17
7918.59680 9.95063e-18
7922.84486 9.86765e-18
7927.09291 9.77867e-18
7931.34097 9.69367e-18
7935.58903 9.62993e-18
7939.83708 9.60299e-18
7944.08514 9.62498e-18
7948.33319 9.66996e-18
7952.58125 9.71944e-18
7956.82931 9.75138e-18
7961.07736 9.75944e-18
7965.32542 9.73942e-18
7969.57347 9.68090e-18
7973.82153 9.59532e-18
7978.05957 9.50780e-18
7982.30762 9.44242e-18
7986.55568 9.41774e-18
7990.80373 9.41488e-18
7995.05179 9.42321e-18
7999.29985 9.42731e-18
8003.54790 9.42754e-18
8007.79596 9.42241e-18
8012.04402 9.41245e-18
8016.29207 9.39245e-18
8020.54013 9.35607e-18
8024.78818 9.29644e-18
8029.03624 9.21357e-18
8033.28430 9.12893e-18
8037.53235 9.05830e-18
8041.78041 9.01968e-18
8046.02846 9.00873e-18
8050.27652 9.02196e-18
8054.52458 9.05773e-18
8058.76261 9.10315e-18
8063.01067 9.14275e-18
8067.25872 9.15937e-18
8071.50678 9.14414e-18
8075.75484 9.10563e-18
8080.00289 9.04855e-18
8084.25095 8.97922e-18
8088.49900 8.90572e-18
8092.74706 8.83587e-18
8096.99512 8.78066e-18
8101.24317 8.73684e-18
8105.49123 8.69868e-18
8109.73928 8.65979e-18
8113.98734 8.61622e-18
8118.23540 8.56805e-18
8122.48345 8.51388e-18
8126.73151 8.45265e-18
8130.97956 8.38170e-18
8135.22762 8.29945e-18
8139.46566 8.20567e-18
8143.71371 8.09914e-18
8147.96177 7.98012e-18
8152.20982 7.84672e-18
8156.45788 7.70695e-18
8160.70594 7.57692e-18
8164.95399 7.46958e-18
8169.20205 7.39639e-18
8173.45010 7.36185e-18
8177.69816 7.36945e-18
8181.94622 7.42688e-18
8186.19427 7.50603e-18
8190.44233 7.58016e-18
8194.69038 7.61447e-18
8198.93844 7.60398e-18
8203.18650 7.56105e-18
8207.43455 7.49448e-18
8211.68261 7.41268e-18
8215.93066 7.31123e-18
8220.16870 7.19066e-18
8224.41676 7.05219e-18
8228.66481 6.89469e-18
8232.91287 6.71799e-18
8237.16093 6.51862e-18
8241.40898 6.30474e-18
8245.65704 6.08793e-18
8249.90509 5.88095e-18
8254.15315 5.68986e-18
8258.40121 5.50161e-18
8262.64926 5.30786e-18
8266.89732 5.09667e-18
8271.14537 4.88371e-18
8275.39343 4.67964e-18
8279.64149 4.50187e-18
8283.88954 4.34197e-18
8288.13760 4.18706e-18
8292.38565 4.02376e-18
8296.63371 3.84850e-18
8300.87175 3.67572e-18
8305.12982 3.51469e-18
8309.36786 3.37575e-18
8313.61592 3.26438e-18
8317.86397 3.18615e-18
8322.11203 3.14731e-18
8326.36008 3.14486e-18
8330.60814 3.17343e-18
8334.85619 3.22801e-18
8339.10425 3.30018e-18
8343.35231 3.37858e-18
8347.60036 3.45265e-18
8351.84842 3.51305e-18
8356.09648 3.55963e-18
8360.34453 3.59199e-18
8364.59259 3.60814e-18
8368.84064 3.62088e-18
8373.08870 3.64289e-18
8377.33676 3.68975e-18
8381.57479 3.76426e-18
8385.82285 3.85923e-18
8390.07090 3.97038e-18
8394.31896 4.09131e-18
8398.56702 4.20922e-18
8402.81507 4.31290e-18
8407.06313 4.38759e-18
8411.31118 4.44372e-18
8415.55924 4.49079e-18
8419.80730 4.54130e-18
8424.05535 4.59807e-18
8428.30341 4.65925e-18
8432.55146 4.72515e-18
8436.79952 4.79508e-18
8441.04758 4.86672e-18
8445.29563 4.93771e-18
8449.54369 5.00451e-18
8453.79174 5.07198e-18
8458.03980 5.14375e-18
8462.27784 5.22574e-18
8466.52589 5.31541e-18
8470.77395 5.40804e-18
8475.02201 5.49915e-18
8479.27006 5.58693e-18
8483.51812 5.67609e-18
8487.76617 5.76959e-18
8492.01423 5.87086e-18
8496.26228 5.98278e-18
8500.51034 6.10814e-18
8504.75840 6.25023e-18
8509.00645 6.40881e-18
8513.25451 6.58266e-18
8517.50257 6.77033e-18
8521.75062 6.96997e-18
8525.99868 7.17951e-18
8530.24673 7.39689e-18
8534.49479 7.62024e-18
8538.74284 7.84541e-18
8542.99090 8.06923e-18
8547.22894 8.28524e-18
8551.47699 8.50146e-18
8555.72505 8.72577e-18
8559.97311 8.96845e-18
8564.22116 9.22762e-18
8568.46922 9.48979e-18
8572.71727 9.74528e-18
8576.96533 9.98399e-18
8581.21339 1.01951e-17
8585.46144 1.03694e-17
8589.70950 1.04938e-17
8593.95755 1.05855e-17
8598.20561 1.06617e-17
8602.45367 1.07432e-17
8606.70172 1.08380e-17
8610.94978 1.09452e-17
8615.19783 1.10663e-17
8619.44589 1.12007e-17
8623.68393 1.13458e-17
8627.94200 1.14978e-17
8632.18004 1.16520e-17
8636.42809 1.18023e-17
8640.67615 1.19426e-17
8644.92421 1.20680e-17
8649.17226 1.21714e-17
8653.42032 1.22457e-17
8657.66837 1.22836e-17
8661.91643 1.22843e-17
8666.16449 1.22642e-17
8670.41254 1.22360e-17
8674.66060 1.22141e-17
8678.90866 1.22024e-17
8683.15671 1.22050e-17
8687.40477 1.22273e-17
8691.65282 1.22637e-17
8695.90088 1.23054e-17
8700.14893 1.23436e-17
8704.38697 1.23696e-17
8708.63503 1.23755e-17
8712.88308 1.23537e-17
8717.13114 1.22970e-17
8721.37920 1.22169e-17
8725.62725 1.21227e-17
8729.87531 1.20249e-17
8734.12336 1.19320e-17
8738.37142 1.18511e-17
8742.61948 1.17921e-17
8746.86753 1.17545e-17
8751.11559 1.17251e-17
8755.36364 1.16930e-17
8759.61170 1.16468e-17
8763.85976 1.15894e-17
8768.10781 1.15209e-17
8772.35587 1.14436e-17
8776.60392 1.13545e-17
8780.85198 1.12515e-17
8785.10004 1.11332e-17
8789.33807 1.10029e-17
8793.58613 1.08679e-17
8797.83418 1.07335e-17
8802.08224 1.06062e-17
8806.33030 1.05057e-17
8810.57835 1.04466e-17
8814.82641 1.04488e-17
8819.07446 1.04891e-17
8823.32252 1.05448e-17
8827.57058 1.05897e-17
8831.81863 1.06113e-17
8836.06669 1.06054e-17
8840.31474 1.05648e-17
8844.56280 1.04872e-17
8848.81086 1.03838e-17
8853.05891 1.02646e-17
8857.30697 1.01438e-17
8861.55502 1.00195e-17
8865.80308 9.89271e-18
8870.05114 9.75890e-18
8874.28917 9.63153e-18
8878.53723 9.52780e-18
8882.78529 9.46531e-18
8887.03334 9.44943e-18
8891.28140 9.45643e-18
8895.52945 9.46944e-18
8899.77751 9.46876e-18
8904.02557 9.45100e-18
8908.27362 9.41115e-18
8912.52168 9.34260e-18
8916.76973 9.25046e-18
8921.01779 9.14277e-18
8925.26585 9.03032e-18
8929.51390 8.91886e-18
8933.76196 8.80505e-18
8938.01001 8.68699e-18
8942.25807 8.56070e-18
8946.50613 8.45188e-18
8950.75418 8.37729e-18
8954.99222 8.36901e-18
8959.24028 8.38820e-18
8963.48833 8.39326e-18
8967.73639 8.33294e-18
8971.98444 8.20084e-18
8976.23250 8.03714e-18
8980.48056 7.86962e-18
8984.72861 7.72747e-18
8988.97667 7.61050e-18
8993.22472 7.52509e-18
8997.47278 7.48119e-18
9001.72084 7.46299e-18
9005.96889 7.45520e-18
9010.21695 7.43259e-18
9014.46500 7.40067e-18
9018.71306 7.38412e-18
9022.96112 7.40295e-18
9027.19915 7.47139e-18
9031.45723 7.56630e-18
9035.69526 7.67283e-18
9039.94332 7.77149e-18
9044.19138 7.85756e-18
9048.43943 7.92449e-18
9052.68749 7.97122e-18
9056.93554 7.98388e-18
9061.18360 7.94636e-18
9065.43166 7.84188e-18
9069.67971 7.66904e-18
9073.92777 7.47173e-18
9078.17582 7.28275e-18
9082.42388 7.13892e-18
9086.67194 7.04451e-18
9090.91999 7.00400e-18
9095.16805 7.02763e-18
9099.41610 7.09359e-18
9103.66416 7.17174e-18
9107.91222 7.22953e-18
9112.15025 7.24729e-18
9116.39831 7.23376e-18
9120.64637 7.19078e-18
9124.89442 7.12280e-18
9129.14248 7.04577e-18
9133.39053 6.97458e-18
9137.63859 6.93136e-18
9141.88664 6.91084e-18
9146.13470 6.90428e-18
9150.38276 6.90148e-18
9154.63081 6.90063e-18
9158.87887 6.91191e-18
9163.12693 6.94082e-18
9167.37498 6.99285e-18
9171.62304 7.07036e-18
9175.87109 7.17518e-18
9180.11915 7.31043e-18
9184.36721 7.46647e-18
9188.61526 7.63237e-18
9192.85330 7.79762e-18
9197.10135 7.95196e-18
9201.34941 8.08636e-18
9205.59747 8.19200e-18
9209.84552 8.26340e-18
9214.09358 8.31084e-18
9218.34163 8.34285e-18
9222.58969 8.36818e-18
9226.83775 8.40096e-18
9231.08580 8.45399e-18
9235.33386 8.54073e-18
9239.58191 8.66351e-18
9243.82997 8.81658e-18
9248.07803 8.99505e-18
9252.32608 9.18737e-18
9256.57414 9.36356e-18
9260.82219 9.49782e-18
9265.07025 9.56504e-18
9269.31831 9.54572e-18
9273.55634 9.42545e-18
9277.80440 9.18461e-18
9282.05246 8.84305e-18
9286.30051 8.43666e-18
9290.54857 7.99949e-18
9294.79662 7.56613e-18
9299.04468 7.16603e-18
9303.29273 6.82846e-18
9307.54079 6.58183e-18
9311.78885 6.40977e-18
9316.03690 6.29701e-18
9320.28496 6.22653e-18
9324.53302 6.17484e-18
9328.78107 6.11803e-18
9333.02913 6.02633e-18
9337.27718 5.88896e-18
9341.52524 5.72672e-18
9345.77329 5.55453e-18
9350.02135 5.39148e-18
9354.25939 5.22973e-18
9358.50744 5.06889e-18
9362.75550 4.91032e-18
9367.00356 4.75849e-18
9371.25161 4.62091e-18
9375.49967 4.49249e-18
9379.74772 4.39996e-18
9383.99578 4.40182e-18
9388.24384 4.54528e-18
9392.49189 4.86746e-18
9396.73995 5.30164e-18
9400.98800 5.79695e-18
9405.23606 6.29930e-18
9409.48412 6.74703e-18
9413.73217 7.08372e-18
9417.98023 7.24006e-18
9422.22828 7.21204e-18
9426.47634 7.04445e-18
9430.72440 6.77514e-18
9434.97245 6.44941e-18
9439.21049 6.11099e-18
9443.45854 5.80532e-18
9447.70660 5.58236e-18
9451.95466 5.44058e-18
9456.20271 5.37503e-18
9460.45077 5.38231e-18
9464.69882 5.43910e-18
9468.94688 5.51376e-18
9473.19494 5.57017e-18
9477.44299 5.58457e-18
9481.69105 5.57927e-18
9485.93911 5.56593e-18
