# wavelength flux
3222.89188 4.16164e-18
3225.54692 5.84140e-18
3228.20195 8.57279e-18
3230.85699 7.66344e-18
3233.50200 7.49772e-18
3236.15704 7.71962e-18
3238.81207 7.72395e-18
3241.46711 7.63159e-18
3244.11212 8.21429e-18
3246.76716 6.49096e-18
3249.42219 5.39822e-18
3252.07723 6.45260e-18
3254.72225 8.43837e-18
3257.37728 8.02828e-18
3260.03231 5.14220e-18
3262.68735 4.59032e-18
3265.33237 6.21387e-18
3267.98740 6.09543e-18
3270.64244 6.12665e-18
3273.29747 7.24797e-18
3275.94249 8.42571e-18
3278.59752 8.84712e-18
3281.25256 8.06472e-18
3283.90759 7.69341e-18
3286.55261 7.16153e-18
3289.20764 7.09269e-18
3291.86268 8.67824e-18
3294.51771 8.92596e-18
3297.16273 7.63632e-18
3299.81776 7.31751e-18
3302.47280 7.87655e-18
3305.12783 7.57160e-18
3307.77285 8.07252e-18
3310.42789 8.03268e-18
3313.08292 7.19576e-18
3315.73796 8.01148e-18
3318.38297 8.59414e-18
3321.03801 8.16910e-18
3323.69304 8.45497e-18
3326.34808 8.93013e-18
3328.99309 9.56670e-18
3331.64813 1.02277e-17
3334.30316 9.21382e-18
3336.94818 8.62106e-18
3339.60321 9.31933e-18
3342.25825 9.75710e-18
3344.91328 9.73295e-18
3347.55830 1.07000e-17
3350.21333 1.09981e-17
3352.86837 1.06918e-17
3355.52340 1.07256e-17
3358.16842 1.03809e-17
3360.82345 9.68300e-18
3363.47849 1.00916e-17
3366.13353 1.06344e-17
3368.77854 1.07925e-17
3371.43358 1.11852e-17
3374.08861 1.10259e-17
3376.74365 1.05619e-17
3379.38866 1.10409e-17
3382.04370 1.13695e-17
3384.69873 1.06569e-17
3387.35377 1.03653e-17
3389.99878 1.04379e-17
3392.65382 1.04334e-17
3395.30885 1.10035e-17
3397.96389 1.13325e-17
3400.60890 1.15241e-17
3403.26394 1.19492e-17
3405.91897 1.20640e-17
3408.57401 1.24468e-17
3411.21902 1.27006e-17
3413.87406 1.23815e-17
3416.52910 1.17722e-17
3419.18413 1.18753e-17
3421.82915 1.24434e-17
3424.48418 1.28452e-17
3427.13922 1.23761e-17
3429.79425 1.14548e-17
3432.43927 1.18369e-17
3435.09430 1.20767e-17
3437.74934 1.18718e-17
3440.40437 1.20795e-17
3443.04939 1.23776e-17
3445.70442 1.25035e-17
3448.35946 1.24312e-17
3451.01449 1.24356e-17
3453.65951 1.23950e-17
3456.31454 1.23782e-17
3458.96958 1.23282e-17
3461.62461 1.19554e-17
3464.26963 1.17929e-17
3466.92467 1.15337e-17
3469.57970 1.19103e-17
3472.23474 1.21615e-17
3474.87975 1.18442e-17
3477.53479 1.15361e-17
3480.18982 1.16173e-17
3482.83484 1.15778e-17
3485.48987 1.14897e-17
3488.14491 1.16744e-17
3490.79994 1.19907e-17
3493.44496 1.20702e-17
3496.09999 1.19045e-17
3498.75503 1.19965e-17
3501.41006 1.19065e-17
3504.05508 1.13815e-17
3506.71011 1.10826e-17
3509.36515 1.11409e-17
3512.02018 1.12965e-17
3514.66520 1.13004e-17
3517.32024 1.12471e-17
3519.97527 1.13787e-17
3522.63030 1.10335e-17
3525.27532 1.05860e-17
3527.93036 1.04795e-17
3530.58539 1.04722e-17
3533.24043 1.05341e-17
3535.88544 1.02609e-17
3538.54048 9.96104e-18
3541.19551 9.98765e-18
3543.85055 1.00322e-17
3546.49556 1.02053e-17
3549.15060 1.02003e-17
3551.80563 1.02367e-17
3554.46067 1.02609e-17
3557.10568 1.02170e-17
3559.76072 1.00117e-17
3562.41575 9.85170e-18
3565.07079 9.79723e-18
3567.71580 9.83217e-18
3570.37084 9.95962e-18
3573.02588 1.00703e-17
3575.68091 1.01068e-17
3578.32593 1.01825e-17
3580.98096 1.00797e-17
3583.63600 9.79650e-18
3586.29103 9.81097e-18
3588.93605 1.00605e-17
3591.59108 1.01431e-17
3594.24612 9.98099e-18
3596.90115 9.81141e-18
3599.54617 9.63884e-18
3602.20120 9.44518e-18
3604.85624 9.40041e-18
3607.51127 9.50744e-18
3610.15629 9.52674e-18
3612.81132 9.52304e-18
3615.46636 9.65500e-18
3618.11137 9.45586e-18
3620.76641 9.38831e-18
3623.42145 9.58953e-18
3626.07648 9.72565e-18
3628.72150 9.78851e-18
3631.37653 9.84820e-18
3634.03157 9.87052e-18
3636.68660 9.77207e-18
3639.33162 1.01691e-17
3641.98665 1.02616e-17
3644.64169 1.00735e-17
3647.29672 1.02244e-17
3649.94174 1.04309e-17
3652.59677 1.05318e-17
3655.25181 1.06037e-17
3657.90684 1.06613e-17
3660.55186 1.02819e-17
3663.20689 9.85066e-18
3665.86193 9.86234e-18
3668.51696 9.84373e-18
3671.16198 9.73612e-18
3673.81702 9.50170e-18
3676.47205 9.39579e-18
3679.12709 9.51198e-18
3681.77210 9.37217e-18
3684.42714 9.21514e-18
3687.08217 9.08337e-18
3689.73721 8.83280e-18
3692.38222 8.42817e-18
3695.03726 8.13196e-18
3697.69229 8.07638e-18
3700.34733 7.95089e-18
3702.99234 7.81804e-18
3705.64738 7.57137e-18
3708.30241 7.22596e-18
3710.95745 6.95035e-18
3713.60246 6.63256e-18
3716.25750 6.56515e-18
3718.91253 6.50517e-18
3721.56757 6.44520e-18
3724.21259 6.38524e-18
3726.86762 6.32529e-18
3729.52265 6.26535e-18
3732.17769 6.20541e-18
3734.82271 6.14549e-18
3737.47774 6.08557e-18
3740.13278 6.02566e-18
3742.78781 5.96576e-18
3745.43283 5.90587e-18
3748.08786 5.84598e-18
3750.74290 5.78611e-18
3753.38791 5.72624e-18
3756.04295 5.66638e-18
3758.69798 5.65084e-18
3761.35302 5.67326e-18
3763.99803 5.73076e-18
3766.65307 5.65258e-18
3769.30810 5.68930e-18
3771.96314 5.76606e-18
3774.60815 5.87428e-18
3777.26319 5.96802e-18
3779.91822 6.02691e-18
3782.57326 6.13541e-18
3785.21828 6.20542e-18
3787.87331 6.28267e-18
3790.52835 6.51182e-18
3793.18338 6.79028e-18
3795.82840 6.93278e-18
3798.48343 6.98419e-18
3801.13847 7.04931e-18
3803.79350 7.15454e-18
3806.43852 7.31469e-18
3809.09355 7.64597e-18
3811.74859 8.06807e-18
3814.40362 8.31995e-18
3817.04864 8.46246e-18
3819.70367 8.74052e-18
3822.35871 9.09958e-18
3825.01374 9.39510e-18
3827.65876 9.65695e-18
3830.31380 9.88520e-18
3832.96883 1.02062e-17
3835.62387 1.06020e-17
3838.26888 1.08772e-17
3840.92392 1.10834e-17
3843.57895 1.13509e-17
3846.23399 1.13547e-17
3848.87900 1.14176e-17
3851.53404 1.15746e-17
3854.18907 1.19257e-17
3856.84411 1.22806e-17
3859.48912 1.23843e-17
3862.14416 1.24422e-17
3864.79919 1.28245e-17
3867.45423 1.33837e-17
3870.09924 1.37170e-17
3872.75428 1.39191e-17
3875.40931 1.42307e-17
3878.06435 1.44944e-17
3880.70937 1.46038e-17
3883.36440 1.44779e-17
3886.01944 1.45667e-17
3888.66445 1.47724e-17
3891.31949 1.50241e-17
3893.97452 1.51639e-17
3896.62956 1.51814e-17
3899.27457 1.53698e-17
3901.92961 1.56091e-17
3904.58464 1.58100e-17
3907.23968 1.60283e-17
3909.88469 1.63519e-17
3912.53973 1.66107e-17
3915.19476 1.66232e-17
3917.84980 1.65018e-17
3920.49481 1.65609e-17
3923.14985 1.67995e-17
3925.80488 1.69452e-17
3928.45992 1.68894e-17
3931.10494 1.67914e-17
3933.75997 1.69109e-17
3936.41500 1.69343e-17
3939.07004 1.67597e-17
3941.71506 1.63593e-17
3944.37009 1.60797e-17
3947.02513 1.64137e-17
3949.68016 1.72254e-17
3952.32518 1.80824e-17
3954.98021 1.85148e-17
3957.63525 1.89430e-17
3960.29028 1.91281e-17
3962.93530 1.90428e-17
3965.59033 1.89453e-17
3968.24537 1.90034e-17
3970.90040 1.91061e-17
3973.54542 1.88502e-17
3976.20045 1.83972e-17
3978.85549 1.81486e-17
3981.51052 1.82649e-17
3984.15554 1.86333e-17
3986.81057 1.89211e-17
3989.46561 1.90898e-17
3992.12065 1.89963e-17
3994.76566 1.87168e-17
3997.42070 1.84825e-17
4000.07573 1.83620e-17
4002.73077 1.83439e-17
4005.37578 1.82249e-17
4008.03082 1.80048e-17
4010.68585 1.78939e-17
4013.34089 1.78833e-17
4015.98590 1.78538e-17
4018.64094 1.76857e-17
4021.29597 1.74627e-17
4023.94099 1.73651e-17
4026.59602 1.73567e-17
4029.25106 1.72179e-17
4031.90609 1.69484e-17
4034.55111 1.67229e-17
4037.20615 1.67236e-17
4039.86118 1.68610e-17
4042.51622 1.66808e-17
4045.16123 1.64594e-17
4047.81627 1.63621e-17
4050.47130 1.62657e-17
4053.12634 1.61416e-17
4055.77135 1.59539e-17
4058.42639 1.59205e-17
4061.08142 1.57866e-17
4063.73646 1.55072e-17
4066.38147 1.54355e-17
4069.03651 1.55826e-17
4071.69154 1.56118e-17
4074.34658 1.54316e-17
4076.99159 1.52392e-17
4079.64663 1.51114e-17
4082.30166 1.50103e-17
4084.95670 1.48843e-17
4087.60171 1.46820e-17
4090.25675 1.45725e-17
4092.91179 1.45020e-17
4095.56682 1.44411e-17
4098.21184 1.43613e-17
4100.86687 1.41651e-17
4103.52191 1.40167e-17
4106.17694 1.39992e-17
4108.82196 1.40243e-17
4111.47699 1.39387e-17
4114.13203 1.38081e-17
4116.78706 1.38696e-17
4119.43208 1.38225e-17
4122.08711 1.35831e-17
4124.74215 1.34388e-17
4127.39718 1.33933e-17
4130.04220 1.32833e-17
4132.69723 1.31455e-17
4135.35227 1.31142e-17
4138.00730 1.30513e-17
4140.65232 1.28516e-17
4143.30735 1.27471e-17
4145.96239 1.27090e-17
4148.61743 1.26200e-17
4151.26244 1.26478e-17
4153.91748 1.26245e-17
4156.57251 1.26487e-17
4159.22755 1.26517e-17
4161.87256 1.25787e-17
4164.52760 1.26995e-17
4167.18263 1.27389e-17
4169.82765 1.26727e-17
4172.48268 1.25903e-17
4175.13772 1.26196e-17
4177.79275 1.26901e-17
4180.43777 1.26187e-17
4183.09280 1.25787e-17
4185.74784 1.25593e-17
4188.40287 1.25756e-17
4191.04789 1.25961e-17
4193.70293 1.26749e-17
4196.35796 1.27190e-17
4199.01300 1.28180e-17
4201.65801 1.29662e-17
4204.31305 1.30756e-17
4206.96808 1.30977e-17
4209.62312 1.30556e-17
4212.26813 1.30981e-17
4214.92317 1.32106e-17
4217.57820 1.31815e-17
4220.23324 1.31883e-17
4222.87825 1.32181e-17
4225.53329 1.32694e-17
4228.18832 1.33425e-17
4230.84336 1.33830e-17
4233.48837 1.33932e-17
4236.14341 1.33970e-17
4238.79844 1.34299e-17
4241.45348 1.33036e-17
4244.09850 1.31926e-17
4246.75353 1.32879e-17
4249.40857 1.33317e-17
4252.06360 1.33457e-17
4254.70862 1.33310e-17
4257.36365 1.34209e-17
4260.01869 1.35389e-17
4262.67372 1.35166e-17
4265.31874 1.35337e-17
4267.97377 1.35031e-17
4270.62881 1.34317e-17
4273.28384 1.35294e-17
4275.92886 1.36152e-17
4278.58389 1.36168e-17
4281.23893 1.36025e-17
4283.89396 1.36483e-17
4286.53898 1.37433e-17
4289.19401 1.36704e-17
4291.84905 1.35740e-17
4294.49407 1.36475e-17
4297.14910 1.35215e-17
4299.80413 1.32864e-17
4302.45917 1.32091e-17
4305.10419 1.32335e-17
4307.75922 1.32766e-17
4310.41426 1.32545e-17
4313.06929 1.32068e-17
4315.71431 1.31632e-17
4318.36934 1.29794e-17
4321.02438 1.28935e-17
4323.67941 1.28531e-17
4326.32443 1.28358e-17
4328.97946 1.27437e-17
4331.63450 1.25942e-17
4334.28953 1.24454e-17
4336.93455 1.22584e-17
4339.58958 1.21397e-17
4342.24462 1.20907e-17
4344.89965 1.19695e-17
4347.54467 1.17987e-17
4350.19970 1.17319e-17
4352.85474 1.17068e-17
4355.50978 1.16901e-17
4358.15479 1.16734e-17
4360.80983 1.16567e-17
4363.46486 1.16400e-17
4366.11990 1.16233e-17
4368.76491 1.16066e-17
4371.41995 1.15899e-17
4374.07498 1.15732e-17
4376.73002 1.15565e-17
4379.37503 1.15398e-17
4382.03007 1.15231e-17
4384.68510 1.15064e-17
4387.34014 1.14897e-17
4389.98515 1.14730e-17
4392.64019 1.16872e-17
4395.29522 1.17840e-17
4397.95026 1.19038e-17
4400.59527 1.20375e-17
4403.25031 1.22591e-17
4405.90535 1.24055e-17
4408.56038 1.25558e-17
4411.20540 1.27472e-17
4413.86043 1.27345e-17
4416.51547 1.28024e-17
4419.17050 1.28552e-17
4421.81552 1.28099e-17
4424.47055 1.28227e-17
4427.12559 1.29094e-17
4429.78062 1.29324e-17
4432.42564 1.28617e-17
4435.08067 1.28902e-17
4437.73571 1.30364e-17
4440.39074 1.31296e-17
4443.03576 1.32854e-17
4445.69079 1.35070e-17
4448.34583 1.36586e-17
4451.00086 1.37819e-17
4453.64588 1.39247e-17
4456.30092 1.41374e-17
4458.95595 1.43509e-17
4461.60097 1.43899e-17
4464.25600 1.44157e-17
4466.91104 1.45885e-17
4469.56607 1.47252e-17
4472.21109 1.48451e-17
4474.86612 1.49853e-17
4477.52116 1.51476e-17
4480.17619 1.52230e-17
4482.82121 1.51819e-17
4485.47624 1.52252e-17
4488.13128 1.54142e-17
4490.78631 1.55639e-17
4493.43133 1.56602e-17
4496.08636 1.56906e-17
4498.74140 1.57782e-17
4501.39643 1.57832e-17
4504.04145 1.58032e-17
4506.69648 1.59185e-17
4509.35152 1.60029e-17
4512.00655 1.60268e-17
4514.65157 1.61489e-17
4517.30661 1.63939e-17
4519.96164 1.64695e-17
4522.61668 1.65713e-17
4525.26169 1.66496e-17
4527.91673 1.66343e-17
4530.57176 1.66979e-17
4533.22680 1.67127e-17
4535.87181 1.67392e-17
4538.52685 1.68530e-17
4541.18188 1.69225e-17
4543.83692 1.69523e-17
4546.48193 1.69828e-17
4549.13697 1.70042e-17
4551.79200 1.70516e-17
4554.44704 1.72201e-17
4557.09206 1.74007e-17
4559.74709 1.73704e-17
4562.40212 1.72313e-17
4565.05716 1.72510e-17
4567.70218 1.73208e-17
4570.35721 1.71945e-17
4573.01225 1.70096e-17
4575.65726 1.69315e-17
4578.31230 1.69506e-17
4580.96733 1.69169e-17
4583.62237 1.67699e-17
4586.26738 1.66184e-17
4588.92242 1.65611e-17
4591.57745 1.65320e-17
4594.23249 1.64821e-17
4596.87750 1.64293e-17
4599.53254 1.63337e-17
4602.18757 1.62015e-17
4604.84261 1.61397e-17
4607.48762 1.60515e-17
4610.14266 1.59122e-17
4612.79770 1.57618e-17
4615.45273 1.55936e-17
4618.09775 1.55166e-17
4620.75278 1.54682e-17
4623.40782 1.53358e-17
4626.06285 1.51326e-17
4628.70787 1.49070e-17
4631.36290 1.46971e-17
4634.01794 1.45922e-17
4636.67297 1.43653e-17
4639.31799 1.40766e-17
4641.97302 1.38504e-17
4644.62806 1.36001e-17
4647.28309 1.34013e-17
4649.92811 1.33070e-17
4652.58314 1.31024e-17
4655.23818 1.28342e-17
4657.89321 1.27091e-17
4660.53823 1.26547e-17
4663.19327 1.25756e-17
4665.84830 1.24790e-17
4668.50333 1.23903e-17
4671.14835 1.23062e-17
4673.80339 1.22442e-17
4676.45842 1.22515e-17
4679.11346 1.22081e-17
4681.75847 1.21336e-17
4684.41351 1.21143e-17
4687.06854 1.20365e-17
4689.72358 1.19889e-17
4692.36859 1.19223e-17
4695.02363 1.19019e-17
4697.67866 1.20191e-17
4700.33370 1.20966e-17
4702.97871 1.21747e-17
4705.63375 1.22226e-17
4708.28878 1.22769e-17
4710.94382 1.23186e-17
4713.58883 1.23245e-17
4716.24387 1.23182e-17
4718.89891 1.22289e-17
4721.55394 1.21864e-17
4724.19896 1.21282e-17
4726.85399 1.20321e-17
4729.50903 1.20101e-17
4732.16406 1.18815e-17
4734.80908 1.16482e-17
4737.46411 1.14807e-17
4740.11915 1.13841e-17
4742.76416 1.12616e-17
4745.41920 1.11140e-17
4748.07423 1.09842e-17
4750.72927 1.08939e-17
4753.37428 1.07820e-17
4756.02932 1.06581e-17
4758.68435 1.05756e-17
4761.33939 1.05484e-17
4763.98441 1.04763e-17
4766.63944 1.03691e-17
4769.29447 1.02842e-17
4771.94951 1.02339e-17
4774.59453 1.02412e-17
4777.24956 1.02522e-17
4779.90460 1.02664e-17
4782.55963 1.02935e-17
4785.20465 1.02917e-17
4787.85968 1.02784e-17
4790.51472 1.02985e-17
4793.16975 1.03509e-17
4795.81477 1.04016e-17
4798.46980 1.04542e-17
4801.12484 1.05493e-17
4803.77987 1.06410e-17
4806.42489 1.07289e-17
4809.07992 1.07777e-17
4811.73496 1.07724e-17
4814.38999 1.07755e-17
4817.03501 1.07234e-17
4819.69005 1.06165e-17
4822.34508 1.05171e-17
4825.00012 1.05235e-17
4827.64513 1.05283e-17
4830.30017 1.05287e-17
4832.95520 1.05553e-17
4835.61024 1.05606e-17
4838.25525 1.05984e-17
4840.91029 1.06810e-17
4843.56532 1.07612e-17
4846.22036 1.07696e-17
4848.86537 1.07831e-17
4851.52041 1.08751e-17
4854.17544 1.09325e-17
4856.82046 1.09899e-17
4859.47549 1.10473e-17
4862.13053 1.11047e-17
4864.78556 1.11620e-17
4867.43058 1.12194e-17
4870.08562 1.12767e-17
4872.74065 1.13341e-17
4875.39568 1.13914e-17
4878.04070 1.14488e-17
4880.69574 1.15061e-17
4883.35077 1.15634e-17
4886.00581 1.16207e-17
4888.65082 1.16781e-17
4891.30586 1.18396e-17
4893.96089 1.20115e-17
4896.61593 1.21305e-17
4899.26094 1.21237e-17
4901.91598 1.22887e-17
4904.57101 1.24377e-17
4907.22605 1.24751e-17
4909.87106 1.25628e-17
4912.52610 1.27092e-17
4915.18113 1.28120e-17
4917.83617 1.28687e-17
4920.48118 1.29637e-17
4923.13622 1.30558e-17
4925.79126 1.31591e-17
4928.44629 1.31828e-17
4931.09131 1.31585e-17
4933.74634 1.31414e-17
4936.40138 1.31364e-17
4939.05641 1.30904e-17
4941.70143 1.30220e-17
4944.35646 1.30043e-17
4947.01150 1.29555e-17
4949.66653 1.28275e-17
4952.31155 1.27500e-17
4954.96658 1.26725e-17
4957.62162 1.25951e-17
4960.27665 1.25176e-17
4962.92167 1.24402e-17
4965.57670 1.23627e-17
4968.23174 1.22853e-17
4970.88677 1.22079e-17
4973.53179 1.21304e-17
4976.18682 1.20530e-17
4978.84186 1.19756e-17
4981.48688 1.18982e-17
4984.14191 1.18208e-17
4986.79695 1.17435e-17
4989.45198 1.17032e-17
4992.10702 1.16685e-17
4994.75203 1.16504e-17
4997.40707 1.15350e-17
5000.06210 1.15542e-17
5002.71714 1.15734e-17
5005.36215 1.15925e-17
5008.01719 1.16117e-17
5010.67222 1.16309e-17
5013.31724 1.16501e-17
5015.97227 1.16692e-17
5018.62731 1.16884e-17
5021.28234 1.17076e-17
5023.92736 1.17267e-17
5026.58240 1.17459e-17
5029.23743 1.17651e-17
5031.89247 1.17842e-17
5034.53748 1.18034e-17
5037.19252 1.19625e-17
5039.84755 1.21180e-17
5042.50259 1.22358e-17
5045.14760 1.23113e-17
5047.80264 1.23518e-17
5050.45767 1.25082e-17
5053.11271 1.26302e-17
5055.75772 1.26089e-17
5058.41276 1.26046e-17
5061.06779 1.25849e-17
5063.72283 1.26710e-17
5066.36784 1.28465e-17
5069.02288 1.29128e-17
5071.67791 1.28423e-17
5074.33295 1.30001e-17
5076.97797 1.31697e-17
5079.63300 1.32201e-17
5082.28803 1.32933e-17
5084.94307 1.33205e-17
5087.58809 1.33367e-17
5090.24312 1.34359e-17
5092.89816 1.35419e-17
5095.55319 1.35737e-17
5098.19821 1.35869e-17
5100.85324 1.36244e-17
5103.50828 1.36976e-17
5106.16331 1.37754e-17
5108.80833 1.37899e-17
5111.46336 1.38005e-17
5114.11840 1.38710e-17
5116.77343 1.38775e-17
5119.41845 1.38743e-17
5122.07348 1.39478e-17
5124.72852 1.40210e-17
5127.38355 1.40092e-17
5130.02857 1.40368e-17
5132.68361 1.41327e-17
5135.33864 1.42492e-17
5137.98366 1.43235e-17
5140.63869 1.43516e-17
5143.29373 1.43667e-17
5145.94876 1.44928e-17
5148.59378 1.45353e-17
5151.24881 1.45291e-17
5153.90385 1.45617e-17
5156.55888 1.46136e-17
5159.20390 1.48093e-17
5161.85893 1.48715e-17
5164.51397 1.48528e-17
5167.16900 1.49536e-17
5169.81402 1.49167e-17
5172.46905 1.49449e-17
5175.12409 1.50503e-17
5177.77912 1.51862e-17
5180.42414 1.52602e-17
5183.07917 1.52425e-17
5185.73421 1.53081e-17
5188.38925 1.53960e-17
5191.03426 1.54044e-17
5193.68930 1.55198e-17
5196.34433 1.56684e-17
5198.99937 1.56668e-17
5201.64438 1.57216e-17
5204.29942 1.58615e-17
5206.95445 1.58430e-17
5209.60949 1.57441e-17
5212.25450 1.57527e-17
5214.90954 1.57916e-17
5217.56457 1.57970e-17
5220.21961 1.57922e-17
5222.86462 1.58252e-17
5225.51966 1.58938e-17
5228.17469 1.59625e-17
5230.82973 1.60782e-17
5233.47475 1.61016e-17
5236.12978 1.60958e-17
5238.78481 1.60906e-17
5241.43985 1.61258e-17
5244.08487 1.62771e-17
5246.73990 1.62821e-17
5249.39494 1.62782e-17
5252.03995 1.62101e-17
5254.69499 1.62516e-17
5257.35002 1.63739e-17
5260.00506 1.63992e-17
5262.65007 1.63621e-17
5265.30511 1.63116e-17
5267.96014 1.63490e-17
5270.61518 1.64430e-17
5273.27021 1.64627e-17
5275.91523 1.64862e-17
5278.57026 1.65113e-17
5281.22530 1.64102e-17
5283.87032 1.63899e-17
5286.52535 1.64065e-17
5289.18038 1.63888e-17
5291.83542 1.63538e-17
5294.48044 1.63473e-17
5297.13547 1.63712e-17
5299.79051 1.63561e-17
5302.44554 1.62964e-17
5305.09056 1.62256e-17
5307.74559 1.61860e-17
5310.40063 1.61553e-17
5313.05566 1.60815e-17
5315.70068 1.59923e-17
5318.35571 1.59476e-17
5321.01075 1.59205e-17
5323.66578 1.58532e-17
5326.31080 1.58310e-17
5328.96583 1.58591e-17
5331.62087 1.58225e-17
5334.27590 1.57911e-17
5336.92092 1.56442e-17
5339.57596 1.54887e-17
5342.23099 1.54599e-17
5344.88602 1.54193e-17
5347.53104 1.53548e-17
5350.18608 1.53324e-17
5352.84111 1.52914e-17
5355.49615 1.53129e-17
5358.14116 1.52464e-17
5360.79620 1.51646e-17
5363.45123 1.52277e-17
5366.10627 1.52099e-17
5368.75128 1.51786e-17
5371.40632 1.50949e-17
5374.06135 1.49861e-17
5376.71639 1.50297e-17
5379.36140 1.50543e-17
5382.01644 1.50063e-17
5384.67147 1.49987e-17
5387.32651 1.50184e-17
5389.97152 1.50456e-17
5392.62656 1.50415e-17
5395.28160 1.49706e-17
5397.93663 1.48929e-17
5400.58165 1.48792e-17
5403.23668 1.49405e-17
5405.89172 1.49966e-17
5408.54675 1.49785e-17
5411.19177 1.49384e-17
5413.84680 1.48974e-17
5416.50184 1.48587e-17
5419.14685 1.48731e-17
5421.80189 1.48734e-17
5424.45692 1.48226e-17
5427.11196 1.48224e-17
5429.75697 1.48572e-17
5432.41201 1.48545e-17
5435.06704 1.48536e-17
5437.72208 1.48220e-17
5440.36710 1.46793e-17
5443.02213 1.45833e-17
5445.67717 1.46656e-17
5448.33220 1.47062e-17
5450.97722 1.46420e-17
5453.63225 1.45163e-17
5456.28729 1.43802e-17
5458.94232 1.43844e-17
5461.58734 1.43366e-17
5464.24237 1.42418e-17
5466.89741 1.42714e-17
5469.55244 1.42689e-17
5472.19746 1.41963e-17
5474.85249 1.41588e-17
5477.50753 1.41532e-17
5480.16256 1.41420e-17
5482.80758 1.40600e-17
5485.46261 1.40312e-17
5488.11765 1.40042e-17
5490.77268 1.39650e-17
5493.41770 1.38977e-17
5496.07273 1.37871e-17
5498.72777 1.37590e-17
5501.38281 1.37721e-17
5504.02782 1.36847e-17
5506.68286 1.36493e-17
5509.33789 1.36734e-17
5511.99293 1.36371e-17
5514.63794 1.35823e-17
5517.29298 1.35947e-17
5519.94801 1.36175e-17
5522.60305 1.35917e-17
5525.24806 1.35004e-17
5527.90310 1.33599e-17
5530.55813 1.33791e-17
5533.20315 1.34429e-17
5535.85818 1.34037e-17
5538.51322 1.33822e-17
5541.16825 1.33536e-17
5543.82329 1.32925e-17
5546.46831 1.32543e-17
5549.12334 1.32489e-17
5551.77837 1.31970e-17
5554.43341 1.31755e-17
5557.07843 1.31644e-17
5559.73346 1.31523e-17
5562.38850 1.30863e-17
5565.03351 1.30753e-17
5567.68855 1.31483e-17
5570.34358 1.31524e-17
5572.99862 1.31366e-17
5575.64363 1.30966e-17
5578.29867 1.30443e-17
5580.95370 1.31259e-17
5583.60874 1.31761e-17
5586.25375 1.30645e-17
5588.90879 1.29772e-17
5591.56382 1.29556e-17
5594.21886 1.29407e-17
5596.86388 1.29632e-17
5599.51891 1.29859e-17
5602.17395 1.29687e-17
5604.82898 1.29339e-17
5607.47400 1.28818e-17
5610.12903 1.28801e-17
5612.78407 1.29029e-17
5615.43910 1.28529e-17
5618.08412 1.27996e-17
5620.73915 1.27666e-17
5623.39419 1.26918e-17
5626.04922 1.26116e-17
5628.69424 1.25169e-17
5631.34927 1.24083e-17
5634.00431 1.23831e-17
5636.65934 1.23436e-17
5639.30436 1.21712e-17
5641.95939 1.20555e-17
5644.61443 1.20214e-17
5647.26946 1.18284e-17
5649.91448 1.16200e-17
5652.56952 1.15801e-17
5655.22455 1.14384e-17
5657.87958 1.12077e-17
5660.52460 1.10244e-17
5663.17964 1.09017e-17
5665.83467 1.08310e-17
5668.48971 1.07285e-17
5671.13472 1.06052e-17
5673.78976 1.05129e-17
5676.44479 1.03258e-17
5679.09983 1.02204e-17
5681.74484 1.01164e-17
5684.39988 9.97262e-18
5687.05491 9.93029e-18
5689.70995 9.92396e-18
5692.35496 9.97050e-18
5695.01000 1.00108e-17
5697.66503 9.99131e-18
5700.31005 9.98977e-18
5702.96508 1.00493e-17
5705.62012 1.01297e-17
5708.27516 1.01695e-17
5710.92017 1.02300e-17
5713.57521 1.03311e-17
5716.23024 1.04320e-17
5718.88528 1.05442e-17
5721.53029 1.06708e-17
5724.18533 1.08120e-17
5726.84036 1.09940e-17
5729.49540 1.11859e-17
5732.14041 1.13119e-17
5734.79545 1.14168e-17
5737.45048 1.15061e-17
5740.10552 1.15938e-17
5742.75053 1.18091e-17
5745.40557 1.20383e-17
5748.06060 1.22127e-17
5750.71564 1.24782e-17
5753.36065 1.28464e-17
5756.01569 1.31346e-17
5758.67072 1.33825e-17
5761.32576 1.36287e-17
5763.97078 1.39206e-17
5766.62581 1.42672e-17
5769.28085 1.44715e-17
5771.93588 1.45540e-17
5774.58090 1.47325e-17
5777.23593 1.49072e-17
5779.89097 1.49848e-17
5782.54600 1.51007e-17
5785.19102 1.52067e-17
5787.84605 1.51954e-17
5790.50109 1.51204e-17
5793.15612 1.50251e-17
5795.80114 1.49535e-17
5798.45617 1.49885e-17
5801.11121 1.50994e-17
5803.76624 1.52048e-17
5806.41126 1.52156e-17
5809.06630 1.51057e-17
5811.72133 1.50408e-17
5814.37637 1.50294e-17
5817.02138 1.49910e-17
5819.67642 1.50400e-17
5822.33145 1.51227e-17
5824.98649 1.52094e-17
5827.63150 1.53539e-17
5830.28654 1.54366e-17
5832.94157 1.54255e-17
5835.58659 1.54480e-17
5838.24162 1.55075e-17
5840.89666 1.55845e-17
5843.55169 1.56684e-17
5846.19671 1.56958e-17
5848.85174 1.57133e-17
5851.50678 1.57011e-17
5854.16181 1.56123e-17
5856.80683 1.55345e-17
5859.46187 1.55369e-17
5862.11690 1.55732e-17
5864.77193 1.54574e-17
5867.41695 1.52995e-17
5870.07199 1.53047e-17
5872.72702 1.53564e-17
5875.38206 1.53632e-17
5878.02707 1.52614e-17
5880.68211 1.51267e-17
5883.33714 1.50474e-17
5885.99218 1.49968e-17
5888.63719 1.48368e-17
5891.29223 1.46443e-17
5893.94726 1.44668e-17
5896.60230 1.43159e-17
5899.24731 1.40650e-17
5901.90235 1.35453e-17
5904.55738 1.29134e-17
5907.21242 1.24136e-17
5909.85743 1.22198e-17
5912.51247 1.24285e-17
5915.16751 1.28624e-17
5917.82254 1.33353e-17
5920.46756 1.36998e-17
5923.12259 1.37557e-17
5925.77763 1.36465e-17
5928.43266 1.35929e-17
5931.07768 1.35369e-17
5933.73271 1.34830e-17
5936.38775 1.34816e-17
5939.04278 1.34108e-17
5941.68780 1.32296e-17
5944.34283 1.31246e-17
5946.99787 1.30858e-17
5949.65290 1.30053e-17
5952.29792 1.29442e-17
5954.95295 1.29263e-17
5957.60799 1.29484e-17
5960.26302 1.29244e-17
5962.90804 1.29000e-17
5965.56308 1.29105e-17
5968.21811 1.28517e-17
5970.86313 1.27615e-17
5973.51816 1.27563e-17
5976.17320 1.27609e-17
5978.82823 1.27849e-17
5981.47325 1.27715e-17
5984.12828 1.27101e-17
5986.78332 1.26629e-17
5989.43835 1.26514e-17
5992.08337 1.25642e-17
5994.73840 1.25244e-17
5997.39344 1.21270e-17
6000.04847 1.21068e-17
6002.69349 1.20552e-17
6005.34852 1.19923e-17
6008.00356 1.19599e-17
6010.65859 1.19563e-17
6013.30361 1.19053e-17
6015.95865 1.18310e-17
6018.61368 1.17591e-17
6021.26872 1.16773e-17
6023.91373 1.16184e-17
6026.56877 1.15749e-17
6029.22380 1.15103e-17
6031.87884 1.14758e-17
6034.52385 1.15116e-17
6037.17889 1.15245e-17
6039.83392 1.14591e-17
6042.48896 1.14103e-17
6045.13397 1.13981e-17
6047.78901 1.13750e-17
6050.44404 1.13653e-17
6053.09908 1.13784e-17
6055.74409 1.13580e-17
6058.39913 1.13191e-17
6061.05416 1.13340e-17
6063.70920 1.13573e-17
6066.35422 1.13301e-17
6069.00925 1.13289e-17
6071.66428 1.13274e-17
6074.31932 1.12514e-17
6076.96434 1.11941e-17
6079.61937 1.11721e-17
6082.27441 1.11449e-17
6084.92944 1.10959e-17
6087.57446 1.11067e-17
6090.22949 1.10677e-17
6092.88453 1.10365e-17
6095.53956 1.09947e-17
6098.18458 1.09292e-17
6100.83961 1.08793e-17
6103.49465 1.08418e-17
6106.13966 1.07392e-17
6108.79470 1.06252e-17
6111.44973 1.05633e-17
6114.10477 1.05071e-17
6116.74978 1.04200e-17
6119.40482 1.03176e-17
6122.05985 1.01939e-17
6124.71489 1.00430e-17
6127.35991 9.91169e-18
6130.01494 9.82284e-18
6132.66998 9.69497e-18
6135.32501 9.55705e-18
6137.97003 9.45585e-18
6140.62506 9.35583e-18
6143.28010 9.26598e-18
6145.93513 9.15986e-18
6148.58015 9.03850e-18
6151.23518 8.95203e-18
6153.89022 8.83031e-18
6156.54525 8.69114e-18
6159.19027 8.58339e-18
6161.84530 8.45324e-18
6164.50034 8.31473e-18
6167.15537 8.21715e-18
6169.80039 8.14242e-18
6172.45543 8.04636e-18
6175.11046 7.92906e-18
6177.76550 7.83329e-18
6180.41051 7.71540e-18
6183.06555 7.58286e-18
6185.72058 7.47155e-18
6188.37562 7.38666e-18
6191.02063 7.33428e-18
6193.67567 7.28543e-18
6196.33070 7.19541e-18
6198.98574 7.09584e-18
6201.63075 6.96799e-18
6204.28579 6.86435e-18
6206.94082 6.74672e-18
6209.59586 6.61613e-18
6212.24087 6.52493e-18
6214.89591 6.42460e-18
6217.55094 6.30808e-18
6220.20598 6.16575e-18
6222.85100 6.05156e-18
6225.50603 5.96716e-18
6228.16107 5.86523e-18
6230.81610 5.74414e-18
6233.46112 5.63238e-18
6236.11615 5.54207e-18
6238.77119 5.43093e-18
6241.41620 5.29527e-18
6244.07124 5.19766e-18
6246.72627 5.12903e-18
6249.38131 5.04480e-18
6252.02632 4.93685e-18
6254.68136 4.85462e-18
6257.33639 4.79551e-18
6259.99143 4.72726e-18
6262.63644 4.67828e-18
6265.29148 4.64547e-18
6267.94651 4.62152e-18
6270.60155 4.59408e-18
6273.24657 4.56449e-18
6275.90160 4.53892e-18
6278.55663 4.48084e-18
6281.21167 4.45527e-18
6283.85669 4.54412e-18
6286.51172 4.64575e-18
6289.16676 4.73900e-18
6291.82179 4.87992e-18
6294.46681 5.00620e-18
6297.12184 5.11642e-18
6299.77688 5.27960e-18
6302.43191 5.49881e-18
6305.07693 5.75196e-18
6307.73196 6.02065e-18
6310.38700 6.28753e-18
6313.04203 6.57282e-18
6315.68705 6.82462e-18
6318.34208 7.00586e-18
6320.99712 7.16151e-18
6323.65215 7.33840e-18
6326.29717 7.51312e-18
6328.95220 7.69321e-18
6331.60724 7.88653e-18
6334.26228 8.08306e-18
6336.90729 8.30363e-18
6339.56233 8.55452e-18
6342.21736 8.84409e-18
6344.87240 9.15769e-18
6347.51741 9.47204e-18
6350.17245 9.76227e-18
6352.82748 1.00276e-17
6355.48252 1.03338e-17
6358.12753 1.06306e-17
6360.78257 1.08560e-17
6363.43760 1.10790e-17
6366.09264 1.12744e-17
6368.73765 1.13937e-17
6371.39269 1.15264e-17
6374.04772 1.16969e-17
6376.70276 1.18740e-17
6379.34778 1.20340e-17
6382.00281 1.21857e-17
6384.65785 1.23126e-17
6387.30286 1.24090e-17
6389.95790 1.24537e-17
6392.61293 1.25046e-17
6395.26797 1.26235e-17
6397.91298 1.27299e-17
6400.56802 1.27843e-17
6403.22305 1.28626e-17
6405.87809 1.29498e-17
6408.52310 1.30255e-17
6411.17814 1.30585e-17
6413.83317 1.30852e-17
6416.48821 1.31065e-17
6419.13322 1.30970e-17
6421.78826 1.30879e-17
6424.44329 1.31168e-17
6427.09833 1.31136e-17
6429.74334 1.30735e-17
6432.39838 1.30560e-17
6435.05342 1.30227e-17
6437.70845 1.30178e-17
6440.35347 1.30311e-17
6443.00850 1.29835e-17
6445.66354 1.29414e-17
6448.31857 1.29179e-17
6450.96359 1.28783e-17
6453.61862 1.28170e-17
6456.27366 1.27485e-17
6458.92869 1.27202e-17
6461.57371 1.26820e-17
6464.22874 1.26423e-17
6466.88378 1.25943e-17
6469.53881 1.25117e-17
6472.18383 1.24904e-17
6474.83886 1.25210e-17
6477.49390 1.25081e-17
6480.14893 1.24864e-17
6482.79395 1.24992e-17
6485.44898 1.25266e-17
6488.10402 1.25484e-17
6490.75905 1.25223e-17
6493.40407 1.24810e-17
6496.05911 1.25130e-17
6498.71414 1.25792e-17
6501.36918 1.26084e-17
6504.01419 1.26183e-17
6506.66923 1.26207e-17
6509.32426 1.26367e-17
6511.96928 1.26221e-17
6514.62431 1.25723e-17
6517.27935 1.25977e-17
6519.93438 1.26224e-17
6522.57940 1.25946e-17
6525.23443 1.26325e-17
6527.88947 1.26903e-17
6530.54450 1.26694e-17
6533.18952 1.26318e-17
6535.84455 1.27084e-17
6538.49959 1.28354e-17
6541.15463 1.29541e-17
6543.79964 1.30859e-17
6546.45468 1.31210e-17
6549.10971 1.31561e-17
6551.76475 1.31913e-17
6554.40976 1.32264e-17
6557.06480 1.32615e-17
6559.71983 1.32966e-17
6562.37487 1.33316e-17
6565.01988 1.33667e-17
6567.67492 1.34018e-17
6570.32995 1.34369e-17
6572.98499 1.34720e-17
6575.63000 1.35071e-17
6578.28504 1.35422e-17
6580.94007 1.35773e-17
6583.59511 1.36124e-17
6586.24013 1.36475e-17
6588.89516 1.36825e-17
6591.55020 1.37176e-17
6594.20523 1.37527e-17
6596.85025 1.37878e-17
6599.50528 1.38229e-17
6602.16032 1.38579e-17
6604.81535 1.38930e-17
6607.46037 1.39281e-17
6610.11540 1.38657e-17
6612.77044 1.38281e-17
6615.42547 1.38020e-17
6618.07049 1.37705e-17
6620.72552 1.37764e-17
6623.38056 1.38330e-17
6626.03559 1.38045e-17
6628.68061 1.37534e-17
6631.33564 1.37469e-17
6633.99068 1.37512e-17
6636.64571 1.38060e-17
6639.29073 1.38707e-17
6641.94577 1.38539e-17
6644.60080 1.37943e-17
6647.25583 1.37956e-17
6649.90085 1.37652e-17
6652.55589 1.37017e-17
6655.21092 1.37044e-17
6657.86596 1.36999e-17
6660.51097 1.36082e-17
6663.16601 1.35338e-17
6665.82104 1.35377e-17
6668.46606 1.35235e-17
6671.12109 1.34496e-17
6673.77613 1.34283e-17
6676.43116 1.34360e-17
6679.07618 1.33675e-17
6681.73121 1.33117e-17
6684.38625 1.32955e-17
6687.04128 1.32484e-17
6689.68630 1.32066e-17
6692.34134 1.31880e-17
6694.99637 1.31355e-17
6697.65140 1.30398e-17
6700.29642 1.29619e-17
6702.95146 1.28606e-17
6705.60649 1.27972e-17
6708.26153 1.27932e-17
6710.90654 1.27797e-17
6713.56158 1.26838e-17
6716.21661 1.25761e-17
6718.87165 1.25470e-17
6721.51666 1.24850e-17
6724.17170 1.24131e-17
6726.82673 1.23551e-17
6729.48177 1.22931e-17
6732.12678 1.21853e-17
6734.78182 1.20863e-17
6737.43685 1.20157e-17
6740.09189 1.19676e-17
6742.73690 1.19408e-17
6745.39194 1.18910e-17
6748.04698 1.18071e-17
6750.70201 1.17402e-17
6753.34703 1.16883e-17
6756.00206 1.16089e-17
6758.65710 1.15352e-17
6761.31213 1.14516e-17
6763.95715 1.13679e-17
6766.61218 1.13653e-17
6769.26722 1.13776e-17
6771.92225 1.13242e-17
6774.56727 1.12567e-17
6777.22230 1.11990e-17
6779.87734 1.11459e-17
6782.53237 1.10968e-17
6785.17739 1.10271e-17
6787.83242 1.09421e-17
6790.48746 1.08911e-17
6793.13248 1.08405e-17
6795.78751 1.07568e-17
6798.44254 1.07084e-17
6801.09758 1.08998e-17
6803.74260 1.08922e-17
6806.39763 1.08386e-17
6809.05267 1.07921e-17
6811.70770 1.07467e-17
6814.35272 1.06523e-17
6817.00775 1.05983e-17
6819.66279 1.05638e-17
6822.31782 1.04976e-17
6824.96284 1.04202e-17
6827.61787 1.03740e-17
6830.27291 1.03451e-17
6832.92794 1.02808e-17
6835.57296 1.02608e-17
6838.22799 1.02859e-17
6840.88303 1.02247e-17
6843.53806 1.01692e-17
6846.18308 1.01680e-17
6848.83812 1.01678e-17
6851.49315 1.01401e-17
6854.14819 1.00922e-17
6856.79320 1.00592e-17
6859.44824 1.00114e-17
6862.10327 1.00406e-17
6864.75831 1.01435e-17
6867.40332 1.02239e-17
6870.05836 1.01740e-17
6872.71339 1.00313e-17
6875.36843 9.96020e-18
6878.01344 9.96882e-18
6880.66848 1.00652e-17
6883.32351 1.02689e-17
6885.97855 1.03556e-17
6888.62356 1.02327e-17
6891.27860 1.01155e-17
6893.93363 1.02062e-17
6896.58867 1.03736e-17
6899.23369 1.03693e-17
6901.88872 1.02548e-17
6904.54375 1.02437e-17
6907.19879 1.03031e-17
6909.84381 1.03117e-17
6912.49884 1.04267e-17
6915.15388 1.05575e-17
6917.80891 1.05646e-17
6920.45393 1.06774e-17
6923.10896 1.09012e-17
6925.76400 1.10539e-17
6928.40901 1.12459e-17
6931.06405 1.13799e-17
6933.71908 1.13161e-17
6936.37412 1.12424e-17
6939.02915 1.13302e-17
6941.67417 1.12654e-17
6944.32920 1.11466e-17
6946.98424 1.11908e-17
6949.62925 1.12652e-17
6952.28429 1.12120e-17
6954.93933 1.11876e-17
6957.59436 1.12805e-17
6960.23938 1.12402e-17
6962.89441 1.11474e-17
6965.54945 1.11521e-17
6968.20448 1.11918e-17
6970.84950 1.12289e-17
6973.50453 1.11460e-17
6976.15957 1.10688e-17
6978.81460 1.10103e-17
6981.45962 1.09367e-17
6984.11465 1.08905e-17
6986.76969 1.08680e-17
6989.42472 1.08582e-17
6992.06974 1.08219e-17
6994.72477 1.07595e-17
6997.37981 1.07367e-17
7000.03484 1.07666e-17
7002.67986 1.08105e-17
7005.33489 1.08008e-17
7007.98993 1.08117e-17
7010.64497 1.08177e-17
7013.28998 1.08302e-17
7015.94502 1.08300e-17
7018.60005 1.07855e-17
7021.25509 1.07571e-17
7023.90010 1.07514e-17
7026.55514 1.07156e-17
7029.21017 1.07254e-17
7031.86521 1.08123e-17
7034.51022 1.08756e-17
7037.16526 1.08525e-17
7039.82029 1.07935e-17
7042.47533 1.07320e-17
7045.12034 1.06614e-17
7047.77538 1.06392e-17
7050.43041 1.05721e-17
7053.08545 1.05147e-17
7055.73047 1.05512e-17
7058.38550 1.05672e-17
7061.04054 1.05154e-17
7063.69557 1.04748e-17
7066.34059 1.04580e-17
7068.99562 1.04144e-17
7071.65066 1.03419e-17
7074.29567 1.02952e-17
7076.95071 1.02483e-17
7079.60574 1.01811e-17
7082.26078 1.01730e-17
7084.90579 1.01382e-17
7087.56083 1.00963e-17
7090.21586 1.00719e-17
7092.87090 1.00299e-17
7095.51591 9.99530e-18
7098.17095 9.97819e-18
7100.82598 9.93261e-18
7103.48102 9.91906e-18
7106.12603 9.94015e-18
7108.78107 9.89126e-18
7111.43610 9.82803e-18
7114.09114 9.83147e-18
7116.73616 9.86675e-18
7119.39119 9.84741e-18
7122.04623 9.76242e-18
7124.70126 9.73605e-18
7127.34628 9.76508e-18
7130.00131 9.76456e-18
7132.65635 9.73026e-18
7135.31138 9.70692e-18
7137.95640 9.70821e-18
7140.61143 9.72587e-18
7143.26647 9.69715e-18
7145.92150 9.71427e-18
7148.56652 9.94526e-18
7151.22155 9.96682e-18
7153.87659 9.80175e-18
7156.53162 9.83319e-18
7159.17664 9.90361e-18
7161.83168 9.82380e-18
7164.48671 9.80483e-18
7167.14174 9.87936e-18
7169.78676 9.88448e-18
7172.44180 9.93841e-18
7175.09683 1.00832e-17
7177.75187 9.98987e-18
7180.39688 9.93131e-18
7183.05192 1.00988e-17
7185.70695 1.01471e-17
7188.36199 1.01464e-17
7191.00700 1.01097e-17
7193.66204 1.00452e-17
7196.31707 1.00523e-17
7198.96209 1.01253e-17
7201.61712 1.01619e-17
7204.27216 1.01349e-17
7206.92719 1.00272e-17
7209.58223 1.00434e-17
7212.22725 1.00733e-17
7214.88228 1.00389e-17
7217.53732 1.00365e-17
7220.19235 9.98519e-18
7222.83737 9.87410e-18
7225.49240 9.81018e-18
7228.14744 9.77025e-18
7230.79245 9.84141e-18
7233.44749 9.90106e-18
7236.10252 9.72862e-18
7238.75756 9.77081e-18
7241.40257 9.91447e-18
7244.05761 9.80960e-18
7246.71264 9.66127e-18
7249.36768 9.56905e-18
7252.01269 9.65064e-18
7254.66773 9.79438e-18
7257.32276 9.70002e-18
7259.97780 9.68851e-18
7262.62282 9.74553e-18
7265.27785 9.72359e-18
7267.93289 9.65415e-18
7270.58792 9.47789e-18
7273.23294 9.43320e-18
7275.88797 9.59568e-18
7278.54301 9.76870e-18
7281.19804 9.93506e-18
7283.84306 9.83208e-18
7286.49809 9.57136e-18
7289.15313 9.38715e-18
7291.80816 9.36331e-18
7294.45318 9.47220e-18
7297.10821 9.48202e-18
7299.76325 9.43748e-18
7302.41828 9.43534e-18
7305.06330 9.32857e-18
7307.71833 9.24141e-18
7310.37337 9.10285e-18
7313.02840 9.10951e-18
7315.67342 9.23895e-18
7318.32845 9.19502e-18
7320.98349 9.09195e-18
7323.63853 9.10146e-18
7326.28354 9.07235e-18
7328.93858 8.99562e-18
7331.59361 8.91290e-18
7334.24865 8.90286e-18
7336.89366 8.98438e-18
7339.54870 9.03351e-18
7342.20373 9.01536e-18
7344.85877 8.96113e-18
7347.50378 8.96643e-18
7350.15882 8.99263e-18
7352.81385 8.98663e-18
7355.45887 8.95042e-18
7358.11390 8.89390e-18
7360.76894 8.87165e-18
7363.42397 8.83329e-18
7366.06899 8.82790e-18
7368.72403 8.85592e-18
7371.37906 8.81958e-18
7374.03409 8.78291e-18
7376.67911 8.77280e-18
7379.33415 8.76687e-18
7381.98918 8.79269e-18
7384.64422 8.82440e-18
7387.28923 8.79144e-18
7389.94427 8.75734e-18
7392.59930 8.74758e-18
7395.25434 8.71583e-18
7397.89935 8.69425e-18
7400.55439 8.69690e-18
7403.20942 8.71522e-18
7405.86446 8.69488e-18
7408.50947 8.65357e-18
7411.16451 8.67105e-18
7413.81954 8.68718e-18
7416.47458 8.67258e-18
7419.11960 8.66096e-18
7421.77463 8.63008e-18
7424.42967 8.58531e-18
7427.08470 8.52910e-18
7429.72972 8.54358e-18
7432.38475 8.60745e-18
7435.03979 8.58196e-18
7437.69482 8.52893e-18
7440.33984 8.51015e-18
7442.99487 8.51120e-18
7445.64991 8.47470e-18
7448.30494 8.43160e-18
7450.94996 8.45346e-18
7453.60499 8.49707e-18
7456.26003 8.48627e-18
7458.91506 8.41985e-18
7461.56008 8.40261e-18
7464.21511 8.43419e-18
7466.87015 8.44605e-18
7469.51517 8.41221e-18
7472.17020 8.34872e-18
7474.82523 8.32417e-18
7477.48027 8.31507e-18
7480.12529 8.29349e-18
7482.78032 8.26645e-18
7485.43536 8.24932e-18
7488.09039 8.25343e-18
7490.74543 8.20723e-18
7493.39044 8.13788e-18
7496.04548 8.10827e-18
7498.70051 8.12701e-18
7501.34553 8.16373e-18
7504.00056 8.13933e-18
7506.65560 8.07122e-18
7509.31063 8.00394e-18
7511.95565 7.97267e-18
7514.61068 7.99631e-18
7517.26572 8.02561e-18
7519.92075 8.04250e-18
7522.56577 8.04294e-18
7525.22080 8.00228e-18
7527.87584 7.96800e-18
7530.53088 7.96293e-18
7533.17589 7.93583e-18
7535.83093 7.92713e-18
7538.48596 7.89587e-18
7541.14100 7.87154e-18
7543.78601 7.85503e-18
7546.44105 7.80489e-18
7549.09608 7.76710e-18
7551.75112 7.77844e-18
7554.39613 7.82577e-18
7557.05117 7.81687e-18
7559.70620 7.78943e-18
7562.36124 7.75747e-18
7565.00625 7.73284e-18
7567.66129 7.72381e-18
7570.31632 7.71117e-18
7572.97136 7.71247e-18
7575.61638 7.72595e-18
7578.27141 7.72332e-18
7580.92645 7.69416e-18
7583.58148 7.68035e-18
7586.22650 7.63736e-18
7588.88153 7.60835e-18
7591.53657 7.57774e-18
7594.19160 7.62699e-18
7596.83662 7.38321e-18
7599.49165 7.06395e-18
7602.14669 7.19360e-18
7604.80172 7.31960e-18
7607.44674 7.16133e-18
7610.10177 7.30536e-18
7612.75681 7.69682e-18
7615.41184 7.66160e-18
7618.05686 7.51768e-18
7620.71189 7.62576e-18
7623.36693 7.76421e-18
7626.02196 7.63436e-18
7628.66698 7.39970e-18
7631.32202 7.49158e-18
7633.97705 7.73669e-18
7636.62207 7.83941e-18
7639.27710 7.98334e-18
7641.93214 7.92991e-18
7644.58717 7.64944e-18
7647.23219 7.57350e-18
7649.88722 7.64387e-18
7652.54226 7.82913e-18
7655.19729 7.94758e-18
7657.84231 7.78003e-18
7660.49734 7.64876e-18
7663.15238 7.68526e-18
7665.80741 7.78316e-18
7668.45243 7.83347e-18
7671.10746 7.93274e-18
7673.76250 8.08828e-18
7676.41753 8.03648e-18
7679.06255 7.81990e-18
7681.71758 7.78756e-18
7684.37262 7.77439e-18
7687.02765 7.83995e-18
7689.67267 7.92306e-18
7692.32771 7.98554e-18
7694.98274 8.03619e-18
7697.63778 7.82744e-18
7700.28279 7.72398e-18
7702.93783 7.82484e-18
7705.59286 7.83857e-18
7708.24790 7.78024e-18
7710.89291 7.72252e-18
7713.54795 7.68199e-18
7716.20298 7.68579e-18
7718.85802 7.74774e-18
7721.50303 7.86569e-18
7724.15807 7.94043e-18
7726.81310 7.95177e-18
7729.46814 7.89335e-18
7732.11316 7.84127e-18
7734.76819 7.83963e-18
7737.42323 7.91699e-18
7740.07826 8.00478e-18
7742.72328 7.99399e-18
7745.37831 7.95444e-18
7748.03335 7.93998e-18
7750.67836 7.93912e-18
7753.33340 7.96502e-18
7755.98843 8.04510e-18
7758.64347 8.07962e-18
7761.28848 8.05921e-18
7763.94352 8.04355e-18
7766.59855 8.03572e-18
7769.25359 8.02102e-18
7771.90862 8.01109e-18
7774.55364 8.04582e-18
7777.20867 8.08229e-18
7779.86371 8.09278e-18
7782.50872 8.07613e-18
7785.16376 8.03094e-18
7787.81880 8.00922e-18
7790.47383 8.03974e-18
7793.11885 8.08490e-18
7795.77388 8.10308e-18
7798.42892 8.09865e-18
7801.08395 8.06450e-18
7803.72897 8.04520e-18
7806.38400 8.08630e-18
7809.03904 8.11588e-18
7811.69407 8.11102e-18
7814.33909 8.05101e-18
7816.99412 7.98040e-18
7819.64916 8.01001e-18
7822.30419 8.06667e-18
7824.94921 8.07904e-18
7827.60424 8.10050e-18
7830.25928 8.13229e-18
7832.91431 8.14396e-18
7835.55933 8.09829e-18
7838.21437 8.02998e-18
7840.86940 8.04145e-18
7843.52443 8.08014e-18
7846.16945 8.08808e-18
7848.82449 8.09394e-18
7851.47952 8.04535e-18
7854.13456 7.97917e-18
7856.77957 8.02080e-18
7859.43461 8.06199e-18
7862.08964 8.02327e-18
7864.74468 7.93150e-18
7867.38969 7.86745e-18
7870.04473 7.84307e-18
7872.69976 7.84412e-18
7875.35480 7.88342e-18
7877.99981 7.91803e-18
7880.65485 7.89727e-18
7883.30988 7.83626e-18
7885.96492 7.77534e-18
7888.60993 7.74089e-18
7891.26497 7.73662e-18
7893.92000 7.75031e-18
7896.57504 7.73736e-18
7899.22006 7.68635e-18
7901.87509 7.63012e-18
7904.53013 7.56932e-18
7907.18516 7.55437e-18
7909.83018 7.60973e-18
7912.48521 7.63289e-18
7915.14025 7.61506e-18
7917.78526 7.57948e-18
7920.44030 7.49186e-18
7923.09533 7.38770e-18
7925.75037 7.34612e-18
7928.39538 7.42811e-18
7931.05042 7.46367e-18
7933.70545 7.39744e-18
7936.36049 7.32265e-18
7939.00551 7.29199e-18
7941.66054 7.22499e-18
7944.31558 7.16634e-18
7946.97061 7.12642e-18
7949.61563 7.12954e-18
7952.27066 7.18986e-18
7954.92570 7.20269e-18
7957.58073 7.14679e-18
7960.22575 7.01870e-18
7962.88078 6.90079e-18
7965.53582 6.91130e-18
7968.19085 6.99467e-18
7970.83587 7.02510e-18
7973.49090 7.00274e-18
7976.14594 6.92221e-18
7978.80097 6.81184e-18
7981.44599 6.77252e-18
7984.10102 6.80351e-18
7986.75606 6.86041e-18
7989.41109 6.91216e-18
7992.05611 6.85992e-18
7994.71115 6.74475e-18
7997.36618 6.68561e-18
8000.02122 6.66470e-18
8002.66623 6.62896e-18
8005.32127 6.63374e-18
8007.97630 6.66524e-18
8010.63134 6.62411e-18
8013.27635 6.57027e-18
8015.93139 6.56115e-18
8018.58642 6.52049e-18
8021.24146 6.50107e-18
8023.88647 6.57800e-18
8026.54151 6.62044e-18
8029.19654 6.57908e-18
8031.84156 6.48294e-18
8034.49659 6.40231e-18
8037.15163 6.36642e-18
8039.80666 6.35916e-18
8042.46170 6.38245e-18
8045.10672 6.43031e-18
8047.76175 6.41766e-18
8050.41678 6.35576e-18
8053.06180 6.29206e-18
8055.71684 6.22838e-18
8058.37187 6.18854e-18
8061.02691 6.20515e-18
8063.67192 6.21794e-18
8066.32696 6.18571e-18
8068.98199 6.12884e-18
8071.63703 6.03244e-18
8074.28204 5.98542e-18
8076.93708 5.96952e-18
8079.59211 5.97283e-18
8082.24715 5.98279e-18
8084.89216 5.93593e-18
8087.54720 5.84035e-18
8090.20223 5.74059e-18
8092.85727 5.66962e-18
8095.50228 5.67094e-18
8098.15732 5.70759e-18
8100.81236 5.69795e-18
8103.46739 5.65258e-18
8106.11241 5.58691e-18
8108.76744 5.46970e-18
8111.42248 5.35223e-18
8114.07751 5.28807e-18
8116.72253 5.24300e-18
8119.37756 5.22877e-18
8122.03260 5.23658e-18
8124.68763 5.20005e-18
8127.33265 5.10432e-18
8129.98768 4.97353e-18
8132.64272 4.84695e-18
8135.29775 4.74488e-18
8137.94277 4.71070e-18
8140.59780 4.69334e-18
8143.25284 4.68595e-18
8145.90787 4.65011e-18
8148.55289 4.55337e-18
8151.20792 4.44680e-18
8153.86296 4.38126e-18
8156.51800 4.33316e-18
8159.16301 4.29433e-18
8161.81805 4.25006e-18
8164.47308 4.20125e-18
8167.12812 4.18206e-18
8169.77313 4.16643e-18
8172.42817 4.12924e-18
8175.08320 4.08414e-18
8177.73824 4.03271e-18
8180.38325 4.05226e-18
8183.03829 4.15936e-18
8185.69332 4.22763e-18
8188.33834 4.21890e-18
8190.99337 4.18266e-18
8193.64841 4.12348e-18
8196.30344 4.07837e-18
8198.94846 4.09911e-18
8201.60349 4.16249e-18
8204.25853 4.24238e-18
8206.91357 4.32080e-18
8209.55858 4.37091e-18
8212.21362 4.35992e-18
8214.86865 4.31138e-18
8217.52369 4.24176e-18
8220.16870 4.16712e-18
8222.82374 4.09823e-18
8225.47877 3.98994e-18
8228.13381 3.88510e-18
8230.77882 3.84423e-18
8233.43386 3.88252e-18
8236.08889 3.99074e-18
8238.74393 4.10821e-18
8241.38894 4.17066e-18
8244.04398 4.22042e-18
8246.69901 4.31424e-18
8249.35405 4.35492e-18
8251.99906 4.34331e-18
8254.65410 4.29843e-18
8257.30913 4.21762e-18
8259.96417 4.14869e-18
8262.60919 4.17087e-18
8265.26422 4.28946e-18
8267.91926 4.38839e-18
8270.57429 4.42097e-18
8273.21931 4.37583e-18
8275.87434 4.27564e-18
8278.52938 4.20326e-18
8281.18441 4.16654e-18
8283.82943 4.19006e-18
8286.48446 4.25519e-18
8289.13950 4.33601e-18
8291.79453 4.43285e-18
8294.43955 4.51067e-18
8297.09458 4.53323e-18
8299.74962 4.47497e-18
8302.40465 4.40756e-18
8305.04967 4.42886e-18
8307.70471 4.53852e-18
8310.35974 4.68310e-18
8313.01477 4.73865e-18
8315.65979 4.74096e-18
8318.31483 4.69392e-18
8320.96986 4.63162e-18
8323.61488 4.62602e-18
8326.26991 4.68424e-18
8328.92495 4.83037e-18
8331.57998 4.95913e-18
8334.22500 4.98376e-18
8336.88003 4.92849e-18
8339.53507 4.91664e-18
8342.19010 4.96481e-18
8344.83512 5.00294e-18
8347.49015 5.08019e-18
8350.14519 5.21003e-18
8352.80022 5.30761e-18
8355.44524 5.32701e-18
8358.10028 5.26947e-18
8360.75531 5.19590e-18
8363.41035 5.18571e-18
8366.05536 5.27691e-18
8368.71040 5.45941e-18
8371.36543 5.58284e-18
8374.02047 5.64263e-18
8376.66548 5.63373e-18
8379.32052 5.59671e-18
8381.97555 5.57267e-18
8384.63059 5.62341e-18
8387.27560 5.69678e-18
8389.93064 5.79252e-18
8392.58567 5.90825e-18
8395.24071 5.99174e-18
8397.88572 5.97976e-18
8400.54076 5.91325e-18
8403.19579 5.85476e-18
8405.85083 5.86224e-18
8408.49584 5.96284e-18
8411.15088 6.10034e-18
8413.80592 6.16964e-18
8416.46095 6.17479e-18
8419.10597 6.13634e-18
8421.76100 6.09394e-18
8424.41604 6.11329e-18
8427.07107 6.22728e-18
8429.71609 6.41099e-18
8432.37112 6.50345e-18
8435.02616 6.50214e-18
8437.67117 6.46969e-18
8440.32621 6.37804e-18
8442.98124 6.34247e-18
8445.63628 6.39356e-18
8448.29131 6.52003e-18
8450.93633 6.68756e-18
8453.59136 6.79101e-18
8456.24640 6.82772e-18
8458.90143 6.81913e-18
8461.54645 6.79522e-18
8464.20148 6.77059e-18
8466.85652 6.74471e-18
8469.50154 6.75280e-18
8472.15657 6.83610e-18
8474.81161 6.99035e-18
8477.46664 7.15634e-18
8480.12168 7.25591e-18
8482.76669 7.25712e-18
8485.42173 7.19677e-18
8488.07676 7.14887e-18
8490.72178 7.09016e-18
8493.37681 7.06456e-18
8496.03185 7.16376e-18
8498.68688 7.30172e-18
8501.33190 7.42151e-18
8503.98693 7.50031e-18
8506.64197 7.49852e-18
8509.29700 7.42992e-18
8511.94202 7.33617e-18
8514.59706 7.31227e-18
8517.25209 7.45491e-18
8519.90712 7.62224e-18
8522.55214 7.72487e-18
8525.20718 7.73094e-18
8527.86221 7.71021e-18
8530.51725 7.65757e-18
8533.16226 7.57781e-18
8535.81730 7.50180e-18
8538.47233 7.52422e-18
8541.12737 7.62909e-18
8543.77238 7.77485e-18
8546.42742 7.89256e-18
8549.08245 7.94391e-18
8551.73749 7.91764e-18
8554.38250 7.79901e-18
8557.03754 7.65721e-18
8559.69257 7.59841e-18
8562.34761 7.68756e-18
8564.99263 7.81985e-18
8567.64766 7.90913e-18
8570.30269 8.00758e-18
8572.95773 8.00788e-18
8575.60275 7.88123e-18
8578.25778 7.73629e-18
8580.91282 7.64045e-18
8583.56785 7.62188e-18
8586.21287 7.68909e-18
8588.86790 7.86369e-18
8591.52294 8.04352e-18
8594.17797 8.10699e-18
8596.82299 8.11153e-18
8599.47802 8.05363e-18
8602.13306 7.94035e-18
8604.77807 7.85708e-18
8607.43311 7.79673e-18
8610.08814 7.79050e-18
8612.74318 7.85253e-18
8615.38819 7.99407e-18
8618.04323 8.14508e-18
8620.69827 8.16909e-18
8623.35330 8.09862e-18
8625.99832 7.97428e-18
8628.65335 7.81063e-18
8631.30839 7.73041e-18
8633.96342 7.78123e-18
8636.60844 7.86615e-18
8639.26347 7.93987e-18
8641.91851 8.07552e-18
8644.57354 8.13263e-18
8647.21856 8.05108e-18
8649.87359 7.92313e-18
8652.52863 7.80365e-18
8655.18366 7.69654e-18
8657.82868 7.64375e-18
8660.48371 7.78727e-18
8663.13875 8.00081e-18
8665.79378 8.05429e-18
8668.43880 7.99636e-18
8671.09383 7.90306e-18
8673.74887 7.71731e-18
8676.40391 7.54716e-18
8679.04892 7.53837e-18
8681.70396 7.64779e-18
8684.35899 7.80390e-18
8687.01403 7.97299e-18
8689.65904 8.04343e-18
8692.31408 7.91428e-18
8694.96911 7.73376e-18
8697.61413 7.65361e-18
8700.26916 7.59805e-18
8702.92420 7.60447e-18
8705.57923 7.69649e-18
8708.23427 7.84576e-18
8710.87928 7.99177e-18
8713.53432 7.95140e-18
8716.18935 7.78134e-18
8718.83437 7.64273e-18
8721.48941 7.57355e-18
8724.14444 7.55519e-18
8726.79947 7.66498e-18
8729.45451 7.87395e-18
8732.09953 8.01991e-18
8734.75456 8.07132e-18
8737.40960 8.01947e-18
8740.06463 7.88035e-18
8742.70965 7.74198e-18
8745.36468 7.67923e-18
8748.01972 7.74656e-18
8750.66473 7.91781e-18
8753.31977 8.02279e-18
8755.97480 8.01669e-18
8758.62984 7.98139e-18
8761.28487 7.89499e-18
8763.92989 7.78022e-18
8766.58492 7.63107e-18
8769.23996 7.51705e-18
8771.88498 7.54538e-18
8774.54001 7.67609e-18
8777.19504 7.80221e-18
8779.85008 7.90008e-18
8782.49510 7.95149e-18
8785.15013 7.75194e-18
8787.80517 7.49462e-18
8790.46020 7.38231e-18
8793.10522 7.31162e-18
8795.76025 7.25205e-18
8798.41529 7.30843e-18
8801.07032 7.46344e-18
8803.71534 7.58366e-18
8806.37037 7.59917e-18
8809.02541 7.56729e-18
8811.68044 7.49890e-18
8814.32546 7.32479e-18
8816.98049 7.09816e-18
8819.63553 6.96961e-18
8822.29056 7.00774e-18
8824.93558 7.14941e-18
8827.59062 7.29774e-18
8830.24565 7.36958e-18
8832.90069 7.30019e-18
8835.54570 7.12789e-18
8838.20074 6.92146e-18
8840.85577 6.76930e-18
8843.51081 6.73789e-18
8846.15582 6.85556e-18
8848.81086 7.02746e-18
8851.46589 7.16591e-18
8854.12093 7.21801e-18
8856.76594 7.16653e-18
8859.42098 7.04882e-18
8862.07601 6.93980e-18
8864.73105 6.83658e-18
8867.37606 6.69391e-18
8870.03110 6.58874e-18
8872.68613 6.61498e-18
8875.33115 6.71975e-18
8877.98618 6.83353e-18
8880.64122 6.95989e-18
8883.29626 7.02880e-18
8885.94127 6.96144e-18
8888.59631 6.81974e-18
8891.25134 6.62678e-18
8893.90638 6.46233e-18
8896.55139 6.41909e-18
8899.20643 6.53602e-18
8901.86146 6.67540e-18
8904.51650 6.72109e-18
8907.16151 6.70260e-18
8909.81655 6.61829e-18
8912.47158 6.48077e-18
8915.12662 6.35317e-18
8917.77163 6.23622e-18
8920.42667 6.13025e-18
8923.08170 6.11469e-18
8925.73674 6.19106e-18
8928.38176 6.24830e-18
8931.03679 6.24569e-18
8933.69182 6.22049e-18
8936.34686 6.16742e-18
8938.99188 6.07207e-18
8941.64691 5.93884e-18
8944.30195 5.75689e-18
8946.95698 5.63839e-18
8949.60200 5.62984e-18
8952.25703 5.75185e-18
8954.91207 5.86517e-18
8957.56710 5.83529e-18
8960.21212 5.72971e-18
8962.86715 5.56537e-18
8965.52219 5.33371e-18
8968.17722 5.17130e-18
8970.82224 5.11157e-18
8973.47727 5.15354e-18
8976.13231 5.30223e-18
8978.77733 5.44092e-18
8981.43236 5.45977e-18
8984.08739 5.33809e-18
8986.74243 5.07841e-18
8989.39747 4.77491e-18
8992.04248 4.62327e-18
