# wavelength flux
3202.45312 -1.44288e-18
3207.11196 1.18436e-18
3211.77079 4.80647e-18
3216.42963 -5.82008e-19
3221.09848 -1.26810e-18
3225.75732 9.52118e-18
3230.41615 1.04967e-17
3235.07499 5.90022e-18
3239.74384 2.02047e-18
3244.40267 4.74331e-18
3249.06151 7.66544e-18
3253.72035 4.98755e-18
3258.38920 5.09921e-18
3263.04803 9.84717e-18
3267.70687 8.08119e-18
3272.36570 7.09908e-18
3277.03456 7.70067e-18
3281.69339 8.33902e-18
3286.35223 8.46565e-18
3291.01106 8.85031e-18
3295.67992 1.02027e-17
3300.33875 9.67425e-18
3304.99759 8.42668e-18
3309.65642 8.78816e-18
3314.32528 1.06830e-17
3318.98411 9.80432e-18
3323.64295 9.63205e-18
3328.30178 9.74233e-18
3332.97064 9.97720e-18
3337.62947 1.05221e-17
3342.28831 9.68604e-18
3346.95716 1.00195e-17
3351.61599 9.22952e-18
3356.27483 9.15027e-18
3360.93366 1.06811e-17
3365.60252 1.00098e-17
3370.26135 9.81251e-18
3374.92019 9.82481e-18
3379.57902 1.01180e-17
3384.24788 1.05076e-17
3388.90671 9.98152e-18
3393.56555 1.02221e-17
3398.22438 1.07002e-17
3402.89324 1.12632e-17
3407.55207 1.13696e-17
3412.21091 1.14567e-17
3416.86974 1.08539e-17
3421.53860 1.10379e-17
3426.19743 1.09969e-17
3430.85626 1.19741e-17
3435.51510 1.20157e-17
3440.18395 1.14555e-17
3444.84279 1.15820e-17
3449.50162 1.21528e-17
3454.16046 1.22199e-17
3458.82931 1.16779e-17
3463.48815 1.12921e-17
3468.14698 1.11892e-17
3472.81584 1.19772e-17
3477.47467 1.18043e-17
3482.13351 1.16835e-17
3486.79234 1.16740e-17
3491.46120 1.14422e-17
3496.12003 1.16837e-17
3500.77887 1.13006e-17
3505.43770 1.11335e-17
3510.10655 1.11535e-17
3514.76539 1.12471e-17
3519.42423 1.09272e-17
3524.08306 1.08567e-17
3528.75191 1.05899e-17
3533.41075 1.05239e-17
3538.06958 1.06343e-17
3542.72842 1.07616e-17
3547.39727 1.08044e-17
3552.05611 1.10733e-17
3556.71494 1.11577e-17
3561.37378 1.10575e-17
3566.04263 1.13706e-17
3570.70147 1.12894e-17
3575.36030 1.09540e-17
3580.01914 1.05475e-17
3584.68799 1.05427e-17
3589.34683 1.08544e-17
3594.00566 1.09534e-17
3598.66450 1.06934e-17
3603.33335 1.06703e-17
3607.99219 1.07746e-17
3612.65102 1.08346e-17
3617.31987 1.07465e-17
3621.97871 1.08704e-17
3626.63754 1.11815e-17
3631.29638 1.14527e-17
3635.96523 1.12567e-17
3640.62407 1.16327e-17
3645.28290 1.15085e-17
3649.94174 1.20605e-17
3654.61059 1.23117e-17
3659.26943 1.21539e-17
3663.92826 1.20118e-17
3668.58710 1.22544e-17
3673.25595 1.21954e-17
3677.91479 1.20120e-17
3682.57362 1.18457e-17
3687.23246 1.15856e-17
3691.90131 1.10606e-17
3696.56015 1.05606e-17
3701.21898 1.04909e-17
3705.87781 9.92705e-18
3710.54667 9.53891e-18
3715.20550 9.20117e-18
3719.86434 8.89757e-18
3724.52317 8.59402e-18
3729.19203 8.29056e-18
3733.85086 7.98719e-18
3738.50970 7.68386e-18
3743.16853 7.38061e-18
3747.83739 7.07742e-18
3752.49622 6.77428e-18
3757.15506 6.47123e-18
3761.82391 6.51574e-18
3766.48275 6.41877e-18
3771.14158 6.42674e-18
3775.80042 6.26715e-18
3780.46927 6.53969e-18
3785.12810 6.40851e-18
3789.78694 6.60703e-18
3794.44578 7.02111e-18
3799.11463 7.15106e-18
3803.77346 7.46570e-18
3808.43230 8.05194e-18
3813.09113 8.24098e-18
3817.75999 8.86444e-18
3822.41882 9.29639e-18
3827.07766 9.68016e-18
3831.73649 1.01294e-17
3836.40535 1.05132e-17
3841.06418 1.09565e-17
3845.72302 1.11316e-17
3850.38185 1.12337e-17
3855.05071 1.16521e-17
3859.70954 1.24841e-17
3864.36838 1.29586e-17
3869.02721 1.33404e-17
3873.69607 1.35378e-17
3878.35490 1.40842e-17
3883.01373 1.42529e-17
3887.68259 1.44895e-17
3892.34142 1.46437e-17
3897.00026 1.51573e-17
3901.65909 1.52893e-17
3906.32795 1.55034e-17
3910.98678 1.57962e-17
3915.64562 1.60026e-17
3920.30445 1.59551e-17
3924.97331 1.56972e-17
3929.63214 1.55890e-17
3934.29098 1.54271e-17
3938.94981 1.48927e-17
3943.61867 1.54403e-17
3948.27750 1.66715e-17
3952.93634 1.72725e-17
3957.59517 1.71090e-17
3962.26402 1.76398e-17
3966.92286 1.73250e-17
3971.58170 1.73256e-17
3976.24053 1.68023e-17
3980.90938 1.76746e-17
3985.56822 1.76235e-17
3990.22705 1.72125e-17
3994.88589 1.76141e-17
3999.55474 1.71698e-17
4004.21358 1.68884e-17
4008.87241 1.66924e-17
4013.54127 1.66209e-17
4018.20010 1.63766e-17
4022.85894 1.58452e-17
4027.51777 1.61052e-17
4032.18663 1.58166e-17
4036.84546 1.57095e-17
4041.50430 1.53110e-17
4046.16313 1.51937e-17
4050.83199 1.53580e-17
4055.49082 1.53501e-17
4060.14965 1.48442e-17
4064.80849 1.46944e-17
4069.47734 1.47140e-17
4074.13618 1.46806e-17
4078.79501 1.42136e-17
4083.45385 1.41671e-17
4088.12270 1.42890e-17
4092.78154 1.41072e-17
4097.44037 1.40972e-17
4102.09921 1.38537e-17
4106.76806 1.40089e-17
4111.42690 1.40110e-17
4116.08573 1.38803e-17
4120.74457 1.36780e-17
4125.41342 1.34628e-17
4130.07226 1.36552e-17
4134.73109 1.34126e-17
4139.38993 1.34231e-17
4144.05878 1.32843e-17
4148.71762 1.31721e-17
4153.37645 1.32127e-17
4158.03528 1.34452e-17
4162.70414 1.32992e-17
4167.36297 1.32144e-17
4172.02181 1.34029e-17
4176.69066 1.31960e-17
4181.34950 1.31580e-17
4186.00833 1.31227e-17
4190.66717 1.31070e-17
4195.33602 1.32264e-17
4199.99486 1.31768e-17
4204.65369 1.33097e-17
4209.31253 1.33124e-17
4213.98138 1.32894e-17
4218.64022 1.32398e-17
4223.29905 1.32665e-17
4227.95789 1.32443e-17
4232.62674 1.32726e-17
4237.28557 1.31290e-17
4241.94441 1.33493e-17
4246.60325 1.33690e-17
4251.27210 1.32939e-17
4255.93093 1.34264e-17
4260.58977 1.33648e-17
4265.24860 1.33888e-17
4269.91746 1.34171e-17
4274.57629 1.34365e-17
4279.23513 1.32866e-17
4283.89396 1.33212e-17
4288.56282 1.32765e-17
4293.22165 1.32093e-17
4297.88049 1.30823e-17
4302.54934 1.29656e-17
4307.20818 1.28857e-17
4311.86701 1.28064e-17
4316.52585 1.28589e-17
4321.19470 1.25077e-17
4325.85353 1.23334e-17
4330.51237 1.19585e-17
4335.17120 1.18229e-17
4339.84006 1.14844e-17
4344.49889 1.13568e-17
4349.15773 1.12165e-17
4353.81656 1.12306e-17
4358.48542 1.12446e-17
4363.14425 1.12586e-17
4367.80309 1.12727e-17
4372.46192 1.12867e-17
4377.13078 1.13007e-17
4381.78961 1.13147e-17
4386.44845 1.13287e-17
4391.10728 1.13427e-17
4395.77614 1.16455e-17
4400.43497 1.18653e-17
4405.09381 1.20163e-17
4409.76266 1.24663e-17
4414.42150 1.24140e-17
4419.08033 1.24016e-17
4423.73917 1.25512e-17
4428.39800 1.25646e-17
4433.06685 1.26991e-17
4437.72569 1.28643e-17
4442.38452 1.31037e-17
4447.05338 1.35861e-17
4451.71221 1.35491e-17
4456.37105 1.39265e-17
4461.02988 1.44100e-17
4465.69874 1.43682e-17
4470.35757 1.45112e-17
4475.01641 1.44952e-17
4479.67524 1.50588e-17
4484.34410 1.51327e-17
4489.00293 1.51276e-17
4493.66177 1.53523e-17
4498.32060 1.51793e-17
4502.98945 1.53520e-17
4507.64829 1.56092e-17
4512.30713 1.56605e-17
4516.96596 1.58749e-17
4521.63481 1.59061e-17
4526.29365 1.61645e-17
4530.95248 1.61484e-17
4535.61132 1.61249e-17
4540.28017 1.63526e-17
4544.93901 1.63580e-17
4549.59784 1.62019e-17
4554.25668 1.62447e-17
4558.92553 1.63609e-17
4563.58437 1.63299e-17
4568.24320 1.61400e-17
4572.91206 1.60924e-17
4577.57089 1.59057e-17
4582.22973 1.58049e-17
4586.88856 1.59771e-17
4591.55742 1.57227e-17
4596.21625 1.56932e-17
4600.87508 1.55104e-17
4605.53392 1.53447e-17
4610.20277 1.52747e-17
4614.86161 1.51428e-17
4619.52044 1.49090e-17
4624.17928 1.48278e-17
4628.84813 1.45370e-17
4633.50697 1.43360e-17
4638.16580 1.39760e-17
4642.82464 1.39340e-17
4647.49349 1.35827e-17
4652.15233 1.34325e-17
4656.81116 1.31600e-17
4661.47000 1.30513e-17
4666.13885 1.28827e-17
4670.79769 1.28511e-17
4675.45652 1.26629e-17
4680.11536 1.26487e-17
4684.78421 1.25173e-17
4689.44304 1.23902e-17
4694.10188 1.24029e-17
4698.76072 1.26952e-17
4703.42957 1.24394e-17
4708.08840 1.24824e-17
4712.74724 1.23543e-17
4717.41609 1.22394e-17
4722.07493 1.19732e-17
4726.73376 1.16690e-17
4731.39260 1.14755e-17
4736.06145 1.11211e-17
4740.72029 1.09286e-17
4745.37912 1.06179e-17
4750.03796 1.04164e-17
4754.70681 1.03266e-17
4759.36565 1.01781e-17
4764.02448 1.01311e-17
4768.68332 1.03145e-17
4773.35217 1.01218e-17
4778.01101 1.02061e-17
4782.66984 1.03102e-17
4787.32867 1.05181e-17
4791.99753 1.04855e-17
4796.65636 1.05264e-17
4801.31520 1.06370e-17
4805.97403 1.06455e-17
4810.64289 1.06470e-17
4815.30172 1.04122e-17
4819.96056 1.02313e-17
4824.61939 1.02676e-17
4829.28825 1.02028e-17
4833.94708 1.02140e-17
4838.60592 1.02611e-17
4843.26475 1.02952e-17
4847.93361 1.03703e-17
4852.59244 1.04784e-17
4857.25128 1.05865e-17
4861.92013 1.06946e-17
4866.57897 1.08027e-17
4871.23780 1.09108e-17
4875.89664 1.10188e-17
4880.56549 1.11268e-17
4885.22432 1.12348e-17
4889.88316 1.13428e-17
4894.54199 1.18196e-17
4899.21085 1.20242e-17
4903.86968 1.20916e-17
4908.52852 1.24924e-17
4913.18735 1.26684e-17
4917.85621 1.28835e-17
4922.51504 1.31628e-17
4927.17388 1.32677e-17
4931.83271 1.31926e-17
4936.50157 1.32563e-17
4941.16040 1.31589e-17
4945.81924 1.30710e-17
4950.47807 1.29079e-17
4955.14693 1.27448e-17
4959.80576 1.25817e-17
4964.46460 1.24187e-17
4969.13345 1.22557e-17
4973.79228 1.20927e-17
4978.45112 1.19297e-17
4983.10995 1.17668e-17
4987.77881 1.16039e-17
4992.43764 1.15096e-17
4997.09648 1.14064e-17
5001.75531 1.14531e-17
5006.42417 1.14998e-17
5011.08300 1.15465e-17
5015.74184 1.15932e-17
5020.40067 1.16399e-17
5025.06953 1.16865e-17
5029.72836 1.17332e-17
5034.38720 1.17799e-17
5039.04603 1.20124e-17
5043.71488 1.24021e-17
5048.37372 1.23685e-17
5053.03255 1.25260e-17
5057.69139 1.28513e-17
5062.36024 1.31311e-17
5067.01908 1.30941e-17
5071.67791 1.32588e-17
5076.33675 1.34243e-17
5081.00560 1.34149e-17
5085.66444 1.35441e-17
5090.32327 1.36988e-17
5094.98211 1.37105e-17
5099.65096 1.37997e-17
5104.30980 1.35303e-17
5108.96863 1.38333e-17
5113.63749 1.37557e-17
5118.29632 1.38286e-17
5122.95516 1.39356e-17
5127.61399 1.42191e-17
5132.28285 1.43623e-17
5136.94168 1.41830e-17
5141.60052 1.44171e-17
5146.25935 1.43756e-17
5150.92820 1.45739e-17
5155.58704 1.46251e-17
5160.24587 1.47108e-17
5164.90471 1.46777e-17
5169.57356 1.48380e-17
5174.23240 1.49013e-17
5178.89123 1.49358e-17
5183.55007 1.50383e-17
5188.21892 1.51161e-17
5192.87776 1.51617e-17
5197.53659 1.52720e-17
5202.19543 1.53070e-17
5206.86428 1.52309e-17
5211.52312 1.53959e-17
5216.18195 1.53405e-17
5220.84079 1.54543e-17
5225.50964 1.54405e-17
5230.16848 1.52439e-17
5234.82731 1.55451e-17
5239.48614 1.55025e-17
5244.15500 1.54901e-17
5248.81383 1.56111e-17
5253.47267 1.56637e-17
5258.14152 1.56345e-17
5262.80036 1.55317e-17
5267.45919 1.56097e-17
5272.11803 1.54838e-17
5276.78688 1.57296e-17
5281.44572 1.56430e-17
5286.10455 1.55158e-17
5290.76339 1.53833e-17
5295.43224 1.53228e-17
5300.09108 1.52494e-17
5304.74991 1.50700e-17
5309.40875 1.52139e-17
5314.07760 1.49735e-17
5318.73643 1.47775e-17
5323.39527 1.47307e-17
5328.05411 1.46586e-17
5332.72296 1.45789e-17
5337.38179 1.43951e-17
5342.04063 1.44715e-17
5346.69946 1.41351e-17
5351.36832 1.42720e-17
5356.02715 1.40260e-17
5360.68599 1.39436e-17
5365.34482 1.39191e-17
5370.01368 1.37607e-17
5374.67251 1.37143e-17
5379.33135 1.37909e-17
5384.00020 1.36335e-17
5388.65904 1.35720e-17
5393.31787 1.36598e-17
5397.97671 1.35275e-17
5402.64556 1.34451e-17
5407.30440 1.34719e-17
5411.96323 1.34548e-17
5416.62207 1.34770e-17
5421.29092 1.33260e-17
5425.94975 1.33271e-17
5430.60859 1.33002e-17
5435.26742 1.32188e-17
5439.93628 1.31270e-17
5444.59511 1.31198e-17
5449.25395 1.29690e-17
5453.91278 1.29121e-17
5458.58164 1.28028e-17
5463.24047 1.28527e-17
5467.89931 1.27330e-17
5472.55814 1.27148e-17
5477.22700 1.26076e-17
5481.88583 1.25724e-17
5486.54467 1.24450e-17
5491.20350 1.23218e-17
5495.87235 1.23074e-17
5500.53119 1.21659e-17
5505.19002 1.21550e-17
5509.84886 1.22481e-17
5514.51771 1.20744e-17
5519.17655 1.20390e-17
5523.83538 1.19139e-17
5528.50424 1.19256e-17
5533.16307 1.17633e-17
5537.82191 1.18742e-17
5542.48074 1.16690e-17
5547.14960 1.16544e-17
5551.80843 1.15749e-17
5556.46727 1.15164e-17
5561.12610 1.14516e-17
5565.79496 1.15389e-17
5570.45379 1.13972e-17
5575.11263 1.14719e-17
5579.77146 1.14648e-17
5584.44032 1.14320e-17
5589.09915 1.12512e-17
5593.75798 1.12862e-17
5598.41682 1.13954e-17
5603.08567 1.12432e-17
5607.74451 1.12897e-17
5612.40334 1.12125e-17
5617.06218 1.11833e-17
5621.73103 1.11460e-17
5626.38987 1.10818e-17
5631.04870 1.09718e-17
5635.70754 1.09480e-17
5640.37639 1.07469e-17
5645.03523 1.05416e-17
5649.69406 1.04117e-17
5654.36292 1.01783e-17
5659.02175 9.98317e-18
5663.68059 9.72548e-18
5668.33942 9.54299e-18
5673.00828 9.31812e-18
5677.66711 9.07266e-18
5682.32595 8.86964e-18
5686.98478 8.68794e-18
5691.65363 8.76109e-18
5696.31247 8.77399e-18
5700.97130 8.73239e-18
5705.63014 8.76341e-18
5710.29899 8.65625e-18
5714.95783 8.79737e-18
5719.61666 8.93377e-18
5724.27550 9.14258e-18
5728.94435 9.45442e-18
5733.60319 9.54837e-18
5738.26202 9.77966e-18
5742.92086 1.01438e-17
5747.58971 1.06690e-17
5752.24855 1.11522e-17
5756.90738 1.17097e-17
5761.56622 1.23573e-17
5766.23507 1.28235e-17
5770.89390 1.29894e-17
5775.55274 1.32425e-17
5780.21158 1.35134e-17
5784.88043 1.35717e-17
5789.53926 1.35017e-17
5794.19810 1.34609e-17
5798.86695 1.37524e-17
5803.52579 1.38553e-17
5808.18462 1.36795e-17
5812.84346 1.37027e-17
5817.51231 1.38913e-17
5822.17115 1.41126e-17
5826.82998 1.44310e-17
5831.48882 1.44494e-17
5836.15767 1.44568e-17
5840.81651 1.45133e-17
5845.47534 1.46593e-17
5850.13418 1.45969e-17
5854.80303 1.46760e-17
5859.46187 1.43959e-17
5864.12070 1.42756e-17
5868.77953 1.43421e-17
5873.44839 1.43299e-17
5878.10722 1.41509e-17
5882.76606 1.39052e-17
5887.42489 1.34549e-17
5892.09375 1.31645e-17
5896.75258 1.28941e-17
5901.41142 1.15347e-17
5906.07025 1.14684e-17
5910.73911 1.18414e-17
5915.39794 1.26521e-17
5920.05678 1.26441e-17
5924.71561 1.25767e-17
5929.38447 1.24689e-17
5934.04330 1.23936e-17
5938.70214 1.22157e-17
5943.37099 1.20793e-17
5948.02983 1.19603e-17
5952.68866 1.19177e-17
5957.34749 1.17427e-17
5962.01635 1.18023e-17
5966.67518 1.17063e-17
5971.33402 1.15704e-17
5975.99285 1.16254e-17
5980.66171 1.15301e-17
5985.32054 1.13912e-17
5989.97938 1.13271e-17
5994.63821 1.11827e-17
5999.30707 1.12544e-17
6003.96590 1.11685e-17
6008.62474 1.10312e-17
6013.28357 1.09537e-17
6017.95243 1.08562e-17
6022.61126 1.07670e-17
6027.27010 1.06788e-17
6031.92893 1.06699e-17
6036.59778 1.07057e-17
6041.25662 1.06070e-17
6045.91546 1.05406e-17
6050.57429 1.05997e-17
6055.24314 1.05978e-17
6059.90198 1.05886e-17
6064.56081 1.06290e-17
6069.22967 1.05802e-17
6073.88850 1.05132e-17
6078.54734 1.04172e-17
6083.20617 1.02977e-17
6087.87503 1.02855e-17
6092.53386 1.02511e-17
6097.19270 1.01954e-17
6101.85153 1.01373e-17
6106.52039 9.97786e-18
6111.17922 9.84968e-18
6115.83806 9.87987e-18
6120.49689 9.64369e-18
6125.16575 9.45676e-18
6129.82458 9.26124e-18
6134.48342 9.14883e-18
6139.14225 8.98817e-18
6143.81110 8.90324e-18
6148.46994 8.84965e-18
6153.12877 8.76092e-18
6157.78761 8.59734e-18
6162.45646 8.39947e-18
6167.11530 8.25866e-18
6171.77413 8.19225e-18
6176.43297 8.08790e-18
6181.10182 7.90616e-18
6185.76066 7.81601e-18
6190.41949 7.66247e-18
6195.07833 7.51652e-18
6199.74718 7.47636e-18
6204.40602 7.42280e-18
6209.06485 7.30530e-18
6213.73370 7.18840e-18
6218.39254 7.03508e-18
6223.05138 6.87321e-18
6227.71021 6.59051e-18
6232.37906 6.48072e-18
6237.03790 6.19831e-18
6241.69673 6.05660e-18
6246.35557 5.93055e-18
6251.02442 5.85836e-18
6255.68326 5.63848e-18
6260.34209 5.46294e-18
6265.00093 5.37209e-18
6269.66978 5.18498e-18
6274.32862 5.07264e-18
6278.98745 5.03072e-18
6283.64629 5.10020e-18
6288.31514 5.13142e-18
6292.97398 5.22918e-18
6297.63281 5.36858e-18
6300.39805 5.60646e-18
6301.87085 5.82828e-18
6303.34364 5.78246e-18
6304.80642 5.87475e-18
6306.27921 6.07345e-18
6307.75200 6.24150e-18
6309.22479 6.38372e-18
6310.68757 6.38880e-18
6312.16036 6.38337e-18
6313.63315 6.45431e-18
6315.09593 6.50404e-18
6316.56872 6.63083e-18
6318.04151 6.88186e-18
6319.51431 6.76595e-18
6320.97708 6.72124e-18
6322.44987 6.84414e-18
6323.92267 6.82769e-18
6325.39546 7.10866e-18
6326.85823 7.14100e-18
6328.33103 7.05661e-18
6329.80382 7.15394e-18
6331.26659 7.22616e-18
6332.73939 7.37419e-18
6334.21218 7.55799e-18
6335.68497 7.59498e-18
6337.14775 7.82832e-18
6338.62054 8.07768e-18
6340.09333 8.14599e-18
6341.55611 8.24461e-18
6343.02890 8.41243e-18
6344.50169 8.43859e-18
6345.97449 8.72051e-18
6347.43726 8.86350e-18
6348.91005 8.88570e-18
6350.38285 8.98855e-18
6351.84562 9.08283e-18
6353.31841 9.36558e-18
6354.79121 9.47486e-18
6356.26400 9.73134e-18
6357.72677 9.68789e-18
6359.19957 9.78861e-18
6360.67236 9.83078e-18
6362.14515 1.00157e-17
6363.60793 1.00451e-17
6365.08072 1.00663e-17
6366.55351 1.00596e-17
6368.01629 1.00334e-17
6369.48908 1.01853e-17
6370.96187 1.02852e-17
6372.43467 1.03423e-17
6373.89744 1.03909e-17
6375.37023 1.03382e-17
6376.84303 1.06372e-17
6378.30580 1.08890e-17
6379.77859 1.07231e-17
6381.25138 1.06383e-17
6382.72418 1.07073e-17
6384.18695 1.09080e-17
6385.65974 1.10293e-17
6387.13254 1.09879e-17
6388.59531 1.10627e-17
6390.06811 1.09121e-17
6391.54090 1.10606e-17
6393.01369 1.11335e-17
6394.47647 1.11551e-17
6395.94926 1.09856e-17
6397.42205 1.09635e-17
6398.89484 1.13053e-17
6400.35762 1.13055e-17
6401.83041 1.13915e-17
6403.30320 1.13124e-17
6404.76598 1.13888e-17
6406.23877 1.13092e-17
6407.71156 1.13779e-17
6409.18436 1.14005e-17
6410.64713 1.13367e-17
6412.11992 1.12288e-17
6413.59272 1.13345e-17
6415.06551 1.14178e-17
6416.52828 1.13604e-17
6418.00108 1.15075e-17
6419.47387 1.14674e-17
6420.93664 1.15423e-17
6422.40944 1.14977e-17
6423.88223 1.13985e-17
6425.35502 1.15316e-17
6426.81780 1.17210e-17
6428.29059 1.15497e-17
6429.76338 1.14033e-17
6431.22616 1.13074e-17
6432.69895 1.15795e-17
6434.17174 1.15663e-17
6435.64454 1.11515e-17
6437.10731 1.12101e-17
6438.58010 1.13767e-17
6440.05290 1.11760e-17
6441.51567 1.12245e-17
6442.98846 1.12266e-17
6444.46126 1.12446e-17
6445.93405 1.13853e-17
6447.39682 1.14205e-17
6448.86962 1.13085e-17
6450.34241 1.11216e-17
6451.81520 1.11150e-17
6453.27798 1.10218e-17
6454.75077 1.09682e-17
6456.22356 1.12298e-17
6457.68634 1.11471e-17
6459.15913 1.09409e-17
6460.63192 1.10216e-17
6462.10472 1.10197e-17
6463.56749 1.09298e-17
6465.04028 1.08755e-17
6466.51307 1.09853e-17
6467.97585 1.09546e-17
6469.44864 1.07126e-17
6470.92143 1.05922e-17
6472.39423 1.07596e-17
6473.85700 1.08595e-17
6475.32980 1.06809e-17
6476.80259 1.06839e-17
6478.26536 1.07331e-17
6479.73816 1.07964e-17
6481.21095 1.07923e-17
6482.68374 1.07954e-17
6484.14652 1.08211e-17
6485.61931 1.06144e-17
6487.09210 1.06302e-17
6488.56489 1.07012e-17
6490.02767 1.07285e-17
6491.50046 1.07196e-17
6492.97325 1.05736e-17
6494.43603 1.04779e-17
6495.90882 1.05741e-17
6497.38161 1.06848e-17
6498.85441 1.06781e-17
6500.31718 1.07722e-17
6501.78997 1.06067e-17
6503.26277 1.05113e-17
6504.72554 1.06310e-17
6506.19833 1.06332e-17
6507.67113 1.05050e-17
6509.14392 1.05247e-17
6510.60669 1.05541e-17
6512.07949 1.05429e-17
6513.55228 1.05380e-17
6515.02507 1.04621e-17
6516.48785 1.05662e-17
6517.96064 1.06242e-17
6519.43343 1.06105e-17
6520.89621 1.06661e-17
6522.36900 1.05943e-17
6523.84179 1.07040e-17
6525.31459 1.05509e-17
6526.77736 1.06684e-17
6528.25015 1.05352e-17
6529.72295 1.05830e-17
6531.18572 1.07207e-17
6532.65851 1.07402e-17
6534.13131 1.06988e-17
6535.60410 1.08094e-17
6537.06687 1.10119e-17
6538.53967 1.11318e-17
6540.01246 1.11332e-17
6541.48525 1.10761e-17
6542.94803 1.12768e-17
6544.42082 1.12816e-17
6545.89361 1.13033e-17
6547.35639 1.13250e-17
6548.82918 1.13467e-17
6550.30197 1.13684e-17
6551.77477 1.13901e-17
6553.23754 1.14118e-17
6554.71033 1.14335e-17
6556.18313 1.14552e-17
6557.64590 1.14769e-17
6559.11869 1.14986e-17
6560.59148 1.15203e-17
6562.06428 1.15420e-17
6563.52705 1.15637e-17
6564.99985 1.15854e-17
6566.47264 1.16071e-17
6567.93541 1.16288e-17
6569.40820 1.16505e-17
6570.88100 1.16721e-17
6572.35379 1.16938e-17
6573.81657 1.17155e-17
6575.28936 1.17372e-17
6576.76215 1.17589e-17
6578.23494 1.17806e-17
6579.69772 1.18023e-17
6581.17051 1.18240e-17
6582.64330 1.18457e-17
6584.10608 1.18673e-17
6585.57887 1.18890e-17
6587.05166 1.19107e-17
6588.52446 1.19324e-17
6589.98723 1.19541e-17
6591.46002 1.19758e-17
6592.93282 1.19975e-17
6594.39559 1.20191e-17
6595.86838 1.20408e-17
6597.34118 1.20625e-17
6598.81397 1.20842e-17
6600.27674 1.21059e-17
6601.74954 1.21276e-17
6603.22233 1.21492e-17
6604.69512 1.21709e-17
6606.15790 1.21926e-17
6607.63069 1.20782e-17
6609.10348 1.22531e-17
6610.56626 1.20864e-17
6612.03905 1.21835e-17
6613.51184 1.22122e-17
6614.98464 1.21898e-17
6616.44741 1.22554e-17
6617.92020 1.22338e-17
6619.39300 1.22814e-17
6620.85577 1.24229e-17
6622.32856 1.21078e-17
6623.80136 1.22383e-17
6625.27415 1.23993e-17
6626.73692 1.23581e-17
6628.20972 1.25004e-17
6629.68251 1.24579e-17
6631.14528 1.24239e-17
6632.61808 1.24145e-17
6634.09087 1.24747e-17
6635.56366 1.24763e-17
6637.02644 1.22492e-17
6638.49923 1.22250e-17
6639.97202 1.24025e-17
6641.44482 1.24711e-17
6642.90759 1.24858e-17
6644.38038 1.24520e-17
6645.85318 1.22575e-17
6647.31595 1.24153e-17
6648.78874 1.24544e-17
6650.26153 1.23405e-17
6651.73433 1.23083e-17
6653.19710 1.23541e-17
6654.66989 1.23899e-17
6656.14269 1.23985e-17
6657.60546 1.23179e-17
6659.07826 1.22964e-17
6660.55105 1.23649e-17
6662.02384 1.23665e-17
6663.48662 1.22943e-17
6664.95941 1.22424e-17
6666.43220 1.22897e-17
6667.90499 1.22471e-17
6669.36777 1.20540e-17
6670.84056 1.21017e-17
6672.31335 1.20767e-17
6673.77613 1.20483e-17
6675.24892 1.20515e-17
6676.72171 1.18294e-17
6678.19451 1.19240e-17
6679.65728 1.20001e-17
6681.13007 1.19418e-17
6682.60287 1.18600e-17
6684.06564 1.18083e-17
6685.53843 1.18620e-17
6687.01123 1.18305e-17
6688.48402 1.18006e-17
6689.94679 1.19078e-17
6691.41959 1.18590e-17
6692.89238 1.17753e-17
6694.36517 1.18420e-17
6695.82795 1.18113e-17
6697.30074 1.16389e-17
6698.77353 1.16145e-17
6700.23631 1.18333e-17
6701.70910 1.17028e-17
6703.18189 1.14776e-17
6704.65469 1.15100e-17
6706.11746 1.15399e-17
6707.59025 1.13778e-17
6709.06305 1.13837e-17
6710.52582 1.14563e-17
6711.99861 1.13526e-17
6713.47141 1.11716e-17
6714.94420 1.12622e-17
6716.40697 1.13966e-17
6717.87977 1.11733e-17
6719.35256 1.11525e-17
6720.81533 1.11835e-17
6722.28813 1.09867e-17
6723.76092 1.08624e-17
6725.23371 1.09822e-17
6726.69649 1.09865e-17
6728.16928 1.10004e-17
6729.64207 1.08972e-17
6731.11487 1.07956e-17
6732.57764 1.07691e-17
6734.05043 1.07640e-17
6735.52322 1.07257e-17
6736.98600 1.07799e-17
6738.45879 1.08246e-17
6739.93158 1.07088e-17
6741.40438 1.05993e-17
6742.86715 1.05611e-17
6744.33995 1.04465e-17
6745.81274 1.03556e-17
6747.27551 1.04822e-17
6748.74831 1.04862e-17
6750.22110 1.04778e-17
6751.69389 1.04498e-17
6753.15667 1.03854e-17
6754.62946 1.05140e-17
6756.10225 1.03545e-17
6757.56502 1.03288e-17
6759.03782 1.03833e-17
6760.51061 1.01922e-17
6761.98340 1.03300e-17
6763.44618 1.04392e-17
6764.91897 1.03690e-17
6766.39176 1.02018e-17
6767.86456 1.01276e-17
6769.32733 1.00655e-17
6770.80012 1.00937e-17
6772.27292 1.00575e-17
6773.74571 1.00559e-17
6775.20848 1.01416e-17
6776.68128 1.02959e-17
6778.15407 1.00011e-17
6779.61684 9.84851e-18
6781.08964 1.01463e-17
6782.56243 1.00802e-17
6784.03522 1.00753e-17
6785.49800 9.95503e-18
6786.97079 9.98195e-18
6788.44358 9.98704e-18
6789.90636 9.86466e-18
6791.37915 9.89391e-18
6792.85194 9.80834e-18
6794.32474 9.67746e-18
6795.78751 9.79351e-18
6797.26030 9.62214e-18
6798.73310 9.60843e-18
6800.19587 9.55059e-18
6801.66866 9.61529e-18
6803.14146 9.60534e-18
6804.61425 9.58246e-18
6806.07702 9.57029e-18
6807.54982 9.47539e-18
6809.02261 9.42851e-18
6810.49540 9.45885e-18
6811.95818 9.42861e-18
6813.43097 9.52030e-18
6814.90376 9.23991e-18
6816.36654 9.36125e-18
6817.83933 9.46488e-18
6819.31212 9.35921e-18
6820.78492 9.46509e-18
6822.24769 9.37365e-18
6823.72048 9.16142e-18
6825.19328 9.12859e-18
6826.65605 9.28451e-18
6828.12884 9.22286e-18
6829.60163 8.98814e-18
6831.07443 9.10261e-18
6832.53720 9.14430e-18
6834.01000 9.04020e-18
6835.48279 9.05062e-18
6836.94556 8.98157e-18
6838.41835 9.06123e-18
6839.89115 9.01090e-18
6841.36394 8.93057e-18
6842.82672 8.92099e-18
6844.29951 8.77366e-18
6845.77230 8.96641e-18
6847.24509 8.82340e-18
6848.70787 8.86680e-18
6850.18066 8.98053e-18
6851.65345 8.85216e-18
6853.11623 8.76245e-18
6854.58902 8.87141e-18
6856.06181 9.07967e-18
6857.53461 9.02360e-18
6858.99738 8.71955e-18
6860.47017 8.66222e-18
6861.94297 8.81867e-18
6863.40574 8.87463e-18
6864.87853 8.81186e-18
6866.35133 8.50744e-18
6867.82412 8.60350e-18
6869.28689 8.66793e-18
6870.75969 8.80322e-18
6872.23248 8.52908e-18
6873.70527 8.66438e-18
6875.16805 8.51136e-18
6876.64084 8.77663e-18
6878.11363 8.82621e-18
6879.57641 8.81562e-18
6881.04920 8.84737e-18
6882.52199 8.65511e-18
6883.99479 8.79194e-18
6885.45756 8.78884e-18
6886.93035 8.67349e-18
6888.40315 8.76670e-18
6889.86592 8.87182e-18
6891.33871 8.81648e-18
6892.81151 9.02405e-18
6894.28430 8.94435e-18
6895.74707 8.74125e-18
6897.21987 8.84516e-18
6898.69266 8.94105e-18
6900.16545 8.87365e-18
6901.62823 8.85019e-18
6903.10102 8.96011e-18
6904.57381 9.01557e-18
6906.03659 8.98988e-18
6907.50938 8.86750e-18
6908.98217 8.88873e-18
6910.45497 8.97925e-18
6911.91774 8.94870e-18
6913.39053 8.98298e-18
6914.86333 8.97016e-18
6916.32610 9.00293e-18
6917.79889 9.20457e-18
6919.27168 9.10256e-18
6920.74448 8.91932e-18
6922.20725 9.17882e-18
6923.68005 9.47646e-18
6925.15284 9.46207e-18
6926.61561 9.27346e-18
6928.08840 9.31677e-18
6929.56120 9.48988e-18
6931.03399 9.72637e-18
6932.49677 9.77920e-18
6933.96956 9.57446e-18
6935.44235 9.80829e-18
6936.91514 9.84047e-18
6938.37792 9.70122e-18
6939.85071 9.95221e-18
6941.32350 9.98931e-18
6942.78628 1.00598e-17
6944.25907 1.01325e-17
6945.73186 9.98271e-18
6947.20466 9.81740e-18
6948.66743 9.76628e-18
6950.14022 1.00660e-17
6951.61302 1.01631e-17
6953.07579 1.00229e-17
6954.54858 9.98021e-18
6956.02138 9.87968e-18
6957.49417 9.83837e-18
6958.95694 9.70219e-18
6960.42974 9.86077e-18
6961.90253 1.00140e-17
6963.37532 9.95527e-18
6964.83810 1.00991e-17
6966.31089 1.00443e-17
6967.78368 1.02021e-17
6969.24646 1.02662e-17
6970.71925 1.01224e-17
6972.19204 1.00983e-17
6973.66484 9.93950e-18
6975.12761 1.00924e-17
6976.60040 1.00895e-17
6978.07320 1.01785e-17
6979.53597 1.00369e-17
6981.00876 1.00581e-17
6982.48156 1.00716e-17
6983.95435 9.86150e-18
6985.41712 9.87548e-18
6986.88992 9.85987e-18
6988.36271 9.83330e-18
6989.82548 9.98139e-18
6991.29828 9.74013e-18
6992.77107 9.72162e-18
6994.24386 9.92130e-18
6995.70664 9.96299e-18
6997.17943 9.99207e-18
6998.65222 1.00365e-17
7000.12502 9.93599e-18
7001.58779 9.80413e-18
7003.06058 9.82631e-18
7004.53337 1.00853e-17
7005.99615 1.01740e-17
7007.46894 9.86416e-18
7008.94173 9.86935e-18
7010.41453 1.00967e-17
7011.87730 1.01053e-17
7013.35010 1.02436e-17
7014.82289 1.05706e-17
7016.28566 1.02040e-17
7017.75846 1.00501e-17
7019.23125 1.00766e-17
7020.70404 1.00380e-17
7022.16682 1.00750e-17
7023.63961 9.93754e-18
7025.11240 9.88623e-18
7026.58519 9.76065e-18
7028.04797 9.80287e-18
7029.52076 1.00125e-17
7030.99355 1.00901e-17
7032.45633 9.96826e-18
7033.92912 9.96026e-18
7035.40191 9.86087e-18
7036.87471 1.00319e-17
7038.33748 1.00303e-17
7039.81027 9.91357e-18
7041.28307 9.91229e-18
7042.74584 9.77266e-18
7044.21863 1.00178e-17
7045.69143 9.94452e-18
7047.16422 9.79606e-18
7048.62699 9.68848e-18
7050.09979 9.75883e-18
7051.57258 9.74436e-18
7053.04537 9.73151e-18
7054.50815 9.55391e-18
7055.98094 9.69297e-18
7057.45373 9.55243e-18
7058.91651 9.79897e-18
7060.38930 9.76922e-18
7061.86209 9.42752e-18
7063.33489 9.42556e-18
7064.79766 9.55490e-18
7066.27045 9.79339e-18
7067.74325 9.81001e-18
7069.20602 9.52704e-18
7070.67881 9.72915e-18
7072.15161 9.60090e-18
7073.62440 9.70529e-18
7075.08717 9.41700e-18
7076.55997 9.25512e-18
7078.03276 9.18435e-18
7079.49553 9.28665e-18
7080.96833 9.27917e-18
7082.44112 9.26237e-18
7083.91391 9.27149e-18
7085.37669 9.24410e-18
7086.84948 9.31796e-18
7088.32227 9.27922e-18
7089.79507 9.28515e-18
7091.25784 9.07410e-18
7092.73063 9.06272e-18
7094.20342 9.24564e-18
7095.66620 9.26333e-18
7097.13899 9.28409e-18
7098.61179 9.30811e-18
7100.08458 9.22846e-18
7101.54735 8.92855e-18
7103.02015 8.91291e-18
7104.49294 8.93135e-18
7105.95571 9.00258e-18
7107.42850 9.12464e-18
7108.90130 9.14832e-18
7110.37409 8.91658e-18
7111.83687 8.88587e-18
7113.30966 8.77254e-18
7114.78245 8.85400e-18
7116.24522 8.74998e-18
7117.71802 8.61623e-18
7119.19081 8.69670e-18
7120.66360 8.81398e-18
7122.12638 8.91922e-18
7123.59917 9.00086e-18
7125.07196 8.95841e-18
7126.54476 9.01798e-18
7128.00753 9.03421e-18
7129.48032 9.00399e-18
7130.95312 9.07292e-18
7132.41589 8.79324e-18
7133.88868 9.01242e-18
7135.36148 8.90597e-18
7136.83427 9.06887e-18
7138.29704 9.00152e-18
7139.76984 8.87085e-18
7141.24263 8.87802e-18
7142.71542 8.87191e-18
7144.17820 8.87581e-18
7145.65099 8.83807e-18
7147.12378 8.78954e-18
7148.58656 8.74905e-18
7150.05935 8.67596e-18
7151.53214 8.64668e-18
7153.00494 8.98217e-18
7154.46771 8.97199e-18
7155.94050 8.92095e-18
7157.41330 8.69626e-18
7158.87607 8.79290e-18
7160.34886 8.90956e-18
7161.82166 8.78753e-18
7163.29445 8.88019e-18
7164.75722 8.98096e-18
7166.23002 8.80229e-18
7167.70281 8.84473e-18
7169.16558 8.84793e-18
7170.63838 8.74472e-18
7172.11117 8.82617e-18
7173.58396 8.65426e-18
7175.04674 8.52816e-18
7176.51953 8.83519e-18
7177.99232 8.86053e-18
7179.46512 8.78144e-18
7180.92789 8.81211e-18
7182.40068 8.72884e-18
7183.87348 8.59573e-18
7185.33625 8.44376e-18
7186.80904 8.63437e-18
7188.28183 8.79954e-18
7189.75463 8.71144e-18
7191.21740 8.64770e-18
7192.69020 8.73187e-18
7194.16299 8.80370e-18
7195.62576 8.75010e-18
7197.09855 8.68750e-18
7198.57135 8.75986e-18
7200.04414 8.85827e-18
7201.50692 8.91318e-18
7202.97971 8.91965e-18
7204.45250 8.67474e-18
7205.91528 8.74622e-18
7207.38807 8.80501e-18
7208.86086 8.82211e-18
7210.33365 8.76073e-18
7211.79643 8.66524e-18
7213.26922 9.00492e-18
7214.74201 9.06917e-18
7216.21481 8.86701e-18
7217.67758 8.96684e-18
7219.15037 8.99810e-18
7220.62317 8.66445e-18
7222.08594 8.58674e-18
7223.55873 8.64160e-18
7225.03153 8.61307e-18
7226.50432 8.67496e-18
7227.96709 8.74911e-18
7229.43989 8.67258e-18
7230.91268 8.58161e-18
7232.37545 8.50390e-18
7233.84825 8.46532e-18
7235.32104 8.65242e-18
7236.79383 8.61293e-18
7238.25661 8.55522e-18
7239.72940 8.57949e-18
7241.20219 8.53099e-18
7242.67499 8.43094e-18
7244.13776 8.53672e-18
7245.61055 8.68119e-18
7247.08335 8.77142e-18
7248.54612 8.78270e-18
7250.01891 8.72408e-18
7251.49171 8.37860e-18
7252.96450 8.47089e-18
7254.42727 8.52535e-18
7255.90007 8.39585e-18
7257.37286 8.53904e-18
7258.83563 8.56443e-18
7260.30843 8.57768e-18
7261.78122 8.45121e-18
7263.25401 8.43124e-18
7264.71679 8.47624e-18
7266.18958 8.59923e-18
7267.66237 8.61779e-18
7269.13517 8.60110e-18
7270.59794 8.63474e-18
7272.07073 8.44415e-18
7273.54353 8.48879e-18
7275.00630 8.32077e-18
7276.47909 8.24271e-18
7277.95188 8.42965e-18
7279.42468 8.55600e-18
7280.88745 8.50698e-18
7282.36024 8.34372e-18
7283.83304 8.45012e-18
7285.29581 8.55607e-18
7286.76861 8.27301e-18
7288.24140 8.11703e-18
7289.71419 8.18055e-18
7291.17697 8.29124e-18
7292.64976 8.32845e-18
7294.12255 8.20786e-18
7295.58533 8.24514e-18
7297.05812 8.28402e-18
7298.53091 8.13219e-18
7300.00370 8.23831e-18
7301.46648 8.15367e-18
7302.93927 8.28725e-18
7304.41206 8.06071e-18
7305.88486 8.06505e-18
7307.34763 8.20691e-18
7308.82042 8.38688e-18
7310.29322 8.39614e-18
7311.75599 8.37071e-18
7313.22878 8.38585e-18
7314.70158 8.31979e-18
7316.17437 8.41959e-18
7317.63714 8.29238e-18
7319.10994 8.22128e-18
7320.58273 8.14819e-18
7322.04550 8.08425e-18
7323.51830 8.13086e-18
7324.99109 8.22493e-18
7326.46388 8.25308e-18
7327.92666 8.06175e-18
7329.39945 8.13147e-18
7330.87224 8.01375e-18
7332.34504 7.95936e-18
7333.80781 8.01457e-18
7335.28060 8.02794e-18
7336.75340 8.00780e-18
7338.21617 7.93993e-18
7339.68896 7.94602e-18
7341.16176 8.13310e-18
7342.63455 8.05059e-18
7344.09732 7.99269e-18
7345.57012 7.96342e-18
7347.04291 8.00799e-18
7348.50568 8.09790e-18
7349.97848 8.09356e-18
7351.45127 8.08962e-18
7352.92406 8.10585e-18
7354.38684 8.01617e-18
7355.85963 8.07542e-18
7357.33242 7.97971e-18
7358.79520 8.06156e-18
7360.26799 7.86148e-18
7361.74078 7.92214e-18
7363.21357 8.09128e-18
7364.67635 8.04715e-18
7366.14914 7.98979e-18
7367.62194 7.69521e-18
7369.09473 7.78021e-18
7370.55750 7.90459e-18
7372.03030 7.86773e-18
7373.50309 7.76448e-18
7374.96586 7.87040e-18
7376.43865 7.76966e-18
7377.91145 7.81187e-18
7379.38424 7.83051e-18
7380.84702 7.77438e-18
7382.31981 7.87335e-18
7383.79260 7.84775e-18
7385.25537 7.91455e-18
7386.72817 7.86734e-18
7388.20096 7.92946e-18
7389.67375 7.99131e-18
7391.13653 7.92622e-18
7392.60932 7.74683e-18
7394.08211 7.92849e-18
7395.55491 7.81609e-18
7397.01768 7.81019e-18
7398.49047 7.86900e-18
7399.96327 7.89629e-18
7401.42604 7.82315e-18
7402.89883 7.77220e-18
7404.37163 7.80672e-18
7405.84442 7.94519e-18
7407.30719 7.93863e-18
7408.77999 7.96931e-18
7410.25278 7.71959e-18
7411.72557 7.79584e-18
7413.18835 7.81482e-18
7414.66114 7.64841e-18
7416.13393 7.85932e-18
7417.59671 7.74065e-18
7419.06950 7.70135e-18
