# wavelength flux
3550.00221 8.85957e-18
3554.25027 8.09704e-18
3558.48831 7.44663e-18
3562.73636 6.99293e-18
3566.98442 6.51351e-18
3571.22246 7.28204e-18
3575.47051 7.60815e-18
3579.71857 6.73554e-18
3583.96662 6.66511e-18
3588.20466 7.19884e-18
3592.45272 6.68892e-18
3596.70077 6.60418e-18
3600.93881 6.13357e-18
3605.18687 6.08116e-18
3609.43492 6.07184e-18
3613.67296 5.82571e-18
3617.92101 5.99111e-18
3622.16907 6.23481e-18
3626.41713 6.64015e-18
3630.65516 6.65632e-18
3634.90322 6.91117e-18
3639.15128 7.74694e-18
3643.38931 7.28897e-18
3647.63737 6.40538e-18
3651.88542 6.67286e-18
3656.13348 7.10788e-18
3660.37152 7.15654e-18
3664.61957 6.31054e-18
3668.86763 6.39006e-18
3673.10567 7.09613e-18
3677.35372 7.57867e-18
3681.60178 7.48306e-18
3685.84983 7.28214e-18
3690.08787 7.58715e-18
3694.33593 8.13627e-18
3698.58398 7.99161e-18
3702.82202 8.00067e-18
3707.07008 8.52164e-18
3711.31813 8.84891e-18
3715.56619 8.44688e-18
3719.80422 8.05635e-18
3724.05228 7.66594e-18
3728.30034 7.27561e-18
3732.53837 6.88536e-18
3736.78643 6.49519e-18
3741.03449 6.10506e-18
3745.28254 5.71504e-18
3749.52058 5.32509e-18
3753.76864 4.93522e-18
3758.01669 4.54540e-18
3762.25473 4.21610e-18
3766.50278 3.73847e-18
3770.75084 3.21231e-18
3774.99890 2.47570e-18
3779.23693 2.61721e-18
3783.48499 2.58970e-18
3787.73305 2.42464e-18
3791.97108 2.58107e-18
3796.21914 2.57293e-18
3800.46719 2.45486e-18
3804.71525 2.61412e-18
3808.95329 2.95064e-18
3813.20134 2.91181e-18
3817.44940 2.59034e-18
3821.68744 2.73690e-18
3825.93549 2.93841e-18
3830.18355 2.79556e-18
3834.42159 3.13878e-18
3838.66964 3.47471e-18
3842.91770 3.47786e-18
3847.16575 3.74460e-18
3851.40379 4.01592e-18
3855.65185 4.26887e-18
3859.89990 4.53893e-18
3864.13794 4.83916e-18
3868.38600 5.39540e-18
3872.63405 5.88308e-18
3876.88211 6.24208e-18
3881.12014 6.69993e-18
3885.36820 7.61291e-18
3889.61626 8.31152e-18
3893.85429 8.72135e-18
3898.10235 9.23376e-18
3902.35040 9.97049e-18
3906.59846 1.02414e-17
3910.83650 1.04531e-17
3915.08455 1.11517e-17
3919.33261 1.18678e-17
3923.57065 1.20597e-17
3927.81870 1.20805e-17
3932.06676 1.22366e-17
3936.31482 1.25984e-17
3940.55285 1.26952e-17
3944.80091 1.31972e-17
3949.04896 1.40039e-17
3953.28700 1.48937e-17
3957.53506 1.59194e-17
3961.78311 1.64874e-17
3966.03117 1.67778e-17
3970.26921 1.72389e-17
3974.51726 1.75786e-17
3978.76532 1.79040e-17
3983.00335 1.80746e-17
3987.25141 1.80722e-17
3991.49947 1.79514e-17
3995.74752 1.78674e-17
3999.98556 1.78374e-17
4004.23362 1.79203e-17
4008.48167 1.80910e-17
4012.71971 1.83564e-17
4016.96776 1.82126e-17
4021.21582 1.76676e-17
4025.46388 1.77288e-17
4029.70191 1.78090e-17
4033.94997 1.73188e-17
4038.19803 1.70808e-17
4042.43606 1.68947e-17
4046.68412 1.62495e-17
4050.93217 1.57215e-17
4055.18023 1.55208e-17
4059.41827 1.51239e-17
4063.66632 1.46549e-17
4067.91438 1.43418e-17
4072.15242 1.40146e-17
4076.40047 1.36564e-17
4080.64853 1.28803e-17
4084.89658 1.22427e-17
4089.13462 1.17507e-17
4093.38268 1.15484e-17
4097.63073 1.12638e-17
4101.86877 1.10114e-17
4106.11683 1.08316e-17
4110.36488 1.07731e-17
4114.60292 1.07522e-17
4118.85098 1.08137e-17
4123.09903 1.05311e-17
4127.34709 1.02870e-17
4131.58512 1.01905e-17
4135.83318 9.82427e-18
4140.08124 9.42070e-18
4144.31927 9.01387e-18
4148.56733 8.88448e-18
4152.81539 8.88042e-18
4157.06344 8.91892e-18
4161.30148 8.87066e-18
4165.54954 8.91915e-18
4169.79759 9.09092e-18
4174.03563 9.30157e-18
4178.28368 9.49628e-18
4182.53174 9.57253e-18
4186.77980 9.60118e-18
4191.01783 9.44379e-18
4195.26589 9.54893e-18
4199.51395 9.81295e-18
4203.75198 1.00110e-17
4208.00004 1.00732e-17
4212.24809 1.01282e-17
4216.49615 1.02618e-17
4220.73419 1.04735e-17
4224.98224 1.05394e-17
4229.23030 1.06023e-17
4233.46834 1.06800e-17
4237.71639 1.06596e-17
4241.96445 1.07272e-17
4246.21250 1.08550e-17
4250.45054 1.07967e-17
4254.69860 1.06986e-17
4258.94665 1.05915e-17
4263.18469 1.05444e-17
4267.43275 1.04966e-17
4271.68080 1.04489e-17
4275.91884 1.04151e-17
4280.16690 1.03121e-17
4284.41495 1.03608e-17
4288.66301 1.03797e-17
4292.90104 1.02543e-17
4297.14910 1.01437e-17
4301.39716 1.01023e-17
4305.64521 1.00507e-17
4309.88325 9.98253e-18
4314.13130 9.98104e-18
4318.37936 1.01058e-17
4322.61740 1.02793e-17
4326.86545 1.01029e-17
4331.11351 9.91119e-18
4335.36157 9.88738e-18
4339.59960 1.00461e-17
4343.84766 9.91709e-18
4348.09572 9.46305e-18
4352.33375 9.28404e-18
4356.58181 9.27505e-18
4360.82986 9.26606e-18
4365.06790 9.25707e-18
4369.31596 9.24808e-18
4373.56401 9.23909e-18
4377.81207 9.23010e-18
4382.05011 9.22111e-18
4386.29816 9.21212e-18
4390.54622 9.20314e-18
4394.78425 9.18359e-18
4399.03231 9.16576e-18
4403.28037 9.21223e-18
4407.52842 9.19329e-18
4411.76646 9.15005e-18
4416.01452 9.04472e-18
4420.26257 8.76560e-18
4424.50061 8.62134e-18
4428.74867 8.39124e-18
4432.99672 8.19092e-18
4437.24478 8.14098e-18
4441.48281 8.13934e-18
4445.73087 8.08583e-18
4449.97893 8.27015e-18
4454.21696 8.54351e-18
4458.46502 8.58758e-18
4462.71307 8.59873e-18
4466.96113 8.72684e-18
4471.19917 8.77818e-18
4475.44722 8.73475e-18
4479.69528 8.84264e-18
4483.93332 9.02439e-18
4488.18137 9.22531e-18
4492.42943 9.48357e-18
4496.67748 9.80698e-18
4500.91552 1.00080e-17
4505.16358 1.03457e-17
4509.41163 1.06201e-17
4513.64967 1.10689e-17
4517.89773 1.14501e-17
4522.14578 1.17197e-17
4526.39384 1.20786e-17
4530.63188 1.25237e-17
4534.87993 1.28401e-17
4539.12799 1.30944e-17
4543.36603 1.33905e-17
4547.61408 1.37335e-17
4551.86214 1.40133e-17
4556.10017 1.43013e-17
4560.34823 1.45894e-17
4564.59629 1.48980e-17
4568.84434 1.50797e-17
4573.08238 1.52129e-17
4577.33043 1.55297e-17
4581.57849 1.60672e-17
4585.81653 1.62859e-17
4590.06458 1.61189e-17
4594.31264 1.59359e-17
4598.56070 1.59835e-17
4602.79873 1.61511e-17
4607.04679 1.62615e-17
4611.29485 1.64524e-17
4615.53288 1.64576e-17
4619.78094 1.63803e-17
4624.02899 1.63900e-17
4628.27705 1.64716e-17
4632.51509 1.64218e-17
4636.76314 1.62396e-17
4641.01120 1.62066e-17
4645.24924 1.63907e-17
4649.49729 1.63776e-17
4653.74535 1.63690e-17
4657.99340 1.64345e-17
4662.23144 1.62890e-17
4666.47950 1.60963e-17
4670.72755 1.60036e-17
4674.96559 1.58949e-17
4679.21365 1.56884e-17
4683.46170 1.56659e-17
4687.70976 1.55170e-17
4691.94780 1.55582e-17
4696.19585 1.56683e-17
4700.44391 1.57048e-17
4704.68194 1.58376e-17
4708.93000 1.59884e-17
4713.17806 1.58823e-17
4717.42611 1.57011e-17
4721.66415 1.56491e-17
4725.91220 1.55627e-17
4730.16026 1.53670e-17
4734.39830 1.50402e-17
4738.64635 1.47224e-17
4742.89441 1.44524e-17
4747.14247 1.42032e-17
4751.38050 1.40251e-17
4755.62856 1.37072e-17
4759.87662 1.34602e-17
4764.11465 1.32004e-17
4768.36271 1.28602e-17
4772.61076 1.26434e-17
4776.85882 1.24783e-17
4781.09686 1.21486e-17
4785.34491 1.16725e-17
4789.59297 1.12122e-17
4793.83101 1.07772e-17
4798.07906 1.03782e-17
4802.32712 9.80911e-18
4806.57517 9.28572e-18
4810.81321 9.10714e-18
4815.06127 8.98028e-18
4819.30932 8.72180e-18
4823.54736 8.52506e-18
4827.79542 8.40347e-18
4832.04347 8.43599e-18
4836.29153 8.66399e-18
4840.52957 8.71546e-18
4844.77762 8.70472e-18
4849.02568 8.84076e-18
4853.26371 8.80837e-18
4857.51177 8.77598e-18
4861.75983 8.74361e-18
4865.99786 8.71123e-18
4870.24592 8.67886e-18
4874.49398 8.64649e-18
4878.74203 8.61414e-18
4882.98007 8.58178e-18
4887.22812 8.54944e-18
4891.47618 8.51709e-18
4895.71422 8.46049e-18
4899.96227 8.60112e-18
4904.21033 8.81562e-18
4908.45838 8.90899e-18
4912.69642 9.15252e-18
4916.94448 9.58964e-18
4921.19253 9.94930e-18
4925.43057 1.03510e-17
4929.67863 1.09201e-17
4933.92668 1.15188e-17
4938.17474 1.20539e-17
4942.41278 1.26131e-17
4946.66083 1.31419e-17
4950.90889 1.34678e-17
4955.14693 1.37937e-17
4959.39498 1.41194e-17
4963.64304 1.44451e-17
4967.89109 1.47708e-17
4972.12913 1.50964e-17
4976.37719 1.54219e-17
4980.62524 1.57475e-17
4984.86328 1.60729e-17
4989.11133 1.63983e-17
4993.35939 1.64173e-17
4997.60745 1.61459e-17
5001.84548 1.56874e-17
5006.09354 1.52290e-17
5010.34160 1.47707e-17
5014.57963 1.43124e-17
5018.82769 1.38542e-17
5023.07575 1.33961e-17
5027.32380 1.29380e-17
5031.56184 1.24800e-17
5035.80989 1.20221e-17
5040.05795 1.14038e-17
5044.29599 1.08319e-17
5048.54404 1.03812e-17
5052.79210 1.01212e-17
5057.04015 9.99174e-18
5061.27819 9.88842e-18
5065.52625 9.83923e-18
5069.77430 9.90658e-18
5074.01234 1.00438e-17
5078.26040 1.02253e-17
5082.50845 1.05104e-17
5086.74649 1.06957e-17
5090.99455 1.10372e-17
5095.24260 1.14350e-17
5099.49066 1.17135e-17
5103.72870 1.19547e-17
5107.97675 1.21909e-17
5112.22481 1.23935e-17
5116.47286 1.26047e-17
5120.71090 1.28244e-17
5124.95896 1.30471e-17
5129.20701 1.31460e-17
5133.44505 1.30643e-17
5137.69311 1.30987e-17
5141.94116 1.32192e-17
5146.17920 1.33797e-17
5150.42725 1.34361e-17
5154.67531 1.34407e-17
5158.92337 1.35147e-17
5163.16140 1.35127e-17
5167.40946 1.33998e-17
5171.65752 1.32666e-17
5175.89555 1.31405e-17
5180.14361 1.30044e-17
5184.39166 1.29016e-17
5188.63972 1.29003e-17
5192.87776 1.29372e-17
5197.12581 1.29489e-17
5201.37387 1.28328e-17
5205.61191 1.26432e-17
5209.85996 1.26779e-17
5214.10802 1.27973e-17
5218.35607 1.28583e-17
5222.59411 1.30331e-17
5226.84217 1.32077e-17
5231.09022 1.33205e-17
5235.32826 1.35281e-17
5239.57632 1.38578e-17
5243.82437 1.41704e-17
5248.07243 1.43877e-17
5252.31047 1.45781e-17
5256.55852 1.47768e-17
5260.80658 1.49620e-17
5265.04461 1.51946e-17
5269.29267 1.55722e-17
5273.54073 1.58200e-17
5277.78878 1.60200e-17
5282.02682 1.64059e-17
5286.27488 1.67319e-17
5290.52293 1.69395e-17
5294.76097 1.71117e-17
5299.00902 1.72762e-17
5303.25708 1.73694e-17
5307.50514 1.75199e-17
5311.74317 1.77128e-17
5315.99123 1.77932e-17
5320.23928 1.78682e-17
5324.47732 1.78376e-17
5328.72538 1.77676e-17
5332.97343 1.79421e-17
5337.22149 1.79931e-17
5341.45953 1.80520e-17
5345.70758 1.80321e-17
5349.95564 1.78796e-17
5354.19368 1.78367e-17
5358.44173 1.78186e-17
5362.68979 1.78334e-17
5366.92782 1.78851e-17
5371.17588 1.77379e-17
5375.42394 1.76300e-17
5379.67199 1.74922e-17
5383.91003 1.75008e-17
5388.15809 1.74829e-17
5392.40614 1.72483e-17
5396.65420 1.72593e-17
5400.89223 1.72531e-17
5405.14029 1.68637e-17
5409.38835 1.65582e-17
5413.62638 1.64048e-17
5417.87444 1.63421e-17
5422.12250 1.62579e-17
5426.36053 1.61144e-17
5430.60859 1.60824e-17
5434.85664 1.60349e-17
5439.10470 1.59826e-17
5443.34274 1.60217e-17
5447.59079 1.59792e-17
5451.83885 1.58937e-17
5456.07689 1.59601e-17
5460.32494 1.60441e-17
5464.57300 1.60900e-17
5468.82106 1.62197e-17
5473.05909 1.62439e-17
5477.30715 1.61380e-17
5481.55520 1.61960e-17
5485.79324 1.63583e-17
5490.04130 1.65516e-17
5494.28935 1.67000e-17
5498.53741 1.67324e-17
5502.77545 1.67271e-17
5507.02350 1.67972e-17
5511.27156 1.68514e-17
5515.50960 1.68458e-17
5519.75765 1.68157e-17
5524.00571 1.68386e-17
5528.25376 1.68611e-17
5532.49180 1.66591e-17
5536.73986 1.66401e-17
5540.98791 1.67046e-17
5545.22595 1.66275e-17
5549.47401 1.64605e-17
5553.72206 1.63905e-17
5557.97012 1.62424e-17
5562.20815 1.60725e-17
5566.45621 1.59913e-17
5570.70427 1.59478e-17
5574.94230 1.58873e-17
5579.19036 1.57240e-17
5583.43842 1.56437e-17
5587.68647 1.55769e-17
5591.92451 1.54991e-17
5596.17256 1.54956e-17
5600.42062 1.53980e-17
5604.65866 1.53528e-17
5608.90671 1.53546e-17
5613.15477 1.52613e-17
5617.40283 1.52224e-17
5621.64086 1.51854e-17
5625.88892 1.50071e-17
5630.13697 1.47730e-17
5634.37501 1.46173e-17
5638.62307 1.42883e-17
5642.87112 1.39346e-17
5647.10916 1.35434e-17
5651.35722 1.29841e-17
5655.60527 1.24110e-17
5659.85333 1.19749e-17
5664.09137 1.16509e-17
5668.33942 1.13281e-17
5672.58748 1.08351e-17
5676.82551 1.03498e-17
5681.07357 9.83700e-18
5685.32163 9.35513e-18
5689.56968 8.98125e-18
5693.80772 8.66023e-18
5698.05577 8.38220e-18
5702.30383 8.22525e-18
5706.54187 8.09069e-18
5710.78992 7.92852e-18
5715.03798 7.85972e-18
5719.28604 7.89123e-18
5723.52407 7.97544e-18
5727.77213 8.17151e-18
5732.02018 8.38063e-18
5736.25822 8.62717e-18
5740.50628 9.01047e-18
5744.75433 9.39601e-18
5749.00239 9.83524e-18
5753.24043 1.03883e-17
5757.48848 1.10692e-17
5761.73654 1.16861e-17
5765.97458 1.21854e-17
5770.22263 1.28591e-17
5774.47069 1.35145e-17
5778.71874 1.40546e-17
5782.95678 1.46027e-17
5787.20484 1.49453e-17
5791.45289 1.52496e-17
5795.69093 1.55547e-17
5799.93899 1.58663e-17
5804.18704 1.62831e-17
5808.43510 1.63642e-17
5812.67314 1.63354e-17
5816.92119 1.66362e-17
5821.16925 1.68762e-17
5825.40728 1.71389e-17
5829.65534 1.75258e-17
5833.90340 1.79371e-17
5838.15145 1.84559e-17
5842.38949 1.88946e-17
5846.63755 1.92152e-17
5850.88560 1.94709e-17
5855.12364 1.96574e-17
5859.37169 1.97773e-17
5863.61975 1.97706e-17
5867.86781 1.97574e-17
5872.10584 1.97064e-17
5876.35390 1.96605e-17
5880.60196 1.94434e-17
5884.83999 1.90841e-17
5889.08805 1.86115e-17
5893.33610 1.80771e-17
5897.57414 1.75977e-17
5901.82220 1.70015e-17
5906.07025 1.63757e-17
5910.31831 1.63562e-17
5914.55635 1.70220e-17
5918.80440 1.76211e-17
5923.05246 1.76851e-17
5927.29050 1.75699e-17
5931.53855 1.74182e-17
5935.78661 1.72574e-17
5940.03466 1.71112e-17
5944.27270 1.70138e-17
5948.52076 1.69507e-17
5952.76881 1.68100e-17
5957.00685 1.66724e-17
5961.25490 1.65671e-17
5965.50296 1.64343e-17
5969.75102 1.63896e-17
5973.98905 1.63114e-17
5978.23711 1.60680e-17
5982.48517 1.58270e-17
5986.72320 1.56556e-17
5990.97126 1.55555e-17
5995.21932 1.53253e-17
5999.46737 1.51619e-17
6003.70541 1.49590e-17
6007.95346 1.46484e-17
6012.20152 1.43681e-17
6016.43956 1.41988e-17
6020.68761 1.40733e-17
6024.93567 1.41135e-17
6029.18372 1.40449e-17
6033.42176 1.38696e-17
6037.66982 1.37492e-17
6041.91787 1.36418e-17
6046.15591 1.35690e-17
6050.40397 1.34731e-17
6054.65202 1.33960e-17
6058.90008 1.33964e-17
6063.13812 1.34068e-17
6067.38617 1.33324e-17
6071.63423 1.32124e-17
6075.87227 1.32097e-17
6080.12032 1.33175e-17
6084.36838 1.34120e-17
6088.60641 1.32907e-17
6092.85447 1.31379e-17
6097.10253 1.31838e-17
6101.35058 1.32505e-17
6105.58862 1.32029e-17
6109.83668 1.32044e-17
6114.08473 1.31049e-17
6118.33279 1.29886e-17
6122.57082 1.29751e-17
6126.81888 1.29583e-17
6131.06694 1.28637e-17
6135.30497 1.27941e-17
6139.55303 1.27557e-17
6143.80109 1.27156e-17
6148.04914 1.26627e-17
6152.28718 1.26351e-17
6156.53523 1.26892e-17
6160.78329 1.27541e-17
6165.02133 1.27626e-17
6169.26938 1.26871e-17
6173.51744 1.25967e-17
6177.75548 1.25737e-17
6182.00353 1.24692e-17
6186.25159 1.24162e-17
6190.49964 1.25226e-17
6194.73768 1.25205e-17
6198.98574 1.23685e-17
6203.23379 1.21603e-17
6207.47183 1.20302e-17
6211.71989 1.18164e-17
6215.96794 1.14884e-17
6220.21600 1.10806e-17
6224.45403 1.07053e-17
6228.70209 1.03363e-17
6232.95015 9.93593e-18
6237.18818 9.61961e-18
6241.43624 9.26995e-18
6245.68430 8.85884e-18
6249.93235 8.43990e-18
6254.17039 8.08555e-18
6258.41845 7.82039e-18
6262.66650 7.49516e-18
6266.90454 7.14713e-18
6271.15259 6.87389e-18
6275.40065 6.64574e-18
6279.64871 6.43251e-18
6283.88674 6.34401e-18
6288.13480 6.34994e-18
6292.38285 6.40772e-18
6296.62089 6.52709e-18
6300.86895 6.68699e-18
6305.11700 6.90247e-18
6309.36506 7.22687e-18
6313.60310 7.56927e-18
6317.85115 7.78497e-18
6322.09921 7.85694e-18
6326.33725 7.92611e-18
6330.58530 8.10002e-18
6334.83336 8.41375e-18
6339.08141 8.88740e-18
6343.31945 9.42697e-18
6347.56751 9.84029e-18
6351.81556 1.01392e-17
6356.05360 1.05210e-17
6360.30166 1.09712e-17
6364.54971 1.13591e-17
6368.78775 1.16518e-17
6373.03580 1.18916e-17
6377.28386 1.21597e-17
6381.53192 1.23718e-17
6385.76995 1.25598e-17
6390.01801 1.26678e-17
6394.26607 1.28044e-17
6398.51412 1.29752e-17
6402.75216 1.31426e-17
6407.00022 1.32107e-17
6411.24827 1.33489e-17
6415.48631 1.34683e-17
6419.73436 1.35212e-17
6423.98242 1.35839e-17
6428.22046 1.36002e-17
6432.46851 1.36191e-17
6436.71657 1.36088e-17
6440.96463 1.35362e-17
6445.20266 1.34585e-17
6449.45072 1.33008e-17
6453.69877 1.31155e-17
6457.93681 1.28695e-17
6462.18487 1.26389e-17
6466.43292 1.23864e-17
6470.68098 1.20847e-17
6474.91902 1.18944e-17
6479.16707 1.16651e-17
6483.41513 1.13909e-17
6487.65317 1.10659e-17
6491.90122 1.08737e-17
6496.14928 1.06985e-17
6500.39733 1.05705e-17
6504.63537 1.04922e-17
6508.88343 1.04035e-17
6513.13148 1.03637e-17
6517.36952 1.02667e-17
6521.61758 1.01894e-17
6525.86563 1.02445e-17
6530.11369 1.02891e-17
6534.35172 1.03748e-17
6538.59978 1.05200e-17
6542.84784 1.06488e-17
6547.08587 1.08776e-17
6551.33393 1.11063e-17
6555.58198 1.13350e-17
6559.83004 1.15637e-17
6564.06808 1.17925e-17
6568.31613 1.20211e-17
6572.56419 1.22498e-17
6576.80223 1.24785e-17
6581.05028 1.27071e-17
6585.29834 1.29357e-17
6589.54640 1.31643e-17
6593.78443 1.33929e-17
6598.03249 1.36215e-17
6602.28054 1.38501e-17
6606.51858 1.40786e-17
6610.76664 1.41313e-17
6615.01469 1.40641e-17
6619.26275 1.39649e-17
6623.50079 1.39927e-17
6627.74884 1.40927e-17
6631.99690 1.40948e-17
6636.23493 1.42571e-17
6640.48299 1.45027e-17
6644.73105 1.47739e-17
6648.96908 1.53202e-17
6653.21714 1.53908e-17
6657.46520 1.53737e-17
6661.71325 1.53719e-17
6665.95129 1.53980e-17
6670.19934 1.54046e-17
6674.44740 1.53802e-17
6678.68544 1.53093e-17
6682.93349 1.52005e-17
6687.18155 1.50617e-17
6691.42961 1.49336e-17
6695.66764 1.48347e-17
6699.91570 1.47150e-17
6704.16375 1.45717e-17
6708.40179 1.43989e-17
6712.64985 1.42545e-17
6716.89790 1.41524e-17
6721.14596 1.40546e-17
6725.38400 1.39430e-17
6729.63205 1.38706e-17
6733.88011 1.38069e-17
6738.11815 1.37456e-17
6742.36620 1.36477e-17
6746.61426 1.35184e-17
6750.86231 1.34120e-17
6755.10035 1.33679e-17
6759.34841 1.33267e-17
6763.59646 1.32254e-17
6767.83450 1.31053e-17
6772.08256 1.29904e-17
6776.33061 1.28679e-17
6780.57867 1.27409e-17
6784.81671 1.26075e-17
6789.06476 1.24713e-17
6793.31282 1.23095e-17
6797.55085 1.21084e-17
6801.79891 1.19659e-17
6806.04697 1.17881e-17
6810.29502 1.15832e-17
6814.53306 1.14599e-17
6818.78112 1.13468e-17
6823.02917 1.11862e-17
6827.26721 1.09586e-17
6831.51526 1.07904e-17
6835.76332 1.10610e-17
6840.01138 1.09499e-17
6844.24941 1.08590e-17
6848.49747 1.07809e-17
6852.74553 1.07096e-17
6856.98356 1.06392e-17
6861.23162 1.05672e-17
6865.47967 1.04912e-17
6869.72773 1.04076e-17
6873.96577 1.03251e-17
6878.21382 1.02525e-17
6882.46188 1.02005e-17
6886.69992 1.01742e-17
6890.94797 1.01753e-17
6895.19603 1.02060e-17
6899.43407 1.02678e-17
6903.68212 1.03630e-17
6907.93018 1.04926e-17
6912.17823 1.06567e-17
6916.41627 1.08504e-17
6920.66433 1.10677e-17
6924.91238 1.13033e-17
6929.16044 1.15490e-17
6933.39847 1.17959e-17
6937.64653 1.20346e-17
6941.89459 1.22585e-17
6946.13262 1.24701e-17
6950.38068 1.26699e-17
6954.62874 1.28601e-17
6958.86677 1.30348e-17
6963.11483 1.31895e-17
6967.36288 1.33211e-17
6971.61094 1.34265e-17
6975.84898 1.35039e-17
6980.09703 1.35504e-17
6984.34509 1.35696e-17
6988.58313 1.35768e-17
6992.83118 1.35846e-17
6997.07924 1.36059e-17
7001.32730 1.36428e-17
7005.56533 1.36976e-17
7009.81339 1.37723e-17
7014.06144 1.38629e-17
7018.29948 1.39635e-17
7022.54754 1.40675e-17
7026.79559 1.41668e-17
7031.04365 1.42522e-17
7035.28169 1.43147e-17
7039.52974 1.43461e-17
7043.77780 1.43455e-17
7048.01584 1.43120e-17
7052.26389 1.42453e-17
7056.51195 1.41493e-17
7060.76000 1.40288e-17
7064.99804 1.38901e-17
7069.24610 1.37375e-17
7073.49415 1.35736e-17
7077.73219 1.34020e-17
7081.98025 1.32261e-17
7086.22830 1.30511e-17
7090.47636 1.28815e-17
7094.71439 1.27222e-17
7098.96245 1.25751e-17
7103.21051 1.24419e-17
7107.44854 1.23236e-17
7111.69660 1.22216e-17
7115.94466 1.21375e-17
7120.19271 1.20723e-17
7124.43075 1.20264e-17
7128.67880 1.19971e-17
7132.92686 1.19821e-17
7137.16490 1.19778e-17
7141.41295 1.19857e-17
7145.66101 1.20060e-17
7149.90907 1.20398e-17
7154.14710 1.20837e-17
7158.39516 1.21326e-17
7162.64321 1.21827e-17
7166.88125 1.22290e-17
7171.12931 1.22627e-17
7175.37736 1.22767e-17
7179.61540 1.22631e-17
7183.86346 1.22329e-17
7188.11151 1.21951e-17
7192.35957 1.21612e-17
7196.59760 1.21346e-17
7200.84566 1.21163e-17
7205.09372 1.21089e-17
7209.34177 1.21122e-17
7213.57981 1.21205e-17
7217.82787 1.21290e-17
7222.07592 1.21318e-17
7226.31396 1.21353e-17
7230.56202 1.21435e-17
7234.81007 1.21613e-17
7239.04811 1.21875e-17
7243.29616 1.22192e-17
7247.54422 1.22550e-17
7251.79228 1.22902e-17
7256.03031 1.23172e-17
7260.27837 1.23287e-17
7264.52643 1.23184e-17
7268.76446 1.22897e-17
7273.01252 1.22447e-17
7277.26057 1.21871e-17
7281.50863 1.21180e-17
7285.74667 1.20387e-17
7289.99472 1.19515e-17
7294.24278 1.18582e-17
7298.48082 1.17608e-17
7302.72887 1.16608e-17
7306.97693 1.15602e-17
7311.22498 1.14638e-17
7315.46302 1.13755e-17
7319.71108 1.13004e-17
7323.95913 1.12344e-17
7328.19717 1.11734e-17
7332.44523 1.11118e-17
7336.69328 1.10499e-17
7340.94134 1.09913e-17
7345.17937 1.09381e-17
7349.42743 1.08927e-17
7353.67549 1.08552e-17
7357.91352 1.08263e-17
7362.16158 1.08072e-17
7366.40964 1.07936e-17
7370.65769 1.07818e-17
7374.89573 1.07669e-17
7379.14378 1.07490e-17
7383.39184 1.07301e-17
7387.62988 1.07117e-17
7391.87793 1.06954e-17
7396.12599 1.06822e-17
7400.36403 1.06735e-17
7404.61208 1.06709e-17
7408.86014 1.06719e-17
7413.10820 1.06742e-17
7417.34623 1.06747e-17
7421.59429 1.06746e-17
7425.84234 1.06763e-17
7430.09040 1.06821e-17
7434.32844 1.06925e-17
7438.57649 1.07054e-17
7442.82455 1.07195e-17
7447.06259 1.07333e-17
7451.31064 1.07418e-17
7455.55870 1.07407e-17
7459.79673 1.07241e-17
7464.04479 1.06952e-17
7468.29285 1.06588e-17
7472.54090 1.06199e-17
7476.77894 1.05810e-17
7481.02700 1.05401e-17
7485.27505 1.04972e-17
7489.51309 1.04516e-17
7493.76115 1.04015e-17
7498.00920 1.03454e-17
7502.25726 1.02807e-17
7506.49529 1.02107e-17
7510.74335 1.01384e-17
7514.99141 1.00681e-17
7519.22944 1.00009e-17
7523.47750 9.93568e-18
7527.72555 9.87215e-18
7531.97361 9.81000e-18
7536.21165 9.75090e-18
7540.45970 9.69600e-18
7544.70776 9.64609e-18
7548.94580 9.60364e-18
7553.19385 9.57074e-18
7557.44191 9.54942e-18
7561.68997 9.53985e-18
7565.92800 9.54082e-18
7570.17606 9.55165e-18
7574.42411 9.57006e-18
7578.66215 9.58829e-18
7582.91021 9.60001e-18
7587.15826 9.59781e-18
7591.40632 9.58433e-18
7595.64436 9.56180e-18
7599.89241 9.53272e-18
7604.14047 9.49965e-18
7608.37850 9.46496e-18
7612.62656 9.43248e-18
7616.87462 9.40353e-18
7621.12267 9.37243e-18
7625.36071 9.33554e-18
7629.60877 9.28810e-18
7633.85682 9.23785e-18
7638.09486 9.19082e-18
7642.34292 9.15358e-18
7646.59097 9.12972e-18
7650.83903 9.12156e-18
7655.07706 9.13228e-18
7659.32512 9.16114e-18
7663.57318 9.20119e-18
7667.81121 9.24652e-18
7672.05927 9.29066e-18
7676.30732 9.33138e-18
7680.55538 9.36602e-18
7684.79342 9.39177e-18
7689.04147 9.40925e-18
7693.28953 9.41998e-18
7697.52757 9.42547e-18
7701.77562 9.42810e-18
7706.02368 9.43092e-18
7710.26172 9.43708e-18
7714.50977 9.44933e-18
7718.75783 9.46430e-18
7723.00588 9.47971e-18
7727.24392 9.49239e-18
7731.49198 9.50234e-18
7735.74003 9.50967e-18
7739.97807 9.51447e-18
7744.22613 9.51703e-18
7748.47418 9.51788e-18
7752.72224 9.51759e-18
7756.96028 9.51698e-18
7761.20833 9.51828e-18
7765.45639 9.52322e-18
7769.69442 9.53338e-18
7773.94248 9.54914e-18
7778.19054 9.57035e-18
7782.43859 9.59811e-18
7786.67663 9.62858e-18
7790.92468 9.65561e-18
7795.17274 9.67314e-18
7799.41078 9.67726e-18
7803.65883 9.67303e-18
7807.90689 9.66357e-18
7812.15495 9.65302e-18
7816.39298 9.64222e-18
7820.64104 9.63237e-18
7824.88910 9.62526e-18
7829.12713 9.62052e-18
7833.37519 9.61700e-18
7837.62324 9.61344e-18
7841.87130 9.60904e-18
7846.10934 9.60450e-18
7850.35739 9.60005e-18
7854.60545 9.59596e-18
7858.84349 9.59285e-18
7863.09154 9.59126e-18
7867.33960 9.59140e-18
7871.58765 9.59362e-18
7875.82569 9.59798e-18
7880.07375 9.60503e-18
7884.32180 9.61313e-18
7888.55984 9.61704e-18
7892.80790 9.61272e-18
7897.05595 9.59621e-18
7901.29399 9.56752e-18
7905.54205 9.52672e-18
7909.79010 9.47336e-18
7914.03816 9.41244e-18
7918.27619 9.34977e-18
7922.52425 9.29087e-18
7926.77231 9.24027e-18
7931.02036 9.20078e-18
7935.25840 9.17574e-18
7939.50645 9.16719e-18
7943.75451 9.16362e-18
7947.99255 9.15633e-18
7952.24060 9.13389e-18
7956.48866 9.09877e-18
7960.73672 9.05445e-18
7964.97475 9.00336e-18
7969.22281 8.95076e-18
7973.47087 8.90357e-18
7977.70890 8.86913e-18
7981.95696 8.85285e-18
7986.20501 8.84668e-18
7990.44305 8.84530e-18
7994.69111 8.84130e-18
7998.93916 8.83544e-18
8003.18722 8.82800e-18
8007.42526 8.81885e-18
8011.67331 8.80851e-18
8015.92137 8.79776e-18
8020.15941 8.78804e-18
8024.40746 8.77987e-18
8028.65552 8.76930e-18
8032.90357 8.75367e-18
8037.14161 8.72919e-18
8041.38967 8.70051e-18
8045.63772 8.67128e-18
8049.87576 8.64658e-18
8054.12382 8.62566e-18
8058.37187 8.60585e-18
8062.61993 8.58514e-18
8066.85796 8.56159e-18
8071.10602 8.53393e-18
8075.35408 8.50062e-18
8079.59211 8.45983e-18
8083.84017 8.41555e-18
8088.08823 8.37087e-18
8092.33628 8.33000e-18
8096.57432 8.29235e-18
8100.82237 8.25618e-18
8105.07043 8.22012e-18
8109.30847 8.18235e-18
8113.55652 8.14069e-18
8117.80458 8.09319e-18
8122.05264 8.03830e-18
8126.29067 7.97472e-18
8130.53873 7.90190e-18
8134.78678 7.81771e-18
8139.02482 7.72900e-18
8143.27288 7.64326e-18
8147.52093 7.56850e-18
8151.76899 7.50838e-18
8156.00703 7.46133e-18
8160.25508 7.42651e-18
8164.50314 7.40173e-18
8168.74118 7.38135e-18
8172.98923 7.35963e-18
8177.23729 7.33115e-18
8181.47532 7.28800e-18
8185.72338 7.22313e-18
8189.97144 7.12804e-18
8194.21949 7.00250e-18
8198.45753 6.85266e-18
8202.70558 6.68420e-18
8206.95364 6.50323e-18
8211.19168 6.31123e-18
8215.43973 6.11127e-18
8219.68779 5.90543e-18
8223.93585 5.70014e-18
8228.17388 5.50071e-18
8232.42194 5.31458e-18
8236.67000 5.13991e-18
8240.90803 4.97041e-18
8245.15609 4.80045e-18
8249.40414 4.62613e-18
8253.65220 4.45179e-18
8257.89024 4.27977e-18
8262.13829 4.11247e-18
8266.38635 3.95580e-18
8270.63441 3.81503e-18
8274.87244 3.69715e-18
8279.12050 3.60150e-18
8283.36855 3.52468e-18
8287.60659 3.46363e-18
8291.85465 3.41536e-18
8296.10270 3.37832e-18
8300.34074 3.35025e-18
8304.58880 3.32864e-18
8308.83685 3.31557e-18
8313.08491 3.31244e-18
8317.32294 3.32127e-18
8321.57100 3.34130e-18
8325.81906 3.37101e-18
8330.05709 3.40957e-18
8334.30515 3.45470e-18
8338.55321 3.50214e-18
8342.80126 3.54819e-18
8347.03930 3.58930e-18
8351.28736 3.62713e-18
8355.53541 3.66286e-18
8359.77345 3.69763e-18
8364.02150 3.73400e-18
8368.26956 3.77455e-18
8372.51762 3.82262e-18
8376.75565 3.87856e-18
8381.00371 3.93938e-18
8385.25177 4.00293e-18
8389.48980 4.06685e-18
8393.73786 4.12956e-18
8397.98591 4.18952e-18
8402.22395 4.24448e-18
8406.47201 4.29679e-18
8410.72006 4.34895e-18
8414.96812 4.40423e-18
8419.20616 4.46367e-18
8423.45421 4.52670e-18
8427.70227 4.59325e-18
8431.95032 4.66326e-18
8436.18836 4.73791e-18
8440.43642 4.81797e-18
8444.68447 4.90454e-18
8448.92251 4.99720e-18
8453.17057 5.09574e-18
8457.41862 5.19975e-18
8461.66668 5.31020e-18
8465.90472 5.42884e-18
8470.15277 5.55673e-18
8474.40083 5.69545e-18
8478.63886 5.84889e-18
8482.88692 6.01980e-18
8487.13498 6.21142e-18
8491.38303 6.41853e-18
8495.62107 6.63625e-18
8499.86912 6.85916e-18
8504.11718 7.08287e-18
8508.35522 7.30348e-18
8512.60327 7.51644e-18
8516.85133 7.71926e-18
8521.08937 7.91386e-18
8525.33742 8.10122e-18
8529.58548 8.28267e-18
8533.83353 8.45863e-18
8538.07157 8.62940e-18
8542.31963 8.79727e-18
8546.56768 8.95671e-18
8550.80572 9.10121e-18
8555.05378 9.22417e-18
8559.30183 9.32310e-18
8563.54989 9.40228e-18
8567.78793 9.46460e-18
8572.03598 9.51375e-18
8576.28404 9.55796e-18
8580.52208 9.60462e-18
8584.77013 9.66253e-18
8589.01819 9.73248e-18
8593.26624 9.81382e-18
8597.50428 9.90546e-18
8601.75234 1.00054e-17
8606.00039 1.01108e-17
8610.23843 1.02186e-17
8614.48648 1.03254e-17
8618.73454 1.04238e-17
8622.97258 1.05082e-17
8627.22063 1.05712e-17
8631.46869 1.06157e-17
8635.71675 1.06450e-17
8639.95478 1.06630e-17
8644.20284 1.06733e-17
8648.45089 1.06791e-17
8652.69895 1.06840e-17
8656.93699 1.06910e-17
8661.18504 1.06992e-17
8665.43310 1.07082e-17
8669.67114 1.07177e-17
8673.91919 1.07233e-17
8678.16725 1.07205e-17
8682.41531 1.07043e-17
8686.65334 1.06742e-17
8690.90140 1.06321e-17
8695.14945 1.05792e-17
8699.38749 1.05184e-17
8703.63555 1.04562e-17
8707.88360 1.03982e-17
8712.12164 1.03504e-17
8716.36970 1.03129e-17
8720.61775 1.02854e-17
8724.86581 1.02685e-17
8729.10384 1.02568e-17
8733.35190 1.02429e-17
8737.59996 1.02197e-17
8741.84801 1.01817e-17
8746.08605 1.01287e-17
8750.33411 1.00595e-17
8754.58216 9.97380e-18
8758.82020 9.87676e-18
8763.06826 9.77335e-18
8767.31631 9.67003e-18
8771.55435 9.56962e-18
8775.80240 9.47433e-18
8780.05046 9.38560e-18
8784.29852 9.30620e-18
8788.53655 9.24106e-18
8792.78461 9.19371e-18
8797.03267 9.16699e-18
8801.27070 9.15206e-18
8805.51876 9.14164e-18
8809.76681 9.12802e-18
8814.01487 9.10507e-18
8818.25291 9.06774e-18
8822.50096 9.00960e-18
8826.74902 8.93169e-18
8830.98706 8.84268e-18
8835.23511 8.74984e-18
8839.48317 8.66106e-18
8843.73122 8.58189e-18
8847.96926 8.51795e-18
8852.21732 8.47584e-18
8856.46537 8.45198e-18
8860.70341 8.44187e-18
8864.95147 8.43944e-18
8869.19952 8.44101e-18
8873.44758 8.44451e-18
8877.68562 8.44729e-18
8881.93367 8.44619e-18
8886.18173 8.43323e-18
8890.41976 8.40253e-18
8894.66782 8.34798e-18
8898.91588 8.27172e-18
8903.16393 8.17683e-18
8907.40197 8.06449e-18
8911.65003 7.94388e-18
8915.89808 7.82711e-18
8920.13612 7.72659e-18
8924.38417 7.64948e-18
8928.63223 7.58513e-18
8932.88029 7.52669e-18
8937.11832 7.46613e-18
8941.36638 7.39653e-18
8945.61443 7.31158e-18
8949.85247 7.20265e-18
8954.10053 7.07359e-18
8958.34858 6.93273e-18
8962.59664 6.78789e-18
8966.83468 6.64765e-18
8971.08273 6.52031e-18
8975.33079 6.41420e-18
8979.56883 6.33729e-18
8983.81688 6.28840e-18
8988.06494 6.26617e-18
8992.30298 6.26854e-18
8996.55103 6.29032e-18
9000.79909 6.32517e-18
9005.04714 6.36592e-18
9009.28518 6.40643e-18
9013.53324 6.44261e-18
9017.78129 6.47017e-18
9022.01933 6.48559e-18
9026.26738 6.48623e-18
9030.51544 6.47045e-18
9034.76350 6.43687e-18
9039.00153 6.38844e-18
9043.24959 6.32926e-18
9047.49765 6.26350e-18
9051.74570 6.19647e-18
9055.98374 6.13420e-18
9060.23179 6.08230e-18
9064.47985 6.04555e-18
9068.71789 6.02583e-18
9072.96594 6.02438e-18
9077.21400 6.04318e-18
9081.45204 6.07461e-18
9085.70009 6.11074e-18
9089.94815 6.14349e-18
9094.19621 6.16727e-18
9098.43424 6.17944e-18
9102.68230 6.17576e-18
9106.93035 6.15562e-18
9111.16839 6.13487e-18
9115.41645 6.12562e-18
9119.66450 6.14328e-18
9123.91256 6.18265e-18
9128.15060 6.23907e-18
9132.39865 6.30636e-18
9136.64671 6.38076e-18
9140.88474 6.45922e-18
9145.13280 6.53842e-18
9149.38086 6.61395e-18
9153.62891 6.67701e-18
9157.86695 6.72094e-18
