# wavelength flux
3343.04354 5.38260e-17
3344.99188 5.33522e-17
3346.94022 5.29491e-17
3348.88857 5.40146e-17
3350.83691 5.38674e-17
3352.77521 5.41799e-17
3354.72355 5.33801e-17
3356.67189 5.26989e-17
3358.62023 5.37927e-17
3360.56857 5.40579e-17
3362.51692 5.27515e-17
3364.46526 5.08125e-17
3366.40356 4.92859e-17
3368.35190 4.94561e-17
3370.30024 4.86189e-17
3372.24858 4.90488e-17
3374.19692 4.84969e-17
3376.14527 5.00352e-17
3378.09361 5.04238e-17
3380.03191 5.09694e-17
3381.98025 4.94471e-17
3383.92859 4.92948e-17
3385.87693 4.95085e-17
3387.82528 4.91895e-17
3389.77362 4.98702e-17
3391.72196 4.96720e-17
3393.66026 5.10561e-17
3395.60860 5.11149e-17
3397.55694 4.96204e-17
3399.50528 4.95151e-17
3401.45363 5.09138e-17
3403.40197 5.06225e-17
3405.35031 5.15860e-17
3407.28861 5.16208e-17
3409.23695 5.19231e-17
3411.18529 5.14264e-17
3413.13364 5.14929e-17
3415.08198 5.17967e-17
3417.03032 5.18645e-17
3418.97866 5.17299e-17
3420.91696 5.20152e-17
3422.86530 5.11915e-17
3424.81365 5.02390e-17
3426.76199 5.06599e-17
3428.71033 5.03846e-17
3430.65867 5.04570e-17
3432.60701 4.90910e-17
3434.54531 4.82806e-17
3436.49365 4.90223e-17
3438.44200 4.88872e-17
3440.39034 4.77278e-17
3442.33868 4.75928e-17
3444.28702 4.76596e-17
3446.23536 4.75032e-17
3448.18371 4.76759e-17
3450.12200 4.74941e-17
3452.07035 4.84363e-17
3454.01869 4.72710e-17
3455.96703 4.70512e-17
3457.91537 4.74167e-17
3459.86371 4.82109e-17
3461.81206 4.69484e-17
3463.75036 4.59196e-17
3465.69870 4.57356e-17
3467.64704 4.52931e-17
3469.59538 4.54714e-17
3471.54372 4.44139e-17
3473.49207 4.40128e-17
3475.43037 4.34587e-17
3477.37871 4.34843e-17
3479.32705 4.29292e-17
3481.27539 4.37697e-17
3483.22373 4.44641e-17
3485.17207 4.35832e-17
3487.12042 4.32192e-17
3489.05872 4.27739e-17
3491.00706 4.38795e-17
3492.95540 4.46758e-17
3494.90374 4.50452e-17
3496.85208 4.47451e-17
3498.80043 4.54999e-17
3500.74877 4.54899e-17
3502.68707 4.50015e-17
3504.63541 4.53115e-17
3506.58375 4.61636e-17
3508.53209 4.58752e-17
3510.48043 4.54781e-17
3512.42878 4.54012e-17
3514.37712 4.63569e-17
3516.32546 4.63173e-17
3518.26376 4.64927e-17
3520.21210 4.54576e-17
3522.16044 4.47553e-17
3524.10879 4.54184e-17
3526.05713 4.51647e-17
3528.00547 4.62104e-17
3529.95381 4.58872e-17
3531.89211 4.51201e-17
3533.84045 4.52335e-17
3535.78879 4.51418e-17
3537.73714 4.47940e-17
3539.68548 4.49583e-17
3541.63382 4.48532e-17
3543.58216 4.47764e-17
3545.52046 4.48091e-17
3547.46880 4.39690e-17
3549.41715 4.37896e-17
3551.36549 4.38866e-17
3553.31383 4.38540e-17
3555.26217 4.41761e-17
3557.21051 4.42748e-17
3559.14881 4.36784e-17
3561.09715 4.32297e-17
3563.04550 4.28629e-17
3564.99384 4.38433e-17
3566.94218 4.38135e-17
3568.89052 4.34172e-17
3570.83887 4.29977e-17
3572.77716 4.29689e-17
3574.72551 4.16622e-17
3576.67385 4.15845e-17
3578.62219 4.12024e-17
3580.57053 4.11816e-17
3582.51887 4.10701e-17
3584.46722 4.08204e-17
3586.40551 4.10170e-17
3588.35386 4.03625e-17
3590.30220 3.98870e-17
3592.25054 3.96185e-17
3594.19888 4.00195e-17
3596.14722 3.96542e-17
3598.09557 3.80794e-17
3600.03387 3.78796e-17
3601.98221 3.77411e-17
3603.93055 3.80885e-17
3605.87889 3.78104e-17
3607.82723 3.63758e-17
3609.77558 3.66548e-17
3611.72392 3.70282e-17
3613.66222 3.63906e-17
3615.61056 3.64307e-17
3617.55890 3.65978e-17
3619.50724 3.63658e-17
3621.45558 3.60904e-17
3623.40393 3.59447e-17
3625.35227 3.60077e-17
3627.29057 3.60177e-17
3629.23891 3.69207e-17
3631.18725 3.72596e-17
3633.13559 3.73609e-17
3635.08394 3.76362e-17
3637.03228 3.82436e-17
3638.98062 3.84915e-17
3640.91892 3.86448e-17
3642.86726 3.91741e-17
3644.81560 3.98544e-17
3646.76395 3.92224e-17
3648.71229 3.97062e-17
3650.66063 4.01562e-17
3652.60897 4.01115e-17
3654.54727 4.01932e-17
3656.49561 3.97688e-17
3658.44395 4.01769e-17
3660.39230 3.94847e-17
3662.34064 3.99252e-17
3664.28898 3.99360e-17
3666.23732 4.01322e-17
3668.17562 4.01292e-17
3670.12396 4.01764e-17
3672.07230 4.05203e-17
3674.02065 3.99100e-17
3675.96899 3.96233e-17
3677.91733 3.89143e-17
3679.86567 3.93164e-17
3681.80397 3.90272e-17
3683.75231 3.83205e-17
3685.70066 3.80772e-17
3687.64900 3.74767e-17
3689.59734 3.71682e-17
3691.54568 3.65200e-17
3693.49402 3.59519e-17
3695.43232 3.46768e-17
3697.38067 3.40900e-17
3699.32901 3.38278e-17
3701.27735 3.39195e-17
3703.22569 3.26598e-17
3705.17403 3.19813e-17
3707.12237 3.16166e-17
3709.06067 3.08560e-17
3711.00902 3.05815e-17
3712.95736 3.07651e-17
3714.90570 3.06774e-17
3716.85404 3.03624e-17
3718.80238 3.04628e-17
3720.75073 3.02674e-17
3722.68902 2.98607e-17
3724.63737 2.96930e-17
3726.58571 2.95252e-17
3728.53405 2.93211e-17
3730.48239 2.91170e-17
3732.43073 2.89130e-17
3734.37908 2.87089e-17
3736.31738 2.85049e-17
3738.26572 2.83009e-17
3740.21406 2.80969e-17
3742.16240 2.78930e-17
3744.11074 2.76891e-17
3746.05909 2.74851e-17
3748.00743 2.72812e-17
3749.94573 2.70774e-17
3751.89407 2.68735e-17
3753.84241 2.66697e-17
3755.79075 2.64659e-17
3757.73909 2.62621e-17
3759.68744 2.60583e-17
3761.63578 2.58546e-17
3763.57408 2.56509e-17
3765.52242 2.52617e-17
3767.47076 2.46942e-17
3769.41910 2.51231e-17
3771.36745 2.44229e-17
3773.31579 2.43057e-17
3775.26413 2.43972e-17
3777.20243 2.36594e-17
3779.15077 2.38964e-17
3781.09911 2.32801e-17
3783.04745 2.29522e-17
3784.99580 2.32375e-17
3786.94414 2.37594e-17
3788.89248 2.42176e-17
3790.83078 2.38339e-17
3792.77912 2.43984e-17
3794.72746 2.45465e-17
3796.67581 2.50430e-17
3798.62415 2.50379e-17
3800.57249 2.58543e-17
3802.52083 2.61114e-17
3804.45913 2.63790e-17
3806.40747 2.66431e-17
3808.35581 2.63186e-17
3810.30416 2.68192e-17
3812.25250 2.71874e-17
3814.20084 2.70044e-17
3816.14918 2.71104e-17
3818.08748 2.67894e-17
3820.03582 2.74400e-17
3821.98417 2.82179e-17
3823.93251 2.93382e-17
3825.88085 2.98088e-17
3827.82919 2.95009e-17
3829.77753 3.01675e-17
3831.71583 3.11361e-17
3833.66417 3.12693e-17
3835.61252 3.12283e-17
3837.56086 3.20558e-17
3839.50920 3.24986e-17
3841.45754 3.25220e-17
3843.40588 3.28454e-17
3845.34418 3.21972e-17
3847.29253 3.26002e-17
3849.24087 3.34698e-17
3851.18921 3.28977e-17
3853.13755 3.29296e-17
3855.08589 3.29905e-17
3857.03424 3.31602e-17
3858.97253 3.30460e-17
3860.92088 3.30987e-17
3862.86922 3.32690e-17
3864.81756 3.32567e-17
3866.76590 3.33347e-17
3868.71425 3.31799e-17
3870.66259 3.32461e-17
3872.60089 3.29928e-17
3874.54923 3.35250e-17
3876.49757 3.37378e-17
3878.44591 3.31159e-17
3880.39425 3.38662e-17
3882.34260 3.37252e-17
3884.29094 3.36085e-17
3886.22924 3.34171e-17
3888.17758 3.34546e-17
3890.12592 3.35289e-17
3892.07426 3.35510e-17
3894.02260 3.38279e-17
3895.97095 3.32943e-17
3897.91929 3.28269e-17
3899.85759 3.28024e-17
3901.80593 3.28119e-17
3903.75427 3.27591e-17
3905.70261 3.25209e-17
3907.65096 3.24561e-17
3909.59930 3.27084e-17
3911.54764 3.23971e-17
3913.48594 3.23155e-17
3915.43428 3.22171e-17
3917.38262 3.23983e-17
3919.33097 3.23924e-17
3921.27931 3.19764e-17
3923.22765 3.24004e-17
3925.17599 3.29784e-17
3927.11429 3.24867e-17
3929.06263 3.16164e-17
3931.01097 3.12503e-17
3932.95932 3.12577e-17
3934.90766 3.19972e-17
3936.85600 3.21340e-17
3938.80434 3.21903e-17
3940.74264 3.23861e-17
3942.69098 3.23072e-17
3944.63933 3.21679e-17
3946.58767 3.19797e-17
3948.53601 3.10721e-17
3950.48435 3.05750e-17
3952.43269 3.10965e-17
3954.37099 3.13002e-17
3956.31933 3.15061e-17
3958.26768 3.16071e-17
3960.21602 3.14571e-17
3962.16436 3.07692e-17
3964.11270 2.96314e-17
3966.06104 2.94019e-17
3967.99934 2.89870e-17
3969.94768 2.89837e-17
3971.89603 2.91644e-17
3973.84437 2.92198e-17
3975.79271 2.87498e-17
3977.74105 2.85857e-17
3979.68939 2.80769e-17
3981.62769 2.77304e-17
3983.57604 2.72930e-17
3985.52438 2.68822e-17
3987.47272 2.69772e-17
3989.42106 2.71465e-17
3991.36940 2.79101e-17
3993.31775 2.75854e-17
3995.26609 2.73725e-17
3997.20439 2.79904e-17
3999.15273 2.80247e-17
4001.10107 2.81072e-17
4003.04941 2.81534e-17
4004.99775 2.73784e-17
4006.94610 2.74274e-17
4008.88440 2.76334e-17
4010.83274 2.79911e-17
4012.78108 2.79966e-17
4014.72942 2.74760e-17
4016.67776 2.77573e-17
4018.62611 2.76425e-17
4020.57445 2.77700e-17
4022.51275 2.78977e-17
4024.46109 2.78993e-17
4026.40943 2.80785e-17
4028.35777 2.76316e-17
4030.30611 2.81141e-17
4032.25446 2.81233e-17
4034.20280 2.79822e-17
4036.14110 2.82602e-17
4038.08944 2.87303e-17
4040.03778 2.83955e-17
4041.98612 2.81089e-17
4043.93447 2.86161e-17
4045.88281 2.92802e-17
4047.83115 2.88563e-17
4049.77949 2.86789e-17
4051.71779 2.90326e-17
4053.66613 2.87223e-17
4055.61447 2.87134e-17
4057.56282 2.85165e-17
4059.51116 2.87309e-17
4061.45950 2.81573e-17
4063.40784 2.79822e-17
4065.34614 2.79223e-17
4067.29448 2.81687e-17
4069.24283 2.80527e-17
4071.19117 2.77711e-17
4073.13951 2.78547e-17
4075.08785 2.79717e-17
4077.03619 2.75606e-17
4078.97449 2.79818e-17
4080.92283 2.76605e-17
4082.87118 2.79551e-17
4084.81952 2.72166e-17
4086.76786 2.71022e-17
4088.71620 2.73923e-17
4090.66455 2.74454e-17
4092.60284 2.70040e-17
4094.55119 2.68031e-17
4096.49953 2.68047e-17
4098.44787 2.64357e-17
4100.39621 2.59366e-17
4102.34455 2.58355e-17
4104.29290 2.58567e-17
4106.23120 2.50917e-17
4108.17954 2.52259e-17
4110.12788 2.52434e-17
4112.07622 2.53494e-17
4114.02456 2.53858e-17
4115.97291 2.50039e-17
4117.92125 2.51905e-17
4119.85955 2.57264e-17
4121.80789 2.56839e-17
4123.75623 2.54839e-17
4125.70457 2.55762e-17
4127.65291 2.58433e-17
4129.60126 2.61483e-17
4131.54960 2.62926e-17
4133.48790 2.63009e-17
4135.43624 2.65993e-17
4137.38458 2.70541e-17
4139.33292 2.69712e-17
4141.28126 2.70459e-17
4143.22961 2.69998e-17
4145.17795 2.68440e-17
4147.11625 2.71529e-17
4149.06459 2.68574e-17
4151.01293 2.65540e-17
4152.96127 2.65519e-17
4154.90962 2.70485e-17
4156.85796 2.67739e-17
4158.80630 2.64110e-17
4160.74460 2.64316e-17
4162.69294 2.68299e-17
4164.64128 2.67831e-17
4166.58962 2.67308e-17
4168.53797 2.63942e-17
4170.48631 2.62769e-17
4172.43465 2.58469e-17
4174.37295 2.58332e-17
4176.32129 2.59857e-17
4178.26963 2.53688e-17
4180.21798 2.51475e-17
4182.16632 2.52811e-17
4184.11466 2.49661e-17
4186.06300 2.50147e-17
4188.00130 2.48973e-17
4189.94964 2.48138e-17
4191.89798 2.44713e-17
4193.84633 2.41601e-17
4195.79467 2.39596e-17
4197.74301 2.43749e-17
4199.69135 2.43979e-17
4201.62965 2.40223e-17
4203.57799 2.42012e-17
4205.52634 2.38977e-17
4207.47468 2.40957e-17
4209.42302 2.40511e-17
4211.37136 2.40669e-17
4213.31970 2.39602e-17
4215.25800 2.37482e-17
4217.20634 2.39475e-17
4219.15469 2.37412e-17
4221.10303 2.37698e-17
4223.05137 2.38198e-17
4224.99971 2.37792e-17
4226.94805 2.35765e-17
4228.88635 2.35440e-17
4230.83470 2.38586e-17
4232.78304 2.40779e-17
4234.73138 2.40295e-17
4236.67972 2.37480e-17
4238.62806 2.37198e-17
4240.57641 2.38302e-17
4242.51471 2.38303e-17
4244.46305 2.41006e-17
4246.41139 2.39748e-17
4248.35973 2.43184e-17
4250.30807 2.40549e-17
4252.25641 2.36782e-17
4254.20476 2.35438e-17
4256.14306 2.37217e-17
4258.09140 2.39672e-17
4260.03974 2.36472e-17
4261.98808 2.36041e-17
4263.93642 2.39776e-17
4265.88477 2.37533e-17
4267.83311 2.32712e-17
4269.77141 2.33083e-17
4271.71975 2.31685e-17
4273.66809 2.27032e-17
4275.61643 2.26494e-17
4277.56477 2.25589e-17
4279.51312 2.23095e-17
4281.46146 2.19196e-17
4283.39976 2.21986e-17
4285.34810 2.19536e-17
4287.29644 2.17632e-17
4289.24478 2.13766e-17
4291.19313 2.11335e-17
4293.14147 2.13639e-17
4295.08981 2.12175e-17
4297.02811 2.09772e-17
4298.97645 2.05494e-17
4300.92479 2.00288e-17
4302.87313 1.99742e-17
4304.82148 1.95679e-17
4306.76982 1.91569e-17
4308.71816 1.91643e-17
4310.65646 1.94057e-17
4312.60480 1.91532e-17
4314.55314 1.90353e-17
4316.50149 1.91458e-17
4318.44983 1.92390e-17
4320.39817 1.96285e-17
4322.34651 2.00965e-17
4324.28481 1.99163e-17
4326.23315 2.01682e-17
4328.18149 2.05269e-17
4330.12984 2.04042e-17
4332.07818 2.02968e-17
4334.02652 2.06825e-17
4335.97486 2.09416e-17
4337.91316 2.11650e-17
4339.86150 2.13675e-17
4341.80985 2.15260e-17
4343.75819 2.13509e-17
4345.70653 2.11284e-17
4347.65487 2.17174e-17
4349.60321 2.22133e-17
4351.54151 2.23432e-17
4353.48985 2.23003e-17
4355.43820 2.23975e-17
4357.38654 2.24356e-17
4359.33488 2.23666e-17
4361.28322 2.25621e-17
4363.23157 2.23483e-17
4365.16986 2.23257e-17
4367.11821 2.23030e-17
4369.06655 2.22804e-17
4371.01489 2.22577e-17
4372.96323 2.22351e-17
4374.91157 2.22124e-17
4376.85992 2.21898e-17
4378.79821 2.21671e-17
4380.74656 2.21445e-17
4382.69490 2.21218e-17
4384.64324 2.20992e-17
4386.59158 2.20765e-17
4388.53993 2.20539e-17
4390.48827 2.20313e-17
4392.42657 2.20086e-17
4394.37491 2.19860e-17
4396.32325 2.19633e-17
4398.27159 2.19407e-17
4400.21993 2.19181e-17
4402.16828 2.14966e-17
4404.11662 2.13165e-17
4406.05492 2.15648e-17
4408.00326 2.18537e-17
4409.95160 2.16719e-17
4411.89994 2.17191e-17
4413.84829 2.16275e-17
4415.79663 2.12639e-17
4417.74497 2.15506e-17
4419.68327 2.19534e-17
4421.63161 2.16782e-17
4423.57995 2.19373e-17
4425.52829 2.21230e-17
4427.47664 2.21329e-17
4429.42498 2.19023e-17
4431.37332 2.21690e-17
4433.31162 2.22525e-17
4435.25996 2.23787e-17
4437.20830 2.24145e-17
4439.15664 2.27726e-17
4441.10499 2.24154e-17
4443.05333 2.24256e-17
4445.00167 2.24919e-17
4446.93997 2.24692e-17
4448.88831 2.22668e-17
4450.83665 2.23019e-17
4452.78500 2.25255e-17
4454.73334 2.25706e-17
4456.68168 2.23023e-17
4458.63002 2.24848e-17
4460.56832 2.21364e-17
4462.51666 2.23174e-17
4464.46501 2.27274e-17
4466.41335 2.25163e-17
4468.36169 2.23856e-17
4470.31003 2.24388e-17
4472.25837 2.21546e-17
4474.19667 2.19833e-17
4476.14501 2.20434e-17
4478.09336 2.19007e-17
4480.04170 2.20047e-17
4481.99004 2.17608e-17
4483.93838 2.18023e-17
4485.88672 2.14612e-17
4487.82502 2.15627e-17
4489.77337 2.17362e-17
4491.72171 2.17459e-17
4493.67005 2.18105e-17
4495.61839 2.14776e-17
4497.56673 2.13346e-17
4499.51508 2.15439e-17
4501.46342 2.14989e-17
4503.40172 2.14440e-17
4505.35006 2.19440e-17
4507.29840 2.16217e-17
4509.24674 2.12812e-17
4511.19508 2.15591e-17
4513.14343 2.15581e-17
4515.08173 2.15404e-17
4517.03007 2.14571e-17
4518.97841 2.16064e-17
4520.92675 2.18232e-17
4522.87509 2.14864e-17
4524.82343 2.14489e-17
4526.77178 2.16631e-17
4528.72012 2.15215e-17
4530.65842 2.17241e-17
4532.60676 2.16680e-17
4534.55510 2.16402e-17
4536.50344 2.18622e-17
4538.45179 2.14299e-17
4540.40013 2.14478e-17
4542.34847 2.13100e-17
4544.28677 2.12051e-17
4546.23511 2.15034e-17
4548.18345 2.15071e-17
4550.13179 2.11427e-17
4552.08014 2.12759e-17
4554.02848 2.08910e-17
4555.96678 2.09055e-17
4557.91512 2.10616e-17
4559.86346 2.12106e-17
4561.81180 2.10559e-17
4563.76015 2.09742e-17
4565.70849 2.10176e-17
4567.65683 2.06700e-17
4569.60517 2.07031e-17
4571.54347 2.06581e-17
4573.49181 2.07248e-17
4575.44016 2.08293e-17
4577.38850 2.08734e-17
4579.33684 2.06123e-17
4581.28518 2.04228e-17
4583.22348 2.10112e-17
4585.17182 2.09396e-17
4587.12016 2.08477e-17
4589.06851 2.07411e-17
4591.01685 2.09335e-17
4592.96519 2.07875e-17
4594.91353 2.07388e-17
4596.85183 2.10337e-17
4598.80017 2.09782e-17
4600.74852 2.07196e-17
4602.69686 2.06430e-17
4604.64520 2.06458e-17
4606.59354 2.05903e-17
4608.54188 2.07821e-17
4610.49022 2.06293e-17
4612.42852 2.04469e-17
4614.37687 2.04849e-17
4616.32521 2.01499e-17
4618.27355 2.02821e-17
4620.22189 2.01094e-17
4622.17023 1.97469e-17
4624.11858 1.99822e-17
4626.05688 1.96529e-17
4628.00522 1.93501e-17
4629.95356 1.95112e-17
4631.90190 1.93613e-17
4633.85024 1.90713e-17
4635.79858 1.90712e-17
4637.74693 1.87902e-17
4639.68523 1.85560e-17
4641.63357 1.86248e-17
4643.58191 1.87127e-17
4645.53025 1.85747e-17
4647.47859 1.83014e-17
4649.42694 1.82288e-17
4651.37528 1.83255e-17
4653.31358 1.81279e-17
4655.26192 1.82005e-17
4657.21026 1.83025e-17
4659.15860 1.81381e-17
4661.10694 1.85290e-17
4663.05529 1.84055e-17
4665.00363 1.84829e-17
4666.94193 1.83653e-17
4668.89027 1.83270e-17
4670.83861 1.82565e-17
4672.78695 1.81291e-17
4674.73530 1.82481e-17
4676.68364 1.83251e-17
4678.63198 1.82168e-17
4680.57028 1.82804e-17
4682.51862 1.83152e-17
4684.46696 1.84421e-17
4686.41531 1.83955e-17
4688.36365 1.80853e-17
4690.31199 1.76623e-17
4692.26033 1.74417e-17
4694.19863 1.76056e-17
4696.14697 1.74194e-17
4698.09531 1.72641e-17
4700.04366 1.70861e-17
4701.99200 1.68275e-17
4703.94034 1.69174e-17
4705.88868 1.68745e-17
4707.82698 1.69157e-17
4709.77532 1.68038e-17
4711.72367 1.66296e-17
4713.67201 1.65392e-17
4715.62035 1.64499e-17
4717.56869 1.63755e-17
4719.51703 1.62949e-17
4721.45533 1.62311e-17
4723.40367 1.62519e-17
4725.35202 1.59658e-17
4727.30036 1.59150e-17
4729.24870 1.58466e-17
4731.19704 1.57280e-17
4733.14538 1.57162e-17
4735.08368 1.57404e-17
4737.03202 1.57842e-17
4738.98037 1.60206e-17
4740.92871 1.57868e-17
4742.87705 1.61033e-17
4744.82539 1.58333e-17
4746.77373 1.59711e-17
4748.71203 1.57757e-17
4750.66038 1.59504e-17
4752.60872 1.62217e-17
4754.55706 1.62761e-17
4756.50540 1.59847e-17
4758.45374 1.60030e-17
4760.40209 1.60718e-17
4762.34038 1.63653e-17
4764.28873 1.61106e-17
4766.23707 1.61702e-17
4768.18541 1.63528e-17
4770.13375 1.66079e-17
4772.08209 1.63862e-17
4774.03044 1.63761e-17
4775.96874 1.64120e-17
4777.91708 1.64166e-17
4779.86542 1.61684e-17
4781.81376 1.63023e-17
4783.76210 1.63121e-17
4785.71045 1.59708e-17
4787.65879 1.59050e-17
4789.59709 1.59483e-17
4791.54543 1.56744e-17
4793.49377 1.57603e-17
4795.44211 1.58410e-17
4797.39046 1.55686e-17
4799.33880 1.53455e-17
4801.28714 1.54448e-17
4803.22544 1.53452e-17
4805.17378 1.53577e-17
4807.12212 1.54266e-17
4809.07046 1.54343e-17
4811.01881 1.51807e-17
4812.96715 1.52622e-17
4814.91549 1.52723e-17
4816.85379 1.50825e-17
4818.80213 1.51285e-17
4820.75047 1.49333e-17
4822.69881 1.47903e-17
4824.64716 1.50041e-17
4826.59550 1.51405e-17
4828.54384 1.50170e-17
4830.48214 1.48083e-17
4832.43048 1.47328e-17
4834.37882 1.47173e-17
4836.32717 1.50522e-17
4838.27551 1.47045e-17
4840.22385 1.47162e-17
4842.17219 1.48449e-17
4844.11049 1.46542e-17
4846.05883 1.48171e-17
4848.00717 1.48565e-17
4849.95552 1.47808e-17
4851.90386 1.49735e-17
4853.85220 1.49140e-17
4855.80054 1.48771e-17
4857.73884 1.48804e-17
4859.68718 1.47210e-17
4861.63553 1.47525e-17
4863.58387 1.48793e-17
4865.53221 1.49270e-17
4867.48055 1.49747e-17
4869.42889 1.50224e-17
4871.36719 1.50700e-17
4873.31553 1.51177e-17
4875.26388 1.51654e-17
4877.21222 1.52130e-17
4879.16056 1.52607e-17
4881.10890 1.53083e-17
4883.05724 1.53560e-17
4884.99554 1.54036e-17
4886.94389 1.54513e-17
4888.89223 1.54989e-17
4890.84057 1.55466e-17
4892.78891 1.55942e-17
4894.73725 1.56418e-17
4896.68560 1.56894e-17
4898.62389 1.57371e-17
4900.57224 1.57847e-17
4902.52058 1.56367e-17
4904.46892 1.58108e-17
4906.41726 1.59226e-17
4908.36560 1.56851e-17
4910.31395 1.57118e-17
4912.25225 1.58345e-17
4914.20059 1.57316e-17
4916.14893 1.55406e-17
4918.09727 1.54998e-17
4920.04561 1.55224e-17
4921.99396 1.54146e-17
4923.94230 1.52838e-17
4925.88060 1.52534e-17
4927.82894 1.50312e-17
4929.77728 1.47261e-17
4931.72562 1.47513e-17
4933.67396 1.45785e-17
4935.62231 1.43703e-17
4937.57065 1.42707e-17
4939.50895 1.40680e-17
4941.45729 1.39957e-17
4943.40563 1.38512e-17
4945.35397 1.37280e-17
4947.30232 1.36667e-17
4949.25066 1.37337e-17
4951.19900 1.37481e-17
4953.13730 1.35564e-17
4955.08564 1.34600e-17
4957.03398 1.36034e-17
4958.98232 1.34335e-17
4960.93067 1.34287e-17
4962.87901 1.35182e-17
4964.82735 1.36078e-17
4966.76565 1.36973e-17
4968.71399 1.37868e-17
4970.66233 1.38763e-17
4972.61068 1.39658e-17
4974.55902 1.40553e-17
4976.50736 1.41448e-17
4978.45570 1.42342e-17
4980.39400 1.43237e-17
4982.34234 1.44132e-17
4984.29068 1.45026e-17
4986.23903 1.45921e-17
4988.18737 1.46815e-17
4990.13571 1.47709e-17
4992.08405 1.48604e-17
4994.02235 1.49498e-17
4995.97069 1.50392e-17
4997.91904 1.51286e-17
4999.86738 1.52180e-17
5001.81572 1.53117e-17
5003.76406 1.52794e-17
5005.71240 1.54714e-17
5007.65070 1.54579e-17
5009.59904 1.54644e-17
5011.54739 1.54808e-17
5013.49573 1.54971e-17
5015.44407 1.55134e-17
5017.39241 1.55297e-17
5019.34076 1.55460e-17
5021.27905 1.55623e-17
5023.22740 1.55787e-17
5025.17574 1.55950e-17
5027.12408 1.56113e-17
5029.07242 1.56276e-17
5031.02076 1.56439e-17
5032.96911 1.56602e-17
5034.90740 1.56765e-17
5036.85575 1.56928e-17
5038.80409 1.57091e-17
5040.75243 1.57254e-17
5042.70077 1.57417e-17
5044.64912 1.57580e-17
5046.59746 1.57743e-17
5048.53576 1.61025e-17
5050.48410 1.59657e-17
5052.43244 1.60615e-17
5054.38078 1.59212e-17
5056.32912 1.60809e-17
5058.27747 1.61183e-17
5060.22581 1.59595e-17
5062.17415 1.59941e-17
5064.11245 1.60686e-17
5066.06079 1.63072e-17
5068.00913 1.62213e-17
5069.95748 1.63143e-17
5071.90582 1.62098e-17
5073.85416 1.60715e-17
5075.79246 1.60464e-17
5077.74080 1.61037e-17
5079.68914 1.62506e-17
5081.63748 1.60800e-17
5083.58583 1.60820e-17
5085.53417 1.63644e-17
5087.48251 1.63028e-17
5089.42081 1.63512e-17
5091.36915 1.63837e-17
5093.31749 1.61197e-17
5095.26583 1.63734e-17
5097.21418 1.63326e-17
5099.16252 1.63613e-17
5101.11086 1.63588e-17
5103.05920 1.61346e-17
5104.99750 1.61051e-17
5106.94584 1.61413e-17
5108.89419 1.62601e-17
5110.84253 1.60430e-17
5112.79087 1.58870e-17
5114.73921 1.60389e-17
5116.67751 1.62932e-17
5118.62585 1.61537e-17
5120.57419 1.58639e-17
5122.52254 1.57459e-17
5124.47088 1.59052e-17
5126.41922 1.59431e-17
5128.36756 1.56959e-17
5130.30586 1.56422e-17
5132.25420 1.60242e-17
5134.20255 1.60061e-17
5136.15089 1.56577e-17
5138.09923 1.57811e-17
5140.04757 1.59634e-17
5141.99591 1.58853e-17
5143.94426 1.58451e-17
5145.88256 1.58037e-17
5147.83090 1.60306e-17
5149.77924 1.56610e-17
5151.72758 1.58847e-17
5153.67592 1.59237e-17
5155.62427 1.59743e-17
5157.57261 1.57385e-17
5159.51091 1.57309e-17
5161.45925 1.58926e-17
5163.40759 1.57338e-17
5165.35593 1.57596e-17
5167.30427 1.59020e-17
5169.25262 1.60240e-17
5171.20096 1.59542e-17
5173.13926 1.56772e-17
5175.08760 1.61271e-17
5177.03594 1.61677e-17
5178.98428 1.59859e-17
5180.93262 1.59304e-17
5182.88097 1.59682e-17
5184.82931 1.60392e-17
5186.76761 1.57614e-17
5188.71595 1.57748e-17
5190.66429 1.58614e-17
5192.61263 1.58665e-17
5194.56098 1.57292e-17
5196.50932 1.58374e-17
5198.45766 1.59935e-17
5200.39596 1.57398e-17
5202.34430 1.56936e-17
5204.29264 1.57628e-17
5206.24098 1.59005e-17
5208.18933 1.58371e-17
5210.13767 1.56821e-17
5212.08601 1.53451e-17
5214.02431 1.53929e-17
5215.97265 1.54925e-17
5217.92099 1.54197e-17
5219.86934 1.51655e-17
5221.81768 1.51348e-17
5223.76602 1.51116e-17
5225.71436 1.49415e-17
5227.65266 1.49241e-17
5229.60100 1.50171e-17
5231.54934 1.47776e-17
5233.49769 1.47343e-17
5235.44603 1.48403e-17
5237.39437 1.45131e-17
5239.34271 1.43762e-17
5241.28101 1.45386e-17
5243.22935 1.46662e-17
5245.17770 1.45692e-17
5247.12604 1.43180e-17
5249.07438 1.44029e-17
5251.02272 1.44152e-17
5252.97106 1.41549e-17
5254.90936 1.40863e-17
5256.85771 1.41608e-17
5258.80605 1.41081e-17
5260.75439 1.42524e-17
5262.70273 1.42641e-17
5264.65107 1.41651e-17
5266.59941 1.41974e-17
5268.53771 1.43673e-17
5270.48606 1.42951e-17
5272.43440 1.42114e-17
5274.38274 1.42570e-17
5276.33108 1.43404e-17
5278.27942 1.44476e-17
5280.22777 1.42156e-17
5282.16607 1.41081e-17
5284.11441 1.43894e-17
5286.06275 1.42718e-17
5288.01109 1.43404e-17
5289.95943 1.45413e-17
5291.90777 1.43292e-17
5293.85612 1.42609e-17
5295.79442 1.44144e-17
5297.74276 1.44030e-17
5299.69110 1.42795e-17
5301.63944 1.42315e-17
5303.58778 1.43241e-17
5305.53613 1.44148e-17
5307.48447 1.43419e-17
5309.42277 1.42213e-17
5311.37111 1.42125e-17
5313.31945 1.42761e-17
5315.26779 1.43182e-17
5317.21613 1.43666e-17
5319.16448 1.42394e-17
5321.11282 1.43386e-17
5323.05112 1.44162e-17
5324.99946 1.43671e-17
5326.94780 1.42677e-17
5328.89614 1.41287e-17
5330.84449 1.41754e-17
5332.79283 1.42391e-17
5334.74117 1.43706e-17
5336.67947 1.43008e-17
5338.62781 1.43625e-17
5340.57615 1.43609e-17
5342.52449 1.40851e-17
5344.47284 1.41301e-17
5346.42118 1.39898e-17
5348.36952 1.41236e-17
5350.30782 1.39748e-17
5352.25616 1.38919e-17
5354.20450 1.42324e-17
5356.15285 1.39976e-17
5358.10119 1.37205e-17
5360.04953 1.41356e-17
5361.99787 1.41281e-17
5363.93617 1.39366e-17
5365.88451 1.40261e-17
5367.83286 1.39928e-17
5369.78120 1.37855e-17
5371.72954 1.35473e-17
5373.67788 1.38632e-17
5375.62622 1.37941e-17
5377.56452 1.37825e-17
5379.51286 1.36990e-17
5381.46121 1.37342e-17
5383.40955 1.38318e-17
5385.35789 1.37741e-17
5387.30623 1.35231e-17
5389.25457 1.35913e-17
5391.19287 1.36932e-17
5393.14121 1.36349e-17
5395.08956 1.35074e-17
5397.03790 1.36209e-17
5398.98624 1.33959e-17
5400.93458 1.33293e-17
5402.88292 1.34478e-17
5404.82122 1.33243e-17
5406.76957 1.32556e-17
5408.71791 1.32132e-17
5410.66625 1.30114e-17
5412.61459 1.27893e-17
5414.56293 1.29661e-17
5416.51128 1.31308e-17
5418.44957 1.29634e-17
5420.39792 1.30478e-17
5422.34626 1.28763e-17
5424.29460 1.27699e-17
5426.24294 1.25731e-17
5428.19128 1.24134e-17
5430.13963 1.24532e-17
5432.07793 1.23844e-17
5434.02627 1.23711e-17
5435.97461 1.23068e-17
5437.92295 1.22408e-17
5439.87129 1.21965e-17
5441.81964 1.22201e-17
5443.76798 1.20984e-17
5445.70628 1.19260e-17
5447.65462 1.20068e-17
5449.60296 1.21791e-17
5451.55130 1.20536e-17
5453.49964 1.19580e-17
5455.44799 1.20617e-17
5457.39633 1.20871e-17
5459.33463 1.19867e-17
5461.28297 1.20791e-17
5463.23131 1.21655e-17
5465.17965 1.22141e-17
5467.12800 1.22429e-17
5469.07634 1.21884e-17
5471.02468 1.22537e-17
5472.96298 1.23633e-17
5474.91132 1.24842e-17
5476.85966 1.22627e-17
5478.80800 1.23045e-17
5480.75635 1.23253e-17
5482.70469 1.24216e-17
5484.65303 1.22787e-17
5486.59133 1.23807e-17
5488.53967 1.25429e-17
5490.48801 1.22626e-17
5492.43636 1.20926e-17
5494.38470 1.24710e-17
5496.33304 1.24411e-17
5498.28138 1.24420e-17
5500.21968 1.23787e-17
5502.16802 1.23002e-17
5504.11636 1.22679e-17
5506.06471 1.22693e-17
5508.01305 1.26171e-17
5509.96139 1.21499e-17
5511.90973 1.21144e-17
5513.84803 1.21524e-17
5515.79637 1.21820e-17
5517.74472 1.21903e-17
5519.69306 1.22956e-17
5521.64140 1.23007e-17
5523.58974 1.22534e-17
5525.53808 1.21782e-17
5527.47638 1.23133e-17
5529.42472 1.20468e-17
5531.37307 1.20060e-17
5533.32141 1.19713e-17
5535.26975 1.19796e-17
5537.21809 1.18656e-17
5539.16644 1.19487e-17
5541.10473 1.19097e-17
5543.05308 1.19759e-17
5545.00142 1.19432e-17
5546.94976 1.19800e-17
5548.89810 1.18756e-17
5550.84644 1.18352e-17
5552.79479 1.19365e-17
5554.73308 1.18331e-17
5556.68143 1.21344e-17
5558.62977 1.20963e-17
5560.57811 1.19547e-17
5562.52645 1.18853e-17
5564.47479 1.20173e-17
5566.42314 1.20183e-17
5568.36144 1.19962e-17
5570.30978 1.21803e-17
5572.25812 1.21246e-17
5574.20646 1.18565e-17
5576.15480 1.18991e-17
5578.10315 1.19278e-17
5580.05149 1.18298e-17
5581.98979 1.18233e-17
5583.93813 1.20587e-17
5585.88647 1.18788e-17
5587.83481 1.17600e-17
5589.78316 1.18114e-17
5591.73150 1.18760e-17
5593.67984 1.18579e-17
5595.62818 1.17419e-17
5597.56648 1.16705e-17
5599.51482 1.16978e-17
5601.46316 1.15560e-17
5603.41151 1.14092e-17
5605.35985 1.15533e-17
5607.30819 1.14337e-17
5609.24649 1.13934e-17
5611.19483 1.14965e-17
5613.14317 1.13882e-17
5615.09152 1.12504e-17
5617.03986 1.14079e-17
5618.98820 1.13057e-17
5620.93654 1.10526e-17
5622.87484 1.11587e-17
5624.82318 1.12501e-17
5626.77152 1.10930e-17
5628.71987 1.08427e-17
5630.66821 1.10187e-17
5632.61655 1.09530e-17
5634.56489 1.07916e-17
5636.51323 1.07902e-17
5638.45153 1.09507e-17
5640.39988 1.08337e-17
5642.34822 1.08599e-17
5644.29656 1.08020e-17
5646.24490 1.05566e-17
5648.19324 1.04420e-17
5650.13154 1.03937e-17
5652.07988 1.04916e-17
5654.02823 1.04438e-17
5655.97657 1.05745e-17
5657.92491 1.06633e-17
5659.87325 1.05296e-17
5661.82159 1.05863e-17
5663.75989 1.06939e-17
5665.70824 1.06360e-17
5667.65658 1.07160e-17
5669.60492 1.06636e-17
5671.55326 1.06801e-17
5673.50160 1.07837e-17
5675.44994 1.09425e-17
5677.38824 1.10554e-17
5679.33659 1.10512e-17
5681.28493 1.10017e-17
5683.23327 1.13048e-17
5685.18161 1.13619e-17
5687.12995 1.11972e-17
5689.07830 1.14913e-17
5691.02664 1.15827e-17
5692.96494 1.15953e-17
5694.91328 1.17906e-17
5696.86162 1.18751e-17
5698.80996 1.18389e-17
5700.75831 1.18861e-17
5702.70665 1.20415e-17
5704.65499 1.21331e-17
5706.59329 1.22007e-17
5708.54163 1.22651e-17
5710.48997 1.24116e-17
5712.43831 1.24699e-17
5714.38666 1.23586e-17
5716.33500 1.21894e-17
5718.28334 1.22434e-17
5720.22164 1.22883e-17
5722.16998 1.24354e-17
5724.11832 1.23428e-17
5726.06667 1.21666e-17
5728.01501 1.22197e-17
5729.96335 1.22726e-17
5731.91169 1.23060e-17
5733.84999 1.24212e-17
5735.79833 1.23600e-17
5737.74667 1.22423e-17
5739.69502 1.23365e-17
5741.64336 1.24476e-17
5743.59170 1.22925e-17
5745.54004 1.21576e-17
5747.47834 1.24438e-17
5749.42668 1.21171e-17
5751.37503 1.21945e-17
5753.32337 1.22643e-17
5755.27171 1.21094e-17
5757.22005 1.21894e-17
5759.16839 1.22374e-17
5761.10669 1.20525e-17
5763.05503 1.22998e-17
5765.00338 1.23932e-17
5766.95172 1.21089e-17
5768.90006 1.21211e-17
5770.84840 1.21782e-17
5772.79674 1.21021e-17
5774.73504 1.20479e-17
5776.68338 1.20518e-17
5778.63173 1.19504e-17
5780.58007 1.20828e-17
5782.52841 1.20089e-17
5784.47675 1.19248e-17
5786.42509 1.19227e-17
5788.36339 1.18428e-17
5790.31174 1.18221e-17
5792.26008 1.18953e-17
5794.20842 1.18322e-17
5796.15676 1.19739e-17
5798.10510 1.19663e-17
5800.05345 1.19430e-17
5801.99174 1.17556e-17
5803.94009 1.15315e-17
5805.88843 1.15537e-17
5807.83677 1.17569e-17
5809.78511 1.19980e-17
5811.73346 1.18297e-17
5813.68180 1.17730e-17
5815.62010 1.17710e-17
5817.56844 1.17084e-17
5819.51678 1.17998e-17
5821.46512 1.17899e-17
5823.41346 1.17212e-17
5825.36181 1.16850e-17
5827.31015 1.15836e-17
5829.24845 1.15061e-17
5831.19679 1.15635e-17
5833.14513 1.15549e-17
5835.09347 1.16571e-17
5837.04181 1.17012e-17
5838.99016 1.14593e-17
5840.93850 1.14520e-17
5842.87680 1.16727e-17
5844.82514 1.15114e-17
5846.77348 1.13925e-17
5848.72182 1.14050e-17
5850.67017 1.15098e-17
5852.61851 1.14010e-17
5854.56685 1.13485e-17
5856.50515 1.12452e-17
5858.45349 1.11484e-17
5860.40183 1.12458e-17
5862.35017 1.11140e-17
5864.29852 1.10033e-17
5866.24686 1.10402e-17
5868.19520 1.08065e-17
5870.13350 1.10291e-17
5872.08184 1.10781e-17
5874.03018 1.10052e-17
5875.97853 1.07703e-17
5877.92687 1.10325e-17
5879.87521 1.08062e-17
5881.82355 1.07145e-17
5883.76185 1.07336e-17
5885.71019 1.05786e-17
5887.65853 1.04691e-17
5889.60688 1.03936e-17
5891.55522 1.04550e-17
5893.50356 1.02574e-17
5895.45190 1.02970e-17
5897.39020 1.04558e-17
5899.33854 1.06243e-17
5901.28689 1.04392e-17
5903.23523 1.05829e-17
5905.18357 1.06227e-17
5907.13191 1.05185e-17
5909.08025 1.05855e-17
5911.01855 1.04891e-17
5912.96689 1.02267e-17
5914.91524 1.01304e-17
5916.86358 1.00450e-17
5918.81192 1.00552e-17
5920.76026 1.02063e-17
5922.70860 1.03882e-17
5924.64690 1.03957e-17
5926.59525 1.04958e-17
5928.54359 1.04885e-17
5930.49193 1.04876e-17
5932.44027 1.05531e-17
5934.38861 1.04569e-17
5936.33696 1.06844e-17
5938.27526 1.07016e-17
5940.22360 1.05661e-17
5942.17194 1.04456e-17
5944.12028 1.05580e-17
5946.06862 1.06396e-17
5948.01696 1.06132e-17
5949.96531 1.07430e-17
5951.90361 1.07815e-17
5953.85195 1.06961e-17
5955.80029 1.08267e-17
5957.74863 1.08567e-17
5959.69697 1.06939e-17
5961.64532 1.08929e-17
5963.59366 1.09279e-17
5965.53196 1.07490e-17
5967.48030 1.06965e-17
5969.42864 1.08406e-17
5971.37698 1.08487e-17
5973.32532 1.06547e-17
5975.27367 1.05804e-17
5977.22201 1.08220e-17
5979.16031 1.07659e-17
5981.10865 1.08381e-17
5983.05699 1.10141e-17
5985.00533 1.09779e-17
5986.95368 1.08374e-17
5988.90202 1.08265e-17
5990.85036 1.07382e-17
5992.78866 1.07407e-17
5994.73700 1.10141e-17
5996.68534 1.09533e-17
5998.63368 1.07767e-17
6000.58203 1.07723e-17
6002.53037 1.07955e-17
6004.47871 1.07410e-17
6006.41701 1.06597e-17
6008.36535 1.08050e-17
6010.31369 1.08367e-17
6012.26204 1.07906e-17
6014.21038 1.08072e-17
6016.15872 1.08858e-17
6018.10706 1.08530e-17
6020.04536 1.06002e-17
6021.99370 1.05056e-17
6023.94204 1.05194e-17
6025.89039 1.04365e-17
6027.83873 1.03299e-17
6029.78707 1.05124e-17
6031.73541 1.07478e-17
6033.67371 1.05630e-17
6035.62205 1.06045e-17
6037.57040 1.06112e-17
6039.51874 1.04670e-17
6041.46708 1.04939e-17
6043.41542 1.05531e-17
6045.36376 1.04881e-17
6047.30206 1.02977e-17
6049.25040 1.03496e-17
6051.19875 1.02901e-17
6053.14709 1.02801e-17
6055.09543 1.02033e-17
6057.04377 1.02023e-17
6058.99212 1.02272e-17
6060.93041 1.00086e-17
6062.87876 9.94186e-18
6064.82710 1.00399e-17
6066.77544 9.87281e-18
6068.72378 9.76786e-18
6070.67212 9.65043e-18
6072.62047 9.45598e-18
6074.55876 9.68820e-18
6076.50711 9.63373e-18
6078.45545 9.47713e-18
6080.40379 9.51717e-18
6082.35213 9.44827e-18
6084.30048 9.36993e-18
6086.24882 9.20447e-18
6088.18712 9.20213e-18
6090.13546 9.21043e-18
6092.08380 9.09509e-18
6094.03214 8.90869e-18
6095.98048 8.85391e-18
6097.92883 8.83645e-18
6099.87717 8.69332e-18
6101.81547 8.68469e-18
6103.76381 8.60838e-18
6105.71215 8.53658e-18
6107.66049 8.48051e-18
6109.60883 8.55347e-18
6111.55718 8.59267e-18
6113.50552 8.51927e-18
6115.44382 8.52882e-18
6117.39216 8.43447e-18
6119.34050 8.35429e-18
6121.28884 8.35567e-18
6123.23719 8.40591e-18
6125.18553 8.25242e-18
6127.13387 8.43507e-18
6129.07217 8.50907e-18
6131.02051 8.51644e-18
6132.96885 8.38022e-18
6134.91719 8.36092e-18
6136.86554 8.44991e-18
6138.81388 8.66695e-18
6140.76222 8.77484e-18
6142.70052 8.78922e-18
6144.64886 8.82922e-18
6146.59720 8.86315e-18
6148.54555 8.89924e-18
6150.49389 8.91998e-18
6152.44223 8.92284e-18
6154.39057 8.92760e-18
6156.32887 9.06211e-18
6158.27721 8.99643e-18
6160.22555 8.96750e-18
6162.17390 9.13190e-18
6164.12224 9.10259e-18
6166.07058 9.34291e-18
6168.01892 9.35668e-18
6169.95722 9.34946e-18
6171.90556 9.42614e-18
6173.85391 9.48053e-18
6175.80225 9.45753e-18
6177.75059 9.58498e-18
6179.69893 9.63677e-18
6181.64727 9.62587e-18
6183.58557 9.73898e-18
6185.53391 9.72225e-18
6187.48226 9.71017e-18
6189.43060 9.78414e-18
6191.37894 9.91264e-18
6193.32728 9.95223e-18
6195.27563 1.01776e-17
6197.21392 1.00777e-17
6199.16227 9.93488e-18
6201.11061 1.00311e-17
6203.05895 1.00199e-17
6205.00729 9.95755e-18
6206.95563 1.00580e-17
6208.90398 1.01837e-17
6210.84227 1.02290e-17
6212.79062 1.01544e-17
6214.73896 1.00491e-17
6216.68730 1.00796e-17
6218.63564 1.03311e-17
6220.58398 1.03515e-17
6222.53233 1.00732e-17
6224.47063 1.01443e-17
6226.41897 1.01751e-17
6228.36731 1.01064e-17
6230.31565 1.02141e-17
6232.26399 1.00917e-17
6234.21234 1.02749e-17
6236.16068 1.03185e-17
6238.10902 1.03005e-17
6240.04732 1.01846e-17
6241.99566 1.03284e-17
6243.94400 1.03739e-17
6245.89234 1.03791e-17
6247.84069 1.02226e-17
6249.78903 1.01376e-17
6251.73737 1.02904e-17
6253.67567 1.03528e-17
6255.62401 1.02582e-17
6257.57235 1.01397e-17
6259.52070 1.01216e-17
6261.46904 9.90603e-18
6263.41738 1.00082e-17
6265.36572 9.96555e-18
6267.30402 9.98702e-18
6269.25236 1.00329e-17
6271.20071 9.82968e-18
6273.14905 9.51829e-18
6275.09739 9.28519e-18
6277.04573 9.07077e-18
6278.98403 8.92306e-18
6280.93237 8.81385e-18
6282.88071 8.81923e-18
6284.82906 8.85414e-18
6286.77740 8.79695e-18
6288.72574 8.63835e-18
6290.67408 8.38286e-18
6292.62242 8.18673e-18
6294.56072 8.06777e-18
6296.50907 7.81818e-18
6298.45741 7.70923e-18
6300.40575 7.88119e-18
6302.35409 7.68420e-18
6304.30243 7.45991e-18
6306.25077 7.40293e-18
6308.18907 7.15555e-18
6310.13742 7.12953e-18
6312.08576 6.98028e-18
6314.03410 6.85998e-18
6315.98244 7.02190e-18
6317.93078 7.08060e-18
6319.86908 6.91528e-18
6321.81743 6.90951e-18
6323.76577 6.90905e-18
6325.71411 6.92294e-18
6327.66245 7.02676e-18
6329.61079 7.14167e-18
6331.55913 7.06918e-18
6333.50748 7.29828e-18
6335.44578 7.29478e-18
6337.39412 7.39676e-18
6339.34246 7.44310e-18
6341.29080 7.38986e-18
6343.23914 7.70222e-18
6345.18749 7.83559e-18
6347.13583 7.82886e-18
6349.07413 8.07320e-18
6351.02247 8.24674e-18
6352.97081 8.19599e-18
6354.91915 8.39624e-18
6356.86749 8.57294e-18
6358.81584 8.56867e-18
6360.76418 8.63255e-18
6362.70248 8.88951e-18
6364.65082 8.90849e-18
6366.59916 8.89026e-18
6368.54750 9.19373e-18
6370.49585 9.13089e-18
6372.44419 9.27560e-18
6374.39253 9.38531e-18
6376.33083 9.54729e-18
6378.27917 9.50629e-18
6380.22751 9.41808e-18
6382.17586 9.33374e-18
6384.12420 9.51374e-18
6386.07254 9.79327e-18
6388.02088 9.68306e-18
6389.95918 9.74419e-18
6391.90752 9.65230e-18
6393.85586 9.58661e-18
6395.80421 9.81180e-18
6397.75255 9.73740e-18
6399.70089 9.70563e-18
6401.64923 9.76373e-18
6403.58753 9.85057e-18
6405.53587 9.73413e-18
6407.48422 9.86391e-18
6409.43256 1.00460e-17
6411.38090 9.94108e-18
6413.32924 9.96444e-18
6415.27758 9.75179e-18
6417.21588 9.72280e-18
6419.16422 9.60301e-18
6421.11257 9.60074e-18
6423.06091 9.66034e-18
6425.00925 9.57371e-18
6426.95759 9.58367e-18
6428.90593 9.59436e-18
6430.84423 9.57745e-18
6432.79257 9.66928e-18
6434.74092 9.75132e-18
6436.68926 9.63734e-18
6438.63760 9.67638e-18
6440.58594 9.74298e-18
6442.53428 9.56706e-18
6444.47258 9.52357e-18
6446.42093 9.61239e-18
6448.36927 9.54634e-18
6450.31761 9.57546e-18
6452.26595 9.57104e-18
6454.21429 9.44028e-18
6456.16264 9.61381e-18
6458.10093 9.57234e-18
6460.04928 9.70621e-18
6461.99762 9.70182e-18
6463.94596 9.77451e-18
6465.89430 9.73608e-18
6467.84264 9.58546e-18
6469.79099 9.60892e-18
6471.72929 9.83970e-18
6473.67763 9.68548e-18
6475.62597 9.78032e-18
6477.57431 9.62834e-18
6479.52265 9.69976e-18
6481.47100 9.89500e-18
6483.41934 9.95728e-18
6485.35764 9.92545e-18
6487.30598 9.83048e-18
6489.25432 9.66798e-18
6491.20266 9.74209e-18
6493.15101 9.94895e-18
6495.09935 9.58593e-18
6497.04769 9.78243e-18
6498.98599 1.00925e-17
6500.93433 9.73385e-18
6502.88267 9.80196e-18
6504.83101 9.77234e-18
6506.77936 9.72133e-18
6508.72770 9.68344e-18
6510.67604 9.60941e-18
6512.61434 9.56393e-18
6514.56268 9.44116e-18
6516.51102 9.65536e-18
6518.45936 9.57387e-18
6520.40771 9.34490e-18
6522.35605 9.53310e-18
6524.30439 9.56303e-18
6526.24269 9.33610e-18
6528.19103 9.36492e-18
6530.13937 9.25115e-18
6532.08772 9.28538e-18
6534.03606 9.34987e-18
6535.98440 9.23365e-18
6537.93274 9.21646e-18
6539.87104 9.03982e-18
6541.81938 9.16148e-18
6543.76772 8.95792e-18
6545.71607 8.98993e-18
6547.66441 9.00687e-18
6549.61275 8.95698e-18
6551.56109 8.93549e-18
6553.49939 8.85246e-18
6555.44773 8.75245e-18
6557.39608 8.83124e-18
6559.34442 8.84779e-18
6561.29276 8.84178e-18
6563.24110 8.83578e-18
6565.18944 8.82977e-18
6567.12774 8.82377e-18
6569.07608 8.81776e-18
6571.02443 8.81176e-18
6572.97277 8.80575e-18
6574.92111 8.79975e-18
6576.86945 8.79374e-18
6578.81779 8.78774e-18
6580.75609 8.78174e-18
6582.70444 8.77573e-18
6584.65278 8.76973e-18
6586.60112 8.76373e-18
6588.54946 8.75772e-18
6590.49780 8.75172e-18
6592.44615 8.74572e-18
6594.38444 8.73972e-18
6596.33279 8.73371e-18
6598.28113 8.72771e-18
6600.22947 8.72171e-18
6602.17781 8.71571e-18
6604.12615 8.70971e-18
6606.07450 8.70371e-18
6608.01280 8.69771e-18
6609.96114 8.69171e-18
6611.90948 8.68571e-18
6613.85782 8.67971e-18
6615.80616 8.67371e-18
6617.75451 8.66771e-18
6619.70285 8.66171e-18
6621.64115 8.65571e-18
6623.58949 8.57788e-18
6625.53783 8.46189e-18
6627.48617 8.66164e-18
6629.43451 8.66567e-18
6631.38286 8.56519e-18
6633.33120 8.42591e-18
6635.26950 8.61453e-18
6637.21784 8.44868e-18
6639.16618 8.42698e-18
6641.11452 8.31267e-18
6643.06287 8.24099e-18
6645.01121 8.40877e-18
6646.95955 8.22053e-18
6648.90789 8.23045e-18
6650.84619 8.46095e-18
6652.79453 8.46297e-18
6654.74287 8.41850e-18
6656.69122 8.36882e-18
6658.63956 8.16382e-18
6660.58790 8.28205e-18
6662.52620 8.27767e-18
6664.47454 8.19731e-18
6666.42288 8.05304e-18
6668.37123 8.06253e-18
6670.31957 8.03949e-18
6672.26791 8.08819e-18
6674.21625 8.03611e-18
6676.15455 8.09343e-18
6678.10289 7.97560e-18
6680.05123 7.98221e-18
6681.99958 8.18698e-18
6683.94792 7.94555e-18
6685.89626 7.86523e-18
6687.84460 7.95204e-18
6689.78290 7.95240e-18
6691.73124 8.02796e-18
6693.67959 7.89698e-18
6695.62793 7.86024e-18
6697.57627 7.99371e-18
6699.52461 8.02044e-18
6701.47295 8.10722e-18
6703.41125 8.04669e-18
6705.35959 7.91758e-18
6707.30794 7.87198e-18
6709.25628 7.76920e-18
6711.20462 7.74469e-18
6713.15296 7.80623e-18
6715.10131 7.93095e-18
6717.03960 7.86805e-18
6718.98795 7.76835e-18
6720.93629 7.83490e-18
6722.88463 7.88344e-18
6724.83297 7.84556e-18
6726.78131 7.69676e-18
6728.72966 7.58689e-18
6730.66795 7.65936e-18
6732.61630 7.73964e-18
6734.56464 7.78918e-18
6736.51298 7.62364e-18
6738.46132 7.57882e-18
6740.40967 7.72636e-18
6742.35801 7.53194e-18
6744.29631 7.52416e-18
6746.24465 7.69600e-18
6748.19299 7.69769e-18
6750.14133 7.74556e-18
6752.08967 7.53318e-18
6754.03802 7.44301e-18
6755.98636 7.58817e-18
6757.92466 7.39274e-18
6759.87300 7.45564e-18
6761.82134 7.44485e-18
6763.76968 7.41999e-18
6765.71803 7.53236e-18
6767.66637 7.42614e-18
6769.61471 7.34020e-18
6771.55301 7.43108e-18
6773.50135 7.36380e-18
6775.44969 7.38488e-18
6777.39803 7.24935e-18
6779.34638 7.21011e-18
6781.29472 7.24835e-18
6783.24306 7.20451e-18
6785.19140 7.37819e-18
6787.12970 7.32074e-18
6789.07804 7.10325e-18
6791.02638 7.05796e-18
6792.97473 7.18004e-18
6794.92307 7.16691e-18
6796.87141 7.15736e-18
6798.81975 7.14737e-18
6800.75805 7.00897e-18
6802.70639 7.03494e-18
6804.65474 7.24644e-18
6806.60308 7.32988e-18
6808.55142 7.33404e-18
6810.49976 7.33002e-18
6812.43806 7.16781e-18
6814.38640 7.30262e-18
6816.33474 7.36065e-18
6818.28309 7.25977e-18
6820.23143 7.43820e-18
6822.17977 7.37732e-18
6824.12811 7.09095e-18
6826.07646 7.10690e-18
6828.01475 7.26598e-18
6829.96310 7.23526e-18
6831.91144 7.21562e-18
6833.85978 7.39649e-18
6835.80812 7.31176e-18
6837.75646 7.23763e-18
6839.70481 7.34064e-18
6841.64311 7.25370e-18
6843.59145 7.34623e-18
6845.53979 7.33091e-18
6847.48813 7.31558e-18
6849.43647 7.30026e-18
6851.38482 7.28493e-18
6853.32311 7.26961e-18
6855.27146 7.25429e-18
6857.21980 7.23897e-18
6859.16814 7.22365e-18
6861.11648 7.20833e-18
6863.06482 7.19300e-18
6865.01317 7.17769e-18
6866.96151 7.16237e-18
6868.89981 7.14705e-18
6870.84815 7.13173e-18
6872.79649 7.11641e-18
6874.74483 7.10109e-18
6876.69317 7.08578e-18
6878.64152 7.07046e-18
6880.57982 7.05515e-18
6882.52816 7.03983e-18
6884.47650 7.02452e-18
6886.42484 7.00920e-18
6888.37318 6.99389e-18
6890.32153 6.97858e-18
6892.26987 6.96326e-18
6894.21821 6.94795e-18
6896.15651 6.93264e-18
6898.10485 6.91733e-18
6900.05319 6.90201e-18
6902.00153 6.88671e-18
6903.94988 6.87140e-18
6905.89822 6.85609e-18
6907.84656 6.84078e-18
6909.78486 6.82547e-18
6911.73320 6.81016e-18
6913.68154 6.79486e-18
6915.62989 6.77955e-18
6917.57823 6.76424e-18
6919.52657 6.74894e-18
6921.47491 6.73363e-18
6923.41321 6.71833e-18
6925.36155 6.70302e-18
6927.30989 6.68772e-18
6929.25824 6.67242e-18
6931.20658 6.65711e-18
6933.15492 6.64181e-18
6935.10326 6.62651e-18
6937.04156 6.60703e-18
6938.98990 6.40416e-18
6940.93825 6.33809e-18
6942.88659 6.33770e-18
6944.83493 6.16080e-18
6946.78327 6.08497e-18
6948.73161 6.12049e-18
6950.66991 6.08506e-18
6952.61826 6.18235e-18
6954.56660 6.10100e-18
6956.51494 6.05573e-18
6958.46328 6.11611e-18
6960.41162 6.12921e-18
6962.35996 6.31687e-18
6964.29826 6.27354e-18
6966.24661 6.16170e-18
6968.19495 6.15580e-18
6970.14329 6.24871e-18
6972.09163 6.19202e-18
6974.03997 6.25830e-18
6975.98832 6.14738e-18
6977.92662 6.06147e-18
6979.87496 6.14105e-18
6981.82330 6.29047e-18
6983.77164 6.25865e-18
6985.71998 6.21610e-18
6987.66832 6.44064e-18
6989.61667 6.42618e-18
6991.55497 6.25740e-18
6993.50331 6.57598e-18
6995.45165 6.58638e-18
6997.39999 6.57194e-18
6999.34833 6.59818e-18
7001.29668 6.52233e-18
7003.24502 6.60626e-18
7005.18332 6.64924e-18
7007.13166 6.64194e-18
7009.08000 6.89278e-18
7011.02834 6.74105e-18
7012.97668 6.80367e-18
7014.92503 7.05907e-18
7016.87337 7.24625e-18
7018.81167 7.19472e-18
7020.76001 7.27506e-18
7022.70835 7.15408e-18
7024.65669 7.03527e-18
7026.60504 7.11027e-18
7028.55338 7.20478e-18
7030.50172 7.45183e-18
7032.44002 7.39872e-18
7034.38836 7.25236e-18
7036.33670 7.33395e-18
7038.28504 7.26725e-18
7040.23339 7.16129e-18
7042.18173 7.31753e-18
7044.13007 7.44973e-18
7046.06837 7.72411e-18
7048.01671 7.45396e-18
7049.96505 7.30543e-18
7051.91340 7.47049e-18
7053.86174 7.62513e-18
7055.81008 7.40708e-18
7057.75842 7.37992e-18
7059.69672 7.32734e-18
7061.64506 7.40893e-18
7063.59341 7.56798e-18
7065.54175 7.45388e-18
7067.49009 7.39519e-18
7069.43843 7.43136e-18
7071.38677 7.57321e-18
7073.32507 7.42166e-18
7075.27341 7.50375e-18
7077.22176 7.40571e-18
7079.17010 7.57080e-18
7081.11844 7.56935e-18
7083.06678 7.35203e-18
7085.01512 7.41939e-18
7086.95342 7.49306e-18
7088.90176 7.50494e-18
7090.85011 7.44857e-18
7092.79845 7.67781e-18
7094.74679 7.65402e-18
7096.69513 7.46967e-18
7098.64347 7.61770e-18
7100.58177 7.53206e-18
7102.53012 7.49301e-18
7104.47846 7.37560e-18
7106.42680 7.60828e-18
7108.37514 7.57995e-18
7110.32348 7.53686e-18
7112.27183 7.33425e-18
7114.21012 7.34493e-18
7116.15847 7.29171e-18
7118.10681 7.42350e-18
7120.05515 7.47973e-18
7122.00349 7.45258e-18
7123.95183 7.48882e-18
7125.90018 7.30562e-18
7127.83848 7.24087e-18
7129.78682 7.20170e-18
7131.73516 7.08592e-18
7133.68350 7.27763e-18
7135.63184 7.48402e-18
7137.58019 7.31721e-18
7139.52853 7.20275e-18
7141.46683 7.18545e-18
7143.41517 7.21471e-18
7145.36351 7.27430e-18
7147.31185 7.27851e-18
7149.26019 7.16458e-18
7151.20854 7.22894e-18
7153.15688 7.01764e-18
7155.09518 6.99631e-18
7157.04352 6.98818e-18
7158.99186 6.97896e-18
7160.94020 7.16477e-18
7162.88855 7.20145e-18
7164.83689 7.25588e-18
7166.78523 7.23472e-18
7168.72353 7.20890e-18
7170.67187 7.22323e-18
7172.62021 7.14975e-18
7174.56855 7.67627e-18
7176.51690 7.66431e-18
7178.46524 7.17097e-18
7180.41358 6.98284e-18
7182.35188 7.09598e-18
7184.30022 7.02490e-18
7186.24856 6.95170e-18
7188.19691 6.82292e-18
7190.14525 6.61618e-18
7192.09359 6.97126e-18
7194.04193 7.16780e-18
7195.98023 6.85793e-18
7197.92857 6.83030e-18
7199.87691 6.89822e-18
7201.82526 6.96453e-18
7203.77360 6.98616e-18
7205.72194 6.80831e-18
7207.67028 6.72362e-18
7209.60858 6.77763e-18
7211.55692 6.90507e-18
7213.50527 6.86835e-18
7215.45361 6.91504e-18
7217.40195 6.81018e-18
7219.35029 6.75979e-18
7221.29863 6.65427e-18
7223.23693 6.48634e-18
7225.18527 6.65125e-18
7227.13362 6.72557e-18
7229.08196 6.91429e-18
7231.03030 6.64043e-18
7232.97864 6.51788e-18
7234.92699 6.76794e-18
7236.86528 6.63972e-18
7238.81363 6.80224e-18
7240.76197 6.55863e-18
7242.71031 6.17362e-18
7244.65865 6.45767e-18
7246.60699 6.45933e-18
7248.55534 6.62119e-18
7250.49363 6.79242e-18
7252.44198 6.74794e-18
7254.39032 6.57669e-18
7256.33866 6.62499e-18
7258.28700 6.50085e-18
7260.23534 6.61183e-18
7262.18369 6.83810e-18
7264.12199 6.43898e-18
7266.07033 6.48913e-18
7268.01867 6.92056e-18
7269.96701 6.64121e-18
7271.91535 6.32475e-18
7273.86370 6.31587e-18
7275.81204 6.59072e-18
7277.75034 6.18351e-18
7279.69868 6.15268e-18
7281.64702 6.35449e-18
7283.59536 6.71939e-18
7285.54371 6.38950e-18
7287.49205 6.34717e-18
7289.44039 6.69288e-18
7291.37869 6.73560e-18
7293.32703 6.34107e-18
7295.27537 6.16294e-18
7297.22371 6.48786e-18
7299.17206 6.57675e-18
7301.12040 6.60100e-18
7303.06874 6.58070e-18
7305.00704 6.82265e-18
7306.95538 6.50315e-18
7308.90372 6.37402e-18
7310.85207 6.33502e-18
7312.80041 6.52247e-18
7314.74875 6.48344e-18
7316.69709 6.12548e-18
7318.64543 6.27043e-18
7320.58373 6.14936e-18
7322.53207 6.25046e-18
7324.48042 6.15205e-18
7326.42876 6.10393e-18
7328.37710 5.96121e-18
7330.32544 5.85026e-18
7332.27378 5.81858e-18
7334.21208 5.91363e-18
7336.16043 6.03196e-18
7338.10877 6.18615e-18
7340.05711 6.09405e-18
7342.00545 6.04527e-18
7343.95379 5.89915e-18
7345.89209 5.73399e-18
7347.84043 5.81398e-18
7349.78878 5.90834e-18
7351.73712 5.84196e-18
7353.68546 6.08761e-18
7355.63380 6.17884e-18
7357.58214 6.09478e-18
7359.53049 5.85206e-18
7361.46879 5.85632e-18
7363.41713 5.95841e-18
7365.36547 5.98206e-18
7367.31381 5.82073e-18
7369.26215 5.64649e-18
7371.21049 5.71635e-18
7373.14879 5.95571e-18
7375.09714 5.66980e-18
7377.04548 5.57675e-18
7378.99382 5.40328e-18
7380.94216 5.49137e-18
7382.89050 5.56726e-18
7384.83885 5.66128e-18
7386.77714 5.67931e-18
7388.72549 5.41306e-18
7390.67383 5.39617e-18
7392.62217 5.31901e-18
7394.57051 5.18983e-18
7396.51886 5.23567e-18
7398.46720 5.20588e-18
7400.41554 5.18922e-18
7402.35384 5.20488e-18
7404.30218 5.03099e-18
7406.25052 4.90872e-18
7408.19886 4.88826e-18
7410.14721 4.93255e-18
7412.09555 4.70450e-18
7414.03385 4.67077e-18
7415.98219 4.60979e-18
7417.93053 4.54712e-18
7419.87887 4.52200e-18
7421.82722 4.34277e-18
7423.77556 4.22054e-18
7425.72390 4.23166e-18
7427.67224 4.09415e-18
7429.61054 4.06007e-18
7431.55888 3.96879e-18
7433.50722 4.06675e-18
7435.45557 4.12894e-18
7437.40391 3.94980e-18
7439.35225 3.81251e-18
7441.30059 3.86857e-18
7443.23889 4.01400e-18
7445.18723 3.85044e-18
7447.13557 3.89199e-18
7449.08392 3.95099e-18
7451.03226 3.77132e-18
7452.98060 3.82718e-18
7454.92894 3.83762e-18
7456.86724 3.58292e-18
7458.81558 3.69628e-18
7460.76393 3.66198e-18
7462.71227 3.58995e-18
7464.66061 3.67342e-18
7466.60895 3.61518e-18
7468.55729 3.68349e-18
7470.49559 3.78572e-18
7472.44393 3.66352e-18
7474.39228 3.64959e-18
7476.34062 3.84253e-18
7478.28896 3.88157e-18
7480.23730 3.89581e-18
7482.18564 3.92157e-18
7484.12394 3.91487e-18
7486.07229 4.08495e-18
7488.02063 4.18482e-18
7489.96897 4.11056e-18
7491.91731 4.19748e-18
7493.86565 4.25522e-18
7495.81400 4.23850e-18
7497.75229 4.31684e-18
7499.70064 4.29439e-18
7501.64898 4.35191e-18
7503.59732 4.46876e-18
7505.54566 4.45367e-18
7507.49401 4.48302e-18
7509.44235 4.61331e-18
7511.38065 4.84555e-18
7513.32899 4.95725e-18
7515.27733 4.89275e-18
7517.22567 4.91625e-18
7519.17401 5.11898e-18
7521.12236 5.21888e-18
7523.07070 5.09061e-18
7525.00900 5.13053e-18
7526.95734 5.13601e-18
7528.90568 5.21312e-18
7530.85402 5.32751e-18
7532.80236 5.39841e-18
7534.75071 5.32030e-18
7536.69905 5.47158e-18
7538.63735 5.51726e-18
7540.58569 5.62596e-18
7542.53403 5.52756e-18
7544.48237 5.41089e-18
7546.43072 5.42973e-18
7548.37906 5.41834e-18
7550.32740 5.43499e-18
7552.26570 5.45166e-18
7554.21404 5.46831e-18
7556.16238 5.48497e-18
7558.11072 5.50162e-18
7560.05907 5.51828e-18
7562.00741 5.53494e-18
7563.95575 5.55159e-18
7565.89405 5.56824e-18
7567.84239 5.58490e-18
7569.79073 5.60155e-18
7571.73908 5.61820e-18
7573.68742 5.63485e-18
7575.63576 5.65150e-18
7577.58410 5.66815e-18
7579.52240 5.68480e-18
7581.47074 5.70145e-18
7583.41908 5.71810e-18
7585.36743 5.73474e-18
7587.31577 5.75139e-18
7589.26411 5.76804e-18
7591.21245 5.78468e-18
7593.15075 5.80133e-18
7595.09909 5.81797e-18
7597.04744 5.83461e-18
7598.99578 5.85125e-18
7600.94412 5.86790e-18
7602.89246 5.88454e-18
7604.84080 5.90118e-18
7606.77910 5.91782e-18
7608.72744 5.93446e-18
7610.67579 5.95109e-18
7612.62413 5.96773e-18
7614.57247 5.98437e-18
7616.52081 6.00100e-18
7618.46915 6.01764e-18
7620.40745 6.03427e-18
7622.35580 6.05092e-18
7624.30414 6.06754e-18
7626.25248 6.08418e-18
7628.20082 6.10081e-18
7630.14916 6.11744e-18
7632.09751 6.13407e-18
7634.03581 6.15070e-18
7635.98415 6.16733e-18
7637.93249 6.18396e-18
7639.88083 6.20059e-18
7641.82917 6.21722e-18
7643.77751 6.23384e-18
7645.72586 6.25047e-18
7647.66416 6.26710e-18
7649.61250 6.28372e-18
7651.56084 6.30035e-18
7653.50918 6.31697e-18
7655.45752 6.33359e-18
7657.40587 6.35021e-18
7659.35421 6.36684e-18
7661.29251 6.38346e-18
7663.24085 6.40008e-18
7665.18919 6.41670e-18
7667.13753 6.43332e-18
7669.08587 6.44994e-18
7671.03422 6.46656e-18
7672.98256 6.48317e-18
7674.92086 6.49979e-18
7676.86920 6.51640e-18
7678.81754 6.53302e-18
7680.76588 6.54963e-18
7682.71423 6.68076e-18
7684.66257 6.65647e-18
7686.61091 6.71799e-18
7688.54921 6.74155e-18
7690.49755 6.57211e-18
7692.44589 6.45866e-18
7694.39423 6.56472e-18
7696.34258 6.58633e-18
7698.29092 6.56628e-18
7700.23926 6.49788e-18
7702.17756 6.57548e-18
7704.12590 6.65059e-18
7706.07424 6.78129e-18
7708.02259 6.91157e-18
7709.97093 7.01746e-18
7711.91927 6.80289e-18
7713.86761 6.60028e-18
7715.80591 6.78352e-18
7717.75425 6.62327e-18
7719.70259 6.55328e-18
7721.65094 6.60398e-18
7723.59928 6.60660e-18
7725.54762 6.53267e-18
7727.49596 6.50437e-18
7729.43426 6.63701e-18
7731.38260 6.60143e-18
7733.33095 6.44329e-18
7735.27929 6.43161e-18
7737.22763 6.55270e-18
7739.17597 6.56690e-18
7741.12431 6.78564e-18
7743.06261 6.61463e-18
7745.01095 6.42607e-18
7746.95930 6.41267e-18
7748.90764 6.23127e-18
7750.85598 6.26335e-18
7752.80432 6.30659e-18
7754.75266 6.25840e-18
7756.69096 6.33060e-18
7758.63931 6.25632e-18
7760.58765 6.08872e-18
7762.53599 6.24528e-18
7764.48433 6.29037e-18
7766.43267 6.24435e-18
7768.38102 6.39995e-18
7770.31931 6.27130e-18
7772.26766 6.20961e-18
7774.21600 6.29618e-18
7776.16434 6.08466e-18
7778.11268 5.95929e-18
7780.06102 6.12458e-18
7782.00937 6.06369e-18
7783.94767 5.94791e-18
7785.89601 5.95866e-18
7787.84435 6.23012e-18
7789.79269 6.16695e-18
7791.74103 5.92297e-18
7793.68938 6.03778e-18
7795.63772 6.04838e-18
7797.57602 5.91334e-18
7799.52436 6.03949e-18
7801.47270 6.15933e-18
7803.42104 6.09017e-18
7805.36938 6.04646e-18
7807.31773 5.95002e-18
7809.26607 5.98263e-18
7811.20437 6.05610e-18
7813.15271 6.10377e-18
7815.10105 5.83059e-18
7817.04939 6.15192e-18
7818.99774 6.09005e-18
7820.94608 5.88113e-18
7822.89442 5.90767e-18
7824.83272 5.94192e-18
7826.78106 5.94721e-18
7828.72940 5.61298e-18
7830.67774 6.05949e-18
7832.62609 5.98909e-18
7834.57443 6.06405e-18
7836.52277 5.93168e-18
7838.47111 5.91635e-18
7840.40941 5.99719e-18
7842.35775 6.19447e-18
7844.30610 6.23502e-18
7846.25444 6.08925e-18
7848.20278 5.90922e-18
7850.15112 5.91176e-18
7852.09946 6.26677e-18
7854.03776 6.25377e-18
7855.98610 5.96701e-18
7857.93445 5.73164e-18
7859.88279 5.95703e-18
7861.83113 5.92033e-18
7863.77947 5.82981e-18
7865.71777 6.05439e-18
7867.66611 5.79431e-18
7869.61446 5.73211e-18
7871.56280 6.12861e-18
7873.51114 6.24445e-18
7875.45948 5.79690e-18
7877.40782 5.76297e-18
7879.34612 5.93142e-18
7881.29446 5.94113e-18
7883.24281 6.04939e-18
7885.19115 6.09359e-18
7887.13949 5.91914e-18
7889.08783 5.84920e-18
7891.03618 5.83428e-18
7892.98452 5.95328e-18
7894.92282 6.05779e-18
7896.87116 5.93764e-18
7898.81950 5.78527e-18
7900.76784 5.79998e-18
7902.71618 5.96164e-18
7904.66453 5.74615e-18
7906.60282 5.78065e-18
7908.55117 6.19325e-18
7910.49951 5.90816e-18
7912.44785 5.47685e-18
7914.39619 5.56647e-18
7916.34453 5.73726e-18
7918.29288 5.93714e-18
7920.23118 5.88459e-18
7922.17952 5.79079e-18
7924.12786 5.84468e-18
7926.07620 5.73148e-18
7928.02454 5.62271e-18
7929.97289 5.67491e-18
7931.92123 5.73313e-18
7933.86957 5.77591e-18
7935.80787 5.75129e-18
7937.75621 5.66861e-18
7939.70455 5.64203e-18
7941.65289 5.71298e-18
7943.60124 5.83581e-18
7945.54958 5.96207e-18
7947.48788 5.96348e-18
7949.43622 5.86274e-18
7951.38456 5.87926e-18
7953.33290 5.75589e-18
7955.28125 5.73564e-18
7957.22959 5.69545e-18
7959.17793 5.54899e-18
7961.11623 5.71437e-18
7963.06457 5.80115e-18
7965.01291 5.57655e-18
7966.96126 5.69011e-18
7968.90960 5.62455e-18
7970.85794 5.63901e-18
7972.80628 5.89709e-18
7974.75462 5.66337e-18
7976.69292 5.64029e-18
7978.64126 5.59287e-18
7980.58961 5.47278e-18
7982.53795 5.58013e-18
7984.48629 5.62457e-18
7986.43463 5.70642e-18
7988.38297 5.78825e-18
7990.32127 5.58650e-18
7992.26962 5.66139e-18
7994.21796 5.55482e-18
7996.16630 5.58159e-18
7998.11464 5.65179e-18
8000.06298 5.70619e-18
8002.01132 5.57734e-18
8003.94962 5.40128e-18
8005.89797 5.53965e-18
8007.84631 5.55719e-18
8009.79465 5.69033e-18
8011.74299 5.83340e-18
8013.69133 5.48293e-18
8015.63968 5.67905e-18
8017.57798 5.55848e-18
8019.52632 5.67954e-18
8021.47466 6.04806e-18
8023.42300 5.48595e-18
8025.37134 5.36962e-18
8027.31968 5.32537e-18
8029.26803 5.48350e-18
8031.20633 5.66111e-18
8033.15467 5.56456e-18
8035.10301 5.53878e-18
8037.05135 5.49136e-18
8038.99969 5.75430e-18
8040.94804 5.46361e-18
8042.89638 5.54116e-18
8044.83468 5.61212e-18
8046.78302 5.56464e-18
8048.73136 5.44235e-18
8050.67970 5.48812e-18
8052.62804 5.52833e-18
8054.57639 5.61537e-18
8056.52473 5.61298e-18
8058.46303 5.48369e-18
8060.41137 5.41460e-18
8062.35971 5.25728e-18
8064.30805 5.07544e-18
8066.25640 5.13501e-18
8068.20474 5.39470e-18
8070.15308 5.24675e-18
8072.09138 5.20903e-18
8074.03972 5.35063e-18
8075.98806 5.15559e-18
8077.93641 5.12765e-18
8079.88475 4.96046e-18
8081.83309 4.73039e-18
8083.78143 4.98128e-18
8085.71973 5.09045e-18
8087.66807 4.96072e-18
8089.61641 4.73171e-18
8091.56476 5.02657e-18
8093.51310 5.05713e-18
8095.46144 5.05610e-18
8097.40978 5.15369e-18
8099.34808 5.16138e-18
8101.29642 5.00235e-18
8103.24477 4.95804e-18
8105.19311 4.95705e-18
8107.14145 5.19641e-18
8109.08979 5.03178e-18
8111.03813 4.72966e-18
8112.97643 4.94207e-18
8114.92477 4.82988e-18
8116.87312 4.87108e-18
8118.82146 5.00799e-18
8120.76980 5.09894e-18
8122.71814 5.18425e-18
8124.66648 4.95852e-18
8126.60478 5.01397e-18
8128.55312 4.90551e-18
8130.50147 4.70463e-18
8132.44981 4.91945e-18
8134.39815 5.05134e-18
8136.34649 5.15135e-18
8138.29483 5.02607e-18
8140.23313 4.85798e-18
8142.18148 4.93405e-18
8144.12982 5.10504e-18
8146.07816 5.20100e-18
8148.02650 5.03827e-18
8149.97484 5.06516e-18
8151.92319 4.94902e-18
8153.86148 5.08581e-18
8155.80983 5.12838e-18
8157.75817 5.18195e-18
8159.70651 4.83582e-18
8161.65485 4.97628e-18
8163.60319 5.25002e-18
8165.55154 5.14400e-18
8167.48984 5.23245e-18
8169.43818 5.27129e-18
8171.38652 5.35136e-18
8173.33486 4.98406e-18
8175.28320 4.76173e-18
8177.23155 5.35039e-18
8179.17989 5.55644e-18
8181.11819 5.25472e-18
8183.06653 5.13172e-18
8185.01487 5.38543e-18
8186.96321 5.38170e-18
8188.91155 5.12245e-18
8190.85990 5.34761e-18
8192.80824 5.52740e-18
8194.74654 5.78860e-18
8196.69488 5.60466e-18
8198.64322 5.65087e-18
8200.59156 6.04154e-18
8202.53991 5.97692e-18
8204.48825 5.79190e-18
8206.43659 5.81112e-18
8208.37489 5.70869e-18
8210.32323 5.44000e-18
8212.27157 5.91567e-18
8214.21991 5.99039e-18
8216.16826 5.85454e-18
8218.11660 5.62477e-18
8220.06494 5.74232e-18
8222.00324 5.40710e-18
8223.95158 5.07683e-18
8225.89992 4.96622e-18
8227.84827 4.99956e-18
8229.79661 5.42038e-18
8231.74495 5.54884e-18
8233.69329 5.62683e-18
8235.64163 5.67876e-18
8237.57993 5.78610e-18
8239.52828 5.94190e-18
8241.47662 6.24698e-18
8243.42496 6.02600e-18
8245.37330 6.35071e-18
8247.32164 6.43141e-18
8249.25994 6.14857e-18
8251.20828 6.34606e-18
8253.15663 6.23146e-18
8255.10497 6.22073e-18
8257.05331 6.18175e-18
8259.00165 6.17267e-18
8260.94999 6.32912e-18
8262.88829 6.60170e-18
8264.83663 6.10015e-18
8266.78498 6.32764e-18
8268.73332 6.03664e-18
8270.68166 6.05740e-18
8272.63000 6.08263e-18
8274.57834 6.01646e-18
8276.51664 5.94203e-18
8278.46499 5.82426e-18
8280.41333 6.24592e-18
8282.36167 6.29055e-18
8284.31001 6.24424e-18
8286.25835 6.03863e-18
8288.20670 6.24744e-18
8290.14499 6.48264e-18
8292.09334 6.09815e-18
8294.04168 6.49485e-18
8295.99002 6.72397e-18
8297.93836 6.25633e-18
8299.88671 6.30062e-18
8301.83505 6.15647e-18
8303.77335 6.11322e-18
8305.72169 6.52984e-18
8307.67003 6.46719e-18
8309.61837 6.22918e-18
8311.56671 6.09895e-18
8313.51506 5.95266e-18
8315.46340 5.95851e-18
8317.40170 6.02577e-18
8319.35004 6.05706e-18
8321.29838 5.99812e-18
8323.24672 6.06149e-18
8325.19506 6.13087e-18
8327.14341 6.13406e-18
8329.09175 6.41827e-18
8331.04009 6.54893e-18
8332.97839 6.34130e-18
8334.92673 5.85380e-18
8336.87507 6.27795e-18
8338.82342 6.60203e-18
8340.77176 6.50942e-18
8342.72010 6.32389e-18
8344.65840 5.98463e-18
8346.60674 5.78694e-18
8348.55508 6.01466e-18
8350.50342 6.17544e-18
8352.45177 6.34815e-18
8354.40011 6.01827e-18
8356.34845 5.92215e-18
8358.28675 6.71821e-18
8360.23509 6.71993e-18
8362.18343 6.34124e-18
8364.13178 6.22504e-18
8366.08012 6.11468e-18
8368.02846 6.17376e-18
8369.97680 6.50541e-18
8371.91510 6.29391e-18
8373.86344 6.21872e-18
8375.81178 6.11343e-18
8377.76013 5.95841e-18
8379.70847 6.16217e-18
8381.65681 6.30283e-18
8383.60515 6.16948e-18
8385.54345 6.17626e-18
8387.49179 6.19587e-18
8389.44014 6.41078e-18
8391.38848 7.04411e-18
8393.33682 6.31137e-18
8395.28516 6.39103e-18
8397.23350 6.34793e-18
8399.17180 6.45498e-18
8401.12014 6.10323e-18
8403.06849 6.04988e-18
8405.01683 6.12702e-18
8406.96517 5.92863e-18
8408.91351 6.41408e-18
8410.86186 6.24221e-18
8412.81020 6.30206e-18
8414.74850 6.49216e-18
8416.69684 6.39256e-18
8418.64518 6.19369e-18
8420.59352 6.18712e-18
8422.54186 6.29481e-18
8424.49021 6.17075e-18
8426.42850 6.12664e-18
8428.37685 6.10752e-18
8430.32519 6.30600e-18
8432.27353 6.39471e-18
8434.22187 6.29689e-18
8436.17021 5.88220e-18
8438.11856 5.72593e-18
8440.05686 6.17413e-18
8442.00520 6.07607e-18
8443.95354 5.93894e-18
8445.90188 6.25441e-18
8447.85022 6.28149e-18
8449.79857 5.92528e-18
8451.74691 5.96974e-18
8453.69525 6.24538e-18
8455.63355 6.20212e-18
8457.58189 6.17400e-18
8459.53023 6.08607e-18
8461.47857 5.96606e-18
8463.42692 6.02601e-18
8465.37526 5.70326e-18
8467.31356 5.55944e-18
8469.26190 5.96098e-18
8471.21024 6.05993e-18
8473.15858 5.93752e-18
8475.10693 5.79607e-18
8477.05527 5.80270e-18
8479.00361 5.95370e-18
8480.95195 5.82132e-18
8482.89025 5.86185e-18
8484.83859 6.08057e-18
8486.78694 5.84773e-18
8488.73528 5.84554e-18
8490.68362 6.03521e-18
8492.63196 5.89843e-18
8494.58030 5.92432e-18
8496.51860 5.87103e-18
8498.46694 5.84340e-18
8500.41529 5.71589e-18
8502.36363 5.43648e-18
8504.31197 5.54336e-18
8506.26031 5.66390e-18
8508.20865 5.76900e-18
8510.14695 5.75756e-18
8512.09529 5.47770e-18
8514.04364 5.41105e-18
8515.99198 5.67880e-18
8517.94032 5.97751e-18
8519.88866 5.78152e-18
8521.82696 5.40688e-18
8523.77530 5.37689e-18
8525.72365 5.59685e-18
8527.67199 5.74533e-18
8529.62033 5.79033e-18
8531.56867 5.45270e-18
8533.51701 5.30313e-18
8535.46536 5.51195e-18
8537.40366 5.70747e-18
8539.35200 5.50347e-18
8541.30034 5.31699e-18
8543.24868 5.44421e-18
8545.19702 5.53598e-18
8547.14536 5.28963e-18
8549.08366 5.42121e-18
8551.03201 5.30507e-18
8552.98035 5.38885e-18
8554.92869 5.12043e-18
8556.87703 5.02600e-18
8558.82537 5.12335e-18
8560.77372 5.42292e-18
