# wavelength flux
3442.17799 5.86407e-17
3444.12633 5.72566e-17
3446.07468 5.76985e-17
3448.02302 5.70783e-17
3449.97136 5.40953e-17
3451.91970 5.55172e-17
3453.86804 5.36920e-17
3455.80634 5.71886e-17
3457.75468 5.28576e-17
3459.70303 5.38274e-17
3461.65137 5.30490e-17
3463.59971 4.94530e-17
3465.54805 5.15962e-17
3467.49640 5.11795e-17
3469.44474 4.93794e-17
3471.39308 5.08252e-17
3473.34142 4.87509e-17
3475.28976 4.90274e-17
3477.23810 4.74221e-17
3479.17640 5.02019e-17
3481.12475 4.97269e-17
3483.07309 5.16493e-17
3485.02143 5.20468e-17
3486.96977 5.05998e-17
3488.91811 4.79345e-17
3490.86646 4.92419e-17
3492.81480 4.79449e-17
3494.76314 5.02536e-17
3496.71148 5.08023e-17
3498.65982 4.91875e-17
3500.60817 4.90663e-17
3502.55651 4.92618e-17
3504.49481 4.90069e-17
3506.44315 4.92484e-17
3508.39149 4.98088e-17
3510.33983 4.90821e-17
3512.28817 4.82210e-17
3514.23652 5.00928e-17
3516.18486 4.88695e-17
3518.13320 4.96503e-17
3520.08154 5.06207e-17
3522.02988 4.95151e-17
3523.97823 4.90064e-17
3525.92657 5.06698e-17
3527.87491 4.92363e-17
3529.81321 4.90872e-17
3531.76155 4.93342e-17
3533.70989 4.93468e-17
3535.65824 4.86897e-17
3537.60658 4.81071e-17
3539.55492 4.83015e-17
3541.50326 4.81030e-17
3543.45160 4.78886e-17
3545.39995 4.60973e-17
3547.34829 4.81655e-17
3549.29663 4.76548e-17
3551.24497 4.68403e-17
3553.18327 4.80826e-17
3555.13161 4.83119e-17
3557.07995 4.75122e-17
3559.02830 4.72289e-17
3560.97664 4.61263e-17
3562.92498 4.55143e-17
3564.87332 4.75715e-17
3566.82166 4.65313e-17
3568.77001 4.68801e-17
3570.71835 4.86588e-17
3572.66669 4.62562e-17
3574.61503 4.59346e-17
3576.56337 4.77016e-17
3578.50167 4.61684e-17
3580.45002 4.49078e-17
3582.39836 4.35968e-17
3584.34670 4.34317e-17
3586.29504 4.42955e-17
3588.24338 4.45788e-17
3590.19173 4.42727e-17
3592.14007 4.44793e-17
3594.08841 4.43191e-17
3596.03675 4.41245e-17
3597.98509 4.36523e-17
3599.93344 4.44102e-17
3601.87173 4.35361e-17
3603.82008 4.35535e-17
3605.76842 4.29909e-17
3607.71676 4.39156e-17
3609.66510 4.36571e-17
3611.61344 4.11849e-17
3613.56179 3.93463e-17
3615.51013 3.98309e-17
3617.45847 4.14324e-17
3619.40681 4.19668e-17
3621.35515 4.17374e-17
3623.30350 4.10392e-17
3625.25184 4.26291e-17
3627.19014 4.17756e-17
3629.13848 4.20797e-17
3631.08682 4.38968e-17
3633.03516 4.36998e-17
3634.98351 4.22456e-17
3636.93185 4.29526e-17
3638.88019 4.38654e-17
3640.82853 4.35383e-17
3642.77687 4.44738e-17
3644.72522 4.44486e-17
3646.67356 4.33034e-17
3648.62190 4.32566e-17
3650.56020 4.52628e-17
3652.50854 4.39131e-17
3654.45688 4.34197e-17
3656.40522 4.36774e-17
3658.35357 4.41360e-17
3660.30191 4.38617e-17
3662.25025 4.26735e-17
3664.19859 4.47582e-17
3666.14693 4.38575e-17
3668.09528 4.30019e-17
3670.04362 4.23512e-17
3671.99196 4.21165e-17
3673.94030 4.25586e-17
3675.87860 4.27667e-17
3677.82694 4.26533e-17
3679.77529 4.17101e-17
3681.72363 4.15373e-17
3683.67197 4.12740e-17
3685.62031 3.99633e-17
3687.56865 4.05795e-17
3689.51700 4.01686e-17
3691.46534 3.95651e-17
3693.41368 3.82076e-17
3695.36202 3.74584e-17
3697.31036 3.76050e-17
3699.24866 3.81100e-17
3701.19700 3.62439e-17
3703.14535 3.58622e-17
3705.09369 3.56018e-17
3707.04203 3.59514e-17
3708.99037 3.59031e-17
3710.93872 3.48096e-17
3712.88706 3.58706e-17
3714.83540 3.43861e-17
3716.78374 3.49165e-17
3718.73208 3.56036e-17
3720.68043 3.53418e-17
3722.62877 3.52590e-17
3724.56707 3.48525e-17
3726.51541 3.44461e-17
3728.46375 3.40626e-17
3730.41209 3.36792e-17
3732.36043 3.32958e-17
3734.30878 3.29124e-17
3736.25712 3.25291e-17
3738.20546 3.21458e-17
3740.15380 3.17625e-17
3742.10214 3.13793e-17
3744.05049 3.09961e-17
3745.99883 3.06130e-17
3747.93713 3.02299e-17
3749.88547 2.98468e-17
3751.83381 2.94639e-17
3753.78215 2.90808e-17
3755.73049 2.86979e-17
3757.67884 2.83150e-17
3759.62718 2.79321e-17
3761.57552 2.75493e-17
3763.52386 2.71665e-17
3765.47220 2.72980e-17
3767.42055 2.74202e-17
3769.36889 2.75816e-17
3771.31723 2.75661e-17
3773.25553 2.81544e-17
3775.20387 2.74739e-17
3777.15221 2.74361e-17
3779.10056 2.73035e-17
3781.04890 2.79890e-17
3782.99724 2.89903e-17
3784.94558 2.84273e-17
3786.89392 2.93129e-17
3788.84227 2.95212e-17
3790.79061 3.01913e-17
3792.73895 3.10805e-17
3794.68729 3.11177e-17
3796.63563 3.07814e-17
3798.57393 3.11065e-17
3800.52227 3.23068e-17
3802.47062 3.23722e-17
3804.41896 3.29051e-17
3806.36730 3.33883e-17
3808.31564 3.32846e-17
3810.26398 3.29148e-17
3812.21233 3.29827e-17
3814.16067 3.28230e-17
3816.10901 3.41353e-17
3818.05735 3.50798e-17
3820.00569 3.46504e-17
3821.94399 3.52154e-17
3823.89234 3.60172e-17
3825.84068 3.51225e-17
3827.78902 3.60736e-17
3829.73736 3.76221e-17
3831.68570 3.74244e-17
3833.63405 3.83127e-17
3835.58239 3.73126e-17
3837.53073 3.74082e-17
3839.47907 3.74885e-17
3841.42741 3.72231e-17
3843.37576 3.78888e-17
3845.32410 3.87369e-17
3847.26240 3.74818e-17
3849.21074 3.73983e-17
3851.15908 3.80295e-17
3853.10742 3.85422e-17
3855.05577 3.81299e-17
3857.00411 3.90022e-17
3858.95245 3.97909e-17
3860.90079 3.86894e-17
3862.84913 3.75684e-17
3864.79747 3.77119e-17
3866.74582 3.77005e-17
3868.69416 3.71184e-17
3870.63246 3.72166e-17
3872.58080 3.84742e-17
3874.52914 3.77565e-17
3876.47748 3.72981e-17
3878.42583 3.78273e-17
3880.37417 3.80655e-17
3882.32251 3.80996e-17
3884.27085 3.84812e-17
3886.21919 3.92012e-17
3888.16754 3.82921e-17
3890.11588 3.82199e-17
3892.06422 3.87180e-17
3894.01256 3.79337e-17
3895.95086 3.76786e-17
3897.89920 3.79853e-17
3899.84755 3.72370e-17
3901.79589 3.84401e-17
3903.74423 3.74975e-17
3905.69257 3.75383e-17
3907.64091 3.64691e-17
3909.58925 3.72732e-17
3911.53760 3.72330e-17
3913.48594 3.61540e-17
3915.43428 3.67745e-17
3917.38262 3.72971e-17
3919.32092 3.63058e-17
3921.26926 3.59921e-17
3923.21761 3.62785e-17
3925.16595 3.55268e-17
3927.11429 3.66984e-17
3929.06263 3.59501e-17
3931.01097 3.48311e-17
3932.95932 3.37579e-17
3934.90766 3.46078e-17
3936.85600 3.55400e-17
3938.80434 3.65107e-17
3940.75268 3.58009e-17
3942.70103 3.52457e-17
3944.63933 3.59462e-17
3946.58767 3.59713e-17
3948.53601 3.52777e-17
3950.48435 3.36155e-17
3952.43269 3.37574e-17
3954.38103 3.42146e-17
3956.32938 3.47953e-17
3958.27772 3.47905e-17
3960.22606 3.46346e-17
3962.17440 3.40719e-17
3964.12275 3.34643e-17
3966.07109 3.26904e-17
3968.01943 3.20005e-17
3969.95773 3.17659e-17
3971.90607 3.20090e-17
3973.85441 3.21106e-17
3975.80275 3.13154e-17
3977.75110 3.12032e-17
3979.69944 3.23346e-17
3981.64778 3.13940e-17
3983.59612 3.09118e-17
3985.54446 3.10665e-17
3987.49281 3.11320e-17
3989.44115 3.09435e-17
3991.38949 3.18055e-17
3993.32779 3.19377e-17
3995.27613 3.15166e-17
3997.22447 3.26608e-17
3999.17281 3.27324e-17
4001.12116 3.16720e-17
4003.06950 3.15037e-17
4005.01784 3.09610e-17
4006.96618 3.13434e-17
4008.91452 3.24821e-17
4010.86287 3.18556e-17
4012.81121 3.14196e-17
4014.75955 3.26876e-17
4016.70789 3.27026e-17
4018.64619 3.19338e-17
4020.59453 3.14651e-17
4022.54288 3.18482e-17
4024.49122 3.19028e-17
4026.43956 3.15267e-17
4028.38790 3.15911e-17
4030.33624 3.24650e-17
4032.28459 3.26323e-17
4034.23293 3.20682e-17
4036.18127 3.27857e-17
4038.12961 3.32566e-17
4040.07795 3.22835e-17
4042.01625 3.17845e-17
4043.96459 3.23671e-17
4045.91294 3.22727e-17
4047.86128 3.14334e-17
4049.80962 3.19979e-17
4051.75796 3.20031e-17
4053.70630 3.18540e-17
4055.65465 3.22229e-17
4057.60299 3.18365e-17
4059.55133 3.14985e-17
4061.49967 3.08313e-17
4063.44801 3.08327e-17
4065.39636 3.14825e-17
4067.33466 3.15591e-17
4069.28300 3.05600e-17
4071.23134 3.04691e-17
4073.17968 3.05627e-17
4075.12802 3.01487e-17
4077.07637 3.07173e-17
4079.02471 3.03426e-17
4080.97305 3.00011e-17
4082.92139 2.96331e-17
4084.86973 2.86531e-17
4086.81808 2.84344e-17
4088.76642 2.86538e-17
4090.70472 2.76453e-17
4092.65306 2.71203e-17
4094.60140 2.68103e-17
4096.54974 2.61107e-17
4098.49808 2.68372e-17
4100.44643 2.64500e-17
4102.39477 2.59326e-17
4104.34311 2.57447e-17
4106.29145 2.56419e-17
4108.23980 2.63023e-17
4110.18814 2.68474e-17
4112.13648 2.67046e-17
4114.08482 2.65708e-17
4116.02312 2.74172e-17
4117.97146 2.78040e-17
4119.91980 2.83410e-17
4121.86815 2.87894e-17
4123.81649 2.79584e-17
4125.76483 2.84232e-17
4127.71317 2.86381e-17
4129.66151 2.88341e-17
4131.60986 2.88819e-17
4133.55820 2.87791e-17
4135.50654 2.94382e-17
4137.45488 2.95266e-17
4139.39318 2.95652e-17
4141.34152 2.95151e-17
4143.28986 2.95415e-17
4145.23821 2.97444e-17
4147.18655 2.83675e-17
4149.13489 2.92671e-17
4151.08323 2.97539e-17
4153.03157 2.98527e-17
4154.97992 2.95733e-17
4156.92826 2.96033e-17
4158.87660 2.85434e-17
4160.82494 2.84214e-17
4162.77328 2.83593e-17
4164.71158 2.91790e-17
4166.65993 2.87421e-17
4168.60827 2.84716e-17
4170.55661 2.84780e-17
4172.50495 2.75545e-17
4174.45329 2.75421e-17
4176.40164 2.73353e-17
4178.34998 2.70524e-17
4180.29832 2.72079e-17
4182.24666 2.75470e-17
4184.19500 2.71830e-17
4186.14335 2.67785e-17
4188.08164 2.66298e-17
4190.02999 2.67070e-17
4191.97833 2.62996e-17
4193.92667 2.66173e-17
4195.87501 2.67843e-17
4197.82336 2.64695e-17
4199.77170 2.60528e-17
4201.72004 2.65203e-17
4203.66838 2.65783e-17
4205.61672 2.65078e-17
4207.56506 2.60878e-17
4209.51341 2.63019e-17
4211.46175 2.66854e-17
4213.40005 2.60751e-17
4215.34839 2.59927e-17
4217.29673 2.61718e-17
4219.24507 2.66130e-17
4221.19342 2.66696e-17
4223.14176 2.59293e-17
4225.09010 2.59252e-17
4227.03844 2.58646e-17
4228.98678 2.56899e-17
4230.93513 2.57032e-17
4232.88347 2.61164e-17
4234.83181 2.63409e-17
4236.77011 2.66464e-17
4238.71845 2.62913e-17
4240.66679 2.59298e-17
4242.61514 2.61827e-17
4244.56348 2.58460e-17
4246.51182 2.57678e-17
4248.46016 2.53564e-17
4250.40850 2.53456e-17
4252.35684 2.49919e-17
4254.30519 2.49514e-17
4256.25353 2.48204e-17
4258.20187 2.50819e-17
4260.15021 2.48213e-17
4262.08851 2.50205e-17
4264.03685 2.54810e-17
4265.98520 2.50802e-17
4267.93354 2.48775e-17
4269.88188 2.44857e-17
4271.83022 2.44165e-17
4273.77856 2.43223e-17
4275.72691 2.44275e-17
4277.67525 2.44954e-17
4279.62359 2.38707e-17
4281.57193 2.37567e-17
4283.52027 2.41836e-17
4285.46862 2.40363e-17
4287.40692 2.39753e-17
4289.35526 2.36089e-17
4291.30360 2.32692e-17
4293.25194 2.28115e-17
4295.20028 2.22190e-17
4297.14862 2.21662e-17
4299.09697 2.20322e-17
4301.04531 2.17997e-17
4302.99365 2.16439e-17
4304.94199 2.16263e-17
4306.89034 2.19513e-17
4308.83868 2.13738e-17
4310.77698 2.17036e-17
4312.72532 2.15072e-17
4314.67366 2.17025e-17
4316.62200 2.18333e-17
4318.57034 2.24571e-17
4320.51869 2.27697e-17
4322.46703 2.28135e-17
4324.41537 2.25215e-17
4326.36371 2.31639e-17
4328.31205 2.36630e-17
4330.26040 2.39429e-17
4332.20874 2.37636e-17
4334.15708 2.45106e-17
4336.09538 2.47100e-17
4338.04372 2.42836e-17
4339.99206 2.50026e-17
4341.94041 2.47362e-17
4343.88875 2.44910e-17
4345.83709 2.48977e-17
4347.78543 2.52028e-17
4349.73377 2.52502e-17
4351.68211 2.46608e-17
4353.63046 2.45873e-17
4355.57880 2.48996e-17
4357.52714 2.50407e-17
4359.47548 2.48770e-17
4361.41378 2.50171e-17
4363.36212 2.50044e-17
4365.31047 2.49347e-17
4367.25881 2.48649e-17
4369.20715 2.47952e-17
4371.15549 2.47255e-17
4373.10383 2.46557e-17
4375.05218 2.45860e-17
4377.00052 2.45163e-17
4378.94886 2.44465e-17
4380.89720 2.43768e-17
4382.84554 2.43071e-17
4384.79389 2.42374e-17
4386.73218 2.41677e-17
4388.68053 2.40980e-17
4390.62887 2.40283e-17
4392.57721 2.39586e-17
4394.52555 2.38889e-17
4396.47389 2.38192e-17
4398.42224 2.37495e-17
4400.37058 2.36798e-17
4402.31892 2.40021e-17
4404.26726 2.43163e-17
4406.21561 2.42788e-17
4408.16395 2.40710e-17
4410.10225 2.37699e-17
4412.05059 2.50289e-17
4413.99893 2.49056e-17
4415.94727 2.42557e-17
4417.89561 2.40404e-17
4419.84396 2.44171e-17
4421.79230 2.48781e-17
4423.74064 2.49432e-17
4425.68898 2.49836e-17
4427.63732 2.45215e-17
4429.58567 2.47281e-17
4431.53401 2.47177e-17
4433.48235 2.54557e-17
4435.42065 2.55107e-17
4437.36899 2.46339e-17
4439.31733 2.45959e-17
4441.26567 2.46739e-17
4443.21402 2.45622e-17
4445.16236 2.46811e-17
4447.11070 2.43542e-17
4449.05904 2.44554e-17
4451.00738 2.44956e-17
4452.95573 2.42606e-17
4454.90407 2.48142e-17
4456.85241 2.44742e-17
4458.79071 2.43003e-17
4460.73905 2.38345e-17
4462.68739 2.37066e-17
4464.63574 2.44949e-17
4466.58408 2.39506e-17
4468.53242 2.45635e-17
4470.48076 2.42025e-17
4472.42910 2.37727e-17
4474.37745 2.38050e-17
4476.32579 2.30277e-17
4478.27413 2.35531e-17
4480.22247 2.34560e-17
4482.17081 2.28593e-17
4484.10911 2.27405e-17
4486.05746 2.35275e-17
4488.00580 2.33842e-17
4489.95414 2.31532e-17
4491.90248 2.30620e-17
4493.85082 2.29770e-17
4495.79917 2.33318e-17
4497.74751 2.31123e-17
4499.69585 2.30411e-17
4501.64419 2.33189e-17
4503.59253 2.34552e-17
4505.54087 2.34129e-17
4507.47917 2.30082e-17
4509.42752 2.30600e-17
4511.37586 2.33452e-17
4513.32420 2.30530e-17
4515.27254 2.29717e-17
4517.22088 2.31614e-17
4519.16923 2.27309e-17
4521.11757 2.27334e-17
4523.06591 2.28196e-17
4525.01425 2.25306e-17
4526.96259 2.26485e-17
4528.91094 2.27061e-17
4530.85928 2.24305e-17
4532.79758 2.25025e-17
4534.74592 2.29915e-17
4536.69426 2.24599e-17
4538.64260 2.21731e-17
4540.59094 2.22925e-17
4542.53929 2.20000e-17
4544.48763 2.20216e-17
4546.43597 2.19275e-17
4548.38431 2.17596e-17
4550.33266 2.17822e-17
4552.28100 2.18756e-17
4554.22934 2.20207e-17
4556.16764 2.16555e-17
4558.11598 2.19602e-17
4560.06432 2.18336e-17
4562.01266 2.18499e-17
4563.96101 2.18526e-17
4565.90935 2.16127e-17
4567.85769 2.17048e-17
4569.80603 2.14220e-17
4571.75437 2.12159e-17
4573.70272 2.21017e-17
4575.65106 2.17743e-17
4577.59940 2.16773e-17
4579.54774 2.11862e-17
4581.48604 2.14318e-17
4583.43438 2.14695e-17
4585.38272 2.11457e-17
4587.33107 2.13944e-17
4589.27941 2.11253e-17
4591.22775 2.12380e-17
4593.17609 2.15436e-17
4595.12443 2.13597e-17
4597.07278 2.12625e-17
4599.02112 2.10981e-17
4600.96946 2.16444e-17
4602.91780 2.11863e-17
4604.85610 2.09491e-17
4606.80444 2.13818e-17
4608.75279 2.16712e-17
4610.70113 2.09847e-17
4612.64947 2.09886e-17
4614.59781 2.11657e-17
4616.54615 2.08160e-17
4618.49450 2.08530e-17
4620.44284 2.07192e-17
4622.39118 2.04178e-17
4624.33952 2.02842e-17
4626.28786 1.99794e-17
4628.23621 2.01690e-17
4630.17450 1.95766e-17
4632.12285 1.97991e-17
4634.07119 2.03147e-17
4636.01953 1.96246e-17
4637.96787 1.95732e-17
4639.91622 1.98143e-17
4641.86456 1.99862e-17
4643.81290 1.95865e-17
4645.76124 1.97995e-17
4647.70958 1.94543e-17
4649.65792 1.95414e-17
4651.60627 1.90861e-17
4653.54457 1.91685e-17
4655.49291 1.93703e-17
4657.44125 1.94402e-17
4659.38959 1.92807e-17
4661.33793 1.92754e-17
4663.28628 1.91432e-17
4665.23462 1.94819e-17
4667.18296 1.92755e-17
4669.13130 1.89224e-17
4671.07964 1.90448e-17
4673.02799 1.91903e-17
4674.97633 1.94419e-17
4676.92467 1.94965e-17
4678.86297 1.90548e-17
4680.81131 1.89104e-17
4682.75965 1.92635e-17
4684.70799 1.92188e-17
4686.65634 1.89096e-17
4688.60468 1.91345e-17
4690.55302 1.86902e-17
4692.50136 1.82008e-17
4694.44970 1.83491e-17
4696.39805 1.82680e-17
4698.34639 1.84014e-17
4700.29473 1.80084e-17
4702.23303 1.74521e-17
4704.18137 1.74590e-17
4706.12971 1.77591e-17
4708.07806 1.76599e-17
4710.02640 1.76001e-17
4711.97474 1.76952e-17
4713.92308 1.77534e-17
4715.87142 1.77714e-17
4717.81977 1.74343e-17
4719.76811 1.76231e-17
4721.71645 1.76973e-17
4723.66479 1.76653e-17
4725.61313 1.74909e-17
4727.55143 1.72937e-17
4729.49978 1.73111e-17
4731.44812 1.72659e-17
4733.39646 1.72433e-17
4735.34480 1.72508e-17
4737.29314 1.71277e-17
4739.24148 1.71707e-17
4741.18983 1.69481e-17
4743.13817 1.72598e-17
4745.08651 1.70332e-17
4747.03485 1.70032e-17
4748.98319 1.71584e-17
4750.92149 1.73630e-17
4752.86984 1.78235e-17
4754.81818 1.72730e-17
4756.76652 1.73534e-17
4758.71486 1.82288e-17
4760.66320 1.83101e-17
4762.61155 1.79108e-17
4764.55989 1.79258e-17
4766.50823 1.74126e-17
4768.45657 1.77094e-17
4770.40491 1.80375e-17
4772.35326 1.77977e-17
4774.30160 1.79202e-17
4776.23990 1.76932e-17
4778.18824 1.76663e-17
4780.13658 1.75042e-17
4782.08492 1.74463e-17
4784.03327 1.76507e-17
4785.98161 1.75067e-17
4787.92995 1.73999e-17
4789.87829 1.69506e-17
4791.82663 1.68637e-17
4793.77498 1.69937e-17
4795.72332 1.69885e-17
4797.67166 1.68162e-17
4799.62000 1.63251e-17
4801.55830 1.67642e-17
4803.50664 1.68254e-17
4805.45498 1.66856e-17
4807.40333 1.65671e-17
4809.35167 1.68451e-17
4811.30001 1.69826e-17
4813.24835 1.69150e-17
4815.19669 1.69139e-17
4817.14504 1.69324e-17
4819.09338 1.69838e-17
4821.04172 1.68653e-17
4822.99006 1.68987e-17
4824.92836 1.69606e-17
4826.87670 1.66428e-17
4828.82504 1.62350e-17
4830.77339 1.60121e-17
4832.72173 1.65115e-17
4834.67007 1.67240e-17
4836.61841 1.65438e-17
4838.56675 1.65937e-17
4840.51510 1.69363e-17
4842.46344 1.66146e-17
4844.41178 1.65652e-17
4846.36012 1.67487e-17
4848.30847 1.62481e-17
4850.24676 1.62367e-17
4852.19511 1.67126e-17
4854.14345 1.69332e-17
4856.09179 1.67713e-17
4858.04013 1.72980e-17
4859.98847 1.68885e-17
4861.93682 1.71910e-17
4863.88516 1.71529e-17
4865.83350 1.71808e-17
4867.78184 1.72087e-17
4869.73018 1.72365e-17
4871.67853 1.72644e-17
4873.61683 1.72923e-17
4875.56517 1.73201e-17
4877.51351 1.73480e-17
4879.46185 1.73759e-17
4881.41019 1.74037e-17
4883.35853 1.74316e-17
4885.30688 1.74594e-17
4887.25522 1.74873e-17
4889.20356 1.75151e-17
4891.15190 1.75430e-17
4893.10024 1.75708e-17
4895.04859 1.75987e-17
4896.99693 1.76265e-17
4898.93523 1.76544e-17
4900.88357 1.76822e-17
4902.83191 1.79018e-17
4904.78025 1.78528e-17
4906.72860 1.72323e-17
4908.67694 1.77207e-17
4910.62528 1.81798e-17
4912.57362 1.78423e-17
4914.52196 1.75196e-17
4916.47031 1.72726e-17
4918.41865 1.71972e-17
4920.36699 1.76568e-17
4922.30529 1.75547e-17
4924.25363 1.74929e-17
4926.20197 1.69089e-17
4928.15031 1.67641e-17
4930.09866 1.68296e-17
4932.04700 1.64573e-17
4933.99534 1.60639e-17
4935.94368 1.59591e-17
4937.89203 1.55928e-17
4939.84037 1.58286e-17
4941.78871 1.56261e-17
4943.73705 1.54471e-17
4945.68539 1.58843e-17
4947.62369 1.54331e-17
4949.57203 1.55164e-17
4951.52038 1.54087e-17
4953.46872 1.52071e-17
4955.41706 1.52172e-17
4957.36540 1.52835e-17
4959.31374 1.49793e-17
4961.26209 1.64326e-17
4963.21043 1.64991e-17
4965.15877 1.65655e-17
4967.10711 1.66319e-17
4969.05545 1.66983e-17
4971.00380 1.67647e-17
4972.94209 1.68311e-17
4974.89044 1.68974e-17
4976.83878 1.69638e-17
4978.78712 1.70302e-17
4980.73546 1.70966e-17
4982.68381 1.71629e-17
4984.63215 1.72293e-17
4986.58049 1.72956e-17
4988.52883 1.73620e-17
4990.47717 1.74283e-17
4992.42551 1.74947e-17
4994.37386 1.75610e-17
4996.31216 1.76274e-17
4998.26050 1.76937e-17
5000.20884 1.77600e-17
5002.15718 1.73933e-17
5004.10552 1.74393e-17
5006.05387 1.76210e-17
5008.00221 1.75218e-17
5009.95055 1.81677e-17
5011.89889 1.81458e-17
5013.84723 1.81238e-17
5015.79558 1.81018e-17
5017.74392 1.80798e-17
5019.69226 1.80578e-17
5021.63056 1.80358e-17
5023.57890 1.80138e-17
5025.52724 1.79918e-17
5027.47558 1.79699e-17
5029.42393 1.79479e-17
5031.37227 1.79259e-17
5033.32061 1.79039e-17
5035.26895 1.78820e-17
5037.21729 1.78600e-17
5039.16564 1.78380e-17
5041.11398 1.78161e-17
5043.06232 1.77941e-17
5045.00062 1.77721e-17
5046.94896 1.77502e-17
5048.89730 1.79338e-17
5050.84565 1.78033e-17
5052.79399 1.81067e-17
5054.74233 1.81196e-17
5056.69067 1.78048e-17
5058.63901 1.76533e-17
5060.58736 1.82056e-17
5062.53570 1.83071e-17
5064.48404 1.79465e-17
5066.43238 1.75840e-17
5068.38072 1.80315e-17
5070.31902 1.82136e-17
5072.26736 1.76117e-17
5074.21571 1.75135e-17
5076.16405 1.81940e-17
5078.11239 1.81266e-17
5080.06073 1.76448e-17
5082.00907 1.76580e-17
5083.95742 1.75355e-17
5085.90576 1.76559e-17
5087.85410 1.75987e-17
5089.80244 1.75919e-17
5091.75078 1.78568e-17
5093.68908 1.78578e-17
5095.63743 1.74053e-17
5097.58577 1.73610e-17
5099.53411 1.75001e-17
5101.48245 1.74625e-17
5103.43079 1.72397e-17
5105.37914 1.76138e-17
5107.32748 1.75530e-17
5109.27582 1.72241e-17
5111.22416 1.73897e-17
5113.17250 1.72181e-17
5115.12085 1.73437e-17
5117.06919 1.73823e-17
5119.00749 1.68157e-17
5120.95583 1.70009e-17
5122.90417 1.73223e-17
5124.85251 1.72349e-17
5126.80086 1.72237e-17
5128.74920 1.71289e-17
5130.69754 1.74304e-17
5132.64588 1.71564e-17
5134.59422 1.72511e-17
5136.54256 1.72363e-17
5138.49091 1.73368e-17
5140.43925 1.70446e-17
5142.37755 1.68392e-17
5144.32589 1.71152e-17
5146.27423 1.69276e-17
5148.22257 1.68580e-17
5150.17092 1.70143e-17
5152.11926 1.68673e-17
5154.06760 1.68293e-17
5156.01594 1.70810e-17
5157.96428 1.66740e-17
5159.91263 1.68022e-17
5161.86097 1.70573e-17
5163.80931 1.70307e-17
5165.75765 1.71941e-17
5167.69595 1.70902e-17
5169.64429 1.69800e-17
5171.59263 1.67830e-17
5173.54098 1.73038e-17
5175.48932 1.70460e-17
5177.43766 1.68346e-17
5179.38600 1.69440e-17
5181.33434 1.69545e-17
5183.28269 1.69595e-17
5185.23103 1.65887e-17
5187.17937 1.66127e-17
5189.12771 1.65778e-17
5191.06601 1.65822e-17
5193.01435 1.66302e-17
5194.96270 1.60717e-17
5196.91104 1.66026e-17
5198.85938 1.68987e-17
5200.80772 1.65722e-17
5202.75606 1.67487e-17
5204.70441 1.66030e-17
5206.65275 1.61491e-17
5208.60109 1.64111e-17
5210.54943 1.64076e-17
5212.49777 1.63163e-17
5214.44612 1.65147e-17
5216.38442 1.59267e-17
5218.33276 1.57875e-17
5220.28110 1.61072e-17
5222.22944 1.59336e-17
5224.17778 1.54337e-17
5226.12612 1.54236e-17
5228.07447 1.56906e-17
5230.02281 1.59646e-17
5231.97115 1.54839e-17
5233.91949 1.55091e-17
5235.86784 1.54231e-17
5237.81618 1.53019e-17
5239.76452 1.50987e-17
5241.70282 1.51485e-17
5243.65116 1.50897e-17
5245.59950 1.50525e-17
5247.54784 1.49164e-17
5249.49619 1.49781e-17
5251.44453 1.51224e-17
5253.39287 1.53600e-17
5255.34121 1.47395e-17
5257.28955 1.49958e-17
5259.23790 1.54742e-17
5261.18624 1.51593e-17
5263.13458 1.46062e-17
5265.08292 1.46754e-17
5267.02122 1.49199e-17
5268.96956 1.49601e-17
5270.91791 1.53543e-17
5272.86625 1.49037e-17
5274.81459 1.46677e-17
5276.76293 1.47156e-17
5278.71127 1.47109e-17
5280.65961 1.50934e-17
5282.60796 1.45604e-17
5284.55630 1.46340e-17
5286.50464 1.51196e-17
5288.45298 1.47415e-17
5290.39128 1.47617e-17
5292.33962 1.46970e-17
5294.28797 1.44992e-17
5296.23631 1.42566e-17
5298.18465 1.47985e-17
5300.13299 1.45788e-17
5302.08133 1.45930e-17
5304.02968 1.47482e-17
5305.97802 1.48790e-17
5307.92636 1.40758e-17
5309.87470 1.46359e-17
5311.82304 1.47269e-17
5313.77139 1.45839e-17
5315.70968 1.45066e-17
5317.65803 1.45302e-17
5319.60637 1.44272e-17
5321.55471 1.47194e-17
5323.50305 1.45725e-17
5325.45139 1.43714e-17
5327.39974 1.41728e-17
5329.34808 1.43747e-17
5331.29642 1.45181e-17
5333.24476 1.41222e-17
5335.19311 1.38018e-17
5337.14145 1.40983e-17
5339.07975 1.42800e-17
5341.02809 1.40588e-17
5342.97643 1.42161e-17
5344.92477 1.38960e-17
5346.87311 1.38901e-17
5348.82146 1.39470e-17
5350.76980 1.43407e-17
5352.71814 1.45446e-17
5354.66648 1.41307e-17
5356.61482 1.41763e-17
5358.56317 1.41508e-17
5360.51151 1.42726e-17
5362.45985 1.41105e-17
5364.39815 1.41394e-17
5366.34649 1.40624e-17
5368.29483 1.39940e-17
5370.24317 1.40557e-17
5372.19152 1.42513e-17
5374.13986 1.37280e-17
5376.08820 1.35828e-17
5378.03654 1.38566e-17
5379.98488 1.38064e-17
5381.93323 1.35865e-17
5383.88157 1.38483e-17
5385.82991 1.38524e-17
5387.77825 1.37114e-17
5389.71655 1.33971e-17
5391.66489 1.33579e-17
5393.61324 1.33502e-17
5395.56158 1.36017e-17
5397.50992 1.37619e-17
5399.45826 1.35963e-17
5401.40660 1.35085e-17
5403.35495 1.35254e-17
5405.30329 1.39194e-17
5407.25163 1.35096e-17
5409.19997 1.35385e-17
5411.14831 1.32206e-17
5413.08661 1.31841e-17
5415.03496 1.31544e-17
5416.98330 1.29672e-17
5418.93164 1.28840e-17
5420.87998 1.29140e-17
5422.82832 1.30815e-17
5424.77667 1.30012e-17
5426.72501 1.30588e-17
5428.67335 1.29141e-17
5430.62169 1.25959e-17
5432.57003 1.25591e-17
5434.51837 1.23488e-17
5436.46672 1.23515e-17
5438.40502 1.22250e-17
5440.35336 1.24994e-17
5442.30170 1.22446e-17
5444.25004 1.20303e-17
5446.19838 1.24612e-17
5448.14673 1.25601e-17
5450.09507 1.25515e-17
5452.04341 1.24408e-17
5453.99175 1.23400e-17
5455.94009 1.24621e-17
5457.88844 1.24150e-17
5459.83678 1.21203e-17
5461.77508 1.22454e-17
5463.72342 1.26543e-17
5465.67176 1.24729e-17
5467.62010 1.27398e-17
5469.56844 1.25815e-17
5471.51679 1.24179e-17
5473.46513 1.26974e-17
5475.41347 1.24810e-17
5477.36181 1.23350e-17
5479.31016 1.22122e-17
5481.25850 1.25621e-17
5483.20684 1.28666e-17
5485.15518 1.24270e-17
5487.09348 1.26512e-17
5489.04182 1.27158e-17
5490.99016 1.22159e-17
5492.93851 1.23773e-17
5494.88685 1.27069e-17
5496.83519 1.25029e-17
5498.78353 1.26204e-17
5500.73187 1.28501e-17
5502.68022 1.28543e-17
5504.62856 1.24372e-17
5506.57690 1.24001e-17
5508.52524 1.26207e-17
5510.46354 1.26105e-17
5512.41188 1.25836e-17
5514.36022 1.23775e-17
5516.30857 1.23990e-17
5518.25691 1.23186e-17
5520.20525 1.23758e-17
5522.15359 1.24460e-17
5524.10193 1.23449e-17
5526.05028 1.23348e-17
5527.99862 1.21891e-17
5529.94696 1.22258e-17
5531.89530 1.24430e-17
5533.84364 1.25278e-17
5535.78194 1.24731e-17
5537.73029 1.21835e-17
5539.67863 1.21370e-17
5541.62697 1.23703e-17
5543.57531 1.23018e-17
5545.52365 1.24410e-17
5547.47200 1.26375e-17
5549.42034 1.30558e-17
5551.36868 1.28490e-17
5553.31702 1.27210e-17
5555.26536 1.27857e-17
5557.21371 1.25062e-17
5559.15200 1.26200e-17
5561.10035 1.29833e-17
5563.04869 1.28303e-17
5564.99703 1.26337e-17
5566.94537 1.29323e-17
5568.89372 1.27676e-17
5570.84206 1.28067e-17
5572.79040 1.30664e-17
5574.73874 1.29251e-17
5576.68708 1.23304e-17
5578.63542 1.24749e-17
5580.58377 1.26146e-17
5582.52207 1.22816e-17
5584.47041 1.23522e-17
5586.41875 1.25686e-17
5588.36709 1.30044e-17
5590.31543 1.30531e-17
5592.26378 1.24860e-17
5594.21212 1.22948e-17
5596.16046 1.23399e-17
5598.10880 1.23495e-17
5600.05714 1.27305e-17
5602.00549 1.26331e-17
5603.95383 1.20944e-17
5605.90217 1.20517e-17
5607.84047 1.22684e-17
5609.78881 1.25284e-17
5611.73715 1.21198e-17
5613.68549 1.19480e-17
5615.63384 1.23602e-17
5617.58218 1.27105e-17
5619.53052 1.19840e-17
5621.47886 1.19854e-17
5623.42720 1.19836e-17
5625.37555 1.16065e-17
5627.32389 1.22358e-17
5629.27223 1.19423e-17
5631.21053 1.16340e-17
5633.15887 1.18315e-17
5635.10721 1.17460e-17
5637.05556 1.13091e-17
5639.00390 1.13764e-17
5640.95224 1.11047e-17
5642.90058 1.08657e-17
5644.84892 1.10866e-17
5646.79727 1.13262e-17
5648.74561 1.11657e-17
5650.69395 1.08944e-17
5652.64229 1.12371e-17
5654.59063 1.10596e-17
5656.52893 1.15958e-17
5658.47728 1.16281e-17
5660.42562 1.15158e-17
5662.37396 1.16756e-17
5664.32230 1.14612e-17
5666.27064 1.14123e-17
5668.21898 1.19704e-17
5670.16733 1.15261e-17
5672.11567 1.17473e-17
5674.06401 1.21994e-17
5676.01235 1.21672e-17
5677.96069 1.24808e-17
5679.90904 1.28676e-17
5681.84734 1.27529e-17
5683.79568 1.27106e-17
5685.74402 1.28305e-17
5687.69236 1.27958e-17
5689.64070 1.29077e-17
5691.58905 1.32728e-17
5693.53739 1.34300e-17
5695.48573 1.32822e-17
5697.43407 1.31601e-17
5699.38241 1.31786e-17
5701.33076 1.32752e-17
5703.27910 1.33378e-17
5705.21740 1.34319e-17
5707.16574 1.36817e-17
5709.11408 1.36822e-17
5711.06242 1.35738e-17
5713.01076 1.35235e-17
5714.95911 1.34145e-17
5716.90745 1.34122e-17
5718.85579 1.36902e-17
5720.80413 1.36284e-17
5722.75248 1.35248e-17
5724.70082 1.37867e-17
5726.64916 1.36951e-17
5728.59750 1.34169e-17
5730.53580 1.36981e-17
5732.48414 1.35809e-17
5734.43248 1.40904e-17
5736.38083 1.37484e-17
5738.32917 1.35961e-17
5740.27751 1.35006e-17
5742.22585 1.35725e-17
5744.17419 1.33552e-17
5746.12254 1.34740e-17
5748.07088 1.34345e-17
5750.01922 1.34620e-17
5751.96756 1.35747e-17
5753.91590 1.32623e-17
5755.85420 1.35355e-17
5757.80254 1.33775e-17
5759.75089 1.36136e-17
5761.69923 1.35494e-17
5763.64757 1.35455e-17
5765.59591 1.37113e-17
5767.54425 1.32926e-17
5769.49260 1.28192e-17
5771.44094 1.32553e-17
5773.38928 1.34581e-17
5775.33762 1.35015e-17
5777.28597 1.34619e-17
5779.22426 1.33460e-17
5781.17261 1.29909e-17
5783.12095 1.28120e-17
5785.06929 1.27960e-17
5787.01763 1.26766e-17
5788.96597 1.28795e-17
5790.91432 1.30825e-17
5792.86266 1.28844e-17
5794.81100 1.26226e-17
5796.75934 1.24411e-17
5798.70768 1.28949e-17
5800.65603 1.28799e-17
5802.60437 1.28171e-17
5804.54267 1.29077e-17
5806.49101 1.26436e-17
5808.43935 1.25761e-17
5810.38769 1.27848e-17
5812.33603 1.30437e-17
5814.28438 1.25223e-17
5816.23272 1.24666e-17
5818.18106 1.22383e-17
5820.12940 1.27676e-17
5822.07774 1.26324e-17
5824.02609 1.24034e-17
5825.97443 1.24969e-17
5827.91273 1.23811e-17
5829.86107 1.22161e-17
5831.80941 1.20272e-17
5833.75775 1.26205e-17
5835.70610 1.27260e-17
5837.65444 1.22491e-17
5839.60278 1.25946e-17
5841.55112 1.23575e-17
5843.49946 1.24553e-17
5845.44781 1.20938e-17
5847.39615 1.23346e-17
5849.34449 1.18923e-17
5851.29283 1.18347e-17
5853.23113 1.21732e-17
5855.17947 1.25692e-17
5857.12781 1.21497e-17
5859.07616 1.22399e-17
5861.02450 1.20027e-17
5862.97284 1.18539e-17
5864.92118 1.17024e-17
5866.86953 1.14870e-17
5868.81787 1.17926e-17
5870.76621 1.19876e-17
5872.71455 1.18924e-17
5874.66289 1.19336e-17
5876.60119 1.19452e-17
5878.54953 1.18160e-17
5880.49788 1.14434e-17
5882.44622 1.11842e-17
5884.39456 1.14430e-17
5886.34290 1.10973e-17
5888.29124 1.13180e-17
5890.23959 1.12780e-17
5892.18793 1.11004e-17
5894.13627 1.13543e-17
5896.08461 1.11514e-17
5898.03295 1.11279e-17
5899.98130 1.10632e-17
5901.91959 1.15964e-17
5903.86794 1.11543e-17
5905.81628 1.06662e-17
5907.76462 1.11145e-17
5909.71296 1.14989e-17
5911.66131 1.06153e-17
5913.60965 1.09299e-17
5915.55799 1.04395e-17
5917.50633 1.04130e-17
5919.45467 1.06168e-17
5921.40301 1.05816e-17
5923.35136 1.06848e-17
5925.28966 1.09103e-17
5927.23800 1.09835e-17
5929.18634 1.09875e-17
5931.13468 1.05545e-17
5933.08302 1.04919e-17
5935.03137 1.08361e-17
5936.97971 1.08589e-17
5938.92805 1.06836e-17
5940.87639 1.10129e-17
5942.82473 1.08870e-17
5944.77308 1.07708e-17
5946.72142 1.08626e-17
5948.66976 1.10463e-17
5950.60806 1.17307e-17
5952.55640 1.15181e-17
5954.50474 1.13000e-17
5956.45308 1.07814e-17
5958.40143 1.05928e-17
5960.34977 1.12152e-17
5962.29811 1.13592e-17
5964.24645 1.12897e-17
5966.19479 1.14450e-17
5968.14314 1.11019e-17
5970.09148 1.15627e-17
5972.03982 1.14069e-17
5973.97812 1.09695e-17
5975.92646 1.08238e-17
5977.87480 1.10089e-17
5979.82315 1.13160e-17
5981.77149 1.13212e-17
5983.71983 1.13429e-17
5985.66817 1.10651e-17
5987.61651 1.11444e-17
5989.56486 1.12386e-17
5991.51320 1.11103e-17
5993.46154 1.10831e-17
5995.40988 1.09088e-17
5997.35822 1.10579e-17
5999.29652 1.12603e-17
6001.24486 1.11298e-17
6003.19321 1.07818e-17
6005.14155 1.09593e-17
6007.08989 1.08383e-17
6009.03823 1.07220e-17
6010.98657 1.09006e-17
6012.93492 1.04596e-17
6014.88326 1.07815e-17
6016.83160 1.08099e-17
6018.77994 1.07035e-17
6020.72828 1.03862e-17
6022.67663 1.07109e-17
6024.61493 1.05388e-17
6026.56327 1.04133e-17
6028.51161 1.03020e-17
6030.45995 1.05139e-17
6032.40829 1.04692e-17
6034.35664 1.03787e-17
6036.30498 1.07442e-17
6038.25332 1.05321e-17
6040.20166 1.04185e-17
6042.15000 1.03712e-17
6044.09835 1.00605e-17
6046.04669 1.02066e-17
6047.98499 1.02813e-17
6049.93333 1.01677e-17
6051.88167 9.86326e-18
6053.83001 9.73197e-18
6055.77836 1.00024e-17
6057.72670 1.02590e-17
6059.67504 9.95750e-18
6061.62338 9.89326e-18
6063.57172 1.00855e-17
6065.52006 9.59975e-18
6067.46841 9.75712e-18
6069.41675 9.41283e-18
6071.36509 9.55656e-18
6073.30339 9.48755e-18
6075.25173 9.46093e-18
6077.20007 9.14280e-18
6079.14842 9.57190e-18
6081.09676 9.70219e-18
6083.04510 9.33021e-18
6084.99344 9.34950e-18
6086.94178 8.97531e-18
6088.89013 9.13521e-18
6090.83847 8.85923e-18
6092.78681 8.67217e-18
6094.73515 8.91772e-18
6096.67345 8.72828e-18
6098.62179 8.36111e-18
6100.57013 8.58206e-18
6102.51848 9.01873e-18
6104.46682 8.94290e-18
6106.41516 8.12296e-18
6108.36350 8.66085e-18
6110.31184 8.77052e-18
6112.26019 8.61907e-18
6114.20853 8.81620e-18
6116.15687 8.36571e-18
6118.10521 8.57609e-18
6120.05356 8.73105e-18
6121.99185 8.52620e-18
6123.94020 8.53978e-18
6125.88854 8.37513e-18
6127.83688 8.56284e-18
6129.78522 8.69592e-18
6131.73356 8.61591e-18
6133.68191 8.50569e-18
6135.63025 8.76588e-18
6137.57859 8.40631e-18
6139.52693 8.87700e-18
6141.47527 8.57114e-18
6143.42362 8.75224e-18
6145.36192 9.01588e-18
6147.31026 9.08822e-18
6149.25860 9.11541e-18
6151.20694 8.91512e-18
6153.15528 8.61188e-18
6155.10362 8.69415e-18
6157.05197 8.86733e-18
6159.00031 8.95674e-18
6160.94865 9.03419e-18
6162.89699 8.94995e-18
6164.84533 9.48477e-18
6166.79368 9.24549e-18
6168.74202 8.79465e-18
6170.68032 9.16414e-18
6172.62866 9.30396e-18
6174.57700 9.21952e-18
6176.52534 8.90038e-18
6178.47369 8.89649e-18
6180.42203 9.00671e-18
6182.37037 9.27896e-18
6184.31871 8.86529e-18
6186.26705 9.23926e-18
6188.21540 9.37245e-18
6190.16374 9.24808e-18
6192.11208 9.29283e-18
6194.06042 9.40764e-18
6195.99872 9.34407e-18
6197.94706 9.34289e-18
6199.89541 9.74901e-18
6201.84375 9.31907e-18
6203.79209 8.98539e-18
6205.74043 8.83954e-18
6207.68877 9.47532e-18
6209.63712 9.31891e-18
6211.58546 9.46930e-18
6213.53380 9.44213e-18
6215.48214 9.44370e-18
6217.43048 9.15147e-18
6219.37882 9.06428e-18
6221.31712 8.98684e-18
6223.26547 8.95094e-18
6225.21381 9.01678e-18
6227.16215 8.97785e-18
6229.11049 9.12331e-18
6231.05883 9.16260e-18
6233.00718 9.16391e-18
6234.95552 9.06469e-18
6236.90386 8.99595e-18
6238.85220 8.89559e-18
6240.80054 8.93696e-18
6242.74889 8.46192e-18
6244.68718 8.75262e-18
6246.63553 8.59534e-18
6248.58387 8.58160e-18
6250.53221 8.64719e-18
6252.48055 8.31870e-18
6254.42889 8.28665e-18
6256.37724 8.46181e-18
6258.32558 8.04192e-18
6260.27392 8.12897e-18
6262.22226 8.09212e-18
6264.17061 7.83634e-18
6266.11895 7.49151e-18
6268.06729 7.27344e-18
6270.00559 7.42386e-18
6271.95393 7.26391e-18
6273.90227 6.82477e-18
6275.85061 6.61620e-18
6277.79896 6.64558e-18
6279.74730 6.42389e-18
6281.69564 6.12700e-18
6283.64398 6.09419e-18
6285.59232 6.53905e-18
6287.54067 5.97289e-18
6289.48901 5.93472e-18
6291.43735 5.72198e-18
6293.37565 5.60401e-18
6295.32399 5.42225e-18
6297.27233 5.82007e-18
6299.22067 5.80327e-18
6301.16902 4.90510e-18
6303.11736 5.34470e-18
6305.06570 6.14556e-18
6307.01404 5.77289e-18
6308.96238 5.73074e-18
6310.91073 5.99934e-18
6312.85907 5.90723e-18
6314.80741 5.66749e-18
6316.75575 6.00075e-18
6318.69405 6.25236e-18
6320.64239 6.28417e-18
6322.59074 6.20073e-18
6324.53908 6.17046e-18
6326.48742 6.98581e-18
6328.43576 6.84045e-18
6330.38410 6.82869e-18
6332.33245 7.04554e-18
6334.28079 6.95539e-18
6336.22913 7.06715e-18
6338.17747 7.44463e-18
6340.12581 7.54821e-18
6342.06411 7.35734e-18
6344.01246 7.68205e-18
6345.96080 8.25551e-18
6347.90914 8.48321e-18
6349.85748 8.04835e-18
6351.80582 8.39250e-18
6353.75417 8.35818e-18
6355.70251 8.25143e-18
6357.65085 8.30804e-18
6359.59919 8.52069e-18
6361.54753 8.53610e-18
6363.49587 8.59415e-18
6365.44422 8.72974e-18
6367.38252 8.92194e-18
6369.33086 9.22040e-18
6371.27920 9.01659e-18
6373.22754 9.05315e-18
6375.17588 9.51700e-18
6377.12423 9.52079e-18
6379.07257 9.29013e-18
6381.02091 8.71041e-18
6382.96925 9.44507e-18
6384.91759 9.42132e-18
6386.86594 9.09934e-18
6388.81428 9.45479e-18
6390.75258 9.43832e-18
6392.70092 9.56311e-18
6394.64926 9.57339e-18
6396.59760 9.31168e-18
6398.54594 9.08368e-18
6400.49429 9.32594e-18
6402.44263 9.07200e-18
6404.39097 9.07203e-18
6406.33931 9.20554e-18
6408.28766 9.25966e-18
6410.23600 9.31917e-18
6412.18434 9.73968e-18
6414.13268 9.97671e-18
6416.07098 9.09858e-18
6418.01932 9.58783e-18
6419.96766 9.79772e-18
6421.91601 9.35320e-18
6423.86435 8.98313e-18
6425.81269 9.00402e-18
6427.76103 9.28405e-18
6429.70937 8.83799e-18
6431.65772 8.80258e-18
6433.60606 9.02083e-18
6435.55440 9.45756e-18
6437.50274 9.33784e-18
6439.45108 9.29992e-18
6441.38938 9.16269e-18
6443.33772 9.34198e-18
6445.28607 9.02653e-18
6447.23441 9.21365e-18
6449.18275 9.07945e-18
6451.13109 9.26673e-18
6453.07943 9.27154e-18
6455.02778 9.06901e-18
6456.97612 9.00693e-18
6458.92446 9.24457e-18
6460.87280 9.28525e-18
6462.82114 9.63600e-18
6464.75944 9.12128e-18
6466.70779 8.98182e-18
6468.65613 9.24287e-18
6470.60447 9.25021e-18
6472.55281 8.70057e-18
6474.50115 8.94650e-18
6476.44950 8.91185e-18
6478.39784 8.40122e-18
6480.34618 9.10150e-18
6482.29452 9.39996e-18
6484.24286 9.68651e-18
6486.19121 9.52340e-18
6488.12950 9.32823e-18
6490.07785 9.25485e-18
6492.02619 9.12814e-18
6493.97453 8.90270e-18
6495.92287 8.70420e-18
6497.87122 9.01313e-18
6499.81956 8.72905e-18
6501.76790 8.69069e-18
6503.71624 8.83400e-18
6505.66458 8.90547e-18
6507.61292 8.77347e-18
6509.56127 9.08680e-18
6511.49957 8.99097e-18
6513.44791 8.58490e-18
6515.39625 8.83461e-18
6517.34459 8.74700e-18
6519.29293 8.28091e-18
6521.24128 8.11683e-18
6523.18962 8.19097e-18
6525.13796 8.20276e-18
6527.08630 7.94290e-18
6529.03464 8.02337e-18
6530.98299 7.97639e-18
6532.93133 8.10351e-18
6534.87967 8.60002e-18
6536.81797 8.48638e-18
6538.76631 8.42264e-18
6540.71465 8.24962e-18
6542.66299 8.00882e-18
6544.61134 8.11965e-18
6546.55968 8.04715e-18
6548.50802 7.73548e-18
6550.45636 7.75118e-18
6552.40470 7.90547e-18
6554.35305 8.11287e-18
6556.30139 7.72269e-18
6558.24973 7.97140e-18
6560.19807 7.89409e-18
6562.13637 7.90466e-18
6564.08471 7.91524e-18
6566.03306 7.92581e-18
6567.98140 7.93638e-18
6569.92974 7.94695e-18
6571.87808 7.95752e-18
6573.82642 7.96810e-18
6575.77477 7.97867e-18
6577.72311 7.98924e-18
6579.67145 7.99981e-18
6581.61979 8.01038e-18
6583.56813 8.02095e-18
6585.50643 8.03151e-18
6587.45478 8.04208e-18
6589.40312 8.05265e-18
6591.35146 8.06322e-18
6593.29980 8.07379e-18
6595.24814 8.08436e-18
6597.19648 8.09492e-18
6599.14483 8.10549e-18
6601.09317 8.11606e-18
6603.04151 8.12662e-18
6604.98985 8.13718e-18
6606.93819 8.14775e-18
6608.88654 8.15832e-18
6610.82484 8.16888e-18
6612.77318 8.17944e-18
6614.72152 8.19001e-18
6616.66986 8.20057e-18
6618.61820 8.21114e-18
6620.56655 8.22170e-18
6622.51489 8.23226e-18
6624.46323 7.96258e-18
6626.41157 8.18993e-18
6628.35991 8.26582e-18
6630.30826 8.12180e-18
6632.25660 7.68784e-18
6634.20494 7.74009e-18
6636.14324 7.78488e-18
6638.09158 7.69260e-18
6640.03992 7.61656e-18
6641.98826 7.42506e-18
6643.93661 7.29768e-18
6645.88495 7.23624e-18
6647.83329 7.55093e-18
6649.78163 7.48083e-18
6651.72998 7.55522e-18
6653.67832 7.54602e-18
6655.62666 7.62415e-18
6657.57500 8.04473e-18
6659.51330 7.85656e-18
6661.46164 7.86732e-18
6663.40998 7.81725e-18
6665.35833 7.64600e-18
6667.30667 7.48111e-18
6669.25501 7.58746e-18
6671.20335 7.50572e-18
6673.15169 7.47557e-18
6675.10004 7.28543e-18
6677.04838 7.32028e-18
6678.99672 7.36892e-18
6680.94506 6.90443e-18
6682.89340 6.93381e-18
6684.83170 7.47150e-18
6686.78004 7.50866e-18
6688.72839 7.31378e-18
6690.67673 7.40230e-18
6692.62507 7.78197e-18
6694.57341 7.70660e-18
6696.52175 7.51828e-18
6698.47010 7.64195e-18
6700.41844 7.64516e-18
6702.36678 7.45698e-18
6704.31512 7.03483e-18
6706.26346 7.02652e-18
6708.21181 6.92225e-18
6710.15011 6.72263e-18
6712.09845 6.86663e-18
6714.04679 6.81364e-18
6715.99513 6.86177e-18
6717.94347 7.34739e-18
6719.89182 7.18360e-18
6721.84016 7.12868e-18
6723.78850 7.23317e-18
6725.73684 7.21118e-18
6727.68518 7.23958e-18
6729.63353 7.14796e-18
6731.58187 7.08051e-18
6733.52017 7.02484e-18
6735.46851 7.18468e-18
6737.41685 7.45774e-18
6739.36519 6.92111e-18
6741.31353 6.92679e-18
6743.26188 6.96552e-18
6745.21022 6.48769e-18
6747.15856 6.84814e-18
6749.10690 6.71009e-18
6751.05524 6.39645e-18
6753.00359 6.58817e-18
6754.95193 6.55160e-18
6756.90027 6.88247e-18
6758.83857 7.12530e-18
6760.78691 6.97755e-18
6762.73525 7.11856e-18
6764.68360 7.07723e-18
6766.63194 6.78160e-18
6768.58028 6.91553e-18
6770.52862 7.03993e-18
6772.47696 6.77675e-18
6774.42531 6.57478e-18
6776.37365 6.50884e-18
6778.32199 6.52815e-18
6780.27033 6.37730e-18
6782.20863 6.19788e-18
6784.15697 6.13210e-18
6786.10531 6.14576e-18
6788.05366 6.30289e-18
6790.00200 6.30908e-18
6791.95034 6.14306e-18
6793.89868 6.25315e-18
6795.84703 6.29910e-18
6797.79537 6.41143e-18
6799.74371 6.66542e-18
6801.69205 6.44154e-18
6803.64039 6.31893e-18
6805.58873 6.29187e-18
6807.52703 6.60358e-18
6809.47538 6.60262e-18
6811.42372 6.29880e-18
6813.37206 6.37724e-18
6815.32040 6.72091e-18
6817.26874 6.70666e-18
6819.21709 6.40761e-18
6821.16543 6.38314e-18
6823.11377 6.03325e-18
6825.06211 5.76074e-18
6827.01045 6.05874e-18
6828.95880 6.29589e-18
6830.89709 6.25483e-18
6832.84544 6.09545e-18
6834.79378 5.78083e-18
6836.74212 5.96284e-18
6838.69046 5.75377e-18
6840.63881 5.91628e-18
6842.58715 5.97722e-18
6844.53549 5.75116e-18
6846.48383 5.73865e-18
6848.43217 5.72614e-18
6850.38051 5.71363e-18
6852.32886 5.70112e-18
6854.27720 5.68861e-18
6856.21550 5.67611e-18
6858.16384 5.66360e-18
6860.11218 5.65110e-18
6862.06052 5.63859e-18
6864.00887 5.62608e-18
6865.95721 5.61358e-18
6867.90555 5.60108e-18
6869.85389 5.58857e-18
6871.80223 5.57607e-18
6873.75058 5.56357e-18
6875.69892 5.55106e-18
6877.64726 5.53856e-18
6879.58556 5.52606e-18
6881.53390 5.51356e-18
6883.48224 5.50106e-18
6885.43059 5.48856e-18
6887.37893 5.47606e-18
6889.32727 5.46356e-18
6891.27561 5.45106e-18
6893.22395 5.43856e-18
6895.17229 5.42606e-18
6897.12064 5.41356e-18
6899.06898 5.40106e-18
6901.01732 5.38857e-18
6902.96566 5.37607e-18
6904.90396 5.36358e-18
6906.85230 5.35108e-18
6908.80065 5.33859e-18
6910.74899 5.32609e-18
6912.69733 5.31359e-18
6914.64567 5.30110e-18
6916.59401 5.28860e-18
6918.54236 5.27611e-18
6920.49070 5.26362e-18
6922.43904 5.25113e-18
6924.38738 5.23863e-18
6926.33572 5.22614e-18
6928.27402 5.21365e-18
6930.22236 5.20116e-18
6932.17071 5.18867e-18
6934.11905 5.17618e-18
6936.06739 5.16369e-18
6938.01573 5.17946e-18
6939.96407 4.71918e-18
6941.91242 4.86502e-18
6943.86076 4.76634e-18
6945.80910 4.91732e-18
6947.75744 5.14858e-18
6949.70578 5.05311e-18
6951.65413 5.15740e-18
6953.59243 5.02408e-18
6955.54077 5.22500e-18
6957.48911 4.82069e-18
6959.43745 4.96577e-18
6961.38579 4.75870e-18
6963.33414 5.00801e-18
6965.28248 4.94205e-18
6967.23082 4.90496e-18
6969.17916 5.12337e-18
6971.12750 5.17064e-18
6973.07585 5.12777e-18
6975.02419 5.21336e-18
6976.96249 5.27818e-18
6978.91083 5.21294e-18
6980.85917 5.25118e-18
6982.80751 5.33405e-18
6984.75586 5.53215e-18
6986.70420 5.58526e-18
6988.65254 5.32661e-18
6990.60088 5.63937e-18
6992.54922 5.68651e-18
6994.49756 5.86270e-18
6996.44591 5.75284e-18
6998.39425 6.04675e-18
7000.34259 5.88180e-18
7002.28089 5.97485e-18
7004.22923 6.41588e-18
7006.17757 6.51263e-18
7008.12592 6.49549e-18
7010.07426 6.54087e-18
7012.02260 6.45637e-18
7013.97094 6.41533e-18
7015.91928 6.45593e-18
7017.86763 6.48274e-18
7019.81597 6.77662e-18
7021.76431 6.53751e-18
7023.71265 7.05629e-18
7025.66099 6.61991e-18
7027.59929 6.52997e-18
7029.54763 6.79049e-18
7031.49598 6.61330e-18
7033.44432 6.66856e-18
7035.39266 7.02743e-18
7037.34100 7.04971e-18
7039.28934 7.17468e-18
7041.23769 6.92108e-18
7043.18603 6.62560e-18
7045.13437 6.61026e-18
7047.08271 6.55355e-18
7049.03106 6.19178e-18
7050.96935 6.33632e-18
7052.91770 6.12567e-18
7054.86604 6.18291e-18
7056.81438 6.23677e-18
7058.76272 6.37318e-18
7060.71106 6.82394e-18
7062.65941 6.68285e-18
7064.60775 6.20594e-18
7066.55609 6.49458e-18
7068.50443 6.55969e-18
7070.45277 6.62496e-18
7072.40112 6.57990e-18
7074.34946 6.77078e-18
7076.28776 6.86042e-18
7078.23610 7.01409e-18
7080.18444 7.03687e-18
7082.13278 6.78438e-18
7084.08112 6.99226e-18
7086.02947 7.15779e-18
7087.97781 7.11906e-18
7089.92615 7.09144e-18
7091.87449 7.18902e-18
7093.82283 7.09579e-18
7095.77118 7.02668e-18
7097.71952 6.85026e-18
7099.66786 6.55433e-18
7101.60616 6.75556e-18
7103.55450 4.21777e-18
7105.50284 5.34526e-18
7107.45119 6.94278e-18
7109.39953 6.51517e-18
7111.34787 6.51583e-18
7113.29621 6.07970e-18
7115.24455 6.06292e-18
7117.19290 6.21543e-18
7119.14124 5.90396e-18
7121.08958 6.32330e-18
7123.03792 6.52383e-18
7124.97622 6.50959e-18
7126.92456 6.76283e-18
7128.87291 6.88024e-18
7130.82125 6.66833e-18
7132.76959 6.57451e-18
7134.71793 6.70468e-18
7136.66627 6.64600e-18
7138.61462 6.58450e-18
7140.56296 6.89002e-18
7142.51130 6.75373e-18
7144.45964 6.80342e-18
7146.40798 7.32842e-18
7148.35632 7.30401e-18
7150.29462 6.51723e-18
7152.24297 6.03617e-18
7154.19131 6.40398e-18
7156.13965 6.35027e-18
7158.08799 6.05741e-18
7160.03633 6.27548e-18
7161.98468 6.14651e-18
7163.93302 5.77484e-18
7165.88136 5.75932e-18
7167.82970 5.69463e-18
7169.77804 5.54473e-18
7171.72639 5.54177e-18
7173.67473 5.62783e-18
7175.61303 5.45783e-18
7177.56137 5.51248e-18
7179.50971 5.78916e-18
7181.45805 5.65064e-18
7183.40639 5.62839e-18
7185.35474 5.79623e-18
7187.30308 5.67394e-18
7189.25142 5.57449e-18
7191.19976 5.64477e-18
7193.14811 5.13182e-18
7195.09645 5.59759e-18
7197.04479 6.30338e-18
7198.98309 5.46552e-18
7200.93143 5.15497e-18
7202.87977 5.32802e-18
7204.82811 5.45571e-18
7206.77646 5.76905e-18
7208.72480 5.97494e-18
7210.67314 5.94677e-18
7212.62148 5.60167e-18
7214.56982 5.68846e-18
7216.51817 5.81220e-18
7218.46651 5.62047e-18
7220.41485 5.53776e-18
7222.36319 5.56710e-18
7224.30149 5.92050e-18
7226.24983 5.93989e-18
7228.19817 5.87052e-18
7230.14652 5.90573e-18
7232.09486 5.67979e-18
7234.04320 5.41521e-18
7235.99154 5.52029e-18
7237.93988 6.00554e-18
7239.88823 6.02120e-18
7241.83657 5.84525e-18
7243.78491 5.87747e-18
7245.73325 5.49560e-18
7247.67155 5.63282e-18
7249.61989 5.64954e-18
7251.56824 5.62493e-18
7253.51658 5.48810e-18
7255.46492 5.24550e-18
7257.41326 5.12231e-18
7259.36160 5.20876e-18
7261.30995 5.45635e-18
7263.25829 4.92419e-18
7265.20663 5.22762e-18
7267.15497 5.42832e-18
7269.10331 5.82776e-18
7271.05166 5.84751e-18
7272.98996 5.58807e-18
7274.93830 4.84700e-18
7276.88664 4.90111e-18
7278.83498 5.17807e-18
7280.78332 6.06273e-18
7282.73167 6.09979e-18
7284.68001 6.24151e-18
7286.62835 5.42933e-18
7288.57669 5.56820e-18
7290.52503 5.58843e-18
7292.47337 5.65824e-18
7294.42172 5.68162e-18
7296.36002 5.69800e-18
7298.30836 5.39750e-18
7300.25670 5.37656e-18
7302.20504 5.10441e-18
7304.15338 5.39705e-18
7306.10173 5.62721e-18
7308.05007 5.14733e-18
7309.99841 5.23823e-18
7311.94675 5.26894e-18
7313.89509 5.18098e-18
7315.84344 5.11724e-18
7317.79178 5.01994e-18
7319.74012 5.48741e-18
7321.67842 5.35943e-18
7323.62676 5.49284e-18
7325.57510 5.99252e-18
7327.52344 5.95062e-18
7329.47179 5.83982e-18
7331.42013 5.30594e-18
7333.36847 5.46593e-18
7335.31681 5.34877e-18
7337.26516 5.49714e-18
7339.21350 5.79694e-18
7341.16184 5.26811e-18
7343.11018 5.58293e-18
7345.04848 4.91867e-18
7346.99682 4.83607e-18
7348.94516 4.88342e-18
7350.89351 5.28627e-18
7352.84185 5.02055e-18
7354.79019 4.96050e-18
7356.73853 4.98450e-18
7358.68687 5.17494e-18
7360.63522 5.21902e-18
7362.58356 5.11972e-18
7364.53190 5.12066e-18
7366.48024 5.35823e-18
7368.42858 5.50193e-18
7370.36688 5.29736e-18
7372.31522 5.17652e-18
7374.26357 5.08884e-18
7376.21191 5.16417e-18
7378.16025 4.95081e-18
7380.10859 5.00118e-18
7382.05693 4.51480e-18
7384.00528 4.44768e-18
7385.95362 4.88638e-18
7387.90196 4.48487e-18
7389.85030 4.38115e-18
7391.79864 4.72601e-18
7393.73694 4.41181e-18
7395.68529 4.15306e-18
7397.63363 4.00812e-18
7399.58197 4.05920e-18
7401.53031 4.25051e-18
7403.47865 4.30875e-18
7405.42700 4.20515e-18
7407.37534 4.16313e-18
7409.32368 4.22335e-18
7411.27202 4.16239e-18
7413.22036 4.25869e-18
7415.16871 4.11528e-18
7417.10700 4.16214e-18
7419.05535 4.05654e-18
7421.00369 3.56740e-18
7422.95203 3.77430e-18
7424.90037 3.95039e-18
7426.84872 3.69398e-18
7428.79706 3.51841e-18
7430.74540 3.56906e-18
7432.69374 3.47411e-18
7434.64208 3.30169e-18
7436.59042 3.24724e-18
7438.53877 3.04867e-18
7440.48711 3.34592e-18
7442.42541 3.45772e-18
7444.37375 3.31143e-18
7446.32209 3.51733e-18
7448.27043 3.59231e-18
7450.21878 3.56059e-18
7452.16712 3.67024e-18
7454.11546 3.81395e-18
7456.06380 3.82750e-18
7458.01214 3.72723e-18
7459.96049 3.61731e-18
7461.90883 3.68455e-18
7463.85717 3.83989e-18
7465.79547 3.91012e-18
7467.74381 3.67067e-18
7469.69215 3.41758e-18
7471.64049 3.70200e-18
7473.58884 3.69631e-18
7475.53718 3.49727e-18
7477.48552 3.75295e-18
7479.43386 3.75585e-18
7481.38220 3.97014e-18
7483.33055 4.05404e-18
7485.27889 3.72672e-18
7487.22723 3.98606e-18
7489.17557 4.17797e-18
7491.11387 4.59186e-18
7493.06221 4.65029e-18
7495.01056 4.40964e-18
7496.95890 4.58504e-18
7498.90724 4.78615e-18
7500.85558 4.84901e-18
7502.80392 5.03222e-18
7504.75227 4.96731e-18
7506.70061 4.96129e-18
7508.64895 5.07643e-18
7510.59729 4.41577e-18
7512.54563 4.85917e-18
7514.49398 4.95737e-18
7516.43228 4.92196e-18
7518.38062 4.84693e-18
7520.32896 4.98571e-18
7522.27730 5.23765e-18
7524.22564 5.24437e-18
7526.17398 4.74730e-18
7528.12233 5.31420e-18
7530.07067 5.38607e-18
7532.01901 4.74732e-18
7533.96735 5.08907e-18
7535.91569 5.45199e-18
7537.86404 5.67924e-18
7539.81238 5.55162e-18
7541.75068 5.65950e-18
7543.69902 5.70922e-18
7545.64736 5.82496e-18
7547.59570 5.96522e-18
7549.54405 5.70267e-18
7551.49239 5.70110e-18
7553.44073 5.69952e-18
7555.38907 5.69795e-18
7557.33741 5.69638e-18
7559.28576 5.69480e-18
7561.23410 5.69323e-18
7563.18244 5.69166e-18
7565.12074 5.69008e-18
7567.06908 5.68851e-18
7569.01742 5.68693e-18
7570.96576 5.68536e-18
7572.91411 5.68379e-18
7574.86245 5.68221e-18
7576.81079 5.68064e-18
7578.75913 5.67907e-18
7580.70748 5.67749e-18
7582.65582 5.67592e-18
7584.60416 5.67435e-18
7586.55250 5.67277e-18
7588.50084 5.67120e-18
7590.43914 5.66963e-18
7592.38748 5.66805e-18
7594.33583 5.66648e-18
7596.28417 5.66491e-18
7598.23251 5.66333e-18
7600.18085 5.66176e-18
7602.12919 5.66019e-18
7604.07754 5.65861e-18
7606.02588 5.65704e-18
7607.97422 5.65547e-18
7609.92256 5.65389e-18
7611.87090 5.65232e-18
7613.80920 5.65075e-18
7615.75754 5.64918e-18
7617.70589 5.64760e-18
7619.65423 5.64603e-18
7621.60257 5.64446e-18
7623.55091 5.64289e-18
7625.49925 5.64131e-18
7627.44760 5.63974e-18
7629.39594 5.63817e-18
7631.34428 5.63659e-18
7633.29262 5.63502e-18
7635.24096 5.63345e-18
7637.18931 5.63188e-18
7639.12761 5.63030e-18
7641.07595 5.62873e-18
7643.02429 5.62716e-18
7644.97263 5.62559e-18
7646.92097 5.62401e-18
7648.86932 5.62244e-18
7650.81766 5.62087e-18
7652.76600 5.61930e-18
7654.71434 5.61773e-18
7656.66268 5.61615e-18
7658.61103 5.61458e-18
7660.55937 5.61301e-18
7662.49767 5.61144e-18
7664.44601 5.60987e-18
7666.39435 5.60829e-18
7668.34269 5.60672e-18
7670.29103 5.60515e-18
7672.23938 5.60358e-18
7674.18772 5.60201e-18
7676.13606 5.60044e-18
7678.08440 5.59886e-18
7680.03274 5.59729e-18
7681.98109 5.51970e-18
7683.92943 5.78070e-18
7685.87777 6.09338e-18
7687.81607 6.21287e-18
7689.76441 6.06425e-18
7691.71275 6.05756e-18
7693.66110 6.35442e-18
7695.60944 5.92289e-18
7697.55778 5.69232e-18
7699.50612 5.86764e-18
7701.45446 5.77968e-18
7703.40281 5.78405e-18
7705.35115 5.74392e-18
7707.29949 5.42469e-18
7709.24783 5.66986e-18
7711.19617 5.06152e-18
7713.13447 4.69306e-18
7715.08281 5.54046e-18
7717.03116 5.89397e-18
7718.97950 5.84305e-18
7720.92784 5.17081e-18
7722.87618 5.39574e-18
7724.82452 5.60204e-18
7726.77287 6.35033e-18
7728.72121 5.61254e-18
7730.66955 5.41558e-18
7732.61789 6.08974e-18
7734.56623 6.10506e-18
7736.50453 6.21779e-18
7738.45288 6.20494e-18
7740.40122 6.00655e-18
7742.34956 5.85181e-18
7744.29790 5.90655e-18
7746.24624 5.75892e-18
7748.19459 5.67650e-18
7750.14293 5.65927e-18
7752.09127 5.56205e-18
7754.03961 5.27347e-18
7755.98795 5.09515e-18
7757.93630 5.34702e-18
7759.88464 5.37846e-18
7761.82294 4.98385e-18
7763.77128 5.18345e-18
7765.71962 5.47664e-18
7767.66796 5.38061e-18
7769.61631 5.26079e-18
7771.56465 5.55772e-18
7773.51299 5.57507e-18
7775.46133 5.73760e-18
7777.40967 5.10177e-18
7779.35801 5.73522e-18
7781.30636 5.88918e-18
7783.25470 5.40012e-18
7785.19300 5.25526e-18
7787.14134 5.17348e-18
7789.08968 5.19926e-18
7791.03802 5.73774e-18
7792.98637 4.68651e-18
7794.93471 5.07051e-18
7796.88305 5.29564e-18
7798.83139 4.82899e-18
7800.77973 5.15265e-18
7802.72808 5.28447e-18
7804.67642 5.00189e-18
7806.62476 5.13726e-18
7808.57310 4.80012e-18
7810.51140 4.82417e-18
7812.45974 5.17832e-18
7814.40809 5.01035e-18
7816.35643 5.25548e-18
7818.30477 5.75858e-18
7820.25311 5.55474e-18
7822.20145 6.06017e-18
7824.14979 5.49166e-18
7826.09814 5.18361e-18
7828.04648 4.97930e-18
7829.99482 5.38395e-18
7831.94316 5.17341e-18
7833.88146 5.39533e-18
7835.82980 5.24160e-18
7837.77815 5.15415e-18
7839.72649 5.06285e-18
7841.67483 5.04431e-18
7843.62317 5.07762e-18
7845.57151 5.25124e-18
7847.51986 5.21935e-18
7849.46820 5.00779e-18
7851.41654 4.64645e-18
7853.36488 4.39014e-18
7855.31322 4.35254e-18
7857.26157 4.88628e-18
7859.19986 5.07525e-18
7861.14821 4.89328e-18
7863.09655 4.74177e-18
7865.04489 5.28709e-18
7866.99323 5.36062e-18
7868.94157 5.10437e-18
7870.88992 5.66163e-18
7872.83826 5.23030e-18
7874.78660 5.15863e-18
7876.73494 5.29415e-18
7878.68328 5.11153e-18
7880.63163 5.36389e-18
7882.56993 5.31221e-18
7884.51827 5.25999e-18
7886.46661 5.00507e-18
7888.41495 4.87426e-18
7890.36329 4.86921e-18
7892.31164 4.93931e-18
7894.25998 4.84652e-18
7896.20832 4.74474e-18
7898.15666 4.93619e-18
7900.10500 4.67478e-18
7902.05335 4.71689e-18
7904.00169 4.95191e-18
7905.95003 4.54908e-18
7907.88833 4.40581e-18
7909.83667 4.55026e-18
7911.78501 4.49165e-18
7913.73336 4.52014e-18
7915.68170 4.53282e-18
7917.63004 4.93079e-18
7919.57838 5.09827e-18
7921.52672 4.97203e-18
7923.47506 4.97583e-18
7925.42341 5.05180e-18
7927.37175 4.87332e-18
7929.32009 5.04859e-18
7931.25839 5.21840e-18
7933.20673 4.78610e-18
7935.15507 5.02875e-18
7937.10342 4.94632e-18
7939.05176 5.20111e-18
7941.00010 4.84078e-18
7942.94844 4.42785e-18
7944.89678 4.71890e-18
7946.84513 5.20476e-18
7948.79347 5.17563e-18
7950.74181 4.82958e-18
7952.69015 4.64650e-18
7954.63849 4.64558e-18
7956.57679 4.52639e-18
7958.52513 4.50352e-18
7960.47348 4.79618e-18
7962.42182 4.73271e-18
7964.37016 4.36744e-18
7966.31850 4.88164e-18
7968.26684 4.63392e-18
7970.21519 4.29051e-18
7972.16353 4.48175e-18
7974.11187 4.98787e-18
7976.06021 5.01333e-18
7978.00856 5.09501e-18
7979.95690 4.62464e-18
7981.89520 4.82232e-18
7983.84354 4.08394e-18
7985.79188 4.79086e-18
7987.74022 4.80599e-18
7989.68856 4.52702e-18
7991.63691 4.98332e-18
7993.58525 5.01237e-18
7995.53359 4.58043e-18
7997.48193 4.22563e-18
7999.43027 4.14026e-18
8001.37862 4.56111e-18
8003.32696 4.45836e-18
8005.26526 4.74151e-18
8007.21360 4.64665e-18
8009.16194 4.41324e-18
8011.11028 4.02885e-18
8013.05862 4.61228e-18
8015.00697 4.54159e-18
8016.95531 4.06755e-18
8018.90365 4.35328e-18
8020.85199 4.83983e-18
8022.80033 4.84278e-18
8024.74868 4.34721e-18
8026.69702 4.37387e-18
8028.64536 4.45763e-18
8030.58366 4.83455e-18
8032.53200 4.98139e-18
8034.48034 4.52084e-18
8036.42869 4.53772e-18
8038.37703 4.84115e-18
8040.32537 4.65771e-18
8042.27371 4.48863e-18
8044.22205 4.85205e-18
8046.17040 4.79523e-18
8048.11874 4.17136e-18
8050.06708 4.10056e-18
8052.01542 3.79338e-18
8053.96376 3.90724e-18
8055.90206 4.30369e-18
8057.85041 4.39689e-18
8059.79875 4.10678e-18
8061.74709 3.13771e-18
8063.69543 3.42249e-18
8065.64377 4.02396e-18
8067.59212 4.26797e-18
8069.54046 4.12273e-18
8071.48880 3.94644e-18
8073.43714 4.40726e-18
8075.38548 4.30054e-18
8077.33382 4.17691e-18
8079.27212 4.06235e-18
8081.22047 3.98720e-18
8083.16881 4.09430e-18
8085.11715 3.95809e-18
8087.06549 4.46128e-18
8089.01383 4.20925e-18
8090.96218 4.15551e-18
8092.91052 4.18719e-18
8094.85886 3.63681e-18
8096.80720 3.64464e-18
8098.75554 3.83058e-18
8100.70389 3.84555e-18
8102.65223 3.77487e-18
8104.59053 3.70728e-18
8106.53887 3.80249e-18
8108.48721 3.91221e-18
8110.43555 4.07677e-18
8112.38389 3.94740e-18
8114.33224 3.85047e-18
8116.28058 3.71868e-18
8118.22892 3.61434e-18
8120.17726 4.02817e-18
8122.12561 4.20286e-18
8124.07395 4.18860e-18
8126.02229 3.88163e-18
8127.96059 3.83231e-18
8129.90893 4.23759e-18
8131.85727 4.21409e-18
8133.80561 4.11305e-18
8135.75396 4.49198e-18
8137.70230 4.50624e-18
8139.65064 3.75617e-18
8141.59898 3.95972e-18
8143.54732 3.96007e-18
8145.49567 4.23906e-18
8147.44401 4.27290e-18
8149.39235 3.96177e-18
8151.34069 4.13345e-18
8153.27899 3.99044e-18
8155.22733 4.03746e-18
8157.17567 4.12089e-18
8159.12402 3.69061e-18
8161.07236 3.38440e-18
8163.02070 3.53890e-18
8164.96904 4.05204e-18
8166.91738 3.69877e-18
8168.86573 3.89092e-18
8170.81407 4.04917e-18
8172.76241 3.83951e-18
8174.71075 4.20160e-18
8176.65909 4.31587e-18
8178.59739 4.08024e-18
8180.54574 4.21239e-18
8182.49408 4.31113e-18
8184.44242 4.04378e-18
8186.39076 3.85598e-18
8188.33910 4.20286e-18
8190.28745 3.52602e-18
8192.23579 4.16231e-18
8194.18413 4.47003e-18
8196.13247 4.26890e-18
8198.08081 3.77079e-18
8200.01911 4.34667e-18
8201.96745 4.89839e-18
8203.91580 4.65083e-18
8205.86414 4.57537e-18
8207.81248 4.88727e-18
8209.76082 4.44608e-18
8211.70917 4.04798e-18
8213.65751 4.47574e-18
8215.60585 4.65429e-18
8217.55419 4.10504e-18
8219.50253 4.40323e-18
8221.45088 4.48292e-18
8223.39922 3.80577e-18
8225.33752 3.18247e-18
8227.28586 3.75702e-18
8229.23420 4.06102e-18
8231.18254 4.16908e-18
8233.13088 4.57374e-18
8235.07923 5.10638e-18
8237.02757 4.74757e-18
8238.97591 4.61996e-18
8240.92425 4.97630e-18
8242.87259 4.86008e-18
8244.82094 4.65720e-18
8246.76928 4.47163e-18
8248.71762 4.54828e-18
8250.65592 4.85848e-18
8252.60426 4.35222e-18
8254.55260 4.37574e-18
8256.50094 4.34354e-18
8258.44929 3.99351e-18
8260.39763 4.21861e-18
8262.34597 4.75119e-18
8264.29431 4.61677e-18
8266.24266 4.23712e-18
8268.19100 4.81104e-18
8270.13934 5.28560e-18
8272.08768 4.73407e-18
8274.02598 4.71639e-18
8275.97432 4.59394e-18
8277.92266 5.13274e-18
8279.87101 4.63715e-18
8281.81935 4.05546e-18
8283.76769 4.61268e-18
8285.71603 4.71023e-18
8287.66437 4.39073e-18
8289.61272 4.68828e-18
8291.56106 4.92333e-18
8293.50940 4.58579e-18
8295.45774 4.77787e-18
8297.40608 5.08577e-18
8299.34438 4.52533e-18
8301.29272 4.51820e-18
8303.24107 4.57158e-18
8305.18941 4.54521e-18
8307.13775 4.86351e-18
8309.08609 4.43907e-18
8311.03444 4.02318e-18
8312.98278 4.85764e-18
8314.93112 4.96772e-18
8316.87946 4.33560e-18
8318.82780 4.67922e-18
8320.77614 4.56813e-18
8322.71444 4.66789e-18
8324.66279 5.24354e-18
8326.61113 5.17344e-18
8328.55947 4.72480e-18
8330.50781 4.92726e-18
8332.45615 4.78409e-18
8334.40450 4.54373e-18
8336.35284 4.62569e-18
8338.30118 5.13063e-18
8340.24952 4.88571e-18
8342.19786 4.84832e-18
8344.14621 4.94482e-18
8346.09455 4.39954e-18
8348.03285 4.13913e-18
8349.98119 5.03953e-18
8351.92953 4.33582e-18
8353.87787 4.48414e-18
8355.82621 4.22450e-18
8357.77456 4.41070e-18
8359.72290 5.07584e-18
8361.67124 4.78867e-18
8363.61958 4.26258e-18
8365.56792 4.89116e-18
8367.51627 4.75717e-18
8369.46461 5.09346e-18
8371.41295 4.94461e-18
8373.35125 4.49668e-18
8375.29959 5.02771e-18
8377.24793 5.27377e-18
8379.19628 4.70256e-18
8381.14462 4.75669e-18
8383.09296 5.14350e-18
8385.04130 5.20878e-18
8386.98964 4.94298e-18
8388.93799 5.49788e-18
8390.88633 5.50652e-18
8392.83467 5.20271e-18
8394.78301 5.20977e-18
8396.72131 4.79300e-18
8398.66965 4.07731e-18
8400.61799 4.34577e-18
8402.56634 4.71644e-18
8404.51468 4.72855e-18
8406.46302 4.66052e-18
8408.41136 4.38315e-18
8410.35971 4.08599e-18
8412.30805 5.38053e-18
8414.25639 5.91827e-18
8416.20473 5.72763e-18
8418.15307 5.34745e-18
8420.10141 4.87444e-18
8422.03971 4.90513e-18
8423.98806 4.63096e-18
8425.93640 4.38877e-18
8427.88474 4.55907e-18
8429.83308 4.96521e-18
8431.78142 5.00259e-18
8433.72977 4.30150e-18
8435.67811 4.91448e-18
8437.62645 4.74829e-18
8439.57479 4.99816e-18
8441.52313 4.77853e-18
8443.47148 4.77104e-18
8445.40978 5.15085e-18
8447.35812 4.56538e-18
8449.30646 4.34687e-18
8451.25480 5.00306e-18
8453.20314 4.70084e-18
8455.15149 4.83961e-18
8457.09983 4.81842e-18
8459.04817 4.83521e-18
8460.99651 4.92975e-18
8462.94485 4.99676e-18
8464.89319 3.58669e-18
8466.84154 2.99365e-18
8468.78988 4.01636e-18
8470.72818 4.43463e-18
8472.67652 4.79612e-18
8474.62486 4.26129e-18
8476.57320 4.21066e-18
8478.52155 4.64582e-18
8480.46989 4.13980e-18
8482.41823 4.78131e-18
8484.36657 4.71670e-18
8486.31491 4.14321e-18
8488.26326 4.32722e-18
8490.21160 4.16067e-18
8492.15994 4.33622e-18
8494.09824 4.78704e-18
8496.04658 4.60915e-18
8497.99492 3.95998e-18
8499.94326 4.20454e-18
8501.89161 4.58976e-18
8503.83995 3.95847e-18
8505.78829 3.31859e-18
8507.73663 3.58755e-18
8509.68498 4.23658e-18
8511.63332 4.72084e-18
8513.58166 3.87873e-18
8515.53000 3.76809e-18
8517.47834 4.04572e-18
8519.41664 3.79637e-18
8521.36498 3.60899e-18
8523.31333 3.54140e-18
8525.26167 3.61773e-18
8527.21001 3.92645e-18
8529.15835 4.12515e-18
8531.10669 4.44107e-18
8533.05504 3.81380e-18
8535.00338 3.37853e-18
8536.95172 3.47567e-18
8538.90006 3.48180e-18
8540.84840 3.60931e-18
8542.78670 3.71511e-18
8544.73504 3.77921e-18
8546.68339 3.35835e-18
8548.63173 2.78321e-18
8550.58007 3.20108e-18
8552.52841 3.26869e-18
8554.47675 3.70712e-18
8556.42510 3.40283e-18
8558.37344 3.16286e-18
8560.32178 3.42716e-18
8562.27012 3.31125e-18
8564.21846 3.44201e-18
8566.16681 3.30309e-18
8568.10511 3.43923e-18
8570.05345 3.60411e-18
8572.00179 2.96556e-18
8573.95013 3.61337e-18
