# wavelength flux
3500.03451 4.72886e-18
3504.84183 1.58325e-18
3509.65933 1.22165e-17
3514.46666 2.72544e-17
3519.27397 1.72498e-17
3524.09148 -5.63969e-18
3528.89880 -5.10713e-18
3533.70612 -7.34212e-19
3538.52362 1.42741e-17
3543.33094 2.16266e-17
3548.13827 8.97610e-18
3552.95577 -6.17240e-18
3557.76309 1.00076e-17
3562.57041 1.72385e-17
3567.38791 1.30153e-17
3572.19523 1.42408e-17
3577.00256 1.77008e-17
3581.82006 3.10612e-17
3586.62738 1.00926e-17
3591.43470 -7.45496e-18
3596.25220 2.54593e-18
3601.05953 2.50836e-17
3605.86684 2.06825e-17
3610.68435 1.82145e-17
3615.49167 3.11718e-17
3620.29899 2.32110e-17
3625.11649 1.68476e-17
3629.92381 1.44479e-17
3634.73113 1.31335e-17
3639.54864 1.07289e-17
3644.35596 4.61520e-18
3649.16328 4.51752e-18
3653.98079 3.40410e-18
3658.78810 5.27276e-18
3663.59542 9.58720e-18
3668.41293 4.12998e-18
3673.22025 3.92103e-18
3678.02757 9.85033e-18
3682.84507 1.10614e-17
3687.65240 1.72242e-17
3692.45971 1.90723e-17
3697.27722 1.22089e-17
3702.08454 4.10131e-18
3706.89186 2.62620e-18
3711.70936 5.09996e-18
3716.51669 1.49679e-18
3721.32400 -5.62833e-19
3726.14151 4.72338e-18
3730.94883 1.00859e-17
3735.75615 1.30263e-17
3740.57366 1.28004e-17
3745.38097 5.93905e-18
3750.18829 5.85053e-18
3755.00580 1.23064e-17
3759.81312 1.01487e-17
3764.62044 4.72019e-18
3769.43794 4.80617e-18
3774.24527 8.05851e-18
3779.05258 7.87375e-18
3783.87009 7.68912e-18
3788.67741 7.50465e-18
3793.48473 7.32033e-18
3798.30223 7.13614e-18
3803.10956 6.95210e-18
3807.91687 6.76820e-18
3812.72419 6.58443e-18
3817.54170 6.40080e-18
3822.34902 7.26279e-18
3827.15634 5.37692e-18
3831.97384 6.08981e-18
3836.78116 8.10574e-18
3841.58848 7.57375e-18
3846.40599 5.73459e-18
3851.21331 3.31523e-18
3856.02063 4.62243e-18
3860.83813 9.66974e-18
3865.64545 1.17524e-17
3870.45277 7.80186e-18
3875.27028 6.42373e-18
3880.07760 1.18503e-17
3884.88492 8.48181e-18
3889.70242 9.76360e-18
3894.50974 9.37551e-18
3899.31706 1.14006e-17
3904.13457 9.62893e-18
3908.94189 8.80786e-18
3913.74921 7.95317e-18
3918.56671 7.53751e-18
3923.37403 7.52852e-18
3928.18135 7.12488e-18
3932.99886 8.21541e-18
3937.80618 9.68738e-18
3942.61350 1.07960e-17
3947.43100 1.05610e-17
3952.23832 9.49218e-18
3957.04565 9.22998e-18
3961.86315 7.40246e-18
3966.67047 1.05649e-17
3971.47779 1.49212e-17
3976.29529 1.39881e-17
3981.10261 1.18147e-17
3985.90994 1.26397e-17
3990.72744 1.45647e-17
3995.53476 1.44632e-17
4000.34208 1.27815e-17
4005.15958 1.27659e-17
4009.96690 1.35719e-17
4014.77422 1.20911e-17
4019.59173 1.08689e-17
4024.39905 1.11971e-17
4029.20637 9.73876e-18
4034.02387 7.86534e-18
4038.83119 6.98260e-18
4043.63852 7.80595e-18
4048.45602 8.05830e-18
4053.26334 7.71922e-18
4058.07066 8.76205e-18
4062.88816 9.18820e-18
4067.69548 1.02621e-17
4072.50281 1.20509e-17
4077.32031 1.17537e-17
4082.12763 1.29687e-17
4086.93495 1.52174e-17
4091.75245 1.55491e-17
4096.55977 1.56697e-17
4101.36709 1.59349e-17
4106.18460 1.66676e-17
4110.99192 1.81020e-17
4115.79924 1.88526e-17
4120.61675 1.83873e-17
4125.42406 1.70499e-17
4130.23139 1.58346e-17
4135.04889 1.51325e-17
4139.85621 1.36017e-17
4144.66353 1.38495e-17
4149.48103 1.42017e-17
4154.28835 1.27341e-17
4159.09567 1.11135e-17
4163.91318 1.11667e-17
4168.72050 1.22813e-17
4173.52782 1.20033e-17
4178.34532 1.18483e-17
4183.15265 1.15985e-17
4187.95997 1.12613e-17
4192.77747 1.08211e-17
4197.58479 1.05545e-17
4202.39211 1.06198e-17
4207.20961 1.07464e-17
4212.01693 1.06739e-17
4216.82425 1.02956e-17
4221.64176 1.06797e-17
4226.44908 1.08044e-17
4231.25640 1.03832e-17
4236.07391 9.92261e-18
4240.88123 9.80745e-18
4245.68854 9.98864e-18
4250.50605 9.22090e-18
4255.31337 9.13897e-18
4260.12069 9.13217e-18
4264.93819 8.63375e-18
4269.74551 7.96425e-18
4274.55283 7.99543e-18
4279.37034 7.77154e-18
4284.17766 7.39070e-18
4288.98498 7.05366e-18
4293.80249 6.41147e-18
4298.60980 6.67932e-18
4303.41712 7.18512e-18
4308.23463 7.05959e-18
4313.04195 6.78374e-18
4317.84927 7.14143e-18
4322.66677 7.66489e-18
4327.47409 8.32839e-18
4332.28142 8.97413e-18
4337.09892 8.74054e-18
4341.90624 8.51816e-18
4346.71356 8.92031e-18
4351.53106 8.72708e-18
4356.33839 8.09878e-18
4361.14570 7.84145e-18
4365.95302 8.49577e-18
4370.77053 9.63747e-18
4375.57785 9.54073e-18
4380.39535 9.52627e-18
4385.20268 9.31670e-18
4390.01000 8.51567e-18
4394.82750 7.94417e-18
4399.63482 8.31562e-18
4404.44214 8.54586e-18
4409.25965 8.53603e-18
4414.06696 9.12598e-18
4418.87428 9.86071e-18
4423.68160 9.82864e-18
4428.49911 9.67305e-18
4433.30643 9.51755e-18
4438.11375 9.36213e-18
4442.93125 9.20677e-18
4447.73857 9.05152e-18
4452.54590 8.89637e-18
4457.36340 8.74130e-18
4462.17072 8.58632e-18
4466.97804 8.43142e-18
4471.79554 8.48363e-18
4476.60286 8.12446e-18
4481.41018 7.88265e-18
4486.22769 8.00895e-18
4491.03501 8.24279e-18
4495.84233 8.13129e-18
4500.65983 7.69999e-18
4505.46716 7.59421e-18
4510.27448 7.86119e-18
4515.09198 8.27500e-18
4519.89930 8.18037e-18
4524.70662 8.03753e-18
4529.52412 7.65689e-18
4534.33144 7.77664e-18
4539.13876 8.17927e-18
4543.95627 7.99656e-18
4548.76359 8.01514e-18
4553.57091 8.13042e-18
4558.38842 8.14648e-18
4563.19574 8.63425e-18
4568.00305 9.49078e-18
4572.82056 9.58622e-18
4577.62788 9.67647e-18
4582.43520 9.89314e-18
4587.25270 1.00155e-17
4592.06002 1.04490e-17
4596.86734 1.13918e-17
4601.68485 1.22694e-17
4606.49217 1.27287e-17
4611.29949 1.28494e-17
4616.11700 1.34741e-17
4620.92431 1.41567e-17
4625.73164 1.44650e-17
4630.54914 1.51907e-17
4635.35646 1.56869e-17
4640.16378 1.56132e-17
4644.98128 1.59346e-17
4649.78860 1.61615e-17
4654.59592 1.65049e-17
4659.41343 1.74608e-17
4664.22075 1.80168e-17
4669.02807 1.80559e-17
4673.84557 1.84712e-17
4678.65290 1.89582e-17
4683.46022 1.91229e-17
4688.27772 1.89089e-17
4693.08504 1.83889e-17
4697.89236 1.82556e-17
4702.70986 1.86421e-17
4707.51718 1.89020e-17
4712.32450 1.91789e-17
4717.14201 1.96008e-17
4721.94933 1.89779e-17
4726.75665 1.80634e-17
4731.57416 1.78539e-17
4736.38148 1.75251e-17
4741.18879 1.73321e-17
4746.00630 1.71269e-17
4750.81362 1.65348e-17
4755.62094 1.61302e-17
4760.43844 1.56689e-17
4765.24576 1.48156e-17
4770.05308 1.39263e-17
4774.87059 1.29993e-17
4779.67791 1.19070e-17
4784.48523 1.12797e-17
4789.30274 1.06550e-17
4794.11005 1.00486e-17
4798.91737 9.54279e-18
4803.73488 9.15935e-18
4808.54220 9.17137e-18
4813.34952 9.82620e-18
4818.16702 1.04594e-17
4822.97434 1.08398e-17
4827.78166 1.15637e-17
4832.59917 1.18793e-17
4837.40649 1.22693e-17
4842.21381 1.27168e-17
4847.03131 1.27282e-17
4851.83864 1.28283e-17
4856.64595 1.30328e-17
4861.46346 1.34758e-17
4866.27078 1.39983e-17
4871.07810 1.41841e-17
4875.89560 1.43339e-17
4880.70292 1.46098e-17
4885.51025 1.42100e-17
4890.32775 1.34722e-17
4895.13507 1.27052e-17
4899.94239 1.25812e-17
4904.75990 1.26190e-17
4909.56722 1.20445e-17
4914.37453 1.15957e-17
4919.19204 1.16362e-17
4923.99936 1.17987e-17
4928.80668 1.19909e-17
4933.62418 1.23074e-17
4938.43150 1.26237e-17
4943.23882 1.29398e-17
4948.05633 1.32557e-17
4952.86365 1.35714e-17
4957.67097 1.38868e-17
4962.48848 1.42021e-17
4967.29579 1.45171e-17
4972.10311 1.48320e-17
4976.92062 1.46309e-17
4981.72794 1.42613e-17
4986.53526 1.34994e-17
4991.35276 1.30473e-17
4996.16008 1.27543e-17
5000.96741 1.25609e-17
5005.77473 1.23499e-17
5010.59223 1.25965e-17
5015.39955 1.26566e-17
5020.20687 1.22826e-17
5025.02437 1.24634e-17
5029.83169 1.31269e-17
5034.63901 1.34323e-17
5039.45652 1.37375e-17
5044.26384 1.40426e-17
5049.07116 1.43475e-17
5053.88867 1.46521e-17
5058.69599 1.49566e-17
5063.50330 1.52609e-17
5068.32081 1.55650e-17
5073.12813 1.58689e-17
5077.93545 1.56734e-17
5082.75295 1.54271e-17
5087.56027 1.51810e-17
5092.36759 1.49351e-17
5097.18510 1.46893e-17
5101.99242 1.44437e-17
5106.79974 1.41983e-17
5111.61725 1.39530e-17
5116.42456 1.37079e-17
5121.23189 1.34629e-17
5126.04939 1.27139e-17
5130.85671 1.18271e-17
5135.66403 1.13104e-17
5140.48153 1.09077e-17
5145.28885 1.04399e-17
5150.09617 1.01117e-17
5154.91368 9.88257e-18
5159.72100 9.70417e-18
5164.52832 9.63130e-18
5169.34582 9.52532e-18
5174.15315 9.51297e-18
5178.96047 9.77193e-18
5183.77797 1.00551e-17
5188.58529 1.02538e-17
5193.39261 1.05352e-17
5198.21011 1.08037e-17
5203.01743 1.10249e-17
5207.82475 1.12676e-17
5212.64226 1.14550e-17
5217.44958 1.15616e-17
5222.25690 1.15757e-17
5227.07441 1.17463e-17
5231.88173 1.21232e-17
5236.68904 1.24924e-17
5241.50655 1.24658e-17
5246.31387 1.20615e-17
5251.12119 1.22541e-17
5255.93869 1.26881e-17
5260.74601 1.25848e-17
5265.55333 1.26167e-17
5270.37084 1.27491e-17
5275.17816 1.24423e-17
5279.98548 1.22883e-17
5284.80299 1.23433e-17
5289.61030 1.24761e-17
5294.41763 1.25438e-17
5299.23513 1.22328e-17
5304.04245 1.22462e-17
5308.84977 1.24228e-17
5313.66727 1.23960e-17
5318.47459 1.25442e-17
5323.28191 1.26862e-17
5328.09942 1.29352e-17
5332.90674 1.31339e-17
5337.71406 1.30877e-17
5342.53156 1.31931e-17
5347.33889 1.35768e-17
5352.14621 1.38580e-17
5356.96371 1.41322e-17
5361.77103 1.42626e-17
5366.57835 1.42901e-17
5371.39585 1.47634e-17
5376.20317 1.53082e-17
5381.01050 1.57634e-17
5385.82800 1.61292e-17
5390.63532 1.62213e-17
5395.44264 1.62931e-17
5400.26015 1.64683e-17
5405.06747 1.67025e-17
5409.87478 1.67900e-17
5414.69229 1.68641e-17
5419.49961 1.71760e-17
5424.30693 1.75965e-17
5429.12443 1.79877e-17
5433.93175 1.79154e-17
5438.73907 1.76672e-17
5443.55658 1.74250e-17
5448.36390 1.75896e-17
5453.17122 1.79385e-17
5457.98873 1.80089e-17
5462.79604 1.80777e-17
5467.60336 1.80589e-17
5472.42087 1.82706e-17
5477.22819 1.83110e-17
5482.03551 1.83487e-17
5486.85301 1.82824e-17
5491.66033 1.80910e-17
5496.46765 1.82811e-17
5501.28516 1.83952e-17
5506.09248 1.81128e-17
5510.89980 1.77294e-17
5515.71730 1.74958e-17
5520.52463 1.70706e-17
5525.33194 1.69265e-17
5530.14945 1.70315e-17
5534.95677 1.69766e-17
5539.76409 1.67935e-17
5544.58159 1.66599e-17
5549.38891 1.67525e-17
5554.19624 1.67157e-17
5559.01374 1.63196e-17
5563.82106 1.61162e-17
5568.62838 1.62623e-17
5573.44589 1.66205e-17
5578.25320 1.73883e-17
5583.06052 1.79183e-17
5587.87803 1.83546e-17
5592.68535 1.86325e-17
5597.49267 1.85596e-17
5602.29999 1.92509e-17
5607.11750 1.95909e-17
5611.92481 1.94376e-17
5616.73214 1.94484e-17
5621.54964 1.97421e-17
5626.35696 1.98171e-17
5631.16428 1.93093e-17
5635.98178 1.89379e-17
5640.78910 1.90794e-17
5645.59642 1.94028e-17
5650.41393 1.92983e-17
5655.22125 1.93374e-17
5660.02857 1.92591e-17
5664.84607 1.85827e-17
5669.65340 1.80208e-17
5674.47090 1.73431e-17
5679.27822 1.66470e-17
5684.08554 1.64054e-17
5688.89286 1.60008e-17
5693.71036 1.57489e-17
5698.51768 1.57992e-17
5703.32500 1.58633e-17
5708.14251 1.59048e-17
5712.94983 1.57224e-17
5717.75715 1.59426e-17
5722.57465 1.61646e-17
5727.38198 1.57748e-17
5732.18929 1.57073e-17
5737.00680 1.59345e-17
5741.81412 1.58538e-17
5746.62144 1.54736e-17
5751.43894 1.51774e-17
5756.24626 1.50200e-17
5761.05358 1.44808e-17
5765.87109 1.38428e-17
5770.67841 1.35235e-17
5775.48573 1.29218e-17
5780.30324 1.20119e-17
5785.11055 1.15587e-17
5789.91788 1.15227e-17
5794.73538 1.12922e-17
5799.54270 1.10304e-17
5804.35002 1.12250e-17
5809.16752 1.11147e-17
5813.97484 1.04199e-17
5818.78216 1.00480e-17
5823.59967 9.90944e-18
5828.40699 9.50578e-18
5833.21431 8.94761e-18
5838.03181 8.64176e-18
5842.83914 8.42864e-18
5847.64646 8.26246e-18
5852.46396 8.14444e-18
5857.27128 8.17643e-18
5862.07860 8.12815e-18
5866.89610 8.21269e-18
5871.70342 8.54731e-18
5876.51075 8.92537e-18
5881.32825 8.89331e-18
5886.13557 8.79564e-18
5890.94289 9.12931e-18
5895.76040 9.52057e-18
5900.56772 1.05214e-17
5905.37503 1.19555e-17
5910.19254 1.30786e-17
5914.99986 1.37403e-17
5919.80718 1.47165e-17
5924.62468 1.55051e-17
5929.43200 1.55082e-17
5934.23932 1.60713e-17
5939.05683 1.67322e-17
5943.86415 1.71033e-17
5948.67147 1.81969e-17
5953.48898 1.91722e-17
5958.29629 1.94197e-17
5963.10361 1.95865e-17
5967.92112 1.98951e-17
5972.72844 2.01149e-17
5977.53576 2.02040e-17
5982.35326 2.02579e-17
5987.16058 2.01943e-17
5991.96790 2.00634e-17
5996.78541 1.99939e-17
6001.59273 1.99997e-17
6006.40005 2.01210e-17
6011.21755 2.00236e-17
6016.02488 2.00469e-17
6020.83219 2.00208e-17
6025.64970 1.99221e-17
6030.45702 2.01551e-17
6035.26434 1.99613e-17
6040.08184 1.98772e-17
6044.88916 1.99827e-17
6049.69649 1.95816e-17
6054.51399 1.93496e-17
6059.32131 1.94817e-17
6064.12863 1.91575e-17
6068.94614 1.88140e-17
6073.75346 1.88124e-17
6078.56077 1.86293e-17
6083.37828 1.85237e-17
6088.18560 1.82528e-17
6092.99292 1.77401e-17
6097.81042 1.76143e-17
6102.61775 1.75387e-17
6107.42506 1.77182e-17
6112.24257 1.77112e-17
6117.04989 1.71353e-17
6121.85721 1.67433e-17
6126.67472 1.68965e-17
6131.48203 1.69229e-17
6136.28935 1.70021e-17
6141.10686 1.67090e-17
6145.91418 1.59611e-17
6150.72150 1.56387e-17
6155.53900 1.56452e-17
6160.34632 1.56326e-17
6165.15364 1.56691e-17
6169.97115 1.55324e-17
6174.77847 1.50079e-17
6179.58579 1.48407e-17
6184.39311 1.46670e-17
6189.21061 1.44454e-17
6194.01793 1.42770e-17
6198.82525 1.39681e-17
6203.64276 1.39317e-17
6208.45008 1.43610e-17
6213.25740 1.48183e-17
6218.07490 1.49687e-17
6222.88223 1.51270e-17
6227.69973 1.51907e-17
6232.50705 1.47850e-17
6237.31437 1.44758e-17
6242.12169 1.45522e-17
6246.93919 1.45234e-17
6251.74651 1.44354e-17
6256.56402 1.43658e-17
6261.37134 1.42066e-17
6266.17866 1.39608e-17
6270.98598 1.37965e-17
6275.80349 1.34366e-17
6280.61080 1.30999e-17
6285.41813 1.29333e-17
6290.23563 1.31282e-17
6295.04295 1.34092e-17
6299.85027 1.36953e-17
6304.66777 1.40767e-17
6309.47509 1.44318e-17
6314.28241 1.44142e-17
6319.09992 1.42274e-17
6323.90724 1.43054e-17
6328.71456 1.41719e-17
6333.53206 1.41598e-17
6338.33939 1.44999e-17
6343.14671 1.43673e-17
6347.96421 1.42192e-17
6352.77153 1.42257e-17
6357.57885 1.40848e-17
6362.39635 1.39671e-17
6367.20367 1.39604e-17
6372.01100 1.38613e-17
6376.82850 1.40881e-17
6381.63582 1.41579e-17
6386.44314 1.40235e-17
6391.26064 1.39937e-17
6396.06797 1.38601e-17
6400.87528 1.38216e-17
6405.69279 1.36580e-17
6410.50011 1.36010e-17
6415.30743 1.36769e-17
6420.12493 1.36409e-17
6424.93225 1.34056e-17
6429.73957 1.32788e-17
6434.55708 1.32323e-17
6439.36440 1.32162e-17
6444.17172 1.30972e-17
6448.98923 1.27667e-17
6453.79654 1.22611e-17
6458.60387 1.17829e-17
6463.42137 1.18236e-17
6468.22869 1.21601e-17
6473.03601 1.21166e-17
6477.85351 1.19481e-17
6482.66083 1.19088e-17
6487.46815 1.19298e-17
6492.28566 1.20686e-17
6497.09298 1.21865e-17
6501.90030 1.26912e-17
6506.71780 1.34232e-17
6511.52513 1.42703e-17
6516.33245 1.53546e-17
6521.14995 1.60351e-17
6525.95727 1.64267e-17
6530.76459 1.67501e-17
6535.58209 1.69923e-17
6540.38941 1.73979e-17
6545.19674 1.78674e-17
6550.01424 1.82761e-17
6554.82156 1.87088e-17
6559.62888 1.90951e-17
6564.44639 1.95188e-17
6569.25371 1.98238e-17
6574.06102 2.02015e-17
6578.87853 2.07988e-17
6583.68585 2.11267e-17
6588.49317 2.11074e-17
6593.31067 2.11141e-17
6598.11800 2.11904e-17
6602.92531 2.12210e-17
6607.74282 2.13518e-17
6612.55014 2.13472e-17
6617.35746 2.11493e-17
6622.17497 2.10596e-17
6626.98228 2.08594e-17
6631.78960 2.05364e-17
6636.60711 2.01576e-17
6641.41443 1.97570e-17
6646.22175 1.96620e-17
6651.03925 1.95435e-17
6655.84657 1.96173e-17
6660.65389 1.96910e-17
6665.47140 1.97648e-17
6670.27872 1.98385e-17
6675.08604 1.99123e-17
6679.90354 1.99860e-17
6684.71087 2.00596e-17
6689.51818 2.01333e-17
6694.33569 2.02069e-17
6699.14301 2.02806e-17
6703.95033 2.03542e-17
6708.76783 2.04277e-17
6713.57515 2.05013e-17
6718.38248 2.05748e-17
6723.19998 2.07692e-17
6728.00730 2.12954e-17
6732.81462 2.12502e-17
6737.63213 2.12328e-17
6742.43944 2.15898e-17
6747.24676 2.17537e-17
6752.06427 2.16461e-17
6756.87159 2.15314e-17
6761.67891 2.14276e-17
6766.48623 2.15023e-17
6771.30374 2.16385e-17
6776.11105 2.15364e-17
6780.92856 2.15982e-17
6785.73588 2.13526e-17
6790.54320 2.10359e-17
6795.35052 2.09896e-17
6800.16802 2.07926e-17
6804.97534 2.03094e-17
6809.79285 2.01883e-17
6814.60017 2.05795e-17
6819.40749 2.05164e-17
6824.21481 1.98746e-17
6829.03231 1.94869e-17
6833.83963 1.96043e-17
6838.65714 1.98442e-17
6843.46446 1.99073e-17
6848.27178 1.96105e-17
6853.07910 1.93138e-17
6857.89660 1.90172e-17
6862.70392 1.87206e-17
6867.51125 1.84242e-17
6872.32875 1.81278e-17
6877.13607 1.78315e-17
6881.94339 1.75352e-17
6886.76089 1.72391e-17
6891.56822 1.69431e-17
6896.37553 1.66471e-17
6901.19304 1.63512e-17
6906.00036 1.60554e-17
6910.80768 1.57597e-17
6915.62518 1.54641e-17
6920.43250 1.51685e-17
6925.23982 1.48731e-17
6930.05733 1.45777e-17
6934.86465 1.42824e-17
6939.67197 1.39872e-17
6944.48948 1.39856e-17
6949.29679 1.39605e-17
6954.10412 1.41735e-17
6958.92162 1.42906e-17
6963.72894 1.41436e-17
6968.53626 1.38470e-17
6973.35376 1.34099e-17
6978.16108 1.34927e-17
6982.96840 1.36901e-17
6987.78591 1.34139e-17
6992.59323 1.31318e-17
6997.40055 1.29725e-17
7002.21805 1.28837e-17
7007.02538 1.26303e-17
7011.83270 1.21193e-17
7016.65020 1.21281e-17
7021.45752 1.21534e-17
7026.26484 1.20280e-17
7031.08234 1.20018e-17
7035.88966 1.18503e-17
7040.69699 1.15587e-17
7045.51449 1.11352e-17
7050.32181 1.10340e-17
7055.12913 1.11959e-17
7059.94663 1.12528e-17
7064.75396 1.13813e-17
7069.56127 1.14503e-17
7074.37878 1.14008e-17
7079.18610 1.17109e-17
7083.99342 1.20359e-17
7088.81092 1.21446e-17
7093.61825 1.23155e-17
7098.42556 1.25271e-17
7103.24307 1.26309e-17
7108.05039 1.31059e-17
7112.85771 1.38456e-17
7117.67522 1.37582e-17
7122.48253 1.36308e-17
7127.28985 1.40885e-17
7132.10736 1.45178e-17
7136.91468 1.45478e-17
7141.72200 1.43488e-17
7146.53950 1.41932e-17
7151.34682 1.39410e-17
7156.15414 1.33905e-17
7160.97165 1.28741e-17
7165.77897 1.31138e-17
7170.58629 1.40072e-17
7175.40379 1.47314e-17
7180.21112 1.51199e-17
7185.01843 1.53408e-17
7189.83594 1.58223e-17
7194.64326 1.59852e-17
7199.45058 1.56047e-17
7204.26808 1.49902e-17
7209.07540 1.43092e-17
7213.88273 1.41260e-17
7218.70023 1.41427e-17
7223.50755 1.38322e-17
7228.31487 1.34254e-17
7233.13238 1.32777e-17
7237.93970 1.33043e-17
7242.74701 1.34988e-17
7247.56452 1.33482e-17
7252.37184 1.28371e-17
7257.17916 1.26211e-17
7261.99666 1.25238e-17
7266.80399 1.24747e-17
7271.61130 1.21910e-17
7276.42881 1.19229e-17
7281.23613 1.17915e-17
7286.04345 1.16540e-17
7290.86096 1.17160e-17
7295.66827 1.17885e-17
7300.47559 1.15660e-17
7305.29310 1.12815e-17
7310.10042 1.10573e-17
7314.90774 1.13720e-17
7319.72525 1.16187e-17
7324.53256 1.15925e-17
7329.33988 1.16753e-17
7334.15739 1.15681e-17
7338.96471 1.18137e-17
7343.77203 1.22870e-17
7348.57935 1.21016e-17
7353.39685 1.15568e-17
7358.20417 1.14684e-17
7363.02168 1.14768e-17
7367.82900 1.11555e-17
7372.63632 1.12229e-17
7377.44364 1.16736e-17
7382.26114 1.19242e-17
7387.06847 1.18468e-17
7391.88597 1.20940e-17
7396.69329 1.25238e-17
7401.50061 1.23596e-17
7406.30793 1.19495e-17
7411.12543 1.19801e-17
7415.93275 1.21964e-17
7420.75026 1.21480e-17
7425.55758 1.18114e-17
7430.36490 1.14564e-17
7435.17222 1.14404e-17
7439.98973 1.14823e-17
7444.79704 1.13512e-17
7449.60436 1.13496e-17
7454.42187 1.13305e-17
7459.22919 1.11711e-17
7464.03651 1.08474e-17
7468.85401 1.06384e-17
7473.66133 1.05434e-17
7478.46865 1.05782e-17
7483.28616 1.08163e-17
7488.09348 1.09639e-17
7492.90080 1.08519e-17
7497.71830 1.04194e-17
7502.52562 1.03826e-17
7507.33295 1.04481e-17
7512.15045 1.03385e-17
7516.95777 1.03335e-17
7521.76509 1.04063e-17
7526.58259 1.07046e-17
7531.38991 1.08360e-17
7536.19724 1.06222e-17
7541.01474 1.03938e-17
7545.82206 1.01315e-17
7550.62938 1.00838e-17
7555.44688 1.00362e-17
7560.25421 9.98848e-18
7565.06152 9.94082e-18
7569.87903 9.89317e-18
7574.68635 9.84554e-18
7579.49367 9.79792e-18
7584.31117 9.75031e-18
7589.11849 9.70272e-18
7593.92581 9.65515e-18
7598.74332 9.60758e-18
7603.55064 9.56003e-18
7608.35796 9.51250e-18
7613.17547 9.46498e-18
7617.98278 9.41747e-18
7622.79011 9.36997e-18
7627.60761 9.32250e-18
7632.41493 9.27503e-18
7637.22225 9.22758e-18
7642.03975 9.18014e-18
7646.84707 9.13272e-18
7651.65439 9.08532e-18
7656.47190 9.03793e-18
7661.27922 8.99054e-18
7666.08654 8.94317e-18
7670.90404 8.89582e-18
7675.71137 8.84849e-18
7680.51869 8.80117e-18
7685.33619 8.94782e-18
7690.14351 9.11875e-18
7694.95083 8.84017e-18
7699.76833 8.75904e-18
7704.57565 8.93599e-18
7709.38298 8.74401e-18
7714.20048 8.19560e-18
7719.00780 7.93851e-18
7723.81512 8.15654e-18
7728.63262 8.14250e-18
7733.43995 7.81482e-18
7738.24726 7.80128e-18
7743.06477 7.90238e-18
7747.87209 8.05862e-18
7752.67941 7.84455e-18
7757.49691 7.41798e-18
7762.30424 7.10338e-18
7767.11155 6.96267e-18
7771.92906 6.96448e-18
7776.73638 6.95061e-18
7781.54370 6.80344e-18
7786.36121 6.61354e-18
7791.16852 6.46003e-18
7795.97584 6.06656e-18
7800.79335 6.17341e-18
7805.60067 6.64999e-18
7810.40799 6.89539e-18
7815.22550 7.09375e-18
7820.03281 7.35301e-18
7824.84013 7.64250e-18
7829.65764 7.79954e-18
7834.46496 7.93356e-18
7839.27228 8.26814e-18
7844.08978 8.25853e-18
7848.89711 8.30922e-18
7853.70442 8.25943e-18
7858.52193 8.20337e-18
7863.32925 8.22460e-18
7868.13657 8.80752e-18
7872.95407 9.27330e-18
7877.76139 9.45653e-18
7882.56872 9.72392e-18
7887.38622 9.70080e-18
7892.19354 9.29800e-18
7897.00086 8.97627e-18
7901.81837 9.23512e-18
7906.62568 9.72168e-18
7911.43300 1.00208e-17
7916.25051 1.00187e-17
7921.05783 9.95857e-18
7925.86515 9.74351e-18
7930.68265 9.08115e-18
7935.48998 8.56555e-18
7940.29729 8.68073e-18
7945.11480 9.00388e-18
7949.92212 9.27969e-18
7954.72944 9.41048e-18
7959.53676 9.37543e-18
7964.35426 9.33723e-18
7969.16158 9.43929e-18
7973.97909 9.30805e-18
7978.78641 9.10101e-18
7983.59373 9.19859e-18
7988.41124 9.25418e-18
7993.21855 9.18944e-18
7998.02587 9.12045e-18
8002.84338 8.86100e-18
8007.65070 8.69548e-18
8012.45802 8.63068e-18
8017.27552 8.67793e-18
8022.08284 8.67041e-18
8026.89016 8.45464e-18
8031.69748 8.43001e-18
8036.51499 8.64884e-18
8041.32231 8.50980e-18
8046.12963 8.17895e-18
8050.94713 7.87834e-18
8055.75446 7.59482e-18
8060.56177 7.70817e-18
8065.37928 7.60474e-18
8070.18660 7.56715e-18
8074.99392 7.74790e-18
8079.81142 7.87917e-18
8084.61874 7.93718e-18
8089.42606 7.84957e-18
8094.24357 7.69836e-18
8099.05089 7.42574e-18
8103.85821 7.03714e-18
8108.67572 6.86103e-18
8113.48303 6.87476e-18
8118.29035 6.90343e-18
8123.10786 6.81728e-18
8127.91518 6.68194e-18
8132.72250 6.61438e-18
8137.54000 6.65484e-18
8142.34732 6.72575e-18
8147.15464 6.60591e-18
8151.97215 6.19158e-18
8156.77947 5.88267e-18
8161.58679 5.92674e-18
8166.40429 5.96530e-18
8171.21161 6.00119e-18
8176.01894 6.05110e-18
8180.83644 5.82814e-18
8185.64376 5.68855e-18
8190.45108 5.86005e-18
8195.26858 5.97164e-18
8200.07590 6.02561e-18
8204.88322 6.09084e-18
8209.70073 5.87603e-18
8214.50805 4.91960e-18
8219.31537 2.95568e-18
8224.13287 2.95522e-18
