# wavelength flux
3459.43738 1.28627e-17
3462.39228 1.23064e-17
3465.34719 1.21653e-17
3468.29201 1.27013e-17
3471.24691 1.33900e-17
3474.20182 1.35533e-17
3477.15672 1.46866e-17
3480.11163 1.36078e-17
3483.06653 1.18503e-17
3486.02144 1.26951e-17
3488.97635 1.25236e-17
3491.93125 1.24203e-17
3494.88615 1.29321e-17
3497.84106 1.30608e-17
3500.79596 1.30649e-17
3503.75087 1.34195e-17
3506.70577 1.36082e-17
3509.66068 1.34645e-17
3512.61559 1.43679e-17
3515.57049 1.42725e-17
3518.52539 1.32743e-17
3521.48030 1.24590e-17
3524.43520 1.27932e-17
3527.39011 1.35062e-17
3530.34501 1.30420e-17
3533.29992 1.24364e-17
3536.25482 1.29535e-17
3539.20973 1.33339e-17
3542.16463 1.32297e-17
3545.11954 1.34376e-17
3548.07444 1.40363e-17
3551.02935 1.47549e-17
3553.98425 1.49205e-17
3556.93916 1.50824e-17
3559.89406 1.45885e-17
3562.84897 1.30927e-17
3565.80387 1.36171e-17
3568.75878 1.54493e-17
3571.70360 1.57191e-17
3574.65850 1.55023e-17
3577.61341 1.52810e-17
3580.56831 1.47664e-17
3583.52322 1.48008e-17
3586.47812 1.42165e-17
3589.43303 1.50920e-17
3592.38793 1.56974e-17
3595.34284 1.50739e-17
3598.29774 1.45895e-17
3601.25265 1.44077e-17
3604.20755 1.46110e-17
3607.16246 1.49726e-17
3610.11737 1.53387e-17
3613.07227 1.57020e-17
3616.02718 1.53452e-17
3618.98208 1.56406e-17
3621.93698 1.56309e-17
3624.89189 1.56530e-17
3627.84679 1.62190e-17
3630.80170 1.60299e-17
3633.75661 1.57280e-17
3636.71151 1.57711e-17
3639.66641 1.57175e-17
3642.62132 1.59164e-17
3645.57622 1.59656e-17
3648.53113 1.64395e-17
3651.48603 1.70916e-17
3654.44094 1.71989e-17
3657.39585 1.72671e-17
3660.35075 1.68862e-17
3663.30565 1.60964e-17
3666.26056 1.57629e-17
3669.21546 1.66728e-17
3672.17037 1.69213e-17
3675.11519 1.71548e-17
3678.07010 1.72888e-17
3681.02500 1.67726e-17
3683.97990 1.69657e-17
3686.93481 1.69045e-17
3689.88971 1.69705e-17
3692.84462 1.73299e-17
3695.79952 1.75766e-17
3698.75443 1.74848e-17
3701.70934 1.76314e-17
3704.66424 1.84006e-17
3707.61914 1.83586e-17
3710.57405 1.76276e-17
3713.52895 1.65845e-17
3716.48386 1.69976e-17
3719.43876 1.77103e-17
3722.39367 1.77567e-17
3725.34857 1.74745e-17
3728.30348 1.77107e-17
3731.25838 1.74971e-17
3734.21329 1.78979e-17
3737.16819 1.88896e-17
3740.12310 1.88251e-17
3743.07800 1.87636e-17
3746.03291 1.87022e-17
3748.98781 1.86409e-17
3751.94272 1.85795e-17
3754.89762 1.85182e-17
3757.85253 1.84570e-17
3760.80744 1.83958e-17
3763.76234 1.83346e-17
3766.71724 1.82734e-17
3769.67215 1.82123e-17
3772.62705 1.81512e-17
3775.58196 1.80901e-17
3778.52678 1.80291e-17
3781.48168 1.79681e-17
3784.43659 1.78253e-17
3787.39149 1.76443e-17
3790.34640 1.82393e-17
3793.30130 1.88300e-17
3796.25621 1.88063e-17
3799.21112 1.84259e-17
3802.16602 1.84949e-17
3805.12093 1.86597e-17
3808.07583 1.85186e-17
3811.03073 1.84599e-17
3813.98564 1.85347e-17
3816.94054 1.88770e-17
3819.89545 1.87273e-17
3822.85036 1.84986e-17
3825.80526 1.85971e-17
3828.76016 1.86865e-17
3831.71507 1.83407e-17
3834.66997 1.81286e-17
3837.62488 1.87896e-17
3840.57978 1.87062e-17
3843.53469 1.89084e-17
3846.48960 1.89893e-17
3849.44450 1.87719e-17
3852.39940 1.87540e-17
3855.35431 1.93445e-17
3858.30921 1.95039e-17
3861.26412 1.91506e-17
3864.21902 1.91246e-17
3867.17393 1.91358e-17
3870.12883 1.96797e-17
3873.08374 1.98811e-17
3876.03864 1.97554e-17
3878.99355 1.94517e-17
3881.93837 1.94163e-17
3884.89327 1.95343e-17
3887.84818 1.96752e-17
3890.80309 1.99924e-17
3893.75799 1.99384e-17
3896.71289 1.98638e-17
3899.66780 2.01967e-17
3902.62270 2.04106e-17
3905.57761 2.04214e-17
3908.53251 2.04217e-17
3911.48742 2.03022e-17
3914.44232 2.03438e-17
3917.39723 2.03832e-17
3920.35213 2.04483e-17
3923.30704 2.03613e-17
3926.26194 2.02783e-17
3929.21685 2.00214e-17
3932.17175 2.00824e-17
3935.12666 2.03388e-17
3938.08156 2.04279e-17
3941.03647 2.04292e-17
3943.99137 2.09914e-17
3946.94628 2.10768e-17
3949.90118 2.10470e-17
3952.85609 2.11642e-17
3955.81099 2.08229e-17
3958.76590 2.05674e-17
3961.72080 2.05132e-17
3964.67571 2.07920e-17
3967.63062 2.07812e-17
3970.58552 2.07685e-17
3973.54043 2.06143e-17
3976.49533 2.09563e-17
3979.45023 2.10856e-17
3982.40514 2.09289e-17
3985.34996 2.08889e-17
3988.30487 2.09122e-17
3991.25977 2.08418e-17
3994.21468 2.07144e-17
3997.16958 2.06932e-17
4000.12448 2.09961e-17
4003.07939 2.11252e-17
4006.03429 2.08567e-17
4008.98920 2.09460e-17
4011.94411 2.08659e-17
4014.89901 2.07082e-17
4017.85391 2.04962e-17
4020.80882 2.04715e-17
4023.76372 2.08560e-17
4026.71863 2.12927e-17
4029.67353 2.10137e-17
4032.62844 2.06136e-17
4035.58335 2.07064e-17
4038.53825 2.06345e-17
4041.49315 2.06888e-17
4044.44806 2.09605e-17
4047.40296 2.08117e-17
4050.35787 2.07214e-17
4053.31277 2.08289e-17
4056.26768 2.08149e-17
4059.22258 2.07452e-17
4062.17749 2.04017e-17
4065.13239 2.03081e-17
4068.08730 2.04949e-17
4071.04220 2.08968e-17
4073.99711 2.08792e-17
4076.95201 2.07186e-17
4079.90692 2.05022e-17
4082.86182 2.05301e-17
4085.81673 2.12400e-17
4088.76155 2.11544e-17
4091.71645 2.10413e-17
4094.67136 2.09188e-17
4097.62626 2.07790e-17
4100.58117 2.04764e-17
4103.53607 1.99958e-17
4106.49098 2.00933e-17
4109.44589 2.00903e-17
4112.40079 2.02680e-17
4115.35570 2.04341e-17
4118.31060 2.02790e-17
4121.26551 2.04511e-17
4124.22041 2.06519e-17
4127.17531 2.00852e-17
4130.13022 1.96711e-17
4133.08512 1.96452e-17
4136.04003 1.95341e-17
4138.99493 1.95411e-17
4141.94984 1.98527e-17
4144.90474 1.98832e-17
4147.85965 1.96720e-17
4150.81455 1.96287e-17
4153.76946 1.95251e-17
4156.72436 1.97030e-17
4159.67927 1.99984e-17
4162.63418 1.99713e-17
4165.58908 1.98518e-17
4168.54398 1.97717e-17
4171.49889 1.99314e-17
4174.45380 1.99672e-17
4177.40870 2.01149e-17
4180.36360 2.02152e-17
4183.31851 1.98896e-17
4186.27341 1.97703e-17
4189.22832 1.97519e-17
4192.17314 1.97802e-17
4195.12805 1.99931e-17
4198.08295 2.00522e-17
4201.03785 2.01085e-17
4203.99276 1.99814e-17
4206.94766 1.98055e-17
4209.90257 1.97692e-17
4212.85747 1.96185e-17
4215.81238 1.95925e-17
4218.76728 1.98486e-17
4221.72219 1.99354e-17
4224.67709 2.02619e-17
4227.63200 2.05150e-17
4230.58691 2.02590e-17
4233.54181 1.99881e-17
4236.49671 2.01150e-17
4239.45162 2.03917e-17
4242.40652 2.03208e-17
4245.36143 2.03822e-17
4248.31634 2.01947e-17
4251.27124 1.92006e-17
4254.22614 1.92707e-17
4257.18105 2.00087e-17
4260.13595 2.02158e-17
4263.09086 1.99357e-17
4266.04576 1.99679e-17
4269.00067 2.00984e-17
4271.95557 2.03416e-17
4274.91048 2.03171e-17
4277.86539 2.01067e-17
4280.82029 1.99021e-17
4283.77520 2.01167e-17
4286.73010 2.03152e-17
4289.68500 2.02103e-17
4292.63991 2.00452e-17
4295.58473 2.00905e-17
4298.53964 2.01768e-17
4301.49454 2.02244e-17
4304.44945 2.03237e-17
4307.40435 2.02791e-17
4310.35925 2.01689e-17
4313.31416 2.00261e-17
4316.26907 2.02164e-17
4319.22397 2.04928e-17
4322.17887 2.04652e-17
4325.13378 2.03215e-17
4328.08868 2.00188e-17
4331.04359 1.97051e-17
4333.99849 1.99396e-17
4336.95340 2.01483e-17
4339.90830 2.00597e-17
4342.86321 2.01077e-17
4345.81811 1.98945e-17
4348.77302 1.98537e-17
4351.72793 1.99033e-17
4354.68283 1.99055e-17
4357.63773 1.98984e-17
4360.59264 1.99780e-17
4363.54755 1.97501e-17
4366.50245 1.95745e-17
4369.45735 1.95615e-17
4372.41226 1.96703e-17
4375.36716 1.95717e-17
4378.32207 1.95659e-17
4381.27697 1.95139e-17
4384.23188 1.95284e-17
4387.18678 1.95428e-17
4390.14169 1.95572e-17
4393.09659 1.95717e-17
4396.05150 1.95861e-17
4398.99632 1.96005e-17
4401.95122 1.96149e-17
4404.90613 1.96293e-17
4407.86103 1.96437e-17
4410.81594 1.96580e-17
4413.77084 1.96724e-17
4416.72575 1.96868e-17
4419.68066 1.97011e-17
4422.63556 1.96521e-17
4425.59046 1.93446e-17
4428.54537 1.91262e-17
4431.50027 1.94135e-17
4434.45518 1.96609e-17
4437.41009 1.97676e-17
4440.36499 1.99074e-17
4443.31989 1.99176e-17
4446.27480 1.99787e-17
4449.22970 1.99694e-17
4452.18461 1.98462e-17
4455.13951 1.98979e-17
4458.09442 1.99911e-17
4461.04932 1.99007e-17
4464.00423 1.98683e-17
4466.95914 1.97920e-17
4469.91404 2.02099e-17
4472.86895 2.04969e-17
4475.82385 2.03936e-17
4478.77875 2.01169e-17
4481.73366 2.01124e-17
4484.68857 2.02734e-17
4487.64347 2.05311e-17
4490.59837 2.06143e-17
4493.55328 2.04848e-17
4496.50818 2.04727e-17
4499.46309 2.06012e-17
4502.40791 2.05417e-17
4505.36282 2.04729e-17
4508.31772 2.06254e-17
4511.27262 2.07958e-17
4514.22753 2.06351e-17
4517.18243 2.05900e-17
4520.13734 2.08628e-17
4523.09224 2.10154e-17
4526.04715 2.10840e-17
4529.00205 2.09848e-17
4531.95696 2.09156e-17
4534.91186 2.10001e-17
4537.86677 2.09525e-17
4540.82168 2.07907e-17
4543.77658 2.09557e-17
4546.73148 2.09795e-17
4549.68639 2.10337e-17
4552.64130 2.10749e-17
4555.59620 2.10350e-17
4558.55110 2.11708e-17
4561.50601 2.10474e-17
4564.46091 2.09954e-17
4567.41582 2.09648e-17
4570.37072 2.08386e-17
4573.32563 2.11097e-17
4576.28053 2.10737e-17
4579.23544 2.09520e-17
4582.19034 2.09781e-17
4585.14525 2.10073e-17
4588.10016 2.10590e-17
4591.05506 2.10483e-17
4594.00997 2.09970e-17
4596.96487 2.10158e-17
4599.91977 2.09019e-17
4602.87468 2.06868e-17
4605.81950 2.05198e-17
4608.77441 2.05440e-17
4611.72931 2.05623e-17
4614.68421 2.04823e-17
4617.63912 2.03355e-17
4620.59402 2.04257e-17
4623.54893 2.04643e-17
4626.50384 2.03173e-17
4629.45874 2.02945e-17
4632.41364 2.03804e-17
4635.36855 2.01634e-17
4638.32345 1.97956e-17
4641.27836 1.99198e-17
4644.23326 2.02064e-17
4647.18817 2.03779e-17
4650.14307 2.03489e-17
4653.09798 2.01307e-17
4656.05289 1.98523e-17
4659.00779 1.99499e-17
4661.96270 2.01016e-17
4664.91760 2.00515e-17
4667.87250 1.98028e-17
4670.82741 1.97510e-17
4673.78232 1.96514e-17
4676.73722 1.95440e-17
4679.69212 1.95493e-17
4682.64703 1.94451e-17
4685.60193 1.93593e-17
4688.55684 1.93063e-17
4691.51174 1.91676e-17
4694.46665 1.90575e-17
4697.42155 1.90789e-17
4700.37646 1.90132e-17
4703.33136 1.89340e-17
4706.28627 1.88811e-17
4709.23109 1.90004e-17
4712.18599 1.91240e-17
4715.14090 1.90264e-17
4718.09580 1.90100e-17
4721.05071 1.91608e-17
4724.00561 1.90445e-17
4726.96052 1.88825e-17
4729.91543 1.89439e-17
4732.87033 1.90503e-17
4735.82523 1.90187e-17
4738.78014 1.90659e-17
4741.73505 1.91499e-17
4744.68995 1.91925e-17
4747.64485 1.90423e-17
4750.59976 1.90349e-17
4753.55466 1.91068e-17
4756.50957 1.89209e-17
4759.46447 1.89683e-17
4762.41938 1.90266e-17
4765.37428 1.91100e-17
4768.32919 1.92680e-17
4771.28409 1.93382e-17
4774.23900 1.94019e-17
4777.19391 1.93480e-17
4780.14881 1.92030e-17
4783.10371 1.92345e-17
4786.05862 1.91077e-17
4789.01352 1.91685e-17
4791.96843 1.92717e-17
4794.92334 1.91670e-17
4797.87824 1.89955e-17
4800.83314 1.92368e-17
4803.78805 1.94056e-17
4806.74295 1.93581e-17
4809.69786 1.93063e-17
4812.64268 1.91562e-17
4815.59759 1.92257e-17
4818.55249 1.93674e-17
4821.50739 1.93345e-17
4824.46230 1.92894e-17
4827.41720 1.92532e-17
4830.37211 1.92305e-17
4833.32701 1.93495e-17
4836.28192 1.93011e-17
4839.23682 1.91111e-17
4842.19173 1.91763e-17
4845.14664 1.93551e-17
4848.10154 1.94889e-17
4851.05645 1.95606e-17
4854.01135 1.94566e-17
4856.96625 1.93353e-17
4859.92116 1.94599e-17
4862.87607 1.95758e-17
4865.83097 1.95058e-17
4868.78587 1.93832e-17
4871.74078 1.93851e-17
4874.69568 1.95097e-17
4877.65059 1.95638e-17
4880.60549 1.96822e-17
4883.56040 1.98092e-17
4886.51530 1.98035e-17
4889.47021 1.97979e-17
4892.42511 1.97922e-17
4895.38002 1.97865e-17
4898.33493 1.97808e-17
4901.28983 1.97752e-17
4904.24473 1.97695e-17
4907.19964 1.97639e-17
4910.15455 1.97582e-17
4913.10945 1.97525e-17
4916.05427 1.97469e-17
4919.00918 1.97412e-17
4921.96408 1.97356e-17
4924.91898 1.99194e-17
4927.87389 2.00738e-17
4930.82880 2.00663e-17
4933.78370 1.98965e-17
4936.73860 1.99982e-17
4939.69351 2.03404e-17
4942.64841 2.02585e-17
4945.60332 2.02961e-17
4948.55822 2.04972e-17
4951.51313 2.05761e-17
4954.46803 2.03978e-17
4957.42294 2.03842e-17
4960.37784 2.04798e-17
4963.33275 2.02193e-17
4966.28766 2.03922e-17
4969.24256 2.07007e-17
4972.19746 2.05436e-17
4975.15237 2.06251e-17
4978.10727 2.07915e-17
4981.06218 2.06129e-17
4984.01709 2.06603e-17
4986.97199 2.07077e-17
4989.92689 2.07551e-17
4992.88180 2.08025e-17
4995.83670 2.08499e-17
4998.79161 2.08973e-17
5001.74651 2.09446e-17
5004.70142 2.09920e-17
5007.65632 2.10393e-17
5010.61123 2.10866e-17
5013.56614 2.11339e-17
5016.52104 2.11812e-17
5019.47595 2.12285e-17
5022.42076 2.11947e-17
5025.37567 2.11634e-17
5028.33057 2.11452e-17
5031.28548 2.12174e-17
5034.24039 2.12896e-17
5037.19529 2.13617e-17
5040.15020 2.14338e-17
5043.10510 2.15060e-17
5046.06000 2.15781e-17
5049.01491 2.16501e-17
5051.96982 2.17222e-17
5054.92472 2.17942e-17
5057.87962 2.18663e-17
5060.83453 2.19383e-17
5063.78943 2.20102e-17
5066.74434 2.20822e-17
5069.69924 2.21542e-17
5072.65415 2.20509e-17
5075.60905 2.21969e-17
5078.56396 2.23878e-17
5081.51886 2.23591e-17
5084.47377 2.25552e-17
5087.42868 2.24833e-17
5090.38358 2.24237e-17
5093.33848 2.28222e-17
5096.29339 2.29306e-17
5099.24830 2.27957e-17
5102.20320 2.28295e-17
5105.15810 2.31594e-17
5108.11301 2.34072e-17
5111.06791 2.34653e-17
5114.02282 2.34882e-17
5116.97772 2.35403e-17
5119.93263 2.33292e-17
5122.88753 2.33775e-17
5125.83235 2.33917e-17
5128.78726 2.31454e-17
5131.74216 2.34088e-17
5134.69707 2.37674e-17
5137.65197 2.38291e-17
5140.60688 2.38393e-17
5143.56178 2.38785e-17
5146.51669 2.37600e-17
5149.47159 2.37404e-17
5152.42650 2.39159e-17
5155.38141 2.40843e-17
5158.33631 2.40381e-17
5161.29121 2.41389e-17
5164.24612 2.41966e-17
5167.20102 2.41971e-17
5170.15593 2.42214e-17
5173.11084 2.40861e-17
5176.06574 2.40528e-17
5179.02064 2.43291e-17
5181.97555 2.44478e-17
5184.93045 2.44997e-17
5187.88536 2.43850e-17
5190.84026 2.43574e-17
5193.79517 2.44317e-17
5196.75007 2.45011e-17
5199.70498 2.44626e-17
5202.65989 2.44906e-17
5205.61479 2.45985e-17
5208.56970 2.47057e-17
5211.52460 2.48846e-17
5214.47950 2.50178e-17
5217.43441 2.47232e-17
5220.38932 2.46275e-17
5223.33414 2.47837e-17
5226.28904 2.46764e-17
5229.24395 2.47462e-17
5232.19885 2.48903e-17
5235.15375 2.50307e-17
5238.10866 2.51795e-17
5241.06357 2.49354e-17
5244.01847 2.47287e-17
5246.97337 2.48383e-17
5249.92828 2.47718e-17
5252.88318 2.48703e-17
5255.83809 2.49250e-17
5258.79299 2.47508e-17
5261.74790 2.47711e-17
5264.70280 2.49105e-17
5267.65771 2.47392e-17
5270.61261 2.47476e-17
5273.56752 2.48162e-17
5276.52243 2.49458e-17
5279.47733 2.49351e-17
5282.43223 2.48120e-17
5285.38714 2.47848e-17
5288.34205 2.47706e-17
5291.29695 2.47224e-17
5294.25185 2.45455e-17
5297.20676 2.42702e-17
5300.16166 2.43490e-17
5303.11657 2.44907e-17
5306.07147 2.45318e-17
5309.02638 2.44860e-17
5311.98128 2.43831e-17
5314.93619 2.42676e-17
5317.89109 2.41227e-17
5320.84600 2.41701e-17
5323.80091 2.41943e-17
5326.74572 2.39765e-17
5329.70063 2.39205e-17
5332.65553 2.39347e-17
5335.61044 2.38734e-17
5338.56534 2.39030e-17
5341.52025 2.38488e-17
5344.47516 2.37468e-17
5347.43006 2.36314e-17
5350.38496 2.35075e-17
5353.33987 2.35051e-17
5356.29477 2.34267e-17
5359.24968 2.34224e-17
5362.20459 2.33013e-17
5365.15949 2.32506e-17
5368.11439 2.32283e-17
5371.06930 2.31434e-17
5374.02420 2.30339e-17
5376.97911 2.30136e-17
5379.93401 2.29416e-17
5382.88892 2.28457e-17
5385.84382 2.28488e-17
5388.79873 2.27109e-17
5391.75364 2.25671e-17
5394.70854 2.25067e-17
5397.66345 2.22012e-17
5400.61835 2.19638e-17
5403.57325 2.21146e-17
5406.52816 2.23632e-17
5409.48307 2.23839e-17
5412.43797 2.22818e-17
5415.39287 2.21502e-17
5418.34778 2.20518e-17
5421.30268 2.19543e-17
5424.25759 2.19412e-17
5427.21249 2.19255e-17
5430.16740 2.17384e-17
5433.11222 2.15846e-17
5436.06712 2.15559e-17
5439.02203 2.14524e-17
5441.97693 2.12982e-17
5444.93184 2.11006e-17
5447.88674 2.10065e-17
5450.84165 2.10869e-17
5453.79655 2.10158e-17
5456.75146 2.08015e-17
5459.70636 2.07577e-17
5462.66127 2.07450e-17
5465.61618 2.06166e-17
5468.57108 2.04950e-17
5471.52598 2.03031e-17
5474.48089 2.01546e-17
5477.43580 2.01291e-17
5480.39070 2.00484e-17
5483.34560 2.00114e-17
5486.30051 1.99579e-17
5489.25541 1.99108e-17
5492.21032 1.98769e-17
5495.16522 1.96924e-17
5498.12013 1.96239e-17
5501.07503 1.95098e-17
5504.02994 1.93169e-17
5506.98484 1.92987e-17
5509.93975 1.93224e-17
5512.89466 1.93410e-17
5515.84956 1.93277e-17
5518.80446 1.92646e-17
5521.75937 1.91802e-17
5524.71427 1.91052e-17
5527.66918 1.90767e-17
5530.62409 1.90691e-17
5533.57899 1.89775e-17
5536.52381 1.89017e-17
5539.47871 1.88177e-17
5542.43362 1.87389e-17
5545.38852 1.87599e-17
5548.34343 1.86786e-17
5551.29834 1.85420e-17
5554.25324 1.83627e-17
5557.20814 1.81612e-17
5560.16305 1.81242e-17
5563.11795 1.81438e-17
5566.07286 1.81019e-17
5569.02776 1.80852e-17
5571.98267 1.80512e-17
5574.93757 1.79036e-17
5577.89248 1.77849e-17
5580.84739 1.78377e-17
5583.80229 1.77754e-17
5586.75720 1.77000e-17
5589.71210 1.77667e-17
5592.66700 1.77084e-17
5595.62191 1.77311e-17
5598.57682 1.77528e-17
5601.53172 1.76171e-17
5604.48662 1.75604e-17
5607.44153 1.75795e-17
5610.39643 1.75569e-17
5613.35134 1.74754e-17
5616.30624 1.74044e-17
5619.26115 1.74053e-17
5622.21605 1.74712e-17
5625.17096 1.74693e-17
5628.12586 1.74122e-17
5631.08077 1.73651e-17
5634.03568 1.72796e-17
5636.99058 1.72188e-17
5639.93540 1.72104e-17
5642.89030 1.71856e-17
5645.84521 1.72035e-17
5648.80011 1.72241e-17
5651.75502 1.71483e-17
5654.70993 1.71689e-17
5657.66483 1.71227e-17
5660.61973 1.69913e-17
5663.57464 1.68948e-17
5666.52955 1.68827e-17
5669.48445 1.69475e-17
5672.43935 1.69577e-17
5675.39426 1.69064e-17
5678.34916 1.67823e-17
5681.30407 1.66712e-17
5684.25897 1.66590e-17
5687.21388 1.66857e-17
5690.16878 1.67813e-17
5693.12369 1.68139e-17
5696.07859 1.67500e-17
5699.03350 1.67110e-17
5701.98841 1.66695e-17
5704.94331 1.66536e-17
5707.89821 1.66660e-17
5710.85312 1.66360e-17
5713.80802 1.66258e-17
5716.76293 1.66560e-17
5719.71784 1.66549e-17
5722.67274 1.66883e-17
5725.62764 1.65790e-17
5728.58255 1.65395e-17
5731.53745 1.65830e-17
5734.49236 1.65799e-17
5737.44726 1.66012e-17
5740.40217 1.65599e-17
5743.34699 1.64813e-17
5746.30189 1.64742e-17
5749.25680 1.64765e-17
5752.21170 1.64396e-17
5755.16661 1.63476e-17
5758.12151 1.63035e-17
5761.07642 1.63275e-17
5764.03132 1.62856e-17
5766.98623 1.62249e-17
5769.94114 1.61805e-17
5772.89604 1.60471e-17
5775.85095 1.58492e-17
5778.80585 1.58241e-17
5781.76075 1.57672e-17
5784.71566 1.56537e-17
5787.67057 1.56650e-17
5790.62547 1.56012e-17
5793.58037 1.55864e-17
5796.53528 1.56676e-17
5799.49018 1.56363e-17
5802.44509 1.55477e-17
5805.39999 1.54538e-17
5808.35490 1.53717e-17
5811.30980 1.53338e-17
5814.26471 1.53609e-17
5817.21961 1.53850e-17
5820.17452 1.53292e-17
5823.12943 1.53383e-17
5826.08433 1.52522e-17
5829.03923 1.50376e-17
5831.99414 1.50076e-17
5834.94905 1.50728e-17
5837.90395 1.50523e-17
5840.85885 1.50369e-17
5843.81376 1.50467e-17
5846.75858 1.49968e-17
5849.71348 1.49042e-17
5852.66839 1.48316e-17
5855.62330 1.47883e-17
5858.57820 1.47869e-17
5861.53310 1.47804e-17
5864.48801 1.46774e-17
5867.44291 1.45227e-17
5870.39782 1.44308e-17
5873.35272 1.44064e-17
5876.30763 1.43336e-17
5879.26253 1.43369e-17
5882.21744 1.43285e-17
5885.17234 1.42131e-17
5888.12725 1.41013e-17
5891.08216 1.39603e-17
5894.03706 1.38889e-17
5896.99196 1.39149e-17
5899.94687 1.38834e-17
5902.90177 1.39598e-17
5905.85668 1.40783e-17
5908.81159 1.40582e-17
5911.76649 1.40226e-17
5914.72139 1.40880e-17
5917.67630 1.41307e-17
5920.63120 1.41710e-17
5923.58611 1.41234e-17
5926.54101 1.40405e-17
5929.49592 1.40661e-17
5932.45082 1.40987e-17
5935.40573 1.40121e-17
5938.36064 1.39768e-17
5941.31554 1.40388e-17
5944.27045 1.40562e-17
5947.22535 1.40659e-17
5950.17017 1.39964e-17
5953.12507 1.38329e-17
5956.07998 1.38300e-17
5959.03489 1.38854e-17
5961.98979 1.38987e-17
5964.94470 1.39110e-17
5967.89960 1.38681e-17
5970.85450 1.38899e-17
5973.80941 1.39346e-17
5976.76432 1.38449e-17
5979.71922 1.38731e-17
5982.67412 1.39519e-17
5985.62903 1.39764e-17
5988.58393 1.39437e-17
5991.53884 1.38709e-17
5994.49374 1.38590e-17
5997.44865 1.38963e-17
6000.40355 1.39686e-17
6003.35846 1.39305e-17
6006.31336 1.38394e-17
6009.26827 1.37549e-17
6012.22318 1.36987e-17
6015.17808 1.37252e-17
6018.13298 1.37345e-17
6021.08789 1.37609e-17
6024.04280 1.38273e-17
6026.99770 1.37883e-17
6029.95260 1.37535e-17
6032.90751 1.37992e-17
6035.86241 1.37802e-17
6038.81732 1.37888e-17
6041.77222 1.37800e-17
6044.72713 1.36432e-17
6047.68203 1.35916e-17
6050.63694 1.36542e-17
6053.58176 1.36546e-17
6056.53666 1.36534e-17
6059.49157 1.36259e-17
6062.44647 1.35673e-17
6065.40138 1.36034e-17
6068.35628 1.36047e-17
6071.31119 1.35856e-17
6074.26609 1.35859e-17
6077.22100 1.35288e-17
6080.17591 1.35645e-17
6083.13081 1.36522e-17
6086.08571 1.35687e-17
6089.04062 1.34902e-17
6091.99552 1.33914e-17
6094.95043 1.32816e-17
6097.90534 1.33608e-17
6100.86024 1.34959e-17
6103.81514 1.34925e-17
6106.77005 1.33961e-17
6109.72495 1.34390e-17
6112.67986 1.35294e-17
6115.63476 1.34564e-17
6118.58967 1.34555e-17
6121.54457 1.34478e-17
6124.49948 1.34161e-17
6127.45439 1.35320e-17
6130.40929 1.36681e-17
6133.36420 1.36813e-17
6136.31910 1.36959e-17
6139.27400 1.36166e-17
6142.22891 1.35758e-17
6145.18382 1.36590e-17
6148.13872 1.38541e-17
6151.09362 1.39571e-17
6154.04853 1.39840e-17
6156.99335 1.39747e-17
6159.94825 1.39393e-17
6162.90316 1.39384e-17
6165.85807 1.39148e-17
6168.81297 1.39265e-17
6171.76787 1.40123e-17
6174.72278 1.41165e-17
6177.67768 1.41832e-17
6180.63259 1.41424e-17
6183.58749 1.41747e-17
6186.54240 1.42890e-17
6189.49730 1.43401e-17
6192.45221 1.43156e-17
6195.40711 1.43306e-17
6198.36202 1.42691e-17
6201.31693 1.42185e-17
6204.27183 1.42863e-17
6207.22673 1.43676e-17
6210.18164 1.43651e-17
6213.13655 1.44035e-17
6216.09145 1.44427e-17
6219.04635 1.44580e-17
6222.00126 1.44554e-17
6224.95616 1.44022e-17
6227.91107 1.44217e-17
6230.86597 1.45138e-17
6233.82088 1.45905e-17
6236.77578 1.46007e-17
6239.73069 1.45191e-17
6242.68559 1.44758e-17
6245.64050 1.45400e-17
6248.59541 1.45345e-17
6251.55031 1.45988e-17
6254.50521 1.46756e-17
6257.46012 1.46644e-17
6260.41502 1.46529e-17
6263.35984 1.46544e-17
6266.31475 1.46347e-17
6269.26966 1.45992e-17
6272.22456 1.45281e-17
6275.17946 1.45054e-17
6278.13437 1.45310e-17
6281.08927 1.44485e-17
6284.04418 1.44239e-17
6286.99908 1.44866e-17
6289.95399 1.45339e-17
6292.90889 1.45837e-17
6295.86380 1.46195e-17
6298.81870 1.47350e-17
6301.77361 1.48538e-17
6304.72851 1.47955e-17
6307.68342 1.47071e-17
6310.63832 1.47612e-17
6313.59323 1.48438e-17
6316.54814 1.48505e-17
6319.50304 1.49897e-17
6322.45795 1.49698e-17
6325.41285 1.48423e-17
6328.36775 1.48234e-17
6331.32266 1.48407e-17
6334.27757 1.49028e-17
6337.23247 1.49012e-17
6340.18737 1.48305e-17
6343.14228 1.48783e-17
6346.09718 1.49720e-17
6349.05209 1.49917e-17
6352.00699 1.49618e-17
6354.96190 1.49157e-17
6357.91680 1.48690e-17
6360.87171 1.48517e-17
6363.82661 1.48353e-17
6366.77143 1.47525e-17
6369.72634 1.48346e-17
6372.68124 1.48412e-17
6375.63615 1.47679e-17
6378.59105 1.48241e-17
6381.54596 1.48459e-17
6384.50086 1.47677e-17
6387.45577 1.47086e-17
6390.41068 1.46520e-17
6393.36558 1.46630e-17
6396.32048 1.46996e-17
6399.27539 1.47243e-17
6402.23030 1.47323e-17
6405.18520 1.46924e-17
6408.14010 1.46276e-17
6411.09501 1.45589e-17
6414.04991 1.45388e-17
6417.00482 1.44978e-17
6419.95972 1.44255e-17
6422.91463 1.45026e-17
6425.86953 1.44373e-17
6428.82444 1.43410e-17
6431.77934 1.43959e-17
6434.73425 1.44156e-17
6437.68916 1.43888e-17
6440.64406 1.44897e-17
6443.59896 1.44544e-17
6446.55387 1.42784e-17
6449.50877 1.42746e-17
6452.46368 1.42915e-17
6455.41859 1.42360e-17
6458.37349 1.42040e-17
6461.32839 1.41663e-17
6464.28330 1.41482e-17
6467.23820 1.41136e-17
6470.18302 1.40723e-17
6473.13793 1.41308e-17
6476.09283 1.41804e-17
6479.04774 1.41718e-17
6482.00264 1.41398e-17
6484.95755 1.41343e-17
6487.91245 1.42159e-17
6490.86736 1.42256e-17
6493.82226 1.41319e-17
6496.77717 1.40749e-17
6499.73207 1.40701e-17
6502.68698 1.41145e-17
6505.64189 1.41058e-17
6508.59679 1.40592e-17
6511.55170 1.40483e-17
6514.50660 1.40658e-17
6517.46150 1.40278e-17
6520.41641 1.39436e-17
6523.37132 1.39064e-17
6526.32622 1.39764e-17
6529.28112 1.40030e-17
6532.23603 1.39088e-17
6535.19093 1.39021e-17
6538.14584 1.38783e-17
6541.10074 1.38658e-17
6544.05565 1.38646e-17
6547.01055 1.37674e-17
6549.96546 1.36428e-17
6552.92036 1.36563e-17
6555.87527 1.36763e-17
6558.83018 1.36341e-17
6561.78508 1.35749e-17
6564.73998 1.35347e-17
6567.69489 1.35095e-17
6570.64980 1.34388e-17
6573.59461 1.33287e-17
6576.54952 1.32744e-17
6579.50443 1.32324e-17
6582.45933 1.31714e-17
6585.41423 1.32007e-17
6588.36914 1.31672e-17
6591.32405 1.31337e-17
6594.27895 1.31002e-17
6597.23385 1.30667e-17
6600.18876 1.30333e-17
6603.14366 1.29998e-17
6606.09857 1.29663e-17
6609.05347 1.29329e-17
6612.00838 1.28994e-17
6614.96328 1.28659e-17
6617.91819 1.28325e-17
6620.87309 1.27990e-17
6623.82800 1.27656e-17
6626.78291 1.27322e-17
6629.73781 1.26987e-17
6632.69271 1.26653e-17
6635.64762 1.26319e-17
6638.60252 1.25985e-17
6641.55743 1.25651e-17
6644.51234 1.25317e-17
6647.46724 1.24982e-17
6650.42214 1.24649e-17
6653.37705 1.24741e-17
6656.33195 1.24797e-17
6659.28686 1.23936e-17
6662.24176 1.23707e-17
6665.19667 1.23629e-17
6668.15157 1.22602e-17
6671.10648 1.22798e-17
6674.06138 1.23712e-17
6677.00620 1.23460e-17
6679.96111 1.22380e-17
6682.91601 1.21301e-17
6685.87092 1.21717e-17
6688.82582 1.21998e-17
6691.78073 1.21074e-17
6694.73564 1.20222e-17
6697.69054 1.19998e-17
6700.64545 1.19811e-17
6703.60035 1.18964e-17
6706.55525 1.18844e-17
6709.51016 1.18910e-17
6712.46507 1.18109e-17
6715.41997 1.17462e-17
6718.37487 1.17531e-17
6721.32978 1.17640e-17
6724.28468 1.17684e-17
6727.23959 1.17719e-17
6730.19449 1.17701e-17
6733.14940 1.17314e-17
6736.10430 1.16915e-17
6739.05921 1.15863e-17
6742.01411 1.15301e-17
6744.96902 1.15365e-17
6747.92393 1.15345e-17
6750.87883 1.15118e-17
6753.83373 1.14834e-17
6756.78864 1.14798e-17
6759.74355 1.15092e-17
6762.69845 1.14897e-17
6765.65335 1.14133e-17
6768.60826 1.13894e-17
6771.56316 1.14008e-17
6774.51807 1.14018e-17
6777.46289 1.13895e-17
6780.41780 1.13126e-17
6783.37270 1.12833e-17
6786.32760 1.12891e-17
6789.28251 1.11810e-17
6792.23741 1.10300e-17
6795.19232 1.09070e-17
6798.14722 1.08816e-17
6801.10213 1.09621e-17
6804.05703 1.09652e-17
6807.01194 1.08696e-17
6809.96684 1.07953e-17
6812.92175 1.07210e-17
6815.87666 1.06607e-17
6818.83156 1.05952e-17
6821.78646 1.05516e-17
6824.74137 1.06099e-17
6827.69627 1.05598e-17
6830.65118 1.04845e-17
6833.60609 1.05056e-17
6836.56099 1.05504e-17
6839.51589 1.04695e-17
6842.47080 1.03634e-17
6845.42570 1.03340e-17
6848.38061 1.03046e-17
6851.33551 1.02752e-17
6854.29042 1.02458e-17
6857.24532 1.02164e-17
6860.20023 1.01870e-17
6863.15513 1.01577e-17
6866.11004 1.01283e-17
6869.06495 1.00989e-17
6872.01985 1.00695e-17
6874.97475 1.00402e-17
6877.92966 1.00108e-17
6880.87448 9.98145e-18
6883.82939 9.95209e-18
6886.78429 9.92274e-18
6889.73920 9.89339e-18
6892.69410 9.86405e-18
6895.64900 9.83471e-18
6898.60391 9.80537e-18
6901.55882 9.77604e-18
6904.51372 9.74671e-18
6907.46862 9.71738e-18
6910.42353 9.68806e-18
6913.37843 9.65874e-18
6916.33334 9.62943e-18
6919.28824 9.60012e-18
6922.24315 9.57081e-18
6925.19805 9.54151e-18
6928.15296 9.51221e-18
6931.10786 9.48291e-18
6934.06277 9.45362e-18
6937.01768 9.42433e-18
6939.97258 9.38277e-18
6942.92748 9.33459e-18
6945.88239 9.29461e-18
6948.83730 9.26303e-18
6951.79220 9.26146e-18
6954.74710 9.28413e-18
6957.70201 9.24816e-18
6960.65691 9.17027e-18
6963.61182 9.12192e-18
6966.56672 9.12223e-18
6969.52163 9.12565e-18
6972.47653 9.08420e-18
6975.43144 9.01593e-18
6978.37626 8.96041e-18
6981.33116 8.91502e-18
6984.28607 8.87592e-18
6987.24097 8.82278e-18
6990.19588 8.74034e-18
6993.15078 8.72592e-18
6996.10569 8.73638e-18
6999.06059 8.70669e-18
7002.01550 8.60672e-18
7004.97041 8.52573e-18
7007.92531 8.50399e-18
7010.88021 8.50273e-18
7013.83512 8.47341e-18
7016.79002 8.43380e-18
7019.74493 8.35266e-18
7022.69983 8.32485e-18
7025.65474 8.31353e-18
7028.60964 8.26103e-18
7031.56455 8.23947e-18
7034.51945 8.20252e-18
7037.47436 8.12244e-18
7040.42926 8.10198e-18
7043.38417 8.13055e-18
7046.33907 8.15045e-18
7049.29398 8.11155e-18
7052.24888 8.01788e-18
7055.20379 7.97443e-18
7058.15870 7.98753e-18
7061.11360 7.89997e-18
7064.06850 7.82459e-18
7067.02341 7.83826e-18
7069.97832 7.82160e-18
7072.93322 7.74087e-18
7075.88812 7.69434e-18
7078.84303 7.74036e-18
7081.78785 7.77997e-18
7084.74275 7.78828e-18
7087.69766 7.78049e-18
7090.65257 7.71622e-18
7093.60747 7.64303e-18
7096.56237 7.60555e-18
7099.51728 7.61225e-18
7102.47218 7.64924e-18
7105.42709 7.62716e-18
7108.38199 7.58059e-18
7111.33690 7.52200e-18
7114.29180 7.49385e-18
7117.24671 7.49395e-18
7120.20161 7.45092e-18
7123.15652 7.37957e-18
7126.11143 7.36291e-18
7129.06633 7.36235e-18
7132.02123 7.29962e-18
7134.97614 7.24476e-18
7137.93105 7.20523e-18
7140.88595 7.18027e-18
7143.84085 7.17217e-18
7146.79576 7.12727e-18
7149.75066 7.06791e-18
7152.70557 6.97149e-18
7155.66047 6.90421e-18
7158.61538 6.94645e-18
7161.57028 6.92742e-18
7164.52519 6.82865e-18
7167.48009 6.75635e-18
7170.43500 6.68409e-18
7173.38990 6.58875e-18
7176.34481 6.50427e-18
7179.29971 6.42156e-18
7182.25462 6.33333e-18
7185.20952 6.27454e-18
7188.15434 6.22953e-18
7191.10925 6.19948e-18
7194.06416 6.21312e-18
7197.01906 6.17761e-18
7199.97396 6.10741e-18
7202.92887 6.08406e-18
7205.88377 6.07993e-18
7208.83868 6.07736e-18
7211.79358 6.07006e-18
7214.74849 6.08095e-18
7217.70339 6.11898e-18
7220.65830 6.17068e-18
7223.61320 6.18775e-18
7226.56811 6.15666e-18
7229.52301 6.05461e-18
7232.47792 6.02497e-18
7235.43282 5.99767e-18
7238.38773 5.89190e-18
7241.34263 5.80009e-18
7244.29754 5.83031e-18
7247.25245 5.90647e-18
7250.20735 5.91364e-18
7253.16225 5.87783e-18
7256.11716 5.86484e-18
7259.07207 5.89659e-18
7262.02697 5.93165e-18
7264.98187 5.94069e-18
7267.93678 5.92457e-18
7270.89168 5.85261e-18
7273.84659 5.79061e-18
7276.80149 5.79320e-18
7279.75640 5.81257e-18
7282.71130 5.81837e-18
7285.66621 5.79470e-18
7288.62111 5.78992e-18
7291.56593 5.84605e-18
7294.52084 5.83246e-18
7297.47574 5.75052e-18
7300.43065 5.71355e-18
7303.38555 5.66883e-18
7306.34046 5.64020e-18
7309.29536 5.65644e-18
7312.25027 5.68243e-18
7315.20518 5.69911e-18
7318.16008 5.67985e-18
7321.11498 5.65715e-18
7324.06989 5.65750e-18
7327.02480 5.67667e-18
7329.97970 5.67374e-18
7332.93460 5.62919e-18
7335.88951 5.59373e-18
7338.84441 5.60746e-18
7341.79932 5.64211e-18
7344.75422 5.68084e-18
7347.70913 5.71847e-18
7350.66403 5.70230e-18
7353.61894 5.66161e-18
7356.57384 5.65588e-18
7359.52875 5.67484e-18
7362.48365 5.65873e-18
7365.43856 5.60834e-18
7368.39346 5.54877e-18
7371.34837 5.52070e-18
7374.30327 5.57354e-18
7377.25818 5.63954e-18
7380.21309 5.64704e-18
7383.16799 5.65566e-18
7386.12289 5.63277e-18
7389.07780 5.64690e-18
7392.03270 5.69265e-18
7394.97752 5.59200e-18
7397.93243 5.48428e-18
7400.88733 5.47860e-18
7403.84224 5.49951e-18
7406.79714 5.50068e-18
7409.75205 5.53552e-18
7412.70695 5.61145e-18
7415.66186 5.61242e-18
7418.61676 5.52797e-18
7421.57167 5.49814e-18
7424.52657 5.52077e-18
7427.48148 5.44316e-18
7430.43638 5.37860e-18
7433.39129 5.39223e-18
7436.34620 5.41584e-18
7439.30110 5.49550e-18
7442.25600 5.55450e-18
7445.21091 5.52665e-18
7448.16582 5.46716e-18
7451.12072 5.43015e-18
7454.07562 5.42700e-18
7457.03053 5.38576e-18
7459.98543 5.33133e-18
7462.94034 5.29777e-18
7465.89524 5.22577e-18
7468.85015 5.20267e-18
7471.80505 5.25324e-18
7474.75996 5.30054e-18
7477.71486 5.35368e-18
7480.66977 5.41618e-18
7483.62468 5.41619e-18
7486.57958 5.30524e-18
7489.53448 5.19853e-18
7492.48939 5.18665e-18
7495.44430 5.20379e-18
7498.38911 5.18892e-18
7501.34402 5.15946e-18
7504.29893 5.19785e-18
7507.25383 5.26503e-18
7510.20873 5.32543e-18
7513.16364 5.34546e-18
7516.11855 5.34236e-18
7519.07345 5.29670e-18
7522.02835 5.22467e-18
7524.98326 5.18261e-18
7527.93816 5.15310e-18
7530.89307 5.13912e-18
7533.84797 5.19220e-18
7536.80288 5.24063e-18
7539.75778 5.24184e-18
7542.71269 5.24359e-18
7545.66759 5.20358e-18
7548.62250 5.16307e-18
7551.57740 5.16387e-18
7554.53231 5.16468e-18
7557.48721 5.16548e-18
7560.44212 5.16628e-18
7563.39702 5.16708e-18
7566.35193 5.16788e-18
7569.30683 5.16869e-18
7572.26174 5.16949e-18
7575.21664 5.17029e-18
7578.17155 5.17109e-18
7581.12645 5.17189e-18
7584.08136 5.17269e-18
7587.03626 5.17349e-18
7589.99117 5.17428e-18
7592.94607 5.17508e-18
7595.90098 5.17588e-18
7598.85588 5.17668e-18
7601.80070 5.17748e-18
7604.75561 5.17828e-18
7607.71051 5.17907e-18
7610.66542 5.17987e-18
7613.62032 5.18067e-18
7616.57523 5.18146e-18
7619.53013 5.18226e-18
7622.48504 5.18306e-18
7625.43995 5.18385e-18
7628.39485 5.18465e-18
7631.34975 5.18544e-18
7634.30466 5.18624e-18
7637.25957 5.18703e-18
7640.21447 5.18783e-18
7643.16937 5.18862e-18
7646.12428 5.18942e-18
7649.07918 5.19021e-18
7652.03409 5.19100e-18
7654.98899 5.19180e-18
7657.94390 5.19259e-18
7660.89880 5.19338e-18
7663.85371 5.19418e-18
7666.80861 5.19497e-18
7669.76352 5.19576e-18
7672.71843 5.19655e-18
7675.67333 5.19734e-18
7678.62823 5.19813e-18
7681.58314 5.19893e-18
7684.53805 5.15595e-18
7687.49295 5.12366e-18
7690.44785 5.12450e-18
7693.40276 5.16292e-18
7696.35766 5.23573e-18
7699.31257 5.35567e-18
7702.26747 5.47293e-18
7705.21230 5.50145e-18
7708.16720 5.47251e-18
7711.12210 5.36635e-18
7714.07701 5.25081e-18
7717.03191 5.15924e-18
7719.98682 4.98861e-18
7722.94172 4.79038e-18
7725.89663 4.66467e-18
7728.85153 4.66982e-18
7731.80644 4.91088e-18
7734.76134 5.27767e-18
7737.71625 5.55491e-18
7740.67115 5.56837e-18
7743.62606 5.45607e-18
7746.58096 5.43662e-18
7749.53587 5.47594e-18
7752.49077 5.42863e-18
7755.44568 5.35907e-18
7758.40058 5.38223e-18
7761.35549 5.45325e-18
7764.31039 5.54454e-18
7767.26530 5.62319e-18
7770.22020 5.67353e-18
7773.17511 5.68926e-18
7776.13001 5.59566e-18
7779.08492 5.49333e-18
7782.03982 5.46144e-18
7784.99473 5.39538e-18
7787.94963 5.29896e-18
7790.90454 5.31989e-18
7793.85945 5.48032e-18
7796.81435 5.65058e-18
7799.76925 5.71059e-18
7802.72416 5.69133e-18
7805.67907 5.67222e-18
7808.62388 5.64478e-18
7811.57879 5.57951e-18
7814.53370 5.49871e-18
7817.48860 5.44418e-18
7820.44350 5.37831e-18
7823.39841 5.38076e-18
7826.35332 5.47575e-18
7829.30822 5.59286e-18
7832.26312 5.70960e-18
7835.21803 5.74242e-18
7838.17293 5.75140e-18
7841.12784 5.82432e-18
7844.08274 5.78009e-18
7847.03765 5.58899e-18
7849.99255 5.44760e-18
7852.94746 5.40226e-18
7855.90236 5.40189e-18
7858.85727 5.40992e-18
7861.81218 5.43172e-18
7864.76708 5.54421e-18
7867.72198 5.72641e-18
7870.67689 5.86360e-18
7873.63180 5.99105e-18
7876.58670 5.99485e-18
7879.54160 5.76154e-18
7882.49651 5.57878e-18
7885.45141 5.51300e-18
7888.40632 5.45009e-18
7891.36122 5.45038e-18
7894.31613 5.53204e-18
7897.27103 5.62964e-18
7900.22594 5.82701e-18
7903.18084 5.99461e-18
7906.13575 5.98199e-18
7909.09065 5.97063e-18
7912.03547 5.98571e-18
7914.99038 5.88939e-18
7917.94528 5.77854e-18
7920.90019 5.73732e-18
7923.85509 5.70501e-18
7926.81000 5.70008e-18
7929.76490 5.76157e-18
7932.71981 5.91521e-18
7935.67471 6.10058e-18
7938.62962 6.29753e-18
7941.58452 6.28359e-18
7944.53943 6.10109e-18
7947.49433 5.96056e-18
7950.44924 5.91909e-18
7953.40414 5.99107e-18
7956.35905 5.95469e-18
7959.31395 5.85911e-18
7962.26886 5.89352e-18
7965.22376 6.00039e-18
7968.17867 6.11256e-18
7971.13357 6.16612e-18
7974.08848 6.17808e-18
7977.04338 6.18352e-18
7979.99829 6.23028e-18
7982.95320 6.24457e-18
7985.90810 6.20798e-18
7988.86300 6.14603e-18
7991.81791 6.06207e-18
7994.77282 6.07580e-18
7997.72772 6.16848e-18
8000.68262 6.29843e-18
8003.63753 6.38069e-18
8006.59243 6.36829e-18
8009.54734 6.32654e-18
8012.50224 6.38005e-18
8015.45715 6.43504e-18
8018.40197 6.43455e-18
8021.35687 6.44381e-18
8024.31178 6.46913e-18
8027.26668 6.49428e-18
8030.22159 6.48699e-18
8033.17649 6.43785e-18
8036.13140 6.41067e-18
8039.08630 6.43743e-18
8042.04121 6.41746e-18
8044.99611 6.38204e-18
8047.95102 6.40511e-18
8050.90593 6.42668e-18
8053.86083 6.48828e-18
8056.81573 6.60292e-18
8059.77064 6.70038e-18
8062.72555 6.79198e-18
8065.68045 6.82730e-18
8068.63535 6.77901e-18
8071.59026 6.70665e-18
8074.54516 6.53287e-18
8077.50007 6.38802e-18
8080.45497 6.38449e-18
8083.40988 6.40640e-18
8086.36478 6.42525e-18
8089.31969 6.50851e-18
8092.27459 6.64749e-18
8095.22950 6.86673e-18
8098.18440 7.07847e-18
8101.13931 7.08479e-18
8104.09421 6.93981e-18
8107.04912 6.76723e-18
8110.00402 6.63497e-18
8112.95893 6.46790e-18
8115.90375 6.35287e-18
8118.86874 6.28393e-18
8121.81356 6.28067e-18
8124.76846 6.42852e-18
8127.72337 6.66760e-18
8130.67827 6.87201e-18
8133.63318 6.89548e-18
8136.58808 6.80773e-18
8139.54299 6.77637e-18
8142.49789 6.68252e-18
8145.45280 6.53736e-18
8148.40770 6.48497e-18
8151.36261 6.47543e-18
8154.31751 6.40999e-18
8157.27242 6.27360e-18
8160.22732 6.26750e-18
8163.18223 6.37912e-18
8166.13713 6.40138e-18
8169.09204 6.39261e-18
8172.04695 6.46584e-18
8175.00185 6.54908e-18
8177.95675 6.59133e-18
8180.91166 6.63636e-18
8183.86657 6.62757e-18
8186.82147 6.61966e-18
8189.77637 6.60922e-18
8192.73128 6.56237e-18
8195.68618 6.53366e-18
8198.64109 6.53948e-18
8201.59599 6.61726e-18
8204.55090 6.71585e-18
8207.50580 6.71715e-18
8210.46071 6.68649e-18
8213.41561 6.71763e-18
8216.37052 6.75389e-18
8219.31534 6.77588e-18
8222.28033 6.81978e-18
8225.22515 6.89554e-18
8228.18005 6.96512e-18
8231.13496 6.96204e-18
8234.08986 6.91187e-18
8237.04477 6.81817e-18
8239.99967 6.77829e-18
8242.95458 6.76985e-18
8245.90949 6.69912e-18
8248.86439 6.66128e-18
8251.81929 6.72855e-18
8254.77420 6.84580e-18
8257.72911 6.96142e-18
8260.68401 7.12657e-18
8263.63891 7.29527e-18
8266.59382 7.42019e-18
8269.54873 7.55352e-18
8272.50363 7.65058e-18
8275.45853 7.59010e-18
8278.41344 7.34258e-18
8281.36834 7.04235e-18
8284.32325 6.90065e-18
8287.27815 6.87186e-18
8290.23306 6.79736e-18
8293.18797 6.82856e-18
8296.14287 7.01482e-18
8299.09777 7.23626e-18
8302.05268 7.43020e-18
8305.00758 7.55122e-18
8307.96249 7.58980e-18
8310.91740 7.56059e-18
8313.87230 7.49007e-18
8316.82720 7.44315e-18
8319.78211 7.41074e-18
8322.73702 7.23948e-18
8325.68183 7.07319e-18
8328.64682 7.13092e-18
8331.59165 7.24403e-18
8334.54655 7.24976e-18
8337.50145 7.25901e-18
8340.45636 7.35617e-18
8343.41127 7.42799e-18
8346.36617 7.47188e-18
8349.32107 7.55442e-18
8352.27598 7.58535e-18
8355.23088 7.54888e-18
8358.18579 7.58084e-18
8361.14070 7.68160e-18
8364.09560 7.77651e-18
8367.05051 7.80988e-18
8370.00541 7.73431e-18
8372.96031 7.70033e-18
8375.91522 7.60914e-18
8378.87012 7.36750e-18
8381.82503 7.25202e-18
8384.77994 7.37195e-18
8387.73484 7.53409e-18
8390.68974 7.62313e-18
8393.64465 7.73386e-18
8396.59955 7.87343e-18
8399.55446 8.03438e-18
8402.50936 8.16399e-18
8405.46427 8.12989e-18
8408.41917 8.02638e-18
8411.37408 7.92350e-18
8414.32899 7.85968e-18
8417.28389 7.83445e-18
8420.23879 7.62891e-18
8423.19370 7.35587e-18
8426.13852 7.28995e-18
8429.10351 7.43527e-18
8432.04833 7.69176e-18
8435.01332 7.90894e-18
8437.95814 8.05897e-18
8440.91304 8.21644e-18
8443.86795 8.28808e-18
8446.82285 8.40502e-18
8449.77776 8.40762e-18
8452.73266 8.17064e-18
8455.68757 7.89176e-18
8458.64248 7.70374e-18
8461.59738 7.64745e-18
8464.55228 7.59047e-18
8467.50719 7.50816e-18
8470.46209 7.59583e-18
8473.41700 7.75387e-18
8476.37190 7.77165e-18
8479.32681 7.83016e-18
8482.28172 7.97513e-18
8485.23662 8.06821e-18
8488.19152 8.00699e-18
8491.14643 7.86975e-18
8494.10133 7.88146e-18
8497.05624 7.96077e-18
8500.01115 7.88275e-18
8502.96605 7.72435e-18
8505.92095 7.67268e-18
8508.87586 7.68913e-18
8511.83077 7.62023e-18
8514.78567 7.53627e-18
8517.74057 7.58901e-18
8520.69548 7.62738e-18
8523.65038 7.59388e-18
8526.60529 7.60527e-18
8529.56020 7.56554e-18
8532.50502 7.60377e-18
8535.47001 7.85416e-18
8538.41482 7.99903e-18
8541.36973 7.92834e-18
8544.32463 7.87690e-18
8547.27954 7.88344e-18
8550.23445 7.79290e-18
8553.18935 7.59954e-18
8556.14426 7.46673e-18
8559.09916 7.38438e-18
8562.05406 7.27591e-18
8565.00897 7.17692e-18
8567.96387 7.16185e-18
8570.91878 7.18750e-18
8573.87369 7.25029e-18
8576.82859 7.38794e-18
8579.78349 7.55303e-18
8582.73840 7.66629e-18
8585.69330 7.70485e-18
8588.64821 7.72567e-18
8591.60311 7.71055e-18
8594.55802 7.63017e-18
8597.51292 7.46470e-18
8600.46783 7.25732e-18
8603.42274 7.01006e-18
8606.37764 6.80527e-18
8609.33254 6.69644e-18
8612.28745 6.72155e-18
8615.24235 6.88514e-18
8618.19726 7.04659e-18
8621.15216 7.22113e-18
8624.10707 7.44953e-18
8627.06198 7.54030e-18
8630.01688 7.44488e-18
8632.97178 7.38875e-18
8635.92669 7.34008e-18
8638.87151 7.17655e-18
8641.83650 6.94880e-18
8644.78132 6.79145e-18
8647.73623 6.75627e-18
8650.69113 6.71455e-18
8653.64603 6.65444e-18
8656.60094 6.68090e-18
8659.55584 6.72865e-18
8662.51075 6.82281e-18
8665.46565 6.94482e-18
8668.42056 7.06350e-18
8671.37547 7.10974e-18
8674.33037 7.11443e-18
8677.28527 7.11681e-18
8680.24018 7.03580e-18
8683.19508 6.90463e-18
8686.14999 6.84037e-18
8689.10490 6.74619e-18
8692.05980 6.59182e-18
8695.01470 6.50146e-18
8697.96961 6.51702e-18
8700.92452 6.56686e-18
8703.87942 6.53043e-18
8706.83432 6.55522e-18
8709.78923 6.62028e-18
8712.74413 6.66330e-18
8715.69904 6.69348e-18
8718.65395 6.74882e-18
8721.60885 6.75125e-18
8724.56376 6.72451e-18
8727.51866 6.73868e-18
8730.47356 6.66908e-18
8733.42847 6.56357e-18
8736.38337 6.55671e-18
8739.32820 6.57875e-18
8742.29319 6.52205e-18
8745.23801 6.50538e-18
8748.19291 6.50910e-18
8751.14781 6.45052e-18
8754.10272 6.40061e-18
8757.05762 6.36636e-18
8760.01253 6.38279e-18
8762.96744 6.58705e-18
8765.92234 6.82547e-18
8768.87724 6.96176e-18
8771.83215 7.02684e-18
8774.78705 6.90876e-18
8777.74196 6.75680e-18
8780.69686 6.73594e-18
8783.65177 6.74920e-18
8786.60667 6.65202e-18
8789.56158 6.39841e-18
8792.51649 6.13443e-18
8795.47139 6.06627e-18
8798.42629 6.13764e-18
8801.38120 6.22186e-18
8804.33610 6.32397e-18
8807.29101 6.39895e-18
8810.24591 6.58830e-18
8813.20082 6.87219e-18
8816.15573 6.94033e-18
8819.11063 6.78092e-18
8822.06553 6.74868e-18
8825.02044 6.80987e-18
8827.97534 6.68819e-18
8830.93025 6.43120e-18
8833.88515 6.24663e-18
8836.84006 6.14016e-18
8839.79497 6.03747e-18
8842.74987 6.01012e-18
8845.69469 6.13335e-18
8848.65968 6.32085e-18
8851.60450 6.48034e-18
8854.55940 6.59961e-18
8857.51431 6.72074e-18
8860.46922 6.82759e-18
8863.42412 6.86739e-18
8866.37902 6.83520e-18
8869.33393 6.74498e-18
8872.28883 6.59001e-18
8875.24374 6.36630e-18
8878.19865 6.12168e-18
8881.15355 5.94618e-18
8884.10845 5.90777e-18
8887.06336 5.89436e-18
8890.01827 5.87057e-18
8892.97317 5.98557e-18
8895.92807 6.14895e-18
8898.88298 6.26809e-18
8901.83788 6.44191e-18
8904.79279 6.67795e-18
8907.74770 6.77747e-18
8910.70260 6.72344e-18
8913.65751 6.59005e-18
8916.61241 6.32266e-18
8919.56731 6.12615e-18
8922.52222 6.14183e-18
8925.47712 6.09673e-18
8928.43203 5.99071e-18
8931.38694 5.94422e-18
8934.34184 5.85359e-18
8937.29674 5.80922e-18
8940.25165 5.85749e-18
8943.20655 6.00520e-18
8946.15137 6.04662e-18
8949.11636 5.99838e-18
8952.06119 6.06125e-18
8955.01609 6.08028e-18
8957.97099 5.95692e-18
8960.92590 5.88780e-18
8963.88080 5.96533e-18
8966.83571 5.94702e-18
8969.79061 5.82606e-18
8972.74552 5.65517e-18
8975.70042 5.61859e-18
8978.65533 5.66072e-18
8981.61024 5.55449e-18
8984.56514 5.45697e-18
8987.52004 5.49974e-18
8990.47495 5.53031e-18
8993.42985 5.51805e-18
8996.38476 5.65810e-18
8999.33966 5.84620e-18
9002.29457 5.95241e-18
9005.24948 5.98617e-18
9008.20438 5.86589e-18
9011.15928 5.64030e-18
9014.11419 5.45548e-18
9017.06909 5.23444e-18
9020.02400 5.02311e-18
9022.97890 4.97888e-18
9025.93381 5.00790e-18
9028.88872 5.12293e-18
9031.84362 5.34832e-18
9034.79852 5.59813e-18
9037.75343 5.90154e-18
9040.70833 6.22123e-18
9043.66324 6.49710e-18
9046.61815 6.71346e-18
9049.56297 6.74525e-18
9052.51787 6.49387e-18
9055.48286 6.20774e-18
9058.42768 5.99087e-18
9061.38258 5.72200e-18
9064.33749 5.50818e-18
9067.29240 5.31952e-18
9070.24730 5.10758e-18
9073.20220 5.06764e-18
9076.15711 5.24706e-18
9079.11202 5.49563e-18
9082.06692 5.70981e-18
9085.02182 5.89159e-18
9087.97673 6.07370e-18
9090.93163 6.19580e-18
9093.88654 6.23942e-18
9096.84145 6.19850e-18
9099.79635 5.98299e-18
9102.75126 5.70112e-18
9105.70616 5.51994e-18
9108.66106 5.42233e-18
9111.61597 5.30371e-18
9114.57087 5.11632e-18
9117.52578 5.07094e-18
9120.48069 5.20074e-18
9123.43559 5.39062e-18
9126.39049 5.55782e-18
9129.34540 5.69487e-18
9132.30030 5.95051e-18
9135.25521 6.18580e-18
9138.21011 6.17631e-18
9141.16502 6.09451e-18
9144.11992 6.03475e-18
9147.07483 5.85283e-18
9150.02974 5.56358e-18
9152.97455 5.21812e-18
9155.92946 4.91896e-18
9158.88436 4.87449e-18
9161.83927 4.94258e-18
9164.79417 4.92964e-18
9167.74908 5.05079e-18
9170.70399 5.37182e-18
9173.65889 5.72418e-18
9176.61379 5.99894e-18
9179.56870 6.15833e-18
9182.52360 6.30233e-18
9185.47851 6.27229e-18
9188.43341 6.02747e-18
9191.38832 5.78698e-18
9194.34323 5.52295e-18
9197.29813 5.34935e-18
9200.25303 5.24432e-18
9203.20794 5.12008e-18
9206.16284 5.11777e-18
9209.11775 5.33527e-18
9212.07265 5.55490e-18
9215.02756 5.67436e-18
9217.98247 5.85388e-18
9220.93737 6.13521e-18
9223.89227 6.42720e-18
9226.84718 6.57659e-18
9229.80208 6.41992e-18
9232.75699 6.04474e-18
9235.71190 5.73763e-18
9238.66680 5.59273e-18
9241.62170 5.42737e-18
9244.57661 5.25592e-18
9247.53152 5.18385e-18
9250.48642 5.11357e-18
9253.44132 5.06241e-18
9256.39623 5.26420e-18
9259.34105 5.64417e-18
9262.29595 6.02761e-18
9265.25086 6.31718e-18
9268.20577 6.37444e-18
9271.16067 6.28130e-18
9274.11557 6.19182e-18
9277.07048 5.99441e-18
9280.02538 5.63092e-18
9282.98029 5.20378e-18
9285.93520 4.80101e-18
9288.89010 4.48170e-18
9291.84501 4.39251e-18
9294.79991 4.52604e-18
9297.75481 4.61765e-18
9300.70972 4.71594e-18
9303.66462 4.90770e-18
9306.61953 5.02968e-18
9309.57444 5.14722e-18
9312.52934 5.06554e-18
9315.48424 4.77500e-18
9318.43915 4.55038e-18
9321.39405 4.28656e-18
9324.34896 4.09199e-18
9327.30386 3.81457e-18
9330.25877 3.41743e-18
9333.21367 3.23389e-18
9336.16858 3.20887e-18
9339.12349 3.13134e-18
9342.07839 3.16635e-18
9345.03329 3.43725e-18
9347.98820 3.69789e-18
9350.94310 3.74933e-18
9353.89801 3.90361e-18
9356.85291 4.25579e-18
9359.80782 4.41468e-18
9362.75264 4.29210e-18
9365.70754 4.05914e-18
9368.66245 3.78190e-18
9371.61735 3.55100e-18
9374.57226 3.42286e-18
9377.52716 3.33247e-18
9380.48207 3.30476e-18
9383.43698 3.51410e-18
9386.39188 3.89709e-18
9389.34678 4.15687e-18
9392.30169 4.36258e-18
9395.25659 4.64154e-18
9398.21150 4.83520e-18
9401.16640 4.93195e-18
9404.12131 4.99015e-18
9407.07622 4.88565e-18
9410.03112 4.66895e-18
9412.98602 4.39291e-18
9415.94093 4.03904e-18
9418.89583 3.87858e-18
9421.85074 3.65203e-18
9424.80565 3.25647e-18
9427.76055 3.09581e-18
9430.71545 3.05514e-18
9433.67036 3.03462e-18
9436.62527 3.34485e-18
9439.58017 3.81502e-18
9442.53507 3.97450e-18
9445.48998 3.94743e-18
9448.44488 3.95835e-18
9451.39979 3.98655e-18
9454.35469 4.16409e-18
9457.30960 4.13254e-18
9460.26451 3.66020e-18
9463.21941 3.34901e-18
9466.16423 3.19286e-18
9469.11913 2.97161e-18
9472.07404 2.95662e-18
9475.02895 3.11227e-18
9477.98385 3.25588e-18
9480.93876 3.35742e-18
9483.89366 3.52957e-18
9486.84856 3.82781e-18
9489.80347 4.17074e-18
9492.75837 4.31786e-18
9495.71328 4.18856e-18
9498.66819 4.01787e-18
9501.62309 3.92477e-18
9504.57799 3.78330e-18
9507.53290 3.56226e-18
9510.48780 3.35800e-18
9513.44271 3.21889e-18
9516.39761 3.05868e-18
9519.35252 2.95370e-18
9522.30742 3.12977e-18
9525.26233 3.39186e-18
9528.21724 3.56977e-18
9531.17214 3.90962e-18
9534.12704 4.30480e-18
9537.08195 4.43457e-18
9540.03685 4.40157e-18
9542.99176 4.37028e-18
9545.94666 4.29240e-18
9548.90157 4.07959e-18
9551.85648 3.69801e-18
9554.81138 3.24992e-18
9557.76628 3.03298e-18
9560.72119 3.08578e-18
9563.67609 3.06273e-18
9566.63100 3.09019e-18
9569.57582 3.30922e-18
9572.53073 3.49585e-18
9575.48563 3.68739e-18
9578.44053 3.99079e-18
9581.39544 4.12347e-18
9584.35034 4.15975e-18
9587.30525 4.25942e-18
9590.26015 4.19769e-18
9593.21506 4.04799e-18
9596.16997 3.91519e-18
9599.12487 3.62015e-18
9602.07977 3.27635e-18
9605.03468 3.18682e-18
9607.98958 3.24882e-18
9610.94449 3.31017e-18
9613.89940 3.34238e-18
9616.85430 3.44275e-18
9619.80920 3.76761e-18
9622.76411 4.14836e-18
9625.71902 4.35310e-18
9628.67392 4.49885e-18
9631.62882 4.55457e-18
9634.58373 4.46759e-18
9637.53863 4.23528e-18
9640.49354 3.83149e-18
9643.44844 3.49641e-18
9646.40335 3.29643e-18
9649.35826 3.07994e-18
9652.31316 2.86445e-18
9655.26806 2.91410e-18
9658.22297 3.22026e-18
9661.17787 3.47138e-18
9664.13278 3.71878e-18
9667.08769 3.97634e-18
9670.04259 4.04489e-18
9672.98741 4.22139e-18
9675.94231 4.62062e-18
9678.89722 4.93515e-18
9681.85212 4.91911e-18
9684.80703 4.64947e-18
9687.76194 4.30446e-18
9690.71684 3.72620e-18
9693.67174 3.25094e-18
9696.62665 3.04048e-18
9699.58155 2.89025e-18
9702.53646 2.91817e-18
9705.49136 3.11829e-18
9708.44627 3.26263e-18
9711.40117 3.33146e-18
9714.35608 3.48654e-18
9717.31099 3.76493e-18
9720.26589 3.97113e-18
9723.22079 4.12783e-18
9726.17570 4.34555e-18
9729.13060 4.41294e-18
9732.08551 4.19480e-18
9735.04041 3.88559e-18
9737.99532 3.62442e-18
9740.95023 3.40668e-18
9743.90513 3.20698e-18
9746.86003 2.98274e-18
9749.81494 2.80177e-18
9752.76984 2.72038e-18
9755.72475 2.73569e-18
9758.67965 2.85206e-18
9761.63456 2.96692e-18
9764.58947 3.38303e-18
9767.54437 4.04907e-18
9770.49927 4.27232e-18
9773.45418 4.00516e-18
9776.39900 3.79305e-18
9779.35390 3.70832e-18
9782.30881 3.67163e-18
9785.26372 3.64229e-18
9788.21862 3.37868e-18
9791.17352 3.03203e-18
9794.12843 2.83526e-18
9797.08333 2.74670e-18
9800.03824 2.75222e-18
9802.99315 2.82135e-18
9805.94805 2.91410e-18
9808.90295 3.06381e-18
9811.85786 3.14467e-18
9814.81277 3.17199e-18
9817.76767 3.44513e-18
9820.72257 3.83055e-18
9823.67748 4.06093e-18
9826.63238 4.13747e-18
9829.58729 4.01531e-18
9832.54219 3.75279e-18
9835.49710 3.61819e-18
9838.45201 3.50949e-18
9841.40691 3.20588e-18
9844.36181 3.08079e-18
9847.31672 3.26951e-18
9850.27162 3.41645e-18
9853.22653 3.41999e-18
9856.18144 3.41304e-18
9859.13634 3.54970e-18
9862.09124 3.75141e-18
9865.04615 3.93995e-18
9868.00105 4.20623e-18
9870.95596 4.47693e-18
9873.91086 4.73083e-18
9876.86577 5.02028e-18
9879.81059 5.09886e-18
9882.76549 4.82486e-18
9885.72040 4.48616e-18
9888.67530 4.33691e-18
9891.63021 4.28809e-18
9894.58511 4.13417e-18
9897.54002 3.89434e-18
9900.49492 3.76135e-18
9903.44983 3.89170e-18
9906.40474 4.25760e-18
9909.35964 4.58950e-18
9912.31454 4.67272e-18
9915.26945 4.64582e-18
9918.22435 4.86698e-18
9921.17926 5.27029e-18
9924.13416 5.46442e-18
9927.08907 5.47198e-18
9930.04398 5.46388e-18
9932.99888 5.44068e-18
9935.95378 5.41152e-18
9938.90869 5.32631e-18
9941.86359 5.21926e-18
9944.81850 5.26318e-18
9947.77340 5.32853e-18
9950.72831 5.25206e-18
9953.68322 5.15972e-18
9956.63812 5.17234e-18
9959.59302 5.33001e-18
9962.54793 5.53584e-18
9965.50283 5.80923e-18
9968.45774 6.14799e-18
9971.41265 6.22671e-18
9974.36755 6.24541e-18
9977.32245 6.37739e-18
9980.27736 6.30247e-18
9983.22218 6.28338e-18
9986.17708 6.45500e-18
9989.13199 6.29051e-18
9992.08690 6.02745e-18
9995.04180 5.99206e-18
9997.99670 6.00098e-18
