# wavelength flux
3372.80723 4.75992e-18
3375.76213 1.35939e-18
3378.71704 7.37231e-18
3381.67195 6.35551e-18
3384.61676 6.13234e-18
3387.57167 1.12428e-18
3390.52657 1.20719e-18
3393.48148 -7.78063e-19
3396.43638 5.75723e-18
3399.39129 4.09490e-18
3402.34620 1.02612e-17
3405.30110 1.08644e-17
3408.25601 2.42056e-18
3411.21091 6.10213e-18
3414.16581 8.07236e-18
3417.12072 3.18697e-18
3420.07562 1.16156e-17
3423.02045 3.31515e-18
3425.97535 8.29496e-18
3428.93026 8.30661e-18
3431.88516 6.23049e-18
3434.84006 1.14358e-18
3437.79497 1.01507e-17
3440.74987 8.46112e-18
3443.70478 9.39167e-18
3446.65969 8.92355e-18
3449.61459 5.49957e-18
3452.56949 2.94446e-18
3455.52440 7.78331e-18
3458.47930 9.27198e-18
3461.43421 8.34085e-18
3464.37903 6.12504e-18
3467.33394 8.43456e-18
3470.28884 2.14898e-18
3473.24374 3.74490e-18
3476.19865 6.83702e-18
3479.15355 5.80861e-18
3482.10846 2.92171e-18
3485.06336 4.04522e-18
3488.01827 4.91013e-18
3490.97318 6.82458e-18
3493.92808 7.29309e-18
3496.88298 8.50815e-18
3499.83789 7.21665e-18
3502.78271 3.08051e-18
3505.73762 6.16684e-18
3508.69252 5.09909e-18
3511.64743 5.27915e-18
3514.60233 8.69102e-18
3517.55723 7.31415e-18
3520.51214 6.84028e-18
3523.46704 1.03196e-17
3526.42195 6.37199e-18
3529.37685 5.76217e-18
3532.33176 8.63241e-18
3535.28666 7.02763e-18
3538.24157 6.62171e-18
3541.18639 7.33966e-18
3544.14129 4.40030e-18
3547.09620 6.20598e-18
3550.05111 6.62279e-18
3553.00601 5.93939e-18
3555.96091 4.92808e-18
3558.91582 6.14272e-18
3561.87072 7.50813e-18
3564.82563 6.48867e-18
3567.78053 4.98503e-18
3570.73544 5.35975e-18
3573.69034 7.86826e-18
3576.64525 6.83516e-18
3579.60015 6.23316e-18
3582.54497 7.63268e-18
3585.49988 9.36625e-18
3588.45478 6.79163e-18
3591.40969 4.62327e-18
3594.36460 7.61846e-18
3597.31950 7.78464e-18
3600.27440 6.99209e-18
3603.22931 6.56944e-18
3606.18421 7.25068e-18
3609.13912 5.32098e-18
3612.09402 7.68720e-18
3615.04893 8.72480e-18
3618.00383 7.05888e-18
3620.95874 5.95333e-18
3623.90356 5.81285e-18
3626.85846 6.37001e-18
3629.81337 7.02989e-18
3632.76827 7.90744e-18
3635.72318 8.60789e-18
3638.67809 6.63408e-18
3641.63299 6.66724e-18
3644.58789 7.72498e-18
3647.54280 8.61869e-18
3650.49770 8.57960e-18
3653.45261 9.17392e-18
3656.40751 6.93729e-18
3659.36242 -1.18878e-18
3662.30724 2.11113e-18
3665.26214 9.27276e-18
3668.21705 9.23680e-18
3671.17195 8.49916e-18
3674.12686 9.32706e-18
3677.08176 7.50967e-18
3680.03667 8.21589e-18
3682.99157 1.00741e-17
3685.94648 9.67871e-18
3688.90138 9.21273e-18
3691.85629 9.79237e-18
3694.81119 9.86141e-18
3697.76610 9.55199e-18
3700.71092 9.57950e-18
3703.66582 1.11797e-17
3706.62073 1.03869e-17
3709.57563 9.68992e-18
3712.53054 1.04967e-17
3715.48544 1.03040e-17
3718.44035 9.40880e-18
3721.39525 9.78057e-18
3724.35016 9.01328e-18
3727.30506 1.07651e-17
3730.25997 1.06689e-17
3733.21487 1.11765e-17
3736.16978 1.03798e-17
3739.12468 9.80106e-18
3742.06950 9.92264e-18
3745.02441 1.00281e-17
3747.97931 1.01335e-17
3750.93422 1.02389e-17
3753.88912 1.03443e-17
3756.84403 1.04496e-17
3759.79893 1.05549e-17
3762.75384 1.06602e-17
3765.70874 1.07655e-17
3768.66365 1.08707e-17
3771.61855 1.09759e-17
3774.57346 1.10811e-17
3777.52836 1.11862e-17
3780.47318 1.12913e-17
3783.42809 1.03069e-17
3786.38299 1.07967e-17
3789.33790 1.06523e-17
3792.29280 1.11647e-17
3795.24771 1.15103e-17
3798.20261 1.11357e-17
3801.15752 1.18579e-17
3804.11242 1.06467e-17
3807.06733 1.14326e-17
3810.02223 1.21322e-17
3812.97714 1.20561e-17
3815.93205 1.21005e-17
3818.88695 1.20000e-17
3821.83177 1.19755e-17
3824.78667 1.27992e-17
3827.74158 1.23223e-17
3830.69648 1.23355e-17
3833.65139 1.21670e-17
3836.60629 1.23366e-17
3839.56120 1.15602e-17
3842.51611 1.14562e-17
3845.47101 1.20579e-17
3848.42591 1.27794e-17
3851.38082 1.22706e-17
3854.33572 1.21919e-17
3857.29063 1.27469e-17
3860.23545 1.28651e-17
3863.19035 1.26087e-17
3866.14526 1.27995e-17
3869.10016 1.26852e-17
3872.05507 1.38353e-17
3875.00997 1.41238e-17
3877.96488 1.41631e-17
3880.91979 1.37533e-17
3883.87469 1.33769e-17
3886.82960 1.39639e-17
3889.78450 1.41576e-17
3892.73940 1.43474e-17
3895.69431 1.46469e-17
3898.63913 1.41417e-17
3901.59404 1.56727e-17
3904.54894 1.45894e-17
3907.50385 1.53798e-17
3910.45875 1.48472e-17
3913.41365 1.53913e-17
3916.36856 1.52422e-17
3919.32346 1.57341e-17
3922.27837 1.53204e-17
3925.23328 1.56097e-17
3928.18818 1.62404e-17
3931.14309 1.60384e-17
3934.09799 1.59076e-17
3937.05289 1.52206e-17
3939.99771 1.57496e-17
3942.95262 1.58622e-17
3945.90753 1.60356e-17
3948.86243 1.57470e-17
3951.81734 1.57954e-17
3954.77224 1.59732e-17
3957.72714 1.59461e-17
3960.68205 1.66412e-17
3963.63695 1.67231e-17
3966.59186 1.61863e-17
3969.54677 1.54458e-17
3972.50167 1.61990e-17
3975.45657 1.72740e-17
3978.41148 1.63808e-17
3981.35630 1.63449e-17
3984.31120 1.61936e-17
3987.26611 1.60744e-17
3990.22102 1.66362e-17
3993.17592 1.70885e-17
3996.13082 1.69777e-17
3999.08573 1.66015e-17
4002.04063 1.61329e-17
4004.99554 1.63706e-17
4007.95044 1.63207e-17
4010.90535 1.53236e-17
4013.86026 1.54896e-17
4016.81516 1.60060e-17
4019.75998 1.60258e-17
4022.71488 1.61156e-17
4025.66979 1.69031e-17
4028.62469 1.72094e-17
4031.57960 1.59027e-17
4034.53451 1.54134e-17
4037.48941 1.62064e-17
4040.44431 1.61074e-17
4043.39922 1.51376e-17
4046.35412 1.42372e-17
4049.30903 1.60926e-17
4052.26393 1.59977e-17
4055.21884 1.58446e-17
4058.16366 1.58797e-17
4061.11856 1.63786e-17
4064.07347 1.62778e-17
4067.02837 1.61320e-17
4069.98328 1.47592e-17
4072.93818 1.60275e-17
4075.89309 1.66201e-17
4078.84799 1.55645e-17
4081.80290 1.58037e-17
4084.75780 1.53854e-17
4087.71271 1.52578e-17
4090.66761 1.55912e-17
4093.62252 1.58170e-17
4096.56734 1.60205e-17
4099.52224 1.50109e-17
4102.47715 1.58635e-17
4105.43205 1.55773e-17
4108.38696 1.50728e-17
4111.34186 1.45145e-17
4114.29677 1.54759e-17
4117.25168 1.57908e-17
4120.20658 1.52404e-17
4123.16148 1.47326e-17
4126.11639 1.45315e-17
4129.07129 1.42054e-17
4132.02620 1.48696e-17
4134.98110 1.49666e-17
4137.92592 1.50486e-17
4140.88083 1.48628e-17
4143.83573 1.42820e-17
4146.79064 1.40210e-17
4149.74555 1.44481e-17
4152.70045 1.44323e-17
4155.65535 1.43757e-17
4158.61026 1.43317e-17
4161.56516 1.40923e-17
4164.52007 1.45787e-17
4167.47498 1.43312e-17
4170.42988 1.37752e-17
4173.38479 1.42276e-17
4176.32960 1.42924e-17
4179.28451 1.41740e-17
4182.23942 1.39575e-17
4185.19432 1.40450e-17
4188.14923 1.41896e-17
4191.10413 1.41275e-17
4194.05904 1.39835e-17
4197.01394 1.39591e-17
4199.96884 1.36089e-17
4202.92375 1.38625e-17
4205.87866 1.41833e-17
4208.83356 1.40407e-17
4211.78846 1.36318e-17
4214.74337 1.47204e-17
4217.68819 1.39492e-17
4220.64309 1.39814e-17
4223.59800 1.36780e-17
4226.55291 1.35592e-17
4229.50781 1.37437e-17
4232.46271 1.37762e-17
4235.41762 1.33922e-17
4238.37252 1.44413e-17
4241.32743 1.44911e-17
4244.28233 1.44968e-17
4247.23724 1.47398e-17
4250.19214 1.45551e-17
4253.14705 1.37793e-17
4256.09187 1.40669e-17
4259.04677 1.45109e-17
4262.00168 1.42556e-17
4264.95658 1.34790e-17
4267.91149 1.36282e-17
4270.86640 1.38656e-17
4273.82130 1.37389e-17
4276.77620 1.35364e-17
4279.73111 1.32370e-17
4282.68602 1.31384e-17
4285.64092 1.40174e-17
4288.59582 1.40827e-17
4291.55073 1.35731e-17
4294.50564 1.34391e-17
4297.45045 1.39599e-17
4300.40536 1.33830e-17
4303.36027 1.33034e-17
4306.31517 1.38115e-17
4309.27007 1.43432e-17
4312.22498 1.41062e-17
4315.17989 1.29317e-17
4318.13479 1.39961e-17
4321.08969 1.42238e-17
4324.04460 1.38840e-17
4326.99950 1.36303e-17
4329.95441 1.40214e-17
4332.90931 1.33529e-17
4335.85414 1.37147e-17
4338.80904 1.38017e-17
4341.76394 1.39019e-17
4344.71885 1.40831e-17
4347.67375 1.33559e-17
4350.62866 1.36387e-17
4353.58356 1.41900e-17
4356.53847 1.36963e-17
4359.49338 1.37163e-17
4362.44828 1.42730e-17
4365.40318 1.37139e-17
4368.35809 1.44030e-17
4371.31300 1.43059e-17
4374.26790 1.48427e-17
4377.21272 1.48415e-17
4380.16763 1.46247e-17
4383.12253 1.46567e-17
4386.07743 1.46887e-17
4389.03234 1.47207e-17
4391.98725 1.47526e-17
4394.94215 1.47846e-17
4397.89705 1.48165e-17
4400.85196 1.48484e-17
4403.80686 1.48803e-17
4406.76177 1.49122e-17
4409.71667 1.49441e-17
4412.67158 1.49760e-17
4415.61640 1.50078e-17
4418.57130 1.50397e-17
4421.52621 1.52408e-17
4424.48111 1.53576e-17
4427.43602 1.50779e-17
4430.39092 1.54033e-17
4433.34583 1.57282e-17
4436.30073 1.55280e-17
4439.25564 1.51909e-17
4442.21054 1.51891e-17
4445.16545 1.56321e-17
4448.12036 1.56412e-17
4451.07526 1.61759e-17
4454.03016 1.56978e-17
4456.97498 1.65262e-17
4459.92989 1.59781e-17
4462.88479 1.63023e-17
4465.83970 1.62013e-17
4468.79461 1.66913e-17
4471.74951 1.68114e-17
4474.70441 1.67369e-17
4477.65932 1.68821e-17
4480.61423 1.68084e-17
4483.56913 1.69117e-17
4486.52403 1.74440e-17
4489.47894 1.75016e-17
4492.43384 1.71976e-17
4495.37866 1.74752e-17
4498.33357 1.77506e-17
4501.28848 1.75611e-17
4504.24338 1.76283e-17
4507.19828 1.81055e-17
4510.15319 1.78593e-17
4513.10809 1.77492e-17
4516.06300 1.81831e-17
4519.01790 1.88352e-17
4521.97281 1.82476e-17
4524.92771 1.89033e-17
4527.88262 1.86447e-17
4530.83752 1.91491e-17
4533.78234 1.86091e-17
4536.73725 1.85364e-17
4539.69215 1.86274e-17
4542.64706 1.88835e-17
4545.60196 1.92289e-17
4548.55687 1.93258e-17
4551.51177 1.94679e-17
4554.46668 1.91422e-17
4557.42159 1.94777e-17
4560.37649 1.93835e-17
4563.33139 1.87606e-17
4566.28630 1.92374e-17
4569.24120 1.93432e-17
4572.19611 1.89526e-17
4575.14093 1.91003e-17
4578.09584 1.92838e-17
4581.05074 1.93303e-17
4584.00564 1.89789e-17
4586.96055 1.87608e-17
4589.91545 1.84920e-17
4592.87036 1.86758e-17
4595.82526 1.89208e-17
4598.78017 1.86529e-17
4601.73507 1.84526e-17
4604.68998 1.84628e-17
4607.64489 1.85609e-17
4610.59979 1.89851e-17
4613.54461 1.85151e-17
4616.49951 1.82071e-17
4619.45442 1.78379e-17
4622.40932 1.78002e-17
4625.36423 1.78563e-17
4628.31913 1.81991e-17
4631.27404 1.77471e-17
4634.22894 1.77166e-17
4637.18385 1.75446e-17
4640.13875 1.73887e-17
4643.09366 1.76741e-17
4646.04857 1.75465e-17
4649.00347 1.79675e-17
4651.95838 1.79586e-17
4654.90319 1.70384e-17
4657.85810 1.77121e-17
4660.81300 1.75110e-17
4663.76791 1.72427e-17
4666.72282 1.73183e-17
4669.67772 1.70449e-17
4672.63263 1.74363e-17
4675.58753 1.65813e-17
4678.54243 1.64372e-17
4681.49734 1.63319e-17
4684.45225 1.63793e-17
4687.40715 1.61424e-17
4690.36205 1.58230e-17
4693.30688 1.58198e-17
4696.26178 1.59734e-17
4699.21668 1.57190e-17
4702.17159 1.58168e-17
4705.12650 1.55469e-17
4708.08140 1.55399e-17
4711.03630 1.55378e-17
4713.99121 1.55393e-17
4716.94611 1.55478e-17
4719.90102 1.54988e-17
4722.85592 1.54001e-17
4725.81083 1.52262e-17
4728.76573 1.49881e-17
4731.72064 1.49227e-17
4734.66546 1.48162e-17
4737.62036 1.48418e-17
4740.57527 1.46125e-17
4743.53017 1.42032e-17
4746.48508 1.43462e-17
4749.43998 1.46242e-17
4752.39489 1.54670e-17
4755.34980 1.59718e-17
4758.30470 1.51419e-17
4761.25961 1.53822e-17
4764.21451 1.52280e-17
4767.16941 1.42546e-17
4770.12432 1.41133e-17
4773.06914 1.41843e-17
4776.02405 1.39040e-17
4778.97895 1.36673e-17
4781.93386 1.38675e-17
4784.88876 1.41635e-17
4787.84366 1.35724e-17
4790.79857 1.35037e-17
4793.75348 1.38506e-17
4796.70838 1.40391e-17
4799.66328 1.39470e-17
4802.61819 1.40762e-17
4805.57309 1.43376e-17
4808.52800 1.43028e-17
4811.48290 1.48959e-17
4814.42773 1.40508e-17
4817.38263 1.42123e-17
4820.33753 1.41622e-17
4823.29244 1.46116e-17
4826.24734 1.41073e-17
4829.20225 1.37922e-17
4832.15715 1.42077e-17
4835.11206 1.42778e-17
4838.06696 1.42044e-17
4841.02187 1.45400e-17
4843.97677 1.43921e-17
4846.93168 1.42072e-17
4849.88659 1.47492e-17
4852.83140 1.47620e-17
4855.78631 1.45567e-17
4858.74122 1.45693e-17
4861.69612 1.46083e-17
4864.65102 1.51264e-17
4867.60593 1.48595e-17
4870.56084 1.48248e-17
4873.51574 1.49348e-17
4876.47064 1.44100e-17
4879.42555 1.43826e-17
4882.38045 1.45933e-17
4885.33536 1.45987e-17
4888.29026 1.46041e-17
4891.24517 1.46095e-17
4894.18999 1.46149e-17
4897.14489 1.46203e-17
4900.09980 1.46257e-17
4903.05470 1.46311e-17
4906.00961 1.46365e-17
4908.96451 1.46419e-17
4911.91942 1.46473e-17
4914.87432 1.46527e-17
4917.82923 1.46581e-17
4920.78413 1.46635e-17
4923.73904 1.51089e-17
4926.69394 1.51428e-17
4929.64885 1.56358e-17
4932.59367 1.52349e-17
4935.54857 1.50107e-17
4938.50348 1.52190e-17
4941.45838 1.51740e-17
4944.41329 1.52158e-17
4947.36820 1.49860e-17
4950.32310 1.52086e-17
4953.27800 1.50616e-17
4956.23291 1.50787e-17
4959.18782 1.52959e-17
4962.14272 1.54614e-17
4965.09762 1.53018e-17
4968.05253 1.49888e-17
4970.99735 1.52299e-17
4973.95225 1.52885e-17
4976.90716 1.51397e-17
4979.86207 1.50175e-17
4982.81697 1.53553e-17
4985.77187 1.53180e-17
4988.72678 1.52808e-17
4991.68168 1.52435e-17
4994.63659 1.52063e-17
4997.59149 1.51691e-17
5000.54640 1.51319e-17
5003.50130 1.50947e-17
5006.45621 1.50575e-17
5009.41111 1.50204e-17
5012.35593 1.49832e-17
5015.31084 1.49461e-17
5018.26574 1.49089e-17
5021.22065 1.48718e-17
5024.17555 1.52861e-17
5027.13046 1.55925e-17
5030.08536 1.52399e-17
5033.04027 1.52424e-17
5035.99518 1.52448e-17
5038.95008 1.52472e-17
5041.90498 1.52496e-17
5044.85989 1.52520e-17
5047.81480 1.52544e-17
5050.76970 1.52569e-17
5053.71452 1.52593e-17
5056.66943 1.52617e-17
5059.62433 1.52641e-17
5062.57923 1.52665e-17
5065.53414 1.52690e-17
5068.48905 1.52714e-17
5071.44395 1.54100e-17
5074.39885 1.56113e-17
5077.35376 1.53601e-17
5080.30866 1.52089e-17
5083.26357 1.52867e-17
5086.21847 1.55763e-17
5089.17338 1.52518e-17
5092.11820 1.52579e-17
5095.07310 1.55112e-17
5098.02801 1.53407e-17
5100.98291 1.54960e-17
5103.93782 1.52993e-17
5106.89272 1.56433e-17
5109.84763 1.58053e-17
5112.80253 1.56571e-17
5115.75744 1.52627e-17
5118.71234 1.53373e-17
5121.66725 1.56692e-17
5124.62216 1.57856e-17
5127.57706 1.58612e-17
5130.52188 1.61333e-17
5133.47678 1.59515e-17
5136.43169 1.61006e-17
5139.38659 1.61042e-17
5142.34150 1.65467e-17
5145.29641 1.62386e-17
5148.25131 1.62621e-17
5151.20622 1.65431e-17
5154.16112 1.67103e-17
5157.11602 1.66951e-17
5160.07093 1.69050e-17
5163.02584 1.68281e-17
5165.98074 1.70974e-17
5168.93564 1.69764e-17
5171.88046 1.68525e-17
5174.83537 1.72393e-17
5177.79027 1.75955e-17
5180.74518 1.77264e-17
5183.70009 1.76088e-17
5186.65499 1.71627e-17
5189.60989 1.77463e-17
5192.56480 1.80882e-17
5195.51970 1.80412e-17
5198.47461 1.79128e-17
5201.42951 1.78870e-17
5204.38442 1.83989e-17
5207.33932 1.80603e-17
5210.28414 1.85846e-17
5213.23905 1.85942e-17
5216.19395 1.85063e-17
5219.14886 1.89771e-17
5222.10376 1.87813e-17
5225.05867 1.86506e-17
5228.01357 1.90287e-17
5230.96848 1.91858e-17
5233.92339 1.92009e-17
5236.87829 1.92586e-17
5239.83320 1.89637e-17
5242.78810 1.94763e-17
5245.74300 1.94528e-17
5248.69791 1.99554e-17
5251.64273 2.00907e-17
5254.59764 2.04152e-17
5257.55254 2.00834e-17
5260.50745 1.98937e-17
5263.46235 1.99512e-17
5266.41725 2.00061e-17
5269.37216 2.01686e-17
5272.32707 2.00763e-17
5275.28197 2.03114e-17
5278.23687 2.04841e-17
5281.19178 2.07868e-17
5284.14668 2.07726e-17
5287.10159 2.04407e-17
5290.04641 2.10572e-17
5293.00132 2.03222e-17
5295.95622 2.06371e-17
5298.91112 2.06882e-17
5301.86603 2.07366e-17
5304.82093 2.06473e-17
5307.77584 2.04339e-17
5310.73074 2.06966e-17
5313.68565 2.13540e-17
5316.64055 2.08811e-17
5319.59546 2.03522e-17
5322.55036 2.04436e-17
5325.50527 2.03460e-17
5328.45009 2.04326e-17
5331.40499 2.09992e-17
5334.35990 2.08167e-17
5337.31480 2.10882e-17
5340.26971 2.07246e-17
5343.22461 2.05748e-17
5346.17952 2.07486e-17
5349.13443 2.06286e-17
5352.08933 2.06245e-17
5355.04423 2.10541e-17
5357.99914 2.07506e-17
5360.95405 2.09945e-17
5363.90895 2.05830e-17
5366.85377 2.04949e-17
5369.80868 2.03569e-17
5372.76358 2.04954e-17
5375.71848 2.06477e-17
5378.67339 2.05022e-17
5381.62830 2.06692e-17
5384.58320 2.09418e-17
5387.53810 2.08881e-17
5390.49301 2.06320e-17
5393.44791 2.04291e-17
5396.40282 2.05501e-17
5399.35772 2.09316e-17
5402.31263 2.06094e-17
5405.26753 2.05222e-17
5408.21235 2.05309e-17
5411.16726 2.05984e-17
5414.12216 2.08686e-17
5417.07707 2.08322e-17
5420.03197 2.08015e-17
5422.98688 2.09044e-17
5425.94178 2.08473e-17
5428.89669 2.08086e-17
5431.85159 2.10847e-17
5434.80650 2.09914e-17
5437.76141 2.07124e-17
5440.71631 2.07308e-17
5443.67121 2.05567e-17
5446.62612 2.06002e-17
5449.57094 2.09472e-17
5452.52584 2.10830e-17
5455.48075 2.11526e-17
5458.43566 2.14178e-17
5461.39056 2.12886e-17
5464.34546 2.09132e-17
5467.30037 2.11914e-17
5470.25527 2.13254e-17
5473.21018 2.11486e-17
5476.16508 2.09168e-17
5479.11999 2.06788e-17
5482.07489 2.05882e-17
5485.02980 2.07334e-17
5487.98470 2.10055e-17
5490.92952 2.04285e-17
5493.88443 2.02929e-17
5496.83933 2.02296e-17
5499.79424 2.00055e-17
5502.74914 1.99330e-17
5505.70405 1.99282e-17
5508.65895 1.93938e-17
5511.61386 1.93015e-17
5514.56876 1.92346e-17
5517.52367 1.84803e-17
5520.47857 1.85508e-17
5523.43348 1.86874e-17
5526.38839 1.81949e-17
5529.33320 1.84568e-17
5532.28811 1.81950e-17
5535.24302 1.80163e-17
5538.19792 1.81668e-17
5541.15282 1.80235e-17
5544.10773 1.76728e-17
5547.06264 1.73153e-17
5550.01754 1.72749e-17
5552.97244 1.73193e-17
5555.92735 1.70079e-17
5558.88225 1.70660e-17
5561.83716 1.65273e-17
5564.79206 1.63654e-17
5567.73689 1.61077e-17
5570.69179 1.63832e-17
5573.64669 1.63035e-17
5576.60160 1.62192e-17
5579.55650 1.60456e-17
5582.51141 1.55882e-17
5585.46631 1.56413e-17
5588.42122 1.52309e-17
5591.37612 1.50941e-17
5594.33103 1.49684e-17
5597.28593 1.48533e-17
5600.24084 1.49655e-17
5603.19574 1.45892e-17
5606.15065 1.44422e-17
5609.09547 1.42149e-17
5612.05037 1.43595e-17
5615.00528 1.44687e-17
5617.96018 1.42923e-17
5620.91509 1.42269e-17
5623.87000 1.41675e-17
5626.82490 1.39852e-17
5629.77980 1.41435e-17
5632.73471 1.40086e-17
5635.68961 1.32568e-17
5638.64452 1.31587e-17
5641.59943 1.32998e-17
5644.55433 1.32753e-17
5647.49915 1.33549e-17
5650.45405 1.31830e-17
5653.40896 1.28936e-17
5656.36386 1.26606e-17
5659.31877 1.27762e-17
5662.27368 1.27255e-17
5665.22858 1.26474e-17
5668.18348 1.22863e-17
5671.13839 1.22961e-17
5674.09330 1.22714e-17
5677.04820 1.26468e-17
5680.00310 1.23364e-17
5682.95801 1.23934e-17
5685.90283 1.24294e-17
5688.85773 1.19710e-17
5691.81264 1.19804e-17
5694.76755 1.20572e-17
5697.72245 1.20992e-17
5700.67735 1.19537e-17
5703.63226 1.23424e-17
5706.58716 1.24101e-17
5709.54207 1.22068e-17
5712.49698 1.21648e-17
5715.45188 1.19413e-17
5718.40679 1.15606e-17
5721.36169 1.20434e-17
5724.30651 1.22316e-17
5727.26141 1.19069e-17
5730.21632 1.23207e-17
5733.17123 1.22492e-17
5736.12613 1.19047e-17
5739.08104 1.20313e-17
5742.03594 1.23523e-17
5744.99084 1.20956e-17
5747.94575 1.18138e-17
5750.90066 1.19881e-17
5753.85556 1.20652e-17
5756.81046 1.19219e-17
5759.76537 1.21227e-17
5762.72027 1.23465e-17
5765.66509 1.21309e-17
5768.62000 1.21018e-17
5771.57491 1.20238e-17
5774.52981 1.18638e-17
5777.48471 1.19992e-17
5780.43962 1.23554e-17
5783.39452 1.22281e-17
5786.34943 1.25473e-17
5789.30433 1.30023e-17
5792.25924 1.29006e-17
5795.21414 1.27773e-17
5798.16905 1.30033e-17
5801.12395 1.29865e-17
5804.06877 1.31456e-17
5807.02368 1.35193e-17
5809.97858 1.34174e-17
5812.93349 1.33015e-17
5815.88839 1.34163e-17
5818.84330 1.33643e-17
5821.79820 1.33449e-17
5824.75311 1.37538e-17
5827.70802 1.37059e-17
5830.66292 1.36167e-17
5833.61782 1.38200e-17
5836.57273 1.38861e-17
5839.52764 1.38200e-17
5842.48254 1.39624e-17
5845.43744 1.41568e-17
5848.38227 1.42961e-17
5851.33717 1.43888e-17
5854.29207 1.44218e-17
5857.24698 1.44168e-17
5860.20189 1.45931e-17
5863.15679 1.47674e-17
5866.11169 1.47703e-17
5869.06660 1.51237e-17
5872.02150 1.51476e-17
5874.97641 1.47170e-17
5877.93131 1.51477e-17
5880.88622 1.53251e-17
5883.84112 1.49471e-17
5886.78594 1.51919e-17
5889.74085 1.51388e-17
5892.69575 1.54508e-17
5895.65066 1.52250e-17
5898.60556 1.51840e-17
5901.56047 1.51009e-17
5904.51537 1.50313e-17
5907.47028 1.52725e-17
5910.42518 1.55007e-17
5913.38009 1.54452e-17
5916.33500 1.54087e-17
5919.28990 1.57004e-17
5922.24480 1.54575e-17
5925.18962 1.57086e-17
5928.14453 1.56640e-17
5931.09943 1.57932e-17
5934.05434 1.58742e-17
5937.00925 1.56745e-17
5939.96415 1.55829e-17
5942.91905 1.55484e-17
5945.87396 1.51805e-17
5948.82886 1.50027e-17
5951.78377 1.52273e-17
5954.73867 1.51612e-17
5957.69358 1.51486e-17
5960.64848 1.51308e-17
5963.59330 1.52924e-17
5966.54821 1.54314e-17
5969.50311 1.49117e-17
5972.45802 1.45255e-17
5975.41292 1.47359e-17
5978.36783 1.47998e-17
5981.32273 1.44960e-17
5984.27764 1.44298e-17
5987.23254 1.43937e-17
5990.18745 1.44874e-17
5993.14235 1.43108e-17
5996.09726 1.37940e-17
5999.05216 1.41087e-17
6002.00707 1.39671e-17
6004.95189 1.42639e-17
6007.90679 1.41035e-17
6010.86170 1.36437e-17
6013.81660 1.38283e-17
6016.77151 1.38116e-17
6019.72641 1.35691e-17
6022.68132 1.34204e-17
6025.63623 1.34887e-17
6028.59113 1.37335e-17
6031.54603 1.35014e-17
6034.50094 1.31370e-17
6037.45584 1.33492e-17
6040.41075 1.37168e-17
6043.35557 1.35675e-17
6046.31048 1.31316e-17
6049.26538 1.29956e-17
6052.22028 1.32628e-17
6055.17519 1.31432e-17
6058.13009 1.31486e-17
6061.08500 1.31398e-17
6064.03990 1.31039e-17
6066.99481 1.32720e-17
6069.94971 1.28394e-17
6072.90462 1.30609e-17
6075.85952 1.29901e-17
6078.81443 1.30539e-17
6081.75925 1.26864e-17
6084.71415 1.26065e-17
6087.66906 1.29252e-17
6090.62396 1.27268e-17
6093.57887 1.26804e-17
6096.53377 1.27141e-17
6099.48868 1.27441e-17
6102.44358 1.29654e-17
6105.39849 1.29028e-17
6108.35339 1.28033e-17
6111.30830 1.27875e-17
6114.26320 1.27303e-17
6117.21811 1.26635e-17
6120.17302 1.23241e-17
6123.11784 1.18011e-17
6126.07274 1.26272e-17
6129.02764 1.27669e-17
6131.98255 1.25700e-17
6134.93745 1.26237e-17
6137.89236 1.24491e-17
6140.84726 1.23557e-17
6143.80217 1.22719e-17
6146.75707 1.24339e-17
6149.71198 1.24369e-17
6152.66689 1.22030e-17
6155.62179 1.22404e-17
6158.57669 1.23945e-17
6161.52151 1.24468e-17
6164.47642 1.21742e-17
6167.43132 1.20435e-17
6170.38623 1.21477e-17
6173.34113 1.22733e-17
6176.29604 1.22357e-17
6179.25094 1.19649e-17
6182.20585 1.21370e-17
6185.16075 1.20993e-17
6188.11566 1.21284e-17
6191.07056 1.23439e-17
6194.02547 1.21711e-17
6196.98038 1.23373e-17
6199.93528 1.23226e-17
6202.88010 1.23099e-17
6205.83500 1.23648e-17
6208.78991 1.24542e-17
6211.74482 1.22300e-17
6214.69972 1.18222e-17
6217.65463 1.17774e-17
6220.60953 1.17450e-17
6223.56443 1.20152e-17
6226.51934 1.19894e-17
6229.47425 1.19064e-17
6232.42915 1.21691e-17
6235.38405 1.22460e-17
6238.33896 1.22786e-17
6241.29386 1.21854e-17
6244.23868 1.20344e-17
6247.19359 1.21702e-17
6250.14850 1.22218e-17
6253.10340 1.25143e-17
6256.05830 1.20485e-17
6259.01321 1.19940e-17
6261.96811 1.23063e-17
6264.92302 1.21521e-17
6267.87792 1.22538e-17
6270.83283 1.21059e-17
6273.78773 1.19947e-17
6276.74264 1.19617e-17
6279.69754 1.20688e-17
6282.64236 1.20956e-17
6285.59727 1.17446e-17
6288.55217 1.22903e-17
6291.50708 1.24964e-17
6294.46198 1.24141e-17
6297.41689 1.24795e-17
6300.37180 1.24255e-17
6303.32670 1.27000e-17
6306.28161 1.27205e-17
6309.23651 1.26755e-17
6312.19141 1.25354e-17
6315.14632 1.24954e-17
6318.10123 1.25493e-17
6321.04605 1.23435e-17
6324.00095 1.28533e-17
6326.95586 1.29309e-17
6329.91076 1.27041e-17
6332.86566 1.31639e-17
6335.82057 1.34836e-17
6338.77548 1.34819e-17
6341.73038 1.32313e-17
6344.68528 1.32941e-17
6347.64019 1.35688e-17
6350.59509 1.35386e-17
6353.55000 1.35078e-17
6356.50490 1.36009e-17
6359.45981 1.34050e-17
6362.40463 1.36837e-17
6365.35953 1.42043e-17
6368.31444 1.39218e-17
6371.26934 1.39904e-17
6374.22425 1.38807e-17
6377.17915 1.37895e-17
6380.13406 1.40054e-17
6383.08896 1.38387e-17
6386.04387 1.40468e-17
6388.99877 1.39243e-17
6391.95368 1.38611e-17
6394.90859 1.39783e-17
6397.86349 1.39498e-17
6400.80831 1.41330e-17
6403.76321 1.43888e-17
6406.71812 1.43270e-17
6409.67302 1.41204e-17
6412.62793 1.41914e-17
6415.58284 1.42861e-17
6418.53774 1.40807e-17
6421.49264 1.40626e-17
6424.44755 1.43029e-17
6427.40245 1.42632e-17
6430.35736 1.42377e-17
6433.31226 1.43661e-17
6436.26717 1.41143e-17
6439.22207 1.39881e-17
6442.16689 1.39906e-17
6445.12180 1.42148e-17
6448.07670 1.39684e-17
6451.03161 1.39762e-17
6453.98651 1.40340e-17
6456.94142 1.42351e-17
6459.89632 1.38732e-17
6462.85123 1.38869e-17
6465.80613 1.41684e-17
6468.76104 1.40176e-17
6471.71594 1.37335e-17
6474.67085 1.37507e-17
6477.62575 1.36818e-17
6480.57057 1.33707e-17
6483.52548 1.36236e-17
6486.48038 1.36451e-17
6489.43529 1.38735e-17
6492.39019 1.35737e-17
6495.34510 1.38323e-17
6498.30000 1.38860e-17
6501.25491 1.38719e-17
6504.20982 1.35509e-17
6507.16472 1.33556e-17
6510.11962 1.35386e-17
6513.07453 1.32389e-17
6516.02943 1.33921e-17
6518.97425 1.37138e-17
6521.92916 1.34505e-17
6524.88407 1.33475e-17
6527.83897 1.32924e-17
6530.79387 1.29068e-17
6533.74878 1.28371e-17
6536.70368 1.29094e-17
6539.65859 1.27107e-17
6542.61349 1.26017e-17
6545.56840 1.27607e-17
6548.52330 1.31292e-17
6551.47821 1.29226e-17
6554.43311 1.25795e-17
6557.38802 1.24941e-17
6560.33284 1.20417e-17
6563.28774 1.19158e-17
6566.24265 1.24804e-17
6569.19755 1.26668e-17
6572.15246 1.25733e-17
6575.10736 1.23491e-17
6578.06227 1.19352e-17
6581.01717 1.18765e-17
6583.97208 1.21037e-17
6586.92698 1.22604e-17
6589.88189 1.21846e-17
6592.83680 1.21089e-17
6595.79170 1.20331e-17
6598.73652 1.19574e-17
6601.69142 1.18817e-17
6604.64633 1.18060e-17
6607.60123 1.17303e-17
6610.55614 1.16546e-17
6613.51105 1.15789e-17
6616.46595 1.15032e-17
6619.42085 1.14276e-17
6622.37576 1.13520e-17
6625.33066 1.12763e-17
6628.28557 1.12007e-17
6631.24047 1.11251e-17
6634.19538 1.10495e-17
6637.15028 1.09739e-17
6640.09510 1.08983e-17
6643.05001 1.08227e-17
6646.00491 1.07472e-17
6648.95982 1.06716e-17
6651.91472 1.04990e-17
6654.86963 1.04015e-17
6657.82453 1.00576e-17
6660.77944 1.01936e-17
6663.73434 1.03393e-17
6666.68925 1.02692e-17
6669.64415 1.01464e-17
6672.59906 1.00968e-17
6675.55397 1.02549e-17
6678.49878 1.02638e-17
6681.45369 1.02083e-17
6684.40859 1.00765e-17
6687.36350 9.74618e-18
6690.31840 9.90409e-18
6693.27331 9.71476e-18
6696.22822 9.72605e-18
6699.18312 9.92267e-18
6702.13802 9.37518e-18
6705.09293 9.53108e-18
6708.04784 9.88086e-18
6711.00274 9.73939e-18
6713.95764 9.55316e-18
6716.91255 9.25158e-18
6719.85737 9.13972e-18
6722.81227 9.44081e-18
6725.76718 9.28262e-18
6728.72209 8.91091e-18
6731.67699 8.99903e-18
6734.63189 8.97871e-18
6737.58680 8.94558e-18
6740.54170 8.90898e-18
6743.49661 8.64484e-18
6746.45151 8.82114e-18
6749.40642 8.96657e-18
6752.36132 8.56055e-18
6755.31623 8.61444e-18
6758.26105 8.72746e-18
6761.21595 8.72130e-18
6764.17086 8.25083e-18
6767.12576 8.40689e-18
6770.08067 8.85934e-18
6773.03557 8.72064e-18
6775.99048 8.60443e-18
6778.94538 8.60160e-18
6781.90029 8.45822e-18
6784.85520 8.52357e-18
6787.81010 8.51802e-18
6790.76500 8.50889e-18
6793.71991 8.30591e-18
6796.67482 7.82598e-18
6799.61964 7.77766e-18
6802.57454 7.90000e-18
6805.52945 8.03672e-18
6808.48435 7.77602e-18
6811.43925 7.80932e-18
6814.39416 7.90913e-18
6817.34907 7.84838e-18
6820.30397 7.70442e-18
6823.25887 7.44187e-18
6826.21378 7.57195e-18
6829.16868 7.75270e-18
6832.12359 7.50925e-18
6835.07849 7.68880e-18
6838.02332 7.41377e-18
6840.97822 7.52520e-18
6843.93312 7.52737e-18
6846.88803 7.54691e-18
6849.84293 7.56644e-18
6852.79784 7.58597e-18
6855.75274 7.60549e-18
6858.70765 7.62502e-18
6861.66255 7.64454e-18
6864.61746 7.66406e-18
6867.57236 7.68357e-18
6870.52727 7.70308e-18
6873.48218 7.72260e-18
6876.43708 7.74210e-18
6879.38190 7.76161e-18
6882.33680 7.78111e-18
6885.29171 7.80061e-18
6888.24661 7.82011e-18
6891.20152 7.83960e-18
6894.15643 7.85909e-18
6897.11133 7.87858e-18
6900.06623 7.89806e-18
6903.02114 7.91755e-18
6905.97605 7.93703e-18
6908.93095 7.95650e-18
6911.88585 7.97598e-18
6914.84076 7.99545e-18
6917.78558 8.01492e-18
6920.74048 8.03438e-18
6923.69539 8.05385e-18
6926.65030 8.07331e-18
6929.60520 8.09277e-18
6932.56010 8.11222e-18
6935.51501 8.13167e-18
6938.46991 8.22050e-18
6941.42482 8.23119e-18
6944.37972 8.09145e-18
6947.33463 8.22470e-18
6950.28953 8.48005e-18
6953.24444 8.67234e-18
6956.18926 8.47586e-18
6959.14416 8.14507e-18
6962.09907 8.39768e-18
6965.05397 8.72282e-18
6968.00888 8.38297e-18
6970.96378 8.33396e-18
6973.91869 8.70896e-18
6976.87359 8.63269e-18
6979.82850 8.50469e-18
6982.78341 8.28456e-18
6985.73831 8.33036e-18
6988.69321 8.12629e-18
6991.64812 6.26097e-18
6994.60302 1.75733e-18
6997.54784 2.52888e-18
7000.50275 6.67852e-18
7003.45766 7.97208e-18
7006.41256 8.35414e-18
7009.36746 8.43449e-18
7012.32237 8.75368e-18
7015.27727 8.55156e-18
7018.23218 8.46127e-18
7021.18708 8.60495e-18
7024.14199 8.47433e-18
7027.09689 8.70272e-18
7030.05180 8.81190e-18
7033.00670 8.65392e-18
7035.95152 8.67505e-18
7038.90643 8.81028e-18
7041.86133 8.79552e-18
7044.81624 8.73800e-18
7047.77114 8.84416e-18
7050.72605 9.08658e-18
7053.68095 9.29634e-18
7056.63586 9.30026e-18
7059.59076 9.14262e-18
7062.54567 9.14180e-18
7065.50057 9.18967e-18
7068.45548 9.22181e-18
7071.41039 9.15157e-18
7074.36529 9.10610e-18
7077.31011 9.23515e-18
7080.26501 9.21615e-18
7083.21992 8.98825e-18
7086.17482 9.31413e-18
7089.12973 9.72048e-18
7092.08464 9.43043e-18
7095.03954 9.30727e-18
7097.99444 9.53524e-18
7100.94935 9.51488e-18
7103.90425 9.52172e-18
7106.85916 9.50144e-18
7109.81406 9.38907e-18
7112.76897 9.48578e-18
7115.71379 9.48370e-18
7118.66869 9.60850e-18
7121.62360 9.67359e-18
7124.57850 9.36318e-18
7127.53341 9.31212e-18
7130.48831 9.24111e-18
7133.44322 9.02645e-18
7136.39812 9.18982e-18
7139.35303 9.14171e-18
7142.30793 9.15698e-18
7145.26284 9.30164e-18
7148.21774 9.28825e-18
7151.17265 9.10478e-18
7154.12756 9.14380e-18
7157.07237 9.13907e-18
7160.02728 9.19182e-18
7162.98218 9.07569e-18
7165.93709 9.11038e-18
7168.89199 8.94608e-18
7171.84690 8.92079e-18
7174.80180 9.03288e-18
7177.75671 8.62875e-18
7180.71161 8.50848e-18
7183.66652 8.61132e-18
7186.62143 8.66083e-18
7189.57633 8.69186e-18
7192.53123 8.41388e-18
7195.47605 8.61047e-18
7198.43096 8.71712e-18
7201.38586 8.65739e-18
7204.34077 8.49450e-18
7207.29567 8.38450e-18
7210.25058 8.37399e-18
7213.20548 8.68983e-18
7216.16039 8.79601e-18
7219.11530 8.61041e-18
7222.07020 9.00372e-18
7225.02510 9.14473e-18
7227.98001 9.06123e-18
7230.93491 8.71420e-18
7233.88982 8.64487e-18
7236.83464 8.82291e-18
7239.78955 8.80313e-18
7242.74445 8.91184e-18
7245.69935 8.80768e-18
7248.65426 8.52349e-18
7251.60916 8.81466e-18
7254.56407 9.08390e-18
7257.51897 8.78724e-18
7260.47388 8.96539e-18
7263.42879 9.30611e-18
7266.38369 8.85722e-18
7269.33859 8.87745e-18
7272.29350 8.72509e-18
7275.23832 9.08277e-18
7278.19322 9.17646e-18
7281.14813 9.05072e-18
7284.10304 9.03576e-18
7287.05794 9.03111e-18
7290.01284 9.19534e-18
7292.96775 9.15138e-18
7295.92266 9.03072e-18
7298.87756 8.90997e-18
7301.83246 8.75826e-18
7304.78737 9.15714e-18
7307.74227 8.96454e-18
7310.69718 8.85771e-18
7313.64200 9.10087e-18
7316.59691 9.23120e-18
7319.55181 9.08057e-18
7322.50671 8.76050e-18
7325.46162 8.76295e-18
7328.41652 8.88796e-18
7331.37143 8.83503e-18
7334.32633 8.72582e-18
7337.28124 8.68603e-18
7340.23614 8.77251e-18
7343.19105 8.96745e-18
7346.14595 9.03409e-18
7349.10086 8.83427e-18
7352.04568 8.62512e-18
7355.00058 8.80919e-18
7357.95549 8.93649e-18
7360.91039 8.74602e-18
7363.86530 8.53275e-18
7366.82020 8.29573e-18
7369.77511 8.15047e-18
7372.73002 8.28032e-18
7375.68492 8.41587e-18
7378.63982 8.46852e-18
7381.59473 8.47642e-18
7384.54964 8.26019e-18
7387.50454 8.14387e-18
7390.45944 8.03418e-18
7393.41435 8.12949e-18
7396.35917 8.15649e-18
7399.31407 7.76929e-18
7402.26898 8.02669e-18
7405.22389 7.89863e-18
7408.17879 8.01268e-18
7411.13369 8.25746e-18
7414.08860 7.92068e-18
7417.04350 7.91141e-18
7419.99841 8.22948e-18
7422.95331 8.05552e-18
7425.90822 7.89788e-18
7428.86312 7.66455e-18
7431.81803 7.61521e-18
7434.76285 7.63559e-18
7437.71775 7.61410e-18
7440.67266 7.47957e-18
7443.62756 7.50406e-18
7446.58247 7.43344e-18
7449.53737 7.51838e-18
7452.49228 7.41882e-18
7455.44718 7.24203e-18
7458.40209 7.36532e-18
7461.35700 7.13043e-18
7464.31190 6.86011e-18
7467.26680 6.61233e-18
7470.22171 6.64753e-18
7473.17661 7.02660e-18
7476.12143 6.63949e-18
7479.07634 6.60185e-18
7482.03125 6.48444e-18
7484.98615 6.73938e-18
7487.94105 6.77566e-18
7490.89596 6.53086e-18
7493.85086 6.27101e-18
7496.80577 6.10030e-18
7499.76067 6.43634e-18
7502.71558 6.37684e-18
7505.67048 6.25971e-18
7508.62539 6.35781e-18
7511.58029 6.32638e-18
7514.52511 6.35363e-18
7517.48002 6.43989e-18
7520.43492 6.26383e-18
7523.38983 6.55012e-18
7526.34473 6.51127e-18
7529.29964 6.22560e-18
7532.25454 6.15379e-18
7535.20945 6.19298e-18
7538.16435 6.50113e-18
7541.11926 6.38833e-18
7544.07416 6.30706e-18
7547.02907 6.48631e-18
7549.98398 6.70833e-18
7552.92879 6.69301e-18
7555.88370 6.67769e-18
7558.83860 6.66237e-18
7561.79351 6.64706e-18
7564.74841 6.63175e-18
7567.70332 6.61644e-18
7570.65823 6.60113e-18
7573.61313 6.58582e-18
7576.56803 6.57052e-18
7579.52294 6.55521e-18
7582.47784 6.53991e-18
7585.43275 6.52461e-18
7588.38765 6.50932e-18
7591.33248 6.49402e-18
7594.28738 6.47873e-18
7597.24228 6.46344e-18
7600.19719 6.44815e-18
7603.15209 6.43286e-18
7606.10700 6.41758e-18
7609.06190 6.40230e-18
7612.01681 6.38702e-18
7614.97171 6.37174e-18
7617.92662 6.35646e-18
7620.88152 6.34119e-18
7623.83643 6.32592e-18
7626.79133 6.31065e-18
7629.74624 6.29538e-18
7632.69106 6.28011e-18
7635.64596 6.26485e-18
7638.60087 6.24959e-18
7641.55577 6.23433e-18
7644.51068 6.21907e-18
7647.46558 6.20382e-18
7650.42049 6.18856e-18
7653.37539 6.17331e-18
7656.33030 6.15806e-18
7659.28520 6.14282e-18
7662.24011 6.12757e-18
7665.19501 6.11233e-18
7668.14992 6.09709e-18
7671.09474 6.08185e-18
7674.04964 6.06661e-18
7677.00455 6.05138e-18
7679.95945 6.03615e-18
7682.91436 6.02092e-18
7685.86926 5.78654e-18
7688.82417 5.75061e-18
7691.77907 5.89902e-18
7694.73398 5.74022e-18
7697.68889 5.60059e-18
7700.64379 5.83633e-18
7703.59869 5.69484e-18
7706.55360 6.01233e-18
7709.49842 6.03073e-18
7712.45332 5.90151e-18
7715.40823 5.79200e-18
7718.36313 5.82373e-18
7721.31804 5.59781e-18
7724.27294 5.44670e-18
7727.22785 5.78573e-18
7730.18275 5.54266e-18
7733.13766 5.35368e-18
7736.09256 5.43495e-18
7739.04747 5.61020e-18
7742.00238 5.55000e-18
7744.95728 5.62595e-18
7747.91218 5.46450e-18
7750.86709 5.44009e-18
7753.81191 5.27557e-18
7756.76681 5.03213e-18
7759.72172 5.14924e-18
7762.67663 5.15261e-18
7765.63153 5.08535e-18
7768.58643 5.33885e-18
7771.54134 5.19887e-18
7774.49625 5.28491e-18
7777.45115 5.18128e-18
7780.40605 5.13542e-18
7783.36096 4.97559e-18
7786.31586 4.92895e-18
7789.27077 4.96304e-18
7792.21559 4.75842e-18
7795.17050 4.53328e-18
7798.12540 4.36425e-18
7801.08030 4.38002e-18
7804.03521 4.61301e-18
7806.99011 4.27545e-18
7809.94502 4.58027e-18
7812.89992 4.78772e-18
7815.85483 4.66881e-18
7818.80973 4.93870e-18
7821.76464 4.62394e-18
7824.71954 4.53896e-18
7827.67445 4.67643e-18
7830.61927 4.59261e-18
7833.57417 4.63159e-18
7836.52908 4.69382e-18
7839.48398 4.60161e-18
7842.43889 4.53196e-18
7845.39379 4.42023e-18
7848.34870 4.53744e-18
7851.30361 4.70716e-18
7854.25851 4.41851e-18
7857.21341 4.33036e-18
7860.16832 4.43692e-18
7863.12323 4.15861e-18
7866.07813 4.18597e-18
7869.03303 4.42613e-18
7871.97786 4.31594e-18
7874.93276 4.22663e-18
7877.88766 4.22808e-18
7880.84257 4.39771e-18
7883.79748 4.10755e-18
7886.75238 3.85352e-18
7889.70728 4.15471e-18
7892.66219 3.92688e-18
7895.61709 3.92386e-18
7898.57200 3.84548e-18
7901.52690 3.86800e-18
7904.48181 3.86652e-18
7907.43671 3.60733e-18
7910.38153 3.66640e-18
7913.33644 3.71264e-18
7916.29134 3.61115e-18
7919.24625 3.97594e-18
7922.20115 3.63882e-18
7925.15606 3.60934e-18
7928.11096 3.89528e-18
7931.06587 3.92407e-18
7934.02077 3.67396e-18
7936.97568 3.61713e-18
7939.93059 3.77533e-18
7942.88549 3.73015e-18
7945.84039 3.52592e-18
7948.78521 3.46214e-18
7951.74012 3.46468e-18
7954.69502 3.57749e-18
7957.64993 3.64027e-18
7960.60484 3.33414e-18
7963.55974 3.45877e-18
7966.51464 3.58091e-18
7969.46955 3.72997e-18
7972.42445 3.52398e-18
7975.37936 3.38500e-18
7978.33426 3.40486e-18
7981.28917 3.23360e-18
7984.24407 3.29215e-18
7987.19898 3.31955e-18
7990.14380 3.00160e-18
7993.09870 3.33581e-18
7996.05361 3.33991e-18
7999.00851 3.31531e-18
8001.96342 3.30900e-18
8004.91832 3.25339e-18
8007.87323 3.25248e-18
8010.82813 3.29732e-18
8013.78304 3.19695e-18
8016.73794 3.00069e-18
8019.69285 2.82497e-18
8022.64775 2.87464e-18
8025.60266 3.25293e-18
8028.54748 3.17346e-18
8031.50238 3.21859e-18
8034.45729 3.06487e-18
8037.41219 3.25467e-18
8040.36710 3.26938e-18
8043.32200 3.13489e-18
8046.27691 2.95185e-18
8049.23182 2.97363e-18
8052.18672 3.04038e-18
8055.14162 2.88151e-18
8058.09653 2.93557e-18
8061.05143 3.17888e-18
8064.00634 3.22868e-18
8066.95116 3.03314e-18
8069.90607 2.86955e-18
8072.86097 2.87584e-18
8075.81587 2.87938e-18
8078.77078 2.79247e-18
8081.72568 2.66467e-18
8084.68059 2.74086e-18
8087.63549 2.76426e-18
8090.59040 2.74354e-18
8093.54530 2.87372e-18
8096.50021 2.74460e-18
8099.45511 2.73776e-18
8102.41002 2.63464e-18
8105.36492 2.58837e-18
8108.30974 2.72269e-18
8111.26465 2.73784e-18
8114.21955 2.72537e-18
8117.17446 2.66843e-18
8120.12936 2.61784e-18
8123.08427 2.62695e-18
8126.03917 2.66105e-18
8128.99408 2.64534e-18
8131.94898 2.57750e-18
8134.90389 2.66133e-18
8137.85880 2.67020e-18
8140.81370 2.75436e-18
8143.76860 2.66322e-18
8146.72351 2.74202e-18
8149.66833 2.73682e-18
8152.62323 2.56800e-18
8155.57814 2.44486e-18
8158.53305 2.40259e-18
8161.48795 2.43305e-18
8164.44285 2.46395e-18
8167.39776 2.39443e-18
8170.35266 2.31030e-18
8173.30757 2.25257e-18
8176.26247 2.53613e-18
8179.21738 2.60131e-18
8182.17228 2.48768e-18
8185.12719 2.33002e-18
8188.07201 2.37451e-18
8191.02691 2.64001e-18
8193.98182 2.47302e-18
8196.93672 2.41912e-18
8199.89163 2.62528e-18
8202.84653 2.35486e-18
8205.80144 2.61411e-18
8208.75634 2.53191e-18
8211.71125 2.31843e-18
8214.66616 2.43613e-18
8217.62106 2.48265e-18
8220.57596 2.51208e-18
8223.53087 2.53676e-18
8226.48577 2.55339e-18
8229.43059 2.46460e-18
8232.38550 2.38618e-18
8235.34040 2.43749e-18
8238.29531 2.43047e-18
8241.25022 2.44572e-18
8244.20512 2.54729e-18
8247.16002 2.62273e-18
8250.11493 2.47685e-18
8253.06984 2.45402e-18
8256.02474 2.73435e-18
8258.97964 2.55200e-18
8261.93455 2.41947e-18
8264.88945 2.61853e-18
8267.83427 2.91434e-18
8270.78918 2.86221e-18
8273.74409 2.46713e-18
8276.69899 2.66249e-18
8279.65390 2.66622e-18
8282.60880 2.53130e-18
8285.56370 2.58296e-18
8288.51861 2.60293e-18
8291.47351 2.56420e-18
8294.42842 2.65027e-18
8297.38333 2.82467e-18
8300.33823 2.95510e-18
8303.29313 2.94354e-18
8306.24804 2.95476e-18
8309.19286 2.97728e-18
8312.14776 2.90329e-18
8315.10267 3.19568e-18
8318.05758 3.04688e-18
8321.01248 2.62351e-18
8323.96738 2.84828e-18
8326.92229 3.08188e-18
8329.87719 2.85015e-18
8332.83210 2.95458e-18
8335.78701 2.98556e-18
8338.74191 2.74641e-18
8341.69681 2.79279e-18
8344.65172 2.90965e-18
8347.59654 3.02413e-18
8350.55144 3.08065e-18
8353.50635 2.88335e-18
8356.46126 3.10949e-18
8359.41616 3.35946e-18
8362.37106 3.18069e-18
8365.32597 3.20117e-18
8368.28088 3.44516e-18
8371.23578 3.46650e-18
8374.19068 3.45180e-18
8377.14559 3.49723e-18
8380.10049 3.39513e-18
8383.05540 3.34488e-18
8386.01030 3.35637e-18
8388.95513 3.47145e-18
8391.91003 3.80282e-18
8394.86493 3.76377e-18
8397.81984 4.11595e-18
8400.77474 3.86397e-18
8403.72965 3.73235e-18
8406.68455 3.96935e-18
8409.63946 4.04344e-18
8412.59437 4.13026e-18
8415.54927 4.16198e-18
8418.50417 3.96928e-18
8421.45908 3.97589e-18
8424.41398 4.36156e-18
8427.35880 4.67760e-18
8430.31371 4.45648e-18
8433.26862 4.43146e-18
8436.22352 4.90755e-18
8439.17842 5.11672e-18
8442.13333 5.21802e-18
8445.08823 5.24048e-18
8448.04314 5.29904e-18
8450.99805 5.40772e-18
8453.95295 5.18063e-18
8456.90785 5.44030e-18
8459.86276 5.37001e-18
8462.81766 5.39380e-18
8465.77257 5.71381e-18
8468.71739 5.77823e-18
8471.67230 5.80522e-18
8474.62720 6.21148e-18
8477.58210 6.45989e-18
8480.53701 6.16557e-18
8483.49191 6.12959e-18
8486.44682 6.54151e-18
8489.40172 6.66069e-18
8492.35663 6.65880e-18
8495.31153 6.47050e-18
8498.26644 6.73062e-18
8501.22134 6.84701e-18
8504.17625 6.99295e-18
8507.12107 7.08610e-18
8510.07597 7.39011e-18
8513.03088 7.61609e-18
8515.98578 7.63639e-18
8518.94069 7.79812e-18
8521.89559 7.90238e-18
8524.85050 7.80201e-18
8527.80540 7.78945e-18
8530.76031 7.71751e-18
8533.71522 8.11359e-18
8536.67012 8.22511e-18
8539.62502 8.34338e-18
8542.57993 8.66221e-18
8545.52475 8.64707e-18
8548.47965 9.07101e-18
8551.43456 9.38832e-18
8554.38947 9.26383e-18
8557.34437 9.15887e-18
8560.29927 8.82105e-18
8563.25418 9.08689e-18
8566.20909 9.28279e-18
8569.16399 9.17381e-18
8572.11889 9.63023e-18
8575.07380 9.75779e-18
8578.02870 9.75742e-18
8580.98361 9.79533e-18
8583.92843 9.90374e-18
8586.88334 1.00761e-17
8589.83824 1.02747e-17
8592.79314 1.02734e-17
8595.74805 1.01747e-17
8598.70295 1.03985e-17
8601.65786 1.02393e-17
8604.61276 1.02607e-17
8607.56767 1.04533e-17
8610.52258 1.04734e-17
8613.47748 1.08510e-17
8616.43238 1.09962e-17
8619.38729 1.10171e-17
8622.34219 1.11731e-17
8625.28701 1.11512e-17
8628.24192 1.10879e-17
8631.19683 1.09669e-17
8634.15173 1.06028e-17
8637.10663 1.05734e-17
8640.06154 1.02204e-17
8643.01644 1.03843e-17
8645.97135 1.02524e-17
8648.92626 1.08149e-17
8651.88116 1.15232e-17
8654.83606 1.13736e-17
8657.79097 1.12512e-17
8660.74587 1.18092e-17
8663.69069 1.16670e-17
8666.64560 1.08542e-17
8669.60051 1.08172e-17
8672.55541 1.03777e-17
8675.51031 1.05108e-17
8678.46522 1.04537e-17
8681.42012 1.00711e-17
8684.37503 1.06328e-17
8687.32993 1.09122e-17
8690.28484 1.06568e-17
8693.23974 1.02396e-17
8696.19465 1.03354e-17
8699.14955 1.08524e-17
8702.09437 1.05472e-17
8705.04928 9.94080e-18
8708.00418 9.91749e-18
8710.95909 9.73618e-18
8713.91399 1.00926e-17
8716.86890 9.52326e-18
8719.82380 9.47310e-18
8722.77871 9.56248e-18
8725.73361 9.35976e-18
8728.68852 9.22303e-18
8731.64342 9.33935e-18
8734.59833 9.54686e-18
8737.55323 9.66298e-18
8740.50814 9.72608e-18
8743.46305 9.62081e-18
8746.40786 9.28506e-18
8749.36277 9.18865e-18
8752.31767 9.21467e-18
8755.27258 9.51977e-18
8758.22748 9.30951e-18
8761.18239 9.35703e-18
8764.13730 9.52037e-18
8767.09220 9.35384e-18
8770.04710 9.27726e-18
8773.00201 9.28383e-18
8775.95691 9.35674e-18
8778.91182 9.55028e-18
8781.85664 9.28486e-18
8784.81155 9.16593e-18
8787.76645 8.83066e-18
8790.72135 8.59006e-18
8793.67626 8.53901e-18
8796.63116 8.61080e-18
8799.58607 8.13406e-18
8802.54097 7.75734e-18
8805.49588 8.16454e-18
8808.45078 8.34284e-18
8811.40569 8.21101e-18
8814.36060 8.43777e-18
8817.31550 8.06293e-18
8820.27040 7.92087e-18
8823.21522 7.97550e-18
8826.17013 7.77665e-18
8829.12503 7.40567e-18
8832.07994 7.22217e-18
8835.03485 7.20370e-18
8837.98975 6.97335e-18
8840.94465 6.71137e-18
8843.89956 6.71709e-18
8846.85447 6.92364e-18
8849.80937 7.27819e-18
8852.76427 7.36127e-18
8855.71918 7.27409e-18
8858.67409 6.89493e-18
8861.62899 6.53525e-18
8864.57381 6.54217e-18
8867.52872 6.75915e-18
8870.48362 6.43705e-18
8873.43852 6.22330e-18
8876.39343 6.00509e-18
8879.34834 5.82569e-18
8882.30324 6.16910e-18
8885.25814 6.23890e-18
8888.21305 6.56271e-18
8891.16795 6.04099e-18
8894.12286 6.02746e-18
8897.07776 6.17760e-18
8900.03267 6.21054e-18
8902.98758 6.24267e-18
8905.93239 6.01203e-18
8908.88730 5.76089e-18
8911.84220 5.73417e-18
8914.79711 6.07448e-18
8917.75202 6.00807e-18
8920.70692 5.40429e-18
8923.66183 5.88766e-18
8926.61673 5.53435e-18
8929.57163 5.44113e-18
8932.52654 5.27415e-18
8935.48144 5.22607e-18
8938.43635 5.38552e-18
8941.38117 5.23254e-18
8944.33608 4.82692e-18
8947.29098 4.75034e-18
8950.24588 4.91726e-18
8953.20079 5.09123e-18
8956.15569 5.11193e-18
8959.11060 4.74109e-18
8962.06551 4.83011e-18
8965.02041 4.94124e-18
8967.97531 4.65357e-18
8970.93022 4.46025e-18
8973.88512 4.60725e-18
8976.84003 4.82740e-18
8979.79493 4.43434e-18
8982.73976 4.18214e-18
8985.69466 4.32712e-18
8988.64956 4.34006e-18
8991.60447 4.41431e-18
8994.55937 4.42853e-18
8997.51428 4.32746e-18
9000.46918 4.17080e-18
