# wavelength flux
3459.43738 1.45106e-17
3462.39228 9.87354e-18
3465.34719 1.15787e-17
3468.30210 1.40396e-17
3471.25700 1.63761e-17
3474.21190 1.47448e-17
3477.16681 1.27494e-17
3480.12171 1.45425e-17
3483.07662 1.43174e-17
3486.03152 1.42032e-17
3488.98643 1.42345e-17
3491.94133 1.42083e-17
3494.89624 1.49978e-17
3497.85114 1.47876e-17
3500.80605 1.42081e-17
3503.76095 1.53532e-17
3506.71586 1.51250e-17
3509.67076 1.36703e-17
3512.62567 1.29053e-17
3515.58057 1.38994e-17
3518.53548 1.46297e-17
3521.49038 1.47043e-17
3524.44529 1.35408e-17
3527.40019 1.28910e-17
3530.35510 1.41853e-17
3533.31000 1.50887e-17
3536.26491 1.54835e-17
3539.21981 1.42087e-17
3542.17472 1.31204e-17
3545.12963 1.40518e-17
3548.07444 1.50319e-17
3551.02935 1.57904e-17
3553.98425 1.61385e-17
3556.93916 1.53221e-17
3559.89406 1.47561e-17
3562.84897 1.46664e-17
3565.80387 1.41899e-17
3568.75878 1.39380e-17
3571.71369 1.36598e-17
3574.66859 1.26297e-17
3577.62349 1.33265e-17
3580.57840 1.54881e-17
3583.53330 1.52793e-17
3586.48821 1.44419e-17
3589.44312 1.36051e-17
3592.39802 1.34613e-17
3595.35293 1.34614e-17
3598.30783 1.29420e-17
3601.26273 1.35047e-17
3604.21764 1.40834e-17
3607.17254 1.42869e-17
3610.12745 1.42839e-17
3613.08236 1.36224e-17
3616.03726 1.37318e-17
3618.99216 1.44496e-17
3621.94707 1.46327e-17
3624.90197 1.47963e-17
3627.85688 1.48015e-17
3630.81178 1.47027e-17
3633.76669 1.48641e-17
3636.72159 1.50936e-17
3639.67650 1.55591e-17
3642.63140 1.57522e-17
3645.58631 1.59999e-17
3648.54121 1.55524e-17
3651.48603 1.47930e-17
3654.44094 1.43763e-17
3657.39585 1.53682e-17
3660.35075 1.57005e-17
3663.30565 1.57706e-17
3666.26056 1.59649e-17
3669.21546 1.57879e-17
3672.17037 1.51298e-17
3675.12527 1.48246e-17
3678.08018 1.55168e-17
3681.03508 1.51174e-17
3683.98999 1.49049e-17
3686.94489 1.52755e-17
3689.89980 1.55188e-17
3692.85470 1.61793e-17
3695.80961 1.67850e-17
3698.76451 1.58433e-17
3701.71942 1.54100e-17
3704.67432 1.62086e-17
3707.62923 1.66811e-17
3710.58413 1.64738e-17
3713.53904 1.58632e-17
3716.49394 1.64410e-17
3719.44885 1.69178e-17
3722.40375 1.68333e-17
3725.35866 1.62142e-17
3728.31356 1.62944e-17
3731.26847 1.68295e-17
3734.22338 1.71799e-17
3737.17828 1.65849e-17
3740.13319 1.66758e-17
3743.08809 1.67476e-17
3746.04299 1.68193e-17
3748.99790 1.68910e-17
3751.95280 1.69628e-17
3754.90771 1.70345e-17
3757.85253 1.71062e-17
3760.80744 1.71779e-17
3763.76234 1.72495e-17
3766.71724 1.73212e-17
3769.67215 1.73928e-17
3772.62705 1.74645e-17
3775.58196 1.75361e-17
3778.53687 1.76077e-17
3781.49177 1.76793e-17
3784.44668 1.72186e-17
3787.40158 1.72779e-17
3790.35648 1.70393e-17
3793.31139 1.68384e-17
3796.26629 1.66661e-17
3799.22120 1.70275e-17
3802.17611 1.72648e-17
3805.13101 1.73120e-17
3808.08591 1.70014e-17
3811.04082 1.64732e-17
3813.99572 1.67870e-17
3816.95063 1.77835e-17
3819.90553 1.74734e-17
3822.86044 1.66301e-17
3825.81534 1.65081e-17
3828.77025 1.69856e-17
3831.72515 1.77034e-17
3834.68006 1.76907e-17
3837.63496 1.71499e-17
3840.58987 1.68498e-17
3843.54477 1.77285e-17
3846.49968 1.76825e-17
3849.45458 1.73644e-17
3852.40949 1.79031e-17
3855.36439 1.81298e-17
3858.31930 1.80507e-17
3861.27420 1.86281e-17
3864.21902 1.82477e-17
3867.17393 1.75385e-17
3870.12883 1.74781e-17
3873.08374 1.81266e-17
3876.03864 1.81554e-17
3878.99355 1.86511e-17
3881.94845 1.92614e-17
3884.90336 1.89311e-17
3887.85826 1.84672e-17
3890.81317 1.86179e-17
3893.76807 1.88430e-17
3896.72298 1.86918e-17
3899.67788 1.86650e-17
3902.63279 1.88055e-17
3905.58769 1.92325e-17
3908.54260 1.91666e-17
3911.49750 1.93235e-17
3914.45241 1.99211e-17
3917.40731 1.97464e-17
3920.36222 1.94303e-17
3923.31713 1.99652e-17
3926.27203 1.98388e-17
3929.22694 1.91314e-17
3932.18184 1.90092e-17
3935.13674 1.91738e-17
3938.09165 1.99485e-17
3941.04655 1.98649e-17
3944.00146 1.98054e-17
3946.95637 2.00551e-17
3949.91127 2.01319e-17
3952.86618 2.00658e-17
3955.82108 2.02664e-17
3958.77598 2.04510e-17
3961.73089 2.02253e-17
3964.68579 1.96803e-17
3967.64070 1.94891e-17
3970.58552 1.92701e-17
3973.54043 1.94806e-17
3976.49533 2.03640e-17
3979.45023 2.04381e-17
3982.40514 2.01619e-17
3985.36004 2.01662e-17
3988.31495 1.99687e-17
3991.26986 2.02161e-17
3994.22476 2.02311e-17
3997.17966 2.01689e-17
4000.13457 2.02864e-17
4003.08947 1.99421e-17
4006.04438 1.99082e-17
4008.99928 1.98744e-17
4011.95419 1.98406e-17
4014.90909 1.98068e-17
4017.86400 1.97730e-17
4020.81890 1.97392e-17
4023.77381 1.97054e-17
4026.72871 1.96717e-17
4029.68362 1.96379e-17
4032.63852 2.01042e-17
4035.59343 2.05952e-17
4038.54833 2.05309e-17
4041.50324 2.02133e-17
4044.45814 1.99147e-17
4047.41305 1.99957e-17
4050.36795 2.03623e-17
4053.32286 2.07133e-17
4056.27776 2.05055e-17
4059.23267 2.06840e-17
4062.18757 2.06564e-17
4065.14248 2.04847e-17
4068.09738 2.04142e-17
4071.05229 2.03803e-17
4073.99711 2.01966e-17
4076.95201 2.03349e-17
4079.90692 2.05409e-17
4082.86182 2.04272e-17
4085.81673 2.06039e-17
4088.77163 2.09863e-17
4091.72654 2.09978e-17
4094.68144 2.05325e-17
4097.63635 1.99425e-17
4100.59126 1.99202e-17
4103.54616 2.01480e-17
4106.50106 2.02790e-17
4109.45597 2.00816e-17
4112.41087 2.00838e-17
4115.36578 2.00127e-17
4118.32068 1.96466e-17
4121.27559 1.96168e-17
4124.23049 1.99581e-17
4127.18540 2.00982e-17
4130.14030 1.96362e-17
4133.09521 1.93341e-17
4136.05011 1.98765e-17
4139.00502 2.01819e-17
4141.95993 1.99141e-17
4144.91483 1.95910e-17
4147.86973 1.94092e-17
4150.82464 1.93805e-17
4153.77955 1.96818e-17
4156.73445 1.99854e-17
4159.68935 1.99370e-17
4162.64426 1.96474e-17
4165.59916 1.94734e-17
4168.55407 1.97192e-17
4171.50897 1.98377e-17
4174.46388 1.96301e-17
4177.41878 1.96773e-17
4180.37369 1.93753e-17
4183.31851 1.93779e-17
4186.27341 1.97879e-17
4189.22832 2.00568e-17
4192.18322 1.96242e-17
4195.13813 1.94876e-17
4198.09303 2.00658e-17
4201.04794 2.01487e-17
4204.00284 2.00254e-17
4206.95775 2.00732e-17
4209.91266 2.00252e-17
4212.86756 2.00315e-17
4215.82247 2.02435e-17
4218.77737 2.01336e-17
4221.73227 1.99782e-17
4224.68718 1.98816e-17
4227.64209 1.99439e-17
4230.59699 1.99501e-17
4233.55189 2.01383e-17
4236.50680 2.01056e-17
4239.46170 2.01087e-17
4242.41661 2.00631e-17
4245.37151 2.02613e-17
4248.32642 2.05351e-17
4251.28132 2.01742e-17
4254.23623 1.96746e-17
4257.19114 1.99425e-17
4260.14604 2.04932e-17
4263.10095 2.04649e-17
4266.05585 2.02979e-17
4269.01075 2.02953e-17
4271.96566 2.01372e-17
4274.92057 2.00782e-17
4277.87547 2.01660e-17
4280.83037 2.00794e-17
4283.78528 2.02351e-17
4286.73010 2.05182e-17
4289.68500 2.02543e-17
4292.63991 1.99831e-17
4295.59482 2.00005e-17
4298.54972 1.99550e-17
4301.50462 2.01071e-17
4304.45953 1.99809e-17
4307.41443 2.00180e-17
4310.36934 1.99700e-17
4313.32424 1.97989e-17
4316.27915 1.97944e-17
4319.23405 2.00053e-17
4322.18896 2.00898e-17
4325.14386 2.01514e-17
4328.09877 2.02318e-17
4331.05368 1.99510e-17
4334.00858 1.97705e-17
4336.96348 1.98435e-17
4339.91839 1.98601e-17
4342.87330 1.99766e-17
4345.82820 1.99998e-17
4348.78310 1.98862e-17
4351.73801 1.98586e-17
4354.69291 1.97847e-17
4357.64782 1.97687e-17
4360.60272 1.98828e-17
4363.55763 1.99506e-17
4366.51253 1.99072e-17
4369.46744 1.95143e-17
4372.42234 1.93564e-17
4375.37725 1.96598e-17
4378.33216 1.95054e-17
4381.28706 1.94178e-17
4384.24197 1.94356e-17
4387.19687 1.94534e-17
4390.15177 1.94713e-17
4393.10668 1.94891e-17
4396.05150 1.95069e-17
4399.00641 1.95247e-17
4401.96131 1.95425e-17
4404.91622 1.95602e-17
4407.87112 1.95780e-17
4410.82602 1.95958e-17
4413.78093 1.96135e-17
4416.73584 1.96312e-17
4419.69074 1.96490e-17
4422.64564 1.94844e-17
4425.60055 1.92682e-17
4428.55545 1.93031e-17
4431.51036 1.96225e-17
4434.46526 1.98620e-17
4437.42017 1.99452e-17
4440.37507 1.98552e-17
4443.32998 1.96982e-17
4446.28489 1.97473e-17
4449.23979 1.99438e-17
4452.19470 1.99293e-17
4455.14960 1.99334e-17
4458.10450 1.98712e-17
4461.05941 1.97430e-17
4464.01432 1.97082e-17
4466.96922 1.97502e-17
4469.92412 1.97155e-17
4472.87903 1.96825e-17
4475.83393 1.99172e-17
4478.78884 2.03755e-17
4481.74374 2.03748e-17
4484.69865 2.00575e-17
4487.65355 1.99860e-17
4490.60846 2.02105e-17
4493.56336 2.04588e-17
4496.51827 2.04461e-17
4499.46309 2.04714e-17
4502.41799 2.04871e-17
4505.37290 2.04721e-17
4508.32780 2.06621e-17
4511.28271 2.07265e-17
4514.23761 2.07895e-17
4517.19252 2.07966e-17
4520.14743 2.08661e-17
4523.10233 2.08602e-17
4526.05723 2.09418e-17
4529.01214 2.10696e-17
4531.96705 2.08493e-17
4534.92195 2.04665e-17
4537.87685 2.07193e-17
4540.83176 2.09192e-17
4543.78666 2.07485e-17
4546.74157 2.06576e-17
4549.69647 2.06623e-17
4552.65138 2.08745e-17
4555.60628 2.10452e-17
4558.56119 2.08884e-17
4561.51609 2.07182e-17
4564.47100 2.08469e-17
4567.42591 2.06309e-17
4570.38081 2.05579e-17
4573.33572 2.08259e-17
4576.29062 2.07900e-17
4579.24552 2.06663e-17
4582.20043 2.04994e-17
4585.15534 2.04631e-17
4588.11024 2.03129e-17
4591.06514 2.03558e-17
4594.02005 2.04248e-17
4596.97495 2.04510e-17
4599.92986 2.04108e-17
4602.87468 2.01431e-17
4605.83967 1.99966e-17
4608.78449 1.99598e-17
4611.73939 1.99494e-17
4614.69430 1.97724e-17
4617.64920 1.96976e-17
4620.60411 1.97058e-17
4623.55901 2.01770e-17
4626.51392 2.02237e-17
4629.46882 2.00880e-17
4632.42373 1.98772e-17
4635.37864 1.97415e-17
4638.33354 1.97686e-17
4641.28845 1.97773e-17
4644.24335 1.98014e-17
4647.19825 1.99424e-17
4650.15316 1.99365e-17
4653.10807 1.97332e-17
4656.06297 1.96804e-17
4659.01787 1.97039e-17
4661.97278 1.96378e-17
4664.92768 1.94730e-17
4667.88259 1.94673e-17
4670.83749 1.95215e-17
4673.79240 1.94914e-17
4676.74730 1.95368e-17
4679.70221 1.95474e-17
4682.65711 1.94016e-17
4685.61202 1.91802e-17
4688.56693 1.91266e-17
4691.52183 1.93143e-17
4694.47673 1.94916e-17
4697.43164 1.94096e-17
4700.38655 1.91658e-17
4703.34145 1.89577e-17
4706.29635 1.90656e-17
4709.25126 1.91843e-17
4712.19608 1.92872e-17
4715.15098 1.93877e-17
4718.10589 1.94927e-17
4721.06080 1.94729e-17
4724.01570 1.93029e-17
4726.97060 1.91449e-17
4729.92551 1.91771e-17
4732.88041 1.93330e-17
4735.83532 1.93568e-17
4738.79022 1.93420e-17
4741.74513 1.95336e-17
4744.70003 1.95049e-17
4747.65494 1.95199e-17
4750.60984 1.94818e-17
4753.56475 1.92782e-17
4756.51966 1.94709e-17
4759.47456 1.95212e-17
4762.42947 1.92633e-17
4765.38437 1.94673e-17
4768.33927 1.95391e-17
4771.29418 1.91961e-17
4774.24909 1.93381e-17
4777.20399 1.95838e-17
4780.15889 1.93886e-17
4783.11380 1.95046e-17
4786.06870 1.97575e-17
4789.02361 1.95608e-17
4791.97851 1.95064e-17
4794.93342 1.96731e-17
4797.88832 1.95495e-17
4800.84323 1.95688e-17
4803.79814 1.96726e-17
4806.75304 1.95636e-17
4809.70795 1.94046e-17
4812.66285 1.93122e-17
4815.60767 1.94999e-17
4818.56257 1.98327e-17
4821.51748 1.98857e-17
4824.47239 1.99282e-17
4827.42729 1.98908e-17
4830.38220 1.96346e-17
4833.33710 1.95790e-17
4836.29200 1.98065e-17
4839.24691 1.98128e-17
4842.20182 1.98458e-17
4845.15672 2.00045e-17
4848.11162 1.99024e-17
4851.06653 1.97114e-17
4854.02143 1.96298e-17
4856.97634 1.98291e-17
4859.93124 1.99119e-17
4862.88615 1.99102e-17
4865.84105 2.01134e-17
4868.79596 2.01437e-17
4871.75086 2.02118e-17
4874.70577 2.02618e-17
4877.66068 2.01622e-17
4880.61558 2.01545e-17
4883.57048 2.04217e-17
4886.52539 2.04251e-17
4889.48030 2.04285e-17
4892.43520 2.04320e-17
4895.39010 2.04354e-17
4898.34501 2.04388e-17
4901.29991 2.04423e-17
4904.25482 2.04457e-17
4907.20972 2.04491e-17
4910.16463 2.04526e-17
4913.11953 2.04560e-17
4916.07444 2.04594e-17
4919.02934 2.04628e-17
4921.98425 2.04663e-17
4924.92907 2.03466e-17
4927.88397 2.04142e-17
4930.83888 2.05841e-17
4933.79378 2.05516e-17
4936.74869 2.06069e-17
4939.70359 2.08556e-17
4942.65850 2.07535e-17
4945.61341 2.08352e-17
4948.56831 2.09615e-17
4951.52322 2.10375e-17
4954.47812 2.10936e-17
4957.43302 2.09112e-17
4960.38793 2.08507e-17
4963.34284 2.09612e-17
4966.29774 2.13266e-17
4969.25264 2.14055e-17
4972.20755 2.12486e-17
4975.16245 2.12845e-17
4978.11736 2.13156e-17
4981.07226 2.13245e-17
4984.02717 2.13672e-17
4986.98207 2.14100e-17
4989.93698 2.14528e-17
4992.89189 2.14955e-17
4995.84679 2.15383e-17
4998.80170 2.15810e-17
5001.75660 2.16237e-17
5004.71150 2.16664e-17
5007.66641 2.17091e-17
5010.62132 2.17518e-17
5013.57622 2.17945e-17
5016.53112 2.18371e-17
5019.48603 2.18798e-17
5022.44093 2.15574e-17
5025.39584 2.17114e-17
5028.34066 2.20053e-17
5031.29557 2.20973e-17
5034.25047 2.21893e-17
5037.20537 2.22812e-17
5040.16028 2.23732e-17
5043.11518 2.24651e-17
5046.07009 2.25569e-17
5049.02499 2.26488e-17
5051.97990 2.27406e-17
5054.93480 2.28324e-17
5057.88971 2.29242e-17
5060.84461 2.30159e-17
5063.79952 2.31077e-17
5066.75443 2.31994e-17
5069.70933 2.32910e-17
5072.66423 2.32273e-17
5075.61914 2.30806e-17
5078.57405 2.29889e-17
5081.52895 2.31565e-17
5084.48385 2.34002e-17
5087.43876 2.35891e-17
5090.39366 2.36558e-17
5093.34857 2.37440e-17
5096.30347 2.37883e-17
5099.25838 2.36673e-17
5102.21328 2.36012e-17
5105.16819 2.39988e-17
5108.12309 2.40811e-17
5111.07800 2.40647e-17
5114.03291 2.40980e-17
5116.98781 2.43106e-17
5119.94272 2.43068e-17
5122.89762 2.42073e-17
5125.85252 2.42053e-17
5128.80743 2.42384e-17
5131.76234 2.45496e-17
5134.71724 2.46551e-17
5137.66206 2.45543e-17
5140.61697 2.45013e-17
5143.57187 2.45203e-17
5146.52677 2.44274e-17
5149.48168 2.44474e-17
5152.43659 2.45152e-17
5155.39149 2.43375e-17
5158.34639 2.44129e-17
5161.30130 2.43828e-17
5164.25620 2.43279e-17
5167.21111 2.44542e-17
5170.16601 2.46519e-17
5173.12092 2.45962e-17
5176.07582 2.45534e-17
5179.03073 2.46365e-17
5181.98564 2.47262e-17
5184.94054 2.46499e-17
5187.89545 2.46604e-17
5190.85035 2.50992e-17
5193.80525 2.50177e-17
5196.76016 2.46687e-17
5199.71507 2.44675e-17
5202.66997 2.45805e-17
5205.62487 2.47101e-17
5208.57978 2.49259e-17
5211.53468 2.48878e-17
5214.48959 2.49396e-17
5217.44449 2.50212e-17
5220.39940 2.50351e-17
5223.35430 2.49556e-17
5226.30921 2.47605e-17
5229.26411 2.47314e-17
5232.21902 2.48738e-17
5235.16384 2.48562e-17
5238.11874 2.48305e-17
5241.07365 2.48384e-17
5244.02855 2.47912e-17
5246.98346 2.48695e-17
5249.93836 2.47224e-17
5252.89327 2.44249e-17
5255.84818 2.42634e-17
5258.80308 2.43364e-17
5261.75798 2.42521e-17
5264.71289 2.44607e-17
5267.66780 2.44607e-17
5270.62270 2.43534e-17
5273.57760 2.41405e-17
5276.53251 2.41637e-17
5279.48741 2.42678e-17
5282.44232 2.40573e-17
5285.39722 2.38862e-17
5288.35213 2.38953e-17
5291.30703 2.38203e-17
5294.26194 2.38551e-17
5297.21684 2.37313e-17
5300.17175 2.37724e-17
5303.12666 2.36767e-17
5306.08156 2.35202e-17
5309.03647 2.34054e-17
5311.99137 2.33716e-17
5314.94627 2.34084e-17
5317.90118 2.32880e-17
5320.85609 2.31695e-17
5323.81099 2.31282e-17
5326.76589 2.31245e-17
5329.72080 2.32090e-17
5332.67570 2.32049e-17
5335.63061 2.30418e-17
5338.57543 2.29297e-17
5341.54042 2.28759e-17
5344.48524 2.28522e-17
5347.44014 2.27523e-17
5350.39505 2.25989e-17
5353.34995 2.25441e-17
5356.30486 2.24429e-17
5359.25976 2.23106e-17
5362.21467 2.22410e-17
5365.16957 2.22180e-17
5368.12448 2.20906e-17
5371.07939 2.20402e-17
5374.03429 2.21807e-17
5376.98920 2.21963e-17
5379.94410 2.21532e-17
5382.89900 2.20211e-17
5385.85391 2.18090e-17
5388.80882 2.18450e-17
5391.76372 2.19636e-17
5394.71862 2.18319e-17
5397.67353 2.14245e-17
5400.62843 2.12080e-17
5403.58334 2.13005e-17
5406.53824 2.14792e-17
5409.49315 2.14318e-17
5412.44805 2.12453e-17
5415.40296 2.11745e-17
5418.35786 2.11680e-17
5421.31277 2.12129e-17
5424.26768 2.10744e-17
5427.22258 2.08900e-17
5430.17748 2.08214e-17
5433.13239 2.06554e-17
5436.08730 2.05466e-17
5439.04220 2.06382e-17
5441.99710 2.06618e-17
5444.95201 2.04926e-17
5447.89683 2.03978e-17
5450.85173 2.02639e-17
5453.80664 2.00641e-17
5456.76155 2.00784e-17
5459.71645 2.01346e-17
5462.67135 2.00630e-17
5465.62626 1.99779e-17
5468.58116 1.99698e-17
5471.53607 2.00217e-17
5474.49097 1.99462e-17
5477.44588 1.97699e-17
5480.40078 1.96762e-17
5483.35569 1.95492e-17
5486.31059 1.95075e-17
5489.26550 1.95540e-17
5492.22041 1.95552e-17
5495.17531 1.95090e-17
5498.13022 1.93709e-17
5501.08512 1.91519e-17
5504.04002 1.90632e-17
5506.99493 1.90488e-17
5509.94984 1.89417e-17
5512.90474 1.90132e-17
5515.85964 1.91479e-17
5518.81455 1.90241e-17
5521.76945 1.89816e-17
5524.72436 1.90222e-17
5527.67926 1.89012e-17
5530.63417 1.88011e-17
5533.58907 1.87912e-17
5536.54398 1.86419e-17
5539.49888 1.85619e-17
5542.45379 1.85477e-17
5545.40870 1.84954e-17
5548.36360 1.84260e-17
5551.30842 1.85329e-17
5554.26332 1.85866e-17
5557.21823 1.84265e-17
5560.17314 1.83244e-17
5563.12804 1.83685e-17
5566.08295 1.83406e-17
5569.03785 1.81576e-17
5571.99275 1.80747e-17
5574.94766 1.81949e-17
5577.90257 1.82399e-17
5580.85747 1.80820e-17
5583.81237 1.78481e-17
5586.76728 1.76453e-17
5589.72218 1.75898e-17
5592.67709 1.76261e-17
5595.63199 1.77689e-17
5598.58690 1.78696e-17
5601.54180 1.78478e-17
5604.49671 1.78553e-17
5607.45161 1.78438e-17
5610.40652 1.77127e-17
5613.36143 1.76051e-17
5616.31633 1.75902e-17
5619.27123 1.75094e-17
5622.22614 1.75673e-17
5625.18105 1.75777e-17
5628.13595 1.74389e-17
5631.09085 1.73956e-17
5634.04576 1.73121e-17
5637.00066 1.71522e-17
5639.95557 1.72080e-17
5642.91047 1.72577e-17
5645.86538 1.70848e-17
5648.82028 1.70441e-17
5651.77519 1.70526e-17
5654.73009 1.70668e-17
5657.68500 1.71339e-17
5660.62982 1.71357e-17
5663.58472 1.70519e-17
5666.53963 1.69349e-17
5669.49453 1.68946e-17
5672.44944 1.67915e-17
5675.40434 1.67067e-17
5678.35925 1.66626e-17
5681.31416 1.66733e-17
5684.26906 1.67184e-17
5687.22397 1.66765e-17
5690.17887 1.66249e-17
5693.13377 1.67502e-17
5696.08868 1.67737e-17
5699.04359 1.66385e-17
5701.99849 1.66342e-17
5704.95339 1.66105e-17
5707.90830 1.66148e-17
5710.86320 1.66848e-17
5713.81811 1.66880e-17
5716.77301 1.66094e-17
5719.72792 1.64541e-17
5722.68282 1.63982e-17
5725.63773 1.65215e-17
5728.59263 1.64947e-17
5731.54754 1.63920e-17
5734.50245 1.63144e-17
5737.45735 1.62405e-17
5740.41225 1.62349e-17
5743.36716 1.62709e-17
5746.32207 1.61796e-17
5749.27697 1.61215e-17
5752.23187 1.61721e-17
5755.18678 1.61548e-17
5758.14168 1.59715e-17
5761.09659 1.57498e-17
5764.04141 1.58387e-17
5766.99632 1.59430e-17
5769.95122 1.57821e-17
5772.90612 1.56631e-17
5775.86103 1.55920e-17
5778.81593 1.55011e-17
5781.77084 1.54057e-17
5784.72574 1.53068e-17
5787.68065 1.53227e-17
5790.63555 1.52320e-17
5793.59046 1.51287e-17
5796.54536 1.50715e-17
5799.50027 1.51601e-17
5802.45518 1.51731e-17
5805.41008 1.51154e-17
5808.36498 1.50435e-17
5811.31989 1.50344e-17
5814.27480 1.50763e-17
5817.22970 1.50729e-17
5820.18460 1.50534e-17
5823.13951 1.50409e-17
5826.09441 1.50126e-17
5829.04932 1.49921e-17
5832.00422 1.49759e-17
5834.95913 1.48989e-17
5837.91403 1.48024e-17
5840.86894 1.47884e-17
5843.82384 1.47917e-17
5846.77875 1.47798e-17
5849.73365 1.47418e-17
5852.68856 1.47161e-17
5855.64347 1.46666e-17
5858.59837 1.45229e-17
5861.55327 1.44623e-17
5864.50818 1.45509e-17
5867.46309 1.45320e-17
5870.41799 1.44326e-17
5873.36281 1.44206e-17
5876.31772 1.42966e-17
5879.27262 1.41701e-17
5882.22752 1.41220e-17
5885.18243 1.40045e-17
5888.13734 1.38988e-17
5891.09224 1.39158e-17
5894.04714 1.38221e-17
5897.00205 1.37479e-17
5899.95695 1.36816e-17
5902.91186 1.37643e-17
5905.86676 1.39784e-17
5908.82167 1.40969e-17
5911.77657 1.39939e-17
5914.73148 1.39944e-17
5917.68638 1.41703e-17
5920.64129 1.42971e-17
5923.59620 1.42745e-17
5926.55110 1.42577e-17
5929.50600 1.43029e-17
5932.46091 1.42714e-17
5935.41582 1.41584e-17
5938.37072 1.40843e-17
5941.32562 1.39822e-17
5944.28053 1.39513e-17
5947.23543 1.40965e-17
5950.19034 1.41379e-17
5953.14524 1.40510e-17
5956.10015 1.40580e-17
5959.05505 1.40777e-17
5962.00996 1.40162e-17
5964.96486 1.39937e-17
5967.91977 1.39090e-17
5970.87468 1.38447e-17
5973.82958 1.39537e-17
5976.77440 1.40412e-17
5979.72930 1.39855e-17
5982.68421 1.40178e-17
5985.63911 1.40827e-17
5988.59402 1.40861e-17
5991.54893 1.40845e-17
5994.50383 1.40311e-17
5997.45873 1.40149e-17
6000.41364 1.40172e-17
6003.36855 1.40326e-17
6006.32345 1.41213e-17
6009.27835 1.42293e-17
6012.23326 1.42356e-17
6015.18816 1.42083e-17
6018.14307 1.41643e-17
6021.09797 1.41067e-17
6024.05288 1.41152e-17
6027.00778 1.41021e-17
6029.96269 1.40380e-17
6032.91759 1.40233e-17
6035.87250 1.40217e-17
6038.82740 1.41082e-17
6041.78231 1.41910e-17
6044.73722 1.41891e-17
6047.69212 1.41509e-17
6050.64702 1.41596e-17
6053.60193 1.41280e-17
6056.55684 1.41754e-17
6059.51174 1.42726e-17
6062.46664 1.42304e-17
6065.42155 1.41706e-17
6068.37645 1.41780e-17
6071.33136 1.41101e-17
6074.28626 1.40745e-17
6077.24117 1.41239e-17
6080.19607 1.41076e-17
6083.15098 1.40360e-17
6086.09580 1.40591e-17
6089.05070 1.41005e-17
6092.00561 1.40404e-17
6094.96051 1.39918e-17
6097.91542 1.40489e-17
6100.87032 1.41581e-17
6103.82523 1.42557e-17
6106.78013 1.42604e-17
6109.73504 1.41455e-17
6112.68995 1.41835e-17
6115.64485 1.42086e-17
6118.59975 1.41445e-17
6121.55466 1.42423e-17
6124.50957 1.43053e-17
6127.46447 1.43452e-17
6130.41937 1.44036e-17
6133.37428 1.43657e-17
6136.32918 1.43746e-17
6139.28409 1.45510e-17
6142.23899 1.46048e-17
6145.19390 1.44966e-17
6148.14880 1.44598e-17
6151.10371 1.45446e-17
6154.05861 1.46430e-17
6157.01352 1.46604e-17
6159.96843 1.46337e-17
6162.92333 1.46056e-17
6165.87823 1.45999e-17
6168.83314 1.45902e-17
6171.78805 1.45377e-17
6174.74295 1.45631e-17
6177.69785 1.46459e-17
6180.65276 1.47436e-17
6183.60766 1.48737e-17
6186.56257 1.48992e-17
6189.50739 1.47336e-17
6192.46230 1.47469e-17
6195.41720 1.47872e-17
6198.37210 1.47642e-17
6201.32701 1.48175e-17
6204.28191 1.49051e-17
6207.23682 1.49120e-17
6210.19172 1.48074e-17
6213.14663 1.47461e-17
6216.10153 1.47449e-17
6219.05644 1.47036e-17
6222.01134 1.47298e-17
6224.96625 1.47402e-17
6227.92115 1.47320e-17
6230.87606 1.47438e-17
6233.83097 1.47173e-17
6236.78587 1.48117e-17
6239.74077 1.48717e-17
6242.69568 1.47976e-17
6245.65059 1.47398e-17
6248.60549 1.47512e-17
6251.56039 1.48853e-17
6254.51530 1.49743e-17
6257.47020 1.48756e-17
6260.42511 1.48642e-17
6263.38001 1.49355e-17
6266.33492 1.50359e-17
6269.28982 1.49884e-17
6272.24473 1.48383e-17
6275.19963 1.46801e-17
6278.15454 1.45287e-17
6281.10945 1.44684e-17
6284.06435 1.45287e-17
6287.01925 1.45805e-17
6289.97416 1.46202e-17
6292.92907 1.47308e-17
6295.87388 1.47476e-17
6298.82879 1.46636e-17
6301.78370 1.47960e-17
6304.73860 1.49412e-17
6307.69350 1.48230e-17
6310.64841 1.47486e-17
6313.60332 1.48078e-17
6316.55822 1.48279e-17
6319.51312 1.48555e-17
6322.46803 1.49262e-17
6325.42293 1.49505e-17
6328.37784 1.49167e-17
6331.33274 1.48346e-17
6334.28765 1.48139e-17
6337.24255 1.49106e-17
6340.19746 1.49397e-17
6343.15236 1.47897e-17
6346.10727 1.47239e-17
6349.06218 1.46633e-17
6352.01708 1.46240e-17
6354.97198 1.47357e-17
6357.92689 1.46766e-17
6360.88180 1.45639e-17
6363.83670 1.45921e-17
6366.79160 1.45874e-17
6369.74651 1.45774e-17
6372.70141 1.45796e-17
6375.65632 1.45957e-17
6378.61122 1.46123e-17
6381.56613 1.47421e-17
6384.52103 1.47199e-17
6387.47594 1.46242e-17
6390.43084 1.45478e-17
6393.38575 1.44812e-17
6396.34065 1.44170e-17
6399.28547 1.44678e-17
6402.24038 1.45269e-17
6405.19528 1.45308e-17
6408.15019 1.45332e-17
6411.10509 1.44815e-17
6414.06000 1.44070e-17
6417.01490 1.43143e-17
6419.96981 1.41534e-17
6422.92472 1.41971e-17
6425.87962 1.43050e-17
6428.83452 1.43735e-17
6431.78943 1.43097e-17
6434.74434 1.41808e-17
6437.69924 1.41802e-17
6440.65414 1.42363e-17
6443.60905 1.43021e-17
6446.56395 1.42934e-17
6449.51886 1.41224e-17
6452.47376 1.40270e-17
6455.42867 1.40864e-17
6458.38357 1.40919e-17
6461.33848 1.40103e-17
6464.29338 1.40364e-17
6467.24829 1.40728e-17
6470.20320 1.39285e-17
6473.15810 1.38011e-17
6476.11300 1.38053e-17
6479.06791 1.37945e-17
6482.02282 1.37531e-17
6484.97772 1.37747e-17
6487.93262 1.38286e-17
6490.88753 1.38332e-17
6493.84243 1.38311e-17
6496.79734 1.37678e-17
6499.75224 1.37741e-17
6502.70715 1.38529e-17
6505.65197 1.39012e-17
6508.60687 1.39088e-17
6511.56178 1.37873e-17
6514.51668 1.36619e-17
6517.47159 1.36513e-17
6520.42649 1.36869e-17
6523.38140 1.37991e-17
6526.33630 1.38315e-17
6529.29121 1.36848e-17
6532.24611 1.35628e-17
6535.20102 1.35250e-17
6538.15593 1.35335e-17
6541.11083 1.35356e-17
6544.06573 1.34896e-17
6547.02064 1.34402e-17
6549.97555 1.33992e-17
6552.93045 1.33766e-17
6555.88535 1.33500e-17
6558.84026 1.32509e-17
6561.79516 1.31572e-17
6564.75007 1.31800e-17
6567.70497 1.31715e-17
6570.65988 1.30840e-17
6573.61478 1.30186e-17
6576.56969 1.30057e-17
6579.52459 1.29949e-17
6582.47950 1.29603e-17
6585.43440 1.29578e-17
6588.38931 1.29273e-17
6591.34422 1.28967e-17
6594.29912 1.28662e-17
6597.25402 1.28357e-17
6600.20893 1.28052e-17
6603.16384 1.27747e-17
6606.11874 1.27442e-17
6609.07364 1.27137e-17
6612.01846 1.26832e-17
6614.97337 1.26528e-17
6617.92827 1.26223e-17
6620.88318 1.25918e-17
6623.83809 1.25613e-17
6626.79299 1.25309e-17
6629.74789 1.25004e-17
6632.70280 1.24700e-17
6635.65770 1.24395e-17
6638.61261 1.24091e-17
6641.56751 1.23786e-17
6644.52242 1.23482e-17
6647.47732 1.23177e-17
6650.43223 1.22873e-17
6653.38713 1.22429e-17
6656.34204 1.22356e-17
6659.29695 1.21357e-17
6662.25185 1.20798e-17
6665.20675 1.21477e-17
6668.16166 1.21956e-17
6671.11657 1.21456e-17
6674.07147 1.21114e-17
6677.02637 1.20967e-17
6679.98128 1.20460e-17
6682.93618 1.19761e-17
6685.89109 1.19176e-17
6688.84599 1.19780e-17
6691.80090 1.19942e-17
6694.75580 1.19121e-17
6697.71071 1.18056e-17
6700.66561 1.17147e-17
6703.62052 1.16354e-17
6706.57542 1.15928e-17
6709.53033 1.15720e-17
6712.48523 1.16328e-17
6715.43005 1.17046e-17
6718.38496 1.16462e-17
6721.33986 1.15219e-17
6724.29477 1.14717e-17
6727.24968 1.14890e-17
6730.20458 1.14872e-17
6733.15948 1.14601e-17
6736.11439 1.14437e-17
6739.06930 1.14643e-17
6742.02420 1.14411e-17
6744.97910 1.14260e-17
6747.93401 1.14067e-17
6750.88891 1.13474e-17
6753.84382 1.12974e-17
6756.79872 1.12561e-17
6759.75363 1.12322e-17
6762.70853 1.12031e-17
6765.66344 1.11166e-17
6768.61834 1.10637e-17
6771.57325 1.10773e-17
6774.52815 1.10774e-17
6777.48306 1.10739e-17
6780.43797 1.11182e-17
6783.39287 1.11998e-17
6786.34777 1.11771e-17
6789.30268 1.10933e-17
6792.25759 1.09729e-17
6795.21249 1.08279e-17
6798.16739 1.07332e-17
6801.12230 1.07423e-17
6804.07720 1.07982e-17
6807.03211 1.08052e-17
6809.98701 1.08109e-17
6812.94192 1.07181e-17
6815.89682 1.05699e-17
6818.85173 1.04553e-17
6821.80663 1.03433e-17
6824.75145 1.03878e-17
6827.70636 1.04345e-17
6830.66126 1.03651e-17
6833.61617 1.03752e-17
6836.57107 1.05026e-17
6839.52598 1.03612e-17
6842.48088 1.02332e-17
6845.43579 1.01950e-17
6848.39070 1.01568e-17
6851.34560 1.01187e-17
6854.30050 1.00805e-17
6857.25541 1.00424e-17
6860.21032 1.00042e-17
6863.16522 9.96610e-18
6866.12012 9.92797e-18
6869.07503 9.88984e-18
6872.02993 9.85172e-18
6874.98484 9.81360e-18
6877.93974 9.77548e-18
6880.89465 9.73738e-18
6883.84955 9.69927e-18
6886.80446 9.66117e-18
6889.75936 9.62308e-18
6892.71427 9.58499e-18
6895.66917 9.54690e-18
6898.62408 9.50882e-18
6901.57898 9.47074e-18
6904.53389 9.43267e-18
6907.48880 9.39461e-18
6910.44370 9.35655e-18
6913.39860 9.31849e-18
6916.35351 9.28044e-18
6919.30841 9.24240e-18
6922.26332 9.20435e-18
6925.21822 9.16632e-18
6928.16305 9.12829e-18
6931.11795 9.09026e-18
6934.07285 9.05224e-18
6937.02776 9.01422e-18
6939.98266 9.02441e-18
6942.93757 8.97825e-18
6945.89247 8.91248e-18
6948.84738 8.92009e-18
6951.80228 8.86180e-18
6954.75719 8.70678e-18
6957.71209 8.61125e-18
6960.66700 8.57774e-18
6963.62190 8.56760e-18
6966.57681 8.52638e-18
6969.53172 8.60617e-18
6972.48662 8.68605e-18
6975.44152 8.67404e-18
6978.39643 8.67180e-18
6981.35134 8.58546e-18
6984.30624 8.37645e-18
6987.26114 8.23227e-18
6990.21605 8.14067e-18
6993.17095 8.02906e-18
6996.12586 8.00731e-18
6999.08076 8.07806e-18
7002.03567 8.07769e-18
7004.99057 8.06706e-18
7007.94548 8.00571e-18
7010.90038 7.86638e-18
7013.85529 7.71942e-18
7016.81020 7.67251e-18
7019.76510 7.69304e-18
7022.72000 7.73874e-18
7025.67491 7.77863e-18
7028.62982 7.70643e-18
7031.58472 7.59994e-18
7034.53962 7.57523e-18
7037.48445 7.53690e-18
7040.43935 7.48844e-18
7043.39425 7.46750e-18
7046.34916 7.44072e-18
7049.30407 7.44216e-18
7052.25897 7.45611e-18
7055.21387 7.50105e-18
7058.16878 7.55060e-18
7061.12368 7.53876e-18
7064.07859 7.43164e-18
7067.03349 7.32505e-18
7069.98840 7.31829e-18
7072.94330 7.32395e-18
7075.89821 7.30855e-18
7078.85311 7.29542e-18
7081.80802 7.28677e-18
7084.76292 7.29411e-18
7087.71783 7.33165e-18
7090.67273 7.37151e-18
7093.62764 7.34087e-18
7096.58255 7.30787e-18
7099.53745 7.25085e-18
7102.49235 7.12583e-18
7105.44726 7.01020e-18
7108.40216 7.00421e-18
7111.35707 6.98503e-18
7114.31197 6.92497e-18
7117.26688 6.91308e-18
7120.22178 6.93786e-18
7123.17669 6.97116e-18
7126.13159 6.94866e-18
7129.08650 6.87833e-18
7132.04140 6.81212e-18
7134.99631 6.70848e-18
7137.95122 6.61045e-18
7140.89603 6.49649e-18
7143.85094 6.40561e-18
7146.80584 6.38303e-18
7149.76075 6.43237e-18
7152.71565 6.43344e-18
7155.67056 6.40881e-18
7158.62547 6.42189e-18
7161.58037 6.41886e-18
7164.53527 6.37346e-18
7167.49018 6.34618e-18
7170.44509 6.34027e-18
7173.39999 6.25730e-18
7176.35489 6.12259e-18
7179.30980 6.04349e-18
7182.26470 6.12181e-18
7185.21961 6.17660e-18
7188.17451 6.09166e-18
7191.12942 6.03778e-18
7194.08432 6.02510e-18
7197.03923 6.01414e-18
7199.99413 5.97594e-18
7202.94904 5.91016e-18
7205.90395 5.82265e-18
7208.85885 5.75480e-18
7211.81375 5.77315e-18
7214.76866 5.86312e-18
7217.72357 5.95720e-18
7220.67847 6.00050e-18
7223.63337 5.96268e-18
7226.58828 5.86972e-18
7229.54318 5.83531e-18
7232.49809 5.78809e-18
7235.45299 5.76491e-18
7238.40790 5.72870e-18
7241.36280 5.68555e-18
7244.31771 5.73816e-18
7247.27261 5.76795e-18
7250.21743 5.70205e-18
7253.17234 5.64802e-18
7256.12724 5.69678e-18
7259.08215 5.78940e-18
7262.03705 5.80598e-18
7264.99196 5.71575e-18
7267.94686 5.67245e-18
7270.90177 5.75872e-18
7273.85667 5.86501e-18
7276.81158 5.80560e-18
7279.76648 5.69129e-18
7282.72139 5.66631e-18
7285.67630 5.63647e-18
7288.63120 5.59385e-18
7291.58610 5.60271e-18
7294.54101 5.54359e-18
7297.49591 5.48240e-18
7300.45082 5.46374e-18
7303.40572 5.47087e-18
7306.36063 5.48911e-18
7309.31553 5.47296e-18
7312.27044 5.49792e-18
7315.22534 5.55358e-18
7318.18025 5.56038e-18
7321.13515 5.46486e-18
7324.09006 5.39018e-18
7327.04497 5.44966e-18
7329.99987 5.54430e-18
7332.95477 5.52839e-18
7335.90968 5.47833e-18
7338.86459 5.52498e-18
7341.81949 5.56736e-18
7344.77439 5.52456e-18
7347.72930 5.51288e-18
7350.68420 5.51120e-18
7353.62902 5.48524e-18
7356.58393 5.49313e-18
7359.53884 5.49781e-18
7362.49374 5.41853e-18
7365.44864 5.32903e-18
7368.40355 5.32902e-18
7371.35845 5.39967e-18
7374.31336 5.51736e-18
7377.26826 5.60322e-18
7380.22317 5.58946e-18
7383.17807 5.58601e-18
7386.13298 5.60578e-18
7389.08788 5.61064e-18
7392.04279 5.56841e-18
7394.99770 5.44490e-18
7397.95260 5.34740e-18
7400.90750 5.32786e-18
7403.86241 5.34197e-18
7406.81732 5.38164e-18
7409.77222 5.44927e-18
7412.72712 5.50260e-18
7415.68203 5.51631e-18
7418.63693 5.52898e-18
7421.59184 5.54616e-18
7424.54674 5.51444e-18
7427.50165 5.41255e-18
7430.45655 5.30748e-18
7433.41146 5.32912e-18
7436.36636 5.38722e-18
7439.32127 5.36889e-18
7442.27617 5.36098e-18
7445.23108 5.39213e-18
7448.18598 5.45176e-18
7451.14089 5.52897e-18
7454.09580 5.51826e-18
7457.04061 5.44974e-18
7459.99552 5.41063e-18
7462.95042 5.32087e-18
7465.90533 5.24087e-18
7468.86023 5.20468e-18
7471.81514 5.21329e-18
7474.77005 5.28860e-18
7477.72495 5.35220e-18
7480.67985 5.44288e-18
7483.63476 5.51705e-18
7486.58966 5.51759e-18
7489.54457 5.47651e-18
7492.49947 5.38848e-18
7495.45438 5.30539e-18
7498.40928 5.26087e-18
7501.36419 5.17061e-18
7504.31909 5.07972e-18
7507.27400 5.13115e-18
7510.22890 5.28446e-18
7513.18381 5.38848e-18
7516.13872 5.40797e-18
7519.09362 5.41757e-18
7522.04852 5.49216e-18
7525.00343 5.51916e-18
7527.95834 5.44587e-18
7530.91324 5.35183e-18
7533.86814 5.27748e-18
7536.82305 5.23484e-18
7539.77795 5.20828e-18
7542.73286 5.23011e-18
7545.68776 5.32778e-18
7548.64267 5.36537e-18
7551.59757 5.36413e-18
7554.55248 5.36288e-18
7557.50738 5.36163e-18
7560.46229 5.36038e-18
7563.41719 5.35914e-18
7566.36201 5.35789e-18
7569.31692 5.35664e-18
7572.27182 5.35540e-18
7575.22673 5.35415e-18
7578.18163 5.35290e-18
7581.13654 5.35165e-18
7584.09145 5.35041e-18
7587.04635 5.34916e-18
7590.00125 5.34791e-18
7592.95616 5.34667e-18
7595.91107 5.34542e-18
7598.86597 5.34417e-18
7601.82087 5.34293e-18
7604.77578 5.34168e-18
7607.73068 5.34043e-18
7610.68559 5.33918e-18
7613.64049 5.33794e-18
7616.59540 5.33669e-18
7619.55030 5.33544e-18
7622.50521 5.33420e-18
7625.46011 5.33295e-18
7628.41502 5.33170e-18
7631.36992 5.33046e-18
7634.32483 5.32921e-18
7637.27973 5.32796e-18
7640.23464 5.32672e-18
7643.18955 5.32547e-18
7646.14445 5.32422e-18
7649.09935 5.32298e-18
7652.05426 5.32173e-18
7655.00916 5.32049e-18
7657.96407 5.31924e-18
7660.91897 5.31799e-18
7663.87388 5.31675e-18
7666.82878 5.31550e-18
7669.77360 5.31425e-18
7672.72851 5.31301e-18
7675.68341 5.31176e-18
7678.63832 5.31052e-18
7681.59322 5.30927e-18
7684.54813 5.36680e-18
7687.50303 5.52411e-18
7690.45794 5.57292e-18
7693.41284 5.51484e-18
7696.36775 5.48198e-18
7699.32265 5.49156e-18
7702.27756 5.46405e-18
7705.23247 5.46284e-18
7708.18737 5.54342e-18
7711.14227 5.64791e-18
7714.09718 5.68684e-18
7717.05209 5.63864e-18
7720.00699 5.55546e-18
7722.96189 5.51059e-18
7725.91680 5.58407e-18
7728.87170 5.71808e-18
7731.82661 5.75679e-18
7734.78151 5.73944e-18
7737.73642 5.79768e-18
7740.69132 5.75867e-18
7743.64623 5.59636e-18
7746.60113 5.51670e-18
7749.55604 5.59609e-18
7752.51094 5.67249e-18
7755.46585 5.69507e-18
7758.42075 5.71435e-18
7761.37566 5.76074e-18
7764.33057 5.84481e-18
7767.28547 5.85347e-18
7770.24037 5.82423e-18
7773.19528 5.85118e-18
7776.14010 5.78607e-18
7779.09500 5.61732e-18
7782.04991 5.58114e-18
7785.00482 5.53323e-18
7787.95972 5.48524e-18
7790.91462 5.67077e-18
7793.86953 5.90595e-18
7796.82443 5.99946e-18
7799.77934 6.03007e-18
7802.73424 5.97879e-18
7805.68915 5.93984e-18
7808.64405 5.99011e-18
7811.59896 5.89589e-18
7814.55386 5.71849e-18
7817.50877 5.66965e-18
7820.46367 5.69197e-18
7823.41858 5.76429e-18
7826.37348 5.84157e-18
7829.32839 5.83374e-18
7832.28330 5.84779e-18
7835.23820 5.93719e-18
7838.19310 6.00267e-18
7841.14801 6.02317e-18
7844.10291 6.00168e-18
7847.05782 5.89441e-18
7850.01272 5.77210e-18
7852.96763 5.76693e-18
7855.92253 5.76306e-18
7858.87744 5.72017e-18
7861.83234 5.69421e-18
7864.78725 5.76294e-18
7867.74215 6.02201e-18
7870.69706 6.25326e-18
7873.65197 6.27168e-18
7876.60687 6.21738e-18
7879.56177 6.09358e-18
7882.50659 5.89500e-18
7885.46150 5.78333e-18
7888.41640 5.79309e-18
7891.37131 5.78223e-18
7894.32621 5.74757e-18
7897.28112 5.77229e-18
7900.23602 5.90814e-18
7903.19093 6.07075e-18
7906.14584 6.17504e-18
7909.10074 6.34796e-18
7912.05564 6.56531e-18
7915.01055 6.58134e-18
7917.96545 6.36810e-18
7920.92036 6.09170e-18
7923.87526 5.87928e-18
7926.83017 5.82046e-18
7929.78507 5.89546e-18
7932.73998 6.02801e-18
7935.69488 6.19288e-18
7938.64979 6.40143e-18
7941.60469 6.63272e-18
7944.55960 6.78830e-18
7947.51450 6.83705e-18
7950.46941 6.79097e-18
7953.42432 6.65778e-18
7956.37922 6.38937e-18
7959.33412 6.17241e-18
7962.28903 6.10357e-18
7965.24393 6.12028e-18
7968.19884 6.24034e-18
7971.15374 6.35203e-18
7974.10865 6.50467e-18
7977.06355 6.74289e-18
7980.01846 6.89685e-18
7982.97336 6.90140e-18
7985.92827 6.80362e-18
7988.87309 6.67328e-18
7991.82799 6.62010e-18
7994.78290 6.59962e-18
7997.73780 6.42920e-18
8000.69271 6.21314e-18
8003.64761 6.17088e-18
8006.60252 6.33196e-18
8009.55742 6.60436e-18
8012.51233 6.89010e-18
8015.46723 7.08539e-18
8018.42214 7.14533e-18
8021.37705 7.09021e-18
8024.33195 6.97683e-18
8027.28685 6.88578e-18
8030.24176 6.82817e-18
8033.19666 6.70169e-18
8036.15157 6.49890e-18
8039.10647 6.49048e-18
8042.06138 6.68310e-18
8045.01628 6.78559e-18
8047.97119 6.86777e-18
8050.92609 7.04414e-18
8053.88100 7.21876e-18
8056.83590 7.32873e-18
8059.79081 7.35183e-18
8062.74572 7.32795e-18
8065.70062 7.25778e-18
8068.65552 7.08212e-18
8071.61043 6.94148e-18
8074.56534 6.87758e-18
8077.52024 6.87530e-18
8080.47514 6.93997e-18
8083.43005 6.91184e-18
8086.38495 6.86072e-18
8089.33986 6.97312e-18
8092.28468 7.18745e-18
8095.23959 7.35341e-18
8098.19449 7.43306e-18
8101.14939 7.47000e-18
8104.10430 7.50366e-18
8107.05920 7.47213e-18
8110.01411 7.24722e-18
8112.96901 6.94331e-18
8115.92392 6.68909e-18
8118.87882 6.51830e-18
8121.83373 6.54270e-18
8124.78863 6.69048e-18
8127.74354 6.80603e-18
8130.69844 6.89419e-18
8133.65335 7.08133e-18
8136.60825 7.28700e-18
8139.56316 7.30942e-18
8142.51807 7.21585e-18
8145.47297 7.06789e-18
8148.42787 6.84194e-18
8151.38278 6.61349e-18
8154.33768 6.36367e-18
8157.29259 6.10681e-18
8160.24749 5.96552e-18
8163.20240 6.00230e-18
8166.15730 6.16222e-18
8169.11221 6.39712e-18
8172.06711 6.76089e-18
8175.02202 7.04440e-18
8177.97692 7.03947e-18
8180.93183 6.94064e-18
8183.88673 6.90123e-18
8186.84164 6.91077e-18
8189.79655 6.84099e-18
8192.75145 6.75026e-18
8195.69627 6.66246e-18
8198.66126 6.60248e-18
8201.60608 6.66959e-18
8204.56099 6.89448e-18
8207.51589 7.15814e-18
8210.47079 7.28494e-18
8213.42570 7.34305e-18
8216.38061 7.45139e-18
8219.33551 7.50306e-18
8222.29041 7.44514e-18
8225.24532 7.17290e-18
8228.20023 6.68091e-18
8231.15513 6.36840e-18
8234.11003 6.44508e-18
8237.06494 6.70380e-18
8240.01984 6.91271e-18
8242.97475 6.99074e-18
8245.92965 7.00401e-18
8248.88456 7.08060e-18
8251.83946 7.13081e-18
8254.79437 7.12221e-18
8257.74928 7.20574e-18
8260.70418 7.17817e-18
8263.65908 6.99659e-18
8266.61399 7.01566e-18
8269.56890 7.15630e-18
8272.52380 7.36472e-18
8275.47870 7.53936e-18
8278.43361 7.44037e-18
8281.38852 7.28310e-18
8284.34342 7.22702e-18
8287.29832 7.06666e-18
8290.25323 6.85566e-18
8293.20813 6.80225e-18
8296.16304 6.97121e-18
8299.11794 7.16840e-18
8302.07285 7.25503e-18
8305.02776 7.47692e-18
8307.98266 7.86153e-18
8310.92748 8.12785e-18
8313.88238 8.09717e-18
8316.83729 7.85225e-18
8319.79219 7.60492e-18
8322.74710 7.42465e-18
8325.70201 7.27888e-18
8328.65691 7.21369e-18
8331.61181 7.27582e-18
8334.56672 7.11221e-18
8337.52162 6.96883e-18
8340.47653 7.25067e-18
8343.43144 7.66699e-18
8346.38634 7.97241e-18
8349.34124 8.19138e-18
8352.29615 8.27712e-18
8355.25105 8.28263e-18
8358.20596 8.24701e-18
8361.16086 8.08659e-18
8364.11577 7.90086e-18
8367.07067 7.77421e-18
8370.02558 7.67540e-18
8372.98049 7.55232e-18
8375.93539 7.50552e-18
8378.89029 7.68160e-18
8381.84520 7.86008e-18
8384.80010 7.86579e-18
8387.75501 7.81096e-18
8390.70991 7.88445e-18
8393.66482 8.07486e-18
8396.61973 8.29580e-18
8399.57463 8.48873e-18
8402.52953 8.50031e-18
8405.48444 8.24581e-18
8408.43934 8.02380e-18
8411.39425 7.99351e-18
8414.33907 7.90028e-18
8417.29398 7.74995e-18
8420.24888 7.61294e-18
8423.20378 7.55430e-18
8426.15869 7.65023e-18
8429.11359 7.83128e-18
8432.06850 7.94928e-18
8435.02340 7.93989e-18
8437.97831 7.93042e-18
8440.93322 8.06743e-18
8443.88812 8.33948e-18
8446.84303 8.46944e-18
8449.79793 8.40592e-18
8452.75283 8.20045e-18
8455.70774 8.01261e-18
8458.66265 7.82488e-18
8461.61755 7.61597e-18
8464.57245 7.46997e-18
8467.52736 7.32684e-18
8470.48227 7.22236e-18
8473.43717 7.26186e-18
8476.39207 7.37592e-18
8479.34698 7.53178e-18
8482.30188 7.76931e-18
8485.25679 8.13697e-18
8488.21169 8.41592e-18
8491.16660 8.44330e-18
8494.12151 8.33157e-18
8497.07641 8.17746e-18
8500.03131 7.97933e-18
8502.98622 7.80403e-18
8505.94112 7.62962e-18
8508.89603 7.39668e-18
8511.84085 7.17441e-18
8514.80584 6.98795e-18
8517.75066 6.91479e-18
8520.70556 7.01735e-18
8523.66047 7.18938e-18
8526.61537 7.42507e-18
8529.57028 7.64665e-18
8532.52519 7.75338e-18
8535.48009 7.81203e-18
8538.43499 7.86533e-18
8541.38990 7.79647e-18
8544.34480 7.60029e-18
8547.29971 7.43409e-18
8550.25461 7.28762e-18
8553.20952 7.02664e-18
8556.16442 6.85473e-18
8559.11933 6.88980e-18
8562.07424 6.98046e-18
8565.02914 7.05898e-18
8567.98404 6.99312e-18
8570.93895 6.97929e-18
8573.89385 7.16736e-18
8576.84876 7.35606e-18
8579.80366 7.42432e-18
8582.75857 7.46328e-18
8585.71348 7.56352e-18
8588.66838 7.52219e-18
8591.62328 7.37610e-18
8594.57819 7.31237e-18
8597.53309 7.27023e-18
8600.48800 7.14197e-18
8603.44290 6.97419e-18
8606.39781 6.83247e-18
8609.35272 6.69242e-18
8612.30762 6.62606e-18
8615.26253 6.63077e-18
8618.21743 6.71801e-18
8621.16225 6.96376e-18
8624.11715 7.19643e-18
8627.07206 7.37456e-18
8630.02697 7.53080e-18
8632.98187 7.51696e-18
8635.93678 7.43040e-18
8638.89168 7.32262e-18
8641.84658 7.14345e-18
8644.80149 6.93005e-18
8647.75640 6.71492e-18
8650.71130 6.51456e-18
8653.66620 6.39103e-18
8656.62111 6.34461e-18
8659.57602 6.36700e-18
8662.53092 6.45267e-18
8665.48582 6.52939e-18
8668.44073 6.72296e-18
8671.39563 6.90217e-18
8674.35054 6.90605e-18
8677.30544 6.84147e-18
8680.26035 6.75213e-18
8683.21526 6.66456e-18
8686.17016 6.64944e-18
8689.12506 6.60763e-18
8692.07997 6.43757e-18
8695.03487 6.25186e-18
8697.98978 6.15278e-18
8700.94469 6.16721e-18
8703.89959 6.18113e-18
8706.85449 6.24422e-18
8709.80940 6.52912e-18
8712.76430 6.90844e-18
8715.71921 7.14279e-18
8718.67411 7.13987e-18
8721.62902 7.06277e-18
8724.57384 7.01258e-18
8727.52874 6.91201e-18
8730.48365 6.71611e-18
8733.43855 6.47985e-18
8736.39346 6.36235e-18
8739.34836 6.31331e-18
8742.30327 6.23610e-18
8745.25817 6.16012e-18
8748.21308 6.25495e-18
8751.16799 6.37032e-18
8754.12289 6.44654e-18
8757.07779 6.61087e-18
8760.03270 6.78274e-18
8762.98760 6.90533e-18
8765.94251 6.99467e-18
8768.89741 6.98854e-18
8771.85232 6.98322e-18
8774.80723 6.94734e-18
8777.76213 6.72531e-18
8780.71703 6.51797e-18
8783.67194 6.42547e-18
8786.62684 6.24348e-18
8789.58175 6.22191e-18
8792.53665 6.39772e-18
8795.49156 6.47880e-18
8798.44647 6.50508e-18
8801.40137 6.62489e-18
8804.35628 6.71479e-18
8807.31118 6.71935e-18
8810.26608 6.76752e-18
8813.22099 6.84983e-18
8816.17590 6.92879e-18
8819.13080 6.78266e-18
8822.08570 6.64728e-18
8825.04061 6.63982e-18
8827.99552 6.52115e-18
8830.94033 6.33938e-18
8833.90532 6.21182e-18
8836.85015 6.19922e-18
8839.80505 6.20107e-18
8842.75995 6.06267e-18
8845.71486 6.08229e-18
8848.66977 6.36246e-18
8851.62467 6.51164e-18
8854.57957 6.57986e-18
8857.53448 6.59789e-18
8860.48938 6.65569e-18
8863.44429 6.80352e-18
8866.39919 6.86129e-18
8869.35410 6.82387e-18
8872.30901 6.72823e-18
8875.26391 6.56338e-18
8878.21881 6.41070e-18
8881.17372 6.20834e-18
8884.12862 6.04702e-18
8887.08353 6.00577e-18
8890.03844 5.90128e-18
8892.99334 5.88126e-18
8895.94824 5.94093e-18
8898.90315 6.06674e-18
8901.85805 6.28402e-18
8904.81296 6.51540e-18
8907.76786 6.71848e-18
8910.72277 6.83711e-18
8913.67767 6.87254e-18
8916.63258 6.73370e-18
8919.58749 6.42931e-18
8922.54239 6.19113e-18
8925.49729 5.99159e-18
8928.45220 5.73336e-18
8931.39702 5.47518e-18
8934.36201 5.41140e-18
8937.30683 5.36693e-18
8940.27182 5.41833e-18
8943.21664 5.65645e-18
8946.17154 5.84140e-18
8949.12645 5.92835e-18
8952.08135 6.12913e-18
8955.03626 6.30572e-18
8957.99116 6.17180e-18
8960.94607 5.87616e-18
8963.90098 5.53429e-18
8966.85588 5.21282e-18
8969.81078 5.05281e-18
8972.76569 5.01068e-18
8975.72059 4.84558e-18
8978.67550 4.77737e-18
8981.63040 4.92604e-18
8984.58531 5.01734e-18
8987.54022 5.07564e-18
8990.49512 5.18205e-18
8993.45003 5.31629e-18
8996.40493 5.50763e-18
8999.35983 6.06354e-18
9002.31474 6.04574e-18
9005.26965 5.70968e-18
9008.22455 5.46494e-18
9011.17945 5.29010e-18
9014.13436 5.08731e-18
9017.08927 4.84451e-18
9020.04417 4.69874e-18
9022.99907 4.64515e-18
9025.95398 4.64466e-18
9028.90888 4.82001e-18
9031.86379 5.14793e-18
9034.81869 5.59076e-18
9037.77360 6.09936e-18
9040.72851 6.51041e-18
9043.68341 6.84917e-18
9046.62823 7.05631e-18
9049.58313 6.82413e-18
9052.53804 6.33760e-18
9055.49294 5.90685e-18
9058.44785 5.56445e-18
9061.40276 5.31224e-18
9064.35766 5.01735e-18
9067.31256 4.70340e-18
9070.26747 4.61294e-18
9073.22237 4.67842e-18
9076.17728 4.82559e-18
9079.13219 5.16176e-18
9082.08709 5.49158e-18
9085.04199 5.73353e-18
9087.99690 6.04372e-18
9090.95180 6.09924e-18
9093.90671 5.90840e-18
9096.86161 5.95224e-18
9099.81652 5.76789e-18
9102.77142 5.21837e-18
9105.72633 4.92639e-18
9108.68124 4.87281e-18
9111.63614 4.84690e-18
9114.59104 4.76388e-18
9117.54595 4.69993e-18
9120.50085 4.78459e-18
9123.45576 4.96559e-18
9126.41066 5.11084e-18
9129.36557 5.19360e-18
9132.32048 5.29738e-18
9135.27538 5.60703e-18
9138.23028 5.87813e-18
9141.18519 5.96426e-18
9144.14009 5.89492e-18
9147.09500 5.47236e-18
9150.03982 4.88065e-18
9152.99473 4.44262e-18
9155.94963 4.21150e-18
9158.90453 4.34003e-18
9161.85944 4.66142e-18
9164.81434 4.75095e-18
9167.76925 4.72116e-18
9170.72415 4.85943e-18
9173.67906 5.02177e-18
9176.63397 5.29414e-18
9179.58887 5.83882e-18
9182.54378 6.21578e-18
9185.49868 6.19805e-18
9188.45358 5.89849e-18
9191.40849 5.43637e-18
9194.36340 5.09009e-18
9197.31830 4.94377e-18
9200.27320 4.78239e-18
9203.22811 4.68059e-18
9206.18302 4.63553e-18
9209.13792 4.82240e-18
9212.09282 5.14390e-18
9215.04773 5.32883e-18
9218.00263 5.69176e-18
9220.95754 6.25729e-18
9223.91244 6.59299e-18
9226.86735 6.67292e-18
9229.82226 6.56531e-18
9232.77716 6.23152e-18
9235.73206 5.75907e-18
9238.68697 5.22876e-18
9241.64187 4.83544e-18
9244.59678 4.68594e-18
9247.55169 4.63845e-18
9250.50659 4.70924e-18
9253.46149 4.94524e-18
9256.40631 5.21268e-18
9259.37130 5.50394e-18
9262.31612 5.94354e-18
9265.27103 6.35824e-18
9268.22594 6.39754e-18
9271.18084 6.23071e-18
9274.13574 5.99628e-18
9277.09065 5.50795e-18
9280.04555 4.98481e-18
9283.00046 4.60668e-18
9285.95536 4.34202e-18
9288.91027 4.11756e-18
9291.86517 3.90533e-18
9294.82008 3.80783e-18
9297.77499 3.86325e-18
9300.72989 3.98119e-18
9303.68479 4.15715e-18
9306.63970 4.41845e-18
9309.59460 4.49152e-18
9312.54951 4.18361e-18
9315.50441 3.85229e-18
9318.45932 3.52719e-18
9321.41423 3.19791e-18
9324.36913 2.94394e-18
9327.32403 2.68177e-18
9330.27894 2.38619e-18
9333.23384 2.08313e-18
9336.18875 1.93688e-18
9339.14365 2.06504e-18
9342.09856 2.31908e-18
9345.05347 2.64728e-18
9348.00837 2.95112e-18
9350.96328 3.13154e-18
9353.91818 3.29695e-18
9356.86300 3.51017e-18
9359.82799 3.40168e-18
9362.77281 2.87474e-18
9365.72772 2.60704e-18
9368.68262 2.70991e-18
9371.63753 2.68117e-18
9374.59243 2.51453e-18
9377.54733 2.32159e-18
9380.50224 2.21901e-18
9383.45715 2.48701e-18
9386.41205 3.05037e-18
9389.36695 3.58489e-18
9392.32186 3.91904e-18
9395.27677 4.06235e-18
9398.23167 4.25047e-18
9401.18657 4.56621e-18
9404.14148 4.62386e-18
9407.09638 4.46674e-18
9410.05129 4.33411e-18
9413.00619 4.13548e-18
9415.96110 3.79744e-18
9418.91601 3.30451e-18
9421.87091 2.84292e-18
9424.82581 2.53249e-18
9427.78072 2.41894e-18
9430.73562 2.44646e-18
9433.69053 2.57487e-18
9436.64544 2.77222e-18
9439.60034 2.77181e-18
9442.55524 2.83952e-18
9445.51015 3.36791e-18
9448.46505 3.76992e-18
9451.41996 3.73664e-18
9454.37486 3.57884e-18
9457.32977 3.18342e-18
9460.28467 2.63117e-18
9463.22949 2.30692e-18
9466.19448 2.44046e-18
9469.13930 2.66961e-18
9472.09421 2.61365e-18
9475.04911 2.61808e-18
9478.00402 2.75320e-18
9480.95892 2.91506e-18
9483.91383 3.33744e-18
9486.86874 3.67287e-18
9489.82364 3.51866e-18
9492.77854 3.30662e-18
9495.73345 3.40750e-18
9498.68835 3.62467e-18
9501.64326 3.66696e-18
9504.59816 3.51481e-18
9507.55307 3.28914e-18
9510.50798 3.04056e-18
9513.46288 2.81928e-18
9516.41778 2.65649e-18
9519.37269 2.45717e-18
9522.32759 2.40643e-18
9525.28250 2.90283e-18
9528.23740 3.54378e-18
9531.19231 3.69501e-18
9534.14722 3.79855e-18
9537.10212 4.13262e-18
9540.05703 4.21266e-18
9543.01193 4.09445e-18
9545.96683 3.88969e-18
9548.92174 3.44634e-18
9551.87665 3.14189e-18
9554.83155 2.93886e-18
9557.78645 2.64537e-18
9560.74136 2.68321e-18
9563.69627 2.95902e-18
9566.65117 2.98854e-18
9569.60607 2.83527e-18
9572.56098 2.92009e-18
9575.50580 3.51975e-18
9578.46070 4.04220e-18
9581.41561 4.00397e-18
9584.37052 3.80727e-18
9587.32542 3.78603e-18
9590.28032 3.84766e-18
9593.23523 3.75711e-18
9596.19013 3.54640e-18
9599.14504 3.39131e-18
9602.09994 3.09413e-18
9605.05485 2.96277e-18
9608.00976 3.11958e-18
9610.96466 3.04666e-18
9613.91956 2.91024e-18
9616.87447 3.23016e-18
9619.82937 3.71385e-18
9622.78428 4.03532e-18
9625.73919 4.21794e-18
9628.69409 4.32715e-18
9631.64899 4.52045e-18
9634.60390 4.33140e-18
9637.55880 3.84771e-18
9640.51371 3.74043e-18
9643.46861 3.64069e-18
9646.42352 3.34021e-18
9649.37842 3.04917e-18
9652.33333 2.80725e-18
9655.28823 2.89980e-18
9658.24314 3.21036e-18
9661.19804 3.47171e-18
9664.15295 3.77324e-18
9667.10785 3.94607e-18
9670.06276 4.25149e-18
9673.01766 4.96461e-18
9675.97257 5.40155e-18
9678.91739 5.28875e-18
9681.87229 4.88810e-18
9684.83728 4.57398e-18
9687.78210 4.28955e-18
9690.73701 3.77182e-18
9693.69191 3.43404e-18
9696.64682 3.33203e-18
9699.60173 3.10366e-18
9702.55663 2.94931e-18
9705.51153 3.03288e-18
9708.46644 3.18116e-18
9711.42134 3.30914e-18
9714.37625 3.67125e-18
9717.33115 4.38366e-18
9720.28606 5.03721e-18
9723.24097 5.14649e-18
9726.19587 4.83779e-18
9729.15078 4.59278e-18
9732.10568 4.36115e-18
9735.06058 3.91088e-18
9738.01549 3.50378e-18
9740.97040 3.33233e-18
9743.92530 3.19306e-18
9746.88020 2.95135e-18
9749.83511 2.83187e-18
9752.79002 2.94937e-18
9755.74492 3.06175e-18
9758.69982 3.13730e-18
9761.65473 3.14990e-18
9764.60963 3.29419e-18
9767.56454 3.68605e-18
9770.51944 4.02452e-18
9773.47435 4.24892e-18
9776.42926 4.23350e-18
9779.38416 4.07095e-18
9782.32898 4.13148e-18
9785.29397 3.96650e-18
9788.23879 3.30797e-18
9791.19369 2.91206e-18
9794.14860 2.88740e-18
9797.10351 2.74870e-18
9800.05841 2.63982e-18
9803.01331 2.80843e-18
9805.96822 3.11849e-18
9808.92312 3.32437e-18
9811.87803 3.30493e-18
9814.83294 3.28793e-18
9817.78784 3.56172e-18
9820.74274 4.05785e-18
9823.69765 4.39951e-18
9826.65255 4.42818e-18
9829.60746 4.25122e-18
9832.56236 3.90321e-18
9835.51727 3.54818e-18
9838.47217 3.43425e-18
9841.42708 3.45235e-18
9844.38198 3.39983e-18
9847.33689 3.39253e-18
9850.29179 3.48134e-18
9853.24670 3.34613e-18
9856.20160 3.16977e-18
9859.15651 3.66628e-18
9862.11141 4.42431e-18
9865.06632 4.55348e-18
9868.02123 4.46842e-18
9870.97613 4.67159e-18
9873.93103 5.01186e-18
9876.88594 5.25515e-18
9879.84084 5.19669e-18
9882.79575 4.99745e-18
9885.75065 4.92203e-18
9888.69548 4.87828e-18
9891.66047 4.69823e-18
9894.60528 4.42076e-18
9897.56019 4.42736e-18
9900.51509 4.54329e-18
9903.47000 4.43163e-18
9906.42490 4.42061e-18
9909.37981 4.71475e-18
9912.33472 5.03694e-18
9915.28962 5.23384e-18
9918.24453 5.38488e-18
9921.19943 5.67321e-18
9924.15433 5.84469e-18
9927.10924 5.94462e-18
9930.06415 6.25585e-18
9933.01905 6.53053e-18
9935.97395 6.25758e-18
9938.92886 5.77146e-18
9941.88377 5.67486e-18
9944.83867 5.65385e-18
9947.79357 5.52428e-18
9950.74848 5.61630e-18
9953.70338 5.80031e-18
9956.65829 5.94266e-18
9959.61319 6.09926e-18
9962.56810 6.10389e-18
9965.52301 6.12654e-18
9968.47791 6.37786e-18
9971.43281 6.60383e-18
9974.38772 6.74469e-18
9977.34262 6.98948e-18
9980.29753 7.02744e-18
9983.25244 6.64532e-18
9986.20734 6.51054e-18
9989.16224 6.74550e-18
9992.11715 6.65476e-18
9995.07205 6.37615e-18
9998.01687 6.30266e-18
