# wavelength flux
3303.65438 3.90268e-18
3307.42618 3.59596e-18
3311.19796 3.42685e-18
3314.97984 3.74639e-18
3318.75163 3.74337e-18
3322.53350 3.68918e-18
3326.30529 3.97949e-18
3330.08717 3.93814e-18
3333.85896 3.89939e-18
3337.64084 3.93730e-18
3341.41262 3.95586e-18
3345.19450 3.98456e-18
3348.96629 4.15136e-18
3352.74816 4.15684e-18
3356.51995 3.98369e-18
3360.29174 4.25494e-18
3364.07362 4.37919e-18
3367.84541 4.29809e-18
3371.62729 4.55878e-18
3375.39907 4.77098e-18
3379.18095 4.89149e-18
3382.95274 4.84557e-18
3386.73461 4.86593e-18
3390.50640 5.55546e-18
3394.28828 5.48317e-18
3398.06007 4.75346e-18
3401.84195 4.98303e-18
3405.61373 5.21565e-18
3409.38553 5.27726e-18
3413.16740 5.37652e-18
3416.93919 5.70566e-18
3420.72106 5.53421e-18
3424.49285 5.72635e-18
3428.27473 6.09948e-18
3432.04652 5.96953e-18
3435.82839 6.00544e-18
3439.60018 5.92945e-18
3443.38206 5.87939e-18
3447.15385 5.73687e-18
3450.92564 6.08443e-18
3454.70752 6.34271e-18
3458.47930 6.02908e-18
3462.26118 6.20013e-18
3466.03297 6.38684e-18
3469.81484 6.46908e-18
3473.58663 6.90455e-18
3477.36851 6.70914e-18
3481.14030 6.83739e-18
3484.92218 7.07760e-18
3488.69396 6.98840e-18
3492.46576 6.63025e-18
3496.24763 6.66841e-18
3500.01942 6.95460e-18
3503.80129 7.23529e-18
3507.57308 7.25697e-18
3511.35496 7.20573e-18
3515.12675 7.13492e-18
3518.90863 7.01987e-18
3522.68041 7.47839e-18
3526.46229 7.65385e-18
3530.23408 7.72706e-18
3534.01595 7.82074e-18
3537.78774 7.86390e-18
3541.55953 7.68177e-18
3545.34141 7.53082e-18
3549.11320 7.56752e-18
3552.89507 7.72594e-18
3556.66686 7.82282e-18
3560.44874 7.93108e-18
3564.22053 7.83544e-18
3568.00240 7.69544e-18
3571.77419 7.75103e-18
3575.55607 7.68625e-18
3579.32786 8.05600e-18
3583.10973 8.36970e-18
3586.88152 8.12946e-18
3590.65331 7.89424e-18
3594.43519 7.92631e-18
3598.20698 8.15941e-18
3601.98886 8.41767e-18
3605.76064 8.45774e-18
3609.54252 8.39705e-18
3613.31431 8.39402e-18
3617.09618 8.47837e-18
3620.86797 8.53115e-18
3624.64985 8.60877e-18
3628.42164 8.62226e-18
3632.19343 8.84519e-18
3635.97530 9.25484e-18
3639.74710 9.14971e-18
3643.52897 9.26377e-18
3647.30076 9.40695e-18
3651.08263 9.35770e-18
3654.85442 9.35480e-18
3658.63630 9.39402e-18
3662.40809 9.42505e-18
3666.18996 9.71969e-18
3669.96175 9.93495e-18
3673.73354 9.93686e-18
3677.51542 9.93744e-18
3681.28721 9.72928e-18
3685.06909 9.74802e-18
3688.84087 9.85091e-18
3692.62275 9.75198e-18
3696.39454 9.58144e-18
3700.17641 9.81148e-18
3703.94820 9.86872e-18
3707.73008 9.88382e-18
3711.50187 1.02583e-17
3715.28374 1.01432e-17
3719.05553 9.96883e-18
3722.82732 9.93450e-18
3726.60920 1.02050e-17
3730.38099 1.02101e-17
3734.16286 1.00239e-17
3737.93465 1.02230e-17
3741.71653 1.01951e-17
3745.48832 1.01672e-17
3749.27020 1.01394e-17
3753.04198 1.01116e-17
3756.82386 1.00838e-17
3760.59565 1.00560e-17
3764.37752 1.00283e-17
3768.14931 1.00006e-17
3771.92110 9.97286e-18
3775.70298 9.94519e-18
3779.47477 9.91754e-18
3783.25664 9.64938e-18
3787.02844 9.78571e-18
3790.81031 1.01661e-17
3794.58210 1.01173e-17
3798.36397 1.01735e-17
3802.13576 1.04653e-17
3805.91764 1.02666e-17
3809.68943 1.01430e-17
3813.46122 1.04440e-17
3817.24309 1.05117e-17
3821.01488 1.05340e-17
3824.79676 1.05354e-17
3828.56855 1.08250e-17
3832.35043 1.09235e-17
3836.12221 1.08010e-17
3839.90409 1.09471e-17
3843.67588 1.09337e-17
3847.45775 1.08939e-17
3851.22954 1.12456e-17
3855.01142 1.14473e-17
3858.78321 1.15972e-17
3862.55500 1.16807e-17
3866.33687 1.17943e-17
3870.10866 1.18394e-17
3873.89054 1.18567e-17
3877.66233 1.19167e-17
3881.44420 1.19023e-17
3885.21599 1.20966e-17
3888.99787 1.23260e-17
3892.76966 1.23629e-17
3896.55154 1.24488e-17
3900.32332 1.26666e-17
3904.09512 1.25119e-17
3907.87699 1.25414e-17
3911.64878 1.27376e-17
3915.43065 1.26223e-17
3919.20244 1.25919e-17
3922.98432 1.29693e-17
3926.75611 1.32399e-17
3930.53798 1.29814e-17
3934.30977 1.29497e-17
3938.09165 1.31939e-17
3941.86344 1.32586e-17
3945.64531 1.31791e-17
3949.41710 1.30942e-17
3953.18889 1.30681e-17
3956.97077 1.33391e-17
3960.74256 1.33549e-17
3964.52443 1.32195e-17
3968.29622 1.33884e-17
3972.07810 1.33232e-17
3975.84989 1.33587e-17
3979.63177 1.35368e-17
3983.40355 1.37968e-17
3987.18543 1.37539e-17
3990.95722 1.34424e-17
3994.72901 1.34514e-17
3998.51088 1.35801e-17
4002.28267 1.36948e-17
4006.06455 1.38843e-17
4009.83634 1.39781e-17
4013.61821 1.38408e-17
4017.39001 1.35804e-17
4021.17188 1.35625e-17
4024.94367 1.36831e-17
4028.72554 1.35069e-17
4032.49734 1.34786e-17
4036.27921 1.36549e-17
4040.05100 1.35734e-17
4043.82279 1.33465e-17
4047.60466 1.36758e-17
4051.37645 1.37929e-17
4055.15833 1.35830e-17
4058.93012 1.34947e-17
4062.71199 1.35837e-17
4066.48378 1.35527e-17
4070.26566 1.33193e-17
4074.03745 1.35421e-17
4077.81932 1.37238e-17
4081.59111 1.34214e-17
4085.36290 1.35145e-17
4089.14478 1.36298e-17
4092.91657 1.37598e-17
4096.69844 1.36242e-17
4100.47023 1.33406e-17
4104.25211 1.32802e-17
4108.02390 1.32417e-17
4111.80577 1.35082e-17
4115.57756 1.36259e-17
4119.35944 1.35851e-17
4123.13123 1.33468e-17
4126.90302 1.32709e-17
4130.68489 1.33377e-17
4134.45668 1.34724e-17
4138.23856 1.37341e-17
4142.01035 1.35631e-17
4145.79223 1.33570e-17
4149.56401 1.33954e-17
4153.34589 1.32584e-17
4157.11768 1.32723e-17
4160.89955 1.34444e-17
4164.67134 1.33951e-17
4168.44314 1.34728e-17
4172.22501 1.35629e-17
4175.99680 1.33747e-17
4179.77867 1.34067e-17
4183.55046 1.35809e-17
4187.33234 1.36218e-17
4191.10413 1.36348e-17
4194.88600 1.36795e-17
4198.65780 1.37938e-17
4202.43967 1.37544e-17
4206.21146 1.36075e-17
4209.99334 1.36906e-17
4213.76512 1.39815e-17
4217.54700 1.39994e-17
4221.31879 1.39861e-17
4225.09058 1.39743e-17
4228.87245 1.38642e-17
4232.64425 1.38283e-17
4236.42612 1.39156e-17
4240.19791 1.38001e-17
4243.97978 1.36265e-17
4247.75157 1.35225e-17
4251.53345 1.38287e-17
4255.30524 1.37138e-17
4259.08711 1.33068e-17
4262.85891 1.34140e-17
4266.63069 1.35380e-17
4270.41257 1.34731e-17
4274.18436 1.35472e-17
4277.96623 1.35282e-17
4281.73802 1.34662e-17
4285.51990 1.36260e-17
4289.29169 1.37557e-17
4293.07356 1.38200e-17
4296.84535 1.37494e-17
4300.62723 1.38235e-17
4304.39902 1.36107e-17
4308.18089 1.36219e-17
4311.95268 1.36663e-17
4315.72447 1.38237e-17
4319.50635 1.37358e-17
4323.27814 1.36955e-17
4327.06002 1.37535e-17
4330.83180 1.38013e-17
4334.61368 1.39676e-17
4338.38547 1.37886e-17
4342.16734 1.36900e-17
4345.93914 1.37991e-17
4349.72101 1.39508e-17
4353.49280 1.39784e-17
4357.26459 1.39824e-17
4361.04646 1.39095e-17
4364.81825 1.38839e-17
4368.60013 1.39768e-17
4372.37192 1.42370e-17
4376.15380 1.44940e-17
4379.92558 1.45811e-17
4383.70746 1.45906e-17
4387.47925 1.46002e-17
4391.26112 1.46097e-17
4395.03291 1.46192e-17
4398.80470 1.46288e-17
4402.58658 1.46383e-17
4406.35837 1.46478e-17
4410.14024 1.46573e-17
4413.91203 1.46668e-17
4417.69391 1.46763e-17
4421.46570 1.46858e-17
4425.24757 1.47399e-17
4429.01936 1.47316e-17
4432.80124 1.47315e-17
4436.57303 1.46545e-17
4440.35491 1.47233e-17
4444.12669 1.47293e-17
4447.89848 1.49355e-17
4451.68036 1.50239e-17
4455.45215 1.49492e-17
4459.23402 1.48852e-17
4463.00582 1.48904e-17
4466.78769 1.50395e-17
4470.55948 1.50494e-17
4474.34135 1.49291e-17
4478.11314 1.50182e-17
4481.89502 1.52632e-17
4485.66681 1.51725e-17
4489.43860 1.53059e-17
4493.22048 1.53720e-17
4496.99226 1.54104e-17
4500.77414 1.56266e-17
4504.54593 1.57586e-17
4508.32780 1.58184e-17
4512.09959 1.57369e-17
4515.88147 1.57539e-17
4519.65326 1.59194e-17
4523.43514 1.59351e-17
4527.20693 1.59812e-17
4530.98880 1.61715e-17
4534.76059 1.60490e-17
4538.53238 1.58950e-17
4542.31425 1.61513e-17
4546.08605 1.61992e-17
4549.86792 1.60791e-17
4553.63971 1.60704e-17
4557.42159 1.61665e-17
4561.19337 1.62357e-17
4564.97525 1.62479e-17
4568.74704 1.61063e-17
4572.52891 1.62096e-17
4576.30070 1.60826e-17
4580.07250 1.58882e-17
4583.85437 1.59477e-17
4587.62616 1.60322e-17
4591.40803 1.58970e-17
4595.17982 1.57615e-17
4598.96170 1.57826e-17
4602.73349 1.59084e-17
4606.51536 1.59479e-17
4610.28715 1.57077e-17
4614.06903 1.58049e-17
4617.84082 1.60163e-17
4621.62270 1.58704e-17
4625.39448 1.59639e-17
4629.16627 1.61068e-17
4632.94815 1.61124e-17
4636.71994 1.59333e-17
4640.50182 1.59609e-17
4644.27361 1.61052e-17
4648.05548 1.59625e-17
4651.82727 1.57614e-17
4655.60914 1.57828e-17
4659.38093 1.55112e-17
4663.16281 1.55342e-17
4666.93460 1.55772e-17
4670.71648 1.55097e-17
4674.48826 1.51938e-17
4678.26005 1.49057e-17
4682.04193 1.50499e-17
4685.81372 1.50068e-17
4689.59559 1.49730e-17
4693.36739 1.49183e-17
4697.14926 1.47442e-17
4700.92105 1.46028e-17
4704.70292 1.46316e-17
4708.47471 1.46326e-17
4712.25659 1.45823e-17
4716.02838 1.45209e-17
4719.80017 1.44420e-17
4723.58205 1.44737e-17
4727.35383 1.45101e-17
4731.13571 1.44138e-17
4734.90750 1.44935e-17
4738.68937 1.44229e-17
4742.46116 1.43136e-17
4746.24304 1.45232e-17
4750.01483 1.46228e-17
4753.79670 1.44852e-17
4757.56850 1.44925e-17
4761.34029 1.46976e-17
4765.12216 1.47916e-17
4768.89395 1.47407e-17
4772.67582 1.48089e-17
4776.44761 1.48576e-17
4780.22949 1.48211e-17
4784.00128 1.49410e-17
4787.78316 1.50807e-17
4791.55494 1.50703e-17
4795.33682 1.52168e-17
4799.10861 1.53139e-17
4802.89048 1.50578e-17
4806.66227 1.50886e-17
4810.43407 1.51821e-17
4814.21594 1.50850e-17
4817.98773 1.49720e-17
4821.76960 1.49861e-17
4825.54139 1.51232e-17
4829.32327 1.50557e-17
4833.09506 1.51978e-17
4836.87693 1.53991e-17
4840.64873 1.53594e-17
4844.43060 1.53701e-17
4848.20239 1.54878e-17
4851.97418 1.53823e-17
4855.75605 1.53547e-17
4859.52784 1.54803e-17
4863.30972 1.54371e-17
4867.08151 1.56228e-17
4870.86339 1.56379e-17
4874.63518 1.57930e-17
4878.41705 1.60305e-17
4882.18884 1.60184e-17
4885.97071 1.60939e-17
4889.74250 1.61694e-17
4893.52438 1.62449e-17
4897.29617 1.63203e-17
4901.06796 1.63957e-17
4904.84983 1.64711e-17
4908.62162 1.65465e-17
4912.40350 1.66218e-17
4916.17529 1.66972e-17
4919.95716 1.67724e-17
4923.72895 1.68477e-17
4927.51083 1.68731e-17
4931.28262 1.69107e-17
4935.06449 1.67534e-17
4938.83628 1.65640e-17
4942.60807 1.66047e-17
4946.38995 1.67086e-17
4950.16174 1.66185e-17
4953.94361 1.65291e-17
4957.71540 1.68115e-17
4961.49728 1.71328e-17
4965.26907 1.68891e-17
4969.05094 1.66094e-17
4972.82273 1.66272e-17
4976.60461 1.66594e-17
4980.37640 1.65096e-17
4984.15827 1.65438e-17
4987.93007 1.65780e-17
4991.70186 1.66122e-17
4995.48373 1.66464e-17
4999.25552 1.66805e-17
5003.03739 1.67147e-17
5006.80918 1.67489e-17
5010.59106 1.67830e-17
5014.36285 1.68171e-17
5018.14473 1.68512e-17
5021.91651 1.68853e-17
5025.69839 1.69671e-17
5029.47018 1.70488e-17
5033.25205 1.71231e-17
5037.02384 1.71974e-17
5040.79564 1.72717e-17
5044.57751 1.73459e-17
5048.34930 1.74201e-17
5052.13117 1.74943e-17
5055.90296 1.75685e-17
5059.68484 1.76426e-17
5063.45663 1.77168e-17
5067.23850 1.77909e-17
5071.01030 1.78649e-17
5074.79217 1.79887e-17
5078.56396 1.81388e-17
5082.33575 1.80642e-17
5086.11762 1.81672e-17
5089.88941 1.83462e-17
5093.67129 1.81765e-17
5097.44308 1.82688e-17
5101.22495 1.82304e-17
5104.99675 1.81359e-17
5108.77862 1.83205e-17
5112.55041 1.84761e-17
5116.33228 1.86358e-17
5120.10407 1.86525e-17
5123.87586 1.88652e-17
5127.65774 1.88526e-17
5131.42953 1.87618e-17
5135.21141 1.89516e-17
5138.98319 1.91031e-17
5142.76507 1.92401e-17
5146.53686 1.95453e-17
5150.31873 1.96885e-17
5154.09052 1.94862e-17
5157.87240 1.94346e-17
5161.64419 1.94749e-17
5165.42606 1.96056e-17
5169.19785 1.97363e-17
5172.96964 1.98152e-17
5176.75152 1.98158e-17
5180.52331 2.00712e-17
5184.30518 2.01186e-17
5188.07697 2.01165e-17
5191.85885 2.03143e-17
5195.63064 2.04405e-17
5199.41251 2.06457e-17
5203.18430 2.07276e-17
5206.96618 2.06785e-17
5210.73797 2.08418e-17
5214.50976 2.09913e-17
5218.29164 2.09692e-17
5222.06343 2.10517e-17
5225.84530 2.12778e-17
5229.61709 2.12178e-17
5233.39896 2.13723e-17
5237.17075 2.16194e-17
5240.95263 2.14457e-17
5244.72442 2.14817e-17
5248.50630 2.18073e-17
5252.27808 2.21651e-17
5256.05996 2.21697e-17
5259.83175 2.19359e-17
5263.60354 2.21699e-17
5267.38541 2.25596e-17
5271.15720 2.24949e-17
5274.93908 2.24644e-17
5278.71087 2.24064e-17
5282.49274 2.25236e-17
5286.26453 2.28559e-17
5290.04641 2.30662e-17
5293.81820 2.30714e-17
5297.60007 2.31183e-17
5301.37186 2.30204e-17
5305.15374 2.31767e-17
5308.92553 2.35356e-17
5312.69732 2.36412e-17
5316.47919 2.37827e-17
5320.25098 2.38692e-17
5324.03286 2.38767e-17
5327.80465 2.38481e-17
5331.58652 2.39343e-17
5335.35832 2.39896e-17
5339.14019 2.40119e-17
5342.91198 2.40916e-17
5346.69385 2.43628e-17
5350.46564 2.44009e-17
5354.23743 2.43867e-17
5358.01931 2.45372e-17
5361.79110 2.46256e-17
5365.57298 2.47208e-17
5369.34476 2.48313e-17
5373.12664 2.47172e-17
5376.89843 2.45949e-17
5380.68030 2.47262e-17
5384.45209 2.49260e-17
5388.23397 2.51446e-17
5392.00576 2.52629e-17
5395.77755 2.52653e-17
5399.55943 2.51868e-17
5403.33122 2.50623e-17
5407.11309 2.53199e-17
5410.88488 2.52801e-17
5414.66675 2.51638e-17
5418.43854 2.51674e-17
5422.22042 2.50172e-17
5425.99221 2.50873e-17
5429.77409 2.51503e-17
5433.54587 2.51972e-17
5437.32775 2.52891e-17
5441.09954 2.51770e-17
5444.87133 2.51041e-17
5448.65320 2.52524e-17
5452.42500 2.52483e-17
5456.20687 2.49700e-17
5459.97866 2.48195e-17
5463.76053 2.49833e-17
5467.53232 2.49205e-17
5471.31420 2.48029e-17
5475.08599 2.47629e-17
5478.86786 2.46783e-17
5482.63965 2.45502e-17
5486.42153 2.43850e-17
5490.19332 2.42428e-17
5493.96511 2.42125e-17
5497.74698 2.42661e-17
5501.51877 2.42188e-17
5505.30065 2.40232e-17
5509.07244 2.37299e-17
5512.85432 2.36670e-17
5516.62611 2.36847e-17
5520.40798 2.35434e-17
5524.17977 2.35213e-17
5527.96164 2.35090e-17
5531.73343 2.34176e-17
5535.50522 2.33448e-17
5539.28710 2.34194e-17
5543.05889 2.33220e-17
5546.84076 2.31326e-17
5550.61255 2.28923e-17
5554.39443 2.24557e-17
5558.16622 2.23204e-17
5561.94809 2.21851e-17
5565.71989 2.20499e-17
5569.50176 2.19147e-17
5573.27355 2.17796e-17
5577.04534 2.16445e-17
5580.82721 2.15094e-17
5584.59900 2.13744e-17
5588.38088 2.12395e-17
5592.15267 2.11046e-17
5595.93455 2.09697e-17
5599.70633 2.10229e-17
5603.48821 2.10204e-17
5607.26000 2.07728e-17
5611.04187 2.06095e-17
5614.81366 2.06201e-17
5618.59554 2.08162e-17
5622.36733 2.07548e-17
5626.13912 2.05770e-17
5629.92100 2.04990e-17
5633.69279 2.03692e-17
5637.47466 2.01358e-17
5641.24645 2.01929e-17
5645.02832 2.03042e-17
5648.80011 2.03003e-17
5652.58199 2.02279e-17
5656.35378 2.02709e-17
5660.13566 2.01770e-17
5663.90744 2.00716e-17
5667.68932 1.99126e-17
5671.46111 2.00094e-17
5675.23290 1.99984e-17
5679.01477 1.99870e-17
5682.78657 1.99856e-17
5686.56844 1.99939e-17
5690.34023 1.99147e-17
5694.12210 1.97476e-17
5697.89389 1.97497e-17
5701.67577 1.97416e-17
5705.44756 1.97145e-17
5709.22943 1.96731e-17
5713.00122 1.96880e-17
5716.77301 1.95628e-17
5720.55489 1.95839e-17
5724.32668 1.97075e-17
5728.10855 1.95238e-17
5731.88034 1.93744e-17
5735.66222 1.95846e-17
5739.43401 1.97672e-17
5743.21589 1.97641e-17
5746.98768 1.97673e-17
5750.76955 1.97976e-17
5754.54134 1.97800e-17
5758.31313 1.98977e-17
5762.09500 1.99486e-17
5765.86679 1.99874e-17
5769.64867 1.98651e-17
5773.42046 1.97170e-17
5777.20233 1.98229e-17
5780.97412 1.98093e-17
5784.75600 1.97122e-17
5788.52779 1.98894e-17
5792.30966 1.99197e-17
5796.08145 1.98465e-17
5799.86333 1.98073e-17
5803.63512 1.96894e-17
5807.40691 1.99199e-17
5811.18878 2.00924e-17
5814.96057 1.99182e-17
5818.74245 1.98527e-17
5822.51424 1.99713e-17
5826.29611 1.99128e-17
5830.06790 1.98057e-17
5833.84978 1.97822e-17
5837.62157 1.96359e-17
5841.40344 1.95067e-17
5845.17523 1.95873e-17
5848.94702 1.94864e-17
5852.72890 1.94299e-17
5856.50069 1.93196e-17
5860.28257 1.92627e-17
5864.05436 1.94454e-17
5867.83623 1.92691e-17
5871.60802 1.88740e-17
5875.38989 1.84894e-17
5879.16168 1.79339e-17
5882.94356 1.79525e-17
5886.71535 1.89942e-17
5890.49723 1.94350e-17
5894.26901 1.87915e-17
5898.04080 1.78572e-17
5901.82268 1.75789e-17
5905.59447 1.77666e-17
5909.37634 1.80066e-17
5913.14814 1.82520e-17
5916.93001 1.83468e-17
5920.70180 1.82154e-17
5924.48367 1.82969e-17
5928.25546 1.82855e-17
5932.03734 1.81107e-17
5935.80913 1.78727e-17
5939.58092 1.75719e-17
5943.36280 1.75820e-17
5947.13458 1.75303e-17
5950.91646 1.76271e-17
5954.68825 1.75631e-17
5958.47012 1.71107e-17
5962.24191 1.71053e-17
5966.02379 1.72297e-17
5969.79558 1.71591e-17
5973.57745 1.71602e-17
5977.34925 1.71073e-17
5981.13112 1.69856e-17
5984.90291 1.69566e-17
5988.67470 1.69621e-17
5992.45657 1.67587e-17
5996.22836 1.65099e-17
6000.01024 1.65879e-17
6003.78203 1.64969e-17
6007.56390 1.63756e-17
6011.33569 1.62054e-17
6015.11757 1.62532e-17
6018.88936 1.64351e-17
6022.67123 1.63845e-17
6026.44302 1.62645e-17
6030.22490 1.60515e-17
6033.99669 1.59349e-17
6037.76848 1.60188e-17
6041.55035 1.58568e-17
6045.32214 1.57150e-17
6049.10402 1.57129e-17
6052.87581 1.57160e-17
6056.65768 1.59212e-17
6060.42947 1.60241e-17
6064.21135 1.58649e-17
6067.98314 1.57758e-17
6071.76501 1.56612e-17
6075.53680 1.57533e-17
6079.30859 1.58916e-17
6083.09047 1.57170e-17
6086.86226 1.55217e-17
6090.64414 1.53959e-17
6094.41593 1.52949e-17
6098.19780 1.52394e-17
6101.96959 1.52700e-17
6105.75146 1.52226e-17
6109.52325 1.51590e-17
6113.30513 1.51157e-17
6117.07692 1.51720e-17
6120.84871 1.52466e-17
6124.63058 1.51135e-17
6128.40237 1.50806e-17
6132.18425 1.50899e-17
6135.95604 1.49353e-17
6139.73791 1.50030e-17
6143.50970 1.51470e-17
6147.29158 1.50840e-17
6151.06337 1.49508e-17
6154.84524 1.48504e-17
6158.61703 1.48469e-17
6162.39891 1.49144e-17
6166.17070 1.49050e-17
6169.94249 1.47591e-17
6173.72436 1.47925e-17
6177.49615 1.47575e-17
6181.27803 1.46089e-17
6185.04982 1.45157e-17
6188.83169 1.45423e-17
6192.60348 1.46540e-17
6196.38536 1.46518e-17
6200.15715 1.46432e-17
6203.93902 1.47441e-17
6207.71082 1.46817e-17
6211.48261 1.47034e-17
6215.26448 1.47906e-17
6219.03627 1.47704e-17
6222.81814 1.46112e-17
6226.58993 1.44016e-17
6230.37181 1.46488e-17
6234.14360 1.49821e-17
6237.92548 1.50411e-17
6241.69726 1.48583e-17
6245.47914 1.47231e-17
6249.25093 1.48195e-17
6253.03280 1.49904e-17
6256.80459 1.50186e-17
6260.57639 1.50866e-17
6264.35826 1.50744e-17
6268.13005 1.50271e-17
6271.91193 1.47338e-17
6275.68371 1.43480e-17
6279.46559 1.44112e-17
6283.23738 1.47025e-17
6287.01925 1.48311e-17
6290.79104 1.47155e-17
6294.57292 1.50178e-17
6298.34471 1.58534e-17
6302.11650 1.59634e-17
6305.89837 1.54387e-17
6309.67016 1.52773e-17
6313.45204 1.54899e-17
6317.22383 1.57479e-17
6321.00570 1.57951e-17
6324.77750 1.58857e-17
6328.55937 1.61376e-17
6332.33116 1.61054e-17
6336.11303 1.57880e-17
6339.88482 1.57264e-17
6343.66670 1.58241e-17
6347.43849 1.59145e-17
6351.21028 1.61075e-17
6354.99215 1.61708e-17
6358.76394 1.61068e-17
6362.54582 1.62013e-17
6366.31761 1.60951e-17
6370.09948 1.58021e-17
6373.87127 1.59933e-17
6377.65315 1.62311e-17
6381.42494 1.62118e-17
6385.20682 1.62379e-17
6388.97861 1.62808e-17
6392.76048 1.62079e-17
6396.53227 1.61824e-17
6400.30406 1.64189e-17
6404.08593 1.65101e-17
6407.85772 1.64766e-17
6411.63960 1.65871e-17
6415.41139 1.67641e-17
6419.19326 1.68871e-17
6422.96505 1.68467e-17
6426.74693 1.67114e-17
6430.51872 1.68585e-17
6434.30059 1.69733e-17
6438.07239 1.68277e-17
6441.84418 1.68511e-17
6445.62605 1.69127e-17
6449.39784 1.68636e-17
6453.17971 1.66908e-17
6456.95150 1.67997e-17
6460.73338 1.69854e-17
6464.50517 1.71132e-17
6468.28705 1.71565e-17
6472.05883 1.69752e-17
6475.84071 1.68037e-17
6479.61250 1.68157e-17
6483.39437 1.68615e-17
6487.16616 1.67983e-17
6490.93795 1.68041e-17
6494.71983 1.69170e-17
6498.49162 1.70246e-17
6502.27350 1.70223e-17
6506.04529 1.67950e-17
6509.82716 1.67004e-17
6513.59895 1.66806e-17
6517.38082 1.67492e-17
6521.15261 1.68334e-17
6524.93449 1.67897e-17
6528.70628 1.68563e-17
6532.47807 1.68516e-17
6536.25994 1.67587e-17
6540.03173 1.67212e-17
6543.81361 1.65584e-17
6547.58540 1.64267e-17
6551.36727 1.65738e-17
6555.13907 1.65582e-17
6558.92094 1.64768e-17
6562.69273 1.64551e-17
6566.47460 1.62189e-17
6570.24639 1.60595e-17
6574.01818 1.60974e-17
6577.80006 1.62992e-17
6581.57185 1.62228e-17
6585.35372 1.59415e-17
6589.12551 1.59066e-17
6592.90739 1.58717e-17
6596.67918 1.58368e-17
6600.46105 1.58019e-17
6604.23284 1.57670e-17
6608.01472 1.57322e-17
6611.78651 1.56973e-17
6615.56839 1.56625e-17
6619.34018 1.56276e-17
6623.11197 1.55928e-17
6626.89384 1.55579e-17
6630.66563 1.55231e-17
6634.44750 1.54883e-17
6638.21929 1.54535e-17
6642.00117 1.54187e-17
6645.77296 1.53839e-17
6649.55483 1.53491e-17
6653.32662 1.54097e-17
6657.10850 1.52516e-17
6660.88029 1.50746e-17
6664.65208 1.52009e-17
6668.43395 1.53175e-17
6672.20575 1.52053e-17
6675.98762 1.50947e-17
6679.75941 1.49136e-17
6683.54128 1.47960e-17
6687.31307 1.48095e-17
6691.09495 1.48003e-17
6694.86674 1.47878e-17
6698.64861 1.47254e-17
6702.42040 1.46783e-17
6706.20228 1.45779e-17
6709.97407 1.45015e-17
6713.74586 1.43566e-17
6717.52773 1.41910e-17
6721.29952 1.41672e-17
6725.08140 1.41085e-17
6728.85319 1.41068e-17
6732.63507 1.40452e-17
6736.40686 1.39996e-17
6740.18873 1.40560e-17
6743.96052 1.40888e-17
6747.74239 1.39754e-17
6751.51418 1.38569e-17
6755.28597 1.38139e-17
6759.06785 1.37033e-17
6762.83964 1.36565e-17
6766.62151 1.38082e-17
6770.39330 1.40271e-17
6774.17518 1.41535e-17
6777.94697 1.38947e-17
6781.72884 1.36543e-17
6785.50064 1.37408e-17
6789.28251 1.37082e-17
6793.05430 1.35742e-17
6796.82609 1.33435e-17
6800.60796 1.32361e-17
6804.37975 1.32926e-17
6808.16163 1.32765e-17
6811.93342 1.32957e-17
6815.71529 1.31972e-17
6819.48708 1.30272e-17
6823.26896 1.29392e-17
6827.04075 1.32052e-17
6830.82262 1.36463e-17
6834.59441 1.33790e-17
6838.37629 1.28504e-17
6842.14808 1.24294e-17
6845.92995 1.24029e-17
6849.70175 1.23764e-17
6853.47354 1.23499e-17
6857.25541 1.23235e-17
6861.02720 1.22970e-17
6864.80907 1.22705e-17
6868.58086 1.22441e-17
6872.36274 1.22176e-17
6876.13453 1.21911e-17
6879.91640 1.21647e-17
6883.68819 1.21383e-17
6887.47007 1.21118e-17
6891.24186 1.20854e-17
6895.01365 1.20589e-17
6898.79552 1.20325e-17
6902.56732 1.20061e-17
6906.34919 1.19797e-17
6910.12098 1.19532e-17
6913.90285 1.19268e-17
6917.67464 1.19004e-17
6921.45652 1.18740e-17
6925.22831 1.18476e-17
6929.01018 1.18212e-17
6932.78197 1.17948e-17
6936.55376 1.17684e-17
6940.33564 1.17426e-17
6944.10743 1.16064e-17
6947.88930 1.18723e-17
6951.66109 1.18903e-17
6955.44297 1.14528e-17
6959.21476 1.12551e-17
6962.99664 1.13201e-17
6966.76843 1.15277e-17
6970.55030 1.16391e-17
6974.32209 1.16571e-17
6978.10396 1.18576e-17
6981.87575 1.17008e-17
6985.64754 1.13632e-17
6989.42942 1.13451e-17
6993.20121 1.11936e-17
6996.98308 1.11449e-17
7000.75487 1.13396e-17
7004.53675 1.13323e-17
7008.30854 1.12800e-17
7012.09041 1.12414e-17
7015.86220 1.11783e-17
7019.64408 1.10966e-17
7023.41587 1.11366e-17
7027.18766 1.11024e-17
7030.96953 1.10109e-17
7034.74132 1.10018e-17
7038.52320 1.10676e-17
7042.29499 1.10540e-17
7046.07686 1.10700e-17
7049.84865 1.09783e-17
7053.63053 1.08732e-17
7057.40232 1.07575e-17
7061.18419 1.07935e-17
7064.95598 1.08232e-17
7068.73786 1.08305e-17
7072.50965 1.07584e-17
7076.28144 1.06971e-17
7080.06332 1.07533e-17
7083.83511 1.08359e-17
7087.61698 1.08257e-17
7091.38877 1.07178e-17
7095.17064 1.06698e-17
7098.94243 1.06932e-17
7102.72431 1.06258e-17
7106.49610 1.06023e-17
7110.27797 1.06301e-17
7114.04976 1.06132e-17
7117.82155 1.05708e-17
7121.60343 1.05303e-17
7125.37522 1.05105e-17
7129.15709 1.05808e-17
7132.92889 1.07725e-17
7136.71076 1.09394e-17
7140.48255 1.08727e-17
7144.26442 1.06428e-17
7148.03621 1.04811e-17
7151.81809 1.02292e-17
7155.58988 1.00581e-17
7159.36167 9.98491e-18
7163.14354 9.91001e-18
7166.91533 9.76340e-18
7170.69721 9.54671e-18
7174.46900 9.44363e-18
7178.25087 9.24335e-18
7182.02266 9.07453e-18
7185.80454 8.97187e-18
7189.57633 8.98230e-18
7193.35820 8.97269e-18
7197.13000 8.97603e-18
7200.91187 8.95793e-18
7204.68366 8.96886e-18
7208.45545 9.06348e-18
7212.23732 9.11487e-18
7216.00911 8.98932e-18
7219.79099 8.88693e-18
7223.56278 8.90000e-18
7227.34465 8.66647e-18
7231.11644 8.13304e-18
7234.89832 8.14061e-18
7238.67011 8.83198e-18
7242.45198 9.32686e-18
7246.22377 8.75926e-18
7250.00565 8.10921e-18
7253.77744 8.11215e-18
7257.54923 8.25713e-18
7261.33111 8.22275e-18
7265.10289 8.01347e-18
7268.88477 7.89643e-18
7272.65656 8.56651e-18
7276.43843 9.20724e-18
7280.21022 8.78835e-18
7283.99210 8.21790e-18
7287.76389 8.01663e-18
7291.54576 7.74884e-18
7295.31755 7.75399e-18
7299.09943 7.96905e-18
7302.87122 8.11313e-18
7306.64301 7.81299e-18
7310.42489 7.76258e-18
7314.19668 8.42205e-18
7317.97855 8.51432e-18
7321.75034 7.71801e-18
7325.53221 7.54122e-18
7329.30400 7.74025e-18
7333.08588 7.46615e-18
7336.85767 7.79527e-18
7340.63954 8.45037e-18
7344.41133 8.04547e-18
7348.18312 6.98798e-18
7351.96500 6.88724e-18
7355.73679 7.55076e-18
7359.51866 7.56433e-18
7363.29045 7.22205e-18
7367.07233 7.66461e-18
7370.84412 7.93110e-18
7374.62600 7.31758e-18
7378.39779 6.84974e-18
7382.17966 6.96759e-18
7385.95145 7.20293e-18
7389.72324 7.28090e-18
7393.50511 7.17784e-18
7397.27690 7.24180e-18
7401.05878 7.52200e-18
7404.83057 7.31379e-18
7408.61244 6.79364e-18
7412.38423 6.63669e-18
7416.16611 6.79111e-18
7419.93790 6.79433e-18
7423.71977 6.76237e-18
7427.49157 6.72468e-18
7431.27344 6.74247e-18
7435.04523 6.85225e-18
7438.81702 6.95250e-18
7442.59889 6.77221e-18
7446.37068 6.53410e-18
7450.15256 6.45981e-18
7453.92435 6.41610e-18
7457.70622 6.44326e-18
7461.47801 6.43708e-18
7465.25989 6.41154e-18
7469.03168 6.39988e-18
7472.81355 6.52594e-18
7476.58534 6.61016e-18
7480.35714 6.60421e-18
7484.13901 6.43967e-18
7487.91080 6.31153e-18
7491.69268 6.18948e-18
7495.46447 6.28000e-18
7499.24634 6.32923e-18
7503.01813 6.27049e-18
7506.80000 6.24951e-18
7510.57179 6.08178e-18
7514.35367 5.93350e-18
7518.12546 6.04869e-18
7521.90733 6.44159e-18
7525.67912 6.57005e-18
7529.45091 6.24197e-18
7533.23279 6.03633e-18
7537.00458 6.08619e-18
7540.78645 6.16255e-18
7544.55825 6.09468e-18
7548.34012 6.11493e-18
7552.11191 6.11644e-18
7555.89378 6.11796e-18
7559.66557 6.11947e-18
7563.44745 6.12098e-18
7567.21924 6.12249e-18
7570.99103 6.12400e-18
7574.77290 6.12551e-18
7578.54469 6.12702e-18
7582.32657 6.12852e-18
7586.09836 6.13003e-18
7589.88023 6.13154e-18
7593.65202 6.13304e-18
7597.43390 6.13455e-18
7601.20569 6.13605e-18
7604.98757 6.13756e-18
7608.75936 6.13906e-18
7612.54123 6.14057e-18
7616.31302 6.14207e-18
7620.08481 6.14357e-18
7623.86668 6.14507e-18
7627.63847 6.14657e-18
7631.42035 6.14807e-18
7635.19214 6.14957e-18
7638.97401 6.15107e-18
7642.74580 6.15257e-18
7646.52768 6.15407e-18
7650.29947 6.15557e-18
7654.08134 6.15706e-18
7657.85314 6.15856e-18
7661.62493 6.16006e-18
7665.40680 6.16155e-18
7669.17859 6.16305e-18
7672.96046 6.16454e-18
7676.73225 6.16604e-18
7680.51413 6.16753e-18
7684.28592 6.29632e-18
7688.06779 6.16634e-18
7691.83958 5.90210e-18
7695.62146 5.92892e-18
7699.39325 5.86263e-18
7703.17512 5.50902e-18
7706.94691 5.41638e-18
7710.71870 6.33088e-18
7714.50058 7.07805e-18
7718.27237 6.53246e-18
7722.05425 5.67379e-18
7725.82604 5.40584e-18
7729.60791 5.47061e-18
7733.37970 5.75306e-18
7737.16157 5.76100e-18
7740.93336 5.36569e-18
7744.71524 5.61005e-18
7748.48703 6.66181e-18
7752.25882 6.89648e-18
7756.04069 6.08739e-18
7759.81248 5.56624e-18
7763.59436 5.66039e-18
7767.36615 5.89033e-18
7771.14802 6.09491e-18
7774.91982 6.26220e-18
7778.70169 6.25514e-18
7782.47348 5.98405e-18
7786.25535 5.92985e-18
7790.02714 6.49906e-18
7793.80902 6.96525e-18
7797.58081 6.53461e-18
7801.35260 5.95989e-18
7805.13447 6.07973e-18
7808.90626 6.15798e-18
7812.68814 5.86045e-18
7816.45993 6.30516e-18
7820.24180 7.09041e-18
7824.01359 6.92111e-18
7827.79547 6.17581e-18
7831.56726 5.83308e-18
7835.34914 6.14874e-18
7839.12093 6.48136e-18
7842.89271 6.10540e-18
7846.67459 6.04680e-18
7850.44638 6.78732e-18
7854.22825 7.24962e-18
7858.00004 6.74994e-18
7861.78192 6.09438e-18
7865.55371 6.27729e-18
7869.33558 6.57859e-18
7873.10737 6.55338e-18
7876.88925 6.42775e-18
7880.66104 6.30937e-18
7884.44291 6.59311e-18
7888.21470 7.00216e-18
7891.98650 7.00401e-18
7895.76837 6.60314e-18
7899.54016 6.34913e-18
7903.32203 6.12953e-18
7907.09382 6.55019e-18
7910.87570 7.58126e-18
7914.64749 8.17383e-18
7918.42936 7.61391e-18
7922.20115 6.81512e-18
7925.98303 6.74462e-18
7929.75482 7.08547e-18
7933.52661 7.10265e-18
7937.30848 6.81325e-18
7941.08027 6.72887e-18
7944.86215 7.08155e-18
7948.63394 7.25085e-18
7952.41582 6.61999e-18
7956.18761 6.06326e-18
7959.96948 6.87290e-18
7963.74127 7.73068e-18
7967.52314 7.35825e-18
7971.29493 6.71619e-18
7975.06672 6.91972e-18
7978.84860 7.44515e-18
7982.62039 6.91752e-18
7986.40226 6.72608e-18
7990.17405 7.58915e-18
7993.95593 8.05716e-18
7997.72772 7.51333e-18
8001.50959 6.85357e-18
8005.28139 6.66316e-18
8009.06326 7.14966e-18
8012.83505 7.43076e-18
8016.61692 7.08105e-18
8020.38871 7.36020e-18
8024.16050 8.13812e-18
8027.94238 7.99690e-18
8031.71417 7.31175e-18
8035.49604 6.92142e-18
8039.26783 6.99480e-18
8043.04971 7.24505e-18
8046.82150 7.56197e-18
8050.60337 7.55419e-18
8054.37516 7.37069e-18
8058.15704 7.60883e-18
8061.92883 7.94391e-18
8065.71070 7.69502e-18
8069.48250 7.21395e-18
8073.25428 7.01089e-18
8077.03616 7.18127e-18
8080.80795 7.15930e-18
8084.58982 7.08888e-18
8088.36161 7.12388e-18
8092.14349 7.05670e-18
8095.91528 7.14863e-18
8099.69715 7.39414e-18
8103.46894 7.29439e-18
8107.25082 7.06008e-18
8111.02261 6.93176e-18
8114.79440 7.06835e-18
8118.57627 7.06305e-18
8122.34807 6.95145e-18
8126.12994 6.91097e-18
8129.90173 6.91510e-18
8133.68361 6.90615e-18
8137.45539 6.87868e-18
8141.23727 6.84232e-18
8145.00906 6.73315e-18
8148.79093 6.80476e-18
8152.56272 6.86356e-18
8156.33451 6.67408e-18
8160.11639 6.55389e-18
8163.88818 6.59290e-18
8167.67005 6.55061e-18
8171.44184 6.53808e-18
8175.22372 6.59861e-18
8178.99551 6.57428e-18
8182.77739 6.56422e-18
8186.54918 6.63604e-18
8190.33105 6.76151e-18
8194.10284 6.80309e-18
8197.88472 6.81421e-18
8201.65650 6.80035e-18
8205.42829 6.95249e-18
8209.21017 7.14807e-18
8212.98196 7.09077e-18
8216.76383 6.95635e-18
8220.53563 6.86195e-18
8224.31750 6.70967e-18
8228.08929 6.63479e-18
8231.87116 6.62574e-18
8235.64295 6.82529e-18
8239.42483 7.23096e-18
8243.19662 7.48521e-18
8246.97849 7.48510e-18
8250.75029 7.46653e-18
8254.52207 7.45691e-18
8258.30395 7.45678e-18
8262.07574 7.55028e-18
8265.85762 7.40149e-18
8269.62940 7.07433e-18
8273.41128 7.04102e-18
8277.18307 7.57916e-18
8280.96494 8.17179e-18
8284.73673 8.40086e-18
8288.51861 8.25538e-18
8292.29040 8.12715e-18
8296.06219 8.69332e-18
8299.84406 8.39262e-18
8303.61585 7.91512e-18
8307.39773 8.01116e-18
8311.16952 8.08137e-18
8314.95140 8.03758e-18
8318.72319 7.98739e-18
8322.50506 8.19957e-18
8326.27685 8.28283e-18
8330.05873 7.93068e-18
8333.83051 7.17256e-18
8337.60231 8.05585e-18
8341.38418 9.88994e-18
8345.15597 1.02566e-17
8348.93784 9.74639e-18
8352.70963 9.10403e-18
8356.49151 8.45613e-18
8360.26330 8.60511e-18
8364.04517 9.06902e-18
8367.81696 9.14140e-18
8371.59884 8.95555e-18
8375.37063 9.29210e-18
8379.15251 9.81752e-18
8382.92430 9.74629e-18
8386.70617 9.23930e-18
8390.47796 8.57399e-18
8394.24975 9.52268e-18
8398.03162 1.09429e-17
8401.80341 1.06571e-17
8405.58529 9.38949e-18
8409.35708 9.30442e-18
8413.13895 1.00761e-17
8416.91074 9.85134e-18
8420.69262 9.13897e-18
8424.46441 1.01853e-17
8428.24628 1.19162e-17
8432.01807 1.17913e-17
8435.78987 1.06580e-17
8439.57174 9.87364e-18
8443.34353 9.60488e-18
8447.12541 1.04098e-17
8450.89719 1.07182e-17
8454.67907 1.00131e-17
8458.45086 1.03453e-17
8462.23273 1.15553e-17
8466.00452 1.17760e-17
8469.78640 1.13646e-17
8473.55819 1.07375e-17
8477.32998 1.02943e-17
8481.11185 1.03710e-17
8484.88364 1.06252e-17
8488.66552 1.09930e-17
8492.43731 1.10671e-17
8496.21918 1.07114e-17
8499.99098 1.11696e-17
8503.77285 1.17041e-17
8507.54464 1.12951e-17
8511.32651 1.07829e-17
8515.09830 1.06960e-17
8518.88018 1.08271e-17
8522.65197 1.10597e-17
8526.42376 1.11277e-17
8530.20563 1.11635e-17
8533.97742 1.13400e-17
8537.75930 1.11292e-17
8541.53109 1.10984e-17
8545.31297 1.14719e-17
8549.08475 1.15873e-17
8552.86663 1.14782e-17
8556.63842 1.12419e-17
8560.42029 1.10954e-17
8564.19209 1.11582e-17
8567.96387 1.13340e-17
8571.74575 1.15614e-17
8575.51754 1.15778e-17
8579.29941 1.15291e-17
8583.07120 1.15850e-17
8586.85308 1.15480e-17
8590.62487 1.17921e-17
8594.40674 1.20771e-17
8598.17853 1.19586e-17
8601.96041 1.18098e-17
8605.73220 1.16855e-17
8609.51408 1.16186e-17
8613.28586 1.16385e-17
8617.05766 1.17029e-17
8620.83953 1.18147e-17
8624.61132 1.20177e-17
8628.39320 1.21767e-17
8632.16498 1.21975e-17
8635.94686 1.19930e-17
8639.71865 1.17724e-17
8643.50052 1.14329e-17
8647.27231 1.14620e-17
8651.05419 1.19926e-17
8654.82598 1.24197e-17
8658.59777 1.21957e-17
8662.37965 1.18763e-17
8666.15143 1.18148e-17
8669.93331 1.17826e-17
8673.70510 1.15411e-17
8677.48697 1.16770e-17
8681.25877 1.17654e-17
8685.04064 1.17111e-17
8688.81243 1.15766e-17
8692.59430 1.13804e-17
8696.36609 1.15970e-17
8700.13788 1.17642e-17
8703.91976 1.16102e-17
8707.69155 1.13899e-17
8711.47342 1.11428e-17
8715.24522 1.10214e-17
8719.02709 1.10153e-17
8722.79888 1.10255e-17
8726.58076 1.09659e-17
8730.35254 1.09799e-17
8734.13442 1.10440e-17
8737.90621 1.10397e-17
8741.68808 1.10445e-17
8745.45988 1.09233e-17
8749.24175 1.03413e-17
8753.01354 1.00245e-17
8756.78533 1.05997e-17
8760.56720 1.15319e-17
8764.33899 1.17344e-17
8768.12087 1.07404e-17
8771.89266 1.05055e-17
8775.67453 1.15010e-17
8779.44633 1.12283e-17
8783.22820 1.00635e-17
8786.99999 9.91533e-18
8790.77178 1.02551e-17
8794.55365 9.92546e-18
8798.32545 9.72768e-18
8802.10732 9.83762e-18
8805.87911 9.80980e-18
8809.66098 9.67342e-18
8813.43277 8.95185e-18
8817.21465 8.17654e-18
8820.98644 9.70272e-18
8824.76831 1.17902e-17
8828.54010 1.16105e-17
8832.32198 1.05595e-17
8836.09377 9.79676e-18
8839.86556 8.96990e-18
8843.64744 8.78311e-18
8847.41922 9.11310e-18
8851.20110 9.19661e-18
8854.97289 8.92550e-18
8858.75476 8.68809e-18
8862.52656 9.46392e-18
8866.30843 1.01307e-17
8870.08022 9.51477e-18
8873.86209 8.27260e-18
8877.63388 7.94946e-18
8881.41576 9.60191e-18
8885.18755 1.11945e-17
8888.95934 1.01986e-17
8892.74122 8.28802e-18
8896.51301 8.16323e-18
8900.29488 9.27196e-18
8904.06667 9.25641e-18
8907.84855 7.65816e-18
8911.62033 7.27231e-18
8915.40221 9.46966e-18
8919.17400 1.09771e-17
8922.95587 9.80594e-18
8926.72766 8.34874e-18
8930.49945 7.75463e-18
8934.28133 7.43993e-18
8938.05312 7.96280e-18
8941.83499 8.70099e-18
8945.60678 7.97770e-18
8949.38866 7.14498e-18
8953.16045 8.41933e-18
8956.94232 9.72290e-18
8960.71412 8.81107e-18
8964.49599 7.50306e-18
8968.26778 7.24299e-18
8972.04966 7.14399e-18
8975.82144 7.07330e-18
8979.60332 7.08178e-18
8983.37511 7.46925e-18
8987.14690 7.67739e-18
8990.92877 6.99333e-18
8994.70056 6.86645e-18
8998.48244 8.20460e-18
9002.25423 8.58997e-18
9006.03610 7.60789e-18
9009.80789 7.15540e-18
9013.58977 7.14076e-18
9017.36156 7.23216e-18
9021.13335 7.25224e-18
9024.91523 7.35955e-18
9028.68701 7.39060e-18
9032.46889 7.71418e-18
9036.24068 7.88640e-18
9040.02255 7.64121e-18
9043.79434 7.87789e-18
9047.57622 8.42639e-18
9051.34801 8.38080e-18
9055.12988 7.72126e-18
9058.90167 7.52484e-18
9062.67346 7.63457e-18
9066.45534 7.70696e-18
9070.22713 7.44647e-18
9074.00900 7.32042e-18
9077.78080 7.33143e-18
9081.56267 7.20743e-18
9085.33446 7.20226e-18
9089.11634 7.40903e-18
9092.88812 7.48899e-18
9096.67000 7.46131e-18
9100.44179 7.60761e-18
9104.22366 7.54045e-18
9107.99545 7.44733e-18
9111.76724 7.39424e-18
9115.54912 7.38654e-18
9119.32091 7.25946e-18
9123.10278 7.09613e-18
9126.87457 6.95720e-18
9130.65645 6.87582e-18
9134.42824 6.78216e-18
9138.21011 6.75651e-18
9141.98191 7.08014e-18
9145.76378 7.23186e-18
9149.53557 6.91398e-18
9153.31744 6.84478e-18
9157.08923 6.98017e-18
9160.86102 6.86729e-18
9164.64290 6.79377e-18
9168.41469 6.66806e-18
9172.19656 6.46310e-18
9175.96835 6.54207e-18
9179.75023 6.69701e-18
9183.52202 6.76098e-18
9187.30390 6.68882e-18
9191.07568 6.57257e-18
9194.85756 6.64720e-18
9198.62935 6.84041e-18
9202.40114 6.96057e-18
9206.18302 6.94298e-18
9209.95480 6.92998e-18
9213.73668 6.97878e-18
9217.50847 7.01104e-18
9221.29034 6.99944e-18
9225.06213 6.90760e-18
9228.84401 6.85369e-18
9232.61580 6.59245e-18
9236.39767 6.45573e-18
9240.16947 6.58389e-18
9243.95134 6.56384e-18
9247.72313 6.81300e-18
9251.49492 6.78132e-18
9255.27679 6.67360e-18
9259.04859 6.50536e-18
9262.83046 6.36225e-18
9266.60225 6.49332e-18
9270.38412 6.36344e-18
9274.15591 6.24123e-18
9277.93779 6.04108e-18
9281.70958 5.95244e-18
9285.49145 6.00495e-18
9289.26324 5.88054e-18
9293.03503 5.38366e-18
9296.81691 4.56367e-18
9300.58870 4.41603e-18
9304.37058 5.23125e-18
9308.14236 6.21600e-18
9311.92424 6.21625e-18
9315.69603 4.92724e-18
9319.47790 4.62059e-18
9323.24970 5.07550e-18
9327.03157 4.43948e-18
9330.80336 3.66339e-18
9334.58523 3.90724e-18
9338.35702 4.10835e-18
9342.12881 3.85052e-18
9345.91069 3.71043e-18
9349.68248 3.70002e-18
9353.46435 3.67562e-18
9357.23615 3.51406e-18
9361.01802 3.11621e-18
9364.78981 2.38364e-18
9368.57169 2.54898e-18
9372.34347 2.71431e-18
9376.12535 2.87966e-18
9379.89714 3.04496e-18
9383.66893 3.21023e-18
9387.45080 3.37550e-18
9391.22259 3.54074e-18
9395.00447 3.95077e-18
9398.77626 4.39171e-18
9402.55813 4.43635e-18
9406.32992 3.77248e-18
9410.11180 3.28261e-18
9413.88359 3.76955e-18
9417.66547 4.42562e-18
9421.43726 4.25029e-18
9425.21913 3.17909e-18
9428.99092 2.36084e-18
9432.76271 2.78315e-18
9436.54458 4.53118e-18
9440.31638 4.75834e-18
9444.09825 3.29021e-18
9447.87004 2.24891e-18
9451.65191 2.48060e-18
9455.42370 3.47705e-18
9459.20558 3.66446e-18
9462.97737 2.74840e-18
9466.75924 1.88670e-18
9470.53103 2.76235e-18
9474.31291 4.34096e-18
9478.08470 4.59834e-18
9481.85649 3.33200e-18
9485.63837 2.31640e-18
9489.41015 2.12837e-18
9493.19203 1.97619e-18
9496.96382 2.41564e-18
9500.74569 3.33938e-18
9504.51749 3.30688e-18
9508.29936 2.46995e-18
9512.07115 2.35817e-18
9515.84294 3.22619e-18
9519.62481 3.49979e-18
9523.39660 2.70859e-18
9527.17848 2.35013e-18
9530.95027 2.56590e-18
9534.73214 2.55043e-18
9538.50394 2.30377e-18
9542.28581 2.12054e-18
9546.05760 2.37279e-18
9549.83948 2.95368e-18
9553.61126 2.77162e-18
9557.39314 2.06679e-18
9561.16493 2.12745e-18
9564.94680 3.03281e-18
9568.71859 3.07375e-18
9572.49038 2.26003e-18
9576.27226 2.16647e-18
9580.04405 2.25855e-18
9583.82592 2.24292e-18
9587.59771 2.17574e-18
9591.37959 2.22488e-18
9595.15138 2.21739e-18
9598.93325 2.15806e-18
9602.70505 2.36603e-18
9606.47683 2.74061e-18
9610.25871 2.54305e-18
9614.03050 2.23410e-18
9617.81237 2.36699e-18
9621.58417 2.35935e-18
9625.36604 2.10401e-18
9629.13783 2.09638e-18
9632.91970 2.17602e-18
9636.69149 2.10993e-18
9640.47337 1.95510e-18
9644.24516 1.91322e-18
9648.02703 2.14521e-18
9651.79882 2.38503e-18
9655.57062 2.51274e-18
9659.35249 2.43719e-18
9663.12428 2.26006e-18
9666.90616 2.29133e-18
9670.67794 2.24057e-18
9674.45982 2.16870e-18
9678.23161 2.34150e-18
9682.01348 2.25493e-18
9685.78527 1.93789e-18
9689.56715 1.84618e-18
9693.33894 2.05653e-18
9697.11073 2.53610e-18
9700.89260 2.57940e-18
9704.67448 1.97664e-18
9708.44627 1.73409e-18
9712.21806 2.01405e-18
9715.99993 2.68013e-18
9719.77173 2.79838e-18
9723.55360 2.26438e-18
9727.32539 1.79320e-18
9731.10727 1.72090e-18
9734.87905 1.90381e-18
9738.66093 2.04976e-18
9742.43272 1.89992e-18
9746.20451 1.83470e-18
9749.98638 1.83680e-18
9753.75817 1.79657e-18
9757.54005 1.72659e-18
9761.31184 1.64240e-18
9765.09372 1.74284e-18
9768.86550 1.81204e-18
9772.64738 1.74991e-18
9776.41917 1.57933e-18
9780.20104 1.12755e-18
9783.97284 1.18694e-18
9787.75471 2.28256e-18
9791.52650 2.78968e-18
9795.29829 1.99944e-18
9799.08016 1.56033e-18
9802.85195 1.45095e-18
9806.63383 1.34652e-18
9810.40562 1.54960e-18
9814.18749 1.61428e-18
9817.95928 1.56474e-18
9821.74116 1.61586e-18
9825.51295 1.58022e-18
9829.29483 1.66629e-18
9833.06661 1.74583e-18
9836.83841 1.46703e-18
9840.62028 1.29358e-18
9844.39207 1.57056e-18
9848.17395 1.90433e-18
9851.94573 1.68829e-18
9855.72761 1.30342e-18
9859.49940 1.16223e-18
9863.28127 9.93140e-19
9867.05306 1.52644e-18
9870.83494 2.41485e-18
9874.60673 2.25903e-18
9878.37852 1.51491e-18
9882.16040 1.05959e-18
9885.93218 9.54791e-19
9889.71406 1.40622e-18
9893.48585 2.03957e-18
9897.26772 1.94725e-18
9901.03952 1.38904e-18
9904.82139 1.00769e-18
9908.59318 1.17719e-18
9912.37505 2.13927e-18
9916.14684 2.29708e-18
9919.92872 1.56568e-18
9923.70051 1.37549e-18
9927.47230 1.37379e-18
9931.25417 1.00483e-18
9935.02597 6.38673e-19
9938.80784 1.16063e-18
9942.57963 2.28378e-18
9946.36151 2.47330e-18
9950.13329 1.53717e-18
9953.91517 9.05386e-19
9957.68696 1.50624e-18
9961.46883 1.97389e-18
9965.24063 1.63025e-18
9969.02250 1.24862e-18
9972.79429 1.49094e-18
9976.56608 1.51973e-18
9980.34795 1.31281e-18
9984.11974 1.41161e-18
9987.90162 1.42191e-18
9991.67341 1.20514e-18
9995.45528 1.28820e-18
9999.22708 1.53298e-18
