# wavelength flux
3379.20112 2.74181e-18
3382.15602 3.59574e-18
3385.11093 5.64938e-18
3388.06583 7.18418e-18
3391.02074 5.91821e-18
3393.98573 4.44237e-18
3396.94063 3.87463e-18
3399.89554 5.16637e-18
3402.85045 5.85239e-18
3405.80535 4.72326e-18
3408.76026 3.33489e-18
3411.71516 4.19364e-18
3414.67006 6.19465e-18
3417.63505 8.45274e-18
3420.58996 9.00000e-18
3423.54486 8.82275e-18
3426.49977 7.44008e-18
3429.45467 7.46046e-18
3432.40958 5.25098e-18
3435.36448 4.74625e-18
3438.31939 6.25074e-18
3441.28438 6.31469e-18
3444.23928 4.39730e-18
3447.19419 3.62010e-18
3450.14910 3.21891e-18
3453.10400 3.33611e-18
3456.05890 4.41581e-18
3459.01381 6.16946e-18
3461.96871 7.44270e-18
3464.93370 6.65153e-18
3467.88861 6.11263e-18
3470.84352 6.56661e-18
3473.79842 6.86739e-18
3476.75332 7.16647e-18
3479.70823 7.39607e-18
3482.66313 6.70518e-18
3485.61804 6.40699e-18
3488.58303 6.03809e-18
3491.53793 5.36681e-18
3494.49284 6.95957e-18
3497.44774 9.06339e-18
3500.40265 8.95898e-18
3503.35755 8.60741e-18
3506.31246 7.77509e-18
3509.26736 6.79004e-18
3512.23236 6.64652e-18
3515.18726 7.32461e-18
3518.14216 7.23401e-18
3521.09707 7.03306e-18
3524.05197 7.52577e-18
3527.00688 6.63615e-18
3529.96178 6.03501e-18
3532.91669 7.22440e-18
3535.88168 7.84343e-18
3538.83659 8.50442e-18
3541.79149 8.31398e-18
3544.74639 6.99767e-18
3547.70130 7.02480e-18
3550.65620 6.90980e-18
3553.61111 6.88021e-18
3556.56601 6.30332e-18
3559.53100 5.65597e-18
3562.48591 5.38733e-18
3565.44081 6.64782e-18
3568.39572 6.93253e-18
3571.35063 6.67330e-18
3574.30553 6.64335e-18
3577.26044 7.34918e-18
3580.21534 7.34448e-18
3583.18033 6.61890e-18
3586.13523 6.67326e-18
3589.09014 6.93325e-18
3592.04504 7.41518e-18
3594.99995 8.00860e-18
3597.95485 7.82896e-18
3600.90976 7.47485e-18
3603.86466 6.90111e-18
3606.82965 6.81851e-18
3609.78456 7.42967e-18
3612.73946 7.80637e-18
3615.69437 7.88957e-18
3618.64927 7.54436e-18
3621.60418 7.37123e-18
3624.55908 7.87810e-18
3627.51399 7.24890e-18
3630.47898 7.28763e-18
3633.43388 8.09840e-18
3636.38879 8.20081e-18
3639.34370 8.34468e-18
3642.29860 8.28355e-18
3645.25351 8.09584e-18
3648.20841 8.19619e-18
3651.17340 8.13567e-18
3654.12830 7.66393e-18
3657.08321 7.95698e-18
3660.03811 8.42608e-18
3662.99302 8.84462e-18
3665.94792 8.59758e-18
3668.90283 8.19250e-18
3671.85773 8.44246e-18
3674.81264 8.44836e-18
3677.77763 8.47018e-18
3680.73253 8.74071e-18
3683.68744 8.99660e-18
3686.64235 8.90588e-18
3689.59725 8.34261e-18
3692.55215 8.17066e-18
3695.50706 8.43776e-18
3698.47205 8.65142e-18
3701.42695 8.67087e-18
3704.38186 8.34607e-18
3707.33677 8.30875e-18
3710.29167 8.59560e-18
3713.24657 8.58352e-18
3716.20148 8.33511e-18
3719.15638 8.41822e-18
3722.12137 8.52357e-18
3725.07628 8.77697e-18
3728.03118 8.90605e-18
3730.98609 8.66784e-18
3733.94099 8.47383e-18
3736.89590 8.49851e-18
3739.85080 8.50891e-18
3742.80571 8.54419e-18
3745.77070 8.57947e-18
3748.72561 8.61474e-18
3751.68051 8.65000e-18
3754.63541 8.68526e-18
3757.59032 8.72051e-18
3760.54522 8.75576e-18
3763.50013 8.79100e-18
3766.45503 8.82624e-18
3769.42002 8.86147e-18
3772.37493 8.89669e-18
3775.32984 8.93192e-18
3778.28474 8.96713e-18
3781.23964 9.00235e-18
3784.19455 9.18197e-18
3787.14945 9.04341e-18
3790.10436 9.13277e-18
3793.06935 9.04758e-18
3796.02425 8.99629e-18
3798.97916 9.10357e-18
3801.93406 9.02074e-18
3804.88897 9.05697e-18
3807.84388 9.07621e-18
3810.79878 8.95844e-18
3813.75369 9.02283e-18
3816.71868 9.07793e-18
3819.67358 9.19781e-18
3822.62848 9.36367e-18
3825.58339 9.56272e-18
3828.53829 9.47216e-18
3831.49320 1.00702e-17
3834.44810 9.98099e-18
3837.40301 9.44877e-18
3840.36800 1.00824e-17
3843.32290 1.06681e-17
3846.27781 1.03608e-17
3849.23271 1.01516e-17
3852.18762 1.02554e-17
3855.14252 1.01296e-17
3858.09743 1.03843e-17
3861.05233 1.06215e-17
3864.01732 1.03549e-17
3866.97223 1.07001e-17
3869.92713 1.08162e-17
3872.88204 1.08174e-17
3875.83695 1.11024e-17
3878.79185 1.09420e-17
3881.74676 1.07567e-17
3884.70166 1.09362e-17
3887.66665 1.06788e-17
3890.62155 1.05818e-17
3893.57646 1.10546e-17
3896.53136 1.14316e-17
3899.48627 1.12279e-17
3902.44117 1.10596e-17
3905.39608 1.10436e-17
3908.35098 1.13019e-17
3911.31597 1.14299e-17
3914.27088 1.15466e-17
3917.22578 1.17347e-17
3920.18069 1.18333e-17
3923.13560 1.18666e-17
3926.09050 1.19068e-17
3929.04540 1.17885e-17
3932.00031 1.17147e-17
3934.96530 1.21094e-17
3937.92020 1.25305e-17
3940.87511 1.26063e-17
3943.83002 1.24135e-17
3946.78492 1.23969e-17
3949.73982 1.27372e-17
3952.69473 1.31164e-17
3955.64963 1.30211e-17
3958.61462 1.24593e-17
3961.56953 1.22828e-17
3964.52443 1.21676e-17
3967.47934 1.24376e-17
3970.43424 1.29084e-17
3973.38915 1.29585e-17
3976.34405 1.27104e-17
3979.30904 1.26384e-17
3982.26395 1.27641e-17
3985.21886 1.28019e-17
3988.17376 1.28514e-17
3991.12866 1.30984e-17
3994.08357 1.30675e-17
3997.03847 1.27614e-17
3999.99338 1.26199e-17
4002.95837 1.28450e-17
4005.91327 1.28741e-17
4008.86818 1.28278e-17
4011.82308 1.26301e-17
4014.77799 1.26575e-17
4017.73289 1.31786e-17
4020.68780 1.31586e-17
4023.64270 1.27893e-17
4026.60769 1.27057e-17
4029.56260 1.25970e-17
4032.51750 1.26976e-17
4035.47241 1.28374e-17
4038.42731 1.30509e-17
4041.38222 1.29390e-17
4044.33713 1.22336e-17
4047.29203 1.15861e-17
4050.25702 1.19870e-17
4053.21193 1.28809e-17
4056.16683 1.30679e-17
4059.12173 1.29241e-17
4062.07664 1.28971e-17
4065.03154 1.31504e-17
4067.98645 1.33251e-17
4070.94135 1.34105e-17
4073.90634 1.32596e-17
4076.86125 1.29741e-17
4079.81615 1.28036e-17
4082.77106 1.28714e-17
4085.72596 1.31144e-17
4088.68087 1.30868e-17
4091.63577 1.30650e-17
4094.59068 1.31172e-17
4097.55567 1.30034e-17
4100.51057 1.29403e-17
4103.46548 1.28439e-17
4106.42038 1.29205e-17
4109.37529 1.29979e-17
4112.33019 1.30586e-17
4115.28510 1.31709e-17
4118.24000 1.31739e-17
4121.20500 1.31013e-17
4124.15990 1.28074e-17
4127.11481 1.28092e-17
4130.06971 1.29421e-17
4133.02461 1.29737e-17
4135.97952 1.28534e-17
4138.93443 1.27583e-17
4141.88933 1.30541e-17
4144.85432 1.31121e-17
4147.80922 1.30842e-17
4150.76413 1.30954e-17
4153.71904 1.31313e-17
4156.67394 1.31309e-17
4159.62884 1.32608e-17
4162.58375 1.34221e-17
4165.53866 1.33274e-17
4168.50364 1.30236e-17
4171.45855 1.29782e-17
4174.41345 1.32686e-17
4177.36836 1.32381e-17
4180.32326 1.30861e-17
4183.27817 1.29593e-17
4186.23307 1.29061e-17
4189.18798 1.32086e-17
4192.15297 1.33877e-17
4195.10787 1.33519e-17
4198.06278 1.30568e-17
4201.01768 1.31495e-17
4203.97259 1.34739e-17
4206.92749 1.33924e-17
4209.88240 1.33080e-17
4212.83731 1.33878e-17
4215.80230 1.33483e-17
4218.75720 1.34202e-17
4221.71210 1.35427e-17
4224.66701 1.34499e-17
4227.62191 1.34817e-17
4230.57682 1.34293e-17
4233.53172 1.34513e-17
4236.48663 1.35005e-17
4239.45162 1.35838e-17
4242.40652 1.37405e-17
4245.36143 1.37422e-17
4248.31634 1.35586e-17
4251.27124 1.34611e-17
4254.22614 1.34466e-17
4257.18105 1.32854e-17
4260.13595 1.32568e-17
4263.10095 1.34617e-17
4266.05585 1.35655e-17
4269.01075 1.34405e-17
4271.96566 1.32711e-17
4274.92057 1.32829e-17
4277.87547 1.33168e-17
4280.83037 1.32548e-17
4283.78528 1.33920e-17
4286.75027 1.34839e-17
4289.70518 1.33669e-17
4292.66008 1.33861e-17
4295.61498 1.33833e-17
4298.56989 1.33295e-17
4301.52480 1.33934e-17
4304.47970 1.35560e-17
4307.43460 1.37167e-17
4310.39959 1.37017e-17
4313.35450 1.35596e-17
4316.30940 1.36513e-17
4319.26431 1.38295e-17
4322.21922 1.37362e-17
4325.17412 1.36353e-17
4328.12902 1.35350e-17
4331.08393 1.35424e-17
4334.04892 1.36379e-17
4337.00382 1.37329e-17
4339.95873 1.38156e-17
4342.91363 1.37254e-17
4345.86854 1.35311e-17
4348.82344 1.34975e-17
4351.77835 1.36725e-17
4354.74334 1.34896e-17
4357.69825 1.33137e-17
4360.65315 1.35096e-17
4363.60805 1.35813e-17
4366.56296 1.36323e-17
4369.51786 1.37216e-17
4372.47277 1.37921e-17
4375.42767 1.37930e-17
4378.39266 1.37866e-17
4381.34757 1.38302e-17
4384.30248 1.38379e-17
4387.25738 1.38457e-17
4390.21228 1.38535e-17
4393.16719 1.38613e-17
4396.12209 1.38690e-17
4399.07700 1.38768e-17
4402.04199 1.38845e-17
4404.99689 1.38923e-17
4407.95180 1.39000e-17
4410.90670 1.39077e-17
4413.86161 1.39155e-17
4416.81651 1.39232e-17
4419.77142 1.39309e-17
4422.72632 1.39687e-17
4425.69132 1.39773e-17
4428.64622 1.40403e-17
4431.60113 1.42037e-17
4434.55603 1.43402e-17
4437.51093 1.42585e-17
4440.46584 1.43181e-17
4443.42075 1.43934e-17
4446.37565 1.43869e-17
4449.34064 1.42720e-17
4452.29554 1.44021e-17
4455.25045 1.43646e-17
4458.20536 1.42287e-17
4461.16026 1.42282e-17
4464.11516 1.42583e-17
4467.07007 1.42316e-17
4470.02498 1.43696e-17
4472.98996 1.44663e-17
4475.94487 1.45107e-17
4478.89977 1.44288e-17
4481.85468 1.42989e-17
4484.80958 1.43847e-17
4487.76449 1.44986e-17
4490.71940 1.46739e-17
4493.67430 1.47531e-17
4496.63929 1.46242e-17
4499.59419 1.49085e-17
4502.54910 1.49629e-17
4505.50400 1.49045e-17
4508.45891 1.49664e-17
4511.41381 1.51022e-17
4514.36872 1.50583e-17
4517.32362 1.50410e-17
4520.28861 1.49702e-17
4523.24352 1.50007e-17
4526.19842 1.51553e-17
4529.15333 1.51943e-17
4532.10823 1.52952e-17
4535.06314 1.51942e-17
4538.01804 1.51028e-17
4540.97295 1.50119e-17
4543.93794 1.49364e-17
4546.89284 1.50089e-17
4549.84775 1.50855e-17
4552.80266 1.51099e-17
4555.75756 1.50765e-17
4558.71246 1.50542e-17
4561.66737 1.51545e-17
4564.62227 1.52259e-17
4567.58727 1.52488e-17
4570.54217 1.51584e-17
4573.49707 1.48552e-17
4576.45198 1.49368e-17
4579.40689 1.50751e-17
4582.36179 1.50348e-17
4585.31669 1.50392e-17
4588.27160 1.49857e-17
4591.23659 1.48310e-17
4594.19150 1.47747e-17
4597.14640 1.49529e-17
4600.10131 1.48110e-17
4603.05621 1.48661e-17
4606.01111 1.48947e-17
4608.96602 1.46325e-17
4611.92093 1.45032e-17
4614.88591 1.44638e-17
4617.84082 1.43658e-17
4620.79572 1.42534e-17
4623.75063 1.41720e-17
4626.70554 1.41470e-17
4629.66044 1.44849e-17
4632.61534 1.47789e-17
4635.57025 1.48619e-17
4638.53524 1.48754e-17
4641.49014 1.49820e-17
4644.44505 1.49191e-17
4647.39995 1.48719e-17
4650.35486 1.48586e-17
4653.30976 1.47671e-17
4656.26467 1.48034e-17
4659.22966 1.47142e-17
4662.18457 1.45012e-17
4665.13947 1.44307e-17
4668.09437 1.43596e-17
4671.04928 1.42846e-17
4674.00418 1.42243e-17
4676.95909 1.40490e-17
4679.91399 1.40875e-17
4682.87898 1.41292e-17
4685.83389 1.40363e-17
4688.78880 1.38847e-17
4691.74370 1.38459e-17
4694.69860 1.38746e-17
4697.65351 1.37700e-17
4700.60841 1.36987e-17
4703.56332 1.37375e-17
4706.52831 1.37281e-17
4709.48321 1.36422e-17
4712.43812 1.33330e-17
4715.39302 1.33408e-17
4718.34793 1.34829e-17
4721.30284 1.33389e-17
4724.25774 1.31257e-17
4727.21264 1.32947e-17
4730.17764 1.34225e-17
4733.13254 1.34013e-17
4736.08745 1.33295e-17
4739.04235 1.33825e-17
4741.99725 1.33901e-17
4744.95216 1.33148e-17
4747.90707 1.31896e-17
4750.86197 1.31872e-17
4753.82696 1.32850e-17
4756.78186 1.32208e-17
4759.73677 1.31464e-17
4762.69168 1.31417e-17
4765.64658 1.31852e-17
4768.60148 1.33956e-17
4771.55639 1.33340e-17
4774.51130 1.31808e-17
4777.47628 1.33813e-17
4780.43119 1.33965e-17
4783.38609 1.32877e-17
4786.34100 1.33098e-17
4789.29590 1.34721e-17
4792.25081 1.36048e-17
4795.20572 1.34220e-17
4798.16062 1.33696e-17
4801.12561 1.35965e-17
4804.08051 1.36074e-17
4807.03542 1.35052e-17
4809.99032 1.34540e-17
4812.94523 1.33838e-17
4815.90013 1.33907e-17
4818.85504 1.35862e-17
4821.80994 1.36033e-17
4824.77493 1.35294e-17
4827.72984 1.34712e-17
4830.68475 1.34980e-17
4833.63965 1.35277e-17
4836.59455 1.34611e-17
4839.54946 1.34691e-17
4842.50436 1.35111e-17
4845.45927 1.34604e-17
4848.42426 1.34977e-17
4851.37916 1.35614e-17
4854.33407 1.36078e-17
4857.28898 1.37239e-17
4860.24388 1.38791e-17
4863.19878 1.39248e-17
4866.15369 1.37761e-17
4869.10859 1.37799e-17
4872.07359 1.39039e-17
4875.02849 1.39081e-17
4877.98339 1.39528e-17
4880.93830 1.40245e-17
4883.89320 1.42225e-17
4886.84811 1.42530e-17
4889.80301 1.42835e-17
4892.75792 1.43139e-17
4895.72291 1.43444e-17
4898.67782 1.43749e-17
4901.63272 1.44053e-17
4904.58763 1.44357e-17
4907.54253 1.44662e-17
4910.49743 1.44966e-17
4913.45234 1.45270e-17
4916.41733 1.45574e-17
4919.37223 1.45878e-17
4922.32714 1.46182e-17
4925.28204 1.44696e-17
4928.23695 1.42404e-17
4931.19186 1.43049e-17
4934.14676 1.44981e-17
4937.10166 1.46282e-17
4940.05657 1.46732e-17
4943.02156 1.45821e-17
4945.97646 1.44820e-17
4948.93137 1.43543e-17
4951.88627 1.44900e-17
4954.84118 1.44924e-17
4957.79608 1.43959e-17
4960.75099 1.44412e-17
4963.71598 1.46270e-17
4966.67089 1.46621e-17
4969.62579 1.44741e-17
4972.58069 1.44253e-17
4975.53560 1.44623e-17
4978.49050 1.43521e-17
4981.44541 1.44333e-17
4984.40031 1.44455e-17
4987.36530 1.44577e-17
4990.32021 1.44699e-17
4993.27511 1.44821e-17
4996.23002 1.44943e-17
4999.18492 1.45065e-17
5002.13983 1.45187e-17
5005.09473 1.45309e-17
5008.04964 1.45431e-17
5011.01463 1.45552e-17
5013.96954 1.45674e-17
5016.92444 1.45796e-17
5019.87934 1.45918e-17
5022.83425 1.46140e-17
5025.78916 1.45119e-17
5028.74406 1.46106e-17
5031.69896 1.46563e-17
5034.66395 1.47021e-17
5037.61886 1.47478e-17
5040.57377 1.47935e-17
5043.52867 1.48392e-17
5046.48357 1.48849e-17
5049.43848 1.49306e-17
5052.39339 1.49763e-17
5055.34829 1.50219e-17
5058.31328 1.50676e-17
5061.26818 1.51132e-17
5064.22309 1.51588e-17
5067.17800 1.52044e-17
5070.13290 1.52500e-17
5073.08781 1.52582e-17
5076.04271 1.52441e-17
5078.99761 1.52312e-17
5081.96260 1.52252e-17
5084.91751 1.53188e-17
5087.87241 1.53782e-17
5090.82732 1.55110e-17
5093.78222 1.55247e-17
5096.73713 1.54674e-17
5099.69204 1.54627e-17
5102.64694 1.54832e-17
5105.61193 1.55969e-17
5108.56683 1.57205e-17
5111.52174 1.56775e-17
5114.47664 1.56709e-17
5117.43155 1.57851e-17
5120.38645 1.58019e-17
5123.34136 1.58772e-17
5126.29626 1.58554e-17
5129.26125 1.58320e-17
5132.21616 1.59939e-17
5135.17107 1.60595e-17
5138.12597 1.60666e-17
5141.08087 1.61060e-17
5144.03578 1.61743e-17
5146.99068 1.62527e-17
5149.94559 1.63906e-17
5152.91058 1.64402e-17
5155.86548 1.63550e-17
5158.82039 1.64387e-17
5161.77530 1.66090e-17
5164.73020 1.66898e-17
5167.68510 1.67879e-17
5170.64001 1.68108e-17
5173.59491 1.68701e-17
5176.55991 1.69034e-17
5179.51481 1.68491e-17
5182.46971 1.69427e-17
5185.42462 1.71680e-17
5188.37952 1.71213e-17
5191.33443 1.71359e-17
5194.28934 1.73326e-17
5197.24424 1.73732e-17
5200.20923 1.72066e-17
5203.16413 1.72132e-17
5206.11904 1.73332e-17
5209.07395 1.74291e-17
5212.02885 1.74991e-17
5214.98375 1.74900e-17
5217.93866 1.76706e-17
5220.90365 1.77242e-17
5223.85855 1.76743e-17
5226.81346 1.76741e-17
5229.76836 1.77137e-17
5232.72327 1.76834e-17
5235.67818 1.77127e-17
5238.63308 1.79290e-17
5241.58798 1.79847e-17
5244.55298 1.79004e-17
5247.50788 1.78309e-17
5250.46278 1.78041e-17
5253.41769 1.79039e-17
5256.37259 1.80084e-17
5259.32750 1.82019e-17
5262.28240 1.84370e-17
5265.23731 1.85685e-17
5268.19222 1.86363e-17
5271.15720 1.86526e-17
5274.11211 1.86207e-17
5277.06701 1.86334e-17
5280.02192 1.89387e-17
5282.97682 1.90679e-17
5285.93173 1.88584e-17
5288.88663 1.89056e-17
5291.85162 1.90279e-17
5294.80653 1.91709e-17
5297.76143 1.91360e-17
5300.71634 1.91619e-17
5303.67125 1.92302e-17
5306.62615 1.93268e-17
5309.58105 1.94581e-17
5312.53596 1.95061e-17
5315.50095 1.95800e-17
5318.45586 1.95864e-17
5321.41076 1.95875e-17
5324.36566 1.96010e-17
5327.32057 1.95985e-17
5330.27548 1.94840e-17
5333.23038 1.96135e-17
5336.18528 1.97449e-17
5339.15027 1.98046e-17
5342.10518 1.99182e-17
5345.06009 2.00147e-17
5348.01499 2.00794e-17
5350.96989 2.02612e-17
5353.92480 2.02816e-17
5356.87970 2.01416e-17
5359.83461 2.00413e-17
5362.79960 2.00841e-17
5365.75450 2.01811e-17
5368.70941 2.02042e-17
5371.66431 2.02794e-17
5374.61922 2.03680e-17
5377.57413 2.04845e-17
5380.52903 2.03560e-17
5383.48393 2.02156e-17
5386.44892 2.03207e-17
5389.40383 2.05079e-17
5392.35873 2.04850e-17
5395.31364 2.04274e-17
5398.26854 2.04258e-17
5401.22345 2.05035e-17
5404.17836 2.06422e-17
5407.13326 2.07239e-17
5410.09825 2.07345e-17
5413.05315 2.05841e-17
5416.00806 2.04679e-17
5418.96296 2.05827e-17
5421.91787 2.05008e-17
5424.87277 2.04153e-17
5427.82768 2.04776e-17
5430.78258 2.04965e-17
5433.74757 2.03939e-17
5436.70248 2.03846e-17
5439.65739 2.05091e-17
5442.61229 2.05161e-17
5445.56719 2.03563e-17
5448.52210 2.02783e-17
5451.47700 2.02862e-17
5454.43191 2.01392e-17
5457.39690 2.00524e-17
5460.35180 1.99768e-17
5463.30671 1.98515e-17
5466.26161 1.98566e-17
5469.21652 1.97597e-17
5472.17142 1.96524e-17
5475.12633 1.97700e-17
5478.08123 1.96829e-17
5481.04623 1.94121e-17
5484.00113 1.94035e-17
5486.95604 1.93563e-17
5489.91094 1.92693e-17
5492.86584 1.92417e-17
5495.82075 1.91011e-17
5498.77566 1.88946e-17
5501.73056 1.88828e-17
5504.69555 1.89573e-17
5507.65045 1.88431e-17
5510.60536 1.88205e-17
5513.56027 1.88617e-17
5516.51517 1.89336e-17
5519.47007 1.87953e-17
5522.42498 1.86443e-17
5525.37989 1.85819e-17
5528.34487 1.85072e-17
5531.29978 1.84596e-17
5534.25468 1.84146e-17
5537.20959 1.83628e-17
5540.16449 1.82739e-17
5543.11940 1.82747e-17
5546.07431 1.82094e-17
5549.03930 1.79689e-17
5551.99420 1.80569e-17
5554.94910 1.79654e-17
5557.90401 1.76519e-17
5560.85891 1.75481e-17
5563.81382 1.75332e-17
5566.76872 1.72696e-17
5569.72363 1.70621e-17
5572.68862 1.74151e-17
5575.64352 1.76135e-17
5578.59843 1.74584e-17
5581.55333 1.71484e-17
5584.50824 1.68234e-17
5587.46314 1.66628e-17
5590.41805 1.66493e-17
5593.37295 1.67285e-17
5596.33795 1.66526e-17
5599.29285 1.64864e-17
5602.24775 1.63585e-17
5605.20266 1.63988e-17
5608.15757 1.65173e-17
5611.11247 1.64950e-17
5614.06737 1.63124e-17
5617.02228 1.62625e-17
5619.98727 1.63807e-17
5622.94218 1.63887e-17
5625.89708 1.63229e-17
5628.85198 1.63258e-17
5631.80689 1.62526e-17
5634.76180 1.62283e-17
5637.71670 1.63190e-17
5640.67160 1.63279e-17
5643.63659 1.63256e-17
5646.59150 1.63259e-17
5649.54641 1.62749e-17
5652.50131 1.61652e-17
5655.45621 1.62037e-17
5658.41112 1.63567e-17
5661.36602 1.64290e-17
5664.32093 1.63855e-17
5667.28592 1.62397e-17
5670.24082 1.60691e-17
5673.19573 1.60922e-17
5676.15063 1.60974e-17
5679.10554 1.61874e-17
5682.06045 1.60297e-17
5685.01535 1.59639e-17
5687.97025 1.59726e-17
5690.93524 1.59711e-17
5693.89015 1.59284e-17
5696.84505 1.59845e-17
5699.79996 1.59051e-17
5702.75486 1.58708e-17
5705.70977 1.58698e-17
5708.66467 1.57816e-17
5711.61958 1.58423e-17
5714.58457 1.58959e-17
5717.53948 1.59024e-17
5720.49438 1.58425e-17
5723.44928 1.58536e-17
5726.40419 1.59954e-17
5729.35909 1.60557e-17
5732.31400 1.60786e-17
5735.26890 1.60320e-17
5738.23389 1.59586e-17
5741.18880 1.58344e-17
5744.14370 1.57368e-17
5747.09861 1.57097e-17
5750.05351 1.57438e-17
5753.00842 1.59181e-17
5755.96332 1.59675e-17
5758.91823 1.59097e-17
5761.88322 1.60046e-17
5764.83812 1.60871e-17
5767.79303 1.60268e-17
5770.74793 1.59574e-17
5773.70284 1.59641e-17
5776.65775 1.59326e-17
5779.61265 1.60450e-17
5782.56755 1.59719e-17
5785.53255 1.59577e-17
5788.48745 1.59935e-17
5791.44236 1.58320e-17
5794.39726 1.58400e-17
5797.35216 1.59381e-17
5800.30707 1.59115e-17
5803.26198 1.59131e-17
5806.21688 1.59882e-17
5809.18187 1.59533e-17
5812.13677 1.59142e-17
5815.09168 1.58042e-17
5818.04659 1.57376e-17
5821.00149 1.57830e-17
5823.95639 1.58641e-17
5826.91130 1.58615e-17
5829.86620 1.57042e-17
5832.83119 1.57259e-17
5835.78610 1.57490e-17
5838.74100 1.57097e-17
5841.69591 1.56714e-17
5844.65081 1.55852e-17
5847.60572 1.55446e-17
5850.56063 1.55888e-17
5853.52561 1.56180e-17
5856.48052 1.55412e-17
5859.43542 1.54348e-17
5862.39033 1.54450e-17
5865.34523 1.54933e-17
5868.30014 1.54428e-17
5871.25504 1.54023e-17
5874.20995 1.53263e-17
5877.17494 1.52228e-17
5880.12984 1.51571e-17
5883.08475 1.50494e-17
5886.03965 1.49198e-17
5888.99456 1.48072e-17
5891.94946 1.47430e-17
5894.90437 1.47372e-17
5897.85927 1.47008e-17
5900.82427 1.46522e-17
5903.77917 1.47135e-17
5906.73407 1.46777e-17
5909.68898 1.47098e-17
5912.64389 1.48262e-17
5915.59879 1.47823e-17
5918.55369 1.46060e-17
5921.50860 1.46657e-17
5924.47359 1.47148e-17
5927.42850 1.46697e-17
5930.38340 1.47259e-17
5933.33830 1.46063e-17
5936.29321 1.44687e-17
5939.24811 1.45499e-17
5942.20302 1.45940e-17
5945.15792 1.45138e-17
5948.12291 1.43938e-17
5951.07782 1.43771e-17
5954.03273 1.43880e-17
5956.98763 1.42820e-17
5959.94254 1.42391e-17
5962.89744 1.41705e-17
5965.85234 1.40482e-17
5968.80725 1.39695e-17
5971.77224 1.39120e-17
5974.72714 1.39579e-17
5977.68205 1.39434e-17
5980.63695 1.40454e-17
5983.59186 1.39516e-17
5986.54677 1.37917e-17
5989.50167 1.39112e-17
5992.45657 1.38569e-17
5995.42156 1.38028e-17
5998.37647 1.38250e-17
6001.33137 1.36477e-17
6004.28628 1.34687e-17
6007.24118 1.34750e-17
6010.19609 1.36484e-17
6013.15099 1.36675e-17
6016.10590 1.35340e-17
6019.07089 1.34609e-17
6022.02580 1.35278e-17
6024.98070 1.36087e-17
6027.93560 1.34615e-17
6030.89051 1.32911e-17
6033.84541 1.32537e-17
6036.80032 1.33423e-17
6039.75522 1.34430e-17
6042.72021 1.34716e-17
6045.67512 1.34825e-17
6048.63002 1.34952e-17
6051.58493 1.34357e-17
6054.53983 1.33518e-17
6057.49474 1.32724e-17
6060.44964 1.32410e-17
6063.40455 1.33841e-17
6066.36954 1.32780e-17
6069.32445 1.31315e-17
6072.27935 1.31189e-17
6075.23425 1.31908e-17
6078.18916 1.32421e-17
6081.14407 1.31918e-17
6084.09897 1.31407e-17
6087.05387 1.30842e-17
6090.01886 1.29789e-17
6092.97377 1.28846e-17
6095.92868 1.28342e-17
6098.88358 1.28472e-17
6101.83848 1.28107e-17
6104.79339 1.27463e-17
6107.74830 1.27746e-17
6110.71328 1.26764e-17
6113.66819 1.25604e-17
6116.62309 1.26447e-17
6119.57800 1.27609e-17
6122.53291 1.26409e-17
6125.48781 1.25419e-17
6128.44271 1.24808e-17
6131.39762 1.24640e-17
6134.35252 1.24712e-17
6137.31751 1.23738e-17
6140.27242 1.24950e-17
6143.22732 1.26060e-17
6146.18223 1.25165e-17
6149.13713 1.24655e-17
6152.09204 1.25232e-17
6155.04695 1.25255e-17
6158.00185 1.25000e-17
6160.96684 1.24264e-17
6163.92174 1.23702e-17
6166.87665 1.24089e-17
6169.83155 1.24560e-17
6172.78646 1.25232e-17
6175.74136 1.25726e-17
6178.69627 1.26318e-17
6181.66126 1.26042e-17
6184.61616 1.25215e-17
6187.57107 1.24169e-17
6190.52598 1.24615e-17
6193.48088 1.25741e-17
6196.43578 1.26775e-17
6199.39069 1.25447e-17
6202.34559 1.25699e-17
6205.31059 1.25820e-17
6208.26549 1.26214e-17
6211.22039 1.26997e-17
6214.17530 1.27374e-17
6217.13020 1.26838e-17
6220.08511 1.26104e-17
6223.04001 1.24547e-17
6225.99492 1.23852e-17
6228.95991 1.25526e-17
6231.91482 1.27207e-17
6234.86972 1.27923e-17
6237.82462 1.28176e-17
6240.77953 1.28317e-17
6243.73443 1.27772e-17
6246.68934 1.27131e-17
6249.64425 1.28030e-17
6252.60923 1.29591e-17
6255.56414 1.30746e-17
6258.51905 1.31113e-17
6261.47395 1.30891e-17
6264.42886 1.30651e-17
6267.38376 1.31119e-17
6270.33866 1.31560e-17
6273.29357 1.31106e-17
6276.25856 1.30257e-17
6279.21346 1.29406e-17
6282.16837 1.30493e-17
6285.12327 1.32362e-17
6288.07818 1.32710e-17
6291.03309 1.32705e-17
6293.98799 1.33448e-17
6296.94289 1.33795e-17
6299.90789 1.34558e-17
6302.86279 1.36147e-17
6305.81769 1.36048e-17
6308.77260 1.36680e-17
6311.72750 1.37183e-17
6314.68241 1.36850e-17
6317.63731 1.37626e-17
6320.59222 1.38052e-17
6323.55721 1.37624e-17
6326.51211 1.38595e-17
6329.46702 1.40233e-17
6332.42192 1.41074e-17
6335.37683 1.40262e-17
6338.33173 1.39997e-17
6341.28664 1.40432e-17
6344.24154 1.40217e-17
6347.20653 1.40139e-17
6350.16144 1.40287e-17
6353.11634 1.40793e-17
6356.07125 1.40990e-17
6359.02615 1.40268e-17
6361.98106 1.40866e-17
6364.93596 1.42300e-17
6367.89087 1.43047e-17
6370.85586 1.42874e-17
6373.81077 1.42537e-17
6376.76567 1.42710e-17
6379.72057 1.42870e-17
6382.67548 1.42620e-17
6385.63039 1.42912e-17
6388.58529 1.44454e-17
6391.54019 1.45588e-17
6394.50518 1.45553e-17
6397.46009 1.43906e-17
6400.41500 1.43141e-17
6403.36990 1.45029e-17
6406.32480 1.45847e-17
6409.27971 1.45467e-17
6412.23461 1.46762e-17
6415.18952 1.48282e-17
6418.15451 1.48880e-17
6421.10941 1.48363e-17
6424.06432 1.46890e-17
6427.01923 1.46688e-17
6429.97413 1.47979e-17
6432.92904 1.48525e-17
6435.88394 1.48897e-17
6438.84893 1.48690e-17
6441.80383 1.47913e-17
6444.75874 1.48015e-17
6447.71364 1.49125e-17
6450.66855 1.49049e-17
6453.62345 1.48431e-17
6456.57836 1.47501e-17
6459.53327 1.46705e-17
6462.48817 1.47516e-17
6465.45316 1.48188e-17
6468.40806 1.47478e-17
6471.36297 1.47098e-17
6474.31787 1.47395e-17
6477.27278 1.48242e-17
6480.22768 1.49616e-17
6483.18259 1.49878e-17
6486.14758 1.47838e-17
6489.10248 1.47367e-17
6492.05739 1.46526e-17
6495.01230 1.46057e-17
6497.96720 1.46118e-17
6500.92210 1.47518e-17
6503.87701 1.46871e-17
6506.83191 1.46544e-17
6509.79691 1.46214e-17
6512.75181 1.45243e-17
6515.70671 1.45489e-17
6518.66162 1.46155e-17
6521.61652 1.45223e-17
6524.57143 1.44610e-17
6527.52633 1.45040e-17
6530.48124 1.43398e-17
6533.44623 1.42176e-17
6536.40114 1.42733e-17
6539.35604 1.42316e-17
6542.31095 1.41356e-17
6545.26585 1.41292e-17
6548.22075 1.42080e-17
6551.17566 1.42787e-17
6554.13057 1.42130e-17
6557.09555 1.40117e-17
6560.05046 1.39195e-17
6563.00536 1.39564e-17
6565.96027 1.40194e-17
6568.91518 1.40155e-17
6571.87008 1.39497e-17
6574.82498 1.39600e-17
6577.77989 1.39795e-17
6580.74488 1.39241e-17
6583.69978 1.38320e-17
6586.65469 1.37164e-17
6589.60959 1.36771e-17
6592.56450 1.36379e-17
6595.51941 1.35986e-17
6598.47431 1.35593e-17
6601.42921 1.35200e-17
6604.39420 1.34808e-17
6607.34911 1.34415e-17
6610.30401 1.34023e-17
6613.25892 1.33630e-17
6616.21382 1.33238e-17
6619.16873 1.32846e-17
6622.12363 1.32453e-17
6625.07854 1.32061e-17
6628.04353 1.31669e-17
6630.99843 1.31277e-17
6633.95334 1.30885e-17
6636.90824 1.30493e-17
6639.86315 1.30101e-17
6642.81805 1.29709e-17
6645.77296 1.29317e-17
6648.72786 1.28925e-17
6651.69286 1.28534e-17
6654.64776 1.29929e-17
6657.60266 1.30160e-17
6660.55757 1.30528e-17
6663.51248 1.29897e-17
6666.46738 1.27927e-17
6669.42228 1.27049e-17
6672.37719 1.27650e-17
6675.34218 1.27239e-17
6678.29709 1.25695e-17
6681.25199 1.25931e-17
6684.20689 1.26722e-17
6687.16180 1.26077e-17
6690.11670 1.25203e-17
6693.07161 1.24879e-17
6696.02651 1.24347e-17
6698.99150 1.24196e-17
6701.94641 1.24224e-17
6704.90132 1.24189e-17
6707.85622 1.24454e-17
6710.81112 1.23263e-17
6713.76603 1.22129e-17
6716.72093 1.22745e-17
6719.67584 1.22413e-17
6722.64083 1.20757e-17
6725.59573 1.20574e-17
6728.55064 1.21538e-17
6731.50554 1.21149e-17
6734.46045 1.19699e-17
6737.41536 1.18607e-17
6740.37026 1.17983e-17
6743.33525 1.18455e-17
6746.29015 1.18733e-17
6749.24506 1.19293e-17
6752.19996 1.18789e-17
6755.15487 1.18259e-17
6758.10977 1.18402e-17
6761.06468 1.18154e-17
6764.01959 1.17058e-17
6766.98457 1.15050e-17
6769.93948 1.14011e-17
6772.89439 1.14868e-17
6775.84929 1.15956e-17
6778.80419 1.16333e-17
6781.75910 1.15629e-17
6784.71400 1.15361e-17
6787.66891 1.15419e-17
6790.63390 1.14925e-17
6793.58880 1.14158e-17
6796.54371 1.12940e-17
6799.49861 1.12837e-17
6802.45352 1.13328e-17
6805.40842 1.13249e-17
6808.36333 1.13802e-17
6811.31823 1.13503e-17
6814.28323 1.12023e-17
6817.23813 1.11453e-17
6820.19303 1.10815e-17
6823.14794 1.10291e-17
6826.10284 1.11524e-17
6829.05775 1.12134e-17
6832.01265 1.11950e-17
6834.96756 1.12124e-17
6837.93255 1.10225e-17
6840.88745 1.08180e-17
6843.84236 1.07937e-17
6846.79727 1.07683e-17
6849.75217 1.07429e-17
6852.70707 1.07175e-17
6855.66198 1.06922e-17
6858.61689 1.06668e-17
6861.58187 1.06414e-17
6864.53678 1.06161e-17
6867.49168 1.05907e-17
6870.44659 1.05654e-17
6873.40150 1.05400e-17
6876.35640 1.05147e-17
6879.31130 1.04893e-17
6882.26621 1.04640e-17
6885.23120 1.04386e-17
6888.18610 1.04133e-17
6891.14101 1.03880e-17
6894.09591 1.03626e-17
6897.05082 1.03373e-17
6900.00572 1.03120e-17
6902.96063 1.02867e-17
6905.91554 1.02614e-17
6908.88052 1.02360e-17
6911.83543 1.02107e-17
6914.79033 1.01854e-17
6917.74524 1.01601e-17
6920.70014 1.01348e-17
6923.65505 1.01095e-17
6926.60995 1.00842e-17
6929.56486 1.00589e-17
6932.52985 1.00336e-17
6935.48475 1.00083e-17
6938.43966 9.95039e-18
6941.39456 9.89189e-18
6944.34947 9.89674e-18
6947.30437 9.87074e-18
6950.25928 9.79650e-18
6953.21418 9.79547e-18
6956.17918 9.80244e-18
6959.13408 9.79128e-18
6962.08898 9.81481e-18
6965.04389 9.80566e-18
6967.99880 9.80916e-18
6970.95370 9.76735e-18
6973.90860 9.69545e-18
6976.86351 9.62889e-18
6979.82850 9.45617e-18
6982.78341 9.32610e-18
6985.73831 9.37825e-18
6988.69321 9.48433e-18
6991.64812 9.51339e-18
6994.60302 9.58976e-18
6997.55793 9.63623e-18
7000.51283 9.48107e-18
7003.47782 9.41347e-18
7006.43273 9.47040e-18
7009.38764 9.49550e-18
7012.34254 9.38154e-18
7015.29745 9.25693e-18
7018.25235 9.36411e-18
7021.20725 9.49940e-18
7024.16216 9.46679e-18
7027.12715 9.37646e-18
7030.08205 9.28374e-18
7033.03696 9.17048e-18
7035.99186 9.10443e-18
7038.94677 9.16984e-18
7041.90168 9.21029e-18
7044.85658 9.16017e-18
7047.82157 9.18795e-18
7050.77647 9.19462e-18
7053.73138 9.11146e-18
7056.68628 9.02245e-18
7059.64119 9.02873e-18
7062.59609 9.09025e-18
7065.55100 8.88374e-18
7068.50590 8.64974e-18
7071.47089 8.71199e-18
7074.42580 8.81851e-18
7077.38070 8.83982e-18
7080.33561 8.90480e-18
7083.29051 8.91590e-18
7086.24542 8.84480e-18
7089.20032 8.76824e-18
7092.15523 8.65658e-18
7095.12022 8.65357e-18
7098.07512 8.70853e-18
7101.03003 8.71720e-18
7103.98493 8.71538e-18
7106.93984 8.76291e-18
7109.89474 8.79450e-18
7112.84965 8.78480e-18
7115.80455 8.74881e-18
7118.76955 8.62579e-18
7121.72445 8.54471e-18
7124.67936 8.56620e-18
7127.63426 8.55868e-18
7130.58916 8.56240e-18
7133.54407 8.63907e-18
7136.49898 8.70446e-18
7139.45388 8.69863e-18
7142.41887 8.61285e-18
7145.37377 8.45945e-18
7148.32868 8.29539e-18
7151.28359 8.16962e-18
7154.23849 8.20864e-18
7157.19339 8.25737e-18
7160.14830 8.28333e-18
7163.10320 8.29305e-18
7166.06819 8.23702e-18
7169.02310 8.14015e-18
7171.97800 8.02942e-18
7174.93291 7.90120e-18
7177.88782 7.73285e-18
7180.84272 7.66438e-18
7183.79762 7.66929e-18
7186.75253 7.60819e-18
7189.71752 7.53759e-18
7192.67242 7.64997e-18
7195.62733 7.74409e-18
7198.58223 7.71042e-18
7201.53714 7.60309e-18
7204.49204 7.41240e-18
7207.44695 7.30497e-18
7210.40186 7.29857e-18
7213.36684 7.28551e-18
7216.32175 7.33990e-18
7219.27665 7.39422e-18
7222.23156 7.38957e-18
7225.18646 7.40595e-18
7228.14137 7.38200e-18
7231.09627 7.31290e-18
7234.05118 7.20263e-18
7237.01617 7.10680e-18
7239.97107 7.07696e-18
7242.92598 7.09362e-18
7245.88089 7.09752e-18
7248.83579 7.12160e-18
7251.79069 7.16773e-18
7254.74560 7.10766e-18
7257.70050 7.01706e-18
7260.66550 7.03965e-18
7263.62040 7.02992e-18
7266.57530 6.92587e-18
7269.53021 6.80976e-18
7272.48511 6.86083e-18
7275.44002 6.99637e-18
7278.39492 7.08114e-18
7281.34983 7.12716e-18
7284.31482 7.09236e-18
7287.26973 7.07304e-18
7290.22463 7.04361e-18
7293.17953 6.91693e-18
7296.13444 6.74588e-18
7299.08934 6.58013e-18
7302.04425 6.57754e-18
7305.00924 6.65256e-18
7307.96414 6.59432e-18
7310.91905 6.63646e-18
7313.87395 6.76544e-18
7316.82886 6.75839e-18
7319.78377 6.71533e-18
7322.73867 6.62640e-18
7325.69357 6.51536e-18
7328.64848 6.46627e-18
7331.61347 6.40078e-18
7334.56837 6.27625e-18
7337.52328 6.22329e-18
7340.47818 6.33015e-18
7343.43309 6.48089e-18
7346.38800 6.56008e-18
7349.34290 6.51206e-18
7352.29780 6.38275e-18
7355.26279 6.28191e-18
7358.21770 6.20316e-18
7361.17260 6.10907e-18
7364.12751 6.00266e-18
7367.08241 5.96736e-18
7370.03732 5.98845e-18
7372.99222 6.09900e-18
7375.95721 6.16996e-18
7378.91212 6.12164e-18
7381.86702 6.20156e-18
7384.82193 6.21408e-18
7387.77683 6.10091e-18
7390.73174 6.04100e-18
7393.68664 6.01050e-18
7396.64155 5.96841e-18
7399.60654 5.90433e-18
7402.56144 5.86302e-18
7405.51635 5.94561e-18
7408.47125 6.00848e-18
7411.42616 5.94552e-18
7414.38106 5.90744e-18
7417.33597 5.86710e-18
7420.29087 5.77543e-18
7423.25586 5.74084e-18
7426.21077 5.67510e-18
7429.16568 5.66633e-18
7432.12058 5.70062e-18
7435.07548 5.69707e-18
7438.03039 5.71275e-18
7440.98530 5.73730e-18
7443.94020 5.74932e-18
7446.90519 5.73917e-18
7449.86009 5.72484e-18
7452.81500 5.67014e-18
7455.76991 5.60152e-18
7458.72481 5.57535e-18
7461.67971 5.55080e-18
7464.63462 5.58153e-18
7467.58952 5.58600e-18
7470.55451 5.59107e-18
7473.50942 5.56100e-18
7476.46432 5.31385e-18
7479.41923 5.13182e-18
7482.37414 5.16637e-18
7485.32904 5.19675e-18
7488.28395 5.20272e-18
7491.23885 5.22520e-18
7494.20384 5.20525e-18
7497.15874 5.18866e-18
7500.11365 5.25744e-18
7503.06855 5.37603e-18
7506.02346 5.47209e-18
7508.97836 5.53112e-18
7511.93327 5.40379e-18
7514.88818 5.21844e-18
7517.85316 5.19173e-18
7520.80807 5.20776e-18
7523.76297 5.17817e-18
7526.71788 5.17037e-18
7529.67278 5.20510e-18
7532.62769 5.23869e-18
7535.58259 5.26189e-18
7538.53750 5.29546e-18
7541.50249 5.30016e-18
7544.45739 5.26184e-18
7547.41230 5.24214e-18
7550.36720 5.23596e-18
7553.32211 5.22979e-18
7556.27701 5.22361e-18
7559.23192 5.21744e-18
7562.18682 5.21126e-18
7565.15182 5.20509e-18
7568.10672 5.19891e-18
7571.06162 5.19274e-18
7574.01653 5.18657e-18
7576.97143 5.18040e-18
7579.92634 5.17422e-18
7582.88124 5.16805e-18
7585.83615 5.16189e-18
7588.80114 5.15572e-18
7591.75605 5.14955e-18
7594.71095 5.14338e-18
7597.66586 5.13722e-18
7600.62076 5.13105e-18
7603.57566 5.12489e-18
7606.53057 5.11872e-18
7609.48548 5.11256e-18
7612.45046 5.10640e-18
7615.40537 5.10024e-18
7618.36027 5.09407e-18
7621.31518 5.08792e-18
7624.27009 5.08176e-18
7627.22499 5.07560e-18
7630.17989 5.06944e-18
7633.14488 5.06328e-18
7636.09979 5.05713e-18
7639.05469 5.05097e-18
7642.00960 5.04482e-18
7644.96450 5.03866e-18
7647.91941 5.03251e-18
7650.87432 5.02636e-18
7653.82922 5.02020e-18
7656.78412 5.01405e-18
7659.74911 5.00790e-18
7662.70402 5.00175e-18
7665.65892 4.99561e-18
7668.61383 4.98946e-18
7671.56873 4.98331e-18
7674.52364 4.97717e-18
7677.47854 4.97102e-18
7680.44353 4.96488e-18
7683.39844 4.92509e-18
7686.35334 4.94390e-18
7689.30825 4.95878e-18
7692.26315 4.91250e-18
7695.21806 4.93800e-18
7698.17296 5.07466e-18
7701.12787 5.24145e-18
7704.09286 5.31434e-18
7707.04776 5.30190e-18
7710.00267 5.30591e-18
7712.95757 5.31874e-18
7715.91248 5.27404e-18
7718.86739 5.11855e-18
7721.82229 4.96931e-18
7724.77719 4.93318e-18
7727.74218 4.98488e-18
7730.69709 5.09772e-18
7733.65200 5.17329e-18
7736.60690 5.20625e-18
7739.56180 5.28941e-18
7742.51671 5.31719e-18
7745.47161 5.23588e-18
7748.42652 5.14280e-18
7751.39151 5.05004e-18
7754.34641 4.97978e-18
7757.30132 4.99438e-18
7760.25623 5.03820e-18
7763.21113 5.04903e-18
7766.16603 5.12095e-18
7769.12094 5.26169e-18
7772.07584 5.32869e-18
7775.04083 5.33373e-18
7777.99574 5.29624e-18
7780.95064 5.25235e-18
7783.90555 5.19816e-18
7786.86045 5.08672e-18
7789.81536 5.05205e-18
7792.77027 5.13599e-18
7795.72517 5.17424e-18
7798.69016 5.17430e-18
7801.64506 5.22903e-18
7804.59997 5.33344e-18
7807.55487 5.42554e-18
7810.50978 5.44282e-18
7813.46468 5.44495e-18
7816.41959 5.31845e-18
7819.37450 5.14169e-18
7822.33948 5.10759e-18
7825.29439 5.16398e-18
7828.24929 5.24819e-18
7831.20420 5.30854e-18
7834.15910 5.34646e-18
7837.11401 5.40169e-18
7840.06891 5.45995e-18
7843.02382 5.47963e-18
7845.98881 5.39108e-18
7848.94371 5.25290e-18
7851.89862 5.23422e-18
7854.85352 5.27780e-18
7857.80843 5.26566e-18
7860.76333 5.21066e-18
7863.71824 5.19073e-18
7866.67314 5.21500e-18
7869.63814 5.29042e-18
7872.59304 5.40122e-18
7875.54794 5.44687e-18
7878.50285 5.42729e-18
7881.45775 5.35332e-18
7884.41266 5.23888e-18
7887.36756 5.26320e-18
7890.32247 5.31379e-18
7893.28746 5.31857e-18
7896.24236 5.30607e-18
7899.19727 5.39664e-18
7902.15218 5.63378e-18
7905.10708 5.78096e-18
7908.06198 5.81076e-18
7911.01689 5.85127e-18
7913.97180 5.77616e-18
7916.93678 5.54824e-18
7919.89169 5.38418e-18
7922.84659 5.35353e-18
7925.80150 5.40818e-18
7928.75641 5.52405e-18
7931.71131 5.64474e-18
7934.66621 5.83874e-18
7937.63120 5.92118e-18
7940.58611 5.81522e-18
7943.54101 5.74914e-18
7946.49592 5.71437e-18
7949.45082 5.62494e-18
7952.40573 5.52560e-18
7955.36064 5.46481e-18
7958.31554 5.53652e-18
7961.28053 5.69738e-18
7964.23543 5.82838e-18
7967.19034 5.96112e-18
7970.14524 5.96943e-18
7973.10015 5.84503e-18
7976.05505 5.69498e-18
7979.00996 5.61509e-18
7981.96486 5.58858e-18
7984.91977 5.44165e-18
7987.88476 5.28966e-18
7990.83966 5.38334e-18
7993.79457 5.63687e-18
7996.74947 5.84891e-18
7999.70438 5.88778e-18
8002.65928 5.85528e-18
8005.61419 5.87570e-18
8008.57918 5.84300e-18
8011.53409 5.74965e-18
8014.48899 5.77089e-18
8017.44389 5.76877e-18
8020.39880 5.65561e-18
8023.35370 5.64843e-18
8026.30861 5.73942e-18
8029.26351 5.83623e-18
8032.22850 6.01279e-18
8035.18341 6.14857e-18
8038.13832 6.15229e-18
8041.09322 6.08073e-18
8044.04812 5.95135e-18
8047.00303 5.85239e-18
8049.95793 5.71557e-18
8052.91284 5.59542e-18
8055.87783 5.65915e-18
8058.83273 5.82121e-18
8061.78764 5.87007e-18
8064.74255 5.91316e-18
8067.69745 6.06904e-18
8070.65236 6.12149e-18
8073.60726 6.09863e-18
8076.56216 6.07681e-18
8079.52715 5.95220e-18
8082.48206 5.76641e-18
8085.43696 5.63105e-18
8088.39187 5.61912e-18
8091.34677 5.65176e-18
8094.30168 5.69953e-18
8097.25659 5.77124e-18
8100.21149 5.91431e-18
8103.17648 6.02915e-18
8106.13138 5.94972e-18
8109.08629 5.91311e-18
8112.04119 5.92283e-18
8114.99610 5.78411e-18
8117.95100 5.60537e-18
8120.90591 5.49022e-18
8123.86082 5.50086e-18
8126.82580 5.56894e-18
8129.78071 5.60553e-18
8132.73561 5.60663e-18
8135.69052 5.68982e-18
8138.64542 5.81444e-18
8141.60033 5.81107e-18
8144.55523 5.72617e-18
8147.51014 5.55375e-18
8150.47513 5.38600e-18
8153.43003 5.31749e-18
8156.38494 5.29137e-18
8159.33984 5.33533e-18
8162.29475 5.45181e-18
8165.24965 5.56163e-18
8168.20456 5.66850e-18
8171.15946 5.77076e-18
8174.12445 5.82174e-18
8177.07936 5.71918e-18
8180.03426 5.49366e-18
8182.98917 5.38028e-18
8185.94407 5.32932e-18
8188.89898 5.32695e-18
8191.85389 5.39901e-18
8194.80879 5.53169e-18
8197.77378 5.65955e-18
8200.72869 5.69225e-18
8203.68359 5.74638e-18
8206.63849 5.80938e-18
8209.59340 5.73529e-18
8212.54831 5.65188e-18
8215.50321 5.61688e-18
8218.45811 5.48732e-18
8221.42310 5.41099e-18
8224.37801 5.45250e-18
8227.33291 5.44282e-18
8230.28782 5.56378e-18
8233.24273 5.76648e-18
8236.19763 5.88696e-18
8239.15253 5.97640e-18
8242.11752 6.01583e-18
8245.07243 5.98026e-18
8248.02734 5.92660e-18
8250.98224 5.80685e-18
8253.93714 5.66464e-18
8256.89205 5.68573e-18
8259.84695 5.79581e-18
8262.80186 5.94531e-18
8265.75677 6.11244e-18
8268.72176 6.19244e-18
8271.67666 6.29988e-18
8274.63156 6.27619e-18
8277.58647 6.07904e-18
8280.54137 5.94300e-18
8283.49628 5.93016e-18
8286.45118 5.92793e-18
8289.40609 5.87021e-18
8292.37108 5.94347e-18
8295.32598 6.19692e-18
8298.28089 6.33765e-18
8301.23580 6.49570e-18
8304.19070 6.58917e-18
8307.14560 6.62194e-18
8310.10051 6.59917e-18
8313.06550 6.46940e-18
8316.02040 6.35877e-18
8318.97531 6.35982e-18
8321.93022 6.36495e-18
8324.88512 6.38441e-18
8327.84002 6.54788e-18
8330.79493 6.74298e-18
8333.74984 6.86328e-18
8336.71483 6.93717e-18
8339.66973 7.09985e-18
8342.62463 7.06515e-18
8345.57954 6.91676e-18
8348.53444 6.79983e-18
8351.48935 6.59263e-18
8354.44426 6.62821e-18
8357.39916 6.84461e-18
8360.36415 6.87991e-18
8363.31905 7.00620e-18
8366.27396 7.26695e-18
8369.22887 7.42922e-18
8372.18377 7.36123e-18
8375.13867 7.23146e-18
8378.09358 7.09414e-18
8381.04848 7.00591e-18
8384.01347 6.97666e-18
8386.96838 6.87159e-18
8389.92328 6.80717e-18
8392.87819 7.06464e-18
8395.83309 7.49230e-18
8398.78800 7.70636e-18
8401.74290 7.78935e-18
8404.69781 7.88320e-18
8407.66280 7.74865e-18
8410.61770 7.54582e-18
8413.57261 7.35445e-18
8416.52751 7.07380e-18
8419.48242 6.96037e-18
8422.43733 7.16178e-18
8425.39223 7.44755e-18
8428.34713 7.76413e-18
8431.31213 8.04630e-18
8434.26703 8.13673e-18
8437.22193 8.06452e-18
8440.17684 7.89894e-18
8443.13174 7.85704e-18
8446.08665 7.86728e-18
8449.04155 7.71062e-18
8451.99646 7.50558e-18
8454.96145 7.52742e-18
8457.91635 7.67051e-18
8460.87126 7.90079e-18
8463.82616 8.20349e-18
8466.78107 8.48411e-18
8469.73597 8.63437e-18
8472.69088 8.53429e-18
8475.64578 8.34478e-18
8478.61077 8.19666e-18
8481.56568 7.97909e-18
8484.52059 7.81230e-18
8487.47549 7.84107e-18
8490.43040 8.00615e-18
8493.38530 8.11244e-18
8496.34020 8.11178e-18
8499.30519 8.19803e-18
8502.26010 8.50389e-18
8505.21501 8.74407e-18
8508.16991 8.69113e-18
8511.12481 8.54372e-18
8514.07972 8.39788e-18
8517.03463 8.25849e-18
8519.98953 8.14584e-18
8522.95452 8.04388e-18
8525.90942 7.96272e-18
8528.86433 7.83987e-18
8531.81923 8.00674e-18
8534.77414 8.29292e-18
8537.72905 8.45718e-18
8540.68395 8.63044e-18
8543.63885 8.83731e-18
8546.60384 8.89731e-18
8549.55875 8.64749e-18
8552.51366 8.36300e-18
8555.46856 8.19236e-18
8558.42346 8.10095e-18
8561.37837 8.11669e-18
8564.33327 8.27217e-18
8567.28818 8.35318e-18
8570.24309 8.31043e-18
8573.20808 8.37664e-18
8576.16298 8.62854e-18
8579.11788 8.81875e-18
8582.07279 8.85719e-18
8585.02769 8.83529e-18
8587.98260 8.64524e-18
8590.93750 8.39163e-18
8593.89241 8.27012e-18
8596.85740 8.29725e-18
8599.81230 8.22103e-18
8602.76721 8.09554e-18
8605.72212 8.15071e-18
8608.67702 8.42041e-18
8611.63192 8.63844e-18
8614.58683 8.72035e-18
8617.55182 8.81999e-18
8620.50672 8.83011e-18
8623.46163 8.64930e-18
8626.41653 8.41318e-18
8629.37144 8.19658e-18
8632.32634 8.09254e-18
8635.28125 8.08601e-18
8638.23616 8.12103e-18
8641.20115 8.04285e-18
8644.15605 7.97566e-18
8647.11095 8.13483e-18
8650.06586 8.46167e-18
8653.02076 8.59931e-18
8655.97567 8.55967e-18
8658.93058 8.63984e-18
8661.88548 8.59349e-18
8664.85047 8.34966e-18
8667.80537 8.08490e-18
8670.76028 7.91392e-18
8673.71519 7.87299e-18
8676.67009 7.81482e-18
8679.62499 7.82798e-18
8682.57990 7.88697e-18
8685.53480 7.84139e-18
8688.49979 7.93609e-18
8691.45470 8.15739e-18
8694.40960 8.28126e-18
8697.36451 8.34708e-18
8700.31941 8.16377e-18
8703.27432 7.86300e-18
8706.22922 7.60328e-18
8709.18413 7.44722e-18
8712.14912 7.44593e-18
8715.10402 7.36778e-18
8718.05893 7.18704e-18
8721.01383 7.04060e-18
8723.96874 7.12672e-18
8726.92365 7.37704e-18
8729.87855 7.57707e-18
8732.83345 7.71836e-18
8735.79845 7.73426e-18
8738.75335 7.62317e-18
8741.70825 7.42971e-18
8744.66316 7.31902e-18
8747.61806 7.10496e-18
8750.57297 6.96916e-18
8753.52787 6.96740e-18
8756.48278 7.09150e-18
8759.44777 7.09623e-18
8762.40267 7.11455e-18
8765.35758 7.33798e-18
8768.31248 7.42024e-18
8771.26739 7.40482e-18
8774.22229 7.41446e-18
8777.17720 7.28815e-18
8780.13210 7.18211e-18
8783.09709 7.12776e-18
8786.05200 6.97160e-18
8789.00691 6.81223e-18
8791.96181 6.70928e-18
8794.91672 6.60400e-18
8797.87162 6.54154e-18
8800.82652 6.55201e-18
8803.78143 6.63211e-18
8806.74642 6.73852e-18
8809.70132 6.75875e-18
8812.65623 6.84339e-18
8815.61113 7.06233e-18
8818.56604 7.07205e-18
8821.52095 7.05592e-18
8824.47585 6.81523e-18
8827.44084 6.53376e-18
8830.39574 6.45794e-18
8833.35065 6.35110e-18
8836.30555 6.26663e-18
8839.26046 6.31544e-18
8842.21537 6.38082e-18
8845.17027 6.46489e-18
8848.12517 6.53583e-18
8851.09016 6.58159e-18
8854.04507 6.70695e-18
8856.99998 6.85378e-18
8859.95488 6.85075e-18
8862.90978 6.60340e-18
8865.86469 6.25516e-18
8868.81959 5.90645e-18
8871.77450 5.85544e-18
8874.73949 6.01895e-18
8877.69440 6.11802e-18
8880.64930 6.22185e-18
8883.60420 6.25541e-18
8886.55911 6.13388e-18
8889.51401 6.09743e-18
8892.46892 6.33266e-18
8895.42382 6.37983e-18
8898.37873 6.05221e-18
8901.34372 5.80586e-18
8904.29862 5.76759e-18
8907.25353 5.85599e-18
8910.20844 5.93525e-18
8913.16334 5.84742e-18
8916.11824 5.73751e-18
8919.07315 5.74649e-18
8922.02805 5.77338e-18
8924.99304 5.84614e-18
8927.94795 6.04875e-18
8930.90285 6.27174e-18
8933.85776 6.24412e-18
8936.81266 5.97442e-18
8939.76757 5.76376e-18
8942.72248 5.66725e-18
8945.68747 5.64973e-18
8948.64237 5.71467e-18
8951.59728 5.69462e-18
8954.55218 5.59269e-18
8957.50708 5.51045e-18
8960.46199 5.38168e-18
8963.41690 5.47014e-18
8966.37180 5.85859e-18
8969.33679 6.00104e-18
8972.29169 5.92193e-18
8975.24660 5.70246e-18
8978.20151 5.45524e-18
8981.15641 5.28357e-18
8984.11131 5.10519e-18
8987.06622 5.12192e-18
8990.02112 5.42452e-18
8992.98611 5.50480e-18
8995.94102 5.26752e-18
8998.89592 5.26952e-18
