# wavelength flux
3302.94843 3.23797e-18
3305.90334 5.86324e-18
3308.86833 9.84743e-18
3311.82323 7.95607e-18
3314.77814 7.26347e-18
3317.73304 9.14487e-18
3320.69803 8.03990e-18
3323.65294 3.61563e-18
3326.60784 7.56501e-19
3329.56275 2.24495e-18
3332.52774 2.49764e-18
3335.48264 6.03186e-18
3338.43755 7.66878e-18
3341.39245 6.99716e-18
3344.35745 4.24074e-18
3347.31235 3.90597e-18
3350.26726 6.59427e-18
3353.22216 5.58770e-18
3356.17706 3.85809e-18
3359.14205 4.14396e-18
3362.09696 6.90272e-18
3365.05186 8.45191e-18
3368.00677 7.19382e-18
3370.97176 6.10525e-18
3373.92666 7.45325e-18
3376.88157 7.70073e-18
3379.83647 6.03930e-18
3382.80147 4.04435e-18
3385.75637 5.72132e-18
3388.71128 6.04289e-18
3391.66618 4.64665e-18
3394.62109 5.17235e-18
3397.58607 7.22747e-18
3400.54098 7.57436e-18
3403.49588 5.61623e-18
3406.45079 6.66387e-18
3409.41578 7.82959e-18
3412.37068 5.78744e-18
3415.32559 5.78989e-18
3418.28049 6.62534e-18
3421.24548 5.97704e-18
3424.20039 6.04551e-18
3427.15530 6.16860e-18
3430.11020 6.51342e-18
3433.07519 6.75704e-18
3436.03010 4.98286e-18
3438.98500 6.03062e-18
3441.93990 6.46717e-18
3444.89481 6.38288e-18
3447.85980 7.01550e-18
3450.81470 7.81579e-18
3453.76961 6.76485e-18
3456.72451 6.45471e-18
3459.68950 5.98591e-18
3462.64441 6.50760e-18
3465.59931 6.68596e-18
3468.55422 7.80730e-18
3471.51921 7.50990e-18
3474.47411 6.83059e-18
3477.42902 7.27310e-18
3480.38393 6.94903e-18
3483.33883 6.50782e-18
3486.30382 7.44316e-18
3489.25872 7.89216e-18
3492.21363 7.46533e-18
3495.16853 7.01040e-18
3498.13352 6.94160e-18
3501.08843 6.54079e-18
3504.04333 6.85656e-18
3506.99824 7.59599e-18
3509.96323 7.93484e-18
3512.91813 7.45784e-18
3515.87304 6.71982e-18
3518.82794 6.83981e-18
3521.78285 7.35298e-18
3524.74784 7.97582e-18
3527.70274 8.31111e-18
3530.65765 8.18884e-18
3533.61255 6.73010e-18
3536.57754 7.06298e-18
3539.53245 7.22770e-18
3542.48735 7.11778e-18
3545.44226 6.82006e-18
3548.40725 7.12252e-18
3551.36215 7.58399e-18
3554.31706 7.69859e-18
3557.27196 6.71106e-18
3560.23695 6.95555e-18
3563.19186 6.88581e-18
3566.14676 6.67020e-18
3569.10167 7.28208e-18
3572.05657 7.32058e-18
3575.02156 7.38759e-18
3577.97647 7.60487e-18
3580.93137 7.35031e-18
3583.88628 7.49613e-18
3586.85127 7.40542e-18
3589.80618 7.40654e-18
3592.76108 7.17582e-18
3595.71598 7.06413e-18
3598.68097 6.70643e-18
3601.63588 7.21372e-18
3604.59078 7.33252e-18
3607.54569 7.37285e-18
3610.50059 7.81986e-18
3613.46558 7.91537e-18
3616.42049 7.43786e-18
3619.37539 7.24808e-18
3622.33030 7.69965e-18
3625.29529 7.35094e-18
3628.25020 7.37905e-18
3631.20510 7.62167e-18
3634.16001 8.12066e-18
3637.12499 7.83736e-18
3640.07990 7.90240e-18
3643.03480 8.18517e-18
3645.98971 8.57972e-18
3648.94461 8.39718e-18
3651.90960 8.43966e-18
3654.86451 8.48213e-18
3657.81941 8.52460e-18
3660.77432 8.56706e-18
3663.73931 8.60951e-18
3666.69421 8.65195e-18
3669.64912 8.69438e-18
3672.60403 8.21205e-18
3675.56902 8.52690e-18
3678.52392 8.34179e-18
3681.47882 8.51820e-18
3684.43373 8.56934e-18
3687.39872 8.54271e-18
3690.35362 8.69157e-18
3693.30853 8.72359e-18
3696.26343 8.58131e-18
3699.21834 8.62077e-18
3702.18333 9.22630e-18
3705.13823 9.24566e-18
3708.09314 9.12708e-18
3711.04805 8.39546e-18
3714.01303 8.26878e-18
3716.96794 8.96763e-18
3719.92285 9.18496e-18
3722.87775 8.90849e-18
3725.84274 8.67175e-18
3728.79764 8.77578e-18
3731.75255 9.15868e-18
3734.70745 9.34730e-18
3737.66236 8.62021e-18
3740.62735 8.66964e-18
3743.58225 8.70243e-18
3746.53716 8.73521e-18
3749.49206 8.76798e-18
3752.45705 8.80076e-18
3755.41196 8.83353e-18
3758.36686 8.86629e-18
3761.32177 8.89905e-18
3764.28676 8.93181e-18
3767.24166 8.96456e-18
3770.19657 8.99730e-18
3773.15147 9.03005e-18
3776.11646 9.06278e-18
3779.07137 9.09552e-18
3782.02627 8.90511e-18
3784.98118 9.06825e-18
3787.93608 9.14686e-18
3790.90107 9.20892e-18
3793.85598 9.42768e-18
3796.81088 9.53544e-18
3799.76579 9.41277e-18
3802.73078 9.36203e-18
3805.68568 9.56356e-18
3808.64059 9.63371e-18
3811.59549 9.98253e-18
3814.56048 1.01391e-17
3817.51539 1.07898e-17
3820.47029 1.08327e-17
3823.42520 1.04380e-17
3826.38010 1.03764e-17
3829.34510 1.05152e-17
3832.30000 1.04261e-17
3835.25490 1.02659e-17
3838.20981 1.01798e-17
3841.17480 1.05620e-17
3844.12970 1.07283e-17
3847.08461 1.04042e-17
3850.03951 1.06652e-17
3853.00450 1.10063e-17
3855.95941 1.05104e-17
3858.91431 1.06059e-17
3861.86922 1.07824e-17
3864.83421 1.13250e-17
3867.78912 1.12483e-17
3870.74402 1.13457e-17
3873.69893 1.12439e-17
3876.65383 1.14991e-17
3879.61882 1.13731e-17
3882.57372 1.14502e-17
3885.52863 1.13131e-17
3888.48353 1.15271e-17
3891.44852 1.17342e-17
3894.40343 1.15913e-17
3897.35833 1.17068e-17
3900.31324 1.21205e-17
3903.27823 1.23756e-17
3906.23313 1.21004e-17
3909.18804 1.21448e-17
3912.14295 1.24176e-17
3915.09785 1.23306e-17
3918.06284 1.24956e-17
3921.01774 1.25518e-17
3923.97265 1.27116e-17
3926.92755 1.28035e-17
3929.89254 1.27476e-17
3932.84745 1.27832e-17
3935.80235 1.31193e-17
3938.75726 1.33131e-17
3941.72225 1.33715e-17
3944.67715 1.31955e-17
3947.63206 1.32784e-17
3950.58696 1.34508e-17
3953.54187 1.35864e-17
3956.50686 1.38632e-17
3959.46177 1.36238e-17
3962.41667 1.35870e-17
3965.37157 1.33225e-17
3968.33656 1.34616e-17
3971.29147 1.36459e-17
3974.24637 1.34035e-17
3977.20128 1.36141e-17
3980.16627 1.38668e-17
3983.12118 1.39319e-17
3986.07608 1.37944e-17
3989.03098 1.38143e-17
3991.99597 1.38160e-17
3994.95088 1.36295e-17
3997.90578 1.34542e-17
4000.86069 1.36669e-17
4003.81560 1.39523e-17
4006.78058 1.40083e-17
4009.73549 1.40942e-17
4012.69039 1.40419e-17
4015.64530 1.40505e-17
4018.61029 1.38250e-17
4021.56519 1.41671e-17
4024.52010 1.43360e-17
4027.47501 1.41385e-17
4030.43999 1.42937e-17
4033.39490 1.41842e-17
4036.34980 1.42259e-17
4039.30471 1.44727e-17
4042.25961 1.43008e-17
4045.22460 1.45728e-17
4048.17951 1.43215e-17
4051.13441 1.43273e-17
4054.08932 1.43761e-17
4057.05431 1.43376e-17
4060.00921 1.46853e-17
4062.96412 1.46197e-17
4065.91902 1.43826e-17
4068.88402 1.46569e-17
4071.83892 1.46767e-17
4074.79382 1.45822e-17
4077.74873 1.46689e-17
4080.70363 1.44203e-17
4083.66862 1.44147e-17
4086.62353 1.47537e-17
4089.57843 1.46282e-17
4092.53334 1.44251e-17
4095.49833 1.45313e-17
4098.45323 1.48592e-17
4101.40814 1.47570e-17
4104.36305 1.45884e-17
4107.32803 1.45980e-17
4110.28294 1.46421e-17
4113.23784 1.43302e-17
4116.19275 1.45263e-17
4119.15774 1.47294e-17
4122.11264 1.44139e-17
4125.06755 1.44957e-17
4128.02246 1.46119e-17
4130.97736 1.47273e-17
4133.94235 1.46534e-17
4136.89725 1.46124e-17
4139.85216 1.43825e-17
4142.80706 1.47702e-17
4145.77205 1.48683e-17
4148.72696 1.46583e-17
4151.68186 1.47117e-17
4154.63677 1.47657e-17
4157.60176 1.49166e-17
4160.55666 1.50158e-17
4163.51157 1.48000e-17
4166.46648 1.49052e-17
4169.43146 1.51024e-17
4172.38637 1.50599e-17
4175.34127 1.49926e-17
4178.29618 1.49091e-17
4181.25108 1.51124e-17
4184.21607 1.52256e-17
4187.17098 1.53086e-17
4190.12589 1.51377e-17
4193.08079 1.50909e-17
4196.04578 1.55314e-17
4199.00068 1.54496e-17
4201.95559 1.49945e-17
4204.91050 1.50844e-17
4207.87548 1.53558e-17
4210.83039 1.53348e-17
4213.78530 1.51050e-17
4216.74020 1.52883e-17
4219.69510 1.56870e-17
4222.66009 1.55226e-17
4225.61500 1.55589e-17
4228.56991 1.53778e-17
4231.52481 1.50278e-17
4234.48980 1.52875e-17
4237.44470 1.54770e-17
4240.39961 1.54326e-17
4243.35451 1.56206e-17
4246.31950 1.56476e-17
4249.27441 1.55176e-17
4252.22932 1.55752e-17
4255.18422 1.57563e-17
4258.13912 1.54451e-17
4261.10411 1.52895e-17
4264.05902 1.54431e-17
4267.01393 1.55069e-17
4269.96883 1.53975e-17
4272.93382 1.55766e-17
4275.88872 1.58008e-17
4278.84363 1.58105e-17
4281.79853 1.56718e-17
4284.76352 1.56437e-17
4287.71843 1.57386e-17
4290.67334 1.56414e-17
4293.62824 1.57047e-17
4296.59323 1.59876e-17
4299.54814 1.58541e-17
4302.50304 1.58591e-17
4305.45795 1.61875e-17
4308.41285 1.60490e-17
4311.37784 1.60262e-17
4314.33274 1.61129e-17
4317.28765 1.59430e-17
4320.24255 1.58960e-17
4323.20755 1.57814e-17
4326.16245 1.57673e-17
4329.11736 1.60031e-17
4332.07226 1.60064e-17
4335.03725 1.58901e-17
4337.99215 1.58858e-17
4340.94706 1.60674e-17
4343.90197 1.61450e-17
4346.85687 1.61342e-17
4349.82186 1.63592e-17
4352.77676 1.61895e-17
4355.73167 1.60508e-17
4358.68657 1.63588e-17
4361.65157 1.63194e-17
4364.60647 1.60625e-17
4367.56138 1.61992e-17
4370.51628 1.64373e-17
4373.48127 1.64149e-17
4376.43617 1.65798e-17
4379.39108 1.65361e-17
4382.34598 1.65641e-17
4385.30089 1.65920e-17
4388.26588 1.66200e-17
4391.22078 1.66479e-17
4394.17569 1.66759e-17
4397.13059 1.67038e-17
4400.09559 1.67317e-17
4403.05049 1.67596e-17
4406.00540 1.67874e-17
4408.96030 1.68153e-17
4411.92529 1.68432e-17
4414.88019 1.68710e-17
4417.83510 1.68989e-17
4420.79000 1.69267e-17
4423.75500 1.69963e-17
4426.70990 1.70456e-17
4429.66480 1.72097e-17
4432.61971 1.74486e-17
4435.57461 1.75603e-17
4438.53960 1.73222e-17
4441.49451 1.72765e-17
4444.44941 1.72065e-17
4447.40432 1.69999e-17
4450.36931 1.69882e-17
4453.32421 1.69867e-17
4456.27912 1.71329e-17
4459.23402 1.70741e-17
4462.19902 1.73038e-17
4465.15392 1.72694e-17
4468.10882 1.69952e-17
4471.06373 1.71622e-17
4474.01864 1.74118e-17
4476.98362 1.73269e-17
4479.93853 1.75195e-17
4482.89343 1.74314e-17
4485.84834 1.73612e-17
4488.81333 1.76497e-17
4491.76823 1.76892e-17
4494.72314 1.77897e-17
4497.67805 1.81581e-17
4500.64304 1.82230e-17
4503.59794 1.81767e-17
4506.55284 1.82636e-17
4509.50775 1.82475e-17
4512.47274 1.82873e-17
4515.42764 1.86580e-17
4518.38255 1.84842e-17
4521.33745 1.84132e-17
4524.29236 1.84390e-17
4527.25735 1.83972e-17
4530.21225 1.85322e-17
4533.16716 1.84593e-17
4536.12207 1.86126e-17
4539.08705 1.86560e-17
4542.04196 1.83255e-17
4544.99686 1.87092e-17
4547.95177 1.89700e-17
4550.91676 1.85825e-17
4553.87166 1.85160e-17
4556.82657 1.85389e-17
4559.78147 1.87537e-17
4562.73638 1.88882e-17
4565.70137 1.88419e-17
4568.65627 1.86503e-17
4571.61118 1.89696e-17
4574.56609 1.90836e-17
4577.53107 1.86486e-17
4580.48598 1.84454e-17
4583.44088 1.85246e-17
4586.39579 1.86556e-17
4589.36078 1.88065e-17
4592.31568 1.85277e-17
4595.27059 1.84858e-17
4598.22549 1.82183e-17
4601.19049 1.85166e-17
4604.14539 1.86423e-17
4607.10030 1.85877e-17
4610.05520 1.85632e-17
4613.01011 1.83266e-17
4615.97509 1.85921e-17
4618.93000 1.84511e-17
4621.88490 1.84192e-17
4624.83981 1.82863e-17
4627.80480 1.81976e-17
4630.75970 1.84146e-17
4633.71461 1.85992e-17
4636.66951 1.84441e-17
4639.62442 1.83521e-17
4642.58941 1.86020e-17
4645.54432 1.88801e-17
4648.49922 1.88308e-17
4651.45413 1.86375e-17
4654.41911 1.85426e-17
4657.37402 1.83306e-17
4660.32892 1.84047e-17
4663.28383 1.83527e-17
4666.24882 1.79911e-17
4669.20373 1.81228e-17
4672.15863 1.80318e-17
4675.11353 1.78896e-17
4678.07852 1.78199e-17
4681.03343 1.77357e-17
4683.98834 1.74874e-17
4686.94324 1.74514e-17
4689.89815 1.75722e-17
4692.86314 1.73301e-17
4695.81804 1.71292e-17
4698.77294 1.72120e-17
4701.72785 1.74732e-17
4704.69284 1.73939e-17
4707.64775 1.72985e-17
4710.60265 1.72447e-17
4713.55755 1.70377e-17
4716.52254 1.68987e-17
4719.47745 1.70909e-17
4722.43235 1.71226e-17
4725.38726 1.68817e-17
4728.35225 1.67702e-17
4731.30716 1.68991e-17
4734.26206 1.68872e-17
4737.21696 1.69180e-17
4740.17187 1.68889e-17
4743.13686 1.70188e-17
4746.09177 1.67271e-17
4749.04667 1.65592e-17
4752.00157 1.70280e-17
4754.96656 1.70216e-17
4757.92147 1.67698e-17
4760.87637 1.69049e-17
4763.83128 1.70300e-17
4766.79627 1.68967e-17
4769.75118 1.68120e-17
4772.70608 1.69728e-17
4775.66098 1.70991e-17
4778.61589 1.71364e-17
4781.58088 1.69944e-17
4784.53579 1.70139e-17
4787.49069 1.69674e-17
4790.44559 1.69379e-17
4793.41058 1.71547e-17
4796.36549 1.72114e-17
4799.32039 1.72092e-17
4802.27530 1.74362e-17
4805.24029 1.74387e-17
4808.19520 1.73903e-17
4811.15010 1.73111e-17
4814.10500 1.70006e-17
4817.05991 1.71762e-17
4820.02490 1.73552e-17
4822.97980 1.72976e-17
4825.93471 1.75408e-17
4828.88961 1.72990e-17
4831.85460 1.74412e-17
4834.80951 1.75297e-17
4837.76441 1.72919e-17
4840.71932 1.71748e-17
4843.68431 1.75271e-17
4846.63922 1.77646e-17
4849.59412 1.78679e-17
4852.54902 1.76983e-17
4855.51401 1.76772e-17
4858.46892 1.77195e-17
4861.42382 1.78568e-17
4864.37873 1.79556e-17
4867.33363 1.81027e-17
4870.29862 1.80603e-17
4873.25353 1.79235e-17
4876.20843 1.80153e-17
4879.16334 1.80363e-17
4882.12833 1.82096e-17
4885.08324 1.82301e-17
4888.03814 1.82505e-17
4890.99305 1.82710e-17
4893.95803 1.82914e-17
4896.91294 1.83119e-17
4899.86784 1.83323e-17
4902.82275 1.83527e-17
4905.77765 1.83732e-17
4908.74264 1.83936e-17
4911.69755 1.84140e-17
4914.65245 1.84344e-17
4917.60736 1.84548e-17
4920.57235 1.84752e-17
4923.52725 1.84956e-17
4926.48216 1.86605e-17
4929.43707 1.86700e-17
4932.40205 1.87294e-17
4935.35696 1.87228e-17
4938.31186 1.86737e-17
4941.26677 1.86670e-17
4944.23176 1.88541e-17
4947.18666 1.87184e-17
4950.14157 1.87333e-17
4953.09648 1.87441e-17
4956.05138 1.86260e-17
4959.01637 1.87575e-17
4961.97127 1.87717e-17
4964.92618 1.87073e-17
4967.88108 1.86927e-17
4970.84607 1.86848e-17
4973.80098 1.87730e-17
4976.75589 1.87726e-17
4979.71079 1.87391e-17
4982.67578 1.86905e-17
4985.63068 1.87147e-17
4988.58559 1.87388e-17
4991.54050 1.87630e-17
4994.49540 1.87871e-17
4997.46039 1.88112e-17
5000.41529 1.88354e-17
5003.37020 1.88595e-17
5006.32510 1.88836e-17
5009.29009 1.89077e-17
5012.24500 1.89318e-17
5015.19991 1.89559e-17
5018.15481 1.89800e-17
5021.11980 1.90040e-17
5024.07470 1.91060e-17
5027.02961 1.92884e-17
5029.98452 1.92812e-17
5032.93942 1.93357e-17
5035.90441 1.93903e-17
5038.85931 1.94448e-17
5041.81422 1.94993e-17
5044.76912 1.95538e-17
5047.73411 1.96083e-17
5050.68902 1.96627e-17
5053.64393 1.97172e-17
5056.59883 1.97716e-17
5059.56382 1.98261e-17
5062.51872 1.98805e-17
5065.47363 1.99349e-17
5068.42854 1.99893e-17
5071.39352 2.00804e-17
5074.34843 1.99472e-17
5077.30333 2.00677e-17
5080.25824 2.01915e-17
5083.21314 2.01734e-17
5086.17814 2.00899e-17
5089.13304 2.03959e-17
5092.08795 2.06161e-17
5095.04285 2.04855e-17
5098.00784 2.04040e-17
5100.96274 2.05784e-17
5103.91765 2.08147e-17
5106.87255 2.06504e-17
5109.83755 2.05856e-17
5112.79245 2.07933e-17
5115.74735 2.09923e-17
5118.70226 2.10021e-17
5121.66725 2.10406e-17
5124.62216 2.08847e-17
5127.57706 2.06787e-17
5130.53197 2.05343e-17
5133.48687 2.08653e-17
5136.45186 2.10389e-17
5139.40676 2.12989e-17
5142.36167 2.13383e-17
5145.31657 2.15921e-17
5148.28157 2.14960e-17
5151.23647 2.16226e-17
5154.19137 2.14348e-17
5157.14628 2.12853e-17
5160.11127 2.16118e-17
5163.06617 2.18589e-17
5166.02108 2.20323e-17
5168.97599 2.20660e-17
5171.93089 2.22842e-17
5174.89588 2.23494e-17
5177.85078 2.23542e-17
5180.80569 2.23430e-17
5183.76059 2.24866e-17
5186.72559 2.26146e-17
5189.68049 2.26873e-17
5192.63539 2.26680e-17
5195.59030 2.27117e-17
5198.55529 2.27587e-17
5201.51019 2.29841e-17
5204.46510 2.28901e-17
5207.42000 2.28818e-17
5210.37491 2.29216e-17
5213.33990 2.28884e-17
5216.29480 2.32221e-17
5219.24971 2.35928e-17
5222.20461 2.33853e-17
5225.16961 2.32867e-17
5228.12451 2.33657e-17
5231.07941 2.34796e-17
5234.03432 2.35805e-17
5236.99931 2.37076e-17
5239.95421 2.39910e-17
5242.90912 2.40976e-17
5245.86402 2.39026e-17
5248.81893 2.42218e-17
5251.78392 2.43738e-17
5254.73882 2.42729e-17
5257.69373 2.43240e-17
5260.64864 2.44560e-17
5263.61362 2.45507e-17
5266.56853 2.44292e-17
5269.52343 2.44662e-17
5272.47834 2.46214e-17
5275.44333 2.47163e-17
5278.39823 2.46617e-17
5281.35314 2.47851e-17
5284.30804 2.47021e-17
5287.27304 2.48493e-17
5290.22794 2.48502e-17
5293.18284 2.49338e-17
5296.13775 2.52816e-17
5299.09266 2.54416e-17
5302.05764 2.53366e-17
5305.01255 2.56438e-17
5307.96745 2.56155e-17
5310.92236 2.51869e-17
5313.88735 2.44333e-17
5316.84225 2.46351e-17
5319.79716 2.47635e-17
5322.75206 2.51851e-17
5325.71706 2.55563e-17
5328.67196 2.57166e-17
5331.62686 2.57028e-17
5334.58177 2.58092e-17
5337.53668 2.58533e-17
5340.50166 2.58490e-17
5343.45657 2.59384e-17
5346.41147 2.58911e-17
5349.36638 2.59633e-17
5352.33137 2.64028e-17
5355.28627 2.63810e-17
5358.24118 2.61988e-17
5361.19608 2.60003e-17
5364.16107 2.62467e-17
5367.11598 2.62925e-17
5370.07089 2.61850e-17
5373.02579 2.59423e-17
5375.99078 2.60034e-17
5378.94568 2.60070e-17
5381.90059 2.60022e-17
5384.85549 2.62239e-17
5387.81040 2.61779e-17
5390.77539 2.59352e-17
5393.73030 2.62728e-17
5396.68520 2.62199e-17
5399.64010 2.58481e-17
5402.60509 2.56835e-17
5405.56000 2.58462e-17
5408.51490 2.58736e-17
5411.46981 2.59018e-17
5414.43480 2.59251e-17
5417.38970 2.59046e-17
5420.34461 2.59655e-17
5423.29951 2.56069e-17
5426.25442 2.55315e-17
5429.21941 2.55935e-17
5432.17432 2.53347e-17
5435.12922 2.54300e-17
5438.08412 2.55675e-17
5441.04911 2.56329e-17
5444.00402 2.52722e-17
5446.95892 2.49788e-17
5449.91383 2.50535e-17
5452.87882 2.48131e-17
5455.83373 2.45813e-17
5458.78863 2.45860e-17
5461.74353 2.46983e-17
5464.70852 2.45741e-17
5467.66343 2.42262e-17
5470.61834 2.41473e-17
5473.57324 2.41533e-17
5476.52814 2.41281e-17
5479.49313 2.39482e-17
5482.44804 2.38440e-17
5485.40294 2.39124e-17
5488.35785 2.36740e-17
5491.32284 2.33588e-17
5494.27775 2.30823e-17
5497.23265 2.28599e-17
5500.18755 2.28475e-17
5503.15254 2.29434e-17
5506.10745 2.28759e-17
5509.06236 2.28487e-17
5512.01726 2.27113e-17
5514.97216 2.25399e-17
5517.93715 2.25598e-17
5520.89206 2.22926e-17
5523.84696 2.25328e-17
5526.80187 2.25739e-17
5529.76686 2.22976e-17
5532.72177 2.22702e-17
5535.67667 2.22216e-17
5538.63157 2.19061e-17
5541.59656 2.18160e-17
5544.55147 2.18965e-17
5547.50637 2.15573e-17
5550.46128 2.13510e-17
5553.41618 2.14518e-17
5556.38117 2.13418e-17
5559.33608 2.10668e-17
5562.29098 2.08584e-17
5565.24589 2.09006e-17
5568.21088 2.07358e-17
5571.16579 2.06676e-17
5574.12069 2.05136e-17
5577.07559 2.03348e-17
5580.04058 2.02412e-17
5582.99549 2.00830e-17
5585.95039 2.00530e-17
5588.90530 2.01105e-17
5591.86020 2.00827e-17
5594.82519 1.99742e-17
5597.78010 1.96230e-17
5600.73500 1.94919e-17
5603.68991 1.96001e-17
5606.65490 1.99122e-17
5609.60981 1.97496e-17
5612.56471 1.97703e-17
5615.51961 1.98342e-17
5618.48460 1.96400e-17
5621.43951 1.96310e-17
5624.39441 1.97271e-17
5627.34932 1.96603e-17
5630.31431 1.95837e-17
5633.26921 1.94493e-17
5636.22412 1.95100e-17
5639.17902 1.95098e-17
5642.13393 1.93537e-17
5645.09892 1.94818e-17
5648.05382 1.94665e-17
5651.00873 1.93583e-17
5653.96364 1.93992e-17
5656.92862 1.94563e-17
5659.88353 1.95536e-17
5662.83843 1.95278e-17
5665.79334 1.93835e-17
5668.75833 1.91163e-17
5671.71323 1.90562e-17
5674.66814 1.91888e-17
5677.62305 1.91979e-17
5680.58803 1.90655e-17
5683.54294 1.89885e-17
5686.49784 1.89957e-17
5689.45275 1.89432e-17
5692.40765 1.89439e-17
5695.37264 1.90526e-17
5698.32755 1.91371e-17
5701.28245 1.87839e-17
5704.23736 1.89907e-17
5707.20235 1.88501e-17
5710.15725 1.88015e-17
5713.11216 1.87281e-17
5716.06707 1.87684e-17
5719.03205 1.89059e-17
5721.98696 1.85911e-17
5724.94186 1.86265e-17
5727.89677 1.88581e-17
5730.85167 1.89778e-17
5733.81666 1.87855e-17
5736.77157 1.87313e-17
5739.72648 1.88577e-17
5742.68138 1.87109e-17
5745.64637 1.86432e-17
5748.60127 1.88737e-17
5751.55618 1.89037e-17
5754.51109 1.87717e-17
5757.47607 1.87930e-17
5760.43098 1.87558e-17
5763.38588 1.87602e-17
5766.34079 1.88595e-17
5769.30578 1.87690e-17
5772.26068 1.88487e-17
5775.21559 1.89703e-17
5778.17050 1.87304e-17
5781.12540 1.85804e-17
5784.09039 1.85888e-17
5787.04529 1.86419e-17
5790.00020 1.86131e-17
5792.95511 1.84866e-17
5795.92009 1.86121e-17
5798.87500 1.86755e-17
5801.82990 1.84885e-17
5804.78481 1.84452e-17
5807.74980 1.87850e-17
5810.70470 1.85953e-17
5813.65961 1.86600e-17
5816.61452 1.85447e-17
5819.56942 1.84361e-17
5822.53441 1.83460e-17
5825.48931 1.84022e-17
5828.44422 1.84079e-17
5831.39912 1.82190e-17
5834.36411 1.82795e-17
5837.31902 1.81084e-17
5840.27392 1.79261e-17
5843.22883 1.79578e-17
5846.19382 1.77446e-17
5849.14873 1.76917e-17
5852.10363 1.79095e-17
5855.05854 1.78298e-17
5858.01344 1.75908e-17
5860.97843 1.74680e-17
5863.93333 1.74488e-17
5866.88824 1.75270e-17
5869.84314 1.75907e-17
5872.80814 1.75217e-17
5875.76304 1.74047e-17
5878.71794 1.71829e-17
5881.67285 1.68874e-17
5884.63784 1.67313e-17
5887.59274 1.67120e-17
5890.54765 1.66454e-17
5893.50256 1.66308e-17
5896.46755 1.69240e-17
5899.42245 1.68216e-17
5902.37735 1.69335e-17
5905.33226 1.69603e-17
5908.28716 1.67734e-17
5911.25216 1.67017e-17
5914.20706 1.68908e-17
5917.16196 1.67505e-17
5920.11687 1.67026e-17
5923.08186 1.66902e-17
5926.03676 1.66583e-17
5928.99167 1.65782e-17
5931.94657 1.66228e-17
5934.91157 1.64549e-17
5937.86647 1.63363e-17
5940.82137 1.62633e-17
5943.77628 1.61927e-17
5946.73118 1.62471e-17
5949.69618 1.63311e-17
5952.65108 1.62605e-17
5955.60598 1.61273e-17
5958.56089 1.59817e-17
5961.52588 1.57199e-17
5964.48078 1.56740e-17
5967.43569 1.58524e-17
5970.39059 1.57747e-17
5973.35559 1.57974e-17
5976.31049 1.60146e-17
5979.26539 1.58418e-17
5982.22030 1.57412e-17
5985.17520 1.57547e-17
5988.14019 1.56052e-17
5991.09510 1.56256e-17
5994.05000 1.54299e-17
5997.00491 1.54009e-17
5999.96990 1.54863e-17
6002.92480 1.53017e-17
6005.87971 1.51663e-17
6008.83461 1.52195e-17
6011.79961 1.52310e-17
6014.75451 1.51413e-17
6017.70941 1.52579e-17
6020.66432 1.54621e-17
6023.62931 1.54467e-17
6026.58421 1.54842e-17
6029.53912 1.54314e-17
6032.49402 1.53925e-17
6035.44893 1.52904e-17
6038.41392 1.50668e-17
6041.36882 1.51686e-17
6044.32373 1.53082e-17
6047.27863 1.52103e-17
6050.24363 1.51356e-17
6053.19853 1.50738e-17
6056.15343 1.50071e-17
6059.10834 1.48727e-17
6062.07333 1.49135e-17
6065.02823 1.49699e-17
6067.98314 1.49335e-17
6070.93804 1.48073e-17
6073.90303 1.47994e-17
6076.85794 1.47284e-17
6079.81284 1.47814e-17
6082.76775 1.47967e-17
6085.72265 1.47194e-17
6088.68764 1.46129e-17
6091.64255 1.45290e-17
6094.59745 1.44837e-17
6097.55236 1.44258e-17
6100.51735 1.46791e-17
6103.47225 1.45958e-17
6106.42716 1.43217e-17
6109.38206 1.43338e-17
6112.34705 1.43081e-17
6115.30196 1.41951e-17
6118.25686 1.42010e-17
6121.21177 1.41873e-17
6124.16667 1.40754e-17
6127.13166 1.41503e-17
6130.08657 1.42446e-17
6133.04147 1.40371e-17
6135.99638 1.39636e-17
6138.96137 1.40775e-17
6141.91627 1.42099e-17
6144.87118 1.41586e-17
6147.82608 1.41680e-17
6150.79107 1.40020e-17
6153.74598 1.39890e-17
6156.70089 1.41200e-17
6159.65579 1.41314e-17
6162.61069 1.42846e-17
6165.57568 1.40502e-17
6168.53059 1.37063e-17
6171.48549 1.37972e-17
6174.44040 1.41239e-17
6177.40539 1.40200e-17
6180.36030 1.41112e-17
6183.31520 1.43489e-17
6186.27010 1.42704e-17
6189.23509 1.41466e-17
6192.19000 1.40575e-17
6195.14491 1.41519e-17
6198.09981 1.42790e-17
6201.05471 1.42651e-17
6204.01970 1.43387e-17
6206.97461 1.45895e-17
6209.92951 1.44688e-17
6212.88442 1.44165e-17
6215.84941 1.42995e-17
6218.80432 1.44005e-17
6221.75922 1.43696e-17
6224.71412 1.44471e-17
6227.67911 1.44503e-17
6230.63402 1.45802e-17
6233.58893 1.45981e-17
6236.54383 1.46235e-17
6239.50882 1.46575e-17
6242.46373 1.45223e-17
6245.41863 1.46706e-17
6248.37353 1.47284e-17
6251.32844 1.44810e-17
6254.29343 1.46154e-17
6257.24834 1.48867e-17
6260.20324 1.49150e-17
6263.15814 1.48765e-17
6266.12313 1.49136e-17
6269.07804 1.50911e-17
6272.03294 1.47877e-17
6274.98785 1.44464e-17
6277.95284 1.44536e-17
6280.90774 1.46265e-17
6283.86265 1.49390e-17
6286.81755 1.49175e-17
6289.78255 1.50835e-17
6292.73745 1.51061e-17
6295.69236 1.50141e-17
6298.64726 1.50698e-17
6301.60216 1.50924e-17
6304.56715 1.52696e-17
6307.52206 1.52854e-17
6310.47696 1.51453e-17
6313.43187 1.53323e-17
6316.39686 1.55217e-17
6319.35176 1.54780e-17
6322.30667 1.55089e-17
6325.26157 1.55349e-17
6328.22656 1.54860e-17
6331.18147 1.55603e-17
6334.13638 1.56063e-17
6337.09128 1.55332e-17
6340.04618 1.56782e-17
6343.01117 1.56733e-17
6345.96608 1.55712e-17
6348.92098 1.57112e-17
6351.87589 1.59286e-17
6354.84088 1.57272e-17
6357.79578 1.54920e-17
6360.75069 1.53489e-17
6363.70559 1.53470e-17
6366.67058 1.55015e-17
6369.62549 1.55464e-17
6372.58039 1.56693e-17
6375.53530 1.58618e-17
6378.49020 1.57354e-17
6381.45519 1.55768e-17
6384.41010 1.56671e-17
6387.36500 1.57389e-17
6390.31991 1.57841e-17
6393.28490 1.58467e-17
6396.23980 1.57930e-17
6399.19471 1.59140e-17
6402.14961 1.58844e-17
6405.11460 1.58849e-17
6408.06951 1.60048e-17
6411.02441 1.58638e-17
6413.97932 1.58139e-17
6416.93422 1.60352e-17
6419.89921 1.61458e-17
6422.85412 1.58899e-17
6425.80902 1.57364e-17
6428.76393 1.57818e-17
6431.72892 1.59424e-17
6434.68382 1.61055e-17
6437.63873 1.59676e-17
6440.59364 1.58026e-17
6443.55862 1.57514e-17
6446.51353 1.56426e-17
6449.46843 1.57148e-17
6452.42334 1.58705e-17
6455.38833 1.58631e-17
6458.34323 1.57722e-17
6461.29814 1.57912e-17
6464.25305 1.56107e-17
6467.20795 1.55575e-17
6470.17294 1.54784e-17
6473.12784 1.52527e-17
6476.08275 1.53955e-17
6479.03766 1.56354e-17
6482.00264 1.55764e-17
6484.95755 1.54343e-17
6487.91245 1.54319e-17
6490.86736 1.54050e-17
6493.83235 1.53055e-17
6496.78725 1.54557e-17
6499.74216 1.56186e-17
6502.69707 1.54455e-17
6505.65197 1.52784e-17
6508.61696 1.51177e-17
6511.57186 1.51006e-17
6514.52677 1.49823e-17
6517.48167 1.50893e-17
6520.44666 1.51769e-17
6523.40157 1.52212e-17
6526.35648 1.51341e-17
6529.31138 1.49205e-17
6532.27637 1.47330e-17
6535.23127 1.48361e-17
6538.18618 1.48465e-17
6541.14109 1.47341e-17
6544.10607 1.47582e-17
6547.06098 1.47260e-17
6550.01588 1.46712e-17
6552.97079 1.45519e-17
6555.92569 1.44220e-17
6558.89068 1.45275e-17
6561.84559 1.45038e-17
6564.80049 1.45116e-17
6567.75540 1.44449e-17
6570.72039 1.42588e-17
6573.67530 1.45202e-17
6576.63020 1.43708e-17
6579.58511 1.41701e-17
6582.55009 1.40668e-17
6585.50500 1.40555e-17
6588.45990 1.40136e-17
6591.41481 1.39716e-17
6594.36971 1.39297e-17
6597.33470 1.38878e-17
6600.28961 1.38459e-17
6603.24451 1.38039e-17
6606.19942 1.37620e-17
6609.16441 1.37201e-17
6612.11931 1.36782e-17
6615.07422 1.36363e-17
6618.02913 1.35944e-17
6620.99411 1.35526e-17
6623.94902 1.35107e-17
6626.90392 1.34688e-17
6629.85883 1.34270e-17
6632.82382 1.33851e-17
6635.77873 1.33433e-17
6638.73363 1.33014e-17
6641.68853 1.32596e-17
6644.64344 1.32177e-17
6647.60843 1.31759e-17
6650.56333 1.31341e-17
6653.51824 1.30228e-17
6656.47314 1.30443e-17
6659.43814 1.30809e-17
6662.39304 1.30109e-17
6665.34794 1.30271e-17
6668.30285 1.28806e-17
6671.26784 1.27233e-17
6674.22275 1.26202e-17
6677.17765 1.26494e-17
6680.13255 1.27603e-17
6683.09755 1.26570e-17
6686.05245 1.25560e-17
6689.00735 1.25285e-17
6691.96226 1.25513e-17
6694.91716 1.24841e-17
6697.88216 1.24103e-17
6700.83706 1.23554e-17
6703.79196 1.22847e-17
6706.74687 1.24353e-17
6709.71186 1.23675e-17
6712.66676 1.22208e-17
6715.62167 1.21259e-17
6718.57657 1.21519e-17
6721.53148 1.21404e-17
6724.49647 1.19846e-17
6727.45137 1.19876e-17
6730.40628 1.21525e-17
6733.36118 1.19878e-17
6736.32618 1.19568e-17
6739.28108 1.17794e-17
6742.23598 1.15735e-17
6745.19089 1.16619e-17
6748.15588 1.16270e-17
6751.11078 1.16270e-17
6754.06569 1.18484e-17
6757.02059 1.18795e-17
6759.97550 1.16629e-17
6762.94049 1.15896e-17
6765.89539 1.16120e-17
6768.85030 1.14540e-17
6771.80520 1.11888e-17
6774.77020 1.13435e-17
6777.72510 1.15186e-17
6780.68000 1.13469e-17
6783.63491 1.13976e-17
6786.59990 1.13524e-17
6789.55480 1.11426e-17
6792.50971 1.10962e-17
6795.46461 1.11599e-17
6798.42960 1.11506e-17
6801.38451 1.10563e-17
6804.33941 1.10726e-17
6807.29432 1.08738e-17
6810.24923 1.06172e-17
6813.21421 1.04246e-17
6816.16912 1.04669e-17
6819.12402 1.06151e-17
6822.07893 1.06144e-17
6825.04392 1.07036e-17
6827.99882 1.07978e-17
6830.95373 1.08347e-17
6833.90863 1.07767e-17
6836.87362 1.06866e-17
6839.82853 1.06073e-17
6842.78343 1.05386e-17
6845.73834 1.04978e-17
6848.70333 1.04570e-17
6851.65823 1.04161e-17
6854.61314 1.03753e-17
6857.56804 1.03345e-17
6860.52295 1.02937e-17
6863.48794 1.02530e-17
6866.44284 1.02122e-17
6869.39775 1.01714e-17
6872.35265 1.01306e-17
6875.31764 1.00898e-17
6878.27255 1.00491e-17
6881.22745 1.00083e-17
6884.18236 9.96756e-18
6887.14735 9.92681e-18
6890.10225 9.88607e-18
6893.05716 9.84533e-18
6896.01206 9.80460e-18
6898.96697 9.76387e-18
6901.93196 9.72315e-18
6904.88686 9.68243e-18
6907.84177 9.64172e-18
6910.79667 9.60101e-18
6913.76166 9.56031e-18
6916.71657 9.51960e-18
6919.67148 9.47892e-18
6922.62638 9.43823e-18
6925.59137 9.39755e-18
6928.54627 9.35687e-18
6931.50118 9.31620e-18
6934.45608 9.27554e-18
6937.42107 9.23487e-18
6940.37598 9.24334e-18
6943.33089 9.15955e-18
6946.28579 9.20066e-18
6949.24069 9.24019e-18
6952.20568 9.19324e-18
6955.16059 8.99492e-18
6958.11550 8.88816e-18
6961.07040 8.95708e-18
6964.03539 9.17750e-18
6966.99030 9.25511e-18
6969.94520 9.20617e-18
6972.90010 9.00897e-18
6975.86509 8.94988e-18
6978.82000 9.07402e-18
6981.77491 8.99208e-18
6984.72981 8.85688e-18
6987.68471 8.83721e-18
6990.64970 8.77333e-18
6993.60461 8.83105e-18
6996.55951 8.88749e-18
6999.51442 8.88556e-18
7002.47941 8.80551e-18
7005.43432 8.94906e-18
7008.38922 8.88532e-18
7011.34412 8.64951e-18
7014.30911 8.53784e-18
7017.26402 8.58107e-18
7020.21893 8.65243e-18
7023.17383 8.74706e-18
7026.12873 8.75249e-18
7029.09372 8.61563e-18
7032.04863 8.63656e-18
7035.00353 8.60802e-18
7037.95844 8.49904e-18
7040.92343 8.29756e-18
7043.87834 8.35441e-18
7046.83324 8.40813e-18
7049.78814 8.41286e-18
7052.75313 8.46026e-18
7055.70804 8.48632e-18
7058.66295 8.41747e-18
7061.61785 8.27522e-18
7064.58284 8.10529e-18
7067.53774 8.00559e-18
7070.49265 8.01232e-18
7073.44755 8.08703e-18
7076.40246 8.19968e-18
7079.36745 8.23747e-18
7082.32235 8.29177e-18
7085.27726 8.23781e-18
7088.23216 8.24218e-18
7091.19715 8.13555e-18
7094.15206 8.01950e-18
7097.10696 7.82239e-18
7100.06187 7.65687e-18
7103.02686 7.70661e-18
7105.98176 7.83016e-18
7108.93667 7.86094e-18
7111.89157 7.84561e-18
7114.84648 7.88850e-18
7117.81147 7.96976e-18
7120.76637 7.89398e-18
7123.72128 7.66215e-18
7126.67618 7.62748e-18
7129.64117 7.49871e-18
7132.59608 7.54042e-18
7135.55098 7.67201e-18
7138.50589 7.69362e-18
7141.47088 7.64398e-18
7144.42578 7.75094e-18
7147.38069 7.74647e-18
7150.33559 7.50942e-18
7153.29050 7.36062e-18
7156.25549 7.30692e-18
7159.21039 7.19365e-18
7162.16530 7.05625e-18
7165.12020 7.13973e-18
7168.08519 7.10289e-18
7171.04010 7.06696e-18
7173.99500 7.05448e-18
7176.94991 7.00472e-18
7179.91490 6.99288e-18
7182.86980 6.85120e-18
7185.82471 6.57501e-18
7188.77961 6.44789e-18
7191.74460 6.59619e-18
7194.69951 6.65534e-18
7197.65441 6.52497e-18
7200.60932 6.57851e-18
7203.56423 6.62053e-18
7206.52921 6.61473e-18
7209.48412 6.58448e-18
7212.43902 6.47594e-18
7215.39393 6.47413e-18
7218.35892 6.34414e-18
7221.31382 6.33208e-18
7224.26873 6.24746e-18
7227.22364 6.34512e-18
7230.18862 6.44467e-18
7233.14353 6.39061e-18
7236.09843 6.41214e-18
7239.05334 6.34267e-18
7242.01833 6.24180e-18
7244.97323 6.11189e-18
7247.92814 6.04077e-18
7250.88305 5.95917e-18
7253.83795 5.97465e-18
7256.80294 6.14256e-18
7259.75784 6.30057e-18
7262.71275 6.21275e-18
7265.66766 6.12116e-18
7268.63264 6.04746e-18
7271.58755 5.97050e-18
7274.54245 5.87712e-18
7277.49736 5.83796e-18
7280.46235 5.93258e-18
7283.41725 5.91083e-18
7286.37216 5.88165e-18
7289.32707 5.89260e-18
7292.28197 6.01473e-18
7295.24696 5.97897e-18
7298.20186 5.75987e-18
7301.15677 5.77057e-18
7304.11168 5.75656e-18
7307.07666 5.57162e-18
7310.03157 5.52625e-18
7312.98647 5.60120e-18
7315.94138 5.68409e-18
7318.90637 5.75853e-18
7321.86127 5.80322e-18
7324.81618 5.86192e-18
7327.77109 5.73751e-18
7330.72599 5.63467e-18
7333.69098 5.53438e-18
7336.64588 5.40437e-18
7339.60079 5.41019e-18
7342.55570 5.34264e-18
7345.52068 5.34685e-18
7348.47559 5.39606e-18
7351.43049 5.46614e-18
7354.38540 5.58177e-18
7357.35039 5.56782e-18
7360.30530 5.46899e-18
7363.26020 5.42151e-18
7366.21510 5.35014e-18
7369.17001 5.30077e-18
7372.13500 5.26059e-18
7375.08990 5.21266e-18
7378.04481 5.26552e-18
7380.99971 5.38522e-18
7383.96470 5.37316e-18
7386.91961 5.29453e-18
7389.87451 5.29358e-18
7392.82942 5.31115e-18
7395.79441 5.20077e-18
7398.74932 4.99277e-18
7401.70422 4.93634e-18
7404.65912 5.03058e-18
7407.62411 4.99340e-18
7410.57902 4.98805e-18
7413.53392 5.12552e-18
7416.48883 5.14733e-18
7419.44373 5.15953e-18
7422.40873 5.18151e-18
7425.36363 5.11183e-18
7428.31853 4.99690e-18
7431.27344 4.93441e-18
7434.23843 4.86642e-18
7437.19333 4.83553e-18
7440.14824 4.93111e-18
7443.10314 4.98296e-18
7446.06814 4.96754e-18
7449.02304 4.98419e-18
7451.97794 5.04708e-18
7454.93285 5.08577e-18
7457.89784 4.92628e-18
7460.85275 4.92504e-18
7463.80765 4.85710e-18
7466.76255 4.72219e-18
7469.71746 4.68398e-18
7472.68245 4.64747e-18
7475.63735 4.68250e-18
7478.59226 4.82562e-18
7481.54716 4.88177e-18
7484.51216 4.86262e-18
7487.46706 4.86723e-18
7490.42196 4.91823e-18
7493.37687 4.82282e-18
7496.34186 4.65974e-18
7499.29677 4.53593e-18
7502.25167 4.48364e-18
7505.20657 4.52633e-18
7508.16148 4.49816e-18
7511.12647 4.50164e-18
7514.08137 4.59043e-18
7517.03628 4.59751e-18
7519.99118 4.56877e-18
7522.95618 4.51667e-18
7525.91108 4.48010e-18
7528.86598 4.54397e-18
7531.82089 4.51661e-18
7534.78588 4.46516e-18
7537.74078 4.53807e-18
7540.69569 4.63692e-18
7543.65059 4.67788e-18
7546.60550 4.65826e-18
7549.57049 4.76281e-18
7552.52539 4.75182e-18
7555.48030 4.74083e-18
7558.43520 4.72984e-18
7561.40020 4.71886e-18
7564.35510 4.70787e-18
7567.31000 4.69689e-18
7570.26491 4.68591e-18
7573.22990 4.67493e-18
7576.18480 4.66395e-18
7579.13971 4.65297e-18
7582.09461 4.64200e-18
7585.05960 4.63102e-18
7588.01451 4.62005e-18
7590.96941 4.60908e-18
7593.92432 4.59811e-18
7596.87922 4.58714e-18
7599.84421 4.57617e-18
7602.79912 4.56521e-18
7605.75402 4.55424e-18
7608.70893 4.54328e-18
7611.67392 4.53232e-18
7614.62882 4.52136e-18
7617.58373 4.51040e-18
7620.53863 4.49945e-18
7623.50362 4.48849e-18
7626.45853 4.47754e-18
7629.41343 4.46659e-18
7632.36834 4.45564e-18
7635.32324 4.44469e-18
7638.28823 4.43374e-18
7641.24314 4.42280e-18
7644.19805 4.41185e-18
7647.15295 4.40091e-18
7650.11794 4.38997e-18
7653.07284 4.37903e-18
7656.02775 4.36809e-18
7658.98265 4.35715e-18
7661.94764 4.34622e-18
7664.90255 4.33528e-18
7667.85745 4.32435e-18
7670.81236 4.31342e-18
7673.76726 4.30249e-18
7676.73225 4.29156e-18
7679.68716 4.28064e-18
7682.64207 4.26971e-18
7685.59697 4.26070e-18
7688.56196 4.27324e-18
7691.51686 4.12693e-18
7694.47177 4.19620e-18
7697.42667 4.27974e-18
7700.39166 4.22940e-18
7703.34657 4.24998e-18
7706.30148 4.44705e-18
7709.25638 4.62715e-18
7712.22137 4.69268e-18
7715.17627 4.79770e-18
7718.13118 4.74273e-18
7721.08608 4.53762e-18
7724.04099 4.38306e-18
7727.00598 4.35325e-18
7729.96089 4.22422e-18
7732.91579 4.17707e-18
7735.87069 4.30046e-18
7738.83568 4.47995e-18
7741.79059 4.62468e-18
7744.74550 4.72146e-18
7747.70040 4.81451e-18
7750.66539 4.79354e-18
7753.62029 4.63081e-18
7756.57520 4.48362e-18
7759.53010 4.35802e-18
7762.48501 4.26998e-18
7765.45000 4.26097e-18
7768.40491 4.36297e-18
7771.35981 4.52626e-18
7774.31471 4.72919e-18
7777.27970 4.91244e-18
7780.23461 4.98059e-18
7783.18952 4.86296e-18
7786.14442 4.62047e-18
7789.10941 4.50008e-18
7792.06431 4.42485e-18
7795.01922 4.24433e-18
7797.97412 4.29290e-18
7800.93911 4.45001e-18
7803.89402 4.57265e-18
7806.84893 4.79246e-18
7809.80383 5.00066e-18
7812.75873 5.00004e-18
7815.72372 4.84335e-18
7818.67863 4.72805e-18
7821.63353 4.64842e-18
7824.58844 4.48094e-18
7827.55343 4.30978e-18
7830.50833 4.18438e-18
7833.46324 4.30287e-18
7836.41814 4.55387e-18
7839.38314 4.77734e-18
7842.33804 4.89686e-18
7845.29295 4.97725e-18
7848.24785 4.98422e-18
7851.20275 4.83970e-18
7854.16774 4.62469e-18
7857.12265 4.45308e-18
7860.07755 4.28951e-18
7863.03246 4.18874e-18
7865.99745 4.29185e-18
7868.95235 4.39038e-18
7871.90726 4.54914e-18
7874.86216 4.79455e-18
7877.82715 4.96480e-18
7880.78206 4.97623e-18
7883.73696 4.95764e-18
7886.69187 4.86132e-18
7889.65686 4.56605e-18
7892.61176 4.33980e-18
7895.56667 4.39861e-18
7898.52157 4.47224e-18
7901.47648 4.50548e-18
7904.44147 4.71676e-18
7907.39637 4.96912e-18
7910.35128 5.10922e-18
7913.30618 5.20625e-18
7916.27117 5.22328e-18
7919.22608 4.99665e-18
7922.18098 4.67668e-18
7925.13589 4.49079e-18
7928.10088 4.44511e-18
7931.05578 4.49486e-18
7934.01069 4.59186e-18
7936.96559 4.66556e-18
7939.92050 4.78886e-18
7942.88549 5.09750e-18
7945.84039 5.30691e-18
7948.79530 5.09292e-18
7951.75020 5.01591e-18
7954.71519 5.01199e-18
7957.67010 4.79175e-18
7960.62500 4.60073e-18
7963.57991 4.57628e-18
7966.54490 4.62516e-18
7969.49980 4.74948e-18
7972.45471 4.88019e-18
7975.40961 5.08805e-18
7978.36452 5.37793e-18
7981.32951 5.38686e-18
7984.28441 5.28321e-18
7987.23932 5.06332e-18
7990.19423 4.86728e-18
7993.15921 4.71546e-18
7996.11412 4.64157e-18
7999.06902 4.61085e-18
8002.02393 4.69241e-18
8004.98892 4.99483e-18
8007.94382 5.22614e-18
8010.89873 5.38763e-18
8013.85364 5.60642e-18
8016.81862 5.55748e-18
8019.77353 5.38895e-18
8022.72843 5.03471e-18
8025.68334 4.65328e-18
8028.63825 4.60873e-18
8031.60323 4.74799e-18
8034.55814 4.88880e-18
8037.51304 5.08687e-18
8040.46795 5.31345e-18
8043.43294 5.58136e-18
8046.38784 5.73836e-18
8049.34275 5.60577e-18
8052.29766 5.45252e-18
8055.26264 5.13352e-18
8058.21755 4.77347e-18
8061.17245 4.69298e-18
8064.12736 4.68244e-18
8067.08227 4.91994e-18
8070.04725 5.15403e-18
8073.00216 5.36311e-18
8075.95706 5.61454e-18
8078.91197 5.60890e-18
8081.87696 5.71696e-18
8084.83186 5.55158e-18
8087.78677 5.15674e-18
8090.74168 4.89989e-18
8093.70666 4.67541e-18
8096.66157 4.63800e-18
8099.61647 4.71602e-18
8102.57138 4.85970e-18
8105.52628 5.05002e-18
8108.49127 5.25243e-18
8111.44618 5.40170e-18
8114.40108 5.44088e-18
8117.35599 5.44866e-18
8120.32098 5.30406e-18
8123.27589 4.91757e-18
8126.23079 4.54881e-18
8129.18570 4.43422e-18
8132.15068 4.57148e-18
8135.10559 4.64903e-18
8138.06049 4.71078e-18
8141.01540 5.01151e-18
8143.98039 5.38222e-18
8146.93530 5.53633e-18
8149.89020 5.41902e-18
8152.84510 5.12963e-18
8155.80001 4.85465e-18
8158.76500 4.53186e-18
8161.71990 4.36199e-18
8164.67481 4.43435e-18
8167.62971 4.62019e-18
8170.59470 4.89711e-18
8173.54961 5.07856e-18
8176.50451 5.23716e-18
8179.45942 5.48927e-18
8182.42441 5.53578e-18
8185.37932 5.22507e-18
8188.33422 4.85892e-18
8191.28912 4.61555e-18
8194.25411 4.44352e-18
8197.20902 4.38476e-18
8200.16392 4.57350e-18
8203.11883 4.83951e-18
8206.07373 5.20712e-18
8209.03873 5.59271e-18
8211.99363 5.63924e-18
8214.94853 5.52078e-18
8217.90344 5.33419e-18
8220.86843 4.98167e-18
8223.82333 4.75522e-18
8226.77824 4.63192e-18
8229.73315 4.60031e-18
8232.69814 4.64493e-18
8235.65304 4.75708e-18
8238.60794 5.16877e-18
8241.56285 5.65207e-18
8244.51775 5.85797e-18
8247.48274 5.81763e-18
8250.43765 5.68522e-18
8253.39256 5.38378e-18
8256.34746 5.05294e-18
8259.31245 4.97156e-18
8262.26735 4.95288e-18
8265.22226 4.98639e-18
8268.17716 5.16207e-18
8271.14215 5.37565e-18
8274.09706 5.66376e-18
8277.05197 5.89245e-18
8280.00687 6.06814e-18
8282.97186 5.93174e-18
8285.92677 5.61667e-18
8288.88167 5.46772e-18
8291.83658 5.23436e-18
8294.79148 4.91691e-18
8297.75647 4.96789e-18
8300.71137 5.24133e-18
8303.66628 5.55597e-18
8306.62118 5.90571e-18
8309.58617 6.21269e-18
8312.54108 6.41346e-18
8315.49598 6.36476e-18
8318.45089 6.00060e-18
8321.41588 5.70164e-18
8324.37078 5.52703e-18
8327.32569 5.32998e-18
8330.28060 5.34698e-18
8333.23550 5.55646e-18
8336.20049 5.93031e-18
8339.15539 6.48845e-18
8342.11030 6.78104e-18
8345.06520 6.94333e-18
8348.03019 6.89740e-18
8350.98510 6.41708e-18
8353.94001 6.10573e-18
8356.89491 5.88479e-18
8359.85990 5.63862e-18
8362.81480 5.67225e-18
8365.76971 5.73507e-18
8368.72462 5.90468e-18
8371.67952 6.38315e-18
8374.64451 6.81747e-18
8377.59941 7.12073e-18
8380.55432 7.28092e-18
8383.50922 7.29472e-18
8386.47422 6.88777e-18
8389.42912 6.47384e-18
8392.38402 6.16757e-18
8395.33893 5.90618e-18
8398.30392 5.87617e-18
8401.25883 6.01689e-18
8404.21373 6.29351e-18
8407.16863 6.69324e-18
8410.12354 7.06878e-18
8413.08853 7.27644e-18
8416.04343 7.41469e-18
8418.99834 7.29391e-18
8421.95324 6.97096e-18
8424.91823 6.54532e-18
8427.87314 6.20578e-18
8430.82805 5.99534e-18
8433.78295 5.93580e-18
8436.74794 6.14936e-18
8439.70284 6.58497e-18
8442.65775 7.18922e-18
8445.61265 7.60962e-18
8448.57765 7.69474e-18
8451.53255 7.69402e-18
8454.48745 7.45718e-18
8457.44236 7.02748e-18
8460.39726 6.63114e-18
8463.36226 6.31691e-18
8466.31716 6.07260e-18
8469.27206 6.00503e-18
8472.22697 6.20821e-18
8475.19196 6.62189e-18
8478.14687 7.17151e-18
8481.10177 7.65932e-18
8484.05667 7.76207e-18
8487.02167 7.72242e-18
8489.97657 7.57511e-18
8492.93147 7.21364e-18
8495.88638 6.81499e-18
8498.84128 6.52545e-18
8501.80627 6.47626e-18
8504.76118 6.45558e-18
8507.71609 6.39746e-18
8510.67099 6.74169e-18
8513.63598 7.13432e-18
8516.59088 7.34785e-18
8519.54579 7.74582e-18
8522.50069 7.91421e-18
8525.46569 7.85473e-18
8528.42059 7.49890e-18
8531.37549 7.06953e-18
8534.33040 6.74326e-18
8537.28530 6.45397e-18
8540.25029 6.24337e-18
8543.20520 6.36542e-18
8546.16010 6.67028e-18
8549.11501 6.85708e-18
8552.08000 7.30819e-18
8555.03491 7.68082e-18
8557.98981 7.94054e-18
8560.94471 7.87603e-18
8563.90971 7.56257e-18
8566.86461 7.20669e-18
8569.81951 6.89279e-18
8572.77442 6.61245e-18
8575.73941 6.33445e-18
8578.69431 6.22260e-18
8581.64922 6.36858e-18
8584.60412 6.63578e-18
8587.55903 7.08209e-18
8590.52402 7.61116e-18
8593.47892 8.20815e-18
8596.43383 8.18519e-18
8599.38873 7.81039e-18
8602.35373 7.50088e-18
8605.30863 7.07028e-18
8608.26353 6.62287e-18
8611.21844 6.43610e-18
8614.18343 6.36152e-18
8617.13833 6.24522e-18
8620.09324 6.23540e-18
8623.04815 6.54106e-18
8626.00305 7.00885e-18
8628.96804 7.31674e-18
8631.92295 7.62640e-18
8634.87785 7.70177e-18
8637.83275 7.54618e-18
8640.79774 7.26176e-18
8643.75265 6.83088e-18
8646.70755 6.40332e-18
8649.66246 6.08208e-18
8652.62745 5.88065e-18
8655.58235 5.88253e-18
8658.53726 6.01183e-18
8661.49216 6.36942e-18
8664.44707 6.83968e-18
8667.41206 7.24936e-18
8670.36697 7.49818e-18
8673.32187 7.41657e-18
8676.27677 7.18800e-18
8679.24176 6.75889e-18
8682.19667 6.43462e-18
8685.15157 6.30686e-18
8688.10648 5.89936e-18
8691.07147 5.60661e-18
8694.02637 5.59853e-18
8696.98128 5.73839e-18
8699.93619 5.83302e-18
8702.90117 6.26205e-18
8705.85608 6.66191e-18
8708.81099 6.85505e-18
8711.76589 6.97368e-18
8714.73088 7.05012e-18
8717.68578 6.76181e-18
8720.64069 6.18482e-18
8723.59559 5.77773e-18
8726.55050 5.47475e-18
8729.51549 5.26914e-18
8732.47040 5.13174e-18
8735.42530 5.22108e-18
8738.38020 5.39298e-18
8741.34519 5.60129e-18
8744.30010 6.04257e-18
8747.25501 6.44467e-18
8750.20991 6.54640e-18
8753.17490 6.51244e-18
8756.12980 6.26307e-18
8759.08471 5.86074e-18
8762.03961 5.60607e-18
8764.99452 5.30449e-18
8767.95951 5.15191e-18
8770.91441 5.01634e-18
8773.86932 5.00150e-18
8776.82423 5.08606e-18
8779.78922 5.41973e-18
8782.74412 5.65320e-18
8785.69902 5.95995e-18
8788.65393 6.29386e-18
8791.61892 6.24120e-18
8794.57382 6.04225e-18
8797.52873 5.78431e-18
8800.48363 5.32161e-18
8803.44862 4.98828e-18
8806.40353 4.98946e-18
8809.35844 4.77145e-18
8812.31334 4.59411e-18
8815.26824 4.61199e-18
8818.23323 4.81965e-18
8821.18814 5.02031e-18
8824.14305 5.37996e-18
8827.09795 5.76647e-18
8830.06294 5.93150e-18
8833.01784 5.98703e-18
8835.97275 5.61133e-18
8838.92765 5.34842e-18
8841.89264 5.23539e-18
8844.84755 4.85793e-18
8847.80245 4.58854e-18
8850.75736 4.51038e-18
8853.71227 4.49855e-18
8856.67726 4.47174e-18
8859.63216 4.53266e-18
8862.58706 4.82862e-18
8865.54197 5.14874e-18
8868.50696 5.34630e-18
8871.46186 5.48489e-18
8874.41677 5.37645e-18
8877.37167 5.20378e-18
8880.33666 4.94787e-18
8883.29157 4.69516e-18
8886.24647 4.49393e-18
8889.20138 4.33693e-18
8892.15628 4.26196e-18
8895.12127 4.23429e-18
8898.07618 4.33089e-18
8901.03109 4.45939e-18
8903.98599 4.57158e-18
8906.95098 4.94283e-18
8909.90588 5.17242e-18
8912.86079 5.14140e-18
8915.81569 5.05950e-18
8918.78068 4.63989e-18
8921.73559 4.25130e-18
8924.69049 4.14585e-18
8927.64540 3.97962e-18
8930.60030 3.76889e-18
8933.56530 3.73499e-18
8936.52020 3.77471e-18
8939.47510 3.91201e-18
8942.43001 4.25178e-18
8945.39500 4.54410e-18
8948.34990 4.73807e-18
8951.30481 4.87921e-18
8954.25972 4.62657e-18
8957.22470 4.26848e-18
8960.17961 4.06016e-18
8963.13451 3.83309e-18
8966.08942 3.57858e-18
8969.05441 3.51151e-18
8972.00931 3.62458e-18
8974.96422 3.67004e-18
8977.91913 3.75336e-18
8980.87403 4.02451e-18
8983.83902 4.20581e-18
8986.79392 4.46001e-18
8989.74883 4.32751e-18
8992.70373 4.04742e-18
8995.66872 3.96914e-18
8998.62363 0.00000e+00
