# wavelength flux
3379.20112 2.71131e-18
3382.15602 1.35524e-18
3385.11093 1.84977e-18
3388.06583 3.51984e-18
3391.02074 4.30603e-18
3393.97564 2.89515e-18
3396.93055 2.60792e-18
3399.88545 3.29233e-18
3402.85045 4.15971e-18
3405.80535 4.91413e-18
3408.76026 5.56044e-18
3411.71516 5.04811e-18
3414.67006 4.78012e-18
3417.62497 4.74051e-18
3420.57987 3.83410e-18
3423.53478 3.98767e-18
3426.49977 4.21435e-18
3429.45467 4.67107e-18
3432.40958 5.55351e-18
3435.36448 6.04017e-18
3438.31939 5.65042e-18
3441.27429 5.25754e-18
3444.22920 5.69755e-18
3447.18410 6.04890e-18
3450.14910 5.58320e-18
3453.10400 6.16092e-18
3456.05890 6.00646e-18
3459.01381 4.84665e-18
3461.96871 4.85513e-18
3464.92362 5.64641e-18
3467.87853 5.69860e-18
3470.83343 6.44838e-18
3473.79842 6.75739e-18
3476.75332 6.44998e-18
3479.70823 5.94437e-18
3482.66313 6.37144e-18
3485.61804 7.14695e-18
3488.57294 6.78556e-18
3491.52785 6.03691e-18
3494.49284 6.59787e-18
3497.44774 7.44725e-18
3500.40265 7.57466e-18
3503.35755 7.81900e-18
3506.31246 7.61338e-18
3509.26736 6.71454e-18
3512.22227 6.51413e-18
3515.17717 6.84787e-18
3518.14216 7.08717e-18
3521.09707 6.77740e-18
3524.05197 6.29316e-18
3527.00688 6.28016e-18
3529.96178 7.00877e-18
3532.91669 7.44261e-18
3535.87160 7.42169e-18
3538.82650 6.95165e-18
3541.79149 7.12388e-18
3544.74639 7.48662e-18
3547.70130 7.35857e-18
3550.65620 7.68793e-18
3553.61111 7.93709e-18
3556.56601 7.82012e-18
3559.52092 7.27113e-18
3562.47582 7.41029e-18
3565.44081 7.49559e-18
3568.39572 7.85291e-18
3571.35063 7.96977e-18
3574.30553 7.99062e-18
3577.26044 7.83927e-18
3580.21534 7.77184e-18
3583.17024 7.64333e-18
3586.12515 7.59755e-18
3589.09014 7.56368e-18
3592.04504 7.65892e-18
3594.99995 8.01813e-18
3597.95485 7.80509e-18
3600.90976 7.51717e-18
3603.86466 8.10088e-18
3606.81957 8.48179e-18
3609.77447 8.61272e-18
3612.73946 8.43637e-18
3615.69437 8.58560e-18
3618.64927 8.87000e-18
3621.60418 8.89441e-18
3624.55908 8.68023e-18
3627.51399 8.47961e-18
3630.46889 8.67415e-18
3633.42380 8.95437e-18
3636.38879 8.91725e-18
3639.34370 9.15892e-18
3642.29860 9.27895e-18
3645.25351 9.21678e-18
3648.20841 9.07606e-18
3651.16331 8.81438e-18
3654.11822 9.42339e-18
3657.07312 9.68591e-18
3660.03811 9.63201e-18
3662.99302 9.62878e-18
3665.94792 9.61982e-18
3668.90283 9.61188e-18
3671.85773 9.60692e-18
3674.81264 9.40697e-18
3677.76754 9.35631e-18
3680.72245 9.48343e-18
3683.68744 9.51398e-18
3686.64235 9.92307e-18
3689.59725 1.01699e-17
3692.55215 9.98008e-18
3695.50706 1.01322e-17
3698.46196 1.03830e-17
3701.41687 1.04271e-17
3704.37178 1.04855e-17
3707.33677 1.01367e-17
3710.29167 1.01734e-17
3713.24657 1.04130e-17
3716.20148 1.00549e-17
3719.15638 1.01256e-17
3722.11129 1.05874e-17
3725.06619 1.04327e-17
3728.02110 1.04325e-17
3730.98609 1.11128e-17
3733.94099 1.08179e-17
3736.89590 1.04191e-17
3739.85080 1.04748e-17
3742.80571 1.05038e-17
3745.76061 1.05327e-17
3748.71552 1.05617e-17
3751.67042 1.05907e-17
3754.63541 1.06196e-17
3757.59032 1.06486e-17
3760.54522 1.06775e-17
3763.50013 1.07065e-17
3766.45503 1.07354e-17
3769.40994 1.07644e-17
3772.36485 1.07933e-17
3775.31975 1.08223e-17
3778.28474 1.08512e-17
3781.23964 1.08802e-17
3784.19455 1.07677e-17
3787.14945 1.09475e-17
3790.10436 1.09347e-17
3793.05926 1.08588e-17
3796.01417 1.08543e-17
3798.96907 1.09350e-17
3801.93406 1.11181e-17
3804.88897 1.10319e-17
3807.84388 1.10276e-17
3810.79878 1.12174e-17
3813.75369 1.15584e-17
3816.70859 1.14866e-17
3819.66349 1.13351e-17
3822.62848 1.16625e-17
3825.58339 1.18245e-17
3828.53829 1.16657e-17
3831.49320 1.13988e-17
3834.44810 1.14714e-17
3837.40301 1.17102e-17
3840.35791 1.16020e-17
3843.31282 1.14816e-17
3846.26772 1.15441e-17
3849.23271 1.18124e-17
3852.18762 1.21828e-17
3855.14252 1.20135e-17
3858.09743 1.17995e-17
3861.05233 1.21091e-17
3864.00724 1.22770e-17
3866.96214 1.19284e-17
3869.92713 1.19960e-17
3872.88204 1.24679e-17
3875.83695 1.25674e-17
3878.79185 1.24493e-17
3881.74676 1.26049e-17
3884.70166 1.27190e-17
3887.65656 1.24984e-17
3890.61147 1.22777e-17
3893.57646 1.25147e-17
3896.53136 1.28931e-17
3899.48627 1.30921e-17
3902.44117 1.29155e-17
3905.39608 1.30249e-17
3908.35098 1.31862e-17
3911.30589 1.30725e-17
3914.26079 1.34333e-17
3917.22578 1.32521e-17
3920.18069 1.29238e-17
3923.13560 1.29829e-17
3926.09050 1.33941e-17
3929.04540 1.35248e-17
3932.00031 1.36891e-17
3934.95521 1.39771e-17
3937.91012 1.39375e-17
3940.87511 1.39781e-17
3943.83002 1.40358e-17
3946.78492 1.40665e-17
3949.73982 1.39364e-17
3952.69473 1.38504e-17
3955.64963 1.37724e-17
3958.60454 1.35516e-17
3961.55944 1.33563e-17
3964.52443 1.36075e-17
3967.47934 1.38507e-17
3970.43424 1.38187e-17
3973.38915 1.38509e-17
3976.34405 1.38860e-17
3979.29896 1.37583e-17
3982.25386 1.38078e-17
3985.20877 1.40654e-17
3988.17376 1.40423e-17
3991.12866 1.40641e-17
3994.08357 1.39527e-17
3997.03847 1.39069e-17
3999.99338 1.38591e-17
4002.94828 1.37666e-17
4005.90319 1.39185e-17
4008.85810 1.42734e-17
4011.82308 1.42020e-17
4014.77799 1.41217e-17
4017.73289 1.42570e-17
4020.68780 1.45027e-17
4023.64270 1.44654e-17
4026.59761 1.41800e-17
4029.55251 1.40997e-17
4032.50742 1.40219e-17
4035.47241 1.40444e-17
4038.42731 1.41407e-17
4041.38222 1.40904e-17
4044.33713 1.42165e-17
4047.29203 1.43419e-17
4050.24694 1.42822e-17
4053.20184 1.43663e-17
4056.15674 1.44155e-17
4059.12173 1.41822e-17
4062.07664 1.39062e-17
4065.03154 1.39750e-17
4067.98645 1.42919e-17
4070.94135 1.41201e-17
4073.89626 1.40064e-17
4076.85116 1.42037e-17
4079.80607 1.41478e-17
4082.77106 1.40868e-17
4085.72596 1.40518e-17
4088.68087 1.40381e-17
4091.63577 1.38791e-17
4094.59068 1.38784e-17
4097.54558 1.40066e-17
4100.50049 1.38551e-17
4103.46548 1.35948e-17
4106.42038 1.37725e-17
4109.37529 1.40082e-17
4112.33019 1.40913e-17
4115.28510 1.41727e-17
4118.24000 1.39375e-17
4121.19491 1.39108e-17
4124.14981 1.40315e-17
4127.11481 1.39808e-17
4130.06971 1.39529e-17
4133.02461 1.40156e-17
4135.97952 1.40551e-17
4138.93443 1.40193e-17
4141.88933 1.39007e-17
4144.84423 1.38949e-17
4147.79914 1.37705e-17
4150.76413 1.36465e-17
4153.71904 1.38186e-17
4156.67394 1.40174e-17
4159.62884 1.39506e-17
4162.58375 1.40443e-17
4165.53866 1.41095e-17
4168.49356 1.39280e-17
4171.44846 1.37386e-17
4174.41345 1.39114e-17
4177.36836 1.41366e-17
4180.32326 1.40222e-17
4183.27817 1.39076e-17
4186.23307 1.41863e-17
4189.18798 1.41759e-17
4192.14289 1.40206e-17
4195.09779 1.38662e-17
4198.06278 1.40430e-17
4201.01768 1.43018e-17
4203.97259 1.42681e-17
4206.92749 1.40908e-17
4209.88240 1.39850e-17
4212.83731 1.40376e-17
4215.79221 1.42147e-17
4218.74711 1.42033e-17
4221.71210 1.41899e-17
4224.66701 1.42819e-17
4227.62191 1.43085e-17
4230.57682 1.42766e-17
4233.53172 1.41592e-17
4236.48663 1.41179e-17
4239.44153 1.43767e-17
4242.39644 1.44062e-17
4245.36143 1.41694e-17
4248.31634 1.40327e-17
4251.27124 1.38599e-17
4254.22614 1.36899e-17
4257.18105 1.39032e-17
4260.13595 1.42656e-17
4263.09086 1.41791e-17
4266.04576 1.41170e-17
4269.01075 1.42102e-17
4271.96566 1.42589e-17
4274.92057 1.42051e-17
4277.87547 1.40849e-17
4280.83037 1.43709e-17
4283.78528 1.46083e-17
4286.74018 1.45735e-17
4289.69509 1.43950e-17
4292.66008 1.43486e-17
4295.61498 1.44057e-17
4298.56989 1.42854e-17
4301.52480 1.44385e-17
4304.47970 1.44365e-17
4307.43460 1.43491e-17
4310.38951 1.46922e-17
4313.34441 1.46950e-17
4316.30940 1.45666e-17
4319.26431 1.45525e-17
4322.21922 1.46013e-17
4325.17412 1.45768e-17
4328.12902 1.45742e-17
4331.08393 1.46743e-17
4334.03884 1.46949e-17
4336.99374 1.46697e-17
4339.95873 1.48149e-17
4342.91363 1.47881e-17
4345.86854 1.46595e-17
4348.82344 1.45183e-17
4351.77835 1.44587e-17
4354.73325 1.44938e-17
4357.68816 1.45060e-17
4360.65315 1.46027e-17
4363.60805 1.45896e-17
4366.56296 1.43713e-17
4369.51786 1.43677e-17
4372.47277 1.44386e-17
4375.42767 1.44046e-17
4378.38258 1.44144e-17
4381.33749 1.42867e-17
4384.30248 1.43162e-17
4387.25738 1.43457e-17
4390.21228 1.43752e-17
4393.16719 1.44047e-17
4396.12209 1.44341e-17
4399.07700 1.44636e-17
4402.03190 1.44930e-17
4404.98681 1.45224e-17
4407.94171 1.45518e-17
4410.90670 1.45812e-17
4413.86161 1.46106e-17
4416.81651 1.46400e-17
4419.77142 1.46694e-17
4422.72632 1.48595e-17
4425.68123 1.47354e-17
4428.63613 1.46207e-17
4431.60113 1.47073e-17
4434.55603 1.49186e-17
4437.51093 1.49908e-17
4440.46584 1.48963e-17
4443.42075 1.49712e-17
4446.37565 1.48388e-17
4449.33055 1.47282e-17
4452.28546 1.49865e-17
4455.25045 1.49407e-17
4458.20536 1.48040e-17
4461.16026 1.47863e-17
4464.11516 1.46885e-17
4467.07007 1.48586e-17
4470.02498 1.50020e-17
4472.97988 1.48638e-17
4475.93478 1.49279e-17
4478.89977 1.51679e-17
4481.85468 1.51339e-17
4484.80958 1.51007e-17
4487.76449 1.52252e-17
4490.71940 1.53296e-17
4493.67430 1.54572e-17
4496.62920 1.55377e-17
4499.58411 1.56441e-17
4502.54910 1.56859e-17
4505.50400 1.57709e-17
4508.45891 1.58768e-17
4511.41381 1.60464e-17
4514.36872 1.61207e-17
4517.32362 1.61098e-17
4520.27853 1.61284e-17
4523.23343 1.61631e-17
4526.19842 1.63231e-17
4529.15333 1.63248e-17
4532.10823 1.61730e-17
4535.06314 1.61094e-17
4538.01804 1.62938e-17
4540.97295 1.63675e-17
4543.92785 1.62398e-17
4546.88276 1.62483e-17
4549.84775 1.62312e-17
4552.80266 1.62036e-17
4555.75756 1.63442e-17
4558.71246 1.65363e-17
4561.66737 1.64783e-17
4564.62227 1.63746e-17
4567.57718 1.65080e-17
4570.53208 1.65515e-17
4573.49707 1.64683e-17
4576.45198 1.64099e-17
4579.40689 1.62599e-17
4582.36179 1.62920e-17
4585.31669 1.63550e-17
4588.27160 1.63460e-17
4591.22650 1.63573e-17
4594.18141 1.63050e-17
4597.14640 1.62739e-17
4600.10131 1.62440e-17
4603.05621 1.63352e-17
4606.01111 1.64615e-17
4608.96602 1.63025e-17
4611.92093 1.60391e-17
4614.87583 1.60005e-17
4617.83073 1.61588e-17
4620.79572 1.62500e-17
4623.75063 1.60226e-17
4626.70554 1.58856e-17
4629.66044 1.60461e-17
4632.61534 1.61231e-17
4635.57025 1.60927e-17
4638.52516 1.60222e-17
4641.48006 1.58827e-17
4644.44505 1.58674e-17
4647.39995 1.59295e-17
4650.35486 1.60008e-17
4653.30976 1.58744e-17
4656.26467 1.55930e-17
4659.21957 1.56237e-17
4662.17448 1.59083e-17
4665.12939 1.59202e-17
4668.09437 1.56289e-17
4671.04928 1.55424e-17
4674.00418 1.56033e-17
4676.95909 1.54972e-17
4679.91399 1.53648e-17
4682.86890 1.53805e-17
4685.82380 1.53010e-17
4688.77871 1.52159e-17
4691.74370 1.53185e-17
4694.69860 1.53022e-17
4697.65351 1.52208e-17
4700.60841 1.52574e-17
4703.56332 1.51810e-17
4706.51822 1.49434e-17
4709.47313 1.47892e-17
4712.42803 1.48485e-17
4715.39302 1.49392e-17
4718.34793 1.48197e-17
4721.30284 1.46168e-17
4724.25774 1.46925e-17
4727.21264 1.49179e-17
4730.16755 1.49078e-17
4733.12245 1.48067e-17
4736.07736 1.47035e-17
4739.04235 1.46982e-17
4741.99725 1.48555e-17
4744.95216 1.48722e-17
4747.90707 1.47191e-17
4750.86197 1.46299e-17
4753.81687 1.47759e-17
4756.77178 1.48668e-17
4759.72668 1.47601e-17
4762.69168 1.46927e-17
4765.64658 1.47683e-17
4768.60148 1.49597e-17
4771.55639 1.50049e-17
4774.51130 1.49289e-17
4777.46620 1.49567e-17
4780.42110 1.51535e-17
4783.37601 1.51448e-17
4786.34100 1.50947e-17
4789.29590 1.50835e-17
4792.25081 1.50670e-17
4795.20572 1.51878e-17
4798.16062 1.53086e-17
4801.11552 1.52366e-17
4804.07043 1.51011e-17
4807.03542 1.50157e-17
4809.99032 1.51471e-17
4812.94523 1.52627e-17
4815.90013 1.52681e-17
4818.85504 1.52397e-17
4821.80994 1.50978e-17
4824.76485 1.51391e-17
4827.71975 1.53106e-17
4830.67466 1.54090e-17
4833.63965 1.54544e-17
4836.59455 1.53849e-17
4839.54946 1.52681e-17
4842.50436 1.52356e-17
4845.45927 1.52901e-17
4848.41417 1.52640e-17
4851.36908 1.53038e-17
4854.33407 1.54644e-17
4857.28898 1.56806e-17
4860.24388 1.58077e-17
4863.19878 1.57222e-17
4866.15369 1.56645e-17
4869.10859 1.56862e-17
4872.06350 1.58221e-17
4875.01840 1.59788e-17
4877.98339 1.60140e-17
4880.93830 1.60373e-17
4883.89320 1.59486e-17
4886.84811 1.59709e-17
4889.80301 1.59932e-17
4892.75792 1.60155e-17
4895.71282 1.60377e-17
4898.66773 1.60600e-17
4901.63272 1.60823e-17
4904.58763 1.61045e-17
4907.54253 1.61268e-17
4910.49743 1.61490e-17
4913.45234 1.61712e-17
4916.40725 1.61935e-17
4919.36215 1.62157e-17
4922.31705 1.62379e-17
4925.28204 1.63905e-17
4928.23695 1.64563e-17
4931.19186 1.63661e-17
4934.14676 1.63495e-17
4937.10166 1.63211e-17
4940.05657 1.63346e-17
4943.01148 1.63197e-17
4945.96638 1.63850e-17
4948.93137 1.65766e-17
4951.88627 1.65899e-17
4954.84118 1.64800e-17
4957.79608 1.63210e-17
4960.75099 1.62698e-17
4963.70590 1.63800e-17
4966.66080 1.64427e-17
4969.61570 1.64460e-17
4972.58069 1.65277e-17
4975.53560 1.66253e-17
4978.49050 1.67795e-17
4981.44541 1.68560e-17
4984.40031 1.68643e-17
4987.35522 1.68727e-17
4990.31012 1.68811e-17
4993.26503 1.68895e-17
4996.23002 1.68978e-17
4999.18492 1.69062e-17
5002.13983 1.69146e-17
5005.09473 1.69229e-17
5008.04964 1.69313e-17
5011.00454 1.69397e-17
5013.95945 1.69480e-17
5016.91435 1.69564e-17
5019.87934 1.69647e-17
5022.83425 1.69861e-17
5025.78916 1.69627e-17
5028.74406 1.70855e-17
5031.69896 1.71278e-17
5034.65387 1.71701e-17
5037.60877 1.72125e-17
5040.56368 1.72548e-17
5043.52867 1.72971e-17
5046.48357 1.73393e-17
5049.43848 1.73816e-17
5052.39339 1.74239e-17
5055.34829 1.74661e-17
5058.30319 1.75084e-17
5061.25810 1.75506e-17
5064.21300 1.75928e-17
5067.17800 1.76351e-17
5070.13290 1.76773e-17
5073.08781 1.77546e-17
5076.04271 1.80120e-17
5078.99761 1.80588e-17
5081.95252 1.80619e-17
5084.90743 1.81108e-17
5087.86233 1.81247e-17
5090.82732 1.81499e-17
5093.78222 1.82314e-17
5096.73713 1.83326e-17
5099.69204 1.83270e-17
5102.64694 1.82524e-17
5105.60184 1.84680e-17
5108.55675 1.85736e-17
5111.52174 1.85179e-17
5114.47664 1.85349e-17
5117.43155 1.86285e-17
5120.38645 1.86355e-17
5123.34136 1.87504e-17
5126.29626 1.88740e-17
5129.25117 1.89448e-17
5132.20607 1.90079e-17
5135.17107 1.90478e-17
5138.12597 1.92194e-17
5141.08087 1.93626e-17
5144.03578 1.92874e-17
5146.99068 1.91937e-17
5149.94559 1.93071e-17
5152.90049 1.93943e-17
5155.85540 1.94887e-17
5158.81030 1.95846e-17
5161.77530 1.96115e-17
5164.73020 1.96613e-17
5167.68510 1.98415e-17
5170.64001 1.99514e-17
5173.59491 1.98940e-17
5176.54982 1.99597e-17
5179.50472 2.00333e-17
5182.46971 2.00495e-17
5185.42462 2.02611e-17
5188.37952 2.04232e-17
5191.33443 2.03806e-17
5194.28934 2.03974e-17
5197.24424 2.04432e-17
5200.19914 2.04216e-17
5203.15405 2.03971e-17
5206.11904 2.04205e-17
5209.07395 2.04683e-17
5212.02885 2.05474e-17
5214.98375 2.06427e-17
5217.93866 2.07828e-17
5220.89357 2.09444e-17
5223.84847 2.10348e-17
5226.80337 2.11141e-17
5229.76836 2.10527e-17
5232.72327 2.09420e-17
5235.67818 2.10918e-17
5238.63308 2.12509e-17
5241.58798 2.12902e-17
5244.54289 2.13480e-17
5247.49780 2.14257e-17
5250.45270 2.13823e-17
5253.41769 2.12830e-17
5256.37259 2.11887e-17
5259.32750 2.12707e-17
5262.28240 2.14184e-17
5265.23731 2.16158e-17
5268.19222 2.17305e-17
5271.14712 2.16906e-17
5274.10202 2.16729e-17
5277.06701 2.18031e-17
5280.02192 2.18186e-17
5282.97682 2.16524e-17
5285.93173 2.17351e-17
5288.88663 2.19691e-17
5291.84154 2.19850e-17
5294.79644 2.16867e-17
5297.75135 2.15710e-17
5300.71634 2.17882e-17
5303.67125 2.18301e-17
5306.62615 2.18265e-17
5309.58105 2.18357e-17
5312.53596 2.19582e-17
5315.49086 2.19527e-17
5318.44577 2.17537e-17
5321.40067 2.17318e-17
5324.36566 2.18619e-17
5327.32057 2.19391e-17
5330.27548 2.19348e-17
5333.23038 2.18213e-17
5336.18528 2.17833e-17
5339.14019 2.17552e-17
5342.09509 2.17368e-17
5345.05000 2.16056e-17
5348.01499 2.14974e-17
5350.96989 2.16083e-17
5353.92480 2.17239e-17
5356.87970 2.16424e-17
5359.83461 2.15724e-17
5362.78951 2.15928e-17
5365.74442 2.15121e-17
5368.70941 2.13758e-17
5371.66431 2.13397e-17
5374.61922 2.14672e-17
5377.57413 2.13784e-17
5380.52903 2.11591e-17
5383.48393 2.11151e-17
5386.43884 2.11042e-17
5389.39375 2.10730e-17
5392.34865 2.09335e-17
5395.31364 2.08472e-17
5398.26854 2.07652e-17
5401.22345 2.08641e-17
5404.17836 2.10214e-17
5407.13326 2.09106e-17
5410.08816 2.08524e-17
5413.04307 2.07386e-17
5415.99798 2.03378e-17
5418.96296 2.03146e-17
5421.91787 2.05708e-17
5424.87277 2.05126e-17
5427.82768 2.03741e-17
5430.78258 2.03348e-17
5433.73749 2.03631e-17
5436.69240 2.03263e-17
5439.65739 2.01097e-17
5442.61229 1.99657e-17
5445.56719 1.98900e-17
5448.52210 1.98664e-17
5451.47700 1.98464e-17
5454.43191 1.96399e-17
5457.38681 1.94794e-17
5460.34172 1.94087e-17
5463.30671 1.93270e-17
5466.26161 1.92168e-17
5469.21652 1.90535e-17
5472.17142 1.88935e-17
5475.12633 1.87066e-17
5478.08123 1.86584e-17
5481.03614 1.87650e-17
5483.99104 1.87210e-17
5486.95604 1.84937e-17
5489.91094 1.83506e-17
5492.86584 1.83665e-17
5495.82075 1.83292e-17
5498.77566 1.82107e-17
5501.73056 1.82310e-17
5504.68546 1.81781e-17
5507.64037 1.79162e-17
5510.60536 1.77110e-17
5513.56027 1.76499e-17
5516.51517 1.76989e-17
5519.47007 1.77909e-17
5522.42498 1.77448e-17
5525.37989 1.75272e-17
5528.33479 1.74283e-17
5531.28969 1.74619e-17
5534.25468 1.73701e-17
5537.20959 1.72640e-17
5540.16449 1.71150e-17
5543.11940 1.70863e-17
5546.07431 1.70770e-17
5549.02921 1.70225e-17
5551.98411 1.68778e-17
5554.93902 1.66685e-17
5557.90401 1.66571e-17
5560.85891 1.67201e-17
5563.81382 1.65093e-17
5566.76872 1.62218e-17
5569.72363 1.62611e-17
5572.67854 1.64085e-17
5575.63344 1.63739e-17
5578.58834 1.63103e-17
5581.55333 1.62287e-17
5584.50824 1.60195e-17
5587.46314 1.59235e-17
5590.41805 1.59277e-17
5593.37295 1.58417e-17
5596.32786 1.58061e-17
5599.28276 1.58049e-17
5602.23767 1.57940e-17
5605.20266 1.58438e-17
5608.15757 1.57750e-17
5611.11247 1.56551e-17
5614.06737 1.57264e-17
5617.02228 1.57567e-17
5619.97718 1.56724e-17
5622.93209 1.55863e-17
5625.88699 1.55447e-17
5628.85198 1.55882e-17
5631.80689 1.55543e-17
5634.76180 1.55418e-17
5637.71670 1.55698e-17
5640.67160 1.54050e-17
5643.62651 1.52936e-17
5646.58141 1.54135e-17
5649.53632 1.55494e-17
5652.50131 1.55969e-17
5655.45621 1.55217e-17
5658.41112 1.53529e-17
5661.36602 1.53369e-17
5664.32093 1.54246e-17
5667.27584 1.54242e-17
5670.23074 1.53506e-17
5673.19573 1.52619e-17
5676.15063 1.52990e-17
5679.10554 1.53689e-17
5682.06045 1.52040e-17
5685.01535 1.50079e-17
5687.97025 1.50604e-17
5690.92516 1.52174e-17
5693.88007 1.51806e-17
5696.83497 1.50570e-17
5699.79996 1.50168e-17
5702.75486 1.49577e-17
5705.70977 1.49357e-17
5708.66467 1.49771e-17
5711.61958 1.49724e-17
5714.57448 1.49694e-17
5717.52939 1.51487e-17
5720.48430 1.51954e-17
5723.44928 1.50419e-17
5726.40419 1.50189e-17
5729.35909 1.51063e-17
5732.31400 1.50763e-17
5735.26890 1.50571e-17
5738.22381 1.50364e-17
5741.17872 1.48920e-17
5744.14370 1.49198e-17
5747.09861 1.50704e-17
5750.05351 1.51344e-17
5753.00842 1.51712e-17
5755.96332 1.51334e-17
5758.91823 1.50469e-17
5761.87313 1.49361e-17
5764.82804 1.48059e-17
5767.79303 1.48013e-17
5770.74793 1.48519e-17
5773.70284 1.47789e-17
5776.65775 1.47864e-17
5779.61265 1.48215e-17
5782.56755 1.47710e-17
5785.52246 1.47156e-17
5788.47736 1.46403e-17
5791.44236 1.46762e-17
5794.39726 1.46287e-17
5797.35216 1.45581e-17
5800.30707 1.46345e-17
5803.26198 1.45371e-17
5806.21688 1.43707e-17
5809.17178 1.44134e-17
5812.12669 1.45150e-17
5815.09168 1.44733e-17
5818.04659 1.44196e-17
5821.00149 1.44056e-17
5823.95639 1.44063e-17
5826.91130 1.44208e-17
5829.86620 1.42603e-17
5832.82111 1.40750e-17
5835.77601 1.41388e-17
5838.74100 1.42024e-17
5841.69591 1.41356e-17
5844.65081 1.42023e-17
5847.60572 1.42334e-17
5850.56063 1.40362e-17
5853.51553 1.38883e-17
5856.47043 1.38825e-17
5859.42534 1.39226e-17
5862.39033 1.39220e-17
5865.34523 1.38553e-17
5868.30014 1.37965e-17
5871.25504 1.37296e-17
5874.20995 1.36203e-17
5877.16485 1.34980e-17
5880.11976 1.34495e-17
5883.07466 1.34468e-17
5886.03965 1.33344e-17
5888.99456 1.31750e-17
5891.94946 1.30739e-17
5894.90437 1.31065e-17
5897.85927 1.32072e-17
5900.81418 1.32496e-17
5903.76908 1.31462e-17
5906.72399 1.30768e-17
5909.68898 1.30890e-17
5912.64389 1.30437e-17
5915.59879 1.31021e-17
5918.55369 1.31509e-17
5921.50860 1.30845e-17
5924.46350 1.29782e-17
5927.41841 1.29246e-17
5930.37331 1.29028e-17
5933.33830 1.28572e-17
5936.29321 1.29515e-17
5939.24811 1.30789e-17
5942.20302 1.30182e-17
5945.15792 1.29026e-17
5948.11283 1.29043e-17
5951.06773 1.29271e-17
5954.02264 1.28562e-17
5956.98763 1.28022e-17
5959.94254 1.28173e-17
5962.89744 1.28456e-17
5965.85234 1.28017e-17
5968.80725 1.27560e-17
5971.76216 1.27427e-17
5974.71706 1.27181e-17
5977.67196 1.26608e-17
5980.63695 1.27063e-17
5983.59186 1.27154e-17
5986.54677 1.26957e-17
5989.50167 1.27305e-17
5992.45657 1.27429e-17
5995.41148 1.25866e-17
5998.36639 1.23837e-17
6001.33137 1.25365e-17
6004.28628 1.26956e-17
6007.24118 1.26278e-17
6010.19609 1.25756e-17
6013.15099 1.26603e-17
6016.10590 1.26952e-17
6019.06081 1.26529e-17
6022.01571 1.25967e-17
6024.97061 1.24984e-17
6027.93560 1.24820e-17
6030.89051 1.26031e-17
6033.84541 1.27029e-17
6036.80032 1.26220e-17
6039.75522 1.24114e-17
6042.71013 1.23829e-17
6045.66503 1.24922e-17
6048.63002 1.25270e-17
6051.58493 1.25055e-17
6054.53983 1.24391e-17
6057.49474 1.24106e-17
6060.44964 1.24037e-17
6063.40455 1.23061e-17
6066.35945 1.22486e-17
6069.31436 1.22023e-17
6072.27935 1.21356e-17
6075.23425 1.21462e-17
6078.18916 1.22116e-17
6081.14407 1.22066e-17
6084.09897 1.21938e-17
6087.05387 1.22344e-17
6090.00878 1.21653e-17
6092.96368 1.19931e-17
6095.92868 1.18856e-17
6098.88358 1.18793e-17
6101.83848 1.19658e-17
6104.79339 1.20275e-17
6107.74830 1.19490e-17
6110.70320 1.18790e-17
6113.65810 1.19038e-17
6116.61301 1.19565e-17
6119.57800 1.20228e-17
6122.53291 1.20322e-17
6125.48781 1.19547e-17
6128.44271 1.19604e-17
6131.39762 1.19969e-17
6134.35252 1.19230e-17
6137.30743 1.19258e-17
6140.26234 1.20495e-17
6143.22732 1.20472e-17
6146.18223 1.19218e-17
6149.13713 1.19348e-17
6152.09204 1.20270e-17
6155.04695 1.20332e-17
6158.00185 1.20881e-17
6160.95675 1.22381e-17
6163.91166 1.22723e-17
6166.87665 1.21699e-17
6169.83155 1.21251e-17
6172.78646 1.22081e-17
6175.74136 1.22816e-17
6178.69627 1.22706e-17
6181.65117 1.22889e-17
6184.60608 1.23026e-17
6187.56098 1.23375e-17
6190.52598 1.24413e-17
6193.48088 1.25369e-17
6196.43578 1.25216e-17
6199.39069 1.25265e-17
6202.34559 1.25455e-17
6205.30050 1.25694e-17
6208.25540 1.25784e-17
6211.21031 1.26171e-17
6214.17530 1.27048e-17
6217.13020 1.28257e-17
6220.08511 1.28570e-17
6223.04001 1.27965e-17
6225.99492 1.28472e-17
6228.94982 1.30440e-17
6231.90473 1.31620e-17
6234.85963 1.30603e-17
6237.82462 1.29679e-17
6240.77953 1.30447e-17
6243.73443 1.31152e-17
6246.68934 1.31472e-17
6249.64425 1.31114e-17
6252.59915 1.30078e-17
6255.55405 1.29856e-17
6258.50896 1.30816e-17
6261.47395 1.31053e-17
6264.42886 1.30796e-17
6267.38376 1.31545e-17
6270.33866 1.32372e-17
6273.29357 1.31685e-17
6276.24848 1.30026e-17
6279.20338 1.29252e-17
6282.15828 1.29898e-17
6285.12327 1.31225e-17
6288.07818 1.32380e-17
6291.03309 1.32387e-17
6293.98799 1.32389e-17
6296.94289 1.32948e-17
6299.89780 1.33456e-17
6302.85270 1.35119e-17
6305.81769 1.36467e-17
6308.77260 1.35677e-17
6311.72750 1.34663e-17
6314.68241 1.35986e-17
6317.63731 1.37355e-17
6320.59222 1.37323e-17
6323.54713 1.36793e-17
6326.50203 1.36185e-17
6329.46702 1.37194e-17
6332.42192 1.38568e-17
6335.37683 1.38404e-17
6338.33173 1.37670e-17
6341.28664 1.36186e-17
6344.24154 1.35497e-17
6347.19645 1.37115e-17
6350.15135 1.38785e-17
6353.10626 1.38790e-17
6356.07125 1.38644e-17
6359.02615 1.39341e-17
6361.98106 1.39864e-17
6364.93596 1.39252e-17
6367.89087 1.37571e-17
6370.84577 1.37561e-17
6373.80068 1.38913e-17
6376.76567 1.40250e-17
6379.72057 1.40912e-17
6382.67548 1.39460e-17
6385.63039 1.38881e-17
6388.58529 1.39833e-17
6391.54019 1.39780e-17
6394.49510 1.40378e-17
6397.45000 1.41656e-17
6400.41500 1.41106e-17
6403.36990 1.39887e-17
6406.32480 1.39673e-17
6409.27971 1.40229e-17
6412.23461 1.40491e-17
6415.18952 1.39458e-17
6418.14442 1.38351e-17
6421.09933 1.38310e-17
6424.06432 1.38393e-17
6427.01923 1.38225e-17
6429.97413 1.38351e-17
6432.92904 1.38671e-17
6435.88394 1.39032e-17
6438.83884 1.39490e-17
6441.79375 1.39078e-17
6444.74866 1.37892e-17
6447.71364 1.37218e-17
6450.66855 1.36769e-17
6453.62345 1.36526e-17
6456.57836 1.35810e-17
6459.53327 1.35704e-17
6462.48817 1.36856e-17
6465.44307 1.37830e-17
6468.39798 1.38100e-17
6471.36297 1.36852e-17
6474.31787 1.34942e-17
6477.27278 1.34615e-17
6480.22768 1.34928e-17
6483.18259 1.35187e-17
6486.13749 1.35011e-17
6489.09240 1.34225e-17
6492.04731 1.33288e-17
6495.01230 1.33657e-17
6497.96720 1.35399e-17
6500.92210 1.34588e-17
6503.87701 1.33595e-17
6506.83191 1.34615e-17
6509.78682 1.35220e-17
6512.74172 1.34059e-17
6515.69663 1.32402e-17
6518.66162 1.32686e-17
6521.61652 1.33402e-17
6524.57143 1.33045e-17
6527.52633 1.33648e-17
6530.48124 1.33243e-17
6533.43614 1.31692e-17
6536.39105 1.31905e-17
6539.34595 1.32524e-17
6542.31095 1.32847e-17
6545.26585 1.32814e-17
6548.22075 1.32389e-17
6551.17566 1.31456e-17
6554.13057 1.29981e-17
6557.08547 1.29523e-17
6560.04037 1.28923e-17
6562.99528 1.27844e-17
6565.96027 1.28163e-17
6568.91518 1.29648e-17
6571.87008 1.30032e-17
6574.82498 1.29503e-17
6577.77989 1.29066e-17
6580.73480 1.28492e-17
6583.68970 1.28014e-17
6586.64460 1.27003e-17
6589.60959 1.26620e-17
6592.56450 1.26236e-17
6595.51941 1.25853e-17
6598.47431 1.25469e-17
6601.42921 1.25086e-17
6604.38412 1.24703e-17
6607.33902 1.24319e-17
6610.29393 1.23936e-17
6613.25892 1.23553e-17
6616.21382 1.23170e-17
6619.16873 1.22787e-17
6622.12363 1.22404e-17
6625.07854 1.22021e-17
6628.03345 1.21639e-17
6630.98835 1.21256e-17
6633.95334 1.20873e-17
6636.90824 1.20490e-17
6639.86315 1.20108e-17
6642.81805 1.19725e-17
6645.77296 1.19343e-17
6648.72786 1.18960e-17
6651.68277 1.18578e-17
6654.63767 1.17609e-17
6657.60266 1.16755e-17
6660.55757 1.16791e-17
6663.51248 1.17858e-17
6666.46738 1.18850e-17
6669.42228 1.18449e-17
6672.37719 1.17138e-17
6675.33209 1.16282e-17
6678.28700 1.16375e-17
6681.25199 1.16924e-17
6684.20689 1.16668e-17
6687.16180 1.15872e-17
6690.11670 1.14989e-17
6693.07161 1.14123e-17
6696.02651 1.14568e-17
6698.98142 1.14773e-17
6701.93632 1.14677e-17
6704.90132 1.14567e-17
6707.85622 1.13996e-17
6710.81112 1.13962e-17
6713.76603 1.14154e-17
6716.72093 1.13189e-17
6719.67584 1.12568e-17
6722.63075 1.13271e-17
6725.58565 1.13199e-17
6728.55064 1.12599e-17
6731.50554 1.12525e-17
6734.46045 1.11619e-17
6737.41536 1.10757e-17
6740.37026 1.10175e-17
6743.32516 1.09359e-17
6746.28007 1.09072e-17
6749.23498 1.09115e-17
6752.19996 1.09216e-17
6755.15487 1.09298e-17
6758.10977 1.09605e-17
6761.06468 1.09353e-17
6764.01959 1.08357e-17
6766.97449 1.07618e-17
6769.92939 1.08093e-17
6772.88430 1.08961e-17
6775.84929 1.08727e-17
6778.80419 1.07937e-17
6781.75910 1.07702e-17
6784.71400 1.08045e-17
6787.66891 1.07666e-17
6790.62381 1.06821e-17
6793.57872 1.05992e-17
6796.53363 1.04764e-17
6799.49861 1.03598e-17
6802.45352 1.02570e-17
6805.40842 1.02521e-17
6808.36333 1.04112e-17
6811.31823 1.04250e-17
6814.27314 1.02310e-17
6817.22804 1.01575e-17
6820.18295 1.01960e-17
6823.14794 1.01689e-17
6826.10284 1.01056e-17
6829.05775 1.00971e-17
6832.01265 1.01794e-17
6834.96756 1.01656e-17
6837.92246 1.01046e-17
6840.87737 1.00650e-17
6843.83227 9.98498e-18
6846.79727 9.95854e-18
6849.75217 9.93210e-18
6852.70707 9.90566e-18
6855.66198 9.87923e-18
6858.61689 9.85280e-18
6861.57179 9.82638e-18
6864.52669 9.79995e-18
6867.48160 9.77353e-18
6870.44659 9.74712e-18
6873.40150 9.72071e-18
6876.35640 9.69429e-18
6879.31130 9.66789e-18
6882.26621 9.64149e-18
6885.22111 9.61509e-18
6888.17602 9.58869e-18
6891.13092 9.56230e-18
6894.09591 9.53591e-18
6897.05082 9.50953e-18
6900.00572 9.48314e-18
6902.96063 9.45676e-18
6905.91554 9.43039e-18
6908.87044 9.40402e-18
6911.82534 9.37764e-18
6914.78025 9.35128e-18
6917.74524 9.32492e-18
6920.70014 9.29856e-18
6923.65505 9.27220e-18
6926.60995 9.24585e-18
6929.56486 9.21950e-18
6932.51977 9.19315e-18
6935.47467 9.16681e-18
6938.43966 9.13719e-18
6941.39456 9.10488e-18
6944.34947 9.09511e-18
6947.30437 9.15017e-18
6950.25928 9.15203e-18
6953.21418 9.04802e-18
6956.16909 8.92874e-18
6959.12399 8.88982e-18
6962.08898 8.92435e-18
6965.04389 8.93733e-18
6967.99880 8.91427e-18
6970.95370 8.88320e-18
6973.90860 8.87749e-18
6976.86351 8.80704e-18
6979.81841 8.77731e-18
6982.77332 8.77454e-18
6985.73831 8.67068e-18
6988.69321 8.69446e-18
6991.64812 8.78353e-18
6994.60302 8.74132e-18
6997.55793 8.73812e-18
7000.51283 8.76949e-18
7003.46774 8.71806e-18
7006.42264 8.65768e-18
7009.38764 8.58967e-18
7012.34254 8.56811e-18
7015.29745 8.52801e-18
7018.25235 8.47296e-18
7021.20725 8.52647e-18
7024.16216 8.51741e-18
7027.11707 8.47585e-18
7030.07197 8.46302e-18
7033.03696 8.38893e-18
7035.99186 8.31385e-18
7038.94677 8.31040e-18
7041.90168 8.26746e-18
7044.85658 8.16274e-18
7047.81148 8.14469e-18
7050.76639 8.16937e-18
7053.72130 8.13233e-18
7056.68628 8.13122e-18
7059.64119 8.08012e-18
7062.59609 8.02028e-18
7065.55100 8.04751e-18
7068.50590 7.98973e-18
7071.46081 7.87860e-18
7074.41571 7.81209e-18
7077.37062 7.86117e-18
7080.33561 7.94482e-18
7083.29051 7.99280e-18
7086.24542 7.95386e-18
7089.20032 7.83610e-18
7092.15523 7.78929e-18
7095.11013 7.75690e-18
7098.06504 7.71706e-18
7101.01995 7.70258e-18
7103.98493 7.59064e-18
7106.93984 7.59048e-18
7109.89474 7.66465e-18
7112.84965 7.69796e-18
7115.80455 7.75075e-18
7118.75946 7.68381e-18
7121.71436 7.54916e-18
7124.66927 7.50014e-18
7127.63426 7.48176e-18
7130.58916 7.47623e-18
7133.54407 7.51769e-18
7136.49898 7.54604e-18
7139.45388 7.57095e-18
7142.40878 7.65084e-18
7145.36369 7.56302e-18
7148.31859 7.29817e-18
7151.28359 7.13213e-18
7154.23849 7.05631e-18
7157.19339 7.05944e-18
7160.14830 7.10871e-18
7163.10320 7.08673e-18
7166.05811 7.02607e-18
7169.01301 7.03362e-18
7171.96792 7.04317e-18
7174.93291 6.98504e-18
7177.88782 6.88150e-18
7180.84272 6.74618e-18
7183.79762 6.69352e-18
7186.75253 6.64996e-18
7189.70743 6.54568e-18
7192.66234 6.51405e-18
7195.62733 6.59842e-18
7198.58223 6.67351e-18
7201.53714 6.66190e-18
7204.49204 6.57621e-18
7207.44695 6.45762e-18
7210.40186 6.43853e-18
7213.35676 6.46935e-18
7216.31166 6.45658e-18
7219.26657 6.46195e-18
7222.23156 6.37927e-18
7225.18646 6.30637e-18
7228.14137 6.44409e-18
7231.09627 6.54872e-18
7234.05118 6.36574e-18
7237.00608 6.26442e-18
7239.96099 6.31433e-18
7242.92598 6.31852e-18
7245.88089 6.25513e-18
7248.83579 6.30951e-18
7251.79069 6.35940e-18
7254.74560 6.22316e-18
7257.70050 6.11887e-18
7260.65541 6.13811e-18
7263.61031 6.15687e-18
7266.57530 6.20289e-18
7269.53021 6.26203e-18
7272.48511 6.15098e-18
7275.44002 6.10632e-18
7278.39492 6.15545e-18
7281.34983 6.15361e-18
7284.30473 6.13349e-18
7287.25964 6.13219e-18
7290.22463 6.15026e-18
7293.17953 6.13669e-18
7296.13444 6.08140e-18
7299.08934 6.00703e-18
7302.04425 5.89409e-18
7304.99915 5.80658e-18
7307.95406 5.76999e-18
7310.90896 5.77040e-18
7313.87395 5.79439e-18
7316.82886 5.89800e-18
7319.78377 5.88871e-18
7322.73867 5.87593e-18
7325.69357 5.94405e-18
7328.64848 5.93573e-18
7331.60339 5.86434e-18
7334.55829 5.77268e-18
7337.52328 5.70397e-18
7340.47818 5.73089e-18
7343.43309 5.74003e-18
7346.38800 5.68670e-18
7349.34290 5.63858e-18
7352.29780 5.59863e-18
7355.25271 5.60864e-18
7358.20761 5.60337e-18
7361.17260 5.57558e-18
7364.12751 5.63530e-18
7367.08241 5.69348e-18
7370.03732 5.70864e-18
7372.99222 5.70202e-18
7375.94713 5.60346e-18
7378.90204 5.57143e-18
7381.85694 5.68999e-18
7384.82193 5.69070e-18
7387.77683 5.62138e-18
7390.73174 5.62872e-18
7393.68664 5.67213e-18
7396.64155 5.60693e-18
7399.59645 5.47436e-18
7402.55136 5.45668e-18
7405.50626 5.49216e-18
7408.47125 5.48728e-18
7411.42616 5.45306e-18
7414.38106 5.47040e-18
7417.33597 5.53269e-18
7420.29087 5.52640e-18
7423.24578 5.48467e-18
7426.20068 5.48824e-18
7429.15559 5.50007e-18
7432.12058 5.43830e-18
7435.07548 5.44434e-18
7438.03039 5.44907e-18
7440.98530 5.35352e-18
7443.94020 5.34302e-18
7446.89510 5.34582e-18
7449.85001 5.36993e-18
7452.80491 5.46114e-18
7455.76991 5.45755e-18
7458.72481 5.33841e-18
7461.67971 5.21918e-18
7464.63462 5.17455e-18
7467.58952 5.16064e-18
7470.54443 5.08510e-18
7473.49933 5.08129e-18
7476.45424 5.25138e-18
7479.41923 5.26821e-18
7482.37414 5.22452e-18
7485.32904 5.25215e-18
7488.28395 5.24809e-18
7491.23885 5.22641e-18
7494.19375 5.18562e-18
7497.14866 5.10374e-18
7500.11365 5.04521e-18
7503.06855 5.02592e-18
7506.02346 5.07762e-18
7508.97836 5.19387e-18
7511.93327 5.22627e-18
7514.88818 5.20354e-18
7517.84308 5.23054e-18
7520.79798 5.23128e-18
7523.76297 5.15774e-18
7526.71788 5.06548e-18
7529.67278 5.00063e-18
7532.62769 5.02669e-18
7535.58259 5.06012e-18
7538.53750 5.03476e-18
7541.49240 5.06515e-18
7544.44731 5.11128e-18
7547.40221 5.17875e-18
7550.36720 5.17828e-18
7553.32211 5.17780e-18
7556.27701 5.17732e-18
7559.23192 5.17684e-18
7562.18682 5.17636e-18
7565.14173 5.17588e-18
7568.09663 5.17541e-18
7571.06162 5.17493e-18
7574.01653 5.17445e-18
7576.97143 5.17397e-18
7579.92634 5.17349e-18
7582.88124 5.17301e-18
7585.83615 5.17253e-18
7588.79105 5.17205e-18
7591.74596 5.17157e-18
7594.71095 5.17109e-18
7597.66586 5.17062e-18
7600.62076 5.17014e-18
7603.57566 5.16966e-18
7606.53057 5.16918e-18
7609.48548 5.16870e-18
7612.44038 5.16822e-18
7615.39528 5.16774e-18
7618.36027 5.16726e-18
7621.31518 5.16678e-18
7624.27009 5.16630e-18
7627.22499 5.16582e-18
7630.17989 5.16534e-18
7633.13480 5.16485e-18
7636.08970 5.16437e-18
7639.04461 5.16389e-18
7642.00960 5.16341e-18
7644.96450 5.16293e-18
7647.91941 5.16245e-18
7650.87432 5.16197e-18
7653.82922 5.16149e-18
7656.78412 5.16101e-18
7659.73903 5.16053e-18
7662.69393 5.16005e-18
7665.65892 5.15957e-18
7668.61383 5.15909e-18
7671.56873 5.15860e-18
7674.52364 5.15812e-18
7677.47854 5.15764e-18
7680.43345 5.15716e-18
7683.38836 5.03193e-18
7686.34326 4.93192e-18
7689.30825 4.86122e-18
7692.26315 4.86617e-18
7695.21806 4.87533e-18
7698.17296 4.90601e-18
7701.12787 4.94954e-18
7704.08277 5.09128e-18
7707.03768 5.22702e-18
7709.99258 5.30887e-18
7712.95757 5.32925e-18
7715.91248 5.32477e-18
7718.86739 5.31344e-18
7721.82229 5.23929e-18
7724.77719 5.18788e-18
7727.73210 5.18121e-18
7730.68700 5.10175e-18
7733.64191 5.05729e-18
7736.60690 5.09449e-18
7739.56180 5.07768e-18
7742.51671 5.14201e-18
7745.47161 5.25389e-18
7748.42652 5.31197e-18
7751.38142 5.30912e-18
7754.33633 5.27579e-18
7757.29123 5.27482e-18
7760.25623 5.18249e-18
7763.21113 5.07659e-18
7766.16603 5.11095e-18
7769.12094 5.14221e-18
7772.07584 5.10790e-18
7775.03075 5.10791e-18
7777.98565 5.27923e-18
7780.94056 5.35704e-18
7783.90555 5.30480e-18
7786.86045 5.25593e-18
7789.81536 5.16471e-18
7792.77027 5.10652e-18
7795.72517 5.13382e-18
7798.68007 5.19631e-18
7801.63498 5.25869e-18
7804.58989 5.27196e-18
7807.55487 5.28746e-18
7810.50978 5.40418e-18
7813.46468 5.50218e-18
7816.41959 5.43901e-18
7819.37450 5.30754e-18
7822.32940 5.24629e-18
7825.28430 5.18270e-18
7828.23921 5.12853e-18
7831.20420 5.08720e-18
7834.15910 5.10309e-18
7837.11401 5.20671e-18
7840.06891 5.30394e-18
7843.02382 5.36851e-18
7845.97872 5.40011e-18
7848.93363 5.39413e-18
7851.89862 5.40580e-18
7854.85352 5.32538e-18
7857.80843 5.19942e-18
7860.76333 5.13329e-18
7863.71824 5.10194e-18
7866.67314 5.17264e-18
7869.62805 5.24622e-18
7872.58295 5.24514e-18
7875.54794 5.31788e-18
7878.50285 5.40774e-18
7881.45775 5.39475e-18
7884.41266 5.34585e-18
7887.36756 5.29134e-18
7890.32247 5.22523e-18
7893.27737 5.13865e-18
7896.23228 5.16224e-18
7899.19727 5.16807e-18
7902.15218 5.20041e-18
7905.10708 5.36524e-18
7908.06198 5.51096e-18
7911.01689 5.62965e-18
7913.97180 5.67432e-18
7916.92670 5.57897e-18
7919.88160 5.49593e-18
7922.84659 5.42650e-18
7925.80150 5.36302e-18
7928.75641 5.35306e-18
7931.71131 5.36202e-18
7934.66621 5.44497e-18
7937.62112 5.57443e-18
7940.57602 5.63105e-18
7943.53093 5.65397e-18
7946.49592 5.74356e-18
7949.45082 5.72276e-18
7952.40573 5.53450e-18
7955.36064 5.43768e-18
7958.31554 5.46105e-18
7961.27045 5.45038e-18
7964.22535 5.43001e-18
7967.18025 5.48805e-18
7970.14524 5.56836e-18
7973.10015 5.71982e-18
7976.05505 5.79500e-18
7979.00996 5.71643e-18
7981.96486 5.64677e-18
7984.91977 5.63609e-18
7987.87468 5.59095e-18
7990.82958 5.51344e-18
7993.79457 5.56460e-18
7996.74947 5.72365e-18
7999.70438 5.76283e-18
8002.65928 5.77387e-18
8005.61419 5.80726e-18
8008.56909 5.85908e-18
8011.52400 5.92575e-18
8014.47890 5.89293e-18
8017.44389 5.84983e-18
8020.39880 5.79283e-18
8023.35370 5.73633e-18
8026.30861 5.71397e-18
8029.26351 5.72385e-18
8032.21842 5.81454e-18
8035.17332 5.89882e-18
8038.12823 6.02749e-18
8041.09322 6.15149e-18
8044.04812 6.19336e-18
8047.00303 6.16109e-18
8049.95793 6.07489e-18
8052.91284 6.00300e-18
8055.86774 5.91091e-18
8058.82265 5.75723e-18
8061.77755 5.75382e-18
8064.74255 5.95074e-18
8067.69745 6.07374e-18
8070.65236 6.06467e-18
8073.60726 6.06118e-18
8076.56216 6.10803e-18
8079.51707 6.15932e-18
8082.47198 6.11096e-18
8085.42688 5.95857e-18
8088.39187 5.83305e-18
8091.34677 5.77410e-18
8094.30168 5.82488e-18
8097.25659 5.88433e-18
8100.21149 5.86742e-18
8103.16639 5.91682e-18
8106.12130 6.09055e-18
8109.07620 6.18979e-18
8112.04119 6.07406e-18
8114.99610 6.01301e-18
8117.95100 5.94304e-18
8120.90591 5.78363e-18
8123.86082 5.73622e-18
8126.81572 5.75186e-18
8129.77062 5.76985e-18
8132.72553 5.86828e-18
8135.69052 5.96544e-18
8138.64542 5.92010e-18
8141.60033 5.86681e-18
8144.55523 5.91351e-18
8147.51014 5.87110e-18
8150.46504 5.79543e-18
8153.41995 5.76806e-18
8156.37486 5.75361e-18
8159.33984 5.70135e-18
8162.29475 5.71981e-18
8165.24965 5.74096e-18
8168.20456 5.79981e-18
8171.15946 5.96404e-18
8174.11437 6.05119e-18
8177.06927 5.94111e-18
8180.02418 5.81297e-18
8182.98917 5.76379e-18
8185.94407 5.68188e-18
8188.89898 5.75590e-18
8191.85389 5.76345e-18
8194.80879 5.70681e-18
8197.76369 5.67734e-18
8200.71860 5.82228e-18
8203.68359 6.05143e-18
8206.63849 6.15645e-18
8209.59340 6.16939e-18
8212.54831 6.18306e-18
8215.50321 6.18943e-18
8218.45811 6.18016e-18
8221.41302 6.15796e-18
8224.36793 6.07431e-18
8227.33291 6.02235e-18
8230.28782 5.95076e-18
8233.24273 5.97908e-18
8236.19763 6.10504e-18
8239.15253 6.20242e-18
8242.10744 6.28022e-18
8245.06234 6.34913e-18
8248.01725 6.33984e-18
8250.98224 6.31133e-18
8253.93714 6.32866e-18
8256.89205 6.25864e-18
8259.84695 6.14019e-18
8262.80186 6.14053e-18
8265.75677 6.28171e-18
8268.71167 6.34657e-18
8271.66658 6.35033e-18
8274.63156 6.45057e-18
8277.58647 6.54343e-18
8280.54137 6.52217e-18
8283.49628 6.57156e-18
8286.45118 6.63962e-18
8289.40609 6.50524e-18
8292.36099 6.36124e-18
8295.31590 6.30832e-18
8298.28089 6.30933e-18
8301.23580 6.44520e-18
8304.19070 6.60036e-18
8307.14560 6.66453e-18
8310.10051 6.78538e-18
8313.05541 6.94006e-18
8316.01032 6.96295e-18
8318.96522 6.82960e-18
8321.93022 6.69120e-18
8324.88512 6.63388e-18
8327.84002 6.56816e-18
8330.79493 6.50257e-18
8333.74984 6.48641e-18
8336.70474 6.55479e-18
8339.65964 6.75078e-18
8342.61455 6.87920e-18
8345.57954 6.92237e-18
8348.53444 7.00653e-18
8351.48935 6.98990e-18
8354.44426 6.94111e-18
8357.39916 6.92876e-18
8360.35406 6.83912e-18
8363.30897 6.80873e-18
8366.26387 6.90609e-18
8369.22887 6.97950e-18
8372.18377 6.96859e-18
8375.13867 7.02836e-18
8378.09358 7.17168e-18
8381.04848 7.26585e-18
8384.00339 7.28460e-18
8386.95830 7.21052e-18
8389.92328 7.02451e-18
8392.87819 6.88360e-18
8395.83309 6.87020e-18
8398.78800 6.87036e-18
8401.74290 6.87932e-18
8404.69781 6.91367e-18
8407.65272 6.96697e-18
8410.60762 7.14632e-18
8413.57261 7.28805e-18
8416.52751 7.34535e-18
8419.48242 7.38411e-18
8422.43733 7.36164e-18
8425.39223 7.30486e-18
8428.34713 7.25492e-18
8431.30204 7.23594e-18
8434.25694 7.16562e-18
8437.22193 7.04045e-18
8440.17684 7.08171e-18
8443.13174 7.23323e-18
8446.08665 7.42082e-18
8449.04155 7.51752e-18
8451.99646 7.55183e-18
8454.95137 7.53378e-18
8457.90627 7.44292e-18
8460.86117 7.28744e-18
8463.82616 7.22215e-18
8466.78107 7.26745e-18
8469.73597 7.24885e-18
8472.69088 7.18896e-18
8475.64578 7.28435e-18
8478.60069 7.55678e-18
8481.55559 7.69166e-18
8484.51050 7.61358e-18
8487.47549 7.67428e-18
8490.43040 7.78062e-18
8493.38530 7.67976e-18
8496.34020 7.50261e-18
8499.29511 7.44164e-18
8502.25001 7.42649e-18
8505.20492 7.43059e-18
8508.16991 7.46065e-18
8511.12481 7.40551e-18
8514.07972 7.33259e-18
8517.03463 7.42116e-18
8519.98953 7.65493e-18
8522.94443 7.69539e-18
8525.89934 7.75412e-18
8528.85424 7.74487e-18
8531.81923 7.66713e-18
8534.77414 7.61310e-18
8537.72905 7.48267e-18
8540.68395 7.32610e-18
8543.63885 7.30206e-18
8546.59376 7.31570e-18
8549.54867 7.29692e-18
8552.50357 7.40094e-18
8555.46856 7.46296e-18
8558.42346 7.53632e-18
8561.37837 7.66368e-18
8564.33327 7.75506e-18
8567.28818 7.76625e-18
8570.24309 7.66513e-18
8573.19799 7.47652e-18
8576.15290 7.33292e-18
8579.11788 7.29115e-18
8582.07279 7.28966e-18
8585.02769 7.29239e-18
8587.98260 7.30911e-18
8590.93750 7.38699e-18
8593.89241 7.53298e-18
8596.84731 7.65136e-18
8599.80222 7.58570e-18
8602.76721 7.54996e-18
8605.72212 7.63789e-18
8608.67702 7.58785e-18
8611.63192 7.39954e-18
8614.58683 7.20805e-18
8617.54173 7.11148e-18
8620.49664 7.13801e-18
8623.45154 7.15362e-18
8626.41653 7.18586e-18
8629.37144 7.26579e-18
8632.32634 7.37232e-18
8635.28125 7.32004e-18
8638.23616 7.26634e-18
8641.19106 7.26829e-18
8644.14596 7.25791e-18
8647.10087 7.15609e-18
8650.06586 7.01392e-18
8653.02076 6.89513e-18
8655.97567 6.76437e-18
8658.93058 6.65434e-18
8661.88548 6.60858e-18
8664.84038 6.71352e-18
8667.79529 6.88586e-18
8670.75020 6.98881e-18
8673.71519 7.18899e-18
8676.67009 7.35632e-18
8679.62499 7.21366e-18
8682.57990 6.89864e-18
8685.53480 6.72241e-18
8688.48971 6.69890e-18
8691.44462 6.57132e-18
8694.39952 6.40808e-18
8697.36451 6.46444e-18
8700.31941 6.56233e-18
8703.27432 6.57566e-18
8706.22922 6.55525e-18
8709.18413 6.76739e-18
8712.13903 6.98065e-18
8715.09394 6.89782e-18
8718.05893 6.66850e-18
8721.01383 6.51655e-18
8723.96874 6.47642e-18
8726.92365 6.48368e-18
8729.87855 6.44888e-18
8732.83345 6.34175e-18
8735.78836 6.29409e-18
8738.74326 6.37225e-18
8741.70825 6.45441e-18
8744.66316 6.58267e-18
8747.61806 6.65621e-18
8750.57297 6.58774e-18
8753.52787 6.65386e-18
8756.48278 6.75652e-18
8759.43769 6.69469e-18
8762.39259 6.51849e-18
8765.35758 6.41678e-18
8768.31248 6.45361e-18
8771.26739 6.49377e-18
8774.22229 6.53082e-18
8777.17720 6.47938e-18
8780.13210 6.42030e-18
8783.08701 6.47841e-18
8786.04191 6.49149e-18
8788.99682 6.52393e-18
8791.96181 6.60477e-18
8794.91672 6.54951e-18
8797.87162 6.54483e-18
8800.82652 6.65137e-18
8803.78143 6.57958e-18
8806.73633 6.39797e-18
8809.69124 6.28024e-18
8812.65623 6.18910e-18
8815.61113 6.24353e-18
8818.56604 6.40766e-18
8821.52095 6.48784e-18
8824.47585 6.39640e-18
8827.43075 6.21270e-18
8830.38566 6.24203e-18
8833.34056 6.43361e-18
8836.30555 6.49555e-18
8839.26046 6.45243e-18
8842.21537 6.39843e-18
8845.17027 6.24153e-18
8848.12517 6.07396e-18
8851.08008 6.14443e-18
8854.03499 6.24823e-18
8856.98989 6.14940e-18
8859.95488 6.06536e-18
8862.90978 6.07470e-18
8865.86469 6.11631e-18
8868.81959 6.17941e-18
8871.77450 6.30960e-18
8874.72941 6.44560e-18
8877.68431 6.47075e-18
8880.63922 6.42472e-18
8883.60420 6.26531e-18
8886.55911 6.01707e-18
8889.51401 5.94745e-18
8892.46892 5.88404e-18
8895.42382 5.89267e-18
8898.37873 5.95649e-18
8901.33363 5.96711e-18
8904.28854 6.05260e-18
8907.25353 6.20931e-18
8910.20844 6.30853e-18
8913.16334 6.29464e-18
8916.11824 6.13878e-18
8919.07315 5.92827e-18
8922.02805 5.87720e-18
8924.98296 5.95170e-18
8927.93786 5.89760e-18
8930.90285 5.82163e-18
8933.85776 5.85695e-18
8936.81266 5.85748e-18
8939.76757 5.78280e-18
8942.72248 5.77603e-18
8945.67738 6.03721e-18
8948.63228 6.24299e-18
8951.58719 6.18030e-18
8954.55218 6.10444e-18
8957.50708 6.01401e-18
8960.46199 5.81070e-18
8963.41690 5.66844e-18
8966.37180 5.64243e-18
8969.32670 5.50911e-18
8972.28161 5.52384e-18
8975.23652 5.69729e-18
8978.20151 5.77831e-18
8981.15641 5.87757e-18
8984.11131 5.84710e-18
8987.06622 5.75327e-18
8990.02112 5.77045e-18
8992.97603 5.69273e-18
8995.93094 5.55130e-18
8998.88584 5.50381e-18
