# wavelength flux
3347.90737 2.25483e-18
3352.00187 2.62794e-18
3356.09638 2.67541e-18
3360.19089 2.74638e-18
3364.28540 2.81559e-18
3368.37991 2.81122e-18
3372.47442 2.88524e-18
3376.56893 2.90889e-18
3380.66345 3.07163e-18
3384.75796 3.20654e-18
3388.85246 3.33047e-18
3392.94697 3.31247e-18
3397.04148 3.20943e-18
3401.13599 3.29729e-18
3405.23050 3.40955e-18
3409.32501 3.45114e-18
3413.41952 3.54712e-18
3417.51403 3.71277e-18
3421.60854 3.70244e-18
3425.70305 3.68776e-18
3429.79756 3.87507e-18
3433.89207 3.95176e-18
3437.98659 3.99441e-18
3442.08110 3.92492e-18
3446.17560 3.98271e-18
3450.27011 4.25618e-18
3454.35454 4.27614e-18
3458.44905 4.35676e-18
3462.54356 4.26375e-18
3466.63807 4.33796e-18
3470.73258 4.46826e-18
3474.82709 4.39967e-18
3478.92160 4.48136e-18
3483.01611 4.50303e-18
3487.11062 4.55504e-18
3491.20513 4.59266e-18
3495.29964 4.65749e-18
3499.39415 4.70081e-18
3503.48866 4.76699e-18
3507.58317 4.83459e-18
3511.67768 4.90457e-18
3515.77219 4.95131e-18
3519.86670 4.85287e-18
3523.96121 4.83122e-18
3528.05572 4.92789e-18
3532.15023 4.96299e-18
3536.24474 5.10821e-18
3540.33925 5.05696e-18
3544.43376 5.10388e-18
3548.52827 5.01512e-18
3552.62278 5.00242e-18
3556.70720 5.06584e-18
3560.80171 5.06031e-18
3564.89622 5.09493e-18
3568.99073 5.11925e-18
3573.08524 5.21937e-18
3577.17976 5.27807e-18
3581.27427 5.28906e-18
3585.36877 5.49198e-18
3589.46328 5.47708e-18
3593.55779 5.36703e-18
3597.65230 5.44489e-18
3601.74681 5.47100e-18
3605.84132 5.49540e-18
3609.93584 5.44595e-18
3614.03035 5.62340e-18
3618.12486 5.77824e-18
3622.21936 5.87204e-18
3626.31387 5.84847e-18
3630.40838 5.98412e-18
3634.50289 6.25720e-18
3638.59740 6.23689e-18
3642.69191 6.30005e-18
3646.78643 6.40064e-18
3650.88094 6.45733e-18
3654.97545 6.44821e-18
3659.06995 6.55716e-18
3663.15438 6.68717e-18
3667.24889 6.76263e-18
3671.34340 6.82947e-18
3675.43791 6.79988e-18
3679.53242 6.88963e-18
3683.62693 6.85752e-18
3687.72144 6.93759e-18
3691.81595 7.02203e-18
3695.91046 7.06053e-18
3700.00497 7.12302e-18
3704.09948 7.22581e-18
3708.19399 7.16740e-18
3712.28850 7.25052e-18
3716.38301 7.24749e-18
3720.47752 7.16117e-18
3724.57203 7.25184e-18
3728.66654 7.37942e-18
3732.76105 7.42020e-18
3736.85556 7.41149e-18
3740.95007 7.41707e-18
3745.04458 7.41897e-18
3749.13909 7.42088e-18
3753.23360 7.42281e-18
3757.32811 7.42474e-18
3761.42262 7.42669e-18
3765.50704 7.42864e-18
3769.60155 7.43060e-18
3773.69606 7.43258e-18
3777.79057 7.43456e-18
3781.88508 7.43655e-18
3785.97959 7.49202e-18
3790.07411 7.53116e-18
3794.16862 7.51586e-18
3798.26312 7.52285e-18
3802.35763 7.65162e-18
3806.45214 7.69912e-18
3810.54665 7.82828e-18
3814.64116 7.87211e-18
3818.73567 7.89091e-18
3822.83018 7.98001e-18
3826.92469 8.14648e-18
3831.01921 8.38175e-18
3835.11371 8.42695e-18
3839.20822 8.42489e-18
3843.30273 8.53844e-18
3847.39724 8.80046e-18
3851.49176 9.00507e-18
3855.58626 9.00751e-18
3859.68077 9.02526e-18
3863.77528 9.10196e-18
3867.86979 9.22627e-18
3871.95422 9.32215e-18
3876.04873 9.40634e-18
3880.14324 9.37169e-18
3884.23775 9.58746e-18
3888.33226 9.51146e-18
3892.42677 9.52986e-18
3896.52128 9.64834e-18
3900.61579 9.86298e-18
3904.71030 1.00325e-17
3908.80481 1.00049e-17
3912.89932 1.00926e-17
3916.99383 1.02486e-17
3921.08834 1.02790e-17
3925.18285 1.02610e-17
3929.27736 1.03367e-17
3933.37187 1.03852e-17
3937.46638 1.04538e-17
3941.56089 1.05901e-17
3945.65540 1.07841e-17
3949.74991 1.09551e-17
3953.84442 1.10524e-17
3957.93893 1.10052e-17
3962.03344 1.09679e-17
3966.12795 1.09676e-17
3970.22246 1.10113e-17
3974.31697 1.10869e-17
3978.40139 1.11935e-17
3982.49590 1.11752e-17
3986.59041 1.12689e-17
3990.68493 1.13231e-17
3994.77943 1.11679e-17
3998.87394 1.11174e-17
4002.96845 1.11909e-17
4007.06296 1.13722e-17
4011.15747 1.13686e-17
4015.25198 1.12609e-17
4019.34649 1.13061e-17
4023.44101 1.12978e-17
4027.53552 1.11657e-17
4031.63002 1.12798e-17
4035.72453 1.12718e-17
4039.81904 1.12263e-17
4043.91355 1.12445e-17
4048.00806 1.12684e-17
4052.10257 1.13128e-17
4056.19709 1.12906e-17
4060.29160 1.13970e-17
4064.38611 1.13320e-17
4068.48061 1.13938e-17
4072.57512 1.13766e-17
4076.66963 1.13817e-17
4080.75406 1.13849e-17
4084.84857 1.13742e-17
4088.94308 1.14742e-17
4093.03759 1.14757e-17
4097.13210 1.14056e-17
4101.22661 1.13610e-17
4105.32112 1.12940e-17
4109.41563 1.12443e-17
4113.51014 1.13128e-17
4117.60465 1.12253e-17
4121.69916 1.10996e-17
4125.79367 1.10902e-17
4129.88818 1.11753e-17
4133.98269 1.11662e-17
4138.07720 1.11170e-17
4142.17171 1.12017e-17
4146.26622 1.12469e-17
4150.36073 1.11794e-17
4154.45524 1.12069e-17
4158.54975 1.12373e-17
4162.64426 1.10842e-17
4166.73877 1.11089e-17
4170.83328 1.11169e-17
4174.92779 1.12477e-17
4179.02230 1.12715e-17
4183.10673 1.12915e-17
4187.21132 1.13484e-17
4191.29575 1.13870e-17
4195.39025 1.14428e-17
4199.48477 1.13695e-17
4203.57927 1.13933e-17
4207.67378 1.15092e-17
4211.76829 1.15457e-17
4215.86280 1.17753e-17
4219.95732 1.17067e-17
4224.05182 1.16825e-17
4228.14634 1.16941e-17
4232.24084 1.16673e-17
4236.33536 1.17960e-17
4240.42986 1.19854e-17
4244.52437 1.20037e-17
4248.61888 1.19714e-17
4252.71339 1.19392e-17
4256.80790 1.18661e-17
4260.90241 1.17861e-17
4264.99693 1.18164e-17
4269.09143 1.19236e-17
4273.18595 1.19135e-17
4277.28045 1.19753e-17
4281.37496 1.19966e-17
4285.46947 1.20401e-17
4289.56398 1.20532e-17
4293.64841 1.21174e-17
4297.74292 1.21905e-17
4301.83743 1.21988e-17
4305.93194 1.21742e-17
4310.02645 1.21196e-17
4314.12096 1.21731e-17
4318.21547 1.22287e-17
4322.30998 1.21256e-17
4326.40449 1.21842e-17
4330.49900 1.21876e-17
4334.59351 1.20551e-17
4338.68802 1.21592e-17
4342.78253 1.21511e-17
4346.87704 1.21542e-17
4350.97155 1.22381e-17
4355.06606 1.23068e-17
4359.16057 1.22860e-17
4363.25508 1.22196e-17
4367.34959 1.22423e-17
4371.44410 1.22637e-17
4375.53861 1.23413e-17
4379.63312 1.25260e-17
4383.72763 1.25806e-17
4387.82214 1.26353e-17
4391.91665 1.26899e-17
4396.00107 1.27444e-17
4400.09559 1.27990e-17
4404.19009 1.28535e-17
4408.28460 1.29080e-17
4412.37911 1.29624e-17
4416.47362 1.30169e-17
4420.56814 1.30713e-17
4424.66264 1.32417e-17
4428.75716 1.33498e-17
4432.85166 1.33713e-17
4436.94618 1.33565e-17
4441.04068 1.34055e-17
4445.13519 1.35494e-17
4449.22970 1.35464e-17
4453.32421 1.36404e-17
4457.41873 1.36708e-17
4461.51323 1.36999e-17
4465.60775 1.38015e-17
4469.70225 1.38060e-17
4473.79677 1.37350e-17
4477.89127 1.36643e-17
4481.98578 1.38144e-17
4486.08030 1.39179e-17
4490.17480 1.38177e-17
4494.26932 1.40123e-17
4498.36382 1.42141e-17
4502.44825 1.42725e-17
4506.54276 1.43611e-17
4510.63727 1.44489e-17
4514.73178 1.44035e-17
4518.82629 1.44928e-17
4522.92080 1.46934e-17
4527.01531 1.47770e-17
4531.10982 1.47222e-17
4535.20433 1.46985e-17
4539.29884 1.47935e-17
4543.39335 1.47721e-17
4547.48786 1.47903e-17
4551.58237 1.48401e-17
4555.67688 1.48326e-17
4559.77139 1.49029e-17
4563.86590 1.49516e-17
4567.96041 1.48275e-17
4572.05492 1.47210e-17
4576.14943 1.47601e-17
4580.24394 1.46758e-17
4584.33845 1.46783e-17
4588.43296 1.47244e-17
4592.52747 1.47759e-17
4596.62198 1.47783e-17
4600.71649 1.48403e-17
4604.81100 1.47724e-17
4608.89542 1.46869e-17
4612.98993 1.47058e-17
4617.08444 1.47654e-17
4621.17895 1.47682e-17
4625.27346 1.49507e-17
4629.36798 1.48527e-17
4633.46249 1.48880e-17
4637.55699 1.49784e-17
4641.65150 1.50195e-17
4645.74601 1.51394e-17
4649.84052 1.51268e-17
4653.93503 1.49784e-17
4658.02955 1.49186e-17
4662.12405 1.48557e-17
4666.21857 1.47481e-17
4670.31308 1.46494e-17
4674.40758 1.44012e-17
4678.50209 1.43462e-17
4682.59660 1.44095e-17
4686.69111 1.43492e-17
4690.78562 1.41182e-17
4694.88014 1.41127e-17
4698.97464 1.40946e-17
4703.06916 1.39473e-17
4707.16366 1.38660e-17
4711.24809 1.37520e-17
4715.34260 1.36956e-17
4719.43711 1.35795e-17
4723.53162 1.33851e-17
4727.62613 1.33750e-17
4731.72064 1.34298e-17
4735.81515 1.34389e-17
4739.90966 1.34786e-17
4744.00417 1.35271e-17
4748.09868 1.35061e-17
4752.19319 1.34240e-17
4756.28770 1.34002e-17
4760.38221 1.35341e-17
4764.47672 1.35744e-17
4768.57123 1.35930e-17
4772.66574 1.36167e-17
4776.76025 1.36845e-17
4780.85476 1.37079e-17
4784.94927 1.36847e-17
4789.04378 1.38526e-17
4793.13829 1.39436e-17
4797.23280 1.39273e-17
4801.32731 1.40033e-17
4805.42182 1.41153e-17
4809.51633 1.40519e-17
4813.61084 1.40193e-17
4817.70535 1.40898e-17
4821.78977 1.40297e-17
4825.88429 1.39534e-17
4829.97879 1.40938e-17
4834.07330 1.41975e-17
4838.16781 1.41912e-17
4842.26232 1.41691e-17
4846.35683 1.41247e-17
4850.45134 1.41048e-17
4854.54586 1.41009e-17
4858.64036 1.42183e-17
4862.73488 1.43249e-17
4866.82939 1.43123e-17
4870.92389 1.43249e-17
4875.01840 1.43443e-17
4879.11291 1.44606e-17
4883.20742 1.45932e-17
4887.30193 1.46678e-17
4891.39644 1.47425e-17
4895.49095 1.48171e-17
4899.58547 1.48917e-17
4903.67998 1.49663e-17
4907.77448 1.50408e-17
4911.86899 1.51153e-17
4915.96350 1.51898e-17
4920.04793 1.52642e-17
4924.14244 1.53386e-17
4928.23695 1.54456e-17
4932.33146 1.53855e-17
4936.42597 1.53242e-17
4940.52048 1.54193e-17
4944.61499 1.54369e-17
4948.70950 1.54848e-17
4952.80401 1.55235e-17
4956.89852 1.54765e-17
4960.99303 1.54319e-17
4965.08754 1.54166e-17
4969.18205 1.54448e-17
4973.27656 1.54466e-17
4977.37107 1.54377e-17
4981.46558 1.55299e-17
4985.56009 1.55590e-17
4989.65460 1.55880e-17
4993.74911 1.56171e-17
4997.84362 1.56461e-17
5001.93813 1.56751e-17
5006.03264 1.57041e-17
5010.12715 1.57331e-17
5014.22166 1.57621e-17
5018.31617 1.57910e-17
5022.41068 1.58200e-17
5026.49510 1.58671e-17
5030.58961 1.58994e-17
5034.68412 1.59754e-17
5038.77864 1.60514e-17
5042.87314 1.61274e-17
5046.96766 1.62034e-17
5051.06216 1.62793e-17
5055.15668 1.63552e-17
5059.25118 1.64310e-17
5063.34569 1.65069e-17
5067.44020 1.65827e-17
5071.53471 1.66584e-17
5075.62922 1.66710e-17
5079.72373 1.67439e-17
5083.81825 1.68654e-17
5087.91275 1.70040e-17
5092.00727 1.70326e-17
5096.10177 1.70942e-17
5100.19628 1.72552e-17
5104.29079 1.73745e-17
5108.38530 1.73215e-17
5112.47981 1.73365e-17
5116.57432 1.74574e-17
5120.66884 1.76522e-17
5124.76334 1.75821e-17
5128.85786 1.76269e-17
5132.94228 1.78890e-17
5137.03679 1.79665e-17
5141.13130 1.80957e-17
5145.22581 1.80696e-17
5149.32032 1.82401e-17
5153.41483 1.84800e-17
5157.50934 1.85836e-17
5161.60385 1.86611e-17
5165.69836 1.87885e-17
5169.79287 1.88226e-17
5173.88738 1.88903e-17
5177.98189 1.90647e-17
5182.07640 1.90537e-17
5186.17091 1.90781e-17
5190.26542 1.93026e-17
5194.35993 1.93644e-17
5198.45444 1.94533e-17
5202.54895 1.96054e-17
5206.64346 1.97118e-17
5210.73797 1.99219e-17
5214.83248 1.98815e-17
5218.92699 1.99410e-17
5223.02150 2.00285e-17
5227.11601 2.02191e-17
5231.21052 2.03320e-17
5235.29494 2.04382e-17
5239.38945 2.06189e-17
5243.48396 2.05571e-17
5247.57848 2.05419e-17
5251.67298 2.07664e-17
5255.76750 2.08672e-17
5259.86200 2.09595e-17
5263.95651 2.11084e-17
5268.05102 2.10909e-17
5272.14553 2.13717e-17
5276.24005 2.15775e-17
5280.33455 2.15482e-17
5284.42907 2.15012e-17
5288.52357 2.17491e-17
5292.61809 2.19106e-17
5296.71259 2.19578e-17
5300.80710 2.20886e-17
5304.90161 2.21758e-17
5308.99612 2.22468e-17
5313.09064 2.22443e-17
5317.18514 2.24055e-17
5321.27966 2.26206e-17
5325.37416 2.26559e-17
5329.46868 2.28064e-17
5333.56318 2.30088e-17
5337.65769 2.30606e-17
5341.75220 2.31653e-17
5345.83663 2.33167e-17
5349.93114 2.33107e-17
5354.02565 2.34185e-17
5358.12016 2.34559e-17
5362.21467 2.34320e-17
5366.30918 2.34957e-17
5370.40369 2.35657e-17
5374.49820 2.36177e-17
5378.59271 2.38068e-17
5382.68722 2.40332e-17
5386.78173 2.40149e-17
5390.87624 2.40795e-17
5394.97075 2.41667e-17
5399.06526 2.43584e-17
5403.15977 2.44481e-17
5407.25428 2.43062e-17
5411.34879 2.43295e-17
5415.44330 2.43414e-17
5419.53781 2.43798e-17
5423.63232 2.45017e-17
5427.72683 2.46009e-17
5431.82134 2.47122e-17
5435.91585 2.47694e-17
5440.01036 2.48379e-17
5444.09479 2.48255e-17
5448.18930 2.46922e-17
5452.28381 2.46355e-17
5456.37831 2.46433e-17
5460.47282 2.47959e-17
5464.56733 2.46626e-17
5468.66184 2.45507e-17
5472.75635 2.44331e-17
5476.85086 2.44539e-17
5480.94537 2.45033e-17
5485.03989 2.42222e-17
5489.13440 2.40033e-17
5493.22890 2.38756e-17
5497.32341 2.39188e-17
5501.41792 2.37953e-17
5505.51243 2.36933e-17
5509.60694 2.37228e-17
5513.70145 2.36733e-17
5517.79596 2.36443e-17
5521.89048 2.35953e-17
5525.98498 2.35498e-17
5530.07949 2.34721e-17
5534.17400 2.33698e-17
5538.26851 2.32115e-17
5542.36302 2.29707e-17
5546.45753 2.28351e-17
5550.55205 2.27895e-17
5554.63647 2.26318e-17
5558.73098 2.19614e-17
5562.82549 2.14523e-17
5566.92000 2.18310e-17
5571.01451 2.22345e-17
5575.10902 2.22316e-17
5579.20353 2.24101e-17
5583.29804 2.24561e-17
5587.39255 2.17249e-17
5591.48706 2.11442e-17
5595.58157 2.11319e-17
5599.67608 2.10389e-17
5603.77059 2.09145e-17
5607.86510 2.09279e-17
5611.95961 2.08584e-17
5616.05412 2.08197e-17
5620.14863 2.07403e-17
5624.24314 2.05508e-17
5628.33765 2.05579e-17
5632.43216 2.07643e-17
5636.52667 2.08292e-17
5640.62118 2.06850e-17
5644.71569 2.06339e-17
5648.81020 2.06307e-17
5652.90471 2.06501e-17
5656.98913 2.06589e-17
5661.08364 2.06297e-17
5665.17815 2.06402e-17
5669.27266 2.07187e-17
5673.36718 2.06135e-17
5677.46168 2.05673e-17
5681.55620 2.04858e-17
5685.65070 2.06032e-17
5689.74521 2.06499e-17
5693.83972 2.04071e-17
5697.93423 2.03340e-17
5702.02874 2.04954e-17
5706.12325 2.05334e-17
5710.21777 2.04993e-17
5714.31227 2.05294e-17
5718.40679 2.06766e-17
5722.50130 2.09072e-17
5726.59580 2.07648e-17
5730.69031 2.05660e-17
5734.78482 2.07774e-17
5738.87933 2.07888e-17
5742.97384 2.09022e-17
5747.06835 2.08483e-17
5751.16286 2.11025e-17
5755.25738 2.11566e-17
5759.35189 2.09560e-17
5763.43631 2.08123e-17
5767.53082 2.08973e-17
5771.62533 2.11067e-17
5775.71984 2.10457e-17
5779.81435 2.10319e-17
5783.90886 2.11656e-17
5788.00337 2.11234e-17
5792.09788 2.11192e-17
5796.19239 2.11597e-17
5800.28690 2.11106e-17
5804.38141 2.11365e-17
5808.47592 2.13201e-17
5812.57043 2.14115e-17
5816.66494 2.14067e-17
5820.75945 2.14091e-17
5824.85396 2.14351e-17
5828.94847 2.13269e-17
5833.04298 2.14280e-17
5837.13749 2.12946e-17
5841.23200 2.12199e-17
5845.32651 2.11955e-17
5849.42102 2.10938e-17
5853.51553 2.11264e-17
5857.61004 2.12238e-17
5861.70455 2.11838e-17
5865.78898 2.09913e-17
5869.88348 2.08582e-17
5873.97800 2.07436e-17
5878.07250 2.05659e-17
5882.16701 2.06311e-17
5886.26152 2.06077e-17
5890.35603 2.04293e-17
5894.45055 2.03476e-17
5898.54505 2.04614e-17
5902.63957 2.04044e-17
5906.73407 2.02506e-17
5910.82859 2.02292e-17
5914.92309 2.03489e-17
5919.01761 2.02369e-17
5923.11211 2.01084e-17
5927.20662 2.02292e-17
5931.30113 2.02132e-17
5935.39564 2.00404e-17
5939.49016 1.99700e-17
5943.58466 1.99259e-17
5947.67918 1.97264e-17
5951.77368 1.95137e-17
5955.86820 1.94073e-17
5959.96270 1.93053e-17
5964.05721 1.93106e-17
5968.15172 1.92909e-17
5972.23615 1.91809e-17
5976.33066 1.91163e-17
5980.42517 1.91936e-17
5984.51968 1.92634e-17
5988.61419 1.91718e-17
5992.70870 1.89078e-17
5996.80321 1.87697e-17
6000.89772 1.88087e-17
6004.99223 1.89667e-17
6009.08674 1.89334e-17
6013.18125 1.88754e-17
6017.27576 1.88157e-17
6021.37027 1.87342e-17
6025.46478 1.85935e-17
6029.55929 1.85949e-17
6033.65380 1.86324e-17
6037.74831 1.85366e-17
6041.84282 1.84898e-17
6045.93733 1.84603e-17
6050.03184 1.84503e-17
6054.12635 1.84123e-17
6058.22086 1.83496e-17
6062.31537 1.83043e-17
6066.40988 1.81998e-17
6070.50439 1.81756e-17
6074.59890 1.81726e-17
6078.68332 1.80828e-17
6082.77783 1.80418e-17
6086.87234 1.79313e-17
6090.96685 1.78353e-17
6095.06136 1.77918e-17
6099.15587 1.76925e-17
6103.25039 1.75665e-17
6107.34489 1.75837e-17
6111.43941 1.76526e-17
6115.53391 1.76338e-17
6119.62842 1.75611e-17
6123.72293 1.75125e-17
6127.81744 1.74644e-17
6131.91195 1.74443e-17
6136.00646 1.74207e-17
6140.10098 1.73885e-17
6144.19548 1.74229e-17
6148.29000 1.73913e-17
6152.38450 1.72849e-17
6156.47901 1.72497e-17
6160.57352 1.73110e-17
6164.66803 1.73102e-17
6168.76255 1.72333e-17
6172.85705 1.72279e-17
6176.95157 1.72060e-17
6181.04607 1.70876e-17
6185.13050 1.70959e-17
6189.22501 1.71597e-17
6193.31952 1.71046e-17
6197.41403 1.70946e-17
6201.50854 1.70595e-17
6205.60305 1.69762e-17
6209.69756 1.69923e-17
6213.79207 1.70308e-17
6217.88658 1.70755e-17
6221.98109 1.70749e-17
6226.07560 1.69585e-17
6230.17011 1.69263e-17
6234.26462 1.69612e-17
6238.35913 1.70145e-17
6242.45364 1.71075e-17
6246.54815 1.71472e-17
6250.64266 1.72035e-17
6254.73717 1.72127e-17
6258.83168 1.71568e-17
6262.92619 1.71511e-17
6267.02070 1.71385e-17
6271.11521 1.71448e-17
6275.20972 1.70815e-17
6279.30423 1.70290e-17
6283.39874 1.68926e-17
6287.48316 1.69884e-17
6291.57767 1.73426e-17
6295.67218 1.76048e-17
6299.76669 1.76660e-17
6303.86120 1.78247e-17
6307.95572 1.81163e-17
6312.05022 1.81594e-17
6316.14473 1.81032e-17
6320.23924 1.82567e-17
6324.33375 1.84325e-17
6328.42826 1.84624e-17
6332.52277 1.85593e-17
6336.61728 1.86376e-17
6340.71180 1.86883e-17
6344.80631 1.87265e-17
6348.90081 1.88012e-17
6352.99532 1.89919e-17
6357.08983 1.91023e-17
6361.18434 1.90396e-17
6365.27885 1.91266e-17
6369.37336 1.93042e-17
6373.46787 1.93010e-17
6377.56239 1.93380e-17
6381.65689 1.94403e-17
6385.75140 1.94880e-17
6389.83583 1.96178e-17
6393.93034 1.97289e-17
6398.02485 1.97196e-17
6402.11936 1.98258e-17
6406.21387 1.98902e-17
6410.30838 1.99972e-17
6414.40289 2.01312e-17
6418.49740 2.01399e-17
6422.59191 2.02287e-17
6426.68642 2.03674e-17
6430.78093 2.03677e-17
6434.87544 2.03765e-17
6438.96995 2.03908e-17
6443.06446 2.03974e-17
6447.15897 2.04942e-17
6451.25348 2.05189e-17
6455.34799 2.05629e-17
6459.44250 2.05403e-17
6463.53701 2.05558e-17
6467.63152 2.06137e-17
6471.72603 2.07091e-17
6475.82054 2.06892e-17
6479.91505 2.06443e-17
6484.00956 2.06404e-17
6488.10407 2.05948e-17
6492.19858 2.06908e-17
6496.28300 2.07641e-17
6500.37752 2.06649e-17
6504.47202 2.06861e-17
6508.56653 2.07405e-17
6512.66104 2.07513e-17
6516.75555 2.06656e-17
6520.85006 2.05970e-17
6524.94457 2.05659e-17
6529.03909 2.06164e-17
6533.13359 2.06592e-17
6537.22811 2.06708e-17
6541.32261 2.06328e-17
6545.41712 2.05992e-17
6549.51163 2.06513e-17
6553.60614 2.06390e-17
6557.70065 2.05404e-17
6561.79516 2.04774e-17
6565.88967 2.03944e-17
6569.98418 2.03821e-17
6574.07870 2.03855e-17
6578.17320 2.03675e-17
6582.26771 2.03775e-17
6586.36222 2.03541e-17
6590.45673 2.02911e-17
6594.55124 2.02281e-17
6598.63567 2.01651e-17
6602.73018 2.01022e-17
6606.82469 2.00392e-17
6610.91920 1.99763e-17
6615.01371 1.99133e-17
6619.10822 1.98504e-17
6623.20273 1.97875e-17
6627.29724 1.97246e-17
6631.39175 1.96617e-17
6635.48626 1.95988e-17
6639.58077 1.95359e-17
6643.67528 1.94731e-17
6647.76979 1.94103e-17
6651.86430 1.93474e-17
6655.95881 1.92552e-17
6660.05332 1.92994e-17
6664.14783 1.92152e-17
6668.24234 1.91717e-17
6672.33685 1.91310e-17
6676.43136 1.90019e-17
6680.52587 1.88920e-17
6684.62038 1.88750e-17
6688.71489 1.89013e-17
6692.80940 1.89066e-17
6696.90391 1.88192e-17
6700.99842 1.87859e-17
6705.09293 1.87728e-17
6709.17735 1.87003e-17
6713.27186 1.86089e-17
6717.36637 1.85323e-17
6721.46089 1.85050e-17
6725.55539 1.84201e-17
6729.64991 1.82487e-17
6733.74441 1.82737e-17
6737.83893 1.82035e-17
6741.93343 1.81664e-17
6746.02794 1.81708e-17
6750.12245 1.80684e-17
6754.21696 1.79017e-17
6758.31148 1.78168e-17
6762.40598 1.78445e-17
6766.50050 1.77838e-17
6770.59500 1.76182e-17
6774.68952 1.75310e-17
6778.78402 1.75379e-17
6782.87853 1.75579e-17
6786.97304 1.74789e-17
6791.06755 1.74347e-17
6795.16207 1.74361e-17
6799.25657 1.73411e-17
6803.35109 1.72538e-17
6807.43551 1.72008e-17
6811.53002 1.72838e-17
6815.62453 1.72284e-17
6819.71904 1.70799e-17
6823.81355 1.71090e-17
6827.90806 1.71017e-17
6832.00257 1.70113e-17
6836.09708 1.70343e-17
6840.19159 1.70559e-17
6844.28610 1.70590e-17
6848.38061 1.70043e-17
6852.47512 1.69495e-17
6856.56963 1.68948e-17
6860.66414 1.68400e-17
6864.75865 1.67853e-17
6868.85316 1.67306e-17
6872.94767 1.66759e-17
6877.04218 1.66212e-17
6881.13669 1.65665e-17
6885.23120 1.65118e-17
6889.32571 1.64572e-17
6893.42022 1.64025e-17
6897.51473 1.63479e-17
6901.60924 1.62932e-17
6905.70375 1.62386e-17
6909.79826 1.61840e-17
6913.89277 1.61294e-17
6917.97719 1.60748e-17
6922.07170 1.60202e-17
6926.16621 1.59656e-17
6930.26073 1.59110e-17
6934.35523 1.58564e-17
6938.44974 1.58019e-17
6942.54425 1.58480e-17
6946.63876 1.58181e-17
6950.73327 1.57675e-17
6954.82778 1.56605e-17
6958.92230 1.56771e-17
6963.01680 1.57505e-17
6967.11132 1.58292e-17
6971.20582 1.58782e-17
6975.30033 1.58603e-17
6979.39484 1.58128e-17
6983.48935 1.57818e-17
6987.58386 1.57760e-17
6991.67837 1.57616e-17
6995.77289 1.56647e-17
6999.86739 1.56259e-17
7003.96191 1.57621e-17
7008.05641 1.58181e-17
7012.15092 1.57892e-17
7016.24543 1.57609e-17
7020.32986 1.56294e-17
7024.42437 1.56030e-17
7028.51888 1.56468e-17
7032.61339 1.56338e-17
7036.70790 1.55589e-17
7040.80241 1.55012e-17
7044.89692 1.54867e-17
7048.99143 1.54660e-17
7053.08594 1.55158e-17
7057.18045 1.55449e-17
7061.27496 1.54467e-17
7065.36947 1.53183e-17
7069.46398 1.52403e-17
7073.55849 1.53512e-17
7077.65300 1.54369e-17
7081.74751 1.54201e-17
7085.84202 1.53223e-17
7089.93653 1.52588e-17
7094.03104 1.52749e-17
7098.12555 1.53229e-17
7102.22006 1.53296e-17
7106.31457 1.52504e-17
7110.40908 1.51814e-17
7114.50359 1.51806e-17
7118.59810 1.52382e-17
7122.69261 1.52608e-17
7126.77704 1.52143e-17
7130.87154 1.50781e-17
7134.96605 1.49414e-17
7139.06056 1.49083e-17
7143.15507 1.48856e-17
7147.24958 1.48977e-17
7151.34409 1.47673e-17
7155.43860 1.45878e-17
7159.53311 1.44441e-17
7163.62763 1.43506e-17
7167.72213 1.41295e-17
7171.81664 1.37472e-17
7175.91115 1.34097e-17
7180.00566 1.31253e-17
7184.10017 1.30972e-17
7188.19468 1.31485e-17
7192.28919 1.31010e-17
7196.38370 1.30430e-17
7200.47821 1.29559e-17
7204.57272 1.30800e-17
7208.66723 1.33448e-17
7212.76174 1.35074e-17
7216.85625 1.35314e-17
7220.95076 1.34241e-17
7225.04527 1.32308e-17
7229.13978 1.30174e-17
7233.22421 1.28441e-17
7237.31872 1.27690e-17
7241.41323 1.27018e-17
7245.50774 1.27330e-17
7249.60225 1.28678e-17
7253.69676 1.28688e-17
7257.79127 1.26878e-17
7261.88578 1.25662e-17
7265.98029 1.24757e-17
7270.07480 1.24503e-17
7274.16931 1.25027e-17
7278.26382 1.25681e-17
7282.35833 1.26209e-17
7286.45284 1.25378e-17
7290.54735 1.23735e-17
7294.64186 1.23211e-17
7298.73637 1.22350e-17
7302.83088 1.20790e-17
7306.92539 1.21500e-17
7311.01990 1.22646e-17
7315.11441 1.21916e-17
7319.20892 1.20895e-17
7323.30343 1.19279e-17
7327.39794 1.18133e-17
7331.48236 1.18956e-17
7335.57687 1.19425e-17
7339.67138 1.17578e-17
7343.76589 1.15981e-17
7347.86041 1.15064e-17
7351.95491 1.13514e-17
7356.04943 1.12106e-17
7360.14393 1.10847e-17
7364.23844 1.10283e-17
7368.33295 1.10335e-17
7372.42746 1.10231e-17
7376.52197 1.09214e-17
7380.61648 1.07076e-17
7384.71099 1.05729e-17
7388.80550 1.06234e-17
7392.90002 1.05763e-17
7396.99452 1.04262e-17
7401.08903 1.03291e-17
7405.18354 1.02902e-17
7409.27805 1.01975e-17
7413.37256 1.00227e-17
7417.46707 9.95791e-18
7421.56158 9.98065e-18
7425.65609 9.94445e-18
7429.75061 9.89680e-18
7433.84511 9.81287e-18
7437.93962 9.71060e-18
7442.02405 9.66028e-18
7446.11856 9.57783e-18
7450.21307 9.46877e-18
7454.30758 9.38330e-18
7458.40209 9.29072e-18
7462.49660 9.24417e-18
7466.59111 9.24724e-18
7470.68562 9.26025e-18
7474.78013 9.33148e-18
7478.87464 9.32458e-18
7482.96915 9.17939e-18
7487.06366 9.10454e-18
7491.15817 9.07962e-18
7495.25268 8.94223e-18
7499.34719 8.85375e-18
7503.44170 8.71990e-18
7507.53621 8.55576e-18
7511.63072 8.50948e-18
7515.72523 8.62888e-18
7519.81974 8.80956e-18
7523.91425 8.91704e-18
7528.00876 8.93149e-18
7532.10327 8.85742e-18
7536.19778 8.68000e-18
7540.29229 8.51331e-18
7544.38680 8.41425e-18
7548.47123 8.44620e-18
7552.56573 8.43417e-18
7556.66025 8.42213e-18
7560.75475 8.41010e-18
7564.84926 8.39808e-18
7568.94377 8.38605e-18
7573.03828 8.37403e-18
7577.13280 8.36200e-18
7581.22730 8.34999e-18
7585.32182 8.33797e-18
7589.41632 8.32595e-18
7593.51084 8.31394e-18
7597.60534 8.30192e-18
7601.69985 8.28991e-18
7605.79436 8.27791e-18
7609.88887 8.26590e-18
7613.98339 8.25390e-18
7618.07789 8.24189e-18
7622.17241 8.22989e-18
7626.26691 8.21789e-18
7630.36143 8.20590e-18
7634.45593 8.19390e-18
7638.55044 8.18191e-18
7642.64495 8.16992e-18
7646.73946 8.15793e-18
7650.82389 8.14595e-18
7654.91840 8.13396e-18
7659.01291 8.12198e-18
7663.10742 8.11000e-18
7667.20193 8.09802e-18
7671.29644 8.08605e-18
7675.39095 8.07407e-18
7679.48546 8.06210e-18
7683.57997 8.05013e-18
7687.67448 7.88697e-18
7691.76899 7.71846e-18
7695.86350 7.61203e-18
7699.95801 7.56409e-18
7704.05252 7.66719e-18
7708.14703 7.84687e-18
7712.24154 7.82983e-18
7716.33605 7.74250e-18
7720.43056 7.74773e-18
7724.52507 7.73522e-18
7728.61958 7.65070e-18
7732.71409 7.58418e-18
7736.80860 7.56713e-18
7740.90311 7.57871e-18
7744.99762 7.58521e-18
7749.09213 7.54258e-18
7753.17656 7.53102e-18
7757.28115 7.59655e-18
7761.36557 7.62705e-18
7765.46008 7.60606e-18
7769.55459 7.65259e-18
7773.64910 7.69025e-18
7777.74361 7.59830e-18
7781.83812 7.50094e-18
7785.93264 7.52331e-18
7790.02714 7.55222e-18
7794.12165 7.56242e-18
7798.21616 7.66952e-18
7802.31067 7.78581e-18
7806.40518 7.71242e-18
7810.49969 7.61661e-18
7814.59420 7.71087e-18
7818.68871 7.76217e-18
7822.78323 7.67794e-18
7826.87773 7.71704e-18
7830.97224 7.81843e-18
7835.06675 7.74391e-18
7839.16126 7.61365e-18
7843.25577 7.59417e-18
7847.35028 7.63586e-18
7851.44480 7.63766e-18
7855.53930 7.65407e-18
7859.62373 7.79711e-18
7863.71824 7.92595e-18
7867.81275 7.89874e-18
7871.90726 7.89756e-18
7876.00177 7.88425e-18
7880.09628 7.84488e-18
7884.19079 7.88073e-18
7888.28530 7.95743e-18
7892.37981 8.05092e-18
7896.47432 8.08866e-18
7900.56883 8.04978e-18
7904.66334 8.10857e-18
7908.75785 8.14175e-18
7912.85236 8.08287e-18
7916.94687 8.08808e-18
7921.04138 8.21677e-18
7925.13589 8.30857e-18
7929.23040 8.29894e-18
7933.32491 8.33591e-18
7937.41942 8.42306e-18
7941.51393 8.43826e-18
7945.60844 8.31173e-18
7949.70295 8.13001e-18
7953.79746 8.07447e-18
7957.89197 8.08702e-18
7961.98648 8.08013e-18
7966.08099 8.16751e-18
7970.16541 8.36762e-18
7974.25992 8.45754e-18
7978.35443 8.27461e-18
7982.44895 8.05868e-18
7986.54345 8.11735e-18
7990.63796 8.16624e-18
7994.73247 8.18944e-18
7998.82698 8.35505e-18
8002.92149 8.46572e-18
8007.01600 8.40821e-18
8011.11051 8.30569e-18
8015.20502 8.29180e-18
8019.29954 8.26867e-18
8023.39405 8.19202e-18
8027.48855 8.21147e-18
8031.58306 8.33375e-18
8035.67757 8.39709e-18
8039.77208 8.36085e-18
8043.86659 8.35579e-18
8047.96110 8.32418e-18
8052.05561 8.26013e-18
8056.15012 8.24797e-18
8060.24464 8.18603e-18
8064.33914 8.15957e-18
8068.43365 8.28366e-18
8072.51808 8.34767e-18
8076.61259 8.29175e-18
8080.70710 8.22578e-18
8084.80161 8.09945e-18
8088.89612 7.95544e-18
8092.99063 7.90411e-18
8097.08514 7.90634e-18
8101.17965 7.92578e-18
8105.27416 7.92350e-18
8109.36867 7.93339e-18
8113.46318 7.95726e-18
8117.55769 7.89551e-18
8121.65220 7.78905e-18
8125.74671 7.64878e-18
8129.84122 7.47249e-18
8133.93573 7.39168e-18
8138.03024 7.42902e-18
8142.12475 7.45926e-18
8146.21926 7.42055e-18
8150.31377 7.36386e-18
8154.40828 7.32570e-18
8158.50279 7.25309e-18
8162.59730 7.13381e-18
8166.69181 7.04785e-18
8170.78632 6.96801e-18
8174.88083 6.90645e-18
8178.96525 6.96926e-18
8183.05976 7.06284e-18
8187.15427 7.16211e-18
8191.24878 7.30164e-18
8195.34330 7.38230e-18
8199.43780 7.43914e-18
8203.53232 7.47603e-18
8207.62682 7.47380e-18
8211.72134 7.42551e-18
8215.81584 7.38928e-18
8219.91035 7.28550e-18
8224.00486 7.03277e-18
8228.09937 6.99971e-18
8232.19389 7.25979e-18
8236.28839 7.47708e-18
8240.38291 7.57635e-18
8244.47741 7.67800e-18
8248.57193 7.65926e-18
8252.66643 7.64120e-18
8256.76094 7.65267e-18
8260.85545 7.63486e-18
8264.94996 7.72963e-18
8269.04448 7.84279e-18
8273.13898 7.86254e-18
8277.22341 7.84320e-18
8281.31792 7.83404e-18
8285.41243 7.84282e-18
8289.50694 7.92808e-18
8293.60145 7.96527e-18
8297.69596 8.02954e-18
8301.79047 8.25054e-18
8305.88498 8.43922e-18
8309.97949 8.47860e-18
8314.07400 8.48679e-18
8318.16851 8.57212e-18
8322.26302 8.59186e-18
8326.35753 8.47010e-18
8330.45204 8.33925e-18
8334.54655 8.36829e-18
8338.64106 8.55939e-18
8342.73557 8.86074e-18
8346.83008 9.19681e-18
8350.92459 9.45454e-18
8355.01910 9.51419e-18
8359.11361 9.52236e-18
8363.20812 9.55107e-18
8367.30263 9.48168e-18
8371.39714 9.43625e-18
8375.49165 9.50000e-18
8379.58616 9.51381e-18
8383.68067 9.46292e-18
8387.76509 9.63789e-18
8391.85960 9.97753e-18
8395.95412 1.01497e-17
8400.04862 1.02548e-17
8404.14313 1.04603e-17
8408.23765 1.05788e-17
8412.33216 1.04250e-17
8416.42666 1.02064e-17
8420.52117 1.02511e-17
8424.61569 1.04655e-17
8428.71019 1.06446e-17
8432.80470 1.08766e-17
8436.89922 1.11260e-17
8440.99373 1.11970e-17
8445.08823 1.11966e-17
8449.18274 1.12918e-17
8453.27726 1.13711e-17
8457.37176 1.13765e-17
8461.46627 1.13275e-17
8465.56078 1.12195e-17
8469.65530 1.12490e-17
8473.74980 1.14447e-17
8477.84431 1.15459e-17
8481.93883 1.16615e-17
8486.02325 1.18432e-17
8490.11776 1.19460e-17
8494.21227 1.20882e-17
8498.30678 1.23462e-17
8502.40129 1.24507e-17
8506.49580 1.22347e-17
8510.59031 1.20644e-17
8514.68482 1.19651e-17
8518.77933 1.17531e-17
8522.87384 1.17034e-17
8526.96835 1.18835e-17
8531.06286 1.20948e-17
8535.15737 1.23052e-17
8539.25188 1.25407e-17
8543.34639 1.27301e-17
8547.44090 1.27798e-17
8551.53541 1.27271e-17
8555.62992 1.26225e-17
8559.72443 1.24581e-17
8563.81894 1.23006e-17
8567.91345 1.22510e-17
8572.00796 1.22774e-17
8576.10247 1.22924e-17
8580.19698 1.24160e-17
8584.29149 1.26409e-17
8588.38600 1.28531e-17
8592.48051 1.30265e-17
8596.56494 1.31270e-17
8600.65944 1.30491e-17
8604.75395 1.26933e-17
8608.84847 1.23433e-17
8612.94297 1.22372e-17
8617.03748 1.22244e-17
8621.13199 1.23294e-17
8625.22651 1.25935e-17
8629.32101 1.28335e-17
8633.41552 1.29613e-17
8637.51003 1.29643e-17
8641.60455 1.28979e-17
8645.69905 1.28177e-17
8649.79356 1.26492e-17
8653.88808 1.24682e-17
8657.98258 1.23469e-17
8662.07709 1.23436e-17
8666.17160 1.24104e-17
8670.26612 1.25177e-17
8674.36062 1.27402e-17
8678.45513 1.29042e-17
8682.54965 1.29083e-17
8686.64415 1.28163e-17
8690.73866 1.25978e-17
8694.82309 1.22492e-17
8698.92769 1.18609e-17
8703.02219 1.16895e-17
8707.10662 1.17324e-17
8711.20113 1.18895e-17
8715.29564 1.20396e-17
8719.39015 1.21756e-17
8723.48466 1.22841e-17
8727.57917 1.22666e-17
8731.67368 1.20737e-17
8735.76819 1.17486e-17
8739.86270 1.14208e-17
8743.95721 1.12103e-17
8748.05172 1.11463e-17
8752.14623 1.12289e-17
8756.24074 1.14466e-17
8760.33525 1.16289e-17
8764.42976 1.17615e-17
8768.52427 1.19440e-17
8772.61878 1.19256e-17
8776.71329 1.15564e-17
8780.80780 1.12744e-17
8784.90231 1.12523e-17
8788.99682 1.10864e-17
8793.09133 1.08278e-17
8797.18584 1.08383e-17
8801.28035 1.09827e-17
8805.36478 1.10130e-17
8809.45928 1.08677e-17
8813.55379 1.06731e-17
8817.64830 1.06961e-17
8821.74281 1.07136e-17
8825.83733 1.04753e-17
8829.93183 1.03471e-17
8834.02634 1.03872e-17
8838.12085 1.02822e-17
8842.21537 1.01050e-17
8846.30987 1.01724e-17
8850.40438 1.02292e-17
8854.49890 1.02437e-17
8858.59340 1.03325e-17
8862.68791 1.02937e-17
8866.78242 9.98134e-18
8870.87694 9.57416e-18
8874.97144 9.36510e-18
8879.06596 9.25900e-18
8883.16047 9.17871e-18
8887.25497 9.12775e-18
8891.34948 9.28411e-18
8895.44399 9.50753e-18
8899.53851 9.45737e-18
8903.62293 9.24056e-18
8907.72752 9.24871e-18
8911.82203 9.38530e-18
8915.90646 9.30355e-18
8920.00097 9.02029e-18
8924.09548 8.86090e-18
8928.18999 8.79403e-18
8932.28450 8.49255e-18
8936.37901 8.25845e-18
8940.47352 8.29708e-18
8944.56803 8.31412e-18
8948.66254 8.33125e-18
8952.75705 8.52939e-18
8956.85156 8.54915e-18
8960.94607 8.30301e-18
8965.04058 8.21615e-18
8969.13509 8.09904e-18
8973.22960 7.81040e-18
8977.32411 7.61659e-18
8981.41862 7.42948e-18
8985.51313 7.17483e-18
8989.60764 7.02243e-18
8993.70215 7.18314e-18
8997.79666 7.44156e-18
9001.89117 7.58581e-18
9005.98568 7.75571e-18
9010.07010 7.86102e-18
9014.17470 7.71653e-18
9018.25912 7.55053e-18
9022.35363 7.46172e-18
9026.44815 7.39202e-18
9030.54265 7.35530e-18
9034.63717 7.36416e-18
9038.73167 7.56433e-18
9042.82618 7.82783e-18
9046.92069 7.87166e-18
9051.01520 7.87068e-18
9055.10972 7.95701e-18
9059.20422 7.92848e-18
9063.29874 7.75639e-18
9067.39324 7.58859e-18
9071.48776 7.41971e-18
9075.58226 7.18463e-18
9079.67677 6.97915e-18
9083.77128 6.94106e-18
9087.86579 7.01256e-18
9091.96030 7.10085e-18
9096.05481 7.22088e-18
9100.14933 7.31369e-18
9104.24383 7.34108e-18
9108.33835 7.41646e-18
9112.43285 7.44990e-18
9116.52736 7.39060e-18
9120.61179 7.31438e-18
9124.70630 7.14883e-18
9128.80081 6.94305e-18
9132.89532 6.86412e-18
9136.98983 6.93056e-18
9141.08434 6.98859e-18
9145.17885 6.97022e-18
9149.27336 6.96174e-18
9153.36787 6.99500e-18
9157.46238 7.04333e-18
9161.55689 7.09619e-18
9165.65140 7.11701e-18
9169.74591 7.01202e-18
9173.84042 6.83533e-18
9177.93493 6.74813e-18
9182.02944 6.75647e-18
9186.12395 6.81425e-18
9190.21846 6.87039e-18
9194.31297 6.93310e-18
9198.40748 6.99013e-18
9202.50199 7.04440e-18
9206.59650 7.11612e-18
9210.69101 7.19840e-18
9214.78552 7.21369e-18
9218.86995 7.22819e-18
9222.97454 7.26760e-18
9227.05897 7.18882e-18
9231.15347 7.06802e-18
9235.24798 7.05748e-18
9239.34249 7.08742e-18
9243.43700 6.94788e-18
9247.53152 6.83181e-18
9251.62602 6.96050e-18
9255.72053 7.20449e-18
9259.81504 7.23811e-18
9263.90956 7.13885e-18
9268.00406 7.22163e-18
9272.09857 7.26807e-18
9276.19308 7.07205e-18
9280.28759 6.86918e-18
9284.38210 6.72606e-18
9288.47661 6.49779e-18
9292.57113 6.23607e-18
9296.66563 6.03443e-18
9300.76015 5.91559e-18
9304.85465 5.95386e-18
9308.94916 6.02269e-18
9313.04367 6.00126e-18
9317.13818 6.02926e-18
9321.23269 5.92568e-18
9325.32720 5.60391e-18
9329.41163 5.39754e-18
9333.50614 5.22960e-18
9337.60065 4.94814e-18
9341.69516 4.94975e-18
9345.78967 5.08848e-18
9349.88418 5.07523e-18
9353.97869 5.05395e-18
9358.07320 5.00000e-18
9362.16771 4.92078e-18
9366.26222 5.08674e-18
9370.35673 5.27302e-18
9374.45124 5.25491e-18
9378.54575 5.25243e-18
9382.64026 5.41204e-18
9386.73477 5.45801e-18
9390.82928 5.40295e-18
9394.92379 5.52136e-18
9399.01830 5.64148e-18
9403.11281 5.57843e-18
9407.20732 5.52052e-18
9411.30183 5.57019e-18
9415.39634 5.58671e-18
9419.49085 5.43974e-18
9423.58536 5.18324e-18
9427.66978 5.01133e-18
9431.77438 4.94418e-18
9435.85880 4.87674e-18
9439.95331 4.83250e-18
9444.04782 4.87626e-18
9448.14234 5.00535e-18
9452.23684 5.04705e-18
9456.33135 4.94883e-18
9460.42586 4.90277e-18
9464.52038 5.01005e-18
9468.61488 5.18279e-18
9472.70939 5.16126e-18
9476.80391 5.09309e-18
9480.89841 5.14472e-18
9484.99292 5.08456e-18
9489.08743 4.80900e-18
9493.18195 4.66059e-18
9497.27645 4.67699e-18
9501.37097 4.75320e-18
9505.46547 4.95027e-18
9509.55998 5.17444e-18
9513.65449 5.23383e-18
9517.74900 5.19487e-18
9521.84352 5.18250e-18
9525.93802 5.18707e-18
9530.03253 5.14711e-18
9534.12704 5.01804e-18
9538.22156 4.89007e-18
9542.30598 4.83785e-18
9546.40049 4.81119e-18
9550.49500 4.77228e-18
9554.58951 4.83022e-18
9558.68402 5.05125e-18
9562.77853 5.16612e-18
9566.87304 5.13755e-18
9570.96755 5.19139e-18
9575.06206 5.18505e-18
9579.15657 5.00689e-18
9583.25108 4.86515e-18
9587.34559 4.81976e-18
9591.44010 4.76433e-18
9595.53461 4.77847e-18
9599.62912 4.91310e-18
9603.72363 5.01940e-18
9607.81814 5.11661e-18
9611.91265 5.20360e-18
9616.00716 5.25117e-18
9620.10167 5.28058e-18
9624.19618 5.24831e-18
9628.29069 5.13096e-18
9632.38520 5.01261e-18
9636.47971 4.93519e-18
9640.57422 4.92673e-18
9644.66873 4.99538e-18
9648.75316 5.10021e-18
9652.84766 5.19837e-18
9656.94217 5.29154e-18
9661.03669 5.34491e-18
9665.13119 5.32411e-18
9669.22570 5.35750e-18
9673.32021 5.49316e-18
9677.41473 5.53704e-18
9681.50923 5.41004e-18
9685.60374 5.37971e-18
9689.69825 5.45529e-18
9693.79277 5.43419e-18
9697.88727 5.46164e-18
9701.98178 5.53492e-18
9706.07630 5.59667e-18
9710.17080 5.61801e-18
9714.26531 5.58347e-18
9718.35982 5.53212e-18
9722.45434 5.42420e-18
9726.54884 5.35144e-18
9730.64335 5.34364e-18
9734.73786 5.33396e-18
9738.83237 5.40199e-18
9742.92688 5.52839e-18
9747.02139 5.63503e-18
9751.10582 5.70845e-18
9755.20033 5.72235e-18
9759.29484 5.75291e-18
9763.38935 5.79142e-18
9767.48386 5.72161e-18
9771.57837 5.55062e-18
9775.67288 5.37964e-18
9779.76739 5.26255e-18
9783.86190 5.30010e-18
9787.95641 5.45566e-18
9792.05092 5.56131e-18
9796.14543 5.61511e-18
9800.23994 5.58838e-18
9804.33445 5.57470e-18
9808.42896 5.58523e-18
9812.52347 5.54486e-18
9816.61798 5.53013e-18
9820.71249 5.47830e-18
9824.80700 5.47023e-18
9828.90151 5.51029e-18
9832.99602 5.47106e-18
9837.09053 5.59258e-18
9841.18504 5.81070e-18
9845.27955 5.85233e-18
9849.37406 5.86376e-18
9853.46857 5.89983e-18
9857.55299 5.86190e-18
9861.64751 5.87165e-18
9865.74201 5.93908e-18
9869.83652 5.90836e-18
9873.93103 5.87439e-18
9878.02555 5.90554e-18
9882.12005 5.90106e-18
9886.21456 5.89952e-18
9890.30908 5.94537e-18
9894.40359 6.00264e-18
9898.49809 6.05446e-18
9902.59260 6.10089e-18
9906.68712 6.12879e-18
9910.78162 6.13289e-18
9914.87613 6.18113e-18
9918.97065 6.20795e-18
9923.06516 6.04791e-18
9927.15966 5.92706e-18
9931.25417 6.07618e-18
9935.34869 6.19722e-18
9939.44319 6.22241e-18
9943.53770 6.35766e-18
9947.63221 6.50075e-18
9951.71664 6.56596e-18
9955.82123 6.53104e-18
9959.90566 6.49654e-18
9964.00017 6.49850e-18
9968.09468 6.48389e-18
9972.18919 6.43772e-18
9976.28370 6.50198e-18
9980.37821 6.61668e-18
9984.47272 6.55212e-18
9988.56723 6.40827e-18
9992.66174 6.28002e-18
9996.75625 6.23382e-18
