# wavelength flux
3378.39432 6.88005e-18
3381.35931 3.45784e-18
3384.31421 2.84510e-18
3387.26912 5.65630e-18
3390.22402 6.12095e-18
3393.18901 9.14861e-18
3396.14392 9.40022e-18
3399.09882 7.91036e-18
3402.05373 7.50194e-18
3405.01872 7.10496e-18
3407.97362 5.38254e-18
3410.92853 7.12439e-18
3413.88344 7.09653e-18
3416.84843 5.46701e-18
3419.80333 7.94715e-18
3422.75823 8.78720e-18
3425.71314 6.77436e-18
3428.67813 7.36486e-18
3431.63303 7.60814e-18
3434.58794 6.83637e-18
3437.54284 8.21627e-18
3440.50783 7.93832e-18
3443.46274 4.67777e-18
3446.41764 5.19486e-18
3449.37255 6.74040e-18
3452.33754 8.03884e-18
3455.29245 6.77563e-18
3458.24735 5.59142e-18
3461.20226 6.87262e-18
3464.16724 8.66605e-18
3467.12215 8.64276e-18
3470.07705 8.66782e-18
3473.03196 9.11969e-18
3475.99695 9.29274e-18
3478.95185 9.46148e-18
3481.90676 8.30869e-18
3484.86166 6.60716e-18
3487.82665 6.68330e-18
3490.78156 6.52801e-18
3493.73646 9.61257e-18
3496.69137 9.77989e-18
3499.64628 7.19814e-18
3502.61127 6.81329e-18
3505.56617 8.35607e-18
3508.52107 8.01630e-18
3511.47598 6.92663e-18
3514.44097 8.00438e-18
3517.39587 8.36503e-18
3520.35078 7.85628e-18
3523.30568 8.59993e-18
3526.27068 8.18334e-18
3529.22558 6.73883e-18
3532.18048 7.16610e-18
3535.13539 7.76576e-18
3538.10038 8.21128e-18
3541.05528 8.07063e-18
3544.01019 7.93593e-18
3546.96510 7.82174e-18
3549.93008 7.29337e-18
3552.88499 7.41270e-18
3555.83989 7.53198e-18
3558.79480 7.65121e-18
3561.75979 7.77040e-18
3564.71470 7.88953e-18
3567.66960 8.00862e-18
3570.62451 8.12766e-18
3573.58949 8.32766e-18
3576.54440 8.12563e-18
3579.49930 7.73829e-18
3582.45421 7.44597e-18
3585.41920 7.34958e-18
3588.37410 7.60957e-18
3591.32901 8.38719e-18
3594.28391 7.88298e-18
3597.24890 7.01128e-18
3600.20381 7.58587e-18
3603.15871 8.67648e-18
3606.11362 8.17691e-18
3609.07861 7.74697e-18
3612.03352 7.55671e-18
3614.98842 7.58513e-18
3617.94332 7.95329e-18
3620.89823 8.17130e-18
3623.86322 7.72038e-18
3626.81812 7.07816e-18
3629.77303 7.83383e-18
3632.72793 8.61676e-18
3635.69292 9.19862e-18
3638.64783 8.92385e-18
3641.60273 8.08028e-18
3644.55764 8.18190e-18
3647.52263 8.76054e-18
3650.47753 8.96793e-18
3653.43244 8.02059e-18
3656.38735 7.64495e-18
3659.35234 8.48955e-18
3662.30724 9.05359e-18
3665.26214 8.71873e-18
3668.21705 9.12430e-18
3671.18204 9.02730e-18
3674.13694 8.85979e-18
3677.09185 9.09706e-18
3680.04675 8.48899e-18
3683.01174 8.58942e-18
3685.96665 9.15698e-18
3688.92155 9.36460e-18
3691.87646 9.46928e-18
3694.84145 9.65211e-18
3697.79635 9.79889e-18
3700.75126 9.36195e-18
3703.70616 8.64524e-18
3706.67115 8.91164e-18
3709.62606 9.11459e-18
3712.58096 9.14708e-18
3715.53587 8.91974e-18
3718.50086 8.88575e-18
3721.45577 9.39895e-18
3724.41067 9.34323e-18
3727.36557 8.38146e-18
3730.33056 8.26689e-18
3733.28547 8.67527e-18
3736.24037 8.86694e-18
3739.19528 9.07172e-18
3742.15018 9.06067e-18
3745.11517 9.04380e-18
3748.07008 9.02694e-18
3751.02498 9.01010e-18
3753.97989 8.99327e-18
3756.94488 8.97644e-18
3759.89979 8.95964e-18
3762.85469 8.94284e-18
3765.80960 8.92606e-18
3768.77459 8.90929e-18
3771.72949 8.89253e-18
3774.68439 8.87579e-18
3777.63930 8.85905e-18
3780.60429 8.84233e-18
3783.55919 8.56867e-18
3786.51410 8.54847e-18
3789.46900 9.06392e-18
3792.43399 9.64697e-18
3795.38890 9.81659e-18
3798.34380 9.63475e-18
3801.29871 9.12377e-18
3804.26370 8.70077e-18
3807.21861 8.84163e-18
3810.17351 9.32794e-18
3813.12841 9.35329e-18
3816.09340 9.58393e-18
3819.04831 9.70429e-18
3822.00321 9.32685e-18
3824.95812 9.11374e-18
3827.92311 9.22527e-18
3830.87801 9.44767e-18
3833.83292 9.19031e-18
3836.78782 9.40495e-18
3839.75281 9.97805e-18
3842.70772 9.96785e-18
3845.66262 1.02170e-17
3848.61753 1.05580e-17
3851.57244 1.05696e-17
3854.53742 1.04311e-17
3857.49233 1.03370e-17
3860.44723 1.08017e-17
3863.40214 1.08523e-17
3866.36713 1.10222e-17
3869.32203 1.08484e-17
3872.27694 1.06219e-17
3875.23184 1.05810e-17
3878.19684 1.08659e-17
3881.15174 1.11957e-17
3884.10664 1.12580e-17
3887.06155 1.07875e-17
3890.02654 1.07852e-17
3892.98144 1.07559e-17
3895.93635 1.10532e-17
3898.89126 1.11044e-17
3901.85624 1.07899e-17
3904.81115 1.10106e-17
3907.76605 1.14292e-17
3910.72096 1.17187e-17
3913.68595 1.15083e-17
3916.64086 1.11586e-17
3919.59576 1.11059e-17
3922.55066 1.12624e-17
3925.51565 1.15553e-17
3928.47056 1.14485e-17
3931.42546 1.13404e-17
3934.38037 1.11024e-17
3937.34536 1.13611e-17
3940.30026 1.17126e-17
3943.25517 1.19027e-17
3946.21007 1.22518e-17
3949.17506 1.20349e-17
3952.12997 1.20052e-17
3955.08488 1.21161e-17
3958.03978 1.22846e-17
3960.99469 1.25723e-17
3963.95968 1.25197e-17
3966.91458 1.24367e-17
3969.86948 1.22757e-17
3972.82439 1.26830e-17
3975.78938 1.27395e-17
3978.74428 1.26918e-17
3981.69919 1.27646e-17
3984.65409 1.26285e-17
3987.61908 1.24452e-17
3990.57399 1.24207e-17
3993.52889 1.24602e-17
3996.48380 1.29283e-17
3999.44879 1.30855e-17
4002.40369 1.27717e-17
4005.35860 1.27706e-17
4008.31351 1.30439e-17
4011.27849 1.32176e-17
4014.23340 1.29211e-17
4017.18830 1.26346e-17
4020.14321 1.26802e-17
4023.10820 1.31068e-17
4026.06310 1.29284e-17
4029.01801 1.25154e-17
4031.97291 1.23443e-17
4034.93790 1.23579e-17
4037.89281 1.30291e-17
4040.84771 1.30387e-17
4043.80262 1.23235e-17
4046.76761 1.17861e-17
4049.72251 1.18971e-17
4052.67742 1.24985e-17
4055.63232 1.26745e-17
4058.59731 1.30725e-17
4061.55222 1.32057e-17
4064.50712 1.27996e-17
4067.46203 1.26074e-17
4070.42702 1.28128e-17
4073.38193 1.29949e-17
4076.33683 1.31568e-17
4079.29173 1.33847e-17
4082.24664 1.29822e-17
4085.21163 1.27866e-17
4088.16653 1.31672e-17
4091.12144 1.31618e-17
4094.07634 1.31061e-17
4097.04133 1.31490e-17
4099.99624 1.30025e-17
4102.95114 1.27812e-17
4105.90605 1.27353e-17
4108.87104 1.27676e-17
4111.82594 1.27488e-17
4114.78085 1.28054e-17
4117.73575 1.26984e-17
4120.70074 1.25641e-17
4123.65565 1.26737e-17
4126.61055 1.29744e-17
4129.56546 1.29509e-17
4132.53045 1.27094e-17
4135.48535 1.26699e-17
4138.44026 1.26668e-17
4141.39516 1.26568e-17
4144.36016 1.25756e-17
4147.31506 1.27528e-17
4150.26996 1.29162e-17
4153.22487 1.31245e-17
4156.18986 1.35758e-17
4159.14477 1.33941e-17
4162.09967 1.31165e-17
4165.05457 1.33151e-17
4168.01957 1.34884e-17
4170.97447 1.35378e-17
4173.92937 1.35909e-17
4176.88428 1.32013e-17
4179.84927 1.30428e-17
4182.80418 1.32681e-17
4185.75908 1.33460e-17
4188.71398 1.35050e-17
4191.67897 1.36525e-17
4194.63388 1.34598e-17
4197.58878 1.35266e-17
4200.54369 1.38358e-17
4203.49859 1.40218e-17
4206.46359 1.42474e-17
4209.41849 1.42099e-17
4212.37339 1.36974e-17
4215.32830 1.33691e-17
4218.29329 1.36682e-17
4221.24820 1.39662e-17
4224.20310 1.38064e-17
4227.15800 1.40902e-17
4230.12299 1.41037e-17
4233.07790 1.39257e-17
4236.03280 1.39494e-17
4238.98771 1.40960e-17
4241.95270 1.42143e-17
4244.90761 1.40326e-17
4247.86251 1.37620e-17
4250.81741 1.36081e-17
4253.78240 1.37785e-17
4256.73731 1.39625e-17
4259.69222 1.38432e-17
4262.64712 1.38355e-17
4265.61211 1.36696e-17
4268.56701 1.37553e-17
4271.52192 1.40205e-17
4274.47682 1.41745e-17
4277.44182 1.43155e-17
4280.39672 1.43139e-17
4283.35163 1.43021e-17
4286.30653 1.41154e-17
4289.27152 1.40296e-17
4292.22642 1.41662e-17
4295.18133 1.41849e-17
4298.13623 1.40956e-17
4301.10123 1.41310e-17
4304.05613 1.41277e-17
4307.01103 1.43614e-17
4309.96594 1.48223e-17
4312.93093 1.45071e-17
4315.88584 1.38805e-17
4318.84074 1.38491e-17
4321.79564 1.41454e-17
4324.75055 1.41333e-17
4327.71554 1.42085e-17
4330.67044 1.44103e-17
4333.62535 1.46442e-17
4336.58025 1.44090e-17
4339.54525 1.45711e-17
4342.50015 1.47685e-17
4345.45505 1.44222e-17
4348.40996 1.41211e-17
4351.37495 1.42556e-17
4354.32985 1.43123e-17
4357.28476 1.42202e-17
4360.23966 1.45704e-17
4363.20466 1.46692e-17
4366.15956 1.46048e-17
4369.11446 1.47023e-17
4372.06937 1.46840e-17
4375.03436 1.44541e-17
4377.98927 1.45448e-17
4380.94417 1.46610e-17
4383.89907 1.46712e-17
4386.86406 1.46813e-17
4389.81897 1.46914e-17
4392.77387 1.47015e-17
4395.72878 1.47116e-17
4398.69377 1.47217e-17
4401.64868 1.47318e-17
4404.60358 1.47418e-17
4407.55848 1.47519e-17
4410.52347 1.47620e-17
4413.47838 1.47720e-17
4416.43329 1.47821e-17
4419.38819 1.47921e-17
4422.35318 1.48534e-17
4425.30808 1.49499e-17
4428.26299 1.51209e-17
4431.21789 1.53162e-17
4434.18289 1.53532e-17
4437.13779 1.53345e-17
4440.09270 1.56258e-17
4443.04760 1.57346e-17
4446.00250 1.53929e-17
4448.96749 1.55491e-17
4451.92240 1.55733e-17
4454.87730 1.53612e-17
4457.83221 1.54780e-17
4460.79720 1.54493e-17
4463.75210 1.55231e-17
4466.70701 1.55792e-17
4469.66191 1.55718e-17
4472.62691 1.56557e-17
4475.58181 1.53520e-17
4478.53672 1.51607e-17
4481.49162 1.51942e-17
4484.45661 1.53128e-17
4487.41151 1.57182e-17
4490.36642 1.56314e-17
4493.32132 1.58327e-17
4496.28632 1.60701e-17
4499.24122 1.62044e-17
4502.19612 1.61649e-17
4505.15103 1.59901e-17
4508.11602 1.60021e-17
4511.07092 1.62723e-17
4514.02583 1.61523e-17
4516.98073 1.59546e-17
4519.94573 1.62342e-17
4522.90063 1.64232e-17
4525.85553 1.63986e-17
4528.81044 1.64186e-17
4531.77543 1.63557e-17
4534.73034 1.61919e-17
4537.68524 1.63326e-17
4540.64014 1.62542e-17
4543.60513 1.60225e-17
4546.56004 1.62170e-17
4549.51494 1.63863e-17
4552.46985 1.66879e-17
4555.43484 1.65617e-17
4558.38975 1.64861e-17
4561.34465 1.65917e-17
4564.29955 1.65126e-17
4567.25446 1.65184e-17
4570.21945 1.65130e-17
4573.17436 1.62838e-17
4576.12926 1.62832e-17
4579.08416 1.62861e-17
4582.04915 1.64746e-17
4585.00406 1.66502e-17
4587.95896 1.66050e-17
4590.91387 1.65122e-17
4593.87886 1.64576e-17
4596.83377 1.62067e-17
4599.78867 1.60052e-17
4602.74357 1.60398e-17
4605.70856 1.61673e-17
4608.66347 1.62287e-17
4611.61838 1.60261e-17
4614.57328 1.59777e-17
4617.53827 1.61767e-17
4620.49317 1.59448e-17
4623.44808 1.61482e-17
4626.40298 1.62471e-17
4629.36798 1.60161e-17
4632.32288 1.59702e-17
4635.27779 1.61201e-17
4638.23269 1.62821e-17
4641.19768 1.62675e-17
4644.15258 1.62884e-17
4647.10749 1.64808e-17
4650.06239 1.65637e-17
4653.02739 1.64691e-17
4655.98229 1.62882e-17
4658.93719 1.62025e-17
4661.89210 1.60803e-17
4664.85709 1.59597e-17
4667.81200 1.59684e-17
4670.76690 1.60478e-17
4673.72181 1.58123e-17
4676.68680 1.55749e-17
4679.64170 1.55581e-17
4682.59660 1.55432e-17
4685.55151 1.56383e-17
4688.50641 1.53098e-17
4691.47141 1.50655e-17
4694.42631 1.50966e-17
4697.38121 1.48901e-17
4700.33612 1.48924e-17
4703.30111 1.51829e-17
4706.25601 1.51806e-17
4709.21092 1.51891e-17
4712.16583 1.49853e-17
4715.13082 1.48401e-17
4718.08572 1.47699e-17
4721.04062 1.47408e-17
4723.99553 1.47183e-17
4726.96052 1.44986e-17
4729.91543 1.44297e-17
4732.87033 1.45233e-17
4735.82523 1.44020e-17
4738.79022 1.43319e-17
4741.74513 1.43281e-17
4744.70003 1.42329e-17
4747.65494 1.41689e-17
4750.61993 1.41895e-17
4753.57484 1.41982e-17
4756.52974 1.44489e-17
4759.48464 1.47063e-17
4762.44963 1.46609e-17
4765.40454 1.46483e-17
4768.35945 1.45830e-17
4771.31435 1.44410e-17
4774.27934 1.43834e-17
4777.23424 1.43141e-17
4780.18915 1.45208e-17
4783.14405 1.46591e-17
4786.10905 1.47739e-17
4789.06395 1.46762e-17
4792.01886 1.44609e-17
4794.97376 1.46928e-17
4797.92866 1.50554e-17
4800.89365 1.50263e-17
4803.84856 1.49271e-17
4806.80346 1.48487e-17
4809.75837 1.48379e-17
4812.72336 1.46872e-17
4815.67826 1.47805e-17
4818.63317 1.49657e-17
4821.58807 1.49774e-17
4824.55307 1.49220e-17
4827.50797 1.48495e-17
4830.46288 1.47883e-17
4833.41778 1.46396e-17
4836.38277 1.45713e-17
4839.33767 1.47025e-17
4842.29258 1.48358e-17
4845.24748 1.48369e-17
4848.21248 1.47438e-17
4851.16738 1.46466e-17
4854.12228 1.46919e-17
4857.07719 1.47029e-17
4860.04218 1.48038e-17
4862.99708 1.47561e-17
4865.95199 1.47204e-17
4868.90690 1.47100e-17
4871.87189 1.48317e-17
4874.82679 1.51491e-17
4877.78169 1.52364e-17
4880.73660 1.50893e-17
4883.70159 1.49157e-17
4886.65650 1.49809e-17
4889.61140 1.50461e-17
4892.56630 1.51113e-17
4895.53129 1.51764e-17
4898.48620 1.52416e-17
4901.44110 1.53067e-17
4904.39601 1.53718e-17
4907.35091 1.54368e-17
4910.31591 1.55019e-17
4913.27081 1.55669e-17
4916.22571 1.56320e-17
4919.18062 1.56970e-17
4922.14561 1.57619e-17
4925.10052 1.58888e-17
4928.05542 1.58199e-17
4931.01032 1.57620e-17
4933.97531 1.57188e-17
4936.93022 1.56645e-17
4939.88512 1.55325e-17
4942.84003 1.56742e-17
4945.80502 1.58244e-17
4948.75993 1.56355e-17
4951.71483 1.57562e-17
4954.66973 1.57278e-17
4957.63472 1.55165e-17
4960.58963 1.55213e-17
4963.54453 1.56048e-17
4966.49944 1.55489e-17
4969.46443 1.55879e-17
4972.41933 1.58266e-17
4975.37424 1.58687e-17
4978.32914 1.56781e-17
4981.29414 1.56904e-17
4984.24904 1.56919e-17
4987.20395 1.56934e-17
4990.15885 1.56949e-17
4993.12384 1.56964e-17
4996.07874 1.56979e-17
4999.03365 1.56994e-17
5001.98855 1.57010e-17
5004.95355 1.57025e-17
5007.90845 1.57040e-17
5010.86335 1.57055e-17
5013.81826 1.57070e-17
5016.78325 1.57085e-17
5019.73816 1.57100e-17
5022.69306 1.57853e-17
5025.64797 1.58316e-17
5028.60287 1.57815e-17
5031.56786 1.58005e-17
5034.52276 1.58195e-17
5037.47767 1.58385e-17
5040.43257 1.58574e-17
5043.39757 1.58764e-17
5046.35247 1.58953e-17
5049.30737 1.59143e-17
5052.26228 1.59332e-17
5055.22727 1.59522e-17
5058.18217 1.59711e-17
5061.13708 1.59901e-17
5064.09199 1.60090e-17
5067.05698 1.60279e-17
5070.01188 1.60469e-17
5072.96678 1.61009e-17
5075.92169 1.60839e-17
5078.88668 1.62836e-17
5081.84159 1.63913e-17
5084.79649 1.64102e-17
5087.75139 1.62894e-17
5090.71638 1.62764e-17
5093.67129 1.64087e-17
5096.62619 1.64348e-17
5099.58110 1.65327e-17
5102.54609 1.66343e-17
5105.50100 1.67253e-17
5108.45590 1.68224e-17
5111.41080 1.66001e-17
5114.37579 1.64789e-17
5117.33070 1.68268e-17
5120.28561 1.69110e-17
5123.24051 1.67321e-17
5126.20550 1.68960e-17
5129.16040 1.70901e-17
5132.11531 1.69471e-17
5135.07021 1.68859e-17
5138.02512 1.69937e-17
5140.99011 1.72823e-17
5143.94502 1.75557e-17
5146.89992 1.73750e-17
5149.85482 1.73612e-17
5152.81981 1.72469e-17
5155.77472 1.72152e-17
5158.72962 1.74273e-17
5161.68453 1.74928e-17
5164.64952 1.75157e-17
5167.60442 1.74421e-17
5170.55933 1.74010e-17
5173.51423 1.77064e-17
5176.47923 1.80061e-17
5179.43413 1.80548e-17
5182.38904 1.78461e-17
5185.34394 1.78438e-17
5188.30893 1.79965e-17
5191.26383 1.80167e-17
5194.21874 1.78619e-17
5197.17364 1.79136e-17
5200.13864 1.79093e-17
5203.09354 1.80842e-17
5206.04844 1.84435e-17
5209.00335 1.83987e-17
5211.96834 1.84148e-17
5214.92324 1.84604e-17
5217.87815 1.85096e-17
5220.83306 1.86826e-17
5223.79805 1.86472e-17
5226.75295 1.84363e-17
5229.70785 1.86183e-17
5232.66276 1.89410e-17
5235.62775 1.88853e-17
5238.58266 1.87681e-17
5241.53756 1.86587e-17
5244.49246 1.85908e-17
5247.45745 1.83969e-17
5250.41236 1.85553e-17
5253.36726 1.86606e-17
5256.32217 1.89715e-17
5259.27707 1.93405e-17
5262.24207 1.95160e-17
5265.19697 1.94938e-17
5268.15187 1.91604e-17
5271.10678 1.92502e-17
5274.07177 1.93779e-17
5277.02668 1.94414e-17
5279.98158 1.92816e-17
5282.93648 1.93959e-17
5285.90147 1.95488e-17
5288.85638 1.96719e-17
5291.81128 1.97022e-17
5294.76619 1.97592e-17
5297.73118 1.98041e-17
5300.68609 1.97855e-17
5303.64099 1.96829e-17
5306.59589 1.97738e-17
5309.56088 1.98563e-17
5312.51579 1.97030e-17
5315.47069 1.98460e-17
5318.42560 2.00249e-17
5321.39059 2.02351e-17
5324.34549 2.05101e-17
5327.30040 2.03970e-17
5330.25530 2.02794e-17
5333.22030 2.03912e-17
5336.17520 2.04860e-17
5339.13011 2.04359e-17
5342.08501 2.04346e-17
5345.05000 2.06197e-17
5348.00490 2.07203e-17
5350.95981 2.07659e-17
5353.91471 2.07288e-17
5356.87970 2.08097e-17
5359.83461 2.06963e-17
5362.78951 2.04867e-17
5365.74442 2.07004e-17
5368.70941 2.07704e-17
5371.66431 2.07432e-17
5374.61922 2.07299e-17
5377.57413 2.06570e-17
5380.52903 2.07627e-17
5383.49402 2.06376e-17
5386.44892 2.05794e-17
5389.40383 2.10145e-17
5392.35873 2.11148e-17
5395.32373 2.10382e-17
5398.27863 2.10614e-17
5401.23353 2.10006e-17
5404.18844 2.10538e-17
5407.15343 2.10583e-17
5410.10833 2.11866e-17
5413.06324 2.12966e-17
5416.01815 2.11471e-17
5418.98314 2.11826e-17
5421.93804 2.10436e-17
5424.89294 2.08848e-17
5427.84785 2.08843e-17
5430.81284 2.09608e-17
5433.76775 2.10462e-17
5436.72265 2.11869e-17
5439.67755 2.12019e-17
5442.64255 2.09549e-17
5445.59745 2.06719e-17
5448.55235 2.06883e-17
5451.50726 2.09607e-17
5454.47225 2.09815e-17
5457.42716 2.06228e-17
5460.38206 2.04800e-17
5463.33696 2.07077e-17
5466.30195 2.06212e-17
5469.25686 2.02173e-17
5472.21177 2.01580e-17
5475.16667 2.02861e-17
5478.13166 2.01484e-17
5481.08657 2.00543e-17
5484.04147 2.01140e-17
5486.99637 1.99674e-17
5489.96136 1.96896e-17
5492.91627 1.96658e-17
5495.87118 1.99126e-17
5498.82608 1.99429e-17
5501.78098 1.96123e-17
5504.74597 1.93471e-17
5507.70088 1.92205e-17
5510.65578 1.92038e-17
5513.61069 1.92901e-17
5516.57568 1.94471e-17
5519.53058 1.94631e-17
5522.48549 1.93306e-17
5525.44039 1.90495e-17
5528.40539 1.89779e-17
5531.36029 1.89630e-17
5534.31520 1.89514e-17
5537.27010 1.88497e-17
5540.23509 1.87040e-17
5543.18999 1.87247e-17
5546.14490 1.87265e-17
5549.09980 1.84960e-17
5552.06480 1.82833e-17
5555.01970 1.82577e-17
5557.97460 1.81733e-17
5560.92951 1.79246e-17
5563.89450 1.75230e-17
5566.84940 1.74539e-17
5569.80431 1.75694e-17
5572.75922 1.76286e-17
5575.72420 1.77365e-17
5578.67911 1.78147e-17
5581.63401 1.75721e-17
5584.58892 1.71105e-17
5587.55391 1.69063e-17
5590.50882 1.69329e-17
5593.46372 1.69307e-17
5596.41862 1.67953e-17
5599.38361 1.68173e-17
5602.33852 1.69492e-17
5605.29342 1.67448e-17
5608.24833 1.65839e-17
5611.21332 1.66027e-17
5614.16823 1.65668e-17
5617.12313 1.65583e-17
5620.07803 1.64356e-17
5623.03294 1.64010e-17
5625.99793 1.64305e-17
5628.95284 1.64966e-17
5631.90774 1.65542e-17
5634.86264 1.63627e-17
5637.82764 1.62462e-17
5640.78254 1.62732e-17
5643.73744 1.62550e-17
5646.69235 1.62467e-17
5649.65734 1.64229e-17
5652.61225 1.65188e-17
5655.56715 1.63455e-17
5658.52205 1.63376e-17
5661.48704 1.63714e-17
5664.44195 1.62923e-17
5667.39685 1.61404e-17
5670.35176 1.62283e-17
5673.31675 1.61609e-17
5676.27166 1.61746e-17
5679.22656 1.62833e-17
5682.18146 1.62348e-17
5685.14645 1.60924e-17
5688.10136 1.60078e-17
5691.05627 1.60329e-17
5694.01117 1.61599e-17
5696.97616 1.61605e-17
5699.93106 1.60728e-17
5702.88597 1.60814e-17
5705.84087 1.59520e-17
5708.80586 1.57453e-17
5711.76077 1.56717e-17
5714.71567 1.58904e-17
5717.67058 1.60038e-17
5720.63557 1.57729e-17
5723.59047 1.57786e-17
5726.54538 1.60712e-17
5729.50029 1.60322e-17
5732.46527 1.58379e-17
5735.42018 1.59297e-17
5738.37508 1.59316e-17
5741.32999 1.58528e-17
5744.28489 1.59381e-17
5747.24989 1.60075e-17
5750.20479 1.58417e-17
5753.15969 1.57891e-17
5756.11460 1.59852e-17
5759.07959 1.59421e-17
5762.03449 1.58583e-17
5764.98940 1.59063e-17
5767.94430 1.58857e-17
5770.90930 1.58568e-17
5773.86420 1.57516e-17
5776.81910 1.57845e-17
5779.77401 1.59063e-17
5782.73900 1.58747e-17
5785.69391 1.58861e-17
5788.64881 1.59346e-17
5791.60371 1.58252e-17
5794.56870 1.60052e-17
5797.52361 1.61424e-17
5800.47851 1.58877e-17
5803.43342 1.57591e-17
5806.39841 1.60765e-17
5809.35332 1.61522e-17
5812.30822 1.61164e-17
5815.26312 1.59466e-17
5818.22811 1.58363e-17
5821.18302 1.58380e-17
5824.13792 1.58095e-17
5827.09283 1.58192e-17
5830.05782 1.57801e-17
5833.01273 1.58574e-17
5835.96763 1.57938e-17
5838.92253 1.55690e-17
5841.88752 1.55702e-17
5844.84243 1.57648e-17
5847.79734 1.56638e-17
5850.75224 1.55333e-17
5853.71723 1.54359e-17
5856.67213 1.52414e-17
5859.62704 1.53350e-17
5862.58194 1.54773e-17
5865.53685 1.54661e-17
5868.50184 1.53290e-17
5871.45675 1.51742e-17
5874.41165 1.50122e-17
5877.36655 1.49892e-17
5880.33155 1.48374e-17
5883.28645 1.46769e-17
5886.24136 1.47918e-17
5889.19626 1.47830e-17
5892.16125 1.46041e-17
5895.11615 1.46041e-17
5898.07106 1.45647e-17
5901.02596 1.44878e-17
5903.99095 1.46447e-17
5906.94586 1.46024e-17
5909.90077 1.46524e-17
5912.85567 1.46336e-17
5915.82066 1.44402e-17
5918.77556 1.42986e-17
5921.73047 1.44346e-17
5924.68538 1.44818e-17
5927.65036 1.44103e-17
5930.60527 1.44449e-17
5933.56017 1.44636e-17
5936.51508 1.44031e-17
5939.48007 1.43040e-17
5942.43498 1.41705e-17
5945.38988 1.40726e-17
5948.34478 1.40257e-17
5951.30977 1.40661e-17
5954.26468 1.41899e-17
5957.21958 1.42159e-17
5960.17449 1.41347e-17
5963.13948 1.38894e-17
5966.09439 1.38513e-17
5969.04929 1.38935e-17
5972.00419 1.38149e-17
5974.95910 1.37213e-17
5977.92409 1.36545e-17
5980.87900 1.36757e-17
5983.83390 1.35980e-17
5986.78880 1.35337e-17
5989.75380 1.34805e-17
5992.70870 1.35674e-17
5995.66360 1.35848e-17
5998.61851 1.34559e-17
6001.58350 1.32975e-17
6004.53841 1.33600e-17
6007.49331 1.34044e-17
6010.44821 1.34302e-17
6013.41320 1.34923e-17
6016.36811 1.33423e-17
6019.32301 1.30913e-17
6022.27792 1.30815e-17
6025.24291 1.31615e-17
6028.19782 1.31017e-17
6031.15272 1.30431e-17
6034.10762 1.30967e-17
6037.07261 1.32967e-17
6040.02752 1.32448e-17
6042.98243 1.30902e-17
6045.93733 1.30963e-17
6048.90232 1.30259e-17
6051.85722 1.29731e-17
6054.81213 1.28662e-17
6057.76703 1.29022e-17
6060.73202 1.28838e-17
6063.68693 1.28048e-17
6066.64184 1.28989e-17
6069.59674 1.29044e-17
6072.56173 1.30167e-17
6075.51663 1.30031e-17
6078.47154 1.28167e-17
6081.42645 1.26924e-17
6084.38135 1.26896e-17
6087.34634 1.26899e-17
6090.30124 1.28291e-17
6093.25615 1.28712e-17
6096.21105 1.25887e-17
6099.17605 1.24390e-17
6102.13095 1.26335e-17
6105.08586 1.27508e-17
6108.04076 1.24867e-17
6111.00575 1.23519e-17
6113.96065 1.23228e-17
6116.91556 1.23679e-17
6119.87046 1.25207e-17
6122.83545 1.24378e-17
6125.79036 1.24295e-17
6128.74526 1.23457e-17
6131.70017 1.22265e-17
6134.66516 1.20350e-17
6137.62007 1.19492e-17
6140.57497 1.21066e-17
6143.52987 1.21805e-17
6146.49486 1.22032e-17
6149.44977 1.22590e-17
6152.40467 1.21901e-17
6155.35958 1.21124e-17
6158.32457 1.21200e-17
6161.27948 1.21440e-17
6164.23438 1.22083e-17
6167.18928 1.21259e-17
6170.15427 1.20555e-17
6173.10918 1.22323e-17
6176.06408 1.23442e-17
6179.01899 1.23964e-17
6181.98398 1.22576e-17
6184.93889 1.23096e-17
6187.89379 1.23974e-17
6190.84869 1.23047e-17
6193.80360 1.22528e-17
6196.76859 1.23011e-17
6199.72350 1.22530e-17
6202.67840 1.20841e-17
6205.63330 1.21423e-17
6208.59829 1.23211e-17
6211.55320 1.22644e-17
6214.50810 1.21942e-17
6217.46301 1.23053e-17
6220.42800 1.22815e-17
6223.38291 1.21315e-17
6226.33781 1.21327e-17
6229.29271 1.23961e-17
6232.25770 1.25904e-17
6235.21261 1.25953e-17
6238.16752 1.26629e-17
6241.12242 1.25493e-17
6244.08741 1.24377e-17
6247.04231 1.25297e-17
6249.99722 1.25675e-17
6252.95212 1.25684e-17
6255.91711 1.26131e-17
6258.87202 1.26350e-17
6261.82693 1.24973e-17
6264.78183 1.24820e-17
6267.74682 1.27164e-17
6270.70172 1.27685e-17
6273.65663 1.26722e-17
6276.61154 1.26131e-17
6279.57652 1.24878e-17
6282.53143 1.24763e-17
6285.48633 1.25204e-17
6288.44124 1.27146e-17
6291.40623 1.30807e-17
6294.36114 1.31493e-17
6297.31604 1.29304e-17
6300.27095 1.28854e-17
6303.22585 1.31326e-17
6306.19084 1.33657e-17
6309.14574 1.34731e-17
6312.10065 1.34873e-17
6315.05555 1.34283e-17
6318.02055 1.35395e-17
6320.97545 1.35995e-17
6323.93035 1.35654e-17
6326.88526 1.35738e-17
6329.85025 1.36790e-17
6332.80516 1.38472e-17
6335.76006 1.39489e-17
6338.71496 1.36314e-17
6341.67995 1.34572e-17
6344.63486 1.35921e-17
6347.58976 1.36738e-17
6350.54467 1.37495e-17
6353.50966 1.37768e-17
6356.46457 1.37796e-17
6359.41947 1.39263e-17
6362.37437 1.40246e-17
6365.33936 1.39858e-17
6368.29427 1.39951e-17
6371.24917 1.40938e-17
6374.20408 1.42001e-17
6377.16907 1.38891e-17
6380.12398 1.39524e-17
6383.07888 1.41395e-17
6386.03378 1.40973e-17
6388.99877 1.41533e-17
6391.95368 1.41387e-17
6394.90859 1.40838e-17
6397.86349 1.41943e-17
6400.82848 1.41760e-17
6403.78338 1.41509e-17
6406.73829 1.43096e-17
6409.69319 1.44052e-17
6412.65818 1.45222e-17
6415.61309 1.46252e-17
6418.56800 1.44991e-17
6421.52290 1.43727e-17
6424.47780 1.42737e-17
6427.44279 1.44400e-17
6430.39770 1.48107e-17
6433.35261 1.47526e-17
6436.30751 1.46166e-17
6439.27250 1.46681e-17
6442.22740 1.46955e-17
6445.18231 1.45232e-17
6448.13721 1.45244e-17
6451.10220 1.45123e-17
6454.05711 1.44538e-17
6457.01202 1.44530e-17
6459.96692 1.46385e-17
6462.93191 1.47834e-17
6465.88681 1.47057e-17
6468.84172 1.46162e-17
6471.79662 1.46444e-17
6474.76161 1.46926e-17
6477.71652 1.45907e-17
6480.67142 1.47176e-17
6483.62633 1.47173e-17
6486.59132 1.43962e-17
6489.54623 1.45868e-17
6492.50113 1.47694e-17
6495.45604 1.46595e-17
6498.42102 1.45724e-17
6501.37593 1.44861e-17
6504.33083 1.45408e-17
6507.28574 1.46409e-17
6510.25073 1.45736e-17
6513.20564 1.43624e-17
6516.16054 1.42826e-17
6519.11544 1.44481e-17
6522.08043 1.46277e-17
6525.03534 1.46742e-17
6527.99024 1.45355e-17
6530.94515 1.43266e-17
6533.91014 1.42509e-17
6536.86505 1.44088e-17
6539.81995 1.45706e-17
6542.77485 1.45095e-17
6545.73984 1.42635e-17
6548.69475 1.43329e-17
6551.64966 1.42449e-17
6554.60456 1.41309e-17
6557.55946 1.41327e-17
6560.52445 1.41880e-17
6563.47936 1.42557e-17
6566.43426 1.42069e-17
6569.38917 1.40812e-17
6572.35416 1.40078e-17
6575.30907 1.39898e-17
6578.26397 1.39851e-17
6581.21887 1.39320e-17
6584.18386 1.39013e-17
6587.13877 1.39902e-17
6590.09368 1.39590e-17
6593.04858 1.39278e-17
6596.01357 1.38966e-17
6598.96847 1.38654e-17
6601.92338 1.38342e-17
6604.87828 1.38031e-17
6607.84327 1.37719e-17
6610.79818 1.37407e-17
6613.75309 1.37095e-17
6616.70799 1.36784e-17
6619.67298 1.36472e-17
6622.62788 1.36161e-17
6625.58279 1.35849e-17
6628.53769 1.35538e-17
6631.50268 1.35226e-17
6634.45759 1.34915e-17
6637.41249 1.34604e-17
6640.36740 1.34293e-17
6643.33239 1.33981e-17
6646.28730 1.33670e-17
6649.24220 1.33359e-17
6652.19711 1.35137e-17
6655.16209 1.36078e-17
6658.11700 1.35416e-17
6661.07190 1.33918e-17
6664.02681 1.33511e-17
6666.98171 1.32681e-17
6669.94670 1.30782e-17
6672.90161 1.30229e-17
6675.85651 1.30776e-17
6678.81142 1.30936e-17
6681.77641 1.30201e-17
6684.73131 1.29079e-17
6687.68622 1.28449e-17
6690.64113 1.26767e-17
6693.60611 1.24457e-17
6696.56102 1.23775e-17
6699.51592 1.25884e-17
6702.47083 1.27722e-17
6705.43582 1.26733e-17
6708.39073 1.26286e-17
6711.34563 1.26155e-17
6714.30053 1.26281e-17
6717.26552 1.26775e-17
6720.22043 1.25412e-17
6723.17533 1.24267e-17
6726.13024 1.24519e-17
6729.09523 1.23528e-17
6732.05014 1.23093e-17
6735.00504 1.23366e-17
6737.95994 1.21257e-17
6740.92493 1.20259e-17
6743.87984 1.20966e-17
6746.83475 1.21902e-17
6749.78965 1.22386e-17
6752.75464 1.21507e-17
6755.70954 1.21098e-17
6758.66445 1.19467e-17
6761.61935 1.18889e-17
6764.58434 1.19791e-17
6767.53925 1.18578e-17
6770.49416 1.16869e-17
6773.44906 1.17641e-17
6776.41405 1.20109e-17
6779.36895 1.21860e-17
6782.32386 1.21001e-17
6785.27877 1.18236e-17
6788.23367 1.16018e-17
6791.19866 1.14775e-17
6794.15356 1.15612e-17
6797.10847 1.16404e-17
6800.06337 1.17752e-17
6803.02836 1.18272e-17
6805.98327 1.16517e-17
6808.93818 1.15634e-17
6811.89308 1.15991e-17
6814.85807 1.15649e-17
6817.81297 1.15267e-17
6820.76788 1.14945e-17
6823.72278 1.14173e-17
6826.68777 1.15298e-17
6829.64268 1.17142e-17
6832.59758 1.15049e-17
6835.55249 1.13306e-17
6838.51748 1.12282e-17
6841.47239 1.11325e-17
6844.42729 1.11914e-17
6847.38220 1.11614e-17
6850.34718 1.11313e-17
6853.30209 1.11013e-17
6856.25699 1.10712e-17
6859.21190 1.10412e-17
6862.17689 1.10111e-17
6865.13180 1.09811e-17
6868.08670 1.09510e-17
6871.04160 1.09210e-17
6874.00659 1.08910e-17
6876.96150 1.08610e-17
6879.91640 1.08309e-17
6882.87131 1.08009e-17
6885.83630 1.07709e-17
6888.79120 1.07409e-17
6891.74611 1.07109e-17
6894.70101 1.06809e-17
6897.65592 1.06509e-17
6900.62091 1.06209e-17
6903.57582 1.05909e-17
6906.53072 1.05609e-17
6909.48562 1.05309e-17
6912.45061 1.05010e-17
6915.40552 1.04710e-17
6918.36042 1.04410e-17
6921.31533 1.04110e-17
6924.28032 1.03811e-17
6927.23523 1.03511e-17
6930.19013 1.03212e-17
6933.14503 1.02912e-17
6936.11002 1.02613e-17
6939.06493 1.02493e-17
6942.01984 1.01647e-17
6944.97474 9.98668e-18
6947.93973 1.00318e-17
6950.89463 1.02173e-17
6953.84954 1.03271e-17
6956.80444 1.02788e-17
6959.76943 1.00711e-17
6962.72434 9.95353e-18
6965.67925 9.94219e-18
6968.63415 1.00853e-17
6971.59914 1.01747e-17
6974.55404 1.00203e-17
6977.50895 9.96813e-18
6980.46385 9.89280e-18
6983.42884 9.76536e-18
6986.38375 9.76214e-18
6989.33865 9.87836e-18
6992.29356 9.89270e-18
6995.25855 9.81888e-18
6998.21345 9.89158e-18
7001.16836 9.82745e-18
7004.12327 9.64837e-18
7007.07817 9.63817e-18
7010.04316 9.68465e-18
7012.99806 9.68403e-18
7015.95297 9.75688e-18
7018.90787 9.75305e-18
7021.87286 9.64481e-18
7024.82777 9.58681e-18
7027.78267 9.65005e-18
7030.73758 9.67524e-18
7033.70257 9.60148e-18
7036.65747 9.54774e-18
7039.61238 9.53327e-18
7042.56729 9.51855e-18
7045.53227 9.57274e-18
7048.48718 9.58165e-18
7051.44208 9.40255e-18
7054.39699 9.37870e-18
7057.36198 9.44991e-18
7060.31689 9.35985e-18
7063.27179 9.32758e-18
7066.22669 9.23793e-18
7069.19168 9.17508e-18
7072.14659 9.15864e-18
7075.10149 9.18357e-18
7078.05640 9.33606e-18
7081.02139 9.38483e-18
7083.97630 9.35687e-18
7086.93120 9.42010e-18
7089.88610 9.31427e-18
7092.85109 9.02693e-18
7095.80600 8.89885e-18
7098.76091 8.96752e-18
7101.71581 9.04997e-18
7104.68080 9.03328e-18
7107.63570 8.93926e-18
7110.59061 8.92115e-18
7113.54551 8.99392e-18
7116.51050 9.10542e-18
7119.46541 9.23422e-18
7122.42032 9.24430e-18
7125.37522 9.09077e-18
7128.33012 9.01301e-18
7131.29511 9.12199e-18
7134.25002 9.19567e-18
7137.20493 9.11064e-18
7140.15983 8.98363e-18
7143.12482 8.94147e-18
7146.07972 8.93798e-18
7149.03463 8.83169e-18
7151.98953 8.69133e-18
7154.95452 8.60626e-18
7157.90943 8.56320e-18
7160.86434 8.57605e-18
7163.81924 8.58897e-18
7166.78423 8.49416e-18
7169.73913 8.32278e-18
7172.69404 8.20340e-18
7175.64894 8.02059e-18
7178.61393 7.75160e-18
7181.56884 7.72542e-18
7184.52374 7.78642e-18
7187.47865 7.83530e-18
7190.44364 7.71207e-18
7193.39855 7.63520e-18
7196.35345 7.69705e-18
7199.30836 7.75047e-18
7202.27334 7.88316e-18
7205.22825 7.79877e-18
7208.18315 7.40078e-18
7211.13806 7.21506e-18
7214.10305 7.38324e-18
7217.05795 7.55023e-18
7220.01286 7.61265e-18
7222.96776 7.67970e-18
7225.93275 7.62920e-18
7228.88766 7.52903e-18
7231.84256 7.49680e-18
7234.79747 7.39676e-18
7237.75238 7.23103e-18
7240.71736 7.10646e-18
7243.67227 7.18656e-18
7246.62717 7.35902e-18
7249.58208 7.33512e-18
7252.54707 7.26352e-18
7255.50198 7.29438e-18
7258.45688 7.24920e-18
7261.41178 7.13361e-18
7264.37677 7.00774e-18
7267.33168 6.93024e-18
7270.28658 6.96996e-18
7273.24149 6.96602e-18
7276.20648 6.99660e-18
7279.16139 7.16275e-18
7282.11629 7.24634e-18
7285.07119 7.22191e-18
7288.03618 7.12905e-18
7290.99109 7.01182e-18
7293.94600 7.00379e-18
7296.90090 6.95782e-18
7299.86589 6.77149e-18
7302.82080 6.75922e-18
7305.77570 6.87026e-18
7308.73060 6.72221e-18
7311.69559 6.58539e-18
7314.65050 6.66689e-18
7317.60541 6.69081e-18
7320.56031 6.66962e-18
7323.52530 6.65639e-18
7326.48020 6.62785e-18
7329.43511 6.67502e-18
7332.39001 6.71897e-18
7335.35500 6.65505e-18
7338.30991 6.61881e-18
7341.26481 6.66901e-18
7344.21972 6.73120e-18
7347.18471 6.72506e-18
7350.13961 6.57178e-18
7353.09452 6.57454e-18
7356.04943 6.66395e-18
7359.00433 6.70619e-18
7361.96932 6.56908e-18
7364.92422 6.28275e-18
7367.87913 6.21478e-18
7370.83403 6.32251e-18
7373.79902 6.33932e-18
7376.75393 6.31743e-18
7379.70883 6.29850e-18
7382.66374 6.23229e-18
7385.62873 6.18677e-18
7388.58363 6.23688e-18
7391.53854 6.29239e-18
7394.49345 6.29651e-18
7397.45843 6.24765e-18
7400.41334 6.17341e-18
7403.36824 6.12726e-18
7406.32315 6.22978e-18
7409.28814 6.30337e-18
7412.24305 6.29508e-18
7415.19795 6.29596e-18
7418.15285 6.16384e-18
7421.11784 5.95540e-18
7424.07275 5.84934e-18
7427.02765 5.82541e-18
7429.98256 5.85721e-18
7432.94755 5.89972e-18
7435.90245 5.91301e-18
7438.85736 5.94962e-18
7441.81226 6.01935e-18
7444.77725 6.05148e-18
7447.73216 5.95169e-18
7450.68707 5.83751e-18
7453.64197 5.80036e-18
7456.60696 5.68687e-18
7459.56186 5.56795e-18
7462.51677 5.57612e-18
7465.47167 5.54911e-18
7468.43666 5.57074e-18
7471.39157 5.65145e-18
7474.34648 5.66120e-18
7477.30138 5.58183e-18
7480.25628 5.54786e-18
7483.22127 5.55769e-18
7486.17618 5.52379e-18
7489.13108 5.40555e-18
7492.08599 5.31090e-18
7495.05098 5.37128e-18
7498.00589 5.50224e-18
7500.96079 5.58746e-18
7503.91569 5.56950e-18
7506.88068 5.49760e-18
7509.83559 5.58109e-18
7512.79050 5.51907e-18
7515.74540 5.38863e-18
7518.71039 5.35857e-18
7521.66529 5.36526e-18
7524.62020 5.38975e-18
7527.57510 5.34351e-18
7530.54009 5.34652e-18
7533.49500 5.39144e-18
7536.44990 5.34485e-18
7539.40481 5.37809e-18
7542.36980 5.44220e-18
7545.32470 5.46056e-18
7548.27961 5.47955e-18
7551.23452 5.47410e-18
7554.19950 5.46866e-18
7557.15441 5.46321e-18
7560.10931 5.45777e-18
7563.06422 5.45233e-18
7566.02921 5.44689e-18
7568.98411 5.44145e-18
7571.93902 5.43601e-18
7574.89392 5.43057e-18
7577.85891 5.42513e-18
7580.81382 5.41969e-18
7583.76872 5.41425e-18
7586.72363 5.40881e-18
7589.68862 5.40338e-18
7592.64352 5.39794e-18
7595.59843 5.39250e-18
7598.55333 5.38707e-18
7601.50824 5.38163e-18
7604.47323 5.37620e-18
7607.42814 5.37077e-18
7610.38304 5.36534e-18
7613.33794 5.35990e-18
7616.30293 5.35447e-18
7619.25784 5.34904e-18
7622.21274 5.34361e-18
7625.16765 5.33819e-18
7628.13264 5.33276e-18
7631.08755 5.32733e-18
7634.04245 5.32190e-18
7636.99735 5.31648e-18
7639.96234 5.31105e-18
7642.91725 5.30562e-18
7645.87216 5.30020e-18
7648.82706 5.29478e-18
7651.79205 5.28935e-18
7654.74695 5.28393e-18
7657.70186 5.27851e-18
7660.65676 5.27309e-18
7663.62175 5.26767e-18
7666.57666 5.26225e-18
7669.53157 5.25683e-18
7672.48647 5.25141e-18
7675.45146 5.24599e-18
7678.40636 5.24058e-18
7681.36127 5.23516e-18
7684.31617 4.99802e-18
7687.28116 4.83980e-18
7690.23607 4.67673e-18
7693.19098 4.67505e-18
7696.14588 4.78484e-18
7699.11087 4.92136e-18
7702.06577 5.15757e-18
7705.02068 5.33802e-18
7707.97559 5.25772e-18
7710.94057 5.23629e-18
7713.89548 5.29115e-18
7716.85038 5.24229e-18
7719.80529 5.03685e-18
7722.77028 4.90701e-18
7725.72518 4.93522e-18
7728.68009 4.99737e-18
7731.63499 5.10234e-18
7734.58990 5.16852e-18
7737.55489 5.23494e-18
7740.50979 5.24506e-18
7743.46470 5.16976e-18
7746.41961 5.07471e-18
7749.38459 5.09457e-18
7752.33950 5.09236e-18
7755.29440 5.08215e-18
7758.24931 5.12671e-18
7761.21430 5.07681e-18
7764.16920 4.95787e-18
7767.12411 4.95060e-18
7770.07901 5.05746e-18
7773.04400 5.11617e-18
7775.99891 5.11171e-18
7778.95381 5.20996e-18
7781.90872 5.19646e-18
7784.87371 5.07796e-18
7787.82861 5.00354e-18
7790.78352 5.06505e-18
7793.73842 5.20791e-18
7796.70341 5.27990e-18
7799.65832 5.24132e-18
7802.61323 5.19726e-18
7805.56813 5.33196e-18
7808.53312 5.49394e-18
7811.48802 5.37193e-18
7814.44293 5.27209e-18
7817.39783 5.30975e-18
7820.36282 5.28988e-18
7823.31773 5.21272e-18
7826.27264 5.18821e-18
7829.22754 5.16430e-18
7832.19253 5.14417e-18
7835.14743 5.18015e-18
7838.10234 5.19951e-18
7841.05724 5.22242e-18
7844.02223 5.29006e-18
7846.97714 5.28670e-18
7849.93205 5.25364e-18
7852.88695 5.25519e-18
7855.84185 5.12309e-18
7858.80684 4.95128e-18
7861.76175 5.11906e-18
7864.71666 5.23020e-18
7867.67156 5.17574e-18
7870.63655 5.19831e-18
7873.59145 5.29672e-18
7876.54636 5.36365e-18
7879.50126 5.26117e-18
7882.46625 5.10429e-18
7885.42116 5.09547e-18
7888.37607 5.09165e-18
7891.33097 5.06710e-18
7894.29596 5.16602e-18
7897.25086 5.35796e-18
7900.20577 5.35464e-18
7903.16068 5.31707e-18
7906.12566 5.30667e-18
7909.08057 5.33309e-18
7912.03547 5.48858e-18
7914.99038 5.53073e-18
7917.95537 5.38735e-18
7920.91027 5.28767e-18
7923.86518 5.25184e-18
7926.82009 5.33991e-18
7929.78507 5.51996e-18
7932.73998 5.71113e-18
7935.69488 5.93077e-18
7938.64979 5.98823e-18
7941.61478 5.90251e-18
7944.56968 5.73419e-18
7947.52459 5.45915e-18
7950.47949 5.32576e-18
7953.44448 5.44121e-18
7956.39939 5.41730e-18
7959.35430 5.27411e-18
7962.30920 5.45423e-18
7965.26410 5.62503e-18
7968.22909 5.57741e-18
7971.18400 5.43390e-18
7974.13890 5.40034e-18
7977.09381 5.48079e-18
7980.05880 5.53675e-18
7983.01370 5.51874e-18
7985.96861 5.40788e-18
7988.92351 5.22653e-18
7991.88850 5.17889e-18
7994.84341 5.42553e-18
7997.79832 5.68547e-18
8000.75322 5.73450e-18
8003.71821 5.83648e-18
8006.67311 5.80176e-18
8009.62802 5.62772e-18
8012.58292 5.55734e-18
8015.54791 5.60568e-18
8018.50282 5.56366e-18
8021.45773 5.38382e-18
8024.41263 5.26221e-18
8027.37762 5.47793e-18
8030.33252 5.81323e-18
8033.28743 5.82158e-18
8036.24233 5.79213e-18
8039.20732 5.83129e-18
8042.16223 5.71745e-18
8045.11714 5.60100e-18
8048.07204 5.66536e-18
8051.03703 5.63104e-18
8053.99193 5.46120e-18
8056.94684 5.35888e-18
8059.90175 5.45185e-18
8062.86673 5.55607e-18
8065.82164 5.57583e-18
8068.77654 5.74716e-18
8071.73145 5.97158e-18
8074.69644 5.99076e-18
8077.65134 5.82113e-18
8080.60625 5.75730e-18
8083.56116 5.69809e-18
8086.51606 5.49816e-18
8089.48105 5.45519e-18
8092.43595 5.48040e-18
8095.39086 5.55036e-18
8098.34577 5.59699e-18
8101.31075 5.55391e-18
8104.26566 5.60025e-18
8107.22056 5.61097e-18
8110.17547 5.52523e-18
8113.14046 5.45605e-18
8116.09536 5.47010e-18
8119.05027 5.41307e-18
8122.00518 5.38338e-18
8124.97016 5.31350e-18
8127.92507 5.18052e-18
8130.87997 5.10740e-18
8133.83488 5.26084e-18
8136.79987 5.48393e-18
8139.75477 5.48181e-18
8142.70968 5.37832e-18
8145.66458 5.31375e-18
8148.62957 5.25487e-18
8151.58448 5.20183e-18
8154.53939 5.17586e-18
8157.49429 5.17305e-18
8160.45928 5.12744e-18
8163.41418 5.08438e-18
8166.36909 4.98889e-18
8169.32399 5.02520e-18
8172.28898 5.19982e-18
8175.24389 5.25172e-18
8178.19880 5.21240e-18
8181.15370 5.18883e-18
8184.11869 5.13078e-18
8187.07359 4.98298e-18
8190.02850 4.99730e-18
8192.98340 5.01986e-18
8195.94839 5.05078e-18
8198.90330 5.15237e-18
8201.85820 5.28383e-18
8204.81311 5.37221e-18
8207.76801 5.43739e-18
8210.73301 5.44986e-18
8213.68791 5.38327e-18
8216.64281 5.28127e-18
8219.59772 5.12357e-18
8222.56271 5.04178e-18
8225.51761 5.07271e-18
8228.47252 5.19106e-18
8231.42742 5.09061e-18
8234.39242 4.94076e-18
8237.34732 5.10752e-18
8240.30222 5.43304e-18
8243.25713 5.47781e-18
8246.22212 5.30846e-18
8249.17702 5.27650e-18
8252.13193 5.33904e-18
8255.08684 5.33682e-18
8258.05182 5.28542e-18
8261.00673 5.28053e-18
8263.96163 5.51241e-18
8266.91654 5.84962e-18
8269.88153 5.85075e-18
8272.83644 5.67735e-18
8275.79134 5.68092e-18
8278.74624 5.63283e-18
8281.71123 5.42074e-18
8284.66614 5.32958e-18
8287.62104 5.33474e-18
8290.57595 5.25742e-18
8293.54094 5.31440e-18
8296.49584 5.63050e-18
8299.45075 5.91682e-18
8302.40566 6.05547e-18
8305.37065 6.17244e-18
8308.32555 6.10491e-18
8311.28045 5.94106e-18
8314.23536 5.78325e-18
8317.19026 5.62322e-18
8320.15525 5.54572e-18
8323.11016 5.58086e-18
8326.06506 5.77547e-18
8329.01997 6.05048e-18
8331.98496 6.13109e-18
8334.93987 6.09454e-18
8337.89477 6.20552e-18
8340.84967 6.57252e-18
8343.81466 6.71055e-18
8346.76957 6.51589e-18
8349.72447 6.32501e-18
8352.67938 6.17111e-18
8355.64437 6.04593e-18
8358.59927 6.23065e-18
8361.55418 6.55099e-18
8364.50908 6.59761e-18
8367.47408 6.66449e-18
8370.42898 6.79622e-18
8373.38388 6.72849e-18
8376.33879 6.72337e-18
8379.30378 6.70615e-18
8382.25869 6.66622e-18
8385.21359 6.72523e-18
8388.16849 6.61275e-18
8391.13349 6.40586e-18
8394.08839 6.51868e-18
8397.04329 6.97382e-18
8399.99820 7.37462e-18
8402.95310 7.28175e-18
8405.91809 6.94018e-18
8408.87300 7.02599e-18
8411.82791 7.22580e-18
8414.79290 7.07590e-18
8417.74780 6.86805e-18
8420.70270 6.85537e-18
8423.65761 6.97235e-18
8426.61251 7.14621e-18
8429.57751 7.40768e-18
8432.53241 7.63933e-18
8435.48731 7.62626e-18
8438.45230 7.50777e-18
8441.40721 7.51856e-18
8444.36211 7.57048e-18
8447.31702 7.53490e-18
8450.27192 7.24573e-18
8453.23691 7.04861e-18
8456.19182 7.16379e-18
8459.14673 7.44950e-18
8462.10163 7.66227e-18
8465.06662 7.69677e-18
8468.02153 7.72172e-18
8470.97643 7.79307e-18
8473.93133 7.79000e-18
8476.89632 7.77268e-18
8479.85123 7.83801e-18
8482.80613 7.83185e-18
8485.76104 7.50958e-18
8488.72603 7.28611e-18
8491.68094 7.34256e-18
8494.63584 7.44578e-18
8497.59074 7.47090e-18
8500.55573 7.51154e-18
8503.51064 7.77211e-18
8506.46555 8.12441e-18
8509.42045 8.23461e-18
8512.38544 8.08813e-18
8515.34034 7.85233e-18
8518.29525 7.68975e-18
8521.25015 7.58900e-18
8524.21515 7.50419e-18
8527.17005 7.58600e-18
8530.12495 7.63218e-18
8533.07986 7.67561e-18
8536.04485 7.70327e-18
8538.99976 7.73795e-18
8541.95466 7.92383e-18
8544.90956 8.15797e-18
8547.87456 8.31830e-18
8550.82946 8.35863e-18
8553.78436 8.22978e-18
8556.73927 8.02973e-18
8559.69417 7.89386e-18
8562.65916 7.71264e-18
8565.61407 7.71129e-18
8568.56898 7.76331e-18
8571.52388 7.88607e-18
8574.48887 8.15909e-18
8577.44377 8.38581e-18
8580.39868 8.49541e-18
8583.35358 8.40595e-18
8586.31858 8.16407e-18
8589.27348 7.98719e-18
8592.22838 7.82768e-18
8595.18329 7.83537e-18
8598.14828 7.70736e-18
8601.10318 7.58488e-18
8604.05809 7.61081e-18
8607.01299 7.68468e-18
8609.97798 7.96229e-18
8612.93289 8.37207e-18
8615.88780 8.60561e-18
8618.84270 8.62305e-18
8621.80769 8.51823e-18
8624.76260 8.36453e-18
8627.71750 8.20945e-18
8630.67240 8.05442e-18
8633.63739 7.91811e-18
8636.59230 7.60318e-18
8639.54720 7.55359e-18
8642.50211 7.58356e-18
8645.45701 7.63850e-18
8648.42201 8.00772e-18
8651.37691 8.33594e-18
8654.33181 8.27587e-18
8657.29680 8.12457e-18
8660.25171 8.20340e-18
8663.20662 8.26790e-18
8666.16152 8.04324e-18
8669.11642 7.82825e-18
8672.08141 7.59445e-18
8675.03632 7.35441e-18
8677.99122 7.25339e-18
8680.94613 7.27447e-18
8683.91112 7.24921e-18
8686.86602 7.16844e-18
8689.82093 7.24851e-18
8692.77584 7.54185e-18
8695.74083 7.85214e-18
8698.69573 7.96799e-18
8701.65063 7.81691e-18
8704.60554 7.62364e-18
8707.57053 7.50839e-18
8710.52543 7.22880e-18
8713.48034 6.95780e-18
8716.43524 6.76452e-18
8719.40023 6.79097e-18
8722.35514 6.91532e-18
8725.31005 7.11729e-18
8728.26495 7.42687e-18
8731.22994 7.54391e-18
8734.18484 7.41820e-18
8737.13975 7.26151e-18
8740.09466 7.19283e-18
8743.05965 7.08832e-18
8746.01455 6.86836e-18
8748.96945 6.62402e-18
8751.92436 6.53475e-18
8754.88935 6.59732e-18
8757.84425 6.78720e-18
8760.79916 6.95381e-18
8763.75406 6.91737e-18
8766.71905 6.87710e-18
8769.67396 7.08599e-18
8772.62887 7.36093e-18
8775.58377 7.37346e-18
8778.54876 7.11068e-18
8781.50367 6.80500e-18
8784.45857 6.60593e-18
8787.41347 6.56834e-18
8790.37846 6.47125e-18
8793.33337 6.40053e-18
8796.28827 6.47980e-18
8799.24318 6.47465e-18
8802.19808 6.37754e-18
8805.16308 6.41458e-18
8808.11798 6.52483e-18
8811.07288 6.57186e-18
8814.02779 6.65563e-18
8816.99278 6.79270e-18
8819.94769 6.75549e-18
8822.90259 6.46612e-18
8825.85749 6.06573e-18
8828.82248 5.83714e-18
8831.77739 6.01549e-18
8834.73229 6.24058e-18
8837.68720 6.06888e-18
8840.65219 5.79743e-18
8843.60709 5.91335e-18
8846.56200 6.21827e-18
8849.51691 6.30445e-18
8852.48190 6.31370e-18
8855.43680 6.40059e-18
8858.39171 6.46083e-18
8861.34661 6.41486e-18
8864.31160 6.11976e-18
8867.26650 6.00009e-18
8870.22141 6.00256e-18
8873.17631 5.89613e-18
8876.14130 5.75522e-18
8879.09621 5.74638e-18
8882.05112 5.91858e-18
8885.00602 6.05517e-18
8887.96092 6.05335e-18
8890.92591 6.08747e-18
8893.88082 6.31456e-18
8896.83573 6.27445e-18
8899.79063 6.10375e-18
8902.75562 5.80782e-18
8905.71052 5.57582e-18
8908.66543 5.75290e-18
8911.62033 5.86669e-18
8914.58533 5.74683e-18
8917.54023 5.68492e-18
8920.49513 5.65001e-18
8923.45004 5.64296e-18
8926.41503 5.75502e-18
8929.36994 5.95258e-18
8932.32484 5.93302e-18
8935.27974 5.83469e-18
8938.24474 5.57137e-18
8941.19964 5.45063e-18
8944.15454 5.51802e-18
8947.10945 5.47900e-18
8950.07444 5.37079e-18
8953.02934 5.24847e-18
8955.98425 5.21844e-18
8958.93916 5.28486e-18
8961.90415 5.21603e-18
8964.85905 5.19486e-18
8967.81395 5.33891e-18
8970.76886 5.44727e-18
8973.73385 5.52851e-18
8976.68876 5.57560e-18
8979.64366 5.43806e-18
8982.59856 5.05095e-18
8985.56355 4.79856e-18
8988.51846 4.87379e-18
8991.47336 5.03576e-18
8994.42827 4.96867e-18
8997.39326 4.95204e-18
9000.34816 0.00000e+00
