# wavelength flux
3301.66764 1.13240e-17
3304.62254 1.08325e-17
3307.57745 9.42425e-18
3310.53235 7.20347e-18
3313.48726 6.83943e-18
3316.44216 1.19909e-17
3319.39707 1.44496e-17
3322.34189 1.37880e-17
3325.29679 1.48218e-17
3328.25170 1.23856e-17
3331.20660 1.13680e-17
3334.16151 1.27186e-17
3337.11641 1.29038e-17
3340.07132 1.29484e-17
3343.02622 1.13419e-17
3345.98113 1.08889e-17
3348.93603 1.14341e-17
3351.89094 1.12605e-17
3354.84584 1.11916e-17
3357.79066 1.13925e-17
3360.74557 1.27247e-17
3363.70047 1.42910e-17
3366.65538 1.55051e-17
3369.61028 1.49901e-17
3372.56519 1.64108e-17
3375.52009 1.51009e-17
3378.47500 1.48407e-17
3381.42990 1.43563e-17
3384.38481 1.51977e-17
3387.33971 1.61569e-17
3390.29462 1.60069e-17
3393.24952 1.63473e-17
3396.19434 1.65179e-17
3399.14925 1.46374e-17
3402.10415 1.36020e-17
3405.05906 1.60555e-17
3408.01396 1.71659e-17
3410.96887 1.54937e-17
3413.92377 1.48666e-17
3416.87868 1.60842e-17
3419.83358 1.61959e-17
3422.78849 1.49292e-17
3425.74339 1.53980e-17
3428.69830 1.54357e-17
3431.64312 1.58262e-17
3434.59802 1.62909e-17
3437.55293 1.60477e-17
3440.50783 1.60747e-17
3443.46274 1.64762e-17
3446.41764 1.62418e-17
3449.37255 1.59788e-17
3452.32745 1.67732e-17
3455.28236 1.69482e-17
3458.23727 1.76779e-17
3461.19217 1.74057e-17
3464.14707 1.66954e-17
3467.09189 1.72261e-17
3470.04680 1.74626e-17
3473.00170 1.77704e-17
3475.95661 1.75530e-17
3478.91151 1.83922e-17
3481.86642 1.80827e-17
3484.82132 1.71960e-17
3487.77623 1.76116e-17
3490.73113 1.83836e-17
3493.68604 1.89698e-17
3496.64095 1.91365e-17
3499.59585 1.85735e-17
3502.54067 1.76792e-17
3505.49557 1.78629e-17
3508.45048 1.86435e-17
3511.40538 1.81008e-17
3514.36029 1.72441e-17
3517.31520 1.76447e-17
3520.27010 1.77965e-17
3523.22501 1.75739e-17
3526.17991 1.72273e-17
3529.13481 1.74223e-17
3532.08972 1.79798e-17
3535.04462 1.82681e-17
3537.99953 1.77071e-17
3540.94435 1.73656e-17
3543.89925 1.75234e-17
3546.85416 1.81348e-17
3549.80906 1.81307e-17
3552.76397 1.78374e-17
3555.71888 1.70867e-17
3558.67378 1.73979e-17
3561.62869 1.80055e-17
3564.58359 1.76126e-17
3567.53849 1.72394e-17
3570.49340 1.72859e-17
3573.44830 1.74125e-17
3576.39313 1.79961e-17
3579.34803 1.84759e-17
3582.30294 1.78535e-17
3585.25784 1.73005e-17
3588.21274 1.72856e-17
3591.16765 1.84160e-17
3594.12255 1.87003e-17
3597.07746 1.82332e-17
3600.03237 1.77030e-17
3602.98727 1.77387e-17
3605.94218 1.81981e-17
3608.89708 1.79425e-17
3611.84190 1.72716e-17
3614.79680 1.69797e-17
3617.75171 1.75623e-17
3620.70662 1.81528e-17
3623.66152 1.81957e-17
3626.61643 1.84585e-17
3629.57133 1.88854e-17
3632.52623 1.89488e-17
3635.48114 1.85959e-17
3638.43604 1.85382e-17
3641.39095 1.86602e-17
3644.34586 1.87217e-17
3647.29068 1.88312e-17
3650.24558 1.87829e-17
3653.20048 1.86707e-17
3656.15539 1.88326e-17
3659.11029 1.89944e-17
3662.06520 1.91562e-17
3665.02011 1.93179e-17
3667.97501 1.94796e-17
3670.92991 1.96412e-17
3673.88482 1.85314e-17
3676.83972 1.91222e-17
3679.79463 1.94701e-17
3682.74953 1.92713e-17
3685.69436 1.92105e-17
3688.64926 1.93911e-17
3691.60416 1.94083e-17
3694.55907 1.95259e-17
3697.51397 1.96782e-17
3700.46888 1.97242e-17
3703.42378 1.99318e-17
3706.37869 1.92992e-17
3709.33360 1.92697e-17
3712.28850 1.96485e-17
3715.24340 1.95042e-17
3718.19831 1.95398e-17
3721.14313 1.99928e-17
3724.09803 1.97943e-17
3727.05294 1.98562e-17
3730.00785 2.01990e-17
3732.96275 2.04839e-17
3735.91765 2.03338e-17
3738.87256 2.01695e-17
3741.82746 2.01525e-17
3744.78237 2.01548e-17
3747.73727 2.01571e-17
3750.69218 2.01595e-17
3753.64709 2.01618e-17
3756.60199 2.01642e-17
3759.54681 2.01666e-17
3762.50171 2.01690e-17
3765.45662 2.01715e-17
3768.41152 2.01739e-17
3771.36643 2.01763e-17
3774.32134 2.01788e-17
3777.27624 2.01813e-17
3780.23114 2.01838e-17
3783.18605 2.00533e-17
3786.14095 2.00254e-17
3789.09586 2.03138e-17
3792.05076 2.01202e-17
3794.99559 2.00696e-17
3797.95049 2.01868e-17
3800.90539 2.00182e-17
3803.86030 1.98783e-17
3806.81520 1.97213e-17
3809.77011 1.99560e-17
3812.72501 2.02552e-17
3815.67992 2.03869e-17
3818.63482 2.04573e-17
3821.58973 2.05566e-17
3824.54463 2.03959e-17
3827.49954 2.05623e-17
3830.44436 2.11400e-17
3833.39927 2.10875e-17
3836.35417 2.13101e-17
3839.30907 2.15276e-17
3842.26398 2.14702e-17
3845.21888 2.15542e-17
3848.17379 2.14519e-17
3851.12869 2.15790e-17
3854.08360 2.16110e-17
3857.03850 2.15106e-17
3859.99341 2.18258e-17
3862.94831 2.23510e-17
3865.89313 2.28540e-17
3868.84804 2.30182e-17
3871.80294 2.27238e-17
3874.75785 2.24065e-17
3877.71276 2.25346e-17
3880.66766 2.27982e-17
3883.62256 2.26306e-17
3886.57747 2.27563e-17
3889.53237 2.29998e-17
3892.48728 2.32754e-17
3895.44218 2.32706e-17
3898.39709 2.31551e-17
3901.35199 2.29390e-17
3904.29681 2.29201e-17
3907.25172 2.31502e-17
3910.20662 2.35080e-17
3913.16153 2.36788e-17
3916.11643 2.34624e-17
3919.07134 2.35354e-17
3922.02624 2.41388e-17
3924.98115 2.42154e-17
3927.93605 2.40426e-17
3930.89096 2.39178e-17
3933.84586 2.40100e-17
3936.80077 2.39202e-17
3939.74559 2.39248e-17
3942.70049 2.41516e-17
3945.65540 2.44823e-17
3948.61030 2.44883e-17
3951.56521 2.44978e-17
3954.52011 2.43711e-17
3957.47502 2.43348e-17
3960.42992 2.43181e-17
3963.38483 2.38494e-17
3966.33973 2.37018e-17
3969.29464 2.41464e-17
3972.24954 2.46483e-17
3975.19436 2.48996e-17
3978.14927 2.47329e-17
3981.10417 2.45384e-17
3984.05908 2.47195e-17
3987.01398 2.48607e-17
3989.96889 2.46855e-17
3992.92379 2.45685e-17
3995.87870 2.46773e-17
3998.83360 2.48887e-17
4001.78851 2.49946e-17
4004.74341 2.50456e-17
4007.69832 2.50228e-17
4010.64314 2.48335e-17
4013.59804 2.47745e-17
4016.55295 2.49086e-17
4019.50785 2.50539e-17
4022.46276 2.52620e-17
4025.41766 2.56193e-17
4028.37257 2.54343e-17
4031.32747 2.52355e-17
4034.28238 2.55005e-17
4037.23728 2.55550e-17
4040.19219 2.52426e-17
4043.14709 2.53855e-17
4046.10200 2.55383e-17
4049.04682 2.53716e-17
4052.00172 2.53569e-17
4054.95663 2.56126e-17
4057.91153 2.57694e-17
4060.86644 2.57234e-17
4063.82134 2.59045e-17
4066.77625 2.59156e-17
4069.73115 2.56510e-17
4072.68606 2.55672e-17
4075.64096 2.56320e-17
4078.59587 2.55528e-17
4081.55077 2.58179e-17
4084.49559 2.59726e-17
4087.45050 2.59162e-17
4090.40540 2.59053e-17
4093.36031 2.56753e-17
4096.31521 2.56075e-17
4099.27012 2.58421e-17
4102.22502 2.58449e-17
4105.17993 2.56587e-17
4108.13483 2.54133e-17
4111.08974 2.52954e-17
4114.04464 2.55194e-17
4116.99955 2.54776e-17
4119.94437 2.53431e-17
4122.89927 2.53807e-17
4125.85418 2.55677e-17
4128.80908 2.56252e-17
4131.76399 2.54322e-17
4134.71889 2.52438e-17
4137.67380 2.54568e-17
4140.62870 2.54744e-17
4143.58361 2.51893e-17
4146.53852 2.52065e-17
4149.49342 2.50890e-17
4152.44832 2.50994e-17
4155.40323 2.52103e-17
4158.34805 2.52190e-17
4161.30295 2.51078e-17
4164.25786 2.51369e-17
4167.21277 2.51945e-17
4170.16767 2.52665e-17
4173.12257 2.53741e-17
4176.07748 2.54463e-17
4179.03239 2.54791e-17
4181.98729 2.51363e-17
4184.94219 2.51294e-17
4187.89710 2.55903e-17
4190.85200 2.57867e-17
4193.80691 2.57481e-17
4196.75173 2.60029e-17
4199.70664 2.60780e-17
4202.66154 2.58132e-17
4205.61644 2.56351e-17
4208.57135 2.56318e-17
4211.52625 2.57582e-17
4214.48116 2.60065e-17
4217.43606 2.63483e-17
4220.39097 2.62311e-17
4223.34587 2.59314e-17
4226.30078 2.58754e-17
4229.24560 2.59628e-17
4232.20050 2.58395e-17
4235.15541 2.59242e-17
4238.11031 2.62750e-17
4241.06522 2.62375e-17
4244.02013 2.62000e-17
4246.97503 2.61625e-17
4249.92993 2.61250e-17
4252.88484 2.60875e-17
4255.83975 2.60500e-17
4258.79465 2.60126e-17
4261.74955 2.59751e-17
4264.70446 2.57746e-17
4267.64928 2.57421e-17
4270.60418 2.58003e-17
4273.55909 2.57332e-17
4276.51400 2.57988e-17
4279.46890 2.57972e-17
4282.42380 2.56452e-17
4285.37871 2.55865e-17
4288.33361 2.55459e-17
4291.28852 2.56283e-17
4294.24342 2.54480e-17
4297.19833 2.53915e-17
4300.15323 2.54656e-17
4303.09805 2.52922e-17
4306.05296 2.54598e-17
4309.00786 2.55898e-17
4311.96277 2.55360e-17
4314.91767 2.53622e-17
4317.87258 2.52671e-17
4320.82748 2.51912e-17
4323.78239 2.53712e-17
4326.73729 2.52735e-17
4329.69220 2.51343e-17
4332.64711 2.50758e-17
4335.60201 2.50333e-17
4338.54683 2.50989e-17
4341.50173 2.50418e-17
4344.45664 2.50666e-17
4347.41154 2.49808e-17
4350.36645 2.47734e-17
4353.32136 2.48170e-17
4356.27626 2.48550e-17
4359.23116 2.48768e-17
4362.18607 2.49071e-17
4365.14098 2.49429e-17
4368.09588 2.49243e-17
4371.05078 2.46474e-17
4374.00569 2.48017e-17
4376.95051 2.52234e-17
4379.90541 2.51003e-17
4382.86032 2.50859e-17
4385.81523 2.50715e-17
4388.77013 2.50572e-17
4391.72503 2.50428e-17
4394.67994 2.50284e-17
4397.63484 2.50140e-17
4400.58975 2.49996e-17
4403.54465 2.49852e-17
4406.49956 2.49708e-17
4409.45446 2.49564e-17
4412.39928 2.49421e-17
4415.35419 2.49277e-17
4418.30909 2.49133e-17
4421.26400 2.48989e-17
4424.21890 2.46511e-17
4427.17381 2.47585e-17
4430.12871 2.51431e-17
4433.08362 2.51386e-17
4436.03852 2.49161e-17
4438.99343 2.47339e-17
4441.94834 2.46491e-17
4444.90324 2.47444e-17
4447.85814 2.48992e-17
4450.80296 2.50599e-17
4453.75787 2.51069e-17
4456.71277 2.49189e-17
4459.66768 2.48324e-17
4462.62259 2.48451e-17
4465.57749 2.45710e-17
4468.53239 2.44678e-17
4471.48730 2.46761e-17
4474.44220 2.50358e-17
4477.39711 2.51005e-17
4480.35201 2.48231e-17
4483.30692 2.47211e-17
4486.25174 2.48944e-17
4489.20664 2.50080e-17
4492.16155 2.50848e-17
4495.11645 2.52725e-17
4498.07136 2.54915e-17
4501.02626 2.56478e-17
4503.98117 2.54306e-17
4506.93607 2.54057e-17
4509.89098 2.55971e-17
4512.84589 2.56688e-17
4515.80079 2.55537e-17
4518.75569 2.54917e-17
4521.70051 2.54424e-17
4524.65542 2.53146e-17
4527.61032 2.53851e-17
4530.56523 2.53787e-17
4533.52013 2.53843e-17
4536.47504 2.51267e-17
4539.42994 2.48795e-17
4542.38485 2.50297e-17
4545.33975 2.49901e-17
4548.29466 2.47365e-17
4551.24957 2.47530e-17
4554.20447 2.50111e-17
4557.15938 2.51375e-17
4560.10419 2.50882e-17
4563.05910 2.50184e-17
4566.01400 2.50166e-17
4568.96891 2.49672e-17
4571.92382 2.48405e-17
4574.87872 2.47748e-17
4577.83363 2.46228e-17
4580.78853 2.44848e-17
4583.74343 2.43912e-17
4586.69834 2.44711e-17
4589.65325 2.43913e-17
4592.60815 2.41809e-17
4595.55297 2.40968e-17
4598.50787 2.40864e-17
4601.46278 2.43678e-17
4604.41768 2.44151e-17
4607.37259 2.40811e-17
4610.32750 2.39773e-17
4613.28240 2.42403e-17
4616.23730 2.41961e-17
4619.19221 2.39486e-17
4622.14711 2.40443e-17
4625.10202 2.42081e-17
4628.05692 2.40990e-17
4631.00175 2.39615e-17
4633.95665 2.39449e-17
4636.91155 2.39950e-17
4639.86646 2.39284e-17
4642.82136 2.38424e-17
4645.77627 2.39436e-17
4648.73117 2.39015e-17
4651.68608 2.38328e-17
4654.64099 2.39161e-17
4657.59589 2.39500e-17
4660.55080 2.40724e-17
4663.50570 2.39979e-17
4666.45052 2.39280e-17
4669.40542 2.40513e-17
4672.36033 2.40223e-17
4675.31524 2.37491e-17
4678.27014 2.34975e-17
4681.22505 2.35243e-17
4684.17995 2.36829e-17
4687.13486 2.37675e-17
4690.08976 2.37197e-17
4693.04466 2.36674e-17
4695.99957 2.37842e-17
4698.95448 2.38255e-17
4701.89930 2.36550e-17
4704.85420 2.35119e-17
4707.80911 2.35217e-17
4710.76401 2.36599e-17
4713.71891 2.37979e-17
4716.67382 2.37219e-17
4719.62873 2.35958e-17
4722.58363 2.34912e-17
4725.53853 2.36022e-17
4728.49344 2.37306e-17
4731.44834 2.36301e-17
4734.40325 2.33906e-17
4737.34807 2.34282e-17
4740.30298 2.36910e-17
4743.25788 2.38080e-17
4746.21278 2.39497e-17
4749.16769 2.39805e-17
4752.12259 2.38800e-17
4755.07750 2.37465e-17
4758.03240 2.36837e-17
4760.98731 2.36118e-17
4763.94222 2.35153e-17
4766.89712 2.34302e-17
4769.85202 2.35400e-17
4772.80693 2.33801e-17
4775.75175 2.33810e-17
4778.70665 2.36346e-17
4781.66156 2.37327e-17
4784.61647 2.37043e-17
4787.57137 2.36590e-17
4790.52627 2.37265e-17
4793.48118 2.38931e-17
4796.43609 2.38606e-17
4799.39099 2.36618e-17
4802.34589 2.34885e-17
4805.30080 2.34032e-17
4808.25570 2.34245e-17
4811.21061 2.33671e-17
4814.15543 2.34683e-17
4817.11034 2.36920e-17
4820.06524 2.38232e-17
4823.02014 2.39230e-17
4825.97505 2.39363e-17
4828.92995 2.38229e-17
4831.88486 2.39073e-17
4834.83976 2.40439e-17
4837.79467 2.42193e-17
4840.74957 2.42173e-17
4843.70448 2.40049e-17
4846.65938 2.40011e-17
4849.60420 2.39866e-17
4852.55911 2.40048e-17
4855.51401 2.40081e-17
4858.46892 2.41862e-17
4861.42382 2.43199e-17
4864.37873 2.42724e-17
4867.33363 2.42727e-17
4870.28854 2.42657e-17
4873.24345 2.43047e-17
4876.19835 2.43210e-17
4879.15325 2.43139e-17
4882.10816 2.43105e-17
4885.05298 2.43493e-17
4888.00788 2.43882e-17
4890.96279 2.44270e-17
4893.91770 2.44658e-17
4896.87260 2.45046e-17
4899.82750 2.45434e-17
4902.78241 2.45822e-17
4905.73732 2.46210e-17
4908.69222 2.46597e-17
4911.64712 2.46985e-17
4914.60203 2.47372e-17
4917.55693 2.47759e-17
4920.50175 2.48146e-17
4923.45666 2.48533e-17
4926.41157 2.49489e-17
4929.36647 2.49339e-17
4932.32137 2.49149e-17
4935.27628 2.49115e-17
4938.23118 2.49508e-17
4941.18609 2.50511e-17
4944.14099 2.51735e-17
4947.09590 2.53761e-17
4950.05080 2.54002e-17
4953.00571 2.52621e-17
4955.96061 2.52556e-17
4958.90543 2.53086e-17
4961.86034 2.55148e-17
4964.81524 2.56234e-17
4967.77015 2.55242e-17
4970.72505 2.54672e-17
4973.67996 2.55947e-17
4976.63486 2.56249e-17
4979.58977 2.55506e-17
4982.54468 2.55389e-17
4985.49958 2.55962e-17
4988.45448 2.56535e-17
4991.40939 2.57109e-17
4994.35421 2.57682e-17
4997.30911 2.58254e-17
5000.26402 2.58827e-17
5003.21893 2.59400e-17
5006.17383 2.59972e-17
5009.12873 2.60544e-17
5012.08364 2.61116e-17
5015.03855 2.61688e-17
5017.99345 2.62260e-17
5020.94835 2.62832e-17
5023.90326 2.62180e-17
5026.85816 2.62502e-17
5029.80298 2.65123e-17
5032.75789 2.65523e-17
5035.71280 2.65923e-17
5038.66770 2.66323e-17
5041.62260 2.66723e-17
5044.57751 2.67123e-17
5047.53241 2.67523e-17
5050.48732 2.67922e-17
5053.44222 2.68322e-17
5056.39713 2.68721e-17
5059.35203 2.69121e-17
5062.30694 2.69520e-17
5065.25176 2.69919e-17
5068.20666 2.70318e-17
5071.16157 2.71948e-17
5074.11647 2.70887e-17
5077.07138 2.70770e-17
5080.02628 2.73003e-17
5082.98119 2.74771e-17
5085.93609 2.74673e-17
5088.89100 2.74148e-17
5091.84591 2.75853e-17
5094.80081 2.77879e-17
5097.75571 2.76470e-17
5100.71062 2.75457e-17
5103.65544 2.77374e-17
5106.61034 2.78905e-17
5109.56525 2.79712e-17
5112.52016 2.79511e-17
5115.47506 2.78112e-17
5118.42996 2.78615e-17
5121.38487 2.79795e-17
5124.33977 2.78624e-17
5127.29468 2.77427e-17
5130.24958 2.76994e-17
5133.20449 2.76349e-17
5136.15939 2.77221e-17
5139.10421 2.78904e-17
5142.05912 2.79587e-17
5145.01402 2.78814e-17
5147.96893 2.77206e-17
5150.92383 2.77495e-17
5153.87874 2.77486e-17
5156.83364 2.74034e-17
5159.78855 2.71960e-17
5162.74345 2.72550e-17
5165.69836 2.74156e-17
5168.65326 2.74382e-17
5171.60817 2.73157e-17
5174.56307 2.71872e-17
5177.50789 2.71366e-17
5180.46280 2.71403e-17
5183.41770 2.70266e-17
5186.37261 2.69519e-17
5189.32751 2.70428e-17
5192.28242 2.72013e-17
5195.23732 2.72344e-17
5198.19223 2.71447e-17
5201.14714 2.70658e-17
5204.10204 2.70492e-17
5207.05695 2.69432e-17
5210.01185 2.67750e-17
5212.95667 2.68170e-17
5215.91157 2.67632e-17
5218.86648 2.65670e-17
5221.82139 2.65923e-17
5224.77629 2.65320e-17
5227.73119 2.64175e-17
5230.68610 2.64989e-17
5233.64100 2.64422e-17
5236.59591 2.63505e-17
5239.55082 2.61764e-17
5242.50572 2.60423e-17
5245.46062 2.59110e-17
5248.40544 2.56605e-17
5251.36035 2.55788e-17
5254.31525 2.56229e-17
5257.27016 2.55887e-17
5260.22506 2.56703e-17
5263.17997 2.56687e-17
5266.13487 2.53517e-17
5269.08978 2.51483e-17
5272.04468 2.51308e-17
5274.99959 2.50001e-17
5277.95449 2.48611e-17
5280.90940 2.48775e-17
5283.85422 2.47672e-17
5286.80912 2.45941e-17
5289.76403 2.44894e-17
5292.71893 2.43103e-17
5295.67384 2.41943e-17
5298.62874 2.42581e-17
5301.58365 2.43075e-17
5304.53856 2.41652e-17
5307.49346 2.39873e-17
5310.44836 2.39702e-17
5313.40327 2.39516e-17
5316.35818 2.39049e-17
5319.31308 2.39705e-17
5322.25790 2.39434e-17
5325.21281 2.37546e-17
5328.16771 2.36504e-17
5331.12261 2.35333e-17
5334.07752 2.34611e-17
5337.03243 2.35037e-17
5339.98733 2.34048e-17
5342.94223 2.33308e-17
5345.89714 2.33488e-17
5348.85205 2.31655e-17
5351.80695 2.30188e-17
5354.76185 2.30965e-17
5357.70668 2.31353e-17
5360.66158 2.29817e-17
5363.61648 2.28334e-17
5366.57139 2.28569e-17
5369.52630 2.28758e-17
5372.48120 2.28027e-17
5375.43610 2.26441e-17
5378.39101 2.24540e-17
5381.34591 2.24182e-17
5384.30082 2.24299e-17
5387.25572 2.23627e-17
5390.21063 2.23190e-17
5393.15545 2.22835e-17
5396.11035 2.22548e-17
5399.06526 2.22244e-17
5402.02016 2.21334e-17
5404.97507 2.22010e-17
5407.92998 2.22089e-17
5410.88488 2.21371e-17
5413.83979 2.20786e-17
5416.79469 2.20612e-17
5419.74959 2.20101e-17
5422.70450 2.18933e-17
5425.65941 2.17688e-17
5428.60423 2.16237e-17
5431.55913 2.15302e-17
5434.51404 2.15643e-17
5437.46894 2.15414e-17
5440.42384 2.14040e-17
5443.37875 2.12592e-17
5446.33366 2.11661e-17
5449.28856 2.10597e-17
5452.24346 2.09296e-17
5455.19837 2.08142e-17
5458.15327 2.08422e-17
5461.10818 2.10308e-17
5464.06308 2.10743e-17
5467.00791 2.09347e-17
5469.96281 2.08016e-17
5472.91771 2.07669e-17
5475.87262 2.07858e-17
5478.82752 2.07711e-17
5481.78243 2.07245e-17
5484.73733 2.06065e-17
5487.69224 2.05633e-17
5490.64714 2.06066e-17
5493.60205 2.05344e-17
5496.55695 2.04745e-17
5499.51186 2.05348e-17
5502.45668 2.06123e-17
5505.41158 2.05928e-17
5508.36649 2.04949e-17
5511.32139 2.03866e-17
5514.27630 2.02905e-17
5517.23120 2.02894e-17
5520.18611 2.03358e-17
5523.14102 2.03171e-17
5526.09592 2.02244e-17
5529.05082 2.01665e-17
5532.00573 2.01425e-17
5534.96064 2.01087e-17
5537.91554 2.01161e-17
5540.86036 2.00896e-17
5543.81527 1.99459e-17
5546.77017 1.98721e-17
5549.72507 1.98847e-17
5552.67998 1.98558e-17
5555.63489 1.98075e-17
5558.58979 1.97269e-17
5561.54469 1.96411e-17
5564.49960 1.95502e-17
5567.45450 1.93409e-17
5570.40941 1.92638e-17
5573.36431 1.94592e-17
5576.30914 1.96830e-17
5579.26404 1.97433e-17
5582.21894 1.95422e-17
5585.17385 1.91741e-17
5588.12875 1.89576e-17
5591.08366 1.89830e-17
5594.03856 1.90397e-17
5596.99347 1.90050e-17
5599.94837 1.89604e-17
5602.90328 1.89899e-17
5605.85818 1.90221e-17
5608.81309 1.89720e-17
5611.75791 1.88780e-17
5614.71281 1.87840e-17
5617.66772 1.87435e-17
5620.62262 1.87485e-17
5623.57753 1.86879e-17
5626.53243 1.85060e-17
5629.48734 1.83597e-17
5632.44225 1.84304e-17
5635.39715 1.85129e-17
5638.35205 1.84394e-17
5641.30696 1.83456e-17
5644.26186 1.83057e-17
5647.20668 1.82506e-17
5650.16159 1.82231e-17
5653.11650 1.82506e-17
5656.07140 1.82044e-17
5659.02630 1.80912e-17
5661.98121 1.80328e-17
5664.93611 1.80220e-17
5667.89102 1.79358e-17
5670.84592 1.78581e-17
5673.80083 1.78226e-17
5676.75573 1.77860e-17
5679.71064 1.77524e-17
5682.66554 1.78053e-17
5685.61036 1.78214e-17
5688.56527 1.77353e-17
5691.52017 1.76781e-17
5694.47508 1.77149e-17
5697.42998 1.77146e-17
5700.38489 1.76137e-17
5703.33979 1.75095e-17
5706.29470 1.74518e-17
5709.24960 1.73608e-17
5712.20451 1.72261e-17
5715.15941 1.72688e-17
5718.11432 1.74044e-17
5721.05914 1.73598e-17
5724.01404 1.72301e-17
5726.96895 1.71571e-17
5729.92386 1.71577e-17
5732.87876 1.71502e-17
5735.83366 1.70887e-17
5738.78857 1.71045e-17
5741.74348 1.71729e-17
5744.69838 1.71153e-17
5747.65328 1.69779e-17
5750.60819 1.68757e-17
5753.56309 1.67809e-17
5756.50791 1.67557e-17
5759.46282 1.67586e-17
5762.41773 1.67225e-17
5765.37263 1.66818e-17
5768.32753 1.65847e-17
5771.28244 1.65340e-17
5774.23734 1.65247e-17
5777.19225 1.64787e-17
5780.14715 1.63433e-17
5783.10206 1.61967e-17
5786.05696 1.61345e-17
5789.01187 1.60939e-17
5791.96677 1.61366e-17
5794.91159 1.61680e-17
5797.86650 1.62016e-17
5800.82140 1.62338e-17
5803.77631 1.62351e-17
5806.73121 1.61740e-17
5809.68612 1.60807e-17
5812.64102 1.60151e-17
5815.59593 1.60314e-17
5818.55084 1.61368e-17
5821.50574 1.60748e-17
5824.46064 1.58164e-17
5827.41555 1.57150e-17
5830.36037 1.57332e-17
5833.31527 1.57526e-17
5836.27018 1.57915e-17
5839.22509 1.57937e-17
5842.17999 1.57441e-17
5845.13489 1.57004e-17
5848.08980 1.57050e-17
5851.04470 1.57242e-17
5853.99961 1.56684e-17
5856.95451 1.55309e-17
5859.90942 1.54947e-17
5862.86432 1.55262e-17
5865.81923 1.55406e-17
5868.76405 1.55323e-17
5871.71895 1.54918e-17
5874.67386 1.55098e-17
5877.62876 1.55019e-17
5880.58367 1.53786e-17
5883.53857 1.52087e-17
5886.49348 1.51375e-17
5889.44838 1.51275e-17
5892.40329 1.51454e-17
5895.35819 1.51542e-17
5898.31310 1.51655e-17
5901.26800 1.52158e-17
5904.21282 1.53010e-17
5907.16773 1.53524e-17
5910.12263 1.54103e-17
5913.07754 1.54540e-17
5916.03244 1.54722e-17
5918.98735 1.54946e-17
5921.94225 1.55113e-17
5924.89716 1.55247e-17
5927.85207 1.56091e-17
5930.80697 1.56974e-17
5933.76188 1.56714e-17
5936.71678 1.56010e-17
5939.66160 1.55468e-17
5942.61650 1.55419e-17
5945.57141 1.55591e-17
5948.52632 1.55539e-17
5951.48122 1.55934e-17
5954.43612 1.56021e-17
5957.39103 1.55520e-17
5960.34593 1.55204e-17
5963.30084 1.55011e-17
5966.25575 1.54983e-17
5969.21065 1.54986e-17
5972.16555 1.54488e-17
5975.11037 1.54322e-17
5978.06528 1.55213e-17
5981.02018 1.55727e-17
5983.97509 1.55829e-17
5986.93000 1.56549e-17
5989.88490 1.57626e-17
5992.83980 1.57858e-17
5995.79471 1.57255e-17
5998.74961 1.57278e-17
6001.70452 1.57666e-17
6004.65942 1.57757e-17
6007.61433 1.57928e-17
6010.55915 1.57213e-17
6013.51405 1.56254e-17
6016.46896 1.56937e-17
6019.42386 1.58187e-17
6022.37877 1.58802e-17
6025.33367 1.58655e-17
6028.28858 1.57940e-17
6031.24348 1.57556e-17
6034.19839 1.57551e-17
6037.15330 1.57981e-17
6040.10820 1.58611e-17
6043.06311 1.58925e-17
6046.01801 1.58496e-17
6048.96283 1.57968e-17
6051.91773 1.58397e-17
6054.87264 1.58758e-17
6057.82755 1.58276e-17
6060.78245 1.57560e-17
6063.73736 1.57079e-17
6066.69226 1.57599e-17
6069.64716 1.58349e-17
6072.60207 1.58012e-17
6075.55698 1.57572e-17
6078.51188 1.57806e-17
6081.46678 1.58314e-17
6084.41161 1.58382e-17
6087.36651 1.57805e-17
6090.32141 1.57626e-17
6093.27632 1.58079e-17
6096.23123 1.58456e-17
6099.18613 1.58746e-17
6102.14103 1.59043e-17
6105.09594 1.59294e-17
6108.05084 1.59158e-17
6111.00575 1.58479e-17
6113.96065 1.58476e-17
6116.91556 1.59689e-17
6119.87046 1.60451e-17
6122.81528 1.60129e-17
6125.77019 1.59701e-17
6128.72509 1.59406e-17
6131.68000 1.59426e-17
6134.63490 1.59965e-17
6137.58981 1.60342e-17
6140.54471 1.60239e-17
6143.49962 1.60267e-17
6146.45452 1.60636e-17
6149.40943 1.60366e-17
6152.36434 1.59380e-17
6155.31924 1.58627e-17
6158.26406 1.58719e-17
6161.21897 1.59769e-17
6164.17387 1.60439e-17
6167.12877 1.59662e-17
6170.08368 1.59100e-17
6173.03859 1.59531e-17
6175.99349 1.59654e-17
6178.94839 1.59643e-17
6181.90330 1.60041e-17
6184.85820 1.60186e-17
6187.81311 1.59682e-17
6190.76801 1.59215e-17
6193.71284 1.59377e-17
6196.66774 1.60087e-17
6199.62264 1.59811e-17
6202.57755 1.58898e-17
6205.53245 1.59057e-17
6208.48736 1.59427e-17
6211.44226 1.59275e-17
6214.39717 1.58767e-17
6217.35207 1.58682e-17
6220.30698 1.58638e-17
6223.26188 1.58198e-17
6226.21679 1.58421e-17
6229.17169 1.58900e-17
6232.11651 1.58831e-17
6235.07142 1.58494e-17
6238.02632 1.58011e-17
6240.98123 1.57952e-17
6243.93613 1.58091e-17
6246.89104 1.57973e-17
6249.84595 1.57708e-17
6252.80085 1.57169e-17
6255.75575 1.56346e-17
6258.71066 1.55760e-17
6261.66557 1.55912e-17
6264.62047 1.56483e-17
6267.56529 1.57203e-17
6270.52020 1.56601e-17
6273.47510 1.54632e-17
6276.43000 1.52293e-17
6279.38491 1.50742e-17
6282.33982 1.50943e-17
6285.29472 1.51813e-17
6288.24962 1.51935e-17
6291.20453 1.51957e-17
6294.15943 1.51984e-17
6297.11434 1.51584e-17
6300.06924 1.51610e-17
6303.01407 1.52430e-17
6305.96897 1.52902e-17
6308.92387 1.51964e-17
6311.87878 1.51001e-17
6314.83368 1.50622e-17
6317.78859 1.50732e-17
6320.74349 1.51520e-17
6323.69840 1.51796e-17
6326.65330 1.51261e-17
6329.60821 1.50661e-17
6332.56311 1.50137e-17
6335.51802 1.49898e-17
6338.46284 1.49939e-17
6341.41774 1.49826e-17
6344.37265 1.49925e-17
6347.32755 1.50144e-17
6350.28246 1.49825e-17
6353.23736 1.49139e-17
6356.19227 1.48603e-17
6359.14718 1.48711e-17
6362.10208 1.49088e-17
6365.05698 1.48600e-17
6368.01189 1.47869e-17
6370.96680 1.47914e-17
6373.91161 1.47359e-17
6376.86652 1.46712e-17
6379.82143 1.47119e-17
6382.77633 1.47288e-17
6385.73123 1.47168e-17
6388.68614 1.46932e-17
6391.64105 1.46560e-17
6394.59595 1.46584e-17
6397.55085 1.47003e-17
6400.50576 1.47123e-17
6403.46066 1.46947e-17
6406.41557 1.46085e-17
6409.37047 1.44928e-17
6412.31530 1.44723e-17
6415.27020 1.44723e-17
6418.22510 1.44726e-17
6421.18001 1.45316e-17
6424.13491 1.45613e-17
6427.08982 1.45445e-17
6430.04472 1.45260e-17
6432.99963 1.44844e-17
6435.95453 1.44396e-17
6438.90944 1.43737e-17
6441.86434 1.42371e-17
6444.81925 1.42174e-17
6447.76407 1.42799e-17
6450.71897 1.41900e-17
6453.67388 1.40731e-17
6456.62878 1.40766e-17
6459.58369 1.40549e-17
6462.53859 1.39774e-17
6465.49350 1.39643e-17
6468.44841 1.39861e-17
6471.40331 1.39054e-17
6474.35821 1.37774e-17
6477.31312 1.37590e-17
6480.26802 1.37887e-17
6483.22293 1.37866e-17
6486.16775 1.37419e-17
6489.12266 1.37042e-17
6492.07756 1.37264e-17
6495.03246 1.37245e-17
6497.98737 1.36780e-17
6500.94227 1.36298e-17
6503.89718 1.35836e-17
6506.85208 1.35415e-17
6509.80699 1.35225e-17
6512.76189 1.34803e-17
6515.71680 1.34165e-17
6518.67170 1.33862e-17
6521.61652 1.33815e-17
6524.57143 1.33511e-17
6527.52633 1.33087e-17
6530.48124 1.33042e-17
6533.43614 1.32720e-17
6536.39105 1.32198e-17
6539.34595 1.32196e-17
6542.30086 1.31809e-17
6545.25576 1.31446e-17
6548.21067 1.31348e-17
6551.16557 1.31140e-17
6554.12048 1.30493e-17
6557.06530 1.29562e-17
6560.02020 1.28977e-17
6562.97511 1.28805e-17
6565.93001 1.28760e-17
6568.88492 1.28505e-17
6571.83982 1.28233e-17
6574.79473 1.28114e-17
6577.74964 1.28110e-17
6580.70454 1.28040e-17
6583.65944 1.27135e-17
6586.61435 1.26649e-17
6589.56925 1.26328e-17
6592.52416 1.26006e-17
6595.46898 1.25685e-17
6598.42389 1.25364e-17
6601.37879 1.25043e-17
6604.33369 1.24722e-17
6607.28860 1.24401e-17
6610.24350 1.24080e-17
6613.19841 1.23759e-17
6616.15331 1.23439e-17
6619.10822 1.23118e-17
6622.06312 1.22797e-17
6625.01803 1.22476e-17
6627.96285 1.22156e-17
6630.91775 1.21835e-17
6633.87266 1.21515e-17
6636.82756 1.21194e-17
6639.78247 1.20874e-17
6642.73737 1.20553e-17
6645.69228 1.20233e-17
6648.64718 1.19912e-17
6651.60209 1.19592e-17
6654.55699 1.19063e-17
6657.51190 1.18980e-17
6660.46681 1.19035e-17
6663.42171 1.19007e-17
6666.36653 1.18461e-17
6669.32143 1.18102e-17
6672.27634 1.17907e-17
6675.23124 1.17541e-17
6678.18615 1.17645e-17
6681.14106 1.17306e-17
6684.09596 1.16227e-17
6687.05086 1.15815e-17
6690.00577 1.15809e-17
6692.96068 1.15524e-17
6695.91558 1.14589e-17
6698.87048 1.13380e-17
6701.81530 1.13367e-17
6704.77021 1.14304e-17
6707.72511 1.14169e-17
6710.68002 1.13229e-17
6713.63493 1.12818e-17
6716.58983 1.12709e-17
6719.54473 1.11895e-17
6722.49964 1.11161e-17
6725.45455 1.11151e-17
6728.40945 1.11142e-17
6731.36435 1.10770e-17
6734.31926 1.10156e-17
6737.26408 1.10295e-17
6740.21898 1.10759e-17
6743.17389 1.09880e-17
6746.12880 1.08675e-17
6749.08370 1.08464e-17
6752.03860 1.08653e-17
6754.99351 1.08936e-17
6757.94841 1.09535e-17
6760.90332 1.09580e-17
6763.85822 1.08285e-17
6766.81313 1.07017e-17
6769.76804 1.07007e-17
6772.72294 1.07355e-17
6775.66776 1.07042e-17
6778.62266 1.06224e-17
6781.57757 1.04952e-17
6784.53247 1.03917e-17
6787.48738 1.04293e-17
6790.44229 1.04827e-17
6793.39719 1.04328e-17
6796.35209 1.03345e-17
6799.30700 1.02772e-17
6802.26191 1.02661e-17
6805.21681 1.02621e-17
6808.17171 1.02223e-17
6811.11654 1.01494e-17
6814.07144 1.00725e-17
6817.02634 9.97003e-18
6819.98125 9.86970e-18
6822.93616 9.83597e-18
6825.89106 9.88318e-18
6828.84596 9.90689e-18
6831.80087 9.81091e-18
6834.75577 9.71899e-18
6837.71068 9.69549e-18
6840.66558 9.67769e-18
6843.62049 9.64193e-18
6846.57539 9.59795e-18
6849.52021 9.55398e-18
6852.47512 9.51001e-18
6855.43002 9.46604e-18
6858.38493 9.42208e-18
6861.33983 9.37813e-18
6864.29474 9.33418e-18
6867.24964 9.29024e-18
6870.20455 9.24630e-18
6873.15945 9.20237e-18
6876.11436 9.15844e-18
6879.06927 9.11452e-18
6882.02417 9.07061e-18
6884.96899 9.02670e-18
6887.92389 8.98280e-18
6890.87880 8.93890e-18
6893.83370 8.89501e-18
6896.78861 8.85113e-18
6899.74352 8.80725e-18
6902.69842 8.76337e-18
6905.65332 8.71950e-18
6908.60823 8.67564e-18
6911.56314 8.63178e-18
6914.51804 8.58793e-18
6917.47294 8.54408e-18
6920.41777 8.50024e-18
6923.37267 8.45640e-18
6926.32757 8.41257e-18
6929.28248 8.36875e-18
6932.23739 8.32493e-18
6935.19229 8.28112e-18
6938.14719 8.32103e-18
6941.10210 8.33487e-18
6944.05700 8.21940e-18
6947.01191 8.12200e-18
6949.96681 8.07845e-18
6952.92172 7.92995e-18
6955.87662 7.80349e-18
6958.82144 7.77971e-18
6961.77635 7.76307e-18
6964.73125 7.74842e-18
6967.68616 7.74358e-18
6970.64106 7.75995e-18
6973.59597 7.75173e-18
6976.55087 7.69612e-18
6979.50578 7.62682e-18
6982.46068 7.53764e-18
6985.41559 7.38042e-18
6988.37050 7.30865e-18
6991.32540 7.34399e-18
6994.27022 7.34332e-18
6997.22512 7.28646e-18
7000.18003 7.24172e-18
7003.13493 7.21730e-18
7006.08984 7.16078e-18
7009.04475 7.05366e-18
7011.99965 6.93429e-18
7014.95455 6.88347e-18
7017.90946 6.92685e-18
7020.86436 6.93604e-18
7023.81927 6.89849e-18
7026.77417 6.87600e-18
7029.71900 6.86805e-18
7032.67390 6.82730e-18
7035.62880 6.79775e-18
7038.58371 6.77020e-18
7041.53861 6.70595e-18
7044.49352 6.66918e-18
7047.44842 6.68597e-18
7050.40333 6.71156e-18
7053.35823 6.70487e-18
7056.31314 6.66736e-18
7059.26804 6.64893e-18
7062.22295 6.61826e-18
7065.16777 6.54354e-18
7068.12267 6.50951e-18
7071.07758 6.53570e-18
7074.03248 6.51659e-18
7076.98739 6.50034e-18
7079.94229 6.54861e-18
7082.89720 6.57389e-18
7085.85210 6.52964e-18
7088.80701 6.44197e-18
7091.76191 6.36629e-18
7094.71682 6.37347e-18
7097.67173 6.41198e-18
7100.61654 6.37363e-18
7103.57145 6.29198e-18
7106.52635 6.24165e-18
7109.48126 6.22509e-18
7112.43616 6.25956e-18
7115.39107 6.28841e-18
7118.34598 6.27339e-18
7121.30088 6.23043e-18
7124.25578 6.15349e-18
7127.21069 6.10305e-18
7130.16559 6.08561e-18
7133.12050 6.06214e-18
7136.07540 6.09300e-18
7139.02023 6.13770e-18
7141.97513 6.08321e-18
7144.93003 5.99850e-18
7147.88494 5.95146e-18
7150.83984 5.88292e-18
7153.79475 5.83043e-18
7156.74965 5.78552e-18
7159.70456 5.68299e-18
7162.65946 5.61273e-18
7165.61437 5.58447e-18
7168.56927 5.53614e-18
7171.52418 5.51378e-18
7174.46900 5.50185e-18
7177.42390 5.48417e-18
7180.37881 5.52484e-18
7183.33371 5.53702e-18
7186.28862 5.46109e-18
7189.24352 5.41545e-18
7192.19843 5.46706e-18
7195.15333 5.55404e-18
7198.10824 5.59937e-18
7201.06314 5.60520e-18
7204.01805 5.62697e-18
7206.97295 5.69401e-18
7209.92786 5.78863e-18
7212.87268 5.84684e-18
7215.82758 5.79291e-18
7218.78249 5.62912e-18
7221.73739 5.46210e-18
7224.69230 5.40033e-18
7227.64720 5.42498e-18
7230.60211 5.38257e-18
7233.55701 5.25141e-18
7236.51192 5.22806e-18
7239.46682 5.38236e-18
7242.42173 5.47728e-18
7245.37663 5.46253e-18
7248.32145 5.49202e-18
7251.27636 5.48291e-18
7254.23126 5.43967e-18
7257.18617 5.44507e-18
7260.14107 5.47598e-18
7263.09598 5.51259e-18
7266.05088 5.55828e-18
7269.00579 5.59256e-18
7271.96069 5.56929e-18
7274.91560 5.48670e-18
7277.87050 5.42590e-18
7280.82541 5.48405e-18
7283.77023 5.60554e-18
7286.72513 5.58374e-18
7289.68004 5.39257e-18
7292.63494 5.27337e-18
7295.58985 5.33286e-18
7298.54475 5.44041e-18
7301.49966 5.44808e-18
7304.45457 5.37182e-18
7307.40947 5.31155e-18
7310.36437 5.31280e-18
7313.31928 5.34034e-18
7316.27418 5.36934e-18
7319.22909 5.43809e-18
7322.17391 5.48441e-18
7325.12882 5.46481e-18
7328.08372 5.43948e-18
7331.03862 5.43930e-18
7333.99353 5.44381e-18
7336.94843 5.45237e-18
7339.90334 5.46789e-18
7342.85825 5.48077e-18
7345.81315 5.47075e-18
7348.76805 5.44949e-18
7351.72296 5.44663e-18
7354.67786 5.42400e-18
7357.62268 5.40240e-18
7360.57759 5.42695e-18
7363.53249 5.43861e-18
7366.48740 5.45217e-18
7369.44230 5.52336e-18
7372.39721 5.58265e-18
7375.35211 5.58458e-18
7378.30702 5.56801e-18
7381.26192 5.59104e-18
7384.21683 5.62581e-18
7387.17173 5.62381e-18
7390.12664 5.58951e-18
7393.07146 5.54608e-18
7396.02636 5.52264e-18
7398.98127 5.51852e-18
7401.93617 5.53352e-18
7404.89108 5.55077e-18
7407.84598 5.52898e-18
7410.80089 5.51009e-18
7413.75580 5.50948e-18
7416.71070 5.50207e-18
7419.66561 5.51104e-18
7422.62051 5.50021e-18
7425.57541 5.47739e-18
7428.53032 5.49124e-18
7431.47514 5.48885e-18
7434.43005 5.50390e-18
7437.38495 5.52519e-18
7440.33986 5.49629e-18
7443.29476 5.49238e-18
7446.24966 5.47285e-18
7449.20457 5.42870e-18
7452.15948 5.45094e-18
7455.11438 5.46439e-18
7458.06928 5.45768e-18
7461.02419 5.46046e-18
7463.97909 5.42746e-18
7466.92391 5.43165e-18
7469.87882 5.49583e-18
7472.83373 5.51869e-18
7475.78863 5.48286e-18
7478.74353 5.43849e-18
7481.69844 5.39876e-18
7484.65334 5.39479e-18
7487.60825 5.43349e-18
7490.56315 5.44081e-18
7493.51806 5.40353e-18
7496.47296 5.36365e-18
7499.42787 5.40235e-18
7502.38277 5.46932e-18
7505.32759 5.46275e-18
7508.28250 5.49030e-18
7511.23740 5.59750e-18
7514.19231 5.64298e-18
7517.14721 5.58360e-18
7520.10212 5.51861e-18
7523.05702 5.49421e-18
7526.01193 5.50025e-18
7528.96684 5.50608e-18
7531.92174 5.51062e-18
7534.87664 5.52951e-18
7537.82146 5.58058e-18
7540.77637 5.63242e-18
7543.73127 5.65832e-18
7546.68618 5.68839e-18
7549.64109 5.67447e-18
7552.59599 5.68329e-18
7555.55089 5.69211e-18
7558.50580 5.70092e-18
7561.46070 5.70973e-18
7564.41561 5.71854e-18
7567.37051 5.72735e-18
7570.32542 5.73616e-18
7573.28032 5.74497e-18
7576.22514 5.75377e-18
7579.18005 5.76258e-18
7582.13495 5.77138e-18
7585.08986 5.78018e-18
7588.04476 5.78898e-18
7590.99967 5.79778e-18
7593.95457 5.80658e-18
7596.90948 5.81537e-18
7599.86438 5.82416e-18
7602.81929 5.83296e-18
7605.77419 5.84175e-18
7608.72910 5.85054e-18
7611.67392 5.85932e-18
7614.62882 5.86811e-18
7617.58373 5.87689e-18
7620.53863 5.88568e-18
7623.49354 5.89446e-18
7626.44844 5.90324e-18
7629.40335 5.91202e-18
7632.35825 5.92080e-18
7635.31316 5.92957e-18
7638.26807 5.93835e-18
7641.22297 5.94712e-18
7644.17787 5.95589e-18
7647.12270 5.96466e-18
7650.07760 5.97343e-18
7653.03250 5.98220e-18
7655.98741 5.99096e-18
7658.94232 5.99973e-18
7661.89722 6.00849e-18
7664.85212 6.01725e-18
7667.80703 6.02601e-18
7670.76193 6.03477e-18
7673.71684 6.04353e-18
7676.67174 6.05228e-18
7679.62665 6.06104e-18
7682.58155 6.06979e-18
7685.52637 5.92010e-18
7688.48128 5.79537e-18
7691.43618 5.66370e-18
7694.39109 5.56935e-18
7697.34599 5.50903e-18
7700.30090 5.47372e-18
7703.25580 5.48831e-18
7706.21071 5.55784e-18
7709.16561 5.71357e-18
7712.12052 5.89416e-18
7715.07542 6.01783e-18
7718.03033 6.01370e-18
7720.97515 5.96467e-18
7723.93005 5.93770e-18
7726.88496 5.87488e-18
7729.83986 5.82713e-18
7732.79477 5.85860e-18
7735.74968 5.90516e-18
7738.70458 5.92484e-18
7741.65948 5.93205e-18
7744.61439 5.96749e-18
7747.56930 6.00653e-18
7750.52420 6.02181e-18
7753.47910 6.03592e-18
7756.42393 6.01449e-18
7759.37883 5.95944e-18
7762.33373 5.93286e-18
7765.28864 5.94945e-18
7768.24355 5.97219e-18
7771.19845 5.96655e-18
7774.15335 5.96037e-18
7777.10826 5.99168e-18
7780.06316 6.06844e-18
7783.01807 6.14604e-18
7785.97297 6.08399e-18
7788.92788 5.98856e-18
7791.88278 6.04958e-18
7794.82760 6.11672e-18
7797.78251 6.08042e-18
7800.73741 6.01082e-18
7803.69232 5.98066e-18
7806.64722 6.02696e-18
7809.60213 6.09247e-18
7812.55703 6.12156e-18
7815.51194 6.12454e-18
7818.46684 6.10361e-18
7821.42175 6.06264e-18
7824.37666 6.05299e-18
7827.33156 6.09880e-18
7830.27638 6.11486e-18
7833.23128 6.12157e-18
7836.18619 6.15741e-18
7839.14109 6.11734e-18
7842.09600 6.06599e-18
7845.05091 6.10055e-18
7848.00581 6.11090e-18
7850.96071 6.06182e-18
7853.91562 6.06668e-18
7856.87052 6.11010e-18
7859.82543 6.12395e-18
7862.78033 6.19327e-18
7865.73524 6.31221e-18
7868.68006 6.30459e-18
7871.63496 6.23681e-18
7874.58987 6.23560e-18
7877.54477 6.22985e-18
7880.49968 6.19322e-18
7883.45458 6.13353e-18
7886.40949 6.07272e-18
7889.36439 6.08705e-18
7892.31930 6.15606e-18
7895.27420 6.26937e-18
7898.22911 6.37824e-18
7901.17393 6.35280e-18
7904.12883 6.36203e-18
7907.08374 6.50382e-18
7910.03864 6.57639e-18
7912.99355 6.55303e-18
7915.94845 6.52077e-18
7918.90336 6.41647e-18
7921.85826 6.32064e-18
7924.81317 6.33860e-18
7927.76807 6.40098e-18
7930.72298 6.52885e-18
7933.67789 6.69863e-18
7936.63279 6.77073e-18
7939.57761 6.79409e-18
7942.53251 6.83154e-18
7945.48742 6.84311e-18
7948.44232 6.75952e-18
7951.39723 6.61385e-18
7954.35214 6.51026e-18
7957.30704 6.51647e-18
7960.26194 6.59768e-18
7963.21685 6.66778e-18
7966.17175 6.76173e-18
7969.12666 6.89683e-18
7972.08156 6.97536e-18
7975.02639 6.99562e-18
7977.98129 6.96678e-18
7980.93619 6.92039e-18
7983.89110 6.85543e-18
7986.84600 6.77238e-18
7989.80091 6.70265e-18
7992.75581 6.68570e-18
7995.71072 6.74698e-18
7998.66562 6.85739e-18
8001.62053 6.98964e-18
8004.57543 7.11357e-18
8007.53034 7.14097e-18
8010.47516 7.13069e-18
8013.43006 7.17063e-18
8016.38497 7.17792e-18
8019.33987 7.07201e-18
8022.29478 6.96270e-18
8025.24968 6.89940e-18
8028.20459 6.90335e-18
8031.15949 7.00150e-18
8034.11440 7.11968e-18
8037.06930 7.20551e-18
8040.02421 7.28479e-18
8042.97911 7.38360e-18
8045.93402 7.41952e-18
8048.87884 7.37708e-18
8051.83374 7.37347e-18
8054.78865 7.34951e-18
8057.74355 7.26337e-18
8060.69846 7.17084e-18
8063.65336 7.11574e-18
8066.60827 7.15541e-18
8069.56318 7.25842e-18
8072.51808 7.33455e-18
8075.47298 7.37271e-18
8078.42789 7.38239e-18
8081.38280 7.38810e-18
8084.32761 7.43722e-18
8087.28252 7.49201e-18
8090.23742 7.42683e-18
8093.19233 7.31463e-18
8096.14723 7.32277e-18
8099.10214 7.40263e-18
8102.05705 7.41250e-18
8105.01195 7.35188e-18
8107.96685 7.27720e-18
8110.92176 7.25909e-18
8113.87666 7.28337e-18
8116.83157 7.23116e-18
8119.78647 7.16087e-18
8122.73130 7.18364e-18
8125.68620 7.28179e-18
8128.64110 7.35209e-18
8131.59601 7.33258e-18
8134.55091 7.22759e-18
8137.50582 7.11952e-18
8140.46072 7.01607e-18
8143.41563 6.89993e-18
8146.37054 6.80353e-18
8149.32544 6.75064e-18
8152.28034 6.71490e-18
8155.23525 6.66943e-18
8158.18007 6.68841e-18
8161.13497 6.71925e-18
8164.08988 6.75978e-18
8167.04479 6.95217e-18
8169.99969 7.17647e-18
8172.95459 7.21842e-18
8175.90950 7.09524e-18
8178.86441 6.93048e-18
8181.81931 6.83798e-18
8184.77421 6.84984e-18
8187.72912 6.84746e-18
8190.68402 6.80323e-18
8193.63893 6.85254e-18
8196.58375 7.01227e-18
8199.53866 7.17311e-18
8202.49356 7.34999e-18
8205.44846 7.62572e-18
8208.40337 7.77482e-18
8211.35827 7.70275e-18
8214.31318 7.62234e-18
8217.26808 7.54486e-18
8220.22299 7.37232e-18
8223.17789 7.06246e-18
8226.13280 6.59185e-18
8229.07762 6.31036e-18
8232.03252 6.47225e-18
8234.98743 6.86957e-18
8237.94233 7.20180e-18
8240.89724 7.39783e-18
8243.85214 7.50321e-18
8246.80705 7.59351e-18
8249.76195 7.67140e-18
8252.71686 7.59736e-18
8255.67176 7.43559e-18
8258.62667 7.42230e-18
8261.58158 7.50988e-18
8264.53648 7.57774e-18
8267.48130 7.62532e-18
8270.43620 7.54070e-18
8273.39111 7.37016e-18
8276.34601 7.25164e-18
8279.30092 7.20627e-18
8282.25583 7.21674e-18
8285.21073 7.19673e-18
8288.16563 7.16842e-18
8291.12054 7.21593e-18
8294.07545 7.30204e-18
8297.03035 7.40412e-18
8299.98525 7.52724e-18
8302.94016 7.57340e-18
8305.88498 7.57017e-18
8308.83988 7.61814e-18
8311.79479 7.52697e-18
8314.74970 7.29804e-18
8317.70460 7.13941e-18
8320.65950 7.08410e-18
8323.61441 7.11022e-18
8326.56931 7.20400e-18
8329.52422 7.30107e-18
8332.47912 7.38623e-18
8335.43403 7.44713e-18
8338.38894 7.47674e-18
8341.33375 7.58016e-18
8344.28866 7.75624e-18
8347.24356 7.80074e-18
8350.19847 7.73824e-18
8353.15337 7.66647e-18
8356.10828 7.48656e-18
8359.06319 7.31685e-18
8362.01809 7.27926e-18
8364.97299 7.31811e-18
8367.92790 7.37830e-18
8370.88280 7.44822e-18
8373.83771 7.50081e-18
8376.78253 7.51609e-18
8379.73744 7.52468e-18
8382.69234 7.55672e-18
8385.64724 7.57483e-18
8388.60215 7.51728e-18
8391.55705 7.44298e-18
8394.51196 7.38579e-18
8397.46687 7.31525e-18
8400.42177 7.24531e-18
8403.37667 7.20081e-18
8406.33158 7.22109e-18
8409.28648 7.31128e-18
8412.23130 7.29537e-18
8415.18621 7.17520e-18
8418.14112 7.16305e-18
8421.09602 7.17937e-18
8424.05092 7.18963e-18
8427.00583 7.21671e-18
8429.96073 7.27487e-18
8432.91564 7.30028e-18
8435.87054 7.23910e-18
8438.82545 7.21577e-18
8441.78035 7.28776e-18
8444.73526 7.32337e-18
8447.68008 7.25130e-18
8450.63498 7.15310e-18
8453.58989 7.09960e-18
8456.54479 7.08090e-18
8459.49970 7.01181e-18
8462.45460 6.93618e-18
8465.40951 6.97293e-18
8468.36442 7.10128e-18
8471.31932 7.15241e-18
8474.27422 7.05170e-18
8477.22913 7.03299e-18
8480.18403 7.15596e-18
8483.12885 7.18608e-18
8486.08376 7.15469e-18
8489.03867 7.11756e-18
8491.99357 7.11448e-18
8494.94847 7.08846e-18
8497.90338 6.95667e-18
8500.85828 6.86242e-18
8503.81319 6.85572e-18
8506.76809 6.76217e-18
8509.72300 6.69305e-18
8512.67791 6.76333e-18
8515.63281 6.84203e-18
8518.58771 6.88458e-18
8521.53253 6.89689e-18
8524.48744 6.91124e-18
8527.44234 6.88450e-18
8530.39725 6.79971e-18
8533.35216 6.73462e-18
8536.30706 6.68466e-18
8539.26196 6.60363e-18
8542.21687 6.51179e-18
8545.17177 6.47149e-18
8548.12668 6.46590e-18
8551.08158 6.49498e-18
8554.03649 6.56220e-18
8556.98131 6.59763e-18
8559.93621 6.61646e-18
8562.89112 6.61929e-18
8565.84602 6.62444e-18
8568.80093 6.62552e-18
8571.75583 6.59681e-18
8574.71074 6.59690e-18
8577.66565 6.61138e-18
8580.62055 6.58649e-18
8583.57545 6.55374e-18
8586.53036 6.56163e-18
8589.47518 6.57586e-18
8592.43008 6.57477e-18
8595.38499 6.59286e-18
8598.33990 6.58384e-18
8601.29480 6.51183e-18
8604.24970 6.43468e-18
8607.20461 6.44677e-18
8610.15951 6.42727e-18
8613.11442 6.37212e-18
8616.06933 6.36650e-18
8619.02423 6.39590e-18
8621.97913 6.45810e-18
8624.93404 6.52817e-18
8627.88894 6.53111e-18
8630.83376 6.49286e-18
8633.78867 6.44412e-18
8636.74358 6.31219e-18
8639.69848 6.18119e-18
8642.65338 6.17938e-18
8645.60829 6.24224e-18
8648.56319 6.28714e-18
8651.51810 6.33377e-18
8654.47300 6.33296e-18
8657.42791 6.23329e-18
8660.38281 6.15769e-18
8663.33772 6.23323e-18
8666.29263 6.36637e-18
8669.23744 6.38279e-18
8672.19235 6.31868e-18
8675.14725 6.25696e-18
8678.10216 6.19967e-18
8681.05706 6.08744e-18
8684.01197 5.98480e-18
8686.96688 5.94848e-18
8689.92178 5.93825e-18
8692.87668 5.98291e-18
8695.83159 6.03407e-18
8698.78649 6.00527e-18
8701.74140 5.96615e-18
8704.68622 6.00877e-18
8707.64113 6.18177e-18
8710.59603 6.31165e-18
8713.55093 6.21903e-18
8716.50584 6.12309e-18
8719.46074 6.09524e-18
8722.41565 6.00503e-18
8725.37055 5.87931e-18
8728.32546 5.77778e-18
8731.28037 5.71932e-18
8734.23527 5.71261e-18
8737.18009 5.74397e-18
8740.13499 5.84167e-18
8743.08990 5.96574e-18
8746.04480 6.00167e-18
8748.99971 5.98212e-18
8751.95462 5.99084e-18
8754.90952 6.03813e-18
8757.86442 6.10110e-18
8760.81933 6.10683e-18
8763.77423 6.06367e-18
8766.72914 5.99714e-18
8769.68404 5.90479e-18
8772.63895 5.86226e-18
8775.58377 5.88069e-18
8778.53867 5.86687e-18
8781.49358 5.84390e-18
8784.44848 5.86045e-18
8787.40339 5.86928e-18
8790.35829 5.90636e-18
8793.31320 5.97720e-18
8796.26810 5.98814e-18
8799.22301 5.97565e-18
8802.17792 5.96490e-18
8805.13282 5.90087e-18
8808.08772 5.80259e-18
8811.03255 5.75099e-18
8813.98745 5.78026e-18
8816.94235 5.81343e-18
8819.89726 5.78674e-18
8822.85217 5.79225e-18
8825.80707 5.83535e-18
8828.76197 5.80860e-18
8831.71688 5.80386e-18
8834.67178 5.87487e-18
8837.62669 5.90566e-18
8840.58159 5.88854e-18
8843.53650 5.84756e-18
8846.48132 5.85729e-18
8849.43622 5.96870e-18
8852.39113 6.00190e-18
8855.34603 5.92624e-18
8858.30094 5.82477e-18
8861.25584 5.75659e-18
8864.21075 5.74381e-18
8867.16566 5.67841e-18
8870.12056 5.61840e-18
8873.07546 5.63876e-18
8876.03037 5.67026e-18
8878.98527 5.64131e-18
8881.94018 5.66105e-18
8884.88500 5.73186e-18
8887.83991 5.68630e-18
8890.79481 5.66854e-18
8893.74971 5.74468e-18
8896.70462 5.73573e-18
8899.65952 5.70451e-18
8902.61443 5.68868e-18
8905.56934 5.63481e-18
8908.52424 5.66415e-18
8911.47915 5.76664e-18
8914.43405 5.75664e-18
8917.37887 5.63696e-18
8920.33377 5.51012e-18
8923.28868 5.38502e-18
8926.24359 5.30041e-18
8929.19849 5.31101e-18
8932.15340 5.34713e-18
8935.10830 5.35962e-18
8938.06320 5.43987e-18
8941.01811 5.52696e-18
8943.97301 5.46694e-18
8946.92792 5.40463e-18
8949.88283 5.41712e-18
8952.83773 5.32126e-18
8955.78255 5.10396e-18
8958.73745 4.97129e-18
8961.69236 4.97033e-18
8964.64726 4.93447e-18
8967.60217 4.89083e-18
8970.55708 4.91560e-18
8973.51198 4.85237e-18
8976.46688 4.80516e-18
8979.42179 4.86644e-18
8982.37669 4.90809e-18
8985.33160 4.91236e-18
8988.28651 4.97766e-18
8991.24141 5.09679e-18
8994.18623 5.09584e-18
8997.14113 4.88092e-18
9000.09604 4.66734e-18
9003.05094 4.58768e-18
9006.00585 4.52295e-18
9008.96076 4.45389e-18
9011.91566 4.44368e-18
9014.87056 4.45248e-18
9017.82547 4.48365e-18
9020.78038 4.59818e-18
9023.73528 4.79800e-18
9026.69018 5.05715e-18
9029.64509 5.26908e-18
9032.58991 5.37363e-18
9035.54481 5.41096e-18
9038.49972 5.37538e-18
9041.45463 5.33731e-18
9044.40953 5.27609e-18
9047.36443 5.15028e-18
9050.31934 5.00801e-18
9053.27424 4.87472e-18
9056.22915 4.78690e-18
9059.18405 4.74184e-18
9062.13896 4.68625e-18
9065.09387 4.58827e-18
9068.03868 4.48382e-18
9070.99359 4.55680e-18
9073.94849 4.82473e-18
9076.90340 4.98663e-18
9079.85830 4.90859e-18
9082.81321 4.74092e-18
9085.76812 4.67742e-18
9088.72302 4.69984e-18
9091.67792 4.69394e-18
9094.63283 4.66368e-18
9097.58773 4.62512e-18
9100.53255 4.51491e-18
9103.48746 4.41880e-18
9106.44237 4.41935e-18
9109.39727 4.40088e-18
9112.35217 4.36824e-18
9115.30708 4.44383e-18
9118.26198 4.56511e-18
9121.21689 4.55896e-18
9124.17180 4.46531e-18
9127.12670 4.41999e-18
9130.08160 4.43537e-18
9133.03651 4.48178e-18
9135.99141 4.54258e-18
9138.93623 4.56251e-18
9141.89114 4.47400e-18
9144.84605 4.28997e-18
9147.80095 4.10793e-18
9150.75585 4.03889e-18
9153.71076 4.14686e-18
9156.66566 4.32098e-18
9159.62057 4.42748e-18
9162.57547 4.49068e-18
9165.53038 4.47958e-18
9168.48528 4.38143e-18
9171.44019 4.29558e-18
9174.38501 4.35025e-18
9177.33991 4.45283e-18
9180.29482 4.46403e-18
9183.24972 4.42838e-18
9186.20463 4.37585e-18
9189.15953 4.37087e-18
9192.11444 4.47246e-18
9195.06934 4.58121e-18
9198.02425 4.65954e-18
9200.97915 4.68712e-18
9203.93406 4.59998e-18
9206.88897 4.47720e-18
9209.83378 4.52311e-18
9212.78869 4.74796e-18
9215.74359 4.95933e-18
9218.69850 5.03999e-18
9221.65340 4.95327e-18
9224.60831 4.77990e-18
9227.56322 4.64047e-18
9230.51812 4.49217e-18
9233.47302 4.34177e-18
9236.42793 4.26049e-18
9239.38284 4.29471e-18
9242.33774 4.40172e-18
9245.29264 4.48985e-18
9248.23747 4.58432e-18
9251.19237 4.68205e-18
9254.14727 4.73864e-18
9257.10218 4.82963e-18
9260.05709 4.87683e-18
9263.01199 4.76187e-18
9265.96689 4.56380e-18
9268.92180 4.33845e-18
9271.87670 4.13666e-18
9274.83161 4.02507e-18
9277.78651 3.96790e-18
9280.73134 3.88402e-18
9283.68624 3.79729e-18
9286.64114 3.75994e-18
9289.59605 3.65258e-18
9292.55095 3.47640e-18
9295.50586 3.46165e-18
9298.46076 3.52211e-18
9301.41567 3.45934e-18
9304.37058 3.33488e-18
9307.32548 3.17285e-18
9310.28038 2.98053e-18
9313.23529 2.82306e-18
9316.19019 2.73698e-18
9319.13501 2.66340e-18
9322.08992 2.58814e-18
9325.04483 2.49041e-18
9327.99973 2.40311e-18
9330.95463 2.29987e-18
9333.90954 2.14049e-18
9336.86444 2.10912e-18
9339.81935 2.37735e-18
9342.77426 2.72859e-18
9345.72916 2.79681e-18
9348.68406 2.64323e-18
9351.63897 2.60723e-18
9354.59387 2.69588e-18
9357.53869 2.66741e-18
9360.49360 2.47117e-18
9363.44851 2.32330e-18
9366.40341 2.36705e-18
9369.35831 2.43115e-18
9372.31322 2.41023e-18
9375.26812 2.49627e-18
9378.22303 2.84025e-18
9381.17793 3.28741e-18
9384.13284 3.59717e-18
9387.08774 3.75712e-18
9390.04265 3.79327e-18
9392.99755 3.70827e-18
9395.94237 3.61571e-18
9398.89728 3.54038e-18
9401.85218 3.45692e-18
9404.80709 3.38146e-18
9407.76199 3.31954e-18
9410.71690 3.24888e-18
9413.67180 3.04220e-18
9416.62671 2.73078e-18
9419.58162 2.54800e-18
9422.53652 2.59006e-18
9425.49142 2.75139e-18
9428.44633 2.84128e-18
9431.39115 2.76826e-18
9434.34605 2.65915e-18
9437.30096 2.71018e-18
9440.25586 2.92462e-18
9443.21077 3.06316e-18
9446.16567 2.97133e-18
9449.12058 2.77100e-18
9452.07548 2.61721e-18
9455.03039 2.54947e-18
9457.98530 2.59684e-18
9460.94020 2.78757e-18
9463.88502 2.92207e-18
9466.83992 2.88670e-18
9469.79483 2.76589e-18
9472.74973 2.65036e-18
9475.70464 2.63885e-18
9478.65955 2.77616e-18
9481.61445 2.94514e-18
9484.56935 2.94033e-18
9487.52426 2.79409e-18
9490.47916 2.71016e-18
9493.43407 2.75299e-18
9496.38897 2.86356e-18
9499.34388 2.97128e-18
9502.28870 2.97650e-18
9505.24360 2.81437e-18
9508.19851 2.56512e-18
9511.15341 2.42121e-18
9514.10832 2.52335e-18
9517.06322 2.76142e-18
9520.01813 2.93242e-18
9522.97303 3.06209e-18
9525.92794 3.20150e-18
9528.88285 3.26853e-18
9531.83775 3.19192e-18
9534.79265 3.06637e-18
9537.73747 2.94923e-18
9540.69238 2.80790e-18
9543.64728 2.74362e-18
9546.60219 2.66780e-18
9549.55710 2.51716e-18
9552.51200 2.46759e-18
9555.46690 2.59855e-18
9558.42181 2.72464e-18
9561.37672 2.77732e-18
9564.33162 2.81654e-18
9567.28652 2.86534e-18
9570.24143 2.93695e-18
9573.18625 2.96019e-18
9576.14115 2.87275e-18
9579.09606 2.74859e-18
9582.05097 2.68052e-18
9585.00587 2.62355e-18
9587.96077 2.53923e-18
9590.91568 2.51672e-18
9593.87059 2.53831e-18
9596.82549 2.50952e-18
9599.78039 2.48538e-18
9602.73530 2.53959e-18
9605.69020 2.63328e-18
9608.64511 2.74298e-18
9611.58993 2.84181e-18
9614.54484 2.97401e-18
9617.49974 3.17253e-18
9620.45464 3.27187e-18
9623.40955 3.18914e-18
9626.36445 3.03197e-18
9629.31936 2.95439e-18
9632.27427 2.92901e-18
9635.22917 2.82058e-18
9638.18408 2.71837e-18
9641.13898 2.76305e-18
9644.09388 2.87482e-18
9647.03870 2.91640e-18
9649.99361 2.84080e-18
9652.94852 2.76242e-18
9655.90342 2.79640e-18
9658.85833 2.88808e-18
9661.81323 3.07281e-18
9664.76813 3.39185e-18
9667.72304 3.60268e-18
9670.67794 3.63640e-18
9673.63285 3.66753e-18
9676.58776 3.63118e-18
9679.54266 3.49009e-18
9682.48748 3.33239e-18
9685.44238 3.21354e-18
9688.39729 3.12176e-18
9691.35219 3.07322e-18
9694.30710 3.11791e-18
9697.26201 3.23602e-18
9700.21691 3.37728e-18
9703.17181 3.37165e-18
9706.12672 3.27529e-18
9709.08162 3.38437e-18
9712.03653 3.56736e-18
9714.99143 3.55102e-18
9717.94634 3.46204e-18
9720.89116 3.44559e-18
9723.84606 3.36752e-18
9726.80097 3.17799e-18
9729.75587 3.03141e-18
9732.71078 2.95318e-18
9735.66568 2.82425e-18
9738.62059 2.66248e-18
9741.57549 2.64351e-18
9744.53040 2.85092e-18
9747.48531 3.13590e-18
9750.44021 3.32372e-18
9753.39511 3.37353e-18
9756.35002 3.34731e-18
9759.29484 3.27665e-18
9762.24974 3.20615e-18
9765.20465 3.19064e-18
9768.15956 3.33407e-18
9771.11446 3.44665e-18
9774.06936 3.37175e-18
9777.02427 3.21513e-18
9779.97917 3.06581e-18
9782.93408 2.97609e-18
9785.88898 2.97213e-18
9788.84389 2.99252e-18
9791.79880 3.05675e-18
9794.74361 3.16026e-18
9797.69852 3.37666e-18
9800.65342 3.66510e-18
9803.60833 3.75613e-18
9806.56323 3.72948e-18
9809.51814 3.78767e-18
9812.47305 3.73652e-18
9815.42795 3.55820e-18
9818.38285 3.54773e-18
9821.33776 3.69206e-18
9824.29266 3.75957e-18
9827.24757 3.73531e-18
9830.19239 3.75355e-18
9833.14730 3.87057e-18
9836.10220 4.03816e-18
9839.05710 4.23757e-18
9842.01201 4.34110e-18
9844.96691 4.23804e-18
9847.92182 4.16511e-18
9850.87673 4.29484e-18
9853.83163 4.61492e-18
9856.78653 4.88420e-18
9859.74144 4.83447e-18
9862.69634 4.66208e-18
9865.64116 4.60686e-18
9868.59607 4.62836e-18
9871.55098 4.65507e-18
9874.50588 4.65817e-18
9877.46078 4.70324e-18
9880.41569 4.78613e-18
9883.37059 4.86906e-18
9886.32550 5.04050e-18
9889.28040 5.28309e-18
9892.23531 5.52102e-18
9895.19022 5.75609e-18
9898.14512 5.97361e-18
9901.08994 6.07114e-18
9904.04484 5.98678e-18
9906.99975 5.85270e-18
9909.95465 5.75461e-18
9912.90956 5.71517e-18
9915.86447 5.68186e-18
9918.81937 5.61401e-18
9921.77427 5.49801e-18
9924.72918 5.42477e-18
9927.68408 5.58073e-18
9930.63899 5.85444e-18
9933.59389 6.08699e-18
9936.53872 6.30644e-18
9939.49362 6.56823e-18
9942.44852 6.81342e-18
9945.40343 6.86663e-18
9948.35833 6.88827e-18
9951.31324 7.13105e-18
9954.26815 7.28002e-18
9957.22305 7.10196e-18
9960.17795 6.89465e-18
9963.13286 6.74514e-18
9966.08777 6.52041e-18
9969.04267 6.33064e-18
9971.99757 6.26072e-18
9974.95248 6.25505e-18
9977.89730 6.35149e-18
9980.85220 6.41605e-18
9983.80711 6.36290e-18
9986.76202 6.39367e-18
9989.71692 6.72404e-18
9992.67182 7.21094e-18
9995.62673 7.47242e-18
9998.58163 7.68167e-18
