# wavelength flux
3300.83059 -5.83735e-18
3303.77540 3.28470e-18
3306.73031 1.22245e-17
3309.68521 1.60637e-17
3312.64012 1.91755e-17
3315.59503 1.70856e-17
3318.54993 9.56647e-18
3321.49475 2.70830e-18
3324.44965 5.34886e-18
3327.40456 1.30084e-17
3330.35947 1.48980e-17
3333.31437 8.25657e-18
3336.25919 8.23634e-20
3339.21409 -1.62335e-19
3342.16900 1.04803e-17
3345.12390 2.00241e-17
3348.07881 1.94436e-17
3351.02363 1.30486e-17
3353.97853 1.13143e-17
3356.93344 1.20651e-17
3359.88834 1.04834e-17
3362.84325 9.22749e-18
3365.79815 8.28725e-18
3368.74297 9.63335e-18
3371.69788 1.52439e-17
3374.65278 2.18465e-17
3377.60769 2.23910e-17
3380.56259 2.02714e-17
3383.50741 2.13562e-17
3386.46232 2.15001e-17
3389.41722 1.70402e-17
3392.37213 1.49696e-17
3395.32703 1.87746e-17
3398.28194 2.08404e-17
3401.22676 1.82909e-17
3404.18166 1.80595e-17
3407.13657 1.92509e-17
3410.09147 1.56699e-17
3413.04638 9.82768e-18
3415.99120 8.55624e-18
3418.94610 1.00961e-17
3421.90101 1.16700e-17
3424.85591 1.43751e-17
3427.81082 1.49131e-17
3430.76572 1.26638e-17
3433.71054 1.40379e-17
3436.66545 1.72448e-17
3439.62036 1.59420e-17
3442.57526 1.31370e-17
3445.53016 1.53886e-17
3448.47498 2.03540e-17
3451.42989 2.14880e-17
3454.38479 2.08681e-17
3457.33970 2.20617e-17
3460.29461 2.19679e-17
3463.24951 1.83723e-17
3466.19433 1.78186e-17
3469.14923 1.94449e-17
3472.10414 1.99393e-17
3475.05904 2.09136e-17
3478.01395 2.13056e-17
3480.95877 2.00924e-17
3483.91368 1.97436e-17
3486.86858 2.21303e-17
3489.82348 2.41723e-17
3492.77839 2.26117e-17
3495.73329 1.79486e-17
3498.67811 1.51646e-17
3501.63302 1.64976e-17
3504.58792 1.97875e-17
3507.54283 2.13019e-17
3510.49773 2.01139e-17
3513.44255 1.80228e-17
3516.39746 1.69667e-17
3519.35236 1.76482e-17
3522.30727 1.88742e-17
3525.26217 1.95043e-17
3528.21708 1.93217e-17
3531.16190 1.95733e-17
3534.11680 1.99931e-17
3537.07171 1.98846e-17
3540.02661 1.93350e-17
3542.98152 1.94102e-17
3545.92634 1.94586e-17
3548.88124 1.77965e-17
3551.83615 1.59972e-17
3554.79105 1.59910e-17
3557.74596 1.75839e-17
3560.70086 1.93499e-17
3563.64568 2.03697e-17
3566.60059 1.98064e-17
3569.55549 1.78903e-17
3572.51040 1.69412e-17
3575.46530 1.82708e-17
3578.41012 1.89850e-17
3581.36503 1.85239e-17
3584.31993 1.92518e-17
3587.27484 2.00615e-17
3590.22974 1.93445e-17
3593.18465 1.82176e-17
3596.12947 1.82169e-17
3599.08437 1.82888e-17
3602.03928 1.83202e-17
3604.99419 1.80179e-17
3607.94909 1.72417e-17
3610.89391 1.86323e-17
3613.84881 2.07680e-17
3616.80372 2.08897e-17
3619.75862 1.87970e-17
3622.71353 1.67966e-17
3625.65835 1.61502e-17
3628.61326 1.67187e-17
3631.56816 1.80715e-17
3634.52306 1.91089e-17
3637.47797 1.87051e-17
3640.43287 1.84311e-17
3643.37769 1.94908e-17
3646.33260 1.98743e-17
3649.28751 1.94308e-17
3652.24241 1.90824e-17
3655.19731 1.97158e-17
3658.14213 2.10005e-17
3661.09704 2.09967e-17
3664.05194 1.95179e-17
3667.00685 1.88579e-17
3669.96175 1.98513e-17
3672.91666 2.07959e-17
3675.86148 2.03558e-17
3678.81638 1.92731e-17
3681.77129 1.93647e-17
3684.72619 1.98731e-17
3687.68110 1.91287e-17
3690.62592 1.89276e-17
3693.58082 1.98449e-17
3696.53573 2.07060e-17
3699.49063 2.06915e-17
3702.44554 2.06676e-17
3705.40044 2.10403e-17
3708.34526 2.11719e-17
3711.30017 2.13543e-17
3714.25507 2.12591e-17
3717.20998 2.07642e-17
3720.16488 2.03208e-17
3723.10970 1.98732e-17
3726.06461 1.98794e-17
3729.01951 2.06933e-17
3731.97442 2.14697e-17
3734.92932 2.12405e-17
3737.88423 2.08413e-17
3740.82905 2.10841e-17
3743.78395 2.11920e-17
3746.73886 2.12999e-17
3749.69376 2.14078e-17
3752.64867 2.15157e-17
3755.59349 2.16236e-17
3758.54839 2.17314e-17
3761.50330 2.18392e-17
3764.45820 2.19470e-17
3767.41311 2.20548e-17
3770.36802 2.21626e-17
3773.31284 2.22703e-17
3776.26774 2.23781e-17
3779.22264 2.24858e-17
3782.17755 2.09320e-17
3785.13245 2.05404e-17
3788.07728 2.07880e-17
3791.03218 2.09895e-17
3793.98709 2.08719e-17
3796.94199 2.01477e-17
3799.89689 1.98196e-17
3802.84171 2.00133e-17
3805.79662 1.98644e-17
3808.75153 1.93119e-17
3811.70643 1.92408e-17
3814.66134 1.96699e-17
3817.61624 2.00799e-17
3820.56106 2.05506e-17
3823.51596 2.08527e-17
3826.47087 2.07581e-17
3829.42577 2.05413e-17
3832.38068 2.05446e-17
3835.32550 2.08356e-17
3838.28040 2.10685e-17
3841.23531 2.14782e-17
3844.19021 2.22893e-17
3847.14512 2.25113e-17
3850.10002 2.15376e-17
3853.04484 2.10401e-17
3855.99975 2.13109e-17
3858.95465 2.11675e-17
3861.90956 2.09833e-17
3864.86446 2.13074e-17
3867.80928 2.16600e-17
3870.76419 2.19987e-17
3873.71909 2.24470e-17
3876.67400 2.27133e-17
3879.62890 2.25777e-17
3882.58381 2.23432e-17
3885.52863 2.23204e-17
3888.48353 2.23641e-17
3891.43844 2.26374e-17
3894.39334 2.29452e-17
3897.34825 2.34190e-17
3900.29307 2.38601e-17
3903.24797 2.39847e-17
3906.20288 2.41007e-17
3909.15778 2.38580e-17
3912.11269 2.39282e-17
3915.06759 2.44952e-17
3918.01241 2.47860e-17
3920.96732 2.43167e-17
3923.92222 2.30663e-17
3926.87713 2.24375e-17
3929.83203 2.30572e-17
3932.77686 2.40614e-17
3935.73176 2.46362e-17
3938.68666 2.44741e-17
3941.64157 2.40416e-17
3944.59647 2.42477e-17
3947.55138 2.45246e-17
3950.49620 2.47522e-17
3953.45111 2.53744e-17
3956.40601 2.56364e-17
3959.36091 2.49893e-17
3962.31582 2.41316e-17
3965.26064 2.36063e-17
3968.21555 2.35534e-17
3971.17045 2.37644e-17
3974.12536 2.39163e-17
3977.08026 2.42829e-17
3980.03516 2.46537e-17
3982.97998 2.49506e-17
3985.93489 2.51830e-17
3988.88979 2.51722e-17
3991.84470 2.47611e-17
3994.79960 2.44184e-17
3997.74442 2.46863e-17
4000.69933 2.47730e-17
4003.65423 2.42240e-17
4006.60914 2.40977e-17
4009.56404 2.43852e-17
4012.51895 2.45067e-17
4015.46377 2.46737e-17
4018.41867 2.52681e-17
4021.37358 2.59475e-17
4024.32848 2.60936e-17
4027.28339 2.60496e-17
4030.22821 2.59853e-17
4033.18311 2.56751e-17
4036.13802 2.56774e-17
4039.09292 2.61287e-17
4042.04783 2.64376e-17
4045.00273 2.61646e-17
4047.94755 2.56500e-17
4050.90246 2.56427e-17
4053.85736 2.58710e-17
4056.81227 2.59848e-17
4059.76717 2.56963e-17
4062.71199 2.55498e-17
4065.66690 2.57724e-17
4068.62180 2.58611e-17
4071.57671 2.54945e-17
4074.53161 2.51932e-17
4077.47644 2.53622e-17
4080.43134 2.55074e-17
4083.38624 2.55880e-17
4086.34115 2.58838e-17
4089.29605 2.64202e-17
4092.25096 2.70522e-17
4095.19578 2.73842e-17
4098.15068 2.72831e-17
4101.10559 2.67751e-17
4104.06049 2.62746e-17
4107.01540 2.61908e-17
4109.96022 2.61928e-17
4112.91512 2.60066e-17
4115.87003 2.58346e-17
4118.82493 2.59270e-17
4121.77984 2.59713e-17
4124.73474 2.58177e-17
4127.67956 2.56564e-17
4130.63447 2.57169e-17
4133.58937 2.59628e-17
4136.54428 2.60004e-17
4139.49918 2.57990e-17
4142.44400 2.56283e-17
4145.39891 2.55132e-17
4148.35382 2.51668e-17
4151.30872 2.50016e-17
4154.26362 2.49697e-17
4157.21853 2.46480e-17
4160.16335 2.45261e-17
4163.11825 2.50145e-17
4166.07316 2.55295e-17
4169.02807 2.55136e-17
4171.98297 2.56353e-17
4174.92779 2.57037e-17
4177.88270 2.55822e-17
4180.83760 2.54623e-17
4183.79250 2.51572e-17
4186.74741 2.51092e-17
4189.70232 2.52850e-17
4192.64714 2.55494e-17
4195.60204 2.56035e-17
4198.55695 2.56811e-17
4201.51185 2.57944e-17
4204.46675 2.55826e-17
4207.41157 2.54622e-17
4210.36648 2.53126e-17
4213.32139 2.51357e-17
4216.27629 2.51499e-17
4219.23120 2.51793e-17
4222.18610 2.51350e-17
4225.13092 2.50459e-17
4228.08582 2.50464e-17
4231.04073 2.49722e-17
4233.99564 2.48348e-17
4236.95054 2.51224e-17
4239.89536 2.55575e-17
4242.85027 2.60632e-17
4245.80517 2.61392e-17
4248.76007 2.53960e-17
4251.71498 2.44525e-17
4254.65980 2.44518e-17
4257.61470 2.53957e-17
4260.56961 2.59850e-17
4263.52452 2.59202e-17
4266.47942 2.61190e-17
4269.43432 2.63716e-17
4272.37914 2.63031e-17
4275.33405 2.59990e-17
4278.28895 2.54469e-17
4281.24386 2.48152e-17
4284.19877 2.46915e-17
4287.15367 2.50201e-17
4290.09849 2.52957e-17
4293.05339 2.52569e-17
4296.00830 2.51513e-17
4298.96320 2.51795e-17
4301.91811 2.53458e-17
4304.86293 2.56602e-17
4307.81783 2.57637e-17
4310.77274 2.54927e-17
4313.72764 2.52416e-17
4316.68255 2.52114e-17
4319.62737 2.53615e-17
4322.58227 2.54785e-17
4325.53718 2.53015e-17
4328.49208 2.48990e-17
4331.44699 2.46384e-17
4334.40189 2.45553e-17
4337.34671 2.45095e-17
4340.30162 2.44785e-17
4343.25652 2.45879e-17
4346.21143 2.48013e-17
4349.16633 2.45797e-17
4352.11116 2.42337e-17
4355.06606 2.39724e-17
4358.02096 2.39147e-17
4360.97587 2.39280e-17
4363.93077 2.35448e-17
4366.88568 2.35240e-17
4369.83050 2.42391e-17
4372.78541 2.48498e-17
4375.74031 2.48207e-17
4378.69521 2.44088e-17
4381.65012 2.43694e-17
4384.59494 2.43471e-17
4387.54984 2.43247e-17
4390.50475 2.43024e-17
4393.45965 2.42800e-17
4396.41456 2.42577e-17
4399.36946 2.42353e-17
4402.31428 2.42130e-17
4405.26919 2.41906e-17
4408.22409 2.41683e-17
4411.17900 2.41459e-17
4414.13390 2.41236e-17
4417.07873 2.41012e-17
4420.03363 2.40789e-17
4422.98853 2.39986e-17
4425.94344 2.43545e-17
4428.89834 2.48972e-17
4431.85325 2.51147e-17
4434.79807 2.49863e-17
4437.75298 2.47883e-17
4440.70788 2.45676e-17
4443.66278 2.45985e-17
4446.61769 2.48708e-17
4449.56251 2.49769e-17
4452.51741 2.49974e-17
4455.47232 2.51406e-17
4458.42723 2.53979e-17
4461.38213 2.54231e-17
4464.33703 2.51058e-17
4467.28186 2.49170e-17
4470.23676 2.48493e-17
4473.19166 2.49352e-17
4476.14657 2.50395e-17
4479.10148 2.50363e-17
4482.04630 2.51273e-17
4485.00120 2.53227e-17
4487.95611 2.52772e-17
4490.91101 2.51570e-17
4493.86591 2.53985e-17
4496.81074 2.56394e-17
4499.76564 2.55810e-17
4502.72055 2.54998e-17
4505.67545 2.53396e-17
4508.63036 2.52684e-17
4511.58526 2.55029e-17
4514.53008 2.55329e-17
4517.48499 2.56074e-17
4520.43989 2.57559e-17
4523.39480 2.55794e-17
4526.34970 2.52661e-17
4529.29452 2.49828e-17
4532.24942 2.48235e-17
4535.20433 2.49418e-17
4538.15924 2.53964e-17
4541.11414 2.57355e-17
4544.06905 2.55165e-17
4547.01386 2.51359e-17
4549.96877 2.49858e-17
4552.92368 2.50136e-17
4555.87858 2.51178e-17
4558.83348 2.52596e-17
4561.77830 2.54695e-17
4564.73321 2.55896e-17
4567.68811 2.54590e-17
4570.64302 2.50855e-17
4573.59793 2.47485e-17
4576.55283 2.46403e-17
4579.49765 2.46779e-17
4582.45255 2.49155e-17
4585.40746 2.49667e-17
4588.36236 2.46881e-17
4591.31727 2.44739e-17
4594.26209 2.43267e-17
4597.21699 2.43041e-17
4600.17190 2.46816e-17
4603.12680 2.49924e-17
4606.08171 2.48190e-17
4609.03661 2.46402e-17
4611.98143 2.44225e-17
4614.93634 2.40664e-17
4617.89124 2.40114e-17
4620.84615 2.40502e-17
4623.80105 2.39378e-17
4626.74587 2.39331e-17
4629.70078 2.36837e-17
4632.65568 2.32304e-17
4635.61059 2.29766e-17
4638.56549 2.28762e-17
4641.52040 2.31996e-17
4644.46522 2.36622e-17
4647.42012 2.37943e-17
4650.37503 2.38987e-17
4653.32993 2.38303e-17
4656.28484 2.35248e-17
4659.22966 2.36074e-17
4662.18457 2.40245e-17
4665.13947 2.40130e-17
4668.09437 2.36232e-17
4671.04928 2.33879e-17
4673.99410 2.34318e-17
4676.94900 2.34905e-17
4679.90391 2.33156e-17
4682.85882 2.31435e-17
4685.81372 2.32001e-17
4688.76862 2.33584e-17
4691.71344 2.32257e-17
4694.66835 2.30651e-17
4697.62325 2.31633e-17
4700.57816 2.32569e-17
4703.53307 2.33989e-17
4706.47789 2.34966e-17
4709.43279 2.36189e-17
4712.38769 2.35332e-17
4715.34260 2.31199e-17
4718.29750 2.30450e-17
4721.25241 2.32185e-17
4724.19723 2.34129e-17
4727.15214 2.36710e-17
4730.10704 2.38360e-17
4733.06194 2.38019e-17
4736.01685 2.34973e-17
4738.96167 2.32217e-17
4741.91657 2.32247e-17
4744.87148 2.32655e-17
4747.82639 2.34153e-17
4750.78129 2.35603e-17
4753.73619 2.35612e-17
4756.68102 2.36398e-17
4759.63592 2.36969e-17
4762.59082 2.36551e-17
4765.54573 2.36321e-17
4768.50064 2.37178e-17
4771.44545 2.37632e-17
4774.40036 2.37597e-17
4777.35527 2.36500e-17
4780.31017 2.33476e-17
4783.26507 2.33731e-17
4786.21998 2.37777e-17
4789.16480 2.38183e-17
4792.11970 2.35870e-17
4795.07461 2.33078e-17
4798.02952 2.32358e-17
4800.98442 2.35439e-17
4803.92924 2.37097e-17
4806.88414 2.37827e-17
4809.83905 2.38455e-17
4812.79395 2.35231e-17
4815.74886 2.32159e-17
4818.70377 2.32796e-17
4821.64858 2.34656e-17
4824.60349 2.35559e-17
4827.55840 2.36106e-17
4830.51330 2.34717e-17
4833.46820 2.32056e-17
4836.41302 2.32375e-17
4839.36793 2.34671e-17
4842.32283 2.34086e-17
4845.27774 2.30839e-17
4848.23265 2.29044e-17
4851.18755 2.30377e-17
4854.13237 2.32379e-17
4857.08727 2.33666e-17
4860.04218 2.35042e-17
4862.99708 2.36883e-17
4865.95199 2.38361e-17
4868.89681 2.37689e-17
4871.85171 2.37011e-17
4874.80662 2.37095e-17
4877.76152 2.36031e-17
4880.71643 2.37744e-17
4883.67133 2.40436e-17
4886.61615 2.40396e-17
4889.57106 2.40357e-17
4892.52596 2.40317e-17
4895.48087 2.40278e-17
4898.43577 2.40239e-17
4901.38059 2.40199e-17
4904.33550 2.40160e-17
4907.29040 2.40121e-17
4910.24531 2.40081e-17
4913.20021 2.40042e-17
4916.14503 2.40003e-17
4919.09994 2.39963e-17
4922.05484 2.39924e-17
4925.00975 2.40399e-17
4927.96465 2.43807e-17
4930.91956 2.46754e-17
4933.86438 2.47167e-17
4936.81928 2.46905e-17
4939.77419 2.48520e-17
4942.72909 2.49980e-17
4945.68400 2.50095e-17
4948.62882 2.48500e-17
4951.58373 2.45575e-17
4954.53863 2.46375e-17
4957.49353 2.50004e-17
4960.44844 2.51755e-17
4963.40334 2.50751e-17
4966.34816 2.48953e-17
4969.30307 2.48499e-17
4972.25798 2.49147e-17
4975.21288 2.51497e-17
4978.16778 2.53603e-17
4981.11261 2.52962e-17
4984.06751 2.53263e-17
4987.02241 2.53563e-17
4989.97732 2.53864e-17
4992.93223 2.54165e-17
4995.88713 2.54465e-17
4998.83195 2.54766e-17
5001.78686 2.55067e-17
5004.74176 2.55367e-17
5007.69666 2.55667e-17
5010.65157 2.55968e-17
5013.59639 2.56268e-17
5016.55130 2.56568e-17
5019.50620 2.56868e-17
5022.46111 2.57260e-17
5025.41601 2.56471e-17
5028.37091 2.56994e-17
5031.31573 2.57535e-17
5034.27064 2.58076e-17
5037.22555 2.58616e-17
5040.18045 2.59156e-17
5043.13535 2.59697e-17
5046.08018 2.60237e-17
5049.03508 2.60777e-17
5051.98998 2.61316e-17
5054.94489 2.61856e-17
5057.89980 2.62396e-17
5060.85470 2.62935e-17
5063.79952 2.63474e-17
5066.75443 2.64014e-17
5069.70933 2.64553e-17
5072.66423 2.67227e-17
5075.61914 2.69592e-17
5078.56396 2.69325e-17
5081.51886 2.68938e-17
5084.47377 2.69987e-17
5087.42868 2.71587e-17
5090.38358 2.72578e-17
5093.33848 2.73570e-17
5096.28330 2.72296e-17
5099.23821 2.70003e-17
5102.19311 2.69728e-17
5105.14802 2.71442e-17
5108.10293 2.73257e-17
5111.04774 2.72839e-17
5114.00265 2.71422e-17
5116.95755 2.72331e-17
5119.91246 2.73756e-17
5122.86736 2.74440e-17
5125.82227 2.75247e-17
5128.76709 2.75389e-17
5131.72199 2.73529e-17
5134.67690 2.73194e-17
5137.63180 2.74187e-17
5140.58671 2.75073e-17
5143.53153 2.76433e-17
5146.48643 2.75278e-17
5149.44134 2.73393e-17
5152.39624 2.75059e-17
5155.35115 2.77684e-17
5158.29597 2.76695e-17
5161.25087 2.73092e-17
5164.20578 2.72117e-17
5167.16068 2.72450e-17
5170.11559 2.71906e-17
5173.07049 2.72171e-17
5176.01531 2.73891e-17
5178.97022 2.74702e-17
5181.92512 2.74021e-17
5184.88003 2.72758e-17
5187.83493 2.70482e-17
5190.78984 2.69408e-17
5193.73466 2.68960e-17
5196.68956 2.68507e-17
5199.64447 2.69637e-17
5202.59937 2.70490e-17
5205.55428 2.69973e-17
5208.49910 2.69991e-17
5211.45400 2.72546e-17
5214.40891 2.76392e-17
5217.36381 2.76374e-17
5220.31872 2.74072e-17
5223.26354 2.72325e-17
5226.21844 2.70713e-17
5229.17335 2.68696e-17
5232.12825 2.66384e-17
5235.08316 2.65696e-17
5238.03806 2.65852e-17
5240.98289 2.65496e-17
5243.93779 2.65016e-17
5246.89269 2.64761e-17
5249.84760 2.63291e-17
5252.80250 2.60578e-17
5255.74732 2.58467e-17
5258.70223 2.57638e-17
5261.65714 2.58883e-17
5264.61204 2.59825e-17
5267.56694 2.56687e-17
5270.52185 2.53749e-17
5273.46667 2.53268e-17
5276.42157 2.52603e-17
5279.37648 2.51982e-17
5282.33139 2.52042e-17
5285.28629 2.51060e-17
5288.23111 2.50266e-17
5291.18602 2.50319e-17
5294.14092 2.49947e-17
5297.09582 2.48369e-17
5300.05073 2.46220e-17
5303.00564 2.46180e-17
5305.95045 2.46986e-17
5308.90536 2.45409e-17
5311.86027 2.42975e-17
5314.81517 2.41697e-17
5317.77007 2.40309e-17
5320.71490 2.38393e-17
5323.66980 2.37043e-17
5326.62470 2.37261e-17
5329.57961 2.37497e-17
5332.53452 2.36104e-17
5335.48942 2.35150e-17
5338.43424 2.36159e-17
5341.38914 2.37252e-17
5344.34405 2.36154e-17
5347.29895 2.34715e-17
5350.25386 2.33248e-17
5353.19868 2.32062e-17
5356.15359 2.31773e-17
5359.10849 2.31332e-17
5362.06339 2.31093e-17
5365.01830 2.30525e-17
5367.97320 2.29064e-17
5370.91802 2.27596e-17
5373.87293 2.26985e-17
5376.82784 2.26367e-17
5379.78274 2.26617e-17
5382.73764 2.25657e-17
5385.68246 2.22950e-17
5388.63737 2.22322e-17
5391.59227 2.22907e-17
5394.54718 2.22493e-17
5397.50209 2.22259e-17
5400.45699 2.22135e-17
5403.40181 2.23015e-17
5406.35671 2.23468e-17
5409.31162 2.22241e-17
5412.26652 2.20023e-17
5415.22143 2.18697e-17
5418.16625 2.19837e-17
5421.12115 2.20151e-17
5424.07606 2.18273e-17
5427.03096 2.16840e-17
5429.98587 2.16148e-17
5432.94077 2.15426e-17
5435.88559 2.14936e-17
5438.84050 2.15284e-17
5441.79540 2.15482e-17
5444.75031 2.13762e-17
5447.70521 2.11457e-17
5450.65003 2.09936e-17
5453.60494 2.08478e-17
5456.55984 2.07482e-17
5459.51475 2.07927e-17
5462.46965 2.08650e-17
5465.41448 2.08270e-17
5468.36938 2.08645e-17
5471.32428 2.09539e-17
5474.27919 2.07533e-17
5477.23409 2.04009e-17
5480.18900 2.02437e-17
5483.13382 2.03084e-17
5486.08873 2.05623e-17
5489.04363 2.07402e-17
5491.99853 2.05882e-17
5494.95344 2.03686e-17
5497.89826 2.04027e-17
5500.85316 2.05609e-17
5503.80807 2.05001e-17
5506.76298 2.02305e-17
5509.71788 1.99103e-17
5512.67278 1.97629e-17
5515.61760 1.99410e-17
5518.57251 2.01214e-17
5521.52741 2.01399e-17
5524.48232 2.00732e-17
5527.43722 2.00124e-17
5530.38205 1.99121e-17
5533.33695 1.97487e-17
5536.29185 1.95934e-17
5539.24676 1.95011e-17
5542.20166 1.95687e-17
5545.15657 1.97038e-17
5548.10139 1.97019e-17
5551.05630 1.96118e-17
5554.01120 1.95328e-17
5556.96610 1.94781e-17
5559.92101 1.94802e-17
5562.86583 1.94752e-17
5565.82073 1.92972e-17
5568.77564 1.90094e-17
5571.73055 1.89367e-17
5574.68545 1.91770e-17
5577.63027 1.95041e-17
5580.58518 1.95572e-17
5583.54008 1.92012e-17
5586.49498 1.88544e-17
5589.44989 1.88047e-17
5592.40480 1.88848e-17
5595.34961 1.89612e-17
5598.30452 1.88506e-17
5601.25943 1.85825e-17
5604.21433 1.84530e-17
5607.16923 1.84612e-17
5610.11406 1.85034e-17
5613.06896 1.85482e-17
5616.02386 1.85695e-17
5618.97877 1.85689e-17
5621.93368 1.85377e-17
5624.88858 1.85102e-17
5627.83340 1.85658e-17
5630.78831 1.86987e-17
5633.74321 1.87248e-17
5636.69811 1.86031e-17
5639.65302 1.85280e-17
5642.59784 1.85210e-17
5645.55274 1.84807e-17
5648.50765 1.83026e-17
5651.46256 1.81262e-17
5654.41746 1.81149e-17
5657.37236 1.80613e-17
5660.31718 1.78823e-17
5663.27209 1.77180e-17
5666.22699 1.77252e-17
5669.18190 1.78661e-17
5672.13681 1.78840e-17
5675.08162 1.77749e-17
5678.03653 1.77057e-17
5680.99143 1.77217e-17
5683.94634 1.77662e-17
5686.90125 1.76958e-17
5689.85615 1.74878e-17
5692.80097 1.73773e-17
5695.75587 1.74693e-17
5698.71078 1.75572e-17
5701.66568 1.75265e-17
5704.62059 1.73307e-17
5707.56541 1.70546e-17
5710.52031 1.70608e-17
5713.47522 1.72843e-17
5716.43012 1.73389e-17
5719.38503 1.72161e-17
5722.33993 1.71635e-17
5725.28475 1.72836e-17
5728.23966 1.73723e-17
5731.19456 1.73054e-17
5734.14947 1.72771e-17
5737.10437 1.72455e-17
5740.04919 1.71214e-17
5743.00410 1.70728e-17
5745.95900 1.70873e-17
5748.91391 1.70231e-17
5751.86881 1.70269e-17
5754.82372 1.71074e-17
5757.76854 1.70549e-17
5760.72344 1.68777e-17
5763.67835 1.66678e-17
5766.63325 1.64645e-17
5769.58816 1.63559e-17
5772.53298 1.63352e-17
5775.48789 1.64033e-17
5778.44279 1.64548e-17
5781.39769 1.63214e-17
5784.35260 1.61674e-17
5787.30750 1.61666e-17
5790.25232 1.61908e-17
5793.20723 1.61612e-17
5796.16214 1.61427e-17
5799.11704 1.61459e-17
5802.07194 1.60495e-17
5805.01677 1.58975e-17
5807.97167 1.59178e-17
5810.92657 1.60388e-17
5813.88148 1.60272e-17
5816.83639 1.58764e-17
5819.78120 1.57864e-17
5822.73611 1.58335e-17
5825.69101 1.59612e-17
5828.64592 1.59502e-17
5831.60082 1.58222e-17
5834.55573 1.57680e-17
5837.50055 1.57924e-17
5840.45545 1.57719e-17
5843.41036 1.56663e-17
5846.36526 1.56963e-17
5849.32017 1.58540e-17
5852.27507 1.58347e-17
5855.21989 1.56499e-17
5858.17480 1.54976e-17
5861.12970 1.54692e-17
5864.08461 1.55391e-17
5867.03951 1.54707e-17
5869.98434 1.52348e-17
5872.93924 1.50974e-17
5875.89414 1.51738e-17
5878.84905 1.52965e-17
5881.80395 1.52960e-17
5884.74877 1.52336e-17
5887.70368 1.52513e-17
5890.65859 1.52164e-17
5893.61349 1.51192e-17
5896.56839 1.51443e-17
5899.52330 1.51896e-17
5902.46812 1.51761e-17
5905.42302 1.51618e-17
5908.37793 1.51535e-17
5911.33284 1.51089e-17
5914.28774 1.50809e-17
5917.23256 1.52243e-17
5920.18746 1.53520e-17
5923.14237 1.53749e-17
5926.09727 1.53705e-17
5929.05218 1.54099e-17
5932.00709 1.53989e-17
5934.95190 1.52516e-17
5937.90681 1.52530e-17
5940.86172 1.54047e-17
5943.81662 1.54784e-17
5946.77152 1.54951e-17
5949.71634 1.54370e-17
5952.67125 1.53041e-17
5955.62615 1.52735e-17
5958.58106 1.54155e-17
5961.53597 1.54533e-17
5964.49087 1.51889e-17
5967.43569 1.49643e-17
5970.39059 1.51115e-17
5973.34550 1.53379e-17
5976.30040 1.53549e-17
5979.25531 1.52955e-17
5982.20013 1.53706e-17
5985.15503 1.54653e-17
5988.10994 1.53923e-17
5991.06484 1.53514e-17
5994.01975 1.54834e-17
5996.97465 1.56523e-17
5999.91947 1.56355e-17
6002.87438 1.55891e-17
6005.82928 1.55639e-17
6008.78419 1.55746e-17
6011.73909 1.55718e-17
6014.68391 1.55864e-17
6017.63882 1.55955e-17
6020.59372 1.56120e-17
6023.54863 1.56819e-17
6026.50353 1.57182e-17
6029.45844 1.56596e-17
6032.40326 1.55832e-17
6035.35816 1.55735e-17
6038.31307 1.56164e-17
6041.26797 1.56368e-17
6044.22288 1.56057e-17
6047.16770 1.55529e-17
6050.12260 1.55469e-17
6053.07751 1.55824e-17
6056.03241 1.55896e-17
6058.98732 1.54965e-17
6061.93214 1.54130e-17
6064.88705 1.54748e-17
6067.84195 1.55600e-17
6070.79685 1.55924e-17
6073.75176 1.55676e-17
6076.70666 1.55376e-17
6079.65148 1.55877e-17
6082.60639 1.56941e-17
6085.56130 1.57687e-17
6088.51620 1.57591e-17
6091.47110 1.56253e-17
6094.42601 1.54910e-17
6097.37083 1.55041e-17
6100.32573 1.55678e-17
6103.28064 1.55994e-17
6106.23555 1.55876e-17
6109.19045 1.55222e-17
6112.13527 1.55094e-17
6115.09018 1.55260e-17
6118.04508 1.55482e-17
6120.99998 1.55957e-17
6123.95489 1.56261e-17
6126.89971 1.56821e-17
6129.85461 1.57402e-17
6132.80952 1.57345e-17
6135.76443 1.57815e-17
6138.71933 1.58186e-17
6141.67423 1.57954e-17
6144.61905 1.57399e-17
6147.57396 1.57418e-17
6150.52886 1.57741e-17
6153.48377 1.57726e-17
6156.43868 1.57104e-17
6159.38350 1.55910e-17
6162.33840 1.53617e-17
6165.29330 1.50292e-17
6168.24821 1.48046e-17
6171.20311 1.48886e-17
6174.15802 1.52178e-17
6177.10284 1.55566e-17
6180.05775 1.56706e-17
6183.01265 1.56112e-17
6185.96755 1.56305e-17
6188.92246 1.57387e-17
6191.86728 1.58073e-17
6194.82218 1.57684e-17
6197.77709 1.57675e-17
6200.73200 1.58195e-17
6203.68690 1.58134e-17
6206.64180 1.57268e-17
6209.58662 1.56580e-17
6212.54153 1.57093e-17
6215.49643 1.58003e-17
6218.45134 1.57839e-17
6221.40625 1.57328e-17
6224.35106 1.57651e-17
6227.30597 1.58248e-17
6230.26087 1.58673e-17
6233.21578 1.58854e-17
6236.17068 1.58355e-17
6239.12559 1.57848e-17
6242.07041 1.58304e-17
6245.02531 1.58928e-17
6247.98022 1.58581e-17
6250.93512 1.57519e-17
6253.89003 1.56803e-17
6256.83485 1.57047e-17
6259.78975 1.56987e-17
6262.74466 1.56228e-17
6265.69956 1.55332e-17
6268.65447 1.55531e-17
6271.60938 1.56340e-17
6274.55419 1.55762e-17
6277.50910 1.53228e-17
6280.46400 1.50945e-17
6283.41891 1.51564e-17
6286.37381 1.53028e-17
6289.31864 1.53129e-17
6292.27354 1.52799e-17
6295.22844 1.52734e-17
6298.18335 1.52790e-17
6301.13825 1.52755e-17
6304.09316 1.52967e-17
6307.03798 1.53429e-17
6309.99288 1.53367e-17
6312.94779 1.52966e-17
6315.90269 1.52341e-17
6318.85760 1.51971e-17
6321.80242 1.52347e-17
6324.75732 1.52452e-17
6327.71223 1.52054e-17
6330.66713 1.51806e-17
6333.62204 1.51661e-17
6336.57694 1.51232e-17
6339.52176 1.51007e-17
6342.47667 1.50849e-17
6345.43157 1.50517e-17
6348.38648 1.50617e-17
6351.34138 1.50415e-17
6354.28620 1.49504e-17
6357.24111 1.49209e-17
6360.19601 1.49870e-17
6363.15092 1.49823e-17
6366.10582 1.48970e-17
6369.05064 1.48914e-17
6372.00555 1.48950e-17
6374.96045 1.48731e-17
6377.91536 1.48641e-17
6380.87026 1.48443e-17
6383.82517 1.48000e-17
6386.76999 1.47988e-17
6389.72489 1.48511e-17
6392.67980 1.48747e-17
6395.63470 1.48518e-17
6398.58961 1.47781e-17
6401.53443 1.47010e-17
6404.48934 1.47213e-17
6407.44424 1.47576e-17
6410.39914 1.47024e-17
6413.35405 1.46680e-17
6416.30895 1.46828e-17
6419.25377 1.47313e-17
6422.20868 1.47751e-17
6425.16359 1.46686e-17
6428.11849 1.45482e-17
6431.07339 1.45677e-17
6434.01822 1.45804e-17
6436.97312 1.45188e-17
6439.92802 1.44806e-17
6442.88293 1.44477e-17
6445.83784 1.43911e-17
6448.79274 1.43361e-17
6451.73756 1.42415e-17
6454.69247 1.42109e-17
6457.64737 1.42677e-17
6460.60227 1.42990e-17
6463.55718 1.42840e-17
6466.50200 1.42745e-17
6469.45691 1.42328e-17
6472.41181 1.41220e-17
6475.36671 1.39973e-17
6478.32162 1.39336e-17
6481.27652 1.39520e-17
6484.22134 1.39724e-17
6487.17625 1.39674e-17
6490.13116 1.39599e-17
6493.08606 1.39030e-17
6496.04096 1.38450e-17
6498.98578 1.38391e-17
6501.94069 1.38450e-17
6504.89559 1.37986e-17
6507.85050 1.37118e-17
6510.80541 1.36508e-17
6513.76031 1.35812e-17
6516.70513 1.34591e-17
6519.66003 1.34335e-17
6522.61494 1.35733e-17
6525.56984 1.36700e-17
6528.52475 1.36018e-17
6531.46957 1.35197e-17
6534.42447 1.34959e-17
6537.37938 1.34319e-17
6540.33428 1.33655e-17
6543.28919 1.33448e-17
6546.23401 1.33770e-17
6549.18891 1.33717e-17
6552.14382 1.32958e-17
6555.09872 1.32108e-17
6558.05363 1.31050e-17
6561.00853 1.29833e-17
6563.95335 1.29209e-17
6566.90826 1.29237e-17
6569.86316 1.29867e-17
6572.81807 1.30590e-17
6575.77297 1.31223e-17
6578.71780 1.31272e-17
6581.67270 1.30199e-17
6584.62760 1.29246e-17
6587.58251 1.28257e-17
6590.53741 1.28002e-17
6593.49232 1.27746e-17
6596.43714 1.27491e-17
6599.39205 1.27235e-17
6602.34695 1.26980e-17
6605.30185 1.26725e-17
6608.25676 1.26469e-17
6611.20158 1.26214e-17
6614.15648 1.25959e-17
6617.11139 1.25704e-17
6620.06630 1.25449e-17
6623.02120 1.25194e-17
6625.97610 1.24938e-17
6628.92092 1.24683e-17
6631.87583 1.24428e-17
6634.83073 1.24174e-17
6637.78564 1.23919e-17
6640.74055 1.23664e-17
6643.68536 1.23409e-17
6646.64027 1.23154e-17
6649.59517 1.22899e-17
6652.55008 1.21056e-17
6655.50498 1.19795e-17
6658.45989 1.20023e-17
6661.40471 1.20455e-17
6664.35961 1.20193e-17
6667.31452 1.19946e-17
6670.26942 1.19450e-17
6673.22433 1.18568e-17
6676.16915 1.17966e-17
6679.12405 1.17653e-17
6682.07896 1.17746e-17
6685.03386 1.18275e-17
6687.98877 1.18801e-17
6690.94367 1.18619e-17
6693.88850 1.17325e-17
6696.84340 1.16283e-17
6699.79830 1.15558e-17
6702.75321 1.14841e-17
6705.70811 1.14447e-17
6708.65293 1.14277e-17
6711.60784 1.14560e-17
6714.56275 1.14911e-17
6717.51765 1.14253e-17
6720.47255 1.13274e-17
6723.41737 1.13172e-17
6726.37228 1.13458e-17
6729.32718 1.13527e-17
6732.28209 1.13308e-17
6735.23700 1.12698e-17
6738.19190 1.12488e-17
6741.13672 1.12891e-17
6744.09163 1.12421e-17
6747.04653 1.10957e-17
6750.00143 1.09957e-17
6752.95634 1.09925e-17
6755.91125 1.10218e-17
6758.85606 1.09744e-17
6761.81097 1.08967e-17
6764.76588 1.09063e-17
6767.72078 1.09427e-17
6770.67568 1.09296e-17
6773.62050 1.09306e-17
6776.57541 1.09306e-17
6779.53031 1.08431e-17
6782.48522 1.07318e-17
6785.44013 1.06885e-17
6788.38494 1.06656e-17
6791.33985 1.06073e-17
6794.29475 1.05414e-17
6797.24966 1.05332e-17
6800.20457 1.05234e-17
6803.15947 1.04557e-17
6806.10429 1.04100e-17
6809.05919 1.03783e-17
6812.01410 1.03558e-17
6814.96900 1.03050e-17
6817.92391 1.02348e-17
6820.86873 1.02014e-17
6823.82363 1.02118e-17
6826.77854 1.02624e-17
6829.73344 1.04094e-17
6832.68835 1.05804e-17
6835.64325 1.05858e-17
6838.58807 1.03649e-17
6841.54298 1.01143e-17
6844.49788 1.00049e-17
6847.45279 9.95340e-18
6850.40769 9.90189e-18
6853.35251 9.85038e-18
6856.30742 9.79887e-18
6859.26232 9.74737e-18
6862.21723 9.69588e-18
6865.17213 9.64440e-18
6868.12704 9.59292e-18
6871.07186 9.54146e-18
6874.02676 9.48999e-18
6876.98167 9.43853e-18
6879.93657 9.38708e-18
6882.89148 9.33564e-18
6885.83630 9.28420e-18
6888.79120 9.23277e-18
6891.74611 9.18135e-18
6894.70101 9.12993e-18
6897.65592 9.07852e-18
6900.61082 9.02712e-18
6903.55564 8.97572e-18
6906.51055 8.92433e-18
6909.46545 8.87294e-18
6912.42036 8.82156e-18
6915.37526 8.77020e-18
6918.32009 8.71883e-18
6921.27499 8.66747e-18
6924.22989 8.61612e-18
6927.18480 8.56478e-18
6930.13970 8.51344e-18
6933.09461 8.46211e-18
6936.03943 8.41079e-18
6938.99434 8.35905e-18
6941.94924 8.27929e-18
6944.90414 8.24265e-18
6947.85905 8.29887e-18
6950.80387 8.36323e-18
6953.75877 8.28446e-18
6956.71368 8.09246e-18
6959.66858 7.94105e-18
6962.62349 7.87435e-18
6965.57839 7.92036e-18
6968.52321 8.05451e-18
6971.47812 8.10921e-18
6974.43302 8.09247e-18
6977.38793 8.03291e-18
6980.34283 7.90943e-18
6983.28766 7.74923e-18
6986.24256 7.57489e-18
6989.19746 7.48811e-18
6992.15237 7.51814e-18
6995.10727 7.58723e-18
6998.06218 7.59109e-18
7001.00700 7.50599e-18
7003.96191 7.41024e-18
7006.91681 7.34710e-18
7009.87171 7.27720e-18
7012.82662 7.17237e-18
7015.77144 7.10295e-18
7018.72634 7.14293e-18
7021.68125 7.20349e-18
7024.63616 7.16641e-18
7027.59106 7.07956e-18
7030.53588 7.02124e-18
7033.49078 7.03517e-18
7036.44569 7.06163e-18
7039.40059 7.00983e-18
7042.35550 6.93587e-18
7045.31041 6.93238e-18
7048.25522 6.96918e-18
7051.21013 7.00926e-18
7054.16503 7.00984e-18
7057.11994 6.90328e-18
7060.07484 6.79210e-18
7063.01966 6.75962e-18
7065.97457 6.75110e-18
7068.92947 6.78111e-18
7071.88438 6.81680e-18
7074.83929 6.80331e-18
7077.79419 6.77551e-18
7080.73901 6.76506e-18
7083.69391 6.80150e-18
7086.64882 6.80917e-18
7089.60372 6.71917e-18
7092.55863 6.66976e-18
7095.50345 6.69183e-18
7098.45835 6.67927e-18
7101.41326 6.63613e-18
7104.36816 6.51352e-18
7107.32307 6.36176e-18
7110.27797 6.33709e-18
7113.22279 6.38506e-18
7116.17770 6.40634e-18
7119.13260 6.43213e-18
7122.08751 6.46703e-18
7125.04241 6.41440e-18
7127.98723 6.28596e-18
7130.94214 6.20365e-18
7133.89704 6.18053e-18
7136.85195 6.14327e-18
7139.80685 6.09779e-18
7142.76176 6.09667e-18
7145.70658 6.13604e-18
7148.66148 6.10802e-18
7151.61639 6.01837e-18
7154.57129 5.97820e-18
7157.52620 5.95628e-18
7160.47102 5.90991e-18
7163.42592 5.82783e-18
7166.38083 5.70973e-18
7169.33573 5.60603e-18
7172.29064 5.56576e-18
7175.24554 5.52945e-18
7178.19036 5.43521e-18
7181.14527 5.34840e-18
7184.10017 5.28924e-18
7187.05508 5.17609e-18
7190.00998 5.04120e-18
7192.95480 5.02889e-18
7195.90971 5.08962e-18
7198.86461 5.09155e-18
7201.81952 5.08082e-18
7204.77442 5.10507e-18
7207.72933 5.20628e-18
7210.67415 5.35270e-18
7213.62905 5.45068e-18
7216.58396 5.51738e-18
7219.53886 5.56833e-18
7222.49377 5.54631e-18
7225.43859 5.46745e-18
7228.39350 5.37697e-18
7231.34840 5.27895e-18
7234.30330 5.21254e-18
7237.25821 5.17149e-18
7240.21311 5.20730e-18
7243.15793 5.26177e-18
7246.11284 5.26670e-18
7249.06775 5.29019e-18
7252.02265 5.31281e-18
7254.97755 5.27295e-18
7257.92238 5.25812e-18
7260.87728 5.29251e-18
7263.83218 5.25128e-18
7266.78709 5.14234e-18
7269.74200 5.11700e-18
7272.68682 5.20708e-18
7275.64172 5.26665e-18
7278.59662 5.26499e-18
7281.55153 5.27204e-18
7284.50643 5.27465e-18
7287.46134 5.28484e-18
7290.40616 5.24971e-18
7293.36107 5.15006e-18
7296.31597 5.12967e-18
7299.27087 5.24004e-18
7302.22578 5.32746e-18
7305.17060 5.27839e-18
7308.12550 5.19968e-18
7311.08041 5.24650e-18
7314.03532 5.38523e-18
7316.99022 5.43504e-18
7319.94512 5.38969e-18
7322.88994 5.36165e-18
7325.84485 5.36051e-18
7328.79975 5.31845e-18
7331.75466 5.24635e-18
7334.70957 5.27084e-18
7337.65438 5.42724e-18
7340.60929 5.53775e-18
7343.56419 5.48207e-18
7346.51910 5.37170e-18
7349.47400 5.30049e-18
7352.42891 5.29622e-18
7355.37373 5.32065e-18
7358.32863 5.29144e-18
7361.28354 5.19649e-18
7364.23844 5.15144e-18
7367.19335 5.25731e-18
7370.13817 5.42062e-18
7373.09307 5.51984e-18
7376.04798 5.50397e-18
7379.00288 5.43840e-18
7381.95779 5.46184e-18
7384.91269 5.53767e-18
7387.85751 5.54914e-18
7390.81242 5.50734e-18
7393.76732 5.44596e-18
7396.72223 5.35644e-18
7399.67713 5.30711e-18
7402.62195 5.30212e-18
7405.57686 5.29749e-18
7408.53176 5.25682e-18
7411.48667 5.24761e-18
7414.44157 5.33837e-18
7417.39648 5.42774e-18
7420.34130 5.43165e-18
7423.29620 5.40906e-18
7426.25111 5.37665e-18
7429.20601 5.31371e-18
7432.16092 5.29161e-18
7435.10574 5.35375e-18
7438.06064 5.41275e-18
7441.01555 5.40616e-18
7443.97045 5.37526e-18
7446.92536 5.36160e-18
7449.87018 5.38224e-18
7452.82508 5.40968e-18
7455.77999 5.38701e-18
7458.73489 5.31209e-18
7461.68980 5.22766e-18
7464.64470 5.15778e-18
7467.58952 5.11582e-18
7470.54443 5.14800e-18
7473.49933 5.24462e-18
7476.45424 5.34211e-18
7479.40914 5.42863e-18
7482.35396 5.46183e-18
7485.30887 5.42939e-18
7488.26377 5.37608e-18
7491.21868 5.32316e-18
7494.17358 5.28212e-18
7497.12849 5.29849e-18
7500.07331 5.31946e-18
7503.02821 5.25778e-18
7505.98312 5.19598e-18
7508.93802 5.23668e-18
7511.89293 5.38073e-18
7514.83775 5.48325e-18
7517.79266 5.48323e-18
7520.74756 5.46561e-18
7523.70246 5.47785e-18
7526.65737 5.44806e-18
7529.61227 5.34433e-18
7532.55709 5.23075e-18
7535.51200 5.14817e-18
7538.46691 5.04535e-18
7541.42181 4.88508e-18
7544.37671 4.72120e-18
7547.32154 4.67313e-18
7550.27644 4.69058e-18
7553.23134 4.70804e-18
7556.18625 4.72549e-18
7559.14116 4.74293e-18
7562.09606 4.76038e-18
7565.04088 4.77782e-18
7567.99579 4.79527e-18
7570.95069 4.81270e-18
7573.90559 4.83014e-18
7576.86050 4.84757e-18
7579.80532 4.86500e-18
7582.76022 4.88242e-18
7585.71513 4.89985e-18
7588.67004 4.91727e-18
7591.62494 4.93469e-18
7594.57984 4.95210e-18
7597.52466 4.96952e-18
7600.47957 4.98693e-18
7603.43448 5.00433e-18
7606.38938 5.02174e-18
7609.34429 5.03914e-18
7612.28910 5.05654e-18
7615.24401 5.07394e-18
7618.19891 5.09133e-18
7621.15382 5.10872e-18
7624.10873 5.12611e-18
7627.06363 5.14350e-18
7630.00845 5.16088e-18
7632.96335 5.17826e-18
7635.91826 5.19564e-18
7638.87316 5.21301e-18
7641.82807 5.23039e-18
7644.77289 5.24776e-18
7647.72779 5.26512e-18
7650.68270 5.28249e-18
7653.63760 5.29985e-18
7656.59251 5.31721e-18
7659.54741 5.33457e-18
7662.49223 5.35192e-18
7665.44714 5.36927e-18
7668.40204 5.38662e-18
7671.35695 5.40396e-18
7674.31185 5.42131e-18
7677.25667 5.43865e-18
7680.21158 5.45599e-18
7683.16648 5.36520e-18
7686.12139 5.36176e-18
7689.07629 5.42035e-18
7692.02111 5.50484e-18
7694.97602 5.58731e-18
7697.93092 5.65186e-18
7700.88583 5.67414e-18
7703.84073 5.62452e-18
7706.79564 5.52874e-18
7709.74046 5.54458e-18
7712.69536 5.68159e-18
7715.65027 5.77324e-18
7718.60517 5.76160e-18
7721.56008 5.71381e-18
7724.50490 5.70803e-18
7727.45980 5.76599e-18
7730.41471 5.80929e-18
7733.36961 5.80899e-18
7736.32452 5.78858e-18
7739.27942 5.68411e-18
7742.22425 5.54601e-18
7745.17915 5.53207e-18
7748.13405 5.61933e-18
7751.08896 5.64930e-18
7754.04386 5.71007e-18
7756.98868 5.82150e-18
7759.94359 5.87337e-18
7762.89849 5.86269e-18
7765.85340 5.80441e-18
7768.80830 5.78119e-18
7771.76321 5.81584e-18
7774.70803 5.76792e-18
7777.66293 5.65832e-18
7780.61784 5.62139e-18
7783.57274 5.61126e-18
7786.52765 5.58363e-18
7789.47247 5.61674e-18
7792.42737 5.80188e-18
7795.38228 6.02852e-18
7798.33718 6.08039e-18
7801.29209 5.95923e-18
7804.24699 5.86956e-18
7807.19182 5.88089e-18
7810.14672 5.85584e-18
7813.10162 5.73064e-18
7816.05653 5.62381e-18
7819.01143 5.65738e-18
7821.95625 5.78430e-18
7824.91116 5.86229e-18
7827.86607 5.88002e-18
7830.82097 5.94216e-18
7833.77587 6.09025e-18
7836.73078 6.18326e-18
7839.67560 6.17427e-18
7842.63050 6.10277e-18
7845.58541 5.93407e-18
7848.54032 5.81227e-18
7851.49522 5.80226e-18
7854.44004 5.75859e-18
7857.39495 5.70741e-18
7860.34985 5.70155e-18
7863.30475 5.76544e-18
7866.25966 5.95032e-18
7869.21457 6.15420e-18
7872.15938 6.25418e-18
7875.11429 6.22104e-18
7878.06920 6.07275e-18
7881.02410 5.89771e-18
7883.97900 5.79333e-18
7886.92382 5.78659e-18
7889.87873 5.82426e-18
7892.83363 5.82300e-18
7895.78854 5.79823e-18
7898.74345 5.87654e-18
7901.69835 6.06496e-18
7904.64317 6.20677e-18
7907.59807 6.32721e-18
7910.55298 6.48076e-18
7913.50788 6.48606e-18
7916.46279 6.33892e-18
7919.40761 6.12979e-18
7922.36251 5.88971e-18
7925.31742 5.80762e-18
7928.27232 5.87865e-18
7931.22723 5.98218e-18
7934.17205 6.15240e-18
7937.12695 6.35484e-18
7940.08186 6.49772e-18
7943.03676 6.61667e-18
7945.99167 6.72493e-18
7948.94657 6.74682e-18
7951.89139 6.58721e-18
7954.84630 6.26365e-18
7957.80120 5.99912e-18
7960.75611 5.98231e-18
7963.71101 6.10975e-18
7966.66592 6.24693e-18
7969.61074 6.38375e-18
7972.56564 6.50014e-18
7975.52055 6.66124e-18
7978.47545 6.84920e-18
7981.43036 6.90182e-18
7984.37518 6.84712e-18
7987.33008 6.78494e-18
7990.28499 6.66502e-18
7993.23989 6.54956e-18
7996.19480 6.47074e-18
7999.13962 6.27193e-18
8002.09452 6.12846e-18
8005.04943 6.28478e-18
8008.00433 6.55402e-18
8010.95924 6.78149e-18
8013.91414 7.02130e-18
8016.85896 7.18496e-18
8019.81387 7.14046e-18
8022.76877 7.03857e-18
8025.72368 6.97566e-18
8028.67858 6.81690e-18
8031.62341 6.60638e-18
8034.57831 6.52877e-18
8037.53321 6.59382e-18
8040.48812 6.69750e-18
8043.44302 6.77632e-18
8046.39793 6.86212e-18
8049.34275 7.02223e-18
8052.29766 7.18149e-18
8055.25256 7.26112e-18
8058.20746 7.31174e-18
8061.16237 7.29495e-18
8064.10719 7.16137e-18
8067.06209 6.98036e-18
8070.01700 6.82648e-18
8072.97191 6.73788e-18
8075.92681 6.75719e-18
8078.88171 6.87863e-18
8081.82653 6.97046e-18
8084.78144 7.01755e-18
8087.73634 7.10726e-18
8090.69125 7.24902e-18
8093.64616 7.39471e-18
8096.59098 7.52006e-18
8099.54588 7.56828e-18
8102.50078 7.48262e-18
8105.45569 7.31327e-18
8108.41059 7.11143e-18
8111.36550 6.89701e-18
8114.31032 6.74331e-18
8117.26523 6.65440e-18
8120.22013 6.60242e-18
8123.17503 6.64183e-18
8126.12994 6.80125e-18
8129.07476 6.98703e-18
8132.02966 7.10682e-18
8134.98457 7.20908e-18
8137.93948 7.32853e-18
8140.89438 7.35120e-18
8143.84928 7.21861e-18
8146.79410 6.99048e-18
8149.74901 6.70403e-18
8152.70391 6.43215e-18
8155.65882 6.28976e-18
8158.61373 6.22872e-18
8161.55854 6.20486e-18
8164.51345 6.29944e-18
8167.46835 6.52786e-18
8170.42326 6.77914e-18
8173.37816 6.92729e-18
8176.32298 6.95637e-18
8179.27789 6.91865e-18
8182.23279 6.91538e-18
8185.18770 6.95552e-18
8188.14261 6.91890e-18
8191.09751 6.77360e-18
8194.04233 6.61621e-18
8196.99723 6.52182e-18
8199.95214 6.53897e-18
8202.90704 6.65228e-18
8205.86195 6.84142e-18
8208.80677 7.06771e-18
8211.76167 7.22475e-18
8214.71658 7.31479e-18
8217.67148 7.41757e-18
8220.62639 7.45920e-18
8223.58129 7.30772e-18
8226.52611 6.97611e-18
8229.48102 6.59217e-18
8232.43592 6.41260e-18
8235.39083 6.55137e-18
8238.34573 6.80803e-18
8241.29055 6.95320e-18
8244.24546 6.98800e-18
8247.20036 7.02410e-18
8250.15527 7.05490e-18
8253.11017 7.02285e-18
8256.06508 6.97259e-18
8259.00990 7.03545e-18
8261.96480 7.22623e-18
8264.91971 7.44794e-18
8267.87462 7.65961e-18
8270.82952 7.72319e-18
8273.77434 7.58128e-18
8276.72924 7.37864e-18
8279.68415 7.19036e-18
8282.63905 7.03563e-18
8285.59396 6.86575e-18
8288.54887 6.70141e-18
8291.49368 6.68100e-18
8294.44859 6.79110e-18
8297.40349 6.98604e-18
8300.35840 7.16238e-18
8303.31330 7.26098e-18
8306.25813 7.45542e-18
8309.21303 7.78459e-18
8312.16793 8.02355e-18
8315.12284 7.99984e-18
8318.07774 7.74231e-18
8321.02256 7.37581e-18
8323.97747 7.13463e-18
8326.93238 7.09234e-18
8329.88728 6.97662e-18
8332.84218 6.69977e-18
8335.79709 6.58735e-18
8338.74191 6.87936e-18
8341.69681 7.30932e-18
8344.65172 7.64312e-18
8347.60663 7.84352e-18
8350.56153 7.89194e-18
8353.51643 7.82699e-18
8356.46126 7.72924e-18
8359.41616 7.60278e-18
8362.37106 7.46111e-18
8365.32597 7.36915e-18
8368.28088 7.22450e-18
8371.22569 7.00633e-18
8374.18060 6.89020e-18
8377.13551 6.91686e-18
8380.09041 7.01478e-18
8383.04531 7.13634e-18
8386.00022 7.24411e-18
8388.94504 7.31279e-18
8391.89994 7.46877e-18
8394.85485 7.75469e-18
8397.80976 7.95928e-18
8400.76466 7.91668e-18
8403.70948 7.57056e-18
8406.66438 7.20620e-18
8409.61929 7.20481e-18
8412.57419 7.33176e-18
8415.52910 7.20034e-18
8418.47392 6.90063e-18
8421.42883 6.75388e-18
8424.38373 6.85785e-18
8427.33863 7.04246e-18
8430.29354 7.17523e-18
8433.24844 7.19093e-18
8436.19326 7.15959e-18
8439.14817 7.23695e-18
8442.10308 7.36313e-18
8445.05798 7.50727e-18
8448.01288 7.66121e-18
8450.95770 7.64203e-18
8453.91261 7.37862e-18
8456.86751 7.08546e-18
8459.82242 6.99016e-18
8462.77733 6.99078e-18
8465.73223 6.90024e-18
8468.67705 6.71362e-18
8471.63195 6.55062e-18
8474.58686 6.58626e-18
8477.54176 6.78426e-18
8480.49667 6.99725e-18
8483.45158 7.22464e-18
8486.39639 7.42285e-18
8489.35130 7.49714e-18
8492.30620 7.43372e-18
8495.26111 7.32287e-18
8498.20593 7.19249e-18
8501.16084 7.06915e-18
8504.11574 6.90571e-18
8507.07064 6.66407e-18
8510.02555 6.45141e-18
8512.98045 6.35219e-18
8515.92527 6.35672e-18
8518.88018 6.40099e-18
8521.83509 6.45906e-18
8524.78999 6.56325e-18
8527.74489 6.71236e-18
8530.68972 6.91877e-18
8533.64462 7.09199e-18
8536.59952 7.08045e-18
8539.55443 6.95467e-18
8542.50934 6.86633e-18
8545.46424 6.80502e-18
8548.40906 6.66524e-18
8551.36397 6.48964e-18
8554.31887 6.38653e-18
8557.27377 6.28699e-18
8560.22868 6.19341e-18
8563.17350 6.16568e-18
8566.12840 6.21906e-18
8569.08331 6.27984e-18
8572.03822 6.29421e-18
8574.99312 6.37838e-18
8577.94802 6.58688e-18
8580.89284 6.79762e-18
8583.84775 6.90303e-18
8586.80265 6.89213e-18
8589.75756 6.83993e-18
8592.71247 6.78026e-18
8595.65728 6.68233e-18
8598.61219 6.53496e-18
8601.56709 6.34759e-18
8604.52200 6.18683e-18
8607.47690 6.07144e-18
8610.43181 5.98050e-18
8613.37663 5.98788e-18
8616.33153 6.13631e-18
8619.28644 6.33985e-18
8622.24134 6.52754e-18
8625.19625 6.64931e-18
8628.14107 6.70509e-18
8631.09598 6.79620e-18
8634.05088 6.81752e-18
8637.00578 6.67049e-18
8639.96069 6.46520e-18
8642.91559 6.31833e-18
8645.86041 6.17374e-18
8648.81532 5.97174e-18
8651.77023 5.84235e-18
8654.72513 5.80125e-18
8657.68003 5.73160e-18
8660.62485 5.71884e-18
8663.57976 5.85456e-18
8666.53466 6.03784e-18
8669.48957 6.22447e-18
8672.44448 6.42246e-18
8675.39938 6.56440e-18
8678.34420 6.59177e-18
8681.29910 6.45212e-18
8684.25401 6.19302e-18
8687.20891 5.92685e-18
8690.16382 5.71919e-18
8693.10864 5.62701e-18
8696.06355 5.60317e-18
8699.01845 5.56514e-18
8701.97335 5.63418e-18
8704.92826 5.80892e-18
8707.88316 5.96817e-18
8710.82798 6.09242e-18
8713.78289 6.23688e-18
8716.73780 6.46096e-18
8719.69270 6.56204e-18
8722.64760 6.41120e-18
8725.59242 6.19328e-18
8728.54733 6.00501e-18
8731.50223 5.83831e-18
8734.45714 5.75331e-18
8737.41204 5.76027e-18
8740.36695 5.74587e-18
8743.31177 5.64908e-18
8746.26667 5.57575e-18
8749.22158 5.57260e-18
8752.17648 5.69040e-18
8755.13139 6.00167e-18
8758.07621 6.27828e-18
8761.03111 6.41980e-18
8763.98602 6.48273e-18
8766.94092 6.37410e-18
8769.89583 6.26810e-18
8772.85073 6.26020e-18
8775.79555 6.16465e-18
8778.75046 5.98045e-18
8781.70536 5.76240e-18
8784.66027 5.63908e-18
8787.61517 5.61675e-18
8790.55999 5.53337e-18
8793.51490 5.45490e-18
8796.46980 5.52715e-18
8799.42471 5.64790e-18
8802.37961 5.73298e-18
8805.33452 5.85298e-18
8808.27934 5.93111e-18
8811.23424 5.91213e-18
8814.18915 5.89361e-18
8817.14405 5.85911e-18
8820.09896 5.90145e-18
8823.04378 6.04660e-18
8825.99869 6.02774e-18
8828.95359 5.85077e-18
8831.90849 5.63876e-18
8834.86340 5.44874e-18
8837.80822 5.35666e-18
8840.76312 5.33738e-18
8843.71803 5.36785e-18
8846.67294 5.52544e-18
8849.62784 5.72272e-18
8852.58274 5.87191e-18
8855.52756 5.97774e-18
8858.48247 6.10203e-18
8861.43737 6.27326e-18
8864.39228 6.27798e-18
8867.34719 6.06449e-18
8870.30209 5.86333e-18
8873.24691 5.67585e-18
8876.20181 5.55438e-18
8879.15672 5.61006e-18
8882.11162 5.60240e-18
8885.05645 5.43918e-18
8888.01135 5.26754e-18
8890.96625 5.14977e-18
8893.92116 5.21480e-18
8896.87606 5.22354e-18
8899.83097 5.20098e-18
8902.77579 5.66519e-18
8905.73070 5.83809e-18
8908.68560 5.76603e-18
8911.64050 5.86743e-18
8914.59541 6.09383e-18
8917.55031 5.95889e-18
8920.49513 5.43493e-18
8923.45004 4.75234e-18
8926.40495 4.28046e-18
8929.35985 4.09508e-18
8932.31475 4.00398e-18
8935.25958 4.00057e-18
8938.21448 4.14247e-18
8941.16938 4.31831e-18
8944.12429 4.42484e-18
8947.07920 4.58898e-18
8950.03410 5.03745e-18
8952.97892 5.57065e-18
8955.93383 5.73705e-18
8958.88873 5.42088e-18
8961.84363 4.77821e-18
8964.79854 4.26916e-18
8967.75345 4.12357e-18
8970.69826 4.10656e-18
8973.65317 4.06870e-18
8976.60808 3.97137e-18
8979.56298 3.80540e-18
8982.50780 3.78787e-18
8985.46270 3.88361e-18
8988.41761 3.80396e-18
8991.37251 3.91213e-18
8994.32742 4.54057e-18
8997.28233 5.20945e-18
9000.22715 5.43811e-18
9003.18205 5.26443e-18
9006.13695 4.95338e-18
9009.09186 4.67294e-18
9012.04676 4.43484e-18
9014.99158 4.22628e-18
9017.94649 4.03235e-18
9020.90140 3.87693e-18
9023.85630 3.84635e-18
9026.81120 3.94709e-18
9029.76611 4.16999e-18
9032.71093 4.49428e-18
9035.66583 4.80328e-18
9038.62074 5.13209e-18
9041.57565 5.55994e-18
9044.53055 5.89233e-18
9047.48546 5.93758e-18
9050.43027 5.70245e-18
9053.38518 5.24513e-18
9056.34008 4.81970e-18
9059.29499 4.58887e-18
9062.24990 4.40941e-18
9065.19471 4.18014e-18
9068.14962 3.95615e-18
9071.10452 3.83195e-18
9074.05943 3.88346e-18
9077.01433 4.14177e-18
9079.95916 4.52265e-18
9082.91406 4.87289e-18
9085.86896 5.07268e-18
9088.82387 5.12892e-18
9091.77877 5.16467e-18
9094.73368 5.14108e-18
9097.67850 4.89712e-18
9100.63341 4.52769e-18
9103.58831 4.23265e-18
9106.54321 4.07638e-18
9109.49812 4.01984e-18
9112.44294 3.94963e-18
9115.39784 3.83011e-18
9118.35275 3.75617e-18
9121.30766 3.82153e-18
9124.26256 3.97816e-18
9127.21746 4.18950e-18
9130.16228 4.40714e-18
9133.11719 4.59227e-18
9136.07209 4.79475e-18
9139.02700 4.94870e-18
9141.98191 4.87021e-18
9144.93681 4.57275e-18
9147.88163 4.20540e-18
9150.83653 3.83584e-18
9153.79144 3.58249e-18
9156.74634 3.53847e-18
9159.70125 3.60921e-18
9162.64607 3.69935e-18
9165.60097 3.77553e-18
9168.55588 3.82726e-18
9171.51078 3.99745e-18
9174.46569 4.41815e-18
9177.41051 4.94799e-18
9180.36542 5.27378e-18
9183.32032 5.23099e-18
9186.27522 4.98873e-18
9189.23013 4.64757e-18
9192.18503 4.24826e-18
9195.12985 3.94306e-18
9198.08476 3.82159e-18
9201.03967 3.78788e-18
9203.99457 3.76754e-18
9206.94947 3.84465e-18
9209.89430 4.03585e-18
9212.84920 4.24485e-18
9215.80410 4.56919e-18
9218.75901 5.04020e-18
9221.71391 5.44760e-18
9224.66882 5.50700e-18
9227.61364 5.29764e-18
9230.56855 5.13309e-18
9233.52345 4.91857e-18
9236.47835 4.47382e-18
9239.43326 4.04748e-18
9242.37808 3.84177e-18
9245.33298 3.75021e-18
9248.28789 3.67567e-18
9251.24280 3.62424e-18
9254.19770 3.67075e-18
9257.14252 3.94235e-18
9260.09742 4.45281e-18
9263.05233 4.96685e-18
9266.00723 5.23259e-18
9268.96214 5.20604e-18
9271.91705 4.95609e-18
9274.86187 4.60168e-18
9277.81677 4.22618e-18
9280.77167 3.83248e-18
9283.72658 3.51593e-18
9286.68148 3.35701e-18
9289.62630 3.18125e-18
9292.58121 2.88111e-18
9295.53612 2.66351e-18
9298.49102 2.76094e-18
9301.44592 3.21258e-18
9304.40083 3.81220e-18
9307.34565 4.16504e-18
9310.30055 3.96183e-18
9313.25546 3.37237e-18
9316.21037 2.89170e-18
9319.16527 2.64934e-18
9322.11009 2.50655e-18
9325.06499 2.37434e-18
9328.01990 2.18958e-18
9330.97480 2.00616e-18
9333.92971 1.89785e-18
9336.88462 1.91826e-18
9339.82943 2.15061e-18
9342.78434 2.57822e-18
9345.73924 2.93111e-18
9348.69415 3.04546e-18
9351.64905 3.07574e-18
9354.59387 3.17393e-18
9357.54878 3.13111e-18
9360.50368 2.74180e-18
9363.45859 2.36742e-18
9366.41349 2.36960e-18
9369.36840 2.56930e-18
9372.31322 2.60957e-18
9375.26812 2.35286e-18
9378.22303 2.04146e-18
9381.17793 2.04048e-18
9384.13284 2.35243e-18
9387.07766 2.73664e-18
9390.03256 3.10415e-18
9392.98747 3.52512e-18
9395.94237 3.95816e-18
9398.89728 4.15943e-18
9401.85218 3.96524e-18
9404.79701 3.63921e-18
9407.75191 3.49253e-18
9410.70681 3.40488e-18
9413.66172 3.32658e-18
9416.61662 3.10160e-18
9419.56144 2.50967e-18
9422.51635 1.90264e-18
9425.47126 1.87106e-18
9428.42616 2.22263e-18
9431.38106 2.49064e-18
9434.33597 2.59086e-18
9437.28079 2.52849e-18
9440.23569 2.56504e-18
9443.19060 2.93269e-18
9446.14551 3.46400e-18
9449.10041 3.66390e-18
9452.04523 3.27055e-18
9455.00013 2.68978e-18
9457.95504 2.26797e-18
9460.90994 2.10229e-18
9463.86485 2.23784e-18
9466.81976 2.45061e-18
9469.76458 2.51768e-18
9472.71948 2.54710e-18
9475.67438 2.58939e-18
9478.62929 2.62709e-18
9481.58419 2.79103e-18
9484.52902 3.06722e-18
9487.48392 3.28431e-18
9490.43883 3.39391e-18
9493.39373 3.55685e-18
9496.34863 3.68048e-18
9499.29345 3.45426e-18
9502.24836 3.00269e-18
9505.20327 2.62992e-18
9508.15817 2.37730e-18
9511.11308 2.20928e-18
9514.06798 2.11220e-18
9517.01280 2.03235e-18
9519.96770 1.99120e-18
9522.92261 2.13824e-18
9525.87752 2.43426e-18
9528.83242 2.76054e-18
9531.78733 3.16617e-18
9534.73214 3.50359e-18
9537.68705 3.68269e-18
9540.64195 3.74330e-18
9543.59686 3.62838e-18
9546.54168 3.27210e-18
9549.49658 2.67994e-18
9552.45149 2.20303e-18
9555.40639 2.10561e-18
9558.36130 2.28463e-18
9561.31620 2.44352e-18
9564.26102 2.31563e-18
9567.21593 2.17426e-18
9570.17083 2.29933e-18
9573.12574 2.55586e-18
9576.08065 2.83782e-18
9579.03555 3.08068e-18
9581.98037 3.22806e-18
9584.93527 3.31828e-18
9587.89018 3.32132e-18
9590.84508 3.14265e-18
9593.79999 2.84692e-18
9596.74481 2.55113e-18
9599.69972 2.29989e-18
9602.65462 2.18848e-18
9605.60952 2.20398e-18
9608.56443 2.24111e-18
9611.51933 2.29099e-18
9614.46415 2.35254e-18
9617.41906 2.56511e-18
9620.37397 3.05708e-18
9623.32887 3.50849e-18
9626.28377 3.76294e-18
9629.23868 3.99747e-18
9632.18350 3.99976e-18
9635.13840 3.67217e-18
9638.09331 3.23135e-18
9641.04822 2.73780e-18
9643.99303 2.30819e-18
9646.94794 2.14867e-18
9649.90284 2.26247e-18
9652.85775 2.44484e-18
9655.81265 2.49064e-18
9658.76756 2.40136e-18
9661.71238 2.41826e-18
9664.66728 2.69936e-18
9667.62219 3.18141e-18
9670.57709 3.75114e-18
9673.53200 4.11765e-18
9676.47682 4.01610e-18
9679.43173 3.69061e-18
9682.38663 3.49510e-18
9685.34153 3.33639e-18
9688.29644 2.98434e-18
9691.25134 2.61403e-18
9694.19616 2.49380e-18
9697.15107 2.45891e-18
9700.10598 2.25954e-18
9703.06088 2.17371e-18
9706.01578 2.39739e-18
9708.97069 2.72227e-18
9711.91551 2.99406e-18
9714.87041 3.23587e-18
9717.82532 3.51140e-18
9720.78023 3.80158e-18
9723.73513 4.02221e-18
9726.67995 4.09035e-18
9729.63485 3.90184e-18
9732.58976 3.48888e-18
9735.54466 3.03176e-18
9738.49957 2.61365e-18
9741.44439 2.30200e-18
9744.39929 2.15499e-18
9747.35420 2.09408e-18
9750.30910 2.10277e-18
9753.26401 2.22149e-18
9756.21891 2.41403e-18
9759.16374 2.63844e-18
9762.11864 2.89474e-18
9765.07354 3.15313e-18
9768.02845 3.36330e-18
9770.98335 3.46965e-18
9773.92817 3.62297e-18
9776.88308 3.81219e-18
9779.83799 3.83107e-18
9782.79289 3.66659e-18
9785.74779 3.20158e-18
9788.70270 2.48077e-18
9791.64752 2.01672e-18
9794.60242 2.07026e-18
9797.55733 2.40356e-18
9800.51224 2.73353e-18
9803.46714 2.80727e-18
9806.41196 2.61674e-18
9809.36686 2.54458e-18
9812.32177 2.76944e-18
9815.27667 3.25059e-18
9818.23158 3.90215e-18
9821.18649 4.35373e-18
9824.13130 4.52413e-18
9827.08621 4.50618e-18
9830.04111 4.24650e-18
9832.99602 3.98798e-18
9835.95092 3.85602e-18
9838.89574 3.66330e-18
9841.85065 3.39162e-18
9844.80555 3.21451e-18
9847.76046 3.26859e-18
9850.71537 3.40105e-18
9853.67027 3.46774e-18
9856.61509 3.62703e-18
9859.56999 3.94977e-18
9862.52490 4.28011e-18
9865.47980 4.61501e-18
9868.43471 5.08862e-18
9871.37953 5.43784e-18
9874.33444 5.42512e-18
9877.28934 5.24708e-18
9880.24424 5.09118e-18
9883.19915 4.97342e-18
9886.15405 4.83949e-18
9889.09887 4.66508e-18
9892.05378 4.52826e-18
9895.00869 4.59651e-18
9897.96359 4.79816e-18
9900.91849 4.93070e-18
9903.86331 5.03369e-18
9906.81822 5.09610e-18
9909.77312 5.22057e-18
9912.72803 5.46142e-18
9915.68294 5.71561e-18
9918.63784 5.97004e-18
9921.58266 6.33595e-18
9924.53756 6.92552e-18
9927.49247 7.45869e-18
9930.44737 7.47156e-18
9933.40228 6.90565e-18
9936.34710 6.17637e-18
9939.30200 5.70267e-18
9942.25691 5.69539e-18
9945.21181 6.02486e-18
9948.16672 6.31794e-18
9951.12162 6.32101e-18
9954.06645 6.05751e-18
9957.02135 5.89425e-18
9959.97625 6.01266e-18
9962.93116 6.22290e-18
9965.88606 6.56261e-18
9968.83088 6.92839e-18
9971.78579 7.02935e-18
9974.74070 6.95153e-18
9977.69560 6.97792e-18
9980.65050 7.08786e-18
9983.59533 7.26865e-18
9986.55023 7.42580e-18
9989.50513 7.33782e-18
9992.46004 7.12835e-18
9995.41495 6.97740e-18
9998.36985 6.93172e-18
