# wavelength flux
3342.76402 1.16374e-17
3345.71892 8.29599e-18
3348.66374 9.57735e-18
3351.61864 8.58952e-18
3354.57355 1.10055e-17
3357.52845 1.35235e-17
3360.47327 1.24008e-17
3363.42818 1.26148e-17
3366.38308 1.35686e-17
3369.33799 1.40297e-17
3372.28281 1.33192e-17
3375.23771 1.20629e-17
3378.19262 1.23139e-17
3381.14752 1.32995e-17
3384.09235 1.43935e-17
3387.04725 1.35998e-17
3390.00215 1.31957e-17
3392.95706 1.29671e-17
3395.90188 1.39624e-17
3398.85678 1.49875e-17
3401.81169 1.46925e-17
3404.76660 1.40825e-17
3407.71141 1.53153e-17
3410.66632 1.52011e-17
3413.62122 1.24216e-17
3416.57613 1.36202e-17
3419.52095 1.61558e-17
3422.47586 1.53924e-17
3425.43076 1.47829e-17
3428.38566 1.33781e-17
3431.33048 1.39958e-17
3434.28539 1.43439e-17
3437.24029 1.61425e-17
3440.19520 1.64312e-17
3443.14002 1.37765e-17
3446.09492 1.43285e-17
3449.04983 1.47332e-17
3452.00473 1.47378e-17
3454.94955 1.52911e-17
3457.90446 1.54092e-17
3460.85936 1.51972e-17
3463.81427 1.51452e-17
3466.75909 1.48705e-17
3469.71399 1.46155e-17
3472.66890 1.48887e-17
3475.62380 1.51592e-17
3478.56862 1.47378e-17
3481.52353 1.50712e-17
3484.47843 1.51044e-17
3487.43334 1.51588e-17
3490.37816 1.58841e-17
3493.33306 1.54130e-17
3496.28797 1.46426e-17
3499.24287 1.49152e-17
3502.18770 1.48658e-17
3505.14260 1.43367e-17
3508.09751 1.27740e-17
3511.05241 1.22193e-17
3513.99723 1.21536e-17
3516.95213 1.37366e-17
3519.90704 1.42701e-17
3522.86195 1.35085e-17
3525.80676 1.33903e-17
3528.76167 1.50180e-17
3531.71657 1.44908e-17
3534.67148 1.44417e-17
3537.61630 1.52963e-17
3540.57120 1.51210e-17
3543.52611 1.38775e-17
3546.48101 1.30721e-17
3549.42584 1.33808e-17
3552.38074 1.49755e-17
3555.33564 1.45280e-17
3558.29055 1.42351e-17
3561.23537 1.35416e-17
3564.19027 1.44155e-17
3567.14518 1.53363e-17
3570.10009 1.46130e-17
3573.04490 1.44161e-17
3575.99981 1.37165e-17
3578.95471 1.33197e-17
3581.90962 1.39746e-17
3584.85444 1.47023e-17
3587.80935 1.42069e-17
3590.76425 1.41357e-17
3593.71915 1.21324e-17
3596.66397 1.08040e-17
3599.61888 1.13767e-17
3602.57379 1.09391e-17
3605.52869 1.13411e-17
3608.47351 1.26223e-17
3611.42841 1.34993e-17
3614.38332 1.43081e-17
3617.33822 1.48264e-17
3620.28304 1.47639e-17
3623.23795 1.42335e-17
3626.19285 1.45803e-17
3629.14776 1.52037e-17
3632.09258 1.51690e-17
3635.04748 1.49367e-17
3638.00239 1.56099e-17
3640.95729 1.58837e-17
3643.90211 1.51259e-17
3646.85702 1.51088e-17
3649.81192 1.54157e-17
3652.76683 1.55119e-17
3655.71165 1.60509e-17
3658.66655 1.52594e-17
3661.62146 1.50508e-17
3664.57636 1.48817e-17
3667.52119 1.53661e-17
3670.47609 1.59502e-17
3673.43099 1.59172e-17
3676.38590 1.56788e-17
3679.33072 1.55584e-17
3682.28562 1.63060e-17
3685.24053 1.64337e-17
3688.19544 1.62944e-17
3691.14026 1.62811e-17
3694.09516 1.59203e-17
3697.05006 1.64450e-17
3700.00497 1.66949e-17
3702.94979 1.67689e-17
3705.90469 1.69482e-17
3708.85960 1.64163e-17
3711.81450 1.62963e-17
3714.75932 1.69033e-17
3717.71423 1.73375e-17
3720.66913 1.68827e-17
3723.62404 1.69402e-17
3726.56886 1.69899e-17
3729.52376 1.68351e-17
3732.47867 1.70127e-17
3735.43357 1.74693e-17
3738.37839 1.70772e-17
3741.33330 1.71099e-17
3744.28820 1.71553e-17
3747.24311 1.72007e-17
3750.18793 1.72461e-17
3753.14284 1.72915e-17
3756.09774 1.73369e-17
3759.05264 1.73822e-17
3761.99746 1.74276e-17
3764.95237 1.74730e-17
3767.90728 1.75184e-17
3770.86218 1.75637e-17
3773.81709 1.76091e-17
3776.76190 1.76545e-17
3779.71681 1.76998e-17
3782.67171 1.77763e-17
3785.62662 1.76307e-17
3788.57144 1.75562e-17
3791.52634 1.73436e-17
3794.48125 1.73802e-17
3797.43615 1.76044e-17
3800.38097 1.78713e-17
3803.33588 1.80089e-17
3806.29078 1.81057e-17
3809.24569 1.84265e-17
3812.19051 1.81400e-17
3815.14541 1.79756e-17
3818.10032 1.81964e-17
3821.05522 1.83418e-17
3824.00004 1.82445e-17
3826.95495 1.80523e-17
3829.90985 1.91160e-17
3832.86476 1.91188e-17
3835.80958 1.82368e-17
3838.76448 1.85596e-17
3841.71939 1.88513e-17
3844.67429 1.89171e-17
3847.61911 1.90625e-17
3850.57402 1.87691e-17
3853.52893 1.94095e-17
3856.48383 1.97032e-17
3859.42865 1.93510e-17
3862.38355 1.91535e-17
3865.33846 1.91768e-17
3868.29336 1.92880e-17
3871.23819 1.97979e-17
3874.19309 1.99277e-17
3877.14799 2.00925e-17
3880.10290 1.98764e-17
3883.04772 1.98167e-17
3886.00262 1.99115e-17
3888.95753 1.98541e-17
3891.91243 1.99830e-17
3894.85725 2.02699e-17
3897.81216 1.98598e-17
3900.76706 1.97007e-17
3903.72197 2.03999e-17
3906.66679 2.06409e-17
3909.62169 2.06284e-17
3912.57660 2.10534e-17
3915.53150 2.11689e-17
3918.47632 2.08751e-17
3921.43123 2.09479e-17
3924.38613 2.14618e-17
3927.34104 2.11951e-17
3930.28586 2.10199e-17
3933.24077 2.09253e-17
3936.19567 2.08851e-17
3939.15057 2.08943e-17
3942.09539 2.12368e-17
3945.05030 2.17781e-17
3948.00520 2.15116e-17
3950.96011 2.11297e-17
3953.90493 2.13734e-17
3956.85984 2.13561e-17
3959.81474 2.15115e-17
3962.76964 2.09741e-17
3965.71446 2.08066e-17
3968.66937 2.07788e-17
3971.62428 2.14642e-17
3974.57918 2.18294e-17
3977.52400 2.12353e-17
3980.47890 2.07220e-17
3983.43381 2.11432e-17
3986.38871 2.15950e-17
3989.33353 2.13851e-17
3992.28844 2.12803e-17
3995.24334 2.14071e-17
3998.19825 2.17491e-17
4001.14307 2.20176e-17
4004.09797 2.21292e-17
4007.05288 2.22776e-17
4010.00778 2.20487e-17
4012.95260 2.18499e-17
4015.90751 2.17717e-17
4018.86241 2.18931e-17
4021.81732 2.19656e-17
4024.76214 2.20341e-17
4027.71704 2.21164e-17
4030.67195 2.19761e-17
4033.62685 2.22374e-17
4036.57168 2.20908e-17
4039.52658 2.22878e-17
4042.48148 2.19149e-17
4045.43639 2.17660e-17
4048.38121 2.20512e-17
4051.33612 2.20174e-17
4054.29102 2.20401e-17
4057.24593 2.18526e-17
4060.19074 2.16216e-17
4063.14565 2.16185e-17
4066.10055 2.15219e-17
4069.05546 2.21520e-17
4072.00028 2.20408e-17
4074.95518 2.17175e-17
4077.91009 2.20481e-17
4080.86499 2.19297e-17
4083.80981 2.18792e-17
4086.76472 2.19511e-17
4089.71962 2.17402e-17
4092.67453 2.18149e-17
4095.61935 2.17633e-17
4098.57426 2.15523e-17
4101.52916 2.17578e-17
4104.48406 2.18504e-17
4107.42888 2.15780e-17
4110.38379 2.15033e-17
4113.33869 2.21337e-17
4116.29360 2.21510e-17
4119.23842 2.14069e-17
4122.19332 2.16377e-17
4125.14823 2.19313e-17
4128.10313 2.24470e-17
4131.04795 2.21424e-17
4134.00286 2.17058e-17
4136.95777 2.19452e-17
4139.91267 2.17052e-17
4142.85749 2.16012e-17
4145.81239 2.17121e-17
4148.76730 2.17563e-17
4151.72220 2.18337e-17
4154.66702 2.21287e-17
4157.62193 2.20615e-17
4160.57683 2.16978e-17
4163.53174 2.20471e-17
4166.47656 2.19634e-17
4169.43146 2.17606e-17
4172.38637 2.19687e-17
4175.34127 2.18265e-17
4178.29618 2.19459e-17
4181.24100 2.21221e-17
4184.19591 2.21609e-17
4187.15081 2.15594e-17
4190.10571 2.19604e-17
4193.05053 2.24462e-17
4196.00544 2.21134e-17
4198.96034 2.17977e-17
4201.91525 2.22012e-17
4204.86007 2.21811e-17
4207.81498 2.20978e-17
4210.76988 2.18628e-17
4213.72478 2.16159e-17
4216.66961 2.17728e-17
4219.62451 2.17222e-17
4222.57941 2.18427e-17
4225.53432 2.19122e-17
4228.47914 2.15060e-17
4231.43404 2.11681e-17
4234.38895 2.18025e-17
4237.33377 2.15934e-17
4240.28867 2.11863e-17
4243.24358 2.13719e-17
4246.19848 2.16231e-17
4249.14330 2.15391e-17
4252.09821 2.13966e-17
4255.05311 2.12935e-17
4258.00802 2.09684e-17
4260.96292 2.12468e-17
4263.90775 2.14477e-17
4266.86265 2.10622e-17
4269.81755 2.13318e-17
4272.77246 2.15161e-17
4275.71728 2.11621e-17
4278.67218 2.08199e-17
4281.62709 2.05939e-17
4284.58200 2.08103e-17
4287.52682 2.10371e-17
4290.48172 2.08674e-17
4293.43662 2.05746e-17
4296.39153 2.08840e-17
4299.33635 2.11668e-17
4302.29125 2.10885e-17
4305.24616 2.08977e-17
4308.20107 2.07687e-17
4311.14588 2.07268e-17
4314.10079 2.10033e-17
4317.05570 2.06684e-17
4320.01060 2.07659e-17
4322.95542 2.09454e-17
4325.91032 2.02318e-17
4328.86523 2.02691e-17
4331.82013 2.07326e-17
4334.76495 2.07654e-17
4337.71986 2.06837e-17
4340.67476 2.08309e-17
4343.62967 2.07746e-17
4346.57449 2.06305e-17
4349.52939 2.07020e-17
4352.48430 2.06466e-17
4355.43920 2.06536e-17
4358.38402 2.05431e-17
4361.33893 2.05960e-17
4364.29384 2.04937e-17
4367.24874 2.04654e-17
4370.19356 2.03049e-17
4373.14846 2.03609e-17
4376.10337 2.06558e-17
4379.05827 2.06134e-17
4382.00309 2.03144e-17
4384.95800 2.03333e-17
4387.91291 2.03522e-17
4390.86781 2.03710e-17
4393.81263 2.03899e-17
4396.76753 2.04087e-17
4399.72244 2.04276e-17
4402.67734 2.04464e-17
4405.62216 2.04653e-17
4408.57707 2.04841e-17
4411.53197 2.05029e-17
4414.48688 2.05217e-17
4417.43170 2.05405e-17
4420.38660 2.05592e-17
4423.34151 2.02172e-17
4426.29641 1.98827e-17
4429.24123 2.01812e-17
4432.19614 2.04752e-17
4435.15105 2.03734e-17
4438.10595 2.04320e-17
4441.05077 2.06140e-17
4444.00568 2.07262e-17
4446.96058 2.06200e-17
4449.91548 2.04232e-17
4452.86031 2.06952e-17
4455.81521 2.06899e-17
4458.77011 2.05940e-17
4461.72502 2.07371e-17
4464.66984 2.06253e-17
4467.62475 2.05363e-17
4470.57965 2.04659e-17
4473.53455 2.06000e-17
4476.47937 2.07313e-17
4479.43428 2.08459e-17
4482.38918 2.08966e-17
4485.34409 2.09561e-17
4488.28891 2.05999e-17
4491.24381 2.08703e-17
4494.19872 2.07434e-17
4497.15362 2.07441e-17
4500.09844 2.07246e-17
4503.05335 2.08402e-17
4506.00825 2.10458e-17
4508.96316 2.07531e-17
4511.90798 2.05982e-17
4514.86289 2.05438e-17
4517.81779 2.03985e-17
4520.77269 2.05171e-17
4523.71752 2.05214e-17
4526.67242 2.06689e-17
4529.62732 2.07635e-17
4532.58223 2.07653e-17
4535.52705 2.06969e-17
4538.48195 2.03558e-17
4541.43686 2.02253e-17
4544.39177 2.03678e-17
4547.33659 2.02816e-17
4550.29149 2.04525e-17
4553.24640 2.02929e-17
4556.20130 2.02409e-17
4559.14612 2.01402e-17
4562.10102 2.02605e-17
4565.05593 2.03524e-17
4568.01084 2.04172e-17
4570.95565 2.03403e-17
4573.91056 2.04788e-17
4576.86546 2.06152e-17
4579.82037 2.07581e-17
4582.76519 2.08045e-17
4585.72009 2.04640e-17
4588.67500 2.05473e-17
4591.62990 2.02775e-17
4594.57473 2.02567e-17
4597.52963 2.04562e-17
4600.48453 2.04150e-17
4603.43944 2.05540e-17
4606.38426 2.07489e-17
4609.33916 2.06868e-17
4612.29407 2.05052e-17
4615.24898 2.04872e-17
4618.19380 2.08583e-17
4621.14870 2.06952e-17
4624.10361 2.06625e-17
4627.05851 2.07900e-17
4630.00333 2.06261e-17
4632.95824 2.06752e-17
4635.91314 2.06932e-17
4638.86805 2.09089e-17
4641.81286 2.10054e-17
4644.76777 2.09711e-17
4647.72267 2.08712e-17
4650.67758 2.11053e-17
4653.63248 2.11194e-17
4656.57730 2.08647e-17
4659.53221 2.10648e-17
4662.48711 2.13071e-17
4665.44202 2.13109e-17
4668.38684 2.10157e-17
4671.34174 2.09697e-17
4674.29665 2.08343e-17
4677.25155 2.03376e-17
4680.19637 2.03163e-17
4683.15128 2.11778e-17
4686.10618 2.13986e-17
4689.06109 2.11161e-17
4692.00591 2.12161e-17
4694.96082 2.14237e-17
4697.91572 2.12114e-17
4700.87062 2.10712e-17
4703.81545 2.12013e-17
4706.77035 2.13062e-17
4709.72525 2.11855e-17
4712.68016 2.12296e-17
4715.62498 2.13535e-17
4718.57989 2.12527e-17
4721.53479 2.14019e-17
4724.48970 2.14830e-17
4727.43451 2.12769e-17
4730.38942 2.14638e-17
4733.34433 2.15991e-17
4736.29923 2.15643e-17
4739.24405 2.16179e-17
4742.19895 2.17242e-17
4745.15386 2.17113e-17
4748.10876 2.15241e-17
4751.05358 2.15019e-17
4754.00849 2.15796e-17
4756.96339 2.18048e-17
4759.91830 2.18835e-17
4762.86312 2.17032e-17
4765.81802 2.17266e-17
4768.77293 2.18257e-17
4771.72783 2.17692e-17
4774.67266 2.17052e-17
4777.62756 2.16147e-17
4780.58246 2.17476e-17
4783.53737 2.18146e-17
4786.48219 2.19601e-17
4789.43709 2.19602e-17
4792.39200 2.19911e-17
4795.34691 2.20623e-17
4798.29173 2.19890e-17
4801.24663 2.18932e-17
4804.20154 2.18657e-17
4807.15644 2.20327e-17
4810.10126 2.20608e-17
4813.05616 2.20518e-17
4816.01107 2.20951e-17
4818.96598 2.20185e-17
4821.91079 2.20442e-17
4824.86570 2.22699e-17
4827.82060 2.22821e-17
4830.77551 2.21471e-17
4833.72033 2.21458e-17
4836.67523 2.24596e-17
4839.63014 2.26088e-17
4842.58504 2.24868e-17
4845.52986 2.24916e-17
4848.48477 2.23408e-17
4851.43967 2.24071e-17
4854.39458 2.27126e-17
4857.33940 2.26883e-17
4860.29430 2.27234e-17
4863.24921 2.28871e-17
4866.20411 2.30184e-17
4869.14893 2.30050e-17
4872.10384 2.28676e-17
4875.05875 2.29118e-17
4878.01365 2.29810e-17
4880.95847 2.29754e-17
4883.91338 2.29834e-17
4886.86828 2.30198e-17
4889.82318 2.30562e-17
4892.76800 2.30926e-17
4895.72291 2.31289e-17
4898.67782 2.31653e-17
4901.63272 2.32017e-17
4904.57754 2.32380e-17
4907.53244 2.32743e-17
4910.48735 2.33107e-17
4913.44225 2.33470e-17
4916.38707 2.33833e-17
4919.34198 2.34196e-17
4922.29688 2.34558e-17
4925.25179 2.37586e-17
4928.19661 2.36549e-17
4931.15151 2.37362e-17
4934.10642 2.36015e-17
4937.06132 2.35155e-17
4940.00614 2.35069e-17
4942.96105 2.37423e-17
4945.91595 2.35922e-17
4948.87086 2.36228e-17
4951.81568 2.36931e-17
4954.77059 2.37471e-17
4957.72549 2.39049e-17
4960.68039 2.40089e-17
4963.62522 2.38668e-17
4966.58012 2.39486e-17
4969.53502 2.37873e-17
4972.48993 2.38450e-17
4975.43475 2.37514e-17
4978.38965 2.36767e-17
4981.34456 2.37798e-17
4984.29947 2.37653e-17
4987.24428 2.37507e-17
4990.19919 2.37362e-17
4993.15409 2.37216e-17
4996.10900 2.37071e-17
4999.05382 2.36925e-17
5002.00872 2.36780e-17
5004.96363 2.36635e-17
5007.91853 2.36490e-17
5010.86335 2.36345e-17
5013.81826 2.36199e-17
5016.77316 2.36054e-17
5019.72807 2.35910e-17
5022.67289 2.34074e-17
5025.62780 2.33547e-17
5028.58270 2.34340e-17
5031.53760 2.34148e-17
5034.48243 2.33956e-17
5037.43733 2.33764e-17
5040.39223 2.33572e-17
5043.34714 2.33380e-17
5046.29196 2.33188e-17
5049.24686 2.32997e-17
5052.20177 2.32805e-17
5055.15668 2.32614e-17
5058.10149 2.32423e-17
5061.05640 2.32231e-17
5064.01130 2.32040e-17
5066.96621 2.31849e-17
5069.91103 2.31658e-17
5072.86593 2.31848e-17
5075.82084 2.30193e-17
5078.77574 2.29791e-17
5081.72057 2.29713e-17
5084.67547 2.27897e-17
5087.63037 2.26657e-17
5090.58528 2.26686e-17
5093.53010 2.25926e-17
5096.48500 2.23708e-17
5099.43991 2.23158e-17
5102.39481 2.22628e-17
5105.33964 2.21387e-17
5108.29454 2.21586e-17
5111.24944 2.21257e-17
5114.20435 2.21102e-17
5117.15925 2.20552e-17
5120.10407 2.21153e-17
5123.05898 2.20169e-17
5126.01389 2.16958e-17
5128.96879 2.16362e-17
5131.91361 2.16289e-17
5134.86852 2.15626e-17
5137.82342 2.17132e-17
5140.77832 2.18002e-17
5143.72314 2.16611e-17
5146.67805 2.17370e-17
5149.63295 2.15970e-17
5152.58786 2.13511e-17
5155.53268 2.14020e-17
5158.48758 2.13987e-17
5161.44249 2.13984e-17
5164.39739 2.13945e-17
5167.34221 2.14403e-17
5170.29712 2.15039e-17
5173.25202 2.12271e-17
5176.20693 2.11991e-17
5179.15175 2.12452e-17
5182.10666 2.10158e-17
5185.06156 2.08059e-17
5188.01646 2.06625e-17
5190.96128 2.06891e-17
5193.91619 2.07200e-17
5196.87109 2.08581e-17
5199.82600 2.08483e-17
5202.77082 2.05009e-17
5205.72573 2.05038e-17
5208.68063 2.04976e-17
5211.63553 2.04118e-17
5214.58036 2.04513e-17
5217.53526 2.02981e-17
5220.49016 2.01489e-17
5223.44507 1.98840e-17
5226.38989 1.99158e-17
5229.34479 2.00709e-17
5232.29970 2.00337e-17
5235.25461 1.99273e-17
5238.19942 1.99734e-17
5241.15433 1.98855e-17
5244.10923 1.97959e-17
5247.06414 1.97399e-17
5250.00896 1.98877e-17
5252.96386 1.98472e-17
5255.91877 1.97010e-17
5258.87367 1.95791e-17
5261.81850 1.96034e-17
5264.77340 1.96135e-17
5267.72830 1.94018e-17
5270.68321 1.93363e-17
5273.62803 1.91478e-17
5276.58293 1.90157e-17
5279.53784 1.89860e-17
5282.49274 1.89482e-17
5285.43757 1.89938e-17
5288.39247 1.89082e-17
5291.34737 1.87407e-17
5294.30228 1.89639e-17
5297.24710 1.89058e-17
5300.20200 1.88321e-17
5303.15691 1.88095e-17
5306.11182 1.86929e-17
5309.05663 1.86491e-17
5312.01154 1.85553e-17
5314.96645 1.85749e-17
5317.92135 1.85427e-17
5320.86617 1.84193e-17
5323.82107 1.83401e-17
5326.77598 1.83137e-17
5329.73088 1.82887e-17
5332.67570 1.83285e-17
5335.63061 1.83102e-17
5338.58551 1.82218e-17
5341.54042 1.81531e-17
5344.48524 1.79738e-17
5347.44014 1.80098e-17
5350.39505 1.81268e-17
5353.34995 1.79965e-17
5356.29477 1.79186e-17
5359.24968 1.79682e-17
5362.20459 1.80116e-17
5365.15949 1.79575e-17
5368.10431 1.78403e-17
5371.05921 1.78125e-17
5374.01412 1.76976e-17
5376.96902 1.75379e-17
5379.91384 1.75539e-17
5382.86875 1.75443e-17
5385.82366 1.74471e-17
5388.77856 1.74344e-17
5391.72338 1.74298e-17
5394.67828 1.73094e-17
5397.63319 1.71646e-17
5400.58809 1.70785e-17
5403.53291 1.71105e-17
5406.48782 1.72102e-17
5409.44272 1.71981e-17
5412.39763 1.71164e-17
5415.34245 1.69732e-17
5418.29735 1.68118e-17
5421.25226 1.67958e-17
5424.20716 1.68586e-17
5427.15198 1.69320e-17
5430.10689 1.70223e-17
5433.06180 1.70339e-17
5436.01670 1.69255e-17
5438.96152 1.68259e-17
5441.91643 1.68375e-17
5444.87133 1.69388e-17
5447.82623 1.67582e-17
5450.77105 1.65232e-17
5453.72596 1.64586e-17
5456.68086 1.64105e-17
5459.63577 1.65015e-17
5462.58059 1.64017e-17
5465.53550 1.64115e-17
5468.49040 1.65763e-17
5471.44530 1.65184e-17
5474.39012 1.63763e-17
5477.34503 1.62640e-17
5480.29993 1.61440e-17
5483.25484 1.62132e-17
5486.19966 1.62523e-17
5489.15456 1.61939e-17
5492.10947 1.61746e-17
5495.06437 1.62584e-17
5498.00919 1.62276e-17
5500.96410 1.60657e-17
5503.91900 1.61683e-17
5506.87391 1.59411e-17
5509.81873 1.57540e-17
5512.77364 1.57253e-17
5515.72854 1.56552e-17
5518.68344 1.56524e-17
5521.62827 1.54764e-17
5524.58317 1.52699e-17
5527.53807 1.53604e-17
5530.49298 1.54356e-17
5533.43780 1.53327e-17
5536.39270 1.51983e-17
5539.34761 1.51653e-17
5542.30252 1.52068e-17
5545.25742 1.50818e-17
5548.20224 1.48907e-17
5551.15714 1.48293e-17
5554.11205 1.48743e-17
5557.06695 1.48985e-17
5560.01177 1.48023e-17
5562.96668 1.45819e-17
5565.92159 1.43338e-17
5568.87649 1.42613e-17
5571.82131 1.45120e-17
5574.77621 1.47555e-17
5577.73112 1.48626e-17
5580.68602 1.47898e-17
5583.63084 1.44392e-17
5586.58575 1.41636e-17
5589.54065 1.41839e-17
5592.49556 1.42255e-17
5595.44038 1.41315e-17
5598.39528 1.42120e-17
5601.35019 1.40940e-17
5604.30509 1.38934e-17
5607.24991 1.38931e-17
5610.20482 1.38869e-17
5613.15973 1.37930e-17
5616.11463 1.37967e-17
5619.05945 1.38055e-17
5622.01436 1.37821e-17
5624.96926 1.37988e-17
5627.92416 1.37874e-17
5630.86898 1.37453e-17
5633.82389 1.35441e-17
5636.77880 1.35456e-17
5639.73370 1.36793e-17
5642.67852 1.36943e-17
5645.63342 1.35464e-17
5648.58833 1.35369e-17
5651.54323 1.34997e-17
5654.48805 1.34487e-17
5657.44296 1.34929e-17
5660.39786 1.34285e-17
5663.35277 1.33853e-17
5666.29759 1.33557e-17
5669.25249 1.33416e-17
5672.20740 1.33705e-17
5675.16230 1.33901e-17
5678.10712 1.33288e-17
5681.06203 1.33316e-17
5684.01693 1.34076e-17
5686.97184 1.35018e-17
5689.91666 1.34211e-17
5692.87157 1.32311e-17
5695.82647 1.32624e-17
5698.78137 1.33369e-17
5701.72620 1.32691e-17
5704.68110 1.31841e-17
5707.63600 1.31832e-17
5710.59091 1.32317e-17
5713.53573 1.32693e-17
5716.49064 1.33616e-17
5719.44554 1.34196e-17
5722.40045 1.33183e-17
5725.34526 1.31678e-17
5728.30017 1.31110e-17
5731.25507 1.30976e-17
5734.20998 1.31646e-17
5737.15480 1.33234e-17
5740.10970 1.33388e-17
5743.06461 1.31410e-17
5746.01951 1.31495e-17
5748.96433 1.31634e-17
5751.91924 1.31905e-17
5754.87414 1.31603e-17
5757.82905 1.30429e-17
5760.77387 1.31247e-17
5763.72877 1.31770e-17
5766.68368 1.31341e-17
5769.63858 1.30471e-17
5772.58341 1.30306e-17
5775.53831 1.28430e-17
5778.49321 1.27476e-17
5781.44812 1.28917e-17
5784.39294 1.29098e-17
5787.34784 1.29850e-17
5790.30275 1.30147e-17
5793.25766 1.28952e-17
5796.20248 1.27969e-17
5799.15738 1.27515e-17
5802.11229 1.29899e-17
5805.06719 1.31807e-17
5808.01201 1.29818e-17
5810.96691 1.28907e-17
5813.92182 1.29544e-17
5816.87673 1.29577e-17
5819.82154 1.29885e-17
5822.77645 1.28685e-17
5825.73135 1.27770e-17
5828.68626 1.30055e-17
5831.63108 1.30199e-17
5834.58598 1.29550e-17
5837.54089 1.30538e-17
5840.49579 1.30969e-17
5843.44061 1.31217e-17
5846.39552 1.31385e-17
5849.35042 1.30972e-17
5852.30533 1.29534e-17
5855.25015 1.29721e-17
5858.20505 1.29895e-17
5861.15996 1.29453e-17
5864.11486 1.29757e-17
5867.05968 1.30845e-17
5870.01459 1.29427e-17
5872.96950 1.27924e-17
5875.92440 1.28261e-17
5878.86922 1.29069e-17
5881.82413 1.28099e-17
5884.77903 1.27343e-17
5887.73393 1.27081e-17
5890.67875 1.24327e-17
5893.63366 1.24075e-17
5896.58857 1.26529e-17
5899.54347 1.26852e-17
5902.48829 1.26671e-17
5905.44319 1.27165e-17
5908.39810 1.28021e-17
5911.35300 1.28164e-17
5914.29782 1.27656e-17
5917.25273 1.28578e-17
5920.20763 1.30583e-17
5923.16254 1.29814e-17
5926.10736 1.29850e-17
5929.06226 1.29690e-17
5932.01717 1.30120e-17
5934.97207 1.29947e-17
5937.91689 1.29346e-17
5940.87180 1.29167e-17
5943.82670 1.30380e-17
5946.78161 1.30135e-17
5949.72643 1.28877e-17
5952.68134 1.28025e-17
5955.63624 1.28417e-17
5958.59114 1.28959e-17
5961.53597 1.29575e-17
5964.49087 1.30343e-17
5967.44577 1.30145e-17
5970.40068 1.29149e-17
5973.34550 1.29283e-17
5976.30040 1.30291e-17
5979.25531 1.31571e-17
5982.21022 1.32143e-17
5985.15503 1.30506e-17
5988.10994 1.29999e-17
5991.06484 1.30909e-17
5994.01975 1.31614e-17
5996.96457 1.31196e-17
5999.91947 1.30474e-17
6002.87438 1.29520e-17
6005.82928 1.28383e-17
6008.78419 1.28271e-17
6011.72901 1.27763e-17
6014.68391 1.26533e-17
6017.63882 1.27422e-17
6020.59372 1.28956e-17
6023.53855 1.28264e-17
6026.49345 1.27826e-17
6029.44835 1.27517e-17
6032.40326 1.27875e-17
6035.34808 1.28221e-17
6038.30298 1.27882e-17
6041.25789 1.27884e-17
6044.21280 1.28102e-17
6047.15761 1.27565e-17
6050.11252 1.26635e-17
6053.06743 1.26040e-17
6056.02233 1.26580e-17
6058.96715 1.26911e-17
6061.92206 1.27051e-17
6064.87696 1.27009e-17
6067.83186 1.25786e-17
6070.77668 1.25138e-17
6073.73159 1.25240e-17
6076.68649 1.25912e-17
6079.64140 1.26554e-17
6082.58622 1.26506e-17
6085.54112 1.26294e-17
6088.49603 1.26875e-17
6091.45093 1.27818e-17
6094.39575 1.27236e-17
6097.35066 1.26014e-17
6100.30556 1.27751e-17
6103.26047 1.27316e-17
6106.20529 1.24718e-17
6109.16019 1.24614e-17
6112.11510 1.26174e-17
6115.07000 1.26003e-17
6118.01482 1.24175e-17
6120.96973 1.23957e-17
6123.92464 1.24350e-17
6126.87954 1.23087e-17
6129.82436 1.22404e-17
6132.77927 1.23073e-17
6135.73417 1.23896e-17
6138.68907 1.24178e-17
6141.63389 1.23291e-17
6144.58880 1.23047e-17
6147.54370 1.23023e-17
6150.49861 1.22276e-17
6153.44343 1.22028e-17
6156.39833 1.21593e-17
6159.35324 1.21236e-17
6162.30814 1.20118e-17
6165.25296 1.20382e-17
6168.20787 1.22467e-17
6171.16277 1.21965e-17
6174.11768 1.20003e-17
6177.06250 1.19920e-17
6180.01740 1.20924e-17
6182.97231 1.20592e-17
6185.92721 1.20582e-17
6188.87203 1.21094e-17
6191.82694 1.21041e-17
6194.78184 1.20382e-17
6197.73675 1.19496e-17
6200.68157 1.19013e-17
6203.63648 1.17500e-17
6206.59138 1.16440e-17
6209.54628 1.17387e-17
6212.49111 1.17815e-17
6215.44601 1.17790e-17
6218.40091 1.17796e-17
6221.35582 1.16763e-17
6224.30064 1.15351e-17
6227.25554 1.16237e-17
6230.21045 1.17613e-17
6233.16536 1.16821e-17
6236.11017 1.15303e-17
6239.06508 1.13747e-17
6242.01998 1.14244e-17
6244.97489 1.14781e-17
6247.91971 1.14303e-17
6250.87461 1.14201e-17
6253.82952 1.14900e-17
6256.78442 1.14702e-17
6259.72924 1.13474e-17
6262.68415 1.13074e-17
6265.63905 1.12819e-17
6268.59396 1.11767e-17
6271.53878 1.09886e-17
6274.49368 1.08759e-17
6277.44859 1.08279e-17
6280.40349 1.06937e-17
6283.34832 1.05377e-17
6286.30322 1.05372e-17
6289.25812 1.07069e-17
6292.21303 1.07707e-17
6295.15785 1.06899e-17
6298.11275 1.07100e-17
6301.06766 1.06777e-17
6304.02257 1.05999e-17
6306.96738 1.05953e-17
6309.92229 1.06222e-17
6312.87720 1.06612e-17
6315.83210 1.07096e-17
6318.77692 1.07665e-17
6321.73182 1.07715e-17
6324.68673 1.06864e-17
6327.64163 1.06499e-17
6330.58645 1.06370e-17
6333.54136 1.05398e-17
6336.49626 1.04969e-17
6339.45117 1.04228e-17
6342.39599 1.03691e-17
6345.35089 1.04636e-17
6348.30580 1.05151e-17
6351.26070 1.06187e-17
6354.20552 1.05529e-17
6357.16043 1.03917e-17
6360.11533 1.02859e-17
6363.07024 1.01980e-17
6366.01506 1.02209e-17
6368.96996 1.03283e-17
6371.92487 1.03489e-17
6374.87977 1.02430e-17
6377.82459 1.02026e-17
6380.77950 1.03270e-17
6383.73441 1.03537e-17
6386.68931 1.02259e-17
6389.63413 1.01744e-17
6392.58903 1.01866e-17
6395.54394 1.01026e-17
6398.49884 1.00240e-17
6401.44366 1.00820e-17
6404.39857 1.01286e-17
6407.35347 1.01154e-17
6410.30838 1.00878e-17
6413.25320 9.94087e-18
6416.20810 9.80063e-18
6419.16301 9.84927e-18
6422.11791 9.99420e-18
6425.06273 9.92077e-18
6428.01764 9.79881e-18
6430.97255 9.85568e-18
6433.92745 9.83187e-18
6436.87227 9.66465e-18
6439.82717 9.55877e-18
6442.78208 9.62982e-18
6445.73698 9.66214e-18
6448.68180 9.61461e-18
6451.63671 9.61046e-18
6454.59161 9.53626e-18
6457.54652 9.40106e-18
6460.50142 9.30738e-18
6463.44625 9.39808e-18
6466.40115 9.43190e-18
6469.35605 9.31224e-18
6472.31096 9.23669e-18
6475.25578 9.22569e-18
6478.21068 9.23551e-18
6481.16559 9.18447e-18
6484.12050 9.08749e-18
6487.06531 9.12928e-18
6490.02022 9.15177e-18
6492.97512 9.04867e-18
6495.93003 8.99508e-18
6498.87485 9.02568e-18
6501.82975 9.14286e-18
6504.78466 9.17009e-18
6507.73956 9.11031e-18
6510.68439 9.03087e-18
6513.63929 8.91465e-18
6516.59419 8.85993e-18
6519.54910 8.86385e-18
6522.49392 8.77960e-18
6525.44882 8.74873e-18
6528.40373 8.75642e-18
6531.35864 8.70990e-18
6534.30345 8.72463e-18
6537.25836 8.77381e-18
6540.21326 8.65733e-18
6543.16817 8.47960e-18
6546.11299 8.49880e-18
6549.06789 8.58074e-18
6552.02280 8.46908e-18
6554.97770 8.29692e-18
6557.92252 8.37145e-18
6560.87743 8.49293e-18
6563.83234 8.47491e-18
6566.78724 8.36521e-18
6569.73206 8.25818e-18
6572.68696 8.18832e-18
6575.64187 8.20918e-18
6578.59677 8.28084e-18
6581.54159 8.21811e-18
6584.49650 8.07658e-18
6587.45140 8.05751e-18
6590.40631 8.04520e-18
6593.35113 8.03290e-18
6596.30603 8.02060e-18
6599.26094 8.00830e-18
6602.21584 7.99600e-18
6605.16066 7.98370e-18
6608.11557 7.97141e-18
6611.07048 7.95912e-18
6614.02538 7.94683e-18
6616.97020 7.93454e-18
6619.92510 7.92225e-18
6622.88001 7.90997e-18
6625.83491 7.89769e-18
6628.77973 7.88540e-18
6631.73464 7.87312e-18
6634.68955 7.86085e-18
6637.64445 7.84857e-18
6640.58927 7.83629e-18
6643.54417 7.82402e-18
6646.49908 7.81175e-18
6649.45398 7.79948e-18
6652.39880 7.81968e-18
6655.35371 7.76119e-18
6658.30861 7.72078e-18
6661.26352 7.76027e-18
6664.20834 7.72174e-18
6667.16324 7.68360e-18
6670.11815 7.65522e-18
6673.07305 7.53877e-18
6676.01787 7.50992e-18
6678.97278 7.60668e-18
6681.92768 7.55087e-18
6684.88259 7.41744e-18
6687.82741 7.37717e-18
6690.78232 7.39669e-18
6693.73722 7.40643e-18
6696.69212 7.37956e-18
6699.63695 7.39141e-18
6702.59185 7.37598e-18
6705.54675 7.39005e-18
6708.50166 7.35954e-18
6711.44648 7.27377e-18
6714.40139 7.19236e-18
6717.35629 7.19627e-18
6720.31119 7.19661e-18
6723.25601 7.11966e-18
6726.21092 7.07114e-18
6729.16582 7.08616e-18
6732.12073 7.13773e-18
6735.06555 7.16504e-18
6738.02045 7.08888e-18
6740.97536 7.02174e-18
6743.93026 7.00244e-18
6746.87508 7.02226e-18
6749.82999 7.03214e-18
6752.78489 6.91695e-18
6755.73980 6.85517e-18
6758.68462 6.87126e-18
6761.63952 6.90293e-18
6764.59443 6.85102e-18
6767.54933 6.83128e-18
6770.49416 6.81720e-18
6773.44906 6.75246e-18
6776.40396 6.74847e-18
6779.35887 6.76398e-18
6782.30369 6.72231e-18
6785.25859 6.66568e-18
6788.21350 6.60179e-18
6791.16841 6.56146e-18
6794.11323 6.54777e-18
6797.06813 6.50595e-18
6800.02304 6.50645e-18
6802.97794 6.50268e-18
6805.92276 6.43470e-18
6808.87766 6.41358e-18
6811.83257 6.30863e-18
6814.78748 6.32241e-18
6817.73229 6.34193e-18
6820.68720 6.18809e-18
6823.64210 6.03868e-18
6826.59701 5.98122e-18
6829.54183 5.97717e-18
6832.49673 6.02891e-18
6835.45164 6.04292e-18
6838.40654 5.89601e-18
6841.35136 5.84869e-18
6844.30627 5.98416e-18
6847.26117 5.95830e-18
6850.21608 5.93244e-18
6853.16090 5.90659e-18
6856.11580 5.88074e-18
6859.07071 5.85490e-18
6862.02561 5.82905e-18
6864.97043 5.80322e-18
6867.92534 5.77738e-18
6870.88025 5.75155e-18
6873.83515 5.72572e-18
6876.77997 5.69989e-18
6879.73488 5.67407e-18
6882.68978 5.64825e-18
6885.64468 5.62243e-18
6888.58950 5.59662e-18
6891.54441 5.57081e-18
6894.49932 5.54501e-18
6897.45422 5.51920e-18
6900.39904 5.49341e-18
6903.35394 5.46761e-18
6906.30885 5.44182e-18
6909.26375 5.41602e-18
6912.21866 5.39024e-18
6915.16348 5.36446e-18
6918.11838 5.33867e-18
6921.07329 5.31290e-18
6924.02819 5.28712e-18
6926.97301 5.26136e-18
6929.92792 5.23559e-18
6932.88282 5.20983e-18
6935.83773 5.18407e-18
6938.78255 5.04442e-18
6941.73745 5.03871e-18
6944.69236 5.09555e-18
6947.64726 5.07290e-18
6950.59209 4.94388e-18
6953.54699 4.92624e-18
6956.50189 4.97550e-18
6959.45680 4.88686e-18
6962.40162 4.85400e-18
6965.35652 4.90297e-18
6968.31143 4.91703e-18
6971.26634 4.94331e-18
6974.21115 4.87765e-18
6977.16606 4.79993e-18
6980.12097 4.85932e-18
6983.07587 4.97466e-18
6986.02069 4.86812e-18
6988.97559 4.75747e-18
6991.93050 4.65373e-18
6994.88540 4.54608e-18
6997.83022 4.51643e-18
7000.78513 4.55318e-18
7003.74003 4.55128e-18
7006.69494 4.51160e-18
7009.63976 4.52665e-18
7012.59466 4.48422e-18
7015.54957 4.38988e-18
7018.50447 4.35496e-18
7021.44930 4.36215e-18
7024.40420 4.33549e-18
7027.35910 4.29499e-18
7030.31401 4.31261e-18
7033.25883 4.24272e-18
7036.21373 4.29255e-18
7039.16864 4.44945e-18
7042.12355 4.51702e-18
7045.06836 4.45955e-18
7048.02327 4.33717e-18
7050.97818 4.30054e-18
7053.93308 4.33455e-18
7056.87790 4.33208e-18
7059.83281 4.38707e-18
7062.78771 4.52250e-18
7065.74261 4.48411e-18
7068.68743 4.31591e-18
7071.64234 4.34299e-18
7074.59724 4.50371e-18
7077.55215 4.50071e-18
7080.49697 4.34615e-18
7083.45187 4.32807e-18
7086.40678 4.39003e-18
7089.36168 4.39779e-18
7092.30650 4.49039e-18
7095.26141 4.53850e-18
7098.21631 4.42002e-18
7101.17122 4.34152e-18
7104.11604 4.33991e-18
7107.07094 4.32627e-18
7110.02585 4.28906e-18
7112.98075 4.26537e-18
7115.92557 4.21555e-18
7118.88048 4.19293e-18
7121.83539 4.23255e-18
7124.79029 4.29634e-18
7127.73511 4.30051e-18
7130.69002 4.28281e-18
7133.64492 4.34932e-18
7136.59982 4.33746e-18
7139.54464 4.25732e-18
7142.49955 4.26685e-18
7145.45445 4.24340e-18
7148.40936 4.24979e-18
7151.35418 4.25653e-18
7154.30908 4.26633e-18
7157.26399 4.38446e-18
7160.21889 4.46692e-18
7163.16371 4.33470e-18
7166.11862 4.18428e-18
7169.07352 4.22821e-18
7172.02843 4.31147e-18
7174.97325 4.30104e-18
7177.92815 4.28685e-18
7180.88306 4.37445e-18
7183.83796 4.45642e-18
7186.78278 4.42477e-18
7189.73769 4.38572e-18
7192.69259 4.32978e-18
7195.64750 4.36890e-18
7198.59232 4.42774e-18
7201.54723 4.45144e-18
7204.50213 4.35127e-18
7207.45703 4.24129e-18
7210.40186 4.31323e-18
7213.35676 4.41870e-18
7216.31166 4.51845e-18
7219.26657 4.63995e-18
7222.21139 4.59876e-18
7225.16629 4.47794e-18
7228.12120 4.44304e-18
7231.07611 4.40125e-18
7234.02092 4.27764e-18
7236.97583 4.33164e-18
7239.93073 4.50586e-18
7242.88564 4.60086e-18
7245.83046 4.68606e-18
7248.78536 4.68678e-18
7251.74027 4.61621e-18
7254.69517 4.62557e-18
7257.63999 4.64744e-18
7260.59490 4.63445e-18
7263.54980 4.57862e-18
7266.50471 4.55979e-18
7269.44953 4.58246e-18
7272.40443 4.63273e-18
7275.35934 4.78176e-18
7278.31424 4.77432e-18
7281.25907 4.73083e-18
7284.21397 4.71313e-18
7287.16887 4.65057e-18
7290.12378 4.59901e-18
7293.06860 4.53039e-18
7296.02350 4.48458e-18
7298.97841 4.63592e-18
7301.93332 4.80204e-18
7304.87813 4.69491e-18
7307.83304 4.61501e-18
7310.78795 4.76192e-18
7313.74285 4.78730e-18
7316.68767 4.79828e-18
7319.64257 4.87119e-18
7322.59748 4.73352e-18
7325.55238 4.64309e-18
7328.49720 4.67832e-18
7331.45211 4.64691e-18
7334.40701 4.61456e-18
7337.36192 4.59068e-18
7340.30674 4.58723e-18
7343.26164 4.63781e-18
7346.21655 4.61589e-18
7349.17145 4.56527e-18
7352.11627 4.57737e-18
7355.07118 4.64737e-18
7358.02608 4.64927e-18
7360.98099 4.69943e-18
7363.92581 4.76348e-18
7366.88071 4.73381e-18
7369.83562 4.80809e-18
7372.79052 4.88603e-18
7375.74543 4.80186e-18
7378.69025 4.75335e-18
7381.64516 4.79382e-18
7384.60006 4.83161e-18
7387.55496 4.78676e-18
7390.49978 4.71408e-18
7393.45469 4.76542e-18
7396.40959 4.89356e-18
7399.36450 4.87182e-18
7402.30932 4.79276e-18
7405.26422 4.86275e-18
7408.21913 4.98034e-18
7411.17404 4.97253e-18
7414.11885 4.88580e-18
7417.07376 4.86531e-18
7420.02866 4.86981e-18
7422.98357 4.80535e-18
7425.92839 4.81770e-18
7428.88329 4.90229e-18
7431.83820 4.89418e-18
7434.79310 4.85809e-18
7437.73792 4.89209e-18
7440.69283 4.91071e-18
7443.64773 4.88885e-18
7446.60264 4.92125e-18
7449.54746 4.86013e-18
7452.50236 4.77008e-18
7455.45727 4.78493e-18
7458.41217 4.79697e-18
7461.35700 4.77994e-18
7464.31190 4.75720e-18
7467.26680 4.87671e-18
7470.22171 4.97454e-18
7473.16653 4.91829e-18
7476.12143 4.91434e-18
7479.07634 4.92340e-18
7482.03125 4.82856e-18
7484.97606 4.77591e-18
7487.93097 4.85936e-18
7490.88587 4.90061e-18
7493.84078 4.91828e-18
7496.78560 5.03807e-18
7499.74050 5.14307e-18
7502.69541 5.21938e-18
7505.65031 5.20379e-18
7508.59514 5.08235e-18
7511.55004 5.03261e-18
7514.50494 5.01803e-18
7517.45985 5.02922e-18
7520.40467 5.05171e-18
7523.35957 5.02496e-18
7526.31448 4.96114e-18
7529.26938 5.04662e-18
7532.21420 5.18132e-18
7535.16911 5.21482e-18
7538.12401 5.15668e-18
7541.07892 5.04844e-18
7544.02374 5.07682e-18
7546.97864 5.05351e-18
7549.93355 5.00031e-18
7552.88845 5.00837e-18
7555.83327 5.01643e-18
7558.78818 5.02450e-18
7561.74309 5.03255e-18
7564.69799 5.04061e-18
7567.64281 5.04867e-18
7570.59771 5.05672e-18
7573.55262 5.06478e-18
7576.50752 5.07283e-18
7579.45234 5.08088e-18
7582.40725 5.08893e-18
7585.36215 5.09698e-18
7588.31706 5.10503e-18
7591.26188 5.11307e-18
7594.21678 5.12112e-18
7597.17169 5.12916e-18
7600.12659 5.13720e-18
7603.07141 5.14525e-18
7606.02632 5.15328e-18
7608.98123 5.16132e-18
7611.93613 5.16936e-18
7614.88095 5.17739e-18
7617.83585 5.18543e-18
7620.79076 5.19346e-18
7623.74566 5.20149e-18
7626.69048 5.20952e-18
7629.64539 5.21755e-18
7632.60030 5.22558e-18
7635.55520 5.23360e-18
7638.50002 5.24163e-18
7641.45493 5.24965e-18
7644.40983 5.25767e-18
7647.36473 5.26569e-18
7650.30955 5.27372e-18
7653.26446 5.28173e-18
7656.21936 5.28975e-18
7659.17427 5.29776e-18
7662.11909 5.30578e-18
7665.07399 5.31379e-18
7668.02890 5.32180e-18
7670.98380 5.32981e-18
7673.92862 5.33782e-18
7676.88353 5.34583e-18
7679.83843 5.35384e-18
7682.79334 5.36184e-18
7685.73816 5.20890e-18
7688.69307 5.16456e-18
7691.64797 5.09828e-18
7694.60287 5.03816e-18
7697.54769 5.22577e-18
7700.50260 5.40307e-18
7703.45750 5.49254e-18
7706.41241 5.50892e-18
7709.35723 5.34000e-18
7712.31214 5.17107e-18
7715.26704 5.20704e-18
7718.22194 5.25094e-18
7721.16676 5.21652e-18
7724.12167 5.13965e-18
7727.07657 5.13946e-18
7730.03148 5.31258e-18
7732.97630 5.43757e-18
7735.93120 5.39368e-18
7738.88611 5.26018e-18
7741.84101 5.34493e-18
7744.78583 5.52882e-18
7747.74074 5.45315e-18
7750.69564 5.35585e-18
7753.65055 5.39417e-18
7756.59537 5.42906e-18
7759.55027 5.37969e-18
7762.50518 5.41384e-18
7765.46008 5.51987e-18
7768.41499 5.44317e-18
7771.35981 5.42678e-18
7774.31471 5.49459e-18
7777.26962 5.44360e-18
7780.22452 5.41254e-18
7783.16934 5.40228e-18
7786.12425 5.41227e-18
7789.07916 5.44562e-18
7792.02398 5.44784e-18
7794.97888 5.52045e-18
7797.93378 5.55993e-18
7800.88869 5.49221e-18
7803.83351 5.49715e-18
7806.78841 5.53359e-18
7809.74332 5.57113e-18
7812.69823 5.54400e-18
7815.64304 5.45775e-18
7818.59795 5.41368e-18
7821.55285 5.43631e-18
7824.50776 5.51481e-18
7827.45258 5.53489e-18
7830.40748 5.49382e-18
7833.36239 5.53620e-18
7836.31729 5.55934e-18
7839.27220 5.52492e-18
7842.21702 5.63526e-18
7845.17192 5.69007e-18
7848.12683 5.58008e-18
7851.08173 5.54421e-18
7854.02655 5.48956e-18
7856.98146 5.48702e-18
7859.93636 5.58065e-18
7862.89127 5.51525e-18
7865.83609 5.49726e-18
7868.79100 5.67910e-18
7871.74590 5.83968e-18
7874.70080 5.85368e-18
7877.64562 5.74852e-18
7880.60053 5.79452e-18
7883.55543 5.88486e-18
7886.51034 5.76752e-18
7889.45516 5.70733e-18
7892.41007 5.63125e-18
7895.36497 5.60149e-18
7898.31987 5.65876e-18
7901.26469 5.69941e-18
7904.21960 5.82051e-18
7907.17450 5.85093e-18
7910.12941 5.81063e-18
7913.07423 5.92987e-18
7916.02913 5.97149e-18
7918.98404 5.85197e-18
7921.93894 5.72031e-18
7924.88376 5.67884e-18
7927.83867 5.71568e-18
7930.79357 5.76892e-18
7933.74848 5.76519e-18
7936.69330 5.77510e-18
7939.64820 5.90936e-18
7942.60311 6.01764e-18
7945.55801 5.97020e-18
7948.50284 5.94288e-18
7951.45774 6.01533e-18
7954.41264 5.93527e-18
7957.36755 5.77573e-18
7960.31237 5.76417e-18
7963.26727 5.81269e-18
7966.22218 5.87077e-18
7969.17709 5.86035e-18
7972.12190 5.98867e-18
7975.07681 6.13679e-18
7978.03171 6.18976e-18
7980.98662 6.09175e-18
7983.93144 5.95609e-18
7986.88634 5.83121e-18
7989.84125 5.71003e-18
7992.79615 5.80239e-18
7995.74097 5.98918e-18
7998.69588 6.13285e-18
8001.65078 6.13356e-18
8004.60569 6.13017e-18
8007.55051 6.17710e-18
8010.50541 6.14520e-18
8013.46032 6.10813e-18
8016.41522 6.05696e-18
8019.36005 5.87795e-18
8022.31495 5.73313e-18
8025.26985 5.74295e-18
8028.22476 5.80184e-18
8031.16958 5.87505e-18
8034.12448 5.94353e-18
8037.07939 6.00356e-18
8040.03430 6.11433e-18
8042.97911 6.26490e-18
8045.93402 6.26495e-18
8048.88893 6.09408e-18
8051.84383 5.95299e-18
8054.78865 5.81088e-18
8057.74355 5.74620e-18
8060.69846 5.81080e-18
8063.65336 5.94786e-18
8066.59818 6.11667e-18
8069.55309 6.19715e-18
8072.50799 6.27710e-18
8075.46290 6.21329e-18
8078.40772 6.16503e-18
8081.36262 6.18329e-18
8084.31753 6.14619e-18
8087.27243 6.00103e-18
8090.21725 5.83692e-18
8093.17216 5.94206e-18
8096.12706 6.14199e-18
8099.08197 6.04905e-18
8102.02679 6.01301e-18
8104.98169 6.16945e-18
8107.93660 6.17957e-18
8110.89150 6.11932e-18
8113.83632 6.14141e-18
8116.79123 6.10500e-18
8119.74614 5.93807e-18
8122.70104 5.86601e-18
8125.64586 5.77971e-18
8128.60077 5.79257e-18
8131.55567 6.02599e-18
8134.51057 6.09107e-18
8137.45539 5.89369e-18
8140.41030 5.90180e-18
8143.36520 6.19317e-18
8146.32011 6.10733e-18
8149.26493 5.74723e-18
8152.21983 5.56338e-18
8155.17474 5.43992e-18
8158.12964 5.44456e-18
8161.07446 5.50120e-18
8164.02937 5.57030e-18
8166.98427 5.55755e-18
8169.93918 5.55342e-18
8172.88400 5.74699e-18
8175.83890 5.78201e-18
8178.79381 5.56937e-18
8181.74871 5.43242e-18
8184.69353 5.49560e-18
8187.64844 5.54124e-18
8190.60334 5.41617e-18
8193.55825 5.29212e-18
8196.50307 5.27800e-18
8199.45797 5.44960e-18
8202.41288 5.67360e-18
8205.36779 5.88145e-18
8208.31260 6.03512e-18
8211.26751 5.95035e-18
8214.22242 5.78212e-18
8217.17732 5.74292e-18
8220.12214 5.63603e-18
8223.07704 5.35696e-18
8226.03195 5.24331e-18
8228.98685 5.22250e-18
8231.94176 5.07454e-18
8234.88658 5.01398e-18
8237.84148 5.29568e-18
8240.79639 5.71167e-18
8243.75130 5.88088e-18
8246.69611 5.73425e-18
8249.65102 5.58900e-18
8252.60592 5.57948e-18
8255.56083 5.42711e-18
8258.50565 5.19998e-18
8261.46055 5.20219e-18
8264.41546 5.45049e-18
8267.37037 5.66926e-18
8270.31518 5.64087e-18
8273.27009 5.54823e-18
8276.22499 5.53386e-18
8279.17990 5.42370e-18
8282.12472 5.37934e-18
8285.07963 5.40004e-18
8288.03453 5.26745e-18
8290.98943 5.22354e-18
8293.93426 5.30122e-18
8296.88916 5.38528e-18
8299.84406 5.33612e-18
8302.79897 5.38664e-18
8305.74379 5.44010e-18
8308.69869 5.34115e-18
8311.65360 5.31527e-18
8314.60851 5.39768e-18
8317.55333 5.34272e-18
8320.50823 5.12245e-18
8323.46313 5.04816e-18
8326.41804 5.25296e-18
8329.36286 5.33248e-18
8332.31776 5.32475e-18
8335.27267 5.50543e-18
8338.22758 5.53160e-18
8341.17239 5.45770e-18
8344.12730 5.53836e-18
8347.08220 5.51334e-18
8350.03711 5.30207e-18
8352.98193 5.17626e-18
8355.93684 5.19940e-18
8358.89174 5.29679e-18
8361.84664 5.43917e-18
8364.79147 5.55209e-18
8367.74637 5.46798e-18
8370.70127 5.31753e-18
8373.65618 5.35691e-18
8376.60100 5.37973e-18
8379.55590 5.25908e-18
8382.51081 5.19847e-18
8385.46572 5.24125e-18
8388.41053 5.24762e-18
8391.36544 5.31522e-18
8394.32035 5.31363e-18
8397.27525 5.31138e-18
8400.22007 5.52564e-18
8403.17497 5.45533e-18
8406.12988 5.33103e-18
8409.08478 5.32262e-18
8412.02960 5.18757e-18
8414.98451 5.11923e-18
8417.93941 5.13806e-18
8420.89432 5.12243e-18
8423.83914 5.19548e-18
8426.79405 5.20932e-18
8429.74895 5.21922e-18
8432.70385 5.30202e-18
8435.64867 5.23106e-18
8438.60358 5.24547e-18
8441.55848 5.31281e-18
8444.51339 5.26540e-18
8447.45821 5.12538e-18
8450.41311 5.06676e-18
8453.36802 5.02133e-18
8456.32292 5.02992e-18
8459.26774 5.14750e-18
8462.22265 5.18064e-18
8465.17756 5.23062e-18
8468.13246 5.40047e-18
8471.07728 5.47385e-18
8474.03219 5.40057e-18
8476.98709 5.25297e-18
8479.94199 5.19491e-18
8482.88681 5.12148e-18
8485.84172 4.96562e-18
8488.79662 4.90904e-18
8491.75153 4.94924e-18
8494.69635 4.99485e-18
8497.65126 5.05058e-18
8500.60616 5.10176e-18
8503.56106 5.15543e-18
8506.50588 5.11535e-18
8509.46079 5.08753e-18
8512.41569 5.22706e-18
8515.37060 5.23567e-18
8518.31542 5.12624e-18
8521.27032 5.01343e-18
8524.22523 4.92661e-18
8527.18013 4.88618e-18
8530.12495 4.89524e-18
8533.07986 4.86980e-18
8536.03477 4.95488e-18
8538.98967 5.04502e-18
8541.93449 4.95216e-18
8544.88940 4.97697e-18
8547.84430 5.02769e-18
8550.79920 4.95290e-18
8553.74402 4.95838e-18
8556.69893 4.91787e-18
8559.65383 4.88621e-18
8562.60874 4.95522e-18
8565.55356 5.02789e-18
8568.50847 5.08012e-18
8571.46337 5.04382e-18
8574.41827 4.92126e-18
8577.36309 4.89881e-18
8580.31800 4.92311e-18
8583.27290 4.93064e-18
8586.22781 5.00947e-18
8589.17263 5.00924e-18
8592.12753 4.87683e-18
8595.08244 4.80105e-18
8598.03734 4.84537e-18
8600.98216 4.76050e-18
8603.93707 4.64770e-18
8606.89198 4.67669e-18
8609.84688 4.72210e-18
8612.79170 4.69034e-18
8615.74660 4.72121e-18
8618.70151 4.86517e-18
8621.65641 4.90041e-18
8624.60124 4.85695e-18
8627.55614 4.82413e-18
8630.51104 4.66758e-18
8633.46595 4.53506e-18
8636.41077 4.43623e-18
8639.36567 4.43355e-18
8642.32058 4.57009e-18
8645.27549 4.59107e-18
8648.22030 4.54020e-18
8651.17521 4.71815e-18
8654.13011 4.87750e-18
8657.08502 4.80983e-18
8660.03992 4.74759e-18
8662.98474 4.78486e-18
8665.93965 4.79978e-18
8668.89455 4.66919e-18
8671.84946 4.61100e-18
8674.79428 4.57995e-18
8677.74919 4.57303e-18
8680.70409 4.61623e-18
8683.65899 4.63011e-18
8686.60381 4.60695e-18
8689.55872 4.61608e-18
8692.51362 4.64098e-18
8695.46853 4.60912e-18
8698.41335 4.60044e-18
8701.36825 4.69204e-18
8704.32316 4.75020e-18
8707.27806 4.67523e-18
8710.22288 4.50227e-18
8713.17779 4.37859e-18
8716.13270 4.38629e-18
8719.08760 4.46244e-18
8722.03242 4.59056e-18
8724.98733 4.72159e-18
8727.94223 4.67190e-18
8730.89713 4.54024e-18
8733.84195 4.55036e-18
8736.79686 4.62783e-18
8739.75176 4.67932e-18
8742.70667 4.64157e-18
8745.65149 4.49136e-18
8748.60640 4.37178e-18
8751.56130 4.42974e-18
8754.51620 4.44575e-18
8757.46102 4.35116e-18
8760.41593 4.22503e-18
8763.37083 4.09841e-18
8766.32574 4.18695e-18
8769.27056 4.40339e-18
8772.22547 4.44954e-18
8775.18037 4.40843e-18
8778.13527 4.44925e-18
8781.08009 4.54890e-18
8784.03500 4.34623e-18
8786.98991 3.97001e-18
8789.94481 3.63159e-18
8792.88963 3.36248e-18
8795.84453 3.47306e-18
8798.79944 3.86886e-18
8801.75434 4.10888e-18
8804.69916 4.20729e-18
8807.65407 4.32846e-18
8810.60897 4.40349e-18
8813.56388 4.32686e-18
8816.50870 4.30321e-18
8819.46360 4.33137e-18
8822.41851 4.13895e-18
8825.37342 4.09113e-18
8828.31823 4.20257e-18
8831.27314 4.19484e-18
8834.22804 4.14950e-18
8837.18295 4.08721e-18
8840.12777 4.10597e-18
8843.08267 4.32798e-18
8846.03758 4.39233e-18
8848.99248 4.14566e-18
8851.93730 4.10745e-18
8854.89221 4.28534e-18
8857.84712 4.20564e-18
8860.80202 4.11681e-18
8863.74684 4.09335e-18
8866.70174 4.03503e-18
8869.65665 3.94974e-18
8872.61155 3.81559e-18
8875.55638 3.78100e-18
8878.51128 3.89658e-18
8881.46618 3.90339e-18
8884.42109 3.78958e-18
8887.36591 3.86888e-18
8890.32081 3.99180e-18
8893.27572 3.98413e-18
8896.23063 4.02991e-18
8899.17544 3.93908e-18
8902.13035 3.79703e-18
8905.08525 3.68842e-18
8908.04016 3.71808e-18
8910.98498 3.81652e-18
8913.93988 3.72112e-18
8916.89479 3.49237e-18
8919.84969 3.44830e-18
8922.79451 3.63830e-18
8925.74942 3.76157e-18
8928.70433 3.70219e-18
8931.65923 3.69012e-18
8934.60405 3.68179e-18
8937.55895 3.65706e-18
8940.51386 3.65425e-18
8943.46876 3.51790e-18
8946.41359 3.43316e-18
8949.36849 3.44705e-18
8952.32340 3.46734e-18
8955.27830 3.40631e-18
8958.22312 3.29859e-18
8961.17802 3.39151e-18
8964.13293 3.57287e-18
8967.08784 3.65622e-18
8970.03265 3.62279e-18
8972.98756 3.44548e-18
8975.94247 3.29211e-18
8978.89737 3.10235e-18
8981.84219 2.97340e-18
8984.79709 3.01432e-18
8987.75200 3.19758e-18
8990.70690 3.21938e-18
8993.65172 3.16151e-18
8996.60663 3.27152e-18
8999.56153 0.00000e+00
