# wavelength flux
3319.87235 3.12694e-18
3321.86533 3.13520e-18
3323.86834 3.88799e-18
3325.87134 3.77385e-18
3327.86432 3.58857e-18
3329.86732 3.84910e-18
3331.87032 3.39950e-18
3333.86330 3.61373e-18
3335.86631 3.77136e-18
3337.86931 3.56380e-18
3339.86229 3.91677e-18
3341.86529 3.71158e-18
3343.86829 3.04586e-18
3345.87129 3.67313e-18
3347.86427 3.60530e-18
3349.86728 3.85062e-18
3351.87028 3.62422e-18
3353.86326 3.54788e-18
3355.86626 3.66704e-18
3357.86926 3.76972e-18
3359.86225 3.72388e-18
3361.86524 3.54981e-18
3363.86825 3.90891e-18
3365.86123 4.23150e-18
3367.86423 3.34553e-18
3369.86723 3.85219e-18
3371.87023 4.65287e-18
3373.86322 3.75437e-18
3375.86622 3.90611e-18
3377.86922 4.04143e-18
3379.86220 4.51655e-18
3381.86520 4.44583e-18
3383.86820 4.87384e-18
3385.86119 4.41327e-18
3387.86419 4.41698e-18
3389.86719 4.24506e-18
3391.86017 3.98127e-18
3393.86317 4.84782e-18
3395.86617 4.38000e-18
3397.86917 5.06445e-18
3399.86216 4.68413e-18
3401.86515 4.86466e-18
3403.86816 4.40416e-18
3405.86114 4.52857e-18
3407.86414 4.90903e-18
3409.86714 4.67581e-18
3411.86013 5.25498e-18
3413.86313 5.39764e-18
3415.86613 4.96229e-18
3417.85911 4.74886e-18
3419.86211 5.17127e-18
3421.86511 4.50656e-18
3423.86811 5.15080e-18
3425.86110 5.64102e-18
3427.86410 5.46714e-18
3429.86710 5.26327e-18
3431.86008 5.52223e-18
3433.86308 5.41224e-18
3435.86608 5.55671e-18
3437.85907 5.27935e-18
3439.86207 5.16991e-18
3441.86507 5.54639e-18
3443.85805 5.52720e-18
3445.86105 5.08177e-18
3447.86405 5.29170e-18
3449.86705 5.40257e-18
3451.86004 4.90907e-18
3453.86304 4.96886e-18
3455.86604 4.92178e-18
3457.85902 5.02239e-18
3459.86202 5.28548e-18
3461.86502 4.73948e-18
3463.85801 5.19928e-18
3465.86101 5.00014e-18
3467.86401 4.92279e-18
3469.85699 5.00480e-18
3471.85999 4.77230e-18
3473.86299 5.10492e-18
3475.86599 4.88793e-18
3477.85898 5.00963e-18
3479.86198 4.92743e-18
3481.86498 4.80384e-18
3483.85796 4.81287e-18
3485.86096 4.65165e-18
3487.86396 4.78517e-18
3489.85695 4.94229e-18
3491.85995 4.97550e-18
3493.86295 4.85152e-18
3495.85593 5.09342e-18
3497.85893 4.56089e-18
3499.86193 4.68099e-18
3501.86493 4.58872e-18
3503.85792 4.85747e-18
3505.86092 4.89835e-18
3507.86392 4.77064e-18
3509.85690 4.92082e-18
3511.85990 4.94005e-18
3513.86290 4.71521e-18
3515.85589 4.76764e-18
3517.85889 5.01897e-18
3519.86189 5.19578e-18
3521.85487 5.13145e-18
3523.85787 5.08391e-18
3525.86087 5.13287e-18
3527.86387 5.19882e-18
3529.85686 5.03219e-18
3531.85986 5.38438e-18
3533.86286 5.04205e-18
3535.85584 4.61911e-18
3537.85884 5.03647e-18
3539.86184 4.99899e-18
3541.85483 4.98958e-18
3543.85783 4.75717e-18
3545.86083 4.15687e-18
3547.85381 4.71831e-18
3549.85681 5.11933e-18
3551.85981 4.75206e-18
3553.86281 4.65252e-18
3555.85580 4.87201e-18
3557.85880 5.01954e-18
3559.86180 4.76388e-18
3561.85478 5.11112e-18
3563.85778 5.56768e-18
3565.86078 5.09313e-18
3567.85377 5.42485e-18
3569.85677 5.49009e-18
3571.85977 5.21651e-18
3573.85275 5.05529e-18
3575.85575 5.26698e-18
3577.85875 5.68461e-18
3579.86175 5.73719e-18
3581.85473 4.85254e-18
3583.85774 5.67798e-18
3585.86074 5.57711e-18
3587.85372 5.59645e-18
3589.85672 5.30999e-18
3591.85972 5.31169e-18
3593.85270 5.19843e-18
3595.85570 5.49610e-18
3597.85871 5.60934e-18
3599.85169 5.46275e-18
3601.85469 5.11364e-18
3603.85769 5.55189e-18
3605.86069 5.13634e-18
3607.85367 5.05869e-18
3609.85667 5.30542e-18
3611.85968 5.33813e-18
3613.85266 4.95254e-18
3615.85566 4.83510e-18
3617.85866 5.08261e-18
3619.85165 4.92809e-18
3621.85464 5.05038e-18
3623.85765 4.61630e-18
3625.85063 4.69452e-18
3627.85363 4.63243e-18
3629.85663 4.70911e-18
3631.85963 4.74535e-18
3633.85262 4.66114e-18
3635.85561 4.74029e-18
3637.85862 4.73968e-18
3639.85160 4.26602e-18
3641.85460 4.38586e-18
3643.85760 4.64884e-18
3645.85059 4.90520e-18
3647.85359 4.88358e-18
3649.85658 5.17217e-18
3651.84957 4.88645e-18
3653.85257 4.87682e-18
3655.85557 4.63225e-18
3657.85857 5.03964e-18
3659.85156 5.27419e-18
3661.85455 5.33024e-18
3663.85756 5.21474e-18
3665.85054 5.14546e-18
3667.85354 5.28893e-18
3669.85654 5.44466e-18
3671.84953 5.58522e-18
3673.85253 5.38990e-18
3675.85552 4.78362e-18
3677.84851 5.48056e-18
3679.85151 5.55809e-18
3681.85451 5.08035e-18
3683.85751 5.43263e-18
3685.85050 5.56215e-18
3687.85350 5.23221e-18
3689.85649 5.04624e-18
3691.84948 4.82164e-18
3693.85248 5.00931e-18
3695.85548 4.91434e-18
3697.84847 4.88664e-18
3699.85147 5.04014e-18
3701.85447 4.74542e-18
3703.84745 4.73387e-18
3705.85045 4.40883e-18
3707.85345 4.19251e-18
3709.85645 4.58671e-18
3711.84944 4.44965e-18
3713.85244 4.39109e-18
3715.85544 4.33255e-18
3717.84842 4.24603e-18
3719.85142 4.15951e-18
3721.85442 4.07301e-18
3723.84740 3.98652e-18
3725.85041 3.90005e-18
3727.85341 3.81360e-18
3729.84639 3.72714e-18
3731.84939 3.64071e-18
3733.85239 3.55429e-18
3735.85539 3.46788e-18
3737.84838 3.38150e-18
3739.85138 3.29511e-18
3741.85438 3.20874e-18
3743.84736 3.12238e-18
3745.85036 3.03604e-18
3747.85336 2.94972e-18
3749.84635 2.86339e-18
3751.84935 2.77709e-18
3753.85235 2.69080e-18
3755.84533 2.94096e-18
3757.84833 3.05151e-18
3759.85133 2.99926e-18
3761.85433 3.31688e-18
3763.84732 3.29227e-18
3765.85032 3.16664e-18
3767.85332 3.25455e-18
3769.84630 3.00549e-18
3771.84930 2.68416e-18
3773.85230 2.71301e-18
3775.84529 2.45487e-18
3777.84829 2.74676e-18
3779.85129 2.85908e-18
3781.84427 2.81400e-18
3783.84727 3.20632e-18
3785.85027 3.44335e-18
3787.85327 3.42030e-18
3789.84626 3.36970e-18
3791.84926 3.42093e-18
3793.85226 3.37474e-18
3795.84524 3.00340e-18
3797.84824 2.88052e-18
3799.85124 2.88365e-18
3801.84423 2.57630e-18
3803.84723 2.60055e-18
3805.85023 2.86059e-18
3807.85323 3.17272e-18
3809.84621 3.66705e-18
3811.84921 3.73117e-18
3813.85221 3.86419e-18
3815.84520 4.17037e-18
3817.84820 4.27114e-18
3819.85120 4.18703e-18
3821.84418 4.15502e-18
3823.84718 4.14083e-18
3825.85018 4.08931e-18
3827.84317 4.35693e-18
3829.84617 4.34956e-18
3831.84917 4.42433e-18
3833.84215 4.43836e-18
3835.84515 4.50040e-18
3837.84815 4.66883e-18
3839.85115 4.62991e-18
3841.84414 4.67203e-18
3843.84714 4.84625e-18
3845.85014 5.39127e-18
3847.84312 6.24286e-18
3849.84612 6.47082e-18
3851.84912 6.19384e-18
3853.84211 6.90622e-18
3855.84511 7.21522e-18
3857.84811 7.28442e-18
3859.84109 7.35349e-18
3861.84409 7.34549e-18
3863.84709 8.41646e-18
3865.85009 8.65244e-18
3867.84308 8.63896e-18
3869.84608 8.74266e-18
3871.84908 9.07583e-18
3873.84206 9.26228e-18
3875.84506 9.59397e-18
3877.84806 9.57146e-18
3879.84105 9.60038e-18
3881.84405 1.00550e-17
3883.84705 1.00121e-17
3885.84003 1.01022e-17
3887.84303 1.02727e-17
3889.84603 1.01378e-17
3891.84903 1.02050e-17
3893.84202 1.02322e-17
3895.84502 1.03216e-17
3897.84802 1.04605e-17
3899.84100 1.05765e-17
3901.84400 1.08676e-17
3903.84700 1.13276e-17
3905.83999 1.15897e-17
3907.84299 1.15513e-17
3909.84598 1.14606e-17
3911.84899 1.15376e-17
3913.84197 1.17078e-17
3915.84497 1.19582e-17
3917.84797 1.18244e-17
3919.84096 1.19132e-17
3921.84395 1.18373e-17
3923.84695 1.17910e-17
3925.83994 1.21756e-17
3927.84294 1.21866e-17
3929.84594 1.18754e-17
3931.83893 1.20057e-17
3933.84193 1.13355e-17
3935.84492 1.14385e-17
3937.84793 9.96090e-18
3939.84091 1.07688e-17
3941.84391 1.15433e-17
3943.84691 1.21966e-17
3945.83990 1.24703e-17
3947.84290 1.27887e-17
3949.84589 1.26108e-17
3951.83888 1.23517e-17
3953.84188 1.25287e-17
3955.84488 1.22158e-17
3957.83786 1.22423e-17
3959.84087 1.21926e-17
3961.84387 1.21209e-17
3963.84686 1.23742e-17
3965.83985 1.25595e-17
3967.84285 1.26349e-17
3969.84585 1.19654e-17
3971.83884 1.10873e-17
3973.84184 1.10332e-17
3975.84483 1.16963e-17
3977.83782 1.18958e-17
3979.84082 1.22654e-17
3981.84382 1.24390e-17
3983.83680 1.25951e-17
3985.83981 1.30678e-17
3987.84281 1.31580e-17
3989.83579 1.31662e-17
3991.83879 1.30512e-17
3993.84179 1.32827e-17
3995.84479 1.30515e-17
3997.83777 1.35965e-17
3999.84078 1.35840e-17
4001.84378 1.35678e-17
4003.83676 1.34586e-17
4005.83976 1.37136e-17
4007.84276 1.37525e-17
4009.83575 1.38083e-17
4011.83875 1.39126e-17
4013.84175 1.39242e-17
4015.84475 1.41519e-17
4017.83773 1.37951e-17
4019.84073 1.38222e-17
4021.84373 1.39221e-17
4023.83672 1.38146e-17
4025.83972 1.37603e-17
4027.84272 1.36519e-17
4029.83570 1.39377e-17
4031.83870 1.39933e-17
4033.84170 1.36354e-17
4035.83469 1.37659e-17
4037.83769 1.38051e-17
4039.84069 1.36407e-17
4041.84369 1.33715e-17
4043.83667 1.35223e-17
4045.83967 1.38442e-17
4047.84267 1.36203e-17
4049.83566 1.31720e-17
4051.83866 1.29631e-17
4053.84166 1.27385e-17
4055.83464 1.26878e-17
4057.83764 1.25310e-17
4059.84064 1.24811e-17
4061.83363 1.24551e-17
4063.83663 1.22084e-17
4065.83963 1.21583e-17
4067.84263 1.22009e-17
4069.83561 1.21652e-17
4071.83861 1.19940e-17
4073.84161 1.18429e-17
4075.83460 1.17523e-17
4077.83760 1.14737e-17
4079.84060 1.16731e-17
4081.83358 1.16461e-17
4083.83658 1.14457e-17
4085.83958 1.14762e-17
4087.83257 1.15121e-17
4089.83557 1.13184e-17
4091.83857 1.10447e-17
4093.84157 1.08917e-17
4095.83455 1.10617e-17
4097.83755 1.08084e-17
4099.84055 1.08178e-17
4101.83354 1.06791e-17
4103.83653 1.01231e-17
4105.83954 1.00757e-17
4107.83252 1.03315e-17
4109.83552 9.77261e-18
4111.83852 9.66875e-18
4113.83151 9.63716e-18
4115.83451 9.45174e-18
4117.83751 9.49084e-18
4119.84051 9.64752e-18
4121.83349 9.79651e-18
4123.83649 9.78906e-18
4125.83949 9.62018e-18
4127.83248 9.49975e-18
4129.83547 9.95030e-18
4131.83847 9.69638e-18
4133.83146 9.83655e-18
4135.83446 9.50196e-18
4137.83746 9.51307e-18
4139.83045 9.76641e-18
4141.83345 9.80790e-18
4143.83644 9.95419e-18
4145.82943 9.44312e-18
4147.83243 9.58236e-18
4149.83543 9.53086e-18
4151.83843 9.39486e-18
4153.83141 9.76403e-18
4155.83442 9.75630e-18
4157.83741 9.69560e-18
4159.83040 9.58436e-18
4161.83340 9.48019e-18
4163.83640 9.47045e-18
4165.82939 9.25251e-18
4167.83239 9.18496e-18
4169.83539 9.57211e-18
4171.83839 9.26561e-18
4173.83137 8.98556e-18
4175.83437 9.12331e-18
4177.83737 9.06334e-18
4179.83036 9.13316e-18
4181.83335 9.17632e-18
4183.83636 9.13923e-18
4185.82934 8.97130e-18
4187.83234 9.40846e-18
4189.83534 9.19528e-18
4191.82833 8.91169e-18
4193.83133 9.22690e-18
4195.83433 9.47808e-18
4197.83733 9.12563e-18
4199.83031 9.05475e-18
4201.83331 9.30185e-18
4203.83631 9.37521e-18
4205.82929 9.75116e-18
4207.83230 9.30684e-18
4209.83529 9.34416e-18
4211.82828 9.44035e-18
4213.83128 9.35718e-18
4215.83428 9.53666e-18
4217.82727 9.76129e-18
4219.83027 9.72470e-18
4221.83327 9.97602e-18
4223.83627 1.00423e-17
4225.82925 9.96851e-18
4227.83225 9.96709e-18
4229.83525 9.96161e-18
4231.82823 9.93894e-18
4233.83123 9.84417e-18
4235.83424 1.00183e-17
4237.82722 1.00268e-17
4239.83022 1.01380e-17
4241.83322 9.98657e-18
4243.82621 1.01431e-17
4245.82921 1.00326e-17
4247.83221 1.01967e-17
4249.83521 1.01414e-17
4251.82819 1.03416e-17
4253.83119 1.00217e-17
4255.83419 1.00302e-17
4257.82718 1.04345e-17
4259.83018 1.01204e-17
4261.83317 9.93015e-18
4263.82616 1.00736e-17
4265.82916 9.95484e-18
4267.83216 9.83024e-18
4269.82515 1.00309e-17
4271.82815 9.80826e-18
4273.83115 9.82176e-18
4275.83415 1.00982e-17
4277.82713 1.00198e-17
4279.83013 1.01004e-17
4281.83313 1.01057e-17
4283.82611 9.93806e-18
4285.82912 1.01313e-17
4287.83212 9.88763e-18
4289.82510 1.03023e-17
4291.82810 1.03621e-17
4293.83110 1.02378e-17
4295.82409 1.00458e-17
4297.82709 9.96125e-18
4299.83009 1.01987e-17
4301.83309 1.05246e-17
4303.82607 1.03671e-17
4305.82907 1.05172e-17
4307.83207 1.05523e-17
4309.82506 1.05662e-17
4311.82805 1.05586e-17
4313.83106 1.04513e-17
4315.82404 1.06384e-17
4317.82704 1.06668e-17
4319.83004 1.04156e-17
4321.82303 1.01918e-17
4323.82603 1.02011e-17
4325.82903 1.05001e-17
4327.83203 1.05752e-17
4329.82501 1.05779e-17
4331.82801 1.02873e-17
4333.83101 1.00884e-17
4335.82399 1.00143e-17
4337.82700 9.83964e-18
4339.83000 9.52657e-18
4341.82298 9.59176e-18
4343.82598 9.61113e-18
4345.82898 9.89678e-18
4347.82197 1.02374e-17
4349.82497 9.65973e-18
4351.82797 9.65385e-18
4353.83097 9.64797e-18
4355.82395 9.64209e-18
4357.82695 9.63621e-18
4359.82995 9.63033e-18
4361.82294 9.62445e-18
4363.82593 9.61857e-18
4365.82894 9.61269e-18
4367.82192 9.60681e-18
4369.82492 9.60093e-18
4371.82792 9.59505e-18
4373.82091 9.58917e-18
4375.82391 9.58329e-18
4377.82691 9.57741e-18
4379.82991 9.57153e-18
4381.82289 9.56565e-18
4383.82589 9.55977e-18
4385.82889 9.55389e-18
4387.82188 9.54801e-18
4389.82488 9.31738e-18
4391.82787 9.20224e-18
4393.82086 9.14027e-18
4395.82386 8.98187e-18
4397.82686 9.10888e-18
4399.81984 8.96375e-18
4401.82284 9.25683e-18
4403.82584 9.19908e-18
4405.82885 8.92256e-18
4407.82183 9.25252e-18
4409.82483 9.23668e-18
4411.82783 9.27907e-18
4413.82082 9.33750e-18
4415.82382 9.36406e-18
4417.82682 9.06171e-18
4419.81980 9.12934e-18
4421.82280 8.90533e-18
4423.82580 8.99943e-18
4425.81878 9.04333e-18
4427.82179 9.29924e-18
4429.82478 9.14479e-18
4431.82778 9.03528e-18
4433.82077 9.38224e-18
4435.82377 9.26179e-18
4437.82677 9.35588e-18
4439.81976 9.59694e-18
4441.82276 9.42324e-18
4443.82576 9.26050e-18
4445.81874 9.41751e-18
4447.82174 9.81861e-18
4449.82474 9.80964e-18
4451.81772 9.91145e-18
4453.82072 1.01276e-17
4455.82373 1.02672e-17
4457.82672 1.02723e-17
4459.81971 1.04029e-17
4461.82271 1.06634e-17
4463.82571 1.07133e-17
4465.81869 1.09372e-17
4467.82170 1.12074e-17
4469.82470 1.15093e-17
4471.81768 1.14344e-17
4473.82068 1.17133e-17
4475.82368 1.17624e-17
4477.81667 1.19903e-17
4479.81966 1.23115e-17
4481.82266 1.24449e-17
4483.82567 1.25285e-17
4485.81865 1.24456e-17
4487.82165 1.28974e-17
4489.82465 1.28996e-17
4491.81764 1.33660e-17
4493.82064 1.38517e-17
4495.82364 1.40135e-17
4497.81662 1.41223e-17
4499.81962 1.43755e-17
4501.82262 1.44077e-17
4503.81560 1.45247e-17
4505.81861 1.46866e-17
4507.82161 1.47906e-17
4509.82460 1.50365e-17
4511.81759 1.52537e-17
4513.82059 1.53665e-17
4515.82359 1.56937e-17
4517.81658 1.60768e-17
4519.81958 1.60697e-17
4521.82258 1.62027e-17
4523.81556 1.62753e-17
4525.81856 1.63134e-17
4527.82156 1.65358e-17
4529.81455 1.67420e-17
4531.81754 1.68556e-17
4533.82054 1.65901e-17
4535.82355 1.69381e-17
4537.81653 1.71436e-17
4539.81953 1.74764e-17
4541.82253 1.74929e-17
4543.81552 1.76420e-17
4545.81852 1.78089e-17
4547.82152 1.77871e-17
4549.81450 1.79999e-17
4551.81750 1.79794e-17
4553.82050 1.80971e-17
4555.81348 1.83330e-17
4557.81649 1.83875e-17
4559.81948 1.84685e-17
4561.82248 1.86860e-17
4563.81547 1.88581e-17
4565.81847 1.94360e-17
4567.82147 1.96609e-17
4569.81446 1.97517e-17
4571.81746 1.97572e-17
4573.82046 1.96940e-17
4575.81344 1.95819e-17
4577.81644 1.90717e-17
4579.81944 1.94795e-17
4581.81243 1.96872e-17
4583.81542 2.00021e-17
4585.81843 2.00208e-17
4587.82143 1.98666e-17
4589.81441 1.98477e-17
4591.81741 2.00171e-17
4593.82041 1.98166e-17
4595.81340 1.97454e-17
4597.81640 1.99998e-17
4599.81940 1.95478e-17
4601.81238 2.00299e-17
4603.81538 1.98267e-17
4605.81838 2.00806e-17
4607.82138 2.04027e-17
4609.81437 2.04988e-17
4611.81736 2.00543e-17
4613.82037 1.98241e-17
4615.81335 1.96919e-17
4617.81635 1.97542e-17
4619.81935 2.02648e-17
4621.81234 2.03278e-17
4623.81534 1.98992e-17
4625.81834 1.98085e-17
4627.81132 1.98419e-17
4629.81432 1.97613e-17
4631.81732 1.96149e-17
4633.82032 1.95927e-17
4635.81331 1.92804e-17
4637.81631 1.89873e-17
4639.81930 1.92557e-17
4641.81229 1.92112e-17
4643.81529 1.89139e-17
4645.81829 1.90757e-17
4647.81128 1.94006e-17
4649.81428 1.90607e-17
4651.81728 1.90462e-17
4653.81026 1.90326e-17
4655.81326 1.85443e-17
4657.81626 1.84331e-17
4659.80925 1.85336e-17
4661.81225 1.84350e-17
4663.81524 1.78655e-17
4665.81825 1.75262e-17
4667.81123 1.76142e-17
4669.81423 1.75810e-17
4671.81723 1.74480e-17
4673.81022 1.74681e-17
4675.81322 1.74291e-17
4677.81622 1.72955e-17
4679.80920 1.70023e-17
4681.81220 1.69196e-17
4683.81520 1.63803e-17
4685.80818 1.67245e-17
4687.81119 1.66618e-17
4689.81419 1.62540e-17
4691.81718 1.62960e-17
4693.81017 1.61998e-17
4695.81317 1.60795e-17
4697.81617 1.59719e-17
4699.80916 1.59838e-17
4701.81216 1.56087e-17
4703.81516 1.54428e-17
4705.80814 1.53082e-17
4707.81114 1.51138e-17
4709.81414 1.50399e-17
4711.80713 1.49802e-17
4713.81012 1.50266e-17
4715.81313 1.49084e-17
4717.81613 1.46663e-17
4719.80911 1.48908e-17
4721.81211 1.42898e-17
4723.81511 1.44051e-17
4725.80809 1.40941e-17
4727.81110 1.41981e-17
4729.81409 1.44640e-17
4731.80708 1.43883e-17
4733.81008 1.42419e-17
4735.81308 1.40725e-17
4737.80607 1.39685e-17
4739.80907 1.37210e-17
4741.81207 1.37039e-17
4743.81507 1.36487e-17
4745.80805 1.35497e-17
4747.81105 1.35326e-17
4749.81405 1.32531e-17
4751.80703 1.29395e-17
4753.81003 1.30761e-17
4755.81304 1.29880e-17
4757.80602 1.27186e-17
4759.80902 1.26691e-17
4761.81202 1.25257e-17
4763.80501 1.21039e-17
4765.80801 1.18202e-17
4767.81101 1.19560e-17
4769.81401 1.19635e-17
4771.80699 1.15857e-17
4773.80999 1.11764e-17
4775.81299 1.09736e-17
4777.80598 1.10419e-17
4779.80897 1.10592e-17
4781.81197 1.11114e-17
4783.80496 1.12327e-17
4785.80796 1.11995e-17
4787.81096 1.11619e-17
4789.80395 1.10870e-17
4791.80695 1.10889e-17
4793.80994 1.09170e-17
4795.81295 1.09417e-17
4797.80593 1.07316e-17
4799.80893 1.10100e-17
4801.81193 1.09572e-17
4803.80491 1.08217e-17
4805.80792 1.10102e-17
4807.81092 1.10246e-17
4809.80390 1.09858e-17
4811.80690 1.12855e-17
4813.80990 1.16010e-17
4815.81290 1.13510e-17
4817.80589 1.13795e-17
4819.80889 1.17255e-17
4821.81189 1.17309e-17
4823.80487 1.17169e-17
4825.80787 1.17133e-17
4827.81087 1.17284e-17
4829.80386 1.18667e-17
4831.80685 1.21731e-17
4833.80986 1.24108e-17
4835.80284 1.24762e-17
4837.80584 1.22993e-17
4839.80884 1.21159e-17
4841.81184 1.20885e-17
4843.80483 1.21824e-17
4845.80783 1.23565e-17
4847.81083 1.21540e-17
4849.80381 1.18465e-17
4851.80681 1.18670e-17
4853.80981 1.18876e-17
4855.80279 1.19081e-17
4857.80580 1.19287e-17
4859.80879 1.19492e-17
4861.80178 1.19697e-17
4863.80478 1.19903e-17
4865.80778 1.20108e-17
4867.81078 1.20313e-17
4869.80377 1.20519e-17
4871.80677 1.20724e-17
4873.80977 1.20929e-17
4875.80275 1.21134e-17
4877.80575 1.21339e-17
4879.80875 1.21544e-17
4881.80174 1.21749e-17
4883.80473 1.21954e-17
4885.80774 1.22160e-17
4887.80072 1.22365e-17
4889.80372 1.23230e-17
4891.80672 1.23125e-17
4893.80972 1.24586e-17
4895.80271 1.27530e-17
4897.80571 1.29909e-17
4899.80871 1.29307e-17
4901.80169 1.31037e-17
4903.80469 1.30414e-17
4905.80769 1.32498e-17
4907.80068 1.34695e-17
4909.80368 1.35653e-17
4911.80667 1.38538e-17
4913.79966 1.41865e-17
4915.80266 1.42670e-17
4917.80566 1.43048e-17
4919.80866 1.45452e-17
4921.80165 1.48041e-17
4923.80465 1.49550e-17
4925.80765 1.50745e-17
4927.80063 1.52156e-17
4929.80363 1.54453e-17
4931.80663 1.56536e-17
4933.79961 1.56424e-17
4935.80262 1.56157e-17
4937.80562 1.59490e-17
4939.79860 1.62332e-17
4941.80160 1.60143e-17
4943.80460 1.60269e-17
4945.80760 1.62044e-17
4947.80059 1.63163e-17
4949.80359 1.62511e-17
4951.80659 1.61859e-17
4953.79957 1.61208e-17
4955.80257 1.60556e-17
4957.80557 1.59905e-17
4959.79856 1.59253e-17
4961.80156 1.58602e-17
4963.80456 1.57950e-17
4965.79754 1.57299e-17
4967.80054 1.56648e-17
4969.80354 1.55997e-17
4971.79653 1.55346e-17
4973.79953 1.54695e-17
4975.80253 1.54044e-17
4977.80553 1.53394e-17
4979.79851 1.52743e-17
4981.80151 1.52092e-17
4983.80451 1.51442e-17
4985.79749 1.50792e-17
4987.80050 1.49697e-17
4989.80350 1.46271e-17
4991.79648 1.43358e-17
4993.79948 1.43334e-17
4995.80248 1.37124e-17
4997.80548 1.35890e-17
4999.79847 1.34656e-17
5001.80147 1.33423e-17
5003.80447 1.32189e-17
5005.79745 1.30956e-17
5007.80045 1.29723e-17
5009.80345 1.28490e-17
5011.79644 1.27257e-17
5013.79943 1.26025e-17
5015.80244 1.24792e-17
5017.79542 1.23560e-17
5019.79842 1.22328e-17
5021.80142 1.21095e-17
5023.80442 1.19864e-17
5025.79741 1.18632e-17
5027.80041 1.17400e-17
5029.80341 1.16169e-17
5031.79639 1.14938e-17
5033.79939 1.13707e-17
5035.80239 1.10397e-17
5037.79538 1.11825e-17
5039.79838 1.12874e-17
5041.80138 1.11786e-17
5043.79436 1.11630e-17
5045.79736 1.12327e-17
5047.80036 1.13107e-17
5049.80336 1.14225e-17
5051.79634 1.14228e-17
5053.79934 1.14172e-17
5055.80235 1.16470e-17
5057.79533 1.17392e-17
5059.79833 1.17361e-17
5061.80133 1.20996e-17
5063.79432 1.22133e-17
5065.79732 1.20010e-17
5067.80032 1.23374e-17
5069.79330 1.22349e-17
5071.79630 1.22166e-17
5073.79930 1.26450e-17
5075.80230 1.28525e-17
5077.79529 1.27830e-17
5079.79828 1.30852e-17
5081.80128 1.31374e-17
5083.79427 1.32324e-17
5085.79727 1.35173e-17
5087.80027 1.34667e-17
5089.79326 1.34514e-17
5091.79626 1.36915e-17
5093.79926 1.36437e-17
5095.79224 1.38999e-17
5097.79524 1.41553e-17
5099.79824 1.38868e-17
5101.80124 1.40907e-17
5103.79422 1.39781e-17
5105.79723 1.41846e-17
5107.80022 1.44500e-17
5109.79321 1.44076e-17
5111.79621 1.45597e-17
5113.79921 1.44395e-17
5115.79219 1.45773e-17
5117.79520 1.46134e-17
5119.79820 1.47247e-17
5121.79118 1.47970e-17
5123.79418 1.48063e-17
5125.79718 1.48675e-17
5127.80018 1.46932e-17
5129.79317 1.46363e-17
5131.79616 1.47808e-17
5133.79917 1.50172e-17
5135.79215 1.49054e-17
5137.79515 1.50279e-17
5139.79815 1.49473e-17
5141.79114 1.51230e-17
5143.79414 1.52775e-17
5145.79714 1.52780e-17
5147.79012 1.53812e-17
5149.79312 1.55147e-17
5151.79612 1.53814e-17
5153.79912 1.51699e-17
5155.79211 1.50125e-17
5157.79511 1.51948e-17
5159.79810 1.56094e-17
5161.79109 1.53799e-17
5163.79409 1.52295e-17
5165.79709 1.52703e-17
5167.79008 1.54652e-17
5169.79308 1.57571e-17
5171.79608 1.58582e-17
5173.78906 1.57251e-17
5175.79206 1.57326e-17
5177.79506 1.56040e-17
5179.79806 1.53275e-17
5181.79104 1.55638e-17
5183.79404 1.59270e-17
5185.79705 1.60893e-17
5187.79003 1.61257e-17
5189.79303 1.60254e-17
5191.79603 1.59175e-17
5193.78902 1.60639e-17
5195.79202 1.63361e-17
5197.79502 1.62655e-17
5199.78800 1.63775e-17
5201.79100 1.65970e-17
5203.79400 1.64399e-17
5205.79700 1.64292e-17
5207.78999 1.65655e-17
5209.79299 1.66733e-17
5211.79598 1.66560e-17
5213.78897 1.66007e-17
5215.79197 1.66912e-17
5217.79497 1.69384e-17
5219.78796 1.70285e-17
5221.79096 1.70020e-17
5223.79396 1.70171e-17
5225.78694 1.70867e-17
5227.78994 1.71797e-17
5229.79294 1.72852e-17
5231.79594 1.74148e-17
5233.78892 1.75085e-17
5235.79193 1.75342e-17
5237.79493 1.76559e-17
5239.78791 1.79403e-17
5241.79091 1.81487e-17
5243.79391 1.81126e-17
5245.78690 1.79455e-17
5247.78990 1.79411e-17
5249.79290 1.79974e-17
5251.78588 1.81046e-17
5253.78888 1.83236e-17
5255.79188 1.84904e-17
5257.79488 1.85650e-17
5259.78787 1.86056e-17
5261.79086 1.86721e-17
5263.79387 1.87452e-17
5265.78685 1.87964e-17
5267.78985 1.88340e-17
5269.79285 1.88603e-17
5271.78584 1.88310e-17
5273.78884 1.88502e-17
5275.79184 1.90183e-17
5277.78482 1.92855e-17
5279.78782 1.94611e-17
5281.79082 1.96862e-17
5283.79382 1.97099e-17
5285.78681 1.95172e-17
5287.78981 1.93269e-17
5289.79281 1.91191e-17
5291.78579 1.89697e-17
5293.78879 1.92093e-17
5295.79179 1.99081e-17
5297.78478 2.01361e-17
5299.78778 2.00607e-17
5301.79078 2.00414e-17
5303.78376 2.00834e-17
5305.78676 2.01195e-17
5307.78976 2.01137e-17
5309.79276 2.00793e-17
5311.78575 2.00658e-17
5313.78874 2.00261e-17
5315.79175 2.00596e-17
5317.78473 2.01958e-17
5319.78773 2.03013e-17
5321.79073 2.03088e-17
5323.78372 2.02737e-17
5325.78672 2.02882e-17
5327.78972 2.03370e-17
5329.78270 2.03465e-17
5331.78570 2.02931e-17
5333.78870 2.03102e-17
5335.79170 2.04312e-17
5337.78469 2.05854e-17
5339.78769 2.07090e-17
5341.79068 2.08419e-17
5343.78367 2.08799e-17
5345.78667 2.08440e-17
5347.78967 2.07757e-17
5349.78266 2.06504e-17
5351.78566 2.05121e-17
5353.78866 2.03869e-17
5355.78164 2.02599e-17
5357.78464 2.01219e-17
5359.78764 1.99138e-17
5361.79064 1.98483e-17
5363.78363 1.99335e-17
5365.78663 1.99700e-17
5367.78963 1.99190e-17
5369.78261 1.98299e-17
5371.78561 1.97307e-17
5373.78861 1.95959e-17
5375.78159 1.95096e-17
5377.78460 1.94749e-17
5379.78759 1.94004e-17
5381.78058 1.92950e-17
5383.78358 1.91643e-17
5385.78658 1.89860e-17
5387.78958 1.87700e-17
5389.78257 1.86865e-17
5391.78557 1.86928e-17
5393.78857 1.87351e-17
5395.78155 1.89010e-17
5397.78455 1.89895e-17
5399.78755 1.89418e-17
5401.78053 1.88092e-17
5403.78353 1.86086e-17
5405.78654 1.82484e-17
5407.77952 1.81222e-17
5409.78252 1.81347e-17
5411.78552 1.82080e-17
5413.78852 1.84370e-17
5415.78151 1.86243e-17
5417.78451 1.85241e-17
5419.78751 1.82207e-17
5421.78049 1.81161e-17
5423.78349 1.80378e-17
5425.78649 1.81102e-17
5427.77948 1.84151e-17
5429.78247 1.86691e-17
5431.78547 1.87382e-17
5433.78848 1.87231e-17
5435.78146 1.87516e-17
5437.78446 1.87449e-17
5439.78746 1.88261e-17
5441.78045 1.89719e-17
5443.78345 1.91426e-17
5445.78645 1.93675e-17
5447.77943 1.95877e-17
5449.78243 1.97082e-17
5451.78543 1.97566e-17
5453.77841 1.98370e-17
5455.78142 1.98911e-17
5457.78442 1.99973e-17
5459.77740 2.01835e-17
5461.78040 2.03474e-17
5463.78340 2.04242e-17
5465.78640 2.04531e-17
5467.77939 2.05021e-17
5469.78239 2.05720e-17
5471.78539 2.05784e-17
5473.77837 2.05449e-17
5475.78137 2.04746e-17
5477.78437 2.03317e-17
5479.77736 2.01822e-17
5481.78035 2.01672e-17
5483.78335 2.02838e-17
5485.77634 2.02221e-17
5487.77934 1.99954e-17
5489.78234 1.98641e-17
5491.78534 1.98319e-17
5493.77833 1.98180e-17
5495.78133 1.97928e-17
5497.78433 1.97722e-17
5499.77731 1.96195e-17
5501.78031 1.93071e-17
5503.78331 1.90834e-17
5505.77629 1.89202e-17
5507.77930 1.87241e-17
5509.78229 1.84233e-17
5511.77528 1.81113e-17
5513.77828 1.80072e-17
5515.78128 1.81405e-17
5517.78428 1.79948e-17
5519.77727 1.76028e-17
5521.78027 1.73419e-17
5523.78327 1.72661e-17
5525.77625 1.72065e-17
5527.77925 1.70272e-17
5529.78225 1.67886e-17
5531.77524 1.65051e-17
5533.77823 1.61346e-17
5535.78124 1.57990e-17
5537.77422 1.54313e-17
5539.77722 1.51381e-17
5541.78022 1.50122e-17
5543.78322 1.49650e-17
5545.77621 1.47412e-17
5547.77921 1.43560e-17
5549.78221 1.41109e-17
5551.77519 1.39674e-17
5553.77819 1.37751e-17
5555.78119 1.35054e-17
5557.77418 1.32148e-17
5559.77718 1.29473e-17
5561.78017 1.26702e-17
5563.77316 1.24922e-17
5565.77616 1.24373e-17
5567.77916 1.23181e-17
5569.78216 1.21638e-17
5571.77515 1.19791e-17
5573.77815 1.17569e-17
5575.78115 1.15025e-17
5577.77413 1.12424e-17
5579.77713 1.09183e-17
5581.78013 1.06964e-17
5583.77311 1.05407e-17
5585.77612 1.04175e-17
5587.77912 1.03334e-17
5589.77210 1.02720e-17
5591.77510 1.01934e-17
5593.77810 1.01190e-17
5595.78110 1.00182e-17
5597.77409 9.89983e-18
5599.77709 9.76627e-18
5601.78009 9.61636e-18
5603.77307 9.45226e-18
5605.77607 9.27398e-18
5607.77907 9.08124e-18
5609.77206 8.88772e-18
5611.77506 8.66094e-18
5613.77805 8.49308e-18
5615.77104 8.37101e-18
5617.77404 8.26765e-18
5619.77704 8.20162e-18
5621.78004 8.13846e-18
5623.77303 7.96129e-18
5625.77603 7.65934e-18
5627.77903 7.48140e-18
5629.77201 7.33705e-18
5631.77501 7.26843e-18
5633.77801 7.31452e-18
5635.77099 7.38524e-18
5637.77400 7.39694e-18
5639.77700 7.39261e-18
5641.77999 7.30299e-18
5643.77298 7.10417e-18
5645.77598 6.94864e-18
5647.77898 6.78147e-18
5649.77197 6.66267e-18
5651.77497 6.63395e-18
5653.77797 6.66041e-18
5655.77095 6.66472e-18
5657.77395 6.70004e-18
5659.77695 6.67182e-18
5661.76994 6.58461e-18
5663.77293 6.50731e-18
5665.77594 6.42953e-18
5667.77894 6.37270e-18
5669.77192 6.38752e-18
5671.77492 6.46538e-18
5673.77792 6.50942e-18
5675.77091 6.55670e-18
5677.77391 6.58899e-18
5679.77691 6.60445e-18
5681.76989 6.61488e-18
5683.77289 6.62120e-18
5685.77589 6.62438e-18
5687.76888 6.65914e-18
5689.77188 6.71912e-18
5691.77488 6.78406e-18
5693.77788 6.87632e-18
5695.77086 6.94947e-18
5697.77386 6.99655e-18
5699.77686 7.02373e-18
5701.76984 7.02029e-18
5703.77284 6.96214e-18
5705.77585 7.00575e-18
5707.76883 7.13431e-18
5709.77183 7.24841e-18
5711.77483 7.36241e-18
5713.76782 7.46833e-18
5715.77082 7.55057e-18
5717.77382 7.61610e-18
5719.77682 7.69135e-18
5721.76980 7.75082e-18
5723.77280 7.84898e-18
5725.77580 7.98107e-18
5727.76879 8.12338e-18
5729.77178 8.28345e-18
5731.77478 8.44442e-18
5733.76777 8.53913e-18
5735.77077 8.54602e-18
5737.77377 8.67341e-18
5739.76676 8.89195e-18
5741.76976 9.09918e-18
5743.77275 9.31503e-18
5745.77576 9.50801e-18
5747.76874 9.61930e-18
5749.77174 9.66353e-18
5751.77474 9.78403e-18
5753.76772 9.93969e-18
5755.77073 1.01099e-17
5757.77373 1.02816e-17
5759.76671 1.04990e-17
5761.76971 1.08113e-17
5763.77271 1.11700e-17
5765.76570 1.14079e-17
5767.76870 1.15628e-17
5769.77170 1.17226e-17
5771.76468 1.18360e-17
5773.76768 1.19757e-17
5775.77068 1.21630e-17
5777.77368 1.23573e-17
5779.76667 1.25081e-17
5781.76966 1.26264e-17
5783.77267 1.27873e-17
5785.76565 1.29737e-17
5787.76865 1.31631e-17
5789.77165 1.33656e-17
5791.76464 1.35654e-17
5793.76764 1.37487e-17
5795.77064 1.39237e-17
5797.76362 1.41150e-17
5799.76662 1.43001e-17
5801.76962 1.45253e-17
5803.77262 1.48200e-17
5805.76560 1.50659e-17
5807.76861 1.52148e-17
5809.77160 1.53347e-17
5811.76459 1.55251e-17
5813.76759 1.57585e-17
5815.77059 1.59694e-17
5817.76358 1.61846e-17
5819.76658 1.63847e-17
5821.76958 1.65848e-17
5823.76256 1.67554e-17
5825.76556 1.68471e-17
5827.76856 1.68784e-17
5829.77156 1.70575e-17
5831.76454 1.73718e-17
5833.76754 1.76277e-17
5835.77055 1.78895e-17
5837.76353 1.81113e-17
5839.76653 1.82600e-17
5841.76953 1.83739e-17
5843.76252 1.85365e-17
5845.76552 1.87412e-17
5847.76852 1.88793e-17
5849.77152 1.89592e-17
5851.76450 1.90545e-17
5853.76750 1.91768e-17
5855.77050 1.92939e-17
5857.76349 1.93671e-17
5859.76649 1.94019e-17
5861.76948 1.95349e-17
5863.76247 1.98281e-17
5865.76547 1.99354e-17
5867.76847 1.98623e-17
5869.76146 1.97743e-17
5871.76446 1.97266e-17
5873.76746 1.96927e-17
5875.77046 1.97354e-17
5877.76344 1.99088e-17
5879.76644 1.99273e-17
5881.76944 1.98668e-17
5883.76242 1.97540e-17
5885.76543 1.96372e-17
5887.76843 1.94231e-17
5889.76141 1.89544e-17
5891.76441 1.82490e-17
5893.76741 1.76497e-17
5895.76040 1.69762e-17
5897.76340 1.64494e-17
5899.76640 1.59561e-17
5901.76940 1.56886e-17
5903.76238 1.58157e-17
5905.76538 1.62376e-17
5907.76838 1.66608e-17
5909.76137 1.74085e-17
5911.76436 1.77349e-17
5913.76737 1.76480e-17
5915.76035 1.77068e-17
5917.76335 1.80994e-17
5919.76635 1.85818e-17
5921.75934 1.88396e-17
5923.76234 1.89739e-17
5925.76534 1.91096e-17
5927.76834 1.91804e-17
5929.76132 1.92701e-17
5931.76432 1.94145e-17
5933.76732 1.95119e-17
5935.76030 1.94555e-17
5937.76331 1.92890e-17
5939.76631 1.92555e-17
5941.75929 1.93391e-17
5943.76229 1.93200e-17
5945.76529 1.91785e-17
5947.75828 1.91088e-17
5949.76128 1.92053e-17
5951.76428 1.93726e-17
5953.76728 1.94488e-17
5955.76026 1.95333e-17
5957.76326 1.94618e-17
5959.76626 1.91350e-17
5961.75925 1.89965e-17
5963.76224 1.91410e-17
5965.76525 1.93257e-17
5967.75823 1.93171e-17
5969.76123 1.92045e-17
5971.76423 1.91437e-17
5973.75722 1.90833e-17
5975.76022 1.90232e-17
5977.76322 1.89691e-17
5979.76622 1.89067e-17
5981.75920 1.88304e-17
5983.76220 1.87434e-17
5985.76520 1.86409e-17
5987.75819 1.84828e-17
5989.76119 1.84230e-17
5991.76418 1.84648e-17
5993.75717 1.84673e-17
5995.76017 1.83973e-17
5997.76317 1.83133e-17
5999.75616 1.82828e-17
6001.75916 1.82962e-17
6003.76216 1.82259e-17
6005.76516 1.80955e-17
6007.75814 1.79598e-17
6009.76114 1.77817e-17
6011.76414 1.76312e-17
6013.75713 1.75695e-17
6015.76013 1.75612e-17
6017.76313 1.74988e-17
6019.75611 1.74083e-17
6021.75911 1.73287e-17
6023.76211 1.72570e-17
6025.75509 1.71715e-17
6027.75810 1.70659e-17
6029.76109 1.69476e-17
6031.76409 1.68186e-17
6033.75708 1.66534e-17
6035.76008 1.65805e-17
6037.76308 1.66135e-17
6039.75607 1.65886e-17
6041.75907 1.64768e-17
6043.76207 1.63810e-17
6045.75505 1.64026e-17
6047.75805 1.65015e-17
6049.76105 1.64528e-17
6051.75403 1.62657e-17
6053.75703 1.61614e-17
6055.76004 1.60986e-17
6057.76303 1.60472e-17
6059.75602 1.60052e-17
6061.75902 1.59695e-17
6063.76202 1.59113e-17
6065.75500 1.58257e-17
6067.75801 1.57794e-17
6069.76101 1.57813e-17
6071.75399 1.57456e-17
6073.75699 1.56175e-17
6075.75999 1.55205e-17
6077.75298 1.56092e-17
6079.75598 1.55058e-17
6081.75897 1.54025e-17
6083.76198 1.52994e-17
6085.75496 1.51964e-17
6087.75796 1.51859e-17
6089.76096 1.52312e-17
6091.75395 1.52766e-17
6093.75695 1.52660e-17
6095.75995 1.53329e-17
6097.75293 1.51241e-17
6099.75593 1.50406e-17
6101.75893 1.49380e-17
6103.75191 1.48886e-17
6105.75492 1.49321e-17
6107.75792 1.49953e-17
6109.76091 1.49732e-17
6111.75390 1.48951e-17
6113.75690 1.48576e-17
6115.75990 1.48179e-17
6117.75289 1.48139e-17
6119.75589 1.48573e-17
6121.75889 1.49063e-17
6123.75187 1.49372e-17
6125.75487 1.49619e-17
6127.75787 1.49670e-17
6129.75086 1.49735e-17
6131.75385 1.49268e-17
6133.75685 1.47911e-17
6135.75986 1.47067e-17
6137.75284 1.47058e-17
6139.75584 1.47562e-17
6141.75884 1.48533e-17
6143.75183 1.50518e-17
6145.75483 1.50811e-17
6147.75783 1.49632e-17
6149.75081 1.48877e-17
6151.75381 1.48276e-17
6153.75681 1.48043e-17
6155.74979 1.48587e-17
6157.75280 1.49745e-17
6159.75580 1.50775e-17
6161.75879 1.52175e-17
6163.75178 1.53129e-17
6165.75478 1.53529e-17
6167.75778 1.54171e-17
6169.75077 1.55485e-17
6171.75377 1.57043e-17
6173.75677 1.57993e-17
6175.74975 1.58361e-17
6177.75275 1.59376e-17
6179.75575 1.61174e-17
6181.74874 1.62256e-17
6183.75173 1.62139e-17
6185.75474 1.61947e-17
6187.75774 1.62985e-17
6189.75072 1.64889e-17
6191.75372 1.65544e-17
6193.75672 1.65082e-17
6195.74971 1.65309e-17
6197.75271 1.66059e-17
6199.75571 1.66881e-17
6201.74869 1.67655e-17
6203.75169 1.68424e-17
6205.75469 1.68876e-17
6207.74768 1.68752e-17
6209.75068 1.69387e-17
6211.75367 1.70764e-17
6213.75668 1.71801e-17
6215.74966 1.72365e-17
6217.75266 1.72644e-17
6219.75566 1.72667e-17
6221.74865 1.72381e-17
6223.75165 1.72061e-17
6225.75465 1.71513e-17
6227.74763 1.71070e-17
6229.75063 1.70727e-17
6231.75363 1.70382e-17
6233.74662 1.70024e-17
6235.74962 1.69652e-17
6237.75262 1.68965e-17
6239.75562 1.67931e-17
6241.74860 1.67013e-17
6243.75160 1.66019e-17
6245.75460 1.65134e-17
6247.74759 1.64404e-17
6249.75059 1.63785e-17
6251.75359 1.63242e-17
6253.74657 1.62755e-17
6255.74957 1.62491e-17
6257.75257 1.62575e-17
6259.75557 1.62468e-17
6261.74856 1.62260e-17
6263.75155 1.61854e-17
6265.75456 1.61021e-17
6267.74754 1.59827e-17
6269.75054 1.59182e-17
6271.75354 1.58887e-17
6273.74653 1.58586e-17
6275.74953 1.58417e-17
6277.75253 1.58234e-17
6279.74551 1.57996e-17
6281.74851 1.57725e-17
6283.75151 1.57358e-17
6285.74449 1.56612e-17
6287.74750 1.56755e-17
6289.75050 1.57848e-17
6291.75349 1.58576e-17
6293.74648 1.59163e-17
6295.74948 1.59222e-17
6297.75248 1.57916e-17
6299.74547 1.55380e-17
6301.74847 1.53851e-17
6303.75147 1.52391e-17
6305.74445 1.51656e-17
6307.74745 1.51783e-17
6309.75045 1.52110e-17
6311.74344 1.52389e-17
6313.74644 1.52732e-17
6315.74944 1.52774e-17
6317.75244 1.52471e-17
6319.74542 1.52447e-17
6321.74842 1.52612e-17
6323.75142 1.52698e-17
6325.74441 1.52579e-17
6327.74741 1.52477e-17
6329.75041 1.52746e-17
6331.74339 1.53391e-17
6333.74639 1.53447e-17
6335.74939 1.53126e-17
6337.74238 1.52727e-17
6339.74538 1.51985e-17
6341.74838 1.51437e-17
6343.75138 1.51459e-17
6345.74436 1.51859e-17
6347.74736 1.52633e-17
6349.75036 1.54260e-17
6351.74334 1.55138e-17
6353.74634 1.55571e-17
6355.74935 1.55908e-17
6357.74233 1.56039e-17
6359.74533 1.56208e-17
6361.74833 1.57237e-17
6363.74132 1.59415e-17
6365.74432 1.59730e-17
6367.74732 1.58430e-17
6369.75032 1.57600e-17
6371.74330 1.57193e-17
6373.74630 1.56924e-17
6375.74930 1.56709e-17
6377.74229 1.56590e-17
6379.74528 1.56509e-17
6381.74828 1.56623e-17
6383.74127 1.56479e-17
6385.74427 1.56138e-17
6387.74727 1.55711e-17
6389.74026 1.55032e-17
6391.74326 1.54355e-17
6393.74626 1.54670e-17
6395.74926 1.56055e-17
6397.74224 1.56677e-17
6399.74524 1.57016e-17
6401.74824 1.57287e-17
6403.74122 1.57455e-17
6405.74423 1.57581e-17
6407.74723 1.57746e-17
6409.74021 1.57875e-17
6411.74321 1.58328e-17
6413.74621 1.59263e-17
6415.73920 1.59803e-17
6417.74220 1.60131e-17
6419.74520 1.60196e-17
6421.74820 1.59825e-17
6423.74118 1.59176e-17
6425.74418 1.58972e-17
6427.74718 1.58638e-17
6429.74017 1.59290e-17
6431.74316 1.61145e-17
6433.74617 1.62646e-17
6435.73915 1.63624e-17
6437.74215 1.64270e-17
6439.74515 1.64428e-17
6441.73814 1.63938e-17
6443.74114 1.64204e-17
6445.74414 1.65330e-17
6447.74714 1.65606e-17
6449.74012 1.64978e-17
6451.74312 1.64125e-17
6453.74612 1.63204e-17
6455.73910 1.62151e-17
6457.74211 1.62667e-17
6459.74510 1.65519e-17
6461.73809 1.66150e-17
6463.74109 1.65256e-17
6465.74409 1.64249e-17
6467.74709 1.63362e-17
6469.74008 1.62469e-17
6471.74308 1.61917e-17
6473.74608 1.61788e-17
6475.73906 1.61028e-17
6477.74206 1.59507e-17
6479.74506 1.58603e-17
6481.73805 1.58325e-17
6483.74104 1.58406e-17
6485.74405 1.58781e-17
6487.73703 1.59515e-17
6489.74003 1.59979e-17
6491.74303 1.60412e-17
6493.74603 1.60722e-17
6495.73902 1.61017e-17
6497.74202 1.61068e-17
6499.74502 1.60654e-17
6501.73800 1.60019e-17
6503.74100 1.59861e-17
6505.74400 1.60259e-17
6507.73699 1.59848e-17
6509.73999 1.58759e-17
6511.74298 1.57817e-17
6513.73597 1.56903e-17
6515.73897 1.56235e-17
6517.74197 1.56327e-17
6519.74497 1.57111e-17
6521.73796 1.57209e-17
6523.74096 1.56818e-17
6525.74396 1.56740e-17
6527.73694 1.57032e-17
6529.73994 1.57189e-17
6531.74294 1.56939e-17
6533.73592 1.56451e-17
6535.73893 1.55941e-17
6537.74193 1.55251e-17
6539.73491 1.54663e-17
6541.73791 1.53867e-17
6543.74091 1.53026e-17
6545.74391 1.52185e-17
6547.73690 1.51344e-17
6549.73990 1.50504e-17
6551.74290 1.49663e-17
6553.73588 1.48822e-17
6555.73888 1.47982e-17
6557.74188 1.47141e-17
6559.73487 1.46301e-17
6561.73787 1.45460e-17
6563.74087 1.44620e-17
6565.73385 1.43780e-17
6567.73685 1.42940e-17
6569.73985 1.42099e-17
6571.74285 1.41259e-17
6573.73584 1.40419e-17
6575.73884 1.39579e-17
6577.74184 1.38739e-17
6579.73482 1.37899e-17
6581.73782 1.37059e-17
6583.74082 1.36219e-17
6585.73380 1.35379e-17
6587.73681 1.34539e-17
6589.73981 1.33700e-17
6591.73279 1.32860e-17
6593.73579 1.32020e-17
6595.73879 1.31181e-17
6597.73178 1.30341e-17
6599.73478 1.29502e-17
6601.73778 1.28662e-17
6603.74078 1.27823e-17
6605.73376 1.30575e-17
6607.73676 1.32784e-17
6609.73976 1.33829e-17
6611.73275 1.34260e-17
6613.73574 1.35135e-17
6615.73875 1.36127e-17
6617.73173 1.36979e-17
6619.73473 1.37651e-17
6621.73773 1.38487e-17
6623.73072 1.39679e-17
6625.73372 1.40823e-17
6627.73672 1.41569e-17
6629.73972 1.42243e-17
6631.73270 1.41335e-17
6633.73570 1.38080e-17
6635.73870 1.36484e-17
6637.73169 1.36229e-17
6639.73469 1.36338e-17
6641.73769 1.36570e-17
6643.73067 1.36992e-17
6645.73367 1.36598e-17
6647.73667 1.35433e-17
6649.72966 1.34590e-17
6651.73266 1.33809e-17
6653.73566 1.32920e-17
6655.73866 1.31698e-17
6657.73164 1.30547e-17
6659.73464 1.30174e-17
6661.73764 1.30400e-17
6663.73063 1.30567e-17
6665.73363 1.31275e-17
6667.73663 1.31309e-17
6669.72961 1.30730e-17
6671.73261 1.29760e-17
6673.73561 1.28407e-17
6675.73861 1.26668e-17
6677.73160 1.25223e-17
6679.73459 1.23527e-17
6681.73759 1.22618e-17
6683.73058 1.22427e-17
6685.73358 1.22403e-17
6687.73658 1.22649e-17
6689.72957 1.22892e-17
6691.73257 1.22129e-17
6693.73557 1.20406e-17
6695.72855 1.19329e-17
6697.73155 1.18306e-17
6699.73455 1.17627e-17
6701.73755 1.17364e-17
6703.73053 1.17310e-17
6705.73354 1.17382e-17
6707.73654 1.17682e-17
6709.72952 1.17225e-17
6711.73252 1.16150e-17
6713.73552 1.15078e-17
6715.72851 1.13664e-17
6717.73151 1.12450e-17
6719.73451 1.11658e-17
6721.72749 1.11137e-17
6723.73049 1.10838e-17
6725.73349 1.11023e-17
6727.73649 1.10732e-17
6729.72948 1.10172e-17
6731.73247 1.09579e-17
6733.73548 1.08742e-17
6735.72846 1.08085e-17
6737.73146 1.08320e-17
6739.73446 1.09320e-17
6741.72745 1.09603e-17
6743.73045 1.09540e-17
6745.73345 1.09482e-17
6747.72643 1.09322e-17
6749.72943 1.09175e-17
6751.73243 1.09148e-17
6753.73543 1.09169e-17
6755.72842 1.08998e-17
6757.73142 1.08293e-17
6759.73441 1.08518e-17
6761.72740 1.09624e-17
6763.73040 1.10538e-17
6765.73340 1.11258e-17
6767.72639 1.11673e-17
6769.72939 1.11163e-17
6771.73239 1.09659e-17
6773.72537 1.09047e-17
6775.72837 1.08738e-17
6777.73137 1.08711e-17
6779.73437 1.09421e-17
6781.72735 1.09804e-17
6783.73035 1.08846e-17
6785.73336 1.07040e-17
6787.72634 1.06181e-17
6789.72934 1.05743e-17
6791.73234 1.05415e-17
6793.72533 1.05410e-17
6795.72833 1.05368e-17
6797.73133 1.05076e-17
6799.72431 1.04800e-17
6801.72731 1.05114e-17
6803.73031 1.06250e-17
6805.73331 1.06111e-17
6807.72630 1.05039e-17
6809.72930 1.03944e-17
6811.73229 1.02756e-17
6813.72528 1.01499e-17
6815.72828 1.00296e-17
6817.73128 9.90945e-18
6819.72427 9.78262e-18
6821.72727 9.60053e-18
6823.73027 9.52817e-18
6825.72325 9.56676e-18
6827.72625 9.62042e-18
6829.72925 9.67085e-18
6831.73225 9.71846e-18
6833.72523 9.67602e-18
6835.72824 9.53944e-18
6837.73124 9.45004e-18
6839.72422 9.34631e-18
6841.72722 9.28385e-18
6843.73022 9.29072e-18
6845.72321 9.30959e-18
6847.72621 9.26393e-18
6849.72921 9.17211e-18
6851.72219 9.14812e-18
6853.72519 9.12642e-18
6855.72819 9.19724e-18
6857.73119 9.41336e-18
6859.72418 9.60572e-18
6861.72717 9.69022e-18
6863.73018 9.71057e-18
6865.72316 9.62800e-18
6867.72616 9.36255e-18
6869.72916 9.23406e-18
6871.72215 9.16059e-18
6873.72515 9.11027e-18
6875.72815 9.07838e-18
6877.72113 9.06974e-18
6879.72413 9.08304e-18
6881.72713 9.11624e-18
6883.73013 9.18337e-18
6885.72312 9.31181e-18
6887.72612 9.40335e-18
6889.72912 9.45777e-18
6891.72210 9.50275e-18
6893.72510 9.55621e-18
6895.72810 9.60951e-18
6897.72109 9.64274e-18
6899.72409 9.66818e-18
6901.72709 9.66775e-18
6903.72007 9.60019e-18
6905.72307 9.58959e-18
6907.72607 9.70142e-18
6909.72907 9.85926e-18
6911.72206 9.92692e-18
6913.72505 9.96688e-18
6915.72806 9.93249e-18
6917.72104 9.75620e-18
6919.72404 9.68329e-18
6921.72704 9.73455e-18
6923.72003 9.83086e-18
6925.72303 9.91618e-18
6927.72603 1.00157e-17
6929.71901 1.01297e-17
6931.72201 1.02644e-17
6933.72501 1.03995e-17
6935.72801 1.05532e-17
6937.72100 1.06892e-17
6939.72400 1.08120e-17
6941.72699 1.09067e-17
6943.71998 1.08719e-17
6945.72298 1.06941e-17
6947.72598 1.05691e-17
6949.71897 1.04075e-17
6951.72197 1.02993e-17
6953.72497 1.02489e-17
6955.71795 1.02475e-17
6957.72095 1.02988e-17
6959.72395 1.04007e-17
6961.72695 1.05574e-17
6963.71994 1.08413e-17
6965.72294 1.10186e-17
6967.72594 1.11424e-17
6969.71892 1.11774e-17
6971.72192 1.10624e-17
6973.72492 1.08421e-17
6975.71791 1.07352e-17
6977.72091 1.06564e-17
6979.72391 1.06325e-17
6981.71689 1.06490e-17
6983.71989 1.07241e-17
6985.72289 1.09068e-17
6987.72589 1.11106e-17
6989.71888 1.11714e-17
6991.72188 1.11429e-17
6993.72488 1.10938e-17
6995.71786 1.09718e-17
6997.72086 1.08710e-17
6999.72386 1.07909e-17
7001.71684 1.07076e-17
7003.71984 1.05857e-17
7005.72285 1.04395e-17
7007.71583 1.04534e-17
7009.71883 1.06643e-17
7011.72183 1.07399e-17
7013.72483 1.07654e-17
7015.71782 1.07357e-17
7017.72082 1.06173e-17
7019.72382 1.04598e-17
7021.71680 1.04002e-17
7023.71980 1.04308e-17
7025.72280 1.03508e-17
7027.71579 1.01371e-17
7029.71879 1.00430e-17
7031.72178 1.00881e-17
7033.71477 1.01981e-17
7035.71777 1.03406e-17
7037.72077 1.05451e-17
7039.72377 1.06158e-17
7041.71676 1.05729e-17
7043.71976 1.05619e-17
7045.72276 1.05600e-17
7047.71574 1.05481e-17
7049.71874 1.05110e-17
7051.72174 1.04642e-17
7053.71472 1.04599e-17
7055.71773 1.05134e-17
7057.72073 1.04938e-17
7059.71371 1.03982e-17
7061.71671 1.03482e-17
7063.71971 1.03687e-17
7065.72271 1.04112e-17
7067.71570 1.04310e-17
7069.71870 1.04498e-17
7071.72170 1.04466e-17
7073.71468 1.03679e-17
7075.71768 1.04037e-17
7077.72068 1.05907e-17
7079.71367 1.07625e-17
7081.71666 1.08161e-17
7083.71966 1.08108e-17
7085.71265 1.08332e-17
7087.71565 1.08593e-17
7089.71865 1.08667e-17
7091.72165 1.08462e-17
7093.71464 1.08414e-17
7095.71764 1.08656e-17
7097.72064 1.09004e-17
7099.71362 1.09245e-17
7101.71662 1.09510e-17
7103.71962 1.09547e-17
7105.71260 1.09076e-17
7107.71561 1.09202e-17
7109.71861 1.09951e-17
7111.71159 1.10978e-17
7113.71459 1.12352e-17
7115.71759 1.14085e-17
7117.72059 1.13896e-17
7119.71358 1.11291e-17
7121.71658 1.10496e-17
7123.71958 1.10848e-17
7125.71256 1.11319e-17
7127.71556 1.11734e-17
7129.71856 1.12145e-17
7131.71155 1.12081e-17
7133.71454 1.11234e-17
7135.71755 1.11760e-17
7137.71053 1.13450e-17
7139.71353 1.14959e-17
7141.71653 1.16649e-17
7143.71953 1.17888e-17
7145.71252 1.17594e-17
7147.71552 1.16029e-17
7149.71852 1.15942e-17
7151.71150 1.16332e-17
7153.71450 1.17492e-17
7155.71750 1.19679e-17
7157.71049 1.22074e-17
7159.71349 1.24674e-17
7161.71648 1.27274e-17
7163.70947 1.28045e-17
7165.71247 1.27759e-17
7167.71547 1.26038e-17
7169.71847 1.21665e-17
7171.71146 1.18484e-17
7173.71446 1.16631e-17
7175.71746 1.15914e-17
7177.71044 1.17026e-17
7179.71344 1.20093e-17
7181.71644 1.22012e-17
7183.70943 1.23136e-17
7185.71243 1.25496e-17
7187.71543 1.29800e-17
7189.70841 1.33528e-17
7191.71141 1.35160e-17
7193.71441 1.35531e-17
7195.71741 1.35271e-17
7197.71040 1.33336e-17
7199.71340 1.32523e-17
7201.71640 1.32024e-17
7203.70938 1.31883e-17
7205.71238 1.32183e-17
7207.71538 1.32783e-17
7209.70837 1.33443e-17
7211.71137 1.34339e-17
7213.71436 1.35036e-17
7215.70735 1.34846e-17
7217.71035 1.36290e-17
7219.71335 1.40004e-17
7221.71635 1.43898e-17
7223.70934 1.46483e-17
7225.71234 1.48485e-17
7227.71534 1.49541e-17
7229.70832 1.49797e-17
7231.71132 1.49189e-17
7233.71432 1.47074e-17
7235.70730 1.45223e-17
7237.71031 1.44113e-17
7239.71331 1.43433e-17
7241.70629 1.43392e-17
7243.70929 1.44079e-17
7245.71229 1.44747e-17
7247.71529 1.45629e-17
7249.70828 1.46709e-17
7251.71128 1.48270e-17
7253.71428 1.49705e-17
7255.70726 1.50292e-17
7257.71026 1.50304e-17
7259.71326 1.50321e-17
7261.70625 1.50414e-17
7263.70925 1.49734e-17
7265.71225 1.48130e-17
7267.70523 1.46436e-17
7269.70823 1.45013e-17
7271.71123 1.43636e-17
7273.71423 1.42201e-17
7275.70722 1.40082e-17
7277.71022 1.39746e-17
7279.71322 1.40908e-17
7281.70620 1.42266e-17
7283.70920 1.44162e-17
7285.71220 1.45880e-17
7287.70519 1.45899e-17
7289.70819 1.44476e-17
7291.71119 1.44343e-17
7293.70417 1.44875e-17
7295.70717 1.45279e-17
7297.71017 1.45912e-17
7299.71317 1.46204e-17
7301.70616 1.45562e-17
7303.70916 1.44352e-17
7305.71216 1.44047e-17
7307.70514 1.44311e-17
7309.70814 1.44529e-17
7311.71114 1.45746e-17
7313.70413 1.45539e-17
7315.70713 1.42927e-17
7317.71013 1.39260e-17
7319.71313 1.36279e-17
7321.70611 1.32492e-17
7323.70911 1.32165e-17
7325.71211 1.35504e-17
7327.70510 1.37796e-17
7329.70809 1.39456e-17
7331.71109 1.40634e-17
7333.70408 1.41121e-17
7335.70708 1.41018e-17
7337.71008 1.40371e-17
7339.70307 1.39436e-17
7341.70607 1.37325e-17
7343.70907 1.33470e-17
7345.71207 1.29965e-17
7347.70505 1.27289e-17
7349.70805 1.25215e-17
7351.71105 1.24450e-17
7353.70403 1.25318e-17
7355.70704 1.25265e-17
7357.71004 1.24779e-17
7359.70302 1.24720e-17
7361.70602 1.25135e-17
7363.70902 1.25846e-17
7365.70201 1.26931e-17
7367.70501 1.28529e-17
7369.70801 1.28725e-17
7371.71101 1.27564e-17
7373.70399 1.26934e-17
7375.70699 1.26370e-17
7377.70999 1.26102e-17
7379.70298 1.26365e-17
7381.70597 1.26962e-17
7383.70898 1.27336e-17
7385.70196 1.27643e-17
7387.70496 1.28055e-17
7389.70796 1.28604e-17
7391.70095 1.29053e-17
7393.70395 1.29518e-17
7395.70695 1.29767e-17
7397.69993 1.29406e-17
7399.70293 1.28621e-17
7401.70593 1.27263e-17
7403.70893 1.25143e-17
7405.70191 1.23009e-17
7407.70492 1.20411e-17
7409.70791 1.18170e-17
7411.70090 1.16893e-17
7413.70390 1.16248e-17
7415.70690 1.15769e-17
7417.69989 1.15528e-17
7419.70289 1.15824e-17
7421.70589 1.16572e-17
7423.69887 1.17776e-17
7425.70187 1.19594e-17
7427.70487 1.21753e-17
7429.70787 1.23773e-17
7431.70086 1.26298e-17
7433.70385 1.26962e-17
7435.70686 1.26005e-17
7437.69984 1.24955e-17
7439.70284 1.23761e-17
7441.70584 1.22202e-17
7443.69883 1.20101e-17
7445.70183 1.17513e-17
7447.70483 1.15296e-17
7449.69781 1.13229e-17
7451.70081 1.11084e-17
7453.70381 1.08577e-17
7455.70681 1.06609e-17
7457.69980 1.05462e-17
7459.70280 1.04936e-17
7461.70579 1.05029e-17
7463.69878 1.05814e-17
7465.70178 1.06981e-17
7467.70478 1.08906e-17
7469.69777 1.10752e-17
7471.70077 1.13074e-17
7473.70377 1.14764e-17
7475.69675 1.14136e-17
7477.69975 1.11609e-17
7479.70275 1.10665e-17
7481.70575 1.11100e-17
7483.69873 1.09893e-17
7485.70174 1.07328e-17
7487.70474 1.04189e-17
7489.69772 1.00437e-17
7491.70072 9.62813e-18
7493.70372 9.36198e-18
7495.69671 9.16842e-18
7497.69971 9.07625e-18
7499.70271 9.12715e-18
7501.70571 9.17677e-18
7503.69869 9.20981e-18
7505.70169 9.24870e-18
7507.70469 9.29694e-18
7509.69768 9.35413e-18
7511.70068 9.41343e-18
7513.70368 9.43830e-18
7515.69666 9.54989e-18
7517.69966 9.76477e-18
7519.70266 9.99957e-18
7521.69565 1.02344e-17
7523.69865 1.04744e-17
7525.70165 1.05203e-17
7527.70465 1.03992e-17
7529.69763 1.02552e-17
7531.70063 1.00024e-17
7533.70363 9.76934e-18
7535.69661 9.58457e-18
7537.69962 9.42085e-18
7539.70262 9.27223e-18
7541.69560 9.15724e-18
7543.69860 8.99281e-18
7545.70160 8.75954e-18
7547.69459 8.59529e-18
7549.69759 8.49127e-18
7551.70059 8.43795e-18
7553.70359 8.45742e-18
7555.69657 8.54641e-18
7557.69957 8.52333e-18
7559.70257 8.40755e-18
7561.69556 8.33752e-18
7563.69855 8.25603e-18
7565.70156 8.22871e-18
7567.69454 8.31800e-18
7569.69754 8.45073e-18
7571.70054 8.43943e-18
7573.69353 8.33960e-18
7575.69653 8.21434e-18
7577.69953 7.97116e-18
7579.70253 7.82677e-18
7581.69551 7.78685e-18
7583.69851 7.82336e-18
7585.70151 7.93704e-18
7587.69450 8.13281e-18
7589.69750 8.35575e-18
7591.70050 8.67701e-18
7593.69348 8.92572e-18
7595.69648 9.18483e-18
7597.69948 9.32708e-18
7599.69247 9.30715e-18
7601.69547 9.14233e-18
7603.69847 8.72380e-18
7605.70147 7.79888e-18
7607.69445 7.42009e-18
7609.69745 7.26948e-18
7611.70045 7.36311e-18
7613.69344 7.83052e-18
7615.69644 8.42338e-18
7617.69944 8.75408e-18
7619.69242 8.99996e-18
7621.69542 9.04513e-18
7623.69842 8.80866e-18
7625.69141 8.66015e-18
7627.69441 8.56470e-18
7629.69741 8.47913e-18
7631.70041 8.38060e-18
7633.69339 8.28228e-18
7635.69639 8.25807e-18
7637.69939 8.26923e-18
7639.69238 8.35900e-18
7641.69538 8.57824e-18
7643.69838 8.75413e-18
7645.69136 8.83842e-18
7647.69436 8.88290e-18
7649.69736 8.92391e-18
7651.69034 8.89828e-18
7653.69334 9.05239e-18
7655.69635 9.38530e-18
7657.69934 9.66678e-18
7659.69233 9.91112e-18
7661.69533 1.01325e-17
7663.69833 1.03378e-17
7665.69132 1.05288e-17
7667.69432 1.05924e-17
7669.69732 1.05542e-17
7671.69030 1.04565e-17
7673.69330 1.02297e-17
7675.69630 1.00324e-17
7677.68929 9.90864e-18
7679.69229 9.83533e-18
7681.69528 9.85860e-18
7683.69829 1.00126e-17
7685.69127 1.00836e-17
7687.69427 1.01035e-17
7689.69727 1.01694e-17
7691.69026 1.02661e-17
7693.69326 1.04192e-17
7695.69626 1.06719e-17
7697.68924 1.10037e-17
7699.69224 1.14296e-17
7701.69524 1.20509e-17
7703.68822 1.25273e-17
7705.69123 1.29075e-17
7707.69423 1.32302e-17
7709.69722 1.35282e-17
7711.69021 1.37721e-17
7713.69321 1.38358e-17
7715.69621 1.37214e-17
7717.68920 1.35840e-17
7719.69220 1.33603e-17
7721.69520 1.31007e-17
7723.68818 1.28006e-17
7725.69118 1.24722e-17
7727.69418 1.21524e-17
7729.68717 1.18369e-17
7731.69016 1.14561e-17
7733.69316 1.08993e-17
7735.69617 1.05814e-17
7737.68915 1.05366e-17
7739.69215 1.05440e-17
7741.69515 1.04526e-17
7743.68814 1.03417e-17
7745.69114 1.03686e-17
7747.69414 1.04365e-17
7749.68712 1.06863e-17
7751.69012 1.11575e-17
7753.69312 1.16371e-17
7755.68610 1.21164e-17
7757.68911 1.25720e-17
7759.69211 1.28704e-17
7761.69510 1.31169e-17
7763.68809 1.30491e-17
7765.69109 1.25850e-17
7767.69409 1.22211e-17
7769.68708 1.19019e-17
7771.69008 1.16572e-17
7773.69308 1.15635e-17
7775.68606 1.15888e-17
7777.68906 1.16524e-17
7779.69206 1.18437e-17
7781.68505 1.19584e-17
7783.68804 1.20895e-17
7785.69105 1.21148e-17
7787.69405 1.19614e-17
7789.68703 1.16990e-17
7791.69003 1.14603e-17
7793.69303 1.11088e-17
7795.68602 1.09999e-17
7797.68902 1.10301e-17
7799.69202 1.11872e-17
7801.68500 1.15495e-17
7803.68800 1.19540e-17
7805.69100 1.21793e-17
7807.68399 1.22970e-17
7809.68699 1.25376e-17
7811.68998 1.28436e-17
7813.69299 1.31579e-17
7815.68597 1.35950e-17
7817.68897 1.38928e-17
7819.69197 1.39016e-17
7821.68496 1.37157e-17
7823.68796 1.34443e-17
7825.69096 1.29897e-17
7827.68394 1.25592e-17
7829.68694 1.20312e-17
7831.68994 1.15778e-17
7833.68293 1.12131e-17
7835.68593 1.09237e-17
7837.68893 1.07360e-17
7839.69193 1.06547e-17
7841.68491 1.05803e-17
7843.68791 1.05574e-17
7845.69091 1.05456e-17
7847.68390 1.05710e-17
7849.68690 1.05842e-17
7851.68990 1.05217e-17
7853.68288 1.04178e-17
7855.68588 1.04789e-17
7857.68888 1.06070e-17
7859.68187 1.08903e-17
7861.68487 1.13750e-17
7863.68786 1.18696e-17
7865.69087 1.23531e-17
7867.68385 1.28240e-17
7869.68685 1.32001e-17
7871.68985 1.35449e-17
7873.68284 1.37056e-17
7875.68584 1.37237e-17
7877.68884 1.36179e-17
7879.68182 1.33712e-17
7881.68482 1.30190e-17
7883.68782 1.25760e-17
7885.68080 1.20257e-17
7887.68381 1.15562e-17
7889.68681 1.10621e-17
7891.68980 1.06818e-17
7893.68279 1.03747e-17
7895.68579 1.01650e-17
7897.68879 1.00936e-17
7899.68178 1.01110e-17
7901.68478 1.00619e-17
7903.68778 9.95768e-18
7905.68076 9.98526e-18
7907.68376 1.00600e-17
7909.68676 1.02643e-17
7911.67975 1.06882e-17
7913.68275 1.11418e-17
7915.68575 1.14166e-17
7917.68875 1.16288e-17
7919.68173 1.15438e-17
7921.68473 1.10078e-17
7923.68773 1.07568e-17
7925.68072 1.07789e-17
7927.68372 1.07695e-17
7929.68672 1.05532e-17
7931.67970 1.02461e-17
7933.68270 1.00835e-17
7935.68570 1.00150e-17
7937.67869 9.92211e-18
7939.68169 9.84087e-18
7941.68469 9.76821e-18
7943.68769 9.68929e-18
7945.68067 9.63149e-18
7947.68367 9.65524e-18
7949.68667 9.77534e-18
7951.67966 9.74823e-18
7953.68266 9.66403e-18
7955.68566 9.48298e-18
7957.67864 9.10102e-18
7959.68164 8.77798e-18
7961.68464 8.73381e-18
7963.67763 8.85627e-18
7965.68063 8.84758e-18
7967.68363 8.71415e-18
7969.68663 8.77911e-18
7971.67961 9.05179e-18
7973.68261 9.27393e-18
7975.68561 9.36473e-18
7977.67860 9.40661e-18
7979.68160 9.48607e-18
7981.68459 9.58835e-18
7983.67758 9.62396e-18
7985.68058 9.63709e-18
7987.68358 9.57823e-18
7989.67657 9.43766e-18
7991.67957 9.24559e-18
7993.68257 9.01263e-18
7995.68557 8.72618e-18
7997.67855 8.52062e-18
7999.68155 8.30081e-18
8001.68455 8.23030e-18
8003.67753 8.32815e-18
8005.68054 8.44855e-18
8007.68354 8.55328e-18
8009.67652 8.65780e-18
8011.67952 8.69618e-18
8013.68252 8.67252e-18
8015.67551 8.66808e-18
8017.67851 8.68892e-18
8019.68151 8.64573e-18
8021.68451 8.47883e-18
8023.67749 8.31341e-18
8025.68049 8.31567e-18
8027.68349 8.44199e-18
8029.67648 8.45014e-18
8031.67947 8.37062e-18
8033.68248 8.35727e-18
8035.67546 8.39356e-18
8037.67846 8.45262e-18
8039.68146 8.55317e-18
8041.67445 8.67262e-18
8043.67745 8.63435e-18
8045.68045 8.47138e-18
8047.68345 8.28811e-18
8049.67643 8.03580e-18
8051.67943 7.76565e-18
8053.68243 7.45872e-18
8055.67541 7.15515e-18
8057.67842 6.94471e-18
8059.68142 6.80474e-18
8061.67440 6.65204e-18
8063.67740 6.48667e-18
8065.68040 6.38982e-18
8067.67339 6.35895e-18
8069.67639 6.37551e-18
8071.67939 6.44085e-18
8073.68239 6.55415e-18
8075.67537 6.63551e-18
8077.67837 6.70335e-18
8079.68137 6.78798e-18
8081.67436 6.89045e-18
8083.67735 6.98624e-18
8085.68036 7.10273e-18
8087.67334 7.19089e-18
8089.67634 7.10711e-18
8091.67934 6.85546e-18
8093.67233 6.67878e-18
8095.67533 6.45283e-18
8097.67833 6.32630e-18
8099.68133 6.35569e-18
8101.67431 6.39216e-18
8103.67731 6.28662e-18
8105.68031 6.09633e-18
8107.67330 5.99857e-18
8109.67630 5.91239e-18
8111.67929 5.90831e-18
8113.67228 6.02551e-18
8115.67528 6.12102e-18
8117.67828 6.11203e-18
8119.67127 6.07185e-18
8121.67427 6.15291e-18
8123.67727 6.33370e-18
8125.68027 6.47684e-18
8127.67325 6.67821e-18
8129.67625 6.77868e-18
8131.67925 6.74042e-18
8133.67224 6.64409e-18
8135.67524 6.57466e-18
8137.67824 6.50310e-18
8139.67122 6.36894e-18
8141.67422 6.20841e-18
8143.67722 5.96913e-18
8145.68022 5.60117e-18
8147.67321 5.25174e-18
8149.67621 5.00105e-18
8151.67921 4.80362e-18
8153.67219 4.64183e-18
8155.67519 4.57114e-18
8157.67819 4.42267e-18
8159.67118 4.21846e-18
8161.67418 4.03626e-18
8163.67718 3.87759e-18
8165.67016 3.74786e-18
8167.67316 3.68138e-18
8169.67616 3.67140e-18
8171.67916 3.67557e-18
8173.67215 3.73644e-18
8175.67515 3.76359e-18
8177.67815 3.76857e-18
8179.67113 3.75042e-18
8181.67413 3.72596e-18
8183.67713 3.68780e-18
8185.67011 3.45962e-18
8187.67312 2.90897e-18
8189.67612 2.68044e-18
8191.66910 2.69412e-18
8193.67210 2.71655e-18
8195.67510 2.70034e-18
8197.67810 2.67454e-18
8199.67108 2.59646e-18
8201.67409 2.45401e-18
8203.67709 2.37981e-18
8205.67007 2.35104e-18
8207.67307 2.31353e-18
8209.67607 2.23723e-18
8211.66906 2.19623e-18
8213.67206 2.28573e-18
8215.67506 2.48035e-18
8217.66804 2.51092e-18
8219.67104 2.40493e-18
8221.67404 2.36518e-18
8223.66703 2.34960e-18
8225.67003 2.35391e-18
8227.67303 2.41032e-18
8229.67603 2.47777e-18
8231.66901 2.39218e-18
8233.67201 2.13380e-18
8235.67501 2.01548e-18
8237.66799 1.97096e-18
8239.67100 1.91966e-18
8241.67400 1.85115e-18
8243.66698 1.78735e-18
8245.66998 1.74460e-18
8247.67298 1.71682e-18
8249.67598 1.69680e-18
8251.66897 1.71491e-18
8253.67196 1.68226e-18
8255.67497 1.55379e-18
8257.66795 1.47877e-18
8259.67095 1.55354e-18
8261.67395 1.71906e-18
8263.66694 1.86700e-18
8265.66994 2.04809e-18
8267.67294 2.22027e-18
8269.66592 2.41188e-18
8271.66892 2.57770e-18
8273.67192 2.72267e-18
8275.67492 2.83271e-18
8277.66791 2.86310e-18
8279.67091 2.81507e-18
8281.67391 2.78594e-18
8283.66689 2.76354e-18
8285.66989 2.69092e-18
8287.67289 2.52991e-18
8289.66588 2.38606e-18
8291.66888 2.35067e-18
8293.67188 2.37999e-18
8295.66486 2.35374e-18
8297.66786 2.30708e-18
8299.67086 2.26040e-18
8301.67386 2.19016e-18
8303.66684 2.14616e-18
8305.66985 2.12852e-18
8307.67284 2.14763e-18
8309.66583 2.25734e-18
8311.66883 2.43314e-18
8313.67183 2.69198e-18
8315.66482 3.12638e-18
8317.66781 3.44311e-18
8319.67081 3.65514e-18
8321.66380 3.77463e-18
8323.66680 3.76738e-18
8325.66980 3.63691e-18
8327.67280 3.55282e-18
8329.66579 3.43581e-18
8331.66879 3.36035e-18
8333.67179 3.30385e-18
8335.66477 3.28379e-18
8337.66777 3.31896e-18
8339.67077 3.39058e-18
8341.66376 3.44118e-18
8343.66676 3.47032e-18
8345.66976 3.56087e-18
8347.66274 3.69052e-18
8349.66574 3.85177e-18
8351.66874 4.07228e-18
8353.67174 4.29626e-18
8355.66473 4.43854e-18
8357.66772 4.52391e-18
8359.67072 4.64174e-18
8361.66371 4.80524e-18
8363.66671 4.88130e-18
8365.66971 4.88811e-18
8367.66269 4.83556e-18
8369.66569 4.69781e-18
8371.66870 4.49822e-18
8373.66168 4.41286e-18
8375.66468 4.38776e-18
8377.66768 4.39413e-18
8379.67068 4.46138e-18
8381.66367 4.53015e-18
8383.66667 4.55010e-18
8385.66967 4.60451e-18
8387.66265 4.84163e-18
8389.66565 5.22818e-18
8391.66865 5.61544e-18
8393.66164 6.13718e-18
8395.66464 6.52554e-18
8397.66763 6.81457e-18
8399.66062 6.99702e-18
8401.66362 7.03271e-18
8403.66662 6.93920e-18
8405.66962 6.86865e-18
8407.66260 6.73604e-18
8409.66561 6.65106e-18
8411.66861 6.57035e-18
8413.66159 6.53641e-18
8415.66459 6.53296e-18
8417.66759 6.59493e-18
8419.66057 6.85236e-18
8421.66358 7.32523e-18
8423.66657 7.69922e-18
8425.65956 8.13207e-18
8427.66256 8.44025e-18
8429.66556 8.54867e-18
8431.66856 8.64441e-18
8433.66155 8.88456e-18
8435.66455 9.18308e-18
8437.66755 9.73966e-18
8439.66053 1.07936e-17
8441.66353 1.13538e-17
8443.66653 1.15328e-17
8445.65952 1.15760e-17
8447.66251 1.15353e-17
8449.66552 1.14002e-17
8451.65850 1.13478e-17
8453.66150 1.12993e-17
8455.66450 1.13073e-17
8457.66750 1.12728e-17
8459.66049 1.14364e-17
8461.66349 1.19064e-17
8463.66648 1.24683e-17
8465.65947 1.28546e-17
8467.66247 1.31622e-17
8469.66547 1.35128e-17
8471.65846 1.37688e-17
8473.66145 1.42409e-17
8475.66446 1.50018e-17
8477.65744 1.57479e-17
8479.66044 1.63366e-17
8481.66344 1.68376e-17
8483.66644 1.71046e-17
8485.65943 1.70740e-17
8487.66243 1.71386e-17
8489.66543 1.72066e-17
8491.65841 1.72203e-17
8493.66141 1.71233e-17
8495.66441 1.70089e-17
8497.65740 1.70399e-17
8499.66040 1.71451e-17
8501.66340 1.73584e-17
8503.65638 1.77487e-17
8505.65938 1.80710e-17
8507.66238 1.83459e-17
8509.66538 1.85887e-17
8511.65837 1.87774e-17
8513.66136 1.89197e-17
8515.66437 1.91690e-17
8517.65735 1.95061e-17
8519.66035 1.98211e-17
8521.66335 2.01272e-17
8523.65633 2.04622e-17
8525.65934 2.08601e-17
8527.66233 2.12767e-17
8529.65532 2.15954e-17
8531.65832 2.17631e-17
8533.66132 2.22125e-17
8535.66432 2.27594e-17
8537.65731 2.35571e-17
8539.66031 2.47631e-17
8541.66331 2.60186e-17
8543.65629 2.70096e-17
8545.65929 2.79221e-17
8547.66229 2.81927e-17
8549.65528 2.77673e-17
8551.65828 2.74262e-17
8553.66128 2.68865e-17
8555.65426 2.64645e-17
8557.65726 2.63256e-17
8559.66026 2.63567e-17
8561.65324 2.64469e-17
8563.65625 2.66644e-17
8565.65925 2.69038e-17
8567.66224 2.72447e-17
8569.65523 2.75479e-17
8571.65823 2.77950e-17
8573.66123 2.80198e-17
8575.65422 2.82460e-17
8577.65721 2.84674e-17
8579.66021 2.86555e-17
8581.65320 2.87532e-17
8583.65620 2.89700e-17
8585.65920 2.93125e-17
8587.65219 2.96832e-17
8589.65519 3.00939e-17
8591.65819 3.05209e-17
8593.66119 3.05503e-17
8595.65417 3.00278e-17
8597.65717 2.99727e-17
8599.66017 3.01079e-17
8601.65316 3.03999e-17
8603.65616 3.08972e-17
8605.65916 3.15090e-17
8607.65214 3.20644e-17
8609.65514 3.27195e-17
8611.65814 3.29946e-17
8613.65113 3.28050e-17
8615.65413 3.28726e-17
8617.65712 3.31270e-17
8619.66013 3.35526e-17
8621.65311 3.42869e-17
8623.65611 3.52845e-17
8625.65911 3.56773e-17
8627.65209 3.57489e-17
8629.65510 3.55410e-17
8631.65810 3.49256e-17
8633.65108 3.42205e-17
8635.65408 3.35153e-17
8637.65708 3.27481e-17
8639.65006 3.19291e-17
8641.65307 3.10345e-17
8643.65606 3.01512e-17
8645.65906 2.90471e-17
8647.65205 2.83333e-17
8649.65505 2.81511e-17
8651.65805 2.81314e-17
8653.65104 2.79343e-17
8655.65404 2.77033e-17
8657.65704 2.75308e-17
8659.65002 2.74251e-17
8661.65302 2.72611e-17
8663.65602 2.70108e-17
8665.65902 2.68109e-17
8667.65200 2.67469e-17
8669.65501 2.67510e-17
8671.65801 2.66683e-17
8673.65099 2.64424e-17
8675.65399 2.64938e-17
8677.65699 2.67628e-17
8679.64998 2.70607e-17
8681.65298 2.72908e-17
8683.65597 2.76377e-17
8685.64896 2.84288e-17
8687.65196 2.97171e-17
8689.65496 3.01340e-17
8691.65796 2.98275e-17
8693.65094 2.97158e-17
8695.65395 2.97445e-17
8697.65694 2.96998e-17
8699.64993 2.95443e-17
8701.65293 2.92832e-17
8703.65593 2.85139e-17
8705.64892 2.69457e-17
8707.65192 2.60431e-17
8709.65492 2.54343e-17
8711.64790 2.50094e-17
8713.65090 2.48057e-17
8715.65390 2.47417e-17
8717.65690 2.45981e-17
8719.64989 2.44016e-17
8721.65289 2.44696e-17
8723.65589 2.45812e-17
8725.64887 2.51067e-17
8727.65187 2.62656e-17
8729.65487 2.74648e-17
8731.64786 2.82271e-17
8733.65085 2.87780e-17
8735.65386 2.92157e-17
8737.64684 2.95535e-17
8739.64984 2.96379e-17
8741.65284 2.93736e-17
8743.65584 2.91158e-17
8745.64883 2.89706e-17
8747.65182 2.88628e-17
8749.65482 2.87985e-17
8751.64781 2.88369e-17
8753.65081 2.87110e-17
8755.65381 2.84084e-17
8757.64680 2.82072e-17
8759.64980 2.81192e-17
8761.65280 2.80932e-17
8763.64578 2.81614e-17
8765.64878 2.83655e-17
8767.65178 2.80790e-17
8769.65478 2.73573e-17
8771.64777 2.66891e-17
8773.65077 2.60254e-17
8775.65377 2.52439e-17
8777.64675 2.42419e-17
8779.64975 2.31130e-17
8781.65275 2.21679e-17
8783.64574 2.11133e-17
8785.64874 2.06113e-17
8787.65173 2.06730e-17
8789.64472 2.06985e-17
8791.64772 2.06111e-17
8793.65072 2.05367e-17
8795.65372 2.05193e-17
8797.64670 2.04951e-17
8799.64970 2.07826e-17
8801.65271 2.14693e-17
8803.64569 2.19597e-17
8805.64869 2.24246e-17
8807.65169 2.26679e-17
8809.64468 2.25335e-17
8811.64768 2.21062e-17
8813.65068 2.14714e-17
8815.64366 2.05673e-17
8817.64666 1.95047e-17
8819.64966 1.80195e-17
8821.65266 1.67597e-17
8823.64565 1.59002e-17
8825.64865 1.52395e-17
8827.65164 1.45837e-17
8829.64463 1.39808e-17
8831.64763 1.35785e-17
8833.65063 1.33369e-17
8835.64362 1.32361e-17
8837.64661 1.33392e-17
8839.64962 1.35057e-17
8841.64260 1.36344e-17
8843.64560 1.37792e-17
8845.64860 1.37708e-17
8847.65160 1.36694e-17
8849.64459 1.34663e-17
8851.64759 1.30449e-17
8853.65058 1.27223e-17
8855.64357 1.25779e-17
8857.64657 1.25708e-17
8859.64957 1.28058e-17
8861.64256 1.34233e-17
8863.64556 1.36558e-17
8865.64856 1.37273e-17
8867.65156 1.36664e-17
8869.64454 1.34786e-17
8871.64754 1.31504e-17
8873.65054 1.26335e-17
8875.64353 1.19105e-17
8877.64653 1.13992e-17
8879.64953 1.10327e-17
8881.64251 1.05838e-17
8883.64551 1.00449e-17
8885.64851 9.54853e-18
8887.64149 9.16288e-18
8889.64450 8.84131e-18
8891.64750 8.51402e-18
8893.65049 8.14540e-18
8895.64348 7.95704e-18
8897.64648 7.92162e-18
8899.64948 7.92833e-18
8901.64247 7.96337e-18
8903.64546 8.04765e-18
8905.64847 8.19060e-18
8907.64145 8.39079e-18
8909.64445 8.63066e-18
8911.64745 8.99649e-18
8913.64044 9.23562e-18
8915.64344 9.38463e-18
8917.64644 9.44529e-18
8919.64944 9.34850e-18
8921.64242 9.14133e-18
8923.64542 9.24580e-18
8925.64842 9.64176e-18
8927.64141 9.89896e-18
8929.64441 1.01559e-17
8931.64741 1.03570e-17
8933.64039 1.04946e-17
8935.64339 1.05724e-17
8937.64639 1.05898e-17
8939.63938 1.06142e-17
8941.64238 1.03017e-17
8943.64538 9.57827e-18
8945.64838 8.99639e-18
8947.64136 8.45813e-18
8949.64436 8.06780e-18
8951.64736 7.96277e-18
8953.64034 8.07982e-18
8955.64335 8.36736e-18
8957.64634 9.07506e-18
8959.63933 9.43753e-18
8961.64233 9.61789e-18
8963.64533 9.66233e-18
8965.63832 9.47465e-18
8967.64131 9.20043e-18
8969.64431 9.33132e-18
8971.64732 9.76538e-18
8973.64030 1.01534e-17
8975.64330 1.06963e-17
8977.64630 1.11133e-17
8979.63929 1.14756e-17
8981.64229 1.16538e-17
8983.64529 1.14221e-17
8985.63827 1.08381e-17
8987.64127 1.03301e-17
8989.64427 9.59946e-18
8991.63726 9.15368e-18
8993.64026 8.96679e-18
8995.64326 8.85673e-18
8997.64626 8.75014e-18
8999.63924 8.68857e-18
9001.64224 8.66083e-18
9003.64524 8.60080e-18
9005.63823 8.76101e-18
9007.64122 9.15499e-18
9009.64423 9.52952e-18
9011.63721 9.92394e-18
9013.64021 1.02481e-17
9015.64321 1.02784e-17
9017.63619 1.00566e-17
9019.63919 9.92061e-18
9021.64220 9.73938e-18
9023.63518 9.58573e-18
9025.63818 9.45524e-18
9027.64118 9.33325e-18
9029.64418 9.19967e-18
9031.63717 9.06693e-18
9033.64017 9.03363e-18
9035.64317 9.04924e-18
9037.63615 9.16775e-18
9039.63915 9.45595e-18
9041.64215 9.68883e-18
9043.63514 9.82449e-18
9045.63814 9.89520e-18
9047.64113 9.88313e-18
9049.63412 9.80003e-18
9051.63712 9.62281e-18
9053.64012 9.31593e-18
9055.64312 9.00968e-18
9057.63610 8.60314e-18
9059.63911 8.29820e-18
9061.64211 8.32460e-18
9063.63509 8.59039e-18
9065.63809 8.72502e-18
9067.64109 8.88438e-18
9069.63407 8.96684e-18
9071.63708 8.98628e-18
9073.64007 8.96892e-18
9075.63306 8.91235e-18
9077.63606 8.82584e-18
9079.63906 8.74990e-18
9081.64206 8.58986e-18
9083.63505 8.67511e-18
9085.63805 8.94673e-18
9087.64105 9.28342e-18
9089.63403 9.73582e-18
9091.63703 1.02049e-17
9093.64003 1.05746e-17
9095.63302 1.09187e-17
9097.63602 1.10100e-17
9099.63902 1.08036e-17
9101.63200 1.06825e-17
9103.63500 1.05581e-17
9105.63800 1.04722e-17
9107.64100 1.05375e-17
9109.63399 1.06470e-17
9111.63699 1.03054e-17
9113.63998 9.43423e-18
9115.63297 8.95144e-18
9117.63597 8.61028e-18
9119.63897 8.34001e-18
9121.63196 8.06454e-18
9123.63495 7.92363e-18
9125.63796 8.19145e-18
9127.63094 8.91496e-18
9129.63394 9.05754e-18
9131.63694 8.68376e-18
9133.63994 8.62243e-18
9135.63293 8.86050e-18
9137.63593 9.15114e-18
9139.63893 9.38219e-18
9141.63191 9.60901e-18
9143.63491 9.71747e-18
9145.63791 9.73224e-18
9147.63090 9.70427e-18
9149.63390 9.56882e-18
9151.63690 9.46675e-18
9153.62988 9.40526e-18
9155.63288 9.39764e-18
9157.63588 9.54533e-18
9159.63888 9.86414e-18
9161.63187 1.00784e-17
9163.63486 1.04608e-17
9165.63787 1.04442e-17
9167.63085 9.90932e-18
9169.63385 9.23478e-18
9171.63685 8.66535e-18
9173.62983 8.06346e-18
9175.63284 7.91772e-18
9177.63583 8.27800e-18
9179.62882 8.43984e-18
9181.63182 8.51410e-18
9183.63482 8.63408e-18
9185.63782 8.90351e-18
9187.63081 9.20598e-18
9189.63381 9.22256e-18
9191.63681 8.95028e-18
9193.62979 8.88990e-18
9195.63279 8.89970e-18
9197.63579 8.95093e-18
9199.62878 9.03268e-18
9201.63178 9.16900e-18
9203.63478 9.39376e-18
9205.62776 9.70308e-18
9207.63076 9.99313e-18
9209.63376 1.04205e-17
9211.63676 1.05932e-17
9213.62975 1.04700e-17
9215.63275 1.03380e-17
9217.63574 1.03680e-17
9219.62873 1.04447e-17
9221.63173 1.03439e-17
9223.63473 1.01525e-17
9225.62772 9.84845e-18
9227.63071 9.35900e-18
9229.63371 8.91043e-18
9231.62670 8.51971e-18
9233.62970 8.17214e-18
9235.63270 7.90435e-18
9237.63570 7.71314e-18
9239.62869 7.52292e-18
9241.63169 7.29941e-18
9243.63469 7.22370e-18
9245.62767 7.25652e-18
9247.63067 7.43249e-18
9249.63367 7.83096e-18
9251.62666 8.40761e-18
9253.62966 8.81254e-18
9255.63266 9.15195e-18
9257.62564 9.47669e-18
9259.62864 9.79411e-18
9261.63164 1.00469e-17
9263.63464 1.02607e-17
9265.62763 1.03827e-17
9267.63062 1.02460e-17
9269.63363 9.82126e-18
9271.62661 9.57060e-18
9273.62961 9.37943e-18
9275.63261 9.16186e-18
9277.62559 8.92080e-18
9279.62860 8.66554e-18
9281.63160 8.36250e-18
9283.63459 8.00977e-18
9285.62758 7.93963e-18
9287.63058 8.20427e-18
9289.63358 8.26690e-18
9291.62657 8.25108e-18
9293.62956 8.15100e-18
9295.63256 7.89893e-18
9297.62555 7.58267e-18
9299.62855 7.49521e-18
9301.63155 7.53758e-18
9303.62454 7.66836e-18
9305.62754 7.93508e-18
9307.63054 8.23441e-18
9309.63354 8.59904e-18
9311.62652 8.96541e-18
9313.62952 9.17727e-18
9315.63252 9.21796e-18
9317.62550 9.85143e-18
9319.62851 1.14059e-17
9321.63151 1.20390e-17
9323.62449 1.17838e-17
9325.62749 1.13976e-17
9327.63049 1.13022e-17
9329.62348 1.12228e-17
9331.62648 1.06561e-17
9333.62947 9.49903e-18
9335.63248 8.74482e-18
9337.62546 8.18928e-18
9339.62846 7.58104e-18
9341.63146 6.66657e-18
9343.62444 5.89831e-18
9345.62745 6.10061e-18
9347.63044 7.25356e-18
9349.62343 7.40003e-18
9351.62643 6.89835e-18
9353.62943 6.56446e-18
9355.62242 6.12234e-18
9357.62542 5.97243e-18
9359.62842 6.58472e-18
9361.63142 7.71558e-18
9363.62440 8.23225e-18
9365.62740 8.28543e-18
9367.63040 8.68260e-18
9369.62339 9.35094e-18
9371.62639 9.90800e-18
9373.62939 1.04061e-17
9375.62237 1.06881e-17
9377.62537 1.01294e-17
9379.62837 8.57050e-18
9381.62136 7.94293e-18
9383.62435 7.67510e-18
9385.62736 7.68963e-18
9387.63036 8.25601e-18
9389.62334 8.78629e-18
9391.62634 8.62954e-18
9393.62934 8.03862e-18
9395.62233 7.84216e-18
9397.62532 7.89302e-18
9399.62832 7.76492e-18
9401.62131 7.58481e-18
9403.62431 7.26908e-18
9405.62731 6.70080e-18
9407.62030 6.01320e-18
9409.62330 5.61034e-18
9411.62630 5.36737e-18
9413.62930 5.18336e-18
9415.62228 5.11664e-18
9417.62528 5.08500e-18
9419.62828 5.16863e-18
9421.62127 5.20524e-18
9423.62427 4.90571e-18
9425.62727 4.29542e-18
9427.62025 4.24176e-18
9429.62325 4.65049e-18
9431.62625 4.92217e-18
9433.61924 5.15867e-18
9435.62224 5.37158e-18
9437.62523 5.52693e-18
9439.62824 5.65406e-18
9441.62122 5.90333e-18
9443.62422 6.25920e-18
9445.62722 6.58921e-18
9447.62020 6.94342e-18
9449.62320 7.29032e-18
9451.62621 7.76010e-18
9453.61919 8.10831e-18
9455.62219 7.82748e-18
9457.62519 6.92312e-18
9459.61818 6.60922e-18
9461.62118 6.64241e-18
9463.62418 6.58549e-18
9465.62718 6.44120e-18
9467.62016 6.33512e-18
9469.62316 6.40838e-18
9471.62616 6.58993e-18
9473.61915 6.31480e-18
9475.62215 5.55832e-18
9477.62514 5.05547e-18
9479.61813 4.48288e-18
9481.62113 4.20003e-18
9483.62413 4.39901e-18
9485.61712 4.84263e-18
9487.62011 5.12904e-18
9489.62312 5.48835e-18
9491.62612 5.56613e-18
9493.61910 5.35285e-18
9495.62210 5.20711e-18
9497.62510 5.05183e-18
9499.61809 5.00007e-18
9501.62109 5.22717e-18
9503.62408 5.67194e-18
9505.61707 6.01943e-18
9507.62007 6.47676e-18
9509.62307 6.71208e-18
9511.62607 6.77863e-18
9513.61906 6.72815e-18
9515.62206 6.50287e-18
9517.62506 6.18984e-18
9519.61804 6.15596e-18
9521.62104 6.29400e-18
9523.62404 6.49078e-18
9525.61703 6.85485e-18
9527.62003 7.16833e-18
9529.62303 7.44883e-18
9531.61601 7.66525e-18
9533.61901 7.75088e-18
9535.62201 7.75015e-18
9537.61499 7.52992e-18
9539.61800 6.97397e-18
9541.62100 6.58983e-18
9543.62399 6.30664e-18
9545.61698 6.08054e-18
9547.61998 5.90507e-18
9549.62298 5.78249e-18
9551.61597 5.69426e-18
9553.61896 5.57600e-18
9555.62197 5.67104e-18
9557.61495 6.03621e-18
9559.61795 6.30913e-18
9561.62095 6.36838e-18
9563.61394 6.39934e-18
9565.61694 6.65822e-18
9567.61994 7.11678e-18
9569.62294 7.32909e-18
9571.61592 7.39807e-18
9573.61892 7.44134e-18
9575.62192 7.37645e-18
9577.61491 7.36341e-18
9579.61791 7.59941e-18
9581.62091 7.98892e-18
9583.61389 7.95555e-18
9585.61689 7.49622e-18
9587.61989 7.28383e-18
9589.61288 7.08182e-18
9591.61588 7.06195e-18
9593.61888 7.38477e-18
9595.62188 7.83117e-18
9597.61486 7.92594e-18
9599.61786 7.82930e-18
9601.62086 7.64751e-18
9603.61384 7.16577e-18
9605.61685 6.93161e-18
9607.61984 6.96774e-18
9609.61283 7.14165e-18
9611.61583 7.42789e-18
9613.61883 7.87330e-18
9615.61182 7.94282e-18
9617.61481 7.71133e-18
9619.61781 7.51664e-18
9621.62082 7.23909e-18
9623.61380 7.00059e-18
9625.61680 6.88027e-18
9627.61980 6.80946e-18
9629.61279 6.64251e-18
9631.61579 6.37602e-18
9633.61879 6.23298e-18
9635.61177 6.18492e-18
9637.61477 6.11957e-18
9639.61777 5.99938e-18
9641.61076 5.90181e-18
9643.61376 5.91522e-18
9645.61676 6.00727e-18
9647.61975 6.13385e-18
9649.61274 6.40987e-18
9651.61574 6.51603e-18
9653.61874 6.45494e-18
9655.61173 6.35553e-18
9657.61472 6.27521e-18
9659.61773 6.18406e-18
9661.61071 6.10698e-18
9663.61371 5.96275e-18
9665.61671 5.99805e-18
9667.60969 6.21408e-18
9669.61269 6.40429e-18
9671.61570 6.58696e-18
9673.60868 6.70546e-18
9675.61168 6.57067e-18
9677.61468 6.18378e-18
9679.61768 5.97991e-18
9681.61067 5.70409e-18
9683.61367 5.71940e-18
9685.61667 6.12830e-18
9687.60965 6.58765e-18
9689.61265 6.87225e-18
9691.61565 7.09381e-18
9693.60864 7.15464e-18
9695.61164 6.97443e-18
9697.61463 6.93299e-18
9699.61764 6.98120e-18
9701.61062 6.99013e-18
9703.61362 6.92936e-18
9705.61662 6.82086e-18
9707.60960 6.65266e-18
9709.61261 6.39089e-18
9711.61561 6.21209e-18
9713.60859 5.98719e-18
9715.61159 5.94009e-18
9717.61459 6.11753e-18
9719.60757 6.38546e-18
9721.61058 6.66052e-18
9723.61357 7.00228e-18
9725.61658 7.10057e-18
9727.60956 7.00951e-18
9729.61256 6.88923e-18
9731.61556 6.58868e-18
9733.60855 6.41175e-18
9735.61155 6.55040e-18
9737.61455 6.83953e-18
9739.60753 6.92069e-18
9741.61053 6.94756e-18
9743.61353 6.83580e-18
9745.60652 6.43198e-18
9747.60952 6.25538e-18
9749.61252 6.42129e-18
9751.61552 6.69619e-18
9753.60850 6.86527e-18
9755.61150 7.04582e-18
9757.61450 7.02968e-18
9759.60749 6.74103e-18
9761.61049 6.63308e-18
9763.61348 6.68907e-18
9765.60647 6.76340e-18
9767.60947 6.79873e-18
9769.61247 6.82257e-18
9771.60546 6.76896e-18
9773.60845 6.59326e-18
9775.61146 6.52726e-18
9777.61445 6.49882e-18
9779.60744 6.52195e-18
9781.61044 6.67414e-18
9783.61344 6.81715e-18
9785.60643 6.66227e-18
9787.60943 6.22084e-18
9789.61243 6.08591e-18
9791.60541 6.14687e-18
9793.60841 6.16964e-18
9795.61141 6.16038e-18
9797.60440 6.16798e-18
9799.60740 6.20982e-18
9801.61040 6.27667e-18
9803.61340 6.42140e-18
9805.60638 6.75559e-18
9807.60938 6.84820e-18
9809.61238 6.76996e-18
9811.60537 6.62305e-18
9813.60837 6.39549e-18
9815.61137 6.12664e-18
9817.60435 5.97795e-18
9819.60735 5.90224e-18
9821.61035 5.83365e-18
9823.60333 5.79299e-18
9825.60634 5.77810e-18
9827.60933 5.80395e-18
9829.61233 5.83800e-18
9831.60532 5.84263e-18
9833.60832 5.83195e-18
9835.61132 5.84355e-18
9837.60431 5.93507e-18
9839.60731 5.87920e-18
9841.61031 5.63720e-18
9843.60329 5.43291e-18
9845.60629 5.34635e-18
9847.60929 5.33312e-18
9849.60228 5.44073e-18
9851.60528 5.80475e-18
9853.60828 5.84140e-18
9855.61128 5.59834e-18
9857.60426 5.44387e-18
9859.60726 5.44225e-18
9861.61026 5.46800e-18
9863.60325 5.39939e-18
9865.60625 5.26434e-18
9867.60924 5.24331e-18
9869.60223 5.29267e-18
9871.60523 5.36621e-18
9873.60823 5.53763e-18
9875.60122 5.64409e-18
9877.60421 5.55402e-18
9879.60721 5.34979e-18
9881.61022 5.27104e-18
9883.60320 5.27563e-18
9885.60620 5.21917e-18
9887.60920 5.18878e-18
9889.60219 5.05680e-18
9891.60519 4.70138e-18
9893.60819 4.32368e-18
9895.60117 4.28258e-18
9897.60417 4.46168e-18
9899.60717 4.71017e-18
9901.61017 5.22260e-18
9903.60316 5.54629e-18
9905.60616 5.82921e-18
9907.60916 5.84563e-18
9909.60214 5.26503e-18
9911.60514 4.22891e-18
9913.60814 3.76978e-18
9915.60113 3.47544e-18
9917.60412 3.54227e-18
9919.60713 4.21197e-18
9921.60011 4.70119e-18
9923.60311 4.71811e-18
9925.60611 4.53628e-18
9927.60911 4.46684e-18
9929.60210 4.34288e-18
9931.60510 4.37999e-18
9933.60809 4.65702e-18
9935.60108 4.74176e-18
9937.60408 4.54476e-18
9939.60708 4.31093e-18
9941.60007 4.25437e-18
9943.60306 4.28011e-18
9945.60606 4.37524e-18
9947.59905 4.64706e-18
9949.60205 4.76203e-18
9951.60505 4.76943e-18
9953.60805 4.71976e-18
9955.60104 4.62934e-18
9957.60404 4.48810e-18
9959.60704 4.29000e-18
9961.60002 3.95426e-18
9963.60302 3.79411e-18
9965.60602 3.68789e-18
9967.59901 3.71654e-18
9969.60201 3.98383e-18
9971.60501 4.28510e-18
9973.59799 4.31273e-18
9975.60099 4.14321e-18
9977.60399 4.16956e-18
9979.60699 4.35101e-18
9981.59998 4.41722e-18
9983.60297 4.37416e-18
9985.60598 4.31308e-18
9987.59896 4.27898e-18
9989.60196 4.24782e-18
9991.60496 4.21654e-18
9993.59794 4.25025e-18
9995.60095 4.13185e-18
9997.60394 3.80879e-18
9999.59693 3.59999e-18
