# wavelength flux
3209.86759 8.63393e-20
3211.87059 7.59806e-20
3213.87359 6.64179e-19
3215.87659 1.56571e-18
3217.86958 2.72192e-21
3219.87258 3.72053e-19
3221.87558 9.67003e-19
3223.86856 9.63809e-19
3225.87156 9.28224e-19
3227.87456 2.33564e-19
3229.86755 2.38211e-19
3231.87055 7.02535e-19
3233.87355 1.31868e-18
3235.86653 1.29723e-18
3237.86953 2.77292e-19
3239.87253 4.12798e-19
3241.87553 1.24649e-18
3243.86852 1.50777e-18
3245.87152 1.35684e-18
3247.87452 9.43989e-19
3249.86750 1.04504e-18
3251.87050 4.26252e-19
3253.87350 1.27248e-18
3255.86649 3.73300e-19
3257.86949 9.72398e-19
3259.87248 4.04111e-19
3261.86547 6.22009e-19
3263.86847 9.89923e-19
3265.87147 8.50957e-19
3267.87447 4.45893e-19
3269.86746 9.89760e-19
3271.87045 1.22165e-18
3273.87345 1.12420e-18
3275.86644 5.92668e-19
3277.86944 8.51958e-19
3279.87244 1.07712e-18
3281.86542 1.26621e-18
3283.86843 1.49094e-18
3285.87142 5.59913e-19
3287.86441 7.67408e-19
3289.86741 1.83616e-18
3291.87041 1.39486e-18
3293.87341 1.47154e-18
3295.86640 -6.77553e-20
3297.86940 1.77962e-18
3299.87239 1.23781e-18
3301.86538 5.34913e-19
3303.86838 1.14444e-18
3305.87138 1.89609e-19
3307.86436 1.25285e-18
3309.86737 1.70977e-18
3311.87037 5.43306e-19
3313.86335 4.96464e-19
3315.86635 3.55722e-19
3317.86935 1.32260e-18
3319.87235 9.09870e-19
3321.86533 5.17749e-19
3323.86834 1.09607e-18
3325.87134 1.31740e-18
3327.86432 6.92600e-19
3329.86732 1.22581e-18
3331.87032 1.00676e-18
3333.86330 9.99046e-19
3335.86631 9.43000e-19
3337.86931 6.80218e-19
3339.86229 1.01716e-18
3341.86529 4.31473e-19
3343.86829 7.36706e-19
3345.87129 1.00063e-18
3347.86427 6.97885e-19
3349.86728 7.06193e-19
3351.87028 4.67747e-19
3353.86326 7.65416e-19
3355.86626 1.18181e-18
3357.86926 9.44429e-19
3359.86225 1.05332e-18
3361.86524 1.39429e-18
3363.86825 1.12973e-18
3365.86123 1.14738e-18
3367.86423 1.48940e-18
3369.86723 1.25137e-18
3371.87023 1.52727e-18
3373.86322 9.46064e-19
3375.86622 1.48030e-18
3377.86922 1.46732e-18
3379.86220 1.38274e-18
3381.86520 1.87652e-18
3383.86820 1.58387e-18
3385.86119 1.69959e-18
3387.86419 1.12672e-18
3389.86719 1.67660e-18
3391.86017 1.76435e-18
3393.86317 1.48942e-18
3395.86617 1.86454e-18
3397.86917 2.36350e-18
3399.86216 1.40056e-18
3401.86515 1.93308e-18
3403.86816 2.04313e-18
3405.86114 2.06707e-18
3407.86414 1.92724e-18
3409.86714 1.85214e-18
3411.86013 1.58659e-18
3413.86313 1.76624e-18
3415.86613 1.95712e-18
3417.85911 2.25044e-18
3419.86211 2.06250e-18
3421.86511 1.96595e-18
3423.86811 1.17061e-18
3425.86110 1.93375e-18
3427.86410 2.05613e-18
3429.86710 1.68220e-18
3431.86008 1.80118e-18
3433.86308 1.95479e-18
3435.86608 1.94745e-18
3437.85907 1.94565e-18
3439.86207 1.61320e-18
3441.86507 1.50550e-18
3443.85805 2.10088e-18
3445.86105 2.34919e-18
3447.86405 1.65610e-18
3449.86705 1.91421e-18
3451.86004 2.20130e-18
3453.86304 1.92834e-18
3455.86604 2.20173e-18
3457.85902 1.82129e-18
3459.86202 1.95241e-18
3461.86502 1.89441e-18
3463.85801 1.52500e-18
3465.86101 1.66232e-18
3467.86401 2.21591e-18
3469.85699 2.85553e-18
3471.85999 2.55848e-18
3473.86299 2.37361e-18
3475.86599 2.10419e-18
3477.85898 1.67299e-18
3479.86198 1.84460e-18
3481.86498 2.06280e-18
3483.85796 2.65431e-18
3485.86096 2.33849e-18
3487.86396 2.45065e-18
3489.85695 2.13810e-18
3491.85995 1.94053e-18
3493.86295 2.44460e-18
3495.85593 1.95118e-18
3497.85893 2.08707e-18
3499.86193 2.56412e-18
3501.86493 2.49064e-18
3503.85792 1.96901e-18
3505.86092 2.14901e-18
3507.86392 2.12132e-18
3509.85690 2.17209e-18
3511.85990 2.55297e-18
3513.86290 2.25602e-18
3515.85589 2.21724e-18
3517.85889 2.16939e-18
3519.86189 1.94199e-18
3521.85487 2.27527e-18
3523.85787 2.38941e-18
3525.86087 2.45691e-18
3527.86387 2.18327e-18
3529.85686 2.31637e-18
3531.85986 2.23135e-18
3533.86286 2.09011e-18
3535.85584 2.17218e-18
3537.85884 1.95451e-18
3539.86184 2.08794e-18
3541.85483 2.34870e-18
3543.85783 2.76158e-18
3545.86083 2.23742e-18
3547.85381 1.79420e-18
3549.85681 1.88334e-18
3551.85981 2.23638e-18
3553.86281 2.82362e-18
3555.85580 2.14887e-18
3557.85880 2.90285e-18
3559.86180 2.41083e-18
3561.85478 2.30450e-18
3563.85778 2.44609e-18
3565.86078 2.23953e-18
3567.85377 2.65668e-18
3569.85677 2.25589e-18
3571.85977 2.57721e-18
3573.85275 2.44261e-18
3575.85575 2.46421e-18
3577.85875 2.72142e-18
3579.86175 2.97842e-18
3581.85473 2.36607e-18
3583.85774 2.20265e-18
3585.86074 2.54928e-18
3587.85372 2.24645e-18
3589.85672 2.63992e-18
3591.85972 2.60096e-18
3593.85270 2.38781e-18
3595.85570 2.47519e-18
3597.85871 2.09818e-18
3599.85169 2.70103e-18
3601.85469 2.81314e-18
3603.85769 2.42373e-18
3605.86069 2.22645e-18
3607.85367 2.30370e-18
3609.85667 2.01304e-18
3611.85968 2.24549e-18
3613.85266 2.18719e-18
3615.85566 2.45490e-18
3617.85866 2.05403e-18
3619.85165 2.06658e-18
3621.85464 2.44675e-18
3623.85765 2.46404e-18
3625.85063 2.36599e-18
3627.85363 2.48841e-18
3629.85663 2.33139e-18
3631.85963 1.98931e-18
3633.85262 2.30800e-18
3635.85561 2.69431e-18
3637.85862 2.14952e-18
3639.85160 2.32312e-18
3641.85460 2.56939e-18
3643.85760 2.39601e-18
3645.85059 2.56857e-18
3647.85359 2.51149e-18
3649.85658 2.42072e-18
3651.84957 2.58418e-18
3653.85257 2.61438e-18
3655.85557 2.08540e-18
3657.85857 2.32632e-18
3659.85156 2.31019e-18
3661.85455 2.54529e-18
3663.85756 2.43946e-18
3665.85054 2.35604e-18
3667.85354 2.10903e-18
3669.85654 2.65087e-18
3671.84953 2.66244e-18
3673.85253 2.55848e-18
3675.85552 2.44351e-18
3677.84851 2.34903e-18
3679.85151 2.73262e-18
3681.85451 2.47030e-18
3683.85751 2.22842e-18
3685.85050 2.19225e-18
3687.85350 2.33025e-18
3689.85649 2.63633e-18
3691.84948 2.04083e-18
3693.85248 2.16553e-18
3695.85548 2.56038e-18
3697.84847 2.25176e-18
3699.85147 2.21909e-18
3701.85447 2.32672e-18
3703.84745 2.14257e-18
3705.85045 2.32291e-18
3707.85345 2.12558e-18
3709.85645 1.99032e-18
3711.84944 1.97959e-18
3713.85244 1.94542e-18
3715.85544 1.91127e-18
3717.84842 1.90302e-18
3719.85142 1.89478e-18
3721.85442 1.88654e-18
3723.84740 1.87830e-18
3725.85041 1.87006e-18
3727.85341 1.86182e-18
3729.84639 1.85359e-18
3731.84939 1.84535e-18
3733.85239 1.83712e-18
3735.85539 1.82889e-18
3737.84838 1.82066e-18
3739.85138 1.81243e-18
3741.85438 1.80421e-18
3743.84736 1.79598e-18
3745.85036 1.78776e-18
3747.85336 1.77954e-18
3749.84635 1.77132e-18
3751.84935 1.76310e-18
3753.85235 1.75488e-18
3755.84533 1.45914e-18
3757.84833 1.20864e-18
3759.85133 1.37683e-18
3761.85433 1.54443e-18
3763.84732 1.64690e-18
3765.85032 1.79162e-18
3767.85332 1.65912e-18
3769.84630 1.29563e-18
3771.84930 1.30955e-18
3773.85230 1.41575e-18
3775.84529 1.36534e-18
3777.84829 1.37031e-18
3779.85129 1.31018e-18
3781.84427 1.52646e-18
3783.84727 1.60032e-18
3785.85027 1.49522e-18
3787.85327 1.46513e-18
3789.84626 1.39290e-18
3791.84926 1.33851e-18
3793.85226 1.30644e-18
3795.84524 1.54816e-18
3797.84824 1.44618e-18
3799.85124 1.62116e-18
3801.84423 1.62387e-18
3803.84723 1.58799e-18
3805.85023 1.69613e-18
3807.85323 1.81780e-18
3809.84621 1.93731e-18
3811.84921 2.15942e-18
3813.85221 2.26859e-18
3815.84520 2.22520e-18
3817.84820 2.21838e-18
3819.85120 2.42031e-18
3821.84418 2.36444e-18
3823.84718 2.68705e-18
3825.85018 2.72709e-18
3827.84317 2.64964e-18
3829.84617 2.74213e-18
3831.84917 2.65334e-18
3833.84215 2.88428e-18
3835.84515 3.33144e-18
3837.84815 3.36259e-18
3839.85115 3.31166e-18
3841.84414 3.45849e-18
3843.84714 3.94909e-18
3845.85014 3.77387e-18
3847.84312 3.91119e-18
3849.84612 4.38123e-18
3851.84912 4.14785e-18
3853.84211 4.23467e-18
3855.84511 4.42371e-18
3857.84811 4.35867e-18
3859.84109 4.77303e-18
3861.84409 4.91146e-18
3863.84709 4.69275e-18
3865.85009 4.97614e-18
3867.84308 5.43962e-18
3869.84608 5.50922e-18
3871.84908 5.27745e-18
3873.84206 5.18763e-18
3875.84506 5.41203e-18
3877.84806 5.31251e-18
3879.84105 5.68756e-18
3881.84405 5.53058e-18
3883.84705 5.80638e-18
3885.84003 5.93488e-18
3887.84303 5.68884e-18
3889.84603 6.01898e-18
3891.84903 5.77735e-18
3893.84202 5.79120e-18
3895.84502 6.00969e-18
3897.84802 6.13418e-18
3899.84100 6.10557e-18
3901.84400 6.01604e-18
3903.84700 6.34481e-18
3905.83999 6.41143e-18
3907.84299 6.32985e-18
3909.84598 6.51685e-18
3911.84899 6.58334e-18
3913.84197 6.59939e-18
3915.84497 6.62459e-18
3917.84797 6.95693e-18
3919.84096 7.21302e-18
3921.84395 6.75486e-18
3923.84695 6.88475e-18
3925.83994 7.04322e-18
3927.84294 6.97606e-18
3929.84594 7.00517e-18
3931.83893 6.97658e-18
3933.84193 7.05507e-18
3935.84492 6.76789e-18
3937.84793 6.20421e-18
3939.84091 6.29920e-18
3941.84391 6.53341e-18
3943.84691 6.92495e-18
3945.83990 7.62027e-18
3947.84290 7.64797e-18
3949.84589 7.36792e-18
3951.83888 7.60375e-18
3953.84188 7.74269e-18
3955.84488 7.37857e-18
3957.83786 7.69432e-18
3959.84087 7.37540e-18
3961.84387 7.83884e-18
3963.84686 7.76698e-18
3965.83985 7.67430e-18
3967.84285 7.53675e-18
3969.84585 7.56348e-18
3971.83884 7.62717e-18
3973.84184 7.43372e-18
3975.84483 7.49268e-18
3977.83782 8.03353e-18
3979.84082 8.77044e-18
3981.84382 8.26383e-18
3983.83680 8.41830e-18
3985.83981 8.46408e-18
3987.84281 8.59047e-18
3989.83579 8.69409e-18
3991.83879 8.52785e-18
3993.84179 8.79922e-18
3995.84479 8.69228e-18
3997.83777 8.63071e-18
3999.84078 8.91254e-18
4001.84378 8.60051e-18
4003.83676 8.74870e-18
4005.83976 8.73401e-18
4007.84276 8.92281e-18
4009.83575 8.91297e-18
4011.83875 8.95839e-18
4013.84175 9.10323e-18
4015.84475 8.73505e-18
4017.83773 8.80308e-18
4019.84073 8.55641e-18
4021.84373 8.49396e-18
4023.83672 8.58481e-18
4025.83972 8.66462e-18
4027.84272 8.42441e-18
4029.83570 8.33701e-18
4031.83870 8.24662e-18
4033.84170 8.24845e-18
4035.83469 7.94888e-18
4037.83769 7.96221e-18
4039.84069 7.56940e-18
4041.84369 7.65429e-18
4043.83667 7.80460e-18
4045.83967 8.02561e-18
4047.84267 7.86891e-18
4049.83566 7.42564e-18
4051.83866 7.36429e-18
4053.84166 7.39797e-18
4055.83464 7.57026e-18
4057.83764 7.06802e-18
4059.84064 7.05456e-18
4061.83363 7.16965e-18
4063.83663 7.17247e-18
4065.83963 7.06119e-18
4067.84263 6.81999e-18
4069.83561 6.75552e-18
4071.83861 7.01126e-18
4073.84161 7.01654e-18
4075.83460 6.87459e-18
4077.83760 6.57997e-18
4079.84060 6.53406e-18
4081.83358 6.63719e-18
4083.83658 6.60992e-18
4085.83958 6.65784e-18
4087.83257 6.57806e-18
4089.83557 6.20039e-18
4091.83857 6.03685e-18
4093.84157 6.30201e-18
4095.83455 6.25488e-18
4097.83755 6.02168e-18
4099.84055 5.99839e-18
4101.83354 5.73782e-18
4103.83653 5.63688e-18
4105.83954 5.61550e-18
4107.83252 5.63191e-18
4109.83552 5.55273e-18
4111.83852 5.51206e-18
4113.83151 5.33538e-18
4115.83451 5.32507e-18
4117.83751 5.53618e-18
4119.84051 5.32030e-18
4121.83349 5.43105e-18
4123.83649 5.38976e-18
4125.83949 5.29099e-18
4127.83248 5.21940e-18
4129.83547 5.16973e-18
4131.83847 5.12722e-18
4133.83146 5.01081e-18
4135.83446 5.06961e-18
4137.83746 5.09577e-18
4139.83045 4.90678e-18
4141.83345 4.82951e-18
4143.83644 4.90962e-18
4145.82943 5.02277e-18
4147.83243 4.97025e-18
4149.83543 4.90973e-18
4151.83843 5.04767e-18
4153.83141 4.83745e-18
4155.83442 4.85751e-18
4157.83741 4.66874e-18
4159.83040 4.67977e-18
4161.83340 4.79093e-18
4163.83640 4.88981e-18
4165.82939 4.83211e-18
4167.83239 4.70148e-18
4169.83539 4.84249e-18
4171.83839 4.98221e-18
4173.83137 4.87629e-18
4175.83437 4.89014e-18
4177.83737 4.97811e-18
4179.83036 4.86610e-18
4181.83335 4.72516e-18
4183.83636 4.74740e-18
4185.82934 4.92022e-18
4187.83234 4.94577e-18
4189.83534 4.91836e-18
4191.82833 5.09894e-18
4193.83133 5.09835e-18
4195.83433 4.98096e-18
4197.83733 5.15997e-18
4199.83031 5.29122e-18
4201.83331 5.23268e-18
4203.83631 5.22601e-18
4205.82929 5.17067e-18
4207.83230 5.14330e-18
4209.83529 5.15841e-18
4211.82828 5.17636e-18
4213.83128 5.18193e-18
4215.83428 5.16822e-18
4217.82727 5.27643e-18
4219.83027 5.42654e-18
4221.83327 5.46502e-18
4223.83627 5.51115e-18
4225.82925 5.60184e-18
4227.83225 5.49739e-18
4229.83525 5.38549e-18
4231.82823 5.26630e-18
4233.83123 5.29324e-18
4235.83424 5.40788e-18
4237.82722 5.22984e-18
4239.83022 4.97337e-18
4241.83322 5.22387e-18
4243.82621 5.36582e-18
4245.82921 5.40152e-18
4247.83221 5.40418e-18
4249.83521 5.42426e-18
4251.82819 5.32599e-18
4253.83119 5.31056e-18
4255.83419 5.32617e-18
4257.82718 5.37077e-18
4259.83018 5.20641e-18
4261.83317 5.29777e-18
4263.82616 5.29994e-18
4265.82916 5.32622e-18
4267.83216 5.37595e-18
4269.82515 5.29011e-18
4271.82815 5.36143e-18
4273.83115 5.36450e-18
4275.83415 5.69846e-18
4277.82713 5.70227e-18
4279.83013 5.68733e-18
4281.83313 5.49506e-18
4283.82611 5.49591e-18
4285.82912 5.45451e-18
4287.83212 5.42938e-18
4289.82510 5.60550e-18
4291.82810 5.77278e-18
4293.83110 5.55952e-18
4295.82409 5.43860e-18
4297.82709 5.54435e-18
4299.83009 5.60116e-18
4301.83309 5.80068e-18
4303.82607 5.88175e-18
4305.82907 5.74148e-18
4307.83207 5.66880e-18
4309.82506 5.58450e-18
4311.82805 5.60693e-18
4313.83106 5.51012e-18
4315.82404 5.53685e-18
4317.82704 5.54414e-18
4319.83004 5.63104e-18
4321.82303 5.69686e-18
4323.82603 5.57749e-18
4325.82903 5.55262e-18
4327.83203 5.60749e-18
4329.82501 5.56640e-18
4331.82801 5.56871e-18
4333.83101 5.41289e-18
4335.82399 5.42428e-18
4337.82700 5.48627e-18
4339.83000 5.47920e-18
4341.82298 5.43859e-18
4343.82598 5.24405e-18
4345.82898 5.04561e-18
4347.82197 5.04974e-18
4349.82497 5.18984e-18
4351.82797 5.17646e-18
4353.83097 5.16309e-18
4355.82395 5.14972e-18
4357.82695 5.13635e-18
4359.82995 5.12297e-18
4361.82294 5.10961e-18
4363.82593 5.09624e-18
4365.82894 5.08287e-18
4367.82192 5.06950e-18
4369.82492 5.05614e-18
4371.82792 5.04277e-18
4373.82091 5.02941e-18
4375.82391 5.01605e-18
4377.82691 5.00269e-18
4379.82991 4.98933e-18
4381.82289 4.97597e-18
4383.82589 4.96261e-18
4385.82889 4.94926e-18
4387.82188 4.93590e-18
4389.82488 5.01189e-18
4391.82787 5.01276e-18
4393.82086 5.04683e-18
4395.82386 5.04702e-18
4397.82686 4.99374e-18
4399.81984 4.99267e-18
4401.82284 5.02758e-18
4403.82584 5.09987e-18
4405.82885 5.12097e-18
4407.82183 4.94857e-18
4409.82483 5.12712e-18
4411.82783 5.18419e-18
4413.82082 5.14778e-18
4415.82382 5.14560e-18
4417.82682 5.10689e-18
4419.81980 5.11107e-18
4421.82280 5.19616e-18
4423.82580 5.34627e-18
4425.81878 5.44240e-18
4427.82179 5.39547e-18
4429.82478 5.58217e-18
4431.82778 5.65705e-18
4433.82077 5.62702e-18
4435.82377 5.73872e-18
4437.82677 5.93067e-18
4439.81976 5.81384e-18
4441.82276 5.97093e-18
4443.82576 5.94482e-18
4445.81874 6.15407e-18
4447.82174 6.40837e-18
4449.82474 6.54420e-18
4451.81772 6.42387e-18
4453.82072 6.59484e-18
4455.82373 6.80686e-18
4457.82672 6.92547e-18
4459.81971 7.08944e-18
4461.82271 7.18725e-18
4463.82571 7.29395e-18
4465.81869 7.46213e-18
4467.82170 7.59107e-18
4469.82470 7.69548e-18
4471.81768 7.82354e-18
4473.82068 8.05810e-18
4475.82368 8.16187e-18
4477.81667 8.32129e-18
4479.81966 8.54284e-18
4481.82266 8.67802e-18
4483.82567 8.72114e-18
4485.81865 8.76631e-18
4487.82165 8.80832e-18
4489.82465 9.05931e-18
4491.81764 9.17426e-18
4493.82064 9.50429e-18
4495.82364 9.53668e-18
4497.81662 9.68081e-18
4499.81962 9.88209e-18
4501.82262 1.00082e-17
4503.81560 1.00676e-17
4505.81861 1.00795e-17
4507.82161 1.02857e-17
4509.82460 1.04614e-17
4511.81759 1.06157e-17
4513.82059 1.07881e-17
4515.82359 1.09170e-17
4517.81658 1.10648e-17
4519.81958 1.11859e-17
4521.82258 1.13781e-17
4523.81556 1.13213e-17
4525.81856 1.16475e-17
4527.82156 1.16817e-17
4529.81455 1.19230e-17
4531.81754 1.19102e-17
4533.82054 1.19758e-17
4535.82355 1.21816e-17
4537.81653 1.22837e-17
4539.81953 1.24079e-17
4541.82253 1.25073e-17
4543.81552 1.26348e-17
4545.81852 1.28368e-17
4547.82152 1.29246e-17
4549.81450 1.30646e-17
4551.81750 1.32311e-17
4553.82050 1.35292e-17
4555.81348 1.38702e-17
4557.81649 1.39852e-17
4559.81948 1.40285e-17
4561.82248 1.40364e-17
4563.81547 1.42037e-17
4565.81847 1.44713e-17
4567.82147 1.47159e-17
4569.81446 1.48329e-17
4571.81746 1.50053e-17
4573.82046 1.48856e-17
4575.81344 1.45764e-17
4577.81644 1.47127e-17
4579.81944 1.49599e-17
4581.81243 1.50007e-17
4583.81542 1.49368e-17
4585.81843 1.50604e-17
4587.82143 1.52918e-17
4589.81441 1.54520e-17
4591.81741 1.53423e-17
4593.82041 1.55188e-17
4595.81340 1.53048e-17
4597.81640 1.53299e-17
4599.81940 1.55139e-17
4601.81238 1.56244e-17
4603.81538 1.54888e-17
4605.81838 1.55982e-17
4607.82138 1.54393e-17
4609.81437 1.56581e-17
4611.81736 1.58614e-17
4613.82037 1.59236e-17
4615.81335 1.57896e-17
4617.81635 1.56706e-17
4619.81935 1.56478e-17
4621.81234 1.55839e-17
4623.81534 1.55320e-17
4625.81834 1.54478e-17
4627.81132 1.52281e-17
4629.81432 1.51753e-17
4631.81732 1.52096e-17
4633.82032 1.51646e-17
4635.81331 1.49429e-17
4637.81631 1.47709e-17
4639.81930 1.46744e-17
4641.81229 1.46433e-17
4643.81529 1.45481e-17
4645.81829 1.44291e-17
4647.81128 1.43470e-17
4649.81428 1.42016e-17
4651.81728 1.41306e-17
4653.81026 1.41065e-17
4655.81326 1.39569e-17
4657.81626 1.36758e-17
4659.80925 1.35557e-17
4661.81225 1.34953e-17
4663.81524 1.33097e-17
4665.81825 1.32598e-17
4667.81123 1.32461e-17
4669.81423 1.31624e-17
4671.81723 1.29608e-17
4673.81022 1.28881e-17
4675.81322 1.27731e-17
4677.81622 1.25918e-17
4679.80920 1.24314e-17
4681.81220 1.23672e-17
4683.81520 1.22772e-17
4685.80818 1.20207e-17
4687.81119 1.18881e-17
4689.81419 1.18076e-17
4691.81718 1.18442e-17
4693.81017 1.17381e-17
4695.81317 1.14781e-17
4697.81617 1.15380e-17
4699.80916 1.16866e-17
4701.81216 1.15479e-17
4703.81516 1.13182e-17
4705.80814 1.12475e-17
4707.81114 1.10704e-17
4709.81414 1.11389e-17
4711.80713 1.10074e-17
4713.81012 1.08898e-17
4715.81313 1.08032e-17
4717.81613 1.07119e-17
4719.80911 1.05156e-17
4721.81211 1.03631e-17
4723.81511 1.05265e-17
4725.80809 1.04895e-17
4727.81110 1.03711e-17
4729.81409 1.02356e-17
4731.80708 1.00676e-17
4733.81008 9.89611e-18
4735.81308 9.79712e-18
4737.80607 9.66818e-18
4739.80907 9.58768e-18
4741.81207 9.57871e-18
4743.81507 9.66047e-18
4745.80805 9.60238e-18
4747.81105 9.44272e-18
4749.81405 9.32198e-18
4751.80703 9.24195e-18
4753.81003 9.23291e-18
4755.81304 9.06698e-18
4757.80602 8.96085e-18
4759.80902 8.91816e-18
4761.81202 8.91901e-18
4763.80501 8.84400e-18
4765.80801 8.67763e-18
4767.81101 8.49442e-18
4769.81401 8.49935e-18
4771.80699 8.55484e-18
4773.80999 8.45191e-18
4775.81299 8.38115e-18
4777.80598 8.44616e-18
4779.80897 8.43004e-18
4781.81197 8.25949e-18
4783.80496 8.31452e-18
4785.80796 8.55274e-18
4787.81096 8.55581e-18
4789.80395 8.54034e-18
4791.80695 8.58781e-18
4793.80994 8.71044e-18
4795.81295 8.64329e-18
4797.80593 8.67933e-18
4799.80893 8.71495e-18
4801.81193 8.64731e-18
4803.80491 8.69828e-18
4805.80792 8.78023e-18
4807.81092 8.83766e-18
4809.80390 8.73608e-18
4811.80690 8.80526e-18
4813.80990 8.89925e-18
4815.81290 8.94069e-18
4817.80589 9.02473e-18
4819.80889 9.04520e-18
4821.81189 9.12782e-18
4823.80487 9.16629e-18
4825.80787 9.07517e-18
4827.81087 9.10689e-18
4829.80386 9.02546e-18
4831.80685 8.93271e-18
4833.80986 8.95874e-18
4835.80284 8.95363e-18
4837.80584 9.00369e-18
4839.80884 8.98768e-18
4841.81184 9.05201e-18
4843.80483 9.05550e-18
4845.80783 9.09568e-18
4847.81083 8.99798e-18
4849.80381 9.06816e-18
4851.80681 9.11392e-18
4853.80981 9.15968e-18
4855.80279 9.20543e-18
4857.80580 9.25117e-18
4859.80879 9.29691e-18
4861.80178 9.34265e-18
4863.80478 9.38837e-18
4865.80778 9.43410e-18
4867.81078 9.47982e-18
4869.80377 9.52554e-18
4871.80677 9.57123e-18
4873.80977 9.61694e-18
4875.80275 9.66264e-18
4877.80575 9.70832e-18
4879.80875 9.75400e-18
4881.80174 9.79969e-18
4883.80473 9.84535e-18
4885.80774 9.89102e-18
4887.80072 9.93668e-18
4889.80372 1.01024e-17
4891.80672 1.01619e-17
4893.80972 1.02305e-17
4895.80271 1.04681e-17
4897.80571 1.06311e-17
4899.80871 1.07642e-17
4901.80169 1.07819e-17
4903.80469 1.09362e-17
4905.80769 1.12766e-17
4907.80068 1.14760e-17
4909.80368 1.14447e-17
4911.80667 1.15295e-17
4913.79966 1.17063e-17
4915.80266 1.19854e-17
4917.80566 1.20575e-17
4919.80866 1.20435e-17
4921.80165 1.21673e-17
4923.80465 1.22952e-17
4925.80765 1.23689e-17
4927.80063 1.23986e-17
4929.80363 1.24602e-17
4931.80663 1.25041e-17
4933.79961 1.24833e-17
4935.80262 1.25355e-17
4937.80562 1.25260e-17
4939.79860 1.24624e-17
4941.80160 1.24452e-17
4943.80460 1.19970e-17
4945.80760 1.21732e-17
4947.80059 1.22357e-17
4949.80359 1.21130e-17
4951.80659 1.19903e-17
4953.79957 1.18676e-17
4955.80257 1.17449e-17
4957.80557 1.16222e-17
4959.79856 1.14995e-17
4961.80156 1.13769e-17
4963.80456 1.12542e-17
4965.79754 1.11316e-17
4967.80054 1.10090e-17
4969.80354 1.08864e-17
4971.79653 1.07639e-17
4973.79953 1.06413e-17
4975.80253 1.05188e-17
4977.80553 1.03963e-17
4979.79851 1.02738e-17
4981.80151 1.01513e-17
4983.80451 1.00288e-17
4985.79749 9.90636e-18
4987.80050 9.61025e-18
4989.80350 9.41012e-18
4991.79648 9.28634e-18
4993.79948 9.11659e-18
4995.80248 9.12440e-18
4997.80548 9.09297e-18
4999.79847 9.06156e-18
5001.80147 9.03014e-18
5003.80447 8.99872e-18
5005.79745 8.96732e-18
5007.80045 8.93591e-18
5009.80345 8.90451e-18
5011.79644 8.87312e-18
5013.79943 8.84173e-18
5015.80244 8.81034e-18
5017.79542 8.77895e-18
5019.79842 8.74758e-18
5021.80142 8.71620e-18
5023.80442 8.68483e-18
5025.79741 8.65346e-18
5027.80041 8.62210e-18
5029.80341 8.59074e-18
5031.79639 8.55939e-18
5033.79939 8.52804e-18
5035.80239 8.50769e-18
5037.79538 8.66986e-18
5039.79838 8.64831e-18
5041.80138 8.62943e-18
5043.79436 8.57206e-18
5045.79736 8.68162e-18
5047.80036 8.79849e-18
5049.80336 8.76607e-18
5051.79634 8.83113e-18
5053.79934 8.94660e-18
5055.80235 8.92881e-18
5057.79533 8.99499e-18
5059.79833 9.11762e-18
5061.80133 9.17375e-18
5063.79432 9.19392e-18
5065.79732 9.25147e-18
5067.80032 9.47361e-18
5069.79330 9.53402e-18
5071.79630 9.51157e-18
5073.79930 9.55332e-18
5075.80230 9.59200e-18
5077.79529 9.58550e-18
5079.79828 9.66059e-18
5081.80128 9.73332e-18
5083.79427 9.87402e-18
5085.79727 9.94400e-18
5087.80027 9.95337e-18
5089.79326 9.94585e-18
5091.79626 1.00689e-17
5093.79926 1.01097e-17
5095.79224 1.00607e-17
5097.79524 1.00944e-17
5099.79824 1.00910e-17
5101.80124 1.01375e-17
5103.79422 1.02421e-17
5105.79723 1.03536e-17
5107.80022 1.04240e-17
5109.79321 1.04728e-17
5111.79621 1.05330e-17
5113.79921 1.04591e-17
5115.79219 1.04609e-17
5117.79520 1.04319e-17
5119.79820 1.05737e-17
5121.79118 1.06815e-17
5123.79418 1.06588e-17
5125.79718 1.07086e-17
5127.80018 1.07586e-17
5129.79317 1.08133e-17
5131.79616 1.07106e-17
5133.79917 1.08782e-17
5135.79215 1.09597e-17
5137.79515 1.08349e-17
5139.79815 1.08561e-17
5141.79114 1.09652e-17
5143.79414 1.09722e-17
5145.79714 1.09119e-17
5147.79012 1.09334e-17
5149.79312 1.09809e-17
5151.79612 1.10501e-17
5153.79912 1.11531e-17
5155.79211 1.12575e-17
5157.79511 1.12765e-17
5159.79810 1.12713e-17
5161.79109 1.13220e-17
5163.79409 1.13376e-17
5165.79709 1.14602e-17
5167.79008 1.14578e-17
5169.79308 1.15230e-17
5171.79608 1.15208e-17
5173.78906 1.15022e-17
5175.79206 1.16135e-17
5177.79506 1.16653e-17
5179.79806 1.16647e-17
5181.79104 1.17159e-17
5183.79404 1.17579e-17
5185.79705 1.19022e-17
5187.79003 1.20450e-17
5189.79303 1.20379e-17
5191.79603 1.21133e-17
5193.78902 1.21454e-17
5195.79202 1.22203e-17
5197.79502 1.24815e-17
5199.78800 1.27639e-17
5201.79100 1.27196e-17
5203.79400 1.27315e-17
5205.79700 1.26943e-17
5207.78999 1.30051e-17
5209.79299 1.30255e-17
5211.79598 1.31981e-17
5213.78897 1.31509e-17
5215.79197 1.31942e-17
5217.79497 1.34695e-17
5219.78796 1.36082e-17
5221.79096 1.36016e-17
5223.79396 1.38838e-17
5225.78694 1.40269e-17
5227.78994 1.38691e-17
5229.79294 1.40843e-17
5231.79594 1.41192e-17
5233.78892 1.42215e-17
5235.79193 1.42948e-17
5237.79493 1.44345e-17
5239.78791 1.44842e-17
5241.79091 1.44973e-17
5243.79391 1.47275e-17
5245.78690 1.50009e-17
5247.78990 1.51196e-17
5249.79290 1.50913e-17
5251.78588 1.52086e-17
5253.78888 1.53182e-17
5255.79188 1.54013e-17
5257.79488 1.54887e-17
5259.78787 1.56344e-17
5261.79086 1.57371e-17
5263.79387 1.58199e-17
5265.78685 1.58824e-17
5267.78985 1.59048e-17
5269.79285 1.59903e-17
5271.78584 1.60357e-17
5273.78884 1.61182e-17
5275.79184 1.61336e-17
5277.78482 1.62516e-17
5279.78782 1.63546e-17
5281.79082 1.63331e-17
5283.79382 1.63650e-17
5285.78681 1.63937e-17
5287.78981 1.65807e-17
5289.79281 1.66572e-17
5291.78579 1.69854e-17
5293.78879 1.70568e-17
5295.79179 1.70030e-17
5297.78478 1.71100e-17
5299.78778 1.73066e-17
5301.79078 1.73320e-17
5303.78376 1.72971e-17
5305.78676 1.73417e-17
5307.78976 1.74422e-17
5309.79276 1.75084e-17
5311.78575 1.75318e-17
5313.78874 1.75471e-17
5315.79175 1.75891e-17
5317.78473 1.76488e-17
5319.78773 1.76908e-17
5321.79073 1.77130e-17
5323.78372 1.77551e-17
5325.78672 1.78409e-17
5327.78972 1.79185e-17
5329.78270 1.79135e-17
5331.78570 1.78298e-17
5333.78870 1.78166e-17
5335.79170 1.78591e-17
5337.78469 1.78611e-17
5339.78769 1.78176e-17
5341.79068 1.77495e-17
5343.78367 1.76669e-17
5345.78667 1.75323e-17
5347.78967 1.75101e-17
5349.78266 1.75901e-17
5351.78566 1.76509e-17
5353.78866 1.76909e-17
5355.78164 1.77224e-17
5357.78464 1.77430e-17
5359.78764 1.77604e-17
5361.79064 1.77446e-17
5363.78363 1.76867e-17
5365.78663 1.76394e-17
5367.78963 1.76085e-17
5369.78261 1.75808e-17
5371.78561 1.75445e-17
5373.78861 1.75053e-17
5375.78159 1.74595e-17
5377.78460 1.74038e-17
5379.78759 1.73512e-17
5381.78058 1.72968e-17
5383.78358 1.72486e-17
5385.78658 1.72288e-17
5387.78958 1.72464e-17
5389.78257 1.72275e-17
5391.78557 1.71965e-17
5393.78857 1.71490e-17
5395.78155 1.70573e-17
5397.78455 1.69660e-17
5399.78755 1.69797e-17
5401.78053 1.70697e-17
5403.78353 1.71844e-17
5405.78654 1.74039e-17
5407.77952 1.75496e-17
5409.78252 1.75697e-17
5411.78552 1.75361e-17
5413.78852 1.75637e-17
5415.78151 1.76028e-17
5417.78451 1.76706e-17
5419.78751 1.77664e-17
5421.78049 1.78781e-17
5423.78349 1.80084e-17
5425.78649 1.81526e-17
5427.77948 1.82910e-17
5429.78247 1.84437e-17
5431.78547 1.85660e-17
5433.78848 1.86303e-17
5435.78146 1.87487e-17
5437.78446 1.89892e-17
5439.78746 1.92689e-17
5441.78045 1.93719e-17
5443.78345 1.92640e-17
5445.78645 1.93480e-17
5447.77943 1.95537e-17
5449.78243 1.97442e-17
5451.78543 1.98977e-17
5453.77841 2.00286e-17
5455.78142 2.00876e-17
5457.78442 2.00570e-17
5459.77740 2.00583e-17
5461.78040 2.00141e-17
5463.78340 2.00345e-17
5465.78640 2.01873e-17
5467.77939 2.04050e-17
5469.78239 2.04836e-17
5471.78539 2.04963e-17
5473.77837 2.04537e-17
5475.78137 2.03224e-17
5477.78437 2.01822e-17
5479.77736 2.00618e-17
5481.78035 1.99395e-17
5483.78335 1.97965e-17
5485.77634 1.96398e-17
5487.77934 1.94703e-17
5489.78234 1.92500e-17
5491.78534 1.90758e-17
5493.77833 1.90206e-17
5495.78133 1.90252e-17
5497.78433 1.88508e-17
5499.77731 1.84944e-17
5501.78031 1.82502e-17
5503.78331 1.80508e-17
5505.77629 1.78717e-17
5507.77930 1.77149e-17
5509.78229 1.75779e-17
5511.77528 1.74001e-17
5513.77828 1.71898e-17
5515.78128 1.69909e-17
5517.78428 1.67890e-17
5519.77727 1.65927e-17
5521.78027 1.63981e-17
5523.78327 1.62077e-17
5525.77625 1.60769e-17
5527.77925 1.60406e-17
5529.78225 1.59227e-17
5531.77524 1.57695e-17
5533.77823 1.55705e-17
5535.78124 1.52838e-17
5537.77422 1.49302e-17
5539.77722 1.47677e-17
5541.78022 1.47965e-17
5543.78322 1.47246e-17
5545.77621 1.46137e-17
5547.77921 1.44740e-17
5549.78221 1.42925e-17
5551.77519 1.40731e-17
5553.77819 1.39227e-17
5555.78119 1.38164e-17
5557.77418 1.37147e-17
5559.77718 1.36265e-17
5561.78017 1.35504e-17
5563.77316 1.34875e-17
5565.77616 1.34383e-17
5567.77916 1.33804e-17
5569.78216 1.32815e-17
5571.77515 1.32677e-17
5573.77815 1.33804e-17
5575.78115 1.34636e-17
5577.77413 1.33910e-17
5579.77713 1.32122e-17
5581.78013 1.31718e-17
5583.77311 1.32521e-17
5585.77612 1.32469e-17
5587.77912 1.31648e-17
5589.77210 1.30741e-17
5591.77510 1.30152e-17
5593.77810 1.29652e-17
5595.78110 1.29505e-17
5597.77409 1.30480e-17
5599.77709 1.29915e-17
5601.78009 1.27360e-17
5603.77307 1.24859e-17
5605.77607 1.24139e-17
5607.77907 1.24573e-17
5609.77206 1.23962e-17
5611.77506 1.22500e-17
5613.77805 1.21858e-17
5615.77104 1.22442e-17
5617.77404 1.22775e-17
5619.77704 1.21411e-17
5621.78004 1.18728e-17
5623.77303 1.17433e-17
5625.77603 1.16658e-17
5627.77903 1.16298e-17
5629.77201 1.16884e-17
5631.77501 1.17300e-17
5633.77801 1.16315e-17
5635.77099 1.14273e-17
5637.77400 1.12930e-17
5639.77700 1.11584e-17
5641.77999 1.10604e-17
5643.77298 1.10284e-17
5645.77598 1.09907e-17
5647.77898 1.08623e-17
5649.77197 1.08479e-17
5651.77497 1.07426e-17
5653.77797 1.06234e-17
5655.77095 1.05707e-17
5657.77395 1.05780e-17
5659.77695 1.04771e-17
5661.76994 1.02555e-17
5663.77293 1.01206e-17
5665.77594 1.00725e-17
5667.77894 1.00365e-17
5669.77192 9.97511e-18
5671.77492 9.90821e-18
5673.77792 9.83847e-18
5675.77091 9.76235e-18
5677.77391 9.68883e-18
5679.77691 9.59344e-18
5681.76989 9.53823e-18
5683.77289 9.55588e-18
5685.77589 9.58943e-18
5687.76888 9.55541e-18
5689.77188 9.47396e-18
5691.77488 9.44402e-18
5693.77788 9.46873e-18
5695.77086 9.43821e-18
5697.77386 9.31241e-18
5699.77686 9.23382e-18
5701.76984 9.30853e-18
5703.77284 9.46606e-18
5705.77585 9.52054e-18
5707.76883 9.51930e-18
5709.77183 9.52882e-18
5711.77483 9.49966e-18
5713.76782 9.51769e-18
5715.77082 9.59688e-18
5717.77382 9.71522e-18
5719.77682 9.87036e-18
5721.76980 1.00864e-17
5723.77280 1.01862e-17
5725.77580 1.01461e-17
5727.76879 1.02225e-17
5729.77178 1.04122e-17
5731.77478 1.06145e-17
5733.76777 1.07857e-17
5735.77077 1.09494e-17
5737.77377 1.10965e-17
5739.76676 1.12295e-17
5741.76976 1.13510e-17
5743.77275 1.14595e-17
5745.77576 1.15572e-17
5747.76874 1.15972e-17
5749.77174 1.16737e-17
5751.77474 1.19470e-17
5753.76772 1.23924e-17
5755.77073 1.26480e-17
5757.77373 1.27967e-17
5759.76671 1.29482e-17
5761.76971 1.30549e-17
5763.77271 1.31880e-17
5765.76570 1.34040e-17
5767.76870 1.36587e-17
5769.77170 1.38388e-17
5771.76468 1.39386e-17
5773.76768 1.41340e-17
5775.77068 1.44486e-17
5777.77368 1.46610e-17
5779.76667 1.47075e-17
5781.76966 1.47182e-17
5783.77267 1.48241e-17
5785.76565 1.49667e-17
5787.76865 1.51704e-17
5789.77165 1.54751e-17
5791.76464 1.57264e-17
5793.76764 1.59404e-17
5795.77064 1.61514e-17
5797.76362 1.63615e-17
5799.76662 1.65763e-17
5801.76962 1.68545e-17
5803.77262 1.72461e-17
5805.76560 1.74726e-17
5807.76861 1.75494e-17
5809.77160 1.76758e-17
5811.76459 1.78907e-17
5813.76759 1.81060e-17
5815.77059 1.82256e-17
5817.76358 1.82711e-17
5819.76658 1.84548e-17
5821.76958 1.87799e-17
5823.76256 1.90104e-17
5825.76556 1.91588e-17
5827.76856 1.93146e-17
5829.77156 1.95158e-17
5831.76454 1.97350e-17
5833.76754 1.99433e-17
5835.77055 2.02037e-17
5837.76353 2.03049e-17
5839.76653 2.02449e-17
5841.76953 2.02182e-17
5843.76252 2.02157e-17
5845.76552 2.02457e-17
5847.76852 2.03662e-17
5849.77152 2.05708e-17
5851.76450 2.06201e-17
5853.76750 2.05054e-17
5855.77050 2.05126e-17
5857.76349 2.06548e-17
5859.76649 2.07403e-17
5861.76948 2.06526e-17
5863.76247 2.05027e-17
5865.76547 2.05321e-17
5867.76847 2.07155e-17
5869.76146 2.07830e-17
5871.76446 2.07933e-17
5873.76746 2.08150e-17
5875.77046 2.08530e-17
5877.76344 2.08910e-17
5879.76644 2.09330e-17
5881.76944 2.09862e-17
5883.76242 2.09203e-17
5885.76543 2.08837e-17
5887.76843 2.05337e-17
5889.76141 1.99697e-17
5891.76441 1.91306e-17
5893.76741 1.77907e-17
5895.76040 1.62602e-17
5897.76340 1.54547e-17
5899.76640 1.49586e-17
5901.76940 1.50843e-17
5903.76238 1.59446e-17
5905.76538 1.69117e-17
5907.76838 1.81895e-17
5909.76137 1.94032e-17
5911.76436 2.00892e-17
5913.76737 2.04443e-17
5915.76035 2.07420e-17
5917.76335 2.08032e-17
5919.76635 2.09181e-17
5921.75934 2.10473e-17
5923.76234 2.11178e-17
5925.76534 2.10933e-17
5927.76834 2.10128e-17
5929.76132 2.09448e-17
5931.76432 2.08380e-17
5933.76732 2.08074e-17
5935.76030 2.08682e-17
5937.76331 2.08674e-17
5939.76631 2.07700e-17
5941.75929 2.06783e-17
5943.76229 2.06938e-17
5945.76529 2.07764e-17
5947.75828 2.07470e-17
5949.76128 2.06064e-17
5951.76428 2.05514e-17
5953.76728 2.05698e-17
5955.76026 2.05670e-17
5957.76326 2.05048e-17
5959.76626 2.04221e-17
5961.75925 2.03732e-17
5963.76224 2.03356e-17
5965.76525 2.03166e-17
5967.75823 2.03477e-17
5969.76123 2.03257e-17
5971.76423 2.02255e-17
5973.75722 2.01238e-17
5975.76022 2.00780e-17
5977.76322 2.00607e-17
5979.76622 2.00811e-17
5981.75920 2.02152e-17
5983.76220 2.01989e-17
5985.76520 2.00745e-17
5987.75819 1.99061e-17
5989.76119 1.96628e-17
5991.76418 1.94083e-17
5993.75717 1.93351e-17
5995.76017 1.94298e-17
5997.76317 1.93830e-17
5999.75616 1.92638e-17
6001.75916 1.91542e-17
6003.76216 1.90395e-17
6005.76516 1.89361e-17
6007.75814 1.88709e-17
6009.76114 1.88317e-17
6011.76414 1.87501e-17
6013.75713 1.86218e-17
6015.76013 1.85393e-17
6017.76313 1.84915e-17
6019.75611 1.84432e-17
6021.75911 1.83950e-17
6023.76211 1.83389e-17
6025.75509 1.82368e-17
6027.75810 1.80744e-17
6029.76109 1.80059e-17
6031.76409 1.80529e-17
6033.75708 1.80012e-17
6035.76008 1.78128e-17
6037.76308 1.76325e-17
6039.75607 1.75758e-17
6041.75907 1.75856e-17
6043.76207 1.75139e-17
6045.75505 1.73652e-17
6047.75805 1.72968e-17
6049.76105 1.72877e-17
6051.75403 1.72799e-17
6053.75703 1.72788e-17
6055.76004 1.72651e-17
6057.76303 1.71712e-17
6059.75602 1.69965e-17
6061.75902 1.68947e-17
6063.76202 1.68406e-17
6065.75500 1.67628e-17
6067.75801 1.66430e-17
6069.76101 1.65450e-17
6071.75399 1.65185e-17
6073.75699 1.65373e-17
6075.75999 1.65342e-17
6077.75298 1.65620e-17
6079.75598 1.65204e-17
6081.75897 1.63710e-17
6083.76198 1.62985e-17
6085.75496 1.63890e-17
6087.75796 1.65142e-17
6089.76096 1.64762e-17
6091.75395 1.63117e-17
6093.75695 1.62762e-17
6095.75995 1.63457e-17
6097.75293 1.63441e-17
6099.75593 1.62636e-17
6101.75893 1.61800e-17
6103.75191 1.61419e-17
6105.75492 1.61225e-17
6107.75792 1.60697e-17
6109.76091 1.59621e-17
6111.75390 1.59349e-17
6113.75690 1.59826e-17
6115.75990 1.60124e-17
6117.75289 1.60009e-17
6119.75589 1.59802e-17
6121.75889 1.59864e-17
6123.75187 1.60202e-17
6125.75487 1.59814e-17
6127.75787 1.58766e-17
6129.75086 1.57852e-17
6131.75385 1.56500e-17
6133.75685 1.55830e-17
6135.75986 1.56986e-17
6137.75284 1.59217e-17
6139.75584 1.59690e-17
6141.75884 1.58665e-17
6143.75183 1.58675e-17
6145.75483 1.59237e-17
6147.75783 1.59621e-17
6149.75081 1.59620e-17
6151.75381 1.59560e-17
6153.75681 1.59775e-17
6155.74979 1.60082e-17
6157.75280 1.60779e-17
6159.75580 1.62126e-17
6161.75879 1.63001e-17
6163.75178 1.63493e-17
6165.75478 1.63815e-17
6167.75778 1.64034e-17
6169.75077 1.64119e-17
6171.75377 1.64176e-17
6173.75677 1.64182e-17
6175.74975 1.64084e-17
6177.75275 1.63945e-17
6179.75575 1.63633e-17
6181.74874 1.63029e-17
6183.75173 1.62360e-17
6185.75474 1.61960e-17
6187.75774 1.61730e-17
6189.75072 1.61363e-17
6191.75372 1.61078e-17
6193.75672 1.60490e-17
6195.74971 1.59581e-17
6197.75271 1.58564e-17
6199.75571 1.57527e-17
6201.74869 1.56429e-17
6203.75169 1.55351e-17
6205.75469 1.54011e-17
6207.74768 1.53324e-17
6209.75068 1.53368e-17
6211.75367 1.53136e-17
6213.75668 1.52480e-17
6215.74966 1.51659e-17
6217.75266 1.50768e-17
6219.75566 1.49648e-17
6221.74865 1.49304e-17
6223.75165 1.49919e-17
6225.75465 1.49862e-17
6227.74763 1.49169e-17
6229.75063 1.48485e-17
6231.75363 1.48122e-17
6233.74662 1.47880e-17
6235.74962 1.47525e-17
6237.75262 1.47005e-17
6239.75562 1.46841e-17
6241.74860 1.46936e-17
6243.75160 1.47125e-17
6245.75460 1.47658e-17
6247.74759 1.48022e-17
6249.75059 1.47397e-17
6251.75359 1.45984e-17
6253.74657 1.45173e-17
6255.74957 1.44550e-17
6257.75257 1.43994e-17
6259.75557 1.43600e-17
6261.74856 1.43186e-17
6263.75155 1.42619e-17
6265.75456 1.42008e-17
6267.74754 1.41602e-17
6269.75054 1.41243e-17
6271.75354 1.41189e-17
6273.74653 1.41528e-17
6275.74953 1.41777e-17
6277.75253 1.41811e-17
6279.74551 1.41897e-17
6281.74851 1.42357e-17
6283.75151 1.43136e-17
6285.74449 1.43363e-17
6287.74750 1.43304e-17
6289.75050 1.43022e-17
6291.75349 1.42218e-17
6293.74648 1.41632e-17
6295.74948 1.41562e-17
6297.75248 1.41832e-17
6299.74547 1.42573e-17
6301.74847 1.44667e-17
6303.75147 1.44370e-17
6305.74445 1.41519e-17
6307.74745 1.39930e-17
6309.75045 1.40058e-17
6311.74344 1.40720e-17
6313.74644 1.41094e-17
6315.74944 1.41552e-17
6317.75244 1.41920e-17
6319.74542 1.42543e-17
6321.74842 1.42483e-17
6323.75142 1.41373e-17
6325.74441 1.40690e-17
6327.74741 1.41226e-17
6329.75041 1.42294e-17
6331.74339 1.42684e-17
6333.74639 1.42778e-17
6335.74939 1.42855e-17
6337.74238 1.42577e-17
6339.74538 1.42700e-17
6341.74838 1.43676e-17
6343.75138 1.44458e-17
6345.74436 1.43738e-17
6347.74736 1.41903e-17
6349.75036 1.41880e-17
6351.74334 1.43190e-17
6353.74634 1.44217e-17
6355.74935 1.45557e-17
6357.74233 1.46570e-17
6359.74533 1.46878e-17
6361.74833 1.46846e-17
6363.74132 1.47161e-17
6365.74432 1.47731e-17
6367.74732 1.47836e-17
6369.75032 1.47288e-17
6371.74330 1.47304e-17
6373.74630 1.48139e-17
6375.74930 1.49083e-17
6377.74229 1.49414e-17
6379.74528 1.49387e-17
6381.74828 1.50341e-17
6383.74127 1.52814e-17
6385.74427 1.53556e-17
6387.74727 1.52317e-17
6389.74026 1.51757e-17
6391.74326 1.53043e-17
6393.74626 1.55071e-17
6395.74926 1.56271e-17
6397.74224 1.57315e-17
6399.74524 1.57845e-17
6401.74824 1.57859e-17
6403.74122 1.57692e-17
6405.74423 1.57075e-17
6407.74723 1.56563e-17
6409.74021 1.56699e-17
6411.74321 1.57231e-17
6413.74621 1.58180e-17
6415.73920 1.60162e-17
6417.74220 1.61109e-17
6419.74520 1.61275e-17
6421.74820 1.61314e-17
6423.74118 1.61362e-17
6425.74418 1.61350e-17
6427.74718 1.61376e-17
6429.74017 1.61158e-17
6431.74316 1.61853e-17
6433.74617 1.63887e-17
6435.73915 1.64876e-17
6437.74215 1.64155e-17
6439.74515 1.63687e-17
6441.73814 1.65474e-17
6443.74114 1.68686e-17
6445.74414 1.69139e-17
6447.74714 1.67266e-17
6449.74012 1.66359e-17
6451.74312 1.65308e-17
6453.74612 1.64911e-17
6455.73910 1.65705e-17
6457.74211 1.66996e-17
6459.74510 1.67501e-17
6461.73809 1.67699e-17
6463.74109 1.67667e-17
6465.74409 1.67261e-17
6467.74709 1.66849e-17
6469.74008 1.66417e-17
6471.74308 1.65921e-17
6473.74608 1.65246e-17
6475.73906 1.64438e-17
6477.74206 1.64338e-17
6479.74506 1.65048e-17
6481.73805 1.65268e-17
6483.74104 1.65129e-17
6485.74405 1.65187e-17
6487.73703 1.65601e-17
6489.74003 1.66205e-17
6491.74303 1.66895e-17
6493.74603 1.67881e-17
6495.73902 1.68262e-17
6497.74202 1.68371e-17
6499.74502 1.68055e-17
6501.73800 1.66946e-17
6503.74100 1.65951e-17
6505.74400 1.65864e-17
6507.73699 1.66292e-17
6509.73999 1.66349e-17
6511.74298 1.66143e-17
6513.73597 1.66334e-17
6515.73897 1.66763e-17
6517.74197 1.67384e-17
6519.74497 1.68506e-17
6521.73796 1.69582e-17
6523.74096 1.69327e-17
6525.74396 1.67706e-17
6527.73694 1.67761e-17
6529.73994 1.68995e-17
6531.74294 1.69998e-17
6533.73592 1.70991e-17
6535.73893 1.71851e-17
6537.74193 1.72360e-17
6539.73491 1.72637e-17
6541.73791 1.73131e-17
6543.74091 1.73154e-17
6545.74391 1.73178e-17
6547.73690 1.73202e-17
6549.73990 1.73225e-17
6551.74290 1.73249e-17
6553.73588 1.73273e-17
6555.73888 1.73296e-17
6557.74188 1.73320e-17
6559.73487 1.73344e-17
6561.73787 1.73367e-17
6563.74087 1.73391e-17
6565.73385 1.73415e-17
6567.73685 1.73439e-17
6569.73985 1.73462e-17
6571.74285 1.73486e-17
6573.73584 1.73510e-17
6575.73884 1.73533e-17
6577.74184 1.73557e-17
6579.73482 1.73581e-17
6581.73782 1.73604e-17
6583.74082 1.73628e-17
6585.73380 1.73652e-17
6587.73681 1.73675e-17
6589.73981 1.73699e-17
6591.73279 1.73723e-17
6593.73579 1.73747e-17
6595.73879 1.73770e-17
6597.73178 1.73794e-17
6599.73478 1.73818e-17
6601.73778 1.73841e-17
6603.74078 1.73865e-17
6605.73376 1.74008e-17
6607.73676 1.73342e-17
6609.73976 1.72589e-17
6611.73275 1.71086e-17
6613.73574 1.70128e-17
6615.73875 1.69999e-17
6617.73173 1.70290e-17
6619.73473 1.70743e-17
6621.73773 1.71644e-17
6623.73072 1.71740e-17
6625.73372 1.71453e-17
6627.73672 1.70717e-17
6629.73972 1.69196e-17
6631.73270 1.67748e-17
6633.73570 1.66873e-17
6635.73870 1.66297e-17
6637.73169 1.65930e-17
6639.73469 1.66014e-17
6641.73769 1.65813e-17
6643.73067 1.65552e-17
6645.73367 1.65207e-17
6647.73667 1.64722e-17
6649.72966 1.64202e-17
6651.73266 1.63787e-17
6653.73566 1.63393e-17
6655.73866 1.63225e-17
6657.73164 1.63336e-17
6659.73464 1.63348e-17
6661.73764 1.63430e-17
6663.73063 1.63318e-17
6665.73363 1.62877e-17
6667.73663 1.62174e-17
6669.72961 1.61132e-17
6671.73261 1.59416e-17
6673.73561 1.58342e-17
6675.73861 1.57512e-17
6677.73160 1.56955e-17
6679.73459 1.56719e-17
6681.73759 1.56707e-17
6683.73058 1.56814e-17
6685.73358 1.57134e-17
6687.73658 1.57238e-17
6689.72957 1.57473e-17
6691.73257 1.57175e-17
6693.73557 1.56177e-17
6695.72855 1.55206e-17
6697.73155 1.54593e-17
6699.73455 1.54155e-17
6701.73755 1.53961e-17
6703.73053 1.54234e-17
6705.73354 1.54040e-17
6707.73654 1.53428e-17
6709.72952 1.53063e-17
6711.73252 1.53220e-17
6713.73552 1.53344e-17
6715.72851 1.52701e-17
6717.73151 1.51441e-17
6719.73451 1.51056e-17
6721.72749 1.51397e-17
6723.73049 1.51383e-17
6725.73349 1.50969e-17
6727.73649 1.50792e-17
6729.72948 1.51317e-17
6731.73247 1.52145e-17
6733.73548 1.52188e-17
6735.72846 1.51619e-17
6737.73146 1.51309e-17
6739.73446 1.50962e-17
6741.72745 1.50679e-17
6743.73045 1.50508e-17
6745.73345 1.50350e-17
6747.72643 1.50011e-17
6749.72943 1.49482e-17
6751.73243 1.49748e-17
6753.73543 1.51263e-17
6755.72842 1.51516e-17
6757.73142 1.50507e-17
6759.73441 1.49530e-17
6761.72740 1.49093e-17
6763.73040 1.48874e-17
6765.73340 1.48800e-17
6767.72639 1.49011e-17
6769.72939 1.49050e-17
6771.73239 1.49154e-17
6773.72537 1.49027e-17
6775.72837 1.48661e-17
6777.73137 1.48090e-17
6779.73437 1.47209e-17
6781.72735 1.45971e-17
6783.73035 1.45497e-17
6785.73336 1.45847e-17
6787.72634 1.45625e-17
6789.72934 1.44898e-17
6791.73234 1.44254e-17
6793.72533 1.44140e-17
6795.72833 1.44094e-17
6797.73133 1.42880e-17
6799.72431 1.40428e-17
6801.72731 1.38940e-17
6803.73031 1.37525e-17
6805.73331 1.36851e-17
6807.72630 1.37347e-17
6809.72930 1.38025e-17
6811.73229 1.37880e-17
6813.72528 1.37347e-17
6815.72828 1.36620e-17
6817.73128 1.35082e-17
6819.72427 1.34550e-17
6821.72727 1.35122e-17
6823.73027 1.35489e-17
6825.72325 1.35143e-17
6827.72625 1.34480e-17
6829.72925 1.33837e-17
6831.73225 1.32961e-17
6833.72523 1.32401e-17
6835.72824 1.32339e-17
6837.73124 1.31731e-17
6839.72422 1.30196e-17
6841.72722 1.28695e-17
6843.73022 1.28189e-17
6845.72321 1.28299e-17
6847.72621 1.27975e-17
6849.72921 1.27445e-17
6851.72219 1.27116e-17
6853.72519 1.26629e-17
6855.72819 1.26694e-17
6857.73119 1.27968e-17
6859.72418 1.29644e-17
6861.72717 1.29759e-17
6863.73018 1.28621e-17
6865.72316 1.28209e-17
6867.72616 1.27982e-17
6869.72916 1.27750e-17
6871.72215 1.27409e-17
6873.72515 1.27225e-17
6875.72815 1.27535e-17
6877.72113 1.28224e-17
6879.72413 1.28325e-17
6881.72713 1.28087e-17
6883.73013 1.27769e-17
6885.72312 1.27160e-17
6887.72612 1.26661e-17
6889.72912 1.26288e-17
6891.72210 1.26116e-17
6893.72510 1.26604e-17
6895.72810 1.27803e-17
6897.72109 1.28638e-17
6899.72409 1.29508e-17
6901.72709 1.30201e-17
6903.72007 1.30818e-17
6905.72307 1.31171e-17
6907.72607 1.31005e-17
6909.72907 1.30422e-17
6911.72206 1.30090e-17
6913.72505 1.29347e-17
6915.72806 1.29648e-17
6917.72104 1.31160e-17
6919.72404 1.32450e-17
6921.72704 1.33088e-17
6923.72003 1.33458e-17
6925.72303 1.33812e-17
6927.72603 1.33968e-17
6929.71901 1.34348e-17
6931.72201 1.34877e-17
6933.72501 1.35389e-17
6935.72801 1.35861e-17
6937.72100 1.36388e-17
6939.72400 1.37185e-17
6941.72699 1.38164e-17
6943.71998 1.38151e-17
6945.72298 1.37058e-17
6947.72598 1.36527e-17
6949.71897 1.36028e-17
6951.72197 1.35857e-17
6953.72497 1.36394e-17
6955.71795 1.37062e-17
6957.72095 1.36609e-17
6959.72395 1.35173e-17
6961.72695 1.34604e-17
6963.71994 1.34191e-17
6965.72294 1.34352e-17
6967.72594 1.35521e-17
6969.71892 1.36575e-17
6971.72192 1.36600e-17
6973.72492 1.36043e-17
6975.71791 1.35555e-17
6977.72091 1.34740e-17
6979.72391 1.34170e-17
6981.71689 1.33879e-17
6983.71989 1.33351e-17
6985.72289 1.32293e-17
6987.72589 1.31129e-17
6989.71888 1.30560e-17
6991.72188 1.30319e-17
6993.72488 1.30351e-17
6995.71786 1.31111e-17
6997.72086 1.31248e-17
6999.72386 1.30824e-17
7001.71684 1.30078e-17
7003.71984 1.29021e-17
7005.72285 1.27660e-17
7007.71583 1.26657e-17
7009.71883 1.25585e-17
7011.72183 1.25110e-17
7013.72483 1.25341e-17
7015.71782 1.25463e-17
7017.72082 1.25198e-17
7019.72382 1.24920e-17
7021.71680 1.25134e-17
7023.71980 1.25800e-17
7025.72280 1.25949e-17
7027.71579 1.25545e-17
7029.71879 1.25650e-17
7031.72178 1.26462e-17
7033.71477 1.27163e-17
7035.71777 1.27143e-17
7037.72077 1.26743e-17
7039.72377 1.26807e-17
7041.71676 1.27084e-17
7043.71976 1.27427e-17
7045.72276 1.28038e-17
7047.71574 1.28464e-17
7049.71874 1.28731e-17
7051.72174 1.28731e-17
7053.71472 1.28036e-17
7055.71773 1.26548e-17
7057.72073 1.25999e-17
7059.71371 1.25869e-17
7061.71671 1.26060e-17
7063.71971 1.26888e-17
7065.72271 1.27617e-17
7067.71570 1.27706e-17
7069.71870 1.27466e-17
7071.72170 1.27502e-17
7073.71468 1.27775e-17
7075.71768 1.27696e-17
7077.72068 1.27081e-17
7079.71367 1.26933e-17
7081.71666 1.27694e-17
7083.71966 1.28621e-17
7085.71265 1.28704e-17
7087.71565 1.28286e-17
7089.71865 1.27866e-17
7091.72165 1.26823e-17
7093.71464 1.26616e-17
7095.71764 1.27366e-17
7097.72064 1.28212e-17
7099.71362 1.28870e-17
7101.71662 1.29427e-17
7103.71962 1.28890e-17
7105.71260 1.26636e-17
7107.71561 1.26088e-17
7109.71861 1.26580e-17
7111.71159 1.27139e-17
7113.71459 1.27900e-17
7115.71759 1.28528e-17
7117.72059 1.28141e-17
7119.71358 1.26814e-17
7121.71658 1.26709e-17
7123.71958 1.27709e-17
7125.71256 1.27987e-17
7127.71556 1.27477e-17
7129.71856 1.27099e-17
7131.71155 1.27413e-17
7133.71454 1.28047e-17
7135.71755 1.28249e-17
7137.71053 1.27955e-17
7139.71353 1.28370e-17
7141.71653 1.29772e-17
7143.71953 1.30330e-17
7145.71252 1.29478e-17
7147.71552 1.28272e-17
7149.71852 1.27861e-17
7151.71150 1.27755e-17
7153.71450 1.28021e-17
7155.71750 1.29123e-17
7157.71049 1.29508e-17
7159.71349 1.29287e-17
7161.71648 1.28879e-17
7163.70947 1.28300e-17
7165.71247 1.27628e-17
7167.71547 1.27708e-17
7169.71847 1.28335e-17
7171.71146 1.29134e-17
7173.71446 1.30593e-17
7175.71746 1.31612e-17
7177.71044 1.32098e-17
7179.71344 1.32228e-17
7181.71644 1.31992e-17
7183.70943 1.31316e-17
7185.71243 1.30911e-17
7187.71543 1.30295e-17
7189.70841 1.30273e-17
7191.71141 1.30899e-17
7193.71441 1.31650e-17
7195.71741 1.32424e-17
7197.71040 1.33203e-17
7199.71340 1.33317e-17
7201.71640 1.32752e-17
7203.70938 1.32506e-17
7205.71238 1.32006e-17
7207.71538 1.32062e-17
7209.70837 1.32929e-17
7211.71137 1.34057e-17
7213.71436 1.34966e-17
7215.70735 1.35948e-17
7217.71035 1.36129e-17
7219.71335 1.35450e-17
7221.71635 1.35032e-17
7223.70934 1.34550e-17
7225.71234 1.34279e-17
7227.71534 1.34448e-17
7229.70832 1.34854e-17
7231.71132 1.34996e-17
7233.71432 1.34978e-17
7235.70730 1.35123e-17
7237.71031 1.35357e-17
7239.71331 1.35610e-17
7241.70629 1.35894e-17
7243.70929 1.36185e-17
7245.71229 1.36463e-17
7247.71529 1.36752e-17
7249.70828 1.36869e-17
7251.71128 1.36810e-17
7253.71428 1.36788e-17
7255.70726 1.36839e-17
7257.71026 1.36756e-17
7259.71326 1.36312e-17
7261.70625 1.35765e-17
7263.70925 1.35892e-17
7265.71225 1.36714e-17
7267.70523 1.36944e-17
7269.70823 1.36922e-17
7271.71123 1.36800e-17
7273.71423 1.36307e-17
7275.70722 1.36021e-17
7277.71022 1.36818e-17
7279.71322 1.38477e-17
7281.70620 1.38589e-17
7283.70920 1.37176e-17
7285.71220 1.36781e-17
7287.70519 1.37219e-17
7289.70819 1.37514e-17
7291.71119 1.37274e-17
7293.70417 1.36818e-17
7295.70717 1.36519e-17
7297.71017 1.36265e-17
7299.71317 1.35943e-17
7301.70616 1.35345e-17
7303.70916 1.35194e-17
7305.71216 1.35757e-17
7307.70514 1.36357e-17
7309.70814 1.36297e-17
7311.71114 1.35839e-17
7313.70413 1.35883e-17
7315.70713 1.36484e-17
7317.71013 1.36467e-17
7319.71313 1.35682e-17
7321.70611 1.35245e-17
7323.70911 1.35691e-17
7325.71211 1.36496e-17
7327.70510 1.36794e-17
7329.70809 1.36813e-17
7331.71109 1.37001e-17
7333.70408 1.37406e-17
7335.70708 1.37470e-17
7337.71008 1.36953e-17
7339.70307 1.36481e-17
7341.70607 1.36717e-17
7343.70907 1.37403e-17
7345.71207 1.37450e-17
7347.70505 1.37048e-17
7349.70805 1.36776e-17
7351.71105 1.36507e-17
7353.70403 1.36209e-17
7355.70704 1.35713e-17
7357.71004 1.35280e-17
7359.70302 1.35650e-17
7361.70602 1.36843e-17
7363.70902 1.37427e-17
7365.70201 1.37717e-17
7367.70501 1.38098e-17
7369.70801 1.38647e-17
7371.71101 1.39121e-17
7373.70399 1.39278e-17
7375.70699 1.39214e-17
7377.70999 1.39485e-17
7379.70298 1.40004e-17
7381.70597 1.40436e-17
7383.70898 1.41010e-17
7385.70196 1.41325e-17
7387.70496 1.41229e-17
7389.70796 1.40878e-17
7391.70095 1.40421e-17
7393.70395 1.39560e-17
7395.70695 1.39491e-17
7397.69993 1.40342e-17
7399.70293 1.40589e-17
7401.70593 1.39886e-17
7403.70893 1.39357e-17
7405.70191 1.40028e-17
7407.70492 1.41433e-17
7409.70791 1.41851e-17
7411.70090 1.41496e-17
7413.70390 1.41617e-17
7415.70690 1.41932e-17
7417.69989 1.42341e-17
7419.70289 1.42994e-17
7421.70589 1.43619e-17
7423.69887 1.43518e-17
7425.70187 1.42743e-17
7427.70487 1.42455e-17
7429.70787 1.42318e-17
7431.70086 1.42253e-17
7433.70385 1.42444e-17
7435.70686 1.42478e-17
7437.69984 1.41962e-17
7439.70284 1.41089e-17
7441.70584 1.40439e-17
7443.69883 1.39842e-17
7445.70183 1.39195e-17
7447.70483 1.38505e-17
7449.69781 1.37833e-17
7451.70081 1.37143e-17
7453.70381 1.36513e-17
7455.70681 1.36154e-17
7457.69980 1.36079e-17
7459.70280 1.35756e-17
7461.70579 1.35212e-17
7463.69878 1.34876e-17
7465.70178 1.34933e-17
7467.70478 1.34823e-17
7469.69777 1.34085e-17
7471.70077 1.32959e-17
7473.70377 1.32063e-17
7475.69675 1.31031e-17
7477.69975 1.30376e-17
7479.70275 1.30224e-17
7481.70575 1.29829e-17
7483.69873 1.28847e-17
7485.70174 1.27779e-17
7487.70474 1.27419e-17
7489.69772 1.27650e-17
7491.70072 1.27282e-17
7493.70372 1.26379e-17
7495.69671 1.25906e-17
7497.69971 1.26126e-17
7499.70271 1.26107e-17
7501.70571 1.25185e-17
7503.69869 1.23719e-17
7505.70169 1.22364e-17
7507.70469 1.20666e-17
7509.69768 1.19392e-17
7511.70068 1.18613e-17
7513.70368 1.17518e-17
7515.69666 1.15716e-17
7517.69966 1.13826e-17
7519.70266 1.12826e-17
7521.69565 1.12605e-17
7523.69865 1.11374e-17
7525.70165 1.09117e-17
7527.70465 1.07658e-17
7529.69763 1.07078e-17
7531.70063 1.06545e-17
7533.70363 1.05669e-17
7535.69661 1.04637e-17
7537.69962 1.03122e-17
7539.70262 1.00505e-17
7541.69560 9.92914e-18
7543.69860 9.92413e-18
7545.70160 9.89713e-18
7547.69459 9.81806e-18
7549.69759 9.72967e-18
7551.70059 9.67174e-18
7553.70359 9.63651e-18
7555.69657 9.56591e-18
7557.69957 9.45453e-18
7559.70257 9.37810e-18
7561.69556 9.34592e-18
7563.69855 9.30610e-18
7565.70156 9.21866e-18
7567.69454 9.11012e-18
7569.69754 9.06014e-18
7571.70054 9.06434e-18
7573.69353 9.03904e-18
7575.69653 8.99832e-18
7577.69953 8.97216e-18
7579.70253 8.95627e-18
7581.69551 8.96119e-18
7583.69851 9.02035e-18
7585.70151 9.14031e-18
7587.69450 9.16969e-18
7589.69750 9.06478e-18
7591.70050 9.11829e-18
7593.69348 9.36034e-18
7595.69648 9.59489e-18
7597.69948 9.73124e-18
7599.69247 9.81670e-18
7601.69547 9.81737e-18
7603.69847 9.65654e-18
7605.70147 9.65494e-18
7607.69445 9.75634e-18
7609.69745 9.84957e-18
7611.70045 9.95389e-18
7613.69344 1.00256e-17
7615.69644 9.95488e-18
7617.69944 9.74706e-18
7619.69242 9.73259e-18
7621.69542 9.81674e-18
7623.69842 9.96127e-18
7625.69141 1.02300e-17
7627.69441 1.04779e-17
7629.69741 1.06218e-17
7631.70041 1.07147e-17
7633.69339 1.08183e-17
7635.69639 1.09060e-17
7637.69939 1.09937e-17
7639.69238 1.10752e-17
7641.69538 1.11552e-17
7643.69838 1.12340e-17
7645.69136 1.13112e-17
7647.69436 1.13852e-17
7649.69736 1.14536e-17
7651.69034 1.15442e-17
7653.69334 1.16389e-17
7655.69635 1.17666e-17
7657.69934 1.19520e-17
7659.69233 1.21184e-17
7661.69533 1.22320e-17
7663.69833 1.23124e-17
7665.69132 1.23542e-17
7667.69432 1.23219e-17
7669.69732 1.23599e-17
7671.69030 1.24245e-17
7673.69330 1.25177e-17
7675.69630 1.26482e-17
7677.68929 1.27983e-17
7679.69229 1.29512e-17
7681.69528 1.31195e-17
7683.69829 1.32471e-17
7685.69127 1.33604e-17
7687.69427 1.34332e-17
7689.69727 1.34624e-17
7691.69026 1.34694e-17
7693.69326 1.34489e-17
7695.69626 1.34134e-17
7697.68924 1.34344e-17
7699.69224 1.34912e-17
7701.69524 1.35615e-17
7703.68822 1.36749e-17
7705.69123 1.37645e-17
7707.69423 1.38349e-17
7709.69722 1.38795e-17
7711.69021 1.38788e-17
7713.69321 1.38390e-17
7715.69621 1.37867e-17
7717.68920 1.36768e-17
7719.69220 1.36275e-17
7721.69520 1.36113e-17
7723.68818 1.36359e-17
7725.69118 1.37338e-17
7727.69418 1.38644e-17
7729.68717 1.38892e-17
7731.69016 1.38232e-17
7733.69316 1.38167e-17
7735.69617 1.38400e-17
7737.68915 1.38471e-17
7739.69215 1.38387e-17
7741.69515 1.38172e-17
7743.68814 1.37771e-17
7745.69114 1.37188e-17
7747.69414 1.36711e-17
7749.68712 1.36211e-17
7751.69012 1.35800e-17
7753.69312 1.35252e-17
7755.68610 1.35098e-17
7757.68911 1.35772e-17
7759.69211 1.36800e-17
7761.69510 1.36994e-17
7763.68809 1.36413e-17
7765.69109 1.36720e-17
7767.69409 1.37860e-17
7769.68708 1.38486e-17
7771.69008 1.38512e-17
7773.69308 1.38283e-17
7775.68606 1.37867e-17
7777.68906 1.37159e-17
7779.69206 1.37475e-17
7781.68505 1.39122e-17
7783.68804 1.39648e-17
7785.69105 1.38989e-17
7787.69405 1.38798e-17
7789.68703 1.39968e-17
7791.69003 1.41575e-17
7793.69303 1.41877e-17
7795.68602 1.41240e-17
7797.68902 1.40974e-17
7799.69202 1.40452e-17
7801.68500 1.40355e-17
7803.68800 1.40891e-17
7805.69100 1.41494e-17
7807.68399 1.41697e-17
7809.68699 1.41718e-17
7811.68998 1.41486e-17
7813.69299 1.40916e-17
7815.68597 1.40371e-17
7817.68897 1.39344e-17
7819.69197 1.38963e-17
7821.68496 1.39895e-17
7823.68796 1.41376e-17
7825.69096 1.41982e-17
7827.68394 1.42237e-17
7829.68694 1.42225e-17
7831.68994 1.41575e-17
7833.68293 1.41334e-17
7835.68593 1.41582e-17
7837.68893 1.41951e-17
7839.69193 1.42287e-17
7841.68491 1.42683e-17
7843.68791 1.42422e-17
7845.69091 1.41254e-17
7847.68390 1.40813e-17
7849.68690 1.40590e-17
7851.68990 1.40880e-17
7853.68288 1.42010e-17
7855.68588 1.43522e-17
7857.68888 1.44471e-17
7859.68187 1.45373e-17
7861.68487 1.45481e-17
7863.68786 1.44643e-17
7865.69087 1.44028e-17
7867.68385 1.43463e-17
7869.68685 1.43104e-17
7871.68985 1.43301e-17
7873.68284 1.43906e-17
7875.68584 1.43736e-17
7877.68884 1.42813e-17
7879.68182 1.42411e-17
7881.68482 1.42313e-17
7883.68782 1.42224e-17
7885.68080 1.42295e-17
7887.68381 1.42218e-17
7889.68681 1.41044e-17
7891.68980 1.38560e-17
7893.68279 1.37806e-17
7895.68579 1.38399e-17
7897.68879 1.38613e-17
7899.68178 1.38638e-17
7901.68478 1.38453e-17
7903.68778 1.37822e-17
7905.68076 1.36861e-17
7907.68376 1.36465e-17
7909.68676 1.36583e-17
7911.67975 1.36350e-17
7913.68275 1.35557e-17
7915.68575 1.35416e-17
7917.68875 1.36704e-17
7919.68173 1.38289e-17
7921.68473 1.38167e-17
7923.68773 1.36842e-17
7925.68072 1.35882e-17
7927.68372 1.34621e-17
7929.68672 1.33600e-17
7931.67970 1.32779e-17
7933.68270 1.32103e-17
7935.68570 1.31528e-17
7937.67869 1.31078e-17
7939.68169 1.30986e-17
7941.68469 1.31628e-17
7943.68769 1.31457e-17
7945.68067 1.30606e-17
7947.68367 1.29876e-17
7949.68667 1.29445e-17
7951.67966 1.29120e-17
7953.68266 1.28816e-17
7955.68566 1.28680e-17
7957.67864 1.28051e-17
7959.68164 1.26868e-17
7961.68464 1.25969e-17
7963.67763 1.24970e-17
7965.68063 1.24537e-17
7967.68363 1.25494e-17
7969.68663 1.27349e-17
7971.67961 1.27735e-17
7973.68261 1.27065e-17
7975.68561 1.26747e-17
7977.67860 1.26479e-17
7979.68160 1.25993e-17
7981.68459 1.25050e-17
7983.67758 1.24060e-17
7985.68058 1.23789e-17
7987.68358 1.24190e-17
7989.67657 1.23625e-17
7991.67957 1.22186e-17
7993.68257 1.21207e-17
7995.68557 1.20687e-17
7997.67855 1.20172e-17
7999.68155 1.19309e-17
8001.68455 1.18321e-17
8003.67753 1.18057e-17
8005.68054 1.18749e-17
8007.68354 1.18587e-17
8009.67652 1.18170e-17
8011.67952 1.17288e-17
8013.68252 1.15556e-17
8015.67551 1.13683e-17
8017.67851 1.12894e-17
8019.68151 1.12887e-17
8021.68451 1.12321e-17
8023.67749 1.11532e-17
8025.68049 1.10808e-17
8027.68349 1.10139e-17
8029.67648 1.09437e-17
8031.67947 1.08684e-17
8033.68248 1.07879e-17
8035.67546 1.06863e-17
8037.67846 1.05355e-17
8039.68146 1.04534e-17
8041.67445 1.04233e-17
8043.67745 1.03940e-17
8045.68045 1.03650e-17
8047.68345 1.03331e-17
8049.67643 1.02795e-17
8051.67943 1.02077e-17
8053.68243 1.01489e-17
8055.67541 1.01215e-17
8057.67842 1.00358e-17
8059.68142 9.88781e-18
8061.67440 9.72432e-18
8063.67740 9.55518e-18
8065.68040 9.38106e-18
8067.67339 9.27676e-18
8069.67639 9.24062e-18
8071.67939 9.18216e-18
8073.68239 9.13695e-18
8075.67537 9.07961e-18
8077.67837 9.01400e-18
8079.68137 8.93124e-18
8081.67436 8.81007e-18
8083.67735 8.65367e-18
8085.68036 8.50827e-18
8087.67334 8.34606e-18
8089.67634 8.20827e-18
8091.67934 8.10940e-18
8093.67233 7.99459e-18
8095.67533 7.82294e-18
8097.67833 7.62558e-18
8099.68133 7.48705e-18
8101.67431 7.41250e-18
8103.67731 7.26964e-18
8105.68031 7.08005e-18
8107.67330 6.89509e-18
8109.67630 6.70361e-18
8111.67929 6.52921e-18
8113.67228 6.42384e-18
8115.67528 6.38093e-18
8117.67828 6.26150e-18
8119.67127 6.05992e-18
8121.67427 5.93909e-18
8123.67727 5.92075e-18
8125.68027 5.87203e-18
8127.67325 5.70745e-18
8129.67625 5.49412e-18
8131.67925 5.38645e-18
8133.67224 5.37214e-18
8135.67524 5.28294e-18
8137.67824 5.14782e-18
8139.67122 5.02887e-18
8141.67422 4.94492e-18
8143.67722 4.85603e-18
8145.68022 4.70970e-18
8147.67321 4.51440e-18
8149.67621 4.41288e-18
8151.67921 4.39821e-18
8153.67219 4.34201e-18
8155.67519 4.25997e-18
8157.67819 4.17652e-18
8159.67118 4.09485e-18
8161.67418 4.01636e-18
8163.67718 3.96781e-18
8165.67016 3.96065e-18
8167.67316 3.91021e-18
8169.67616 3.82498e-18
8171.67916 3.75484e-18
8173.67215 3.70728e-18
8175.67515 3.66415e-18
8177.67815 3.61357e-18
8179.67113 3.56320e-18
8181.67413 3.48447e-18
8183.67713 3.37459e-18
8185.67011 3.27327e-18
8187.67312 3.14665e-18
8189.67612 3.06184e-18
8191.66910 3.05549e-18
8193.67210 3.09733e-18
8195.67510 3.14069e-18
8197.67810 3.23379e-18
8199.67108 3.24866e-18
8201.67409 3.21331e-18
8203.67709 3.15938e-18
8205.67007 3.06839e-18
8207.67307 2.97785e-18
8209.67607 2.93629e-18
8211.66906 2.92493e-18
8213.67206 2.90591e-18
8215.67506 2.87558e-18
8217.66804 2.88678e-18
8219.67104 2.95031e-18
8221.67404 3.00753e-18
8223.66703 3.03851e-18
8225.67003 3.05595e-18
8227.67303 3.05742e-18
8229.67603 3.03796e-18
8231.66901 3.02287e-18
8233.67201 2.98894e-18
8235.67501 2.98256e-18
8237.66799 3.01269e-18
8239.67100 3.05457e-18
8241.67400 3.09179e-18
8243.66698 3.13398e-18
8245.66998 3.14282e-18
8247.67298 3.11068e-18
8249.67598 3.10479e-18
8251.66897 3.10861e-18
8253.67196 3.12575e-18
8255.67497 3.16672e-18
8257.66795 3.21725e-18
8259.67095 3.23740e-18
8261.67395 3.23468e-18
8263.66694 3.24293e-18
8265.66994 3.23922e-18
8267.67294 3.26146e-18
8269.66592 3.32329e-18
8271.66892 3.38874e-18
8273.67192 3.42600e-18
8275.67492 3.44923e-18
8277.66791 3.46828e-18
8279.67091 3.47219e-18
8281.67391 3.48635e-18
8283.66689 3.51733e-18
8285.66989 3.53135e-18
8287.67289 3.50675e-18
8289.66588 3.46907e-18
8291.66888 3.46942e-18
8293.67188 3.49129e-18
8295.66486 3.52071e-18
8297.66786 3.58395e-18
8299.67086 3.61434e-18
8301.67386 3.60255e-18
8303.66684 3.58148e-18
8305.66985 3.57475e-18
8307.67284 3.57127e-18
8309.66583 3.57234e-18
8311.66883 3.55002e-18
8313.67183 3.59562e-18
8315.66482 3.71130e-18
8317.66781 3.83025e-18
8319.67081 3.94714e-18
8321.66380 4.05550e-18
8323.66680 4.10101e-18
8325.66980 4.07486e-18
8327.67280 4.12353e-18
8329.66579 4.21462e-18
8331.66879 4.30890e-18
8333.67179 4.42659e-18
8335.66477 4.52925e-18
8337.66777 4.57626e-18
8339.67077 4.58622e-18
8341.66376 4.60764e-18
8343.66676 4.61506e-18
8345.66976 4.63849e-18
8347.66274 4.66877e-18
8349.66574 4.71006e-18
8351.66874 4.76183e-18
8353.67174 4.82593e-18
8355.66473 4.91137e-18
8357.66772 5.02671e-18
8359.67072 5.10926e-18
8361.66371 5.15547e-18
8363.66671 5.23605e-18
8365.66971 5.38347e-18
8367.66269 5.50474e-18
8369.66569 5.51540e-18
8371.66870 5.45630e-18
8373.66168 5.45906e-18
8375.66468 5.43314e-18
8377.66768 5.53095e-18
8379.67068 5.78577e-18
8381.66367 5.99445e-18
8383.66667 6.11875e-18
8385.66967 6.18726e-18
8387.66265 6.16963e-18
8389.66565 6.02593e-18
8391.66865 6.04138e-18
8393.66164 6.17780e-18
8395.66464 6.27748e-18
8397.66763 6.33806e-18
8399.66062 6.40826e-18
8401.66362 6.51449e-18
8403.66662 6.64365e-18
8405.66962 6.79678e-18
8407.66260 7.02765e-18
8409.66561 7.15327e-18
8411.66861 7.16530e-18
8413.66159 7.22587e-18
8415.66459 7.39498e-18
8417.66759 7.59137e-18
8419.66057 7.70222e-18
8421.66358 7.74784e-18
8423.66657 7.87147e-18
8425.65956 8.03209e-18
8427.66256 8.21705e-18
8429.66556 8.47468e-18
8431.66856 8.69242e-18
8433.66155 8.76692e-18
8435.66455 8.75612e-18
8437.66755 8.84882e-18
8439.66053 8.98516e-18
8441.66353 9.14471e-18
8443.66653 9.37126e-18
8445.65952 9.55779e-18
8447.66251 9.65819e-18
8449.66552 9.74280e-18
8451.65850 9.91641e-18
8453.66150 1.01619e-17
8455.66450 1.03227e-17
8457.66750 1.04277e-17
8459.66049 1.05419e-17
8461.66349 1.06384e-17
8463.66648 1.07606e-17
8465.65947 1.09517e-17
8467.66247 1.11851e-17
8469.66547 1.13707e-17
8471.65846 1.15232e-17
8473.66145 1.17002e-17
8475.66446 1.19097e-17
8477.65744 1.20816e-17
8479.66044 1.21825e-17
8481.66344 1.22679e-17
8483.66644 1.24123e-17
8485.65943 1.25824e-17
8487.66243 1.27977e-17
8489.66543 1.31184e-17
8491.65841 1.33350e-17
8493.66141 1.34421e-17
8495.66441 1.35311e-17
8497.65740 1.36428e-17
8499.66040 1.37574e-17
8501.66340 1.39086e-17
8503.65638 1.40976e-17
8505.65938 1.42782e-17
8507.66238 1.44836e-17
8509.66538 1.46579e-17
8511.65837 1.47817e-17
8513.66136 1.48881e-17
8515.66437 1.50130e-17
8517.65735 1.51344e-17
8519.66035 1.53049e-17
8521.66335 1.55348e-17
8523.65633 1.57377e-17
8525.65934 1.59575e-17
8527.66233 1.61200e-17
8529.65532 1.61531e-17
8531.65832 1.61106e-17
8533.66132 1.61726e-17
8535.66432 1.62733e-17
8537.65731 1.64186e-17
8539.66031 1.66257e-17
8541.66331 1.68396e-17
8543.65629 1.70904e-17
8545.65929 1.73150e-17
8547.66229 1.73895e-17
8549.65528 1.73285e-17
8551.65828 1.74284e-17
8553.66128 1.76542e-17
8555.65426 1.78122e-17
8557.65726 1.79429e-17
8559.66026 1.80292e-17
8561.65324 1.80480e-17
8563.65625 1.80173e-17
8565.65925 1.79880e-17
8567.66224 1.78722e-17
8569.65523 1.79277e-17
8571.65823 1.81657e-17
8573.66123 1.83317e-17
8575.65422 1.83690e-17
8577.65721 1.83868e-17
8579.66021 1.85057e-17
8581.65320 1.87001e-17
8583.65620 1.87429e-17
8585.65920 1.86133e-17
8587.65219 1.86153e-17
8589.65519 1.87566e-17
8591.65819 1.88737e-17
8593.66119 1.88793e-17
8595.65417 1.88355e-17
8597.65717 1.88425e-17
8599.66017 1.88528e-17
8601.65316 1.89083e-17
8603.65616 1.90467e-17
8605.65916 1.91206e-17
8607.65214 1.90892e-17
8609.65514 1.90388e-17
8611.65814 1.90598e-17
8613.65113 1.91188e-17
8615.65413 1.91619e-17
8617.65712 1.92223e-17
8619.66013 1.92490e-17
8621.65311 1.92150e-17
8623.65611 1.92157e-17
8625.65911 1.93164e-17
8627.65209 1.94604e-17
8629.65510 1.95140e-17
8631.65810 1.95408e-17
8633.65108 1.94824e-17
8635.65408 1.92817e-17
8637.65708 1.91591e-17
8639.65006 1.91633e-17
8641.65307 1.91823e-17
8643.65606 1.91078e-17
8645.65906 1.89791e-17
8647.65205 1.88854e-17
8649.65505 1.87968e-17
8651.65805 1.87157e-17
8653.65104 1.86376e-17
8655.65404 1.85724e-17
8657.65704 1.85354e-17
8659.65002 1.85087e-17
8661.65302 1.84339e-17
8663.65602 1.82985e-17
8665.65902 1.82436e-17
8667.65200 1.82370e-17
8669.65501 1.82481e-17
8671.65801 1.82957e-17
8673.65099 1.83413e-17
8675.65399 1.83328e-17
8677.65699 1.82892e-17
8679.64998 1.82691e-17
8681.65298 1.82585e-17
8683.65597 1.82396e-17
8685.64896 1.82241e-17
8687.65196 1.81916e-17
8689.65496 1.81231e-17
8691.65796 1.80398e-17
8693.65094 1.79973e-17
8695.65395 1.80077e-17
8697.65694 1.79303e-17
8699.64993 1.77913e-17
8701.65293 1.76406e-17
8703.65593 1.74473e-17
8705.64892 1.72747e-17
8707.65192 1.72080e-17
8709.65492 1.72176e-17
8711.64790 1.71605e-17
8713.65090 1.70612e-17
8715.65390 1.69955e-17
8717.65690 1.69617e-17
8719.64989 1.69190e-17
8721.65289 1.68383e-17
8723.65589 1.67525e-17
8725.64887 1.67412e-17
8727.65187 1.68197e-17
8729.65487 1.67844e-17
8731.64786 1.66936e-17
8733.65085 1.65588e-17
8735.65386 1.63293e-17
8737.64684 1.61164e-17
8739.64984 1.60557e-17
8741.65284 1.60973e-17
8743.65584 1.59805e-17
8745.64883 1.57196e-17
8747.65182 1.55562e-17
8749.65482 1.54786e-17
8751.64781 1.53659e-17
8753.65081 1.51565e-17
8755.65381 1.49172e-17
8757.64680 1.47713e-17
8759.64980 1.47122e-17
8761.65280 1.45523e-17
8763.64578 1.43000e-17
8765.64878 1.41041e-17
8767.65178 1.39999e-17
8769.65478 1.38822e-17
8771.64777 1.36505e-17
8773.65077 1.33461e-17
8775.65377 1.31381e-17
8777.64675 1.29461e-17
8779.64975 1.28469e-17
8781.65275 1.28995e-17
8783.64574 1.28925e-17
8785.64874 1.27281e-17
8787.65173 1.25155e-17
8789.64472 1.24364e-17
8791.64772 1.24875e-17
8793.65072 1.23432e-17
8795.65372 1.19870e-17
8797.64670 1.17757e-17
8799.64970 1.17451e-17
8801.65271 1.17394e-17
8803.64569 1.16688e-17
8805.64869 1.15782e-17
8807.65169 1.13438e-17
8809.64468 1.08564e-17
8811.64768 1.06217e-17
8813.65068 1.05817e-17
8815.64366 1.05438e-17
8817.64666 1.04763e-17
8819.64966 1.03928e-17
8821.65266 1.02354e-17
8823.64565 9.99199e-18
8825.64865 9.84241e-18
8827.65164 9.73189e-18
8829.64463 9.65678e-18
8831.64763 9.62375e-18
8833.65063 9.61779e-18
8835.64362 9.63565e-18
8837.64661 9.67911e-18
8839.64962 9.68025e-18
8841.64260 9.65510e-18
8843.64560 9.62815e-18
8845.64860 9.56359e-18
8847.65160 9.54262e-18
8849.64459 9.62192e-18
8851.64759 9.71873e-18
8853.65058 9.67645e-18
8855.64357 9.51310e-18
8857.64657 9.46690e-18
8859.64957 9.45774e-18
8861.64256 9.50311e-18
8863.64556 9.66172e-18
8865.64856 9.78950e-18
8867.65156 9.76681e-18
8869.64454 9.65431e-18
8871.64754 9.57053e-18
8873.65054 9.43418e-18
8875.64353 9.38184e-18
8877.64653 9.39212e-18
8879.64953 9.42098e-18
8881.64251 9.45851e-18
8883.64551 9.51524e-18
8885.64851 9.60269e-18
8887.64149 9.73391e-18
8889.64450 9.80639e-18
8891.64750 9.85472e-18
8893.65049 9.87127e-18
8895.64348 9.82548e-18
8897.64648 9.79311e-18
8899.64948 9.83132e-18
8901.64247 9.90995e-18
8903.64546 9.98580e-18
8905.64847 1.00969e-17
8907.64145 1.01651e-17
8909.64445 1.02071e-17
8911.64745 1.02376e-17
8913.64044 1.02562e-17
8915.64344 1.02657e-17
8917.64644 1.02754e-17
8919.64944 1.02803e-17
8921.64242 1.02888e-17
8923.64542 1.02885e-17
8925.64842 1.03101e-17
8927.64141 1.03706e-17
8929.64441 1.04187e-17
8931.64741 1.04130e-17
8933.64039 1.03781e-17
8935.64339 1.03825e-17
8937.64639 1.04154e-17
8939.63938 1.04323e-17
8941.64238 1.04460e-17
8943.64538 1.04568e-17
8945.64838 1.04343e-17
8947.64136 1.04362e-17
8949.64436 1.05792e-17
8951.64736 1.08605e-17
8953.64034 1.09826e-17
8955.64335 1.10389e-17
8957.64634 1.10335e-17
8959.63933 1.09061e-17
8961.64233 1.08043e-17
8963.64533 1.08395e-17
8965.63832 1.09430e-17
8967.64131 1.09565e-17
8969.64431 1.08730e-17
8971.64732 1.09109e-17
8973.64030 1.10829e-17
8975.64330 1.11694e-17
8977.64630 1.11109e-17
8979.63929 1.10045e-17
8981.64229 1.09498e-17
8983.64529 1.09008e-17
8985.63827 1.08939e-17
8987.64127 1.09515e-17
8989.64427 1.09653e-17
8991.63726 1.09372e-17
8993.64026 1.09065e-17
8995.64326 1.08954e-17
8997.64626 1.08902e-17
8999.63924 1.08645e-17
9001.64224 1.07320e-17
9003.64524 1.08353e-17
9005.63823 1.12337e-17
9007.64122 1.14655e-17
9009.64423 1.14371e-17
9011.63721 1.13096e-17
9013.64021 1.12250e-17
9015.64321 1.11254e-17
9017.63619 1.10007e-17
9019.63919 1.08144e-17
9021.64220 1.06932e-17
9023.63518 1.06328e-17
9025.63818 1.05885e-17
9027.64118 1.05570e-17
9029.64418 1.05317e-17
9031.63717 1.04199e-17
9033.64017 1.01812e-17
9035.64317 1.00879e-17
9037.63615 1.00812e-17
9039.63915 1.00973e-17
9041.64215 1.01525e-17
9043.63514 1.02122e-17
9045.63814 1.02152e-17
9047.64113 1.01845e-17
9049.63412 1.01470e-17
9051.63712 1.00666e-17
9053.64012 1.00309e-17
9055.64312 1.00225e-17
9057.63610 1.00445e-17
9059.63911 1.01134e-17
9061.64211 1.02117e-17
9063.63509 1.02651e-17
9065.63809 1.02800e-17
9067.64109 1.03351e-17
9069.63407 1.04501e-17
9071.63708 1.04990e-17
9073.64007 1.04593e-17
9075.63306 1.03785e-17
9077.63606 1.02834e-17
9079.63906 1.01466e-17
9081.64206 1.01262e-17
9083.63505 1.02477e-17
9085.63805 1.02623e-17
9087.64105 1.01918e-17
9089.63403 1.01047e-17
9091.63703 1.00054e-17
9093.64003 9.90534e-18
9095.63302 9.91335e-18
9097.63602 1.00390e-17
9099.63902 1.00866e-17
9101.63200 1.01243e-17
9103.63500 1.01243e-17
9105.63800 1.00653e-17
9107.64100 9.99326e-18
9109.63399 9.95774e-18
9111.63699 9.93599e-18
9113.63998 9.94132e-18
9115.63297 9.98121e-18
9117.63597 1.00171e-17
9119.63897 1.00876e-17
9121.63196 1.01126e-17
9123.63495 1.00411e-17
9125.63796 9.91801e-18
9127.63094 9.83426e-18
9129.63394 9.73684e-18
9131.63694 9.70522e-18
9133.63994 9.74962e-18
9135.63293 9.76867e-18
9137.63593 9.77796e-18
9139.63893 9.75096e-18
9141.63191 9.62343e-18
9143.63491 9.40633e-18
9145.63791 9.33234e-18
9147.63090 9.34187e-18
9149.63390 9.37803e-18
9151.63690 9.49001e-18
9153.62988 9.58005e-18
9155.63288 9.62428e-18
9157.63588 9.62885e-18
9159.63888 9.53104e-18
9161.63187 9.30481e-18
9163.63486 9.16153e-18
9165.63787 8.97835e-18
9167.63085 8.93051e-18
9169.63385 9.09189e-18
9171.63685 9.28248e-18
9173.62983 9.32901e-18
9175.63284 9.30565e-18
9177.63583 9.27395e-18
9179.62882 9.14920e-18
9181.63182 9.14206e-18
9183.63482 9.28178e-18
9185.63782 9.36491e-18
9187.63081 9.27993e-18
9189.63381 9.13959e-18
9191.63681 9.16105e-18
9193.62979 9.32578e-18
9195.63279 9.35254e-18
9197.63579 9.26798e-18
9199.62878 9.24962e-18
9201.63178 9.31540e-18
9203.63478 9.40116e-18
9205.62776 9.45659e-18
9207.63076 9.50233e-18
9209.63376 9.58804e-18
9211.63676 9.74706e-18
9213.62975 9.81432e-18
9215.63275 9.79536e-18
9217.63574 9.77911e-18
9219.62873 9.77191e-18
9221.63173 9.78548e-18
9223.63473 9.91297e-18
9225.62772 1.01893e-17
9227.63071 1.02870e-17
9229.63371 1.02649e-17
9231.62670 1.02490e-17
9233.62970 1.02136e-17
9235.63270 1.01958e-17
9237.63570 1.02660e-17
9239.62869 1.03993e-17
9241.63169 1.03647e-17
9243.63469 1.01350e-17
9245.62767 1.00595e-17
9247.63067 1.01227e-17
9249.63367 1.01362e-17
9251.62666 1.00126e-17
9253.62966 9.85003e-18
9255.63266 9.80807e-18
9257.62564 9.83871e-18
9259.62864 9.87678e-18
9261.63164 9.97582e-18
9263.63464 1.00337e-17
9265.62763 1.00424e-17
9267.63062 1.00407e-17
9269.63363 1.00564e-17
9271.62661 1.00767e-17
9273.62961 1.00774e-17
9275.63261 1.00482e-17
9277.62559 1.00513e-17
9279.62860 1.00800e-17
9281.63160 1.01096e-17
9283.63459 1.01422e-17
9285.62758 1.01694e-17
9287.63058 1.01568e-17
9289.63358 1.00996e-17
9291.62657 1.00924e-17
9293.62956 1.01387e-17
9295.63256 1.01375e-17
9297.62555 1.00915e-17
9299.62855 1.00182e-17
9301.63155 9.92085e-18
9303.62454 9.79774e-18
9305.62754 9.68006e-18
9307.63054 9.56860e-18
9309.63354 9.42479e-18
9311.62652 9.22848e-18
9313.62952 9.06296e-18
9315.63252 8.95067e-18
9317.62550 8.86881e-18
9319.62851 8.80065e-18
9321.63151 8.75103e-18
9323.62449 8.72909e-18
9325.62749 8.78596e-18
9327.63049 8.75480e-18
9329.62348 8.62237e-18
9331.62648 8.46488e-18
9333.62947 8.29428e-18
9335.63248 8.10753e-18
9337.62546 8.16441e-18
9339.62846 8.51680e-18
9341.63146 8.68625e-18
9343.62444 8.84915e-18
9345.62745 8.87465e-18
9347.63044 8.67691e-18
9349.62343 8.38634e-18
9351.62643 8.21763e-18
9353.62943 8.09237e-18
9355.62242 7.97152e-18
9357.62542 7.89212e-18
9359.62842 7.77687e-18
9361.63142 7.60774e-18
9363.62440 7.45147e-18
9365.62740 7.33663e-18
9367.63040 7.25123e-18
9369.62339 7.28825e-18
9371.62639 7.54651e-18
9373.62939 7.58041e-18
9375.62237 7.42214e-18
9377.62537 7.33063e-18
9379.62837 7.35627e-18
9381.62136 7.44323e-18
9383.62435 7.59510e-18
9385.62736 7.89145e-18
9387.63036 7.83290e-18
9389.62334 7.35003e-18
9391.62634 7.15374e-18
9393.62934 7.24005e-18
9395.62233 7.38081e-18
9397.62532 7.49708e-18
9399.62832 7.61938e-18
9401.62131 7.50521e-18
9403.62431 7.02514e-18
9405.62731 6.91139e-18
9407.62030 7.01034e-18
9409.62330 7.16058e-18
9411.62630 7.38287e-18
9413.62930 7.61933e-18
9415.62228 7.73745e-18
9417.62528 7.81529e-18
9419.62828 7.69294e-18
9421.62127 7.20943e-18
9423.62427 7.03184e-18
9425.62727 7.15051e-18
9427.62025 7.34381e-18
9429.62325 7.54353e-18
9431.62625 7.77130e-18
9433.61924 7.78096e-18
9435.62224 7.53405e-18
9437.62523 7.46568e-18
9439.62824 7.42398e-18
9441.62122 7.47851e-18
9443.62422 7.74569e-18
9445.62722 8.00633e-18
9447.62020 7.88575e-18
9449.62320 7.44811e-18
9451.62621 7.34051e-18
9453.61919 7.35726e-18
9455.62219 7.49382e-18
9457.62519 7.89144e-18
9459.61818 8.19991e-18
9461.62118 8.16990e-18
9463.62418 7.96360e-18
9465.62718 7.93135e-18
9467.62016 7.95471e-18
9469.62316 8.01087e-18
9471.62616 8.13579e-18
9473.61915 8.24506e-18
9475.62215 8.31373e-18
9477.62514 8.38638e-18
9479.61813 8.53260e-18
9481.62113 8.76144e-18
9483.62413 8.77395e-18
9485.61712 8.55199e-18
9487.62011 8.46028e-18
9489.62312 8.43676e-18
9491.62612 8.48003e-18
9493.61910 8.61703e-18
9495.62210 8.82281e-18
9497.62510 8.99338e-18
9499.61809 9.21865e-18
9501.62109 9.30525e-18
9503.62408 9.25596e-18
9505.61707 9.22878e-18
9507.62007 9.22296e-18
9509.62307 9.24415e-18
9511.62607 9.34486e-18
9513.61906 9.52619e-18
9515.62206 9.58595e-18
9517.62506 9.55912e-18
9519.61804 9.54371e-18
9521.62104 9.48857e-18
9523.62404 9.47850e-18
9525.61703 9.56260e-18
9527.62003 9.70809e-18
9529.62303 9.87761e-18
9531.61601 1.01451e-17
9533.61901 1.02808e-17
9535.62201 1.02991e-17
9537.61499 1.03584e-17
9539.61800 1.05032e-17
9541.62100 1.06409e-17
9543.62399 1.06694e-17
9545.61698 1.06209e-17
9547.61998 1.06074e-17
9549.62298 1.05892e-17
9551.61597 1.05769e-17
9553.61896 1.05987e-17
9555.62197 1.05766e-17
9557.61495 1.04522e-17
9559.61795 1.02771e-17
9561.62095 1.01832e-17
9563.61394 1.01090e-17
9565.61694 1.01063e-17
9567.61994 1.02402e-17
9569.62294 1.02735e-17
9571.61592 1.01437e-17
9573.61892 9.99151e-18
9575.62192 9.95738e-18
9577.61491 9.98675e-18
9579.61791 1.00070e-17
9581.62091 1.00908e-17
9583.61389 1.00792e-17
9585.61689 9.92610e-18
9587.61989 9.83578e-18
9589.61288 9.92774e-18
9591.61588 1.00989e-17
9593.61888 1.01453e-17
9595.62188 1.01231e-17
9597.61486 1.01106e-17
9599.61786 1.00641e-17
9601.62086 1.00431e-17
9603.61384 1.00562e-17
9605.61685 1.00810e-17
9607.61984 1.01056e-17
9609.61283 1.01396e-17
9611.61583 1.01272e-17
9613.61883 1.00868e-17
9615.61182 1.00190e-17
9617.61481 9.89912e-18
9619.61781 9.79196e-18
9621.62082 9.72359e-18
9623.61380 9.67550e-18
9625.61680 9.63512e-18
9627.61980 9.59387e-18
9629.61279 9.60771e-18
9631.61579 9.67069e-18
9633.61879 9.74960e-18
9635.61177 9.86451e-18
9637.61477 9.97470e-18
9639.61777 1.00391e-17
9641.61076 1.00794e-17
9643.61376 1.00448e-17
9645.61676 9.90182e-18
9647.61975 9.81631e-18
9649.61274 9.75460e-18
9651.61574 9.70788e-18
9653.61874 9.66825e-18
9655.61173 9.64641e-18
9657.61472 9.67856e-18
9659.61773 9.80016e-18
9661.61071 9.79362e-18
9663.61371 9.67793e-18
9665.61671 9.59531e-18
9667.60969 9.52878e-18
9669.61269 9.49729e-18
9671.61570 9.55175e-18
9673.60868 9.67755e-18
9675.61168 9.69964e-18
9677.61468 9.61602e-18
9679.61768 9.62677e-18
9681.61067 9.76621e-18
9683.61367 9.81718e-18
9685.61667 9.66709e-18
9687.60965 9.43577e-18
9689.61265 9.33191e-18
9691.61565 9.27806e-18
9693.60864 9.26570e-18
9695.61164 9.35179e-18
9697.61463 9.37171e-18
9699.61764 9.29070e-18
9701.61062 9.21454e-18
9703.61362 9.22835e-18
9705.61662 9.29340e-18
9707.60960 9.38271e-18
9709.61261 9.56588e-18
9711.61561 9.64197e-18
9713.60859 9.61414e-18
9715.61159 9.60603e-18
9717.61459 9.67619e-18
9719.60757 9.75906e-18
9721.61058 9.74660e-18
9723.61357 9.66834e-18
9725.61658 9.58227e-18
9727.60956 9.42713e-18
9729.61256 9.33514e-18
9731.61556 9.30948e-18
9733.60855 9.31636e-18
9735.61155 9.34736e-18
9737.61455 9.40822e-18
9739.60753 9.41302e-18
9741.61053 9.37084e-18
9743.61353 9.34892e-18
9745.60652 9.34413e-18
9747.60952 9.31858e-18
9749.61252 9.26550e-18
9751.61552 9.18812e-18
9753.60850 9.06596e-18
9755.61150 8.85250e-18
9757.61450 8.82660e-18
9759.60749 8.96353e-18
9761.61049 9.07375e-18
9763.61348 9.19969e-18
9765.60647 9.28637e-18
9767.60947 9.26061e-18
9769.61247 9.15702e-18
9771.60546 9.11350e-18
9773.60845 9.07585e-18
9775.61146 9.06762e-18
9777.61445 9.07777e-18
9779.60744 9.11951e-18
9781.61044 9.22538e-18
9783.61344 9.34199e-18
9785.60643 9.35510e-18
9787.60943 9.29535e-18
9789.61243 9.23998e-18
9791.60541 9.13420e-18
9793.60841 9.07286e-18
9795.61141 9.04799e-18
9797.60440 9.05328e-18
9799.60740 9.10323e-18
9801.61040 9.18963e-18
9803.61340 9.21010e-18
9805.60638 9.19723e-18
9807.60938 9.16057e-18
9809.61238 9.05712e-18
9811.60537 8.99922e-18
9813.60837 9.02725e-18
9815.61137 9.08860e-18
9817.60435 9.11432e-18
9819.60735 9.12231e-18
9821.61035 9.16669e-18
9823.60333 9.28755e-18
9825.60634 9.30777e-18
9827.60933 9.21420e-18
9829.61233 9.09138e-18
9831.60532 8.97883e-18
9833.60832 8.85852e-18
9835.61132 8.80053e-18
9837.60431 8.77991e-18
9839.60731 8.79858e-18
9841.61031 8.91812e-18
9843.60329 8.96426e-18
9845.60629 8.91164e-18
9847.60929 8.78163e-18
9849.60228 8.53354e-18
9851.60528 8.10460e-18
9853.60828 7.98007e-18
9855.61128 8.14281e-18
9857.60426 8.16715e-18
9859.60726 8.10158e-18
9861.61026 7.96968e-18
9863.60325 7.71566e-18
9865.60625 7.38299e-18
9867.60924 7.32944e-18
9869.60223 7.59370e-18
9871.60523 7.61588e-18
9873.60823 7.50385e-18
9875.60122 7.40665e-18
9877.60421 7.34975e-18
9879.60721 7.30262e-18
9881.61022 7.24566e-18
9883.60320 7.16911e-18
9885.60620 7.18939e-18
9887.60920 7.34510e-18
9889.60219 7.39815e-18
9891.60519 7.37278e-18
9893.60819 7.29634e-18
9895.60117 7.13051e-18
9897.60417 6.91245e-18
9899.60717 6.93669e-18
9901.61017 7.26214e-18
9903.60316 7.32533e-18
9905.60616 7.24768e-18
9907.60916 7.15358e-18
9909.60214 7.03729e-18
9911.60514 6.92102e-18
9913.60814 6.87679e-18
9915.60113 6.88866e-18
9917.60412 6.85887e-18
9919.60713 6.81953e-18
9921.60011 6.76805e-18
9923.60311 6.65952e-18
9925.60611 6.60655e-18
9927.60911 6.74424e-18
9929.60210 6.96613e-18
9931.60510 6.81882e-18
9933.60809 6.18651e-18
9935.60108 6.05647e-18
9937.60408 6.28328e-18
9939.60708 6.44901e-18
9941.60007 6.50764e-18
9943.60306 6.52512e-18
9945.60606 6.50067e-18
9947.59905 6.41597e-18
9949.60205 6.41659e-18
9951.60505 6.48964e-18
9953.60805 6.52702e-18
9955.60104 6.53934e-18
9957.60404 6.54636e-18
9959.60704 6.57460e-18
9961.60002 6.59910e-18
9963.60302 6.50485e-18
9965.60602 6.24439e-18
9967.59901 6.14375e-18
9969.60201 6.11933e-18
9971.60501 6.13370e-18
9973.59799 6.20391e-18
9975.60099 6.29436e-18
9977.60399 6.35698e-18
9979.60699 6.42443e-18
9981.59998 6.39001e-18
9983.60297 6.23722e-18
9985.60598 6.13000e-18
9987.59896 6.00675e-18
9989.60196 5.94840e-18
9991.60496 6.03278e-18
9993.59794 6.19364e-18
9995.60095 6.23124e-18
9997.60394 6.21275e-18
9999.59693 6.15803e-18
