# wavelength flux
3199.87262 5.97885e-18
3201.87562 6.14110e-18
3203.86861 6.25888e-18
3205.87161 6.11469e-18
3207.87461 6.22525e-18
3209.86759 6.94372e-18
3211.87059 6.92325e-18
3213.87359 7.07559e-18
3215.87659 6.84225e-18
3217.86958 6.17626e-18
3219.87258 6.71709e-18
3221.87558 6.78226e-18
3223.86856 6.71348e-18
3225.87156 6.46116e-18
3227.87456 6.60645e-18
3229.86755 6.52836e-18
3231.87055 6.33389e-18
3233.87355 6.71906e-18
3235.86653 6.58993e-18
3237.86953 6.79928e-18
3239.87253 6.42107e-18
3241.87553 6.35633e-18
3243.86852 6.51786e-18
3245.87152 6.45000e-18
3247.87452 6.20465e-18
3249.86750 6.23112e-18
3251.87050 7.06609e-18
3253.87350 6.63236e-18
3255.86649 6.59248e-18
3257.86949 6.80017e-18
3259.87248 6.38278e-18
3261.86547 6.01076e-18
3263.86847 6.34281e-18
3265.87147 6.18563e-18
3267.87447 6.52849e-18
3269.86746 6.55358e-18
3271.87045 6.30854e-18
3273.87345 6.44651e-18
3275.86644 6.45673e-18
3277.86944 6.26976e-18
3279.87244 6.60161e-18
3281.86542 6.73538e-18
3283.86843 6.76121e-18
3285.87142 6.41705e-18
3287.86441 6.80298e-18
3289.86741 6.86511e-18
3291.87041 6.53940e-18
3293.87341 6.85151e-18
3295.86640 6.83115e-18
3297.86940 6.59300e-18
3299.87239 7.04445e-18
3301.86538 6.72062e-18
3303.86838 6.99442e-18
3305.87138 7.04213e-18
3307.86436 6.94363e-18
3309.86737 6.88311e-18
3311.87037 7.30121e-18
3313.86335 7.52929e-18
3315.86635 7.62555e-18
3317.86935 7.68394e-18
3319.87235 7.55199e-18
3321.86533 7.86694e-18
3323.86834 8.02935e-18
3325.87134 7.96305e-18
3327.86432 7.95389e-18
3329.86732 8.14490e-18
3331.87032 8.60949e-18
3333.86330 8.25817e-18
3335.86631 8.49511e-18
3337.86931 8.85082e-18
3339.86229 8.79899e-18
3341.86529 8.90171e-18
3343.86829 9.10227e-18
3345.87129 9.15715e-18
3347.86427 9.40824e-18
3349.86728 9.87285e-18
3351.87028 9.59139e-18
3353.86326 9.51778e-18
3355.86626 9.57917e-18
3357.86926 9.92502e-18
3359.86225 1.00662e-17
3361.86524 9.83087e-18
3363.86825 9.80305e-18
3365.86123 1.01850e-17
3367.86423 1.05037e-17
3369.86723 1.05390e-17
3371.87023 1.05332e-17
3373.86322 1.08748e-17
3375.86622 1.08593e-17
3377.86922 1.10772e-17
3379.86220 1.14281e-17
3381.86520 1.11040e-17
3383.86820 1.11687e-17
3385.86119 1.18138e-17
3387.86419 1.20123e-17
3389.86719 1.17931e-17
3391.86017 1.16249e-17
3393.86317 1.21649e-17
3395.86617 1.20687e-17
3397.86917 1.17954e-17
3399.86216 1.22641e-17
3401.86515 1.26364e-17
3403.86816 1.23601e-17
3405.86114 1.25526e-17
3407.86414 1.31538e-17
3409.86714 1.29469e-17
3411.86013 1.24813e-17
3413.86313 1.27645e-17
3415.86613 1.33096e-17
3417.85911 1.34523e-17
3419.86211 1.36193e-17
3421.86511 1.36086e-17
3423.86811 1.38465e-17
3425.86110 1.37725e-17
3427.86410 1.38435e-17
3429.86710 1.39544e-17
3431.86008 1.39300e-17
3433.86308 1.42675e-17
3435.86608 1.39472e-17
3437.85907 1.41117e-17
3439.86207 1.41682e-17
3441.86507 1.42338e-17
3443.85805 1.42681e-17
3445.86105 1.42275e-17
3447.86405 1.41061e-17
3449.86705 1.41026e-17
3451.86004 1.45358e-17
3453.86304 1.41573e-17
3455.86604 1.43287e-17
3457.85902 1.42637e-17
3459.86202 1.42270e-17
3461.86502 1.44245e-17
3463.85801 1.44096e-17
3465.86101 1.42547e-17
3467.86401 1.41002e-17
3469.85699 1.43377e-17
3471.85999 1.45077e-17
3473.86299 1.42510e-17
3475.86599 1.43402e-17
3477.85898 1.47751e-17
3479.86198 1.49156e-17
3481.86498 1.47387e-17
3483.85796 1.46868e-17
3485.86096 1.48133e-17
3487.86396 1.47189e-17
3489.85695 1.47711e-17
3491.85995 1.47099e-17
3493.86295 1.50058e-17
3495.85593 1.50283e-17
3497.85893 1.49363e-17
3499.86193 1.48326e-17
3501.86493 1.50113e-17
3503.85792 1.48826e-17
3505.86092 1.47110e-17
3507.86392 1.48899e-17
3509.85690 1.52147e-17
3511.85990 1.51209e-17
3513.86290 1.49876e-17
3515.85589 1.51432e-17
3517.85889 1.50626e-17
3519.86189 1.51971e-17
3521.85487 1.51884e-17
3523.85787 1.49651e-17
3525.86087 1.51387e-17
3527.86387 1.55393e-17
3529.85686 1.54849e-17
3531.85986 1.53175e-17
3533.86286 1.55496e-17
3535.85584 1.58284e-17
3537.85884 1.60983e-17
3539.86184 1.58962e-17
3541.85483 1.62007e-17
3543.85783 1.62212e-17
3545.86083 1.62196e-17
3547.85381 1.64597e-17
3549.85681 1.66528e-17
3551.85981 1.68378e-17
3553.86281 1.69375e-17
3555.85580 1.70491e-17
3557.85880 1.72907e-17
3559.86180 1.76091e-17
3561.85478 1.73719e-17
3563.85778 1.75697e-17
3565.86078 1.76498e-17
3567.85377 1.75570e-17
3569.85677 1.79419e-17
3571.85977 1.78195e-17
3573.85275 1.76765e-17
3575.85575 1.78424e-17
3577.85875 1.78990e-17
3579.86175 1.79412e-17
3581.85473 1.81975e-17
3583.85774 1.79523e-17
3585.86074 1.78766e-17
3587.85372 1.80347e-17
3589.85672 1.81220e-17
3591.85972 1.79648e-17
3593.85270 1.77670e-17
3595.85570 1.79287e-17
3597.85871 1.81494e-17
3599.85169 1.80101e-17
3601.85469 1.78419e-17
3603.85769 1.77954e-17
3605.86069 1.75501e-17
3607.85367 1.72660e-17
3609.85667 1.74012e-17
3611.85968 1.71199e-17
3613.85266 1.68486e-17
3615.85566 1.69690e-17
3617.85866 1.67885e-17
3619.85165 1.66038e-17
3621.85464 1.65224e-17
3623.85765 1.62055e-17
3625.85063 1.63598e-17
3627.85363 1.60825e-17
3629.85663 1.56921e-17
3631.85963 1.57826e-17
3633.85262 1.56841e-17
3635.85561 1.54618e-17
3637.85862 1.48625e-17
3639.85160 1.43107e-17
3641.85460 1.46369e-17
3643.85760 1.40149e-17
3645.85059 1.38174e-17
3647.85359 1.37496e-17
3649.85658 1.34793e-17
3651.84957 1.31463e-17
3653.85257 1.27984e-17
3655.85557 1.26136e-17
3657.85857 1.22286e-17
3659.85156 1.20206e-17
3661.85455 1.19345e-17
3663.85756 1.17412e-17
3665.85054 1.17173e-17
3667.85354 1.15260e-17
3669.85654 1.13519e-17
3671.84953 1.14576e-17
3673.85253 1.13795e-17
3675.85552 1.14962e-17
3677.84851 1.15487e-17
3679.85151 1.14263e-17
3681.85451 1.13975e-17
3683.85751 1.16651e-17
3685.85050 1.17995e-17
3687.85350 1.15995e-17
3689.85649 1.16606e-17
3691.84948 1.15676e-17
3693.85248 1.17277e-17
3695.85548 1.17060e-17
3697.84847 1.15308e-17
3699.85147 1.16648e-17
3701.85447 1.16371e-17
3703.84745 1.15079e-17
3705.85045 1.14325e-17
3707.85345 1.13585e-17
3709.85645 1.12140e-17
3711.84944 1.15450e-17
3713.85244 1.15099e-17
3715.85544 1.14749e-17
3717.84842 1.14305e-17
3719.85142 1.13862e-17
3721.85442 1.13418e-17
3723.84740 1.12975e-17
3725.85041 1.12532e-17
3727.85341 1.12089e-17
3729.84639 1.11646e-17
3731.84939 1.11203e-17
3733.85239 1.10761e-17
3735.85539 1.10318e-17
3737.84838 1.09875e-17
3739.85138 1.09433e-17
3741.85438 1.08990e-17
3743.84736 1.08548e-17
3745.85036 1.08106e-17
3747.85336 1.07664e-17
3749.84635 1.07222e-17
3751.84935 1.06780e-17
3753.85235 1.06338e-17
3755.84533 1.05290e-17
3757.84833 1.07268e-17
3759.85133 1.07154e-17
3761.85433 1.08211e-17
3763.84732 1.10589e-17
3765.85032 1.10712e-17
3767.85332 1.11703e-17
3769.84630 1.11939e-17
3771.84930 1.13619e-17
3773.85230 1.14192e-17
3775.84529 1.15094e-17
3777.84829 1.15824e-17
3779.85129 1.18728e-17
3781.84427 1.19823e-17
3783.84727 1.21388e-17
3785.85027 1.22348e-17
3787.85327 1.25037e-17
3789.84626 1.29115e-17
3791.84926 1.29718e-17
3793.85226 1.32639e-17
3795.84524 1.34337e-17
3797.84824 1.34867e-17
3799.85124 1.38301e-17
3801.84423 1.41574e-17
3803.84723 1.43827e-17
3805.85023 1.48056e-17
3807.85323 1.49698e-17
3809.84621 1.50768e-17
3811.84921 1.53566e-17
3813.85221 1.57429e-17
3815.84520 1.61056e-17
3817.84820 1.63948e-17
3819.85120 1.66097e-17
3821.84418 1.67776e-17
3823.84718 1.68899e-17
3825.85018 1.72224e-17
3827.84317 1.77576e-17
3829.84617 1.79994e-17
3831.84917 1.81259e-17
3833.84215 1.84719e-17
3835.84515 1.88855e-17
3837.84815 1.90451e-17
3839.85115 1.92693e-17
3841.84414 1.96153e-17
3843.84714 1.99520e-17
3845.85014 2.02720e-17
3847.84312 2.05300e-17
3849.84612 2.06385e-17
3851.84912 2.09340e-17
3853.84211 2.11378e-17
3855.84511 2.15819e-17
3857.84811 2.16833e-17
3859.84109 2.18786e-17
3861.84409 2.25941e-17
3863.84709 2.28422e-17
3865.85009 2.26377e-17
3867.84308 2.29413e-17
3869.84608 2.32614e-17
3871.84908 2.36124e-17
3873.84206 2.35151e-17
3875.84506 2.39406e-17
3877.84806 2.41015e-17
3879.84105 2.41594e-17
3881.84405 2.42474e-17
3883.84705 2.43936e-17
3885.84003 2.44640e-17
3887.84303 2.44447e-17
3889.84603 2.44202e-17
3891.84903 2.43006e-17
3893.84202 2.46403e-17
3895.84502 2.46342e-17
3897.84802 2.46684e-17
3899.84100 2.48130e-17
3901.84400 2.50838e-17
3903.84700 2.49104e-17
3905.83999 2.47899e-17
3907.84299 2.47951e-17
3909.84598 2.48813e-17
3911.84899 2.48632e-17
3913.84197 2.48098e-17
3915.84497 2.51359e-17
3917.84797 2.53673e-17
3919.84096 2.53701e-17
3921.84395 2.50953e-17
3923.84695 2.50624e-17
3925.83994 2.51283e-17
3927.84294 2.50484e-17
3929.84594 2.46555e-17
3931.83893 2.40101e-17
3933.84193 2.41043e-17
3935.84492 2.36147e-17
3937.84793 2.15168e-17
3939.84091 2.12029e-17
3941.84391 2.31306e-17
3943.84691 2.41444e-17
3945.83990 2.40976e-17
3947.84290 2.38530e-17
3949.84589 2.35910e-17
3951.83888 2.36065e-17
3953.84188 2.37475e-17
3955.84488 2.35425e-17
3957.83786 2.35653e-17
3959.84087 2.34721e-17
3961.84387 2.34503e-17
3963.84686 2.33419e-17
3965.83985 2.29630e-17
3967.84285 2.29059e-17
3969.84585 2.29050e-17
3971.83884 2.23103e-17
3973.84184 2.17716e-17
3975.84483 2.24603e-17
3977.83782 2.33152e-17
3979.84082 2.34728e-17
3981.84382 2.34868e-17
3983.83680 2.35728e-17
3985.83981 2.34990e-17
3987.84281 2.35022e-17
3989.83579 2.32949e-17
3991.83879 2.31266e-17
3993.84179 2.30585e-17
3995.84479 2.30114e-17
3997.83777 2.28170e-17
3999.84078 2.27672e-17
4001.84378 2.27635e-17
4003.83676 2.25754e-17
4005.83976 2.25980e-17
4007.84276 2.23157e-17
4009.83575 2.21618e-17
4011.83875 2.19352e-17
4013.84175 2.19764e-17
4015.84475 2.19370e-17
4017.83773 2.16594e-17
4019.84073 2.14845e-17
4021.84373 2.12498e-17
4023.83672 2.10202e-17
4025.83972 2.08787e-17
4027.84272 2.06049e-17
4029.83570 2.05958e-17
4031.83870 2.04253e-17
4033.84170 2.04389e-17
4035.83469 2.03413e-17
4037.83769 2.02087e-17
4039.84069 2.01597e-17
4041.84369 2.01621e-17
4043.83667 2.02150e-17
4045.83967 2.01881e-17
4047.84267 2.01132e-17
4049.83566 2.00286e-17
4051.83866 2.00786e-17
4053.84166 2.00919e-17
4055.83464 2.01564e-17
4057.83764 2.01722e-17
4059.84064 2.03682e-17
4061.83363 2.02465e-17
4063.83663 2.02590e-17
4065.83963 2.04268e-17
4067.84263 2.04297e-17
4069.83561 2.04637e-17
4071.83861 2.04665e-17
4073.84161 2.05720e-17
4075.83460 2.04515e-17
4077.83760 2.04796e-17
4079.84060 2.03681e-17
4081.83358 2.04248e-17
4083.83658 2.07068e-17
4085.83958 2.08498e-17
4087.83257 2.07705e-17
4089.83557 2.06899e-17
4091.83857 2.08778e-17
4093.84157 2.10420e-17
4095.83455 2.10336e-17
4097.83755 2.11955e-17
4099.84055 2.10202e-17
4101.83354 2.07794e-17
4103.83653 2.07828e-17
4105.83954 2.08012e-17
4107.83252 2.07508e-17
4109.83552 2.06380e-17
4111.83852 2.05952e-17
4113.83151 2.07257e-17
4115.83451 2.07026e-17
4117.83751 2.05870e-17
4119.84051 2.04670e-17
4121.83349 2.04884e-17
4123.83649 2.04855e-17
4125.83949 2.05116e-17
4127.83248 2.03620e-17
4129.83547 2.03333e-17
4131.83847 2.05269e-17
4133.83146 2.04262e-17
4135.83446 2.04748e-17
4137.83746 2.05750e-17
4139.83045 2.05288e-17
4141.83345 2.05285e-17
4143.83644 2.07126e-17
4145.82943 2.05213e-17
4147.83243 2.06373e-17
4149.83543 2.07040e-17
4151.83843 2.06488e-17
4153.83141 2.05403e-17
4155.83442 2.05861e-17
4157.83741 2.07039e-17
4159.83040 2.08664e-17
4161.83340 2.07745e-17
4163.83640 2.08911e-17
4165.82939 2.10389e-17
4167.83239 2.09903e-17
4169.83539 2.10387e-17
4171.83839 2.10593e-17
4173.83137 2.12530e-17
4175.83437 2.14374e-17
4177.83737 2.14881e-17
4179.83036 2.14950e-17
4181.83335 2.14774e-17
4183.83636 2.17342e-17
4185.82934 2.19394e-17
4187.83234 2.19424e-17
4189.83534 2.19194e-17
4191.82833 2.20400e-17
4193.83133 2.21092e-17
4195.83433 2.21620e-17
4197.83733 2.22483e-17
4199.83031 2.23821e-17
4201.83331 2.23363e-17
4203.83631 2.23913e-17
4205.82929 2.24545e-17
4207.83230 2.23083e-17
4209.83529 2.22084e-17
4211.82828 2.22184e-17
4213.83128 2.20446e-17
4215.83428 2.19979e-17
4217.82727 2.20714e-17
4219.83027 2.17892e-17
4221.83327 2.15548e-17
4223.83627 2.14541e-17
4225.82925 2.13279e-17
4227.83225 2.10658e-17
4229.83525 2.09206e-17
4231.82823 2.07021e-17
4233.83123 2.06737e-17
4235.83424 2.04502e-17
4237.82722 2.01508e-17
4239.83022 2.01435e-17
4241.83322 2.01981e-17
4243.82621 2.00917e-17
4245.82921 1.98892e-17
4247.83221 1.97813e-17
4249.83521 1.95369e-17
4251.82819 1.94003e-17
4253.83119 1.92458e-17
4255.83419 1.92270e-17
4257.82718 1.90813e-17
4259.83018 1.89591e-17
4261.83317 1.89091e-17
4263.82616 1.87986e-17
4265.82916 1.86540e-17
4267.83216 1.84075e-17
4269.82515 1.84954e-17
4271.82815 1.83768e-17
4273.83115 1.81741e-17
4275.83415 1.80115e-17
4277.82713 1.79801e-17
4279.83013 1.80257e-17
4281.83313 1.77111e-17
4283.82611 1.77478e-17
4285.82912 1.77541e-17
4287.83212 1.75496e-17
4289.82510 1.74199e-17
4291.82810 1.74664e-17
4293.83110 1.74848e-17
4295.82409 1.74666e-17
4297.82709 1.76441e-17
4299.83009 1.75334e-17
4301.83309 1.74512e-17
4303.82607 1.73460e-17
4305.82907 1.74255e-17
4307.83207 1.75955e-17
4309.82506 1.75473e-17
4311.82805 1.74282e-17
4313.83106 1.73834e-17
4315.82404 1.75751e-17
4317.82704 1.75791e-17
4319.83004 1.73569e-17
4321.82303 1.74846e-17
4323.82603 1.75007e-17
4325.82903 1.74713e-17
4327.83203 1.74862e-17
4329.82501 1.75067e-17
4331.82801 1.75129e-17
4333.83101 1.74747e-17
4335.82399 1.75111e-17
4337.82700 1.73338e-17
4339.83000 1.73353e-17
4341.82298 1.72904e-17
4343.82598 1.72635e-17
4345.82898 1.74271e-17
4347.82197 1.75635e-17
4349.82497 1.73862e-17
4351.82797 1.74103e-17
4353.83097 1.74345e-17
4355.82395 1.74586e-17
4357.82695 1.74827e-17
4359.82995 1.75069e-17
4361.82294 1.75310e-17
4363.82593 1.75551e-17
4365.82894 1.75792e-17
4367.82192 1.76033e-17
4369.82492 1.76274e-17
4371.82792 1.76515e-17
4373.82091 1.76756e-17
4375.82391 1.76997e-17
4377.82691 1.77238e-17
4379.82991 1.77479e-17
4381.82289 1.77720e-17
4383.82589 1.77961e-17
4385.82889 1.78201e-17
4387.82188 1.78442e-17
4389.82488 1.81452e-17
4391.82787 1.82699e-17
4393.82086 1.83685e-17
4395.82386 1.85734e-17
4397.82686 1.84993e-17
4399.81984 1.86253e-17
4401.82284 1.89022e-17
4403.82584 1.89854e-17
4405.82885 1.90284e-17
4407.82183 1.91919e-17
4409.82483 1.93929e-17
4411.82783 1.96071e-17
4413.82082 1.97469e-17
4415.82382 1.98648e-17
4417.82682 2.00081e-17
4419.81980 2.00686e-17
4421.82280 2.00038e-17
4423.82580 2.02697e-17
4425.81878 2.04040e-17
4427.82179 2.05874e-17
4429.82478 2.08639e-17
4431.82778 2.11240e-17
4433.82077 2.12994e-17
4435.82377 2.12496e-17
4437.82677 2.14135e-17
4439.81976 2.18059e-17
4441.82276 2.19857e-17
4443.82576 2.20064e-17
4445.81874 2.21566e-17
4447.82174 2.23805e-17
4449.82474 2.26048e-17
4451.81772 2.26348e-17
4453.82072 2.28930e-17
4455.82373 2.31300e-17
4457.82672 2.32984e-17
4459.81971 2.36922e-17
4461.82271 2.39261e-17
4463.82571 2.39062e-17
4465.81869 2.40720e-17
4467.82170 2.43611e-17
4469.82470 2.43774e-17
4471.81768 2.45502e-17
4473.82068 2.46708e-17
4475.82368 2.47736e-17
4477.81667 2.49264e-17
4479.81966 2.51456e-17
4481.82266 2.52437e-17
4483.82567 2.54967e-17
4485.81865 2.54102e-17
4487.82165 2.53611e-17
4489.82465 2.55189e-17
4491.81764 2.56723e-17
4493.82064 2.55617e-17
4495.82364 2.56172e-17
4497.81662 2.58283e-17
4499.81962 2.56992e-17
4501.82262 2.57482e-17
4503.81560 2.58091e-17
4505.81861 2.58830e-17
4507.82161 2.59197e-17
4509.82460 2.59357e-17
4511.81759 2.57957e-17
4513.82059 2.57226e-17
4515.82359 2.56230e-17
4517.81658 2.57656e-17
4519.81958 2.58744e-17
4521.82258 2.58699e-17
4523.81556 2.58554e-17
4525.81856 2.58093e-17
4527.82156 2.56953e-17
4529.81455 2.55696e-17
4531.81754 2.54580e-17
4533.82054 2.54088e-17
4535.82355 2.55000e-17
4537.81653 2.53579e-17
4539.81953 2.53339e-17
4541.82253 2.54718e-17
4543.81552 2.54570e-17
4545.81852 2.54251e-17
4547.82152 2.54629e-17
4549.81450 2.54777e-17
4551.81750 2.54458e-17
4553.82050 2.55944e-17
4555.81348 2.55961e-17
4557.81649 2.56001e-17
4559.81948 2.56130e-17
4561.82248 2.56626e-17
4563.81547 2.57325e-17
4565.81847 2.57379e-17
4567.82147 2.57886e-17
4569.81446 2.58544e-17
4571.81746 2.58493e-17
4573.82046 2.58737e-17
4575.81344 2.58807e-17
4577.81644 2.58921e-17
4579.81944 2.59612e-17
4581.81243 2.58917e-17
4583.81542 2.59905e-17
4585.81843 2.58023e-17
4587.82143 2.56911e-17
4589.81441 2.56180e-17
4591.81741 2.55012e-17
4593.82041 2.54529e-17
4595.81340 2.52223e-17
4597.81640 2.51143e-17
4599.81940 2.50110e-17
4601.81238 2.50879e-17
4603.81538 2.49773e-17
4605.81838 2.48385e-17
4607.82138 2.46214e-17
4609.81437 2.44998e-17
4611.81736 2.41517e-17
4613.82037 2.41092e-17
4615.81335 2.41096e-17
4617.81635 2.40794e-17
4619.81935 2.40168e-17
4621.81234 2.39784e-17
4623.81534 2.38030e-17
4625.81834 2.36006e-17
4627.81132 2.35611e-17
4629.81432 2.34531e-17
4631.81732 2.33759e-17
4633.82032 2.31816e-17
4635.81331 2.29050e-17
4637.81631 2.27483e-17
4639.81930 2.27982e-17
4641.81229 2.28033e-17
4643.81529 2.25209e-17
4645.81829 2.21828e-17
4647.81128 2.20256e-17
4649.81428 2.20219e-17
4651.81728 2.20220e-17
4653.81026 2.17962e-17
4655.81326 2.13328e-17
4657.81626 2.12194e-17
4659.80925 2.11617e-17
4661.81225 2.11298e-17
4663.81524 2.08969e-17
4665.81825 2.07799e-17
4667.81123 2.05877e-17
4669.81423 2.03892e-17
4671.81723 2.02830e-17
4673.81022 2.00939e-17
4675.81322 1.98485e-17
4677.81622 1.98252e-17
4679.80920 1.97743e-17
4681.81220 1.95055e-17
4683.81520 1.92062e-17
4685.80818 1.91382e-17
4687.81119 1.89001e-17
4689.81419 1.87078e-17
4691.81718 1.85200e-17
4693.81017 1.83513e-17
4695.81317 1.82053e-17
4697.81617 1.82786e-17
4699.80916 1.80292e-17
4701.81216 1.77659e-17
4703.81516 1.78057e-17
4705.80814 1.79256e-17
4707.81114 1.79277e-17
4709.81414 1.77274e-17
4711.80713 1.78053e-17
4713.81012 1.76575e-17
4715.81313 1.78033e-17
4717.81613 1.77971e-17
4719.80911 1.76797e-17
4721.81211 1.75869e-17
4723.81511 1.75761e-17
4725.80809 1.75028e-17
4727.81110 1.73925e-17
4729.81409 1.73112e-17
4731.80708 1.72486e-17
4733.81008 1.71479e-17
4735.81308 1.71086e-17
4737.80607 1.71156e-17
4739.80907 1.70322e-17
4741.81207 1.69811e-17
4743.81507 1.68719e-17
4745.80805 1.68587e-17
4747.81105 1.68162e-17
4749.81405 1.67254e-17
4751.80703 1.67093e-17
4753.81003 1.66282e-17
4755.81304 1.66027e-17
4757.80602 1.65772e-17
4759.80902 1.65107e-17
4761.81202 1.64321e-17
4763.80501 1.63817e-17
4765.80801 1.63330e-17
4767.81101 1.62743e-17
4769.81401 1.62379e-17
4771.80699 1.61850e-17
4773.80999 1.60818e-17
4775.81299 1.60575e-17
4777.80598 1.59603e-17
4779.80897 1.59924e-17
4781.81197 1.59783e-17
4783.80496 1.60004e-17
4785.80796 1.59458e-17
4787.81096 1.59426e-17
4789.80395 1.59491e-17
4791.80695 1.60375e-17
4793.80994 1.61176e-17
4795.81295 1.62435e-17
4797.80593 1.63554e-17
4799.80893 1.63709e-17
4801.81193 1.64670e-17
4803.80491 1.64149e-17
4805.80792 1.64591e-17
4807.81092 1.65918e-17
4809.80390 1.68078e-17
4811.80690 1.68498e-17
4813.80990 1.68632e-17
4815.81290 1.68080e-17
4817.80589 1.67080e-17
4819.80889 1.66685e-17
4821.81189 1.67513e-17
4823.80487 1.66952e-17
4825.80787 1.65925e-17
4827.81087 1.65497e-17
4829.80386 1.65959e-17
4831.80685 1.65255e-17
4833.80986 1.64087e-17
4835.80284 1.63239e-17
4837.80584 1.62213e-17
4839.80884 1.61678e-17
4841.81184 1.61761e-17
4843.80483 1.61661e-17
4845.80783 1.59478e-17
4847.81083 1.58230e-17
4849.80381 1.57726e-17
4851.80681 1.56901e-17
4853.80981 1.56076e-17
4855.80279 1.55250e-17
4857.80580 1.54425e-17
4859.80879 1.53600e-17
4861.80178 1.52775e-17
4863.80478 1.51951e-17
4865.80778 1.51126e-17
4867.81078 1.50301e-17
4869.80377 1.49477e-17
4871.80677 1.48652e-17
4873.80977 1.47828e-17
4875.80275 1.47004e-17
4877.80575 1.46180e-17
4879.80875 1.45356e-17
4881.80174 1.44532e-17
4883.80473 1.43708e-17
4885.80774 1.42885e-17
4887.80072 1.42061e-17
4889.80372 1.42138e-17
4891.80672 1.41805e-17
4893.80972 1.42062e-17
4895.80271 1.41982e-17
4897.80571 1.41452e-17
4899.80871 1.42691e-17
4901.80169 1.42483e-17
4903.80469 1.42457e-17
4905.80769 1.42418e-17
4907.80068 1.41997e-17
4909.80368 1.41502e-17
4911.80667 1.42802e-17
4913.79966 1.42477e-17
4915.80266 1.41550e-17
4917.80566 1.41151e-17
4919.80866 1.41992e-17
4921.80165 1.42138e-17
4923.80465 1.42095e-17
4925.80765 1.42446e-17
4927.80063 1.42186e-17
4929.80363 1.44241e-17
4931.80663 1.43601e-17
4933.79961 1.43727e-17
4935.80262 1.44882e-17
4937.80562 1.46021e-17
4939.79860 1.45783e-17
4941.80160 1.46529e-17
4943.80460 1.48403e-17
4945.80760 1.48101e-17
4947.80059 1.49650e-17
4949.80359 1.49916e-17
4951.80659 1.50182e-17
4953.79957 1.50449e-17
4955.80257 1.50715e-17
4957.80557 1.50981e-17
4959.79856 1.51247e-17
4961.80156 1.51513e-17
4963.80456 1.51780e-17
4965.79754 1.52046e-17
4967.80054 1.52312e-17
4969.80354 1.52578e-17
4971.79653 1.52844e-17
4973.79953 1.53110e-17
4975.80253 1.53376e-17
4977.80553 1.53642e-17
4979.79851 1.53907e-17
4981.80151 1.54173e-17
4983.80451 1.54439e-17
4985.79749 1.54705e-17
4987.80050 1.54440e-17
4989.80350 1.55939e-17
4991.79648 1.54993e-17
4993.79948 1.55180e-17
4995.80248 1.55682e-17
4997.80548 1.56054e-17
4999.79847 1.56426e-17
5001.80147 1.56798e-17
5003.80447 1.57169e-17
5005.79745 1.57541e-17
5007.80045 1.57913e-17
5009.80345 1.58285e-17
5011.79644 1.58656e-17
5013.79943 1.59028e-17
5015.80244 1.59399e-17
5017.79542 1.59771e-17
5019.79842 1.60142e-17
5021.80142 1.60514e-17
5023.80442 1.60885e-17
5025.79741 1.61257e-17
5027.80041 1.61628e-17
5029.80341 1.61999e-17
5031.79639 1.62370e-17
5033.79939 1.62742e-17
5035.80239 1.63943e-17
5037.79538 1.65215e-17
5039.79838 1.66649e-17
5041.80138 1.67650e-17
5043.79436 1.68672e-17
5045.79736 1.69604e-17
5047.80036 1.70775e-17
5049.80336 1.72669e-17
5051.79634 1.74071e-17
5053.79934 1.75163e-17
5055.80235 1.76241e-17
5057.79533 1.78401e-17
5059.79833 1.78290e-17
5061.80133 1.79568e-17
5063.79432 1.81676e-17
5065.79732 1.83092e-17
5067.80032 1.83282e-17
5069.79330 1.84478e-17
5071.79630 1.87139e-17
5073.79930 1.87909e-17
5075.80230 1.89508e-17
5077.79529 1.89424e-17
5079.79828 1.90535e-17
5081.80128 1.92029e-17
5083.79427 1.92465e-17
5085.79727 1.94115e-17
5087.80027 1.95708e-17
5089.79326 1.94682e-17
5091.79626 1.95079e-17
5093.79926 1.97904e-17
5095.79224 2.00293e-17
5097.79524 2.01795e-17
5099.79824 2.01819e-17
5101.80124 2.04075e-17
5103.79422 2.06762e-17
5105.79723 2.07634e-17
5107.80022 2.07182e-17
5109.79321 2.08465e-17
5111.79621 2.11220e-17
5113.79921 2.10389e-17
5115.79219 2.11161e-17
5117.79520 2.13262e-17
5119.79820 2.13833e-17
5121.79118 2.14647e-17
5123.79418 2.14756e-17
5125.79718 2.14325e-17
5127.80018 2.17063e-17
5129.79317 2.15163e-17
5131.79616 2.18045e-17
5133.79917 2.17238e-17
5135.79215 2.17598e-17
5137.79515 2.18681e-17
5139.79815 2.17756e-17
5141.79114 2.17055e-17
5143.79414 2.18996e-17
5145.79714 2.18816e-17
5147.79012 2.18336e-17
5149.79312 2.21979e-17
5151.79612 2.24649e-17
5153.79912 2.22223e-17
5155.79211 2.18942e-17
5157.79511 2.19191e-17
5159.79810 2.23230e-17
5161.79109 2.24137e-17
5163.79409 2.23531e-17
5165.79709 2.22266e-17
5167.79008 2.21422e-17
5169.79308 2.22864e-17
5171.79608 2.26531e-17
5173.78906 2.24015e-17
5175.79206 2.24272e-17
5177.79506 2.25237e-17
5179.79806 2.23753e-17
5181.79104 2.23724e-17
5183.79404 2.27069e-17
5185.79705 2.24293e-17
5187.79003 2.29765e-17
5189.79303 2.30485e-17
5191.79603 2.28811e-17
5193.78902 2.28296e-17
5195.79202 2.29784e-17
5197.79502 2.31506e-17
5199.78800 2.31830e-17
5201.79100 2.30801e-17
5203.79400 2.33306e-17
5205.79700 2.32667e-17
5207.78999 2.33512e-17
5209.79299 2.35471e-17
5211.79598 2.35178e-17
5213.78897 2.33991e-17
5215.79197 2.34333e-17
5217.79497 2.36338e-17
5219.78796 2.38914e-17
5221.79096 2.38440e-17
5223.79396 2.37134e-17
5225.78694 2.36636e-17
5227.78994 2.35400e-17
5229.79294 2.38456e-17
5231.79594 2.40698e-17
5233.78892 2.39173e-17
5235.79193 2.39744e-17
5237.79493 2.38609e-17
5239.78791 2.36280e-17
5241.79091 2.38601e-17
5243.79391 2.38152e-17
5245.78690 2.39404e-17
5247.78990 2.37351e-17
5249.79290 2.35929e-17
5251.78588 2.35252e-17
5253.78888 2.35508e-17
5255.79188 2.36830e-17
5257.79488 2.35669e-17
5259.78787 2.35755e-17
5261.79086 2.36020e-17
5263.79387 2.34743e-17
5265.78685 2.33675e-17
5267.78985 2.33705e-17
5269.79285 2.34088e-17
5271.78584 2.34193e-17
5273.78884 2.30248e-17
5275.79184 2.31065e-17
5277.78482 2.33003e-17
5279.78782 2.32645e-17
5281.79082 2.31151e-17
5283.79382 2.31425e-17
5285.78681 2.32970e-17
5287.78981 2.31504e-17
5289.79281 2.32119e-17
5291.78579 2.33393e-17
5293.78879 2.33343e-17
5295.79179 2.32092e-17
5297.78478 2.31472e-17
5299.78778 2.32201e-17
5301.79078 2.31320e-17
5303.78376 2.31916e-17
5305.78676 2.32009e-17
5307.78976 2.32025e-17
5309.79276 2.32811e-17
5311.78575 2.33848e-17
5313.78874 2.33731e-17
5315.79175 2.32807e-17
5317.78473 2.34008e-17
5319.78773 2.34173e-17
5321.79073 2.32570e-17
5323.78372 2.31369e-17
5325.78672 2.31466e-17
5327.78972 2.31946e-17
5329.78270 2.33475e-17
5331.78570 2.34183e-17
5333.78870 2.34323e-17
5335.79170 2.34571e-17
5337.78469 2.34015e-17
5339.78769 2.33071e-17
5341.79068 2.32629e-17
5343.78367 2.31481e-17
5345.78667 2.31373e-17
5347.78967 2.31219e-17
5349.78266 2.31003e-17
5351.78566 2.30710e-17
5353.78866 2.30261e-17
5355.78164 2.29742e-17
5357.78464 2.29519e-17
5359.78764 2.29829e-17
5361.79064 2.29821e-17
5363.78363 2.28985e-17
5365.78663 2.29118e-17
5367.78963 2.30061e-17
5369.78261 2.29707e-17
5371.78561 2.27307e-17
5373.78861 2.26573e-17
5375.78159 2.25460e-17
5377.78460 2.25376e-17
5379.78759 2.27718e-17
5381.78058 2.29052e-17
5383.78358 2.27831e-17
5385.78658 2.27329e-17
5387.78958 2.27176e-17
5389.78257 2.25966e-17
5391.78557 2.25338e-17
5393.78857 2.25067e-17
5395.78155 2.25160e-17
5397.78455 2.24643e-17
5399.78755 2.22670e-17
5401.78053 2.21710e-17
5403.78353 2.22645e-17
5405.78654 2.22616e-17
5407.77952 2.22036e-17
5409.78252 2.21147e-17
5411.78552 2.20703e-17
5413.78852 2.20842e-17
5415.78151 2.19618e-17
5417.78451 2.19576e-17
5419.78751 2.18127e-17
5421.78049 2.17786e-17
5423.78349 2.18075e-17
5425.78649 2.17121e-17
5427.77948 2.15418e-17
5429.78247 2.16228e-17
5431.78547 2.16649e-17
5433.78848 2.16741e-17
5435.78146 2.15363e-17
5437.78446 2.14942e-17
5439.78746 2.14349e-17
5441.78045 2.12876e-17
5443.78345 2.13821e-17
5445.78645 2.12434e-17
5447.77943 2.10372e-17
5449.78243 2.09108e-17
5451.78543 2.08720e-17
5453.77841 2.08402e-17
5455.78142 2.08297e-17
5457.78442 2.09245e-17
5459.77740 2.09234e-17
5461.78040 2.07856e-17
5463.78340 2.05524e-17
5465.78640 2.05874e-17
5467.77939 2.06406e-17
5469.78239 2.04213e-17
5471.78539 2.01850e-17
5473.77837 2.03941e-17
5475.78137 2.02711e-17
5477.78437 1.98438e-17
5479.77736 2.00415e-17
5481.78035 2.01476e-17
5483.78335 1.98557e-17
5485.77634 1.98288e-17
5487.77934 1.98208e-17
5489.78234 1.95358e-17
5491.78534 1.94111e-17
5493.77833 1.94128e-17
5495.78133 1.93345e-17
5497.78433 1.91752e-17
5499.77731 1.90576e-17
5501.78031 1.89402e-17
5503.78331 1.91373e-17
5505.77629 1.89327e-17
5507.77930 1.87293e-17
5509.78229 1.88200e-17
5511.77528 1.88145e-17
5513.77828 1.84862e-17
5515.78128 1.84736e-17
5517.78428 1.85325e-17
5519.77727 1.83968e-17
5521.78027 1.83936e-17
5523.78327 1.84293e-17
5525.77625 1.83442e-17
5527.77925 1.81097e-17
5529.78225 1.78857e-17
5531.77524 1.80870e-17
5533.77823 1.80966e-17
5535.78124 1.79003e-17
5537.77422 1.78261e-17
5539.77722 1.78138e-17
5541.78022 1.78017e-17
5543.78322 1.79155e-17
5545.77621 1.77763e-17
5547.77921 1.77264e-17
5549.78221 1.77295e-17
5551.77519 1.75711e-17
5553.77819 1.74231e-17
5555.78119 1.74505e-17
5557.77418 1.75119e-17
5559.77718 1.74174e-17
5561.78017 1.73200e-17
5563.77316 1.74490e-17
5565.77616 1.74732e-17
5567.77916 1.73619e-17
5569.78216 1.72998e-17
5571.77515 1.73690e-17
5573.77815 1.74006e-17
5575.78115 1.73183e-17
5577.77413 1.72825e-17
5579.77713 1.72628e-17
5581.78013 1.72034e-17
5583.77311 1.71893e-17
5585.77612 1.72860e-17
5587.77912 1.73248e-17
5589.77210 1.71919e-17
5591.77510 1.72381e-17
5593.77810 1.73017e-17
5595.78110 1.72308e-17
5597.77409 1.71768e-17
5599.77709 1.72358e-17
5601.78009 1.71668e-17
5603.77307 1.70615e-17
5605.77607 1.69598e-17
5607.77907 1.69292e-17
5609.77206 1.69428e-17
5611.77506 1.68843e-17
5613.77805 1.67533e-17
5615.77104 1.67191e-17
5617.77404 1.68310e-17
5619.77704 1.65878e-17
5621.78004 1.66243e-17
5623.77303 1.67800e-17
5625.77603 1.67322e-17
5627.77903 1.64938e-17
5629.77201 1.64144e-17
5631.77501 1.66532e-17
5633.77801 1.64276e-17
5635.77099 1.63175e-17
5637.77400 1.63125e-17
5639.77700 1.63559e-17
5641.77999 1.63522e-17
5643.77298 1.62130e-17
5645.77598 1.60096e-17
5647.77898 1.59896e-17
5649.77197 1.61098e-17
5651.77497 1.59793e-17
5653.77797 1.59112e-17
5655.77095 1.58994e-17
5657.77395 1.56710e-17
5659.77695 1.55319e-17
5661.76994 1.55546e-17
5663.77293 1.53969e-17
5665.77594 1.55845e-17
5667.77894 1.56226e-17
5669.77192 1.54181e-17
5671.77492 1.53301e-17
5673.77792 1.53557e-17
5675.77091 1.54025e-17
5677.77391 1.52474e-17
5679.77691 1.52680e-17
5681.76989 1.52652e-17
5683.77289 1.51647e-17
5685.77589 1.51822e-17
5687.76888 1.54201e-17
5689.77188 1.52884e-17
5691.77488 1.53968e-17
5693.77788 1.55292e-17
5695.77086 1.55714e-17
5697.77386 1.55404e-17
5699.77686 1.54700e-17
5701.76984 1.54094e-17
5703.77284 1.56130e-17
5705.77585 1.54096e-17
5707.76883 1.54973e-17
5709.77183 1.55627e-17
5711.77483 1.55982e-17
5713.76782 1.56647e-17
5715.77082 1.57101e-17
5717.77382 1.59000e-17
5719.77682 1.58202e-17
5721.76980 1.58405e-17
5723.77280 1.58640e-17
5725.77580 1.59838e-17
5727.76879 1.61659e-17
5729.77178 1.62196e-17
5731.77478 1.61551e-17
5733.76777 1.62468e-17
5735.77077 1.62871e-17
5737.77377 1.62945e-17
5739.76676 1.63143e-17
5741.76976 1.63025e-17
5743.77275 1.62436e-17
5745.77576 1.62875e-17
5747.76874 1.64973e-17
5749.77174 1.64906e-17
5751.77474 1.64447e-17
5753.76772 1.65199e-17
5755.77073 1.65861e-17
5757.77373 1.65268e-17
5759.76671 1.65252e-17
5761.76971 1.65906e-17
5763.77271 1.66369e-17
5765.76570 1.67355e-17
5767.76870 1.68114e-17
5769.77170 1.67731e-17
5771.76468 1.67491e-17
5773.76768 1.69436e-17
5775.77068 1.69864e-17
5777.77368 1.70339e-17
5779.76667 1.68523e-17
5781.76966 1.66423e-17
5783.77267 1.67675e-17
5785.76565 1.71028e-17
5787.76865 1.71369e-17
5789.77165 1.69701e-17
5791.76464 1.69442e-17
5793.76764 1.69691e-17
5795.77064 1.69716e-17
5797.76362 1.70173e-17
5799.76662 1.70376e-17
5801.76962 1.69095e-17
5803.77262 1.68455e-17
5805.76560 1.69862e-17
5807.76861 1.69080e-17
5809.77160 1.69235e-17
5811.76459 1.70293e-17
5813.76759 1.70745e-17
5815.77059 1.69834e-17
5817.76358 1.68146e-17
5819.76658 1.69396e-17
5821.76958 1.66756e-17
5823.76256 1.66805e-17
5825.76556 1.67358e-17
5827.76856 1.66947e-17
5829.77156 1.66992e-17
5831.76454 1.67412e-17
5833.76754 1.66239e-17
5835.77055 1.69033e-17
5837.76353 1.66977e-17
5839.76653 1.66964e-17
5841.76953 1.68449e-17
5843.76252 1.67344e-17
5845.76552 1.66309e-17
5847.76852 1.64122e-17
5849.77152 1.65318e-17
5851.76450 1.66483e-17
5853.76750 1.65823e-17
5855.77050 1.65058e-17
5857.76349 1.64712e-17
5859.76649 1.63231e-17
5861.76948 1.64227e-17
5863.76247 1.64088e-17
5865.76547 1.64158e-17
5867.76847 1.64167e-17
5869.76146 1.63976e-17
5871.76446 1.63513e-17
5873.76746 1.62703e-17
5875.77046 1.61869e-17
5877.76344 1.61671e-17
5879.76644 1.60749e-17
5881.76944 1.60478e-17
5883.76242 1.61477e-17
5885.76543 1.61103e-17
5887.76843 1.58284e-17
5889.76141 1.58724e-17
5891.76441 1.57312e-17
5893.76741 1.40633e-17
5895.76040 1.11654e-17
5897.76340 9.57025e-18
5899.76640 1.00259e-17
5901.76940 1.08125e-17
5903.76238 1.07487e-17
5905.76538 1.25726e-17
5907.76838 1.48602e-17
5909.76137 1.59445e-17
5911.76436 1.60798e-17
5913.76737 1.59841e-17
5915.76035 1.59533e-17
5917.76335 1.59285e-17
5919.76635 1.58631e-17
5921.75934 1.59951e-17
5923.76234 1.59930e-17
5925.76534 1.61334e-17
5927.76834 1.62156e-17
5929.76132 1.60201e-17
5931.76432 1.58516e-17
5933.76732 1.58725e-17
5935.76030 1.59168e-17
5937.76331 1.57991e-17
5939.76631 1.56771e-17
5941.75929 1.56044e-17
5943.76229 1.55180e-17
5945.76529 1.54360e-17
5947.75828 1.55673e-17
5949.76128 1.55512e-17
5951.76428 1.55449e-17
5953.76728 1.54573e-17
5955.76026 1.52943e-17
5957.76326 1.52143e-17
5959.76626 1.52571e-17
5961.75925 1.51061e-17
5963.76224 1.52210e-17
5965.76525 1.49920e-17
5967.75823 1.50196e-17
5969.76123 1.51246e-17
5971.76423 1.51457e-17
5973.75722 1.51377e-17
5975.76022 1.49246e-17
5977.76322 1.49940e-17
5979.76622 1.49822e-17
5981.75920 1.48727e-17
5983.76220 1.47236e-17
5985.76520 1.46981e-17
5987.75819 1.47587e-17
5989.76119 1.46267e-17
5991.76418 1.48851e-17
5993.75717 1.49001e-17
5995.76017 1.48715e-17
5997.76317 1.47446e-17
5999.75616 1.46868e-17
6001.75916 1.47535e-17
6003.76216 1.46554e-17
6005.76516 1.45377e-17
6007.75814 1.43670e-17
6009.76114 1.43332e-17
6011.76414 1.42445e-17
6013.75713 1.41024e-17
6015.76013 1.40742e-17
6017.76313 1.41654e-17
6019.75611 1.41220e-17
6021.75911 1.40459e-17
6023.76211 1.40992e-17
6025.75509 1.40433e-17
6027.75810 1.38586e-17
6029.76109 1.38598e-17
6031.76409 1.37466e-17
6033.75708 1.36386e-17
6035.76008 1.35933e-17
6037.76308 1.35076e-17
6039.75607 1.34039e-17
6041.75907 1.34205e-17
6043.76207 1.33971e-17
6045.75505 1.32469e-17
6047.75805 1.30788e-17
6049.76105 1.30057e-17
6051.75403 1.29761e-17
6053.75703 1.29856e-17
6055.76004 1.29216e-17
6057.76303 1.28517e-17
6059.75602 1.28252e-17
6061.75902 1.27236e-17
6063.76202 1.26919e-17
6065.75500 1.27253e-17
6067.75801 1.25958e-17
6069.76101 1.25015e-17
6071.75399 1.24127e-17
6073.75699 1.24033e-17
6075.75999 1.25431e-17
6077.75298 1.24411e-17
6079.75598 1.22903e-17
6081.75897 1.22684e-17
6083.76198 1.22868e-17
6085.75496 1.21970e-17
6087.75796 1.20164e-17
6089.76096 1.19195e-17
6091.75395 1.20248e-17
6093.75695 1.19833e-17
6095.75995 1.20272e-17
6097.75293 1.19275e-17
6099.75593 1.17381e-17
6101.75893 1.18410e-17
6103.75191 1.19155e-17
6105.75492 1.19908e-17
6107.75792 1.20825e-17
6109.76091 1.20190e-17
6111.75390 1.19157e-17
6113.75690 1.18783e-17
6115.75990 1.20231e-17
6117.75289 1.21508e-17
6119.75589 1.20853e-17
6121.75889 1.18642e-17
6123.75187 1.19940e-17
6125.75487 1.20824e-17
6127.75787 1.20069e-17
6129.75086 1.19107e-17
6131.75385 1.19361e-17
6133.75685 1.19601e-17
6135.75986 1.19594e-17
6137.75284 1.18853e-17
6139.75584 1.18435e-17
6141.75884 1.18433e-17
6143.75183 1.18767e-17
6145.75483 1.20129e-17
6147.75783 1.19597e-17
6149.75081 1.19273e-17
6151.75381 1.19068e-17
6153.75681 1.18463e-17
6155.74979 1.19196e-17
6157.75280 1.18973e-17
6159.75580 1.18577e-17
6161.75879 1.19892e-17
6163.75178 1.18698e-17
6165.75478 1.17737e-17
6167.75778 1.18153e-17
6169.75077 1.19454e-17
6171.75377 1.18341e-17
6173.75677 1.17606e-17
6175.74975 1.17637e-17
6177.75275 1.17891e-17
6179.75575 1.18384e-17
6181.74874 1.19518e-17
6183.75173 1.19039e-17
6185.75474 1.19187e-17
6187.75774 1.19002e-17
6189.75072 1.19166e-17
6191.75372 1.18729e-17
6193.75672 1.19674e-17
6195.74971 1.19772e-17
6197.75271 1.20556e-17
6199.75571 1.22468e-17
6201.74869 1.23006e-17
6203.75169 1.23601e-17
6205.75469 1.23739e-17
6207.74768 1.23893e-17
6209.75068 1.24417e-17
6211.75367 1.24895e-17
6213.75668 1.24351e-17
6215.74966 1.25576e-17
6217.75266 1.26245e-17
6219.75566 1.26055e-17
6221.74865 1.25679e-17
6223.75165 1.26831e-17
6225.75465 1.28852e-17
6227.74763 1.29282e-17
6229.75063 1.29502e-17
6231.75363 1.29987e-17
6233.74662 1.29594e-17
6235.74962 1.28874e-17
6237.75262 1.30302e-17
6239.75562 1.31259e-17
6241.74860 1.31291e-17
6243.75160 1.31453e-17
6245.75460 1.31994e-17
6247.74759 1.32042e-17
6249.75059 1.32222e-17
6251.75359 1.32975e-17
6253.74657 1.33840e-17
6255.74957 1.35022e-17
6257.75257 1.35310e-17
6259.75557 1.34262e-17
6261.74856 1.34691e-17
6263.75155 1.36389e-17
6265.75456 1.37240e-17
6267.74754 1.36671e-17
6269.75054 1.36292e-17
6271.75354 1.37047e-17
6273.74653 1.36938e-17
6275.74953 1.36211e-17
6277.75253 1.36856e-17
6279.74551 1.37349e-17
6281.74851 1.37574e-17
6283.75151 1.38400e-17
6285.74449 1.37455e-17
6287.74750 1.36687e-17
6289.75050 1.34667e-17
6291.75349 1.34589e-17
6293.74648 1.34968e-17
6295.74948 1.34462e-17
6297.75248 1.34152e-17
6299.74547 1.33724e-17
6301.74847 1.34491e-17
6303.75147 1.35209e-17
6305.74445 1.35302e-17
6307.74745 1.34875e-17
6309.75045 1.33961e-17
6311.74344 1.33795e-17
6313.74644 1.33586e-17
6315.74944 1.33884e-17
6317.75244 1.33749e-17
6319.74542 1.33970e-17
6321.74842 1.33450e-17
6323.75142 1.33152e-17
6325.74441 1.32704e-17
6327.74741 1.32999e-17
6329.75041 1.33266e-17
6331.74339 1.34421e-17
6333.74639 1.34036e-17
6335.74939 1.33217e-17
6337.74238 1.33474e-17
6339.74538 1.33513e-17
6341.74838 1.32999e-17
6343.75138 1.33592e-17
6345.74436 1.33374e-17
6347.74736 1.32969e-17
6349.75036 1.33425e-17
6351.74334 1.32442e-17
6353.74634 1.32955e-17
6355.74935 1.33542e-17
6357.74233 1.34180e-17
6359.74533 1.33280e-17
6361.74833 1.33222e-17
6363.74132 1.33453e-17
6365.74432 1.33373e-17
6367.74732 1.34636e-17
6369.75032 1.34754e-17
6371.74330 1.36330e-17
6373.74630 1.36690e-17
6375.74930 1.36892e-17
6377.74229 1.36254e-17
6379.74528 1.35561e-17
6381.74828 1.34724e-17
6383.74127 1.35053e-17
6385.74427 1.35943e-17
6387.74727 1.35309e-17
6389.74026 1.35042e-17
6391.74326 1.37326e-17
6393.74626 1.37168e-17
6395.74926 1.37364e-17
6397.74224 1.37363e-17
6399.74524 1.36301e-17
6401.74824 1.36492e-17
6403.74122 1.37479e-17
6405.74423 1.36909e-17
6407.74723 1.37029e-17
6409.74021 1.37666e-17
6411.74321 1.37921e-17
6413.74621 1.37874e-17
6415.73920 1.37471e-17
6417.74220 1.38189e-17
6419.74520 1.38681e-17
6421.74820 1.39362e-17
6423.74118 1.39208e-17
6425.74418 1.40053e-17
6427.74718 1.38838e-17
6429.74017 1.38529e-17
6431.74316 1.38214e-17
6433.74617 1.38740e-17
6435.73915 1.39311e-17
6437.74215 1.39650e-17
6439.74515 1.39371e-17
6441.73814 1.39117e-17
6443.74114 1.39591e-17
6445.74414 1.40430e-17
6447.74714 1.39889e-17
6449.74012 1.39614e-17
6451.74312 1.38767e-17
6453.74612 1.38225e-17
6455.73910 1.38718e-17
6457.74211 1.39446e-17
6459.74510 1.39914e-17
6461.73809 1.40165e-17
6463.74109 1.40322e-17
6465.74409 1.38732e-17
6467.74709 1.39171e-17
6469.74008 1.39958e-17
6471.74308 1.39600e-17
6473.74608 1.39619e-17
6475.73906 1.40646e-17
6477.74206 1.40887e-17
6479.74506 1.40848e-17
6481.73805 1.41129e-17
6483.74104 1.41534e-17
6485.74405 1.41927e-17
6487.73703 1.42056e-17
6489.74003 1.42124e-17
6491.74303 1.41817e-17
6493.74603 1.42660e-17
6495.73902 1.43323e-17
6497.74202 1.44691e-17
6499.74502 1.45960e-17
6501.73800 1.46882e-17
6503.74100 1.46494e-17
6505.74400 1.46815e-17
6507.73699 1.46721e-17
6509.73999 1.45426e-17
6511.74298 1.46193e-17
6513.73597 1.45919e-17
6515.73897 1.46016e-17
6517.74197 1.45265e-17
6519.74497 1.46064e-17
6521.73796 1.47549e-17
6523.74096 1.46061e-17
6525.74396 1.45995e-17
6527.73694 1.48033e-17
6529.73994 1.48075e-17
6531.74294 1.47564e-17
6533.73592 1.48008e-17
6535.73893 1.48113e-17
6537.74193 1.48168e-17
6539.73491 1.47479e-17
6541.73791 1.47586e-17
6543.74091 1.47410e-17
6545.74391 1.47234e-17
6547.73690 1.47058e-17
6549.73990 1.46882e-17
6551.74290 1.46706e-17
6553.73588 1.46530e-17
6555.73888 1.46354e-17
6557.74188 1.46178e-17
6559.73487 1.46002e-17
6561.73787 1.45826e-17
6563.74087 1.45650e-17
6565.73385 1.45474e-17
6567.73685 1.45298e-17
6569.73985 1.45122e-17
6571.74285 1.44946e-17
6573.73584 1.44770e-17
6575.73884 1.44595e-17
6577.74184 1.44419e-17
6579.73482 1.44243e-17
6581.73782 1.44067e-17
6583.74082 1.43891e-17
6585.73380 1.43715e-17
6587.73681 1.43539e-17
6589.73981 1.43364e-17
6591.73279 1.43188e-17
6593.73579 1.43012e-17
6595.73879 1.42836e-17
6597.73178 1.42660e-17
6599.73478 1.42485e-17
6601.73778 1.42309e-17
6603.74078 1.42133e-17
6605.73376 1.41882e-17
6607.73676 1.42852e-17
6609.73976 1.42097e-17
6611.73275 1.41838e-17
6613.73574 1.42729e-17
6615.73875 1.44150e-17
6617.73173 1.43092e-17
6619.73473 1.40572e-17
6621.73773 1.41035e-17
6623.73072 1.40101e-17
6625.73372 1.38402e-17
6627.73672 1.38924e-17
6629.73972 1.39718e-17
6631.73270 1.40578e-17
6633.73570 1.40595e-17
6635.73870 1.40392e-17
6637.73169 1.39821e-17
6639.73469 1.40630e-17
6641.73769 1.40516e-17
6643.73067 1.39824e-17
6645.73367 1.38411e-17
6647.73667 1.39535e-17
6649.72966 1.39071e-17
6651.73266 1.38043e-17
6653.73566 1.37830e-17
6655.73866 1.37636e-17
6657.73164 1.36819e-17
6659.73464 1.37256e-17
6661.73764 1.37950e-17
6663.73063 1.38792e-17
6665.73363 1.37565e-17
6667.73663 1.36344e-17
6669.72961 1.36646e-17
6671.73261 1.36093e-17
6673.73561 1.36122e-17
6675.73861 1.34629e-17
6677.73160 1.34436e-17
6679.73459 1.33510e-17
6681.73759 1.32309e-17
6683.73058 1.32847e-17
6685.73358 1.32932e-17
6687.73658 1.32992e-17
6689.72957 1.33526e-17
6691.73257 1.31114e-17
6693.73557 1.32160e-17
6695.72855 1.32412e-17
6697.73155 1.31956e-17
6699.73455 1.30182e-17
6701.73755 1.27972e-17
6703.73053 1.27938e-17
6705.73354 1.29558e-17
6707.73654 1.29910e-17
6709.72952 1.28043e-17
6711.73252 1.27335e-17
6713.73552 1.26782e-17
6715.72851 1.25186e-17
6717.73151 1.24952e-17
6719.73451 1.24309e-17
6721.72749 1.26193e-17
6723.73049 1.27089e-17
6725.73349 1.26310e-17
6727.73649 1.26110e-17
6729.72948 1.25438e-17
6731.73247 1.24321e-17
6733.73548 1.22218e-17
6735.72846 1.21942e-17
6737.73146 1.22577e-17
6739.73446 1.21474e-17
6741.72745 1.22006e-17
6743.73045 1.23271e-17
6745.73345 1.21622e-17
6747.72643 1.20122e-17
6749.72943 1.20642e-17
6751.73243 1.20569e-17
6753.73543 1.19714e-17
6755.72842 1.19597e-17
6757.73142 1.19149e-17
6759.73441 1.18654e-17
6761.72740 1.19415e-17
6763.73040 1.18807e-17
6765.73340 1.17686e-17
6767.72639 1.17492e-17
6769.72939 1.18429e-17
6771.73239 1.17332e-17
6773.72537 1.17695e-17
6775.72837 1.17734e-17
6777.73137 1.16352e-17
6779.73437 1.15536e-17
6781.72735 1.16085e-17
6783.73035 1.15021e-17
6785.73336 1.12506e-17
6787.72634 1.13646e-17
6789.72934 1.13721e-17
6791.73234 1.14118e-17
6793.72533 1.13735e-17
6795.72833 1.13619e-17
6797.73133 1.12600e-17
6799.72431 1.10980e-17
6801.72731 1.10524e-17
6803.73031 1.11382e-17
6805.73331 1.11248e-17
6807.72630 1.10943e-17
6809.72930 1.11213e-17
6811.73229 1.11385e-17
6813.72528 1.09123e-17
6815.72828 1.10139e-17
6817.73128 1.11207e-17
6819.72427 1.11804e-17
6821.72727 1.11865e-17
6823.73027 1.12007e-17
6825.72325 1.11536e-17
6827.72625 1.10439e-17
6829.72925 1.09045e-17
6831.73225 1.09113e-17
6833.72523 1.08244e-17
6835.72824 1.08033e-17
6837.73124 1.08851e-17
6839.72422 1.08649e-17
6841.72722 1.08623e-17
6843.73022 1.08719e-17
6845.72321 1.08534e-17
6847.72621 1.08523e-17
6849.72921 1.07198e-17
6851.72219 1.07576e-17
6853.72519 1.06143e-17
6855.72819 1.08057e-17
6857.73119 1.05472e-17
6859.72418 1.05149e-17
6861.72717 1.05232e-17
6863.73018 1.04935e-17
6865.72316 1.05896e-17
6867.72616 1.05953e-17
6869.72916 1.06846e-17
6871.72215 1.06111e-17
6873.72515 1.05532e-17
6875.72815 1.05067e-17
6877.72113 1.05262e-17
6879.72413 1.03669e-17
6881.72713 1.04553e-17
6883.73013 1.04719e-17
6885.72312 1.04812e-17
6887.72612 1.03701e-17
6889.72912 1.04350e-17
6891.72210 1.03257e-17
6893.72510 1.02405e-17
6895.72810 1.03361e-17
6897.72109 1.03532e-17
6899.72409 1.03223e-17
6901.72709 1.05750e-17
6903.72007 1.02917e-17
6905.72307 1.02674e-17
6907.72607 1.02902e-17
6909.72907 1.02478e-17
6911.72206 1.02997e-17
6913.72505 1.03003e-17
6915.72806 1.02428e-17
6917.72104 1.02675e-17
6919.72404 1.01864e-17
6921.72704 1.01220e-17
6923.72003 1.00746e-17
6925.72303 1.00151e-17
6927.72603 9.98725e-18
6929.71901 1.00358e-17
6931.72201 1.00862e-17
6933.72501 1.00548e-17
6935.72801 1.00332e-17
6937.72100 1.00114e-17
6939.72400 9.92836e-18
6941.72699 9.98074e-18
6943.71998 1.00624e-17
6945.72298 9.98839e-18
6947.72598 1.01686e-17
6949.71897 1.00440e-17
6951.72197 9.94810e-18
6953.72497 1.00513e-17
6955.71795 1.00347e-17
6957.72095 9.95539e-18
6959.72395 1.00385e-17
6961.72695 1.00893e-17
6963.71994 1.00521e-17
6965.72294 1.01088e-17
6967.72594 1.00372e-17
6969.71892 9.86751e-18
6971.72192 9.77741e-18
6973.72492 9.75066e-18
6975.71791 9.85433e-18
6977.72091 9.81451e-18
6979.72391 9.77844e-18
6981.71689 9.76789e-18
6983.71989 9.85004e-18
6985.72289 9.79463e-18
6987.72589 9.86571e-18
6989.71888 9.86483e-18
6991.72188 9.74017e-18
6993.72488 9.81403e-18
6995.71786 9.68642e-18
6997.72086 9.74599e-18
6999.72386 9.86592e-18
7001.71684 9.93699e-18
7003.71984 9.85859e-18
7005.72285 9.68902e-18
7007.71583 9.73412e-18
7009.71883 9.84925e-18
7011.72183 9.74396e-18
7013.72483 9.81884e-18
7015.71782 9.75327e-18
7017.72082 9.89485e-18
7019.72382 9.95762e-18
7021.71680 9.82813e-18
7023.71980 9.85355e-18
7025.72280 9.72990e-18
7027.71579 9.69481e-18
7029.71879 9.72571e-18
7031.72178 9.76541e-18
7033.71477 9.73789e-18
7035.71777 9.76400e-18
7037.72077 9.68530e-18
7039.72377 9.78776e-18
7041.71676 9.85686e-18
7043.71976 9.85398e-18
7045.72276 9.77355e-18
7047.71574 9.84735e-18
7049.71874 9.92907e-18
7051.72174 9.84524e-18
7053.71472 9.91051e-18
7055.71773 9.91798e-18
7057.72073 9.88803e-18
7059.71371 9.97836e-18
7061.71671 9.87731e-18
7063.71971 9.83770e-18
7065.72271 9.85953e-18
7067.71570 1.00186e-17
7069.71870 1.00143e-17
7071.72170 9.91049e-18
7073.71468 9.84026e-18
7075.71768 9.85774e-18
7077.72068 9.93925e-18
7079.71367 9.99492e-18
7081.71666 1.00288e-17
7083.71966 1.00494e-17
7085.71265 1.00303e-17
7087.71565 1.00640e-17
7089.71865 1.01145e-17
7091.72165 1.01255e-17
7093.71464 1.02292e-17
7095.71764 1.02845e-17
7097.72064 1.01220e-17
7099.71362 1.01159e-17
7101.71662 1.02172e-17
7103.71962 1.00848e-17
7105.71260 1.00610e-17
7107.71561 1.00627e-17
7109.71861 9.99026e-18
7111.71159 9.99642e-18
7113.71459 1.00356e-17
7115.71759 1.00047e-17
7117.72059 9.90376e-18
7119.71358 9.95887e-18
7121.71658 1.02560e-17
7123.71958 1.00675e-17
7125.71256 1.00850e-17
7127.71556 1.00611e-17
7129.71856 1.02006e-17
7131.71155 1.01000e-17
7133.71454 9.99623e-18
7135.71755 1.00453e-17
7137.71053 1.00765e-17
7139.71353 1.00085e-17
7141.71653 1.00528e-17
7143.71953 9.94416e-18
7145.71252 9.97257e-18
7147.71552 9.92284e-18
7149.71852 1.00216e-17
7151.71150 1.00506e-17
7153.71450 1.00735e-17
7155.71750 1.00689e-17
7157.71049 1.00143e-17
7159.71349 1.00347e-17
7161.71648 1.01196e-17
7163.70947 1.01499e-17
7165.71247 9.93207e-18
7167.71547 9.99063e-18
7169.71847 1.00090e-17
7171.71146 9.99545e-18
7173.71446 1.00026e-17
7175.71746 9.94876e-18
7177.71044 9.95178e-18
7179.71344 1.00463e-17
7181.71644 1.00810e-17
7183.70943 9.89013e-18
7185.71243 9.77761e-18
7187.71543 9.89096e-18
7189.70841 9.86914e-18
7191.71141 9.66733e-18
7193.71441 9.76296e-18
7195.71741 9.94762e-18
7197.71040 9.83120e-18
7199.71340 9.77760e-18
7201.71640 9.91985e-18
7203.70938 9.85634e-18
7205.71238 9.87926e-18
7207.71538 9.98832e-18
7209.70837 9.93463e-18
7211.71137 9.98776e-18
7213.71436 1.00075e-17
7215.70735 1.00033e-17
7217.71035 9.93993e-18
7219.71335 9.92915e-18
7221.71635 9.82719e-18
7223.70934 9.69667e-18
7225.71234 9.69318e-18
7227.71534 9.57795e-18
7229.70832 9.64149e-18
7231.71132 9.63992e-18
7233.71432 9.49180e-18
7235.70730 9.55569e-18
7237.71031 9.55819e-18
7239.71331 9.41582e-18
7241.70629 9.35505e-18
7243.70929 9.26911e-18
7245.71229 9.52352e-18
7247.71529 9.40928e-18
7249.70828 9.51378e-18
7251.71128 9.44616e-18
7253.71428 9.28723e-18
7255.70726 9.36239e-18
7257.71026 9.42782e-18
7259.71326 9.33305e-18
7261.70625 9.28548e-18
7263.70925 9.18065e-18
7265.71225 9.20937e-18
7267.70523 9.24070e-18
7269.70823 9.19392e-18
7271.71123 9.17648e-18
7273.71423 9.15401e-18
7275.70722 9.05154e-18
7277.71022 8.85737e-18
7279.71322 9.14281e-18
7281.70620 9.04235e-18
7283.70920 9.18992e-18
7285.71220 9.06908e-18
7287.70519 9.13370e-18
7289.70819 8.86860e-18
7291.71119 8.97080e-18
7293.70417 8.89993e-18
7295.70717 8.79845e-18
7297.71017 8.82544e-18
7299.71317 8.82796e-18
7301.70616 8.75294e-18
7303.70916 8.64379e-18
7305.71216 8.76259e-18
7307.70514 8.70250e-18
7309.70814 8.70286e-18
7311.71114 8.64636e-18
7313.70413 8.78777e-18
7315.70713 8.79559e-18
7317.71013 8.65736e-18
7319.71313 8.69155e-18
7321.70611 8.67040e-18
7323.70911 8.65306e-18
7325.71211 8.66867e-18
7327.70510 8.63982e-18
7329.70809 8.62630e-18
7331.71109 8.65456e-18
7333.70408 8.65757e-18
7335.70708 8.62492e-18
7337.71008 8.64734e-18
7339.70307 8.52691e-18
7341.70607 8.38534e-18
7343.70907 8.36728e-18
7345.71207 8.30908e-18
7347.70505 8.28199e-18
7349.70805 8.32809e-18
7351.71105 8.33894e-18
7353.70403 8.18081e-18
7355.70704 8.14237e-18
7357.71004 8.23522e-18
7359.70302 8.17900e-18
7361.70602 8.18707e-18
7363.70902 8.10526e-18
7365.70201 8.11288e-18
7367.70501 8.14030e-18
7369.70801 8.10906e-18
7371.71101 8.22616e-18
7373.70399 8.09387e-18
7375.70699 8.04503e-18
7377.70999 8.07409e-18
7379.70298 8.00672e-18
7381.70597 8.08899e-18
7383.70898 8.12252e-18
7385.70196 8.12765e-18
7387.70496 7.99274e-18
7389.70796 8.03873e-18
7391.70095 8.04399e-18
7393.70395 7.99689e-18
7395.70695 7.96290e-18
7397.69993 7.83051e-18
7399.70293 7.84829e-18
7401.70593 7.94339e-18
7403.70893 7.92991e-18
7405.70191 7.90647e-18
7407.70492 7.78128e-18
7409.70791 7.73293e-18
7411.70090 7.71336e-18
7413.70390 7.76599e-18
7415.70690 7.64777e-18
7417.69989 7.67654e-18
7419.70289 7.73366e-18
7421.70589 7.69251e-18
7423.69887 7.71442e-18
7425.70187 7.77843e-18
7427.70487 7.78648e-18
7429.70787 7.61648e-18
7431.70086 7.55916e-18
7433.70385 7.58413e-18
7435.70686 7.72067e-18
7437.69984 7.64063e-18
7439.70284 7.44461e-18
7441.70584 7.31033e-18
7443.69883 7.38607e-18
7445.70183 7.37426e-18
7447.70483 7.40689e-18
7449.69781 7.42182e-18
7451.70081 7.41131e-18
7453.70381 7.40604e-18
7455.70681 7.40274e-18
7457.69980 7.42575e-18
7459.70280 7.34081e-18
7461.70579 7.30885e-18
7463.69878 7.12121e-18
7465.70178 7.13190e-18
7467.70478 7.23819e-18
7469.69777 7.20026e-18
7471.70077 7.11935e-18
7473.70377 7.18043e-18
7475.69675 7.21716e-18
7477.69975 7.09163e-18
7479.70275 7.22099e-18
7481.70575 7.21255e-18
7483.69873 7.18728e-18
7485.70174 7.26949e-18
7487.70474 7.27154e-18
7489.69772 7.30179e-18
7491.70072 7.33690e-18
7493.70372 7.26868e-18
7495.69671 7.13838e-18
7497.69971 7.09184e-18
7499.70271 7.16321e-18
7501.70571 7.21115e-18
7503.69869 7.10788e-18
7505.70169 7.11538e-18
7507.70469 7.19494e-18
7509.69768 7.09984e-18
7511.70068 7.18355e-18
7513.70368 7.13580e-18
7515.69666 7.03516e-18
7517.69966 7.16022e-18
7519.70266 7.08525e-18
7521.69565 7.10976e-18
7523.69865 7.21139e-18
7525.70165 7.22486e-18
7527.70465 7.15812e-18
7529.69763 7.19081e-18
7531.70063 7.13136e-18
7533.70363 7.09714e-18
7535.69661 7.22695e-18
7537.69962 7.26089e-18
7539.70262 7.14356e-18
7541.69560 7.12103e-18
7543.69860 7.16621e-18
7545.70160 7.13134e-18
7547.69459 7.16714e-18
7549.69759 7.09428e-18
7551.70059 7.10140e-18
7553.70359 7.11117e-18
7555.69657 7.12581e-18
7557.69957 7.11919e-18
7559.70257 7.19870e-18
7561.69556 7.20220e-18
7563.69855 7.16373e-18
7565.70156 7.24312e-18
7567.69454 7.27828e-18
7569.69754 7.26960e-18
7571.70054 7.24870e-18
7573.69353 7.03559e-18
7575.69653 7.13251e-18
7577.69953 7.18035e-18
7579.70253 7.25936e-18
7581.69551 7.19288e-18
7583.69851 7.13408e-18
7585.70151 7.19477e-18
7587.69450 7.22103e-18
7589.69750 7.14060e-18
7591.70050 7.27453e-18
7593.69348 7.48949e-18
7595.69648 7.48572e-18
7597.69948 7.04588e-18
7599.69247 7.32219e-18
7601.69547 7.50365e-18
7603.69847 7.21340e-18
7605.70147 7.41496e-18
7607.69445 7.52514e-18
7609.69745 7.44542e-18
7611.70045 7.33587e-18
7613.69344 7.34528e-18
7615.69644 7.38261e-18
7617.69944 7.33855e-18
7619.69242 7.31429e-18
7621.69542 7.37602e-18
7623.69842 7.34785e-18
7625.69141 7.49302e-18
7627.69441 7.50453e-18
7629.69741 7.28292e-18
7631.70041 7.45814e-18
7633.69339 7.23969e-18
7635.69639 7.47415e-18
7637.69939 7.44536e-18
7639.69238 7.69859e-18
7641.69538 7.67865e-18
7643.69838 7.70371e-18
7645.69136 7.79018e-18
7647.69436 7.37932e-18
7649.69736 7.60532e-18
7651.69034 7.49509e-18
7653.69334 7.46123e-18
7655.69635 7.52119e-18
7657.69934 7.34074e-18
7659.69233 7.57138e-18
7661.69533 7.66033e-18
7663.69833 7.69828e-18
7665.69132 7.71806e-18
7667.69432 7.50168e-18
7669.69732 7.64850e-18
7671.69030 7.82125e-18
7673.69330 7.68108e-18
7675.69630 7.76128e-18
7677.68929 7.86965e-18
7679.69229 7.99135e-18
7681.69528 7.93669e-18
7683.69829 7.87351e-18
7685.69127 7.72698e-18
7687.69427 7.69617e-18
7689.69727 7.73632e-18
7691.69026 7.65992e-18
7693.69326 7.66610e-18
7695.69626 7.82805e-18
7697.68924 7.94074e-18
7699.69224 7.87499e-18
7701.69524 7.93651e-18
7703.68822 7.95828e-18
7705.69123 7.77471e-18
7707.69423 7.76112e-18
7709.69722 7.81361e-18
7711.69021 7.74596e-18
7713.69321 7.64907e-18
7715.69621 7.85687e-18
7717.68920 7.77795e-18
7719.69220 7.63172e-18
7721.69520 7.62417e-18
7723.68818 7.68062e-18
7725.69118 7.74122e-18
7727.69418 7.68142e-18
7729.68717 7.74207e-18
7731.69016 7.75284e-18
7733.69316 7.80734e-18
7735.69617 7.94237e-18
7737.68915 7.95223e-18
7739.69215 7.91450e-18
7741.69515 7.96516e-18
7743.68814 8.16288e-18
7745.69114 8.10516e-18
7747.69414 8.03357e-18
7749.68712 8.03966e-18
7751.69012 7.96848e-18
7753.69312 7.95992e-18
7755.68610 7.93222e-18
7757.68911 8.04675e-18
7759.69211 7.83286e-18
7761.69510 7.79823e-18
7763.68809 7.83777e-18
7765.69109 7.76956e-18
7767.69409 7.90736e-18
7769.68708 7.90935e-18
7771.69008 7.90918e-18
7773.69308 7.93785e-18
7775.68606 7.96841e-18
7777.68906 7.93408e-18
7779.69206 7.73294e-18
7781.68505 7.72933e-18
7783.68804 7.68473e-18
7785.69105 7.69576e-18
7787.69405 7.62930e-18
7789.68703 7.63400e-18
7791.69003 7.66939e-18
7793.69303 7.67530e-18
7795.68602 7.75199e-18
7797.68902 7.63181e-18
7799.69202 7.54783e-18
7801.68500 7.60640e-18
7803.68800 7.72775e-18
7805.69100 7.86671e-18
7807.68399 7.90715e-18
7809.68699 7.78955e-18
7811.68998 7.75616e-18
7813.69299 7.81509e-18
7815.68597 7.88967e-18
7817.68897 7.82743e-18
7819.69197 7.78134e-18
7821.68496 7.69936e-18
7823.68796 7.44622e-18
7825.69096 7.39261e-18
7827.68394 7.29114e-18
7829.68694 7.42303e-18
7831.68994 7.42553e-18
7833.68293 7.28355e-18
7835.68593 7.29470e-18
7837.68893 7.51321e-18
7839.69193 7.51108e-18
7841.68491 7.49465e-18
7843.68791 7.69299e-18
7845.69091 7.63328e-18
7847.68390 7.54880e-18
7849.68690 7.35438e-18
7851.68990 7.18497e-18
7853.68288 7.04793e-18
7855.68588 7.09068e-18
7857.68888 7.12837e-18
7859.68187 6.97852e-18
7861.68487 6.88590e-18
7863.68786 6.92709e-18
7865.69087 6.91852e-18
7867.68385 6.72059e-18
7869.68685 6.79906e-18
7871.68985 6.71763e-18
7873.68284 6.55308e-18
7875.68584 6.57853e-18
7877.68884 6.59721e-18
7879.68182 6.44101e-18
7881.68482 6.56090e-18
7883.68782 6.71315e-18
7885.68080 6.70945e-18
7887.68381 6.54238e-18
7889.68681 6.38041e-18
7891.68980 6.35335e-18
7893.68279 6.36814e-18
7895.68579 6.31243e-18
7897.68879 6.40184e-18
7899.68178 6.15567e-18
7901.68478 6.07763e-18
7903.68778 6.17922e-18
7905.68076 6.13889e-18
7907.68376 5.98347e-18
7909.68676 6.02660e-18
7911.67975 6.05683e-18
7913.68275 5.81555e-18
7915.68575 5.88106e-18
7917.68875 5.91070e-18
7919.68173 5.95047e-18
7921.68473 5.79700e-18
7923.68773 5.70445e-18
7925.68072 5.59207e-18
7927.68372 5.53330e-18
7929.68672 5.56520e-18
7931.67970 5.51560e-18
7933.68270 5.59739e-18
7935.68570 5.42394e-18
7937.67869 5.36480e-18
7939.68169 5.47359e-18
7941.68469 5.43449e-18
7943.68769 5.38772e-18
7945.68067 5.22291e-18
7947.68367 5.11413e-18
7949.68667 5.01312e-18
7951.67966 4.93882e-18
7953.68266 5.02467e-18
7955.68566 4.99030e-18
7957.67864 4.80789e-18
7959.68164 4.84410e-18
7961.68464 4.78714e-18
7963.67763 4.62571e-18
7965.68063 4.67137e-18
7967.68363 4.65485e-18
7969.68663 4.58886e-18
7971.67961 4.54665e-18
7973.68261 4.55771e-18
7975.68561 4.61092e-18
7977.67860 4.61563e-18
7979.68160 4.55235e-18
7981.68459 4.51458e-18
7983.67758 4.55413e-18
7985.68058 4.57164e-18
7987.68358 4.51477e-18
7989.67657 4.51721e-18
7991.67957 4.73066e-18
7993.68257 4.65079e-18
7995.68557 4.57172e-18
7997.67855 4.50449e-18
7999.68155 4.54118e-18
8001.68455 4.40090e-18
8003.67753 4.42584e-18
8005.68054 4.38913e-18
8007.68354 4.35090e-18
8009.67652 4.38601e-18
8011.67952 4.30165e-18
8013.68252 4.34379e-18
8015.67551 4.50825e-18
8017.67851 4.36477e-18
8019.68151 4.40278e-18
8021.68451 4.35588e-18
8023.67749 4.35325e-18
8025.68049 4.45509e-18
8027.68349 4.43075e-18
8029.67648 4.40647e-18
8031.67947 4.36045e-18
8033.68248 4.35257e-18
8035.67546 4.27320e-18
8037.67846 4.21080e-18
8039.68146 4.32893e-18
8041.67445 4.31150e-18
8043.67745 4.39860e-18
8045.68045 4.29977e-18
8047.68345 4.23413e-18
8049.67643 4.25952e-18
8051.67943 4.21017e-18
8053.68243 4.22951e-18
8055.67541 4.17912e-18
8057.67842 4.07836e-18
8059.68142 4.22758e-18
8061.67440 4.23121e-18
8063.67740 4.11047e-18
8065.68040 4.20617e-18
8067.67339 4.17382e-18
8069.67639 4.12536e-18
8071.67939 4.12989e-18
8073.68239 4.20818e-18
8075.67537 4.15718e-18
8077.67837 4.26769e-18
8079.68137 4.22404e-18
8081.67436 4.11798e-18
8083.67735 4.01805e-18
8085.68036 4.11606e-18
8087.67334 4.15098e-18
8089.67634 4.04210e-18
8091.67934 4.01996e-18
8093.67233 4.00267e-18
8095.67533 4.02369e-18
8097.67833 4.08932e-18
8099.68133 4.06613e-18
8101.67431 4.00115e-18
8103.67731 3.97308e-18
8105.68031 3.99614e-18
8107.67330 3.97871e-18
8109.67630 3.99322e-18
8111.67929 4.06334e-18
8113.67228 4.07953e-18
8115.67528 4.08617e-18
8117.67828 4.07833e-18
8119.67127 4.00260e-18
8121.67427 4.01941e-18
8123.67727 3.99576e-18
8125.68027 4.09919e-18
8127.67325 4.08056e-18
8129.67625 4.04152e-18
8131.67925 4.02520e-18
8133.67224 3.96477e-18
8135.67524 3.99285e-18
8137.67824 4.06360e-18
8139.67122 4.12118e-18
8141.67422 4.15733e-18
8143.67722 4.10849e-18
8145.68022 4.09880e-18
8147.67321 4.18128e-18
8149.67621 4.24292e-18
8151.67921 4.28140e-18
8153.67219 4.26747e-18
8155.67519 4.16614e-18
8157.67819 4.26654e-18
8159.67118 4.27847e-18
8161.67418 4.33436e-18
8163.67718 4.26482e-18
8165.67016 4.21914e-18
8167.67316 4.41586e-18
8169.67616 4.35081e-18
8171.67916 4.29848e-18
8173.67215 4.42712e-18
8175.67515 4.46041e-18
8177.67815 4.38665e-18
8179.67113 4.38871e-18
8181.67413 4.43508e-18
8183.67713 4.40715e-18
8185.67011 4.47123e-18
8187.67312 4.49031e-18
8189.67612 4.43164e-18
8191.66910 4.58403e-18
8193.67210 4.62389e-18
8195.67510 4.53721e-18
8197.67810 4.46805e-18
8199.67108 4.51976e-18
8201.67409 4.60125e-18
8203.67709 4.48856e-18
8205.67007 4.56415e-18
8207.67307 4.62675e-18
8209.67607 4.63467e-18
8211.66906 4.62783e-18
8213.67206 4.71805e-18
8215.67506 4.74708e-18
8217.66804 4.71512e-18
8219.67104 4.73433e-18
8221.67404 4.82074e-18
8223.66703 4.90368e-18
8225.67003 5.00314e-18
8227.67303 4.98503e-18
8229.67603 4.93400e-18
8231.66901 4.98254e-18
8233.67201 4.98611e-18
8235.67501 5.01238e-18
8237.66799 4.99080e-18
8239.67100 5.00345e-18
8241.67400 5.06560e-18
8243.66698 5.01671e-18
8245.66998 5.06998e-18
8247.67298 5.10532e-18
8249.67598 5.06088e-18
8251.66897 5.01058e-18
8253.67196 5.07864e-18
8255.67497 5.20021e-18
8257.66795 5.05809e-18
8259.67095 5.05140e-18
8261.67395 5.16773e-18
8263.66694 5.18831e-18
8265.66994 5.27710e-18
8267.67294 5.20432e-18
8269.66592 5.18943e-18
8271.66892 5.27899e-18
8273.67192 5.35291e-18
8275.67492 5.35683e-18
8277.66791 5.31655e-18
8279.67091 5.33483e-18
8281.67391 5.36172e-18
8283.66689 5.36974e-18
8285.66989 5.36012e-18
8287.67289 5.31030e-18
8289.66588 5.44616e-18
8291.66888 5.50234e-18
8293.67188 5.40023e-18
8295.66486 5.45639e-18
8297.66786 5.50559e-18
8299.67086 5.47478e-18
8301.67386 5.57772e-18
8303.66684 5.64750e-18
8305.66985 5.54348e-18
8307.67284 5.63614e-18
8309.66583 5.65886e-18
8311.66883 5.55395e-18
8313.67183 5.68014e-18
8315.66482 5.78224e-18
8317.66781 5.76989e-18
8319.67081 5.82752e-18
8321.66380 5.83967e-18
8323.66680 5.84280e-18
8325.66980 5.78648e-18
8327.67280 5.81541e-18
8329.66579 6.00353e-18
8331.66879 5.93457e-18
8333.67179 5.86726e-18
8335.66477 5.86483e-18
8337.66777 5.95428e-18
8339.67077 5.98446e-18
8341.66376 6.10059e-18
8343.66676 6.02134e-18
8345.66976 6.00818e-18
8347.66274 6.11298e-18
8349.66574 6.18963e-18
8351.66874 6.15610e-18
8353.67174 6.05915e-18
8355.66473 6.16745e-18
8357.66772 6.15191e-18
8359.67072 6.16535e-18
8361.66371 6.17500e-18
8363.66671 6.24153e-18
8365.66971 6.26773e-18
8367.66269 6.26167e-18
8369.66569 6.32964e-18
8371.66870 6.32851e-18
8373.66168 6.27320e-18
8375.66468 6.34079e-18
8377.66768 6.38367e-18
8379.67068 6.43645e-18
8381.66367 6.34998e-18
8383.66667 6.29569e-18
8385.66967 6.51358e-18
8387.66265 6.63408e-18
8389.66565 6.64778e-18
8391.66865 6.58445e-18
8393.66164 6.51951e-18
8395.66464 6.52740e-18
8397.66763 6.66235e-18
8399.66062 6.52289e-18
8401.66362 6.52254e-18
8403.66662 6.55318e-18
8405.66962 6.56868e-18
8407.66260 6.59182e-18
8409.66561 6.49527e-18
8411.66861 6.42141e-18
8413.66159 6.53602e-18
8415.66459 6.56358e-18
8417.66759 6.67796e-18
8419.66057 6.74308e-18
8421.66358 6.77055e-18
8423.66657 6.62293e-18
8425.65956 6.83492e-18
8427.66256 6.72076e-18
8429.66556 6.73991e-18
8431.66856 6.70096e-18
8433.66155 6.65873e-18
8435.66455 6.82900e-18
8437.66755 6.71437e-18
8439.66053 6.75374e-18
8441.66353 6.74652e-18
8443.66653 6.79954e-18
8445.65952 6.83445e-18
8447.66251 6.77332e-18
8449.66552 6.77147e-18
8451.65850 6.78665e-18
8453.66150 6.78565e-18
8455.66450 6.92611e-18
8457.66750 6.88348e-18
8459.66049 6.79565e-18
8461.66349 6.91705e-18
8463.66648 6.90313e-18
8465.65947 6.88963e-18
8467.66247 6.85796e-18
8469.66547 6.90516e-18
8471.65846 6.79414e-18
8473.66145 6.95524e-18
8475.66446 6.91520e-18
8477.65744 6.89729e-18
8479.66044 7.05052e-18
8481.66344 6.99129e-18
8483.66644 7.06519e-18
8485.65943 6.99904e-18
8487.66243 6.97570e-18
8489.66543 7.01270e-18
8491.65841 6.99164e-18
8493.66141 7.12761e-18
8495.66441 7.00804e-18
8497.65740 6.93642e-18
8499.66040 6.88594e-18
8501.66340 6.99869e-18
8503.65638 6.99294e-18
8505.65938 6.99449e-18
8507.66238 6.94877e-18
8509.66538 6.83718e-18
8511.65837 6.91166e-18
8513.66136 7.02066e-18
8515.66437 6.94280e-18
8517.65735 6.98118e-18
8519.66035 7.11690e-18
8521.66335 7.12086e-18
8523.65633 7.13719e-18
8525.65934 6.95620e-18
8527.66233 6.89717e-18
8529.65532 7.02579e-18
8531.65832 7.01617e-18
8533.66132 6.99538e-18
8535.66432 7.02300e-18
8537.65731 7.00958e-18
8539.66031 7.05138e-18
8541.66331 7.12718e-18
8543.65629 7.19165e-18
8545.65929 7.13102e-18
8547.66229 7.10481e-18
8549.65528 7.03851e-18
8551.65828 6.95147e-18
8553.66128 6.90854e-18
8555.65426 7.02331e-18
8557.65726 7.05966e-18
8559.66026 7.02242e-18
8561.65324 7.00562e-18
8563.65625 7.00905e-18
8565.65925 6.96726e-18
8567.66224 6.91589e-18
8569.65523 6.91818e-18
8571.65823 7.05874e-18
8573.66123 7.10078e-18
8575.65422 7.02258e-18
8577.65721 7.06161e-18
8579.66021 7.01033e-18
8581.65320 6.94369e-18
8583.65620 6.92476e-18
8585.65920 6.95673e-18
8587.65219 6.96781e-18
8589.65519 6.94336e-18
8591.65819 7.06138e-18
8593.66119 7.08185e-18
8595.65417 7.01045e-18
8597.65717 6.96563e-18
8599.66017 6.94362e-18
8601.65316 6.92546e-18
8603.65616 6.98854e-18
8605.65916 7.02614e-18
8607.65214 6.92922e-18
8609.65514 6.92941e-18
8611.65814 6.96031e-18
8613.65113 6.90825e-18
8615.65413 6.91927e-18
8617.65712 6.96332e-18
8619.66013 6.84549e-18
8621.65311 6.91695e-18
8623.65611 6.92159e-18
8625.65911 6.93750e-18
8627.65209 6.75061e-18
8629.65510 6.80526e-18
8631.65810 6.89668e-18
8633.65108 6.78537e-18
8635.65408 6.86700e-18
8637.65708 6.84478e-18
8639.65006 6.85241e-18
8641.65307 6.85143e-18
8643.65606 6.77897e-18
8645.65906 6.79239e-18
8647.65205 6.84407e-18
8649.65505 6.75684e-18
8651.65805 6.73635e-18
8653.65104 6.74464e-18
8655.65404 6.78611e-18
8657.65704 6.72200e-18
8659.65002 6.77271e-18
8661.65302 6.70017e-18
8663.65602 6.66298e-18
8665.65902 6.62749e-18
8667.65200 6.56853e-18
8669.65501 6.61390e-18
8671.65801 6.58564e-18
8673.65099 6.54115e-18
8675.65399 6.47103e-18
8677.65699 6.49216e-18
8679.64998 6.55609e-18
8681.65298 6.56008e-18
8683.65597 6.44354e-18
8685.64896 6.52754e-18
8687.65196 6.50659e-18
8689.65496 6.46452e-18
8691.65796 6.46500e-18
8693.65094 6.53142e-18
8695.65395 6.53113e-18
8697.65694 6.55084e-18
8699.64993 6.53229e-18
8701.65293 6.51008e-18
8703.65593 6.38794e-18
8705.64892 6.27758e-18
8707.65192 6.32720e-18
8709.65492 6.33298e-18
8711.64790 6.26395e-18
8713.65090 6.22547e-18
8715.65390 6.30668e-18
8717.65690 6.25436e-18
8719.64989 6.25309e-18
8721.65289 6.17620e-18
8723.65589 6.06909e-18
8725.64887 6.07278e-18
8727.65187 6.02679e-18
8729.65487 6.03037e-18
8731.64786 6.06064e-18
8733.65085 6.13432e-18
8735.65386 6.19609e-18
8737.64684 6.12589e-18
8739.64984 6.10581e-18
8741.65284 6.08954e-18
8743.65584 6.07215e-18
8745.64883 6.09678e-18
8747.65182 6.08170e-18
8749.65482 6.08233e-18
8751.64781 6.01891e-18
8753.65081 6.04998e-18
8755.65381 5.95176e-18
8757.64680 6.01171e-18
8759.64980 5.80750e-18
8761.65280 5.71242e-18
8763.64578 5.69542e-18
8765.64878 5.68110e-18
8767.65178 5.81672e-18
8769.65478 5.76230e-18
8771.64777 5.93626e-18
8773.65077 5.85596e-18
8775.65377 5.98142e-18
8777.64675 5.82608e-18
8779.64975 5.77167e-18
8781.65275 5.73525e-18
8783.64574 5.72838e-18
8785.64874 5.75849e-18
8787.65173 5.85410e-18
8789.64472 5.78027e-18
8791.64772 5.89603e-18
8793.65072 5.81163e-18
8795.65372 5.78069e-18
8797.64670 5.78185e-18
8799.64970 5.79391e-18
8801.65271 5.65475e-18
8803.64569 5.71826e-18
8805.64869 5.79489e-18
8807.65169 5.73938e-18
8809.64468 5.66589e-18
8811.64768 5.69325e-18
8813.65068 5.58054e-18
8815.64366 5.56023e-18
8817.64666 5.65155e-18
8819.64966 5.67046e-18
8821.65266 5.67528e-18
8823.64565 5.67396e-18
8825.64865 5.59088e-18
8827.65164 5.39856e-18
8829.64463 5.45651e-18
8831.64763 5.52587e-18
8833.65063 5.58024e-18
8835.64362 5.62886e-18
8837.64661 5.47766e-18
8839.64962 5.60076e-18
8841.64260 5.56313e-18
8843.64560 5.59452e-18
8845.64860 5.65110e-18
8847.65160 5.68869e-18
8849.64459 5.70512e-18
8851.64759 5.76463e-18
8853.65058 5.61111e-18
8855.64357 5.76758e-18
8857.64657 5.89411e-18
8859.64957 5.76586e-18
8861.64256 5.92128e-18
8863.64556 6.01519e-18
8865.64856 5.92951e-18
8867.65156 5.76655e-18
8869.64454 5.69756e-18
8871.64754 5.74880e-18
8873.65054 5.65157e-18
8875.64353 5.65584e-18
8877.64653 5.76534e-18
8879.64953 5.67777e-18
8881.64251 5.77602e-18
8883.64551 5.61772e-18
8885.64851 5.59182e-18
8887.64149 5.59563e-18
8889.64450 5.53569e-18
8891.64750 5.57377e-18
8893.65049 5.66109e-18
8895.64348 5.60468e-18
8897.64648 5.56797e-18
8899.64948 5.72697e-18
8901.64247 5.66958e-18
8903.64546 5.74882e-18
8905.64847 5.76296e-18
8907.64145 5.71739e-18
8909.64445 5.74097e-18
8911.64745 5.85088e-18
8913.64044 5.84580e-18
8915.64344 5.74669e-18
8917.64644 5.86408e-18
8919.64944 5.65642e-18
8921.64242 5.73313e-18
8923.64542 5.67870e-18
8925.64842 5.71790e-18
8927.64141 5.76935e-18
8929.64441 5.73522e-18
8931.64741 5.82159e-18
8933.64039 5.76212e-18
8935.64339 5.73448e-18
8937.64639 5.73565e-18
8939.63938 5.88167e-18
8941.64238 5.84889e-18
8943.64538 5.76222e-18
8945.64838 5.76350e-18
8947.64136 5.83388e-18
8949.64436 5.94909e-18
8951.64736 5.92114e-18
8953.64034 5.78094e-18
8955.64335 5.82384e-18
8957.64634 5.83089e-18
8959.63933 5.88904e-18
8961.64233 5.90845e-18
8963.64533 5.80887e-18
8965.63832 5.68006e-18
8967.64131 5.75865e-18
8969.64431 5.86447e-18
8971.64732 5.66858e-18
8973.64030 5.60597e-18
8975.64330 5.56616e-18
8977.64630 5.63030e-18
8979.63929 5.58484e-18
8981.64229 5.53666e-18
8983.64529 5.56783e-18
8985.63827 5.81373e-18
8987.64127 5.75041e-18
8989.64427 5.66521e-18
8991.63726 5.59809e-18
8993.64026 5.48910e-18
8995.64326 5.50420e-18
8997.64626 5.76501e-18
8999.63924 5.92284e-18
9001.64224 5.78958e-18
9003.64524 5.79734e-18
9005.63823 5.80158e-18
9007.64122 5.72832e-18
9009.64423 5.93730e-18
9011.63721 5.84397e-18
9013.64021 6.18011e-18
9015.64321 6.16645e-18
9017.63619 5.85640e-18
9019.63919 5.85182e-18
9021.64220 5.94020e-18
9023.63518 5.78278e-18
9025.63818 5.80637e-18
9027.64118 5.66741e-18
9029.64418 5.68184e-18
9031.63717 5.61656e-18
9033.64017 5.59593e-18
9035.64317 5.61031e-18
9037.63615 5.74106e-18
9039.63915 5.61957e-18
9041.64215 5.63388e-18
9043.63514 5.55776e-18
9045.63814 5.54500e-18
9047.64113 5.55215e-18
9049.63412 5.56629e-18
9051.63712 5.58214e-18
9053.64012 5.50342e-18
9055.64312 5.49115e-18
9057.63610 5.47984e-18
9059.63911 5.48012e-18
9061.64211 5.52902e-18
9063.63509 5.48617e-18
9065.63809 5.51043e-18
9067.64109 5.57824e-18
9069.63407 5.69851e-18
9071.63708 5.72739e-18
9073.64007 5.54507e-18
9075.63306 5.49298e-18
9077.63606 5.61895e-18
9079.63906 5.53578e-18
9081.64206 5.43634e-18
9083.63505 5.52830e-18
9085.63805 5.61589e-18
9087.64105 5.55879e-18
9089.63403 5.49638e-18
9091.63703 5.53801e-18
9093.64003 5.66014e-18
9095.63302 5.59725e-18
9097.63602 5.60144e-18
9099.63902 5.49453e-18
9101.63200 5.51341e-18
9103.63500 5.62419e-18
9105.63800 5.61670e-18
9107.64100 5.62289e-18
9109.63399 5.68882e-18
9111.63699 5.62971e-18
9113.63998 5.69256e-18
9115.63297 5.80750e-18
9117.63597 5.69446e-18
9119.63897 5.49624e-18
9121.63196 5.49109e-18
9123.63495 5.54526e-18
9125.63796 5.52055e-18
9127.63094 5.58656e-18
9129.63394 5.45314e-18
9131.63694 5.52861e-18
9133.63994 5.54452e-18
9135.63293 5.42799e-18
9137.63593 5.31969e-18
9139.63893 5.46251e-18
9141.63191 5.47077e-18
9143.63491 5.43230e-18
9145.63791 5.35829e-18
9147.63090 5.50689e-18
9149.63390 5.65375e-18
9151.63690 5.61802e-18
9153.62988 5.67157e-18
9155.63288 5.35084e-18
9157.63588 5.51680e-18
9159.63888 5.49405e-18
9161.63187 5.43209e-18
9163.63486 5.49436e-18
9165.63787 5.48214e-18
9167.63085 5.43301e-18
9169.63385 5.41113e-18
9171.63685 5.54798e-18
9173.62983 5.57418e-18
9175.63284 5.46223e-18
9177.63583 5.44522e-18
9179.62882 5.39917e-18
9181.63182 5.60255e-18
9183.63482 5.56368e-18
9185.63782 5.55289e-18
9187.63081 5.53098e-18
9189.63381 5.48611e-18
9191.63681 5.60810e-18
9193.62979 5.43640e-18
9195.63279 5.41976e-18
9197.63579 5.31130e-18
9199.62878 5.28398e-18
9201.63178 5.37800e-18
9203.63478 5.43870e-18
9205.62776 5.39802e-18
9207.63076 5.37393e-18
9209.63376 5.48349e-18
9211.63676 5.63248e-18
9213.62975 5.56916e-18
9215.63275 5.48152e-18
9217.63574 5.34847e-18
9219.62873 5.47396e-18
9221.63173 5.66978e-18
9223.63473 5.79665e-18
9225.62772 5.92536e-18
9227.63071 5.96817e-18
9229.63371 5.88820e-18
9231.62670 5.70339e-18
9233.62970 5.71730e-18
9235.63270 5.60352e-18
9237.63570 5.42439e-18
9239.62869 5.43635e-18
9241.63169 5.57690e-18
9243.63469 5.54069e-18
9245.62767 5.40953e-18
9247.63067 5.44886e-18
9249.63367 5.41279e-18
9251.62666 5.24755e-18
9253.62966 5.31017e-18
9255.63266 5.21791e-18
9257.62564 5.33727e-18
9259.62864 5.36946e-18
9261.63164 5.28073e-18
9263.63464 5.25973e-18
9265.62763 5.26106e-18
9267.63062 5.18627e-18
9269.63363 5.18601e-18
9271.62661 5.27970e-18
9273.62961 5.25142e-18
9275.63261 5.28374e-18
9277.62559 5.33864e-18
9279.62860 5.15389e-18
9281.63160 5.20951e-18
9283.63459 5.27962e-18
9285.62758 5.33742e-18
9287.63058 5.33110e-18
9289.63358 5.21004e-18
9291.62657 5.15213e-18
9293.62956 5.39780e-18
9295.63256 5.32839e-18
9297.62555 5.42924e-18
9299.62855 5.32472e-18
9301.63155 5.27252e-18
9303.62454 5.25635e-18
9305.62754 5.63297e-18
9307.63054 5.52556e-18
9309.63354 5.06778e-18
9311.62652 5.11884e-18
9313.62952 5.53995e-18
9315.63252 5.56638e-18
9317.62550 5.51827e-18
9319.62851 5.64747e-18
9321.63151 6.02616e-18
9323.62449 5.82804e-18
9325.62749 5.27649e-18
9327.63049 5.25493e-18
9329.62348 5.44030e-18
9331.62648 5.56817e-18
9333.62947 5.55499e-18
9335.63248 5.36531e-18
9337.62546 5.46059e-18
9339.62846 5.37962e-18
9341.63146 6.29009e-18
9343.62444 5.63459e-18
9345.62745 4.91981e-18
9347.63044 5.07496e-18
9349.62343 5.27302e-18
9351.62643 5.77000e-18
9353.62943 5.51370e-18
9355.62242 5.71970e-18
9357.62542 5.52025e-18
9359.62842 5.13228e-18
9361.63142 5.44210e-18
9363.62440 5.70305e-18
9365.62740 5.38633e-18
9367.63040 5.63472e-18
9369.62339 5.78721e-18
9371.62639 5.34179e-18
9373.62939 5.10560e-18
9375.62237 5.32337e-18
9377.62537 5.70183e-18
9379.62837 5.49365e-18
9381.62136 5.13493e-18
9383.62435 5.47816e-18
9385.62736 5.60237e-18
9387.63036 5.15152e-18
9389.62334 4.98788e-18
9391.62634 5.11078e-18
9393.62934 5.05406e-18
9395.62233 5.12706e-18
9397.62532 5.14762e-18
9399.62832 5.23690e-18
9401.62131 5.15038e-18
9403.62431 5.12598e-18
9405.62731 5.13237e-18
9407.62030 5.18743e-18
9409.62330 5.17242e-18
9411.62630 5.12774e-18
9413.62930 5.17356e-18
9415.62228 5.44947e-18
9417.62528 5.20508e-18
9419.62828 5.10089e-18
9421.62127 4.88045e-18
9423.62427 5.17265e-18
9425.62727 5.67004e-18
9427.62025 5.36252e-18
9429.62325 4.99362e-18
9431.62625 4.83440e-18
9433.61924 4.96819e-18
9435.62224 5.29829e-18
9437.62523 5.43089e-18
9439.62824 5.08733e-18
9441.62122 5.01966e-18
9443.62422 5.14618e-18
9445.62722 4.87425e-18
9447.62020 4.99020e-18
9449.62320 5.17079e-18
9451.62621 5.31276e-18
9453.61919 5.38703e-18
9455.62219 5.18799e-18
9457.62519 5.30830e-18
9459.61818 5.20517e-18
9461.62118 5.01319e-18
9463.62418 5.14743e-18
9465.62718 5.22093e-18
9467.62016 5.05099e-18
9469.62316 4.85891e-18
9471.62616 4.97048e-18
9473.61915 5.12877e-18
9475.62215 5.16331e-18
9477.62514 5.04864e-18
9479.61813 5.15868e-18
9481.62113 4.87765e-18
9483.62413 4.71855e-18
9485.61712 4.88500e-18
9487.62011 4.90350e-18
9489.62312 4.97081e-18
9491.62612 5.11974e-18
9493.61910 5.03681e-18
9495.62210 4.96141e-18
9497.62510 5.29127e-18
9499.61809 5.17434e-18
9501.62109 5.02653e-18
9503.62408 4.69476e-18
9505.61707 4.71220e-18
9507.62007 4.81137e-18
9509.62307 4.66826e-18
9511.62607 4.76502e-18
9513.61906 4.96094e-18
9515.62206 5.19068e-18
9517.62506 5.37044e-18
9519.61804 5.05052e-18
9521.62104 4.82228e-18
9523.62404 4.76838e-18
9525.61703 4.91902e-18
9527.62003 4.94197e-18
9529.62303 4.77333e-18
9531.61601 4.87776e-18
9533.61901 4.87209e-18
9535.62201 4.74950e-18
9537.61499 4.59951e-18
9539.61800 4.68055e-18
9541.62100 5.02246e-18
9543.62399 5.26701e-18
9545.61698 5.21222e-18
9547.61998 5.20257e-18
9549.62298 5.19505e-18
9551.61597 4.99706e-18
9553.61896 4.90965e-18
9555.62197 4.94443e-18
9557.61495 4.66075e-18
9559.61795 4.63161e-18
9561.62095 4.82152e-18
9563.61394 4.71156e-18
9565.61694 4.81171e-18
9567.61994 4.45383e-18
9569.62294 4.37607e-18
9571.61592 4.57616e-18
9573.61892 4.42472e-18
9575.62192 4.40899e-18
9577.61491 4.59440e-18
9579.61791 4.36353e-18
9581.62091 4.37376e-18
9583.61389 4.28836e-18
9585.61689 4.44141e-18
9587.61989 4.53702e-18
9589.61288 4.43868e-18
9591.61588 4.48381e-18
9593.61888 4.50296e-18
9595.62188 4.59698e-18
9597.61486 4.48487e-18
9599.61786 4.28096e-18
9601.62086 4.29035e-18
9603.61384 4.39282e-18
9605.61685 4.49774e-18
9607.61984 4.37077e-18
9609.61283 4.19061e-18
9611.61583 4.39644e-18
9613.61883 4.33074e-18
9615.61182 4.35286e-18
9617.61481 4.22376e-18
9619.61781 4.47274e-18
9621.62082 4.29662e-18
9623.61380 4.40596e-18
9625.61680 4.16200e-18
9627.61980 4.20702e-18
9629.61279 4.15253e-18
9631.61579 4.14601e-18
9633.61879 4.32864e-18
9635.61177 4.24175e-18
9637.61477 4.13376e-18
9639.61777 4.20087e-18
9641.61076 4.11034e-18
9643.61376 4.25251e-18
9645.61676 4.17162e-18
9647.61975 4.02195e-18
9649.61274 3.93151e-18
9651.61574 4.09380e-18
9653.61874 4.12716e-18
9655.61173 4.20323e-18
9657.61472 4.06210e-18
9659.61773 4.19349e-18
9661.61071 4.16689e-18
9663.61371 4.05531e-18
9665.61671 4.07938e-18
9667.60969 4.16397e-18
9669.61269 4.24834e-18
9671.61570 4.06685e-18
9673.60868 4.19155e-18
9675.61168 3.99588e-18
9677.61468 3.81454e-18
9679.61768 3.95906e-18
9681.61067 4.17961e-18
9683.61367 3.99070e-18
9685.61667 3.91303e-18
9687.60965 3.99781e-18
9689.61265 3.87102e-18
9691.61565 3.91452e-18
9693.60864 4.05638e-18
9695.61164 3.98621e-18
9697.61463 4.01677e-18
9699.61764 4.00496e-18
9701.61062 4.02309e-18
9703.61362 4.08694e-18
9705.61662 4.04621e-18
9707.60960 4.05319e-18
9709.61261 3.95086e-18
9711.61561 3.95927e-18
9713.60859 4.00128e-18
9715.61159 3.97520e-18
9717.61459 4.11154e-18
9719.60757 3.92280e-18
9721.61058 3.90935e-18
9723.61357 3.95303e-18
9725.61658 3.92774e-18
9727.60956 3.88075e-18
9729.61256 3.82316e-18
9731.61556 3.95468e-18
9733.60855 4.02876e-18
9735.61155 3.89268e-18
9737.61455 3.80585e-18
9739.60753 3.83794e-18
9741.61053 3.84070e-18
9743.61353 3.81393e-18
9745.60652 3.85167e-18
9747.60952 4.04943e-18
9749.61252 3.92030e-18
9751.61552 3.88967e-18
9753.60850 3.89711e-18
9755.61150 3.78203e-18
9757.61450 3.74277e-18
9759.60749 3.74908e-18
9761.61049 3.72171e-18
9763.61348 3.76903e-18
9765.60647 3.83910e-18
9767.60947 3.76160e-18
9769.61247 3.70737e-18
9771.60546 3.78047e-18
9773.60845 3.78316e-18
9775.61146 3.67694e-18
9777.61445 3.74531e-18
9779.60744 3.60686e-18
9781.61044 3.83819e-18
9783.61344 3.69081e-18
9785.60643 3.56155e-18
9787.60943 3.58398e-18
9789.61243 3.59566e-18
9791.60541 3.25303e-18
9793.60841 3.39249e-18
9795.61141 3.47970e-18
9797.60440 3.62291e-18
9799.60740 3.52780e-18
9801.61040 3.61001e-18
9803.61340 3.72709e-18
9805.60638 3.72546e-18
9807.60938 3.65406e-18
9809.61238 3.71301e-18
9811.60537 3.58462e-18
9813.60837 3.52909e-18
9815.61137 3.70293e-18
9817.60435 3.62537e-18
9819.60735 3.45779e-18
9821.61035 3.45296e-18
9823.60333 3.59138e-18
9825.60634 3.44117e-18
9827.60933 3.47361e-18
9829.61233 3.49647e-18
9831.60532 3.57113e-18
9833.60832 3.72197e-18
9835.61132 3.51348e-18
9837.60431 3.44112e-18
9839.60731 3.50834e-18
9841.61031 3.45801e-18
9843.60329 3.54146e-18
9845.60629 3.56111e-18
9847.60929 3.58905e-18
9849.60228 3.58369e-18
9851.60528 3.46326e-18
9853.60828 3.39008e-18
9855.61128 3.39474e-18
9857.60426 3.43297e-18
9859.60726 3.36996e-18
9861.61026 3.54150e-18
9863.60325 3.41304e-18
9865.60625 3.46346e-18
9867.60924 3.61308e-18
9869.60223 3.51177e-18
9871.60523 3.37476e-18
9873.60823 3.43543e-18
9875.60122 3.34765e-18
9877.60421 3.51342e-18
9879.60721 3.27514e-18
9881.61022 3.37323e-18
9883.60320 3.42317e-18
9885.60620 3.28871e-18
9887.60920 3.30385e-18
9889.60219 3.22552e-18
9891.60519 3.40673e-18
9893.60819 3.51690e-18
9895.60117 3.09821e-18
9897.60417 3.17637e-18
9899.60717 3.19913e-18
