# wavelength flux
3199.87262 7.06586e-18
3201.87562 7.31446e-18
3203.86861 6.93768e-18
3205.87161 7.43932e-18
3207.87461 1.05344e-17
3209.86759 1.09821e-17
3211.87059 9.39235e-18
3213.87359 9.89187e-18
3215.87659 7.87211e-18
3217.86958 9.14175e-18
3219.87258 8.96369e-18
3221.87558 6.87629e-18
3223.86856 6.93739e-18
3225.87156 8.28948e-18
3227.87456 8.27455e-18
3229.86755 7.60249e-18
3231.87055 8.15950e-18
3233.87355 8.36447e-18
3235.86653 8.74990e-18
3237.86953 9.48147e-18
3239.87253 7.04585e-18
3241.87553 6.84523e-18
3243.86852 7.78616e-18
3245.87152 7.78129e-18
3247.87452 7.92181e-18
3249.86750 8.84918e-18
3251.87050 7.57098e-18
3253.87350 6.49295e-18
3255.86649 8.16755e-18
3257.86949 7.58831e-18
3259.87248 8.17750e-18
3261.86547 7.77148e-18
3263.86847 6.96249e-18
3265.87147 7.93116e-18
3267.87447 7.27032e-18
3269.86746 9.18724e-18
3271.87045 7.12605e-18
3273.87345 7.12384e-18
3275.86644 7.42316e-18
3277.86944 7.53623e-18
3279.87244 8.09946e-18
3281.86542 7.23213e-18
3283.86843 7.82691e-18
3285.87142 6.19577e-18
3287.86441 6.75484e-18
3289.86741 6.87862e-18
3291.87041 6.96185e-18
3293.87341 6.09694e-18
3295.86640 7.42062e-18
3297.86940 6.53668e-18
3299.87239 6.24210e-18
3301.86538 7.19633e-18
3303.86838 7.75721e-18
3305.87138 7.28924e-18
3307.86436 7.04013e-18
3309.86737 6.33069e-18
3311.87037 6.30836e-18
3313.86335 7.62741e-18
3315.86635 7.45285e-18
3317.86935 6.88399e-18
3319.87235 5.88254e-18
3321.86533 5.95058e-18
3323.86834 6.32614e-18
3325.87134 6.97319e-18
3327.86432 7.02737e-18
3329.86732 6.66894e-18
3331.87032 6.23231e-18
3333.86330 5.85652e-18
3335.86631 6.44683e-18
3337.86931 5.37291e-18
3339.86229 5.62884e-18
3341.86529 5.40354e-18
3343.86829 6.16945e-18
3345.87129 5.34448e-18
3347.86427 6.70598e-18
3349.86728 6.53706e-18
3351.87028 6.62596e-18
3353.86326 6.67542e-18
3355.86626 6.64864e-18
3357.86926 6.10534e-18
3359.86225 6.29063e-18
3361.86524 6.68776e-18
3363.86825 5.72311e-18
3365.86123 5.64149e-18
3367.86423 6.65109e-18
3369.86723 6.39130e-18
3371.87023 6.18672e-18
3373.86322 6.43627e-18
3375.86622 6.34470e-18
3377.86922 6.52108e-18
3379.86220 6.49962e-18
3381.86520 6.68246e-18
3383.86820 6.31041e-18
3385.86119 6.06178e-18
3387.86419 6.40114e-18
3389.86719 7.24811e-18
3391.86017 6.97245e-18
3393.86317 6.23115e-18
3395.86617 6.35673e-18
3397.86917 6.79212e-18
3399.86216 7.09355e-18
3401.86515 6.76680e-18
3403.86816 6.54848e-18
3405.86114 7.17532e-18
3407.86414 7.18469e-18
3409.86714 7.66254e-18
3411.86013 7.10181e-18
3413.86313 7.25463e-18
3415.86613 7.55616e-18
3417.85911 7.27454e-18
3419.86211 7.70638e-18
3421.86511 8.23674e-18
3423.86811 8.40943e-18
3425.86110 8.10666e-18
3427.86410 8.15682e-18
3429.86710 7.50145e-18
3431.86008 8.26367e-18
3433.86308 8.12715e-18
3435.86608 7.73094e-18
3437.85907 8.21828e-18
3439.86207 8.21827e-18
3441.86507 7.79577e-18
3443.85805 7.24576e-18
3445.86105 8.21908e-18
3447.86405 7.81136e-18
3449.86705 8.60533e-18
3451.86004 8.41432e-18
3453.86304 8.86713e-18
3455.86604 9.09481e-18
3457.85902 8.87480e-18
3459.86202 9.02916e-18
3461.86502 7.81756e-18
3463.85801 7.02769e-18
3465.86101 6.54361e-18
3467.86401 7.65173e-18
3469.85699 7.87005e-18
3471.85999 8.20111e-18
3473.86299 8.16026e-18
3475.86599 8.51503e-18
3477.85898 8.04622e-18
3479.86198 8.13007e-18
3481.86498 8.02061e-18
3483.85796 7.93490e-18
3485.86096 8.18075e-18
3487.86396 8.41387e-18
3489.85695 7.88929e-18
3491.85995 7.33724e-18
3493.86295 7.88800e-18
3495.85593 8.23329e-18
3497.85893 7.83978e-18
3499.86193 8.43210e-18
3501.86493 8.23527e-18
3503.85792 7.52289e-18
3505.86092 8.29036e-18
3507.86392 8.55239e-18
3509.85690 8.59303e-18
3511.85990 8.65887e-18
3513.86290 8.52096e-18
3515.85589 8.55230e-18
3517.85889 8.18642e-18
3519.86189 7.76918e-18
3521.85487 8.44254e-18
3523.85787 8.17193e-18
3525.86087 8.11525e-18
3527.86387 8.11598e-18
3529.85686 8.22546e-18
3531.85986 8.56890e-18
3533.86286 8.00363e-18
3535.85584 7.61226e-18
3537.85884 7.99398e-18
3539.86184 8.13858e-18
3541.85483 8.21843e-18
3543.85783 8.64635e-18
3545.86083 8.24611e-18
3547.85381 8.77015e-18
3549.85681 8.12293e-18
3551.85981 7.81340e-18
3553.86281 8.25299e-18
3555.85580 8.53735e-18
3557.85880 8.07502e-18
3559.86180 8.46354e-18
3561.85478 8.36675e-18
3563.85778 8.32207e-18
3565.86078 8.08200e-18
3567.85377 8.24291e-18
3569.85677 8.77792e-18
3571.85977 7.83552e-18
3573.85275 7.97218e-18
3575.85575 8.00297e-18
3577.85875 7.88510e-18
3579.86175 7.84401e-18
3581.85473 7.52157e-18
3583.85774 7.40893e-18
3585.86074 7.57274e-18
3587.85372 7.48242e-18
3589.85672 7.51127e-18
3591.85972 7.69747e-18
3593.85270 7.65335e-18
3595.85570 7.59833e-18
3597.85871 8.21446e-18
3599.85169 8.55868e-18
3601.85469 8.40853e-18
3603.85769 8.33570e-18
3605.86069 8.19527e-18
3607.85367 7.92744e-18
3609.85667 7.84138e-18
3611.85968 8.29990e-18
3613.85266 8.28534e-18
3615.85566 8.17165e-18
3617.85866 8.21708e-18
3619.85165 7.85543e-18
3621.85464 7.78985e-18
3623.85765 8.04276e-18
3625.85063 7.82780e-18
3627.85363 8.46439e-18
3629.85663 8.04868e-18
3631.85963 8.73947e-18
3633.85262 7.39093e-18
3635.85561 7.60430e-18
3637.85862 7.25224e-18
3639.85160 7.23020e-18
3641.85460 7.49901e-18
3643.85760 7.29112e-18
3645.85059 7.15215e-18
3647.85359 8.35092e-18
3649.85658 7.56084e-18
3651.84957 7.36294e-18
3653.85257 7.96489e-18
3655.85557 8.45306e-18
3657.85857 8.18158e-18
3659.85156 7.90303e-18
3661.85455 8.06053e-18
3663.85756 8.32145e-18
3665.85054 7.62030e-18
3667.85354 7.52324e-18
3669.85654 8.01611e-18
3671.84953 7.92027e-18
3673.85253 7.91493e-18
3675.85552 7.96683e-18
3677.84851 8.18264e-18
3679.85151 7.81612e-18
3681.85451 8.26793e-18
3683.85751 8.30306e-18
3685.85050 8.40537e-18
3687.85350 8.52469e-18
3689.85649 8.28454e-18
3691.84948 8.29020e-18
3693.85248 8.30180e-18
3695.85548 8.82120e-18
3697.84847 9.07493e-18
3699.85147 8.65371e-18
3701.85447 8.93926e-18
3703.84745 8.77347e-18
3705.85045 8.42963e-18
3707.85345 8.10907e-18
3709.85645 7.76759e-18
3711.84944 7.82261e-18
3713.85244 7.79908e-18
3715.85544 7.77557e-18
3717.84842 7.69797e-18
3719.85142 7.62038e-18
3721.85442 7.54281e-18
3723.84740 7.46525e-18
3725.85041 7.38771e-18
3727.85341 7.31018e-18
3729.84639 7.23265e-18
3731.84939 7.15515e-18
3733.85239 7.07765e-18
3735.85539 7.00017e-18
3737.84838 6.92270e-18
3739.85138 6.84524e-18
3741.85438 6.76780e-18
3743.84736 6.69036e-18
3745.85036 6.61294e-18
3747.85336 6.53554e-18
3749.84635 6.45814e-18
3751.84935 6.38076e-18
3753.85235 6.30338e-18
3755.84533 6.39929e-18
3757.84833 6.82559e-18
3759.85133 7.29235e-18
3761.85433 7.43952e-18
3763.84732 7.11896e-18
3765.85032 7.29108e-18
3767.85332 6.86847e-18
3769.84630 7.22126e-18
3771.84930 6.78299e-18
3773.85230 6.13692e-18
3775.84529 5.67884e-18
3777.84829 6.11454e-18
3779.85129 6.82308e-18
3781.84427 7.60291e-18
3783.84727 7.71973e-18
3785.85027 7.82672e-18
3787.85327 8.34102e-18
3789.84626 8.75971e-18
3791.84926 8.01814e-18
3793.85226 7.33946e-18
3795.84524 7.12897e-18
3797.84824 7.05818e-18
3799.85124 6.25574e-18
3801.84423 5.49134e-18
3803.84723 5.55160e-18
3805.85023 5.66866e-18
3807.85323 6.43427e-18
3809.84621 6.93739e-18
3811.84921 7.38400e-18
3813.85221 7.58594e-18
3815.84520 8.12086e-18
3817.84820 7.96037e-18
3819.85120 8.25002e-18
3821.84418 7.91025e-18
3823.84718 7.70000e-18
3825.85018 7.46624e-18
3827.84317 8.04927e-18
3829.84617 7.44016e-18
3831.84917 7.51698e-18
3833.84215 6.84607e-18
3835.84515 6.45670e-18
3837.84815 6.38129e-18
3839.85115 6.27807e-18
3841.84414 5.91365e-18
3843.84714 6.22846e-18
3845.85014 7.13386e-18
3847.84312 7.80176e-18
3849.84612 8.59495e-18
3851.84912 8.87846e-18
3853.84211 9.02687e-18
3855.84511 9.13938e-18
3857.84811 9.27240e-18
3859.84109 9.40901e-18
3861.84409 9.34790e-18
3863.84709 9.99390e-18
3865.85009 1.01474e-17
3867.84308 1.03842e-17
3869.84608 1.10520e-17
3871.84908 1.10771e-17
3873.84206 1.11107e-17
3875.84506 1.14996e-17
3877.84806 1.11082e-17
3879.84105 1.12405e-17
3881.84405 1.12449e-17
3883.84705 1.11863e-17
3885.84003 1.13614e-17
3887.84303 1.09328e-17
3889.84603 1.08309e-17
3891.84903 1.09178e-17
3893.84202 1.08241e-17
3895.84502 1.09991e-17
3897.84802 1.13081e-17
3899.84100 1.21089e-17
3901.84400 1.27614e-17
3903.84700 1.30462e-17
3905.83999 1.32414e-17
3907.84299 1.36233e-17
3909.84598 1.37679e-17
3911.84899 1.37561e-17
3913.84197 1.39537e-17
3915.84497 1.46103e-17
3917.84797 1.46146e-17
3919.84096 1.47869e-17
3921.84395 1.43980e-17
3923.84695 1.44440e-17
3925.83994 1.48848e-17
3927.84294 1.44428e-17
3929.84594 1.43882e-17
3931.83893 1.37886e-17
3933.84193 1.32083e-17
3935.84492 1.33459e-17
3937.84793 1.15795e-17
3939.84091 1.12501e-17
3941.84391 1.27992e-17
3943.84691 1.37642e-17
3945.83990 1.45037e-17
3947.84290 1.47119e-17
3949.84589 1.50456e-17
3951.83888 1.48420e-17
3953.84188 1.47846e-17
3955.84488 1.47794e-17
3957.83786 1.51741e-17
3959.84087 1.52983e-17
3961.84387 1.44836e-17
3963.84686 1.42542e-17
3965.83985 1.41031e-17
3967.84285 1.37291e-17
3969.84585 1.31803e-17
3971.83884 1.20050e-17
3973.84184 1.13148e-17
3975.84483 1.18205e-17
3977.83782 1.24733e-17
3979.84082 1.28459e-17
3981.84382 1.35532e-17
3983.83680 1.44409e-17
3985.83981 1.50271e-17
3987.84281 1.51351e-17
3989.83579 1.51861e-17
3991.83879 1.52613e-17
3993.84179 1.57871e-17
3995.84479 1.58046e-17
3997.83777 1.57345e-17
3999.84078 1.54906e-17
4001.84378 1.55522e-17
4003.83676 1.56701e-17
4005.83976 1.55074e-17
4007.84276 1.60673e-17
4009.83575 1.58340e-17
4011.83875 1.62062e-17
4013.84175 1.61591e-17
4015.84475 1.62478e-17
4017.83773 1.66020e-17
4019.84073 1.68919e-17
4021.84373 1.68563e-17
4023.83672 1.67664e-17
4025.83972 1.70246e-17
4027.84272 1.70113e-17
4029.83570 1.67859e-17
4031.83870 1.62925e-17
4033.84170 1.62163e-17
4035.83469 1.61786e-17
4037.83769 1.62124e-17
4039.84069 1.62566e-17
4041.84369 1.61356e-17
4043.83667 1.58867e-17
4045.83967 1.58582e-17
4047.84267 1.71456e-17
4049.83566 1.71675e-17
4051.83866 1.60363e-17
4053.84166 1.59193e-17
4055.83464 1.61248e-17
4057.83764 1.62190e-17
4059.84064 1.59856e-17
4061.83363 1.55283e-17
4063.83663 1.56187e-17
4065.83963 1.60305e-17
4067.84263 1.56902e-17
4069.83561 1.53662e-17
4071.83861 1.56805e-17
4073.84161 1.52973e-17
4075.83460 1.50407e-17
4077.83760 1.52563e-17
4079.84060 1.53506e-17
4081.83358 1.48423e-17
4083.83658 1.46995e-17
4085.83958 1.49944e-17
4087.83257 1.49990e-17
4089.83557 1.48552e-17
4091.83857 1.42219e-17
4093.84157 1.44845e-17
4095.83455 1.38604e-17
4097.83755 1.40886e-17
4099.84055 1.34343e-17
4101.83354 1.28155e-17
4103.83653 1.25889e-17
4105.83954 1.30163e-17
4107.83252 1.29355e-17
4109.83552 1.19808e-17
4111.83852 1.25356e-17
4113.83151 1.29202e-17
4115.83451 1.27897e-17
4117.83751 1.29867e-17
4119.84051 1.34089e-17
4121.83349 1.33893e-17
4123.83649 1.38253e-17
4125.83949 1.33980e-17
4127.83248 1.27441e-17
4129.83547 1.33083e-17
4131.83847 1.34608e-17
4133.83146 1.30327e-17
4135.83446 1.27111e-17
4137.83746 1.25081e-17
4139.83045 1.26045e-17
4141.83345 1.30355e-17
4143.83644 1.36223e-17
4145.82943 1.37171e-17
4147.83243 1.33187e-17
4149.83543 1.30100e-17
4151.83843 1.34353e-17
4153.83141 1.37810e-17
4155.83442 1.34019e-17
4157.83741 1.33962e-17
4159.83040 1.32496e-17
4161.83340 1.30760e-17
4163.83640 1.32291e-17
4165.82939 1.34617e-17
4167.83239 1.38511e-17
4169.83539 1.36965e-17
4171.83839 1.35785e-17
4173.83137 1.38688e-17
4175.83437 1.35339e-17
4177.83737 1.28993e-17
4179.83036 1.30098e-17
4181.83335 1.30152e-17
4183.83636 1.31509e-17
4185.82934 1.29781e-17
4187.83234 1.30655e-17
4189.83534 1.32622e-17
4191.82833 1.31839e-17
4193.83133 1.29185e-17
4195.83433 1.29845e-17
4197.83733 1.32949e-17
4199.83031 1.34476e-17
4201.83331 1.32742e-17
4203.83631 1.30782e-17
4205.82929 1.29490e-17
4207.83230 1.29049e-17
4209.83529 1.28605e-17
4211.82828 1.30396e-17
4213.83128 1.35925e-17
4215.83428 1.32254e-17
4217.82727 1.34350e-17
4219.83027 1.37255e-17
4221.83327 1.35694e-17
4223.83627 1.33456e-17
4225.82925 1.35640e-17
4227.83225 1.40045e-17
4229.83525 1.38891e-17
4231.82823 1.29621e-17
4233.83123 1.30367e-17
4235.83424 1.39435e-17
4237.82722 1.41308e-17
4239.83022 1.39955e-17
4241.83322 1.38993e-17
4243.82621 1.38016e-17
4245.82921 1.40265e-17
4247.83221 1.39140e-17
4249.83521 1.38206e-17
4251.82819 1.40079e-17
4253.83119 1.40995e-17
4255.83419 1.44763e-17
4257.82718 1.42070e-17
4259.83018 1.43051e-17
4261.83317 1.47356e-17
4263.82616 1.46851e-17
4265.82916 1.41346e-17
4267.83216 1.44128e-17
4269.82515 1.50980e-17
4271.82815 1.50115e-17
4273.83115 1.46553e-17
4275.83415 1.43728e-17
4277.82713 1.43415e-17
4279.83013 1.46190e-17
4281.83313 1.43863e-17
4283.82611 1.46014e-17
4285.82912 1.46614e-17
4287.83212 1.46036e-17
4289.82510 1.42747e-17
4291.82810 1.43219e-17
4293.83110 1.42050e-17
4295.82409 1.40579e-17
4297.82709 1.41326e-17
4299.83009 1.43505e-17
4301.83309 1.45175e-17
4303.82607 1.41749e-17
4305.82907 1.40245e-17
4307.83207 1.38478e-17
4309.82506 1.38225e-17
4311.82805 1.38235e-17
4313.83106 1.35662e-17
4315.82404 1.35911e-17
4317.82704 1.41153e-17
4319.83004 1.40713e-17
4321.82303 1.41120e-17
4323.82603 1.46607e-17
4325.82903 1.47474e-17
4327.83203 1.44507e-17
4329.82501 1.43139e-17
4331.82801 1.41316e-17
4333.83101 1.37232e-17
4335.82399 1.40029e-17
4337.82700 1.40532e-17
4339.83000 1.37051e-17
4341.82298 1.33136e-17
4343.82598 1.31334e-17
4345.82898 1.33676e-17
4347.82197 1.31385e-17
4349.82497 1.29135e-17
4351.82797 1.29959e-17
4353.83097 1.30782e-17
4355.82395 1.31605e-17
4357.82695 1.32428e-17
4359.82995 1.33251e-17
4361.82294 1.34074e-17
4363.82593 1.34897e-17
4365.82894 1.35719e-17
4367.82192 1.36542e-17
4369.82492 1.37364e-17
4371.82792 1.38187e-17
4373.82091 1.39009e-17
4375.82391 1.39831e-17
4377.82691 1.40653e-17
4379.82991 1.41475e-17
4381.82289 1.42297e-17
4383.82589 1.43119e-17
4385.82889 1.43940e-17
4387.82188 1.44762e-17
4389.82488 1.39723e-17
4391.82787 1.38199e-17
4393.82086 1.39790e-17
4395.82386 1.40080e-17
4397.82686 1.40478e-17
4399.81984 1.41168e-17
4401.82284 1.42601e-17
4403.82584 1.43458e-17
4405.82885 1.42292e-17
4407.82183 1.40896e-17
4409.82483 1.40058e-17
4411.82783 1.40308e-17
4413.82082 1.40341e-17
4415.82382 1.39491e-17
4417.82682 1.40239e-17
4419.81980 1.37405e-17
4421.82280 1.33643e-17
4423.82580 1.33516e-17
4425.81878 1.36554e-17
4427.82179 1.40230e-17
4429.82478 1.41356e-17
4431.82778 1.40102e-17
4433.82077 1.36545e-17
4435.82377 1.34228e-17
4437.82677 1.34154e-17
4439.81976 1.35921e-17
4441.82276 1.34241e-17
4443.82576 1.36327e-17
4445.81874 1.35615e-17
4447.82174 1.36895e-17
4449.82474 1.38418e-17
4451.81772 1.41108e-17
4453.82072 1.39176e-17
4455.82373 1.38052e-17
4457.82672 1.41169e-17
4459.81971 1.39902e-17
4461.82271 1.37147e-17
4463.82571 1.36181e-17
4465.81869 1.36749e-17
4467.82170 1.38873e-17
4469.82470 1.42431e-17
4471.81768 1.44551e-17
4473.82068 1.42270e-17
4475.82368 1.41872e-17
4477.81667 1.41344e-17
4479.81966 1.46035e-17
4481.82266 1.52098e-17
4483.82567 1.53898e-17
4485.81865 1.50662e-17
4487.82165 1.49700e-17
4489.82465 1.51918e-17
4491.81764 1.54796e-17
4493.82064 1.59682e-17
4495.82364 1.63348e-17
4497.81662 1.62973e-17
4499.81962 1.61698e-17
4501.82262 1.64830e-17
4503.81560 1.69590e-17
4505.81861 1.72426e-17
4507.82161 1.74543e-17
4509.82460 1.78301e-17
4511.81759 1.80208e-17
4513.82059 1.81557e-17
4515.82359 1.84775e-17
4517.81658 1.84500e-17
4519.81958 1.82459e-17
4521.82258 1.84254e-17
4523.81556 1.88442e-17
4525.81856 1.89943e-17
4527.82156 1.87813e-17
4529.81455 1.89674e-17
4531.81754 1.92603e-17
4533.82054 1.88575e-17
4535.82355 1.89212e-17
4537.81653 1.90161e-17
4539.81953 1.89598e-17
4541.82253 1.90072e-17
4543.81552 1.90373e-17
4545.81852 1.93171e-17
4547.82152 1.97981e-17
4549.81450 1.99668e-17
4551.81750 1.98703e-17
4553.82050 1.98623e-17
4555.81348 1.99437e-17
4557.81649 2.01419e-17
4559.81948 1.99987e-17
4561.82248 1.97389e-17
4563.81547 2.00274e-17
4565.81847 2.07462e-17
4567.82147 2.14847e-17
4569.81446 2.10505e-17
4571.81746 2.07492e-17
4573.82046 2.06835e-17
4575.81344 2.09394e-17
4577.81644 2.09720e-17
4579.81944 2.09068e-17
4581.81243 2.08604e-17
4583.81542 2.08044e-17
4585.81843 2.06046e-17
4587.82143 2.03147e-17
4589.81441 2.03887e-17
4591.81741 2.03975e-17
4593.82041 2.04662e-17
4595.81340 2.04049e-17
4597.81640 2.03963e-17
4599.81940 2.02476e-17
4601.81238 2.02053e-17
4603.81538 2.02112e-17
4605.81838 2.03516e-17
4607.82138 2.04962e-17
4609.81437 2.05950e-17
4611.81736 2.05866e-17
4613.82037 2.05380e-17
4615.81335 2.04653e-17
4617.81635 2.05912e-17
4619.81935 2.04504e-17
4621.81234 2.02163e-17
4623.81534 2.02156e-17
4625.81834 2.02162e-17
4627.81132 2.01505e-17
4629.81432 2.01502e-17
4631.81732 1.99685e-17
4633.82032 1.96899e-17
4635.81331 1.93545e-17
4637.81631 1.93863e-17
4639.81930 1.96270e-17
4641.81229 1.96168e-17
4643.81529 1.96776e-17
4645.81829 1.95934e-17
4647.81128 1.91811e-17
4649.81428 1.88777e-17
4651.81728 1.89008e-17
4653.81026 1.89676e-17
4655.81326 1.88647e-17
4657.81626 1.87025e-17
4659.80925 1.84779e-17
4661.81225 1.86459e-17
4663.81524 1.88567e-17
4665.81825 1.88989e-17
4667.81123 1.86502e-17
4669.81423 1.83554e-17
4671.81723 1.81047e-17
4673.81022 1.77315e-17
4675.81322 1.76206e-17
4677.81622 1.77708e-17
4679.80920 1.79006e-17
4681.81220 1.78962e-17
4683.81520 1.78098e-17
4685.80818 1.77033e-17
4687.81119 1.75082e-17
4689.81419 1.74607e-17
4691.81718 1.76198e-17
4693.81017 1.78001e-17
4695.81317 1.76332e-17
4697.81617 1.73370e-17
4699.80916 1.71930e-17
4701.81216 1.70744e-17
4703.81516 1.71363e-17
4705.80814 1.66250e-17
4707.81114 1.66810e-17
4709.81414 1.65958e-17
4711.80713 1.63237e-17
4713.81012 1.63834e-17
4715.81313 1.62863e-17
4717.81613 1.62766e-17
4719.80911 1.62369e-17
4721.81211 1.61845e-17
4723.81511 1.63665e-17
4725.80809 1.65720e-17
4727.81110 1.65048e-17
4729.81409 1.66135e-17
4731.80708 1.65032e-17
4733.81008 1.62040e-17
4735.81308 1.58875e-17
4737.80607 1.57510e-17
4739.80907 1.58253e-17
4741.81207 1.58566e-17
4743.81507 1.59202e-17
4745.80805 1.59731e-17
4747.81105 1.56234e-17
4749.81405 1.57929e-17
4751.80703 1.60989e-17
4753.81003 1.60217e-17
4755.81304 1.58899e-17
4757.80602 1.58059e-17
4759.80902 1.56342e-17
4761.81202 1.53885e-17
4763.80501 1.55010e-17
4765.80801 1.54550e-17
4767.81101 1.52659e-17
4769.81401 1.50209e-17
4771.80699 1.46891e-17
4773.80999 1.47930e-17
4775.81299 1.49155e-17
4777.80598 1.47599e-17
4779.80897 1.48480e-17
4781.81197 1.49399e-17
4783.80496 1.46960e-17
4785.80796 1.43794e-17
4787.81096 1.43151e-17
4789.80395 1.44210e-17
4791.80695 1.41849e-17
4793.80994 1.40480e-17
4795.81295 1.38576e-17
4797.80593 1.38016e-17
4799.80893 1.39982e-17
4801.81193 1.43702e-17
4803.80491 1.42779e-17
4805.80792 1.40378e-17
4807.81092 1.39842e-17
4809.80390 1.40181e-17
4811.80690 1.39875e-17
4813.80990 1.39337e-17
4815.81290 1.40699e-17
4817.80589 1.40755e-17
4819.80889 1.39217e-17
4821.81189 1.42246e-17
4823.80487 1.44327e-17
4825.80787 1.45180e-17
4827.81087 1.44493e-17
4829.80386 1.45421e-17
4831.80685 1.46845e-17
4833.80986 1.44359e-17
4835.80284 1.43333e-17
4837.80584 1.47354e-17
4839.80884 1.51377e-17
4841.81184 1.50260e-17
4843.80483 1.51416e-17
4845.80783 1.50982e-17
4847.81083 1.49440e-17
4849.80381 1.49737e-17
4851.80681 1.49263e-17
4853.80981 1.48788e-17
4855.80279 1.48314e-17
4857.80580 1.47840e-17
4859.80879 1.47365e-17
4861.80178 1.46891e-17
4863.80478 1.46417e-17
4865.80778 1.45943e-17
4867.81078 1.45469e-17
4869.80377 1.44995e-17
4871.80677 1.44521e-17
4873.80977 1.44047e-17
4875.80275 1.43573e-17
4877.80575 1.43100e-17
4879.80875 1.42626e-17
4881.80174 1.42152e-17
4883.80473 1.41679e-17
4885.80774 1.41205e-17
4887.80072 1.40732e-17
4889.80372 1.42341e-17
4891.80672 1.42325e-17
4893.80972 1.39415e-17
4895.80271 1.38621e-17
4897.80571 1.39819e-17
4899.80871 1.41480e-17
4901.80169 1.42662e-17
4903.80469 1.43972e-17
4905.80769 1.45142e-17
4907.80068 1.44299e-17
4909.80368 1.43967e-17
4911.80667 1.45191e-17
4913.79966 1.43907e-17
4915.80266 1.44716e-17
4917.80566 1.45968e-17
4919.80866 1.48344e-17
4921.80165 1.48577e-17
4923.80465 1.49179e-17
4925.80765 1.45986e-17
4927.80063 1.43238e-17
4929.80363 1.46919e-17
4931.80663 1.51598e-17
4933.79961 1.56218e-17
4935.80262 1.59413e-17
4937.80562 1.56691e-17
4939.79860 1.55984e-17
4941.80160 1.59496e-17
4943.80460 1.61282e-17
4945.80760 1.61191e-17
4947.80059 1.60359e-17
4949.80359 1.61244e-17
4951.80659 1.62129e-17
4953.79957 1.63013e-17
4955.80257 1.63898e-17
4957.80557 1.64782e-17
4959.79856 1.65666e-17
4961.80156 1.66550e-17
4963.80456 1.67434e-17
4965.79754 1.68318e-17
4967.80054 1.69202e-17
4969.80354 1.70085e-17
4971.79653 1.70969e-17
4973.79953 1.71852e-17
4975.80253 1.72736e-17
4977.80553 1.73619e-17
4979.79851 1.74502e-17
4981.80151 1.75385e-17
4983.80451 1.76268e-17
4985.79749 1.77151e-17
4987.80050 1.75656e-17
4989.80350 1.72081e-17
4991.79648 1.74116e-17
4993.79948 1.74012e-17
4995.80248 1.71662e-17
4997.80548 1.69908e-17
4999.79847 1.68155e-17
5001.80147 1.66402e-17
5003.80447 1.64648e-17
5005.79745 1.62896e-17
5007.80045 1.61143e-17
5009.80345 1.59390e-17
5011.79644 1.57638e-17
5013.79943 1.55886e-17
5015.80244 1.54134e-17
5017.79542 1.52382e-17
5019.79842 1.50631e-17
5021.80142 1.48880e-17
5023.80442 1.47129e-17
5025.79741 1.45378e-17
5027.80041 1.43628e-17
5029.80341 1.41877e-17
5031.79639 1.40128e-17
5033.79939 1.38378e-17
5035.80239 1.36730e-17
5037.79538 1.36373e-17
5039.79838 1.37992e-17
5041.80138 1.35581e-17
5043.79436 1.31860e-17
5045.79736 1.29281e-17
5047.80036 1.28278e-17
5049.80336 1.29114e-17
5051.79634 1.30492e-17
5053.79934 1.32996e-17
5055.80235 1.31520e-17
5057.79533 1.29413e-17
5059.79833 1.31963e-17
5061.80133 1.32692e-17
5063.79432 1.31691e-17
5065.79732 1.33722e-17
5067.80032 1.36011e-17
5069.79330 1.36030e-17
5071.79630 1.35280e-17
5073.79930 1.35857e-17
5075.80230 1.36826e-17
5077.79529 1.39690e-17
5079.79828 1.40599e-17
5081.80128 1.39355e-17
5083.79427 1.38293e-17
5085.79727 1.39280e-17
5087.80027 1.41204e-17
5089.79326 1.43852e-17
5091.79626 1.44661e-17
5093.79926 1.45680e-17
5095.79224 1.48172e-17
5097.79524 1.53685e-17
5099.79824 1.54723e-17
5101.80124 1.54818e-17
5103.79422 1.54555e-17
5105.79723 1.54468e-17
5107.80022 1.55858e-17
5109.79321 1.59944e-17
5111.79621 1.59555e-17
5113.79921 1.62059e-17
5115.79219 1.63291e-17
5117.79520 1.61886e-17
5119.79820 1.61905e-17
5121.79118 1.61698e-17
5123.79418 1.65940e-17
5125.79718 1.68036e-17
5127.80018 1.66914e-17
5129.79317 1.66463e-17
5131.79616 1.65675e-17
5133.79917 1.65174e-17
5135.79215 1.64397e-17
5137.79515 1.64512e-17
5139.79815 1.66745e-17
5141.79114 1.68748e-17
5143.79414 1.69951e-17
5145.79714 1.67095e-17
5147.79012 1.65799e-17
5149.79312 1.66919e-17
5151.79612 1.68286e-17
5153.79912 1.69663e-17
5155.79211 1.69540e-17
5157.79511 1.70057e-17
5159.79810 1.70914e-17
5161.79109 1.71143e-17
5163.79409 1.73464e-17
5165.79709 1.77219e-17
5167.79008 1.76685e-17
5169.79308 1.72879e-17
5171.79608 1.70003e-17
5173.78906 1.68913e-17
5175.79206 1.66585e-17
5177.79506 1.66656e-17
5179.79806 1.67423e-17
5181.79104 1.67861e-17
5183.79404 1.71140e-17
5185.79705 1.73515e-17
5187.79003 1.75240e-17
5189.79303 1.72685e-17
5191.79603 1.71815e-17
5193.78902 1.74077e-17
5195.79202 1.76188e-17
5197.79502 1.77168e-17
5199.78800 1.75513e-17
5201.79100 1.76392e-17
5203.79400 1.79367e-17
5205.79700 1.84726e-17
5207.78999 1.84987e-17
5209.79299 1.83521e-17
5211.79598 1.83882e-17
5213.78897 1.82159e-17
5215.79197 1.79664e-17
5217.79497 1.82423e-17
5219.78796 1.85404e-17
5221.79096 1.81933e-17
5223.79396 1.81943e-17
5225.78694 1.82656e-17
5227.78994 1.84128e-17
5229.79294 1.85320e-17
5231.79594 1.80906e-17
5233.78892 1.75632e-17
5235.79193 1.74352e-17
5237.79493 1.76802e-17
5239.78791 1.80302e-17
5241.79091 1.81208e-17
5243.79391 1.77963e-17
5245.78690 1.77159e-17
5247.78990 1.78147e-17
5249.79290 1.79381e-17
5251.78588 1.84940e-17
5253.78888 1.87875e-17
5255.79188 1.85356e-17
5257.79488 1.85732e-17
5259.78787 1.87321e-17
5261.79086 1.85046e-17
5263.79387 1.85188e-17
5265.78685 1.87401e-17
5267.78985 1.84728e-17
5269.79285 1.78632e-17
5271.78584 1.78352e-17
5273.78884 1.80786e-17
5275.79184 1.77856e-17
5277.78482 1.78955e-17
5279.78782 1.82381e-17
5281.79082 1.83304e-17
5283.79382 1.82412e-17
5285.78681 1.83468e-17
5287.78981 1.83503e-17
5289.79281 1.81450e-17
5291.78579 1.76915e-17
5293.78879 1.80208e-17
5295.79179 1.87697e-17
5297.78478 1.89077e-17
5299.78778 1.83269e-17
5301.79078 1.83196e-17
5303.78376 1.86229e-17
5305.78676 1.86147e-17
5307.78976 1.82690e-17
5309.79276 1.82674e-17
5311.78575 1.83562e-17
5313.78874 1.82147e-17
5315.79175 1.86639e-17
5317.78473 1.88284e-17
5319.78773 1.86759e-17
5321.79073 1.85561e-17
5323.78372 1.83890e-17
5325.78672 1.78875e-17
5327.78972 1.74235e-17
5329.78270 1.78112e-17
5331.78570 1.77099e-17
5333.78870 1.80869e-17
5335.79170 1.74258e-17
5337.78469 1.70520e-17
5339.78769 1.75511e-17
5341.79068 1.79834e-17
5343.78367 1.75506e-17
5345.78667 1.78115e-17
5347.78967 1.74674e-17
5349.78266 1.75890e-17
5351.78566 1.80709e-17
5353.78866 1.81565e-17
5355.78164 1.78946e-17
5357.78464 1.80905e-17
5359.78764 1.82785e-17
5361.79064 1.80434e-17
5363.78363 1.83637e-17
5365.78663 1.80534e-17
5367.78963 1.78230e-17
5369.78261 1.79759e-17
5371.78561 1.77070e-17
5373.78861 1.76066e-17
5375.78159 1.77267e-17
5377.78460 1.72157e-17
5379.78759 1.69493e-17
5381.78058 1.69419e-17
5383.78358 1.70140e-17
5385.78658 1.71134e-17
5387.78958 1.69471e-17
5389.78257 1.71688e-17
5391.78557 1.71172e-17
5393.78857 1.69207e-17
5395.78155 1.65917e-17
5397.78455 1.64982e-17
5399.78755 1.67143e-17
5401.78053 1.64127e-17
5403.78353 1.61487e-17
5405.78654 1.62221e-17
5407.77952 1.66086e-17
5409.78252 1.64182e-17
5411.78552 1.59679e-17
5413.78852 1.60066e-17
5415.78151 1.60611e-17
5417.78451 1.55997e-17
5419.78751 1.58546e-17
5421.78049 1.59922e-17
5423.78349 1.58486e-17
5425.78649 1.56743e-17
5427.77948 1.56280e-17
5429.78247 1.55698e-17
5431.78547 1.54973e-17
5433.78848 1.59538e-17
5435.78146 1.59261e-17
5437.78446 1.55271e-17
5439.78746 1.52622e-17
5441.78045 1.53105e-17
5443.78345 1.54533e-17
5445.78645 1.57719e-17
5447.77943 1.54290e-17
5449.78243 1.52200e-17
5451.78543 1.52460e-17
5453.77841 1.52757e-17
5455.78142 1.53171e-17
5457.78442 1.55972e-17
5459.77740 1.58743e-17
5461.78040 1.57446e-17
5463.78340 1.55355e-17
5465.78640 1.54458e-17
5467.77939 1.56915e-17
5469.78239 1.60277e-17
5471.78539 1.59221e-17
5473.77837 1.54179e-17
5475.78137 1.59678e-17
5477.78437 1.62259e-17
5479.77736 1.58180e-17
5481.78035 1.55830e-17
5483.78335 1.57920e-17
5485.77634 1.59436e-17
5487.77934 1.60011e-17
5489.78234 1.58543e-17
5491.78534 1.56837e-17
5493.77833 1.56628e-17
5495.78133 1.57992e-17
5497.78433 1.59338e-17
5499.77731 1.58730e-17
5501.78031 1.56323e-17
5503.78331 1.58708e-17
5505.77629 1.59045e-17
5507.77930 1.56485e-17
5509.78229 1.53128e-17
5511.77528 1.54216e-17
5513.77828 1.57397e-17
5515.78128 1.52475e-17
5517.78428 1.51973e-17
5519.77727 1.51372e-17
5521.78027 1.49721e-17
5523.78327 1.50879e-17
5525.77625 1.53044e-17
5527.77925 1.51834e-17
5529.78225 1.47507e-17
5531.77524 1.44884e-17
5533.77823 1.42127e-17
5535.78124 1.41047e-17
5537.77422 1.39588e-17
5539.77722 1.40319e-17
5541.78022 1.41322e-17
5543.78322 1.36854e-17
5545.77621 1.36089e-17
5547.77921 1.39651e-17
5549.78221 1.35889e-17
5551.77519 1.34885e-17
5553.77819 1.34591e-17
5555.78119 1.30982e-17
5557.77418 1.27895e-17
5559.77718 1.28744e-17
5561.78017 1.25850e-17
5563.77316 1.29196e-17
5565.77616 1.23646e-17
5567.77916 1.22065e-17
5569.78216 1.25699e-17
5571.77515 1.21130e-17
5573.77815 1.19132e-17
5575.78115 1.26702e-17
5577.77413 1.29543e-17
5579.77713 1.19460e-17
5581.78013 1.10717e-17
5583.77311 1.11105e-17
5585.77612 1.13066e-17
5587.77912 1.10309e-17
5589.77210 1.11676e-17
5591.77510 1.11264e-17
5593.77810 1.08029e-17
5595.78110 1.06431e-17
5597.77409 1.06845e-17
5599.77709 1.05613e-17
5601.78009 1.02582e-17
5603.77307 1.06881e-17
5605.77607 1.02675e-17
5607.77907 9.91625e-18
5609.77206 9.68503e-18
5611.77506 9.66713e-18
5613.77805 9.75538e-18
5615.77104 9.55998e-18
5617.77404 9.93498e-18
5619.77704 9.58894e-18
5621.78004 9.88933e-18
5623.77303 9.68969e-18
5625.77603 9.25194e-18
5627.77903 9.20199e-18
5629.77201 9.08641e-18
5631.77501 9.10592e-18
5633.77801 9.09000e-18
5635.77099 9.10757e-18
5637.77400 8.96305e-18
5639.77700 8.77587e-18
5641.77999 8.67612e-18
5643.77298 8.57075e-18
5645.77598 8.42214e-18
5647.77898 8.11705e-18
5649.77197 7.89246e-18
5651.77497 7.84532e-18
5653.77797 8.18999e-18
5655.77095 8.60701e-18
5657.77395 8.52456e-18
5659.77695 8.23519e-18
5661.76994 8.22882e-18
5663.77293 8.04333e-18
5665.77594 7.89656e-18
5667.77894 7.70684e-18
5669.77192 7.54756e-18
5671.77492 7.78965e-18
5673.77792 8.58188e-18
5675.77091 8.80330e-18
5677.77391 8.29465e-18
5679.77691 8.01336e-18
5681.76989 8.20880e-18
5683.77289 8.31406e-18
5685.77589 8.06336e-18
5687.76888 8.14652e-18
5689.77188 7.79743e-18
5691.77488 7.68602e-18
5693.77788 7.97642e-18
5695.77086 8.40544e-18
5697.77386 8.61171e-18
5699.77686 8.65093e-18
5701.76984 8.88655e-18
5703.77284 8.58828e-18
5705.77585 8.51839e-18
5707.76883 8.36935e-18
5709.77183 8.27869e-18
5711.77483 8.31191e-18
5713.76782 8.40393e-18
5715.77082 8.48820e-18
5717.77382 8.44137e-18
5719.77682 8.58663e-18
5721.76980 8.49101e-18
5723.77280 8.58049e-18
5725.77580 8.98806e-18
5727.76879 9.31324e-18
5729.77178 9.18645e-18
5731.77478 9.04888e-18
5733.76777 9.72433e-18
5735.77077 9.91788e-18
5737.77377 9.84547e-18
5739.76676 9.82629e-18
5741.76976 9.93227e-18
5743.77275 1.01041e-17
5745.77576 1.03346e-17
5747.76874 9.95040e-18
5749.77174 9.73933e-18
5751.77474 1.04949e-17
5753.76772 1.05731e-17
5755.77073 9.92149e-18
5757.77373 1.01360e-17
5759.76671 1.03069e-17
5761.76971 1.00389e-17
5763.77271 1.06284e-17
5765.76570 1.10250e-17
5767.76870 1.09703e-17
5769.77170 1.11348e-17
5771.76468 1.15626e-17
5773.76768 1.09415e-17
5775.77068 1.16418e-17
5777.77368 1.16165e-17
5779.76667 1.13964e-17
5781.76966 1.14608e-17
5783.77267 1.16518e-17
5785.76565 1.15569e-17
5787.76865 1.12666e-17
5789.77165 1.15496e-17
5791.76464 1.11977e-17
5793.76764 1.16730e-17
5795.77064 1.21797e-17
5797.76362 1.23714e-17
5799.76662 1.25955e-17
5801.76962 1.27954e-17
5803.77262 1.26219e-17
5805.76560 1.23108e-17
5807.76861 1.24507e-17
5809.77160 1.27109e-17
5811.76459 1.28988e-17
5813.76759 1.32067e-17
5815.77059 1.37112e-17
5817.76358 1.37069e-17
5819.76658 1.38478e-17
5821.76958 1.39878e-17
5823.76256 1.40924e-17
5825.76556 1.42312e-17
5827.76856 1.44308e-17
5829.77156 1.46349e-17
5831.76454 1.48687e-17
5833.76754 1.49559e-17
5835.77055 1.50573e-17
5837.76353 1.51193e-17
5839.76653 1.50230e-17
5841.76953 1.49101e-17
5843.76252 1.50904e-17
5845.76552 1.55051e-17
5847.76852 1.52172e-17
5849.77152 1.51582e-17
5851.76450 1.49816e-17
5853.76750 1.48597e-17
5855.77050 1.49362e-17
5857.76349 1.49722e-17
5859.76649 1.47460e-17
5861.76948 1.47525e-17
5863.76247 1.47159e-17
5865.76547 1.50337e-17
5867.76847 1.51729e-17
5869.76146 1.52552e-17
5871.76446 1.57058e-17
5873.76746 1.58956e-17
5875.77046 1.55461e-17
5877.76344 1.56164e-17
5879.76644 1.57482e-17
5881.76944 1.56482e-17
5883.76242 1.48985e-17
5885.76543 1.43618e-17
5887.76843 1.57352e-17
5889.76141 1.48413e-17
5891.76441 1.45870e-17
5893.76741 1.35544e-17
5895.76040 1.17956e-17
5897.76340 9.79673e-18
5899.76640 8.93512e-18
5901.76940 1.04218e-17
5903.76238 1.05872e-17
5905.76538 1.21657e-17
5907.76838 1.42940e-17
5909.76137 1.54663e-17
5911.76436 1.55353e-17
5913.76737 1.53802e-17
5915.76035 1.55318e-17
5917.76335 1.55257e-17
5919.76635 1.52270e-17
5921.75934 1.56906e-17
5923.76234 1.56967e-17
5925.76534 1.53700e-17
5927.76834 1.54536e-17
5929.76132 1.57229e-17
5931.76432 1.50190e-17
5933.76732 1.51994e-17
5935.76030 1.52661e-17
5937.76331 1.50096e-17
5939.76631 1.49716e-17
5941.75929 1.50762e-17
5943.76229 1.49097e-17
5945.76529 1.52866e-17
5947.75828 1.53105e-17
5949.76128 1.53845e-17
5951.76428 1.54655e-17
5953.76728 1.52833e-17
5955.76026 1.51311e-17
5957.76326 1.54516e-17
5959.76626 1.58056e-17
5961.75925 1.56500e-17
5963.76224 1.52747e-17
5965.76525 1.54118e-17
5967.75823 1.54084e-17
5969.76123 1.50593e-17
5971.76423 1.48566e-17
5973.75722 1.49348e-17
5975.76022 1.51560e-17
5977.76322 1.52075e-17
5979.76622 1.54449e-17
5981.75920 1.54478e-17
5983.76220 1.50108e-17
5985.76520 1.46119e-17
5987.75819 1.48050e-17
5989.76119 1.46763e-17
5991.76418 1.43209e-17
5993.75717 1.43080e-17
5995.76017 1.46293e-17
5997.76317 1.48875e-17
5999.75616 1.47010e-17
6001.75916 1.41797e-17
6003.76216 1.42447e-17
6005.76516 1.42542e-17
6007.75814 1.40663e-17
6009.76114 1.42379e-17
6011.76414 1.44176e-17
6013.75713 1.41435e-17
6015.76013 1.37623e-17
6017.76313 1.38788e-17
6019.75611 1.38865e-17
6021.75911 1.34354e-17
6023.76211 1.31530e-17
6025.75509 1.29615e-17
6027.75810 1.30133e-17
6029.76109 1.35516e-17
6031.76409 1.33582e-17
6033.75708 1.35418e-17
6035.76008 1.34801e-17
6037.76308 1.33730e-17
6039.75607 1.28672e-17
6041.75907 1.27100e-17
6043.76207 1.32686e-17
6045.75505 1.29977e-17
6047.75805 1.33396e-17
6049.76105 1.30165e-17
6051.75403 1.31264e-17
6053.75703 1.31810e-17
6055.76004 1.30712e-17
6057.76303 1.30842e-17
6059.75602 1.32295e-17
6061.75902 1.30373e-17
6063.76202 1.32844e-17
6065.75500 1.27804e-17
6067.75801 1.26291e-17
6069.76101 1.31426e-17
6071.75399 1.30088e-17
6073.75699 1.26242e-17
6075.75999 1.27488e-17
6077.75298 1.27564e-17
6079.75598 1.30976e-17
6081.75897 1.31952e-17
6083.76198 1.30587e-17
6085.75496 1.30311e-17
6087.75796 1.28520e-17
6089.76096 1.28586e-17
6091.75395 1.29451e-17
6093.75695 1.25979e-17
6095.75995 1.23567e-17
6097.75293 1.24019e-17
6099.75593 1.21640e-17
6101.75893 1.21381e-17
6103.75191 1.21876e-17
6105.75492 1.23182e-17
6107.75792 1.23959e-17
6109.76091 1.22774e-17
6111.75390 1.22039e-17
6113.75690 1.23867e-17
6115.75990 1.23102e-17
6117.75289 1.22008e-17
6119.75589 1.22377e-17
6121.75889 1.27577e-17
6123.75187 1.27742e-17
6125.75487 1.24592e-17
6127.75787 1.21143e-17
6129.75086 1.20922e-17
6131.75385 1.19699e-17
6133.75685 1.17214e-17
6135.75986 1.20071e-17
6137.75284 1.23942e-17
6139.75584 1.27959e-17
6141.75884 1.29701e-17
6143.75183 1.29643e-17
6145.75483 1.27464e-17
6147.75783 1.24294e-17
6149.75081 1.25890e-17
6151.75381 1.29297e-17
6153.75681 1.28254e-17
6155.74979 1.25214e-17
6157.75280 1.25600e-17
6159.75580 1.27639e-17
6161.75879 1.27592e-17
6163.75178 1.26764e-17
6165.75478 1.28080e-17
6167.75778 1.29063e-17
6169.75077 1.30233e-17
6171.75377 1.31558e-17
6173.75677 1.34847e-17
6175.74975 1.35024e-17
6177.75275 1.35648e-17
6179.75575 1.37357e-17
6181.74874 1.40817e-17
6183.75173 1.41000e-17
6185.75474 1.40676e-17
6187.75774 1.46306e-17
6189.75072 1.50366e-17
6191.75372 1.52374e-17
6193.75672 1.52272e-17
6195.74971 1.51812e-17
6197.75271 1.51313e-17
6199.75571 1.50272e-17
6201.74869 1.52867e-17
6203.75169 1.54263e-17
6205.75469 1.55498e-17
6207.74768 1.64365e-17
6209.75068 1.66163e-17
6211.75367 1.63448e-17
6213.75668 1.65361e-17
6215.74966 1.71061e-17
6217.75266 1.67785e-17
6219.75566 1.65115e-17
6221.74865 1.69890e-17
6223.75165 1.74696e-17
6225.75465 1.77983e-17
6227.74763 1.83050e-17
6229.75063 1.87731e-17
6231.75363 1.90350e-17
6233.74662 1.95947e-17
6235.74962 1.95170e-17
6237.75262 1.93382e-17
6239.75562 1.90564e-17
6241.74860 1.90504e-17
6243.75160 1.91029e-17
6245.75460 1.90082e-17
6247.74759 1.91530e-17
6249.75059 1.94405e-17
6251.75359 1.92531e-17
6253.74657 1.93035e-17
6255.74957 1.92683e-17
6257.75257 1.91340e-17
6259.75557 1.91002e-17
6261.74856 1.89283e-17
6263.75155 1.88095e-17
6265.75456 1.89578e-17
6267.74754 1.87368e-17
6269.75054 1.83372e-17
6271.75354 1.87400e-17
6273.74653 1.90990e-17
6275.74953 1.91140e-17
6277.75253 1.94804e-17
6279.74551 1.94816e-17
6281.74851 1.94248e-17
6283.75151 1.92145e-17
6285.74449 1.93692e-17
6287.74750 1.93269e-17
6289.75050 1.90015e-17
6291.75349 1.91786e-17
6293.74648 1.92567e-17
6295.74948 1.94110e-17
6297.75248 1.95419e-17
6299.74547 1.95115e-17
6301.74847 1.90455e-17
6303.75147 1.90049e-17
6305.74445 1.91725e-17
6307.74745 1.93227e-17
6309.75045 1.91796e-17
6311.74344 1.89914e-17
6313.74644 1.89091e-17
6315.74944 1.87013e-17
6317.75244 1.85924e-17
6319.74542 1.88041e-17
6321.74842 1.89559e-17
6323.75142 1.88619e-17
6325.74441 1.84174e-17
6327.74741 1.79106e-17
6329.75041 1.75580e-17
6331.74339 1.76142e-17
6333.74639 1.78654e-17
6335.74939 1.77639e-17
6337.74238 1.77101e-17
6339.74538 1.75152e-17
6341.74838 1.71821e-17
6343.75138 1.71236e-17
6345.74436 1.70352e-17
6347.74736 1.74983e-17
6349.75036 1.75656e-17
6351.74334 1.73160e-17
6353.74634 1.72284e-17
6355.74935 1.72232e-17
6357.74233 1.69033e-17
6359.74533 1.68348e-17
6361.74833 1.68306e-17
6363.74132 1.66934e-17
6365.74432 1.64085e-17
6367.74732 1.62657e-17
6369.75032 1.63751e-17
6371.74330 1.65433e-17
6373.74630 1.64668e-17
6375.74930 1.58821e-17
6377.74229 1.62560e-17
6379.74528 1.60994e-17
6381.74828 1.61110e-17
6383.74127 1.60692e-17
6385.74427 1.56746e-17
6387.74727 1.54860e-17
6389.74026 1.55168e-17
6391.74326 1.50514e-17
6393.74626 1.47928e-17
6395.74926 1.49883e-17
6397.74224 1.53365e-17
6399.74524 1.55852e-17
6401.74824 1.56560e-17
6403.74122 1.50211e-17
6405.74423 1.54565e-17
6407.74723 1.52827e-17
6409.74021 1.48523e-17
6411.74321 1.48226e-17
6413.74621 1.48695e-17
6415.73920 1.50156e-17
6417.74220 1.48750e-17
6419.74520 1.46072e-17
6421.74820 1.45807e-17
6423.74118 1.48218e-17
6425.74418 1.48801e-17
6427.74718 1.47245e-17
6429.74017 1.46315e-17
6431.74316 1.44295e-17
6433.74617 1.45455e-17
6435.73915 1.42956e-17
6437.74215 1.41118e-17
6439.74515 1.40915e-17
6441.73814 1.41118e-17
6443.74114 1.40097e-17
6445.74414 1.37005e-17
6447.74714 1.39245e-17
6449.74012 1.41526e-17
6451.74312 1.41142e-17
6453.74612 1.42307e-17
6455.73910 1.39760e-17
6457.74211 1.35312e-17
6459.74510 1.35000e-17
6461.73809 1.34138e-17
6463.74109 1.34566e-17
6465.74409 1.34845e-17
6467.74709 1.35741e-17
6469.74008 1.35459e-17
6471.74308 1.34438e-17
6473.74608 1.37111e-17
6475.73906 1.38052e-17
6477.74206 1.33434e-17
6479.74506 1.31719e-17
6481.73805 1.31411e-17
6483.74104 1.32981e-17
6485.74405 1.34717e-17
6487.73703 1.31277e-17
6489.74003 1.29550e-17
6491.74303 1.32861e-17
6493.74603 1.34882e-17
6495.73902 1.36012e-17
6497.74202 1.36259e-17
6499.74502 1.32847e-17
6501.73800 1.28022e-17
6503.74100 1.22672e-17
6505.74400 1.22959e-17
6507.73699 1.25463e-17
6509.73999 1.29627e-17
6511.74298 1.30977e-17
6513.73597 1.31165e-17
6515.73897 1.31124e-17
6517.74197 1.30653e-17
6519.74497 1.29658e-17
6521.73796 1.31000e-17
6523.74096 1.30438e-17
6525.74396 1.29607e-17
6527.73694 1.26977e-17
6529.73994 1.25335e-17
6531.74294 1.26878e-17
6533.73592 1.26564e-17
6535.73893 1.24063e-17
6537.74193 1.24841e-17
6539.73491 1.28575e-17
6541.73791 1.29809e-17
6543.74091 1.29246e-17
6545.74391 1.28683e-17
6547.73690 1.28120e-17
6549.73990 1.27557e-17
6551.74290 1.26994e-17
6553.73588 1.26431e-17
6555.73888 1.25869e-17
6557.74188 1.25306e-17
6559.73487 1.24743e-17
6561.73787 1.24180e-17
6563.74087 1.23617e-17
6565.73385 1.23055e-17
6567.73685 1.22492e-17
6569.73985 1.21929e-17
6571.74285 1.21367e-17
6573.73584 1.20804e-17
6575.73884 1.20242e-17
6577.74184 1.19679e-17
6579.73482 1.19117e-17
6581.73782 1.18554e-17
6583.74082 1.17992e-17
6585.73380 1.17429e-17
6587.73681 1.16867e-17
6589.73981 1.16305e-17
6591.73279 1.15742e-17
6593.73579 1.15180e-17
6595.73879 1.14618e-17
6597.73178 1.14056e-17
6599.73478 1.13494e-17
6601.73778 1.12931e-17
6603.74078 1.12369e-17
6605.73376 1.13987e-17
6607.73676 1.15507e-17
6609.73976 1.16455e-17
6611.73275 1.19679e-17
6613.73574 1.21861e-17
6615.73875 1.22520e-17
6617.73173 1.17313e-17
6619.73473 1.14246e-17
6621.73773 1.16881e-17
6623.73072 1.16408e-17
6625.73372 1.14416e-17
6627.73672 1.12540e-17
6629.73972 1.11464e-17
6631.73270 1.10858e-17
6633.73570 1.06022e-17
6635.73870 1.10448e-17
6637.73169 1.12217e-17
6639.73469 1.10880e-17
6641.73769 1.12000e-17
6643.73067 1.15167e-17
6645.73367 1.15192e-17
6647.73667 1.15300e-17
6649.72966 1.14343e-17
6651.73266 1.15288e-17
6653.73566 1.14882e-17
6655.73866 1.10771e-17
6657.73164 1.07838e-17
6659.73464 1.08315e-17
6661.73764 1.06820e-17
6663.73063 1.02762e-17
6665.73363 1.04703e-17
6667.73663 1.05567e-17
6669.72961 1.06001e-17
6671.73261 1.09278e-17
6673.73561 1.12304e-17
6675.73861 1.08500e-17
6677.73160 1.05200e-17
6679.73459 1.04307e-17
6681.73759 9.90341e-18
6683.73058 9.48060e-18
6685.73358 9.61115e-18
6687.73658 1.01244e-17
6689.72957 9.75560e-18
6691.73257 9.93970e-18
6693.73557 1.03594e-17
6695.72855 1.05687e-17
6697.73155 1.05044e-17
6699.73455 1.02939e-17
6701.73755 1.00717e-17
6703.73053 9.92152e-18
6705.73354 9.55342e-18
6707.73654 9.83521e-18
6709.72952 9.66016e-18
6711.73252 9.67438e-18
6713.73552 9.78118e-18
6715.72851 9.90467e-18
6717.73151 9.97613e-18
6719.73451 9.98933e-18
6721.72749 9.75891e-18
6723.73049 9.59399e-18
6725.73349 9.52069e-18
6727.73649 9.10951e-18
6729.72948 8.77922e-18
6731.73247 8.85965e-18
6733.73548 9.27799e-18
6735.72846 9.39937e-18
6737.73146 9.51077e-18
6739.73446 9.97866e-18
6741.72745 1.00039e-17
6743.73045 9.62311e-18
6745.73345 9.88952e-18
6747.72643 9.98349e-18
6749.72943 9.71664e-18
6751.73243 9.53553e-18
6753.73543 9.30516e-18
6755.72842 9.16782e-18
6757.73142 9.34282e-18
6759.73441 9.18187e-18
6761.72740 9.12054e-18
6763.73040 9.26512e-18
6765.73340 9.00488e-18
6767.72639 8.65337e-18
6769.72939 8.98586e-18
6771.73239 9.35072e-18
6773.72537 9.00100e-18
6775.72837 9.47318e-18
6777.73137 9.42906e-18
6779.73437 9.07778e-18
6781.72735 9.15352e-18
6783.73035 9.38584e-18
6785.73336 9.45471e-18
6787.72634 9.37670e-18
6789.72934 9.47007e-18
6791.73234 9.31026e-18
6793.72533 9.18923e-18
6795.72833 9.06257e-18
6797.73133 8.90932e-18
6799.72431 8.80209e-18
6801.72731 8.93702e-18
6803.73031 9.10094e-18
6805.73331 8.84237e-18
6807.72630 8.86682e-18
6809.72930 8.64165e-18
6811.73229 8.58926e-18
6813.72528 8.43396e-18
6815.72828 8.26091e-18
6817.73128 8.54460e-18
6819.72427 8.64886e-18
6821.72727 8.29355e-18
6823.73027 8.31356e-18
6825.72325 8.54603e-18
6827.72625 8.65123e-18
6829.72925 8.46577e-18
6831.73225 8.47506e-18
6833.72523 9.19503e-18
6835.72824 9.05492e-18
6837.73124 8.83344e-18
6839.72422 9.08063e-18
6841.72722 9.04950e-18
6843.73022 8.54974e-18
6845.72321 8.67483e-18
6847.72621 8.58701e-18
6849.72921 8.27610e-18
6851.72219 8.29249e-18
6853.72519 8.37540e-18
6855.72819 8.45476e-18
6857.73119 8.61198e-18
6859.72418 8.98878e-18
6861.72717 8.96812e-18
6863.73018 8.70938e-18
6865.72316 8.82993e-18
6867.72616 8.66821e-18
6869.72916 8.40061e-18
6871.72215 8.49859e-18
6873.72515 8.52569e-18
6875.72815 8.69479e-18
6877.72113 8.33486e-18
6879.72413 8.49191e-18
6881.72713 8.61282e-18
6883.73013 8.50153e-18
6885.72312 8.30740e-18
6887.72612 8.19143e-18
6889.72912 8.58559e-18
6891.72210 8.52096e-18
6893.72510 8.57701e-18
6895.72810 8.60638e-18
6897.72109 8.47565e-18
6899.72409 8.57093e-18
6901.72709 8.93459e-18
6903.72007 8.60684e-18
6905.72307 8.52429e-18
6907.72607 8.53648e-18
6909.72907 9.01461e-18
6911.72206 9.13558e-18
6913.72505 9.01868e-18
6915.72806 8.97516e-18
6917.72104 8.77286e-18
6919.72404 9.05368e-18
6921.72704 9.06985e-18
6923.72003 9.22742e-18
6925.72303 9.09945e-18
6927.72603 8.97884e-18
6929.71901 9.07736e-18
6931.72201 9.05456e-18
6933.72501 9.33278e-18
6935.72801 9.05502e-18
6937.72100 9.03583e-18
6939.72400 8.92265e-18
6941.72699 9.07050e-18
6943.71998 9.20877e-18
6945.72298 9.23183e-18
6947.72598 9.44875e-18
6949.71897 9.32930e-18
6951.72197 9.25774e-18
6953.72497 9.42569e-18
6955.71795 9.39048e-18
6957.72095 9.07949e-18
6959.72395 9.13674e-18
6961.72695 8.91689e-18
6963.71994 9.01309e-18
6965.72294 9.02151e-18
6967.72594 8.97163e-18
6969.71892 9.20198e-18
6971.72192 9.21274e-18
6973.72492 9.05194e-18
6975.71791 9.40635e-18
6977.72091 9.76803e-18
6979.72391 9.87905e-18
6981.71689 9.81105e-18
6983.71989 9.78046e-18
6985.72289 9.80400e-18
6987.72589 9.62605e-18
6989.71888 9.49419e-18
6991.72188 9.21714e-18
6993.72488 9.47899e-18
6995.71786 9.92146e-18
6997.72086 9.96239e-18
6999.72386 9.92396e-18
7001.71684 9.80591e-18
7003.71984 9.89374e-18
7005.72285 9.99561e-18
7007.71583 1.00115e-17
7009.71883 9.84483e-18
7011.72183 9.75066e-18
7013.72483 9.82563e-18
7015.71782 9.65129e-18
7017.72082 9.74252e-18
7019.72382 1.01576e-17
7021.71680 9.83847e-18
7023.71980 1.00367e-17
7025.72280 1.00691e-17
7027.71579 9.70930e-18
7029.71879 9.70872e-18
7031.72178 9.88135e-18
7033.71477 9.74247e-18
7035.71777 9.79313e-18
7037.72077 1.02508e-17
7039.72377 1.04027e-17
7041.71676 9.70624e-18
7043.71976 1.00670e-17
7045.72276 1.02653e-17
7047.71574 1.01342e-17
7049.71874 9.58602e-18
7051.72174 9.74102e-18
7053.71472 9.99473e-18
7055.71773 1.02259e-17
7057.72073 1.01921e-17
7059.71371 1.06790e-17
7061.71671 1.05238e-17
7063.71971 1.05157e-17
7065.72271 1.02511e-17
7067.71570 9.91156e-18
7069.71870 1.01077e-17
7071.72170 1.05393e-17
7073.71468 1.02338e-17
7075.71768 1.04981e-17
7077.72068 1.02235e-17
7079.71367 9.99533e-18
7081.71666 1.03818e-17
7083.71966 1.05224e-17
7085.71265 1.04278e-17
7087.71565 1.06922e-17
7089.71865 1.06072e-17
7091.72165 1.03896e-17
7093.71464 1.00644e-17
7095.71764 1.03754e-17
7097.72064 1.02678e-17
7099.71362 1.03228e-17
7101.71662 1.04586e-17
7103.71962 1.02874e-17
7105.71260 1.04759e-17
7107.71561 1.06906e-17
7109.71861 1.07566e-17
7111.71159 1.07237e-17
7113.71459 1.08013e-17
7115.71759 1.07055e-17
7117.72059 1.08510e-17
7119.71358 1.07686e-17
7121.71658 1.07319e-17
7123.71958 1.08671e-17
7125.71256 1.08050e-17
7127.71556 1.09304e-17
7129.71856 1.10478e-17
7131.71155 1.10393e-17
7133.71454 1.11644e-17
7135.71755 1.12415e-17
7137.71053 1.12862e-17
7139.71353 1.13547e-17
7141.71653 1.16441e-17
7143.71953 1.18220e-17
7145.71252 1.20146e-17
7147.71552 1.19101e-17
7149.71852 1.19336e-17
7151.71150 1.20230e-17
7153.71450 1.18478e-17
7155.71750 1.20494e-17
7157.71049 1.21738e-17
7159.71349 1.23587e-17
7161.71648 1.25533e-17
7163.70947 1.27668e-17
7165.71247 1.28534e-17
7167.71547 1.29268e-17
7169.71847 1.28496e-17
7171.71146 1.28866e-17
7173.71446 1.29810e-17
7175.71746 1.30931e-17
7177.71044 1.30915e-17
7179.71344 1.32839e-17
7181.71644 1.33357e-17
7183.70943 1.34568e-17
7185.71243 1.32740e-17
7187.71543 1.32847e-17
7189.70841 1.36387e-17
7191.71141 1.37937e-17
7193.71441 1.39869e-17
7195.71741 1.40967e-17
7197.71040 1.44839e-17
7199.71340 1.44897e-17
7201.71640 1.46807e-17
7203.70938 1.48151e-17
7205.71238 1.50056e-17
7207.71538 1.49782e-17
7209.70837 1.56707e-17
7211.71137 1.59954e-17
7213.71436 1.60732e-17
7215.70735 1.60722e-17
7217.71035 1.59806e-17
7219.71335 1.62015e-17
7221.71635 1.62508e-17
7223.70934 1.64760e-17
7225.71234 1.65603e-17
7227.71534 1.68837e-17
7229.70832 1.72150e-17
7231.71132 1.73178e-17
7233.71432 1.69372e-17
7235.70730 1.68835e-17
7237.71031 1.70655e-17
7239.71331 1.72410e-17
7241.70629 1.69546e-17
7243.70929 1.70019e-17
7245.71229 1.73532e-17
7247.71529 1.72216e-17
7249.70828 1.71179e-17
7251.71128 1.69131e-17
7253.71428 1.69491e-17
7255.70726 1.70217e-17
7257.71026 1.70866e-17
7259.71326 1.71438e-17
7261.70625 1.71590e-17
7263.70925 1.72087e-17
7265.71225 1.72395e-17
7267.70523 1.73145e-17
7269.70823 1.74022e-17
7271.71123 1.72654e-17
7273.71423 1.72148e-17
7275.70722 1.71360e-17
7277.71022 1.68979e-17
7279.71322 1.70588e-17
7281.70620 1.70155e-17
7283.70920 1.70830e-17
7285.71220 1.69711e-17
7287.70519 1.68077e-17
7289.70819 1.64518e-17
7291.71119 1.60355e-17
7293.70417 1.59972e-17
7295.70717 1.59255e-17
7297.71017 1.59699e-17
7299.71317 1.59637e-17
7301.70616 1.58508e-17
7303.70916 1.57306e-17
7305.71216 1.62792e-17
7307.70514 1.62750e-17
7309.70814 1.63081e-17
7311.71114 1.61927e-17
7313.70413 1.61170e-17
7315.70713 1.58611e-17
7317.71013 1.56134e-17
7319.71313 1.53941e-17
7321.70611 1.53342e-17
7323.70911 1.53434e-17
7325.71211 1.52041e-17
7327.70510 1.50935e-17
7329.70809 1.49933e-17
7331.71109 1.48679e-17
7333.70408 1.49685e-17
7335.70708 1.48355e-17
7337.71008 1.50899e-17
7339.70307 1.54827e-17
7341.70607 1.51870e-17
7343.70907 1.49432e-17
7345.71207 1.52048e-17
7347.70505 1.51171e-17
7349.70805 1.49561e-17
7351.71105 1.48388e-17
7353.70403 1.47189e-17
7355.70704 1.47239e-17
7357.71004 1.45639e-17
7359.70302 1.45742e-17
7361.70602 1.44853e-17
7363.70902 1.44709e-17
7365.70201 1.44149e-17
7367.70501 1.44557e-17
7369.70801 1.43878e-17
7371.71101 1.44763e-17
7373.70399 1.46020e-17
7375.70699 1.45505e-17
7377.70999 1.46915e-17
7379.70298 1.44124e-17
7381.70597 1.43340e-17
7383.70898 1.44191e-17
7385.70196 1.43145e-17
7387.70496 1.43077e-17
7389.70796 1.44856e-17
7391.70095 1.42669e-17
7393.70395 1.41252e-17
7395.70695 1.38528e-17
7397.69993 1.37970e-17
7399.70293 1.38178e-17
7401.70593 1.37543e-17
7403.70893 1.37749e-17
7405.70191 1.37069e-17
7407.70492 1.36595e-17
7409.70791 1.36521e-17
7411.70090 1.35909e-17
7413.70390 1.35403e-17
7415.70690 1.35204e-17
7417.69989 1.34202e-17
7419.70289 1.32563e-17
7421.70589 1.33784e-17
7423.69887 1.33003e-17
7425.70187 1.30619e-17
7427.70487 1.29443e-17
7429.70787 1.27927e-17
7431.70086 1.26097e-17
7433.70385 1.25977e-17
7435.70686 1.26768e-17
7437.69984 1.28062e-17
7439.70284 1.25982e-17
7441.70584 1.22298e-17
7443.69883 1.21485e-17
7445.70183 1.20501e-17
7447.70483 1.20273e-17
7449.69781 1.19215e-17
7451.70081 1.18526e-17
7453.70381 1.17202e-17
7455.70681 1.13886e-17
7457.69980 1.12057e-17
7459.70280 1.12800e-17
7461.70579 1.13704e-17
7463.69878 1.14227e-17
7465.70178 1.15927e-17
7467.70478 1.13981e-17
7469.69777 1.12715e-17
7471.70077 1.10758e-17
7473.70377 1.10852e-17
7475.69675 1.08980e-17
7477.69975 1.10122e-17
7479.70275 1.11129e-17
7481.70575 1.09929e-17
7483.69873 1.06889e-17
7485.70174 1.04735e-17
7487.70474 1.04118e-17
7489.69772 1.02543e-17
7491.70072 1.02635e-17
7493.70372 1.03861e-17
7495.69671 1.03205e-17
7497.69971 1.03718e-17
7499.70271 1.03549e-17
7501.70571 1.03665e-17
7503.69869 1.02113e-17
7505.70169 9.91628e-18
7507.70469 9.98385e-18
7509.69768 9.94051e-18
7511.70068 9.63989e-18
7513.70368 9.62170e-18
7515.69666 9.58704e-18
7517.69966 9.44723e-18
7519.70266 9.38720e-18
7521.69565 9.51803e-18
7523.69865 9.44834e-18
7525.70165 9.49749e-18
7527.70465 9.58597e-18
7529.69763 9.60717e-18
7531.70063 9.50921e-18
7533.70363 9.42508e-18
7535.69661 9.44333e-18
7537.69962 9.37528e-18
7539.70262 9.31220e-18
7541.69560 9.33264e-18
7543.69860 9.24357e-18
7545.70160 9.08604e-18
7547.69459 9.04200e-18
7549.69759 9.00531e-18
7551.70059 8.70370e-18
7553.70359 8.93935e-18
7555.69657 8.62815e-18
7557.69957 8.56090e-18
7559.70257 8.62419e-18
7561.69556 8.54338e-18
7563.69855 8.55260e-18
7565.70156 8.73592e-18
7567.69454 8.82449e-18
7569.69754 8.97319e-18
7571.70054 9.01787e-18
7573.69353 8.80907e-18
7575.69653 8.95149e-18
7577.69953 8.99918e-18
7579.70253 9.04818e-18
7581.69551 9.08708e-18
7583.69851 9.03371e-18
7585.70151 8.90936e-18
7587.69450 9.02871e-18
7589.69750 9.03553e-18
7591.70050 9.17019e-18
7593.69348 9.22131e-18
7595.69648 9.03874e-18
7597.69948 9.21524e-18
7599.69247 9.44531e-18
7601.69547 9.30749e-18
7603.69847 8.96525e-18
7605.70147 8.99340e-18
7607.69445 9.17314e-18
7609.69745 8.86651e-18
7611.70045 8.83757e-18
7613.69344 9.05808e-18
7615.69644 9.12543e-18
7617.69944 9.23011e-18
7619.69242 8.98199e-18
7621.69542 8.96861e-18
7623.69842 8.96564e-18
7625.69141 8.96267e-18
7627.69441 8.84731e-18
7629.69741 8.69206e-18
7631.70041 8.93446e-18
7633.69339 8.75489e-18
7635.69639 8.83308e-18
7637.69939 8.84592e-18
7639.69238 8.77216e-18
7641.69538 8.80087e-18
7643.69838 8.67889e-18
7645.69136 8.72685e-18
7647.69436 8.92554e-18
7649.69736 9.16135e-18
7651.69034 8.96206e-18
7653.69334 8.83301e-18
7655.69635 9.17249e-18
7657.69934 9.04012e-18
7659.69233 9.15784e-18
7661.69533 9.25780e-18
7663.69833 9.23389e-18
7665.69132 9.22283e-18
7667.69432 9.25954e-18
7669.69732 9.19006e-18
7671.69030 9.16728e-18
7673.69330 9.14594e-18
7675.69630 9.07208e-18
7677.68929 9.28221e-18
7679.69229 9.49019e-18
7681.69528 9.52732e-18
7683.69829 9.74512e-18
7685.69127 9.67351e-18
7687.69427 9.71508e-18
7689.69727 9.59930e-18
7691.69026 9.74802e-18
7693.69326 9.92662e-18
7695.69626 1.00326e-17
7697.68924 9.99287e-18
7699.69224 1.01723e-17
7701.69524 1.02235e-17
7703.68822 1.02814e-17
7705.69123 1.02005e-17
7707.69423 1.00923e-17
7709.69722 1.01903e-17
7711.69021 1.00506e-17
7713.69321 1.00989e-17
7715.69621 1.01213e-17
7717.68920 1.00267e-17
7719.69220 9.90343e-18
7721.69520 9.85209e-18
7723.68818 9.99929e-18
7725.69118 1.00254e-17
7727.69418 9.89253e-18
7729.68717 1.00056e-17
7731.69016 1.02398e-17
7733.69316 1.02387e-17
7735.69617 1.03828e-17
7737.68915 1.05118e-17
7739.69215 1.06984e-17
7741.69515 1.07353e-17
7743.68814 1.05906e-17
7745.69114 1.07609e-17
7747.69414 1.11649e-17
7749.68712 1.07478e-17
7751.69012 1.01067e-17
7753.69312 1.00593e-17
7755.68610 1.01592e-17
7757.68911 1.03989e-17
7759.69211 1.02995e-17
7761.69510 1.03531e-17
7763.68809 1.04947e-17
7765.69109 1.05083e-17
7767.69409 1.08125e-17
7769.68708 1.07456e-17
7771.69008 1.07462e-17
7773.69308 1.07191e-17
7775.68606 1.07521e-17
7777.68906 1.07169e-17
7779.69206 1.06140e-17
7781.68505 1.05093e-17
7783.68804 1.03962e-17
7785.69105 1.02755e-17
7787.69405 1.01333e-17
7789.68703 1.02107e-17
7791.69003 1.03808e-17
7793.69303 1.03414e-17
7795.68602 1.02529e-17
7797.68902 1.01743e-17
7799.69202 1.02659e-17
7801.68500 1.01069e-17
7803.68800 1.02651e-17
7805.69100 1.04602e-17
7807.68399 1.04854e-17
7809.68699 1.06286e-17
7811.68998 1.06973e-17
7813.69299 1.08839e-17
7815.68597 1.06319e-17
7817.68897 1.03164e-17
7819.69197 1.01752e-17
7821.68496 1.01248e-17
7823.68796 1.00227e-17
7825.69096 1.00045e-17
7827.68394 9.88130e-18
7829.68694 1.02390e-17
7831.68994 1.04166e-17
7833.68293 1.03817e-17
7835.68593 1.05177e-17
7837.68893 1.06518e-17
7839.69193 1.06438e-17
7841.68491 1.06714e-17
7843.68791 1.06705e-17
7845.69091 1.06093e-17
7847.68390 1.03879e-17
7849.68690 1.04536e-17
7851.68990 1.04801e-17
7853.68288 1.03632e-17
7855.68588 1.00219e-17
7857.68888 1.01531e-17
7859.68187 1.01192e-17
7861.68487 1.04206e-17
7863.68786 1.06360e-17
7865.69087 1.05414e-17
7867.68385 1.06380e-17
7869.68685 1.04987e-17
7871.68985 1.06297e-17
7873.68284 1.06356e-17
7875.68584 1.05095e-17
7877.68884 1.04045e-17
7879.68182 1.02505e-17
7881.68482 9.87007e-18
7883.68782 1.01107e-17
7885.68080 9.79643e-18
7887.68381 9.58547e-18
7889.68681 9.53501e-18
7891.68980 9.64099e-18
7893.68279 9.62351e-18
7895.68579 9.35186e-18
7897.68879 9.23252e-18
7899.68178 9.14816e-18
7901.68478 9.21621e-18
7903.68778 9.54847e-18
7905.68076 9.48872e-18
7907.68376 9.41736e-18
7909.68676 9.52874e-18
7911.67975 9.42859e-18
7913.68275 9.75917e-18
7915.68575 9.75263e-18
7917.68875 9.74328e-18
7919.68173 9.51849e-18
7921.68473 9.14117e-18
7923.68773 8.75319e-18
7925.68072 8.81299e-18
7927.68372 8.97463e-18
7929.68672 8.93945e-18
7931.67970 8.72597e-18
7933.68270 8.72021e-18
7935.68570 8.73568e-18
7937.67869 8.88905e-18
7939.68169 9.05458e-18
7941.68469 9.13022e-18
7943.68769 9.18294e-18
7945.68067 9.27766e-18
7947.68367 9.32357e-18
7949.68667 9.20095e-18
7951.67966 9.10043e-18
7953.68266 8.92921e-18
7955.68566 8.86228e-18
7957.67864 8.91387e-18
7959.68164 8.81026e-18
7961.68464 9.09475e-18
7963.67763 8.71556e-18
7965.68063 8.33277e-18
7967.68363 8.42325e-18
7969.68663 8.39922e-18
7971.67961 8.62153e-18
7973.68261 8.77900e-18
7975.68561 8.67635e-18
7977.67860 8.70167e-18
7979.68160 8.56789e-18
7981.68459 8.57275e-18
7983.67758 8.42258e-18
7985.68058 8.50018e-18
7987.68358 8.49543e-18
7989.67657 8.48544e-18
7991.67957 8.51232e-18
7993.68257 8.38968e-18
7995.68557 8.52347e-18
7997.67855 8.42129e-18
7999.68155 8.28613e-18
8001.68455 8.66882e-18
8003.67753 8.69899e-18
8005.68054 8.61853e-18
8007.68354 8.53838e-18
8009.67652 8.35535e-18
8011.67952 8.28039e-18
8013.68252 8.31712e-18
8015.67551 8.33420e-18
8017.67851 8.27091e-18
8019.68151 8.16660e-18
8021.68451 8.06216e-18
8023.67749 7.93922e-18
8025.68049 7.81018e-18
8027.68349 7.62247e-18
8029.67648 7.50847e-18
8031.67947 7.50874e-18
8033.68248 7.58469e-18
8035.67546 7.70272e-18
8037.67846 7.95893e-18
8039.68146 8.02931e-18
8041.67445 7.98406e-18
8043.67745 7.90354e-18
8045.68045 7.75958e-18
8047.68345 7.60559e-18
8049.67643 7.56728e-18
8051.67943 7.62346e-18
8053.68243 7.62267e-18
8055.67541 7.61832e-18
8057.67842 7.59311e-18
8059.68142 7.52975e-18
8061.67440 7.46697e-18
8063.67740 7.44780e-18
8065.68040 7.45175e-18
8067.67339 7.48904e-18
8069.67639 7.62046e-18
8071.67939 7.64727e-18
8073.68239 7.58817e-18
8075.67537 7.46739e-18
8077.67837 7.26713e-18
8079.68137 6.98335e-18
8081.67436 6.85980e-18
8083.67735 6.82944e-18
8085.68036 6.84114e-18
8087.67334 6.90347e-18
8089.67634 7.02173e-18
8091.67934 7.23073e-18
8093.67233 7.50268e-18
8095.67533 7.62066e-18
8097.67833 7.65985e-18
8099.68133 7.62749e-18
8101.67431 7.49275e-18
8103.67731 7.33274e-18
8105.68031 7.15555e-18
8107.67330 6.96361e-18
8109.67630 6.82486e-18
8111.67929 6.74682e-18
8113.67228 6.60746e-18
8115.67528 6.39116e-18
8117.67828 6.24478e-18
8119.67127 6.19551e-18
8121.67427 6.20631e-18
8123.67727 6.25343e-18
8125.68027 6.38086e-18
8127.67325 6.42711e-18
8129.67625 6.41018e-18
8131.67925 6.42505e-18
8133.67224 6.47067e-18
8135.67524 6.53981e-18
8137.67824 6.65041e-18
8139.67122 6.82610e-18
8141.67422 6.85595e-18
8143.67722 6.79009e-18
8145.68022 6.68447e-18
8147.67321 6.49521e-18
8149.67621 6.30515e-18
8151.67921 6.18968e-18
8153.67219 6.11292e-18
8155.67519 6.07097e-18
8157.67819 6.04964e-18
8159.67118 6.09788e-18
8161.67418 6.22551e-18
8163.67718 6.38460e-18
8165.67016 6.56458e-18
8167.67316 6.76988e-18
8169.67616 6.89603e-18
8171.67916 6.99791e-18
8173.67215 7.01606e-18
8175.67515 6.90985e-18
8177.67815 6.82579e-18
8179.67113 6.81421e-18
8181.67413 6.83951e-18
8183.67713 6.89311e-18
8185.67011 7.08391e-18
8187.67312 7.04041e-18
8189.67612 6.84958e-18
8191.66910 6.57811e-18
8193.67210 6.18662e-18
8195.67510 5.74647e-18
8197.67810 5.44547e-18
8199.67108 5.15329e-18
8201.67409 5.11548e-18
8203.67709 5.34975e-18
8205.67007 5.58325e-18
8207.67307 5.87057e-18
8209.67607 6.11987e-18
8211.66906 6.13092e-18
8213.67206 5.94115e-18
8215.67506 5.83537e-18
8217.66804 5.68715e-18
8219.67104 5.60371e-18
8221.67404 5.64539e-18
8223.66703 5.65372e-18
8225.67003 5.46360e-18
8227.67303 5.12921e-18
8229.67603 4.89155e-18
8231.66901 4.57424e-18
8233.67201 4.48015e-18
8235.67501 4.60667e-18
8237.66799 4.82879e-18
8239.67100 5.12066e-18
8241.67400 5.49939e-18
8243.66698 5.63699e-18
8245.66998 5.59231e-18
8247.67298 5.54589e-18
8249.67598 5.44284e-18
8251.66897 5.31306e-18
8253.67196 5.16944e-18
8255.67497 5.00394e-18
8257.66795 4.81829e-18
8259.67095 4.54238e-18
8261.67395 4.41077e-18
8263.66694 4.38574e-18
8265.66994 4.38131e-18
8267.67294 4.37675e-18
8269.66592 4.39253e-18
8271.66892 4.44401e-18
8273.67192 4.54643e-18
8275.67492 4.61288e-18
8277.66791 4.61370e-18
8279.67091 4.71047e-18
8281.67391 4.98506e-18
8283.66689 5.28208e-18
8285.66989 5.38028e-18
8287.67289 5.37417e-18
8289.66588 5.24935e-18
8291.66888 4.89136e-18
8293.67188 4.65796e-18
8295.66486 4.55930e-18
8297.66786 4.50530e-18
8299.67086 4.43898e-18
8301.67386 4.39194e-18
8303.66684 4.31242e-18
8305.66985 4.19523e-18
8307.67284 4.10979e-18
8309.66583 4.01964e-18
8311.66883 3.98410e-18
8313.67183 4.05741e-18
8315.66482 4.21468e-18
8317.66781 4.37000e-18
8319.67081 4.55988e-18
8321.66380 4.76134e-18
8323.66680 4.98682e-18
8325.66980 5.21779e-18
8327.67280 5.46620e-18
8329.66579 5.71782e-18
8331.66879 5.84863e-18
8333.67179 5.88677e-18
8335.66477 5.88791e-18
8337.66777 5.80428e-18
8339.67077 5.72275e-18
8341.66376 5.66605e-18
8343.66676 5.61519e-18
8345.66976 5.56419e-18
8347.66274 5.51558e-18
8349.66574 5.46826e-18
8351.66874 5.38477e-18
8353.67174 5.37231e-18
8355.66473 5.45475e-18
8357.66772 5.59235e-18
8359.67072 5.74531e-18
8361.66371 5.95538e-18
8363.66671 6.09416e-18
8365.66971 6.16640e-18
8367.66269 6.27791e-18
8369.66569 6.46283e-18
8371.66870 6.63509e-18
8373.66168 6.70425e-18
8375.66468 6.70940e-18
8377.66768 6.65736e-18
8379.67068 6.51880e-18
8381.66367 6.37789e-18
8383.66667 6.17184e-18
8385.66967 6.01729e-18
8387.66265 6.00545e-18
8389.66565 6.08926e-18
8391.66865 6.30550e-18
8393.66164 6.75359e-18
8395.66464 7.07399e-18
8397.66763 7.34569e-18
8399.66062 7.56046e-18
8401.66362 7.72505e-18
8403.66662 7.83191e-18
8405.66962 7.76517e-18
8407.66260 7.44814e-18
8409.66561 7.27298e-18
8411.66861 7.11854e-18
8413.66159 7.02764e-18
8415.66459 7.03668e-18
8417.66759 7.10542e-18
8419.66057 7.12463e-18
8421.66358 7.15474e-18
8423.66657 7.12423e-18
8425.65956 7.04916e-18
8427.66256 6.94496e-18
8429.66556 6.77191e-18
8431.66856 6.59924e-18
8433.66155 6.57793e-18
8435.66455 6.64889e-18
8437.66755 6.80612e-18
8439.66053 7.13276e-18
8441.66353 7.38961e-18
8443.66653 7.53665e-18
8445.65952 7.67698e-18
8447.66251 7.91521e-18
8449.66552 8.21204e-18
8451.65850 8.52800e-18
8453.66150 8.95608e-18
8455.66450 9.25069e-18
8457.66750 9.38773e-18
8459.66049 9.49113e-18
8461.66349 9.66161e-18
8463.66648 9.85804e-18
8465.65947 9.98892e-18
8467.66247 1.00354e-17
8469.66547 1.01551e-17
8471.65846 1.03552e-17
8473.66145 1.05431e-17
8475.66446 1.06685e-17
8477.65744 1.07593e-17
8479.66044 1.08299e-17
8481.66344 1.08551e-17
8483.66644 1.09011e-17
8485.65943 1.09725e-17
8487.66243 1.10134e-17
8489.66543 1.09808e-17
8491.65841 1.09168e-17
8493.66141 1.09501e-17
8495.66441 1.10470e-17
8497.65740 1.11581e-17
8499.66040 1.13014e-17
8501.66340 1.14676e-17
8503.65638 1.16534e-17
8505.65938 1.18635e-17
8507.66238 1.21057e-17
8509.66538 1.23782e-17
8511.65837 1.26752e-17
8513.66136 1.30153e-17
8515.66437 1.33497e-17
8517.65735 1.36996e-17
8519.66035 1.40261e-17
8521.66335 1.42536e-17
8523.65633 1.43885e-17
8525.65934 1.45829e-17
8527.66233 1.48225e-17
8529.65532 1.50037e-17
8531.65832 1.51217e-17
8533.66132 1.52115e-17
8535.66432 1.52903e-17
8537.65731 1.53414e-17
8539.66031 1.54565e-17
8541.66331 1.55750e-17
8543.65629 1.57914e-17
8545.65929 1.61427e-17
8547.66229 1.64997e-17
8549.65528 1.67737e-17
8551.65828 1.70105e-17
8553.66128 1.72882e-17
8555.65426 1.74810e-17
8557.65726 1.79102e-17
8559.66026 1.86098e-17
8561.65324 1.92935e-17
8563.65625 1.98523e-17
8565.65925 2.03560e-17
8567.66224 2.08119e-17
8569.65523 2.12246e-17
8571.65823 2.15701e-17
8573.66123 2.18058e-17
8575.65422 2.20672e-17
8577.65721 2.23906e-17
8579.66021 2.27385e-17
8581.65320 2.30828e-17
8583.65620 2.35054e-17
8585.65920 2.37173e-17
8587.65219 2.37683e-17
8589.65519 2.37696e-17
8591.65819 2.36845e-17
8593.66119 2.35812e-17
8595.65417 2.36020e-17
8597.65717 2.36983e-17
8599.66017 2.38134e-17
8601.65316 2.39832e-17
8603.65616 2.41537e-17
8605.65916 2.43736e-17
8607.65214 2.45487e-17
8609.65514 2.45535e-17
8611.65814 2.44190e-17
8613.65113 2.43705e-17
8615.65413 2.43164e-17
8617.65712 2.43112e-17
8619.66013 2.43600e-17
8621.65311 2.44301e-17
8623.65611 2.44873e-17
8625.65911 2.45449e-17
8627.65209 2.47158e-17
8629.65510 2.50047e-17
8631.65810 2.52710e-17
8633.65108 2.55766e-17
8635.65408 2.58445e-17
8637.65708 2.60461e-17
8639.65006 2.61964e-17
8641.65307 2.62518e-17
8643.65606 2.60993e-17
8645.65906 2.61698e-17
8647.65205 2.65201e-17
8649.65505 2.66721e-17
8651.65805 2.64047e-17
8653.65104 2.59587e-17
8655.65404 2.58085e-17
8657.65704 2.58968e-17
8659.65002 2.57512e-17
8661.65302 2.54515e-17
8663.65602 2.51775e-17
8665.65902 2.49416e-17
8667.65200 2.47282e-17
8669.65501 2.45644e-17
8671.65801 2.44759e-17
8673.65099 2.42799e-17
8675.65399 2.40197e-17
8677.65699 2.37371e-17
8679.64998 2.34358e-17
8681.65298 2.31026e-17
8683.65597 2.27056e-17
8685.64896 2.22172e-17
8687.65196 2.19477e-17
8689.65496 2.18405e-17
8691.65796 2.17582e-17
8693.65094 2.17237e-17
8695.65395 2.17293e-17
8697.65694 2.17413e-17
8699.64993 2.17653e-17
8701.65293 2.19909e-17
8703.65593 2.25051e-17
8705.64892 2.28227e-17
8707.65192 2.30415e-17
8709.65492 2.31706e-17
8711.64790 2.31686e-17
8713.65090 2.30667e-17
8715.65390 2.31092e-17
8717.65690 2.33041e-17
8719.64989 2.33370e-17
8721.65289 2.32366e-17
8723.65589 2.31493e-17
8725.64887 2.31408e-17
8727.65187 2.31492e-17
8729.65487 2.30566e-17
8731.64786 2.28793e-17
8733.65085 2.27194e-17
8735.65386 2.25491e-17
8737.64684 2.23602e-17
8739.64984 2.21295e-17
8741.65284 2.18956e-17
8743.65584 2.17434e-17
8745.64883 2.16730e-17
8747.65182 2.15282e-17
8749.65482 2.12493e-17
8751.64781 2.11537e-17
8753.65081 2.12908e-17
8755.65381 2.15321e-17
8757.64680 2.17744e-17
8759.64980 2.21140e-17
8761.65280 2.22098e-17
8763.64578 2.20855e-17
8765.64878 2.20052e-17
8767.65178 2.19797e-17
8769.65478 2.19115e-17
8771.64777 2.17151e-17
8773.65077 2.14169e-17
8775.65377 2.12003e-17
8777.64675 2.10558e-17
8779.64975 2.08186e-17
8781.65275 2.04203e-17
8783.64574 2.01056e-17
8785.64874 2.00628e-17
8787.65173 2.01861e-17
8789.64472 2.00808e-17
8791.64772 1.98889e-17
8793.65072 1.95993e-17
8795.65372 1.92330e-17
8797.64670 1.87431e-17
8799.64970 1.80004e-17
8801.65271 1.71514e-17
8803.64569 1.67955e-17
8805.64869 1.68052e-17
8807.65169 1.68531e-17
8809.64468 1.71193e-17
8811.64768 1.73743e-17
8813.65068 1.76299e-17
8815.64366 1.78418e-17
8817.64666 1.77898e-17
8819.64966 1.74104e-17
8821.65266 1.73484e-17
8823.64565 1.74975e-17
8825.64865 1.75895e-17
8827.65164 1.76733e-17
8829.64463 1.76664e-17
8831.64763 1.73556e-17
8833.65063 1.67119e-17
8835.64362 1.64364e-17
8837.64661 1.63864e-17
8839.64962 1.63160e-17
8841.64260 1.62730e-17
8843.64560 1.62089e-17
8845.64860 1.60432e-17
8847.65160 1.57998e-17
8849.64459 1.56158e-17
8851.64759 1.55426e-17
8853.65058 1.52755e-17
8855.64357 1.47980e-17
8857.64657 1.42784e-17
8859.64957 1.38225e-17
8861.64256 1.33757e-17
8863.64556 1.28684e-17
8865.64856 1.21594e-17
8867.65156 1.17876e-17
8869.64454 1.17184e-17
8871.64754 1.17103e-17
8873.65054 1.16858e-17
8875.64353 1.16885e-17
8877.64653 1.16498e-17
8879.64953 1.14977e-17
8881.64251 1.15583e-17
8883.64551 1.18632e-17
8885.64851 1.20664e-17
8887.64149 1.20991e-17
8889.64450 1.20186e-17
8891.64750 1.17961e-17
8893.65049 1.13166e-17
8895.64348 1.10910e-17
8897.64648 1.10017e-17
8899.64948 1.09383e-17
8901.64247 1.09368e-17
8903.64546 1.09303e-17
8905.64847 1.07710e-17
8907.64145 1.04804e-17
8909.64445 1.02701e-17
8911.64745 1.00594e-17
8913.64044 9.88991e-18
8915.64344 9.76549e-18
8917.64644 9.67035e-18
8919.64944 9.59868e-18
8921.64242 9.56381e-18
8923.64542 9.47434e-18
8925.64842 9.36696e-18
8927.64141 9.22113e-18
8929.64441 9.03002e-18
8931.64741 8.81736e-18
8933.64039 8.59597e-18
8935.64339 8.35819e-18
8937.64639 8.13324e-18
8939.63938 7.87842e-18
8941.64238 7.69925e-18
8943.64538 7.57665e-18
8945.64838 7.49932e-18
8947.64136 7.47577e-18
8949.64436 7.49687e-18
8951.64736 7.48718e-18
8953.64034 7.47306e-18
8955.64335 7.45678e-18
8957.64634 7.42412e-18
8959.63933 7.41153e-18
8961.64233 7.43683e-18
8963.64533 7.48048e-18
8965.63832 7.50313e-18
8967.64131 7.51814e-18
8969.64431 7.53161e-18
8971.64732 7.53504e-18
8973.64030 7.54697e-18
8975.64330 7.56333e-18
8977.64630 7.59201e-18
8979.63929 7.65831e-18
8981.64229 7.77899e-18
8983.64529 7.82097e-18
8985.63827 7.83929e-18
8987.64127 7.79457e-18
8989.64427 7.62997e-18
8991.63726 7.46820e-18
8993.64026 7.45748e-18
8995.64326 7.53874e-18
8997.64626 7.66673e-18
8999.63924 7.96464e-18
9001.64224 8.09772e-18
9003.64524 8.06168e-18
9005.63823 7.97480e-18
9007.64122 7.89210e-18
9009.64423 7.77493e-18
9011.63721 7.82225e-18
9013.64021 8.14451e-18
9015.64321 8.17225e-18
9017.63619 7.94963e-18
9019.63919 7.66092e-18
9021.64220 7.36138e-18
9023.63518 7.02491e-18
9025.63818 6.83373e-18
9027.64118 6.73457e-18
9029.64418 6.68928e-18
9031.63717 6.70209e-18
9033.64017 6.78814e-18
9035.64317 7.01618e-18
9037.63615 7.29894e-18
9039.63915 7.31493e-18
9041.64215 7.06026e-18
9043.63514 6.98629e-18
9045.63814 6.96248e-18
9047.64113 6.97504e-18
9049.63412 7.03375e-18
9051.63712 7.12077e-18
9053.64012 7.19450e-18
9055.64312 7.28072e-18
9057.63610 7.33740e-18
9059.63911 7.33229e-18
9061.64211 7.39789e-18
9063.63509 7.59246e-18
9065.63809 7.78807e-18
9067.64109 7.82578e-18
9069.63407 7.76216e-18
9071.63708 7.67398e-18
9073.64007 7.46060e-18
9075.63306 7.35397e-18
9077.63606 7.36136e-18
9079.63906 7.40283e-18
9081.64206 7.40431e-18
9083.63505 7.38525e-18
9085.63805 7.39060e-18
9087.64105 7.39596e-18
9089.63403 7.40126e-18
9091.63703 7.40643e-18
9093.64003 7.41178e-18
9095.63302 7.41707e-18
9097.63602 7.42236e-18
9099.63902 7.41898e-18
9101.63200 7.60960e-18
9103.63500 7.55393e-18
9105.63800 7.41011e-18
9107.64100 7.29946e-18
9109.63399 7.26372e-18
9111.63699 7.27215e-18
9113.63998 7.29651e-18
9115.63297 7.41294e-18
9117.63597 7.39345e-18
9119.63897 7.18212e-18
9121.63196 7.12062e-18
9123.63495 7.38533e-18
9125.63796 7.73041e-18
9127.63094 7.67659e-18
9129.63394 7.24745e-18
9131.63694 7.14346e-18
9133.63994 7.21068e-18
9135.63293 7.27040e-18
9137.63593 7.30902e-18
9139.63893 7.36006e-18
9141.63191 7.44443e-18
9143.63491 7.56508e-18
9145.63791 7.65368e-18
9147.63090 7.76344e-18
9149.63390 7.79953e-18
9151.63690 7.73281e-18
9153.62988 7.64845e-18
9155.63288 7.62201e-18
9157.63588 7.61801e-18
9159.63888 7.64241e-18
9161.63187 7.69645e-18
9163.63486 7.76974e-18
9165.63787 7.90106e-18
9167.63085 8.00194e-18
9169.63385 8.01029e-18
9171.63685 7.95784e-18
9173.62983 7.88351e-18
9175.63284 7.70504e-18
9177.63583 7.64670e-18
9179.62882 7.69372e-18
9181.63182 7.74751e-18
9183.63482 7.77412e-18
9185.63782 7.79348e-18
9187.63081 7.78727e-18
9189.63381 7.73723e-18
9191.63681 7.72721e-18
9193.62979 7.73538e-18
9195.63279 7.75474e-18
9197.63579 7.80594e-18
9199.62878 7.85670e-18
9201.63178 7.80790e-18
9203.63478 7.64932e-18
9205.62776 7.57563e-18
9207.63076 7.52511e-18
9209.63376 7.50446e-18
9211.63676 7.53765e-18
9213.62975 7.58024e-18
9215.63275 7.54128e-18
9217.63574 7.39188e-18
9219.62873 7.48370e-18
9221.63173 7.78998e-18
9223.63473 8.05766e-18
9225.62772 8.32804e-18
9227.63071 8.55803e-18
9229.63371 8.67784e-18
9231.62670 8.72600e-18
9233.62970 8.64432e-18
9235.63270 8.34291e-18
9237.63570 8.16145e-18
9239.62869 8.07610e-18
9241.63169 8.01779e-18
9243.63469 7.95665e-18
9245.62767 7.90945e-18
9247.63067 7.83136e-18
9249.63367 7.72833e-18
9251.62666 7.63070e-18
9253.62966 7.50795e-18
9255.63266 7.42041e-18
9257.62564 7.41494e-18
9259.62864 7.45771e-18
9261.63164 7.43013e-18
9263.63464 7.33522e-18
9265.62763 7.30469e-18
9267.63062 7.33007e-18
9269.63363 7.33597e-18
9271.62661 7.31147e-18
9273.62961 7.26012e-18
9275.63261 7.14238e-18
9277.62559 6.92875e-18
9279.62860 6.78847e-18
9281.63160 6.67664e-18
9283.63459 6.57537e-18
9285.62758 6.47183e-18
9287.63058 6.38807e-18
9289.63358 6.36150e-18
9291.62657 6.37632e-18
9293.62956 6.43512e-18
9295.63256 6.57020e-18
9297.62555 6.68335e-18
9299.62855 6.78132e-18
9301.63155 6.86277e-18
9303.62454 6.91087e-18
9305.62754 6.92722e-18
9307.63054 6.95376e-18
9309.63354 6.94008e-18
9311.62652 6.99966e-18
9313.62952 7.16265e-18
9315.63252 7.32385e-18
9317.62550 7.41523e-18
9319.62851 7.47584e-18
9321.63151 7.40990e-18
9323.62449 7.16012e-18
9325.62749 7.01363e-18
9327.63049 6.91276e-18
9329.62348 6.85408e-18
9331.62648 6.86932e-18
9333.62947 6.93564e-18
9335.63248 6.86640e-18
9337.62546 6.69684e-18
9339.62846 6.52962e-18
9341.63146 6.20468e-18
9343.62444 6.07392e-18
9345.62745 6.33581e-18
9347.63044 6.79516e-18
9349.62343 7.00077e-18
9351.62643 7.24156e-18
9353.62943 7.08196e-18
9355.62242 6.31358e-18
9357.62542 5.88426e-18
9359.62842 6.08163e-18
9361.63142 6.49615e-18
9363.62440 6.56597e-18
9365.62740 6.53033e-18
9367.63040 6.31619e-18
9369.62339 5.71567e-18
9371.62639 5.40408e-18
9373.62939 5.47870e-18
9375.62237 5.68999e-18
9377.62537 5.81605e-18
9379.62837 5.99117e-18
9381.62136 5.96338e-18
9383.62435 5.65556e-18
9385.62736 5.55081e-18
9387.63036 5.60151e-18
9389.62334 5.78375e-18
9391.62634 6.16460e-18
9393.62934 6.75942e-18
9395.62233 6.99117e-18
9397.62532 7.00659e-18
9399.62832 6.95383e-18
9401.62131 6.77318e-18
9403.62431 6.54192e-18
9405.62731 6.26255e-18
9407.62030 5.93473e-18
9409.62330 5.89765e-18
9411.62630 6.11735e-18
9413.62930 6.31500e-18
9415.62228 6.61795e-18
9417.62528 6.87543e-18
9419.62828 7.08474e-18
9421.62127 7.22140e-18
9423.62427 7.00347e-18
9425.62727 6.28656e-18
9427.62025 5.92824e-18
9429.62325 5.58721e-18
9431.62625 5.50128e-18
9433.61924 5.84689e-18
9435.62224 6.36854e-18
9437.62523 6.52746e-18
9439.62824 6.48693e-18
9441.62122 6.44677e-18
9443.62422 6.25994e-18
9445.62722 6.17439e-18
9447.62020 6.27883e-18
9449.62320 6.39357e-18
9451.62621 6.27827e-18
9453.61919 5.99844e-18
9455.62219 5.75880e-18
9457.62519 5.39983e-18
9459.61818 5.20627e-18
9461.62118 5.19335e-18
9463.62418 5.26484e-18
9465.62718 5.34491e-18
9467.62016 5.46343e-18
9469.62316 5.66800e-18
9471.62616 6.17533e-18
9473.61915 6.25552e-18
9475.62215 5.83816e-18
9477.62514 5.39265e-18
9479.61813 5.19179e-18
9481.62113 5.09251e-18
9483.62413 5.14782e-18
9485.61712 5.41299e-18
9487.62011 5.64779e-18
9489.62312 6.01782e-18
9491.62612 6.24321e-18
9493.61910 6.16106e-18
9495.62210 5.89308e-18
9497.62510 5.71620e-18
9499.61809 5.45180e-18
9501.62109 5.36295e-18
9503.62408 5.41123e-18
9505.61707 5.49370e-18
9507.62007 5.57702e-18
9509.62307 5.69650e-18
9511.62607 5.91711e-18
9513.61906 6.44574e-18
9515.62206 6.35521e-18
9517.62506 5.63660e-18
9519.61804 5.12512e-18
9521.62104 4.91832e-18
9523.62404 4.84170e-18
9525.61703 4.78924e-18
9527.62003 4.79983e-18
9529.62303 4.89709e-18
9531.61601 5.07153e-18
9533.61901 5.32876e-18
9535.62201 5.78104e-18
9537.61499 6.18976e-18
9539.61800 6.26323e-18
9541.62100 6.09168e-18
9543.62399 6.01076e-18
9545.61698 5.91887e-18
9547.61998 5.78993e-18
9549.62298 5.59794e-18
9551.61597 5.41313e-18
9553.61896 5.29732e-18
9555.62197 5.22387e-18
9557.61495 5.08772e-18
9559.61795 4.91903e-18
9561.62095 4.73650e-18
9563.61394 4.38925e-18
9565.61694 4.24715e-18
9567.61994 4.57207e-18
9569.62294 5.18146e-18
9571.61592 5.49766e-18
9573.61892 5.77856e-18
9575.62192 5.85442e-18
9577.61491 5.69718e-18
9579.61791 5.50845e-18
9581.62091 5.30935e-18
9583.61389 5.10324e-18
9585.61689 5.04003e-18
9587.61989 5.15087e-18
9589.61288 5.10288e-18
9591.61588 4.94712e-18
9593.61888 4.82368e-18
9595.62188 4.71586e-18
9597.61486 4.65974e-18
9599.61786 4.78826e-18
9601.62086 5.16303e-18
9603.61384 5.22462e-18
9605.61685 5.06648e-18
9607.61984 4.93016e-18
9609.61283 4.75721e-18
9611.61583 4.63780e-18
9613.61883 4.73966e-18
9615.61182 5.03730e-18
9617.61481 5.18699e-18
9619.61781 5.34647e-18
9621.62082 5.37381e-18
9623.61380 5.21112e-18
9625.61680 5.03532e-18
9627.61980 4.98702e-18
9629.61279 5.00073e-18
9631.61579 5.03030e-18
9633.61879 5.17215e-18
9635.61177 5.16791e-18
9637.61477 5.02370e-18
9639.61777 4.85527e-18
9641.61076 4.68844e-18
9643.61376 4.51341e-18
9645.61676 4.52754e-18
9647.61975 4.69539e-18
9649.61274 4.90256e-18
9651.61574 5.30877e-18
9653.61874 5.57108e-18
9655.61173 5.52954e-18
9657.61472 5.32892e-18
9659.61773 5.24124e-18
9661.61071 5.19419e-18
9663.61371 5.08354e-18
9665.61671 4.89550e-18
9667.60969 4.75580e-18
9669.61269 4.65889e-18
9671.61570 4.62465e-18
9673.60868 4.75900e-18
9675.61168 5.13747e-18
9677.61468 5.22980e-18
9679.61768 5.08528e-18
9681.61067 5.04068e-18
9683.61367 5.15186e-18
9685.61667 5.28192e-18
9687.60965 5.28011e-18
9689.61265 5.17382e-18
9691.61565 5.19825e-18
9693.60864 5.30016e-18
9695.61164 5.41116e-18
9697.61463 5.64196e-18
9699.61764 5.76409e-18
9701.61062 5.47874e-18
9703.61362 4.84991e-18
9705.61662 4.79799e-18
9707.60960 5.21566e-18
9709.61261 5.46717e-18
9711.61561 5.71545e-18
9713.60859 5.85473e-18
9715.61159 5.75646e-18
9717.61459 5.49038e-18
9719.60757 5.42139e-18
9721.61058 5.48014e-18
9723.61357 5.47577e-18
9725.61658 5.44837e-18
9727.60956 5.41684e-18
9729.61256 5.38008e-18
9731.61556 5.34200e-18
9733.60855 5.33717e-18
9735.61155 5.35340e-18
9737.61455 5.38882e-18
9739.60753 5.46521e-18
9741.61053 5.52408e-18
9743.61353 5.56072e-18
9745.60652 5.57579e-18
9747.60952 5.54910e-18
9749.61252 5.52429e-18
9751.61552 5.35066e-18
9753.60850 4.93216e-18
9755.61150 4.68066e-18
9757.61450 4.62925e-18
9759.60749 4.70106e-18
9761.61049 4.87825e-18
9763.61348 5.23721e-18
9765.60647 5.38321e-18
9767.60947 5.36344e-18
9769.61247 5.41505e-18
9771.60546 5.57349e-18
9773.60845 5.71080e-18
9775.61146 5.70286e-18
9777.61445 5.58769e-18
9779.60744 5.54810e-18
9781.61044 5.51832e-18
9783.61344 5.51485e-18
9785.60643 5.49467e-18
9787.60943 5.55335e-18
9789.61243 5.84595e-18
9791.60541 6.30822e-18
9793.60841 6.19836e-18
9795.61141 5.43469e-18
9797.60440 5.11635e-18
9799.60740 5.05118e-18
9801.61040 5.07387e-18
9803.61340 5.13015e-18
9805.60638 5.25308e-18
9807.60938 5.43613e-18
9809.61238 5.82648e-18
9811.60537 5.93702e-18
9813.60837 5.83502e-18
9815.61137 5.71926e-18
9817.60435 5.63168e-18
9819.60735 5.53845e-18
9821.61035 5.44656e-18
9823.60333 5.32063e-18
9825.60634 5.29067e-18
9827.60933 5.31978e-18
9829.61233 5.40007e-18
9831.60532 5.56315e-18
9833.60832 5.75068e-18
9835.61132 5.86407e-18
9837.60431 5.96692e-18
9839.60731 5.93862e-18
9841.61031 5.74260e-18
9843.60329 5.60194e-18
9845.60629 5.54203e-18
9847.60929 5.47216e-18
9849.60228 5.28988e-18
9851.60528 5.00168e-18
9853.60828 4.92739e-18
9855.61128 5.06323e-18
9857.60426 5.09511e-18
9859.60726 5.00518e-18
9861.61026 4.94745e-18
9863.60325 5.01684e-18
9865.60625 5.16423e-18
9867.60924 5.42392e-18
9869.60223 6.01490e-18
9871.60523 6.19366e-18
9873.60823 5.98677e-18
9875.60122 5.73638e-18
9877.60421 5.56145e-18
9879.60721 5.40006e-18
9881.61022 5.43167e-18
9883.60320 5.76667e-18
9885.60620 5.82244e-18
9887.60920 5.68381e-18
9889.60219 5.55256e-18
9891.60519 5.49823e-18
9893.60819 5.45704e-18
9895.60117 5.34770e-18
9897.60417 5.17840e-18
9899.60717 5.03416e-18
9901.61017 4.84897e-18
9903.60316 4.73672e-18
9905.60616 4.73742e-18
9907.60916 4.78643e-18
9909.60214 4.78980e-18
9911.60514 4.78611e-18
9913.60814 4.77182e-18
9915.60113 4.72030e-18
9917.60412 4.71350e-18
9919.60713 4.78193e-18
9921.60011 4.85324e-18
9923.60311 4.84616e-18
9925.60611 4.79401e-18
9927.60911 4.71204e-18
9929.60210 4.53482e-18
9931.60510 4.44851e-18
9933.60809 4.41152e-18
9935.60108 4.46093e-18
9937.60408 4.65166e-18
9939.60708 4.96569e-18
9941.60007 5.26939e-18
9943.60306 5.77855e-18
9945.60606 5.94833e-18
9947.59905 5.74050e-18
9949.60205 5.52288e-18
9951.60505 5.52538e-18
9953.60805 5.61197e-18
9955.60104 5.45177e-18
9957.60404 4.96252e-18
9959.60704 4.80282e-18
9961.60002 4.88543e-18
9963.60302 4.98676e-18
9965.60602 5.06260e-18
9967.59901 5.13141e-18
9969.60201 5.07780e-18
9971.60501 4.84422e-18
9973.59799 4.79097e-18
9975.60099 4.86171e-18
9977.60399 4.91268e-18
9979.60699 4.90759e-18
9981.59998 4.89443e-18
9983.60297 4.91995e-18
9985.60598 4.90487e-18
9987.59896 5.12106e-18
9989.60196 5.76316e-18
9991.60496 6.01649e-18
9993.59794 5.68866e-18
9995.60095 5.22027e-18
9997.60394 5.11011e-18
9999.59693 5.17712e-18
