# wavelength flux
3259.87248 3.04441e-18
3261.86547 2.53060e-18
3263.86847 3.02373e-18
3265.87147 3.07730e-18
3267.87447 2.58808e-18
3269.86746 2.69220e-18
3271.87045 2.84721e-18
3273.87345 3.16121e-18
3275.86644 3.20753e-18
3277.86944 3.36608e-18
3279.87244 3.29673e-18
3281.86542 3.17649e-18
3283.86843 2.76712e-18
3285.87142 3.10466e-18
3287.86441 3.06031e-18
3289.86741 2.73389e-18
3291.87041 3.00766e-18
3293.87341 2.83741e-18
3295.86640 3.07738e-18
3297.86940 2.84602e-18
3299.87239 3.15498e-18
3301.86538 3.26656e-18
3303.86838 3.70825e-18
3305.87138 3.91293e-18
3307.86436 3.49757e-18
3309.86737 2.90119e-18
3311.87037 3.39955e-18
3313.86335 3.42900e-18
3315.86635 3.71301e-18
3317.86935 3.50479e-18
3319.87235 3.48264e-18
3321.86533 3.76554e-18
3323.86834 3.39707e-18
3325.87134 3.24939e-18
3327.86432 3.38134e-18
3329.86732 3.56066e-18
3331.87032 3.21143e-18
3333.86330 3.44764e-18
3335.86631 3.35637e-18
3337.86931 3.32385e-18
3339.86229 3.38109e-18
3341.86529 3.54764e-18
3343.86829 3.31746e-18
3345.87129 3.61174e-18
3347.86427 3.55260e-18
3349.86728 3.83554e-18
3351.87028 3.77955e-18
3353.86326 3.37955e-18
3355.86626 3.55273e-18
3357.86926 3.73108e-18
3359.86225 3.62956e-18
3361.86524 3.57296e-18
3363.86825 3.67111e-18
3365.86123 3.70855e-18
3367.86423 3.78230e-18
3369.86723 3.72143e-18
3371.87023 3.73511e-18
3373.86322 3.81407e-18
3375.86622 3.75368e-18
3377.86922 4.22775e-18
3379.86220 4.09847e-18
3381.86520 4.26510e-18
3383.86820 4.23963e-18
3385.86119 4.61823e-18
3387.86419 4.56797e-18
3389.86719 4.51473e-18
3391.86017 4.48408e-18
3393.86317 4.79579e-18
3395.86617 4.55388e-18
3397.86917 4.70967e-18
3399.86216 5.00053e-18
3401.86515 4.92415e-18
3403.86816 5.15247e-18
3405.86114 5.38116e-18
3407.86414 5.37444e-18
3409.86714 5.84494e-18
3411.86013 5.58146e-18
3413.86313 5.82146e-18
3415.86613 5.83180e-18
3417.85911 6.06403e-18
3419.86211 6.17249e-18
3421.86511 6.01354e-18
3423.86811 6.07554e-18
3425.86110 6.44853e-18
3427.86410 6.57286e-18
3429.86710 6.88969e-18
3431.86008 6.88999e-18
3433.86308 6.87676e-18
3435.86608 7.05420e-18
3437.85907 7.41307e-18
3439.86207 7.25682e-18
3441.86507 7.25114e-18
3443.85805 7.42183e-18
3445.86105 7.69725e-18
3447.86405 7.74675e-18
3449.86705 7.95396e-18
3451.86004 8.09308e-18
3453.86304 7.84321e-18
3455.86604 7.94990e-18
3457.85902 8.43610e-18
3459.86202 8.21155e-18
3461.86502 8.75265e-18
3463.85801 8.52056e-18
3465.86101 8.82254e-18
3467.86401 8.77184e-18
3469.85699 8.97166e-18
3471.85999 9.12870e-18
3473.86299 9.11457e-18
3475.86599 8.91186e-18
3477.85898 8.80253e-18
3479.86198 9.02064e-18
3481.86498 9.07817e-18
3483.85796 9.03966e-18
3485.86096 9.06144e-18
3487.86396 9.18288e-18
3489.85695 8.85945e-18
3491.85995 9.24495e-18
3493.86295 9.10891e-18
3495.85593 9.35624e-18
3497.85893 9.19212e-18
3499.86193 9.19786e-18
3501.86493 9.04186e-18
3503.85792 9.17537e-18
3505.86092 9.63901e-18
3507.86392 9.51727e-18
3509.85690 9.39416e-18
3511.85990 9.67054e-18
3513.86290 9.72789e-18
3515.85589 9.59848e-18
3517.85889 9.76661e-18
3519.86189 1.00440e-17
3521.85487 1.01661e-17
3523.85787 1.00546e-17
3525.86087 1.01322e-17
3527.86387 1.04155e-17
3529.85686 1.00526e-17
3531.85986 1.00729e-17
3533.86286 9.97604e-18
3535.85584 9.91754e-18
3537.85884 9.83078e-18
3539.86184 1.00948e-17
3541.85483 1.01792e-17
3543.85783 1.01832e-17
3545.86083 1.01180e-17
3547.85381 1.02983e-17
3549.85681 1.06041e-17
3551.85981 1.07441e-17
3553.86281 1.02614e-17
3555.85580 1.05757e-17
3557.85880 1.05636e-17
3559.86180 1.06803e-17
3561.85478 1.07364e-17
3563.85778 1.08713e-17
3565.86078 1.06302e-17
3567.85377 1.09163e-17
3569.85677 1.10311e-17
3571.85977 1.10683e-17
3573.85275 1.11530e-17
3575.85575 1.11238e-17
3577.85875 1.14960e-17
3579.86175 1.13324e-17
3581.85473 1.16126e-17
3583.85774 1.18582e-17
3585.86074 1.14562e-17
3587.85372 1.15369e-17
3589.85672 1.16548e-17
3591.85972 1.16704e-17
3593.85270 1.18969e-17
3595.85570 1.21019e-17
3597.85871 1.23427e-17
3599.85169 1.23500e-17
3601.85469 1.21353e-17
3603.85769 1.22500e-17
3605.86069 1.25002e-17
3607.85367 1.26687e-17
3609.85667 1.23040e-17
3611.85968 1.28597e-17
3613.85266 1.26346e-17
3615.85566 1.30166e-17
3617.85866 1.28706e-17
3619.85165 1.30354e-17
3621.85464 1.29971e-17
3623.85765 1.29679e-17
3625.85063 1.29534e-17
3627.85363 1.27704e-17
3629.85663 1.25681e-17
3631.85963 1.22543e-17
3633.85262 1.22819e-17
3635.85561 1.22586e-17
3637.85862 1.18975e-17
3639.85160 1.17994e-17
3641.85460 1.18976e-17
3643.85760 1.17833e-17
3645.85059 1.14635e-17
3647.85359 1.09503e-17
3649.85658 1.09748e-17
3651.84957 1.05352e-17
3653.85257 1.06003e-17
3655.85557 1.05865e-17
3657.85857 1.05743e-17
3659.85156 1.04665e-17
3661.85455 1.03941e-17
3663.85756 1.02756e-17
3665.85054 1.02156e-17
3667.85354 1.00137e-17
3669.85654 1.04489e-17
3671.84953 9.94305e-18
3673.85253 1.00190e-17
3675.85552 1.00541e-17
3677.84851 9.76751e-18
3679.85151 1.00114e-17
3681.85451 9.76618e-18
3683.85751 9.46980e-18
3685.85050 9.52621e-18
3687.85350 9.10319e-18
3689.85649 9.07085e-18
3691.84948 8.67380e-18
3693.85248 8.72206e-18
3695.85548 8.68900e-18
3697.84847 8.37999e-18
3699.85147 8.33063e-18
3701.85447 8.22433e-18
3703.84745 8.30414e-18
3705.85045 8.20875e-18
3707.85345 8.05872e-18
3709.85645 8.05124e-18
3711.84944 7.99542e-18
3713.85244 7.96131e-18
3715.85544 7.92722e-18
3717.84842 7.89815e-18
3719.85142 7.86908e-18
3721.85442 7.84003e-18
3723.84740 7.81097e-18
3725.85041 7.78193e-18
3727.85341 7.75289e-18
3729.84639 7.72386e-18
3731.84939 7.69483e-18
3733.85239 7.66581e-18
3735.85539 7.63679e-18
3737.84838 7.60779e-18
3739.85138 7.57878e-18
3741.85438 7.54978e-18
3743.84736 7.52079e-18
3745.85036 7.49180e-18
3747.85336 7.46282e-18
3749.84635 7.43385e-18
3751.84935 7.40488e-18
3753.85235 7.37591e-18
3755.84533 7.40003e-18
3757.84833 7.25301e-18
3759.85133 7.18673e-18
3761.85433 7.37794e-18
3763.84732 7.46933e-18
3765.85032 7.42092e-18
3767.85332 7.65536e-18
3769.84630 7.35060e-18
3771.84930 7.62048e-18
3773.85230 7.56259e-18
3775.84529 7.54155e-18
3777.84829 7.67671e-18
3779.85129 7.80937e-18
3781.84427 7.65234e-18
3783.84727 7.93376e-18
3785.85027 8.12707e-18
3787.85327 8.27687e-18
3789.84626 8.19886e-18
3791.84926 8.37722e-18
3793.85226 8.53659e-18
3795.84524 8.74548e-18
3797.84824 9.13319e-18
3800.93286 9.21529e-18
3802.39505 9.54906e-18
3803.86726 9.35235e-18
3805.33946 9.42091e-18
3806.81167 9.95618e-18
3808.27386 1.03503e-17
3809.74606 1.04989e-17
3811.21827 1.04370e-17
3812.69047 1.05990e-17
3814.16268 1.08358e-17
3815.62487 1.11772e-17
3817.09707 1.15396e-17
3818.56928 1.15975e-17
3820.04148 1.18302e-17
3821.50367 1.19842e-17
3822.97588 1.23169e-17
3824.44808 1.25343e-17
3825.92029 1.26073e-17
3827.38248 1.25774e-17
3828.85468 1.29658e-17
3830.32689 1.32093e-17
3831.79909 1.32406e-17
3833.27130 1.36374e-17
3834.73349 1.39068e-17
3836.20569 1.39409e-17
3837.67790 1.40472e-17
3839.15010 1.43402e-17
3840.61229 1.47798e-17
3842.08450 1.47096e-17
3843.55670 1.49852e-17
3845.02891 1.51260e-17
3846.50111 1.54098e-17
3847.96330 1.56399e-17
3849.43551 1.56133e-17
3850.90771 1.56109e-17
3852.37992 1.62026e-17
3853.84211 1.65115e-17
3855.31431 1.66951e-17
3856.78652 1.70952e-17
3858.25872 1.72446e-17
3859.73092 1.71925e-17
3861.19312 1.68746e-17
3862.66532 1.71364e-17
3864.13753 1.78885e-17
3865.60973 1.85672e-17
3867.07192 1.85530e-17
3868.54413 1.87010e-17
3870.01633 1.85689e-17
3871.48854 1.86738e-17
3872.95073 1.96033e-17
3874.42293 1.97760e-17
3875.89514 1.97612e-17
3877.36734 1.95816e-17
3878.83955 1.96708e-17
3880.30174 2.02177e-17
3881.77394 2.02366e-17
3883.24615 2.01211e-17
3884.71835 2.02577e-17
3886.18054 2.02520e-17
3887.65275 2.04188e-17
3889.12495 2.05165e-17
3890.59716 2.04713e-17
3892.06936 2.05823e-17
3893.53155 2.05719e-17
3895.00376 2.07367e-17
3896.47596 2.08619e-17
3897.94817 2.06827e-17
3899.41036 2.05045e-17
3900.88256 2.04895e-17
3902.35477 2.07591e-17
3903.82697 2.11015e-17
3905.29918 2.11724e-17
3906.76137 2.11009e-17
3908.23357 2.12900e-17
3909.70578 2.15462e-17
3911.17798 2.14501e-17
3912.64017 2.11727e-17
3914.11238 2.15880e-17
3915.58458 2.16301e-17
3917.05679 2.17960e-17
3918.51898 2.18130e-17
3919.99118 2.14002e-17
3921.46339 2.18039e-17
3922.93559 2.16655e-17
3924.40780 2.16405e-17
3925.86998 2.19924e-17
3927.34219 2.22256e-17
3928.81439 2.16655e-17
3930.28660 2.07984e-17
3931.74879 2.08874e-17
3933.22100 2.06117e-17
3934.69320 2.04622e-17
3936.16541 2.01879e-17
3937.63761 1.90655e-17
3939.09980 1.89651e-17
3940.57201 2.00674e-17
3942.04421 2.11832e-17
3943.51642 2.12582e-17
3944.97861 2.12604e-17
3946.45081 2.11596e-17
3947.92302 2.13877e-17
3949.39522 2.12666e-17
3950.86742 2.13825e-17
3952.32962 2.14843e-17
3953.80182 2.12402e-17
3955.27403 2.11357e-17
3956.74623 2.07532e-17
3958.20842 2.08446e-17
3959.68063 2.07631e-17
3961.15283 2.06338e-17
3962.62504 2.06214e-17
3964.08723 2.07858e-17
3965.55943 2.09021e-17
3967.03164 2.05447e-17
3968.50384 2.00538e-17
3969.97605 1.98245e-17
3971.43824 1.92184e-17
3972.91044 1.87193e-17
3974.38265 1.90450e-17
3975.85485 1.97398e-17
3977.31704 2.01264e-17
3978.78924 2.00776e-17
3980.26145 2.04000e-17
3981.73365 2.03586e-17
3983.20586 1.98721e-17
3984.66805 1.98192e-17
3986.14026 1.99782e-17
3987.61246 2.01409e-17
3989.08467 1.99937e-17
3990.54686 1.98497e-17
3992.01906 1.99317e-17
3993.49127 1.99440e-17
3994.96347 1.95918e-17
3996.43568 1.96798e-17
3997.89786 1.98559e-17
3999.37007 1.99395e-17
4000.84227 1.95407e-17
4002.31448 1.96706e-17
4003.77667 1.95666e-17
4005.24888 1.93815e-17
4006.72108 1.93270e-17
4008.19329 1.90119e-17
4009.65548 1.90649e-17
4011.12768 1.86903e-17
4012.59989 1.85677e-17
4014.07209 1.84097e-17
4015.54430 1.84277e-17
4017.00648 1.79062e-17
4018.47869 1.83863e-17
4019.95089 1.84180e-17
4021.42310 1.82600e-17
4022.88529 1.83779e-17
4024.35750 1.78212e-17
4025.82970 1.80369e-17
4027.30191 1.82213e-17
4028.77411 1.77512e-17
4030.23630 1.73978e-17
4031.70851 1.73009e-17
4033.18071 1.69828e-17
4034.65292 1.71673e-17
4036.11511 1.69802e-17
4037.58731 1.67905e-17
4039.05952 1.69996e-17
4040.53172 1.66555e-17
4041.99391 1.68860e-17
4043.46612 1.65829e-17
4044.93832 1.65624e-17
4046.41053 1.65358e-17
4047.88273 1.69243e-17
4049.34492 1.67501e-17
4050.81713 1.63385e-17
4052.28933 1.59410e-17
4053.76154 1.62486e-17
4055.22373 1.58966e-17
4056.69593 1.59758e-17
4058.16814 1.60415e-17
4059.64034 1.60971e-17
4061.11255 1.61943e-17
4062.57474 1.60177e-17
4064.04694 1.61594e-17
4065.51915 1.65211e-17
4066.99135 1.63058e-17
4068.45354 1.63774e-17
4069.92575 1.63142e-17
4071.39795 1.65460e-17
4072.87016 1.67274e-17
4074.34236 1.67008e-17
4075.80455 1.67552e-17
4077.27676 1.65983e-17
4078.74896 1.67780e-17
4080.22117 1.69210e-17
4081.68336 1.71089e-17
4083.15556 1.71436e-17
4084.62777 1.69123e-17
4086.09997 1.72539e-17
4087.56216 1.72059e-17
4089.03436 1.68874e-17
4090.50657 1.69121e-17
4091.97878 1.71845e-17
4093.45098 1.68762e-17
4094.91317 1.67788e-17
4096.38537 1.71271e-17
4097.85758 1.72381e-17
4099.32978 1.71223e-17
4100.79198 1.70115e-17
4102.26418 1.69926e-17
4103.73639 1.72785e-17
4105.20859 1.70126e-17
4106.68080 1.68827e-17
4108.14299 1.70414e-17
4109.61519 1.70976e-17
4111.08740 1.66655e-17
4112.55960 1.66714e-17
4114.02179 1.68596e-17
4115.49399 1.65275e-17
4116.96620 1.65747e-17
4118.43841 1.67724e-17
4119.90060 1.70202e-17
4121.37280 1.68415e-17
4122.84501 1.70016e-17
4124.31721 1.69094e-17
4125.78942 1.65778e-17
4127.25161 1.63700e-17
4128.72381 1.66750e-17
4130.19602 1.66278e-17
4131.66822 1.65654e-17
4133.13041 1.66294e-17
4134.60261 1.68964e-17
4136.07482 1.67216e-17
4137.54703 1.64857e-17
4139.01923 1.65347e-17
4140.48142 1.68972e-17
4141.95363 1.72887e-17
4143.42583 1.67946e-17
4144.89804 1.66856e-17
4146.36022 1.69184e-17
4147.83243 1.67796e-17
4149.30464 1.64837e-17
4150.77684 1.65243e-17
4152.24904 1.67089e-17
4153.71123 1.63052e-17
4155.18344 1.63809e-17
4156.65565 1.67800e-17
4158.12785 1.65450e-17
4159.59004 1.65250e-17
4161.06225 1.64328e-17
4162.53445 1.70235e-17
4164.00666 1.67467e-17
4165.47886 1.67230e-17
4166.94105 1.68760e-17
4168.41326 1.69425e-17
4169.88546 1.69297e-17
4171.35766 1.66999e-17
4172.81985 1.68858e-17
4174.29206 1.68634e-17
4175.76427 1.67030e-17
4177.23647 1.69931e-17
4178.69866 1.67376e-17
4180.17087 1.66286e-17
4181.64307 1.67125e-17
4183.11528 1.68121e-17
4184.58748 1.69927e-17
4186.04967 1.67559e-17
4187.52188 1.69059e-17
4188.99408 1.70896e-17
4190.46628 1.72547e-17
4191.92847 1.72163e-17
4193.40068 1.71900e-17
4194.87289 1.75761e-17
4196.34509 1.74624e-17
4197.81729 1.71367e-17
4199.27949 1.70505e-17
4200.75169 1.71925e-17
4202.22390 1.73359e-17
4203.69610 1.72890e-17
4205.15829 1.74554e-17
4206.63050 1.74354e-17
4208.10270 1.73384e-17
4209.57491 1.72504e-17
4211.03709 1.74709e-17
4212.50930 1.72885e-17
4213.98151 1.71065e-17
4215.45371 1.70658e-17
4216.92591 1.71817e-17
4218.38810 1.70615e-17
4219.86031 1.70009e-17
4221.33252 1.71948e-17
4222.80472 1.73266e-17
4224.26691 1.71455e-17
4225.73912 1.71222e-17
4227.21132 1.70989e-17
4228.68353 1.71072e-17
4230.15573 1.70809e-17
4231.61792 1.69042e-17
4233.09013 1.70770e-17
4234.56233 1.69173e-17
4236.03453 1.68332e-17
4237.49672 1.70489e-17
4238.96893 1.70854e-17
4240.44114 1.69636e-17
4241.91334 1.69608e-17
4243.37553 1.69677e-17
4244.84774 1.70794e-17
4246.31994 1.68937e-17
4247.79215 1.66941e-17
4249.26435 1.66639e-17
4250.72654 1.68065e-17
4252.19875 1.68934e-17
4253.67095 1.67479e-17
4255.14316 1.64266e-17
4256.60534 1.61390e-17
4258.07755 1.62320e-17
4259.54976 1.64057e-17
4261.02196 1.63773e-17
4262.49417 1.62942e-17
4263.95636 1.61408e-17
4265.42856 1.59618e-17
4266.90077 1.57880e-17
4268.37297 1.56310e-17
4269.83516 1.56959e-17
4271.30736 1.56901e-17
4272.77957 1.57565e-17
4274.25178 1.56166e-17
4275.72398 1.55121e-17
4277.18617 1.53336e-17
4278.65837 1.55028e-17
4280.13058 1.53952e-17
4281.60279 1.52752e-17
4283.06498 1.52856e-17
4284.53718 1.54004e-17
4286.00939 1.52612e-17
4287.48159 1.46815e-17
4288.95380 1.45914e-17
4290.41598 1.48323e-17
4291.88819 1.46608e-17
4293.36040 1.44218e-17
4294.83260 1.46325e-17
4296.29479 1.46471e-17
4297.76699 1.44506e-17
4299.23920 1.42987e-17
4300.71141 1.39998e-17
4302.17360 1.39173e-17
4303.64580 1.41929e-17
4305.11801 1.40715e-17
4306.59021 1.40395e-17
4308.06242 1.38786e-17
4309.52460 1.38680e-17
4310.99681 1.41563e-17
4312.46902 1.40697e-17
4313.94122 1.40142e-17
4315.40341 1.38665e-17
4316.87561 1.37987e-17
4318.34782 1.36780e-17
4319.82003 1.35007e-17
4321.29223 1.38007e-17
4322.75442 1.39627e-17
4324.22663 1.39165e-17
4325.69883 1.36719e-17
4327.17103 1.33096e-17
4328.63322 1.35340e-17
4330.10543 1.37081e-17
4331.57764 1.31179e-17
4333.04984 1.25964e-17
4334.51203 1.23010e-17
4335.98423 1.28023e-17
4337.45644 1.36376e-17
4338.92865 1.36635e-17
4340.40085 1.35033e-17
4341.86304 1.34467e-17
4343.33525 1.31748e-17
4344.80745 1.29797e-17
4346.27966 1.32869e-17
4347.74184 1.31496e-17
4349.21405 1.28575e-17
4350.68626 1.29465e-17
4352.15846 1.29991e-17
4353.63066 1.30517e-17
4355.09285 1.31043e-17
4356.56506 1.31569e-17
4358.03727 1.32095e-17
4359.50947 1.32621e-17
4360.97166 1.33146e-17
4362.44387 1.33672e-17
4363.91607 1.34197e-17
4365.38828 1.34723e-17
4366.85047 1.35248e-17
4368.32267 1.35774e-17
4369.79488 1.36299e-17
4371.26708 1.36824e-17
4372.73928 1.37350e-17
4374.20147 1.37875e-17
4375.67368 1.38400e-17
4377.14589 1.38925e-17
4378.61809 1.39450e-17
4380.08028 1.39975e-17
4381.55249 1.40500e-17
4383.02469 1.41025e-17
4384.49690 1.41550e-17
4385.96910 1.42075e-17
4387.43129 1.42600e-17
4388.90350 1.43125e-17
4390.37570 1.41101e-17
4391.84791 1.41061e-17
4393.31009 1.38970e-17
4394.78230 1.41090e-17
4396.25450 1.44526e-17
4397.72671 1.40364e-17
4399.19891 1.37686e-17
4400.66111 1.39846e-17
4402.13331 1.46935e-17
4403.60552 1.50158e-17
4405.07772 1.51815e-17
4406.53991 1.50727e-17
4408.01212 1.47362e-17
4409.48432 1.50081e-17
4410.95653 1.53139e-17
4412.42873 1.53968e-17
4413.89092 1.55087e-17
4415.36312 1.54778e-17
4416.83533 1.55070e-17
4418.30753 1.55722e-17
4419.76973 1.56546e-17
4421.24193 1.59595e-17
4422.71414 1.59329e-17
4424.18634 1.60377e-17
4425.64853 1.60892e-17
4427.12074 1.58392e-17
4428.59294 1.63277e-17
4430.06515 1.64964e-17
4431.53735 1.65909e-17
4432.99954 1.70095e-17
4434.47174 1.72415e-17
4435.94395 1.75160e-17
4437.41616 1.77167e-17
4438.87835 1.77157e-17
4440.35055 1.77018e-17
4441.82276 1.79876e-17
4443.29496 1.81532e-17
4444.76717 1.84035e-17
4446.22936 1.83831e-17
4447.70156 1.86435e-17
4449.17377 1.84634e-17
4450.64597 1.82812e-17
4452.10816 1.87731e-17
4453.58036 1.89544e-17
4455.05257 1.90454e-17
4456.52478 1.95428e-17
4457.98697 1.96513e-17
4459.45917 1.97025e-17
4460.93138 1.97589e-17
4462.40358 1.96564e-17
4463.87579 2.00610e-17
4465.33797 2.03731e-17
4466.81018 2.04697e-17
4468.28239 2.06040e-17
4469.75459 2.06270e-17
4471.21678 2.09410e-17
4472.68898 2.13838e-17
4474.16119 2.12490e-17
4475.63340 2.10991e-17
4477.10560 2.16936e-17
4478.56779 2.21629e-17
4480.04000 2.20968e-17
4481.51220 2.19257e-17
4482.98441 2.20368e-17
4484.44659 2.22462e-17
4485.91880 2.22413e-17
4487.39101 2.24269e-17
4488.86321 2.25523e-17
4490.33541 2.23664e-17
4491.79760 2.26178e-17
4493.26981 2.28434e-17
4494.74202 2.28169e-17
4496.21422 2.29027e-17
4497.67641 2.29883e-17
4499.14862 2.31515e-17
4500.62082 2.32847e-17
4502.09303 2.31322e-17
4503.56523 2.33157e-17
4505.02742 2.37642e-17
4506.49963 2.33605e-17
4507.97183 2.31210e-17
4509.44403 2.36646e-17
4510.90622 2.40159e-17
4512.37843 2.37806e-17
4513.85064 2.34972e-17
4515.32284 2.35878e-17
4516.78503 2.37954e-17
4518.25724 2.38423e-17
4519.72944 2.39954e-17
4521.20165 2.42244e-17
4522.67385 2.40889e-17
4524.13604 2.41289e-17
4525.60825 2.42154e-17
4527.08045 2.39997e-17
4528.55266 2.40215e-17
4530.01484 2.39077e-17
4531.48705 2.36345e-17
4532.95926 2.37899e-17
4534.43146 2.38706e-17
4535.90366 2.41052e-17
4537.36586 2.41522e-17
4538.83806 2.37324e-17
4540.31027 2.38186e-17
4541.78247 2.41696e-17
4543.24466 2.43592e-17
4544.71687 2.42894e-17
4546.18907 2.39825e-17
4547.66128 2.39647e-17
4549.12347 2.42140e-17
4550.59567 2.44726e-17
4552.06788 2.45664e-17
4553.54008 2.45490e-17
4555.01228 2.46935e-17
4556.47447 2.45836e-17
4557.94668 2.43249e-17
4559.41889 2.45460e-17
4560.89109 2.48204e-17
4562.35328 2.48257e-17
4563.82549 2.47895e-17
4565.29769 2.47755e-17
4566.76990 2.48020e-17
4568.24210 2.49246e-17
4569.70429 2.51387e-17
4571.17650 2.52197e-17
4572.64870 2.51154e-17
4574.12091 2.49454e-17
4575.58309 2.51192e-17
4577.05530 2.49123e-17
4578.52751 2.44404e-17
4579.99971 2.44321e-17
4581.47192 2.45790e-17
4582.93411 2.48690e-17
4584.40631 2.48199e-17
4585.87852 2.45950e-17
4587.35072 2.46241e-17
4588.81291 2.47047e-17
4590.28511 2.44698e-17
4591.75732 2.43849e-17
4593.22953 2.46154e-17
4594.69172 2.45545e-17
4596.16392 2.44685e-17
4597.63612 2.43029e-17
4599.10833 2.40349e-17
4600.58054 2.40872e-17
4602.04273 2.38803e-17
4603.51493 2.40092e-17
4604.98714 2.38665e-17
4606.45934 2.38632e-17
4607.92153 2.38878e-17
4609.39373 2.38880e-17
4610.86594 2.36844e-17
4612.33815 2.34712e-17
4613.81035 2.34445e-17
4615.27254 2.32898e-17
4616.74474 2.32072e-17
4618.21695 2.31038e-17
4619.68916 2.29192e-17
4621.15135 2.29806e-17
4622.62355 2.31904e-17
4624.09576 2.30776e-17
4625.56796 2.29467e-17
4627.04017 2.26352e-17
4628.50235 2.25164e-17
4629.97456 2.25597e-17
4631.44677 2.22292e-17
4632.91897 2.22469e-17
4634.38116 2.21691e-17
4635.85336 2.19890e-17
4637.32557 2.17815e-17
4638.79778 2.16793e-17
4640.25997 2.15017e-17
4641.73217 2.15804e-17
4643.20438 2.16264e-17
4644.67658 2.12879e-17
4646.14879 2.10530e-17
4647.61097 2.09528e-17
4649.08318 2.06389e-17
4650.55539 2.05664e-17
4652.02759 2.06759e-17
4653.48978 2.03786e-17
4654.96198 2.01054e-17
4656.43419 1.99479e-17
4657.90640 1.98406e-17
4659.37860 1.95615e-17
4660.84079 1.94563e-17
4662.31300 1.94336e-17
4663.78520 1.92878e-17
4665.25741 1.90011e-17
4666.71959 1.88470e-17
4668.19180 1.87099e-17
4669.66401 1.86333e-17
4671.13621 1.85453e-17
4672.60841 1.84458e-17
4674.07060 1.80023e-17
4675.54281 1.75614e-17
4677.01502 1.77220e-17
4678.48722 1.78146e-17
4679.94941 1.75153e-17
4681.42162 1.72292e-17
4682.89382 1.68971e-17
4684.36603 1.69014e-17
4685.82822 1.70482e-17
4687.30042 1.69321e-17
4688.77263 1.65961e-17
4690.24483 1.65174e-17
4691.71703 1.65202e-17
4693.17922 1.61720e-17
4694.65143 1.59347e-17
4696.12364 1.59997e-17
4697.59584 1.61062e-17
4699.05803 1.58081e-17
4700.53024 1.55268e-17
4702.00244 1.54534e-17
4703.47465 1.53880e-17
4704.94685 1.52912e-17
4706.40904 1.51004e-17
4707.88125 1.50281e-17
4709.35345 1.48589e-17
4710.82566 1.49899e-17
4712.28784 1.51046e-17
4713.76005 1.50139e-17
4715.23225 1.48154e-17
4716.70446 1.47737e-17
4718.16665 1.48330e-17
4719.63886 1.48890e-17
4721.11106 1.49073e-17
4722.58327 1.49934e-17
4724.05547 1.49047e-17
4725.51766 1.47732e-17
4726.98987 1.45971e-17
4728.46207 1.45772e-17
4729.93428 1.46789e-17
4731.39647 1.47026e-17
4732.86867 1.47013e-17
4734.34087 1.47702e-17
4735.81308 1.46137e-17
4737.28528 1.45549e-17
4738.74748 1.44177e-17
4740.21968 1.43763e-17
4741.69189 1.43715e-17
4743.16409 1.42919e-17
4744.62628 1.42989e-17
4746.09849 1.43533e-17
4747.57069 1.45179e-17
4749.04290 1.44848e-17
4750.51510 1.44381e-17
4751.97729 1.42110e-17
4753.44949 1.41938e-17
4754.92170 1.42130e-17
4756.39391 1.38889e-17
4757.85610 1.38786e-17
4759.32830 1.40442e-17
4760.80051 1.39813e-17
4762.27271 1.39338e-17
4763.74492 1.38633e-17
4765.20711 1.38862e-17
4766.67931 1.39720e-17
4768.15152 1.38979e-17
4769.62372 1.37622e-17
4771.08591 1.37623e-17
4772.55811 1.36949e-17
4774.03032 1.35761e-17
4775.50253 1.34544e-17
4776.96472 1.36146e-17
4778.43692 1.33818e-17
4779.90913 1.33173e-17
4781.38133 1.33276e-17
4782.85354 1.30985e-17
4784.31572 1.32373e-17
4785.78793 1.33416e-17
4787.26014 1.33401e-17
4788.73234 1.32133e-17
4790.19453 1.31177e-17
4791.66673 1.31937e-17
4793.13894 1.34367e-17
4794.61115 1.34590e-17
4796.08335 1.31390e-17
4797.54554 1.32752e-17
4799.01775 1.33831e-17
4800.48995 1.35368e-17
4801.96216 1.35676e-17
4803.42434 1.35781e-17
4804.89655 1.36658e-17
4806.36876 1.37540e-17
4807.84096 1.41982e-17
4809.30315 1.41048e-17
4810.77535 1.39536e-17
4812.24756 1.40063e-17
4813.71977 1.39691e-17
4815.19197 1.41666e-17
4816.65416 1.43416e-17
4818.12637 1.42924e-17
4819.59857 1.43322e-17
4821.07078 1.44307e-17
4822.53297 1.44088e-17
4824.00517 1.46964e-17
4825.47738 1.45483e-17
4826.94958 1.44011e-17
4828.42178 1.45067e-17
4829.88397 1.46352e-17
4831.35618 1.49586e-17
4832.82839 1.49696e-17
4834.30059 1.47505e-17
4835.76278 1.48730e-17
4837.23499 1.48446e-17
4838.70719 1.45765e-17
4840.17940 1.45844e-17
4841.65160 1.49100e-17
4843.11379 1.48806e-17
4844.58600 1.48357e-17
4846.05820 1.49681e-17
4847.53041 1.48400e-17
4848.99259 1.47639e-17
4850.46480 1.50747e-17
4851.93701 1.50149e-17
4853.40921 1.49551e-17
4854.87140 1.48953e-17
4856.34361 1.48355e-17
4857.81581 1.47758e-17
4859.28802 1.47160e-17
4860.76022 1.46563e-17
4862.22241 1.45965e-17
4863.69462 1.45368e-17
4865.16682 1.44770e-17
4866.63903 1.44173e-17
4868.10122 1.43576e-17
4869.57342 1.42979e-17
4871.04563 1.42381e-17
4872.51783 1.41784e-17
4873.99003 1.41187e-17
4875.45222 1.40590e-17
4876.92443 1.39994e-17
4878.39664 1.39397e-17
4879.86884 1.38800e-17
4881.33103 1.38203e-17
4882.80324 1.37606e-17
4884.27544 1.37010e-17
4885.74765 1.36413e-17
4887.21985 1.35817e-17
4888.68204 1.34399e-17
4890.15425 1.32962e-17
4891.62645 1.36251e-17
4893.09866 1.35096e-17
4894.56084 1.35195e-17
4896.03305 1.33366e-17
4897.50526 1.33579e-17
4898.97746 1.35286e-17
4900.43965 1.31991e-17
4901.91186 1.31862e-17
4903.38406 1.32988e-17
4904.85627 1.32813e-17
4906.32847 1.32192e-17
4907.79066 1.34046e-17
4909.26286 1.31417e-17
4910.73507 1.30410e-17
4912.20728 1.30857e-17
4913.66947 1.32470e-17
4915.14167 1.31559e-17
4916.61388 1.29789e-17
4918.08608 1.29383e-17
4919.55829 1.27323e-17
4921.02048 1.27977e-17
4922.49268 1.26926e-17
4923.96489 1.27167e-17
4925.43709 1.28719e-17
4926.89928 1.26968e-17
4928.37148 1.26217e-17
4929.84369 1.27101e-17
4931.31590 1.27242e-17
4932.78810 1.28102e-17
4934.25029 1.28157e-17
4935.72249 1.28262e-17
4937.19470 1.27227e-17
4938.66691 1.25883e-17
4940.12910 1.26778e-17
4941.60130 1.26703e-17
4943.07351 1.26166e-17
4944.54571 1.26540e-17
4946.00790 1.25179e-17
4947.48010 1.26738e-17
4948.95231 1.27306e-17
4950.42452 1.27875e-17
4951.89672 1.28443e-17
4953.35891 1.29011e-17
4954.83111 1.29579e-17
4956.30332 1.30147e-17
4957.77553 1.30716e-17
4959.23772 1.31284e-17
4960.70992 1.31852e-17
4962.18213 1.32420e-17
4963.65433 1.32988e-17
4965.12654 1.33555e-17
4966.58872 1.34123e-17
4968.06093 1.34691e-17
4969.53314 1.35259e-17
4971.00534 1.35826e-17
4972.46753 1.36394e-17
4973.93973 1.36962e-17
4975.41194 1.37529e-17
4976.88415 1.38096e-17
4978.35635 1.38664e-17
4979.81854 1.39231e-17
4981.29075 1.39798e-17
4982.76295 1.40366e-17
4984.23516 1.40933e-17
4985.69734 1.41500e-17
4987.16955 1.38052e-17
4988.64176 1.33807e-17
4990.11396 1.40897e-17
4991.57615 1.38127e-17
4993.04835 1.39936e-17
4994.52056 1.36203e-17
4995.99277 1.36026e-17
4997.46497 1.35838e-17
4998.92716 1.35651e-17
5000.39937 1.35463e-17
5001.87157 1.35275e-17
5003.34378 1.35088e-17
5004.80597 1.34900e-17
5006.27817 1.34712e-17
5007.75038 1.34524e-17
5009.22258 1.34337e-17
5010.69478 1.34149e-17
5012.15697 1.33962e-17
5013.62918 1.33774e-17
5015.10139 1.33587e-17
5016.57359 1.33399e-17
5018.03578 1.33211e-17
5019.50799 1.33024e-17
5020.98019 1.32836e-17
5022.45240 1.32649e-17
5023.92460 1.32461e-17
5025.38679 1.32274e-17
5026.85900 1.32087e-17
5028.33120 1.31899e-17
5029.80341 1.31712e-17
5031.26559 1.31524e-17
5032.73780 1.31337e-17
5034.21000 1.29745e-17
5035.68221 1.29859e-17
5037.14440 1.33323e-17
5038.61661 1.35472e-17
5040.08881 1.32972e-17
5041.56102 1.31321e-17
5043.03322 1.33671e-17
5044.49541 1.34657e-17
5045.96762 1.34467e-17
5047.43982 1.35080e-17
5048.91203 1.35981e-17
5050.37422 1.36684e-17
5051.84642 1.37094e-17
5053.31862 1.36869e-17
5054.79083 1.38943e-17
5056.26303 1.39046e-17
5057.72523 1.39708e-17
5059.19743 1.40915e-17
5060.66964 1.39798e-17
5062.14184 1.44370e-17
5063.60403 1.44138e-17
5065.07624 1.42816e-17
5066.54844 1.43680e-17
5068.02065 1.44895e-17
5069.49285 1.45517e-17
5070.95504 1.46531e-17
5072.42724 1.46945e-17
5073.89945 1.46498e-17
5075.37166 1.48154e-17
5076.83385 1.48937e-17
5078.30605 1.49933e-17
5079.77826 1.50497e-17
5081.25046 1.50480e-17
5082.71265 1.49859e-17
5084.18486 1.49473e-17
5085.65706 1.47157e-17
5087.12927 1.46170e-17
5088.60147 1.48193e-17
5090.06366 1.52231e-17
5091.53586 1.54553e-17
5093.00807 1.57721e-17
5094.48028 1.59500e-17
5095.94247 1.60518e-17
5097.41467 1.60662e-17
5098.88688 1.61061e-17
5100.35908 1.61519e-17
5101.83129 1.62626e-17
5103.29347 1.63420e-17
5104.76568 1.64777e-17
5106.23789 1.65689e-17
5107.71009 1.66932e-17
5109.17228 1.66402e-17
5110.64448 1.66507e-17
5112.11669 1.69218e-17
5113.58890 1.69431e-17
5115.05109 1.68957e-17
5116.52329 1.70051e-17
5117.99550 1.71889e-17
5119.46770 1.72134e-17
5120.93991 1.72638e-17
5122.40209 1.74585e-17
5123.87430 1.76602e-17
5125.34651 1.76087e-17
5126.81871 1.78042e-17
5128.28090 1.79119e-17
5129.75310 1.79234e-17
5131.22531 1.80474e-17
5132.69752 1.80935e-17
5134.16972 1.82101e-17
5135.63191 1.82140e-17
5137.10412 1.82965e-17
5138.57632 1.82663e-17
5140.04853 1.83338e-17
5141.51072 1.85396e-17
5142.98292 1.86609e-17
5144.45513 1.87568e-17
5145.92733 1.89667e-17
5147.39953 1.89120e-17
5148.86172 1.88542e-17
5150.33393 1.90192e-17
5151.80614 1.92140e-17
5153.27834 1.92073e-17
5154.74053 1.91991e-17
5156.21274 1.93901e-17
5157.68494 1.94695e-17
5159.15715 1.94084e-17
5160.62935 1.94424e-17
5162.09154 1.94587e-17
5163.56375 1.95860e-17
5165.03595 1.95661e-17
5166.50816 1.95888e-17
5167.97034 1.97446e-17
5169.44255 1.97545e-17
5170.91476 1.97324e-17
5172.38696 1.98501e-17
5173.84915 1.98309e-17
5175.32136 1.98021e-17
5176.79356 1.99104e-17
5178.26577 1.99034e-17
5179.73797 1.99344e-17
5181.20016 1.99184e-17
5182.67237 1.99634e-17
5184.14457 1.99564e-17
5185.61678 2.00155e-17
5187.07897 2.00842e-17
5188.55117 2.00189e-17
5190.02338 2.00682e-17
5191.49558 2.02174e-17
5192.96778 2.02296e-17
5194.42998 2.01937e-17
5195.90218 2.02388e-17
5197.37439 2.03568e-17
5198.84659 2.03991e-17
5200.30878 2.03177e-17
5201.78099 2.03520e-17
5203.25319 2.03985e-17
5204.72540 2.03614e-17
5206.18759 2.04233e-17
5207.65979 2.05394e-17
5209.13200 2.05651e-17
5210.60420 2.06044e-17
5212.07641 2.06265e-17
5213.53859 2.06574e-17
5215.01080 2.07203e-17
5216.48301 2.06325e-17
5217.95521 2.05623e-17
5219.41740 2.06325e-17
5220.88961 2.07682e-17
5222.36181 2.08602e-17
5223.83402 2.08413e-17
5225.30622 2.08250e-17
5226.76841 2.08900e-17
5228.24061 2.08718e-17
5229.71282 2.08161e-17
5231.18503 2.09522e-17
5232.64722 2.09753e-17
5234.11942 2.09250e-17
5235.59163 2.09625e-17
5237.06383 2.10052e-17
5238.53604 2.09748e-17
5239.99823 2.09377e-17
5241.47043 2.09648e-17
5242.94264 2.09521e-17
5244.41484 2.09199e-17
5245.87703 2.08249e-17
5247.34923 2.08654e-17
5248.82144 2.09232e-17
5250.29365 2.09062e-17
5251.76585 2.09976e-17
5253.22804 2.10362e-17
5254.70024 2.10102e-17
5256.17245 2.10039e-17
5257.64466 2.09447e-17
5259.10685 2.08472e-17
5260.57905 2.08716e-17
5262.05126 2.09104e-17
5263.52346 2.09416e-17
5264.98565 2.09180e-17
5266.45785 2.08866e-17
5267.93006 2.09247e-17
5269.40227 2.09910e-17
5270.87447 2.09956e-17
5272.33666 2.09546e-17
5273.80886 2.08620e-17
5275.28107 2.08262e-17
5276.75328 2.09005e-17
5278.21547 2.09101e-17
5279.68767 2.08178e-17
5281.15988 2.07347e-17
5282.63208 2.07197e-17
5284.10429 2.07050e-17
5285.56647 2.07341e-17
5287.03868 2.07708e-17
5288.51089 2.06814e-17
5289.98309 2.06652e-17
5291.44528 2.07949e-17
5292.91748 2.08527e-17
5294.38969 2.07682e-17
5295.86190 2.07902e-17
5297.32409 2.08715e-17
5298.79629 2.07319e-17
5300.26850 2.06936e-17
5301.74070 2.08221e-17
5303.21291 2.08330e-17
5304.67509 2.07765e-17
5306.14730 2.07396e-17
5307.61951 2.07586e-17
5309.09171 2.07972e-17
5310.55390 2.08202e-17
5312.02610 2.09270e-17
5313.49831 2.10036e-17
5314.97052 2.09933e-17
5316.44272 2.09721e-17
5317.90491 2.09113e-17
5319.37712 2.09338e-17
5320.84932 2.10150e-17
5322.32153 2.10255e-17
5323.78372 2.10138e-17
5325.25592 2.10419e-17
5326.72813 2.10704e-17
5328.20033 2.09992e-17
5329.66252 2.08746e-17
5331.13472 2.09410e-17
5332.60693 2.10107e-17
5334.07914 2.09703e-17
5335.55134 2.10582e-17
5337.01353 2.12173e-17
5338.48574 2.12010e-17
5339.95794 2.11422e-17
5341.43015 2.11563e-17
5342.89234 2.11505e-17
5344.36454 2.11179e-17
5345.83675 2.11293e-17
5347.30895 2.11873e-17
5348.78116 2.12450e-17
5350.24334 2.12590e-17
5351.71555 2.11955e-17
5353.18775 2.12421e-17
5354.65996 2.13244e-17
5356.12215 2.12961e-17
5357.59436 2.13102e-17
5359.06656 2.13364e-17
5360.53877 2.14095e-17
5362.01097 2.14846e-17
5363.47316 2.15014e-17
5364.94537 2.13980e-17
5366.41757 2.12689e-17
5367.88978 2.12960e-17
5369.35197 2.13563e-17
5370.82417 2.13281e-17
5372.29637 2.13261e-17
5373.76858 2.13090e-17
5375.24078 2.13261e-17
5376.70298 2.14176e-17
5378.17518 2.13988e-17
5379.64739 2.12865e-17
5381.11959 2.12195e-17
5382.58178 2.12607e-17
5384.05399 2.14128e-17
5385.52619 2.14317e-17
5386.99840 2.13504e-17
5388.46059 2.14014e-17
5389.93279 2.14164e-17
5391.40499 2.13439e-17
5392.87720 2.11983e-17
5394.34941 2.11859e-17
5395.81160 2.12532e-17
5397.28380 2.12859e-17
5398.75601 2.12973e-17
5400.22821 2.12649e-17
5401.69040 2.11684e-17
5403.16261 2.10849e-17
5404.63481 2.11127e-17
5406.10702 2.11261e-17
5407.57922 2.11589e-17
5409.04141 2.12197e-17
5410.51361 2.11760e-17
5411.98582 2.11139e-17
5413.45803 2.11290e-17
5414.92022 2.11257e-17
5416.39242 2.10653e-17
5417.86463 2.10172e-17
5419.33683 2.09681e-17
5420.79902 2.08563e-17
5422.27122 2.08003e-17
5423.74343 2.08357e-17
5425.21564 2.08912e-17
5426.68784 2.08854e-17
5428.15003 2.08116e-17
5429.62223 2.07709e-17
5431.09444 2.07210e-17
5432.56665 2.06538e-17
5434.02884 2.05846e-17
5435.50104 2.05485e-17
5436.97325 2.06154e-17
5438.44545 2.06771e-17
5439.91766 2.05412e-17
5441.37984 2.04479e-17
5442.85205 2.04394e-17
5444.32426 2.04019e-17
5445.79646 2.03312e-17
5447.25865 2.02944e-17
5448.73085 2.03064e-17
5450.20306 2.00767e-17
5451.67527 2.00819e-17
5453.14747 2.02374e-17
5454.60966 2.00484e-17
5456.08187 1.99356e-17
5457.55407 2.00155e-17
5459.02628 1.99264e-17
5460.48847 1.98973e-17
5461.96067 1.98124e-17
5463.43288 1.97343e-17
5464.90508 1.97463e-17
5466.36727 1.96854e-17
5467.83947 1.96700e-17
5469.31168 1.96029e-17
5470.78389 1.95153e-17
5472.25609 1.94906e-17
5473.71828 1.94616e-17
5475.19049 1.94554e-17
5476.66269 1.94409e-17
5478.13490 1.93364e-17
5479.59709 1.92720e-17
5481.06929 1.92742e-17
5482.54150 1.92376e-17
5484.01370 1.91059e-17
5485.48591 1.89512e-17
5486.94809 1.89562e-17
5488.42030 1.89334e-17
5489.89251 1.89037e-17
5491.36471 1.87896e-17
5492.82690 1.87840e-17
5494.29911 1.87678e-17
5495.77131 1.86936e-17
5497.24352 1.86533e-17
5498.71572 1.86370e-17
5500.17791 1.86036e-17
5501.65012 1.85215e-17
5503.12232 1.85749e-17
5504.59453 1.85788e-17
5506.05672 1.84975e-17
5507.52892 1.84218e-17
5509.00113 1.84180e-17
5510.47333 1.84134e-17
5511.93552 1.82529e-17
5513.40773 1.82780e-17
5514.87993 1.82109e-17
5516.35214 1.81613e-17
5517.82434 1.80599e-17
5519.28653 1.80783e-17
5520.75874 1.81101e-17
5522.23094 1.81617e-17
5523.70315 1.80425e-17
5525.16534 1.78661e-17
5526.63754 1.79081e-17
5528.10975 1.79586e-17
5529.58195 1.79920e-17
5531.05416 1.79112e-17
5532.51635 1.79371e-17
5533.98855 1.78339e-17
5535.46076 1.78323e-17
5536.93296 1.78518e-17
5538.39515 1.77989e-17
5539.86736 1.77311e-17
5541.33956 1.75780e-17
5542.81177 1.75901e-17
5544.28397 1.75632e-17
5545.74616 1.76096e-17
5547.21836 1.76279e-17
5548.69057 1.75693e-17
5550.16278 1.74407e-17
5551.62497 1.73589e-17
5553.09717 1.74052e-17
5554.56938 1.74326e-17
5556.04158 1.74061e-17
5557.50377 1.73328e-17
5558.97598 1.72689e-17
5560.44818 1.72460e-17
5561.92039 1.71969e-17
5563.39259 1.71545e-17
5564.85478 1.72063e-17
5566.32698 1.71057e-17
5567.79919 1.71359e-17
5569.27140 1.71481e-17
5570.73359 1.70589e-17
5572.20579 1.69995e-17
5573.67800 1.69416e-17
5575.15020 1.68147e-17
5576.62241 1.68604e-17
5578.08460 1.68577e-17
5579.55680 1.67256e-17
5581.02901 1.67686e-17
5582.50121 1.68410e-17
5583.96340 1.67432e-17
5585.43560 1.66722e-17
5586.90781 1.65678e-17
5588.38002 1.65572e-17
5589.84221 1.66282e-17
5591.31441 1.65223e-17
5592.78661 1.64272e-17
5594.25882 1.64213e-17
5595.73103 1.64013e-17
5597.19322 1.63705e-17
5598.66542 1.62794e-17
5600.13763 1.62519e-17
5601.60983 1.62329e-17
5603.07202 1.61765e-17
5604.54422 1.60868e-17
5606.01643 1.59818e-17
5607.48864 1.59259e-17
5608.96084 1.59056e-17
5610.42303 1.59886e-17
5611.89523 1.59612e-17
5613.36744 1.58061e-17
5614.83965 1.57478e-17
5616.30184 1.56905e-17
5617.77404 1.55738e-17
5619.24625 1.55439e-17
5620.71845 1.54616e-17
5622.19066 1.54191e-17
5623.65284 1.54333e-17
5625.12505 1.53976e-17
5626.59726 1.52947e-17
5628.06946 1.52943e-17
5629.53165 1.53221e-17
5631.00385 1.52967e-17
5632.47606 1.53356e-17
5633.94827 1.52935e-17
5635.42047 1.52147e-17
5636.88266 1.51438e-17
5638.35487 1.50640e-17
5639.82707 1.50888e-17
5641.29928 1.50611e-17
5642.76147 1.50111e-17
5644.23367 1.50324e-17
5645.70588 1.49045e-17
5647.17808 1.48334e-17
5648.64027 1.48236e-17
5650.11247 1.47787e-17
5651.58468 1.47709e-17
5653.05689 1.46359e-17
5654.52909 1.45789e-17
5655.99128 1.46109e-17
5657.46349 1.46293e-17
5658.93569 1.46135e-17
5660.40790 1.45507e-17
5661.87009 1.45710e-17
5663.34229 1.45500e-17
5664.81450 1.44948e-17
5666.28670 1.44788e-17
5667.75891 1.44138e-17
5669.22109 1.43418e-17
5670.69330 1.43770e-17
5672.16551 1.43910e-17
5673.63771 1.43332e-17
5675.09990 1.43277e-17
5676.57211 1.43146e-17
5678.04431 1.42586e-17
5679.51652 1.41682e-17
5680.97871 1.41131e-17
5682.45091 1.41031e-17
5683.92312 1.40494e-17
5685.39532 1.40060e-17
5686.86753 1.40265e-17
5688.32972 1.40371e-17
5689.80192 1.40381e-17
5691.27412 1.40993e-17
5692.74633 1.40573e-17
5694.20852 1.40277e-17
5695.68073 1.41013e-17
5697.15293 1.40704e-17
5698.62514 1.39934e-17
5700.09734 1.39526e-17
5701.55953 1.39822e-17
5703.03174 1.40361e-17
5704.50394 1.41156e-17
5705.97615 1.41984e-17
5707.43834 1.41783e-17
5708.91054 1.41529e-17
5710.38274 1.42165e-17
5711.85495 1.42011e-17
5713.31714 1.42405e-17
5714.78935 1.42701e-17
5716.26155 1.43464e-17
5717.73376 1.43558e-17
5719.20596 1.43290e-17
5720.66815 1.43613e-17
5722.14036 1.43675e-17
5723.61256 1.44823e-17
5725.08477 1.45113e-17
5726.54696 1.45132e-17
5728.01916 1.45398e-17
5729.49136 1.46262e-17
5730.96357 1.45984e-17
5732.43578 1.46347e-17
5733.89797 1.47267e-17
5735.37017 1.47389e-17
5736.84238 1.46853e-17
5738.31458 1.47585e-17
5739.77677 1.48828e-17
5741.24897 1.48981e-17
5742.72118 1.48931e-17
5744.19339 1.49668e-17
5745.66559 1.49711e-17
5747.12778 1.49591e-17
5748.59998 1.49649e-17
5750.07219 1.49937e-17
5751.54440 1.50004e-17
5753.00659 1.50263e-17
5754.47879 1.50004e-17
5755.95100 1.50352e-17
5757.42320 1.51048e-17
5758.89541 1.50625e-17
5760.35759 1.51352e-17
5761.82980 1.51217e-17
5763.30201 1.51450e-17
5764.77421 1.51366e-17
5766.23640 1.52562e-17
5767.70860 1.53279e-17
5769.18081 1.53072e-17
5770.65302 1.54057e-17
5772.11521 1.53786e-17
5773.58741 1.53678e-17
5775.05962 1.54570e-17
5776.53182 1.54351e-17
5778.00403 1.54383e-17
5779.46622 1.54285e-17
5780.93842 1.54890e-17
5782.41063 1.55599e-17
5783.88283 1.55181e-17
5785.34502 1.55721e-17
5786.81722 1.56065e-17
5788.28943 1.55769e-17
5789.76164 1.54928e-17
5791.23384 1.55479e-17
5792.69603 1.55838e-17
5794.16824 1.55474e-17
5795.64044 1.56353e-17
5797.11265 1.56957e-17
5798.57484 1.55998e-17
5800.04704 1.56612e-17
5801.51925 1.56329e-17
5802.99145 1.55846e-17
5804.45364 1.56812e-17
5805.92584 1.56679e-17
5807.39805 1.57214e-17
5808.87026 1.58078e-17
5810.34246 1.58203e-17
5811.80465 1.57623e-17
5813.27686 1.57475e-17
5814.74906 1.57869e-17
5816.22127 1.57472e-17
5817.68346 1.57341e-17
5819.15566 1.56833e-17
5820.62787 1.56793e-17
5822.10007 1.55961e-17
5823.57228 1.55564e-17
5825.03447 1.56059e-17
5826.50667 1.56207e-17
5827.97888 1.55671e-17
5829.45108 1.56123e-17
5830.91327 1.55346e-17
5832.38548 1.55700e-17
5833.85768 1.54882e-17
5835.32989 1.55510e-17
5836.79208 1.56327e-17
5838.26428 1.55308e-17
5839.73649 1.55106e-17
5841.20869 1.55873e-17
5842.68090 1.55351e-17
5844.14309 1.55116e-17
5845.61529 1.54337e-17
5847.08750 1.54039e-17
5848.55970 1.54414e-17
5850.02189 1.54530e-17
5851.49410 1.54554e-17
5852.96630 1.54964e-17
5854.43851 1.54004e-17
5855.91071 1.53010e-17
5857.37290 1.52870e-17
5858.84511 1.52915e-17
5860.31731 1.52931e-17
5861.78952 1.51910e-17
5863.25171 1.52056e-17
5864.72391 1.52114e-17
5866.19611 1.51822e-17
5867.66832 1.50756e-17
5869.14053 1.50496e-17
5870.60272 1.50255e-17
5872.07492 1.49993e-17
5873.54713 1.49430e-17
5875.01933 1.48136e-17
5876.48152 1.48566e-17
5877.95373 1.49363e-17
5879.42593 1.48826e-17
5880.89814 1.48275e-17
5882.37034 1.47874e-17
5883.83253 1.46807e-17
5885.30473 1.46286e-17
5886.77694 1.45422e-17
5888.24915 1.43591e-17
5889.71134 1.41443e-17
5891.18354 1.38809e-17
5892.65575 1.33731e-17
5894.12795 1.24639e-17
5895.59014 1.11605e-17
5897.06235 9.92155e-18
5898.53455 9.47230e-18
5900.00676 9.62780e-18
5901.47896 9.69119e-18
5902.94115 9.68217e-18
5904.41335 1.01277e-17
5905.88556 1.10724e-17
5907.35777 1.22606e-17
5908.81996 1.31630e-17
5910.29216 1.36158e-17
5911.76436 1.39020e-17
5913.23657 1.41025e-17
5914.70878 1.41800e-17
5916.17097 1.41749e-17
5917.64317 1.41769e-17
5919.11538 1.42013e-17
5920.58758 1.41754e-17
5922.04977 1.41037e-17
5923.52197 1.40734e-17
5924.99418 1.41162e-17
5926.46639 1.41456e-17
5927.92858 1.42182e-17
5929.40078 1.43287e-17
5930.87298 1.42960e-17
5932.34519 1.41827e-17
5933.81740 1.41599e-17
5935.27959 1.41657e-17
5936.75179 1.41363e-17
5938.22400 1.41538e-17
5939.69620 1.41285e-17
5941.15839 1.40300e-17
5942.63059 1.40325e-17
5944.10280 1.41034e-17
5945.57501 1.41403e-17
5947.04721 1.42032e-17
5948.50940 1.42101e-17
5949.98160 1.41620e-17
5951.45381 1.41964e-17
5952.92602 1.41546e-17
5954.38821 1.40957e-17
5955.86041 1.41115e-17
5957.33262 1.41322e-17
5958.80482 1.41097e-17
5960.27703 1.41490e-17
5961.73922 1.40826e-17
5963.21142 1.40673e-17
5964.68363 1.40935e-17
5966.15583 1.40860e-17
5967.61802 1.40473e-17
5969.09022 1.40136e-17
5970.56243 1.39885e-17
5972.03464 1.39777e-17
5973.50684 1.40052e-17
5974.96903 1.39955e-17
5976.44124 1.40186e-17
5977.91344 1.39256e-17
5979.38565 1.39470e-17
5980.84784 1.40058e-17
5982.32004 1.39737e-17
5983.79225 1.39315e-17
5985.26445 1.39763e-17
5986.72664 1.39843e-17
5988.19884 1.39821e-17
5989.67105 1.40045e-17
5991.14326 1.39489e-17
5992.61546 1.39986e-17
5994.07765 1.40510e-17
5995.54986 1.40056e-17
5997.02206 1.39380e-17
5998.49427 1.39378e-17
5999.95646 1.39822e-17
6001.42866 1.39390e-17
6002.90087 1.38955e-17
6004.37307 1.38437e-17
6005.84528 1.38635e-17
6007.30747 1.38018e-17
6008.77967 1.38150e-17
6010.25187 1.38098e-17
6011.72408 1.38039e-17
6013.18627 1.37960e-17
6014.65848 1.37400e-17
6016.13068 1.37037e-17
6017.60289 1.37213e-17
6019.06508 1.36971e-17
6020.53728 1.37043e-17
6022.00949 1.36286e-17
6023.48169 1.36349e-17
6024.95390 1.35740e-17
6026.41609 1.34537e-17
6027.88829 1.34825e-17
6029.36049 1.35252e-17
6030.83270 1.33541e-17
6032.29489 1.33084e-17
6033.76710 1.33498e-17
6035.23930 1.32831e-17
6036.71151 1.32709e-17
6038.18371 1.32437e-17
6039.64590 1.31851e-17
6041.11811 1.30945e-17
6042.59031 1.31011e-17
6044.06252 1.30064e-17
6045.52471 1.29487e-17
6046.99691 1.28852e-17
6048.46911 1.28950e-17
6049.94132 1.28175e-17
6051.41353 1.26560e-17
6052.87572 1.26886e-17
6054.34792 1.26417e-17
6055.82013 1.24689e-17
6057.29233 1.24421e-17
6058.75452 1.24265e-17
6060.22672 1.23698e-17
6061.69893 1.23016e-17
6063.17114 1.21845e-17
6064.63333 1.21315e-17
6066.10553 1.20726e-17
6067.57773 1.19747e-17
6069.04994 1.19451e-17
6070.52215 1.19163e-17
6071.98434 1.17766e-17
6073.45654 1.16973e-17
6074.92875 1.16288e-17
6076.40095 1.16073e-17
6077.86314 1.15056e-17
6079.33534 1.14568e-17
6080.80755 1.13960e-17
6082.27976 1.13111e-17
6083.75196 1.12616e-17
6085.21415 1.12178e-17
6086.68635 1.12092e-17
6088.15856 1.11882e-17
6089.63077 1.10913e-17
6091.09296 1.09838e-17
6092.56516 1.09749e-17
6094.03737 1.09515e-17
6095.50957 1.09384e-17
6096.98178 1.08816e-17
6098.44397 1.08027e-17
6099.91617 1.07865e-17
6101.38838 1.07468e-17
6102.86058 1.07008e-17
6104.32277 1.06746e-17
6105.79497 1.06418e-17
6107.26718 1.06348e-17
6108.73939 1.06035e-17
6110.20158 1.06169e-17
6111.67378 1.06389e-17
6113.14599 1.06116e-17
6114.61819 1.05455e-17
6116.09040 1.04811e-17
6117.55259 1.04167e-17
6119.02479 1.03186e-17
6120.49700 1.03161e-17
6121.96920 1.03662e-17
6123.43139 1.03207e-17
6124.90359 1.02663e-17
6126.37580 1.02564e-17
6127.84801 1.02498e-17
6129.32021 1.02682e-17
6130.78240 1.02372e-17
6132.25461 1.02024e-17
6133.72681 1.02047e-17
6135.19902 1.02096e-17
6136.66121 1.02430e-17
6138.13341 1.02281e-17
6139.60562 1.02218e-17
6141.07782 1.02361e-17
6142.55003 1.02080e-17
6144.01222 1.02055e-17
6145.48442 1.02575e-17
6146.95663 1.02668e-17
6148.42883 1.02122e-17
6149.89102 1.02023e-17
6151.36323 1.02407e-17
6152.83543 1.02467e-17
6154.30764 1.02326e-17
6155.76983 1.02413e-17
6157.24203 1.02518e-17
6158.71424 1.02718e-17
6160.18644 1.02717e-17
6161.65865 1.02301e-17
6163.12084 1.02357e-17
6164.59304 1.02658e-17
6166.06525 1.01987e-17
6167.53745 1.02134e-17
6168.99964 1.02690e-17
6170.47185 1.02441e-17
6171.94405 1.02596e-17
6173.41626 1.03071e-17
6174.88846 1.03168e-17
6176.35065 1.03688e-17
6177.82286 1.04047e-17
6179.29506 1.03998e-17
6180.76727 1.04020e-17
6182.22946 1.04041e-17
6183.70166 1.04067e-17
6185.17386 1.04203e-17
6186.64607 1.04339e-17
6188.10826 1.05037e-17
6189.58047 1.04973e-17
6191.05267 1.04642e-17
6192.52488 1.05093e-17
6193.99708 1.05452e-17
6195.45927 1.05921e-17
6196.93148 1.06306e-17
6198.40368 1.06042e-17
6199.87589 1.05754e-17
6201.33808 1.06351e-17
6202.81028 1.07009e-17
6204.28248 1.07622e-17
6205.75469 1.08019e-17
6207.22690 1.08032e-17
6208.68909 1.08118e-17
6210.16129 1.08069e-17
6211.63350 1.08637e-17
6213.10570 1.09518e-17
6214.56789 1.10111e-17
6216.04010 1.10324e-17
6217.51230 1.10747e-17
6218.98451 1.11574e-17
6220.45671 1.11801e-17
6221.91890 1.11968e-17
6223.39110 1.13328e-17
6224.86331 1.14047e-17
6226.33552 1.13807e-17
6227.79771 1.14123e-17
6229.26991 1.14964e-17
6230.74212 1.15158e-17
6232.21432 1.14581e-17
6233.68653 1.14947e-17
6235.14872 1.16093e-17
6236.62092 1.16583e-17
6238.09313 1.17094e-17
6239.56533 1.17254e-17
6241.02752 1.17523e-17
6242.49972 1.18354e-17
6243.97193 1.18922e-17
6245.44414 1.19621e-17
6246.90633 1.20120e-17
6248.37853 1.20525e-17
6249.85073 1.20764e-17
6251.32294 1.20792e-17
6252.79515 1.20997e-17
6254.25734 1.21317e-17
6255.72954 1.22031e-17
6257.20175 1.22617e-17
6258.67395 1.23563e-17
6260.13614 1.24620e-17
6261.60834 1.25010e-17
6263.08055 1.24667e-17
6264.55276 1.24164e-17
6266.02496 1.24316e-17
6267.48715 1.25138e-17
6268.95935 1.25784e-17
6270.43156 1.26191e-17
6271.90377 1.26113e-17
6273.36596 1.26519e-17
6274.83816 1.27699e-17
6276.31037 1.28215e-17
6277.78257 1.28164e-17
6279.24476 1.27797e-17
6280.71697 1.27604e-17
6282.18917 1.27761e-17
6283.66138 1.27826e-17
6285.13358 1.28373e-17
6286.59577 1.28935e-17
6288.06797 1.29419e-17
6289.54018 1.30120e-17
6291.01239 1.30026e-17
6292.47458 1.29487e-17
6293.94678 1.30180e-17
6295.41899 1.29950e-17
6296.89119 1.29671e-17
6298.36340 1.30451e-17
6299.82559 1.30773e-17
6301.29779 1.31139e-17
6302.77000 1.31646e-17
6304.24220 1.31443e-17
6305.70439 1.31149e-17
6307.17659 1.31201e-17
6308.64880 1.31610e-17
6310.12101 1.31721e-17
6311.58320 1.31728e-17
6313.05540 1.31694e-17
6314.52761 1.31206e-17
6315.99981 1.30872e-17
6317.47202 1.31343e-17
6318.93421 1.32058e-17
6320.40641 1.32143e-17
6321.87862 1.31550e-17
6323.35082 1.30942e-17
6324.81301 1.30645e-17
6326.28522 1.31188e-17
6327.75742 1.31526e-17
6329.22962 1.31011e-17
6330.70183 1.29923e-17
6332.16402 1.29178e-17
6333.63623 1.29693e-17
6335.10843 1.30277e-17
6336.58064 1.31140e-17
6338.04283 1.31453e-17
6339.51503 1.30828e-17
6340.98724 1.30251e-17
6342.45944 1.30535e-17
6343.93165 1.31199e-17
6345.39384 1.31868e-17
6346.86604 1.31578e-17
6348.33824 1.30570e-17
6349.81045 1.30451e-17
6351.27264 1.30012e-17
6352.74485 1.28811e-17
6354.21705 1.28119e-17
6355.68926 1.28016e-17
6357.16146 1.27839e-17
6358.62365 1.27322e-17
6360.09586 1.27298e-17
6361.56806 1.27650e-17
6363.04027 1.27804e-17
6364.50246 1.27815e-17
6365.97466 1.27544e-17
6367.44686 1.27047e-17
6368.91907 1.27037e-17
6370.38126 1.26854e-17
6371.85347 1.26327e-17
6373.32567 1.26680e-17
6374.79788 1.27134e-17
6376.27008 1.27210e-17
6377.73227 1.27242e-17
6379.20447 1.26808e-17
6380.67668 1.26638e-17
6382.14889 1.27076e-17
6383.61108 1.27398e-17
6385.08328 1.26851e-17
6386.55548 1.26613e-17
6388.02769 1.27069e-17
6389.49990 1.27630e-17
6390.96209 1.27895e-17
6392.43429 1.27795e-17
6393.90650 1.28153e-17
6395.37870 1.28939e-17
6396.84089 1.28860e-17
6398.31309 1.28620e-17
6399.78530 1.28659e-17
6401.25751 1.28396e-17
6402.71970 1.28449e-17
6404.19190 1.28565e-17
6405.66410 1.28715e-17
6407.13631 1.27916e-17
6408.60852 1.28057e-17
6410.07071 1.28797e-17
6411.54291 1.28959e-17
6413.01512 1.29267e-17
6414.48732 1.29523e-17
6415.94951 1.30061e-17
6417.42172 1.30357e-17
6418.89392 1.30494e-17
6420.36613 1.30851e-17
6421.83833 1.31139e-17
6423.30052 1.30451e-17
6424.77272 1.30404e-17
6426.24493 1.30899e-17
6427.71714 1.30137e-17
6429.17933 1.29615e-17
6430.65153 1.30485e-17
6432.12374 1.31306e-17
6433.59594 1.32156e-17
6435.05813 1.32044e-17
6436.53034 1.32249e-17
6438.00254 1.32097e-17
6439.47475 1.32346e-17
6440.94695 1.32320e-17
6442.40914 1.32669e-17
6443.88134 1.33097e-17
6445.35355 1.32720e-17
6446.82576 1.32518e-17
6448.28795 1.32140e-17
6449.76015 1.32669e-17
6451.23236 1.32682e-17
6452.70456 1.32922e-17
6454.17677 1.33820e-17
6455.63896 1.33468e-17
6457.11116 1.32822e-17
6458.58337 1.32557e-17
6460.05557 1.32920e-17
6461.51776 1.33357e-17
6462.98997 1.32772e-17
6464.46217 1.32178e-17
6465.93438 1.32441e-17
6467.40658 1.32644e-17
6468.86877 1.31615e-17
6470.34098 1.31536e-17
6471.81318 1.31366e-17
6473.28539 1.31871e-17
6474.74758 1.31958e-17
6476.21978 1.31279e-17
6477.69199 1.32202e-17
6479.16419 1.33009e-17
6480.63640 1.32427e-17
6482.09859 1.32600e-17
6483.57079 1.32756e-17
6485.04300 1.32477e-17
6486.51520 1.33376e-17
6487.97739 1.33709e-17
6489.44960 1.33920e-17
6490.92180 1.33972e-17
6492.39401 1.34307e-17
6493.85620 1.34827e-17
6495.32840 1.34667e-17
6496.80061 1.34630e-17
6498.27281 1.34818e-17
6499.74502 1.34716e-17
6501.20721 1.35486e-17
6502.67941 1.35815e-17
6504.15162 1.35846e-17
6505.62382 1.35813e-17
6507.08601 1.35761e-17
6508.55822 1.35528e-17
6510.03042 1.35623e-17
6511.50263 1.35942e-17
6512.97483 1.35287e-17
6514.43702 1.34768e-17
6515.90923 1.35364e-17
6517.38143 1.35885e-17
6518.85364 1.35665e-17
6520.31583 1.35377e-17
6521.78803 1.35631e-17
6523.26023 1.35786e-17
6524.73244 1.35295e-17
6526.19463 1.35772e-17
6527.66684 1.36907e-17
6529.13904 1.36701e-17
6530.61125 1.36172e-17
6532.08345 1.36061e-17
6533.54564 1.36306e-17
6535.01785 1.36442e-17
6536.49005 1.36921e-17
6537.96226 1.37054e-17
6539.42445 1.36823e-17
6540.89665 1.37442e-17
6542.36885 1.37213e-17
6543.84106 1.37085e-17
6545.31327 1.36956e-17
6546.77546 1.36828e-17
6548.24766 1.36700e-17
6549.71987 1.36572e-17
6551.19207 1.36443e-17
6552.65426 1.36315e-17
6554.12647 1.36187e-17
6555.59867 1.36059e-17
6557.07088 1.35930e-17
6558.54308 1.35802e-17
6560.00527 1.35674e-17
6561.47747 1.35546e-17
6562.94968 1.35418e-17
6564.42189 1.35289e-17
6565.88408 1.35161e-17
6567.35628 1.35033e-17
6568.82849 1.34905e-17
6570.30069 1.34777e-17
6571.76288 1.34648e-17
6573.23509 1.34520e-17
6574.70729 1.34392e-17
6576.17950 1.34264e-17
6577.65170 1.34136e-17
6579.11389 1.34008e-17
6580.58609 1.33880e-17
6582.05830 1.33751e-17
6583.53051 1.33623e-17
6584.99270 1.33495e-17
6586.46490 1.33367e-17
6587.93710 1.33239e-17
6589.40931 1.33111e-17
6590.88152 1.32983e-17
6592.34371 1.32855e-17
6593.81591 1.32727e-17
6595.28812 1.32599e-17
6596.76032 1.32470e-17
6598.22251 1.32342e-17
6599.69472 1.32214e-17
6601.16692 1.32086e-17
6602.63913 1.31958e-17
6604.11133 1.31830e-17
6605.57352 1.31997e-17
6607.04572 1.31202e-17
6608.51793 1.31008e-17
6609.99014 1.30434e-17
6611.45233 1.30118e-17
6612.92453 1.30192e-17
6614.39674 1.30025e-17
6615.86894 1.29781e-17
6617.33113 1.29531e-17
6618.80334 1.28664e-17
6620.27554 1.29507e-17
6621.74775 1.29110e-17
6623.21995 1.28381e-17
6624.68214 1.28217e-17
6626.15434 1.28400e-17
6627.62655 1.28320e-17
6629.09876 1.27378e-17
6630.56095 1.27848e-17
6632.03315 1.27852e-17
6633.50536 1.27567e-17
6634.97756 1.27578e-17
6636.44977 1.26988e-17
6637.91196 1.26819e-17
6639.38416 1.26043e-17
6640.85637 1.25870e-17
6642.32857 1.26081e-17
6643.79076 1.25714e-17
6645.26297 1.25957e-17
6646.73517 1.25311e-17
6648.20737 1.25663e-17
6649.67958 1.24893e-17
6651.14177 1.25591e-17
6652.61398 1.25778e-17
6654.08618 1.25621e-17
6655.55839 1.25193e-17
6657.02058 1.25239e-17
6658.49278 1.24649e-17
6659.96499 1.24904e-17
6661.43719 1.24919e-17
6662.89938 1.25100e-17
6664.37159 1.25215e-17
6665.84379 1.25004e-17
6667.31599 1.24353e-17
6668.78820 1.23885e-17
6670.25039 1.23488e-17
6671.72260 1.23316e-17
6673.19480 1.23071e-17
6674.66701 1.22582e-17
6676.12920 1.22256e-17
6677.60140 1.22082e-17
6679.07361 1.22128e-17
6680.54581 1.22226e-17
6682.01802 1.22609e-17
6683.48021 1.21919e-17
6684.95241 1.21833e-17
6686.42461 1.21929e-17
6687.89682 1.20950e-17
6689.35901 1.20966e-17
6690.83122 1.20707e-17
6692.30342 1.20737e-17
6693.77563 1.19407e-17
6695.23782 1.19571e-17
6696.71002 1.19884e-17
6698.18222 1.19276e-17
6699.65443 1.18943e-17
6701.12664 1.19360e-17
6702.58883 1.19507e-17
6704.06103 1.18971e-17
6705.53323 1.19144e-17
6707.00544 1.19491e-17
6708.46763 1.19097e-17
6709.93984 1.18678e-17
6711.41204 1.18805e-17
6712.88425 1.18077e-17
6714.35645 1.17792e-17
6715.81864 1.18459e-17
6717.29084 1.18196e-17
6718.76305 1.17661e-17
6720.23526 1.17674e-17
6721.69745 1.17890e-17
6723.16965 1.18151e-17
6724.64185 1.17290e-17
6726.11406 1.16100e-17
6727.58627 1.17016e-17
6729.04846 1.16911e-17
6730.52066 1.16649e-17
6731.99287 1.16950e-17
6733.46507 1.16370e-17
6734.92726 1.16097e-17
6736.39947 1.16113e-17
6737.87167 1.16316e-17
6739.34388 1.16146e-17
6740.81608 1.15652e-17
6742.27827 1.15176e-17
6743.75047 1.14772e-17
6745.22268 1.14840e-17
6746.69489 1.14333e-17
6748.15708 1.13689e-17
6749.62928 1.13921e-17
6751.10149 1.13384e-17
6752.57369 1.12806e-17
6754.03588 1.12515e-17
6755.50809 1.12424e-17
6756.98029 1.11907e-17
6758.45250 1.11898e-17
6759.92470 1.12467e-17
6761.38689 1.11680e-17
6762.85909 1.11927e-17
6764.33130 1.12017e-17
6765.80351 1.11338e-17
6767.26570 1.11161e-17
6768.73790 1.11111e-17
6770.21011 1.10794e-17
6771.68231 1.10852e-17
6773.15452 1.10597e-17
6774.61671 1.10548e-17
6776.08891 1.09982e-17
6777.56112 1.09185e-17
6779.03332 1.09256e-17
6780.49551 1.08926e-17
6781.96772 1.08617e-17
6783.43992 1.08928e-17
6784.91213 1.08883e-17
6786.37432 1.09032e-17
6787.84652 1.08406e-17
6789.31873 1.08137e-17
6790.79093 1.08210e-17
6792.26314 1.08157e-17
6793.72533 1.07944e-17
6795.19753 1.07539e-17
6796.66974 1.07372e-17
6798.14194 1.07413e-17
6799.60413 1.06455e-17
6801.07634 1.05925e-17
6802.54854 1.06182e-17
6804.02075 1.05852e-17
6805.49295 1.05400e-17
6806.95514 1.05299e-17
6808.42735 1.05173e-17
6809.89955 1.04379e-17
6811.37176 1.04290e-17
6812.83395 1.04843e-17
6814.30615 1.04719e-17
6815.77836 1.04266e-17
6817.25056 1.04982e-17
6818.72277 1.04334e-17
6820.18496 1.04152e-17
6821.65716 1.04609e-17
6823.12937 1.03921e-17
6824.60157 1.03783e-17
6826.06376 1.02747e-17
6827.53597 1.02733e-17
6829.00817 1.03108e-17
6830.48038 1.02698e-17
6831.95258 1.02057e-17
6833.41477 1.02303e-17
6834.88698 1.02260e-17
6836.35918 1.01961e-17
6837.83139 1.01653e-17
6839.29358 1.01443e-17
6840.76578 1.01961e-17
6842.23798 1.02504e-17
6843.71019 1.01405e-17
6845.17238 1.01828e-17
6846.64459 1.01886e-17
6848.11679 1.01855e-17
6849.58900 1.01836e-17
6851.06120 1.01845e-17
6852.52339 1.01234e-17
6853.99560 1.00851e-17
6855.46780 1.01015e-17
6856.94001 1.01654e-17
6858.40220 1.01231e-17
6859.87440 1.01049e-17
6861.34660 1.01161e-17
6862.81881 1.00908e-17
6864.29102 1.00304e-17
6865.75321 1.00350e-17
6867.22541 1.00609e-17
6868.69762 1.01282e-17
6870.16982 1.01428e-17
6871.63201 1.00451e-17
6873.10422 1.00145e-17
6874.57642 1.00556e-17
6876.04863 1.00027e-17
6877.51082 9.90701e-18
6878.98302 1.00085e-17
6880.45522 1.00754e-17
6881.92743 9.98201e-18
6883.39964 1.00390e-17
6884.86183 1.00571e-17
6886.33403 1.00654e-17
6887.80624 1.00701e-17
6889.27844 1.00626e-17
6890.74063 1.01009e-17
6892.21284 1.00379e-17
6893.68504 1.00043e-17
6895.15725 9.93001e-18
6896.62945 9.92578e-18
6898.09164 9.90067e-18
6899.56384 9.87306e-18
6901.72709 9.93255e-18
6903.72007 1.00009e-17
6905.72307 1.00646e-17
6907.72607 1.00618e-17
6909.72907 1.00233e-17
6911.72206 1.00030e-17
6913.72505 9.96646e-18
6915.72806 9.96679e-18
6917.72104 1.00190e-17
6919.72404 1.00457e-17
6921.72704 1.00221e-17
6923.72003 9.98513e-18
6925.72303 9.98144e-18
6927.72603 1.00080e-17
6929.71901 9.99845e-18
6931.72201 9.94781e-18
6933.72501 9.93094e-18
6935.72801 9.97148e-18
6937.72100 1.00081e-17
6939.72400 9.98967e-18
6941.72699 9.94280e-18
6943.71998 9.92646e-18
6945.72298 9.93151e-18
6947.72598 9.92120e-18
6949.71897 9.90037e-18
6951.72197 9.87867e-18
6953.72497 9.86363e-18
6955.71795 9.85332e-18
6957.72095 9.83939e-18
6959.72395 9.81880e-18
6961.72695 9.81596e-18
6963.71994 9.83651e-18
6965.72294 9.84075e-18
6967.72594 9.81883e-18
6969.71892 9.80156e-18
6971.72192 9.82580e-18
6973.72492 9.86129e-18
6975.71791 9.80952e-18
6977.72091 9.65653e-18
6979.72391 9.59021e-18
6981.71689 9.55720e-18
6983.71989 9.55430e-18
6985.72289 9.57499e-18
6987.72589 9.61555e-18
6989.71888 9.69156e-18
6991.72188 9.79703e-18
6993.72488 9.78278e-18
6995.71786 9.62317e-18
6997.72086 9.58537e-18
6999.72386 9.65509e-18
7001.71684 9.68476e-18
7003.71984 9.62542e-18
7005.72285 9.54481e-18
7007.71583 9.52201e-18
7009.71883 9.53857e-18
7011.72183 9.51580e-18
7013.72483 9.44974e-18
7015.71782 9.42751e-18
7017.72082 9.46401e-18
7019.72382 9.50811e-18
7021.71680 9.52253e-18
7023.71980 9.51792e-18
7025.72280 9.51004e-18
7027.71579 9.48912e-18
7029.71879 9.49348e-18
7031.72178 9.51734e-18
7033.71477 9.53912e-18
7035.71777 9.56472e-18
7037.72077 9.58316e-18
7039.72377 9.58871e-18
7041.71676 9.58753e-18
7043.71976 9.56199e-18
7045.72276 9.47588e-18
7047.71574 9.46818e-18
7049.71874 9.53358e-18
7051.72174 9.59364e-18
7053.71472 9.63394e-18
7055.71773 9.67040e-18
7057.72073 9.69268e-18
7059.71371 9.70336e-18
7061.71671 9.70309e-18
7063.71971 9.68303e-18
7065.72271 9.66829e-18
7067.71570 9.65971e-18
7069.71870 9.66106e-18
7071.72170 9.67011e-18
7073.71468 9.68654e-18
7075.71768 9.69807e-18
7077.72068 9.70814e-18
7079.71367 9.71741e-18
7081.71666 9.73192e-18
7083.71966 9.73595e-18
7085.71265 9.71771e-18
7087.71565 9.69887e-18
7089.71865 9.71106e-18
7091.72165 9.74194e-18
7093.71464 9.77684e-18
7095.71764 9.83758e-18
7097.72064 9.87041e-18
7099.71362 9.87564e-18
7101.71662 9.87380e-18
7103.71962 9.87549e-18
7105.71260 9.87115e-18
7107.71561 9.84352e-18
7109.71861 9.79019e-18
7111.71159 9.75564e-18
7113.71459 9.70980e-18
7115.71759 9.70023e-18
7117.72059 9.74881e-18
7119.71358 9.81030e-18
7121.71658 9.84523e-18
7123.71958 9.87427e-18
7125.71256 9.88742e-18
7127.71556 9.87544e-18
7129.71856 9.87812e-18
7131.71155 9.90278e-18
7133.71454 9.90791e-18
7135.71755 9.87286e-18
7137.71053 9.82525e-18
7139.71353 9.79980e-18
7141.71653 9.77748e-18
7143.71953 9.77645e-18
7145.71252 9.79480e-18
7147.71552 9.82210e-18
7149.71852 9.86780e-18
7151.71150 9.90881e-18
7153.71450 9.93173e-18
7155.71750 9.94870e-18
7157.71049 9.95806e-18
7159.71349 9.95029e-18
7161.71648 9.95139e-18
7163.70947 9.96310e-18
7165.71247 9.96908e-18
7167.71547 9.95554e-18
7169.71847 9.93764e-18
7171.71146 9.93945e-18
7173.71446 9.95605e-18
7175.71746 9.93499e-18
7177.71044 9.84715e-18
7179.71344 9.84132e-18
7181.71644 9.91891e-18
7183.70943 1.00057e-17
7185.71243 1.00871e-17
7187.71543 1.01654e-17
7189.70841 1.01543e-17
7191.71141 1.00486e-17
7193.71441 9.97836e-18
7195.71741 9.89731e-18
7197.71040 9.83028e-18
7199.71340 9.76587e-18
7201.71640 9.72599e-18
7203.70938 9.73613e-18
7205.71238 9.77849e-18
7207.71538 9.75902e-18
7209.70837 9.67486e-18
7211.71137 9.65282e-18
7213.71436 9.65612e-18
7215.70735 9.68853e-18
7217.71035 9.77875e-18
7219.71335 9.88100e-18
7221.71635 9.90526e-18
7223.70934 9.88276e-18
7225.71234 9.85197e-18
7227.71534 9.76811e-18
7229.70832 9.73086e-18
7231.71132 9.75009e-18
7233.71432 9.78004e-18
7235.70730 9.79166e-18
7237.71031 9.79541e-18
7239.71331 9.78181e-18
7241.70629 9.74535e-18
7243.70929 9.71993e-18
7245.71229 9.70218e-18
7247.71529 9.67573e-18
7249.70828 9.63165e-18
7251.71128 9.58450e-18
7253.71428 9.54772e-18
7255.70726 9.51091e-18
7257.71026 9.52271e-18
7259.71326 9.61940e-18
7261.70625 9.63056e-18
7263.70925 9.57288e-18
7265.71225 9.49744e-18
7267.70523 9.39408e-18
7269.70823 9.28420e-18
7271.71123 9.27981e-18
7273.71423 9.37736e-18
7275.70722 9.41024e-18
7277.71022 9.43146e-18
7279.71322 9.43321e-18
7281.70620 9.39660e-18
7283.70920 9.36822e-18
7285.71220 9.40175e-18
7287.70519 9.47359e-18
7289.70819 9.46857e-18
7291.71119 9.41166e-18
7293.70417 9.34901e-18
7295.70717 9.25280e-18
7297.71017 9.17531e-18
7299.71317 9.12623e-18
7301.70616 9.09302e-18
7303.70916 9.05897e-18
7305.71216 9.02520e-18
7307.70514 9.02014e-18
7309.70814 9.05768e-18
7311.71114 9.06526e-18
7313.70413 9.04658e-18
7315.70713 9.02176e-18
7317.71013 8.99882e-18
7319.71313 8.97675e-18
7321.70611 8.96853e-18
7323.70911 8.98275e-18
7325.71211 8.96447e-18
7327.70510 8.91455e-18
7329.70809 8.87710e-18
7331.71109 8.86136e-18
7333.70408 8.84789e-18
7335.70708 8.81495e-18
7337.71008 8.76981e-18
7339.70307 8.73652e-18
7341.70607 8.70949e-18
7343.70907 8.68114e-18
7345.71207 8.65544e-18
7347.70505 8.62448e-18
7349.70805 8.58210e-18
7351.71105 8.54141e-18
7353.70403 8.52697e-18
7355.70704 8.53346e-18
7357.71004 8.52425e-18
7359.70302 8.50973e-18
7361.70602 8.49473e-18
7363.70902 8.46670e-18
7365.70201 8.45296e-18
7367.70501 8.48694e-18
7369.70801 8.54565e-18
7371.71101 8.50393e-18
7373.70399 8.35095e-18
7375.70699 8.28764e-18
7377.70999 8.28846e-18
7379.70298 8.27274e-18
7381.70597 8.22688e-18
7383.70898 8.17186e-18
7385.70196 8.11303e-18
7387.70496 8.03717e-18
7389.70796 8.02555e-18
7391.70095 8.09278e-18
7393.70395 8.10753e-18
7395.70695 8.07431e-18
7397.69993 8.04683e-18
7399.70293 8.04729e-18
7401.70593 8.05381e-18
7403.70893 8.04149e-18
7405.70191 8.03044e-18
7407.70492 7.99234e-18
7409.70791 7.91462e-18
7411.70090 7.85546e-18
7413.70390 7.83067e-18
7415.70690 7.81236e-18
7417.69989 7.77574e-18
7419.70289 7.72973e-18
7421.70589 7.68217e-18
7423.69887 7.61558e-18
7425.70187 7.58261e-18
7427.70487 7.58086e-18
7429.70787 7.57258e-18
7431.70086 7.55056e-18
7433.70385 7.52327e-18
7435.70686 7.49941e-18
7437.69984 7.47480e-18
7439.70284 7.45893e-18
7441.70584 7.45311e-18
7443.69883 7.44480e-18
7445.70183 7.43424e-18
7447.70483 7.41534e-18
7449.69781 7.39198e-18
7451.70081 7.36852e-18
7453.70381 7.33935e-18
7455.70681 7.30089e-18
7457.69980 7.27114e-18
7459.70280 7.24891e-18
7461.70579 7.22118e-18
7463.69878 7.18893e-18
7465.70178 7.16319e-18
7467.70478 7.14844e-18
7469.69777 7.14246e-18
7471.70077 7.12555e-18
7473.70377 7.09467e-18
7475.69675 7.08120e-18
7477.69975 7.08244e-18
7479.70275 7.08747e-18
7481.70575 7.09480e-18
7483.69873 7.10297e-18
7485.70174 7.11057e-18
7487.70474 7.12459e-18
7489.69772 7.12625e-18
7491.70072 7.11691e-18
7493.70372 7.10876e-18
7495.69671 7.10021e-18
7497.69971 7.09206e-18
7499.70271 7.08941e-18
7501.70571 7.09032e-18
7503.69869 7.08470e-18
7505.70169 7.07216e-18
7507.70469 7.06679e-18
7509.69768 7.06688e-18
7511.70068 7.06530e-18
7513.70368 7.06469e-18
7515.69666 7.05963e-18
7517.69966 7.03877e-18
7519.70266 7.00506e-18
7521.69565 6.98751e-18
7523.69865 6.97883e-18
7525.70165 6.97080e-18
7527.70465 6.96927e-18
7529.69763 6.96536e-18
7531.70063 6.95284e-18
7533.70363 6.93947e-18
7535.69661 6.94557e-18
7537.69962 6.97054e-18
7539.70262 6.98209e-18
7541.69560 6.98573e-18
7543.69860 6.99611e-18
7545.70160 7.01246e-18
7547.69459 7.02362e-18
7549.69759 7.02487e-18
7551.70059 7.01767e-18
7553.70359 7.03133e-18
7555.69657 7.05547e-18
7557.69957 7.09336e-18
7559.70257 7.15588e-18
7561.69556 7.20548e-18
7563.69855 7.23080e-18
7565.70156 7.23999e-18
7567.69454 7.23646e-18
7569.69754 7.20800e-18
7571.70054 7.20437e-18
7573.69353 7.20469e-18
7575.69653 7.22741e-18
7577.69953 7.26321e-18
7579.70253 7.32533e-18
7581.69551 7.43811e-18
7583.69851 7.59527e-18
7585.70151 7.69627e-18
7587.69450 7.73086e-18
7589.69750 7.84317e-18
7591.70050 8.07375e-18
7593.69348 8.22393e-18
7595.69648 8.26989e-18
7597.69948 8.20734e-18
7599.69247 7.94610e-18
7601.69547 7.44682e-18
7603.69847 7.23326e-18
7605.70147 7.16803e-18
7607.69445 7.16268e-18
7609.69745 7.27506e-18
7611.70045 7.37810e-18
7613.69344 7.37277e-18
7615.69644 7.32609e-18
7617.69944 7.45652e-18
7619.69242 7.79056e-18
7621.69542 7.95796e-18
7623.69842 8.07801e-18
7625.69141 8.09905e-18
7627.69441 8.00293e-18
7629.69741 7.86490e-18
7631.70041 7.74040e-18
7633.69339 7.59743e-18
7635.69639 7.55144e-18
7637.69939 7.59115e-18
7639.69238 7.62470e-18
7641.69538 7.69493e-18
7643.69838 7.74957e-18
7645.69136 7.76450e-18
7647.69436 7.77353e-18
7649.69736 7.80805e-18
7651.69034 7.84964e-18
7653.69334 7.89872e-18
7655.69635 7.96322e-18
7657.69934 8.02223e-18
7659.69233 8.07444e-18
7661.69533 8.12127e-18
7663.69833 8.16889e-18
7665.69132 8.21551e-18
7667.69432 8.24549e-18
7669.69732 8.28094e-18
7671.69030 8.26248e-18
7673.69330 8.17184e-18
7675.69630 8.10413e-18
7677.68929 8.06614e-18
7679.69229 8.05459e-18
7681.69528 8.09884e-18
7683.69829 8.20478e-18
7685.69127 8.26141e-18
7687.69427 8.29152e-18
7689.69727 8.33222e-18
7691.69026 8.38685e-18
7693.69326 8.43851e-18
7695.69626 8.48330e-18
7697.68924 8.52319e-18
7699.69224 8.53688e-18
7701.69524 8.51570e-18
7703.68822 8.51941e-18
7705.69123 8.52926e-18
7707.69423 8.54925e-18
7709.69722 8.58374e-18
7711.69021 8.61928e-18
7713.69321 8.64456e-18
7715.69621 8.66229e-18
7717.68920 8.66643e-18
7719.69220 8.65032e-18
7721.69520 8.64564e-18
7723.68818 8.64945e-18
7725.69118 8.64838e-18
7727.69418 8.62372e-18
7729.68717 8.59387e-18
7731.69016 8.60634e-18
7733.69316 8.65438e-18
7735.69617 8.66811e-18
7737.68915 8.66244e-18
7739.69215 8.65939e-18
7741.69515 8.64359e-18
7743.68814 8.64998e-18
7745.69114 8.69947e-18
7747.69414 8.77085e-18
7749.68712 8.81764e-18
7751.69012 8.85542e-18
7753.69312 8.89462e-18
7755.68610 8.94378e-18
7757.68911 8.96622e-18
7759.69211 8.94248e-18
7761.69510 8.91938e-18
7763.68809 8.95371e-18
7765.69109 9.02881e-18
7767.69409 9.03240e-18
7769.68708 8.99467e-18
7771.69008 8.93762e-18
7773.69308 8.83759e-18
7775.68606 8.74609e-18
7777.68906 8.67316e-18
7779.69206 8.61613e-18
7781.68505 8.61721e-18
7783.68804 8.68969e-18
7785.69105 8.72323e-18
7787.69405 8.75215e-18
7789.68703 8.76957e-18
7791.69003 8.78246e-18
7793.69303 8.78984e-18
7795.68602 8.77705e-18
7797.68902 8.74473e-18
7799.69202 8.74997e-18
7801.68500 8.79350e-18
7803.68800 8.80841e-18
7805.69100 8.80294e-18
7807.68399 8.79838e-18
7809.68699 8.80083e-18
7811.68998 8.80816e-18
7813.69299 8.81349e-18
7815.68597 8.82422e-18
7817.68897 8.78893e-18
7819.69197 8.70449e-18
7821.68496 8.63295e-18
7823.68796 8.55632e-18
7825.69096 8.49986e-18
7827.68394 8.47720e-18
7829.68694 8.48199e-18
7831.68994 8.50449e-18
7833.68293 8.55192e-18
7835.68593 8.59531e-18
7837.68893 8.65788e-18
7839.69193 8.70122e-18
7841.68491 8.72327e-18
7843.68791 8.72604e-18
7845.69091 8.68861e-18
7847.68390 8.60611e-18
7849.68690 8.56323e-18
7851.68990 8.54040e-18
7853.68288 8.51373e-18
7855.68588 8.50140e-18
7857.68888 8.47124e-18
7859.68187 8.38945e-18
7861.68487 8.29016e-18
7863.68786 8.24749e-18
7865.69087 8.23518e-18
7867.68385 8.23781e-18
7869.68685 8.28569e-18
7871.68985 8.30071e-18
7873.68284 8.27087e-18
7875.68584 8.24381e-18
7877.68884 8.24447e-18
7879.68182 8.26220e-18
7881.68482 8.30392e-18
7883.68782 8.39466e-18
7885.68080 8.42897e-18
7887.68381 8.44657e-18
7889.68681 8.41876e-18
7891.68980 8.32531e-18
7893.68279 8.20302e-18
7895.68579 8.09931e-18
7897.68879 7.99133e-18
7899.68178 7.91267e-18
7901.68478 7.87557e-18
7903.68778 7.80646e-18
7905.68076 7.70674e-18
7907.68376 7.59962e-18
7909.68676 7.50288e-18
7911.67975 7.41160e-18
7913.68275 7.31512e-18
7915.68575 7.21285e-18
7917.68875 7.11850e-18
7919.68173 7.01816e-18
7921.68473 6.94052e-18
7923.68773 6.89964e-18
7925.68072 6.86916e-18
7927.68372 6.81544e-18
7929.68672 6.75181e-18
7931.67970 6.71225e-18
7933.68270 6.70990e-18
7935.68570 6.66123e-18
7937.67869 6.56875e-18
7939.68169 6.48935e-18
7941.68469 6.44795e-18
7943.68769 6.41610e-18
7945.68067 6.33685e-18
7947.68367 6.21898e-18
7949.68667 6.11909e-18
7951.67966 5.99429e-18
7953.68266 5.92327e-18
7955.68566 5.94286e-18
7957.67864 5.95158e-18
7959.68164 5.85614e-18
7961.68464 5.70170e-18
7963.67763 5.61724e-18
7965.68063 5.56471e-18
7967.68363 5.51832e-18
7969.68663 5.48804e-18
7971.67961 5.46954e-18
7973.68261 5.45439e-18
7975.68561 5.44858e-18
7977.67860 5.46892e-18
7979.68160 5.52432e-18
7981.68459 5.51234e-18
7983.67758 5.44768e-18
7985.68058 5.38456e-18
7987.68358 5.31010e-18
7989.67657 5.24847e-18
7991.67957 5.20854e-18
7993.68257 5.18070e-18
7995.68557 5.14378e-18
7997.67855 5.10059e-18
7999.68155 5.06206e-18
8001.68455 5.03532e-18
8003.67753 4.99048e-18
8005.68054 4.90916e-18
8007.68354 4.83622e-18
8009.67652 4.81265e-18
8011.67952 4.81852e-18
8013.68252 4.80670e-18
8015.67551 4.78645e-18
8017.67851 4.78245e-18
8019.68151 4.80321e-18
8021.68451 4.80459e-18
8023.67749 4.76974e-18
8025.68049 4.72613e-18
8027.68349 4.70511e-18
8029.67648 4.69265e-18
8031.67947 4.67749e-18
8033.68248 4.68626e-18
8035.67546 4.64840e-18
8037.67846 4.53919e-18
8039.68146 4.44251e-18
8041.67445 4.40553e-18
8043.67745 4.39878e-18
8045.68045 4.40485e-18
8047.68345 4.45841e-18
8049.67643 4.44839e-18
8051.67943 4.38613e-18
8053.68243 4.33033e-18
8055.67541 4.28211e-18
8057.67842 4.24235e-18
8059.68142 4.21150e-18
8061.67440 4.18599e-18
8063.67740 4.16499e-18
8065.68040 4.14748e-18
8067.67339 4.13757e-18
8069.67639 4.14233e-18
8071.67939 4.14849e-18
8073.68239 4.14664e-18
8075.67537 4.14123e-18
8077.67837 4.13861e-18
8079.68137 4.14434e-18
8081.67436 4.12497e-18
8083.67735 4.08402e-18
8085.68036 4.04160e-18
8087.67334 3.98829e-18
8089.67634 3.94256e-18
8091.67934 3.92344e-18
8093.67233 3.92273e-18
8095.67533 3.91495e-18
8097.67833 3.91660e-18
8099.68133 3.89781e-18
8101.67431 3.85917e-18
8103.67731 3.82412e-18
8105.68031 3.78598e-18
8107.67330 3.75696e-18
8109.67630 3.77158e-18
8111.67929 3.82132e-18
8113.67228 3.85300e-18
8115.67528 3.88757e-18
8117.67828 3.91480e-18
8119.67127 3.93326e-18
8121.67427 3.94363e-18
8123.67727 3.93958e-18
8125.68027 3.92811e-18
8127.67325 3.94101e-18
8129.67625 3.97752e-18
8131.67925 3.99662e-18
8133.67224 4.02675e-18
8135.67524 4.01638e-18
8137.67824 3.93957e-18
8139.67122 3.86537e-18
8141.67422 3.86851e-18
8143.67722 3.92182e-18
8145.68022 3.91105e-18
8147.67321 3.83805e-18
8149.67621 3.82115e-18
8151.67921 3.85366e-18
8153.67219 3.88600e-18
8155.67519 3.89488e-18
8157.67819 3.90425e-18
8159.67118 3.94485e-18
8161.67418 4.01938e-18
8163.67718 4.04450e-18
8165.67016 4.02759e-18
8167.67316 4.02446e-18
8169.67616 4.04072e-18
8171.67916 4.06072e-18
8173.67215 4.06177e-18
8175.67515 4.05093e-18
8177.67815 4.05767e-18
8179.67113 4.07767e-18
8181.67413 4.09199e-18
8183.67713 4.11147e-18
8185.67011 4.11883e-18
8187.67312 4.10615e-18
8189.67612 4.08484e-18
8191.66910 4.07700e-18
8193.67210 4.07659e-18
8195.67510 4.04408e-18
8197.67810 3.96006e-18
8199.67108 3.93187e-18
8201.67409 3.94245e-18
8203.67709 3.96969e-18
8205.67007 4.01856e-18
8207.67307 4.08823e-18
8209.67607 4.14194e-18
8211.66906 4.18625e-18
8213.67206 4.22969e-18
8215.67506 4.27053e-18
8217.66804 4.31069e-18
8219.67104 4.34322e-18
8221.67404 4.37740e-18
8223.66703 4.42386e-18
8225.67003 4.47709e-18
8227.67303 4.48786e-18
8229.67603 4.45457e-18
8231.66901 4.43923e-18
8233.67201 4.41841e-18
8235.67501 4.41522e-18
8237.66799 4.44866e-18
8239.67100 4.49103e-18
8241.67400 4.48995e-18
8243.66698 4.45371e-18
8245.66998 4.44719e-18
8247.67298 4.44549e-18
8249.67598 4.46435e-18
8251.66897 4.51224e-18
8253.67196 4.56029e-18
8255.67497 4.58524e-18
8257.66795 4.59697e-18
8259.67095 4.62625e-18
8261.67395 4.66709e-18
8263.66694 4.70587e-18
8265.66994 4.73739e-18
8267.67294 4.78676e-18
8269.66592 4.86932e-18
8271.66892 4.94823e-18
8273.67192 4.98560e-18
8275.67492 5.00198e-18
8277.66791 4.99687e-18
8279.67091 4.94086e-18
8281.67391 4.92689e-18
8283.66689 4.95321e-18
8285.66989 4.98260e-18
8287.67289 5.00516e-18
8289.66588 5.02425e-18
8291.66888 5.01943e-18
8293.67188 4.98670e-18
8295.66486 4.97421e-18
8297.66786 4.96373e-18
8299.67086 4.96600e-18
8301.67386 4.99840e-18
8303.66684 5.02546e-18
8305.66985 4.98887e-18
8307.67284 4.91044e-18
8309.66583 4.95005e-18
8311.66883 5.10427e-18
8313.67183 5.19634e-18
8315.66482 5.26957e-18
8317.66781 5.32906e-18
8319.67081 5.36502e-18
8321.66380 5.40361e-18
8323.66680 5.48815e-18
8325.66980 5.61771e-18
8327.67280 5.68751e-18
8329.66579 5.71688e-18
8331.66879 5.74816e-18
8333.67179 5.77211e-18
8335.66477 5.79524e-18
8337.66777 5.84067e-18
8339.67077 5.90484e-18
8341.66376 5.92512e-18
8343.66676 5.90843e-18
8345.66976 5.90082e-18
8347.66274 5.87825e-18
8349.66574 5.87411e-18
8351.66874 5.90610e-18
8353.67174 5.94693e-18
8355.66473 5.96758e-18
8357.66772 5.98732e-18
8359.67072 5.99375e-18
8361.66371 5.96708e-18
8363.66671 5.98041e-18
8365.66971 6.02662e-18
8367.66269 6.09202e-18
8369.66569 6.18816e-18
8371.66870 6.29810e-18
8373.66168 6.35741e-18
8375.66468 6.37146e-18
8377.66768 6.41922e-18
8379.67068 6.49022e-18
8381.66367 6.54576e-18
8383.66667 6.58101e-18
8385.66967 6.60195e-18
8387.66265 6.61496e-18
8389.66565 6.61741e-18
8391.66865 6.63035e-18
8393.66164 6.65674e-18
8395.66464 6.66454e-18
8397.66763 6.64076e-18
8399.66062 6.63934e-18
8401.66362 6.67524e-18
8403.66662 6.72923e-18
8405.66962 6.79681e-18
8407.66260 6.89499e-18
8409.66561 6.93354e-18
8411.66861 6.91971e-18
8413.66159 6.92148e-18
8415.66459 6.91837e-18
8417.66759 6.93197e-18
8419.66057 6.98560e-18
8421.66358 7.05816e-18
8423.66657 7.08977e-18
8425.65956 7.09323e-18
8427.66256 7.10202e-18
8429.66556 7.09841e-18
8431.66856 7.10759e-18
8433.66155 7.13682e-18
8435.66455 7.16620e-18
8437.66755 7.17311e-18
8439.66053 7.16375e-18
8441.66353 7.17714e-18
8443.66653 7.20975e-18
8445.65952 7.23063e-18
8447.66251 7.25000e-18
8449.66552 7.26159e-18
8451.65850 7.25782e-18
8453.66150 7.24618e-18
8455.66450 7.24024e-18
8457.66750 7.23437e-18
8459.66049 7.23856e-18
8461.66349 7.25816e-18
8463.66648 7.26610e-18
8465.65947 7.26283e-18
8467.66247 7.25351e-18
8469.66547 7.24354e-18
8471.65846 7.23501e-18
8473.66145 7.23644e-18
8475.66446 7.24746e-18
8477.65744 7.25104e-18
8479.66044 7.23745e-18
8481.66344 7.25393e-18
8483.66644 7.31964e-18
8485.65943 7.39328e-18
8487.66243 7.42501e-18
8489.66543 7.43642e-18
8491.65841 7.42820e-18
8493.66141 7.38380e-18
8495.66441 7.35451e-18
8497.65740 7.33388e-18
8499.66040 7.32107e-18
8501.66340 7.30969e-18
8503.65638 7.29720e-18
8505.65938 7.29522e-18
8507.66238 7.30442e-18
8509.66538 7.30963e-18
8511.65837 7.32269e-18
8513.66136 7.32373e-18
8515.66437 7.29260e-18
8517.65735 7.26269e-18
8519.66035 7.28457e-18
8521.66335 7.34149e-18
8523.65633 7.34523e-18
8525.65934 7.28930e-18
8527.66233 7.29657e-18
8529.65532 7.36470e-18
8531.65832 7.41228e-18
8533.66132 7.41110e-18
8535.66432 7.39691e-18
8537.65731 7.41511e-18
8539.66031 7.45717e-18
8541.66331 7.44742e-18
8543.65629 7.39133e-18
8545.65929 7.34860e-18
8547.66229 7.30513e-18
8549.65528 7.27434e-18
8551.65828 7.26306e-18
8553.66128 7.25988e-18
8555.65426 7.25541e-18
8557.65726 7.25369e-18
8559.66026 7.25575e-18
8561.65324 7.26094e-18
8563.65625 7.27282e-18
8565.65925 7.28716e-18
8567.66224 7.29668e-18
8569.65523 7.30451e-18
8571.65823 7.31265e-18
8573.66123 7.31767e-18
8575.65422 7.32219e-18
8577.65721 7.32078e-18
8579.66021 7.30415e-18
8581.65320 7.29933e-18
8583.65620 7.31858e-18
8585.65920 7.34429e-18
8587.65219 7.36196e-18
8589.65519 7.38041e-18
8591.65819 7.39222e-18
8593.66119 7.39594e-18
8595.65417 7.40472e-18
8597.65717 7.41628e-18
8599.66017 7.42181e-18
8601.65316 7.42123e-18
8603.65616 7.41389e-18
8605.65916 7.39635e-18
8607.65214 7.36845e-18
8609.65514 7.33972e-18
8611.65814 7.29367e-18
8613.65113 7.26100e-18
8615.65413 7.25549e-18
8617.65712 7.26077e-18
8619.66013 7.26977e-18
8621.65311 7.30168e-18
8623.65611 7.29551e-18
8625.65911 7.25556e-18
8627.65209 7.22460e-18
8629.65510 7.19807e-18
8631.65810 7.17441e-18
8633.65108 7.16718e-18
8635.65408 7.17225e-18
8637.65708 7.14643e-18
8639.65006 7.09569e-18
8641.65307 7.05170e-18
8643.65606 7.00252e-18
8645.65906 6.95603e-18
8647.65205 6.92239e-18
8649.65505 6.88952e-18
8651.65805 6.83729e-18
8653.65104 6.77317e-18
8655.65404 6.70695e-18
8657.65704 6.62355e-18
8659.65002 6.56155e-18
8661.65302 6.51806e-18
8663.65602 6.47858e-18
8665.65902 6.44394e-18
8667.65200 6.41247e-18
8669.65501 6.37103e-18
8671.65801 6.32775e-18
8673.65099 6.25697e-18
8675.65399 6.13848e-18
8677.65699 6.06342e-18
8679.64998 6.03294e-18
8681.65298 6.00216e-18
8683.65597 5.95759e-18
8685.64896 5.91144e-18
8687.65196 5.85644e-18
8689.65496 5.78131e-18
8691.65796 5.73287e-18
8693.65094 5.70966e-18
8695.65395 5.68365e-18
8697.65694 5.64304e-18
8699.64993 5.59988e-18
8701.65293 5.57861e-18
8703.65593 5.58638e-18
8705.64892 5.57045e-18
8707.65192 5.54820e-18
8709.65492 5.50684e-18
8711.64790 5.45324e-18
8713.65090 5.40904e-18
8715.65390 5.37269e-18
8717.65690 5.33476e-18
8719.64989 5.29258e-18
8721.65289 5.24070e-18
8723.65589 5.21869e-18
8725.64887 5.23688e-18
8727.65187 5.22720e-18
8729.65487 5.18429e-18
8731.64786 5.12738e-18
8733.65085 5.06677e-18
8735.65386 4.99519e-18
8737.64684 4.94829e-18
8739.64984 4.91953e-18
8741.65284 4.89266e-18
8743.65584 4.87897e-18
8745.64883 4.85361e-18
8747.65182 4.80690e-18
8749.65482 4.74729e-18
8751.64781 4.68674e-18
8753.65081 4.60862e-18
8755.65381 4.58624e-18
8757.64680 4.62261e-18
8759.64980 4.63698e-18
8761.65280 4.64164e-18
8763.64578 4.62922e-18
8765.64878 4.58599e-18
8767.65178 4.51848e-18
8769.65478 4.46454e-18
8771.64777 4.40413e-18
8773.65077 4.36786e-18
8775.65377 4.35629e-18
8777.64675 4.34095e-18
8779.64975 4.31716e-18
8781.65275 4.29015e-18
8783.64574 4.26941e-18
8785.64874 4.25497e-18
8787.65173 4.24176e-18
8789.64472 4.23086e-18
8791.64772 4.22302e-18
8793.65072 4.24238e-18
8795.65372 4.22243e-18
8797.64670 4.12481e-18
8799.64970 3.98576e-18
8801.65271 3.87594e-18
8803.64569 3.73707e-18
8805.64869 3.71290e-18
8807.65169 3.79903e-18
8809.64468 3.87666e-18
8811.64768 3.96162e-18
8813.65068 4.03361e-18
8815.64366 4.06250e-18
8817.64666 4.06446e-18
8819.64966 4.05622e-18
8821.65266 4.01722e-18
8823.64565 3.99629e-18
8825.64865 3.99784e-18
8827.65164 3.97859e-18
8829.64463 3.92049e-18
8831.64763 3.85146e-18
8833.65063 3.80609e-18
8835.64362 3.77001e-18
8837.64661 3.73449e-18
8839.64962 3.69525e-18
8841.64260 3.67595e-18
8843.64560 3.67609e-18
8845.64860 3.68496e-18
8847.65160 3.70177e-18
8849.64459 3.72617e-18
8851.64759 3.73267e-18
8853.65058 3.72433e-18
8855.64357 3.71536e-18
8857.64657 3.70748e-18
8859.64957 3.69011e-18
8861.64256 3.65347e-18
8863.64556 3.60871e-18
8865.64856 3.55905e-18
8867.65156 3.49348e-18
8869.64454 3.51047e-18
8871.64754 3.60694e-18
8873.65054 3.68844e-18
8875.64353 3.78825e-18
8877.64653 3.86760e-18
8879.64953 3.91547e-18
8881.64251 3.93891e-18
8883.64551 3.92330e-18
8885.64851 3.85509e-18
8887.64149 3.82392e-18
8889.64450 3.82257e-18
8891.64750 3.78905e-18
8893.65049 3.70862e-18
8895.64348 3.62847e-18
8897.64648 3.58896e-18
8899.64948 3.57428e-18
8901.64247 3.55704e-18
8903.64546 3.55185e-18
8905.64847 3.53747e-18
8907.64145 3.51366e-18
8909.64445 3.49814e-18
8911.64745 3.48994e-18
8913.64044 3.49237e-18
8915.64344 3.51694e-18
8917.64644 3.55506e-18
8919.64944 3.63687e-18
8921.64242 3.77326e-18
8923.64542 3.89847e-18
8925.64842 4.04980e-18
8927.64141 4.16245e-18
8929.64441 4.18861e-18
8931.64741 4.15769e-18
8933.64039 4.12610e-18
8935.64339 4.06593e-18
8937.64639 4.01504e-18
8939.63938 3.95426e-18
8941.64238 3.90639e-18
8943.64538 3.87898e-18
8945.64838 3.85217e-18
8947.64136 3.81769e-18
8949.64436 3.78704e-18
8951.64736 3.73669e-18
8953.64034 3.66896e-18
8955.64335 3.59860e-18
8957.64634 3.51345e-18
8959.63933 3.43944e-18
8961.64233 3.38477e-18
8963.64533 3.34700e-18
8965.63832 3.33429e-18
8967.64131 3.34637e-18
8969.64431 3.36543e-18
8971.64732 3.42115e-18
8973.64030 3.43917e-18
8975.64330 3.41189e-18
8977.64630 3.37636e-18
8979.63929 3.34959e-18
8981.64229 3.32063e-18
8983.64529 3.30830e-18
8985.63827 3.31834e-18
8987.64127 3.30879e-18
8989.64427 3.28608e-18
8991.63726 3.26201e-18
8993.64026 3.22964e-18
8995.64326 3.20403e-18
8997.64626 3.21483e-18
8999.63924 3.25414e-18
9001.64224 3.28756e-18
9003.64524 3.33480e-18
9005.63823 3.36778e-18
9007.64122 3.37417e-18
9009.64423 3.39993e-18
9011.63721 3.46710e-18
9013.64021 3.55865e-18
9015.64321 3.65766e-18
9017.63619 3.78286e-18
9019.63919 3.88282e-18
9021.64220 3.97147e-18
9023.63518 4.05284e-18
9025.63818 4.13075e-18
9027.64118 4.19680e-18
9029.64418 4.24244e-18
9031.63717 4.27003e-18
9033.64017 4.26074e-18
9035.64317 4.19613e-18
9037.63615 4.16032e-18
9039.63915 4.14253e-18
9041.64215 4.11520e-18
9043.63514 4.07595e-18
9045.63814 4.02654e-18
9047.64113 3.94958e-18
9049.63412 3.83728e-18
9051.63712 3.77548e-18
9053.64012 3.75100e-18
9055.64312 3.71917e-18
9057.63610 3.68188e-18
9059.63911 3.65726e-18
9061.64211 3.65738e-18
9063.63509 3.67347e-18
9065.63809 3.66518e-18
9067.64109 3.63972e-18
9069.63407 3.61945e-18
9071.63708 3.60856e-18
9073.64007 3.58073e-18
9075.63306 3.50683e-18
9077.63606 3.43861e-18
9079.63906 3.45504e-18
9081.64206 3.53889e-18
9083.63505 3.58494e-18
9085.63805 3.62325e-18
9087.64105 3.66130e-18
9089.63403 3.70369e-18
9091.63703 3.75221e-18
9093.64003 3.79266e-18
9095.63302 3.83825e-18
9097.63602 3.93111e-18
9099.63902 4.09681e-18
9101.63200 4.14659e-18
9103.63500 4.12602e-18
9105.63800 4.07033e-18
9107.64100 3.94617e-18
9109.63399 3.83114e-18
9111.63699 3.80246e-18
9113.63998 3.82366e-18
9115.63297 3.81125e-18
9117.63597 3.79548e-18
9119.63897 3.77357e-18
9121.63196 3.74228e-18
9123.63495 3.70192e-18
9125.63796 3.65690e-18
9127.63094 3.61072e-18
9129.63394 3.57249e-18
9131.63694 3.53981e-18
9133.63994 3.53087e-18
9135.63293 3.56986e-18
9137.63593 3.55895e-18
9139.63893 3.49944e-18
9141.63191 3.42874e-18
9143.63491 3.36192e-18
9145.63791 3.29515e-18
9147.63090 3.25585e-18
9149.63390 3.23675e-18
9151.63690 3.22799e-18
9153.62988 3.24628e-18
9155.63288 3.24937e-18
9157.63588 3.23346e-18
9159.63888 3.21154e-18
9161.63187 3.18625e-18
9163.63486 3.15313e-18
9165.63787 3.16495e-18
9167.63085 3.23643e-18
9169.63385 3.26134e-18
9171.63685 3.24995e-18
9173.62983 3.23748e-18
9175.63284 3.23730e-18
9177.63583 3.24104e-18
9179.62882 3.23839e-18
9181.63182 3.23550e-18
9183.63482 3.21447e-18
9185.63782 3.17225e-18
9187.63081 3.13526e-18
9189.63381 3.10406e-18
9191.63681 3.07514e-18
9193.62979 3.04413e-18
9195.63279 3.01005e-18
9197.63579 2.97021e-18
9199.62878 2.92129e-18
9201.63178 2.88031e-18
9203.63478 2.83685e-18
9205.62776 2.80784e-18
9207.63076 2.79563e-18
9209.63376 2.79423e-18
9211.63676 2.80228e-18
9213.62975 2.82103e-18
9215.63275 2.84939e-18
9217.63574 2.89486e-18
9219.62873 2.93434e-18
9221.63173 2.97354e-18
9223.63473 3.00818e-18
9225.62772 3.03401e-18
9227.63071 3.05349e-18
9229.63371 3.06845e-18
9231.62670 3.08457e-18
9233.62970 3.07434e-18
9235.63270 3.03570e-18
9237.63570 2.99956e-18
9239.62869 2.96246e-18
9241.63169 2.92651e-18
9243.63469 2.90314e-18
9245.62767 2.88926e-18
9247.63067 2.86908e-18
9249.63367 2.84603e-18
9251.62666 2.82634e-18
9253.62966 2.80755e-18
9255.63266 2.78925e-18
9257.62564 2.77569e-18
9259.62864 2.76374e-18
9261.63164 2.74281e-18
9263.63464 2.71540e-18
9265.62763 2.68845e-18
9267.63062 2.65373e-18
9269.63363 2.62992e-18
9271.62661 2.62249e-18
9273.62961 2.61429e-18
9275.63261 2.59040e-18
9277.62559 2.55888e-18
9279.62860 2.54618e-18
9281.63160 2.53683e-18
9283.63459 2.55336e-18
9285.62758 2.60725e-18
9287.63058 2.64964e-18
9289.63358 2.67322e-18
9291.62657 2.68315e-18
9293.62956 2.68286e-18
9295.63256 2.67767e-18
9297.62555 2.63140e-18
9299.62855 2.52020e-18
9301.63155 2.45701e-18
9303.62454 2.44021e-18
9305.62754 2.42256e-18
9307.63054 2.38443e-18
9309.63354 2.33828e-18
9311.62652 2.29418e-18
9313.62952 2.24555e-18
9315.63252 2.21235e-18
9317.62550 2.19486e-18
9319.62851 2.17186e-18
9321.63151 2.14558e-18
9323.62449 2.12152e-18
9325.62749 2.09840e-18
9327.63049 2.07352e-18
9329.62348 2.03887e-18
9331.62648 1.98612e-18
9333.62947 1.95373e-18
9335.63248 1.92864e-18
9337.62546 1.92252e-18
9339.62846 1.95020e-18
9341.63146 1.98510e-18
9343.62444 1.96709e-18
9345.62745 1.89936e-18
9347.63044 1.88293e-18
9349.62343 1.89920e-18
9351.62643 1.91028e-18
9353.62943 1.91916e-18
9355.62242 1.92405e-18
9357.62542 1.92277e-18
9359.62842 1.91738e-18
9361.63142 1.91505e-18
9363.62440 1.90875e-18
9365.62740 1.91705e-18
9367.63040 1.94807e-18
9369.62339 1.96228e-18
9371.62639 1.95245e-18
9373.62939 1.93246e-18
9375.62237 1.91253e-18
9377.62537 1.88617e-18
9379.62837 1.88685e-18
9381.62136 1.90903e-18
9383.62435 1.93425e-18
9385.62736 1.96236e-18
9387.63036 2.00676e-18
9389.62334 2.08044e-18
9391.62634 2.16689e-18
9393.62934 2.21819e-18
9395.62233 2.25545e-18
9397.62532 2.25742e-18
9399.62832 2.21287e-18
9401.62131 2.17617e-18
9403.62431 2.15110e-18
9405.62731 2.12227e-18
9407.62030 2.07201e-18
9409.62330 2.00681e-18
9411.62630 1.97081e-18
9413.62930 1.96194e-18
9415.62228 1.93481e-18
9417.62528 1.89170e-18
9419.62828 1.86016e-18
9421.62127 1.84318e-18
9423.62427 1.83751e-18
9425.62727 1.84985e-18
9427.62025 1.88704e-18
9429.62325 1.88162e-18
9431.62625 1.82721e-18
9433.61924 1.81222e-18
9435.62224 1.83729e-18
9437.62523 1.86724e-18
9439.62824 1.88316e-18
9441.62122 1.89299e-18
9443.62422 1.89705e-18
9445.62722 1.89169e-18
9447.62020 1.89017e-18
9449.62320 1.88405e-18
9451.62621 1.88868e-18
9453.61919 1.90820e-18
9455.62219 1.92795e-18
9457.62519 1.93599e-18
9459.61818 1.93799e-18
9461.62118 1.93595e-18
9463.62418 1.92221e-18
9465.62718 1.92002e-18
9467.62016 1.92994e-18
9469.62316 1.93503e-18
9471.62616 1.92936e-18
9473.61915 1.91927e-18
9475.62215 1.91123e-18
9477.62514 1.90414e-18
9479.61813 1.88853e-18
9481.62113 1.86444e-18
9483.62413 1.84129e-18
9485.61712 1.81475e-18
9487.62011 1.79134e-18
9489.62312 1.77821e-18
9491.62612 1.77159e-18
9493.61910 1.76030e-18
9495.62210 1.74274e-18
9497.62510 1.73885e-18
9499.61809 1.74622e-18
9501.62109 1.75618e-18
9503.62408 1.77261e-18
9505.61707 1.78936e-18
9507.62007 1.79032e-18
9509.62307 1.77735e-18
9511.62607 1.77885e-18
9513.61906 1.78892e-18
9515.62206 1.79798e-18
9517.62506 1.80986e-18
9519.61804 1.81868e-18
9521.62104 1.81783e-18
9523.62404 1.81028e-18
9525.61703 1.80907e-18
9527.62003 1.80993e-18
9529.62303 1.81593e-18
9531.61601 1.82323e-18
9533.61901 1.83952e-18
9535.62201 1.87778e-18
9537.61499 1.90976e-18
9539.61800 1.90464e-18
9541.62100 1.87497e-18
9543.62399 1.85027e-18
9545.61698 1.81571e-18
9547.61998 1.78807e-18
9549.62298 1.76409e-18
9551.61597 1.74041e-18
9553.61896 1.71243e-18
9555.62197 1.68986e-18
9557.61495 1.69367e-18
9559.61795 1.72417e-18
9561.62095 1.72358e-18
9563.61394 1.70064e-18
9565.61694 1.68634e-18
9567.61994 1.67255e-18
9569.62294 1.66255e-18
9571.61592 1.66526e-18
9573.61892 1.67830e-18
9575.62192 1.68360e-18
9577.61491 1.69248e-18
9579.61791 1.68283e-18
9581.62091 1.64709e-18
9583.61389 1.62565e-18
9585.61689 1.63095e-18
9587.61989 1.64287e-18
9589.61288 1.63773e-18
9591.61588 1.62338e-18
9593.61888 1.62029e-18
9595.62188 1.62154e-18
9597.61486 1.62802e-18
9599.61786 1.63871e-18
9601.62086 1.65375e-18
9603.61384 1.68114e-18
9605.61685 1.71778e-18
9607.61984 1.73817e-18
9609.61283 1.74674e-18
9611.61583 1.75270e-18
9613.61883 1.75064e-18
9615.61182 1.75023e-18
9617.61481 1.74779e-18
9619.61781 1.74799e-18
9621.62082 1.75480e-18
9623.61380 1.76579e-18
9625.61680 1.78644e-18
9627.61980 1.83264e-18
9629.61279 1.84288e-18
9631.61579 1.81971e-18
9633.61879 1.80354e-18
9635.61177 1.79840e-18
9637.61477 1.79203e-18
9639.61777 1.78911e-18
9641.61076 1.79416e-18
9643.61376 1.79894e-18
9645.61676 1.81321e-18
9647.61975 1.81111e-18
9649.61274 1.79072e-18
9651.61574 1.77299e-18
9653.61874 1.76721e-18
9655.61173 1.76482e-18
9657.61472 1.76348e-18
9659.61773 1.76040e-18
9661.61071 1.77499e-18
9663.61371 1.81608e-18
9665.61671 1.84015e-18
9667.60969 1.83167e-18
9669.61269 1.82096e-18
9671.61570 1.84765e-18
9673.60868 1.90273e-18
9675.61168 1.91648e-18
9677.61468 1.89524e-18
9679.61768 1.89092e-18
9681.61067 1.89733e-18
9683.61367 1.90816e-18
9685.61667 1.92320e-18
9687.60965 1.93797e-18
9689.61265 1.93584e-18
9691.61565 1.91135e-18
9693.60864 1.92690e-18
9695.61164 1.98350e-18
9697.61463 2.01848e-18
9699.61764 2.03089e-18
9701.61062 2.03797e-18
9703.61362 2.04547e-18
9705.61662 2.05197e-18
9707.60960 2.08545e-18
9709.61261 2.15346e-18
9711.61561 2.19266e-18
9713.60859 2.21520e-18
9715.61159 2.23653e-18
9717.61459 2.26385e-18
9719.60757 2.28745e-18
9721.61058 2.28401e-18
9723.61357 2.25524e-18
9725.61658 2.23449e-18
9727.60956 2.22117e-18
9729.61256 2.18556e-18
9731.61556 2.11774e-18
9733.60855 2.05013e-18
9735.61155 2.00199e-18
9737.61455 1.96531e-18
9739.60753 1.93627e-18
9741.61053 1.92163e-18
9743.61353 1.89492e-18
9745.60652 1.85748e-18
9747.60952 1.82921e-18
9749.61252 1.81079e-18
9751.61552 1.79851e-18
9753.60850 1.79259e-18
9755.61150 1.79524e-18
9757.61450 1.79129e-18
9759.60749 1.78339e-18
9761.61049 1.77777e-18
9763.61348 1.77707e-18
9765.60647 1.77577e-18
9767.60947 1.76823e-18
9769.61247 1.75713e-18
9771.60546 1.75137e-18
9773.60845 1.74916e-18
9775.61146 1.74446e-18
9777.61445 1.73885e-18
9779.60744 1.73349e-18
9781.61044 1.72640e-18
9783.61344 1.72098e-18
9785.60643 1.71812e-18
9787.60943 1.71538e-18
9789.61243 1.70869e-18
9791.60541 1.70040e-18
9793.60841 1.68762e-18
9795.61141 1.66229e-18
9797.60440 1.65015e-18
9799.60740 1.66066e-18
9801.61040 1.67662e-18
9803.61340 1.67821e-18
9805.60638 1.67280e-18
9807.60938 1.67342e-18
9809.61238 1.67739e-18
9811.60537 1.67966e-18
9813.60837 1.68264e-18
9815.61137 1.68107e-18
9817.60435 1.67267e-18
9819.60735 1.66235e-18
9821.61035 1.65897e-18
9823.60333 1.66415e-18
9825.60634 1.65821e-18
9827.60933 1.64156e-18
9829.61233 1.62890e-18
9831.60532 1.62454e-18
9833.60832 1.62491e-18
9835.61132 1.62340e-18
9837.60431 1.62154e-18
9839.60731 1.61565e-18
9841.61031 1.60022e-18
9843.60329 1.59740e-18
9845.60629 1.61215e-18
9847.60929 1.62104e-18
9849.60228 1.61021e-18
9851.60528 1.59105e-18
9853.60828 1.58181e-18
9855.61128 1.57104e-18
9857.60426 1.57642e-18
9859.60726 1.60220e-18
9861.61026 1.61984e-18
9863.60325 1.62690e-18
9865.60625 1.63238e-18
9867.60924 1.64147e-18
9869.60223 1.64922e-18
9871.60523 1.64887e-18
9873.60823 1.64046e-18
9875.60122 1.63439e-18
9877.60421 1.62513e-18
9879.60721 1.61992e-18
9881.61022 1.62174e-18
9883.60320 1.62782e-18
9885.60620 1.62901e-18
9887.60920 1.62689e-18
9889.60219 1.62053e-18
9891.60519 1.60507e-18
9893.60819 1.59733e-18
9895.60117 1.59823e-18
9897.60417 1.60239e-18
9899.60717 1.60314e-18
9901.61017 1.60144e-18
9903.60316 1.60069e-18
9905.60616 1.59939e-18
9907.60916 1.60128e-18
9909.60214 1.60979e-18
9911.60514 1.61143e-18
9913.60814 1.60292e-18
9915.60113 1.59055e-18
9917.60412 1.58166e-18
9919.60713 1.57419e-18
9921.60011 1.56940e-18
9923.60311 1.57073e-18
9925.60611 1.56466e-18
9927.60911 1.54991e-18
9929.60210 1.53872e-18
9931.60510 1.53550e-18
9933.60809 1.53439e-18
9935.60108 1.52979e-18
9937.60408 1.52305e-18
9939.60708 1.51790e-18
9941.60007 1.50943e-18
9943.60306 1.51033e-18
9945.60606 1.52436e-18
9947.59905 1.53350e-18
9949.60205 1.52885e-18
9951.60505 1.51729e-18
9953.60805 1.50669e-18
9955.60104 1.48670e-18
9957.60404 1.48532e-18
9959.60704 1.50291e-18
9961.60002 1.51582e-18
9963.60302 1.52243e-18
9965.60602 1.52636e-18
9967.59901 1.52571e-18
9969.60201 1.52002e-18
9971.60501 1.51918e-18
9973.59799 1.52388e-18
9975.60099 1.52132e-18
9977.60399 1.51014e-18
9979.60699 1.50236e-18
9981.59998 1.50068e-18
9983.60297 1.49823e-18
9985.60598 1.49765e-18
9987.59896 1.50352e-18
9989.60196 1.50075e-18
9991.60496 1.48764e-18
9993.59794 1.48322e-18
9995.60095 1.48982e-18
9997.60394 1.49449e-18
9999.59693 1.49042e-18
