# wavelength flux
3719.99603 5.54188e-18
3721.49933 5.08259e-18
3723.00263 4.75180e-18
3724.49590 5.06727e-18
3725.99920 5.36872e-18
3727.50250 4.87804e-18
3728.99578 4.72362e-18
3730.49908 5.17628e-18
3732.00238 4.94853e-18
3733.49566 5.13522e-18
3734.99896 5.00985e-18
3736.50226 4.67085e-18
3737.99554 5.14861e-18
3739.49884 5.06846e-18
3741.00214 4.87213e-18
3742.49542 5.17184e-18
3743.99872 4.89523e-18
3745.50202 4.63025e-18
3746.99529 4.98120e-18
3748.49859 4.75009e-18
3750.00189 4.45064e-18
3751.49517 4.56423e-18
3752.99847 4.36410e-18
3754.50177 4.70224e-18
3755.99505 5.23347e-18
3757.49835 4.55394e-18
3759.00165 4.28994e-18
3760.50495 4.81463e-18
3761.99823 4.88252e-18
3763.50153 4.19729e-18
3765.00483 4.15896e-18
3766.49811 4.45672e-18
3768.00141 4.39422e-18
3769.50471 4.34177e-18
3770.99798 4.41483e-18
3772.50128 4.90449e-18
3774.00458 4.72938e-18
3775.49786 4.37476e-18
3777.00116 4.70313e-18
3778.50446 4.49109e-18
3779.99774 4.07743e-18
3781.50104 4.20052e-18
3783.00434 4.08670e-18
3784.49762 4.07799e-18
3786.00092 4.24043e-18
3787.50422 4.02229e-18
3788.99750 4.02794e-18
3790.50080 4.38183e-18
3792.00410 4.14564e-18
3793.49737 4.09006e-18
3795.00067 4.35047e-18
3796.50397 4.55888e-18
3797.99725 4.49594e-18
3799.50055 4.24964e-18
3801.00385 4.31727e-18
3802.49713 4.36282e-18
3804.00043 4.24981e-18
3805.50373 4.23061e-18
3806.99701 4.30368e-18
3808.50031 4.26687e-18
3810.00361 4.38136e-18
3811.49689 4.42021e-18
3813.00019 4.45063e-18
3814.50349 4.59700e-18
3815.99676 4.78769e-18
3817.50006 4.53621e-18
3819.00336 4.26830e-18
3820.49664 4.44929e-18
3821.99994 4.80336e-18
3823.50324 4.85547e-18
3824.99652 4.52685e-18
3826.49982 4.92256e-18
3828.00312 5.11286e-18
3829.49640 4.71103e-18
3830.99970 4.76397e-18
3832.50300 4.97383e-18
3833.99628 5.07148e-18
3835.49958 4.83673e-18
3837.00288 4.97823e-18
3838.49615 5.41650e-18
3839.99945 5.41021e-18
3841.50275 5.40710e-18
3842.99603 4.98308e-18
3844.49933 5.06604e-18
3846.00263 5.35637e-18
3847.49591 5.43109e-18
3848.99921 5.75634e-18
3850.50251 5.88959e-18
3851.99579 5.32178e-18
3853.49909 5.22108e-18
3855.00239 5.75425e-18
3856.49567 5.84026e-18
3857.99897 5.94917e-18
3859.50227 6.24629e-18
3860.99554 6.22413e-18
3862.49884 6.18809e-18
3864.00214 6.17862e-18
3865.49542 6.40041e-18
3866.99872 6.41359e-18
3868.50202 6.72570e-18
3869.99530 6.67994e-18
3871.49860 6.37134e-18
3873.00190 6.30212e-18
3874.49518 6.13330e-18
3875.99848 6.29392e-18
3877.50178 6.66065e-18
3878.99506 6.82266e-18
3880.49836 6.72575e-18
3882.00166 6.59849e-18
3883.50496 6.69030e-18
3884.99823 6.69342e-18
3886.50153 6.63407e-18
3888.00483 6.85853e-18
3889.49811 7.13475e-18
3891.00141 7.20432e-18
3892.50471 7.01621e-18
3893.99799 6.84523e-18
3895.50129 6.82423e-18
3897.00459 6.89024e-18
3898.49787 7.22550e-18
3900.00117 7.11556e-18
3901.50447 7.08500e-18
3902.99775 7.36847e-18
3904.50105 7.61260e-18
3906.00435 7.12994e-18
3907.49762 7.22776e-18
3909.00092 7.94423e-18
3910.50422 7.78924e-18
3911.99750 7.13270e-18
3913.50080 6.88408e-18
3915.00410 7.42193e-18
3916.49738 7.58770e-18
3918.00068 7.48238e-18
3919.50398 7.41531e-18
3920.99726 7.47730e-18
3922.50056 7.69516e-18
3924.00386 7.79338e-18
3925.49714 7.47288e-18
3927.00044 7.66553e-18
3928.50374 7.66198e-18
3929.99701 7.49410e-18
3931.50031 7.20343e-18
3933.00361 7.31856e-18
3934.49689 7.46279e-18
3936.00019 7.37680e-18
3937.50349 7.16318e-18
3938.99677 7.31089e-18
3940.50007 7.42739e-18
3942.00337 7.41719e-18
3943.49665 7.83038e-18
3944.99995 8.32204e-18
3946.50325 8.27114e-18
3947.99653 8.09626e-18
3949.49983 8.03374e-18
3951.00313 7.96934e-18
3952.49640 8.18585e-18
3953.99970 8.11297e-18
3955.50300 7.81210e-18
3956.99628 7.78634e-18
3958.49958 8.21057e-18
3960.00288 8.45326e-18
3961.49616 8.51841e-18
3962.99946 8.16481e-18
3964.50276 8.05127e-18
3965.99604 7.98350e-18
3967.49934 7.54946e-18
3969.00264 7.84664e-18
3970.49592 8.54630e-18
3971.99922 8.53519e-18
3973.50252 8.23329e-18
3974.99579 8.13475e-18
3976.49909 8.28416e-18
3978.00239 8.35400e-18
3979.49567 8.04736e-18
3980.99897 8.05797e-18
3982.50227 8.40326e-18
3983.99555 8.67189e-18
3985.49885 8.38246e-18
3987.00215 8.24777e-18
3988.49543 8.47576e-18
3989.99873 8.55432e-18
3991.50203 8.02883e-18
3992.99531 8.05075e-18
3994.49861 8.03337e-18
3996.00191 8.04695e-18
3997.49518 8.29480e-18
3998.99848 8.50437e-18
4000.50178 8.66184e-18
4001.99506 8.29942e-18
4003.49836 8.18392e-18
4005.00166 8.48533e-18
4006.50496 8.33632e-18
4007.99824 8.34761e-18
4009.50154 8.44271e-18
4011.00484 8.40834e-18
4012.49812 8.60962e-18
4014.00142 8.31631e-18
4015.50472 8.15564e-18
4016.99800 8.43377e-18
4018.50130 8.38980e-18
4020.00460 8.12661e-18
4021.49787 8.02828e-18
4023.00117 8.07398e-18
4024.50447 8.23561e-18
4025.99775 8.28909e-18
4027.50105 8.05892e-18
4029.00435 8.32314e-18
4030.49763 8.14595e-18
4032.00093 8.36924e-18
4033.50423 8.18118e-18
4034.99751 7.69685e-18
4036.50081 7.97815e-18
4038.00411 7.89268e-18
4039.49739 7.91372e-18
4041.00069 7.93554e-18
4042.50399 7.88045e-18
4043.99726 7.98328e-18
4045.50056 7.81729e-18
4047.00386 8.11383e-18
4048.49714 8.14716e-18
4050.00044 8.10793e-18
4051.50374 7.73805e-18
4052.99702 7.42171e-18
4054.50032 7.68925e-18
4056.00362 7.67448e-18
4057.49690 7.82930e-18
4059.00020 7.94964e-18
4060.50350 7.89364e-18
4061.99678 7.92909e-18
4063.50008 7.68856e-18
4065.00338 7.62686e-18
4066.49665 7.99091e-18
4067.99995 8.05100e-18
4069.50325 7.91752e-18
4070.99653 8.04653e-18
4072.49983 7.97331e-18
4074.00313 7.80885e-18
4075.49641 7.82929e-18
4076.99971 7.88241e-18
4078.50301 7.87375e-18
4079.99629 7.86060e-18
4081.49959 7.78505e-18
4083.00289 8.00655e-18
4084.49617 8.18442e-18
4085.99947 8.06822e-18
4087.50277 7.93608e-18
4088.99604 7.86898e-18
4090.49934 7.84297e-18
4092.00264 7.73923e-18
4093.49592 7.81520e-18
4094.99922 7.63017e-18
4096.50252 7.56472e-18
4097.99580 7.78980e-18
4099.49910 7.89197e-18
4101.00240 7.93525e-18
4102.49568 7.94704e-18
4103.99898 7.81464e-18
4105.50228 7.81435e-18
4106.99556 7.94635e-18
4108.49886 7.91445e-18
4110.00216 7.95739e-18
4111.49543 8.04316e-18
4112.99873 7.92385e-18
4114.50203 8.05193e-18
4115.99531 8.29057e-18
4117.49861 7.81832e-18
4119.00191 7.77887e-18
4120.49519 8.04784e-18
4121.99849 8.38796e-18
4123.50179 7.98683e-18
4124.99507 8.10110e-18
4126.49837 7.73388e-18
4128.00167 8.04055e-18
4129.50497 8.36706e-18
4130.99825 8.31650e-18
4132.50155 7.99088e-18
4134.00485 8.01208e-18
4135.49812 8.28191e-18
4137.00142 8.28018e-18
4138.50472 8.14920e-18
4139.99800 8.42551e-18
4141.50130 8.32391e-18
4143.00460 8.45703e-18
4144.49788 8.36635e-18
4146.00118 7.94831e-18
4147.50448 8.15759e-18
4148.99776 8.30273e-18
4150.50106 8.26305e-18
4152.00436 8.26388e-18
4153.49764 8.37411e-18
4155.00094 8.39185e-18
4156.50424 8.16545e-18
4157.99751 8.17237e-18
4159.50081 8.33665e-18
4161.00411 8.23260e-18
4162.49739 8.34118e-18
4164.00069 8.45148e-18
4165.50399 8.68012e-18
4166.99727 8.75136e-18
4168.50057 8.55420e-18
4170.00387 8.37341e-18
4171.49715 8.45766e-18
4173.00045 8.29629e-18
4174.50375 8.27401e-18
4175.99703 8.49351e-18
4177.50033 8.52050e-18
4179.00363 8.57078e-18
4180.49690 8.57689e-18
4182.00020 8.29131e-18
4183.50350 8.28484e-18
4184.99678 8.44070e-18
4186.50008 8.70357e-18
4188.00338 8.58472e-18
4189.49666 8.81082e-18
4190.99996 9.23595e-18
4192.50326 8.72789e-18
4193.99654 8.52651e-18
4195.49984 8.78599e-18
4197.00314 8.93378e-18
4198.49642 9.04209e-18
4199.99972 8.92630e-18
4201.50302 8.79537e-18
4202.99629 8.68588e-18
4204.49959 8.67382e-18
4206.00289 8.79105e-18
4207.49617 8.83810e-18
4208.99947 8.91811e-18
4210.50277 8.84360e-18
4211.99605 8.92724e-18
4213.49935 9.32565e-18
4215.00265 9.26090e-18
4216.49593 9.02829e-18
4217.99923 8.93515e-18
4219.50253 9.19202e-18
4220.99581 9.39521e-18
4222.49911 9.35391e-18
4224.00241 9.12924e-18
4225.49568 8.95784e-18
4226.99898 9.04887e-18
4228.50228 9.22441e-18
4229.99556 9.25329e-18
4231.49886 9.06497e-18
4233.00216 9.05824e-18
4234.49544 9.19824e-18
4235.99874 9.20682e-18
4237.50204 9.34525e-18
4238.99532 9.55786e-18
4240.49862 9.37636e-18
4242.00192 9.21976e-18
4243.49520 9.36765e-18
4244.99850 9.24794e-18
4246.50180 9.11008e-18
4247.99507 9.06190e-18
4249.49837 9.34073e-18
4251.00167 9.65267e-18
4252.50497 9.62276e-18
4253.99825 9.57130e-18
4255.50155 9.41409e-18
4257.00485 9.16742e-18
4258.49813 9.50142e-18
4260.00143 9.43094e-18
4261.50473 9.39882e-18
4262.99801 9.35116e-18
4264.50131 9.60623e-18
4266.00461 9.49739e-18
4267.49789 9.50574e-18
4269.00119 9.55038e-18
4270.50449 9.71598e-18
4271.99776 9.68551e-18
4273.50106 9.67422e-18
4275.00436 9.62338e-18
4276.49764 9.60203e-18
4278.00094 9.77895e-18
4279.50424 9.86627e-18
4280.99752 9.93695e-18
4282.50082 9.88706e-18
4284.00412 9.74827e-18
4285.49740 9.98664e-18
4287.00070 9.96769e-18
4288.50400 9.84604e-18
4289.99728 9.74209e-18
4291.50058 9.96416e-18
4293.00388 1.01600e-17
4294.49715 1.02583e-17
4296.00045 1.04150e-17
4297.50375 1.05778e-17
4298.99703 1.05445e-17
4300.50033 1.03045e-17
4302.00363 1.02065e-17
4303.49691 1.01484e-17
4305.00021 1.01328e-17
4306.50351 1.01980e-17
4307.99679 1.04711e-17
4309.50009 1.02570e-17
4311.00339 1.02385e-17
4312.49667 1.03177e-17
4313.99997 1.04326e-17
4315.50327 1.04259e-17
4316.99654 1.03631e-17
4318.49984 1.02724e-17
4320.00314 1.03768e-17
4321.49642 1.07094e-17
4322.99972 1.06678e-17
4324.50302 1.05788e-17
4325.99630 1.06366e-17
4327.49960 1.02571e-17
4329.00290 1.06396e-17
4330.49618 1.05184e-17
4331.99948 1.03380e-17
4333.50278 1.04149e-17
4334.99606 1.01721e-17
4336.49936 1.03059e-17
4338.00266 1.04287e-17
4339.49593 1.03772e-17
4340.99923 1.03882e-17
4342.50253 1.02561e-17
4343.99581 1.04429e-17
4345.49911 1.05484e-17
4347.00241 1.06113e-17
4348.49569 1.05460e-17
4349.99899 1.06632e-17
4351.50229 1.06259e-17
4352.99557 1.04803e-17
4354.49887 1.04041e-17
4356.00217 1.04751e-17
4357.49545 1.05666e-17
4358.99875 1.05186e-17
4360.50205 1.07018e-17
4361.99532 1.06813e-17
4363.49862 1.05333e-17
4365.00192 1.04950e-17
4366.49520 1.05275e-17
4367.99850 1.07811e-17
4369.50180 1.08860e-17
4370.99508 1.09632e-17
4372.49838 1.08715e-17
4374.00168 1.05605e-17
4375.50498 1.05324e-17
4376.99826 1.08031e-17
4378.50156 1.09621e-17
4380.00486 1.10951e-17
4381.49814 1.10394e-17
4383.00144 1.08540e-17
4384.50474 1.09458e-17
4385.99801 1.08800e-17
4387.50131 1.07216e-17
4389.00461 1.11718e-17
4390.49789 1.12946e-17
4392.00119 1.13854e-17
4393.50449 1.15354e-17
4394.99777 1.14579e-17
4396.50107 1.13784e-17
4398.00437 1.14648e-17
4399.49765 1.16046e-17
4401.00095 1.15186e-17
4402.50425 1.14924e-17
4403.99753 1.14477e-17
4405.50083 1.15514e-17
4407.00413 1.19022e-17
4408.49740 1.17673e-17
4410.00070 1.19029e-17
4411.50400 1.18061e-17
4412.99728 1.16799e-17
4414.50058 1.15335e-17
4416.00388 1.17819e-17
4417.49716 1.19906e-17
4419.00046 1.20927e-17
4420.50376 1.17017e-17
4421.99704 1.17566e-17
4423.50034 1.20138e-17
4425.00364 1.21328e-17
4426.49692 1.22072e-17
4428.00022 1.21974e-17
4429.50352 1.22445e-17
4430.99679 1.23385e-17
4432.50009 1.23141e-17
4434.00339 1.25266e-17
4435.49667 1.27805e-17
4436.99997 1.28158e-17
4438.50327 1.28800e-17
4439.99655 1.30629e-17
4441.49985 1.30523e-17
4443.00315 1.28122e-17
4444.49643 1.28629e-17
4445.99973 1.30265e-17
4447.50303 1.31083e-17
4448.99631 1.33710e-17
4450.49961 1.33870e-17
4452.00291 1.32565e-17
4453.49618 1.33837e-17
4454.99948 1.36040e-17
4456.50278 1.33290e-17
4457.99606 1.32519e-17
4459.49936 1.36067e-17
4461.00266 1.36502e-17
4462.49594 1.38382e-17
4463.99924 1.38751e-17
4465.50254 1.39199e-17
4466.99582 1.42457e-17
4468.49912 1.41587e-17
4470.00242 1.41034e-17
4471.49570 1.41131e-17
4472.99900 1.41587e-17
4474.50230 1.42533e-17
4475.99557 1.41654e-17
4477.49887 1.44210e-17
4479.00217 1.46738e-17
4480.49545 1.47995e-17
4481.99875 1.52712e-17
4483.50205 1.45603e-17
4484.99533 1.47917e-17
4486.49863 1.47240e-17
4488.00193 1.45698e-17
4489.49521 1.47870e-17
4490.99851 1.47414e-17
4492.50181 1.49138e-17
4493.99509 1.49297e-17
4495.49839 1.49478e-17
4497.00169 1.52718e-17
4498.49496 1.54730e-17
4499.99826 1.54600e-17
4501.50156 1.53994e-17
4503.00486 1.53506e-17
4504.49814 1.55302e-17
4506.00144 1.57368e-17
4507.50474 1.58575e-17
4508.99802 1.57061e-17
4510.50132 1.56818e-17
4512.00462 1.57448e-17
4513.49790 1.57463e-17
4515.00120 1.59215e-17
4516.50450 1.58014e-17
4517.99778 1.57157e-17
4519.50108 1.58089e-17
4521.00438 1.58295e-17
4522.49765 1.60191e-17
4524.00095 1.60708e-17
4525.50425 1.61286e-17
4526.99753 1.62220e-17
4528.50083 1.62063e-17
4530.00413 1.61092e-17
4531.49741 1.59755e-17
4533.00071 1.61962e-17
4534.50401 1.66066e-17
4535.99729 1.66109e-17
4537.50059 1.67540e-17
4539.00389 1.66020e-17
4540.49717 1.63973e-17
4542.00047 1.66771e-17
4543.50377 1.64878e-17
4544.99704 1.64847e-17
4546.50034 1.65609e-17
4548.00364 1.64841e-17
4549.49692 1.64502e-17
4551.00022 1.66609e-17
4552.50352 1.68399e-17
4553.99680 1.69253e-17
4555.50010 1.65922e-17
4557.00340 1.65677e-17
4558.49668 1.69346e-17
4559.99998 1.69797e-17
4561.50328 1.70982e-17
4562.99656 1.71914e-17
4564.49986 1.70751e-17
4566.00316 1.70734e-17
4567.49643 1.68508e-17
4568.99973 1.65351e-17
4570.50303 1.66524e-17
4571.99631 1.67727e-17
4573.49961 1.68752e-17
4575.00291 1.69702e-17
4576.49619 1.69502e-17
4577.99949 1.70434e-17
4579.50279 1.70424e-17
4580.99607 1.70161e-17
4582.49937 1.69566e-17
4584.00267 1.70337e-17
4585.49595 1.71288e-17
4586.99925 1.71666e-17
4588.50255 1.70629e-17
4589.99582 1.70080e-17
4591.49912 1.69402e-17
4593.00242 1.68286e-17
4594.49570 1.69400e-17
4595.99900 1.70906e-17
4597.50230 1.69959e-17
4598.99558 1.69260e-17
4600.49888 1.67158e-17
4602.00218 1.65095e-17
4603.49546 1.66695e-17
4604.99876 1.67617e-17
4606.50206 1.68730e-17
4607.99534 1.68268e-17
4609.49864 1.67425e-17
4611.00194 1.68948e-17
4612.49521 1.68521e-17
4613.99851 1.69307e-17
4615.50181 1.67339e-17
4616.99509 1.67306e-17
4618.49839 1.69857e-17
4620.00169 1.64459e-17
4621.49497 1.64747e-17
4622.99827 1.68772e-17
4624.50157 1.66962e-17
4626.00487 1.64740e-17
4627.49815 1.63141e-17
4629.00145 1.62772e-17
4630.50475 1.63277e-17
4631.99803 1.65533e-17
4633.50133 1.63863e-17
4635.00463 1.63393e-17
4636.49790 1.63699e-17
4638.00120 1.60173e-17
4639.50450 1.58707e-17
4640.99778 1.58330e-17
4642.50108 1.60553e-17
4644.00438 1.60602e-17
4645.49766 1.58764e-17
4647.00096 1.57590e-17
4648.50426 1.56738e-17
4649.99754 1.55880e-17
4651.50084 1.56314e-17
4653.00414 1.54674e-17
4654.49742 1.51184e-17
4656.00072 1.52698e-17
4657.50402 1.54524e-17
4658.99729 1.54490e-17
4660.50059 1.52638e-17
4662.00389 1.51383e-17
4663.49717 1.52468e-17
4665.00047 1.52299e-17
4666.50377 1.50797e-17
4667.99705 1.48784e-17
4669.50035 1.46891e-17
4671.00365 1.46385e-17
4672.49693 1.45533e-17
4674.00023 1.45641e-17
4675.50353 1.47178e-17
4676.99681 1.46578e-17
4678.50011 1.45455e-17
4680.00341 1.46393e-17
4681.49668 1.45029e-17
4682.99998 1.43624e-17
4684.50328 1.43680e-17
4685.99656 1.40753e-17
4687.49986 1.41868e-17
4689.00316 1.43436e-17
4690.49644 1.42149e-17
4691.99974 1.39747e-17
4693.50304 1.39877e-17
4694.99632 1.38881e-17
4696.49962 1.37973e-17
4698.00292 1.38525e-17
4699.49620 1.37284e-17
4700.99950 1.37944e-17
4702.50280 1.37338e-17
4703.99607 1.38572e-17
4705.49937 1.37841e-17
4707.00267 1.35114e-17
4708.49595 1.32475e-17
4709.99925 1.31554e-17
4711.50255 1.32002e-17
4712.99583 1.30934e-17
4714.49913 1.30317e-17
4716.00243 1.32432e-17
4717.49571 1.32030e-17
4718.99901 1.30304e-17
4720.50231 1.31659e-17
4721.99559 1.31044e-17
4723.49889 1.29474e-17
4725.00219 1.29557e-17
4726.49546 1.28613e-17
4727.99876 1.28607e-17
4729.50206 1.28256e-17
4730.99534 1.27446e-17
4732.49864 1.30121e-17
4734.00194 1.30265e-17
4735.49522 1.28548e-17
4736.99852 1.29100e-17
4738.50182 1.29852e-17
4739.99510 1.29080e-17
4741.49840 1.29018e-17
4743.00170 1.30508e-17
4744.49498 1.29782e-17
4745.99828 1.29187e-17
4747.50158 1.29251e-17
4749.00488 1.27635e-17
4750.49815 1.26189e-17
4752.00145 1.28577e-17
4753.50475 1.28188e-17
4754.99803 1.27728e-17
4756.50133 1.26272e-17
4758.00463 1.24055e-17
4759.49791 1.24868e-17
4761.00121 1.25649e-17
4762.50451 1.25018e-17
4763.99779 1.24861e-17
4765.50109 1.25064e-17
4767.00439 1.23065e-17
4768.49767 1.21706e-17
4770.00097 1.23759e-17
4771.50427 1.25686e-17
4772.99754 1.24035e-17
4774.50084 1.23666e-17
4776.00414 1.24327e-17
4777.49742 1.24469e-17
4779.00072 1.23262e-17
4780.50402 1.23941e-17
4781.99730 1.26318e-17
4783.50060 1.25516e-17
4785.00390 1.24652e-17
4786.49718 1.26163e-17
4788.00048 1.26069e-17
4789.50378 1.23661e-17
4790.99706 1.25331e-17
4792.50036 1.27649e-17
4794.00366 1.27198e-17
4795.49693 1.26537e-17
4797.00023 1.26141e-17
4798.50353 1.25351e-17
4799.99681 1.26566e-17
4801.50011 1.29092e-17
4803.00341 1.30158e-17
4804.49669 1.29580e-17
4805.99999 1.28149e-17
4807.50329 1.27842e-17
4808.99657 1.29888e-17
4810.49987 1.29750e-17
4812.00317 1.28207e-17
4813.49645 1.28292e-17
4814.99975 1.30062e-17
4816.50305 1.31358e-17
4817.99632 1.31303e-17
4819.49962 1.29673e-17
4821.00292 1.29634e-17
4822.49620 1.29922e-17
4823.99950 1.30378e-17
4825.50280 1.30460e-17
4826.99608 1.30549e-17
4828.49938 1.30475e-17
4830.00268 1.29348e-17
4831.49596 1.29085e-17
4832.99926 1.31067e-17
4834.50256 1.30863e-17
4835.99584 1.29945e-17
4837.49914 1.31406e-17
4839.00244 1.30585e-17
4840.49571 1.28509e-17
4841.99901 1.30229e-17
4843.50231 1.29426e-17
4844.99559 1.30179e-17
4846.49889 1.30872e-17
4848.00219 1.27581e-17
4849.49547 1.27114e-17
4850.99877 1.27185e-17
4852.50207 1.27795e-17
4853.99535 1.27326e-17
4855.49865 1.28713e-17
4857.00195 1.27662e-17
4858.49523 1.26687e-17
4859.99853 1.29183e-17
4861.50183 1.28508e-17
4862.99510 1.27711e-17
4864.49840 1.28203e-17
4866.00170 1.28906e-17
4867.49498 1.28983e-17
4868.99828 1.28929e-17
4870.50158 1.30754e-17
4872.00488 1.31720e-17
4873.49816 1.32423e-17
4875.00146 1.32916e-17
4876.50476 1.31455e-17
4877.99804 1.30613e-17
4879.50134 1.33166e-17
4881.00464 1.34300e-17
4882.49792 1.34646e-17
4884.00122 1.34409e-17
4885.50452 1.34637e-17
4886.99779 1.33106e-17
4888.50109 1.35229e-17
4890.00439 1.34043e-17
4891.49767 1.32564e-17
4893.00097 1.34204e-17
4894.50427 1.34104e-17
4895.99755 1.34429e-17
4897.50085 1.36237e-17
4899.00415 1.36976e-17
4900.49743 1.36137e-17
4902.00073 1.36345e-17
4903.50403 1.38001e-17
4904.99731 1.36258e-17
4906.50061 1.36173e-17
4908.00391 1.35981e-17
4909.49718 1.37402e-17
4911.00048 1.35637e-17
4912.50378 1.35061e-17
4913.99706 1.36472e-17
4915.50036 1.37345e-17
4917.00366 1.35923e-17
4918.49694 1.35487e-17
4920.00024 1.35984e-17
4921.50354 1.35969e-17
4922.99682 1.36054e-17
4924.50012 1.36770e-17
4926.00342 1.35795e-17
4927.49670 1.34733e-17
4929.00000 1.36239e-17
4930.50330 1.37287e-17
4931.99657 1.37664e-17
4933.49987 1.35749e-17
4935.00317 1.35746e-17
4936.49645 1.36492e-17
4937.99975 1.35823e-17
4939.50305 1.37111e-17
4940.99633 1.39403e-17
4942.49963 1.39307e-17
4944.00293 1.38070e-17
4945.49621 1.35496e-17
4946.99951 1.34673e-17
4948.50281 1.35736e-17
4949.99609 1.35645e-17
4951.49939 1.35625e-17
4953.00269 1.37228e-17
4954.49596 1.38214e-17
4955.99926 1.37104e-17
4957.50256 1.37208e-17
4958.99584 1.36212e-17
4960.49914 1.36654e-17
4962.00244 1.37886e-17
4963.49572 1.37884e-17
4964.99902 1.36591e-17
4966.50232 1.34889e-17
4967.99560 1.36325e-17
4969.49890 1.35647e-17
4971.00220 1.34428e-17
4972.49548 1.34930e-17
4973.99878 1.34546e-17
4975.50208 1.34805e-17
4976.99535 1.35445e-17
4978.49865 1.36410e-17
4980.00195 1.32685e-17
4981.49523 1.36914e-17
4982.99853 1.36885e-17
4984.50183 1.34717e-17
4985.99511 1.36057e-17
4987.49841 1.37418e-17
4989.00171 1.38071e-17
4990.49499 1.34678e-17
4991.99829 1.32945e-17
4993.50159 1.33910e-17
4995.00489 1.32800e-17
4996.49817 1.32282e-17
4998.00147 1.32847e-17
4999.50477 1.33811e-17
5000.99804 1.35297e-17
5002.50134 1.32983e-17
5004.00464 1.33400e-17
5005.49792 1.33313e-17
5007.00122 1.33382e-17
5008.50452 1.33489e-17
5009.99780 1.34500e-17
5011.50110 1.34312e-17
5013.00440 1.34014e-17
5014.49768 1.34742e-17
5016.00098 1.35057e-17
5017.50428 1.35441e-17
5018.99756 1.34984e-17
5020.50086 1.34503e-17
5022.00416 1.35503e-17
5023.49743 1.36114e-17
5025.00073 1.35551e-17
5026.50403 1.35204e-17
5027.99731 1.35672e-17
5029.50061 1.36339e-17
5031.00391 1.35173e-17
5032.49719 1.35755e-17
5034.00049 1.36012e-17
5035.50379 1.36724e-17
5036.99707 1.36872e-17
5038.50037 1.37605e-17
5040.00367 1.38195e-17
5041.49695 1.37565e-17
5043.00025 1.36302e-17
5044.50355 1.39187e-17
5045.99682 1.38153e-17
5047.50012 1.39955e-17
5049.00342 1.41519e-17
5050.49670 1.38075e-17
5052.00000 1.38506e-17
5053.50330 1.41410e-17
5054.99658 1.39018e-17
5056.49988 1.40224e-17
5058.00318 1.42368e-17
5059.49646 1.38805e-17
5060.99976 1.38118e-17
5062.50306 1.37893e-17
5063.99634 1.41761e-17
5065.49964 1.42841e-17
5067.00294 1.42380e-17
5068.49621 1.42279e-17
5069.99951 1.41525e-17
5071.50281 1.39935e-17
5072.99609 1.42264e-17
5074.49939 1.41930e-17
5076.00269 1.41895e-17
5077.49597 1.42995e-17
5078.99927 1.43288e-17
5080.50257 1.42886e-17
5081.99585 1.42724e-17
5083.49915 1.44940e-17
5085.00245 1.45689e-17
5086.49573 1.43996e-17
5087.99903 1.43507e-17
5089.50233 1.44964e-17
5090.99560 1.44150e-17
5092.49890 1.44097e-17
5094.00220 1.45181e-17
5095.49548 1.46205e-17
5096.99878 1.48487e-17
5098.50208 1.48456e-17
5099.99536 1.47672e-17
5101.49866 1.49341e-17
5103.00196 1.48088e-17
5104.49524 1.47215e-17
5105.99854 1.47076e-17
5107.50184 1.48373e-17
5108.99512 1.48567e-17
5110.49842 1.50064e-17
5112.00172 1.51303e-17
5113.49499 1.50074e-17
5114.99829 1.51323e-17
5116.50159 1.50496e-17
5118.00489 1.49337e-17
5119.49817 1.51282e-17
5121.00147 1.49495e-17
5122.50477 1.51062e-17
5123.99805 1.49819e-17
5125.50135 1.47787e-17
5127.00465 1.49210e-17
5128.49793 1.52728e-17
5130.00123 1.53419e-17
5131.50453 1.50132e-17
5132.99781 1.53188e-17
5134.50111 1.53942e-17
5136.00441 1.53590e-17
5137.49768 1.53786e-17
5139.00098 1.51585e-17
5140.50428 1.52349e-17
5141.99756 1.53093e-17
5143.50086 1.52795e-17
5145.00416 1.53636e-17
5146.49744 1.54208e-17
5148.00074 1.55795e-17
5149.50404 1.56543e-17
5150.99732 1.54581e-17
5152.50062 1.52889e-17
5154.00392 1.54206e-17
5155.49720 1.56401e-17
5157.00050 1.56279e-17
5158.50380 1.55781e-17
5159.99707 1.57818e-17
5161.50037 1.59373e-17
5163.00367 1.58320e-17
5164.49695 1.57455e-17
5166.00025 1.58280e-17
5167.50355 1.59193e-17
5168.99683 1.59173e-17
5170.50013 1.60561e-17
5172.00343 1.62201e-17
5173.49671 1.62857e-17
5175.00001 1.62727e-17
5176.50331 1.63845e-17
5177.99659 1.63695e-17
5179.49989 1.65917e-17
5181.00319 1.66333e-17
5182.49646 1.65879e-17
5183.99976 1.65767e-17
5185.50306 1.65202e-17
5186.99634 1.66247e-17
5188.49964 1.67904e-17
5190.00294 1.67081e-17
5191.49622 1.67194e-17
5192.99952 1.67120e-17
5194.50282 1.64968e-17
5195.99610 1.66460e-17
5197.49940 1.69456e-17
5199.00270 1.70436e-17
5200.49598 1.67748e-17
5201.99928 1.69857e-17
5203.50258 1.71066e-17
5204.99585 1.70128e-17
5206.49915 1.70909e-17
5208.00245 1.70729e-17
5209.49573 1.71756e-17
5210.99903 1.73416e-17
5212.50233 1.72431e-17
5213.99561 1.72063e-17
5215.49891 1.74570e-17
5217.00221 1.75903e-17
5218.49549 1.74716e-17
5219.99879 1.73886e-17
5221.50209 1.76353e-17
5222.99537 1.78049e-17
5224.49867 1.77601e-17
5226.00197 1.78351e-17
5227.49524 1.79684e-17
5228.99854 1.79835e-17
5230.50184 1.79015e-17
5231.99512 1.78707e-17
5233.49842 1.79457e-17
5235.00172 1.79324e-17
5236.49500 1.80754e-17
5237.99830 1.81848e-17
5239.50160 1.81242e-17
5241.00490 1.80534e-17
5242.49818 1.79754e-17
5244.00148 1.79830e-17
5245.50478 1.81025e-17
5246.99806 1.79918e-17
5248.50136 1.79487e-17
5250.00466 1.80986e-17
5251.49793 1.82253e-17
5253.00123 1.82313e-17
5254.50453 1.81275e-17
5255.99781 1.81911e-17
5257.50111 1.83515e-17
5259.00441 1.85001e-17
5260.49769 1.84642e-17
5262.00099 1.82866e-17
5263.50429 1.82813e-17
5264.99757 1.82648e-17
5266.50087 1.80726e-17
5268.00417 1.81592e-17
5269.49745 1.83838e-17
5271.00075 1.83926e-17
5272.50405 1.84833e-17
5273.99732 1.85165e-17
5275.50062 1.85957e-17
5277.00392 1.86042e-17
5278.49720 1.86229e-17
5280.00050 1.86558e-17
5281.50380 1.85602e-17
5282.99708 1.85384e-17
5284.50038 1.86486e-17
5286.00368 1.87127e-17
5287.49696 1.86102e-17
5289.00026 1.87334e-17
5290.50356 1.88621e-17
5291.99684 1.89132e-17
5293.50014 1.88881e-17
5295.00344 1.88016e-17
5296.49671 1.88273e-17
5298.00001 1.88532e-17
5299.50331 1.88794e-17
5300.99659 1.88326e-17
5302.49989 1.87956e-17
5304.00319 1.87574e-17
5305.49647 1.87619e-17
5306.99977 1.86484e-17
5308.50307 1.87024e-17
5309.99635 1.89841e-17
5311.49965 1.89885e-17
5313.00295 1.88452e-17
5314.49623 1.88665e-17
5315.99953 1.88148e-17
5317.50283 1.87404e-17
5318.99610 1.88895e-17
5320.49940 1.89256e-17
5322.00270 1.87618e-17
5323.49598 1.87772e-17
5324.99928 1.87297e-17
5326.50258 1.86375e-17
5327.99586 1.87196e-17
5329.49916 1.86463e-17
5331.00246 1.87938e-17
5332.49574 1.89342e-17
5333.99904 1.87568e-17
5335.50234 1.87458e-17
5336.99562 1.89700e-17
5338.49892 1.87560e-17
5340.00222 1.87433e-17
5341.49549 1.88613e-17
5342.99879 1.88240e-17
5344.50209 1.89715e-17
5345.99537 1.89926e-17
5347.49867 1.90981e-17
5349.00197 1.92925e-17
5350.49525 1.91482e-17
5351.99855 1.91879e-17
5353.50185 1.91660e-17
5354.99513 1.90945e-17
5356.49843 1.91319e-17
5358.00173 1.90592e-17
5359.49501 1.90622e-17
5360.99831 1.90448e-17
5362.50161 1.90569e-17
5364.00491 1.91450e-17
5365.49818 1.92029e-17
5367.00148 1.91385e-17
5368.50478 1.91515e-17
5369.99806 1.92484e-17
5371.50136 1.93651e-17
5373.00466 1.92974e-17
5374.49794 1.93340e-17
5376.00124 1.94829e-17
5377.50454 1.95151e-17
5378.99782 1.96457e-17
5380.50112 1.95989e-17
5382.00442 1.94945e-17
5383.49770 1.93963e-17
5385.00100 1.92806e-17
5386.50430 1.94858e-17
5387.99757 1.96355e-17
5389.50087 1.96319e-17
5391.00417 1.95887e-17
5392.49745 1.97309e-17
5394.00075 1.96854e-17
5395.50405 1.95613e-17
5396.99733 1.96858e-17
5398.50063 1.94523e-17
5400.00393 1.96204e-17
5401.49721 1.98015e-17
5403.00051 1.98416e-17
5404.50381 1.96176e-17
5405.99709 1.94860e-17
5407.50039 1.97066e-17
5409.00369 1.96549e-17
5410.49696 1.95115e-17
5412.00026 1.97194e-17
5413.50356 1.95160e-17
5414.99684 1.96982e-17
5416.50014 1.97439e-17
5418.00344 1.96448e-17
5419.49672 1.97443e-17
5421.00002 1.96586e-17
5422.50332 1.97122e-17
5423.99660 1.97963e-17
5425.49990 1.96601e-17
5427.00320 1.96287e-17
5428.49648 1.97651e-17
5429.99978 1.96193e-17
5431.50308 1.96880e-17
5432.99635 1.96644e-17
5434.49965 1.98000e-17
5436.00295 1.98514e-17
5437.49623 1.97559e-17
5438.99953 1.95819e-17
5440.50283 1.97300e-17
5441.99611 1.99354e-17
5443.49941 1.98137e-17
5445.00271 1.97445e-17
5446.49599 1.97535e-17
5447.99929 1.97924e-17
5449.50259 1.97401e-17
5450.99587 1.95593e-17
5452.49917 1.95701e-17
5454.00247 1.97463e-17
5455.49574 1.97862e-17
5456.99904 1.97555e-17
5458.50234 1.95198e-17
5459.99562 1.94897e-17
5461.49892 1.96879e-17
5463.00222 1.95262e-17
5464.49550 1.96135e-17
5465.99880 1.93863e-17
5467.50210 1.91813e-17
5468.99538 1.92431e-17
5470.49868 1.93903e-17
5472.00198 1.92893e-17
5473.49526 1.92432e-17
5474.99856 1.93227e-17
5476.50186 1.92104e-17
5477.99513 1.90356e-17
5479.49843 1.88558e-17
5481.00173 1.90227e-17
5482.49501 1.87895e-17
5483.99831 1.87853e-17
5485.50161 1.90602e-17
5487.00491 1.87562e-17
5488.49819 1.85268e-17
5490.00149 1.88431e-17
5491.50479 1.90057e-17
5492.99807 1.88662e-17
5494.50137 1.87960e-17
5496.00467 1.88425e-17
5497.49795 1.87077e-17
5499.00125 1.85573e-17
5500.50455 1.86062e-17
5501.99782 1.84536e-17
5503.50112 1.84434e-17
5505.00442 1.84780e-17
5506.49770 1.84441e-17
5508.00100 1.84106e-17
5509.50430 1.84700e-17
5510.99758 1.86146e-17
5512.50088 1.85242e-17
5514.00418 1.82390e-17
5515.49746 1.81750e-17
5517.00076 1.82539e-17
5518.50406 1.82149e-17
5519.99734 1.83138e-17
5521.50064 1.83961e-17
5523.00394 1.81509e-17
5524.49721 1.80645e-17
5526.00051 1.79979e-17
5527.50381 1.79759e-17
5528.99709 1.79920e-17
5530.50039 1.80500e-17
5532.00369 1.80496e-17
5533.49697 1.79996e-17
5535.00027 1.79399e-17
5536.50357 1.80518e-17
5537.99685 1.79148e-17
5539.50015 1.77815e-17
5541.00345 1.78971e-17
5542.49673 1.79036e-17
5544.00003 1.79745e-17
5545.50333 1.78102e-17
5546.99660 1.77227e-17
5548.49990 1.76460e-17
5550.00320 1.76652e-17
5551.49648 1.77869e-17
5552.99978 1.75491e-17
5554.50308 1.74308e-17
5555.99636 1.73459e-17
5557.49966 1.72752e-17
5559.00296 1.73489e-17
5560.49624 1.72324e-17
5561.99954 1.75548e-17
5563.50284 1.76401e-17
5564.99612 1.74788e-17
5566.49942 1.75240e-17
5568.00272 1.73954e-17
5569.49599 1.72775e-17
5570.99929 1.71367e-17
5572.50259 1.72699e-17
5573.99587 1.73529e-17
5575.49917 1.72119e-17
5577.00247 1.69766e-17
5578.49575 1.68475e-17
5579.99905 1.69368e-17
5581.50235 1.69209e-17
5582.99563 1.67231e-17
5584.49893 1.67273e-17
5586.00223 1.67454e-17
5587.49551 1.68436e-17
5588.99881 1.68254e-17
5590.50211 1.67367e-17
5591.99538 1.67242e-17
5593.49868 1.65938e-17
5595.00198 1.64763e-17
5596.49526 1.66256e-17
5597.99856 1.67084e-17
5599.50186 1.66510e-17
5600.99514 1.64561e-17
5602.49844 1.63367e-17
5604.00174 1.63800e-17
5605.49502 1.63532e-17
5606.99832 1.63116e-17
5608.50162 1.62580e-17
5610.00492 1.61776e-17
5611.49820 1.60562e-17
5613.00150 1.61427e-17
5614.50480 1.61298e-17
5615.99807 1.58816e-17
5617.50137 1.57943e-17
5619.00467 1.59085e-17
5620.49795 1.58197e-17
5622.00125 1.57536e-17
5623.50455 1.55676e-17
5624.99783 1.55379e-17
5626.50113 1.57072e-17
5628.00443 1.53337e-17
5629.49771 1.53378e-17
5631.00101 1.55135e-17
5632.50431 1.54097e-17
5633.99759 1.54373e-17
5635.50089 1.53719e-17
5637.00419 1.50125e-17
5638.49746 1.50561e-17
5640.00076 1.51958e-17
5641.50406 1.50467e-17
5642.99734 1.49372e-17
5644.50064 1.48322e-17
5646.00394 1.48076e-17
5647.49722 1.46800e-17
5649.00052 1.47657e-17
5650.50382 1.48895e-17
5651.99710 1.46812e-17
5653.50040 1.45745e-17
5655.00370 1.46091e-17
5656.49698 1.45104e-17
5658.00028 1.43670e-17
5659.50358 1.44096e-17
5660.99685 1.44567e-17
5662.50015 1.42730e-17
5664.00345 1.41952e-17
5665.49673 1.43921e-17
5667.00003 1.43630e-17
5668.50333 1.41544e-17
5669.99661 1.40732e-17
5671.49991 1.39844e-17
5673.00321 1.40352e-17
5674.49649 1.41479e-17
5675.99979 1.39671e-17
5677.50309 1.39078e-17
5678.99637 1.39590e-17
5680.49967 1.39986e-17
5682.00297 1.39203e-17
5683.49624 1.39002e-17
5684.99954 1.38679e-17
5686.50284 1.38008e-17
5687.99612 1.38578e-17
5689.49942 1.37458e-17
5691.00272 1.36491e-17
5692.49600 1.35042e-17
5693.99930 1.35472e-17
5695.50260 1.36363e-17
5696.99588 1.36410e-17
5698.49918 1.36225e-17
5700.00248 1.37417e-17
5701.49576 1.36465e-17
5702.99906 1.35086e-17
5704.50236 1.34921e-17
5705.99563 1.35699e-17
5707.49893 1.35580e-17
5709.00223 1.35182e-17
5710.49551 1.36266e-17
5711.99881 1.38909e-17
5713.50211 1.37250e-17
5714.99539 1.37385e-17
5716.49869 1.38396e-17
5718.00199 1.37351e-17
5719.49527 1.36829e-17
5720.99857 1.37839e-17
5722.50187 1.38145e-17
5723.99515 1.38120e-17
5725.49845 1.37496e-17
5727.00175 1.38418e-17
5728.49502 1.39207e-17
5729.99832 1.38382e-17
5731.50162 1.38647e-17
5733.00492 1.39106e-17
5734.49820 1.38782e-17
5736.00150 1.38316e-17
5737.50480 1.37686e-17
5738.99808 1.37624e-17
5740.50138 1.38501e-17
5742.00468 1.39069e-17
5743.49796 1.39232e-17
5745.00126 1.37895e-17
5746.50456 1.36763e-17
5747.99784 1.38102e-17
5749.50114 1.36260e-17
5751.00444 1.36006e-17
5752.49771 1.39408e-17
5754.00101 1.40050e-17
5755.50431 1.38338e-17
5756.99759 1.38063e-17
5758.50089 1.38450e-17
5760.00419 1.40224e-17
5761.49747 1.41854e-17
5763.00077 1.42009e-17
5764.50407 1.36547e-17
5765.99735 1.37818e-17
5767.50065 1.40292e-17
5769.00395 1.41143e-17
5770.49723 1.41186e-17
5772.00053 1.39647e-17
5773.50383 1.40210e-17
5774.99710 1.39658e-17
5776.50040 1.41485e-17
5778.00370 1.40956e-17
5779.49698 1.38806e-17
5781.00028 1.37840e-17
5782.50358 1.40844e-17
5783.99686 1.41179e-17
5785.50016 1.40459e-17
5787.00346 1.41741e-17
5788.49674 1.42095e-17
5790.00004 1.41152e-17
5791.50334 1.41418e-17
5792.99662 1.41937e-17
5794.49992 1.42312e-17
5796.00322 1.42638e-17
5797.49649 1.42584e-17
5798.99979 1.42391e-17
5800.50309 1.41625e-17
5801.99637 1.42297e-17
5803.49967 1.42076e-17
5805.00297 1.40970e-17
5806.49625 1.42234e-17
5807.99955 1.42802e-17
5809.50285 1.41082e-17
5810.99613 1.41875e-17
5812.49943 1.41548e-17
5814.00273 1.40775e-17
5815.49601 1.41366e-17
5816.99931 1.41352e-17
5818.50261 1.40931e-17
5819.99588 1.41847e-17
5821.49918 1.41617e-17
5823.00248 1.39970e-17
5824.49576 1.40735e-17
5825.99906 1.43383e-17
5827.50236 1.42310e-17
5828.99564 1.41380e-17
5830.49894 1.42707e-17
5832.00224 1.41485e-17
5833.49552 1.41183e-17
5834.99882 1.41732e-17
5836.50212 1.41857e-17
5837.99540 1.41627e-17
5839.49870 1.41344e-17
5841.00200 1.40690e-17
5842.49527 1.41103e-17
5843.99857 1.40361e-17
5845.50187 1.40760e-17
5846.99515 1.40340e-17
5848.49845 1.40245e-17
5850.00175 1.40934e-17
5851.49503 1.40851e-17
5852.99833 1.41870e-17
5854.50163 1.41276e-17
5856.00493 1.39409e-17
5857.49821 1.39414e-17
5859.00151 1.39288e-17
5860.50481 1.39848e-17
5861.99809 1.41679e-17
5863.50139 1.43915e-17
5865.00469 1.43057e-17
5866.49796 1.40594e-17
5868.00126 1.40157e-17
5869.50456 1.40109e-17
5870.99784 1.40016e-17
5872.50114 1.39908e-17
5874.00444 1.39726e-17
5875.49772 1.39518e-17
5877.00102 1.39556e-17
5878.50432 1.41763e-17
5879.99760 1.42926e-17
5881.50090 1.40806e-17
5883.00420 1.38560e-17
5884.49748 1.37707e-17
5886.00078 1.35448e-17
5887.50408 1.33473e-17
5888.99735 1.33034e-17
5890.50065 1.33109e-17
5892.00395 1.33413e-17
5893.49723 1.33162e-17
5895.00053 1.32909e-17
5896.50383 1.31818e-17
5897.99711 1.31353e-17
5899.50041 1.33693e-17
5901.00371 1.34460e-17
5902.49699 1.35140e-17
5904.00029 1.36739e-17
5905.50359 1.37763e-17
5906.99687 1.38313e-17
5908.50017 1.35724e-17
5910.00347 1.34911e-17
5911.49674 1.36191e-17
5913.00004 1.35699e-17
5914.50334 1.34586e-17
5915.99662 1.37398e-17
5917.49992 1.35927e-17
5919.00322 1.33492e-17
5920.49650 1.33027e-17
5921.99980 1.33522e-17
5923.50310 1.34408e-17
5924.99638 1.34944e-17
5926.49968 1.34967e-17
5928.00298 1.35683e-17
5929.49626 1.34987e-17
5930.99956 1.33169e-17
5932.50286 1.33882e-17
5933.99613 1.34079e-17
5935.49943 1.33119e-17
5937.00273 1.33118e-17
5938.49601 1.33297e-17
5939.99931 1.33125e-17
5941.50261 1.32386e-17
5942.99589 1.32560e-17
5944.49919 1.33113e-17
5946.00249 1.32497e-17
5947.49577 1.32164e-17
5948.99907 1.32476e-17
5950.50237 1.31911e-17
5951.99565 1.31549e-17
5953.49895 1.31236e-17
5955.00225 1.31363e-17
5956.49552 1.32002e-17
5957.99882 1.30464e-17
5959.50212 1.29463e-17
5960.99540 1.29607e-17
5962.49870 1.30900e-17
5964.00200 1.31483e-17
5965.49528 1.31168e-17
5966.99858 1.31175e-17
5968.50188 1.29699e-17
5970.00518 1.29617e-17
5971.49846 1.29746e-17
5973.00176 1.28988e-17
5974.49504 1.29044e-17
5975.99834 1.29770e-17
5977.50164 1.29527e-17
5979.00494 1.28098e-17
5980.49821 1.27961e-17
5982.00151 1.29464e-17
5983.50481 1.28279e-17
5984.99809 1.29412e-17
5986.50139 1.30139e-17
5988.00469 1.29283e-17
5989.49797 1.30414e-17
5991.00127 1.30987e-17
5992.50457 1.29051e-17
5993.99785 1.30847e-17
5995.50115 1.29653e-17
5997.00445 1.28203e-17
5998.49773 1.28906e-17
6000.00103 1.28617e-17
6001.50433 1.27785e-17
6002.99760 1.29619e-17
6004.50090 1.29313e-17
6006.00420 1.30594e-17
6007.49748 1.29677e-17
6009.00078 1.28488e-17
6010.50408 1.27561e-17
6011.99736 1.27086e-17
6013.50066 1.26601e-17
6015.00396 1.26602e-17
6016.49724 1.27608e-17
6018.00054 1.27550e-17
6019.50384 1.27745e-17
6020.99712 1.27768e-17
6022.50042 1.27546e-17
6024.00372 1.27530e-17
6025.49699 1.27141e-17
6027.00029 1.27206e-17
6028.50359 1.26578e-17
6029.99687 1.25774e-17
6031.50017 1.25863e-17
6033.00347 1.26004e-17
6034.49675 1.25715e-17
6036.00005 1.25386e-17
6037.50335 1.25206e-17
6038.99663 1.23863e-17
6040.49993 1.22987e-17
6042.00323 1.22111e-17
6043.49651 1.21235e-17
6044.99981 1.21028e-17
6046.50311 1.21101e-17
6047.99638 1.21953e-17
6049.49968 1.21905e-17
6051.00298 1.20469e-17
6052.49626 1.19412e-17
6053.99956 1.20994e-17
6055.50286 1.21674e-17
6056.99614 1.22078e-17
6058.49944 1.20355e-17
6060.00274 1.18378e-17
6061.49602 1.19312e-17
6062.99932 1.19807e-17
6064.50262 1.19615e-17
6065.99590 1.18872e-17
6067.49920 1.18105e-17
6069.00250 1.18125e-17
6070.49577 1.18511e-17
6071.99907 1.19126e-17
6073.50237 1.20040e-17
6074.99565 1.19310e-17
6076.49895 1.16997e-17
6078.00225 1.17282e-17
6079.49553 1.18747e-17
6080.99883 1.19022e-17
6082.50213 1.18036e-17
6083.99541 1.17418e-17
6085.49871 1.17053e-17
6087.00201 1.16058e-17
6088.49529 1.16159e-17
6089.99859 1.16816e-17
6091.50189 1.17666e-17
6092.99516 1.18175e-17
6094.49846 1.17909e-17
6096.00176 1.17400e-17
6097.49504 1.17102e-17
6098.99834 1.16165e-17
6100.50164 1.15947e-17
6101.99492 1.17591e-17
6103.49822 1.17251e-17
6105.00152 1.16626e-17
6106.50482 1.18121e-17
6107.99810 1.18701e-17
6109.50140 1.17642e-17
6111.00470 1.17400e-17
6112.49798 1.18065e-17
6114.00128 1.18557e-17
6115.50458 1.17888e-17
6116.99785 1.17556e-17
6118.50115 1.18236e-17
6120.00445 1.18249e-17
6121.49773 1.16805e-17
6123.00103 1.17532e-17
6124.50433 1.17643e-17
6125.99761 1.17016e-17
6127.50091 1.17786e-17
6129.00421 1.16746e-17
6130.49749 1.17729e-17
6132.00079 1.17996e-17
6133.50409 1.17368e-17
6134.99737 1.15978e-17
6136.50067 1.17066e-17
6138.00397 1.16770e-17
6139.49724 1.16289e-17
6141.00054 1.17571e-17
6142.50384 1.16522e-17
6143.99712 1.16680e-17
6145.50042 1.16046e-17
6147.00372 1.15769e-17
6148.49700 1.15600e-17
6150.00030 1.15627e-17
6151.50360 1.14625e-17
6152.99688 1.14279e-17
6154.50018 1.13868e-17
6156.00348 1.12443e-17
6157.49676 1.12990e-17
6159.00006 1.13407e-17
6160.50336 1.12916e-17
6161.99663 1.12164e-17
6163.49993 1.11055e-17
6165.00323 1.11260e-17
6166.49651 1.11525e-17
6167.99981 1.11341e-17
6169.50311 1.11264e-17
6170.99639 1.11860e-17
6172.49969 1.12354e-17
6174.00299 1.11979e-17
6175.49627 1.12016e-17
6176.99957 1.12161e-17
6178.50287 1.11787e-17
6179.99615 1.12192e-17
6181.49945 1.13243e-17
6183.00275 1.12320e-17
6184.49602 1.10379e-17
6185.99932 1.11360e-17
6187.50262 1.11917e-17
6188.99590 1.13160e-17
6190.49920 1.13976e-17
6192.00250 1.11668e-17
6193.49578 1.11810e-17
6194.99908 1.13306e-17
6196.50238 1.14170e-17
6197.99566 1.12067e-17
6199.49896 1.12122e-17
6201.00226 1.11789e-17
6202.49554 1.13084e-17
6203.99884 1.13625e-17
6205.50214 1.12495e-17
6206.99541 1.12943e-17
6208.49871 1.13757e-17
6210.00201 1.16288e-17
6211.49529 1.14977e-17
6212.99859 1.14255e-17
6214.50189 1.13172e-17
6215.99517 1.13629e-17
6217.49847 1.13197e-17
6219.00177 1.14019e-17
6220.49505 1.14551e-17
6221.99835 1.14497e-17
6223.50165 1.14244e-17
6224.99493 1.14872e-17
6226.49823 1.15173e-17
6228.00153 1.15401e-17
6229.50483 1.15465e-17
6230.99810 1.15688e-17
6232.50140 1.16530e-17
6234.00470 1.16236e-17
6235.49798 1.15326e-17
6237.00128 1.16006e-17
6238.50458 1.17735e-17
6239.99786 1.18087e-17
6241.50116 1.17811e-17
6243.00446 1.16666e-17
6244.49774 1.16886e-17
6246.00104 1.18416e-17
6247.50434 1.20319e-17
6248.99762 1.19066e-17
6250.50092 1.18042e-17
6252.00422 1.18209e-17
6253.49749 1.18255e-17
6255.00079 1.19371e-17
6256.50409 1.21899e-17
6257.99737 1.20672e-17
6259.50067 1.19154e-17
6261.00397 1.20552e-17
6262.49725 1.20226e-17
6264.00055 1.21288e-17
6265.50385 1.21652e-17
6266.99713 1.21977e-17
6268.50043 1.23443e-17
6270.00373 1.24742e-17
6271.49701 1.21818e-17
6273.00031 1.19259e-17
6274.50361 1.20581e-17
6275.99688 1.22036e-17
6277.50018 1.22443e-17
6279.00348 1.20881e-17
6280.49676 1.21092e-17
6282.00006 1.22725e-17
6283.50336 1.22322e-17
6284.99664 1.24453e-17
6286.49994 1.25517e-17
6288.00324 1.26385e-17
6289.49652 1.26483e-17
6290.99982 1.24909e-17
6292.50312 1.23997e-17
6293.99640 1.26108e-17
6295.49970 1.26845e-17
6297.00300 1.25712e-17
6298.49627 1.25998e-17
6299.99957 1.25969e-17
6301.50287 1.27143e-17
6302.99615 1.27645e-17
6304.49945 1.26716e-17
6306.00275 1.26892e-17
6307.49603 1.25791e-17
6308.99933 1.25084e-17
6310.50263 1.27107e-17
6311.99591 1.28918e-17
6313.49921 1.29369e-17
6315.00251 1.28934e-17
6316.49579 1.28981e-17
6317.99909 1.30023e-17
6319.50239 1.29009e-17
6320.99566 1.28210e-17
6322.49896 1.28462e-17
6324.00226 1.28657e-17
6325.49554 1.30155e-17
6326.99884 1.30805e-17
6328.50214 1.30818e-17
6329.99542 1.30874e-17
6331.49872 1.28711e-17
6333.00202 1.28996e-17
6334.49530 1.30576e-17
6335.99860 1.30788e-17
6337.50190 1.31565e-17
6338.99518 1.31880e-17
6340.49848 1.30021e-17
6342.00178 1.30605e-17
6343.49505 1.30696e-17
6344.99835 1.31898e-17
6346.50165 1.32495e-17
6347.99493 1.30885e-17
6349.49823 1.32508e-17
6351.00153 1.36021e-17
6352.50483 1.32843e-17
6353.99811 1.31292e-17
6355.50141 1.30538e-17
6357.00471 1.31058e-17
6358.49799 1.31188e-17
6360.00129 1.32681e-17
6361.50459 1.33172e-17
6362.99787 1.32740e-17
6364.50117 1.31262e-17
6366.00447 1.31126e-17
6367.49774 1.30327e-17
6369.00104 1.30444e-17
6370.50434 1.29754e-17
6371.99762 1.30440e-17
6373.50092 1.31191e-17
6375.00422 1.31383e-17
6376.49750 1.31509e-17
6378.00080 1.30645e-17
6379.50410 1.30378e-17
6380.99738 1.30338e-17
6382.50068 1.30222e-17
6384.00398 1.31456e-17
6385.49726 1.32070e-17
6387.00056 1.30937e-17
6388.50386 1.29961e-17
6389.99713 1.30379e-17
6391.50043 1.30393e-17
6393.00373 1.29211e-17
6394.49701 1.29188e-17
6396.00031 1.29968e-17
6397.50361 1.29007e-17
6398.99689 1.29516e-17
6400.50019 1.29244e-17
6402.00349 1.30050e-17
6403.49677 1.28941e-17
6405.00007 1.28712e-17
6406.50337 1.28858e-17
6407.99665 1.28434e-17
6409.49995 1.28980e-17
6411.00325 1.30834e-17
6412.49652 1.29576e-17
6413.99982 1.29833e-17
6415.50312 1.29862e-17
6416.99640 1.29010e-17
6418.49970 1.28195e-17
6420.00300 1.29558e-17
6421.49628 1.30076e-17
6422.99958 1.29852e-17
6424.50288 1.29922e-17
6425.99616 1.30355e-17
6427.49946 1.29063e-17
6429.00276 1.29662e-17
6430.49604 1.29546e-17
6431.99934 1.29255e-17
6433.50264 1.29427e-17
6434.99591 1.30066e-17
6436.49921 1.30142e-17
6438.00251 1.30670e-17
6439.49579 1.30850e-17
6440.99909 1.29500e-17
6442.50239 1.27667e-17
6443.99567 1.26909e-17
6445.49897 1.28288e-17
6447.00227 1.28225e-17
6448.49555 1.27644e-17
6449.99885 1.28498e-17
6451.50215 1.28094e-17
6452.99543 1.27620e-17
6454.49873 1.27659e-17
6456.00203 1.27308e-17
6457.49530 1.28035e-17
6458.99860 1.28170e-17
6460.50190 1.27750e-17
6461.99518 1.28293e-17
6463.49848 1.27823e-17
6465.00178 1.27941e-17
6466.49506 1.27693e-17
6467.99836 1.27170e-17
6469.50166 1.27561e-17
6470.99494 1.27327e-17
6472.49824 1.26779e-17
6474.00154 1.26349e-17
6475.50484 1.24809e-17
6476.99812 1.24112e-17
6478.50142 1.25158e-17
6480.00472 1.26082e-17
6481.49799 1.26595e-17
6483.00129 1.26229e-17
6484.50459 1.24663e-17
6485.99787 1.25372e-17
6487.50117 1.27227e-17
6489.00447 1.26322e-17
6490.49775 1.26118e-17
6492.00105 1.26578e-17
6493.50435 1.25825e-17
6494.99763 1.26926e-17
6496.50093 1.28065e-17
6498.00423 1.27895e-17
6499.49751 1.27283e-17
6501.00081 1.26417e-17
6502.50411 1.27018e-17
6503.99738 1.27569e-17
6505.50068 1.27635e-17
6507.00398 1.28066e-17
6508.49726 1.27123e-17
6510.00056 1.27055e-17
6511.50386 1.27422e-17
6512.99714 1.26074e-17
6514.50044 1.26582e-17
6516.00374 1.27351e-17
6517.49702 1.26854e-17
6519.00032 1.27241e-17
6520.50362 1.27214e-17
6521.99690 1.28059e-17
6523.50020 1.28291e-17
6525.00350 1.27805e-17
6526.49677 1.28669e-17
6528.00007 1.28174e-17
6529.50337 1.26844e-17
6530.99665 1.26365e-17
6532.49995 1.26730e-17
6534.00325 1.26768e-17
6535.49653 1.26949e-17
6536.99983 1.25578e-17
6538.50313 1.24941e-17
6539.99641 1.24875e-17
6541.49971 1.25692e-17
6543.00301 1.25934e-17
6544.49629 1.25525e-17
6545.99959 1.25490e-17
6547.50289 1.25676e-17
6548.99616 1.25499e-17
6550.49946 1.25351e-17
6552.00276 1.26063e-17
6553.49604 1.25818e-17
6554.99934 1.22918e-17
6556.50264 1.23988e-17
6557.99592 1.24601e-17
6559.49922 1.23628e-17
6561.00252 1.24579e-17
6562.49580 1.23708e-17
6563.99910 1.24164e-17
6565.50240 1.24962e-17
6566.99568 1.23519e-17
6568.49898 1.23262e-17
6570.00228 1.24391e-17
6571.49555 1.24719e-17
6572.99885 1.24767e-17
6574.50215 1.24263e-17
6575.99543 1.23894e-17
6577.49873 1.24080e-17
6579.00203 1.23081e-17
6580.49531 1.21766e-17
6581.99861 1.19962e-17
6583.50191 1.21004e-17
6584.99519 1.22382e-17
6586.49849 1.21226e-17
6588.00179 1.20155e-17
6589.49507 1.20245e-17
6590.99837 1.20539e-17
6592.50167 1.20904e-17
6593.99494 1.21033e-17
6595.49824 1.19961e-17
6597.00154 1.19383e-17
6598.50484 1.19564e-17
6599.99812 1.19976e-17
6601.50142 1.20261e-17
6603.00472 1.19733e-17
6604.49800 1.19054e-17
6606.00130 1.19421e-17
6607.50460 1.19238e-17
6608.99788 1.19281e-17
6610.50118 1.19219e-17
6612.00448 1.18473e-17
6613.49776 1.19321e-17
6615.00106 1.18948e-17
6616.50436 1.17525e-17
6617.99763 1.17522e-17
6619.50093 1.17413e-17
6621.00423 1.17966e-17
6622.49751 1.19093e-17
6624.00081 1.16868e-17
6625.50411 1.17701e-17
6626.99739 1.17721e-17
6628.50069 1.18061e-17
6630.00399 1.17405e-17
6631.49727 1.16772e-17
6633.00057 1.17109e-17
6634.50387 1.16257e-17
6635.99715 1.17065e-17
6637.50045 1.15420e-17
6639.00375 1.15495e-17
6640.49702 1.16153e-17
6642.00032 1.16998e-17
6643.50362 1.16529e-17
6644.99690 1.16146e-17
6646.50020 1.16325e-17
6648.00350 1.14908e-17
6649.49678 1.14688e-17
6651.00008 1.15686e-17
6652.50338 1.14607e-17
6653.99666 1.14251e-17
6655.49996 1.14910e-17
6657.00326 1.14274e-17
6658.49654 1.13372e-17
6659.99984 1.13727e-17
6661.50314 1.13458e-17
6662.99641 1.13081e-17
6664.49971 1.13797e-17
6666.00301 1.13953e-17
6667.49629 1.13129e-17
6668.99959 1.12421e-17
6670.50289 1.12297e-17
6671.99617 1.11471e-17
6673.49947 1.11242e-17
6675.00277 1.11938e-17
6676.49605 1.12542e-17
6677.99935 1.11679e-17
6679.50265 1.10931e-17
6680.99593 1.11103e-17
6682.49923 1.12761e-17
6684.00253 1.12705e-17
6685.49580 1.10637e-17
6686.99910 1.11260e-17
6688.50240 1.11267e-17
6689.99568 1.10666e-17
6691.49898 1.11731e-17
6693.00228 1.11271e-17
6694.49556 1.09549e-17
6695.99886 1.09610e-17
6697.50216 1.09664e-17
6698.99544 1.09839e-17
6700.49874 1.09560e-17
6702.00204 1.11006e-17
6703.49532 1.10739e-17
6704.99862 1.09654e-17
6706.50192 1.08702e-17
6707.99519 1.10163e-17
6709.49849 1.11009e-17
6711.00179 1.09939e-17
6712.49507 1.08729e-17
6713.99837 1.08952e-17
6715.50167 1.09377e-17
6716.99495 1.08762e-17
6718.49825 1.09382e-17
6720.00155 1.09314e-17
6721.50485 1.09020e-17
6722.99813 1.08552e-17
6724.50143 1.07754e-17
6726.00473 1.07892e-17
6727.49801 1.08783e-17
6729.00131 1.08471e-17
6730.50461 1.07867e-17
6731.99788 1.08073e-17
6733.50118 1.08183e-17
6735.00448 1.08302e-17
6736.49776 1.07724e-17
6738.00106 1.06423e-17
6739.50436 1.05624e-17
6740.99764 1.05777e-17
6742.50094 1.06890e-17
6744.00424 1.07671e-17
6745.49752 1.06666e-17
6747.00082 1.05844e-17
6748.50412 1.06178e-17
6749.99740 1.07487e-17
6751.50070 1.07604e-17
6753.00400 1.05890e-17
6754.49727 1.05089e-17
6756.00057 1.06167e-17
6757.50387 1.05464e-17
6758.99715 1.04618e-17
6760.50045 1.04804e-17
6762.00375 1.05142e-17
6763.49703 1.03517e-17
6765.00033 1.03297e-17
6766.50363 1.02879e-17
6767.99691 1.04058e-17
6769.50021 1.05546e-17
6771.00351 1.03701e-17
6772.49679 1.02265e-17
6774.00009 1.03722e-17
6775.50339 1.02493e-17
6776.99666 1.03105e-17
6778.49996 1.03578e-17
6780.00326 1.01763e-17
6781.49654 1.00603e-17
6782.99984 1.01377e-17
6784.50314 1.02942e-17
6785.99642 1.02279e-17
6787.49972 9.95643e-18
6789.00302 1.00959e-17
6790.49630 1.02649e-17
6791.99960 1.00902e-17
6793.50290 1.00582e-17
6794.99618 9.94080e-18
6796.49948 9.95227e-18
6798.00278 1.00386e-17
6799.49605 9.90953e-18
6800.99935 9.86443e-18
6802.50265 9.99294e-18
6803.99593 9.99146e-18
6805.49923 9.85852e-18
6807.00253 9.81885e-18
6808.49581 9.94740e-18
6809.99911 1.00054e-17
6811.50241 9.95710e-18
6812.99569 9.85795e-18
6814.49899 9.85777e-18
6816.00229 9.86608e-18
6817.49557 9.89468e-18
6818.99887 9.88782e-18
6820.50217 9.79955e-18
6821.99544 9.81922e-18
6823.49874 9.73921e-18
6825.00204 9.73191e-18
6826.49532 9.79957e-18
6827.99862 9.86977e-18
6829.50192 9.73540e-18
6830.99520 9.71883e-18
6832.49850 9.63218e-18
6834.00180 9.55774e-18
6835.49508 9.62065e-18
6836.99838 9.63347e-18
6838.50168 9.81991e-18
6839.99496 9.77079e-18
6841.49826 9.90386e-18
6843.00156 9.90141e-18
6844.50486 9.94530e-18
6845.99813 9.93751e-18
6847.50143 9.92972e-18
6849.00473 9.92193e-18
6850.49801 9.91414e-18
6852.00131 9.90635e-18
6853.50461 9.89856e-18
6854.99789 9.89077e-18
6856.50119 9.88299e-18
6858.00449 9.87520e-18
6859.49777 9.86741e-18
6861.00107 9.85963e-18
6862.50437 9.85184e-18
6863.99765 9.84405e-18
6865.50095 9.83627e-18
6867.00425 9.82849e-18
6868.49752 9.82071e-18
6870.00082 9.81292e-18
6871.50412 9.80514e-18
6872.99740 9.79736e-18
6874.50070 9.78958e-18
6876.00400 9.78180e-18
6877.49728 9.77402e-18
6879.00058 9.76624e-18
6880.50388 9.75846e-18
6881.99716 9.75068e-18
6883.50046 9.74291e-18
6885.00376 9.73513e-18
6886.49704 9.72736e-18
6888.00034 9.71958e-18
6889.50364 9.71180e-18
6890.99691 9.70403e-18
6892.50021 9.69626e-18
6894.00351 9.68848e-18
6895.49679 9.68071e-18
6897.00009 9.67294e-18
6898.50339 9.66517e-18
6899.99667 9.65739e-18
6901.49997 9.64963e-18
6903.00327 9.64186e-18
6904.49655 9.63409e-18
6905.99985 9.62632e-18
6907.50315 9.61855e-18
6908.99643 9.61078e-18
6910.49973 9.60302e-18
6912.00303 9.59525e-18
6913.49630 9.58748e-18
6914.99960 9.57972e-18
6916.50290 9.57195e-18
6917.99618 9.56419e-18
6919.49948 9.55643e-18
6921.00278 9.54866e-18
6922.49606 9.54090e-18
6923.99936 9.53314e-18
6925.50266 9.52538e-18
6926.99594 9.51762e-18
6928.49924 9.50986e-18
6930.00254 9.50210e-18
6931.49582 9.49434e-18
6932.99912 9.48658e-18
6934.50242 9.47883e-18
6935.99569 9.47107e-18
6937.49899 9.67351e-18
6939.00229 9.53092e-18
6940.49557 9.35470e-18
6941.99887 9.43438e-18
6943.50217 9.41726e-18
6944.99545 9.51446e-18
6946.49875 9.64033e-18
6948.00205 9.61727e-18
6949.49533 9.54437e-18
6950.99863 9.48076e-18
6952.50193 9.54165e-18
6953.99521 9.47873e-18
6955.49851 9.33390e-18
6957.00181 9.27871e-18
6958.50511 9.30187e-18
6959.99838 9.45045e-18
6961.50168 9.56180e-18
6962.99496 9.51302e-18
6964.49826 9.35764e-18
6966.00156 9.29446e-18
6967.50486 9.37223e-18
6968.99814 9.43153e-18
6970.50144 9.43074e-18
6972.00474 9.40907e-18
6973.49802 9.34066e-18
6975.00132 9.31240e-18
6976.50462 9.42016e-18
6977.99790 9.44791e-18
6979.50120 9.38306e-18
6981.00450 9.21296e-18
6982.49777 9.23357e-18
6984.00107 9.40091e-18
6985.50437 9.33281e-18
6986.99765 9.29730e-18
6988.50095 9.46878e-18
6990.00425 9.24238e-18
6991.49753 9.16625e-18
6993.00083 9.31656e-18
6994.50413 9.17871e-18
6995.99741 9.08425e-18
6997.50071 9.02214e-18
6999.00401 9.01046e-18
7000.49729 9.02589e-18
7002.00059 9.01989e-18
7003.50389 8.92061e-18
7004.99716 9.03156e-18
7006.50046 9.12613e-18
7008.00376 9.22744e-18
7009.49704 9.15163e-18
7011.00034 8.97307e-18
7012.50364 9.04592e-18
7013.99692 9.14024e-18
7015.50022 9.06040e-18
7017.00352 9.03381e-18
7018.49680 9.06639e-18
7020.00010 9.05043e-18
7021.50340 9.06545e-18
7022.99668 9.09094e-18
7024.49998 9.14661e-18
7026.00328 9.01180e-18
7027.49655 8.97286e-18
7028.99985 9.08896e-18
7030.50315 8.97863e-18
7031.99643 8.93856e-18
7033.49973 8.90233e-18
7035.00303 8.95748e-18
7036.49631 9.07777e-18
7037.99961 9.00394e-18
7039.50291 8.99513e-18
7040.99619 9.05684e-18
7042.49949 9.05685e-18
7044.00279 8.95471e-18
7045.49607 8.91832e-18
7046.99937 8.86928e-18
7048.50267 8.74795e-18
7049.99594 8.81578e-18
7051.49924 8.85799e-18
7053.00254 8.70122e-18
7054.49582 8.77293e-18
7055.99912 8.65656e-18
7057.50242 8.83184e-18
7058.99570 8.80428e-18
7060.49900 8.71287e-18
7062.00230 8.69250e-18
7063.49558 8.79665e-18
7064.99888 8.55306e-18
7066.50218 8.58847e-18
7067.99546 8.67480e-18
7069.49876 8.66753e-18
7071.00206 8.54504e-18
7072.49533 8.54872e-18
7073.99863 8.56807e-18
7075.50193 8.45430e-18
7076.99521 8.47000e-18
7078.49851 8.49787e-18
7080.00181 8.48219e-18
7081.50511 8.52084e-18
7082.99839 8.56729e-18
7084.50169 8.40068e-18
7085.99497 8.51330e-18
7087.49827 8.66644e-18
7089.00157 8.50820e-18
7090.50487 8.48641e-18
7091.99815 8.57538e-18
7093.50145 8.68516e-18
7095.00475 8.53622e-18
7096.49802 8.45837e-18
7098.00132 8.59799e-18
7099.50462 8.58523e-18
7100.99790 8.36153e-18
7102.50120 8.27069e-18
7104.00450 8.35627e-18
7105.49778 8.46277e-18
7107.00108 8.27827e-18
7108.50438 8.27881e-18
7109.99766 8.35104e-18
7111.50096 8.28417e-18
7113.00426 8.31819e-18
7114.49754 8.37476e-18
7116.00084 8.32780e-18
7117.50414 8.21546e-18
7118.99741 8.17805e-18
7120.50071 8.20759e-18
7122.00401 8.25938e-18
7123.49729 8.36801e-18
7125.00059 8.49795e-18
7126.50389 8.50493e-18
7127.99717 8.31459e-18
7129.50047 8.34652e-18
7131.00377 8.28887e-18
7132.49705 8.44271e-18
7134.00035 8.56118e-18
7135.50365 8.41537e-18
7136.99693 8.35129e-18
7138.50023 8.35082e-18
7140.00353 8.18902e-18
7141.49680 8.32427e-18
7143.00010 8.41083e-18
7144.50340 8.32793e-18
7145.99668 8.39229e-18
7147.49998 8.38565e-18
7149.00328 8.17442e-18
7150.49656 8.16981e-18
7151.99986 8.32934e-18
7153.50316 8.38018e-18
7154.99644 8.33988e-18
7156.49974 8.19731e-18
7158.00304 8.17629e-18
7159.49632 8.19308e-18
7160.99962 8.21048e-18
7162.50292 8.28131e-18
7163.99619 8.34283e-18
7165.49949 8.23261e-18
7167.00279 8.06192e-18
7168.49607 7.99063e-18
7169.99937 7.98877e-18
7171.50267 7.98692e-18
7172.99595 7.98512e-18
7174.49925 7.98326e-18
7176.00255 7.98141e-18
7177.49583 7.97961e-18
7178.99913 7.97775e-18
7180.50243 7.97741e-18
7181.99571 8.05890e-18
7183.49901 7.95484e-18
7185.00231 7.86758e-18
7186.49558 7.80249e-18
7187.99888 7.90339e-18
7189.50218 8.00053e-18
7190.99546 8.10353e-18
7192.49876 8.06508e-18
7194.00206 8.04241e-18
7195.49534 8.15301e-18
7196.99864 8.12988e-18
7198.50194 7.82850e-18
7199.99522 7.74531e-18
7201.49852 7.83867e-18
7203.00182 7.69883e-18
7204.50512 7.81937e-18
7205.99840 7.76461e-18
7207.50170 7.74783e-18
7208.99497 7.90940e-18
7210.49827 7.77484e-18
7212.00157 7.82556e-18
7213.50487 7.77221e-18
7214.99815 7.68844e-18
7216.50145 7.60994e-18
7218.00475 7.55806e-18
7219.49803 7.49657e-18
7221.00133 7.52095e-18
7222.50463 7.56088e-18
7223.99791 7.44925e-18
7225.50121 7.31074e-18
7227.00451 7.35564e-18
7228.49779 7.54503e-18
7230.00109 7.53615e-18
7231.50439 7.38861e-18
7232.99766 7.32865e-18
7234.50096 7.34991e-18
7236.00426 7.42352e-18
7237.49754 7.47858e-18
7239.00084 7.43919e-18
7240.50414 7.31549e-18
7241.99742 7.18504e-18
7243.50072 7.19004e-18
7245.00402 7.28029e-18
7246.49730 7.21489e-18
7248.00060 7.07737e-18
7249.50390 7.02327e-18
7250.99718 7.09569e-18
7252.50048 7.24893e-18
7254.00378 7.34926e-18
7255.49705 7.37855e-18
7257.00035 7.34762e-18
7258.50365 7.27939e-18
7259.99693 7.38707e-18
7261.50023 7.36626e-18
7263.00353 7.17250e-18
7264.49681 7.08469e-18
7266.00011 7.01493e-18
7267.50341 6.94628e-18
7268.99669 6.88691e-18
7270.49999 6.85886e-18
7272.00329 6.89741e-18
7273.49657 6.95321e-18
7274.99987 6.94258e-18
7276.50317 6.76908e-18
7277.99644 6.60178e-18
7279.49974 6.64246e-18
7281.00304 6.73163e-18
7282.49632 6.85043e-18
7283.99962 7.08295e-18
7285.50292 6.97578e-18
7286.99620 6.60735e-18
7288.49950 6.65103e-18
7290.00280 6.77277e-18
7291.49608 6.78709e-18
7292.99938 6.86679e-18
7294.50268 6.81115e-18
7295.99596 6.61783e-18
7297.49926 6.58909e-18
7299.00256 6.61201e-18
7300.49583 6.70442e-18
7301.99913 6.79069e-18
7303.50243 6.67237e-18
7304.99571 6.63906e-18
7306.49901 6.60838e-18
7308.00231 6.46454e-18
7309.49559 6.36912e-18
7310.99889 6.32206e-18
7312.50219 6.32518e-18
7313.99547 6.45487e-18
7315.49877 6.53917e-18
7317.00207 6.43708e-18
7318.49535 6.35540e-18
7319.99865 6.29151e-18
7321.50195 6.18649e-18
7322.99522 6.12613e-18
7324.49852 6.31866e-18
7326.00182 6.50672e-18
7327.50512 6.39095e-18
7328.99840 6.23512e-18
7330.50170 6.17716e-18
7331.99498 6.05869e-18
7333.49828 6.09308e-18
7335.00158 6.11973e-18
7336.50488 6.20058e-18
7337.99816 6.23307e-18
7339.50146 6.15808e-18
7341.00476 6.05981e-18
7342.49804 5.96807e-18
7344.00134 6.06590e-18
7345.50464 6.00586e-18
7346.99791 5.86790e-18
7348.50121 5.91231e-18
7350.00451 5.80784e-18
7351.49779 5.83209e-18
7353.00109 5.89348e-18
7354.50439 5.91639e-18
7355.99767 5.91161e-18
7357.50097 5.75649e-18
7359.00427 5.70941e-18
7360.49755 5.80704e-18
7362.00085 5.71725e-18
7363.50415 5.58956e-18
7364.99743 5.62216e-18
7366.50073 5.50596e-18
7368.00403 5.39900e-18
7369.49730 5.49800e-18
7371.00060 5.57412e-18
7372.50390 5.40055e-18
7373.99718 5.31709e-18
7375.50048 5.38945e-18
7377.00378 5.37571e-18
7378.49706 5.28207e-18
7380.00036 5.22706e-18
7381.50366 5.15944e-18
7382.99694 5.10946e-18
7384.50024 5.11218e-18
7386.00354 5.12279e-18
7387.49682 5.07781e-18
7389.00012 5.05620e-18
7390.50342 5.04654e-18
7391.99669 5.06362e-18
7393.49999 5.03222e-18
7395.00329 4.99412e-18
7396.49657 4.98284e-18
7397.99987 5.02577e-18
7399.50317 4.96289e-18
7400.99645 4.86259e-18
7402.49975 4.86875e-18
7404.00305 4.95948e-18
7405.49633 4.84940e-18
7406.99963 4.63240e-18
7408.50293 4.65457e-18
7409.99621 4.77352e-18
7411.49951 4.60402e-18
7413.00281 4.54927e-18
7414.49608 4.55006e-18
7415.99938 4.46761e-18
7417.50268 4.34051e-18
7418.99596 4.43594e-18
7420.49926 4.47818e-18
7422.00256 4.41294e-18
7423.49584 4.35112e-18
7424.99914 4.30171e-18
7426.50244 4.25860e-18
7427.99572 4.25333e-18
7429.49902 4.26626e-18
7431.00232 4.29553e-18
7432.49560 4.17678e-18
7433.99890 4.18894e-18
7435.50220 4.22043e-18
7436.99547 4.18128e-18
7438.49877 4.16517e-18
7440.00207 4.13287e-18
7441.49535 4.07956e-18
7442.99865 4.09671e-18
7444.50195 4.05499e-18
7445.99523 4.01014e-18
7447.49853 3.99460e-18
7449.00183 3.90977e-18
7450.50513 3.92072e-18
7451.99841 3.94284e-18
7453.50171 3.87405e-18
7454.99499 3.83061e-18
7456.49829 3.83878e-18
7458.00159 3.83146e-18
7459.49486 3.82521e-18
7460.99816 3.87698e-18
7462.50146 3.87982e-18
7464.00476 3.84326e-18
7465.49804 3.80152e-18
7467.00134 3.78031e-18
7468.50464 3.69792e-18
7469.99792 3.67468e-18
7471.50122 3.73069e-18
7473.00452 3.64689e-18
7474.49780 3.66116e-18
7476.00110 3.64456e-18
7477.50440 3.61761e-18
7478.99768 3.61237e-18
7480.50098 3.60893e-18
7482.00428 3.59473e-18
7483.49755 3.55097e-18
7485.00085 3.49244e-18
7486.50415 3.44743e-18
7487.99743 3.37338e-18
7489.50073 3.44129e-18
7491.00403 3.52341e-18
7492.49731 3.33717e-18
7494.00061 3.40812e-18
7495.50391 3.40031e-18
7496.99719 3.35753e-18
7498.50049 3.31741e-18
7500.00379 3.18969e-18
7501.49707 3.29266e-18
7503.00037 3.34213e-18
7504.50367 3.26928e-18
7505.99694 3.19269e-18
7507.50024 3.13038e-18
7509.00354 3.12597e-18
7510.49682 3.17103e-18
7512.00012 3.16478e-18
7513.50342 3.14912e-18
7514.99670 3.12410e-18
7516.50000 3.09524e-18
7518.00330 3.10864e-18
7519.49658 3.10647e-18
7520.99988 3.10817e-18
7522.50318 3.11741e-18
7523.99646 3.09797e-18
7525.49976 3.07352e-18
7527.00306 3.05310e-18
7528.49633 3.02552e-18
7529.99963 3.06196e-18
7531.50293 3.03866e-18
7532.99621 2.93591e-18
7534.49951 2.94123e-18
7536.00281 2.98118e-18
7537.49609 3.04226e-18
7538.99939 2.98682e-18
7540.50269 3.09625e-18
