# wavelength flux
3719.99603 3.27833e-18
3721.49933 4.06464e-18
3723.00263 3.51637e-18
3724.49590 2.76656e-18
3725.99920 2.50998e-18
3727.50250 3.40935e-18
3728.99578 4.57665e-18
3730.49908 4.62580e-18
3732.00238 4.62174e-18
3733.49566 4.26827e-18
3734.99896 4.18062e-18
3736.50226 4.23733e-18
3737.99554 3.83968e-18
3739.49884 3.37733e-18
3741.00214 3.03078e-18
3742.49542 3.53648e-18
3743.99872 4.05398e-18
3745.50202 3.16789e-18
3746.99529 2.97570e-18
3748.49859 3.39760e-18
3750.00189 3.38139e-18
3751.49517 3.68668e-18
3752.99847 4.71134e-18
3754.50177 5.02212e-18
3755.99505 3.61643e-18
3757.49835 3.88291e-18
3759.00165 4.00748e-18
3760.50495 3.50867e-18
3761.99823 3.40560e-18
3763.50153 2.81439e-18
3765.00483 3.87092e-18
3766.49811 4.05734e-18
3768.00141 3.54133e-18
3769.50471 3.98540e-18
3770.99798 4.71530e-18
3772.50128 4.00345e-18
3774.00458 3.95348e-18
3775.49786 5.25657e-18
3777.00116 3.64658e-18
3778.50446 4.04408e-18
3779.99774 4.47754e-18
3781.50104 3.95561e-18
3783.00434 4.00847e-18
3784.49762 3.45242e-18
3786.00092 4.31303e-18
3787.50422 4.68471e-18
3788.99750 3.11267e-18
3790.50080 2.32673e-18
3792.00410 3.31914e-18
3793.49737 3.34050e-18
3795.00067 2.82537e-18
3796.50397 3.19452e-18
3797.99725 3.93939e-18
3799.50055 4.46567e-18
3801.00385 4.31635e-18
3802.49713 3.75430e-18
3804.00043 3.86393e-18
3805.50373 4.32247e-18
3806.99701 4.41679e-18
3808.50031 3.68431e-18
3810.00361 3.50129e-18
3811.49689 3.89199e-18
3813.00019 4.08458e-18
3814.50349 3.71255e-18
3815.99676 3.53715e-18
3817.50006 3.01554e-18
3819.00336 3.24485e-18
3820.49664 3.64179e-18
3821.99994 3.75011e-18
3823.50324 3.83803e-18
3824.99652 3.24465e-18
3826.49982 3.62989e-18
3828.00312 3.70519e-18
3829.49640 3.45818e-18
3830.99970 4.27577e-18
3832.50300 3.70493e-18
3833.99628 4.85491e-18
3835.49958 4.66756e-18
3837.00288 4.03728e-18
3838.49615 3.86258e-18
3839.99945 4.16774e-18
3841.50275 4.37160e-18
3842.99603 4.53072e-18
3844.49933 3.32973e-18
3846.00263 3.81287e-18
3847.49591 3.06166e-18
3848.99921 3.63385e-18
3850.50251 4.35573e-18
3851.99579 4.83656e-18
3853.49909 4.60012e-18
3855.00239 5.21753e-18
3856.49567 5.41698e-18
3857.99897 4.78707e-18
3859.50227 4.28381e-18
3860.99554 5.01809e-18
3862.49884 4.91483e-18
3864.00214 4.75135e-18
3865.49542 5.02208e-18
3866.99872 5.18041e-18
3868.50202 5.57727e-18
3869.99530 5.37305e-18
3871.49860 5.08397e-18
3873.00190 5.36346e-18
3874.49518 5.31894e-18
3875.99848 5.28269e-18
3877.50178 6.03548e-18
3878.99506 5.98863e-18
3880.49836 5.74281e-18
3882.00166 6.34268e-18
3883.50496 6.56369e-18
3884.99823 6.40756e-18
3886.50153 6.50197e-18
3888.00483 6.74390e-18
3889.49811 6.68178e-18
3891.00141 6.52882e-18
3892.50471 6.24499e-18
3893.99799 6.75332e-18
3895.50129 6.63631e-18
3897.00459 6.49386e-18
3898.49787 6.83536e-18
3900.00117 6.25732e-18
3901.50447 5.50660e-18
3902.99775 6.69235e-18
3904.50105 7.15433e-18
3906.00435 6.93637e-18
3907.49762 7.74042e-18
3909.00092 7.54010e-18
3910.50422 8.18368e-18
3911.99750 8.14417e-18
3913.50080 7.35517e-18
3915.00410 7.25740e-18
3916.49738 6.94963e-18
3918.00068 6.66848e-18
3919.50398 7.66861e-18
3920.99726 8.03371e-18
3922.50056 7.94120e-18
3924.00386 8.28569e-18
3925.49714 7.96284e-18
3927.00044 7.28798e-18
3928.50374 7.33311e-18
3929.99701 7.73081e-18
3931.50031 7.75247e-18
3933.00361 7.33861e-18
3934.49689 6.41454e-18
3936.00019 6.34650e-18
3937.50349 7.11883e-18
3938.99677 7.65759e-18
3940.50007 7.62366e-18
3942.00337 7.76109e-18
3943.49665 7.72603e-18
3944.99995 7.84204e-18
3946.50325 7.92333e-18
3947.99653 7.70852e-18
3949.49983 7.53280e-18
3951.00313 8.18869e-18
3952.49640 8.24189e-18
3953.99970 7.70239e-18
3955.50300 7.77168e-18
3956.99628 8.13139e-18
3958.49958 7.45789e-18
3960.00288 7.30625e-18
3961.49616 7.92073e-18
3962.99946 8.86537e-18
3964.50276 8.34315e-18
3965.99604 8.12046e-18
3967.49934 8.08223e-18
3969.00264 8.13933e-18
3970.49592 8.11745e-18
3971.99922 8.07959e-18
3973.50252 8.65166e-18
3974.99579 8.43220e-18
3976.49909 9.22048e-18
3978.00239 8.38145e-18
3979.49567 7.75829e-18
3980.99897 8.11125e-18
3982.50227 7.80431e-18
3983.99555 7.82044e-18
3985.49885 8.25812e-18
3987.00215 9.08316e-18
3988.49543 9.30286e-18
3989.99873 8.70361e-18
3991.50203 8.35834e-18
3992.99531 8.75231e-18
3994.49861 8.34469e-18
3996.00191 7.80713e-18
3997.49518 8.20067e-18
3998.99848 8.11423e-18
4000.50178 8.03559e-18
4001.99506 8.56191e-18
4003.49836 8.76086e-18
4005.00166 9.46068e-18
4006.50496 9.88299e-18
4007.99824 9.00158e-18
4009.50154 8.45019e-18
4011.00484 8.94651e-18
4012.49812 9.12227e-18
4014.00142 8.68302e-18
4015.50472 8.64498e-18
4016.99800 8.64157e-18
4018.50130 8.29696e-18
4020.00460 8.51728e-18
4021.49787 8.98978e-18
4023.00117 9.01891e-18
4024.50447 8.73923e-18
4025.99775 8.26011e-18
4027.50105 8.41972e-18
4029.00435 8.93222e-18
4030.49763 9.25808e-18
4032.00093 9.20741e-18
4033.50423 9.00865e-18
4034.99751 8.55178e-18
4036.50081 8.30348e-18
4038.00411 7.76139e-18
4039.49739 8.11902e-18
4041.00069 8.63088e-18
4042.50399 8.91274e-18
4043.99726 8.74849e-18
4045.50056 8.93417e-18
4047.00386 8.36416e-18
4048.49714 7.94973e-18
4050.00044 8.08002e-18
4051.50374 8.54881e-18
4052.99702 8.45677e-18
4054.50032 8.62472e-18
4056.00362 8.64271e-18
4057.49690 8.61965e-18
4059.00020 8.73095e-18
4060.50350 7.71412e-18
4061.99678 8.28227e-18
4063.50008 8.71293e-18
4065.00338 7.81430e-18
4066.49665 7.62506e-18
4067.99995 8.29995e-18
4069.50325 7.81846e-18
4070.99653 7.64708e-18
4072.49983 8.51608e-18
4074.00313 8.97947e-18
4075.49641 8.14827e-18
4076.99971 7.12988e-18
4078.50301 7.18725e-18
4079.99629 7.36022e-18
4081.49959 7.76156e-18
4083.00289 7.71991e-18
4084.49617 7.89556e-18
4085.99947 8.14871e-18
4087.50277 8.35903e-18
4088.99604 7.61648e-18
4090.49934 7.25756e-18
4092.00264 7.94804e-18
4093.49592 8.36145e-18
4094.99922 8.05100e-18
4096.50252 7.89268e-18
4097.99580 7.88823e-18
4099.49910 7.56965e-18
4101.00240 7.58612e-18
4102.49568 7.94568e-18
4103.99898 7.88206e-18
4105.50228 7.70994e-18
4106.99556 7.43053e-18
4108.49886 7.22847e-18
4110.00216 7.43842e-18
4111.49543 7.07939e-18
4112.99873 7.10882e-18
4114.50203 7.19429e-18
4115.99531 7.91366e-18
4117.49861 8.01408e-18
4119.00191 7.53796e-18
4120.49519 7.83523e-18
4121.99849 7.92825e-18
4123.50179 7.15572e-18
4124.99507 7.19553e-18
4126.49837 7.96448e-18
4128.00167 7.40524e-18
4129.50497 7.18682e-18
4130.99825 7.10199e-18
4132.50155 7.11040e-18
4134.00485 7.80880e-18
4135.49812 7.87446e-18
4137.00142 8.05698e-18
4138.50472 7.70597e-18
4139.99800 8.02746e-18
4141.50130 7.90332e-18
4143.00460 7.62982e-18
4144.49788 8.03576e-18
4146.00118 7.48338e-18
4147.50448 6.78969e-18
4148.99776 7.67086e-18
4150.50106 7.91792e-18
4152.00436 7.30055e-18
4153.49764 7.47157e-18
4155.00094 7.66876e-18
4156.50424 7.45737e-18
4157.99751 7.30846e-18
4159.50081 7.19435e-18
4161.00411 7.16121e-18
4162.49739 7.60601e-18
4164.00069 7.35937e-18
4165.50399 6.92535e-18
4166.99727 7.06028e-18
4168.50057 7.12277e-18
4170.00387 7.36934e-18
4171.49715 7.74637e-18
4173.00045 7.75520e-18
4174.50375 7.45402e-18
4175.99703 7.45984e-18
4177.50033 7.15307e-18
4179.00363 7.47986e-18
4180.49690 6.95808e-18
4182.00020 7.02771e-18
4183.50350 7.05793e-18
4184.99678 6.89990e-18
4186.50008 6.45047e-18
4188.00338 6.70044e-18
4189.49666 6.77195e-18
4190.99996 7.19377e-18
4192.50326 7.14030e-18
4193.99654 7.42790e-18
4195.49984 7.48084e-18
4197.00314 7.14526e-18
4198.49642 7.41040e-18
4199.99972 6.92706e-18
4201.50302 6.86457e-18
4202.99629 6.96551e-18
4204.49959 7.15302e-18
4206.00289 7.48740e-18
4207.49617 7.17188e-18
4208.99947 7.46595e-18
4210.50277 7.15920e-18
4211.99605 6.99455e-18
4213.49935 6.70659e-18
4215.00265 7.07610e-18
4216.49593 7.44200e-18
4217.99923 7.57312e-18
4219.50253 7.86875e-18
4220.99581 7.45838e-18
4222.49911 7.33573e-18
4224.00241 7.51044e-18
4225.49568 7.31565e-18
4226.99898 6.98982e-18
4228.50228 7.20747e-18
4229.99556 7.49724e-18
4231.49886 7.46014e-18
4233.00216 7.42813e-18
4234.49544 7.62164e-18
4235.99874 7.40842e-18
4237.50204 7.26596e-18
4238.99532 7.51684e-18
4240.49862 7.66621e-18
4242.00192 7.69422e-18
4243.49520 7.50193e-18
4244.99850 7.58911e-18
4246.50180 7.81856e-18
4247.99507 7.60446e-18
4249.49837 7.28778e-18
4251.00167 7.69950e-18
4252.50497 7.54723e-18
4253.99825 7.42475e-18
4255.50155 7.32681e-18
4257.00485 7.51944e-18
4258.49813 7.35740e-18
4260.00143 8.04300e-18
4261.50473 8.00812e-18
4262.99801 7.59322e-18
4264.50131 7.77472e-18
4266.00461 7.47510e-18
4267.49789 7.21954e-18
4269.00119 7.69888e-18
4270.50449 7.93564e-18
4271.99776 7.24893e-18
4273.50106 7.09818e-18
4275.00436 7.64326e-18
4276.49764 7.33295e-18
4278.00094 7.74579e-18
4279.50424 7.72727e-18
4280.99752 7.19250e-18
4282.50082 7.65732e-18
4284.00412 7.88449e-18
4285.49740 7.44669e-18
4287.00070 7.49834e-18
4288.50400 7.71369e-18
4289.99728 7.66925e-18
4291.50058 7.86470e-18
4293.00388 7.91824e-18
4294.49715 7.73521e-18
4296.00045 7.92479e-18
4297.50375 7.66065e-18
4298.99703 7.33556e-18
4300.50033 7.68862e-18
4302.00363 7.89451e-18
4303.49691 7.89451e-18
4305.00021 8.20023e-18
4306.50351 7.97013e-18
4307.99679 7.98107e-18
4309.50009 7.99503e-18
4311.00339 7.82895e-18
4312.49667 7.84016e-18
4313.99997 7.64915e-18
4315.50327 7.62469e-18
4316.99654 7.73971e-18
4318.49984 7.60224e-18
4320.00314 7.89459e-18
4321.49642 7.62870e-18
4322.99972 7.51627e-18
4324.50302 8.09048e-18
4325.99630 7.76938e-18
4327.49960 7.84841e-18
4329.00290 7.83674e-18
4330.49618 7.84694e-18
4331.99948 7.94498e-18
4333.50278 8.08150e-18
4334.99606 8.14816e-18
4336.49936 8.25854e-18
4338.00266 8.20691e-18
4339.49593 8.21312e-18
4340.99923 8.18751e-18
4342.50253 8.13094e-18
4343.99581 7.66222e-18
4345.49911 7.91716e-18
4347.00241 8.55829e-18
4348.49569 8.43194e-18
4349.99899 8.26369e-18
4351.50229 7.96829e-18
4352.99557 8.66938e-18
4354.49887 8.90752e-18
4356.00217 8.35605e-18
4357.49545 8.00857e-18
4358.99875 7.86464e-18
4360.50205 8.07352e-18
4361.99532 8.45529e-18
4363.49862 8.18667e-18
4365.00192 8.32277e-18
4366.49520 8.85987e-18
4367.99850 8.54067e-18
4369.50180 8.06033e-18
4370.99508 8.53596e-18
4372.49838 8.83958e-18
4374.00168 8.95041e-18
4375.50498 9.00193e-18
4376.99826 8.85917e-18
4378.50156 8.50032e-18
4380.00486 8.33799e-18
4381.49814 8.34484e-18
4383.00144 8.56065e-18
4384.50474 9.03737e-18
4385.99801 9.06187e-18
4387.50131 8.75606e-18
4389.00461 8.67278e-18
4390.49789 8.51817e-18
4392.00119 8.50142e-18
4393.50449 8.55370e-18
4394.99777 8.57951e-18
4396.50107 8.44205e-18
4398.00437 8.73660e-18
4399.49765 8.83413e-18
4401.00095 8.52493e-18
4402.50425 8.75391e-18
4403.99753 9.07731e-18
4405.50083 9.09078e-18
4407.00413 9.05469e-18
4408.49740 8.99920e-18
4410.00070 9.13124e-18
4411.50400 8.93362e-18
4412.99728 8.78675e-18
4414.50058 8.90439e-18
4416.00388 9.11710e-18
4417.49716 9.19746e-18
4419.00046 9.24291e-18
4420.50376 9.36082e-18
4421.99704 9.14662e-18
4423.50034 8.81153e-18
4425.00364 9.14449e-18
4426.49692 9.36762e-18
4428.00022 9.45108e-18
4429.50352 9.89005e-18
4430.99679 9.95015e-18
4432.50009 9.58309e-18
4434.00339 9.40478e-18
4435.49667 9.36716e-18
4436.99997 9.09326e-18
4438.50327 9.39490e-18
4439.99655 9.50428e-18
4441.49985 9.37426e-18
4443.00315 9.64345e-18
4444.49643 1.01215e-17
4445.99973 1.04082e-17
4447.50303 1.01974e-17
4448.99631 9.96855e-18
4450.49961 1.05643e-17
4452.00291 1.06217e-17
4453.49618 1.03440e-17
4454.99948 1.05071e-17
4456.50278 1.05579e-17
4457.99606 1.05568e-17
4459.49936 1.09441e-17
4461.00266 1.10420e-17
4462.49594 1.10910e-17
4463.99924 1.06576e-17
4465.50254 1.06474e-17
4466.99582 1.09410e-17
4468.49912 1.12769e-17
4470.00242 1.14683e-17
4471.49570 1.11067e-17
4472.99900 1.10039e-17
4474.50230 1.13648e-17
4475.99557 1.13039e-17
4477.49887 1.12170e-17
4479.00217 1.11871e-17
4480.49545 1.14736e-17
4481.99875 1.18827e-17
4483.50205 1.17635e-17
4484.99533 1.23603e-17
4486.49863 1.28690e-17
4488.00193 1.25069e-17
4489.49521 1.22875e-17
4490.99851 1.24925e-17
4492.50181 1.28434e-17
4493.99509 1.27632e-17
4495.49839 1.28295e-17
4497.00169 1.25958e-17
4498.49496 1.26534e-17
4499.99826 1.28720e-17
4501.50156 1.33066e-17
4503.00486 1.35881e-17
4504.49814 1.31699e-17
4506.00144 1.32760e-17
4507.50474 1.33992e-17
4508.99802 1.41035e-17
4510.50132 1.35424e-17
4512.00462 1.31570e-17
4513.49790 1.36024e-17
4515.00120 1.42412e-17
4516.50450 1.46288e-17
4517.99778 1.45912e-17
4519.50108 1.43516e-17
4521.00438 1.43195e-17
4522.49765 1.45776e-17
4524.00095 1.49193e-17
4525.50425 1.43126e-17
4526.99753 1.41163e-17
4528.50083 1.42070e-17
4530.00413 1.44623e-17
4531.49741 1.49955e-17
4533.00071 1.54862e-17
4534.50401 1.52264e-17
4535.99729 1.51372e-17
4537.50059 1.50869e-17
4539.00389 1.48771e-17
4540.49717 1.48654e-17
4542.00047 1.49508e-17
4543.50377 1.49709e-17
4544.99704 1.52001e-17
4546.50034 1.45962e-17
4548.00364 1.55154e-17
4549.49692 1.55074e-17
4551.00022 1.53585e-17
4552.50352 1.57164e-17
4553.99680 1.54676e-17
4555.50010 1.49401e-17
4557.00340 1.49840e-17
4558.49668 1.55502e-17
4559.99998 1.60319e-17
4561.50328 1.58714e-17
4562.99656 1.57081e-17
4564.49986 1.51991e-17
4566.00316 1.53887e-17
4567.49643 1.61491e-17
4568.99973 1.58932e-17
4570.50303 1.54737e-17
4571.99631 1.59121e-17
4573.49961 1.58350e-17
4575.00291 1.55630e-17
4576.49619 1.54876e-17
4577.99949 1.50831e-17
4579.50279 1.53264e-17
4580.99607 1.55880e-17
4582.49937 1.55059e-17
4584.00267 1.61903e-17
4585.49595 1.60740e-17
4586.99925 1.59972e-17
4588.50255 1.59043e-17
4589.99582 1.58707e-17
4591.49912 1.63336e-17
4593.00242 1.66927e-17
4594.49570 1.63992e-17
4595.99900 1.62840e-17
4597.50230 1.63297e-17
4598.99558 1.62141e-17
4600.49888 1.59079e-17
4602.00218 1.60597e-17
4603.49546 1.63148e-17
4604.99876 1.62093e-17
4606.50206 1.60782e-17
4607.99534 1.56242e-17
4609.49864 1.57796e-17
4611.00194 1.59143e-17
4612.49521 1.58305e-17
4613.99851 1.63678e-17
4615.50181 1.62516e-17
4616.99509 1.59972e-17
4618.49839 1.65148e-17
4620.00169 1.57371e-17
4621.49497 1.51628e-17
4622.99827 1.56179e-17
4624.50157 1.63277e-17
4626.00487 1.61501e-17
4627.49815 1.56654e-17
4629.00145 1.56785e-17
4630.50475 1.55264e-17
4631.99803 1.53965e-17
4633.50133 1.57884e-17
4635.00463 1.55131e-17
4636.49790 1.54272e-17
4638.00120 1.55428e-17
4639.50450 1.57335e-17
4640.99778 1.57419e-17
4642.50108 1.58111e-17
4644.00438 1.55716e-17
4645.49766 1.52410e-17
4647.00096 1.54256e-17
4648.50426 1.54475e-17
4649.99754 1.52457e-17
4651.50084 1.54188e-17
4653.00414 1.55842e-17
4654.49742 1.51254e-17
4656.00072 1.48342e-17
4657.50402 1.47625e-17
4658.99729 1.49366e-17
4660.50059 1.50235e-17
4662.00389 1.47915e-17
4663.49717 1.48467e-17
4665.00047 1.48077e-17
4666.50377 1.45957e-17
4667.99705 1.42715e-17
4669.50035 1.40899e-17
4671.00365 1.42674e-17
4672.49693 1.43319e-17
4674.00023 1.39516e-17
4675.50353 1.38917e-17
4676.99681 1.43072e-17
4678.50011 1.40282e-17
4680.00341 1.35934e-17
4681.49668 1.35416e-17
4682.99998 1.34055e-17
4684.50328 1.32646e-17
4685.99656 1.32904e-17
4687.49986 1.35141e-17
4689.00316 1.33497e-17
4690.49644 1.34060e-17
4691.99974 1.35670e-17
4693.50304 1.33262e-17
4694.99632 1.34703e-17
4696.49962 1.32091e-17
4698.00292 1.30470e-17
4699.49620 1.33288e-17
4700.99950 1.32811e-17
4702.50280 1.29944e-17
4703.99607 1.33045e-17
4705.49937 1.33625e-17
4707.00267 1.31621e-17
4708.49595 1.31270e-17
4709.99925 1.29259e-17
4711.50255 1.24627e-17
4712.99583 1.22480e-17
4714.49913 1.23981e-17
4716.00243 1.25050e-17
4717.49571 1.24459e-17
4718.99901 1.23997e-17
4720.50231 1.22004e-17
4721.99559 1.21134e-17
4723.49889 1.23658e-17
4725.00219 1.25668e-17
4726.49546 1.25290e-17
4727.99876 1.22431e-17
4729.50206 1.22605e-17
4730.99534 1.25265e-17
4732.49864 1.25977e-17
4734.00194 1.24988e-17
4735.49522 1.25326e-17
4736.99852 1.24717e-17
4738.50182 1.24583e-17
4739.99510 1.24007e-17
4741.49840 1.22438e-17
4743.00170 1.24310e-17
4744.49498 1.26245e-17
4745.99828 1.25353e-17
4747.50158 1.24096e-17
4749.00488 1.24998e-17
4750.49815 1.25788e-17
4752.00145 1.24081e-17
4753.50475 1.23485e-17
4754.99803 1.24022e-17
4756.50133 1.23791e-17
4758.00463 1.24444e-17
4759.49791 1.24006e-17
4761.00121 1.20312e-17
4762.50451 1.22859e-17
4763.99779 1.20697e-17
4765.50109 1.17129e-17
4767.00439 1.22365e-17
4768.49767 1.25536e-17
4770.00097 1.18917e-17
4771.50427 1.19527e-17
4772.99754 1.16613e-17
4774.50084 1.15085e-17
4776.00414 1.19646e-17
4777.49742 1.21920e-17
4779.00072 1.22792e-17
4780.50402 1.17039e-17
4781.99730 1.20286e-17
4783.50060 1.25071e-17
4785.00390 1.20883e-17
4786.49718 1.18642e-17
4788.00048 1.18625e-17
4789.50378 1.20417e-17
4790.99706 1.22087e-17
4792.50036 1.23288e-17
4794.00366 1.25204e-17
4795.49693 1.23879e-17
4797.00023 1.20576e-17
4798.50353 1.17270e-17
4799.99681 1.18493e-17
4801.50011 1.22588e-17
4803.00341 1.27340e-17
4804.49669 1.29790e-17
4805.99999 1.25032e-17
4807.50329 1.22265e-17
4808.99657 1.24964e-17
4810.49987 1.25075e-17
4812.00317 1.22675e-17
4813.49645 1.24146e-17
4814.99975 1.20823e-17
4816.50305 1.21751e-17
4817.99632 1.24082e-17
4819.49962 1.22199e-17
4821.00292 1.22139e-17
4822.49620 1.23524e-17
4823.99950 1.23803e-17
4825.50280 1.25710e-17
4826.99608 1.21067e-17
4828.49938 1.22039e-17
4830.00268 1.20406e-17
4831.49596 1.22808e-17
4832.99926 1.22353e-17
4834.50256 1.22904e-17
4835.99584 1.24301e-17
4837.49914 1.21173e-17
4839.00244 1.23524e-17
4840.49571 1.26095e-17
4841.99901 1.29252e-17
4843.50231 1.23682e-17
4844.99559 1.23766e-17
4846.49889 1.31484e-17
4848.00219 1.32161e-17
4849.49547 1.29578e-17
4850.99877 1.30695e-17
4852.50207 1.29648e-17
4853.99535 1.26970e-17
4855.49865 1.25703e-17
4857.00195 1.29118e-17
4858.49523 1.25515e-17
4859.99853 1.24374e-17
4861.50183 1.26507e-17
4862.99510 1.25852e-17
4864.49840 1.25565e-17
4866.00170 1.27399e-17
4867.49498 1.27133e-17
4868.99828 1.26397e-17
4870.50158 1.25972e-17
4872.00488 1.24169e-17
4873.49816 1.22310e-17
4875.00146 1.24711e-17
4876.50476 1.25635e-17
4877.99804 1.27470e-17
4879.50134 1.29576e-17
4881.00464 1.30411e-17
4882.49792 1.30087e-17
4884.00122 1.28468e-17
4885.50452 1.27302e-17
4886.99779 1.27041e-17
4888.50109 1.27444e-17
4890.00439 1.29480e-17
4891.49767 1.26457e-17
4893.00097 1.27670e-17
4894.50427 1.29148e-17
4895.99755 1.28753e-17
4897.50085 1.24235e-17
4899.00415 1.26164e-17
4900.49743 1.25490e-17
4902.00073 1.27544e-17
4903.50403 1.29646e-17
4904.99731 1.25418e-17
4906.50061 1.19260e-17
4908.00391 1.21605e-17
4909.49718 1.23863e-17
4911.00048 1.24182e-17
4912.50378 1.23383e-17
4913.99706 1.22886e-17
4915.50036 1.20658e-17
4917.00366 1.19049e-17
4918.49694 1.19401e-17
4920.00024 1.22189e-17
4921.50354 1.23726e-17
4922.99682 1.20479e-17
4924.50012 1.22315e-17
4926.00342 1.20206e-17
4927.49670 1.14739e-17
4929.00000 1.17365e-17
4930.50330 1.15670e-17
4931.99657 1.13944e-17
4933.49987 1.18415e-17
4935.00317 1.21163e-17
4936.49645 1.15819e-17
4937.99975 1.16576e-17
4939.50305 1.17784e-17
4940.99633 1.14447e-17
4942.49963 1.12810e-17
4944.00293 1.18579e-17
4945.49621 1.19871e-17
4946.99951 1.17405e-17
4948.50281 1.18059e-17
4949.99609 1.19503e-17
4951.49939 1.20740e-17
4953.00269 1.18528e-17
4954.49596 1.17808e-17
4955.99926 1.20686e-17
4957.50256 1.19921e-17
4958.99584 1.20043e-17
4960.49914 1.19551e-17
4962.00244 1.20156e-17
4963.49572 1.21767e-17
4964.99902 1.22508e-17
4966.50232 1.21906e-17
4967.99560 1.25327e-17
4969.49890 1.24321e-17
4971.00220 1.21411e-17
4972.49548 1.18230e-17
4973.99878 1.20872e-17
4975.50208 1.18694e-17
4976.99535 1.22375e-17
4978.49865 1.23231e-17
4980.00195 1.19069e-17
4981.49523 1.16655e-17
4982.99853 1.19615e-17
4984.50183 1.18554e-17
4985.99511 1.21874e-17
4987.49841 1.19855e-17
4989.00171 1.20117e-17
4990.49499 1.18169e-17
4991.99829 1.17127e-17
4993.50159 1.19744e-17
4995.00489 1.17281e-17
4996.49817 1.13953e-17
4998.00147 1.12286e-17
4999.50477 1.15767e-17
5000.99804 1.15867e-17
5002.50134 1.12984e-17
5004.00464 1.10397e-17
5005.49792 1.11752e-17
5007.00122 1.12985e-17
5008.50452 1.14719e-17
5009.99780 1.12400e-17
5011.50110 1.10520e-17
5013.00440 1.10360e-17
5014.49768 1.10868e-17
5016.00098 1.11239e-17
5017.50428 1.12666e-17
5018.99756 1.11255e-17
5020.50086 1.09184e-17
5022.00416 1.06424e-17
5023.49743 1.06869e-17
5025.00073 1.09838e-17
5026.50403 1.08724e-17
5027.99731 1.05684e-17
5029.50061 1.07134e-17
5031.00391 1.09789e-17
5032.49719 1.09166e-17
5034.00049 1.07836e-17
5035.50379 1.07034e-17
5036.99707 1.06699e-17
5038.50037 1.08899e-17
5040.00367 1.10961e-17
5041.49695 1.09266e-17
5043.00025 1.05519e-17
5044.50355 1.05752e-17
5045.99682 1.11676e-17
5047.50012 1.10105e-17
5049.00342 1.10958e-17
5050.49670 1.10777e-17
5052.00000 1.12137e-17
5053.50330 1.11738e-17
5054.99658 1.07710e-17
5056.49988 1.04632e-17
5058.00318 1.12840e-17
5059.49646 1.15566e-17
5060.99976 1.13528e-17
5062.50306 1.12887e-17
5063.99634 1.11879e-17
5065.49964 1.11402e-17
5067.00294 1.12094e-17
5068.49621 1.15926e-17
5069.99951 1.16942e-17
5071.50281 1.17505e-17
5072.99609 1.14776e-17
5074.49939 1.14885e-17
5076.00269 1.14958e-17
5077.49597 1.16110e-17
5078.99927 1.19468e-17
5080.50257 1.19799e-17
5081.99585 1.21089e-17
5083.49915 1.21128e-17
5085.00245 1.19822e-17
5086.49573 1.22430e-17
5087.99903 1.22350e-17
5089.50233 1.22178e-17
5090.99560 1.24257e-17
5092.49890 1.25055e-17
5094.00220 1.25642e-17
5095.49548 1.25360e-17
5096.99878 1.23631e-17
5098.50208 1.24844e-17
5099.99536 1.26663e-17
5101.49866 1.28349e-17
5103.00196 1.29246e-17
5104.49524 1.28295e-17
5105.99854 1.27336e-17
5107.50184 1.29001e-17
5108.99512 1.29182e-17
5110.49842 1.31618e-17
5112.00172 1.32837e-17
5113.49499 1.31280e-17
5114.99829 1.33778e-17
5116.50159 1.34207e-17
5118.00489 1.30626e-17
5119.49817 1.34549e-17
5121.00147 1.35104e-17
5122.50477 1.34321e-17
5123.99805 1.35551e-17
5125.50135 1.34081e-17
5127.00465 1.32853e-17
5128.49793 1.34346e-17
5130.00123 1.35187e-17
5131.50453 1.38404e-17
5132.99781 1.36637e-17
5134.50111 1.35663e-17
5136.00441 1.38765e-17
5137.49768 1.37418e-17
5139.00098 1.37979e-17
5140.50428 1.39267e-17
5141.99756 1.41131e-17
5143.50086 1.38049e-17
5145.00416 1.40410e-17
5146.49744 1.43057e-17
5148.00074 1.41251e-17
5149.50404 1.38671e-17
5150.99732 1.41854e-17
5152.50062 1.45422e-17
5154.00392 1.41682e-17
5155.49720 1.40052e-17
5157.00050 1.43711e-17
5158.50380 1.45266e-17
5159.99707 1.44773e-17
5161.50037 1.40290e-17
5163.00367 1.40090e-17
5164.49695 1.43268e-17
5166.00025 1.43652e-17
5167.50355 1.42891e-17
5168.99683 1.43523e-17
5170.50013 1.46306e-17
5172.00343 1.48746e-17
5173.49671 1.47679e-17
5175.00001 1.43444e-17
5176.50331 1.44853e-17
5177.99659 1.46914e-17
5179.49989 1.48085e-17
5181.00319 1.50661e-17
5182.49646 1.52526e-17
5183.99976 1.51993e-17
5185.50306 1.50611e-17
5186.99634 1.53851e-17
5188.49964 1.57336e-17
5190.00294 1.55973e-17
5191.49622 1.54931e-17
5192.99952 1.54949e-17
5194.50282 1.55515e-17
5195.99610 1.56377e-17
5197.49940 1.60612e-17
5199.00270 1.61060e-17
5200.49598 1.63162e-17
5201.99928 1.63215e-17
5203.50258 1.61046e-17
5204.99585 1.61475e-17
5206.49915 1.62150e-17
5208.00245 1.63535e-17
5209.49573 1.64547e-17
5210.99903 1.64935e-17
5212.50233 1.59925e-17
5213.99561 1.60860e-17
5215.49891 1.62957e-17
5217.00221 1.63663e-17
5218.49549 1.64334e-17
5219.99879 1.63894e-17
5221.50209 1.62635e-17
5222.99537 1.60475e-17
5224.49867 1.57816e-17
5226.00197 1.63011e-17
5227.49524 1.64790e-17
5228.99854 1.62765e-17
5230.50184 1.61379e-17
5231.99512 1.59288e-17
5233.49842 1.58617e-17
5235.00172 1.60749e-17
5236.49500 1.62086e-17
5237.99830 1.62593e-17
5239.50160 1.62648e-17
5241.00490 1.62670e-17
5242.49818 1.62725e-17
5244.00148 1.62532e-17
5245.50478 1.64070e-17
5246.99806 1.62923e-17
5248.50136 1.60027e-17
5250.00466 1.62872e-17
5251.49793 1.64604e-17
5253.00123 1.61708e-17
5254.50453 1.62072e-17
5255.99781 1.62079e-17
5257.50111 1.63170e-17
5259.00441 1.64733e-17
5260.49769 1.63740e-17
5262.00099 1.66674e-17
5263.50429 1.67094e-17
5264.99757 1.66970e-17
5266.50087 1.66887e-17
5268.00417 1.67935e-17
5269.49745 1.67293e-17
5271.00075 1.67351e-17
5272.50405 1.67869e-17
5273.99732 1.67346e-17
5275.50062 1.66438e-17
5277.00392 1.65338e-17
5278.49720 1.65194e-17
5280.00050 1.67675e-17
5281.50380 1.70092e-17
5282.99708 1.67550e-17
5284.50038 1.68007e-17
5286.00368 1.73149e-17
5287.49696 1.71188e-17
5289.00026 1.66182e-17
5290.50356 1.69115e-17
5291.99684 1.71280e-17
5293.50014 1.70468e-17
5295.00344 1.72736e-17
5296.49671 1.74410e-17
5298.00001 1.73573e-17
5299.50331 1.72526e-17
5300.99659 1.71182e-17
5302.49989 1.72812e-17
5304.00319 1.75283e-17
5305.49647 1.76161e-17
5306.99977 1.75417e-17
5308.50307 1.75283e-17
5309.99635 1.76671e-17
5311.49965 1.78090e-17
5313.00295 1.79985e-17
5314.49623 1.77880e-17
5315.99953 1.76810e-17
5317.50283 1.77599e-17
5318.99610 1.76313e-17
5320.49940 1.76596e-17
5322.00270 1.76076e-17
5323.49598 1.78338e-17
5324.99928 1.79439e-17
5326.50258 1.75470e-17
5327.99586 1.72173e-17
5329.49916 1.72808e-17
5331.00246 1.75811e-17
5332.49574 1.76935e-17
5333.99904 1.78101e-17
5335.50234 1.79660e-17
5336.99562 1.77044e-17
5338.49892 1.78189e-17
5340.00222 1.77893e-17
5341.49549 1.77009e-17
5342.99879 1.76778e-17
5344.50209 1.76689e-17
5345.99537 1.74738e-17
5347.49867 1.77354e-17
5349.00197 1.77813e-17
5350.49525 1.76426e-17
5351.99855 1.78128e-17
5353.50185 1.77255e-17
5354.99513 1.74960e-17
5356.49843 1.76274e-17
5358.00173 1.81292e-17
5359.49501 1.81512e-17
5360.99831 1.74531e-17
5362.50161 1.75466e-17
5364.00491 1.76148e-17
5365.49818 1.74075e-17
5367.00148 1.75681e-17
5368.50478 1.77797e-17
5369.99806 1.78202e-17
5371.50136 1.76935e-17
5373.00466 1.75202e-17
5374.49794 1.79436e-17
5376.00124 1.82404e-17
5377.50454 1.80520e-17
5378.99782 1.81172e-17
5380.50112 1.80018e-17
5382.00442 1.77523e-17
5383.49770 1.76486e-17
5385.00100 1.77979e-17
5386.50430 1.79466e-17
5387.99757 1.77834e-17
5389.50087 1.78910e-17
5391.00417 1.81320e-17
5392.49745 1.77391e-17
5394.00075 1.75116e-17
5395.50405 1.74857e-17
5396.99733 1.75090e-17
5398.50063 1.76187e-17
5400.00393 1.77802e-17
5401.49721 1.73653e-17
5403.00051 1.73424e-17
5404.50381 1.75867e-17
5405.99709 1.76546e-17
5407.50039 1.75119e-17
5409.00369 1.75568e-17
5410.49696 1.74330e-17
5412.00026 1.72257e-17
5413.50356 1.75179e-17
5414.99684 1.73079e-17
5416.50014 1.75294e-17
5418.00344 1.72540e-17
5419.49672 1.73285e-17
5421.00002 1.76248e-17
5422.50332 1.70056e-17
5423.99660 1.69040e-17
5425.49990 1.74247e-17
5427.00320 1.71558e-17
5428.49648 1.72287e-17
5429.99978 1.74918e-17
5431.50308 1.74450e-17
5432.99635 1.75821e-17
5434.49965 1.74877e-17
5436.00295 1.74593e-17
5437.49623 1.73704e-17
5438.99953 1.73189e-17
5440.50283 1.73142e-17
5441.99611 1.73539e-17
5443.49941 1.75399e-17
5445.00271 1.78796e-17
5446.49599 1.77991e-17
5447.99929 1.76704e-17
5449.50259 1.76336e-17
5450.99587 1.76630e-17
5452.49917 1.78894e-17
5454.00247 1.79539e-17
5455.49574 1.79614e-17
5456.99904 1.80494e-17
5458.50234 1.81042e-17
5459.99562 1.81513e-17
5461.49892 1.82051e-17
5463.00222 1.83975e-17
5464.49550 1.83897e-17
5465.99880 1.86431e-17
5467.50210 1.86413e-17
5468.99538 1.86690e-17
5470.49868 1.90081e-17
5472.00198 1.88110e-17
5473.49526 1.83869e-17
5474.99856 1.85453e-17
5476.50186 1.88324e-17
5477.99513 1.86340e-17
5479.49843 1.86367e-17
5481.00173 1.87944e-17
5482.49501 1.88922e-17
5483.99831 1.88879e-17
5485.50161 1.87219e-17
5487.00491 1.91377e-17
5488.49819 1.87372e-17
5490.00149 1.84002e-17
5491.50479 1.85512e-17
5492.99807 1.88243e-17
5494.50137 1.86601e-17
5496.00467 1.86181e-17
5497.49795 1.84348e-17
5499.00125 1.84433e-17
5500.50455 1.89028e-17
5501.99782 1.85439e-17
5503.50112 1.83685e-17
5505.00442 1.83795e-17
5506.49770 1.82671e-17
5508.00100 1.82099e-17
5509.50430 1.84314e-17
5510.99758 1.85817e-17
5512.50088 1.81644e-17
5514.00418 1.81560e-17
5515.49746 1.79422e-17
5517.00076 1.75131e-17
5518.50406 1.75371e-17
5519.99734 1.77033e-17
5521.50064 1.75877e-17
5523.00394 1.75135e-17
5524.49721 1.75135e-17
5526.00051 1.74424e-17
5527.50381 1.71976e-17
5528.99709 1.71715e-17
5530.50039 1.68609e-17
5532.00369 1.66431e-17
5533.49697 1.66380e-17
5535.00027 1.65685e-17
5536.50357 1.64539e-17
5537.99685 1.62050e-17
5539.50015 1.60272e-17
5541.00345 1.62077e-17
5542.49673 1.62409e-17
5544.00003 1.58280e-17
5545.50333 1.56572e-17
5546.99660 1.51671e-17
5548.49990 1.53122e-17
5550.00320 1.54978e-17
5551.49648 1.54006e-17
5552.99978 1.52124e-17
5554.50308 1.51538e-17
5555.99636 1.52502e-17
5557.49966 1.52724e-17
5559.00296 1.48242e-17
5560.49624 1.47574e-17
5561.99954 1.48414e-17
5563.50284 1.49783e-17
5564.99612 1.48686e-17
5566.49942 1.49059e-17
5568.00272 1.46302e-17
5569.49599 1.47912e-17
5570.99929 1.48014e-17
5572.50259 1.43620e-17
5573.99587 1.44514e-17
5575.49917 1.47985e-17
5577.00247 1.50127e-17
5578.49575 1.46685e-17
5579.99905 1.43119e-17
5581.50235 1.43324e-17
5582.99563 1.45350e-17
5584.49893 1.41669e-17
5586.00223 1.41830e-17
5587.49551 1.45246e-17
5588.99881 1.46707e-17
5590.50211 1.43784e-17
5591.99538 1.42132e-17
5593.49868 1.42615e-17
5595.00198 1.41529e-17
5596.49526 1.40735e-17
5597.99856 1.39554e-17
5599.50186 1.37996e-17
5600.99514 1.37193e-17
5602.49844 1.38675e-17
5604.00174 1.40611e-17
5605.49502 1.42137e-17
5606.99832 1.44655e-17
5608.50162 1.44746e-17
5610.00492 1.43393e-17
5611.49820 1.41872e-17
5613.00150 1.38455e-17
5614.50480 1.36356e-17
5615.99807 1.37105e-17
5617.50137 1.38022e-17
5619.00467 1.35521e-17
5620.49795 1.34459e-17
5622.00125 1.33763e-17
5623.50455 1.31641e-17
5624.99783 1.31909e-17
5626.50113 1.32011e-17
5628.00443 1.31330e-17
5629.49771 1.31006e-17
5631.00101 1.34878e-17
5632.50431 1.35532e-17
5633.99759 1.27910e-17
5635.50089 1.25729e-17
5637.00419 1.27279e-17
5638.49746 1.27699e-17
5640.00076 1.25036e-17
5641.50406 1.24967e-17
5642.99734 1.27710e-17
5644.50064 1.25404e-17
5646.00394 1.25035e-17
5647.49722 1.25777e-17
5649.00052 1.23324e-17
5650.50382 1.21630e-17
5651.99710 1.21016e-17
5653.50040 1.19225e-17
5655.00370 1.18658e-17
5656.49698 1.19404e-17
5658.00028 1.17751e-17
5659.50358 1.15830e-17
5660.99685 1.16019e-17
5662.50015 1.16164e-17
5664.00345 1.15762e-17
5665.49673 1.15187e-17
5667.00003 1.12894e-17
5668.50333 1.11743e-17
5669.99661 1.12962e-17
5671.49991 1.11820e-17
5673.00321 1.10027e-17
5674.49649 1.09812e-17
5675.99979 1.10746e-17
5677.50309 1.12306e-17
5678.99637 1.09806e-17
5680.49967 1.06975e-17
5682.00297 1.06805e-17
5683.49624 1.07899e-17
5684.99954 1.08239e-17
5686.50284 1.08403e-17
5687.99612 1.08785e-17
5689.49942 1.04778e-17
5691.00272 1.05074e-17
5692.49600 1.07772e-17
5693.99930 1.04101e-17
5695.50260 1.03461e-17
5696.99588 1.02730e-17
5698.49918 1.01940e-17
5700.00248 1.03808e-17
5701.49576 1.02000e-17
5702.99906 1.01691e-17
5704.50236 9.92148e-18
5705.99563 1.01721e-17
5707.49893 1.01278e-17
5709.00223 1.00534e-17
5710.49551 1.01584e-17
5711.99881 1.02503e-17
5713.50211 1.03042e-17
5714.99539 1.01678e-17
5716.49869 1.01541e-17
5718.00199 1.00715e-17
5719.49527 1.00471e-17
5720.99857 9.99948e-18
5722.50187 1.01602e-17
5723.99515 1.00342e-17
5725.49845 1.00705e-17
5727.00175 1.03102e-17
5728.49502 1.03087e-17
5729.99832 1.02942e-17
5731.50162 1.04428e-17
5733.00492 1.04546e-17
5734.49820 1.03820e-17
5736.00150 1.03146e-17
5737.50480 1.01268e-17
5738.99808 1.04493e-17
5740.50138 1.07642e-17
5742.00468 1.06129e-17
5743.49796 1.07731e-17
5745.00126 1.06881e-17
5746.50456 1.07843e-17
5747.99784 1.08961e-17
5749.50114 1.09203e-17
5751.00444 1.08792e-17
5752.49771 1.07029e-17
5754.00101 1.08333e-17
5755.50431 1.06128e-17
5756.99759 1.07796e-17
5758.50089 1.09038e-17
5760.00419 1.09268e-17
5761.49747 1.07688e-17
5763.00077 1.01896e-17
5764.50407 1.03116e-17
5765.99735 1.07602e-17
5767.50065 1.06953e-17
5769.00395 1.05598e-17
5770.49723 1.08534e-17
5772.00053 1.06316e-17
5773.50383 1.04110e-17
5774.99710 1.06321e-17
5776.50040 1.04480e-17
5778.00370 1.04443e-17
5779.49698 1.03805e-17
5781.00028 1.05200e-17
5782.50358 1.05569e-17
5783.99686 1.06347e-17
5785.50016 1.07229e-17
5787.00346 1.05492e-17
5788.49674 1.06329e-17
5790.00004 1.04112e-17
5791.50334 1.04458e-17
5792.99662 1.06744e-17
5794.49992 1.08972e-17
5796.00322 1.06848e-17
5797.49649 1.05548e-17
5798.99979 1.11214e-17
5800.50309 1.11690e-17
5801.99637 1.11434e-17
5803.49967 1.12745e-17
5805.00297 1.15978e-17
5806.49625 1.18647e-17
5807.99955 1.18480e-17
5809.50285 1.15952e-17
5810.99613 1.16505e-17
5812.49943 1.17939e-17
5814.00273 1.20164e-17
5815.49601 1.22157e-17
5816.99931 1.22108e-17
5818.50261 1.22057e-17
5819.99588 1.21778e-17
5821.49918 1.21933e-17
5823.00248 1.22555e-17
5824.49576 1.27329e-17
5825.99906 1.28417e-17
5827.50236 1.27603e-17
5828.99564 1.28404e-17
5830.49894 1.31962e-17
5832.00224 1.32468e-17
5833.49552 1.33807e-17
5834.99882 1.35921e-17
5836.50212 1.34036e-17
5837.99540 1.36574e-17
5839.49870 1.36708e-17
5841.00200 1.39673e-17
5842.49527 1.38457e-17
5843.99857 1.38871e-17
5845.50187 1.39475e-17
5846.99515 1.39521e-17
5848.49845 1.40858e-17
5850.00175 1.41288e-17
5851.49503 1.39755e-17
5852.99833 1.42148e-17
5854.50163 1.43824e-17
5856.00493 1.44753e-17
5857.49821 1.44069e-17
5859.00151 1.47163e-17
5860.50481 1.46148e-17
5861.99809 1.45636e-17
5863.50139 1.44827e-17
5865.00469 1.42785e-17
5866.49796 1.45813e-17
5868.00126 1.48151e-17
5869.50456 1.47623e-17
5870.99784 1.47359e-17
5872.50114 1.47550e-17
5874.00444 1.49633e-17
5875.49772 1.49552e-17
5877.00102 1.46981e-17
5878.50432 1.48314e-17
5879.99760 1.48472e-17
5881.50090 1.47824e-17
5883.00420 1.47075e-17
5884.49748 1.47252e-17
5886.00078 1.47858e-17
5887.50408 1.45038e-17
5888.99735 1.41302e-17
5890.50065 1.39446e-17
5892.00395 1.41579e-17
5893.49723 1.42705e-17
5895.00053 1.40935e-17
5896.50383 1.38625e-17
5897.99711 1.37889e-17
5899.50041 1.40161e-17
5901.00371 1.42214e-17
5902.49699 1.44185e-17
5904.00029 1.43711e-17
5905.50359 1.42187e-17
5906.99687 1.47007e-17
5908.50017 1.48340e-17
5910.00347 1.45672e-17
5911.49674 1.47215e-17
5913.00004 1.47635e-17
5914.50334 1.48463e-17
5915.99662 1.49545e-17
5917.49992 1.50054e-17
5919.00322 1.49145e-17
5920.49650 1.49193e-17
5921.99980 1.50878e-17
5923.50310 1.50205e-17
5924.99638 1.46753e-17
5926.49968 1.45468e-17
5928.00298 1.50453e-17
5929.49626 1.52571e-17
5930.99956 1.53263e-17
5932.50286 1.51237e-17
5933.99613 1.48426e-17
5935.49943 1.53516e-17
5937.00273 1.52539e-17
5938.49601 1.49251e-17
5939.99931 1.48982e-17
5941.50261 1.49775e-17
5942.99589 1.51954e-17
5944.49919 1.49288e-17
5946.00249 1.49237e-17
5947.49577 1.50121e-17
5948.99907 1.51214e-17
5950.50237 1.50818e-17
5951.99565 1.50045e-17
5953.49895 1.51338e-17
5955.00225 1.52009e-17
5956.49552 1.51891e-17
5957.99882 1.49724e-17
5959.50212 1.48477e-17
5960.99540 1.48061e-17
5962.49870 1.47933e-17
5964.00200 1.49151e-17
5965.49528 1.51067e-17
5966.99858 1.50663e-17
5968.50188 1.48086e-17
5970.00518 1.49687e-17
5971.49846 1.50489e-17
5973.00176 1.50967e-17
5974.49504 1.50720e-17
5975.99834 1.52291e-17
5977.50164 1.48396e-17
5979.00494 1.49630e-17
5980.49821 1.51518e-17
5982.00151 1.52140e-17
5983.50481 1.48759e-17
5984.99809 1.50085e-17
5986.50139 1.51924e-17
5988.00469 1.48013e-17
5989.49797 1.50645e-17
5991.00127 1.45669e-17
5992.50457 1.48519e-17
5993.99785 1.47832e-17
5995.50115 1.45965e-17
5997.00445 1.46558e-17
5998.49773 1.45985e-17
6000.00103 1.45051e-17
6001.50433 1.47054e-17
6002.99760 1.47439e-17
6004.50090 1.49456e-17
6006.00420 1.48404e-17
6007.49748 1.46646e-17
6009.00078 1.43922e-17
6010.50408 1.43114e-17
6011.99736 1.42717e-17
6013.50066 1.42535e-17
6015.00396 1.43254e-17
6016.49724 1.43447e-17
6018.00054 1.40772e-17
6019.50384 1.38678e-17
6020.99712 1.39761e-17
6022.50042 1.40122e-17
6024.00372 1.40702e-17
6025.49699 1.40243e-17
6027.00029 1.40785e-17
6028.50359 1.40913e-17
6029.99687 1.40663e-17
6031.50017 1.40952e-17
6033.00347 1.38243e-17
6034.49675 1.36230e-17
6036.00005 1.35109e-17
6037.50335 1.36028e-17
6038.99663 1.35317e-17
6040.49993 1.33386e-17
6042.00323 1.32801e-17
6043.49651 1.31904e-17
6044.99981 1.30750e-17
6046.50311 1.30108e-17
6047.99638 1.29432e-17
6049.49968 1.28755e-17
6051.00298 1.28079e-17
6052.49626 1.28073e-17
6053.99956 1.29452e-17
6055.50286 1.28228e-17
6056.99614 1.27212e-17
6058.49944 1.25649e-17
6060.00274 1.27038e-17
6061.49602 1.27220e-17
6062.99932 1.30612e-17
6064.50262 1.32285e-17
6065.99590 1.31291e-17
6067.49920 1.33014e-17
6069.00250 1.32790e-17
6070.49577 1.31119e-17
6071.99907 1.32065e-17
6073.50237 1.30405e-17
6074.99565 1.30460e-17
6076.49895 1.32079e-17
6078.00225 1.33378e-17
6079.49553 1.34585e-17
6080.99883 1.35576e-17
6082.50213 1.34953e-17
6083.99541 1.33021e-17
6085.49871 1.31562e-17
6087.00201 1.31604e-17
6088.49529 1.31731e-17
6089.99859 1.33575e-17
6091.50189 1.34656e-17
6092.99516 1.35035e-17
6094.49846 1.37049e-17
6096.00176 1.37202e-17
6097.49504 1.36197e-17
6098.99834 1.35050e-17
6100.50164 1.35118e-17
6101.99492 1.35123e-17
6103.49822 1.35204e-17
6105.00152 1.37458e-17
6106.50482 1.39918e-17
6107.99810 1.39824e-17
6109.50140 1.38794e-17
6111.00470 1.39785e-17
6112.49798 1.40623e-17
6114.00128 1.40362e-17
6115.50458 1.40140e-17
6116.99785 1.39551e-17
6118.50115 1.40133e-17
6120.00445 1.42442e-17
6121.49773 1.41207e-17
6123.00103 1.40631e-17
6124.50433 1.44827e-17
6125.99761 1.45672e-17
6127.50091 1.40872e-17
6129.00421 1.41738e-17
6130.49749 1.43919e-17
6132.00079 1.44248e-17
6133.50409 1.44424e-17
6134.99737 1.44895e-17
6136.50067 1.47614e-17
6138.00397 1.45151e-17
6139.49724 1.40915e-17
6141.00054 1.43671e-17
6142.50384 1.46315e-17
6143.99712 1.46968e-17
6145.50042 1.48491e-17
6147.00372 1.48455e-17
6148.49700 1.46709e-17
6150.00030 1.45729e-17
6151.50360 1.51648e-17
6152.99688 1.51456e-17
6154.50018 1.49384e-17
6156.00348 1.51232e-17
6157.49676 1.53712e-17
6159.00006 1.53318e-17
6160.50336 1.53501e-17
6161.99663 1.54733e-17
6163.49993 1.53503e-17
6165.00323 1.53124e-17
6166.49651 1.55620e-17
6167.99981 1.57349e-17
6169.50311 1.57679e-17
6170.99639 1.59405e-17
6172.49969 1.60762e-17
6174.00299 1.60262e-17
6175.49627 1.59422e-17
6176.99957 1.62690e-17
6178.50287 1.62725e-17
6179.99615 1.62950e-17
6181.49945 1.67102e-17
6183.00275 1.67560e-17
6184.49602 1.68000e-17
6185.99932 1.69639e-17
6187.50262 1.73776e-17
6188.99590 1.74578e-17
6190.49920 1.72454e-17
6192.00250 1.74461e-17
6193.49578 1.77833e-17
6194.99908 1.77028e-17
6196.50238 1.78137e-17
6197.99566 1.78150e-17
6199.49896 1.76808e-17
6201.00226 1.77957e-17
6202.49554 1.78988e-17
6203.99884 1.78361e-17
6205.50214 1.77056e-17
6206.99541 1.80342e-17
6208.49871 1.80330e-17
6210.00201 1.81527e-17
6211.49529 1.81272e-17
6212.99859 1.85822e-17
6214.50189 1.82091e-17
6215.99517 1.81579e-17
6217.49847 1.81741e-17
6219.00177 1.78534e-17
6220.49505 1.79546e-17
6221.99835 1.82489e-17
6223.50165 1.78564e-17
6224.99493 1.80384e-17
6226.49823 1.82222e-17
6228.00153 1.84853e-17
6229.50483 1.82693e-17
6230.99810 1.82023e-17
6232.50140 1.81240e-17
6234.00470 1.81705e-17
6235.49798 1.83753e-17
6237.00128 1.83286e-17
6238.50458 1.82758e-17
6239.99786 1.82964e-17
6241.50116 1.81272e-17
6243.00446 1.81587e-17
6244.49774 1.83056e-17
6246.00104 1.82946e-17
6247.50434 1.82599e-17
6248.99762 1.83859e-17
6250.50092 1.85935e-17
6252.00422 1.83107e-17
6253.49749 1.83124e-17
6255.00079 1.84992e-17
6256.50409 1.84061e-17
6257.99737 1.83889e-17
6259.50067 1.82929e-17
6261.00397 1.79794e-17
6262.49725 1.80149e-17
6264.00055 1.82531e-17
6265.50385 1.81029e-17
6266.99713 1.78102e-17
6268.50043 1.75950e-17
6270.00373 1.75232e-17
6271.49701 1.77785e-17
6273.00031 1.76606e-17
6274.50361 1.76355e-17
6275.99688 1.74068e-17
6277.50018 1.68729e-17
6279.00348 1.69004e-17
6280.49676 1.71568e-17
6282.00006 1.74136e-17
6283.50336 1.71392e-17
6284.99664 1.69660e-17
6286.49994 1.74107e-17
6288.00324 1.80950e-17
6289.49652 1.79085e-17
6290.99982 1.74659e-17
6292.50312 1.71620e-17
6293.99640 1.70859e-17
6295.49970 1.71359e-17
6297.00300 1.69116e-17
6298.49627 1.71575e-17
6299.99957 1.73359e-17
6301.50287 1.71235e-17
6302.99615 1.74270e-17
6304.49945 1.74169e-17
6306.00275 1.72300e-17
6307.49603 1.71271e-17
6308.99933 1.71771e-17
6310.50263 1.75035e-17
6311.99591 1.74182e-17
6313.49921 1.70773e-17
6315.00251 1.70090e-17
6316.49579 1.69811e-17
6317.99909 1.69051e-17
6319.50239 1.70002e-17
6320.99566 1.72494e-17
6322.49896 1.74067e-17
6324.00226 1.73381e-17
6325.49554 1.72471e-17
6326.99884 1.70643e-17
6328.50214 1.70689e-17
6329.99542 1.74018e-17
6331.49872 1.74091e-17
6333.00202 1.73099e-17
6334.49530 1.72104e-17
6335.99860 1.68774e-17
6337.50190 1.67059e-17
6338.99518 1.68518e-17
6340.49848 1.66996e-17
6342.00178 1.68372e-17
6343.49505 1.70280e-17
6344.99835 1.70744e-17
6346.50165 1.62886e-17
6347.99493 1.62135e-17
6349.49823 1.62054e-17
6351.00153 1.61587e-17
6352.50483 1.61200e-17
6353.99811 1.64136e-17
6355.50141 1.64737e-17
6357.00471 1.62635e-17
6358.49799 1.61218e-17
6360.00129 1.60806e-17
6361.50459 1.62934e-17
6362.99787 1.62683e-17
6364.50117 1.59797e-17
6366.00447 1.60284e-17
6367.49774 1.59879e-17
6369.00104 1.57783e-17
6370.50434 1.55290e-17
6371.99762 1.54347e-17
6373.50092 1.57378e-17
6375.00422 1.57906e-17
6376.49750 1.54974e-17
6378.00080 1.57398e-17
6379.50410 1.60824e-17
6380.99738 1.60405e-17
6382.50068 1.58419e-17
6384.00398 1.59663e-17
6385.49726 1.60928e-17
6387.00056 1.60080e-17
6388.50386 1.60431e-17
6389.99713 1.58672e-17
6391.50043 1.57309e-17
6393.00373 1.59248e-17
6394.49701 1.59748e-17
6396.00031 1.61190e-17
6397.50361 1.60490e-17
6398.99689 1.61713e-17
6400.50019 1.62238e-17
6402.00349 1.60242e-17
6403.49677 1.60883e-17
6405.00007 1.63810e-17
6406.50337 1.61047e-17
6407.99665 1.61045e-17
6409.49995 1.60656e-17
6411.00325 1.61575e-17
6412.49652 1.60767e-17
6413.99982 1.59665e-17
6415.50312 1.59282e-17
6416.99640 1.59909e-17
6418.49970 1.63537e-17
6420.00300 1.61699e-17
6421.49628 1.60424e-17
6422.99958 1.61055e-17
6424.50288 1.62258e-17
6425.99616 1.62565e-17
6427.49946 1.64460e-17
6429.00276 1.62217e-17
6430.49604 1.60764e-17
6431.99934 1.63397e-17
6433.50264 1.62322e-17
6434.99591 1.60682e-17
6436.49921 1.57859e-17
6438.00251 1.61690e-17
6439.49579 1.62812e-17
6440.99909 1.62545e-17
6442.50239 1.58236e-17
6443.99567 1.56194e-17
6445.49897 1.57076e-17
6447.00227 1.60560e-17
6448.49555 1.59993e-17
6449.99885 1.57651e-17
6451.50215 1.57909e-17
6452.99543 1.57453e-17
6454.49873 1.58388e-17
6456.00203 1.57687e-17
6457.49530 1.55874e-17
6458.99860 1.55760e-17
6460.50190 1.57813e-17
6461.99518 1.59133e-17
6463.49848 1.59913e-17
6465.00178 1.58090e-17
6466.49506 1.57083e-17
6467.99836 1.57719e-17
6469.50166 1.56278e-17
6470.99494 1.55083e-17
6472.49824 1.56164e-17
6474.00154 1.55875e-17
6475.50484 1.53457e-17
6476.99812 1.52860e-17
6478.50142 1.52763e-17
6480.00472 1.53930e-17
6481.49799 1.54928e-17
6483.00129 1.55986e-17
6484.50459 1.53004e-17
6485.99787 1.52441e-17
6487.50117 1.55422e-17
6489.00447 1.53514e-17
6490.49775 1.52581e-17
6492.00105 1.52200e-17
6493.50435 1.51288e-17
6494.99763 1.52299e-17
6496.50093 1.51022e-17
6498.00423 1.50613e-17
6499.49751 1.54032e-17
6501.00081 1.54529e-17
6502.50411 1.54828e-17
6503.99738 1.53226e-17
6505.50068 1.51499e-17
6507.00398 1.50844e-17
6508.49726 1.50448e-17
6510.00056 1.52060e-17
6511.50386 1.52500e-17
6512.99714 1.51215e-17
6514.50044 1.50004e-17
6516.00374 1.47523e-17
6517.49702 1.45217e-17
6519.00032 1.46350e-17
6520.50362 1.49275e-17
6521.99690 1.50380e-17
6523.50020 1.48785e-17
6525.00350 1.49350e-17
6526.49677 1.48989e-17
6528.00007 1.47364e-17
6529.50337 1.50978e-17
6530.99665 1.52510e-17
6532.49995 1.49934e-17
6534.00325 1.50188e-17
6535.49653 1.50417e-17
6536.99983 1.52037e-17
6538.50313 1.53847e-17
6539.99641 1.53325e-17
6541.49971 1.52086e-17
6543.00301 1.50641e-17
6544.49629 1.51250e-17
6545.99959 1.52218e-17
6547.50289 1.51396e-17
6548.99616 1.50883e-17
6550.49946 1.51333e-17
6552.00276 1.52880e-17
6553.49604 1.53429e-17
6554.99934 1.51489e-17
6556.50264 1.49482e-17
6557.99592 1.49652e-17
6559.49922 1.52304e-17
6561.00252 1.50666e-17
6562.49580 1.47198e-17
6563.99910 1.45777e-17
6565.50240 1.48087e-17
6566.99568 1.48006e-17
6568.49898 1.47364e-17
6570.00228 1.46448e-17
6571.49555 1.46418e-17
6572.99885 1.44021e-17
6574.50215 1.46158e-17
6575.99543 1.47313e-17
6577.49873 1.44837e-17
6579.00203 1.46586e-17
6580.49531 1.44124e-17
6581.99861 1.42496e-17
6583.50191 1.44010e-17
6584.99519 1.44021e-17
6586.49849 1.41593e-17
6588.00179 1.40599e-17
6589.49507 1.41960e-17
6590.99837 1.41159e-17
6592.50167 1.42740e-17
6593.99494 1.43118e-17
6595.49824 1.42058e-17
6597.00154 1.43222e-17
6598.50484 1.41856e-17
6599.99812 1.40571e-17
6601.50142 1.40208e-17
6603.00472 1.39515e-17
6604.49800 1.40132e-17
6606.00130 1.39411e-17
6607.50460 1.37863e-17
6608.99788 1.38244e-17
6610.50118 1.39173e-17
6612.00448 1.38849e-17
6613.49776 1.37198e-17
6615.00106 1.35320e-17
6616.50436 1.35339e-17
6617.99763 1.33347e-17
6619.50093 1.34564e-17
6621.00423 1.35378e-17
6622.49751 1.34866e-17
6624.00081 1.34825e-17
6625.50411 1.31213e-17
6626.99739 1.34440e-17
6628.50069 1.35673e-17
6630.00399 1.33982e-17
6631.49727 1.31029e-17
6633.00057 1.30256e-17
6634.50387 1.35171e-17
6635.99715 1.33456e-17
6637.50045 1.35384e-17
6639.00375 1.33170e-17
6640.49702 1.33222e-17
6642.00032 1.34593e-17
6643.50362 1.34866e-17
6644.99690 1.34124e-17
6646.50020 1.33583e-17
6648.00350 1.31784e-17
6649.49678 1.29308e-17
6651.00008 1.30709e-17
6652.50338 1.31899e-17
6653.99666 1.31004e-17
6655.49996 1.30524e-17
6657.00326 1.30532e-17
6658.49654 1.32487e-17
6659.99984 1.33363e-17
6661.50314 1.32019e-17
6662.99641 1.31959e-17
6664.49971 1.32332e-17
6666.00301 1.30873e-17
6667.49629 1.29100e-17
6668.99959 1.28316e-17
6670.50289 1.27039e-17
6671.99617 1.27776e-17
6673.49947 1.28546e-17
6675.00277 1.28252e-17
6676.49605 1.27769e-17
6677.99935 1.27150e-17
6679.50265 1.26894e-17
6680.99593 1.25831e-17
6682.49923 1.25635e-17
6684.00253 1.24992e-17
6685.49580 1.24339e-17
6686.99910 1.25340e-17
6688.50240 1.26011e-17
6689.99568 1.25182e-17
6691.49898 1.24642e-17
6693.00228 1.24623e-17
6694.49556 1.25486e-17
6695.99886 1.23697e-17
6697.50216 1.21369e-17
6698.99544 1.19713e-17
6700.49874 1.20313e-17
6702.00204 1.22686e-17
6703.49532 1.22596e-17
6704.99862 1.20714e-17
6706.50192 1.21182e-17
6707.99519 1.21502e-17
6709.49849 1.17515e-17
6711.00179 1.18144e-17
6712.49507 1.19063e-17
6713.99837 1.18308e-17
6715.50167 1.14239e-17
6716.99495 1.14047e-17
6718.49825 1.18091e-17
6720.00155 1.19403e-17
6721.50485 1.19117e-17
6722.99813 1.17050e-17
6724.50143 1.17611e-17
6726.00473 1.18053e-17
6727.49801 1.17042e-17
6729.00131 1.16995e-17
6730.50461 1.17445e-17
6731.99788 1.16988e-17
6733.50118 1.16675e-17
6735.00448 1.16433e-17
6736.49776 1.16543e-17
6738.00106 1.16669e-17
6739.50436 1.13722e-17
6740.99764 1.12680e-17
6742.50094 1.13691e-17
6744.00424 1.14033e-17
6745.49752 1.14285e-17
6747.00082 1.12140e-17
6748.50412 1.10113e-17
6749.99740 1.10914e-17
6751.50070 1.11320e-17
6753.00400 1.11748e-17
6754.49727 1.13082e-17
6756.00057 1.13079e-17
6757.50387 1.11585e-17
6758.99715 1.10388e-17
6760.50045 1.10180e-17
6762.00375 1.10095e-17
6763.49703 1.09918e-17
6765.00033 1.09937e-17
6766.50363 1.08629e-17
6767.99691 1.09684e-17
6769.50021 1.11082e-17
6771.00351 1.12635e-17
6772.49679 1.10175e-17
6774.00009 1.07375e-17
6775.50339 1.10203e-17
6776.99666 1.07211e-17
6778.49996 1.08920e-17
6780.00326 1.10074e-17
6781.49654 1.06850e-17
6782.99984 1.06513e-17
6784.50314 1.09269e-17
6785.99642 1.09384e-17
6787.49972 1.08669e-17
6789.00302 1.05489e-17
6790.49630 1.05616e-17
6791.99960 1.05478e-17
6793.50290 1.04920e-17
6794.99618 1.05700e-17
6796.49948 1.06867e-17
6798.00278 1.05625e-17
6799.49605 1.06366e-17
6800.99935 1.04223e-17
6802.50265 1.03325e-17
6803.99593 1.05314e-17
6805.49923 1.08032e-17
6807.00253 1.07543e-17
6808.49581 1.05197e-17
6809.99911 1.03493e-17
6811.50241 1.04623e-17
6812.99569 1.04693e-17
6814.49899 1.03239e-17
6816.00229 1.03294e-17
6817.49557 1.02926e-17
6818.99887 1.02082e-17
6820.50217 1.03338e-17
6821.99544 1.02948e-17
6823.49874 1.01439e-17
6825.00204 1.01869e-17
6826.49532 1.01929e-17
6827.99862 1.01639e-17
6829.50192 1.01309e-17
6830.99520 1.00326e-17
6832.49850 1.01730e-17
6834.00180 1.01890e-17
6835.49508 9.94586e-18
6836.99838 9.82420e-18
6838.50168 9.82439e-18
6839.99496 1.02355e-17
6841.49826 1.01495e-17
6843.00156 1.00849e-17
6844.50486 9.84271e-18
6845.99813 9.86285e-18
6847.50143 9.88299e-18
6849.00473 9.90312e-18
6850.49801 9.92326e-18
6852.00131 9.94339e-18
6853.50461 9.96352e-18
6854.99789 9.98365e-18
6856.50119 1.00038e-17
6858.00449 1.00239e-17
6859.49777 1.00440e-17
6861.00107 1.00641e-17
6862.50437 1.00843e-17
6863.99765 1.01044e-17
6865.50095 1.01245e-17
6867.00425 1.01446e-17
6868.49752 1.01647e-17
6870.00082 1.01848e-17
6871.50412 1.02050e-17
6872.99740 1.02251e-17
6874.50070 1.02452e-17
6876.00400 1.02653e-17
6877.49728 1.02854e-17
6879.00058 1.03055e-17
6880.50388 1.03256e-17
6881.99716 1.03457e-17
6883.50046 1.03658e-17
6885.00376 1.03859e-17
6886.49704 1.04060e-17
6888.00034 1.04260e-17
6889.50364 1.04461e-17
6890.99691 1.04662e-17
6892.50021 1.04863e-17
6894.00351 1.05064e-17
6895.49679 1.05265e-17
6897.00009 1.05466e-17
6898.50339 1.05666e-17
6899.99667 1.05867e-17
6901.49997 1.06068e-17
6903.00327 1.06269e-17
6904.49655 1.06469e-17
6905.99985 1.06670e-17
6907.50315 1.06871e-17
6908.99643 1.07071e-17
6910.49973 1.07272e-17
6912.00303 1.07473e-17
6913.49630 1.07673e-17
6914.99960 1.07874e-17
6916.50290 1.08074e-17
6917.99618 1.08275e-17
6919.49948 1.08476e-17
6921.00278 1.08676e-17
6922.49606 1.08877e-17
6923.99936 1.09077e-17
6925.50266 1.09278e-17
6926.99594 1.09478e-17
6928.49924 1.09678e-17
6930.00254 1.09879e-17
6931.49582 1.10079e-17
6932.99912 1.10280e-17
6934.50242 1.10480e-17
6935.99569 1.10680e-17
6937.49899 1.13916e-17
6939.00229 1.15511e-17
6940.49557 1.13834e-17
6941.99887 1.10650e-17
6943.50217 1.09879e-17
6944.99545 1.09468e-17
6946.49875 1.08346e-17
6948.00205 1.06614e-17
6949.49533 1.08649e-17
6950.99863 1.09536e-17
6952.50193 1.10205e-17
6953.99521 1.11902e-17
6955.49851 1.12899e-17
6957.00181 1.11405e-17
6958.50511 1.09793e-17
6959.99838 1.09224e-17
6961.50168 1.10347e-17
6962.99496 1.08834e-17
6964.49826 1.07850e-17
6966.00156 1.08341e-17
6967.50486 1.06015e-17
6968.99814 1.06606e-17
6970.50144 1.09649e-17
6972.00474 1.08315e-17
6973.49802 1.07341e-17
6975.00132 1.08187e-17
6976.50462 1.07619e-17
6977.99790 1.05964e-17
6979.50120 1.05101e-17
6981.00450 1.06032e-17
6982.49777 1.09135e-17
6984.00107 1.12011e-17
6985.50437 1.11373e-17
6986.99765 1.10878e-17
6988.50095 1.09349e-17
6990.00425 1.08187e-17
6991.49753 1.07989e-17
6993.00083 1.05848e-17
6994.50413 1.05782e-17
6995.99741 1.08687e-17
6997.50071 1.11001e-17
6999.00401 1.08752e-17
7000.49729 1.07591e-17
7002.00059 1.08633e-17
7003.50389 1.09425e-17
7004.99716 1.06246e-17
7006.50046 1.05210e-17
7008.00376 1.06235e-17
7009.49704 1.06984e-17
7011.00034 1.07392e-17
7012.50364 1.06945e-17
7013.99692 1.07073e-17
7015.50022 1.09263e-17
7017.00352 1.08940e-17
7018.49680 1.04379e-17
7020.00010 1.07083e-17
7021.50340 1.08051e-17
7022.99668 1.06372e-17
7024.49998 1.06486e-17
7026.00328 1.08341e-17
7027.49655 1.06971e-17
7028.99985 1.06702e-17
7030.50315 1.09376e-17
7031.99643 1.08522e-17
7033.49973 1.09897e-17
7035.00303 1.12817e-17
7036.49631 1.10360e-17
7037.99961 1.07700e-17
7039.50291 1.08831e-17
7040.99619 1.09047e-17
7042.49949 1.07858e-17
7044.00279 1.08428e-17
7045.49607 1.09120e-17
7046.99937 1.09848e-17
7048.50267 1.10225e-17
7049.99594 1.10798e-17
7051.49924 1.13503e-17
7053.00254 1.14951e-17
7054.49582 1.11284e-17
7055.99912 1.10447e-17
7057.50242 1.11105e-17
7058.99570 1.12057e-17
7060.49900 1.11446e-17
7062.00230 1.13043e-17
7063.49558 1.13437e-17
7064.99888 1.11482e-17
7066.50218 1.11027e-17
7067.99546 1.09524e-17
7069.49876 1.12840e-17
7071.00206 1.12928e-17
7072.49533 1.12521e-17
7073.99863 1.10560e-17
7075.50193 1.12790e-17
7076.99521 1.12840e-17
7078.49851 1.12889e-17
7080.00181 1.12939e-17
7081.50511 1.12988e-17
7082.99839 1.13038e-17
7084.50169 1.13087e-17
7085.99497 1.13083e-17
7087.49827 1.12993e-17
7089.00157 1.12338e-17
7090.50487 1.13818e-17
7091.99815 1.13686e-17
7093.50145 1.12824e-17
7095.00475 1.13444e-17
7096.49802 1.13096e-17
7098.00132 1.13649e-17
7099.50462 1.16300e-17
7100.99790 1.15907e-17
7102.50120 1.14138e-17
7104.00450 1.12962e-17
7105.49778 1.14724e-17
7107.00108 1.13782e-17
7108.50438 1.11645e-17
7109.99766 1.11044e-17
7111.50096 1.12693e-17
7113.00426 1.15138e-17
7114.49754 1.14302e-17
7116.00084 1.12976e-17
7117.50414 1.16393e-17
7118.99741 1.18497e-17
7120.50071 1.15933e-17
7122.00401 1.15386e-17
7123.49729 1.15771e-17
7125.00059 1.17892e-17
7126.50389 1.17127e-17
7127.99717 1.15528e-17
7129.50047 1.16020e-17
7131.00377 1.17109e-17
7132.49705 1.16260e-17
7134.00035 1.19573e-17
7135.50365 1.15918e-17
7136.99693 1.12574e-17
7138.50023 1.14458e-17
7140.00353 1.16754e-17
7141.49680 1.13650e-17
7143.00010 1.13679e-17
7144.50340 1.20764e-17
7145.99668 1.20279e-17
7147.49998 1.17707e-17
7149.00328 1.15872e-17
7150.49656 1.15655e-17
7151.99986 1.15678e-17
7153.50316 1.19510e-17
7154.99644 1.22707e-17
7156.49974 1.19971e-17
7158.00304 1.21225e-17
7159.49632 1.24149e-17
7160.99962 1.23193e-17
7162.50292 1.21379e-17
7163.99619 1.21763e-17
7165.49949 1.19731e-17
7167.00279 1.20447e-17
7168.49607 1.23901e-17
7169.99937 1.19571e-17
7171.50267 1.18918e-17
7172.99595 1.18254e-17
7174.49925 1.15293e-17
7176.00255 1.15160e-17
7177.49583 1.15028e-17
7178.99913 1.14895e-17
7180.50243 1.14763e-17
7181.99571 1.14631e-17
7183.49901 1.14626e-17
7185.00231 1.16369e-17
7186.49558 1.17972e-17
7187.99888 1.17703e-17
7189.50218 1.21006e-17
7190.99546 1.21005e-17
7192.49876 1.16093e-17
7194.00206 1.18268e-17
7195.49534 1.20520e-17
7196.99864 1.17664e-17
7198.50194 1.17574e-17
7199.99522 1.20935e-17
7201.49852 1.24884e-17
7203.00182 1.20923e-17
7204.50512 1.18828e-17
7205.99840 1.27900e-17
7207.50170 1.29819e-17
7208.99497 1.30011e-17
7210.49827 1.28957e-17
7212.00157 1.36374e-17
7213.50487 1.40063e-17
7214.99815 1.32782e-17
7216.50145 1.27980e-17
7218.00475 1.33327e-17
7219.49803 1.33591e-17
7221.00133 1.32096e-17
7222.50463 1.28935e-17
7223.99791 1.29451e-17
7225.50121 1.32216e-17
7227.00451 1.29010e-17
7228.49779 1.26671e-17
7230.00109 1.26978e-17
7231.50439 1.26080e-17
7232.99766 1.26771e-17
7234.50096 1.26660e-17
7236.00426 1.27368e-17
7237.49754 1.32183e-17
7239.00084 1.32923e-17
7240.50414 1.29732e-17
7241.99742 1.28780e-17
7243.50072 1.29401e-17
7245.00402 1.27043e-17
7246.49730 1.26396e-17
7248.00060 1.29629e-17
7249.50390 1.29373e-17
7250.99718 1.26601e-17
7252.50048 1.24861e-17
7254.00378 1.23548e-17
7255.49705 1.28365e-17
7257.00035 1.33079e-17
7258.50365 1.32378e-17
7259.99693 1.35873e-17
7261.50023 1.39521e-17
7263.00353 1.35130e-17
7264.49681 1.31587e-17
7266.00011 1.31078e-17
7267.50341 1.32933e-17
7268.99669 1.35703e-17
7270.49999 1.34064e-17
7272.00329 1.30376e-17
7273.49657 1.23183e-17
7274.99987 1.21970e-17
7276.50317 1.28273e-17
7277.99644 1.26077e-17
7279.49974 1.26683e-17
7281.00304 1.35124e-17
7282.49632 1.30009e-17
7283.99962 1.30570e-17
7285.50292 1.31231e-17
7286.99620 1.28763e-17
7288.49950 1.26942e-17
7290.00280 1.26292e-17
7291.49608 1.26465e-17
7292.99938 1.29149e-17
7294.50268 1.29617e-17
7295.99596 1.27817e-17
7297.49926 1.26843e-17
7299.00256 1.27225e-17
7300.49583 1.26507e-17
7301.99913 1.24871e-17
7303.50243 1.23587e-17
7304.99571 1.23454e-17
7306.49901 1.26326e-17
7308.00231 1.30349e-17
7309.49559 1.29011e-17
7310.99889 1.26165e-17
7312.50219 1.24595e-17
7313.99547 1.24010e-17
7315.49877 1.25544e-17
7317.00207 1.27420e-17
7318.49535 1.26858e-17
7319.99865 1.24360e-17
7321.50195 1.23006e-17
7322.99522 1.25447e-17
7324.49852 1.28008e-17
7326.00182 1.27801e-17
7327.50512 1.27972e-17
7328.99840 1.30331e-17
7330.50170 1.27017e-17
7331.99498 1.23837e-17
7333.49828 1.23524e-17
7335.00158 1.21877e-17
7336.50488 1.24221e-17
7337.99816 1.25402e-17
7339.50146 1.20277e-17
7341.00476 1.16522e-17
7342.49804 1.18666e-17
7344.00134 1.24380e-17
7345.50464 1.21361e-17
7346.99791 1.19294e-17
7348.50121 1.21458e-17
7350.00451 1.19621e-17
7351.49779 1.18815e-17
7353.00109 1.17522e-17
7354.50439 1.19123e-17
7355.99767 1.19495e-17
7357.50097 1.17526e-17
7359.00427 1.17789e-17
7360.49755 1.16131e-17
7362.00085 1.13365e-17
7363.50415 1.14606e-17
7364.99743 1.11802e-17
7366.50073 1.13707e-17
7368.00403 1.17809e-17
7369.49730 1.14225e-17
7371.00060 1.13027e-17
7372.50390 1.15087e-17
7373.99718 1.11867e-17
7375.50048 1.10832e-17
7377.00378 1.11773e-17
7378.49706 1.10201e-17
7380.00036 1.09742e-17
7381.50366 1.09746e-17
7382.99694 1.07829e-17
7384.50024 1.07057e-17
7386.00354 1.08145e-17
7387.49682 1.08110e-17
7389.00012 1.04508e-17
7390.50342 1.02866e-17
7391.99669 1.04971e-17
7393.49999 1.05024e-17
7395.00329 1.02140e-17
7396.49657 1.02294e-17
7397.99987 1.02760e-17
7399.50317 1.00925e-17
7400.99645 1.00685e-17
7402.49975 1.01801e-17
7404.00305 1.05749e-17
7405.49633 1.06674e-17
7406.99963 1.01679e-17
7408.50293 9.93337e-18
7409.99621 9.70757e-18
7411.49951 9.68047e-18
7413.00281 9.66335e-18
7414.49608 9.47323e-18
7415.99938 9.41663e-18
7417.50268 9.25820e-18
7418.99596 9.25493e-18
7420.49926 9.61954e-18
7422.00256 9.29158e-18
7423.49584 9.29565e-18
7424.99914 9.00920e-18
7426.50244 8.85709e-18
7427.99572 8.84848e-18
7429.49902 8.89470e-18
7431.00232 9.05905e-18
7432.49560 8.79334e-18
7433.99890 8.71293e-18
7435.50220 8.63673e-18
7436.99547 8.64872e-18
7438.49877 8.72359e-18
7440.00207 8.59380e-18
7441.49535 8.46138e-18
7442.99865 8.32809e-18
7444.50195 8.26722e-18
7445.99523 8.33375e-18
7447.49853 8.18360e-18
7449.00183 8.25958e-18
7450.50513 8.12129e-18
7451.99841 8.01568e-18
7453.50171 7.98665e-18
7454.99499 7.91240e-18
7456.49829 7.81688e-18
7458.00159 7.80051e-18
7459.49486 7.87378e-18
7460.99816 7.82905e-18
7462.50146 7.53090e-18
7464.00476 7.35430e-18
7465.49804 7.35021e-18
7467.00134 7.42326e-18
7468.50464 7.39093e-18
7469.99792 7.25760e-18
7471.50122 7.22255e-18
7473.00452 7.33081e-18
7474.49780 7.33282e-18
7476.00110 7.36279e-18
7477.50440 7.15256e-18
7478.99768 6.87623e-18
7480.50098 6.84640e-18
7482.00428 6.80297e-18
7483.49755 6.93973e-18
7485.00085 6.86812e-18
7486.50415 6.98235e-18
7487.99743 6.93944e-18
7489.50073 6.78935e-18
7491.00403 6.61922e-18
7492.49731 6.45419e-18
7494.00061 6.24335e-18
7495.50391 6.49441e-18
7496.99719 6.55943e-18
7498.50049 6.38868e-18
7500.00379 6.30694e-18
7501.49707 6.48076e-18
7503.00037 6.29461e-18
7504.50367 6.12218e-18
7505.99694 6.29624e-18
7507.50024 6.37531e-18
7509.00354 6.37257e-18
7510.49682 6.10238e-18
7512.00012 6.27268e-18
7513.50342 6.13962e-18
7514.99670 6.13205e-18
7516.50000 5.86781e-18
7518.00330 5.80164e-18
7519.49658 5.88691e-18
7520.99988 5.80533e-18
7522.50318 5.75855e-18
7523.99646 5.73696e-18
7525.49976 5.69495e-18
7527.00306 5.60165e-18
7528.49633 5.61205e-18
7529.99963 5.60304e-18
7531.50293 5.42364e-18
7532.99621 5.43355e-18
7534.49951 5.48777e-18
7536.00281 5.44454e-18
7537.49609 5.38656e-18
7538.99939 5.26755e-18
7540.50269 5.00884e-18
