# wavelength flux
3719.99603 8.91769e-18
3721.49933 9.06156e-18
3723.00263 8.64432e-18
3724.49590 8.56202e-18
3725.99920 8.26259e-18
3727.50250 8.08076e-18
3728.99578 8.35390e-18
3730.49908 8.46692e-18
3732.00238 8.37758e-18
3733.49566 8.30192e-18
3734.99896 8.25808e-18
3736.50226 8.36187e-18
3737.99554 8.11129e-18
3739.49884 7.88254e-18
3741.00214 7.98874e-18
3742.49542 8.00387e-18
3743.99872 8.25094e-18
3745.50202 8.37097e-18
3746.99529 8.37090e-18
3748.49859 8.20882e-18
3750.00189 8.01308e-18
3751.49517 8.53310e-18
3752.99847 8.79432e-18
3754.50177 8.46575e-18
3755.99505 8.65434e-18
3757.49835 8.76127e-18
3759.00165 8.23446e-18
3760.50495 7.95064e-18
3761.99823 8.40565e-18
3763.50153 8.69737e-18
3765.00483 8.73610e-18
3766.49811 8.39432e-18
3768.00141 8.44930e-18
3769.50471 8.32486e-18
3770.99798 8.54195e-18
3772.50128 8.56641e-18
3774.00458 8.37033e-18
3775.49786 8.45282e-18
3777.00116 8.58046e-18
3778.50446 8.76153e-18
3779.99774 8.83403e-18
3781.50104 8.77780e-18
3783.00434 8.68255e-18
3784.49762 8.50215e-18
3786.00092 8.88019e-18
3787.50422 8.95544e-18
3788.99750 9.13657e-18
3790.50080 8.65606e-18
3792.00410 8.74395e-18
3793.49737 9.25894e-18
3795.00067 9.47790e-18
3796.50397 9.33286e-18
3797.99725 9.17685e-18
3799.50055 9.34430e-18
3801.00385 9.58801e-18
3802.49713 9.19695e-18
3804.00043 9.20246e-18
3805.50373 9.31389e-18
3806.99701 9.12574e-18
3808.50031 9.30171e-18
3810.00361 9.35040e-18
3811.49689 9.45639e-18
3813.00019 9.51162e-18
3814.50349 9.27199e-18
3815.99676 9.20129e-18
3817.50006 9.29309e-18
3819.00336 9.44739e-18
3820.49664 9.48171e-18
3821.99994 9.39705e-18
3823.50324 9.39174e-18
3824.99652 9.40264e-18
3826.49982 9.65111e-18
3828.00312 9.43170e-18
3829.49640 9.22402e-18
3830.99970 9.46746e-18
3832.50300 9.60345e-18
3833.99628 9.68482e-18
3835.49958 9.81096e-18
3837.00288 9.64930e-18
3838.49615 9.60642e-18
3839.99945 9.63573e-18
3841.50275 9.63256e-18
3842.99603 9.53732e-18
3844.49933 9.66580e-18
3846.00263 9.62375e-18
3847.49591 9.71060e-18
3848.99921 9.63224e-18
3850.50251 9.84590e-18
3851.99579 9.46314e-18
3853.49909 9.49910e-18
3855.00239 9.42419e-18
3856.49567 9.77624e-18
3857.99897 1.00131e-17
3859.50227 9.63098e-18
3860.99554 9.95413e-18
3862.49884 9.90208e-18
3864.00214 9.91980e-18
3865.49542 1.01022e-17
3866.99872 1.01740e-17
3868.50202 1.03148e-17
3869.99530 1.04883e-17
3871.49860 1.07190e-17
3873.00190 1.05992e-17
3874.49518 1.03670e-17
3875.99848 1.02929e-17
3877.50178 1.02847e-17
3878.99506 1.07464e-17
3880.49836 1.06893e-17
3882.00166 1.06035e-17
3883.50496 1.07683e-17
3884.99823 1.03736e-17
3886.50153 1.03583e-17
3888.00483 1.06040e-17
3889.49811 1.06608e-17
3891.00141 1.08268e-17
3892.50471 1.08012e-17
3893.99799 1.07907e-17
3895.50129 1.08312e-17
3897.00459 1.07100e-17
3898.49787 1.07107e-17
3900.00117 1.08074e-17
3901.50447 1.07511e-17
3902.99775 1.09146e-17
3904.50105 1.10293e-17
3906.00435 1.12683e-17
3907.49762 1.12059e-17
3909.00092 1.08654e-17
3910.50422 1.04966e-17
3911.99750 1.06197e-17
3913.50080 1.08488e-17
3915.00410 1.11722e-17
3916.49738 1.16729e-17
3918.00068 1.10373e-17
3919.50398 1.10173e-17
3920.99726 1.11785e-17
3922.50056 1.14569e-17
3924.00386 1.15919e-17
3925.49714 1.13742e-17
3927.00044 1.10375e-17
3928.50374 1.10460e-17
3929.99701 1.06637e-17
3931.50031 1.05087e-17
3933.00361 1.05260e-17
3934.49689 1.10285e-17
3936.00019 1.07844e-17
3937.50349 1.08952e-17
3938.99677 1.10819e-17
3940.50007 1.10843e-17
3942.00337 1.10686e-17
3943.49665 1.11598e-17
3944.99995 1.11474e-17
3946.50325 1.11513e-17
3947.99653 1.15887e-17
3949.49983 1.19414e-17
3951.00313 1.16991e-17
3952.49640 1.16670e-17
3953.99970 1.14313e-17
3955.50300 1.17009e-17
3956.99628 1.19179e-17
3958.49958 1.17822e-17
3960.00288 1.16919e-17
3961.49616 1.18082e-17
3962.99946 1.19049e-17
3964.50276 1.19484e-17
3965.99604 1.19018e-17
3967.49934 1.17153e-17
3969.00264 1.13412e-17
3970.49592 1.13567e-17
3971.99922 1.15638e-17
3973.50252 1.15682e-17
3974.99579 1.15893e-17
3976.49909 1.18908e-17
3978.00239 1.20320e-17
3979.49567 1.16747e-17
3980.99897 1.17305e-17
3982.50227 1.17072e-17
3983.99555 1.17613e-17
3985.49885 1.16724e-17
3987.00215 1.17427e-17
3988.49543 1.18826e-17
3989.99873 1.17817e-17
3991.50203 1.17614e-17
3992.99531 1.18631e-17
3994.49861 1.21908e-17
3996.00191 1.18842e-17
3997.49518 1.18015e-17
3998.99848 1.18370e-17
4000.50178 1.18227e-17
4001.99506 1.17414e-17
4003.49836 1.17280e-17
4005.00166 1.19490e-17
4006.50496 1.20507e-17
4007.99824 1.17557e-17
4009.50154 1.16801e-17
4011.00484 1.17243e-17
4012.49812 1.16847e-17
4014.00142 1.16307e-17
4015.50472 1.16408e-17
4016.99800 1.13161e-17
4018.50130 1.16669e-17
4020.00460 1.19016e-17
4021.49787 1.18862e-17
4023.00117 1.17161e-17
4024.50447 1.16760e-17
4025.99775 1.16855e-17
4027.50105 1.15130e-17
4029.00435 1.15541e-17
4030.49763 1.17054e-17
4032.00093 1.15044e-17
4033.50423 1.13966e-17
4034.99751 1.14935e-17
4036.50081 1.16875e-17
4038.00411 1.15390e-17
4039.49739 1.12558e-17
4041.00069 1.14780e-17
4042.50399 1.15788e-17
4043.99726 1.12649e-17
4045.50056 1.11403e-17
4047.00386 1.14042e-17
4048.49714 1.16073e-17
4050.00044 1.14617e-17
4051.50374 1.14645e-17
4052.99702 1.15642e-17
4054.50032 1.18836e-17
4056.00362 1.15977e-17
4057.49690 1.12485e-17
4059.00020 1.12093e-17
4060.50350 1.13217e-17
4061.99678 1.12727e-17
4063.50008 1.14522e-17
4065.00338 1.15067e-17
4066.49665 1.16746e-17
4067.99995 1.17764e-17
4069.50325 1.18536e-17
4070.99653 1.17070e-17
4072.49983 1.18065e-17
4074.00313 1.20375e-17
4075.49641 1.19738e-17
4076.99971 1.18149e-17
4078.50301 1.17638e-17
4079.99629 1.19368e-17
4081.49959 1.20293e-17
4083.00289 1.20161e-17
4084.49617 1.21712e-17
4085.99947 1.19551e-17
4087.50277 1.20180e-17
4088.99604 1.19129e-17
4090.49934 1.18542e-17
4092.00264 1.20778e-17
4093.49592 1.19754e-17
4094.99922 1.19067e-17
4096.50252 1.21925e-17
4097.99580 1.22414e-17
4099.49910 1.21308e-17
4101.00240 1.20524e-17
4102.49568 1.21548e-17
4103.99898 1.22427e-17
4105.50228 1.21087e-17
4106.99556 1.20255e-17
4108.49886 1.22261e-17
4110.00216 1.24019e-17
4111.49543 1.23633e-17
4112.99873 1.22972e-17
4114.50203 1.23335e-17
4115.99531 1.24112e-17
4117.49861 1.24144e-17
4119.00191 1.25910e-17
4120.49519 1.25963e-17
4121.99849 1.23936e-17
4123.50179 1.22429e-17
4124.99507 1.24522e-17
4126.49837 1.26725e-17
4128.00167 1.25671e-17
4129.50497 1.27675e-17
4130.99825 1.27384e-17
4132.50155 1.24273e-17
4134.00485 1.25673e-17
4135.49812 1.27546e-17
4137.00142 1.27591e-17
4138.50472 1.28353e-17
4139.99800 1.24742e-17
4141.50130 1.26592e-17
4143.00460 1.25368e-17
4144.49788 1.26829e-17
4146.00118 1.28094e-17
4147.50448 1.27192e-17
4148.99776 1.23082e-17
4150.50106 1.26593e-17
4152.00436 1.27805e-17
4153.49764 1.25404e-17
4155.00094 1.26842e-17
4156.50424 1.27078e-17
4157.99751 1.26481e-17
4159.50081 1.27273e-17
4161.00411 1.28361e-17
4162.49739 1.28658e-17
4164.00069 1.28027e-17
4165.50399 1.30377e-17
4166.99727 1.28350e-17
4168.50057 1.28806e-17
4170.00387 1.29585e-17
4171.49715 1.30062e-17
4173.00045 1.30489e-17
4174.50375 1.28884e-17
4175.99703 1.30200e-17
4177.50033 1.34111e-17
4179.00363 1.32759e-17
4180.49690 1.33611e-17
4182.00020 1.34999e-17
4183.50350 1.32647e-17
4184.99678 1.31913e-17
4186.50008 1.33108e-17
4188.00338 1.36121e-17
4189.49666 1.38141e-17
4190.99996 1.38132e-17
4192.50326 1.38914e-17
4193.99654 1.36752e-17
4195.49984 1.36974e-17
4197.00314 1.38585e-17
4198.49642 1.38456e-17
4199.99972 1.38339e-17
4201.50302 1.36657e-17
4202.99629 1.35189e-17
4204.49959 1.37395e-17
4206.00289 1.39090e-17
4207.49617 1.41367e-17
4208.99947 1.39270e-17
4210.50277 1.39843e-17
4211.99605 1.42848e-17
4213.49935 1.43060e-17
4215.00265 1.43290e-17
4216.49593 1.41082e-17
4217.99923 1.40271e-17
4219.50253 1.40296e-17
4220.99581 1.38882e-17
4222.49911 1.39925e-17
4224.00241 1.39293e-17
4225.49568 1.41563e-17
4226.99898 1.43219e-17
4228.50228 1.43275e-17
4229.99556 1.43458e-17
4231.49886 1.42954e-17
4233.00216 1.44283e-17
4234.49544 1.43560e-17
4235.99874 1.43861e-17
4237.50204 1.46230e-17
4238.99532 1.45624e-17
4240.49862 1.45456e-17
4242.00192 1.42132e-17
4243.49520 1.40619e-17
4244.99850 1.43094e-17
4246.50180 1.46436e-17
4247.99507 1.46638e-17
4249.49837 1.46550e-17
4251.00167 1.46106e-17
4252.50497 1.44763e-17
4253.99825 1.43688e-17
4255.50155 1.43660e-17
4257.00485 1.47397e-17
4258.49813 1.47040e-17
4260.00143 1.45331e-17
4261.50473 1.44178e-17
4262.99801 1.45407e-17
4264.50131 1.45740e-17
4266.00461 1.47473e-17
4267.49789 1.49111e-17
4269.00119 1.47405e-17
4270.50449 1.45302e-17
4271.99776 1.48225e-17
4273.50106 1.47222e-17
4275.00436 1.49760e-17
4276.49764 1.50385e-17
4278.00094 1.50768e-17
4279.50424 1.47761e-17
4280.99752 1.47203e-17
4282.50082 1.50310e-17
4284.00412 1.49142e-17
4285.49740 1.49222e-17
4287.00070 1.49306e-17
4288.50400 1.49332e-17
4289.99728 1.51967e-17
4291.50058 1.49200e-17
4293.00388 1.51242e-17
4294.49715 1.49991e-17
4296.00045 1.52520e-17
4297.50375 1.52440e-17
4298.99703 1.49650e-17
4300.50033 1.52127e-17
4302.00363 1.50888e-17
4303.49691 1.48443e-17
4305.00021 1.52039e-17
4306.50351 1.50606e-17
4307.99679 1.49188e-17
4309.50009 1.52153e-17
4311.00339 1.52641e-17
4312.49667 1.50115e-17
4313.99997 1.51219e-17
4315.50327 1.52668e-17
4316.99654 1.52299e-17
4318.49984 1.52320e-17
4320.00314 1.53164e-17
4321.49642 1.53240e-17
4322.99972 1.54032e-17
4324.50302 1.52169e-17
4325.99630 1.51139e-17
4327.49960 1.51075e-17
4329.00290 1.48073e-17
4330.49618 1.46004e-17
4331.99948 1.49969e-17
4333.50278 1.51285e-17
4334.99606 1.49853e-17
4336.49936 1.49789e-17
4338.00266 1.49704e-17
4339.49593 1.49474e-17
4340.99923 1.51032e-17
4342.50253 1.49334e-17
4343.99581 1.50124e-17
4345.49911 1.50714e-17
4347.00241 1.49408e-17
4348.49569 1.49624e-17
4349.99899 1.48372e-17
4351.50229 1.47005e-17
4352.99557 1.47306e-17
4354.49887 1.46591e-17
4356.00217 1.48335e-17
4357.49545 1.50990e-17
4358.99875 1.48600e-17
4360.50205 1.50561e-17
4361.99532 1.52713e-17
4363.49862 1.49863e-17
4365.00192 1.50157e-17
4366.49520 1.49853e-17
4367.99850 1.48475e-17
4369.50180 1.51725e-17
4370.99508 1.52518e-17
4372.49838 1.51187e-17
4374.00168 1.51562e-17
4375.50498 1.52304e-17
4376.99826 1.53324e-17
4378.50156 1.55308e-17
4380.00486 1.53138e-17
4381.49814 1.51896e-17
4383.00144 1.53488e-17
4384.50474 1.51614e-17
4385.99801 1.50793e-17
4387.50131 1.54338e-17
4389.00461 1.56440e-17
4390.49789 1.55457e-17
4392.00119 1.55055e-17
4393.50449 1.54297e-17
4394.99777 1.55126e-17
4396.50107 1.57610e-17
4398.00437 1.58416e-17
4399.49765 1.58375e-17
4401.00095 1.57248e-17
4402.50425 1.55381e-17
4403.99753 1.55447e-17
4405.50083 1.55940e-17
4407.00413 1.58081e-17
4408.49740 1.59774e-17
4410.00070 1.60341e-17
4411.50400 1.59649e-17
4412.99728 1.59900e-17
4414.50058 1.61357e-17
4416.00388 1.60949e-17
4417.49716 1.58500e-17
4419.00046 1.59765e-17
4420.50376 1.59917e-17
4421.99704 1.59761e-17
4423.50034 1.58394e-17
4425.00364 1.58186e-17
4426.49692 1.60521e-17
4428.00022 1.60435e-17
4429.50352 1.57839e-17
4430.99679 1.60141e-17
4432.50009 1.62584e-17
4434.00339 1.61681e-17
4435.49667 1.63965e-17
4436.99997 1.64835e-17
4438.50327 1.63442e-17
4439.99655 1.64535e-17
4441.49985 1.65510e-17
4443.00315 1.66202e-17
4444.49643 1.69259e-17
4445.99973 1.67548e-17
4447.50303 1.68699e-17
4448.99631 1.68388e-17
4450.49961 1.68830e-17
4452.00291 1.67648e-17
4453.49618 1.69823e-17
4454.99948 1.70079e-17
4456.50278 1.71622e-17
4457.99606 1.72888e-17
4459.49936 1.73818e-17
4461.00266 1.74012e-17
4462.49594 1.74926e-17
4463.99924 1.75789e-17
4465.50254 1.75305e-17
4466.99582 1.76383e-17
4468.49912 1.76218e-17
4470.00242 1.75594e-17
4471.49570 1.74908e-17
4472.99900 1.77016e-17
4474.50230 1.77913e-17
4475.99557 1.77027e-17
4477.49887 1.77071e-17
4479.00217 1.75318e-17
4480.49545 1.74955e-17
4481.99875 1.76031e-17
4483.50205 1.77834e-17
4484.99533 1.76698e-17
4486.49863 1.79943e-17
4488.00193 1.81775e-17
4489.49521 1.80018e-17
4490.99851 1.80720e-17
4492.50181 1.80301e-17
4493.99509 1.84612e-17
4495.49839 1.84145e-17
4497.00169 1.80215e-17
4498.49496 1.79602e-17
4499.99826 1.82682e-17
4501.50156 1.82860e-17
4503.00486 1.85243e-17
4504.49814 1.84509e-17
4506.00144 1.84549e-17
4507.50474 1.85133e-17
4508.99802 1.85401e-17
4510.50132 1.86419e-17
4512.00462 1.85078e-17
4513.49790 1.83206e-17
4515.00120 1.83497e-17
4516.50450 1.87291e-17
4517.99778 1.85125e-17
4519.50108 1.85978e-17
4521.00438 1.83558e-17
4522.49765 1.83361e-17
4524.00095 1.85359e-17
4525.50425 1.83669e-17
4526.99753 1.85099e-17
4528.50083 1.89670e-17
4530.00413 1.88795e-17
4531.49741 1.88170e-17
4533.00071 1.86857e-17
4534.50401 1.85870e-17
4535.99729 1.88551e-17
4537.50059 1.89187e-17
4539.00389 1.88446e-17
4540.49717 1.89805e-17
4542.00047 1.90049e-17
4543.50377 1.88608e-17
4544.99704 1.88340e-17
4546.50034 1.88960e-17
4548.00364 1.88938e-17
4549.49692 1.89558e-17
4551.00022 1.90521e-17
4552.50352 1.90910e-17
4553.99680 1.90516e-17
4555.50010 1.91198e-17
4557.00340 1.92348e-17
4558.49668 1.90464e-17
4559.99998 1.89846e-17
4561.50328 1.90613e-17
4562.99656 1.87557e-17
4564.49986 1.87800e-17
4566.00316 1.92449e-17
4567.49643 1.90875e-17
4568.99973 1.88886e-17
4570.50303 1.87167e-17
4571.99631 1.86708e-17
4573.49961 1.86278e-17
4575.00291 1.85545e-17
4576.49619 1.86950e-17
4577.99949 1.85827e-17
4579.50279 1.85176e-17
4580.99607 1.85349e-17
4582.49937 1.86228e-17
4584.00267 1.86780e-17
4585.49595 1.85966e-17
4586.99925 1.84630e-17
4588.50255 1.86333e-17
4589.99582 1.87268e-17
4591.49912 1.85210e-17
4593.00242 1.84741e-17
4594.49570 1.86285e-17
4595.99900 1.86025e-17
4597.50230 1.86602e-17
4598.99558 1.87719e-17
4600.49888 1.86189e-17
4602.00218 1.85095e-17
4603.49546 1.84994e-17
4604.99876 1.84992e-17
4606.50206 1.87185e-17
4607.99534 1.86769e-17
4609.49864 1.84449e-17
4611.00194 1.85666e-17
4612.49521 1.86976e-17
4613.99851 1.87505e-17
4615.50181 1.87295e-17
4616.99509 1.87679e-17
4618.49839 1.87678e-17
4620.00169 1.85882e-17
4621.49497 1.85359e-17
4622.99827 1.86151e-17
4624.50157 1.85598e-17
4626.00487 1.83494e-17
4627.49815 1.83432e-17
4629.00145 1.82519e-17
4630.50475 1.81826e-17
4631.99803 1.82477e-17
4633.50133 1.82762e-17
4635.00463 1.81759e-17
4636.49790 1.79459e-17
4638.00120 1.78793e-17
4639.50450 1.79957e-17
4640.99778 1.80563e-17
4642.50108 1.78886e-17
4644.00438 1.77313e-17
4645.49766 1.78308e-17
4647.00096 1.78733e-17
4648.50426 1.77884e-17
4649.99754 1.77767e-17
4651.50084 1.76380e-17
4653.00414 1.74974e-17
4654.49742 1.75840e-17
4656.00072 1.75576e-17
4657.50402 1.72923e-17
4658.99729 1.74325e-17
4660.50059 1.72662e-17
4662.00389 1.69846e-17
4663.49717 1.70712e-17
4665.00047 1.70521e-17
4666.50377 1.70182e-17
4667.99705 1.68700e-17
4669.50035 1.66659e-17
4671.00365 1.64796e-17
4672.49693 1.63215e-17
4674.00023 1.64545e-17
4675.50353 1.65293e-17
4676.99681 1.63105e-17
4678.50011 1.62275e-17
4680.00341 1.63229e-17
4681.49668 1.61118e-17
4682.99998 1.59752e-17
4684.50328 1.60704e-17
4685.99656 1.60226e-17
4687.49986 1.59330e-17
4689.00316 1.58691e-17
4690.49644 1.56669e-17
4691.99974 1.57445e-17
4693.50304 1.59107e-17
4694.99632 1.57099e-17
4696.49962 1.54780e-17
4698.00292 1.55988e-17
4699.49620 1.56912e-17
4700.99950 1.56954e-17
4702.50280 1.54821e-17
4703.99607 1.53747e-17
4705.49937 1.55255e-17
4707.00267 1.53911e-17
4708.49595 1.54069e-17
4709.99925 1.55059e-17
4711.50255 1.54231e-17
4712.99583 1.52438e-17
4714.49913 1.54991e-17
4716.00243 1.54678e-17
4717.49571 1.52019e-17
4718.99901 1.52855e-17
4720.50231 1.55265e-17
4721.99559 1.53502e-17
4723.49889 1.51949e-17
4725.00219 1.51934e-17
4726.49546 1.51227e-17
4727.99876 1.52826e-17
4729.50206 1.51109e-17
4730.99534 1.50579e-17
4732.49864 1.51565e-17
4734.00194 1.50493e-17
4735.49522 1.49489e-17
4736.99852 1.50377e-17
4738.50182 1.50812e-17
4739.99510 1.52184e-17
4741.49840 1.52755e-17
4743.00170 1.51479e-17
4744.49498 1.48353e-17
4745.99828 1.48753e-17
4747.50158 1.48012e-17
4749.00488 1.47944e-17
4750.49815 1.48639e-17
4752.00145 1.47886e-17
4753.50475 1.47355e-17
4754.99803 1.46469e-17
4756.50133 1.45830e-17
4758.00463 1.47771e-17
4759.49791 1.47467e-17
4761.00121 1.45447e-17
4762.50451 1.44817e-17
4763.99779 1.44868e-17
4765.50109 1.45144e-17
4767.00439 1.44597e-17
4768.49767 1.44202e-17
4770.00097 1.42809e-17
4771.50427 1.42005e-17
4772.99754 1.42177e-17
4774.50084 1.42723e-17
4776.00414 1.44119e-17
4777.49742 1.43492e-17
4779.00072 1.43358e-17
4780.50402 1.40814e-17
4781.99730 1.40316e-17
4783.50060 1.41964e-17
4785.00390 1.42588e-17
4786.49718 1.42582e-17
4788.00048 1.41451e-17
4789.50378 1.42139e-17
4790.99706 1.41352e-17
4792.50036 1.42991e-17
4794.00366 1.43646e-17
4795.49693 1.43651e-17
4797.00023 1.42578e-17
4798.50353 1.43356e-17
4799.99681 1.44929e-17
4801.50011 1.45810e-17
4803.00341 1.46227e-17
4804.49669 1.45280e-17
4805.99999 1.45704e-17
4807.50329 1.45687e-17
4808.99657 1.45818e-17
4810.49987 1.45474e-17
4812.00317 1.46002e-17
4813.49645 1.47475e-17
4814.99975 1.47536e-17
4816.50305 1.46197e-17
4817.99632 1.47084e-17
4819.49962 1.47438e-17
4821.00292 1.47431e-17
4822.49620 1.47276e-17
4823.99950 1.48497e-17
4825.50280 1.49301e-17
4826.99608 1.47905e-17
4828.49938 1.46839e-17
4830.00268 1.46777e-17
4831.49596 1.46480e-17
4832.99926 1.45989e-17
4834.50256 1.46476e-17
4835.99584 1.47175e-17
4837.49914 1.47493e-17
4839.00244 1.47799e-17
4840.49571 1.48566e-17
4841.99901 1.49600e-17
4843.50231 1.46985e-17
4844.99559 1.47685e-17
4846.49889 1.48824e-17
4848.00219 1.49919e-17
4849.49547 1.49627e-17
4850.99877 1.49321e-17
4852.50207 1.49348e-17
4853.99535 1.49237e-17
4855.49865 1.49814e-17
4857.00195 1.48686e-17
4858.49523 1.48360e-17
4859.99853 1.47961e-17
4861.50183 1.48858e-17
4862.99510 1.50842e-17
4864.49840 1.49473e-17
4866.00170 1.51224e-17
4867.49498 1.53011e-17
4868.99828 1.53162e-17
4870.50158 1.50888e-17
4872.00488 1.51616e-17
4873.49816 1.52430e-17
4875.00146 1.53560e-17
4876.50476 1.52115e-17
4877.99804 1.51606e-17
4879.50134 1.50853e-17
4881.00464 1.50295e-17
4882.49792 1.53103e-17
4884.00122 1.52969e-17
4885.50452 1.51090e-17
4886.99779 1.51436e-17
4888.50109 1.50949e-17
4890.00439 1.52901e-17
4891.49767 1.52746e-17
4893.00097 1.49795e-17
4894.50427 1.48993e-17
4895.99755 1.51077e-17
4897.50085 1.50412e-17
4899.00415 1.49853e-17
4900.49743 1.50274e-17
4902.00073 1.50266e-17
4903.50403 1.50485e-17
4904.99731 1.50698e-17
4906.50061 1.51331e-17
4908.00391 1.51244e-17
4909.49718 1.50952e-17
4911.00048 1.51194e-17
4912.50378 1.52365e-17
4913.99706 1.52691e-17
4915.50036 1.52064e-17
4917.00366 1.51988e-17
4918.49694 1.50432e-17
4920.00024 1.51293e-17
4921.50354 1.52756e-17
4922.99682 1.53389e-17
4924.50012 1.54119e-17
4926.00342 1.52518e-17
4927.49670 1.53444e-17
4929.00000 1.53145e-17
4930.50330 1.51025e-17
4931.99657 1.52688e-17
4933.49987 1.53959e-17
4935.00317 1.53990e-17
4936.49645 1.51776e-17
4937.99975 1.52286e-17
4939.50305 1.55311e-17
4940.99633 1.52716e-17
4942.49963 1.54274e-17
4944.00293 1.53625e-17
4945.49621 1.54848e-17
4946.99951 1.55010e-17
4948.50281 1.55702e-17
4949.99609 1.54678e-17
4951.49939 1.57033e-17
4953.00269 1.57147e-17
4954.49596 1.57349e-17
4955.99926 1.56509e-17
4957.50256 1.56455e-17
4958.99584 1.57305e-17
4960.49914 1.56947e-17
4962.00244 1.56029e-17
4963.49572 1.56662e-17
4964.99902 1.57836e-17
4966.50232 1.57864e-17
4967.99560 1.57335e-17
4969.49890 1.60004e-17
4971.00220 1.59500e-17
4972.49548 1.58487e-17
4973.99878 1.59776e-17
4975.50208 1.60438e-17
4976.99535 1.59676e-17
4978.49865 1.58808e-17
4980.00195 1.59118e-17
4981.49523 1.60236e-17
4982.99853 1.62436e-17
4984.50183 1.63286e-17
4985.99511 1.62435e-17
4987.49841 1.61170e-17
4989.00171 1.61624e-17
4990.49499 1.63296e-17
4991.99829 1.63135e-17
4993.50159 1.62193e-17
4995.00489 1.62101e-17
4996.49817 1.62922e-17
4998.00147 1.64847e-17
4999.50477 1.63315e-17
5000.99804 1.63418e-17
5002.50134 1.63197e-17
5004.00464 1.63303e-17
5005.49792 1.65833e-17
5007.00122 1.67869e-17
5008.50452 1.65009e-17
5009.99780 1.62929e-17
5011.50110 1.63683e-17
5013.00440 1.65500e-17
5014.49768 1.64539e-17
5016.00098 1.65672e-17
5017.50428 1.64071e-17
5018.99756 1.65681e-17
5020.50086 1.66522e-17
5022.00416 1.66149e-17
5023.49743 1.66032e-17
5025.00073 1.66936e-17
5026.50403 1.66785e-17
5027.99731 1.65827e-17
5029.50061 1.66767e-17
5031.00391 1.68661e-17
5032.49719 1.67880e-17
5034.00049 1.67514e-17
5035.50379 1.68844e-17
5036.99707 1.68801e-17
5038.50037 1.67315e-17
5040.00367 1.67780e-17
5041.49695 1.69824e-17
5043.00025 1.70740e-17
5044.50355 1.71804e-17
5045.99682 1.70966e-17
5047.50012 1.70449e-17
5049.00342 1.70969e-17
5050.49670 1.72909e-17
5052.00000 1.70756e-17
5053.50330 1.70637e-17
5054.99658 1.71977e-17
5056.49988 1.73205e-17
5058.00318 1.71374e-17
5059.49646 1.71665e-17
5060.99976 1.72359e-17
5062.50306 1.72154e-17
5063.99634 1.74002e-17
5065.49964 1.74419e-17
5067.00294 1.75729e-17
5068.49621 1.75296e-17
5069.99951 1.75838e-17
5071.50281 1.77715e-17
5072.99609 1.75988e-17
5074.49939 1.74729e-17
5076.00269 1.75591e-17
5077.49597 1.77734e-17
5078.99927 1.78249e-17
5080.50257 1.77541e-17
5081.99585 1.77832e-17
5083.49915 1.77293e-17
5085.00245 1.79350e-17
5086.49573 1.79993e-17
5087.99903 1.80411e-17
5089.50233 1.79697e-17
5090.99560 1.79030e-17
5092.49890 1.78847e-17
5094.00220 1.79483e-17
5095.49548 1.80340e-17
5096.99878 1.80442e-17
5098.50208 1.81199e-17
5099.99536 1.80626e-17
5101.49866 1.80799e-17
5103.00196 1.82658e-17
5104.49524 1.82044e-17
5105.99854 1.81748e-17
5107.50184 1.82455e-17
5108.99512 1.82220e-17
5110.49842 1.84600e-17
5112.00172 1.87112e-17
5113.49499 1.87278e-17
5114.99829 1.85090e-17
5116.50159 1.84967e-17
5118.00489 1.87200e-17
5119.49817 1.86726e-17
5121.00147 1.85497e-17
5122.50477 1.86260e-17
5123.99805 1.87019e-17
5125.50135 1.86098e-17
5127.00465 1.86813e-17
5128.49793 1.87493e-17
5130.00123 1.87635e-17
5131.50453 1.88378e-17
5132.99781 1.87802e-17
5134.50111 1.88178e-17
5136.00441 1.89330e-17
5137.49768 1.88224e-17
5139.00098 1.87905e-17
5140.50428 1.90019e-17
5141.99756 1.92392e-17
5143.50086 1.89190e-17
5145.00416 1.89971e-17
5146.49744 1.90027e-17
5148.00074 1.90954e-17
5149.50404 1.91260e-17
5150.99732 1.90232e-17
5152.50062 1.91006e-17
5154.00392 1.92676e-17
5155.49720 1.92679e-17
5157.00050 1.92091e-17
5158.50380 1.93008e-17
5159.99707 1.91602e-17
5161.50037 1.92272e-17
5163.00367 1.93368e-17
5164.49695 1.94198e-17
5166.00025 1.94467e-17
5167.50355 1.96051e-17
5168.99683 1.94829e-17
5170.50013 1.94809e-17
5172.00343 1.96447e-17
5173.49671 1.95119e-17
5175.00001 1.96156e-17
5176.50331 1.96189e-17
5177.99659 1.94475e-17
5179.49989 1.94280e-17
5181.00319 1.95405e-17
5182.49646 1.95845e-17
5183.99976 1.96576e-17
5185.50306 1.97224e-17
5186.99634 1.98273e-17
5188.49964 1.99513e-17
5190.00294 1.98918e-17
5191.49622 1.97970e-17
5192.99952 1.96330e-17
5194.50282 1.96493e-17
5195.99610 1.98022e-17
5197.49940 1.97422e-17
5199.00270 1.96512e-17
5200.49598 1.96910e-17
5201.99928 1.96776e-17
5203.50258 1.99007e-17
5204.99585 1.99672e-17
5206.49915 1.97471e-17
5208.00245 1.99152e-17
5209.49573 2.00609e-17
5210.99903 1.99472e-17
5212.50233 1.98948e-17
5213.99561 2.00081e-17
5215.49891 1.99986e-17
5217.00221 1.99164e-17
5218.49549 1.99399e-17
5219.99879 2.01016e-17
5221.50209 2.01239e-17
5222.99537 2.00115e-17
5224.49867 2.00887e-17
5226.00197 1.99925e-17
5227.49524 2.00116e-17
5228.99854 2.01316e-17
5230.50184 2.00036e-17
5231.99512 1.98921e-17
5233.49842 1.99610e-17
5235.00172 2.01204e-17
5236.49500 2.01014e-17
5237.99830 1.98716e-17
5239.50160 2.00084e-17
5241.00490 2.00986e-17
5242.49818 2.00167e-17
5244.00148 2.01071e-17
5245.50478 2.00528e-17
5246.99806 2.00011e-17
5248.50136 2.01320e-17
5250.00466 2.00878e-17
5251.49793 1.99778e-17
5253.00123 1.99213e-17
5254.50453 1.98769e-17
5255.99781 1.99273e-17
5257.50111 2.00819e-17
5259.00441 1.99852e-17
5260.49769 1.97269e-17
5262.00099 1.98433e-17
5263.50429 2.00834e-17
5264.99757 2.02044e-17
5266.50087 2.00459e-17
5268.00417 1.98750e-17
5269.49745 2.00311e-17
5271.00075 2.01229e-17
5272.50405 2.01161e-17
5273.99732 2.00203e-17
5275.50062 1.99319e-17
5277.00392 2.00422e-17
5278.49720 2.01263e-17
5280.00050 2.02050e-17
5281.50380 2.00514e-17
5282.99708 1.99900e-17
5284.50038 2.02080e-17
5286.00368 2.00594e-17
5287.49696 2.00323e-17
5289.00026 2.01747e-17
5290.50356 2.02266e-17
5291.99684 2.02647e-17
5293.50014 2.00847e-17
5295.00344 1.99745e-17
5296.49671 2.00067e-17
5298.00001 2.00357e-17
5299.50331 1.98680e-17
5300.99659 2.00247e-17
5302.49989 2.01841e-17
5304.00319 1.98373e-17
5305.49647 1.98149e-17
5306.99977 1.99302e-17
5308.50307 1.98615e-17
5309.99635 1.98081e-17
5311.49965 1.97917e-17
5313.00295 1.98120e-17
5314.49623 1.99346e-17
5315.99953 1.99685e-17
5317.50283 1.97929e-17
5318.99610 1.97374e-17
5320.49940 1.97878e-17
5322.00270 1.98249e-17
5323.49598 1.98883e-17
5324.99928 1.98211e-17
5326.50258 1.96661e-17
5327.99586 1.96113e-17
5329.49916 1.97097e-17
5331.00246 1.97164e-17
5332.49574 1.97832e-17
5333.99904 1.99182e-17
5335.50234 1.97876e-17
5336.99562 1.97013e-17
5338.49892 1.96090e-17
5340.00222 1.94256e-17
5341.49549 1.94623e-17
5342.99879 1.95417e-17
5344.50209 1.96612e-17
5345.99537 1.96070e-17
5347.49867 1.95564e-17
5349.00197 1.96765e-17
5350.49525 1.96671e-17
5351.99855 1.97669e-17
5353.50185 1.97325e-17
5354.99513 1.96463e-17
5356.49843 1.95664e-17
5358.00173 1.97060e-17
5359.49501 1.94801e-17
5360.99831 1.94042e-17
5362.50161 1.94048e-17
5364.00491 1.93910e-17
5365.49818 1.95402e-17
5367.00148 1.94855e-17
5368.50478 1.94301e-17
5369.99806 1.94925e-17
5371.50136 1.93196e-17
5373.00466 1.91907e-17
5374.49794 1.91089e-17
5376.00124 1.92507e-17
5377.50454 1.93321e-17
5378.99782 1.93420e-17
5380.50112 1.92507e-17
5382.00442 1.92946e-17
5383.49770 1.91922e-17
5385.00100 1.92472e-17
5386.50430 1.91982e-17
5387.99757 1.91770e-17
5389.50087 1.91590e-17
5391.00417 1.91606e-17
5392.49745 1.91813e-17
5394.00075 1.90525e-17
5395.50405 1.90249e-17
5396.99733 1.91347e-17
5398.50063 1.90533e-17
5400.00393 1.90269e-17
5401.49721 1.89314e-17
5403.00051 1.89745e-17
5404.50381 1.89646e-17
5405.99709 1.87407e-17
5407.50039 1.87748e-17
5409.00369 1.87799e-17
5410.49696 1.87549e-17
5412.00026 1.87859e-17
5413.50356 1.85074e-17
5414.99684 1.85455e-17
5416.50014 1.86502e-17
5418.00344 1.87075e-17
5419.49672 1.85761e-17
5421.00002 1.85845e-17
5422.50332 1.85232e-17
5423.99660 1.85486e-17
5425.49990 1.85931e-17
5427.00320 1.84532e-17
5428.49648 1.83836e-17
5429.99978 1.81780e-17
5431.50308 1.83274e-17
5432.99635 1.83166e-17
5434.49965 1.81128e-17
5436.00295 1.81920e-17
5437.49623 1.81965e-17
5438.99953 1.80988e-17
5440.50283 1.81430e-17
5441.99611 1.79520e-17
5443.49941 1.80681e-17
5445.00271 1.79403e-17
5446.49599 1.80110e-17
5447.99929 1.78923e-17
5449.50259 1.79163e-17
5450.99587 1.77949e-17
5452.49917 1.77283e-17
5454.00247 1.78194e-17
5455.49574 1.77783e-17
5456.99904 1.75269e-17
5458.50234 1.76914e-17
5459.99562 1.77980e-17
5461.49892 1.75738e-17
5463.00222 1.74424e-17
5464.49550 1.72695e-17
5465.99880 1.72563e-17
5467.50210 1.73764e-17
5468.99538 1.75043e-17
5470.49868 1.74874e-17
5472.00198 1.71518e-17
5473.49526 1.70387e-17
5474.99856 1.71896e-17
5476.50186 1.72836e-17
5477.99513 1.72223e-17
5479.49843 1.70431e-17
5481.00173 1.68918e-17
5482.49501 1.69045e-17
5483.99831 1.68745e-17
5485.50161 1.67571e-17
5487.00491 1.67610e-17
5488.49819 1.67865e-17
5490.00149 1.67661e-17
5491.50479 1.68165e-17
5492.99807 1.66799e-17
5494.50137 1.67070e-17
5496.00467 1.68036e-17
5497.49795 1.67247e-17
5499.00125 1.65852e-17
5500.50455 1.65438e-17
5501.99782 1.66595e-17
5503.50112 1.66981e-17
5505.00442 1.65657e-17
5506.49770 1.65961e-17
5508.00100 1.65696e-17
5509.50430 1.63807e-17
5510.99758 1.64238e-17
5512.50088 1.65692e-17
5514.00418 1.64139e-17
5515.49746 1.60536e-17
5517.00076 1.62279e-17
5518.50406 1.63824e-17
5519.99734 1.64459e-17
5521.50064 1.64316e-17
5523.00394 1.61889e-17
5524.49721 1.63135e-17
5526.00051 1.62319e-17
5527.50381 1.61496e-17
5528.99709 1.61290e-17
5530.50039 1.59877e-17
5532.00369 1.60053e-17
5533.49697 1.60445e-17
5535.00027 1.61259e-17
5536.50357 1.60332e-17
5537.99685 1.59097e-17
5539.50015 1.58215e-17
5541.00345 1.59079e-17
5542.49673 1.59220e-17
5544.00003 1.58706e-17
5545.50333 1.57708e-17
5546.99660 1.58143e-17
5548.49990 1.57262e-17
5550.00320 1.56851e-17
5551.49648 1.55116e-17
5552.99978 1.54654e-17
5554.50308 1.55518e-17
5555.99636 1.55682e-17
5557.49966 1.56446e-17
5559.00296 1.57312e-17
5560.49624 1.56606e-17
5561.99954 1.55268e-17
5563.50284 1.55018e-17
5564.99612 1.54219e-17
5566.49942 1.55447e-17
5568.00272 1.54430e-17
5569.49599 1.53933e-17
5570.99929 1.54175e-17
5572.50259 1.53333e-17
5573.99587 1.54239e-17
5575.49917 1.54301e-17
5577.00247 1.54376e-17
5578.49575 1.52432e-17
5579.99905 1.51249e-17
5581.50235 1.49942e-17
5582.99563 1.50145e-17
5584.49893 1.50892e-17
5586.00223 1.50017e-17
5587.49551 1.51576e-17
5588.99881 1.51667e-17
5590.50211 1.50457e-17
5591.99538 1.50785e-17
5593.49868 1.50556e-17
5595.00198 1.50377e-17
5596.49526 1.50168e-17
5597.99856 1.49932e-17
5599.50186 1.48995e-17
5600.99514 1.48732e-17
5602.49844 1.48468e-17
5604.00174 1.49721e-17
5605.49502 1.50499e-17
5606.99832 1.48453e-17
5608.50162 1.47579e-17
5610.00492 1.46558e-17
5611.49820 1.44461e-17
5613.00150 1.44452e-17
5614.50480 1.45448e-17
5615.99807 1.45040e-17
5617.50137 1.44396e-17
5619.00467 1.44537e-17
5620.49795 1.44571e-17
5622.00125 1.44046e-17
5623.50455 1.43741e-17
5624.99783 1.44761e-17
5626.50113 1.44318e-17
5628.00443 1.43837e-17
5629.49771 1.44076e-17
5631.00101 1.43730e-17
5632.50431 1.45543e-17
5633.99759 1.46411e-17
5635.50089 1.44322e-17
5637.00419 1.43251e-17
5638.49746 1.43391e-17
5640.00076 1.42008e-17
5641.50406 1.40552e-17
5642.99734 1.41252e-17
5644.50064 1.43607e-17
5646.00394 1.42699e-17
5647.49722 1.41947e-17
5649.00052 1.42958e-17
5650.50382 1.43016e-17
5651.99710 1.41571e-17
5653.50040 1.39559e-17
5655.00370 1.38500e-17
5656.49698 1.39040e-17
5658.00028 1.40374e-17
5659.50358 1.40966e-17
5660.99685 1.40603e-17
5662.50015 1.39762e-17
5664.00345 1.39874e-17
5665.49673 1.39929e-17
5667.00003 1.36906e-17
5668.50333 1.37206e-17
5669.99661 1.39016e-17
5671.49991 1.39178e-17
5673.00321 1.37676e-17
5674.49649 1.35336e-17
5675.99979 1.35100e-17
5677.50309 1.37094e-17
5678.99637 1.38036e-17
5680.49967 1.35984e-17
5682.00297 1.35219e-17
5683.49624 1.37431e-17
5684.99954 1.38452e-17
5686.50284 1.36379e-17
5687.99612 1.34303e-17
5689.49942 1.33475e-17
5691.00272 1.33682e-17
5692.49600 1.34919e-17
5693.99930 1.36870e-17
5695.50260 1.37906e-17
5696.99588 1.35965e-17
5698.49918 1.34814e-17
5700.00248 1.36251e-17
5701.49576 1.38036e-17
5702.99906 1.38284e-17
5704.50236 1.36085e-17
5705.99563 1.36162e-17
5707.49893 1.37716e-17
5709.00223 1.36023e-17
5710.49551 1.37778e-17
5711.99881 1.37271e-17
5713.50211 1.36222e-17
5714.99539 1.37090e-17
5716.49869 1.36021e-17
5718.00199 1.36699e-17
5719.49527 1.36546e-17
5720.99857 1.34718e-17
5722.50187 1.34609e-17
5723.99515 1.38721e-17
5725.49845 1.38669e-17
5727.00175 1.36557e-17
5728.49502 1.37184e-17
5729.99832 1.41535e-17
5731.50162 1.39401e-17
5733.00492 1.36643e-17
5734.49820 1.36431e-17
5736.00150 1.36672e-17
5737.50480 1.39192e-17
5738.99808 1.37979e-17
5740.50138 1.38024e-17
5742.00468 1.39187e-17
5743.49796 1.38850e-17
5745.00126 1.35763e-17
5746.50456 1.37009e-17
5747.99784 1.36645e-17
5749.50114 1.36623e-17
5751.00444 1.37580e-17
5752.49771 1.35719e-17
5754.00101 1.37043e-17
5755.50431 1.39854e-17
5756.99759 1.39800e-17
5758.50089 1.39304e-17
5760.00419 1.39684e-17
5761.49747 1.40375e-17
5763.00077 1.39552e-17
5764.50407 1.39833e-17
5765.99735 1.40545e-17
5767.50065 1.38773e-17
5769.00395 1.36540e-17
5770.49723 1.38244e-17
5772.00053 1.39123e-17
5773.50383 1.38248e-17
5774.99710 1.38455e-17
5776.50040 1.38311e-17
5778.00370 1.37356e-17
5779.49698 1.37456e-17
5781.00028 1.37124e-17
5782.50358 1.36322e-17
5783.99686 1.37289e-17
5785.50016 1.40136e-17
5787.00346 1.38936e-17
5788.49674 1.36000e-17
5790.00004 1.35981e-17
5791.50334 1.34734e-17
5792.99662 1.36559e-17
5794.49992 1.39356e-17
5796.00322 1.36849e-17
5797.49649 1.34891e-17
5798.99979 1.34225e-17
5800.50309 1.34408e-17
5801.99637 1.35774e-17
5803.49967 1.35881e-17
5805.00297 1.35790e-17
5806.49625 1.34681e-17
5807.99955 1.33446e-17
5809.50285 1.34132e-17
5810.99613 1.36701e-17
5812.49943 1.38510e-17
5814.00273 1.35872e-17
5815.49601 1.33169e-17
5816.99931 1.34728e-17
5818.50261 1.34389e-17
5819.99588 1.33599e-17
5821.49918 1.33721e-17
5823.00248 1.33949e-17
5824.49576 1.33420e-17
5825.99906 1.33978e-17
5827.50236 1.34115e-17
5828.99564 1.32978e-17
5830.49894 1.32700e-17
5832.00224 1.33468e-17
5833.49552 1.34674e-17
5834.99882 1.33767e-17
5836.50212 1.34001e-17
5837.99540 1.36000e-17
5839.49870 1.34983e-17
5841.00200 1.31957e-17
5842.49527 1.31576e-17
5843.99857 1.31805e-17
5845.50187 1.32766e-17
5846.99515 1.31739e-17
5848.49845 1.30657e-17
5850.00175 1.29234e-17
5851.49503 1.29369e-17
5852.99833 1.28543e-17
5854.50163 1.29602e-17
5856.00493 1.30162e-17
5857.49821 1.29307e-17
5859.00151 1.29001e-17
5860.50481 1.28007e-17
5861.99809 1.27583e-17
5863.50139 1.27984e-17
5865.00469 1.28160e-17
5866.49796 1.29478e-17
5868.00126 1.29400e-17
5869.50456 1.29372e-17
5870.99784 1.31154e-17
5872.50114 1.28617e-17
5874.00444 1.25678e-17
5875.49772 1.25991e-17
5877.00102 1.27190e-17
5878.50432 1.28747e-17
5879.99760 1.27447e-17
5881.50090 1.26493e-17
5883.00420 1.28899e-17
5884.49748 1.29837e-17
5886.00078 1.28631e-17
5887.50408 1.25020e-17
5888.99735 1.21295e-17
5890.50065 1.22441e-17
5892.00395 1.23078e-17
5893.49723 1.22569e-17
5895.00053 1.23461e-17
5896.50383 1.22239e-17
5897.99711 1.22362e-17
5899.50041 1.24203e-17
5901.00371 1.24049e-17
5902.49699 1.22918e-17
5904.00029 1.23828e-17
5905.50359 1.24381e-17
5906.99687 1.22175e-17
5908.50017 1.19983e-17
5910.00347 1.19068e-17
5911.49674 1.20723e-17
5913.00004 1.22269e-17
5914.50334 1.21978e-17
5915.99662 1.20848e-17
5917.49992 1.19401e-17
5919.00322 1.21102e-17
5920.49650 1.23410e-17
5921.99980 1.23422e-17
5923.50310 1.20596e-17
5924.99638 1.19247e-17
5926.49968 1.19565e-17
5928.00298 1.19529e-17
5929.49626 1.19414e-17
5930.99956 1.17497e-17
5932.50286 1.15996e-17
5933.99613 1.16424e-17
5935.49943 1.17080e-17
5937.00273 1.18785e-17
5938.49601 1.18555e-17
5939.99931 1.16604e-17
5941.50261 1.16864e-17
5942.99589 1.15748e-17
5944.49919 1.16199e-17
5946.00249 1.16326e-17
5947.49577 1.15818e-17
5948.99907 1.15891e-17
5950.50237 1.16186e-17
5951.99565 1.16801e-17
5953.49895 1.15671e-17
5955.00225 1.14333e-17
5956.49552 1.14808e-17
5957.99882 1.15867e-17
5959.50212 1.14767e-17
5960.99540 1.14501e-17
5962.49870 1.16085e-17
5964.00200 1.15810e-17
5965.49528 1.15184e-17
5966.99858 1.13618e-17
5968.50188 1.13415e-17
5970.00518 1.12489e-17
5971.49846 1.12646e-17
5973.00176 1.15257e-17
5974.49504 1.15593e-17
5975.99834 1.14056e-17
5977.50164 1.14880e-17
5979.00494 1.15075e-17
5980.49821 1.14309e-17
5982.00151 1.14324e-17
5983.50481 1.13972e-17
5984.99809 1.13055e-17
5986.50139 1.12179e-17
5988.00469 1.12843e-17
5989.49797 1.14107e-17
5991.00127 1.14708e-17
5992.50457 1.17065e-17
5993.99785 1.17350e-17
5995.50115 1.12856e-17
5997.00445 1.12041e-17
5998.49773 1.12204e-17
6000.00103 1.12906e-17
6001.50433 1.15091e-17
6002.99760 1.12889e-17
6004.50090 1.11606e-17
6006.00420 1.10831e-17
6007.49748 1.11343e-17
6009.00078 1.12802e-17
6010.50408 1.12702e-17
6011.99736 1.12132e-17
6013.50066 1.13142e-17
6015.00396 1.15968e-17
6016.49724 1.14207e-17
6018.00054 1.12232e-17
6019.50384 1.11018e-17
6020.99712 1.12657e-17
6022.50042 1.13523e-17
6024.00372 1.12874e-17
6025.49699 1.10467e-17
6027.00029 1.10613e-17
6028.50359 1.12555e-17
6029.99687 1.14119e-17
6031.50017 1.13043e-17
6033.00347 1.11714e-17
6034.49675 1.10960e-17
6036.00005 1.11337e-17
6037.50335 1.10723e-17
6038.99663 1.11513e-17
6040.49993 1.12170e-17
6042.00323 1.11173e-17
6043.49651 1.09975e-17
6044.99981 1.11005e-17
6046.50311 1.11013e-17
6047.99638 1.11020e-17
6049.49968 1.11027e-17
6051.00298 1.11035e-17
6052.49626 1.10947e-17
6053.99956 1.10695e-17
6055.50286 1.10981e-17
6056.99614 1.10112e-17
6058.49944 1.09073e-17
6060.00274 1.09724e-17
6061.49602 1.10422e-17
6062.99932 1.09706e-17
6064.50262 1.09789e-17
6065.99590 1.09917e-17
6067.49920 1.10042e-17
6069.00250 1.10800e-17
6070.49577 1.10186e-17
6071.99907 1.10182e-17
6073.50237 1.11121e-17
6074.99565 1.11148e-17
6076.49895 1.10722e-17
6078.00225 1.12084e-17
6079.49553 1.12102e-17
6080.99883 1.11147e-17
6082.50213 1.12641e-17
6083.99541 1.13240e-17
6085.49871 1.11849e-17
6087.00201 1.12569e-17
6088.49529 1.13091e-17
6089.99859 1.13417e-17
6091.50189 1.12786e-17
6092.99516 1.12095e-17
6094.49846 1.13377e-17
6096.00176 1.14103e-17
6097.49504 1.13735e-17
6098.99834 1.12606e-17
6100.50164 1.13496e-17
6101.99492 1.15479e-17
6103.49822 1.15941e-17
6105.00152 1.15114e-17
6106.50482 1.14041e-17
6107.99810 1.13765e-17
6109.50140 1.13871e-17
6111.00470 1.14092e-17
6112.49798 1.14167e-17
6114.00128 1.13454e-17
6115.50458 1.12850e-17
6116.99785 1.13627e-17
6118.50115 1.14526e-17
6120.00445 1.14675e-17
6121.49773 1.14561e-17
6123.00103 1.14086e-17
6124.50433 1.14948e-17
6125.99761 1.15127e-17
6127.50091 1.14049e-17
6129.00421 1.14033e-17
6130.49749 1.14606e-17
6132.00079 1.15152e-17
6133.50409 1.14212e-17
6134.99737 1.13880e-17
6136.50067 1.14475e-17
6138.00397 1.14566e-17
6139.49724 1.14412e-17
6141.00054 1.14854e-17
6142.50384 1.15899e-17
6143.99712 1.15504e-17
6145.50042 1.13730e-17
6147.00372 1.14402e-17
6148.49700 1.14088e-17
6150.00030 1.13597e-17
6151.50360 1.14501e-17
6152.99688 1.13191e-17
6154.50018 1.13463e-17
6156.00348 1.13297e-17
6157.49676 1.13940e-17
6159.00006 1.13351e-17
6160.50336 1.13654e-17
6161.99663 1.13091e-17
6163.49993 1.13531e-17
6165.00323 1.14823e-17
6166.49651 1.14208e-17
6167.99981 1.14840e-17
6169.50311 1.14808e-17
6170.99639 1.13257e-17
6172.49969 1.13611e-17
6174.00299 1.12655e-17
6175.49627 1.13698e-17
6176.99957 1.14713e-17
6178.50287 1.14771e-17
6179.99615 1.15771e-17
6181.49945 1.15369e-17
6183.00275 1.14824e-17
6184.49602 1.14716e-17
6185.99932 1.15770e-17
6187.50262 1.16235e-17
6188.99590 1.15651e-17
6190.49920 1.15121e-17
6192.00250 1.16445e-17
6193.49578 1.17549e-17
6194.99908 1.17751e-17
6196.50238 1.18050e-17
6197.99566 1.18026e-17
6199.49896 1.17702e-17
6201.00226 1.17467e-17
6202.49554 1.17664e-17
6203.99884 1.17259e-17
6205.50214 1.16936e-17
6206.99541 1.17859e-17
6208.49871 1.18553e-17
6210.00201 1.16486e-17
6211.49529 1.17229e-17
6212.99859 1.18557e-17
6214.50189 1.18071e-17
6215.99517 1.17248e-17
6217.49847 1.18192e-17
6219.00177 1.17840e-17
6220.49505 1.18031e-17
6221.99835 1.19703e-17
6223.50165 1.18278e-17
6224.99493 1.20067e-17
6226.49823 1.20143e-17
6228.00153 1.19776e-17
6229.50483 1.18882e-17
6230.99810 1.20152e-17
6232.50140 1.19884e-17
6234.00470 1.18268e-17
6235.49798 1.18844e-17
6237.00128 1.20236e-17
6238.50458 1.20870e-17
6239.99786 1.21330e-17
6241.50116 1.22227e-17
6243.00446 1.22905e-17
6244.49774 1.21584e-17
6246.00104 1.20169e-17
6247.50434 1.21152e-17
6248.99762 1.21264e-17
6250.50092 1.21990e-17
6252.00422 1.21925e-17
6253.49749 1.22094e-17
6255.00079 1.22640e-17
6256.50409 1.22691e-17
6257.99737 1.23398e-17
6259.50067 1.23659e-17
6261.00397 1.23335e-17
6262.49725 1.24969e-17
6264.00055 1.24523e-17
6265.50385 1.21907e-17
6266.99713 1.23114e-17
6268.50043 1.25497e-17
6270.00373 1.26266e-17
6271.49701 1.24286e-17
6273.00031 1.22219e-17
6274.50361 1.23734e-17
6275.99688 1.25650e-17
6277.50018 1.27087e-17
6279.00348 1.24950e-17
6280.49676 1.22722e-17
6282.00006 1.22612e-17
6283.50336 1.22551e-17
6284.99664 1.23675e-17
6286.49994 1.23909e-17
6288.00324 1.24198e-17
6289.49652 1.25148e-17
6290.99982 1.25502e-17
6292.50312 1.25985e-17
6293.99640 1.25182e-17
6295.49970 1.25308e-17
6297.00300 1.28059e-17
6298.49627 1.26987e-17
6299.99957 1.24608e-17
6301.50287 1.28710e-17
6302.99615 1.29175e-17
6304.49945 1.26524e-17
6306.00275 1.26142e-17
6307.49603 1.23967e-17
6308.99933 1.25334e-17
6310.50263 1.26561e-17
6311.99591 1.25586e-17
6313.49921 1.25896e-17
6315.00251 1.26889e-17
6316.49579 1.25498e-17
6317.99909 1.24287e-17
6319.50239 1.25234e-17
6320.99566 1.26242e-17
6322.49896 1.25856e-17
6324.00226 1.25866e-17
6325.49554 1.26406e-17
6326.99884 1.27395e-17
6328.50214 1.28681e-17
6329.99542 1.27364e-17
6331.49872 1.26367e-17
6333.00202 1.24973e-17
6334.49530 1.23080e-17
6335.99860 1.23313e-17
6337.50190 1.25104e-17
6338.99518 1.26299e-17
6340.49848 1.24874e-17
6342.00178 1.24631e-17
6343.49505 1.23899e-17
6344.99835 1.22127e-17
6346.50165 1.23339e-17
6347.99493 1.24674e-17
6349.49823 1.22630e-17
6351.00153 1.20919e-17
6352.50483 1.20333e-17
6353.99811 1.20283e-17
6355.50141 1.22143e-17
6357.00471 1.21146e-17
6358.49799 1.20559e-17
6360.00129 1.21334e-17
6361.50459 1.19160e-17
6362.99787 1.18933e-17
6364.50117 1.17517e-17
6366.00447 1.17680e-17
6367.49774 1.17179e-17
6369.00104 1.16487e-17
6370.50434 1.17019e-17
6371.99762 1.17218e-17
6373.50092 1.18486e-17
6375.00422 1.16862e-17
6376.49750 1.17159e-17
6378.00080 1.17248e-17
6379.50410 1.18229e-17
6380.99738 1.16923e-17
6382.50068 1.14937e-17
6384.00398 1.15456e-17
6385.49726 1.17238e-17
6387.00056 1.16873e-17
6388.50386 1.16779e-17
6389.99713 1.15933e-17
6391.50043 1.15509e-17
6393.00373 1.14702e-17
6394.49701 1.15711e-17
6396.00031 1.17681e-17
6397.50361 1.16413e-17
6398.99689 1.15019e-17
6400.50019 1.16131e-17
6402.00349 1.16551e-17
6403.49677 1.16594e-17
6405.00007 1.16583e-17
6406.50337 1.16674e-17
6407.99665 1.15693e-17
6409.49995 1.16037e-17
6411.00325 1.17280e-17
6412.49652 1.17320e-17
6413.99982 1.17502e-17
6415.50312 1.17192e-17
6416.99640 1.17212e-17
6418.49970 1.17914e-17
6420.00300 1.18625e-17
6421.49628 1.18378e-17
6422.99958 1.17931e-17
6424.50288 1.17607e-17
6425.99616 1.18449e-17
6427.49946 1.19166e-17
6429.00276 1.18604e-17
6430.49604 1.18993e-17
6431.99934 1.18620e-17
6433.50264 1.17681e-17
6434.99591 1.18009e-17
6436.49921 1.18048e-17
6438.00251 1.18224e-17
6439.49579 1.17150e-17
6440.99909 1.17922e-17
6442.50239 1.18268e-17
6443.99567 1.18245e-17
6445.49897 1.18530e-17
6447.00227 1.19635e-17
6448.49555 1.19320e-17
6449.99885 1.19155e-17
6451.50215 1.18395e-17
6452.99543 1.18706e-17
6454.49873 1.19298e-17
6456.00203 1.20178e-17
6457.49530 1.20292e-17
6458.99860 1.20888e-17
6460.50190 1.20249e-17
6461.99518 1.20343e-17
6463.49848 1.19201e-17
6465.00178 1.18668e-17
6466.49506 1.18562e-17
6467.99836 1.19150e-17
6469.50166 1.19988e-17
6470.99494 1.19108e-17
6472.49824 1.18868e-17
6474.00154 1.17298e-17
6475.50484 1.16364e-17
6476.99812 1.16738e-17
6478.50142 1.16872e-17
6480.00472 1.16667e-17
6481.49799 1.16207e-17
6483.00129 1.17516e-17
6484.50459 1.18912e-17
6485.99787 1.18494e-17
6487.50117 1.17873e-17
6489.00447 1.16933e-17
6490.49775 1.17764e-17
6492.00105 1.19245e-17
6493.50435 1.17743e-17
6494.99763 1.16383e-17
6496.50093 1.16469e-17
6498.00423 1.17307e-17
6499.49751 1.18389e-17
6501.00081 1.18495e-17
6502.50411 1.17736e-17
6503.99738 1.16851e-17
6505.50068 1.17402e-17
6507.00398 1.17633e-17
6508.49726 1.16196e-17
6510.00056 1.16065e-17
6511.50386 1.17251e-17
6512.99714 1.17408e-17
6514.50044 1.16863e-17
6516.00374 1.16904e-17
6517.49702 1.18065e-17
6519.00032 1.17551e-17
6520.50362 1.15542e-17
6521.99690 1.16618e-17
6523.50020 1.17165e-17
6525.00350 1.16432e-17
6526.49677 1.16970e-17
6528.00007 1.17207e-17
6529.50337 1.17703e-17
6530.99665 1.17680e-17
6532.49995 1.15234e-17
6534.00325 1.13233e-17
6535.49653 1.13816e-17
6536.99983 1.15375e-17
6538.50313 1.15222e-17
6539.99641 1.14150e-17
6541.49971 1.14279e-17
6543.00301 1.15170e-17
6544.49629 1.14880e-17
6545.99959 1.14381e-17
6547.50289 1.13193e-17
6548.99616 1.12899e-17
6550.49946 1.13531e-17
6552.00276 1.13499e-17
6553.49604 1.13896e-17
6554.99934 1.14265e-17
6556.50264 1.13873e-17
6557.99592 1.13379e-17
6559.49922 1.13177e-17
6561.00252 1.13581e-17
6562.49580 1.12951e-17
6563.99910 1.12513e-17
6565.50240 1.11958e-17
6566.99568 1.12450e-17
6568.49898 1.12542e-17
6570.00228 1.11711e-17
6571.49555 1.09802e-17
6572.99885 1.10293e-17
6574.50215 1.11186e-17
6575.99543 1.11050e-17
6577.49873 1.11369e-17
6579.00203 1.10853e-17
6580.49531 1.11334e-17
6581.99861 1.11465e-17
6583.50191 1.09631e-17
6584.99519 1.09000e-17
6586.49849 1.10158e-17
6588.00179 1.09696e-17
6589.49507 1.07536e-17
6590.99837 1.08848e-17
6592.50167 1.09363e-17
6593.99494 1.10598e-17
6595.49824 1.09655e-17
6597.00154 1.08840e-17
6598.50484 1.08767e-17
6599.99812 1.08837e-17
6601.50142 1.08984e-17
6603.00472 1.08006e-17
6604.49800 1.07953e-17
6606.00130 1.08516e-17
6607.50460 1.08711e-17
6608.99788 1.09019e-17
6610.50118 1.07327e-17
6612.00448 1.06342e-17
6613.49776 1.06544e-17
6615.00106 1.07860e-17
6616.50436 1.08526e-17
6617.99763 1.08560e-17
6619.50093 1.07868e-17
6621.00423 1.07111e-17
6622.49751 1.06728e-17
6624.00081 1.06395e-17
6625.50411 1.06794e-17
6626.99739 1.07013e-17
6628.50069 1.06559e-17
6630.00399 1.05480e-17
6631.49727 1.05082e-17
6633.00057 1.05833e-17
6634.50387 1.05876e-17
6635.99715 1.04850e-17
6637.50045 1.05182e-17
6639.00375 1.05483e-17
6640.49702 1.05620e-17
6642.00032 1.05289e-17
6643.50362 1.05629e-17
6644.99690 1.04738e-17
6646.50020 1.04633e-17
6648.00350 1.04421e-17
6649.49678 1.04731e-17
6651.00008 1.04465e-17
6652.50338 1.03414e-17
6653.99666 1.02794e-17
6655.49996 1.02806e-17
6657.00326 1.03170e-17
6658.49654 1.04044e-17
6659.99984 1.01766e-17
6661.50314 1.02418e-17
6662.99641 1.02747e-17
6664.49971 1.01440e-17
6666.00301 1.01743e-17
6667.49629 1.02525e-17
6668.99959 1.00284e-17
6670.50289 1.00697e-17
6671.99617 1.01638e-17
6673.49947 1.01858e-17
6675.00277 1.01561e-17
6676.49605 1.02279e-17
6677.99935 1.01994e-17
6679.50265 1.01267e-17
6680.99593 9.99563e-18
6682.49923 1.00076e-17
6684.00253 1.00516e-17
6685.49580 1.00299e-17
6686.99910 9.97207e-18
6688.50240 1.00108e-17
6689.99568 1.00335e-17
6691.49898 9.90928e-18
6693.00228 9.83381e-18
6694.49556 9.90493e-18
6695.99886 9.94327e-18
6697.50216 9.81227e-18
6698.99544 9.74375e-18
6700.49874 9.74856e-18
6702.00204 9.75346e-18
6703.49532 9.82801e-18
6704.99862 9.81210e-18
6706.50192 9.71471e-18
6707.99519 9.73193e-18
6709.49849 9.71599e-18
6711.00179 9.65641e-18
6712.49507 9.72923e-18
6713.99837 9.69315e-18
6715.50167 9.54218e-18
6716.99495 9.48509e-18
6718.49825 9.56343e-18
6720.00155 9.53433e-18
6721.50485 9.43139e-18
6722.99813 9.40151e-18
6724.50143 9.36589e-18
6726.00473 9.38758e-18
6727.49801 9.36821e-18
6729.00131 9.25293e-18
6730.50461 9.25224e-18
6731.99788 9.41070e-18
6733.50118 9.47060e-18
6735.00448 9.43901e-18
6736.49776 9.31515e-18
6738.00106 9.30554e-18
6739.50436 9.34920e-18
6740.99764 9.25434e-18
6742.50094 9.33056e-18
6744.00424 9.28089e-18
6745.49752 9.12428e-18
6747.00082 9.16666e-18
6748.50412 9.26730e-18
6749.99740 9.26842e-18
6751.50070 9.28158e-18
6753.00400 9.25645e-18
6754.49727 9.19313e-18
6756.00057 9.15315e-18
6757.50387 9.20441e-18
6758.99715 9.24373e-18
6760.50045 9.20136e-18
6762.00375 9.15005e-18
6763.49703 9.08811e-18
6765.00033 9.05295e-18
6766.50363 9.04204e-18
6767.99691 9.06252e-18
6769.50021 9.06188e-18
6771.00351 8.96760e-18
6772.49679 8.94144e-18
6774.00009 9.06015e-18
6775.50339 8.98761e-18
6776.99666 8.84098e-18
6778.49996 8.84326e-18
6780.00326 8.85638e-18
6781.49654 8.82204e-18
6782.99984 8.82370e-18
6784.50314 8.89438e-18
6785.99642 8.87996e-18
6787.49972 8.83059e-18
6789.00302 8.84155e-18
6790.49630 8.93072e-18
6791.99960 8.89202e-18
6793.50290 8.88822e-18
6794.99618 8.87124e-18
6796.49948 8.80642e-18
6798.00278 8.67825e-18
6799.49605 8.67226e-18
6800.99935 8.68718e-18
6802.50265 8.59758e-18
6803.99593 8.66740e-18
6805.49923 8.67761e-18
6807.00253 8.69346e-18
6808.49581 8.54102e-18
6809.99911 8.47994e-18
6811.50241 8.44449e-18
6812.99569 8.49452e-18
6814.49899 8.49052e-18
6816.00229 8.49915e-18
6817.49557 8.57467e-18
6818.99887 8.48814e-18
6820.50217 8.45623e-18
6821.99544 8.34986e-18
6823.49874 8.36154e-18
6825.00204 8.40992e-18
6826.49532 8.41601e-18
6827.99862 8.33915e-18
6829.50192 8.33326e-18
6830.99520 8.38675e-18
6832.49850 8.34485e-18
6834.00180 8.24936e-18
6835.49508 8.25412e-18
6836.99838 8.24846e-18
6838.50168 8.30704e-18
6839.99496 8.27374e-18
6841.49826 8.13505e-18
6843.00156 8.14620e-18
6844.50486 8.18854e-18
6845.99813 8.17857e-18
6847.50143 8.16861e-18
6849.00473 8.15864e-18
6850.49801 8.14867e-18
6852.00131 8.13871e-18
6853.50461 8.12874e-18
6854.99789 8.11878e-18
6856.50119 8.10881e-18
6858.00449 8.09885e-18
6859.49777 8.08889e-18
6861.00107 8.07892e-18
6862.50437 8.06896e-18
6863.99765 8.05900e-18
6865.50095 8.04905e-18
6867.00425 8.03909e-18
6868.49752 8.02913e-18
6870.00082 8.01917e-18
6871.50412 8.00922e-18
6872.99740 7.99926e-18
6874.50070 7.98931e-18
6876.00400 7.97935e-18
6877.49728 7.96940e-18
6879.00058 7.95945e-18
6880.50388 7.94950e-18
6881.99716 7.93955e-18
6883.50046 7.92960e-18
6885.00376 7.91965e-18
6886.49704 7.90970e-18
6888.00034 7.89975e-18
6889.50364 7.88981e-18
6890.99691 7.87986e-18
6892.50021 7.86991e-18
6894.00351 7.85997e-18
6895.49679 7.85003e-18
6897.00009 7.84008e-18
6898.50339 7.83014e-18
6899.99667 7.82020e-18
6901.49997 7.81026e-18
6903.00327 7.80032e-18
6904.49655 7.79038e-18
6905.99985 7.78044e-18
6907.50315 7.77050e-18
6908.99643 7.76057e-18
6910.49973 7.75063e-18
6912.00303 7.74070e-18
6913.49630 7.73076e-18
6914.99960 7.72083e-18
6916.50290 7.71090e-18
6917.99618 7.70096e-18
6919.49948 7.69103e-18
6921.00278 7.68110e-18
6922.49606 7.67117e-18
6923.99936 7.66124e-18
6925.50266 7.65132e-18
6926.99594 7.64139e-18
6928.49924 7.63146e-18
6930.00254 7.62154e-18
6931.49582 7.61161e-18
6932.99912 7.60169e-18
6934.50242 7.59176e-18
6935.99569 7.58184e-18
6937.49899 7.37583e-18
6939.00229 7.27108e-18
6940.49557 7.17305e-18
6941.99887 7.26973e-18
6943.50217 7.32260e-18
6944.99545 7.21353e-18
6946.49875 7.18918e-18
6948.00205 7.18796e-18
6949.49533 7.27032e-18
6950.99863 7.09182e-18
6952.50193 7.01971e-18
6953.99521 7.25625e-18
6955.49851 7.36153e-18
6957.00181 7.26626e-18
6958.50511 7.16508e-18
6959.99838 7.07171e-18
6961.50168 7.09839e-18
6962.99496 7.07195e-18
6964.49826 7.10323e-18
6966.00156 7.10456e-18
6967.50486 7.10036e-18
6968.99814 7.06560e-18
6970.50144 6.92429e-18
6972.00474 6.93049e-18
6973.49802 7.00053e-18
6975.00132 7.03649e-18
6976.50462 6.99885e-18
6977.99790 6.85494e-18
6979.50120 6.79421e-18
6981.00450 6.78275e-18
6982.49777 6.82143e-18
6984.00107 6.80160e-18
6985.50437 6.74359e-18
6986.99765 6.78766e-18
6988.50095 6.88852e-18
6990.00425 6.94455e-18
6991.49753 6.93483e-18
6993.00083 6.89848e-18
6994.50413 6.84215e-18
6995.99741 6.88603e-18
6997.50071 6.91194e-18
6999.00401 6.82727e-18
7000.49729 6.77525e-18
7002.00059 6.61712e-18
7003.50389 6.64344e-18
7004.99716 6.75792e-18
7006.50046 6.62019e-18
7008.00376 6.54252e-18
7009.49704 6.57132e-18
7011.00034 6.72039e-18
7012.50364 6.59771e-18
7013.99692 6.50354e-18
7015.50022 6.62833e-18
7017.00352 6.63024e-18
7018.49680 6.57212e-18
7020.00010 6.52040e-18
7021.50340 6.47813e-18
7022.99668 6.48789e-18
7024.49998 6.40496e-18
7026.00328 6.28246e-18
7027.49655 6.34795e-18
7028.99985 6.36475e-18
7030.50315 6.38624e-18
7031.99643 6.38116e-18
7033.49973 6.40820e-18
7035.00303 6.41003e-18
7036.49631 6.42832e-18
7037.99961 6.39107e-18
7039.50291 6.35334e-18
7040.99619 6.21308e-18
7042.49949 6.26371e-18
7044.00279 6.24485e-18
7045.49607 6.31674e-18
7046.99937 6.46794e-18
7048.50267 6.50140e-18
7049.99594 6.38139e-18
7051.49924 6.20451e-18
7053.00254 6.19200e-18
7054.49582 6.22617e-18
7055.99912 6.19572e-18
7057.50242 6.07093e-18
7058.99570 6.00809e-18
7060.49900 6.01426e-18
7062.00230 5.97299e-18
7063.49558 5.99928e-18
7064.99888 6.15702e-18
7066.50218 6.24934e-18
7067.99546 6.12449e-18
7069.49876 6.06573e-18
7071.00206 5.99967e-18
7072.49533 5.98582e-18
7073.99863 6.03593e-18
7075.50193 5.92857e-18
7076.99521 6.08106e-18
7078.49851 6.14585e-18
7080.00181 6.11420e-18
7081.50511 6.05756e-18
7082.99839 5.97076e-18
7084.50169 5.80643e-18
7085.99497 5.95072e-18
7087.49827 6.16430e-18
7089.00157 6.10911e-18
7090.50487 5.86230e-18
7091.99815 5.88543e-18
7093.50145 5.87465e-18
7095.00475 5.79828e-18
7096.49802 5.71979e-18
7098.00132 5.82217e-18
7099.50462 5.96963e-18
7100.99790 5.92329e-18
7102.50120 5.76975e-18
7104.00450 5.86941e-18
7105.49778 5.87531e-18
7107.00108 5.74600e-18
7108.50438 5.81834e-18
7109.99766 5.76267e-18
7111.50096 5.72871e-18
7113.00426 5.78432e-18
7114.49754 5.77158e-18
7116.00084 5.73134e-18
7117.50414 5.69778e-18
7118.99741 5.66841e-18
7120.50071 5.60080e-18
7122.00401 5.67378e-18
7123.49729 5.79936e-18
7125.00059 5.79108e-18
7126.50389 5.62189e-18
7127.99717 5.53229e-18
7129.50047 5.62678e-18
7131.00377 5.69891e-18
7132.49705 5.69473e-18
7134.00035 5.63055e-18
7135.50365 5.55232e-18
7136.99693 5.49160e-18
7138.50023 5.62507e-18
7140.00353 5.81444e-18
7141.49680 5.72770e-18
7143.00010 5.70032e-18
7144.50340 5.65574e-18
7145.99668 5.69075e-18
7147.49998 5.76010e-18
7149.00328 5.76233e-18
7150.49656 5.66978e-18
7151.99986 5.74230e-18
7153.50316 5.62210e-18
7154.99644 5.51874e-18
7156.49974 5.57542e-18
7158.00304 5.51177e-18
7159.49632 5.65785e-18
7160.99962 5.58391e-18
7162.50292 5.40178e-18
7163.99619 5.50899e-18
7165.49949 5.34358e-18
7167.00279 5.33389e-18
7168.49607 5.45238e-18
7169.99937 5.38139e-18
7171.50267 5.32395e-18
7172.99595 5.28567e-18
7174.49925 5.28282e-18
7176.00255 5.28451e-18
7177.49583 5.28620e-18
7178.99913 5.28785e-18
7180.50243 5.28954e-18
7181.99571 5.29123e-18
7183.49901 5.29100e-18
7185.00231 5.32333e-18
7186.49558 5.46447e-18
7187.99888 5.40375e-18
7189.50218 5.32900e-18
7190.99546 5.35557e-18
7192.49876 5.30035e-18
7194.00206 5.24749e-18
7195.49534 5.28390e-18
7196.99864 5.34476e-18
7198.50194 5.39741e-18
7199.99522 5.27677e-18
7201.49852 5.20049e-18
7203.00182 5.30415e-18
7204.50512 5.28515e-18
7205.99840 5.13039e-18
7207.50170 5.08348e-18
7208.99497 5.08539e-18
7210.49827 5.02015e-18
7212.00157 4.94464e-18
7213.50487 4.91756e-18
7214.99815 4.93280e-18
7216.50145 5.01928e-18
7218.00475 4.94174e-18
7219.49803 4.79145e-18
7221.00133 4.76277e-18
7222.50463 4.91911e-18
7223.99791 4.89578e-18
7225.50121 4.78570e-18
7227.00451 4.88056e-18
7228.49779 4.93527e-18
7230.00109 4.75448e-18
7231.50439 4.69874e-18
7232.99766 4.67220e-18
7234.50096 4.61347e-18
7236.00426 4.64172e-18
7237.49754 4.77947e-18
7239.00084 4.98481e-18
7240.50414 5.06435e-18
7241.99742 4.97972e-18
7243.50072 4.69353e-18
7245.00402 4.46697e-18
7246.49730 4.51772e-18
7248.00060 4.49051e-18
7249.50390 4.55982e-18
7250.99718 4.65201e-18
7252.50048 4.57608e-18
7254.00378 4.61007e-18
7255.49705 4.66624e-18
7257.00035 4.59636e-18
7258.50365 4.62169e-18
7259.99693 4.61105e-18
7261.50023 4.46804e-18
7263.00353 4.50764e-18
7264.49681 4.61892e-18
7266.00011 4.52668e-18
7267.50341 4.46487e-18
7268.99669 4.50467e-18
7270.49999 4.43562e-18
7272.00329 4.35569e-18
7273.49657 4.41549e-18
7274.99987 4.41260e-18
7276.50317 4.36060e-18
7277.99644 4.37923e-18
7279.49974 4.35183e-18
7281.00304 4.25765e-18
7282.49632 4.23256e-18
7283.99962 4.29973e-18
7285.50292 4.35645e-18
7286.99620 4.27157e-18
7288.49950 4.14509e-18
7290.00280 4.16443e-18
7291.49608 4.18960e-18
7292.99938 4.16707e-18
7294.50268 4.08978e-18
7295.99596 3.99487e-18
7297.49926 3.97932e-18
7299.00256 4.04954e-18
7300.49583 4.10895e-18
7301.99913 4.01240e-18
7303.50243 3.97982e-18
7304.99571 3.89067e-18
7306.49901 3.79468e-18
7308.00231 3.84897e-18
7309.49559 3.85071e-18
7310.99889 3.73882e-18
7312.50219 3.64243e-18
7313.99547 3.71854e-18
7315.49877 3.71678e-18
7317.00207 3.70431e-18
7318.49535 3.78722e-18
7319.99865 3.71893e-18
7321.50195 3.70335e-18
7322.99522 3.63881e-18
7324.49852 3.59404e-18
7326.00182 3.60609e-18
7327.50512 3.63262e-18
7328.99840 3.62589e-18
7330.50170 3.59341e-18
7331.99498 3.60550e-18
7333.49828 3.64823e-18
7335.00158 3.70579e-18
7336.50488 3.61977e-18
7337.99816 3.53341e-18
7339.50146 3.55821e-18
7341.00476 3.57738e-18
7342.49804 3.56307e-18
7344.00134 3.45089e-18
7345.50464 3.39572e-18
7346.99791 3.42511e-18
7348.50121 3.44048e-18
7350.00451 3.48968e-18
7351.49779 3.38239e-18
7353.00109 3.26560e-18
7354.50439 3.29810e-18
7355.99767 3.31927e-18
7357.50097 3.27254e-18
7359.00427 3.27817e-18
7360.49755 3.26439e-18
7362.00085 3.17357e-18
7363.50415 3.15847e-18
7364.99743 3.18779e-18
7366.50073 3.30375e-18
7368.00403 3.26945e-18
7369.49730 3.15152e-18
7371.00060 3.13130e-18
7372.50390 3.08030e-18
7373.99718 3.10626e-18
7375.50048 3.04034e-18
7377.00378 2.97490e-18
7378.49706 3.04988e-18
7380.00036 3.14150e-18
7381.50366 3.00802e-18
7382.99694 2.93617e-18
7384.50024 2.97535e-18
7386.00354 2.90993e-18
7387.49682 2.89897e-18
7389.00012 2.96845e-18
7390.50342 2.96613e-18
7391.99669 2.97030e-18
7393.49999 2.88478e-18
7395.00329 2.82146e-18
7396.49657 2.86338e-18
7397.99987 2.86650e-18
7399.50317 2.86401e-18
7400.99645 2.83745e-18
7402.49975 2.74412e-18
7404.00305 2.76880e-18
7405.49633 2.80005e-18
7406.99963 2.78228e-18
7408.50293 2.77568e-18
7409.99621 2.72530e-18
7411.49951 2.70978e-18
7413.00281 2.70319e-18
7414.49608 2.72232e-18
7415.99938 2.73294e-18
7417.50268 2.65825e-18
7418.99596 2.62709e-18
7420.49926 2.65100e-18
7422.00256 2.66166e-18
7423.49584 2.67131e-18
7424.99914 2.69043e-18
7426.50244 2.70731e-18
7427.99572 2.69446e-18
7429.49902 2.65161e-18
7431.00232 2.54157e-18
7432.49560 2.57144e-18
7433.99890 2.58998e-18
7435.50220 2.62046e-18
7436.99547 2.62607e-18
7438.49877 2.59569e-18
7440.00207 2.56079e-18
7441.49535 2.47990e-18
7442.99865 2.47219e-18
7444.50195 2.41840e-18
7445.99523 2.53296e-18
7447.49853 2.53386e-18
7449.00183 2.51487e-18
7450.50513 2.48585e-18
7451.99841 2.43039e-18
7453.50171 2.47476e-18
7454.99499 2.49153e-18
7456.49829 2.38080e-18
7458.00159 2.46348e-18
7459.49486 2.41388e-18
7460.99816 2.44242e-18
7462.50146 2.44054e-18
7464.00476 2.45549e-18
7465.49804 2.45886e-18
7467.00134 2.39915e-18
7468.50464 2.40997e-18
7469.99792 2.40965e-18
7471.50122 2.37415e-18
7473.00452 2.35424e-18
7474.49780 2.35224e-18
7476.00110 2.37387e-18
7477.50440 2.39991e-18
7478.99768 2.36998e-18
7480.50098 2.34040e-18
7482.00428 2.40505e-18
7483.49755 2.39214e-18
7485.00085 2.33537e-18
7486.50415 2.29231e-18
7487.99743 2.24675e-18
7489.50073 2.23663e-18
7491.00403 2.29853e-18
7492.49731 2.33413e-18
7494.00061 2.35103e-18
7495.50391 2.36383e-18
7496.99719 2.27574e-18
7498.50049 2.25004e-18
7500.00379 2.26985e-18
7501.49707 2.31189e-18
7503.00037 2.28383e-18
7504.50367 2.24430e-18
7505.99694 2.25145e-18
7507.50024 2.32498e-18
7509.00354 2.32499e-18
7510.49682 2.26292e-18
7512.00012 2.28929e-18
7513.50342 2.31357e-18
7514.99670 2.27367e-18
7516.50000 2.26070e-18
7518.00330 2.26712e-18
7519.49658 2.26958e-18
7520.99988 2.32689e-18
7522.50318 2.34523e-18
7523.99646 2.25306e-18
7525.49976 2.23592e-18
7527.00306 2.29802e-18
7528.49633 2.28793e-18
7529.99963 2.29053e-18
7531.50293 2.24869e-18
7532.99621 2.27340e-18
7534.49951 2.22589e-18
7536.00281 2.20340e-18
7537.49609 2.20202e-18
7538.99939 2.23343e-18
7540.50269 2.37443e-18
