# wavelength flux
3719.99603 3.85872e-18
3721.49933 3.65411e-18
3723.00263 3.56971e-18
3724.49590 3.17159e-18
3725.99920 3.13304e-18
3727.50250 3.33025e-18
3728.99578 3.23374e-18
3730.49908 3.01023e-18
3732.00238 3.30425e-18
3733.49566 3.00180e-18
3734.99896 2.93196e-18
3736.50226 3.30310e-18
3737.99554 2.95673e-18
3739.49884 2.78894e-18
3741.00214 3.03034e-18
3742.49542 3.19842e-18
3743.99872 3.03932e-18
3745.50202 2.99812e-18
3746.99529 3.35134e-18
3748.49859 3.12704e-18
3750.00189 2.84317e-18
3751.49517 3.23958e-18
3752.99847 2.92703e-18
3754.50177 2.86906e-18
3755.99505 2.86915e-18
3757.49835 3.24350e-18
3759.00165 3.52121e-18
3760.50495 3.19904e-18
3761.99823 3.09289e-18
3763.50153 3.22612e-18
3765.00483 2.89334e-18
3766.49811 3.01023e-18
3768.00141 3.30726e-18
3769.50471 2.69344e-18
3770.99798 2.84476e-18
3772.50128 3.13498e-18
3774.00458 2.77916e-18
3775.49786 2.74167e-18
3777.00116 2.70198e-18
3778.50446 2.75456e-18
3779.99774 2.80037e-18
3781.50104 3.00102e-18
3783.00434 2.86416e-18
3784.49762 2.74891e-18
3786.00092 2.63670e-18
3787.50422 2.96030e-18
3788.99750 2.72387e-18
3790.50080 2.69379e-18
3792.00410 2.62681e-18
3793.49737 2.68189e-18
3795.00067 2.90560e-18
3796.50397 2.98362e-18
3797.99725 2.99585e-18
3799.50055 2.83304e-18
3801.00385 2.76783e-18
3802.49713 2.67987e-18
3804.00043 2.72500e-18
3805.50373 2.71580e-18
3806.99701 2.55967e-18
3808.50031 2.54031e-18
3810.00361 2.88102e-18
3811.49689 2.99474e-18
3813.00019 2.80006e-18
3814.50349 2.92733e-18
3815.99676 2.91571e-18
3817.50006 2.79648e-18
3819.00336 2.64568e-18
3820.49664 2.44335e-18
3821.99994 2.66969e-18
3823.50324 2.56537e-18
3824.99652 2.92271e-18
3826.49982 3.30484e-18
3828.00312 3.24162e-18
3829.49640 3.59249e-18
3830.99970 3.49636e-18
3832.50300 3.14874e-18
3833.99628 3.28114e-18
3835.49958 3.03871e-18
3837.00288 3.01843e-18
3838.49615 2.75202e-18
3839.99945 3.55882e-18
3841.50275 3.18406e-18
3842.99603 3.63102e-18
3844.49933 3.15727e-18
3846.00263 3.21094e-18
3847.49591 3.31756e-18
3848.99921 3.69023e-18
3850.50251 3.84663e-18
3851.99579 4.06256e-18
3853.49909 4.20095e-18
3855.00239 4.13915e-18
3856.49567 3.87679e-18
3857.99897 3.93572e-18
3859.50227 3.97539e-18
3860.99554 3.70782e-18
3862.49884 3.90086e-18
3864.00214 3.94672e-18
3865.49542 4.05402e-18
3866.99872 4.19129e-18
3868.50202 4.36649e-18
3869.99530 4.47464e-18
3871.49860 4.36294e-18
3873.00190 4.24469e-18
3874.49518 4.62790e-18
3875.99848 4.63594e-18
3877.50178 4.35972e-18
3878.99506 4.83884e-18
3880.49836 4.88063e-18
3882.00166 4.83648e-18
3883.50496 4.79923e-18
3884.99823 4.75645e-18
3886.50153 4.95004e-18
3888.00483 5.23265e-18
3889.49811 4.99184e-18
3891.00141 4.60083e-18
3892.50471 4.52336e-18
3893.99799 4.63338e-18
3895.50129 4.83947e-18
3897.00459 5.30571e-18
3898.49787 5.50131e-18
3900.00117 5.30409e-18
3901.50447 5.20610e-18
3902.99775 5.21863e-18
3904.50105 5.11720e-18
3906.00435 5.49739e-18
3907.49762 5.50301e-18
3909.00092 5.48682e-18
3910.50422 5.92106e-18
3911.99750 5.38272e-18
3913.50080 4.86126e-18
3915.00410 5.43527e-18
3916.49738 5.48138e-18
3918.00068 5.56603e-18
3919.50398 5.70633e-18
3920.99726 5.50883e-18
3922.50056 5.27284e-18
3924.00386 5.58399e-18
3925.49714 5.92248e-18
3927.00044 5.56181e-18
3928.50374 5.96923e-18
3929.99701 6.09713e-18
3931.50031 6.00079e-18
3933.00361 5.78059e-18
3934.49689 5.41388e-18
3936.00019 5.56830e-18
3937.50349 6.17181e-18
3938.99677 5.77181e-18
3940.50007 5.97513e-18
3942.00337 6.25072e-18
3943.49665 6.33573e-18
3944.99995 6.07374e-18
3946.50325 5.94140e-18
3947.99653 6.00985e-18
3949.49983 5.90865e-18
3951.00313 6.01064e-18
3952.49640 6.28644e-18
3953.99970 6.29075e-18
3955.50300 6.50011e-18
3956.99628 6.55708e-18
3958.49958 6.66154e-18
3960.00288 6.71497e-18
3961.49616 6.60748e-18
3962.99946 6.44850e-18
3964.50276 6.59602e-18
3965.99604 6.60776e-18
3967.49934 6.04854e-18
3969.00264 6.18041e-18
3970.49592 6.72543e-18
3971.99922 6.75210e-18
3973.50252 6.77369e-18
3974.99579 6.57794e-18
3976.49909 6.64655e-18
3978.00239 6.73087e-18
3979.49567 6.39217e-18
3980.99897 6.33990e-18
3982.50227 6.49673e-18
3983.99555 6.69014e-18
3985.49885 6.90784e-18
3987.00215 6.98475e-18
3988.49543 7.03700e-18
3989.99873 7.13151e-18
3991.50203 7.06228e-18
3992.99531 6.71960e-18
3994.49861 6.30999e-18
3996.00191 6.47922e-18
3997.49518 6.83268e-18
3998.99848 6.92210e-18
4000.50178 6.68522e-18
4001.99506 7.06885e-18
4003.49836 7.09382e-18
4005.00166 6.50934e-18
4006.50496 6.64961e-18
4007.99824 6.91331e-18
4009.50154 7.13513e-18
4011.00484 6.89610e-18
4012.49812 7.04302e-18
4014.00142 6.92838e-18
4015.50472 6.96019e-18
4016.99800 7.29286e-18
4018.50130 7.14788e-18
4020.00460 7.00145e-18
4021.49787 6.87792e-18
4023.00117 7.12399e-18
4024.50447 7.23004e-18
4025.99775 6.75135e-18
4027.50105 6.83809e-18
4029.00435 7.23824e-18
4030.49763 7.29912e-18
4032.00093 7.12676e-18
4033.50423 6.66564e-18
4034.99751 6.67289e-18
4036.50081 6.67628e-18
4038.00411 6.69597e-18
4039.49739 6.86235e-18
4041.00069 6.75918e-18
4042.50399 6.74112e-18
4043.99726 6.41184e-18
4045.50056 6.38209e-18
4047.00386 6.69611e-18
4048.49714 6.96781e-18
4050.00044 6.34098e-18
4051.50374 6.42435e-18
4052.99702 6.50782e-18
4054.50032 6.41027e-18
4056.00362 6.82574e-18
4057.49690 6.40536e-18
4059.00020 6.58680e-18
4060.50350 6.95930e-18
4061.99678 6.41483e-18
4063.50008 6.56471e-18
4065.00338 6.28801e-18
4066.49665 6.12937e-18
4067.99995 6.42578e-18
4069.50325 6.50173e-18
4070.99653 6.14921e-18
4072.49983 6.19118e-18
4074.00313 6.47228e-18
4075.49641 6.58168e-18
4076.99971 6.46329e-18
4078.50301 6.63534e-18
4079.99629 6.55604e-18
4081.49959 6.44764e-18
4083.00289 6.27044e-18
4084.49617 6.34894e-18
4085.99947 6.40627e-18
4087.50277 6.36205e-18
4088.99604 6.36140e-18
4090.49934 6.24871e-18
4092.00264 6.10627e-18
4093.49592 6.00511e-18
4094.99922 6.04134e-18
4096.50252 6.12103e-18
4097.99580 6.09070e-18
4099.49910 6.05263e-18
4101.00240 6.08218e-18
4102.49568 6.22226e-18
4103.99898 6.25974e-18
4105.50228 6.19048e-18
4106.99556 6.07622e-18
4108.49886 6.08094e-18
4110.00216 6.07479e-18
4111.49543 5.93784e-18
4112.99873 5.93108e-18
4114.50203 6.04587e-18
4115.99531 6.23007e-18
4117.49861 6.06426e-18
4119.00191 6.15837e-18
4120.49519 6.29731e-18
4121.99849 6.39004e-18
4123.50179 6.44149e-18
4124.99507 6.09737e-18
4126.49837 6.06387e-18
4128.00167 6.30952e-18
4129.50497 5.80678e-18
4130.99825 5.63351e-18
4132.50155 5.95317e-18
4134.00485 5.92013e-18
4135.49812 5.86660e-18
4137.00142 5.75234e-18
4138.50472 5.94016e-18
4139.99800 6.13687e-18
4141.50130 5.98142e-18
4143.00460 6.23158e-18
4144.49788 6.32295e-18
4146.00118 5.90261e-18
4147.50448 6.00812e-18
4148.99776 6.37544e-18
4150.50106 6.19971e-18
4152.00436 5.80313e-18
4153.49764 5.74846e-18
4155.00094 6.07156e-18
4156.50424 6.09842e-18
4157.99751 5.82311e-18
4159.50081 6.02957e-18
4161.00411 6.13202e-18
4162.49739 5.95218e-18
4164.00069 5.87102e-18
4165.50399 6.10546e-18
4166.99727 6.19405e-18
4168.50057 6.21067e-18
4170.00387 6.44048e-18
4171.49715 6.27586e-18
4173.00045 6.03478e-18
4174.50375 5.98542e-18
4175.99703 6.04999e-18
4177.50033 6.25529e-18
4179.00363 6.26933e-18
4180.49690 6.00144e-18
4182.00020 5.95328e-18
4183.50350 6.14598e-18
4184.99678 6.06313e-18
4186.50008 5.89531e-18
4188.00338 6.11223e-18
4189.49666 6.18556e-18
4190.99996 6.24027e-18
4192.50326 6.53346e-18
4193.99654 6.30702e-18
4195.49984 6.02127e-18
4197.00314 5.88428e-18
4198.49642 6.08340e-18
4199.99972 6.22439e-18
4201.50302 6.06093e-18
4202.99629 6.10020e-18
4204.49959 6.34139e-18
4206.00289 6.31944e-18
4207.49617 6.00042e-18
4208.99947 6.12132e-18
4210.50277 6.04509e-18
4211.99605 5.96497e-18
4213.49935 6.21890e-18
4215.00265 6.36896e-18
4216.49593 6.36158e-18
4217.99923 6.50721e-18
4219.50253 6.69138e-18
4220.99581 6.66824e-18
4222.49911 6.53774e-18
4224.00241 6.54125e-18
4225.49568 6.58646e-18
4226.99898 6.54357e-18
4228.50228 6.62484e-18
4229.99556 6.75036e-18
4231.49886 6.63397e-18
4233.00216 6.47367e-18
4234.49544 6.54857e-18
4235.99874 6.53758e-18
4237.50204 6.52154e-18
4238.99532 6.51389e-18
4240.49862 6.76482e-18
4242.00192 7.02585e-18
4243.49520 6.93627e-18
4244.99850 6.78097e-18
4246.50180 6.90412e-18
4247.99507 6.97896e-18
4249.49837 6.85280e-18
4251.00167 6.70950e-18
4252.50497 6.62038e-18
4253.99825 6.67689e-18
4255.50155 6.59186e-18
4257.00485 6.76707e-18
4258.49813 6.75926e-18
4260.00143 6.85115e-18
4261.50473 6.93336e-18
4262.99801 6.56376e-18
4264.50131 6.77914e-18
4266.00461 6.89443e-18
4267.49789 6.94680e-18
4269.00119 7.14172e-18
4270.50449 7.23472e-18
4271.99776 7.09708e-18
4273.50106 6.73125e-18
4275.00436 7.11106e-18
4276.49764 7.29151e-18
4278.00094 7.31875e-18
4279.50424 7.14022e-18
4280.99752 7.25111e-18
4282.50082 7.17554e-18
4284.00412 7.61773e-18
4285.49740 7.25627e-18
4287.00070 7.10158e-18
4288.50400 7.19379e-18
4289.99728 7.39730e-18
4291.50058 7.17330e-18
4293.00388 7.35801e-18
4294.49715 7.54340e-18
4296.00045 7.45963e-18
4297.50375 7.30091e-18
4298.99703 7.20506e-18
4300.50033 7.50006e-18
4302.00363 7.32229e-18
4303.49691 7.30126e-18
4305.00021 7.53644e-18
4306.50351 7.60947e-18
4307.99679 7.37388e-18
4309.50009 7.25710e-18
4311.00339 7.35609e-18
4312.49667 7.41053e-18
4313.99997 7.29761e-18
4315.50327 7.33977e-18
4316.99654 7.54465e-18
4318.49984 7.60834e-18
4320.00314 7.52714e-18
4321.49642 7.47125e-18
4322.99972 7.84129e-18
4324.50302 7.81685e-18
4325.99630 7.60774e-18
4327.49960 7.56377e-18
4329.00290 7.66913e-18
4330.49618 7.45788e-18
4331.99948 7.45775e-18
4333.50278 7.77080e-18
4334.99606 7.71421e-18
4336.49936 7.70549e-18
4338.00266 7.75067e-18
4339.49593 7.80545e-18
4340.99923 7.70697e-18
4342.50253 7.53694e-18
4343.99581 7.80017e-18
4345.49911 7.83212e-18
4347.00241 7.89957e-18
4348.49569 8.04458e-18
4349.99899 7.82403e-18
4351.50229 7.58497e-18
4352.99557 7.77676e-18
4354.49887 7.95993e-18
4356.00217 7.71955e-18
4357.49545 7.74490e-18
4358.99875 7.71937e-18
4360.50205 7.93781e-18
4361.99532 8.03906e-18
4363.49862 7.90916e-18
4365.00192 7.96614e-18
4366.49520 7.94034e-18
4367.99850 7.92158e-18
4369.50180 7.98745e-18
4370.99508 7.85742e-18
4372.49838 7.80088e-18
4374.00168 7.91955e-18
4375.50498 8.00933e-18
4376.99826 7.87920e-18
4378.50156 7.76771e-18
4380.00486 7.92198e-18
4381.49814 8.09010e-18
4383.00144 8.26204e-18
4384.50474 8.22377e-18
4385.99801 8.15232e-18
4387.50131 8.09378e-18
4389.00461 8.03558e-18
4390.49789 8.08402e-18
4392.00119 8.17398e-18
4393.50449 8.41821e-18
4394.99777 8.46193e-18
4396.50107 8.32640e-18
4398.00437 8.31476e-18
4399.49765 8.55002e-18
4401.00095 8.63601e-18
4402.50425 8.41502e-18
4403.99753 8.44309e-18
4405.50083 8.42075e-18
4407.00413 8.62901e-18
4408.49740 8.83143e-18
4410.00070 8.80808e-18
4411.50400 8.71147e-18
4412.99728 8.84038e-18
4414.50058 8.86281e-18
4416.00388 8.84412e-18
4417.49716 8.72585e-18
4419.00046 8.74088e-18
4420.50376 8.77787e-18
4421.99704 8.62453e-18
4423.50034 8.82221e-18
4425.00364 8.99715e-18
4426.49692 9.13221e-18
4428.00022 9.01905e-18
4429.50352 8.85766e-18
4430.99679 8.99171e-18
4432.50009 9.24779e-18
4434.00339 9.31377e-18
4435.49667 9.51683e-18
4436.99997 9.58232e-18
4438.50327 9.57025e-18
4439.99655 9.64714e-18
4441.49985 9.62208e-18
4443.00315 9.49883e-18
4444.49643 9.68934e-18
4445.99973 9.73172e-18
4447.50303 9.85819e-18
4448.99631 9.95955e-18
4450.49961 1.00645e-17
4452.00291 1.00143e-17
4453.49618 1.01306e-17
4454.99948 1.01426e-17
4456.50278 1.00718e-17
4457.99606 1.02399e-17
4459.49936 1.05400e-17
4461.00266 1.06678e-17
4462.49594 1.06521e-17
4463.99924 1.07548e-17
4465.50254 1.08209e-17
4466.99582 1.09404e-17
4468.49912 1.10850e-17
4470.00242 1.12221e-17
4471.49570 1.14440e-17
4472.99900 1.10659e-17
4474.50230 1.12359e-17
4475.99557 1.12792e-17
4477.49887 1.11987e-17
4479.00217 1.13317e-17
4480.49545 1.13011e-17
4481.99875 1.18713e-17
4483.50205 1.18766e-17
4484.99533 1.16702e-17
4486.49863 1.18049e-17
4488.00193 1.15971e-17
4489.49521 1.16141e-17
4490.99851 1.20762e-17
4492.50181 1.20401e-17
4493.99509 1.24911e-17
4495.49839 1.25928e-17
4497.00169 1.21380e-17
4498.49496 1.22534e-17
4499.99826 1.26229e-17
4501.50156 1.26034e-17
4503.00486 1.28529e-17
4504.49814 1.30286e-17
4506.00144 1.30252e-17
4507.50474 1.33041e-17
4508.99802 1.31651e-17
4510.50132 1.32398e-17
4512.00462 1.35967e-17
4513.49790 1.33182e-17
4515.00120 1.33005e-17
4516.50450 1.33032e-17
4517.99778 1.35869e-17
4519.50108 1.37301e-17
4521.00438 1.36408e-17
4522.49765 1.36751e-17
4524.00095 1.37213e-17
4525.50425 1.36897e-17
4526.99753 1.37056e-17
4528.50083 1.38637e-17
4530.00413 1.42321e-17
4531.49741 1.41834e-17
4533.00071 1.39288e-17
4534.50401 1.40863e-17
4535.99729 1.42791e-17
4537.50059 1.44003e-17
4539.00389 1.46932e-17
4540.49717 1.46270e-17
4542.00047 1.45589e-17
4543.50377 1.45685e-17
4544.99704 1.45617e-17
4546.50034 1.46502e-17
4548.00364 1.45809e-17
4549.49692 1.48386e-17
4551.00022 1.50384e-17
4552.50352 1.50374e-17
4553.99680 1.51228e-17
4555.50010 1.49544e-17
4557.00340 1.49360e-17
4558.49668 1.51525e-17
4559.99998 1.50134e-17
4561.50328 1.49446e-17
4562.99656 1.54462e-17
4564.49986 1.52846e-17
4566.00316 1.51968e-17
4567.49643 1.51209e-17
4568.99973 1.49643e-17
4570.50303 1.52641e-17
4571.99631 1.53380e-17
4573.49961 1.51256e-17
4575.00291 1.50986e-17
4576.49619 1.53574e-17
4577.99949 1.51921e-17
4579.50279 1.52138e-17
4580.99607 1.54639e-17
4582.49937 1.53130e-17
4584.00267 1.51650e-17
4585.49595 1.53185e-17
4586.99925 1.54928e-17
4588.50255 1.56273e-17
4589.99582 1.54583e-17
4591.49912 1.53742e-17
4593.00242 1.54690e-17
4594.49570 1.55843e-17
4595.99900 1.55956e-17
4597.50230 1.56866e-17
4598.99558 1.56908e-17
4600.49888 1.57480e-17
4602.00218 1.59084e-17
4603.49546 1.58346e-17
4604.99876 1.58369e-17
4606.50206 1.56622e-17
4607.99534 1.53634e-17
4609.49864 1.57382e-17
4611.00194 1.58589e-17
4612.49521 1.53245e-17
4613.99851 1.52081e-17
4615.50181 1.55658e-17
4616.99509 1.54749e-17
4618.49839 1.53122e-17
4620.00169 1.54634e-17
4621.49497 1.54678e-17
4622.99827 1.52521e-17
4624.50157 1.50779e-17
4626.00487 1.47393e-17
4627.49815 1.45998e-17
4629.00145 1.49851e-17
4630.50475 1.49599e-17
4631.99803 1.45245e-17
4633.50133 1.46061e-17
4635.00463 1.48896e-17
4636.49790 1.46771e-17
4638.00120 1.43750e-17
4639.50450 1.44843e-17
4640.99778 1.45584e-17
4642.50108 1.43064e-17
4644.00438 1.43554e-17
4645.49766 1.44812e-17
4647.00096 1.41468e-17
4648.50426 1.39667e-17
4649.99754 1.42348e-17
4651.50084 1.45851e-17
4653.00414 1.44946e-17
4654.49742 1.42384e-17
4656.00072 1.41619e-17
4657.50402 1.40374e-17
4658.99729 1.40232e-17
4660.50059 1.41104e-17
4662.00389 1.41440e-17
4663.49717 1.39708e-17
4665.00047 1.36750e-17
4666.50377 1.35711e-17
4667.99705 1.35504e-17
4669.50035 1.34060e-17
4671.00365 1.34243e-17
4672.49693 1.34437e-17
4674.00023 1.32377e-17
4675.50353 1.30931e-17
4676.99681 1.33482e-17
4678.50011 1.33136e-17
4680.00341 1.30219e-17
4681.49668 1.29947e-17
4682.99998 1.30578e-17
4684.50328 1.31397e-17
4685.99656 1.30198e-17
4687.49986 1.30538e-17
4689.00316 1.28893e-17
4690.49644 1.28344e-17
4691.99974 1.29107e-17
4693.50304 1.26443e-17
4694.99632 1.28245e-17
4696.49962 1.30358e-17
4698.00292 1.29938e-17
4699.49620 1.31016e-17
4700.99950 1.27875e-17
4702.50280 1.29864e-17
4703.99607 1.28680e-17
4705.49937 1.25703e-17
4707.00267 1.24364e-17
4708.49595 1.23670e-17
4709.99925 1.25947e-17
4711.50255 1.23428e-17
4712.99583 1.25306e-17
4714.49913 1.24986e-17
4716.00243 1.24653e-17
4717.49571 1.23807e-17
4718.99901 1.24047e-17
4720.50231 1.22827e-17
4721.99559 1.20533e-17
4723.49889 1.20783e-17
4725.00219 1.22153e-17
4726.49546 1.21701e-17
4727.99876 1.22069e-17
4729.50206 1.24069e-17
4730.99534 1.23054e-17
4732.49864 1.20720e-17
4734.00194 1.22275e-17
4735.49522 1.22404e-17
4736.99852 1.21361e-17
4738.50182 1.19679e-17
4739.99510 1.19720e-17
4741.49840 1.21208e-17
4743.00170 1.20373e-17
4744.49498 1.19960e-17
4745.99828 1.20981e-17
4747.50158 1.21021e-17
4749.00488 1.20011e-17
4750.49815 1.19360e-17
4752.00145 1.18940e-17
4753.50475 1.19504e-17
4754.99803 1.21462e-17
4756.50133 1.21001e-17
4758.00463 1.21868e-17
4759.49791 1.20681e-17
4761.00121 1.17564e-17
4762.50451 1.17244e-17
4763.99779 1.19134e-17
4765.50109 1.17919e-17
4767.00439 1.17574e-17
4768.49767 1.18925e-17
4770.00097 1.18384e-17
4771.50427 1.15574e-17
4772.99754 1.15254e-17
4774.50084 1.19691e-17
4776.00414 1.16225e-17
4777.49742 1.16099e-17
4779.00072 1.17877e-17
4780.50402 1.17712e-17
4781.99730 1.17834e-17
4783.50060 1.19145e-17
4785.00390 1.18387e-17
4786.49718 1.19013e-17
4788.00048 1.20014e-17
4789.50378 1.19059e-17
4790.99706 1.18813e-17
4792.50036 1.20117e-17
4794.00366 1.20053e-17
4795.49693 1.19485e-17
4797.00023 1.21015e-17
4798.50353 1.21916e-17
4799.99681 1.24099e-17
4801.50011 1.23124e-17
4803.00341 1.21964e-17
4804.49669 1.23163e-17
4805.99999 1.23088e-17
4807.50329 1.22473e-17
4808.99657 1.23930e-17
4810.49987 1.24721e-17
4812.00317 1.23009e-17
4813.49645 1.21015e-17
4814.99975 1.20256e-17
4816.50305 1.21886e-17
4817.99632 1.24392e-17
4819.49962 1.24782e-17
4821.00292 1.23904e-17
4822.49620 1.23128e-17
4823.99950 1.24411e-17
4825.50280 1.23997e-17
4826.99608 1.24570e-17
4828.49938 1.25261e-17
4830.00268 1.23224e-17
4831.49596 1.21706e-17
4832.99926 1.23694e-17
4834.50256 1.25564e-17
4835.99584 1.25140e-17
4837.49914 1.24094e-17
4839.00244 1.25401e-17
4840.49571 1.25052e-17
4841.99901 1.23019e-17
4843.50231 1.20945e-17
4844.99559 1.21668e-17
4846.49889 1.26581e-17
4848.00219 1.26927e-17
4849.49547 1.22579e-17
4850.99877 1.21946e-17
4852.50207 1.25285e-17
4853.99535 1.22068e-17
4855.49865 1.23148e-17
4857.00195 1.22502e-17
4858.49523 1.23290e-17
4859.99853 1.23736e-17
4861.50183 1.23957e-17
4862.99510 1.24317e-17
4864.49840 1.25650e-17
4866.00170 1.23603e-17
4867.49498 1.22609e-17
4868.99828 1.24011e-17
4870.50158 1.25137e-17
4872.00488 1.24268e-17
4873.49816 1.23397e-17
4875.00146 1.22592e-17
4876.50476 1.24932e-17
4877.99804 1.26398e-17
4879.50134 1.26144e-17
4881.00464 1.26337e-17
4882.49792 1.26332e-17
4884.00122 1.25298e-17
4885.50452 1.25240e-17
4886.99779 1.25517e-17
4888.50109 1.27964e-17
4890.00439 1.27001e-17
4891.49767 1.24100e-17
4893.00097 1.23745e-17
4894.50427 1.23980e-17
4895.99755 1.25421e-17
4897.50085 1.24194e-17
4899.00415 1.23679e-17
4900.49743 1.25030e-17
4902.00073 1.25222e-17
4903.50403 1.24596e-17
4904.99731 1.25621e-17
4906.50061 1.23883e-17
4908.00391 1.21710e-17
4909.49718 1.23792e-17
4911.00048 1.22269e-17
4912.50378 1.21081e-17
4913.99706 1.21413e-17
4915.50036 1.21145e-17
4917.00366 1.20153e-17
4918.49694 1.21346e-17
4920.00024 1.20754e-17
4921.50354 1.19963e-17
4922.99682 1.21589e-17
4924.50012 1.23964e-17
4926.00342 1.18674e-17
4927.49670 1.17921e-17
4929.00000 1.19646e-17
4930.50330 1.21423e-17
4931.99657 1.21066e-17
4933.49987 1.21546e-17
4935.00317 1.19952e-17
4936.49645 1.20542e-17
4937.99975 1.20818e-17
4939.50305 1.22162e-17
4940.99633 1.23573e-17
4942.49963 1.22552e-17
4944.00293 1.23766e-17
4945.49621 1.22134e-17
4946.99951 1.22489e-17
4948.50281 1.24867e-17
4949.99609 1.25872e-17
4951.49939 1.25228e-17
4953.00269 1.24828e-17
4954.49596 1.24174e-17
4955.99926 1.22878e-17
4957.50256 1.24919e-17
4958.99584 1.26591e-17
4960.49914 1.25521e-17
4962.00244 1.25282e-17
4963.49572 1.26075e-17
4964.99902 1.25788e-17
4966.50232 1.26155e-17
4967.99560 1.25188e-17
4969.49890 1.22829e-17
4971.00220 1.23303e-17
4972.49548 1.22251e-17
4973.99878 1.23488e-17
4975.50208 1.21925e-17
4976.99535 1.20973e-17
4978.49865 1.22206e-17
4980.00195 1.21555e-17
4981.49523 1.21302e-17
4982.99853 1.20749e-17
4984.50183 1.21101e-17
4985.99511 1.21875e-17
4987.49841 1.22099e-17
4989.00171 1.22434e-17
4990.49499 1.22118e-17
4991.99829 1.20166e-17
4993.50159 1.22440e-17
4995.00489 1.22342e-17
4996.49817 1.19094e-17
4998.00147 1.20650e-17
4999.50477 1.20490e-17
5000.99804 1.18377e-17
5002.50134 1.17407e-17
5004.00464 1.17004e-17
5005.49792 1.18604e-17
5007.00122 1.17667e-17
5008.50452 1.17463e-17
5009.99780 1.18355e-17
5011.50110 1.16956e-17
5013.00440 1.16328e-17
5014.49768 1.17215e-17
5016.00098 1.17683e-17
5017.50428 1.17305e-17
5018.99756 1.17847e-17
5020.50086 1.16213e-17
5022.00416 1.17378e-17
5023.49743 1.16808e-17
5025.00073 1.14338e-17
5026.50403 1.15209e-17
5027.99731 1.17364e-17
5029.50061 1.16493e-17
5031.00391 1.16183e-17
5032.49719 1.17848e-17
5034.00049 1.16545e-17
5035.50379 1.14297e-17
5036.99707 1.14381e-17
5038.50037 1.15375e-17
5040.00367 1.16679e-17
5041.49695 1.16463e-17
5043.00025 1.16058e-17
5044.50355 1.14868e-17
5045.99682 1.15819e-17
5047.50012 1.16386e-17
5049.00342 1.15526e-17
5050.49670 1.18155e-17
5052.00000 1.17676e-17
5053.50330 1.17854e-17
5054.99658 1.20103e-17
5056.49988 1.19593e-17
5058.00318 1.18339e-17
5059.49646 1.20259e-17
5060.99976 1.20207e-17
5062.50306 1.18067e-17
5063.99634 1.19544e-17
5065.49964 1.21510e-17
5067.00294 1.21480e-17
5068.49621 1.19500e-17
5069.99951 1.20660e-17
5071.50281 1.21823e-17
5072.99609 1.21833e-17
5074.49939 1.23105e-17
5076.00269 1.22977e-17
5077.49597 1.22095e-17
5078.99927 1.22807e-17
5080.50257 1.24791e-17
5081.99585 1.24937e-17
5083.49915 1.26838e-17
5085.00245 1.26547e-17
5086.49573 1.27315e-17
5087.99903 1.28221e-17
5089.50233 1.27467e-17
5090.99560 1.28658e-17
5092.49890 1.27942e-17
5094.00220 1.27923e-17
5095.49548 1.28335e-17
5096.99878 1.28326e-17
5098.50208 1.29074e-17
5099.99536 1.30374e-17
5101.49866 1.31421e-17
5103.00196 1.33274e-17
5104.49524 1.32477e-17
5105.99854 1.31506e-17
5107.50184 1.31906e-17
5108.99512 1.31952e-17
5110.49842 1.33259e-17
5112.00172 1.31481e-17
5113.49499 1.32852e-17
5114.99829 1.33007e-17
5116.50159 1.32756e-17
5118.00489 1.34809e-17
5119.49817 1.35392e-17
5121.00147 1.35158e-17
5122.50477 1.33661e-17
5123.99805 1.34245e-17
5125.50135 1.35700e-17
5127.00465 1.34796e-17
5128.49793 1.34564e-17
5130.00123 1.35262e-17
5131.50453 1.35223e-17
5132.99781 1.35970e-17
5134.50111 1.36846e-17
5136.00441 1.38788e-17
5137.49768 1.37801e-17
5139.00098 1.36882e-17
5140.50428 1.40507e-17
5141.99756 1.38411e-17
5143.50086 1.39355e-17
5145.00416 1.40386e-17
5146.49744 1.41761e-17
5148.00074 1.42573e-17
5149.50404 1.42655e-17
5150.99732 1.42483e-17
5152.50062 1.41299e-17
5154.00392 1.40977e-17
5155.49720 1.41651e-17
5157.00050 1.40729e-17
5158.50380 1.41375e-17
5159.99707 1.41648e-17
5161.50037 1.41534e-17
5163.00367 1.41083e-17
5164.49695 1.39234e-17
5166.00025 1.39599e-17
5167.50355 1.41347e-17
5168.99683 1.40952e-17
5170.50013 1.41574e-17
5172.00343 1.44367e-17
5173.49671 1.44354e-17
5175.00001 1.42388e-17
5176.50331 1.43487e-17
5177.99659 1.45418e-17
5179.49989 1.46174e-17
5181.00319 1.45351e-17
5182.49646 1.45493e-17
5183.99976 1.46663e-17
5185.50306 1.47487e-17
5186.99634 1.47503e-17
5188.49964 1.47694e-17
5190.00294 1.48154e-17
5191.49622 1.48822e-17
5192.99952 1.50569e-17
5194.50282 1.51446e-17
5195.99610 1.50711e-17
5197.49940 1.51226e-17
5199.00270 1.49034e-17
5200.49598 1.50294e-17
5201.99928 1.51951e-17
5203.50258 1.51829e-17
5204.99585 1.51290e-17
5206.49915 1.52202e-17
5208.00245 1.53955e-17
5209.49573 1.54474e-17
5210.99903 1.55502e-17
5212.50233 1.54090e-17
5213.99561 1.53799e-17
5215.49891 1.53720e-17
5217.00221 1.53088e-17
5218.49549 1.54173e-17
5219.99879 1.55341e-17
5221.50209 1.53631e-17
5222.99537 1.53442e-17
5224.49867 1.55995e-17
5226.00197 1.56296e-17
5227.49524 1.55821e-17
5228.99854 1.56651e-17
5230.50184 1.57324e-17
5231.99512 1.58331e-17
5233.49842 1.58363e-17
5235.00172 1.57357e-17
5236.49500 1.56291e-17
5237.99830 1.57057e-17
5239.50160 1.60946e-17
5241.00490 1.63612e-17
5242.49818 1.61918e-17
5244.00148 1.60617e-17
5245.50478 1.60594e-17
5246.99806 1.60880e-17
5248.50136 1.61009e-17
5250.00466 1.60927e-17
5251.49793 1.63204e-17
5253.00123 1.66150e-17
5254.50453 1.65953e-17
5255.99781 1.65315e-17
5257.50111 1.66520e-17
5259.00441 1.64837e-17
5260.49769 1.63587e-17
5262.00099 1.65389e-17
5263.50429 1.67122e-17
5264.99757 1.66301e-17
5266.50087 1.66034e-17
5268.00417 1.67641e-17
5269.49745 1.68517e-17
5271.00075 1.68698e-17
5272.50405 1.68403e-17
5273.99732 1.70337e-17
5275.50062 1.67391e-17
5277.00392 1.66755e-17
5278.49720 1.70012e-17
5280.00050 1.70597e-17
5281.50380 1.71098e-17
5282.99708 1.69974e-17
5284.50038 1.70339e-17
5286.00368 1.73575e-17
5287.49696 1.74032e-17
5289.00026 1.74597e-17
5290.50356 1.74358e-17
5291.99684 1.74672e-17
5293.50014 1.75339e-17
5295.00344 1.73775e-17
5296.49671 1.75120e-17
5298.00001 1.77085e-17
5299.50331 1.77656e-17
5300.99659 1.78342e-17
5302.49989 1.76546e-17
5304.00319 1.76064e-17
5305.49647 1.78394e-17
5306.99977 1.79033e-17
5308.50307 1.77381e-17
5309.99635 1.76388e-17
5311.49965 1.76249e-17
5313.00295 1.75906e-17
5314.49623 1.76091e-17
5315.99953 1.76718e-17
5317.50283 1.76390e-17
5318.99610 1.75749e-17
5320.49940 1.77456e-17
5322.00270 1.79304e-17
5323.49598 1.78105e-17
5324.99928 1.76908e-17
5326.50258 1.76872e-17
5327.99586 1.77103e-17
5329.49916 1.76691e-17
5331.00246 1.75262e-17
5332.49574 1.76948e-17
5333.99904 1.78588e-17
5335.50234 1.77873e-17
5336.99562 1.75940e-17
5338.49892 1.78421e-17
5340.00222 1.78843e-17
5341.49549 1.77694e-17
5342.99879 1.78123e-17
5344.50209 1.78094e-17
5345.99537 1.77876e-17
5347.49867 1.79231e-17
5349.00197 1.80319e-17
5350.49525 1.79017e-17
5351.99855 1.80119e-17
5353.50185 1.79476e-17
5354.99513 1.78136e-17
5356.49843 1.78885e-17
5358.00173 1.77803e-17
5359.49501 1.77896e-17
5360.99831 1.79021e-17
5362.50161 1.78179e-17
5364.00491 1.79403e-17
5365.49818 1.77845e-17
5367.00148 1.78864e-17
5368.50478 1.81179e-17
5369.99806 1.81677e-17
5371.50136 1.80591e-17
5373.00466 1.79080e-17
5374.49794 1.79963e-17
5376.00124 1.79832e-17
5377.50454 1.79748e-17
5378.99782 1.79796e-17
5380.50112 1.80628e-17
5382.00442 1.81996e-17
5383.49770 1.82084e-17
5385.00100 1.82690e-17
5386.50430 1.83686e-17
5387.99757 1.84182e-17
5389.50087 1.84429e-17
5391.00417 1.84546e-17
5392.49745 1.84812e-17
5394.00075 1.86271e-17
5395.50405 1.87510e-17
5396.99733 1.87652e-17
5398.50063 1.84578e-17
5400.00393 1.82719e-17
5401.49721 1.83907e-17
5403.00051 1.85897e-17
5404.50381 1.85817e-17
5405.99709 1.85759e-17
5407.50039 1.87784e-17
5409.00369 1.87323e-17
5410.49696 1.87636e-17
5412.00026 1.87646e-17
5413.50356 1.86419e-17
5414.99684 1.85609e-17
5416.50014 1.89616e-17
5418.00344 1.91031e-17
5419.49672 1.88407e-17
5421.00002 1.87559e-17
5422.50332 1.87986e-17
5423.99660 1.92554e-17
5425.49990 1.92030e-17
5427.00320 1.90046e-17
5428.49648 1.90722e-17
5429.99978 1.91419e-17
5431.50308 1.95105e-17
5432.99635 1.93104e-17
5434.49965 1.94016e-17
5436.00295 1.93919e-17
5437.49623 1.92264e-17
5438.99953 1.94462e-17
5440.50283 1.97134e-17
5441.99611 1.98075e-17
5443.49941 1.97996e-17
5445.00271 1.97225e-17
5446.49599 1.98337e-17
5447.99929 1.97517e-17
5449.50259 1.98844e-17
5450.99587 2.01258e-17
5452.49917 2.00373e-17
5454.00247 2.00939e-17
5455.49574 2.02875e-17
5456.99904 2.01925e-17
5458.50234 2.01787e-17
5459.99562 2.02811e-17
5461.49892 2.02054e-17
5463.00222 2.00051e-17
5464.49550 1.97945e-17
5465.99880 1.99013e-17
5467.50210 2.00826e-17
5468.99538 2.00717e-17
5470.49868 2.01909e-17
5472.00198 2.01355e-17
5473.49526 1.98873e-17
5474.99856 1.99670e-17
5476.50186 1.99720e-17
5477.99513 1.98343e-17
5479.49843 1.99372e-17
5481.00173 2.00590e-17
5482.49501 1.97828e-17
5483.99831 1.94927e-17
5485.50161 1.95485e-17
5487.00491 1.95324e-17
5488.49819 1.94049e-17
5490.00149 1.92924e-17
5491.50479 1.93028e-17
5492.99807 1.93001e-17
5494.50137 1.92588e-17
5496.00467 1.92640e-17
5497.49795 1.90711e-17
5499.00125 1.88831e-17
5500.50455 1.90239e-17
5501.99782 1.91654e-17
5503.50112 1.88707e-17
5505.00442 1.88842e-17
5506.49770 1.89597e-17
5508.00100 1.88800e-17
5509.50430 1.90811e-17
5510.99758 1.89217e-17
5512.50088 1.88536e-17
5514.00418 1.89134e-17
5515.49746 1.88501e-17
5517.00076 1.87183e-17
5518.50406 1.87383e-17
5519.99734 1.86838e-17
5521.50064 1.87586e-17
5523.00394 1.86398e-17
5524.49721 1.85753e-17
5526.00051 1.85450e-17
5527.50381 1.85912e-17
5528.99709 1.85120e-17
5530.50039 1.83860e-17
5532.00369 1.83971e-17
5533.49697 1.84111e-17
5535.00027 1.83569e-17
5536.50357 1.82688e-17
5537.99685 1.83261e-17
5539.50015 1.84486e-17
5541.00345 1.83360e-17
5542.49673 1.79401e-17
5544.00003 1.80087e-17
5545.50333 1.81195e-17
5546.99660 1.81582e-17
5548.49990 1.81022e-17
5550.00320 1.80605e-17
5551.49648 1.79100e-17
5552.99978 1.78606e-17
5554.50308 1.83721e-17
5555.99636 1.84965e-17
5557.49966 1.82948e-17
5559.00296 1.83125e-17
5560.49624 1.82668e-17
5561.99954 1.83715e-17
5563.50284 1.84841e-17
5564.99612 1.85850e-17
5566.49942 1.83791e-17
5568.00272 1.82394e-17
5569.49599 1.80418e-17
5570.99929 1.79431e-17
5572.50259 1.82202e-17
5573.99587 1.81630e-17
5575.49917 1.82998e-17
5577.00247 1.83388e-17
5578.49575 1.84014e-17
5579.99905 1.81459e-17
5581.50235 1.81015e-17
5582.99563 1.83325e-17
5584.49893 1.83120e-17
5586.00223 1.83036e-17
5587.49551 1.83756e-17
5588.99881 1.84910e-17
5590.50211 1.84581e-17
5591.99538 1.83889e-17
5593.49868 1.82991e-17
5595.00198 1.83499e-17
5596.49526 1.83289e-17
5597.99856 1.82489e-17
5599.50186 1.83207e-17
5600.99514 1.83097e-17
5602.49844 1.81540e-17
5604.00174 1.80554e-17
5605.49502 1.80245e-17
5606.99832 1.81368e-17
5608.50162 1.81360e-17
5610.00492 1.80385e-17
5611.49820 1.79384e-17
5613.00150 1.77663e-17
5614.50480 1.77682e-17
5615.99807 1.78825e-17
5617.50137 1.77413e-17
5619.00467 1.75166e-17
5620.49795 1.77297e-17
5622.00125 1.78144e-17
5623.50455 1.75626e-17
5624.99783 1.73670e-17
5626.50113 1.73357e-17
5628.00443 1.73845e-17
5629.49771 1.73378e-17
5631.00101 1.73919e-17
5632.50431 1.72985e-17
5633.99759 1.72721e-17
5635.50089 1.71956e-17
5637.00419 1.69709e-17
5638.49746 1.70026e-17
5640.00076 1.68686e-17
5641.50406 1.69559e-17
5642.99734 1.70380e-17
5644.50064 1.66185e-17
5646.00394 1.65673e-17
5647.49722 1.65733e-17
5649.00052 1.64452e-17
5650.50382 1.64741e-17
5651.99710 1.62985e-17
5653.50040 1.62256e-17
5655.00370 1.63004e-17
5656.49698 1.62225e-17
5658.00028 1.60176e-17
5659.50358 1.62579e-17
5660.99685 1.62027e-17
5662.50015 1.59443e-17
5664.00345 1.60503e-17
5665.49673 1.58894e-17
5667.00003 1.58058e-17
5668.50333 1.58549e-17
5669.99661 1.57730e-17
5671.49991 1.56742e-17
5673.00321 1.55615e-17
5674.49649 1.54436e-17
5675.99979 1.54881e-17
5677.50309 1.55076e-17
5678.99637 1.53410e-17
5680.49967 1.54022e-17
5682.00297 1.54783e-17
5683.49624 1.51907e-17
5684.99954 1.49453e-17
5686.50284 1.50304e-17
5687.99612 1.51351e-17
5689.49942 1.51397e-17
5691.00272 1.51273e-17
5692.49600 1.50598e-17
5693.99930 1.48624e-17
5695.50260 1.49145e-17
5696.99588 1.47765e-17
5698.49918 1.48563e-17
5700.00248 1.48716e-17
5701.49576 1.47553e-17
5702.99906 1.47421e-17
5704.50236 1.47452e-17
5705.99563 1.47481e-17
5707.49893 1.46337e-17
5709.00223 1.45582e-17
5710.49551 1.46472e-17
5711.99881 1.47362e-17
5713.50211 1.47428e-17
5714.99539 1.46723e-17
5716.49869 1.48305e-17
5718.00199 1.46875e-17
5719.49527 1.44845e-17
5720.99857 1.44592e-17
5722.50187 1.46654e-17
5723.99515 1.46629e-17
5725.49845 1.47256e-17
5727.00175 1.46126e-17
5728.49502 1.45205e-17
5729.99832 1.45850e-17
5731.50162 1.46702e-17
5733.00492 1.47102e-17
5734.49820 1.48482e-17
5736.00150 1.49113e-17
5737.50480 1.48318e-17
5738.99808 1.47189e-17
5740.50138 1.45827e-17
5742.00468 1.48362e-17
5743.49796 1.48515e-17
5745.00126 1.47420e-17
5746.50456 1.48687e-17
5747.99784 1.48868e-17
5749.50114 1.49298e-17
5751.00444 1.50193e-17
5752.49771 1.50343e-17
5754.00101 1.49213e-17
5755.50431 1.50060e-17
5756.99759 1.50989e-17
5758.50089 1.50802e-17
5760.00419 1.51354e-17
5761.49747 1.50494e-17
5763.00077 1.50752e-17
5764.50407 1.49372e-17
5765.99735 1.47851e-17
5767.50065 1.49669e-17
5769.00395 1.50678e-17
5770.49723 1.50192e-17
5772.00053 1.51525e-17
5773.50383 1.52008e-17
5774.99710 1.50274e-17
5776.50040 1.49399e-17
5778.00370 1.51269e-17
5779.49698 1.51061e-17
5781.00028 1.51855e-17
5782.50358 1.51812e-17
5783.99686 1.52339e-17
5785.50016 1.52465e-17
5787.00346 1.52866e-17
5788.49674 1.55429e-17
5790.00004 1.55291e-17
5791.50334 1.53817e-17
5792.99662 1.54492e-17
5794.49992 1.56053e-17
5796.00322 1.56279e-17
5797.49649 1.56066e-17
5798.99979 1.57533e-17
5800.50309 1.57170e-17
5801.99637 1.56226e-17
5803.49967 1.56250e-17
5805.00297 1.56605e-17
5806.49625 1.59167e-17
5807.99955 1.60478e-17
5809.50285 1.60138e-17
5810.99613 1.58352e-17
5812.49943 1.57605e-17
5814.00273 1.58933e-17
5815.49601 1.60135e-17
5816.99931 1.60954e-17
5818.50261 1.61603e-17
5819.99588 1.60297e-17
5821.49918 1.60684e-17
5823.00248 1.61860e-17
5824.49576 1.61663e-17
5825.99906 1.61217e-17
5827.50236 1.60278e-17
5828.99564 1.60072e-17
5830.49894 1.61379e-17
5832.00224 1.61489e-17
5833.49552 1.60307e-17
5834.99882 1.59274e-17
5836.50212 1.61711e-17
5837.99540 1.61686e-17
5839.49870 1.61546e-17
5841.00200 1.61537e-17
5842.49527 1.61099e-17
5843.99857 1.60906e-17
5845.50187 1.60540e-17
5846.99515 1.58622e-17
5848.49845 1.59003e-17
5850.00175 1.60693e-17
5851.49503 1.58562e-17
5852.99833 1.57559e-17
5854.50163 1.60086e-17
5856.00493 1.60503e-17
5857.49821 1.57665e-17
5859.00151 1.58855e-17
5860.50481 1.60363e-17
5861.99809 1.59067e-17
5863.50139 1.57742e-17
5865.00469 1.57991e-17
5866.49796 1.59019e-17
5868.00126 1.58636e-17
5869.50456 1.59288e-17
5870.99784 1.59315e-17
5872.50114 1.59314e-17
5874.00444 1.57751e-17
5875.49772 1.54923e-17
5877.00102 1.55318e-17
5878.50432 1.57030e-17
5879.99760 1.57832e-17
5881.50090 1.56869e-17
5883.00420 1.54855e-17
5884.49748 1.53700e-17
5886.00078 1.53923e-17
5887.50408 1.52302e-17
5888.99735 1.49088e-17
5890.50065 1.47650e-17
5892.00395 1.47954e-17
5893.49723 1.49320e-17
5895.00053 1.50988e-17
5896.50383 1.51412e-17
5897.99711 1.51318e-17
5899.50041 1.52250e-17
5901.00371 1.53906e-17
5902.49699 1.52874e-17
5904.00029 1.52083e-17
5905.50359 1.53088e-17
5906.99687 1.52153e-17
5908.50017 1.52318e-17
5910.00347 1.53311e-17
5911.49674 1.53364e-17
5913.00004 1.54892e-17
5914.50334 1.55537e-17
5915.99662 1.53677e-17
5917.49992 1.53520e-17
5919.00322 1.51548e-17
5920.49650 1.52908e-17
5921.99980 1.55494e-17
5923.50310 1.52950e-17
5924.99638 1.50211e-17
5926.49968 1.52242e-17
5928.00298 1.52381e-17
5929.49626 1.52599e-17
5930.99956 1.53226e-17
5932.50286 1.52523e-17
5933.99613 1.51780e-17
5935.49943 1.51789e-17
5937.00273 1.52071e-17
5938.49601 1.52177e-17
5939.99931 1.52734e-17
5941.50261 1.52262e-17
5942.99589 1.51746e-17
5944.49919 1.51300e-17
5946.00249 1.50710e-17
5947.49577 1.50300e-17
5948.99907 1.49456e-17
5950.50237 1.50163e-17
5951.99565 1.50360e-17
5953.49895 1.51065e-17
5955.00225 1.51975e-17
5956.49552 1.50435e-17
5957.99882 1.49054e-17
5959.50212 1.48534e-17
5960.99540 1.48090e-17
5962.49870 1.48744e-17
5964.00200 1.49177e-17
5965.49528 1.48608e-17
5966.99858 1.47285e-17
5968.50188 1.46685e-17
5970.00518 1.46861e-17
5971.49846 1.47335e-17
5973.00176 1.47155e-17
5974.49504 1.48477e-17
5975.99834 1.45111e-17
5977.50164 1.44567e-17
5979.00494 1.44986e-17
5980.49821 1.45982e-17
5982.00151 1.47175e-17
5983.50481 1.46783e-17
5984.99809 1.45806e-17
5986.50139 1.45768e-17
5988.00469 1.45756e-17
5989.49797 1.46343e-17
5991.00127 1.44700e-17
5992.50457 1.44740e-17
5993.99785 1.46390e-17
5995.50115 1.46521e-17
5997.00445 1.47723e-17
5998.49773 1.46101e-17
6000.00103 1.45523e-17
6001.50433 1.45285e-17
6002.99760 1.44541e-17
6004.50090 1.46062e-17
6006.00420 1.46362e-17
6007.49748 1.44411e-17
6009.00078 1.44165e-17
6010.50408 1.45558e-17
6011.99736 1.44586e-17
6013.50066 1.44089e-17
6015.00396 1.44159e-17
6016.49724 1.43065e-17
6018.00054 1.42096e-17
6019.50384 1.42947e-17
6020.99712 1.43682e-17
6022.50042 1.42106e-17
6024.00372 1.41439e-17
6025.49699 1.42215e-17
6027.00029 1.41635e-17
6028.50359 1.40736e-17
6029.99687 1.40093e-17
6031.50017 1.41232e-17
6033.00347 1.41698e-17
6034.49675 1.41652e-17
6036.00005 1.42287e-17
6037.50335 1.42442e-17
6038.99663 1.41556e-17
6040.49993 1.41005e-17
6042.00323 1.40816e-17
6043.49651 1.41798e-17
6044.99981 1.41489e-17
6046.50311 1.41181e-17
6047.99638 1.40871e-17
6049.49968 1.40720e-17
6051.00298 1.42258e-17
6052.49626 1.40120e-17
6053.99956 1.40711e-17
6055.50286 1.41634e-17
6056.99614 1.40858e-17
6058.49944 1.40618e-17
6060.00274 1.39977e-17
6061.49602 1.40581e-17
6062.99932 1.41493e-17
6064.50262 1.41337e-17
6065.99590 1.40779e-17
6067.49920 1.42527e-17
6069.00250 1.43202e-17
6070.49577 1.43247e-17
6071.99907 1.43851e-17
6073.50237 1.45274e-17
6074.99565 1.44352e-17
6076.49895 1.41421e-17
6078.00225 1.43426e-17
6079.49553 1.44731e-17
6080.99883 1.44271e-17
6082.50213 1.43286e-17
6083.99541 1.45544e-17
6085.49871 1.46862e-17
6087.00201 1.45344e-17
6088.49529 1.46545e-17
6089.99859 1.46327e-17
6091.50189 1.45258e-17
6092.99516 1.45006e-17
6094.49846 1.44888e-17
6096.00176 1.44969e-17
6097.49504 1.44824e-17
6098.99834 1.45246e-17
6100.50164 1.45903e-17
6101.99492 1.46617e-17
6103.49822 1.46405e-17
6105.00152 1.44458e-17
6106.50482 1.44149e-17
6107.99810 1.45605e-17
6109.50140 1.46258e-17
6111.00470 1.46109e-17
6112.49798 1.44978e-17
6114.00128 1.44514e-17
6115.50458 1.44761e-17
6116.99785 1.44129e-17
6118.50115 1.43453e-17
6120.00445 1.43935e-17
6121.49773 1.44109e-17
6123.00103 1.45510e-17
6124.50433 1.46141e-17
6125.99761 1.46124e-17
6127.50091 1.45614e-17
6129.00421 1.44331e-17
6130.49749 1.44884e-17
6132.00079 1.43747e-17
6133.50409 1.42930e-17
6134.99737 1.44703e-17
6136.50067 1.44071e-17
6138.00397 1.43362e-17
6139.49724 1.45417e-17
6141.00054 1.46653e-17
6142.50384 1.45590e-17
6143.99712 1.45268e-17
6145.50042 1.43800e-17
6147.00372 1.44349e-17
6148.49700 1.46304e-17
6150.00030 1.45801e-17
6151.50360 1.43466e-17
6152.99688 1.43027e-17
6154.50018 1.43745e-17
6156.00348 1.44137e-17
6157.49676 1.44537e-17
6159.00006 1.44246e-17
6160.50336 1.43679e-17
6161.99663 1.44608e-17
6163.49993 1.45819e-17
6165.00323 1.44936e-17
6166.49651 1.44732e-17
6167.99981 1.44186e-17
6169.50311 1.44222e-17
6170.99639 1.44532e-17
6172.49969 1.44843e-17
6174.00299 1.43098e-17
6175.49627 1.42457e-17
6176.99957 1.43594e-17
6178.50287 1.41821e-17
6179.99615 1.40300e-17
6181.49945 1.39936e-17
6183.00275 1.39045e-17
6184.49602 1.39893e-17
6185.99932 1.39603e-17
6187.50262 1.38079e-17
6188.99590 1.38329e-17
6190.49920 1.38464e-17
6192.00250 1.37623e-17
6193.49578 1.35998e-17
6194.99908 1.35369e-17
6196.50238 1.35483e-17
6197.99566 1.35327e-17
6199.49896 1.36752e-17
6201.00226 1.36253e-17
6202.49554 1.36497e-17
6203.99884 1.36331e-17
6205.50214 1.34312e-17
6206.99541 1.32374e-17
6208.49871 1.34462e-17
6210.00201 1.32137e-17
6211.49529 1.32680e-17
6212.99859 1.32888e-17
6214.50189 1.30451e-17
6215.99517 1.29808e-17
6217.49847 1.28106e-17
6219.00177 1.27596e-17
6220.49505 1.28455e-17
6221.99835 1.29930e-17
6223.50165 1.27887e-17
6224.99493 1.27447e-17
6226.49823 1.28942e-17
6228.00153 1.29303e-17
6229.50483 1.28232e-17
6230.99810 1.28559e-17
6232.50140 1.27183e-17
6234.00470 1.27024e-17
6235.49798 1.27212e-17
6237.00128 1.26189e-17
6238.50458 1.25719e-17
6239.99786 1.24870e-17
6241.50116 1.26787e-17
6243.00446 1.27552e-17
6244.49774 1.26478e-17
6246.00104 1.25581e-17
6247.50434 1.25807e-17
6248.99762 1.26614e-17
6250.50092 1.26569e-17
6252.00422 1.26023e-17
6253.49749 1.25862e-17
6255.00079 1.26818e-17
6256.50409 1.27258e-17
6257.99737 1.26895e-17
6259.50067 1.27705e-17
6261.00397 1.26675e-17
6262.49725 1.25422e-17
6264.00055 1.25934e-17
6265.50385 1.25350e-17
6266.99713 1.25346e-17
6268.50043 1.27238e-17
6270.00373 1.28783e-17
6271.49701 1.28425e-17
6273.00031 1.27600e-17
6274.50361 1.26486e-17
6275.99688 1.23636e-17
6277.50018 1.23971e-17
6279.00348 1.25041e-17
6280.49676 1.26181e-17
6282.00006 1.27367e-17
6283.50336 1.27981e-17
6284.99664 1.25822e-17
6286.49994 1.26324e-17
6288.00324 1.27748e-17
6289.49652 1.26396e-17
6290.99982 1.28838e-17
6292.50312 1.29271e-17
6293.99640 1.28093e-17
6295.49970 1.29677e-17
6297.00300 1.29825e-17
6298.49627 1.27779e-17
6299.99957 1.26012e-17
6301.50287 1.28111e-17
6302.99615 1.30855e-17
6304.49945 1.29903e-17
6306.00275 1.29346e-17
6307.49603 1.29616e-17
6308.99933 1.29502e-17
6310.50263 1.29312e-17
6311.99591 1.29862e-17
6313.49921 1.31384e-17
6315.00251 1.31495e-17
6316.49579 1.31061e-17
6317.99909 1.30611e-17
6319.50239 1.29458e-17
6320.99566 1.29217e-17
6322.49896 1.31484e-17
6324.00226 1.32971e-17
6325.49554 1.31049e-17
6326.99884 1.30699e-17
6328.50214 1.30885e-17
6329.99542 1.29931e-17
6331.49872 1.30747e-17
6333.00202 1.30377e-17
6334.49530 1.30065e-17
6335.99860 1.33425e-17
6337.50190 1.33626e-17
6338.99518 1.33384e-17
6340.49848 1.33357e-17
6342.00178 1.32374e-17
6343.49505 1.32582e-17
6344.99835 1.35124e-17
6346.50165 1.37401e-17
6347.99493 1.37308e-17
6349.49823 1.36208e-17
6351.00153 1.36062e-17
6352.50483 1.38175e-17
6353.99811 1.37472e-17
6355.50141 1.35337e-17
6357.00471 1.34756e-17
6358.49799 1.34070e-17
6360.00129 1.36809e-17
6361.50459 1.38190e-17
6362.99787 1.34340e-17
6364.50117 1.34056e-17
6366.00447 1.37175e-17
6367.49774 1.35347e-17
6369.00104 1.36172e-17
6370.50434 1.36801e-17
6371.99762 1.35065e-17
6373.50092 1.38326e-17
6375.00422 1.39175e-17
6376.49750 1.38131e-17
6378.00080 1.37188e-17
6379.50410 1.38580e-17
6380.99738 1.39267e-17
6382.50068 1.39698e-17
6384.00398 1.39131e-17
6385.49726 1.39723e-17
6387.00056 1.40230e-17
6388.50386 1.40074e-17
6389.99713 1.40858e-17
6391.50043 1.41725e-17
6393.00373 1.41459e-17
6394.49701 1.41805e-17
6396.00031 1.43057e-17
6397.50361 1.43020e-17
6398.99689 1.41760e-17
6400.50019 1.41265e-17
6402.00349 1.42594e-17
6403.49677 1.42763e-17
6405.00007 1.41898e-17
6406.50337 1.41537e-17
6407.99665 1.43166e-17
6409.49995 1.42808e-17
6411.00325 1.43577e-17
6412.49652 1.42634e-17
6413.99982 1.41744e-17
6415.50312 1.41958e-17
6416.99640 1.43978e-17
6418.49970 1.43713e-17
6420.00300 1.43256e-17
6421.49628 1.43075e-17
6422.99958 1.45282e-17
6424.50288 1.44889e-17
6425.99616 1.43826e-17
6427.49946 1.44417e-17
6429.00276 1.44590e-17
6430.49604 1.44716e-17
6431.99934 1.44968e-17
6433.50264 1.45238e-17
6434.99591 1.45920e-17
6436.49921 1.43960e-17
6438.00251 1.45078e-17
6439.49579 1.45319e-17
6440.99909 1.46094e-17
6442.50239 1.46046e-17
6443.99567 1.46281e-17
6445.49897 1.44760e-17
6447.00227 1.43417e-17
6448.49555 1.44947e-17
6449.99885 1.45435e-17
6451.50215 1.44857e-17
6452.99543 1.45432e-17
6454.49873 1.45824e-17
6456.00203 1.46385e-17
6457.49530 1.46454e-17
6458.99860 1.44924e-17
6460.50190 1.44234e-17
6461.99518 1.45899e-17
6463.49848 1.46653e-17
6465.00178 1.45368e-17
6466.49506 1.45728e-17
6467.99836 1.46088e-17
6469.50166 1.44537e-17
6470.99494 1.43878e-17
6472.49824 1.44589e-17
6474.00154 1.45760e-17
6475.50484 1.45358e-17
6476.99812 1.44370e-17
6478.50142 1.45344e-17
6480.00472 1.45888e-17
6481.49799 1.44148e-17
6483.00129 1.44581e-17
6484.50459 1.45238e-17
6485.99787 1.44693e-17
6487.50117 1.43406e-17
6489.00447 1.44617e-17
6490.49775 1.45305e-17
6492.00105 1.44617e-17
6493.50435 1.44407e-17
6494.99763 1.46098e-17
6496.50093 1.46868e-17
6498.00423 1.46244e-17
6499.49751 1.46282e-17
6501.00081 1.45512e-17
6502.50411 1.46392e-17
6503.99738 1.46437e-17
6505.50068 1.46297e-17
6507.00398 1.48115e-17
6508.49726 1.48991e-17
6510.00056 1.46815e-17
6511.50386 1.46756e-17
6512.99714 1.47872e-17
6514.50044 1.47185e-17
6516.00374 1.46955e-17
6517.49702 1.46512e-17
6519.00032 1.46333e-17
6520.50362 1.45422e-17
6521.99690 1.44988e-17
6523.50020 1.46071e-17
6525.00350 1.46703e-17
6526.49677 1.46565e-17
6528.00007 1.46206e-17
6529.50337 1.45686e-17
6530.99665 1.46352e-17
6532.49995 1.47132e-17
6534.00325 1.47096e-17
6535.49653 1.47335e-17
6536.99983 1.48319e-17
6538.50313 1.48655e-17
6539.99641 1.48153e-17
6541.49971 1.47027e-17
6543.00301 1.46266e-17
6544.49629 1.46458e-17
6545.99959 1.45519e-17
6547.50289 1.45180e-17
6548.99616 1.45492e-17
6550.49946 1.46718e-17
6552.00276 1.46981e-17
6553.49604 1.45255e-17
6554.99934 1.45499e-17
6556.50264 1.46796e-17
6557.99592 1.46047e-17
6559.49922 1.45743e-17
6561.00252 1.45991e-17
6562.49580 1.46051e-17
6563.99910 1.45796e-17
6565.50240 1.44433e-17
6566.99568 1.44145e-17
6568.49898 1.45326e-17
6570.00228 1.43434e-17
6571.49555 1.44475e-17
6572.99885 1.46478e-17
6574.50215 1.45172e-17
6575.99543 1.45050e-17
6577.49873 1.45413e-17
6579.00203 1.45540e-17
6580.49531 1.47410e-17
6581.99861 1.45676e-17
6583.50191 1.42114e-17
6584.99519 1.43001e-17
6586.49849 1.44108e-17
6588.00179 1.44178e-17
6589.49507 1.42824e-17
6590.99837 1.43041e-17
6592.50167 1.45315e-17
6593.99494 1.44336e-17
6595.49824 1.43618e-17
6597.00154 1.44938e-17
6598.50484 1.45243e-17
6599.99812 1.43982e-17
6601.50142 1.43158e-17
6603.00472 1.43263e-17
6604.49800 1.43197e-17
6606.00130 1.42509e-17
6607.50460 1.42355e-17
6608.99788 1.43000e-17
6610.50118 1.42459e-17
6612.00448 1.43155e-17
6613.49776 1.43081e-17
6615.00106 1.42417e-17
6616.50436 1.42839e-17
6617.99763 1.43068e-17
6619.50093 1.41589e-17
6621.00423 1.42048e-17
6622.49751 1.41329e-17
6624.00081 1.41278e-17
6625.50411 1.41955e-17
6626.99739 1.40162e-17
6628.50069 1.40276e-17
6630.00399 1.39605e-17
6631.49727 1.41228e-17
6633.00057 1.39944e-17
6634.50387 1.39423e-17
6635.99715 1.39063e-17
6637.50045 1.37691e-17
6639.00375 1.38097e-17
6640.49702 1.38791e-17
6642.00032 1.37398e-17
6643.50362 1.37810e-17
6644.99690 1.37180e-17
6646.50020 1.37178e-17
6648.00350 1.37907e-17
6649.49678 1.38720e-17
6651.00008 1.37567e-17
6652.50338 1.36016e-17
6653.99666 1.35159e-17
6655.49996 1.36399e-17
6657.00326 1.35403e-17
6658.49654 1.34342e-17
6659.99984 1.34421e-17
6661.50314 1.34559e-17
6662.99641 1.35053e-17
6664.49971 1.34366e-17
6666.00301 1.33228e-17
6667.49629 1.33377e-17
6668.99959 1.33590e-17
6670.50289 1.32526e-17
6671.99617 1.33231e-17
6673.49947 1.33732e-17
6675.00277 1.33477e-17
6676.49605 1.33510e-17
6677.99935 1.33477e-17
6679.50265 1.33212e-17
6680.99593 1.32724e-17
6682.49923 1.31458e-17
6684.00253 1.31090e-17
6685.49580 1.31219e-17
6686.99910 1.30988e-17
6688.50240 1.30152e-17
6689.99568 1.30180e-17
6691.49898 1.30129e-17
6693.00228 1.29742e-17
6694.49556 1.30550e-17
6695.99886 1.30590e-17
6697.50216 1.28436e-17
6698.99544 1.28629e-17
6700.49874 1.31400e-17
6702.00204 1.30691e-17
6703.49532 1.29136e-17
6704.99862 1.28898e-17
6706.50192 1.29582e-17
6707.99519 1.30712e-17
6709.49849 1.32208e-17
6711.00179 1.29653e-17
6712.49507 1.28118e-17
6713.99837 1.30054e-17
6715.50167 1.29478e-17
6716.99495 1.29789e-17
6718.49825 1.29989e-17
6720.00155 1.30203e-17
6721.50485 1.28886e-17
6722.99813 1.27336e-17
6724.50143 1.28222e-17
6726.00473 1.28606e-17
6727.49801 1.28803e-17
6729.00131 1.28661e-17
6730.50461 1.27608e-17
6731.99788 1.27255e-17
6733.50118 1.27191e-17
6735.00448 1.28208e-17
6736.49776 1.28788e-17
6738.00106 1.27564e-17
6739.50436 1.27013e-17
6740.99764 1.26701e-17
6742.50094 1.27387e-17
6744.00424 1.27707e-17
6745.49752 1.27040e-17
6747.00082 1.26141e-17
6748.50412 1.26003e-17
6749.99740 1.26076e-17
6751.50070 1.25625e-17
6753.00400 1.25625e-17
6754.49727 1.25531e-17
6756.00057 1.25413e-17
6757.50387 1.26009e-17
6758.99715 1.26797e-17
6760.50045 1.26057e-17
6762.00375 1.24535e-17
6763.49703 1.25187e-17
6765.00033 1.25574e-17
6766.50363 1.24646e-17
6767.99691 1.23470e-17
6769.50021 1.24471e-17
6771.00351 1.24055e-17
6772.49679 1.23425e-17
6774.00009 1.23760e-17
6775.50339 1.22115e-17
6776.99666 1.21723e-17
6778.49996 1.22643e-17
6780.00326 1.21902e-17
6781.49654 1.20354e-17
6782.99984 1.19883e-17
6784.50314 1.19271e-17
6785.99642 1.19267e-17
6787.49972 1.19494e-17
6789.00302 1.18570e-17
6790.49630 1.17785e-17
6791.99960 1.16603e-17
6793.50290 1.17125e-17
6794.99618 1.17298e-17
6796.49948 1.15454e-17
6798.00278 1.15682e-17
6799.49605 1.15947e-17
6800.99935 1.17605e-17
6802.50265 1.17565e-17
6803.99593 1.15577e-17
6805.49923 1.13941e-17
6807.00253 1.14066e-17
6808.49581 1.15124e-17
6809.99911 1.15294e-17
6811.50241 1.16269e-17
6812.99569 1.16307e-17
6814.49899 1.15685e-17
6816.00229 1.14877e-17
6817.49557 1.13823e-17
6818.99887 1.14112e-17
6820.50217 1.14708e-17
6821.99544 1.15613e-17
6823.49874 1.14605e-17
6825.00204 1.13694e-17
6826.49532 1.14136e-17
6827.99862 1.14405e-17
6829.50192 1.12869e-17
6830.99520 1.11503e-17
6832.49850 1.12618e-17
6834.00180 1.13392e-17
6835.49508 1.13447e-17
6836.99838 1.14105e-17
6838.50168 1.14763e-17
6839.99496 1.14190e-17
6841.49826 1.13488e-17
6843.00156 1.14856e-17
6844.50486 1.16539e-17
6845.99813 1.16494e-17
6847.50143 1.16448e-17
6849.00473 1.16403e-17
6850.49801 1.16357e-17
6852.00131 1.16312e-17
6853.50461 1.16267e-17
6854.99789 1.16221e-17
6856.50119 1.16176e-17
6858.00449 1.16130e-17
6859.49777 1.16085e-17
6861.00107 1.16039e-17
6862.50437 1.15994e-17
6863.99765 1.15949e-17
6865.50095 1.15903e-17
6867.00425 1.15858e-17
6868.49752 1.15812e-17
6870.00082 1.15767e-17
6871.50412 1.15722e-17
6872.99740 1.15676e-17
6874.50070 1.15631e-17
6876.00400 1.15585e-17
6877.49728 1.15540e-17
6879.00058 1.15495e-17
6880.50388 1.15449e-17
6881.99716 1.15404e-17
6883.50046 1.15359e-17
6885.00376 1.15313e-17
6886.49704 1.15268e-17
6888.00034 1.15222e-17
6889.50364 1.15177e-17
6890.99691 1.15132e-17
6892.50021 1.15086e-17
6894.00351 1.15041e-17
6895.49679 1.14996e-17
6897.00009 1.14950e-17
6898.50339 1.14905e-17
6899.99667 1.14860e-17
6901.49997 1.14814e-17
6903.00327 1.14769e-17
6904.49655 1.14724e-17
6905.99985 1.14678e-17
6907.50315 1.14633e-17
6908.99643 1.14588e-17
6910.49973 1.14542e-17
6912.00303 1.14497e-17
6913.49630 1.14452e-17
6914.99960 1.14406e-17
6916.50290 1.14361e-17
6917.99618 1.14316e-17
6919.49948 1.14271e-17
6921.00278 1.14225e-17
6922.49606 1.14180e-17
6923.99936 1.14135e-17
6925.50266 1.14089e-17
6926.99594 1.14044e-17
6928.49924 1.13999e-17
6930.00254 1.13954e-17
6931.49582 1.13908e-17
6932.99912 1.13863e-17
6934.50242 1.13818e-17
6935.99569 1.13772e-17
6937.49899 1.14842e-17
6939.00229 1.15593e-17
6940.49557 1.13538e-17
6941.99887 1.12078e-17
6943.50217 1.12169e-17
6944.99545 1.15447e-17
6946.49875 1.15300e-17
6948.00205 1.13785e-17
6949.49533 1.14799e-17
6950.99863 1.15150e-17
6952.50193 1.16189e-17
6953.99521 1.16057e-17
6955.49851 1.14027e-17
6957.00181 1.12841e-17
6958.50511 1.13944e-17
6959.99838 1.15856e-17
6961.50168 1.16087e-17
6962.99496 1.15247e-17
6964.49826 1.15280e-17
6966.00156 1.14718e-17
6967.50486 1.13931e-17
6968.99814 1.16118e-17
6970.50144 1.16727e-17
6972.00474 1.14980e-17
6973.49802 1.14971e-17
6975.00132 1.14899e-17
6976.50462 1.14763e-17
6977.99790 1.15323e-17
6979.50120 1.16085e-17
6981.00450 1.14781e-17
6982.49777 1.13649e-17
6984.00107 1.14127e-17
6985.50437 1.14949e-17
6986.99765 1.12748e-17
6988.50095 1.12320e-17
6990.00425 1.13939e-17
6991.49753 1.12890e-17
6993.00083 1.13342e-17
6994.50413 1.12677e-17
6995.99741 1.11965e-17
6997.50071 1.12647e-17
6999.00401 1.11647e-17
7000.49729 1.11533e-17
7002.00059 1.13039e-17
7003.50389 1.13125e-17
7004.99716 1.12134e-17
7006.50046 1.10845e-17
7008.00376 1.11124e-17
7009.49704 1.12509e-17
7011.00034 1.10746e-17
7012.50364 1.10733e-17
7013.99692 1.11154e-17
7015.50022 1.11416e-17
7017.00352 1.10822e-17
7018.49680 1.10133e-17
7020.00010 1.09572e-17
7021.50340 1.10233e-17
7022.99668 1.11922e-17
7024.49998 1.12389e-17
7026.00328 1.11818e-17
7027.49655 1.10735e-17
7028.99985 1.10718e-17
7030.50315 1.11251e-17
7031.99643 1.11689e-17
7033.49973 1.10783e-17
7035.00303 1.10482e-17
7036.49631 1.11813e-17
7037.99961 1.11548e-17
7039.50291 1.08960e-17
7040.99619 1.08469e-17
7042.49949 1.09092e-17
7044.00279 1.09240e-17
7045.49607 1.09331e-17
7046.99937 1.08846e-17
7048.50267 1.08053e-17
7049.99594 1.07202e-17
7051.49924 1.07392e-17
7053.00254 1.08536e-17
7054.49582 1.09747e-17
7055.99912 1.08270e-17
7057.50242 1.07630e-17
7058.99570 1.09006e-17
7060.49900 1.09429e-17
7062.00230 1.07435e-17
7063.49558 1.08724e-17
7064.99888 1.07527e-17
7066.50218 1.07265e-17
7067.99546 1.07295e-17
7069.49876 1.07985e-17
7071.00206 1.07730e-17
7072.49533 1.07981e-17
7073.99863 1.08424e-17
7075.50193 1.07743e-17
7076.99521 1.05117e-17
7078.49851 1.07766e-17
7080.00181 1.08166e-17
7081.50511 1.07798e-17
7082.99839 1.07795e-17
7084.50169 1.08933e-17
7085.99497 1.08512e-17
7087.49827 1.09779e-17
7089.00157 1.07478e-17
7090.50487 1.06654e-17
7091.99815 1.09041e-17
7093.50145 1.10669e-17
7095.00475 1.10441e-17
7096.49802 1.09409e-17
7098.00132 1.09432e-17
7099.50462 1.09416e-17
7100.99790 1.07561e-17
7102.50120 1.06814e-17
7104.00450 1.06481e-17
7105.49778 1.07476e-17
7107.00108 1.07465e-17
7108.50438 1.06040e-17
7109.99766 1.05903e-17
7111.50096 1.07442e-17
7113.00426 1.08316e-17
7114.49754 1.07945e-17
7116.00084 1.07694e-17
7117.50414 1.07628e-17
7118.99741 1.07003e-17
7120.50071 1.07768e-17
7122.00401 1.09185e-17
7123.49729 1.09558e-17
7125.00059 1.08186e-17
7126.50389 1.09678e-17
7127.99717 1.08828e-17
7129.50047 1.07769e-17
7131.00377 1.08355e-17
7132.49705 1.07853e-17
7134.00035 1.07076e-17
7135.50365 1.09216e-17
7136.99693 1.09157e-17
7138.50023 1.06971e-17
7140.00353 1.05657e-17
7141.49680 1.05303e-17
7143.00010 1.07788e-17
7144.50340 1.07751e-17
7145.99668 1.05865e-17
7147.49998 1.05876e-17
7149.00328 1.07658e-17
7150.49656 1.07577e-17
7151.99986 1.07322e-17
7153.50316 1.06981e-17
7154.99644 1.06209e-17
7156.49974 1.06212e-17
7158.00304 1.06279e-17
7159.49632 1.07365e-17
7160.99962 1.06848e-17
7162.50292 1.06699e-17
7163.99619 1.08127e-17
7165.49949 1.07754e-17
7167.00279 1.04926e-17
7168.49607 1.04369e-17
7169.99937 1.04151e-17
7171.50267 1.04152e-17
7172.99595 1.03884e-17
7174.49925 1.04070e-17
7176.00255 1.04256e-17
7177.49583 1.04442e-17
7178.99913 1.04627e-17
7180.50243 1.04623e-17
7181.99571 1.05288e-17
7183.49901 1.05010e-17
7185.00231 1.03367e-17
7186.49558 1.03201e-17
7187.99888 1.04016e-17
7189.50218 1.05515e-17
7190.99546 1.06432e-17
7192.49876 1.06684e-17
7194.00206 1.05682e-17
7195.49534 1.05922e-17
7196.99864 1.06962e-17
7198.50194 1.05826e-17
7199.99522 1.04074e-17
7201.49852 1.04972e-17
7203.00182 1.04339e-17
7204.50512 1.04534e-17
7205.99840 1.05179e-17
7207.50170 1.04270e-17
7208.99497 1.06658e-17
7210.49827 1.07393e-17
7212.00157 1.06123e-17
7213.50487 1.06722e-17
7214.99815 1.09015e-17
7216.50145 1.07068e-17
7218.00475 1.03491e-17
7219.49803 1.03649e-17
7221.00133 1.05207e-17
7222.50463 1.07096e-17
7223.99791 1.06879e-17
7225.50121 1.05326e-17
7227.00451 1.03357e-17
7228.49779 1.03995e-17
7230.00109 1.05004e-17
7231.50439 1.03884e-17
7232.99766 1.02655e-17
7234.50096 1.04236e-17
7236.00426 1.04859e-17
7237.49754 1.04428e-17
7239.00084 1.04098e-17
7240.50414 1.03856e-17
7241.99742 1.01905e-17
7243.50072 1.00962e-17
7245.00402 1.02800e-17
7246.49730 1.02940e-17
7248.00060 1.00982e-17
7249.50390 9.98337e-18
7250.99718 1.00630e-17
7252.50048 1.02066e-17
7254.00378 1.02950e-17
7255.49705 1.04556e-17
7257.00035 1.05515e-17
7258.50365 1.04732e-17
7259.99693 1.05392e-17
7261.50023 1.07340e-17
7263.00353 1.06112e-17
7264.49681 1.01687e-17
7266.00011 1.00964e-17
7267.50341 1.03305e-17
7268.99669 1.03290e-17
7270.49999 9.97150e-18
7272.00329 9.90170e-18
7273.49657 9.98845e-18
7274.99987 9.97001e-18
7276.50317 9.94637e-18
7277.99644 9.72311e-18
7279.49974 9.72367e-18
7281.00304 1.00912e-17
7282.49632 1.02666e-17
7283.99962 1.03270e-17
7285.50292 1.04252e-17
7286.99620 9.88396e-18
7288.49950 9.55573e-18
7290.00280 9.60900e-18
7291.49608 9.69913e-18
7292.99938 9.80157e-18
7294.50268 9.82928e-18
7295.99596 9.88073e-18
7297.49926 9.80522e-18
7299.00256 9.63029e-18
7300.49583 9.64497e-18
7301.99913 9.85175e-18
7303.50243 9.69715e-18
7304.99571 9.46608e-18
7306.49901 9.49550e-18
7308.00231 9.46569e-18
7309.49559 9.40776e-18
7310.99889 9.48113e-18
7312.50219 9.52456e-18
7313.99547 9.53142e-18
7315.49877 9.62374e-18
7317.00207 9.65647e-18
7318.49535 9.40931e-18
7319.99865 9.18374e-18
7321.50195 9.22763e-18
7322.99522 9.22767e-18
7324.49852 9.11533e-18
7326.00182 9.29459e-18
7327.50512 9.55108e-18
7328.99840 9.32718e-18
7330.50170 9.15449e-18
7331.99498 9.09310e-18
7333.49828 9.03882e-18
7335.00158 9.02899e-18
7336.50488 9.00488e-18
7337.99816 9.09338e-18
7339.50146 9.07287e-18
7341.00476 9.03062e-18
7342.49804 9.21213e-18
7344.00134 9.11305e-18
7345.50464 8.74036e-18
7346.99791 8.61923e-18
7348.50121 8.76617e-18
7350.00451 8.63491e-18
7351.49779 8.67788e-18
7353.00109 8.67894e-18
7354.50439 8.85077e-18
7355.99767 8.78204e-18
7357.50097 8.53710e-18
7359.00427 8.41216e-18
7360.49755 8.61324e-18
7362.00085 8.58910e-18
7363.50415 8.47426e-18
7364.99743 8.45999e-18
7366.50073 8.30338e-18
7368.00403 8.22294e-18
7369.49730 8.10298e-18
7371.00060 8.14512e-18
7372.50390 8.23884e-18
7373.99718 8.22508e-18
7375.50048 8.23917e-18
7377.00378 8.13118e-18
7378.49706 8.02809e-18
7380.00036 7.94009e-18
7381.50366 7.95092e-18
7382.99694 7.88289e-18
7384.50024 7.79299e-18
7386.00354 7.74866e-18
7387.49682 7.69771e-18
7389.00012 7.67740e-18
7390.50342 7.63390e-18
7391.99669 7.56425e-18
7393.49999 7.60938e-18
7395.00329 7.56415e-18
7396.49657 7.48265e-18
7397.99987 7.48463e-18
7399.50317 7.48076e-18
7400.99645 7.46443e-18
7402.49975 7.34051e-18
7404.00305 7.34508e-18
7405.49633 7.31293e-18
7406.99963 7.12799e-18
7408.50293 7.01831e-18
7409.99621 6.99741e-18
7411.49951 7.00125e-18
7413.00281 6.97377e-18
7414.49608 6.88142e-18
7415.99938 6.95731e-18
7417.50268 6.89850e-18
7418.99596 6.87647e-18
7420.49926 6.78292e-18
7422.00256 6.80633e-18
7423.49584 6.63943e-18
7424.99914 6.65504e-18
7426.50244 6.65884e-18
7427.99572 6.59127e-18
7429.49902 6.69499e-18
7431.00232 6.69417e-18
7432.49560 6.65667e-18
7433.99890 6.63313e-18
7435.50220 6.50803e-18
7436.99547 6.57834e-18
7438.49877 6.52155e-18
7440.00207 6.36642e-18
7441.49535 6.33384e-18
7442.99865 6.22426e-18
7444.50195 6.11553e-18
7445.99523 6.17800e-18
7447.49853 6.17124e-18
7449.00183 6.13588e-18
7450.50513 6.12568e-18
7451.99841 6.15752e-18
7453.50171 6.03712e-18
7454.99499 5.90116e-18
7456.49829 5.93053e-18
7458.00159 5.86040e-18
7459.49486 5.78689e-18
7460.99816 5.71050e-18
7462.50146 5.75824e-18
7464.00476 5.77297e-18
7465.49804 5.71373e-18
7467.00134 5.77549e-18
7468.50464 5.76578e-18
7469.99792 5.70432e-18
7471.50122 5.69141e-18
7473.00452 5.61851e-18
7474.49780 5.56717e-18
7476.00110 5.55690e-18
7477.50440 5.55707e-18
7478.99768 5.53199e-18
7480.50098 5.55972e-18
7482.00428 5.52324e-18
7483.49755 5.40177e-18
7485.00085 5.34234e-18
7486.50415 5.29545e-18
7487.99743 5.45655e-18
7489.50073 5.50625e-18
7491.00403 5.42571e-18
7492.49731 5.26583e-18
7494.00061 5.12851e-18
7495.50391 5.21710e-18
7496.99719 5.20664e-18
7498.50049 5.16738e-18
7500.00379 5.15697e-18
7501.49707 5.08016e-18
7503.00037 4.97619e-18
7504.50367 4.99543e-18
7505.99694 4.97011e-18
7507.50024 4.92462e-18
7509.00354 4.92894e-18
7510.49682 4.89722e-18
7512.00012 4.78146e-18
7513.50342 4.70602e-18
7514.99670 4.74330e-18
7516.50000 4.69623e-18
7518.00330 4.62015e-18
7519.49658 4.57487e-18
7520.99988 4.47108e-18
7522.50318 4.58365e-18
7523.99646 4.59148e-18
7525.49976 4.53733e-18
7527.00306 4.44849e-18
7528.49633 4.41026e-18
7529.99963 4.37815e-18
7531.50293 4.37174e-18
7532.99621 4.32826e-18
7534.49951 4.26211e-18
7536.00281 4.24057e-18
7537.49609 4.23386e-18
7538.99939 4.27733e-18
7540.50269 4.15077e-18
