# wavelength flux
3719.99603 4.03635e-18
3721.49933 3.70979e-18
3723.00263 4.11618e-18
3724.49590 4.12512e-18
3725.99920 3.99281e-18
3727.50250 3.81271e-18
3728.99578 3.88306e-18
3730.49908 3.78769e-18
3732.00238 3.67620e-18
3733.49566 3.76590e-18
3734.99896 3.70965e-18
3736.50226 3.65722e-18
3737.99554 3.91463e-18
3739.49884 3.78734e-18
3741.00214 3.55369e-18
3742.49542 3.50939e-18
3743.99872 3.57354e-18
3745.50202 3.90171e-18
3746.99529 3.94776e-18
3748.49859 3.78637e-18
3750.00189 3.83676e-18
3751.49517 3.87271e-18
3752.99847 4.06233e-18
3754.50177 4.05678e-18
3755.99505 3.85893e-18
3757.49835 3.87747e-18
3759.00165 3.69309e-18
3760.50495 3.71167e-18
3761.99823 3.64213e-18
3763.50153 3.22732e-18
3765.00483 3.38206e-18
3766.49811 3.51378e-18
3768.00141 3.98153e-18
3769.50471 3.81452e-18
3770.99798 3.71281e-18
3772.50128 3.56165e-18
3774.00458 3.37749e-18
3775.49786 3.70084e-18
3777.00116 3.63675e-18
3778.50446 3.52747e-18
3779.99774 3.41252e-18
3781.50104 3.40867e-18
3783.00434 3.49413e-18
3784.49762 3.23509e-18
3786.00092 3.60877e-18
3787.50422 3.38000e-18
3788.99750 3.32461e-18
3790.50080 3.39565e-18
3792.00410 3.61931e-18
3793.49737 3.64646e-18
3795.00067 3.53993e-18
3796.50397 3.57255e-18
3797.99725 3.55750e-18
3799.50055 3.66676e-18
3801.00385 3.71286e-18
3802.49713 3.58359e-18
3804.00043 3.47930e-18
3805.50373 3.81186e-18
3806.99701 3.75077e-18
3808.50031 3.48257e-18
3810.00361 3.51799e-18
3811.49689 3.54312e-18
3813.00019 3.49910e-18
3814.50349 3.41026e-18
3815.99676 3.47533e-18
3817.50006 3.65769e-18
3819.00336 3.83857e-18
3820.49664 3.91010e-18
3821.99994 3.79395e-18
3823.50324 3.87465e-18
3824.99652 4.01880e-18
3826.49982 3.81228e-18
3828.00312 3.78720e-18
3829.49640 3.82647e-18
3830.99970 3.79730e-18
3832.50300 3.93502e-18
3833.99628 3.83743e-18
3835.49958 3.91799e-18
3837.00288 4.11517e-18
3838.49615 4.30995e-18
3839.99945 4.13882e-18
3841.50275 4.07681e-18
3842.99603 4.22145e-18
3844.49933 4.43886e-18
3846.00263 4.31964e-18
3847.49591 4.18964e-18
3848.99921 4.22674e-18
3850.50251 4.67002e-18
3851.99579 4.62916e-18
3853.49909 4.75711e-18
3855.00239 4.43881e-18
3856.49567 4.54301e-18
3857.99897 4.62807e-18
3859.50227 4.78603e-18
3860.99554 4.85480e-18
3862.49884 4.91551e-18
3864.00214 4.77198e-18
3865.49542 4.65127e-18
3866.99872 4.80542e-18
3868.50202 5.04930e-18
3869.99530 5.38007e-18
3871.49860 5.41772e-18
3873.00190 5.34942e-18
3874.49518 5.57723e-18
3875.99848 5.57960e-18
3877.50178 5.52334e-18
3878.99506 5.65957e-18
3880.49836 5.69415e-18
3882.00166 5.66765e-18
3883.50496 5.58943e-18
3884.99823 5.69916e-18
3886.50153 5.92076e-18
3888.00483 5.88092e-18
3889.49811 5.81572e-18
3891.00141 5.99701e-18
3892.50471 6.07558e-18
3893.99799 5.90814e-18
3895.50129 5.89205e-18
3897.00459 5.90237e-18
3898.49787 5.90443e-18
3900.00117 5.91917e-18
3901.50447 6.11422e-18
3902.99775 6.26944e-18
3904.50105 6.14905e-18
3906.00435 6.23599e-18
3907.49762 6.37244e-18
3909.00092 6.40475e-18
3910.50422 6.49186e-18
3911.99750 6.40554e-18
3913.50080 6.39500e-18
3915.00410 6.80785e-18
3916.49738 6.39747e-18
3918.00068 6.47619e-18
3919.50398 6.71391e-18
3920.99726 6.74255e-18
3922.50056 6.18082e-18
3924.00386 6.42582e-18
3925.49714 6.45915e-18
3927.00044 6.49002e-18
3928.50374 6.56361e-18
3929.99701 6.39777e-18
3931.50031 6.28731e-18
3933.00361 6.40192e-18
3934.49689 6.48032e-18
3936.00019 6.74934e-18
3937.50349 6.70869e-18
3938.99677 6.72028e-18
3940.50007 6.66155e-18
3942.00337 6.71837e-18
3943.49665 6.67193e-18
3944.99995 6.80959e-18
3946.50325 6.98179e-18
3947.99653 7.00391e-18
3949.49983 6.94543e-18
3951.00313 6.84311e-18
3952.49640 7.00288e-18
3953.99970 7.18545e-18
3955.50300 7.18113e-18
3956.99628 7.17521e-18
3958.49958 7.21241e-18
3960.00288 7.15655e-18
3961.49616 7.24378e-18
3962.99946 7.33765e-18
3964.50276 7.36933e-18
3965.99604 7.36171e-18
3967.49934 7.18472e-18
3969.00264 7.09122e-18
3970.49592 7.17005e-18
3971.99922 7.15149e-18
3973.50252 7.11546e-18
3974.99579 7.18694e-18
3976.49909 7.29789e-18
3978.00239 7.03403e-18
3979.49567 7.16111e-18
3980.99897 7.34720e-18
3982.50227 7.02117e-18
3983.99555 7.18771e-18
3985.49885 7.49898e-18
3987.00215 7.42319e-18
3988.49543 7.35499e-18
3989.99873 7.43521e-18
3991.50203 7.64264e-18
3992.99531 7.55575e-18
3994.49861 7.41094e-18
3996.00191 7.58072e-18
3997.49518 7.52776e-18
3998.99848 7.11116e-18
4000.50178 7.20926e-18
4001.99506 7.31755e-18
4003.49836 7.45359e-18
4005.00166 7.37683e-18
4006.50496 7.51890e-18
4007.99824 7.59272e-18
4009.50154 7.48844e-18
4011.00484 7.37993e-18
4012.49812 7.48207e-18
4014.00142 7.41923e-18
4015.50472 7.50464e-18
4016.99800 7.62318e-18
4018.50130 7.53801e-18
4020.00460 7.54104e-18
4021.49787 7.57473e-18
4023.00117 7.37572e-18
4024.50447 7.30057e-18
4025.99775 7.28791e-18
4027.50105 7.29407e-18
4029.00435 7.12472e-18
4030.49763 7.07708e-18
4032.00093 7.16775e-18
4033.50423 7.08672e-18
4034.99751 7.07524e-18
4036.50081 6.97738e-18
4038.00411 6.99274e-18
4039.49739 7.17914e-18
4041.00069 7.22274e-18
4042.50399 7.15655e-18
4043.99726 7.15015e-18
4045.50056 6.93481e-18
4047.00386 6.81971e-18
4048.49714 6.70831e-18
4050.00044 7.01107e-18
4051.50374 7.07544e-18
4052.99702 7.05475e-18
4054.50032 7.06213e-18
4056.00362 7.05275e-18
4057.49690 6.93152e-18
4059.00020 6.76474e-18
4060.50350 6.85289e-18
4061.99678 6.91602e-18
4063.50008 6.83724e-18
4065.00338 6.73966e-18
4066.49665 6.63621e-18
4067.99995 7.00928e-18
4069.50325 6.91574e-18
4070.99653 6.73085e-18
4072.49983 6.68636e-18
4074.00313 6.81089e-18
4075.49641 6.78278e-18
4076.99971 6.69565e-18
4078.50301 6.96763e-18
4079.99629 7.07198e-18
4081.49959 6.73765e-18
4083.00289 6.57611e-18
4084.49617 6.61046e-18
4085.99947 6.50726e-18
4087.50277 6.58037e-18
4088.99604 6.50720e-18
4090.49934 6.49980e-18
4092.00264 6.75350e-18
4093.49592 6.75225e-18
4094.99922 6.75375e-18
4096.50252 6.86386e-18
4097.99580 6.78785e-18
4099.49910 6.67166e-18
4101.00240 6.65923e-18
4102.49568 6.74849e-18
4103.99898 6.68137e-18
4105.50228 6.70543e-18
4106.99556 6.73007e-18
4108.49886 6.68223e-18
4110.00216 6.73930e-18
4111.49543 6.74448e-18
4112.99873 6.83431e-18
4114.50203 6.96492e-18
4115.99531 6.77323e-18
4117.49861 6.58809e-18
4119.00191 6.63517e-18
4120.49519 6.49055e-18
4121.99849 6.35972e-18
4123.50179 6.54091e-18
4124.99507 6.78101e-18
4126.49837 6.95584e-18
4128.00167 6.85019e-18
4129.50497 6.99394e-18
4130.99825 6.68100e-18
4132.50155 6.71394e-18
4134.00485 6.87465e-18
4135.49812 6.75352e-18
4137.00142 6.69917e-18
4138.50472 6.88449e-18
4139.99800 6.82380e-18
4141.50130 6.80990e-18
4143.00460 6.74217e-18
4144.49788 6.68239e-18
4146.00118 6.89616e-18
4147.50448 6.94707e-18
4148.99776 6.74135e-18
4150.50106 6.82921e-18
4152.00436 6.73557e-18
4153.49764 6.81737e-18
4155.00094 6.78181e-18
4156.50424 6.87781e-18
4157.99751 6.84322e-18
4159.50081 6.87786e-18
4161.00411 6.99595e-18
4162.49739 7.00762e-18
4164.00069 6.87270e-18
4165.50399 6.86415e-18
4166.99727 6.89775e-18
4168.50057 6.94138e-18
4170.00387 6.98205e-18
4171.49715 6.89494e-18
4173.00045 6.94613e-18
4174.50375 6.95145e-18
4175.99703 7.05580e-18
4177.50033 7.04972e-18
4179.00363 6.92091e-18
4180.49690 7.00828e-18
4182.00020 7.10843e-18
4183.50350 7.13618e-18
4184.99678 7.19589e-18
4186.50008 7.30384e-18
4188.00338 7.19747e-18
4189.49666 7.17368e-18
4190.99996 7.14892e-18
4192.50326 7.15201e-18
4193.99654 7.11123e-18
4195.49984 7.26893e-18
4197.00314 7.26372e-18
4198.49642 7.43448e-18
4199.99972 7.48899e-18
4201.50302 7.63695e-18
4202.99629 7.66714e-18
4204.49959 7.32359e-18
4206.00289 7.46866e-18
4207.49617 7.40050e-18
4208.99947 7.31246e-18
4210.50277 7.37447e-18
4211.99605 7.50611e-18
4213.49935 7.64497e-18
4215.00265 7.44720e-18
4216.49593 7.37860e-18
4217.99923 7.69954e-18
4219.50253 7.77844e-18
4220.99581 7.52483e-18
4222.49911 7.50883e-18
4224.00241 7.70399e-18
4225.49568 7.76992e-18
4226.99898 7.83847e-18
4228.50228 7.67282e-18
4229.99556 7.74112e-18
4231.49886 7.90532e-18
4233.00216 7.81955e-18
4234.49544 7.58014e-18
4235.99874 7.62084e-18
4237.50204 7.93102e-18
4238.99532 8.03251e-18
4240.49862 7.91741e-18
4242.00192 7.73759e-18
4243.49520 7.83581e-18
4244.99850 8.01055e-18
4246.50180 8.02735e-18
4247.99507 8.05978e-18
4249.49837 7.99382e-18
4251.00167 7.80547e-18
4252.50497 7.90760e-18
4253.99825 8.06742e-18
4255.50155 8.12419e-18
4257.00485 7.92329e-18
4258.49813 7.82514e-18
4260.00143 7.95629e-18
4261.50473 8.06077e-18
4262.99801 8.03473e-18
4264.50131 8.05588e-18
4266.00461 8.13201e-18
4267.49789 8.04648e-18
4269.00119 8.05885e-18
4270.50449 7.98246e-18
4271.99776 7.86810e-18
4273.50106 8.09135e-18
4275.00436 8.01047e-18
4276.49764 8.04246e-18
4278.00094 8.30201e-18
4279.50424 8.00246e-18
4280.99752 7.90759e-18
4282.50082 8.38290e-18
4284.00412 8.47279e-18
4285.49740 8.38018e-18
4287.00070 8.14146e-18
4288.50400 8.20099e-18
4289.99728 8.48243e-18
4291.50058 8.41396e-18
4293.00388 8.43994e-18
4294.49715 8.39705e-18
4296.00045 8.44100e-18
4297.50375 8.47581e-18
4298.99703 8.38784e-18
4300.50033 8.52181e-18
4302.00363 8.44622e-18
4303.49691 8.16434e-18
4305.00021 8.15523e-18
4306.50351 8.26083e-18
4307.99679 8.44421e-18
4309.50009 8.46190e-18
4311.00339 8.36868e-18
4312.49667 8.35170e-18
4313.99997 8.38586e-18
4315.50327 8.54622e-18
4316.99654 8.60336e-18
4318.49984 8.69405e-18
4320.00314 8.63471e-18
4321.49642 8.65601e-18
4322.99972 8.83845e-18
4324.50302 8.82164e-18
4325.99630 8.72779e-18
4327.49960 8.61190e-18
4329.00290 8.61025e-18
4330.49618 8.58972e-18
4331.99948 8.50517e-18
4333.50278 8.57614e-18
4334.99606 8.64986e-18
4336.49936 8.80446e-18
4338.00266 8.81892e-18
4339.49593 8.68250e-18
4340.99923 8.65411e-18
4342.50253 8.82225e-18
4343.99581 8.74193e-18
4345.49911 8.55554e-18
4347.00241 8.76085e-18
4348.49569 8.85580e-18
4349.99899 8.73143e-18
4351.50229 8.82169e-18
4352.99557 8.81245e-18
4354.49887 8.69774e-18
4356.00217 8.59367e-18
4357.49545 8.78844e-18
4358.99875 8.69232e-18
4360.50205 8.61073e-18
4361.99532 8.75664e-18
4363.49862 8.81389e-18
4365.00192 8.89878e-18
4366.49520 8.84264e-18
4367.99850 8.96469e-18
4369.50180 8.93178e-18
4370.99508 8.96923e-18
4372.49838 8.89568e-18
4374.00168 8.93252e-18
4375.50498 9.23339e-18
4376.99826 9.36253e-18
4378.50156 9.33289e-18
4380.00486 9.16260e-18
4381.49814 9.06110e-18
4383.00144 9.16060e-18
4384.50474 9.27851e-18
4385.99801 9.33555e-18
4387.50131 9.43066e-18
4389.00461 9.49537e-18
4390.49789 9.62681e-18
4392.00119 9.64580e-18
4393.50449 9.53965e-18
4394.99777 9.61549e-18
4396.50107 9.67791e-18
4398.00437 9.70769e-18
4399.49765 9.70988e-18
4401.00095 9.76034e-18
4402.50425 9.89450e-18
4403.99753 1.00407e-17
4405.50083 1.00454e-17
4407.00413 1.00683e-17
4408.49740 1.02430e-17
4410.00070 1.02972e-17
4411.50400 1.01087e-17
4412.99728 1.00977e-17
4414.50058 1.02304e-17
4416.00388 1.00967e-17
4417.49716 1.02671e-17
4419.00046 1.03627e-17
4420.50376 1.04610e-17
4421.99704 1.03206e-17
4423.50034 1.04837e-17
4425.00364 1.04646e-17
4426.49692 1.04178e-17
4428.00022 1.05504e-17
4429.50352 1.07772e-17
4430.99679 1.08480e-17
4432.50009 1.06599e-17
4434.00339 1.07318e-17
4435.49667 1.09068e-17
4436.99997 1.09358e-17
4438.50327 1.10801e-17
4439.99655 1.10818e-17
4441.49985 1.11707e-17
4443.00315 1.12233e-17
4444.49643 1.11885e-17
4445.99973 1.14105e-17
4447.50303 1.14835e-17
4448.99631 1.16196e-17
4450.49961 1.17298e-17
4452.00291 1.16607e-17
4453.49618 1.17723e-17
4454.99948 1.18347e-17
4456.50278 1.17272e-17
4457.99606 1.18875e-17
4459.49936 1.20212e-17
4461.00266 1.20414e-17
4462.49594 1.22077e-17
4463.99924 1.24224e-17
4465.50254 1.25919e-17
4466.99582 1.25634e-17
4468.49912 1.24192e-17
4470.00242 1.23964e-17
4471.49570 1.25486e-17
4472.99900 1.27575e-17
4474.50230 1.27706e-17
4475.99557 1.27510e-17
4477.49887 1.27949e-17
4479.00217 1.28369e-17
4480.49545 1.30011e-17
4481.99875 1.30485e-17
4483.50205 1.31494e-17
4484.99533 1.31767e-17
4486.49863 1.32600e-17
4488.00193 1.33535e-17
4489.49521 1.35557e-17
4490.99851 1.35283e-17
4492.50181 1.40194e-17
4493.99509 1.38015e-17
4495.49839 1.36508e-17
4497.00169 1.41098e-17
4498.49496 1.40395e-17
4499.99826 1.38399e-17
4501.50156 1.40219e-17
4503.00486 1.39933e-17
4504.49814 1.41275e-17
4506.00144 1.42529e-17
4507.50474 1.42999e-17
4508.99802 1.44892e-17
4510.50132 1.46518e-17
4512.00462 1.45485e-17
4513.49790 1.45273e-17
4515.00120 1.47054e-17
4516.50450 1.46604e-17
4517.99778 1.47857e-17
4519.50108 1.47515e-17
4521.00438 1.48605e-17
4522.49765 1.49291e-17
4524.00095 1.48970e-17
4525.50425 1.49205e-17
4526.99753 1.50444e-17
4528.50083 1.52152e-17
4530.00413 1.53318e-17
4531.49741 1.53697e-17
4533.00071 1.54348e-17
4534.50401 1.54296e-17
4535.99729 1.54085e-17
4537.50059 1.53620e-17
4539.00389 1.51998e-17
4540.49717 1.53190e-17
4542.00047 1.55897e-17
4543.50377 1.56812e-17
4544.99704 1.56571e-17
4546.50034 1.55902e-17
4548.00364 1.55197e-17
4549.49692 1.55720e-17
4551.00022 1.57746e-17
4552.50352 1.59715e-17
4553.99680 1.59367e-17
4555.50010 1.58481e-17
4557.00340 1.58880e-17
4558.49668 1.58814e-17
4559.99998 1.59822e-17
4561.50328 1.58052e-17
4562.99656 1.58107e-17
4564.49986 1.60483e-17
4566.00316 1.58701e-17
4567.49643 1.59365e-17
4568.99973 1.58789e-17
4570.50303 1.58250e-17
4571.99631 1.59007e-17
4573.49961 1.59473e-17
4575.00291 1.58974e-17
4576.49619 1.58973e-17
4577.99949 1.60389e-17
4579.50279 1.59758e-17
4580.99607 1.60465e-17
4582.49937 1.59621e-17
4584.00267 1.59035e-17
4585.49595 1.60327e-17
4586.99925 1.60992e-17
4588.50255 1.62035e-17
4589.99582 1.60547e-17
4591.49912 1.59077e-17
4593.00242 1.60390e-17
4594.49570 1.63618e-17
4595.99900 1.63882e-17
4597.50230 1.61811e-17
4598.99558 1.59772e-17
4600.49888 1.60330e-17
4602.00218 1.61161e-17
4603.49546 1.61508e-17
4604.99876 1.60605e-17
4606.50206 1.60275e-17
4607.99534 1.60099e-17
4609.49864 1.59386e-17
4611.00194 1.61552e-17
4612.49521 1.61499e-17
4613.99851 1.58643e-17
4615.50181 1.57160e-17
4616.99509 1.57327e-17
4618.49839 1.56940e-17
4620.00169 1.55931e-17
4621.49497 1.55474e-17
4622.99827 1.55372e-17
4624.50157 1.55739e-17
4626.00487 1.53983e-17
4627.49815 1.52693e-17
4629.00145 1.53265e-17
4630.50475 1.53186e-17
4631.99803 1.50882e-17
4633.50133 1.51438e-17
4635.00463 1.52273e-17
4636.49790 1.52204e-17
4638.00120 1.49853e-17
4639.50450 1.48406e-17
4640.99778 1.49512e-17
4642.50108 1.49396e-17
4644.00438 1.47941e-17
4645.49766 1.47461e-17
4647.00096 1.47730e-17
4648.50426 1.47354e-17
4649.99754 1.46527e-17
4651.50084 1.46002e-17
4653.00414 1.46125e-17
4654.49742 1.47383e-17
4656.00072 1.46807e-17
4657.50402 1.44086e-17
4658.99729 1.42179e-17
4660.50059 1.41246e-17
4662.00389 1.40678e-17
4663.49717 1.41632e-17
4665.00047 1.40780e-17
4666.50377 1.38683e-17
4667.99705 1.38637e-17
4669.50035 1.38815e-17
4671.00365 1.38129e-17
4672.49693 1.38081e-17
4674.00023 1.37670e-17
4675.50353 1.36230e-17
4676.99681 1.35108e-17
4678.50011 1.35648e-17
4680.00341 1.35057e-17
4681.49668 1.33857e-17
4682.99998 1.32563e-17
4684.50328 1.32247e-17
4685.99656 1.32595e-17
4687.49986 1.33069e-17
4689.00316 1.32853e-17
4690.49644 1.32778e-17
4691.99974 1.32333e-17
4693.50304 1.30947e-17
4694.99632 1.31129e-17
4696.49962 1.30041e-17
4698.00292 1.28668e-17
4699.49620 1.26626e-17
4700.99950 1.26011e-17
4702.50280 1.28135e-17
4703.99607 1.28326e-17
4705.49937 1.24840e-17
4707.00267 1.24083e-17
4708.49595 1.26025e-17
4709.99925 1.27083e-17
4711.50255 1.24593e-17
4712.99583 1.22508e-17
4714.49913 1.24730e-17
4716.00243 1.25152e-17
4717.49571 1.22568e-17
4718.99901 1.22841e-17
4720.50231 1.22784e-17
4721.99559 1.21989e-17
4723.49889 1.23932e-17
4725.00219 1.21529e-17
4726.49546 1.21633e-17
4727.99876 1.21482e-17
4729.50206 1.22586e-17
4730.99534 1.22522e-17
4732.49864 1.21927e-17
4734.00194 1.22999e-17
4735.49522 1.23703e-17
4736.99852 1.22883e-17
4738.50182 1.22701e-17
4739.99510 1.22299e-17
4741.49840 1.22943e-17
4743.00170 1.21770e-17
4744.49498 1.20202e-17
4745.99828 1.20591e-17
4747.50158 1.21459e-17
4749.00488 1.21754e-17
4750.49815 1.20906e-17
4752.00145 1.20755e-17
4753.50475 1.21057e-17
4754.99803 1.19673e-17
4756.50133 1.19154e-17
4758.00463 1.18383e-17
4759.49791 1.17126e-17
4761.00121 1.16316e-17
4762.50451 1.15976e-17
4763.99779 1.16391e-17
4765.50109 1.16516e-17
4767.00439 1.15525e-17
4768.49767 1.16305e-17
4770.00097 1.17621e-17
4771.50427 1.16656e-17
4772.99754 1.16789e-17
4774.50084 1.15686e-17
4776.00414 1.14857e-17
4777.49742 1.15581e-17
4779.00072 1.18782e-17
4780.50402 1.16182e-17
4781.99730 1.15886e-17
4783.50060 1.18398e-17
4785.00390 1.16296e-17
4786.49718 1.15768e-17
4788.00048 1.18053e-17
4789.50378 1.17810e-17
4790.99706 1.18226e-17
4792.50036 1.17230e-17
4794.00366 1.20123e-17
4795.49693 1.19896e-17
4797.00023 1.18865e-17
4798.50353 1.17977e-17
4799.99681 1.20786e-17
4801.50011 1.21489e-17
4803.00341 1.20011e-17
4804.49669 1.21349e-17
4805.99999 1.23057e-17
4807.50329 1.23402e-17
4808.99657 1.22237e-17
4810.49987 1.22940e-17
4812.00317 1.23352e-17
4813.49645 1.23201e-17
4814.99975 1.24152e-17
4816.50305 1.23091e-17
4817.99632 1.24425e-17
4819.49962 1.24764e-17
4821.00292 1.23928e-17
4822.49620 1.23686e-17
4823.99950 1.22921e-17
4825.50280 1.24561e-17
4826.99608 1.26984e-17
4828.49938 1.25588e-17
4830.00268 1.23780e-17
4831.49596 1.24907e-17
4832.99926 1.24795e-17
4834.50256 1.24594e-17
4835.99584 1.23638e-17
4837.49914 1.23085e-17
4839.00244 1.23970e-17
4840.49571 1.24706e-17
4841.99901 1.25123e-17
4843.50231 1.24854e-17
4844.99559 1.24875e-17
4846.49889 1.24915e-17
4848.00219 1.24802e-17
4849.49547 1.24516e-17
4850.99877 1.21851e-17
4852.50207 1.22065e-17
4853.99535 1.21196e-17
4855.49865 1.20758e-17
4857.00195 1.21965e-17
4858.49523 1.22360e-17
4859.99853 1.22304e-17
4861.50183 1.21782e-17
4862.99510 1.22079e-17
4864.49840 1.23212e-17
4866.00170 1.22834e-17
4867.49498 1.23745e-17
4868.99828 1.24514e-17
4870.50158 1.24163e-17
4872.00488 1.24552e-17
4873.49816 1.25112e-17
4875.00146 1.25987e-17
4876.50476 1.24667e-17
4877.99804 1.24594e-17
4879.50134 1.25210e-17
4881.00464 1.26216e-17
4882.49792 1.25988e-17
4884.00122 1.25971e-17
4885.50452 1.25732e-17
4886.99779 1.26288e-17
4888.50109 1.26017e-17
4890.00439 1.26155e-17
4891.49767 1.27665e-17
4893.00097 1.28415e-17
4894.50427 1.28596e-17
4895.99755 1.28592e-17
4897.50085 1.27517e-17
4899.00415 1.27582e-17
4900.49743 1.28641e-17
4902.00073 1.30258e-17
4903.50403 1.30119e-17
4904.99731 1.26521e-17
4906.50061 1.27328e-17
4908.00391 1.29621e-17
4909.49718 1.28812e-17
4911.00048 1.27651e-17
4912.50378 1.28271e-17
4913.99706 1.27754e-17
4915.50036 1.26982e-17
4917.00366 1.27502e-17
4918.49694 1.27392e-17
4920.00024 1.26028e-17
4921.50354 1.24805e-17
4922.99682 1.26425e-17
4924.50012 1.26732e-17
4926.00342 1.27690e-17
4927.49670 1.25658e-17
4929.00000 1.27088e-17
4930.50330 1.28839e-17
4931.99657 1.27072e-17
4933.49987 1.26801e-17
4935.00317 1.26637e-17
4936.49645 1.28384e-17
4937.99975 1.29216e-17
4939.50305 1.29981e-17
4940.99633 1.29535e-17
4942.49963 1.28163e-17
4944.00293 1.28811e-17
4945.49621 1.29574e-17
4946.99951 1.29800e-17
4948.50281 1.30643e-17
4949.99609 1.31709e-17
4951.49939 1.29909e-17
4953.00269 1.28946e-17
4954.49596 1.30692e-17
4955.99926 1.30333e-17
4957.50256 1.28865e-17
4958.99584 1.29755e-17
4960.49914 1.29522e-17
4962.00244 1.27453e-17
4963.49572 1.26857e-17
4964.99902 1.26992e-17
4966.50232 1.26959e-17
4967.99560 1.27586e-17
4969.49890 1.28225e-17
4971.00220 1.28474e-17
4972.49548 1.27685e-17
4973.99878 1.25896e-17
4975.50208 1.24915e-17
4976.99535 1.25830e-17
4978.49865 1.26371e-17
4980.00195 1.24880e-17
4981.49523 1.24228e-17
4982.99853 1.25623e-17
4984.50183 1.25139e-17
4985.99511 1.25626e-17
4987.49841 1.25969e-17
4989.00171 1.25750e-17
4990.49499 1.24689e-17
4991.99829 1.24290e-17
4993.50159 1.25358e-17
4995.00489 1.24853e-17
4996.49817 1.24092e-17
4998.00147 1.25122e-17
4999.50477 1.23556e-17
5000.99804 1.22202e-17
5002.50134 1.22545e-17
5004.00464 1.21415e-17
5005.49792 1.20134e-17
5007.00122 1.22743e-17
5008.50452 1.23881e-17
5009.99780 1.23503e-17
5011.50110 1.22448e-17
5013.00440 1.22040e-17
5014.49768 1.20091e-17
5016.00098 1.21773e-17
5017.50428 1.24136e-17
5018.99756 1.23198e-17
5020.50086 1.22757e-17
5022.00416 1.23987e-17
5023.49743 1.23530e-17
5025.00073 1.23351e-17
5026.50403 1.23744e-17
5027.99731 1.24677e-17
5029.50061 1.24246e-17
5031.00391 1.23555e-17
5032.49719 1.23024e-17
5034.00049 1.23516e-17
5035.50379 1.24185e-17
5036.99707 1.23360e-17
5038.50037 1.23153e-17
5040.00367 1.25250e-17
5041.49695 1.27166e-17
5043.00025 1.26889e-17
5044.50355 1.27180e-17
5045.99682 1.28103e-17
5047.50012 1.27625e-17
5049.00342 1.27131e-17
5050.49670 1.28040e-17
5052.00000 1.28197e-17
5053.50330 1.26207e-17
5054.99658 1.27528e-17
5056.49988 1.27602e-17
5058.00318 1.27168e-17
5059.49646 1.27120e-17
5060.99976 1.28855e-17
5062.50306 1.27766e-17
5063.99634 1.28536e-17
5065.49964 1.29200e-17
5067.00294 1.28944e-17
5068.49621 1.30490e-17
5069.99951 1.32169e-17
5071.50281 1.31780e-17
5072.99609 1.33251e-17
5074.49939 1.32166e-17
5076.00269 1.33782e-17
5077.49597 1.33745e-17
5078.99927 1.32036e-17
5080.50257 1.32677e-17
5081.99585 1.34561e-17
5083.49915 1.32974e-17
5085.00245 1.34352e-17
5086.49573 1.35215e-17
5087.99903 1.34956e-17
5089.50233 1.34249e-17
5090.99560 1.35093e-17
5092.49890 1.34387e-17
5094.00220 1.34780e-17
5095.49548 1.36420e-17
5096.99878 1.36834e-17
5098.50208 1.36582e-17
5099.99536 1.36609e-17
5101.49866 1.37094e-17
5103.00196 1.38804e-17
5104.49524 1.38173e-17
5105.99854 1.37484e-17
5107.50184 1.37424e-17
5108.99512 1.38175e-17
5110.49842 1.38577e-17
5112.00172 1.38788e-17
5113.49499 1.38473e-17
5114.99829 1.39280e-17
5116.50159 1.40253e-17
5118.00489 1.38293e-17
5119.49817 1.37161e-17
5121.00147 1.38972e-17
5122.50477 1.38540e-17
5123.99805 1.40342e-17
5125.50135 1.39963e-17
5127.00465 1.40061e-17
5128.49793 1.41276e-17
5130.00123 1.41198e-17
5131.50453 1.41287e-17
5132.99781 1.42019e-17
5134.50111 1.42162e-17
5136.00441 1.41532e-17
5137.49768 1.42109e-17
5139.00098 1.42981e-17
5140.50428 1.44290e-17
5141.99756 1.44669e-17
5143.50086 1.42126e-17
5145.00416 1.42882e-17
5146.49744 1.44079e-17
5148.00074 1.43991e-17
5149.50404 1.44557e-17
5150.99732 1.43903e-17
5152.50062 1.44219e-17
5154.00392 1.45767e-17
5155.49720 1.45400e-17
5157.00050 1.45169e-17
5158.50380 1.43844e-17
5159.99707 1.43586e-17
5161.50037 1.45052e-17
5163.00367 1.44512e-17
5164.49695 1.43079e-17
5166.00025 1.43339e-17
5167.50355 1.44605e-17
5168.99683 1.46462e-17
5170.50013 1.47147e-17
5172.00343 1.47486e-17
5173.49671 1.48604e-17
5175.00001 1.48901e-17
5176.50331 1.49581e-17
5177.99659 1.51301e-17
5179.49989 1.51096e-17
5181.00319 1.50626e-17
5182.49646 1.51037e-17
5183.99976 1.51465e-17
5185.50306 1.52130e-17
5186.99634 1.53174e-17
5188.49964 1.53186e-17
5190.00294 1.53436e-17
5191.49622 1.54908e-17
5192.99952 1.54534e-17
5194.50282 1.54583e-17
5195.99610 1.56374e-17
5197.49940 1.56880e-17
5199.00270 1.57465e-17
5200.49598 1.59398e-17
5201.99928 1.59044e-17
5203.50258 1.57222e-17
5204.99585 1.58751e-17
5206.49915 1.58848e-17
5208.00245 1.60082e-17
5209.49573 1.60223e-17
5210.99903 1.60033e-17
5212.50233 1.61039e-17
5213.99561 1.60690e-17
5215.49891 1.60747e-17
5217.00221 1.61189e-17
5218.49549 1.61074e-17
5219.99879 1.62126e-17
5221.50209 1.61500e-17
5222.99537 1.60792e-17
5224.49867 1.63381e-17
5226.00197 1.64579e-17
5227.49524 1.63476e-17
5228.99854 1.63699e-17
5230.50184 1.66437e-17
5231.99512 1.67964e-17
5233.49842 1.67224e-17
5235.00172 1.66300e-17
5236.49500 1.67130e-17
5237.99830 1.67952e-17
5239.50160 1.67207e-17
5241.00490 1.66847e-17
5242.49818 1.68285e-17
5244.00148 1.69590e-17
5245.50478 1.69344e-17
5246.99806 1.69646e-17
5248.50136 1.70380e-17
5250.00466 1.69783e-17
5251.49793 1.69515e-17
5253.00123 1.70211e-17
5254.50453 1.70269e-17
5255.99781 1.69942e-17
5257.50111 1.70487e-17
5259.00441 1.71269e-17
5260.49769 1.71108e-17
5262.00099 1.71491e-17
5263.50429 1.72846e-17
5264.99757 1.73720e-17
5266.50087 1.73375e-17
5268.00417 1.73328e-17
5269.49745 1.74256e-17
5271.00075 1.75313e-17
5272.50405 1.74764e-17
5273.99732 1.74231e-17
5275.50062 1.74494e-17
5277.00392 1.74056e-17
5278.49720 1.75898e-17
5280.00050 1.77100e-17
5281.50380 1.77347e-17
5282.99708 1.76899e-17
5284.50038 1.77179e-17
5286.00368 1.79106e-17
5287.49696 1.79875e-17
5289.00026 1.79036e-17
5290.50356 1.78317e-17
5291.99684 1.79357e-17
5293.50014 1.79120e-17
5295.00344 1.78682e-17
5296.49671 1.78872e-17
5298.00001 1.79797e-17
5299.50331 1.80833e-17
5300.99659 1.80709e-17
5302.49989 1.79833e-17
5304.00319 1.80044e-17
5305.49647 1.80677e-17
5306.99977 1.80770e-17
5308.50307 1.80529e-17
5309.99635 1.81914e-17
5311.49965 1.82485e-17
5313.00295 1.81244e-17
5314.49623 1.81085e-17
5315.99953 1.81951e-17
5317.50283 1.81916e-17
5318.99610 1.81077e-17
5320.49940 1.81243e-17
5322.00270 1.81078e-17
5323.49598 1.80098e-17
5324.99928 1.81056e-17
5326.50258 1.81702e-17
5327.99586 1.80490e-17
5329.49916 1.81774e-17
5331.00246 1.81877e-17
5332.49574 1.79349e-17
5333.99904 1.80221e-17
5335.50234 1.80742e-17
5336.99562 1.80541e-17
5338.49892 1.81891e-17
5340.00222 1.81730e-17
5341.49549 1.81449e-17
5342.99879 1.82899e-17
5344.50209 1.82135e-17
5345.99537 1.82031e-17
5347.49867 1.82168e-17
5349.00197 1.82528e-17
5350.49525 1.83736e-17
5351.99855 1.84335e-17
5353.50185 1.83826e-17
5354.99513 1.84964e-17
5356.49843 1.85619e-17
5358.00173 1.83791e-17
5359.49501 1.83759e-17
5360.99831 1.84334e-17
5362.50161 1.84837e-17
5364.00491 1.85413e-17
5365.49818 1.85403e-17
5367.00148 1.86785e-17
5368.50478 1.87099e-17
5369.99806 1.87555e-17
5371.50136 1.87986e-17
5373.00466 1.86666e-17
5374.49794 1.87676e-17
5376.00124 1.87689e-17
5377.50454 1.88724e-17
5378.99782 1.89899e-17
5380.50112 1.89945e-17
5382.00442 1.89977e-17
5383.49770 1.90035e-17
5385.00100 1.89503e-17
5386.50430 1.90628e-17
5387.99757 1.91716e-17
5389.50087 1.92196e-17
5391.00417 1.93076e-17
5392.49745 1.92625e-17
5394.00075 1.91379e-17
5395.50405 1.91104e-17
5396.99733 1.92847e-17
5398.50063 1.94083e-17
5400.00393 1.92625e-17
5401.49721 1.92082e-17
5403.00051 1.93234e-17
5404.50381 1.93998e-17
5405.99709 1.93681e-17
5407.50039 1.93905e-17
5409.00369 1.94884e-17
5410.49696 1.94892e-17
5412.00026 1.93612e-17
5413.50356 1.94822e-17
5414.99684 1.95662e-17
5416.50014 1.97115e-17
5418.00344 1.97382e-17
5419.49672 1.97300e-17
5421.00002 1.96765e-17
5422.50332 1.95487e-17
5423.99660 1.96421e-17
5425.49990 1.97697e-17
5427.00320 1.98671e-17
5428.49648 1.97433e-17
5429.99978 1.98307e-17
5431.50308 1.99919e-17
5432.99635 1.97848e-17
5434.49965 2.00290e-17
5436.00295 1.97768e-17
5437.49623 2.00906e-17
5438.99953 1.98548e-17
5440.50283 1.96283e-17
5441.99611 1.95507e-17
5443.49941 1.99686e-17
5445.00271 1.99523e-17
5446.49599 1.99655e-17
5447.99929 2.01327e-17
5449.50259 2.00443e-17
5450.99587 1.99970e-17
5452.49917 2.00757e-17
5454.00247 1.99859e-17
5455.49574 1.98571e-17
5456.99904 1.97541e-17
5458.50234 1.99850e-17
5459.99562 2.00048e-17
5461.49892 1.99466e-17
5463.00222 1.98897e-17
5464.49550 1.98441e-17
5465.99880 1.97314e-17
5467.50210 1.97019e-17
5468.99538 1.96939e-17
5470.49868 1.96693e-17
5472.00198 1.95697e-17
5473.49526 1.95180e-17
5474.99856 1.95589e-17
5476.50186 1.95970e-17
5477.99513 1.95055e-17
5479.49843 1.95311e-17
5481.00173 1.95096e-17
5482.49501 1.94155e-17
5483.99831 1.92949e-17
5485.50161 1.94160e-17
5487.00491 1.93425e-17
5488.49819 1.93753e-17
5490.00149 1.93344e-17
5491.50479 1.92545e-17
5492.99807 1.93934e-17
5494.50137 1.90973e-17
5496.00467 1.90672e-17
5497.49795 1.92026e-17
5499.00125 1.92158e-17
5500.50455 1.92504e-17
5501.99782 1.91769e-17
5503.50112 1.93251e-17
5505.00442 1.94368e-17
5506.49770 1.92355e-17
5508.00100 1.92014e-17
5509.50430 1.91560e-17
5510.99758 1.89488e-17
5512.50088 1.89452e-17
5514.00418 1.91997e-17
5515.49746 1.91028e-17
5517.00076 1.91838e-17
5518.50406 1.90957e-17
5519.99734 1.90145e-17
5521.50064 1.92145e-17
5523.00394 1.90709e-17
5524.49721 1.89887e-17
5526.00051 1.90556e-17
5527.50381 1.89088e-17
5528.99709 1.88786e-17
5530.50039 1.90612e-17
5532.00369 1.90156e-17
5533.49697 1.88068e-17
5535.00027 1.87643e-17
5536.50357 1.86695e-17
5537.99685 1.86534e-17
5539.50015 1.87712e-17
5541.00345 1.88718e-17
5542.49673 1.89084e-17
5544.00003 1.88257e-17
5545.50333 1.87023e-17
5546.99660 1.86076e-17
5548.49990 1.86617e-17
5550.00320 1.86916e-17
5551.49648 1.85880e-17
5552.99978 1.86813e-17
5554.50308 1.86458e-17
5555.99636 1.85878e-17
5557.49966 1.86826e-17
5559.00296 1.85258e-17
5560.49624 1.83397e-17
5561.99954 1.84468e-17
5563.50284 1.85269e-17
5564.99612 1.85190e-17
5566.49942 1.84470e-17
5568.00272 1.84100e-17
5569.49599 1.83499e-17
5570.99929 1.83743e-17
5572.50259 1.83121e-17
5573.99587 1.83313e-17
5575.49917 1.85787e-17
5577.00247 1.82116e-17
5578.49575 1.80714e-17
5579.99905 1.80232e-17
5581.50235 1.81258e-17
5582.99563 1.81317e-17
5584.49893 1.81225e-17
5586.00223 1.80676e-17
5587.49551 1.79432e-17
5588.99881 1.78004e-17
5590.50211 1.77419e-17
5591.99538 1.76385e-17
5593.49868 1.76004e-17
5595.00198 1.78298e-17
5596.49526 1.78637e-17
5597.99856 1.77766e-17
5599.50186 1.77376e-17
5600.99514 1.76353e-17
5602.49844 1.75445e-17
5604.00174 1.74779e-17
5605.49502 1.72767e-17
5606.99832 1.72305e-17
5608.50162 1.73524e-17
5610.00492 1.73692e-17
5611.49820 1.73409e-17
5613.00150 1.71785e-17
5614.50480 1.70703e-17
5615.99807 1.70083e-17
5617.50137 1.69577e-17
5619.00467 1.68592e-17
5620.49795 1.67114e-17
5622.00125 1.65864e-17
5623.50455 1.66469e-17
5624.99783 1.66955e-17
5626.50113 1.66918e-17
5628.00443 1.66111e-17
5629.49771 1.62741e-17
5631.00101 1.62951e-17
5632.50431 1.64653e-17
5633.99759 1.64210e-17
5635.50089 1.62502e-17
5637.00419 1.62123e-17
5638.49746 1.61686e-17
5640.00076 1.60489e-17
5641.50406 1.61148e-17
5642.99734 1.60897e-17
5644.50064 1.60669e-17
5646.00394 1.60726e-17
5647.49722 1.59140e-17
5649.00052 1.58199e-17
5650.50382 1.56033e-17
5651.99710 1.54813e-17
5653.50040 1.56788e-17
5655.00370 1.56076e-17
5656.49698 1.53372e-17
5658.00028 1.52773e-17
5659.50358 1.52774e-17
5660.99685 1.52981e-17
5662.50015 1.51833e-17
5664.00345 1.50369e-17
5665.49673 1.50796e-17
5667.00003 1.50734e-17
5668.50333 1.51556e-17
5669.99661 1.50127e-17
5671.49991 1.49118e-17
5673.00321 1.49215e-17
5674.49649 1.48758e-17
5675.99979 1.49146e-17
5677.50309 1.49423e-17
5678.99637 1.48058e-17
5680.49967 1.46785e-17
5682.00297 1.46657e-17
5683.49624 1.46353e-17
5684.99954 1.45619e-17
5686.50284 1.44718e-17
5687.99612 1.45220e-17
5689.49942 1.44893e-17
5691.00272 1.43888e-17
5692.49600 1.44557e-17
5693.99930 1.45009e-17
5695.50260 1.43961e-17
5696.99588 1.43705e-17
5698.49918 1.43471e-17
5700.00248 1.42255e-17
5701.49576 1.41757e-17
5702.99906 1.42607e-17
5704.50236 1.41565e-17
5705.99563 1.40472e-17
5707.49893 1.40602e-17
5709.00223 1.40179e-17
5710.49551 1.40847e-17
5711.99881 1.41528e-17
5713.50211 1.42201e-17
5714.99539 1.42143e-17
5716.49869 1.42166e-17
5718.00199 1.42109e-17
5719.49527 1.42926e-17
5720.99857 1.43851e-17
5722.50187 1.43079e-17
5723.99515 1.42182e-17
5725.49845 1.44153e-17
5727.00175 1.43222e-17
5728.49502 1.42763e-17
5729.99832 1.42702e-17
5731.50162 1.44079e-17
5733.00492 1.42585e-17
5734.49820 1.43163e-17
5736.00150 1.43458e-17
5737.50480 1.44033e-17
5738.99808 1.43982e-17
5740.50138 1.44557e-17
5742.00468 1.45443e-17
5743.49796 1.45284e-17
5745.00126 1.44368e-17
5746.50456 1.44096e-17
5747.99784 1.45246e-17
5749.50114 1.45544e-17
5751.00444 1.45319e-17
5752.49771 1.45294e-17
5754.00101 1.44644e-17
5755.50431 1.45065e-17
5756.99759 1.46143e-17
5758.50089 1.46409e-17
5760.00419 1.46367e-17
5761.49747 1.46536e-17
5763.00077 1.47241e-17
5764.50407 1.47834e-17
5765.99735 1.47449e-17
5767.50065 1.47064e-17
5769.00395 1.46054e-17
5770.49723 1.45331e-17
5772.00053 1.46210e-17
5773.50383 1.47756e-17
5774.99710 1.46878e-17
5776.50040 1.46644e-17
5778.00370 1.46565e-17
5779.49698 1.46257e-17
5781.00028 1.46292e-17
5782.50358 1.48493e-17
5783.99686 1.50057e-17
5785.50016 1.48934e-17
5787.00346 1.47164e-17
5788.49674 1.49165e-17
5790.00004 1.48666e-17
5791.50334 1.48622e-17
5792.99662 1.50684e-17
5794.49992 1.50226e-17
5796.00322 1.50248e-17
5797.49649 1.49764e-17
5798.99979 1.50926e-17
5800.50309 1.49514e-17
5801.99637 1.49049e-17
5803.49967 1.51426e-17
5805.00297 1.50791e-17
5806.49625 1.50478e-17
5807.99955 1.50709e-17
5809.50285 1.50559e-17
5810.99613 1.49806e-17
5812.49943 1.50794e-17
5814.00273 1.49326e-17
5815.49601 1.50018e-17
5816.99931 1.52026e-17
5818.50261 1.50993e-17
5819.99588 1.49415e-17
5821.49918 1.48845e-17
5823.00248 1.50201e-17
5824.49576 1.51447e-17
5825.99906 1.51073e-17
5827.50236 1.48558e-17
5828.99564 1.47797e-17
5830.49894 1.48613e-17
5832.00224 1.48671e-17
5833.49552 1.49278e-17
5834.99882 1.50904e-17
5836.50212 1.50742e-17
5837.99540 1.49825e-17
5839.49870 1.49608e-17
5841.00200 1.48526e-17
5842.49527 1.48714e-17
5843.99857 1.48411e-17
5845.50187 1.47565e-17
5846.99515 1.47493e-17
5848.49845 1.47937e-17
5850.00175 1.47816e-17
5851.49503 1.48101e-17
5852.99833 1.47033e-17
5854.50163 1.46594e-17
5856.00493 1.47658e-17
5857.49821 1.46934e-17
5859.00151 1.46904e-17
5860.50481 1.47278e-17
5861.99809 1.46902e-17
5863.50139 1.46889e-17
5865.00469 1.46673e-17
5866.49796 1.47027e-17
5868.00126 1.47541e-17
5869.50456 1.47487e-17
5870.99784 1.46507e-17
5872.50114 1.47048e-17
5874.00444 1.47698e-17
5875.49772 1.47766e-17
5877.00102 1.48135e-17
5878.50432 1.47357e-17
5879.99760 1.47189e-17
5881.50090 1.47826e-17
5883.00420 1.47990e-17
5884.49748 1.47618e-17
5886.00078 1.45134e-17
5887.50408 1.41745e-17
5888.99735 1.40514e-17
5890.50065 1.40626e-17
5892.00395 1.40617e-17
5893.49723 1.40489e-17
5895.00053 1.40564e-17
5896.50383 1.40858e-17
5897.99711 1.42361e-17
5899.50041 1.43682e-17
5901.00371 1.44006e-17
5902.49699 1.45355e-17
5904.00029 1.46614e-17
5905.50359 1.45081e-17
5906.99687 1.43644e-17
5908.50017 1.44167e-17
5910.00347 1.44251e-17
5911.49674 1.44802e-17
5913.00004 1.44498e-17
5914.50334 1.43986e-17
5915.99662 1.43389e-17
5917.49992 1.43734e-17
5919.00322 1.44333e-17
5920.49650 1.43192e-17
5921.99980 1.43402e-17
5923.50310 1.44222e-17
5924.99638 1.43247e-17
5926.49968 1.43070e-17
5928.00298 1.43578e-17
5929.49626 1.44540e-17
5930.99956 1.43681e-17
5932.50286 1.42851e-17
5933.99613 1.43587e-17
5935.49943 1.43574e-17
5937.00273 1.43042e-17
5938.49601 1.43360e-17
5939.99931 1.43781e-17
5941.50261 1.42839e-17
5942.99589 1.40381e-17
5944.49919 1.39979e-17
5946.00249 1.40890e-17
5947.49577 1.40479e-17
5948.99907 1.42525e-17
5950.50237 1.43784e-17
5951.99565 1.42216e-17
5953.49895 1.41503e-17
5955.00225 1.41110e-17
5956.49552 1.40888e-17
5957.99882 1.41045e-17
5959.50212 1.39901e-17
5960.99540 1.39848e-17
5962.49870 1.40145e-17
5964.00200 1.39203e-17
5965.49528 1.37703e-17
5966.99858 1.37408e-17
5968.50188 1.37211e-17
5970.00518 1.37179e-17
5971.49846 1.37837e-17
5973.00176 1.38511e-17
5974.49504 1.37881e-17
5975.99834 1.37428e-17
5977.50164 1.37284e-17
5979.00494 1.38604e-17
5980.49821 1.39504e-17
5982.00151 1.38212e-17
5983.50481 1.36962e-17
5984.99809 1.37846e-17
5986.50139 1.37189e-17
5988.00469 1.37890e-17
5989.49797 1.39038e-17
5991.00127 1.38994e-17
5992.50457 1.39503e-17
5993.99785 1.39107e-17
5995.50115 1.38691e-17
5997.00445 1.37823e-17
5998.49773 1.37840e-17
6000.00103 1.38218e-17
6001.50433 1.37057e-17
6002.99760 1.36319e-17
6004.50090 1.37839e-17
6006.00420 1.38877e-17
6007.49748 1.39341e-17
6009.00078 1.36777e-17
6010.50408 1.37706e-17
6011.99736 1.38356e-17
6013.50066 1.37560e-17
6015.00396 1.38677e-17
6016.49724 1.38890e-17
6018.00054 1.38517e-17
6019.50384 1.38007e-17
6020.99712 1.37542e-17
6022.50042 1.37877e-17
6024.00372 1.38134e-17
6025.49699 1.36635e-17
6027.00029 1.35525e-17
6028.50359 1.35979e-17
6029.99687 1.37288e-17
6031.50017 1.36301e-17
6033.00347 1.35232e-17
6034.49675 1.36055e-17
6036.00005 1.37028e-17
6037.50335 1.37054e-17
6038.99663 1.36611e-17
6040.49993 1.35810e-17
6042.00323 1.35918e-17
6043.49651 1.34795e-17
6044.99981 1.33152e-17
6046.50311 1.33708e-17
6047.99638 1.34726e-17
6049.49968 1.35334e-17
6051.00298 1.35151e-17
6052.49626 1.35483e-17
6053.99956 1.34930e-17
6055.50286 1.34376e-17
6056.99614 1.33823e-17
6058.49944 1.33270e-17
6060.00274 1.33263e-17
6061.49602 1.34288e-17
6062.99932 1.33131e-17
6064.50262 1.34340e-17
6065.99590 1.35294e-17
6067.49920 1.34657e-17
6069.00250 1.33784e-17
6070.49577 1.33816e-17
6071.99907 1.34709e-17
6073.50237 1.34604e-17
6074.99565 1.34199e-17
6076.49895 1.35136e-17
6078.00225 1.33255e-17
6079.49553 1.33057e-17
6080.99883 1.34773e-17
6082.50213 1.35028e-17
6083.99541 1.33932e-17
6085.49871 1.33826e-17
6087.00201 1.34874e-17
6088.49529 1.34484e-17
6089.99859 1.32775e-17
6091.50189 1.33631e-17
6092.99516 1.33909e-17
6094.49846 1.33731e-17
6096.00176 1.34178e-17
6097.49504 1.33508e-17
6098.99834 1.32386e-17
6100.50164 1.32509e-17
6101.99492 1.33239e-17
6103.49822 1.32146e-17
6105.00152 1.31809e-17
6106.50482 1.32947e-17
6107.99810 1.32714e-17
6109.50140 1.32069e-17
6111.00470 1.32071e-17
6112.49798 1.31390e-17
6114.00128 1.30713e-17
6115.50458 1.31229e-17
6116.99785 1.30754e-17
6118.50115 1.30573e-17
6120.00445 1.31209e-17
6121.49773 1.31233e-17
6123.00103 1.30478e-17
6124.50433 1.29173e-17
6125.99761 1.28916e-17
6127.50091 1.29338e-17
6129.00421 1.29867e-17
6130.49749 1.30053e-17
6132.00079 1.29190e-17
6133.50409 1.29336e-17
6134.99737 1.30115e-17
6136.50067 1.28699e-17
6138.00397 1.28597e-17
6139.49724 1.29081e-17
6141.00054 1.27437e-17
6142.50384 1.26778e-17
6143.99712 1.28179e-17
6145.50042 1.27922e-17
6147.00372 1.26451e-17
6148.49700 1.27423e-17
6150.00030 1.27543e-17
6151.50360 1.26194e-17
6152.99688 1.24660e-17
6154.50018 1.24566e-17
6156.00348 1.24541e-17
6157.49676 1.24700e-17
6159.00006 1.24256e-17
6160.50336 1.25215e-17
6161.99663 1.24154e-17
6163.49993 1.22730e-17
6165.00323 1.22725e-17
6166.49651 1.21870e-17
6167.99981 1.21280e-17
6169.50311 1.21182e-17
6170.99639 1.21034e-17
6172.49969 1.20774e-17
6174.00299 1.19971e-17
6175.49627 1.20085e-17
6176.99957 1.19153e-17
6178.50287 1.19084e-17
6179.99615 1.18530e-17
6181.49945 1.18267e-17
6183.00275 1.18177e-17
6184.49602 1.18897e-17
6185.99932 1.19088e-17
6187.50262 1.18658e-17
6188.99590 1.17816e-17
6190.49920 1.18569e-17
6192.00250 1.19590e-17
6193.49578 1.19759e-17
6194.99908 1.19150e-17
6196.50238 1.18694e-17
6197.99566 1.18197e-17
6199.49896 1.18221e-17
6201.00226 1.17676e-17
6202.49554 1.16211e-17
6203.99884 1.17034e-17
6205.50214 1.18229e-17
6206.99541 1.18456e-17
6208.49871 1.17458e-17
6210.00201 1.17393e-17
6211.49529 1.16375e-17
6212.99859 1.16837e-17
6214.50189 1.17075e-17
6215.99517 1.17133e-17
6217.49847 1.17507e-17
6219.00177 1.16455e-17
6220.49505 1.17968e-17
6221.99835 1.18963e-17
6223.50165 1.18191e-17
6224.99493 1.17105e-17
6226.49823 1.17315e-17
6228.00153 1.16906e-17
6229.50483 1.19273e-17
6230.99810 1.18980e-17
6232.50140 1.19088e-17
6234.00470 1.18429e-17
6235.49798 1.18617e-17
6237.00128 1.19593e-17
6238.50458 1.19302e-17
6239.99786 1.18199e-17
6241.50116 1.18521e-17
6243.00446 1.18424e-17
6244.49774 1.19843e-17
6246.00104 1.21260e-17
6247.50434 1.20559e-17
6248.99762 1.20558e-17
6250.50092 1.20367e-17
6252.00422 1.20523e-17
6253.49749 1.20907e-17
6255.00079 1.20940e-17
6256.50409 1.20474e-17
6257.99737 1.20582e-17
6259.50067 1.20372e-17
6261.00397 1.21819e-17
6262.49725 1.23678e-17
6264.00055 1.24152e-17
6265.50385 1.24722e-17
6266.99713 1.24296e-17
6268.50043 1.23624e-17
6270.00373 1.24114e-17
6271.49701 1.23781e-17
6273.00031 1.23172e-17
6274.50361 1.23707e-17
6275.99688 1.24750e-17
6277.50018 1.25063e-17
6279.00348 1.24849e-17
6280.49676 1.25552e-17
6282.00006 1.24284e-17
6283.50336 1.22471e-17
6284.99664 1.24265e-17
6286.49994 1.25558e-17
6288.00324 1.25040e-17
6289.49652 1.24387e-17
6290.99982 1.25237e-17
6292.50312 1.25864e-17
6293.99640 1.25828e-17
6295.49970 1.26172e-17
6297.00300 1.26752e-17
6298.49627 1.27635e-17
6299.99957 1.28440e-17
6301.50287 1.28683e-17
6302.99615 1.27910e-17
6304.49945 1.28984e-17
6306.00275 1.29053e-17
6307.49603 1.29123e-17
6308.99933 1.30250e-17
6310.50263 1.30133e-17
6311.99591 1.28834e-17
6313.49921 1.28510e-17
6315.00251 1.30354e-17
6316.49579 1.31488e-17
6317.99909 1.29958e-17
6319.50239 1.29564e-17
6320.99566 1.30388e-17
6322.49896 1.31093e-17
6324.00226 1.31745e-17
6325.49554 1.31744e-17
6326.99884 1.31422e-17
6328.50214 1.30823e-17
6329.99542 1.30481e-17
6331.49872 1.30708e-17
6333.00202 1.30895e-17
6334.49530 1.31837e-17
6335.99860 1.32123e-17
6337.50190 1.31318e-17
6338.99518 1.32877e-17
6340.49848 1.33352e-17
6342.00178 1.32631e-17
6343.49505 1.33273e-17
6344.99835 1.34360e-17
6346.50165 1.34792e-17
6347.99493 1.33985e-17
6349.49823 1.32707e-17
6351.00153 1.33186e-17
6352.50483 1.34089e-17
6353.99811 1.34589e-17
6355.50141 1.34030e-17
6357.00471 1.34131e-17
6358.49799 1.34203e-17
6360.00129 1.34452e-17
6361.50459 1.35153e-17
6362.99787 1.35716e-17
6364.50117 1.34646e-17
6366.00447 1.32178e-17
6367.49774 1.32714e-17
6369.00104 1.33494e-17
6370.50434 1.33117e-17
6371.99762 1.33773e-17
6373.50092 1.35833e-17
6375.00422 1.35840e-17
6376.49750 1.34519e-17
6378.00080 1.34206e-17
6379.50410 1.35890e-17
6380.99738 1.34315e-17
6382.50068 1.34670e-17
6384.00398 1.36042e-17
6385.49726 1.35959e-17
6387.00056 1.35513e-17
6388.50386 1.34687e-17
6389.99713 1.35858e-17
6391.50043 1.36261e-17
6393.00373 1.37288e-17
6394.49701 1.36518e-17
6396.00031 1.35373e-17
6397.50361 1.35678e-17
6398.99689 1.35882e-17
6400.50019 1.35768e-17
6402.00349 1.35550e-17
6403.49677 1.36034e-17
6405.00007 1.35917e-17
6406.50337 1.36772e-17
6407.99665 1.37212e-17
6409.49995 1.35417e-17
6411.00325 1.34404e-17
6412.49652 1.35235e-17
6413.99982 1.36585e-17
6415.50312 1.36712e-17
6416.99640 1.36497e-17
6418.49970 1.36330e-17
6420.00300 1.35467e-17
6421.49628 1.34599e-17
6422.99958 1.35879e-17
6424.50288 1.36414e-17
6425.99616 1.36261e-17
6427.49946 1.36304e-17
6429.00276 1.36783e-17
6430.49604 1.37302e-17
6431.99934 1.37642e-17
6433.50264 1.37427e-17
6434.99591 1.36871e-17
6436.49921 1.37735e-17
6438.00251 1.39017e-17
6439.49579 1.37642e-17
6440.99909 1.36884e-17
6442.50239 1.37830e-17
6443.99567 1.39308e-17
6445.49897 1.38580e-17
6447.00227 1.38029e-17
6448.49555 1.36960e-17
6449.99885 1.36855e-17
6451.50215 1.37916e-17
6452.99543 1.37089e-17
6454.49873 1.37505e-17
6456.00203 1.37242e-17
6457.49530 1.36952e-17
6458.99860 1.36057e-17
6460.50190 1.34790e-17
6461.99518 1.36055e-17
6463.49848 1.36804e-17
6465.00178 1.36310e-17
6466.49506 1.36528e-17
6467.99836 1.36682e-17
6469.50166 1.37200e-17
6470.99494 1.36229e-17
6472.49824 1.35333e-17
6474.00154 1.34733e-17
6475.50484 1.33855e-17
6476.99812 1.33498e-17
6478.50142 1.33292e-17
6480.00472 1.33091e-17
6481.49799 1.34072e-17
6483.00129 1.35151e-17
6484.50459 1.34776e-17
6485.99787 1.34388e-17
6487.50117 1.34006e-17
6489.00447 1.34570e-17
6490.49775 1.34691e-17
6492.00105 1.34008e-17
6493.50435 1.33709e-17
6494.99763 1.34429e-17
6496.50093 1.36486e-17
6498.00423 1.37319e-17
6499.49751 1.37414e-17
6501.00081 1.37078e-17
6502.50411 1.36789e-17
6503.99738 1.36185e-17
6505.50068 1.36300e-17
6507.00398 1.37315e-17
6508.49726 1.36523e-17
6510.00056 1.36683e-17
6511.50386 1.35770e-17
6512.99714 1.34371e-17
6514.50044 1.33130e-17
6516.00374 1.32186e-17
6517.49702 1.34894e-17
6519.00032 1.36060e-17
6520.50362 1.35174e-17
6521.99690 1.35050e-17
6523.50020 1.35155e-17
6525.00350 1.34730e-17
6526.49677 1.35844e-17
6528.00007 1.37236e-17
6529.50337 1.37148e-17
6530.99665 1.36796e-17
6532.49995 1.36328e-17
6534.00325 1.35798e-17
6535.49653 1.35063e-17
6536.99983 1.35082e-17
6538.50313 1.36128e-17
6539.99641 1.37091e-17
6541.49971 1.35823e-17
6543.00301 1.34181e-17
6544.49629 1.34541e-17
6545.99959 1.35063e-17
6547.50289 1.35741e-17
6548.99616 1.36729e-17
6550.49946 1.36120e-17
6552.00276 1.35286e-17
6553.49604 1.35111e-17
6554.99934 1.34609e-17
6556.50264 1.34556e-17
6557.99592 1.34954e-17
6559.49922 1.34617e-17
6561.00252 1.34285e-17
6562.49580 1.34300e-17
6563.99910 1.34405e-17
6565.50240 1.34424e-17
6566.99568 1.33583e-17
6568.49898 1.33374e-17
6570.00228 1.33521e-17
6571.49555 1.33465e-17
6572.99885 1.33868e-17
6574.50215 1.34427e-17
6575.99543 1.34182e-17
6577.49873 1.34059e-17
6579.00203 1.34062e-17
6580.49531 1.32922e-17
6581.99861 1.32969e-17
6583.50191 1.32507e-17
6584.99519 1.33767e-17
6586.49849 1.32433e-17
6588.00179 1.31695e-17
6589.49507 1.30713e-17
6590.99837 1.31457e-17
6592.50167 1.30262e-17
6593.99494 1.30330e-17
6595.49824 1.32402e-17
6597.00154 1.31497e-17
6598.50484 1.30887e-17
6599.99812 1.31664e-17
6601.50142 1.30922e-17
6603.00472 1.30476e-17
6604.49800 1.30002e-17
6606.00130 1.29966e-17
6607.50460 1.30242e-17
6608.99788 1.30170e-17
6610.50118 1.30240e-17
6612.00448 1.30647e-17
6613.49776 1.29495e-17
6615.00106 1.28923e-17
6616.50436 1.29102e-17
6617.99763 1.29575e-17
6619.50093 1.29641e-17
6621.00423 1.28137e-17
6622.49751 1.27365e-17
6624.00081 1.26669e-17
6625.50411 1.25710e-17
6626.99739 1.25514e-17
6628.50069 1.26222e-17
6630.00399 1.27715e-17
6631.49727 1.28147e-17
6633.00057 1.27506e-17
6634.50387 1.26583e-17
6635.99715 1.25965e-17
6637.50045 1.25576e-17
6639.00375 1.25216e-17
6640.49702 1.25267e-17
6642.00032 1.25115e-17
6643.50362 1.23651e-17
6644.99690 1.24848e-17
6646.50020 1.24033e-17
6648.00350 1.23878e-17
6649.49678 1.24583e-17
6651.00008 1.24552e-17
6652.50338 1.23155e-17
6653.99666 1.24493e-17
6655.49996 1.24701e-17
6657.00326 1.23369e-17
6658.49654 1.23487e-17
6659.99984 1.22573e-17
6661.50314 1.22260e-17
6662.99641 1.22825e-17
6664.49971 1.22894e-17
6666.00301 1.21416e-17
6667.49629 1.21440e-17
6668.99959 1.22654e-17
6670.50289 1.22025e-17
6671.99617 1.22670e-17
6673.49947 1.22035e-17
6675.00277 1.21653e-17
6676.49605 1.22100e-17
6677.99935 1.21587e-17
6679.50265 1.21303e-17
6680.99593 1.20930e-17
6682.49923 1.20227e-17
6684.00253 1.20624e-17
6685.49580 1.21198e-17
6686.99910 1.21188e-17
6688.50240 1.21033e-17
6689.99568 1.20470e-17
6691.49898 1.20169e-17
6693.00228 1.19454e-17
6694.49556 1.19730e-17
6695.99886 1.20491e-17
6697.50216 1.20540e-17
6698.99544 1.20770e-17
6700.49874 1.21179e-17
6702.00204 1.20833e-17
6703.49532 1.20194e-17
6704.99862 1.18986e-17
6706.50192 1.18517e-17
6707.99519 1.19813e-17
6709.49849 1.19274e-17
6711.00179 1.18278e-17
6712.49507 1.17766e-17
6713.99837 1.18194e-17
6715.50167 1.18558e-17
6716.99495 1.18042e-17
6718.49825 1.18128e-17
6720.00155 1.17990e-17
6721.50485 1.17627e-17
6722.99813 1.18239e-17
6724.50143 1.18654e-17
6726.00473 1.18336e-17
6727.49801 1.18603e-17
6729.00131 1.18165e-17
6730.50461 1.17941e-17
6731.99788 1.16991e-17
6733.50118 1.16093e-17
6735.00448 1.17015e-17
6736.49776 1.16281e-17
6738.00106 1.15963e-17
6739.50436 1.16545e-17
6740.99764 1.16304e-17
6742.50094 1.16326e-17
6744.00424 1.16523e-17
6745.49752 1.16289e-17
6747.00082 1.16379e-17
6748.50412 1.16900e-17
6749.99740 1.16115e-17
6751.50070 1.14741e-17
6753.00400 1.14275e-17
6754.49727 1.14480e-17
6756.00057 1.14474e-17
6757.50387 1.14432e-17
6758.99715 1.15024e-17
6760.50045 1.15411e-17
6762.00375 1.14453e-17
6763.49703 1.12687e-17
6765.00033 1.11952e-17
6766.50363 1.12451e-17
6767.99691 1.12875e-17
6769.50021 1.13510e-17
6771.00351 1.13786e-17
6772.49679 1.12841e-17
6774.00009 1.13229e-17
6775.50339 1.12396e-17
6776.99666 1.10480e-17
6778.49996 1.10472e-17
6780.00326 1.10912e-17
6781.49654 1.10692e-17
6782.99984 1.10439e-17
6784.50314 1.10648e-17
6785.99642 1.10000e-17
6787.49972 1.09833e-17
6789.00302 1.09293e-17
6790.49630 1.09993e-17
6791.99960 1.10297e-17
6793.50290 1.09062e-17
6794.99618 1.07860e-17
6796.49948 1.08074e-17
6798.00278 1.08035e-17
6799.49605 1.07814e-17
6800.99935 1.07109e-17
6802.50265 1.06848e-17
6803.99593 1.07729e-17
6805.49923 1.08020e-17
6807.00253 1.07249e-17
6808.49581 1.08506e-17
6809.99911 1.08439e-17
6811.50241 1.08184e-17
6812.99569 1.07832e-17
6814.49899 1.08381e-17
6816.00229 1.07492e-17
6817.49557 1.06921e-17
6818.99887 1.07519e-17
6820.50217 1.07660e-17
6821.99544 1.07411e-17
6823.49874 1.07477e-17
6825.00204 1.06961e-17
6826.49532 1.06593e-17
6827.99862 1.06725e-17
6829.50192 1.06467e-17
6830.99520 1.06915e-17
6832.49850 1.06966e-17
6834.00180 1.06696e-17
6835.49508 1.06347e-17
6836.99838 1.05250e-17
6838.50168 1.05720e-17
6839.99496 1.06693e-17
6841.49826 1.06627e-17
6843.00156 1.06666e-17
6844.50486 1.06323e-17
6845.99813 1.06279e-17
6847.50143 1.06235e-17
6849.00473 1.06192e-17
6850.49801 1.06148e-17
6852.00131 1.06104e-17
6853.50461 1.06060e-17
6854.99789 1.06016e-17
6856.50119 1.05972e-17
6858.00449 1.05928e-17
6859.49777 1.05885e-17
6861.00107 1.05841e-17
6862.50437 1.05797e-17
6863.99765 1.05753e-17
6865.50095 1.05709e-17
6867.00425 1.05665e-17
6868.49752 1.05622e-17
6870.00082 1.05578e-17
6871.50412 1.05534e-17
6872.99740 1.05490e-17
6874.50070 1.05446e-17
6876.00400 1.05402e-17
6877.49728 1.05359e-17
6879.00058 1.05315e-17
6880.50388 1.05271e-17
6881.99716 1.05227e-17
6883.50046 1.05183e-17
6885.00376 1.05140e-17
6886.49704 1.05096e-17
6888.00034 1.05052e-17
6889.50364 1.05008e-17
6890.99691 1.04965e-17
6892.50021 1.04921e-17
6894.00351 1.04877e-17
6895.49679 1.04833e-17
6897.00009 1.04789e-17
6898.50339 1.04746e-17
6899.99667 1.04702e-17
6901.49997 1.04658e-17
6903.00327 1.04614e-17
6904.49655 1.04571e-17
6905.99985 1.04527e-17
6907.50315 1.04483e-17
6908.99643 1.04439e-17
6910.49973 1.04396e-17
6912.00303 1.04352e-17
6913.49630 1.04308e-17
6914.99960 1.04264e-17
6916.50290 1.04221e-17
6917.99618 1.04177e-17
6919.49948 1.04133e-17
6921.00278 1.04090e-17
6922.49606 1.04046e-17
6923.99936 1.04002e-17
6925.50266 1.03958e-17
6926.99594 1.03915e-17
6928.49924 1.03871e-17
6930.00254 1.03827e-17
6931.49582 1.03784e-17
6932.99912 1.03740e-17
6934.50242 1.03696e-17
6935.99569 1.03652e-17
6937.49899 1.04783e-17
6939.00229 1.04986e-17
6940.49557 1.05073e-17
6941.99887 1.05255e-17
6943.50217 1.05192e-17
6944.99545 1.04926e-17
6946.49875 1.03594e-17
6948.00205 1.03507e-17
6949.49533 1.04474e-17
6950.99863 1.04224e-17
6952.50193 1.01949e-17
6953.99521 1.02262e-17
6955.49851 1.03838e-17
6957.00181 1.03656e-17
6958.50511 1.02923e-17
6959.99838 1.03408e-17
6961.50168 1.03675e-17
6962.99496 1.03968e-17
6964.49826 1.05112e-17
6966.00156 1.06481e-17
6967.50486 1.05825e-17
6968.99814 1.05315e-17
6970.50144 1.05582e-17
6972.00474 1.05144e-17
6973.49802 1.04715e-17
6975.00132 1.04373e-17
6976.50462 1.04637e-17
6977.99790 1.04573e-17
6979.50120 1.03904e-17
6981.00450 1.03335e-17
6982.49777 1.02681e-17
6984.00107 1.02609e-17
6985.50437 1.03222e-17
6986.99765 1.04813e-17
6988.50095 1.04775e-17
6990.00425 1.03458e-17
6991.49753 1.03026e-17
6993.00083 1.03181e-17
6994.50413 1.03576e-17
6995.99741 1.03523e-17
6997.50071 1.02677e-17
6999.00401 1.01520e-17
7000.49729 1.00047e-17
7002.00059 9.97528e-18
7003.50389 1.01482e-17
7004.99716 1.01177e-17
7006.50046 9.96903e-18
7008.00376 9.95029e-18
7009.49704 9.96257e-18
7011.00034 1.00712e-17
7012.50364 1.01015e-17
7013.99692 1.00351e-17
7015.50022 1.00840e-17
7017.00352 1.03430e-17
7018.49680 1.02374e-17
7020.00010 1.00218e-17
7021.50340 1.00228e-17
7022.99668 9.98196e-18
7024.49998 9.97046e-18
7026.00328 9.99511e-18
7027.49655 1.00161e-17
7028.99985 1.00435e-17
7030.50315 1.00303e-17
7031.99643 1.00207e-17
7033.49973 1.00962e-17
7035.00303 1.00788e-17
7036.49631 1.01282e-17
7037.99961 1.02361e-17
7039.50291 1.00798e-17
7040.99619 9.98975e-18
7042.49949 1.00069e-17
7044.00279 1.00080e-17
7045.49607 9.98895e-18
7046.99937 9.96301e-18
7048.50267 9.89926e-18
7049.99594 9.82168e-18
7051.49924 9.80382e-18
7053.00254 9.77636e-18
7054.49582 9.74259e-18
7055.99912 9.75294e-18
7057.50242 9.79848e-18
7058.99570 9.83886e-18
7060.49900 9.90998e-18
7062.00230 9.94982e-18
7063.49558 9.96284e-18
7064.99888 1.00100e-17
7066.50218 1.00074e-17
7067.99546 9.90565e-18
7069.49876 9.99672e-18
7071.00206 9.93777e-18
7072.49533 9.84656e-18
7073.99863 9.76773e-18
7075.50193 9.73406e-18
7076.99521 9.76629e-18
7078.49851 9.79567e-18
7080.00181 9.79695e-18
7081.50511 9.79699e-18
7082.99839 9.71265e-18
7084.50169 9.86610e-18
7085.99497 9.89363e-18
7087.49827 9.83763e-18
7089.00157 9.95467e-18
7090.50487 9.89145e-18
7091.99815 9.74265e-18
7093.50145 9.80763e-18
7095.00475 9.92297e-18
7096.49802 9.67110e-18
7098.00132 9.69103e-18
7099.50462 9.78141e-18
7100.99790 9.66603e-18
7102.50120 9.69677e-18
7104.00450 9.67073e-18
7105.49778 9.76048e-18
7107.00108 9.89120e-18
7108.50438 9.79694e-18
7109.99766 9.62812e-18
7111.50096 9.62172e-18
7113.00426 9.65346e-18
7114.49754 9.63341e-18
7116.00084 9.56948e-18
7117.50414 9.52059e-18
7118.99741 9.72675e-18
7120.50071 9.71207e-18
7122.00401 9.70652e-18
7123.49729 9.85059e-18
7125.00059 9.79956e-18
7126.50389 9.63311e-18
7127.99717 9.61560e-18
7129.50047 9.73910e-18
7131.00377 9.72404e-18
7132.49705 9.60900e-18
7134.00035 9.57685e-18
7135.50365 9.64973e-18
7136.99693 9.56506e-18
7138.50023 9.45303e-18
7140.00353 9.49686e-18
7141.49680 9.51271e-18
7143.00010 9.41840e-18
7144.50340 9.51856e-18
7145.99668 9.66500e-18
7147.49998 9.54817e-18
7149.00328 9.53895e-18
7150.49656 9.74247e-18
7151.99986 9.70841e-18
7153.50316 9.72286e-18
7154.99644 9.63187e-18
7156.49974 9.70110e-18
7158.00304 9.68498e-18
7159.49632 9.61431e-18
7160.99962 9.55521e-18
7162.50292 9.63968e-18
7163.99619 9.37176e-18
7165.49949 9.36140e-18
7167.00279 9.28371e-18
7168.49607 9.27458e-18
7169.99937 9.17997e-18
7171.50267 9.31905e-18
7172.99595 9.38053e-18
7174.49925 9.29022e-18
7176.00255 9.23131e-18
7177.49583 9.13343e-18
7178.99913 9.32317e-18
7180.50243 9.51044e-18
7181.99571 9.46730e-18
7183.49901 9.26913e-18
7185.00231 9.11753e-18
7186.49558 9.18098e-18
7187.99888 9.31678e-18
7189.50218 9.39415e-18
7190.99546 9.29125e-18
7192.49876 9.20121e-18
7194.00206 9.28616e-18
7195.49534 9.25912e-18
7196.99864 9.23500e-18
7198.50194 9.19901e-18
7199.99522 9.13915e-18
7201.49852 9.34284e-18
7203.00182 9.55463e-18
7204.50512 9.49782e-18
7205.99840 9.46413e-18
7207.50170 9.49861e-18
7208.99497 9.36645e-18
7210.49827 9.25152e-18
7212.00157 9.27530e-18
7213.50487 9.24345e-18
7214.99815 9.17658e-18
7216.50145 9.08531e-18
7218.00475 9.11199e-18
7219.49803 9.08460e-18
7221.00133 9.11618e-18
7222.50463 9.13176e-18
7223.99791 8.94370e-18
7225.50121 8.99011e-18
7227.00451 9.11184e-18
7228.49779 9.29863e-18
7230.00109 9.15945e-18
7231.50439 9.05843e-18
7232.99766 8.86354e-18
7234.50096 8.86797e-18
7236.00426 8.88265e-18
7237.49754 8.70086e-18
7239.00084 8.75552e-18
7240.50414 8.72877e-18
7241.99742 8.68260e-18
7243.50072 8.79305e-18
7245.00402 8.80123e-18
7246.49730 8.75529e-18
7248.00060 8.73191e-18
7249.50390 8.74765e-18
7250.99718 8.76294e-18
7252.50048 8.63327e-18
7254.00378 8.59156e-18
7255.49705 8.63351e-18
7257.00035 8.68126e-18
7258.50365 8.69777e-18
7259.99693 8.58662e-18
7261.50023 8.52383e-18
7263.00353 8.55707e-18
7264.49681 8.46045e-18
7266.00011 8.44901e-18
7267.50341 8.60613e-18
7268.99669 8.62492e-18
7270.49999 8.54275e-18
7272.00329 8.45272e-18
7273.49657 8.23983e-18
7274.99987 8.15326e-18
7276.50317 8.31180e-18
7277.99644 8.44865e-18
7279.49974 8.39430e-18
7281.00304 8.31766e-18
7282.49632 8.25568e-18
7283.99962 8.22044e-18
7285.50292 8.28008e-18
7286.99620 8.18002e-18
7288.49950 8.01059e-18
7290.00280 7.86934e-18
7291.49608 8.01523e-18
7292.99938 8.13325e-18
7294.50268 8.15388e-18
7295.99596 8.25418e-18
7297.49926 8.17529e-18
7299.00256 8.15319e-18
7300.49583 8.19663e-18
7301.99913 8.22556e-18
7303.50243 8.17881e-18
7304.99571 8.07149e-18
7306.49901 7.98127e-18
7308.00231 7.86603e-18
7309.49559 7.82342e-18
7310.99889 7.78189e-18
7312.50219 7.70565e-18
7313.99547 7.76717e-18
7315.49877 7.71710e-18
7317.00207 7.70051e-18
7318.49535 7.68499e-18
7319.99865 7.74627e-18
7321.50195 7.78360e-18
7322.99522 7.71936e-18
7324.49852 7.69713e-18
7326.00182 7.70274e-18
7327.50512 7.70873e-18
7328.99840 7.68811e-18
7330.50170 7.59511e-18
7331.99498 7.57747e-18
7333.49828 7.58419e-18
7335.00158 7.48095e-18
7336.50488 7.42443e-18
7337.99816 7.44068e-18
7339.50146 7.45298e-18
7341.00476 7.39943e-18
7342.49804 7.39544e-18
7344.00134 7.39916e-18
7345.50464 7.40855e-18
7346.99791 7.42514e-18
7348.50121 7.30555e-18
7350.00451 7.30002e-18
7351.49779 7.36928e-18
7353.00109 7.33022e-18
7354.50439 7.30951e-18
7355.99767 7.19555e-18
7357.50097 7.05682e-18
7359.00427 6.95162e-18
7360.49755 6.93939e-18
7362.00085 6.97196e-18
7363.50415 6.93587e-18
7364.99743 6.82226e-18
7366.50073 6.91386e-18
7368.00403 6.85178e-18
7369.49730 6.88329e-18
7371.00060 6.86451e-18
7372.50390 6.85883e-18
7373.99718 6.96357e-18
7375.50048 6.91570e-18
7377.00378 6.77800e-18
7378.49706 6.66910e-18
7380.00036 6.60508e-18
7381.50366 6.62422e-18
7382.99694 6.54044e-18
7384.50024 6.47142e-18
7386.00354 6.42512e-18
7387.49682 6.49085e-18
7389.00012 6.43843e-18
7390.50342 6.36631e-18
7391.99669 6.40302e-18
7393.49999 6.49395e-18
7395.00329 6.41258e-18
7396.49657 6.42778e-18
7397.99987 6.38367e-18
7399.50317 6.24855e-18
7400.99645 6.15997e-18
7402.49975 6.19433e-18
7404.00305 6.14376e-18
7405.49633 6.06339e-18
7406.99963 6.10211e-18
7408.50293 6.06188e-18
7409.99621 5.87330e-18
7411.49951 5.84683e-18
7413.00281 5.88141e-18
7414.49608 5.87161e-18
7415.99938 5.86094e-18
7417.50268 5.84092e-18
7418.99596 5.79723e-18
7420.49926 5.70642e-18
7422.00256 5.67058e-18
7423.49584 5.58032e-18
7424.99914 5.47180e-18
7426.50244 5.47279e-18
7427.99572 5.50397e-18
7429.49902 5.43546e-18
7431.00232 5.45119e-18
7432.49560 5.41918e-18
7433.99890 5.44655e-18
7435.50220 5.56691e-18
7436.99547 5.45335e-18
7438.49877 5.38353e-18
7440.00207 5.33051e-18
7441.49535 5.19463e-18
7442.99865 5.14005e-18
7444.50195 5.06259e-18
7445.99523 5.03861e-18
7447.49853 5.10495e-18
7449.00183 5.10291e-18
7450.50513 5.09330e-18
7451.99841 5.10566e-18
7453.50171 5.05581e-18
7454.99499 4.95720e-18
7456.49829 4.91431e-18
7458.00159 4.94646e-18
7459.49486 4.93438e-18
7460.99816 4.82531e-18
7462.50146 4.75403e-18
7464.00476 4.79211e-18
7465.49804 4.79500e-18
7467.00134 4.79345e-18
7468.50464 4.87081e-18
7469.99792 4.86111e-18
7471.50122 4.75912e-18
7473.00452 4.70050e-18
7474.49780 4.66679e-18
7476.00110 4.63767e-18
7477.50440 4.66919e-18
7478.99768 4.61349e-18
7480.50098 4.56950e-18
7482.00428 4.54593e-18
7483.49755 4.51797e-18
7485.00085 4.52281e-18
7486.50415 4.52888e-18
7487.99743 4.55102e-18
7489.50073 4.48926e-18
7491.00403 4.31282e-18
7492.49731 4.23156e-18
7494.00061 4.23154e-18
7495.50391 4.20383e-18
7496.99719 4.24435e-18
7498.50049 4.23464e-18
7500.00379 4.18158e-18
7501.49707 4.20940e-18
7503.00037 4.11968e-18
7504.50367 4.03589e-18
7505.99694 3.91526e-18
7507.50024 3.95619e-18
7509.00354 4.00202e-18
7510.49682 3.96693e-18
7512.00012 3.84450e-18
7513.50342 3.79226e-18
7514.99670 3.78419e-18
7516.50000 3.75477e-18
7518.00330 3.76951e-18
7519.49658 3.83310e-18
7520.99988 3.79160e-18
7522.50318 3.81033e-18
7523.99646 3.78620e-18
7525.49976 3.70688e-18
7527.00306 3.66553e-18
7528.49633 3.63555e-18
7529.99963 3.63928e-18
7531.50293 3.62983e-18
7532.99621 3.57881e-18
7534.49951 3.53965e-18
7536.00281 3.61460e-18
7537.49609 3.58839e-18
7538.99939 3.53786e-18
7540.50269 3.78124e-18
