# wavelength flux
3719.99603 6.70825e-18
3721.49933 6.83946e-18
3723.00263 6.69626e-18
3724.49590 7.01604e-18
3725.99920 6.76396e-18
3727.50250 6.72081e-18
3728.99578 6.86476e-18
3730.49908 6.82025e-18
3732.00238 6.68041e-18
3733.49566 6.60527e-18
3734.99896 6.64796e-18
3736.50226 6.62038e-18
3737.99554 6.41965e-18
3739.49884 6.41251e-18
3741.00214 6.24522e-18
3742.49542 6.25428e-18
3743.99872 6.52446e-18
3745.50202 6.44622e-18
3746.99529 5.99166e-18
3748.49859 6.03933e-18
3750.00189 6.38718e-18
3751.49517 6.24793e-18
3752.99847 6.15887e-18
3754.50177 6.36486e-18
3755.99505 6.41134e-18
3757.49835 6.55139e-18
3759.00165 6.65324e-18
3760.50495 6.27384e-18
3761.99823 6.15180e-18
3763.50153 6.31586e-18
3765.00483 6.22684e-18
3766.49811 6.23764e-18
3768.00141 5.83911e-18
3769.50471 6.07201e-18
3770.99798 6.64529e-18
3772.50128 6.17593e-18
3774.00458 5.98638e-18
3775.49786 6.15980e-18
3777.00116 6.19636e-18
3778.50446 6.54119e-18
3779.99774 6.40091e-18
3781.50104 5.90571e-18
3783.00434 6.28282e-18
3784.49762 5.98270e-18
3786.00092 5.98589e-18
3787.50422 6.04373e-18
3788.99750 6.48809e-18
3790.50080 6.32601e-18
3792.00410 6.28823e-18
3793.49737 6.37613e-18
3795.00067 6.21940e-18
3796.50397 6.38171e-18
3797.99725 6.35430e-18
3799.50055 6.22618e-18
3801.00385 6.06925e-18
3802.49713 6.28020e-18
3804.00043 6.44224e-18
3805.50373 6.21167e-18
3806.99701 6.18532e-18
3808.50031 6.18285e-18
3810.00361 6.22558e-18
3811.49689 6.39547e-18
3813.00019 6.51676e-18
3814.50349 6.65857e-18
3815.99676 6.71172e-18
3817.50006 6.64855e-18
3819.00336 6.66751e-18
3820.49664 6.74832e-18
3821.99994 6.79588e-18
3823.50324 6.70539e-18
3824.99652 7.17309e-18
3826.49982 7.42649e-18
3828.00312 6.95310e-18
3829.49640 6.80226e-18
3830.99970 7.25006e-18
3832.50300 7.32689e-18
3833.99628 7.07668e-18
3835.49958 6.92654e-18
3837.00288 7.06911e-18
3838.49615 7.54046e-18
3839.99945 7.43323e-18
3841.50275 7.05687e-18
3842.99603 7.30471e-18
3844.49933 7.32603e-18
3846.00263 7.54071e-18
3847.49591 7.84465e-18
3848.99921 7.39935e-18
3850.50251 7.46490e-18
3851.99579 7.26150e-18
3853.49909 7.68855e-18
3855.00239 7.89510e-18
3856.49567 7.68678e-18
3857.99897 7.71477e-18
3859.50227 7.97478e-18
3860.99554 8.02429e-18
3862.49884 8.03029e-18
3864.00214 8.03656e-18
3865.49542 8.07529e-18
3866.99872 8.28932e-18
3868.50202 8.54760e-18
3869.99530 8.45282e-18
3871.49860 8.63576e-18
3873.00190 8.71018e-18
3874.49518 8.61727e-18
3875.99848 8.75887e-18
3877.50178 8.85096e-18
3878.99506 8.75187e-18
3880.49836 8.55921e-18
3882.00166 8.51266e-18
3883.50496 8.64378e-18
3884.99823 8.81820e-18
3886.50153 9.04725e-18
3888.00483 8.87771e-18
3889.49811 8.75079e-18
3891.00141 9.14229e-18
3892.50471 9.30016e-18
3893.99799 8.77840e-18
3895.50129 8.76936e-18
3897.00459 9.28686e-18
3898.49787 9.46444e-18
3900.00117 9.43235e-18
3901.50447 9.12704e-18
3902.99775 9.11575e-18
3904.50105 9.37936e-18
3906.00435 9.39763e-18
3907.49762 9.55563e-18
3909.00092 9.52872e-18
3910.50422 9.44248e-18
3911.99750 9.56188e-18
3913.50080 9.81840e-18
3915.00410 9.71811e-18
3916.49738 9.68386e-18
3918.00068 9.57301e-18
3919.50398 9.48058e-18
3920.99726 9.47728e-18
3922.50056 9.92195e-18
3924.00386 9.56654e-18
3925.49714 9.53688e-18
3927.00044 1.00427e-17
3928.50374 9.84350e-18
3929.99701 9.70744e-18
3931.50031 9.47720e-18
3933.00361 9.70582e-18
3934.49689 9.53731e-18
3936.00019 9.39594e-18
3937.50349 9.57208e-18
3938.99677 9.76784e-18
3940.50007 9.92587e-18
3942.00337 9.85852e-18
3943.49665 9.81811e-18
3944.99995 9.73445e-18
3946.50325 1.00128e-17
3947.99653 1.02777e-17
3949.49983 1.01979e-17
3951.00313 1.01960e-17
3952.49640 1.02300e-17
3953.99970 1.01972e-17
3955.50300 1.01029e-17
3956.99628 1.03064e-17
3958.49958 1.05362e-17
3960.00288 1.03375e-17
3961.49616 1.03389e-17
3962.99946 1.06355e-17
3964.50276 1.07018e-17
3965.99604 1.05482e-17
3967.49934 1.03122e-17
3969.00264 1.03719e-17
3970.49592 1.04804e-17
3971.99922 1.05562e-17
3973.50252 1.03860e-17
3974.99579 1.01121e-17
3976.49909 1.04076e-17
3978.00239 1.07610e-17
3979.49567 1.07727e-17
3980.99897 1.06548e-17
3982.50227 1.03915e-17
3983.99555 1.02606e-17
3985.49885 1.05043e-17
3987.00215 1.08436e-17
3988.49543 1.08920e-17
3989.99873 1.06368e-17
3991.50203 1.05984e-17
3992.99531 1.07368e-17
3994.49861 1.05739e-17
3996.00191 1.02878e-17
3997.49518 1.05226e-17
3998.99848 1.08159e-17
4000.50178 1.08355e-17
4001.99506 1.07804e-17
4003.49836 1.04688e-17
4005.00166 1.06153e-17
4006.50496 1.06456e-17
4007.99824 1.09114e-17
4009.50154 1.11087e-17
4011.00484 1.06446e-17
4012.49812 1.05224e-17
4014.00142 1.06247e-17
4015.50472 1.04988e-17
4016.99800 1.03246e-17
4018.50130 1.04739e-17
4020.00460 1.03582e-17
4021.49787 1.04180e-17
4023.00117 1.05635e-17
4024.50447 1.08378e-17
4025.99775 1.06408e-17
4027.50105 1.03956e-17
4029.00435 1.03894e-17
4030.49763 1.02632e-17
4032.00093 1.01166e-17
4033.50423 1.02747e-17
4034.99751 1.03089e-17
4036.50081 1.00637e-17
4038.00411 1.01565e-17
4039.49739 1.01778e-17
4041.00069 1.01509e-17
4042.50399 1.03066e-17
4043.99726 1.01876e-17
4045.50056 1.03495e-17
4047.00386 1.03915e-17
4048.49714 1.03011e-17
4050.00044 1.03040e-17
4051.50374 1.03312e-17
4052.99702 1.01047e-17
4054.50032 9.93009e-18
4056.00362 9.97075e-18
4057.49690 1.02801e-17
4059.00020 1.02037e-17
4060.50350 1.01069e-17
4061.99678 1.04015e-17
4063.50008 9.95632e-18
4065.00338 1.02007e-17
4066.49665 1.03890e-17
4067.99995 1.00659e-17
4069.50325 1.02510e-17
4070.99653 1.04231e-17
4072.49983 1.05615e-17
4074.00313 1.04415e-17
4075.49641 1.02137e-17
4076.99971 1.04153e-17
4078.50301 1.01956e-17
4079.99629 1.02049e-17
4081.49959 1.02480e-17
4083.00289 1.03106e-17
4084.49617 1.03875e-17
4085.99947 1.03254e-17
4087.50277 1.02273e-17
4088.99604 1.03070e-17
4090.49934 1.03195e-17
4092.00264 1.01583e-17
4093.49592 1.02329e-17
4094.99922 1.03212e-17
4096.50252 1.02646e-17
4097.99580 1.03293e-17
4099.49910 1.05863e-17
4101.00240 1.06880e-17
4102.49568 1.06643e-17
4103.99898 1.04588e-17
4105.50228 1.04230e-17
4106.99556 1.06388e-17
4108.49886 1.05581e-17
4110.00216 1.04674e-17
4111.49543 1.05052e-17
4112.99873 1.04063e-17
4114.50203 1.04046e-17
4115.99531 1.04770e-17
4117.49861 1.06325e-17
4119.00191 1.07381e-17
4120.49519 1.07431e-17
4121.99849 1.05803e-17
4123.50179 1.05306e-17
4124.99507 1.04119e-17
4126.49837 1.06261e-17
4128.00167 1.07213e-17
4129.50497 1.06847e-17
4130.99825 1.08676e-17
4132.50155 1.11219e-17
4134.00485 1.11315e-17
4135.49812 1.10088e-17
4137.00142 1.09391e-17
4138.50472 1.08418e-17
4139.99800 1.09454e-17
4141.50130 1.09682e-17
4143.00460 1.07696e-17
4144.49788 1.07849e-17
4146.00118 1.08364e-17
4147.50448 1.09572e-17
4148.99776 1.09964e-17
4150.50106 1.09955e-17
4152.00436 1.10879e-17
4153.49764 1.10669e-17
4155.00094 1.07567e-17
4156.50424 1.05653e-17
4157.99751 1.11009e-17
4159.50081 1.11610e-17
4161.00411 1.09699e-17
4162.49739 1.08261e-17
4164.00069 1.10209e-17
4165.50399 1.11690e-17
4166.99727 1.12466e-17
4168.50057 1.14065e-17
4170.00387 1.15056e-17
4171.49715 1.15153e-17
4173.00045 1.13275e-17
4174.50375 1.11750e-17
4175.99703 1.11143e-17
4177.50033 1.11751e-17
4179.00363 1.12454e-17
4180.49690 1.14224e-17
4182.00020 1.14098e-17
4183.50350 1.12589e-17
4184.99678 1.13544e-17
4186.50008 1.14732e-17
4188.00338 1.16177e-17
4189.49666 1.15791e-17
4190.99996 1.15889e-17
4192.50326 1.16910e-17
4193.99654 1.17228e-17
4195.49984 1.15548e-17
4197.00314 1.15716e-17
4198.49642 1.17875e-17
4199.99972 1.19029e-17
4201.50302 1.18225e-17
4202.99629 1.15267e-17
4204.49959 1.16485e-17
4206.00289 1.20001e-17
4207.49617 1.21941e-17
4208.99947 1.21919e-17
4210.50277 1.20962e-17
4211.99605 1.20982e-17
4213.49935 1.19757e-17
4215.00265 1.20249e-17
4216.49593 1.22809e-17
4217.99923 1.23230e-17
4219.50253 1.21482e-17
4220.99581 1.20084e-17
4222.49911 1.21044e-17
4224.00241 1.20930e-17
4225.49568 1.20735e-17
4226.99898 1.21238e-17
4228.50228 1.21396e-17
4229.99556 1.22585e-17
4231.49886 1.22458e-17
4233.00216 1.21393e-17
4234.49544 1.22690e-17
4235.99874 1.22107e-17
4237.50204 1.21756e-17
4238.99532 1.23993e-17
4240.49862 1.24780e-17
4242.00192 1.23716e-17
4243.49520 1.22446e-17
4244.99850 1.23510e-17
4246.50180 1.25017e-17
4247.99507 1.24829e-17
4249.49837 1.24926e-17
4251.00167 1.25691e-17
4252.50497 1.24587e-17
4253.99825 1.25882e-17
4255.50155 1.26867e-17
4257.00485 1.24180e-17
4258.49813 1.24363e-17
4260.00143 1.25660e-17
4261.50473 1.25009e-17
4262.99801 1.25283e-17
4264.50131 1.26177e-17
4266.00461 1.27995e-17
4267.49789 1.31159e-17
4269.00119 1.31817e-17
4270.50449 1.30489e-17
4271.99776 1.30584e-17
4273.50106 1.28090e-17
4275.00436 1.30986e-17
4276.49764 1.31577e-17
4278.00094 1.29697e-17
4279.50424 1.31169e-17
4280.99752 1.30667e-17
4282.50082 1.30149e-17
4284.00412 1.30950e-17
4285.49740 1.31292e-17
4287.00070 1.31783e-17
4288.50400 1.32981e-17
4289.99728 1.31843e-17
4291.50058 1.30682e-17
4293.00388 1.34567e-17
4294.49715 1.36167e-17
4296.00045 1.33899e-17
4297.50375 1.33319e-17
4298.99703 1.34112e-17
4300.50033 1.34569e-17
4302.00363 1.33605e-17
4303.49691 1.33772e-17
4305.00021 1.32822e-17
4306.50351 1.32922e-17
4307.99679 1.32650e-17
4309.50009 1.33181e-17
4311.00339 1.33504e-17
4312.49667 1.32246e-17
4313.99997 1.32202e-17
4315.50327 1.33606e-17
4316.99654 1.35123e-17
4318.49984 1.34277e-17
4320.00314 1.34680e-17
4321.49642 1.36233e-17
4322.99972 1.35660e-17
4324.50302 1.34762e-17
4325.99630 1.37819e-17
4327.49960 1.38562e-17
4329.00290 1.34913e-17
4330.49618 1.33759e-17
4331.99948 1.34110e-17
4333.50278 1.33804e-17
4334.99606 1.35325e-17
4336.49936 1.34115e-17
4338.00266 1.33063e-17
4339.49593 1.33473e-17
4340.99923 1.36983e-17
4342.50253 1.37784e-17
4343.99581 1.35600e-17
4345.49911 1.32445e-17
4347.00241 1.32701e-17
4348.49569 1.32756e-17
4349.99899 1.33210e-17
4351.50229 1.34526e-17
4352.99557 1.35556e-17
4354.49887 1.32546e-17
4356.00217 1.30341e-17
4357.49545 1.30395e-17
4358.99875 1.34008e-17
4360.50205 1.33455e-17
4361.99532 1.34160e-17
4363.49862 1.34000e-17
4365.00192 1.33396e-17
4366.49520 1.35474e-17
4367.99850 1.35725e-17
4369.50180 1.34065e-17
4370.99508 1.33979e-17
4372.49838 1.34758e-17
4374.00168 1.35315e-17
4375.50498 1.34887e-17
4376.99826 1.33657e-17
4378.50156 1.33666e-17
4380.00486 1.34716e-17
4381.49814 1.36961e-17
4383.00144 1.37781e-17
4384.50474 1.36230e-17
4385.99801 1.36225e-17
4387.50131 1.37766e-17
4389.00461 1.39529e-17
4390.49789 1.39341e-17
4392.00119 1.38804e-17
4393.50449 1.40970e-17
4394.99777 1.41200e-17
4396.50107 1.41747e-17
4398.00437 1.41508e-17
4399.49765 1.40864e-17
4401.00095 1.43210e-17
4402.50425 1.43106e-17
4403.99753 1.42372e-17
4405.50083 1.43417e-17
4407.00413 1.43859e-17
4408.49740 1.43000e-17
4410.00070 1.43310e-17
4411.50400 1.43688e-17
4412.99728 1.44026e-17
4414.50058 1.44030e-17
4416.00388 1.44220e-17
4417.49716 1.44067e-17
4419.00046 1.45027e-17
4420.50376 1.44530e-17
4421.99704 1.43955e-17
4423.50034 1.45251e-17
4425.00364 1.46765e-17
4426.49692 1.46252e-17
4428.00022 1.48997e-17
4429.50352 1.48818e-17
4430.99679 1.45153e-17
4432.50009 1.48455e-17
4434.00339 1.48216e-17
4435.49667 1.48036e-17
4436.99997 1.47938e-17
4438.50327 1.49942e-17
4439.99655 1.50318e-17
4441.49985 1.51251e-17
4443.00315 1.50989e-17
4444.49643 1.49178e-17
4445.99973 1.52841e-17
4447.50303 1.54895e-17
4448.99631 1.56026e-17
4450.49961 1.59671e-17
4452.00291 1.60625e-17
4453.49618 1.57797e-17
4454.99948 1.59180e-17
4456.50278 1.61364e-17
4457.99606 1.61481e-17
4459.49936 1.61604e-17
4461.00266 1.61076e-17
4462.49594 1.62401e-17
4463.99924 1.63964e-17
4465.50254 1.63578e-17
4466.99582 1.64957e-17
4468.49912 1.65770e-17
4470.00242 1.65768e-17
4471.49570 1.65995e-17
4472.99900 1.66492e-17
4474.50230 1.66998e-17
4475.99557 1.68111e-17
4477.49887 1.67561e-17
4479.00217 1.67348e-17
4480.49545 1.67044e-17
4481.99875 1.66356e-17
4483.50205 1.68642e-17
4484.99533 1.69783e-17
4486.49863 1.70036e-17
4488.00193 1.69880e-17
4489.49521 1.72033e-17
4490.99851 1.73164e-17
4492.50181 1.73458e-17
4493.99509 1.72670e-17
4495.49839 1.75157e-17
4497.00169 1.75650e-17
4498.49496 1.78208e-17
4499.99826 1.77061e-17
4501.50156 1.77079e-17
4503.00486 1.74392e-17
4504.49814 1.75073e-17
4506.00144 1.75567e-17
4507.50474 1.80970e-17
4508.99802 1.79164e-17
4510.50132 1.79309e-17
4512.00462 1.80167e-17
4513.49790 1.79859e-17
4515.00120 1.78860e-17
4516.50450 1.79049e-17
4517.99778 1.79001e-17
4519.50108 1.79028e-17
4521.00438 1.78479e-17
4522.49765 1.79910e-17
4524.00095 1.79874e-17
4525.50425 1.79678e-17
4526.99753 1.80660e-17
4528.50083 1.80576e-17
4530.00413 1.80181e-17
4531.49741 1.82231e-17
4533.00071 1.83807e-17
4534.50401 1.83134e-17
4535.99729 1.83350e-17
4537.50059 1.84584e-17
4539.00389 1.85420e-17
4540.49717 1.84837e-17
4542.00047 1.84479e-17
4543.50377 1.84345e-17
4544.99704 1.85708e-17
4546.50034 1.87289e-17
4548.00364 1.87456e-17
4549.49692 1.87069e-17
4551.00022 1.85172e-17
4552.50352 1.85427e-17
4553.99680 1.87107e-17
4555.50010 1.85065e-17
4557.00340 1.85825e-17
4558.49668 1.86415e-17
4559.99998 1.88133e-17
4561.50328 1.89626e-17
4562.99656 1.88070e-17
4564.49986 1.89442e-17
4566.00316 1.87729e-17
4567.49643 1.86506e-17
4568.99973 1.88663e-17
4570.50303 1.87178e-17
4571.99631 1.86780e-17
4573.49961 1.86019e-17
4575.00291 1.86146e-17
4576.49619 1.84911e-17
4577.99949 1.87112e-17
4579.50279 1.86621e-17
4580.99607 1.86005e-17
4582.49937 1.84731e-17
4584.00267 1.84375e-17
4585.49595 1.87396e-17
4586.99925 1.87507e-17
4588.50255 1.86759e-17
4589.99582 1.87495e-17
4591.49912 1.84993e-17
4593.00242 1.83422e-17
4594.49570 1.82476e-17
4595.99900 1.83190e-17
4597.50230 1.84448e-17
4598.99558 1.84379e-17
4600.49888 1.83181e-17
4602.00218 1.81284e-17
4603.49546 1.82439e-17
4604.99876 1.84895e-17
4606.50206 1.85333e-17
4607.99534 1.85628e-17
4609.49864 1.85083e-17
4611.00194 1.85348e-17
4612.49521 1.85758e-17
4613.99851 1.84336e-17
4615.50181 1.85110e-17
4616.99509 1.86782e-17
4618.49839 1.83522e-17
4620.00169 1.82968e-17
4621.49497 1.86201e-17
4622.99827 1.86150e-17
4624.50157 1.84217e-17
4626.00487 1.81825e-17
4627.49815 1.82141e-17
4629.00145 1.82271e-17
4630.50475 1.80071e-17
4631.99803 1.78715e-17
4633.50133 1.78113e-17
4635.00463 1.78107e-17
4636.49790 1.78974e-17
4638.00120 1.77748e-17
4639.50450 1.77106e-17
4640.99778 1.78747e-17
4642.50108 1.78475e-17
4644.00438 1.74390e-17
4645.49766 1.75188e-17
4647.00096 1.74247e-17
4648.50426 1.72026e-17
4649.99754 1.73175e-17
4651.50084 1.73154e-17
4653.00414 1.71849e-17
4654.49742 1.72905e-17
4656.00072 1.72481e-17
4657.50402 1.70615e-17
4658.99729 1.71040e-17
4660.50059 1.69346e-17
4662.00389 1.69366e-17
4663.49717 1.69145e-17
4665.00047 1.67473e-17
4666.50377 1.66268e-17
4667.99705 1.63944e-17
4669.50035 1.64703e-17
4671.00365 1.65057e-17
4672.49693 1.63262e-17
4674.00023 1.63059e-17
4675.50353 1.62154e-17
4676.99681 1.59904e-17
4678.50011 1.59114e-17
4680.00341 1.59051e-17
4681.49668 1.57955e-17
4682.99998 1.57027e-17
4684.50328 1.57161e-17
4685.99656 1.55779e-17
4687.49986 1.53523e-17
4689.00316 1.53597e-17
4690.49644 1.55499e-17
4691.99974 1.55037e-17
4693.50304 1.52655e-17
4694.99632 1.52729e-17
4696.49962 1.53609e-17
4698.00292 1.52222e-17
4699.49620 1.49198e-17
4700.99950 1.48454e-17
4702.50280 1.49004e-17
4703.99607 1.47946e-17
4705.49937 1.46998e-17
4707.00267 1.46833e-17
4708.49595 1.48613e-17
4709.99925 1.52339e-17
4711.50255 1.51021e-17
4712.99583 1.47823e-17
4714.49913 1.48273e-17
4716.00243 1.45532e-17
4717.49571 1.45602e-17
4718.99901 1.45837e-17
4720.50231 1.44785e-17
4721.99559 1.44387e-17
4723.49889 1.44511e-17
4725.00219 1.43220e-17
4726.49546 1.43457e-17
4727.99876 1.45786e-17
4729.50206 1.44687e-17
4730.99534 1.44870e-17
4732.49864 1.44266e-17
4734.00194 1.43349e-17
4735.49522 1.43522e-17
4736.99852 1.44757e-17
4738.50182 1.44022e-17
4739.99510 1.44377e-17
4741.49840 1.45103e-17
4743.00170 1.44344e-17
4744.49498 1.43672e-17
4745.99828 1.43542e-17
4747.50158 1.42130e-17
4749.00488 1.40914e-17
4750.49815 1.42808e-17
4752.00145 1.43338e-17
4753.50475 1.42764e-17
4754.99803 1.41602e-17
4756.50133 1.41535e-17
4758.00463 1.40994e-17
4759.49791 1.39865e-17
4761.00121 1.41072e-17
4762.50451 1.40571e-17
4763.99779 1.39567e-17
4765.50109 1.38460e-17
4767.00439 1.38157e-17
4768.49767 1.37840e-17
4770.00097 1.37580e-17
4771.50427 1.37165e-17
4772.99754 1.38557e-17
4774.50084 1.37704e-17
4776.00414 1.37184e-17
4777.49742 1.36929e-17
4779.00072 1.37034e-17
4780.50402 1.37724e-17
4781.99730 1.37578e-17
4783.50060 1.36793e-17
4785.00390 1.38823e-17
4786.49718 1.37611e-17
4788.00048 1.37996e-17
4789.50378 1.38447e-17
4790.99706 1.38568e-17
4792.50036 1.37785e-17
4794.00366 1.35909e-17
4795.49693 1.37917e-17
4797.00023 1.38438e-17
4798.50353 1.39928e-17
4799.99681 1.40689e-17
4801.50011 1.40522e-17
4803.00341 1.41054e-17
4804.49669 1.41505e-17
4805.99999 1.41192e-17
4807.50329 1.39517e-17
4808.99657 1.40524e-17
4810.49987 1.41938e-17
4812.00317 1.41447e-17
4813.49645 1.40969e-17
4814.99975 1.40960e-17
4816.50305 1.40817e-17
4817.99632 1.42351e-17
4819.49962 1.41954e-17
4821.00292 1.41035e-17
4822.49620 1.42053e-17
4823.99950 1.41643e-17
4825.50280 1.39670e-17
4826.99608 1.41479e-17
4828.49938 1.43283e-17
4830.00268 1.41862e-17
4831.49596 1.41838e-17
4832.99926 1.42927e-17
4834.50256 1.43124e-17
4835.99584 1.41558e-17
4837.49914 1.41414e-17
4839.00244 1.42093e-17
4840.49571 1.42316e-17
4841.99901 1.42747e-17
4843.50231 1.41767e-17
4844.99559 1.40051e-17
4846.49889 1.40866e-17
4848.00219 1.42146e-17
4849.49547 1.41899e-17
4850.99877 1.42271e-17
4852.50207 1.42454e-17
4853.99535 1.42294e-17
4855.49865 1.43001e-17
4857.00195 1.43537e-17
4858.49523 1.42202e-17
4859.99853 1.42868e-17
4861.50183 1.42237e-17
4862.99510 1.44582e-17
4864.49840 1.43653e-17
4866.00170 1.46595e-17
4867.49498 1.47713e-17
4868.99828 1.45630e-17
4870.50158 1.45331e-17
4872.00488 1.46130e-17
4873.49816 1.47281e-17
4875.00146 1.48181e-17
4876.50476 1.47615e-17
4877.99804 1.49529e-17
4879.50134 1.48928e-17
4881.00464 1.49726e-17
4882.49792 1.50075e-17
4884.00122 1.51067e-17
4885.50452 1.51794e-17
4886.99779 1.50521e-17
4888.50109 1.49040e-17
4890.00439 1.48731e-17
4891.49767 1.49098e-17
4893.00097 1.50117e-17
4894.50427 1.50249e-17
4895.99755 1.50987e-17
4897.50085 1.50403e-17
4899.00415 1.48183e-17
4900.49743 1.48002e-17
4902.00073 1.49211e-17
4903.50403 1.50657e-17
4904.99731 1.50489e-17
4906.50061 1.48871e-17
4908.00391 1.48886e-17
4909.49718 1.51377e-17
4911.00048 1.51365e-17
4912.50378 1.48857e-17
4913.99706 1.47833e-17
4915.50036 1.48859e-17
4917.00366 1.48443e-17
4918.49694 1.49979e-17
4920.00024 1.51650e-17
4921.50354 1.51024e-17
4922.99682 1.51656e-17
4924.50012 1.50985e-17
4926.00342 1.51248e-17
4927.49670 1.50597e-17
4929.00000 1.52041e-17
4930.50330 1.50222e-17
4931.99657 1.51869e-17
4933.49987 1.52667e-17
4935.00317 1.50239e-17
4936.49645 1.50208e-17
4937.99975 1.51813e-17
4939.50305 1.50998e-17
4940.99633 1.50275e-17
4942.49963 1.50258e-17
4944.00293 1.51080e-17
4945.49621 1.52835e-17
4946.99951 1.52254e-17
4948.50281 1.50413e-17
4949.99609 1.50733e-17
4951.49939 1.50337e-17
4953.00269 1.51379e-17
4954.49596 1.52848e-17
4955.99926 1.52500e-17
4957.50256 1.52835e-17
4958.99584 1.52672e-17
4960.49914 1.52359e-17
4962.00244 1.51411e-17
4963.49572 1.51239e-17
4964.99902 1.52232e-17
4966.50232 1.51938e-17
4967.99560 1.51217e-17
4969.49890 1.51548e-17
4971.00220 1.52697e-17
4972.49548 1.53510e-17
4973.99878 1.52267e-17
4975.50208 1.52252e-17
4976.99535 1.50998e-17
4978.49865 1.51576e-17
4980.00195 1.52611e-17
4981.49523 1.52629e-17
4982.99853 1.54055e-17
4984.50183 1.54384e-17
4985.99511 1.52932e-17
4987.49841 1.54071e-17
4989.00171 1.53077e-17
4990.49499 1.52466e-17
4991.99829 1.52736e-17
4993.50159 1.52245e-17
4995.00489 1.53738e-17
4996.49817 1.53665e-17
4998.00147 1.51648e-17
4999.50477 1.53357e-17
5000.99804 1.52480e-17
5002.50134 1.55978e-17
5004.00464 1.55377e-17
5005.49792 1.52998e-17
5007.00122 1.54824e-17
5008.50452 1.54971e-17
5009.99780 1.55440e-17
5011.50110 1.52689e-17
5013.00440 1.53309e-17
5014.49768 1.54819e-17
5016.00098 1.53210e-17
5017.50428 1.52921e-17
5018.99756 1.53972e-17
5020.50086 1.55543e-17
5022.00416 1.56058e-17
5023.49743 1.54945e-17
5025.00073 1.55582e-17
5026.50403 1.55629e-17
5027.99731 1.54295e-17
5029.50061 1.55478e-17
5031.00391 1.56730e-17
5032.49719 1.57708e-17
5034.00049 1.57824e-17
5035.50379 1.56402e-17
5036.99707 1.56622e-17
5038.50037 1.58366e-17
5040.00367 1.58818e-17
5041.49695 1.57458e-17
5043.00025 1.58354e-17
5044.50355 1.59099e-17
5045.99682 1.59270e-17
5047.50012 1.60607e-17
5049.00342 1.61300e-17
5050.49670 1.61369e-17
5052.00000 1.62267e-17
5053.50330 1.61620e-17
5054.99658 1.59528e-17
5056.49988 1.59706e-17
5058.00318 1.62022e-17
5059.49646 1.61058e-17
5060.99976 1.60315e-17
5062.50306 1.62781e-17
5063.99634 1.63841e-17
5065.49964 1.63131e-17
5067.00294 1.63052e-17
5068.49621 1.61733e-17
5069.99951 1.62039e-17
5071.50281 1.63399e-17
5072.99609 1.62725e-17
5074.49939 1.64084e-17
5076.00269 1.64242e-17
5077.49597 1.64946e-17
5078.99927 1.65944e-17
5080.50257 1.66337e-17
5081.99585 1.63623e-17
5083.49915 1.65035e-17
5085.00245 1.67410e-17
5086.49573 1.65627e-17
5087.99903 1.65144e-17
5089.50233 1.66116e-17
5090.99560 1.66485e-17
5092.49890 1.65835e-17
5094.00220 1.66149e-17
5095.49548 1.67829e-17
5096.99878 1.67003e-17
5098.50208 1.65952e-17
5099.99536 1.67288e-17
5101.49866 1.68510e-17
5103.00196 1.69979e-17
5104.49524 1.69352e-17
5105.99854 1.69668e-17
5107.50184 1.71024e-17
5108.99512 1.70625e-17
5110.49842 1.71278e-17
5112.00172 1.71924e-17
5113.49499 1.73059e-17
5114.99829 1.71826e-17
5116.50159 1.71349e-17
5118.00489 1.72141e-17
5119.49817 1.72251e-17
5121.00147 1.72720e-17
5122.50477 1.72947e-17
5123.99805 1.73436e-17
5125.50135 1.75626e-17
5127.00465 1.75276e-17
5128.49793 1.75629e-17
5130.00123 1.75182e-17
5131.50453 1.75927e-17
5132.99781 1.75573e-17
5134.50111 1.75331e-17
5136.00441 1.75499e-17
5137.49768 1.77522e-17
5139.00098 1.77099e-17
5140.50428 1.77784e-17
5141.99756 1.78181e-17
5143.50086 1.77714e-17
5145.00416 1.76683e-17
5146.49744 1.78984e-17
5148.00074 1.79402e-17
5149.50404 1.78924e-17
5150.99732 1.78957e-17
5152.50062 1.79815e-17
5154.00392 1.80268e-17
5155.49720 1.79905e-17
5157.00050 1.79742e-17
5158.50380 1.80971e-17
5159.99707 1.80100e-17
5161.50037 1.81246e-17
5163.00367 1.82016e-17
5164.49695 1.82983e-17
5166.00025 1.83238e-17
5167.50355 1.82330e-17
5168.99683 1.83113e-17
5170.50013 1.84020e-17
5172.00343 1.84065e-17
5173.49671 1.85202e-17
5175.00001 1.85649e-17
5176.50331 1.85489e-17
5177.99659 1.86465e-17
5179.49989 1.87581e-17
5181.00319 1.86729e-17
5182.49646 1.87385e-17
5183.99976 1.87689e-17
5185.50306 1.87538e-17
5186.99634 1.87853e-17
5188.49964 1.89863e-17
5190.00294 1.90842e-17
5191.49622 1.88993e-17
5192.99952 1.88211e-17
5194.50282 1.89260e-17
5195.99610 1.91906e-17
5197.49940 1.91764e-17
5199.00270 1.92496e-17
5200.49598 1.91575e-17
5201.99928 1.90339e-17
5203.50258 1.90603e-17
5204.99585 1.91116e-17
5206.49915 1.90597e-17
5208.00245 1.91978e-17
5209.49573 1.92211e-17
5210.99903 1.93727e-17
5212.50233 1.96483e-17
5213.99561 1.94624e-17
5215.49891 1.95538e-17
5217.00221 1.95421e-17
5218.49549 1.97868e-17
5219.99879 1.96694e-17
5221.50209 1.95162e-17
5222.99537 1.93298e-17
5224.49867 1.94763e-17
5226.00197 1.95773e-17
5227.49524 1.94955e-17
5228.99854 1.94276e-17
5230.50184 1.96228e-17
5231.99512 1.98270e-17
5233.49842 1.97003e-17
5235.00172 1.96740e-17
5236.49500 1.96324e-17
5237.99830 1.95853e-17
5239.50160 1.96620e-17
5241.00490 1.97625e-17
5242.49818 1.95763e-17
5244.00148 1.95312e-17
5245.50478 1.96654e-17
5246.99806 1.97268e-17
5248.50136 1.98151e-17
5250.00466 1.96806e-17
5251.49793 1.93857e-17
5253.00123 1.94288e-17
5254.50453 1.96556e-17
5255.99781 1.96217e-17
5257.50111 1.95338e-17
5259.00441 1.95973e-17
5260.49769 1.97365e-17
5262.00099 1.98312e-17
5263.50429 1.96475e-17
5264.99757 1.96339e-17
5266.50087 1.98528e-17
5268.00417 2.00114e-17
5269.49745 1.98145e-17
5271.00075 1.97704e-17
5272.50405 1.99893e-17
5273.99732 1.99500e-17
5275.50062 1.99268e-17
5277.00392 2.00763e-17
5278.49720 1.99813e-17
5280.00050 1.99779e-17
5281.50380 2.01698e-17
5282.99708 1.99477e-17
5284.50038 1.98151e-17
5286.00368 2.01289e-17
5287.49696 2.01311e-17
5289.00026 2.01036e-17
5290.50356 2.03293e-17
5291.99684 2.01353e-17
5293.50014 2.01097e-17
5295.00344 2.00626e-17
5296.49671 1.99782e-17
5298.00001 2.00634e-17
5299.50331 1.99512e-17
5300.99659 2.00698e-17
5302.49989 2.01372e-17
5304.00319 2.00471e-17
5305.49647 2.00642e-17
5306.99977 2.00203e-17
5308.50307 2.00373e-17
5309.99635 1.99743e-17
5311.49965 1.99574e-17
5313.00295 1.99654e-17
5314.49623 1.99200e-17
5315.99953 1.99190e-17
5317.50283 1.98572e-17
5318.99610 1.98711e-17
5320.49940 2.00141e-17
5322.00270 1.99761e-17
5323.49598 1.99471e-17
5324.99928 1.99736e-17
5326.50258 2.00190e-17
5327.99586 1.99930e-17
5329.49916 1.98661e-17
5331.00246 1.99514e-17
5332.49574 1.99406e-17
5333.99904 1.99321e-17
5335.50234 1.99418e-17
5336.99562 1.98905e-17
5338.49892 1.98645e-17
5340.00222 1.98679e-17
5341.49549 1.99059e-17
5342.99879 1.98962e-17
5344.50209 1.97178e-17
5345.99537 1.96585e-17
5347.49867 1.98993e-17
5349.00197 2.00360e-17
5350.49525 1.99913e-17
5351.99855 2.00386e-17
5353.50185 1.99940e-17
5354.99513 1.99108e-17
5356.49843 1.98170e-17
5358.00173 1.99110e-17
5359.49501 1.99493e-17
5360.99831 1.98547e-17
5362.50161 1.99485e-17
5364.00491 1.99137e-17
5365.49818 2.00541e-17
5367.00148 2.02798e-17
5368.50478 2.00759e-17
5369.99806 1.98962e-17
5371.50136 1.98877e-17
5373.00466 1.98722e-17
5374.49794 1.99445e-17
5376.00124 1.99954e-17
5377.50454 2.00533e-17
5378.99782 2.00251e-17
5380.50112 1.99372e-17
5382.00442 2.00025e-17
5383.49770 2.00231e-17
5385.00100 2.00139e-17
5386.50430 1.98896e-17
5387.99757 2.00618e-17
5389.50087 2.00772e-17
5391.00417 2.00348e-17
5392.49745 1.99139e-17
5394.00075 1.97980e-17
5395.50405 1.98700e-17
5396.99733 1.97937e-17
5398.50063 1.97714e-17
5400.00393 1.97557e-17
5401.49721 1.96640e-17
5403.00051 1.96485e-17
5404.50381 1.96610e-17
5405.99709 1.95531e-17
5407.50039 1.95380e-17
5409.00369 1.96150e-17
5410.49696 1.96215e-17
5412.00026 1.95820e-17
5413.50356 1.95410e-17
5414.99684 1.94647e-17
5416.50014 1.95887e-17
5418.00344 1.93463e-17
5419.49672 1.93354e-17
5421.00002 1.94664e-17
5422.50332 1.96559e-17
5423.99660 1.95648e-17
5425.49990 1.95633e-17
5427.00320 1.92482e-17
5428.49648 1.93783e-17
5429.99978 1.94848e-17
5431.50308 1.93996e-17
5432.99635 1.93663e-17
5434.49965 1.94804e-17
5436.00295 1.93532e-17
5437.49623 1.93720e-17
5438.99953 1.94512e-17
5440.50283 1.92996e-17
5441.99611 1.91755e-17
5443.49941 1.91880e-17
5445.00271 1.90699e-17
5446.49599 1.90169e-17
5447.99929 1.90100e-17
5449.50259 1.89184e-17
5450.99587 1.89726e-17
5452.49917 1.90021e-17
5454.00247 1.89937e-17
5455.49574 1.89129e-17
5456.99904 1.88576e-17
5458.50234 1.87736e-17
5459.99562 1.87304e-17
5461.49892 1.87545e-17
5463.00222 1.85721e-17
5464.49550 1.85392e-17
5465.99880 1.86024e-17
5467.50210 1.85592e-17
5468.99538 1.84449e-17
5470.49868 1.83709e-17
5472.00198 1.84457e-17
5473.49526 1.84509e-17
5474.99856 1.83133e-17
5476.50186 1.81528e-17
5477.99513 1.81562e-17
5479.49843 1.82002e-17
5481.00173 1.81243e-17
5482.49501 1.81203e-17
5483.99831 1.81772e-17
5485.50161 1.78997e-17
5487.00491 1.76617e-17
5488.49819 1.77462e-17
5490.00149 1.77999e-17
5491.50479 1.75814e-17
5492.99807 1.74655e-17
5494.50137 1.76861e-17
5496.00467 1.76871e-17
5497.49795 1.76405e-17
5499.00125 1.74730e-17
5500.50455 1.74274e-17
5501.99782 1.75721e-17
5503.50112 1.75279e-17
5505.00442 1.73817e-17
5506.49770 1.73669e-17
5508.00100 1.73054e-17
5509.50430 1.74686e-17
5510.99758 1.73452e-17
5512.50088 1.72796e-17
5514.00418 1.72705e-17
5515.49746 1.72347e-17
5517.00076 1.72521e-17
5518.50406 1.72673e-17
5519.99734 1.71654e-17
5521.50064 1.71211e-17
5523.00394 1.71883e-17
5524.49721 1.71409e-17
5526.00051 1.70982e-17
5527.50381 1.70188e-17
5528.99709 1.69614e-17
5530.50039 1.69404e-17
5532.00369 1.68571e-17
5533.49697 1.69227e-17
5535.00027 1.69772e-17
5536.50357 1.68764e-17
5537.99685 1.66838e-17
5539.50015 1.66090e-17
5541.00345 1.67664e-17
5542.49673 1.68106e-17
5544.00003 1.66597e-17
5545.50333 1.66258e-17
5546.99660 1.66877e-17
5548.49990 1.66747e-17
5550.00320 1.65584e-17
5551.49648 1.64822e-17
5552.99978 1.65083e-17
5554.50308 1.65503e-17
5555.99636 1.65047e-17
5557.49966 1.64519e-17
5559.00296 1.66653e-17
5560.49624 1.66753e-17
5561.99954 1.65397e-17
5563.50284 1.64591e-17
5564.99612 1.63059e-17
5566.49942 1.62896e-17
5568.00272 1.62153e-17
5569.49599 1.60672e-17
5570.99929 1.60868e-17
5572.50259 1.62862e-17
5573.99587 1.61814e-17
5575.49917 1.61274e-17
5577.00247 1.60905e-17
5578.49575 1.59915e-17
5579.99905 1.59271e-17
5581.50235 1.57683e-17
5582.99563 1.57971e-17
5584.49893 1.59314e-17
5586.00223 1.59178e-17
5587.49551 1.59299e-17
5588.99881 1.57508e-17
5590.50211 1.57401e-17
5591.99538 1.57583e-17
5593.49868 1.57641e-17
5595.00198 1.57276e-17
5596.49526 1.54229e-17
5597.99856 1.54576e-17
5599.50186 1.55422e-17
5600.99514 1.54109e-17
5602.49844 1.52840e-17
5604.00174 1.53263e-17
5605.49502 1.53209e-17
5606.99832 1.52310e-17
5608.50162 1.52394e-17
5610.00492 1.52380e-17
5611.49820 1.51709e-17
5613.00150 1.51059e-17
5614.50480 1.50874e-17
5615.99807 1.50323e-17
5617.50137 1.49714e-17
5619.00467 1.48501e-17
5620.49795 1.48333e-17
5622.00125 1.49611e-17
5623.50455 1.49352e-17
5624.99783 1.47853e-17
5626.50113 1.46613e-17
5628.00443 1.45438e-17
5629.49771 1.45833e-17
5631.00101 1.46788e-17
5632.50431 1.46431e-17
5633.99759 1.47025e-17
5635.50089 1.45817e-17
5637.00419 1.44763e-17
5638.49746 1.45643e-17
5640.00076 1.43095e-17
5641.50406 1.43355e-17
5642.99734 1.45389e-17
5644.50064 1.42564e-17
5646.00394 1.41077e-17
5647.49722 1.42419e-17
5649.00052 1.42339e-17
5650.50382 1.41106e-17
5651.99710 1.41478e-17
5653.50040 1.41039e-17
5655.00370 1.40005e-17
5656.49698 1.41435e-17
5658.00028 1.42037e-17
5659.50358 1.40762e-17
5660.99685 1.39556e-17
5662.50015 1.38304e-17
5664.00345 1.37782e-17
5665.49673 1.38619e-17
5667.00003 1.38771e-17
5668.50333 1.37728e-17
5669.99661 1.37686e-17
5671.49991 1.37776e-17
5673.00321 1.37925e-17
5674.49649 1.37571e-17
5675.99979 1.36393e-17
5677.50309 1.34912e-17
5678.99637 1.34684e-17
5680.49967 1.35507e-17
5682.00297 1.36080e-17
5683.49624 1.36585e-17
5684.99954 1.35907e-17
5686.50284 1.35597e-17
5687.99612 1.36008e-17
5689.49942 1.36526e-17
5691.00272 1.36577e-17
5692.49600 1.35640e-17
5693.99930 1.34907e-17
5695.50260 1.35072e-17
5696.99588 1.36293e-17
5698.49918 1.35257e-17
5700.00248 1.33497e-17
5701.49576 1.32965e-17
5702.99906 1.34439e-17
5704.50236 1.34322e-17
5705.99563 1.32807e-17
5707.49893 1.33233e-17
5709.00223 1.34593e-17
5710.49551 1.34946e-17
5711.99881 1.34489e-17
5713.50211 1.33539e-17
5714.99539 1.32743e-17
5716.49869 1.31585e-17
5718.00199 1.34251e-17
5719.49527 1.34386e-17
5720.99857 1.33555e-17
5722.50187 1.33591e-17
5723.99515 1.35728e-17
5725.49845 1.36466e-17
5727.00175 1.34692e-17
5728.49502 1.34127e-17
5729.99832 1.35175e-17
5731.50162 1.34565e-17
5733.00492 1.35380e-17
5734.49820 1.36590e-17
5736.00150 1.36817e-17
5737.50480 1.36376e-17
5738.99808 1.36010e-17
5740.50138 1.36069e-17
5742.00468 1.36328e-17
5743.49796 1.36390e-17
5745.00126 1.36040e-17
5746.50456 1.36847e-17
5747.99784 1.36830e-17
5749.50114 1.36673e-17
5751.00444 1.37761e-17
5752.49771 1.38402e-17
5754.00101 1.36907e-17
5755.50431 1.36602e-17
5756.99759 1.37025e-17
5758.50089 1.36757e-17
5760.00419 1.36611e-17
5761.49747 1.37484e-17
5763.00077 1.38368e-17
5764.50407 1.37630e-17
5765.99735 1.36977e-17
5767.50065 1.36574e-17
5769.00395 1.37018e-17
5770.49723 1.38052e-17
5772.00053 1.37166e-17
5773.50383 1.37062e-17
5774.99710 1.35782e-17
5776.50040 1.37979e-17
5778.00370 1.36138e-17
5779.49698 1.36213e-17
5781.00028 1.35527e-17
5782.50358 1.36274e-17
5783.99686 1.38281e-17
5785.50016 1.36621e-17
5787.00346 1.37210e-17
5788.49674 1.38143e-17
5790.00004 1.37538e-17
5791.50334 1.37583e-17
5792.99662 1.36274e-17
5794.49992 1.37321e-17
5796.00322 1.36797e-17
5797.49649 1.37544e-17
5798.99979 1.36009e-17
5800.50309 1.36124e-17
5801.99637 1.38658e-17
5803.49967 1.38307e-17
5805.00297 1.37976e-17
5806.49625 1.38204e-17
5807.99955 1.37547e-17
5809.50285 1.36206e-17
5810.99613 1.35926e-17
5812.49943 1.37267e-17
5814.00273 1.36989e-17
5815.49601 1.36505e-17
5816.99931 1.36607e-17
5818.50261 1.37394e-17
5819.99588 1.38418e-17
5821.49918 1.37976e-17
5823.00248 1.38230e-17
5824.49576 1.40014e-17
5825.99906 1.39674e-17
5827.50236 1.38260e-17
5828.99564 1.38001e-17
5830.49894 1.36841e-17
5832.00224 1.36495e-17
5833.49552 1.37885e-17
5834.99882 1.37776e-17
5836.50212 1.36903e-17
5837.99540 1.37100e-17
5839.49870 1.36698e-17
5841.00200 1.35877e-17
5842.49527 1.35080e-17
5843.99857 1.35964e-17
5845.50187 1.37189e-17
5846.99515 1.36206e-17
5848.49845 1.35475e-17
5850.00175 1.37329e-17
5851.49503 1.36027e-17
5852.99833 1.34896e-17
5854.50163 1.35487e-17
5856.00493 1.34511e-17
5857.49821 1.34967e-17
5859.00151 1.35284e-17
5860.50481 1.34759e-17
5861.99809 1.34327e-17
5863.50139 1.35685e-17
5865.00469 1.35474e-17
5866.49796 1.33416e-17
5868.00126 1.33398e-17
5869.50456 1.33894e-17
5870.99784 1.33478e-17
5872.50114 1.33555e-17
5874.00444 1.33011e-17
5875.49772 1.34202e-17
5877.00102 1.33831e-17
5878.50432 1.33126e-17
5879.99760 1.33835e-17
5881.50090 1.32917e-17
5883.00420 1.32271e-17
5884.49748 1.31450e-17
5886.00078 1.29756e-17
5887.50408 1.27370e-17
5888.99735 1.25192e-17
5890.50065 1.23799e-17
5892.00395 1.24159e-17
5893.49723 1.25234e-17
5895.00053 1.25009e-17
5896.50383 1.25321e-17
5897.99711 1.26223e-17
5899.50041 1.26584e-17
5901.00371 1.26617e-17
5902.49699 1.27233e-17
5904.00029 1.27973e-17
5905.50359 1.27912e-17
5906.99687 1.27932e-17
5908.50017 1.27236e-17
5910.00347 1.26556e-17
5911.49674 1.27511e-17
5913.00004 1.27883e-17
5914.50334 1.27836e-17
5915.99662 1.27561e-17
5917.49992 1.26946e-17
5919.00322 1.26256e-17
5920.49650 1.26960e-17
5921.99980 1.25818e-17
5923.50310 1.25734e-17
5924.99638 1.25429e-17
5926.49968 1.24546e-17
5928.00298 1.25121e-17
5929.49626 1.25853e-17
5930.99956 1.25489e-17
5932.50286 1.24974e-17
5933.99613 1.24872e-17
5935.49943 1.26285e-17
5937.00273 1.23304e-17
5938.49601 1.24432e-17
5939.99931 1.23738e-17
5941.50261 1.22093e-17
5942.99589 1.22496e-17
5944.49919 1.20926e-17
5946.00249 1.21829e-17
5947.49577 1.21559e-17
5948.99907 1.21750e-17
5950.50237 1.21537e-17
5951.99565 1.20261e-17
5953.49895 1.20472e-17
5955.00225 1.21148e-17
5956.49552 1.20628e-17
5957.99882 1.20121e-17
5959.50212 1.20725e-17
5960.99540 1.21132e-17
5962.49870 1.19606e-17
5964.00200 1.19190e-17
5965.49528 1.19731e-17
5966.99858 1.19811e-17
5968.50188 1.19917e-17
5970.00518 1.19967e-17
5971.49846 1.19911e-17
5973.00176 1.19644e-17
5974.49504 1.20291e-17
5975.99834 1.19404e-17
5977.50164 1.19402e-17
5979.00494 1.19447e-17
5980.49821 1.18932e-17
5982.00151 1.18465e-17
5983.50481 1.17960e-17
5984.99809 1.19036e-17
5986.50139 1.18557e-17
5988.00469 1.18706e-17
5989.49797 1.18881e-17
5991.00127 1.17512e-17
5992.50457 1.17699e-17
5993.99785 1.17900e-17
5995.50115 1.18718e-17
5997.00445 1.19245e-17
5998.49773 1.19092e-17
6000.00103 1.19782e-17
6001.50433 1.18897e-17
6002.99760 1.16490e-17
6004.50090 1.17942e-17
6006.00420 1.16881e-17
6007.49748 1.16800e-17
6009.00078 1.17363e-17
6010.50408 1.15855e-17
6011.99736 1.15909e-17
6013.50066 1.15137e-17
6015.00396 1.14937e-17
6016.49724 1.15488e-17
6018.00054 1.14837e-17
6019.50384 1.14220e-17
6020.99712 1.13892e-17
6022.50042 1.14910e-17
6024.00372 1.14518e-17
6025.49699 1.14874e-17
6027.00029 1.13803e-17
6028.50359 1.13124e-17
6029.99687 1.12858e-17
6031.50017 1.11979e-17
6033.00347 1.12629e-17
6034.49675 1.13356e-17
6036.00005 1.12987e-17
6037.50335 1.12773e-17
6038.99663 1.11969e-17
6040.49993 1.11226e-17
6042.00323 1.11123e-17
6043.49651 1.10140e-17
6044.99981 1.09655e-17
6046.50311 1.10002e-17
6047.99638 1.10571e-17
6049.49968 1.10300e-17
6051.00298 1.10860e-17
6052.49626 1.10947e-17
6053.99956 1.11033e-17
6055.50286 1.11120e-17
6056.99614 1.11114e-17
6058.49944 1.11104e-17
6060.00274 1.10827e-17
6061.49602 1.09664e-17
6062.99932 1.10532e-17
6064.50262 1.10664e-17
6065.99590 1.09818e-17
6067.49920 1.10007e-17
6069.00250 1.11998e-17
6070.49577 1.11686e-17
6071.99907 1.10667e-17
6073.50237 1.11005e-17
6074.99565 1.11316e-17
6076.49895 1.11081e-17
6078.00225 1.11072e-17
6079.49553 1.11638e-17
6080.99883 1.11431e-17
6082.50213 1.11587e-17
6083.99541 1.11351e-17
6085.49871 1.11667e-17
6087.00201 1.12745e-17
6088.49529 1.10981e-17
6089.99859 1.10441e-17
6091.50189 1.11480e-17
6092.99516 1.11308e-17
6094.49846 1.10847e-17
6096.00176 1.11386e-17
6097.49504 1.12374e-17
6098.99834 1.10998e-17
6100.50164 1.11548e-17
6101.99492 1.13280e-17
6103.49822 1.12741e-17
6105.00152 1.13069e-17
6106.50482 1.13918e-17
6107.99810 1.12851e-17
6109.50140 1.12394e-17
6111.00470 1.13741e-17
6112.49798 1.13169e-17
6114.00128 1.11844e-17
6115.50458 1.12135e-17
6116.99785 1.12487e-17
6118.50115 1.12679e-17
6120.00445 1.12611e-17
6121.49773 1.12190e-17
6123.00103 1.12165e-17
6124.50433 1.12264e-17
6125.99761 1.11819e-17
6127.50091 1.11968e-17
6129.00421 1.11931e-17
6130.49749 1.11827e-17
6132.00079 1.12481e-17
6133.50409 1.11375e-17
6134.99737 1.12087e-17
6136.50067 1.12789e-17
6138.00397 1.12696e-17
6139.49724 1.13364e-17
6141.00054 1.12592e-17
6142.50384 1.11755e-17
6143.99712 1.12203e-17
6145.50042 1.12635e-17
6147.00372 1.12512e-17
6148.49700 1.10472e-17
6150.00030 1.09883e-17
6151.50360 1.10635e-17
6152.99688 1.10730e-17
6154.50018 1.10277e-17
6156.00348 1.10781e-17
6157.49676 1.10668e-17
6159.00006 1.10116e-17
6160.50336 1.10131e-17
6161.99663 1.11528e-17
6163.49993 1.10340e-17
6165.00323 1.10728e-17
6166.49651 1.10364e-17
6167.99981 1.11256e-17
6169.50311 1.11375e-17
6170.99639 1.10335e-17
6172.49969 1.10612e-17
6174.00299 1.11220e-17
6175.49627 1.11232e-17
6176.99957 1.11836e-17
6178.50287 1.11961e-17
6179.99615 1.10999e-17
6181.49945 1.11375e-17
6183.00275 1.11835e-17
6184.49602 1.11829e-17
6185.99932 1.11667e-17
6187.50262 1.11567e-17
6188.99590 1.11983e-17
6190.49920 1.12725e-17
6192.00250 1.13278e-17
6193.49578 1.13159e-17
6194.99908 1.12668e-17
6196.50238 1.13046e-17
6197.99566 1.13382e-17
6199.49896 1.14444e-17
6201.00226 1.14621e-17
6202.49554 1.15044e-17
6203.99884 1.14786e-17
6205.50214 1.14008e-17
6206.99541 1.14304e-17
6208.49871 1.15387e-17
6210.00201 1.15513e-17
6211.49529 1.14843e-17
6212.99859 1.16141e-17
6214.50189 1.15216e-17
6215.99517 1.15014e-17
6217.49847 1.15268e-17
6219.00177 1.15586e-17
6220.49505 1.14593e-17
6221.99835 1.15318e-17
6223.50165 1.16172e-17
6224.99493 1.18940e-17
6226.49823 1.18366e-17
6228.00153 1.16889e-17
6229.50483 1.17080e-17
6230.99810 1.17534e-17
6232.50140 1.17325e-17
6234.00470 1.17670e-17
6235.49798 1.17514e-17
6237.00128 1.16890e-17
6238.50458 1.16293e-17
6239.99786 1.17917e-17
6241.50116 1.17964e-17
6243.00446 1.18536e-17
6244.49774 1.17566e-17
6246.00104 1.17080e-17
6247.50434 1.20869e-17
6248.99762 1.21164e-17
6250.50092 1.19438e-17
6252.00422 1.18777e-17
6253.49749 1.19207e-17
6255.00079 1.20487e-17
6256.50409 1.21872e-17
6257.99737 1.22325e-17
6259.50067 1.22027e-17
6261.00397 1.21982e-17
6262.49725 1.20580e-17
6264.00055 1.18748e-17
6265.50385 1.18949e-17
6266.99713 1.20309e-17
6268.50043 1.21157e-17
6270.00373 1.22270e-17
6271.49701 1.22574e-17
6273.00031 1.21679e-17
6274.50361 1.20573e-17
6275.99688 1.20610e-17
6277.50018 1.21160e-17
6279.00348 1.21645e-17
6280.49676 1.22994e-17
6282.00006 1.23579e-17
6283.50336 1.23278e-17
6284.99664 1.24843e-17
6286.49994 1.25102e-17
6288.00324 1.23138e-17
6289.49652 1.23683e-17
6290.99982 1.26566e-17
6292.50312 1.25320e-17
6293.99640 1.23697e-17
6295.49970 1.24979e-17
6297.00300 1.24443e-17
6298.49627 1.24338e-17
6299.99957 1.26575e-17
6301.50287 1.28222e-17
6302.99615 1.27187e-17
6304.49945 1.26621e-17
6306.00275 1.26734e-17
6307.49603 1.26267e-17
6308.99933 1.26060e-17
6310.50263 1.26491e-17
6311.99591 1.28609e-17
6313.49921 1.29549e-17
6315.00251 1.28875e-17
6316.49579 1.28993e-17
6317.99909 1.29057e-17
6319.50239 1.27391e-17
6320.99566 1.25927e-17
6322.49896 1.26906e-17
6324.00226 1.27585e-17
6325.49554 1.27844e-17
6326.99884 1.28974e-17
6328.50214 1.29189e-17
6329.99542 1.28291e-17
6331.49872 1.26984e-17
6333.00202 1.25812e-17
6334.49530 1.25034e-17
6335.99860 1.25844e-17
6337.50190 1.26819e-17
6338.99518 1.26875e-17
6340.49848 1.26776e-17
6342.00178 1.26009e-17
6343.49505 1.26596e-17
6344.99835 1.27559e-17
6346.50165 1.28763e-17
6347.99493 1.27645e-17
6349.49823 1.26779e-17
6351.00153 1.29028e-17
6352.50483 1.29058e-17
6353.99811 1.27646e-17
6355.50141 1.26372e-17
6357.00471 1.26627e-17
6358.49799 1.25533e-17
6360.00129 1.26697e-17
6361.50459 1.26070e-17
6362.99787 1.25197e-17
6364.50117 1.24303e-17
6366.00447 1.24213e-17
6367.49774 1.23715e-17
6369.00104 1.22458e-17
6370.50434 1.23446e-17
6371.99762 1.24170e-17
6373.50092 1.23118e-17
6375.00422 1.23099e-17
6376.49750 1.22235e-17
6378.00080 1.21225e-17
6379.50410 1.20324e-17
6380.99738 1.21456e-17
6382.50068 1.21367e-17
6384.00398 1.21970e-17
6385.49726 1.21275e-17
6387.00056 1.21694e-17
6388.50386 1.21367e-17
6389.99713 1.21601e-17
6391.50043 1.21268e-17
6393.00373 1.20339e-17
6394.49701 1.19670e-17
6396.00031 1.19474e-17
6397.50361 1.19279e-17
6398.99689 1.19988e-17
6400.50019 1.20230e-17
6402.00349 1.19636e-17
6403.49677 1.19487e-17
6405.00007 1.19898e-17
6406.50337 1.20854e-17
6407.99665 1.21253e-17
6409.49995 1.20938e-17
6411.00325 1.19966e-17
6412.49652 1.20076e-17
6413.99982 1.19828e-17
6415.50312 1.19259e-17
6416.99640 1.20725e-17
6418.49970 1.20870e-17
6420.00300 1.19400e-17
6421.49628 1.20097e-17
6422.99958 1.19830e-17
6424.50288 1.21023e-17
6425.99616 1.21887e-17
6427.49946 1.20757e-17
6429.00276 1.19067e-17
6430.49604 1.19911e-17
6431.99934 1.18588e-17
6433.50264 1.19464e-17
6434.99591 1.19622e-17
6436.49921 1.19906e-17
6438.00251 1.19590e-17
6439.49579 1.20250e-17
6440.99909 1.18785e-17
6442.50239 1.18438e-17
6443.99567 1.19946e-17
6445.49897 1.19430e-17
6447.00227 1.19646e-17
6448.49555 1.19615e-17
6449.99885 1.19530e-17
6451.50215 1.19042e-17
6452.99543 1.19152e-17
6454.49873 1.18910e-17
6456.00203 1.19229e-17
6457.49530 1.18686e-17
6458.99860 1.18443e-17
6460.50190 1.19464e-17
6461.99518 1.19601e-17
6463.49848 1.19581e-17
6465.00178 1.18765e-17
6466.49506 1.18280e-17
6467.99836 1.18401e-17
6469.50166 1.18539e-17
6470.99494 1.18072e-17
6472.49824 1.17810e-17
6474.00154 1.18211e-17
6475.50484 1.18223e-17
6476.99812 1.19116e-17
6478.50142 1.20155e-17
6480.00472 1.19305e-17
6481.49799 1.19215e-17
6483.00129 1.19879e-17
6484.50459 1.18173e-17
6485.99787 1.17951e-17
6487.50117 1.18433e-17
6489.00447 1.19142e-17
6490.49775 1.19082e-17
6492.00105 1.18090e-17
6493.50435 1.17250e-17
6494.99763 1.17554e-17
6496.50093 1.18280e-17
6498.00423 1.18945e-17
6499.49751 1.20033e-17
6501.00081 1.19820e-17
6502.50411 1.18892e-17
6503.99738 1.18470e-17
6505.50068 1.17806e-17
6507.00398 1.18561e-17
6508.49726 1.20968e-17
6510.00056 1.21528e-17
6511.50386 1.19933e-17
6512.99714 1.19096e-17
6514.50044 1.18095e-17
6516.00374 1.17226e-17
6517.49702 1.17835e-17
6519.00032 1.16960e-17
6520.50362 1.17266e-17
6521.99690 1.19305e-17
6523.50020 1.18741e-17
6525.00350 1.18122e-17
6526.49677 1.18164e-17
6528.00007 1.18639e-17
6529.50337 1.19164e-17
6530.99665 1.19124e-17
6532.49995 1.18590e-17
6534.00325 1.17238e-17
6535.49653 1.17710e-17
6536.99983 1.18001e-17
6538.50313 1.17817e-17
6539.99641 1.17779e-17
6541.49971 1.17457e-17
6543.00301 1.17536e-17
6544.49629 1.17291e-17
6545.99959 1.16747e-17
6547.50289 1.16462e-17
6548.99616 1.16416e-17
6550.49946 1.16085e-17
6552.00276 1.15993e-17
6553.49604 1.16468e-17
6554.99934 1.16251e-17
6556.50264 1.15835e-17
6557.99592 1.15439e-17
6559.49922 1.15724e-17
6561.00252 1.16376e-17
6562.49580 1.16773e-17
6563.99910 1.15898e-17
6565.50240 1.15006e-17
6566.99568 1.13303e-17
6568.49898 1.13234e-17
6570.00228 1.15899e-17
6571.49555 1.15596e-17
6572.99885 1.14362e-17
6574.50215 1.15174e-17
6575.99543 1.15159e-17
6577.49873 1.14917e-17
6579.00203 1.14531e-17
6580.49531 1.12646e-17
6581.99861 1.13729e-17
6583.50191 1.14004e-17
6584.99519 1.13352e-17
6586.49849 1.12649e-17
6588.00179 1.11696e-17
6589.49507 1.12339e-17
6590.99837 1.12318e-17
6592.50167 1.11824e-17
6593.99494 1.11159e-17
6595.49824 1.10980e-17
6597.00154 1.11991e-17
6598.50484 1.12988e-17
6599.99812 1.11582e-17
6601.50142 1.10798e-17
6603.00472 1.11219e-17
6604.49800 1.11787e-17
6606.00130 1.10789e-17
6607.50460 1.09800e-17
6608.99788 1.10356e-17
6610.50118 1.10789e-17
6612.00448 1.10173e-17
6613.49776 1.10001e-17
6615.00106 1.10303e-17
6616.50436 1.09832e-17
6617.99763 1.09977e-17
6619.50093 1.10353e-17
6621.00423 1.10263e-17
6622.49751 1.09388e-17
6624.00081 1.09036e-17
6625.50411 1.09911e-17
6626.99739 1.09465e-17
6628.50069 1.08730e-17
6630.00399 1.08974e-17
6631.49727 1.09253e-17
6633.00057 1.09816e-17
6634.50387 1.09249e-17
6635.99715 1.09560e-17
6637.50045 1.10173e-17
6639.00375 1.09441e-17
6640.49702 1.08576e-17
6642.00032 1.08204e-17
6643.50362 1.08196e-17
6644.99690 1.08806e-17
6646.50020 1.08646e-17
6648.00350 1.07595e-17
6649.49678 1.06400e-17
6651.00008 1.08391e-17
6652.50338 1.08470e-17
6653.99666 1.06925e-17
6655.49996 1.06802e-17
6657.00326 1.07852e-17
6658.49654 1.07103e-17
6659.99984 1.05443e-17
6661.50314 1.05926e-17
6662.99641 1.05912e-17
6664.49971 1.05045e-17
6666.00301 1.04308e-17
6667.49629 1.04822e-17
6668.99959 1.04638e-17
6670.50289 1.04306e-17
6671.99617 1.03585e-17
6673.49947 1.03438e-17
6675.00277 1.03813e-17
6676.49605 1.03876e-17
6677.99935 1.03416e-17
6679.50265 1.04592e-17
6680.99593 1.04715e-17
6682.49923 1.03635e-17
6684.00253 1.03432e-17
6685.49580 1.03655e-17
6686.99910 1.04048e-17
6688.50240 1.04159e-17
6689.99568 1.04483e-17
6691.49898 1.04391e-17
6693.00228 1.03605e-17
6694.49556 1.03372e-17
6695.99886 1.02768e-17
6697.50216 1.02652e-17
6698.99544 1.02503e-17
6700.49874 1.01255e-17
6702.00204 1.01855e-17
6703.49532 1.02083e-17
6704.99862 1.02499e-17
6706.50192 1.03100e-17
6707.99519 1.01593e-17
6709.49849 1.00571e-17
6711.00179 1.00462e-17
6712.49507 9.98939e-18
6713.99837 1.00253e-17
6715.50167 1.01212e-17
6716.99495 1.00917e-17
6718.49825 1.00825e-17
6720.00155 1.00708e-17
6721.50485 1.00018e-17
6722.99813 1.00763e-17
6724.50143 1.00059e-17
6726.00473 9.87466e-18
6727.49801 9.86800e-18
6729.00131 9.94085e-18
6730.50461 9.95002e-18
6731.99788 9.85825e-18
6733.50118 9.91920e-18
6735.00448 9.87738e-18
6736.49776 9.75387e-18
6738.00106 9.77982e-18
6739.50436 9.79131e-18
6740.99764 9.72186e-18
6742.50094 9.67945e-18
6744.00424 9.66866e-18
6745.49752 9.73770e-18
6747.00082 9.72854e-18
6748.50412 9.62578e-18
6749.99740 9.58967e-18
6751.50070 9.56980e-18
6753.00400 9.61067e-18
6754.49727 9.60634e-18
6756.00057 9.58809e-18
6757.50387 9.61521e-18
6758.99715 9.58118e-18
6760.50045 9.51469e-18
6762.00375 9.43279e-18
6763.49703 9.43318e-18
6765.00033 9.47198e-18
6766.50363 9.39313e-18
6767.99691 9.37770e-18
6769.50021 9.40692e-18
6771.00351 9.32687e-18
6772.49679 9.28743e-18
6774.00009 9.32566e-18
6775.50339 9.36340e-18
6776.99666 9.33738e-18
6778.49996 9.26619e-18
6780.00326 9.14400e-18
6781.49654 9.19386e-18
6782.99984 9.23415e-18
6784.50314 9.21577e-18
6785.99642 9.23688e-18
6787.49972 9.20419e-18
6789.00302 9.24552e-18
6790.49630 9.20667e-18
6791.99960 9.25141e-18
6793.50290 9.23737e-18
6794.99618 9.17850e-18
6796.49948 9.01713e-18
6798.00278 8.95438e-18
6799.49605 9.07608e-18
6800.99935 9.06432e-18
6802.50265 8.92584e-18
6803.99593 9.05267e-18
6805.49923 9.04464e-18
6807.00253 9.01756e-18
6808.49581 8.97088e-18
6809.99911 8.95082e-18
6811.50241 8.92533e-18
6812.99569 8.90941e-18
6814.49899 8.99561e-18
6816.00229 8.93820e-18
6817.49557 8.83863e-18
6818.99887 8.93131e-18
6820.50217 8.97068e-18
6821.99544 8.95508e-18
6823.49874 8.91081e-18
6825.00204 8.90481e-18
6826.49532 8.89930e-18
6827.99862 8.82798e-18
6829.50192 8.83612e-18
6830.99520 8.84001e-18
6832.49850 8.81385e-18
6834.00180 8.78466e-18
6835.49508 8.71886e-18
6836.99838 8.73543e-18
6838.50168 8.86709e-18
6839.99496 8.85802e-18
6841.49826 8.85312e-18
6843.00156 9.07471e-18
6844.50486 9.08716e-18
6845.99813 9.07253e-18
6847.50143 9.05789e-18
6849.00473 9.04326e-18
6850.49801 9.02862e-18
6852.00131 9.01399e-18
6853.50461 8.99936e-18
6854.99789 8.98473e-18
6856.50119 8.97010e-18
6858.00449 8.95547e-18
6859.49777 8.94085e-18
6861.00107 8.92622e-18
6862.50437 8.91160e-18
6863.99765 8.89697e-18
6865.50095 8.88235e-18
6867.00425 8.86773e-18
6868.49752 8.85311e-18
6870.00082 8.83849e-18
6871.50412 8.82388e-18
6872.99740 8.80926e-18
6874.50070 8.79465e-18
6876.00400 8.78003e-18
6877.49728 8.76542e-18
6879.00058 8.75081e-18
6880.50388 8.73620e-18
6881.99716 8.72159e-18
6883.50046 8.70698e-18
6885.00376 8.69237e-18
6886.49704 8.67777e-18
6888.00034 8.66316e-18
6889.50364 8.64856e-18
6890.99691 8.63396e-18
6892.50021 8.61936e-18
6894.00351 8.60476e-18
6895.49679 8.59016e-18
6897.00009 8.57556e-18
6898.50339 8.56096e-18
6899.99667 8.54636e-18
6901.49997 8.53177e-18
6903.00327 8.51718e-18
6904.49655 8.50259e-18
6905.99985 8.48800e-18
6907.50315 8.47341e-18
6908.99643 8.45882e-18
6910.49973 8.44423e-18
6912.00303 8.42965e-18
6913.49630 8.41506e-18
6914.99960 8.40048e-18
6916.50290 8.38590e-18
6917.99618 8.37132e-18
6919.49948 8.35673e-18
6921.00278 8.34215e-18
6922.49606 8.32758e-18
6923.99936 8.31300e-18
6925.50266 8.29842e-18
6926.99594 8.28385e-18
6928.49924 8.26928e-18
6930.00254 8.25470e-18
6931.49582 8.24013e-18
6932.99912 8.22556e-18
6934.50242 8.21099e-18
6935.99569 8.19643e-18
6937.49899 8.25184e-18
6939.00229 8.20576e-18
6940.49557 7.96783e-18
6941.99887 8.01635e-18
6943.50217 8.09630e-18
6944.99545 8.19337e-18
6946.49875 8.21147e-18
6948.00205 8.16310e-18
6949.49533 8.17213e-18
6950.99863 8.15342e-18
6952.50193 8.17750e-18
6953.99521 8.18886e-18
6955.49851 8.13618e-18
6957.00181 8.08863e-18
6958.50511 8.06836e-18
6959.99838 8.09925e-18
6961.50168 8.19135e-18
6962.99496 8.19028e-18
6964.49826 8.11849e-18
6966.00156 8.07906e-18
6967.50486 8.13355e-18
6968.99814 8.22453e-18
6970.50144 8.18768e-18
6972.00474 8.07815e-18
6973.49802 8.06011e-18
6975.00132 8.00528e-18
6976.50462 8.01414e-18
6977.99790 8.12520e-18
6979.50120 8.11921e-18
6981.00450 8.04161e-18
6982.49777 7.92929e-18
6984.00107 7.93900e-18
6985.50437 7.95153e-18
6986.99765 7.91479e-18
6988.50095 7.90652e-18
6990.00425 7.92356e-18
6991.49753 7.84478e-18
6993.00083 7.65736e-18
6994.50413 7.74859e-18
6995.99741 7.85218e-18
6997.50071 7.76366e-18
6999.00401 7.65044e-18
7000.49729 7.69070e-18
7002.00059 7.72726e-18
7003.50389 7.60781e-18
7004.99716 7.56352e-18
7006.50046 7.63509e-18
7008.00376 7.77843e-18
7009.49704 7.69928e-18
7011.00034 7.61459e-18
7012.50364 7.68434e-18
7013.99692 7.70891e-18
7015.50022 7.57145e-18
7017.00352 7.54898e-18
7018.49680 7.61984e-18
7020.00010 7.63781e-18
7021.50340 7.49667e-18
7022.99668 7.52278e-18
7024.49998 7.49402e-18
7026.00328 7.54884e-18
7027.49655 7.52279e-18
7028.99985 7.42889e-18
7030.50315 7.49123e-18
7031.99643 7.52909e-18
7033.49973 7.49056e-18
7035.00303 7.50184e-18
7036.49631 7.61877e-18
7037.99961 7.59808e-18
7039.50291 7.41212e-18
7040.99619 7.35726e-18
7042.49949 7.40969e-18
7044.00279 7.39701e-18
7045.49607 7.37070e-18
7046.99937 7.30027e-18
7048.50267 7.25271e-18
7049.99594 7.27064e-18
7051.49924 7.19358e-18
7053.00254 7.22302e-18
7054.49582 7.35744e-18
7055.99912 7.29915e-18
7057.50242 7.15502e-18
7058.99570 7.21729e-18
7060.49900 7.22692e-18
7062.00230 7.21455e-18
7063.49558 7.21867e-18
7064.99888 7.17789e-18
7066.50218 7.12650e-18
7067.99546 6.99320e-18
7069.49876 7.11950e-18
7071.00206 7.11111e-18
7072.49533 7.08044e-18
7073.99863 7.05255e-18
7075.50193 7.05004e-18
7076.99521 6.90178e-18
7078.49851 7.13490e-18
7080.00181 7.05944e-18
7081.50511 7.01623e-18
7082.99839 7.12129e-18
7084.50169 6.97937e-18
7085.99497 7.02201e-18
7087.49827 7.09996e-18
7089.00157 7.00453e-18
7090.50487 6.94353e-18
7091.99815 6.91843e-18
7093.50145 7.09952e-18
7095.00475 7.06477e-18
7096.49802 7.03581e-18
7098.00132 7.08924e-18
7099.50462 6.99498e-18
7100.99790 6.87628e-18
7102.50120 6.91015e-18
7104.00450 6.86725e-18
7105.49778 6.88058e-18
7107.00108 6.88395e-18
7108.50438 6.85830e-18
7109.99766 6.81486e-18
7111.50096 6.84968e-18
7113.00426 6.86072e-18
7114.49754 6.81318e-18
7116.00084 6.83744e-18
7117.50414 6.82353e-18
7118.99741 6.71860e-18
7120.50071 6.69284e-18
7122.00401 6.77859e-18
7123.49729 6.80935e-18
7125.00059 6.85207e-18
7126.50389 6.91909e-18
7127.99717 6.91486e-18
7129.50047 6.87268e-18
7131.00377 6.78529e-18
7132.49705 6.74284e-18
7134.00035 6.82442e-18
7135.50365 6.89078e-18
7136.99693 6.81994e-18
7138.50023 6.77047e-18
7140.00353 6.64380e-18
7141.49680 6.68185e-18
7143.00010 6.76462e-18
7144.50340 6.76819e-18
7145.99668 6.62709e-18
7147.49998 6.69753e-18
7149.00328 6.72196e-18
7150.49656 6.66697e-18
7151.99986 6.63723e-18
7153.50316 6.61720e-18
7154.99644 6.58209e-18
7156.49974 6.53763e-18
7158.00304 6.52130e-18
7159.49632 6.57029e-18
7160.99962 6.40258e-18
7162.50292 6.37659e-18
7163.99619 6.45145e-18
7165.49949 6.43192e-18
7167.00279 6.30332e-18
7168.49607 6.26658e-18
7169.99937 6.19416e-18
7171.50267 6.16108e-18
7172.99595 6.21508e-18
7174.49925 6.20250e-18
7176.00255 6.18992e-18
7177.49583 6.17730e-18
7178.99913 6.16473e-18
7180.50243 6.15215e-18
7181.99571 6.13954e-18
7183.49901 6.12696e-18
7185.00231 6.12670e-18
7186.49558 5.91936e-18
7187.99888 5.99556e-18
7189.50218 6.08012e-18
7190.99546 6.20377e-18
7192.49876 6.20835e-18
7194.00206 6.14227e-18
7195.49534 6.21996e-18
7196.99864 6.26057e-18
7198.50194 6.07562e-18
7199.99522 5.91846e-18
7201.49852 5.94846e-18
7203.00182 5.90172e-18
7204.50512 5.81880e-18
7205.99840 5.87885e-18
7207.50170 5.95388e-18
7208.99497 5.97983e-18
7210.49827 5.99243e-18
7212.00157 5.96281e-18
7213.50487 6.00489e-18
7214.99815 5.97639e-18
7216.50145 5.91104e-18
7218.00475 5.82466e-18
7219.49803 5.77454e-18
7221.00133 5.79424e-18
7222.50463 5.76952e-18
7223.99791 5.66686e-18
7225.50121 5.55476e-18
7227.00451 5.59998e-18
7228.49779 5.70993e-18
7230.00109 5.62904e-18
7231.50439 5.48105e-18
7232.99766 5.48389e-18
7234.50096 5.61725e-18
7236.00426 5.67474e-18
7237.49754 5.63338e-18
7239.00084 5.56180e-18
7240.50414 5.59234e-18
7241.99742 5.50015e-18
7243.50072 5.37920e-18
7245.00402 5.46333e-18
7246.49730 5.50212e-18
7248.00060 5.42416e-18
7249.50390 5.42060e-18
7250.99718 5.44693e-18
7252.50048 5.38319e-18
7254.00378 5.39032e-18
7255.49705 5.50024e-18
7257.00035 5.54197e-18
7258.50365 5.53952e-18
7259.99693 5.56929e-18
7261.50023 5.54716e-18
7263.00353 5.47947e-18
7264.49681 5.38647e-18
7266.00011 5.30456e-18
7267.50341 5.25629e-18
7268.99669 5.22294e-18
7270.49999 5.17140e-18
7272.00329 5.15678e-18
7273.49657 5.17015e-18
7274.99987 5.14505e-18
7276.50317 5.07368e-18
7277.99644 4.94111e-18
7279.49974 4.98204e-18
7281.00304 5.11740e-18
7282.49632 5.19386e-18
7283.99962 5.29921e-18
7285.50292 5.27155e-18
7286.99620 5.01612e-18
7288.49950 4.85989e-18
7290.00280 4.89409e-18
7291.49608 4.92477e-18
7292.99938 4.97555e-18
7294.50268 4.98936e-18
7295.99596 4.93695e-18
7297.49926 4.89549e-18
7299.00256 4.86339e-18
7300.49583 4.89210e-18
7301.99913 4.88637e-18
7303.50243 4.75898e-18
7304.99571 4.78566e-18
7306.49901 4.87286e-18
7308.00231 4.69759e-18
7309.49559 4.62228e-18
7310.99889 4.68059e-18
7312.50219 4.65582e-18
7313.99547 4.66512e-18
7315.49877 4.73258e-18
7317.00207 4.75498e-18
7318.49535 4.64981e-18
7319.99865 4.55587e-18
7321.50195 4.59093e-18
7322.99522 4.61018e-18
7324.49852 4.55746e-18
7326.00182 4.55012e-18
7327.50512 4.55615e-18
7328.99840 4.53023e-18
7330.50170 4.51234e-18
7331.99498 4.44444e-18
7333.49828 4.39853e-18
7335.00158 4.43981e-18
7336.50488 4.47566e-18
7337.99816 4.47415e-18
7339.50146 4.47730e-18
7341.00476 4.48169e-18
7342.49804 4.47471e-18
7344.00134 4.43165e-18
7345.50464 4.38209e-18
7346.99791 4.26888e-18
7348.50121 4.16814e-18
7350.00451 4.12606e-18
7351.49779 4.15005e-18
7353.00109 4.18933e-18
7354.50439 4.25908e-18
7355.99767 4.25367e-18
7357.50097 4.08533e-18
7359.00427 4.04813e-18
7360.49755 4.14165e-18
7362.00085 4.07234e-18
7363.50415 4.03626e-18
7364.99743 4.04274e-18
7366.50073 3.93286e-18
7368.00403 3.91343e-18
7369.49730 3.91288e-18
7371.00060 3.85743e-18
7372.50390 3.79102e-18
7373.99718 3.71178e-18
7375.50048 3.77050e-18
7377.00378 3.87525e-18
7378.49706 3.75037e-18
7380.00036 3.68412e-18
7381.50366 3.64865e-18
7382.99694 3.66254e-18
7384.50024 3.63926e-18
7386.00354 3.59543e-18
7387.49682 3.56839e-18
7389.00012 3.63179e-18
7390.50342 3.61472e-18
7391.99669 3.58326e-18
7393.49999 3.55595e-18
7395.00329 3.53695e-18
7396.49657 3.48626e-18
7397.99987 3.47519e-18
7399.50317 3.47783e-18
7400.99645 3.43207e-18
7402.49975 3.40442e-18
7404.00305 3.41871e-18
7405.49633 3.41309e-18
7406.99963 3.40300e-18
7408.50293 3.35307e-18
7409.99621 3.27557e-18
7411.49951 3.27961e-18
7413.00281 3.29063e-18
7414.49608 3.26769e-18
7415.99938 3.23457e-18
7417.50268 3.22674e-18
7418.99596 3.23659e-18
7420.49926 3.21050e-18
7422.00256 3.20347e-18
7423.49584 3.14281e-18
7424.99914 3.13676e-18
7426.50244 3.16331e-18
7427.99572 3.17063e-18
7429.49902 3.15699e-18
7431.00232 3.08872e-18
7432.49560 3.08711e-18
7433.99890 3.09865e-18
7435.50220 3.11456e-18
7436.99547 3.04536e-18
7438.49877 3.08672e-18
7440.00207 3.05282e-18
7441.49535 2.97604e-18
7442.99865 2.94547e-18
7444.50195 2.94711e-18
7445.99523 2.90377e-18
7447.49853 2.92300e-18
7449.00183 2.87689e-18
7450.50513 2.87395e-18
7451.99841 2.93663e-18
7453.50171 2.86559e-18
7454.99499 2.86017e-18
7456.49829 2.78999e-18
7458.00159 2.76558e-18
7459.49486 2.74000e-18
7460.99816 2.75344e-18
7462.50146 2.73914e-18
7464.00476 2.75619e-18
7465.49804 2.77135e-18
7467.00134 2.75728e-18
7468.50464 2.75038e-18
7469.99792 2.75749e-18
7471.50122 2.72885e-18
7473.00452 2.69152e-18
7474.49780 2.67274e-18
7476.00110 2.64462e-18
7477.50440 2.68190e-18
7478.99768 2.71174e-18
7480.50098 2.71072e-18
7482.00428 2.69322e-18
7483.49755 2.67304e-18
7485.00085 2.64972e-18
7486.50415 2.59163e-18
7487.99743 2.59942e-18
7489.50073 2.65555e-18
7491.00403 2.57631e-18
7492.49731 2.55673e-18
7494.00061 2.60249e-18
7495.50391 2.56428e-18
7496.99719 2.54383e-18
7498.50049 2.53773e-18
7500.00379 2.50953e-18
7501.49707 2.51711e-18
7503.00037 2.50956e-18
7504.50367 2.46755e-18
7505.99694 2.49167e-18
7507.50024 2.49190e-18
7509.00354 2.52034e-18
7510.49682 2.53326e-18
7512.00012 2.54677e-18
7513.50342 2.49859e-18
7514.99670 2.45271e-18
7516.50000 2.52160e-18
7518.00330 2.50152e-18
7519.49658 2.46654e-18
7520.99988 2.49684e-18
7522.50318 2.46762e-18
7523.99646 2.50269e-18
7525.49976 2.50015e-18
7527.00306 2.49358e-18
7528.49633 2.44285e-18
7529.99963 2.39483e-18
7531.50293 2.44527e-18
7532.99621 2.42332e-18
7534.49951 2.38066e-18
7536.00281 2.41367e-18
7537.49609 2.36814e-18
7538.99939 2.37561e-18
7540.50269 2.36146e-18
