# wavelength flux
3719.99603 2.93288e-18
3721.49933 2.86404e-18
3723.00263 2.39586e-18
3724.49590 4.09410e-18
3725.99920 4.58672e-18
3727.50250 3.27528e-18
3728.99578 2.98615e-18
3730.49908 3.35207e-18
3732.00238 4.28220e-18
3733.49566 4.71084e-18
3734.99896 4.29116e-18
3736.50226 3.90852e-18
3737.99554 3.41110e-18
3739.49884 2.16027e-18
3741.00214 2.69585e-18
3742.49542 3.29769e-18
3743.99872 3.34456e-18
3745.50202 3.03071e-18
3746.99529 2.50581e-18
3748.49859 2.82977e-18
3750.00189 3.34524e-18
3751.49517 2.87036e-18
3752.99847 2.96744e-18
3754.50177 3.77214e-18
3755.99505 3.08969e-18
3757.49835 2.92999e-18
3759.00165 2.86370e-18
3760.50495 2.66960e-18
3761.99823 2.64352e-18
3763.50153 2.24153e-18
3765.00483 2.92672e-18
3766.49811 3.60570e-18
3768.00141 2.84814e-18
3769.50471 3.21215e-18
3770.99798 3.27390e-18
3772.50128 4.14787e-18
3774.00458 3.75729e-18
3775.49786 3.88294e-18
3777.00116 3.58148e-18
3778.50446 3.76946e-18
3779.99774 3.37307e-18
3781.50104 2.64242e-18
3783.00434 2.69040e-18
3784.49762 3.35659e-18
3786.00092 3.36976e-18
3787.50422 3.39614e-18
3788.99750 3.11392e-18
3790.50080 3.79051e-18
3792.00410 4.17631e-18
3793.49737 3.52677e-18
3795.00067 3.11389e-18
3796.50397 3.10445e-18
3797.99725 3.81649e-18
3799.50055 3.80643e-18
3801.00385 3.43893e-18
3802.49713 3.22634e-18
3804.00043 3.41906e-18
3805.50373 3.37936e-18
3806.99701 2.90261e-18
3808.50031 3.11684e-18
3810.00361 3.39689e-18
3811.49689 3.80073e-18
3813.00019 3.77689e-18
3814.50349 3.11020e-18
3815.99676 3.54769e-18
3817.50006 3.18280e-18
3819.00336 2.87543e-18
3820.49664 3.71077e-18
3821.99994 3.34444e-18
3823.50324 3.51881e-18
3824.99652 3.93810e-18
3826.49982 3.27496e-18
3828.00312 3.18315e-18
3829.49640 4.09764e-18
3830.99970 4.20087e-18
3832.50300 3.88232e-18
3833.99628 3.75893e-18
3835.49958 2.60584e-18
3837.00288 3.36485e-18
3838.49615 3.14350e-18
3839.99945 3.19440e-18
3841.50275 3.63614e-18
3842.99603 2.91588e-18
3844.49933 3.63943e-18
3846.00263 3.88673e-18
3847.49591 3.83725e-18
3848.99921 3.77714e-18
3850.50251 3.17794e-18
3851.99579 3.78003e-18
3853.49909 3.82293e-18
3855.00239 3.44576e-18
3856.49567 4.41408e-18
3857.99897 4.25090e-18
3859.50227 4.30687e-18
3860.99554 3.80358e-18
3862.49884 3.93441e-18
3864.00214 4.40636e-18
3865.49542 4.34475e-18
3866.99872 4.43730e-18
3868.50202 4.46283e-18
3869.99530 5.05374e-18
3871.49860 5.84419e-18
3873.00190 5.55576e-18
3874.49518 4.85600e-18
3875.99848 4.60243e-18
3877.50178 5.45289e-18
3878.99506 5.57468e-18
3880.49836 5.29190e-18
3882.00166 5.49754e-18
3883.50496 5.73002e-18
3884.99823 5.82128e-18
3886.50153 5.93807e-18
3888.00483 5.91754e-18
3889.49811 5.91086e-18
3891.00141 6.42448e-18
3892.50471 5.62343e-18
3893.99799 6.08682e-18
3895.50129 6.65340e-18
3897.00459 5.93811e-18
3898.49787 6.36555e-18
3900.00117 6.31619e-18
3901.50447 6.35449e-18
3902.99775 6.38949e-18
3904.50105 5.94394e-18
3906.00435 6.02131e-18
3907.49762 6.06656e-18
3909.00092 6.57214e-18
3910.50422 6.39885e-18
3911.99750 5.83990e-18
3913.50080 6.38720e-18
3915.00410 6.25306e-18
3916.49738 6.46116e-18
3918.00068 6.47010e-18
3919.50398 6.63869e-18
3920.99726 6.85590e-18
3922.50056 6.37800e-18
3924.00386 5.75186e-18
3925.49714 5.64012e-18
3927.00044 6.52512e-18
3928.50374 6.93434e-18
3929.99701 6.27767e-18
3931.50031 6.18246e-18
3933.00361 6.46099e-18
3934.49689 6.13837e-18
3936.00019 5.87026e-18
3937.50349 5.91656e-18
3938.99677 6.10242e-18
3940.50007 6.10796e-18
3942.00337 6.40163e-18
3943.49665 6.63671e-18
3944.99995 6.58186e-18
3946.50325 7.03473e-18
3947.99653 7.32572e-18
3949.49983 7.51438e-18
3951.00313 6.93959e-18
3952.49640 7.57556e-18
3953.99970 7.26399e-18
3955.50300 7.17362e-18
3956.99628 6.90795e-18
3958.49958 6.81297e-18
3960.00288 6.42524e-18
3961.49616 6.41361e-18
3962.99946 7.19336e-18
3964.50276 7.09059e-18
3965.99604 6.77037e-18
3967.49934 6.51263e-18
3969.00264 6.79163e-18
3970.49592 7.15133e-18
3971.99922 6.58147e-18
3973.50252 7.25810e-18
3974.99579 7.31585e-18
3976.49909 7.22433e-18
3978.00239 7.46240e-18
3979.49567 7.41266e-18
3980.99897 7.28214e-18
3982.50227 6.89592e-18
3983.99555 6.83271e-18
3985.49885 7.00450e-18
3987.00215 7.50886e-18
3988.49543 7.79313e-18
3989.99873 7.49947e-18
3991.50203 7.54036e-18
3992.99531 7.62813e-18
3994.49861 7.36394e-18
3996.00191 7.48179e-18
3997.49518 8.20355e-18
3998.99848 7.84165e-18
4000.50178 7.34651e-18
4001.99506 7.39284e-18
4003.49836 7.29700e-18
4005.00166 7.02684e-18
4006.50496 7.62861e-18
4007.99824 8.44355e-18
4009.50154 7.87615e-18
4011.00484 7.26929e-18
4012.49812 7.77521e-18
4014.00142 8.01439e-18
4015.50472 7.75852e-18
4016.99800 7.66730e-18
4018.50130 7.83367e-18
4020.00460 7.67312e-18
4021.49787 7.67501e-18
4023.00117 7.52571e-18
4024.50447 7.73767e-18
4025.99775 7.97449e-18
4027.50105 7.46119e-18
4029.00435 7.15119e-18
4030.49763 7.36999e-18
4032.00093 7.84124e-18
4033.50423 7.62575e-18
4034.99751 7.34716e-18
4036.50081 6.96854e-18
4038.00411 7.20383e-18
4039.49739 7.88562e-18
4041.00069 7.34977e-18
4042.50399 8.04856e-18
4043.99726 8.12061e-18
4045.50056 7.72542e-18
4047.00386 7.81085e-18
4048.49714 7.04444e-18
4050.00044 7.09648e-18
4051.50374 7.39662e-18
4052.99702 7.74739e-18
4054.50032 7.48614e-18
4056.00362 7.23350e-18
4057.49690 7.51416e-18
4059.00020 7.79869e-18
4060.50350 7.41988e-18
4061.99678 6.73591e-18
4063.50008 7.36836e-18
4065.00338 7.31519e-18
4066.49665 6.93841e-18
4067.99995 7.84429e-18
4069.50325 7.92576e-18
4070.99653 7.69146e-18
4072.49983 7.20748e-18
4074.00313 7.20562e-18
4075.49641 7.06738e-18
4076.99971 6.84329e-18
4078.50301 6.52494e-18
4079.99629 6.72530e-18
4081.49959 6.57990e-18
4083.00289 6.48803e-18
4084.49617 6.86207e-18
4085.99947 6.89922e-18
4087.50277 6.77233e-18
4088.99604 6.46350e-18
4090.49934 6.77939e-18
4092.00264 6.63707e-18
4093.49592 6.12063e-18
4094.99922 6.45275e-18
4096.50252 6.66384e-18
4097.99580 6.55003e-18
4099.49910 6.53177e-18
4101.00240 6.55912e-18
4102.49568 7.12122e-18
4103.99898 7.17721e-18
4105.50228 6.76722e-18
4106.99556 6.69543e-18
4108.49886 6.55552e-18
4110.00216 6.41423e-18
4111.49543 6.92802e-18
4112.99873 7.04187e-18
4114.50203 6.66980e-18
4115.99531 6.21781e-18
4117.49861 6.14448e-18
4119.00191 6.73200e-18
4120.49519 6.72622e-18
4121.99849 6.82156e-18
4123.50179 6.76865e-18
4124.99507 6.64483e-18
4126.49837 6.75169e-18
4128.00167 6.85560e-18
4129.50497 6.57772e-18
4130.99825 6.66160e-18
4132.50155 6.81924e-18
4134.00485 6.68284e-18
4135.49812 6.59545e-18
4137.00142 6.67586e-18
4138.50472 6.85423e-18
4139.99800 6.96888e-18
4141.50130 6.67543e-18
4143.00460 6.54819e-18
4144.49788 6.78244e-18
4146.00118 6.62027e-18
4147.50448 6.36727e-18
4148.99776 6.34369e-18
4150.50106 6.54398e-18
4152.00436 6.58859e-18
4153.49764 6.44146e-18
4155.00094 6.34860e-18
4156.50424 6.61516e-18
4157.99751 6.89146e-18
4159.50081 6.78877e-18
4161.00411 6.56856e-18
4162.49739 6.51292e-18
4164.00069 6.86964e-18
4165.50399 6.67071e-18
4166.99727 6.28103e-18
4168.50057 6.49079e-18
4170.00387 6.54129e-18
4171.49715 6.14946e-18
4173.00045 6.02181e-18
4174.50375 5.82535e-18
4175.99703 6.32259e-18
4177.50033 6.48723e-18
4179.00363 6.35359e-18
4180.49690 6.25363e-18
4182.00020 6.25208e-18
4183.50350 6.76898e-18
4184.99678 6.43850e-18
4186.50008 6.06949e-18
4188.00338 6.77306e-18
4189.49666 5.96488e-18
4190.99996 6.76366e-18
4192.50326 6.20172e-18
4193.99654 5.63954e-18
4195.49984 6.12127e-18
4197.00314 6.55844e-18
4198.49642 6.13894e-18
4199.99972 6.14008e-18
4201.50302 6.49552e-18
4202.99629 6.38995e-18
4204.49959 6.23387e-18
4206.00289 6.47848e-18
4207.49617 6.93879e-18
4208.99947 6.71002e-18
4210.50277 6.52942e-18
4211.99605 6.66110e-18
4213.49935 6.19317e-18
4215.00265 5.83470e-18
4216.49593 5.77188e-18
4217.99923 6.51071e-18
4219.50253 6.93156e-18
4220.99581 6.72277e-18
4222.49911 6.75710e-18
4224.00241 6.62396e-18
4225.49568 6.49254e-18
4226.99898 6.57886e-18
4228.50228 6.82485e-18
4229.99556 6.64492e-18
4231.49886 6.25107e-18
4233.00216 6.32691e-18
4234.49544 6.65501e-18
4235.99874 6.78385e-18
4237.50204 6.96278e-18
4238.99532 6.97089e-18
4240.49862 6.65299e-18
4242.00192 6.38404e-18
4243.49520 6.19921e-18
4244.99850 6.67477e-18
4246.50180 6.86830e-18
4247.99507 7.03867e-18
4249.49837 7.19001e-18
4251.00167 7.15470e-18
4252.50497 6.83990e-18
4253.99825 6.48985e-18
4255.50155 6.81251e-18
4257.00485 7.10591e-18
4258.49813 6.40615e-18
4260.00143 6.39128e-18
4261.50473 6.77335e-18
4262.99801 6.70734e-18
4264.50131 6.86649e-18
4266.00461 6.94476e-18
4267.49789 6.60134e-18
4269.00119 6.28217e-18
4270.50449 6.57773e-18
4271.99776 6.52558e-18
4273.50106 7.01833e-18
4275.00436 7.25396e-18
4276.49764 7.12304e-18
4278.00094 7.15162e-18
4279.50424 6.94790e-18
4280.99752 7.02994e-18
4282.50082 6.94017e-18
4284.00412 7.35572e-18
4285.49740 6.86323e-18
4287.00070 6.78902e-18
4288.50400 6.94615e-18
4289.99728 7.25021e-18
4291.50058 7.22065e-18
4293.00388 7.23718e-18
4294.49715 7.31512e-18
4296.00045 7.26714e-18
4297.50375 7.02043e-18
4298.99703 6.90864e-18
4300.50033 7.01080e-18
4302.00363 7.05908e-18
4303.49691 7.08061e-18
4305.00021 7.23120e-18
4306.50351 7.52393e-18
4307.99679 7.42237e-18
4309.50009 7.03328e-18
4311.00339 7.13535e-18
4312.49667 7.27982e-18
4313.99997 6.80828e-18
4315.50327 6.91249e-18
4316.99654 7.29914e-18
4318.49984 7.35134e-18
4320.00314 7.27280e-18
4321.49642 7.71551e-18
4322.99972 7.45263e-18
4324.50302 7.35206e-18
4325.99630 7.54048e-18
4327.49960 7.76717e-18
4329.00290 7.37766e-18
4330.49618 7.44759e-18
4331.99948 6.91849e-18
4333.50278 7.31013e-18
4334.99606 7.04242e-18
4336.49936 7.44272e-18
4338.00266 7.61141e-18
4339.49593 8.02717e-18
4340.99923 8.01035e-18
4342.50253 7.77314e-18
4343.99581 7.53387e-18
4345.49911 7.25787e-18
4347.00241 7.41911e-18
4348.49569 7.92406e-18
4349.99899 7.73368e-18
4351.50229 7.63982e-18
4352.99557 7.29629e-18
4354.49887 7.10862e-18
4356.00217 7.64254e-18
4357.49545 7.80223e-18
4358.99875 7.61549e-18
4360.50205 7.37268e-18
4361.99532 7.59795e-18
4363.49862 7.76696e-18
4365.00192 7.85031e-18
4366.49520 7.75752e-18
4367.99850 7.73483e-18
4369.50180 7.63357e-18
4370.99508 7.66970e-18
4372.49838 7.56864e-18
4374.00168 7.72207e-18
4375.50498 7.94515e-18
4376.99826 8.01993e-18
4378.50156 8.02282e-18
4380.00486 7.86094e-18
4381.49814 8.03834e-18
4383.00144 7.98201e-18
4384.50474 7.88975e-18
4385.99801 8.09240e-18
4387.50131 7.79718e-18
4389.00461 7.68081e-18
4390.49789 8.26772e-18
4392.00119 8.33101e-18
4393.50449 8.26025e-18
4394.99777 8.56830e-18
4396.50107 8.64624e-18
4398.00437 8.52388e-18
4399.49765 8.14095e-18
4401.00095 8.23352e-18
4402.50425 8.49403e-18
4403.99753 8.09153e-18
4405.50083 8.09917e-18
4407.00413 8.54940e-18
4408.49740 8.74688e-18
4410.00070 8.31522e-18
4411.50400 8.17080e-18
4412.99728 8.52897e-18
4414.50058 8.11515e-18
4416.00388 8.20550e-18
4417.49716 8.58627e-18
4419.00046 8.44088e-18
4420.50376 8.98204e-18
4421.99704 8.67416e-18
4423.50034 8.34481e-18
4425.00364 8.61098e-18
4426.49692 8.50873e-18
4428.00022 8.35977e-18
4429.50352 8.37196e-18
4430.99679 8.57339e-18
4432.50009 8.79461e-18
4434.00339 9.11007e-18
4435.49667 9.15346e-18
4436.99997 8.94480e-18
4438.50327 9.18235e-18
4439.99655 9.21054e-18
4441.49985 9.22215e-18
4443.00315 9.44781e-18
4444.49643 9.50357e-18
4445.99973 9.38903e-18
4447.50303 9.40644e-18
4448.99631 9.53434e-18
4450.49961 9.64268e-18
4452.00291 9.69203e-18
4453.49618 9.77455e-18
4454.99948 1.00964e-17
4456.50278 1.03051e-17
4457.99606 9.83029e-18
4459.49936 9.40600e-18
4461.00266 1.01182e-17
4462.49594 1.03540e-17
4463.99924 1.02053e-17
4465.50254 1.04868e-17
4466.99582 1.06049e-17
4468.49912 1.05536e-17
4470.00242 1.04824e-17
4471.49570 1.07354e-17
4472.99900 1.06845e-17
4474.50230 1.05544e-17
4475.99557 1.08781e-17
4477.49887 1.16847e-17
4479.00217 1.13377e-17
4480.49545 1.11328e-17
4481.99875 1.11670e-17
4483.50205 1.13769e-17
4484.99533 1.15650e-17
4486.49863 1.15024e-17
4488.00193 1.16408e-17
4489.49521 1.12693e-17
4490.99851 1.16750e-17
4492.50181 1.19164e-17
4493.99509 1.17595e-17
4495.49839 1.16941e-17
4497.00169 1.18142e-17
4498.49496 1.19939e-17
4499.99826 1.19559e-17
4501.50156 1.21487e-17
4503.00486 1.20687e-17
4504.49814 1.23211e-17
4506.00144 1.26978e-17
4507.50474 1.24720e-17
4508.99802 1.26742e-17
4510.50132 1.30956e-17
4512.00462 1.30374e-17
4513.49790 1.27649e-17
4515.00120 1.26405e-17
4516.50450 1.28424e-17
4517.99778 1.29820e-17
4519.50108 1.30210e-17
4521.00438 1.31076e-17
4522.49765 1.32526e-17
4524.00095 1.33241e-17
4525.50425 1.32602e-17
4526.99753 1.34802e-17
4528.50083 1.34955e-17
4530.00413 1.34453e-17
4531.49741 1.34965e-17
4533.00071 1.37099e-17
4534.50401 1.40769e-17
4535.99729 1.36506e-17
4537.50059 1.36210e-17
4539.00389 1.39462e-17
4540.49717 1.38290e-17
4542.00047 1.37936e-17
4543.50377 1.42610e-17
4544.99704 1.44250e-17
4546.50034 1.44358e-17
4548.00364 1.48967e-17
4549.49692 1.44321e-17
4551.00022 1.47882e-17
4552.50352 1.44267e-17
4553.99680 1.44223e-17
4555.50010 1.43948e-17
4557.00340 1.43714e-17
4558.49668 1.42765e-17
4559.99998 1.45596e-17
4561.50328 1.47318e-17
4562.99656 1.46250e-17
4564.49986 1.44577e-17
4566.00316 1.41995e-17
4567.49643 1.45146e-17
4568.99973 1.48669e-17
4570.50303 1.47754e-17
4571.99631 1.47337e-17
4573.49961 1.44274e-17
4575.00291 1.41884e-17
4576.49619 1.44698e-17
4577.99949 1.47920e-17
4579.50279 1.50974e-17
4580.99607 1.51834e-17
4582.49937 1.47841e-17
4584.00267 1.47644e-17
4585.49595 1.45338e-17
4586.99925 1.45485e-17
4588.50255 1.48638e-17
4589.99582 1.48742e-17
4591.49912 1.49092e-17
4593.00242 1.49674e-17
4594.49570 1.52183e-17
4595.99900 1.51000e-17
4597.50230 1.50456e-17
4598.99558 1.53222e-17
4600.49888 1.51942e-17
4602.00218 1.51006e-17
4603.49546 1.51919e-17
4604.99876 1.54009e-17
4606.50206 1.56028e-17
4607.99534 1.55430e-17
4609.49864 1.53921e-17
4611.00194 1.54564e-17
4612.49521 1.53351e-17
4613.99851 1.53982e-17
4615.50181 1.54889e-17
4616.99509 1.52911e-17
4618.49839 1.49496e-17
4620.00169 1.49577e-17
4621.49497 1.51008e-17
4622.99827 1.50654e-17
4624.50157 1.52312e-17
4626.00487 1.48365e-17
4627.49815 1.51795e-17
4629.00145 1.55048e-17
4630.50475 1.50379e-17
4631.99803 1.50642e-17
4633.50133 1.50973e-17
4635.00463 1.46777e-17
4636.49790 1.48162e-17
4638.00120 1.47992e-17
4639.50450 1.42845e-17
4640.99778 1.41131e-17
4642.50108 1.43900e-17
4644.00438 1.45735e-17
4645.49766 1.42468e-17
4647.00096 1.43015e-17
4648.50426 1.41694e-17
4649.99754 1.39582e-17
4651.50084 1.43102e-17
4653.00414 1.40866e-17
4654.49742 1.36891e-17
4656.00072 1.38766e-17
4657.50402 1.38925e-17
4658.99729 1.36229e-17
4660.50059 1.36349e-17
4662.00389 1.39786e-17
4663.49717 1.38837e-17
4665.00047 1.37860e-17
4666.50377 1.37686e-17
4667.99705 1.32027e-17
4669.50035 1.30010e-17
4671.00365 1.34101e-17
4672.49693 1.35059e-17
4674.00023 1.32411e-17
4675.50353 1.30180e-17
4676.99681 1.28080e-17
4678.50011 1.26768e-17
4680.00341 1.28868e-17
4681.49668 1.29626e-17
4682.99998 1.26708e-17
4684.50328 1.24715e-17
4685.99656 1.26229e-17
4687.49986 1.28487e-17
4689.00316 1.24734e-17
4690.49644 1.23763e-17
4691.99974 1.25547e-17
4693.50304 1.24682e-17
4694.99632 1.25807e-17
4696.49962 1.26582e-17
4698.00292 1.25290e-17
4699.49620 1.24186e-17
4700.99950 1.20913e-17
4702.50280 1.19241e-17
4703.99607 1.19866e-17
4705.49937 1.21675e-17
4707.00267 1.19656e-17
4708.49595 1.23611e-17
4709.99925 1.25362e-17
4711.50255 1.19841e-17
4712.99583 1.17465e-17
4714.49913 1.19085e-17
4716.00243 1.19547e-17
4717.49571 1.16427e-17
4718.99901 1.14696e-17
4720.50231 1.17898e-17
4721.99559 1.19129e-17
4723.49889 1.16716e-17
4725.00219 1.16368e-17
4726.49546 1.15252e-17
4727.99876 1.14401e-17
4729.50206 1.17169e-17
4730.99534 1.20176e-17
4732.49864 1.19731e-17
4734.00194 1.18832e-17
4735.49522 1.19432e-17
4736.99852 1.18810e-17
4738.50182 1.18040e-17
4739.99510 1.18055e-17
4741.49840 1.16493e-17
4743.00170 1.16929e-17
4744.49498 1.20508e-17
4745.99828 1.23652e-17
4747.50158 1.22841e-17
4749.00488 1.21758e-17
4750.49815 1.20746e-17
4752.00145 1.19079e-17
4753.50475 1.19281e-17
4754.99803 1.19739e-17
4756.50133 1.20521e-17
4758.00463 1.18360e-17
4759.49791 1.19870e-17
4761.00121 1.18302e-17
4762.50451 1.14796e-17
4763.99779 1.16587e-17
4765.50109 1.19688e-17
4767.00439 1.17155e-17
4768.49767 1.13750e-17
4770.00097 1.13260e-17
4771.50427 1.14378e-17
4772.99754 1.08551e-17
4774.50084 1.09076e-17
4776.00414 1.13424e-17
4777.49742 1.16808e-17
4779.00072 1.12860e-17
4780.50402 1.12184e-17
4781.99730 1.13266e-17
4783.50060 1.15072e-17
4785.00390 1.14767e-17
4786.49718 1.11545e-17
4788.00048 1.15165e-17
4789.50378 1.15004e-17
4790.99706 1.13768e-17
4792.50036 1.14855e-17
4794.00366 1.16707e-17
4795.49693 1.18329e-17
4797.00023 1.17099e-17
4798.50353 1.15416e-17
4799.99681 1.16081e-17
4801.50011 1.16269e-17
4803.00341 1.18308e-17
4804.49669 1.20355e-17
4805.99999 1.19207e-17
4807.50329 1.18284e-17
4808.99657 1.18915e-17
4810.49987 1.19202e-17
4812.00317 1.17925e-17
4813.49645 1.15933e-17
4814.99975 1.15974e-17
4816.50305 1.16649e-17
4817.99632 1.18927e-17
4819.49962 1.19179e-17
4821.00292 1.16475e-17
4822.49620 1.19136e-17
4823.99950 1.20612e-17
4825.50280 1.20544e-17
4826.99608 1.19025e-17
4828.49938 1.16635e-17
4830.00268 1.16824e-17
4831.49596 1.20228e-17
4832.99926 1.20046e-17
4834.50256 1.19945e-17
4835.99584 1.21728e-17
4837.49914 1.22790e-17
4839.00244 1.24243e-17
4840.49571 1.25142e-17
4841.99901 1.20510e-17
4843.50231 1.17832e-17
4844.99559 1.22877e-17
4846.49889 1.24505e-17
4848.00219 1.20260e-17
4849.49547 1.19701e-17
4850.99877 1.21183e-17
4852.50207 1.25405e-17
4853.99535 1.26910e-17
4855.49865 1.21776e-17
4857.00195 1.22245e-17
4858.49523 1.21797e-17
4859.99853 1.23227e-17
4861.50183 1.23086e-17
4862.99510 1.22224e-17
4864.49840 1.22252e-17
4866.00170 1.19231e-17
4867.49498 1.18658e-17
4868.99828 1.20754e-17
4870.50158 1.21935e-17
4872.00488 1.22108e-17
4873.49816 1.22460e-17
4875.00146 1.21758e-17
4876.50476 1.20405e-17
4877.99804 1.20827e-17
4879.50134 1.21928e-17
4881.00464 1.22954e-17
4882.49792 1.24282e-17
4884.00122 1.22426e-17
4885.50452 1.23078e-17
4886.99779 1.25036e-17
4888.50109 1.25268e-17
4890.00439 1.23579e-17
4891.49767 1.23007e-17
4893.00097 1.25814e-17
4894.50427 1.22637e-17
4895.99755 1.19880e-17
4897.50085 1.19945e-17
4899.00415 1.22244e-17
4900.49743 1.22120e-17
4902.00073 1.20551e-17
4903.50403 1.18821e-17
4904.99731 1.17499e-17
4906.50061 1.18962e-17
4908.00391 1.17912e-17
4909.49718 1.17198e-17
4911.00048 1.19503e-17
4912.50378 1.19469e-17
4913.99706 1.17338e-17
4915.50036 1.17004e-17
4917.00366 1.14720e-17
4918.49694 1.11600e-17
4920.00024 1.13227e-17
4921.50354 1.10639e-17
4922.99682 1.11758e-17
4924.50012 1.13092e-17
4926.00342 1.12336e-17
4927.49670 1.12500e-17
4929.00000 1.13820e-17
4930.50330 1.13004e-17
4931.99657 1.13814e-17
4933.49987 1.12894e-17
4935.00317 1.11868e-17
4936.49645 1.11543e-17
4937.99975 1.14169e-17
4939.50305 1.14521e-17
4940.99633 1.11585e-17
4942.49963 1.11324e-17
4944.00293 1.13152e-17
4945.49621 1.12242e-17
4946.99951 1.13815e-17
4948.50281 1.14902e-17
4949.99609 1.13038e-17
4951.49939 1.12701e-17
4953.00269 1.14487e-17
4954.49596 1.16540e-17
4955.99926 1.14755e-17
4957.50256 1.14672e-17
4958.99584 1.14569e-17
4960.49914 1.15267e-17
4962.00244 1.15508e-17
4963.49572 1.15382e-17
4964.99902 1.16904e-17
4966.50232 1.16772e-17
4967.99560 1.19083e-17
4969.49890 1.18494e-17
4971.00220 1.17320e-17
4972.49548 1.15664e-17
4973.99878 1.15658e-17
4975.50208 1.15544e-17
4976.99535 1.12179e-17
4978.49865 1.10914e-17
4980.00195 1.16698e-17
4981.49523 1.14256e-17
4982.99853 1.09503e-17
4984.50183 1.09772e-17
4985.99511 1.15270e-17
4987.49841 1.13739e-17
4989.00171 1.14892e-17
4990.49499 1.13342e-17
4991.99829 1.11196e-17
4993.50159 1.10818e-17
4995.00489 1.09763e-17
4996.49817 1.10557e-17
4998.00147 1.10080e-17
4999.50477 1.10701e-17
5000.99804 1.07980e-17
5002.50134 1.09404e-17
5004.00464 1.10217e-17
5005.49792 1.11049e-17
5007.00122 1.10610e-17
5008.50452 1.06066e-17
5009.99780 1.06567e-17
5011.50110 1.08641e-17
5013.00440 1.08192e-17
5014.49768 1.07762e-17
5016.00098 1.09184e-17
5017.50428 1.08602e-17
5018.99756 1.06780e-17
5020.50086 1.06671e-17
5022.00416 1.06820e-17
5023.49743 1.06733e-17
5025.00073 1.06438e-17
5026.50403 1.06032e-17
5027.99731 1.05463e-17
5029.50061 1.05025e-17
5031.00391 1.05129e-17
5032.49719 1.06314e-17
5034.00049 1.05019e-17
5035.50379 1.05900e-17
5036.99707 1.06205e-17
5038.50037 1.02667e-17
5040.00367 1.01700e-17
5041.49695 1.03904e-17
5043.00025 1.03175e-17
5044.50355 1.02472e-17
5045.99682 1.05262e-17
5047.50012 1.06363e-17
5049.00342 1.06829e-17
5050.49670 1.07244e-17
5052.00000 1.08710e-17
5053.50330 1.04197e-17
5054.99658 1.07228e-17
5056.49988 1.06858e-17
5058.00318 1.08646e-17
5059.49646 1.13138e-17
5060.99976 1.10732e-17
5062.50306 1.09398e-17
5063.99634 1.07827e-17
5065.49964 1.07909e-17
5067.00294 1.12082e-17
5068.49621 1.12607e-17
5069.99951 1.11962e-17
5071.50281 1.11961e-17
5072.99609 1.13692e-17
5074.49939 1.13972e-17
5076.00269 1.12125e-17
5077.49597 1.11665e-17
5078.99927 1.14624e-17
5080.50257 1.17060e-17
5081.99585 1.16362e-17
5083.49915 1.14472e-17
5085.00245 1.15050e-17
5086.49573 1.15651e-17
5087.99903 1.16117e-17
5089.50233 1.17054e-17
5090.99560 1.19165e-17
5092.49890 1.18238e-17
5094.00220 1.18216e-17
5095.49548 1.20361e-17
5096.99878 1.21523e-17
5098.50208 1.22980e-17
5099.99536 1.21236e-17
5101.49866 1.21613e-17
5103.00196 1.21328e-17
5104.49524 1.21166e-17
5105.99854 1.22574e-17
5107.50184 1.24093e-17
5108.99512 1.25769e-17
5110.49842 1.24734e-17
5112.00172 1.25296e-17
5113.49499 1.25332e-17
5114.99829 1.27214e-17
5116.50159 1.26799e-17
5118.00489 1.25404e-17
5119.49817 1.27765e-17
5121.00147 1.28647e-17
5122.50477 1.26250e-17
5123.99805 1.28342e-17
5125.50135 1.29059e-17
5127.00465 1.28606e-17
5128.49793 1.28186e-17
5130.00123 1.29144e-17
5131.50453 1.30288e-17
5132.99781 1.35418e-17
5134.50111 1.33875e-17
5136.00441 1.33207e-17
5137.49768 1.32340e-17
5139.00098 1.32834e-17
5140.50428 1.32801e-17
5141.99756 1.34002e-17
5143.50086 1.32409e-17
5145.00416 1.30985e-17
5146.49744 1.30520e-17
5148.00074 1.32918e-17
5149.50404 1.36083e-17
5150.99732 1.35238e-17
5152.50062 1.35389e-17
5154.00392 1.33865e-17
5155.49720 1.34462e-17
5157.00050 1.36919e-17
5158.50380 1.35650e-17
5159.99707 1.34677e-17
5161.50037 1.36794e-17
5163.00367 1.38639e-17
5164.49695 1.40535e-17
5166.00025 1.40467e-17
5167.50355 1.39249e-17
5168.99683 1.37341e-17
5170.50013 1.38102e-17
5172.00343 1.39973e-17
5173.49671 1.40368e-17
5175.00001 1.39704e-17
5176.50331 1.39131e-17
5177.99659 1.39486e-17
5179.49989 1.42678e-17
5181.00319 1.42279e-17
5182.49646 1.41663e-17
5183.99976 1.44677e-17
5185.50306 1.45127e-17
5186.99634 1.44017e-17
5188.49964 1.45358e-17
5190.00294 1.47195e-17
5191.49622 1.45760e-17
5192.99952 1.48909e-17
5194.50282 1.51355e-17
5195.99610 1.50997e-17
5197.49940 1.51583e-17
5199.00270 1.46903e-17
5200.49598 1.46093e-17
5201.99928 1.51166e-17
5203.50258 1.54877e-17
5204.99585 1.54760e-17
5206.49915 1.52778e-17
5208.00245 1.53258e-17
5209.49573 1.53146e-17
5210.99903 1.53028e-17
5212.50233 1.53908e-17
5213.99561 1.53625e-17
5215.49891 1.53549e-17
5217.00221 1.53146e-17
5218.49549 1.51724e-17
5219.99879 1.50153e-17
5221.50209 1.49335e-17
5222.99537 1.50905e-17
5224.49867 1.52606e-17
5226.00197 1.52835e-17
5227.49524 1.51193e-17
5228.99854 1.52527e-17
5230.50184 1.55277e-17
5231.99512 1.54256e-17
5233.49842 1.53007e-17
5235.00172 1.54734e-17
5236.49500 1.55130e-17
5237.99830 1.54841e-17
5239.50160 1.54323e-17
5241.00490 1.52261e-17
5242.49818 1.55233e-17
5244.00148 1.55417e-17
5245.50478 1.53422e-17
5246.99806 1.56872e-17
5248.50136 1.57129e-17
5250.00466 1.53880e-17
5251.49793 1.54604e-17
5253.00123 1.53034e-17
5254.50453 1.53070e-17
5255.99781 1.55211e-17
5257.50111 1.55927e-17
5259.00441 1.57965e-17
5260.49769 1.59604e-17
5262.00099 1.58484e-17
5263.50429 1.57676e-17
5264.99757 1.59406e-17
5266.50087 1.59526e-17
5268.00417 1.58821e-17
5269.49745 1.57053e-17
5271.00075 1.60741e-17
5272.50405 1.63103e-17
5273.99732 1.61978e-17
5275.50062 1.62342e-17
5277.00392 1.62792e-17
5278.49720 1.62852e-17
5280.00050 1.61970e-17
5281.50380 1.61998e-17
5282.99708 1.61467e-17
5284.50038 1.60024e-17
5286.00368 1.59574e-17
5287.49696 1.60072e-17
5289.00026 1.61229e-17
5290.50356 1.62042e-17
5291.99684 1.60690e-17
5293.50014 1.60892e-17
5295.00344 1.63825e-17
5296.49671 1.66220e-17
5298.00001 1.67411e-17
5299.50331 1.67656e-17
5300.99659 1.65959e-17
5302.49989 1.65252e-17
5304.00319 1.66348e-17
5305.49647 1.67026e-17
5306.99977 1.68353e-17
5308.50307 1.69490e-17
5309.99635 1.69438e-17
5311.49965 1.69389e-17
5313.00295 1.69055e-17
5314.49623 1.68417e-17
5315.99953 1.69020e-17
5317.50283 1.70252e-17
5318.99610 1.70248e-17
5320.49940 1.68963e-17
5322.00270 1.67445e-17
5323.49598 1.68954e-17
5324.99928 1.68720e-17
5326.50258 1.66944e-17
5327.99586 1.67884e-17
5329.49916 1.70591e-17
5331.00246 1.70176e-17
5332.49574 1.70204e-17
5333.99904 1.70602e-17
5335.50234 1.69156e-17
5336.99562 1.70137e-17
5338.49892 1.69562e-17
5340.00222 1.70597e-17
5341.49549 1.68514e-17
5342.99879 1.67332e-17
5344.50209 1.69769e-17
5345.99537 1.68424e-17
5347.49867 1.70416e-17
5349.00197 1.70254e-17
5350.49525 1.68856e-17
5351.99855 1.69547e-17
5353.50185 1.71615e-17
5354.99513 1.67229e-17
5356.49843 1.69011e-17
5358.00173 1.71735e-17
5359.49501 1.68519e-17
5360.99831 1.68054e-17
5362.50161 1.69903e-17
5364.00491 1.73588e-17
5365.49818 1.72020e-17
5367.00148 1.69944e-17
5368.50478 1.70720e-17
5369.99806 1.70954e-17
5371.50136 1.70957e-17
5373.00466 1.72655e-17
5374.49794 1.74249e-17
5376.00124 1.73248e-17
5377.50454 1.70918e-17
5378.99782 1.70228e-17
5380.50112 1.72262e-17
5382.00442 1.71489e-17
5383.49770 1.73329e-17
5385.00100 1.73895e-17
5386.50430 1.72334e-17
5387.99757 1.71686e-17
5389.50087 1.72022e-17
5391.00417 1.74603e-17
5392.49745 1.75620e-17
5394.00075 1.75909e-17
5395.50405 1.75502e-17
5396.99733 1.74158e-17
5398.50063 1.70142e-17
5400.00393 1.70629e-17
5401.49721 1.71891e-17
5403.00051 1.70637e-17
5404.50381 1.73818e-17
5405.99709 1.75233e-17
5407.50039 1.70972e-17
5409.00369 1.71222e-17
5410.49696 1.71632e-17
5412.00026 1.70492e-17
5413.50356 1.70325e-17
5414.99684 1.68658e-17
5416.50014 1.72173e-17
5418.00344 1.69087e-17
5419.49672 1.67471e-17
5421.00002 1.70650e-17
5422.50332 1.68760e-17
5423.99660 1.71055e-17
5425.49990 1.68957e-17
5427.00320 1.67069e-17
5428.49648 1.68646e-17
5429.99978 1.70518e-17
5431.50308 1.71582e-17
5432.99635 1.70104e-17
5434.49965 1.69712e-17
5436.00295 1.69542e-17
5437.49623 1.69709e-17
5438.99953 1.68509e-17
5440.50283 1.70883e-17
5441.99611 1.73456e-17
5443.49941 1.72407e-17
5445.00271 1.71691e-17
5446.49599 1.72962e-17
5447.99929 1.77230e-17
5449.50259 1.78342e-17
5450.99587 1.77947e-17
5452.49917 1.76959e-17
5454.00247 1.77230e-17
5455.49574 1.78342e-17
5456.99904 1.77293e-17
5458.50234 1.78227e-17
5459.99562 1.81894e-17
5461.49892 1.82830e-17
5463.00222 1.82155e-17
5464.49550 1.83697e-17
5465.99880 1.82927e-17
5467.50210 1.81076e-17
5468.99538 1.82028e-17
5470.49868 1.83553e-17
5472.00198 1.83732e-17
5473.49526 1.85417e-17
5474.99856 1.87125e-17
5476.50186 1.86944e-17
5477.99513 1.88814e-17
5479.49843 1.84932e-17
5481.00173 1.85354e-17
5482.49501 1.87292e-17
5483.99831 1.87671e-17
5485.50161 1.83064e-17
5487.00491 1.85542e-17
5488.49819 1.84914e-17
5490.00149 1.83554e-17
5491.50479 1.87720e-17
5492.99807 1.84114e-17
5494.50137 1.84250e-17
5496.00467 1.83899e-17
5497.49795 1.80510e-17
5499.00125 1.81009e-17
5500.50455 1.80772e-17
5501.99782 1.84141e-17
5503.50112 1.81151e-17
5505.00442 1.78707e-17
5506.49770 1.81168e-17
5508.00100 1.80479e-17
5509.50430 1.78902e-17
5510.99758 1.79124e-17
5512.50088 1.76593e-17
5514.00418 1.74810e-17
5515.49746 1.73481e-17
5517.00076 1.74133e-17
5518.50406 1.72711e-17
5519.99734 1.70042e-17
5521.50064 1.70524e-17
5523.00394 1.72339e-17
5524.49721 1.70949e-17
5526.00051 1.66949e-17
5527.50381 1.65343e-17
5528.99709 1.65734e-17
5530.50039 1.64155e-17
5532.00369 1.63248e-17
5533.49697 1.62492e-17
5535.00027 1.62310e-17
5536.50357 1.60612e-17
5537.99685 1.56076e-17
5539.50015 1.55787e-17
5541.00345 1.57577e-17
5542.49673 1.56230e-17
5544.00003 1.53928e-17
5545.50333 1.51983e-17
5546.99660 1.51152e-17
5548.49990 1.51614e-17
5550.00320 1.51812e-17
5551.49648 1.50075e-17
5552.99978 1.47092e-17
5554.50308 1.47833e-17
5555.99636 1.49276e-17
5557.49966 1.47575e-17
5559.00296 1.48750e-17
5560.49624 1.50343e-17
5561.99954 1.46287e-17
5563.50284 1.47337e-17
5564.99612 1.47552e-17
5566.49942 1.47209e-17
5568.00272 1.48338e-17
5569.49599 1.49402e-17
5570.99929 1.46426e-17
5572.50259 1.43678e-17
5573.99587 1.44678e-17
5575.49917 1.44076e-17
5577.00247 1.42753e-17
5578.49575 1.47244e-17
5579.99905 1.48052e-17
5581.50235 1.45551e-17
5582.99563 1.45605e-17
5584.49893 1.45787e-17
5586.00223 1.44637e-17
5587.49551 1.42248e-17
5588.99881 1.42262e-17
5590.50211 1.44555e-17
5591.99538 1.44067e-17
5593.49868 1.42341e-17
5595.00198 1.40875e-17
5596.49526 1.42698e-17
5597.99856 1.44281e-17
5599.50186 1.43192e-17
5600.99514 1.41833e-17
5602.49844 1.41973e-17
5604.00174 1.43314e-17
5605.49502 1.41129e-17
5606.99832 1.39941e-17
5608.50162 1.41319e-17
5610.00492 1.40967e-17
5611.49820 1.40703e-17
5613.00150 1.41057e-17
5614.50480 1.40768e-17
5615.99807 1.40275e-17
5617.50137 1.40148e-17
5619.00467 1.39158e-17
5620.49795 1.38808e-17
5622.00125 1.37541e-17
5623.50455 1.36777e-17
5624.99783 1.35382e-17
5626.50113 1.34186e-17
5628.00443 1.35204e-17
5629.49771 1.34944e-17
5631.00101 1.34587e-17
5632.50431 1.34569e-17
5633.99759 1.34391e-17
5635.50089 1.34535e-17
5637.00419 1.34689e-17
5638.49746 1.34368e-17
5640.00076 1.33821e-17
5641.50406 1.32375e-17
5642.99734 1.29588e-17
5644.50064 1.29783e-17
5646.00394 1.31638e-17
5647.49722 1.28881e-17
5649.00052 1.26937e-17
5650.50382 1.26658e-17
5651.99710 1.26030e-17
5653.50040 1.25405e-17
5655.00370 1.22325e-17
5656.49698 1.19711e-17
5658.00028 1.20890e-17
5659.50358 1.22036e-17
5660.99685 1.21107e-17
5662.50015 1.20515e-17
5664.00345 1.21835e-17
5665.49673 1.22482e-17
5667.00003 1.21307e-17
5668.50333 1.18943e-17
5669.99661 1.16499e-17
5671.49991 1.16817e-17
5673.00321 1.18838e-17
5674.49649 1.17994e-17
5675.99979 1.16953e-17
5677.50309 1.16391e-17
5678.99637 1.15802e-17
5680.49967 1.14671e-17
5682.00297 1.15119e-17
5683.49624 1.15126e-17
5684.99954 1.13947e-17
5686.50284 1.11938e-17
5687.99612 1.09778e-17
5689.49942 1.13033e-17
5691.00272 1.11856e-17
5692.49600 1.12655e-17
5693.99930 1.14702e-17
5695.50260 1.12496e-17
5696.99588 1.10510e-17
5698.49918 1.10769e-17
5700.00248 1.11721e-17
5701.49576 1.12178e-17
5702.99906 1.10120e-17
5704.50236 1.09337e-17
5705.99563 1.09043e-17
5707.49893 1.10126e-17
5709.00223 1.09291e-17
5710.49551 1.08534e-17
5711.99881 1.07338e-17
5713.50211 1.06748e-17
5714.99539 1.09704e-17
5716.49869 1.08392e-17
5718.00199 1.07527e-17
5719.49527 1.07976e-17
5720.99857 1.09742e-17
5722.50187 1.08339e-17
5723.99515 1.06506e-17
5725.49845 1.08335e-17
5727.00175 1.09769e-17
5728.49502 1.10289e-17
5729.99832 1.12027e-17
5731.50162 1.12000e-17
5733.00492 1.09973e-17
5734.49820 1.11236e-17
5736.00150 1.13682e-17
5737.50480 1.14599e-17
5738.99808 1.12566e-17
5740.50138 1.12170e-17
5742.00468 1.13905e-17
5743.49796 1.12993e-17
5745.00126 1.12148e-17
5746.50456 1.12786e-17
5747.99784 1.14850e-17
5749.50114 1.15690e-17
5751.00444 1.16206e-17
5752.49771 1.17633e-17
5754.00101 1.18765e-17
5755.50431 1.16190e-17
5756.99759 1.14551e-17
5758.50089 1.15658e-17
5760.00419 1.13569e-17
5761.49747 1.14142e-17
5763.00077 1.12764e-17
5764.50407 1.13038e-17
5765.99735 1.13251e-17
5767.50065 1.13363e-17
5769.00395 1.13533e-17
5770.49723 1.11883e-17
5772.00053 1.13941e-17
5773.50383 1.15116e-17
5774.99710 1.13227e-17
5776.50040 1.11648e-17
5778.00370 1.14112e-17
5779.49698 1.13356e-17
5781.00028 1.14129e-17
5782.50358 1.13523e-17
5783.99686 1.11004e-17
5785.50016 1.12563e-17
5787.00346 1.15740e-17
5788.49674 1.14343e-17
5790.00004 1.14770e-17
5791.50334 1.14957e-17
5792.99662 1.17486e-17
5794.49992 1.17839e-17
5796.00322 1.18499e-17
5797.49649 1.18115e-17
5798.99979 1.18179e-17
5800.50309 1.19938e-17
5801.99637 1.21378e-17
5803.49967 1.22562e-17
5805.00297 1.24449e-17
5806.49625 1.25343e-17
5807.99955 1.25485e-17
5809.50285 1.27607e-17
5810.99613 1.27691e-17
5812.49943 1.27476e-17
5814.00273 1.27649e-17
5815.49601 1.28120e-17
5816.99931 1.28023e-17
5818.50261 1.28724e-17
5819.99588 1.29607e-17
5821.49918 1.33960e-17
5823.00248 1.34736e-17
5824.49576 1.34250e-17
5825.99906 1.35914e-17
5827.50236 1.38046e-17
5828.99564 1.36423e-17
5830.49894 1.36889e-17
5832.00224 1.39767e-17
5833.49552 1.41147e-17
5834.99882 1.41799e-17
5836.50212 1.42508e-17
5837.99540 1.42299e-17
5839.49870 1.42562e-17
5841.00200 1.43139e-17
5842.49527 1.42838e-17
5843.99857 1.44298e-17
5845.50187 1.44327e-17
5846.99515 1.44268e-17
5848.49845 1.47766e-17
5850.00175 1.51181e-17
5851.49503 1.48053e-17
5852.99833 1.46928e-17
5854.50163 1.50370e-17
5856.00493 1.49052e-17
5857.49821 1.48386e-17
5859.00151 1.51026e-17
5860.50481 1.52229e-17
5861.99809 1.53082e-17
5863.50139 1.53736e-17
5865.00469 1.52783e-17
5866.49796 1.52003e-17
5868.00126 1.52751e-17
5869.50456 1.55500e-17
5870.99784 1.56241e-17
5872.50114 1.53176e-17
5874.00444 1.51095e-17
5875.49772 1.53631e-17
5877.00102 1.54666e-17
5878.50432 1.53454e-17
5879.99760 1.54262e-17
5881.50090 1.54456e-17
5883.00420 1.54867e-17
5884.49748 1.54433e-17
5886.00078 1.52357e-17
5887.50408 1.48244e-17
5888.99735 1.46126e-17
5890.50065 1.46644e-17
5892.00395 1.47776e-17
5893.49723 1.49200e-17
5895.00053 1.47341e-17
5896.50383 1.44880e-17
5897.99711 1.44216e-17
5899.50041 1.47080e-17
5901.00371 1.49803e-17
5902.49699 1.48773e-17
5904.00029 1.49271e-17
5905.50359 1.50896e-17
5906.99687 1.49949e-17
5908.50017 1.47996e-17
5910.00347 1.51888e-17
5911.49674 1.51487e-17
5913.00004 1.49960e-17
5914.50334 1.53169e-17
5915.99662 1.51427e-17
5917.49992 1.47630e-17
5919.00322 1.49984e-17
5920.49650 1.56203e-17
5921.99980 1.53759e-17
5923.50310 1.57059e-17
5924.99638 1.55588e-17
5926.49968 1.53432e-17
5928.00298 1.53163e-17
5929.49626 1.55812e-17
5930.99956 1.55258e-17
5932.50286 1.56075e-17
5933.99613 1.55690e-17
5935.49943 1.54565e-17
5937.00273 1.53391e-17
5938.49601 1.52852e-17
5939.99931 1.54631e-17
5941.50261 1.55536e-17
5942.99589 1.55400e-17
5944.49919 1.56232e-17
5946.00249 1.54054e-17
5947.49577 1.51420e-17
5948.99907 1.52075e-17
5950.50237 1.54687e-17
5951.99565 1.55643e-17
5953.49895 1.53574e-17
5955.00225 1.52513e-17
5956.49552 1.53107e-17
5957.99882 1.53842e-17
5959.50212 1.54767e-17
5960.99540 1.53798e-17
5962.49870 1.52193e-17
5964.00200 1.53241e-17
5965.49528 1.53186e-17
5966.99858 1.51507e-17
5968.50188 1.50305e-17
5970.00518 1.51306e-17
5971.49846 1.52130e-17
5973.00176 1.53152e-17
5974.49504 1.50907e-17
5975.99834 1.52604e-17
5977.50164 1.53599e-17
5979.00494 1.52907e-17
5980.49821 1.50600e-17
5982.00151 1.49698e-17
5983.50481 1.51190e-17
5984.99809 1.49644e-17
5986.50139 1.50051e-17
5988.00469 1.52339e-17
5989.49797 1.50625e-17
5991.00127 1.50079e-17
5992.50457 1.49314e-17
5993.99785 1.49719e-17
5995.50115 1.47626e-17
5997.00445 1.49257e-17
5998.49773 1.49861e-17
6000.00103 1.47313e-17
6001.50433 1.47757e-17
6002.99760 1.48392e-17
6004.50090 1.47387e-17
6006.00420 1.47946e-17
6007.49748 1.45227e-17
6009.00078 1.46009e-17
6010.50408 1.48259e-17
6011.99736 1.46615e-17
6013.50066 1.45591e-17
6015.00396 1.45681e-17
6016.49724 1.45763e-17
6018.00054 1.46374e-17
6019.50384 1.44937e-17
6020.99712 1.42685e-17
6022.50042 1.43068e-17
6024.00372 1.42033e-17
6025.49699 1.39612e-17
6027.00029 1.40326e-17
6028.50359 1.39885e-17
6029.99687 1.39552e-17
6031.50017 1.39999e-17
6033.00347 1.39870e-17
6034.49675 1.38532e-17
6036.00005 1.37425e-17
6037.50335 1.36102e-17
6038.99663 1.33875e-17
6040.49993 1.33533e-17
6042.00323 1.35674e-17
6043.49651 1.33449e-17
6044.99981 1.32321e-17
6046.50311 1.33414e-17
6047.99638 1.32737e-17
6049.49968 1.32847e-17
6051.00298 1.32958e-17
6052.49626 1.33069e-17
6053.99956 1.33179e-17
6055.50286 1.33172e-17
6056.99614 1.34112e-17
6058.49944 1.33997e-17
6060.00274 1.30421e-17
6061.49602 1.31716e-17
6062.99932 1.33896e-17
6064.50262 1.33725e-17
6065.99590 1.33001e-17
6067.49920 1.31403e-17
6069.00250 1.32447e-17
6070.49577 1.33468e-17
6071.99907 1.35327e-17
6073.50237 1.33779e-17
6074.99565 1.33245e-17
6076.49895 1.36139e-17
6078.00225 1.35028e-17
6079.49553 1.34481e-17
6080.99883 1.35891e-17
6082.50213 1.37284e-17
6083.99541 1.38761e-17
6085.49871 1.38285e-17
6087.00201 1.37700e-17
6088.49529 1.37913e-17
6089.99859 1.37971e-17
6091.50189 1.39599e-17
6092.99516 1.39575e-17
6094.49846 1.39325e-17
6096.00176 1.40782e-17
6097.49504 1.41574e-17
6098.99834 1.40844e-17
6100.50164 1.40296e-17
6101.99492 1.42276e-17
6103.49822 1.43328e-17
6105.00152 1.43500e-17
6106.50482 1.43346e-17
6107.99810 1.42947e-17
6109.50140 1.43361e-17
6111.00470 1.44621e-17
6112.49798 1.45047e-17
6114.00128 1.45582e-17
6115.50458 1.47681e-17
6116.99785 1.47043e-17
6118.50115 1.44241e-17
6120.00445 1.42095e-17
6121.49773 1.42183e-17
6123.00103 1.43623e-17
6124.50433 1.46601e-17
6125.99761 1.48630e-17
6127.50091 1.45899e-17
6129.00421 1.45836e-17
6130.49749 1.47678e-17
6132.00079 1.47438e-17
6133.50409 1.46770e-17
6134.99737 1.47987e-17
6136.50067 1.48121e-17
6138.00397 1.49341e-17
6139.49724 1.48952e-17
6141.00054 1.46034e-17
6142.50384 1.48180e-17
6143.99712 1.51642e-17
6145.50042 1.48425e-17
6147.00372 1.45617e-17
6148.49700 1.47542e-17
6150.00030 1.48783e-17
6151.50360 1.52888e-17
6152.99688 1.51478e-17
6154.50018 1.49952e-17
6156.00348 1.51385e-17
6157.49676 1.52963e-17
6159.00006 1.54094e-17
6160.50336 1.53071e-17
6161.99663 1.53994e-17
6163.49993 1.55984e-17
6165.00323 1.56839e-17
6166.49651 1.56133e-17
6167.99981 1.54575e-17
6169.50311 1.55754e-17
6170.99639 1.56645e-17
6172.49969 1.57723e-17
6174.00299 1.57833e-17
6175.49627 1.58112e-17
6176.99957 1.59783e-17
6178.50287 1.60680e-17
6179.99615 1.61046e-17
6181.49945 1.61387e-17
6183.00275 1.62670e-17
6184.49602 1.65542e-17
6185.99932 1.67571e-17
6187.50262 1.66896e-17
6188.99590 1.65707e-17
6190.49920 1.64498e-17
6192.00250 1.66601e-17
6193.49578 1.69377e-17
6194.99908 1.67601e-17
6196.50238 1.68917e-17
6197.99566 1.70614e-17
6199.49896 1.68778e-17
6201.00226 1.67727e-17
6202.49554 1.68234e-17
6203.99884 1.68105e-17
6205.50214 1.68609e-17
6206.99541 1.71973e-17
6208.49871 1.73487e-17
6210.00201 1.72491e-17
6211.49529 1.71201e-17
6212.99859 1.69451e-17
6214.50189 1.68479e-17
6215.99517 1.70654e-17
6217.49847 1.70346e-17
6219.00177 1.72557e-17
6220.49505 1.73292e-17
6221.99835 1.71039e-17
6223.50165 1.70558e-17
6224.99493 1.69944e-17
6226.49823 1.71873e-17
6228.00153 1.74249e-17
6229.50483 1.68880e-17
6230.99810 1.69087e-17
6232.50140 1.70920e-17
6234.00470 1.68803e-17
6235.49798 1.69504e-17
6237.00128 1.67307e-17
6238.50458 1.66151e-17
6239.99786 1.67246e-17
6241.50116 1.65399e-17
6243.00446 1.63259e-17
6244.49774 1.63171e-17
6246.00104 1.65186e-17
6247.50434 1.65355e-17
6248.99762 1.65875e-17
6250.50092 1.67925e-17
6252.00422 1.67979e-17
6253.49749 1.68174e-17
6255.00079 1.66665e-17
6256.50409 1.64518e-17
6257.99737 1.64268e-17
6259.50067 1.64612e-17
6261.00397 1.64831e-17
6262.49725 1.65984e-17
6264.00055 1.64431e-17
6265.50385 1.63237e-17
6266.99713 1.62707e-17
6268.50043 1.59993e-17
6270.00373 1.60463e-17
6271.49701 1.61649e-17
6273.00031 1.59404e-17
6274.50361 1.60636e-17
6275.99688 1.63565e-17
6277.50018 1.60182e-17
6279.00348 1.60758e-17
6280.49676 1.60107e-17
6282.00006 1.57845e-17
6283.50336 1.56198e-17
6284.99664 1.56723e-17
6286.49994 1.57755e-17
6288.00324 1.58037e-17
6289.49652 1.60424e-17
6290.99982 1.60914e-17
6292.50312 1.59707e-17
6293.99640 1.57127e-17
6295.49970 1.57693e-17
6297.00300 1.56926e-17
6298.49627 1.55566e-17
6299.99957 1.56886e-17
6301.50287 1.57941e-17
6302.99615 1.58335e-17
6304.49945 1.54822e-17
6306.00275 1.53082e-17
6307.49603 1.54964e-17
6308.99933 1.55188e-17
6310.50263 1.55119e-17
6311.99591 1.56109e-17
6313.49921 1.56870e-17
6315.00251 1.57875e-17
6316.49579 1.58331e-17
6317.99909 1.56311e-17
6319.50239 1.54933e-17
6320.99566 1.55885e-17
6322.49896 1.57488e-17
6324.00226 1.58787e-17
6325.49554 1.58209e-17
6326.99884 1.57572e-17
6328.50214 1.55411e-17
6329.99542 1.54950e-17
6331.49872 1.57379e-17
6333.00202 1.59707e-17
6334.49530 1.59343e-17
6335.99860 1.56680e-17
6337.50190 1.56075e-17
6338.99518 1.57236e-17
6340.49848 1.54495e-17
6342.00178 1.51544e-17
6343.49505 1.51071e-17
6344.99835 1.51571e-17
6346.50165 1.53932e-17
6347.99493 1.53660e-17
6349.49823 1.54323e-17
6351.00153 1.51993e-17
6352.50483 1.51768e-17
6353.99811 1.50359e-17
6355.50141 1.50793e-17
6357.00471 1.51882e-17
6358.49799 1.53142e-17
6360.00129 1.52805e-17
6361.50459 1.51313e-17
6362.99787 1.47150e-17
6364.50117 1.46542e-17
6366.00447 1.47591e-17
6367.49774 1.48016e-17
6369.00104 1.46267e-17
6370.50434 1.46298e-17
6371.99762 1.46910e-17
6373.50092 1.46441e-17
6375.00422 1.47492e-17
6376.49750 1.47874e-17
6378.00080 1.47604e-17
6379.50410 1.48790e-17
6380.99738 1.52190e-17
6382.50068 1.49934e-17
6384.00398 1.48831e-17
6385.49726 1.50112e-17
6387.00056 1.50717e-17
6388.50386 1.53710e-17
6389.99713 1.53952e-17
6391.50043 1.50679e-17
6393.00373 1.50211e-17
6394.49701 1.51507e-17
6396.00031 1.52528e-17
6397.50361 1.54569e-17
6398.99689 1.54627e-17
6400.50019 1.51412e-17
6402.00349 1.51918e-17
6403.49677 1.51303e-17
6405.00007 1.51017e-17
6406.50337 1.53015e-17
6407.99665 1.52225e-17
6409.49995 1.51560e-17
6411.00325 1.52793e-17
6412.49652 1.54749e-17
6413.99982 1.54361e-17
6415.50312 1.54795e-17
6416.99640 1.55051e-17
6418.49970 1.54325e-17
6420.00300 1.56594e-17
6421.49628 1.55271e-17
6422.99958 1.57135e-17
6424.50288 1.59914e-17
6425.99616 1.58902e-17
6427.49946 1.56922e-17
6429.00276 1.58524e-17
6430.49604 1.56685e-17
6431.99934 1.55853e-17
6433.50264 1.55753e-17
6434.99591 1.55421e-17
6436.49921 1.55219e-17
6438.00251 1.54820e-17
6439.49579 1.54832e-17
6440.99909 1.53756e-17
6442.50239 1.53378e-17
6443.99567 1.52783e-17
6445.49897 1.52149e-17
6447.00227 1.52859e-17
6448.49555 1.52979e-17
6449.99885 1.54627e-17
6451.50215 1.55173e-17
6452.99543 1.54871e-17
6454.49873 1.54679e-17
6456.00203 1.54225e-17
6457.49530 1.54134e-17
6458.99860 1.53279e-17
6460.50190 1.52306e-17
6461.99518 1.52595e-17
6463.49848 1.54263e-17
6465.00178 1.55733e-17
6466.49506 1.53751e-17
6467.99836 1.52097e-17
6469.50166 1.54348e-17
6470.99494 1.54518e-17
6472.49824 1.53333e-17
6474.00154 1.51994e-17
6475.50484 1.51733e-17
6476.99812 1.50789e-17
6478.50142 1.50020e-17
6480.00472 1.49873e-17
6481.49799 1.50108e-17
6483.00129 1.51339e-17
6484.50459 1.50894e-17
6485.99787 1.49058e-17
6487.50117 1.48006e-17
6489.00447 1.49197e-17
6490.49775 1.48762e-17
6492.00105 1.47790e-17
6493.50435 1.49631e-17
6494.99763 1.47780e-17
6496.50093 1.47479e-17
6498.00423 1.51396e-17
6499.49751 1.51997e-17
6501.00081 1.51252e-17
6502.50411 1.50001e-17
6503.99738 1.49617e-17
6505.50068 1.51182e-17
6507.00398 1.50326e-17
6508.49726 1.46594e-17
6510.00056 1.46843e-17
6511.50386 1.47940e-17
6512.99714 1.45989e-17
6514.50044 1.46126e-17
6516.00374 1.46399e-17
6517.49702 1.45891e-17
6519.00032 1.46806e-17
6520.50362 1.47702e-17
6521.99690 1.50043e-17
6523.50020 1.52927e-17
6525.00350 1.51806e-17
6526.49677 1.49521e-17
6528.00007 1.48220e-17
6529.50337 1.49363e-17
6530.99665 1.51059e-17
6532.49995 1.50690e-17
6534.00325 1.49990e-17
6535.49653 1.52048e-17
6536.99983 1.52399e-17
6538.50313 1.50798e-17
6539.99641 1.50148e-17
6541.49971 1.51045e-17
6543.00301 1.52492e-17
6544.49629 1.51490e-17
6545.99959 1.50164e-17
6547.50289 1.49920e-17
6548.99616 1.48058e-17
6550.49946 1.51709e-17
6552.00276 1.50197e-17
6553.49604 1.50405e-17
6554.99934 1.52100e-17
6556.50264 1.48137e-17
6557.99592 1.46720e-17
6559.49922 1.50379e-17
6561.00252 1.53264e-17
6562.49580 1.49692e-17
6563.99910 1.52676e-17
6565.50240 1.46196e-17
6566.99568 1.48308e-17
6568.49898 1.46916e-17
6570.00228 1.43156e-17
6571.49555 1.45889e-17
6572.99885 1.45248e-17
6574.50215 1.49027e-17
6575.99543 1.49120e-17
6577.49873 1.47738e-17
6579.00203 1.46986e-17
6580.49531 1.46118e-17
6581.99861 1.43786e-17
6583.50191 1.43330e-17
6584.99519 1.42944e-17
6586.49849 1.43261e-17
6588.00179 1.43607e-17
6589.49507 1.41777e-17
6590.99837 1.40433e-17
6592.50167 1.41672e-17
6593.99494 1.42980e-17
6595.49824 1.43133e-17
6597.00154 1.43286e-17
6598.50484 1.42039e-17
6599.99812 1.42619e-17
6601.50142 1.43220e-17
6603.00472 1.44666e-17
6604.49800 1.43313e-17
6606.00130 1.40159e-17
6607.50460 1.39312e-17
6608.99788 1.41382e-17
6610.50118 1.42397e-17
6612.00448 1.41247e-17
6613.49776 1.39777e-17
6615.00106 1.41220e-17
6616.50436 1.39081e-17
6617.99763 1.37160e-17
6619.50093 1.38087e-17
6621.00423 1.37893e-17
6622.49751 1.35826e-17
6624.00081 1.36257e-17
6625.50411 1.37609e-17
6626.99739 1.34164e-17
6628.50069 1.35253e-17
6630.00399 1.36126e-17
6631.49727 1.36639e-17
6633.00057 1.37017e-17
6634.50387 1.37018e-17
6635.99715 1.36533e-17
6637.50045 1.37091e-17
6639.00375 1.38415e-17
6640.49702 1.36106e-17
6642.00032 1.35899e-17
6643.50362 1.37350e-17
6644.99690 1.35623e-17
6646.50020 1.33847e-17
6648.00350 1.34549e-17
6649.49678 1.35278e-17
6651.00008 1.35485e-17
6652.50338 1.36859e-17
6653.99666 1.37932e-17
6655.49996 1.34722e-17
6657.00326 1.36750e-17
6658.49654 1.35874e-17
6659.99984 1.33188e-17
6661.50314 1.33272e-17
6662.99641 1.33017e-17
6664.49971 1.33653e-17
6666.00301 1.33416e-17
6667.49629 1.31319e-17
6668.99959 1.30666e-17
6670.50289 1.31761e-17
6671.99617 1.30807e-17
6673.49947 1.31600e-17
6675.00277 1.31460e-17
6676.49605 1.32243e-17
6677.99935 1.33531e-17
6679.50265 1.32202e-17
6680.99593 1.31779e-17
6682.49923 1.32288e-17
6684.00253 1.32524e-17
6685.49580 1.29875e-17
6686.99910 1.27668e-17
6688.50240 1.28394e-17
6689.99568 1.28924e-17
6691.49898 1.28067e-17
6693.00228 1.25685e-17
6694.49556 1.24500e-17
6695.99886 1.26053e-17
6697.50216 1.27774e-17
6698.99544 1.29022e-17
6700.49874 1.27826e-17
6702.00204 1.25912e-17
6703.49532 1.26321e-17
6704.99862 1.25123e-17
6706.50192 1.24662e-17
6707.99519 1.25459e-17
6709.49849 1.24125e-17
6711.00179 1.22489e-17
6712.49507 1.23133e-17
6713.99837 1.24042e-17
6715.50167 1.24167e-17
6716.99495 1.23188e-17
6718.49825 1.21265e-17
6720.00155 1.19715e-17
6721.50485 1.21210e-17
6722.99813 1.23547e-17
6724.50143 1.23036e-17
6726.00473 1.22303e-17
6727.49801 1.21417e-17
6729.00131 1.23703e-17
6730.50461 1.24909e-17
6731.99788 1.21435e-17
6733.50118 1.19624e-17
6735.00448 1.20555e-17
6736.49776 1.20744e-17
6738.00106 1.19919e-17
6739.50436 1.20002e-17
6740.99764 1.20054e-17
6742.50094 1.19696e-17
6744.00424 1.18390e-17
6745.49752 1.17596e-17
6747.00082 1.19592e-17
6748.50412 1.20874e-17
6749.99740 1.19317e-17
6751.50070 1.19901e-17
6753.00400 1.19820e-17
6754.49727 1.18606e-17
6756.00057 1.18811e-17
6757.50387 1.18160e-17
6758.99715 1.18568e-17
6760.50045 1.19129e-17
6762.00375 1.18979e-17
6763.49703 1.18101e-17
6765.00033 1.16445e-17
6766.50363 1.18044e-17
6767.99691 1.20597e-17
6769.50021 1.18372e-17
6771.00351 1.17098e-17
6772.49679 1.18701e-17
6774.00009 1.19429e-17
6775.50339 1.15744e-17
6776.99666 1.15359e-17
6778.49996 1.16586e-17
6780.00326 1.13668e-17
6781.49654 1.17395e-17
6782.99984 1.16450e-17
6784.50314 1.14381e-17
6785.99642 1.13977e-17
6787.49972 1.15394e-17
6789.00302 1.15313e-17
6790.49630 1.13948e-17
6791.99960 1.12734e-17
6793.50290 1.13523e-17
6794.99618 1.13885e-17
6796.49948 1.12651e-17
6798.00278 1.12211e-17
6799.49605 1.14593e-17
6800.99935 1.12033e-17
6802.50265 1.11790e-17
6803.99593 1.12537e-17
6805.49923 1.10691e-17
6807.00253 1.10147e-17
6808.49581 1.09694e-17
6809.99911 1.10358e-17
6811.50241 1.11749e-17
6812.99569 1.11799e-17
6814.49899 1.12241e-17
6816.00229 1.12680e-17
6817.49557 1.11325e-17
6818.99887 1.10901e-17
6820.50217 1.10003e-17
6821.99544 1.05808e-17
6823.49874 1.08776e-17
6825.00204 1.11533e-17
6826.49532 1.06802e-17
6827.99862 1.05552e-17
6829.50192 1.06095e-17
6830.99520 1.05607e-17
6832.49850 1.07004e-17
6834.00180 1.08896e-17
6835.49508 1.10130e-17
6836.99838 1.08592e-17
6838.50168 1.06899e-17
6839.99496 1.07928e-17
6841.49826 1.08184e-17
6843.00156 1.06362e-17
6844.50486 1.07753e-17
6845.99813 1.07934e-17
6847.50143 1.08115e-17
6849.00473 1.08296e-17
6850.49801 1.08478e-17
6852.00131 1.08659e-17
6853.50461 1.08840e-17
6854.99789 1.09021e-17
6856.50119 1.09202e-17
6858.00449 1.09383e-17
6859.49777 1.09564e-17
6861.00107 1.09745e-17
6862.50437 1.09926e-17
6863.99765 1.10107e-17
6865.50095 1.10288e-17
6867.00425 1.10469e-17
6868.49752 1.10650e-17
6870.00082 1.10831e-17
6871.50412 1.11012e-17
6872.99740 1.11192e-17
6874.50070 1.11373e-17
6876.00400 1.11554e-17
6877.49728 1.11735e-17
6879.00058 1.11916e-17
6880.50388 1.12097e-17
6881.99716 1.12277e-17
6883.50046 1.12458e-17
6885.00376 1.12639e-17
6886.49704 1.12820e-17
6888.00034 1.13000e-17
6889.50364 1.13181e-17
6890.99691 1.13362e-17
6892.50021 1.13542e-17
6894.00351 1.13723e-17
6895.49679 1.13904e-17
6897.00009 1.14084e-17
6898.50339 1.14265e-17
6899.99667 1.14446e-17
6901.49997 1.14626e-17
6903.00327 1.14807e-17
6904.49655 1.14987e-17
6905.99985 1.15168e-17
6907.50315 1.15348e-17
6908.99643 1.15529e-17
6910.49973 1.15709e-17
6912.00303 1.15890e-17
6913.49630 1.16070e-17
6914.99960 1.16251e-17
6916.50290 1.16431e-17
6917.99618 1.16611e-17
6919.49948 1.16792e-17
6921.00278 1.16972e-17
6922.49606 1.17153e-17
6923.99936 1.17333e-17
6925.50266 1.17513e-17
6926.99594 1.17694e-17
6928.49924 1.17874e-17
6930.00254 1.18054e-17
6931.49582 1.18234e-17
6932.99912 1.18415e-17
6934.50242 1.18595e-17
6935.99569 1.18775e-17
6937.49899 1.16187e-17
6939.00229 1.15936e-17
6940.49557 1.16862e-17
6941.99887 1.14027e-17
6943.50217 1.12354e-17
6944.99545 1.13650e-17
6946.49875 1.13720e-17
6948.00205 1.13897e-17
6949.49533 1.14927e-17
6950.99863 1.12297e-17
6952.50193 1.10376e-17
6953.99521 1.10245e-17
6955.49851 1.10053e-17
6957.00181 1.12794e-17
6958.50511 1.14029e-17
6959.99838 1.12435e-17
6961.50168 1.13022e-17
6962.99496 1.13112e-17
6964.49826 1.14115e-17
6966.00156 1.15289e-17
6967.50486 1.14199e-17
6968.99814 1.13991e-17
6970.50144 1.13967e-17
6972.00474 1.13500e-17
6973.49802 1.13323e-17
6975.00132 1.14044e-17
6976.50462 1.13242e-17
6977.99790 1.12172e-17
6979.50120 1.12581e-17
6981.00450 1.12368e-17
6982.49777 1.12288e-17
6984.00107 1.12997e-17
6985.50437 1.15124e-17
6986.99765 1.13460e-17
6988.50095 1.13136e-17
6990.00425 1.12992e-17
6991.49753 1.11052e-17
6993.00083 1.10331e-17
6994.50413 1.14544e-17
6995.99741 1.13678e-17
6997.50071 1.12117e-17
6999.00401 1.14456e-17
7000.49729 1.11207e-17
7002.00059 1.11025e-17
7003.50389 1.11814e-17
7004.99716 1.10145e-17
7006.50046 1.11237e-17
7008.00376 1.12199e-17
7009.49704 1.13777e-17
7011.00034 1.11607e-17
7012.50364 1.11108e-17
7013.99692 1.12215e-17
7015.50022 1.12721e-17
7017.00352 1.11531e-17
7018.49680 1.12049e-17
7020.00010 1.14057e-17
7021.50340 1.13959e-17
7022.99668 1.13900e-17
7024.49998 1.12507e-17
7026.00328 1.13855e-17
7027.49655 1.12584e-17
7028.99985 1.10108e-17
7030.50315 1.10024e-17
7031.99643 1.10128e-17
7033.49973 1.10735e-17
7035.00303 1.10870e-17
7036.49631 1.10541e-17
7037.99961 1.11542e-17
7039.50291 1.12575e-17
7040.99619 1.12840e-17
7042.49949 1.14109e-17
7044.00279 1.15348e-17
7045.49607 1.15499e-17
7046.99937 1.14063e-17
7048.50267 1.13081e-17
7049.99594 1.14565e-17
7051.49924 1.16387e-17
7053.00254 1.14167e-17
7054.49582 1.13746e-17
7055.99912 1.13711e-17
7057.50242 1.14185e-17
7058.99570 1.15022e-17
7060.49900 1.10987e-17
7062.00230 1.11603e-17
7063.49558 1.14383e-17
7064.99888 1.13173e-17
7066.50218 1.16137e-17
7067.99546 1.17278e-17
7069.49876 1.15890e-17
7071.00206 1.15878e-17
7072.49533 1.13997e-17
7073.99863 1.15089e-17
7075.50193 1.13577e-17
7076.99521 1.15259e-17
7078.49851 1.12738e-17
7080.00181 1.12263e-17
7081.50511 1.14145e-17
7082.99839 1.14292e-17
7084.50169 1.15535e-17
7085.99497 1.16639e-17
7087.49827 1.16796e-17
7089.00157 1.17205e-17
7090.50487 1.15860e-17
7091.99815 1.13399e-17
7093.50145 1.12554e-17
7095.00475 1.12084e-17
7096.49802 1.14514e-17
7098.00132 1.15097e-17
7099.50462 1.13162e-17
7100.99790 1.15149e-17
7102.50120 1.17169e-17
7104.00450 1.17283e-17
7105.49778 1.15958e-17
7107.00108 1.17817e-17
7108.50438 1.17328e-17
7109.99766 1.15523e-17
7111.50096 1.15144e-17
7113.00426 1.14482e-17
7114.49754 1.14683e-17
7116.00084 1.15181e-17
7117.50414 1.15270e-17
7118.99741 1.17212e-17
7120.50071 1.17733e-17
7122.00401 1.19186e-17
7123.49729 1.19024e-17
7125.00059 1.17376e-17
7126.50389 1.17429e-17
7127.99717 1.18310e-17
7129.50047 1.17691e-17
7131.00377 1.15516e-17
7132.49705 1.16210e-17
7134.00035 1.22341e-17
7135.50365 1.20408e-17
7136.99693 1.17075e-17
7138.50023 1.22413e-17
7140.00353 1.17716e-17
7141.49680 1.17908e-17
7143.00010 1.15485e-17
7144.50340 1.20797e-17
7145.99668 1.21117e-17
7147.49998 1.18776e-17
7149.00328 1.17482e-17
7150.49656 1.16909e-17
7151.99986 1.17930e-17
7153.50316 1.19467e-17
7154.99644 1.21022e-17
7156.49974 1.20960e-17
7158.00304 1.22070e-17
7159.49632 1.22516e-17
7160.99962 1.21440e-17
7162.50292 1.23658e-17
7163.99619 1.22461e-17
7165.49949 1.20646e-17
7167.00279 1.17814e-17
7168.49607 1.17276e-17
7169.99937 1.18819e-17
7171.50267 1.18931e-17
7172.99595 1.17783e-17
7174.49925 1.18694e-17
7176.00255 1.18629e-17
7177.49583 1.19069e-17
7178.99913 1.19509e-17
7180.50243 1.19949e-17
7181.99571 1.20389e-17
7183.49901 1.20383e-17
7185.00231 1.20300e-17
7186.49558 1.20445e-17
7187.99888 1.20875e-17
7189.50218 1.25649e-17
7190.99546 1.24945e-17
7192.49876 1.20192e-17
7194.00206 1.18675e-17
7195.49534 1.21504e-17
7196.99864 1.20901e-17
7198.50194 1.21120e-17
7199.99522 1.26440e-17
7201.49852 1.27759e-17
7203.00182 1.24566e-17
7204.50512 1.24658e-17
7205.99840 1.27582e-17
7207.50170 1.30538e-17
7208.99497 1.31575e-17
7210.49827 1.27606e-17
7212.00157 1.28897e-17
7213.50487 1.29134e-17
7214.99815 1.29238e-17
7216.50145 1.29210e-17
7218.00475 1.30311e-17
7219.49803 1.29383e-17
7221.00133 1.31854e-17
7222.50463 1.29196e-17
7223.99791 1.26369e-17
7225.50121 1.27639e-17
7227.00451 1.31113e-17
7228.49779 1.31450e-17
7230.00109 1.26543e-17
7231.50439 1.26285e-17
7232.99766 1.28237e-17
7234.50096 1.29159e-17
7236.00426 1.28420e-17
7237.49754 1.27959e-17
7239.00084 1.30079e-17
7240.50414 1.28032e-17
7241.99742 1.23799e-17
7243.50072 1.23712e-17
7245.00402 1.26574e-17
7246.49730 1.26968e-17
7248.00060 1.25193e-17
7249.50390 1.25159e-17
7250.99718 1.28180e-17
7252.50048 1.28077e-17
7254.00378 1.24328e-17
7255.49705 1.25500e-17
7257.00035 1.28867e-17
7258.50365 1.27150e-17
7259.99693 1.24892e-17
7261.50023 1.29441e-17
7263.00353 1.33829e-17
7264.49681 1.32354e-17
7266.00011 1.31804e-17
7267.50341 1.32721e-17
7268.99669 1.29470e-17
7270.49999 1.26256e-17
7272.00329 1.27688e-17
7273.49657 1.29551e-17
7274.99987 1.27979e-17
7276.50317 1.25881e-17
7277.99644 1.26848e-17
7279.49974 1.29527e-17
7281.00304 1.26952e-17
7282.49632 1.24330e-17
7283.99962 1.23979e-17
7285.50292 1.26454e-17
7286.99620 1.24376e-17
7288.49950 1.23353e-17
7290.00280 1.25327e-17
7291.49608 1.24805e-17
7292.99938 1.26929e-17
7294.50268 1.28591e-17
7295.99596 1.27964e-17
7297.49926 1.26472e-17
7299.00256 1.25489e-17
7300.49583 1.25055e-17
7301.99913 1.23871e-17
7303.50243 1.21895e-17
7304.99571 1.21394e-17
7306.49901 1.21747e-17
7308.00231 1.20533e-17
7309.49559 1.20940e-17
7310.99889 1.25434e-17
7312.50219 1.23955e-17
7313.99547 1.20624e-17
7315.49877 1.19160e-17
7317.00207 1.19786e-17
7318.49535 1.22440e-17
7319.99865 1.25118e-17
7321.50195 1.24354e-17
7322.99522 1.21380e-17
7324.49852 1.19931e-17
7326.00182 1.21221e-17
7327.50512 1.21941e-17
7328.99840 1.20767e-17
7330.50170 1.21150e-17
7331.99498 1.18954e-17
7333.49828 1.16717e-17
7335.00158 1.19495e-17
7336.50488 1.18580e-17
7337.99816 1.18000e-17
7339.50146 1.15858e-17
7341.00476 1.15213e-17
7342.49804 1.15507e-17
7344.00134 1.13524e-17
7345.50464 1.12317e-17
7346.99791 1.14312e-17
7348.50121 1.16309e-17
7350.00451 1.14749e-17
7351.49779 1.12939e-17
7353.00109 1.11459e-17
7354.50439 1.12687e-17
7355.99767 1.17861e-17
7357.50097 1.11039e-17
7359.00427 1.09457e-17
7360.49755 1.11820e-17
7362.00085 1.11793e-17
7363.50415 1.11925e-17
7364.99743 1.09363e-17
7366.50073 1.07975e-17
7368.00403 1.07677e-17
7369.49730 1.10108e-17
7371.00060 1.08080e-17
7372.50390 1.07505e-17
7373.99718 1.09210e-17
7375.50048 1.08564e-17
7377.00378 1.05212e-17
7378.49706 1.04003e-17
7380.00036 1.04787e-17
7381.50366 1.03794e-17
7382.99694 1.03978e-17
7384.50024 1.05119e-17
7386.00354 1.05147e-17
7387.49682 1.04058e-17
7389.00012 1.02607e-17
7390.50342 1.02422e-17
7391.99669 1.01364e-17
7393.49999 1.01260e-17
7395.00329 1.01305e-17
7396.49657 1.00146e-17
7397.99987 1.00016e-17
7399.50317 1.01328e-17
7400.99645 1.01048e-17
7402.49975 9.97544e-18
7404.00305 9.82714e-18
7405.49633 9.67274e-18
7406.99963 9.52886e-18
7408.50293 9.42253e-18
7409.99621 9.07385e-18
7411.49951 9.01510e-18
7413.00281 9.25459e-18
7414.49608 9.19203e-18
7415.99938 9.08677e-18
7417.50268 9.04385e-18
7418.99596 8.92383e-18
7420.49926 8.89050e-18
7422.00256 8.75483e-18
7423.49584 8.59790e-18
7424.99914 8.58231e-18
7426.50244 8.49567e-18
7427.99572 8.31766e-18
7429.49902 8.39437e-18
7431.00232 8.30301e-18
7432.49560 8.32755e-18
7433.99890 8.48497e-18
7435.50220 8.28807e-18
7436.99547 8.28212e-18
7438.49877 8.14971e-18
7440.00207 7.96613e-18
7441.49535 7.97234e-18
7442.99865 7.89035e-18
7444.50195 7.78518e-18
7445.99523 7.85369e-18
7447.49853 7.73232e-18
7449.00183 7.63867e-18
7450.50513 7.66066e-18
7451.99841 7.72012e-18
7453.50171 7.59824e-18
7454.99499 7.55663e-18
7456.49829 7.59198e-18
7458.00159 7.39271e-18
7459.49486 7.15978e-18
7460.99816 7.12888e-18
7462.50146 7.19473e-18
7464.00476 7.31861e-18
7465.49804 7.30816e-18
7467.00134 7.19316e-18
7468.50464 7.37088e-18
7469.99792 7.44646e-18
7471.50122 7.06356e-18
7473.00452 6.77760e-18
7474.49780 6.66345e-18
7476.00110 6.65711e-18
7477.50440 6.49089e-18
7478.99768 6.52524e-18
7480.50098 6.76549e-18
7482.00428 6.93024e-18
7483.49755 6.94363e-18
7485.00085 6.68508e-18
7486.50415 6.51951e-18
7487.99743 6.49862e-18
7489.50073 6.54927e-18
7491.00403 6.44113e-18
7492.49731 6.58242e-18
7494.00061 6.48701e-18
7495.50391 6.52042e-18
7496.99719 6.58668e-18
7498.50049 6.26049e-18
7500.00379 6.10015e-18
7501.49707 6.17028e-18
7503.00037 6.15929e-18
7504.50367 6.14080e-18
7505.99694 6.24993e-18
7507.50024 5.98732e-18
7509.00354 6.11987e-18
7510.49682 6.24652e-18
7512.00012 6.13695e-18
7513.50342 6.07163e-18
7514.99670 5.85912e-18
7516.50000 5.68939e-18
7518.00330 5.86678e-18
7519.49658 6.02091e-18
7520.99988 5.80678e-18
7522.50318 5.71086e-18
7523.99646 5.55148e-18
7525.49976 5.69570e-18
7527.00306 5.82377e-18
7528.49633 5.62608e-18
7529.99963 5.39792e-18
7531.50293 5.27371e-18
7532.99621 5.27547e-18
7534.49951 5.37157e-18
7536.00281 5.39245e-18
7537.49609 5.14320e-18
7538.99939 5.04590e-18
7540.50269 5.16041e-18
