# wavelength flux
3988.99653 4.80265e-19
3989.99873 5.12267e-19
3991.00093 5.60500e-19
3992.00313 6.26352e-19
3992.99531 7.03480e-19
3993.99751 7.87185e-19
3994.99971 8.68111e-19
3996.00191 9.45277e-19
3997.00411 1.01886e-18
3997.99628 1.08797e-18
3998.99848 1.15198e-18
4000.00068 1.21270e-18
4001.00288 1.27202e-18
4001.99506 1.33345e-18
4002.99726 1.39997e-18
4003.99946 1.46592e-18
4005.00166 1.52840e-18
4006.00386 1.58098e-18
4006.99604 1.62361e-18
4007.99824 1.66268e-18
4009.00044 1.70211e-18
4010.00264 1.74975e-18
4011.00484 1.80385e-18
4011.99702 1.86157e-18
4012.99922 1.92075e-18
4014.00142 1.97779e-18
4015.00362 2.03398e-18
4015.99580 2.08967e-18
4016.99800 2.14496e-18
4018.00020 2.20018e-18
4019.00240 2.25618e-18
4020.00460 2.31364e-18
4020.99677 2.37416e-18
4021.99897 2.43739e-18
4023.00117 2.50131e-18
4024.00337 2.56455e-18
4024.99555 2.62458e-18
4025.99775 2.68203e-18
4026.99995 2.73783e-18
4028.00215 2.79273e-18
4029.00435 2.84797e-18
4029.99653 2.90308e-18
4030.99873 2.95803e-18
4032.00093 3.01264e-18
4033.00313 3.06687e-18
4033.99531 3.12167e-18
4034.99751 3.17755e-18
4035.99971 3.23562e-18
4037.00191 3.29561e-18
4038.00411 3.35620e-18
4038.99629 3.41651e-18
4039.99849 3.47493e-18
4041.00069 3.53196e-18
4042.00289 3.58821e-18
4042.99506 3.64416e-18
4043.99726 3.70039e-18
4044.99946 3.75748e-18
4046.00166 3.81597e-18
4047.00386 3.87673e-18
4047.99604 3.94019e-18
4048.99824 4.00487e-18
4050.00044 4.06992e-18
4051.00264 4.13361e-18
4052.00484 4.19590e-18
4052.99702 4.25790e-18
4053.99922 4.32015e-18
4055.00142 4.38403e-18
4056.00362 4.44862e-18
4056.99580 4.51301e-18
4057.99800 4.57636e-18
4059.00020 4.63752e-18
4060.00240 4.69763e-18
4061.00460 4.75734e-18
4061.99678 4.81755e-18
4062.99898 4.87889e-18
4064.00118 4.94078e-18
4065.00338 5.00303e-18
4065.99555 5.06531e-18
4066.99775 5.12745e-18
4067.99995 5.18942e-18
4069.00215 5.25112e-18
4070.00435 5.31239e-18
4070.99653 5.37322e-18
4071.99873 5.43364e-18
4073.00093 5.49365e-18
4074.00313 5.55326e-18
4074.99531 5.61257e-18
4075.99751 5.67168e-18
4076.99971 5.73075e-18
4078.00191 5.78986e-18
4079.00411 5.84846e-18
4079.99629 5.90629e-18
4080.99849 5.96266e-18
4082.00069 6.01783e-18
4083.00289 6.07259e-18
4083.99507 6.12745e-18
4084.99727 6.18341e-18
4085.99947 6.23993e-18
4087.00167 6.29646e-18
4088.00387 6.35254e-18
4088.99604 6.40755e-18
4089.99824 6.46171e-18
4091.00044 6.51507e-18
4092.00264 6.56760e-18
4093.00484 6.61942e-18
4093.99702 6.67101e-18
4094.99922 6.72268e-18
4096.00142 6.77518e-18
4097.00362 6.82824e-18
4097.99580 6.88117e-18
4098.99800 6.93346e-18
4100.00020 6.98413e-18
4101.00240 7.03395e-18
4102.00460 7.08362e-18
4102.99678 7.13385e-18
4103.99898 7.18553e-18
4105.00118 7.23782e-18
4106.00338 7.29030e-18
4106.99556 7.34233e-18
4107.99776 7.39355e-18
4108.99996 7.44461e-18
4110.00216 7.49576e-18
4111.00436 7.54756e-18
4111.99653 7.59985e-18
4112.99873 7.65216e-18
4114.00093 7.70416e-18
4115.00313 7.75528e-18
4115.99531 7.80589e-18
4116.99751 7.85630e-18
4117.99971 7.90684e-18
4119.00191 7.95791e-18
4120.00411 8.00906e-18
4120.99629 8.06007e-18
4121.99849 8.11058e-18
4123.00069 8.16045e-18
4124.00289 8.21004e-18
4124.99507 8.25948e-18
4125.99727 8.30914e-18
4126.99947 8.35891e-18
4128.00167 8.40858e-18
4129.00387 8.45797e-18
4129.99605 8.50679e-18
4130.99825 8.55527e-18
4132.00045 8.60360e-18
4133.00265 8.65201e-18
4134.00485 8.70078e-18
4134.99702 8.74943e-18
4135.99922 8.79770e-18
4137.00142 8.84510e-18
4138.00362 8.89155e-18
4138.99580 8.93786e-18
4139.99800 8.98448e-18
4141.00020 9.03237e-18
4142.00240 9.08118e-18
4143.00460 9.13010e-18
4143.99678 9.17857e-18
4144.99898 9.22551e-18
4146.00118 9.27172e-18
4147.00338 9.31785e-18
4147.99556 9.36455e-18
4148.99776 9.41259e-18
4149.99996 9.46120e-18
4151.00216 9.51003e-18
4152.00436 9.55850e-18
4152.99654 9.60638e-18
4153.99874 9.65430e-18
4155.00094 9.70251e-18
4156.00314 9.75164e-18
4156.99531 9.80143e-18
4157.99751 9.85136e-18
4158.99971 9.90107e-18
4160.00191 9.94984e-18
4161.00411 9.99835e-18
4161.99629 1.00471e-17
4162.99849 1.00968e-17
4164.00069 1.01479e-17
4165.00289 1.01997e-17
4165.99507 1.02517e-17
4166.99727 1.03043e-17
4167.99947 1.03573e-17
4169.00167 1.04082e-17
4170.00387 1.04565e-17
4170.99605 1.04936e-17
4171.99825 1.05315e-17
4173.00045 1.05874e-17
4174.00265 1.06745e-17
4174.99483 1.08189e-17
4175.99703 1.09895e-17
4176.99923 1.11611e-17
4178.00143 1.13063e-17
4179.00363 1.13961e-17
4179.99580 1.14578e-17
4180.99800 1.15031e-17
4182.00020 1.15511e-17
4183.00240 1.16113e-17
4184.00460 1.16745e-17
4184.99678 1.17400e-17
4185.99898 1.18039e-17
4187.00118 1.18668e-17
4188.00338 1.19300e-17
4188.99556 1.19934e-17
4189.99776 1.20572e-17
4190.99996 1.21214e-17
4192.00216 1.21860e-17
4193.00436 1.22511e-17
4193.99654 1.23166e-17
4194.99874 1.23825e-17
4196.00094 1.24487e-17
4197.00314 1.25154e-17
4197.99532 1.25824e-17
4198.99752 1.26497e-17
4199.99972 1.27176e-17
4201.00192 1.27858e-17
4202.00412 1.28547e-17
4202.99629 1.29242e-17
4203.99849 1.29944e-17
4205.00069 1.30657e-17
4206.00289 1.31377e-17
4206.99507 1.32103e-17
4207.99727 1.32833e-17
4208.99947 1.33566e-17
4210.00167 1.34301e-17
4211.00387 1.35037e-17
4211.99605 1.35775e-17
4212.99825 1.36512e-17
4214.00045 1.37251e-17
4215.00265 1.45743e-17
4216.00485 1.49034e-17
4216.99703 1.46566e-17
4217.99923 1.34217e-17
4219.00143 1.18264e-17
4220.00363 1.05905e-17
4220.99581 1.03085e-17
4221.99801 1.19664e-17
4223.00021 1.43283e-17
4224.00241 1.65622e-17
4225.00461 1.77251e-17
4225.99678 1.70319e-17
4226.99898 1.53968e-17
4228.00118 1.31970e-17
4229.00338 1.10323e-17
4229.99556 9.15595e-18
4230.99776 7.45604e-18
4231.99996 6.00538e-18
4233.00216 4.76396e-18
4234.00436 3.90945e-18
4234.99654 3.60147e-18
4235.99874 3.95265e-18
4237.00094 5.12546e-18
4238.00314 6.78832e-18
4238.99532 8.68612e-18
4239.99752 1.05429e-17
4240.99972 1.21056e-17
4242.00192 1.33193e-17
4243.00412 1.40846e-17
4243.99630 1.43621e-17
4244.99850 1.41062e-17
4246.00070 1.32852e-17
4247.00290 1.19247e-17
4247.99507 9.73379e-18
4248.99727 7.47724e-18
4249.99947 5.89572e-18
4251.00167 5.68805e-18
4252.00387 7.85790e-18
4252.99605 1.09452e-17
4253.99825 1.40391e-17
4255.00045 1.59344e-17
4256.00265 1.58346e-17
4257.00485 1.49626e-17
4257.99703 1.37907e-17
4258.99923 1.33447e-17
4260.00143 1.35304e-17
4261.00363 1.35729e-17
4261.99581 1.31049e-17
4262.99801 1.13382e-17
4264.00021 8.86749e-18
4265.00241 6.27833e-18
4266.00461 4.06006e-18
4266.99679 2.79513e-18
4267.99899 2.29311e-18
4269.00119 2.50446e-18
4270.00339 3.41915e-18
4270.99556 4.91880e-18
4271.99776 6.61794e-18
4272.99996 8.24575e-18
4274.00216 9.21143e-18
4275.00436 9.68738e-18
4275.99654 1.01925e-17
4276.99874 1.10331e-17
4278.00094 1.30052e-17
4279.00314 1.51980e-17
4279.99532 1.68340e-17
4280.99752 1.71772e-17
4281.99972 1.53537e-17
4283.00192 1.25485e-17
4284.00412 9.43603e-18
4284.99630 6.82812e-18
4285.99850 5.28434e-18
4287.00070 4.64215e-18
4288.00290 4.94194e-18
4288.99508 6.47178e-18
4289.99728 8.69934e-18
4290.99948 1.08146e-17
4292.00168 1.21758e-17
4293.00388 1.15213e-17
4293.99605 1.00226e-17
4294.99825 8.61741e-18
4296.00045 8.31180e-18
4297.00265 1.02724e-17
4297.99483 1.27406e-17
4298.99703 1.48396e-17
4299.99923 1.51544e-17
4301.00143 1.32658e-17
4302.00363 1.08410e-17
4302.99581 8.65516e-18
4303.99801 8.18003e-18
4305.00021 9.18326e-18
4306.00241 1.09236e-17
4307.00461 1.29889e-17
4307.99679 1.48890e-17
4308.99899 1.42414e-17
4310.00119 1.35939e-17
4311.00339 1.29467e-17
4311.99557 1.22997e-17
4312.99777 1.16528e-17
4313.99997 1.10062e-17
4315.00217 1.03599e-17
4316.00437 9.71386e-18
4316.99654 9.06823e-18
4317.99874 8.42302e-18
4319.00094 7.77825e-18
4320.00314 7.13394e-18
4320.99532 6.49014e-18
4321.99752 5.84683e-18
4322.99972 5.20401e-18
4324.00192 5.66690e-18
4325.00412 7.36483e-18
4325.99630 9.19284e-18
4326.99850 9.84392e-18
4328.00070 9.94804e-18
4329.00290 9.54481e-18
4330.00510 8.57367e-18
4330.99728 7.27830e-18
4331.99948 6.23476e-18
4333.00168 5.84366e-18
4334.00388 7.04074e-18
4334.99606 9.16748e-18
4335.99826 1.13514e-17
4337.00046 1.29086e-17
4338.00266 1.27634e-17
4339.00486 1.18303e-17
4339.99703 1.06842e-17
4340.99923 9.98285e-18
4342.00143 1.03030e-17
4343.00363 1.09953e-17
4343.99581 1.18275e-17
4344.99801 1.23550e-17
4346.00021 1.25221e-17
4347.00241 1.26696e-17
4348.00461 1.29236e-17
4348.99679 1.35709e-17
4349.99899 1.44210e-17
4351.00119 1.52386e-17
4352.00339 1.58624e-17
4352.99557 1.61460e-17
4353.99777 1.59217e-17
4354.99997 1.50807e-17
4356.00217 1.33963e-17
4357.00437 1.07979e-17
4357.99655 8.16035e-18
4358.99875 5.97895e-18
4360.00095 5.20086e-18
4361.00315 5.72564e-18
4361.99532 6.63913e-18
4362.99752 7.44009e-18
4363.99972 7.06462e-18
4365.00192 6.13336e-18
4366.00412 5.30100e-18
4366.99630 5.08580e-18
4367.99850 6.23927e-18
4369.00070 7.93813e-18
4370.00290 9.70820e-18
4370.99508 1.09980e-17
4371.99728 1.13966e-17
4372.99948 1.12209e-17
4374.00168 1.05549e-17
4375.00388 9.51941e-18
4375.99606 8.26846e-18
4376.99826 6.97146e-18
4378.00046 5.80084e-18
4379.00266 4.98117e-18
4380.00486 4.51490e-18
4380.99704 4.38404e-18
4381.99924 4.56631e-18
4383.00144 5.00690e-18
4384.00364 5.65715e-18
4384.99581 6.43610e-18
4385.99801 7.37611e-18
4387.00021 7.33912e-18
4388.00241 7.30230e-18
4389.00461 7.26563e-18
4389.99679 7.22912e-18
4390.99899 7.19274e-18
4392.00119 7.15650e-18
4393.00339 7.12039e-18
4393.99557 7.08440e-18
4394.99777 7.04854e-18
4395.99997 7.01281e-18
4397.00217 6.97719e-18
4398.00437 6.94168e-18
4398.99655 6.90629e-18
4399.99875 6.87101e-18
4401.00095 6.83582e-18
4402.00315 6.80073e-18
4402.99533 6.76573e-18
4403.99753 6.73082e-18
4404.99973 6.69600e-18
4406.00193 6.66128e-18
4407.00413 6.62668e-18
4407.99630 7.38694e-18
4408.99850 7.90869e-18
4410.00070 8.31933e-18
4411.00290 8.68343e-18
4411.99508 9.04398e-18
4412.99728 9.46777e-18
4413.99948 9.83729e-18
4415.00168 1.01024e-17
4416.00388 1.01869e-17
4416.99606 1.00802e-17
4417.99826 9.90284e-18
4419.00046 9.72087e-18
4420.00266 9.65822e-18
4420.99484 9.69744e-18
4421.99704 9.78107e-18
4422.99924 9.87643e-18
4424.00144 9.90009e-18
4425.00364 9.94991e-18
4425.99582 1.00929e-17
4426.99802 1.04051e-17
4428.00022 1.09625e-17
4429.00242 1.15765e-17
4430.00462 1.21430e-17
4430.99679 1.25063e-17
4431.99899 1.26204e-17
4433.00119 1.26206e-17
4434.00339 1.25696e-17
4434.99557 1.25352e-17
4435.99777 1.25788e-17
4436.99997 1.27469e-17
4438.00217 1.30917e-17
4439.00437 1.37648e-17
4439.99655 1.44322e-17
4440.99875 1.48489e-17
4442.00095 1.47213e-17
4443.00315 1.37920e-17
4443.99533 1.25696e-17
4444.99753 1.13227e-17
4445.99973 1.04548e-17
4447.00193 1.00984e-17
4448.00413 1.00222e-17
4448.99631 1.01395e-17
4449.99851 1.03510e-17
4451.00071 1.05270e-17
4452.00291 1.06038e-17
4453.00511 1.06807e-17
4453.99728 1.07578e-17
4454.99948 1.08351e-17
4456.00168 1.09126e-17
4457.00388 1.09902e-17
4457.99606 1.10681e-17
4458.99826 1.11462e-17
4460.00046 1.12245e-17
4461.00266 1.13030e-17
4462.00486 1.13817e-17
4462.99704 1.14607e-17
4463.99924 1.15399e-17
4465.00144 1.16193e-17
4466.00364 1.16989e-17
4466.99582 1.17788e-17
4467.99802 1.18588e-17
4469.00022 1.19391e-17
4470.00242 1.20195e-17
4471.00462 1.21001e-17
4471.99680 1.21809e-17
4472.99900 1.22620e-17
4474.00120 1.23432e-17
4475.00340 1.24246e-17
4475.99557 1.25062e-17
4476.99777 1.25881e-17
4477.99997 1.26701e-17
4479.00217 1.27524e-17
4480.00437 1.28349e-17
4480.99655 1.29175e-17
4481.99875 1.51048e-17
4483.00095 1.67170e-17
4484.00315 1.69229e-17
4484.99533 1.63857e-17
4485.99753 1.54600e-17
4486.99973 1.45821e-17
4488.00193 1.40914e-17
4489.00413 1.37157e-17
4489.99631 1.34112e-17
4490.99851 1.30383e-17
4492.00071 1.26169e-17
4493.00291 1.22430e-17
4493.99509 1.23016e-17
4494.99729 1.23605e-17
4495.99949 1.24195e-17
4497.00169 1.24789e-17
4498.00389 1.25384e-17
4498.99606 1.25982e-17
4499.99826 1.26582e-17
4501.00046 1.27182e-17
4502.00266 1.27784e-17
4503.00486 1.28388e-17
4503.99704 1.28993e-17
4504.99924 1.29599e-17
4506.00144 1.30208e-17
4507.00364 1.30817e-17
4507.99582 1.31428e-17
4508.99802 1.32040e-17
4510.00022 1.32653e-17
4511.00242 1.33268e-17
4512.00462 1.33884e-17
4512.99680 1.34501e-17
4513.99900 1.35120e-17
4515.00120 1.35741e-17
4516.00340 1.36363e-17
4516.99558 1.36986e-17
4517.99778 1.37610e-17
4518.99998 1.38236e-17
4520.00218 1.38863e-17
4521.00438 1.39492e-17
4521.99655 1.40122e-17
4522.99875 1.40753e-17
4524.00095 1.39880e-17
4525.00315 1.40778e-17
4525.99533 1.41679e-17
4526.99753 1.42581e-17
4527.99973 1.43485e-17
4529.00193 1.44391e-17
4530.00413 1.45299e-17
4530.99631 1.46208e-17
4531.99851 1.47119e-17
4533.00071 1.48032e-17
4534.00291 1.48945e-17
4534.99509 1.49860e-17
4535.99729 1.50777e-17
4536.99949 1.51694e-17
4538.00169 1.52614e-17
4539.00389 1.53535e-17
4539.99607 1.54458e-17
4540.99827 1.55383e-17
4542.00047 1.56309e-17
4543.00267 1.57237e-17
4543.99484 1.58167e-17
4544.99704 1.59099e-17
4545.99924 1.60033e-17
4547.00144 1.60968e-17
4548.00364 1.61904e-17
4548.99582 1.62843e-17
4549.99802 1.63783e-17
4551.00022 1.64724e-17
4552.00242 1.65667e-17
4553.00462 1.58525e-17
4553.99680 1.51836e-17
4554.99900 1.50552e-17
4556.00120 1.52110e-17
4557.00340 1.54992e-17
4557.99558 1.58111e-17
4558.99778 1.60296e-17
4559.99998 1.60457e-17
4561.00218 1.57795e-17
4562.00438 1.49757e-17
4562.99656 1.37492e-17
4563.99876 1.26842e-17
4565.00096 1.21168e-17
4566.00316 1.28003e-17
4566.99533 1.42635e-17
4567.99753 1.58533e-17
4568.99973 1.70646e-17
4570.00193 1.71141e-17
4571.00413 1.65674e-17
4571.99631 1.57733e-17
4572.99851 1.51179e-17
4574.00071 1.49601e-17
4575.00291 1.50035e-17
4576.00511 1.51692e-17
4576.99729 1.53188e-17
4577.99949 1.54036e-17
4579.00169 1.54774e-17
4580.00389 1.55403e-17
4580.99607 1.55505e-17
4581.99827 1.55901e-17
4583.00047 1.57397e-17
4584.00267 1.60790e-17
4585.00487 1.67775e-17
4585.99705 1.74705e-17
4586.99925 1.79140e-17
4588.00145 1.78113e-17
4589.00365 1.69591e-17
4589.99582 1.57569e-17
4590.99802 1.44213e-17
4592.00022 1.31802e-17
4593.00242 1.22542e-17
4594.00462 1.18305e-17
4594.99680 1.20656e-17
4595.99900 1.34077e-17
4597.00120 1.52662e-17
4598.00340 1.70175e-17
4598.99558 1.80859e-17
4599.99778 1.76616e-17
4600.99998 1.65823e-17
4602.00218 1.53416e-17
4603.00438 1.45621e-17
4603.99656 1.46969e-17
4604.99876 1.52374e-17
4606.00096 1.60085e-17
4607.00316 1.67348e-17
4607.99534 1.72882e-17
4608.99754 1.76496e-17
4609.99974 1.77508e-17
4611.00194 1.74458e-17
4612.00414 1.69330e-17
4612.99631 1.64176e-17
4613.99851 1.60828e-17
4615.00071 1.61326e-17
4616.00291 1.65178e-17
4616.99509 1.72117e-17
4617.99729 1.82675e-17
4618.99949 1.96083e-17
4620.00169 2.07265e-17
4621.00389 2.13202e-17
4621.99607 2.07793e-17
4622.99827 1.93053e-17
4624.00047 1.75182e-17
4625.00267 1.58269e-17
4626.00487 1.48553e-17
4626.99705 1.45186e-17
4627.99925 1.47268e-17
4629.00145 1.54460e-17
4630.00365 1.66271e-17
4630.99583 1.79159e-17
4631.99803 1.90358e-17
4633.00023 1.96130e-17
4634.00243 1.94581e-17
4635.00463 1.88762e-17
4635.99680 1.80106e-17
4636.99900 1.70656e-17
4638.00120 1.61772e-17
4639.00340 1.54451e-17
4639.99558 1.49842e-17
4640.99778 1.49780e-17
4641.99998 1.52557e-17
4643.00218 1.56580e-17
4644.00438 1.60275e-17
4644.99656 1.61906e-17
4645.99876 1.61658e-17
4647.00096 1.59333e-17
4648.00316 1.54715e-17
4648.99534 1.48025e-17
4649.99754 1.40176e-17
4650.99974 1.31988e-17
4652.00194 1.23881e-17
4653.00414 1.17350e-17
4653.99632 1.14037e-17
4654.99852 1.15275e-17
4656.00072 1.23595e-17
4657.00292 1.35640e-17
4657.99509 1.48633e-17
4658.99729 1.59566e-17
4659.99949 1.65293e-17
4661.00169 1.68476e-17
4662.00389 1.70091e-17
4662.99607 1.72216e-17
4663.99827 1.75280e-17
4665.00047 1.76765e-17
4666.00267 1.75728e-17
4666.99485 1.69234e-17
4667.99705 1.59785e-17
4668.99925 1.50962e-17
4670.00145 1.45462e-17
4671.00365 1.47820e-17
4671.99583 1.54038e-17
4672.99803 1.61283e-17
4674.00023 1.66436e-17
4675.00243 1.66453e-17
4676.00463 1.64567e-17
4676.99681 1.62024e-17
4677.99901 1.60884e-17
4679.00121 1.61732e-17
4680.00341 1.63085e-17
4680.99558 1.64393e-17
4681.99778 1.65228e-17
4682.99998 1.64753e-17
4684.00218 1.62236e-17
4685.00438 1.56898e-17
4685.99656 1.46763e-17
4686.99876 1.36241e-17
4688.00096 1.28414e-17
4689.00316 1.27213e-17
4689.99534 1.35695e-17
4690.99754 1.46962e-17
4691.99974 1.57521e-17
4693.00194 1.61370e-17
4694.00414 1.57721e-17
4694.99632 1.51316e-17
4695.99852 1.44353e-17
4697.00072 1.41194e-17
4698.00292 1.40669e-17
4699.00512 1.41135e-17
4699.99730 1.41498e-17
4700.99950 1.39598e-17
4702.00170 1.38049e-17
4703.00390 1.38216e-17
4703.99607 1.42391e-17
4704.99827 1.51854e-17
4706.00047 1.60124e-17
4707.00267 1.63973e-17
4708.00487 1.56667e-17
4708.99705 1.39714e-17
4709.99925 1.21252e-17
4711.00145 1.05995e-17
4712.00365 1.02500e-17
4712.99583 1.07312e-17
4713.99803 1.16290e-17
4715.00023 1.26370e-17
4716.00243 1.33511e-17
4717.00463 1.38383e-17
4717.99681 1.40779e-17
4718.99901 1.40062e-17
4720.00121 1.36259e-17
4721.00341 1.31803e-17
4721.99559 1.28215e-17
4722.99779 1.28255e-17
4723.99999 1.31701e-17
4725.00219 1.36391e-17
4726.00439 1.41133e-17
4726.99656 1.44220e-17
4727.99876 1.45479e-17
4729.00096 1.44883e-17
4730.00316 1.42089e-17
4730.99534 1.36387e-17
4731.99754 1.30897e-17
4732.99974 1.27607e-17
4734.00194 1.29464e-17
4735.00414 1.37698e-17
4735.99632 1.47537e-17
4736.99852 1.56532e-17
4738.00072 1.60582e-17
4739.00292 1.59495e-17
4739.99510 1.55164e-17
4740.99730 1.48484e-17
4741.99950 1.40730e-17
4743.00170 1.32710e-17
4744.00390 1.32333e-17
4744.99608 1.31953e-17
4745.99828 1.31572e-17
4747.00048 1.31188e-17
4748.00268 1.30802e-17
4749.00488 1.30413e-17
4749.99705 1.30022e-17
4750.99925 1.29629e-17
4752.00145 1.29234e-17
4753.00365 1.28836e-17
4753.99583 1.28436e-17
4754.99803 1.28034e-17
4756.00023 1.27629e-17
4757.00243 1.27222e-17
4758.00463 1.26812e-17
4758.99681 1.26401e-17
4759.99901 1.25987e-17
4761.00121 1.25571e-17
4762.00341 1.25152e-17
4762.99559 1.24732e-17
4763.99779 1.24310e-17
4764.99999 1.23887e-17
4766.00219 1.23461e-17
4767.00439 1.23033e-17
4767.99657 1.22603e-17
4768.99877 1.22171e-17
4770.00097 1.21738e-17
4771.00317 1.21303e-17
4771.99534 1.20867e-17
4772.99754 1.17622e-17
4773.99974 1.14492e-17
4775.00194 1.13977e-17
4776.00414 1.18789e-17
4776.99632 1.24488e-17
4777.99852 1.29025e-17
4779.00072 1.29205e-17
4780.00292 1.24305e-17
4780.99510 1.17782e-17
4781.99730 1.11290e-17
4782.99950 1.07592e-17
4784.00170 1.06672e-17
4785.00390 1.07803e-17
4785.99608 1.10732e-17
4786.99828 1.15415e-17
4788.00048 1.20239e-17
4789.00268 1.23915e-17
4789.99486 1.24744e-17
4790.99706 1.21225e-17
4791.99926 1.16742e-17
4793.00146 1.13012e-17
4794.00366 1.13226e-17
4794.99583 1.17609e-17
4795.99803 1.22439e-17
4797.00023 1.25923e-17
4798.00243 1.24205e-17
4799.00463 1.19162e-17
4799.99681 1.13524e-17
4800.99901 1.09220e-17
4802.00121 1.09205e-17
4803.00341 1.11498e-17
4803.99559 1.14905e-17
4804.99779 1.18191e-17
4805.99999 1.20169e-17
4807.00219 1.21420e-17
4808.00439 1.21946e-17
4808.99657 1.21893e-17
4809.99877 1.21293e-17
4811.00097 1.20039e-17
4812.00317 1.18180e-17
4812.99535 1.15596e-17
4813.99755 1.12780e-17
4814.99975 1.10271e-17
4816.00195 1.08514e-17
4817.00415 1.08005e-17
4817.99632 1.08617e-17
4818.99852 1.10242e-17
4820.00072 1.12863e-17
4821.00292 1.16305e-17
4822.00512 1.19559e-17
4822.99730 1.21958e-17
4823.99950 1.22492e-17
4825.00170 1.21074e-17
4826.00390 1.18396e-17
4826.99608 1.14858e-17
4827.99828 1.11097e-17
4829.00048 1.07337e-17
4830.00268 1.03810e-17
4831.00488 1.00777e-17
4831.99706 9.84010e-18
4832.99926 9.71771e-18
4834.00146 9.74261e-18
4835.00366 9.95138e-18
4835.99584 1.03564e-17
4836.99804 1.08810e-17
4838.00024 1.14720e-17
4839.00244 1.20786e-17
4840.00464 1.26377e-17
4840.99681 1.30843e-17
4841.99901 1.33650e-17
4843.00121 1.33820e-17
4844.00341 1.32216e-17
4844.99559 1.29738e-17
4845.99779 1.27219e-17
4846.99999 1.25714e-17
4848.00219 1.24627e-17
4849.00439 1.23732e-17
4849.99657 1.22757e-17
4850.99877 1.21478e-17
4852.00097 1.19976e-17
4853.00317 1.18222e-17
4853.99535 1.16045e-17
4854.99755 1.13636e-17
4855.99975 1.11348e-17
4857.00195 1.09432e-17
4858.00415 1.08504e-17
4858.99633 1.07901e-17
4859.99853 1.07059e-17
4861.00073 1.05399e-17
4862.00293 1.02150e-17
4862.99510 9.87239e-18
4863.99730 9.59133e-18
4864.99950 9.48823e-18
4866.00170 9.61152e-18
4867.00390 9.81823e-18
4867.99608 1.00421e-17
4868.99828 1.01534e-17
4870.00048 1.01666e-17
4871.00268 1.01531e-17
4872.00488 1.01492e-17
4872.99706 1.02358e-17
4873.99926 1.03447e-17
4875.00146 1.04233e-17
4876.00366 1.04245e-17
4876.99584 1.02958e-17
4877.99804 1.01109e-17
4879.00024 9.91163e-18
4880.00244 9.73383e-18
4881.00464 9.61703e-18
4881.99682 9.60688e-18
4882.99902 9.73105e-18
4884.00122 1.00957e-17
4885.00342 1.05823e-17
4885.99559 1.10100e-17
4886.99779 1.12440e-17
4887.99999 1.10487e-17
4889.00219 1.06268e-17
4890.00439 1.01368e-17
4890.99657 9.73959e-18
4891.99877 9.60704e-18
4893.00097 9.60777e-18
4894.00317 9.69696e-18
4894.99535 9.79759e-18
4895.99755 9.87661e-18
4896.99975 9.98647e-18
4898.00195 1.01353e-17
4899.00415 1.03551e-17
4899.99633 1.06121e-17
4900.99853 1.08575e-17
4902.00073 1.10586e-17
4903.00293 1.11954e-17
4903.99511 1.12164e-17
4904.99731 1.10900e-17
4905.99951 1.07538e-17
4907.00171 1.01564e-17
4908.00391 9.58771e-18
4908.99608 9.20904e-18
4909.99828 9.32615e-18
4911.00048 9.93633e-18
4912.00268 1.06222e-17
4913.00488 1.11615e-17
4913.99706 1.11177e-17
4914.99926 1.06506e-17
4916.00146 1.00210e-17
4917.00366 9.40865e-18
4917.99584 9.07385e-18
4918.99804 8.94181e-18
4920.00024 8.98443e-18
4921.00244 9.18591e-18
4922.00464 9.51323e-18
4922.99682 9.88859e-18
4923.99902 1.02437e-17
4925.00122 1.04930e-17
4926.00342 1.05942e-17
4926.99560 1.05549e-17
4927.99780 1.03730e-17
4929.00000 1.00173e-17
4930.00220 9.57509e-18
4931.00440 9.14392e-18
4931.99657 8.81484e-18
4932.99877 8.72322e-18
4934.00097 8.74158e-18
4935.00317 8.79194e-18
4935.99535 8.77058e-18
4936.99755 8.59715e-18
4937.99975 8.41317e-18
4939.00195 8.27630e-18
4940.00415 8.30810e-18
4940.99633 8.49328e-18
4941.99853 8.70131e-18
4943.00073 8.86172e-18
4944.00293 8.84037e-18
4945.00513 8.69665e-18
4945.99731 8.50175e-18
4946.99951 8.30920e-18
4948.00171 8.19028e-18
4949.00391 8.12540e-18
4949.99609 8.11114e-18
4950.99829 8.15478e-18
4952.00049 8.25130e-18
4953.00269 8.34278e-18
4953.99486 8.39595e-18
4954.99706 8.33093e-18
4955.99926 8.18011e-18
4957.00146 8.04913e-18
4958.00366 8.00319e-18
4958.99584 8.15381e-18
4959.99804 8.45262e-18
4961.00024 8.84426e-18
4962.00244 9.28496e-18
4963.00464 9.72371e-18
4963.99682 1.01181e-17
4964.99902 1.04265e-17
4966.00122 1.06037e-17
4967.00342 1.06237e-17
4967.99560 1.05127e-17
4968.99780 1.02916e-17
4970.00000 9.95493e-18
4971.00220 9.57759e-18
4972.00440 9.27145e-18
4972.99658 9.12047e-18
4973.99878 9.26283e-18
4975.00098 9.60773e-18
4976.00318 1.00615e-17
4976.99535 1.05446e-17
4977.99755 1.09717e-17
4978.99975 1.12682e-17
4980.00195 1.13709e-17
4981.00415 1.11804e-17
4981.99633 1.06779e-17
4982.99853 1.00550e-17
4984.00073 9.42643e-18
4985.00293 8.97789e-18
4985.99511 8.73239e-18
4986.99731 8.64048e-18
4987.99951 8.68544e-18
4989.00171 8.82686e-18
4990.00391 9.05207e-18
4990.99609 9.33813e-18
4991.99829 9.66065e-18
4993.00049 9.99921e-18
4994.00269 1.02781e-17
4995.00489 1.04464e-17
4995.99707 1.04222e-17
4996.99927 1.01908e-17
4998.00147 9.88029e-18
4999.00367 9.56136e-18
4999.99584 9.37226e-18
5000.99804 9.28696e-18
5002.00024 9.22695e-18
5003.00244 9.14753e-18
5004.00464 8.97384e-18
5004.99682 8.74052e-18
5005.99902 8.47438e-18
5007.00122 8.18976e-18
5008.00342 7.90148e-18
5008.99560 7.68658e-18
5009.99780 7.59519e-18
5011.00000 7.71827e-18
5012.00220 8.05875e-18
5013.00440 8.46911e-18
5013.99658 8.86594e-18
5014.99878 9.09239e-18
5016.00098 9.18094e-18
5017.00318 9.21060e-18
5017.99536 9.22750e-18
5018.99756 9.29845e-18
5019.99976 9.41385e-18
5021.00196 9.56746e-18
5022.00416 9.78265e-18
5022.99633 1.00793e-17
5023.99853 1.02574e-17
5025.00073 1.02086e-17
5026.00293 9.69584e-18
5026.99511 8.75768e-18
5027.99731 7.80948e-18
5028.99951 7.08770e-18
5030.00171 7.04786e-18
5031.00391 7.52422e-18
5031.99609 8.23822e-18
5032.99829 8.98966e-18
5034.00049 9.48053e-18
5035.00269 9.79875e-18
5036.00489 9.97402e-18
5036.99707 1.00268e-17
5037.99927 9.98983e-18
5039.00147 9.87996e-18
5040.00367 9.72565e-18
5040.99585 9.58147e-18
5041.99805 9.45601e-18
5043.00025 9.30754e-18
5044.00245 9.12045e-18
5045.00465 8.83795e-18
5045.99682 8.52035e-18
5046.99902 8.23781e-18
5048.00122 8.04783e-18
5049.00342 8.03511e-18
5049.99560 8.12548e-18
5050.99780 8.27263e-18
5052.00000 8.41707e-18
5053.00220 8.50906e-18
5054.00440 8.61007e-18
5054.99658 8.73968e-18
5055.99878 8.94513e-18
5057.00098 9.21510e-18
5058.00318 9.48779e-18
5058.99536 9.72757e-18
5059.99756 9.87850e-18
5060.99976 9.94826e-18
5062.00196 9.95122e-18
5063.00416 9.89770e-18
5063.99634 9.80334e-18
5064.99854 9.68428e-18
5066.00074 9.55964e-18
5067.00294 9.44119e-18
5068.00514 9.34477e-18
5068.99731 9.31971e-18
5069.99951 9.39141e-18
5071.00171 9.64153e-18
5072.00391 1.00130e-17
5072.99609 1.03590e-17
5073.99829 1.05837e-17
5075.00049 1.04877e-17
5076.00269 1.02167e-17
5076.99487 9.91885e-18
5077.99707 9.72658e-18
5078.99927 9.81963e-18
5080.00147 1.00302e-17
5081.00367 1.02700e-17
5081.99585 1.04261e-17
5082.99805 1.04216e-17
5084.00025 1.03393e-17
5085.00245 1.02052e-17
5086.00465 1.00569e-17
5086.99683 9.92043e-18
5087.99903 9.81355e-18
5089.00123 9.75786e-18
5090.00343 9.80067e-18
5090.99560 9.88822e-18
5091.99780 9.97064e-18
5093.00000 9.99840e-18
5094.00220 9.90957e-18
5095.00440 9.77725e-18
5095.99658 9.64182e-18
5096.99878 9.54865e-18
5098.00098 9.53075e-18
5099.00318 9.58221e-18
5099.99536 9.70369e-18
5100.99756 9.93935e-18
5101.99976 1.02168e-17
5103.00196 1.04213e-17
5104.00416 1.04694e-17
5104.99634 1.01902e-17
5105.99854 9.76277e-18
5107.00074 9.34302e-18
5108.00294 9.08247e-18
5108.99512 9.15076e-18
5109.99732 9.41648e-18
5110.99952 9.81915e-18
5112.00172 1.02903e-17
5113.00392 1.07611e-17
5113.99609 1.11796e-17
5114.99829 1.14933e-17
5116.00049 1.15919e-17
5117.00269 1.15327e-17
5118.00489 1.14260e-17
5118.99707 1.13550e-17
5119.99927 1.14875e-17
5121.00147 1.16746e-17
5122.00367 1.18087e-17
5122.99585 1.17630e-17
5123.99805 1.13961e-17
5125.00025 1.10007e-17
5126.00245 1.07272e-17
5127.00465 1.08439e-17
5127.99683 1.13925e-17
5128.99903 1.20094e-17
5130.00123 1.25116e-17
5131.00343 1.25270e-17
5131.99561 1.21736e-17
5132.99781 1.16896e-17
5134.00001 1.12333e-17
5135.00221 1.10604e-17
5136.00441 1.10552e-17
5136.99658 1.11489e-17
5137.99878 1.12796e-17
5139.00098 1.13773e-17
5140.00318 1.14703e-17
5140.99536 1.15549e-17
5141.99756 1.16175e-17
5142.99976 1.16643e-17
5144.00196 1.17274e-17
5145.00416 1.18247e-17
5145.99634 1.20171e-17
5146.99854 1.22466e-17
5148.00074 1.24385e-17
5149.00294 1.25324e-17
5149.99512 1.24208e-17
5150.99732 1.22268e-17
5151.99952 1.20337e-17
5153.00172 1.19433e-17
5154.00392 1.20434e-17
5154.99610 1.21834e-17
5155.99830 1.22925e-17
5157.00050 1.22625e-17
5158.00270 1.20660e-17
5159.00490 1.17706e-17
5159.99707 1.14087e-17
5160.99927 1.09815e-17
5162.00147 1.06015e-17
5163.00367 1.03828e-17
5163.99585 1.04318e-17
5164.99805 1.09201e-17
5166.00025 1.15936e-17
5167.00245 1.22736e-17
5168.00465 1.27552e-17
5168.99683 1.28692e-17
5169.99903 1.27532e-17
5171.00123 1.24579e-17
5172.00343 1.20301e-17
5172.99561 1.15617e-17
5173.99781 1.11737e-17
5175.00001 1.09659e-17
5176.00221 1.11383e-17
5177.00441 1.15446e-17
5177.99659 1.20150e-17
5178.99879 1.24016e-17
5180.00099 1.24973e-17
5181.00319 1.24440e-17
5181.99536 1.23142e-17
5182.99756 1.21980e-17
5183.99976 1.21683e-17
5185.00196 1.21582e-17
5186.00416 1.21546e-17
5186.99634 1.21206e-17
5187.99854 1.20641e-17
5189.00074 1.20233e-17
5190.00294 1.20172e-17
5190.99512 1.20813e-17
5191.99732 1.21936e-17
5192.99952 1.23297e-17
5194.00172 1.24699e-17
5195.00392 1.25921e-17
5195.99610 1.26866e-17
5196.99830 1.27440e-17
5198.00050 1.27488e-17
5199.00270 1.26976e-17
5199.99488 1.26269e-17
5200.99708 1.25589e-17
5201.99928 1.25332e-17
5203.00148 1.25516e-17
5204.00368 1.25950e-17
5204.99585 1.26545e-17
5205.99805 1.27018e-17
5207.00025 1.27635e-17
5208.00245 1.28608e-17
5209.00465 1.30143e-17
5209.99683 1.32535e-17
5210.99903 1.35041e-17
5212.00123 1.37197e-17
5213.00343 1.38403e-17
5213.99561 1.38332e-17
5214.99781 1.37462e-17
5216.00001 1.36012e-17
5217.00221 1.34248e-17
5218.00441 1.32467e-17
5218.99659 1.30957e-17
5219.99879 1.29996e-17
5221.00099 1.30003e-17
5222.00319 1.30682e-17
5222.99537 1.31741e-17
5223.99757 1.32946e-17
5224.99977 1.34074e-17
5226.00197 1.34739e-17
5227.00417 1.34687e-17
5227.99634 1.33272e-17
5228.99854 1.30558e-17
5230.00074 1.28199e-17
5231.00294 1.27089e-17
5231.99512 1.29261e-17
5232.99732 1.33727e-17
5233.99952 1.38521e-17
5235.00172 1.42276e-17
5236.00392 1.42727e-17
5236.99610 1.41091e-17
5237.99830 1.38292e-17
5239.00050 1.35213e-17
5240.00270 1.32882e-17
5241.00490 1.30842e-17
5241.99708 1.29094e-17
5242.99928 1.27451e-17
5244.00148 1.25968e-17
5245.00368 1.25182e-17
5245.99586 1.25314e-17
5246.99806 1.27212e-17
5248.00026 1.29995e-17
5249.00246 1.32419e-17
5250.00466 1.33515e-17
5250.99683 1.31425e-17
5251.99903 1.28247e-17
5253.00123 1.25521e-17
5254.00343 1.24960e-17
5254.99561 1.28221e-17
5255.99781 1.32994e-17
5257.00001 1.38146e-17
5258.00221 1.42039e-17
5259.00441 1.43926e-17
5259.99659 1.44424e-17
5260.99879 1.43632e-17
5262.00099 1.41677e-17
5263.00319 1.39024e-17
5263.99537 1.36216e-17
5264.99757 1.33794e-17
5265.99977 1.32481e-17
5267.00197 1.32014e-17
5268.00417 1.32230e-17
5268.99635 1.32963e-17
5269.99855 1.34001e-17
5271.00075 1.35188e-17
5272.00295 1.36339e-17
5272.99512 1.37208e-17
5273.99732 1.37704e-17
5274.99952 1.37914e-17
5276.00172 1.37876e-17
5277.00392 1.37602e-17
5277.99610 1.37265e-17
5278.99830 1.37047e-17
5280.00050 1.37127e-17
5281.00270 1.37769e-17
5282.00490 1.38701e-17
5282.99708 1.39739e-17
5283.99928 1.40663e-17
5285.00148 1.41282e-17
5286.00368 1.41753e-17
5286.99586 1.42118e-17
5287.99806 1.42440e-17
5289.00026 1.42752e-17
5290.00246 1.43050e-17
5291.00466 1.43348e-17
5291.99684 1.43813e-17
5292.99904 1.44167e-17
5294.00124 1.44142e-17
5295.00344 1.43467e-17
5295.99561 1.41619e-17
5296.99781 1.39680e-17
5298.00001 1.38340e-17
5299.00221 1.38596e-17
5300.00441 1.41037e-17
5300.99659 1.43972e-17
5301.99879 1.46568e-17
5303.00099 1.47247e-17
5304.00319 1.46087e-17
5304.99537 1.44338e-17
5305.99757 1.42679e-17
5306.99977 1.42177e-17
5308.00197 1.42797e-17
5309.00417 1.44428e-17
5309.99635 1.47093e-17
5310.99855 1.50881e-17
5312.00075 1.54812e-17
5313.00295 1.58168e-17
5313.99513 1.59964e-17
5314.99733 1.59636e-17
5315.99953 1.58276e-17
5317.00173 1.56397e-17
5318.00393 1.55017e-17
5318.99610 1.54162e-17
5319.99830 1.53313e-17
5321.00050 1.52271e-17
5322.00270 1.50400e-17
5322.99488 1.48414e-17
5323.99708 1.46934e-17
5324.99928 1.46516e-17
5326.00148 1.47829e-17
5327.00368 1.49995e-17
5327.99586 1.52468e-17
5328.99806 1.54744e-17
5330.00026 1.56304e-17
5331.00246 1.56617e-17
5332.00466 1.55331e-17
5332.99684 1.51274e-17
5333.99904 1.45540e-17
5335.00124 1.40155e-17
5336.00344 1.36586e-17
5336.99562 1.37451e-17
5337.99782 1.40953e-17
5339.00002 1.45517e-17
5340.00222 1.49656e-17
5341.00442 1.51614e-17
5341.99659 1.52401e-17
5342.99879 1.52326e-17
5344.00099 1.51797e-17
5345.00319 1.51170e-17
5345.99537 1.50508e-17
5346.99757 1.50015e-17
5347.99977 1.50041e-17
5349.00197 1.50499e-17
5350.00417 1.51154e-17
5350.99635 1.51832e-17
5351.99855 1.52187e-17
5353.00075 1.52456e-17
5354.00295 1.52800e-17
5354.99513 1.53415e-17
5355.99733 1.54537e-17
5356.99953 1.55571e-17
5358.00173 1.55645e-17
5359.00393 1.55719e-17
5359.99611 1.55792e-17
5360.99831 1.55866e-17
5362.00051 1.55939e-17
5363.00271 1.56012e-17
5364.00491 1.56085e-17
5364.99708 1.56158e-17
5365.99928 1.56230e-17
5367.00148 1.56303e-17
5368.00368 1.56375e-17
5368.99586 1.56447e-17
5369.99806 1.56520e-17
5371.00026 1.56592e-17
5372.00246 1.56664e-17
5373.00466 1.56735e-17
5373.99684 1.56807e-17
5374.99904 1.56878e-17
5376.00124 1.56949e-17
5377.00344 1.57019e-17
5377.99562 1.57090e-17
5378.99782 1.57160e-17
5380.00002 1.57230e-17
5381.00222 1.57300e-17
5382.00442 1.57370e-17
5382.99660 1.57440e-17
5383.99880 1.57510e-17
5385.00100 1.57381e-17
5386.00320 1.56307e-17
5386.99537 1.54801e-17
5387.99757 1.53155e-17
5388.99977 1.51892e-17
5390.00197 1.51157e-17
5391.00417 1.50659e-17
5391.99635 1.50342e-17
5392.99855 1.50153e-17
5394.00075 1.50064e-17
5395.00295 1.50204e-17
5395.99513 1.50343e-17
5396.99733 1.50483e-17
5397.99953 1.50623e-17
5399.00173 1.50762e-17
5400.00393 1.50902e-17
5400.99611 1.51041e-17
5401.99831 1.51180e-17
5403.00051 1.51320e-17
5404.00271 1.51459e-17
5405.00491 1.51598e-17
5405.99709 1.51736e-17
5406.99929 1.51875e-17
5408.00149 1.52013e-17
5409.00369 1.52151e-17
5409.99586 1.52289e-17
5410.99806 1.52426e-17
5412.00026 1.52563e-17
5413.00246 1.52701e-17
5414.00466 1.52837e-17
5414.99684 1.52974e-17
5415.99904 1.53111e-17
5417.00124 1.53247e-17
5418.00344 1.53383e-17
5418.99562 1.53518e-17
5419.99782 1.53653e-17
5421.00002 1.53789e-17
5422.00222 1.53923e-17
5423.00442 1.54058e-17
5423.99660 1.54193e-17
5424.99880 1.54328e-17
5426.00100 1.54462e-17
5427.00320 1.51775e-17
5427.99538 1.49311e-17
5428.99758 1.47837e-17
5429.99978 1.48293e-17
5431.00198 1.51144e-17
5432.00418 1.55055e-17
5432.99635 1.59295e-17
5433.99855 1.62868e-17
5435.00075 1.65299e-17
5436.00295 1.66470e-17
5436.99513 1.66159e-17
5437.99733 1.63815e-17
5438.99953 1.60423e-17
5440.00173 1.56943e-17
5441.00393 1.54335e-17
5441.99611 1.53760e-17
5442.99831 1.54255e-17
5444.00051 1.55333e-17
5445.00271 1.56413e-17
5445.99489 1.57027e-17
5446.99709 1.57180e-17
5447.99929 1.56755e-17
5449.00149 1.55279e-17
5450.00369 1.53276e-17
5450.99587 1.51673e-17
5451.99807 1.51147e-17
5453.00027 1.53016e-17
5454.00247 1.56140e-17
5455.00467 1.59527e-17
5455.99684 1.62206e-17
5456.99904 1.63035e-17
5458.00124 1.63005e-17
5459.00344 1.62553e-17
5459.99562 1.62302e-17
5460.99782 1.62615e-17
5462.00002 1.63136e-17
5463.00222 1.63802e-17
5464.00442 1.64498e-17
5464.99660 1.65150e-17
5465.99880 1.65702e-17
5467.00100 1.66073e-17
5468.00320 1.66072e-17
5468.99538 1.65960e-17
5469.99758 1.65940e-17
5470.99978 1.66248e-17
5472.00198 1.67142e-17
5473.00418 1.68092e-17
5473.99636 1.68806e-17
5474.99856 1.68834e-17
5476.00076 1.68034e-17
5477.00296 1.66847e-17
5477.99513 1.65482e-17
5478.99733 1.64387e-17
5479.99953 1.63486e-17
5481.00173 1.62590e-17
5482.00393 1.61594e-17
5482.99611 1.60107e-17
5483.99831 1.58847e-17
5485.00051 1.58320e-17
5486.00271 1.59149e-17
5487.00491 1.61912e-17
5487.99709 1.65165e-17
5488.99929 1.68111e-17
5490.00149 1.69445e-17
5491.00369 1.68870e-17
5491.99587 1.67586e-17
5492.99807 1.66151e-17
5494.00027 1.65653e-17
5495.00247 1.65892e-17
5496.00467 1.66426e-17
5496.99685 1.67012e-17
5497.99905 1.67282e-17
5499.00125 1.67263e-17
5500.00345 1.66926e-17
5500.99562 1.66206e-17
5501.99782 1.65075e-17
5503.00002 1.63756e-17
5504.00222 1.62407e-17
5505.00442 1.61208e-17
5505.99660 1.60295e-17
5506.99880 1.59741e-17
5508.00100 1.59614e-17
5509.00320 1.60119e-17
5509.99538 1.60982e-17
5510.99758 1.61875e-17
5511.99978 1.62502e-17
5513.00198 1.62399e-17
5514.00418 1.62012e-17
5514.99636 1.61614e-17
5515.99856 1.61571e-17
5517.00076 1.62168e-17
5518.00296 1.62848e-17
5518.99514 1.63364e-17
5519.99734 1.63202e-17
5520.99954 1.62399e-17
5522.00174 1.61484e-17
5523.00394 1.60730e-17
5523.99611 1.60697e-17
5524.99831 1.61059e-17
5526.00051 1.61422e-17
5527.00271 1.61518e-17
5528.00491 1.61109e-17
5528.99709 1.59894e-17
5529.99929 1.57694e-17
5531.00149 1.54033e-17
5532.00369 1.48815e-17
5532.99587 1.44022e-17
5533.99807 1.40772e-17
5535.00027 1.41175e-17
5536.00247 1.44938e-17
5537.00467 1.50037e-17
5537.99685 1.55245e-17
5538.99905 1.58504e-17
5540.00125 1.60122e-17
5541.00345 1.60495e-17
5541.99563 1.59859e-17
5542.99783 1.58682e-17
5544.00003 1.56750e-17
5545.00223 1.54116e-17
5546.00443 1.50676e-17
5546.99660 1.46584e-17
5547.99880 1.43057e-17
5549.00100 1.40793e-17
5550.00320 1.41174e-17
5550.99538 1.43783e-17
5551.99758 1.47178e-17
5552.99978 1.50417e-17
5554.00198 1.52006e-17
5555.00418 1.52206e-17
5555.99636 1.51301e-17
5556.99856 1.49434e-17
5558.00076 1.46793e-17
5559.00296 1.43968e-17
5559.99514 1.41439e-17
5560.99734 1.39939e-17
5561.99954 1.39797e-17
5563.00174 1.40118e-17
5564.00394 1.40479e-17
5564.99612 1.39994e-17
5565.99832 1.38800e-17
5567.00052 1.37479e-17
5568.00272 1.36353e-17
5568.99489 1.36051e-17
5569.99709 1.36207e-17
5570.99929 1.36526e-17
5572.00149 1.36723e-17
5573.00369 1.36431e-17
5573.99587 1.36155e-17
5574.99807 1.36133e-17
5576.00027 1.36826e-17
5577.00247 1.38328e-17
5578.00467 1.39835e-17
5578.99685 1.40965e-17
5579.99905 1.40695e-17
5581.00125 1.39595e-17
5582.00345 1.38741e-17
5582.99563 1.38864e-17
5583.99783 1.41410e-17
5585.00003 1.44963e-17
5586.00223 1.48384e-17
5587.00443 1.50531e-17
5587.99661 1.50173e-17
5588.99881 1.48453e-17
5590.00101 1.45889e-17
5591.00321 1.43213e-17
5591.99538 1.40899e-17
5592.99758 1.38843e-17
5593.99978 1.37184e-17
5595.00198 1.36020e-17
5596.00418 1.35419e-17
5596.99636 1.35416e-17
5597.99856 1.36010e-17
5599.00076 1.37198e-17
5600.00296 1.38825e-17
5600.99514 1.40733e-17
5601.99734 1.42736e-17
5602.99954 1.44637e-17
5604.00174 1.46414e-17
5605.00394 1.47985e-17
5605.99612 1.49411e-17
5606.99832 1.50544e-17
5608.00052 1.50931e-17
5609.00272 1.50340e-17
5610.00492 1.48011e-17
5610.99710 1.44736e-17
5611.99930 1.41557e-17
5613.00150 1.39332e-17
5614.00370 1.39559e-17
5614.99587 1.40709e-17
5615.99807 1.41748e-17
5617.00027 1.41432e-17
5618.00247 1.38650e-17
5619.00467 1.35269e-17
5619.99685 1.32178e-17
5620.99905 1.30810e-17
5622.00125 1.31505e-17
5623.00345 1.33271e-17
5623.99563 1.35674e-17
5624.99783 1.38056e-17
5626.00003 1.40128e-17
5627.00223 1.41666e-17
5628.00443 1.42374e-17
5628.99661 1.41826e-17
5629.99881 1.40605e-17
5631.00101 1.39142e-17
5632.00321 1.37967e-17
5632.99539 1.37531e-17
5633.99759 1.37434e-17
5634.99979 1.37549e-17
5636.00199 1.37615e-17
5637.00419 1.37558e-17
5637.99636 1.37486e-17
5638.99856 1.37399e-17
5640.00076 1.37429e-17
5641.00296 1.37337e-17
5641.99514 1.36883e-17
5642.99734 1.35871e-17
5643.99954 1.34025e-17
5645.00174 1.31744e-17
5646.00394 1.29321e-17
5646.99612 1.27029e-17
5647.99832 1.25145e-17
5649.00052 1.23944e-17
5650.00272 1.23627e-17
5651.00492 1.24652e-17
5651.99710 1.26763e-17
5652.99930 1.29191e-17
5654.00150 1.31406e-17
5655.00370 1.32514e-17
5655.99588 1.32773e-17
5656.99808 1.32491e-17
5658.00028 1.31897e-17
5659.00248 1.31309e-17
5660.00468 1.30672e-17
5660.99685 1.30012e-17
5661.99905 1.29481e-17
5663.00125 1.29114e-17
5664.00345 1.28433e-17
5664.99563 1.27226e-17
5665.99783 1.24667e-17
5667.00003 1.21368e-17
5668.00223 1.18713e-17
5669.00443 1.17597e-17
5669.99661 1.19912e-17
5670.99881 1.23991e-17
5672.00101 1.28240e-17
5673.00321 1.31192e-17
5673.99539 1.31038e-17
5674.99759 1.29151e-17
5675.99979 1.26199e-17
5677.00199 1.23007e-17
5678.00419 1.20273e-17
5678.99637 1.18020e-17
5679.99857 1.16522e-17
5681.00077 1.16056e-17
5682.00297 1.16659e-17
5682.99514 1.18213e-17
5683.99734 1.20596e-17
5684.99954 1.23872e-17
5686.00174 1.27246e-17
5687.00394 1.30011e-17
5687.99612 1.31409e-17
5688.99832 1.30580e-17
5690.00052 1.28730e-17
5691.00272 1.26544e-17
5691.99490 1.24999e-17
5692.99710 1.24625e-17
5693.99930 1.24790e-17
5695.00150 1.25303e-17
5696.00370 1.25767e-17
5696.99588 1.26108e-17
5697.99808 1.26353e-17
5699.00028 1.26450e-17
5700.00248 1.26429e-17
5701.00468 1.26089e-17
5701.99686 1.25295e-17
5702.99906 1.23885e-17
5704.00126 1.21698e-17
5705.00346 1.19354e-17
5705.99563 1.17246e-17
5706.99783 1.15870e-17
5708.00003 1.15476e-17
5709.00223 1.15851e-17
5710.00443 1.16897e-17
5710.99661 1.18741e-17
5711.99881 1.20792e-17
5713.00101 1.22314e-17
5714.00321 1.22699e-17
5714.99539 1.20841e-17
5715.99759 1.17981e-17
5716.99979 1.15085e-17
5718.00199 1.13154e-17
5719.00419 1.13177e-17
5719.99637 1.14440e-17
5720.99857 1.16648e-17
5722.00077 1.19590e-17
5723.00297 1.22765e-17
5723.99515 1.25325e-17
5724.99735 1.26651e-17
5725.99955 1.25469e-17
5727.00175 1.22545e-17
5728.00395 1.19057e-17
5728.99612 1.15916e-17
5729.99832 1.14433e-17
5731.00052 1.14163e-17
5732.00272 1.14862e-17
5733.00492 1.16367e-17
5733.99710 1.18432e-17
5734.99930 1.20473e-17
5736.00150 1.22044e-17
5737.00370 1.22323e-17
5737.99588 1.21309e-17
5738.99808 1.19955e-17
5740.00028 1.18784e-17
5741.00248 1.18896e-17
5742.00468 1.19836e-17
5742.99686 1.20960e-17
5743.99906 1.21804e-17
5745.00126 1.21593e-17
5746.00346 1.21032e-17
5746.99564 1.20548e-17
5747.99784 1.20591e-17
5749.00004 1.21537e-17
5750.00224 1.23005e-17
5751.00444 1.24816e-17
5751.99661 1.26907e-17
5752.99881 1.28905e-17
5754.00101 1.30182e-17
5755.00321 1.30302e-17
5755.99539 1.28413e-17
5756.99759 1.25166e-17
5757.99979 1.21364e-17
5759.00199 1.17671e-17
5760.00419 1.14849e-17
5760.99637 1.13133e-17
5761.99857 1.12764e-17
5763.00077 1.14171e-17
5764.00297 1.17474e-17
5764.99515 1.21306e-17
5765.99735 1.24841e-17
5766.99955 1.26605e-17
5768.00175 1.26574e-17
5769.00395 1.25801e-17
5769.99613 1.24833e-17
5770.99833 1.24756e-17
5772.00053 1.25179e-17
5773.00273 1.25688e-17
5774.00493 1.26002e-17
5774.99710 1.25712e-17
5775.99930 1.25142e-17
5777.00150 1.24454e-17
5778.00370 1.23773e-17
5778.99588 1.23237e-17
5779.99808 1.23008e-17
5781.00028 1.23187e-17
5782.00248 1.24128e-17
5783.00468 1.25530e-17
5783.99686 1.26730e-17
5784.99906 1.27285e-17
5786.00126 1.26442e-17
5787.00346 1.24609e-17
5787.99564 1.22220e-17
5788.99784 1.19620e-17
5790.00004 1.17176e-17
5791.00224 1.15343e-17
5792.00444 1.14494e-17
5792.99662 1.15187e-17
5793.99882 1.17581e-17
5795.00102 1.20679e-17
5796.00322 1.23897e-17
5796.99539 1.26307e-17
5797.99759 1.27751e-17
5798.99979 1.28451e-17
5800.00199 1.28457e-17
5801.00419 1.27835e-17
5801.99637 1.26870e-17
5802.99857 1.25851e-17
5804.00077 1.25106e-17
5805.00297 1.25008e-17
5805.99515 1.25215e-17
5806.99735 1.25560e-17
5807.99955 1.25782e-17
5809.00175 1.25740e-17
5810.00395 1.25631e-17
5810.99613 1.25507e-17
5811.99833 1.25602e-17
5813.00053 1.25752e-17
5814.00273 1.25684e-17
5814.99491 1.25218e-17
5815.99711 1.23824e-17
5816.99931 1.22349e-17
5818.00151 1.21464e-17
5819.00371 1.21911e-17
5819.99588 1.24495e-17
5820.99808 1.27814e-17
5822.00028 1.31105e-17
5823.00248 1.33194e-17
5824.00468 1.33640e-17
5824.99686 1.33453e-17
5825.99906 1.33049e-17
5827.00126 1.33324e-17
5828.00346 1.34110e-17
5828.99564 1.34969e-17
5829.99784 1.35670e-17
5831.00004 1.35686e-17
5832.00224 1.35598e-17
5833.00444 1.35814e-17
5833.99662 1.36749e-17
5834.99882 1.38788e-17
5836.00102 1.41291e-17
5837.00322 1.43882e-17
5837.99540 1.46247e-17
5838.99760 1.47975e-17
5839.99980 1.48558e-17
5841.00200 1.47658e-17
5842.00420 1.44293e-17
5842.99637 1.39521e-17
5843.99857 1.34782e-17
5845.00077 1.31239e-17
5846.00297 1.30618e-17
5846.99515 1.31844e-17
5847.99735 1.34181e-17
5848.99955 1.36914e-17
5850.00175 1.39286e-17
5851.00395 1.41088e-17
5851.99613 1.42005e-17
5852.99833 1.41430e-17
5854.00053 1.39514e-17
5855.00273 1.37281e-17
5856.00493 1.35381e-17
5856.99711 1.34944e-17
5857.99931 1.35750e-17
5859.00151 1.37371e-17
5860.00371 1.39523e-17
5860.99589 1.41797e-17
5861.99809 1.44086e-17
5863.00029 1.46216e-17
5864.00249 1.47974e-17
5865.00469 1.49182e-17
5865.99686 1.49895e-17
5866.99906 1.50118e-17
5868.00126 1.49939e-17
5869.00346 1.49371e-17
5869.99564 1.48359e-17
5870.99784 1.46923e-17
5872.00004 1.44938e-17
5873.00224 1.42770e-17
5874.00444 1.40810e-17
5874.99662 1.39395e-17
5875.99882 1.38941e-17
5877.00102 1.39204e-17
5878.00322 1.40022e-17
5878.99540 1.41245e-17
5879.99760 1.42671e-17
5880.99980 1.43945e-17
5882.00200 1.44785e-17
5883.00420 1.44781e-17
5883.99638 1.43903e-17
5884.99858 1.42420e-17
5886.00078 1.40508e-17
5887.00298 1.38356e-17
5887.99515 1.36249e-17
5888.99735 1.34462e-17
5889.99955 1.33282e-17
5891.00175 1.33040e-17
5892.00395 1.33457e-17
5892.99613 1.34347e-17
5893.99833 1.35490e-17
5895.00053 1.36669e-17
5896.00273 1.37797e-17
5897.00493 1.38744e-17
5897.99711 1.39353e-17
5898.99931 1.39581e-17
5900.00151 1.39460e-17
5901.00371 1.39015e-17
5901.99589 1.38290e-17
5902.99809 1.37361e-17
5904.00029 1.36316e-17
5905.00249 1.35240e-17
5906.00469 1.34209e-17
5906.99687 1.33375e-17
5907.99907 1.32849e-17
5909.00127 1.32788e-17
5910.00347 1.33242e-17
5910.99564 1.33950e-17
5911.99784 1.34760e-17
5913.00004 1.35395e-17
5914.00224 1.35839e-17
5915.00444 1.36193e-17
5915.99662 1.36498e-17
5916.99882 1.36942e-17
5918.00102 1.37265e-17
5919.00322 1.37263e-17
5919.99540 1.36720e-17
5920.99760 1.35362e-17
5921.99980 1.33877e-17
5923.00200 1.32683e-17
5924.00420 1.32350e-17
5924.99638 1.33144e-17
5925.99858 1.34579e-17
5927.00078 1.36424e-17
5928.00298 1.38365e-17
5928.99516 1.40160e-17
5929.99736 1.41604e-17
5930.99956 1.42485e-17
5932.00176 1.42555e-17
5933.00396 1.41925e-17
5933.99613 1.40737e-17
5934.99833 1.39067e-17
5936.00053 1.36978e-17
5937.00273 1.35248e-17
5937.99491 1.34373e-17
5938.99711 1.35204e-17
5939.99931 1.37835e-17
5941.00151 1.40915e-17
5942.00371 1.43687e-17
5942.99589 1.44870e-17
5943.99809 1.44504e-17
5945.00029 1.43041e-17
5946.00249 1.40717e-17
5947.00469 1.37833e-17
5947.99687 1.34822e-17
5948.99907 1.32104e-17
5950.00127 1.30169e-17
5951.00347 1.29474e-17
5951.99565 1.29603e-17
5952.99785 1.30343e-17
5954.00005 1.31419e-17
5955.00225 1.32591e-17
5956.00445 1.33725e-17
5956.99662 1.34653e-17
5957.99882 1.35038e-17
5959.00102 1.35091e-17
5960.00322 1.35133e-17
5960.99540 1.35415e-17
5961.99760 1.36352e-17
5962.99980 1.37602e-17
5964.00200 1.38924e-17
5965.00420 1.40086e-17
5965.99638 1.40858e-17
5966.99858 1.41245e-17
5968.00078 1.41205e-17
5969.00298 1.40621e-17
5970.00518 1.39587e-17
5970.99736 1.38436e-17
5971.99956 1.37393e-17
5973.00176 1.36853e-17
5974.00396 1.36693e-17
5974.99614 1.36704e-17
5975.99834 1.36747e-17
5977.00054 1.36660e-17
5978.00274 1.36332e-17
5979.00494 1.35671e-17
5979.99711 1.34490e-17
5980.99931 1.32687e-17
5982.00151 1.30920e-17
5983.00371 1.29557e-17
5983.99589 1.29348e-17
5984.99809 1.30210e-17
5986.00029 1.31263e-17
5987.00249 1.32023e-17
5988.00469 1.31463e-17
5988.99687 1.30153e-17
5989.99907 1.28783e-17
5991.00127 1.27896e-17
5992.00347 1.28265e-17
5992.99565 1.29384e-17
5993.99785 1.30985e-17
5995.00005 1.32744e-17
5996.00225 1.34367e-17
5997.00445 1.35972e-17
5997.99663 1.37508e-17
5998.99883 1.39025e-17
6000.00103 1.40378e-17
6001.00323 1.41291e-17
6001.99540 1.41591e-17
6002.99760 1.41019e-17
6003.99980 1.39716e-17
6005.00200 1.37874e-17
6006.00420 1.35659e-17
6006.99638 1.33229e-17
6007.99858 1.30955e-17
6009.00078 1.29142e-17
6010.00298 1.28145e-17
6010.99516 1.28182e-17
6011.99736 1.28967e-17
6012.99956 1.30339e-17
6014.00176 1.32134e-17
6015.00396 1.34071e-17
6015.99614 1.35812e-17
6016.99834 1.37063e-17
6018.00054 1.37358e-17
6019.00274 1.36937e-17
6020.00494 1.36060e-17
6020.99712 1.34950e-17
6021.99932 1.33863e-17
6023.00152 1.32912e-17
6024.00372 1.32212e-17
6024.99589 1.32035e-17
6025.99809 1.32415e-17
6027.00029 1.32623e-17
6028.00249 1.32277e-17
6029.00469 1.30431e-17
6029.99687 1.27528e-17
6030.99907 1.24640e-17
6032.00127 1.22470e-17
6033.00347 1.22346e-17
6033.99565 1.23367e-17
6034.99785 1.24740e-17
6036.00005 1.25722e-17
6037.00225 1.25405e-17
6038.00445 1.24534e-17
6038.99663 1.23422e-17
6039.99883 1.22527e-17
6041.00103 1.22100e-17
6042.00323 1.21796e-17
6042.99541 1.21522e-17
6043.99761 1.21110e-17
6044.99981 1.20551e-17
6046.00201 1.19905e-17
6047.00421 1.19189e-17
6047.99638 1.18287e-17
6048.99858 1.17605e-17
6050.00078 1.17464e-17
6051.00298 1.18231e-17
6051.99516 1.20299e-17
6052.99736 1.22805e-17
6053.99956 1.25238e-17
6055.00176 1.26899e-17
6056.00396 1.27453e-17
6056.99614 1.27297e-17
6057.99834 1.26582e-17
6059.00054 1.25433e-17
6060.00274 1.24205e-17
6060.99492 1.23296e-17
6061.99712 1.23069e-17
6062.99932 1.24138e-17
6064.00152 1.25896e-17
6065.00372 1.27860e-17
6065.99590 1.29527e-17
6066.99810 1.30384e-17
6068.00030 1.30677e-17
6069.00250 1.30464e-17
6070.00470 1.29774e-17
6070.99687 1.28772e-17
6071.99907 1.27787e-17
6073.00127 1.27074e-17
6074.00347 1.27076e-17
6074.99565 1.27656e-17
6075.99785 1.28540e-17
6077.00005 1.29526e-17
6078.00225 1.30323e-17
6079.00445 1.30924e-17
6079.99663 1.31285e-17
6080.99883 1.31368e-17
6082.00103 1.31156e-17
6083.00323 1.30598e-17
6083.99541 1.29698e-17
6084.99761 1.28353e-17
6085.99981 1.26718e-17
6087.00201 1.25259e-17
6088.00421 1.24274e-17
6088.99639 1.24341e-17
6089.99859 1.25181e-17
6091.00079 1.26386e-17
6092.00299 1.27629e-17
6092.99516 1.28412e-17
6093.99736 1.29004e-17
6094.99956 1.29536e-17
6096.00176 1.30163e-17
6097.00396 1.31021e-17
6097.99614 1.31851e-17
6098.99834 1.32539e-17
6100.00054 1.32927e-17
6101.00274 1.32963e-17
6101.99492 1.32714e-17
6102.99712 1.32210e-17
6103.99932 1.31485e-17
6105.00152 1.30652e-17
6106.00372 1.29842e-17
6106.99590 1.29171e-17
6107.99810 1.28731e-17
6109.00030 1.28705e-17
6110.00250 1.29220e-17
6111.00470 1.30436e-17
6111.99688 1.32412e-17
6112.99908 1.34748e-17
6114.00128 1.37172e-17
6115.00348 1.39416e-17
6115.99565 1.41189e-17
6116.99785 1.42215e-17
6118.00005 1.42274e-17
6119.00225 1.40864e-17
6120.00445 1.38582e-17
6120.99663 1.36072e-17
6121.99883 1.33933e-17
6123.00103 1.32937e-17
6124.00323 1.32623e-17
6124.99541 1.32770e-17
6125.99761 1.33111e-17
6126.99981 1.33404e-17
6128.00201 1.33688e-17
6129.00421 1.33898e-17
6129.99639 1.33894e-17
6130.99859 1.33745e-17
6132.00079 1.33638e-17
6133.00299 1.33700e-17
6133.99517 1.34218e-17
6134.99737 1.34948e-17
6135.99957 1.35655e-17
6137.00177 1.36134e-17
6138.00397 1.36123e-17
6138.99614 1.35875e-17
6139.99834 1.35533e-17
6141.00054 1.35204e-17
6142.00274 1.35025e-17
6143.00494 1.35217e-17
6143.99712 1.35907e-17
6144.99932 1.37604e-17
6146.00152 1.39835e-17
6147.00372 1.41697e-17
6147.99590 1.42559e-17
6148.99810 1.41135e-17
6150.00030 1.38569e-17
6151.00250 1.35876e-17
6152.00470 1.34073e-17
6152.99688 1.34415e-17
6153.99908 1.35528e-17
6155.00128 1.36750e-17
6156.00348 1.36996e-17
6156.99566 1.35836e-17
6157.99786 1.34625e-17
6159.00006 1.33941e-17
6160.00226 1.35102e-17
6161.00446 1.37637e-17
6161.99663 1.40429e-17
6162.99883 1.42759e-17
6164.00103 1.43329e-17
6165.00323 1.42949e-17
6165.99541 1.42251e-17
6166.99761 1.41842e-17
6167.99981 1.42429e-17
6169.00201 1.43339e-17
6170.00421 1.44288e-17
6170.99639 1.44882e-17
6171.99859 1.44917e-17
6173.00079 1.44624e-17
6174.00299 1.44064e-17
6174.99517 1.43274e-17
6175.99737 1.42430e-17
6176.99957 1.41737e-17
6178.00177 1.41400e-17
6179.00397 1.41900e-17
6179.99615 1.42592e-17
6180.99835 1.42757e-17
6182.00055 1.42922e-17
6183.00275 1.43089e-17
6183.99492 1.43255e-17
6184.99712 1.43422e-17
6185.99932 1.43590e-17
6187.00152 1.43758e-17
6188.00372 1.43926e-17
6188.99590 1.44095e-17
6189.99810 1.44264e-17
6191.00030 1.44433e-17
6192.00250 1.44603e-17
6193.00470 1.44774e-17
6193.99688 1.44944e-17
6194.99908 1.45115e-17
6196.00128 1.45286e-17
6197.00348 1.45458e-17
6197.99566 1.45630e-17
6198.99786 1.45802e-17
6200.00006 1.45975e-17
6201.00226 1.46148e-17
6202.00446 1.46321e-17
6202.99664 1.46493e-17
6203.99884 1.48424e-17
6205.00104 1.49843e-17
6206.00324 1.50743e-17
6206.99541 1.51165e-17
6207.99761 1.51077e-17
6208.99981 1.50471e-17
6210.00201 1.49537e-17
6211.00421 1.48459e-17
6211.99639 1.47462e-17
6212.99859 1.46745e-17
6214.00079 1.46175e-17
6215.00299 1.45714e-17
6215.99517 1.45325e-17
6216.99737 1.44927e-17
6217.99957 1.44398e-17
6219.00177 1.43648e-17
6220.00397 1.42544e-17
6220.99615 1.41166e-17
6221.99835 1.39637e-17
6223.00055 1.38032e-17
6224.00275 1.36302e-17
6224.99493 1.35095e-17
6225.99713 1.34838e-17
6226.99933 1.36187e-17
6228.00153 1.39483e-17
6229.00373 1.43176e-17
6229.99590 1.46402e-17
6230.99810 1.47693e-17
6232.00030 1.46951e-17
6233.00250 1.45169e-17
6234.00470 1.42865e-17
6234.99688 1.40830e-17
6235.99908 1.39261e-17
6237.00128 1.38299e-17
6238.00348 1.38197e-17
6238.99566 1.39314e-17
6239.99786 1.40861e-17
6241.00006 1.42299e-17
6242.00226 1.42854e-17
6243.00446 1.42053e-17
6243.99664 1.40883e-17
6244.99884 1.39782e-17
6246.00104 1.39660e-17
6247.00324 1.40418e-17
6247.99542 1.41336e-17
6248.99762 1.42030e-17
6249.99982 1.41736e-17
6251.00202 1.40855e-17
6252.00422 1.39773e-17
6252.99639 1.38815e-17
6253.99859 1.38429e-17
6255.00079 1.38225e-17
6256.00299 1.38027e-17
6256.99517 1.37595e-17
6257.99737 1.36796e-17
6258.99957 1.35907e-17
6260.00177 1.35050e-17
6261.00397 1.34333e-17
6261.99615 1.33904e-17
6262.99835 1.33905e-17
6264.00055 1.34447e-17
6265.00275 1.35882e-17
6266.00495 1.37599e-17
6266.99713 1.39046e-17
6267.99933 1.39676e-17
6269.00153 1.38855e-17
6270.00373 1.37246e-17
6270.99591 1.35213e-17
6271.99811 1.33190e-17
6273.00031 1.31519e-17
6274.00251 1.30252e-17
6275.00471 1.29507e-17
6275.99688 1.29639e-17
6276.99908 1.30284e-17
6278.00128 1.30824e-17
6279.00348 1.30800e-17
6279.99566 1.29434e-17
6280.99786 1.27277e-17
6282.00006 1.24809e-17
6283.00226 1.22448e-17
6284.00446 1.20637e-17
6284.99664 1.19640e-17
6285.99884 1.19696e-17
6287.00104 1.21249e-17
6288.00324 1.24255e-17
6288.99542 1.27743e-17
6289.99762 1.31112e-17
6290.99982 1.33410e-17
6292.00202 1.34603e-17
6293.00422 1.34964e-17
6293.99640 1.34609e-17
6294.99860 1.33545e-17
6296.00080 1.32460e-17
6297.00300 1.31915e-17
6297.99517 1.32670e-17
6298.99737 1.35483e-17
6299.99957 1.38574e-17
6301.00177 1.41001e-17
6302.00397 1.40985e-17
6302.99615 1.38324e-17
6303.99835 1.35350e-17
6305.00055 1.33217e-17
6306.00275 1.34463e-17
6306.99493 1.37940e-17
6307.99713 1.41744e-17
6308.99933 1.44539e-17
6310.00153 1.44195e-17
6311.00373 1.42010e-17
6311.99591 1.38830e-17
6312.99811 1.35497e-17
6314.00031 1.32897e-17
6315.00251 1.30784e-17
6316.00471 1.29259e-17
6316.99689 1.28412e-17
6317.99909 1.28237e-17
6319.00129 1.28633e-17
6320.00349 1.29486e-17
6320.99566 1.30648e-17
6321.99786 1.31964e-17
6323.00006 1.33279e-17
6324.00226 1.34430e-17
6325.00446 1.35239e-17
6325.99664 1.35709e-17
6326.99884 1.35838e-17
6328.00104 1.35627e-17
6329.00324 1.35105e-17
6329.99542 1.34364e-17
6330.99762 1.33489e-17
6331.99982 1.32595e-17
6333.00202 1.31747e-17
6334.00422 1.30957e-17
6334.99640 1.30257e-17
6335.99860 1.29667e-17
6337.00080 1.29210e-17
6338.00300 1.28907e-17
6338.99518 1.28768e-17
6339.99738 1.28805e-17
6340.99958 1.28989e-17
6342.00178 1.29296e-17
6343.00398 1.29685e-17
6343.99615 1.30120e-17
6344.99835 1.30622e-17
6346.00055 1.31183e-17
6347.00275 1.31825e-17
6347.99493 1.32490e-17
6348.99713 1.33060e-17
6349.99933 1.33452e-17
6351.00153 1.33596e-17
6352.00373 1.33421e-17
6352.99591 1.32880e-17
6353.99811 1.31920e-17
6355.00031 1.30433e-17
6356.00251 1.28817e-17
6357.00471 1.27350e-17
6357.99689 1.26380e-17
6358.99909 1.26130e-17
6360.00129 1.26282e-17
6361.00349 1.26685e-17
6361.99567 1.27193e-17
6362.99787 1.27609e-17
6364.00007 1.27732e-17
6365.00227 1.27391e-17
6366.00447 1.26094e-17
6366.99664 1.24511e-17
6367.99884 1.23272e-17
6369.00104 1.23010e-17
6370.00324 1.24586e-17
6370.99542 1.26797e-17
6371.99762 1.28956e-17
6372.99982 1.30049e-17
6374.00202 1.29548e-17
6375.00422 1.28689e-17
6375.99640 1.28001e-17
6376.99860 1.28606e-17
6378.00080 1.30282e-17
6379.00300 1.32156e-17
6379.99518 1.33727e-17
6380.99738 1.34125e-17
6381.99958 1.33694e-17
6383.00178 1.32738e-17
6384.00398 1.31503e-17
6384.99616 1.30303e-17
6385.99836 1.29140e-17
6387.00056 1.28110e-17
6388.00276 1.27305e-17
6389.00496 1.26797e-17
6389.99713 1.26639e-17
6390.99933 1.26857e-17
6392.00153 1.27533e-17
6393.00373 1.28544e-17
6393.99591 1.29686e-17
6394.99811 1.30793e-17
6396.00031 1.31585e-17
6397.00251 1.32198e-17
6398.00471 1.32732e-17
6398.99689 1.33299e-17
6399.99909 1.34042e-17
6401.00129 1.34686e-17
6402.00349 1.35095e-17
6402.99567 1.35069e-17
6403.99787 1.34554e-17
6405.00007 1.33785e-17
6406.00227 1.32897e-17
6407.00447 1.32011e-17
6407.99665 1.31312e-17
6408.99885 1.30983e-17
6410.00105 1.31184e-17
6411.00325 1.32228e-17
6411.99542 1.33663e-17
6412.99762 1.35112e-17
6413.99982 1.36189e-17
6415.00202 1.36507e-17
6416.00422 1.36317e-17
6416.99640 1.35725e-17
6417.99860 1.34799e-17
6419.00080 1.33734e-17
6420.00300 1.32901e-17
6420.99518 1.32564e-17
6421.99738 1.33254e-17
6422.99958 1.34686e-17
6424.00178 1.36383e-17
6425.00398 1.37987e-17
6425.99616 1.38986e-17
6426.99836 1.39494e-17
6428.00056 1.39567e-17
6429.00276 1.39213e-17
6429.99494 1.38479e-17
6430.99714 1.37693e-17
6431.99934 1.37086e-17
6433.00154 1.37079e-17
6434.00374 1.37694e-17
6434.99591 1.38442e-17
6435.99811 1.39068e-17
6437.00031 1.39031e-17
6438.00251 1.39018e-17
6439.00471 1.39005e-17
6439.99689 1.38992e-17
6440.99909 1.38978e-17
6442.00129 1.38963e-17
6443.00349 1.38948e-17
6443.99567 1.38932e-17
6444.99787 1.38915e-17
6446.00007 1.38898e-17
6447.00227 1.38879e-17
6448.00447 1.38859e-17
6448.99665 1.38839e-17
6449.99885 1.38818e-17
6451.00105 1.38795e-17
6452.00325 1.38772e-17
6452.99543 1.38747e-17
6453.99763 1.38721e-17
6454.99983 1.38693e-17
6456.00203 1.38664e-17
6457.00423 1.38582e-17
6457.99640 1.38490e-17
6458.99860 1.38396e-17
6460.00080 1.38301e-17
6461.00300 1.38204e-17
6461.99518 1.38105e-17
6462.99738 1.38005e-17
6463.99958 1.37903e-17
6465.00178 1.37799e-17
6466.00398 1.37693e-17
6466.99616 1.37586e-17
6467.99836 1.37476e-17
6469.00056 1.37365e-17
6470.00276 1.37251e-17
6470.99494 1.37136e-17
6471.99714 1.37018e-17
6472.99934 1.36897e-17
6474.00154 1.36775e-17
6475.00374 1.36650e-17
6475.99592 1.36522e-17
6476.99812 1.35679e-17
6478.00032 1.35103e-17
6479.00252 1.34747e-17
6480.00472 1.34393e-17
6480.99689 1.33908e-17
6481.99909 1.33015e-17
6483.00129 1.31938e-17
6484.00349 1.30901e-17
6484.99567 1.30101e-17
6485.99787 1.29775e-17
6487.00007 1.29828e-17
6488.00227 1.30227e-17
6489.00447 1.30918e-17
6489.99665 1.31835e-17
6490.99885 1.32928e-17
6492.00105 1.34117e-17
6493.00325 1.35401e-17
6493.99543 1.36580e-17
6494.99763 1.37374e-17
6495.99983 1.37586e-17
6497.00203 1.36917e-17
6498.00423 1.35605e-17
6498.99641 1.33914e-17
6499.99861 1.32061e-17
6501.00081 1.30289e-17
6502.00301 1.30278e-17
6502.99518 1.30265e-17
6503.99738 1.30250e-17
6504.99958 1.30233e-17
6506.00178 1.30214e-17
6507.00398 1.30193e-17
6507.99616 1.30172e-17
6508.99836 1.30148e-17
6510.00056 1.30124e-17
6511.00276 1.30098e-17
6512.00496 1.30069e-17
6512.99714 1.30039e-17
6513.99934 1.30007e-17
6515.00154 1.29973e-17
6516.00374 1.29938e-17
6516.99592 1.29902e-17
6517.99812 1.29866e-17
6519.00032 1.29828e-17
6520.00252 1.29790e-17
6521.00472 1.29750e-17
6521.99690 1.29710e-17
6522.99910 1.29669e-17
6524.00130 1.29627e-17
6525.00350 1.30762e-17
6525.99567 1.31931e-17
6526.99787 1.33012e-17
6528.00007 1.33957e-17
6529.00227 1.34734e-17
6530.00447 1.35295e-17
6530.99665 1.35603e-17
6531.99885 1.35854e-17
6533.00105 1.36165e-17
6534.00325 1.36749e-17
6534.99543 1.37624e-17
6535.99763 1.38497e-17
6536.99983 1.39206e-17
6538.00203 1.39514e-17
6539.00423 1.39397e-17
6539.99641 1.38896e-17
6540.99861 1.38021e-17
6542.00081 1.36727e-17
6543.00301 1.35321e-17
6543.99519 1.34053e-17
6544.99739 1.33215e-17
6545.99959 1.33068e-17
6547.00179 1.33222e-17
6548.00399 1.33480e-17
6548.99616 1.33555e-17
6549.99836 1.33320e-17
6551.00056 1.32871e-17
6552.00276 1.32222e-17
6553.00496 1.31296e-17
6553.99714 1.30333e-17
6554.99934 1.29600e-17
6556.00154 1.29347e-17
6557.00374 1.30033e-17
6557.99592 1.31007e-17
6558.99812 1.31826e-17
6560.00032 1.31924e-17
6561.00252 1.30845e-17
6562.00472 1.29486e-17
6562.99690 1.28276e-17
6563.99910 1.27946e-17
6565.00130 1.28594e-17
6566.00350 1.29662e-17
6566.99568 1.30873e-17
6567.99788 1.31901e-17
6569.00008 1.32483e-17
6570.00228 1.32404e-17
6571.00448 1.31416e-17
6571.99665 1.29081e-17
6572.99885 1.26326e-17
6574.00105 1.23806e-17
6575.00325 1.22347e-17
6575.99543 1.22563e-17
6576.99763 1.23590e-17
6577.99983 1.25049e-17
6579.00203 1.26262e-17
6580.00423 1.27073e-17
6580.99641 1.27764e-17
6581.99861 1.28393e-17
6583.00081 1.29180e-17
6584.00301 1.29949e-17
6584.99519 1.30528e-17
6585.99739 1.30784e-17
6586.99959 1.30514e-17
6588.00179 1.30018e-17
6589.00399 1.29483e-17
6589.99617 1.29151e-17
6590.99837 1.29184e-17
6592.00057 1.29344e-17
6593.00277 1.29528e-17
6593.99494 1.29608e-17
6594.99714 1.29491e-17
6595.99934 1.29118e-17
6597.00154 1.28433e-17
6598.00374 1.27255e-17
6598.99592 1.25879e-17
6599.99812 1.24597e-17
6601.00032 1.23686e-17
6602.00252 1.23485e-17
6603.00472 1.23723e-17
6603.99690 1.24250e-17
6604.99910 1.24902e-17
6606.00130 1.25522e-17
6607.00350 1.26015e-17
6607.99568 1.26285e-17
6608.99788 1.26091e-17
6610.00008 1.25581e-17
6611.00228 1.25091e-17
6612.00448 1.24854e-17
6612.99666 1.25309e-17
6613.99886 1.26141e-17
6615.00106 1.27056e-17
6616.00326 1.27802e-17
6616.99543 1.28103e-17
6617.99763 1.27976e-17
6618.99983 1.27407e-17
6620.00203 1.26273e-17
6621.00423 1.24660e-17
6621.99641 1.23186e-17
6622.99861 1.22227e-17
6624.00081 1.22510e-17
6625.00301 1.23825e-17
6625.99519 1.25579e-17
6626.99739 1.27377e-17
6627.99959 1.28609e-17
6629.00179 1.29341e-17
6630.00399 1.29607e-17
6630.99617 1.29403e-17
6631.99837 1.28761e-17
6633.00057 1.27866e-17
6634.00277 1.26886e-17
6635.00497 1.26045e-17
6635.99715 1.25496e-17
6636.99935 1.25220e-17
6638.00155 1.25261e-17
6639.00375 1.25571e-17
6639.99592 1.26252e-17
6640.99812 1.27421e-17
6642.00032 1.29143e-17
6643.00252 1.31566e-17
6644.00472 1.34347e-17
6644.99690 1.37173e-17
6645.99910 1.39745e-17
6647.00130 1.41761e-17
6648.00350 1.43087e-17
6648.99568 1.43588e-17
6649.99788 1.43079e-17
6651.00008 1.41581e-17
6652.00228 1.39433e-17
6653.00448 1.36883e-17
6653.99666 1.34269e-17
6654.99886 1.31772e-17
6656.00106 1.29530e-17
6657.00326 1.27703e-17
6657.99544 1.26464e-17
6658.99764 1.25761e-17
6659.99984 1.25542e-17
6661.00204 1.25726e-17
6662.00424 1.26206e-17
6662.99641 1.26993e-17
6663.99861 1.28033e-17
6665.00081 1.29308e-17
6666.00301 1.30704e-17
6666.99519 1.31983e-17
6667.99739 1.32976e-17
6668.99959 1.33506e-17
6670.00179 1.33487e-17
6671.00399 1.32883e-17
6671.99617 1.31653e-17
6672.99837 1.29639e-17
6674.00057 1.27423e-17
6675.00277 1.25447e-17
6676.00497 1.24258e-17
6676.99715 1.24298e-17
6677.99935 1.24861e-17
6679.00155 1.25605e-17
6680.00375 1.25946e-17
6680.99593 1.25748e-17
6681.99813 1.25353e-17
6683.00033 1.24888e-17
6684.00253 1.24594e-17
6685.00473 1.24475e-17
6685.99690 1.24512e-17
6686.99910 1.24715e-17
6688.00130 1.25058e-17
6689.00350 1.25592e-17
6689.99568 1.26323e-17
6690.99788 1.27296e-17
6692.00008 1.28496e-17
6693.00228 1.29560e-17
6694.00448 1.30259e-17
6694.99666 1.30280e-17
6695.99886 1.29554e-17
6697.00106 1.28219e-17
6698.00326 1.26363e-17
6698.99544 1.24014e-17
6699.99764 1.21524e-17
6700.99984 1.19253e-17
6702.00204 1.17543e-17
6703.00424 1.16792e-17
6703.99642 1.16791e-17
6704.99862 1.17406e-17
6706.00082 1.18525e-17
6707.00302 1.19964e-17
6707.99519 1.21343e-17
6708.99739 1.22374e-17
6709.99959 1.22588e-17
6711.00179 1.22011e-17
6712.00399 1.20998e-17
6712.99617 1.19773e-17
6713.99837 1.18635e-17
6715.00057 1.17724e-17
6716.00277 1.17159e-17
6716.99495 1.17092e-17
6717.99715 1.17716e-17
6718.99935 1.18622e-17
6720.00155 1.19534e-17
6721.00375 1.20098e-17
6721.99593 1.20075e-17
6722.99813 1.19658e-17
6724.00033 1.18904e-17
6725.00253 1.17903e-17
6726.00473 1.16762e-17
6726.99691 1.15598e-17
6727.99911 1.14530e-17
6729.00131 1.13672e-17
6730.00351 1.13111e-17
6730.99568 1.12904e-17
6731.99788 1.13126e-17
6733.00008 1.13873e-17
6734.00228 1.14752e-17
6735.00448 1.15499e-17
6735.99666 1.15762e-17
6736.99886 1.15364e-17
6738.00106 1.14599e-17
6739.00326 1.13606e-17
6739.99544 1.12571e-17
6740.99764 1.11641e-17
6741.99984 1.10943e-17
6743.00204 1.10610e-17
6744.00424 1.10863e-17
6744.99642 1.11506e-17
6745.99862 1.12365e-17
6747.00082 1.13246e-17
6748.00302 1.13925e-17
6748.99520 1.14595e-17
6749.99740 1.15325e-17
6750.99960 1.16235e-17
6752.00180 1.17348e-17
6753.00400 1.18464e-17
6753.99617 1.19476e-17
6754.99837 1.20281e-17
6756.00057 1.20767e-17
6757.00277 1.20840e-17
6758.00497 1.20418e-17
6758.99715 1.19304e-17
6759.99935 1.17873e-17
6761.00155 1.16435e-17
6762.00375 1.15320e-17
6762.99593 1.14859e-17
6763.99813 1.14763e-17
6765.00033 1.14897e-17
6766.00253 1.15103e-17
6767.00473 1.15231e-17
6767.99691 1.15168e-17
6768.99911 1.14804e-17
6770.00131 1.13898e-17
6771.00351 1.12630e-17
6771.99569 1.11280e-17
6772.99789 1.10071e-17
6774.00009 1.09340e-17
6775.00229 1.08924e-17
6776.00449 1.08718e-17
6776.99666 1.08619e-17
6777.99886 1.08510e-17
6779.00106 1.08417e-17
6780.00326 1.08320e-17
6780.99544 1.08200e-17
6781.99764 1.08049e-17
6782.99984 1.07866e-17
6784.00204 1.07660e-17
6785.00424 1.07409e-17
6785.99642 1.07189e-17
6786.99862 1.07089e-17
6788.00082 1.07171e-17
6789.00302 1.07490e-17
6789.99520 1.08045e-17
6790.99740 1.08807e-17
6791.99960 1.09840e-17
6793.00180 1.11156e-17
6794.00400 1.12050e-17
6794.99618 1.12134e-17
6795.99838 1.10594e-17
6797.00058 1.07604e-17
6798.00278 1.04359e-17
6799.00498 1.01577e-17
6799.99715 1.00580e-17
6800.99935 1.00960e-17
6802.00155 1.02123e-17
6803.00375 1.03623e-17
6803.99593 1.04743e-17
6804.99813 1.05923e-17
6806.00033 1.07341e-17
6807.00253 1.09239e-17
6808.00473 1.11762e-17
6808.99691 1.14275e-17
6809.99911 1.16436e-17
6811.00131 1.17729e-17
6812.00351 1.18053e-17
6812.99569 1.17663e-17
6813.99789 1.16681e-17
6815.00009 1.15279e-17
6816.00229 1.13622e-17
6817.00449 1.11877e-17
6817.99667 1.10242e-17
6818.99887 1.08979e-17
6820.00107 1.13354e-17
6821.00327 1.11554e-17
6821.99544 1.09087e-17
6822.99764 1.05896e-17
6823.99984 1.02748e-17
6825.00204 1.00038e-17
6826.00424 9.83108e-18
6826.99642 9.76331e-18
6827.99862 9.77761e-18
6829.00082 9.86490e-18
6830.00302 1.00171e-17
6830.99520 1.02081e-17
6831.99740 1.04093e-17
6832.99960 1.05882e-17
6834.00180 1.07051e-17
6835.00400 1.07743e-17
6835.99618 1.08024e-17
6836.99838 1.07977e-17
6838.00058 1.07721e-17
6839.00278 1.07401e-17
6839.99496 1.07149e-17
6840.99716 1.07200e-17
6841.99936 1.07524e-17
6843.00156 1.07947e-17
6844.00376 1.08350e-17
6844.99593 1.08522e-17
6845.99813 1.08541e-17
6847.00033 1.08560e-17
6848.00253 1.08579e-17
6849.00473 1.08598e-17
6849.99691 1.08617e-17
6850.99911 1.08636e-17
6852.00131 1.08654e-17
6853.00351 1.08673e-17
6853.99569 1.08692e-17
6854.99789 1.08711e-17
6856.00009 1.08730e-17
6857.00229 1.08749e-17
6858.00449 1.08768e-17
6858.99667 1.08787e-17
6859.99887 1.08805e-17
6861.00107 1.08824e-17
6862.00327 1.08843e-17
6862.99545 1.08862e-17
6863.99765 1.08881e-17
6864.99985 1.08900e-17
6866.00205 1.08919e-17
6867.00425 1.08937e-17
6867.99642 1.08956e-17
6868.99862 1.08975e-17
6870.00082 1.08994e-17
6871.00302 1.09013e-17
6871.99520 1.09032e-17
6872.99740 1.09050e-17
6873.99960 1.09069e-17
6875.00180 1.09088e-17
6876.00400 1.09107e-17
6876.99618 1.09126e-17
6877.99838 1.09145e-17
6879.00058 1.09163e-17
6880.00278 1.09182e-17
6881.00498 1.09201e-17
6881.99716 1.09220e-17
6882.99936 1.09239e-17
6884.00156 1.09258e-17
6885.00376 1.09276e-17
6885.99594 1.09295e-17
6886.99814 1.09314e-17
6888.00034 1.09333e-17
6889.00254 1.09352e-17
6890.00474 1.09371e-17
6890.99691 1.09389e-17
6891.99911 1.09408e-17
6893.00131 1.09427e-17
6894.00351 1.09446e-17
6894.99569 1.09465e-17
6895.99789 1.09483e-17
6897.00009 1.09502e-17
6898.00229 1.09521e-17
6899.00449 1.09540e-17
6899.99667 1.09559e-17
6900.99887 1.09577e-17
6902.00107 1.09596e-17
6903.00327 1.09615e-17
6903.99545 1.09634e-17
6904.99765 1.09653e-17
6905.99985 1.09671e-17
6907.00205 1.09690e-17
6908.00425 1.09709e-17
6908.99643 1.09728e-17
6909.99863 1.09747e-17
6911.00083 1.09765e-17
6912.00303 1.09784e-17
6912.99520 1.09803e-17
6913.99740 1.09822e-17
6914.99960 1.09841e-17
6916.00180 1.09859e-17
6917.00400 1.09878e-17
6917.99618 1.09897e-17
6918.99838 1.09916e-17
6920.00058 1.09934e-17
6921.00278 1.09953e-17
6922.00498 1.09972e-17
6922.99716 1.09991e-17
6923.99936 1.10010e-17
6925.00156 1.10028e-17
6926.00376 1.10047e-17
6926.99594 1.10066e-17
6927.99814 1.10085e-17
6929.00034 1.10103e-17
6930.00254 1.10122e-17
6931.00474 1.10141e-17
6931.99692 1.10160e-17
6932.99912 1.10178e-17
6934.00132 1.10197e-17
6935.00352 1.10216e-17
6935.99569 1.12208e-17
6936.99789 1.14138e-17
6938.00009 1.15711e-17
6939.00229 1.16625e-17
6940.00449 1.16702e-17
6940.99667 1.15872e-17
6941.99887 1.13806e-17
6943.00107 1.10883e-17
6944.00327 1.07922e-17
6944.99545 1.05497e-17
6945.99765 1.04674e-17
6946.99985 1.04898e-17
6948.00205 1.05605e-17
6949.00425 1.06296e-17
6949.99643 1.06265e-17
6950.99863 1.06206e-17
6952.00083 1.06447e-17
6953.00303 1.07459e-17
6953.99521 1.09523e-17
6954.99741 1.12007e-17
6955.99961 1.14565e-17
6957.00181 1.16361e-17
6958.00401 1.17361e-17
6958.99618 1.17985e-17
6959.99838 1.18339e-17
6961.00058 1.18074e-17
6962.00278 1.17808e-17
6962.99496 1.17542e-17
6963.99716 1.17275e-17
6964.99936 1.17008e-17
6966.00156 1.16741e-17
6967.00376 1.16473e-17
6967.99594 1.16206e-17
6968.99814 1.15937e-17
6970.00034 1.15669e-17
6971.00254 1.15400e-17
6972.00474 1.15131e-17
6972.99692 1.14862e-17
6973.99912 1.14593e-17
6975.00132 1.14323e-17
6976.00352 1.14054e-17
6976.99570 1.13785e-17
6977.99790 1.13517e-17
6979.00010 1.13248e-17
6980.00230 1.12980e-17
6981.00450 1.12712e-17
6981.99667 1.12443e-17
6982.99887 1.10360e-17
6984.00107 1.07607e-17
6985.00327 1.05080e-17
6985.99545 1.03366e-17
6986.99765 1.03521e-17
6987.99985 1.05241e-17
6989.00205 1.07793e-17
6990.00425 1.10647e-17
6990.99643 1.12817e-17
6991.99863 1.14573e-17
6993.00083 1.16038e-17
6994.00303 1.17348e-17
6994.99521 1.18718e-17
6995.99741 1.19489e-17
6996.99961 1.19348e-17
6998.00181 1.17757e-17
6999.00401 1.14842e-17
6999.99619 1.11715e-17
7000.99839 1.08982e-17
7002.00059 1.07505e-17
7003.00279 1.07208e-17
7003.99496 1.07801e-17
7004.99716 1.09142e-17
7005.99936 1.11085e-17
7007.00156 1.13284e-17
7008.00376 1.15379e-17
7008.99594 1.16960e-17
7009.99814 1.17625e-17
7011.00034 1.17259e-17
7012.00254 1.15788e-17
7012.99472 1.13036e-17
7013.99692 1.09394e-17
7014.99912 1.05796e-17
7016.00132 1.02786e-17
7017.00352 1.01047e-17
7017.99570 1.00510e-17
7018.99790 1.00992e-17
7020.00010 1.02453e-17
7021.00230 1.05011e-17
7022.00450 1.07970e-17
7022.99668 1.10658e-17
7023.99888 1.12033e-17
7025.00108 1.11211e-17
7026.00328 1.09690e-17
7026.99545 1.08224e-17
7027.99765 1.08034e-17
7028.99985 1.09219e-17
7030.00205 1.10757e-17
7031.00425 1.12195e-17
7031.99643 1.12528e-17
7032.99863 1.12141e-17
7034.00083 1.11554e-17
7035.00303 1.11139e-17
7035.99521 1.11552e-17
7036.99741 1.12153e-17
7037.99961 1.12554e-17
7039.00181 1.12233e-17
7040.00401 1.10866e-17
7040.99619 1.09389e-17
7041.99839 1.08199e-17
7043.00059 1.07971e-17
7044.00279 1.08656e-17
7045.00499 1.09634e-17
7045.99717 1.10578e-17
7046.99937 1.10776e-17
7048.00157 1.10507e-17
7049.00377 1.10117e-17
7049.99594 1.09862e-17
7050.99814 1.10124e-17
7052.00034 1.10610e-17
7053.00254 1.11159e-17
7054.00474 1.11607e-17
7054.99692 1.11802e-17
7055.99912 1.11715e-17
7057.00132 1.11307e-17
7058.00352 1.10456e-17
7058.99570 1.09324e-17
7059.99790 1.08234e-17
7061.00010 1.07393e-17
7062.00230 1.07100e-17
7063.00450 1.07303e-17
7063.99668 1.07945e-17
7064.99888 1.08994e-17
7066.00108 1.10399e-17
7067.00328 1.11971e-17
7067.99546 1.13508e-17
7068.99766 1.14778e-17
7069.99986 1.15565e-17
7071.00206 1.15754e-17
7072.00426 1.15273e-17
7072.99643 1.13972e-17
7073.99863 1.12061e-17
7075.00083 1.09938e-17
7076.00303 1.07916e-17
7076.99521 1.06370e-17
7077.99741 1.05379e-17
7078.99961 1.04982e-17
7080.00181 1.05234e-17
7081.00401 1.06190e-17
7081.99619 1.07602e-17
7082.99839 1.09284e-17
7084.00059 1.11013e-17
7085.00279 1.12595e-17
7085.99497 1.13967e-17
7086.99717 1.15025e-17
7087.99937 1.15628e-17
7089.00157 1.15783e-17
7090.00377 1.15581e-17
7090.99595 1.15105e-17
7091.99815 1.14384e-17
7093.00035 1.13720e-17
7094.00255 1.13353e-17
7095.00475 1.13573e-17
7095.99692 1.14727e-17
7096.99912 1.16014e-17
7098.00132 1.16937e-17
7099.00352 1.16731e-17
7099.99570 1.15147e-17
7100.99790 1.13023e-17
7102.00010 1.10759e-17
7103.00230 1.08960e-17
7104.00450 1.07651e-17
7104.99668 1.06702e-17
7105.99888 1.06102e-17
7107.00108 1.05761e-17
7108.00328 1.05805e-17
7108.99546 1.06323e-17
7109.99766 1.07356e-17
7110.99986 1.08908e-17
7112.00206 1.11088e-17
7113.00426 1.13922e-17
7113.99644 1.17757e-17
7114.99864 1.22436e-17
7116.00084 1.26690e-17
7117.00304 1.29576e-17
7117.99521 1.29184e-17
7118.99741 1.26249e-17
7119.99961 1.22292e-17
7121.00181 1.18398e-17
7122.00401 1.15900e-17
7122.99619 1.14572e-17
7123.99839 1.14307e-17
7125.00059 1.15210e-17
7126.00279 1.17363e-17
7126.99497 1.19483e-17
7127.99717 1.20658e-17
7128.99937 1.19168e-17
7130.00157 1.15061e-17
7131.00377 1.10575e-17
7131.99595 1.06764e-17
7132.99815 1.05308e-17
7134.00035 1.05571e-17
7135.00255 1.06658e-17
7136.00475 1.08017e-17
7136.99693 1.08784e-17
7137.99913 1.09180e-17
7139.00133 1.09245e-17
7140.00353 1.08991e-17
7140.99570 1.08478e-17
7141.99790 1.07747e-17
7143.00010 1.06889e-17
7144.00230 1.05965e-17
7145.00450 1.05115e-17
7145.99668 1.04552e-17
7146.99888 1.04419e-17
7148.00108 1.04966e-17
7149.00328 1.06072e-17
7149.99546 1.07558e-17
7150.99766 1.09272e-17
7151.99986 1.11036e-17
7153.00206 1.12616e-17
7154.00426 1.13799e-17
7154.99644 1.14312e-17
7155.99864 1.13987e-17
7157.00084 1.13238e-17
7158.00304 1.12315e-17
7158.99522 1.11550e-17
7159.99742 1.11104e-17
7160.99962 1.10975e-17
7162.00182 1.11220e-17
7163.00402 1.11944e-17
7163.99619 1.12989e-17
7164.99839 1.14161e-17
7166.00059 1.15275e-17
7167.00279 1.16129e-17
7168.00499 1.16548e-17
7168.99717 1.16390e-17
7169.99937 1.15426e-17
7171.00157 1.13619e-17
7172.00377 1.11673e-17
7172.99595 1.09962e-17
7173.99815 1.09169e-17
7175.00035 1.09187e-17
7176.00255 1.09404e-17
7177.00475 1.09483e-17
7177.99693 1.08693e-17
7178.99913 1.07486e-17
7180.00133 1.06338e-17
7181.00353 1.05626e-17
7181.99571 1.05795e-17
7182.99791 1.06734e-17
7184.00011 1.08430e-17
7185.00231 1.10984e-17
7186.00451 1.14419e-17
7186.99668 1.18214e-17
7187.99888 1.21884e-17
7189.00108 1.24581e-17
7190.00328 1.25873e-17
7190.99546 1.25768e-17
7191.99766 1.24304e-17
7192.99986 1.21381e-17
7194.00206 1.18036e-17
7195.00426 1.15118e-17
7195.99644 1.13343e-17
7196.99864 1.13487e-17
7198.00084 1.14824e-17
7199.00304 1.17012e-17
7199.99522 1.19661e-17
7200.99742 1.22335e-17
7201.99962 1.24687e-17
7203.00182 1.26319e-17
7204.00402 1.26404e-17
7204.99620 1.25337e-17
7205.99840 1.24026e-17
7207.00060 1.23081e-17
7208.00280 1.23586e-17
7208.99497 1.24710e-17
7209.99717 1.25794e-17
7210.99937 1.26256e-17
7212.00157 1.25440e-17
7213.00377 1.23862e-17
7213.99595 1.21779e-17
7214.99815 1.19430e-17
7216.00035 1.17166e-17
7217.00255 1.15431e-17
7218.00475 1.14496e-17
7218.99693 1.14855e-17
7219.99913 1.16292e-17
7221.00133 1.18364e-17
7222.00353 1.20757e-17
7222.99571 1.23070e-17
7223.99791 1.24972e-17
7225.00011 1.26142e-17
7226.00231 1.26101e-17
7227.00451 1.24404e-17
7227.99669 1.22435e-17
7228.99889 1.20970e-17
7230.00109 1.21234e-17
7231.00329 1.23515e-17
7231.99546 1.26387e-17
7232.99766 1.29078e-17
7233.99986 1.30238e-17
7235.00206 1.29699e-17
7236.00426 1.27720e-17
7236.99644 1.24417e-17
7237.99864 1.19824e-17
7239.00084 1.14681e-17
7240.00304 1.15291e-17
7240.99522 1.15900e-17
7241.99742 1.16508e-17
7242.99962 1.17114e-17
7244.00182 1.17719e-17
7245.00402 1.18322e-17
7245.99620 1.18923e-17
7246.99840 1.19523e-17
7248.00060 1.20120e-17
7249.00280 1.20716e-17
7249.99498 1.21309e-17
7250.99718 1.21899e-17
7251.99938 1.22487e-17
7253.00158 1.23073e-17
7254.00378 1.23657e-17
7254.99595 1.23793e-17
7255.99815 1.24050e-17
7257.00035 1.24306e-17
7258.00255 1.24560e-17
7259.00475 1.24811e-17
7259.99693 1.25061e-17
7260.99913 1.25308e-17
7262.00133 1.25554e-17
7263.00353 1.25798e-17
7263.99571 1.26039e-17
7264.99791 1.26279e-17
7266.00011 1.26518e-17
7267.00231 1.26754e-17
7268.00451 1.28913e-17
7268.99669 1.28887e-17
7269.99889 1.27574e-17
7271.00109 1.26023e-17
7272.00329 1.25120e-17
7272.99547 1.24324e-17
7273.99767 1.23619e-17
7274.99987 1.22991e-17
7276.00207 1.22382e-17
7277.00427 1.21718e-17
7277.99644 1.20925e-17
7278.99864 1.19661e-17
7280.00084 1.18414e-17
7281.00304 1.17672e-17
7281.99522 1.17841e-17
7282.99742 1.19532e-17
7283.99962 1.21953e-17
7285.00182 1.24571e-17
7286.00402 1.26765e-17
7286.99620 1.27974e-17
7287.99840 1.28246e-17
7289.00060 1.27497e-17
7290.00280 1.25502e-17
7291.00500 1.22628e-17
7291.99718 1.19607e-17
7292.99938 1.16969e-17
7294.00158 1.15591e-17
7295.00378 1.15061e-17
7295.99596 1.14955e-17
7296.99816 1.14904e-17
7298.00036 1.14359e-17
7299.00256 1.13881e-17
7300.00476 1.13730e-17
7300.99693 1.14340e-17
7301.99913 1.15929e-17
7303.00133 1.17659e-17
7304.00353 1.19051e-17
7304.99571 1.19173e-17
7305.99791 1.18128e-17
7307.00011 1.16599e-17
7308.00231 1.14972e-17
7309.00451 1.13807e-17
7309.99669 1.12979e-17
7310.99889 1.12393e-17
7312.00109 1.12030e-17
7313.00329 1.11874e-17
7313.99547 1.11745e-17
7314.99767 1.11514e-17
7315.99987 1.10861e-17
7317.00207 1.09737e-17
7318.00427 1.08853e-17
7318.99645 1.08508e-17
7319.99865 1.09616e-17
7321.00085 1.11584e-17
7322.00305 1.13133e-17
7322.99522 1.13328e-17
7323.99742 1.10674e-17
7324.99962 1.06525e-17
7326.00182 1.02000e-17
7327.00402 9.78465e-18
7327.99620 9.46459e-18
7328.99840 9.24105e-18
7330.00060 9.12382e-18
7331.00280 9.14625e-18
7331.99498 9.31396e-18
7332.99718 9.55263e-18
7333.99938 9.81207e-18
7335.00158 9.96413e-18
7336.00378 1.00192e-17
7336.99596 1.00473e-17
7337.99816 1.00932e-17
7339.00036 1.02543e-17
7340.00256 1.04533e-17
7341.00476 1.06306e-17
7341.99694 1.07168e-17
7342.99914 1.06308e-17
7344.00134 1.04975e-17
7345.00354 1.03834e-17
7345.99571 1.03941e-17
7346.99791 1.05606e-17
7348.00011 1.07804e-17
7349.00231 1.10075e-17
7350.00451 1.11669e-17
7350.99669 1.12503e-17
7351.99889 1.12643e-17
7353.00109 1.12031e-17
7354.00329 1.10604e-17
7354.99547 1.08834e-17
7355.99767 1.07118e-17
7356.99987 1.05824e-17
7358.00207 1.05252e-17
7359.00427 1.05162e-17
7359.99645 1.05457e-17
7360.99865 1.07189e-17
7362.00085 1.06816e-17
7363.00305 1.06095e-17
7363.99523 1.05056e-17
7364.99743 1.03752e-17
7365.99963 1.02255e-17
7367.00183 1.00651e-17
7368.00403 9.90273e-18
7368.99620 9.74493e-18
7369.99840 9.60827e-18
7371.00060 9.50561e-18
7372.00280 9.45186e-18
7372.99498 9.45779e-18
7373.99718 9.49771e-18
7374.99938 9.55567e-18
7376.00158 9.61246e-18
7377.00378 9.65409e-18
7377.99596 9.67403e-18
7378.99816 9.66512e-18
7380.00036 9.60592e-18
7381.00256 9.52399e-18
7382.00476 9.45189e-18
7382.99694 9.41774e-18
7383.99914 9.46300e-18
7385.00134 9.54944e-18
7386.00354 9.65107e-18
7386.99572 9.74249e-18
7387.99792 9.79882e-18
7389.00012 9.80787e-18
7390.00232 9.75803e-18
7391.00452 9.62072e-18
7391.99669 9.41371e-18
7392.99889 9.19450e-18
7394.00109 9.00224e-18
7395.00329 8.90271e-18
7395.99547 8.87944e-18
7396.99767 8.90832e-18
7397.99987 8.97141e-18
7399.00207 9.04297e-18
7400.00427 9.11902e-18
7400.99645 9.18998e-18
7401.99865 9.24473e-18
7403.00085 9.27445e-18
7404.00305 9.27741e-18
7404.99523 9.25191e-18
7405.99743 9.19674e-18
7406.99963 9.11582e-18
7408.00183 9.01692e-18
7409.00403 8.90760e-18
7409.99621 8.79130e-18
7410.99841 8.68522e-18
7412.00061 8.60484e-18
7413.00281 8.56570e-18
7414.00501 8.58866e-18
7414.99718 8.63776e-18
7415.99938 8.68894e-18
7417.00158 8.71420e-18
7418.00378 8.69282e-18
7418.99596 8.63397e-18
7419.99816 8.54000e-18
7421.00036 8.40106e-18
7422.00256 8.24328e-18
7423.00476 8.11071e-18
7423.99694 8.03608e-18
7424.99914 8.08275e-18
7426.00134 8.19982e-18
7427.00354 8.33797e-18
7427.99572 8.45128e-18
7428.99792 8.48380e-18
7430.00012 8.46635e-18
7431.00232 8.41073e-18
7432.00452 8.32940e-18
7432.99670 8.23725e-18
7433.99890 8.14895e-18
7435.00110 8.07841e-18
7436.00330 8.05377e-18
7436.99547 8.06421e-18
7437.99767 8.08185e-18
7438.99987 8.08782e-18
7440.00207 8.05224e-18
7441.00427 7.98475e-18
7441.99645 7.89442e-18
7442.99865 7.78590e-18
7444.00085 7.66332e-18
7445.00305 7.55630e-18
7445.99523 7.48468e-18
7446.99743 7.48417e-18
7447.99963 7.56063e-18
7449.00183 7.65206e-18
7450.00403 7.72482e-18
7450.99621 7.71354e-18
7451.99841 7.63209e-18
7453.00061 7.52165e-18
7454.00281 7.40765e-18
7454.99499 7.32848e-18
7455.99719 7.28006e-18
7456.99939 7.26048e-18
7458.00159 7.27373e-18
7459.00379 7.32323e-18
7459.99596 7.36711e-18
7460.99816 7.37866e-18
7462.00036 7.31186e-18
7463.00256 7.15886e-18
7464.00476 6.98110e-18
7464.99694 6.81106e-18
7465.99914 6.70855e-18
7467.00134 6.66477e-18
7468.00354 6.65239e-18
7468.99572 6.65624e-18
7469.99792 6.65857e-18
7471.00012 6.64342e-18
7472.00232 6.59741e-18
7473.00452 6.49815e-18
7473.99670 6.32606e-18
7474.99890 6.15564e-18
7476.00110 6.02970e-18
7477.00330 6.02296e-18
7477.99548 6.14517e-18
7478.99768 6.31205e-18
7479.99988 6.71996e-18
7481.00208 6.75354e-18
7482.00428 6.74155e-18
7482.99645 6.71432e-18
7483.99865 6.69206e-18
7485.00085 6.70597e-18
7486.00305 6.74049e-18
7486.99523 6.78657e-18
7487.99743 6.83680e-18
7488.99963 6.88249e-18
7490.00183 6.91454e-18
7491.00403 6.92515e-18
7491.99621 6.90104e-18
7492.99841 6.84383e-18
7494.00061 6.77136e-18
7495.00281 6.69472e-18
7495.99499 6.63019e-18
7496.99719 6.58036e-18
7497.99939 6.54570e-18
7499.00159 6.52885e-18
7500.00379 6.53387e-18
7500.99597 6.56302e-18
7501.99817 6.59216e-18
7503.00037 6.62130e-18
7504.00257 6.65044e-18
7505.00477 6.67957e-18
7505.99694 6.70872e-18
7506.99914 6.73786e-18
7508.00134 6.76701e-18
7509.00354 6.79617e-18
7509.99572 6.82532e-18
7510.99792 6.85450e-18
7512.00012 6.88367e-18
7513.00232 6.91287e-18
7514.00452 6.94209e-18
7514.99670 6.97132e-18
7515.99890 7.00057e-18
7517.00110 7.02985e-18
7518.00330 7.05915e-18
7518.99548 7.08847e-18
7519.99768 6.71791e-18
7520.99988 6.38122e-18
7522.00208 6.15830e-18
7523.00428 6.05551e-18
7523.99646 6.03088e-18
7524.99866 6.06312e-18
7526.00086 6.11053e-18
7527.00306 6.16139e-18
7527.99523 6.20475e-18
7528.99743 6.22627e-18
7529.99963 6.21251e-18
7531.00183 6.17756e-18
7532.00403 6.12981e-18
7532.99621 6.08026e-18
7533.99841 6.03594e-18
7535.00061 5.98786e-18
7536.00281 5.93434e-18
7537.00501 5.86711e-18
7537.99719 5.79244e-18
7538.99939 5.72495e-18
7540.00159 5.67510e-18
7541.00379 5.66474e-18
7541.99597 5.67712e-18
7542.99817 5.69374e-18
7544.00037 5.69892e-18
7545.00257 5.67745e-18
7546.00477 5.61778e-18
7546.99695 5.51503e-18
7547.99915 5.34784e-18
7549.00135 5.12854e-18
7550.00355 4.94893e-18
7550.99572 4.96133e-18
7551.99792 4.97374e-18
7553.00012 4.98614e-18
7554.00232 4.99855e-18
7555.00452 5.01095e-18
7555.99670 5.02335e-18
7556.99890 5.03575e-18
7558.00110 5.04815e-18
7559.00330 5.06055e-18
7559.99548 5.07295e-18
7560.99768 5.08535e-18
7561.99988 5.09775e-18
7563.00208 5.11015e-18
7564.00428 5.12254e-18
7564.99646 5.13494e-18
7565.99866 5.14733e-18
7567.00086 5.15972e-18
7568.00306 5.17212e-18
7568.99524 5.18451e-18
7569.99744 5.19690e-18
7570.99964 5.20929e-18
7572.00184 5.22168e-18
7573.00404 5.23407e-18
7573.99621 5.24646e-18
7574.99841 5.25885e-18
7576.00061 5.27123e-18
7577.00281 5.28362e-18
7577.99499 5.29600e-18
7578.99719 5.30839e-18
7579.99939 5.32077e-18
7581.00159 5.33315e-18
7582.00379 5.34554e-18
7582.99597 5.35792e-18
7583.99817 5.37030e-18
7585.00037 5.38268e-18
7586.00257 5.39506e-18
7587.00477 5.40743e-18
7587.99695 5.41981e-18
7588.99915 5.43219e-18
7590.00135 5.44456e-18
7591.00355 5.45694e-18
7591.99573 5.46931e-18
7592.99793 5.48168e-18
7594.00013 5.49406e-18
7595.00233 5.50643e-18
7596.00453 5.51880e-18
7596.99670 5.53117e-18
7597.99890 5.54354e-18
7599.00110 5.55591e-18
7600.00330 5.56828e-18
7600.99548 5.58064e-18
7601.99768 5.59301e-18
7602.99988 5.60537e-18
7604.00208 5.61774e-18
7605.00428 5.63010e-18
7605.99646 5.64247e-18
7606.99866 5.65483e-18
7608.00086 5.66719e-18
7609.00306 5.67955e-18
7609.99524 5.69191e-18
7610.99744 5.70427e-18
7611.99964 5.71663e-18
7613.00184 5.72899e-18
7614.00404 5.74134e-18
7614.99622 5.75370e-18
7615.99842 5.76605e-18
7617.00062 5.77841e-18
7618.00282 5.79076e-18
7618.99499 5.80312e-18
7619.99719 5.81547e-18
7620.99939 5.82782e-18
7622.00159 5.84017e-18
7623.00379 5.85252e-18
7623.99597 5.86487e-18
7624.99817 5.87722e-18
7626.00037 5.88956e-18
7627.00257 5.90191e-18
7628.00477 5.91426e-18
7628.99695 5.92660e-18
7629.99915 5.93895e-18
7631.00135 5.95129e-18
7632.00355 5.96363e-18
7632.99573 5.97598e-18
7633.99793 5.98832e-18
7635.00013 6.00066e-18
7636.00233 6.01300e-18
7637.00453 6.02533e-18
7637.99671 6.03767e-18
7638.99891 6.05001e-18
7640.00111 6.06235e-18
7641.00331 6.07468e-18
7641.99548 6.08702e-18
7642.99768 6.09935e-18
7643.99988 6.11168e-18
7645.00208 6.12402e-18
7646.00428 6.13635e-18
7646.99646 6.14868e-18
7647.99866 6.16101e-18
7649.00086 6.17334e-18
7650.00306 6.18567e-18
7650.99524 6.19800e-18
7651.99744 6.21032e-18
7652.99964 6.22265e-18
7654.00184 6.23498e-18
7655.00404 6.24730e-18
7655.99622 6.25962e-18
7656.99842 6.27195e-18
7658.00062 6.28427e-18
7659.00282 6.29659e-18
7660.00502 6.30891e-18
7660.99720 6.32123e-18
7661.99940 6.33355e-18
7663.00160 6.34587e-18
7664.00380 6.35819e-18
7664.99597 6.37051e-18
7665.99817 6.38282e-18
7667.00037 6.39514e-18
7668.00257 6.40745e-18
7669.00477 6.41977e-18
7669.99695 6.43208e-18
7670.99915 6.44439e-18
7672.00135 6.45670e-18
7673.00355 6.46901e-18
7673.99573 6.48132e-18
7674.99793 6.49363e-18
7676.00013 6.50594e-18
7677.00233 6.51825e-18
7678.00453 6.53055e-18
7678.99671 6.54286e-18
7679.99891 6.55516e-18
7681.00111 6.61756e-18
7682.00331 6.72792e-18
7682.99549 6.92062e-18
7683.99769 7.16235e-18
7684.99989 7.39838e-18
7686.00209 7.58976e-18
7687.00429 7.68317e-18
7687.99646 7.68920e-18
7688.99866 7.61697e-18
7690.00086 7.47389e-18
7691.00306 7.27587e-18
7691.99524 7.07163e-18
7692.99744 6.89403e-18
7693.99964 6.77678e-18
7695.00184 6.73582e-18
7696.00404 6.76257e-18
7696.99622 6.85732e-18
7697.99842 7.03301e-18
7699.00062 7.26346e-18
7700.00282 7.50512e-18
7700.99500 7.71104e-18
7701.99720 7.80731e-18
7702.99940 7.82340e-18
7704.00160 7.78807e-18
7705.00380 7.72615e-18
7705.99598 7.66271e-18
7706.99818 7.62943e-18
7708.00038 7.64953e-18
7709.00258 7.77103e-18
7710.00478 7.99835e-18
7710.99695 8.26039e-18
7711.99915 8.50680e-18
7713.00135 8.63628e-18
7714.00355 8.64615e-18
7714.99573 8.56575e-18
7715.99793 8.41598e-18
7717.00013 8.22536e-18
7718.00233 8.01774e-18
7719.00453 7.81851e-18
7719.99671 7.65315e-18
7720.99891 7.54175e-18
7722.00111 7.47756e-18
7723.00331 7.45542e-18
7723.99549 7.48063e-18
7724.99769 7.54107e-18
7725.99989 7.59964e-18
7727.00209 7.62604e-18
7728.00429 7.55278e-18
7728.99647 7.41841e-18
7729.99867 7.27626e-18
7731.00087 7.16205e-18
7732.00307 7.11797e-18
7732.99524 7.12598e-18
7733.99744 7.17937e-18
7734.99964 7.27765e-18
7736.00184 7.41426e-18
7737.00404 7.54394e-18
7737.99622 7.62779e-18
7738.99842 7.60471e-18
7740.00062 7.46733e-18
7741.00282 7.26269e-18
7741.99500 7.02340e-18
7742.99720 6.78065e-18
7743.99940 6.56714e-18
7745.00160 6.41132e-18
7746.00380 6.33559e-18
7746.99598 6.35829e-18
7747.99818 6.48083e-18
7749.00038 6.70365e-18
7750.00258 7.05060e-18
7751.00478 7.53807e-18
7751.99696 8.05423e-18
7752.99916 8.50653e-18
7754.00136 8.70450e-18
7755.00356 8.61208e-18
7755.99573 8.34539e-18
7756.99793 7.98100e-18
7758.00013 7.60535e-18
7759.00233 7.28278e-18
7760.00453 7.06211e-18
7760.99671 6.99960e-18
7761.99891 7.18262e-18
7763.00111 7.44374e-18
7764.00331 7.67000e-18
7764.99549 7.69100e-18
7765.99769 7.41548e-18
7766.99989 7.06026e-18
7768.00209 6.71629e-18
7769.00429 6.52501e-18
7769.99647 6.48083e-18
7770.99867 6.50605e-18
7772.00087 6.56723e-18
7773.00307 6.60151e-18
7773.99525 6.61164e-18
7774.99745 6.59945e-18
7775.99965 6.55956e-18
7777.00185 6.48759e-18
7778.00405 6.39053e-18
7778.99622 6.27612e-18
7779.99842 6.16350e-18
7781.00062 6.06596e-18
7782.00282 5.97042e-18
7783.00502 5.87728e-18
7783.99720 5.75966e-18
7784.99940 5.64841e-18
7786.00160 5.58765e-18
7787.00380 5.60341e-18
7787.99598 5.76669e-18
7788.99818 6.05231e-18
7790.00038 6.43463e-18
7791.00258 6.85339e-18
7792.00478 7.16942e-18
7792.99696 7.38476e-18
7793.99916 7.49382e-18
7795.00136 7.51638e-18
7796.00356 7.48270e-18
7796.99574 7.41484e-18
7797.99794 7.33821e-18
7799.00014 7.28648e-18
7800.00234 7.25918e-18
