# wavelength flux
3477.09900 4.45028e-17
3478.57635 2.51907e-17
3480.04365 2.05717e-17
3481.51095 6.95388e-18
3482.98830 2.23294e-17
3484.45560 1.64169e-17
3485.92290 4.70798e-18
3487.39020 9.41914e-18
3488.86755 1.59856e-17
3490.33485 1.27297e-17
3491.80215 2.71145e-18
3493.26945 1.38091e-17
3494.74680 9.96436e-18
3496.21410 1.22548e-17
3497.68140 1.11678e-17
3499.15875 1.55169e-17
3500.62605 9.88119e-18
3502.09335 -8.80289e-19
3503.56065 1.34586e-17
3505.03800 1.78397e-17
3506.50530 5.90970e-18
3507.97260 3.75080e-18
3509.44995 2.20026e-17
3510.91725 3.46035e-17
3512.38455 3.20382e-17
3513.85185 1.08900e-17
3515.32920 -1.33541e-17
3516.79650 1.56076e-17
3518.26380 1.25041e-17
3519.73110 -1.22204e-17
3521.20845 4.21467e-18
3522.67575 6.43855e-18
3524.14305 3.46219e-18
3525.61035 1.86489e-17
3527.08770 3.80753e-17
3528.55500 4.36985e-17
3530.02230 2.22239e-17
3531.49965 -5.41071e-18
3532.96695 -1.05847e-17
3534.43425 1.62860e-17
3535.90155 3.04798e-17
3537.37890 1.53671e-17
3538.84620 1.10994e-17
3540.31350 1.76818e-17
3541.79085 2.77307e-17
3543.25815 2.90573e-17
3544.72545 7.87963e-18
3546.19275 1.54483e-17
3547.67010 4.61067e-17
3549.13740 4.73953e-17
3550.60470 9.11014e-18
3552.07200 1.06802e-18
3553.54935 -2.73705e-19
3555.01665 7.79840e-18
3556.48395 1.30627e-18
3557.96130 -2.33868e-17
3559.42860 -1.65963e-17
3560.89590 7.29981e-18
3562.36320 2.08125e-17
3563.84055 -1.05594e-18
3565.30785 -1.27230e-17
3566.77515 6.56834e-18
3568.24245 1.27664e-17
3569.71980 2.27224e-17
3571.18710 2.95219e-17
3572.65440 6.27084e-18
3574.13175 1.61869e-17
3575.59905 2.46052e-17
3577.06635 8.23411e-18
3578.53365 1.19435e-18
3580.01100 -6.82758e-18
3581.47830 1.50105e-17
3582.94560 3.24219e-17
3584.41290 1.63286e-17
3585.89025 9.29493e-18
3587.35755 1.34830e-17
3588.82485 8.08160e-18
3590.30220 -6.84693e-18
3591.76950 -1.51908e-17
3593.23680 7.91742e-18
3594.70410 2.74797e-17
3596.18145 2.52604e-17
3597.64875 1.04924e-17
3599.11605 7.60571e-19
3600.58335 7.24682e-18
3602.06070 1.70033e-17
3603.52800 6.99385e-18
3604.99530 8.74708e-18
3606.47265 1.93540e-17
3607.93995 1.15435e-17
3609.40725 4.52435e-18
3610.87455 3.15594e-18
3612.35190 1.95695e-17
3613.81920 1.97392e-17
3615.28650 1.78670e-17
3616.75380 1.73997e-17
3618.23115 1.99702e-17
3619.69845 1.54372e-17
3621.16575 6.08876e-18
3622.64310 -1.91609e-18
3624.11040 4.25152e-18
3625.57770 1.09144e-17
3627.04500 8.80654e-18
3628.52235 1.51939e-17
3629.98965 1.85876e-17
3631.45695 8.55374e-18
3632.92425 1.61664e-18
3634.40160 1.52744e-17
3635.86890 2.29974e-17
3637.33620 2.62371e-17
3638.81355 1.64129e-17
3640.28085 1.51104e-17
3641.74815 1.92605e-17
3643.21545 1.83028e-17
3644.69280 1.51252e-17
3646.16010 2.00057e-17
3647.62740 1.91324e-17
3649.09470 1.82061e-17
3650.57205 1.64283e-17
3652.03935 6.57270e-18
3653.50665 1.63132e-17
3654.98400 3.14220e-17
3656.45130 1.87830e-17
3657.91860 3.49993e-18
3659.38590 9.49982e-18
3660.86325 1.69897e-17
3662.33055 1.37965e-17
3663.79785 1.00431e-17
3665.26515 5.58414e-18
3666.74250 1.49590e-17
3668.20980 1.71613e-17
3669.67710 1.68017e-17
3671.15445 2.42629e-17
3672.62175 1.96031e-17
3674.08905 1.44724e-17
3675.55635 4.25365e-18
3677.03370 3.11361e-18
3678.50100 2.32814e-17
3679.96830 1.83688e-17
3681.43560 5.03809e-18
3682.91295 1.50060e-17
3684.38025 1.86065e-17
3685.84755 9.56827e-18
3687.32490 5.76257e-18
3688.79220 -8.44478e-19
3690.25950 -2.08887e-18
3691.72680 1.01152e-17
3693.20415 9.93911e-18
3694.67145 4.23129e-18
3696.13875 1.79527e-19
3697.60605 1.83807e-18
3699.08340 -1.11803e-18
3700.55070 4.93870e-18
3702.01800 1.79543e-18
3703.49535 -4.89196e-18
3704.96265 -2.90322e-18
3706.42995 6.55595e-18
3707.89725 1.73600e-17
3709.37460 1.15549e-17
3710.84190 2.32479e-18
3712.30920 3.21300e-18
3713.77650 9.98417e-18
3715.25385 7.18357e-18
3716.72115 -8.23063e-18
3718.18845 -2.68801e-18
3719.66580 1.03760e-17
3721.13310 3.63307e-18
3722.60040 -2.74559e-18
3724.06770 2.38319e-19
3725.54505 6.92418e-18
3727.01235 1.81907e-17
3728.47965 1.62265e-17
3729.94695 -1.56112e-18
3731.42430 -2.88892e-18
3732.89160 8.56137e-19
3734.35890 2.67531e-18
3735.83625 3.26780e-18
3737.30355 7.68103e-18
3738.77085 1.00049e-17
3740.23815 8.11726e-18
3741.71550 1.35806e-17
3743.18280 1.16256e-17
3744.65010 6.68994e-18
3746.11740 1.04808e-17
3747.59475 7.77079e-18
3749.06205 -3.26795e-18
3750.52935 -9.15935e-19
3752.00670 3.94625e-18
3753.47400 -5.16375e-18
3754.94130 3.87105e-18
3756.40860 1.35060e-17
3757.88595 1.69641e-17
3759.35325 2.22690e-17
3760.82055 1.27830e-17
3762.28785 1.48514e-18
3763.76520 1.04574e-17
3765.23250 1.35608e-17
3766.69980 1.21421e-17
3768.17715 1.63656e-17
3769.64445 1.31186e-17
3771.11175 8.26818e-18
3772.57905 1.56474e-17
3774.05640 8.21944e-18
3775.52370 3.00461e-18
3776.99100 1.45041e-17
3778.45830 -6.78312e-19
3779.93565 -3.32411e-18
3781.40295 1.13308e-17
3782.87025 6.63403e-18
3784.34760 5.56207e-19
3785.81490 3.41944e-18
3787.28220 5.48538e-18
3788.74950 1.39469e-17
3790.22685 1.14307e-17
3791.69415 2.53738e-19
3793.16145 -1.48277e-18
3794.62875 4.46442e-18
3796.10610 8.63699e-18
3797.57340 5.31814e-18
3799.04070 3.61125e-18
3800.51805 7.68408e-18
3801.98535 7.40913e-18
3803.45265 1.04768e-17
3804.91995 1.57230e-17
3806.39730 1.37242e-17
3807.86460 5.59330e-18
3809.33190 4.26556e-18
3810.79920 6.86537e-18
3812.27655 8.98163e-18
3813.74385 1.61520e-17
3815.21115 8.51180e-18
3816.68850 -9.31763e-18
3818.15580 -7.64390e-18
3819.62310 6.10148e-18
3821.09040 1.60454e-17
3822.56775 1.45536e-17
3824.03505 5.50765e-18
3825.50235 1.93278e-18
3826.96965 2.43268e-19
3828.44700 1.50333e-18
3829.91430 3.14744e-18
3831.38160 1.21705e-17
3832.85895 1.95191e-17
3834.32625 1.64175e-17
3835.79355 1.16950e-17
3837.26085 1.05817e-17
3838.73820 2.32639e-18
3840.20550 -5.76623e-18
3841.67280 1.40029e-18
3843.14010 1.23897e-17
3844.61745 1.54135e-17
3846.08475 1.22058e-17
3847.55205 1.18201e-17
3849.02940 9.17066e-18
3850.49670 7.99493e-18
3851.96400 6.90018e-18
3853.43130 6.01696e-18
3854.90865 4.86213e-18
3856.37595 4.99488e-18
3857.84325 1.12162e-17
3859.31055 1.10510e-17
3860.78790 7.66421e-18
3862.25520 1.13968e-17
3863.72250 1.67167e-17
3865.19985 1.13308e-17
3866.66715 1.15058e-17
3868.13445 9.80187e-18
3869.60175 2.98996e-18
3871.07910 4.52203e-18
3872.54640 1.04466e-17
3874.01370 1.16103e-17
3875.48100 2.23625e-18
3876.95835 7.60616e-18
3878.42565 1.62796e-17
3879.89295 9.49177e-18
3881.37030 3.11669e-18
3882.83760 7.60964e-18
3884.30490 6.84495e-18
3885.77220 5.98723e-18
3887.24955 1.84539e-17
3888.71685 2.26520e-17
3890.18415 1.30949e-17
3891.65145 6.86432e-18
3893.12880 2.28032e-18
3894.59610 4.60520e-19
3896.06340 2.99802e-18
3897.54075 6.50859e-18
3899.00805 1.09494e-17
3900.47535 9.12587e-18
3901.94265 1.37559e-17
3903.42000 1.67884e-17
3904.88730 6.36496e-18
3906.35460 6.24778e-18
3907.82190 9.12307e-18
3909.29925 1.15390e-17
3910.76655 1.19751e-17
3912.23385 9.91346e-18
3913.71120 7.50290e-18
3915.17850 3.88038e-18
3916.64580 8.73789e-18
3918.11310 1.16315e-17
3919.59045 1.44731e-17
3921.05775 1.61072e-17
3922.52505 1.35373e-17
3923.99235 1.22322e-17
3925.46970 1.21817e-17
3926.93700 4.73536e-18
3928.40430 4.39513e-18
3929.88165 1.12262e-17
3931.34895 1.38920e-17
3932.81625 1.34687e-17
3934.28355 1.50840e-17
3935.76090 1.51507e-17
3937.22820 7.95116e-18
3938.69550 4.73990e-18
3940.16280 1.00855e-17
3941.64015 1.59099e-17
3943.10745 1.50872e-17
3944.57475 1.73462e-17
3946.05210 1.81034e-17
3947.51940 1.16877e-17
3948.98670 1.22096e-17
3950.45400 1.61816e-17
3951.93135 1.60002e-17
3953.39865 1.15305e-17
3954.86595 1.29748e-17
3956.34330 1.66391e-17
3957.81060 9.52816e-18
3959.27790 3.40754e-18
3960.74520 1.18793e-17
3962.22255 1.95824e-17
3963.68985 1.63668e-17
3965.15715 1.30701e-17
3966.62445 1.39635e-17
3968.10180 1.24618e-17
3969.56910 9.19920e-18
3971.03640 1.06109e-17
3972.50370 1.47139e-17
3973.98105 1.29043e-17
3975.44835 9.33704e-18
3976.91565 1.38286e-17
3978.39300 8.07796e-18
3979.86030 5.83317e-18
3981.32760 7.66504e-18
3982.79490 7.66081e-18
3984.27225 8.05740e-18
3985.73955 8.95162e-18
3987.20685 8.80610e-18
3988.68420 6.36152e-18
3990.15150 7.90372e-18
3991.61880 1.26207e-17
3993.08610 1.04518e-17
3994.56345 1.25138e-17
3996.03075 1.70917e-17
3997.49805 1.50567e-17
3998.96535 1.51462e-17
4000.44270 1.26138e-17
4001.91000 8.32799e-18
4003.37730 6.18883e-18
4004.85465 9.45981e-18
4006.32195 1.01787e-17
4007.78925 8.83276e-18
4009.25655 4.90779e-18
4010.73390 6.16319e-18
4012.20120 1.34332e-17
4013.66850 1.81754e-17
4015.13580 1.45366e-17
4016.61315 1.42148e-17
4018.08045 1.64389e-17
4019.54775 9.66651e-18
4021.02510 1.00972e-17
4022.49240 1.78010e-17
4023.95970 1.51797e-17
4025.42700 1.44202e-17
4026.90435 1.78476e-17
4028.37165 1.68823e-17
4029.83895 1.42076e-17
4031.30625 1.24430e-17
4032.78360 1.51081e-17
4034.25090 1.07393e-17
4035.71820 1.13501e-17
4037.19555 1.31788e-17
4038.66285 8.40995e-18
4040.13015 1.38789e-17
4041.59745 1.96159e-17
4043.07480 1.61179e-17
4044.54210 1.86215e-17
4046.00940 1.68245e-17
4047.47670 1.21724e-17
4048.95405 1.83038e-17
4050.42135 1.79060e-17
4051.88865 8.80427e-18
4053.36600 1.21318e-17
4054.83330 1.70713e-17
4056.30060 1.35690e-17
4057.76790 1.23901e-17
4059.24525 1.43187e-17
4060.71255 1.85876e-17
4062.17985 1.81649e-17
4063.64715 1.31224e-17
4065.12450 1.63698e-17
4066.59180 2.26730e-17
4068.05910 2.06692e-17
4069.53645 1.39719e-17
4071.00375 9.55894e-18
4072.47105 1.25966e-17
4073.93835 1.34519e-17
4075.41570 1.26106e-17
4076.88300 1.85385e-17
4078.35030 1.53188e-17
4079.81760 1.16579e-17
4081.29495 1.07423e-17
4082.76225 9.89249e-18
4084.22955 1.38428e-17
4085.70690 1.22106e-17
4087.17420 1.03944e-17
4088.64150 1.23129e-17
4090.10880 1.42636e-17
4091.58615 1.17967e-17
4093.05345 1.45376e-17
4094.52075 1.62046e-17
4095.98805 1.18189e-17
4097.46540 1.24205e-17
4098.93270 1.17070e-17
4100.40000 9.83590e-18
4101.87735 8.30203e-18
4103.34465 1.10545e-17
4104.81195 1.73239e-17
4106.27925 1.47779e-17
4107.75660 1.29863e-17
4109.22390 1.11697e-17
4110.69120 1.18141e-17
4112.15850 1.37614e-17
4113.63585 1.59688e-17
4115.10315 1.71298e-17
4116.57045 1.40444e-17
4118.04780 1.54123e-17
4119.51510 1.57509e-17
4120.98240 1.14786e-17
4122.44970 1.31389e-17
4123.92705 1.50548e-17
4125.39435 9.65990e-18
4126.86165 9.04505e-18
4128.32895 8.53929e-18
4129.80630 1.14994e-17
4131.27360 1.05798e-17
4132.74090 1.14384e-17
4134.21825 1.17923e-17
4135.68555 1.35817e-17
4137.15285 1.09656e-17
4138.62015 7.10841e-18
4140.09750 3.40497e-18
4141.56480 8.43120e-18
4143.03210 1.32397e-17
4144.49940 9.58898e-18
4145.97675 4.07019e-18
4147.44405 1.00735e-17
4148.91135 1.69896e-17
4150.38870 1.68501e-17
4151.85600 1.34939e-17
4153.32330 9.01838e-18
4154.79060 1.00490e-17
4156.26795 1.35188e-17
4157.73525 1.21752e-17
4159.20255 1.26845e-17
4160.66985 1.53762e-17
4162.14720 1.28291e-17
4163.61450 1.21333e-17
4165.08180 1.46214e-17
4166.55915 1.46113e-17
4168.02645 1.29795e-17
4169.49375 1.49295e-17
4170.96105 1.39133e-17
4172.43840 1.37700e-17
4173.90570 1.47621e-17
4175.37300 1.18843e-17
4176.84030 1.11572e-17
4178.31765 1.61380e-17
4179.78495 1.63142e-17
4181.25225 1.43480e-17
4182.72960 1.33362e-17
4184.19690 1.09090e-17
4185.66420 1.04926e-17
4187.13150 1.19554e-17
4188.60885 1.39329e-17
4190.07615 1.15965e-17
4191.54345 1.01706e-17
4193.01075 1.38470e-17
4194.48810 1.55540e-17
4195.95540 1.22318e-17
4197.42270 1.36035e-17
4198.90005 1.43563e-17
4200.36735 1.29242e-17
4201.83465 1.23143e-17
4203.30195 1.27315e-17
4204.77930 1.19477e-17
4206.24660 1.35503e-17
4207.71390 1.46218e-17
4209.18120 1.44237e-17
4210.65855 1.02686e-17
4212.12585 6.60869e-18
4213.59315 8.61390e-18
4215.07050 1.36905e-17
4216.53780 1.70843e-17
4218.00510 1.74726e-17
4219.47240 1.62980e-17
4220.94975 1.60300e-17
4222.41705 1.66748e-17
4223.88435 1.30784e-17
4225.35165 1.17804e-17
4226.82900 1.27996e-17
4228.29630 1.12231e-17
4229.76360 1.06802e-17
4231.24095 1.39387e-17
4232.70825 1.68486e-17
4234.17555 1.38605e-17
4235.64285 1.16230e-17
4237.12020 1.44176e-17
4238.58750 1.57637e-17
4240.05480 1.35486e-17
4241.52210 1.25070e-17
4242.99945 1.30215e-17
4244.46675 1.50290e-17
4245.93405 1.27975e-17
4247.41140 9.24479e-18
4248.87870 1.30245e-17
4250.34600 1.27116e-17
4251.81330 7.08314e-18
4253.29065 7.00022e-18
4254.75795 9.03745e-18
4256.22525 7.79575e-18
4257.69255 9.95104e-18
4259.16990 6.35659e-18
4260.63720 7.11297e-18
4262.10450 6.45732e-18
4263.58185 1.00216e-17
4265.04915 1.28229e-17
4266.51645 1.39191e-17
4267.98375 1.25532e-17
4269.46110 1.06667e-17
4270.92840 1.29958e-17
4272.39570 1.32056e-17
4273.86300 8.98389e-18
4275.34035 8.62149e-18
4276.80765 6.16014e-18
4278.27495 9.39392e-18
4279.75230 1.10569e-17
4281.21960 1.17117e-17
4282.68690 1.28117e-17
4284.15420 1.26247e-17
4285.63155 9.21293e-18
4287.09885 9.11163e-18
4288.56615 1.04399e-17
4290.03345 1.05071e-17
4291.51080 1.19606e-17
4292.97810 1.32477e-17
4294.44540 1.08983e-17
4295.92275 1.42671e-17
4297.39005 1.77949e-17
4298.85735 1.50486e-17
4300.32465 1.35611e-17
4301.80200 1.33496e-17
4303.26930 1.37185e-17
4304.73660 1.28710e-17
4306.20390 1.07856e-17
4307.68125 1.46974e-17
4309.14855 1.46577e-17
4310.61585 1.00718e-17
4312.09320 7.25379e-18
4313.56050 1.06228e-17
4315.02780 1.67631e-17
4316.49510 1.50651e-17
4317.97245 1.20053e-17
4319.43975 7.52078e-18
4320.90705 1.14787e-17
4322.38440 1.65488e-17
4323.85170 1.23741e-17
4325.31900 1.25183e-17
4326.78630 1.30636e-17
4328.26365 9.79324e-18
4329.73095 7.51825e-18
4331.19825 6.85318e-18
4332.66555 5.14745e-18
4334.14290 1.21942e-17
4335.61020 1.30264e-17
4337.07750 7.47850e-18
4338.54480 6.02390e-18
4340.02215 6.35925e-18
4341.48945 7.92070e-18
4342.95675 5.67962e-18
4344.43410 5.44298e-18
4345.90140 9.95053e-18
4347.36870 1.05609e-17
4348.83600 1.00443e-17
4350.31335 1.11743e-17
4351.78065 9.04561e-18
4353.24795 1.03281e-17
4354.71525 5.27703e-18
4356.19260 -8.98568e-19
4357.65990 4.23962e-18
4359.12720 4.53714e-18
4360.60455 1.64334e-18
4362.07185 7.10374e-18
4363.53915 9.26802e-18
4365.00645 1.46732e-17
4366.48380 1.31480e-17
4367.95110 1.01180e-17
4369.41840 1.00967e-17
4370.88570 7.61820e-18
4372.36305 5.75369e-18
4373.83035 8.66739e-18
4375.29765 9.10562e-18
4376.77500 1.12532e-17
4378.24230 1.30708e-17
4379.70960 6.76704e-18
4381.17690 5.49679e-18
4382.65425 8.22578e-18
4384.12155 6.97419e-18
4385.58885 7.63879e-18
4387.06620 7.92117e-18
4388.53350 1.14780e-17
4390.00080 1.28042e-17
4391.46810 8.30580e-18
4392.94545 1.01120e-17
4394.41275 1.22367e-17
4395.88005 1.39016e-17
4397.34735 1.08567e-17
4398.82470 6.21037e-18
4400.29200 2.65113e-18
4401.75930 5.53380e-18
4403.23665 7.84837e-18
4404.70395 8.27875e-18
4406.17125 9.10066e-18
4407.63855 1.05979e-17
4409.11590 5.37998e-18
4410.58320 4.51713e-18
4412.05050 1.16463e-17
4413.51780 1.04453e-17
4414.99515 7.07996e-18
4416.46245 7.55030e-18
4417.92975 6.62496e-18
4419.40710 5.13264e-18
4420.87440 7.02165e-18
4422.34170 1.32791e-17
4423.80900 1.18139e-17
4425.28635 1.14267e-17
4426.75365 1.57588e-17
4428.22095 1.56294e-17
4429.68825 1.02646e-17
4431.16560 6.98657e-18
4432.63290 8.05860e-18
4434.10020 7.03450e-18
4435.56750 7.79844e-18
4437.04485 9.50111e-18
4438.51215 1.02112e-17
4439.97945 6.69031e-18
4441.45680 6.86059e-18
4442.92410 1.04399e-17
4444.39140 1.02267e-17
4445.85870 8.25131e-18
4447.33605 9.79580e-18
4448.80335 1.27047e-17
4450.27065 1.06269e-17
4451.74800 1.10920e-17
4453.21530 1.26021e-17
4454.68260 1.10235e-17
4456.14990 1.51613e-17
4457.62725 1.66054e-17
4459.09455 1.02399e-17
4460.56185 7.59704e-18
4462.02915 1.29757e-17
4463.50650 1.31269e-17
4464.97380 7.57899e-18
4466.44110 8.45563e-18
4467.91845 8.41258e-18
4469.38575 6.67306e-18
4470.85305 8.52352e-18
4472.32035 7.44121e-18
4473.79770 6.77848e-18
4475.26500 6.73666e-18
4476.73230 8.03171e-18
4478.19960 1.01468e-17
4479.67695 9.14309e-18
4481.14425 1.06020e-17
4482.61155 9.02341e-18
4484.08890 7.68818e-18
4485.55620 1.03945e-17
4487.02350 1.28122e-17
4488.49080 1.46022e-17
4489.96815 1.54984e-17
4491.43545 1.06145e-17
4492.90275 9.58239e-18
4494.37005 1.27764e-17
4495.84740 1.22501e-17
4497.31470 8.13765e-18
4498.78200 1.05270e-17
4500.25935 1.47477e-17
4501.72665 8.06899e-18
4503.19395 6.75680e-18
4504.66125 1.14719e-17
4506.13860 1.00099e-17
4507.60590 9.70299e-18
4509.07320 1.00614e-17
4510.54050 7.98883e-18
4512.01785 1.02802e-17
4513.48515 8.70517e-18
4514.95245 8.10404e-18
4516.42980 7.98668e-18
4517.89710 8.67116e-18
4519.36440 1.19327e-17
4520.83170 1.32510e-17
4522.30905 1.00893e-17
4523.77635 7.63738e-18
4525.24365 7.38049e-18
4526.71095 1.06096e-17
4528.18830 1.34543e-17
4529.65560 1.24513e-17
4531.12290 1.09794e-17
4532.60025 1.23307e-17
4534.06755 8.14805e-18
4535.53485 7.20266e-18
4537.00215 1.04716e-17
4538.47950 1.04553e-17
4539.94680 9.66240e-18
4541.41410 1.08969e-17
4542.88140 9.09600e-18
4544.35875 1.14033e-17
4545.82605 1.48949e-17
4547.29335 9.62429e-18
4548.77070 1.19965e-17
4550.23800 1.65686e-17
4551.70530 1.53688e-17
4553.17260 9.93968e-18
4554.64995 1.18176e-17
4556.11725 1.20955e-17
4557.58455 9.35243e-18
4559.05185 9.66939e-18
4560.52920 1.45975e-17
4561.99650 1.18354e-17
4563.46380 9.89631e-18
4564.94115 1.08784e-17
4566.40845 1.52380e-17
4567.87575 1.29138e-17
4569.34305 1.20594e-17
4570.82040 1.28815e-17
4572.28770 1.21550e-17
4573.75500 1.50471e-17
4575.22230 1.30367e-17
4576.69965 1.09951e-17
4578.16695 1.31389e-17
4579.63425 1.53709e-17
4581.11160 1.74157e-17
4582.57890 1.69309e-17
4584.04620 1.74492e-17
4585.51350 1.45441e-17
4586.99085 1.26113e-17
4588.45815 1.34125e-17
4589.92545 1.32581e-17
4591.39275 1.15492e-17
4592.87010 1.29820e-17
4594.33740 1.53134e-17
4595.80470 1.21502e-17
4597.28205 1.10842e-17
4598.74935 1.20716e-17
4600.21665 1.86443e-17
4601.68395 1.51493e-17
4603.16130 1.08467e-17
4604.62860 1.25266e-17
4606.09590 1.24618e-17
4607.56320 1.72461e-17
4609.04055 1.69124e-17
4610.50785 1.18076e-17
4611.97515 1.26890e-17
4613.45250 1.48415e-17
4614.91980 1.53315e-17
4616.38710 1.53893e-17
4617.85440 1.42709e-17
4619.33175 1.18602e-17
4620.79905 1.40147e-17
4622.26635 1.38489e-17
4623.73365 1.53316e-17
4625.21100 1.61942e-17
4626.67830 1.48756e-17
4628.14560 1.48760e-17
4629.62295 1.32342e-17
4631.09025 1.41100e-17
4632.55755 1.33733e-17
4634.02485 1.30162e-17
4635.50220 1.42623e-17
4636.96950 1.39643e-17
4638.43680 1.35863e-17
4639.90410 1.39068e-17
4641.38145 1.65670e-17
4642.84875 1.81583e-17
4644.31605 1.53158e-17
4645.79340 1.05365e-17
4647.26070 9.82559e-18
4648.72800 1.04924e-17
4650.19530 1.03328e-17
4651.67265 1.21539e-17
4653.13995 1.54973e-17
4654.60725 1.33588e-17
4656.07455 9.90840e-18
4657.55190 1.09494e-17
4659.01920 1.24566e-17
4660.48650 8.88233e-18
4661.96385 9.77814e-18
4663.43115 1.22459e-17
4664.89845 1.44247e-17
4666.36575 1.38259e-17
4667.84310 1.05084e-17
4669.31040 8.59292e-18
4670.77770 8.26964e-18
4672.24500 1.18819e-17
4673.72235 1.04517e-17
4675.18965 1.09845e-17
4676.65695 1.42819e-17
4678.13430 1.46282e-17
4679.60160 1.45975e-17
4681.06890 1.34206e-17
4682.53620 1.41625e-17
4684.01355 1.82439e-17
4685.48085 1.45081e-17
4686.94815 1.52005e-17
4688.41545 1.21952e-17
4689.89280 1.17443e-17
4691.36010 1.31092e-17
4692.82740 1.13037e-17
4694.30475 1.49709e-17
4695.77205 1.68537e-17
4697.23935 1.39245e-17
4698.70665 1.49741e-17
4700.18400 1.21846e-17
4701.65130 8.46041e-18
4703.11860 1.05343e-17
4704.59595 1.42035e-17
4706.06325 1.36082e-17
4707.53055 1.26106e-17
4708.99785 8.61216e-18
4710.47520 1.54760e-17
4711.94250 1.92063e-17
4713.40980 1.45035e-17
4714.87710 1.44620e-17
4716.35445 1.44541e-17
4717.82175 1.54943e-17
4719.28905 1.31944e-17
4720.75635 1.37626e-17
4722.23370 8.10950e-18
4723.70100 1.00977e-17
4725.16830 1.11867e-17
4726.64565 1.21589e-17
4728.11295 1.46673e-17
4729.58025 1.05817e-17
4731.04755 1.11105e-17
4732.52490 1.09528e-17
4733.99220 1.34523e-17
4735.45950 1.40675e-17
4736.92680 1.38899e-17
4738.40415 1.27044e-17
4739.87145 1.68305e-17
4741.33875 1.67956e-17
4742.81610 1.31885e-17
4744.28340 1.01851e-17
4745.75070 1.47032e-17
4747.21800 1.34998e-17
4748.69535 1.31974e-17
4750.16265 1.06802e-17
4751.62995 1.35546e-17
4753.09725 1.12998e-17
4754.57460 1.33152e-17
4756.04190 1.05810e-17
4757.50920 1.20307e-17
4758.98655 1.26984e-17
4760.45385 1.07641e-17
4761.92115 1.09639e-17
4763.38845 1.26720e-17
4764.86580 1.19859e-17
4766.33310 1.06886e-17
4767.80040 1.44069e-17
4769.26770 1.34236e-17
4770.74505 1.10087e-17
4772.21235 1.43419e-17
4773.67965 1.51342e-17
4775.15700 1.29266e-17
4776.62430 1.33579e-17
4778.09160 1.57025e-17
4779.55890 1.18263e-17
4781.03625 1.09893e-17
4782.50355 1.34441e-17
4783.97085 1.53281e-17
4785.43815 1.87638e-17
4786.91550 1.92253e-17
4788.38280 1.53746e-17
4789.85010 1.43297e-17
4791.32745 1.33309e-17
4792.79475 1.13559e-17
4794.26205 9.72320e-18
4795.72935 1.18515e-17
4797.20670 1.44982e-17
4798.67400 1.25440e-17
4800.14130 1.37405e-17
4801.61865 1.30770e-17
4803.08595 9.29243e-18
4804.55325 9.78317e-18
4806.02055 1.26204e-17
4807.49790 1.13745e-17
4808.96520 8.42341e-18
4810.43250 1.21709e-17
4811.89980 1.34099e-17
4813.37715 1.13645e-17
4814.84445 1.23362e-17
4816.31175 1.35183e-17
4817.77905 1.08034e-17
4819.25640 1.32211e-17
4820.72370 1.23798e-17
4822.19100 1.01026e-17
4823.66835 9.00107e-18
4825.13565 1.23186e-17
4826.60295 1.37183e-17
4828.07025 1.11024e-17
4829.54760 1.04065e-17
4831.01490 1.04647e-17
4832.48220 1.16861e-17
4833.95955 1.24927e-17
4835.42685 1.52171e-17
4836.89415 1.24789e-17
4838.36145 8.38403e-18
4839.83880 1.24806e-17
4841.30610 1.19890e-17
4842.77340 1.04654e-17
4844.24070 1.09675e-17
4845.71805 7.45414e-18
4847.18535 6.22094e-18
4848.65265 9.04188e-18
4850.13000 1.04315e-17
4851.59730 1.10512e-17
4853.06460 8.29761e-18
4854.53190 1.05868e-17
4856.00925 5.02353e-18
4857.47655 6.51239e-18
4858.94385 1.14160e-17
4860.41115 9.47653e-18
4861.88850 9.13478e-18
4863.35580 1.00254e-17
4864.82310 8.61150e-18
4866.29040 1.08067e-17
4867.76775 7.23564e-18
4869.23505 8.41927e-18
4870.70235 8.20844e-18
4872.17970 9.78283e-18
4873.64700 1.02852e-17
4875.11430 8.85935e-18
4876.58160 7.94743e-18
4878.05895 1.12720e-17
4879.52625 7.65985e-18
4880.99355 8.45861e-18
4882.46085 1.05527e-17
4883.93820 1.28902e-17
4885.40550 8.36026e-18
4886.87280 1.01426e-17
4888.35015 1.38491e-17
4889.81745 1.21318e-17
4891.28475 1.18244e-17
4892.75205 9.07639e-18
4894.22940 9.51599e-18
4895.69670 1.19049e-17
4897.16400 8.89529e-18
4898.64135 9.67483e-18
4900.10865 9.41607e-18
4901.57595 6.42684e-18
4903.04325 1.18505e-17
4904.52060 1.20906e-17
4905.98790 1.07548e-17
4907.45520 8.83726e-18
4908.92250 9.08347e-18
4910.39985 9.76021e-18
4911.86715 1.24240e-17
4913.33445 1.01706e-17
4914.81180 7.61874e-18
4916.27910 6.97695e-18
4917.74640 9.12208e-18
4919.21370 5.23710e-18
4920.69105 6.84497e-18
4922.15835 1.05677e-17
4923.62565 1.06250e-17
4925.09295 1.09461e-17
4926.57030 1.17880e-17
4928.03760 1.02477e-17
4929.50490 9.85498e-18
4930.98225 9.14963e-18
4932.44955 6.93610e-18
4933.91685 1.20386e-17
4935.38415 9.80842e-18
4936.86150 7.03056e-18
4938.32880 5.74230e-18
4939.79610 7.37473e-18
4941.26340 8.81327e-18
4942.74075 7.19901e-18
4944.20805 9.06557e-18
4945.67535 6.40139e-18
4947.15270 7.10008e-18
4948.62000 1.02854e-17
4950.08730 1.09316e-17
4951.55460 1.20620e-17
4953.03195 1.17377e-17
4954.49925 1.21579e-17
4955.96655 5.87357e-18
4957.43385 5.63703e-18
4958.91120 9.30703e-18
4960.37850 7.67437e-18
4961.84580 8.17925e-18
4963.31310 5.81475e-18
4964.79045 8.27378e-18
4966.25775 1.02380e-17
4967.72505 9.47983e-18
4969.20240 8.19580e-18
4970.66970 1.10272e-17
4972.13700 1.10876e-17
4973.60430 1.09636e-17
4975.08165 1.37850e-17
4976.54895 9.08474e-18
4978.01625 1.16242e-17
4979.49360 1.40894e-17
4980.96090 1.06396e-17
4982.42820 9.81301e-18
4983.89550 8.11732e-18
4985.37285 1.18174e-17
4986.84015 1.47835e-17
4988.30745 1.62897e-17
4989.77475 1.30644e-17
4991.25210 1.18439e-17
4992.71940 1.48240e-17
4994.18670 1.40789e-17
4995.66405 1.16002e-17
4997.13135 1.47744e-17
4998.59865 1.23520e-17
5000.06595 1.23256e-17
5001.54330 1.52047e-17
5003.01060 1.34382e-17
5004.47790 1.46061e-17
5005.94520 1.31092e-17
5007.42255 1.51677e-17
5008.88985 1.42291e-17
5010.35715 1.63259e-17
5011.83450 1.64640e-17
5013.30180 1.50677e-17
5014.76910 1.54461e-17
5016.23640 1.42189e-17
5017.71375 1.55587e-17
5019.18105 1.76783e-17
5020.64835 1.66111e-17
5022.11565 1.78566e-17
5023.59300 1.86943e-17
5025.06030 1.44947e-17
5026.52760 1.62605e-17
5028.00495 1.69440e-17
5029.47225 1.69883e-17
5030.93955 1.73227e-17
5032.40685 1.64549e-17
5033.88420 1.63203e-17
5035.35150 1.34338e-17
5036.81880 1.54735e-17
5038.28610 1.42854e-17
5039.76345 1.38800e-17
5041.23075 1.28320e-17
5042.69805 1.66541e-17
5044.17540 1.68893e-17
5045.64270 1.51006e-17
5047.11000 1.70844e-17
5048.57730 1.63303e-17
5050.05465 1.29717e-17
5051.52195 1.55464e-17
5052.98925 1.25452e-17
5054.45655 1.61441e-17
5055.93390 1.61334e-17
5057.40120 1.47294e-17
5058.86850 1.52719e-17
5060.34585 1.39834e-17
5061.81315 1.16736e-17
5063.28045 1.38291e-17
5064.74775 1.25990e-17
5066.22510 1.42400e-17
5067.69240 1.39206e-17
5069.15970 1.25260e-17
5070.62700 9.72453e-18
5072.10435 1.01694e-17
5073.57165 1.58970e-17
5075.03895 1.72911e-17
5076.51630 1.28188e-17
5077.98360 1.29285e-17
5079.45090 1.35733e-17
5080.91820 1.16862e-17
5082.39555 1.22005e-17
5083.86285 1.03648e-17
5085.33015 1.12154e-17
5086.79745 9.05444e-18
5088.27480 8.56844e-18
5089.74210 1.03387e-17
5091.20940 1.54768e-17
5092.68675 1.26291e-17
5094.15405 1.03141e-17
5095.62135 1.09701e-17
5097.08865 9.37422e-18
5098.56600 8.50021e-18
5100.03330 7.66838e-18
5101.50060 7.54780e-18
5102.96790 1.07807e-17
5104.44525 1.04987e-17
5105.91255 8.14101e-18
5107.37985 7.63550e-18
5108.85720 7.06967e-18
5110.32450 5.77244e-18
5111.79180 7.84367e-18
5113.25910 8.53592e-18
5114.73645 1.11111e-17
5116.20375 1.04514e-17
5117.67105 7.02146e-18
5119.13835 6.95249e-18
5120.61570 9.27560e-18
5122.08300 7.53747e-18
5123.55030 7.90445e-18
5125.02765 6.94574e-18
5126.49495 8.55407e-18
5127.96225 1.12886e-17
5129.42955 1.17903e-17
5130.90690 1.05120e-17
5132.37420 1.14716e-17
5133.84150 1.16448e-17
5135.30880 1.15729e-17
5136.78615 1.21524e-17
5138.25345 8.83190e-18
5139.72075 8.89220e-18
5141.19810 8.65809e-18
5142.66540 1.19593e-17
5144.13270 1.11326e-17
5145.60000 9.12370e-18
5147.07735 9.88540e-18
5148.54465 1.01495e-17
5150.01195 1.08405e-17
5151.47925 9.69814e-18
5152.95660 1.23724e-17
5154.42390 1.23438e-17
5155.89120 1.26733e-17
5157.36855 1.36759e-17
5158.83585 1.23973e-17
5160.30315 9.21932e-18
5161.77045 8.17820e-18
5163.24780 9.08095e-18
5164.71510 1.08475e-17
5166.18240 1.21549e-17
5167.64970 1.06666e-17
5169.12705 1.10048e-17
5170.59435 1.53090e-17
5172.06165 1.53027e-17
5173.53900 1.26772e-17
5175.00630 1.27013e-17
5176.47360 1.11486e-17
5177.94090 1.02684e-17
5179.41825 1.15026e-17
5180.88555 1.10613e-17
5182.35285 1.20682e-17
5183.82015 1.32921e-17
5185.29750 1.36675e-17
5186.76480 1.09636e-17
5188.23210 1.35815e-17
5189.70945 1.34657e-17
5191.17675 1.14923e-17
5192.64405 1.43254e-17
5194.11135 1.23536e-17
5195.58870 1.40837e-17
5197.05600 1.03057e-17
5198.52330 1.22496e-17
5199.99060 1.38099e-17
5201.46795 1.19600e-17
5202.93525 9.88671e-18
5204.40255 1.31010e-17
5205.87990 1.52773e-17
5207.34720 1.14375e-17
5208.81450 1.03808e-17
5210.28180 1.05219e-17
5211.75915 1.09897e-17
5213.22645 1.11851e-17
5214.69375 1.21442e-17
5216.16105 1.16334e-17
5217.63840 1.06953e-17
5219.10570 1.17670e-17
5220.57300 1.06646e-17
5222.05035 9.10527e-18
5223.51765 1.19118e-17
5224.98495 1.01295e-17
5226.45225 9.84923e-18
5227.92960 1.36878e-17
5229.39690 1.26279e-17
5230.86420 1.07938e-17
5232.34155 9.43435e-18
5233.80885 7.38700e-18
5235.27615 7.79816e-18
5236.74345 1.06091e-17
5238.22080 1.45903e-17
5239.68810 1.33906e-17
5241.15540 1.12885e-17
5242.62270 1.02259e-17
5244.10005 1.09891e-17
5245.56735 1.06780e-17
5247.03465 1.10495e-17
5248.51200 1.41587e-17
5249.97930 1.13223e-17
5251.44660 9.68019e-18
5252.91390 1.23267e-17
5254.39125 1.21836e-17
5255.85855 1.12082e-17
5257.32585 1.17848e-17
5258.79315 1.33532e-17
5260.27050 1.38927e-17
5261.73780 1.09302e-17
5263.20510 6.50436e-18
5264.67240 7.06194e-18
5266.14975 8.60205e-18
5267.61705 8.87142e-18
5269.08435 1.04600e-17
5270.56170 1.09375e-17
5272.02900 8.59704e-18
5273.49630 9.30760e-18
5274.96360 1.29617e-17
5276.44095 1.21451e-17
5277.90825 9.20371e-18
5279.37555 1.07256e-17
5280.84285 1.12367e-17
5282.32020 1.13843e-17
5283.78750 1.08741e-17
5285.25480 1.09605e-17
5286.73215 1.34304e-17
5288.19945 1.14145e-17
5289.66675 1.02349e-17
5291.13405 1.24448e-17
5292.61140 1.24726e-17
5294.07870 1.15992e-17
5295.54600 1.19542e-17
5297.02335 1.18216e-17
5298.49065 1.28365e-17
5299.95795 1.20133e-17
5301.42525 9.99565e-18
5302.90260 1.22504e-17
5304.36990 1.26524e-17
5305.83720 1.15295e-17
5307.30450 1.23903e-17
5308.78185 1.29574e-17
5310.24915 1.35873e-17
5311.71645 1.26702e-17
5313.18375 9.39454e-18
5314.66110 9.08297e-18
5316.12840 1.34433e-17
5317.59570 1.51240e-17
5319.07305 1.35367e-17
5320.54035 1.51748e-17
5322.00765 1.72809e-17
5323.47495 1.52618e-17
5324.95230 1.26698e-17
5326.41960 1.19725e-17
5327.88690 1.10331e-17
5329.36425 1.16484e-17
5330.83155 1.37882e-17
5332.29885 1.26225e-17
5333.76615 1.27530e-17
5335.24350 1.53844e-17
5336.71080 1.39333e-17
5338.17810 1.40882e-17
5339.64540 1.50177e-17
5341.12275 1.48701e-17
5342.59005 1.39746e-17
5344.05735 1.29077e-17
5345.53470 1.36844e-17
5347.00200 1.40039e-17
5348.46930 1.39317e-17
5349.93660 1.36937e-17
5351.41395 1.25634e-17
5352.88125 1.01061e-17
5354.34855 1.24573e-17
5355.81585 1.38282e-17
5357.29320 1.46240e-17
5358.76050 1.34651e-17
5360.22780 1.47750e-17
5361.70515 1.68998e-17
5363.17245 1.41882e-17
5364.63975 1.27717e-17
5366.10705 1.43642e-17
5367.58440 1.40045e-17
5369.05170 1.27310e-17
5370.51900 8.51956e-18
5371.98630 1.00389e-17
5373.46365 1.25662e-17
5374.93095 1.27038e-17
5376.39825 1.59752e-17
5377.87560 1.58332e-17
5379.34290 1.37348e-17
5380.81020 1.37663e-17
5382.27750 1.29615e-17
5383.75485 1.16746e-17
5385.22215 1.24492e-17
5386.68945 1.29765e-17
5388.15675 1.20239e-17
5389.63410 1.53203e-17
5391.10140 1.07490e-17
5392.56870 1.22757e-17
5394.04605 7.83265e-18
5395.51335 1.12326e-17
5396.98065 1.29537e-17
5398.44795 1.36069e-17
5399.92530 1.36756e-17
5401.39260 1.18625e-17
5402.85990 1.12090e-17
5404.32720 1.34177e-17
5405.80455 1.48167e-17
5407.27185 1.81631e-17
5408.73915 1.46269e-17
5410.20645 1.67675e-17
5411.68380 1.49092e-17
5413.15110 1.45961e-17
5414.61840 1.79734e-17
5416.09575 1.86442e-17
5417.56305 1.51484e-17
5419.03035 1.39845e-17
5420.49765 1.40136e-17
5421.97500 1.70709e-17
5423.44230 1.82138e-17
5424.90960 1.47877e-17
5426.38695 1.15618e-17
5427.85425 1.49219e-17
5429.32155 1.45673e-17
5430.78885 1.51193e-17
5432.26620 1.28859e-17
5433.73350 1.13351e-17
5435.20080 1.48360e-17
5436.66810 1.27105e-17
5438.14545 1.65460e-17
5439.61275 1.54327e-17
5441.08005 1.17597e-17
5442.55740 1.01847e-17
5444.02470 1.66913e-17
5445.49200 1.43265e-17
5446.95930 1.56400e-17
5448.43665 1.76310e-17
5449.90395 1.43754e-17
5451.37125 9.46780e-18
5452.83855 1.38440e-17
5454.31590 1.20804e-17
5455.78320 1.12446e-17
5457.25050 1.16718e-17
5458.72785 1.24047e-17
5460.19515 1.69826e-17
5461.66245 1.11009e-17
5463.12975 1.22885e-17
5464.60710 1.00426e-17
5466.07440 1.41681e-17
5467.54170 1.21791e-17
5469.00900 1.13550e-17
5470.48635 1.17140e-17
5471.95365 1.27321e-17
5473.42095 1.07559e-17
5474.89830 1.24621e-17
5476.36560 1.21084e-17
5477.83290 1.50114e-17
5479.30020 1.22132e-17
5480.77755 1.00285e-17
5482.24485 1.19358e-17
5483.71215 9.27332e-18
5485.17945 1.16517e-17
5486.65680 1.52915e-17
5488.12410 1.21187e-17
5489.59140 1.35788e-17
5491.06875 9.54586e-18
5492.53605 1.34137e-17
5494.00335 1.32847e-17
5495.47065 1.20744e-17
5496.94800 1.07680e-17
5498.41530 1.16088e-17
5499.88260 1.20129e-17
5501.34990 1.24444e-17
5502.82725 1.26496e-17
5504.29455 1.51196e-17
5505.76185 1.19465e-17
5507.23920 1.11606e-17
5508.70650 1.36158e-17
5510.17380 1.37643e-17
5511.64110 1.17478e-17
5513.11845 1.43771e-17
5514.58575 1.32806e-17
5516.05305 1.76758e-17
5517.52035 1.60160e-17
5518.99770 1.62114e-17
5520.46500 1.72321e-17
5521.93230 1.58114e-17
5523.40965 1.48022e-17
5524.87695 1.38953e-17
5526.34425 1.56160e-17
5527.81155 1.75412e-17
5529.28890 1.79936e-17
5530.75620 1.56843e-17
5532.22350 1.48455e-17
5533.69080 1.74512e-17
5535.16815 1.64317e-17
5536.63545 1.57870e-17
5538.10275 1.71076e-17
5539.58010 1.54856e-17
5541.04740 1.63464e-17
5542.51470 1.27696e-17
5543.98200 1.64623e-17
5545.45935 1.94182e-17
5546.92665 1.68044e-17
5548.39395 1.71320e-17
5549.86125 1.71355e-17
5551.33860 1.57305e-17
5552.80590 1.51996e-17
5554.27320 1.36873e-17
5555.75055 1.55148e-17
5557.21785 1.51039e-17
5558.68515 1.69601e-17
5560.15245 1.81076e-17
5561.62980 1.40526e-17
5563.09710 1.35473e-17
5564.56440 1.80569e-17
5566.03170 1.94520e-17
5567.50905 1.67929e-17
5568.97635 1.54359e-17
5570.44365 1.58291e-17
5571.92100 1.63306e-17
5573.38830 1.85697e-17
5574.85560 2.13018e-17
5576.32290 1.97705e-17
5577.80025 2.01468e-17
5579.26755 1.62871e-17
5580.73485 1.38246e-17
5582.20215 1.46235e-17
5583.67950 1.35491e-17
5585.14680 1.48463e-17
5586.61410 1.33967e-17
5588.09145 1.56031e-17
5589.55875 1.73509e-17
5591.02605 1.64614e-17
5592.49335 1.46347e-17
5593.97070 1.46770e-17
5595.43800 1.53537e-17
5596.90530 1.26130e-17
5598.37260 1.40914e-17
5599.84995 1.54470e-17
5601.31725 1.46857e-17
5602.78455 1.32531e-17
5604.26190 1.51384e-17
5605.72920 1.58397e-17
5607.19650 1.39087e-17
5608.66380 1.40433e-17
5610.14115 1.15910e-17
5611.60845 1.09413e-17
5613.07575 1.21283e-17
5614.54305 1.09167e-17
5616.02040 1.29462e-17
5617.48770 1.26983e-17
5618.95500 1.33804e-17
5620.43235 1.41481e-17
5621.89965 1.21774e-17
5623.36695 1.05323e-17
5624.83425 1.27674e-17
5626.31160 1.32171e-17
5627.77890 1.12005e-17
5629.24620 1.14474e-17
5630.71350 1.40477e-17
5632.19085 1.20055e-17
5633.65815 8.96928e-18
5635.12545 1.12645e-17
5636.60280 1.34295e-17
5638.07010 1.37159e-17
5639.53740 1.20093e-17
5641.00470 1.30352e-17
5642.48205 1.22049e-17
5643.94935 1.41928e-17
5645.41665 1.66050e-17
5646.88395 1.42845e-17
5648.36130 1.40655e-17
5649.82860 1.27487e-17
5651.29590 1.39216e-17
5652.77325 1.30095e-17
5654.24055 1.26161e-17
5655.70785 1.26627e-17
5657.17515 9.66531e-18
5658.65250 8.88554e-18
5660.11980 1.47950e-17
5661.58710 1.68917e-17
5663.06445 1.59004e-17
5664.53175 1.65543e-17
5665.99905 1.38634e-17
5667.46635 1.20373e-17
5668.94370 1.47248e-17
5670.41100 1.41471e-17
5671.87830 1.51665e-17
5673.34560 1.51762e-17
5674.82295 1.33270e-17
5676.29025 1.59421e-17
5677.75755 1.55395e-17
5679.23490 1.67345e-17
5680.70220 1.94554e-17
5682.16950 1.15948e-17
5683.63680 8.31044e-18
5685.11415 1.56252e-17
5686.58145 1.58011e-17
5688.04875 1.15500e-17
5689.51605 1.59236e-17
5690.99340 1.59659e-17
5692.46070 1.42266e-17
5693.92800 1.04299e-17
5695.39530 1.06579e-17
5696.87265 1.83763e-17
5698.33995 1.15489e-17
5699.80725 8.32235e-18
5701.28460 1.28283e-17
5702.75190 1.48323e-17
5704.21920 1.56913e-17
5705.68650 1.22623e-17
5707.16385 1.01782e-17
5708.63115 1.05290e-17
5710.09845 1.08499e-17
5711.56575 1.02928e-17
5713.04310 1.20289e-17
5714.51040 1.26166e-17
5715.97770 1.13635e-17
5717.45505 1.05429e-17
5718.92235 1.18668e-17
5720.38965 1.01918e-17
5721.85695 9.93072e-18
5723.33430 8.88575e-18
5724.80160 9.94939e-18
5726.26890 9.35772e-18
5727.73620 8.04587e-18
5729.21355 4.65811e-18
5730.68085 5.18378e-18
5732.14815 6.30941e-18
5733.62550 9.06880e-18
5735.09280 8.19243e-18
5736.56010 1.00344e-17
5738.02740 8.48635e-18
5739.50475 4.24861e-18
5740.97205 5.71912e-18
5742.43935 4.01117e-18
5743.91670 6.46551e-18
5745.38400 6.44225e-18
5746.85130 5.41084e-18
5748.31860 6.35319e-18
5749.79595 4.46054e-18
5751.26325 5.13618e-18
5752.73055 6.21692e-18
5754.19785 5.87369e-18
5755.67520 5.91771e-18
5757.14250 8.16885e-18
5758.60980 7.10613e-18
5760.08715 9.58225e-18
5761.55445 7.32623e-18
5763.02175 1.49164e-18
5764.48905 2.52464e-18
5765.96640 7.24544e-18
5767.43370 5.70193e-18
5768.90100 4.60727e-18
5770.36830 6.41525e-18
5771.84565 6.74102e-18
5773.31295 8.26815e-18
5774.78025 7.33914e-18
5776.25760 6.11272e-18
5777.72490 4.72474e-18
5779.19220 6.23017e-18
5780.65950 5.53868e-18
5782.13685 5.51505e-18
5783.60415 8.34218e-18
5785.07145 9.36670e-18
5786.53875 6.14281e-18
5788.01610 4.37224e-18
5789.48340 6.51076e-18
5790.95070 9.86066e-18
5792.41800 1.34990e-17
5793.89535 9.01589e-18
5795.36265 5.65677e-18
5796.82995 6.17064e-18
5798.30730 4.75416e-18
5799.77460 4.69309e-18
5801.24190 6.55550e-18
5802.70920 8.38130e-18
5804.18655 6.88665e-18
5805.65385 4.94344e-18
5807.12115 6.05972e-18
5808.59850 9.07022e-18
5810.06580 9.36858e-18
5811.53310 1.01302e-17
5813.00040 1.06385e-17
5814.47775 6.69443e-18
5815.94505 3.78774e-18
5817.41235 7.17594e-18
5818.87965 9.51660e-18
5820.35700 7.81844e-18
5821.82430 1.11181e-17
5823.29160 1.29453e-17
5824.76895 1.21021e-17
5826.23625 1.16668e-17
5827.70355 9.70454e-18
5829.17085 1.01842e-17
5830.64820 1.39342e-17
5832.11550 1.58098e-17
5833.58280 1.51389e-17
5835.05010 1.67680e-17
5836.52745 1.40517e-17
5837.99475 1.34652e-17
5839.46205 1.59407e-17
5840.93940 1.44847e-17
5842.40670 1.48354e-17
5843.87400 1.37635e-17
5845.34130 1.34845e-17
5846.81865 1.60636e-17
5848.28595 1.73329e-17
5849.75325 1.78948e-17
5851.22055 1.48589e-17
5852.69790 1.41456e-17
5854.16520 1.73446e-17
5855.63250 1.85224e-17
5857.10985 1.43201e-17
5858.57715 1.55541e-17
5860.04445 1.79041e-17
5861.51175 1.89897e-17
5862.98910 1.88105e-17
5864.45640 2.02918e-17
5865.92370 2.21463e-17
5867.39100 2.03357e-17
5868.86835 1.71108e-17
5870.33565 2.24428e-17
5871.80295 1.93918e-17
5873.28030 1.67408e-17
5874.74760 1.76990e-17
5876.21490 1.81089e-17
5877.68220 2.29421e-17
5879.15955 2.27910e-17
5880.62685 1.96570e-17
5882.09415 1.84842e-17
5883.56145 2.08343e-17
5885.03880 2.29392e-17
5886.50610 2.01634e-17
5887.97340 1.90007e-17
5889.45075 2.05754e-17
5890.91805 1.57986e-17
5892.38535 1.60450e-17
5893.85265 1.83653e-17
5895.33000 2.36189e-17
5896.79730 2.27161e-17
5898.26460 1.92824e-17
5899.73190 2.38343e-17
5901.20925 2.18555e-17
5902.67655 1.59496e-17
5904.14385 1.76136e-17
5905.62120 2.12968e-17
5907.08850 2.15101e-17
5908.55580 1.82123e-17
5910.02310 1.63581e-17
5911.50045 2.02789e-17
5912.96775 2.19173e-17
5914.43505 2.27288e-17
5915.90235 2.00038e-17
5917.37970 1.72016e-17
5918.84700 1.98151e-17
5920.31430 1.75926e-17
5921.79165 1.54541e-17
5923.25895 1.69205e-17
5924.72625 1.89347e-17
5926.19355 1.83114e-17
5927.67090 1.63657e-17
5929.13820 1.58167e-17
5930.60550 1.67513e-17
5932.07280 1.81838e-17
5933.55015 2.17144e-17
5935.01745 2.17132e-17
5936.48475 1.70805e-17
5937.96210 1.68730e-17
5939.42940 1.35559e-17
5940.89670 1.73046e-17
5942.36400 2.08255e-17
5943.84135 2.06645e-17
5945.30865 1.47541e-17
5946.77595 1.66675e-17
5948.24325 2.15340e-17
5949.72060 2.13969e-17
5951.18790 1.79653e-17
5952.65520 1.66781e-17
5954.13255 1.84915e-17
5955.59985 1.62579e-17
5957.06715 1.54325e-17
5958.53445 1.92531e-17
5960.01180 1.90308e-17
5961.47910 1.78264e-17
5962.94640 1.90970e-17
5964.41370 1.63580e-17
5965.89105 1.41762e-17
5967.35835 1.32994e-17
5968.82565 1.47472e-17
5970.30300 1.78362e-17
5971.77030 1.92958e-17
5973.23760 1.80185e-17
5974.70490 1.52301e-17
5976.18225 1.57811e-17
5977.64955 1.55955e-17
5979.11685 1.56743e-17
5980.58415 1.53063e-17
5982.06150 1.35294e-17
5983.52880 1.34533e-17
5984.99610 1.65996e-17
5986.47345 1.70601e-17
5987.94075 1.56617e-17
5989.40805 1.46784e-17
5990.87535 1.32361e-17
5992.35270 1.18851e-17
5993.82000 1.37330e-17
5995.28730 1.56991e-17
5996.75460 1.54062e-17
5998.23195 1.39944e-17
5999.69925 1.50429e-17
6001.16655 1.38538e-17
6002.64390 1.42655e-17
6004.11120 1.61282e-17
6005.57850 1.27775e-17
6007.04580 1.22873e-17
6008.52315 1.39390e-17
6009.99045 1.41104e-17
6011.45775 1.12994e-17
6012.92505 1.20205e-17
6014.40240 1.36691e-17
6015.86970 1.30251e-17
6017.33700 1.25774e-17
6018.81435 1.15955e-17
6020.28165 1.08195e-17
6021.74895 1.20687e-17
6023.21625 1.31763e-17
6024.69360 1.27845e-17
6026.16090 1.24930e-17
6027.62820 1.16282e-17
6029.09550 1.25397e-17
6030.57285 1.21704e-17
6032.04015 1.21529e-17
6033.50745 1.41929e-17
6034.98480 1.44175e-17
6036.45210 1.44744e-17
6037.91940 1.38474e-17
6039.38670 1.31085e-17
6040.86405 1.52519e-17
6042.33135 1.46013e-17
6043.79865 1.33157e-17
6045.26595 1.33283e-17
6046.74330 9.66549e-18
6048.21060 1.03905e-17
6049.67790 1.00244e-17
6051.15525 9.16534e-18
6052.62255 1.35404e-17
6054.08985 1.44383e-17
6055.55715 1.29542e-17
6057.03450 1.35592e-17
6058.50180 1.18708e-17
6059.96910 1.23108e-17
6061.43640 1.18876e-17
6062.91375 1.26271e-17
6064.38105 1.27405e-17
6065.84835 1.25271e-17
6067.32570 1.20411e-17
6068.79300 1.23601e-17
6070.26030 1.26265e-17
6071.72760 1.34114e-17
6073.20495 1.13883e-17
6074.67225 1.17577e-17
6076.13955 1.29910e-17
6077.61690 1.18741e-17
6079.08420 1.49524e-17
6080.55150 1.35355e-17
6082.01880 1.22769e-17
6083.49615 1.06693e-17
6084.96345 1.15110e-17
6086.43075 1.30166e-17
6087.89805 1.36630e-17
6089.37540 1.62335e-17
6090.84270 1.51919e-17
6092.31000 1.25749e-17
6093.77730 1.20262e-17
6095.25465 1.26507e-17
6096.72195 1.10115e-17
6098.18925 1.06907e-17
6099.66660 1.05018e-17
6101.13390 1.19111e-17
6102.60120 1.06499e-17
6104.06850 1.14004e-17
6105.54585 8.65736e-18
6107.01315 8.77554e-18
6108.48045 1.20179e-17
6109.94775 1.31158e-17
6111.42510 1.15748e-17
6112.89240 1.00445e-17
6114.35970 1.15965e-17
6115.83705 1.22916e-17
6117.30435 1.14240e-17
6118.77165 1.15870e-17
6120.23895 1.12542e-17
6121.71630 1.45348e-17
6123.18360 1.03563e-17
6124.65090 6.98899e-18
6126.12825 1.01004e-17
6127.59555 1.06761e-17
6129.06285 1.29485e-17
6130.53015 1.53041e-17
6132.00750 1.32211e-17
6133.47480 9.11191e-18
6134.94210 1.12301e-17
6136.40940 1.12412e-17
6137.88675 1.30066e-17
6139.35405 1.34535e-17
6140.82135 9.79837e-18
6142.28865 1.13242e-17
6143.76600 1.76237e-17
6145.23330 1.52793e-17
6146.70060 1.29288e-17
6148.17795 1.09923e-17
6149.64525 1.05722e-17
6151.11255 1.48386e-17
6152.57985 1.47910e-17
6154.05720 1.33498e-17
6155.52450 1.16590e-17
6156.99180 1.29782e-17
6158.45910 1.32858e-17
6159.93645 1.29760e-17
6161.40375 1.12451e-17
6162.87105 1.12336e-17
6164.34840 1.33497e-17
6165.81570 1.11791e-17
6167.28300 1.19363e-17
6168.75030 1.26755e-17
6170.22765 1.18741e-17
6171.69495 1.27118e-17
6173.16225 1.33325e-17
6174.63960 1.16812e-17
6176.10690 8.08128e-18
6177.57420 7.06551e-18
6179.04150 9.68054e-18
6180.51885 1.10161e-17
6181.98615 1.25028e-17
6183.45345 1.12767e-17
6184.92075 1.12988e-17
6186.39810 1.18943e-17
6187.86540 9.70804e-18
6189.33270 9.40730e-18
6190.81005 1.14062e-17
6192.27735 9.79922e-18
6193.74465 1.07033e-17
6195.21195 1.13638e-17
6196.68930 1.05669e-17
6198.15660 1.12034e-17
6199.62390 1.29585e-17
6201.09120 1.16596e-17
6202.56855 9.28056e-18
6204.03585 1.02197e-17
6205.50315 1.09011e-17
6206.98050 1.08592e-17
6208.44780 1.00036e-17
6209.91510 7.49366e-18
6211.38240 8.59091e-18
6212.85975 1.17477e-17
6214.32705 1.10206e-17
6215.79435 1.10439e-17
6217.26165 1.16610e-17
6218.73900 1.17935e-17
6220.20630 1.40701e-17
6221.67360 1.33367e-17
6223.15095 1.09609e-17
6224.61825 1.27697e-17
6226.08555 1.29589e-17
6227.55285 1.13731e-17
6229.03020 1.18796e-17
6230.49750 1.24125e-17
6231.96480 1.12098e-17
6233.43210 1.09027e-17
6234.90945 1.41389e-17
6236.37675 1.20422e-17
6237.84405 1.00375e-17
6239.31135 1.32123e-17
6240.78870 1.24286e-17
6242.25600 1.07563e-17
6243.72330 1.18057e-17
6245.20065 1.10818e-17
6246.66795 1.25666e-17
6248.13525 1.28055e-17
6249.60255 1.24771e-17
6251.07990 1.17656e-17
6252.54720 1.11210e-17
6254.01450 1.15698e-17
6255.49185 1.18862e-17
6256.95915 1.02897e-17
6258.42645 1.21785e-17
6259.89375 1.28513e-17
6261.37110 1.31647e-17
6262.83840 1.49197e-17
6264.30570 1.50845e-17
6265.77300 1.49274e-17
6267.25035 1.45669e-17
6268.71765 1.42064e-17
6270.18495 1.38459e-17
6271.66230 1.34855e-17
6273.12960 1.31251e-17
6274.59690 1.27647e-17
6276.06420 1.24043e-17
6277.54155 1.20440e-17
6279.00885 9.91274e-18
6280.47615 9.20996e-18
6281.94345 1.24767e-17
6283.42080 1.63905e-17
6284.88810 1.45472e-17
6286.35540 1.29234e-17
6287.83275 1.23539e-17
6289.30005 1.09595e-17
6290.76735 1.12144e-17
6292.23465 1.13793e-17
6293.71200 1.09581e-17
6295.17930 1.26652e-17
6296.64660 1.17124e-17
6298.11390 1.11785e-17
6299.59125 1.15144e-17
6301.05855 1.14504e-17
6302.52585 1.56718e-17
6304.00320 1.43414e-17
6305.47050 1.02443e-17
6306.93780 8.84455e-18
6308.40510 1.31208e-17
6309.88245 1.17667e-17
6311.34975 9.74582e-18
6312.81705 1.20975e-17
6314.28435 1.20982e-17
6315.76170 1.41020e-17
6317.22900 1.37364e-17
6318.69630 1.16559e-17
6320.17365 1.19932e-17
6321.64095 1.22521e-17
6323.10825 1.17194e-17
6324.57555 1.06903e-17
6326.05290 8.86654e-18
6327.52020 9.05807e-18
6328.98750 8.28903e-18
6330.45480 8.66012e-18
6331.93215 1.05641e-17
6333.39945 1.00353e-17
6334.86675 6.57178e-18
6336.34410 9.52999e-18
6337.81140 1.14672e-17
6339.27870 1.00808e-17
6340.74600 1.01006e-17
6342.22335 8.64321e-18
6343.69065 6.96336e-18
6345.15795 7.91031e-18
6346.62525 6.72617e-18
6348.10260 6.91184e-18
6349.56990 7.76191e-18
6351.03720 8.08074e-18
6352.51455 5.98892e-18
6353.98185 5.61520e-18
6355.44915 7.00582e-18
6356.91645 7.04091e-18
6358.39380 6.06351e-18
6359.86110 5.98676e-18
6361.32840 8.64297e-18
6362.79570 8.11255e-18
6364.27305 6.79629e-18
6365.74035 6.48433e-18
6367.20765 5.78630e-18
6368.68500 4.35717e-18
6370.15230 4.48099e-18
6371.61960 4.86125e-18
6373.08690 6.25723e-18
6374.56425 3.73940e-18
6376.03155 3.85842e-18
6377.49885 4.81921e-18
6378.96615 4.98063e-18
6380.44350 2.65520e-18
6381.91080 9.44203e-19
6383.37810 4.78108e-18
6384.85545 6.24430e-18
6386.32275 4.43252e-18
6387.79005 6.64502e-18
6389.25735 6.98690e-18
6390.73470 4.28126e-18
6392.20200 4.94392e-18
6393.66930 4.59346e-18
6395.13660 5.20243e-18
6396.61395 8.21376e-18
6398.08125 8.15643e-18
6399.54855 6.97262e-18
6401.02590 7.41455e-18
6402.49320 7.58340e-18
6403.96050 8.32064e-18
6405.42780 8.39987e-18
6406.90515 7.93838e-18
6408.37245 8.32104e-18
6409.83975 8.86492e-18
6411.30705 9.41789e-18
6412.78440 8.75377e-18
6414.25170 8.79562e-18
6415.71900 1.00166e-17
6417.19635 1.01699e-17
6418.66365 9.56059e-18
6420.13095 8.92060e-18
6421.59825 9.45545e-18
6423.07560 9.90505e-18
6424.54290 1.08960e-17
6426.01020 1.30908e-17
6427.47750 1.22814e-17
6428.95485 1.18289e-17
6430.42215 1.31077e-17
6431.88945 1.31569e-17
6433.36680 1.17972e-17
6434.83410 1.03090e-17
6436.30140 1.16290e-17
6437.76870 1.30832e-17
6439.24605 1.32987e-17
6440.71335 1.26709e-17
6442.18065 1.28531e-17
6443.64795 1.31956e-17
6445.12530 1.30366e-17
6446.59260 1.33744e-17
6448.05990 1.40267e-17
6449.53725 1.19601e-17
6451.00455 1.33099e-17
6452.47185 1.38473e-17
6453.93915 1.09144e-17
6455.41650 1.26963e-17
6456.88380 1.32038e-17
6458.35110 1.06216e-17
6459.81840 1.05914e-17
6461.29575 1.26879e-17
6462.76305 1.31511e-17
6464.23035 1.35667e-17
6465.70770 1.47180e-17
6467.17500 1.59191e-17
6468.64230 1.32549e-17
6470.10960 1.07310e-17
6471.58695 1.21871e-17
6473.05425 1.28946e-17
6474.52155 1.18532e-17
6475.98885 1.10356e-17
6477.46620 1.26151e-17
6478.93350 1.26056e-17
6480.40080 1.21510e-17
6481.87815 1.40423e-17
6483.34545 1.39544e-17
6484.81275 1.28582e-17
6486.28005 1.10182e-17
6487.75740 1.17074e-17
6489.22470 1.34437e-17
6490.69200 1.36600e-17
6492.15930 1.24734e-17
6493.63665 1.30033e-17
6495.10395 1.39095e-17
6496.57125 1.32496e-17
6498.04860 1.21079e-17
6499.51590 1.25928e-17
6500.98320 1.39414e-17
6502.45050 1.39217e-17
6503.92785 1.48460e-17
6505.39515 1.37049e-17
6506.86245 1.39225e-17
6508.33980 1.40421e-17
6509.80710 1.60639e-17
6511.27440 1.64646e-17
6512.74170 1.48130e-17
6514.21905 1.30973e-17
6515.68635 1.34219e-17
6517.15365 1.46265e-17
6518.62095 1.44247e-17
6520.09830 1.46340e-17
6521.56560 1.37530e-17
6523.03290 1.33480e-17
6524.50020 1.42326e-17
6525.97755 1.38706e-17
6527.44485 1.32481e-17
6528.91215 1.19310e-17
6530.38950 1.31606e-17
6531.85680 1.25574e-17
6533.32410 1.02243e-17
6534.79140 1.12878e-17
6536.26875 1.39854e-17
6537.73605 1.36532e-17
6539.20335 1.16151e-17
6540.67065 1.09516e-17
6542.14800 1.13756e-17
6543.61530 1.27972e-17
6545.08260 1.13934e-17
6546.55995 9.99678e-18
6548.02725 1.14327e-17
6549.49455 1.22303e-17
6550.96185 1.08901e-17
6552.43920 9.85316e-18
6553.90650 8.92249e-18
6555.37380 7.83620e-18
6556.84110 8.10108e-18
6558.31845 9.30342e-18
6559.78575 1.04133e-17
6561.25305 9.60237e-18
6562.73040 1.08495e-17
6564.19770 1.06824e-17
6565.66500 8.89854e-18
6567.13230 6.66117e-18
6568.60965 5.75325e-18
6570.07695 8.52808e-18
6571.54425 9.10287e-18
6573.01155 8.54431e-18
6574.48890 8.61552e-18
6575.95620 7.60078e-18
6577.42350 7.36432e-18
6578.90085 6.27032e-18
6580.36815 7.20475e-18
6581.83545 7.12547e-18
6583.30275 7.03235e-18
6584.78010 9.06958e-18
6586.24740 9.31429e-18
6587.71470 8.65560e-18
6589.19205 8.05535e-18
6590.65935 7.48974e-18
6592.12665 7.25883e-18
6593.59395 5.60793e-18
6595.07130 6.78012e-18
6596.53860 1.08956e-17
6598.00590 1.16343e-17
6599.47320 1.17758e-17
6600.95055 1.17907e-17
6602.41785 1.07072e-17
6603.88515 9.55000e-18
6605.36250 9.21289e-18
6606.82980 9.35026e-18
6608.29710 8.73853e-18
6609.76440 8.67522e-18
6611.24175 1.04738e-17
6612.70905 1.02109e-17
6614.17635 1.02700e-17
6615.64365 1.06955e-17
6617.12100 9.45157e-18
6618.58830 1.15707e-17
6620.05560 1.34943e-17
6621.52290 1.23784e-17
6623.00025 1.24827e-17
6624.46755 1.22469e-17
6625.93485 1.14879e-17
6627.41220 1.30463e-17
6628.87950 1.26568e-17
6630.34680 1.20694e-17
6631.81410 1.35977e-17
6633.29145 1.34387e-17
6634.75875 1.22917e-17
6636.22605 1.35163e-17
6637.70340 1.51698e-17
6639.17070 1.39070e-17
6640.63800 1.30490e-17
6642.10530 1.27526e-17
6643.58265 1.24056e-17
6645.04995 1.36684e-17
6646.51725 1.52000e-17
6647.98455 1.46054e-17
6649.46190 1.31457e-17
6650.92920 1.61897e-17
6652.39650 1.68724e-17
6653.87385 1.50658e-17
6655.34115 1.54573e-17
6656.80845 1.50677e-17
6658.27575 1.52976e-17
6659.75310 1.43469e-17
6661.22040 1.33052e-17
6662.68770 1.52716e-17
6664.15500 1.56138e-17
6665.63235 1.43960e-17
6667.09965 1.44771e-17
6668.56695 1.45703e-17
6670.03425 1.64409e-17
6671.51160 1.72273e-17
6672.97890 1.57769e-17
6674.44620 1.61956e-17
6675.92355 1.48104e-17
6677.39085 1.29335e-17
6678.85815 1.43879e-17
6680.32545 1.60942e-17
6681.80280 1.67440e-17
6683.27010 1.53784e-17
6684.73740 1.34333e-17
6686.20470 1.46247e-17
6687.68205 1.42015e-17
6689.14935 1.37747e-17
6690.61665 1.57686e-17
6692.09400 1.67293e-17
6693.56130 1.47589e-17
6695.02860 1.29125e-17
6696.49590 1.42831e-17
6697.97325 1.51912e-17
6699.44055 1.32219e-17
6700.90785 1.34512e-17
6702.38520 1.57011e-17
6703.85250 1.42773e-17
6705.31980 1.26369e-17
6706.78710 1.44840e-17
6708.26445 1.55288e-17
6709.73175 1.56201e-17
6711.19905 1.57010e-17
6712.66635 1.44762e-17
6714.14370 1.44727e-17
6715.61100 1.40285e-17
6717.07830 1.42275e-17
6718.55565 1.48334e-17
6720.02295 1.29430e-17
6721.49025 1.43216e-17
6722.95755 1.58054e-17
6724.43490 1.42284e-17
6725.90220 1.40174e-17
6727.36950 1.31467e-17
6728.83680 1.17004e-17
6730.31415 1.29147e-17
6731.78145 1.22417e-17
6733.24875 1.26580e-17
6734.72610 1.38491e-17
6736.19340 1.33619e-17
6737.66070 1.33926e-17
6739.12800 1.34409e-17
6740.60535 1.36603e-17
6742.07265 1.24268e-17
6743.53995 1.28147e-17
6745.00725 1.29684e-17
6746.48460 1.19987e-17
6747.95190 1.07849e-17
6749.41920 1.08920e-17
6750.89655 1.12870e-17
6752.36385 1.32403e-17
6753.83115 1.36792e-17
6755.29845 1.25195e-17
6756.77580 1.24609e-17
6758.24310 1.10544e-17
6759.71040 1.10373e-17
6761.17770 1.23569e-17
6762.65505 1.35103e-17
6764.12235 1.28858e-17
6765.58965 1.08907e-17
6767.06700 1.28100e-17
6768.53430 1.35892e-17
6770.00160 1.20599e-17
6771.46890 1.08715e-17
6772.94625 1.12722e-17
6774.41355 1.34754e-17
6775.88085 1.35305e-17
6777.34815 1.23561e-17
6778.82550 1.08919e-17
6780.29280 1.21565e-17
6781.76010 1.39628e-17
6783.23745 1.37893e-17
6784.70475 1.30014e-17
6786.17205 9.48417e-18
6787.63935 7.88700e-18
6789.11670 1.07058e-17
6790.58400 1.04565e-17
6792.05130 1.04118e-17
6793.51860 1.22723e-17
6794.99595 1.23099e-17
6796.46325 1.19982e-17
6797.93055 1.15908e-17
6799.40790 1.18355e-17
6800.87520 1.17814e-17
6802.34250 8.54757e-18
6803.80980 8.35355e-18
6805.28715 1.20315e-17
6806.75445 1.25454e-17
6808.22175 1.18120e-17
6809.68905 1.14158e-17
6811.16640 1.32759e-17
6812.63370 1.42120e-17
6814.10100 1.26110e-17
6815.57835 1.34530e-17
6817.04565 1.35124e-17
6818.51295 1.25903e-17
6819.98025 1.44188e-17
6821.45760 1.46827e-17
6822.92490 1.15430e-17
6824.39220 1.14183e-17
6825.85950 1.16934e-17
6827.33685 9.67124e-18
6828.80415 1.10779e-17
6830.27145 1.40046e-17
6831.74880 1.24641e-17
6833.21610 9.67409e-18
6834.68340 1.20900e-17
6836.15070 1.29512e-17
6837.62805 1.09050e-17
6839.09535 1.10716e-17
6840.56265 1.01869e-17
6842.02995 1.04329e-17
6843.50730 1.15000e-17
6844.97460 1.12022e-17
6846.44190 1.17030e-17
6847.91925 1.20646e-17
6849.38655 1.20878e-17
6850.85385 1.19385e-17
6852.32115 1.14556e-17
6853.79850 1.00765e-17
6855.26580 9.10110e-18
6856.73310 1.06081e-17
6858.20040 1.12716e-17
6859.67775 9.74719e-18
6861.14505 1.14249e-17
6862.61235 1.48747e-17
6864.08970 1.38308e-17
6865.55700 1.07645e-17
6867.02430 9.85171e-18
6868.49160 1.07671e-17
6869.96895 9.28239e-18
6871.43625 7.36271e-18
6872.90355 8.84387e-18
6874.37085 8.34280e-18
6875.84820 7.47730e-18
6877.31550 9.11168e-18
6878.78280 9.55892e-18
6880.26015 9.18792e-18
6881.72745 8.71008e-18
6883.19475 9.29054e-18
6884.66205 9.66819e-18
6886.13940 8.78329e-18
6887.60670 8.35147e-18
6889.07400 8.64423e-18
6890.54130 1.01932e-17
6892.01865 1.03398e-17
6893.48595 9.30758e-18
6894.95325 8.55366e-18
6896.43060 9.35919e-18
6897.89790 1.13020e-17
6899.36520 1.13559e-17
6900.83250 1.05390e-17
6902.30985 9.15070e-18
6903.77715 7.40522e-18
6905.24445 6.92513e-18
6906.71175 8.24336e-18
6908.18910 8.43420e-18
6909.65640 1.02421e-17
6911.12370 1.15777e-17
6912.60105 7.36626e-18
6914.06835 5.51634e-18
6915.53565 6.45781e-18
6917.00295 6.59526e-18
6918.48030 7.49440e-18
6919.94760 1.04015e-17
6921.41490 9.98385e-18
6922.88220 7.59750e-18
6924.35955 1.06657e-17
6925.82685 1.19360e-17
6927.29415 8.60121e-18
6928.77150 7.25340e-18
6930.23880 8.78887e-18
6931.70610 9.43900e-18
6933.17340 7.97040e-18
6934.65075 7.79918e-18
6936.11805 8.34599e-18
6937.58535 8.53328e-18
6939.05265 7.93517e-18
6940.53000 6.35867e-18
6941.99730 4.91827e-18
6943.46460 5.43986e-18
6944.94195 5.66006e-18
6946.40925 3.44603e-18
6947.87655 5.67830e-18
6949.34385 8.16650e-18
6950.82120 6.86421e-18
6952.28850 6.08237e-18
6953.75580 4.77087e-18
6955.22310 3.80787e-18
6956.70045 3.64511e-18
6958.16775 3.20814e-18
6959.63505 5.46986e-18
6961.11240 6.82889e-18
6962.57970 6.30372e-18
6964.04700 6.23660e-18
6965.51430 7.14630e-18
6966.99165 5.35467e-18
6968.45895 4.55885e-18
6969.92625 6.03779e-18
6971.39355 4.85466e-18
6972.87090 5.68664e-18
6974.33820 6.64068e-18
6975.80550 7.08344e-18
6977.28285 9.11077e-18
6978.75015 9.67740e-18
6980.21745 8.42081e-18
6981.68475 8.31812e-18
6983.16210 8.93344e-18
6984.62940 9.59870e-18
6986.09670 6.72325e-18
6987.56400 7.72366e-18
6989.04135 1.07481e-17
6990.50865 1.08312e-17
6991.97595 1.08167e-17
6993.45330 1.14607e-17
6994.92060 1.09940e-17
6996.38790 9.82706e-18
6997.85520 9.54778e-18
6999.33255 1.01121e-17
7000.79985 1.14817e-17
7002.26715 1.10686e-17
7003.73445 1.10724e-17
7005.21180 1.18702e-17
7006.67910 1.35712e-17
7008.14640 1.30090e-17
7009.62375 1.18161e-17
7011.09105 1.40503e-17
7012.55835 1.51608e-17
7014.02565 1.40494e-17
7015.50300 1.37250e-17
7016.97030 1.34007e-17
7018.43760 1.30763e-17
7019.91495 1.27520e-17
7021.38225 1.24278e-17
7022.84955 1.21035e-17
7024.31685 1.17793e-17
7025.79420 1.13469e-17
7027.26150 1.44917e-17
7028.72880 1.66439e-17
7030.19610 1.62409e-17
7031.67345 1.40584e-17
7033.14075 1.41659e-17
7034.60805 1.61669e-17
7036.08540 1.68015e-17
7037.55270 1.57858e-17
7039.02000 1.67511e-17
7040.48730 1.70813e-17
7041.96465 1.48417e-17
7043.43195 1.46173e-17
7044.89925 1.74720e-17
7046.36655 1.74709e-17
7047.84390 1.42021e-17
7049.31120 1.50222e-17
7050.77850 1.51904e-17
7052.25585 1.55464e-17
7053.72315 1.56529e-17
7055.19045 1.51993e-17
7056.65775 1.47869e-17
7058.13510 1.34912e-17
7059.60240 1.42755e-17
7061.06970 1.53121e-17
7062.53700 1.60119e-17
7064.01435 1.60032e-17
7065.48165 1.50691e-17
7066.94895 1.49911e-17
7068.41625 1.47734e-17
7069.89360 1.66225e-17
7071.36090 1.63319e-17
7072.82820 1.26682e-17
7074.30555 1.18520e-17
7075.77285 1.18943e-17
7077.24015 1.36353e-17
7078.70745 1.65149e-17
7080.18480 1.59443e-17
7081.65210 1.31280e-17
7083.11940 1.40570e-17
7084.58670 1.48000e-17
7086.06405 1.45391e-17
7087.53135 1.62281e-17
7088.99865 1.56726e-17
7090.47600 1.43206e-17
7091.94330 1.27843e-17
7093.41060 1.27021e-17
7094.87790 1.48834e-17
7096.35525 1.44512e-17
7097.82255 1.44973e-17
7099.28985 1.49483e-17
7100.76720 1.47319e-17
7102.23450 1.57921e-17
7103.70180 1.30977e-17
7105.16910 9.68446e-18
7106.64645 1.07464e-17
7108.11375 1.11170e-17
7109.58105 1.12091e-17
7111.04835 1.21476e-17
7112.52570 1.28444e-17
7113.99300 1.26001e-17
7115.46030 1.28481e-17
7116.93765 1.31194e-17
7118.40495 1.29835e-17
7119.87225 1.36702e-17
7121.33955 1.21177e-17
7122.81690 1.20310e-17
7124.28420 1.32590e-17
7125.75150 1.00452e-17
7127.21880 9.04045e-18
7128.69615 1.11954e-17
7130.16345 1.18683e-17
7131.63075 1.05337e-17
7133.10810 1.13001e-17
7134.57540 1.20409e-17
7136.04270 1.05635e-17
7137.51000 9.80660e-18
7138.98735 1.05962e-17
7140.45465 1.06114e-17
7141.92195 9.42779e-18
7143.38925 9.31885e-18
7144.86660 1.08750e-17
7146.33390 1.25723e-17
7147.80120 1.20659e-17
7149.27855 1.12978e-17
7150.74585 1.03219e-17
7152.21315 1.04532e-17
7153.68045 1.06273e-17
7155.15780 9.82589e-18
7156.62510 9.98577e-18
7158.09240 1.02746e-17
7159.55970 9.62669e-18
7161.03705 8.37829e-18
7162.50435 8.73142e-18
7163.97165 9.24184e-18
7165.44900 9.87204e-18
7166.91630 1.15085e-17
7168.38360 1.07945e-17
7169.85090 9.20311e-18
7171.32825 9.05349e-18
7172.79555 9.42586e-18
7174.26285 1.03418e-17
7175.73015 1.01700e-17
7177.20750 1.03979e-17
7178.67480 9.89892e-18
7180.14210 9.47585e-18
7181.61945 8.91209e-18
7183.08675 7.02231e-18
7184.55405 6.25699e-18
7186.02135 7.12850e-18
7187.49870 8.43374e-18
7188.96600 9.64377e-18
7190.43330 9.88287e-18
7191.90060 1.02097e-17
7193.37795 1.07909e-17
7194.84525 9.65406e-18
7196.31255 9.10834e-18
7197.78990 9.66884e-18
7199.25720 1.01380e-17
7200.72450 1.03189e-17
7202.19180 9.45666e-18
7203.66915 6.82676e-18
7205.13645 7.78242e-18
7206.60375 9.59834e-18
7208.07105 9.26136e-18
7209.54840 8.60716e-18
7211.01570 7.22641e-18
7212.48300 8.55950e-18
7213.96035 1.17466e-17
7215.42765 9.98988e-18
7216.89495 8.96322e-18
7218.36225 1.00317e-17
7219.83960 1.06429e-17
7221.30690 1.18440e-17
7222.77420 1.41796e-17
7224.24150 1.29471e-17
7225.71885 1.11686e-17
7227.18615 1.24057e-17
7228.65345 1.33595e-17
7230.13080 1.20237e-17
7231.59810 1.09638e-17
7233.06540 9.66726e-18
7234.53270 1.02437e-17
7236.01005 1.27894e-17
7237.47735 1.14462e-17
7238.94465 1.30317e-17
7240.41195 1.58137e-17
7241.88930 1.24337e-17
7243.35660 1.02415e-17
7244.82390 8.51240e-18
7246.30125 8.26765e-18
7247.76855 1.07637e-17
7249.23585 1.20256e-17
7250.70315 1.31578e-17
7252.18050 1.18347e-17
7253.64780 1.13504e-17
7255.11510 1.05844e-17
7256.58240 9.37958e-18
7258.05975 1.05152e-17
7259.52705 1.04787e-17
7260.99435 1.13908e-17
7262.47170 1.21080e-17
7263.93900 1.23448e-17
7265.40630 1.13553e-17
7266.87360 1.17902e-17
7268.35095 1.18820e-17
7269.81825 1.29224e-17
7271.28555 1.16148e-17
7272.75285 8.85626e-18
7274.23020 9.27164e-18
7275.69750 1.27800e-17
7277.16480 1.16167e-17
7278.64215 1.13295e-17
7280.10945 1.15218e-17
7281.57675 1.09347e-17
7283.04405 1.12843e-17
7284.52140 1.11664e-17
7285.98870 1.12434e-17
7287.45600 1.29016e-17
7288.92330 1.38402e-17
7290.40065 9.23008e-18
7291.86795 1.14494e-17
7293.33525 1.36018e-17
7294.81260 1.15701e-17
7296.27990 9.79381e-18
7297.74720 8.78822e-18
7299.21450 8.70582e-18
7300.69185 1.20386e-17
7302.15915 9.39723e-18
7303.62645 6.67631e-18
7305.09375 9.61871e-18
7306.57110 1.46171e-17
7308.03840 1.44804e-17
7309.50570 1.08680e-17
7310.98305 1.00536e-17
7312.45035 1.29773e-17
7313.91765 1.51435e-17
7315.38495 1.46500e-17
7316.86230 1.07984e-17
7318.32960 9.06946e-18
7319.79690 1.29939e-17
7321.26420 1.06248e-17
7322.74155 1.00882e-17
7324.20885 1.20661e-17
7325.67615 1.20305e-17
7327.15350 1.12499e-17
7328.62080 1.45986e-17
7330.08810 1.41617e-17
7331.55540 1.31095e-17
7333.03275 1.07109e-17
7334.50005 9.43504e-18
7335.96735 9.02079e-18
7337.44470 1.15653e-17
7338.91200 1.13659e-17
7340.37930 1.11565e-17
7341.84660 1.16687e-17
7343.32395 1.02936e-17
7344.79125 1.04189e-17
7346.25855 1.11989e-17
7347.72585 1.37564e-17
7349.20320 1.05020e-17
7350.67050 9.38826e-18
7352.13780 1.18850e-17
7353.60510 1.31641e-17
7355.08245 1.15781e-17
7356.54975 9.69389e-18
7358.01705 8.84525e-18
7359.49440 1.15320e-17
7360.96170 1.12576e-17
7362.42900 1.03039e-17
7363.89630 9.05859e-18
7365.37365 1.11674e-17
7366.84095 1.32713e-17
7368.30825 1.19978e-17
7369.77555 1.16300e-17
7371.25290 1.20300e-17
7372.72020 9.50185e-18
7374.18750 8.57907e-18
7375.66485 1.12998e-17
7377.13215 1.12157e-17
7378.59945 1.05740e-17
7380.06675 9.37848e-18
7381.54410 1.05425e-17
7383.01140 1.19162e-17
7384.47870 1.08954e-17
7385.94600 1.07752e-17
7387.42335 1.25244e-17
7388.89065 1.19104e-17
7390.35795 1.11823e-17
7391.83530 1.01169e-17
7393.30260 7.68004e-18
7394.76990 9.34869e-18
7396.23720 1.21448e-17
7397.71455 9.21978e-18
7399.18185 7.72948e-18
7400.64915 8.83621e-18
7402.11645 7.18151e-18
7403.59380 1.00419e-17
7405.06110 1.17166e-17
7406.52840 9.78129e-18
7408.00575 9.29892e-18
7409.47305 9.44093e-18
7410.94035 9.66462e-18
7412.40765 1.03360e-17
7413.88500 1.09600e-17
7415.35230 1.24006e-17
7416.81960 1.08396e-17
7418.28690 1.02542e-17
7419.76425 9.74869e-18
