# wavelength flux
3300.0 4.2807824187634414e-10
3301.0 4.2807823800948493e-10
3302.0 4.280782341426257e-10
3303.0 4.2807823027576657e-10
3304.0 4.2807822640890746e-10
3305.0 4.280782225420483e-10
3306.0 4.280782186751893e-10
3307.0 4.2807821480833025e-10
3308.0 4.280782109414713e-10
3309.0 4.280782070746123e-10
3310.0 4.280782032077534e-10
3311.0 4.280781993408945e-10
3312.0 4.280781954740357e-10
3313.0 4.2807819160717686e-10
3314.0 4.2807818774031807e-10
3315.0 4.2807818387345933e-10
3316.0 4.280781800066007e-10
3317.0 4.2807817613974194e-10
3318.0 4.2807817227288336e-10
3319.0 4.280781684060247e-10
3320.0 4.280781645391662e-10
3321.0 4.2807816067230765e-10
3322.0 4.2807815680544916e-10
3323.0 4.280781529385907e-10
3324.0 4.2807814907173224e-10
3325.0 4.2807814520487386e-10
3326.0 4.280781413380155e-10
3327.0 4.280781374711572e-10
3328.0 4.280781336042989e-10
3329.0 4.2807812973744065e-10
3330.0 4.2807812587058237e-10
3331.0 4.280781220037242e-10
3332.0 4.280781181368661e-10
3333.0 4.2807811427000795e-10
3334.0 4.280781104031499e-10
3335.0 4.280781065362918e-10
3336.0 4.2807810266943384e-10
3337.0 4.280780988025759e-10
3338.0 4.280780949357179e-10
3339.0 4.2807809106886005e-10
3340.0 4.280780872020022e-10
3341.0 4.2807808333514427e-10
3342.0 4.280780794682865e-10
3343.0 4.2807807560142875e-10
3344.0 4.28078071734571e-10
3345.0 4.2807806786771333e-10
3346.0 4.280780640008556e-10
3347.0 4.28078060133998e-10
3348.0 4.2807805626714046e-10
3349.0 4.280780524002829e-10
3350.0 4.2807804853342535e-10
3351.0 4.280780446665679e-10
3352.0 4.2807804079971045e-10
3353.0 4.28078036932853e-10
3354.0 4.2807803306599565e-10
3355.0 4.280780291991383e-10
3356.0 4.2807802533228096e-10
3357.0 4.2807802146542377e-10
3358.0 4.2807801759856647e-10
3359.0 4.2807801373170923e-10
3360.0 4.280780098648521e-10
3361.0 4.28078005997995e-10
3362.0 4.280780021311378e-10
3363.0 4.2807799826428077e-10
3364.0 4.2807799439742374e-10
3365.0 4.2807799053056675e-10
3366.0 4.2807798666370977e-10
3367.0 4.280779827968529e-10
3368.0 4.2807797892999595e-10
3369.0 4.2807797506313917e-10
3370.0 4.280779711962823e-10
3371.0 4.280779673294255e-10
3372.0 4.2807796346256873e-10
3373.0 4.2807795959571206e-10
3374.0 4.2807795572885533e-10
3375.0 4.280779518619987e-10
3376.0 4.280779479951421e-10
3377.0 4.2807794412828557e-10
3378.0 4.28077940261429e-10
3379.0 4.280779363945725e-10
3380.0 4.28077932527716e-10
3381.0 4.2807792866085954e-10
3382.0 4.2807792479400317e-10
3383.0 4.280779209271468e-10
3384.0 4.280779170602905e-10
3385.0 4.280779131934342e-10
3386.0 4.280779093265779e-10
3387.0 4.2807790545972166e-10
3388.0 4.280779015928655e-10
3389.0 4.2807789772600935e-10
3390.0 4.280778938591532e-10
3391.0 4.2807788999229713e-10
3392.0 4.280778861254411e-10
3393.0 4.28077882258585e-10
3394.0 4.2807787839172907e-10
3395.0 4.2807787452487307e-10
3396.0 4.2807787065801717e-10
3397.0 4.2807786679116127e-10
3398.0 4.280778629243055e-10
3399.0 4.280778590574497e-10
3400.0 4.2807785519059393e-10
3401.0 4.2807785132373814e-10
3402.0 4.280778474568825e-10
3403.0 4.280778435900268e-10
3404.0 4.280778397231711e-10
3405.0 4.280778358563155e-10
3406.0 4.2807783198946e-10
3407.0 4.280778281226045e-10
3408.0 4.2807782425574896e-10
3409.0 4.2807782038889353e-10
3410.0 4.2807781652203804e-10
3411.0 4.280778126551827e-10
3412.0 4.280778087883274e-10
3413.0 4.28077804921472e-10
3414.0 4.280778010546167e-10
3415.0 4.280777971877615e-10
3416.0 4.2807779332090627e-10
3417.0 4.280777894540511e-10
3418.0 4.280777855871959e-10
3419.0 4.2807778172034084e-10
3420.0 4.2807777785348577e-10
3421.0 4.2807777398663075e-10
3422.0 4.280777701197757e-10
3423.0 4.2807776625292076e-10
3424.0 4.2807776238606584e-10
3425.0 4.2807775851921087e-10
3426.0 4.28077754652356e-10
3427.0 4.2807775078550125e-10
3428.0 4.2807774691864643e-10
3429.0 4.2807774305179167e-10
3430.0 4.280777391849369e-10
3431.0 4.2807773531808225e-10
3432.0 4.280777314512276e-10
3433.0 4.28077727584373e-10
3434.0 4.280777237175184e-10
3435.0 4.280777198506639e-10
3436.0 4.2807771598380927e-10
3437.0 4.2807771211695487e-10
3438.0 4.280777082501004e-10
3439.0 4.2807770438324596e-10
3440.0 4.2807770051639156e-10
3441.0 4.2807769664953727e-10
3442.0 4.280776927826829e-10
3443.0 4.2807768891582867e-10
3444.0 4.280776850489745e-10
3445.0 4.2807768118212023e-10
3446.0 4.2807767731526604e-10
3447.0 4.2807767344841195e-10
3448.0 4.280776695815578e-10
3449.0 4.280776657147037e-10
3450.0 4.280776618478498e-10
3451.0 4.2807765798099575e-10
3452.0 4.280776541141418e-10
3453.0 4.280776502472879e-10
3454.0 4.28077646380434e-10
3455.0 4.2807764251358016e-10
3456.0 4.2807763864672633e-10
3457.0 4.2807763477987255e-10
3458.0 4.280776309130188e-10
3459.0 4.280776270461651e-10
3460.0 4.2807762317931137e-10
3461.0 4.2807761931245774e-10
3462.0 4.2807761544560417e-10
3463.0 4.2807761157875055e-10
3464.0 4.28077607711897e-10
3465.0 4.2807760384504355e-10
3466.0 4.280775999781901e-10
3467.0 4.2807759611133667e-10
3468.0 4.2807759224448325e-10
3469.0 4.280775883776299e-10
3470.0 4.280775845107765e-10
3471.0 4.2807758064392325e-10
3472.0 4.2807757677707e-10
3473.0 4.2807757291021673e-10
3474.0 4.2807756904336357e-10
3475.0 4.2807756517651046e-10
3476.0 4.2807756130965725e-10
3477.0 4.280775574428042e-10
3478.0 4.2807755357595114e-10
3479.0 4.2807754970909813e-10
3480.0 4.280775458422452e-10
3481.0 4.2807754197539223e-10
3482.0 4.280775381085393e-10
3483.0 4.280775342416865e-10
3484.0 4.280775303748336e-10
3485.0 4.280775265079808e-10
3486.0 4.2807752264112804e-10
3487.0 4.280775187742753e-10
3488.0 4.280775149074226e-10
3489.0 4.2807751104056995e-10
3490.0 4.280775071737173e-10
3491.0 4.2807750330686467e-10
3492.0 4.280774994400122e-10
3493.0 4.2807749557315964e-10
3494.0 4.2807749170630715e-10
3495.0 4.2807748783945467e-10
3496.0 4.2807748397260223e-10
3497.0 4.2807748010574985e-10
3498.0 4.280774762388975e-10
3499.0 4.2807747237204524e-10
3500.0 4.280774685051929e-10
3501.0 4.280774646383407e-10
3501.46 1.2647e-09
3502.93 1.3425e-09
3504.4 1.2996e-09
3505.87 9.2417e-10
3507.34 5.6346e-10
3508.81 6.0076e-10
3510.28 6.704e-10
3511.75 6.8324e-10
3513.22 6.3575e-10
3514.69 5.1373e-10
3516.16 7.3625e-10
3517.63 7.2664e-10
3519.1 7.7735e-10
3520.57 1.0393e-09
3522.04 1.307e-09
3523.51 1.263e-09
3524.98 6.7917e-10
3526.45 4.7321e-10
3527.92 6.7275e-10
3529.39 8.9079e-10
3530.86 7.1303e-10
3532.33 6.7157e-10
3533.8 7.4927e-10
3535.27 9.5252e-10
3536.74 8.7577e-10
3538.21 8.2832e-10
3539.68 6.7952e-10
3541.15 1.1507e-09
3542.62 8.3245e-10
3544.09 8.1051e-10
3545.56 8.4513e-10
3547.03 6.8029e-10
3548.5 7.5495e-10
3549.97 8.0289e-10
3551.44 8.404e-10
3552.91 7.7694e-10
3554.38 9.681e-10
3555.85 9.5872e-10
3557.32 7.2386e-10
3558.79 7.5867e-10
3560.26 1.1427e-09
3561.73 1.0038e-09
3563.2 8.7189e-10
3564.67 7.8344e-10
3566.14 8.023e-10
3567.61 1.2387e-09
3569.08 1.0671e-09
3570.55 8.2635e-10
3572.02 1.0149e-09
3573.49 1.3163e-09
3574.96 1.1794e-09
3576.43 1.092e-09
3577.9 8.8249e-10
3579.37 9.2596e-10
3580.84 1.2758e-09
3582.31 1.1443e-09
3583.78 9.9807e-10
3585.25 1.2222e-09
3586.72 1.1872e-09
3588.19 1.1749e-09
3589.66 1.0799e-09
3591.13 8.221e-10
3592.6 7.6951e-10
3594.07 1.1183e-09
3595.54 1.1018e-09
3597.01 1.051e-09
3598.48 1.0199e-09
3599.95 1.1837e-09
3601.42 9.4888e-10
3602.89 9.6971e-10
3604.36 1.2045e-09
3605.83 1.0475e-09
3607.3 8.3058e-10
3608.77 1.043e-09
3610.24 1.0084e-09
3611.71 1.0813e-09
3613.18 9.6221e-10
3614.65 1.0243e-09
3616.12 9.0154e-10
3617.59 1.0476e-09
3619.06 1.1323e-09
3620.53 9.2756e-10
3622.0 8.8372e-10
3623.47 9.491e-10
3624.94 7.7693e-10
3626.41 9.9522e-10
3627.88 9.1893e-10
3629.35 9.4162e-10
3630.82 8.0148e-10
3632.29 9.0662e-10
3633.76 1.0366e-09
3635.23 9.8198e-10
3636.7 9.5937e-10
3638.17 8.747e-10
3639.64 8.069e-10
3641.11 8.5344e-10
3642.58 8.379e-10
3644.05 8.5353e-10
3645.52 9.3696e-10
3646.99 8.3995e-10
3648.46 8.7958e-10
3649.93 7.2878e-10
3651.4 8.1622e-10
3652.87 1.1525e-09
3654.34 8.8256e-10
3655.81 1.0158e-09
3657.28 1.1578e-09
3658.75 1.1724e-09
3660.22 1.0796e-09
3661.69 9.6328e-10
3663.16 1.0397e-09
3664.63 1.0488e-09
3666.1 9.0122e-10
3667.57 8.0322e-10
3669.04 9.3693e-10
3670.51 1.0836e-09
3671.98 9.7507e-10
3673.45 7.9408e-10
3674.92 9.4617e-10
3676.39 1.0516e-09
3677.86 1.1099e-09
3679.33 7.8859e-10
3680.8 7.2195e-10
3682.27 6.9043e-10
3683.74 7.0926e-10
3685.21 7.0711e-10
3686.68 8.0699e-10
3688.15 9.623e-10
3689.62 8.8838e-10
3691.09 8.748e-10
3692.56 8.1854e-10
3694.03 6.5174e-10
3695.5 5.5646e-10
3696.97 7.4957e-10
3698.44 6.564e-10
3699.91 6.6529e-10
3701.38 7.0365e-10
3702.85 7.7791e-10
3704.32 7.6214e-10
3705.79 7.3315e-10
3707.26 8.1727e-10
3708.73 8.6834e-10
3710.2 8.8123e-10
3711.67 7.8576e-10
3713.14 7.3264e-10
3714.61 6.1381e-10
3716.08 8.22e-10
3717.55 8.9655e-10
3719.02 7.2244e-10
3720.49 7.8508e-10
3721.96 7.7835e-10
3723.43 9.1849e-10
3724.9 1.0147e-09
3726.37 1.2493e-09
3727.84 1.0298e-09
3729.31 9.0059e-10
3730.78 8.7833e-10
3732.25 9.4038e-10
3733.72 8.4955e-10
3735.19 8.1993e-10
3736.66 9.4556e-10
3738.13 1.0762e-09
3739.6 1.0433e-09
3741.07 1.0595e-09
3742.54 1.0852e-09
3744.01 1.0701e-09
3745.48 1.0407e-09
3746.95 1.1626e-09
3748.42 1.2814e-09
3749.89 1.1051e-09
3751.36 9.8339e-10
3752.83 7.1409e-10
3754.3 5.7562e-10
3755.77 4.9158e-10
3757.24 5.1345e-10
3758.71 6.8501e-10
3760.18 8.966e-10
3761.65 1.0628e-09
3763.12 1.1235e-09
3764.59 1.3218e-09
3766.06 1.4219e-09
3767.53 1.4112e-09
3769.0 1.3494e-09
3770.47 1.4027e-09
3771.94 1.1004e-09
3773.41 1.0703e-09
3774.88 1.1887e-09
3776.35 1.2856e-09
3777.82 1.3869e-09
3779.29 1.1865e-09
3780.76 1.0439e-09
3782.23 1.1926e-09
3783.7 1.2779e-09
3785.17 1.3848e-09
3786.64 1.1646e-09
3788.11 1.1687e-09
3789.58 1.213e-09
3791.05 1.1319e-09
3792.52 1.297e-09
3793.99 1.2962e-09
3795.46 1.224e-09
3796.93 1.1275e-09
3798.4 1.0993e-09
3799.87 1.0687e-09
3801.34 1.1358e-09
3802.81 1.3981e-09
3804.28 1.4563e-09
3805.75 1.2601e-09
3807.22 1.2856e-09
3808.69 1.2599e-09
3810.16 1.0287e-09
3811.63 9.4327e-10
3813.1 1.0154e-09
3814.57 1.1813e-09
3816.04 1.1929e-09
3817.51 1.0773e-09
3818.98 1.1069e-09
3820.45 1.1649e-09
3821.92 1.2382e-09
3823.39 1.3712e-09
3824.86 1.2426e-09
3826.33 1.208e-09
3827.8 1.085e-09
3829.27 1.0021e-09
3830.74 1.0986e-09
3832.21 1.0986e-09
3833.68 1.116e-09
3835.15 1.0233e-09
3836.62 9.9521e-10
3838.09 1.1407e-09
3839.56 9.1672e-10
3841.03 9.6146e-10
3842.5 1.054e-09
3843.97 9.0379e-10
3845.44 9.4827e-10
3846.91 9.2032e-10
3848.38 8.9854e-10
3849.85 9.9598e-10
3851.32 1.0915e-09
3852.79 8.9826e-10
3854.26 7.5533e-10
3855.73 7.7623e-10
3857.2 8.4435e-10
3858.67 7.8511e-10
3860.14 7.8026e-10
3861.61 7.8303e-10
3863.08 7.4042e-10
3864.55 6.6735e-10
3866.02 7.0462e-10
3867.49 7.0143e-10
3868.96 6.4928e-10
3870.43 6.0118e-10
3871.9 5.0205e-10
3873.37 6.1805e-10
3874.84 6.0732e-10
3876.31 5.7893e-10
3877.78 6.5782e-10
3879.25 5.097e-10
3880.72 5.1093e-10
3882.19 5.0668e-10
3883.66 5.5598e-10
3885.13 5.3752e-10
3886.6 5.1897e-10
3888.07 4.6188e-10
3889.54 4.1242e-10
3891.01 4.297e-10
3892.48 4.3873e-10
3893.95 4.1459e-10
3895.42 3.4986e-10
3896.89 2.7768e-10
3898.36 2.9143e-10
3899.83 2.9736e-10
3901.3 2.8855e-10
3902.77 2.7234e-10
3904.24 3.0153e-10
3905.71 2.791e-10
3907.18 2.7402e-10
3908.65 2.5032e-10
3910.12 2.4467e-10
3911.59 2.7892e-10
3913.06 2.2615e-10
3914.53 1.9961e-10
3916.0 2.0093e-10
3917.47 1.9047e-10
3918.94 1.9963e-10
3920.41 1.9699e-10
3921.88 2.1174e-10
3923.35 2.3991e-10
3924.82 2.2204e-10
3926.29 2.0921e-10
3927.76 2.1943e-10
3929.23 2.1791e-10
3930.7 1.8187e-10
3932.17 1.7201e-10
3933.64 1.6592e-10
3935.11 1.4933e-10
3936.58 1.5491e-10
3938.05 1.6815e-10
3939.52 1.9164e-10
3940.99 1.6521e-10
3942.46 1.4164e-10
3943.93 1.4304e-10
3945.4 1.4638e-10
3946.87 1.496e-10
3948.34 1.3889e-10
3949.81 1.2564e-10
3951.28 1.2433e-10
3952.75 1.0367e-10
3954.22 1.1218e-10
3955.69 1.1458e-10
3957.16 1.0408e-10
3958.63 1.1086e-10
3960.1 1.2052e-10
3961.57 1.2902e-10
3963.04 1.1947e-10
3964.51 1.2642e-10
3965.98 1.3e-10
3967.45 1.0436e-10
3968.92 7.7507e-11
3970.39 8.8579e-11
3971.86 9.8868e-11
3973.33 9.1211e-11
3974.8 9.6152e-11
3976.27 1.0299e-10
3977.74 8.6276e-11
3979.21 7.6872e-11
3980.68 8.0247e-11
3982.15 9.0316e-11
3983.62 9.4697e-11
3985.09 1.0099e-10
3986.56 8.9763e-11
3988.03 8.8055e-11
3989.5 9.1328e-11
3990.97 9.2844e-11
3992.44 8.6105e-11
3993.91 8.1996e-11
3995.38 9.5756e-11
3996.85 1.0808e-10
3998.32 9.4107e-11
3999.79 1.0016e-10
4001.26 9.6284e-11
4002.73 1.0234e-10
4004.2 1.1701e-10
4005.67 1.2478e-10
4007.14 1.0782e-10
4008.61 1.143e-10
4010.08 1.2262e-10
4011.55 1.0098e-10
4013.02 9.718e-11
4014.49 1.0807e-10
4015.96 1.2763e-10
4017.43 1.0817e-10
4018.9 1.1455e-10
4020.37 1.2347e-10
4021.84 1.191e-10
4023.31 1.0982e-10
4024.78 9.8522e-11
4026.25 9.6797e-11
4027.72 1.031e-10
4029.19 8.5671e-11
4030.66 9.5636e-11
4032.13 9.2789e-11
4033.6 8.0866e-11
4035.07 9.072e-11
4036.54 1.0272e-10
4038.01 1.0065e-10
4039.48 9.7283e-11
4040.95 8.8812e-11
4042.42 9.8428e-11
4043.89 8.0074e-11
4045.36 7.167e-11
4046.83 8.3431e-11
4048.3 9.0299e-11
4049.77 9.5562e-11
4051.24 8.749e-11
4052.71 8.448e-11
4054.18 8.6917e-11
4055.65 1.0335e-10
4057.12 1.0751e-10
4058.59 1.0772e-10
4060.06 9.5428e-11
4061.53 1.0058e-10
4063.0 1.1409e-10
4064.47 1.2461e-10
4065.94 1.3391e-10
4067.41 1.2752e-10
4068.88 1.298e-10
4070.35 1.3974e-10
4071.82 1.2025e-10
4073.29 1.1871e-10
4074.76 1.2706e-10
4076.23 1.128e-10
4077.7 1.3118e-10
4079.17 1.1648e-10
4080.64 1.1351e-10
4082.11 1.4654e-10
4083.58 1.4842e-10
4085.05 1.4984e-10
4086.52 1.6308e-10
4087.99 1.4922e-10
4089.46 1.4312e-10
4090.93 1.5107e-10
4092.4 1.3159e-10
4093.87 1.2248e-10
4095.34 1.4733e-10
4096.81 1.6313e-10
4098.28 1.301e-10
4099.75 1.3086e-10
4101.22 1.3963e-10
4102.69 1.4351e-10
4104.16 1.3095e-10
4105.63 1.3415e-10
4107.1 1.632e-10
4108.57 1.4815e-10
4110.04 1.246e-10
4111.51 1.2765e-10
4112.98 1.4547e-10
4114.45 1.47e-10
4115.92 1.5703e-10
4117.39 1.7213e-10
4118.86 1.7353e-10
4120.33 1.7201e-10
4121.8 1.7313e-10
4123.27 1.7263e-10
4124.74 1.7075e-10
4126.21 1.9753e-10
4127.68 1.8661e-10
4129.15 1.6362e-10
4130.62 1.8885e-10
4132.09 1.7831e-10
4133.56 1.5195e-10
4135.03 1.6484e-10
4136.5 1.9718e-10
4137.97 1.6857e-10
4139.44 1.7246e-10
4140.91 1.9461e-10
4142.38 1.8981e-10
4143.85 2.3487e-10
4145.32 2.4405e-10
4146.79 2.2024e-10
4148.26 2.1902e-10
4149.73 2.4273e-10
4151.2 2.1685e-10
4152.67 2.0225e-10
4154.14 1.9467e-10
4155.61 1.778e-10
4157.08 2.3121e-10
4158.55 2.251e-10
4160.02 2.1942e-10
4161.49 2.298e-10
4162.96 2.2515e-10
4164.43 2.5953e-10
4165.9 2.3373e-10
4167.37 2.3579e-10
4168.84 2.438e-10
4170.31 2.6733e-10
4171.78 2.6454e-10
4173.25 2.3268e-10
4174.72 2.4297e-10
4176.19 2.3122e-10
4177.66 2.4377e-10
4179.13 2.5627e-10
4180.6 2.191e-10
4182.07 2.5205e-10
4183.54 2.6752e-10
4185.01 2.7119e-10
4186.48 2.7224e-10
4187.95 2.7464e-10
4189.42 2.9302e-10
4190.89 2.8955e-10
4192.36 3.0108e-10
4193.83 2.9977e-10
4195.3 2.8773e-10
4196.77 2.954e-10
4198.24 3.4011e-10
4199.71 3.6747e-10
4201.18 3.0527e-10
4202.65 3.3188e-10
4204.12 3.4743e-10
4205.59 3.2242e-10
4207.06 3.5902e-10
4208.53 3.4607e-10
4210.0 3.1474e-10
4211.47 2.9331e-10
4212.94 2.8596e-10
4214.41 3.1039e-10
4215.88 3.5649e-10
4217.35 3.0539e-10
4218.82 2.8004e-10
4220.29 2.9575e-10
4221.76 3.1402e-10
4223.23 3.4333e-10
4224.7 3.5374e-10
4226.17 3.3767e-10
4227.64 3.0248e-10
4229.11 3.0867e-10
4230.58 3.0719e-10
4232.05 3.0945e-10
4233.52 3.7032e-10
4234.99 3.9232e-10
4236.46 3.5716e-10
4237.93 3.5254e-10
4239.4 3.5165e-10
4240.87 3.6312e-10
4242.34 3.4676e-10
4243.81 3.6759e-10
4245.28 3.9079e-10
4246.75 3.7575e-10
4248.22 3.2848e-10
4249.69 2.9237e-10
4251.16 3.194e-10
4252.63 3.375e-10
4254.1 3.3562e-10
4255.57 3.3843e-10
4257.04 2.9049e-10
4258.51 3.4805e-10
4259.98 3.2425e-10
4261.45 3.5669e-10
4262.92 3.6718e-10
4264.39 2.6185e-10
4265.86 2.5564e-10
4267.33 2.5005e-10
4268.8 2.5075e-10
4270.27 2.7826e-10
4271.74 2.8388e-10
4273.21 2.9646e-10
4274.68 2.8836e-10
4276.15 2.5156e-10
4277.62 2.37e-10
4279.09 2.4168e-10
4280.56 2.4139e-10
4282.03 2.3369e-10
4283.5 2.4917e-10
4284.97 2.7846e-10
4286.44 2.5464e-10
4287.91 2.2578e-10
4289.38 2.4152e-10
4290.85 2.5387e-10
4292.32 2.3011e-10
4293.79 2.143e-10
4295.26 2.3025e-10
4296.73 2.2111e-10
4298.2 2.096e-10
4299.67 2.1048e-10
4301.14 2.1481e-10
4302.61 1.9673e-10
4304.08 2.2788e-10
4305.55 2.6734e-10
4307.02 2.2852e-10
4308.49 2.1269e-10
4309.96 2.2266e-10
4311.43 2.3051e-10
4312.9 1.9528e-10
4314.37 1.8874e-10
4315.84 1.8493e-10
4317.31 2.0393e-10
4318.78 1.8971e-10
4320.25 1.8604e-10
4321.72 1.8685e-10
4323.19 1.9934e-10
4324.66 1.9106e-10
4326.13 1.8941e-10
4327.6 2.0032e-10
4329.07 1.796e-10
4330.54 1.5684e-10
4332.01 1.5913e-10
4333.48 1.6488e-10
4334.95 1.894e-10
4336.42 2.0088e-10
4337.89 1.9295e-10
4339.36 1.8302e-10
4340.83 1.9162e-10
4342.3 1.9853e-10
4343.77 1.8322e-10
4345.24 1.7923e-10
4346.71 1.6684e-10
4348.18 1.7453e-10
4349.65 1.9166e-10
4351.12 1.9526e-10
4352.59 1.9292e-10
4354.06 1.8442e-10
4355.53 1.8666e-10
4357.0 1.7797e-10
4358.47 1.7189e-10
4359.94 1.5546e-10
4361.41 1.8369e-10
4362.88 1.8703e-10
4364.35 1.7634e-10
4365.82 1.9238e-10
4367.29 1.8408e-10
4368.76 1.985e-10
4370.23 1.7768e-10
4371.7 1.5531e-10
4373.17 1.5167e-10
4374.64 1.6855e-10
4376.11 1.6597e-10
4377.58 1.9797e-10
4379.05 2.0354e-10
4380.52 2.0096e-10
4381.99 2.2066e-10
4383.46 1.9856e-10
4384.93 2.0848e-10
4386.4 2.2894e-10
4387.87 2.3877e-10
4389.34 2.246e-10
4390.81 2.5614e-10
4392.28 2.4545e-10
4393.75 2.6405e-10
4395.22 2.5576e-10
4396.69 2.3617e-10
4398.16 2.6482e-10
4399.63 2.7293e-10
4401.1 2.5643e-10
4402.57 2.4863e-10
4404.04 2.6465e-10
4405.51 2.5481e-10
4406.98 2.581e-10
4408.45 3.0231e-10
4409.92 2.9114e-10
4411.39 2.6446e-10
4412.86 2.7369e-10
4414.33 2.6976e-10
4415.8 2.7653e-10
4417.27 2.7723e-10
4418.74 2.8746e-10
4420.21 2.8696e-10
4421.68 2.9699e-10
4423.15 2.8433e-10
4424.62 2.8506e-10
4426.09 2.8603e-10
4427.56 2.924e-10
4429.03 2.6526e-10
4430.5 2.7369e-10
4431.97 2.8408e-10
4433.44 2.5851e-10
4434.91 2.5933e-10
4436.38 2.6951e-10
4437.85 2.733e-10
4439.32 2.9574e-10
4440.79 3.1107e-10
4442.26 3.0456e-10
4443.73 2.9297e-10
4445.2 2.8625e-10
4446.67 3.0536e-10
4448.14 2.7676e-10
4449.61 2.8875e-10
4451.08 2.9605e-10
4452.55 2.6018e-10
4454.02 2.6915e-10
4455.49 2.6767e-10
4456.96 2.5162e-10
4458.43 2.6276e-10
4459.9 2.6534e-10
4461.37 2.4667e-10
4462.84 2.5737e-10
4464.31 2.6075e-10
4465.78 2.7086e-10
4467.25 2.5806e-10
4468.72 2.6294e-10
4470.19 2.7202e-10
4471.66 2.7618e-10
4473.13 2.5016e-10
4474.6 2.3559e-10
4476.07 2.3975e-10
4477.54 2.4517e-10
4479.01 2.4007e-10
4480.48 2.6304e-10
4481.95 2.3462e-10
4483.42 2.2067e-10
4484.89 2.1505e-10
4486.36 1.9445e-10
4487.83 2.159e-10
4489.3 2.3356e-10
4490.77 2.0285e-10
4492.24 2.0322e-10
4493.71 2.0801e-10
4495.18 1.7218e-10
4496.65 1.8866e-10
4498.12 1.8128e-10
4499.59 1.6243e-10
4501.06 1.5928e-10
4502.53 1.4972e-10
4504.0 1.4369e-10
4505.47 1.528e-10
4506.94 1.4499e-10
4508.41 1.3385e-10
4509.88 1.3841e-10
4511.35 1.4859e-10
4512.82 1.4884e-10
4514.29 1.5368e-10
4515.76 1.5653e-10
4517.23 1.3888e-10
4518.7 1.5219e-10
4520.17 1.4613e-10
4521.64 1.4921e-10
4523.11 1.5996e-10
4524.58 1.401e-10
4526.05 1.5145e-10
4527.52 1.5412e-10
4528.99 1.2682e-10
4530.46 1.2933e-10
4531.93 1.4491e-10
4533.4 1.4484e-10
4534.87 1.3362e-10
4536.34 1.4086e-10
4537.81 1.2912e-10
4539.28 1.1952e-10
4540.75 1.1036e-10
4542.22 1.1508e-10
4543.69 1.1315e-10
4545.16 1.1128e-10
4546.63 9.2805e-11
4548.1 9.2265e-11
4549.57 1.1065e-10
4551.04 1.0693e-10
4552.51 9.5024e-11
4553.98 9.3894e-11
4555.45 9.5054e-11
4556.92 1.0436e-10
4558.39 9.9138e-11
4559.86 9.417e-11
4561.33 9.2376e-11
4562.8 8.1671e-11
4564.27 8.1531e-11
4565.74 9.2338e-11
4567.21 8.9557e-11
4568.68 7.7292e-11
4570.15 7.6481e-11
4571.62 8.6887e-11
4573.09 9.0305e-11
4574.56 8.8426e-11
4576.03 7.1207e-11
4577.5 6.1502e-11
4578.97 7.6447e-11
4580.44 8.3744e-11
4581.91 8.2689e-11
4583.38 7.8809e-11
4584.85 8.1789e-11
4586.32 8.4927e-11
4587.79 8.1962e-11
4589.26 9.0258e-11
4590.73 7.8741e-11
4592.2 8.9248e-11
4593.67 6.9719e-11
4595.14 7.5324e-11
4596.61 7.43e-11
4598.08 8.4571e-11
4599.55 8.7378e-11
4601.02 8.2913e-11
4602.49 7.3369e-11
4603.96 7.8239e-11
4605.43 7.2593e-11
4606.9 7.8149e-11
4608.37 8.1264e-11
4609.84 9.3052e-11
4611.31 8.6311e-11
4612.78 8.2104e-11
4614.25 8.8193e-11
4615.72 9.0126e-11
4617.19 8.7824e-11
4618.66 7.5748e-11
4620.13 7.3842e-11
4621.6 7.7933e-11
4623.07 8.1354e-11
4624.54 7.728e-11
4626.01 8.1116e-11
4627.48 8.3508e-11
4628.95 8.5139e-11
4630.42 9.0859e-11
4631.89 9.5411e-11
4633.36 8.2356e-11
4634.83 8.9274e-11
4636.3 8.5521e-11
4637.77 8.3913e-11
4639.24 8.9548e-11
4640.71 1.0481e-10
4642.18 1.043e-10
4643.65 9.1856e-11
4645.12 9.1543e-11
4646.59 9.5963e-11
4648.06 8.9617e-11
4649.53 8.7228e-11
4651.0 9.0488e-11
4652.47 9.3511e-11
4653.94 1.0647e-10
4655.41 1.0646e-10
4656.88 9.8914e-11
4658.35 1.0068e-10
4659.82 1.0801e-10
4661.29 1.1374e-10
4662.76 1.0945e-10
4664.23 1.1907e-10
4665.7 1.1278e-10
4667.17 1.0786e-10
4668.64 1.1648e-10
4670.11 1.1468e-10
4671.58 1.1709e-10
4673.05 1.2854e-10
4674.52 1.1699e-10
4675.99 1.2357e-10
4677.46 1.3386e-10
4678.93 1.3764e-10
4680.4 1.274e-10
4681.87 1.3839e-10
4683.34 1.5378e-10
4684.81 1.6353e-10
4686.28 1.526e-10
4687.75 1.3865e-10
4689.22 1.5499e-10
4690.69 1.5341e-10
4692.16 1.6544e-10
4693.63 1.5939e-10
4695.1 1.6154e-10
4696.57 1.5098e-10
4698.04 1.7008e-10
4699.51 1.8727e-10
4700.98 1.7274e-10
4702.45 1.7408e-10
4703.92 1.7886e-10
4705.39 1.8385e-10
4706.86 1.7116e-10
4708.33 1.7458e-10
4709.8 1.8837e-10
4711.27 2.0028e-10
4712.74 2.046e-10
4714.21 2.0001e-10
4715.68 1.8773e-10
4717.15 1.8853e-10
4718.62 2.0676e-10
4720.09 2.2131e-10
4721.56 2.5432e-10
4723.03 2.4447e-10
4724.5 2.4056e-10
4725.97 2.6305e-10
4727.44 2.4054e-10
4728.91 2.5444e-10
4730.38 2.8625e-10
4731.85 2.8043e-10
4733.32 3.0439e-10
4734.79 2.8772e-10
4736.26 2.9965e-10
4737.73 2.8594e-10
4739.2 3.0119e-10
4740.67 3.2595e-10
4742.14 3.235e-10
4743.61 2.7758e-10
4745.08 2.9805e-10
4746.55 3.1277e-10
4748.02 2.7363e-10
4749.49 2.8474e-10
4750.96 3.071e-10
4752.43 3.3821e-10
4753.9 3.0897e-10
4755.37 2.7833e-10
4756.84 3.0601e-10
4758.31 2.9811e-10
4759.78 2.7078e-10
4761.25 3.0553e-10
4762.72 3.0371e-10
4764.19 2.7166e-10
4765.66 2.961e-10
4767.13 2.9321e-10
4768.6 2.9103e-10
4770.07 2.4617e-10
4771.54 2.4089e-10
4773.01 2.5166e-10
4774.48 2.4822e-10
4775.95 2.4635e-10
4777.42 2.627e-10
4778.89 2.6464e-10
4780.36 2.7365e-10
4781.83 2.7516e-10
4783.3 3.1043e-10
4784.77 2.8579e-10
4786.24 2.4499e-10
4787.71 2.1954e-10
4789.18 2.5745e-10
4790.65 2.5028e-10
4792.12 2.779e-10
4793.59 2.6301e-10
4795.06 2.8723e-10
4796.53 2.7622e-10
4798.0 2.6364e-10
4799.47 2.7764e-10
4800.94 2.9619e-10
4802.41 2.7718e-10
4803.88 2.4719e-10
4805.35 2.7881e-10
4806.82 2.7851e-10
4808.29 2.7602e-10
4809.76 2.6871e-10
4811.23 2.809e-10
4812.7 2.6543e-10
4814.17 2.6908e-10
4815.64 2.7944e-10
4817.11 2.6603e-10
4818.58 2.8441e-10
4820.05 2.8204e-10
4821.52 2.4182e-10
4822.99 2.3632e-10
4824.46 2.4307e-10
4825.93 2.3973e-10
4827.4 2.5889e-10
4828.87 2.4377e-10
4830.34 2.1938e-10
4831.81 2.288e-10
4833.28 2.3038e-10
4834.75 2.065e-10
4836.22 2.1498e-10
4837.69 2.0747e-10
4839.16 2.1991e-10
4840.63 2.2102e-10
4842.1 2.1313e-10
4843.57 2.2246e-10
4845.04 1.9477e-10
4846.51 1.8712e-10
4847.98 1.8386e-10
4849.45 2.0566e-10
4850.92 2.1803e-10
4852.39 2.1167e-10
4853.86 1.984e-10
4855.33 1.8586e-10
4856.8 1.8752e-10
4858.27 1.9967e-10
4859.74 2.0039e-10
4861.21 2.2156e-10
4862.68 2.0208e-10
4864.15 1.9996e-10
4865.62 1.9076e-10
4867.09 2.0036e-10
4868.56 2.0658e-10
4870.03 2.0166e-10
4871.5 1.8798e-10
4872.97 2.0525e-10
4874.44 2.1817e-10
4875.91 2.1926e-10
4877.38 2.1992e-10
4878.85 2.2633e-10
4880.32 2.3223e-10
4881.79 2.2277e-10
4883.26 2.4983e-10
4884.73 2.5306e-10
4886.2 2.1773e-10
4887.67 2.3595e-10
4889.14 2.6179e-10
4890.61 2.5002e-10
4892.08 2.3474e-10
4893.55 2.2793e-10
4895.02 1.7363e-10
4896.49 1.4972e-10
4897.96 1.9585e-10
4899.43 1.7471e-10
4900.9 1.9514e-10
4902.37 2.042e-10
4903.84 2.4401e-10
4905.31 2.3188e-10
4906.78 2.3587e-10
4908.25 2.2523e-10
4909.72 2.1717e-10
4911.19 2.1775e-10
4912.66 2.1906e-10
4914.13 2.427e-10
4915.6 2.3018e-10
4917.07 2.3436e-10
4918.54 2.4876e-10
4920.01 2.0081e-10
4921.48 2.0249e-10
4922.95 2.1727e-10
4924.42 2.0342e-10
4925.89 2.0508e-10
4927.36 2.046e-10
4928.83 1.9316e-10
4930.3 1.9643e-10
4931.77 1.9431e-10
4933.24 1.9608e-10
4934.71 1.943e-10
4936.18 1.7798e-10
4937.65 1.8686e-10
4939.12 1.8757e-10
4940.59 1.6801e-10
4942.06 1.8576e-10
4943.53 1.9566e-10
4945.0 1.7314e-10
4946.47 1.8225e-10
4947.94 1.7794e-10
4949.41 1.8762e-10
4950.88 1.6344e-10
4952.35 1.708e-10
4953.82 1.7734e-10
4955.29 1.7199e-10
4956.76 1.7147e-10
4958.23 1.7643e-10
4959.7 2.0038e-10
4961.17 1.8892e-10
4962.64 1.8176e-10
4964.11 1.9312e-10
4965.58 2.0852e-10
4967.05 1.9996e-10
4968.52 1.7124e-10
4969.99 1.7365e-10
4971.46 1.8249e-10
4972.93 1.8743e-10
4974.4 1.8208e-10
4975.87 1.9028e-10
4977.34 1.87e-10
4978.81 1.9457e-10
4980.28 2.0175e-10
4981.75 1.696e-10
4983.22 1.8028e-10
4984.69 1.9338e-10
4986.16 1.7922e-10
4987.63 1.789e-10
4989.1 1.7119e-10
4990.57 1.7627e-10
4992.04 1.9265e-10
4993.51 1.406e-10
4994.98 1.1695e-10
4996.45 1.4131e-10
4997.92 1.1722e-10
4999.39 1.4917e-10
5000.86 1.5156e-10
5002.33 1.8927e-10
5003.8 1.7469e-10
5005.27 1.8732e-10
5006.74 2.2254e-10
5008.21 2.0361e-10
5009.68 1.9793e-10
5011.15 1.9821e-10
5012.62 1.8908e-10
5014.09 1.9323e-10
5015.56 1.8919e-10
5017.03 2.0516e-10
5018.5 2.1396e-10
5019.97 2.0617e-10
5021.44 2.077e-10
5022.91 2.2005e-10
5024.38 2.3856e-10
5025.85 2.2986e-10
5027.32 2.2749e-10
5028.79 2.3168e-10
5030.26 2.3426e-10
5031.73 2.6077e-10
5033.2 2.6425e-10
5034.67 2.5883e-10
5036.14 2.7557e-10
5037.61 3.0831e-10
5039.08 2.8913e-10
5040.55 2.205e-10
5042.02 1.5351e-10
5043.49 1.2438e-10
5044.96 1.0738e-10
5046.43 1.4276e-10
5047.9 1.8003e-10
5049.37 2.3734e-10
5050.84 2.5482e-10
5052.31 2.7866e-10
5053.78 3.1442e-10
5055.25 2.9338e-10
5056.72 2.93e-10
5058.19 3.1735e-10
5059.66 2.9151e-10
5061.13 2.8278e-10
5062.6 2.9216e-10
5064.07 2.8395e-10
5065.54 2.839e-10
5067.01 2.8511e-10
5068.48 3.0184e-10
5069.95 2.968e-10
5071.42 2.99e-10
5072.89 2.9349e-10
5074.36 2.8613e-10
5075.83 2.8456e-10
5077.3 2.723e-10
5078.77 2.8016e-10
5080.24 2.9001e-10
5081.71 2.7353e-10
5083.18 2.4814e-10
5084.65 2.3675e-10
5086.12 2.6721e-10
5087.59 2.5756e-10
5089.06 2.9526e-10
5090.53 2.6758e-10
5092.0 2.4483e-10
5093.47 2.4291e-10
5094.94 2.5942e-10
5096.41 2.6254e-10
5097.88 2.7268e-10
5099.35 2.5971e-10
5100.82 2.563e-10
5102.29 2.3049e-10
5103.76 2.3689e-10
5105.23 2.6341e-10
5106.7 2.3772e-10
5108.17 2.2101e-10
5109.64 2.342e-10
5111.11 2.5578e-10
5112.58 2.2629e-10
5114.05 2.26e-10
5115.52 2.2633e-10
5116.99 2.3677e-10
5118.46 2.4372e-10
5119.93 2.3648e-10
5121.4 2.3452e-10
5122.87 2.2683e-10
5124.34 2.2351e-10
5125.81 2.4795e-10
5127.28 2.3099e-10
5128.75 2.2663e-10
5130.22 2.3153e-10
5131.69 2.0269e-10
5133.16 2.0932e-10
5134.63 2.0793e-10
5136.1 2.1636e-10
5137.57 2.1143e-10
5139.04 2.114e-10
5140.51 2.3514e-10
5141.98 2.281e-10
5143.45 2.1809e-10
5144.92 2.4398e-10
5146.39 2.1701e-10
5147.86 1.9604e-10
5149.33 1.9362e-10
5150.8 1.9572e-10
5152.27 1.9632e-10
5153.74 2.2685e-10
5155.21 2.2555e-10
5156.68 2.1704e-10
5158.15 1.9578e-10
5159.62 1.9419e-10
5161.09 2.1125e-10
5162.56 1.9673e-10
5164.03 1.9302e-10
5165.5 2.1518e-10
5166.97 2.0652e-10
5168.44 1.9122e-10
5169.91 2.07e-10
5171.38 1.9951e-10
5172.85 2.062e-10
5174.32 2.1255e-10
5175.79 2.1514e-10
5177.26 2.0037e-10
5178.73 1.8728e-10
5180.2 2.0089e-10
5181.67 2.0193e-10
5183.14 1.7789e-10
5184.61 1.9336e-10
5186.08 2.0384e-10
5187.55 1.8621e-10
5189.02 1.9966e-10
5190.49 2.1213e-10
5191.96 1.9423e-10
5193.43 1.8796e-10
5194.9 1.9732e-10
5196.37 1.8342e-10
5197.84 1.9285e-10
5199.31 2.0554e-10
5200.78 1.8291e-10
5202.25 1.9923e-10
5203.72 1.9725e-10
5205.19 1.8406e-10
5206.66 1.9518e-10
5208.13 1.907e-10
5209.6 1.9637e-10
5211.07 1.889e-10
5212.54 1.9691e-10
5214.01 1.9501e-10
5215.48 1.8235e-10
5216.95 1.8521e-10
5218.42 1.7667e-10
5219.89 1.6929e-10
5221.36 1.8064e-10
5222.83 1.6834e-10
5224.3 1.7554e-10
5225.77 1.7388e-10
5227.24 1.6854e-10
5228.71 1.7569e-10
5230.18 1.8528e-10
5231.65 1.6862e-10
5233.12 1.6993e-10
5234.59 1.6905e-10
5236.06 1.6157e-10
5237.53 1.4817e-10
5239.0 1.472e-10
5240.47 1.6295e-10
5241.94 1.7009e-10
5243.41 1.6001e-10
5244.88 1.6219e-10
5246.35 1.6275e-10
5247.82 1.6387e-10
5249.29 1.7105e-10
5250.76 1.6046e-10
5252.23 1.5615e-10
5253.7 1.6291e-10
5255.17 1.5944e-10
5256.64 1.4154e-10
5258.11 1.4389e-10
5259.58 1.4956e-10
5261.05 1.5985e-10
5262.52 1.5239e-10
5263.99 1.5342e-10
5265.46 1.5246e-10
5266.93 1.4061e-10
5268.4 1.4863e-10
5269.87 1.5096e-10
5271.34 1.4578e-10
5272.81 1.5371e-10
5274.28 1.5542e-10
5275.75 1.4142e-10
5277.22 1.3133e-10
5278.69 1.4701e-10
5280.16 1.6039e-10
5281.63 1.5549e-10
5283.1 1.431e-10
5284.57 1.4823e-10
5286.04 1.5793e-10
5287.51 1.4883e-10
5288.98 1.5094e-10
5290.45 1.606e-10
5291.92 1.5882e-10
5293.39 1.4365e-10
5294.86 1.4089e-10
5296.33 1.5666e-10
5297.8 1.5282e-10
5299.27 1.4166e-10
5300.74 1.3966e-10
5302.21 1.3853e-10
5303.68 1.306e-10
5305.15 1.4036e-10
5306.62 1.4946e-10
5308.09 1.4188e-10
5309.56 1.4442e-10
5311.03 1.4962e-10
5312.5 1.5864e-10
5313.97 1.4844e-10
5315.44 1.3905e-10
5316.91 1.4869e-10
5318.38 1.4577e-10
5319.85 1.4522e-10
5321.32 1.3968e-10
5322.79 1.3648e-10
5324.26 1.4759e-10
5325.73 1.4723e-10
5327.2 1.5229e-10
5328.67 1.515e-10
5330.14 1.422e-10
5331.61 1.3804e-10
5333.08 1.357e-10
5334.55 1.5156e-10
5336.02 1.4899e-10
5337.49 1.2832e-10
5338.96 1.3234e-10
5340.43 1.4184e-10
5341.9 1.4262e-10
5343.37 1.4728e-10
5344.84 1.357e-10
5346.31 1.2575e-10
5347.78 1.3679e-10
5349.25 1.3286e-10
5350.72 1.3543e-10
5352.19 1.3977e-10
5353.66 1.4794e-10
5355.13 1.5388e-10
5356.6 1.5335e-10
5358.07 1.402e-10
5359.54 1.4134e-10
5361.01 1.6035e-10
5362.48 1.5473e-10
5363.95 1.4775e-10
5365.42 1.582e-10
5366.89 1.4952e-10
5368.36 1.4566e-10
5369.83 1.4232e-10
5371.3 1.5566e-10
5372.77 1.6722e-10
5374.24 1.5613e-10
5375.71 1.5081e-10
5377.18 1.5384e-10
5378.65 1.4808e-10
5380.12 1.6924e-10
5381.59 1.7347e-10
5383.06 1.6202e-10
5384.53 1.6028e-10
5386.0 1.6089e-10
5387.47 1.5811e-10
5388.94 1.5251e-10
5390.41 1.5128e-10
5391.88 1.6319e-10
5393.35 1.7225e-10
5394.82 1.6156e-10
5396.29 1.6521e-10
5397.76 1.6866e-10
5399.23 1.8109e-10
5400.7 1.7725e-10
5402.17 1.7324e-10
5403.64 1.534e-10
5405.11 1.6733e-10
5406.58 1.7878e-10
5408.05 1.8947e-10
5409.52 1.8826e-10
5410.99 1.7719e-10
5412.46 1.6943e-10
5413.93 1.716e-10
5415.4 1.7181e-10
5416.87 1.7803e-10
5418.34 1.9713e-10
5419.81 1.8512e-10
5421.28 1.9208e-10
5422.75 1.8937e-10
5424.22 1.9032e-10
5425.69 1.84e-10
5427.16 1.9211e-10
5428.63 1.875e-10
5430.1 1.69e-10
5431.57 1.8161e-10
5433.04 1.9526e-10
5434.51 1.7521e-10
5435.98 1.9064e-10
5437.45 1.966e-10
5438.92 1.8544e-10
5440.39 1.9049e-10
5441.86 1.7807e-10
5443.33 1.7724e-10
5444.8 2.065e-10
5446.27 1.9971e-10
5447.74 1.8987e-10
5449.21 1.9756e-10
5450.68 2.1224e-10
5452.15 1.9656e-10
5453.62 1.9499e-10
5455.09 1.9176e-10
5456.56 2.0878e-10
5458.03 2.0243e-10
5459.5 1.9893e-10
5460.97 2.0639e-10
5462.44 2.0528e-10
5463.91 2.0145e-10
5465.38 2.0333e-10
5466.85 1.9828e-10
5468.32 2.0985e-10
5469.79 2.0966e-10
5471.26 2.0715e-10
5472.73 2.0503e-10
5474.2 2.0417e-10
5475.67 2.1161e-10
5477.14 2.0512e-10
5478.61 2.0563e-10
5480.08 2.097e-10
5481.55 2.1323e-10
5483.02 2.1558e-10
5484.49 2.0434e-10
5485.96 2.1059e-10
5487.43 2.1039e-10
5488.9 1.9724e-10
5490.37 2.087e-10
5491.84 2.3427e-10
5493.31 2.2779e-10
5494.78 2.1191e-10
5496.25 2.1587e-10
5497.72 2.1814e-10
5499.19 2.0872e-10
5500.66 2.1943e-10
5502.13 2.3935e-10
5503.6 2.2386e-10
5505.07 2.2084e-10
5506.54 2.2365e-10
5508.01 2.1295e-10
5509.48 2.1348e-10
5510.95 2.2208e-10
5512.42 2.0873e-10
5513.89 2.0133e-10
5515.36 2.0925e-10
5516.83 2.2393e-10
5518.3 2.1404e-10
5519.77 2.1984e-10
5521.24 2.354e-10
5522.71 2.2246e-10
5524.18 2.4675e-10
5525.65 2.4598e-10
5527.12 2.1878e-10
5528.59 2.2734e-10
5530.06 2.3917e-10
5531.53 2.5647e-10
5533.0 2.4561e-10
5534.47 2.3385e-10
5535.94 2.5314e-10
5537.41 2.4685e-10
5538.88 2.3629e-10
5540.35 2.6279e-10
5541.82 2.5027e-10
5543.29 2.4413e-10
5544.76 2.5291e-10
5546.23 2.5883e-10
5547.7 2.4184e-10
5549.17 2.4216e-10
5550.64 2.4585e-10
5552.11 2.3038e-10
5553.58 2.3879e-10
5555.05 2.3776e-10
5556.52 2.4951e-10
5557.99 2.5917e-10
5559.46 2.7316e-10
5560.93 2.6796e-10
5562.4 2.4818e-10
5563.87 2.4534e-10
5565.34 2.7716e-10
5566.81 2.7247e-10
5568.28 2.3441e-10
5569.75 2.4522e-10
5571.22 2.6314e-10
5572.69 2.5463e-10
5574.16 2.3643e-10
5575.63 2.5513e-10
5577.1 2.6818e-10
5578.57 2.4403e-10
5580.04 2.3687e-10
5581.51 2.6684e-10
5582.98 2.6518e-10
5584.45 2.5716e-10
5585.92 2.7482e-10
5587.39 2.8165e-10
5588.86 2.7179e-10
5590.33 2.662e-10
5591.8 2.7857e-10
5593.27 2.7431e-10
5594.74 2.7197e-10
5596.21 2.8249e-10
5597.68 2.738e-10
5599.15 2.6836e-10
5600.62 2.7264e-10
5602.09 2.7139e-10
5603.56 2.6115e-10
5605.03 2.45e-10
5606.5 2.5964e-10
5607.97 2.8803e-10
5609.44 2.7853e-10
5610.91 2.7359e-10
5612.38 2.9344e-10
5613.85 2.8656e-10
5615.32 2.8374e-10
5616.79 2.9645e-10
5618.26 2.9121e-10
5619.73 3.0608e-10
5621.2 2.985e-10
5622.67 2.932e-10
5624.14 2.9944e-10
5625.61 3.009e-10
5627.08 3.0965e-10
5628.55 2.8925e-10
5630.02 3.0226e-10
5631.49 3.2845e-10
5632.96 3.1647e-10
5634.43 2.9217e-10
5635.9 2.8117e-10
5637.37 2.9916e-10
5638.84 3.0409e-10
5640.31 2.9633e-10
5641.78 2.9256e-10
5643.25 2.9283e-10
5644.72 3.026e-10
5646.19 3.0034e-10
5647.66 2.9633e-10
5649.13 2.9562e-10
5650.6 3.0171e-10
5652.07 2.8902e-10
5653.54 2.9632e-10
5655.01 2.9214e-10
5656.48 2.9676e-10
5657.95 3.3081e-10
5659.42 3.1817e-10
5660.89 2.9224e-10
5662.36 2.8471e-10
5663.83 2.9143e-10
5665.3 3.1409e-10
5666.77 3.1261e-10
5668.24 3.1648e-10
5669.71 3.2366e-10
5671.18 2.9536e-10
5672.65 3.0244e-10
5674.12 3.2135e-10
5675.59 3.3595e-10
5677.06 3.0537e-10
5678.53 3.2421e-10
5680.0 3.5789e-10
5681.47 3.3743e-10
5682.94 3.5108e-10
5684.41 3.4051e-10
5685.88 3.2278e-10
5687.35 3.2107e-10
5688.82 3.1509e-10
5690.29 3.1662e-10
5691.76 3.1374e-10
5693.23 3.1767e-10
5694.7 3.3262e-10
5696.17 3.2721e-10
5697.64 3.0673e-10
5699.11 3.3556e-10
5700.58 3.5266e-10
5702.05 3.4557e-10
5703.52 3.3241e-10
5704.99 3.2125e-10
5706.46 3.3944e-10
5707.93 3.4061e-10
5709.4 3.2082e-10
5710.87 3.4627e-10
5712.34 3.6408e-10
5713.81 3.5861e-10
5715.28 3.642e-10
5716.75 3.6122e-10
5718.22 3.5927e-10
5719.69 3.998e-10
5721.16 3.8358e-10
5722.63 3.6949e-10
5724.1 3.7703e-10
5725.57 3.7315e-10
5727.04 3.7691e-10
5728.51 3.7347e-10
5729.98 3.5523e-10
5731.45 3.6627e-10
5732.92 3.9823e-10
5734.39 3.7488e-10
5735.86 3.7863e-10
5737.33 3.8625e-10
5738.8 4.1377e-10
5740.27 4.1108e-10
5741.74 4.0374e-10
5743.21 4.1302e-10
5744.68 3.9085e-10
5746.15 4.1064e-10
5747.62 4.0764e-10
5749.09 3.9087e-10
5750.56 4.0505e-10
5752.03 4.3244e-10
5753.5 4.0764e-10
5754.97 4.0132e-10
5756.44 3.9106e-10
5757.91 4.2247e-10
5759.38 4.1819e-10
5760.85 4.1378e-10
5762.32 4.1053e-10
5763.79 4.2763e-10
5765.26 4.4369e-10
5766.73 4.2413e-10
5768.2 4.1781e-10
5769.67 4.6311e-10
5771.14 4.1784e-10
5772.61 4.0765e-10
5774.08 4.2879e-10
5775.55 4.1515e-10
5777.02 4.0432e-10
5778.49 4.3734e-10
5779.96 4.3687e-10
5781.43 4.1347e-10
5782.9 3.8945e-10
5784.37 4.0828e-10
5785.84 4.1123e-10
5787.31 3.9243e-10
5788.78 3.8843e-10
5790.25 3.6906e-10
5791.72 3.8279e-10
5793.19 3.9443e-10
5794.66 3.6814e-10
5796.13 3.6751e-10
5797.6 3.8546e-10
5799.07 3.7687e-10
5800.54 3.8011e-10
5802.01 3.8454e-10
5803.48 3.5623e-10
5804.95 3.4153e-10
5806.42 3.4422e-10
5807.89 3.4431e-10
5809.36 3.6251e-10
5810.83 3.4561e-10
5812.3 3.2613e-10
5813.77 3.3982e-10
5815.24 3.3898e-10
5816.71 3.2914e-10
5818.18 3.3787e-10
5819.65 3.4458e-10
5821.12 3.6378e-10
5822.59 3.7567e-10
5824.06 3.501e-10
5825.53 3.3661e-10
5827.0 3.5416e-10
5828.47 3.5778e-10
5829.94 3.3085e-10
5831.41 3.2506e-10
5832.88 3.3546e-10
5834.35 3.4692e-10
5835.82 3.4464e-10
5837.29 3.2202e-10
5838.76 3.1808e-10
5840.23 3.3755e-10
5841.7 3.3721e-10
5843.17 3.1208e-10
5844.64 3.0798e-10
5846.11 3.2066e-10
5847.58 3.1093e-10
5849.05 3.1235e-10
5850.52 3.0769e-10
5851.99 3.0259e-10
5853.46 2.958e-10
5854.93 2.9432e-10
5856.4 3.0825e-10
5857.87 3.2109e-10
5859.34 3.1825e-10
5860.81 3.0219e-10
5862.28 3.1105e-10
5863.75 2.896e-10
5865.22 2.7942e-10
5866.69 2.9414e-10
5868.16 2.9325e-10
5869.63 2.8996e-10
5871.1 3.0252e-10
5872.57 2.8366e-10
5874.04 2.7e-10
5875.51 2.9879e-10
5876.98 2.8653e-10
5878.45 2.8128e-10
5879.92 3.0271e-10
5881.39 3.145e-10
5882.86 2.9935e-10
5884.33 3.0865e-10
5885.8 3.2012e-10
5887.27 3.2739e-10
5888.74 3.2621e-10
5890.21 3.7504e-10
5891.68 3.4909e-10
5893.15 3.0578e-10
5894.62 3.3118e-10
5896.09 3.1421e-10
5897.56 3.0786e-10
5899.03 3.2367e-10
5900.5 3.0022e-10
5901.97 2.9356e-10
5903.44 3.0927e-10
5904.91 3.0725e-10
5906.38 3.0727e-10
5907.85 3.2512e-10
5909.32 2.872e-10
5910.79 3.1558e-10
5912.26 3.2275e-10
5913.73 2.9003e-10
5915.2 2.9011e-10
5916.67 2.8276e-10
5918.14 2.7433e-10
5919.61 2.8964e-10
5921.08 2.7748e-10
5922.55 2.8121e-10
5924.02 3.0033e-10
5925.49 2.8613e-10
5926.96 3.0554e-10
5928.43 3.5124e-10
5929.9 3.3464e-10
5931.37 3.159e-10
5932.84 3.2898e-10
5934.31 3.3742e-10
5935.78 3.1593e-10
5937.25 3.2371e-10
5938.72 3.2286e-10
5940.19 3.3071e-10
5941.66 3.4647e-10
5943.13 3.4443e-10
5944.6 3.3814e-10
5946.07 3.2872e-10
5947.54 3.4551e-10
5949.01 3.4704e-10
5950.48 3.405e-10
5951.95 3.1829e-10
5953.42 3.2041e-10
5954.89 3.226e-10
5956.36 3.256e-10
5957.83 3.1262e-10
5959.3 3.3176e-10
5960.77 3.4332e-10
5962.24 3.279e-10
5963.71 3.158e-10
5965.18 3.4395e-10
5966.65 3.3812e-10
5968.12 3.1469e-10
5969.59 3.1998e-10
5971.06 3.2901e-10
5972.53 3.2745e-10
5974.0 3.6193e-10
5975.47 3.5499e-10
5976.94 3.2863e-10
5978.41 3.4898e-10
5979.88 3.5896e-10
5981.35 3.473e-10
5982.82 3.368e-10
5984.29 3.4884e-10
5985.76 3.5959e-10
5987.23 3.5267e-10
5988.7 3.406e-10
5990.17 3.3043e-10
5991.64 3.4187e-10
5993.11 3.5104e-10
5994.58 3.429e-10
5996.05 3.4635e-10
5997.52 3.6518e-10
5998.99 3.6905e-10
6000.46 3.5538e-10
6001.93 3.3648e-10
6003.4 3.5035e-10
6004.87 3.6148e-10
6006.34 3.3506e-10
6007.81 3.4755e-10
6009.28 3.9417e-10
6010.75 3.7624e-10
6012.22 3.4832e-10
6013.69 3.7194e-10
6015.16 3.7537e-10
6016.63 3.4876e-10
6018.1 3.6406e-10
6019.57 3.6078e-10
6021.04 3.5569e-10
6022.51 3.7291e-10
6023.98 3.5943e-10
6025.45 3.5842e-10
6026.92 3.8331e-10
6028.39 3.9715e-10
6029.86 3.8157e-10
6031.33 3.758e-10
6032.8 3.897e-10
6034.27 4.0287e-10
6035.74 4.105e-10
6037.21 4.0283e-10
6038.68 3.8541e-10
6040.15 3.8098e-10
6041.62 3.9365e-10
6043.09 4.0853e-10
6044.56 4.1174e-10
6046.03 4.0523e-10
6047.5 3.9412e-10
6048.97 3.9686e-10
6050.44 4.2212e-10
6051.91 4.1116e-10
6053.38 3.9026e-10
6054.85 4.136e-10
6056.32 4.2236e-10
6057.79 3.9618e-10
6059.26 3.9486e-10
6060.73 4.0453e-10
6062.2 4.0517e-10
6063.67 4.2525e-10
6065.14 4.258e-10
6066.61 4.239e-10
6068.08 4.0966e-10
6069.55 3.8266e-10
6071.02 4.0233e-10
6072.49 4.3871e-10
6073.96 4.4723e-10
6075.43 4.1621e-10
6076.9 3.9851e-10
6078.37 4.0208e-10
6079.84 4.0969e-10
6081.31 4.2137e-10
6082.78 4.3482e-10
6084.25 4.5148e-10
6085.72 4.3037e-10
6087.19 4.2164e-10
6088.66 4.1426e-10
6090.13 4.3485e-10
6091.6 4.3093e-10
6093.07 4.2157e-10
6094.54 4.5587e-10
6096.01 4.7131e-10
6097.48 4.5004e-10
6098.95 4.4322e-10
6100.42 4.2917e-10
6101.89 4.2089e-10
6103.36 4.1339e-10
6104.83 3.8288e-10
6106.3 4.0326e-10
6107.77 4.3003e-10
6109.24 4.2783e-10
6110.71 4.4187e-10
6112.18 4.5122e-10
6113.65 4.3227e-10
6115.12 4.1426e-10
6116.59 4.1157e-10
6118.06 4.151e-10
6119.53 4.217e-10
6121.0 4.4133e-10
6122.47 4.2814e-10
6123.94 4.1767e-10
6125.41 4.3068e-10
6126.88 4.5774e-10
6128.35 4.4347e-10
6129.82 4.1845e-10
6131.29 4.3684e-10
6132.76 4.2662e-10
6134.23 4.2199e-10
6135.7 4.3814e-10
6137.17 4.6065e-10
6138.64 4.6148e-10
6140.11 4.7285e-10
6141.58 4.7828e-10
6143.05 4.3414e-10
6144.52 4.4183e-10
6145.99 4.6711e-10
6147.46 4.4996e-10
6148.93 4.5023e-10
6150.4 4.6119e-10
6151.87 4.7183e-10
6153.34 4.7269e-10
6154.81 4.6369e-10
6156.28 4.4647e-10
6157.75 4.5616e-10
6159.22 4.5868e-10
6160.69 4.7938e-10
6162.16 4.8304e-10
6163.63 4.8104e-10
6165.1 4.7415e-10
6166.57 4.8194e-10
6168.04 5.0017e-10
6169.51 5.1697e-10
6170.98 5.0923e-10
6172.45 4.9527e-10
6173.92 4.9248e-10
6175.39 5.0218e-10
6176.86 5.1863e-10
6178.33 4.8542e-10
6179.8 5.0534e-10
6181.27 5.4e-10
6182.74 5.1638e-10
6184.21 5.3348e-10
6185.68 5.5004e-10
6187.15 5.2664e-10
6188.62 5.3138e-10
6190.09 5.5687e-10
6191.56 5.6363e-10
6193.03 5.6576e-10
6194.5 5.7931e-10
6195.97 5.9192e-10
6197.44 5.7967e-10
6198.91 5.7954e-10
6200.38 5.8224e-10
6201.85 5.7889e-10
6203.32 5.995e-10
6204.79 6.1518e-10
6206.26 6.1586e-10
6207.73 6.2876e-10
6209.2 6.7953e-10
6210.67 6.9671e-10
6212.14 6.5983e-10
6213.61 6.8237e-10
6215.08 7.4841e-10
6216.55 7.5009e-10
6218.02 7.029e-10
6219.49 7.0609e-10
6220.96 7.1738e-10
6222.43 6.9504e-10
6223.9 7.2673e-10
6225.37 7.6343e-10
6226.84 7.613e-10
6228.31 7.5217e-10
6229.78 7.4972e-10
6231.25 7.6594e-10
6232.72 7.5021e-10
6234.19 7.6182e-10
6235.66 7.9188e-10
6237.13 8.1009e-10
6238.6 8.2647e-10
6240.07 8.2844e-10
6241.54 8.5539e-10
6243.01 8.6132e-10
6244.48 8.373e-10
6245.95 8.1095e-10
6247.42 8.7738e-10
6248.89 8.7957e-10
6250.36 8.9896e-10
6251.83 9.9483e-10
6253.3 9.6819e-10
6254.77 9.5816e-10
6256.24 9.7581e-10
6257.71 9.7736e-10
6259.18 9.6898e-10
6260.65 9.793e-10
6262.12 9.8493e-10
6263.59 9.992e-10
6265.06 1.0314e-09
6266.53 1.0322e-09
6268.0 1.0062e-09
6269.47 1.0381e-09
6270.94 1.0727e-09
6272.41 1.0332e-09
6273.88 1.043e-09
6275.35 1.0883e-09
6276.82 1.0787e-09
6278.29 1.1147e-09
6279.76 1.1767e-09
6281.23 1.1429e-09
6282.7 1.1135e-09
6284.17 1.1583e-09
6285.64 1.1798e-09
6287.11 1.1915e-09
6288.58 1.2139e-09
6290.05 1.2153e-09
6291.52 1.2145e-09
6292.99 1.2247e-09
6294.46 1.1858e-09
6295.93 1.1977e-09
6297.4 1.2816e-09
6298.87 1.2763e-09
6300.34 1.2664e-09
6301.81 1.2466e-09
6303.28 1.207e-09
6304.75 1.2084e-09
6306.22 1.1653e-09
6307.69 1.1985e-09
6309.16 1.2505e-09
6310.63 1.2594e-09
6312.1 1.2683e-09
6313.57 1.2741e-09
6315.04 1.3097e-09
6316.51 1.2841e-09
6317.98 1.242e-09
6319.45 1.2565e-09
6320.92 1.2399e-09
6322.39 1.1993e-09
6323.86 1.281e-09
6325.33 1.3607e-09
6326.8 1.2762e-09
6328.27 1.2294e-09
6329.74 1.2586e-09
6331.21 1.3028e-09
6332.68 1.2535e-09
6334.15 1.1841e-09
6335.62 1.1927e-09
6337.09 1.214e-09
6338.56 1.2433e-09
6340.03 1.2827e-09
6341.5 1.2536e-09
6342.97 1.2061e-09
6344.44 1.2249e-09
6345.91 1.2408e-09
6347.38 1.1858e-09
6348.85 1.1344e-09
6350.32 1.1399e-09
6351.79 1.1812e-09
6353.26 1.2116e-09
6354.73 1.2063e-09
6356.2 1.2143e-09
6357.67 1.1813e-09
6359.14 1.185e-09
6360.61 1.1649e-09
6362.08 1.1939e-09
6363.55 1.2481e-09
6365.02 1.238e-09
6366.49 1.1979e-09
6367.96 1.2084e-09
6369.43 1.189e-09
6370.9 1.1781e-09
6372.37 1.182e-09
6373.84 1.1754e-09
6375.31 1.1631e-09
6376.78 1.1355e-09
6378.25 1.1508e-09
6379.72 1.1574e-09
6381.19 1.1078e-09
6382.66 1.0841e-09
6384.13 1.1349e-09
6385.6 1.1083e-09
6387.07 1.0549e-09
6388.54 1.0727e-09
6390.01 1.0572e-09
6391.48 1.0009e-09
6392.95 9.8488e-10
6394.42 1.0006e-09
6395.89 9.7852e-10
6397.36 9.3167e-10
6398.83 9.1899e-10
6400.3 9.2502e-10
6401.77 8.7349e-10
6403.24 8.4168e-10
6404.71 8.9687e-10
6406.18 8.8396e-10
6407.65 8.4013e-10
6409.12 7.9479e-10
6410.59 7.1844e-10
6412.06 7.3244e-10
6413.53 7.7565e-10
6415.0 7.3592e-10
6416.47 6.8878e-10
6417.94 6.6882e-10
6419.41 6.3667e-10
6420.88 6.1827e-10
6422.35 6.1679e-10
6423.82 5.956e-10
6425.29 5.4997e-10
6426.76 5.3207e-10
6428.23 5.4395e-10
6429.7 5.3217e-10
6431.17 5.1998e-10
6432.64 5.2067e-10
6434.11 5.1345e-10
6435.58 4.9575e-10
6437.05 4.7328e-10
6438.52 4.6697e-10
6439.99 4.6869e-10
6441.46 4.4506e-10
6442.93 4.1005e-10
6444.4 4.062e-10
6445.87 4.0858e-10
6447.34 3.9394e-10
6448.81 3.9223e-10
6450.28 3.9496e-10
6451.75 3.7131e-10
6453.22 3.5792e-10
6454.69 3.5331e-10
6456.16 3.2212e-10
6457.63 3.3155e-10
6459.1 3.4984e-10
6460.57 3.333e-10
6462.04 3.4027e-10
6463.51 3.4727e-10
6464.98 3.497e-10
6466.45 3.1655e-10
6467.92 2.8392e-10
6469.39 2.9374e-10
6470.86 2.9346e-10
6472.33 2.7551e-10
6473.8 2.9918e-10
6475.27 3.1097e-10
6476.74 2.9227e-10
6478.21 2.7845e-10
6479.68 2.6563e-10
6481.15 2.6555e-10
6482.62 2.6796e-10
6484.09 2.7008e-10
6485.56 2.6453e-10
6487.03 2.5946e-10
6488.5 2.5296e-10
6489.97 2.4713e-10
6491.44 2.4664e-10
6492.91 2.4055e-10
6494.38 2.1315e-10
6495.85 2.1478e-10
6497.32 2.2791e-10
6498.79 2.2403e-10
6500.26 2.2231e-10
6501.73 2.24e-10
6503.2 2.3809e-10
6504.67 2.3629e-10
6506.14 2.2322e-10
6507.61 2.2392e-10
6509.08 2.2631e-10
6510.55 2.138e-10
6512.02 2.1065e-10
6513.49 2.1613e-10
6514.96 2.1456e-10
6516.43 2.2761e-10
6517.9 2.2983e-10
6519.37 2.1747e-10
6520.84 2.2014e-10
6522.31 2.2075e-10
6523.78 2.0601e-10
6525.25 2.0286e-10
6526.72 1.9055e-10
6528.19 1.8236e-10
6529.66 1.9103e-10
6531.13 2.0933e-10
6532.6 2.1282e-10
6534.07 2.1398e-10
6535.54 2.0058e-10
6537.01 1.9651e-10
6538.48 1.9946e-10
6539.95 2.0742e-10
6541.42 2.0711e-10
6542.89 2.0504e-10
6544.36 2.1665e-10
6545.83 2.189e-10
6547.3 2.0373e-10
6548.77 1.8726e-10
6550.24 1.8331e-10
6551.71 1.9529e-10
6553.18 2.0189e-10
6554.65 1.8869e-10
6556.12 1.9612e-10
6557.59 2.0063e-10
6559.06 1.8906e-10
6560.53 1.8442e-10
6562.0 1.7874e-10
6563.47 1.8036e-10
6564.94 1.7888e-10
6566.41 1.8035e-10
6567.88 1.8275e-10
6569.35 1.8906e-10
6570.82 2.0247e-10
6572.29 1.9653e-10
6573.76 1.8712e-10
6575.23 1.9353e-10
6576.7 1.9931e-10
6578.17 1.9278e-10
6579.64 1.9434e-10
6581.11 1.9259e-10
6582.58 1.9225e-10
6584.05 1.8979e-10
6585.52 1.8847e-10
6586.99 1.8871e-10
6588.46 1.853e-10
6589.93 1.8816e-10
6591.4 1.8254e-10
6592.87 1.8292e-10
6594.34 1.8302e-10
6595.81 1.7403e-10
6597.28 1.7617e-10
6598.75 1.7908e-10
6600.22 1.6626e-10
6601.69 1.5994e-10
6603.16 1.7128e-10
6604.63 1.7905e-10
6606.1 1.8003e-10
6607.57 1.677e-10
6609.04 1.341e-10
6610.51 8.0247e-11
6611.98 3.7923e-11
6613.45 3.6237e-11
6614.92 7.4564e-11
6616.39 1.1599e-10
6617.86 1.4994e-10
6619.33 1.8887e-10
6620.8 1.8552e-10
6622.27 1.8076e-10
6623.74 1.9632e-10
6625.21 2.0754e-10
6626.68 1.9583e-10
6628.15 1.9654e-10
6629.62 1.9588e-10
6631.09 1.685e-10
6632.56 1.5605e-10
6634.03 1.6766e-10
6635.5 1.7664e-10
6636.97 1.7627e-10
6638.44 1.8211e-10
6639.91 1.9029e-10
6641.38 2.0026e-10
6642.85 2.0552e-10
6644.32 2.0423e-10
6645.79 1.9821e-10
6647.26 1.9385e-10
6648.73 1.9313e-10
6650.2 2.0346e-10
6651.67 2.1017e-10
6653.14 2.1044e-10
6654.61 2.0619e-10
6656.08 2.0707e-10
6657.55 2.298e-10
6659.02 2.1366e-10
6660.49 1.9078e-10
6661.96 2.0527e-10
6663.43 2.1814e-10
6664.9 2.0589e-10
6666.37 2.0226e-10
6667.84 2.2512e-10
6669.31 2.2712e-10
6670.78 2.1815e-10
6672.25 2.1566e-10
6673.72 2.0768e-10
6675.19 2.1094e-10
6676.66 2.1621e-10
6678.13 2.1738e-10
6679.6 2.2624e-10
6681.07 2.2786e-10
6682.54 2.1929e-10
6684.01 2.1092e-10
6685.48 2.151e-10
6686.95 2.3137e-10
6688.42 2.4037e-10
6689.89 2.306e-10
6691.36 2.2542e-10
6692.83 2.4006e-10
6694.3 2.4439e-10
6695.77 2.503e-10
6697.24 2.6242e-10
6698.71 2.6347e-10
6700.18 2.5895e-10
6701.65 2.4869e-10
6703.12 2.5333e-10
6704.59 2.7288e-10
6706.06 2.6344e-10
6707.53 2.5522e-10
6709.0 2.4956e-10
6710.47 2.4331e-10
6711.94 2.5209e-10
6713.41 2.5153e-10
6714.88 2.576e-10
6716.35 2.7306e-10
6717.82 2.6909e-10
6719.29 2.6417e-10
6720.76 2.7453e-10
6722.23 2.8583e-10
6723.7 2.7501e-10
6725.17 2.6901e-10
6726.64 2.8069e-10
6728.11 2.9631e-10
6729.58 2.9423e-10
6731.05 2.8033e-10
6732.52 2.8515e-10
6733.99 2.915e-10
6735.46 2.8871e-10
6736.93 2.7082e-10
6738.4 2.7413e-10
6739.87 2.8706e-10
6741.34 2.8825e-10
6742.81 2.6864e-10
6744.28 2.6402e-10
6745.75 2.88e-10
6747.22 2.8487e-10
6748.69 2.9857e-10
6750.16 3.1438e-10
6751.63 2.8518e-10
6753.1 3.0131e-10
6754.57 3.1919e-10
6756.04 2.9297e-10
6757.51 2.8963e-10
6758.98 3.0753e-10
6760.45 3.2893e-10
6761.92 3.2775e-10
6763.39 3.133e-10
6764.86 3.0047e-10
6766.33 2.7953e-10
6767.8 2.693e-10
6769.27 2.8655e-10
6770.74 3.0571e-10
6772.21 3.1846e-10
6773.68 3.3902e-10
6775.15 3.5881e-10
6776.62 3.6767e-10
6778.09 3.4095e-10
6779.56 2.9836e-10
6781.03 3.1504e-10
6782.5 3.3829e-10
6783.97 3.1127e-10
6785.44 3.1431e-10
6786.91 3.4207e-10
6788.38 3.4639e-10
6789.85 3.635e-10
6791.32 3.7877e-10
6792.79 3.5524e-10
6794.26 3.4256e-10
6795.73 3.4526e-10
6797.2 3.4203e-10
6798.67 3.7227e-10
6800.14 3.7845e-10
6801.61 3.6108e-10
6803.08 3.9034e-10
6804.55 4.072e-10
6806.02 3.9682e-10
6807.49 4.093e-10
6808.96 4.3064e-10
6810.43 4.3663e-10
6811.9 4.3065e-10
6813.37 4.192e-10
6814.84 4.0475e-10
6816.31 4.0227e-10
6817.78 4.0581e-10
6819.25 4.0373e-10
6820.72 4.0613e-10
6822.19 4.0244e-10
6823.66 4.1322e-10
6825.13 4.3976e-10
6826.6 4.5437e-10
6828.07 4.2141e-10
6829.54 4.0099e-10
6831.01 4.2458e-10
6832.48 4.3069e-10
6833.95 4.3067e-10
6835.42 4.1345e-10
6836.89 4.0236e-10
6838.36 4.2104e-10
6839.83 4.3207e-10
6841.3 4.5331e-10
6842.77 4.5054e-10
6844.24 4.3466e-10
6845.71 4.6055e-10
6847.18 4.8437e-10
6848.65 4.775e-10
6850.12 4.6484e-10
6851.59 4.6408e-10
6853.06 4.6929e-10
6854.53 4.7627e-10
6856.0 4.8128e-10
6857.47 4.7161e-10
6858.94 4.8091e-10
6860.41 4.9238e-10
6861.88 4.5483e-10
6863.35 4.6621e-10
6864.82 5.3624e-10
6866.29 5.3361e-10
6867.76 4.7116e-10
6869.23 4.3446e-10
6870.7 4.8042e-10
6872.17 5.3667e-10
6873.64 5.1253e-10
6875.11 5.2361e-10
6876.58 5.3034e-10
6878.05 5.031e-10
6879.52 5.1076e-10
6880.99 5.0719e-10
6882.46 4.9714e-10
6883.93 4.9501e-10
6885.4 4.999e-10
6886.87 4.9959e-10
6888.34 5.0759e-10
6889.81 5.1128e-10
6891.28 5.2586e-10
6892.75 5.331e-10
6894.22 5.1776e-10
6895.69 5.3393e-10
6897.16 4.9583e-10
6898.63 4.8978e-10
6900.1 5.4471e-10
6901.57 5.5031e-10
6903.04 5.5503e-10
6904.51 5.6782e-10
6905.98 5.5756e-10
6907.45 5.7942e-10
6908.92 5.6787e-10
6910.39 5.2784e-10
6911.86 5.7151e-10
6913.33 5.5949e-10
6914.8 5.161e-10
6916.27 5.3656e-10
6917.74 5.5732e-10
6919.21 5.5424e-10
6920.68 5.8474e-10
6922.15 5.79e-10
6923.62 5.5812e-10
6925.09 5.8856e-10
6926.56 5.7508e-10
6928.03 5.8234e-10
6929.5 5.7806e-10
6930.97 5.7227e-10
6932.44 5.9411e-10
6933.91 5.9811e-10
6935.38 6.0701e-10
6936.85 6.0323e-10
6938.32 5.8664e-10
6939.79 6.057e-10
6941.26 5.9541e-10
6942.73 6.1112e-10
6944.2 6.7772e-10
6945.67 6.3909e-10
6947.14 5.9682e-10
6948.61 5.9384e-10
6950.08 6.091e-10
6951.55 6.322e-10
6953.02 6.1159e-10
6954.49 5.7539e-10
6955.96 5.7193e-10
6957.43 5.8079e-10
6958.9 6.1729e-10
6960.37 6.5859e-10
6961.84 6.5957e-10
6963.31 6.2816e-10
6964.78 6.3243e-10
6966.25 6.6995e-10
6967.72 6.7098e-10
6969.19 6.2572e-10
6970.66 6.0176e-10
6972.13 6.6917e-10
6973.6 6.3327e-10
6975.07 6.0229e-10
6976.54 6.5507e-10
6978.01 6.5877e-10
6979.48 6.2233e-10
6980.95 5.8539e-10
6982.42 5.9632e-10
6983.89 5.9954e-10
6985.36 6.0615e-10
6986.83 6.1965e-10
6988.3 6.4461e-10
6989.77 6.4639e-10
6991.24 6.4535e-10
6992.71 6.4322e-10
6994.18 5.9705e-10
6995.65 5.9191e-10
6997.12 6.0076e-10
6998.59 6.3684e-10
7000.06 6.2535e-10
7001.53 6.1835e-10
7003.0 6.1172e-10
7004.47 5.9779e-10
7005.94 6.1972e-10
7007.41 6.4477e-10
7008.88 6.7167e-10
7010.35 6.7967e-10
7011.82 6.139e-10
7013.29 5.6757e-10
7014.76 6.0967e-10
7016.23 6.1178e-10
7017.7 6.1377e-10
7019.17 6.3305e-10
7020.64 6.4566e-10
7022.11 6.5254e-10
7023.58 6.6982e-10
7025.05 6.6463e-10
7026.52 6.272e-10
7027.99 5.9659e-10
7029.46 6.3366e-10
7030.93 6.4972e-10
7032.4 6.2856e-10
7033.87 5.9913e-10
7035.34 6.1797e-10
7036.81 6.5054e-10
7038.28 6.3055e-10
7039.75 6.2443e-10
7041.22 6.2958e-10
7042.69 6.1587e-10
7044.16 6.1729e-10
7045.63 6.2075e-10
7047.1 6.3242e-10
7048.57 6.6175e-10
7050.04 6.6734e-10
7051.51 6.4787e-10
7052.98 6.2236e-10
7054.45 5.9538e-10
7055.92 6.0716e-10
7057.39 6.4723e-10
7058.86 6.7754e-10
7060.33 6.7193e-10
7061.8 6.2569e-10
7063.27 6.1513e-10
7064.74 6.4646e-10
7066.21 6.6563e-10
7067.68 6.6501e-10
7069.15 6.3001e-10
7070.62 6.4328e-10
7072.09 6.7698e-10
7073.56 6.7911e-10
7075.03 6.5439e-10
7076.5 6.499e-10
7077.97 6.9184e-10
7079.44 7.0138e-10
7080.91 6.6956e-10
7082.38 6.4276e-10
7083.85 6.2819e-10
7085.32 6.6272e-10
7086.79 7.0445e-10
7088.26 7.0908e-10
7089.73 6.5993e-10
7091.2 6.3907e-10
7092.67 6.9437e-10
7094.14 6.9038e-10
7095.61 6.7318e-10
7097.08 6.7548e-10
7098.55 6.6204e-10
7100.02 6.7809e-10
7101.49 7.1609e-10
7102.96 7.045e-10
7104.43 6.4878e-10
7105.9 6.3187e-10
7107.37 6.6267e-10
7108.84 6.7406e-10
7110.31 7.0487e-10
7111.78 7.1238e-10
7113.25 6.5265e-10
7114.72 6.6261e-10
7116.19 7.1496e-10
7117.66 6.8707e-10
7119.13 6.5183e-10
7120.6 6.6589e-10
7122.07 6.9986e-10
7123.54 7.1693e-10
7125.01 6.9863e-10
7126.48 6.8276e-10
7127.95 6.9909e-10
7129.42 7.2823e-10
7130.89 7.4037e-10
7132.36 7.2978e-10
7133.83 6.9625e-10
7135.3 7.1177e-10
7136.77 7.4542e-10
7138.24 7.417e-10
7139.71 7.2762e-10
7141.18 7.3296e-10
7142.65 7.7041e-10
7144.12 7.4024e-10
7145.59 7.1989e-10
7147.06 7.5362e-10
7148.53 7.1588e-10
7150.0 6.8543e-10
7151.47 7.2908e-10
7152.94 7.79e-10
7154.41 8.0705e-10
7155.88 7.7193e-10
7157.35 7.2739e-10
7158.82 7.5964e-10
7160.29 7.9767e-10
7161.76 7.5403e-10
7163.23 7.2666e-10
7164.7 7.3994e-10
7166.17 7.5574e-10
7167.64 7.6064e-10
7169.11 7.4958e-10
7170.58 7.5891e-10
7172.05 7.6572e-10
7173.52 7.5718e-10
7174.99 8.0797e-10
7176.46 8.1616e-10
7177.93 7.8896e-10
7179.4 8.3142e-10
7180.87 8.0543e-10
7182.34 7.5016e-10
7183.81 7.8619e-10
7185.28 8.4597e-10
7186.75 8.3449e-10
7188.22 7.7852e-10
7189.69 7.7156e-10
7191.16 7.6037e-10
7192.63 7.276e-10
7194.1 7.57e-10
7195.57 7.7626e-10
7197.04 7.6523e-10
7198.51 7.9775e-10
7199.98 8.0103e-10
7201.45 7.7709e-10
7202.92 7.2942e-10
7204.39 7.2908e-10
7205.86 8.0132e-10
7207.33 8.0168e-10
7208.8 7.3984e-10
7210.27 7.6026e-10
7211.74 7.9715e-10
7213.21 7.5856e-10
7214.68 7.4059e-10
7216.15 8.0684e-10
7217.62 8.3408e-10
7219.09 8.1744e-10
7220.56 7.8688e-10
7222.03 7.672e-10
7223.5 7.3824e-10
7224.97 7.5158e-10
7226.44 8.016e-10
7227.91 8.0506e-10
7229.38 8.0304e-10
7230.85 8.2912e-10
7232.32 8.0336e-10
7233.79 7.4136e-10
7235.26 7.6652e-10
7236.73 7.6816e-10
7238.2 7.7396e-10
7239.67 7.6437e-10
7241.14 7.3056e-10
7242.61 7.8055e-10
7244.08 7.7882e-10
7245.55 7.4044e-10
7247.02 8.0647e-10
7248.49 8.3806e-10
7249.96 7.743e-10
7251.43 7.8622e-10
7252.9 8.0308e-10
7254.37 8.6632e-10
7255.84 8.3966e-10
7257.31 8.325e-10
7258.78 8.961e-10
7260.25 8.9551e-10
7261.72 8.2078e-10
7263.19 7.8931e-10
7264.66 8.2858e-10
7266.13 8.3578e-10
7267.6 8.6865e-10
7269.07 8.5911e-10
7270.54 8.2137e-10
7272.01 8.0689e-10
7273.48 8.0782e-10
7274.95 8.8335e-10
7276.42 8.75e-10
7277.89 8.3467e-10
7279.36 8.2312e-10
7280.83 7.922e-10
7282.3 8.4991e-10
7283.77 8.1584e-10
7285.24 7.7021e-10
7286.71 7.8474e-10
7288.18 8.1888e-10
7289.65 8.3705e-10
7291.12 8.0086e-10
7292.59 7.849e-10
7294.06 8.4722e-10
7295.53 9.184e-10
7297.0 8.2684e-10
7298.47 8.0497e-10
7299.94 8.1809e-10
7301.41 8.2149e-10
7302.88 8.0251e-10
7304.35 8.121e-10
7305.82 8.4806e-10
7307.29 8.4256e-10
7308.76 7.8434e-10
7310.23 7.7277e-10
7311.7 8.2871e-10
7313.17 8.363e-10
7314.64 8.3659e-10
7316.11 8.3679e-10
7317.58 8.4122e-10
7319.05 8.8028e-10
7320.52 8.4862e-10
7321.99 8.1082e-10
7323.46 8.2131e-10
7324.93 8.5177e-10
7326.4 8.8142e-10
7327.87 8.2333e-10
7329.34 8.2247e-10
7330.81 8.5316e-10
7332.28 8.4379e-10
7333.75 8.0489e-10
7335.22 8.0808e-10
7336.69 8.7454e-10
7338.16 9.0509e-10
7339.63 9.0042e-10
7341.1 8.5705e-10
7342.57 8.6699e-10
7344.04 8.732e-10
7345.51 8.3107e-10
7346.98 8.0118e-10
7348.45 8.2368e-10
7349.92 8.7025e-10
7351.39 8.5801e-10
7352.86 8.3792e-10
7354.33 8.6827e-10
7355.8 8.5833e-10
7357.27 8.4937e-10
7358.74 8.5471e-10
7360.21 8.36e-10
7361.68 8.4882e-10
7363.15 8.5802e-10
7364.62 8.6656e-10
7366.09 8.9874e-10
7367.56 9.0566e-10
7369.03 8.1224e-10
7370.5 8.2143e-10
7371.97 8.5881e-10
7373.44 8.6501e-10
7374.91 8.5641e-10
7376.38 8.6584e-10
7377.85 8.4483e-10
7379.32 8.7551e-10
7380.79 8.7793e-10
7382.26 8.5128e-10
7383.73 8.3068e-10
7385.2 8.1355e-10
7386.67 8.5437e-10
7388.14 8.581e-10
7389.61 8.8469e-10
7391.08 8.6144e-10
7392.55 8.7088e-10
7394.02 9.0365e-10
7395.49 9.2368e-10
7396.96 8.9011e-10
7398.43 8.9364e-10
7399.9 9.1453e-10
7401.37 8.7994e-10
7402.84 8.7507e-10
7404.31 9.0018e-10
7405.78 8.7525e-10
7407.25 8.556e-10
7408.72 8.8843e-10
7410.19 8.8513e-10
7411.66 9.0628e-10
7413.13 9.0547e-10
7414.6 8.9721e-10
7416.07 8.8422e-10
7417.54 9.2641e-10
7418.54 4.280623163580929e-10
7419.54 4.2806231249137755e-10
7420.54 4.2806230862466217e-10
7421.54 4.2806230475794684e-10
7422.54 4.280623008912316e-10
7423.54 4.280622970245164e-10
7424.54 4.2806229315780116e-10
7425.54 4.28062289291086e-10
7426.54 4.2806228542437086e-10
7427.54 4.2806228155765574e-10
7428.54 4.280622776909407e-10
7429.54 4.2806227382422565e-10
7430.54 4.280622699575107e-10
7431.54 4.280622660907957e-10
7432.54 4.280622622240808e-10
7433.54 4.2806225835736593e-10
7434.54 4.2806225449065106e-10
7435.54 4.2806225062393625e-10
7436.54 4.2806224675722143e-10
7437.54 4.280622428905068e-10
7438.54 4.28062239023792e-10
7439.54 4.280622351570773e-10
7440.54 4.280622312903627e-10
7441.54 4.2806222742364804e-10
7442.54 4.280622235569335e-10
7443.54 4.28062219690219e-10
7444.54 4.280622158235045e-10
7445.54 4.2806221195679e-10
7446.54 4.280622080900756e-10
7447.54 4.280622042233612e-10
7448.54 4.2806220035664683e-10
7449.54 4.280621964899325e-10
7450.54 4.2806219262321823e-10
7451.54 4.2806218875650394e-10
7452.54 4.2806218488978975e-10
7453.54 4.2806218102307555e-10
7454.54 4.280621771563614e-10
7455.54 4.2806217328964727e-10
7456.54 4.280621694229332e-10
7457.54 4.2806216555621914e-10
7458.54 4.280621616895051e-10
7459.54 4.2806215782279117e-10
7460.54 4.280621539560772e-10
7461.54 4.280621500893633e-10
7462.54 4.2806214622264937e-10
7463.54 4.2806214235593554e-10
7464.54 4.2806213848922176e-10
7465.54 4.28062134622508e-10
7466.54 4.2806213075579425e-10
7467.54 4.2806212688908057e-10
7468.54 4.280621230223669e-10
7469.54 4.2806211915565327e-10
7470.54 4.2806211528893965e-10
7471.54 4.2806211142222613e-10
7472.54 4.2806210755551255e-10
7473.54 4.280621036887991e-10
7474.54 4.2806209982208567e-10
7475.54 4.2806209595537225e-10
7476.54 4.2806209208865883e-10
7477.54 4.2806208822194547e-10
7478.54 4.2806208435523215e-10
7479.54 4.2806208048851894e-10
7480.54 4.280620766218057e-10
7481.54 4.2806207275509247e-10
7482.54 4.2806206888837926e-10
7483.54 4.2806206502166615e-10
7484.54 4.2806206115495304e-10
7485.54 4.2806205728824e-10
7486.54 4.2806205342152693e-10
7487.54 4.2806204955481393e-10
7488.54 4.28062045688101e-10
7489.54 4.28062041821388e-10
7490.54 4.2806203795467507e-10
7491.54 4.2806203408796227e-10
7492.54 4.280620302212495e-10
7493.54 4.2806202635453663e-10
7494.54 4.280620224878239e-10
7495.54 4.280620186211112e-10
7496.54 4.280620147543985e-10
7497.54 4.2806201088768585e-10
7498.54 4.280620070209732e-10
7499.54 4.280620031542606e-10
7500.54 4.2806199928754813e-10
7501.54 4.280619954208356e-10
7502.54 4.280619915541231e-10
7503.54 4.2806198768741067e-10
7504.54 4.2806198382069824e-10
7505.54 4.280619799539859e-10
7506.54 4.2806197608727357e-10
7507.54 4.2806197222056124e-10
7508.54 4.2806196835384896e-10
7509.54 4.2806196448713673e-10
7510.54 4.2806196062042456e-10
7511.54 4.280619567537124e-10
7512.54 4.280619528870003e-10
7513.54 4.280619490202882e-10
7514.54 4.280619451535761e-10
7515.54 4.2806194128686414e-10
7516.54 4.2806193742015206e-10
7517.54 4.280619335534401e-10
7518.54 4.280619296867283e-10
7519.54 4.2806192582001636e-10
7520.54 4.280619219533045e-10
7521.54 4.2806191808659273e-10
7522.54 4.280619142198809e-10
7523.54 4.280619103531692e-10
7524.54 4.2806190648645744e-10
7525.54 4.280619026197458e-10
7526.54 4.280618987530342e-10
7527.54 4.2806189488632257e-10
7528.54 4.28061891019611e-10
7529.54 4.2806188715289945e-10
7530.54 4.2806188328618795e-10
7531.54 4.280618794194765e-10
7532.54 4.2806187555276504e-10
7533.54 4.280618716860537e-10
7534.54 4.280618678193423e-10
7535.54 4.28061863952631e-10
7536.54 4.280618600859197e-10
7537.54 4.2806185621920845e-10
7538.54 4.280618523524972e-10
7539.54 4.2806184848578606e-10
7540.54 4.2806184461907487e-10
7541.54 4.280618407523637e-10
7542.54 4.280618368856527e-10
7543.54 4.280618330189417e-10
7544.54 4.280618291522306e-10
7545.54 4.2806182528551967e-10
7546.54 4.2806182141880873e-10
7547.54 4.2806181755209785e-10
7548.54 4.280618136853869e-10
7549.54 4.2806180981867613e-10
7550.54 4.280618059519653e-10
7551.54 4.2806180208525457e-10
7552.54 4.280617982185438e-10
7553.54 4.280617943518331e-10
7554.54 4.280617904851225e-10
7555.54 4.280617866184118e-10
7556.54 4.2806178275170124e-10
7557.54 4.280617788849907e-10
7558.54 4.280617750182802e-10
7559.54 4.2806177115156967e-10
7560.54 4.2806176728485925e-10
7561.54 4.2806176341814883e-10
7562.54 4.2806175955143846e-10
7563.54 4.280617556847281e-10
7564.54 4.280617518180178e-10
7565.54 4.2806174795130746e-10
7566.54 4.2806174408459725e-10
7567.54 4.280617402178871e-10
7568.54 4.280617363511769e-10
7569.54 4.2806173248446677e-10
7570.54 4.2806172861775666e-10
7571.54 4.2806172475104655e-10
7572.54 4.280617208843366e-10
7573.54 4.2806171701762654e-10
7574.54 4.2806171315091664e-10
7575.54 4.280617092842067e-10
7576.54 4.280617054174968e-10
7577.54 4.2806170155078693e-10
7578.54 4.2806169768407714e-10
7579.54 4.280616938173673e-10
7580.54 4.280616899506576e-10
7581.54 4.2806168608394784e-10
7582.54 4.2806168221723815e-10
7583.54 4.2806167835052856e-10
7584.54 4.280616744838189e-10
7585.54 4.2806167061710937e-10
7586.54 4.280616667503998e-10
7587.54 4.280616628836903e-10
7588.54 4.280616590169808e-10
7589.54 4.2806165515027137e-10
7590.54 4.28061651283562e-10
7591.54 4.280616474168526e-10
7592.54 4.2806164355014326e-10
7593.54 4.28061639683434e-10
7594.54 4.280616358167247e-10
7595.54 4.2806163195001547e-10
7596.54 4.280616280833063e-10
7597.54 4.280616242165971e-10
7598.54 4.28061620349888e-10
7599.54 4.280616164831789e-10
7600.54 4.2806161261646984e-10
7601.54 4.280616087497608e-10
7602.54 4.2806160488305184e-10
7603.54 4.280616010163429e-10
7604.54 4.28061597149634e-10
7605.54 4.280615932829251e-10
7606.54 4.2806158941621627e-10
7607.54 4.2806158554950745e-10
7608.54 4.280615816827987e-10
7609.54 4.280615778160899e-10
7610.54 4.280615739493812e-10
7611.54 4.280615700826726e-10
7612.54 4.2806156621596394e-10
7613.54 4.2806156234925533e-10
7614.54 4.280615584825468e-10
7615.54 4.2806155461583827e-10
7616.54 4.280615507491298e-10
7617.54 4.280615468824213e-10
7618.54 4.2806154301571285e-10
7619.54 4.280615391490045e-10
7620.54 4.2806153528229615e-10
7621.54 4.280615314155878e-10
7622.54 4.2806152754887955e-10
7623.54 4.2806152368217125e-10
7624.54 4.2806151981546305e-10
7625.54 4.2806151594875486e-10
7626.54 4.2806151208204677e-10
7627.54 4.280615082153386e-10
7628.54 4.2806150434863053e-10
7629.54 4.280615004819225e-10
7630.54 4.280614966152145e-10
7631.54 4.2806149274850656e-10
7632.54 4.2806148888179857e-10
7633.54 4.280614850150907e-10
7634.54 4.2806148114838285e-10
7635.54 4.28061477281675e-10
7636.54 4.2806147341496724e-10
7637.54 4.2806146954825945e-10
7638.54 4.280614656815517e-10
7639.54 4.2806146181484404e-10
7640.54 4.280614579481364e-10
7641.54 4.280614540814288e-10
7642.54 4.2806145021472116e-10
7643.54 4.2806144634801364e-10
7644.54 4.2806144248130606e-10
7645.54 4.2806143861459864e-10
7646.54 4.2806143474789117e-10
7647.54 4.280614308811837e-10
7648.54 4.2806142701447633e-10
7649.54 4.28061423147769e-10
7650.54 4.2806141928106175e-10
7651.54 4.2806141541435443e-10
7652.54 4.280614115476472e-10
7653.54 4.2806140768094e-10
7654.54 4.2806140381423284e-10
7655.54 4.2806139994752573e-10
7656.54 4.280613960808186e-10
7657.54 4.2806139221411156e-10
7658.54 4.280613883474045e-10
7659.54 4.2806138448069755e-10
7660.54 4.280613806139906e-10
7661.54 4.280613767472837e-10
7662.54 4.280613728805768e-10
7663.54 4.280613690138699e-10
7664.54 4.280613651471631e-10
7665.54 4.2806136128045633e-10
7666.54 4.2806135741374953e-10
7667.54 4.280613535470429e-10
7668.54 4.2806134968033614e-10
7669.54 4.2806134581362955e-10
7670.54 4.2806134194692295e-10
7671.54 4.2806133808021636e-10
7672.54 4.280613342135098e-10
7673.54 4.2806133034680333e-10
7674.54 4.2806132648009684e-10
7675.54 4.280613226133904e-10
7676.54 4.28061318746684e-10
7677.54 4.2806131487997763e-10
7678.54 4.2806131101327134e-10
7679.54 4.28061307146565e-10
7680.54 4.2806130327985873e-10
7681.54 4.2806129941315255e-10
7682.54 4.2806129554644637e-10
7683.54 4.280612916797402e-10
7684.54 4.2806128781303406e-10
7685.54 4.28061283946328e-10
7686.54 4.2806128007962196e-10
7687.54 4.280612762129159e-10
7688.54 4.2806127234620996e-10
7689.54 4.28061268479504e-10
7690.54 4.2806126461279807e-10
7691.54 4.280612607460922e-10
7692.54 4.280612568793864e-10
7693.54 4.2806125301268056e-10
7694.54 4.280612491459748e-10
7695.54 4.2806124527926903e-10
7696.54 4.2806124141256337e-10
7697.54 4.280612375458577e-10
7698.54 4.280612336791521e-10
7699.54 4.2806122981244643e-10
7700.54 4.280612259457409e-10
7701.54 4.280612220790354e-10
7702.54 4.280612182123299e-10
7703.54 4.2806121434562445e-10
7704.54 4.2806121047891905e-10
7705.54 4.2806120661221364e-10
7706.54 4.280612027455083e-10
7707.54 4.28061198878803e-10
7708.54 4.280611950120977e-10
7709.54 4.2806119114539244e-10
7710.54 4.280611872786872e-10
7711.54 4.2806118341198204e-10
7712.54 4.280611795452769e-10
7713.54 4.280611756785718e-10
7714.54 4.280611718118667e-10
7715.54 4.2806116794516167e-10
7716.54 4.280611640784567e-10
7717.54 4.2806116021175174e-10
7718.54 4.280611563450468e-10
7719.54 4.280611524783419e-10
7720.54 4.28061148611637e-10
7721.54 4.280611447449322e-10
7722.54 4.280611408782274e-10
7723.54 4.280611370115226e-10
7724.54 4.2806113314481794e-10
7725.54 4.280611292781132e-10
7726.54 4.280611254114086e-10
7727.54 4.28061121544704e-10
7728.54 4.280611176779994e-10
7729.54 4.2806111381129485e-10
7730.54 4.280611099445903e-10
7731.54 4.2806110607788585e-10
7732.54 4.2806110221118143e-10
7733.54 4.28061098344477e-10
7734.54 4.2806109447777264e-10
7735.54 4.280610906110683e-10
7736.54 4.28061086744364e-10
7737.54 4.280610828776597e-10
7738.54 4.280610790109555e-10
7739.54 4.280610751442513e-10
7740.54 4.2806107127754714e-10
7741.54 4.28061067410843e-10
7742.54 4.280610635441389e-10
7743.54 4.2806105967743486e-10
7744.54 4.280610558107308e-10
7745.54 4.2806105194402684e-10
7746.54 4.280610480773229e-10
7747.54 4.28061044210619e-10
7748.54 4.2806104034391507e-10
7749.54 4.280610364772112e-10
7750.54 4.280610326105074e-10
7751.54 4.2806102874380367e-10
7752.54 4.2806102487709987e-10
7753.54 4.2806102101039617e-10
7754.54 4.280610171436925e-10
7755.54 4.280610132769889e-10
7756.54 4.2806100941028523e-10
7757.54 4.2806100554358174e-10
7758.54 4.2806100167687814e-10
7759.54 4.2806099781017465e-10
7760.54 4.280609939434712e-10
7761.54 4.280609900767677e-10
7762.54 4.2806098621006433e-10
7763.54 4.28060982343361e-10
7764.54 4.280609784766577e-10
7765.54 4.280609746099544e-10
7766.54 4.2806097074325114e-10
7767.54 4.280609668765479e-10
7768.54 4.280609630098447e-10
7769.54 4.280609591431416e-10
7770.54 4.2806095527643847e-10
7771.54 4.280609514097354e-10
7772.54 4.2806094754303237e-10
7773.54 4.280609436763293e-10
7774.54 4.280609398096263e-10
7775.54 4.280609359429234e-10
7776.54 4.2806093207622047e-10
7777.54 4.280609282095176e-10
7778.54 4.2806092434281483e-10
7779.54 4.28060920476112e-10
7780.54 4.280609166094092e-10
7781.54 4.280609127427065e-10
7782.54 4.280609088760038e-10
7783.54 4.280609050093011e-10
7784.54 4.280609011425985e-10
7785.54 4.280608972758959e-10
7786.54 4.2806089340919336e-10
7787.54 4.2806088954249085e-10
7788.54 4.280608856757884e-10
7789.54 4.280608818090859e-10
7790.54 4.280608779423835e-10
7791.54 4.2806087407568113e-10
7792.54 4.280608702089787e-10
7793.54 4.280608663422764e-10
7794.54 4.2806086247557417e-10
7795.54 4.280608586088719e-10
7796.54 4.280608547421697e-10
7797.54 4.280608508754675e-10
7798.54 4.2806084700876537e-10
7799.54 4.280608431420633e-10
7800.54 4.2806083927536123e-10
7801.54 4.280608354086592e-10
7802.54 4.280608315419572e-10
7803.54 4.2806082767525526e-10
7804.54 4.2806082380855326e-10
7805.54 4.2806081994185143e-10
7806.54 4.2806081607514954e-10
7807.54 4.280608122084477e-10
7808.54 4.280608083417459e-10
7809.54 4.280608044750442e-10
7810.54 4.2806080060834245e-10
7811.54 4.280607967416408e-10
7812.54 4.2806079287493914e-10
7813.54 4.2806078900823756e-10
7814.54 4.2806078514153593e-10
7815.54 4.280607812748344e-10
7816.54 4.280607774081329e-10
7817.54 4.280607735414314e-10
7818.54 4.2806076967473e-10
7819.54 4.280607658080286e-10
7820.54 4.2806076194132723e-10
7821.54 4.2806075807462586e-10
7822.54 4.280607542079246e-10
7823.54 4.2806075034122327e-10
7824.54 4.2806074647452206e-10
7825.54 4.280607426078209e-10
7826.54 4.2806073874111973e-10
7827.54 4.280607348744186e-10
7828.54 4.280607310077175e-10
7829.54 4.2806072714101644e-10
7830.54 4.280607232743155e-10
7831.54 4.2806071940761447e-10
7832.54 4.2806071554091356e-10
7833.54 4.280607116742126e-10
7834.54 4.2806070780751175e-10
7835.54 4.2806070394081084e-10
7836.54 4.2806070007411004e-10
7837.54 4.280606962074093e-10
7838.54 4.2806069234070854e-10
7839.54 4.280606884740078e-10
7840.54 4.280606846073072e-10
7841.54 4.2806068074060654e-10
7842.54 4.2806067687390595e-10
7843.54 4.2806067300720535e-10
7844.54 4.2806066914050486e-10
7845.54 4.2806066527380437e-10
7846.54 4.2806066140710387e-10
7847.54 4.2806065754040343e-10
7848.54 4.2806065367370304e-10
7849.54 4.2806064980700276e-10
7850.54 4.280606459403024e-10
7851.54 4.280606420736021e-10
7852.54 4.280606382069019e-10
7853.54 4.280606343402016e-10
7854.54 4.280606304735015e-10
7855.54 4.280606266068013e-10
7856.54 4.2806062274010117e-10
7857.54 4.280606188734011e-10
7858.54 4.2806061500670106e-10
7859.54 4.2806061114000103e-10
7860.54 4.2806060727330106e-10
7861.54 4.280606034066012e-10
7862.54 4.2806059953990126e-10
7863.54 4.280605956732014e-10
7864.54 4.2806059180650157e-10
7865.54 4.2806058793980175e-10
7866.54 4.28060584073102e-10
7867.54 4.280605802064023e-10
7868.54 4.2806057633970254e-10
7869.54 4.2806057247300293e-10
7870.54 4.280605686063033e-10
7871.54 4.280605647396037e-10
7872.54 4.2806056087290414e-10
7873.54 4.2806055700620463e-10
7874.54 4.280605531395051e-10
7875.54 4.280605492728057e-10
7876.54 4.280605454061063e-10
7877.54 4.2806054153940695e-10
7878.54 4.280605376727076e-10
7879.54 4.280605338060083e-10
7880.54 4.28060529939309e-10
7881.54 4.2806052607260973e-10
7882.54 4.2806052220591053e-10
7883.54 4.280605183392114e-10
7884.54 4.2806051447251224e-10
7885.54 4.2806051060581314e-10
7886.54 4.2806050673911404e-10
7887.54 4.28060502872415e-10
7888.54 4.2806049900571605e-10
7889.54 4.2806049513901706e-10
7890.54 4.280604912723181e-10
7891.54 4.2806048740561933e-10
7892.54 4.2806048353892044e-10
7893.54 4.280604796722216e-10
7894.54 4.280604758055228e-10
7895.54 4.2806047193882403e-10
7896.54 4.2806046807212535e-10
7897.54 4.280604642054267e-10
7898.54 4.2806046033872803e-10
7899.54 4.2806045647202945e-10
7900.54 4.2806045260533087e-10
7901.54 4.280604487386323e-10
7902.54 4.2806044487193376e-10
7903.54 4.280604410052354e-10
7904.54 4.280604371385369e-10
7905.54 4.2806043327183854e-10
7906.54 4.280604294051401e-10
7907.54 4.280604255384418e-10
7908.54 4.280604216717435e-10
7909.54 4.2806041780504525e-10
7910.54 4.2806041393834704e-10
7911.54 4.280604100716488e-10
7912.54 4.2806040620495065e-10
7913.54 4.2806040233825254e-10
7914.54 4.2806039847155447e-10
7915.54 4.280603946048564e-10
7916.54 4.280603907381584e-10
7917.54 4.2806038687146044e-10
7918.54 4.2806038300476243e-10
7919.54 4.280603791380645e-10
7920.54 4.2806037527136666e-10
7921.54 4.280603714046688e-10
7922.54 4.2806036753797106e-10
7923.54 4.2806036367127325e-10
7924.54 4.280603598045755e-10
7925.54 4.2806035593787785e-10
7926.54 4.2806035207118015e-10
7927.54 4.280603482044825e-10
7928.54 4.2806034433778495e-10
7929.54 4.2806034047108735e-10
7930.54 4.2806033660438986e-10
7931.54 4.2806033273769237e-10
7932.54 4.2806032887099487e-10
7933.54 4.280603250042975e-10
7934.54 4.280603211376001e-10
7935.54 4.280603172709027e-10
7936.54 4.280603134042054e-10
7937.54 4.280603095375081e-10
7938.54 4.280603056708109e-10
7939.54 4.2806030180411365e-10
7940.54 4.280602979374165e-10
7941.54 4.2806029407071934e-10
7942.54 4.2806029020402226e-10
7943.54 4.280602863373252e-10
7944.54 4.2806028247062815e-10
7945.54 4.280602786039311e-10
7946.54 4.280602747372342e-10
7947.54 4.280602708705372e-10
7948.54 4.2806026700384034e-10
7949.54 4.2806026313714347e-10
7950.54 4.2806025927044664e-10
7951.54 4.2806025540374987e-10
7952.54 4.280602515370531e-10
7953.54 4.2806024767035633e-10
7954.54 4.2806024380365966e-10
7955.54 4.2806023993696305e-10
7956.54 4.280602360702664e-10
7957.54 4.280602322035698e-10
7958.54 4.2806022833687325e-10
7959.54 4.2806022447017674e-10
7960.54 4.280602206034803e-10
7961.54 4.280602167367838e-10
7962.54 4.280602128700874e-10
7963.54 4.2806020900339106e-10
7964.54 4.2806020513669475e-10
7965.54 4.280602012699984e-10
7966.54 4.2806019740330214e-10
7967.54 4.280601935366059e-10
7968.54 4.2806018966990963e-10
7969.54 4.2806018580321354e-10
7970.54 4.280601819365174e-10
7971.54 4.280601780698213e-10
7972.54 4.2806017420312524e-10
7973.54 4.280601703364292e-10
7974.54 4.280601664697332e-10
7975.54 4.280601626030373e-10
7976.54 4.2806015873634136e-10
7977.54 4.2806015486964547e-10
7978.54 4.280601510029496e-10
7979.54 4.280601471362538e-10
7980.54 4.28060143269558e-10
7981.54 4.2806013940286227e-10
7982.54 4.280601355361666e-10
7983.54 4.280601316694709e-10
7984.54 4.2806012780277526e-10
7985.54 4.2806012393607963e-10
7986.54 4.2806012006938405e-10
7987.54 4.280601162026885e-10
7988.54 4.2806011233599304e-10
7989.54 4.280601084692975e-10
7990.54 4.2806010460260214e-10
7991.54 4.280601007359067e-10
7992.54 4.2806009686921134e-10
7993.54 4.28060093002516e-10
7994.54 4.2806008913582074e-10
7995.54 4.280600852691255e-10
7996.54 4.280600814024303e-10
7997.54 4.2806007753573514e-10
7998.54 4.280600736690399e-10
7999.54 4.2806006980234485e-10
8000.54 4.2806006593564974e-10
8001.54 4.2806006206895467e-10
8002.54 4.2806005820225966e-10
8003.54 4.280600543355647e-10
8004.54 4.2806005046886974e-10
8005.54 4.280600466021749e-10
8006.54 4.2806004273547997e-10
8007.54 4.280600388687851e-10
8008.54 4.2806003500209036e-10
8009.54 4.280600311353956e-10
8010.54 4.280600272687008e-10
8011.54 4.2806002340200615e-10
8012.54 4.280600195353115e-10
8013.54 4.2806001566861684e-10
8014.54 4.2806001180192224e-10
8015.54 4.280600079352277e-10
8016.54 4.280600040685332e-10
8017.54 4.280600002018387e-10
8018.54 4.280599963351442e-10
8019.54 4.280599924684498e-10
8020.54 4.280599886017554e-10
8021.54 4.2805998473506103e-10
8022.54 4.2805998086836674e-10
8023.54 4.2805997700167246e-10
8024.54 4.280599731349782e-10
8025.54 4.28059969268284e-10
8026.54 4.280599654015899e-10
8027.54 4.280599615348957e-10
8028.54 4.2805995766820163e-10
8029.54 4.2805995380150755e-10
8030.54 4.280599499348135e-10
8031.54 4.2805994606811954e-10
8032.54 4.280599422014255e-10
8033.54 4.280599383347316e-10
8034.54 4.280599344680377e-10
8035.54 4.280599306013439e-10
8036.54 4.2805992673465006e-10
8037.54 4.2805992286795624e-10
8038.54 4.280599190012625e-10
8039.54 4.280599151345688e-10
8040.54 4.2805991126787513e-10
8041.54 4.280599074011814e-10
8042.54 4.280599035344878e-10
8043.54 4.280598996677942e-10
8044.54 4.280598958011007e-10
8045.54 4.280598919344072e-10
8046.54 4.280598880677137e-10
8047.54 4.2805988420102027e-10
8048.54 4.2805988033432686e-10
8049.54 4.280598764676335e-10
8050.54 4.2805987260094015e-10
8051.54 4.2805986873424684e-10
8052.54 4.2805986486755364e-10
8053.54 4.280598610008604e-10
8054.54 4.2805985713416713e-10
8055.54 4.2805985326747403e-10
8056.54 4.280598494007809e-10
8057.54 4.280598455340878e-10
8058.54 4.2805984166739473e-10
8059.54 4.2805983780070173e-10
8060.54 4.280598339340087e-10
8061.54 4.280598300673158e-10
8062.54 4.280598262006229e-10
8063.54 4.2805982233393e-10
8064.54 4.2805981846723716e-10
8065.54 4.280598146005443e-10
8066.54 4.2805981073385153e-10
8067.54 4.280598068671588e-10
8068.54 4.2805980300046605e-10
8069.54 4.280597991337734e-10
8070.54 4.280597952670808e-10
8071.54 4.280597914003882e-10
8072.54 4.280597875336956e-10
8073.54 4.2805978366700314e-10
8074.54 4.2805977980031056e-10
8075.54 4.280597759336181e-10
8076.54 4.2805977206692575e-10
8077.54 4.280597682002333e-10
8078.54 4.2805976433354095e-10
8079.54 4.280597604668486e-10
8080.54 4.2805975660015635e-10
8081.54 4.2805975273346403e-10
8082.54 4.2805974886677186e-10
8083.54 4.280597450000797e-10
8084.54 4.280597411333875e-10
8085.54 4.2805973726669545e-10
8086.54 4.2805973340000334e-10
8087.54 4.2805972953331127e-10
8088.54 4.2805972566661926e-10
8089.54 4.2805972179992734e-10
8090.54 4.280597179332354e-10
8091.54 4.2805971406654347e-10
8092.54 4.280597101998516e-10
8093.54 4.2805970633315975e-10
8094.54 4.28059702466468e-10
8095.54 4.280596985997762e-10
8096.54 4.280596947330845e-10
8097.54 4.280596908663928e-10
8098.54 4.2805968699970113e-10
8099.54 4.2805968313300953e-10
8100.54 4.2805967926631793e-10
8101.54 4.280596753996264e-10
8102.54 4.2805967153293483e-10
8103.54 4.280596676662434e-10
8104.54 4.2805966379955194e-10
8105.54 4.280596599328605e-10
8106.54 4.2805965606616915e-10
8107.54 4.2805965219947776e-10
8108.54 4.2805964833278647e-10
8109.54 4.280596444660952e-10
8110.54 4.2805964059940394e-10
8111.54 4.280596367327127e-10
8112.54 4.2805963286602156e-10
8113.54 4.2805962899933043e-10
8114.54 4.280596251326393e-10
8115.54 4.2805962126594826e-10
8116.54 4.2805961739925723e-10
8117.54 4.2805961353256625e-10
8118.54 4.2805960966587527e-10
8119.54 4.280596057991844e-10
8120.54 4.2805960193249346e-10
8121.54 4.280595980658026e-10
8122.54 4.2805959419911176e-10
8123.54 4.2805959033242094e-10
8124.54 4.280595864657302e-10
8125.54 4.2805958259903954e-10
8126.54 4.280595787323488e-10
8127.54 4.280595748656582e-10
8128.54 4.280595709989676e-10
8129.54 4.2805956713227697e-10
8130.54 4.280595632655865e-10
8131.54 4.2805955939889594e-10
8132.54 4.2805955553220547e-10
8133.54 4.280595516655151e-10
8134.54 4.2805954779882465e-10
8135.54 4.280595439321343e-10
8136.54 4.28059540065444e-10
8137.54 4.280595361987537e-10
8138.54 4.2805953233206337e-10
8139.54 4.2805952846537316e-10
8140.54 4.2805952459868296e-10
8141.54 4.280595207319928e-10
8142.54 4.280595168653027e-10
8143.54 4.280595129986126e-10
8144.54 4.2805950913192255e-10
8145.54 4.280595052652325e-10
8146.54 4.2805950139854256e-10
8147.54 4.280594975318526e-10
8148.54 4.2805949366516266e-10
8149.54 4.2805948979847277e-10
8150.54 4.28059485931783e-10
8151.54 4.280594820650932e-10
8152.54 4.280594781984034e-10
8153.54 4.2805947433171366e-10
8154.54 4.2805947046502397e-10
8155.54 4.2805946659833433e-10
8156.54 4.2805946273164464e-10
8157.54 4.2805945886495506e-10
8158.54 4.280594549982655e-10
8159.54 4.28059451131576e-10
8160.54 4.2805944726488646e-10
8161.54 4.28059443398197e-10
8162.54 4.280594395315076e-10
8163.54 4.2805943566481817e-10
8164.54 4.2805943179812885e-10
8165.54 4.2805942793143947e-10
8166.54 4.2805942406475025e-10
8167.54 4.2805942019806097e-10
8168.54 4.2805941633137175e-10
8169.54 4.280594124646826e-10
8170.54 4.280594085979934e-10
8171.54 4.2805940473130434e-10
8172.54 4.280594008646153e-10
8173.54 4.2805939699792626e-10
8174.54 4.280593931312372e-10
8175.54 4.280593892645483e-10
8176.54 4.280593853978593e-10
8177.54 4.2805938153117045e-10
8178.54 4.280593776644816e-10
8179.54 4.2805937379779273e-10
8180.54 4.280593699311039e-10
8181.54 4.2805936606441517e-10
8182.54 4.280593621977264e-10
8183.54 4.2805935833103776e-10
8184.54 4.2805935446434915e-10
8185.54 4.2805935059766045e-10
8186.54 4.280593467309719e-10
8187.54 4.2805934286428335e-10
8188.54 4.2805933899759485e-10
8189.54 4.2805933513090635e-10
8190.54 4.280593312642179e-10
8191.54 4.280593273975295e-10
8192.54 4.2805932353084106e-10
8193.54 4.2805931966415277e-10
8194.54 4.280593157974644e-10
8195.54 4.280593119307762e-10
8196.54 4.28059308064088e-10
8197.54 4.280593041973997e-10
8198.54 4.2805930033071157e-10
8199.54 4.2805929646402343e-10
8200.54 4.280592925973354e-10
8201.54 4.280592887306473e-10
8202.54 4.280592848639593e-10
8203.54 4.2805928099727125e-10
8204.54 4.280592771305833e-10
8205.54 4.2805927326389544e-10
8206.54 4.280592693972075e-10
8207.54 4.280592655305197e-10
8208.54 4.2805926166383185e-10
8209.54 4.280592577971441e-10
8210.54 4.280592539304563e-10
8211.54 4.280592500637686e-10
8212.54 4.280592461970809e-10
8213.54 4.280592423303933e-10
8214.54 4.2805923846370567e-10
8215.54 4.280592345970181e-10
8216.54 4.2805923073033053e-10
8217.54 4.2805922686364307e-10
8218.54 4.280592229969556e-10
8219.54 4.2805921913026814e-10
8220.54 4.280592152635808e-10
8221.54 4.280592113968934e-10
8222.54 4.2805920753020606e-10
8223.54 4.280592036635188e-10
8224.54 4.2805919979683154e-10
8225.54 4.2805919593014433e-10
8226.54 4.2805919206345713e-10
8227.54 4.2805918819676997e-10
8228.54 4.280591843300828e-10
8229.54 4.2805918046339577e-10
8230.54 4.280591765967087e-10
8231.54 4.280591727300217e-10
8232.54 4.280591688633347e-10
8233.54 4.2805916499664777e-10
8234.54 4.2805916112996087e-10
8235.54 4.28059157263274e-10
8236.54 4.2805915339658713e-10
8237.54 4.280591495299004e-10
8238.54 4.2805914566321355e-10
8239.54 4.280591417965268e-10
8240.54 4.2805913792984017e-10
8241.54 4.280591340631535e-10
8242.54 4.2805913019646684e-10
8243.54 4.280591263297803e-10
8244.54 4.280591224630937e-10
8245.54 4.2805911859640714e-10
8246.54 4.280591147297207e-10
8247.54 4.280591108630342e-10
8248.54 4.280591069963478e-10
8249.54 4.280591031296614e-10
8250.54 4.280590992629751e-10
8251.54 4.2805909539628876e-10
8252.54 4.2805909152960253e-10
8253.54 4.2805908766291626e-10
8254.54 4.2805908379623003e-10
8255.54 4.280590799295438e-10
8256.54 4.280590760628577e-10
8257.54 4.280590721961716e-10
8258.54 4.280590683294855e-10
8259.54 4.280590644627995e-10
8260.54 4.2805906059611347e-10
8261.54 4.2805905672942755e-10
8262.54 4.280590528627416e-10
8263.54 4.2805904899605567e-10
8264.54 4.2805904512936986e-10
8265.54 4.28059041262684e-10
8266.54 4.2805903739599824e-10
8267.54 4.280590335293125e-10
8268.54 4.280590296626268e-10
8269.54 4.2805902579594107e-10
8270.54 4.2805902192925536e-10
8271.54 4.2805901806256976e-10
8272.54 4.2805901419588416e-10
8273.54 4.280590103291987e-10
8274.54 4.2805900646251315e-10
8275.54 4.2805900259582765e-10
8276.54 4.2805899872914226e-10
8277.54 4.280589948624568e-10
8278.54 4.2805899099577146e-10
8279.54 4.280589871290861e-10
8280.54 4.2805898326240083e-10
8281.54 4.280589793957155e-10
8282.54 4.2805897552903034e-10
8283.54 4.280589716623451e-10
8284.54 4.2805896779565996e-10
8285.54 4.280589639289748e-10
8286.54 4.2805896006228974e-10
8287.54 4.2805895619560465e-10
8288.54 4.2805895232891967e-10
8289.54 4.280589484622347e-10
8290.54 4.2805894459554975e-10
8291.54 4.2805894072886477e-10
8292.54 4.280589368621799e-10
8293.54 4.28058932995495e-10
8294.54 4.280589291288103e-10
8295.54 4.2805892526212546e-10
8296.54 4.280589213954407e-10
8297.54 4.28058917528756e-10
8298.54 4.280589136620714e-10
8299.54 4.2805890979538666e-10
8300.54 4.280589059287021e-10
8301.54 4.280589020620175e-10
8302.54 4.28058898195333e-10
8303.54 4.280588943286485e-10
8304.54 4.28058890461964e-10
8305.54 4.2805888659527955e-10
8306.54 4.2805888272859524e-10
8307.54 4.2805887886191083e-10
8308.54 4.280588749952265e-10
8309.54 4.280588711285422e-10
8310.54 4.28058867261858e-10
8311.54 4.2805886339517374e-10
8312.54 4.280588595284896e-10
8313.54 4.2805885566180543e-10
8314.54 4.280588517951213e-10
8315.54 4.280588479284372e-10
8316.54 4.280588440617532e-10
8317.54 4.2805884019506917e-10
8318.54 4.280588363283852e-10
8319.54 4.2805883246170127e-10
8320.54 4.2805882859501737e-10
8321.54 4.280588247283335e-10
8322.54 4.280588208616497e-10
8323.54 4.280588169949659e-10
8324.54 4.280588131282821e-10
8325.54 4.2805880926159835e-10
8326.54 4.2805880539491466e-10
8327.54 4.28058801528231e-10
8328.54 4.280587976615474e-10
8329.54 4.280587937948638e-10
8330.54 4.2805878992818026e-10
8331.54 4.2805878606149667e-10
8332.54 4.280587821948132e-10
8333.54 4.2805877832812975e-10
8334.54 4.280587744614463e-10
8335.54 4.2805877059476294e-10
8336.54 4.2805876672807966e-10
8337.54 4.2805876286139633e-10
8338.54 4.28058758994713e-10
8339.54 4.280587551280298e-10
8340.54 4.280587512613466e-10
8341.54 4.280587473946634e-10
8342.54 4.2805874352798026e-10
8343.54 4.280587396612972e-10
8344.54 4.2805873579461407e-10
8345.54 4.2805873192793105e-10
8346.54 4.280587280612481e-10
8347.54 4.280587241945651e-10
8348.54 4.2805872032788225e-10
8349.54 4.280587164611993e-10
8350.54 4.2805871259451647e-10
8351.54 4.280587087278336e-10
8352.54 4.2805870486115085e-10
8353.54 4.280587009944681e-10
8354.54 4.280586971277854e-10
8355.54 4.2805869326110267e-10
8356.54 4.2805868939442e-10
8357.54 4.2805868552773746e-10
8358.54 4.2805868166105485e-10
8359.54 4.280586777943723e-10
8360.54 4.280586739276898e-10
8361.54 4.2805867006100735e-10
8362.54 4.280586661943249e-10
8363.54 4.280586623276425e-10
8364.54 4.2805865846096016e-10
8365.54 4.280586545942778e-10
8366.54 4.280586507275955e-10
8367.54 4.280586468609132e-10
8368.54 4.28058642994231e-10
8369.54 4.280586391275488e-10
8370.54 4.280586352608666e-10
8371.54 4.280586313941845e-10
8372.54 4.280586275275024e-10
8373.54 4.280586236608204e-10
8374.54 4.2805861979413834e-10
8375.54 4.280586159274564e-10
8376.54 4.2805861206077443e-10
8377.54 4.280586081940925e-10
8378.54 4.280586043274106e-10
8379.54 4.280586004607288e-10
8380.54 4.2805859659404695e-10
8381.54 4.280585927273652e-10
8382.54 4.2805858886068345e-10
8383.54 4.280585849940018e-10
8384.54 4.2805858112732005e-10
8385.54 4.280585772606384e-10
8386.54 4.2805857339395685e-10
8387.54 4.280585695272753e-10
8388.54 4.2805856566059376e-10
8389.54 4.280585617939123e-10
8390.54 4.280585579272308e-10
8391.54 4.280585540605494e-10
8392.54 4.2805855019386794e-10
8393.54 4.2805854632718663e-10
8394.54 4.280585424605053e-10
8395.54 4.28058538593824e-10
8396.54 4.280585347271428e-10
8397.54 4.2805853086046154e-10
8398.54 4.2805852699378033e-10
8399.54 4.280585231270992e-10
8400.54 4.280585192604181e-10
8401.54 4.2805851539373706e-10
8402.54 4.2805851152705596e-10
8403.54 4.2805850766037495e-10
8404.54 4.28058503793694e-10
8405.54 4.280584999270131e-10
8406.54 4.2805849606033215e-10
8407.54 4.280584921936513e-10
8408.54 4.2805848832697046e-10
8409.54 4.280584844602897e-10
8410.54 4.280584805936089e-10
8411.54 4.2805847672692823e-10
8412.54 4.280584728602475e-10
8413.54 4.2805846899356684e-10
8414.54 4.2805846512688625e-10
8415.54 4.2805846126020567e-10
8416.54 4.280584573935251e-10
8417.54 4.280584535268446e-10
8418.54 4.2805844966016405e-10
8419.54 4.280584457934836e-10
8420.54 4.2805844192680324e-10
8421.54 4.2805843806012286e-10
8422.54 4.2805843419344253e-10
8423.54 4.2805843032676225e-10
8424.54 4.280584264600819e-10
8425.54 4.280584225934017e-10
8426.54 4.2805841872672146e-10
8427.54 4.280584148600413e-10
8428.54 4.280584109933612e-10
8429.54 4.280584071266811e-10
8430.54 4.28058403260001e-10
8431.54 4.28058399393321e-10
8432.54 4.28058395526641e-10
8433.54 4.2805839165996106e-10
8434.54 4.2805838779328115e-10
8435.54 4.280583839266013e-10
8436.54 4.2805838005992137e-10
8437.54 4.280583761932416e-10
8438.54 4.280583723265618e-10
8439.54 4.2805836845988203e-10
8440.54 4.280583645932023e-10
8441.54 4.2805836072652266e-10
8442.54 4.28058356859843e-10
8443.54 4.280583529931634e-10
8444.54 4.280583491264838e-10
8445.54 4.2805834525980423e-10
8446.54 4.280583413931248e-10
8447.54 4.280583375264453e-10
8448.54 4.2805833365976583e-10
8449.54 4.280583297930865e-10
8450.54 4.2805832592640713e-10
8451.54 4.2805832205972773e-10
8452.54 4.280583181930485e-10
8453.54 4.280583143263692e-10
8454.54 4.2805831045969e-10
8455.54 4.280583065930108e-10
8456.54 4.2805830272633167e-10
8457.54 4.280582988596525e-10
8458.54 4.280582949929735e-10
8459.54 4.280582911262944e-10
8460.54 4.2805828725961536e-10
8461.54 4.280582833929364e-10
8462.54 4.2805827952625744e-10
8463.54 4.2805827565957856e-10
8464.54 4.2805827179289967e-10
8465.54 4.2805826792622084e-10
8466.54 4.28058264059542e-10
8467.54 4.280582601928633e-10
8468.54 4.280582563261845e-10
8469.54 4.2805825245950583e-10
8470.54 4.2805824859282715e-10
8471.54 4.2805824472614853e-10
8472.54 4.280582408594699e-10
8473.54 4.280582369927914e-10
8474.54 4.280582331261128e-10
8475.54 4.2805822925943434e-10
8476.54 4.280582253927559e-10
8477.54 4.280582215260775e-10
8478.54 4.280582176593991e-10
8479.54 4.280582137927207e-10
8480.54 4.280582099260424e-10
8481.54 4.280582060593641e-10
8482.54 4.280582021926859e-10
8483.54 4.2805819832600767e-10
8484.54 4.280581944593295e-10
8485.54 4.280581905926514e-10
8486.54 4.2805818672597325e-10
8487.54 4.2805818285929514e-10
8488.54 4.2805817899261714e-10
8489.54 4.2805817512593913e-10
8490.54 4.2805817125926113e-10
8491.54 4.280581673925833e-10
8492.54 4.2805816352590533e-10
8493.54 4.2805815965922743e-10
8494.54 4.2805815579254963e-10
8495.54 4.280581519258719e-10
8496.54 4.2805814805919404e-10
8497.54 4.2805814419251634e-10
8498.54 4.2805814032583865e-10
8499.54 4.28058136459161e-10
8500.54 4.2805813259248347e-10
8501.54 4.2805812872580583e-10
8502.54 4.280581248591283e-10
8503.54 4.2805812099245075e-10
8504.54 4.2805811712577326e-10
8505.54 4.280581132590959e-10
8506.54 4.2805810939241844e-10
8507.54 4.2805810552574106e-10
8508.54 4.2805810165906373e-10
8509.54 4.280580977923864e-10
8510.54 4.280580939257091e-10
8511.54 4.280580900590319e-10
8512.54 4.280580861923547e-10
8513.54 4.2805808232567754e-10
8514.54 4.280580784590004e-10
8515.54 4.2805807459232334e-10
8516.54 4.2805807072564626e-10
8517.54 4.2805806685896924e-10
8518.54 4.2805806299229227e-10
8519.54 4.2805805912561525e-10
8520.54 4.280580552589384e-10
8521.54 4.280580513922615e-10
8522.54 4.2805804752558465e-10
8523.54 4.280580436589078e-10
8524.54 4.2805803979223107e-10
8525.54 4.2805803592555426e-10
8526.54 4.280580320588776e-10
8527.54 4.2805802819220094e-10
8528.54 4.280580243255243e-10
8529.54 4.2805802045884767e-10
8530.54 4.280580165921711e-10
8531.54 4.2805801272549456e-10
8532.54 4.2805800885881805e-10
8533.54 4.2805800499214165e-10
8534.54 4.280580011254652e-10
8535.54 4.2805799725878875e-10
8536.54 4.280579933921124e-10
8537.54 4.280579895254361e-10
8538.54 4.280579856587598e-10
8539.54 4.280579817920835e-10
8540.54 4.2805797792540736e-10
8541.54 4.2805797405873117e-10
8542.54 4.28057970192055e-10
8543.54 4.280579663253789e-10
8544.54 4.2805796245870274e-10
8545.54 4.2805795859202675e-10
8546.54 4.2805795472535076e-10
8547.54 4.280579508586747e-10
8548.54 4.280579469919988e-10
8549.54 4.280579431253229e-10
8550.54 4.28057939258647e-10
8551.54 4.280579353919712e-10
8552.54 4.280579315252954e-10
8553.54 4.280579276586196e-10
8554.54 4.280579237919439e-10
8555.54 4.2805791992526817e-10
8556.54 4.2805791605859254e-10
8557.54 4.280579121919169e-10
8558.54 4.280579083252413e-10
8559.54 4.2805790445856577e-10
8560.54 4.2805790059189025e-10
8561.54 4.280578967252147e-10
8562.54 4.2805789285853925e-10
8563.54 4.280578889918639e-10
8564.54 4.280578851251885e-10
8565.54 4.280578812585131e-10
8566.54 4.2805787739183784e-10
8567.54 4.280578735251625e-10
8568.54 4.280578696584873e-10
8569.54 4.280578657918121e-10
8570.54 4.2805786192513694e-10
8571.54 4.280578580584618e-10
8572.54 4.280578541917867e-10
8573.54 4.280578503251116e-10
8574.54 4.280578464584366e-10
8575.54 4.280578425917616e-10
8576.54 4.280578387250866e-10
8577.54 4.280578348584117e-10
8578.54 4.2805783099173684e-10
8579.54 4.28057827125062e-10
8580.54 4.280578232583871e-10
8581.54 4.280578193917124e-10
8582.54 4.280578155250376e-10
8583.54 4.2805781165836285e-10
8584.54 4.280578077916882e-10
8585.54 4.280578039250135e-10
8586.54 4.280578000583389e-10
8587.54 4.2805779619166433e-10
8588.54 4.280577923249898e-10
8589.54 4.280577884583153e-10
8590.54 4.280577845916408e-10
8591.54 4.2805778072496637e-10
8592.54 4.28057776858292e-10
8593.54 4.280577729916176e-10
8594.54 4.2805776912494327e-10
8595.54 4.2805776525826894e-10
8596.54 4.280577613915947e-10
8597.54 4.2805775752492043e-10
8598.54 4.2805775365824625e-10
8599.54 4.280577497915721e-10
8600.54 4.2805774592489794e-10
8601.54 4.2805774205822387e-10
8602.54 4.280577381915498e-10
8603.54 4.280577343248758e-10
8604.54 4.2805773045820185e-10
8605.54 4.280577265915279e-10
8606.54 4.28057722724854e-10
8607.54 4.280577188581801e-10
8608.54 4.280577149915063e-10
8609.54 4.280577111248324e-10
8610.54 4.2805770725815864e-10
8611.54 4.2805770339148493e-10
8612.54 4.280576995248112e-10
8613.54 4.280576956581375e-10
8614.54 4.280576917914639e-10
8615.54 4.2805768792479034e-10
8616.54 4.2805768405811673e-10
8617.54 4.2805768019144317e-10
8618.54 4.280576763247697e-10
8619.54 4.2805767245809626e-10
8620.54 4.280576685914228e-10
8621.54 4.280576647247494e-10
8622.54 4.2805766085807605e-10
8623.54 4.2805765699140275e-10
8624.54 4.2805765312472945e-10
8625.54 4.2805764925805616e-10
8626.54 4.28057645391383e-10
8627.54 4.2805764152470976e-10
8628.54 4.2805763765803667e-10
8629.54 4.2805763379136353e-10
8630.54 4.2805762992469043e-10
8631.54 4.280576260580174e-10
8632.54 4.280576221913444e-10
8633.54 4.280576183246714e-10
8634.54 4.280576144579985e-10
8635.54 4.280576105913256e-10
8636.54 4.2805760672465276e-10
8637.54 4.2805760285797987e-10
8638.54 4.2805759899130714e-10
8639.54 4.280575951246343e-10
8640.54 4.2805759125796163e-10
8641.54 4.2805758739128895e-10
8642.54 4.280575835246162e-10
8643.54 4.280575796579436e-10
8644.54 4.28057575791271e-10
8645.54 4.280575719245985e-10
8646.54 4.2805756805792597e-10
8647.54 4.280575641912535e-10
8648.54 4.28057560324581e-10
8649.54 4.280575564579086e-10
8650.54 4.2805755259123624e-10
8651.54 4.280575487245639e-10
8652.54 4.280575448578916e-10
8653.54 4.2805754099121934e-10
8654.54 4.2805753712454707e-10
8655.54 4.280575332578749e-10
8656.54 4.280575293912027e-10
8657.54 4.2805752552453053e-10
8658.54 4.280575216578585e-10
8659.54 4.280575177911864e-10
8660.54 4.2805751392451436e-10
8661.54 4.280575100578424e-10
8662.54 4.280575061911704e-10
8663.54 4.280575023244985e-10
8664.54 4.280574984578266e-10
8665.54 4.280574945911548e-10
8666.54 4.2805749072448294e-10
8667.54 4.2805748685781114e-10
8668.54 4.2805748299113944e-10
8669.54 4.280574791244677e-10
8670.54 4.2805747525779605e-10
8671.54 4.2805747139112435e-10
8672.54 4.2805746752445276e-10
8673.54 4.2805746365778117e-10
8674.54 4.280574597911096e-10
8675.54 4.2805745592443813e-10
8676.54 4.2805745205776664e-10
8677.54 4.280574481910952e-10
8678.54 4.280574443244238e-10
8679.54 4.2805744045775243e-10
8680.54 4.2805743659108115e-10
8681.54 4.2805743272440987e-10
8682.54 4.2805742885773853e-10
8683.54 4.2805742499106735e-10
8684.54 4.280574211243961e-10
8685.54 4.28057417257725e-10
8686.54 4.2805741339105387e-10
8687.54 4.2805740952438274e-10
8688.54 4.2805740565771177e-10
8689.54 4.280574017910407e-10
8690.54 4.280573979243697e-10
8691.54 4.2805739405769874e-10
8692.54 4.280573901910279e-10
8693.54 4.28057386324357e-10
8694.54 4.280573824576862e-10
8695.54 4.2805737859101537e-10
8696.54 4.2805737472434455e-10
8697.54 4.2805737085767384e-10
8698.54 4.280573669910032e-10
8699.54 4.2805736312433246e-10
8700.54 4.280573592576618e-10
8701.54 4.2805735539099124e-10
8702.54 4.280573515243207e-10
8703.54 4.2805734765765017e-10
8704.54 4.280573437909796e-10
8705.54 4.2805733992430916e-10
8706.54 4.280573360576388e-10
8707.54 4.280573321909684e-10
8708.54 4.2805732832429805e-10
8709.54 4.280573244576277e-10
8710.54 4.2805732059095745e-10
8711.54 4.2805731672428715e-10
8712.54 4.2805731285761695e-10
8713.54 4.280573089909468e-10
8714.54 4.2805730512427666e-10
8715.54 4.2805730125760656e-10
8716.54 4.2805729739093647e-10
8717.54 4.2805729352426643e-10
8718.54 4.2805728965759644e-10
8719.54 4.2805728579092645e-10
8720.54 4.280572819242565e-10
8721.54 4.280572780575866e-10
8722.54 4.2805727419091673e-10
8723.54 4.2805727032424695e-10
8724.54 4.2805726645757717e-10
8725.54 4.2805726259090733e-10
8726.54 4.280572587242376e-10
8727.54 4.2805725485756797e-10
8728.54 4.2805725099089834e-10
8729.54 4.2805724712422866e-10
8730.54 4.2805724325755913e-10
8731.54 4.2805723939088956e-10
8732.54 4.2805723552422003e-10
8733.54 4.2805723165755056e-10
8734.54 4.280572277908811e-10
8735.54 4.280572239242117e-10
8736.54 4.2805722005754235e-10
8737.54 4.28057216190873e-10
8738.54 4.2805721232420366e-10
8739.54 4.2805720845753444e-10
8740.54 4.280572045908652e-10
8741.54 4.2805720072419596e-10
8742.54 4.280571968575268e-10
8743.54 4.280571929908577e-10
8744.54 4.2805718912418857e-10
8745.54 4.280571852575195e-10
8746.54 4.280571813908505e-10
8747.54 4.280571775241815e-10
8748.54 4.2805717365751254e-10
8749.54 4.2805716979084363e-10
8750.54 4.2805716592417473e-10
8751.54 4.280571620575059e-10
8752.54 4.280571581908371e-10
8753.54 4.280571543241683e-10
8754.54 4.280571504574995e-10
8755.54 4.2805714659083083e-10
8756.54 4.2805714272416213e-10
8757.54 4.2805713885749353e-10
8758.54 4.280571349908249e-10
8759.54 4.280571311241563e-10
8760.54 4.280571272574878e-10
8761.54 4.280571233908193e-10
8762.54 4.2805711952415087e-10
8763.54 4.280571156574824e-10
8764.54 4.28057111790814e-10
8765.54 4.2805710792414565e-10
8766.54 4.2805710405747727e-10
8767.54 4.28057100190809e-10
8768.54 4.280570963241408e-10
8769.54 4.2805709245747257e-10
8770.54 4.2805708859080434e-10
8771.54 4.2805708472413615e-10
8772.54 4.280570808574681e-10
8773.54 4.2805707699080005e-10
8774.54 4.280570731241319e-10
8775.54 4.2805706925746395e-10
8776.54 4.2805706539079597e-10
8777.54 4.2805706152412805e-10
8778.54 4.2805705765746013e-10
8779.54 4.2805705379079226e-10
8780.54 4.280570499241244e-10
8781.54 4.2805704605745657e-10
8782.54 4.2805704219078885e-10
8783.54 4.280570383241211e-10
8784.54 4.280570344574534e-10
8785.54 4.2805703059078576e-10
8786.54 4.280570267241181e-10
8787.54 4.2805702285745053e-10
8788.54 4.2805701899078297e-10
8789.54 4.280570151241154e-10
8790.54 4.2805701125744795e-10
8791.54 4.280570073907805e-10
8792.54 4.280570035241131e-10
8793.54 4.280569996574457e-10
8794.54 4.2805699579077833e-10
8795.54 4.28056991924111e-10
8796.54 4.280569880574437e-10
8797.54 4.280569841907765e-10
8798.54 4.280569803241093e-10
8799.54 4.2805697645744213e-10
8800.54 4.2805697259077493e-10
8801.54 4.280569687241079e-10
8802.54 4.280569648574408e-10
8803.54 4.280569609907738e-10
8804.54 4.2805695712410675e-10
8805.54 4.280569532574398e-10
8806.54 4.280569493907728e-10
8807.54 4.2805694552410593e-10
8808.54 4.280569416574391e-10
8809.54 4.2805693779077226e-10
8810.54 4.280569339241055e-10
8811.54 4.2805693005743874e-10
8812.54 4.28056926190772e-10
8813.54 4.280569223241053e-10
8814.54 4.280569184574387e-10
8815.54 4.2805691459077207e-10
8816.54 4.2805691072410544e-10
8817.54 4.280569068574389e-10
8818.54 4.2805690299077243e-10
8819.54 4.280568991241059e-10
8820.54 4.280568952574395e-10
8821.54 4.2805689139077306e-10
8822.54 4.2805688752410674e-10
8823.54 4.2805688365744037e-10
8824.54 4.280568797907741e-10
8825.54 4.280568759241078e-10
8826.54 4.280568720574416e-10
8827.54 4.280568681907754e-10
8828.54 4.2805686432410923e-10
8829.54 4.280568604574431e-10
8830.54 4.28056856590777e-10
8831.54 4.2805685272411095e-10
8832.54 4.2805684885744494e-10
8833.54 4.28056844990779e-10
8834.54 4.2805684112411297e-10
8835.54 4.280568372574471e-10
8836.54 4.2805683339078116e-10
8837.54 4.2805682952411535e-10
8838.54 4.2805682565744955e-10
8839.54 4.2805682179078375e-10
8840.54 4.28056817924118e-10
8841.54 4.280568140574523e-10
8842.54 4.280568101907866e-10
8843.54 4.28056806324121e-10
8844.54 4.280568024574554e-10
8845.54 4.2805679859078986e-10
8846.54 4.2805679472412426e-10
8847.54 4.280567908574588e-10
8848.54 4.2805678699079333e-10
8849.54 4.280567831241279e-10
8850.54 4.2805677925746255e-10
8851.54 4.2805677539079716e-10
8852.54 4.280567715241318e-10
8853.54 4.2805676765746654e-10
8854.54 4.280567637908013e-10
8855.54 4.2805675992413607e-10
8856.54 4.280567560574709e-10
8857.54 4.2805675219080576e-10
8858.54 4.2805674832414063e-10
8859.54 4.2805674445747555e-10
8860.54 4.2805674059081047e-10
8861.54 4.280567367241455e-10
8862.54 4.2805673285748057e-10
8863.54 4.280567289908156e-10
8864.54 4.2805672512415067e-10
8865.54 4.2805672125748585e-10
8866.54 4.28056717390821e-10
8867.54 4.280567135241562e-10
8868.54 4.2805670965749144e-10
8869.54 4.280567057908267e-10
8870.54 4.2805670192416195e-10
8871.54 4.280566980574973e-10
8872.54 4.280566941908327e-10
8873.54 4.280566903241681e-10
8874.54 4.2805668645750355e-10
8875.54 4.2805668259083904e-10
8876.54 4.2805667872417453e-10
8877.54 4.280566748575101e-10
8878.54 4.280566709908457e-10
8879.54 4.280566671241813e-10
8880.54 4.2805666325751695e-10
8881.54 4.2805665939085265e-10
8882.54 4.2805665552418834e-10
8883.54 4.2805665165752414e-10
8884.54 4.2805664779085994e-10
8885.54 4.2805664392419574e-10
8886.54 4.2805664005753164e-10
8887.54 4.2805663619086755e-10
8888.54 4.2805663232420345e-10
8889.54 4.280566284575394e-10
8890.54 4.280566245908754e-10
8891.54 4.2805662072421147e-10
8892.54 4.2805661685754753e-10
8893.54 4.2805661299088364e-10
8894.54 4.2805660912421975e-10
8895.54 4.2805660525755596e-10
8896.54 4.280566013908922e-10
8897.54 4.2805659752422844e-10
8898.54 4.2805659365756476e-10
8899.54 4.28056589790901e-10
8900.54 4.280565859242374e-10
8901.54 4.2805658205757376e-10
8902.54 4.280565781909102e-10
8903.54 4.2805657432424665e-10
8904.54 4.2805657045758317e-10
8905.54 4.2805656659091965e-10
8906.54 4.280565627242562e-10
8907.54 4.2805655885759285e-10
8908.54 4.280565549909294e-10
8909.54 4.280565511242661e-10
8910.54 4.2805654725760283e-10
8911.54 4.2805654339093956e-10
8912.54 4.2805653952427634e-10
8913.54 4.2805653565761313e-10
8914.54 4.2805653179094996e-10
8915.54 4.280565279242869e-10
8916.54 4.280565240576238e-10
8917.54 4.2805652019096067e-10
8918.54 4.280565163242977e-10
8919.54 4.2805651245763475e-10
8920.54 4.280565085909718e-10
8921.54 4.2805650472430883e-10
8922.54 4.28056500857646e-10
8923.54 4.2805649699098317e-10
8924.54 4.2805649312432036e-10
8925.54 4.2805648925765756e-10
8926.54 4.280564853909948e-10
8927.54 4.280564815243321e-10
8928.54 4.280564776576694e-10
8929.54 4.280564737910068e-10
8930.54 4.280564699243442e-10
8931.54 4.2805646605768166e-10
8932.54 4.280564621910191e-10
8933.54 4.280564583243566e-10
8934.54 4.280564544576942e-10
8935.54 4.2805645059103174e-10
8936.54 4.280564467243694e-10
8937.54 4.28056442857707e-10
8938.54 4.2805643899104467e-10
8939.54 4.280564351243824e-10
8940.54 4.2805643125772015e-10
8941.54 4.2805642739105796e-10
8942.54 4.280564235243958e-10
8943.54 4.2805641965773365e-10
8944.54 4.280564157910715e-10
8945.54 4.2805641192440943e-10
8946.54 4.2805640805774735e-10
8947.54 4.280564041910854e-10
8948.54 4.280564003244234e-10
8949.54 4.2805639645776147e-10
8950.54 4.2805639259109955e-10
8951.54 4.2805638872443767e-10
8952.54 4.2805638485777585e-10
8953.54 4.280563809911141e-10
8954.54 4.280563771244523e-10
8955.54 4.2805637325779054e-10
8956.54 4.280563693911289e-10
8957.54 4.2805636552446726e-10
8958.54 4.280563616578056e-10
8959.54 4.2805635779114403e-10
8960.54 4.280563539244825e-10
8961.54 4.28056350057821e-10
8962.54 4.2805634619115944e-10
8963.54 4.2805634232449803e-10
8964.54 4.280563384578366e-10
8965.54 4.280563345911752e-10
8966.54 4.280563307245139e-10
8967.54 4.280563268578526e-10
8968.54 4.2805632299119135e-10
8969.54 4.280563191245301e-10
8970.54 4.280563152578689e-10
8971.54 4.280563113912077e-10
8972.54 4.280563075245466e-10
8973.54 4.280563036578855e-10
8974.54 4.280562997912244e-10
8975.54 4.280562959245634e-10
8976.54 4.2805629205790236e-10
8977.54 4.2805628819124147e-10
8978.54 4.280562843245805e-10
8979.54 4.2805628045791963e-10
8980.54 4.2805627659125874e-10
8981.54 4.2805627272459795e-10
8982.54 4.280562688579372e-10
8983.54 4.2805626499127643e-10
8984.54 4.2805626112461574e-10
8985.54 4.2805625725795506e-10
8986.54 4.2805625339129437e-10
8987.54 4.280562495246338e-10
8988.54 4.2805624565797326e-10
8989.54 4.280562417913127e-10
8990.54 4.280562379246522e-10
8991.54 4.2805623405799167e-10
8992.54 4.2805623019133125e-10
8993.54 4.2805622632467087e-10
8994.54 4.280562224580105e-10
8995.54 4.2805621859135017e-10
8996.54 4.280562147246899e-10
8997.54 4.2805621085802963e-10
8998.54 4.280562069913694e-10
8999.54 4.280562031247092e-10
