# wavelength flux
3300.0 5.264124632154613e-10
3301.0 5.264124621248869e-10
3302.0 5.264124610343125e-10
3303.0 5.264124599437381e-10
3304.0 5.264124588531637e-10
3305.0 5.264124577625894e-10
3306.0 5.264124566720149e-10
3307.0 5.264124555814406e-10
3308.0 5.264124544908662e-10
3309.0 5.264124534002919e-10
3310.0 5.264124523097175e-10
3311.0 5.264124512191431e-10
3312.0 5.264124501285688e-10
3313.0 5.264124490379944e-10
3314.0 5.264124479474201e-10
3315.0 5.264124468568457e-10
3316.0 5.264124457662714e-10
3317.0 5.26412444675697e-10
3318.0 5.264124435851227e-10
3319.0 5.264124424945483e-10
3320.0 5.26412441403974e-10
3321.0 5.264124403133996e-10
3322.0 5.264124392228253e-10
3323.0 5.264124381322509e-10
3324.0 5.264124370416766e-10
3325.0 5.264124359511022e-10
3326.0 5.26412434860528e-10
3327.0 5.264124337699536e-10
3328.0 5.264124326793793e-10
3329.0 5.264124315888049e-10
3330.0 5.264124304982306e-10
3331.0 5.264124294076563e-10
3332.0 5.26412428317082e-10
3333.0 5.264124272265077e-10
3334.0 5.264124261359334e-10
3335.0 5.264124250453591e-10
3336.0 5.264124239547848e-10
3337.0 5.264124228642106e-10
3338.0 5.264124217736362e-10
3339.0 5.264124206830619e-10
3340.0 5.264124195924876e-10
3341.0 5.264124185019133e-10
3342.0 5.26412417411339e-10
3343.0 5.264124163207647e-10
3344.0 5.264124152301904e-10
3345.0 5.264124141396162e-10
3346.0 5.264124130490418e-10
3347.0 5.264124119584676e-10
3348.0 5.264124108678932e-10
3349.0 5.264124097773191e-10
3350.0 5.264124086867447e-10
3351.0 5.264124075961705e-10
3352.0 5.264124065055961e-10
3353.0 5.26412405415022e-10
3354.0 5.264124043244476e-10
3355.0 5.264124032338734e-10
3356.0 5.264124021432991e-10
3357.0 5.264124010527249e-10
3358.0 5.264123999621506e-10
3359.0 5.264123988715764e-10
3360.0 5.264123977810021e-10
3361.0 5.264123966904278e-10
3362.0 5.264123955998536e-10
3363.0 5.264123945092794e-10
3364.0 5.26412393418705e-10
3365.0 5.264123923281309e-10
3366.0 5.264123912375566e-10
3367.0 5.264123901469824e-10
3368.0 5.264123890564081e-10
3369.0 5.26412387965834e-10
3370.0 5.264123868752596e-10
3371.0 5.264123857846855e-10
3372.0 5.264123846941112e-10
3373.0 5.26412383603537e-10
3374.0 5.264123825129628e-10
3375.0 5.264123814223886e-10
3376.0 5.264123803318143e-10
3377.0 5.2641237924124e-10
3378.0 5.264123781506659e-10
3379.0 5.264123770600916e-10
3380.0 5.264123759695175e-10
3381.0 5.264123748789432e-10
3382.0 5.264123737883691e-10
3383.0 5.264123726977948e-10
3384.0 5.264123716072207e-10
3385.0 5.264123705166464e-10
3386.0 5.264123694260723e-10
3387.0 5.264123683354981e-10
3388.0 5.26412367244924e-10
3389.0 5.264123661543497e-10
3390.0 5.264123650637756e-10
3391.0 5.264123639732013e-10
3392.0 5.264123628826273e-10
3393.0 5.26412361792053e-10
3394.0 5.264123607014788e-10
3395.0 5.264123596109046e-10
3396.0 5.264123585203305e-10
3397.0 5.264123574297563e-10
3398.0 5.264123563391822e-10
3399.0 5.26412355248608e-10
3400.0 5.264123541580337e-10
3401.0 5.264123530674597e-10
3402.0 5.264123519768854e-10
3403.0 5.264123508863114e-10
3404.0 5.264123497957371e-10
3405.0 5.264123487051631e-10
3406.0 5.264123476145888e-10
3407.0 5.264123465240148e-10
3408.0 5.264123454334405e-10
3409.0 5.264123443428665e-10
3410.0 5.264123432522923e-10
3411.0 5.264123421617182e-10
3412.0 5.26412341071144e-10
3413.0 5.2641233998057e-10
3414.0 5.264123388899958e-10
3415.0 5.264123377994216e-10
3416.0 5.264123367088475e-10
3417.0 5.264123356182734e-10
3418.0 5.264123345276993e-10
3419.0 5.264123334371252e-10
3420.0 5.26412332346551e-10
3421.0 5.264123312559769e-10
3422.0 5.264123301654028e-10
3423.0 5.264123290748287e-10
3424.0 5.264123279842546e-10
3425.0 5.264123268936805e-10
3426.0 5.264123258031064e-10
3427.0 5.264123247125323e-10
3428.0 5.264123236219581e-10
3429.0 5.264123225313841e-10
3430.0 5.264123214408099e-10
3431.0 5.264123203502359e-10
3432.0 5.264123192596618e-10
3433.0 5.264123181690878e-10
3434.0 5.264123170785136e-10
3435.0 5.264123159879396e-10
3436.0 5.264123148973654e-10
3437.0 5.264123138067914e-10
3438.0 5.264123127162173e-10
3439.0 5.264123116256432e-10
3440.0 5.264123105350691e-10
3441.0 5.264123094444951e-10
3442.0 5.26412308353921e-10
3443.0 5.264123072633469e-10
3444.0 5.264123061727729e-10
3445.0 5.264123050821988e-10
3446.0 5.264123039916248e-10
3447.0 5.264123029010507e-10
3448.0 5.264123018104766e-10
3449.0 5.264123007199026e-10
3450.0 5.264122996293285e-10
3451.0 5.264122985387545e-10
3452.0 5.264122974481804e-10
3453.0 5.264122963576065e-10
3454.0 5.264122952670323e-10
3455.0 5.264122941764583e-10
3456.0 5.264122930858843e-10
3457.0 5.264122919953102e-10
3458.0 5.264122909047363e-10
3459.0 5.264122898141622e-10
3460.0 5.264122887235882e-10
3461.0 5.264122876330141e-10
3462.0 5.264122865424402e-10
3463.0 5.264122854518661e-10
3464.0 5.264122843612921e-10
3465.0 5.264122832707181e-10
3466.0 5.264122821801441e-10
3467.0 5.2641228108957e-10
3468.0 5.26412279998996e-10
3469.0 5.26412278908422e-10
3470.0 5.26412277817848e-10
3471.0 5.264122767272739e-10
3472.0 5.264122756367e-10
3473.0 5.26412274546126e-10
3474.0 5.264122734555521e-10
3475.0 5.264122723649781e-10
3476.0 5.264122712744041e-10
3477.0 5.264122701838301e-10
3478.0 5.26412269093256e-10
3479.0 5.264122680026821e-10
3480.0 5.264122669121081e-10
3481.0 5.264122658215342e-10
3482.0 5.264122647309601e-10
3483.0 5.264122636403862e-10
3484.0 5.264122625498122e-10
3485.0 5.264122614592382e-10
3486.0 5.264122603686642e-10
3487.0 5.264122592780903e-10
3488.0 5.264122581875164e-10
3489.0 5.264122570969424e-10
3490.0 5.264122560063684e-10
3491.0 5.264122549157944e-10
3492.0 5.264122538252205e-10
3493.0 5.264122527346465e-10
3494.0 5.264122516440726e-10
3495.0 5.264122505534987e-10
3496.0 5.264122494629247e-10
3497.0 5.264122483723508e-10
3498.0 5.264122472817768e-10
3499.0 5.264122461912029e-10
3500.0 5.26412245100629e-10
3500.52 3.7584e-10
3501.99 3.4734e-10
3503.46 3.6218e-10
3504.93 4.3934e-10
3506.4 4.2118e-10
3507.87 4.2155e-10
3509.34 4.9542e-10
3510.81 5.4282e-10
3512.28 7.4052e-10
3513.75 7.4649e-10
3515.22 4.3638e-10
3516.69 2.9772e-10
3518.16 3.0035e-10
3519.63 3.9806e-10
3521.1 4.3022e-10
3522.57 3.3783e-10
3524.04 2.4152e-10
3525.51 3.8987e-10
3526.98 6.5983e-10
3528.45 6.955e-10
3529.92 6.8969e-10
3531.39 6.2763e-10
3532.86 6.3211e-10
3534.33 7.5253e-10
3535.8 8.7541e-10
3537.27 6.1116e-10
3538.74 4.4808e-10
3540.21 5.4828e-10
3541.68 7.0027e-10
3543.15 6.183e-10
3544.62 6.6375e-10
3546.09 4.1372e-10
3547.56 3.9218e-10
3549.03 6.4907e-10
3550.5 6.5458e-10
3551.97 6.0941e-10
3553.44 5.6709e-10
3554.91 5.491e-10
3556.38 5.2922e-10
3557.85 4.0289e-10
3559.32 4.2733e-10
3560.79 4.5326e-10
3562.26 4.8076e-10
3563.73 5.0992e-10
3565.2 5.4086e-10
3566.67 5.7367e-10
3568.14 6.0848e-10
3569.61 6.454e-10
3571.08 6.8455e-10
3572.55 7.2608e-10
3574.02 7.7013e-10
3575.49 8.1686e-10
3576.96 8.1686e-10
3578.43 5.244e-10
3579.9 5.4256e-10
3581.37 6.3463e-10
3582.84 7.061e-10
3584.31 5.8759e-10
3585.78 5.0485e-10
3587.25 6.7312e-10
3588.72 6.7858e-10
3590.19 6.2604e-10
3591.66 6.5203e-10
3593.13 8.3967e-10
3594.6 8.4985e-10
3596.07 5.8537e-10
3597.54 5.0354e-10
3599.01 7.3838e-10
3600.48 8.1193e-10
3601.95 6.1126e-10
3603.42 5.9407e-10
3604.89 6.1605e-10
3606.36 7.7584e-10
3607.83 6.4007e-10
3609.3 4.3438e-10
3610.77 4.9998e-10
3612.24 6.1466e-10
3613.71 6.0495e-10
3615.18 6.5411e-10
3616.65 8.4662e-10
3618.12 8.6878e-10
3619.59 8.0003e-10
3621.06 1.0203e-09
3622.53 9.4348e-10
3624.0 6.7539e-10
3625.47 6.7624e-10
3626.94 7.0675e-10
3628.41 7.0086e-10
3629.88 6.8265e-10
3631.35 6.9585e-10
3632.82 6.6327e-10
3634.29 5.1532e-10
3635.76 5.1863e-10
3637.23 6.5951e-10
3638.7 6.183e-10
3640.17 5.2843e-10
3641.64 5.917e-10
3643.11 6.3136e-10
3644.58 5.3738e-10
3646.05 6.0404e-10
3647.52 7.8445e-10
3648.99 6.1701e-10
3650.46 5.8277e-10
3651.93 6.2213e-10
3653.4 5.2322e-10
3654.87 6.1213e-10
3656.34 5.4641e-10
3657.81 6.4508e-10
3659.28 1.1463e-09
3660.75 7.8924e-10
3662.22 5.4785e-10
3663.69 7.408e-10
3665.16 8.0997e-10
3666.63 7.918e-10
3668.1 7.8686e-10
3669.57 7.0514e-10
3671.04 5.6071e-10
3672.51 5.1544e-10
3673.98 6.4314e-10
3675.45 7.9869e-10
3676.92 7.8998e-10
3678.39 6.563e-10
3679.86 5.6533e-10
3681.33 6.6563e-10
3682.8 6.1677e-10
3684.27 5.2531e-10
3685.74 5.1842e-10
3687.21 5.5337e-10
3688.68 5.5323e-10
3690.15 5.3316e-10
3691.62 5.5794e-10
3693.09 5.1232e-10
3694.56 4.3226e-10
3696.03 4.0995e-10
3697.5 4.4684e-10
3698.97 5.695e-10
3700.44 6.9563e-10
3701.91 8.9486e-10
3703.38 7.6031e-10
3704.85 6.5042e-10
3706.32 5.7907e-10
3707.79 5.7325e-10
3709.26 8.4035e-10
3710.73 7.7225e-10
3712.2 6.1902e-10
3713.67 5.855e-10
3715.14 6.5596e-10
3716.61 8.1385e-10
3718.08 9.3062e-10
3719.55 7.6744e-10
3721.02 5.9974e-10
3722.49 6.2019e-10
3723.96 7.1249e-10
3725.43 6.987e-10
3726.9 6.2323e-10
3728.37 6.0031e-10
3729.84 6.3587e-10
3731.31 6.5901e-10
3732.78 6.82e-10
3734.25 7.9505e-10
3735.72 8.4343e-10
3737.19 8.3196e-10
3738.66 7.6152e-10
3740.13 6.8094e-10
3741.6 6.4482e-10
3743.07 6.844e-10
3744.54 7.4208e-10
3746.01 7.6117e-10
3747.48 8.2518e-10
3748.95 7.7063e-10
3750.42 6.627e-10
3751.89 4.4309e-10
3753.36 1.9756e-10
3754.83 1.3337e-10
3756.3 1.7035e-10
3757.77 1.751e-10
3759.24 2.0776e-10
3760.71 3.9269e-10
3762.18 7.2664e-10
3763.65 9.1479e-10
3765.12 8.4551e-10
3766.59 7.6213e-10
3768.06 7.5153e-10
3769.53 9.0979e-10
3771.0 1.0425e-09
3772.47 1.0428e-09
3773.94 1.0248e-09
3775.41 9.2775e-10
3776.88 8.257e-10
3778.35 9.743e-10
3779.82 1.0434e-09
3781.29 7.5366e-10
3782.76 6.9564e-10
3784.23 9.6305e-10
3785.7 1.0541e-09
3787.17 7.8937e-10
3788.64 8.5475e-10
3790.11 9.5223e-10
3791.58 8.4274e-10
3793.05 9.8235e-10
3794.52 1.0808e-09
3795.99 9.4531e-10
3797.46 9.1888e-10
3798.93 1.0248e-09
3800.4 9.4278e-10
3801.87 8.8556e-10
3803.34 8.9204e-10
3804.81 7.8226e-10
3806.28 7.845e-10
3807.75 8.2139e-10
3809.22 8.1737e-10
3810.69 8.1115e-10
3812.16 7.8246e-10
3813.63 7.2963e-10
3815.1 8.3115e-10
3816.57 1.0079e-09
3818.04 9.1889e-10
3819.51 9.1022e-10
3820.98 1.0531e-09
3822.45 9.4414e-10
3823.92 7.7867e-10
3825.39 8.4833e-10
3826.86 8.9282e-10
3828.33 7.948e-10
3829.8 7.8231e-10
3831.27 8.7796e-10
3832.74 9.1751e-10
3834.21 7.8398e-10
3835.68 7.7948e-10
3837.15 8.6722e-10
3838.62 8.5015e-10
3840.09 7.5374e-10
3841.56 7.628e-10
3843.03 8.6706e-10
3844.5 7.5287e-10
3845.97 6.4722e-10
3847.44 6.7517e-10
3848.91 6.9362e-10
3850.38 6.0386e-10
3851.85 5.3499e-10
3853.32 6.0242e-10
3854.79 7.6171e-10
3856.26 8.1876e-10
3857.73 7.1948e-10
3859.2 6.3702e-10
3860.67 6.177e-10
3862.14 6.2139e-10
3863.61 6.0697e-10
3865.08 5.2457e-10
3866.55 5.1018e-10
3868.02 6.2828e-10
3869.49 6.0339e-10
3870.96 5.706e-10
3872.43 6.0856e-10
3873.9 5.1811e-10
3875.37 5.131e-10
3876.84 6.0489e-10
3878.31 5.9115e-10
3879.78 5.4564e-10
3881.25 4.539e-10
3882.72 4.0137e-10
3884.19 3.4645e-10
3885.66 3.0951e-10
3887.13 3.3957e-10
3888.6 4.1416e-10
3890.07 4.1733e-10
3891.54 3.4958e-10
3893.01 3.6692e-10
3894.48 3.5266e-10
3895.95 2.9086e-10
3897.42 2.5805e-10
3898.89 2.6127e-10
3900.36 2.5412e-10
3901.83 3.186e-10
3903.3 3.7267e-10
3904.77 3.3887e-10
3906.24 2.7242e-10
3907.71 2.5363e-10
3909.18 2.8818e-10
3910.65 2.4194e-10
3912.12 2.1399e-10
3913.59 2.2672e-10
3915.06 2.3809e-10
3916.53 2.1365e-10
3918.0 1.7837e-10
3919.47 1.8896e-10
3920.94 2.0015e-10
3922.41 1.9432e-10
3923.88 2.2563e-10
3925.35 2.2959e-10
3926.82 2.1924e-10
3928.29 2.3055e-10
3929.76 2.2186e-10
3931.23 2.292e-10
3932.7 2.3537e-10
3934.17 2.1657e-10
3935.64 2.1271e-10
3937.11 2.1069e-10
3938.58 2.1932e-10
3940.05 2.0241e-10
3941.52 1.6269e-10
3942.99 1.8906e-10
3944.46 2.1073e-10
3945.93 1.7151e-10
3947.4 1.5159e-10
3948.87 1.5539e-10
3950.34 1.6137e-10
3951.81 1.7513e-10
3953.28 1.7173e-10
3954.75 1.5267e-10
3956.22 1.55e-10
3957.69 1.6245e-10
3959.16 1.6398e-10
3960.63 1.4314e-10
3962.1 1.4056e-10
3963.57 1.7345e-10
3965.04 1.747e-10
3966.51 1.3198e-10
3967.98 1.1825e-10
3969.45 1.5062e-10
3970.92 1.7051e-10
3972.39 1.5652e-10
3973.86 1.3235e-10
3975.33 1.1822e-10
3976.8 1.3349e-10
3978.27 1.2547e-10
3979.74 1.157e-10
3981.21 1.1515e-10
3982.68 8.8771e-11
3984.15 7.4586e-11
3985.62 9.0593e-11
3987.09 1.2619e-10
3988.56 1.2753e-10
3990.03 1.0917e-10
3991.5 1.033e-10
3992.97 1.0339e-10
3994.44 1.0961e-10
3995.91 1.1585e-10
3997.38 1.0483e-10
3998.85 1.0385e-10
4000.32 1.1768e-10
4001.79 1.2786e-10
4003.26 1.3358e-10
4004.73 1.252e-10
4006.2 1.2519e-10
4007.67 1.2989e-10
4009.14 1.3263e-10
4010.61 1.1869e-10
4012.08 1.2681e-10
4013.55 1.2711e-10
4015.02 1.4173e-10
4016.49 1.503e-10
4017.96 1.5913e-10
4019.43 1.7995e-10
4020.9 1.6302e-10
4022.37 1.5288e-10
4023.84 1.5261e-10
4025.31 1.3936e-10
4026.78 1.4691e-10
4028.25 1.3758e-10
4029.72 1.1744e-10
4031.19 1.3051e-10
4032.66 1.4097e-10
4034.13 1.3464e-10
4035.6 1.2778e-10
4037.07 1.2441e-10
4038.54 1.2341e-10
4040.01 1.4715e-10
4041.48 1.4905e-10
4042.95 1.3729e-10
4044.42 1.4236e-10
4045.89 1.3178e-10
4047.36 1.2698e-10
4048.83 1.3157e-10
4050.3 1.3448e-10
4051.77 1.2316e-10
4053.24 1.2768e-10
4054.71 1.4496e-10
4056.18 1.4858e-10
4057.65 1.4476e-10
4059.12 1.5838e-10
4060.59 1.5433e-10
4062.06 1.2605e-10
4063.53 1.1963e-10
4065.0 1.3742e-10
4066.47 1.6543e-10
4067.94 1.8214e-10
4069.41 1.8003e-10
4070.88 1.6587e-10
4072.35 1.6241e-10
4073.82 1.6021e-10
4075.29 1.7412e-10
4076.76 1.9954e-10
4078.23 2.0285e-10
4079.7 1.9373e-10
4081.17 1.9968e-10
4082.64 1.8624e-10
4084.11 1.6935e-10
4085.58 1.6765e-10
4087.05 1.7844e-10
4088.52 2.0128e-10
4089.99 1.7328e-10
4091.46 1.7278e-10
4092.93 1.9633e-10
4094.4 1.7387e-10
4095.87 1.5458e-10
4097.34 1.6347e-10
4098.81 1.9325e-10
4100.28 1.7914e-10
4101.75 1.5486e-10
4103.22 1.6313e-10
4104.69 1.9213e-10
4106.16 2.0102e-10
4107.63 2.0102e-10
4109.1 2.043e-10
4110.57 1.9895e-10
4112.04 1.9445e-10
4113.51 2.003e-10
4114.98 1.9403e-10
4116.45 1.9146e-10
4117.92 1.9875e-10
4119.39 2.1105e-10
4120.86 2.126e-10
4122.33 2.0989e-10
4123.8 2.1063e-10
4125.27 2.2323e-10
4126.74 2.7761e-10
4128.21 2.5579e-10
4129.68 2.0814e-10
4131.15 2.1445e-10
4132.62 2.2558e-10
4134.09 2.1422e-10
4135.56 2.1601e-10
4137.03 2.5285e-10
4138.5 2.5499e-10
4139.97 2.5934e-10
4141.44 2.6019e-10
4142.91 3.0514e-10
4144.38 3.1716e-10
4145.85 2.9224e-10
4147.32 2.9394e-10
4148.79 2.8347e-10
4150.26 2.7837e-10
4151.73 2.8718e-10
4153.2 3.2326e-10
4154.67 3.0943e-10
4156.14 3.0657e-10
4157.61 3.181e-10
4159.08 3.1928e-10
4160.55 3.1776e-10
4162.02 3.101e-10
4163.49 3.2242e-10
4164.96 3.0507e-10
4166.43 2.7993e-10
4167.9 2.891e-10
4169.37 2.7952e-10
4170.84 2.6367e-10
4172.31 2.7686e-10
4173.78 3.3566e-10
4175.25 3.7829e-10
4176.72 3.9739e-10
4178.19 4.1301e-10
4179.66 3.6619e-10
4181.13 3.6586e-10
4182.6 3.758e-10
4184.07 3.8328e-10
4185.54 3.6703e-10
4187.01 3.6004e-10
4188.48 4.5304e-10
4189.95 4.4129e-10
4191.42 3.5628e-10
4192.89 3.5431e-10
4194.36 3.9841e-10
4195.83 4.2107e-10
4197.3 4.0711e-10
4198.77 4.2068e-10
4200.24 4.628e-10
4201.71 4.7628e-10
4203.18 4.5567e-10
4204.65 4.6051e-10
4206.12 4.567e-10
4207.59 4.4166e-10
4209.06 4.6886e-10
4210.53 5.037e-10
4212.0 5.3355e-10
4213.47 5.1781e-10
4214.94 4.1771e-10
4216.41 3.82e-10
4217.88 4.4175e-10
4219.35 5.3535e-10
4220.82 5.2514e-10
4222.29 4.832e-10
4223.76 4.8403e-10
4225.23 4.7752e-10
4226.7 4.2541e-10
4228.17 4.6026e-10
4229.64 5.3342e-10
4231.11 4.8057e-10
4232.58 4.6223e-10
4234.05 4.3838e-10
4235.52 4.3655e-10
4236.99 4.9004e-10
4238.46 4.9484e-10
4239.93 4.5919e-10
4241.4 4.6233e-10
4242.87 4.8553e-10
4244.34 4.5645e-10
4245.81 4.2032e-10
4247.28 3.8076e-10
4248.75 3.5938e-10
4250.22 4.1637e-10
4251.69 4.6287e-10
4253.16 4.0584e-10
4254.63 4.1695e-10
4256.1 4.2539e-10
4257.57 3.7029e-10
4259.04 3.7691e-10
4260.51 4.1062e-10
4261.98 3.9273e-10
4263.45 3.997e-10
4264.92 4.4325e-10
4266.39 4.2064e-10
4267.86 4.0224e-10
4269.33 4.4822e-10
4270.8 4.4201e-10
4272.27 3.6536e-10
4273.74 3.8715e-10
4275.21 4.1348e-10
4276.68 4.1826e-10
4278.15 3.8868e-10
4279.62 3.4853e-10
4281.09 3.4773e-10
4282.56 3.4234e-10
4284.03 3.2743e-10
4285.5 3.4325e-10
4286.97 3.8708e-10
4288.44 3.923e-10
4289.91 3.4516e-10
4291.38 3.1234e-10
4292.85 3.4089e-10
4294.32 3.4572e-10
4295.79 3.4691e-10
4297.26 3.4197e-10
4298.73 3.3304e-10
4300.2 3.3828e-10
4301.67 3.8074e-10
4303.14 4.0599e-10
4304.61 3.9016e-10
4306.08 3.904e-10
4307.55 3.7559e-10
4309.02 3.3388e-10
4310.49 3.3313e-10
4311.96 3.4126e-10
4313.43 3.6396e-10
4314.9 3.3066e-10
4316.37 3.3342e-10
4317.84 4.0873e-10
4319.31 3.5501e-10
4320.78 3.3579e-10
4322.25 3.2107e-10
4323.72 2.9709e-10
4325.19 3.2482e-10
4326.66 3.2596e-10
4328.13 3.0502e-10
4329.6 3.4454e-10
4331.07 3.5226e-10
4332.54 3.4154e-10
4334.01 3.3141e-10
4335.48 2.9541e-10
4336.95 2.9129e-10
4338.42 2.8696e-10
4339.89 3.023e-10
4341.36 3.4586e-10
4342.83 3.4142e-10
4344.3 3.0868e-10
4345.77 2.6022e-10
4347.24 3.3463e-10
4348.71 4.1095e-10
4350.18 3.8547e-10
4351.65 3.7428e-10
4353.12 3.8691e-10
4354.59 3.2961e-10
4356.06 3.114e-10
4357.53 3.8954e-10
4359.0 3.8939e-10
4360.47 3.0959e-10
4361.94 3.4391e-10
4363.41 3.5874e-10
4364.88 3.6809e-10
4366.35 3.3417e-10
4367.82 2.6539e-10
4369.29 2.7842e-10
4370.76 2.849e-10
4372.23 2.6892e-10
4373.7 2.3344e-10
4375.17 2.1904e-10
4376.64 2.6063e-10
4378.11 3.5197e-10
4379.58 3.9201e-10
4381.05 3.7137e-10
4382.52 3.6623e-10
4383.99 3.6844e-10
4385.46 3.4303e-10
4386.93 3.4061e-10
4388.4 3.6387e-10
4389.87 3.4699e-10
4391.34 3.5973e-10
4392.81 3.7708e-10
4394.28 4.3505e-10
4395.75 4.6213e-10
4397.22 4.3817e-10
4398.69 4.1421e-10
4400.16 3.7613e-10
4401.63 3.9746e-10
4403.1 3.9934e-10
4404.57 3.6911e-10
4406.04 3.6302e-10
4407.51 3.778e-10
4408.98 4.1923e-10
4410.45 4.3673e-10
4411.92 4.1726e-10
4413.39 4.0303e-10
4414.86 3.7962e-10
4416.33 3.5048e-10
4417.8 3.6041e-10
4419.27 4.0652e-10
4420.74 4.4669e-10
4422.21 4.5502e-10
4423.68 4.508e-10
4425.15 3.984e-10
4426.62 4.0742e-10
4428.09 4.6207e-10
4429.56 4.4354e-10
4431.03 4.1342e-10
4432.5 4.1525e-10
4433.97 4.5954e-10
4435.44 4.5133e-10
4436.91 4.2636e-10
4438.38 4.3525e-10
4439.85 4.0881e-10
4441.32 3.5955e-10
4442.79 3.6796e-10
4444.26 3.9639e-10
4445.73 3.7963e-10
4447.2 3.3958e-10
4448.67 3.3588e-10
4450.14 3.9007e-10
4451.61 3.8602e-10
4453.08 3.7661e-10
4454.55 4.1755e-10
4456.02 4.4263e-10
4457.49 4.0307e-10
4458.96 4.0503e-10
4460.43 3.9579e-10
4461.9 3.7275e-10
4463.37 3.979e-10
4464.84 4.3248e-10
4466.31 4.0784e-10
4467.78 3.5468e-10
4469.25 3.6876e-10
4470.72 3.742e-10
4472.19 3.5081e-10
4473.66 4.0518e-10
4475.13 4.044e-10
4476.6 4.2938e-10
4478.07 4.0837e-10
4479.54 3.5514e-10
4481.01 3.3017e-10
4482.48 2.9161e-10
4483.95 3.2495e-10
4485.42 3.6785e-10
4486.89 4.0484e-10
4488.36 3.6971e-10
4489.83 3.0141e-10
4491.3 2.9144e-10
4492.77 3.2633e-10
4494.24 3.2164e-10
4495.71 3.2352e-10
4497.18 3.2274e-10
4498.65 3.3321e-10
4500.12 3.4082e-10
4501.59 3.182e-10
4503.06 2.7942e-10
4504.53 2.7471e-10
4506.0 2.6612e-10
4507.47 2.6176e-10
4508.94 2.6856e-10
4510.41 2.5245e-10
4511.88 2.4417e-10
4513.35 2.2645e-10
4514.82 2.4912e-10
4516.29 2.6507e-10
4517.76 2.6146e-10
4519.23 2.5776e-10
4520.7 2.4474e-10
4522.17 2.2954e-10
4523.64 2.3965e-10
4525.11 2.6772e-10
4526.58 2.7899e-10
4528.05 2.6268e-10
4529.52 2.1255e-10
4530.99 2.1364e-10
4532.46 2.1323e-10
4533.93 2.259e-10
4535.4 2.4955e-10
4536.87 2.5074e-10
4538.34 2.0631e-10
4539.81 2.0753e-10
4541.28 2.1275e-10
4542.75 2.1312e-10
4544.22 2.1777e-10
4545.69 2.1055e-10
4547.16 2.0864e-10
4548.63 2.263e-10
4550.1 2.3138e-10
4551.57 1.9851e-10
4553.04 1.7589e-10
4554.51 1.7511e-10
4555.98 1.7786e-10
4557.45 1.8395e-10
4558.92 1.876e-10
4560.39 1.7188e-10
4561.86 1.6848e-10
4563.33 1.7574e-10
4564.8 1.9414e-10
4566.27 1.8446e-10
4567.74 1.659e-10
4569.21 1.619e-10
4570.68 1.7541e-10
4572.15 1.7284e-10
4573.62 1.5001e-10
4575.09 1.6765e-10
4576.56 1.6855e-10
4578.03 1.5004e-10
4579.5 1.4349e-10
4580.97 1.5117e-10
4582.44 1.6044e-10
4583.91 1.5218e-10
4585.38 1.4619e-10
4586.85 1.6143e-10
4588.32 1.4996e-10
4589.79 1.635e-10
4591.26 1.7214e-10
4592.73 1.6759e-10
4594.2 1.379e-10
4595.67 1.3843e-10
4597.14 1.5736e-10
4598.61 1.6779e-10
4600.08 1.6807e-10
4601.55 1.8023e-10
4603.02 1.6096e-10
4604.49 1.4513e-10
4605.96 1.6337e-10
4607.43 1.4625e-10
4608.9 1.6398e-10
4610.37 1.4994e-10
4611.84 1.6562e-10
4613.31 1.8369e-10
4614.78 1.7439e-10
4616.25 1.4649e-10
4617.72 1.7676e-10
4619.19 1.7957e-10
4620.66 1.837e-10
4622.13 1.7627e-10
4623.6 1.6935e-10
4625.07 1.6782e-10
4626.54 1.5901e-10
4628.01 1.6863e-10
4629.48 1.831e-10
4630.95 1.8211e-10
4632.42 1.6811e-10
4633.89 1.8466e-10
4635.36 1.8876e-10
4636.83 1.9003e-10
4638.3 1.8836e-10
4639.77 1.8504e-10
4641.24 2.1018e-10
4642.71 1.8625e-10
4644.18 1.942e-10
4645.65 2.1674e-10
4647.12 2.0733e-10
4648.59 2.0443e-10
4650.06 2.115e-10
4651.53 2.1764e-10
4653.0 2.087e-10
4654.47 2.3517e-10
4655.94 2.3332e-10
4657.41 2.0882e-10
4658.88 2.0038e-10
4660.35 2.1607e-10
4661.82 2.36e-10
4663.29 2.2406e-10
4664.76 2.1745e-10
4666.23 2.1967e-10
4667.7 2.2896e-10
4669.17 2.7228e-10
4670.64 2.6122e-10
4672.11 2.4277e-10
4673.58 2.6224e-10
4675.05 2.4428e-10
4676.52 2.6117e-10
4677.99 2.8554e-10
4679.46 2.7377e-10
4680.93 2.8281e-10
4682.4 2.8028e-10
4683.87 2.7995e-10
4685.34 3.0524e-10
4686.81 2.8244e-10
4688.28 2.9713e-10
4689.75 3.0675e-10
4691.22 3.3475e-10
4692.69 3.2323e-10
4694.16 3.0057e-10
4695.63 2.9065e-10
4697.1 3.0377e-10
4698.57 2.9565e-10
4700.04 3.2418e-10
4701.51 3.2473e-10
4702.98 3.4047e-10
4704.45 3.3049e-10
4705.92 3.701e-10
4707.39 3.9946e-10
4708.86 3.3666e-10
4710.33 3.3698e-10
4711.8 3.975e-10
4713.27 3.8308e-10
4714.74 3.698e-10
4716.21 4.1825e-10
4717.68 3.8256e-10
4719.15 4.3246e-10
4720.62 4.5355e-10
4722.09 4.2523e-10
4723.56 3.7691e-10
4725.03 3.8853e-10
4726.5 4.0852e-10
4727.97 4.4527e-10
4729.44 4.2529e-10
4730.91 4.8205e-10
4732.38 4.5567e-10
4733.85 4.074e-10
4735.32 4.5988e-10
4736.79 4.5421e-10
4738.26 4.1929e-10
4739.73 4.4654e-10
4741.2 4.8849e-10
4742.67 4.5911e-10
4744.14 5.1145e-10
4745.61 5.154e-10
4747.08 4.9572e-10
4748.55 5.1161e-10
4750.02 5.0499e-10
4751.49 4.5843e-10
4752.96 4.678e-10
4754.43 4.8256e-10
4755.9 4.0938e-10
4757.37 3.8271e-10
4758.84 4.5402e-10
4760.31 4.2721e-10
4761.78 4.1318e-10
4763.25 4.3774e-10
4764.72 4.8385e-10
4766.19 4.2379e-10
4767.66 3.6887e-10
4769.13 3.9121e-10
4770.6 3.8636e-10
4772.07 4.0621e-10
4773.54 4.002e-10
4775.01 4.1998e-10
4776.48 4.0951e-10
4777.95 4.1528e-10
4779.42 4.3508e-10
4780.89 3.8304e-10
4782.36 3.5591e-10
4783.83 4.05e-10
4785.3 4.3749e-10
4786.77 4.5699e-10
4788.24 4.2576e-10
4789.71 4.192e-10
4791.18 4.2554e-10
4792.65 4.94e-10
4794.12 4.9641e-10
4795.59 4.4648e-10
4797.06 4.3965e-10
4798.53 4.6023e-10
4800.0 4.0217e-10
4801.47 4.0121e-10
4802.94 4.0022e-10
4804.41 4.5561e-10
4805.88 4.7137e-10
4807.35 4.0623e-10
4808.82 4.5675e-10
4810.29 4.2692e-10
4811.76 3.6045e-10
4813.23 3.5087e-10
4814.7 3.741e-10
4816.17 3.5471e-10
4817.64 3.345e-10
4819.11 3.4306e-10
4820.58 3.8318e-10
4822.05 4.0404e-10
4823.52 3.7268e-10
4824.99 3.4279e-10
4826.46 3.3785e-10
4827.93 3.4945e-10
4829.4 3.8699e-10
4830.87 3.7326e-10
4832.34 3.2252e-10
4833.81 3.2853e-10
4835.28 3.4813e-10
4836.75 3.4165e-10
4838.22 3.4844e-10
4839.69 3.2818e-10
4841.16 3.1941e-10
4842.63 3.3618e-10
4844.1 3.5175e-10
4845.57 3.1556e-10
4847.04 3.0244e-10
4848.51 3.465e-10
4849.98 3.3567e-10
4851.45 3.5165e-10
4852.92 3.401e-10
4854.39 3.0507e-10
4855.86 3.0231e-10
4857.33 3.2426e-10
4858.8 3.0674e-10
4860.27 3.1456e-10
4861.74 3.1006e-10
4863.21 3.0671e-10
4864.68 3.1237e-10
4866.15 2.9956e-10
4867.62 2.957e-10
4869.09 3.1131e-10
4870.56 3.1748e-10
4872.03 3.3541e-10
4873.5 3.5916e-10
4874.97 3.5363e-10
4876.44 3.1043e-10
4877.91 3.3932e-10
4879.38 3.684e-10
4880.85 3.4758e-10
4882.32 3.5471e-10
4883.79 3.5183e-10
4885.26 3.4846e-10
4886.73 3.3978e-10
4888.2 3.461e-10
4889.67 3.6081e-10
4891.14 3.9024e-10
4892.61 3.8486e-10
4894.08 3.2386e-10
4895.55 2.6665e-10
4897.02 1.9685e-10
4898.49 1.3853e-10
4899.96 1.1816e-10
4901.43 1.5408e-10
4902.9 2.7168e-10
4904.37 3.3574e-10
4905.84 3.2691e-10
4907.31 3.59e-10
4908.78 3.6585e-10
4910.25 3.6749e-10
4911.72 4.0994e-10
4913.19 3.7502e-10
4914.66 3.4121e-10
4916.13 3.4309e-10
4917.6 3.3274e-10
4919.07 3.4133e-10
4920.54 3.3803e-10
4922.01 3.1019e-10
4923.48 3.3768e-10
4924.95 3.397e-10
4926.42 3.4846e-10
4927.89 3.4287e-10
4929.36 3.1782e-10
4930.83 3.0133e-10
4932.3 3.0056e-10
4933.77 3.3564e-10
4935.24 3.2711e-10
4936.71 3.3612e-10
4938.18 3.3843e-10
4939.65 3.4589e-10
4941.12 3.7951e-10
4942.59 3.1025e-10
4944.06 3.4104e-10
4945.53 3.3639e-10
4947.0 3.4372e-10
4948.47 3.4956e-10
4949.94 3.4132e-10
4951.41 3.3085e-10
4952.88 3.3114e-10
4954.35 3.3652e-10
4955.82 3.3586e-10
4957.29 3.0953e-10
4958.76 3.2587e-10
4960.23 3.5621e-10
4961.7 2.984e-10
4963.17 2.9766e-10
4964.64 3.3359e-10
4966.11 3.122e-10
4967.58 3.0572e-10
4969.05 3.373e-10
4970.52 3.1718e-10
4971.99 3.1049e-10
4973.46 3.1811e-10
4974.93 3.4118e-10
4976.4 3.1331e-10
4977.87 2.9736e-10
4979.34 3.4145e-10
4980.81 3.3672e-10
4982.28 3.2757e-10
4983.75 3.0422e-10
4985.22 3.0459e-10
4986.69 3.2797e-10
4988.16 3.1996e-10
4989.63 3.4359e-10
4991.1 3.3663e-10
4992.57 2.6891e-10
4994.04 1.9367e-10
4995.51 1.3589e-10
4996.98 9.0532e-11
4998.45 8.5967e-11
4999.92 1.4032e-10
5001.39 2.5541e-10
5002.86 3.1495e-10
5004.33 3.4097e-10
5005.8 3.5236e-10
5007.27 3.3071e-10
5008.74 2.9882e-10
5010.21 3.0855e-10
5011.68 3.0517e-10
5013.15 3.137e-10
5014.62 3.2511e-10
5016.09 3.4099e-10
5017.56 3.7887e-10
5019.03 3.6214e-10
5020.5 3.1127e-10
5021.97 3.4304e-10
5023.44 3.5408e-10
5024.91 3.5343e-10
5026.38 3.8456e-10
5027.85 3.6122e-10
5029.32 3.9572e-10
5030.79 3.7139e-10
5032.26 3.5189e-10
5033.73 3.7835e-10
5035.2 3.6958e-10
5036.67 4.0355e-10
5038.14 4.2572e-10
5039.61 3.5243e-10
5041.08 2.3601e-10
5042.55 1.0803e-10
5044.02 4.1482e-11
5045.49 8.9963e-12
5046.96 9.0536e-12
5048.43 4.8598e-11
5049.9 2.0251e-10
5051.37 3.7968e-10
5052.84 4.0069e-10
5054.31 4.2844e-10
5055.78 4.5415e-10
5057.25 4.2097e-10
5058.72 4.1737e-10
5060.19 4.4375e-10
5061.66 4.219e-10
5063.13 3.9397e-10
5064.6 4.2141e-10
5066.07 4.1591e-10
5067.54 3.7964e-10
5069.01 4.1444e-10
5070.48 4.3765e-10
5071.95 4.2589e-10
5073.42 3.867e-10
5074.89 4.1941e-10
5076.36 3.9596e-10
5077.83 4.4096e-10
5079.3 4.4177e-10
5080.77 3.9062e-10
5082.24 4.344e-10
5083.71 4.073e-10
5085.18 4.4661e-10
5086.65 3.8237e-10
5088.12 3.5166e-10
5089.59 3.9129e-10
5091.06 3.836e-10
5092.53 4.0789e-10
5094.0 3.785e-10
5095.47 4.2021e-10
5096.94 3.9248e-10
5098.41 3.6757e-10
5099.88 3.8282e-10
5101.35 4.1265e-10
5102.82 3.8536e-10
5104.29 3.7404e-10
5105.76 3.5509e-10
5107.23 3.9624e-10
5108.7 3.9688e-10
5110.17 3.8921e-10
5111.64 3.9382e-10
5113.11 4.2144e-10
5114.58 4.6109e-10
5116.05 4.6481e-10
5117.52 4.0777e-10
5118.99 4.0338e-10
5120.46 3.9018e-10
5121.93 4.1377e-10
5123.4 4.1673e-10
5124.87 3.8746e-10
5126.34 3.6773e-10
5127.81 3.7697e-10
5129.28 3.9802e-10
5130.75 3.8611e-10
5132.22 3.724e-10
5133.69 3.6672e-10
5135.16 3.585e-10
5136.63 3.19e-10
5138.1 3.5862e-10
5139.57 3.4424e-10
5141.04 3.6905e-10
5142.51 3.525e-10
5143.98 3.4874e-10
5145.45 3.4665e-10
5146.92 3.661e-10
5148.39 3.2338e-10
5149.86 3.3623e-10
5151.33 3.4538e-10
5152.8 3.2576e-10
5154.27 3.3752e-10
5155.74 3.5254e-10
5157.21 3.6449e-10
5158.68 3.6367e-10
5160.15 3.2576e-10
5161.62 3.5225e-10
5163.09 3.4992e-10
5164.56 3.6201e-10
5166.03 3.3161e-10
5167.5 3.3955e-10
5168.97 3.2968e-10
5170.44 3.4085e-10
5171.91 3.7727e-10
5173.38 3.6099e-10
5174.85 3.1415e-10
5176.32 3.2757e-10
5177.79 3.3111e-10
5179.26 3.3475e-10
5180.73 3.4902e-10
5182.2 3.1875e-10
5183.67 3.4317e-10
5185.14 3.2997e-10
5186.61 3.7272e-10
5188.08 3.6743e-10
5189.55 3.6135e-10
5191.02 3.8333e-10
5192.49 3.617e-10
5193.96 3.7244e-10
5195.43 3.2818e-10
5196.9 3.2153e-10
5198.37 3.7276e-10
5199.84 3.5334e-10
5201.31 3.2437e-10
5202.78 3.3468e-10
5204.25 3.2557e-10
5205.72 2.9935e-10
5207.19 2.9919e-10
5208.66 3.2815e-10
5210.13 3.5075e-10
5211.6 3.3381e-10
5213.07 3.1497e-10
5214.54 3.4037e-10
5216.01 3.3626e-10
5217.48 3.4601e-10
5218.95 3.3228e-10
5220.42 3.124e-10
5221.89 3.0627e-10
5223.36 3.0452e-10
5224.83 3.1649e-10
5226.3 3.3856e-10
5227.77 3.3252e-10
5229.24 3.1245e-10
5230.71 3.0641e-10
5232.18 2.974e-10
5233.65 2.7928e-10
5235.12 3.116e-10
5236.59 3.1104e-10
5238.06 3.1049e-10
5239.53 3.0994e-10
5241.0 3.0939e-10
5242.47 3.0884e-10
5243.94 3.0829e-10
5245.41 3.0774e-10
5246.88 3.0719e-10
5248.35 3.0665e-10
5249.82 3.061e-10
5251.29 3.0556e-10
5252.76 3.0501e-10
5254.23 3.0447e-10
5255.7 3.0393e-10
5257.17 3.0339e-10
5258.64 3.0285e-10
5260.11 3.0231e-10
5261.58 3.0231e-10
5263.05 2.9168e-10
5264.52 3.1359e-10
5265.99 2.9913e-10
5267.46 2.8287e-10
5268.93 2.9202e-10
5270.4 2.8925e-10
5271.87 2.7617e-10
5273.34 2.9032e-10
5274.81 2.8617e-10
5276.28 2.8222e-10
5277.75 2.7641e-10
5279.22 2.8613e-10
5280.69 3.0009e-10
5282.16 2.937e-10
5283.63 2.7089e-10
5285.1 2.5051e-10
5286.57 2.7895e-10
5288.04 2.905e-10
5289.51 2.7471e-10
5290.98 2.7819e-10
5292.45 2.8648e-10
5293.92 2.6383e-10
5295.39 2.7023e-10
5296.86 2.6298e-10
5298.33 2.5433e-10
5299.8 2.802e-10
5301.27 2.8408e-10
5302.74 2.8804e-10
5304.21 2.9122e-10
5305.68 2.6936e-10
5307.15 2.5407e-10
5308.62 2.6066e-10
5310.09 2.7379e-10
5311.56 2.8363e-10
5313.03 2.8776e-10
5314.5 2.8915e-10
5315.97 3.0428e-10
5317.44 3.1332e-10
5318.91 2.5638e-10
5320.38 2.4818e-10
5321.85 2.6045e-10
5323.32 2.5258e-10
5324.79 2.5908e-10
5326.26 2.7016e-10
5327.73 2.9309e-10
5329.2 2.6726e-10
5330.67 2.8728e-10
5332.14 2.9257e-10
5333.61 2.5007e-10
5335.08 2.5487e-10
5336.55 2.5096e-10
5338.02 2.5242e-10
5339.49 2.9639e-10
5340.96 2.873e-10
5342.43 2.5739e-10
5343.9 2.5328e-10
5345.37 2.4761e-10
5346.84 2.4697e-10
5348.31 2.5966e-10
5349.78 2.704e-10
5351.25 2.6761e-10
5352.72 2.8197e-10
5354.19 2.8318e-10
5355.66 2.6487e-10
5357.13 2.5044e-10
5358.6 2.5683e-10
5360.07 2.8876e-10
5361.54 2.7239e-10
5363.01 2.4729e-10
5364.48 2.4363e-10
5365.95 2.7421e-10
5367.42 2.7068e-10
5368.89 2.7474e-10
5370.36 2.6723e-10
5371.83 2.5648e-10
5373.3 2.4462e-10
5374.77 2.8331e-10
5376.24 2.765e-10
5377.71 2.8829e-10
5379.18 3.0336e-10
5380.65 2.8217e-10
5382.12 2.8776e-10
5383.59 2.7851e-10
5385.06 2.9522e-10
5386.53 2.8912e-10
5388.0 2.8491e-10
5389.47 2.9861e-10
5390.94 2.937e-10
5392.41 2.9616e-10
5393.88 3.0842e-10
5395.35 2.9363e-10
5396.82 3.0719e-10
5398.29 3.2543e-10
5399.76 2.89e-10
5401.23 2.957e-10
5402.7 3.2444e-10
5404.17 3.1377e-10
5405.64 3.2197e-10
5407.11 3.1718e-10
5408.58 3.3629e-10
5410.05 3.2533e-10
5411.52 3.121e-10
5412.99 3.2894e-10
5414.46 3.1987e-10
5415.93 3.258e-10
5417.4 3.0183e-10
5418.87 3.3686e-10
5420.34 3.2878e-10
5421.81 3.3215e-10
5423.28 3.1715e-10
5424.75 2.8406e-10
5426.22 2.9429e-10
5427.69 3.1591e-10
5429.16 3.223e-10
5430.63 3.3912e-10
5432.1 3.0712e-10
5433.57 2.9506e-10
5435.04 3.4287e-10
5436.51 3.1718e-10
5437.98 3.1389e-10
5439.45 3.2959e-10
5440.92 3.3372e-10
5442.39 3.3152e-10
5443.86 3.4913e-10
5445.33 3.3069e-10
5446.8 3.5794e-10
5448.27 3.1979e-10
5449.74 3.2997e-10
5451.21 3.38e-10
5452.68 3.2713e-10
5454.15 3.776e-10
5455.62 3.8381e-10
5457.09 3.8772e-10
5458.56 3.7643e-10
5460.03 3.5676e-10
5461.5 3.6566e-10
5462.97 3.3058e-10
5464.44 3.4553e-10
5465.91 3.2804e-10
5467.38 3.5289e-10
5468.85 3.7898e-10
5470.32 3.4228e-10
5471.79 3.3584e-10
5473.26 3.3167e-10
5474.73 3.4563e-10
5476.2 3.5437e-10
5477.67 3.2825e-10
5479.14 3.5565e-10
5480.61 4.0597e-10
5482.08 3.4881e-10
5483.55 3.1407e-10
5485.02 3.4659e-10
5486.49 3.6084e-10
5487.96 3.6817e-10
5489.43 3.523e-10
5490.9 3.9594e-10
5492.37 3.7015e-10
5493.84 3.4509e-10
5495.31 3.2057e-10
5496.78 3.2918e-10
5498.25 3.5516e-10
5499.72 4.01e-10
5501.19 4.1902e-10
5502.66 4.1563e-10
5504.13 4.1785e-10
5505.6 3.6644e-10
5507.07 3.7807e-10
5508.54 3.8735e-10
5510.01 3.8767e-10
5511.48 3.6049e-10
5512.95 3.4028e-10
5514.42 3.8038e-10
5515.89 3.7238e-10
5517.36 3.7777e-10
5518.83 3.6319e-10
5520.3 3.8621e-10
5521.77 3.7431e-10
5523.24 3.8259e-10
5524.71 4.1784e-10
5526.18 4.0103e-10
5527.65 3.5532e-10
5529.12 4.0604e-10
5530.59 4.3154e-10
5532.06 4.1283e-10
5533.53 3.9596e-10
5535.0 4.0702e-10
5536.47 4.2092e-10
5537.94 4.2292e-10
5539.41 3.9723e-10
5540.88 3.9565e-10
5542.35 4.012e-10
5543.82 4.2121e-10
5545.29 3.9706e-10
5546.76 3.9995e-10
5548.23 3.7512e-10
5549.7 3.9328e-10
5551.17 4.37e-10
5552.64 4.1818e-10
5554.11 3.8153e-10
5555.58 3.7237e-10
5557.05 3.8073e-10
5558.52 3.9757e-10
5559.99 3.8106e-10
5561.46 3.9787e-10
5562.93 4.3828e-10
5564.4 4.5809e-10
5565.87 4.115e-10
5567.34 4.0731e-10
5568.81 4.2511e-10
5570.28 3.8567e-10
5571.75 3.8972e-10
5573.22 4.2734e-10
5574.69 4.4535e-10
5576.16 4.0831e-10
5577.63 3.7077e-10
5579.1 4.0507e-10
5580.57 4.3233e-10
5582.04 3.9441e-10
5583.51 4.2746e-10
5584.98 4.3662e-10
5586.45 3.9873e-10
5587.92 4.5226e-10
5589.39 4.6681e-10
5590.86 4.391e-10
5592.33 4.3815e-10
5593.8 4.37e-10
5595.27 4.2425e-10
5596.74 4.2939e-10
5598.21 4.2925e-10
5599.68 3.9922e-10
5601.15 4.0679e-10
5602.62 4.5881e-10
5604.09 4.4423e-10
5605.56 3.8723e-10
5607.03 4.3188e-10
5608.5 4.7059e-10
5609.97 4.4157e-10
5611.44 4.3583e-10
5612.91 4.6028e-10
5614.38 4.7914e-10
5615.85 4.403e-10
5617.32 4.2822e-10
5618.79 4.6973e-10
5620.26 4.6079e-10
5621.73 4.4905e-10
5623.2 4.6265e-10
5624.67 4.6067e-10
5626.14 4.4659e-10
5627.61 4.64e-10
5629.08 5.0497e-10
5630.55 4.5608e-10
5632.02 4.8759e-10
5633.49 4.9668e-10
5634.96 4.2623e-10
5636.43 4.4459e-10
5637.9 4.6278e-10
5639.37 4.3788e-10
5640.84 4.5106e-10
5642.31 4.3361e-10
5643.78 4.3488e-10
5645.25 4.4846e-10
5646.72 4.8559e-10
5648.19 4.798e-10
5649.66 4.7671e-10
5651.13 4.6155e-10
5652.6 4.7415e-10
5654.07 4.7273e-10
5655.54 5.1688e-10
5657.01 5.0277e-10
5658.48 4.6699e-10
5659.95 4.9596e-10
5661.42 4.6478e-10
5662.89 4.7768e-10
5664.36 4.9862e-10
5665.83 4.6627e-10
5667.3 5.0825e-10
5668.77 4.9883e-10
5670.24 4.7968e-10
5671.71 4.9363e-10
5673.18 4.8084e-10
5674.65 4.6539e-10
5676.12 4.8369e-10
5677.59 4.6012e-10
5679.06 4.923e-10
5680.53 4.3853e-10
5682.0 4.6315e-10
5683.47 4.8763e-10
5684.94 5.392e-10
5686.41 4.812e-10
5687.88 4.8245e-10
5689.35 4.841e-10
5690.82 4.8872e-10
5692.29 5.2462e-10
5693.76 4.8061e-10
5695.23 5.2834e-10
5696.7 5.4704e-10
5698.17 5.3735e-10
5699.64 4.9131e-10
5701.11 5.2846e-10
5702.58 5.2153e-10
5704.05 4.7945e-10
5705.52 5.513e-10
5706.99 5.1197e-10
5708.46 4.9737e-10
5709.93 5.1389e-10
5711.4 4.8845e-10
5712.87 5.3463e-10
5714.34 4.9787e-10
5715.81 5.3348e-10
5717.28 5.2344e-10
5718.75 5.614e-10
5720.22 4.9815e-10
5721.69 5.3696e-10
5723.16 5.2331e-10
5724.63 5.1195e-10
5726.1 5.298e-10
5727.57 5.7669e-10
5729.04 5.4083e-10
5730.51 4.9562e-10
5731.98 5.7396e-10
5733.45 6.1202e-10
5734.92 5.7228e-10
5736.39 5.6508e-10
5737.86 5.6431e-10
5739.33 6.2902e-10
5740.8 5.8836e-10
5742.27 5.7149e-10
5743.74 5.8954e-10
5745.21 5.8311e-10
5746.68 6.249e-10
5748.15 6.1878e-10
5749.62 5.6791e-10
5751.09 5.8516e-10
5752.56 5.879e-10
5754.03 5.7552e-10
5755.5 6.4362e-10
5756.97 5.9227e-10
5758.44 5.5423e-10
5759.91 5.9783e-10
5761.38 5.7355e-10
5762.85 5.9539e-10
5764.32 5.9236e-10
5765.79 6.124e-10
5767.26 6.2619e-10
5768.73 5.9065e-10
5770.2 6.0395e-10
5771.67 6.0119e-10
5773.14 5.6864e-10
5774.61 5.7079e-10
5776.08 5.7145e-10
5777.55 5.6853e-10
5779.02 5.8978e-10
5780.49 5.8163e-10
5781.96 5.753e-10
5783.43 5.7089e-10
5784.9 5.9588e-10
5786.37 6.0535e-10
5787.84 5.9975e-10
5789.31 5.5331e-10
5790.78 5.0617e-10
5792.25 5.1749e-10
5793.72 5.3088e-10
5795.19 5.3043e-10
5796.66 5.5348e-10
5798.13 5.439e-10
5799.6 5.0858e-10
5801.07 5.1883e-10
5802.54 5.2425e-10
5804.01 5.265e-10
5805.48 5.18e-10
5806.95 5.4807e-10
5808.42 5.5497e-10
5809.89 5.2114e-10
5811.36 5.2994e-10
5812.83 5.2599e-10
5814.3 4.9777e-10
5815.77 4.5405e-10
5817.24 4.8335e-10
5818.71 5.2758e-10
5820.18 5.0254e-10
5821.65 5.1453e-10
5823.12 5.3957e-10
5824.59 5.33e-10
5826.06 5.2651e-10
5827.53 5.201e-10
5829.0 5.1376e-10
5830.47 5.075e-10
5831.94 5.075e-10
5833.41 5.1523e-10
5834.88 5.0807e-10
5836.35 5.1025e-10
5837.82 4.7706e-10
5839.29 4.5701e-10
5840.76 4.8556e-10
5842.23 5.1199e-10
5843.7 5.2068e-10
5845.17 4.9277e-10
5846.64 5.0012e-10
5848.11 4.5601e-10
5849.58 4.683e-10
5851.05 5.0127e-10
5852.52 4.5366e-10
5853.99 4.9318e-10
5855.46 4.7955e-10
5856.93 4.5603e-10
5858.4 4.6912e-10
5859.87 5.0253e-10
5861.34 5.1551e-10
5862.81 4.8581e-10
5864.28 4.5645e-10
5865.75 5.013e-10
5867.22 5.0762e-10
5868.69 5.0225e-10
5870.16 4.7888e-10
5871.63 4.8284e-10
5873.1 4.6139e-10
5874.57 4.6059e-10
5876.04 4.4466e-10
5877.51 4.5763e-10
5878.98 4.2948e-10
5880.45 4.6404e-10
5881.92 4.8241e-10
5883.39 4.7647e-10
5884.86 4.6466e-10
5886.33 4.6284e-10
5887.8 5.1958e-10
5889.27 5.0023e-10
5890.74 4.6414e-10
5892.21 4.7366e-10
5893.68 4.7318e-10
5895.15 4.9213e-10
5896.62 4.9343e-10
5898.09 4.7174e-10
5899.56 4.609e-10
5901.03 5.1543e-10
5902.5 4.7532e-10
5903.97 4.9551e-10
5905.44 4.7594e-10
5906.91 4.5033e-10
5908.38 4.8255e-10
5909.85 4.7395e-10
5911.32 4.6952e-10
5912.79 5.0956e-10
5914.26 4.9469e-10
5915.73 4.9707e-10
5917.2 4.621e-10
5918.67 4.1014e-10
5920.14 4.1673e-10
5921.61 4.1726e-10
5923.08 4.0526e-10
5924.55 4.5273e-10
5926.02 4.8141e-10
5927.49 4.7367e-10
5928.96 4.7849e-10
5930.43 5.2322e-10
5931.9 5.0918e-10
5933.37 5.1826e-10
5934.84 5.6497e-10
5936.31 5.4913e-10
5937.78 4.989e-10
5939.25 4.5181e-10
5940.72 4.8536e-10
5942.19 5.2291e-10
5943.66 5.1564e-10
5945.13 5.375e-10
5946.6 5.3828e-10
5948.07 4.8742e-10
5949.54 4.9053e-10
5951.01 4.8263e-10
5952.48 4.7696e-10
5953.95 5.3625e-10
5955.42 5.0527e-10
5956.89 4.56e-10
5958.36 4.9101e-10
5959.83 5.3313e-10
5961.3 5.3365e-10
5962.77 5.487e-10
5964.24 5.4961e-10
5965.71 5.1726e-10
5967.18 4.9486e-10
5968.65 4.5848e-10
5970.12 5.2319e-10
5971.59 5.4918e-10
5973.06 5.2415e-10
5974.53 5.1095e-10
5976.0 4.8411e-10
5977.47 4.8753e-10
5978.94 5.1885e-10
5980.41 5.4905e-10
5981.88 5.3396e-10
5983.35 5.0363e-10
5984.82 4.8448e-10
5986.29 5.0351e-10
5987.76 4.8668e-10
5989.23 5.2805e-10
5990.7 5.2723e-10
5992.17 4.9322e-10
5993.64 5.0413e-10
5995.11 5.2878e-10
5996.58 5.5335e-10
5998.05 5.3618e-10
5999.52 5.5328e-10
6000.99 5.4634e-10
6002.46 5.1295e-10
6003.93 5.2539e-10
6005.4 5.5178e-10
6006.87 5.2918e-10
6008.34 4.9079e-10
6009.81 5.7521e-10
6011.28 5.7977e-10
6012.75 5.1402e-10
6014.22 5.4033e-10
6015.69 5.6422e-10
6017.16 5.3576e-10
6018.63 5.2798e-10
6020.1 5.4359e-10
6021.57 5.4531e-10
6023.04 5.7484e-10
6024.51 5.7131e-10
6025.98 5.3075e-10
6027.45 5.5518e-10
6028.92 5.586e-10
6030.39 5.4731e-10
6031.86 5.3883e-10
6033.33 5.5112e-10
6034.8 5.4233e-10
6036.27 5.4256e-10
6037.74 6.0536e-10
6039.21 5.9014e-10
6040.68 5.9147e-10
6042.15 5.8875e-10
6043.62 5.845e-10
6045.09 5.6136e-10
6046.56 5.7257e-10
6048.03 5.9828e-10
6049.5 6.0947e-10
6050.97 6.0461e-10
6052.44 5.7024e-10
6053.91 5.2052e-10
6055.38 5.2805e-10
6056.85 5.7229e-10
6058.32 6.0335e-10
6059.79 5.9748e-10
6061.26 5.8251e-10
6062.73 6.2674e-10
6064.2 6.1424e-10
6065.67 6.0542e-10
6067.14 6.0869e-10
6068.61 5.8114e-10
6070.08 5.718e-10
6071.55 6.2189e-10
6073.02 5.8742e-10
6074.49 5.9391e-10
6075.96 6.1302e-10
6077.43 6.3272e-10
6078.9 6.1355e-10
6080.37 5.9793e-10
6081.84 5.8887e-10
6083.31 5.8221e-10
6084.78 5.6838e-10
6086.25 6.2354e-10
6087.72 6.6465e-10
6089.19 7.2518e-10
6090.66 7.5564e-10
6092.13 7.6027e-10
6093.6 6.2596e-10
6095.07 5.9133e-10
6096.54 5.8703e-10
6098.01 6.2941e-10
6099.48 6.3512e-10
6100.95 5.7565e-10
6102.42 5.8153e-10
6103.89 5.7961e-10
6105.36 5.8149e-10
6106.83 6.2767e-10
6108.3 6.3872e-10
6109.77 6.6287e-10
6111.24 6.2722e-10
6112.71 6.136e-10
6114.18 6.3726e-10
6115.65 6.4949e-10
6117.12 6.1224e-10
6118.59 6.4104e-10
6120.06 6.8699e-10
6121.53 7.0493e-10
6123.0 6.55e-10
6124.47 6.2893e-10
6125.94 6.1657e-10
6127.41 6.2046e-10
6128.88 6.2917e-10
6130.35 6.683e-10
6131.82 6.4974e-10
6133.29 6.3694e-10
6134.76 6.5784e-10
6136.23 6.3794e-10
6137.7 6.5587e-10
6139.17 6.3277e-10
6140.64 6.1795e-10
6142.11 6.5453e-10
6143.58 6.4546e-10
6145.05 6.2213e-10
6146.52 6.308e-10
6147.99 6.4954e-10
6149.46 6.4951e-10
6150.93 6.2392e-10
6152.4 6.3696e-10
6153.87 6.9141e-10
6155.34 7.0667e-10
6156.81 6.9474e-10
6158.28 6.9027e-10
6159.75 7.0939e-10
6161.22 7.2864e-10
6162.69 6.9311e-10
6164.16 6.6509e-10
6165.63 6.7788e-10
6167.1 6.6729e-10
6168.57 7.2314e-10
6170.04 7.3813e-10
6171.51 7.3224e-10
6172.98 7.1593e-10
6174.45 7.2543e-10
6175.92 7.3589e-10
6177.39 7.4718e-10
6178.86 7.5774e-10
6180.33 7.5135e-10
6181.8 7.4932e-10
6183.27 7.4221e-10
6184.74 7.7349e-10
6186.21 8.0359e-10
6187.68 7.9953e-10
6189.15 8.1107e-10
6190.62 8.2194e-10
6192.09 7.9706e-10
6193.56 7.8546e-10
6195.03 8.0037e-10
6196.5 7.9813e-10
6197.97 8.2469e-10
6199.44 8.8303e-10
6200.91 8.7888e-10
6202.38 8.6211e-10
6203.85 9.2135e-10
6205.32 9.3617e-10
6206.79 8.8023e-10
6208.26 9.0648e-10
6209.73 9.2734e-10
6211.2 9.1989e-10
6212.67 9.3426e-10
6214.14 9.523e-10
6215.61 9.9752e-10
6217.08 9.9017e-10
6218.55 9.5985e-10
6220.02 9.8847e-10
6221.49 1.0366e-09
6222.96 1.0636e-09
6224.43 1.0723e-09
6225.9 1.0717e-09
6227.37 1.0654e-09
6228.84 1.0575e-09
6230.31 1.0335e-09
6231.78 1.0936e-09
6233.25 1.1891e-09
6234.72 1.1632e-09
6236.19 1.0728e-09
6237.66 1.0599e-09
6239.13 1.208e-09
6240.6 1.2694e-09
6242.07 1.2443e-09
6243.54 1.2529e-09
6245.01 1.2457e-09
6246.48 1.2201e-09
6247.95 1.1995e-09
6249.42 1.2571e-09
6250.89 1.2774e-09
6252.36 1.3532e-09
6253.83 1.3388e-09
6255.3 1.2598e-09
6256.77 1.3398e-09
6258.24 1.3547e-09
6259.71 1.3606e-09
6261.18 1.3871e-09
6262.65 1.3832e-09
6264.12 1.4392e-09
6265.59 1.4862e-09
6267.06 1.3807e-09
6268.53 1.3779e-09
6270.0 1.4502e-09
6271.47 1.3954e-09
6272.94 1.4314e-09
6274.41 1.4803e-09
6275.88 1.4245e-09
6277.35 1.5034e-09
6278.82 1.4983e-09
6280.29 1.5215e-09
6281.76 1.593e-09
6283.23 1.5596e-09
6284.7 1.5584e-09
6286.17 1.5589e-09
6287.64 1.5637e-09
6289.11 1.5785e-09
6290.58 1.5884e-09
6292.05 1.6707e-09
6293.52 1.575e-09
6294.99 1.6017e-09
6296.46 1.5502e-09
6297.93 1.5481e-09
6299.4 1.5468e-09
6300.87 1.614e-09
6302.34 1.6338e-09
6303.81 1.5947e-09
6305.28 1.5458e-09
6306.75 1.6025e-09
6308.22 1.5918e-09
6309.69 1.5456e-09
6311.16 1.5906e-09
6312.63 1.5308e-09
6314.1 1.6486e-09
6315.57 1.639e-09
6317.04 1.5507e-09
6318.51 1.4798e-09
6319.98 1.4963e-09
6321.45 1.6088e-09
6322.92 1.6643e-09
6324.39 1.6286e-09
6325.86 1.5263e-09
6327.33 1.5545e-09
6328.8 1.5834e-09
6330.27 1.6527e-09
6331.74 1.6299e-09
6333.21 1.5084e-09
6334.68 1.5645e-09
6336.15 1.6318e-09
6337.62 1.6716e-09
6339.09 1.5838e-09
6340.56 1.4689e-09
6342.03 1.5542e-09
6343.5 1.5612e-09
6344.97 1.5588e-09
6346.44 1.5548e-09
6347.91 1.4401e-09
6349.38 1.4534e-09
6350.85 1.5091e-09
6352.32 1.4464e-09
6353.79 1.4001e-09
6355.26 1.5815e-09
6356.73 1.5355e-09
6358.2 1.4541e-09
6359.67 1.5665e-09
6361.14 1.5108e-09
6362.61 1.4226e-09
6364.08 1.4572e-09
6365.55 1.4601e-09
6367.02 1.4229e-09
6368.49 1.398e-09
6369.96 1.3527e-09
6371.43 1.4347e-09
6372.9 1.4454e-09
6374.37 1.4223e-09
6375.84 1.4926e-09
6377.31 1.5694e-09
6378.78 1.4232e-09
6380.25 1.3076e-09
6381.72 1.3527e-09
6383.19 1.3768e-09
6384.66 1.2834e-09
6386.13 1.2474e-09
6387.6 1.2539e-09
6389.07 1.1942e-09
6390.54 1.0355e-09
6392.01 8.5093e-10
6393.48 9.5592e-10
6394.95 1.1368e-09
6396.42 1.1874e-09
6397.89 1.202e-09
6399.36 1.1404e-09
6400.83 1.083e-09
6402.3 1.0631e-09
6403.77 1.0512e-09
6405.24 1.0741e-09
6406.71 1.026e-09
6408.18 9.8421e-10
6409.65 9.837e-10
6411.12 9.4961e-10
6412.59 8.9274e-10
6414.06 8.4327e-10
6415.53 8.7021e-10
6417.0 8.4065e-10
6418.47 8.4077e-10
6419.94 8.6131e-10
6421.41 7.9601e-10
6422.88 8.1161e-10
6424.35 7.9958e-10
6425.82 7.2698e-10
6427.29 7.0472e-10
6428.76 7.0662e-10
6430.23 6.8442e-10
6431.7 6.4643e-10
6433.17 6.3849e-10
6434.64 6.9362e-10
6436.11 7.276e-10
6437.58 6.57e-10
6439.05 6.1504e-10
6440.52 6.1457e-10
6441.99 5.9771e-10
6443.46 5.6572e-10
6444.93 5.2171e-10
6446.4 5.3503e-10
6447.87 5.3956e-10
6449.34 5.127e-10
6450.81 5.3641e-10
6452.28 5.4615e-10
6453.75 4.9297e-10
6455.22 4.7951e-10
6456.69 4.6235e-10
6458.16 4.8235e-10
6459.63 4.6214e-10
6461.1 4.2445e-10
6462.57 4.3864e-10
6464.04 4.449e-10
6465.51 4.3839e-10
6466.98 4.331e-10
6468.45 4.2165e-10
6469.92 4.1395e-10
6471.39 4.4331e-10
6472.86 4.3514e-10
6474.33 3.7296e-10
6475.8 3.6985e-10
6477.27 3.812e-10
6478.74 3.6791e-10
6480.21 3.5321e-10
6481.68 3.5958e-10
6483.15 3.6327e-10
6484.62 3.5741e-10
6486.09 3.6766e-10
6487.56 3.7122e-10
6489.03 3.6407e-10
6490.5 3.3841e-10
6491.97 3.3888e-10
6493.44 3.2445e-10
6494.91 3.1613e-10
6496.38 3.2059e-10
6497.85 3.1818e-10
6499.32 3.0234e-10
6500.79 3.0236e-10
6502.26 3.2674e-10
6503.73 3.1191e-10
6505.2 3.1289e-10
6506.67 3.2325e-10
6508.14 3.3246e-10
6509.61 3.2358e-10
6511.08 3.2143e-10
6512.55 3.0561e-10
6514.02 3.0176e-10
6515.49 2.8753e-10
6516.96 2.8567e-10
6518.43 3.0146e-10
6519.9 3.0325e-10
6521.37 3.3082e-10
6522.84 3.0709e-10
6524.31 2.8817e-10
6525.78 2.8266e-10
6527.25 2.9993e-10
6528.72 3.1381e-10
6530.19 2.7341e-10
6531.66 2.7506e-10
6533.13 2.9868e-10
6534.6 3.1417e-10
6536.07 2.8278e-10
6537.54 2.8472e-10
6539.01 2.834e-10
6540.48 2.6554e-10
6541.95 2.5646e-10
6543.42 2.7144e-10
6544.89 2.9263e-10
6546.36 3.1148e-10
6547.83 2.897e-10
6549.3 2.8487e-10
6550.77 2.8894e-10
6552.24 2.8446e-10
6553.71 2.6696e-10
6555.18 2.6793e-10
6556.65 3.0437e-10
6558.12 2.9718e-10
6559.59 2.7769e-10
6561.06 2.6192e-10
6562.53 2.6924e-10
6564.0 2.7414e-10
6565.47 2.7692e-10
6566.94 2.9102e-10
6568.41 2.8376e-10
6569.88 2.7165e-10
6571.35 2.865e-10
6572.82 2.6267e-10
6574.29 2.6449e-10
6575.76 2.7635e-10
6577.23 2.6799e-10
6578.7 2.5531e-10
6580.17 2.596e-10
6581.64 2.5872e-10
6583.11 2.5344e-10
6584.58 2.7048e-10
6586.05 2.7606e-10
6587.52 2.516e-10
6588.99 2.6235e-10
6590.46 2.6688e-10
6591.93 2.5824e-10
6593.4 2.5611e-10
6594.87 2.6935e-10
6596.34 2.8385e-10
6597.81 2.6355e-10
6599.28 2.3193e-10
6600.75 2.306e-10
6602.22 2.516e-10
6603.69 2.7578e-10
6605.16 2.735e-10
6606.63 2.5899e-10
6608.1 2.3171e-10
6609.57 1.1769e-10
6611.04 4.8547e-11
6612.51 2.4111e-11
6613.98 1.0849e-11
6615.45 7.8046e-12
6616.92 3.0614e-11
6618.39 1.7522e-10
6619.86 2.6833e-10
6621.33 2.6032e-10
6622.8 2.7544e-10
6624.27 2.8664e-10
6625.74 2.6808e-10
6627.21 2.6534e-10
6628.68 2.9722e-10
6630.15 2.6508e-10
6631.62 2.2034e-10
6633.09 2.1782e-10
6634.56 2.1926e-10
6636.03 2.3158e-10
6637.5 2.6288e-10
6638.97 2.8363e-10
6640.44 3.1593e-10
6641.91 3.0181e-10
6643.38 2.7275e-10
6644.85 2.7027e-10
6646.32 2.7903e-10
6647.79 3.022e-10
6649.26 3.0447e-10
6650.73 2.8567e-10
6652.2 2.9099e-10
6653.67 2.9317e-10
6655.14 2.8164e-10
6656.61 2.8075e-10
6658.08 2.8718e-10
6659.55 2.933e-10
6661.02 3.0674e-10
6662.49 2.9721e-10
6663.96 2.8443e-10
6665.43 2.8804e-10
6666.9 3.0231e-10
6668.37 2.9973e-10
6669.84 2.8802e-10
6671.31 3.0731e-10
6672.78 3.3247e-10
6674.25 3.2189e-10
6675.72 2.9356e-10
6677.19 2.9385e-10
6678.66 3.1306e-10
6680.13 3.2895e-10
6681.6 3.3694e-10
6683.07 3.222e-10
6684.54 3.2597e-10
6686.01 3.0927e-10
6687.48 3.0541e-10
6688.95 3.2788e-10
6690.42 3.3111e-10
6691.89 3.217e-10
6693.36 3.0701e-10
6694.83 3.3554e-10
6696.3 3.5871e-10
6697.77 3.1519e-10
6699.24 3.172e-10
6700.71 3.5095e-10
6702.18 3.8376e-10
6703.65 3.6796e-10
6705.12 3.2998e-10
6706.59 3.5615e-10
6708.06 3.7192e-10
6709.53 3.5958e-10
6711.0 3.5638e-10
6712.47 3.62e-10
6713.94 3.6312e-10
6715.41 3.4949e-10
6716.88 3.5652e-10
6718.35 3.6807e-10
6719.82 3.8568e-10
6721.29 3.6775e-10
6722.76 3.658e-10
6724.23 3.6401e-10
6725.7 3.7995e-10
6727.17 3.8082e-10
6728.64 3.825e-10
6730.11 3.6597e-10
6731.58 3.57e-10
6733.05 3.7913e-10
6734.52 3.7625e-10
6735.99 3.5306e-10
6737.46 3.7359e-10
6738.93 4.0198e-10
6740.4 4.1168e-10
6741.87 4.1973e-10
6743.34 4.2252e-10
6744.81 4.0858e-10
6746.28 4.2363e-10
6747.75 4.3507e-10
6749.22 4.2061e-10
6750.69 4.1648e-10
6752.16 4.1944e-10
6753.63 4.2788e-10
6755.1 4.5909e-10
6756.57 4.3126e-10
6758.04 4.0906e-10
6759.51 4.2213e-10
6760.98 4.2073e-10
6762.45 4.3351e-10
6763.92 4.1509e-10
6765.39 3.7139e-10
6766.86 3.2248e-10
6768.33 3.2498e-10
6769.8 3.2597e-10
6771.27 3.4873e-10
6772.74 4.5125e-10
6774.21 4.9579e-10
6775.68 4.8065e-10
6777.15 4.4508e-10
6778.62 4.3089e-10
6780.09 3.9799e-10
6781.56 3.6798e-10
6783.03 3.7838e-10
6784.5 3.9827e-10
6785.97 4.2411e-10
6787.44 4.4743e-10
6788.91 4.6288e-10
6790.38 4.6089e-10
6791.85 4.6412e-10
6793.32 4.8914e-10
6794.79 4.8269e-10
6796.26 5.0076e-10
6797.73 5.0288e-10
6799.2 4.9346e-10
6800.67 5.0042e-10
6802.14 5.0057e-10
6803.61 4.981e-10
6805.08 5.2376e-10
6806.55 5.3779e-10
6808.02 5.0946e-10
6809.49 5.0704e-10
6810.96 5.1798e-10
6812.43 4.8255e-10
6813.9 5.0379e-10
6815.37 5.4448e-10
6816.84 5.4274e-10
6818.31 5.5197e-10
6819.78 5.4531e-10
6821.25 5.3875e-10
6822.72 5.6012e-10
6824.19 5.6719e-10
6825.66 5.5325e-10
6827.13 5.5011e-10
6828.6 5.4494e-10
6830.07 5.529e-10
6831.54 5.54e-10
6833.01 5.2219e-10
6834.48 5.327e-10
6835.95 5.6674e-10
6837.42 5.8817e-10
6838.89 5.7933e-10
6840.36 5.4311e-10
6841.83 5.1911e-10
6843.3 5.207e-10
6844.77 5.6925e-10
6846.24 6.1945e-10
6847.71 5.9754e-10
6849.18 5.8215e-10
6850.65 5.893e-10
6852.12 5.9971e-10
6853.59 6.3214e-10
6855.06 6.2257e-10
6856.53 6.2199e-10
6858.0 6.4507e-10
6859.47 6.4501e-10
6860.94 6.2396e-10
6862.41 5.9674e-10
6863.88 5.9703e-10
6865.35 6.1491e-10
6866.82 6.2433e-10
6868.29 5.8652e-10
6869.76 6.0522e-10
6871.23 6.9133e-10
6872.7 6.8716e-10
6874.17 5.9607e-10
6875.64 5.6938e-10
6877.11 6.271e-10
6878.58 6.4384e-10
6880.05 6.3336e-10
6881.52 6.4814e-10
6882.99 6.5862e-10
6884.46 6.4781e-10
6885.93 6.2338e-10
6887.4 6.4288e-10
6888.87 6.7366e-10
6890.34 6.9687e-10
6891.81 6.7403e-10
6893.28 6.5683e-10
6894.75 6.659e-10
6896.22 6.3273e-10
6897.69 6.1827e-10
6899.16 6.5544e-10
6900.63 7.296e-10
6902.1 7.0861e-10
6903.57 6.4721e-10
6905.04 6.5497e-10
6906.51 6.8429e-10
6907.98 7.1809e-10
6909.45 7.0423e-10
6910.92 6.5782e-10
6912.39 6.8001e-10
6913.86 7.2056e-10
6915.33 6.8926e-10
6916.8 6.8872e-10
6918.27 6.7908e-10
6919.74 6.7253e-10
6921.21 7.0997e-10
6922.68 7.6221e-10
6924.15 7.7648e-10
6925.62 7.3661e-10
6927.09 6.866e-10
6928.56 6.8816e-10
6930.03 6.7962e-10
6931.5 6.6585e-10
6932.97 7.2178e-10
6934.44 7.4076e-10
6935.91 7.207e-10
6937.38 6.9405e-10
6938.85 7.0578e-10
6940.32 7.2453e-10
6941.79 7.2726e-10
6943.26 7.2507e-10
6944.73 6.815e-10
6946.2 6.9857e-10
6947.67 7.5985e-10
6949.14 7.4627e-10
6950.61 7.2566e-10
6952.08 7.8008e-10
6953.55 7.4617e-10
6955.02 7.0831e-10
6956.49 7.462e-10
6957.96 7.9683e-10
6959.43 7.6804e-10
6960.9 7.2638e-10
6962.37 7.5713e-10
6963.84 7.8749e-10
6965.31 7.8351e-10
6966.78 7.4783e-10
6968.25 7.6892e-10
6969.72 8.2308e-10
6971.19 8.2367e-10
6972.66 7.9375e-10
6974.13 8.0166e-10
6975.6 7.6374e-10
6977.07 7.3869e-10
6978.54 7.6052e-10
6980.01 7.4569e-10
6981.48 7.0433e-10
6982.95 7.1798e-10
6984.42 7.5427e-10
6985.89 7.684e-10
6987.36 7.9267e-10
6988.83 7.7957e-10
6990.3 7.291e-10
6991.77 7.4916e-10
6993.24 7.8934e-10
6994.71 7.4659e-10
6996.18 7.2992e-10
6997.65 7.6148e-10
6999.12 7.589e-10
7000.59 7.7772e-10
7002.06 7.883e-10
7003.53 7.6695e-10
7005.0 7.7293e-10
7006.47 7.9733e-10
7007.94 8.341e-10
7009.41 8.2347e-10
7010.88 7.9043e-10
7012.35 7.6627e-10
7013.82 7.28e-10
7015.29 7.4666e-10
7016.76 7.6167e-10
7018.23 7.515e-10
7019.7 7.9035e-10
7021.17 8.2435e-10
7022.64 8.317e-10
7024.11 8.0324e-10
7025.58 8.143e-10
7027.05 8.0183e-10
7028.52 7.6451e-10
7029.99 7.4345e-10
7031.46 7.6913e-10
7032.93 8.2649e-10
7034.4 8.2538e-10
7035.87 8.3974e-10
7037.34 8.3231e-10
7038.81 7.7247e-10
7040.28 7.5601e-10
7041.75 7.691e-10
7043.22 8.1563e-10
7044.69 8.2563e-10
7046.16 7.7527e-10
7047.63 7.7215e-10
7049.1 8.214e-10
7050.57 8.5186e-10
7052.04 8.085e-10
7053.51 7.6189e-10
7054.98 7.1186e-10
7056.45 7.4272e-10
7057.92 8.4021e-10
7059.39 8.5896e-10
7060.86 8.2729e-10
7062.33 8.2995e-10
7063.8 8.2505e-10
7065.27 7.9509e-10
7066.74 8.2723e-10
7068.21 8.4844e-10
7069.68 8.3653e-10
7071.15 8.5441e-10
7072.62 8.3207e-10
7074.09 8.0621e-10
7075.56 8.4901e-10
7077.03 9.0755e-10
7078.5 8.6128e-10
7079.97 7.9466e-10
7081.44 7.7387e-10
7082.91 7.8053e-10
7084.38 8.2356e-10
7085.85 8.5464e-10
7087.32 8.1997e-10
7088.79 8.3592e-10
7090.26 8.5128e-10
7091.73 7.9938e-10
7093.2 8.1079e-10
7094.67 8.1401e-10
7096.14 7.9901e-10
7097.61 8.2198e-10
7099.08 8.5087e-10
7100.55 8.897e-10
7102.02 8.7863e-10
7103.49 8.4498e-10
7104.96 8.705e-10
7106.43 8.5829e-10
7107.9 8.0969e-10
7109.37 8.2355e-10
7110.84 8.6227e-10
7112.31 8.5723e-10
7113.78 8.7748e-10
7115.25 9.019e-10
7116.72 8.9814e-10
7118.19 9.0538e-10
7119.66 9.0895e-10
7121.13 8.5761e-10
7122.6 7.859e-10
7124.07 8.3804e-10
7125.54 9.0113e-10
7127.01 8.5296e-10
7128.48 8.1632e-10
7129.95 8.4949e-10
7131.42 9.0056e-10
7132.89 8.7001e-10
7134.36 8.3007e-10
7135.83 8.6669e-10
7137.3 9.533e-10
7138.77 9.5417e-10
7140.24 8.8356e-10
7141.71 8.9535e-10
7143.18 9.1494e-10
7144.65 8.9606e-10
7146.12 9.2083e-10
7147.59 9.619e-10
7149.06 9.8611e-10
7150.53 9.8237e-10
7152.0 9.3492e-10
7153.47 9.0891e-10
7154.94 9.2712e-10
7156.41 9.2583e-10
7157.88 8.7996e-10
7159.35 8.4545e-10
7160.82 8.3961e-10
7162.29 8.551e-10
7163.76 8.7945e-10
7165.23 9.1548e-10
7166.7 9.7747e-10
7168.17 9.4503e-10
7169.64 8.8018e-10
7171.11 8.7642e-10
7172.58 8.5392e-10
7174.05 8.7781e-10
7175.52 9.325e-10
7176.99 8.8864e-10
7178.46 8.5157e-10
7179.93 8.9887e-10
7181.4 8.7903e-10
7182.87 8.3137e-10
7184.34 8.593e-10
7185.81 8.7381e-10
7187.28 8.5641e-10
7188.75 8.2928e-10
7190.22 7.8491e-10
7191.69 7.9299e-10
7193.16 8.6052e-10
7194.63 8.8111e-10
7196.1 9.0998e-10
7197.57 9.8295e-10
7199.04 9.4947e-10
7200.51 8.3804e-10
7201.98 7.9614e-10
7203.45 8.7833e-10
7204.92 9.2474e-10
7206.39 8.7529e-10
7207.86 8.6496e-10
7209.33 8.6074e-10
7210.8 8.8941e-10
7212.27 9.0146e-10
7213.74 8.8737e-10
7215.21 9.2055e-10
7216.68 8.8875e-10
7218.15 8.3756e-10
7219.62 8.9646e-10
7221.09 9.6047e-10
7222.56 8.9386e-10
7224.03 7.9676e-10
7225.5 8.5851e-10
7226.97 1.0181e-09
7228.44 1.0107e-09
7229.91 9.1177e-10
7231.38 8.8134e-10
7232.85 9.0689e-10
7234.32 9.0278e-10
7235.79 8.9566e-10
7237.26 9.3025e-10
7238.73 9.3324e-10
7240.2 9.1131e-10
7241.67 9.4063e-10
7243.14 1.0366e-09
7244.61 1.0264e-09
7246.08 9.5921e-10
7247.55 9.309e-10
7249.02 9.4088e-10
7250.49 9.9474e-10
7251.96 9.4238e-10
7253.43 9.1548e-10
7254.9 1.0245e-09
7256.37 1.0149e-09
7257.84 9.048e-10
7259.31 8.8024e-10
7260.78 8.6851e-10
7262.25 9.1841e-10
7263.72 9.489e-10
7265.19 9.023e-10
7266.66 9.2279e-10
7268.13 1.0245e-09
7269.6 1.033e-09
7271.07 9.2144e-10
7272.54 9.0319e-10
7274.01 9.1518e-10
7275.48 8.7703e-10
7276.95 8.8086e-10
7278.42 9.2111e-10
7279.89 9.2173e-10
7281.36 9.3914e-10
7282.83 9.2677e-10
7284.3 9.6113e-10
7285.77 9.9232e-10
7287.24 9.6003e-10
7288.71 9.8061e-10
7290.18 9.3654e-10
7291.65 9.3494e-10
7293.12 9.4164e-10
7294.59 9.3597e-10
7296.06 1.0201e-09
7297.53 1.0456e-09
7299.0 9.9242e-10
7300.47 9.4656e-10
7301.94 9.1492e-10
7303.41 9.5659e-10
7304.88 9.7571e-10
7306.35 1.0114e-09
7307.82 9.4683e-10
7309.29 8.9289e-10
7310.76 9.5063e-10
7312.23 9.639e-10
7313.7 9.9715e-10
7315.17 9.9468e-10
7316.64 9.3871e-10
7318.11 8.9082e-10
7319.58 8.5965e-10
7321.05 9.3497e-10
7322.52 1.0313e-09
7323.99 9.5008e-10
7325.46 9.6307e-10
7326.93 1.0034e-09
7328.4 9.7165e-10
7329.87 9.8282e-10
7331.34 9.5892e-10
7332.81 9.4733e-10
7334.28 9.3455e-10
7335.75 9.5971e-10
7337.22 1.0109e-09
7338.69 1.0217e-09
7340.16 1.0129e-09
7341.63 1.0047e-09
7343.1 1.041e-09
7344.57 1.0096e-09
7346.04 9.7531e-10
7347.51 9.8631e-10
7348.98 1.0259e-09
7350.45 1.0792e-09
7351.92 1.0509e-09
7353.39 1.0421e-09
7354.86 1.0371e-09
7356.33 9.7097e-10
7357.8 9.1494e-10
7359.27 9.4733e-10
7360.74 1.0458e-09
7362.21 1.0547e-09
7363.68 9.7539e-10
7365.15 9.869e-10
7366.62 1.0149e-09
7368.09 9.9252e-10
7369.56 9.5243e-10
7371.03 9.8154e-10
7372.5 1.0376e-09
7373.97 9.9704e-10
7375.44 9.1148e-10
7376.91 9.3023e-10
7378.38 9.0939e-10
7379.85 8.9358e-10
7381.32 9.861e-10
7382.79 1.0131e-09
7384.26 9.4997e-10
7385.73 9.2256e-10
7387.2 9.3368e-10
7388.67 1.0102e-09
7390.14 1.0303e-09
7391.61 1.026e-09
7393.08 1.0811e-09
7394.55 1.0655e-09
7396.02 1.0826e-09
7397.49 1.0691e-09
7398.96 1.0615e-09
7400.43 1.0518e-09
7401.9 9.8468e-10
7403.37 1.013e-09
7404.84 9.88e-10
7406.31 9.767e-10
7407.78 9.5648e-10
7409.25 1.0305e-09
7410.72 1.0196e-09
7412.19 1.0495e-09
7413.66 1.1657e-09
7415.13 1.1812e-09
7416.6 1.126e-09
7418.07 1.0792e-09
7419.54 1.0998e-09
7420.54 5.264079694792549e-10
7421.54 5.264079683886898e-10
7422.54 5.264079672981247e-10
7423.54 5.264079662075596e-10
7424.54 5.264079651169945e-10
7425.54 5.264079640264295e-10
7426.54 5.264079629358644e-10
7427.54 5.264079618452994e-10
7428.54 5.264079607547342e-10
7429.54 5.264079596641692e-10
7430.54 5.264079585736041e-10
7431.54 5.264079574830391e-10
7432.54 5.26407956392474e-10
7433.54 5.26407955301909e-10
7434.54 5.264079542113439e-10
7435.54 5.264079531207789e-10
7436.54 5.264079520302139e-10
7437.54 5.264079509396489e-10
7438.54 5.264079498490838e-10
7439.54 5.264079487585188e-10
7440.54 5.264079476679537e-10
7441.54 5.264079465773886e-10
7442.54 5.264079454868236e-10
7443.54 5.264079443962586e-10
7444.54 5.264079433056936e-10
7445.54 5.264079422151285e-10
7446.54 5.264079411245635e-10
7447.54 5.264079400339985e-10
7448.54 5.264079389434335e-10
7449.54 5.264079378528685e-10
7450.54 5.264079367623035e-10
7451.54 5.264079356717384e-10
7452.54 5.264079345811735e-10
7453.54 5.264079334906085e-10
7454.54 5.264079324000435e-10
7455.54 5.264079313094785e-10
7456.54 5.264079302189136e-10
7457.54 5.264079291283485e-10
7458.54 5.264079280377836e-10
7459.54 5.264079269472186e-10
7460.54 5.264079258566536e-10
7461.54 5.264079247660886e-10
7462.54 5.264079236755236e-10
7463.54 5.264079225849586e-10
7464.54 5.264079214943937e-10
7465.54 5.264079204038286e-10
7466.54 5.264079193132637e-10
7467.54 5.264079182226987e-10
7468.54 5.264079171321338e-10
7469.54 5.264079160415688e-10
7470.54 5.264079149510038e-10
7471.54 5.264079138604388e-10
7472.54 5.264079127698739e-10
7473.54 5.264079116793089e-10
7474.54 5.264079105887439e-10
7475.54 5.264079094981789e-10
7476.54 5.26407908407614e-10
7477.54 5.26407907317049e-10
7478.54 5.264079062264841e-10
7479.54 5.264079051359191e-10
7480.54 5.264079040453542e-10
7481.54 5.264079029547892e-10
7482.54 5.264079018642243e-10
7483.54 5.264079007736594e-10
7484.54 5.264078996830945e-10
7485.54 5.264078985925295e-10
7486.54 5.264078975019646e-10
7487.54 5.264078964113996e-10
7488.54 5.264078953208347e-10
7489.54 5.264078942302698e-10
7490.54 5.264078931397049e-10
7491.54 5.2640789204914e-10
7492.54 5.264078909585751e-10
7493.54 5.264078898680102e-10
7494.54 5.264078887774452e-10
7495.54 5.264078876868804e-10
7496.54 5.264078865963154e-10
7497.54 5.264078855057506e-10
7498.54 5.264078844151856e-10
7499.54 5.264078833246208e-10
7500.54 5.264078822340558e-10
7501.54 5.26407881143491e-10
7502.54 5.26407880052926e-10
7503.54 5.264078789623612e-10
7504.54 5.264078778717963e-10
7505.54 5.264078767812314e-10
7506.54 5.264078756906665e-10
7507.54 5.264078746001016e-10
7508.54 5.264078735095367e-10
7509.54 5.264078724189719e-10
7510.54 5.264078713284071e-10
7511.54 5.264078702378421e-10
7512.54 5.264078691472773e-10
7513.54 5.264078680567124e-10
7514.54 5.264078669661476e-10
7515.54 5.264078658755827e-10
7516.54 5.264078647850178e-10
7517.54 5.264078636944529e-10
7518.54 5.264078626038881e-10
7519.54 5.264078615133232e-10
7520.54 5.264078604227584e-10
7521.54 5.264078593321935e-10
7522.54 5.264078582416286e-10
7523.54 5.264078571510637e-10
7524.54 5.264078560604989e-10
7525.54 5.264078549699341e-10
7526.54 5.264078538793692e-10
7527.54 5.264078527888045e-10
7528.54 5.264078516982396e-10
7529.54 5.264078506076748e-10
7530.54 5.264078495171099e-10
7531.54 5.264078484265451e-10
7532.54 5.264078473359802e-10
7533.54 5.264078462454155e-10
7534.54 5.264078451548507e-10
7535.54 5.264078440642858e-10
7536.54 5.264078429737211e-10
7537.54 5.264078418831562e-10
7538.54 5.264078407925914e-10
7539.54 5.264078397020266e-10
7540.54 5.264078386114618e-10
7541.54 5.26407837520897e-10
7542.54 5.264078364303322e-10
7543.54 5.264078353397675e-10
7544.54 5.264078342492026e-10
7545.54 5.264078331586378e-10
7546.54 5.264078320680729e-10
7547.54 5.264078309775082e-10
7548.54 5.264078298869433e-10
7549.54 5.264078287963786e-10
7550.54 5.264078277058138e-10
7551.54 5.26407826615249e-10
7552.54 5.264078255246843e-10
7553.54 5.264078244341195e-10
7554.54 5.264078233435547e-10
7555.54 5.264078222529899e-10
7556.54 5.264078211624252e-10
7557.54 5.264078200718604e-10
7558.54 5.264078189812956e-10
7559.54 5.264078178907309e-10
7560.54 5.264078168001661e-10
7561.54 5.264078157096014e-10
7562.54 5.264078146190366e-10
7563.54 5.264078135284718e-10
7564.54 5.26407812437907e-10
7565.54 5.264078113473423e-10
7566.54 5.264078102567776e-10
7567.54 5.264078091662128e-10
7568.54 5.264078080756481e-10
7569.54 5.264078069850833e-10
7570.54 5.264078058945186e-10
7571.54 5.264078048039538e-10
7572.54 5.264078037133891e-10
7573.54 5.264078026228244e-10
7574.54 5.264078015322597e-10
7575.54 5.26407800441695e-10
7576.54 5.264077993511302e-10
7577.54 5.264077982605655e-10
7578.54 5.264077971700009e-10
7579.54 5.26407796079436e-10
7580.54 5.264077949888713e-10
7581.54 5.264077938983065e-10
7582.54 5.264077928077419e-10
7583.54 5.264077917171771e-10
7584.54 5.264077906266124e-10
7585.54 5.264077895360478e-10
7586.54 5.26407788445483e-10
7587.54 5.264077873549184e-10
7588.54 5.264077862643536e-10
7589.54 5.26407785173789e-10
7590.54 5.264077840832243e-10
7591.54 5.264077829926596e-10
7592.54 5.264077819020949e-10
7593.54 5.264077808115301e-10
7594.54 5.264077797209655e-10
7595.54 5.264077786304007e-10
7596.54 5.264077775398361e-10
7597.54 5.264077764492715e-10
7598.54 5.264077753587068e-10
7599.54 5.264077742681421e-10
7600.54 5.264077731775774e-10
7601.54 5.264077720870128e-10
7602.54 5.264077709964482e-10
7603.54 5.264077699058834e-10
7604.54 5.264077688153188e-10
7605.54 5.26407767724754e-10
7606.54 5.264077666341894e-10
7607.54 5.264077655436248e-10
7608.54 5.264077644530601e-10
7609.54 5.264077633624955e-10
7610.54 5.264077622719309e-10
7611.54 5.264077611813662e-10
7612.54 5.264077600908016e-10
7613.54 5.264077590002369e-10
7614.54 5.264077579096723e-10
7615.54 5.264077568191077e-10
7616.54 5.264077557285429e-10
7617.54 5.264077546379783e-10
7618.54 5.264077535474137e-10
7619.54 5.264077524568491e-10
7620.54 5.264077513662845e-10
7621.54 5.264077502757198e-10
7622.54 5.264077491851552e-10
7623.54 5.264077480945906e-10
7624.54 5.26407747004026e-10
7625.54 5.264077459134614e-10
7626.54 5.264077448228967e-10
7627.54 5.264077437323321e-10
7628.54 5.264077426417675e-10
7629.54 5.264077415512029e-10
7630.54 5.264077404606383e-10
7631.54 5.264077393700737e-10
7632.54 5.264077382795091e-10
7633.54 5.264077371889446e-10
7634.54 5.264077360983799e-10
7635.54 5.264077350078154e-10
7636.54 5.264077339172507e-10
7637.54 5.264077328266861e-10
7638.54 5.264077317361216e-10
7639.54 5.264077306455569e-10
7640.54 5.264077295549924e-10
7641.54 5.264077284644279e-10
7642.54 5.264077273738632e-10
7643.54 5.264077262832987e-10
7644.54 5.264077251927342e-10
7645.54 5.264077241021694e-10
7646.54 5.264077230116049e-10
7647.54 5.264077219210403e-10
7648.54 5.264077208304758e-10
7649.54 5.264077197399113e-10
7650.54 5.264077186493467e-10
7651.54 5.264077175587822e-10
7652.54 5.264077164682177e-10
7653.54 5.26407715377653e-10
7654.54 5.264077142870884e-10
7655.54 5.264077131965239e-10
7656.54 5.264077121059594e-10
7657.54 5.264077110153949e-10
7658.54 5.264077099248304e-10
7659.54 5.264077088342658e-10
7660.54 5.264077077437013e-10
7661.54 5.264077066531367e-10
7662.54 5.264077055625722e-10
7663.54 5.264077044720076e-10
7664.54 5.26407703381443e-10
7665.54 5.264077022908786e-10
7666.54 5.264077012003141e-10
7667.54 5.264077001097495e-10
7668.54 5.26407699019185e-10
7669.54 5.264076979286206e-10
7670.54 5.26407696838056e-10
7671.54 5.264076957474914e-10
7672.54 5.26407694656927e-10
7673.54 5.264076935663624e-10
7674.54 5.26407692475798e-10
7675.54 5.264076913852335e-10
7676.54 5.26407690294669e-10
7677.54 5.264076892041045e-10
7678.54 5.2640768811354e-10
7679.54 5.264076870229754e-10
7680.54 5.26407685932411e-10
7681.54 5.264076848418464e-10
7682.54 5.26407683751282e-10
7683.54 5.264076826607175e-10
7684.54 5.26407681570153e-10
7685.54 5.264076804795886e-10
7686.54 5.26407679389024e-10
7687.54 5.264076782984595e-10
7688.54 5.264076772078951e-10
7689.54 5.264076761173307e-10
7690.54 5.264076750267661e-10
7691.54 5.264076739362017e-10
7692.54 5.264076728456373e-10
7693.54 5.264076717550727e-10
7694.54 5.264076706645083e-10
7695.54 5.264076695739439e-10
7696.54 5.264076684833794e-10
7697.54 5.26407667392815e-10
7698.54 5.264076663022506e-10
7699.54 5.264076652116862e-10
7700.54 5.264076641211215e-10
7701.54 5.264076630305571e-10
7702.54 5.264076619399928e-10
7703.54 5.264076608494283e-10
7704.54 5.264076597588639e-10
7705.54 5.264076586682995e-10
7706.54 5.26407657577735e-10
7707.54 5.264076564871705e-10
7708.54 5.264076553966061e-10
7709.54 5.264076543060417e-10
7710.54 5.264076532154773e-10
7711.54 5.264076521249129e-10
7712.54 5.264076510343484e-10
7713.54 5.264076499437841e-10
7714.54 5.264076488532196e-10
7715.54 5.264076477626551e-10
7716.54 5.264076466720908e-10
7717.54 5.264076455815264e-10
7718.54 5.26407644490962e-10
7719.54 5.264076434003976e-10
7720.54 5.264076423098331e-10
7721.54 5.264076412192687e-10
7722.54 5.264076401287043e-10
7723.54 5.2640763903814e-10
7724.54 5.264076379475756e-10
7725.54 5.264076368570112e-10
7726.54 5.264076357664469e-10
7727.54 5.264076346758824e-10
7728.54 5.26407633585318e-10
7729.54 5.264076324947536e-10
7730.54 5.264076314041893e-10
7731.54 5.264076303136249e-10
7732.54 5.264076292230606e-10
7733.54 5.264076281324961e-10
7734.54 5.264076270419318e-10
7735.54 5.264076259513674e-10
7736.54 5.264076248608031e-10
7737.54 5.264076237702388e-10
7738.54 5.264076226796743e-10
7739.54 5.264076215891099e-10
7740.54 5.264076204985456e-10
7741.54 5.264076194079812e-10
7742.54 5.264076183174169e-10
7743.54 5.264076172268526e-10
7744.54 5.264076161362883e-10
7745.54 5.264076150457238e-10
7746.54 5.264076139551595e-10
7747.54 5.264076128645952e-10
7748.54 5.264076117740308e-10
7749.54 5.264076106834665e-10
7750.54 5.264076095929022e-10
7751.54 5.264076085023379e-10
7752.54 5.264076074117735e-10
7753.54 5.264076063212092e-10
7754.54 5.264076052306449e-10
7755.54 5.264076041400805e-10
7756.54 5.264076030495162e-10
7757.54 5.264076019589519e-10
7758.54 5.264076008683876e-10
7759.54 5.264075997778233e-10
7760.54 5.26407598687259e-10
7761.54 5.264075975966947e-10
7762.54 5.264075965061303e-10
7763.54 5.26407595415566e-10
7764.54 5.264075943250018e-10
7765.54 5.264075932344375e-10
7766.54 5.264075921438732e-10
7767.54 5.264075910533088e-10
7768.54 5.264075899627446e-10
7769.54 5.264075888721802e-10
7770.54 5.26407587781616e-10
7771.54 5.264075866910517e-10
7772.54 5.264075856004875e-10
7773.54 5.264075845099231e-10
7774.54 5.264075834193588e-10
7775.54 5.264075823287946e-10
7776.54 5.264075812382304e-10
7777.54 5.26407580147666e-10
7778.54 5.264075790571017e-10
7779.54 5.264075779665375e-10
7780.54 5.264075768759732e-10
7781.54 5.26407575785409e-10
7782.54 5.264075746948447e-10
7783.54 5.264075736042804e-10
7784.54 5.264075725137161e-10
7785.54 5.264075714231519e-10
7786.54 5.264075703325877e-10
7787.54 5.264075692420235e-10
7788.54 5.264075681514591e-10
7789.54 5.264075670608949e-10
7790.54 5.264075659703307e-10
7791.54 5.264075648797665e-10
7792.54 5.264075637892022e-10
7793.54 5.264075626986379e-10
7794.54 5.264075616080737e-10
7795.54 5.264075605175096e-10
7796.54 5.264075594269453e-10
7797.54 5.264075583363811e-10
7798.54 5.264075572458168e-10
7799.54 5.264075561552526e-10
7800.54 5.264075550646883e-10
7801.54 5.264075539741242e-10
7802.54 5.2640755288356e-10
7803.54 5.264075517929957e-10
7804.54 5.264075507024315e-10
7805.54 5.264075496118673e-10
7806.54 5.264075485213032e-10
7807.54 5.26407547430739e-10
7808.54 5.264075463401746e-10
7809.54 5.264075452496105e-10
7810.54 5.264075441590463e-10
7811.54 5.264075430684822e-10
7812.54 5.264075419779179e-10
7813.54 5.264075408873537e-10
7814.54 5.264075397967895e-10
7815.54 5.264075387062254e-10
7816.54 5.264075376156612e-10
7817.54 5.264075365250969e-10
7818.54 5.264075354345328e-10
7819.54 5.264075343439687e-10
7820.54 5.264075332534044e-10
7821.54 5.264075321628403e-10
7822.54 5.264075310722761e-10
7823.54 5.26407529981712e-10
7824.54 5.264075288911477e-10
7825.54 5.264075278005836e-10
7826.54 5.264075267100194e-10
7827.54 5.264075256194553e-10
7828.54 5.264075245288912e-10
7829.54 5.26407523438327e-10
7830.54 5.264075223477629e-10
7831.54 5.264075212571987e-10
7832.54 5.264075201666346e-10
7833.54 5.264075190760704e-10
7834.54 5.264075179855063e-10
7835.54 5.264075168949421e-10
7836.54 5.26407515804378e-10
7837.54 5.264075147138138e-10
7838.54 5.264075136232497e-10
7839.54 5.264075125326856e-10
7840.54 5.264075114421214e-10
7841.54 5.264075103515573e-10
7842.54 5.264075092609931e-10
7843.54 5.264075081704291e-10
7844.54 5.264075070798649e-10
7845.54 5.264075059893008e-10
7846.54 5.264075048987366e-10
7847.54 5.264075038081726e-10
7848.54 5.264075027176084e-10
7849.54 5.264075016270443e-10
7850.54 5.264075005364803e-10
7851.54 5.264074994459161e-10
7852.54 5.264074983553521e-10
7853.54 5.264074972647879e-10
7854.54 5.264074961742239e-10
7855.54 5.264074950836598e-10
7856.54 5.264074939930957e-10
7857.54 5.264074929025315e-10
7858.54 5.264074918119675e-10
7859.54 5.264074907214034e-10
7860.54 5.264074896308394e-10
7861.54 5.264074885402751e-10
7862.54 5.264074874497111e-10
7863.54 5.264074863591471e-10
7864.54 5.26407485268583e-10
7865.54 5.264074841780188e-10
7866.54 5.264074830874548e-10
7867.54 5.264074819968908e-10
7868.54 5.264074809063267e-10
7869.54 5.264074798157626e-10
7870.54 5.264074787251985e-10
7871.54 5.264074776346345e-10
7872.54 5.264074765440705e-10
7873.54 5.264074754535064e-10
7874.54 5.264074743629424e-10
7875.54 5.264074732723784e-10
7876.54 5.264074721818143e-10
7877.54 5.264074710912501e-10
7878.54 5.264074700006861e-10
7879.54 5.264074689101221e-10
7880.54 5.264074678195581e-10
7881.54 5.26407466728994e-10
7882.54 5.2640746563843e-10
7883.54 5.26407464547866e-10
7884.54 5.26407463457302e-10
7885.54 5.264074623667379e-10
7886.54 5.264074612761738e-10
7887.54 5.264074601856098e-10
7888.54 5.264074590950459e-10
7889.54 5.264074580044818e-10
7890.54 5.264074569139178e-10
7891.54 5.264074558233538e-10
7892.54 5.264074547327898e-10
7893.54 5.264074536422257e-10
7894.54 5.264074525516618e-10
7895.54 5.264074514610978e-10
7896.54 5.264074503705338e-10
7897.54 5.264074492799697e-10
7898.54 5.264074481894057e-10
7899.54 5.264074470988418e-10
7900.54 5.264074460082778e-10
7901.54 5.264074449177138e-10
7902.54 5.264074438271497e-10
7903.54 5.264074427365858e-10
7904.54 5.264074416460217e-10
7905.54 5.264074405554578e-10
7906.54 5.264074394648939e-10
7907.54 5.264074383743299e-10
7908.54 5.264074372837658e-10
7909.54 5.264074361932019e-10
7910.54 5.264074351026379e-10
7911.54 5.26407434012074e-10
7912.54 5.2640743292151e-10
7913.54 5.264074318309461e-10
7914.54 5.264074307403821e-10
7915.54 5.26407429649818e-10
7916.54 5.264074285592541e-10
7917.54 5.264074274686902e-10
7918.54 5.264074263781263e-10
7919.54 5.264074252875623e-10
7920.54 5.264074241969983e-10
7921.54 5.264074231064344e-10
7922.54 5.264074220158704e-10
7923.54 5.264074209253065e-10
7924.54 5.264074198347426e-10
7925.54 5.264074187441787e-10
7926.54 5.264074176536146e-10
7927.54 5.264074165630507e-10
7928.54 5.264074154724868e-10
7929.54 5.264074143819229e-10
7930.54 5.26407413291359e-10
7931.54 5.264074122007951e-10
7932.54 5.264074111102312e-10
7933.54 5.264074100196671e-10
7934.54 5.264074089291033e-10
7935.54 5.264074078385394e-10
7936.54 5.264074067479755e-10
7937.54 5.264074056574115e-10
7938.54 5.264074045668477e-10
7939.54 5.264074034762837e-10
7940.54 5.264074023857198e-10
7941.54 5.264074012951559e-10
7942.54 5.26407400204592e-10
7943.54 5.264073991140282e-10
7944.54 5.264073980234642e-10
7945.54 5.264073969329004e-10
7946.54 5.264073958423364e-10
7947.54 5.264073947517725e-10
7948.54 5.264073936612087e-10
7949.54 5.264073925706448e-10
7950.54 5.264073914800809e-10
7951.54 5.26407390389517e-10
7952.54 5.264073892989532e-10
7953.54 5.264073882083893e-10
7954.54 5.264073871178254e-10
7955.54 5.264073860272615e-10
7956.54 5.264073849366977e-10
7957.54 5.264073838461338e-10
7958.54 5.264073827555699e-10
7959.54 5.264073816650061e-10
7960.54 5.264073805744421e-10
7961.54 5.264073794838783e-10
7962.54 5.264073783933145e-10
7963.54 5.264073773027507e-10
7964.54 5.264073762121868e-10
7965.54 5.26407375121623e-10
7966.54 5.264073740310592e-10
7967.54 5.264073729404953e-10
7968.54 5.264073718499314e-10
7969.54 5.264073707593676e-10
7970.54 5.264073696688037e-10
7971.54 5.264073685782399e-10
7972.54 5.264073674876761e-10
7973.54 5.264073663971122e-10
7974.54 5.264073653065484e-10
7975.54 5.264073642159847e-10
7976.54 5.264073631254209e-10
7977.54 5.264073620348569e-10
7978.54 5.264073609442931e-10
7979.54 5.264073598537294e-10
7980.54 5.264073587631655e-10
7981.54 5.264073576726017e-10
7982.54 5.264073565820379e-10
7983.54 5.264073554914741e-10
7984.54 5.264073544009103e-10
7985.54 5.264073533103465e-10
7986.54 5.264073522197826e-10
7987.54 5.264073511292189e-10
7988.54 5.264073500386551e-10
7989.54 5.264073489480913e-10
7990.54 5.264073478575275e-10
7991.54 5.264073467669638e-10
7992.54 5.264073456763999e-10
7993.54 5.264073445858362e-10
7994.54 5.264073434952723e-10
7995.54 5.264073424047086e-10
7996.54 5.264073413141448e-10
7997.54 5.26407340223581e-10
7998.54 5.264073391330173e-10
7999.54 5.264073380424535e-10
8000.54 5.264073369518897e-10
8001.54 5.26407335861326e-10
8002.54 5.264073347707622e-10
8003.54 5.264073336801984e-10
8004.54 5.264073325896347e-10
8005.54 5.264073314990709e-10
8006.54 5.264073304085071e-10
8007.54 5.264073293179434e-10
8008.54 5.264073282273796e-10
8009.54 5.264073271368159e-10
8010.54 5.264073260462522e-10
8011.54 5.264073249556884e-10
8012.54 5.264073238651247e-10
8013.54 5.26407322774561e-10
8014.54 5.264073216839971e-10
8015.54 5.264073205934334e-10
8016.54 5.264073195028697e-10
8017.54 5.264073184123059e-10
8018.54 5.264073173217423e-10
8019.54 5.264073162311786e-10
8020.54 5.264073151406148e-10
8021.54 5.264073140500511e-10
8022.54 5.264073129594874e-10
8023.54 5.264073118689237e-10
8024.54 5.2640731077836e-10
8025.54 5.264073096877962e-10
8026.54 5.264073085972325e-10
8027.54 5.264073075066688e-10
8028.54 5.264073064161051e-10
8029.54 5.264073053255414e-10
8030.54 5.264073042349777e-10
8031.54 5.26407303144414e-10
8032.54 5.264073020538503e-10
8033.54 5.264073009632867e-10
8034.54 5.264072998727229e-10
8035.54 5.264072987821593e-10
8036.54 5.264072976915956e-10
8037.54 5.264072966010318e-10
8038.54 5.264072955104681e-10
8039.54 5.264072944199045e-10
8040.54 5.264072933293408e-10
8041.54 5.264072922387771e-10
8042.54 5.264072911482135e-10
8043.54 5.264072900576498e-10
8044.54 5.264072889670861e-10
8045.54 5.264072878765225e-10
8046.54 5.264072867859588e-10
8047.54 5.264072856953952e-10
8048.54 5.264072846048315e-10
8049.54 5.264072835142678e-10
8050.54 5.264072824237042e-10
8051.54 5.264072813331404e-10
8052.54 5.264072802425768e-10
8053.54 5.264072791520132e-10
8054.54 5.264072780614495e-10
8055.54 5.264072769708859e-10
8056.54 5.264072758803223e-10
8057.54 5.264072747897586e-10
8058.54 5.26407273699195e-10
8059.54 5.264072726086314e-10
8060.54 5.264072715180677e-10
8061.54 5.264072704275041e-10
8062.54 5.264072693369404e-10
8063.54 5.264072682463769e-10
8064.54 5.264072671558133e-10
8065.54 5.264072660652496e-10
8066.54 5.26407264974686e-10
8067.54 5.264072638841225e-10
8068.54 5.264072627935587e-10
8069.54 5.264072617029951e-10
8070.54 5.264072606124315e-10
8071.54 5.264072595218679e-10
8072.54 5.264072584313043e-10
8073.54 5.264072573407406e-10
8074.54 5.264072562501771e-10
8075.54 5.264072551596135e-10
8076.54 5.264072540690499e-10
8077.54 5.264072529784863e-10
8078.54 5.264072518879228e-10
8079.54 5.264072507973591e-10
8080.54 5.264072497067956e-10
8081.54 5.264072486162319e-10
8082.54 5.264072475256684e-10
8083.54 5.264072464351049e-10
8084.54 5.264072453445412e-10
8085.54 5.264072442539777e-10
8086.54 5.264072431634141e-10
8087.54 5.264072420728505e-10
8088.54 5.26407240982287e-10
8089.54 5.264072398917234e-10
8090.54 5.264072388011597e-10
8091.54 5.264072377105962e-10
8092.54 5.264072366200326e-10
8093.54 5.264072355294691e-10
8094.54 5.264072344389055e-10
8095.54 5.26407233348342e-10
8096.54 5.264072322577784e-10
8097.54 5.264072311672148e-10
8098.54 5.264072300766513e-10
8099.54 5.264072289860878e-10
8100.54 5.264072278955242e-10
8101.54 5.264072268049607e-10
8102.54 5.264072257143971e-10
8103.54 5.264072246238336e-10
8104.54 5.264072235332701e-10
8105.54 5.264072224427066e-10
8106.54 5.264072213521431e-10
8107.54 5.264072202615795e-10
8108.54 5.26407219171016e-10
8109.54 5.264072180804525e-10
8110.54 5.264072169898889e-10
8111.54 5.264072158993255e-10
8112.54 5.264072148087619e-10
8113.54 5.264072137181984e-10
8114.54 5.264072126276349e-10
8115.54 5.264072115370714e-10
8116.54 5.264072104465079e-10
8117.54 5.264072093559445e-10
8118.54 5.264072082653809e-10
8119.54 5.264072071748174e-10
8120.54 5.264072060842539e-10
8121.54 5.264072049936904e-10
8122.54 5.26407203903127e-10
8123.54 5.264072028125634e-10
8124.54 5.26407201722e-10
8125.54 5.264072006314364e-10
8126.54 5.26407199540873e-10
8127.54 5.264071984503095e-10
8128.54 5.26407197359746e-10
8129.54 5.264071962691826e-10
8130.54 5.26407195178619e-10
8131.54 5.264071940880556e-10
8132.54 5.264071929974921e-10
8133.54 5.264071919069287e-10
8134.54 5.264071908163652e-10
8135.54 5.264071897258017e-10
8136.54 5.264071886352383e-10
8137.54 5.264071875446748e-10
8138.54 5.264071864541114e-10
8139.54 5.264071853635479e-10
8140.54 5.264071842729844e-10
8141.54 5.26407183182421e-10
8142.54 5.264071820918575e-10
8143.54 5.264071810012941e-10
8144.54 5.264071799107307e-10
8145.54 5.264071788201672e-10
8146.54 5.264071777296038e-10
8147.54 5.264071766390403e-10
8148.54 5.264071755484769e-10
8149.54 5.264071744579134e-10
8150.54 5.2640717336735e-10
8151.54 5.264071722767866e-10
8152.54 5.264071711862232e-10
8153.54 5.264071700956598e-10
8154.54 5.264071690050963e-10
8155.54 5.264071679145329e-10
8156.54 5.264071668239696e-10
8157.54 5.264071657334061e-10
8158.54 5.264071646428427e-10
8159.54 5.264071635522792e-10
8160.54 5.264071624617159e-10
8161.54 5.264071613711524e-10
8162.54 5.264071602805891e-10
8163.54 5.264071591900257e-10
8164.54 5.264071580994622e-10
8165.54 5.264071570088989e-10
8166.54 5.264071559183354e-10
8167.54 5.264071548277721e-10
8168.54 5.264071537372086e-10
8169.54 5.264071526466453e-10
8170.54 5.264071515560819e-10
8171.54 5.264071504655185e-10
8172.54 5.264071493749552e-10
8173.54 5.264071482843917e-10
8174.54 5.264071471938284e-10
8175.54 5.26407146103265e-10
8176.54 5.264071450127016e-10
8177.54 5.264071439221383e-10
8178.54 5.264071428315749e-10
8179.54 5.264071417410115e-10
8180.54 5.264071406504481e-10
8181.54 5.264071395598848e-10
8182.54 5.264071384693214e-10
8183.54 5.264071373787581e-10
8184.54 5.264071362881947e-10
8185.54 5.264071351976314e-10
8186.54 5.26407134107068e-10
8187.54 5.264071330165046e-10
8188.54 5.264071319259414e-10
8189.54 5.26407130835378e-10
8190.54 5.264071297448147e-10
8191.54 5.264071286542513e-10
8192.54 5.26407127563688e-10
8193.54 5.264071264731247e-10
8194.54 5.264071253825614e-10
8195.54 5.264071242919981e-10
8196.54 5.264071232014347e-10
8197.54 5.264071221108714e-10
8198.54 5.26407121020308e-10
8199.54 5.264071199297447e-10
8200.54 5.264071188391814e-10
8201.54 5.264071177486181e-10
8202.54 5.264071166580548e-10
8203.54 5.264071155674915e-10
8204.54 5.264071144769282e-10
8205.54 5.264071133863648e-10
8206.54 5.264071122958016e-10
8207.54 5.264071112052382e-10
8208.54 5.264071101146749e-10
8209.54 5.264071090241116e-10
8210.54 5.264071079335483e-10
8211.54 5.264071068429851e-10
8212.54 5.264071057524218e-10
8213.54 5.264071046618586e-10
8214.54 5.264071035712952e-10
8215.54 5.26407102480732e-10
8216.54 5.264071013901687e-10
8217.54 5.264071002996054e-10
8218.54 5.264070992090421e-10
8219.54 5.264070981184788e-10
8220.54 5.264070970279155e-10
8221.54 5.264070959373523e-10
8222.54 5.26407094846789e-10
8223.54 5.264070937562257e-10
8224.54 5.264070926656624e-10
8225.54 5.264070915750992e-10
8226.54 5.26407090484536e-10
8227.54 5.264070893939727e-10
8228.54 5.264070883034096e-10
8229.54 5.264070872128462e-10
8230.54 5.26407086122283e-10
8231.54 5.264070850317197e-10
8232.54 5.264070839411565e-10
8233.54 5.264070828505932e-10
8234.54 5.2640708176003e-10
8235.54 5.264070806694667e-10
8236.54 5.264070795789035e-10
8237.54 5.264070784883402e-10
8238.54 5.26407077397777e-10
8239.54 5.264070763072137e-10
8240.54 5.264070752166506e-10
8241.54 5.264070741260874e-10
8242.54 5.264070730355242e-10
8243.54 5.26407071944961e-10
8244.54 5.264070708543977e-10
8245.54 5.264070697638346e-10
8246.54 5.264070686732713e-10
8247.54 5.264070675827081e-10
8248.54 5.264070664921449e-10
8249.54 5.264070654015817e-10
8250.54 5.264070643110184e-10
8251.54 5.264070632204552e-10
8252.54 5.26407062129892e-10
8253.54 5.264070610393288e-10
8254.54 5.264070599487657e-10
8255.54 5.264070588582025e-10
8256.54 5.264070577676393e-10
8257.54 5.264070566770761e-10
8258.54 5.264070555865129e-10
8259.54 5.264070544959497e-10
8260.54 5.264070534053865e-10
8261.54 5.264070523148234e-10
8262.54 5.264070512242601e-10
8263.54 5.26407050133697e-10
8264.54 5.264070490431338e-10
8265.54 5.264070479525706e-10
8266.54 5.264070468620076e-10
8267.54 5.264070457714444e-10
8268.54 5.264070446808812e-10
8269.54 5.26407043590318e-10
8270.54 5.264070424997549e-10
8271.54 5.264070414091917e-10
8272.54 5.264070403186286e-10
8273.54 5.264070392280654e-10
8274.54 5.264070381375022e-10
8275.54 5.26407037046939e-10
8276.54 5.26407035956376e-10
8277.54 5.264070348658128e-10
8278.54 5.264070337752497e-10
8279.54 5.264070326846865e-10
8280.54 5.264070315941234e-10
8281.54 5.264070305035602e-10
8282.54 5.264070294129972e-10
8283.54 5.26407028322434e-10
8284.54 5.264070272318709e-10
8285.54 5.264070261413078e-10
8286.54 5.264070250507447e-10
8287.54 5.264070239601815e-10
8288.54 5.264070228696184e-10
8289.54 5.264070217790553e-10
8290.54 5.264070206884922e-10
8291.54 5.26407019597929e-10
8292.54 5.264070185073659e-10
8293.54 5.264070174168028e-10
8294.54 5.264070163262398e-10
8295.54 5.264070152356767e-10
8296.54 5.264070141451136e-10
8297.54 5.264070130545504e-10
8298.54 5.264070119639874e-10
8299.54 5.264070108734242e-10
8300.54 5.264070097828612e-10
8301.54 5.26407008692298e-10
8302.54 5.26407007601735e-10
8303.54 5.264070065111719e-10
8304.54 5.264070054206089e-10
8305.54 5.264070043300458e-10
8306.54 5.264070032394826e-10
8307.54 5.264070021489196e-10
8308.54 5.264070010583564e-10
8309.54 5.264069999677934e-10
8310.54 5.264069988772303e-10
8311.54 5.264069977866673e-10
8312.54 5.264069966961042e-10
8313.54 5.264069956055412e-10
8314.54 5.264069945149781e-10
8315.54 5.264069934244151e-10
8316.54 5.264069923338519e-10
8317.54 5.264069912432889e-10
8318.54 5.264069901527258e-10
8319.54 5.264069890621629e-10
8320.54 5.264069879715998e-10
8321.54 5.264069868810368e-10
8322.54 5.264069857904737e-10
8323.54 5.264069846999107e-10
8324.54 5.264069836093476e-10
8325.54 5.264069825187846e-10
8326.54 5.264069814282216e-10
8327.54 5.264069803376586e-10
8328.54 5.264069792470955e-10
8329.54 5.264069781565325e-10
8330.54 5.264069770659695e-10
8331.54 5.264069759754064e-10
8332.54 5.264069748848434e-10
8333.54 5.264069737942804e-10
8334.54 5.264069727037174e-10
8335.54 5.264069716131544e-10
8336.54 5.264069705225914e-10
8337.54 5.264069694320283e-10
8338.54 5.264069683414654e-10
8339.54 5.264069672509023e-10
8340.54 5.264069661603394e-10
8341.54 5.264069650697764e-10
8342.54 5.264069639792134e-10
8343.54 5.264069628886504e-10
8344.54 5.264069617980874e-10
8345.54 5.264069607075244e-10
8346.54 5.264069596169613e-10
8347.54 5.264069585263985e-10
8348.54 5.264069574358354e-10
8349.54 5.264069563452725e-10
8350.54 5.264069552547094e-10
8351.54 5.264069541641465e-10
8352.54 5.264069530735835e-10
8353.54 5.264069519830206e-10
8354.54 5.264069508924576e-10
8355.54 5.264069498018947e-10
8356.54 5.264069487113317e-10
8357.54 5.264069476207687e-10
8358.54 5.264069465302057e-10
8359.54 5.264069454396428e-10
8360.54 5.264069443490799e-10
8361.54 5.264069432585169e-10
8362.54 5.26406942167954e-10
8363.54 5.264069410773909e-10
8364.54 5.26406939986828e-10
8365.54 5.264069388962651e-10
8366.54 5.264069378057022e-10
8367.54 5.264069367151392e-10
8368.54 5.264069356245763e-10
8369.54 5.264069345340133e-10
8370.54 5.264069334434503e-10
8371.54 5.264069323528875e-10
8372.54 5.264069312623245e-10
8373.54 5.264069301717617e-10
8374.54 5.264069290811987e-10
8375.54 5.264069279906358e-10
8376.54 5.264069269000728e-10
8377.54 5.2640692580951e-10
8378.54 5.264069247189471e-10
8379.54 5.264069236283841e-10
8380.54 5.264069225378212e-10
8381.54 5.264069214472582e-10
8382.54 5.264069203566955e-10
8383.54 5.264069192661325e-10
8384.54 5.264069181755696e-10
8385.54 5.264069170850067e-10
8386.54 5.264069159944438e-10
8387.54 5.264069149038809e-10
8388.54 5.26406913813318e-10
8389.54 5.264069127227552e-10
8390.54 5.264069116321922e-10
8391.54 5.264069105416294e-10
8392.54 5.264069094510664e-10
8393.54 5.264069083605037e-10
8394.54 5.264069072699407e-10
8395.54 5.264069061793778e-10
8396.54 5.26406905088815e-10
8397.54 5.26406903998252e-10
8398.54 5.264069029076893e-10
8399.54 5.264069018171264e-10
8400.54 5.264069007265635e-10
8401.54 5.264068996360006e-10
8402.54 5.264068985454377e-10
8403.54 5.26406897454875e-10
8404.54 5.264068963643121e-10
8405.54 5.264068952737492e-10
8406.54 5.264068941831863e-10
8407.54 5.264068930926235e-10
8408.54 5.264068920020606e-10
8409.54 5.264068909114978e-10
8410.54 5.26406889820935e-10
8411.54 5.264068887303721e-10
8412.54 5.264068876398093e-10
8413.54 5.264068865492464e-10
8414.54 5.264068854586837e-10
8415.54 5.264068843681208e-10
8416.54 5.264068832775579e-10
8417.54 5.264068821869951e-10
8418.54 5.264068810964322e-10
8419.54 5.264068800058695e-10
8420.54 5.264068789153067e-10
8421.54 5.264068778247439e-10
8422.54 5.26406876734181e-10
8423.54 5.264068756436182e-10
8424.54 5.264068745530555e-10
8425.54 5.264068734624926e-10
8426.54 5.264068723719298e-10
8427.54 5.264068712813669e-10
8428.54 5.264068701908042e-10
8429.54 5.264068691002414e-10
8430.54 5.264068680096786e-10
8431.54 5.264068669191158e-10
8432.54 5.264068658285529e-10
8433.54 5.264068647379902e-10
8434.54 5.264068636474274e-10
8435.54 5.264068625568646e-10
8436.54 5.264068614663019e-10
8437.54 5.264068603757391e-10
8438.54 5.264068592851764e-10
8439.54 5.264068581946135e-10
8440.54 5.264068571040507e-10
8441.54 5.26406856013488e-10
8442.54 5.264068549229252e-10
8443.54 5.264068538323625e-10
8444.54 5.264068527417997e-10
8445.54 5.264068516512368e-10
8446.54 5.264068505606742e-10
8447.54 5.264068494701114e-10
8448.54 5.264068483795487e-10
8449.54 5.264068472889858e-10
8450.54 5.26406846198423e-10
8451.54 5.264068451078604e-10
8452.54 5.264068440172976e-10
8453.54 5.264068429267349e-10
8454.54 5.264068418361721e-10
8455.54 5.264068407456094e-10
8456.54 5.264068396550467e-10
8457.54 5.264068385644839e-10
8458.54 5.264068374739212e-10
8459.54 5.264068363833585e-10
8460.54 5.264068352927957e-10
8461.54 5.26406834202233e-10
8462.54 5.264068331116702e-10
8463.54 5.264068320211076e-10
8464.54 5.264068309305449e-10
8465.54 5.264068298399821e-10
8466.54 5.264068287494194e-10
8467.54 5.264068276588567e-10
8468.54 5.264068265682939e-10
8469.54 5.264068254777313e-10
8470.54 5.264068243871685e-10
8471.54 5.264068232966059e-10
8472.54 5.264068222060432e-10
8473.54 5.264068211154804e-10
8474.54 5.264068200249178e-10
8475.54 5.26406818934355e-10
8476.54 5.264068178437924e-10
8477.54 5.264068167532297e-10
8478.54 5.264068156626669e-10
8479.54 5.264068145721044e-10
8480.54 5.264068134815416e-10
8481.54 5.264068123909789e-10
8482.54 5.264068113004163e-10
8483.54 5.264068102098536e-10
8484.54 5.26406809119291e-10
8485.54 5.264068080287282e-10
8486.54 5.264068069381655e-10
8487.54 5.26406805847603e-10
8488.54 5.264068047570402e-10
8489.54 5.264068036664775e-10
8490.54 5.264068025759149e-10
8491.54 5.264068014853523e-10
8492.54 5.264068003947896e-10
8493.54 5.264067993042269e-10
8494.54 5.264067982136642e-10
8495.54 5.264067971231017e-10
8496.54 5.26406796032539e-10
8497.54 5.264067949419763e-10
8498.54 5.264067938514137e-10
8499.54 5.264067927608511e-10
8500.54 5.264067916702885e-10
8501.54 5.264067905797258e-10
8502.54 5.264067894891632e-10
8503.54 5.264067883986006e-10
8504.54 5.264067873080379e-10
8505.54 5.264067862174752e-10
8506.54 5.264067851269127e-10
8507.54 5.2640678403635e-10
8508.54 5.264067829457874e-10
8509.54 5.264067818552247e-10
8510.54 5.264067807646621e-10
8511.54 5.264067796740996e-10
8512.54 5.264067785835369e-10
8513.54 5.264067774929742e-10
8514.54 5.264067764024118e-10
8515.54 5.264067753118491e-10
8516.54 5.264067742212864e-10
8517.54 5.26406773130724e-10
8518.54 5.264067720401613e-10
8519.54 5.264067709495986e-10
8520.54 5.264067698590361e-10
8521.54 5.264067687684735e-10
8522.54 5.26406767677911e-10
8523.54 5.264067665873483e-10
8524.54 5.264067654967858e-10
8525.54 5.264067644062232e-10
8526.54 5.264067633156606e-10
8527.54 5.264067622250979e-10
8528.54 5.264067611345355e-10
8529.54 5.264067600439729e-10
8530.54 5.264067589534102e-10
8531.54 5.264067578628478e-10
8532.54 5.264067567722852e-10
8533.54 5.264067556817225e-10
8534.54 5.264067545911601e-10
8535.54 5.264067535005975e-10
8536.54 5.264067524100349e-10
8537.54 5.264067513194723e-10
8538.54 5.264067502289098e-10
8539.54 5.264067491383473e-10
8540.54 5.264067480477847e-10
8541.54 5.264067469572222e-10
8542.54 5.264067458666597e-10
8543.54 5.264067447760971e-10
8544.54 5.264067436855345e-10
8545.54 5.264067425949721e-10
8546.54 5.264067415044095e-10
8547.54 5.264067404138469e-10
8548.54 5.264067393232845e-10
8549.54 5.264067382327219e-10
8550.54 5.264067371421593e-10
8551.54 5.264067360515969e-10
8552.54 5.264067349610343e-10
8553.54 5.264067338704717e-10
8554.54 5.264067327799093e-10
8555.54 5.264067316893468e-10
8556.54 5.264067305987842e-10
8557.54 5.264067295082217e-10
8558.54 5.264067284176592e-10
8559.54 5.264067273270967e-10
8560.54 5.264067262365342e-10
8561.54 5.264067251459717e-10
8562.54 5.264067240554092e-10
8563.54 5.264067229648467e-10
8564.54 5.264067218742843e-10
8565.54 5.264067207837217e-10
8566.54 5.264067196931592e-10
8567.54 5.264067186025968e-10
8568.54 5.264067175120342e-10
8569.54 5.264067164214718e-10
8570.54 5.264067153309094e-10
8571.54 5.264067142403468e-10
8572.54 5.264067131497844e-10
8573.54 5.264067120592219e-10
8574.54 5.264067109686594e-10
8575.54 5.26406709878097e-10
8576.54 5.264067087875344e-10
8577.54 5.26406707696972e-10
8578.54 5.264067066064096e-10
8579.54 5.26406705515847e-10
8580.54 5.264067044252846e-10
8581.54 5.264067033347221e-10
8582.54 5.264067022441597e-10
8583.54 5.264067011535973e-10
8584.54 5.264067000630347e-10
8585.54 5.264066989724723e-10
8586.54 5.264066978819099e-10
8587.54 5.264066967913474e-10
8588.54 5.26406695700785e-10
8589.54 5.264066946102226e-10
8590.54 5.264066935196601e-10
8591.54 5.264066924290977e-10
8592.54 5.264066913385353e-10
8593.54 5.264066902479728e-10
8594.54 5.264066891574104e-10
8595.54 5.26406688066848e-10
8596.54 5.264066869762856e-10
8597.54 5.264066858857232e-10
8598.54 5.264066847951608e-10
8599.54 5.264066837045983e-10
8600.54 5.264066826140358e-10
8601.54 5.264066815234736e-10
8602.54 5.264066804329111e-10
8603.54 5.264066793423486e-10
8604.54 5.264066782517863e-10
8605.54 5.264066771612239e-10
8606.54 5.264066760706615e-10
8607.54 5.264066749800991e-10
8608.54 5.264066738895367e-10
8609.54 5.264066727989743e-10
8610.54 5.26406671708412e-10
8611.54 5.264066706178495e-10
8612.54 5.264066695272872e-10
8613.54 5.264066684367247e-10
8614.54 5.264066673461624e-10
8615.54 5.264066662556e-10
8616.54 5.264066651650376e-10
8617.54 5.264066640744753e-10
8618.54 5.264066629839129e-10
8619.54 5.264066618933505e-10
8620.54 5.264066608027883e-10
8621.54 5.264066597122258e-10
8622.54 5.264066586216634e-10
8623.54 5.264066575311011e-10
8624.54 5.264066564405387e-10
8625.54 5.264066553499763e-10
8626.54 5.26406654259414e-10
8627.54 5.264066531688517e-10
8628.54 5.264066520782893e-10
8629.54 5.264066509877269e-10
8630.54 5.264066498971645e-10
8631.54 5.264066488066022e-10
8632.54 5.264066477160399e-10
8633.54 5.264066466254775e-10
8634.54 5.264066455349153e-10
8635.54 5.264066444443529e-10
8636.54 5.264066433537905e-10
8637.54 5.264066422632282e-10
8638.54 5.264066411726659e-10
8639.54 5.264066400821035e-10
8640.54 5.264066389915412e-10
8641.54 5.26406637900979e-10
8642.54 5.264066368104167e-10
8643.54 5.264066357198543e-10
8644.54 5.264066346292919e-10
8645.54 5.264066335387297e-10
8646.54 5.264066324481674e-10
8647.54 5.26406631357605e-10
8648.54 5.264066302670428e-10
8649.54 5.264066291764805e-10
8650.54 5.264066280859182e-10
8651.54 5.264066269953558e-10
8652.54 5.264066259047936e-10
8653.54 5.264066248142313e-10
8654.54 5.26406623723669e-10
8655.54 5.264066226331067e-10
8656.54 5.264066215425445e-10
8657.54 5.264066204519821e-10
8658.54 5.264066193614199e-10
8659.54 5.264066182708576e-10
8660.54 5.264066171802953e-10
8661.54 5.26406616089733e-10
8662.54 5.264066149991707e-10
8663.54 5.264066139086085e-10
8664.54 5.264066128180462e-10
8665.54 5.264066117274839e-10
8666.54 5.264066106369217e-10
8667.54 5.264066095463594e-10
8668.54 5.264066084557971e-10
8669.54 5.264066073652349e-10
8670.54 5.264066062746727e-10
8671.54 5.264066051841104e-10
8672.54 5.264066040935481e-10
8673.54 5.264066030029858e-10
8674.54 5.264066019124237e-10
8675.54 5.264066008218614e-10
8676.54 5.264065997312992e-10
8677.54 5.264065986407369e-10
8678.54 5.264065975501747e-10
8679.54 5.264065964596125e-10
8680.54 5.264065953690502e-10
8681.54 5.26406594278488e-10
8682.54 5.264065931879258e-10
8683.54 5.264065920973635e-10
8684.54 5.264065910068013e-10
8685.54 5.26406589916239e-10
8686.54 5.264065888256769e-10
8687.54 5.264065877351146e-10
8688.54 5.264065866445524e-10
8689.54 5.264065855539903e-10
8690.54 5.26406584463428e-10
8691.54 5.264065833728658e-10
8692.54 5.264065822823036e-10
8693.54 5.264065811917415e-10
8694.54 5.264065801011792e-10
8695.54 5.26406579010617e-10
8696.54 5.264065779200548e-10
8697.54 5.264065768294926e-10
8698.54 5.264065757389305e-10
8699.54 5.264065746483682e-10
8700.54 5.26406573557806e-10
8701.54 5.264065724672439e-10
8702.54 5.264065713766817e-10
8703.54 5.264065702861195e-10
8704.54 5.264065691955573e-10
8705.54 5.264065681049952e-10
8706.54 5.26406567014433e-10
8707.54 5.264065659238708e-10
8708.54 5.264065648333086e-10
8709.54 5.264065637427464e-10
8710.54 5.264065626521844e-10
8711.54 5.264065615616221e-10
8712.54 5.264065604710599e-10
8713.54 5.264065593804978e-10
8714.54 5.264065582899357e-10
8715.54 5.264065571993735e-10
8716.54 5.264065561088113e-10
8717.54 5.264065550182492e-10
8718.54 5.264065539276871e-10
8719.54 5.264065528371249e-10
8720.54 5.264065517465628e-10
8721.54 5.264065506560006e-10
8722.54 5.264065495654386e-10
8723.54 5.264065484748764e-10
8724.54 5.264065473843143e-10
8725.54 5.264065462937521e-10
8726.54 5.2640654520319e-10
8727.54 5.264065441126279e-10
8728.54 5.264065430220657e-10
8729.54 5.264065419315036e-10
8730.54 5.264065408409414e-10
8731.54 5.264065397503794e-10
8732.54 5.264065386598173e-10
8733.54 5.264065375692552e-10
8734.54 5.26406536478693e-10
8735.54 5.264065353881309e-10
8736.54 5.264065342975688e-10
8737.54 5.264065332070067e-10
8738.54 5.264065321164446e-10
8739.54 5.264065310258824e-10
8740.54 5.264065299353205e-10
8741.54 5.264065288447583e-10
8742.54 5.264065277541963e-10
8743.54 5.264065266636341e-10
8744.54 5.26406525573072e-10
8745.54 5.2640652448251e-10
8746.54 5.264065233919478e-10
8747.54 5.264065223013858e-10
8748.54 5.264065212108236e-10
8749.54 5.264065201202617e-10
8750.54 5.264065190296996e-10
8751.54 5.264065179391375e-10
8752.54 5.264065168485754e-10
8753.54 5.264065157580135e-10
8754.54 5.264065146674513e-10
8755.54 5.264065135768892e-10
8756.54 5.264065124863272e-10
8757.54 5.26406511395765e-10
8758.54 5.264065103052031e-10
8759.54 5.26406509214641e-10
8760.54 5.26406508124079e-10
8761.54 5.264065070335169e-10
8762.54 5.264065059429548e-10
8763.54 5.264065048523928e-10
8764.54 5.264065037618308e-10
8765.54 5.264065026712687e-10
8766.54 5.264065015807066e-10
8767.54 5.264065004901447e-10
8768.54 5.264064993995826e-10
8769.54 5.264064983090206e-10
8770.54 5.264064972184585e-10
8771.54 5.264064961278965e-10
8772.54 5.264064950373345e-10
8773.54 5.264064939467725e-10
8774.54 5.264064928562105e-10
8775.54 5.264064917656485e-10
8776.54 5.264064906750864e-10
8777.54 5.264064895845245e-10
8778.54 5.264064884939624e-10
8779.54 5.264064874034004e-10
8780.54 5.264064863128384e-10
8781.54 5.264064852222764e-10
8782.54 5.264064841317144e-10
8783.54 5.264064830411525e-10
8784.54 5.264064819505904e-10
8785.54 5.264064808600283e-10
8786.54 5.264064797694664e-10
8787.54 5.264064786789044e-10
8788.54 5.264064775883425e-10
8789.54 5.264064764977804e-10
8790.54 5.264064754072185e-10
8791.54 5.264064743166564e-10
8792.54 5.264064732260945e-10
8793.54 5.264064721355325e-10
8794.54 5.264064710449706e-10
8795.54 5.264064699544085e-10
8796.54 5.264064688638466e-10
8797.54 5.264064677732846e-10
8798.54 5.264064666827227e-10
8799.54 5.264064655921607e-10
8800.54 5.264064645015988e-10
8801.54 5.264064634110367e-10
8802.54 5.264064623204748e-10
8803.54 5.264064612299129e-10
8804.54 5.26406460139351e-10
8805.54 5.26406459048789e-10
8806.54 5.26406457958227e-10
8807.54 5.26406456867665e-10
8808.54 5.264064557771031e-10
8809.54 5.264064546865412e-10
8810.54 5.264064535959793e-10
8811.54 5.264064525054173e-10
8812.54 5.264064514148554e-10
8813.54 5.264064503242934e-10
8814.54 5.264064492337316e-10
8815.54 5.264064481431696e-10
8816.54 5.264064470526077e-10
8817.54 5.264064459620457e-10
8818.54 5.264064448714838e-10
8819.54 5.264064437809218e-10
8820.54 5.264064426903601e-10
8821.54 5.264064415997981e-10
8822.54 5.264064405092362e-10
8823.54 5.264064394186742e-10
8824.54 5.264064383281123e-10
8825.54 5.264064372375504e-10
8826.54 5.264064361469886e-10
8827.54 5.264064350564266e-10
8828.54 5.264064339658648e-10
8829.54 5.264064328753028e-10
8830.54 5.26406431784741e-10
8831.54 5.26406430694179e-10
8832.54 5.264064296036172e-10
8833.54 5.264064285130553e-10
8834.54 5.264064274224934e-10
8835.54 5.264064263319315e-10
8836.54 5.264064252413696e-10
8837.54 5.264064241508077e-10
8838.54 5.264064230602459e-10
8839.54 5.26406421969684e-10
8840.54 5.264064208791222e-10
8841.54 5.264064197885602e-10
8842.54 5.264064186979984e-10
8843.54 5.264064176074366e-10
8844.54 5.264064165168747e-10
8845.54 5.264064154263129e-10
8846.54 5.26406414335751e-10
8847.54 5.264064132451891e-10
8848.54 5.264064121546272e-10
8849.54 5.264064110640654e-10
8850.54 5.264064099735036e-10
8851.54 5.264064088829418e-10
8852.54 5.264064077923799e-10
8853.54 5.264064067018181e-10
8854.54 5.264064056112562e-10
8855.54 5.264064045206943e-10
8856.54 5.264064034301325e-10
8857.54 5.264064023395707e-10
8858.54 5.264064012490088e-10
8859.54 5.26406400158447e-10
8860.54 5.264063990678852e-10
8861.54 5.264063979773234e-10
8862.54 5.264063968867616e-10
8863.54 5.264063957961998e-10
8864.54 5.26406394705638e-10
8865.54 5.264063936150761e-10
8866.54 5.264063925245143e-10
8867.54 5.264063914339525e-10
8868.54 5.264063903433907e-10
8869.54 5.264063892528288e-10
8870.54 5.264063881622671e-10
8871.54 5.264063870717053e-10
8872.54 5.264063859811435e-10
8873.54 5.264063848905817e-10
8874.54 5.264063838000199e-10
8875.54 5.264063827094581e-10
8876.54 5.264063816188962e-10
8877.54 5.264063805283346e-10
8878.54 5.264063794377727e-10
8879.54 5.26406378347211e-10
8880.54 5.264063772566491e-10
8881.54 5.264063761660874e-10
8882.54 5.264063750755255e-10
8883.54 5.264063739849638e-10
8884.54 5.264063728944022e-10
8885.54 5.264063718038403e-10
8886.54 5.264063707132786e-10
8887.54 5.264063696227168e-10
8888.54 5.26406368532155e-10
8889.54 5.264063674415932e-10
8890.54 5.264063663510315e-10
8891.54 5.264063652604697e-10
8892.54 5.26406364169908e-10
8893.54 5.264063630793463e-10
8894.54 5.264063619887845e-10
8895.54 5.264063608982228e-10
8896.54 5.26406359807661e-10
8897.54 5.264063587170992e-10
8898.54 5.264063576265374e-10
8899.54 5.264063565359758e-10
8900.54 5.264063554454141e-10
8901.54 5.264063543548523e-10
8902.54 5.264063532642906e-10
8903.54 5.264063521737288e-10
8904.54 5.264063510831671e-10
8905.54 5.264063499926053e-10
8906.54 5.264063489020437e-10
8907.54 5.26406347811482e-10
8908.54 5.264063467209203e-10
8909.54 5.264063456303586e-10
8910.54 5.264063445397968e-10
8911.54 5.264063434492351e-10
8912.54 5.264063423586734e-10
8913.54 5.264063412681117e-10
8914.54 5.2640634017755e-10
8915.54 5.264063390869882e-10
8916.54 5.264063379964267e-10
8917.54 5.264063369058649e-10
8918.54 5.264063358153032e-10
8919.54 5.264063347247415e-10
8920.54 5.264063336341798e-10
8921.54 5.264063325436182e-10
8922.54 5.264063314530564e-10
8923.54 5.264063303624947e-10
8924.54 5.26406329271933e-10
8925.54 5.264063281813715e-10
8926.54 5.264063270908097e-10
8927.54 5.264063260002481e-10
8928.54 5.264063249096864e-10
8929.54 5.264063238191247e-10
8930.54 5.26406322728563e-10
8931.54 5.264063216380013e-10
8932.54 5.264063205474397e-10
8933.54 5.264063194568781e-10
8934.54 5.264063183663164e-10
8935.54 5.264063172757548e-10
8936.54 5.264063161851931e-10
8937.54 5.264063150946314e-10
8938.54 5.264063140040698e-10
8939.54 5.264063129135081e-10
8940.54 5.264063118229465e-10
8941.54 5.264063107323848e-10
8942.54 5.264063096418232e-10
8943.54 5.264063085512616e-10
8944.54 5.264063074607e-10
8945.54 5.264063063701384e-10
8946.54 5.264063052795767e-10
8947.54 5.264063041890151e-10
8948.54 5.264063030984535e-10
8949.54 5.264063020078918e-10
8950.54 5.264063009173302e-10
8951.54 5.264062998267685e-10
8952.54 5.264062987362069e-10
8953.54 5.264062976456453e-10
8954.54 5.264062965550837e-10
8955.54 5.264062954645221e-10
8956.54 5.264062943739605e-10
8957.54 5.264062932833989e-10
8958.54 5.264062921928373e-10
8959.54 5.264062911022756e-10
8960.54 5.264062900117141e-10
8961.54 5.264062889211524e-10
8962.54 5.264062878305908e-10
8963.54 5.264062867400293e-10
8964.54 5.264062856494676e-10
8965.54 5.264062845589062e-10
8966.54 5.264062834683445e-10
8967.54 5.26406282377783e-10
8968.54 5.264062812872214e-10
8969.54 5.264062801966598e-10
8970.54 5.264062791060982e-10
8971.54 5.264062780155367e-10
8972.54 5.26406276924975e-10
8973.54 5.264062758344135e-10
8974.54 5.264062747438518e-10
8975.54 5.264062736532903e-10
8976.54 5.264062725627288e-10
8977.54 5.264062714721672e-10
8978.54 5.264062703816057e-10
8979.54 5.264062692910442e-10
8980.54 5.264062682004826e-10
8981.54 5.26406267109921e-10
8982.54 5.264062660193594e-10
8983.54 5.264062649287979e-10
8984.54 5.264062638382364e-10
8985.54 5.264062627476748e-10
8986.54 5.264062616571133e-10
8987.54 5.264062605665518e-10
8988.54 5.264062594759902e-10
8989.54 5.264062583854286e-10
8990.54 5.264062572948671e-10
8991.54 5.264062562043056e-10
8992.54 5.264062551137442e-10
8993.54 5.264062540231825e-10
8994.54 5.26406252932621e-10
8995.54 5.264062518420596e-10
8996.54 5.26406250751498e-10
8997.54 5.264062496609365e-10
8998.54 5.264062485703749e-10
8999.54 5.264062474798134e-10
