# wavelength flux
3858.75885 8.02066e-19
3860.23238 -7.40586e-19
3861.69588 -6.18669e-19
3863.16941 1.23718e-18
3864.64294 1.85991e-18
3866.10644 6.79590e-19
3867.57997 -8.93197e-19
3869.05350 8.38725e-19
3870.51700 6.40105e-19
3871.99053 -2.15090e-19
3873.46406 2.57269e-19
3874.92756 8.54324e-19
3876.40109 -3.89944e-19
3877.87462 -9.33543e-19
3879.33812 1.49270e-18
3880.81165 1.93871e-18
3882.27515 1.21535e-18
3883.74868 8.87325e-19
3885.22221 8.36807e-19
3886.68571 5.80458e-19
3888.15924 5.15230e-19
3889.63277 1.28760e-18
3891.09627 -4.23559e-19
3892.56980 -4.53867e-19
3894.04333 1.64365e-18
3895.50683 1.11213e-18
3896.98036 1.34223e-18
3898.45389 5.62250e-19
3899.91739 1.13877e-19
3901.39092 -1.00210e-19
3902.86445 -1.33847e-18
3904.32795 2.65575e-19
3905.80148 1.54652e-18
3907.26498 6.33815e-19
3908.73851 1.82820e-18
3910.21204 2.01761e-18
3911.67554 1.35277e-18
3913.14907 1.87824e-18
3914.62260 7.79446e-19
3916.08610 2.84445e-19
3917.55963 6.89598e-19
3919.03316 4.22701e-19
3920.49666 1.83441e-18
3921.97019 2.36982e-18
3923.44372 1.98321e-18
3924.90722 1.25418e-18
3926.38075 1.60371e-18
3927.85428 1.83677e-18
3929.31778 1.54419e-18
3930.79131 1.41874e-18
3932.25482 1.41129e-18
3933.72834 1.20972e-18
3935.20187 1.33305e-18
3936.66538 1.89953e-18
3938.13890 2.85466e-18
3939.61243 1.30825e-18
3941.07594 1.27803e-18
3942.54946 1.57413e-18
3944.02299 8.04682e-19
3945.48650 1.67373e-18
3946.96002 1.70200e-18
3948.43355 1.36739e-18
3949.89706 2.00053e-18
3951.37058 1.58858e-18
3952.84411 1.92165e-18
3954.30762 2.15017e-18
3955.78114 1.98761e-18
3957.25467 1.44065e-18
3958.71818 1.11480e-18
3960.19170 1.93324e-18
3961.65521 1.69993e-18
3963.12874 1.73340e-18
3964.60226 1.42926e-18
3966.06577 1.03463e-18
3967.53930 4.82764e-19
3969.01282 5.57274e-19
3970.47633 1.06654e-18
3971.94986 9.10127e-19
3973.42338 1.31222e-18
3974.88689 2.64358e-18
3976.36042 2.75610e-18
3977.83394 1.75522e-18
3979.29745 1.10214e-18
3980.77098 1.33178e-18
3982.24450 1.83676e-18
3983.70801 1.98852e-18
3985.18154 2.05709e-18
3986.64504 2.27639e-18
3988.11857 2.15300e-18
3989.59210 1.69421e-18
3991.05560 2.23201e-18
3992.52913 2.28137e-18
3994.00266 2.17044e-18
3995.46616 2.38371e-18
3996.93969 2.23660e-18
3998.41322 2.17111e-18
3999.87672 2.35598e-18
4001.35025 2.27903e-18
4002.82378 2.37009e-18
4004.28728 3.20755e-18
4005.76081 2.82295e-18
4007.23434 2.74944e-18
4008.69784 3.13359e-18
4010.17137 3.32134e-18
4011.63487 3.03233e-18
4013.10840 2.44200e-18
4014.58193 3.31135e-18
4016.04543 4.14850e-18
4017.51896 3.25896e-18
4018.99249 2.83679e-18
4020.45599 3.36476e-18
4021.92952 3.00913e-18
4023.40305 3.54289e-18
4024.86655 3.19652e-18
4026.34008 2.95412e-18
4027.81361 3.22868e-18
4029.27711 3.52289e-18
4030.75064 3.97300e-18
4032.22417 3.57434e-18
4033.68767 3.21504e-18
4035.16120 3.38029e-18
4036.63473 3.98760e-18
4038.09823 3.65138e-18
4039.57176 3.57542e-18
4041.03526 3.97376e-18
4042.50879 3.96012e-18
4043.98232 3.31119e-18
4045.44582 4.14131e-18
4046.91935 4.21828e-18
4048.39288 3.51167e-18
4049.85638 3.84799e-18
4051.32991 3.32787e-18
4052.80344 3.23320e-18
4054.26694 3.41853e-18
4055.74047 4.10740e-18
4057.21400 3.78925e-18
4058.67750 3.05370e-18
4060.15103 2.40607e-18
4061.62456 3.20905e-18
4063.08806 3.67985e-18
4064.56159 2.95156e-18
4066.02510 2.97712e-18
4067.49862 2.90472e-18
4068.97215 3.12593e-18
4070.43566 2.91423e-18
4071.90918 3.68348e-18
4073.38271 4.57263e-18
4074.84622 4.05017e-18
4076.31974 3.37066e-18
4077.79327 3.56687e-18
4079.25678 3.74286e-18
4080.73030 3.47956e-18
4082.20383 2.93923e-18
4083.66734 2.61223e-18
4085.14086 3.13311e-18
4086.61439 2.72099e-18
4088.07790 2.71895e-18
4089.55142 3.55371e-18
4091.01493 3.70420e-18
4092.48846 3.50805e-18
4093.96198 3.59268e-18
4095.42549 3.50256e-18
4096.89902 3.34569e-18
4098.37254 3.21310e-18
4099.83605 3.02129e-18
4101.30958 3.70152e-18
4102.78310 3.66569e-18
4104.24661 2.95358e-18
4105.72014 3.27303e-18
4107.19366 2.88764e-18
4108.65717 2.75817e-18
4110.13070 3.53018e-18
4111.60422 3.48369e-18
4113.06773 3.95130e-18
4114.54126 4.07494e-18
4116.00476 3.27167e-18
4117.47829 3.63276e-18
4118.95182 3.97476e-18
4120.41532 3.53929e-18
4121.88885 4.13798e-18
4123.36238 3.97110e-18
4124.82588 3.35994e-18
4126.29941 3.99166e-18
4127.77294 3.93465e-18
4129.23644 4.64039e-18
4130.70997 4.74194e-18
4132.18350 4.42024e-18
4133.64700 4.57078e-18
4135.12053 4.44702e-18
4136.59406 4.65527e-18
4138.05756 5.09971e-18
4139.53109 4.96589e-18
4141.00462 5.10121e-18
4142.46812 4.57208e-18
4143.94165 4.91565e-18
4145.40515 4.48988e-18
4146.87868 4.20320e-18
4148.35221 3.89338e-18
4149.81571 4.75728e-18
4151.28924 4.82251e-18
4152.76277 4.81731e-18
4154.22627 4.86868e-18
4155.69980 4.83348e-18
4157.17333 5.22610e-18
4158.63683 4.85487e-18
4160.11036 5.83450e-18
4161.58389 5.49769e-18
4163.04739 4.69855e-18
4164.52092 5.38306e-18
4165.99445 6.08950e-18
4167.45795 5.02339e-18
4168.93148 5.90935e-18
4170.39498 5.81893e-18
4171.86851 4.83678e-18
4173.34204 5.53513e-18
4174.80554 4.93648e-18
4176.27907 5.73045e-18
4177.75260 5.93887e-18
4179.21610 5.68992e-18
4180.68963 4.79160e-18
4182.16316 4.80542e-18
4183.62666 4.97354e-18
4185.10019 4.94180e-18
4186.57372 4.96351e-18
4188.03722 4.30283e-18
4189.51075 4.57277e-18
4190.98428 4.46424e-18
4192.44778 5.03272e-18
4193.92131 5.20428e-18
4195.39484 4.47245e-18
4196.85834 3.79750e-18
4198.33187 5.30438e-18
4199.79538 5.75914e-18
4201.26890 5.20242e-18
4202.74243 4.32698e-18
4204.20594 4.62722e-18
4205.67946 4.68509e-18
4207.15299 4.81454e-18
4208.61650 4.10817e-18
4210.09002 3.59405e-18
4211.56355 4.34294e-18
4213.02706 4.67070e-18
4214.50058 4.34357e-18
4215.97411 3.97129e-18
4217.43762 3.98702e-18
4218.91114 4.20169e-18
4220.37465 4.18280e-18
4221.84818 3.46414e-18
4223.32170 3.89473e-18
4224.78521 5.37514e-18
4226.25874 4.80220e-18
4227.73226 4.46360e-18
4229.19577 4.89795e-18
4230.66930 4.82018e-18
4232.14282 4.59819e-18
4233.60633 4.62734e-18
4235.07986 5.49409e-18
4236.55338 5.44584e-18
4238.01689 4.71764e-18
4239.49042 4.84282e-18
4240.96394 5.11939e-18
4242.42745 5.42126e-18
4243.90098 4.90625e-18
4245.37450 5.08010e-18
4246.83801 5.92682e-18
4248.31154 5.40707e-18
4249.77504 5.22602e-18
4251.24857 5.42090e-18
4252.72210 5.80959e-18
4254.18560 5.20324e-18
4255.65913 5.14597e-18
4257.13266 6.11545e-18
4258.59616 6.19627e-18
4260.06969 5.83438e-18
4261.54322 6.01972e-18
4263.00672 5.48468e-18
4264.48025 5.50014e-18
4265.95378 5.79025e-18
4267.41728 5.38583e-18
4268.89081 5.37391e-18
4270.36434 6.35564e-18
4271.82784 5.53809e-18
4273.30137 5.59714e-18
4274.77490 4.92608e-18
4276.23840 5.50801e-18
4277.71193 5.92856e-18
4279.17543 5.21872e-18
4280.64896 5.55538e-18
4282.12249 5.88662e-18
4283.58599 5.77107e-18
4285.05952 5.18961e-18
4286.53305 5.58674e-18
4287.99655 5.72963e-18
4289.47008 5.21781e-18
4290.94361 5.82534e-18
4292.40711 5.61329e-18
4293.88064 5.41634e-18
4295.35417 5.42933e-18
4296.81767 5.23563e-18
4298.29120 5.43419e-18
4299.75470 6.21972e-18
4301.22823 6.40481e-18
4302.70176 5.73344e-18
4304.16526 5.69603e-18
4305.63879 5.47246e-18
4307.11232 5.24054e-18
4308.57582 5.39168e-18
4310.04935 5.76264e-18
4311.52288 5.38967e-18
4312.98638 5.48877e-18
4314.45991 5.78252e-18
4315.93344 4.65745e-18
4317.39694 5.34151e-18
4318.87047 5.26948e-18
4320.34400 5.18360e-18
4321.80750 4.87432e-18
4323.28103 4.27112e-18
4324.75456 4.78557e-18
4326.21806 4.55170e-18
4327.69159 4.25578e-18
4329.15510 4.51393e-18
4330.62862 4.18829e-18
4332.10215 4.10666e-18
4333.56566 4.67183e-18
4335.03918 4.42178e-18
4336.51271 3.87405e-18
4337.97622 4.16386e-18
4339.44974 4.61768e-18
4340.92327 4.57361e-18
4342.38678 3.54356e-18
4343.86030 4.58040e-18
4345.33383 5.01048e-18
4346.79734 4.45727e-18
4348.27086 4.86892e-18
4349.74439 5.03339e-18
4351.20790 4.72460e-18
4352.68142 4.99291e-18
4354.14493 5.29035e-18
4355.61846 5.33934e-18
4357.09198 5.29860e-18
4358.55549 5.25785e-18
4360.02902 5.21712e-18
4361.50254 5.17639e-18
4362.96605 5.13565e-18
4364.43958 5.09493e-18
4365.91310 5.05419e-18
4367.37661 5.01348e-18
4368.85014 4.97275e-18
4370.32366 4.93204e-18
4371.78717 4.89132e-18
4373.26070 4.85061e-18
4374.73422 4.80990e-18
4376.19773 4.76919e-18
4377.67126 4.72849e-18
4379.14478 4.68778e-18
4380.60829 4.64708e-18
4382.08182 4.60639e-18
4383.54532 4.56570e-18
4385.01885 4.52500e-18
4386.49238 4.48430e-18
4387.95588 4.44362e-18
4389.42941 4.40295e-18
4390.90294 4.36227e-18
4392.36644 4.32159e-18
4393.83997 4.00997e-18
4395.31350 3.49292e-18
4396.77700 3.27317e-18
4398.25053 3.32592e-18
4399.72406 3.56168e-18
4401.18756 3.62474e-18
4402.66109 3.46084e-18
4404.12459 3.36201e-18
4405.59812 3.63374e-18
4407.07165 3.25447e-18
4408.53515 2.81798e-18
4410.00868 3.36397e-18
4411.48221 3.40427e-18
4412.94571 3.55068e-18
4414.41924 4.08074e-18
4415.89277 3.90834e-18
4417.35627 3.85530e-18
4418.82980 4.03101e-18
4420.30333 3.86829e-18
4421.76683 4.35235e-18
4423.24036 4.02104e-18
4424.71389 3.87273e-18
4426.17739 4.28615e-18
4427.65092 3.95433e-18
4429.12445 4.30330e-18
4430.58795 5.09283e-18
4432.06148 4.84303e-18
4433.52498 4.49531e-18
4434.99851 4.67397e-18
4436.47204 5.02308e-18
4437.93554 5.38859e-18
4439.40907 5.21610e-18
4440.88260 5.32671e-18
4442.34610 5.37755e-18
4443.81963 5.85897e-18
4445.29316 5.52342e-18
4446.75666 5.34192e-18
4448.23019 5.89009e-18
4449.70372 5.87331e-18
4451.16722 5.96207e-18
4452.64075 6.52654e-18
4454.11428 6.24779e-18
4455.57778 6.31506e-18
4457.05131 6.41214e-18
4458.52484 6.70955e-18
4459.98834 6.29590e-18
4461.46187 6.19271e-18
4462.92538 6.39745e-18
4464.39890 6.20861e-18
4465.87243 6.80005e-18
4467.33594 7.39860e-18
4468.80946 7.30839e-18
4470.28299 6.71180e-18
4471.74650 7.13091e-18
4473.22002 6.99400e-18
4474.69355 6.91916e-18
4476.15706 7.35157e-18
4477.63058 6.97336e-18
4479.10411 7.28255e-18
4480.56762 7.71329e-18
4482.04114 7.98016e-18
4483.50465 7.65682e-18
4484.97818 7.49224e-18
4486.45170 7.78644e-18
4487.91521 6.85332e-18
4489.38874 7.34261e-18
4490.86226 7.85294e-18
4492.32577 8.06558e-18
4493.79930 7.96095e-18
4495.27282 7.47013e-18
4496.73633 8.47401e-18
4498.20986 8.54451e-18
4499.68338 7.81015e-18
4501.14689 7.50855e-18
4502.62042 7.89891e-18
4504.09394 7.69577e-18
4505.55745 8.21279e-18
4507.03098 7.99106e-18
4508.50450 7.73689e-18
4509.96801 7.99704e-18
4511.44154 7.83640e-18
4512.90504 7.80874e-18
4514.37857 7.98643e-18
4515.85210 8.01182e-18
4517.31560 7.64384e-18
4518.78913 7.50248e-18
4520.26266 7.96918e-18
4521.72616 8.04226e-18
4523.19969 7.41381e-18
4524.67322 7.49104e-18
4526.13672 7.64878e-18
4527.61025 7.88582e-18
4529.08378 7.59773e-18
4530.54728 8.01943e-18
4532.02081 8.27314e-18
4533.49434 8.24623e-18
4534.95784 8.31142e-18
4536.43137 8.28882e-18
4537.89487 8.71149e-18
4539.36840 8.12007e-18
4540.84193 8.20936e-18
4542.30543 8.43575e-18
4543.77896 7.83226e-18
4545.25249 7.59856e-18
4546.71599 7.93685e-18
4548.18952 7.70241e-18
4549.66305 8.39336e-18
4551.12655 8.05326e-18
4552.60008 7.86628e-18
4554.07361 8.08713e-18
4555.53711 8.28818e-18
4557.01064 8.57779e-18
4558.48417 8.55664e-18
4559.94767 8.10301e-18
4561.42120 9.25556e-18
4562.89473 9.04050e-18
4564.35823 8.67072e-18
4565.83176 9.02031e-18
4567.29526 8.96095e-18
4568.76879 9.06309e-18
4570.24232 8.88076e-18
4571.70582 8.47437e-18
4573.17935 7.90605e-18
4574.65288 8.48376e-18
4576.11638 9.00170e-18
4577.58991 9.17256e-18
4579.06344 9.04840e-18
4580.52694 9.20422e-18
4582.00047 9.11336e-18
4583.47400 8.92643e-18
4584.93750 9.16403e-18
4586.41103 9.92881e-18
4587.88456 9.19178e-18
4589.34806 8.93375e-18
4590.82159 9.68153e-18
4592.28510 9.49492e-18
4593.75862 9.15474e-18
4595.23215 9.42594e-18
4596.69566 9.54717e-18
4598.16918 9.25195e-18
4599.64271 9.13670e-18
4601.10622 9.41434e-18
4602.57974 9.24365e-18
4604.05327 9.54764e-18
4605.51678 9.49603e-18
4606.99030 9.38897e-18
4608.46383 9.59300e-18
4609.92734 9.43031e-18
4611.40086 9.37503e-18
4612.87439 9.14349e-18
4614.33790 9.08809e-18
4615.81142 9.15751e-18
4617.27493 9.55839e-18
4618.74846 9.82505e-18
4620.22198 9.41686e-18
4621.68549 8.74681e-18
4623.15902 8.85491e-18
4624.63254 9.24391e-18
4626.09605 9.30960e-18
4627.56958 9.40230e-18
4629.04310 9.51498e-18
4630.50661 9.33863e-18
4631.98014 8.97137e-18
4633.45366 8.41441e-18
4634.91717 8.32798e-18
4636.39070 8.47601e-18
4637.86422 8.62184e-18
4639.32773 8.47379e-18
4640.80126 8.02266e-18
4642.27478 7.28688e-18
4643.73829 7.65067e-18
4645.21182 7.92171e-18
4646.67532 7.34833e-18
4648.14885 7.34233e-18
4649.62238 7.51577e-18
4651.08588 7.45421e-18
4652.55941 7.40254e-18
4654.03294 7.79060e-18
4655.49644 7.58533e-18
4656.96997 7.10370e-18
4658.44350 6.78590e-18
4659.90700 6.92038e-18
4661.38053 7.34039e-18
4662.85406 7.63303e-18
4664.31756 7.38032e-18
4665.79109 7.50720e-18
4667.25459 7.71480e-18
4668.72812 7.56938e-18
4670.20165 7.20764e-18
4671.66515 7.14907e-18
4673.13868 7.41767e-18
4674.61221 7.32035e-18
4676.07571 7.41851e-18
4677.54924 7.47276e-18
4679.02277 7.39905e-18
4680.48627 7.23131e-18
4681.95980 7.05229e-18
4683.43333 7.45231e-18
4684.89683 7.81038e-18
4686.37036 7.85544e-18
4687.84389 7.74571e-18
4689.30739 7.48648e-18
4690.78092 7.65413e-18
4692.25445 7.95787e-18
4693.71795 7.36382e-18
4695.19148 7.29329e-18
4696.66501 7.51108e-18
4698.12851 7.52159e-18
4699.60204 7.76715e-18
4701.06554 7.17006e-18
4702.53907 6.68589e-18
4704.01260 6.42928e-18
4705.47610 6.17651e-18
4706.94963 6.07572e-18
4708.42316 6.09576e-18
4709.88666 6.32517e-18
4711.36019 5.98988e-18
4712.83372 5.87072e-18
4714.29722 6.52831e-18
4715.77075 6.34216e-18
4717.24428 5.72233e-18
4718.70778 5.69063e-18
4720.18131 5.95629e-18
4721.64482 6.31621e-18
4723.11834 6.56822e-18
4724.59187 6.71611e-18
4726.05538 6.79791e-18
4727.52890 7.33555e-18
4729.00243 7.63648e-18
4730.46594 7.06948e-18
4731.93946 7.59399e-18
4733.41299 8.27057e-18
4734.87650 8.31607e-18
4736.35002 8.11496e-18
4737.82355 8.40883e-18
4739.28706 8.39903e-18
4740.76058 8.25822e-18
4742.23411 8.50296e-18
4743.69762 8.63757e-18
4745.17114 8.99434e-18
4746.64467 9.61931e-18
4748.10818 9.42455e-18
4749.58170 9.19194e-18
4751.04521 9.63440e-18
4752.51874 9.67166e-18
4753.99226 9.42632e-18
4755.45577 9.50419e-18
4756.92930 1.02791e-17
4758.40282 1.03967e-17
4759.86633 1.02947e-17
4761.33986 1.05990e-17
4762.81338 1.04454e-17
4764.27689 9.93211e-18
4765.75042 1.00236e-17
4767.22394 1.00256e-17
4768.68745 9.80933e-18
4770.16098 1.01656e-17
4771.63450 9.94908e-18
4773.09801 9.65710e-18
4774.57154 9.93338e-18
4776.03504 9.84892e-18
4777.50857 1.01143e-17
4778.98210 9.84261e-18
4780.44560 9.36698e-18
4781.91913 9.40596e-18
4783.39266 9.69205e-18
4784.85616 1.00324e-17
4786.32969 9.75509e-18
4787.80322 9.67604e-18
4789.26672 9.55357e-18
4790.74025 9.53793e-18
4792.21378 9.56761e-18
4793.67728 1.03082e-17
4795.15081 1.04556e-17
4796.62434 9.86879e-18
4798.08784 9.85649e-18
4799.56137 9.37145e-18
4801.02487 9.16263e-18
4802.49840 9.13390e-18
4803.97193 9.40128e-18
4805.43543 9.55599e-18
4806.90896 1.00572e-17
4808.38249 9.44565e-18
4809.84599 9.53161e-18
4811.31952 9.91201e-18
4812.79305 9.51144e-18
4814.25655 9.27870e-18
4815.73008 8.65829e-18
4817.20361 8.51621e-18
4818.66711 9.17181e-18
4820.14064 8.78693e-18
4821.61417 8.42795e-18
4823.07767 8.31083e-18
4824.55120 8.51197e-18
4826.02473 8.90714e-18
4827.48823 8.64648e-18
4828.96176 7.94875e-18
4830.42526 7.80647e-18
4831.89879 8.22841e-18
4833.37232 8.25860e-18
4834.83582 7.76350e-18
4836.30935 7.73816e-18
4837.78288 7.56071e-18
4839.24638 7.41602e-18
4840.71991 7.36596e-18
4842.19344 7.03446e-18
4843.65694 6.46358e-18
4845.13047 6.59980e-18
4846.60400 6.74756e-18
4848.06750 6.42469e-18
4849.54103 6.25129e-18
4851.01456 6.24311e-18
4852.47806 6.35562e-18
4853.95159 6.26535e-18
4855.41510 6.19584e-18
4856.88862 6.12630e-18
4858.36215 6.05679e-18
4859.82566 5.98725e-18
4861.29918 5.91775e-18
4862.77271 5.84825e-18
4864.23622 5.77873e-18
4865.70974 5.70925e-18
4867.18327 5.63974e-18
4868.64678 5.57027e-18
4870.12030 5.50080e-18
4871.59383 5.43133e-18
4873.05734 5.36185e-18
4874.53086 5.29240e-18
4876.00439 5.22295e-18
4877.46790 5.15348e-18
4878.94142 5.08405e-18
4880.41495 5.01459e-18
4881.87846 4.94517e-18
4883.35198 4.87575e-18
4884.81549 4.80633e-18
4886.28902 4.73690e-18
4887.76254 4.66750e-18
4889.22605 4.59808e-18
4890.69958 4.52869e-18
4892.17310 4.45930e-18
4893.63661 4.35861e-18
4895.11014 4.34807e-18
4896.58366 4.02089e-18
4898.04717 4.00338e-18
4899.52070 4.42569e-18
4900.99422 4.05599e-18
4902.45773 4.21074e-18
4903.93126 4.15840e-18
4905.39476 4.25366e-18
4906.86829 4.26861e-18
4908.34182 4.07461e-18
4909.80532 4.15145e-18
4911.27885 4.22171e-18
4912.75238 4.32522e-18
4914.21588 4.55212e-18
4915.68941 4.43413e-18
4917.16294 4.23846e-18
4918.62644 4.43205e-18
4920.09997 4.53041e-18
4921.57350 4.51076e-18
4923.03700 4.54739e-18
4924.51053 4.52971e-18
4925.98406 4.70970e-18
4927.44756 4.79330e-18
4928.92109 5.23250e-18
4930.39462 5.30700e-18
4931.85812 5.22666e-18
4933.33165 5.21042e-18
4934.79515 5.05146e-18
4936.26868 5.38608e-18
4937.74221 5.59614e-18
4939.20571 5.59375e-18
4940.67924 5.93381e-18
4942.15277 6.24259e-18
4943.61627 6.46012e-18
4945.08980 6.42901e-18
4946.56333 6.89730e-18
4948.02683 7.24211e-18
4949.50036 6.90696e-18
4950.97389 6.63016e-18
4952.43739 6.60341e-18
4953.91092 6.82023e-18
4955.38445 7.03703e-18
4956.84795 7.25389e-18
4958.32148 7.47066e-18
4959.79501 7.68749e-18
4961.25851 7.90415e-18
4962.73204 8.12094e-18
4964.19554 8.33771e-18
4965.66907 8.55440e-18
4967.14260 8.77114e-18
4968.60610 8.98771e-18
4970.07963 9.20442e-18
4971.55316 9.42103e-18
4973.01666 9.63770e-18
4974.49019 9.85436e-18
4975.96372 1.00708e-17
4977.42722 1.02875e-17
4978.90075 1.05040e-17
4980.37428 1.07206e-17
4981.83778 1.09370e-17
4983.31131 1.11536e-17
4984.77482 1.13700e-17
4986.24834 1.15865e-17
4987.72187 1.18030e-17
4989.18538 1.20194e-17
4990.65890 1.15632e-17
4992.13243 1.14953e-17
4993.59594 1.15813e-17
4995.06946 1.16156e-17
4996.54299 1.18933e-17
4998.00650 1.23906e-17
4999.48002 1.24226e-17
5000.95355 1.25051e-17
5002.41706 1.25875e-17
5003.89058 1.26699e-17
5005.36411 1.27524e-17
5006.82762 1.28348e-17
5008.30114 1.29173e-17
5009.77467 1.29997e-17
5011.23818 1.30821e-17
5012.71170 1.31645e-17
5014.17521 1.32470e-17
5015.64874 1.33293e-17
5017.12226 1.34117e-17
5018.58577 1.34941e-17
5020.05930 1.35765e-17
5021.53282 1.36589e-17
5022.99633 1.37413e-17
5024.46986 1.38236e-17
5025.94338 1.39060e-17
5027.40689 1.39883e-17
5028.88042 1.40707e-17
5030.35394 1.41530e-17
5031.81745 1.42353e-17
5033.29098 1.43177e-17
5034.76450 1.44000e-17
5036.22801 1.44823e-17
5037.70154 1.45646e-17
5039.16504 1.45434e-17
5040.63857 1.46436e-17
5042.11210 1.47301e-17
5043.57560 1.46365e-17
5045.04913 1.42644e-17
5046.52266 1.43273e-17
5047.98616 1.43617e-17
5049.45969 1.40600e-17
5050.93322 1.41511e-17
5052.39672 1.45104e-17
5053.87025 1.46661e-17
5055.34378 1.41026e-17
5056.80728 1.39007e-17
5058.28081 1.41140e-17
5059.75434 1.40426e-17
5061.21784 1.41474e-17
5062.69137 1.41332e-17
5064.16490 1.37691e-17
5065.62840 1.40398e-17
5067.10193 1.39912e-17
5068.56543 1.36295e-17
5070.03896 1.37598e-17
5071.51249 1.38553e-17
5072.97599 1.39877e-17
5074.44952 1.38362e-17
5075.92305 1.34118e-17
5077.38655 1.32065e-17
5078.86008 1.36120e-17
5080.33361 1.35128e-17
5081.79711 1.29704e-17
5083.27064 1.27247e-17
5084.74417 1.26170e-17
5086.20767 1.26646e-17
5087.68120 1.26921e-17
5089.14470 1.25562e-17
5090.61823 1.27739e-17
5092.09176 1.25018e-17
5093.55526 1.24474e-17
5095.02879 1.26167e-17
5096.50232 1.23526e-17
5097.96582 1.22317e-17
5099.43935 1.19877e-17
5100.91288 1.18552e-17
5102.37638 1.20024e-17
5103.84991 1.19340e-17
5105.32344 1.16574e-17
5106.78694 1.11266e-17
5108.26047 1.08979e-17
5109.73400 1.17032e-17
5111.19750 1.19953e-17
5112.67103 1.15434e-17
5114.14456 1.15936e-17
5115.60806 1.16056e-17
5117.08159 1.13197e-17
5118.54510 1.10366e-17
5120.01862 1.10238e-17
5121.49215 1.08224e-17
5122.95566 1.08188e-17
5124.42918 1.07589e-17
5125.90271 1.06667e-17
5127.36622 1.05879e-17
5128.83974 1.04925e-17
5130.31327 1.06681e-17
5131.77678 1.06306e-17
5133.25030 1.01991e-17
5134.72383 1.01916e-17
5136.18734 9.97875e-18
5137.66086 9.74558e-18
5139.13439 1.02495e-17
5140.59790 1.05479e-17
5142.07142 1.04445e-17
5143.54495 1.01583e-17
5145.00846 1.03760e-17
5146.48198 1.09337e-17
5147.94549 1.06759e-17
5149.41902 1.02143e-17
5150.89254 1.02584e-17
5152.35605 1.00294e-17
5153.82958 9.92747e-18
5155.30310 1.01732e-17
5156.76661 1.04338e-17
5158.24014 1.06605e-17
5159.71366 1.03145e-17
5161.17717 1.00895e-17
5162.65070 1.06617e-17
5164.12422 1.10491e-17
5165.58773 1.05217e-17
5167.06126 1.01326e-17
5168.52476 1.02729e-17
5169.99829 1.04737e-17
5171.47182 1.03747e-17
5172.93532 1.03912e-17
5174.40885 1.04809e-17
5175.88238 1.04432e-17
5177.34588 1.05962e-17
5178.81941 1.05898e-17
5180.29294 1.01279e-17
5181.75644 9.97561e-18
5183.22997 1.03117e-17
5184.70350 1.05949e-17
5186.16700 1.06522e-17
5187.64053 1.04530e-17
5189.11406 1.07625e-17
5190.57756 1.10151e-17
5192.05109 1.06437e-17
5193.51459 1.02330e-17
5194.98812 1.03854e-17
5196.46165 1.08082e-17
5197.92515 1.09404e-17
5199.39868 1.07479e-17
5200.87221 1.04595e-17
5202.33571 1.05504e-17
5203.80924 1.06368e-17
5205.28277 1.04669e-17
5206.74627 1.01700e-17
5208.21980 1.00259e-17
5209.69333 1.02106e-17
5211.15683 1.03752e-17
5212.63036 1.05060e-17
5214.10389 1.03694e-17
5215.56739 1.01161e-17
5217.04092 1.03741e-17
5218.51445 1.06579e-17
5219.97795 1.05018e-17
5221.45148 1.02002e-17
5222.91498 1.00535e-17
5224.38851 1.03564e-17
5225.86204 1.08834e-17
5227.32554 1.06572e-17
5228.79907 1.01643e-17
5230.27260 1.05153e-17
5231.73610 1.06987e-17
5233.20963 1.05552e-17
5234.68316 1.05402e-17
5236.14666 1.02865e-17
5237.62019 1.01834e-17
5239.09372 1.04621e-17
5240.55722 1.04236e-17
5242.03075 1.00738e-17
5243.50428 1.00690e-17
5244.96778 1.01696e-17
5246.44131 1.04327e-17
5247.91484 1.04765e-17
5249.37834 1.03991e-17
5250.85187 1.05592e-17
5252.31538 1.05788e-17
5253.78890 1.03000e-17
5255.26243 1.02479e-17
5256.72594 1.07908e-17
5258.19946 1.07577e-17
5259.67299 1.04375e-17
5261.13650 1.07221e-17
5262.61002 1.07318e-17
5264.08355 1.04341e-17
5265.54706 1.02665e-17
5267.02058 9.95502e-18
5268.49411 1.00470e-17
5269.95762 1.04334e-17
5271.43114 1.07312e-17
5272.89465 1.06250e-17
5274.36818 1.03920e-17
5275.84170 1.04699e-17
5277.30521 1.05865e-17
5278.77874 1.06315e-17
5280.25226 1.04794e-17
5281.71577 1.05161e-17
5283.18930 1.04578e-17
5284.66282 1.02631e-17
5286.12633 1.01717e-17
5287.59986 1.03990e-17
5289.07338 1.06495e-17
5290.53689 1.07142e-17
5292.01042 1.07180e-17
5293.48394 1.02309e-17
5294.94745 1.00743e-17
5296.42098 1.07400e-17
5297.89450 1.09657e-17
5299.35801 1.08559e-17
5300.83154 1.06699e-17
5302.29504 1.03878e-17
5303.76857 1.05555e-17
5305.24210 1.08695e-17
5306.70560 1.08694e-17
5308.17913 1.09233e-17
5309.65266 1.09528e-17
5311.11616 1.08039e-17
5312.58969 1.08158e-17
5314.06322 1.07354e-17
5315.52672 1.06049e-17
5317.00025 1.05814e-17
5318.47378 1.06328e-17
5319.93728 1.07554e-17
5321.41081 1.07435e-17
5322.88434 1.08543e-17
5324.34784 1.06812e-17
5325.82137 1.06927e-17
5327.29490 1.10176e-17
5328.75840 1.10254e-17
5330.23193 1.11133e-17
5331.69543 1.09995e-17
5333.16896 1.08858e-17
5334.64249 1.08479e-17
5336.10599 1.09450e-17
5337.57952 1.10426e-17
5339.05305 1.11651e-17
5340.51655 1.14379e-17
5341.99008 1.12253e-17
5343.46361 1.08237e-17
5344.92711 1.09909e-17
5346.40064 1.11278e-17
5347.87417 1.09949e-17
5349.33767 1.08517e-17
5350.81120 1.06014e-17
5352.27470 1.07513e-17
5353.74823 1.10662e-17
5355.22176 1.07259e-17
5356.68526 1.06773e-17
5358.15879 1.10320e-17
5359.63232 1.11518e-17
5361.09582 1.09693e-17
5362.56935 1.10230e-17
5364.04288 1.13064e-17
5365.50638 1.11044e-17
5366.97991 1.09394e-17
5368.45344 1.09601e-17
5369.91694 1.12692e-17
5371.39047 1.13842e-17
5372.86400 1.12224e-17
5374.32750 1.14938e-17
5375.80103 1.15942e-17
5377.27456 1.14656e-17
5378.73806 1.15896e-17
5380.21159 1.20172e-17
5381.67510 1.16434e-17
5383.14862 1.09326e-17
5384.62215 1.13715e-17
5386.08566 1.16361e-17
5387.55918 1.17154e-17
5389.03271 1.17204e-17
5390.49622 1.14980e-17
5391.96974 1.16763e-17
5393.44327 1.20862e-17
5394.90678 1.23756e-17
5396.38030 1.21549e-17
5397.85383 1.19725e-17
5399.31734 1.21304e-17
5400.79086 1.23656e-17
5402.26439 1.26066e-17
5403.72790 1.23990e-17
5405.20142 1.20520e-17
5406.66493 1.23042e-17
5408.13846 1.24627e-17
5409.61198 1.25491e-17
5411.07549 1.24672e-17
5412.54902 1.23030e-17
5414.02254 1.22046e-17
5415.48605 1.20017e-17
5416.95958 1.20750e-17
5418.43310 1.22985e-17
5419.89661 1.22276e-17
5421.37014 1.20831e-17
5422.84366 1.24129e-17
5424.30717 1.26247e-17
5425.78070 1.26920e-17
5427.25422 1.26161e-17
5428.71773 1.24222e-17
5430.19126 1.25305e-17
5431.66478 1.20762e-17
5433.12829 1.18313e-17
5434.60182 1.22409e-17
5436.06532 1.25511e-17
5437.53885 1.22974e-17
5439.01238 1.22344e-17
5440.47588 1.23168e-17
5441.94941 1.22189e-17
5443.42294 1.22859e-17
5444.88644 1.22263e-17
5446.35997 1.20662e-17
5447.83350 1.22091e-17
5449.29700 1.21989e-17
5450.77053 1.20097e-17
5452.24406 1.20068e-17
5453.70756 1.22248e-17
5455.18109 1.23199e-17
5456.64459 1.22734e-17
5458.11812 1.21196e-17
5459.59165 1.20153e-17
5461.05515 1.20170e-17
5462.52868 1.20005e-17
5464.00221 1.18260e-17
5465.46571 1.17178e-17
5466.93924 1.18922e-17
5468.41277 1.18286e-17
5469.87627 1.17210e-17
5471.34980 1.19496e-17
5472.82333 1.21259e-17
5474.28683 1.23251e-17
5475.76036 1.21397e-17
5477.23389 1.18156e-17
5478.69739 1.20220e-17
5480.17092 1.26239e-17
5481.64445 1.29509e-17
5483.10795 1.25235e-17
5484.58148 1.22467e-17
5486.04498 1.22880e-17
5487.51851 1.23321e-17
5488.99204 1.23142e-17
5490.45554 1.26764e-17
5491.92907 1.31648e-17
5493.40260 1.27925e-17
5494.86610 1.23245e-17
5496.33963 1.23915e-17
5497.81316 1.26117e-17
5499.27666 1.27824e-17
5500.75019 1.30931e-17
5502.22372 1.31933e-17
5503.68722 1.26803e-17
5505.16075 1.28232e-17
5506.63428 1.32993e-17
5508.09778 1.35881e-17
5509.57131 1.37947e-17
5511.04484 1.41231e-17
5512.50834 1.45298e-17
5513.98187 1.42711e-17
5515.44538 1.39141e-17
5516.91890 1.39551e-17
5518.39243 1.42734e-17
5519.85594 1.45525e-17
5521.32946 1.45732e-17
5522.80299 1.46292e-17
5524.26650 1.46483e-17
5525.74002 1.45041e-17
5527.21355 1.46525e-17
5528.67706 1.50858e-17
5530.15058 1.52847e-17
5531.62411 1.54463e-17
5533.08762 1.57251e-17
5534.56114 1.56238e-17
5536.02465 1.53579e-17
5537.49818 1.56737e-17
5538.97170 1.62546e-17
5540.43521 1.61810e-17
5541.90874 1.57887e-17
5543.38226 1.56585e-17
5544.84577 1.56270e-17
5546.31930 1.56584e-17
5547.79282 1.56825e-17
5549.25633 1.57845e-17
5550.72986 1.57608e-17
5552.20338 1.58072e-17
5553.66689 1.58370e-17
5555.14042 1.58948e-17
5556.61394 1.60720e-17
5558.07745 1.59950e-17
5559.55098 1.52635e-17
5561.02450 1.50635e-17
5562.48801 1.55973e-17
5563.96154 1.51029e-17
5565.42504 1.49442e-17
5566.89857 1.52804e-17
5568.37210 1.48493e-17
5569.83560 1.46055e-17
5571.30913 1.47820e-17
5572.78266 1.47253e-17
5574.24616 1.48833e-17
5575.71969 1.54428e-17
5577.19322 1.50398e-17
5578.65672 1.45054e-17
5580.13025 1.48823e-17
5581.60378 1.50198e-17
5583.06728 1.46022e-17
5584.54081 1.43969e-17
5586.01434 1.45117e-17
5587.47784 1.43335e-17
5588.95137 1.42557e-17
5590.41487 1.42874e-17
5591.88840 1.39374e-17
5593.36193 1.38822e-17
5594.82543 1.43191e-17
5596.29896 1.44638e-17
5597.77249 1.42051e-17
5599.23599 1.38310e-17
5600.70952 1.38587e-17
5602.18305 1.37685e-17
5603.64655 1.33351e-17
5605.12008 1.35167e-17
5606.59361 1.36602e-17
5608.05711 1.31852e-17
5609.53064 1.30441e-17
5611.00417 1.34365e-17
5612.46767 1.29295e-17
5613.94120 1.27551e-17
5615.41473 1.27591e-17
5616.87823 1.23366e-17
5618.35176 1.26849e-17
5619.81526 1.29437e-17
5621.28879 1.26300e-17
5622.76232 1.26415e-17
5624.22582 1.29428e-17
5625.69935 1.28898e-17
5627.17288 1.29078e-17
5628.63638 1.28533e-17
5630.10991 1.26499e-17
5631.58344 1.24955e-17
5633.04694 1.23710e-17
5634.52047 1.22063e-17
5635.99400 1.22817e-17
5637.45750 1.23655e-17
5638.93103 1.21968e-17
5640.40456 1.22837e-17
5641.86806 1.23991e-17
5643.34159 1.18782e-17
5644.80510 1.20282e-17
5646.27862 1.22628e-17
5647.75215 1.24916e-17
5649.21566 1.26071e-17
5650.68918 1.23921e-17
5652.16271 1.24055e-17
5653.62622 1.26651e-17
5655.09974 1.27142e-17
5656.57327 1.22536e-17
5658.03678 1.19860e-17
5659.51030 1.21360e-17
5660.98383 1.26534e-17
5662.44734 1.25830e-17
5663.92086 1.21681e-17
5665.39439 1.24814e-17
5666.85790 1.22040e-17
5668.33142 1.22592e-17
5669.79493 1.27496e-17
5671.26846 1.23787e-17
5672.74198 1.24474e-17
5674.20549 1.26155e-17
5675.67902 1.20862e-17
5677.15254 1.25112e-17
5678.61605 1.23041e-17
5680.08958 1.16960e-17
5681.56310 1.18682e-17
5683.02661 1.19712e-17
5684.50014 1.19243e-17
5685.97366 1.21500e-17
5687.43717 1.24572e-17
5688.91070 1.21049e-17
5690.38422 1.20494e-17
5691.84773 1.22431e-17
5693.32126 1.19920e-17
5694.79478 1.22912e-17
5696.25829 1.20785e-17
5697.73182 1.17671e-17
5699.19532 1.15901e-17
5700.66885 1.15313e-17
5702.14238 1.15539e-17
5703.60588 1.13327e-17
5705.07941 1.14757e-17
5706.55294 1.12033e-17
5708.01644 1.08251e-17
5709.48997 1.12109e-17
5710.96350 1.10845e-17
5712.42700 1.07556e-17
5713.90053 1.09278e-17
5715.37406 1.06839e-17
5716.83756 1.02214e-17
5718.31109 9.92551e-18
5719.77459 9.95859e-18
5721.24812 9.54215e-18
5722.72165 9.27768e-18
5724.18515 8.95324e-18
5725.65868 8.65727e-18
5727.13221 8.47499e-18
5728.59571 8.12742e-18
5730.06924 8.00428e-18
5731.54277 7.84700e-18
5733.00627 7.39521e-18
5734.47980 6.72457e-18
5735.95333 6.64950e-18
5737.41683 6.47927e-18
5738.89036 6.09537e-18
5740.36389 5.95460e-18
5741.82739 6.05199e-18
5743.30092 5.66520e-18
5744.77445 5.23904e-18
5746.23795 4.96933e-18
5747.71148 4.81866e-18
5749.18501 4.89228e-18
5750.64851 4.73896e-18
5752.12204 4.75572e-18
5753.58554 4.81520e-18
5755.05907 4.54663e-18
5756.53260 4.46364e-18
5757.99610 4.56393e-18
5759.46963 4.50549e-18
5760.94316 4.52108e-18
5762.40666 4.33189e-18
5763.88019 4.27213e-18
5765.35372 4.38862e-18
5766.81722 4.22017e-18
5768.29075 4.16382e-18
5769.76428 4.32690e-18
5771.22778 4.52574e-18
5772.70131 4.33308e-18
5774.16482 4.26004e-18
5775.63834 4.88560e-18
5777.11187 4.90147e-18
5778.57538 4.70405e-18
5780.04890 4.72926e-18
5781.52243 4.74489e-18
5782.98594 5.03469e-18
5784.45946 5.09107e-18
5785.93299 5.12397e-18
5787.39650 5.21051e-18
5788.87002 5.32135e-18
5790.34355 5.38257e-18
5791.80706 5.56313e-18
5793.28058 5.75758e-18
5794.75411 5.99386e-18
5796.21762 6.10831e-18
5797.69114 6.11096e-18
5799.16467 6.44618e-18
5800.62818 6.68883e-18
5802.10170 6.83086e-18
5803.56521 7.30028e-18
5805.03874 7.34597e-18
5806.51226 7.56795e-18
5807.97577 7.83804e-18
5809.44930 7.91239e-18
5810.92282 8.15867e-18
5812.38633 8.63539e-18
5813.85986 8.91547e-18
5815.33338 8.89850e-18
5816.79689 9.35724e-18
5818.27042 9.54166e-18
5819.74394 9.52685e-18
5821.20745 9.89366e-18
5822.68098 1.00422e-17
5824.15450 1.03692e-17
5825.61801 1.09138e-17
5827.09154 1.08830e-17
5828.55504 1.11404e-17
5830.02857 1.13989e-17
5831.50210 1.15640e-17
5832.96560 1.19947e-17
5834.43913 1.23329e-17
5835.91266 1.26954e-17
5837.37616 1.30922e-17
5838.84969 1.34987e-17
5840.32322 1.34095e-17
5841.78672 1.34723e-17
5843.26025 1.38451e-17
5844.73378 1.38176e-17
5846.19728 1.39504e-17
5847.67081 1.44751e-17
5849.14434 1.47923e-17
5850.60784 1.48834e-17
5852.08137 1.53491e-17
5853.54487 1.56496e-17
5855.01840 1.52136e-17
5856.49193 1.55334e-17
5857.95543 1.58512e-17
5859.42896 1.58752e-17
5860.90249 1.61992e-17
5862.36599 1.67000e-17
5863.83952 1.69673e-17
5865.31305 1.71096e-17
5866.77655 1.70814e-17
5868.25008 1.72185e-17
5869.72361 1.75889e-17
5871.18711 1.77908e-17
5872.66064 1.78037e-17
5874.13417 1.78503e-17
5875.59767 1.82504e-17
5877.07120 1.82860e-17
5878.53470 1.82734e-17
5880.00823 1.86346e-17
5881.48176 1.92942e-17
5882.94526 1.91386e-17
5884.41879 1.89519e-17
5885.89232 1.89716e-17
5887.35582 1.82116e-17
5888.82935 1.83221e-17
5890.30288 1.92491e-17
5891.76638 1.92810e-17
5893.23991 1.96239e-17
5894.71344 1.90090e-17
5896.17694 1.87506e-17
5897.65047 1.97425e-17
5899.12400 1.97584e-17
5900.58750 2.00731e-17
5902.06103 2.01369e-17
5903.53456 2.00969e-17
5904.99806 2.04737e-17
5906.47159 1.99663e-17
5907.93510 1.98766e-17
5909.40862 1.96021e-17
5910.88215 1.94796e-17
5912.34566 2.00520e-17
5913.81918 2.04374e-17
5915.29271 2.03997e-17
5916.75622 2.01678e-17
5918.22974 1.96848e-17
5919.70327 1.96594e-17
5921.16678 2.03025e-17
5922.64030 2.03777e-17
5924.11383 1.98574e-17
5925.57734 1.97483e-17
5927.05086 1.97756e-17
5928.52439 1.97093e-17
5929.98790 1.98824e-17
5931.46142 1.96722e-17
5932.93495 1.93744e-17
5934.39846 1.96480e-17
5935.87198 1.93517e-17
5937.33549 1.88313e-17
5938.80902 1.86758e-17
5940.28254 1.92087e-17
5941.74605 1.95621e-17
5943.21958 1.91693e-17
5944.69310 1.90582e-17
5946.15661 1.88426e-17
5947.63014 1.89957e-17
5949.10366 1.91437e-17
5950.56717 1.83707e-17
5952.04070 1.84703e-17
5953.51422 1.81042e-17
5954.97773 1.81492e-17
5956.45126 1.78743e-17
5957.91476 1.77465e-17
5959.38829 1.76216e-17
5960.86182 1.75201e-17
5962.32532 1.73429e-17
5963.79885 1.74174e-17
5965.27238 1.74239e-17
5966.73588 1.69913e-17
5968.20941 1.67895e-17
5969.68294 1.69393e-17
5971.14644 1.65212e-17
5972.61997 1.68843e-17
5974.09350 1.65480e-17
5975.55700 1.67509e-17
5977.03053 1.68823e-17
5978.50406 1.66418e-17
5979.96756 1.61023e-17
5981.44109 1.61461e-17
5982.91462 1.59416e-17
5984.37812 1.57170e-17
5985.85165 1.54382e-17
5987.31515 1.59627e-17
5988.78868 1.54959e-17
5990.26221 1.52247e-17
5991.72571 1.56352e-17
5993.19924 1.55188e-17
5994.67277 1.51418e-17
5996.13627 1.50171e-17
5997.60980 1.47950e-17
5999.08333 1.46366e-17
6000.54683 1.44097e-17
6002.02036 1.47568e-17
6003.49389 1.48081e-17
6004.95739 1.40926e-17
6006.43092 1.36835e-17
6007.90445 1.40797e-17
6009.36795 1.42621e-17
6010.84148 1.39031e-17
6012.31501 1.36768e-17
6013.77851 1.37896e-17
6015.25204 1.34989e-17
6016.71554 1.34802e-17
6018.18907 1.35226e-17
6019.66260 1.33719e-17
6021.12610 1.35246e-17
6022.59963 1.33606e-17
6024.07316 1.33308e-17
6025.53666 1.33556e-17
6027.01019 1.32522e-17
6028.48372 1.34004e-17
6029.94722 1.30360e-17
6031.42075 1.24658e-17
6032.89428 1.26474e-17
6034.35778 1.27842e-17
6035.83131 1.25563e-17
6037.29482 1.24996e-17
6038.76834 1.24158e-17
6040.24187 1.18246e-17
6041.70538 1.15850e-17
6043.17890 1.19804e-17
6044.65243 1.21952e-17
6046.11594 1.22462e-17
6047.58946 1.21362e-17
6049.06299 1.20617e-17
6050.52650 1.18247e-17
6052.00002 1.17017e-17
6053.47355 1.17991e-17
6054.93706 1.17176e-17
6056.41058 1.16364e-17
6057.88411 1.16588e-17
6059.34762 1.17827e-17
6060.82114 1.17230e-17
6062.28465 1.13911e-17
6063.75818 1.10021e-17
6065.23170 1.12513e-17
6066.69521 1.14862e-17
6068.16874 1.11757e-17
6069.64226 1.14318e-17
6071.10577 1.14852e-17
6072.57930 1.11682e-17
6074.05282 1.13631e-17
6075.51633 1.13326e-17
6076.98986 1.11092e-17
6078.46338 1.10844e-17
6079.92689 1.11702e-17
6081.40042 1.10863e-17
6082.87394 1.11168e-17
6084.33745 1.09086e-17
6085.81098 1.08849e-17
6087.28450 1.09451e-17
6088.74801 1.09934e-17
6090.22154 1.13356e-17
6091.68504 1.14153e-17
6093.15857 1.12805e-17
6094.63210 1.11538e-17
6096.09560 1.08575e-17
6097.56913 1.12138e-17
6099.04266 1.09195e-17
6100.50616 1.04508e-17
6101.97969 1.05013e-17
6103.45322 1.08515e-17
6104.91672 1.07893e-17
6106.39025 1.10202e-17
6107.86378 1.10249e-17
6109.32728 1.12077e-17
6110.80081 1.09665e-17
6112.27434 1.07486e-17
6113.73784 1.08428e-17
6115.21137 1.12114e-17
6116.68490 1.10217e-17
6118.14840 1.09489e-17
6119.62193 1.10916e-17
6121.08543 1.12423e-17
6122.55896 1.10110e-17
6124.03249 1.08607e-17
6125.49599 1.10910e-17
6126.96952 1.09548e-17
6128.44305 1.09667e-17
6129.90655 1.08349e-17
6131.38008 1.10347e-17
6132.85361 1.08925e-17
6134.31711 1.09479e-17
6135.79064 1.09907e-17
6137.26417 1.11573e-17
6138.72767 1.11684e-17
6140.20120 1.06785e-17
6141.66470 1.08956e-17
6143.13823 1.11151e-17
6144.61176 1.12629e-17
6146.07526 1.14076e-17
6147.54879 1.13140e-17
6149.02232 1.14837e-17
6150.48582 1.11435e-17
6151.95935 1.09659e-17
6153.43288 1.09317e-17
6154.89638 1.14238e-17
6156.36991 1.13564e-17
6157.84344 1.07693e-17
6159.30694 1.09782e-17
6160.78047 1.09281e-17
6162.25400 1.07469e-17
6163.71750 1.06935e-17
6165.19103 1.02616e-17
6166.66456 1.06501e-17
6168.12806 1.06471e-17
6169.60159 1.03342e-17
6171.06510 1.02795e-17
6172.53862 1.04084e-17
6174.01215 1.01677e-17
6175.47566 1.03996e-17
6176.94918 1.04020e-17
6178.42271 1.05535e-17
6179.88622 1.04656e-17
6181.35974 1.03036e-17
6182.83327 1.04753e-17
6184.29678 1.02994e-17
6185.77030 1.07478e-17
6187.24383 1.01745e-17
6188.70734 1.08096e-17
6190.18086 1.08387e-17
6191.65439 1.05124e-17
6193.11790 1.06332e-17
6194.59142 1.07460e-17
6196.06495 1.04894e-17
6197.52846 1.07161e-17
6199.00198 1.10251e-17
6200.46549 1.13428e-17
6201.93902 1.11103e-17
6203.41254 1.11023e-17
6204.87605 1.10066e-17
6206.34958 1.10406e-17
6207.82310 1.09116e-17
6209.28661 1.09228e-17
6210.76014 1.14458e-17
6212.23366 1.11685e-17
6213.69717 1.09626e-17
6215.17070 1.12452e-17
6216.64422 1.12551e-17
6218.10773 1.09655e-17
6219.58126 1.08951e-17
6221.04476 1.10395e-17
6222.51829 1.14683e-17
6223.99182 1.16127e-17
6225.45532 1.12160e-17
6226.92885 1.11172e-17
6228.40238 1.12159e-17
6229.86588 1.13002e-17
6231.33941 1.14627e-17
6232.81294 1.16801e-17
6234.27644 1.18003e-17
6235.74997 1.15353e-17
6237.22350 1.17423e-17
6238.68700 1.13048e-17
6240.16053 1.09981e-17
6241.63406 1.11088e-17
6243.09756 1.15527e-17
6244.57109 1.13735e-17
6246.03459 1.12081e-17
6247.50812 1.13031e-17
6248.98165 1.15709e-17
6250.44515 1.17626e-17
6251.91868 1.17932e-17
6253.39221 1.16857e-17
6254.85571 1.12542e-17
6256.32924 1.14103e-17
6257.80277 1.18375e-17
6259.26627 1.15542e-17
6260.73980 1.15006e-17
6262.21333 1.16132e-17
6263.67683 1.13773e-17
6265.15036 1.16156e-17
6266.62389 1.18424e-17
6268.08739 1.15514e-17
6269.56092 1.16207e-17
6271.03445 1.21075e-17
6272.49795 1.18445e-17
6273.97148 1.12273e-17
6275.43498 1.11964e-17
6276.90851 1.14432e-17
6278.38204 1.15024e-17
6279.84554 1.14210e-17
6281.31907 1.14671e-17
6282.79260 1.16104e-17
6284.25610 1.14673e-17
6285.72963 1.09560e-17
6287.20316 1.10450e-17
6288.66666 1.07956e-17
6290.14019 9.95738e-18
6291.61372 9.81323e-18
6293.07722 9.91142e-18
6294.55075 1.01990e-17
6296.02428 9.78184e-18
6297.48778 9.23792e-18
6298.96131 9.60639e-18
6300.43484 9.17580e-18
6301.89834 8.90569e-18
6303.37187 8.72246e-18
6304.83538 8.32633e-18
6306.30890 8.17228e-18
6307.78243 7.91062e-18
6309.24594 7.66895e-18
6310.71946 7.67250e-18
6312.19299 7.45414e-18
6313.65650 7.36309e-18
6315.13002 7.26917e-18
6316.60355 7.09322e-18
6318.06706 6.39287e-18
6319.54058 5.91782e-18
6321.01411 5.76880e-18
6322.47762 5.68572e-18
6323.95114 5.68583e-18
6325.41465 5.35526e-18
6326.88818 5.02915e-18
6328.36170 4.92642e-18
6329.82521 4.69216e-18
6331.29874 4.59879e-18
6332.77226 4.21431e-18
6334.23577 4.26342e-18
6335.70930 4.08236e-18
6337.18282 3.75947e-18
6338.64633 3.79166e-18
6340.11986 3.60816e-18
6341.59338 3.13894e-18
6343.05689 3.03104e-18
6344.53042 3.00543e-18
6346.00394 2.96757e-18
6347.46745 2.86938e-18
6348.94098 2.81905e-18
6350.41450 2.88495e-18
6351.87801 2.91232e-18
6353.35154 2.71384e-18
6354.81504 2.57597e-18
6356.28857 2.64705e-18
6357.76210 2.97954e-18
6359.22560 2.91678e-18
6360.69913 2.78572e-18
6362.17266 3.09100e-18
6363.63616 3.05403e-18
6365.10969 2.75031e-18
6366.58322 3.05299e-18
6368.04672 3.11736e-18
6369.52025 3.07111e-18
6370.99378 3.37560e-18
6372.45728 3.32786e-18
6373.93081 3.56993e-18
6375.40434 4.01288e-18
6376.86784 4.17352e-18
6378.34137 4.79236e-18
6379.81490 5.13906e-18
6381.27840 5.93604e-18
6382.75193 6.05061e-18
6384.21543 6.03512e-18
6385.68896 7.31206e-18
6387.16249 7.49203e-18
6388.62599 7.66317e-18
6390.09952 8.11439e-18
6391.57305 8.32224e-18
6393.03655 8.50307e-18
6394.51008 9.03147e-18
6395.98361 9.25929e-18
6397.44711 9.37228e-18
6398.92064 9.84884e-18
6400.39417 1.05131e-17
6401.85767 1.06600e-17
6403.33120 1.08480e-17
6404.79470 1.10571e-17
6406.26823 1.09354e-17
6407.74176 1.11591e-17
6409.20526 1.11335e-17
6410.67879 1.11416e-17
6412.15232 1.17058e-17
6413.61582 1.18348e-17
6415.08935 1.22586e-17
6416.56288 1.21814e-17
6418.02638 1.23497e-17
6419.49991 1.26275e-17
6420.97344 1.26279e-17
6422.43694 1.27256e-17
6423.91047 1.24369e-17
6425.38400 1.27587e-17
6426.84750 1.31680e-17
6428.32103 1.28116e-17
6429.79456 1.25585e-17
6431.25806 1.26025e-17
6432.73159 1.25954e-17
6434.19510 1.28952e-17
6435.66862 1.30199e-17
6437.14215 1.29519e-17
6438.60566 1.33096e-17
6440.07918 1.33067e-17
6441.55271 1.35447e-17
6443.01622 1.34995e-17
6444.48974 1.30685e-17
6445.96327 1.36609e-17
6447.42678 1.36922e-17
6448.90030 1.35048e-17
6450.37383 1.33623e-17
6451.83734 1.34132e-17
6453.31086 1.38375e-17
6454.78439 1.35844e-17
6456.24790 1.35843e-17
6457.72142 1.40717e-17
6459.18493 1.34627e-17
6460.65846 1.32962e-17
6462.13198 1.38202e-17
6463.59549 1.38158e-17
6465.06902 1.40947e-17
6466.54254 1.37559e-17
6468.00605 1.36886e-17
6469.47958 1.45421e-17
6470.95310 1.43446e-17
6472.41661 1.36917e-17
6473.89014 1.34874e-17
6475.36366 1.39486e-17
6476.82717 1.41466e-17
6478.30070 1.40547e-17
6479.77422 1.40270e-17
6481.23773 1.36460e-17
6482.71126 1.41791e-17
6484.18478 1.48755e-17
6485.64829 1.46017e-17
6487.12182 1.42796e-17
6488.58532 1.45133e-17
6490.05885 1.45400e-17
6491.53238 1.46318e-17
6492.99588 1.46360e-17
6494.46941 1.45885e-17
6495.94294 1.48604e-17
6497.40644 1.48358e-17
6498.87997 1.50146e-17
6500.35350 1.48815e-17
6501.81700 1.46338e-17
6503.29053 1.45992e-17
6504.76406 1.44019e-17
6506.22756 1.41912e-17
6507.70109 1.42956e-17
6509.16459 1.45005e-17
6510.63812 1.43861e-17
6512.11165 1.38233e-17
6513.57515 1.33241e-17
6515.04868 1.33929e-17
6516.52221 1.32404e-17
6517.98571 1.31020e-17
6519.45924 1.30628e-17
6520.93277 1.26774e-17
6522.39627 1.22154e-17
6523.86980 1.18643e-17
6525.34333 1.21653e-17
6526.80683 1.18505e-17
6528.28036 1.16625e-17
6529.75389 1.13752e-17
6531.21739 1.15977e-17
6532.69092 1.11582e-17
6534.16445 1.07164e-17
6535.62795 1.10851e-17
6537.10148 1.08430e-17
6538.56498 1.05970e-17
6540.03851 1.01166e-17
6541.51204 9.82642e-18
6542.97554 1.00587e-17
6544.44907 9.66914e-18
6545.92260 9.67540e-18
6547.38610 9.63828e-18
6548.85963 9.72249e-18
6550.33316 9.80670e-18
6551.79666 9.89091e-18
6553.27019 9.97515e-18
6554.74372 1.00594e-17
6556.20722 1.01436e-17
6557.68075 1.02278e-17
6559.15428 1.03120e-17
6560.61778 1.03962e-17
6562.09131 1.04804e-17
6563.55482 1.05646e-17
6565.02834 1.06487e-17
6566.50187 1.07330e-17
6567.96538 1.08172e-17
6569.43890 1.09013e-17
6570.91243 1.09855e-17
6572.37594 1.10697e-17
6573.84946 1.11539e-17
6575.32299 1.12380e-17
6576.78650 1.13222e-17
6578.26002 1.14063e-17
6579.73355 1.14905e-17
6581.19706 1.15747e-17
6582.67058 1.16589e-17
6584.14411 1.17430e-17
6585.60762 1.18271e-17
6587.08114 1.19113e-17
6588.54465 1.19955e-17
6590.01818 1.20796e-17
6591.49170 1.21638e-17
6592.95521 1.22479e-17
6594.42874 1.23320e-17
6595.90226 1.24161e-17
6597.36577 1.25003e-17
6598.83930 1.25844e-17
6600.31282 1.26685e-17
6601.77633 1.27526e-17
6603.24986 1.28368e-17
6604.72338 1.29209e-17
6606.18689 1.30050e-17
6607.66042 1.30891e-17
6609.13394 1.31732e-17
6610.59745 1.34247e-17
6612.07098 1.32768e-17
6613.54450 1.33066e-17
6615.00801 1.39705e-17
6616.48154 1.43579e-17
6617.94504 1.39072e-17
6619.41857 1.42967e-17
6620.89210 1.43428e-17
6622.35560 1.43652e-17
6623.82913 1.44158e-17
6625.30266 1.46546e-17
6626.76616 1.47469e-17
6628.23969 1.51814e-17
6629.71322 1.52342e-17
6631.17672 1.48775e-17
6632.65025 1.54614e-17
6634.12378 1.58153e-17
6635.58728 1.58204e-17
6637.06081 1.57277e-17
6638.53434 1.56928e-17
6639.99784 1.59882e-17
6641.47137 1.60062e-17
6642.93487 1.64364e-17
6644.40840 1.70156e-17
6645.88193 1.67429e-17
6647.34543 1.63760e-17
6648.81896 1.69317e-17
6650.29249 1.71325e-17
6651.75599 1.69995e-17
6653.22952 1.70717e-17
6654.70305 1.69448e-17
6656.16655 1.72762e-17
6657.64008 1.72746e-17
6659.11361 1.71069e-17
6660.57711 1.76448e-17
6662.05064 1.75769e-17
6663.52417 1.72824e-17
6664.98767 1.72707e-17
6666.46120 1.77339e-17
6667.93473 1.75183e-17
6669.39823 1.71460e-17
6670.87176 1.72628e-17
6672.33526 1.74149e-17
6673.80879 1.75654e-17
6675.28232 1.80294e-17
6676.74582 1.75498e-17
6678.21935 1.74352e-17
6679.69288 1.83100e-17
6681.15638 1.82563e-17
6682.62991 1.81398e-17
6684.10344 1.83701e-17
6685.56694 1.85196e-17
6687.04047 1.84519e-17
6688.51400 1.78083e-17
6689.97750 1.77336e-17
6691.45103 1.81933e-17
6692.92456 1.83650e-17
6694.38806 1.83714e-17
6695.86159 1.85602e-17
6697.32510 1.85672e-17
6698.79862 1.83320e-17
6700.27215 1.82663e-17
6701.73566 1.85054e-17
6703.20918 1.88377e-17
6704.68271 1.85877e-17
6706.14622 1.84115e-17
6707.61974 1.82739e-17
6709.09327 1.87378e-17
6710.55678 1.87393e-17
6712.03030 1.78917e-17
6713.50383 1.81075e-17
6714.96734 1.83084e-17
6716.44086 1.76637e-17
6717.91439 1.76213e-17
6719.37790 1.75380e-17
6720.85142 1.79045e-17
6722.31493 1.80358e-17
6723.78846 1.74296e-17
6725.26198 1.74633e-17
6726.72549 1.74390e-17
6728.19902 1.71786e-17
6729.67254 1.69831e-17
6731.13605 1.75429e-17
6732.60958 1.78906e-17
6734.08310 1.71542e-17
6735.54661 1.64283e-17
6737.02014 1.63239e-17
6738.49366 1.66355e-17
6739.95717 1.67007e-17
6741.43070 1.61300e-17
6742.90422 1.62984e-17
6744.36773 1.63417e-17
6745.84126 1.58393e-17
6747.30476 1.56624e-17
6748.77829 1.57287e-17
6750.25182 1.63883e-17
6751.71532 1.59620e-17
6753.18885 1.51235e-17
6754.66238 1.50607e-17
6756.12588 1.50492e-17
6757.59941 1.49656e-17
6759.07294 1.53057e-17
6760.53644 1.52826e-17
6762.00997 1.49899e-17
6763.48350 1.52793e-17
6764.94700 1.47851e-17
6766.42053 1.50029e-17
6767.89406 1.46854e-17
6769.35756 1.44240e-17
6770.83109 1.43987e-17
6772.29459 1.41402e-17
6773.76812 1.38363e-17
6775.24165 1.38630e-17
6776.70515 1.38509e-17
6778.17868 1.32448e-17
6779.65221 1.31330e-17
6781.11571 1.34773e-17
6782.58924 1.31468e-17
6784.06277 1.30600e-17
6785.52627 1.29816e-17
6786.99980 1.27018e-17
6788.47333 1.23813e-17
6789.93683 1.25065e-17
6791.41036 1.24406e-17
6792.88389 1.29570e-17
6794.34739 1.31300e-17
6795.82092 1.22584e-17
6797.29445 1.19908e-17
6798.75795 1.19664e-17
6800.23148 1.16865e-17
6801.70501 1.19350e-17
6803.16851 1.21996e-17
6804.64204 1.26230e-17
6806.10554 1.19814e-17
6807.57907 1.16484e-17
6809.05260 1.14301e-17
6810.51610 1.15981e-17
6811.98963 1.14271e-17
6813.46316 1.09934e-17
6814.92666 1.14649e-17
6816.40019 1.15831e-17
6817.87372 1.12946e-17
6819.33722 1.11742e-17
6820.81075 1.07623e-17
6822.28428 1.07834e-17
6823.74778 1.10548e-17
6825.22131 1.09443e-17
6826.68482 1.08599e-17
6828.15834 1.06769e-17
6829.63187 1.06388e-17
6831.09538 1.08349e-17
6832.56890 1.07703e-17
6834.04243 1.09509e-17
6835.50594 1.06470e-17
6836.97946 1.04127e-17
6838.45299 1.03722e-17
6839.91650 1.04297e-17
6841.39002 1.04812e-17
6842.86355 9.99973e-18
6844.32706 1.02553e-17
6845.80058 1.00826e-17
6847.27411 9.90013e-18
6848.73762 1.02463e-17
6850.21114 1.02627e-17
6851.68467 1.00455e-17
6853.14818 9.80378e-18
6854.62170 1.01158e-17
6856.08521 9.90769e-18
6857.55874 9.94275e-18
6859.03226 1.02361e-17
6860.49577 1.01939e-17
6861.96930 1.00342e-17
6863.44282 9.62798e-18
6864.90633 9.49083e-18
6866.37986 9.00489e-18
6867.85338 9.07605e-18
6869.31689 8.89537e-18
6870.79042 9.10112e-18
6872.26394 9.75154e-18
6873.72745 9.26954e-18
6875.20098 9.08309e-18
6876.67450 9.19028e-18
6878.13801 8.88178e-18
6879.61154 9.06462e-18
6881.07504 9.28058e-18
6882.54857 9.11249e-18
6884.02210 8.86314e-18
6885.48560 8.48849e-18
6886.95913 8.68296e-18
6888.43266 8.49426e-18
6889.89616 8.49096e-18
6891.36969 8.63862e-18
6892.84322 8.43977e-18
6894.30672 8.27819e-18
6895.78025 7.97165e-18
6897.25378 7.66062e-18
6898.71728 8.09597e-18
6900.19081 8.31587e-18
6901.66434 7.97087e-18
6903.12784 8.07472e-18
6904.60137 8.09274e-18
6906.06487 7.70204e-18
6907.53840 7.67287e-18
6909.01193 7.43376e-18
6910.47543 7.14137e-18
6911.94896 7.41496e-18
6913.42249 7.41140e-18
6914.88599 7.37463e-18
6916.35952 7.42035e-18
6917.83305 7.11173e-18
6919.29655 6.79402e-18
6920.77008 6.92923e-18
6922.24361 6.96596e-18
6923.70711 6.79503e-18
6925.18064 6.64919e-18
6926.65417 6.64402e-18
6928.11767 6.53904e-18
6929.59120 6.24687e-18
6931.05470 6.21257e-18
6932.52823 6.55951e-18
6934.00176 6.61492e-18
6935.46526 6.55800e-18
6936.93879 6.82159e-18
6938.41232 6.99216e-18
6939.87582 7.17356e-18
6941.34935 7.19859e-18
6942.82288 7.01271e-18
6944.28638 6.97828e-18
6945.75991 6.91568e-18
6947.23344 7.02378e-18
6948.69694 7.51078e-18
6950.17047 7.73808e-18
6951.64400 7.62590e-18
6953.10750 7.67312e-18
6954.58103 8.03972e-18
6956.05456 8.06166e-18
6957.51806 8.08893e-18
6958.99159 8.68652e-18
6960.45510 9.12600e-18
6961.92862 9.16524e-18
6963.40215 9.28989e-18
6964.86566 9.58144e-18
6966.33918 9.72725e-18
6967.81271 1.02407e-17
6969.27622 1.03226e-17
6970.74974 1.01503e-17
6972.22327 1.08143e-17
6973.68678 1.12460e-17
6975.16030 1.11488e-17
6976.63383 1.15450e-17
6978.09734 1.20137e-17
6979.57086 1.23631e-17
6981.04439 1.24266e-17
6982.50790 1.26273e-17
6983.98142 1.29862e-17
6985.45495 1.35260e-17
6986.91846 1.39840e-17
6988.39198 1.38287e-17
6989.85549 1.41339e-17
6991.32902 1.48025e-17
6992.80254 1.41633e-17
6994.26605 1.45208e-17
6995.73958 1.52542e-17
6997.21310 1.53692e-17
6998.67661 1.52775e-17
7000.15014 1.58567e-17
7001.62366 1.61267e-17
7003.08717 1.64032e-17
7004.56070 1.69328e-17
7006.03422 1.66120e-17
7007.49773 1.67931e-17
7008.97126 1.71448e-17
7010.43476 1.75819e-17
7011.90829 1.78958e-17
7013.38182 1.78393e-17
7014.84532 1.84972e-17
7016.31885 1.84038e-17
7017.79238 1.81873e-17
7019.25588 1.84476e-17
7020.72941 1.93145e-17
7022.20294 1.92726e-17
7023.66644 1.88429e-17
7025.13997 1.93502e-17
7026.61350 1.92170e-17
7028.07700 1.88535e-17
7029.55053 1.91705e-17
7031.02406 1.89459e-17
7032.48756 1.90130e-17
7033.96109 1.95810e-17
7035.43462 1.93759e-17
7036.89812 1.97309e-17
7038.37165 2.00784e-17
7039.83515 2.03185e-17
7041.30868 2.04410e-17
7042.78221 1.97389e-17
7044.24571 1.95833e-17
7045.71924 2.02230e-17
7047.19277 2.00703e-17
7048.65627 2.01075e-17
7050.12980 1.97662e-17
7051.60333 1.99580e-17
7053.06683 2.03572e-17
7054.54036 2.06306e-17
7056.01389 2.06690e-17
7057.47739 2.07392e-17
7058.95092 2.05274e-17
7060.42445 2.10286e-17
7061.88795 2.17473e-17
7063.36148 2.20426e-17
7064.83501 2.21024e-17
7066.29851 2.27388e-17
7067.77204 2.33443e-17
7069.23554 2.34076e-17
7070.70907 2.30528e-17
7072.18260 2.27345e-17
7073.64610 2.19828e-17
7075.11963 2.15078e-17
7076.59316 2.22462e-17
7078.05666 2.25170e-17
7079.53019 2.25205e-17
7081.00372 2.27053e-17
7082.46722 2.25738e-17
7083.94075 2.20850e-17
7085.41428 2.24044e-17
7086.87778 2.26843e-17
7088.35131 2.24221e-17
7089.81482 2.18415e-17
7091.28834 2.22653e-17
7092.76187 2.25794e-17
7094.22538 2.27077e-17
7095.69890 2.29747e-17
7097.17243 2.26819e-17
7098.63594 2.21207e-17
7100.10946 2.22407e-17
7101.58299 2.24983e-17
7103.04650 2.20189e-17
7104.52002 2.15079e-17
7105.99355 2.12026e-17
7107.45706 2.13323e-17
7108.93058 2.15155e-17
7110.40411 2.11725e-17
7111.86762 2.10076e-17
7113.34114 2.06787e-17
7114.80465 2.11639e-17
7116.27818 2.13345e-17
7117.75170 2.02298e-17
7119.21521 2.05710e-17
7120.68874 2.06761e-17
7122.16226 2.01504e-17
7123.62577 2.02450e-17
7125.09930 2.02344e-17
7126.57282 1.99266e-17
7128.03633 1.96945e-17
7129.50986 1.94420e-17
7130.98338 1.94155e-17
7132.44689 1.90170e-17
7133.92042 1.82983e-17
7135.39394 1.88621e-17
7136.85745 1.87359e-17
7138.33098 1.74330e-17
7139.80450 1.74106e-17
7141.26801 1.76746e-17
7142.74154 1.73774e-17
7144.20504 1.75728e-17
7145.67857 1.71699e-17
7147.15210 1.66369e-17
7148.61560 1.65107e-17
7150.08913 1.65550e-17
7151.56266 1.67009e-17
7153.02616 1.64495e-17
7154.49969 1.60769e-17
7155.97322 1.62784e-17
7157.43672 1.63810e-17
7158.91025 1.61083e-17
7160.38378 1.61214e-17
7161.84728 1.59308e-17
7163.32081 1.56394e-17
7164.79434 1.55970e-17
7166.25784 1.58856e-17
7167.73137 1.59039e-17
7169.20490 1.50444e-17
7170.66840 1.45844e-17
7172.14193 1.50476e-17
7173.60543 1.52964e-17
7175.07896 1.51328e-17
7176.55249 1.49315e-17
7178.01599 1.49133e-17
7179.48952 1.46048e-17
7180.96305 1.47937e-17
7182.42655 1.53961e-17
7183.90008 1.52135e-17
7185.37361 1.49324e-17
7186.83711 1.50977e-17
7188.31064 1.48868e-17
7189.78417 1.47360e-17
7191.24767 1.45938e-17
7192.72120 1.46820e-17
7194.18470 1.48942e-17
7195.65823 1.47251e-17
7197.13176 1.47621e-17
7198.59526 1.48455e-17
7200.06879 1.50642e-17
7201.54232 1.53041e-17
7203.00582 1.52824e-17
7204.47935 1.54203e-17
7205.95288 1.52135e-17
7207.41638 1.51358e-17
7208.88991 1.55374e-17
7210.36344 1.52760e-17
7211.82694 1.50991e-17
7213.30047 1.55248e-17
7214.77400 1.61181e-17
7216.23750 1.63904e-17
7217.71103 1.57031e-17
7219.18456 1.51945e-17
7220.64806 1.52520e-17
7222.12159 1.55560e-17
7223.58510 1.58324e-17
7225.05862 1.57710e-17
7226.53215 1.59540e-17
7227.99566 1.63873e-17
7229.46918 1.64960e-17
7230.94271 1.62981e-17
7232.40622 1.63869e-17
7233.87974 1.71357e-17
7235.35327 1.73623e-17
7236.81678 1.71212e-17
7238.29030 1.74674e-17
7239.76383 1.78620e-17
7241.22734 1.80555e-17
7242.70086 1.81124e-17
7244.17439 1.78423e-17
7245.63790 1.79431e-17
7247.11142 1.81614e-17
7248.57493 1.78819e-17
7250.04846 1.77966e-17
7251.52198 1.83133e-17
7252.98549 1.86180e-17
7254.45902 1.84947e-17
7255.93254 1.82748e-17
7257.39605 1.79949e-17
7258.86958 1.80132e-17
7260.34310 1.80953e-17
7261.80661 1.81203e-17
7263.28014 1.83253e-17
7264.75366 1.85512e-17
7266.21717 1.84169e-17
7267.69070 1.82935e-17
7269.16422 1.83734e-17
7270.62773 1.82991e-17
7272.10126 1.85029e-17
7273.56476 1.89744e-17
7275.03829 1.90827e-17
7276.51182 1.91031e-17
7277.97532 1.94079e-17
7279.44885 1.98469e-17
7280.92238 1.97667e-17
7282.38588 1.97341e-17
7283.85941 2.00098e-17
7285.33294 1.97301e-17
7286.79644 1.97076e-17
7288.26997 1.99568e-17
7289.74350 2.01263e-17
7291.20700 2.04005e-17
7292.68053 2.03977e-17
7294.15406 1.99446e-17
7295.61756 1.98065e-17
7297.09109 1.98822e-17
7298.55459 1.92753e-17
7300.02812 1.90908e-17
7301.50165 1.98202e-17
7302.96515 2.02002e-17
7304.43868 2.00656e-17
7305.91221 2.00074e-17
7307.37571 2.00979e-17
7308.84924 2.01650e-17
7310.32277 2.01408e-17
7311.78627 1.99075e-17
7313.25980 2.01878e-17
7314.73333 2.05207e-17
7316.19683 2.04887e-17
7317.67036 2.06154e-17
7319.14389 2.02555e-17
7320.60739 1.98803e-17
7322.08092 1.99139e-17
7323.55445 1.95051e-17
7325.01795 1.92824e-17
7326.49148 1.96673e-17
7327.95498 1.96680e-17
7329.42851 1.95592e-17
7330.90204 1.91645e-17
7332.36554 1.89949e-17
7333.83907 1.91061e-17
7335.31260 1.88276e-17
7336.77610 1.88201e-17
7338.24963 1.91880e-17
7339.72316 1.93142e-17
7341.18666 1.92456e-17
7342.66019 1.89908e-17
7344.13372 1.88103e-17
7345.59722 1.87963e-17
7347.07075 1.87334e-17
7348.54428 1.86974e-17
7350.00778 1.87469e-17
7351.48131 1.86115e-17
7352.95484 1.85237e-17
7354.41834 1.88277e-17
7355.89187 1.89615e-17
7357.35538 1.84282e-17
7358.82890 1.79848e-17
7360.30243 1.78501e-17
7361.76594 1.77437e-17
7363.23946 1.77705e-17
7364.71299 1.76672e-17
7366.17650 1.73210e-17
7367.65002 1.70906e-17
7369.12355 1.73759e-17
7370.58706 1.76939e-17
7372.06058 1.73918e-17
7373.53411 1.68875e-17
7374.99762 1.65673e-17
7376.47114 1.65049e-17
7377.93465 1.65657e-17
7379.40818 1.61312e-17
7380.88170 1.58072e-17
7382.34521 1.59496e-17
7383.81874 1.59027e-17
7385.29226 1.56373e-17
7386.75577 1.57937e-17
7388.22930 1.61345e-17
7389.70282 1.57038e-17
7391.16633 1.52066e-17
7392.63986 1.51630e-17
7394.11338 1.49765e-17
7395.57689 1.47942e-17
7397.05042 1.50126e-17
7398.52394 1.49007e-17
7399.98745 1.46118e-17
7401.46098 1.45757e-17
7402.93450 1.44664e-17
7404.39801 1.41851e-17
7405.87154 1.37505e-17
7407.33504 1.37507e-17
7408.80857 1.38634e-17
7410.28210 1.38818e-17
7411.74560 1.38486e-17
7413.21913 1.35434e-17
7414.69266 1.34695e-17
7416.15616 1.31734e-17
7417.62969 1.30901e-17
7419.10322 1.32365e-17
7420.56672 1.34453e-17
7422.04025 1.36565e-17
7423.51378 1.30509e-17
7424.97728 1.30260e-17
7426.45081 1.30824e-17
7427.92434 1.26882e-17
7429.38784 1.29129e-17
7430.86137 1.28186e-17
7432.32487 1.27507e-17
7433.79840 1.28455e-17
7435.27193 1.25285e-17
7436.73543 1.24673e-17
7438.20896 1.27463e-17
7439.68249 1.27056e-17
7441.14599 1.24498e-17
7442.61952 1.25786e-17
7444.09305 1.24798e-17
7445.55655 1.21623e-17
7447.03008 1.20692e-17
7448.50361 1.20764e-17
7449.96711 1.20390e-17
7451.44064 1.19528e-17
7452.91417 1.19151e-17
7454.37767 1.19229e-17
7455.85120 1.21951e-17
7457.31470 1.23015e-17
7458.78823 1.19458e-17
7460.26176 1.20786e-17
7461.72526 1.23203e-17
7463.19879 1.20554e-17
7464.67232 1.17616e-17
7466.13582 1.18679e-17
7467.60935 1.20180e-17
7469.08288 1.20216e-17
7470.54638 1.17082e-17
7472.01991 1.14746e-17
7473.49344 1.16520e-17
7474.95694 1.17042e-17
7476.43047 1.16038e-17
7477.90400 1.13012e-17
7479.36750 1.11611e-17
7480.84103 1.13458e-17
7482.31456 1.11412e-17
7483.77806 1.08530e-17
7485.25159 1.10308e-17
7486.71510 1.12527e-17
7488.18862 1.10023e-17
7489.66215 1.04180e-17
7491.12566 1.02377e-17
7492.59918 1.03705e-17
7494.07271 1.05905e-17
7495.53622 1.08730e-17
7497.00974 1.10067e-17
7498.48327 1.09773e-17
7499.94678 1.08983e-17
7501.42030 1.07919e-17
7502.89383 1.06919e-17
7504.35734 1.06174e-17
7505.83086 1.05234e-17
7507.30439 1.04916e-17
7508.76790 1.05392e-17
7510.24142 1.05788e-17
7511.70493 1.07214e-17
7513.17846 1.07408e-17
7514.65198 1.05839e-17
7516.11549 1.03961e-17
7517.58902 1.05852e-17
7519.06254 1.07685e-17
7520.52605 1.03694e-17
7521.99958 9.95333e-18
7523.47310 1.00669e-17
7524.93661 1.01539e-17
7526.41014 9.94108e-18
7527.88366 9.80930e-18
7529.34717 9.96863e-18
7530.82070 9.73640e-18
7532.29422 9.51116e-18
7533.75773 9.71756e-18
7535.23126 9.71175e-18
7536.70478 9.23257e-18
7538.16829 8.63136e-18
7539.64182 8.76278e-18
7541.10532 8.99551e-18
7542.57885 8.88596e-18
7544.05238 9.00392e-18
7545.51588 8.94282e-18
7546.98941 8.83541e-18
7548.46294 8.45343e-18
7549.92644 8.26484e-18
7551.39997 8.21382e-18
7552.87350 8.25664e-18
7554.33700 8.28302e-18
7555.81053 7.90765e-18
