# wavelength flux
3575.00290 -1.72090e-18
3578.08107 2.42172e-18
3581.16941 -1.58520e-20
3584.25774 -1.19934e-18
3587.34608 4.29696e-18
3590.42426 4.30289e-18
3593.51259 -2.73639e-18
3596.60093 1.24067e-18
3599.67911 3.57850e-18
3602.76744 4.82021e-18
3605.85578 3.97458e-18
3608.94411 2.82845e-19
3612.02229 9.67887e-19
3615.11063 4.02322e-18
3618.19896 3.94902e-18
3621.28730 1.41464e-18
3624.36548 -1.01381e-18
3627.45381 -1.56480e-18
3630.54215 -1.98005e-19
3633.62032 3.44545e-19
3636.70866 1.04030e-18
3639.79700 5.08645e-18
3642.88533 6.51146e-18
3645.96351 5.85811e-18
3649.05185 2.28659e-18
3652.14018 5.71387e-19
3655.21836 -2.36223e-18
3658.30670 -2.18954e-18
3661.39503 2.16767e-18
3664.48337 1.43282e-18
3667.56154 1.06306e-18
3670.64988 3.36468e-18
3673.73822 5.42339e-18
3676.81639 4.32646e-18
3679.90473 3.88615e-18
3682.99307 1.69938e-18
3686.08140 2.10697e-18
3689.15958 1.01174e-18
3692.24791 1.58243e-18
3695.33625 2.49084e-18
3698.42459 3.03469e-18
3701.50276 4.98917e-18
3704.59110 3.91360e-18
3707.67944 5.55258e-18
3710.75761 3.59574e-18
3713.84595 1.61655e-18
3716.93428 2.61071e-18
3720.02262 3.17060e-18
3723.10080 3.54518e-18
3726.18913 2.77599e-18
3729.27747 5.42213e-18
3732.35565 5.63123e-18
3735.44398 2.26763e-18
3738.53232 3.10007e-18
3741.62065 4.72614e-18
3744.69883 4.41782e-18
3747.78717 3.45642e-18
3750.87550 2.42981e-18
3753.95368 1.46705e-18
3757.04202 1.94084e-18
3760.13035 2.99999e-18
3763.21869 3.54201e-18
3766.29686 2.60811e-18
3769.38520 2.61388e-18
3772.47354 2.61965e-18
3775.56187 2.62542e-18
3778.64005 2.63118e-18
3781.72839 2.63695e-18
3784.81672 2.64272e-18
3787.89490 2.64849e-18
3790.98324 2.65425e-18
3794.07157 2.66002e-18
3797.15991 2.66579e-18
3800.23808 2.67156e-18
3803.32642 2.67732e-18
3806.41476 2.68309e-18
3809.49293 2.20434e-18
3812.58127 2.11265e-18
3815.66961 3.06440e-18
3818.75794 2.54393e-18
3821.83612 1.22987e-18
3824.92445 2.41154e-18
3828.01279 3.28570e-18
3831.10113 1.37961e-18
3834.17930 9.39862e-19
3837.26764 2.28292e-18
3840.35597 1.08591e-18
3843.43415 6.57962e-19
3846.52249 1.43253e-18
3849.61082 2.62204e-18
3852.69916 8.56095e-19
3855.77734 6.88293e-19
3858.86567 1.49045e-18
3861.95401 1.35834e-18
3865.03219 3.03206e-18
3868.12052 2.51060e-18
3871.20886 1.05446e-18
3874.29719 2.12793e-18
3877.37537 4.24290e-18
3880.46371 3.78082e-18
3883.55204 3.58604e-18
3886.63022 2.43897e-18
3889.71856 3.34285e-18
3892.80689 2.91659e-18
3895.89523 2.71234e-18
3898.97340 2.80921e-18
3902.06174 2.82590e-18
3905.15008 4.65564e-18
3908.23841 5.04560e-18
3911.31659 4.08998e-18
3914.40493 3.08926e-18
3917.49326 3.71409e-18
3920.57144 2.92984e-18
3923.65978 5.01358e-18
3926.74811 5.37242e-18
3929.83645 4.86939e-18
3932.91462 3.84721e-18
3936.00296 3.43330e-18
3939.09130 4.14200e-18
3942.16947 4.46494e-18
3945.25781 3.46899e-18
3948.34615 3.53418e-18
3951.43448 3.69338e-18
3954.51266 4.28053e-18
3957.60099 3.89875e-18
3960.68933 3.43648e-18
3963.76751 4.59401e-18
3966.85584 4.20450e-18
3969.94418 3.74815e-18
3973.03251 4.38236e-18
3976.11069 5.26826e-18
3979.19903 3.41897e-18
3982.28736 3.24243e-18
3985.37570 3.35723e-18
3988.45388 4.82673e-18
3991.54221 5.21609e-18
3994.63055 4.77088e-18
3997.70873 5.81127e-18
4000.79706 5.98549e-18
4003.88540 5.74266e-18
4006.97373 3.91222e-18
4010.05191 4.13025e-18
4013.14025 5.59553e-18
4016.22858 5.80126e-18
4019.30676 5.50259e-18
4022.39510 4.90092e-18
4025.48343 5.24049e-18
4028.57177 5.73961e-18
4031.64995 4.97600e-18
4034.73828 4.65625e-18
4037.82662 4.57042e-18
4040.91495 4.62267e-18
4043.99313 3.99727e-18
4047.08147 5.04663e-18
4050.16980 5.71115e-18
4053.24798 5.84913e-18
4056.33632 6.22775e-18
4059.42465 6.28263e-18
4062.51299 5.23193e-18
4065.59116 4.24983e-18
4068.67950 4.14543e-18
4071.76784 4.63228e-18
4074.84601 4.83892e-18
4077.93435 4.29776e-18
4081.02269 4.20265e-18
4084.11102 4.44263e-18
4087.18920 4.78335e-18
4090.27753 5.22021e-18
4093.36587 4.84435e-18
4096.44405 4.10946e-18
4099.53238 4.62992e-18
4102.62072 4.57492e-18
4105.70906 5.79447e-18
4108.78723 4.74135e-18
4111.87557 4.37298e-18
4114.96390 4.64572e-18
4118.05224 5.00720e-18
4121.13042 5.16629e-18
4124.21875 3.74371e-18
4127.30709 4.48177e-18
4130.38527 4.84985e-18
4133.47360 4.62272e-18
4136.56194 4.19913e-18
4139.65027 4.03168e-18
4142.72845 3.83405e-18
4145.81679 3.77868e-18
4148.90512 4.07263e-18
4151.98330 3.75361e-18
4155.07164 3.99808e-18
4158.15997 5.52981e-18
4161.24831 5.32623e-18
4164.32648 4.87769e-18
4167.41482 3.41677e-18
4170.50316 4.05896e-18
4173.58133 4.37883e-18
4176.66967 3.24207e-18
4179.75801 3.69184e-18
4182.84634 4.88532e-18
4185.92452 4.52145e-18
4189.01285 4.05847e-18
4192.10119 4.41608e-18
4195.17937 4.09438e-18
4198.26770 3.46404e-18
4201.35604 3.42894e-18
4204.44438 3.34648e-18
4207.52255 2.55814e-18
4210.61089 3.58704e-18
4213.69923 4.95602e-18
4216.78756 5.64974e-18
4219.86574 4.69135e-18
4222.95407 3.63262e-18
4226.04241 4.41532e-18
4229.12059 5.03493e-18
4232.20892 4.76628e-18
4235.29726 3.84446e-18
4238.38560 2.84830e-18
4241.46377 3.49111e-18
4244.55211 4.25048e-18
4247.64044 4.30558e-18
4250.71862 3.88960e-18
4253.80696 3.65901e-18
4256.89529 4.44872e-18
4259.98363 4.22497e-18
4263.06181 4.30299e-18
4266.15014 5.25520e-18
4269.23848 4.85953e-18
4272.32681 3.64977e-18
4275.40499 3.31432e-18
4278.49333 4.66930e-18
4281.58166 4.67866e-18
4284.65984 4.32617e-18
4287.74818 3.82734e-18
4290.83651 3.73494e-18
4293.92485 2.84448e-18
4297.00302 4.19705e-18
4300.09136 5.18620e-18
4303.17970 5.09514e-18
4306.25787 4.61121e-18
4309.34621 4.59216e-18
4312.43455 4.91167e-18
4315.52288 3.67734e-18
4318.60106 4.03117e-18
4321.68940 3.95743e-18
4324.77773 4.46200e-18
4327.85591 4.84505e-18
4330.94424 4.74162e-18
4334.03258 4.12187e-18
4337.12092 3.11246e-18
4340.19909 3.88992e-18
4343.28743 4.45719e-18
4346.37577 4.26729e-18
4349.46410 5.00001e-18
4352.54228 4.58424e-18
4355.63061 4.32877e-18
4358.71895 5.12206e-18
4361.79713 5.19522e-18
4364.88546 4.57137e-18
4367.97380 4.18146e-18
4371.06214 4.67119e-18
4374.14031 4.46031e-18
4377.22865 4.09036e-18
4380.31698 4.07574e-18
4383.39516 3.83529e-18
4386.48350 3.55983e-18
4389.57183 3.60490e-18
4392.66017 4.25143e-18
4395.73835 4.70201e-18
4398.82668 3.52377e-18
4401.91502 3.60842e-18
4405.00335 3.38344e-18
4408.08153 4.41845e-18
4411.16987 4.37229e-18
4414.25820 4.14495e-18
4417.33638 4.19439e-18
4420.42472 4.24384e-18
4423.51305 4.29327e-18
4426.60139 4.34270e-18
4429.67957 4.39212e-18
4432.76790 4.44153e-18
4435.85624 4.49095e-18
4438.93441 4.54036e-18
4442.02275 4.58976e-18
4445.11109 4.63915e-18
4448.19942 4.68854e-18
4451.27760 4.73793e-18
4454.36593 4.74626e-18
4457.45427 4.20242e-18
4460.53245 4.41397e-18
4463.62078 4.62717e-18
4466.70912 4.53728e-18
4469.79746 4.26515e-18
4472.87563 4.28382e-18
4475.96397 4.23808e-18
4479.05231 3.69570e-18
4482.14064 3.67045e-18
4485.21882 4.10549e-18
4488.30715 3.89252e-18
4491.39549 4.57507e-18
4494.47367 4.45600e-18
4497.56200 4.07503e-18
4500.65034 4.68682e-18
4503.73868 4.34713e-18
4506.81685 4.17261e-18
4509.90519 4.49724e-18
4512.99352 4.75505e-18
4516.07170 4.63590e-18
4519.16004 5.28811e-18
4522.24837 5.20867e-18
4525.33671 5.28318e-18
4528.41489 4.52497e-18
4531.50322 5.10777e-18
4534.59156 5.74185e-18
4537.66973 5.51381e-18
4540.75807 5.08426e-18
4543.84641 5.61727e-18
4546.93474 5.81252e-18
4550.01292 6.17487e-18
4553.10126 6.98063e-18
4556.18959 6.88639e-18
4559.27793 5.95109e-18
4562.35610 5.97885e-18
4565.44444 7.13671e-18
4568.53278 7.30260e-18
4571.61095 6.92399e-18
4574.69929 6.30215e-18
4577.78763 6.42903e-18
4580.87596 7.58290e-18
4583.95414 7.77845e-18
4587.04248 7.65092e-18
4590.13081 7.82529e-18
4593.20899 7.77463e-18
4596.29732 7.63411e-18
4599.38566 7.29766e-18
4602.47400 7.52276e-18
4605.55217 7.77595e-18
4608.64051 7.85156e-18
4611.72885 7.97363e-18
4614.80702 8.15215e-18
4617.89536 8.48935e-18
4620.98369 7.65601e-18
4624.07203 7.66222e-18
4627.15021 7.65021e-18
4630.23854 7.49263e-18
4633.32688 7.56649e-18
4636.41522 7.35671e-18
4639.49339 7.89034e-18
4642.58173 7.80273e-18
4645.67006 8.57066e-18
4648.74824 8.40978e-18
4651.83658 7.72092e-18
4654.92491 8.01868e-18
4658.01325 8.20859e-18
4661.09143 7.68913e-18
4664.17976 7.65398e-18
4667.26810 8.16023e-18
4670.34627 8.24692e-18
4673.43461 7.29205e-18
4676.52295 7.56699e-18
4679.61128 8.43875e-18
4682.68946 7.98582e-18
4685.77780 8.01566e-18
4688.86613 7.67381e-18
4691.94431 7.43240e-18
4695.03265 7.39944e-18
4698.12098 7.54636e-18
4701.20932 6.95025e-18
4704.28749 7.02953e-18
4707.37583 7.65412e-18
4710.46417 7.27900e-18
4713.55250 6.63966e-18
4716.63068 6.35099e-18
4719.71902 6.31400e-18
4722.80735 6.53285e-18
4725.88553 6.00282e-18
4728.97386 5.42551e-18
4732.06220 6.00997e-18
4735.15054 6.72914e-18
4738.22871 6.48727e-18
4741.31705 6.09934e-18
4744.40539 5.98948e-18
4747.48356 6.29441e-18
4750.57190 6.15936e-18
4753.66023 6.19138e-18
4756.74857 6.26861e-18
4759.82675 6.46758e-18
4762.91508 5.88223e-18
4766.00342 5.57815e-18
4769.09176 6.15499e-18
4772.16993 6.36837e-18
4775.25827 5.91538e-18
4778.34660 5.35815e-18
4781.42478 5.36730e-18
4784.51312 5.72488e-18
4787.60145 5.92790e-18
4790.68979 5.99641e-18
4793.76797 5.57944e-18
4796.85630 5.78086e-18
4799.94464 5.94767e-18
4803.02282 5.51571e-18
4806.11115 5.46910e-18
4809.19949 5.70195e-18
4812.28782 5.49792e-18
4815.36600 5.81460e-18
4818.45434 5.66908e-18
4821.54267 5.39121e-18
4824.62085 5.84076e-18
4827.70918 6.38028e-18
4830.79752 6.52052e-18
4833.88586 6.15393e-18
4836.96403 5.86567e-18
4840.05237 5.60494e-18
4843.14071 5.82191e-18
4846.22904 6.35983e-18
4849.30722 6.31209e-18
4852.39556 5.94914e-18
4855.48389 6.15467e-18
4858.56207 6.05385e-18
4861.65040 6.19217e-18
4864.73874 6.24306e-18
4867.82708 5.47087e-18
4870.90525 5.56940e-18
4873.99359 5.43177e-18
4877.08193 5.18292e-18
4880.16010 5.98648e-18
4883.24844 5.58903e-18
4886.33677 5.41282e-18
4889.42511 5.99345e-18
4892.50329 6.03183e-18
4895.59162 6.32779e-18
4898.67996 6.63903e-18
4901.75814 6.33862e-18
4904.84647 6.31213e-18
4907.93481 6.43390e-18
4911.02314 6.51413e-18
4914.10132 5.99392e-18
4917.18966 5.81972e-18
4920.27799 6.36040e-18
4923.36633 6.43787e-18
4926.44451 6.51533e-18
4929.53284 6.59278e-18
4932.62118 6.67022e-18
4935.69935 6.74765e-18
4938.78769 6.82508e-18
4941.87603 6.90250e-18
4944.96436 6.97990e-18
4948.04254 7.05730e-18
4951.13088 7.13471e-18
4954.21921 7.21210e-18
4957.29739 7.28947e-18
4960.38573 7.07955e-18
4963.47406 6.84691e-18
4966.56240 6.77481e-18
4969.64057 7.58434e-18
4972.72891 7.88804e-18
4975.81725 7.48295e-18
4978.89542 7.62025e-18
4981.98376 7.56030e-18
4985.07210 8.00076e-18
4988.16043 7.77548e-18
4991.23861 7.08797e-18
4994.32694 7.09753e-18
4997.41528 7.16209e-18
5000.50362 6.84805e-18
5003.58179 6.38848e-18
5006.67013 6.24163e-18
5009.75847 6.34479e-18
5012.83664 6.69898e-18
5015.92498 6.44531e-18
5019.01331 6.69388e-18
5022.10165 6.65864e-18
5025.17983 6.62339e-18
5028.26816 6.58816e-18
5031.35650 6.55292e-18
5034.43468 6.51769e-18
5037.52301 6.48247e-18
5040.61135 6.44724e-18
5043.69968 6.41203e-18
5046.77786 6.37681e-18
5049.86620 6.34159e-18
5052.95453 6.30639e-18
5056.04287 6.27119e-18
5059.12105 6.42342e-18
5062.20938 5.54603e-18
5065.29772 5.18939e-18
5068.37590 5.17305e-18
5071.46423 5.15671e-18
5074.55257 5.14038e-18
5077.64090 5.12404e-18
5080.71908 5.10771e-18
5083.80742 5.09137e-18
5086.89575 5.07505e-18
5089.97393 5.05872e-18
5093.06227 5.04240e-18
5096.15060 5.02608e-18
5099.23894 5.00976e-18
5102.31711 4.99344e-18
5105.40545 4.97712e-18
5108.49379 5.14118e-18
5111.57196 5.26259e-18
5114.66030 6.05938e-18
5117.74863 5.84610e-18
5120.83697 5.85667e-18
5123.91515 6.34551e-18
5127.00348 5.79193e-18
5130.09182 5.19865e-18
5133.17000 5.87546e-18
5136.25833 6.26001e-18
5139.34667 5.77331e-18
5142.43501 5.76204e-18
5145.51318 5.89541e-18
5148.60152 6.20937e-18
5151.68985 6.30174e-18
5154.77819 6.30000e-18
5157.85637 5.81828e-18
5160.94470 5.74498e-18
5164.03304 5.69812e-18
5167.11122 5.53328e-18
5170.19955 5.96721e-18
5173.28789 6.14475e-18
5176.37622 5.93206e-18
5179.45440 5.57454e-18
5182.54274 6.17929e-18
5185.63107 6.60485e-18
5188.70925 6.21175e-18
5191.79759 6.08559e-18
5194.88592 6.17617e-18
5197.97426 6.39647e-18
5201.05243 6.70202e-18
5204.14077 6.64192e-18
5207.22911 6.64828e-18
5210.31744 6.76751e-18
5213.39562 6.81733e-18
5216.48396 7.11582e-18
5219.57229 7.20641e-18
5222.65047 6.91718e-18
5225.73880 6.74374e-18
5228.82714 7.07740e-18
5231.91548 7.48948e-18
5234.99365 7.29292e-18
5238.08199 7.43077e-18
5241.17033 7.53201e-18
5244.24850 7.45186e-18
5247.33684 7.51039e-18
5250.42518 7.76479e-18
5253.51351 8.03567e-18
5256.59169 7.92059e-18
5259.68002 7.89070e-18
5262.76836 7.70840e-18
5265.85670 8.04436e-18
5268.93487 8.22903e-18
5272.02321 8.38917e-18
5275.11155 8.13124e-18
5278.18972 7.89288e-18
5281.27806 8.11195e-18
5284.36639 8.75324e-18
5287.45473 8.63178e-18
5290.53291 8.44514e-18
5293.62124 8.61019e-18
5296.70958 8.50111e-18
5299.78776 8.90295e-18
5302.87609 9.21965e-18
5305.96443 8.68585e-18
5309.05276 8.95614e-18
5312.13094 9.21698e-18
5315.21928 9.23043e-18
5318.30761 9.29759e-18
5321.38579 9.23528e-18
5324.47413 9.05625e-18
5327.56246 9.19893e-18
5330.65080 9.45131e-18
5333.72897 9.65211e-18
5336.81731 9.92200e-18
5339.90565 9.67400e-18
5342.99398 9.80944e-18
5346.07216 9.92013e-18
5349.16050 9.48925e-18
5352.24883 9.89332e-18
5355.32701 9.68684e-18
5358.41535 9.39321e-18
5361.50368 9.79030e-18
5364.59202 9.73073e-18
5367.67019 1.03786e-17
5370.75853 9.96468e-18
5373.84687 1.00022e-17
5376.92504 1.06144e-17
5380.01338 1.04957e-17
5383.10172 9.89944e-18
5386.19005 1.01424e-17
5389.26823 1.00737e-17
5392.35656 1.00929e-17
5395.44490 9.39228e-18
5398.52308 9.50602e-18
5401.61141 1.04211e-17
5404.69975 1.04884e-17
5407.78809 1.00409e-17
5410.86626 1.00559e-17
5413.95460 9.94474e-18
5417.04293 1.01654e-17
5420.13127 1.01219e-17
5423.20945 1.06839e-17
5426.29778 1.08013e-17
5429.38612 1.06345e-17
5432.46430 1.04601e-17
5435.55263 1.03538e-17
5438.64097 1.05011e-17
5441.72930 1.05110e-17
5444.80748 1.05700e-17
5447.89582 1.06519e-17
5450.98415 1.05147e-17
5454.06233 1.04983e-17
5457.15067 1.06128e-17
5460.23900 1.09525e-17
5463.32734 1.12358e-17
5466.40552 1.14389e-17
5469.49385 1.17675e-17
5472.58219 1.16396e-17
5475.66036 1.15122e-17
5478.74870 1.17539e-17
5481.83704 1.15995e-17
5484.92537 1.17592e-17
5488.00355 1.14044e-17
5491.09188 1.14955e-17
5494.18022 1.15974e-17
5497.26856 1.21078e-17
5500.34673 1.21470e-17
5503.43507 1.22611e-17
5506.52341 1.25611e-17
5509.60158 1.24831e-17
5512.68992 1.28706e-17
5515.77826 1.32189e-17
5518.86659 1.31318e-17
5521.94477 1.28920e-17
5525.03310 1.28578e-17
5528.12144 1.26547e-17
5531.19962 1.30390e-17
5534.28795 1.32284e-17
5537.37629 1.36110e-17
5540.46463 1.33426e-17
5543.54280 1.33821e-17
5546.63114 1.37660e-17
5549.71947 1.36554e-17
5552.80781 1.30766e-17
5555.88599 1.30691e-17
5558.97432 1.34437e-17
5562.06266 1.34776e-17
5565.14084 1.29020e-17
5568.22917 1.25139e-17
5571.31751 1.18617e-17
5574.40584 1.18719e-17
5577.48402 1.21622e-17
5580.57236 1.18788e-17
5583.66069 1.27825e-17
5586.73887 1.27641e-17
5589.82721 1.20812e-17
5592.91554 1.24433e-17
5596.00388 1.25225e-17
5599.08205 1.20386e-17
5602.17039 1.19497e-17
5605.25873 1.22578e-17
5608.33690 1.22734e-17
5611.42524 1.25116e-17
5614.51358 1.20991e-17
5617.60191 1.22219e-17
5620.68009 1.22354e-17
5623.76843 1.19906e-17
5626.85676 1.20339e-17
5629.93494 1.19571e-17
5633.02327 1.21078e-17
5636.11161 1.22505e-17
5639.19995 1.25457e-17
5642.27812 1.26922e-17
5645.36646 1.30221e-17
5648.45480 1.29707e-17
5651.54313 1.25363e-17
5654.62131 1.26049e-17
5657.70964 1.31544e-17
5660.79798 1.32864e-17
5663.87616 1.28455e-17
5666.96449 1.31013e-17
5670.05283 1.36354e-17
5673.14117 1.33592e-17
5676.21934 1.31830e-17
5679.30768 1.32269e-17
5682.39601 1.30195e-17
5685.47419 1.30849e-17
5688.56253 1.33304e-17
5691.65086 1.35416e-17
5694.73920 1.35097e-17
5697.81738 1.32521e-17
5700.90571 1.32469e-17
5703.99405 1.36695e-17
5707.08238 1.37776e-17
5710.16056 1.32572e-17
5713.24890 1.33357e-17
5716.33723 1.36989e-17
5719.41541 1.34139e-17
5722.50375 1.28348e-17
5725.59208 1.29903e-17
5728.68042 1.35955e-17
5731.75860 1.31742e-17
5734.84693 1.27559e-17
5737.93527 1.27372e-17
5741.01344 1.24485e-17
5744.10178 1.28828e-17
5747.19012 1.30520e-17
5750.27845 1.27009e-17
5753.35663 1.26175e-17
5756.44497 1.27634e-17
5759.53330 1.24685e-17
5762.62164 1.19255e-17
5765.69981 1.19145e-17
5768.78815 1.19898e-17
5771.87649 1.18059e-17
5774.95466 1.12644e-17
5778.04300 1.08948e-17
5781.13134 1.13103e-17
5784.21967 1.13728e-17
5787.29785 1.05520e-17
5790.38618 1.02577e-17
5793.47452 1.03657e-17
5796.55270 1.03733e-17
5799.64103 1.01766e-17
5802.72937 1.03418e-17
5805.81771 1.06482e-17
5808.89588 1.02129e-17
5811.98422 1.06315e-17
5815.07255 1.01755e-17
5818.15073 1.01148e-17
5821.23907 1.05937e-17
5824.32740 1.02798e-17
5827.41574 1.02234e-17
5830.49392 1.00255e-17
5833.58225 1.07128e-17
5836.67059 1.04251e-17
5839.74877 1.05901e-17
5842.83710 1.08388e-17
5845.92544 1.04773e-17
5849.01377 1.07779e-17
5852.09195 1.06087e-17
5855.18029 1.12159e-17
5858.26862 1.12537e-17
5861.35696 1.09132e-17
5864.43513 1.07458e-17
5867.52347 1.10728e-17
5870.61181 1.13352e-17
5873.68998 1.17079e-17
5876.77832 1.14584e-17
5879.86666 1.11264e-17
5882.95499 1.07472e-17
5886.03317 1.09703e-17
5889.12151 1.11275e-17
5892.20984 1.15018e-17
5895.28802 1.17385e-17
5898.37635 1.21993e-17
5901.46469 1.26694e-17
5904.55303 1.29645e-17
5907.63120 1.26246e-17
5910.71954 1.22941e-17
5913.80788 1.25736e-17
5916.88605 1.30155e-17
5919.97439 1.29420e-17
5923.06272 1.32544e-17
5926.15106 1.34809e-17
5929.22924 1.30419e-17
5932.31757 1.30744e-17
5935.40591 1.32615e-17
5938.49425 1.36071e-17
5941.57242 1.34792e-17
5944.66076 1.31203e-17
5947.74909 1.34794e-17
5950.82727 1.35415e-17
5953.91561 1.32902e-17
5957.00394 1.36883e-17
5960.09228 1.38948e-17
5963.17046 1.35295e-17
5966.25879 1.34142e-17
5969.34713 1.35471e-17
5972.42530 1.39275e-17
5975.51364 1.39096e-17
5978.60198 1.28148e-17
5981.69031 1.19663e-17
5984.76849 1.20488e-17
5987.85683 1.18233e-17
5990.94516 1.15685e-17
5994.03350 1.22346e-17
5997.11168 1.28335e-17
6000.20001 1.28541e-17
6003.28835 1.26628e-17
6006.36652 1.27193e-17
6009.45486 1.28065e-17
6012.54320 1.28337e-17
6015.63153 1.31141e-17
6018.70971 1.27893e-17
6021.79805 1.29788e-17
6024.88638 1.20600e-17
6027.96456 1.18921e-17
6031.05289 1.26786e-17
6034.14123 1.29064e-17
6037.22957 1.23329e-17
6040.30774 1.21612e-17
6043.39608 1.21796e-17
6046.48442 1.22428e-17
6049.56259 1.20231e-17
6052.65093 1.17887e-17
6055.73926 1.26419e-17
6058.82760 1.28794e-17
6061.90578 1.31282e-17
6064.99411 1.27997e-17
6068.08245 1.26588e-17
6071.17078 1.23275e-17
6074.24896 1.17078e-17
6077.33730 1.19203e-17
6080.42563 1.22127e-17
6083.50381 1.24541e-17
6086.59215 1.21705e-17
6089.68048 1.16429e-17
6092.76882 1.15832e-17
6095.84700 1.14977e-17
6098.93533 1.16263e-17
6102.02367 1.18266e-17
6105.10185 1.17045e-17
6108.19018 1.19181e-17
6111.27852 1.18380e-17
6114.36685 1.12672e-17
6117.44503 1.14357e-17
6120.53337 1.17516e-17
6123.62170 1.18811e-17
6126.69988 1.15921e-17
6129.78822 1.16485e-17
6132.87655 1.20653e-17
6135.96489 1.23944e-17
6139.04306 1.22668e-17
6142.13140 1.17988e-17
6145.21974 1.13955e-17
6148.30807 1.11809e-17
6151.38625 1.13774e-17
6154.47458 1.14217e-17
6157.56292 1.17889e-17
6160.64110 1.18537e-17
6163.72943 1.26060e-17
6166.81777 1.22896e-17
6169.90611 1.17581e-17
6172.98428 1.18511e-17
6176.07262 1.26820e-17
6179.16096 1.23968e-17
6182.23913 1.28837e-17
6185.32747 1.33238e-17
6188.41580 1.25792e-17
6191.50414 1.30372e-17
6194.58232 1.27890e-17
6197.67065 1.28426e-17
6200.75899 1.34977e-17
6203.84732 1.31962e-17
6206.92550 1.28981e-17
6210.01384 1.31711e-17
6213.10217 1.33835e-17
6216.18035 1.30920e-17
6219.26869 1.25731e-17
6222.35702 1.27567e-17
6225.44536 1.30851e-17
6228.52354 1.30983e-17
6231.61187 1.27284e-17
6234.70021 1.16763e-17
6237.77838 1.20835e-17
6240.86672 1.25215e-17
6243.95506 1.20740e-17
6247.04339 1.22124e-17
6250.12157 1.19894e-17
6253.20991 1.19196e-17
6256.29824 1.21213e-17
6259.37642 1.15348e-17
6262.46475 1.16953e-17
6265.55309 1.20851e-17
6268.64143 1.11938e-17
6271.71960 1.12317e-17
6274.80794 1.14564e-17
6277.89628 1.16813e-17
6280.98461 1.11686e-17
6284.06279 1.09493e-17
6287.15113 1.10843e-17
6290.23946 1.10142e-17
6293.31764 1.08407e-17
6296.40597 1.17396e-17
6299.49431 1.20102e-17
6302.58265 1.15241e-17
6305.66082 1.14165e-17
6308.74916 1.18969e-17
6311.83750 1.20692e-17
6314.91567 1.14100e-17
6318.00401 1.15132e-17
6321.09234 1.23806e-17
6324.18068 1.24287e-17
6327.25886 1.19560e-17
6330.34719 1.16943e-17
6333.43553 1.15446e-17
6336.51371 1.19127e-17
6339.60204 1.24048e-17
6342.69038 1.20063e-17
6345.77871 1.19545e-17
6348.85689 1.19455e-17
6351.94523 1.21068e-17
6355.03356 1.23539e-17
6358.12190 1.14135e-17
6361.20008 1.15996e-17
6364.28841 1.20004e-17
6367.37675 1.19603e-17
6370.45493 1.17092e-17
6373.54326 1.22905e-17
6376.63160 1.17416e-17
6379.71993 1.18133e-17
6382.79811 1.18563e-17
6385.88645 1.20570e-17
6388.97478 1.21811e-17
6392.05296 1.21749e-17
6395.14130 1.26063e-17
6398.22963 1.25840e-17
6401.31797 1.22500e-17
6404.39614 1.25089e-17
6407.48448 1.23416e-17
6410.57282 1.22123e-17
6413.65099 1.24415e-17
6416.73933 1.28003e-17
6419.82767 1.29888e-17
6422.91600 1.28973e-17
6425.99418 1.32845e-17
6429.08251 1.30677e-17
6432.17085 1.27202e-17
6435.25919 1.31960e-17
6438.33736 1.29154e-17
6441.42570 1.28489e-17
6444.51404 1.25253e-17
6447.59221 1.27602e-17
6450.68055 1.32206e-17
6453.76888 1.30073e-17
6456.85722 1.24495e-17
6459.93540 1.25550e-17
6463.02373 1.28889e-17
6466.11207 1.27701e-17
6469.19025 1.27415e-17
6472.27858 1.25817e-17
6475.36692 1.30469e-17
6478.45525 1.30039e-17
6481.53343 1.32956e-17
6484.62177 1.37524e-17
6487.71010 1.37167e-17
6490.79844 1.33927e-17
6493.87662 1.30454e-17
6496.96495 1.33701e-17
6500.05329 1.38195e-17
6503.13147 1.36281e-17
6506.21980 1.37033e-17
6509.30814 1.36392e-17
6512.39647 1.34159e-17
6515.47465 1.34674e-17
6518.56299 1.34531e-17
6521.65132 1.39189e-17
6524.72950 1.39803e-17
6527.81783 1.38081e-17
6530.90617 1.42439e-17
6533.99451 1.41053e-17
6537.07268 1.37042e-17
6540.16102 1.36488e-17
6543.24936 1.38505e-17
6546.33769 1.38571e-17
6549.41587 1.43665e-17
6552.50421 1.47072e-17
6555.59254 1.43430e-17
6558.67072 1.41348e-17
6561.75905 1.41059e-17
6564.84739 1.37366e-17
6567.92557 1.37751e-17
6571.01390 1.44013e-17
6574.10224 1.41635e-17
6577.19058 1.36061e-17
6580.26875 1.38126e-17
6583.35709 1.42062e-17
6586.44542 1.44942e-17
6589.53376 1.41542e-17
6592.61194 1.37244e-17
6595.70027 1.37734e-17
6598.78861 1.38233e-17
6601.86679 1.38797e-17
6604.95512 1.39471e-17
6608.04346 1.42164e-17
6611.13179 1.41129e-17
6614.20997 1.37027e-17
6617.29831 1.41464e-17
6620.38664 1.41457e-17
6623.46482 1.44820e-17
6626.55316 1.47040e-17
6629.64149 1.45535e-17
6632.72983 1.43509e-17
6635.80800 1.45733e-17
6638.89634 1.45468e-17
6641.98468 1.45203e-17
6645.07301 1.44938e-17
6648.15119 1.44672e-17
6651.23953 1.44407e-17
6654.32786 1.44142e-17
6657.40604 1.43877e-17
6660.49438 1.43612e-17
6663.58271 1.43347e-17
6666.67105 1.43082e-17
6669.74922 1.42816e-17
6672.83756 1.42551e-17
6675.92590 1.42286e-17
6679.00407 1.42021e-17
6682.09241 1.41756e-17
6685.18075 1.41491e-17
6688.26908 1.41226e-17
6691.34726 1.40961e-17
6694.43559 1.40696e-17
6697.52393 1.40431e-17
6700.60211 1.40166e-17
6703.69044 1.36599e-17
6706.77878 1.34536e-17
6709.86712 1.29982e-17
6712.94529 1.30584e-17
6716.03363 1.31548e-17
6719.12196 1.31460e-17
6722.21030 1.30000e-17
6725.28848 1.30887e-17
6728.37681 1.34084e-17
6731.46515 1.32633e-17
6734.54333 1.33499e-17
6737.63166 1.33012e-17
6740.72000 1.32807e-17
6743.80833 1.32315e-17
6746.88651 1.33035e-17
6749.97485 1.32829e-17
6753.06318 1.33081e-17
6756.14136 1.34902e-17
6759.22970 1.30932e-17
6762.31803 1.28685e-17
6765.40637 1.32946e-17
6768.48455 1.33900e-17
6771.57288 1.33095e-17
6774.66122 1.34506e-17
6777.74955 1.33421e-17
6780.82773 1.27661e-17
6783.91607 1.28290e-17
6787.00440 1.26784e-17
6790.08258 1.25370e-17
6793.17092 1.28030e-17
6796.25925 1.27317e-17
6799.34759 1.31165e-17
6802.42576 1.26808e-17
6805.51410 1.26754e-17
6808.60244 1.28554e-17
6811.68061 1.24004e-17
6814.76895 1.24133e-17
6817.85729 1.25124e-17
6820.94562 1.23188e-17
6824.02380 1.26065e-17
6827.11213 1.31119e-17
6830.20047 1.27252e-17
6833.27865 1.20360e-17
6836.36698 1.24926e-17
6839.45532 1.28807e-17
6842.54366 1.24624e-17
6845.62183 1.27423e-17
6848.71017 1.25261e-17
6851.79850 1.21155e-17
6854.87668 1.26587e-17
6857.96502 1.17094e-17
6861.05335 1.11863e-17
6864.14169 1.11721e-17
6867.21987 1.13867e-17
6870.30820 1.08100e-17
6873.39654 1.18199e-17
6876.48487 1.19750e-17
6879.56305 1.14370e-17
6882.65139 1.14970e-17
6885.73972 1.19194e-17
6888.81790 1.16852e-17
6891.90624 1.09000e-17
6894.99457 1.10631e-17
6898.08291 1.11865e-17
6901.16108 1.08121e-17
6904.24942 1.12386e-17
6907.33776 1.14777e-17
6910.41593 1.10430e-17
6913.50427 1.11919e-17
6916.59261 1.18864e-17
6919.68094 1.18125e-17
6922.75912 1.14804e-17
6925.84746 1.20157e-17
6928.93579 1.23533e-17
6932.02413 1.21336e-17
6935.10230 1.14826e-17
6938.19064 1.18755e-17
6941.27898 1.21339e-17
6944.35715 1.14344e-17
6947.44549 1.12264e-17
6950.53383 1.06130e-17
6953.62216 1.05811e-17
6956.70034 1.06693e-17
6959.78867 1.04110e-17
6962.87701 1.05626e-17
6965.95519 1.05757e-17
6969.04352 1.03521e-17
6972.13186 1.01934e-17
6975.22020 1.03533e-17
6978.29837 1.03966e-17
6981.38671 1.01514e-17
6984.47504 1.04937e-17
6987.55322 1.06550e-17
6990.64156 1.08915e-17
6993.72989 1.05881e-17
6996.81823 1.07211e-17
6999.89641 1.12808e-17
7002.98474 1.13972e-17
7006.07308 1.12469e-17
7009.16141 1.12075e-17
7012.23959 1.07687e-17
7015.32793 1.07658e-17
7018.41626 1.05544e-17
7021.49444 1.06457e-17
7024.58278 1.09682e-17
7027.67111 1.15171e-17
7030.75945 1.17520e-17
7033.83763 1.13653e-17
7036.92596 1.10559e-17
7040.01430 1.11027e-17
7043.09247 1.09929e-17
7046.18081 1.10451e-17
7049.26915 1.15986e-17
7052.35748 1.15510e-17
7055.43566 1.10482e-17
7058.52400 1.10924e-17
7061.61233 1.12829e-17
7064.69051 1.11719e-17
7067.77884 1.17039e-17
7070.86718 1.11190e-17
7073.95552 1.12441e-17
7077.03369 1.15092e-17
7080.12203 1.11863e-17
7083.21037 1.09202e-17
7086.29870 1.06393e-17
7089.37688 1.07427e-17
7092.46521 1.07920e-17
7095.55355 1.05089e-17
7098.63173 1.05351e-17
7101.72006 1.08352e-17
7104.80840 1.08483e-17
7107.89673 1.05405e-17
7110.97491 1.03296e-17
7114.06325 1.04494e-17
7117.15158 1.04427e-17
7120.22976 1.00330e-17
7123.31810 9.90480e-18
7126.40643 1.02861e-17
7129.49477 1.07215e-17
7132.57295 1.07266e-17
7135.66128 1.05755e-17
7138.74962 1.08934e-17
7141.83795 1.05807e-17
7144.91613 1.04473e-17
7148.00447 1.04206e-17
7151.09280 1.03059e-17
7154.17098 1.00846e-17
7157.25932 1.01236e-17
7160.34765 1.02256e-17
7163.43599 1.04370e-17
7166.51417 1.07953e-17
7169.60250 1.00871e-17
7172.69084 9.43279e-18
7175.76901 9.68077e-18
7178.85735 9.65663e-18
7181.94569 9.84066e-18
7185.03402 9.95188e-18
7188.11220 1.00913e-17
7191.20053 9.97010e-18
7194.28887 9.77156e-18
7197.36705 9.98656e-18
7200.45538 9.65862e-18
7203.54372 9.98318e-18
7206.63206 1.02547e-17
7209.71023 1.05568e-17
7212.79857 1.11310e-17
7215.88691 1.16297e-17
7218.96508 1.10766e-17
7222.05342 1.10925e-17
7225.14175 1.12985e-17
7228.23009 1.08404e-17
7231.30827 1.08005e-17
7234.39660 1.11318e-17
7237.48494 1.11683e-17
7240.57327 1.11053e-17
7243.65145 1.09290e-17
7246.73979 1.06044e-17
7249.82812 1.08635e-17
7252.90630 1.12853e-17
7255.99464 1.06272e-17
7259.08297 1.08727e-17
7262.17131 1.13897e-17
7265.24949 1.08739e-17
7268.33782 1.01130e-17
7271.42616 1.05295e-17
7274.50433 1.10382e-17
7277.59267 1.06247e-17
7280.68101 1.07116e-17
7283.76934 1.09277e-17
7286.84752 1.10865e-17
7289.93586 1.13351e-17
7293.02419 1.16288e-17
7296.11253 1.13432e-17
7299.19070 1.11273e-17
7302.27904 1.16017e-17
7305.36738 1.15841e-17
7308.44555 1.12901e-17
7311.53389 1.07530e-17
7314.62223 1.05086e-17
7317.71056 1.09532e-17
7320.78874 1.20342e-17
7323.87708 1.15523e-17
7326.96541 1.20142e-17
7330.04359 1.19247e-17
7333.13192 1.17813e-17
7336.22026 1.19984e-17
7339.30860 1.11546e-17
7342.38677 1.07687e-17
7345.47511 1.10716e-17
7348.56345 1.11662e-17
7351.64162 1.13250e-17
7354.72996 1.13620e-17
7357.81829 1.14974e-17
7360.90663 1.20074e-17
7363.98481 1.20994e-17
7367.07314 1.19060e-17
7370.16148 1.17038e-17
7373.24982 1.15245e-17
7376.32799 1.23188e-17
7379.41633 1.28192e-17
7382.50466 1.21167e-17
7385.58284 1.18263e-17
7388.67118 1.22912e-17
7391.75951 1.18829e-17
7394.84785 1.17617e-17
7397.92603 1.16448e-17
7401.01436 1.18116e-17
7404.10270 1.16478e-17
7407.18088 1.15043e-17
7410.26921 1.23465e-17
7413.35755 1.30762e-17
7416.44588 1.30277e-17
7419.52406 1.28205e-17
7422.61240 1.23550e-17
7425.70073 1.15948e-17
7428.78907 1.11845e-17
7431.86725 1.15311e-17
7434.95558 1.23104e-17
7438.04392 1.26661e-17
7441.12209 1.28098e-17
7444.21043 1.25977e-17
7447.29877 1.22065e-17
7450.38710 1.22645e-17
7453.46528 1.25447e-17
7456.55362 1.22758e-17
7459.64195 1.17935e-17
7462.72013 1.17053e-17
7465.80846 1.17390e-17
7468.89680 1.21064e-17
7471.98514 1.23230e-17
7475.06331 1.18499e-17
7478.15165 1.16421e-17
7481.23999 1.19217e-17
7484.32832 1.18417e-17
7487.40650 1.15867e-17
7490.49483 1.16072e-17
7493.58317 1.17326e-17
7496.66135 1.24207e-17
7499.74968 1.24490e-17
7502.83802 1.17193e-17
7505.91620 1.19022e-17
7509.00453 1.16891e-17
7512.09287 1.14696e-17
7515.18120 1.12587e-17
7518.25938 1.16845e-17
7521.34772 1.18768e-17
7524.43605 1.16718e-17
7527.52439 1.13459e-17
7530.60257 1.14999e-17
7533.69090 1.18288e-17
7536.77924 1.14390e-17
7539.85742 1.11686e-17
7542.94575 1.07146e-17
7546.03409 1.02608e-17
7549.12242 1.07397e-17
7552.20060 1.00609e-17
7555.28894 9.45341e-18
7558.37727 9.91941e-18
7561.45545 1.04816e-17
7564.54378 1.05921e-17
7567.63212 9.88003e-18
7570.72046 9.39072e-18
7573.79863 9.91443e-18
7576.88697 9.59105e-18
7579.97531 9.23900e-18
7583.06364 9.41339e-18
7586.14182 9.09196e-18
7589.23016 8.47299e-18
7592.31849 8.72392e-18
7595.39667 8.38897e-18
7598.48500 8.11014e-18
7601.57334 8.27411e-18
7604.66168 7.93441e-18
7607.73985 7.65093e-18
7610.82819 7.47661e-18
7613.91653 7.56005e-18
7616.99470 7.18996e-18
7620.08304 7.44599e-18
7623.17137 7.82363e-18
7626.25971 7.74083e-18
7629.33789 7.30072e-18
7632.42622 7.34928e-18
7635.51456 7.98640e-18
7638.59274 7.48670e-18
7641.68107 7.24807e-18
7644.76941 7.22953e-18
7647.85774 7.22894e-18
7650.93592 7.41809e-18
7654.02426 7.37867e-18
7657.11259 7.77086e-18
7660.20093 8.02985e-18
7663.27911 8.47522e-18
7666.36744 7.68782e-18
7669.45578 7.62839e-18
7672.53395 7.82490e-18
7675.62229 7.81165e-18
7678.71063 7.30548e-18
7681.79896 7.54037e-18
7684.87714 7.88171e-18
7687.96548 8.47950e-18
7691.05381 8.26042e-18
7694.13199 7.74265e-18
7697.22033 8.24467e-18
7700.30866 8.53328e-18
7703.39700 9.02060e-18
7706.47517 1.01551e-17
7709.56351 9.79355e-18
7712.65185 9.10565e-18
7715.74018 9.51371e-18
7718.81836 9.48688e-18
7721.90670 8.87187e-18
7724.99503 8.56186e-18
7728.07321 9.00588e-18
7731.16154 9.60036e-18
7734.24988 9.76878e-18
7737.33822 9.72719e-18
7740.41639 1.01065e-17
7743.50473 1.09075e-17
7746.59307 1.13600e-17
7749.67124 1.16708e-17
7752.75958 1.13980e-17
7755.84791 1.09217e-17
7758.93625 1.08454e-17
7762.01443 1.04011e-17
7765.10276 1.10307e-17
7768.19110 1.06243e-17
7771.26928 1.00261e-17
7774.35761 1.05213e-17
7777.44595 1.07050e-17
7780.53428 1.13382e-17
7783.61246 1.16100e-17
7786.70080 1.24889e-17
7789.78913 1.30182e-17
7792.87747 1.25247e-17
7795.95565 1.20428e-17
7799.04398 1.21265e-17
7802.13232 1.21490e-17
7805.21050 1.16564e-17
7808.29883 1.13030e-17
7811.38717 1.16074e-17
7814.47550 1.19866e-17
7817.55368 1.25217e-17
7820.64202 1.33953e-17
7823.73035 1.27521e-17
7826.80853 1.26686e-17
7829.89687 1.29460e-17
7832.98520 1.32399e-17
7836.07354 1.35593e-17
7839.15171 1.34224e-17
7842.24005 1.30581e-17
7845.32839 1.32567e-17
7848.40656 1.25721e-17
7851.49490 1.22091e-17
7854.58324 1.27730e-17
7857.67157 1.36460e-17
7860.74975 1.36802e-17
7863.83808 1.24075e-17
7866.92642 1.31596e-17
7870.01476 1.32439e-17
7873.09293 1.21619e-17
7876.18127 1.32910e-17
7879.26961 1.43246e-17
7882.34778 1.47207e-17
7885.43612 1.41338e-17
7888.52445 1.28110e-17
7891.61279 1.28083e-17
7894.69097 1.33156e-17
7897.77930 1.31337e-17
7900.86764 1.28194e-17
7903.94582 1.22201e-17
7907.03415 1.18572e-17
7910.12249 1.26409e-17
7913.21082 1.30481e-17
7916.28900 1.25493e-17
7919.37734 1.32150e-17
7922.46567 1.44677e-17
7925.54385 1.42897e-17
7928.63219 1.38073e-17
7931.72052 1.39447e-17
7934.80886 1.39856e-17
7937.88703 1.35546e-17
7940.97537 1.43871e-17
7944.06371 1.51111e-17
7947.15204 1.43816e-17
7950.23022 1.38015e-17
7953.31856 1.31603e-17
7956.40689 1.24117e-17
7959.48507 1.24169e-17
7962.57341 1.30165e-17
7965.66174 1.37806e-17
7968.75008 1.38482e-17
7971.82825 1.42564e-17
7974.91659 1.42150e-17
7978.00493 1.33674e-17
7981.08310 1.40610e-17
7984.17144 1.48470e-17
7987.25978 1.54085e-17
7990.34811 1.55483e-17
7993.42629 1.44983e-17
7996.51462 1.43304e-17
7999.60296 1.43849e-17
8002.69130 1.39946e-17
8005.76947 1.43673e-17
8008.85781 1.40572e-17
8011.94615 1.30662e-17
8015.02432 1.30681e-17
8018.11266 1.29093e-17
8021.20099 1.29534e-17
8024.28933 1.26041e-17
8027.36751 1.36077e-17
8030.45584 1.43620e-17
8033.54418 1.39100e-17
8036.62236 1.41048e-17
8039.71069 1.48816e-17
8042.79903 1.53436e-17
8045.88736 1.52828e-17
8048.96554 1.49007e-17
8052.05388 1.37371e-17
8055.14221 1.30609e-17
8058.22039 1.33517e-17
8061.30873 1.34058e-17
8064.39706 1.35751e-17
8067.48540 1.32624e-17
8070.56358 1.27415e-17
8073.65191 1.21874e-17
8076.74025 1.21606e-17
8079.82858 1.28805e-17
8082.90676 1.28391e-17
8085.99510 1.28646e-17
8089.08343 1.28243e-17
8092.16161 1.28255e-17
8095.24995 1.32137e-17
8098.33828 1.38876e-17
8101.42662 1.37832e-17
8104.50479 1.26410e-17
8107.59313 1.26939e-17
8110.68147 1.36910e-17
8113.75964 1.27942e-17
8116.84798 1.15617e-17
8119.93632 1.14558e-17
8123.02465 1.14897e-17
8126.10283 1.12179e-17
8129.19116 1.11484e-17
8132.27950 1.13349e-17
8135.35768 1.08558e-17
8138.44601 1.03175e-17
8141.53435 1.03384e-17
8144.62269 1.04744e-17
8147.70086 1.03584e-17
8150.78920 1.04839e-17
8153.87753 1.10424e-17
8156.95571 1.13090e-17
8160.04405 1.09072e-17
8163.13238 1.05125e-17
8166.22072 1.05275e-17
8169.29890 9.89519e-18
8172.38723 1.02032e-17
8175.47557 1.09307e-17
8178.56390 1.05236e-17
8181.64208 9.54882e-18
8184.73042 9.31232e-18
8187.81875 9.19459e-18
8190.89693 8.65999e-18
8193.98527 8.59164e-18
8197.07360 8.41886e-18
8200.16194 7.74383e-18
8203.24012 7.90852e-18
8206.32845 8.49694e-18
8209.41679 8.46874e-18
8212.49496 8.43842e-18
8215.58330 8.62802e-18
8218.67164 8.74379e-18
8221.75997 8.17759e-18
8224.83815 7.74969e-18
8227.92648 7.72731e-18
8231.01482 7.52249e-18
8234.10316 6.98763e-18
8237.18133 6.77854e-18
8240.26967 6.54367e-18
8243.35801 6.28029e-18
8246.43618 6.02552e-18
8249.52452 5.97630e-18
8252.61285 6.23001e-18
8255.70119 5.44611e-18
8258.77937 5.06464e-18
8261.86770 4.81198e-18
8264.95604 5.31873e-18
8268.03422 5.49840e-18
8271.12255 4.90765e-18
8274.21089 4.20070e-18
8277.29923 4.29951e-18
8280.37740 4.77774e-18
8283.46574 4.79300e-18
8286.55407 4.81780e-18
8289.64241 4.10085e-18
8292.72059 4.05089e-18
8295.80892 3.54364e-18
8298.89726 3.70917e-18
8301.97544 4.22841e-18
8305.06377 3.79054e-18
8308.15211 3.46881e-18
8311.24044 3.05584e-18
8314.31862 3.42596e-18
8317.40696 3.51923e-18
8320.49529 4.25100e-18
8323.57347 4.50240e-18
8326.66181 4.33135e-18
8329.75014 4.61777e-18
8332.83848 3.89435e-18
8335.91666 3.54242e-18
8339.00499 3.42147e-18
8342.09333 2.86593e-18
8345.18166 3.16783e-18
8348.25984 3.74852e-18
8351.34818 4.34734e-18
8354.43651 4.16959e-18
8357.51469 3.33655e-18
8360.60303 3.20358e-18
8363.69136 3.05558e-18
8366.76954 4.50863e-18
8369.85787 4.78292e-18
8372.94621 4.47666e-18
8376.03455 4.47440e-18
8379.11272 3.85126e-18
8382.20106 3.96566e-18
8385.28939 4.91248e-18
8388.36757 4.33900e-18
8391.45591 3.54076e-18
8394.54424 3.41987e-18
8397.63258 3.66108e-18
8400.71076 4.12108e-18
8403.79909 5.00382e-18
8406.88743 4.76914e-18
8409.97577 4.29789e-18
8413.05394 4.68056e-18
8416.14228 5.34995e-18
8419.23061 5.38596e-18
8422.30879 6.16265e-18
8425.39713 6.35177e-18
8428.48546 5.38617e-18
8431.57380 5.56071e-18
8434.65198 7.01359e-18
8437.74031 6.89328e-18
8440.82865 6.30197e-18
8443.90683 5.38486e-18
8446.99516 5.30040e-18
8450.08350 4.89864e-18
8453.17183 4.75632e-18
8456.25001 6.28844e-18
8459.33835 6.89205e-18
8462.42668 7.33108e-18
8465.51502 6.95433e-18
8468.59319 7.10281e-18
8471.68153 6.20053e-18
8474.76987 5.82978e-18
8477.84804 5.98319e-18
8480.93638 5.50249e-18
8484.02472 5.33952e-18
8487.11305 5.77013e-18
8490.19123 5.68254e-18
8493.27957 7.29071e-18
8496.36790 7.20338e-18
8499.44608 6.90205e-18
8502.53441 6.47159e-18
8505.62275 6.21774e-18
8508.71109 6.44851e-18
8511.78926 7.08949e-18
8514.87760 8.29759e-18
8517.96594 8.67364e-18
8521.05427 8.08368e-18
8524.13245 7.42193e-18
8527.22078 7.48954e-18
8530.30912 6.54277e-18
8533.38730 6.82599e-18
8536.47563 7.32483e-18
8539.56397 7.70480e-18
8542.65231 8.10303e-18
8545.73048 7.84823e-18
8548.81882 7.82933e-18
8551.90715 8.91244e-18
8554.98533 1.01458e-17
8558.07367 1.05263e-17
8561.16200 1.07711e-17
8564.25034 1.19821e-17
8567.32852 1.17962e-17
8570.41685 1.07318e-17
8573.50519 1.08874e-17
8576.59352 1.05720e-17
8579.67170 9.79036e-18
8582.76004 9.59375e-18
8585.84837 8.86451e-18
8588.92655 9.00364e-18
8592.01489 1.03597e-17
8595.10322 1.03680e-17
8598.19156 9.94637e-18
8601.26973 1.06660e-17
8604.35807 1.11782e-17
8607.44641 1.22432e-17
8610.52458 1.47415e-17
8613.61292 1.48529e-17
8616.70126 1.36993e-17
8619.78959 1.52669e-17
8622.86777 1.55922e-17
8625.95611 1.44640e-17
8629.04444 1.37287e-17
8632.13278 1.37809e-17
8635.21095 1.41011e-17
8638.29929 1.33516e-17
8641.38763 1.26917e-17
8644.46580 1.29909e-17
8647.55414 1.36677e-17
8650.64248 1.32709e-17
8653.73081 1.21656e-17
8656.80899 1.32890e-17
8659.89732 1.47909e-17
8662.98566 1.55480e-17
8666.06384 1.61269e-17
8669.15217 1.65629e-17
8672.24051 1.68285e-17
8675.31869 1.71171e-17
8678.40702 1.73028e-17
8681.49536 1.67675e-17
8684.58369 1.58698e-17
8687.66187 1.59025e-17
8690.75021 1.56188e-17
8693.83854 1.49852e-17
8696.92688 1.45094e-17
8700.00506 1.45360e-17
8703.09339 1.48341e-17
8706.18173 1.40923e-17
8709.25991 1.42607e-17
8712.34824 1.53113e-17
8715.43658 1.53692e-17
8718.52491 1.54657e-17
8721.60309 1.59473e-17
8724.69143 1.66172e-17
8727.77976 1.70598e-17
8730.85794 1.74984e-17
8733.94628 1.81001e-17
8737.03461 1.74602e-17
8740.12295 1.72838e-17
8743.20112 1.71339e-17
8746.28946 1.61005e-17
8749.37780 1.54012e-17
8752.46613 1.54725e-17
8755.54431 1.48477e-17
8758.63264 1.42228e-17
8761.72098 1.45507e-17
8764.79916 1.35096e-17
8767.88749 1.32277e-17
8770.97583 1.37365e-17
8774.06417 1.61574e-17
8777.14234 1.66652e-17
8780.23068 1.61067e-17
8783.31902 1.65758e-17
8786.39719 1.72949e-17
8789.48553 1.75682e-17
8792.57386 1.78063e-17
8795.66220 1.75966e-17
8798.74038 1.60967e-17
8801.82871 1.49062e-17
8804.91705 1.51951e-17
8808.00539 1.44227e-17
8811.08356 1.38925e-17
8814.17190 1.22653e-17
8817.26023 1.16528e-17
8820.33841 1.11516e-17
8823.42675 1.18488e-17
8826.51508 1.25125e-17
8829.60342 1.19283e-17
8832.68160 1.25574e-17
8835.76993 1.44722e-17
8838.85827 1.53368e-17
8841.93644 1.51065e-17
8845.02478 1.60511e-17
8848.11312 1.53235e-17
8851.20145 1.61259e-17
8854.27963 1.47892e-17
8857.36797 1.34436e-17
8860.45630 1.30795e-17
8863.54464 1.29569e-17
8866.62282 1.26143e-17
8869.71115 1.24498e-17
8872.79949 1.29486e-17
8875.87766 1.19975e-17
8878.96600 1.05868e-17
8882.05434 1.06380e-17
8885.14267 9.64436e-18
8888.22085 1.07144e-17
8891.30919 9.75021e-18
8894.39752 9.81763e-18
8897.47570 1.14106e-17
8900.56403 1.30315e-17
8903.65237 1.31998e-17
8906.74071 1.24164e-17
8909.81888 1.11640e-17
8912.90722 9.33392e-18
8915.99556 1.00699e-17
8919.07373 9.85751e-18
8922.16207 1.07715e-17
8925.25040 1.16314e-17
8928.33874 1.02244e-17
8931.41692 8.61366e-18
8934.50525 8.29419e-18
8937.59359 7.83169e-18
8940.68193 7.38305e-18
8943.76010 8.05879e-18
8946.84844 7.98227e-18
8949.93677 9.27549e-18
8953.01495 8.94738e-18
8956.10329 9.43551e-18
8959.19162 9.15298e-18
8962.26980 8.99910e-18
8965.35814 7.92659e-18
8968.44647 8.90037e-18
8971.53481 1.02992e-17
8974.61298 1.08652e-17
8977.70132 1.09509e-17
8980.78966 1.02169e-17
8983.87799 8.85829e-18
8986.95617 7.82684e-18
8990.04451 8.63751e-18
8993.13284 8.89801e-18
8996.22118 8.43191e-18
8999.29936 6.76921e-18
9002.38769 6.49570e-18
9005.47603 6.52278e-18
9008.55420 7.19571e-18
9011.64254 7.26012e-18
9014.73088 7.60522e-18
9017.80905 7.73063e-18
9020.89739 7.78938e-18
9023.98573 8.44456e-18
9027.07406 8.35666e-18
9030.15224 9.21337e-18
9033.24057 1.05021e-17
9036.32891 1.01020e-17
9039.41725 1.03406e-17
9042.49542 1.08700e-17
9045.58376 1.10774e-17
9048.67209 1.06936e-17
9051.75027 9.45680e-18
9054.83861 8.36699e-18
9057.92694 8.07445e-18
9061.01528 7.95929e-18
