# wavelength flux
3600.00419 1.44702e-17
3602.07663 1.19236e-17
3604.14907 1.01494e-17
3606.23166 8.60911e-18
3608.30410 6.37115e-18
3610.38669 9.91279e-18
3612.45913 1.21236e-17
3614.53156 9.37572e-18
3616.61416 1.19728e-17
3618.68660 1.38448e-17
3620.75903 1.08497e-17
3622.84163 1.29400e-17
3624.91406 1.68960e-17
3626.99666 1.64961e-17
3629.06909 1.46794e-17
3631.14153 1.04876e-17
3633.22412 7.45158e-18
3635.29656 7.76302e-18
3637.37916 1.14346e-17
3639.45159 1.31780e-17
3641.52403 9.85060e-18
3643.60662 7.73676e-18
3645.67906 9.93593e-18
3647.76165 1.51961e-17
3649.83409 1.60105e-17
3651.90652 1.31342e-17
3653.98912 9.97967e-18
3656.06156 8.56528e-18
3658.14415 8.24987e-18
3660.21659 7.92056e-18
3662.28902 1.02878e-17
3664.37162 1.07854e-17
3666.44405 9.65049e-18
3668.51649 9.74017e-18
3670.59909 9.96289e-18
3672.67152 1.33432e-17
3674.75412 1.34053e-17
3676.82655 8.18339e-18
3678.89899 7.86329e-18
3680.98158 1.00437e-17
3683.05402 1.01629e-17
3685.13661 1.07882e-17
3687.20905 1.16454e-17
3689.28149 1.23730e-17
3691.36408 1.18271e-17
3693.43652 9.05514e-18
3695.51911 7.96581e-18
3697.59155 9.26030e-18
3699.66398 1.06073e-17
3701.74658 1.13753e-17
3703.81902 1.10568e-17
3705.89145 9.69920e-18
3707.97405 8.02849e-18
3710.04648 6.75006e-18
3712.12908 7.46150e-18
3714.20151 1.09072e-17
3716.27395 1.22864e-17
3718.35654 1.08437e-17
3720.42898 9.64067e-18
3722.51157 1.02681e-17
3724.58401 1.14830e-17
3726.65645 1.15917e-17
3728.73904 1.23038e-17
3730.81148 1.23376e-17
3732.89407 8.21058e-18
3734.96651 6.72408e-18
3737.03895 1.07757e-17
3739.12154 1.32391e-17
3741.19398 1.26217e-17
3743.26641 1.08173e-17
3745.34901 1.00800e-17
3747.42144 9.48264e-18
3749.50404 6.89336e-18
3751.57647 7.97462e-18
3753.64891 1.20715e-17
3755.73150 1.27103e-17
3757.80394 1.13703e-17
3759.88654 1.17612e-17
3761.95897 1.21655e-17
3764.03141 1.13145e-17
3766.11400 9.82317e-18
3768.18644 9.80778e-18
3770.26903 9.72617e-18
3772.34147 9.64456e-18
3774.41391 9.56296e-18
3776.49650 9.48137e-18
3778.56894 9.39978e-18
3780.64137 9.31821e-18
3782.72397 9.23664e-18
3784.79640 9.15508e-18
3786.87900 9.07353e-18
3788.95144 8.99199e-18
3791.02387 8.91045e-18
3793.10647 8.82892e-18
3795.17890 8.74740e-18
3797.26150 8.66588e-18
3799.33393 8.58439e-18
3801.40637 8.50289e-18
3803.48896 8.42139e-18
3805.56140 8.33991e-18
3807.64400 8.25843e-18
3809.71643 6.76338e-18
3811.78887 6.57302e-18
3813.87146 6.99809e-18
3815.94390 7.41427e-18
3818.01633 7.26505e-18
3820.09893 7.28377e-18
3822.17137 6.38419e-18
3824.25396 6.12315e-18
3826.32640 7.33635e-18
3828.39883 7.72696e-18
3830.48143 7.57238e-18
3832.55386 8.34138e-18
3834.63646 8.13595e-18
3836.70889 7.48023e-18
3838.78133 8.53590e-18
3840.86393 9.19813e-18
3842.93636 8.94097e-18
3845.01896 8.35528e-18
3847.09139 7.92671e-18
3849.16383 8.84532e-18
3851.24642 8.99283e-18
3853.31886 7.69781e-18
3855.40145 7.73780e-18
3857.47389 8.32932e-18
3859.54633 8.14866e-18
3861.62892 8.04988e-18
3863.70136 7.55407e-18
3865.77379 7.16550e-18
3867.85639 8.54667e-18
3869.92882 9.90142e-18
3872.01142 1.04350e-17
3874.08385 1.06674e-17
3876.15629 9.82204e-18
3878.23889 8.03900e-18
3880.31132 7.65718e-18
3882.39392 9.26453e-18
3884.46635 1.01146e-17
3886.53879 9.72419e-18
3888.62138 8.46857e-18
3890.69382 7.28904e-18
3892.77641 7.31501e-18
3894.84885 7.92512e-18
3896.92129 8.92823e-18
3899.00388 9.86163e-18
3901.07632 9.65470e-18
3903.14875 1.01408e-17
3905.23135 1.14285e-17
3907.30379 1.08222e-17
3909.38638 9.55685e-18
3911.45882 9.19266e-18
3913.53125 9.90458e-18
3915.61385 1.11756e-17
3917.68628 1.16953e-17
3919.76888 1.12156e-17
3921.84131 1.09907e-17
3923.91375 1.15837e-17
3925.99635 1.19397e-17
3928.06878 1.11257e-17
3930.15138 1.04881e-17
3932.22381 1.11793e-17
3934.29625 1.09003e-17
3936.37884 9.73170e-18
3938.45128 1.06525e-17
3940.52371 1.13971e-17
3942.60631 1.00331e-17
3944.67875 1.08715e-17
3946.76134 1.24684e-17
3948.83378 1.22973e-17
3950.90621 1.17147e-17
3952.98881 1.05373e-17
3955.06124 9.71625e-18
3957.14384 1.12943e-17
3959.21628 1.10534e-17
3961.28871 9.76907e-18
3963.37131 1.10707e-17
3965.44374 1.15815e-17
3967.52634 1.13515e-17
3969.59877 1.13738e-17
3971.67121 1.01011e-17
3973.75380 9.72685e-18
3975.82624 9.94540e-18
3977.90884 1.06909e-17
3979.98127 1.13694e-17
3982.05371 1.16586e-17
3984.13630 1.12118e-17
3986.20874 9.86155e-18
3988.28117 1.02705e-17
3990.36377 1.03387e-17
3992.43620 9.01086e-18
3994.51880 9.45283e-18
3996.59124 1.18435e-17
3998.66367 1.15480e-17
4000.74627 9.47571e-18
4002.81870 9.53067e-18
4004.90130 1.10642e-17
4006.97373 1.19529e-17
4009.04617 1.19516e-17
4011.12876 1.18538e-17
4013.20120 1.11479e-17
4015.28380 1.04271e-17
4017.35623 1.13582e-17
4019.42867 1.15775e-17
4021.51126 1.08659e-17
4023.58370 1.09252e-17
4025.65614 1.11616e-17
4027.73873 1.07917e-17
4029.81117 9.73015e-18
4031.89376 8.84082e-18
4033.96620 9.70384e-18
4036.03863 1.06576e-17
4038.12123 1.12847e-17
4040.19366 1.22788e-17
4042.27626 1.21526e-17
4044.34870 1.05931e-17
4046.42113 9.85609e-18
4048.50373 1.11820e-17
4050.57616 1.19345e-17
4052.65876 1.04546e-17
4054.73119 9.65129e-18
4056.80363 1.05703e-17
4058.88622 1.11218e-17
4060.95866 1.06680e-17
4063.03110 1.01318e-17
4065.11369 1.11728e-17
4067.18613 1.22840e-17
4069.26872 1.12556e-17
4071.34116 9.84613e-18
4073.41359 9.83414e-18
4075.49619 1.02624e-17
4077.56862 1.04856e-17
4079.65122 1.11898e-17
4081.72366 1.11433e-17
4083.79609 1.05662e-17
4085.87869 1.02438e-17
4087.95112 1.04607e-17
4090.03372 1.06759e-17
4092.10615 1.06390e-17
4094.17859 1.04659e-17
4096.26119 1.02428e-17
4098.33362 1.07445e-17
4100.40606 1.15639e-17
4102.48865 1.14742e-17
4104.56109 1.07261e-17
4106.64368 1.02734e-17
4108.71612 1.09138e-17
4110.78856 1.16908e-17
4112.87115 1.20991e-17
4114.94359 1.14491e-17
4117.02618 9.59533e-18
4119.09862 8.94588e-18
4121.17105 9.71750e-18
4123.25365 1.06381e-17
4125.32608 1.11179e-17
4127.40868 1.05824e-17
4129.48111 1.01837e-17
4131.55355 1.06744e-17
4133.63615 1.09407e-17
4135.70858 1.09637e-17
4137.79118 1.13238e-17
4139.86361 1.09633e-17
4141.93605 9.90369e-18
4144.01864 9.50289e-18
4146.09108 9.68199e-18
4148.16352 1.01283e-17
4150.24611 1.02881e-17
4152.31855 9.98546e-18
4154.40114 1.04552e-17
4156.47358 1.03941e-17
4158.54601 9.24954e-18
4160.62861 9.56952e-18
4162.70105 1.03398e-17
4164.78364 9.88987e-18
4166.85608 9.05471e-18
4168.92851 8.46610e-18
4171.01111 8.86110e-18
4173.08354 9.02760e-18
4175.16614 8.81093e-18
4177.23857 9.55923e-18
4179.31101 9.91482e-18
4181.39361 1.00153e-17
4183.46604 1.03239e-17
4185.53848 1.05247e-17
4187.62107 1.08357e-17
4189.69351 1.04014e-17
4191.77610 9.96094e-18
4193.84854 9.90345e-18
4195.92097 9.87323e-18
4198.00357 1.06700e-17
4200.07601 1.06694e-17
4202.15860 9.93108e-18
4204.23104 1.05127e-17
4206.30347 1.10368e-17
4208.38607 1.10460e-17
4210.45850 1.13953e-17
4212.54110 1.10070e-17
4214.61353 1.04734e-17
4216.68597 9.93192e-18
4218.76857 9.43675e-18
4220.84100 8.86564e-18
4222.92360 9.47471e-18
4224.99603 1.05787e-17
4227.06847 1.05123e-17
4229.15106 9.68711e-18
4231.22350 9.37495e-18
4233.29594 1.00072e-17
4235.37853 1.03051e-17
4237.45097 1.01408e-17
4239.53356 1.06759e-17
4241.60600 1.11280e-17
4243.67843 1.05743e-17
4245.76103 9.83894e-18
4247.83347 9.31334e-18
4249.91606 9.31516e-18
4251.98850 9.12558e-18
4254.06093 9.88057e-18
4256.14353 1.01809e-17
4258.21596 9.43157e-18
4260.29856 8.72693e-18
4262.37099 9.14668e-18
4264.44343 1.02290e-17
4266.52603 1.04815e-17
4268.59846 1.03860e-17
4270.67090 1.02336e-17
4272.75349 1.03058e-17
4274.82593 1.10807e-17
4276.90852 1.12303e-17
4278.98096 1.07760e-17
4281.05339 1.03387e-17
4283.13599 1.07165e-17
4285.20843 1.05754e-17
4287.29102 1.00106e-17
4289.36346 9.30759e-18
4291.43589 9.45531e-18
4293.51849 9.51735e-18
4295.59092 9.32999e-18
4297.67352 9.60382e-18
4299.74596 9.66316e-18
4301.81839 1.00321e-17
4303.90099 1.01282e-17
4305.97342 9.51810e-18
4308.04586 8.92074e-18
4310.12845 9.44324e-18
4312.20089 1.01499e-17
4314.28348 9.96530e-18
4316.35592 9.87318e-18
4318.42836 1.01147e-17
4320.51095 1.01909e-17
4322.58339 1.01106e-17
4324.66598 9.43856e-18
4326.73842 9.35449e-18
4328.81085 1.01087e-17
4330.89345 9.66085e-18
4332.96588 9.28739e-18
4335.04848 9.11743e-18
4337.12092 8.92649e-18
4339.19335 9.08855e-18
4341.27595 9.04072e-18
4343.34838 8.70104e-18
4345.43098 9.68371e-18
4347.50341 1.02848e-17
4349.57585 9.56345e-18
4351.65845 9.57964e-18
4353.73088 1.00376e-17
4355.80332 9.57258e-18
4357.88591 8.66525e-18
4359.95835 7.96775e-18
4362.04094 8.49970e-18
4364.11338 1.00460e-17
4366.18582 1.02696e-17
4368.26841 9.09235e-18
4370.34085 8.12907e-18
4372.42344 7.90243e-18
4374.49588 7.91452e-18
4376.56831 7.65227e-18
4378.65091 7.79467e-18
4380.72334 8.30259e-18
4382.80594 8.47223e-18
4384.87838 8.40812e-18
4386.95081 8.77390e-18
4389.03341 9.37282e-18
4391.10584 9.08671e-18
4393.17828 8.63910e-18
4395.26087 9.06738e-18
4397.33331 8.89370e-18
4399.41590 8.28831e-18
4401.48834 9.09259e-18
4403.56078 9.42918e-18
4405.64337 8.00217e-18
4407.71581 7.47699e-18
4409.79840 7.79332e-18
4411.87084 7.34612e-18
4413.94327 7.24631e-18
4416.02587 7.35571e-18
4418.09830 7.46510e-18
4420.18090 7.57448e-18
4422.25334 7.68385e-18
4424.32577 7.79319e-18
4426.40837 7.90255e-18
4428.48080 8.01190e-18
4430.55324 8.12124e-18
4432.63583 8.23058e-18
4434.70827 8.33990e-18
4436.79087 8.44922e-18
4438.86330 8.55853e-18
4440.93574 8.66783e-18
4443.01833 8.77709e-18
4445.09077 8.88641e-18
4447.17336 8.99566e-18
4449.24580 9.10495e-18
4451.31823 9.21418e-18
4453.40083 8.34455e-18
4455.47327 7.96813e-18
4457.55586 8.23913e-18
4459.62830 8.51034e-18
4461.70073 8.55399e-18
4463.78333 8.61303e-18
4465.85576 8.53717e-18
4467.93836 8.07705e-18
4470.01080 8.12447e-18
4472.08323 8.45115e-18
4474.16583 8.58809e-18
4476.23826 8.98746e-18
4478.31070 9.22967e-18
4480.39329 8.83484e-18
4482.46573 8.31451e-18
4484.54832 8.64166e-18
4486.62076 9.55347e-18
4488.69320 1.01831e-17
4490.77579 1.04509e-17
4492.84823 1.03837e-17
4494.93082 9.97490e-18
4497.00326 9.55222e-18
4499.07569 9.30948e-18
4501.15829 9.30057e-18
4503.23073 9.66313e-18
4505.31332 1.01341e-17
4507.38576 9.97847e-18
4509.45819 9.96832e-18
4511.54079 1.08324e-17
4513.61322 1.11192e-17
4515.68566 1.04774e-17
4517.76825 1.04994e-17
4519.84069 1.11518e-17
4521.92328 1.10044e-17
4523.99572 1.05386e-17
4526.06816 1.07294e-17
4528.15075 1.10114e-17
4530.22319 1.10401e-17
4532.30578 1.14419e-17
4534.37822 1.21272e-17
4536.45065 1.22812e-17
4538.53325 1.20137e-17
4540.60569 1.23969e-17
4542.68828 1.31376e-17
4544.76072 1.30598e-17
4546.83315 1.26559e-17
4548.91575 1.23958e-17
4550.98818 1.24466e-17
4553.06062 1.32439e-17
4555.14322 1.38414e-17
4557.21565 1.31517e-17
4559.29825 1.27962e-17
4561.37068 1.35616e-17
4563.44312 1.35146e-17
4565.52571 1.27231e-17
4567.59815 1.25546e-17
4569.68074 1.30822e-17
4571.75318 1.34326e-17
4573.82562 1.38181e-17
4575.90821 1.45434e-17
4577.98065 1.49995e-17
4580.06324 1.46268e-17
4582.13568 1.43318e-17
4584.20811 1.49534e-17
4586.29071 1.48374e-17
4588.36315 1.36952e-17
4590.44574 1.34590e-17
4592.51818 1.39835e-17
4594.59061 1.50087e-17
4596.67321 1.54495e-17
4598.74564 1.47700e-17
4600.81808 1.45492e-17
4602.90067 1.43008e-17
4604.97311 1.38252e-17
4607.05570 1.42203e-17
4609.12814 1.46999e-17
4611.20058 1.41121e-17
4613.28317 1.37858e-17
4615.35561 1.44946e-17
4617.43820 1.46926e-17
4619.51064 1.44564e-17
4621.58308 1.45855e-17
4623.66567 1.41740e-17
4625.73811 1.34446e-17
4627.82070 1.32418e-17
4629.89314 1.32408e-17
4631.96557 1.35988e-17
4634.04817 1.39667e-17
4636.12060 1.37366e-17
4638.19304 1.34864e-17
4640.27563 1.35174e-17
4642.34807 1.36114e-17
4644.43067 1.37104e-17
4646.50310 1.35981e-17
4648.57554 1.36842e-17
4650.65813 1.36776e-17
4652.73057 1.35473e-17
4654.81316 1.37139e-17
4656.88560 1.36052e-17
4658.95804 1.36430e-17
4661.04063 1.35322e-17
4663.11307 1.25740e-17
4665.19566 1.24688e-17
4667.26810 1.34781e-17
4669.34053 1.32714e-17
4671.42313 1.22654e-17
4673.49557 1.21600e-17
4675.57816 1.22858e-17
4677.65060 1.21879e-17
4679.72303 1.23444e-17
4681.80563 1.28500e-17
4683.87806 1.30574e-17
4685.95050 1.23483e-17
4688.03309 1.18870e-17
4690.10553 1.23501e-17
4692.18812 1.22527e-17
4694.26056 1.19993e-17
4696.33300 1.19279e-17
4698.41559 1.19509e-17
4700.48803 1.21879e-17
4702.57062 1.20023e-17
4704.64306 1.14457e-17
4706.71550 1.09826e-17
4708.79809 1.05087e-17
4710.87053 1.04116e-17
4712.95312 1.07315e-17
4715.02556 1.09107e-17
4717.09799 1.11736e-17
4719.18059 1.15722e-17
4721.25302 1.17388e-17
4723.32546 1.17248e-17
4725.40805 1.16992e-17
4727.48049 1.16501e-17
4729.56309 1.13964e-17
4731.63552 1.12040e-17
4733.70796 1.08535e-17
4735.79055 1.07094e-17
4737.86299 1.08164e-17
4739.94558 1.04822e-17
4742.01802 1.03091e-17
4744.09046 1.04850e-17
4746.17305 1.05030e-17
4748.24549 1.08270e-17
4750.32808 1.10849e-17
4752.40052 1.11691e-17
4754.47295 1.15936e-17
4756.55555 1.16776e-17
4758.62799 1.11134e-17
4760.70042 1.08593e-17
4762.78302 1.10392e-17
4764.85545 1.11467e-17
4766.93805 1.14017e-17
4769.01048 1.15558e-17
4771.08292 1.14423e-17
4773.16551 1.16438e-17
4775.23795 1.14247e-17
4777.32055 1.10458e-17
4779.39298 1.08602e-17
4781.46542 1.02457e-17
4783.54801 1.00374e-17
4785.62045 1.02878e-17
4787.70304 1.00165e-17
4789.77548 9.51567e-18
4791.84792 9.64341e-18
4793.93051 9.73911e-18
4796.00295 9.43328e-18
4798.07538 9.88900e-18
4800.15798 1.08289e-17
4802.23041 1.07875e-17
4804.31301 1.02381e-17
4806.38544 1.03567e-17
4808.45788 1.05679e-17
4810.54047 1.00280e-17
4812.61291 9.43158e-18
4814.69551 9.37429e-18
4816.76794 9.65570e-18
4818.84038 9.82835e-18
4820.92297 9.77960e-18
4822.99541 9.98171e-18
4825.07800 1.02073e-17
4827.15044 1.04053e-17
4829.22288 1.07883e-17
4831.30547 1.09588e-17
4833.37791 1.07211e-17
4835.45034 1.06091e-17
4837.53294 1.08505e-17
4839.60537 1.09516e-17
4841.68797 1.10045e-17
4843.76040 1.11557e-17
4845.83284 1.06728e-17
4847.91544 9.83704e-18
4849.98787 9.93149e-18
4852.07047 1.06055e-17
4854.14290 1.05623e-17
4856.21534 1.01470e-17
4858.29793 1.05682e-17
4860.37037 1.13491e-17
4862.45297 1.13673e-17
4864.52540 1.08315e-17
4866.59784 1.04994e-17
4868.68043 9.85378e-18
4870.75287 9.33955e-18
4872.82530 1.01890e-17
4874.90790 1.14400e-17
4876.98034 1.18330e-17
4879.06293 1.16556e-17
4881.13537 1.10987e-17
4883.20780 1.04842e-17
4885.29040 1.06502e-17
4887.36283 1.12099e-17
4889.44543 1.14837e-17
4891.51786 1.16539e-17
4893.59030 1.15497e-17
4895.67290 1.11877e-17
4897.74533 1.11854e-17
4899.82793 1.13397e-17
4901.90036 1.10763e-17
4903.97280 1.07719e-17
4906.05539 1.07043e-17
4908.12783 1.09364e-17
4910.20027 1.12382e-17
4912.28286 1.09991e-17
4914.35530 1.09447e-17
4916.43789 1.09712e-17
4918.51033 1.03541e-17
4920.59292 1.04070e-17
4922.66536 1.04600e-17
4924.73779 1.05129e-17
4926.82039 1.05659e-17
4928.89282 1.06188e-17
4930.96526 1.06717e-17
4933.04786 1.07247e-17
4935.12029 1.07776e-17
4937.20289 1.08305e-17
4939.27532 1.08834e-17
4941.34776 1.09363e-17
4943.43035 1.09892e-17
4945.50279 1.10421e-17
4947.58538 1.10950e-17
4949.65782 1.11479e-17
4951.73026 1.12008e-17
4953.81285 1.12537e-17
4955.88529 1.13066e-17
4957.96788 1.13595e-17
4960.04032 1.01568e-17
4962.11276 9.59637e-18
4964.19535 1.01875e-17
4966.26779 1.08751e-17
4968.34022 1.11616e-17
4970.42282 1.14494e-17
4972.49525 1.14152e-17
4974.57785 1.10695e-17
4976.65028 1.11568e-17
4978.72272 1.12515e-17
4980.80532 1.08797e-17
4982.87775 1.06014e-17
4984.96035 1.08129e-17
4987.03278 1.13557e-17
4989.10522 1.12495e-17
4991.18781 1.07133e-17
4993.26025 1.07771e-17
4995.34284 1.06805e-17
4997.41528 1.02763e-17
4999.48772 1.04226e-17
5001.57031 1.07927e-17
5003.64275 1.09232e-17
5005.71518 1.08089e-17
5007.79778 1.04952e-17
5009.87021 1.05142e-17
5011.95281 1.05531e-17
5014.02525 1.02838e-17
5016.09768 1.05168e-17
5018.18028 1.07977e-17
5020.25271 1.07420e-17
5022.33531 1.06862e-17
5024.40774 1.06304e-17
5026.48018 1.05747e-17
5028.56277 1.05189e-17
5030.63521 1.04631e-17
5032.71781 1.04074e-17
5034.79024 1.03516e-17
5036.86268 1.02959e-17
5038.94527 1.02402e-17
5041.01771 1.01844e-17
5043.10030 1.01287e-17
5045.17274 1.00730e-17
5047.24518 1.00173e-17
5049.32777 9.96156e-18
5051.40021 9.90584e-18
5053.47264 9.85014e-18
5055.55524 9.79445e-18
5057.62767 9.73874e-18
5059.71027 9.84240e-18
5061.78270 1.02397e-17
5063.85514 1.01588e-17
5065.93773 9.76021e-18
5068.01017 9.62709e-18
5070.09277 9.70746e-18
5072.16520 9.78778e-18
5074.23764 9.86813e-18
5076.32023 9.94846e-18
5078.39267 1.00288e-17
5080.47526 1.01091e-17
5082.54770 1.01894e-17
5084.62014 1.02697e-17
5086.70273 1.03500e-17
5088.77517 1.04303e-17
5090.84760 1.05106e-17
5092.93020 1.05909e-17
5095.00263 1.06712e-17
5097.08523 1.07515e-17
5099.15767 1.08317e-17
5101.23010 1.09120e-17
5103.31270 1.09923e-17
5105.38513 1.10725e-17
5107.46773 1.08795e-17
5109.54016 1.10226e-17
5111.61260 1.11421e-17
5113.69519 1.09832e-17
5115.76763 1.06670e-17
5117.85023 1.09830e-17
5119.92266 1.11790e-17
5121.99510 1.07261e-17
5124.07769 1.07535e-17
5126.15013 1.11113e-17
5128.22256 1.13938e-17
5130.30516 1.17557e-17
5132.37759 1.17307e-17
5134.46019 1.15065e-17
5136.53263 1.15428e-17
5138.60506 1.17054e-17
5140.68766 1.18894e-17
5142.76009 1.20784e-17
5144.84269 1.20622e-17
5146.91512 1.21470e-17
5148.98756 1.23968e-17
5151.07016 1.26378e-17
5153.14259 1.24983e-17
5155.22519 1.23314e-17
5157.29762 1.24669e-17
5159.37006 1.21031e-17
5161.45265 1.20296e-17
5163.52509 1.27247e-17
5165.59753 1.30343e-17
5167.68012 1.31404e-17
5169.75256 1.34408e-17
5171.83515 1.31512e-17
5173.90759 1.23752e-17
5175.98002 1.20818e-17
5178.06262 1.23892e-17
5180.13505 1.29313e-17
5182.21765 1.33965e-17
5184.29008 1.34571e-17
5186.36252 1.32420e-17
5188.44512 1.32477e-17
5190.51755 1.34038e-17
5192.60015 1.31838e-17
5194.67258 1.31671e-17
5196.74502 1.33471e-17
5198.82761 1.28097e-17
5200.90005 1.24587e-17
5202.97249 1.29640e-17
5205.05508 1.34795e-17
5207.12752 1.35964e-17
5209.21011 1.32618e-17
5211.28255 1.35046e-17
5213.35498 1.38883e-17
5215.43758 1.35453e-17
5217.51002 1.34463e-17
5219.59261 1.37868e-17
5221.66505 1.38647e-17
5223.73748 1.39415e-17
5225.82008 1.42889e-17
5227.89251 1.40494e-17
5229.97511 1.35957e-17
5232.04754 1.37058e-17
5234.11998 1.42249e-17
5236.20258 1.44078e-17
5238.27501 1.42524e-17
5240.34745 1.46884e-17
5242.43004 1.53013e-17
5244.50248 1.49935e-17
5246.58507 1.44661e-17
5248.65751 1.42192e-17
5250.72995 1.37523e-17
5252.81254 1.35849e-17
5254.88498 1.39767e-17
5256.96757 1.42832e-17
5259.04001 1.41661e-17
5261.11244 1.37829e-17
5263.19504 1.38840e-17
5265.26747 1.42891e-17
5267.35007 1.38482e-17
5269.42250 1.37200e-17
5271.49494 1.43363e-17
5273.57754 1.44269e-17
5275.64997 1.41308e-17
5277.72241 1.44279e-17
5279.80500 1.50390e-17
5281.87744 1.54469e-17
5283.96003 1.55497e-17
5286.03247 1.49361e-17
5288.10491 1.40712e-17
5290.18750 1.42009e-17
5292.25994 1.50094e-17
5294.34253 1.54306e-17
5296.41497 1.58327e-17
5298.48740 1.63303e-17
5300.57000 1.56657e-17
5302.64243 1.48758e-17
5304.72503 1.48012e-17
5306.79747 1.51596e-17
5308.86990 1.52658e-17
5310.95250 1.46948e-17
5313.02493 1.40456e-17
5315.10753 1.45942e-17
5317.17996 1.58251e-17
5319.25240 1.63243e-17
5321.33500 1.56475e-17
5323.40743 1.45913e-17
5325.47987 1.41876e-17
5327.56246 1.45971e-17
5329.63490 1.51732e-17
5331.71749 1.51836e-17
5333.78993 1.47618e-17
5335.86237 1.43520e-17
5337.94496 1.38955e-17
5340.01740 1.36961e-17
5342.09999 1.37999e-17
5344.17243 1.43434e-17
5346.24486 1.49971e-17
5348.32746 1.53124e-17
5350.39989 1.56323e-17
5352.48249 1.54300e-17
5354.55493 1.50270e-17
5356.62736 1.51645e-17
5358.70996 1.48818e-17
5360.78239 1.45884e-17
5362.85483 1.49489e-17
5364.93742 1.50317e-17
5367.00986 1.47228e-17
5369.09245 1.46458e-17
5371.16489 1.45154e-17
5373.23733 1.41084e-17
5375.31992 1.39017e-17
5377.39236 1.42028e-17
5379.47495 1.46881e-17
5381.54739 1.48457e-17
5383.61982 1.48408e-17
5385.70242 1.47290e-17
5387.77485 1.42320e-17
5389.85745 1.41664e-17
5391.92989 1.46667e-17
5394.00232 1.53198e-17
5396.08492 1.56156e-17
5398.15735 1.56779e-17
5400.23995 1.59118e-17
5402.31238 1.61118e-17
5404.38482 1.58297e-17
5406.46742 1.49905e-17
5408.53985 1.43161e-17
5410.61229 1.44060e-17
5412.69488 1.48453e-17
5414.76732 1.52403e-17
5416.84991 1.56399e-17
5418.92235 1.59070e-17
5420.99478 1.59894e-17
5423.07738 1.56706e-17
5425.14982 1.48585e-17
5427.23241 1.44998e-17
5429.30485 1.47243e-17
5431.37728 1.47192e-17
5433.45988 1.46908e-17
5435.53231 1.51085e-17
5437.61491 1.53431e-17
5439.68735 1.53789e-17
5441.75978 1.56632e-17
5443.84238 1.57883e-17
5445.91481 1.57356e-17
5447.98725 1.58012e-17
5450.06984 1.53280e-17
5452.14228 1.44867e-17
5454.22487 1.44918e-17
5456.29731 1.51008e-17
5458.36975 1.49814e-17
5460.45234 1.40120e-17
5462.52478 1.37390e-17
5464.60737 1.48756e-17
5466.67981 1.56610e-17
5468.75224 1.51293e-17
5470.83484 1.46154e-17
5472.90728 1.45928e-17
5474.98987 1.44774e-17
5477.06231 1.41394e-17
5479.13474 1.40316e-17
5481.21734 1.46314e-17
5483.28977 1.51402e-17
5485.36221 1.46538e-17
5487.44480 1.41291e-17
5489.51724 1.42456e-17
5491.59983 1.42546e-17
5493.67227 1.39627e-17
5495.74471 1.36414e-17
5497.82730 1.35201e-17
5499.89974 1.38380e-17
5501.98233 1.43325e-17
5504.05477 1.46471e-17
5506.12720 1.47791e-17
5508.20980 1.45146e-17
5510.28224 1.39700e-17
5512.36483 1.36694e-17
5514.43727 1.33682e-17
5516.50970 1.33804e-17
5518.59230 1.36173e-17
5520.66473 1.40613e-17
5522.74733 1.42656e-17
5524.81977 1.40982e-17
5526.89220 1.38994e-17
5528.97480 1.38554e-17
5531.04723 1.42826e-17
5533.11967 1.44114e-17
5535.20226 1.42080e-17
5537.27470 1.39877e-17
5539.35729 1.36314e-17
5541.42973 1.36699e-17
5543.50217 1.42647e-17
5545.58476 1.46345e-17
5547.65720 1.47246e-17
5549.73979 1.47948e-17
5551.81223 1.45625e-17
5553.88466 1.42524e-17
5555.96726 1.42831e-17
5558.03970 1.43605e-17
5560.12229 1.42630e-17
5562.19473 1.40237e-17
5564.26716 1.37772e-17
5566.34976 1.40909e-17
5568.42219 1.42938e-17
5570.49463 1.40821e-17
5572.57722 1.35669e-17
5574.64966 1.30712e-17
5576.73225 1.41180e-17
5578.80469 1.51498e-17
5580.87713 1.44527e-17
5582.95972 1.40549e-17
5585.03216 1.39049e-17
5587.11475 1.41898e-17
5589.18719 1.43689e-17
5591.25962 1.38542e-17
5593.34222 1.41287e-17
5595.41466 1.50189e-17
5597.49725 1.51840e-17
5599.56969 1.49018e-17
5601.64212 1.46406e-17
5603.72472 1.41625e-17
5605.79715 1.39062e-17
5607.86959 1.38944e-17
5609.95219 1.39989e-17
5612.02462 1.39196e-17
5614.10722 1.34447e-17
5616.17965 1.35888e-17
5618.25209 1.42733e-17
5620.33468 1.43247e-17
5622.40712 1.40847e-17
5624.48971 1.40752e-17
5626.56215 1.39019e-17
5628.63459 1.37730e-17
5630.71718 1.39282e-17
5632.78962 1.43252e-17
5634.87221 1.44047e-17
5636.94465 1.39457e-17
5639.01708 1.36604e-17
5641.09968 1.36795e-17
5643.17212 1.35135e-17
5645.25471 1.35215e-17
5647.32715 1.41021e-17
5649.39958 1.39368e-17
5651.48218 1.32606e-17
5653.55461 1.37157e-17
5655.62705 1.38241e-17
5657.70964 1.36125e-17
5659.78208 1.38355e-17
5661.86467 1.39879e-17
5663.93711 1.38032e-17
5666.00955 1.33120e-17
5668.09214 1.28538e-17
5670.16458 1.30385e-17
5672.24717 1.33679e-17
5674.31961 1.29840e-17
5676.39205 1.26823e-17
5678.47464 1.29157e-17
5680.54708 1.31109e-17
5682.62967 1.29597e-17
5684.70211 1.27525e-17
5686.77454 1.26310e-17
5688.85714 1.25443e-17
5690.92957 1.27593e-17
5693.00201 1.31522e-17
5695.08461 1.30835e-17
5697.15704 1.28540e-17
5699.23964 1.25835e-17
5701.31207 1.27027e-17
5703.38451 1.31211e-17
5705.46710 1.31386e-17
5707.53954 1.29631e-17
5709.62213 1.28279e-17
5711.69457 1.31182e-17
5713.76701 1.31781e-17
5715.84960 1.28846e-17
5717.92204 1.28717e-17
5720.00463 1.27877e-17
5722.07707 1.25507e-17
5724.14950 1.23310e-17
5726.23210 1.20498e-17
5728.30454 1.20740e-17
5730.37697 1.26262e-17
5732.45957 1.31940e-17
5734.53200 1.32265e-17
5736.61460 1.31898e-17
5738.68703 1.31768e-17
5740.75947 1.30237e-17
5742.84206 1.30224e-17
5744.91450 1.28747e-17
5746.99710 1.24979e-17
5749.06953 1.26859e-17
5751.14197 1.29404e-17
5753.22456 1.27639e-17
5755.29700 1.21984e-17
5757.37959 1.16389e-17
5759.45203 1.22811e-17
5761.52447 1.35990e-17
5763.60706 1.38231e-17
5765.67950 1.33244e-17
5767.76209 1.32474e-17
5769.83453 1.35965e-17
5771.90696 1.39369e-17
5773.98956 1.40608e-17
5776.06199 1.39181e-17
5778.13443 1.33577e-17
5780.21702 1.30469e-17
5782.28946 1.32645e-17
5784.37206 1.32406e-17
5786.44449 1.30062e-17
5788.51693 1.30043e-17
5790.59952 1.33413e-17
5792.67196 1.39082e-17
5794.75455 1.39684e-17
5796.82699 1.34274e-17
5798.89943 1.30059e-17
5800.98202 1.30295e-17
5803.05446 1.30752e-17
5805.13705 1.31805e-17
5807.20949 1.36916e-17
5809.28192 1.41438e-17
5811.36452 1.42959e-17
5813.43696 1.40104e-17
5815.50939 1.32219e-17
5817.59199 1.30647e-17
5819.66442 1.37053e-17
5821.74702 1.37725e-17
5823.81945 1.33585e-17
5825.89189 1.34306e-17
5827.97448 1.38751e-17
5830.04692 1.41279e-17
5832.12952 1.42482e-17
5834.20195 1.41792e-17
5836.27439 1.35356e-17
5838.35698 1.30449e-17
5840.42942 1.35030e-17
5842.51201 1.42433e-17
5844.58445 1.42195e-17
5846.65688 1.32191e-17
5848.73948 1.27789e-17
5850.81192 1.33826e-17
5852.88435 1.35200e-17
5854.96695 1.31902e-17
5857.03938 1.34974e-17
5859.12198 1.42712e-17
5861.19441 1.46131e-17
5863.26685 1.41802e-17
5865.34945 1.37990e-17
5867.42188 1.42565e-17
5869.50448 1.49662e-17
5871.57691 1.45733e-17
5873.64935 1.34668e-17
5875.73194 1.30333e-17
5877.80438 1.32383e-17
5879.88697 1.35637e-17
5881.95941 1.36194e-17
5884.03185 1.36386e-17
5886.11444 1.41286e-17
5888.18688 1.42387e-17
5890.26947 1.30535e-17
5892.34191 1.25249e-17
5894.41434 1.33447e-17
5896.49694 1.35454e-17
5898.56938 1.32146e-17
5900.64181 1.31670e-17
5902.72441 1.30695e-17
5904.79684 1.31928e-17
5906.87944 1.36016e-17
5908.95187 1.38042e-17
5911.02431 1.33606e-17
5913.10690 1.27900e-17
5915.17934 1.33274e-17
5917.26193 1.41280e-17
5919.33437 1.40400e-17
5921.40681 1.33498e-17
5923.48940 1.30334e-17
5925.56184 1.38206e-17
5927.64443 1.39418e-17
5929.71687 1.29211e-17
5931.78931 1.26856e-17
5933.87190 1.25410e-17
5935.94434 1.20305e-17
5938.01677 1.22478e-17
5940.09937 1.30953e-17
5942.17180 1.33249e-17
5944.25440 1.29290e-17
5946.32683 1.29374e-17
5948.39927 1.30127e-17
5950.48187 1.23542e-17
5952.55430 1.15993e-17
5954.63690 1.16652e-17
5956.70933 1.21366e-17
5958.78177 1.23382e-17
5960.86436 1.26005e-17
5962.93680 1.23710e-17
5965.01939 1.16174e-17
5967.09183 1.16935e-17
5969.16427 1.26123e-17
5971.24686 1.36118e-17
5973.31930 1.32837e-17
5975.40189 1.25053e-17
5977.47433 1.23777e-17
5979.54676 1.22297e-17
5981.62936 1.19176e-17
5983.70179 1.08517e-17
5985.77423 1.05626e-17
5987.85683 1.10387e-17
5989.92926 1.04957e-17
5992.01186 9.92504e-18
5994.08429 1.12675e-17
5996.15673 1.32072e-17
5998.23932 1.35375e-17
6000.31176 1.29537e-17
6002.39436 1.28523e-17
6004.46679 1.34192e-17
6006.53923 1.32740e-17
6008.62182 1.31267e-17
6010.69426 1.33138e-17
6012.77685 1.33678e-17
6014.84929 1.31462e-17
6016.92173 1.27536e-17
6019.00432 1.27802e-17
6021.07676 1.30368e-17
6023.14919 1.30883e-17
6025.23179 1.28956e-17
6027.30422 1.28532e-17
6029.38682 1.26737e-17
6031.45925 1.28332e-17
6033.53169 1.27323e-17
6035.61428 1.26463e-17
6037.68672 1.30261e-17
6039.76932 1.32235e-17
6041.84175 1.24405e-17
6043.91419 1.18692e-17
6045.99678 1.19582e-17
6048.06922 1.24981e-17
6050.15181 1.26850e-17
6052.22425 1.20637e-17
6054.29669 1.20265e-17
6056.37928 1.21451e-17
6058.45172 1.20878e-17
6060.52415 1.24903e-17
6062.60675 1.30822e-17
6064.67918 1.34518e-17
6066.76178 1.29854e-17
6068.83422 1.27658e-17
6070.90665 1.29234e-17
6072.98925 1.21905e-17
6075.06168 1.18435e-17
6077.14428 1.19160e-17
6079.21671 1.26772e-17
6081.28915 1.30292e-17
6083.37174 1.27998e-17
6085.44418 1.26856e-17
6087.52678 1.27884e-17
6089.59921 1.24711e-17
6091.67165 1.24121e-17
6093.75424 1.29161e-17
6095.82668 1.34618e-17
6097.89911 1.34713e-17
6099.98171 1.26072e-17
6102.05415 1.23709e-17
6104.13674 1.26893e-17
6106.20918 1.23981e-17
6108.28161 1.20939e-17
6110.36421 1.23276e-17
6112.43664 1.32475e-17
6114.51924 1.32872e-17
6116.59167 1.24399e-17
6118.66411 1.25844e-17
6120.74670 1.32238e-17
6122.81914 1.26337e-17
6124.90174 1.23886e-17
6126.97417 1.32189e-17
6129.04661 1.31301e-17
6131.12920 1.21192e-17
6133.20164 1.20347e-17
6135.27408 1.24119e-17
6137.35667 1.25644e-17
6139.42911 1.23805e-17
6141.51170 1.22476e-17
6143.58414 1.24799e-17
6145.65657 1.21305e-17
6147.73917 1.15478e-17
6149.81160 1.10907e-17
6151.89420 1.06416e-17
6153.96663 1.14041e-17
6156.03907 1.08550e-17
6158.12167 1.10953e-17
6160.19410 1.17958e-17
6162.27670 1.20083e-17
6164.34913 1.20478e-17
6166.42157 1.23843e-17
6168.50416 1.15955e-17
6170.57660 1.05139e-17
6172.64904 1.08504e-17
6174.73163 1.11561e-17
6176.80407 1.06955e-17
6178.88666 1.00496e-17
6180.95910 1.00197e-17
6183.03153 1.04491e-17
6185.11413 1.11520e-17
6187.18657 1.10317e-17
6189.26916 1.08816e-17
6191.34160 1.04862e-17
6193.41403 1.02162e-17
6195.49663 1.01443e-17
6197.56906 1.07072e-17
6199.65166 1.12422e-17
6201.72409 1.12181e-17
6203.79653 1.14253e-17
6205.87913 1.12177e-17
6207.95156 1.04754e-17
6210.02400 1.03534e-17
6212.10659 1.04344e-17
6214.17903 1.00472e-17
6216.26162 9.81788e-18
6218.33406 9.92919e-18
6220.41665 1.07147e-17
6222.48909 1.09359e-17
6224.56153 1.06936e-17
6226.64412 1.08740e-17
6228.71656 1.08646e-17
6230.78899 1.06286e-17
6232.87159 1.07094e-17
6234.94402 1.10115e-17
6237.02662 1.11475e-17
6239.09905 1.08098e-17
6241.17149 1.02320e-17
6243.25409 1.02764e-17
6245.32652 1.05206e-17
6247.40912 1.11810e-17
6249.48155 1.16751e-17
6251.55399 1.12566e-17
6253.63658 1.10596e-17
6255.70902 1.09183e-17
6257.79162 1.08556e-17
6259.86405 1.09859e-17
6261.93649 1.12745e-17
6264.01908 1.16616e-17
6266.09152 1.13540e-17
6268.16395 1.10096e-17
6270.24655 1.10233e-17
6272.31898 1.07193e-17
6274.40158 1.02779e-17
6276.47402 1.05993e-17
6278.54645 1.04980e-17
6280.62905 1.05019e-17
6282.70148 1.13728e-17
6284.78408 1.17888e-17
6286.85651 1.13585e-17
6288.92895 1.07155e-17
6291.01155 1.00993e-17
6293.08398 1.01807e-17
6295.16658 1.08966e-17
6297.23901 1.16064e-17
6299.31145 1.22933e-17
6301.39404 1.19003e-17
6303.46648 1.09180e-17
6305.53892 1.09394e-17
6307.62151 1.17213e-17
6309.69395 1.18308e-17
6311.77654 1.12290e-17
6313.84898 1.13316e-17
6315.92141 1.23331e-17
6318.00401 1.25669e-17
6320.07644 1.21684e-17
6322.15904 1.20849e-17
6324.23148 1.21625e-17
6326.30391 1.22818e-17
6328.38651 1.24795e-17
6330.45894 1.28636e-17
6332.54154 1.32491e-17
6334.61397 1.30554e-17
6336.68641 1.27271e-17
6338.76900 1.26777e-17
6340.84144 1.25914e-17
6342.92404 1.26856e-17
6344.99647 1.30535e-17
6347.06891 1.32102e-17
6349.15150 1.31786e-17
6351.22394 1.30881e-17
6353.29637 1.27908e-17
6355.37897 1.24485e-17
6357.45140 1.28498e-17
6359.53400 1.37247e-17
6361.60644 1.38345e-17
6363.67887 1.36780e-17
6365.76147 1.31156e-17
6367.83390 1.30818e-17
6369.91650 1.30784e-17
6371.98893 1.30745e-17
6374.06137 1.34057e-17
6376.14397 1.35217e-17
6378.21640 1.36568e-17
6380.29900 1.34109e-17
6382.37143 1.28897e-17
6384.44387 1.26424e-17
6386.52646 1.25681e-17
6388.59890 1.27279e-17
6390.67133 1.28960e-17
6392.75393 1.31267e-17
6394.82637 1.31531e-17
6396.90896 1.29761e-17
6398.98140 1.31763e-17
6401.05383 1.36628e-17
6403.13643 1.36846e-17
6405.20886 1.34054e-17
6407.29146 1.34647e-17
6409.36390 1.32401e-17
6411.43633 1.25785e-17
6413.51893 1.25989e-17
6415.59136 1.25820e-17
6417.67396 1.22483e-17
6419.74639 1.24757e-17
6421.81883 1.26004e-17
6423.90142 1.27141e-17
6425.97386 1.24583e-17
6428.04630 1.22351e-17
6430.12889 1.24668e-17
6432.20133 1.25656e-17
6434.28392 1.23951e-17
6436.35636 1.23966e-17
6438.42879 1.24928e-17
6440.51139 1.26029e-17
6442.58382 1.22385e-17
6444.66642 1.24623e-17
6446.73886 1.24244e-17
6448.81129 1.20949e-17
6450.89389 1.20690e-17
6452.96632 1.21793e-17
6455.04892 1.20658e-17
6457.12135 1.20689e-17
6459.19379 1.26743e-17
6461.27639 1.30014e-17
6463.34882 1.29686e-17
6465.42126 1.25594e-17
6467.50385 1.23841e-17
6469.57629 1.21966e-17
6471.65888 1.19110e-17
6473.73132 1.23858e-17
6475.80375 1.24094e-17
6477.88635 1.27106e-17
6479.95879 1.28253e-17
6482.04138 1.24492e-17
6484.11382 1.26114e-17
6486.18625 1.27706e-17
6488.26885 1.25657e-17
6490.34128 1.26686e-17
6492.42388 1.32486e-17
6494.49632 1.34911e-17
6496.56875 1.30195e-17
6498.65135 1.28712e-17
6500.72378 1.28309e-17
6502.79622 1.27155e-17
6504.87881 1.28223e-17
6506.95125 1.28909e-17
6509.03384 1.33483e-17
6511.10628 1.36579e-17
6513.17872 1.35337e-17
6515.26131 1.31273e-17
6517.33375 1.28912e-17
6519.41634 1.32280e-17
6521.48878 1.36427e-17
6523.56121 1.36697e-17
6525.64381 1.30839e-17
6527.71625 1.31510e-17
6529.79884 1.34744e-17
6531.87128 1.32016e-17
6533.94371 1.29799e-17
6536.02631 1.27599e-17
6538.09874 1.28590e-17
6540.17118 1.35318e-17
6542.25377 1.40598e-17
6544.32621 1.39280e-17
6546.40881 1.37058e-17
6548.48124 1.35907e-17
6550.55368 1.33385e-17
6552.63627 1.33582e-17
6554.70871 1.34783e-17
6556.79130 1.34303e-17
6558.86374 1.31673e-17
6560.93617 1.29670e-17
6563.01877 1.33243e-17
6565.09121 1.33054e-17
6567.17380 1.31283e-17
6569.24624 1.30151e-17
6571.31867 1.28184e-17
6573.40127 1.27533e-17
6575.47370 1.30637e-17
6577.54614 1.30151e-17
6579.62874 1.27480e-17
6581.70117 1.27341e-17
6583.78377 1.27394e-17
6585.85620 1.28141e-17
6587.92864 1.28971e-17
6590.01123 1.32146e-17
6592.08367 1.31586e-17
6594.16626 1.29377e-17
6596.23870 1.28451e-17
6598.31114 1.25930e-17
6600.39373 1.24583e-17
6602.46617 1.22431e-17
6604.54876 1.22352e-17
6606.62120 1.24421e-17
6608.69363 1.27301e-17
6610.77623 1.28405e-17
6612.84867 1.27819e-17
6614.93126 1.28539e-17
6617.00370 1.25611e-17
6619.07613 1.22904e-17
6621.15873 1.23109e-17
6623.23116 1.27653e-17
6625.30360 1.30878e-17
6627.38619 1.28828e-17
6629.45863 1.26339e-17
6631.54122 1.24047e-17
6633.61366 1.23435e-17
6635.68610 1.25164e-17
6637.76869 1.25220e-17
6639.84113 1.25275e-17
6641.92372 1.25331e-17
6643.99616 1.25387e-17
6646.06860 1.25443e-17
6648.15119 1.25499e-17
6650.22363 1.25554e-17
6652.30622 1.25610e-17
6654.37866 1.25666e-17
6656.45109 1.25722e-17
6658.53369 1.25777e-17
6660.60612 1.25833e-17
6662.67856 1.25889e-17
6664.76116 1.25945e-17
6666.83359 1.26000e-17
6668.91619 1.26056e-17
6670.98862 1.26112e-17
6673.06106 1.26168e-17
6675.14365 1.26224e-17
6677.21609 1.26279e-17
6679.29868 1.26335e-17
6681.37112 1.26391e-17
6683.44356 1.26447e-17
6685.52615 1.26502e-17
6687.59859 1.26558e-17
6689.68118 1.26614e-17
6691.75362 1.26669e-17
6693.82605 1.26725e-17
6695.90865 1.26781e-17
6697.98108 1.26837e-17
6700.06368 1.26600e-17
6702.13612 1.27136e-17
6704.20855 1.27689e-17
6706.29115 1.27619e-17
6708.36358 1.26798e-17
6710.43602 1.28599e-17
6712.51861 1.29819e-17
6714.59105 1.29008e-17
6716.67365 1.26957e-17
6718.74608 1.25660e-17
6720.81852 1.26517e-17
6722.90111 1.23994e-17
6724.97355 1.22700e-17
6727.05614 1.27492e-17
6729.12858 1.27678e-17
6731.20102 1.23904e-17
6733.28361 1.22662e-17
6735.35605 1.22249e-17
6737.43864 1.19371e-17
6739.51108 1.18580e-17
6741.58351 1.23702e-17
6743.66611 1.25596e-17
6745.73854 1.22523e-17
6747.81098 1.20084e-17
6749.89358 1.21923e-17
6751.96601 1.22890e-17
6754.04861 1.22925e-17
6756.12104 1.23063e-17
6758.19348 1.21146e-17
6760.27607 1.20274e-17
6762.34851 1.20649e-17
6764.43110 1.18737e-17
6766.50354 1.15942e-17
6768.57598 1.16362e-17
6770.65857 1.19362e-17
6772.73101 1.19535e-17
6774.81360 1.18207e-17
6776.88604 1.17455e-17
6778.95847 1.16569e-17
6781.04107 1.19258e-17
6783.11351 1.20915e-17
6785.18594 1.17379e-17
6787.26854 1.17991e-17
6789.34097 1.21480e-17
6791.42357 1.18345e-17
6793.49600 1.12371e-17
6795.56844 1.11210e-17
6797.65103 1.14082e-17
6799.72347 1.15924e-17
6801.80607 1.14655e-17
6803.87850 1.12367e-17
6805.95094 1.12065e-17
6808.03353 1.12778e-17
6810.10597 1.12574e-17
6812.18856 1.11647e-17
6814.26100 1.12262e-17
6816.33343 1.12575e-17
6818.41603 1.14267e-17
6820.48847 1.17076e-17
6822.57106 1.19513e-17
6824.64350 1.21836e-17
6826.71593 1.20495e-17
6828.79853 1.18576e-17
6830.87096 1.17358e-17
6832.94340 1.13840e-17
6835.02599 1.08339e-17
6837.09843 1.09235e-17
6839.18103 1.16567e-17
6841.25346 1.17239e-17
6843.32590 1.11412e-17
6845.40849 1.07661e-17
6847.48093 1.09053e-17
6849.56352 1.11288e-17
6851.63596 1.15288e-17
6853.70840 1.17465e-17
6855.79099 1.15575e-17
6857.86343 1.13367e-17
6859.94602 1.13579e-17
6862.01846 1.08919e-17
6864.09089 1.03100e-17
6866.17349 1.03481e-17
6868.24593 1.08697e-17
6870.31836 1.10417e-17
6872.40096 1.10870e-17
6874.47339 1.15660e-17
6876.55599 1.14394e-17
6878.62842 1.10559e-17
6880.70086 1.12628e-17
6882.78345 1.12962e-17
6884.85589 1.06174e-17
6886.93848 1.02075e-17
6889.01092 1.01568e-17
6891.08336 1.01829e-17
6893.16595 1.03333e-17
6895.23839 1.00521e-17
6897.32098 1.02771e-17
6899.39342 1.09032e-17
6901.46586 1.11198e-17
6903.54845 1.10123e-17
6905.62089 1.07951e-17
6907.69332 1.05925e-17
6909.77592 1.05241e-17
6911.84835 1.06287e-17
6913.93095 1.07760e-17
6916.00338 1.05331e-17
6918.07582 1.02771e-17
6920.15842 1.06582e-17
6922.23085 1.13460e-17
6924.31345 1.14051e-17
6926.38588 1.10086e-17
6928.45832 1.05923e-17
6930.54091 1.03640e-17
6932.61335 1.03047e-17
6934.69594 1.06616e-17
6936.76838 1.06972e-17
6938.84082 1.02089e-17
6940.92341 1.02545e-17
6942.99585 1.08869e-17
6945.07844 1.10788e-17
6947.15088 1.07222e-17
6949.22331 1.04980e-17
6951.30591 1.05339e-17
6953.37835 1.07195e-17
6955.45078 1.10212e-17
6957.53338 1.12652e-17
6959.60581 1.13133e-17
6961.68841 1.10776e-17
6963.76084 1.07917e-17
6965.83328 1.08441e-17
6967.91587 1.11412e-17
6969.98831 1.14058e-17
6972.07090 1.12528e-17
6974.14334 1.09540e-17
6976.21578 1.06777e-17
6978.29837 1.03564e-17
6980.37081 1.05438e-17
6982.45340 1.08388e-17
6984.52584 1.06679e-17
6986.59828 1.04246e-17
6988.68087 1.02511e-17
6990.75331 1.00920e-17
6992.82574 1.01495e-17
6994.90834 1.05294e-17
6996.98077 1.06730e-17
6999.06337 1.04847e-17
7001.13580 1.04691e-17
7003.20824 1.05787e-17
7005.29083 1.05944e-17
7007.36327 1.04939e-17
7009.44587 1.05043e-17
7011.51830 1.07508e-17
7013.59074 1.06906e-17
7015.67333 1.03247e-17
7017.74577 1.01375e-17
7019.82836 1.03832e-17
7021.90080 1.05855e-17
7023.97324 1.01808e-17
7026.05583 9.87526e-18
7028.12827 1.03938e-17
7030.20070 1.09260e-17
7032.28330 1.11056e-17
7034.35573 1.10870e-17
7036.43833 1.07511e-17
7038.51077 1.04764e-17
7040.58320 1.05607e-17
7042.66580 1.06073e-17
7044.73823 1.04735e-17
7046.82083 1.07500e-17
7048.89326 1.09423e-17
7050.96570 1.05969e-17
7053.04829 1.03316e-17
7055.12073 1.01972e-17
7057.20333 1.04478e-17
7059.27576 1.07506e-17
7061.34820 1.05833e-17
7063.43079 1.04144e-17
7065.50323 1.04278e-17
7067.58582 1.07455e-17
7069.65826 1.11175e-17
7071.73070 1.10213e-17
7073.81329 1.05897e-17
7075.88573 1.03420e-17
7077.95816 1.02972e-17
7080.04076 1.02460e-17
7082.11319 1.01295e-17
7084.19579 9.97513e-18
7086.26822 1.02260e-17
7088.34066 1.06108e-17
7090.42325 1.06569e-17
7092.49569 1.04695e-17
7094.57829 1.03978e-17
7096.65072 1.04552e-17
7098.72316 1.06629e-17
7100.80575 1.05071e-17
7102.87819 1.00139e-17
7104.96078 1.01520e-17
7107.03322 1.02503e-17
7109.10566 1.00574e-17
7111.18825 1.01142e-17
7113.26069 1.02539e-17
7115.33312 1.03026e-17
7117.41572 1.04079e-17
7119.48815 1.02954e-17
7121.57075 1.01012e-17
7123.64318 1.02307e-17
7125.71562 1.04641e-17
7127.79822 1.05116e-17
7129.87065 1.05054e-17
7131.95325 1.05104e-17
7134.02568 1.02384e-17
7136.09812 9.90404e-18
7138.18071 1.01949e-17
7140.25315 1.04494e-17
7142.33575 1.04222e-17
7144.40818 1.04016e-17
7146.48062 1.02806e-17
7148.56321 1.04363e-17
7150.63565 1.04533e-17
7152.70808 1.04913e-17
7154.79068 1.07340e-17
7156.86312 1.08315e-17
7158.94571 1.06804e-17
7161.01815 1.06757e-17
7163.09058 1.06835e-17
7165.17318 1.02814e-17
7167.24561 9.98884e-18
7169.32821 1.03631e-17
7171.40064 1.07897e-17
7173.47308 1.08833e-17
7175.55568 1.08388e-17
7177.62811 1.06331e-17
7179.71071 1.03371e-17
7181.78314 1.05540e-17
7183.85558 1.10351e-17
7185.93817 1.11021e-17
7188.01061 1.10883e-17
7190.09320 1.10024e-17
7192.16564 1.06552e-17
7194.23808 1.04024e-17
7196.32067 1.05087e-17
7198.39311 1.07676e-17
7200.46554 1.07439e-17
7202.54814 1.04512e-17
7204.62057 1.02806e-17
7206.70317 1.02843e-17
7208.77560 1.04641e-17
7210.84804 1.05262e-17
7212.93064 1.03294e-17
7215.00307 1.04373e-17
7217.08567 1.07789e-17
7219.15810 1.08430e-17
7221.23054 1.07796e-17
7223.31313 1.06665e-17
7225.38557 1.06091e-17
7227.46817 1.07598e-17
7229.54060 1.07967e-17
7231.61304 1.05349e-17
7233.69563 1.05093e-17
7235.76807 1.07555e-17
7237.84050 1.08641e-17
7239.92310 1.04875e-17
7241.99554 1.05497e-17
7244.07813 1.04790e-17
7246.15057 1.03467e-17
7248.22300 1.04845e-17
7250.30560 1.02336e-17
7252.37803 1.00595e-17
7254.46063 1.05736e-17
7256.53306 1.06336e-17
7258.60550 1.07845e-17
7260.68810 1.09325e-17
7262.76053 1.06491e-17
7264.84313 1.04774e-17
7266.91556 1.05686e-17
7268.98800 1.03608e-17
7271.07059 1.01174e-17
7273.14303 1.01602e-17
7275.21547 1.04023e-17
7277.29806 1.05366e-17
7279.37050 1.07379e-17
7281.45309 1.08091e-17
7283.52553 1.07909e-17
7285.59796 1.08651e-17
7287.68056 1.06341e-17
7289.75299 1.03756e-17
7291.83559 1.07063e-17
7293.90803 1.07119e-17
7295.98046 1.03086e-17
7298.06306 1.00681e-17
7300.13549 1.04448e-17
7302.21809 1.06551e-17
7304.29052 1.04037e-17
7306.36296 1.04152e-17
7308.44555 1.01671e-17
7310.51799 9.89971e-18
7312.60059 9.96785e-18
7314.67302 1.00815e-17
7316.74546 1.00521e-17
7318.82805 1.01989e-17
7320.90049 1.00603e-17
7322.97292 1.00095e-17
7325.05552 1.03899e-17
7327.12795 1.02542e-17
7329.21055 9.57786e-18
7331.28299 9.57790e-18
7333.35542 9.91736e-18
7335.43802 9.96901e-18
7337.51045 1.00106e-17
7339.59305 9.89119e-18
7341.66548 9.77493e-18
7343.73792 9.87197e-18
7345.82052 9.79497e-18
7347.89295 9.78462e-18
7349.97555 9.89313e-18
7352.04798 1.00485e-17
7354.12042 1.03828e-17
7356.20301 1.05040e-17
7358.27545 1.02427e-17
7360.34789 1.02720e-17
7362.43048 1.05257e-17
7364.50292 1.03906e-17
7366.58551 1.02492e-17
7368.65795 1.02033e-17
7370.73038 9.77055e-18
7372.81298 9.62536e-18
7374.88541 9.82353e-18
7376.96801 9.90639e-18
7379.04045 9.92007e-18
7381.11288 9.79613e-18
7383.19548 9.43331e-18
7385.26791 9.44412e-18
7387.35051 9.74602e-18
7389.42294 9.98226e-18
7391.49538 1.01184e-17
7393.57797 9.97868e-18
7395.65041 9.70584e-18
7397.72285 9.63193e-18
7399.80544 9.80725e-18
7401.87788 9.82996e-18
7403.96047 9.59258e-18
7406.03291 9.57162e-18
7408.10534 9.90422e-18
7410.18794 9.93147e-18
7412.26037 9.57150e-18
7414.34297 9.65381e-18
7416.41541 1.00594e-17
7418.48784 1.01712e-17
7420.57044 1.01235e-17
7422.64287 9.86023e-18
7424.72547 9.43954e-18
7426.79790 9.36688e-18
7428.87034 9.46378e-18
7430.95294 9.49493e-18
7433.02537 9.32712e-18
7435.09781 9.02860e-18
7437.18040 8.85767e-18
7439.25284 8.86373e-18
7441.33543 9.17039e-18
7443.40787 9.39832e-18
7445.48031 9.45602e-18
7447.56290 9.40529e-18
7449.63534 9.16649e-18
7451.71793 8.74181e-18
7453.79037 8.52325e-18
7455.86280 8.86397e-18
7457.94540 9.22316e-18
7460.01783 8.92973e-18
7462.10043 8.54253e-18
7464.17287 8.54377e-18
7466.24530 8.38644e-18
7468.32790 8.16523e-18
7470.40033 8.37476e-18
7472.47277 8.51043e-18
7474.55536 8.26857e-18
7476.62780 7.96117e-18
7478.71039 7.73568e-18
7480.78283 7.70014e-18
7482.85527 7.98864e-18
7484.93786 8.03677e-18
7487.01030 7.88955e-18
7489.09289 7.63271e-18
7491.16533 7.16438e-18
7493.23776 7.07973e-18
7495.32036 7.28843e-18
7497.39280 7.22934e-18
7499.47539 7.26069e-18
7501.54783 7.37390e-18
7503.62026 7.12621e-18
7505.70286 6.90491e-18
7507.77529 7.27934e-18
7509.84773 7.60283e-18
7511.93032 7.42093e-18
7514.00276 6.79935e-18
7516.08536 6.50651e-18
7518.15779 6.62951e-18
7520.24039 6.82864e-18
7522.31282 7.08526e-18
7524.38526 6.91495e-18
7526.46785 6.64652e-18
7528.54029 6.56597e-18
7530.61272 6.16569e-18
7532.69532 6.35144e-18
7534.76776 6.68159e-18
7536.85035 6.76888e-18
7538.92279 6.58465e-18
7540.99522 6.42338e-18
7543.07782 6.35542e-18
7545.15025 6.48285e-18
7547.23285 6.89316e-18
7549.30528 6.75654e-18
7551.37772 6.30121e-18
7553.46032 6.13588e-18
7555.53275 6.53742e-18
7557.61535 6.88842e-18
7559.68778 6.51064e-18
7561.76022 6.06008e-18
7563.84281 6.03051e-18
7565.91525 6.28818e-18
7567.98769 6.43694e-18
7570.07028 6.39315e-18
7572.14272 6.54787e-18
7574.22531 6.92016e-18
7576.29775 7.01436e-18
7578.37018 6.62818e-18
7580.45278 6.63638e-18
7582.52522 6.68983e-18
7584.60781 6.70854e-18
7586.68025 6.33139e-18
7588.75268 6.27466e-18
7590.83528 6.50109e-18
7592.90771 6.32694e-18
7594.99031 5.90439e-18
7597.06274 5.82375e-18
7599.13518 6.61190e-18
7601.21778 6.83322e-18
7603.29021 6.68520e-18
7605.36265 6.67600e-18
7607.44524 7.10734e-18
7609.51768 6.88632e-18
7611.60027 6.71552e-18
7613.67271 6.28923e-18
7615.74515 6.19712e-18
7617.82774 6.80273e-18
7619.90018 6.29568e-18
7621.98277 6.16203e-18
7624.05521 6.02182e-18
7626.12764 6.13593e-18
7628.21024 6.83827e-18
7630.28267 6.28373e-18
7632.36527 5.91997e-18
7634.43771 6.67731e-18
7636.51014 6.98137e-18
7638.59274 7.25871e-18
7640.66517 7.19737e-18
7642.73761 6.73951e-18
7644.82020 6.65635e-18
7646.89264 7.11558e-18
7648.97523 7.45572e-18
7651.04767 7.94113e-18
7653.12011 8.20370e-18
7655.20270 7.79653e-18
7657.27514 7.66362e-18
7659.35773 7.77266e-18
7661.43017 7.79551e-18
7663.50260 7.82675e-18
7665.58520 7.84076e-18
7667.65763 7.96786e-18
7669.74023 8.04797e-18
7671.81267 7.69228e-18
7673.88510 7.60811e-18
7675.96770 7.81713e-18
7678.04013 7.90859e-18
7680.12273 8.09389e-18
7682.19516 8.04339e-18
7684.26760 7.69096e-18
7686.35019 7.77678e-18
7688.42263 7.95797e-18
7690.49507 8.10243e-18
7692.57766 8.35594e-18
7694.65010 8.59103e-18
7696.73269 8.56559e-18
7698.80513 8.41220e-18
7700.87757 8.17535e-18
7702.96016 8.26477e-18
7705.03260 8.62266e-18
7707.11519 8.98519e-18
7709.18763 9.22232e-18
7711.26006 9.13160e-18
7713.34266 8.92985e-18
7715.41509 8.94522e-18
7717.49769 8.84977e-18
7719.57013 8.87452e-18
7721.64256 9.03738e-18
7723.72516 9.20633e-18
7725.79759 9.24043e-18
7727.87003 9.33971e-18
7729.95262 9.30788e-18
7732.02506 9.24950e-18
7734.10765 9.11045e-18
7736.18009 9.41678e-18
7738.25253 9.87966e-18
7740.33512 9.89715e-18
7742.40756 9.49773e-18
7744.49015 9.39086e-18
7746.56259 9.97574e-18
7748.63502 1.03798e-17
7750.71762 1.02047e-17
7752.79006 9.77863e-18
7754.87265 9.58467e-18
7756.94509 9.76616e-18
7759.01752 9.89478e-18
7761.10012 9.96369e-18
7763.17255 9.86667e-18
7765.24499 9.58399e-18
7767.32758 9.53504e-18
7769.40002 9.58924e-18
7771.48262 9.74077e-18
7773.55505 1.02298e-17
7775.62749 1.08016e-17
7777.71008 1.05852e-17
7779.78252 1.00268e-17
7781.86511 9.87598e-18
7783.93755 9.83225e-18
7786.00998 9.67946e-18
7788.09258 9.46532e-18
7790.16502 9.35668e-18
7792.24761 9.52033e-18
7794.32005 1.01034e-17
7796.39248 1.08057e-17
7798.47508 1.07899e-17
7800.54751 1.01498e-17
7802.61995 1.00192e-17
7804.70255 1.07070e-17
7806.77498 1.11089e-17
7808.85758 1.09341e-17
7810.93001 1.07394e-17
7813.00245 1.05629e-17
7815.08504 1.05034e-17
7817.15748 1.09025e-17
7819.24007 1.15015e-17
7821.31251 1.15252e-17
7823.38495 1.10143e-17
7825.46754 1.04563e-17
7827.53998 1.00009e-17
7829.62257 9.87494e-18
7831.69501 1.02416e-17
7833.76744 1.04372e-17
7835.85004 1.07171e-17
7837.92248 1.11044e-17
7839.99491 1.08468e-17
7842.07751 1.05858e-17
7844.14994 1.08007e-17
7846.23254 1.06797e-17
7848.30497 1.06885e-17
7850.37741 1.09916e-17
7852.46000 1.09102e-17
7854.53244 1.09110e-17
7856.61503 1.11073e-17
7858.68747 1.12053e-17
7860.75991 1.08523e-17
7862.84250 1.03458e-17
7864.91494 9.95040e-18
7866.99753 9.82863e-18
7869.06997 1.03045e-17
7871.14240 1.10888e-17
7873.22500 1.10228e-17
7875.29744 1.09857e-17
7877.38003 1.12880e-17
7879.45247 1.08212e-17
7881.52490 1.05799e-17
7883.60750 1.07324e-17
7885.67993 1.02037e-17
7887.75237 9.68203e-18
7889.83497 9.80249e-18
7891.90740 1.01524e-17
7893.99000 1.05055e-17
7896.06243 1.03302e-17
7898.13487 1.00484e-17
7900.21746 1.00793e-17
7902.28990 1.01729e-17
7904.37249 1.00899e-17
7906.44493 1.03304e-17
7908.51737 1.07972e-17
7910.59996 1.10992e-17
7912.67240 1.12287e-17
7914.75499 1.11857e-17
7916.82743 1.06378e-17
7918.89986 1.07815e-17
7920.98246 1.13725e-17
7923.05490 1.11198e-17
7925.12733 1.06521e-17
7927.20993 1.04981e-17
7929.28236 1.03160e-17
7931.36496 1.02243e-17
7933.43739 1.04085e-17
7935.50983 1.03371e-17
7937.59242 1.05191e-17
7939.66486 1.09940e-17
7941.74745 1.07300e-17
7943.81989 1.03626e-17
7945.89233 1.02110e-17
7947.97492 1.03119e-17
7950.04736 1.05526e-17
7952.12995 1.03243e-17
7954.20239 1.02755e-17
7956.27483 1.06754e-17
7958.35742 1.05832e-17
7960.42986 1.00343e-17
7962.50229 9.97158e-18
7964.58489 1.06305e-17
7966.65732 1.07442e-17
7968.73992 1.02600e-17
7970.81235 1.01688e-17
7972.88479 1.02216e-17
7974.96738 1.03436e-17
7977.03982 1.00091e-17
7979.12242 9.67186e-18
7981.19485 9.79799e-18
7983.26729 1.03318e-17
7985.34988 1.00393e-17
7987.42232 1.02161e-17
7989.50491 1.03536e-17
7991.57735 1.06340e-17
7993.64979 1.10842e-17
7995.73238 1.12328e-17
7997.80482 1.06652e-17
7999.88741 1.01454e-17
8001.95985 1.01571e-17
8004.03228 9.75894e-18
8006.11488 9.32081e-18
8008.18732 9.54195e-18
8010.25975 9.77520e-18
8012.34235 9.70038e-18
8014.41478 9.75287e-18
8016.49738 9.65716e-18
8018.56981 9.33813e-18
8020.64225 9.24964e-18
8022.72484 9.26818e-18
8024.79728 9.46170e-18
8026.87988 9.91988e-18
8028.95231 9.81589e-18
8031.02475 9.79579e-18
8033.10734 9.88292e-18
8035.17978 9.63409e-18
8037.26237 9.37750e-18
8039.33481 9.40163e-18
8041.40725 9.41929e-18
8043.48984 9.52424e-18
8045.56228 9.55352e-18
8047.63471 9.24843e-18
8049.71731 9.22111e-18
8051.78974 9.56007e-18
8053.87234 9.67767e-18
8055.94477 9.56242e-18
8058.01721 9.70888e-18
8060.09980 9.82952e-18
8062.17224 9.73746e-18
8064.25484 9.55507e-18
8066.32727 9.58059e-18
8068.39971 9.95751e-18
8070.48230 1.01260e-17
8072.55474 9.68322e-18
8074.63733 9.24809e-18
8076.70977 9.17872e-18
8078.78221 9.02710e-18
8080.86480 8.98136e-18
8082.93724 9.13624e-18
8085.00967 9.10013e-18
8087.09227 9.19656e-18
8089.16470 9.16703e-18
8091.24730 8.69679e-18
8093.31974 8.23673e-18
8095.39217 7.97516e-18
8097.47477 7.87846e-18
8099.54720 8.14527e-18
8101.62980 8.58052e-18
8103.70223 8.62930e-18
8105.77467 8.37348e-18
8107.85726 8.12524e-18
8109.92970 8.22070e-18
8112.01230 8.42035e-18
8114.08473 8.50711e-18
8116.15717 8.33349e-18
8118.23976 8.08035e-18
8120.31220 8.12186e-18
8122.39479 8.18732e-18
8124.46723 8.21481e-18
8126.53967 8.34973e-18
8128.62226 8.39502e-18
8130.69470 8.50308e-18
8132.76713 8.59443e-18
8134.84973 8.42406e-18
8136.92216 7.75932e-18
8139.00476 7.34890e-18
8141.07719 7.89810e-18
8143.14963 8.23130e-18
8145.23223 7.81756e-18
8147.30466 7.65981e-18
8149.38726 7.57914e-18
8151.45969 7.26585e-18
8153.53213 7.34255e-18
8155.61472 7.46483e-18
8157.68716 7.24875e-18
8159.76975 7.20308e-18
8161.84219 7.16763e-18
8163.91463 7.27084e-18
8165.99722 7.79266e-18
8168.06966 7.97753e-18
8170.14209 7.93973e-18
8172.22469 7.84702e-18
8174.29712 7.36358e-18
8176.37972 6.80482e-18
8178.45215 6.85956e-18
8180.52459 7.33902e-18
8182.60719 7.55525e-18
8184.67962 7.21935e-18
8186.76222 6.71666e-18
8188.83465 6.70169e-18
8190.90709 6.99602e-18
8192.98968 6.89785e-18
8195.06212 6.39435e-18
8197.14472 6.25980e-18
8199.21715 6.73532e-18
8201.28959 6.78155e-18
8203.37218 6.61442e-18
8205.44462 6.52728e-18
8207.52721 6.59042e-18
8209.59965 6.30595e-18
8211.67209 5.88479e-18
8213.75468 5.91897e-18
8215.82712 6.05936e-18
8217.89955 5.95414e-18
8219.98215 5.62480e-18
8222.05458 6.05074e-18
8224.13718 6.65370e-18
8226.20961 6.62038e-18
8228.28205 6.42930e-18
8230.36464 6.36383e-18
8232.43708 6.27746e-18
8234.51968 5.89457e-18
8236.59211 5.59972e-18
8238.66455 5.36855e-18
8240.74714 5.37631e-18
8242.81958 5.85512e-18
8244.90217 5.71006e-18
8246.97461 5.18087e-18
8249.04705 5.09701e-18
8251.12964 5.29111e-18
8253.20208 5.48196e-18
8255.27451 5.11588e-18
8257.35711 4.71095e-18
8259.42954 4.78988e-18
8261.51214 5.09178e-18
8263.58458 5.39735e-18
8265.65701 5.60683e-18
8267.73961 5.49972e-18
8269.81204 5.19013e-18
8271.89464 5.08669e-18
8273.96707 5.11668e-18
8276.03951 5.44931e-18
8278.12210 5.76220e-18
8280.19454 5.48274e-18
8282.27714 5.25087e-18
8284.34957 5.67603e-18
8286.42201 5.79739e-18
8288.50460 5.47351e-18
8290.57704 5.49226e-18
8292.64947 5.75988e-18
8294.73207 5.77146e-18
8296.80451 5.89242e-18
8298.88710 6.18390e-18
8300.95954 6.29191e-18
8303.03197 6.10741e-18
8305.11457 5.88403e-18
8307.18700 6.10297e-18
8309.26960 6.14632e-18
8311.34203 5.83622e-18
8313.41447 5.52336e-18
8315.49707 5.95117e-18
8317.56950 6.20927e-18
8319.65210 6.15657e-18
8321.72453 6.26094e-18
8323.79697 6.04170e-18
8325.87956 6.11186e-18
8327.95200 6.05485e-18
8330.02443 6.13204e-18
8332.10703 6.47674e-18
8334.17947 6.41553e-18
8336.26206 6.30194e-18
8338.33450 6.18157e-18
8340.40693 6.04639e-18
8342.48953 6.07937e-18
8344.56196 5.97912e-18
8346.64456 6.02827e-18
8348.71699 6.17053e-18
8350.78943 7.00822e-18
8352.87203 6.85020e-18
8354.94446 6.49301e-18
8357.02706 6.44222e-18
8359.09949 6.27683e-18
8361.17193 6.36972e-18
8363.25452 6.51417e-18
8365.32696 6.78000e-18
8367.39940 7.22114e-18
8369.48199 7.18944e-18
8371.55443 6.65726e-18
8373.63702 6.20055e-18
8375.70946 6.25593e-18
8377.78189 6.52918e-18
8379.86449 6.70419e-18
8381.93692 7.37434e-18
8384.01952 7.47945e-18
8386.09196 7.02173e-18
8388.16439 6.80329e-18
8390.24699 7.08474e-18
8392.31942 7.43547e-18
8394.40202 7.54813e-18
8396.47445 7.69042e-18
8398.54689 7.56703e-18
8400.62948 6.76027e-18
8402.70192 6.48374e-18
8404.77436 6.92376e-18
8406.85695 7.14962e-18
8408.92939 6.90664e-18
8411.01198 6.48390e-18
8413.08442 6.77887e-18
8415.16701 7.24775e-18
8417.23945 6.95072e-18
8419.31189 6.53171e-18
8421.39448 7.19568e-18
8423.46692 7.80011e-18
8425.53935 7.37613e-18
8427.62195 7.61797e-18
8429.69438 8.19313e-18
8431.77698 8.19295e-18
8433.84942 7.35213e-18
8435.92185 7.28818e-18
8438.00445 7.79510e-18
8440.07688 7.95757e-18
8442.15948 7.88839e-18
8444.23191 7.28376e-18
8446.30435 7.13409e-18
8448.38694 7.93838e-18
8450.45938 8.79061e-18
8452.54198 9.03616e-18
8454.61441 8.79163e-18
8456.68685 7.96741e-18
8458.76944 7.74027e-18
8460.84188 7.51736e-18
8462.91431 7.53344e-18
8464.99691 7.45330e-18
8467.06934 7.80231e-18
8469.15194 8.49181e-18
8471.22438 8.97123e-18
8473.29681 8.79809e-18
8475.37941 8.46131e-18
8477.45184 8.15359e-18
8479.53444 8.33951e-18
8481.60687 9.08593e-18
8483.67931 8.62057e-18
8485.76191 7.85591e-18
8487.83434 8.00788e-18
8489.91694 8.61573e-18
8491.98937 8.68727e-18
8494.06181 8.69954e-18
8496.14440 8.88952e-18
8498.21684 8.45562e-18
8500.28928 8.01242e-18
8502.37187 8.20725e-18
8504.44431 8.23912e-18
8506.52690 8.50172e-18
8508.59934 8.78717e-18
8510.67177 8.64680e-18
8512.75437 8.52650e-18
8514.82680 8.57965e-18
8516.90940 8.59674e-18
8518.98184 9.05891e-18
8521.05427 9.63606e-18
8523.13687 9.26920e-18
8525.20930 8.61303e-18
8527.29190 8.55441e-18
8529.36433 9.07747e-18
8531.43677 9.30901e-18
8533.51936 9.26796e-18
8535.59180 9.38061e-18
8537.66424 9.04261e-18
8539.74683 8.67746e-18
8541.81927 9.14251e-18
8543.90186 9.78400e-18
8545.97430 9.53390e-18
8548.04673 8.99061e-18
8550.12933 9.06192e-18
8552.20176 9.25382e-18
8554.28436 9.29912e-18
8556.35680 9.46600e-18
8558.42923 9.64909e-18
8560.51183 9.45881e-18
8562.58426 9.04920e-18
8564.66686 8.94140e-18
8566.73929 8.82956e-18
8568.81173 8.86265e-18
8570.89433 9.46750e-18
8572.96676 9.89850e-18
8575.03920 9.80468e-18
8577.12179 9.85180e-18
8579.19423 1.01475e-17
8581.27682 1.01044e-17
8583.34926 9.65933e-18
8585.42169 9.29548e-18
8587.50429 9.31566e-18
8589.57673 9.55146e-18
8591.65932 9.71533e-18
8593.73176 9.83564e-18
8595.80419 1.01518e-17
8597.88679 1.06201e-17
8599.95922 1.08779e-17
8602.04182 1.09910e-17
8604.11426 1.10243e-17
8606.18669 1.06781e-17
8608.26929 1.02630e-17
8610.34172 1.01363e-17
8612.41416 1.03412e-17
8614.49675 1.03511e-17
8616.56919 9.75342e-18
8618.65178 9.75638e-18
8620.72422 1.08399e-17
8622.79666 1.15142e-17
8624.87925 1.15437e-17
8626.95169 1.12898e-17
8629.03428 1.09980e-17
8631.10672 1.06665e-17
8633.17915 1.10751e-17
8635.26175 1.11991e-17
8637.33418 1.04000e-17
8639.41678 9.55815e-18
8641.48922 9.96505e-18
8643.56165 1.06129e-17
8645.64425 1.10330e-17
8647.71668 1.10470e-17
8649.79928 1.05335e-17
8651.87171 1.04154e-17
8653.94415 1.05525e-17
8656.02674 1.07722e-17
8658.09918 1.10054e-17
8660.17162 1.12274e-17
8662.25421 1.13536e-17
8664.32665 1.13062e-17
8666.40924 1.09953e-17
8668.48168 1.05073e-17
8670.55412 1.06016e-17
8672.63671 1.09625e-17
8674.70915 9.95099e-18
8676.79174 9.48440e-18
8678.86418 1.04101e-17
8680.93661 1.05440e-17
8683.01921 1.03129e-17
8685.09164 1.04119e-17
8687.17424 1.03651e-17
8689.24668 1.01457e-17
8691.31911 1.02147e-17
8693.40171 1.01749e-17
8695.47414 1.00209e-17
8697.54658 1.02792e-17
8699.62917 1.06031e-17
8701.70161 1.05337e-17
8703.78420 1.00796e-17
8705.85664 9.96483e-18
8707.92908 1.01179e-17
8710.01167 1.01414e-17
8712.08411 1.03757e-17
8714.16670 1.06688e-17
8716.23914 1.01914e-17
8718.31157 9.98191e-18
8720.39417 1.04233e-17
8722.46661 1.01827e-17
8724.54920 9.97594e-18
8726.62164 1.04926e-17
8728.69407 1.07268e-17
8730.77667 1.03888e-17
8732.84910 1.02024e-17
8734.92154 1.00017e-17
8737.00413 9.60373e-18
8739.07657 9.47448e-18
8741.15917 9.20012e-18
8743.23160 9.26359e-18
8745.30404 9.77153e-18
8747.38663 9.85259e-18
8749.45907 9.53958e-18
8751.54166 9.16743e-18
8753.61410 9.87495e-18
8755.68654 1.04635e-17
8757.76913 9.81942e-18
8759.84157 9.32318e-18
8761.92416 9.48591e-18
8763.99660 9.02049e-18
8766.06903 8.74480e-18
8768.15163 9.17233e-18
8770.22406 9.56477e-18
8772.29650 1.00436e-17
8774.37910 1.05282e-17
8776.45153 1.03761e-17
8778.53413 9.93655e-18
8780.60656 9.77310e-18
8782.67900 9.77395e-18
8784.76159 8.91282e-18
8786.83403 8.36964e-18
8788.91662 8.92501e-18
8790.98906 9.15067e-18
8793.06150 9.71156e-18
8795.14409 9.77004e-18
8797.21653 9.10416e-18
8799.29912 8.72385e-18
8801.37156 8.55889e-18
8803.44399 8.59415e-18
8805.52659 9.28925e-18
8807.59902 9.56626e-18
8809.67146 9.25368e-18
8811.75406 8.64739e-18
8813.82649 8.02705e-18
8815.90909 8.14609e-18
8817.98152 8.67180e-18
8820.05396 8.53306e-18
8822.13655 8.28394e-18
8824.20899 8.72785e-18
8826.29158 9.41832e-18
8828.36402 9.17488e-18
8830.43646 8.55601e-18
8832.51905 9.00268e-18
8834.59149 9.18893e-18
8836.67408 8.51258e-18
8838.74652 7.64157e-18
8840.81896 8.37966e-18
8842.90155 9.35420e-18
8844.97399 9.35307e-18
8847.04642 8.94162e-18
8849.12902 8.33544e-18
8851.20145 8.27291e-18
8853.28405 8.26316e-18
8855.35648 7.45844e-18
8857.42892 7.68691e-18
8859.51152 8.00668e-18
8861.58395 7.92359e-18
8863.66655 7.40153e-18
8865.73898 7.40434e-18
8867.81142 8.35849e-18
8869.89401 9.20344e-18
8871.96645 9.18977e-18
8874.04904 8.57835e-18
8876.12148 8.14390e-18
8878.19392 7.96904e-18
8880.27651 8.03440e-18
8882.34895 8.25791e-18
8884.43154 8.30722e-18
8886.50398 7.68581e-18
8888.57641 7.47347e-18
8890.65901 7.21503e-18
8892.73144 7.82830e-18
8894.81404 8.42289e-18
8896.88648 7.97138e-18
8898.95891 7.53908e-18
8901.04151 7.37274e-18
8903.11394 6.97981e-18
8905.18638 7.29475e-18
8907.26897 7.39003e-18
8909.34141 7.13625e-18
8911.42401 7.87221e-18
8913.49644 8.67680e-18
8915.56888 9.20985e-18
8917.65147 8.49621e-18
8919.72391 6.66542e-18
8921.80650 6.59210e-18
8923.87894 7.03301e-18
8925.95138 7.01271e-18
8928.03397 7.10544e-18
8930.10641 7.43101e-18
8932.18900 7.79468e-18
8934.26144 7.39630e-18
8936.33387 7.16136e-18
8938.41647 7.27356e-18
8940.48890 7.35388e-18
8942.56134 6.77676e-18
8944.64394 6.97511e-18
8946.71637 7.91220e-18
8948.79897 8.38567e-18
8950.87140 7.75068e-18
8952.94384 7.01069e-18
8955.02643 6.97874e-18
8957.09887 6.30570e-18
8959.18146 6.05946e-18
8961.25390 6.22248e-18
8963.32634 7.05162e-18
8965.40893 7.77683e-18
8967.48137 7.55861e-18
8969.56396 6.68156e-18
8971.63640 6.02600e-18
8973.70883 6.31982e-18
8975.79143 7.18959e-18
8977.86387 7.44427e-18
8979.93630 6.74286e-18
8982.01890 6.81283e-18
8984.09133 7.34126e-18
8986.17393 6.56887e-18
8988.24636 6.47405e-18
8990.31880 6.95486e-18
8992.40139 6.74323e-18
8994.47383 5.79517e-18
8996.55643 5.70362e-18
8998.62886 7.03453e-18
9000.70130 8.37587e-18
9002.78389 8.72968e-18
9004.85633 8.52352e-18
9006.93892 8.34531e-18
9009.01136 7.99342e-18
9011.08379 7.53174e-18
9013.16639 8.45827e-18
9015.23883 8.74411e-18
9017.31126 9.15993e-18
9019.39386 9.06352e-18
9021.46629 7.76048e-18
9023.54889 6.84399e-18
9025.62132 7.18324e-18
9027.69376 8.65985e-18
9029.77636 8.60327e-18
9031.84879 7.57293e-18
9033.93139 7.36556e-18
9036.00382 7.15623e-18
9038.07626 6.38076e-18
9040.15885 6.41078e-18
9042.23129 7.37937e-18
9044.31388 7.43561e-18
9046.38632 7.25248e-18
9048.45876 7.06252e-18
9050.54135 6.89163e-18
9052.61379 6.65475e-18
9054.68622 6.95627e-18
9056.76882 7.64748e-18
9058.84125 7.84487e-18
9060.92385 7.93152e-18
9062.99628 7.64686e-18
9065.06872 6.46082e-18
9067.15132 5.88817e-18
9069.22375 5.51180e-18
9071.30635 5.97941e-18
9073.37878 7.10178e-18
9075.46138 7.53901e-18
9077.53381 6.91486e-18
9079.60625 6.62780e-18
9081.68884 7.11418e-18
9083.76128 7.33547e-18
9085.83372 7.35887e-18
9087.91631 7.55860e-18
9089.98875 7.71391e-18
9092.06118 7.13321e-18
9094.14378 6.94295e-18
9096.21622 7.70617e-18
9098.29881 8.34299e-18
9100.37125 8.64538e-18
9102.45384 7.72442e-18
9104.52628 6.35113e-18
9106.59871 6.75247e-18
9108.68131 7.66661e-18
9110.75374 7.71284e-18
9112.83634 7.14077e-18
9114.90877 6.41801e-18
9116.98121 6.65409e-18
9119.06381 7.12974e-18
9121.13624 6.94759e-18
9123.20868 7.14968e-18
9125.29127 7.86839e-18
9127.36371 7.11737e-18
9129.43614 6.42605e-18
9131.51874 6.89913e-18
9133.59118 7.59584e-18
9135.67377 7.63642e-18
9137.74621 8.66583e-18
9139.82880 8.48697e-18
9141.90124 7.57492e-18
9143.97367 6.50395e-18
9146.05627 7.06209e-18
9148.12871 8.06706e-18
9150.21130 7.47266e-18
9152.28374 6.09152e-18
9154.35617 6.05622e-18
9156.43877 7.16679e-18
9158.51120 8.06267e-18
9160.58364 8.22721e-18
9162.66623 7.48759e-18
9164.73867 7.33786e-18
9166.82127 7.61395e-18
9168.89370 7.61896e-18
9170.96614 7.16559e-18
9173.04873 6.87407e-18
9175.12117 7.22123e-18
9177.20376 8.19518e-18
9179.27620 8.58380e-18
9181.34864 7.82036e-18
9183.43123 7.22014e-18
9185.50367 8.04618e-18
9187.58626 8.16135e-18
9189.65870 7.83765e-18
9191.73113 7.70240e-18
9193.81373 7.43261e-18
9195.88616 7.01283e-18
9197.95860 6.77650e-18
9200.04119 7.80077e-18
9202.11363 8.19517e-18
9204.19623 8.05947e-18
9206.26866 7.73286e-18
9208.34110 7.56096e-18
9210.42369 7.98989e-18
9212.49613 7.98981e-18
