# wavelength flux
3720.00230 3.24065e-18
3721.49568 1.37225e-17
3722.99921 5.71801e-18
3724.50274 1.02025e-17
3725.99611 7.77412e-18
3727.49964 1.41301e-18
3729.00318 6.62444e-18
3730.49655 8.65551e-18
3732.00008 7.19037e-18
3733.50361 7.68739e-18
3734.99699 1.36241e-17
3736.50052 9.62365e-18
3738.00405 9.48731e-18
3739.49742 7.03079e-18
3741.00095 8.84224e-18
3742.50449 1.34779e-17
3743.99786 1.53238e-17
3745.50139 5.80601e-18
3746.99476 2.95652e-18
3748.49830 9.03652e-18
3750.00183 1.22606e-17
3751.49520 8.92509e-18
3752.99873 7.86762e-18
3754.50227 8.30339e-18
3755.99564 5.02487e-18
3757.49917 5.81411e-18
3759.00270 1.13020e-17
3760.49608 1.01492e-17
3761.99961 9.37206e-18
3763.50314 7.90838e-18
3764.99651 6.09766e-18
3766.50005 6.13448e-18
3768.00358 6.00695e-18
3769.49695 5.87943e-18
3771.00048 5.70114e-18
3772.50401 5.52286e-18
3773.99739 5.34458e-18
3775.50092 5.16635e-18
3777.00445 4.98810e-18
3778.49782 4.80987e-18
3780.00136 4.63164e-18
3781.50489 4.45342e-18
3782.99826 4.27521e-18
3784.50179 4.09705e-18
3785.99517 3.91886e-18
3787.49870 3.74069e-18
3789.00223 3.56253e-18
3790.49560 3.38437e-18
3791.99914 3.20623e-18
3793.50267 3.02813e-18
3794.99604 2.85001e-18
3796.49957 2.67190e-18
3798.00310 2.49380e-18
3799.49648 2.31571e-18
3801.00001 2.13763e-18
3802.50354 1.95956e-18
3803.99691 1.78153e-18
3805.50045 1.60348e-18
3807.00398 1.42544e-18
3808.49735 5.26657e-18
3810.00088 5.67768e-19
3811.50441 3.79787e-18
3812.99779 1.20394e-18
3814.50132 7.34235e-19
3816.00485 4.22672e-18
3817.49823 6.43352e-18
3819.00176 5.80752e-18
3820.49513 6.81587e-18
3821.99866 5.31272e-18
3823.50219 5.74602e-18
3824.99557 4.93277e-18
3826.49910 3.74342e-18
3828.00263 2.55415e-18
3829.49600 2.55408e-18
3830.99954 6.61281e-18
3832.50307 6.62952e-18
3833.99644 7.98282e-18
3835.49997 8.82626e-18
3837.00351 1.97027e-18
3838.49688 2.07235e-18
3840.00041 6.91207e-18
3841.50394 7.79026e-18
3842.99732 7.46824e-18
3844.50085 3.68291e-18
3846.00438 6.34605e-19
3847.49775 3.67072e-18
3849.00128 3.71732e-18
3850.50482 3.40480e-18
3851.99819 7.59679e-18
3853.50172 8.48385e-18
3854.99509 7.94977e-18
3856.49863 3.83071e-18
3858.00216 5.53295e-18
3859.49553 6.86539e-18
3860.99906 6.27965e-18
3862.50260 7.43895e-18
3863.99597 8.59818e-18
3865.49950 8.59795e-18
3867.00303 5.13150e-18
3868.49640 3.10656e-18
3869.99994 5.74959e-18
3871.50347 5.94104e-18
3872.99684 7.11995e-18
3874.50037 7.26777e-18
3876.00391 7.38394e-18
3877.49728 8.54669e-18
3879.00081 8.05261e-18
3880.50434 3.60409e-18
3881.99772 2.36307e-18
3883.50125 8.02916e-18
3885.00478 5.17375e-18
3886.49815 3.30631e-18
3888.00169 3.30623e-18
3889.49506 1.06811e-17
3890.99859 1.06304e-17
3892.50212 5.67841e-18
3893.99550 6.25526e-18
3895.49903 6.98049e-18
3897.00256 4.92365e-18
3898.49593 5.37364e-18
3899.99946 8.40471e-18
3901.50300 8.45053e-18
3902.99637 7.29560e-18
3904.49990 1.12049e-17
3906.00343 1.05029e-17
3907.49681 6.81825e-18
3909.00034 5.27927e-18
3910.50387 6.35179e-18
3911.99724 5.09737e-18
3913.50077 6.18667e-18
3915.00431 8.41930e-18
3916.49768 8.93294e-18
3918.00121 9.29487e-18
3919.50474 8.01395e-18
3920.99812 1.21278e-17
3922.50165 1.40644e-17
3923.99502 1.13312e-17
3925.49855 6.51351e-18
3927.00209 4.51133e-18
3928.49546 4.99051e-18
3929.99899 8.29338e-18
3931.50252 7.88205e-18
3932.99590 7.03439e-18
3934.49943 1.03946e-17
3936.00296 1.05843e-17
3937.49633 7.61914e-18
3938.99987 5.19419e-18
3940.50340 1.17042e-17
3941.99677 1.15968e-17
3943.50030 7.79170e-18
3945.00383 1.08272e-17
3946.49721 8.01862e-18
3948.00074 7.09652e-18
3949.50427 5.09058e-18
3950.99764 4.49267e-18
3952.50118 6.06860e-18
3954.00471 8.87857e-18
3955.49808 1.44755e-17
3957.00161 1.34468e-17
3958.49499 1.02570e-17
3959.99852 6.14714e-18
3961.50205 1.07785e-17
3962.99542 7.15010e-18
3964.49896 2.98741e-18
3966.00249 9.17930e-18
3967.49586 1.17162e-17
3968.99939 1.04043e-17
3970.50292 9.78471e-18
3971.99630 8.29489e-18
3973.49983 6.15097e-18
3975.00336 8.91102e-18
3976.49673 1.26414e-17
3978.00027 1.18032e-17
3979.50380 7.17610e-18
3980.99717 2.03176e-18
3982.50070 9.43070e-18
3984.00424 1.40691e-17
3985.49761 8.92118e-18
3987.00114 9.59432e-18
3988.50467 1.12853e-17
3989.99805 1.00001e-17
3991.50158 1.00526e-17
3992.99495 5.41805e-18
3994.49848 6.33006e-18
3996.00201 8.39899e-18
3997.49539 8.60417e-18
3998.99892 1.00668e-17
4000.50245 9.44647e-18
4001.99582 1.09039e-17
4003.49936 9.60430e-18
4005.00289 1.25240e-17
4006.49626 1.17637e-17
4007.99979 8.66623e-18
4009.50333 1.09704e-17
4010.99670 1.03268e-17
4012.50023 1.16662e-17
4014.00376 1.07066e-17
4015.49714 7.94682e-18
4017.00067 8.56338e-18
4018.50420 8.70182e-18
4019.99757 6.38442e-18
4021.50110 6.32362e-18
4023.00464 7.26455e-18
4024.49801 1.02610e-17
4026.00154 1.11765e-17
4027.49491 6.18808e-18
4028.99845 7.42746e-18
4030.50198 9.00235e-18
4031.99535 8.68502e-18
4033.49888 9.39618e-18
4035.00241 8.05334e-18
4036.49579 7.50093e-18
4037.99932 7.23434e-18
4039.50285 1.01088e-17
4040.99623 1.18229e-17
4042.49976 9.40664e-18
4044.00329 6.14525e-18
4045.49666 4.27525e-18
4047.00019 7.50644e-18
4048.50373 1.01929e-17
4049.99710 1.11526e-17
4051.50063 1.08525e-17
4053.00416 9.43740e-18
4054.49754 8.11421e-18
4056.00107 7.61449e-18
4057.50460 9.11204e-18
4058.99797 7.25983e-18
4060.50150 7.72224e-18
4062.00504 7.65947e-18
4063.49841 9.41935e-18
4065.00194 1.41113e-17
4066.49532 1.36123e-17
4067.99885 1.12738e-17
4069.50238 8.36494e-18
4070.99575 7.93595e-18
4072.49928 7.52968e-18
4074.00282 6.99451e-18
4075.49619 7.06846e-18
4076.99972 8.22462e-18
4078.50325 1.00973e-17
4079.99663 1.12780e-17
4081.50016 6.51450e-18
4083.00369 7.77835e-18
4084.49706 7.81858e-18
4086.00060 9.07441e-18
4087.50413 6.34485e-18
4088.99750 7.39403e-18
4090.50103 9.84360e-18
4092.00456 1.07953e-17
4093.49794 7.98721e-18
4095.00147 7.19866e-18
4096.50500 6.92369e-18
4097.99837 7.98929e-18
4099.50191 8.49245e-18
4100.99528 7.11142e-18
4102.49881 5.89373e-18
4104.00234 6.15131e-18
4105.49572 8.07793e-18
4106.99925 9.77364e-18
4108.50278 6.96421e-18
4109.99615 6.46993e-18
4111.49968 8.75774e-18
4113.00322 8.54314e-18
4114.49659 8.13717e-18
4116.00012 7.83821e-18
4117.50365 7.21489e-18
4118.99703 7.91204e-18
4120.50056 8.47516e-18
4122.00409 7.73463e-18
4123.49746 8.95299e-18
4125.00100 1.09929e-17
4126.50453 8.91603e-18
4127.99790 9.65202e-18
4129.50143 9.68349e-18
4130.99481 8.14917e-18
4132.49834 9.92040e-18
4134.00187 7.49309e-18
4135.49524 5.49603e-18
4136.99878 6.76308e-18
4138.50231 1.02208e-17
4139.99568 7.90632e-18
4141.49921 7.25639e-18
4143.00274 8.87674e-18
4144.49612 6.93613e-18
4145.99965 1.00569e-17
4147.50318 9.65546e-18
4148.99655 2.42626e-18
4150.50009 7.57540e-18
4152.00362 9.58995e-18
4153.49699 5.99704e-18
4155.00052 6.70309e-18
4156.50406 7.30169e-18
4157.99743 9.29544e-18
4159.50096 9.38467e-18
4161.00449 1.06989e-17
4162.49787 8.80383e-18
4164.00140 9.72281e-18
4165.50493 8.49758e-18
4166.99830 7.42586e-18
4168.50183 3.47760e-18
4169.99521 4.17869e-18
4171.49874 5.23684e-18
4173.00227 7.55580e-18
4174.49564 9.61278e-18
4175.99918 6.79311e-18
4177.50271 7.51235e-18
4178.99608 7.81431e-18
4180.49961 8.03665e-18
4182.00315 8.46008e-18
4183.49652 7.45344e-18
4185.00005 6.95978e-18
4186.50358 7.00406e-18
4187.99695 6.35946e-18
4189.50049 7.37770e-18
4191.00402 6.71836e-18
4192.49739 4.66755e-18
4194.00092 5.92854e-18
4195.50446 9.58491e-18
4196.99783 1.21047e-17
4198.50136 1.03351e-17
4200.00489 1.01043e-17
4201.49827 8.53668e-18
4203.00180 6.31375e-18
4204.49517 8.72672e-18
4205.99870 8.61041e-18
4207.50223 8.98705e-18
4208.99561 5.27974e-18
4210.49914 7.68046e-18
4212.00267 8.78033e-18
4213.49604 8.51175e-18
4214.99958 1.26104e-17
4216.50311 8.03330e-18
4217.99648 4.67806e-18
4219.50001 6.63384e-18
4221.00355 5.55967e-18
4222.49692 8.62313e-18
4224.00045 6.68461e-18
4225.50398 8.68831e-18
4226.99736 1.12289e-17
4228.50089 1.02468e-17
4230.00442 1.07673e-17
4231.49779 1.10252e-17
4233.00133 8.25420e-18
4234.50486 6.91499e-18
4235.99823 4.47161e-18
4237.50176 6.45519e-18
4238.99514 9.03312e-18
4240.49867 6.80851e-18
4242.00220 3.68437e-18
4243.49557 6.46417e-18
4244.99910 8.53730e-18
4246.50264 8.89414e-18
4247.99601 7.36679e-18
4249.49954 8.61768e-18
4251.00307 9.33430e-18
4252.49645 6.52539e-18
4253.99998 5.86995e-18
4255.50351 7.50440e-18
4256.99688 6.93546e-18
4258.50042 6.66006e-18
4260.00395 7.68403e-18
4261.49732 7.39325e-18
4263.00085 7.93530e-18
4264.50438 7.27759e-18
4265.99776 7.17271e-18
4267.50129 9.16588e-18
4269.00482 1.03528e-17
4270.49819 7.59008e-18
4272.00173 6.73290e-18
4273.49510 5.69013e-18
4274.99863 7.14306e-18
4276.50216 8.58305e-18
4277.99554 8.92141e-18
4279.49907 7.17186e-18
4281.00260 6.12402e-18
4282.49597 9.17570e-18
4283.99950 9.50554e-18
4285.50304 6.35806e-18
4286.99641 4.55346e-18
4288.49994 7.77831e-18
4290.00347 9.79711e-18
4291.49685 5.83981e-18
4293.00038 1.18282e-17
4294.50391 8.67040e-18
4295.99728 3.24912e-18
4297.50082 7.82282e-18
4299.00435 3.93999e-18
4300.49772 8.98940e-18
4302.00125 8.48998e-18
4303.50479 6.78735e-18
4304.99816 9.78598e-18
4306.50169 8.03776e-18
4307.99506 6.45462e-18
4309.49860 4.00094e-18
4311.00213 5.71299e-18
4312.49550 7.09956e-18
4313.99903 9.01557e-18
4315.50256 6.84448e-18
4316.99594 6.15733e-18
4318.49947 9.23827e-18
4320.00300 9.52515e-18
4321.49637 8.46728e-18
4322.99991 7.37371e-18
4324.50344 6.80826e-18
4325.99681 5.99670e-18
4327.50034 7.08261e-18
4329.00388 7.25443e-18
4330.49725 6.14607e-18
4332.00078 6.17717e-18
4333.50431 7.87268e-18
4334.99768 8.08299e-18
4336.50122 5.73576e-18
4338.00475 7.89945e-18
4339.49812 8.83178e-18
4341.00165 8.06765e-18
4342.49503 9.18461e-18
4343.99856 8.17584e-18
4345.50209 6.23561e-18
4346.99546 7.01131e-18
4348.49900 7.12188e-18
4350.00253 7.09587e-18
4351.49590 8.17121e-18
4352.99943 7.49585e-18
4354.50297 5.52003e-18
4355.99634 6.86731e-18
4357.49987 7.11955e-18
4359.00340 9.09714e-18
4360.49678 7.47448e-18
4362.00031 8.68577e-18
4363.50384 9.15451e-18
4364.99721 6.54386e-18
4366.50074 5.75021e-18
4368.00428 5.14027e-18
4369.49765 6.01670e-18
4371.00118 7.32163e-18
4372.50471 5.99058e-18
4373.99809 6.90070e-18
4375.50162 7.12527e-18
4376.99499 6.93608e-18
4378.49852 7.67887e-18
4380.00205 5.49833e-18
4381.49543 4.56507e-18
4382.99896 3.97210e-18
4384.50249 6.19517e-18
4385.99587 6.16732e-18
4387.49940 3.68354e-18
4389.00293 2.67622e-18
4390.49630 4.27455e-18
4391.99983 9.26028e-18
4393.50337 9.34382e-18
4394.99674 4.79761e-18
4396.50027 4.54094e-18
4398.00380 6.34189e-18
4399.49718 5.86688e-18
4401.00071 7.17307e-18
4402.50424 7.23036e-18
4403.99761 4.30596e-18
4405.50115 4.63697e-18
4407.00468 7.06295e-18
4408.49805 5.96804e-18
4410.00158 3.46088e-18
4411.50511 5.98734e-18
4412.99849 8.37810e-18
4414.50202 8.32573e-18
4415.99539 8.27335e-18
4417.49892 8.22097e-18
4419.00246 8.16859e-18
4420.49583 8.11622e-18
4421.99936 8.06384e-18
4423.50289 8.01147e-18
4424.99627 7.95911e-18
4426.49980 7.90674e-18
4428.00333 7.85438e-18
4429.49670 7.80202e-18
4431.00023 7.74966e-18
4432.50377 7.69731e-18
4433.99714 7.64497e-18
4435.50067 7.59262e-18
4437.00420 7.54027e-18
4438.49758 7.48793e-18
4440.00111 7.43559e-18
4441.50464 7.38325e-18
4442.99801 7.33091e-18
4444.50155 7.27858e-18
4446.00508 7.22625e-18
4447.49845 7.17392e-18
4449.00198 7.12159e-18
4450.49536 7.06927e-18
4451.99889 7.01696e-18
4453.50242 6.62891e-18
4454.99579 5.52947e-18
4456.49932 6.74899e-18
4458.00286 9.33287e-18
4459.49623 1.05614e-17
4460.99976 8.74079e-18
4462.50329 5.45339e-18
4463.99667 5.81161e-18
4465.50020 6.32717e-18
4467.00373 5.33830e-18
4468.49710 4.34949e-18
4470.00064 4.34938e-18
4471.50417 6.34501e-18
4472.99754 4.16487e-18
4474.50107 4.60700e-18
4476.00461 6.73489e-18
4477.49798 5.59319e-18
4479.00151 5.10441e-18
4480.50504 8.45224e-18
4481.99842 7.39917e-18
4483.50195 5.61780e-18
4484.99532 7.61530e-18
4486.49885 7.34634e-18
4488.00238 6.09708e-18
4489.49576 4.78497e-18
4490.99929 4.31131e-18
4492.50282 5.63423e-18
4493.99619 6.42546e-18
4495.49973 6.70761e-18
4497.00326 7.92666e-18
4498.49663 5.94496e-18
4500.00016 8.91966e-18
4501.50370 7.71462e-18
4502.99707 6.14321e-18
4504.50060 5.18600e-18
4506.00413 8.81467e-18
4507.49751 9.53322e-18
4509.00104 8.39205e-18
4510.50457 1.12809e-17
4511.99794 9.22687e-18
4513.50147 1.16010e-17
4514.99485 9.76069e-18
4516.49838 9.65018e-18
4518.00191 8.82270e-18
4519.49528 7.81639e-18
4520.99882 8.23477e-18
4522.50235 7.97541e-18
4523.99572 9.69582e-18
4525.49925 9.62684e-18
4527.00278 1.05104e-17
4528.49616 1.15473e-17
4529.99969 8.68699e-18
4531.50322 7.51952e-18
4532.99660 1.00239e-17
4534.50013 8.13216e-18
4536.00366 9.68249e-18
4537.49703 1.01205e-17
4539.00056 7.30020e-18
4540.50410 9.12851e-18
4541.99747 1.11442e-17
4543.50100 1.08232e-17
4545.00453 1.11522e-17
4546.49791 1.06910e-17
4548.00144 8.79879e-18
4549.49481 9.32284e-18
4550.99834 1.10393e-17
4552.50187 1.13143e-17
4553.99525 1.21330e-17
4555.49878 1.12397e-17
4557.00231 9.34658e-18
4558.49568 1.04965e-17
4559.99922 1.23328e-17
4561.50275 1.25709e-17
4562.99612 1.22542e-17
4564.49965 1.04682e-17
4566.00319 8.74999e-18
4567.49656 1.11258e-17
4569.00009 1.18135e-17
4570.50362 1.32119e-17
4571.99700 1.30012e-17
4573.50053 1.39097e-17
4575.00406 1.23159e-17
4576.49743 1.07490e-17
4578.00097 1.01347e-17
4579.50450 1.20731e-17
4580.99787 1.54018e-17
4582.50140 1.47946e-17
4583.99478 1.46412e-17
4585.49831 1.15792e-17
4587.00184 1.11365e-17
4588.49521 1.27429e-17
4589.99874 1.47846e-17
4591.50228 1.29642e-17
4592.99565 1.31739e-17
4594.49918 1.41130e-17
4596.00271 1.26182e-17
4597.49609 1.19691e-17
4598.99962 1.30253e-17
4600.50315 1.54922e-17
4601.99652 1.24268e-17
4603.50005 9.66555e-18
4605.00359 1.10064e-17
4606.49696 1.21492e-17
4608.00049 1.19596e-17
4609.50402 1.35042e-17
4610.99740 1.43597e-17
4612.50093 1.24368e-17
4614.00446 1.16504e-17
4615.49783 1.30363e-17
4617.00137 1.30324e-17
4618.50490 1.32236e-17
4619.99827 1.42895e-17
4621.50180 1.21876e-17
4622.99518 1.11276e-17
4624.49871 1.41530e-17
4626.00224 1.51555e-17
4627.49561 1.25166e-17
4628.99915 1.15800e-17
4630.50268 1.22535e-17
4631.99605 1.25809e-17
4633.49958 1.18179e-17
4635.00311 1.22269e-17
4636.49649 1.36224e-17
4638.00002 1.22010e-17
4639.50355 1.38116e-17
4640.99692 1.37318e-17
4642.50046 1.09850e-17
4644.00399 1.02751e-17
4645.49736 1.38299e-17
4647.00089 1.57039e-17
4648.50443 1.26892e-17
4649.99780 1.16499e-17
4651.50133 1.37377e-17
4653.00486 1.32370e-17
4654.49824 1.17785e-17
4656.00177 1.04845e-17
4657.49514 1.20159e-17
4658.99867 1.35139e-17
4660.50220 1.25019e-17
4661.99558 1.32002e-17
4663.49911 1.35876e-17
4665.00264 1.20769e-17
4666.49601 1.01517e-17
4667.99955 1.16204e-17
4669.50308 1.14283e-17
4670.99645 9.54832e-18
4672.49998 1.12294e-17
4674.00352 1.25415e-17
4675.49689 1.03699e-17
4677.00042 1.18615e-17
4678.50395 1.22678e-17
4679.99733 1.09573e-17
4681.50086 1.09706e-17
4683.00439 1.27470e-17
4684.49776 1.21150e-17
4686.00129 9.80891e-18
4687.50483 1.02015e-17
4688.99820 1.07010e-17
4690.50173 1.14012e-17
4691.99510 1.11723e-17
4693.49864 9.53851e-18
4695.00217 1.05027e-17
4696.49554 1.00775e-17
4697.99907 8.95587e-18
4699.50260 8.45263e-18
4700.99598 9.22812e-18
4702.49951 9.47298e-18
4704.00304 1.09395e-17
4705.49642 1.16733e-17
4706.99995 1.05267e-17
4708.50348 1.03939e-17
4709.99685 8.34747e-18
4711.50038 8.81336e-18
4713.00392 8.41626e-18
4714.49729 6.65863e-18
4716.00082 8.68203e-18
4717.50435 8.86934e-18
4718.99773 7.86816e-18
4720.50126 9.48587e-18
4722.00479 1.10169e-17
4723.49816 1.08274e-17
4725.00169 8.54545e-18
4726.49507 8.26833e-18
4727.99860 7.33856e-18
4729.50213 8.49524e-18
4730.99550 8.32267e-18
4732.49904 1.06181e-17
4734.00257 8.83331e-18
4735.49594 9.59709e-18
4736.99947 1.07147e-17
4738.50301 1.04889e-17
4739.99638 9.44103e-18
4741.49991 9.59529e-18
4743.00344 9.21008e-18
4744.49682 8.24095e-18
4746.00035 8.93233e-18
4747.50388 1.08916e-17
4748.99725 1.06140e-17
4750.50079 9.32222e-18
4752.00432 9.75927e-18
4753.49769 8.18840e-18
4755.00122 7.91307e-18
4756.50475 9.97807e-18
4757.99813 1.10121e-17
4759.50166 9.45118e-18
4760.99503 8.82977e-18
4762.49856 9.60952e-18
4764.00210 1.03755e-17
4765.49547 1.05947e-17
4766.99900 9.05771e-18
4768.50253 8.22395e-18
4769.99591 7.66711e-18
4771.49944 9.01278e-18
4773.00297 8.74971e-18
4774.49634 7.46898e-18
4775.99988 9.28949e-18
4777.50341 1.00140e-17
4778.99678 7.46638e-18
4780.50031 8.17601e-18
4782.00384 8.87311e-18
4783.49722 9.95981e-18
4785.00075 9.57808e-18
4786.50428 7.57775e-18
4787.99765 7.32785e-18
4789.50119 8.29180e-18
4791.00472 1.00743e-17
4792.49809 9.17261e-18
4794.00162 6.91396e-18
4795.49500 7.58515e-18
4796.99853 1.04016e-17
4798.50206 7.66282e-18
4799.99543 8.93689e-18
4801.49897 1.23480e-17
4803.00250 6.53296e-18
4804.49587 9.76009e-18
4805.99940 9.38943e-18
4807.50293 7.15180e-18
4808.99631 8.75474e-18
4810.49984 9.27772e-18
4812.00337 1.11357e-17
4813.49674 8.64583e-18
4815.00028 8.38384e-18
4816.50381 8.11924e-18
4817.99718 6.80332e-18
4819.50071 7.80349e-18
4821.00425 8.31882e-18
4822.49762 9.69952e-18
4824.00115 9.55710e-18
4825.50468 9.55242e-18
4826.99806 9.41322e-18
4828.50159 9.04814e-18
4829.99496 1.02376e-17
4831.49849 9.67387e-18
4833.00202 8.22238e-18
4834.49540 8.65499e-18
4835.99893 1.01327e-17
4837.50246 8.79083e-18
4838.99583 8.37262e-18
4840.49937 8.55930e-18
4842.00290 9.76515e-18
4843.49627 9.76615e-18
4844.99980 8.70572e-18
4846.50333 1.07015e-17
4847.99671 8.45123e-18
4849.50024 8.06533e-18
4851.00377 9.07569e-18
4852.49715 6.87182e-18
4854.00068 8.38932e-18
4855.50421 9.14745e-18
4856.99758 8.24789e-18
4858.50111 7.67363e-18
4860.00465 6.95518e-18
4861.49802 9.54313e-18
4863.00155 8.54342e-18
4864.49492 9.37566e-18
4865.99846 9.87039e-18
4867.50199 1.04062e-17
4868.99536 1.03459e-17
4870.49889 9.59570e-18
4872.00242 9.56801e-18
4873.49580 1.10379e-17
4874.99933 1.01640e-17
4876.50286 8.96821e-18
4877.99623 7.98914e-18
4879.49977 7.84087e-18
4881.00330 7.75541e-18
4882.49667 8.16693e-18
4884.00020 1.11025e-17
4885.50374 9.70466e-18
4886.99711 6.94547e-18
4888.50064 9.44341e-18
4890.00417 1.08068e-17
4891.49755 9.26648e-18
4893.00108 1.01604e-17
4894.50461 8.84347e-18
4895.99798 7.26403e-18
4897.50152 8.13071e-18
4899.00505 8.89522e-18
4900.49842 9.45406e-18
4902.00195 9.16706e-18
4903.49532 9.98580e-18
4904.99886 1.00151e-17
4906.50239 8.33224e-18
4907.99576 7.39627e-18
4909.49929 9.17140e-18
4911.00283 8.79597e-18
4912.49620 8.19133e-18
4913.99973 9.86907e-18
4915.50326 9.27286e-18
4916.99664 1.09851e-17
4918.50017 8.80654e-18
4920.00370 9.37139e-18
4921.49707 9.31544e-18
4923.00061 9.25948e-18
4924.50414 9.20352e-18
4925.99751 9.14757e-18
4927.50104 9.09163e-18
4929.00457 9.03569e-18
4930.49795 8.97974e-18
4932.00148 8.92381e-18
4933.50501 8.86787e-18
4934.99838 8.81194e-18
4936.50192 8.75602e-18
4937.99529 8.70011e-18
4939.49882 8.64419e-18
4941.00235 8.58827e-18
4942.49573 8.53236e-18
4943.99926 8.47644e-18
4945.50279 8.42054e-18
4946.99616 8.36463e-18
4948.49970 8.30873e-18
4950.00323 8.25283e-18
4951.49660 8.19694e-18
4953.00013 8.14104e-18
4954.50366 8.08515e-18
4955.99704 8.02929e-18
4957.50057 7.97340e-18
4959.00410 7.59345e-18
4960.49747 8.31288e-18
4962.00101 1.04361e-17
4963.50454 1.04763e-17
4964.99791 9.68460e-18
4966.50144 9.22552e-18
4968.00497 9.89547e-18
4969.49835 1.09432e-17
4971.00188 7.79385e-18
4972.49525 8.25023e-18
4973.99878 1.08166e-17
4975.50232 1.16491e-17
4976.99569 9.65479e-18
4978.49922 7.41641e-18
4980.00275 8.54426e-18
4981.49613 1.04115e-17
4982.99966 1.00324e-17
4984.50319 8.56557e-18
4985.99656 7.68214e-18
4987.50010 7.08327e-18
4989.00363 7.92420e-18
4990.49700 9.64313e-18
4992.00053 9.75415e-18
4993.50407 1.10762e-17
4994.99744 9.88991e-18
4996.50097 1.08715e-17
4998.00450 1.11133e-17
4999.49788 9.66490e-18
5001.00141 1.04694e-17
5002.50494 8.40243e-18
5003.99831 9.92550e-18
5005.50184 8.43133e-18
5006.99522 8.52912e-18
5008.49875 1.00428e-17
5010.00228 1.00850e-17
5011.49565 8.62523e-18
5012.99919 8.86794e-18
5014.50272 8.06651e-18
5015.99609 9.56349e-18
5017.49962 7.95093e-18
5019.00316 8.10196e-18
5020.49653 8.12920e-18
5022.00006 8.15645e-18
5023.50359 8.18369e-18
5024.99697 8.21093e-18
5026.50050 8.23817e-18
5028.00403 8.26541e-18
5029.49740 8.29265e-18
5031.00093 8.31988e-18
5032.50447 8.34711e-18
5033.99784 8.37435e-18
5035.50137 8.40158e-18
5037.00490 8.42881e-18
5038.49828 8.45604e-18
5040.00181 8.48327e-18
5041.49518 8.51049e-18
5042.99871 8.53772e-18
5044.50225 8.56494e-18
5045.99562 8.59216e-18
5047.49915 8.61938e-18
5049.00268 8.64660e-18
5050.49605 8.67381e-18
5051.99959 8.70103e-18
5053.50312 8.72825e-18
5054.99649 8.75546e-18
5056.50002 8.78267e-18
5058.00356 7.15860e-18
5059.49693 8.54033e-18
5061.00046 8.51513e-18
5062.50399 9.54156e-18
5063.99737 8.58386e-18
5065.50090 8.48184e-18
5067.00443 8.79960e-18
5068.49780 8.81253e-18
5070.00133 8.82546e-18
5071.49471 8.83840e-18
5072.99824 8.85133e-18
5074.50177 8.86426e-18
5075.99514 8.87719e-18
5077.49868 8.89012e-18
5079.00221 8.90305e-18
5080.49558 8.91598e-18
5081.99911 8.92891e-18
5083.50265 8.94183e-18
5084.99602 8.95476e-18
5086.49955 8.96768e-18
5088.00308 8.98061e-18
5089.49646 8.99353e-18
5090.99999 9.00645e-18
5092.50352 9.01938e-18
5093.99689 9.03230e-18
5095.50043 9.04522e-18
5097.00396 9.05815e-18
5098.49733 9.07107e-18
5100.00086 9.08399e-18
5101.50439 9.09691e-18
5102.99777 9.10983e-18
5104.50130 9.12275e-18
5105.99467 9.13566e-18
5107.49820 9.18434e-18
5109.00174 9.18410e-18
5110.49511 8.22037e-18
5111.99864 8.35174e-18
5113.50217 8.03669e-18
5114.99555 8.26050e-18
5116.49908 8.69752e-18
5118.00261 9.16450e-18
5119.49598 1.09036e-17
5120.99952 1.19445e-17
5122.50305 1.08171e-17
5123.99642 9.51980e-18
5125.49995 1.09779e-17
5127.00348 1.16295e-17
5128.49686 9.57490e-18
5130.00039 9.45427e-18
5131.50392 1.07292e-17
5132.99729 9.74936e-18
5134.50083 1.01764e-17
5136.00436 9.80135e-18
5137.49773 8.69935e-18
5139.00126 8.79582e-18
5140.50480 9.42098e-18
5141.99817 9.93833e-18
5143.50170 8.54939e-18
5144.99507 8.81281e-18
5146.49860 1.10217e-17
5148.00214 1.03081e-17
5149.49551 1.07809e-17
5150.99904 8.48528e-18
5152.50257 9.46015e-18
5153.99595 9.86599e-18
5155.49948 1.02718e-17
5157.00301 1.06776e-17
5158.49638 1.10834e-17
5159.99992 1.10831e-17
5161.50345 9.85543e-18
5162.99682 1.23818e-17
5164.50035 9.98071e-18
5166.00389 1.02542e-17
5167.49726 9.91209e-18
5169.00079 1.19206e-17
5170.50432 1.22374e-17
5171.99770 1.16126e-17
5173.50123 1.01358e-17
5175.00476 1.16830e-17
5176.49813 1.16061e-17
5178.00166 1.03378e-17
5179.49504 1.16317e-17
5180.99857 1.27255e-17
5182.50210 1.15831e-17
5183.99547 1.01612e-17
5185.49901 1.07117e-17
5187.00254 1.11125e-17
5188.49591 1.03742e-17
5189.99944 1.13032e-17
5191.50298 1.23042e-17
5192.99635 1.23888e-17
5194.49988 1.25941e-17
5196.00341 1.12861e-17
5197.49678 1.09905e-17
5199.00032 1.05548e-17
5200.50385 1.18191e-17
5201.99722 1.31291e-17
5203.50075 1.09872e-17
5205.00429 1.05886e-17
5206.49766 1.25477e-17
5208.00119 1.15952e-17
5209.50472 1.15595e-17
5210.99810 1.43058e-17
5212.50163 1.35707e-17
5214.00516 1.55534e-17
5215.49853 1.13772e-17
5217.00207 1.16218e-17
5218.49544 1.25552e-17
5219.99897 1.26527e-17
5221.50250 1.21705e-17
5222.99588 1.25772e-17
5224.49941 1.23029e-17
5226.00294 1.27661e-17
5227.49631 1.26652e-17
5228.99984 1.12857e-17
5230.50338 1.22907e-17
5231.99675 1.33911e-17
5233.50028 1.40798e-17
5235.00381 1.44643e-17
5236.49719 1.24630e-17
5238.00072 1.07504e-17
5239.50425 1.25228e-17
5240.99762 1.39185e-17
5242.50115 1.28392e-17
5244.00469 1.28609e-17
5245.49806 1.01397e-17
5247.00159 1.14413e-17
5248.49497 1.29527e-17
5249.99850 1.28117e-17
5251.50203 1.36941e-17
5252.99540 1.39993e-17
5254.49893 1.42595e-17
5256.00247 1.35008e-17
5257.49584 1.32439e-17
5258.99937 1.43941e-17
5260.50290 1.51807e-17
5261.99628 1.28999e-17
5263.49981 1.30110e-17
5265.00334 1.32456e-17
5266.49671 1.29241e-17
5268.00025 1.43842e-17
5269.50378 1.43082e-17
5270.99715 1.33628e-17
5272.50068 1.35731e-17
5274.00421 1.28322e-17
5275.49759 1.32673e-17
5277.00112 1.36226e-17
5278.50465 1.33147e-17
5279.99802 1.27131e-17
5281.50156 1.30860e-17
5282.99493 1.39111e-17
5284.49846 1.43071e-17
5286.00199 1.30209e-17
5287.49537 1.47542e-17
5288.99890 1.34143e-17
5290.50243 1.47845e-17
5291.99580 1.28015e-17
5293.49933 1.35199e-17
5295.00287 1.43390e-17
5296.49624 1.41102e-17
5297.99977 1.31193e-17
5299.50330 1.36410e-17
5300.99668 1.40596e-17
5302.50021 1.46261e-17
5304.00374 1.39427e-17
5305.49711 1.22017e-17
5307.00065 1.27313e-17
5308.50418 1.45751e-17
5309.99755 1.36962e-17
5311.50108 1.34687e-17
5313.00462 1.41473e-17
5314.49799 1.49134e-17
5316.00152 1.31016e-17
5317.49489 1.35281e-17
5318.99842 1.48828e-17
5320.50196 1.52342e-17
5321.99533 1.45033e-17
5323.49886 1.41818e-17
5325.00239 1.50832e-17
5326.49577 1.53197e-17
5327.99930 1.43495e-17
5329.50283 1.37139e-17
5330.99620 1.45928e-17
5332.49974 1.49343e-17
5334.00327 1.54832e-17
5335.49664 1.69077e-17
5337.00017 1.48611e-17
5338.50371 1.25206e-17
5339.99708 1.33777e-17
5341.50061 1.41145e-17
5343.00414 1.50093e-17
5344.49752 1.57228e-17
5346.00105 1.54445e-17
5347.50458 1.50772e-17
5348.99795 1.34366e-17
5350.50148 1.24429e-17
5351.99486 1.34834e-17
5353.49839 1.44715e-17
5355.00192 1.37835e-17
5356.49529 1.31849e-17
5357.99883 1.32665e-17
5359.50236 1.35517e-17
5360.99573 1.41122e-17
5362.49926 1.47080e-17
5364.00280 1.42950e-17
5365.49617 1.45147e-17
5366.99970 1.44419e-17
5368.50323 1.38984e-17
5369.99661 1.30683e-17
5371.50014 1.27546e-17
5373.00367 1.61304e-17
5374.49704 1.50439e-17
5376.00057 1.33218e-17
5377.50411 1.41717e-17
5378.99748 1.31569e-17
5380.50101 1.31340e-17
5382.00454 1.25557e-17
5383.49792 1.41741e-17
5385.00145 1.59542e-17
5386.49482 1.48082e-17
5387.99835 1.30617e-17
5389.50188 1.37691e-17
5390.99526 1.42925e-17
5392.49879 1.37534e-17
5394.00232 1.37524e-17
5395.49570 1.37158e-17
5396.99923 1.43516e-17
5398.50276 1.44124e-17
5399.99613 1.49672e-17
5401.49966 1.48349e-17
5403.00320 1.41591e-17
5404.49657 1.38445e-17
5406.00010 1.35398e-17
5407.50363 1.47533e-17
5408.99701 1.56237e-17
5410.50054 1.52058e-17
5412.00407 1.46615e-17
5413.49744 1.40754e-17
5415.00097 1.56247e-17
5416.50451 1.73919e-17
5417.99788 1.55099e-17
5419.50141 1.46747e-17
5421.00494 1.50571e-17
5422.49832 1.42272e-17
5424.00185 1.33002e-17
5425.49522 1.31691e-17
5426.99875 1.36903e-17
5428.50229 1.39547e-17
5429.99566 1.46953e-17
5431.49919 1.41827e-17
5433.00272 1.47034e-17
5434.49610 1.41225e-17
5435.99963 1.46086e-17
5437.50316 1.70146e-17
5438.99653 1.69156e-17
5440.50007 1.49576e-17
5442.00360 1.47820e-17
5443.49697 1.76322e-17
5445.00050 1.53764e-17
5446.50403 1.47250e-17
5447.99741 1.49580e-17
5449.50094 1.54552e-17
5451.00447 1.56051e-17
5452.49784 1.51148e-17
5454.00138 1.53728e-17
5455.50491 1.45914e-17
5456.99828 1.44610e-17
5458.50181 1.45507e-17
5459.99519 1.45981e-17
5461.49872 1.51710e-17
5463.00225 1.47824e-17
5464.49562 1.33912e-17
5465.99915 1.37559e-17
5467.50269 1.49204e-17
5468.99606 1.53449e-17
5470.49959 1.57880e-17
5472.00312 1.55783e-17
5473.49650 1.61439e-17
5475.00003 1.61146e-17
5476.50356 1.53703e-17
5477.99693 1.47828e-17
5479.50047 1.38442e-17
5481.00400 1.39056e-17
5482.49737 1.36490e-17
5484.00090 1.32618e-17
5485.50443 1.40112e-17
5486.99781 1.44243e-17
5488.50134 1.34234e-17
5490.00487 1.30544e-17
5491.49825 1.44978e-17
5493.00178 1.52157e-17
5494.49515 1.47485e-17
5495.99868 1.44279e-17
5497.50221 1.33783e-17
5498.99559 1.31753e-17
5500.49912 1.43312e-17
5502.00265 1.49491e-17
5503.49602 1.43364e-17
5504.99956 1.38876e-17
5506.50309 1.39397e-17
5507.99646 1.22986e-17
5509.49999 1.18231e-17
5511.00353 1.41548e-17
5512.49690 1.54860e-17
5514.00043 1.38981e-17
5515.50396 1.41249e-17
5516.99734 1.53840e-17
5518.50087 1.43493e-17
5520.00440 1.38130e-17
5521.49777 1.22084e-17
5523.00130 1.12039e-17
5524.50484 1.37779e-17
5525.99821 1.47673e-17
5527.50174 1.29154e-17
5528.99511 1.29631e-17
5530.49865 1.33227e-17
5532.00218 1.47436e-17
5533.49555 1.27793e-17
5534.99908 1.27026e-17
5536.50262 1.29363e-17
5537.99599 1.27368e-17
5539.49952 1.44386e-17
5541.00305 1.46123e-17
5542.49643 1.28986e-17
5543.99996 1.39967e-17
5545.50349 1.45069e-17
5546.99686 1.23474e-17
5548.50039 1.37709e-17
5550.00393 1.34759e-17
5551.49730 1.17119e-17
5553.00083 1.17776e-17
5554.50436 1.18433e-17
5555.99774 1.19090e-17
5557.50127 1.19748e-17
5559.00480 1.20405e-17
5560.49817 1.21062e-17
5562.00170 1.21060e-17
5563.49508 1.34526e-17
5564.99861 1.38279e-17
5566.50214 1.40977e-17
5567.99552 1.53337e-17
5569.49905 1.41309e-17
5571.00258 1.46106e-17
5572.49595 1.35357e-17
5573.99948 1.28577e-17
5575.50302 1.38758e-17
5576.99639 1.35051e-17
5578.49992 1.21502e-17
5580.00345 1.53412e-17
5581.49683 1.19827e-17
5583.00036 1.35046e-17
5584.50389 1.42996e-17
5585.99726 1.18694e-17
5587.50079 1.48608e-17
5589.00433 1.53144e-17
5590.49770 1.44318e-17
5592.00123 1.35467e-17
5593.50476 1.19823e-17
5594.99814 1.39602e-17
5596.50167 1.56353e-17
5597.99504 1.57918e-17
5599.49857 1.52731e-17
5601.00211 1.63411e-17
5602.49548 1.53667e-17
5603.99901 1.29133e-17
5605.50254 1.33097e-17
5606.99592 1.31290e-17
5608.49945 1.42263e-17
5610.00298 1.33346e-17
5611.49635 1.41919e-17
5612.99989 1.46194e-17
5614.50342 1.48966e-17
5615.99679 1.42607e-17
5617.50032 1.32581e-17
5619.00385 1.27078e-17
5620.49723 1.32288e-17
5622.00076 1.51598e-17
5623.50429 1.45707e-17
5624.99766 1.37911e-17
5626.50120 1.35890e-17
5628.00473 1.39494e-17
5629.49810 1.35779e-17
5631.00163 1.34529e-17
5632.49501 1.45768e-17
5633.99854 1.39166e-17
5635.50207 1.25416e-17
5636.99544 1.37697e-17
5638.49898 1.45352e-17
5640.00251 1.37678e-17
5641.49588 1.29070e-17
5642.99941 1.33363e-17
5644.50294 1.49644e-17
5645.99632 1.39513e-17
5647.49985 1.20725e-17
5649.00338 1.35829e-17
5650.49675 1.28336e-17
5652.00029 1.41544e-17
5653.50382 1.36096e-17
5654.99719 1.25356e-17
5656.50072 1.28696e-17
5658.00425 1.23385e-17
5659.49763 1.22548e-17
5661.00116 1.41860e-17
5662.50469 1.38771e-17
5663.99807 1.47938e-17
5665.50160 1.53841e-17
5666.99497 1.20955e-17
5668.49850 1.23391e-17
5670.00203 1.22146e-17
5671.49541 1.28127e-17
5672.99894 1.37105e-17
5674.50247 1.15272e-17
5675.99584 1.17439e-17
5677.49938 1.31638e-17
5679.00291 1.30917e-17
5680.49628 1.29196e-17
5681.99981 1.38731e-17
5683.50335 1.32941e-17
5684.99672 1.25106e-17
5686.50025 1.23825e-17
5688.00378 1.26496e-17
5689.49716 1.25289e-17
5691.00069 1.28427e-17
5692.50422 1.42020e-17
5693.99759 1.40702e-17
5695.50112 1.30508e-17
5697.00466 1.14244e-17
5698.49803 9.26832e-18
5700.00156 9.61807e-18
5701.50509 1.18596e-17
5702.99847 1.24831e-17
5704.50200 1.19891e-17
5705.99537 1.26569e-17
5707.49890 1.30759e-17
5709.00243 1.26787e-17
5710.49581 1.27059e-17
5711.99934 1.19023e-17
5713.50287 1.26942e-17
5714.99625 1.21831e-17
5716.49978 1.17660e-17
5718.00331 1.20416e-17
5719.49668 1.12675e-17
5721.00021 1.29449e-17
5722.50375 1.33082e-17
5723.99712 1.18618e-17
5725.50065 1.10715e-17
5727.00418 1.10253e-17
5728.49756 1.14810e-17
5730.00109 1.05632e-17
5731.50462 1.20997e-17
5732.99799 1.26497e-17
5734.50153 1.21324e-17
5736.00506 1.13996e-17
5737.49843 1.13164e-17
5739.00196 1.18282e-17
5740.49533 1.34028e-17
5741.99887 1.30260e-17
5743.50240 1.24052e-17
5744.99577 1.27609e-17
5746.49930 1.26010e-17
5748.00284 1.28530e-17
5749.49621 1.18181e-17
5750.99974 1.22834e-17
5752.50327 1.19421e-17
5753.99665 1.17287e-17
5755.50018 1.34909e-17
5757.00371 1.32951e-17
5758.49708 1.18767e-17
5760.00062 1.09346e-17
5761.50415 1.20187e-17
5762.99752 1.19145e-17
5764.50105 1.17224e-17
5766.00458 1.31256e-17
5767.49796 1.36699e-17
5769.00149 1.38981e-17
5770.50502 1.18221e-17
5771.99839 9.85042e-18
5773.50193 1.21801e-17
5774.99530 1.30356e-17
5776.49883 1.26050e-17
5778.00236 1.26610e-17
5779.49574 1.23965e-17
5780.99927 1.24108e-17
5782.50280 1.35905e-17
5783.99617 1.35333e-17
5785.49971 1.30961e-17
5787.00324 1.36609e-17
5788.49661 1.32236e-17
5790.00014 1.08358e-17
5791.50367 1.07296e-17
5792.99705 1.28660e-17
5794.50058 1.29660e-17
5796.00411 1.13757e-17
5797.49748 1.26389e-17
5799.00102 1.26837e-17
5800.50455 1.32243e-17
5801.99792 1.17278e-17
5803.50145 1.38892e-17
5805.00498 1.44708e-17
5806.49836 1.20573e-17
5808.00189 1.29889e-17
5809.49526 1.33574e-17
5810.99880 1.31461e-17
5812.50233 1.40033e-17
5813.99570 1.21514e-17
5815.49923 1.22197e-17
5817.00276 1.38189e-17
5818.49614 1.31158e-17
5819.99967 1.17305e-17
5821.50320 1.25345e-17
5822.99657 1.31854e-17
5824.50011 1.28029e-17
5826.00364 1.11736e-17
5827.49701 1.12816e-17
5829.00054 1.23807e-17
5830.50407 1.26386e-17
5831.99745 1.17312e-17
5833.50098 1.19089e-17
5835.00451 1.25565e-17
5836.49788 1.24606e-17
5838.00142 1.24409e-17
5839.49479 1.17802e-17
5840.99832 1.03492e-17
5842.50185 1.08511e-17
5843.99523 1.24663e-17
5845.49876 1.37642e-17
5847.00229 1.41961e-17
5848.49566 1.31801e-17
5849.99920 1.13128e-17
5851.50273 1.23868e-17
5852.99610 1.18656e-17
5854.49963 1.27970e-17
5856.00317 1.18517e-17
5857.49654 1.18506e-17
5859.00007 1.37664e-17
5860.50360 1.25590e-17
5861.99698 1.14315e-17
5863.50051 1.43701e-17
5865.00404 1.39728e-17
5866.49741 1.28178e-17
5868.00094 1.09584e-17
5869.50448 1.18974e-17
5870.99785 1.15994e-17
5872.50138 1.21061e-17
5873.99475 1.17100e-17
5875.49829 1.07501e-17
5877.00182 1.24374e-17
5878.49519 1.38946e-17
5879.99872 1.32948e-17
5881.50226 1.21119e-17
5882.99563 1.29825e-17
5884.49916 1.16747e-17
5886.00269 1.20168e-17
5887.49607 1.18130e-17
5888.99960 1.09446e-17
5890.50313 1.10622e-17
5891.99650 1.17621e-17
5893.50003 1.23498e-17
5895.00357 1.37596e-17
5896.49694 1.38654e-17
5898.00047 1.31246e-17
5899.50400 1.21841e-17
5900.99738 1.13388e-17
5902.50091 1.21506e-17
5904.00444 1.21014e-17
5905.49781 1.03973e-17
5907.00135 1.13980e-17
5908.49472 1.39669e-17
5909.99825 1.38402e-17
5911.50178 1.19151e-17
5912.99515 1.09095e-17
5914.49869 1.13293e-17
5916.00222 1.37216e-17
5917.49559 1.41054e-17
5918.99912 1.25276e-17
5920.50266 1.13053e-17
5921.99603 1.22534e-17
5923.49956 1.29930e-17
5925.00309 1.18484e-17
5926.49647 1.23753e-17
5928.00000 1.40783e-17
5929.50353 1.31916e-17
5930.99690 1.17896e-17
5932.50043 1.33694e-17
5934.00397 1.32765e-17
5935.49734 1.31323e-17
5937.00087 1.32187e-17
5938.50440 1.26439e-17
5939.99778 1.15163e-17
5941.50131 1.09486e-17
5943.00484 1.13106e-17
5944.49821 1.28020e-17
5946.00175 1.30939e-17
5947.49512 1.08758e-17
5948.99865 1.15912e-17
5950.50218 1.17030e-17
5951.99556 1.13604e-17
5953.49909 1.16564e-17
5955.00262 1.13786e-17
5956.49599 1.21237e-17
5957.99953 1.26237e-17
5959.50306 1.08551e-17
5960.99643 1.05218e-17
5962.49996 1.14207e-17
5964.00349 1.11284e-17
5965.49687 1.08497e-17
5967.00040 1.04707e-17
5968.50393 1.12260e-17
5969.99730 1.09609e-17
5971.50084 1.23758e-17
5973.00437 1.17783e-17
5974.49774 1.06373e-17
5976.00127 9.83616e-18
5977.50480 1.02252e-17
5978.99818 1.04946e-17
5980.50171 1.02560e-17
5981.99508 1.05506e-17
5983.49862 9.91635e-18
5985.00215 8.62276e-18
5986.49552 9.27971e-18
5987.99905 1.02110e-17
5989.50258 9.88255e-18
5990.99596 1.03888e-17
5992.49949 1.03481e-17
5994.00302 1.01783e-17
5995.49639 1.11367e-17
5996.99993 1.08408e-17
5998.50346 9.38485e-18
5999.99683 1.26073e-17
6001.50036 1.17967e-17
6003.00390 1.17545e-17
6004.49727 1.22735e-17
6006.00080 1.02834e-17
6007.50433 1.10247e-17
6008.99770 1.14115e-17
6010.50124 9.97199e-18
6012.00477 9.99072e-18
6013.49814 1.22169e-17
6015.00167 1.15990e-17
6016.49505 1.13899e-17
6017.99858 1.29958e-17
6019.50211 1.17989e-17
6020.99548 1.08802e-17
6022.49902 1.23471e-17
6024.00255 1.17942e-17
6025.49592 1.28299e-17
6026.99945 1.20768e-17
6028.50299 1.22525e-17
6029.99636 1.11118e-17
6031.49989 1.25142e-17
6033.00342 1.16911e-17
6034.49680 1.22043e-17
6036.00033 1.28962e-17
6037.50386 1.37581e-17
6038.99723 1.40407e-17
6040.50076 1.09017e-17
6042.00430 1.14640e-17
6043.49767 1.12899e-17
6045.00120 1.09873e-17
6046.50473 1.20504e-17
6047.99811 1.21911e-17
6049.50164 1.13802e-17
6050.99501 1.20462e-17
6052.49854 1.29870e-17
6054.00208 1.11485e-17
6055.49545 1.07278e-17
6056.99898 9.22449e-18
6058.50251 9.35728e-18
6059.99588 1.08185e-17
6061.49942 1.03025e-17
6063.00295 1.05657e-17
6064.49632 1.09368e-17
6065.99985 1.04968e-17
6067.50339 1.05906e-17
6068.99676 1.06843e-17
6070.50029 1.06842e-17
6072.00382 1.07072e-17
6073.49720 1.10399e-17
6075.00073 1.18290e-17
6076.50426 1.14791e-17
6077.99763 1.12163e-17
6079.50117 1.25340e-17
6081.00470 1.20684e-17
6082.49807 1.08819e-17
6084.00160 1.15312e-17
6085.49498 1.17860e-17
6086.99851 1.14096e-17
6088.50204 1.11460e-17
6089.99541 1.06935e-17
6091.49894 9.96695e-18
6093.00248 1.14162e-17
6094.49585 1.22478e-17
6095.99938 1.12059e-17
6097.50291 1.22230e-17
6098.99629 1.29317e-17
6100.49982 1.34711e-17
6102.00335 1.31709e-17
6103.49672 1.16248e-17
6105.00025 1.00033e-17
6106.50379 1.02968e-17
6107.99716 1.20471e-17
6109.50069 1.21117e-17
6111.00422 1.15290e-17
6112.49760 1.31646e-17
6114.00113 1.34976e-17
6115.50466 1.23254e-17
6116.99803 1.18238e-17
6118.50157 1.24887e-17
6119.99494 1.33127e-17
6121.49847 1.29572e-17
6123.00200 1.19519e-17
6124.49538 1.26063e-17
6125.99891 1.29274e-17
6127.50244 1.17148e-17
6128.99581 1.19353e-17
6130.49935 1.22334e-17
6132.00288 1.13427e-17
6133.49625 1.18690e-17
6134.99978 1.23933e-17
6136.50331 1.12447e-17
6137.99669 1.14312e-17
6139.50022 1.23608e-17
6141.00375 1.16119e-17
6142.49712 1.09291e-17
6144.00066 1.17090e-17
6145.50419 1.30124e-17
6146.99756 1.24056e-17
6148.50109 1.05333e-17
6150.00463 1.10527e-17
6151.49800 1.07069e-17
6153.00153 9.33909e-18
6154.49490 1.11929e-17
6155.99843 1.16752e-17
6157.50197 1.05122e-17
6158.99534 1.12049e-17
6160.49887 1.16764e-17
6162.00240 1.16801e-17
6163.49578 1.15353e-17
6164.99931 1.08053e-17
6166.50284 1.17527e-17
6167.99621 1.08016e-17
6169.49975 9.37132e-18
6171.00328 9.12190e-18
6172.49665 1.09235e-17
6174.00018 9.91967e-18
6175.50372 1.11767e-17
6176.99709 1.20711e-17
6178.50062 1.10429e-17
6180.00415 1.13600e-17
6181.49752 1.08792e-17
6183.00106 1.03462e-17
6184.50459 1.02387e-17
6185.99796 1.00716e-17
6187.50149 1.07549e-17
6188.99487 1.05353e-17
6190.49840 1.00272e-17
6192.00193 1.04532e-17
6193.49530 1.05813e-17
6194.99884 8.79654e-18
6196.50237 8.86786e-18
6197.99574 1.09909e-17
6199.49927 1.21075e-17
6201.00281 1.07651e-17
6202.49618 8.90681e-18
6203.99971 9.78151e-18
6205.50324 8.59967e-18
6206.99662 9.07777e-18
6208.50015 1.08706e-17
6210.00368 9.89490e-18
6211.49705 9.47501e-18
6213.00058 1.02663e-17
6214.50412 9.46588e-18
6215.99749 9.66480e-18
6217.50102 8.98706e-18
6219.00455 9.36000e-18
6220.49793 1.07079e-17
6222.00146 1.13170e-17
6223.50499 9.38826e-18
6224.99836 9.64280e-18
6226.50190 9.38495e-18
6227.99527 1.11120e-17
6229.49880 1.10614e-17
6231.00233 1.03898e-17
6232.49571 8.79051e-18
6233.99924 9.58207e-18
6235.50277 9.99021e-18
6236.99614 8.88783e-18
6238.49967 1.09988e-17
6240.00321 1.30446e-17
6241.49658 1.02171e-17
6243.00011 8.68684e-18
6244.50364 1.07311e-17
6245.99702 9.36704e-18
6247.50055 9.20194e-18
6249.00408 1.03489e-17
6250.49745 1.02320e-17
6252.00098 1.03282e-17
6253.50452 8.60332e-18
6254.99789 8.22727e-18
6256.50142 8.31033e-18
6258.00495 8.39339e-18
6259.49833 8.47645e-18
6261.00186 8.47634e-18
6262.49523 8.90482e-18
6263.99876 8.23179e-18
6265.50230 8.18802e-18
6266.99567 9.40642e-18
6268.49920 1.04187e-17
6270.00273 9.83420e-18
6271.49611 9.70576e-18
6272.99964 1.04260e-17
6274.50317 1.03008e-17
6275.99654 9.30812e-18
6277.50007 9.11409e-18
6279.00361 9.60577e-18
6280.49698 1.02106e-17
6282.00051 1.22407e-17
6283.50404 1.11959e-17
6284.99742 9.85551e-18
6286.50095 1.14454e-17
6288.00448 1.14830e-17
6289.49785 1.01367e-17
6291.00139 1.13262e-17
6292.50492 1.05323e-17
6293.99829 1.02060e-17
6295.50182 1.21871e-17
6296.99520 1.00187e-17
6298.49873 9.46278e-18
6300.00226 1.05938e-17
6301.49563 1.10420e-17
6302.99917 1.21953e-17
6304.50270 1.06539e-17
6305.99607 1.04385e-17
6307.49960 1.20963e-17
6309.00313 1.16195e-17
6310.49651 1.11580e-17
6312.00004 1.17845e-17
6313.50357 1.09642e-17
6314.99694 1.02481e-17
6316.50048 1.09919e-17
6318.00401 1.00547e-17
6319.49738 1.07276e-17
6321.00091 1.17099e-17
6322.50445 1.07707e-17
6323.99782 1.19690e-17
6325.50135 1.20412e-17
6327.00488 1.01005e-17
6328.49826 1.07413e-17
6330.00179 1.13751e-17
6331.49516 1.08214e-17
6332.99869 1.11458e-17
6334.50222 1.22156e-17
6335.99560 1.21468e-17
6337.49913 1.21218e-17
6339.00266 1.28580e-17
6340.49603 1.24745e-17
6341.99957 1.24059e-17
6343.50310 1.21405e-17
6344.99647 1.19309e-17
6346.50000 1.27869e-17
6348.00353 1.32540e-17
6349.49691 1.27884e-17
6351.00044 1.26652e-17
6352.50397 1.17059e-17
6353.99735 1.05615e-17
6355.50088 1.32806e-17
6357.00441 1.35221e-17
6358.49778 1.21938e-17
6360.00131 1.32859e-17
6361.50485 1.42010e-17
6362.99822 1.28474e-17
6364.50175 1.36441e-17
6365.99512 1.27201e-17
6367.49866 1.18664e-17
6369.00219 1.34195e-17
6370.49556 1.34194e-17
6371.99909 1.26105e-17
6373.50263 1.16743e-17
6374.99600 1.17394e-17
6376.49953 1.26105e-17
6378.00306 1.23078e-17
6379.49644 1.30350e-17
6380.99997 1.15522e-17
6382.50350 1.08714e-17
6383.99687 1.27638e-17
6385.50040 1.09605e-17
6387.00394 1.08096e-17
6388.49731 1.30315e-17
6390.00084 1.18016e-17
6391.50437 1.13908e-17
6392.99775 1.25751e-17
6394.50128 1.25003e-17
6396.00481 1.25155e-17
6397.49818 1.30055e-17
6399.00172 1.40646e-17
6400.49509 1.33408e-17
6401.99862 1.23777e-17
6403.50215 1.17883e-17
6404.99553 1.18130e-17
6406.49906 1.25730e-17
6408.00259 1.29912e-17
6409.49596 1.29300e-17
6410.99949 1.33365e-17
6412.50303 1.17433e-17
6413.99640 1.00448e-17
6415.49993 1.08547e-17
6417.00346 1.28186e-17
6418.49684 1.27641e-17
6420.00037 1.20725e-17
6421.50390 1.28367e-17
6422.99727 1.24806e-17
6424.50080 1.19642e-17
6426.00434 1.22023e-17
6427.49771 1.19919e-17
6429.00124 1.16168e-17
6430.49462 1.25270e-17
6431.99815 1.31767e-17
6433.50168 1.36640e-17
6434.99505 1.19060e-17
6436.49858 1.17896e-17
6438.00212 1.39854e-17
6439.49549 1.24634e-17
6440.99902 1.19340e-17
6442.50255 1.15459e-17
6443.99593 1.15593e-17
6445.49946 1.12062e-17
6447.00299 1.17075e-17
6448.49636 1.18070e-17
6449.99989 1.14857e-17
6451.50343 1.04246e-17
6452.99680 1.28195e-17
6454.50033 1.14033e-17
6456.00386 1.24921e-17
6457.49724 1.30548e-17
6459.00077 1.16276e-17
6460.50430 1.29627e-17
6461.99767 1.27479e-17
6463.50121 1.21589e-17
6465.00474 1.18914e-17
6466.49811 1.06323e-17
6468.00164 1.13328e-17
6469.49502 1.18776e-17
6470.99855 1.25508e-17
6472.50208 1.23391e-17
6473.99545 1.20642e-17
6475.49899 1.29455e-17
6477.00252 1.24959e-17
6478.49589 1.20934e-17
6479.99942 1.24996e-17
6481.50295 1.26975e-17
6482.99633 1.32551e-17
6484.49986 1.33152e-17
6486.00339 1.32722e-17
6487.49676 1.31354e-17
6489.00030 1.18636e-17
6490.50383 1.10568e-17
6491.99720 1.23855e-17
6493.50073 1.36857e-17
6495.00427 1.30450e-17
6496.49764 1.36615e-17
6498.00117 1.41037e-17
6499.50470 1.25738e-17
6500.99808 1.25825e-17
6502.50161 1.22759e-17
6504.00514 1.34555e-17
6505.49851 1.38063e-17
6507.00204 1.22074e-17
6508.49542 1.25088e-17
6509.99895 1.26644e-17
6511.50248 1.28614e-17
6512.99585 1.25288e-17
6514.49939 1.20983e-17
6516.00292 1.19469e-17
6517.49629 1.26173e-17
6518.99982 1.32284e-17
6520.50335 1.25763e-17
6521.99673 1.35270e-17
6523.50026 1.30237e-17
6525.00379 1.23619e-17
6526.49717 1.22881e-17
6528.00070 1.20817e-17
6529.50423 1.23783e-17
6530.99760 1.33636e-17
6532.50113 1.37850e-17
6534.00467 1.21704e-17
6535.49804 1.26731e-17
6537.00157 1.26637e-17
6538.50510 1.24103e-17
6539.99848 1.36102e-17
6541.50201 1.31106e-17
6542.99538 1.21820e-17
6544.49891 1.26541e-17
6546.00245 1.38114e-17
6547.49582 1.35299e-17
6548.99935 1.24505e-17
6550.50288 1.23064e-17
6551.99626 1.23164e-17
6553.49979 1.18628e-17
6555.00332 1.16118e-17
6556.49669 1.17751e-17
6558.00022 1.26149e-17
6559.50376 1.31903e-17
6560.99713 1.27141e-17
6562.50066 1.25532e-17
6564.00419 1.29266e-17
6565.49757 1.36269e-17
6567.00110 1.36927e-17
6568.50463 1.32579e-17
6569.99800 1.17990e-17
6571.50153 1.22572e-17
6572.99491 1.32827e-17
6574.49844 1.32473e-17
6576.00197 1.34072e-17
6577.49535 1.32804e-17
6578.99888 1.26567e-17
6580.50241 1.34883e-17
6581.99578 1.16015e-17
6583.49931 1.23326e-17
6585.00285 1.22521e-17
6586.49622 1.20042e-17
6587.99975 1.27523e-17
6589.50328 1.32762e-17
6590.99666 1.30893e-17
6592.50019 1.28374e-17
6594.00372 1.20848e-17
6595.49709 1.19228e-17
6597.00063 1.23447e-17
6598.50416 1.15106e-17
6599.99753 1.19630e-17
6601.50106 1.12714e-17
6603.00459 1.10468e-17
6604.49797 1.24174e-17
6606.00150 1.32114e-17
6607.49487 1.14450e-17
6608.99840 1.12098e-17
6610.50194 1.17573e-17
6611.99531 1.29594e-17
6613.49884 1.28189e-17
6615.00237 1.24299e-17
6616.49575 1.25157e-17
6617.99928 1.23367e-17
6619.50281 1.19026e-17
6620.99618 1.09535e-17
6622.49972 1.05693e-17
6624.00325 1.20518e-17
6625.49662 1.22703e-17
6627.00015 1.14947e-17
6628.50368 1.01402e-17
6629.99706 1.03098e-17
6631.50059 1.09284e-17
6633.00412 1.22765e-17
6634.49749 1.36017e-17
6636.00103 1.24768e-17
6637.50456 1.24599e-17
6638.99793 1.24430e-17
6640.50146 1.24260e-17
6641.99484 1.24091e-17
6643.49837 1.23922e-17
6645.00190 1.23752e-17
6646.49527 1.23583e-17
6647.99881 1.23414e-17
6649.50234 1.23244e-17
6650.99571 1.23075e-17
6652.49924 1.22906e-17
6654.00277 1.22736e-17
6655.49615 1.22567e-17
6656.99968 1.22398e-17
6658.50321 1.22229e-17
6659.99658 1.22059e-17
6661.50012 1.21890e-17
6663.00365 1.21721e-17
6664.49702 1.21551e-17
6666.00055 1.21382e-17
6667.50408 1.21213e-17
6668.99746 1.21044e-17
6670.50099 1.20874e-17
6672.00452 1.20705e-17
6673.49790 1.20536e-17
6675.00143 1.20367e-17
6676.49480 1.20197e-17
6677.99833 1.20028e-17
6679.50186 1.19859e-17
6680.99524 1.19690e-17
6682.49877 1.19521e-17
6684.00230 1.19351e-17
6685.49567 1.19182e-17
6686.99921 1.19013e-17
6688.50274 1.18844e-17
6689.99611 1.18674e-17
6691.49964 1.18505e-17
6693.00317 1.18336e-17
6694.49655 1.18167e-17
6696.00008 1.17998e-17
6697.50361 1.17829e-17
6698.99698 1.17659e-17
6700.50052 1.15480e-17
6702.00405 1.10797e-17
6703.49742 1.17452e-17
6705.00095 1.21318e-17
6706.50449 1.15969e-17
6707.99786 1.23138e-17
6709.50139 1.17053e-17
6710.99476 1.04926e-17
6712.49830 1.18446e-17
6714.00183 1.25685e-17
6715.49520 1.03396e-17
6716.99873 1.08462e-17
6718.50227 1.12789e-17
6719.99564 1.15162e-17
6721.49917 1.25574e-17
6723.00270 1.23597e-17
6724.49608 1.06126e-17
6725.99961 1.00281e-17
6727.50314 1.28442e-17
6728.99651 1.20348e-17
6730.50004 1.16528e-17
6732.00358 1.29743e-17
6733.49695 1.21083e-17
6735.00048 1.06952e-17
6736.50401 1.01596e-17
6737.99739 1.08264e-17
6739.50092 1.18755e-17
6741.00445 1.18813e-17
6742.49782 1.07152e-17
6744.00136 1.07995e-17
6745.50489 1.15908e-17
6746.99826 1.29970e-17
6748.50179 1.33748e-17
6749.99517 1.28828e-17
6751.49870 1.21494e-17
6753.00223 1.09801e-17
6754.49560 1.15065e-17
6755.99913 1.14589e-17
6757.50267 1.01297e-17
6758.99604 1.08603e-17
6760.49957 1.16362e-17
6762.00310 1.09553e-17
6763.49648 9.33794e-18
6765.00001 8.69438e-18
6766.50354 1.10736e-17
6767.99691 1.22694e-17
6769.50045 1.13364e-17
6771.00398 1.08528e-17
6772.49735 1.18540e-17
6774.00088 1.15915e-17
6775.50441 1.12120e-17
6776.99779 1.16349e-17
6778.50132 1.12295e-17
6780.00485 1.04949e-17
6781.49822 9.45905e-18
6783.00176 1.05477e-17
6784.49513 1.07421e-17
6785.99866 9.47350e-18
6787.50219 1.17802e-17
6788.99557 1.17481e-17
6790.49910 1.26574e-17
6792.00263 1.28638e-17
6793.49600 1.04835e-17
6794.99953 1.28550e-17
6796.50307 1.25623e-17
6797.99644 1.13773e-17
6799.49997 9.82109e-18
6801.00350 1.02100e-17
6802.49688 1.10592e-17
6804.00041 9.75636e-18
6805.50394 9.34558e-18
6806.99731 1.06768e-17
6808.50085 1.11129e-17
6810.00438 1.07182e-17
6811.49775 9.78895e-18
6813.00128 9.17719e-18
6814.50482 9.45654e-18
6815.99819 1.05202e-17
6817.50172 1.07879e-17
6818.99509 1.07925e-17
6820.49863 1.12487e-17
6822.00216 1.07028e-17
6823.49553 1.06881e-17
6824.99906 1.16126e-17
6826.50259 1.15815e-17
6827.99597 1.02333e-17
6829.49950 1.04175e-17
6831.00303 1.06641e-17
6832.49640 9.93547e-18
6833.99994 1.08720e-17
6835.50347 1.12167e-17
6836.99684 1.01982e-17
6838.50037 1.13756e-17
6840.00390 1.18343e-17
6841.49728 1.05220e-17
6843.00081 1.04823e-17
6844.50434 1.13822e-17
6845.99772 1.21962e-17
6847.50125 1.18524e-17
6849.00478 1.08561e-17
6850.49815 1.06277e-17
6852.00168 1.04614e-17
6853.49506 1.13438e-17
6854.99859 1.05057e-17
6856.50212 9.98673e-18
6857.99549 1.18094e-17
6859.49903 1.03612e-17
6861.00256 1.06665e-17
6862.49593 1.09528e-17
6863.99946 9.87547e-18
6865.50300 9.45922e-18
6866.99637 1.02619e-17
6868.49990 9.93912e-18
6870.00343 1.00845e-17
6871.49680 1.07785e-17
6873.00034 9.88144e-18
6874.50387 1.01256e-17
6875.99724 1.18848e-17
6877.50077 9.81128e-18
6879.00431 9.83287e-18
6880.49768 9.85446e-18
6882.00121 9.87605e-18
6883.50474 9.89764e-18
6884.99812 9.91923e-18
6886.50165 9.94082e-18
6887.99502 9.96241e-18
6889.49855 9.98400e-18
6891.00209 1.00056e-17
6892.49546 1.00055e-17
6893.99899 1.10161e-17
6895.50252 1.05940e-17
6896.99590 1.06603e-17
6898.49943 9.29096e-18
6900.00296 9.13940e-18
6901.49633 9.67868e-18
6902.99986 1.03555e-17
6904.50340 9.72054e-18
6905.99677 1.00837e-17
6907.50030 1.12913e-17
6909.00383 1.12479e-17
6910.49721 9.88140e-18
6912.00074 9.71995e-18
6913.50427 1.04191e-17
6914.99764 9.03217e-18
6916.50118 8.08019e-18
6918.00471 8.85764e-18
6919.49808 9.70804e-18
6921.00161 1.09237e-17
6922.49498 1.11956e-17
6923.99852 1.17644e-17
6925.50205 1.17793e-17
6926.99542 1.12140e-17
6928.49895 9.88687e-18
6930.00249 9.34319e-18
6931.49586 1.00642e-17
6932.99939 1.06090e-17
6934.50292 1.07632e-17
6935.99630 9.28000e-18
6937.49983 9.01963e-18
6939.00336 9.67953e-18
6940.49673 9.82352e-18
6942.00027 1.04186e-17
6943.50380 1.05667e-17
6944.99717 1.09232e-17
6946.50070 1.14730e-17
6948.00423 1.09811e-17
6949.49761 1.10362e-17
6951.00114 9.87882e-18
6952.50467 9.21695e-18
6953.99804 9.36016e-18
6955.50158 9.92045e-18
6956.99495 1.06506e-17
6958.49848 1.04340e-17
6960.00201 1.00637e-17
6961.49539 1.02878e-17
6962.99892 1.09586e-17
6964.50245 1.05476e-17
6965.99582 9.90312e-18
6967.49935 1.15509e-17
6969.00289 1.15852e-17
6970.49626 1.02763e-17
6971.99979 1.07802e-17
6973.50332 1.06594e-17
6974.99670 1.08784e-17
6976.50023 1.04408e-17
6978.00376 7.86586e-18
6979.49713 8.17007e-18
6981.00067 1.00084e-17
6982.50420 1.05633e-17
6983.99757 1.07996e-17
6985.50110 1.07266e-17
6987.00464 9.57298e-18
6988.49801 9.04093e-18
6990.00154 1.03854e-17
6991.49491 1.06603e-17
6992.99845 9.91990e-18
6994.50198 8.86315e-18
6995.99535 8.67100e-18
6997.49888 9.23767e-18
6999.00241 9.46759e-18
7000.49579 9.42926e-18
7001.99932 1.01433e-17
7003.50285 1.03098e-17
7004.99622 9.75810e-18
7006.49976 9.82181e-18
7008.00329 9.55986e-18
7009.49666 9.06487e-18
7011.00019 9.69479e-18
7012.50373 9.34170e-18
7013.99710 8.42741e-18
7015.50063 1.00763e-17
7017.00416 9.27794e-18
7018.49753 8.69922e-18
7020.00107 9.43449e-18
7021.50460 1.01780e-17
7022.99797 1.09379e-17
7024.50150 9.08424e-18
7026.00504 1.00332e-17
7027.49841 1.15804e-17
7029.00194 1.07415e-17
7030.49531 1.00278e-17
7031.99885 8.71248e-18
7033.50238 8.03416e-18
7034.99575 8.98358e-18
7036.49928 9.37986e-18
7038.00282 9.95342e-18
7039.49619 9.57419e-18
7040.99972 8.50491e-18
7042.50325 9.08304e-18
7043.99662 9.69620e-18
7045.50016 1.15832e-17
7047.00369 1.20885e-17
7048.49706 9.98957e-18
7050.00059 9.16483e-18
7051.50413 9.06380e-18
7052.99750 9.44959e-18
7054.50103 1.00227e-17
7056.00456 9.95658e-18
7057.49794 9.42316e-18
7059.00147 8.67609e-18
7060.50500 9.95134e-18
7061.99837 1.03436e-17
7063.50191 9.45248e-18
7064.99528 9.33158e-18
7066.49881 9.84953e-18
7068.00234 9.73823e-18
7069.49572 1.00189e-17
7070.99925 9.63259e-18
7072.50278 9.45575e-18
7073.99615 8.43918e-18
7075.49968 8.46609e-18
7077.00322 8.62639e-18
7078.49659 9.06547e-18
7080.00012 8.53015e-18
7081.50365 8.79306e-18
7082.99703 8.50082e-18
7084.50056 8.61703e-18
7086.00409 9.13299e-18
7087.49746 1.02690e-17
7089.00100 1.03992e-17
7090.50453 9.09149e-18
7091.99790 9.62835e-18
7093.50143 8.27876e-18
7095.00496 8.71448e-18
7096.49834 9.25361e-18
7098.00187 9.59610e-18
7099.49524 8.36599e-18
7100.99877 8.52114e-18
7102.50231 9.96230e-18
7103.99568 9.77867e-18
7105.49921 9.14739e-18
7107.00274 9.38025e-18
7108.49612 1.01712e-17
7109.99965 8.64665e-18
7111.50318 9.69691e-18
7112.99655 1.04385e-17
7114.50008 9.68344e-18
7116.00362 1.05592e-17
7117.49699 1.04428e-17
7119.00052 1.03265e-17
7120.50405 1.02101e-17
7121.99743 1.00938e-17
7123.50096 9.97740e-18
7125.00449 9.86105e-18
7126.49786 9.86092e-18
7128.00140 9.43122e-18
7129.50493 9.55912e-18
7130.99830 9.81288e-18
7132.50183 9.83827e-18
7133.99521 1.05846e-17
7135.49874 1.06251e-17
7137.00227 9.49428e-18
7138.49564 9.21793e-18
7139.99917 1.00980e-17
7141.50271 1.02038e-17
7142.99608 8.44120e-18
7144.49961 1.03356e-17
7146.00314 1.00794e-17
7147.49652 8.71577e-18
7149.00005 1.04427e-17
7150.50358 1.09429e-17
7151.99695 1.04771e-17
7153.50049 9.81203e-18
7155.00402 9.51448e-18
7156.49739 1.07971e-17
7158.00092 1.22486e-17
7159.50446 9.78163e-18
7160.99783 8.99402e-18
7162.50136 1.06985e-17
7164.00489 1.08592e-17
7165.49827 1.06617e-17
7167.00180 9.47677e-18
7168.49517 1.04416e-17
7169.99870 1.22282e-17
7171.50223 1.01662e-17
7172.99561 9.58147e-18
7174.49914 8.58622e-18
7176.00267 8.39009e-18
7177.49604 9.64784e-18
7178.99958 8.84127e-18
7180.50311 8.44471e-18
7181.99648 9.31139e-18
7183.50001 8.52647e-18
7185.00355 7.47880e-18
7186.49692 9.04549e-18
7188.00045 1.02329e-17
7189.50398 1.00930e-17
7190.99736 1.02391e-17
7192.50089 1.04636e-17
7194.00442 1.10466e-17
7195.49779 1.05000e-17
7197.00132 9.95343e-18
7198.49470 9.40684e-18
7199.99823 9.40672e-18
7201.50176 1.05151e-17
7202.99513 1.12835e-17
7204.49867 1.12035e-17
7206.00220 1.15959e-17
7207.49557 1.07818e-17
7208.99910 8.80651e-18
7210.50263 7.72513e-18
7211.99601 9.31388e-18
7213.49954 9.81530e-18
7215.00307 8.40831e-18
7216.49645 9.58594e-18
7217.99998 1.21957e-17
7219.50351 1.04710e-17
7220.99688 9.77821e-18
7222.50041 1.03663e-17
7224.00395 8.84307e-18
7225.49732 9.88367e-18
7227.00085 1.10819e-17
7228.50438 9.45714e-18
7229.99776 9.76670e-18
7231.50129 8.98786e-18
7232.99466 9.55988e-18
7234.49819 1.06357e-17
7236.00173 1.05006e-17
7237.49510 9.60169e-18
7238.99863 9.87742e-18
7240.50216 1.08634e-17
7241.99554 1.14909e-17
7243.49907 1.29209e-17
7245.00260 1.11976e-17
7246.49597 9.65959e-18
7247.99950 1.05686e-17
7249.50304 9.99200e-18
7250.99641 9.74907e-18
7252.49994 9.97676e-18
7254.00347 9.03259e-18
7255.49685 8.57754e-18
7257.00038 8.43035e-18
7258.50391 8.34016e-18
7259.99728 1.04072e-17
7261.50082 1.02966e-17
7263.00435 8.10662e-18
7264.49772 8.80038e-18
7266.00125 9.77177e-18
7267.50478 1.04831e-17
7268.99816 1.09317e-17
7270.50169 1.01266e-17
7271.99506 1.17533e-17
7273.49859 1.12330e-17
7275.00213 9.96331e-18
7276.49550 1.23251e-17
7277.99903 1.18439e-17
7279.50256 1.06672e-17
7280.99594 1.13761e-17
7282.49947 1.06477e-17
7284.00300 9.23429e-18
7285.49637 1.04666e-17
7286.99990 1.00331e-17
7288.50344 8.84725e-18
7289.99681 1.00442e-17
7291.50034 9.85393e-18
7293.00387 1.08808e-17
7294.49725 1.13888e-17
7296.00078 9.81921e-18
7297.50431 1.02525e-17
7298.99768 1.08239e-17
7300.50122 8.74984e-18
7302.00475 1.00283e-17
7303.49812 9.70046e-18
7305.00165 8.95629e-18
7306.50518 1.00380e-17
7307.99856 9.55044e-18
7309.50209 1.06739e-17
7310.99546 1.21011e-17
7312.49899 1.04785e-17
7314.00253 1.06203e-17
7315.49590 1.18135e-17
7316.99943 1.16194e-17
7318.50296 1.17769e-17
7319.99634 9.88440e-18
7321.49987 1.03504e-17
7323.00340 1.12969e-17
7324.49677 9.87235e-18
7326.00031 9.85003e-18
7327.50384 9.86032e-18
7328.99721 9.14002e-18
7330.50074 8.82123e-18
7332.00428 9.04351e-18
7333.49765 1.02501e-17
7335.00118 1.11444e-17
7336.50471 1.09982e-17
7337.99809 1.04244e-17
7339.50162 1.01987e-17
7340.99499 1.07232e-17
7342.49852 1.19099e-17
7344.00205 1.04308e-17
7345.49543 9.19876e-18
7346.99896 9.23106e-18
7348.50249 1.06362e-17
7349.99586 1.25402e-17
7351.49940 1.04646e-17
7353.00293 8.47524e-18
7354.49630 9.12682e-18
7355.99983 8.79807e-18
7357.50337 1.06224e-17
7358.99674 9.62316e-18
7360.50027 9.47701e-18
7362.00380 1.06167e-17
7363.49718 1.03918e-17
7365.00071 1.06323e-17
7366.50424 1.08801e-17
7367.99761 1.06364e-17
7369.50114 9.09310e-18
7371.00468 1.09693e-17
7372.49805 1.10865e-17
7374.00158 9.47485e-18
7375.49495 1.01075e-17
7376.99849 1.03567e-17
7378.50202 1.12706e-17
7379.99539 1.06257e-17
7381.49892 1.04896e-17
7383.00245 1.09652e-17
7384.49583 1.14627e-17
7385.99936 9.99376e-18
7387.50289 1.00680e-17
7388.99627 1.07799e-17
7390.49980 1.00144e-17
7392.00333 9.59480e-18
7393.49670 1.16282e-17
7395.00023 1.35456e-17
7396.50377 1.17696e-17
7397.99714 1.05567e-17
7399.50067 9.77445e-18
7401.00420 1.05547e-17
7402.49758 9.57717e-18
7404.00111 9.52669e-18
7405.50464 1.16965e-17
7406.99801 1.05171e-17
7408.50155 1.04025e-17
7409.99492 9.14779e-18
7411.49845 9.20970e-18
7413.00198 1.00028e-17
7414.49536 9.46794e-18
7415.99889 9.54018e-18
7417.50242 9.98674e-18
7418.99579 1.07839e-17
7420.49932 1.01057e-17
7422.00286 7.88548e-18
7423.49623 7.52532e-18
7424.99976 9.77765e-18
7426.50329 1.12310e-17
7427.99667 1.02939e-17
7429.50020 9.43862e-18
7431.00373 7.48220e-18
7432.49710 7.16985e-18
7434.00063 7.69293e-18
7435.50417 7.90412e-18
7436.99754 9.02636e-18
7438.50107 1.13016e-17
7440.00460 9.89835e-18
7441.49798 9.46872e-18
7443.00151 1.04758e-17
7444.49488 9.89467e-18
7445.99841 8.61588e-18
7447.50195 9.80816e-18
7448.99532 1.14517e-17
7450.49885 9.55193e-18
7452.00238 8.51586e-18
7453.49576 8.30239e-18
7454.99929 9.37009e-18
7456.50282 8.82075e-18
7457.99619 1.01495e-17
7459.49973 1.02866e-17
7461.00326 1.01195e-17
7462.49663 1.04220e-17
7464.00016 9.56189e-18
7465.50369 8.14057e-18
7466.99707 9.47791e-18
7468.50060 7.73356e-18
7470.00413 8.29312e-18
7471.49750 9.38770e-18
7473.00104 8.34258e-18
7474.50457 8.11382e-18
7475.99794 9.06364e-18
7477.50147 7.52730e-18
7478.99485 6.66267e-18
7480.49838 7.44110e-18
7482.00191 7.53761e-18
7483.49528 6.15671e-18
7484.99882 6.65935e-18
7486.50235 7.93634e-18
7487.99572 7.60410e-18
7489.49925 7.03096e-18
7491.00278 6.30838e-18
7492.49616 7.68538e-18
7493.99969 7.47091e-18
7495.50322 7.10471e-18
7496.99659 7.14144e-18
7498.50013 6.51511e-18
7500.00366 8.05306e-18
7501.49703 8.07391e-18
7503.00056 7.56195e-18
7504.50410 7.50846e-18
7505.99747 6.72250e-18
7507.50100 7.24978e-18
7509.00453 7.73317e-18
7510.49791 7.53398e-18
7512.00144 7.24451e-18
7513.49481 7.48768e-18
7514.99834 7.10530e-18
7516.50187 7.54013e-18
7517.99525 7.31644e-18
7519.49878 6.92280e-18
7521.00231 6.17380e-18
7522.49568 6.69790e-18
7523.99922 6.70471e-18
7525.50275 9.47256e-18
7526.99612 8.41588e-18
7528.49965 8.21864e-18
7530.00318 8.54226e-18
7531.49656 8.97283e-18
7533.00009 7.57430e-18
7534.50362 7.41324e-18
7535.99700 6.18352e-18
7537.50053 7.52955e-18
7539.00406 7.41435e-18
7540.49743 5.10919e-18
