# wavelength flux
3720.00230 1.22791e-17
3721.49568 1.01243e-17
3722.99921 1.16381e-17
3724.50274 1.50465e-17
3725.99611 1.36703e-17
3727.49964 1.12440e-17
3729.00318 1.06037e-17
3730.49655 9.63892e-18
3732.00008 1.28496e-17
3733.50361 1.26171e-17
3734.99699 9.12651e-18
3736.50052 1.23355e-17
3738.00405 1.33994e-17
3739.49742 1.18615e-17
3741.00095 1.20973e-17
3742.50449 1.18787e-17
3743.99786 1.16602e-17
3745.50139 1.14416e-17
3746.99476 1.12231e-17
3748.49830 1.10045e-17
3750.00183 1.10042e-17
3751.49520 1.24106e-17
3752.99873 1.23948e-17
3754.50227 1.27859e-17
3755.99564 1.16852e-17
3757.49917 9.53429e-18
3759.00270 8.18416e-18
3760.49608 9.78495e-18
3761.99961 1.24395e-17
3763.50314 1.27061e-17
3764.99651 1.25637e-17
3766.50005 1.14651e-17
3768.00358 1.13033e-17
3769.49695 1.11415e-17
3771.00048 1.11028e-17
3772.50401 1.10640e-17
3773.99739 1.10253e-17
3775.50092 1.09866e-17
3777.00445 1.09479e-17
3778.49782 1.09091e-17
3780.00136 1.08704e-17
3781.50489 1.08317e-17
3782.99826 1.07930e-17
3784.50179 1.07543e-17
3785.99517 1.07155e-17
3787.49870 1.06768e-17
3789.00223 1.06381e-17
3790.49560 1.05994e-17
3791.99914 1.05607e-17
3793.50267 1.05220e-17
3794.99604 1.04833e-17
3796.49957 1.04447e-17
3798.00310 1.04060e-17
3799.49648 1.03673e-17
3801.00001 1.03286e-17
3802.50354 1.02899e-17
3803.99691 1.02513e-17
3805.50045 1.02126e-17
3807.00398 1.01739e-17
3808.49735 1.15282e-17
3810.00088 1.05562e-17
3811.50441 9.70673e-18
3812.99779 1.00288e-17
3814.50132 7.51169e-18
3816.00485 7.25613e-18
3817.49823 8.50365e-18
3819.00176 9.10774e-18
3820.49513 9.05398e-18
3821.99866 8.53520e-18
3823.50219 8.00063e-18
3824.99557 8.82984e-18
3826.49910 1.04283e-17
3828.00263 1.01565e-17
3829.49600 9.62708e-18
3830.99954 9.54056e-18
3832.50307 1.16401e-17
3833.99644 1.13445e-17
3835.49997 1.17953e-17
3837.00351 1.44333e-17
3838.49688 1.25104e-17
3840.00041 1.04985e-17
3841.50394 1.00854e-17
3842.99732 1.07197e-17
3844.50085 9.82317e-18
3846.00438 1.28723e-17
3847.49775 1.10202e-17
3849.00128 9.75059e-18
3850.50482 1.27079e-17
3851.99819 1.20680e-17
3853.50172 1.22397e-17
3854.99509 8.89685e-18
3856.49863 1.12610e-17
3858.00216 1.02390e-17
3859.49553 1.10694e-17
3860.99906 1.04840e-17
3862.50260 9.60117e-18
3863.99597 9.51966e-18
3865.49950 8.07279e-18
3867.00303 1.12477e-17
3868.49640 1.18792e-17
3869.99994 1.19632e-17
3871.50347 9.84462e-18
3872.99684 9.87429e-18
3874.50037 1.21325e-17
3876.00391 1.25117e-17
3877.49728 1.15726e-17
3879.00081 1.16375e-17
3880.50434 1.23918e-17
3881.99772 1.35386e-17
3883.50125 1.27004e-17
3885.00478 1.07808e-17
3886.49815 1.26055e-17
3888.00169 1.38992e-17
3889.49506 1.23563e-17
3890.99859 1.07916e-17
3892.50212 1.25174e-17
3893.99550 1.26252e-17
3895.49903 1.22772e-17
3897.00256 1.38864e-17
3898.49593 1.24590e-17
3899.99946 1.12548e-17
3901.50300 1.26642e-17
3902.99637 1.34536e-17
3904.49990 1.25409e-17
3906.00343 1.17979e-17
3907.49681 1.10899e-17
3909.00034 1.17643e-17
3910.50387 1.29144e-17
3911.99724 1.13117e-17
3913.50077 1.31978e-17
3915.00431 1.35797e-17
3916.49768 1.34037e-17
3918.00121 1.40595e-17
3919.50474 1.14709e-17
3920.99812 1.21574e-17
3922.50165 1.12282e-17
3923.99502 9.70624e-18
3925.49855 1.38661e-17
3927.00209 1.45600e-17
3928.49546 1.20846e-17
3929.99899 1.24764e-17
3931.50252 1.05391e-17
3932.99590 1.14693e-17
3934.49943 1.22094e-17
3936.00296 1.25971e-17
3937.49633 1.26490e-17
3938.99987 1.24891e-17
3940.50340 1.12523e-17
3941.99677 1.22634e-17
3943.50030 1.17524e-17
3945.00383 1.15788e-17
3946.49721 1.14051e-17
3948.00074 1.12315e-17
3949.50427 1.10579e-17
3950.99764 1.08843e-17
3952.50118 1.07107e-17
3954.00471 1.07104e-17
3955.49808 1.31573e-17
3957.00161 1.18211e-17
3958.49499 1.24739e-17
3959.99852 1.20427e-17
3961.50205 1.39388e-17
3962.99542 1.50839e-17
3964.49896 1.48713e-17
3966.00249 1.35755e-17
3967.49586 1.23481e-17
3968.99939 1.24319e-17
3970.50292 1.21727e-17
3971.99630 1.05426e-17
3973.49983 1.25320e-17
3975.00336 1.18198e-17
3976.49673 1.11172e-17
3978.00027 1.19562e-17
3979.50380 1.22487e-17
3980.99717 1.37101e-17
3982.50070 1.33905e-17
3984.00424 1.06306e-17
3985.49761 1.37343e-17
3987.00114 1.37792e-17
3988.50467 1.29415e-17
3989.99805 1.28822e-17
3991.50158 1.35804e-17
3992.99495 1.46639e-17
3994.49848 1.31807e-17
3996.00201 1.19568e-17
3997.49539 1.23740e-17
3998.99892 1.16562e-17
4000.50245 1.21592e-17
4001.99582 1.19148e-17
4003.49936 1.32544e-17
4005.00289 1.46350e-17
4006.49626 1.45940e-17
4007.99979 1.32344e-17
4009.50333 1.27044e-17
4010.99670 1.45749e-17
4012.50023 1.29015e-17
4014.00376 1.28756e-17
4015.49714 1.29906e-17
4017.00067 1.31316e-17
4018.50420 1.54952e-17
4019.99757 1.58238e-17
4021.50110 1.46713e-17
4023.00464 1.22651e-17
4024.49801 1.20016e-17
4026.00154 1.17380e-17
4027.49491 1.14744e-17
4028.99845 1.12108e-17
4030.50198 1.09473e-17
4031.99535 1.06838e-17
4033.49888 1.06835e-17
4035.00241 1.16090e-17
4036.49579 1.22041e-17
4037.99932 1.18032e-17
4039.50285 1.30039e-17
4040.99623 1.54887e-17
4042.49976 1.44977e-17
4044.00329 1.54685e-17
4045.49666 1.34260e-17
4047.00019 1.27671e-17
4048.50373 1.57015e-17
4049.99710 1.43155e-17
4051.50063 1.37891e-17
4053.00416 1.24242e-17
4054.49754 1.24807e-17
4056.00107 1.24412e-17
4057.50460 1.46391e-17
4058.99797 1.42774e-17
4060.50150 1.47319e-17
4062.00504 1.46543e-17
4063.49841 1.32911e-17
4065.00194 1.39899e-17
4066.49532 1.17006e-17
4067.99885 1.14043e-17
4069.50238 1.30629e-17
4070.99575 1.43039e-17
4072.49928 1.39747e-17
4074.00282 1.21849e-17
4075.49619 1.36415e-17
4076.99972 1.19500e-17
4078.50325 1.53467e-17
4079.99663 1.48423e-17
4081.50016 1.32142e-17
4083.00369 1.54730e-17
4084.49706 1.55609e-17
4086.00060 1.41333e-17
4087.50413 1.39075e-17
4088.99750 1.25442e-17
4090.50103 1.31563e-17
4092.00456 1.40392e-17
4093.49794 1.49806e-17
4095.00147 1.57091e-17
4096.50500 1.52504e-17
4097.99837 1.44159e-17
4099.50191 1.32852e-17
4100.99528 1.39701e-17
4102.49881 1.58455e-17
4104.00234 1.51051e-17
4105.49572 1.46452e-17
4106.99925 1.53862e-17
4108.50278 1.47725e-17
4109.99615 1.39557e-17
4111.49968 1.44158e-17
4113.00322 1.29566e-17
4114.49659 1.34077e-17
4116.00012 1.36437e-17
4117.50365 1.19937e-17
4118.99703 1.26916e-17
4120.50056 1.20225e-17
4122.00409 1.13372e-17
4123.49746 1.28873e-17
4125.00100 1.45984e-17
4126.50453 1.36065e-17
4127.99790 1.34561e-17
4129.50143 1.25150e-17
4130.99481 1.40789e-17
4132.49834 1.50522e-17
4134.00187 1.27324e-17
4135.49524 1.01160e-17
4136.99878 1.22371e-17
4138.50231 1.29459e-17
4139.99568 1.47519e-17
4141.49921 1.23169e-17
4143.00274 1.43245e-17
4144.49612 1.38563e-17
4145.99965 1.46452e-17
4147.50318 1.06400e-17
4148.99655 1.17838e-17
4150.50009 1.27616e-17
4152.00362 1.25413e-17
4153.49699 1.20327e-17
4155.00052 1.36424e-17
4156.50406 1.48385e-17
4157.99743 1.54903e-17
4159.50096 1.35483e-17
4161.00449 1.21543e-17
4162.49787 1.18423e-17
4164.00140 1.19563e-17
4165.50493 1.25838e-17
4166.99830 1.42655e-17
4168.50183 1.46963e-17
4169.99521 1.41407e-17
4171.49874 1.28478e-17
4173.00227 1.27155e-17
4174.49564 1.36614e-17
4175.99918 1.42179e-17
4177.50271 1.35056e-17
4178.99608 1.16387e-17
4180.49961 1.27154e-17
4182.00315 1.33931e-17
4183.49652 1.24632e-17
4185.00005 1.08665e-17
4186.50358 1.07834e-17
4187.99695 1.33022e-17
4189.50049 1.37401e-17
4191.00402 1.33637e-17
4192.49739 1.33643e-17
4194.00092 1.28494e-17
4195.50446 1.39286e-17
4196.99783 1.35429e-17
4198.50136 1.24220e-17
4200.00489 1.36524e-17
4201.49827 1.43583e-17
4203.00180 1.28042e-17
4204.49517 1.12921e-17
4205.99870 1.16651e-17
4207.50223 1.35475e-17
4208.99561 1.50207e-17
4210.49914 1.20508e-17
4212.00267 1.12370e-17
4213.49604 1.23040e-17
4214.99958 1.33228e-17
4216.50311 1.41461e-17
4217.99648 1.32668e-17
4219.50001 1.21786e-17
4221.00355 1.09265e-17
4222.49692 1.19649e-17
4224.00045 1.34048e-17
4225.50398 1.29523e-17
4226.99736 1.37040e-17
4228.50089 1.34194e-17
4230.00442 1.32902e-17
4231.49779 1.31527e-17
4233.00133 1.27018e-17
4234.50486 1.33815e-17
4235.99823 1.25285e-17
4237.50176 1.22276e-17
4238.99514 1.21021e-17
4240.49867 1.16116e-17
4242.00220 1.16663e-17
4243.49557 1.29673e-17
4244.99910 1.35957e-17
4246.50264 1.21173e-17
4247.99601 1.19891e-17
4249.49954 1.23291e-17
4251.00307 1.16674e-17
4252.49645 1.05435e-17
4253.99998 1.13623e-17
4255.50351 1.18993e-17
4256.99688 1.16483e-17
4258.50042 1.13994e-17
4260.00395 1.13526e-17
4261.49732 1.27891e-17
4263.00085 1.24504e-17
4264.50438 1.27975e-17
4265.99776 1.17136e-17
4267.50129 1.21607e-17
4269.00482 1.16312e-17
4270.49819 1.13496e-17
4272.00173 1.28507e-17
4273.49510 1.27502e-17
4274.99863 1.08019e-17
4276.50216 1.24239e-17
4277.99554 1.24837e-17
4279.49907 1.12264e-17
4281.00260 1.25263e-17
4282.49597 1.27238e-17
4283.99950 1.31092e-17
4285.50304 1.27596e-17
4286.99641 1.20918e-17
4288.49994 1.17776e-17
4290.00347 1.00735e-17
4291.49685 1.20682e-17
4293.00038 1.21863e-17
4294.50391 1.11874e-17
4295.99728 1.08483e-17
4297.50082 1.04997e-17
4299.00435 9.77799e-18
4300.49772 9.76245e-18
4302.00125 1.13919e-17
4303.50479 1.18496e-17
4304.99816 1.11492e-17
4306.50169 1.12826e-17
4307.99506 1.11864e-17
4309.49860 1.08488e-17
4311.00213 1.11040e-17
4312.49550 1.11107e-17
4313.99903 1.18718e-17
4315.50256 1.07028e-17
4316.99594 1.13304e-17
4318.49947 1.18803e-17
4320.00300 1.04243e-17
4321.49637 9.95751e-18
4322.99991 1.08348e-17
4324.50344 1.08118e-17
4325.99681 1.13482e-17
4327.50034 1.30422e-17
4329.00388 1.27917e-17
4330.49725 1.01573e-17
4332.00078 1.07866e-17
4333.50431 1.10316e-17
4334.99768 1.17794e-17
4336.50122 1.18728e-17
4338.00475 1.17107e-17
4339.49812 1.17285e-17
4341.00165 1.11363e-17
4342.49503 1.11535e-17
4343.99856 1.03801e-17
4345.50209 1.12591e-17
4346.99546 1.17075e-17
4348.49900 1.08285e-17
4350.00253 1.19847e-17
4351.49590 1.19839e-17
4352.99943 1.25047e-17
4354.50297 1.00827e-17
4355.99634 1.08469e-17
4357.49987 1.25625e-17
4359.00340 1.17244e-17
4360.49678 1.18729e-17
4362.00031 1.04580e-17
4363.50384 1.19529e-17
4364.99721 1.15955e-17
4366.50074 1.03624e-17
4368.00428 1.06830e-17
4369.49765 1.17985e-17
4371.00118 1.21159e-17
4372.50471 1.03470e-17
4373.99809 9.71411e-18
4375.50162 1.07161e-17
4376.99499 1.12609e-17
4378.49852 1.32110e-17
4380.00205 1.36818e-17
4381.49543 1.24365e-17
4382.99896 1.09825e-17
4384.50249 1.21805e-17
4385.99587 1.41900e-17
4387.49940 1.31836e-17
4389.00293 1.14088e-17
4390.49630 1.14546e-17
4391.99983 1.16418e-17
4393.50337 1.18413e-17
4394.99674 1.24281e-17
4396.50027 1.28430e-17
4398.00380 1.29798e-17
4399.49718 1.11853e-17
4401.00071 1.14379e-17
4402.50424 1.25184e-17
4403.99761 1.17894e-17
4405.50115 1.18598e-17
4407.00468 1.23097e-17
4408.49805 1.21492e-17
4410.00158 1.23183e-17
4411.50511 1.31355e-17
4412.99849 1.32804e-17
4414.50202 1.32780e-17
4415.99539 1.32755e-17
4417.49892 1.32731e-17
4419.00246 1.32706e-17
4420.49583 1.32681e-17
4421.99936 1.32657e-17
4423.50289 1.32632e-17
4424.99627 1.32608e-17
4426.49980 1.32583e-17
4428.00333 1.32558e-17
4429.49670 1.32534e-17
4431.00023 1.32509e-17
4432.50377 1.32485e-17
4433.99714 1.32460e-17
4435.50067 1.32435e-17
4437.00420 1.32411e-17
4438.49758 1.32386e-17
4440.00111 1.32361e-17
4441.50464 1.32337e-17
4442.99801 1.32312e-17
4444.50155 1.32288e-17
4446.00508 1.32263e-17
4447.49845 1.32238e-17
4449.00198 1.32214e-17
4450.49536 1.32189e-17
4451.99889 1.32164e-17
4453.50242 1.36943e-17
4454.99579 1.34540e-17
4456.49932 1.35108e-17
4458.00286 1.28457e-17
4459.49623 1.14546e-17
4460.99976 1.21836e-17
4462.50329 1.26187e-17
4463.99667 1.11147e-17
4465.50020 1.29820e-17
4467.00373 1.42423e-17
4468.49710 1.35479e-17
4470.00064 1.31909e-17
4471.50417 1.29087e-17
4472.99754 1.41309e-17
4474.50107 1.43626e-17
4476.00461 1.22484e-17
4477.49798 1.25085e-17
4479.00151 1.44535e-17
4480.50504 1.28344e-17
4481.99842 1.34911e-17
4483.50195 1.49226e-17
4484.99532 1.31365e-17
4486.49885 1.28554e-17
4488.00238 1.29017e-17
4489.49576 1.30502e-17
4490.99929 1.50976e-17
4492.50282 1.38620e-17
4493.99619 1.47551e-17
4495.49973 1.38805e-17
4497.00326 1.38585e-17
4498.49663 1.44481e-17
4500.00016 1.50199e-17
4501.50370 1.50837e-17
4502.99707 1.42965e-17
4504.50060 1.41861e-17
4506.00413 1.64676e-17
4507.49751 1.46133e-17
4509.00104 1.33006e-17
4510.50457 1.45983e-17
4511.99794 1.51987e-17
4513.50147 1.50744e-17
4514.99485 1.51141e-17
4516.49838 1.53679e-17
4518.00191 1.43494e-17
4519.49528 1.40351e-17
4520.99882 1.34279e-17
4522.50235 1.47287e-17
4523.99572 1.60673e-17
4525.49925 1.58826e-17
4527.00278 1.56064e-17
4528.49616 1.39004e-17
4529.99969 1.38778e-17
4531.50322 1.47945e-17
4532.99660 1.41211e-17
4534.50013 1.38884e-17
4536.00366 1.41787e-17
4537.49703 1.44810e-17
4539.00056 1.43910e-17
4540.50410 1.48618e-17
4541.99747 1.41938e-17
4543.50100 1.40236e-17
4545.00453 1.47171e-17
4546.49791 1.46449e-17
4548.00144 1.44166e-17
4549.49481 1.37548e-17
4550.99834 1.40473e-17
4552.50187 1.26436e-17
4553.99525 1.41397e-17
4555.49878 1.44262e-17
4557.00231 1.40906e-17
4558.49568 1.34052e-17
4559.99922 1.48956e-17
4561.50275 1.46443e-17
4562.99612 1.30629e-17
4564.49965 1.55659e-17
4566.00319 1.66258e-17
4567.49656 1.41052e-17
4569.00009 1.41943e-17
4570.50362 1.61680e-17
4571.99700 1.51435e-17
4573.50053 1.38455e-17
4575.00406 1.41421e-17
4576.49743 1.32613e-17
4578.00097 1.33933e-17
4579.50450 1.33898e-17
4580.99787 1.41023e-17
4582.50140 1.40785e-17
4583.99478 1.37432e-17
4585.49831 1.53350e-17
4587.00184 1.54661e-17
4588.49521 1.49305e-17
4589.99874 1.34002e-17
4591.50228 1.40365e-17
4592.99565 1.50109e-17
4594.49918 1.38563e-17
4596.00271 1.47728e-17
4597.49609 1.50145e-17
4598.99962 1.44752e-17
4600.50315 1.58330e-17
4601.99652 1.67709e-17
4603.50005 1.48472e-17
4605.00359 1.38831e-17
4606.49696 1.40551e-17
4608.00049 1.39597e-17
4609.50402 1.35830e-17
4610.99740 1.45076e-17
4612.50093 1.51308e-17
4614.00446 1.29475e-17
4615.49783 1.30282e-17
4617.00137 1.46142e-17
4618.50490 1.51755e-17
4619.99827 1.43096e-17
4621.50180 1.30772e-17
4622.99518 1.44404e-17
4624.49871 1.44567e-17
4626.00224 1.25018e-17
4627.49561 1.29102e-17
4628.99915 1.43942e-17
4630.50268 1.54832e-17
4631.99605 1.48070e-17
4633.49958 1.37718e-17
4635.00311 1.36934e-17
4636.49649 1.35969e-17
4638.00002 1.41290e-17
4639.50355 1.49160e-17
4640.99692 1.33403e-17
4642.50046 1.35109e-17
4644.00399 1.45024e-17
4645.49736 1.44447e-17
4647.00089 1.53344e-17
4648.50443 1.55902e-17
4649.99780 1.43892e-17
4651.50133 1.50272e-17
4653.00486 1.41891e-17
4654.49824 1.29609e-17
4656.00177 1.26011e-17
4657.49514 1.38530e-17
4658.99867 1.43781e-17
4660.50220 1.35020e-17
4661.99558 1.29594e-17
4663.49911 1.28993e-17
4665.00264 1.28287e-17
4666.49601 1.33365e-17
4667.99955 1.24859e-17
4669.50308 1.24143e-17
4670.99645 1.33140e-17
4672.49998 1.26287e-17
4674.00352 1.23230e-17
4675.49689 1.23737e-17
4677.00042 1.18838e-17
4678.50395 1.17293e-17
4679.99733 1.18824e-17
4681.50086 1.20355e-17
4683.00439 1.21886e-17
4684.49776 1.23416e-17
4686.00129 1.24947e-17
4687.50483 1.26477e-17
4688.99820 1.26474e-17
4690.50173 1.24233e-17
4691.99510 1.26510e-17
4693.49864 1.23353e-17
4695.00217 1.18561e-17
4696.49554 1.18868e-17
4697.99907 1.22125e-17
4699.50260 1.25960e-17
4700.99598 1.29538e-17
4702.49951 1.27591e-17
4704.00304 1.26981e-17
4705.49642 1.31793e-17
4706.99995 1.23888e-17
4708.50348 1.28488e-17
4709.99685 1.27482e-17
4711.50038 1.19611e-17
4713.00392 1.30456e-17
4714.49729 1.16045e-17
4716.00082 1.16939e-17
4717.50435 1.37495e-17
4718.99773 1.32500e-17
4720.50126 1.22853e-17
4722.00479 1.33733e-17
4723.49816 1.35791e-17
4725.00169 1.26083e-17
4726.49507 1.16128e-17
4727.99860 1.19653e-17
4729.50213 1.30473e-17
4730.99550 1.31671e-17
4732.49904 1.27464e-17
4734.00257 1.29527e-17
4735.49594 1.24326e-17
4736.99947 1.23099e-17
4738.50301 1.25686e-17
4739.99638 1.24497e-17
4741.49991 1.16076e-17
4743.00344 1.07514e-17
4744.49682 1.12305e-17
4746.00035 1.19708e-17
4747.50388 1.22799e-17
4748.99725 1.18624e-17
4750.50079 1.18411e-17
4752.00432 1.23586e-17
4753.49769 1.20618e-17
4755.00122 1.20037e-17
4756.50475 1.25879e-17
4757.99813 1.19718e-17
4759.50166 1.20706e-17
4760.99503 1.26003e-17
4762.49856 1.27290e-17
4764.00210 1.14796e-17
4765.49547 1.14742e-17
4766.99900 1.19157e-17
4768.50253 1.30588e-17
4769.99591 1.23697e-17
4771.49944 1.24652e-17
4773.00297 1.11776e-17
4774.49634 1.04026e-17
4775.99988 1.07045e-17
4777.50341 1.03160e-17
4778.99678 1.05178e-17
4780.50031 1.23168e-17
4782.00384 1.18660e-17
4783.49722 1.29766e-17
4785.00075 1.22152e-17
4786.50428 1.14424e-17
4787.99765 1.08534e-17
4789.50119 9.32946e-18
4791.00472 1.14517e-17
4792.49809 1.19797e-17
4794.00162 1.21545e-17
4795.49500 1.09026e-17
4796.99853 1.14615e-17
4798.50206 1.06820e-17
4799.99543 1.13426e-17
4801.49897 1.14831e-17
4803.00250 1.04280e-17
4804.49587 1.08190e-17
4805.99940 1.28413e-17
4807.50293 1.23791e-17
4808.99631 1.15816e-17
4810.49984 1.15915e-17
4812.00337 1.21873e-17
4813.49674 1.22358e-17
4815.00028 1.26381e-17
4816.50381 1.30708e-17
4817.99718 1.15065e-17
4819.50071 1.05156e-17
4821.00425 1.13081e-17
4822.49762 1.28795e-17
4824.00115 1.15576e-17
4825.50468 1.08014e-17
4826.99806 1.09862e-17
4828.50159 1.18764e-17
4829.99496 1.17238e-17
4831.49849 1.09370e-17
4833.00202 1.03162e-17
4834.49540 1.11341e-17
4835.99893 1.15801e-17
4837.50246 1.10756e-17
4838.99583 1.11176e-17
4840.49937 1.13016e-17
4842.00290 1.10437e-17
4843.49627 1.04640e-17
4844.99980 1.18088e-17
4846.50333 1.13180e-17
4847.99671 1.05025e-17
4849.50024 1.17195e-17
4851.00377 1.29063e-17
4852.49715 1.15777e-17
4854.00068 1.09699e-17
4855.50421 1.13114e-17
4856.99758 1.13859e-17
4858.50111 1.22549e-17
4860.00465 1.05939e-17
4861.49802 1.03368e-17
4863.00155 1.14293e-17
4864.49492 1.14290e-17
4865.99846 1.08727e-17
4867.50199 1.09586e-17
4868.99536 1.19605e-17
4870.49889 1.13168e-17
4872.00242 1.10689e-17
4873.49580 1.09578e-17
4874.99933 1.21214e-17
4876.50286 1.10424e-17
4877.99623 1.08220e-17
4879.49977 1.07408e-17
4881.00330 1.05394e-17
4882.49667 1.07857e-17
4884.00020 1.12111e-17
4885.50374 1.02950e-17
4886.99711 1.00552e-17
4888.50064 1.12854e-17
4890.00417 1.10548e-17
4891.49755 1.10349e-17
4893.00108 1.21222e-17
4894.50461 1.18650e-17
4895.99798 1.17344e-17
4897.50152 1.15339e-17
4899.00505 1.05435e-17
4900.49842 1.07551e-17
4902.00195 1.16841e-17
4903.49532 1.17078e-17
4904.99886 1.15964e-17
4906.50239 1.05616e-17
4907.99576 1.00305e-17
4909.49929 1.02672e-17
4911.00283 1.01913e-17
4912.49620 1.06732e-17
4913.99973 1.07438e-17
4915.50326 1.12688e-17
4916.99664 1.18809e-17
4918.50017 1.20020e-17
4920.00370 1.10163e-17
4921.49707 1.10459e-17
4923.00061 1.10756e-17
4924.50414 1.11053e-17
4925.99751 1.11350e-17
4927.50104 1.11646e-17
4929.00457 1.11943e-17
4930.49795 1.12240e-17
4932.00148 1.12536e-17
4933.50501 1.12833e-17
4934.99838 1.13130e-17
4936.50192 1.13426e-17
4937.99529 1.13723e-17
4939.49882 1.14019e-17
4941.00235 1.14316e-17
4942.49573 1.14613e-17
4943.99926 1.14909e-17
4945.50279 1.15206e-17
4946.99616 1.15502e-17
4948.49970 1.15799e-17
4950.00323 1.16095e-17
4951.49660 1.16392e-17
4953.00013 1.16688e-17
4954.50366 1.16985e-17
4955.99704 1.17281e-17
4957.50057 1.17577e-17
4959.00410 1.12921e-17
4960.49747 1.07900e-17
4962.00101 1.11132e-17
4963.50454 1.06045e-17
4964.99791 1.12982e-17
4966.50144 1.23883e-17
4968.00497 1.09132e-17
4969.49835 1.12860e-17
4971.00188 1.23573e-17
4972.49525 1.11517e-17
4973.99878 1.04026e-17
4975.50232 1.12956e-17
4976.99569 1.17394e-17
4978.49922 1.12229e-17
4980.00275 9.95699e-18
4981.49613 1.05397e-17
4982.99966 1.03712e-17
4984.50319 1.11321e-17
4985.99656 1.28996e-17
4987.50010 1.11978e-17
4989.00363 1.05322e-17
4990.49700 1.07434e-17
4992.00053 1.06193e-17
4993.50407 1.10544e-17
4994.99744 1.13428e-17
4996.50097 1.11841e-17
4998.00450 1.09606e-17
4999.49788 1.09036e-17
5001.00141 1.09028e-17
5002.50494 1.05695e-17
5003.99831 1.05951e-17
5005.50184 1.10500e-17
5006.99522 1.03112e-17
5008.49875 1.09623e-17
5010.00228 1.00678e-17
5011.49565 1.04740e-17
5012.99919 1.11334e-17
5014.50272 1.20733e-17
5015.99609 1.06516e-17
5017.49962 9.70087e-18
5019.00316 9.83900e-18
5020.49653 9.94508e-18
5022.00006 1.00512e-17
5023.50359 1.01572e-17
5024.99697 1.02633e-17
5026.50050 1.03694e-17
5028.00403 1.04754e-17
5029.49740 1.05815e-17
5031.00093 1.06875e-17
5032.50447 1.07935e-17
5033.99784 1.08995e-17
5035.50137 1.10056e-17
5037.00490 1.11116e-17
5038.49828 1.12176e-17
5040.00181 1.13236e-17
5041.49518 1.14296e-17
5042.99871 1.15356e-17
5044.50225 1.16416e-17
5045.99562 1.17476e-17
5047.49915 1.18536e-17
5049.00268 1.19595e-17
5050.49605 1.20655e-17
5051.99959 1.21714e-17
5053.50312 1.22774e-17
5054.99649 1.23833e-17
5056.50002 1.24893e-17
5058.00356 1.19033e-17
5059.49693 1.19688e-17
5061.00046 1.19291e-17
5062.50399 1.11518e-17
5063.99737 1.09992e-17
5065.50090 1.25012e-17
5067.00443 1.35012e-17
5068.49780 1.34683e-17
5070.00133 1.34355e-17
5071.49471 1.34026e-17
5072.99824 1.33698e-17
5074.50177 1.33370e-17
5075.99514 1.33041e-17
5077.49868 1.32713e-17
5079.00221 1.32385e-17
5080.49558 1.32056e-17
5081.99911 1.31728e-17
5083.50265 1.31400e-17
5084.99602 1.31072e-17
5086.49955 1.30744e-17
5088.00308 1.30415e-17
5089.49646 1.30087e-17
5090.99999 1.29759e-17
5092.50352 1.29431e-17
5093.99689 1.29103e-17
5095.50043 1.28775e-17
5097.00396 1.28447e-17
5098.49733 1.28119e-17
5100.00086 1.27791e-17
5101.50439 1.27463e-17
5102.99777 1.27135e-17
5104.50130 1.26807e-17
5105.99467 1.26479e-17
5107.49820 1.29254e-17
5109.00174 1.36550e-17
5110.49511 1.33751e-17
5111.99864 1.30267e-17
5113.50217 1.31200e-17
5114.99555 1.22556e-17
5116.49908 1.22015e-17
5118.00261 1.20673e-17
5119.49598 1.25266e-17
5120.99952 1.32014e-17
5122.50305 1.37595e-17
5123.99642 1.29681e-17
5125.49995 1.21671e-17
5127.00348 1.26385e-17
5128.49686 1.23205e-17
5130.00039 1.38505e-17
5131.50392 1.35475e-17
5132.99729 1.22878e-17
5134.50083 1.30605e-17
5136.00436 1.35242e-17
5137.49773 1.32264e-17
5139.00126 1.20848e-17
5140.50480 1.33166e-17
5141.99817 1.28664e-17
5143.50170 1.34481e-17
5144.99507 1.29683e-17
5146.49860 1.21832e-17
5148.00214 1.22520e-17
5149.49551 1.20504e-17
5150.99904 1.25749e-17
5152.50257 1.39128e-17
5153.99595 1.34528e-17
5155.49948 1.31619e-17
5157.00301 1.37678e-17
5158.49638 1.40696e-17
5159.99992 1.33698e-17
5161.50345 1.34819e-17
5162.99682 1.25086e-17
5164.50035 1.23598e-17
5166.00389 1.30845e-17
5167.49726 1.23318e-17
5169.00079 1.17765e-17
5170.50432 1.25854e-17
5171.99770 1.36366e-17
5173.50123 1.36198e-17
5175.00476 1.37709e-17
5176.49813 1.36027e-17
5178.00166 1.29249e-17
5179.49504 1.37315e-17
5180.99857 1.31790e-17
5182.50210 1.31181e-17
5183.99547 1.33394e-17
5185.49901 1.29346e-17
5187.00254 1.22638e-17
5188.49591 1.25557e-17
5189.99944 1.28358e-17
5191.50298 1.30702e-17
5192.99635 1.32936e-17
5194.49988 1.34380e-17
5196.00341 1.28340e-17
5197.49678 1.26104e-17
5199.00032 1.28225e-17
5200.50385 1.26467e-17
5201.99722 1.37800e-17
5203.50075 1.33897e-17
5205.00429 1.16776e-17
5206.49766 1.21070e-17
5208.00119 1.41450e-17
5209.50472 1.22950e-17
5210.99810 1.28225e-17
5212.50163 1.28983e-17
5214.00516 1.21735e-17
5215.49853 1.31024e-17
5217.00207 1.34066e-17
5218.49544 1.32608e-17
5219.99897 1.30608e-17
5221.50250 1.22343e-17
5222.99588 1.25595e-17
5224.49941 1.26432e-17
5226.00294 1.31291e-17
5227.49631 1.30619e-17
5228.99984 1.31000e-17
5230.50338 1.29893e-17
5231.99675 1.34062e-17
5233.50028 1.19509e-17
5235.00381 1.13886e-17
5236.49719 1.20098e-17
5238.00072 1.19929e-17
5239.50425 1.19113e-17
5240.99762 1.18489e-17
5242.50115 1.25200e-17
5244.00469 1.22695e-17
5245.49806 1.26244e-17
5247.00159 1.35533e-17
5248.49497 1.20951e-17
5249.99850 1.08060e-17
5251.50203 1.18444e-17
5252.99540 1.28846e-17
5254.49893 1.26312e-17
5256.00247 1.21925e-17
5257.49584 1.14490e-17
5258.99937 1.20335e-17
5260.50290 1.25012e-17
5261.99628 1.22850e-17
5263.49981 1.14412e-17
5265.00334 1.27895e-17
5266.49671 1.30644e-17
5268.00025 1.19935e-17
5269.50378 1.18699e-17
5270.99715 1.19157e-17
5272.50068 1.22838e-17
5274.00421 1.19700e-17
5275.49759 1.15997e-17
5277.00112 1.21441e-17
5278.50465 1.14503e-17
5279.99802 1.26813e-17
5281.50156 1.29557e-17
5282.99493 1.18713e-17
5284.49846 1.25304e-17
5286.00199 1.31455e-17
5287.49537 1.33433e-17
5288.99890 1.28102e-17
5290.50243 1.19692e-17
5291.99580 1.21660e-17
5293.49933 1.34331e-17
5295.00287 1.13677e-17
5296.49624 1.15546e-17
5297.99977 1.14837e-17
5299.50330 1.18410e-17
5300.99668 1.22558e-17
5302.50021 1.22324e-17
5304.00374 1.21150e-17
5305.49711 1.18860e-17
5307.00065 1.12384e-17
5308.50418 1.13431e-17
5309.99755 1.13250e-17
5311.50108 1.13068e-17
5313.00462 1.12887e-17
5314.49799 1.12706e-17
5316.00152 1.12524e-17
5317.49489 1.12521e-17
5318.99842 1.15938e-17
5320.50196 1.21051e-17
5321.99533 1.20081e-17
5323.49886 1.17696e-17
5325.00239 1.13591e-17
5326.49577 1.17365e-17
5327.99930 1.18719e-17
5329.50283 1.07562e-17
5330.99620 1.08955e-17
5332.49974 1.13650e-17
5334.00327 1.16228e-17
5335.49664 1.17954e-17
5337.00017 1.20993e-17
5338.50371 1.21163e-17
5339.99708 1.17605e-17
5341.50061 1.19944e-17
5343.00414 1.25645e-17
5344.49752 1.18765e-17
5346.00105 1.20744e-17
5347.50458 1.22273e-17
5348.99795 1.21504e-17
5350.50148 1.29475e-17
5351.99486 1.31001e-17
5353.49839 1.25647e-17
5355.00192 1.19156e-17
5356.49529 1.15476e-17
5357.99883 1.15178e-17
5359.50236 1.11076e-17
5360.99573 1.17705e-17
5362.49926 1.17081e-17
5364.00280 1.17410e-17
5365.49617 1.17918e-17
5366.99970 1.24292e-17
5368.50323 1.20851e-17
5369.99661 1.17660e-17
5371.50014 1.29891e-17
5373.00367 1.31484e-17
5374.49704 1.19809e-17
5376.00057 1.12921e-17
5377.50411 1.13460e-17
5378.99748 1.14168e-17
5380.50101 1.20648e-17
5382.00454 1.25431e-17
5383.49792 1.19968e-17
5385.00145 1.16561e-17
5386.49482 1.21734e-17
5387.99835 1.26679e-17
5389.50188 1.20052e-17
5390.99526 1.15719e-17
5392.49879 1.17366e-17
5394.00232 1.22151e-17
5395.49570 1.23738e-17
5396.99923 1.20106e-17
5398.50276 1.20893e-17
5399.99613 1.17178e-17
5401.49966 1.18204e-17
5403.00320 1.19501e-17
5404.49657 1.21549e-17
5406.00010 1.30463e-17
5407.50363 1.25873e-17
5408.99701 1.18495e-17
5410.50054 1.16575e-17
5412.00407 1.10967e-17
5413.49744 1.10282e-17
5415.00097 1.08446e-17
5416.50451 1.18446e-17
5417.99788 1.29504e-17
5419.50141 1.11288e-17
5421.00494 1.04766e-17
5422.49832 1.17057e-17
5424.00185 1.10048e-17
5425.49522 1.06872e-17
5426.99875 1.13131e-17
5428.50229 1.10930e-17
5429.99566 1.12058e-17
5431.49919 1.11245e-17
5433.00272 1.14236e-17
5434.49610 1.16082e-17
5435.99963 1.03869e-17
5437.50316 1.08764e-17
5438.99653 1.20502e-17
5440.50007 1.10057e-17
5442.00360 1.09393e-17
5443.49697 1.18053e-17
5445.00050 1.22715e-17
5446.50403 1.26752e-17
5447.99741 1.18747e-17
5449.50094 1.07291e-17
5451.00447 1.14442e-17
5452.49784 1.15816e-17
5454.00138 1.09244e-17
5455.50491 1.16296e-17
5456.99828 1.20460e-17
5458.50181 1.22610e-17
5459.99519 1.23006e-17
5461.49872 1.15164e-17
5463.00225 1.06059e-17
5464.49562 1.02768e-17
5465.99915 1.07243e-17
5467.50269 1.06791e-17
5468.99606 1.09346e-17
5470.49959 1.15410e-17
5472.00312 1.18517e-17
5473.49650 1.18750e-17
5475.00003 1.10273e-17
5476.50356 1.10006e-17
5477.99693 1.15810e-17
5479.50047 1.17531e-17
5481.00400 1.13022e-17
5482.49737 1.08596e-17
5484.00090 1.16151e-17
5485.50443 1.19709e-17
5486.99781 1.17506e-17
5488.50134 1.11138e-17
5490.00487 1.12717e-17
5491.49825 1.12340e-17
5493.00178 1.11139e-17
5494.49515 1.13446e-17
5495.99868 1.17352e-17
5497.50221 1.17294e-17
5498.99559 1.30069e-17
5500.49912 1.27561e-17
5502.00265 1.19986e-17
5503.49602 1.24102e-17
5504.99956 1.16712e-17
5506.50309 1.26729e-17
5507.99646 1.21990e-17
5509.49999 1.16684e-17
5511.00353 1.24943e-17
5512.49690 1.20822e-17
5514.00043 1.11085e-17
5515.50396 1.19139e-17
5516.99734 1.18937e-17
5518.50087 1.09978e-17
5520.00440 1.09471e-17
5521.49777 1.03854e-17
5523.00130 1.10422e-17
5524.50484 1.19079e-17
5525.99821 1.09491e-17
5527.50174 9.99208e-18
5528.99511 1.10054e-17
5530.49865 1.18394e-17
5532.00218 1.15822e-17
5533.49555 1.15900e-17
5534.99908 1.14803e-17
5536.50262 1.10162e-17
5537.99599 1.06973e-17
5539.49952 1.08596e-17
5541.00305 1.08394e-17
5542.49643 1.05088e-17
5543.99996 1.06643e-17
5545.50349 1.06483e-17
5546.99686 1.14191e-17
5548.50039 1.18559e-17
5550.00393 1.17714e-17
5551.49730 1.05893e-17
5553.00083 1.06601e-17
5554.50436 1.08832e-17
5555.99774 1.00667e-17
5557.50127 1.00453e-17
5559.00480 1.12752e-17
5560.49817 1.24008e-17
5562.00170 1.06404e-17
5563.49508 1.13519e-17
5564.99861 1.08767e-17
5566.50214 1.14126e-17
5567.99552 9.90532e-18
5569.49905 1.08602e-17
5571.00258 1.08074e-17
5572.49595 1.17026e-17
5573.99948 1.07688e-17
5575.50302 1.03466e-17
5576.99639 1.04445e-17
5578.49992 1.15444e-17
5580.00345 1.05057e-17
5581.49683 1.09360e-17
5583.00036 1.10239e-17
5584.50389 9.91756e-18
5585.99726 9.68877e-18
5587.50079 9.29079e-18
5589.00433 1.02483e-17
5590.49770 1.12459e-17
5592.00123 1.21860e-17
5593.50476 1.25549e-17
5594.99814 1.01709e-17
5596.50167 1.10521e-17
5597.99504 1.16826e-17
5599.49857 1.06294e-17
5601.00211 1.13918e-17
5602.49548 1.07523e-17
5603.99901 1.02587e-17
5605.50254 1.19968e-17
5606.99592 1.21078e-17
5608.49945 1.06466e-17
5610.00298 1.03445e-17
5611.49635 1.15088e-17
5612.99989 1.20417e-17
5614.50342 1.13493e-17
5615.99679 1.04684e-17
5617.50032 1.03769e-17
5619.00385 1.06681e-17
5620.49723 1.13605e-17
5622.00076 1.16764e-17
5623.50429 1.03983e-17
5624.99766 1.05351e-17
5626.50120 1.16428e-17
5628.00473 1.15461e-17
5629.49810 1.13484e-17
5631.00163 1.17021e-17
5632.49501 1.13447e-17
5633.99854 1.04743e-17
5635.50207 1.09133e-17
5636.99544 1.10137e-17
5638.49898 1.07899e-17
5640.00251 1.04368e-17
5641.49588 9.91993e-18
5642.99941 1.06975e-17
5644.50294 1.15880e-17
5645.99632 1.12235e-17
5647.49985 1.10265e-17
5649.00338 1.09950e-17
5650.49675 1.02479e-17
5652.00029 1.01786e-17
5653.50382 1.06707e-17
5654.99719 1.06118e-17
5656.50072 1.03486e-17
5658.00425 1.06188e-17
5659.49763 1.15106e-17
5661.00116 1.06807e-17
5662.50469 1.05927e-17
5663.99807 1.08064e-17
5665.50160 1.05537e-17
5666.99497 1.06203e-17
5668.49850 1.11718e-17
5670.00203 1.15047e-17
5671.49541 1.10764e-17
5672.99894 1.11148e-17
5674.50247 1.12548e-17
5675.99584 1.08097e-17
5677.49938 1.08303e-17
5679.00291 1.08728e-17
5680.49628 1.10463e-17
5681.99981 1.06815e-17
5683.50335 1.04405e-17
5684.99672 1.11308e-17
5686.50025 1.04670e-17
5688.00378 9.72403e-18
5689.49716 9.97324e-18
5691.00069 1.08546e-17
5692.50422 1.11566e-17
5693.99759 1.06060e-17
5695.50112 1.04100e-17
5697.00466 1.04768e-17
5698.49803 1.00949e-17
5700.00156 1.01701e-17
5701.50509 1.07712e-17
5702.99847 1.05606e-17
5704.50200 1.08919e-17
5705.99537 1.15048e-17
5707.49890 1.09356e-17
5709.00243 1.11955e-17
5710.49581 1.09857e-17
5711.99934 1.07856e-17
5713.50287 1.12386e-17
5714.99625 1.05045e-17
5716.49978 1.04456e-17
5718.00331 1.11374e-17
5719.49668 1.15108e-17
5721.00021 1.11749e-17
5722.50375 1.06715e-17
5723.99712 1.06368e-17
5725.50065 1.08536e-17
5727.00418 9.53372e-18
5728.49756 9.71079e-18
5730.00109 1.15287e-17
5731.50462 1.02985e-17
5732.99799 9.90652e-18
5734.50153 1.09770e-17
5736.00506 1.08655e-17
5737.49843 1.07460e-17
5739.00196 1.15758e-17
5740.49533 1.20259e-17
5741.99887 1.14853e-17
5743.50240 1.18295e-17
5744.99577 1.14326e-17
5746.49930 1.12483e-17
5748.00284 1.14269e-17
5749.49621 1.20748e-17
5750.99974 1.27183e-17
5752.50327 1.15772e-17
5753.99665 1.09061e-17
5755.50018 1.10829e-17
5757.00371 1.12815e-17
5758.49708 1.10455e-17
5760.00062 1.09653e-17
5761.50415 1.17213e-17
5762.99752 1.13629e-17
5764.50105 1.02665e-17
5766.00458 1.04184e-17
5767.49796 1.09109e-17
5769.00149 1.16035e-17
5770.50502 1.21689e-17
5771.99839 1.17518e-17
5773.50193 1.15707e-17
5774.99530 1.16712e-17
5776.49883 1.19300e-17
5778.00236 1.11503e-17
5779.49574 1.15886e-17
5780.99927 1.10029e-17
5782.50280 1.06424e-17
5783.99617 1.13934e-17
5785.49971 1.14699e-17
5787.00324 1.14044e-17
5788.49661 1.05956e-17
5790.00014 1.20428e-17
5791.50367 1.05816e-17
5792.99705 1.03444e-17
5794.50058 1.10740e-17
5796.00411 1.12412e-17
5797.49748 1.04873e-17
5799.00102 1.06950e-17
5800.50455 1.06341e-17
5801.99792 1.13491e-17
5803.50145 1.05994e-17
5805.00498 1.05963e-17
5806.49836 1.02552e-17
5808.00189 1.25278e-17
5809.49526 1.18433e-17
5810.99880 1.17045e-17
5812.50233 1.19101e-17
5813.99570 1.14217e-17
5815.49923 9.90646e-18
5817.00276 1.09102e-17
5818.49614 1.12026e-17
5819.99967 1.11332e-17
5821.50320 1.22489e-17
5822.99657 1.12053e-17
5824.50011 1.02885e-17
5826.00364 1.09495e-17
5827.49701 1.21014e-17
5829.00054 1.22560e-17
5830.50407 1.09022e-17
5831.99745 1.08409e-17
5833.50098 1.13828e-17
5835.00451 1.13800e-17
5836.49788 1.26707e-17
5838.00142 1.28044e-17
5839.49479 1.28490e-17
5840.99832 1.26544e-17
5842.50185 1.10479e-17
5843.99523 1.04323e-17
5845.49876 1.14367e-17
5847.00229 1.19256e-17
5848.49566 1.12597e-17
5849.99920 1.06966e-17
5851.50273 1.03481e-17
5852.99610 1.20091e-17
5854.49963 1.13996e-17
5856.00317 1.08793e-17
5857.49654 1.02261e-17
5859.00007 1.02025e-17
5860.50360 1.15153e-17
5861.99698 1.06330e-17
5863.50051 1.03135e-17
5865.00404 1.05338e-17
5866.49741 1.05920e-17
5868.00094 1.05021e-17
5869.50448 1.11106e-17
5870.99785 1.17661e-17
5872.50138 1.22106e-17
5873.99475 1.10934e-17
5875.49829 1.05715e-17
5877.00182 1.08908e-17
5878.49519 1.16006e-17
5879.99872 1.12237e-17
5881.50226 1.16243e-17
5882.99563 1.12195e-17
5884.49916 1.01535e-17
5886.00269 1.02200e-17
5887.49607 1.12055e-17
5888.99960 1.08120e-17
5890.50313 9.67466e-18
5891.99650 1.01450e-17
5893.50003 1.06321e-17
5895.00357 1.03458e-17
5896.49694 1.08554e-17
5898.00047 1.10796e-17
5899.50400 1.10008e-17
5900.99738 1.07441e-17
5902.50091 1.09228e-17
5904.00444 1.12100e-17
5905.49781 1.07771e-17
5907.00135 9.55605e-18
5908.49472 1.08626e-17
5909.99825 1.16095e-17
5911.50178 1.04219e-17
5912.99515 1.14224e-17
5914.49869 1.18659e-17
5916.00222 1.08607e-17
5917.49559 1.04532e-17
5918.99912 1.04763e-17
5920.50266 1.08207e-17
5921.99603 9.90160e-18
5923.49956 1.05912e-17
5925.00309 1.17343e-17
5926.49647 1.07412e-17
5928.00000 1.05128e-17
5929.50353 1.07025e-17
5930.99690 9.30678e-18
5932.50043 8.95702e-18
5934.00397 1.01185e-17
5935.49734 1.11823e-17
5937.00087 1.15538e-17
5938.50440 1.05355e-17
5939.99778 1.02517e-17
5941.50131 9.86575e-18
5943.00484 1.03630e-17
5944.49821 1.07914e-17
5946.00175 1.02332e-17
5947.49512 1.02442e-17
5948.99865 1.03963e-17
5950.50218 1.07442e-17
5951.99556 1.00851e-17
5953.49909 9.76724e-18
5955.00262 1.02118e-17
5956.49599 1.04582e-17
5957.99953 1.07144e-17
5959.50306 9.88543e-18
5960.99643 9.37666e-18
5962.49996 1.05333e-17
5964.00349 1.01135e-17
5965.49687 9.98169e-18
5967.00040 1.07349e-17
5968.50393 1.00891e-17
5969.99730 1.09173e-17
5971.50084 1.14471e-17
5973.00437 9.97835e-18
5974.49774 9.87101e-18
5976.00127 9.97033e-18
5977.50480 9.21148e-18
5978.99818 1.03747e-17
5980.50171 1.08333e-17
5981.99508 1.00204e-17
5983.49862 9.87839e-18
5985.00215 9.66176e-18
5986.49552 9.23286e-18
5987.99905 9.73478e-18
5989.50258 1.01740e-17
5990.99596 9.28318e-18
5992.49949 8.74957e-18
5994.00302 8.63932e-18
5995.49639 9.13024e-18
5996.99993 1.11290e-17
5998.50346 9.84764e-18
5999.99683 9.46193e-18
6001.50036 9.82543e-18
6003.00390 9.32641e-18
6004.49727 1.10418e-17
6006.00080 1.04285e-17
6007.50433 1.07409e-17
6008.99770 1.08985e-17
6010.50124 1.10527e-17
6012.00477 1.04120e-17
6013.49814 9.86651e-18
6015.00167 1.02856e-17
6016.49505 9.42486e-18
6017.99858 9.95719e-18
6019.50211 9.90716e-18
6020.99548 9.54905e-18
6022.49902 9.70735e-18
6024.00255 1.01212e-17
6025.49592 9.79420e-18
6026.99945 9.45460e-18
6028.50299 9.78157e-18
6029.99636 9.76375e-18
6031.49989 9.08858e-18
6033.00342 9.24840e-18
6034.49680 1.00172e-17
6036.00033 1.02927e-17
6037.50386 9.48004e-18
6038.99723 9.40517e-18
6040.50076 9.44990e-18
6042.00430 9.51075e-18
6043.49767 1.02638e-17
6045.00120 1.04167e-17
6046.50473 1.00787e-17
6047.99811 1.03108e-17
6049.50164 1.01544e-17
6050.99501 9.73857e-18
6052.49854 9.73812e-18
6054.00208 8.54570e-18
6055.49545 1.02210e-17
6056.99898 1.00212e-17
6058.50251 9.87367e-18
6059.99588 1.06255e-17
6061.49942 9.23396e-18
6063.00295 8.97983e-18
6064.49632 1.01046e-17
6065.99985 1.00716e-17
6067.50339 9.86727e-18
6068.99676 9.22324e-18
6070.50029 9.76215e-18
6072.00382 9.38982e-18
6073.49720 9.52427e-18
6075.00073 9.65872e-18
6076.50426 9.65858e-18
6077.99763 9.51070e-18
6079.50117 8.27717e-18
6081.00470 9.88224e-18
6082.49807 9.84467e-18
6084.00160 9.63348e-18
6085.49498 9.03050e-18
6086.99851 9.13717e-18
6088.50204 9.34498e-18
6089.99541 9.77391e-18
6091.49894 8.83232e-18
6093.00248 8.77264e-18
6094.49585 1.01227e-17
6095.99938 1.00642e-17
6097.50291 8.93917e-18
6098.99629 8.70547e-18
6100.49982 9.32793e-18
6102.00335 9.36550e-18
6103.49672 8.67076e-18
6105.00025 8.65570e-18
6106.50379 9.08562e-18
6107.99716 9.18073e-18
6109.50069 9.20463e-18
6111.00422 9.20496e-18
6112.49760 8.91592e-18
6114.00113 8.64729e-18
6115.50466 8.53842e-18
6116.99803 8.72770e-18
6118.50157 8.88163e-18
6119.99494 9.17384e-18
6121.49847 8.66681e-18
6123.00200 8.68077e-18
6124.49538 8.86544e-18
6125.99891 8.25833e-18
6127.50244 8.71150e-18
6128.99581 8.66348e-18
6130.49935 8.17413e-18
6132.00288 8.11053e-18
6133.49625 8.95919e-18
6134.99978 9.96806e-18
6136.50331 8.98238e-18
6137.99669 9.05320e-18
6139.50022 9.97017e-18
6141.00375 8.75592e-18
6142.49712 7.95123e-18
6144.00066 8.94275e-18
6145.50419 9.16058e-18
6146.99756 8.28417e-18
6148.50109 7.98763e-18
6150.00463 9.08197e-18
6151.49800 9.63410e-18
6153.00153 9.03422e-18
6154.49490 8.64898e-18
6155.99843 8.06592e-18
6157.50197 9.23857e-18
6158.99534 9.57170e-18
6160.49887 8.37709e-18
6162.00240 8.42320e-18
6163.49578 8.29904e-18
6164.99931 8.37955e-18
6166.50284 8.21829e-18
6167.99621 8.72116e-18
6169.49975 8.94855e-18
6171.00328 7.89815e-18
6172.49665 8.70955e-18
6174.00018 9.03133e-18
6175.50372 7.93468e-18
6176.99709 8.72178e-18
6178.50062 9.15058e-18
6180.00415 8.76067e-18
6181.49752 8.26078e-18
6183.00106 8.28926e-18
6184.50459 8.85491e-18
6185.99796 8.55834e-18
6187.50149 9.05166e-18
6188.99487 9.30740e-18
6190.49840 9.61178e-18
6192.00193 9.46244e-18
6193.49530 8.48557e-18
6194.99884 8.49419e-18
6196.50237 8.47772e-18
6197.99574 8.00712e-18
6199.49927 8.44408e-18
6201.00281 9.37933e-18
6202.49618 9.42588e-18
6203.99971 8.59688e-18
6205.50324 8.97775e-18
6206.99662 8.91524e-18
6208.50015 9.60040e-18
6210.00368 8.48736e-18
6211.49705 8.99248e-18
6213.00058 9.70639e-18
6214.50412 8.26588e-18
6215.99749 8.73089e-18
6217.50102 7.46842e-18
6219.00455 7.72798e-18
6220.49793 8.42556e-18
6222.00146 9.46409e-18
6223.50499 9.06799e-18
6224.99836 9.03162e-18
6226.50190 8.25687e-18
6227.99527 9.29320e-18
6229.49880 9.26786e-18
6231.00233 1.01556e-17
6232.49571 9.73554e-18
6233.99924 8.19293e-18
6235.50277 8.96361e-18
6236.99614 9.86571e-18
6238.49967 9.17825e-18
6240.00321 9.03245e-18
6241.49658 8.92844e-18
6243.00011 9.38647e-18
6244.50364 9.36515e-18
6245.99702 9.06312e-18
6247.50055 1.02920e-17
6249.00408 9.90992e-18
6250.49745 9.01439e-18
6252.00098 9.17494e-18
6253.50452 9.87066e-18
6254.99789 1.01548e-17
6256.50142 9.73490e-18
6258.00495 9.55864e-18
6259.49833 9.51626e-18
6261.00186 9.03276e-18
6262.49523 9.45063e-18
6263.99876 1.00086e-17
6265.50230 9.61917e-18
6266.99567 9.38259e-18
6268.49920 8.98330e-18
6270.00273 8.92996e-18
6271.49611 8.71898e-18
6272.99964 8.24105e-18
6274.50317 8.75331e-18
6275.99654 8.74043e-18
6277.50007 9.11244e-18
6279.00361 8.21411e-18
6280.49698 8.24530e-18
6282.00051 8.93142e-18
6283.50404 9.67890e-18
6284.99742 9.85267e-18
6286.50095 9.61562e-18
6288.00448 9.80786e-18
6289.49785 1.03282e-17
6291.00139 9.65150e-18
6292.50492 1.04547e-17
6293.99829 9.66117e-18
6295.50182 9.26134e-18
6296.99520 9.82416e-18
6298.49873 8.82025e-18
6300.00226 9.77648e-18
6301.49563 9.24198e-18
6302.99917 9.36636e-18
6304.50270 8.99395e-18
6305.99607 9.30412e-18
6307.49960 9.39318e-18
6309.00313 8.95019e-18
6310.49651 9.56097e-18
6312.00004 9.30514e-18
6313.50357 9.02123e-18
6314.99694 9.50429e-18
6316.50048 9.02144e-18
6318.00401 9.08100e-18
6319.49738 9.69364e-18
6321.00091 9.94022e-18
6322.50445 9.77427e-18
6323.99782 9.64376e-18
6325.50135 8.89264e-18
6327.00488 8.22861e-18
6328.49826 8.31886e-18
6330.00179 9.47401e-18
6331.49516 1.01097e-17
6332.99869 9.69338e-18
6334.50222 9.36219e-18
6335.99560 9.15697e-18
6337.49913 8.75910e-18
6339.00266 8.66552e-18
6340.49603 8.84646e-18
6341.99957 8.47879e-18
6343.50310 8.55214e-18
6344.99647 9.25927e-18
6346.50000 9.13190e-18
6348.00353 9.21010e-18
6349.49691 8.77178e-18
6351.00044 8.60782e-18
6352.50397 9.26231e-18
6353.99735 9.73160e-18
6355.50088 9.21436e-18
6357.00441 8.15195e-18
6358.49778 8.08827e-18
6360.00131 8.64462e-18
6361.50485 9.05087e-18
6362.99822 8.59004e-18
6364.50175 9.17414e-18
6365.99512 8.96040e-18
6367.49866 8.58107e-18
6369.00219 8.92711e-18
6370.49556 9.55496e-18
6371.99909 9.10610e-18
6373.50263 8.52233e-18
6374.99600 8.92969e-18
6376.49953 8.96715e-18
6378.00306 8.61470e-18
6379.49644 8.77493e-18
6380.99997 8.45248e-18
6382.50350 8.26472e-18
6383.99687 7.35039e-18
6385.50040 8.61819e-18
6387.00394 8.75400e-18
6388.49731 7.73713e-18
6390.00084 7.66428e-18
6391.50437 7.86565e-18
6392.99775 8.47329e-18
6394.50128 8.14916e-18
6396.00481 9.20865e-18
6397.49818 9.76158e-18
6399.00172 8.92765e-18
6400.49509 8.83946e-18
6401.99862 9.10808e-18
6403.50215 8.45838e-18
6404.99553 8.65493e-18
6406.49906 8.74512e-18
6408.00259 8.36321e-18
6409.49596 8.49826e-18
6410.99949 8.67190e-18
6412.50303 8.96166e-18
6413.99640 8.70457e-18
6415.49993 8.58906e-18
6417.00346 9.85440e-18
6418.49684 9.53553e-18
6420.00037 8.90284e-18
6421.50390 9.08579e-18
6422.99727 8.92401e-18
6424.50080 9.47388e-18
6426.00434 9.19025e-18
6427.49771 9.51121e-18
6429.00124 9.53455e-18
6430.49462 9.94026e-18
6431.99815 9.58360e-18
6433.50168 9.28535e-18
6434.99505 9.86079e-18
6436.49858 9.36022e-18
6438.00212 9.48359e-18
6439.49549 8.54270e-18
6440.99902 9.34352e-18
6442.50255 8.96677e-18
6443.99593 8.59302e-18
6445.49946 8.16341e-18
6447.00299 7.44580e-18
6448.49636 8.98909e-18
6449.99989 9.24003e-18
6451.50343 9.66178e-18
6452.99680 9.37039e-18
6454.50033 9.61580e-18
6456.00386 9.87352e-18
6457.49724 9.67592e-18
6459.00077 9.51598e-18
6460.50430 8.23046e-18
6461.99767 8.68559e-18
6463.50121 9.16133e-18
6465.00474 8.96467e-18
6466.49811 9.14873e-18
6468.00164 9.59671e-18
6469.49502 8.69677e-18
6470.99855 8.28580e-18
6472.50208 9.09314e-18
6473.99545 9.81842e-18
6475.49899 9.71373e-18
6477.00252 9.21229e-18
6478.49589 9.17514e-18
6479.99942 8.66707e-18
6481.50295 8.48456e-18
6482.99633 9.58685e-18
6484.49986 9.59483e-18
6486.00339 8.32722e-18
6487.49676 8.76178e-18
6489.00030 9.82453e-18
6490.50383 9.72232e-18
6491.99720 9.31040e-18
6493.50073 8.31140e-18
6495.00427 9.01231e-18
6496.49764 9.80144e-18
6498.00117 9.93355e-18
6499.50470 9.53256e-18
6500.99808 9.50062e-18
6502.50161 9.20905e-18
6504.00514 9.09867e-18
6505.49851 9.51085e-18
6507.00204 1.00540e-17
6508.49542 8.79623e-18
6509.99895 8.77813e-18
6511.50248 9.75165e-18
6512.99585 9.55729e-18
6514.49939 9.24699e-18
6516.00292 9.67871e-18
6517.49629 9.07795e-18
6518.99982 8.02007e-18
6520.50335 8.28257e-18
6521.99673 9.07250e-18
6523.50026 8.52951e-18
6525.00379 9.07956e-18
6526.49717 8.93610e-18
6528.00070 8.94465e-18
6529.50423 9.65343e-18
6530.99760 9.24018e-18
6532.50113 9.44786e-18
6534.00467 1.01663e-17
6535.49804 8.62746e-18
6537.00157 8.55527e-18
6538.50510 9.05546e-18
6539.99848 9.15089e-18
6541.50201 9.45564e-18
6542.99538 9.08431e-18
6544.49891 9.25203e-18
6546.00245 9.50302e-18
6547.49582 9.68997e-18
6548.99935 8.58538e-18
6550.50288 8.19833e-18
6551.99626 9.27387e-18
6553.49979 9.83478e-18
6555.00332 9.40975e-18
6556.49669 8.52019e-18
6558.00022 8.21745e-18
6559.50376 8.21829e-18
6560.99713 8.48785e-18
6562.50066 8.74476e-18
6564.00419 8.91946e-18
6565.49757 8.26379e-18
6567.00110 8.13471e-18
6568.50463 8.55399e-18
6569.99800 9.11788e-18
6571.50153 9.54973e-18
6572.99491 9.54379e-18
6574.49844 8.75576e-18
6576.00197 9.71748e-18
6577.49535 9.95281e-18
6578.99888 9.65170e-18
6580.50241 9.65499e-18
6581.99578 9.31923e-18
6583.49931 8.85339e-18
6585.00285 8.85348e-18
6586.49622 9.23610e-18
6587.99975 9.16019e-18
6589.50328 8.68385e-18
6590.99666 8.10378e-18
6592.50019 9.10839e-18
6594.00372 8.36365e-18
6595.49709 8.50221e-18
6597.00063 9.21528e-18
6598.50416 8.98806e-18
6599.99753 9.84723e-18
6601.50106 9.91992e-18
6603.00459 9.17537e-18
6604.49797 9.21981e-18
6606.00150 9.57490e-18
6607.49487 1.00429e-17
6608.99840 9.59204e-18
6610.50194 8.20937e-18
6611.99531 8.09230e-18
6613.49884 9.15998e-18
6615.00237 9.78831e-18
6616.49575 8.92864e-18
6617.99928 8.76086e-18
6619.50281 8.70287e-18
6620.99618 9.28833e-18
6622.49972 9.89183e-18
6624.00325 9.84660e-18
6625.49662 8.97826e-18
6627.00015 7.83714e-18
6628.50368 8.31806e-18
6629.99706 8.70924e-18
6631.50059 7.85348e-18
6633.00412 9.47872e-18
6634.49749 9.48513e-18
6636.00103 8.37999e-18
6637.50456 8.39126e-18
6638.99793 8.40253e-18
6640.50146 8.41380e-18
6641.99484 8.42508e-18
6643.49837 8.43634e-18
6645.00190 8.44762e-18
6646.49527 8.45888e-18
6647.99881 8.47015e-18
6649.50234 8.48142e-18
6650.99571 8.49269e-18
6652.49924 8.50396e-18
6654.00277 8.51522e-18
6655.49615 8.52649e-18
6656.99968 8.53776e-18
6658.50321 8.54903e-18
6659.99658 8.56029e-18
6661.50012 8.57156e-18
6663.00365 8.58283e-18
6664.49702 8.59409e-18
6666.00055 8.60536e-18
6667.50408 8.61662e-18
6668.99746 8.62789e-18
6670.50099 8.63915e-18
6672.00452 8.65042e-18
6673.49790 8.66168e-18
6675.00143 8.67294e-18
6676.49480 8.68421e-18
6677.99833 8.69547e-18
6679.50186 8.70674e-18
6680.99524 8.71800e-18
6682.49877 8.72926e-18
6684.00230 8.74052e-18
6685.49567 8.75179e-18
6686.99921 8.76305e-18
6688.50274 8.77431e-18
6689.99611 8.78557e-18
6691.49964 8.79683e-18
6693.00317 8.80809e-18
6694.49655 8.81935e-18
6696.00008 8.83061e-18
6697.50361 8.84187e-18
6698.99698 8.85313e-18
6700.50052 8.62981e-18
6702.00405 8.90762e-18
6703.49742 8.61198e-18
6705.00095 9.08131e-18
6706.50449 8.87766e-18
6707.99786 8.56932e-18
6709.50139 8.13394e-18
6710.99476 8.63939e-18
6712.49830 8.80971e-18
6714.00183 8.20871e-18
6715.49520 8.67634e-18
6716.99873 9.07318e-18
6718.50227 8.43317e-18
6719.99564 7.84487e-18
6721.49917 8.12376e-18
6723.00270 8.61372e-18
6724.49608 8.24930e-18
6725.99961 8.51692e-18
6727.50314 9.00824e-18
6728.99651 9.18999e-18
6730.50004 9.63147e-18
6732.00358 8.71264e-18
6733.49695 8.39152e-18
6735.00048 8.03465e-18
6736.50401 7.88402e-18
6737.99739 8.84774e-18
6739.50092 8.46787e-18
6741.00445 7.46108e-18
6742.49782 7.86093e-18
6744.00136 8.86940e-18
6745.50489 8.49758e-18
6746.99826 7.80655e-18
6748.50179 7.92796e-18
6749.99517 7.82612e-18
6751.49870 8.18222e-18
6753.00223 8.68520e-18
6754.49560 9.00078e-18
6755.99913 8.44108e-18
6757.50267 7.47093e-18
6758.99604 8.21721e-18
6760.49957 9.02706e-18
6762.00310 8.27304e-18
6763.49648 7.58932e-18
6765.00001 8.11726e-18
6766.50354 8.71477e-18
6767.99691 8.74571e-18
6769.50045 8.31167e-18
6771.00398 8.52332e-18
6772.49735 8.92346e-18
6774.00088 8.34217e-18
6775.50441 9.16630e-18
6776.99779 9.69382e-18
6778.50132 8.00111e-18
6780.00485 7.87466e-18
6781.49822 9.20386e-18
6783.00176 8.74561e-18
6784.49513 7.69898e-18
6785.99866 8.61601e-18
6787.50219 9.40279e-18
6788.99557 8.61004e-18
6790.49910 7.58502e-18
6792.00263 8.13008e-18
6793.49600 8.85293e-18
6794.99953 7.63666e-18
6796.50307 7.46431e-18
6797.99644 7.29148e-18
6799.49997 7.80318e-18
6801.00350 8.10442e-18
6802.49688 7.88285e-18
6804.00041 8.85360e-18
6805.50394 7.94275e-18
6806.99731 7.86257e-18
6808.50085 7.57699e-18
6810.00438 7.11511e-18
6811.49775 7.57180e-18
6813.00128 8.04484e-18
6814.50482 7.73910e-18
6815.99819 7.96921e-18
6817.50172 7.29140e-18
6818.99509 7.47345e-18
6820.49863 7.59871e-18
6822.00216 8.11958e-18
6823.49553 8.57421e-18
6824.99906 8.94023e-18
6826.50259 8.45677e-18
6827.99597 8.32143e-18
6829.49950 7.66831e-18
6831.00303 6.78044e-18
6832.49640 7.84547e-18
6833.99994 7.92263e-18
6835.50347 7.99979e-18
6836.99684 8.07695e-18
6838.50037 8.15410e-18
6840.00390 8.23126e-18
6841.49728 8.30841e-18
6843.00081 8.38556e-18
6844.50434 8.46271e-18
6845.99772 8.53986e-18
6847.50125 8.53976e-18
6849.00478 7.96556e-18
6850.49815 8.35294e-18
6852.00168 8.41966e-18
6853.49506 8.94709e-18
6854.99859 8.03365e-18
6856.50212 7.18447e-18
6857.99549 8.29816e-18
6859.49903 8.90738e-18
6861.00256 8.32575e-18
6862.49593 7.58819e-18
6863.99946 8.14721e-18
6865.50300 7.76007e-18
6866.99637 8.31828e-18
6868.49990 8.33611e-18
6870.00343 7.30644e-18
6871.49680 6.43334e-18
6873.00034 7.27440e-18
6874.50387 7.70457e-18
6875.99724 8.26272e-18
6877.50077 8.45935e-18
6879.00431 8.23150e-18
6880.49768 8.52820e-18
6882.00121 7.93665e-18
6883.50474 6.92820e-18
6884.99812 7.58868e-18
6886.50165 7.28440e-18
6887.99502 7.03090e-18
6889.49855 7.34999e-18
6891.00209 7.37676e-18
6892.49546 7.55209e-18
6893.99899 7.92331e-18
6895.50252 8.36666e-18
6896.99590 8.51611e-18
6898.49943 8.62709e-18
6900.00296 8.21676e-18
6901.49633 8.59671e-18
6902.99986 8.28518e-18
6904.50340 8.01899e-18
6905.99677 8.24907e-18
6907.50030 8.31536e-18
6909.00383 7.78154e-18
6910.49721 7.24185e-18
6912.00074 8.04250e-18
6913.50427 8.03506e-18
6914.99764 7.64650e-18
6916.50118 8.19326e-18
6918.00471 7.75980e-18
6919.49808 8.33384e-18
6921.00161 7.76522e-18
6922.49498 7.87096e-18
6923.99852 8.51258e-18
6925.50205 8.43344e-18
6926.99542 6.95990e-18
6928.49895 7.03206e-18
6930.00249 7.76516e-18
6931.49586 7.82528e-18
6932.99939 7.62353e-18
6934.50292 7.05626e-18
6935.99630 7.04954e-18
6937.49983 8.69576e-18
6939.00336 7.96366e-18
6940.49673 7.72621e-18
6942.00027 7.64397e-18
6943.50380 6.59187e-18
6944.99717 7.39692e-18
6946.50070 7.41985e-18
6948.00423 7.42455e-18
6949.49761 8.17709e-18
6951.00114 8.10802e-18
6952.50467 7.40092e-18
6953.99804 7.12918e-18
6955.50158 6.60627e-18
6956.99495 6.50682e-18
6958.49848 7.75813e-18
6960.00201 8.24867e-18
6961.49539 7.63890e-18
6962.99892 7.21331e-18
6964.50245 7.84704e-18
6965.99582 8.67125e-18
6967.49935 7.74205e-18
6969.00289 7.01703e-18
6970.49626 7.22125e-18
6971.99979 7.47650e-18
6973.50332 7.78253e-18
6974.99670 7.44649e-18
6976.50023 7.26647e-18
6978.00376 7.19613e-18
6979.49713 6.63726e-18
6981.00067 7.10379e-18
6982.50420 7.85014e-18
6983.99757 7.31143e-18
6985.50110 6.34129e-18
6987.00464 6.68204e-18
6988.49801 7.46350e-18
6990.00154 7.58977e-18
6991.49491 7.44765e-18
6992.99845 6.93119e-18
6994.50198 7.35274e-18
6995.99535 7.29418e-18
6997.49888 6.65988e-18
6999.00241 6.98593e-18
7000.49579 7.83537e-18
7001.99932 7.52788e-18
7003.50285 6.14510e-18
7004.99622 6.08159e-18
7006.49976 6.79786e-18
7008.00329 7.72133e-18
7009.49666 7.85383e-18
7011.00019 7.35094e-18
7012.50373 6.83086e-18
7013.99710 7.05805e-18
7015.50063 6.72695e-18
7017.00416 6.09042e-18
7018.49753 6.79731e-18
7020.00107 7.54145e-18
7021.50460 7.56888e-18
7022.99797 7.88216e-18
7024.50150 7.35474e-18
7026.00504 7.62567e-18
7027.49841 7.74152e-18
7029.00194 7.12406e-18
7030.49531 6.07588e-18
7031.99885 6.13337e-18
7033.50238 6.87117e-18
7034.99575 7.12662e-18
7036.49928 6.64572e-18
7038.00282 7.28957e-18
7039.49619 7.50176e-18
7040.99972 7.11148e-18
7042.50325 7.37434e-18
7043.99662 7.21023e-18
7045.50016 7.08220e-18
7047.00369 7.76455e-18
7048.49706 7.63906e-18
7050.00059 7.08014e-18
7051.50413 7.06438e-18
7052.99750 7.25836e-18
7054.50103 7.26318e-18
7056.00456 7.56650e-18
7057.49794 7.72773e-18
7059.00147 7.48150e-18
7060.50500 7.36325e-18
7061.99837 8.05677e-18
7063.50191 7.40309e-18
7064.99528 7.80448e-18
7066.49881 7.25749e-18
7068.00234 6.50133e-18
7069.49572 7.26449e-18
7070.99925 6.89480e-18
7072.50278 6.63533e-18
7073.99615 7.01687e-18
7075.49968 7.85712e-18
7077.00322 7.02252e-18
7078.49659 6.27433e-18
7080.00012 6.26248e-18
7081.50365 6.97245e-18
7082.99703 6.94088e-18
7084.50056 7.03973e-18
7086.00409 6.97957e-18
7087.49746 6.91150e-18
7089.00100 7.88309e-18
7090.50453 7.56734e-18
7091.99790 7.64333e-18
7093.50143 7.72960e-18
7095.00496 8.13770e-18
7096.49834 8.48157e-18
7098.00187 7.24985e-18
7099.49524 7.51029e-18
7100.99877 8.66105e-18
7102.50231 8.35634e-18
7103.99568 7.37961e-18
7105.49921 7.81850e-18
7107.00274 7.85543e-18
7108.49612 7.33169e-18
7109.99965 7.41907e-18
7111.50318 8.01513e-18
7112.99655 7.74252e-18
7114.50008 7.66838e-18
7116.00362 7.61802e-18
7117.49699 7.59336e-18
7119.00052 7.11985e-18
7120.50405 7.10035e-18
7121.99743 7.65519e-18
7123.50096 7.56163e-18
7125.00449 7.64616e-18
7126.49786 7.50593e-18
7128.00140 7.39740e-18
7129.50493 7.99759e-18
7130.99830 7.96298e-18
7132.50183 7.20902e-18
7133.99521 6.65109e-18
7135.49874 7.15278e-18
7137.00227 7.94269e-18
7138.49564 7.89085e-18
7139.99917 7.34436e-18
7141.50271 6.90110e-18
7142.99608 6.44578e-18
7144.49961 7.27965e-18
7146.00314 7.98484e-18
7147.49652 7.85773e-18
7149.00005 7.86521e-18
7150.50358 7.34694e-18
7151.99695 6.92392e-18
7153.50049 7.62340e-18
7155.00402 7.22927e-18
7156.49739 8.18334e-18
7158.00092 7.54963e-18
7159.50446 8.56653e-18
7160.99783 7.62383e-18
7162.50136 7.37161e-18
7164.00489 7.55469e-18
7165.49827 7.23046e-18
7167.00180 7.70473e-18
7168.49517 7.76202e-18
7169.99870 7.02306e-18
7171.50223 7.61377e-18
7172.99561 7.99927e-18
7174.49914 7.75689e-18
7176.00267 6.94666e-18
7177.49604 6.78487e-18
7178.99958 7.11619e-18
7180.50311 7.42776e-18
7181.99648 7.83655e-18
7183.50001 7.01711e-18
7185.00355 6.55507e-18
7186.49692 7.00723e-18
7188.00045 8.17099e-18
7189.50398 7.76217e-18
7190.99736 6.80147e-18
7192.50089 7.28371e-18
7194.00442 7.96071e-18
7195.49779 7.30208e-18
7197.00132 8.01863e-18
7198.49470 8.12739e-18
7199.99823 7.42452e-18
7201.50176 7.52294e-18
7202.99513 7.62135e-18
7204.49867 7.62125e-18
7206.00220 8.15227e-18
7207.49557 8.21885e-18
7208.99910 7.28435e-18
7210.50263 6.69023e-18
7211.99601 7.93848e-18
7213.49954 8.23846e-18
7215.00307 7.62715e-18
7216.49645 7.91429e-18
7217.99998 8.89752e-18
7219.50351 7.34917e-18
7220.99688 6.63555e-18
7222.50041 8.53545e-18
7224.00395 8.01747e-18
7225.49732 7.85912e-18
7227.00085 8.10202e-18
7228.50438 7.49832e-18
7229.99776 7.48495e-18
7231.50129 7.55030e-18
7232.99466 8.42994e-18
7234.49819 9.14834e-18
7236.00173 8.79186e-18
7237.49510 8.17357e-18
7238.99863 7.53201e-18
7240.50216 8.16350e-18
7241.99554 7.66023e-18
7243.49907 6.23583e-18
7245.00260 6.47506e-18
7246.49597 6.92384e-18
7247.99950 7.15311e-18
7249.50304 7.68524e-18
7250.99641 7.23246e-18
7252.49994 7.16829e-18
7254.00347 6.99627e-18
7255.49685 7.04584e-18
7257.00038 7.37118e-18
7258.50391 7.52717e-18
7259.99728 7.30105e-18
7261.50082 7.49724e-18
7263.00435 7.49325e-18
7264.49772 7.51998e-18
7266.00125 7.98718e-18
7267.50478 7.41837e-18
7268.99816 7.33525e-18
7270.50169 7.69090e-18
7271.99506 7.61016e-18
7273.49859 8.34127e-18
7275.00213 8.36903e-18
7276.49550 8.25793e-18
7277.99903 8.71240e-18
7279.50256 8.20430e-18
7280.99594 7.85261e-18
7282.49947 7.48411e-18
7284.00300 8.16037e-18
7285.49637 8.15555e-18
7286.99990 8.38432e-18
7288.50344 9.05106e-18
7289.99681 7.26023e-18
7291.50034 6.35569e-18
7293.00387 7.29604e-18
7294.49725 7.97513e-18
7296.00078 7.21824e-18
7297.50431 6.74192e-18
7298.99768 6.65737e-18
7300.50122 7.05544e-18
7302.00475 7.44100e-18
7303.49812 6.16095e-18
7305.00165 6.17783e-18
7306.50518 7.08057e-18
7307.99856 7.63325e-18
7309.50209 8.29638e-18
7310.99546 7.80761e-18
7312.49899 7.55740e-18
7314.00253 7.82625e-18
7315.49590 8.55148e-18
7316.99943 8.67857e-18
7318.50296 7.55060e-18
7319.99634 7.07240e-18
7321.49987 7.76268e-18
7323.00340 7.39308e-18
7324.49677 6.52255e-18
7326.00031 6.47730e-18
7327.50384 6.57455e-18
7328.99721 6.96822e-18
7330.50074 8.07964e-18
7332.00428 7.19877e-18
7333.49765 5.91768e-18
7335.00118 6.79288e-18
7336.50471 7.93237e-18
7337.99809 8.03835e-18
7339.50162 7.65384e-18
7340.99499 7.31346e-18
7342.49852 7.31287e-18
7344.00205 7.02888e-18
7345.49543 6.84270e-18
7346.99896 6.87664e-18
7348.50249 7.01314e-18
7349.99586 7.42191e-18
7351.49940 7.55968e-18
7353.00293 7.60995e-18
7354.49630 7.00562e-18
7355.99983 6.89664e-18
7357.50337 7.42795e-18
7358.99674 7.67700e-18
7360.50027 7.63759e-18
7362.00380 6.43148e-18
7363.49718 6.27377e-18
7365.00071 7.47884e-18
7366.50424 7.19024e-18
7367.99761 7.22657e-18
7369.50114 6.55302e-18
7371.00468 5.92094e-18
7372.49805 5.91614e-18
7374.00158 6.51329e-18
7375.49495 6.69518e-18
7376.99849 7.31130e-18
7378.50202 6.84270e-18
7379.99539 6.18497e-18
7381.49892 6.02387e-18
7383.00245 6.17923e-18
7384.49583 6.37296e-18
7385.99936 6.52389e-18
7387.50289 6.06063e-18
7388.99627 6.46479e-18
7390.49980 6.68455e-18
7392.00333 6.97689e-18
7393.49670 6.70096e-18
7395.00023 6.10451e-18
7396.50377 5.90772e-18
7397.99714 6.40106e-18
7399.50067 6.03181e-18
7401.00420 5.91198e-18
7402.49758 6.56482e-18
7404.00111 5.94647e-18
7405.50464 5.99897e-18
7406.99801 6.42634e-18
7408.50155 5.95845e-18
7409.99492 6.54742e-18
7411.49845 7.21755e-18
7413.00198 6.87420e-18
7414.49536 6.52277e-18
7415.99889 6.56484e-18
7417.50242 5.81625e-18
7418.99579 5.84763e-18
7420.49932 6.95639e-18
7422.00286 7.65845e-18
7423.49623 6.61598e-18
7424.99976 6.14639e-18
7426.50329 5.94995e-18
7427.99667 6.05248e-18
7429.50020 5.35289e-18
7431.00373 6.26497e-18
7432.49710 6.77941e-18
7434.00063 5.87484e-18
7435.50417 5.41673e-18
7436.99754 5.49287e-18
7438.50107 5.87563e-18
7440.00460 5.58278e-18
7441.49798 5.06527e-18
7443.00151 5.82807e-18
7444.49488 5.43402e-18
7445.99841 5.04468e-18
7447.50195 4.99074e-18
7448.99532 5.25784e-18
7450.49885 6.02070e-18
7452.00238 5.84628e-18
7453.49576 5.48810e-18
7454.99929 5.39934e-18
7456.50282 4.96303e-18
7457.99619 5.07451e-18
7459.49973 5.17753e-18
7461.00326 5.51178e-18
7462.49663 5.12115e-18
7464.00016 5.31460e-18
7465.50369 5.10765e-18
7466.99707 5.54089e-18
7468.50060 5.34339e-18
7470.00413 5.33200e-18
7471.49750 6.21110e-18
7473.00104 5.88546e-18
7474.50457 5.15124e-18
7475.99794 5.15344e-18
7477.50147 5.22096e-18
7478.99485 5.46858e-18
7480.49838 5.27661e-18
7482.00191 4.55315e-18
7483.49528 4.92131e-18
7484.99882 5.26091e-18
7486.50235 4.50717e-18
7487.99572 4.23183e-18
7489.49925 4.70735e-18
7491.00278 4.15142e-18
7492.49616 3.57119e-18
7493.99969 3.44625e-18
7495.50322 4.72055e-18
7496.99659 5.05513e-18
7498.50013 5.49231e-18
7500.00366 5.50224e-18
7501.49703 5.19653e-18
7503.00056 4.82913e-18
7504.50410 4.35893e-18
7505.99747 5.12852e-18
7507.50100 4.32415e-18
7509.00453 5.59586e-18
7510.49791 4.62457e-18
7512.00144 3.89172e-18
7513.49481 4.97656e-18
7514.99834 5.79991e-18
7516.50187 4.68123e-18
7517.99525 5.31729e-18
7519.49878 3.94373e-18
7521.00231 4.27846e-18
7522.49568 4.21482e-18
7523.99922 5.15317e-18
7525.50275 5.59141e-18
7526.99612 4.31256e-18
7528.49965 3.83897e-18
7530.00318 5.01690e-18
7531.49656 5.50469e-18
7533.00009 4.61473e-18
7534.50362 4.86324e-18
7535.99700 4.41116e-18
7537.50053 5.30380e-18
7539.00406 5.17246e-18
7540.49743 5.23196e-18
