# wavelength flux
3720.00230 7.55308e-18
3721.49568 8.14305e-18
3722.99921 8.36480e-18
3724.50274 4.61535e-18
3725.99611 8.91733e-18
3727.49964 9.50258e-18
3729.00318 3.53734e-18
3730.49655 1.73151e-18
3732.00008 1.81258e-18
3733.50361 3.00478e-18
3734.99699 2.77317e-18
3736.50052 1.44978e-19
3738.00405 1.82527e-19
3739.49742 -3.32943e-19
3741.00095 2.71608e-19
3742.50449 3.93761e-18
3743.99786 6.10884e-18
3745.50139 1.54522e-18
3746.99476 2.14674e-18
3748.49830 6.79191e-18
3750.00183 4.53027e-18
3751.49520 8.39596e-18
3752.99873 5.80149e-18
3754.50227 -1.95009e-18
3755.99564 4.78118e-19
3757.49917 8.18044e-18
3759.00270 1.35632e-18
3760.49608 2.39025e-18
3761.99961 3.24551e-18
3763.50314 2.07093e-18
3764.99651 3.09855e-18
3766.50005 3.29973e-18
3768.00358 3.20173e-18
3769.49695 3.10374e-18
3771.00048 3.24140e-18
3772.50401 3.37905e-18
3773.99739 3.51670e-18
3775.50092 3.65431e-18
3777.00445 3.79194e-18
3778.49782 3.92956e-18
3780.00136 4.06717e-18
3781.50489 4.20478e-18
3782.99826 4.34237e-18
3784.50179 4.47994e-18
3785.99517 4.61752e-18
3787.49870 4.75510e-18
3789.00223 4.89266e-18
3790.49560 5.03022e-18
3791.99914 5.16777e-18
3793.50267 5.30529e-18
3794.99604 5.44282e-18
3796.49957 5.58035e-18
3798.00310 5.71787e-18
3799.49648 5.85538e-18
3801.00001 5.99289e-18
3802.50354 6.13039e-18
3803.99691 6.26785e-18
3805.50045 6.40534e-18
3807.00398 6.54281e-18
3808.49735 5.04770e-18
3810.00088 -5.58319e-19
3811.50441 1.27405e-18
3812.99779 3.69971e-18
3814.50132 5.54304e-18
3816.00485 5.19175e-18
3817.49823 5.07587e-18
3819.00176 4.63297e-18
3820.49513 1.33621e-18
3821.99866 1.93683e-18
3823.50219 7.22323e-18
3824.99557 3.24661e-18
3826.49910 2.37345e-18
3828.00263 3.64736e-18
3829.49600 5.30428e-18
3830.99954 4.43855e-18
3832.50307 1.03659e-18
3833.99644 -8.21301e-19
3835.49997 4.27765e-18
3837.00351 5.11588e-18
3838.49688 5.76045e-18
3840.00041 7.97086e-18
3841.50394 5.84981e-18
3842.99732 3.27805e-18
3844.50085 2.35282e-18
3846.00438 7.23255e-18
3847.49775 4.44841e-18
3849.00128 3.00683e-18
3850.50482 8.56281e-18
3851.99819 7.15837e-18
3853.50172 1.91329e-18
3854.99509 3.53277e-18
3856.49863 4.65621e-18
3858.00216 5.25528e-18
3859.49553 4.25867e-18
3860.99906 1.60655e-18
3862.50260 1.77846e-18
3863.99597 4.94440e-18
3865.49950 2.51607e-18
3867.00303 2.16452e-18
3868.49640 4.81464e-18
3869.99994 3.93988e-18
3871.50347 4.70233e-18
3872.99684 4.84542e-18
3874.50037 3.81801e-18
3876.00391 3.88708e-18
3877.49728 5.24562e-18
3879.00081 6.79169e-18
3880.50434 3.28890e-18
3881.99772 1.66622e-19
3883.50125 1.02672e-18
3885.00478 4.18193e-18
3886.49815 3.42752e-18
3888.00169 2.38688e-18
3889.49506 1.68309e-19
3890.99859 4.41868e-18
3892.50212 8.21591e-18
3893.99550 5.54296e-18
3895.49903 6.61922e-18
3897.00256 2.44351e-18
3898.49593 5.14987e-19
3899.99946 4.06073e-18
3901.50300 7.38022e-18
3902.99637 2.49977e-18
3904.49990 4.86277e-18
3906.00343 6.95705e-18
3907.49681 5.34369e-18
3909.00034 6.45454e-18
3910.50387 6.74787e-18
3911.99724 8.10776e-18
3913.50077 5.20396e-18
3915.00431 5.28919e-18
3916.49768 6.92603e-18
3918.00121 4.40466e-18
3919.50474 6.71055e-18
3920.99812 7.86626e-18
3922.50165 6.73496e-18
3923.99502 4.08296e-18
3925.49855 6.43132e-18
3927.00209 8.59703e-18
3928.49546 7.06139e-18
3929.99899 6.49658e-18
3931.50252 7.75313e-18
3932.99590 7.95085e-18
3934.49943 7.81990e-18
3936.00296 7.62176e-18
3937.49633 4.00027e-18
3938.99987 6.66855e-18
3940.50340 7.08924e-18
3941.99677 5.31993e-18
3943.50030 3.66268e-18
3945.00383 5.12754e-18
3946.49721 6.63738e-18
3948.00074 4.87391e-18
3949.50427 4.87877e-18
3950.99764 6.30570e-18
3952.50118 5.79275e-18
3954.00471 5.61883e-18
3955.49808 5.86826e-18
3957.00161 5.68019e-18
3958.49499 5.67249e-18
3959.99852 4.46668e-18
3961.50205 5.71164e-18
3962.99542 6.79928e-18
3964.49896 6.11959e-18
3966.00249 5.12921e-18
3967.49586 6.31500e-18
3968.99939 5.03410e-18
3970.50292 3.03213e-18
3971.99630 6.57173e-18
3973.49983 9.02665e-18
3975.00336 5.83516e-18
3976.49673 6.69036e-18
3978.00027 8.78321e-18
3979.50380 3.04918e-18
3980.99717 5.51956e-18
3982.50070 7.73635e-18
3984.00424 8.29610e-18
3985.49761 7.18573e-18
3987.00114 9.19885e-18
3988.50467 7.14961e-18
3989.99805 7.90748e-18
3991.50158 7.67442e-18
3992.99495 8.52326e-18
3994.49848 4.91887e-18
3996.00201 3.11384e-18
3997.49539 7.93846e-18
3998.99892 6.02890e-18
4000.50245 5.60688e-18
4001.99582 7.11432e-18
4003.49936 6.28548e-18
4005.00289 6.24266e-18
4006.49626 7.95294e-18
4007.99979 6.22482e-18
4009.50333 5.93466e-18
4010.99670 7.72367e-18
4012.50023 9.41378e-18
4014.00376 4.85133e-18
4015.49714 4.24951e-18
4017.00067 3.41978e-18
4018.50420 4.60259e-18
4019.99757 7.62271e-18
4021.50110 9.26366e-18
4023.00464 8.17455e-18
4024.49801 4.11698e-18
4026.00154 6.41140e-18
4027.49491 1.02384e-17
4028.99845 8.67174e-18
4030.50198 6.01958e-18
4031.99535 4.41538e-18
4033.49888 2.67481e-18
4035.00241 2.62815e-18
4036.49579 3.06642e-18
4037.99932 7.57619e-18
4039.50285 7.42888e-18
4040.99623 6.22445e-18
4042.49976 8.01361e-18
4044.00329 7.17262e-18
4045.49666 6.58483e-18
4047.00019 8.74180e-18
4048.50373 7.92630e-18
4049.99710 6.31878e-18
4051.50063 6.83020e-18
4053.00416 8.31486e-18
4054.49754 8.08320e-18
4056.00107 7.57233e-18
4057.50460 4.10338e-18
4058.99797 5.01394e-18
4060.50150 7.27835e-18
4062.00504 7.20975e-18
4063.49841 8.72401e-18
4065.00194 8.00236e-18
4066.49532 6.04441e-18
4067.99885 6.83978e-18
4069.50238 3.36054e-18
4070.99575 2.97747e-18
4072.49928 6.05709e-18
4074.00282 7.51259e-18
4075.49619 8.22575e-18
4076.99972 6.76157e-18
4078.50325 4.47231e-18
4079.99663 6.88848e-18
4081.50016 6.49747e-18
4083.00369 6.90302e-18
4084.49706 7.85721e-18
4086.00060 7.55245e-18
4087.50413 6.31744e-18
4088.99750 6.80998e-18
4090.50103 5.77286e-18
4092.00456 5.61545e-18
4093.49794 7.47859e-18
4095.00147 6.44174e-18
4096.50500 5.82443e-18
4097.99837 5.40517e-18
4099.50191 4.62974e-18
4100.99528 5.84571e-18
4102.49881 5.64920e-18
4104.00234 5.95778e-18
4105.49572 5.72082e-18
4106.99925 7.13016e-18
4108.50278 1.06534e-17
4109.99615 8.92985e-18
4111.49968 6.23777e-18
4113.00322 6.61026e-18
4114.49659 5.03505e-18
4116.00012 5.65690e-18
4117.50365 1.09387e-17
4118.99703 6.39065e-18
4120.50056 3.39471e-18
4122.00409 3.92618e-18
4123.49746 7.13766e-18
4125.00100 5.27432e-18
4126.50453 9.50113e-18
4127.99790 4.98286e-18
4129.50143 5.15510e-18
4130.99481 5.89891e-18
4132.49834 4.79282e-18
4134.00187 8.00689e-18
4135.49524 7.91312e-18
4136.99878 7.85721e-18
4138.50231 5.66250e-18
4139.99568 4.77789e-18
4141.49921 1.11802e-17
4143.00274 1.14688e-17
4144.49612 7.60471e-18
4145.99965 6.26988e-18
4147.50318 6.85814e-18
4148.99655 5.91109e-18
4150.50009 7.50120e-18
4152.00362 9.13553e-18
4153.49699 7.28455e-18
4155.00052 7.17431e-18
4156.50406 6.91018e-18
4157.99743 4.76940e-18
4159.50096 5.06313e-18
4161.00449 6.98181e-18
4162.49787 5.48709e-18
4164.00140 2.62714e-18
4165.50493 2.83231e-18
4166.99830 3.93934e-18
4168.50183 4.49641e-18
4169.99521 4.83638e-18
4171.49874 4.96320e-18
4173.00227 6.23460e-18
4174.49564 4.93261e-18
4175.99918 4.10151e-18
4177.50271 4.28448e-18
4178.99608 4.07896e-18
4180.49961 4.30014e-18
4182.00315 4.19348e-18
4183.49652 5.45479e-18
4185.00005 5.83532e-18
4186.50358 7.43704e-18
4187.99695 7.32169e-18
4189.50049 4.66275e-18
4191.00402 4.18262e-18
4192.49739 4.29448e-18
4194.00092 6.93664e-18
4195.50446 5.95590e-18
4196.99783 5.85637e-18
4198.50136 5.71061e-18
4200.00489 5.23997e-18
4201.49827 5.33926e-18
4203.00180 8.57911e-18
4204.49517 9.62131e-18
4205.99870 4.82241e-18
4207.50223 5.51983e-18
4208.99561 4.98952e-18
4210.49914 5.48924e-18
4212.00267 3.93824e-18
4213.49604 4.86943e-18
4214.99958 7.01126e-18
4216.50311 5.26721e-18
4217.99648 5.81564e-18
4219.50001 6.22989e-18
4221.00355 5.42065e-18
4222.49692 7.11263e-18
4224.00045 5.82508e-18
4225.50398 6.39681e-18
4226.99736 6.18849e-18
4228.50089 7.04851e-18
4230.00442 8.55167e-18
4231.49779 8.33247e-18
4233.00133 4.23877e-18
4234.50486 7.12482e-18
4235.99823 8.22286e-18
4237.50176 5.56602e-18
4238.99514 7.04745e-18
4240.49867 5.94044e-18
4242.00220 2.77027e-18
4243.49557 2.72798e-18
4244.99910 5.31036e-18
4246.50264 6.80659e-18
4247.99601 7.07508e-18
4249.49954 5.30816e-18
4251.00307 3.66895e-18
4252.49645 4.54205e-18
4253.99998 6.17886e-18
4255.50351 7.61768e-18
4256.99688 5.87494e-18
4258.50042 5.12194e-18
4260.00395 8.49162e-18
4261.49732 8.12451e-18
4263.00085 6.32642e-18
4264.50438 7.74467e-18
4265.99776 6.30038e-18
4267.50129 5.62841e-18
4269.00482 4.87653e-18
4270.49819 5.50242e-18
4272.00173 5.11127e-18
4273.49510 3.94254e-18
4274.99863 5.19100e-18
4276.50216 7.51329e-18
4277.99554 6.59488e-18
4279.49907 6.28997e-18
4281.00260 6.39964e-18
4282.49597 6.44177e-18
4283.99950 6.41898e-18
4285.50304 5.76842e-18
4286.99641 6.08476e-18
4288.49994 6.71824e-18
4290.00347 5.41506e-18
4291.49685 6.13256e-18
4293.00038 6.48263e-18
4294.50391 5.21287e-18
4295.99728 5.27589e-18
4297.50082 6.37121e-18
4299.00435 6.83052e-18
4300.49772 7.04340e-18
4302.00125 7.23758e-18
4303.50479 6.16609e-18
4304.99816 5.62600e-18
4306.50169 6.04417e-18
4307.99506 6.42784e-18
4309.49860 7.77730e-18
4311.00213 6.02805e-18
4312.49550 4.50910e-18
4313.99903 5.09358e-18
4315.50256 6.34789e-18
4316.99594 7.22443e-18
4318.49947 7.73170e-18
4320.00300 5.43251e-18
4321.49637 5.46368e-18
4322.99991 6.17499e-18
4324.50344 6.49489e-18
4325.99681 4.91667e-18
4327.50034 5.59999e-18
4329.00388 6.81823e-18
4330.49725 7.22934e-18
4332.00078 6.64192e-18
4333.50431 5.35982e-18
4334.99768 4.70141e-18
4336.50122 5.72517e-18
4338.00475 6.20172e-18
4339.49812 6.41964e-18
4341.00165 6.31396e-18
4342.49503 4.63468e-18
4343.99856 5.81250e-18
4345.50209 6.91519e-18
4346.99546 6.29603e-18
4348.49900 5.41535e-18
4350.00253 6.39273e-18
4351.49590 7.32132e-18
4352.99943 8.20076e-18
4354.50297 5.19487e-18
4355.99634 4.10204e-18
4357.49987 3.24991e-18
4359.00340 7.02877e-18
4360.49678 7.67011e-18
4362.00031 6.00206e-18
4363.50384 5.56754e-18
4364.99721 5.71943e-18
4366.50074 5.68356e-18
4368.00428 6.22233e-18
4369.49765 7.05894e-18
4371.00118 7.23625e-18
4372.50471 6.86034e-18
4373.99809 4.71181e-18
4375.50162 4.80179e-18
4376.99499 7.99772e-18
4378.49852 8.67577e-18
4380.00205 7.76780e-18
4381.49543 6.38234e-18
4382.99896 5.24733e-18
4384.50249 4.68756e-18
4385.99587 5.80721e-18
4387.49940 4.62231e-18
4389.00293 5.31564e-18
4390.49630 5.28756e-18
4391.99983 4.49742e-18
4393.50337 6.52037e-18
4394.99674 4.85282e-18
4396.50027 4.54444e-18
4398.00380 5.90331e-18
4399.49718 6.15101e-18
4401.00071 4.12256e-18
4402.50424 6.50180e-18
4403.99761 6.80397e-18
4405.50115 5.87486e-18
4407.00468 3.80159e-18
4408.49805 5.50329e-18
4410.00158 6.30735e-18
4411.50511 6.20045e-18
4412.99849 4.82107e-18
4414.50202 4.86952e-18
4415.99539 4.91800e-18
4417.49892 4.96647e-18
4419.00246 5.01493e-18
4420.49583 5.06340e-18
4421.99936 5.11186e-18
4423.50289 5.16032e-18
4424.99627 5.20877e-18
4426.49980 5.25723e-18
4428.00333 5.30568e-18
4429.49670 5.35413e-18
4431.00023 5.40258e-18
4432.50377 5.45102e-18
4433.99714 5.49944e-18
4435.50067 5.54788e-18
4437.00420 5.59632e-18
4438.49758 5.64475e-18
4440.00111 5.69318e-18
4441.50464 5.74161e-18
4442.99801 5.79004e-18
4444.50155 5.83846e-18
4446.00508 5.88688e-18
4447.49845 5.93530e-18
4449.00198 5.98371e-18
4450.49536 6.03212e-18
4451.99889 6.08052e-18
4453.50242 6.47139e-18
4454.99579 5.04417e-18
4456.49932 5.63234e-18
4458.00286 6.60719e-18
4459.49623 7.79530e-18
4460.99976 8.28479e-18
4462.50329 6.31517e-18
4463.99667 5.45538e-18
4465.50020 4.91721e-18
4467.00373 5.11455e-18
4468.49710 5.59548e-18
4470.00064 6.76528e-18
4471.50417 6.99732e-18
4472.99754 3.91763e-18
4474.50107 3.10797e-18
4476.00461 6.43357e-18
4477.49798 6.79841e-18
4479.00151 6.04643e-18
4480.50504 6.03362e-18
4481.99842 5.20328e-18
4483.50195 5.34676e-18
4484.99532 7.17546e-18
4486.49885 6.23299e-18
4488.00238 5.52686e-18
4489.49576 5.90078e-18
4490.99929 7.18263e-18
4492.50282 7.12453e-18
4493.99619 6.29983e-18
4495.49973 5.57032e-18
4497.00326 4.65713e-18
4498.49663 5.14319e-18
4500.00016 5.72260e-18
4501.50370 5.81585e-18
4502.99707 5.77719e-18
4504.50060 6.24168e-18
4506.00413 5.29748e-18
4507.49751 5.39079e-18
4509.00104 6.41206e-18
4510.50457 6.36539e-18
4511.99794 5.93065e-18
4513.50147 7.03254e-18
4514.99485 6.77714e-18
4516.49838 3.66907e-18
4518.00191 5.40856e-18
4519.49528 8.37568e-18
4520.99882 8.30450e-18
4522.50235 8.69757e-18
4523.99572 8.59531e-18
4525.49925 6.17600e-18
4527.00278 5.02455e-18
4528.49616 6.43481e-18
4529.99969 6.39083e-18
4531.50322 6.15047e-18
4532.99660 5.11171e-18
4534.50013 5.91725e-18
4536.00366 6.26423e-18
4537.49703 7.60717e-18
4539.00056 8.80510e-18
4540.50410 7.27043e-18
4541.99747 6.61706e-18
4543.50100 7.20007e-18
4545.00453 7.45269e-18
4546.49791 6.34135e-18
4548.00144 7.24789e-18
4549.49481 7.56134e-18
4550.99834 8.67395e-18
4552.50187 7.50203e-18
4553.99525 8.08109e-18
4555.49878 7.44338e-18
4557.00231 8.02402e-18
4558.49568 1.01711e-17
4559.99922 7.86793e-18
4561.50275 7.52903e-18
4562.99612 7.28349e-18
4564.49965 8.24066e-18
4566.00319 7.84371e-18
4567.49656 7.55018e-18
4569.00009 9.07265e-18
4570.50362 8.73821e-18
4571.99700 8.85744e-18
4573.50053 8.57926e-18
4575.00406 8.14340e-18
4576.49743 1.08266e-17
4578.00097 9.56614e-18
4579.50450 7.09620e-18
4580.99787 8.03028e-18
4582.50140 8.39181e-18
4583.99478 8.22682e-18
4585.49831 7.49826e-18
4587.00184 8.51500e-18
4588.49521 9.20484e-18
4589.99874 8.58930e-18
4591.50228 8.63485e-18
4592.99565 8.31331e-18
4594.49918 9.39909e-18
4596.00271 1.02016e-17
4597.49609 8.64576e-18
4598.99962 9.28270e-18
4600.50315 1.13683e-17
4601.99652 1.04203e-17
4603.50005 8.91518e-18
4605.00359 8.62538e-18
4606.49696 8.85936e-18
4608.00049 7.86735e-18
4609.50402 8.73459e-18
4610.99740 8.82014e-18
4612.50093 1.19605e-17
4614.00446 1.09964e-17
4615.49783 9.61685e-18
4617.00137 1.02384e-17
4618.50490 1.20780e-17
4619.99827 9.50348e-18
4621.50180 7.41321e-18
4622.99518 7.58401e-18
4624.49871 8.44427e-18
4626.00224 8.33390e-18
4627.49561 1.05300e-17
4628.99915 9.63039e-18
4630.50268 8.94959e-18
4631.99605 8.74242e-18
4633.49958 7.36118e-18
4635.00311 9.67118e-18
4636.49649 9.59759e-18
4638.00002 9.58149e-18
4639.50355 1.04014e-17
4640.99692 1.09860e-17
4642.50046 9.10166e-18
4644.00399 8.61579e-18
4645.49736 1.04874e-17
4647.00089 9.59946e-18
4648.50443 7.41004e-18
4649.99780 9.18331e-18
4651.50133 9.95063e-18
4653.00486 9.86593e-18
4654.49824 9.59752e-18
4656.00177 9.93886e-18
4657.49514 9.23897e-18
4658.99867 1.01924e-17
4660.50220 1.05367e-17
4661.99558 1.12884e-17
4663.49911 1.10218e-17
4665.00264 8.67948e-18
4666.49601 1.00008e-17
4667.99955 9.13106e-18
4669.50308 9.35760e-18
4670.99645 9.84731e-18
4672.49998 9.41054e-18
4674.00352 7.54109e-18
4675.49689 8.17325e-18
4677.00042 9.18539e-18
4678.50395 1.01510e-17
4679.99733 8.88588e-18
4681.50086 9.64465e-18
4683.00439 8.17011e-18
4684.49776 1.08964e-17
4686.00129 1.00654e-17
4687.50483 8.92700e-18
4688.99820 9.04825e-18
4690.50173 9.74745e-18
4691.99510 8.10874e-18
4693.49864 9.36614e-18
4695.00217 1.00304e-17
4696.49554 9.42854e-18
4697.99907 1.02392e-17
4699.50260 1.07559e-17
4700.99598 7.83748e-18
4702.49951 9.05479e-18
4704.00304 9.61710e-18
4705.49642 8.39355e-18
4706.99995 9.50997e-18
4708.50348 8.59699e-18
4709.99685 8.75851e-18
4711.50038 1.00181e-17
4713.00392 9.76098e-18
4714.49729 8.77699e-18
4716.00082 8.88451e-18
4717.50435 9.91601e-18
4718.99773 9.80348e-18
4720.50126 9.16471e-18
4722.00479 7.39890e-18
4723.49816 6.99863e-18
4725.00169 9.38002e-18
4726.49507 9.10194e-18
4727.99860 7.72868e-18
4729.50213 8.04581e-18
4730.99550 7.60492e-18
4732.49904 8.07938e-18
4734.00257 8.81356e-18
4735.49594 9.22887e-18
4736.99947 9.09085e-18
4738.50301 8.57417e-18
4739.99638 8.46218e-18
4741.49991 8.43397e-18
4743.00344 8.59140e-18
4744.49682 7.11230e-18
4746.00035 8.31752e-18
4747.50388 1.02437e-17
4748.99725 1.05776e-17
4750.50079 6.57273e-18
4752.00432 8.23968e-18
4753.49769 8.69381e-18
4755.00122 6.86647e-18
4756.50475 8.17041e-18
4757.99813 7.89882e-18
4759.50166 7.45489e-18
4760.99503 8.06157e-18
4762.49856 6.52105e-18
4764.00210 6.84561e-18
4765.49547 6.93856e-18
4766.99900 6.96512e-18
4768.50253 7.52672e-18
4769.99591 6.92931e-18
4771.49944 6.52590e-18
4773.00297 8.24919e-18
4774.49634 8.07957e-18
4775.99988 6.86709e-18
4777.50341 8.04001e-18
4778.99678 9.20811e-18
4780.50031 8.88362e-18
4782.00384 8.51406e-18
4783.49722 8.43723e-18
4785.00075 7.60559e-18
4786.50428 6.87836e-18
4787.99765 6.07529e-18
4789.50119 7.52731e-18
4791.00472 9.58382e-18
4792.49809 8.46969e-18
4794.00162 7.61460e-18
4795.49500 7.37360e-18
4796.99853 6.13328e-18
4798.50206 6.04165e-18
4799.99543 7.68326e-18
4801.49897 8.34356e-18
4803.00250 7.47713e-18
4804.49587 6.44905e-18
4805.99940 6.65196e-18
4807.50293 6.24767e-18
4808.99631 6.47905e-18
4810.49984 7.59446e-18
4812.00337 8.37324e-18
4813.49674 8.68100e-18
4815.00028 7.20987e-18
4816.50381 7.51749e-18
4817.99718 6.06248e-18
4819.50071 6.66785e-18
4821.00425 9.14098e-18
4822.49762 9.90012e-18
4824.00115 6.53936e-18
4825.50468 7.65110e-18
4826.99806 8.60905e-18
4828.50159 9.16432e-18
4829.99496 7.82256e-18
4831.49849 7.33362e-18
4833.00202 7.44419e-18
4834.49540 6.59124e-18
4835.99893 5.76187e-18
4837.50246 6.67907e-18
4838.99583 6.27810e-18
4840.49937 7.35983e-18
4842.00290 7.95332e-18
4843.49627 9.37552e-18
4844.99980 8.18853e-18
4846.50333 8.29378e-18
4847.99671 9.34639e-18
4849.50024 7.90190e-18
4851.00377 8.17544e-18
4852.49715 9.17469e-18
4854.00068 7.66286e-18
4855.50421 7.09761e-18
4856.99758 8.12920e-18
4858.50111 6.96535e-18
4860.00465 7.51882e-18
4861.49802 9.48522e-18
4863.00155 9.41629e-18
4864.49492 7.68332e-18
4865.99846 6.44846e-18
4867.50199 7.26876e-18
4868.99536 8.92876e-18
4870.49889 8.30596e-18
4872.00242 7.84402e-18
4873.49580 9.13956e-18
4874.99933 8.87346e-18
4876.50286 8.85816e-18
4877.99623 8.31111e-18
4879.49977 7.61647e-18
4881.00330 6.55637e-18
4882.49667 8.09373e-18
4884.00020 8.04937e-18
4885.50374 6.69028e-18
4886.99711 6.91076e-18
4888.50064 7.75038e-18
4890.00417 7.17106e-18
4891.49755 7.94636e-18
4893.00108 8.32116e-18
4894.50461 8.85974e-18
4895.99798 9.48785e-18
4897.50152 8.17177e-18
4899.00505 5.77065e-18
4900.49842 6.47047e-18
4902.00195 6.77527e-18
4903.49532 7.70678e-18
4904.99886 7.67113e-18
4906.50239 7.83549e-18
4907.99576 7.39137e-18
4909.49929 6.64927e-18
4911.00283 5.86363e-18
4912.49620 6.53813e-18
4913.99973 8.51170e-18
4915.50326 8.31203e-18
4916.99664 6.87510e-18
4918.50017 6.98706e-18
4920.00370 7.45733e-18
4921.49707 7.46535e-18
4923.00061 7.47338e-18
4924.50414 7.48140e-18
4925.99751 7.48942e-18
4927.50104 7.49745e-18
4929.00457 7.50547e-18
4930.49795 7.51349e-18
4932.00148 7.52151e-18
4933.50501 7.52953e-18
4934.99838 7.53755e-18
4936.50192 7.54557e-18
4937.99529 7.55359e-18
4939.49882 7.56161e-18
4941.00235 7.56963e-18
4942.49573 7.57765e-18
4943.99926 7.58566e-18
4945.50279 7.59368e-18
4946.99616 7.60170e-18
4948.49970 7.60972e-18
4950.00323 7.61773e-18
4951.49660 7.62575e-18
4953.00013 7.63376e-18
4954.50366 7.64178e-18
4955.99704 7.64979e-18
4957.50057 7.65780e-18
4959.00410 7.05869e-18
4960.49747 7.05380e-18
4962.00101 6.91878e-18
4963.50454 7.55124e-18
4964.99791 8.32777e-18
4966.50144 7.01993e-18
4968.00497 8.07663e-18
4969.49835 8.82047e-18
4971.00188 6.79960e-18
4972.49525 8.14663e-18
4973.99878 8.76195e-18
4975.50232 7.31253e-18
4976.99569 8.31182e-18
4978.49922 9.93273e-18
4980.00275 1.06105e-17
4981.49613 9.46500e-18
4982.99966 8.27872e-18
4984.50319 9.15540e-18
4985.99656 9.60784e-18
4987.50010 9.11832e-18
4989.00363 8.16997e-18
4990.49700 9.10831e-18
4992.00053 7.48804e-18
4993.50407 8.24963e-18
4994.99744 8.49271e-18
4996.50097 8.17843e-18
4998.00450 8.42906e-18
4999.49788 7.96640e-18
5001.00141 7.76727e-18
5002.50494 7.88886e-18
5003.99831 9.29371e-18
5005.50184 9.39894e-18
5006.99522 9.82555e-18
5008.49875 9.44521e-18
5010.00228 8.85735e-18
5011.49565 8.62758e-18
5012.99919 7.98097e-18
5014.50272 8.75350e-18
5015.99609 8.52788e-18
5017.49962 6.93144e-18
5019.00316 7.65257e-18
5020.49653 7.68785e-18
5022.00006 7.72312e-18
5023.50359 7.75839e-18
5024.99697 7.79366e-18
5026.50050 7.82893e-18
5028.00403 7.86419e-18
5029.49740 7.89945e-18
5031.00093 7.93470e-18
5032.50447 7.96996e-18
5033.99784 8.00522e-18
5035.50137 8.04047e-18
5037.00490 8.07573e-18
5038.49828 8.11098e-18
5040.00181 8.14623e-18
5041.49518 8.18148e-18
5042.99871 8.21672e-18
5044.50225 8.25197e-18
5045.99562 8.28721e-18
5047.49915 8.32245e-18
5049.00268 8.35768e-18
5050.49605 8.39291e-18
5051.99959 8.42815e-18
5053.50312 8.46338e-18
5054.99649 8.49861e-18
5056.50002 8.53384e-18
5058.00356 6.18078e-18
5059.49693 5.68167e-18
5061.00046 6.74918e-18
5062.50399 7.20256e-18
5063.99737 6.35898e-18
5065.50090 6.47834e-18
5067.00443 7.95958e-18
5068.49780 7.85954e-18
5070.00133 7.75947e-18
5071.49471 7.65940e-18
5072.99824 7.55934e-18
5074.50177 7.45928e-18
5075.99514 7.35923e-18
5077.49868 7.25919e-18
5079.00221 7.15915e-18
5080.49558 7.05911e-18
5081.99911 6.95908e-18
5083.50265 6.85906e-18
5084.99602 6.75904e-18
5086.49955 6.65907e-18
5088.00308 6.55906e-18
5089.49646 6.45906e-18
5090.99999 6.35906e-18
5092.50352 6.25907e-18
5093.99689 6.15909e-18
5095.50043 6.05911e-18
5097.00396 5.95914e-18
5098.49733 5.85917e-18
5100.00086 5.75921e-18
5101.50439 5.65925e-18
5102.99777 5.55930e-18
5104.50130 5.45935e-18
5105.99467 5.35945e-18
5107.49820 6.25119e-18
5109.00174 5.78536e-18
5110.49511 6.94369e-18
5111.99864 6.72159e-18
5113.50217 6.06372e-18
5114.99555 5.29391e-18
5116.49908 6.10583e-18
5118.00261 6.73731e-18
5119.49598 6.66390e-18
5120.99952 6.42948e-18
5122.50305 6.49348e-18
5123.99642 7.04552e-18
5125.49995 7.92758e-18
5127.00348 6.30620e-18
5128.49686 7.61902e-18
5130.00039 7.64013e-18
5131.50392 7.53932e-18
5132.99729 8.07394e-18
5134.50083 7.01298e-18
5136.00436 7.79863e-18
5137.49773 6.41749e-18
5139.00126 6.26664e-18
5140.50480 7.14831e-18
5141.99817 7.09553e-18
5143.50170 6.74431e-18
5144.99507 6.69868e-18
5146.49860 6.14299e-18
5148.00214 6.75950e-18
5149.49551 6.89105e-18
5150.99904 7.40569e-18
5152.50257 8.54041e-18
5153.99595 7.86408e-18
5155.49948 6.37930e-18
5157.00301 6.97090e-18
5158.49638 7.48816e-18
5159.99992 7.88890e-18
5161.50345 7.35511e-18
5162.99682 6.80992e-18
5164.50035 7.55704e-18
5166.00389 7.52710e-18
5167.49726 6.67942e-18
5169.00079 7.36583e-18
5170.50432 7.74835e-18
5171.99770 8.04559e-18
5173.50123 7.59250e-18
5175.00476 7.11636e-18
5176.49813 7.20802e-18
5178.00166 7.01845e-18
5179.49504 7.07300e-18
5180.99857 7.18061e-18
5182.50210 7.58071e-18
5183.99547 7.95757e-18
5185.49901 7.57798e-18
5187.00254 6.83092e-18
5188.49591 7.43916e-18
5189.99944 7.81321e-18
5191.50298 7.97306e-18
5192.99635 7.30086e-18
5194.49988 6.30941e-18
5196.00341 6.41442e-18
5197.49678 7.63172e-18
5199.00032 5.61339e-18
5200.50385 5.90369e-18
5201.99722 6.90322e-18
5203.50075 8.69754e-18
5205.00429 9.23568e-18
5206.49766 9.19583e-18
5208.00119 7.64310e-18
5209.50472 7.02270e-18
5210.99810 7.12719e-18
5212.50163 8.09864e-18
5214.00516 7.41912e-18
5215.49853 7.15651e-18
5217.00207 7.19312e-18
5218.49544 7.83520e-18
5219.99897 8.83844e-18
5221.50250 8.25462e-18
5222.99588 8.49583e-18
5224.49941 8.56942e-18
5226.00294 7.69293e-18
5227.49631 7.80367e-18
5228.99984 7.94080e-18
5230.50338 7.46175e-18
5231.99675 8.35172e-18
5233.50028 9.58575e-18
5235.00381 8.70734e-18
5236.49719 8.99164e-18
5238.00072 8.79923e-18
5239.50425 7.79061e-18
5240.99762 8.60604e-18
5242.50115 8.52049e-18
5244.00469 9.89104e-18
5245.49806 7.43783e-18
5247.00159 8.60210e-18
5248.49497 8.88992e-18
5249.99850 8.77125e-18
5251.50203 7.26361e-18
5252.99540 7.38495e-18
5254.49893 8.81184e-18
5256.00247 9.28274e-18
5257.49584 8.68737e-18
5258.99937 9.95494e-18
5260.50290 8.08743e-18
5261.99628 8.71122e-18
5263.49981 7.79682e-18
5265.00334 9.65188e-18
5266.49671 9.86130e-18
5268.00025 9.46354e-18
5269.50378 8.17366e-18
5270.99715 8.09159e-18
5272.50068 7.99520e-18
5274.00421 7.16517e-18
5275.49759 7.47966e-18
5277.00112 9.33934e-18
5278.50465 8.85247e-18
5279.99802 8.60157e-18
5281.50156 8.56481e-18
5282.99493 9.05684e-18
5284.49846 8.78041e-18
5286.00199 9.77025e-18
5287.49537 1.07009e-17
5288.99890 1.03518e-17
5290.50243 9.23075e-18
5291.99580 8.82553e-18
5293.49933 8.60707e-18
5295.00287 9.32652e-18
5296.49624 9.76121e-18
5297.99977 9.27457e-18
5299.50330 9.15913e-18
5300.99668 9.28959e-18
5302.50021 9.37586e-18
5304.00374 9.07790e-18
5305.49711 8.96128e-18
5307.00065 9.79468e-18
5308.50418 9.36579e-18
5309.99755 8.87718e-18
5311.50108 9.20164e-18
5313.00462 9.62176e-18
5314.49799 1.03678e-17
5316.00152 1.09010e-17
5317.49489 1.04655e-17
5318.99842 9.76594e-18
5320.50196 1.01798e-17
5321.99533 1.07440e-17
5323.49886 9.52053e-18
5325.00239 1.04145e-17
5326.49577 9.98887e-18
5327.99930 9.65940e-18
5329.50283 9.68019e-18
5330.99620 9.04526e-18
5332.49974 1.03329e-17
5334.00327 9.70358e-18
5335.49664 1.12116e-17
5337.00017 1.08691e-17
5338.50371 1.01180e-17
5339.99708 1.01601e-17
5341.50061 1.04908e-17
5343.00414 1.09534e-17
5344.49752 9.95121e-18
5346.00105 1.07675e-17
5347.50458 1.07660e-17
5348.99795 1.04132e-17
5350.50148 1.05198e-17
5351.99486 1.02310e-17
5353.49839 1.00634e-17
5355.00192 8.51676e-18
5356.49529 1.01836e-17
5357.99883 1.20568e-17
5359.50236 1.08200e-17
5360.99573 1.09419e-17
5362.49926 1.19338e-17
5364.00280 1.07156e-17
5365.49617 9.86955e-18
5366.99970 1.09322e-17
5368.50323 1.14904e-17
5369.99661 1.11628e-17
5371.50014 1.06482e-17
5373.00367 1.01831e-17
5374.49704 1.06004e-17
5376.00057 1.08184e-17
5377.50411 1.07081e-17
5378.99748 1.01468e-17
5380.50101 9.99962e-18
5382.00454 1.01634e-17
5383.49792 9.79026e-18
5385.00145 1.06633e-17
5386.49482 1.03542e-17
5387.99835 1.02960e-17
5389.50188 1.08726e-17
5390.99526 1.02186e-17
5392.49879 1.01696e-17
5394.00232 1.04951e-17
5395.49570 1.07059e-17
5396.99923 1.00239e-17
5398.50276 1.01941e-17
5399.99613 1.13750e-17
5401.49966 1.14175e-17
5403.00320 1.09773e-17
5404.49657 1.10060e-17
5406.00010 1.13680e-17
5407.50363 1.15649e-17
5408.99701 9.58778e-18
5410.50054 9.40261e-18
5412.00407 1.06645e-17
5413.49744 1.01760e-17
5415.00097 1.05759e-17
5416.50451 1.12578e-17
5417.99788 1.12997e-17
5419.50141 1.02149e-17
5421.00494 8.89620e-18
5422.49832 9.36674e-18
5424.00185 1.03898e-17
5425.49522 1.04438e-17
5426.99875 1.04953e-17
5428.50229 1.12912e-17
5429.99566 1.14319e-17
5431.49919 1.03623e-17
5433.00272 1.02959e-17
5434.49610 1.15669e-17
5435.99963 1.14727e-17
5437.50316 1.06285e-17
5438.99653 1.07884e-17
5440.50007 1.06603e-17
5442.00360 1.12713e-17
5443.49697 1.09729e-17
5445.00050 9.83021e-18
5446.50403 1.03932e-17
5447.99741 1.07064e-17
5449.50094 1.04511e-17
5451.00447 1.10979e-17
5452.49784 1.06244e-17
5454.00138 9.23358e-18
5455.50491 1.11296e-17
5456.99828 1.31128e-17
5458.50181 1.16213e-17
5459.99519 1.03007e-17
5461.49872 1.03210e-17
5463.00225 1.12910e-17
5464.49562 1.20010e-17
5465.99915 1.10204e-17
5467.50269 1.25466e-17
5468.99606 1.38758e-17
5470.49959 1.16824e-17
5472.00312 1.10674e-17
5473.49650 1.05934e-17
5475.00003 9.61705e-18
5476.50356 1.22459e-17
5477.99693 1.06419e-17
5479.50047 9.70866e-18
5481.00400 9.15139e-18
5482.49737 1.06896e-17
5484.00090 1.20099e-17
5485.50443 1.02143e-17
5486.99781 1.15539e-17
5488.50134 1.18283e-17
5490.00487 1.14948e-17
5491.49825 1.15114e-17
5493.00178 1.21661e-17
5494.49515 1.22951e-17
5495.99868 1.25797e-17
5497.50221 1.25446e-17
5498.99559 1.14825e-17
5500.49912 1.13605e-17
5502.00265 1.16371e-17
5503.49602 1.22102e-17
5504.99956 1.19519e-17
5506.50309 1.14655e-17
5507.99646 1.14371e-17
5509.49999 1.25103e-17
5511.00353 1.33001e-17
5512.49690 1.19384e-17
5514.00043 1.20055e-17
5515.50396 1.17888e-17
5516.99734 1.15056e-17
5518.50087 1.33800e-17
5520.00440 1.42785e-17
5521.49777 1.39519e-17
5523.00130 1.40330e-17
5524.50484 1.34051e-17
5525.99821 1.33939e-17
5527.50174 1.34365e-17
5528.99511 1.23940e-17
5530.49865 1.18936e-17
5532.00218 1.23406e-17
5533.49555 1.27984e-17
5534.99908 1.43902e-17
5536.50262 1.34664e-17
5537.99599 1.19707e-17
5539.49952 1.40314e-17
5541.00305 1.28041e-17
5542.49643 1.27341e-17
5543.99996 1.36426e-17
5545.50349 1.39212e-17
5546.99686 1.45191e-17
5548.50039 1.41809e-17
5550.00393 1.33377e-17
5551.49730 1.37744e-17
5553.00083 1.22918e-17
5554.50436 1.30094e-17
5555.99774 1.32162e-17
5557.50127 1.35256e-17
5559.00480 1.38931e-17
5560.49817 1.34959e-17
5562.00170 1.35994e-17
5563.49508 1.30073e-17
5564.99861 1.17877e-17
5566.50214 1.23665e-17
5567.99552 1.31132e-17
5569.49905 1.40135e-17
5571.00258 1.26926e-17
5572.49595 1.23743e-17
5573.99948 1.29598e-17
5575.50302 1.25672e-17
5576.99639 1.26425e-17
5578.49992 1.49259e-17
5580.00345 1.38153e-17
5581.49683 1.14690e-17
5583.00036 1.25093e-17
5584.50389 1.32729e-17
5585.99726 1.27032e-17
5587.50079 1.18709e-17
5589.00433 1.21208e-17
5590.49770 1.25286e-17
5592.00123 1.19284e-17
5593.50476 1.19364e-17
5594.99814 1.07832e-17
5596.50167 1.10596e-17
5597.99504 1.19602e-17
5599.49857 1.28826e-17
5601.00211 1.25216e-17
5602.49548 1.23791e-17
5603.99901 1.15672e-17
5605.50254 1.21495e-17
5606.99592 1.28879e-17
5608.49945 1.21457e-17
5610.00298 1.21798e-17
5611.49635 1.13069e-17
5612.99989 1.24692e-17
5614.50342 1.22503e-17
5615.99679 1.15535e-17
5617.50032 1.18106e-17
5619.00385 1.24588e-17
5620.49723 1.21016e-17
5622.00076 1.02628e-17
5623.50429 1.08565e-17
5624.99766 1.09145e-17
5626.50120 1.08581e-17
5628.00473 1.10028e-17
5629.49810 1.21277e-17
5631.00163 1.22122e-17
5632.49501 1.11448e-17
5633.99854 1.02990e-17
5635.50207 1.19358e-17
5636.99544 1.16280e-17
5638.49898 1.10164e-17
5640.00251 1.16117e-17
5641.49588 1.10097e-17
5642.99941 1.08411e-17
5644.50294 1.20912e-17
5645.99632 1.26763e-17
5647.49985 1.15773e-17
5649.00338 1.18864e-17
5650.49675 1.22441e-17
5652.00029 1.19563e-17
5653.50382 1.19616e-17
5654.99719 1.24932e-17
5656.50072 1.18561e-17
5658.00425 1.11128e-17
5659.49763 1.20621e-17
5661.00116 1.26014e-17
5662.50469 1.18627e-17
5663.99807 1.20848e-17
5665.50160 1.31767e-17
5666.99497 1.29798e-17
5668.49850 1.25624e-17
5670.00203 1.28487e-17
5671.49541 1.19067e-17
5672.99894 1.26209e-17
5674.50247 1.32826e-17
5675.99584 1.14592e-17
5677.49938 1.20477e-17
5679.00291 1.21796e-17
5680.49628 1.15939e-17
5681.99981 1.37531e-17
5683.50335 1.31474e-17
5684.99672 1.21049e-17
5686.50025 1.17329e-17
5688.00378 1.13968e-17
5689.49716 1.21394e-17
5691.00069 1.25412e-17
5692.50422 1.38906e-17
5693.99759 1.38809e-17
5695.50112 1.29589e-17
5697.00466 1.20715e-17
5698.49803 1.17772e-17
5700.00156 1.30663e-17
5701.50509 1.30436e-17
5702.99847 1.34475e-17
5704.50200 1.32037e-17
5705.99537 1.24664e-17
5707.49890 1.33585e-17
5709.00243 1.36331e-17
5710.49581 1.33651e-17
5711.99934 1.18088e-17
5713.50287 1.13425e-17
5714.99625 1.24945e-17
5716.49978 1.21372e-17
5718.00331 1.24522e-17
5719.49668 1.39149e-17
5721.00021 1.34190e-17
5722.50375 1.29084e-17
5723.99712 1.30322e-17
5725.50065 1.11837e-17
5727.00418 1.10050e-17
5728.49756 1.28423e-17
5730.00109 1.33230e-17
5731.50462 1.32494e-17
5732.99799 1.33570e-17
5734.50153 1.30240e-17
5736.00506 1.16409e-17
5737.49843 1.19735e-17
5739.00196 1.23068e-17
5740.49533 1.19987e-17
5741.99887 1.26190e-17
5743.50240 1.25129e-17
5744.99577 1.24593e-17
5746.49930 1.22821e-17
5748.00284 1.19688e-17
5749.49621 1.15562e-17
5750.99974 1.15371e-17
5752.50327 1.12635e-17
5753.99665 1.13640e-17
5755.50018 1.27961e-17
5757.00371 1.31770e-17
5758.49708 1.36149e-17
5760.00062 1.34824e-17
5761.50415 1.14552e-17
5762.99752 1.13235e-17
5764.50105 1.15739e-17
5766.00458 1.24968e-17
5767.49796 1.17545e-17
5769.00149 1.05134e-17
5770.50502 1.13409e-17
5771.99839 1.15759e-17
5773.50193 1.10374e-17
5774.99530 1.06771e-17
5776.49883 1.07166e-17
5778.00236 1.19049e-17
5779.49574 1.19613e-17
5780.99927 1.11453e-17
5782.50280 9.34483e-18
5783.99617 8.77409e-18
5785.49971 1.01252e-17
5787.00324 1.01405e-17
5788.49661 9.39485e-18
5790.00014 9.42460e-18
5791.50367 9.48150e-18
5792.99705 9.82624e-18
5794.50058 1.08159e-17
5796.00411 1.07825e-17
5797.49748 1.00521e-17
5799.00102 9.89464e-18
5800.50455 8.53916e-18
5801.99792 8.38719e-18
5803.50145 9.65869e-18
5805.00498 9.05019e-18
5806.49836 8.31178e-18
5808.00189 8.88419e-18
5809.49526 1.05838e-17
5810.99880 1.06523e-17
5812.50233 8.75404e-18
5813.99570 9.55608e-18
5815.49923 1.00607e-17
5817.00276 9.75088e-18
5818.49614 9.79874e-18
5819.99967 1.04325e-17
5821.50320 1.10642e-17
5822.99657 1.07911e-17
5824.50011 9.24678e-18
5826.00364 8.84118e-18
5827.49701 9.24687e-18
5829.00054 1.06569e-17
5830.50407 9.72411e-18
5831.99745 9.36479e-18
5833.50098 9.49842e-18
5835.00451 9.70576e-18
5836.49788 9.81933e-18
5838.00142 9.64592e-18
5839.49479 1.01435e-17
5840.99832 9.91780e-18
5842.50185 1.02228e-17
5843.99523 9.17879e-18
5845.49876 8.36069e-18
5847.00229 1.01412e-17
5848.49566 1.03328e-17
5849.99920 9.82865e-18
5851.50273 1.00600e-17
5852.99610 1.04893e-17
5854.49963 1.06574e-17
5856.00317 9.59618e-18
5857.49654 8.58268e-18
5859.00007 8.81977e-18
5860.50360 8.31301e-18
5861.99698 9.04862e-18
5863.50051 1.06075e-17
5865.00404 1.10957e-17
5866.49741 1.10229e-17
5868.00094 1.02677e-17
5869.50448 1.01770e-17
5870.99785 1.13481e-17
5872.50138 1.16503e-17
5873.99475 1.01423e-17
5875.49829 1.16165e-17
5877.00182 1.22249e-17
5878.49519 1.22626e-17
5879.99872 1.16155e-17
5881.50226 1.18280e-17
5882.99563 1.12066e-17
5884.49916 1.06907e-17
5886.00269 1.14784e-17
5887.49607 1.19339e-17
5888.99960 1.12999e-17
5890.50313 1.08662e-17
5891.99650 1.04267e-17
5893.50003 1.11405e-17
5895.00357 1.02767e-17
5896.49694 1.09127e-17
5898.00047 1.16652e-17
5899.50400 1.02483e-17
5900.99738 1.00557e-17
5902.50091 1.07710e-17
5904.00444 1.16678e-17
5905.49781 1.25711e-17
5907.00135 1.16121e-17
5908.49472 1.13362e-17
5909.99825 1.13400e-17
5911.50178 1.19800e-17
5912.99515 1.20021e-17
5914.49869 1.18741e-17
5916.00222 1.26522e-17
5917.49559 1.32872e-17
5918.99912 1.23811e-17
5920.50266 1.20924e-17
5921.99603 1.24464e-17
5923.49956 1.31815e-17
5925.00309 1.37873e-17
5926.49647 1.36704e-17
5928.00000 1.35251e-17
5929.50353 1.27301e-17
5930.99690 1.23066e-17
5932.50043 1.31446e-17
5934.00397 1.38395e-17
5935.49734 1.36886e-17
5937.00087 1.39684e-17
5938.50440 1.40419e-17
5939.99778 1.39899e-17
5941.50131 1.36502e-17
5943.00484 1.32551e-17
5944.49821 1.40351e-17
5946.00175 1.33242e-17
5947.49512 1.30758e-17
5948.99865 1.31047e-17
5950.50218 1.33083e-17
5951.99556 1.36424e-17
5953.49909 1.27179e-17
5955.00262 1.15327e-17
5956.49599 1.25896e-17
5957.99953 1.31997e-17
5959.50306 1.19610e-17
5960.99643 1.36979e-17
5962.49996 1.44286e-17
5964.00349 1.38818e-17
5965.49687 1.35407e-17
5967.00040 1.41366e-17
5968.50393 1.51418e-17
5969.99730 1.39064e-17
5971.50084 1.44298e-17
5973.00437 1.51885e-17
5974.49774 1.41680e-17
5976.00127 1.31874e-17
5977.50480 1.25394e-17
5978.99818 1.36151e-17
5980.50171 1.28444e-17
5981.99508 1.29584e-17
5983.49862 1.24403e-17
5985.00215 1.02266e-17
5986.49552 9.90072e-18
5987.99905 1.17189e-17
5989.50258 1.23071e-17
5990.99596 1.12934e-17
5992.49949 1.16670e-17
5994.00302 1.26586e-17
5995.49639 1.27115e-17
5996.99993 1.16910e-17
5998.50346 1.21772e-17
5999.99683 1.34989e-17
6001.50036 1.33776e-17
6003.00390 1.27355e-17
6004.49727 1.24575e-17
6006.00080 1.26111e-17
6007.50433 1.44960e-17
6008.99770 1.36679e-17
6010.50124 1.29238e-17
6012.00477 1.34484e-17
6013.49814 1.25650e-17
6015.00167 1.27179e-17
6016.49505 1.35579e-17
6017.99858 1.21867e-17
6019.50211 1.24501e-17
6020.99548 1.38183e-17
6022.49902 1.37399e-17
6024.00255 1.42116e-17
6025.49592 1.26657e-17
6026.99945 1.29410e-17
6028.50299 1.32163e-17
6029.99636 1.31161e-17
6031.49989 1.32887e-17
6033.00342 1.28581e-17
6034.49680 1.30251e-17
6036.00033 1.31441e-17
6037.50386 1.26308e-17
6038.99723 1.29035e-17
6040.50076 1.33085e-17
6042.00430 1.44635e-17
6043.49767 1.44562e-17
6045.00120 1.21752e-17
6046.50473 1.23998e-17
6047.99811 1.21143e-17
6049.50164 1.18677e-17
6050.99501 1.27622e-17
6052.49854 1.35555e-17
6054.00208 1.25314e-17
6055.49545 1.22617e-17
6056.99898 1.23232e-17
6058.50251 1.33489e-17
6059.99588 1.20236e-17
6061.49942 1.28455e-17
6063.00295 1.38655e-17
6064.49632 1.24181e-17
6065.99985 1.25594e-17
6067.50339 1.26512e-17
6068.99676 1.22979e-17
6070.50029 1.20667e-17
6072.00382 1.22201e-17
6073.49720 1.23156e-17
6075.00073 1.23123e-17
6076.50426 1.25976e-17
6077.99763 1.26879e-17
6079.50117 1.35847e-17
6081.00470 1.33908e-17
6082.49807 1.21500e-17
6084.00160 1.16254e-17
6085.49498 1.24514e-17
6086.99851 1.19905e-17
6088.50204 1.18633e-17
6089.99541 1.20398e-17
6091.49894 1.15167e-17
6093.00248 1.12982e-17
6094.49585 1.21319e-17
6095.99938 1.21981e-17
6097.50291 1.14333e-17
6098.99629 1.14968e-17
6100.49982 1.24263e-17
6102.00335 1.28362e-17
6103.49672 1.25202e-17
6105.00025 1.28973e-17
6106.50379 1.27828e-17
6107.99716 1.10587e-17
6109.50069 1.12535e-17
6111.00422 1.15876e-17
6112.49760 1.13042e-17
6114.00113 1.20923e-17
6115.50466 1.22299e-17
6116.99803 1.20455e-17
6118.50157 1.16443e-17
6119.99494 1.15429e-17
6121.49847 1.20191e-17
6123.00200 1.30644e-17
6124.49538 1.34221e-17
6125.99891 1.15274e-17
6127.50244 1.18792e-17
6128.99581 1.30391e-17
6130.49935 1.13968e-17
6132.00288 1.09565e-17
6133.49625 1.14411e-17
6134.99978 1.12173e-17
6136.50331 1.03945e-17
6137.99669 9.91788e-18
6139.50022 1.13167e-17
6141.00375 1.19706e-17
6142.49712 1.17096e-17
6144.00066 1.17386e-17
6145.50419 1.08214e-17
6146.99756 1.03031e-17
6148.50109 1.08206e-17
6150.00463 1.18320e-17
6151.49800 1.13351e-17
6153.00153 9.81966e-18
6154.49490 1.06854e-17
6155.99843 1.18300e-17
6157.50197 1.16333e-17
6158.99534 1.15622e-17
6160.49887 1.13608e-17
6162.00240 1.17162e-17
6163.49578 1.17475e-17
6164.99931 1.10161e-17
6166.50284 1.12874e-17
6167.99621 1.24454e-17
6169.49975 1.20295e-17
6171.00328 1.19626e-17
6172.49665 1.15916e-17
6174.00018 1.13616e-17
6175.50372 1.13580e-17
6176.99709 1.10938e-17
6178.50062 1.11763e-17
6180.00415 1.08716e-17
6181.49752 1.24317e-17
6183.00106 1.28144e-17
6184.50459 1.22892e-17
6185.99796 1.21565e-17
6187.50149 1.27947e-17
6188.99487 1.20688e-17
6190.49840 1.13274e-17
6192.00193 1.02673e-17
6193.49530 1.19470e-17
6194.99884 1.21306e-17
6196.50237 1.23456e-17
6197.99574 1.31639e-17
6199.49927 1.35180e-17
6201.00281 1.29769e-17
6202.49618 1.27565e-17
6203.99971 1.21204e-17
6205.50324 1.25416e-17
6206.99662 1.25899e-17
6208.50015 1.26303e-17
6210.00368 1.36523e-17
6211.49705 1.32610e-17
6213.00058 1.21656e-17
6214.50412 1.29199e-17
6215.99749 1.24891e-17
6217.50102 1.18764e-17
6219.00455 1.23984e-17
6220.49793 1.26224e-17
6222.00146 1.23096e-17
6223.50499 1.25746e-17
6224.99836 1.17857e-17
6226.50190 1.26623e-17
6227.99527 1.35391e-17
6229.49880 1.28253e-17
6231.00233 1.28808e-17
6232.49571 1.16805e-17
6233.99924 1.20947e-17
6235.50277 1.27382e-17
6236.99614 1.24943e-17
6238.49967 1.29051e-17
6240.00321 1.29563e-17
6241.49658 1.29852e-17
6243.00011 1.21542e-17
6244.50364 1.12620e-17
6245.99702 1.18158e-17
6247.50055 1.18080e-17
6249.00408 1.17713e-17
6250.49745 1.10725e-17
6252.00098 1.18966e-17
6253.50452 1.09051e-17
6254.99789 1.12051e-17
6256.50142 1.16287e-17
6258.00495 1.11393e-17
6259.49833 1.14887e-17
6261.00186 1.24474e-17
6262.49523 1.27228e-17
6263.99876 1.31483e-17
6265.50230 1.27805e-17
6266.99567 1.16509e-17
6268.49920 1.20289e-17
6270.00273 1.20831e-17
6271.49611 1.15191e-17
6272.99964 1.20098e-17
6274.50317 1.30315e-17
6275.99654 1.20160e-17
6277.50007 1.09570e-17
6279.00361 1.00625e-17
6280.49698 9.90944e-18
6282.00051 1.03809e-17
6283.50404 1.16577e-17
6284.99742 1.16464e-17
6286.50095 1.07923e-17
6288.00448 1.08254e-17
6289.49785 1.19254e-17
6291.00139 1.21037e-17
6292.50492 1.16407e-17
6293.99829 1.16641e-17
6295.50182 1.13054e-17
6296.99520 1.14682e-17
6298.49873 1.18237e-17
6300.00226 1.16059e-17
6301.49563 1.22852e-17
6302.99917 1.20745e-17
6304.50270 1.21659e-17
6305.99607 1.17238e-17
6307.49960 1.09963e-17
6309.00313 1.22127e-17
6310.49651 1.24700e-17
6312.00004 1.24488e-17
6313.50357 1.19570e-17
6314.99694 1.16216e-17
6316.50048 1.23511e-17
6318.00401 1.22652e-17
6319.49738 1.05653e-17
6321.00091 1.07917e-17
6322.50445 1.12368e-17
6323.99782 1.04864e-17
6325.50135 1.09451e-17
6327.00488 1.09535e-17
6328.49826 1.10117e-17
6330.00179 1.11223e-17
6331.49516 1.10761e-17
6332.99869 1.16352e-17
6334.50222 1.21562e-17
6335.99560 1.16427e-17
6337.49913 1.11245e-17
6339.00266 1.07784e-17
6340.49603 1.10506e-17
6341.99957 1.19123e-17
6343.50310 1.14054e-17
6344.99647 1.14148e-17
6346.50000 1.12962e-17
6348.00353 1.09964e-17
6349.49691 1.15716e-17
6351.00044 1.17536e-17
6352.50397 1.16237e-17
6353.99735 1.20233e-17
6355.50088 1.22961e-17
6357.00441 1.19856e-17
6358.49778 1.15536e-17
6360.00131 1.15813e-17
6361.50485 1.21241e-17
6362.99822 1.14183e-17
6364.50175 1.14179e-17
6365.99512 1.22565e-17
6367.49866 1.24734e-17
6369.00219 1.21396e-17
6370.49556 1.21546e-17
6371.99909 1.27012e-17
6373.50263 1.26712e-17
6374.99600 1.16206e-17
6376.49953 1.22749e-17
6378.00306 1.29834e-17
6379.49644 1.33320e-17
6380.99997 1.19562e-17
6382.50350 1.13455e-17
6383.99687 1.07595e-17
6385.50040 1.22768e-17
6387.00394 1.25312e-17
6388.49731 1.20899e-17
6390.00084 1.29874e-17
6391.50437 1.23554e-17
6392.99775 1.28627e-17
6394.50128 1.25002e-17
6396.00481 1.21137e-17
6397.49818 1.16836e-17
6399.00172 1.22904e-17
6400.49509 1.25547e-17
6401.99862 1.25004e-17
6403.50215 1.22023e-17
6404.99553 1.33672e-17
6406.49906 1.21942e-17
6408.00259 1.17034e-17
6409.49596 1.23181e-17
6410.99949 1.20281e-17
6412.50303 1.23215e-17
6413.99640 1.17254e-17
6415.49993 1.14921e-17
6417.00346 1.20221e-17
6418.49684 1.18880e-17
6420.00037 1.10353e-17
6421.50390 1.19537e-17
6422.99727 1.17319e-17
6424.50080 1.14167e-17
6426.00434 1.21852e-17
6427.49771 1.26483e-17
6429.00124 1.23730e-17
6430.49462 1.24665e-17
6431.99815 1.18017e-17
6433.50168 1.12584e-17
6434.99505 1.24587e-17
6436.49858 1.25246e-17
6438.00212 1.19134e-17
6439.49549 1.24217e-17
6440.99902 1.24066e-17
6442.50255 1.14553e-17
6443.99593 1.20479e-17
6445.49946 1.19537e-17
6447.00299 1.16893e-17
6448.49636 1.18831e-17
6449.99989 1.27600e-17
6451.50343 1.38772e-17
6452.99680 1.31860e-17
6454.50033 1.20846e-17
6456.00386 1.18013e-17
6457.49724 1.22360e-17
6459.00077 1.12242e-17
6460.50430 1.17064e-17
6461.99767 1.26216e-17
6463.50121 1.24490e-17
6465.00474 1.27642e-17
6466.49811 1.22388e-17
6468.00164 1.15162e-17
6469.49502 1.01846e-17
6470.99855 1.12950e-17
6472.50208 1.32644e-17
6473.99545 1.17829e-17
6475.49899 9.93911e-18
6477.00252 1.13362e-17
6478.49589 1.19636e-17
6479.99942 1.15292e-17
6481.50295 1.20327e-17
6482.99633 1.26698e-17
6484.49986 1.28975e-17
6486.00339 1.34490e-17
6487.49676 1.26440e-17
6489.00030 1.22327e-17
6490.50383 1.25718e-17
6491.99720 1.27867e-17
6493.50073 1.27285e-17
6495.00427 1.20352e-17
6496.49764 1.20427e-17
6498.00117 1.20027e-17
6499.50470 1.22666e-17
6500.99808 1.28950e-17
6502.50161 1.33400e-17
6504.00514 1.34208e-17
6505.49851 1.35830e-17
6507.00204 1.27210e-17
6508.49542 1.13935e-17
6509.99895 1.19022e-17
6511.50248 1.19263e-17
6512.99585 1.13733e-17
6514.49939 1.21771e-17
6516.00292 1.20983e-17
6517.49629 1.18795e-17
6518.99982 1.23450e-17
6520.50335 1.22241e-17
6521.99673 1.28755e-17
6523.50026 1.43620e-17
6525.00379 1.33153e-17
6526.49717 1.10792e-17
6528.00070 1.19222e-17
6529.50423 1.28368e-17
6530.99760 1.19386e-17
6532.50113 1.25297e-17
6534.00467 1.40457e-17
6535.49804 1.40012e-17
6537.00157 1.29201e-17
6538.50510 1.23132e-17
6539.99848 1.18918e-17
6541.50201 1.21130e-17
6542.99538 1.28371e-17
6544.49891 1.33729e-17
6546.00245 1.33694e-17
6547.49582 1.29629e-17
6548.99935 1.27497e-17
6550.50288 1.26083e-17
6551.99626 1.24413e-17
6553.49979 1.22375e-17
6555.00332 1.16439e-17
6556.49669 1.18396e-17
6558.00022 1.25531e-17
6559.50376 1.35999e-17
6560.99713 1.34861e-17
6562.50066 1.19187e-17
6564.00419 1.23170e-17
6565.49757 1.25983e-17
6567.00110 1.24948e-17
6568.50463 1.25285e-17
6569.99800 1.30068e-17
6571.50153 1.33188e-17
6572.99491 1.32730e-17
6574.49844 1.25870e-17
6576.00197 1.20873e-17
6577.49535 1.18942e-17
6578.99888 1.20603e-17
6580.50241 1.25496e-17
6581.99578 1.25057e-17
6583.49931 1.16791e-17
6585.00285 1.14117e-17
6586.49622 1.17910e-17
6587.99975 1.15499e-17
6589.50328 1.12601e-17
6590.99666 1.25310e-17
6592.50019 1.33779e-17
6594.00372 1.24661e-17
6595.49709 1.19126e-17
6597.00063 1.29920e-17
6598.50416 1.35399e-17
6599.99753 1.22048e-17
6601.50106 1.21417e-17
6603.00459 1.25949e-17
6604.49797 1.24591e-17
6606.00150 1.32233e-17
6607.49487 1.27834e-17
6608.99840 1.28683e-17
6610.50194 1.29304e-17
6611.99531 1.28661e-17
6613.49884 1.29774e-17
6615.00237 1.29600e-17
6616.49575 1.29149e-17
6617.99928 1.23610e-17
6619.50281 1.31156e-17
6620.99618 1.38606e-17
6622.49972 1.31477e-17
6624.00325 1.30774e-17
6625.49662 1.32466e-17
6627.00015 1.29485e-17
6628.50368 1.30378e-17
6629.99706 1.27528e-17
6631.50059 1.24754e-17
6633.00412 1.30166e-17
6634.49749 1.15953e-17
6636.00103 1.22255e-17
6637.50456 1.22445e-17
6638.99793 1.22636e-17
6640.50146 1.22826e-17
6641.99484 1.23016e-17
6643.49837 1.23206e-17
6645.00190 1.23396e-17
6646.49527 1.23586e-17
6647.99881 1.23776e-17
6649.50234 1.23967e-17
6650.99571 1.24157e-17
6652.49924 1.24347e-17
6654.00277 1.24537e-17
6655.49615 1.24727e-17
6656.99968 1.24917e-17
6658.50321 1.25107e-17
6659.99658 1.25297e-17
6661.50012 1.25488e-17
6663.00365 1.25678e-17
6664.49702 1.25868e-17
6666.00055 1.26058e-17
6667.50408 1.26248e-17
6668.99746 1.26438e-17
6670.50099 1.26628e-17
6672.00452 1.26818e-17
6673.49790 1.27008e-17
6675.00143 1.27198e-17
6676.49480 1.27388e-17
6677.99833 1.27578e-17
6679.50186 1.27768e-17
6680.99524 1.27958e-17
6682.49877 1.28148e-17
6684.00230 1.28338e-17
6685.49567 1.28528e-17
6686.99921 1.28718e-17
6688.50274 1.28909e-17
6689.99611 1.29099e-17
6691.49964 1.29288e-17
6693.00317 1.29478e-17
6694.49655 1.29668e-17
6696.00008 1.29858e-17
6697.50361 1.30048e-17
6698.99698 1.30238e-17
6700.50052 1.32978e-17
6702.00405 1.31265e-17
6703.49742 1.35833e-17
6705.00095 1.33217e-17
6706.50449 1.26087e-17
6707.99786 1.18090e-17
6709.50139 1.24365e-17
6710.99476 1.27967e-17
6712.49830 1.19338e-17
6714.00183 1.21561e-17
6715.49520 1.23693e-17
6716.99873 1.28675e-17
6718.50227 1.31330e-17
6719.99564 1.27350e-17
6721.49917 1.30273e-17
6723.00270 1.26505e-17
6724.49608 1.23572e-17
6725.99961 1.32845e-17
6727.50314 1.41290e-17
6728.99651 1.34568e-17
6730.50004 1.19752e-17
6732.00358 1.22874e-17
6733.49695 1.34910e-17
6735.00048 1.34249e-17
6736.50401 1.29244e-17
6737.99739 1.22080e-17
6739.50092 1.18268e-17
6741.00445 1.26259e-17
6742.49782 1.26040e-17
6744.00136 1.22287e-17
6745.50489 1.29253e-17
6746.99826 1.30022e-17
6748.50179 1.37858e-17
6749.99517 1.38016e-17
6751.49870 1.17373e-17
6753.00223 1.22718e-17
6754.49560 1.29360e-17
6755.99913 1.18233e-17
6757.50267 1.16226e-17
6758.99604 1.21865e-17
6760.49957 1.24990e-17
6762.00310 1.19130e-17
6763.49648 1.20758e-17
6765.00001 1.20615e-17
6766.50354 1.21892e-17
6767.99691 1.23147e-17
6769.50045 1.21217e-17
6771.00398 1.27452e-17
6772.49735 1.18657e-17
6774.00088 1.17678e-17
6775.50441 1.22387e-17
6776.99779 1.22359e-17
6778.50132 1.21505e-17
6780.00485 1.19125e-17
6781.49822 1.20479e-17
6783.00176 1.24323e-17
6784.49513 1.24323e-17
6785.99866 1.17003e-17
6787.50219 1.26561e-17
6788.99557 1.43232e-17
6790.49910 1.36618e-17
6792.00263 1.16338e-17
6793.49600 1.18806e-17
6794.99953 1.27275e-17
6796.50307 1.22076e-17
6797.99644 1.15098e-17
6799.49997 1.19668e-17
6801.00350 1.19799e-17
6802.49688 1.21565e-17
6804.00041 1.21862e-17
6805.50394 1.15018e-17
6806.99731 1.15322e-17
6808.50085 1.20049e-17
6810.00438 1.21056e-17
6811.49775 1.14885e-17
6813.00128 1.12783e-17
6814.50482 1.20481e-17
6815.99819 1.23407e-17
6817.50172 1.25160e-17
6818.99509 1.24546e-17
6820.49863 1.13379e-17
6822.00216 1.17593e-17
6823.49553 1.42208e-17
6824.99906 1.33569e-17
6826.50259 1.27514e-17
6827.99597 1.29850e-17
6829.49950 1.23342e-17
6831.00303 1.16795e-17
6832.49640 1.19234e-17
6833.99994 1.14119e-17
6835.50347 1.20046e-17
6836.99684 1.24201e-17
6838.50037 1.21464e-17
6840.00390 1.25867e-17
6841.49728 1.29643e-17
6843.00081 1.20356e-17
6844.50434 1.10485e-17
6845.99772 1.13951e-17
6847.50125 1.23044e-17
6849.00478 1.28045e-17
6850.49815 1.24718e-17
6852.00168 1.07775e-17
6853.49506 1.03349e-17
6854.99859 1.18642e-17
6856.50212 1.21027e-17
6857.99549 1.22806e-17
6859.49903 1.21118e-17
6861.00256 1.16280e-17
6862.49593 1.15252e-17
6863.99946 1.07634e-17
6865.50300 1.07163e-17
6866.99637 1.16993e-17
6868.49990 1.07570e-17
6870.00343 1.00391e-17
6871.49680 1.01878e-17
6873.00034 1.01623e-17
6874.50387 1.17197e-17
6875.99724 1.09430e-17
6877.50077 1.07027e-17
6879.00431 1.15798e-17
6880.49768 1.12665e-17
6882.00121 1.04754e-17
6883.50474 1.05704e-17
6884.99812 1.04051e-17
6886.50165 9.86612e-18
6887.99502 1.16709e-17
6889.49855 1.04753e-17
6891.00209 1.03699e-17
6892.49546 1.12065e-17
6893.99899 1.04234e-17
6895.50252 1.11751e-17
6896.99590 1.24674e-17
6898.49943 1.13744e-17
6900.00296 1.15481e-17
6901.49633 1.03316e-17
6902.99986 1.05882e-17
6904.50340 1.08602e-17
6905.99677 1.04710e-17
6907.50030 1.10203e-17
6909.00383 1.10738e-17
6910.49721 1.01217e-17
6912.00074 1.08870e-17
6913.50427 1.16192e-17
6914.99764 1.05497e-17
6916.50118 1.04535e-17
6918.00471 1.05173e-17
6919.49808 1.11695e-17
6921.00161 1.10467e-17
6922.49498 1.06541e-17
6923.99852 1.07783e-17
6925.50205 1.13063e-17
6926.99542 1.11949e-17
6928.49895 1.07275e-17
6930.00249 1.08333e-17
6931.49586 1.07054e-17
6932.99939 1.15284e-17
6934.50292 1.21936e-17
6935.99630 1.14300e-17
6937.49983 1.05890e-17
6939.00336 1.06607e-17
6940.49673 1.04345e-17
6942.00027 9.76529e-18
6943.50380 1.05220e-17
6944.99717 1.08065e-17
6946.50070 9.79749e-18
6948.00423 1.02616e-17
6949.49761 1.12013e-17
6951.00114 9.71011e-18
6952.50467 1.01005e-17
6953.99804 1.15912e-17
6955.50158 1.00106e-17
6956.99495 9.38655e-18
6958.49848 1.05192e-17
6960.00201 1.02927e-17
6961.49539 9.83073e-18
6962.99892 9.33459e-18
6964.50245 1.04499e-17
6965.99582 1.01088e-17
6967.49935 9.19863e-18
6969.00289 1.06728e-17
6970.49626 1.21852e-17
6971.99979 1.17637e-17
6973.50332 1.00619e-17
6974.99670 1.09308e-17
6976.50023 1.12979e-17
6978.00376 1.05888e-17
6979.49713 1.00864e-17
6981.00067 1.05963e-17
6982.50420 1.13862e-17
6983.99757 1.06831e-17
6985.50110 1.03088e-17
6987.00464 1.09323e-17
6988.49801 1.14860e-17
6990.00154 1.11078e-17
6991.49491 9.52683e-18
6992.99845 9.28237e-18
6994.50198 1.01346e-17
6995.99535 1.01293e-17
6997.49888 9.76620e-18
6999.00241 1.08037e-17
7000.49579 1.16331e-17
7001.99932 1.14321e-17
7003.50285 1.09767e-17
7004.99622 1.05541e-17
7006.49976 1.15574e-17
7008.00329 1.17212e-17
7009.49666 1.03254e-17
7011.00019 1.02051e-17
7012.50373 1.02269e-17
7013.99710 1.09397e-17
7015.50063 1.17349e-17
7017.00416 1.02387e-17
7018.49753 1.02853e-17
7020.00107 1.11280e-17
7021.50460 1.12494e-17
7022.99797 1.20259e-17
7024.50150 1.20428e-17
7026.00504 1.09954e-17
7027.49841 1.12181e-17
7029.00194 1.13109e-17
7030.49531 1.08404e-17
7031.99885 1.12219e-17
7033.50238 1.15320e-17
7034.99575 1.11414e-17
7036.49928 1.10539e-17
7038.00282 1.02560e-17
7039.49619 1.08845e-17
7040.99972 1.07077e-17
7042.50325 1.11498e-17
7043.99662 1.09670e-17
7045.50016 1.07458e-17
7047.00369 1.13747e-17
7048.49706 1.22562e-17
7050.00059 1.15533e-17
7051.50413 1.17885e-17
7052.99750 1.09870e-17
7054.50103 1.11874e-17
7056.00456 1.23853e-17
7057.49794 1.05829e-17
7059.00147 1.03907e-17
7060.50500 1.10814e-17
7061.99837 1.08617e-17
7063.50191 1.02467e-17
7064.99528 1.03615e-17
7066.49881 1.07572e-17
7068.00234 1.16574e-17
7069.49572 1.19919e-17
7070.99925 1.16594e-17
7072.50278 1.11192e-17
7073.99615 1.08744e-17
7075.49968 1.10076e-17
7077.00322 1.15507e-17
7078.49659 1.13089e-17
7080.00012 1.05193e-17
7081.50365 1.04533e-17
7082.99703 1.06178e-17
7084.50056 1.19167e-17
7086.00409 1.13648e-17
7087.49746 1.01293e-17
7089.00100 1.03677e-17
7090.50453 1.11024e-17
7091.99790 1.13884e-17
7093.50143 1.14438e-17
7095.00496 1.16421e-17
7096.49834 1.02042e-17
7098.00187 1.04279e-17
7099.49524 9.96655e-18
7100.99877 1.03365e-17
7102.50231 1.14001e-17
7103.99568 1.04588e-17
7105.49921 1.01140e-17
7107.00274 1.22001e-17
7108.49612 1.10547e-17
7109.99965 1.12500e-17
7111.50318 1.02558e-17
7112.99655 9.90505e-18
7114.50008 1.05439e-17
7116.00362 1.03969e-17
7117.49699 1.05064e-17
7119.00052 1.00858e-17
7120.50405 1.06119e-17
7121.99743 1.05852e-17
7123.50096 1.12992e-17
7125.00449 1.10010e-17
7126.49786 1.04109e-17
7128.00140 1.00653e-17
7129.50493 1.07171e-17
7130.99830 1.08165e-17
7132.50183 1.18648e-17
7133.99521 1.11748e-17
7135.49874 9.66295e-18
7137.00227 9.75648e-18
7138.49564 1.10773e-17
7139.99917 1.07644e-17
7141.50271 9.40801e-18
7142.99608 1.00454e-17
7144.49961 1.10738e-17
7146.00314 1.03054e-17
7147.49652 1.03805e-17
7149.00005 1.04670e-17
7150.50358 1.04035e-17
7151.99695 1.03521e-17
7153.50049 1.10428e-17
7155.00402 1.05020e-17
7156.49739 9.86180e-18
7158.00092 1.01449e-17
7159.50446 1.05608e-17
7160.99783 1.05598e-17
7162.50136 1.13109e-17
7164.00489 1.13460e-17
7165.49827 1.06013e-17
7167.00180 1.09197e-17
7168.49517 1.05894e-17
7169.99870 1.06022e-17
7171.50223 1.11126e-17
7172.99561 1.14134e-17
7174.49914 1.10817e-17
7176.00267 1.10068e-17
7177.49604 9.97489e-18
7178.99958 1.08206e-17
7180.50311 1.03497e-17
7181.99648 1.11186e-17
7183.50001 1.03064e-17
7185.00355 9.58578e-18
7186.49692 1.03433e-17
7188.00045 1.13611e-17
7189.50398 1.17791e-17
7190.99736 1.08068e-17
7192.50089 1.07510e-17
7194.00442 1.06609e-17
7195.49779 1.06168e-17
7197.00132 1.05086e-17
7198.49470 1.08375e-17
7199.99823 1.07485e-17
7201.50176 1.02355e-17
7202.99513 1.10806e-17
7204.49867 1.05083e-17
7206.00220 9.75992e-18
7207.49557 1.09511e-17
7208.99910 1.10404e-17
7210.50263 1.09627e-17
7211.99601 1.10755e-17
7213.49954 1.04017e-17
7215.00307 1.06322e-17
7216.49645 1.09312e-17
7217.99998 1.10017e-17
7219.50351 1.11099e-17
7220.99688 1.05489e-17
7222.50041 1.10616e-17
7224.00395 1.09664e-17
7225.49732 1.07857e-17
7227.00085 9.91759e-18
7228.50438 1.01107e-17
7229.99776 1.10547e-17
7231.50129 1.12401e-17
7232.99466 1.17515e-17
7234.49819 1.20756e-17
7236.00173 1.17502e-17
7237.49510 1.20221e-17
7238.99863 1.25624e-17
7240.50216 1.29425e-17
7241.99554 1.24639e-17
7243.49907 1.14771e-17
7245.00260 1.17844e-17
7246.49597 1.08671e-17
7247.99950 1.16301e-17
7249.50304 1.17449e-17
7250.99641 1.20821e-17
7252.49994 1.16813e-17
7254.00347 1.15810e-17
7255.49685 1.03277e-17
7257.00038 1.02490e-17
7258.50391 1.13184e-17
7259.99728 1.09642e-17
7261.50082 1.06513e-17
7263.00435 1.02486e-17
7264.49772 1.14292e-17
7266.00125 1.13008e-17
7267.50478 1.05520e-17
7268.99816 1.02002e-17
7270.50169 1.03287e-17
7271.99506 1.12322e-17
7273.49859 1.23479e-17
7275.00213 1.22894e-17
7276.49550 1.28024e-17
7277.99903 1.30734e-17
7279.50256 1.24520e-17
7280.99594 1.19923e-17
7282.49947 1.19516e-17
7284.00300 1.23232e-17
7285.49637 1.19549e-17
7286.99990 1.14040e-17
7288.50344 1.14133e-17
7289.99681 1.28201e-17
7291.50034 1.22334e-17
7293.00387 1.03754e-17
7294.49725 1.12542e-17
7296.00078 1.25466e-17
7297.50431 1.20242e-17
7298.99768 1.12021e-17
7300.50122 1.17197e-17
7302.00475 1.15386e-17
7303.49812 1.12808e-17
7305.00165 1.16849e-17
7306.50518 1.11541e-17
7307.99856 1.14934e-17
7309.50209 1.23213e-17
7310.99546 1.17807e-17
7312.49899 1.14797e-17
7314.00253 1.22532e-17
7315.49590 1.11658e-17
7316.99943 1.11628e-17
7318.50296 1.16493e-17
7319.99634 1.17017e-17
7321.49987 1.16954e-17
7323.00340 1.13130e-17
7324.49677 1.26801e-17
7326.00031 1.26220e-17
7327.50384 1.14478e-17
7328.99721 1.15114e-17
7330.50074 1.27389e-17
7332.00428 1.20946e-17
7333.49765 1.05703e-17
7335.00118 1.03136e-17
7336.50471 1.06155e-17
7337.99809 1.07340e-17
7339.50162 1.06349e-17
7340.99499 1.12733e-17
7342.49852 1.10807e-17
7344.00205 1.03339e-17
7345.49543 1.11258e-17
7346.99896 1.11388e-17
7348.50249 1.02169e-17
7349.99586 1.06740e-17
7351.49940 1.18458e-17
7353.00293 1.16302e-17
7354.49630 1.13630e-17
7355.99983 1.13970e-17
7357.50337 1.08773e-17
7358.99674 1.08505e-17
7360.50027 1.18444e-17
7362.00380 1.11923e-17
7363.49718 9.86050e-18
7365.00071 1.06637e-17
7366.50424 1.29079e-17
7367.99761 1.29375e-17
7369.50114 1.30811e-17
7371.00468 1.30114e-17
7372.49805 1.19761e-17
7374.00158 1.26574e-17
7375.49495 1.21470e-17
7376.99849 1.15779e-17
7378.50202 1.20386e-17
7379.99539 1.26787e-17
7381.49892 1.28501e-17
7383.00245 1.24410e-17
7384.49583 1.15030e-17
7385.99936 1.26550e-17
7387.50289 1.21236e-17
7388.99627 1.15314e-17
7390.49980 1.23142e-17
7392.00333 1.17299e-17
7393.49670 1.15831e-17
7395.00023 9.89523e-18
7396.50377 1.05693e-17
7397.99714 1.09821e-17
7399.50067 1.15551e-17
7401.00420 1.25589e-17
7402.49758 1.18577e-17
7404.00111 1.13983e-17
7405.50464 1.21128e-17
7406.99801 1.11507e-17
7408.50155 1.12994e-17
7409.99492 1.17806e-17
7411.49845 1.15454e-17
7413.00198 1.12819e-17
7414.49536 1.13752e-17
7415.99889 1.13424e-17
7417.50242 1.15669e-17
7418.99579 1.13597e-17
7420.49932 1.22777e-17
7422.00286 1.20143e-17
7423.49623 1.13058e-17
7424.99976 1.21495e-17
7426.50329 1.24393e-17
7427.99667 1.26417e-17
7429.50020 1.20327e-17
7431.00373 1.17103e-17
7432.49710 1.14924e-17
7434.00063 1.12615e-17
7435.50417 1.20389e-17
7436.99754 1.38897e-17
7438.50107 1.27108e-17
7440.00460 1.10504e-17
7441.49798 1.17859e-17
7443.00151 1.23772e-17
7444.49488 1.20999e-17
7445.99841 1.19425e-17
7447.50195 1.15656e-17
7448.99532 1.20509e-17
7450.49885 1.10549e-17
7452.00238 1.14529e-17
7453.49576 1.12582e-17
7454.99929 1.09187e-17
7456.50282 1.17281e-17
7457.99619 1.14251e-17
7459.49973 1.12477e-17
7461.00326 1.24466e-17
7462.49663 1.24937e-17
7464.00016 1.18466e-17
7465.50369 1.15462e-17
7466.99707 1.21500e-17
7468.50060 1.29199e-17
7470.00413 1.30658e-17
7471.49750 1.18667e-17
7473.00104 1.06592e-17
7474.50457 1.00152e-17
7475.99794 1.11185e-17
7477.50147 1.05481e-17
7478.99485 1.08119e-17
7480.49838 1.09446e-17
7482.00191 1.05404e-17
7483.49528 1.09128e-17
7484.99882 1.14352e-17
7486.50235 1.21307e-17
7487.99572 1.18539e-17
7489.49925 1.15831e-17
7491.00278 1.04418e-17
7492.49616 1.04717e-17
7493.99969 1.09986e-17
7495.50322 1.09646e-17
7496.99659 1.09790e-17
7498.50013 1.10409e-17
7500.00366 1.13545e-17
7501.49703 1.09890e-17
7503.00056 1.05815e-17
7504.50410 1.06774e-17
7505.99747 1.11144e-17
7507.50100 1.25519e-17
7509.00453 1.17274e-17
7510.49791 1.07210e-17
7512.00144 1.13183e-17
7513.49481 1.10153e-17
7514.99834 1.10473e-17
7516.50187 1.22873e-17
7517.99525 1.23178e-17
7519.49878 1.09700e-17
7521.00231 1.21359e-17
