# wavelength flux
5049.99826 5.69839e-18
5052.90374 5.77813e-18
5055.79905 5.85788e-18
5058.69437 5.93761e-18
5061.59984 6.01735e-18
5064.49516 6.61352e-18
5067.40063 7.44378e-18
5070.29595 7.34437e-18
5073.19126 7.24497e-18
5076.09674 7.14558e-18
5078.99205 7.04621e-18
5081.89752 6.94682e-18
5084.79284 6.84747e-18
5087.68815 6.74812e-18
5090.59363 6.64879e-18
5093.48894 6.54946e-18
5096.39442 6.45015e-18
5099.28973 6.35085e-18
5102.19521 6.25152e-18
5105.09052 6.15224e-18
5107.98584 6.68215e-18
5110.89131 6.74281e-18
5113.78662 6.06776e-18
5116.69210 5.50768e-18
5119.58741 5.72814e-18
5122.48273 6.17581e-18
5125.38820 6.16610e-18
5128.28352 6.09642e-18
5131.18899 5.81338e-18
5134.08431 5.64053e-18
5136.97962 6.31347e-18
5139.88510 6.56573e-18
5142.78041 6.70597e-18
5145.68588 6.75301e-18
5148.58120 6.50190e-18
5151.48667 6.44466e-18
5154.38199 6.57002e-18
5157.27730 6.75073e-18
5160.18278 6.99309e-18
5163.07809 7.23452e-18
5165.98357 7.04718e-18
5168.87888 6.90272e-18
5171.77420 6.90078e-18
5174.67967 6.68901e-18
5177.57499 6.64390e-18
5180.48046 6.53410e-18
5183.37578 6.60054e-18
5186.27109 6.76546e-18
5189.17656 6.95672e-18
5192.07188 7.43489e-18
5194.97735 7.68784e-18
5197.87267 7.52956e-18
5200.77814 7.58581e-18
5203.67346 7.55585e-18
5206.56877 7.46198e-18
5209.47425 7.86441e-18
5212.36956 8.08716e-18
5215.27503 7.85410e-18
5218.17035 7.71322e-18
5221.06567 7.86340e-18
5223.97114 8.28851e-18
5226.86645 8.74135e-18
5229.77193 8.88411e-18
5232.66724 8.54880e-18
5235.56256 8.72672e-18
5238.46803 9.15396e-18
5241.36335 9.23083e-18
5244.26882 9.06022e-18
5247.16414 8.93605e-18
5250.06961 8.89695e-18
5252.96493 8.91840e-18
5255.86024 9.07040e-18
5258.76571 9.24264e-18
5261.66103 9.39726e-18
5264.56650 9.34838e-18
5267.46182 8.99955e-18
5270.35713 8.73669e-18
5273.26261 8.89730e-18
5276.15792 9.01455e-18
5279.06340 9.13962e-18
5281.95871 9.39758e-18
5284.85403 9.51676e-18
5287.75950 9.31435e-18
5290.65482 9.05665e-18
5293.56029 9.27525e-18
5296.45560 9.73621e-18
5299.35092 9.84736e-18
5302.25639 9.65113e-18
5305.15171 9.84036e-18
5308.05718 1.03405e-17
5310.95250 1.04620e-17
5313.85797 1.01011e-17
5316.75329 1.00875e-17
5319.64860 1.01520e-17
5322.55408 1.00066e-17
5325.44939 1.02197e-17
5328.35486 1.03119e-17
5331.25018 1.02890e-17
5334.14549 1.04949e-17
5337.05097 1.05419e-17
5339.94628 1.05127e-17
5342.85176 1.07331e-17
5345.74707 1.08236e-17
5348.64239 1.07244e-17
5351.54786 1.06979e-17
5354.44318 1.09199e-17
5357.34865 1.11075e-17
5360.24397 1.10732e-17
5363.13928 1.12237e-17
5366.04475 1.14399e-17
5368.94007 1.13857e-17
5371.84554 1.11851e-17
5374.74086 1.10987e-17
5377.64633 1.12154e-17
5380.54165 1.14605e-17
5383.43696 1.15484e-17
5386.34244 1.15657e-17
5389.23775 1.15855e-17
5392.14322 1.12944e-17
5395.03854 1.11314e-17
5397.93386 1.15625e-17
5400.83933 1.18330e-17
5403.73464 1.16641e-17
5406.64012 1.12496e-17
5409.53543 1.09170e-17
5412.43075 1.09901e-17
5415.33622 1.13200e-17
5418.23154 1.13318e-17
5421.13701 1.09726e-17
5424.03233 1.10104e-17
5426.93780 1.12303e-17
5429.83312 1.11407e-17
5432.72843 1.11279e-17
5435.63390 1.11591e-17
5438.52922 1.10357e-17
5441.43469 1.07478e-17
5444.33001 1.08534e-17
5447.22532 1.11090e-17
5450.13080 1.12560e-17
5453.02611 1.14931e-17
5455.93159 1.14774e-17
5458.82690 1.09688e-17
5461.72222 1.09947e-17
5464.62769 1.14885e-17
5467.52301 1.14206e-17
5470.42848 1.12035e-17
5473.32379 1.12662e-17
5476.21911 1.14758e-17
5479.12458 1.16620e-17
5482.01990 1.17907e-17
5484.92537 1.19108e-17
5487.82069 1.21529e-17
5490.72616 1.22036e-17
5493.62148 1.18900e-17
5496.51679 1.19089e-17
5499.42227 1.22869e-17
5502.31758 1.24872e-17
5505.22305 1.26367e-17
5508.11837 1.28854e-17
5511.01368 1.30354e-17
5513.91916 1.29322e-17
5516.81447 1.29934e-17
5519.71995 1.34018e-17
5522.61526 1.35524e-17
5525.51058 1.33913e-17
5528.41605 1.34833e-17
5531.31137 1.36933e-17
5534.21684 1.37681e-17
5537.11215 1.39502e-17
5540.01763 1.38976e-17
5542.91294 1.38571e-17
5545.80826 1.37934e-17
5548.71373 1.36390e-17
5551.60905 1.37492e-17
5554.51452 1.41051e-17
5557.40984 1.40082e-17
5560.30515 1.37173e-17
5563.21063 1.35892e-17
5566.10594 1.34444e-17
5569.01142 1.34542e-17
5571.90673 1.35166e-17
5574.80205 1.34805e-17
5577.70752 1.32263e-17
5580.60283 1.30105e-17
5583.50831 1.28855e-17
5586.40362 1.28299e-17
5589.30910 1.29355e-17
5592.20441 1.27948e-17
5595.09973 1.25380e-17
5598.00520 1.24833e-17
5600.90052 1.25234e-17
5603.80599 1.24886e-17
5606.70130 1.24230e-17
5609.59662 1.22490e-17
5612.50209 1.20441e-17
5615.39741 1.21528e-17
5618.30288 1.20168e-17
5621.19820 1.16337e-17
5624.09351 1.16577e-17
5626.99899 1.19350e-17
5629.89430 1.18646e-17
5632.79978 1.17820e-17
5635.69509 1.18440e-17
5638.59041 1.18233e-17
5641.49588 1.18412e-17
5644.39120 1.18119e-17
5647.29667 1.18117e-17
5650.19198 1.19377e-17
5653.09746 1.19704e-17
5655.99277 1.19512e-17
5658.88809 1.19778e-17
5661.79356 1.20533e-17
5664.68888 1.21732e-17
5667.59435 1.21253e-17
5670.48967 1.20868e-17
5673.38498 1.20639e-17
5676.29046 1.22397e-17
5679.18577 1.22642e-17
5682.09124 1.23188e-17
5684.98656 1.23169e-17
5687.88187 1.22627e-17
5690.78735 1.21602e-17
5693.68266 1.20972e-17
5696.58814 1.23243e-17
5699.48345 1.24120e-17
5702.37877 1.24200e-17
5705.28424 1.23451e-17
5708.17956 1.21763e-17
5711.08503 1.21269e-17
5713.98034 1.23878e-17
5716.88582 1.24637e-17
5719.78113 1.21869e-17
5722.67645 1.20096e-17
5725.58192 1.18954e-17
5728.47724 1.17561e-17
5731.38271 1.18302e-17
5734.27803 1.18214e-17
5737.17334 1.17167e-17
5740.07882 1.15540e-17
5742.97413 1.14286e-17
5745.87961 1.13963e-17
5748.77492 1.13847e-17
5751.67023 1.13816e-17
5754.57571 1.09869e-17
5757.47102 1.03753e-17
5760.37650 1.00283e-17
5763.27181 1.00318e-17
5766.17729 1.00586e-17
5769.07260 9.90824e-18
5771.96792 9.62480e-18
5774.87339 9.24119e-18
5777.76871 8.96624e-18
5780.67418 8.68792e-18
5783.56950 8.43163e-18
5786.46481 8.14027e-18
5789.37028 7.81034e-18
5792.26560 7.64552e-18
5795.17107 7.53338e-18
5798.06639 7.42974e-18
5800.96170 7.50686e-18
5803.86718 7.59549e-18
5806.76249 7.33277e-18
5809.66797 7.01623e-18
5812.56328 6.95674e-18
5815.46875 7.15650e-18
5818.36407 7.17185e-18
5821.25938 7.18303e-18
5824.16486 7.39972e-18
5827.06017 7.50001e-18
5829.96565 7.31076e-18
5832.86096 7.30291e-18
5835.75628 7.40570e-18
5838.66175 7.36810e-18
5841.55707 7.43826e-18
5844.46254 7.66111e-18
5847.35786 7.80731e-18
5850.25317 7.98057e-18
5853.15865 8.05225e-18
5856.05396 8.11486e-18
5858.95943 8.24761e-18
5861.85475 8.30354e-18
5864.75006 8.26263e-18
5867.65554 8.21841e-18
5870.55085 8.11487e-18
5873.45633 8.25144e-18
5876.35164 8.56469e-18
5879.25712 8.83556e-18
5882.15243 8.93923e-18
5885.04775 8.96989e-18
5887.95322 9.12335e-18
5890.84854 9.16376e-18
5893.75401 9.21719e-18
5896.64932 9.38156e-18
5899.54464 9.65323e-18
5902.45011 1.00395e-17
5905.34543 1.02987e-17
5908.25090 1.06040e-17
5911.14622 1.07604e-17
5914.04153 1.07272e-17
5916.94701 1.09165e-17
5919.84232 1.10843e-17
5922.74780 1.11872e-17
5925.64311 1.13843e-17
5928.53842 1.15719e-17
5931.44390 1.16476e-17
5934.33921 1.16637e-17
5937.24469 1.17319e-17
5940.14000 1.18569e-17
5943.04548 1.19595e-17
5945.94079 1.21426e-17
5948.83611 1.22545e-17
5951.74158 1.25240e-17
5954.63690 1.27671e-17
5957.54237 1.27788e-17
5960.43768 1.28102e-17
5963.33300 1.29442e-17
5966.23847 1.30924e-17
5969.13379 1.31874e-17
5972.03926 1.32297e-17
5974.93458 1.28909e-17
5977.82989 1.25193e-17
5980.73537 1.20957e-17
5983.63068 1.15394e-17
5986.53616 1.13561e-17
5989.43147 1.16655e-17
5992.32679 1.22004e-17
5995.23226 1.25359e-17
5998.12758 1.25560e-17
6001.03305 1.26453e-17
6003.92836 1.29453e-17
6006.83384 1.31043e-17
6009.72915 1.30341e-17
6012.62447 1.28198e-17
6015.52994 1.26422e-17
6018.42526 1.26646e-17
6021.33073 1.26940e-17
6024.22605 1.26346e-17
6027.12136 1.26885e-17
6030.02683 1.25772e-17
6032.92215 1.24757e-17
6035.82762 1.26922e-17
6038.72294 1.27685e-17
6041.61825 1.26132e-17
6044.52373 1.23617e-17
6047.41904 1.22004e-17
6050.32452 1.21361e-17
6053.21983 1.20507e-17
6056.12531 1.19168e-17
6059.02062 1.18092e-17
6061.91594 1.18338e-17
6064.82141 1.18085e-17
6067.71673 1.17179e-17
6070.62220 1.19316e-17
6073.51751 1.20953e-17
6076.41283 1.19944e-17
6079.31830 1.19111e-17
6082.21362 1.18951e-17
6085.11909 1.18819e-17
6088.01441 1.18384e-17
6090.90972 1.18126e-17
6093.81520 1.18396e-17
6096.71051 1.18258e-17
6099.61598 1.16096e-17
6102.51130 1.13611e-17
6105.41677 1.12019e-17
6108.31209 1.10901e-17
6111.20740 1.10553e-17
6114.11288 1.10631e-17
6117.00819 1.11810e-17
6119.91367 1.11792e-17
6122.80898 1.10067e-17
6125.70430 1.08216e-17
6128.60977 1.07429e-17
6131.50509 1.07724e-17
6134.41056 1.06748e-17
6137.30588 1.06020e-17
6140.20119 1.04228e-17
6143.10666 1.01290e-17
6146.00198 1.00298e-17
6148.90745 1.00723e-17
6151.80277 1.01061e-17
6154.70824 1.00684e-17
6157.60356 9.99823e-18
6160.49887 9.98986e-18
6163.40435 1.02197e-17
6166.29966 1.04746e-17
6169.20514 1.04312e-17
6172.10045 1.03551e-17
6174.99577 1.04221e-17
6177.90124 1.04408e-17
6180.79655 1.04447e-17
6183.70203 1.05455e-17
6186.59734 1.06620e-17
6189.49266 1.07470e-17
6192.39813 1.10318e-17
6195.29345 1.11379e-17
6198.19892 1.11497e-17
6201.09424 1.12436e-17
6203.99971 1.14135e-17
6206.89502 1.15204e-17
6209.79034 1.13418e-17
6212.69581 1.13077e-17
6215.59113 1.15011e-17
6218.49660 1.17027e-17
6221.39192 1.19323e-17
6224.28723 1.19754e-17
6227.19271 1.18200e-17
6230.08802 1.17749e-17
6232.99350 1.17836e-17
6235.88881 1.18116e-17
6238.78413 1.19266e-17
6241.68960 1.19449e-17
6244.58492 1.18586e-17
6247.49039 1.17810e-17
6250.38570 1.18009e-17
6253.28102 1.19120e-17
6256.18649 1.18695e-17
6259.08181 1.17398e-17
6261.98728 1.16916e-17
6264.88260 1.16476e-17
6267.78807 1.15886e-17
6270.68339 1.15771e-17
6273.57870 1.15741e-17
6276.48418 1.16911e-17
6279.37949 1.17734e-17
6282.28496 1.15416e-17
6285.18028 1.13239e-17
6288.07559 1.14507e-17
6290.98107 1.16035e-17
6293.87638 1.18188e-17
6296.78186 1.20492e-17
6299.67717 1.18945e-17
6302.57249 1.17759e-17
6305.47796 1.18146e-17
6308.37328 1.17534e-17
6311.27875 1.18059e-17
6314.17407 1.19891e-17
6317.07954 1.20717e-17
6319.97485 1.21072e-17
6322.87017 1.22085e-17
6325.77564 1.22809e-17
6328.67096 1.24673e-17
6331.57643 1.24704e-17
6334.47175 1.22476e-17
6337.36706 1.21288e-17
6340.27254 1.21710e-17
6343.16785 1.21540e-17
6346.07333 1.21668e-17
6348.96864 1.24077e-17
6351.86395 1.25541e-17
6354.76943 1.23186e-17
6357.66474 1.22379e-17
6360.57022 1.23931e-17
6363.46553 1.24201e-17
6366.36085 1.25397e-17
6369.26632 1.25745e-17
6372.16164 1.26621e-17
6375.06711 1.27545e-17
6377.96243 1.26481e-17
6380.86790 1.23931e-17
6383.76322 1.22266e-17
6386.65853 1.24300e-17
6389.56400 1.27991e-17
6392.45932 1.29385e-17
6395.36479 1.28738e-17
6398.26011 1.28828e-17
6401.15542 1.30138e-17
6404.06090 1.31047e-17
6406.95621 1.31936e-17
6409.86169 1.30184e-17
6412.75700 1.28075e-17
6415.65232 1.28017e-17
6418.55779 1.28675e-17
6421.45310 1.26745e-17
6424.35858 1.27064e-17
6427.25389 1.29154e-17
6430.15937 1.29334e-17
6433.05468 1.28199e-17
6435.95000 1.27236e-17
6438.85547 1.28571e-17
6441.75079 1.30264e-17
6444.65626 1.30052e-17
6447.55158 1.26126e-17
6450.44689 1.22738e-17
6453.35237 1.22997e-17
6456.24768 1.24027e-17
6459.15315 1.24369e-17
6462.04847 1.24599e-17
6464.94378 1.25521e-17
6467.84926 1.25737e-17
6470.74457 1.23034e-17
6473.65005 1.21256e-17
6476.54536 1.22964e-17
6479.45084 1.24718e-17
6482.34615 1.24585e-17
6485.24147 1.22992e-17
6488.14694 1.22173e-17
6491.04226 1.25617e-17
6493.94773 1.28726e-17
6496.84304 1.28076e-17
6499.73836 1.27156e-17
6502.64383 1.26022e-17
6505.53915 1.24193e-17
6508.44462 1.23473e-17
6511.33994 1.24898e-17
6514.23525 1.27399e-17
6517.14073 1.27475e-17
6520.03604 1.26020e-17
6522.94152 1.24540e-17
6525.83683 1.24031e-17
6528.73214 1.24841e-17
6531.63762 1.25144e-17
6534.53293 1.24183e-17
6537.43841 1.24273e-17
6540.33372 1.25104e-17
6543.23920 1.25409e-17
6546.13451 1.25120e-17
6549.02983 1.25451e-17
6551.93530 1.26567e-17
6554.83062 1.28571e-17
6557.73609 1.28055e-17
6560.63141 1.25933e-17
6563.52672 1.25077e-17
6566.43219 1.25519e-17
6569.32751 1.25709e-17
6572.23298 1.25889e-17
6575.12830 1.25733e-17
6578.02361 1.26129e-17
6580.92909 1.27265e-17
6583.82440 1.27022e-17
6586.72988 1.25811e-17
6589.62519 1.25286e-17
6592.52051 1.24229e-17
6595.42598 1.22492e-17
6598.32130 1.21952e-17
6601.22677 1.23165e-17
6604.12208 1.24463e-17
6607.02756 1.24277e-17
6609.92287 1.23206e-17
6612.81819 1.22790e-17
6615.72366 1.23410e-17
6618.61898 1.22907e-17
6621.52445 1.22227e-17
6624.41977 1.23030e-17
6627.31508 1.23578e-17
6630.22055 1.22681e-17
6633.11587 1.21300e-17
6636.02134 1.21223e-17
6638.91666 1.21343e-17
6641.81197 1.21463e-17
6644.71745 1.21582e-17
6647.61276 1.21702e-17
6650.51824 1.21821e-17
6653.41355 1.21941e-17
6656.30887 1.22061e-17
6659.21434 1.22180e-17
6662.10966 1.22300e-17
6665.01513 1.22419e-17
6667.91045 1.22539e-17
6670.81592 1.22658e-17
6673.71123 1.22778e-17
6676.60655 1.22897e-17
6679.51202 1.23017e-17
6682.40734 1.23137e-17
6685.31281 1.23256e-17
6688.20813 1.23376e-17
6691.10344 1.23495e-17
6694.00892 1.23615e-17
6696.90423 1.23734e-17
6699.80970 1.23854e-17
6702.70502 1.24496e-17
6705.60034 1.22683e-17
6708.50581 1.19854e-17
6711.40112 1.17128e-17
6714.30660 1.15670e-17
6717.20191 1.16795e-17
6720.10739 1.18183e-17
6723.00270 1.18695e-17
6725.89802 1.17131e-17
6728.80349 1.15891e-17
6731.69881 1.15377e-17
6734.60428 1.14119e-17
6737.49960 1.12729e-17
6740.39491 1.11666e-17
6743.30038 1.12639e-17
6746.19570 1.13272e-17
6749.10117 1.10487e-17
6751.99649 1.09503e-17
6754.89180 1.10973e-17
6757.79728 1.11913e-17
6760.69259 1.12344e-17
6763.59807 1.10531e-17
6766.49338 1.08398e-17
6769.39886 1.07585e-17
6772.29417 1.08240e-17
6775.18948 1.08991e-17
6778.09496 1.08451e-17
6780.99027 1.07772e-17
6783.89575 1.06132e-17
6786.79106 1.06393e-17
6789.68638 1.06776e-17
6792.59185 1.05899e-17
6795.48717 1.05695e-17
6798.39264 1.05534e-17
6801.28796 1.04803e-17
6804.18327 1.02972e-17
6807.08875 1.02853e-17
6809.98406 1.02086e-17
6812.88953 1.01919e-17
6815.78485 1.03349e-17
6818.68016 1.03750e-17
6821.58564 1.03295e-17
6824.48095 1.01937e-17
6827.38643 1.01691e-17
6830.28174 1.02539e-17
6833.18722 1.01984e-17
6836.08253 1.01499e-17
6838.97785 1.00417e-17
6841.88332 9.88129e-18
6844.77863 9.72118e-18
6847.68411 9.47596e-18
6850.57942 9.36612e-18
6853.47474 9.42759e-18
6856.38021 9.51267e-18
6859.27553 9.57579e-18
6862.18100 9.58965e-18
6865.07632 9.59550e-18
6867.97163 9.57222e-18
6870.87711 9.65766e-18
6873.77242 9.69604e-18
6876.67790 9.66694e-18
6879.57321 9.43929e-18
6882.46853 9.23422e-18
6885.37400 9.08115e-18
6888.26931 8.95961e-18
6891.17479 9.05857e-18
6894.07010 9.23221e-18
6896.97558 9.18452e-18
6899.87089 9.02666e-18
6902.76621 8.93948e-18
6905.67168 8.91712e-18
6908.56700 8.85569e-18
6911.47247 8.83756e-18
6914.36778 8.85849e-18
6917.26310 8.93304e-18
6920.16857 8.91976e-18
6923.06389 8.88349e-18
6925.96936 8.96467e-18
6928.86468 8.95033e-18
6931.75999 8.84156e-18
6934.66547 8.77249e-18
6937.56078 8.80909e-18
6940.46626 8.87017e-18
6943.36157 8.78893e-18
6946.26705 8.52143e-18
6949.16236 8.42474e-18
6952.05768 8.61165e-18
6954.96315 8.62762e-18
6957.85846 8.52934e-18
6960.76394 8.63467e-18
6963.65925 8.83710e-18
6966.55457 8.86526e-18
6969.46004 8.64092e-18
6972.35536 8.54934e-18
6975.26083 8.53704e-18
6978.15615 8.51059e-18
6981.05146 8.68085e-18
6983.95694 8.75763e-18
6986.85225 8.70700e-18
6989.75772 8.75181e-18
6992.65304 8.70022e-18
6995.54835 8.60808e-18
6998.45383 8.65818e-18
7001.34914 8.78958e-18
7004.25462 8.89252e-18
7007.14993 8.93744e-18
7010.05541 8.89106e-18
7012.95072 8.75636e-18
7015.84604 8.81491e-18
7018.75151 8.98368e-18
7021.64682 9.08104e-18
7024.55230 9.08859e-18
7027.44761 9.06070e-18
7030.34293 9.17676e-18
7033.24840 9.24560e-18
7036.14372 9.28373e-18
7039.04919 9.38889e-18
7041.94451 9.30583e-18
7044.83982 9.23286e-18
7047.74530 9.27802e-18
7050.64061 9.39530e-18
7053.54608 9.48596e-18
7056.44140 9.52887e-18
7059.34687 9.69640e-18
7062.24219 9.78761e-18
7065.13750 9.66278e-18
7068.04298 9.61372e-18
7070.93829 9.70138e-18
7073.84377 9.75002e-18
7076.73908 9.76524e-18
7079.63440 9.78652e-18
7082.53987 9.70331e-18
7085.43519 9.50427e-18
7088.34066 9.47748e-18
7091.23598 9.53239e-18
7094.13129 9.54485e-18
7097.03676 9.46214e-18
7099.93208 9.31723e-18
7102.83755 9.18362e-18
7105.73287 9.18290e-18
7108.63834 9.15017e-18
7111.53366 9.22549e-18
7114.42897 9.33661e-18
7117.33445 9.36605e-18
7120.22976 9.27434e-18
7123.13523 9.01891e-18
7126.03055 8.97336e-18
7128.92587 9.16799e-18
7131.83134 9.22478e-18
7134.72665 9.16553e-18
7137.63213 9.14651e-18
7140.52744 9.23286e-18
7143.42276 9.40557e-18
7146.32823 9.35197e-18
7149.22355 9.23759e-18
7152.12902 9.25870e-18
7155.02434 9.29732e-18
7157.92981 9.16712e-18
7160.82513 8.92194e-18
7163.72044 8.91302e-18
7166.62591 9.08085e-18
7169.52123 9.14097e-18
7172.42670 9.16968e-18
7175.32202 9.26977e-18
7178.21733 9.28010e-18
7181.12281 9.23906e-18
7184.01812 9.21485e-18
7186.92360 9.14736e-18
7189.81891 9.10990e-18
7192.71423 9.25400e-18
7195.61970 9.27276e-18
7198.51502 9.17426e-18
7201.42049 9.05713e-18
7204.31580 9.10432e-18
7207.21112 9.44947e-18
7210.11659 9.67324e-18
7213.01191 9.66859e-18
7215.91738 9.68951e-18
7218.81270 9.67046e-18
7221.71817 9.49577e-18
7224.61349 9.43049e-18
7227.50880 9.63072e-18
7230.41428 9.91269e-18
7233.30959 1.00345e-17
7236.21506 1.01044e-17
7239.11038 1.01146e-17
7242.00569 1.00081e-17
7244.91117 9.93394e-18
7247.80648 1.00173e-17
7250.71196 1.01887e-17
7253.60727 1.02190e-17
7256.50259 1.00889e-17
7259.40806 1.02639e-17
7262.30338 1.05676e-17
7265.20885 1.07021e-17
7268.10417 1.07392e-17
7271.00964 1.08576e-17
7273.90495 1.09037e-17
7276.80027 1.08086e-17
7279.70574 1.07217e-17
7282.60106 1.06813e-17
7285.50653 1.07159e-17
7288.40185 1.09156e-17
7291.29716 1.10234e-17
7294.20264 1.10287e-17
7297.09795 1.10417e-17
7300.00342 1.09996e-17
7302.89874 1.10576e-17
7305.79406 1.10783e-17
7308.69953 1.10035e-17
7311.59484 1.08867e-17
7314.50032 1.08008e-17
7317.39563 1.08352e-17
7320.29095 1.10474e-17
7323.19642 1.12643e-17
7326.09174 1.13619e-17
7328.99721 1.12971e-17
7331.89253 1.11493e-17
7334.79800 1.09460e-17
7337.69332 1.08275e-17
7340.58863 1.07900e-17
7343.49410 1.08272e-17
7346.38942 1.09897e-17
7349.29489 1.11571e-17
7352.19021 1.11792e-17
7355.08552 1.12651e-17
7357.99100 1.14481e-17
7360.88631 1.13964e-17
7363.79179 1.13170e-17
7366.68710 1.13587e-17
7369.58242 1.12675e-17
7372.48789 1.11507e-17
7375.38321 1.12167e-17
7378.28868 1.14300e-17
7381.18399 1.17257e-17
7384.08947 1.20531e-17
7386.98478 1.22776e-17
7389.88010 1.22541e-17
7392.78557 1.21101e-17
7395.68089 1.18318e-17
7398.58636 1.16443e-17
7401.48168 1.17163e-17
7404.37699 1.17660e-17
7407.28247 1.17797e-17
7410.17778 1.18914e-17
7413.08325 1.21733e-17
7415.97857 1.24162e-17
7418.87388 1.24314e-17
7421.77936 1.23068e-17
7424.67467 1.21896e-17
7427.58015 1.21451e-17
7430.47546 1.19424e-17
7433.38094 1.17654e-17
7436.27625 1.16200e-17
7439.17157 1.15392e-17
7442.07704 1.15796e-17
7444.97235 1.17847e-17
7447.87783 1.19233e-17
7450.77314 1.18112e-17
7453.66846 1.17192e-17
7456.57393 1.17029e-17
7459.46925 1.15539e-17
7462.37472 1.13585e-17
7465.27004 1.11607e-17
7468.16535 1.09919e-17
7471.07083 1.08981e-17
7473.96614 1.09749e-17
7476.87162 1.11585e-17
7479.76693 1.12756e-17
7482.66225 1.13182e-17
7485.56772 1.11813e-17
7488.46303 1.08739e-17
7491.36851 1.06827e-17
7494.26382 1.06548e-17
7497.16930 1.06780e-17
7500.06461 1.07432e-17
7502.95993 1.08349e-17
7505.86540 1.10134e-17
7508.76072 1.12096e-17
7511.66619 1.13671e-17
7514.56150 1.14608e-17
7517.45682 1.13084e-17
7520.36229 1.10942e-17
7523.25761 1.10144e-17
7526.16308 1.07746e-17
7529.05840 1.04785e-17
7531.95371 1.04331e-17
7534.85919 1.03508e-17
7537.75450 1.03938e-17
7540.65998 1.05295e-17
7543.55529 1.05932e-17
7546.45061 1.05273e-17
7549.35608 1.03625e-17
7552.25140 1.03440e-17
7555.15687 1.05035e-17
7558.05218 1.04851e-17
7560.95766 1.02057e-17
7563.85297 9.87930e-18
7566.74829 9.70120e-18
7569.65376 9.62883e-18
7572.54908 9.55928e-18
7575.45455 9.58640e-18
7578.34987 9.73310e-18
7581.24518 9.77801e-18
7584.15066 9.45693e-18
7587.04597 9.21043e-18
7589.95144 9.16947e-18
7592.84676 9.26854e-18
7595.74207 9.55330e-18
7598.64755 9.49330e-18
7601.54286 8.99868e-18
7604.44834 8.70002e-18
7607.34365 8.49398e-18
7610.23897 8.28249e-18
7613.14444 8.25026e-18
7616.03976 7.93491e-18
7618.94523 7.51398e-18
7621.84055 7.36424e-18
7624.74602 7.39773e-18
7627.64133 7.42097e-18
7630.53665 7.40543e-18
7633.44212 7.26839e-18
7636.33744 7.11513e-18
7639.24291 6.86031e-18
7642.13823 6.51738e-18
7645.03354 6.23403e-18
7647.93902 6.30594e-18
7650.83433 6.41943e-18
7653.73981 6.27625e-18
7656.63512 6.07963e-18
7659.53043 5.98931e-18
7662.43591 5.90411e-18
7665.33122 5.88534e-18
7668.23670 5.88665e-18
7671.13201 5.92699e-18
7674.03749 5.96653e-18
7676.93280 5.96951e-18
7679.82812 6.03758e-18
7682.73359 6.14892e-18
7685.62891 6.16201e-18
7688.53438 6.29899e-18
7691.42970 6.60748e-18
7694.32501 6.80220e-18
7697.23048 6.85111e-18
7700.12580 6.88715e-18
7703.03127 6.96651e-18
7705.92659 6.98765e-18
7708.82190 7.03235e-18
7711.72738 7.25179e-18
7714.62269 7.38830e-18
7717.52817 7.27766e-18
7720.42348 7.28509e-18
7723.32895 7.53534e-18
7726.22427 7.72419e-18
7729.11958 7.86504e-18
7732.02506 8.00332e-18
7734.92037 8.11206e-18
7737.82585 8.14207e-18
7740.72116 8.08861e-18
7743.61648 8.14618e-18
7746.52195 8.41782e-18
7749.41727 8.58498e-18
7752.32274 8.51660e-18
7755.21806 8.39573e-18
7758.11337 8.61593e-18
7761.01885 9.03782e-18
7763.91416 9.34439e-18
7766.81963 9.58086e-18
7769.71495 9.70811e-18
7772.61026 9.62507e-18
7775.51574 9.41420e-18
7778.41105 9.33453e-18
7781.31653 9.59120e-18
7784.21184 9.82241e-18
7787.11732 9.97363e-18
7790.01263 1.00293e-17
7792.90795 1.01474e-17
7795.81342 1.04289e-17
7798.70874 1.07455e-17
7801.61421 1.10433e-17
7804.50952 1.14832e-17
7807.40484 1.17034e-17
7810.31031 1.16366e-17
7813.20563 1.14107e-17
7816.11110 1.12214e-17
7819.00642 1.11555e-17
7821.90173 1.11524e-17
7824.80721 1.12748e-17
7827.70252 1.13996e-17
7830.60800 1.14684e-17
7833.50331 1.15528e-17
7836.39862 1.18056e-17
7839.30410 1.21153e-17
7842.19941 1.24436e-17
7845.10489 1.27013e-17
7848.00020 1.26101e-17
7850.90568 1.26125e-17
7853.80099 1.28178e-17
7856.69631 1.25931e-17
7859.60178 1.22368e-17
7862.49710 1.22357e-17
7865.40257 1.23606e-17
7868.29788 1.25216e-17
7871.19320 1.27326e-17
7874.09867 1.27429e-17
7876.99399 1.27251e-17
7879.89946 1.30533e-17
7882.79478 1.33895e-17
7885.69009 1.33565e-17
7888.59557 1.32033e-17
7891.49088 1.31041e-17
7894.39636 1.31611e-17
7897.29167 1.31973e-17
7900.19715 1.29773e-17
7903.09246 1.26878e-17
7905.98778 1.26880e-17
7908.89325 1.29664e-17
7911.78856 1.30643e-17
7914.69404 1.29399e-17
7917.58935 1.30157e-17
7920.48467 1.30926e-17
7923.39014 1.31279e-17
7926.28546 1.31461e-17
7929.19093 1.31077e-17
7932.08625 1.29932e-17
7934.98156 1.28145e-17
7937.88703 1.26234e-17
7940.78235 1.24848e-17
7943.68782 1.23283e-17
7946.58314 1.22739e-17
7949.48861 1.23107e-17
7952.38393 1.22577e-17
7955.27924 1.22536e-17
7958.18472 1.23887e-17
7961.08003 1.27074e-17
7963.98551 1.29442e-17
7966.88082 1.27871e-17
7969.77614 1.24736e-17
7972.68161 1.23889e-17
7975.57693 1.23967e-17
7978.48240 1.23258e-17
7981.37771 1.21883e-17
7984.27303 1.20765e-17
7987.17850 1.18746e-17
7990.07382 1.17688e-17
7992.97929 1.15765e-17
7995.87461 1.13364e-17
7998.76992 1.14784e-17
8001.67540 1.19234e-17
8004.57071 1.21014e-17
8007.47618 1.19988e-17
8010.37150 1.20371e-17
8013.27697 1.20959e-17
8016.17229 1.21987e-17
8019.06760 1.22988e-17
8021.97308 1.20326e-17
8024.86839 1.17058e-17
8027.77387 1.15075e-17
8030.66918 1.12452e-17
8033.56450 1.11706e-17
8036.46997 1.12715e-17
8039.36529 1.13097e-17
8042.27076 1.13341e-17
8045.16608 1.12871e-17
8048.06139 1.12365e-17
8050.96686 1.11535e-17
8053.86218 1.13175e-17
8056.76765 1.15606e-17
8059.66297 1.15355e-17
8062.56844 1.14755e-17
8065.46376 1.13989e-17
8068.35907 1.11865e-17
8071.26455 1.10553e-17
8074.15986 1.08577e-17
8077.06534 1.06277e-17
8079.96065 1.05452e-17
8082.85597 1.06426e-17
8085.76144 1.07569e-17
8088.65675 1.06671e-17
8091.56223 1.04016e-17
8094.45754 1.03525e-17
8097.35286 1.04642e-17
8100.25833 1.05710e-17
8103.15365 1.05074e-17
8106.05912 1.03268e-17
8108.95444 1.00318e-17
8111.85991 9.98854e-18
8114.75522 1.00953e-17
8117.65054 9.99706e-18
8120.55601 9.64305e-18
8123.45133 9.27978e-18
8126.35680 9.06190e-18
8129.25212 8.99987e-18
8132.14743 9.12360e-18
8135.05291 9.15645e-18
8137.94822 9.04834e-18
8140.85370 9.03042e-18
8143.74901 9.02892e-18
8146.64433 8.91065e-18
8149.54980 8.77545e-18
8152.44512 8.80691e-18
8155.35059 8.83608e-18
8158.24590 8.64415e-18
8161.15138 8.42099e-18
8164.04669 8.22827e-18
8166.94201 7.95628e-18
8169.84748 7.92972e-18
8172.74280 8.00373e-18
8175.64827 7.90054e-18
8178.54359 7.80591e-18
8181.43890 7.81892e-18
8184.34438 7.76564e-18
8187.23969 7.64197e-18
8190.14516 7.62275e-18
8193.04048 7.64654e-18
8195.93579 7.54865e-18
8198.84127 7.43031e-18
8201.73658 7.30027e-18
8204.64206 7.17252e-18
8207.53737 6.92658e-18
8210.43269 6.74333e-18
8213.33816 6.75691e-18
8216.23348 6.67446e-18
8219.13895 6.44616e-18
8222.03427 6.29066e-18
8224.92958 6.16069e-18
8227.83505 5.92578e-18
8230.73037 5.73625e-18
8233.63584 5.85060e-18
8236.53116 6.07255e-18
8239.43663 6.02899e-18
8242.33195 5.91687e-18
8245.22726 5.89343e-18
8248.13274 5.80719e-18
8251.02805 5.68947e-18
8253.93353 5.61596e-18
8256.82884 5.53710e-18
8259.72415 5.26616e-18
8262.62963 4.98872e-18
8265.52494 4.88820e-18
8268.43042 4.86813e-18
8271.32573 4.81650e-18
8274.23121 4.51594e-18
8277.12652 4.24623e-18
8280.02184 4.29780e-18
8282.92731 4.44876e-18
8285.82263 4.40686e-18
8288.72810 4.23193e-18
8291.62342 4.08865e-18
8294.51873 4.24349e-18
8297.42420 4.24455e-18
8300.31952 3.88134e-18
8303.22499 3.63697e-18
8306.12031 3.56700e-18
8309.01562 3.58224e-18
8311.92110 3.59992e-18
8314.81641 3.52210e-18
8317.72189 3.42246e-18
8320.61720 3.36426e-18
8323.52268 3.39525e-18
8326.41799 3.27542e-18
8329.31331 3.13188e-18
8332.21878 3.29382e-18
8335.11409 3.41678e-18
8338.00941 3.35002e-18
8340.91488 3.37029e-18
8343.81020 3.24784e-18
8346.71567 2.91141e-18
8349.61099 2.75468e-18
8352.51646 2.77244e-18
8355.41178 2.68348e-18
8358.30709 2.56987e-18
8361.21256 2.62151e-18
8364.10788 2.56053e-18
8367.01335 2.58292e-18
8369.90867 2.76181e-18
8372.80398 2.80749e-18
8375.70946 2.86697e-18
8378.60477 2.79802e-18
8381.51025 2.57718e-18
8384.40556 2.71245e-18
8387.30088 3.06123e-18
8390.20635 3.28646e-18
8393.10167 3.39525e-18
8396.00714 3.41833e-18
8398.90246 3.32544e-18
8401.80793 3.13478e-18
8404.70324 3.08092e-18
8407.59856 3.43915e-18
8410.50403 3.69987e-18
8413.39935 3.69304e-18
8416.30482 3.74949e-18
8419.20014 3.83624e-18
8422.09545 3.76892e-18
8425.00093 3.79840e-18
8427.89624 4.09914e-18
8430.80172 4.35576e-18
8433.69703 4.19702e-18
8436.59234 3.99590e-18
8439.49782 4.18176e-18
8442.39313 4.50708e-18
8445.29861 4.85738e-18
8448.19392 5.05235e-18
8451.09940 5.09923e-18
8453.99471 5.17139e-18
8456.89003 5.12600e-18
8459.79550 5.10237e-18
8462.69082 5.21953e-18
8465.59629 5.34770e-18
8468.49161 5.44937e-18
8471.38692 5.48868e-18
8474.29239 5.76215e-18
8477.18771 5.96695e-18
8480.09318 5.68629e-18
8482.98850 5.60106e-18
8485.88381 5.80382e-18
8488.78929 6.07666e-18
8491.68460 6.13331e-18
8494.59008 5.97589e-18
8497.48539 5.92351e-18
8500.38071 5.82575e-18
8503.28618 5.67480e-18
8506.18149 5.69582e-18
8509.08697 5.73291e-18
8511.98228 5.77080e-18
8514.88776 5.80529e-18
8517.78307 5.78488e-18
8520.67839 5.86132e-18
8523.58386 6.09613e-18
8526.47918 6.32682e-18
8529.38465 6.50829e-18
8532.27997 6.79269e-18
8535.17528 6.96300e-18
8538.08076 7.05306e-18
8540.97607 7.32444e-18
8543.88154 7.56989e-18
8546.77686 7.81036e-18
8549.67217 8.02388e-18
8552.57765 8.08298e-18
8555.47296 8.06689e-18
8558.37844 8.05823e-18
8561.27375 8.22982e-18
8564.17923 8.59095e-18
8567.07454 8.86012e-18
8569.96986 9.01999e-18
8572.87533 9.46495e-18
8575.77064 1.00258e-17
8578.67612 1.01881e-17
8581.57143 1.03546e-17
8584.46675 1.08257e-17
8587.37222 1.13461e-17
8590.26754 1.18251e-17
8593.17301 1.22150e-17
8596.06833 1.24450e-17
8598.96364 1.25562e-17
8601.86912 1.26651e-17
8604.76443 1.28049e-17
8607.66991 1.29705e-17
8610.56522 1.30289e-17
8613.47069 1.31586e-17
8616.36601 1.35101e-17
8619.26132 1.36674e-17
8622.16680 1.40860e-17
8625.06211 1.47021e-17
8627.95743 1.51174e-17
8630.86290 1.56076e-17
8633.75822 1.58809e-17
8636.66369 1.63423e-17
8639.55901 1.68265e-17
8642.46448 1.70467e-17
8645.35980 1.71980e-17
8648.25511 1.74641e-17
8651.16058 1.75176e-17
8654.05590 1.72566e-17
8656.96137 1.70254e-17
8659.85669 1.70708e-17
8662.75200 1.74291e-17
8665.65748 1.79489e-17
8668.55279 1.84796e-17
8671.45827 1.86555e-17
8674.35358 1.88584e-17
8677.24890 1.93824e-17
8680.15437 1.96873e-17
8683.04968 1.99302e-17
8685.95516 2.04114e-17
8688.85047 2.07746e-17
8691.75595 2.09454e-17
8694.65126 2.10778e-17
8697.54658 2.11922e-17
8700.45205 2.10585e-17
8703.34737 2.08140e-17
8706.25284 2.08961e-17
8709.14816 2.09583e-17
8712.04347 2.10757e-17
8714.94895 2.13144e-17
8717.84426 2.15698e-17
8720.74973 2.19762e-17
8723.64505 2.26375e-17
8726.54036 2.32077e-17
8729.44584 2.35275e-17
8732.34115 2.37317e-17
8735.24663 2.39054e-17
8738.14194 2.38288e-17
8741.04742 2.35271e-17
8743.94273 2.31061e-17
8746.83805 2.26425e-17
8749.74352 2.24782e-17
8752.63883 2.26816e-17
8755.54431 2.27239e-17
8758.43962 2.24766e-17
8761.33494 2.22978e-17
8764.24041 2.23350e-17
8767.13573 2.26923e-17
8770.04120 2.30412e-17
8772.93652 2.30807e-17
8775.84199 2.31243e-17
8778.73731 2.31911e-17
8781.63262 2.31112e-17
8784.53809 2.30010e-17
8787.43341 2.30232e-17
8790.32872 2.26792e-17
8793.23420 2.22100e-17
8796.12951 2.16458e-17
8799.03499 2.12486e-17
8801.93030 2.12130e-17
8804.83578 2.10992e-17
8807.73109 2.09050e-17
8810.62641 2.10121e-17
8813.53188 2.11364e-17
8816.42720 2.11847e-17
8819.33267 2.13520e-17
8822.22798 2.16327e-17
8825.12330 2.18147e-17
8828.02877 2.17546e-17
8830.92409 2.13436e-17
8833.82956 2.07608e-17
8836.72488 2.02387e-17
8839.62019 1.96679e-17
8842.52567 1.91377e-17
8845.42098 1.87975e-17
8848.32646 1.85353e-17
8851.22177 1.82952e-17
8854.12724 1.80814e-17
8857.02256 1.79530e-17
8859.91788 1.81436e-17
8862.82335 1.82808e-17
8865.71866 1.83702e-17
8868.62414 1.84224e-17
8871.51945 1.83598e-17
8874.41477 1.81204e-17
8877.32024 1.81558e-17
8880.21556 1.84947e-17
8883.12103 1.85857e-17
8886.01635 1.83682e-17
8888.91166 1.79558e-17
8891.81713 1.72503e-17
8894.71245 1.65342e-17
8897.61792 1.60910e-17
8900.51324 1.56672e-17
8903.41871 1.51975e-17
8906.31403 1.49258e-17
8909.20934 1.49581e-17
8912.11482 1.49797e-17
8915.01013 1.46552e-17
8917.91561 1.42615e-17
8920.81092 1.38957e-17
8923.70624 1.37193e-17
8926.61171 1.37879e-17
8929.50703 1.38002e-17
8932.41250 1.35913e-17
8935.30781 1.32515e-17
8938.20313 1.31173e-17
8941.10860 1.28517e-17
8944.00392 1.23421e-17
8946.90939 1.17692e-17
8949.80471 1.12043e-17
8952.70002 1.07352e-17
8955.60550 1.05139e-17
8958.50081 1.04128e-17
8961.40628 1.01242e-17
8964.30160 9.87690e-18
8967.20707 9.76260e-18
8970.10239 9.66838e-18
8972.99770 9.71318e-18
8975.90318 9.77437e-18
8978.79849 9.70182e-18
8981.70397 9.62194e-18
8984.59928 9.54534e-18
8987.49460 9.40433e-18
8990.40007 9.49324e-18
8993.29539 9.54345e-18
8996.20086 9.34712e-18
8999.09618 9.22733e-18
9001.99149 8.94119e-18
9004.89696 8.60552e-18
9007.79228 8.68090e-18
9010.69775 8.73912e-18
9013.59307 8.47635e-18
9016.49854 8.35307e-18
9019.39386 8.59362e-18
9022.28917 8.90582e-18
9025.19465 9.06556e-18
9028.08996 9.23791e-18
9030.99544 9.45107e-18
9033.89075 9.57240e-18
9036.78607 9.69234e-18
9039.69154 9.80632e-18
9042.58685 9.76557e-18
9045.49233 9.57738e-18
9048.38764 9.44351e-18
9051.28296 9.31099e-18
9054.18843 8.92238e-18
9057.08375 8.62314e-18
9059.98922 8.56814e-18
9062.88454 8.56947e-18
9065.79001 8.51756e-18
9068.68533 8.41578e-18
9071.58064 8.52211e-18
9074.48611 8.67381e-18
9077.38143 8.63900e-18
9080.28690 8.56638e-18
9083.18222 8.59271e-18
9086.07753 8.79321e-18
9088.98301 8.93665e-18
9091.87832 8.83929e-18
9094.78380 8.64597e-18
9097.67911 8.45196e-18
9100.57443 8.21731e-18
9103.47990 8.05081e-18
9106.37522 8.00385e-18
9109.28069 7.95380e-18
9112.17600 7.95599e-18
9115.08148 8.00255e-18
9117.97679 7.96770e-18
9120.87211 8.07755e-18
9123.77758 8.21987e-18
9126.67290 7.92877e-18
9129.57837 7.84103e-18
9132.47369 8.07793e-18
9135.36900 8.07401e-18
9138.27448 8.07562e-18
9141.16979 8.24881e-18
9144.07526 8.45941e-18
9146.97058 8.44306e-18
9149.86589 8.16105e-18
9152.77137 7.90803e-18
9155.66668 7.70919e-18
9158.57216 7.60371e-18
9161.46747 7.73268e-18
9164.37295 7.93125e-18
9167.26826 8.05617e-18
9170.16358 8.02714e-18
9173.06905 7.86215e-18
9175.96436 7.87879e-18
9178.86984 8.08557e-18
9181.76515 8.36990e-18
9184.66047 8.75263e-18
9187.56594 8.89334e-18
9190.46126 8.82719e-18
9193.36673 8.75669e-18
9196.26205 8.81812e-18
9199.15736 8.94804e-18
9202.06284 8.96246e-18
9204.95815 8.83930e-18
9207.86362 8.62651e-18
9210.75894 8.63814e-18
9213.66441 8.57955e-18
9216.55973 8.45757e-18
9219.45504 8.45590e-18
9222.36052 8.49780e-18
9225.25583 8.62308e-18
9228.15115 8.81583e-18
9231.05662 8.99360e-18
9233.95194 8.95080e-18
9236.85741 8.84495e-18
9239.75273 8.92481e-18
9242.65820 9.06923e-18
9245.55352 9.09493e-18
9248.44883 8.90412e-18
9251.35430 8.84241e-18
9254.24962 8.97214e-18
9257.15509 8.84620e-18
9260.05041 8.61883e-18
9262.94572 8.59333e-18
9265.85120 8.43882e-18
9268.74651 8.38243e-18
9271.65199 8.45561e-18
9274.54730 8.31969e-18
9277.44262 8.20930e-18
9280.34809 8.30530e-18
9283.24341 8.39483e-18
9286.14888 8.57029e-18
9289.04419 8.91689e-18
9291.94967 9.33878e-18
9294.84498 9.60162e-18
9297.74030 9.56188e-18
9300.64577 9.53172e-18
9303.54109 9.45121e-18
9306.44656 9.25021e-18
9309.34188 9.00191e-18
9312.23719 8.78210e-18
9315.14267 8.64234e-18
9318.03798 8.53535e-18
9320.94345 8.72301e-18
9323.83877 9.01632e-18
9326.73408 9.01676e-18
9329.63956 8.97185e-18
9332.53487 8.78580e-18
9335.44035 8.70220e-18
9338.33566 8.99957e-18
9341.24114 9.31473e-18
9344.13645 9.56382e-18
9347.03177 9.65742e-18
9349.93724 9.46001e-18
9352.83256 9.24616e-18
9355.73803 9.12695e-18
9358.63334 8.95641e-18
9361.52866 9.02408e-18
9364.43413 9.51398e-18
9367.32945 9.94001e-18
9370.23492 9.98658e-18
9373.13024 1.00191e-17
9376.02555 1.02317e-17
9378.93103 1.00957e-17
9381.82634 9.64786e-18
9384.73182 9.50905e-18
9387.62713 9.94664e-18
9390.52244 1.01131e-17
9393.42792 9.79537e-18
9396.32323 9.69523e-18
9399.22871 9.84478e-18
9402.12402 9.76359e-18
9405.02950 9.58864e-18
9407.92481 9.68480e-18
9410.82013 9.92104e-18
9413.72560 1.01481e-17
9416.62092 1.01421e-17
9419.52639 9.97707e-18
9422.42171 9.73172e-18
9425.31702 9.73090e-18
9428.22249 1.02423e-17
9431.11781 1.04283e-17
9434.02328 1.04676e-17
9436.91860 1.06157e-17
9439.81391 1.01698e-17
9442.71939 9.68720e-18
9445.61470 9.92545e-18
9448.52018 1.02105e-17
9451.41549 1.01248e-17
9454.32097 9.77239e-18
9457.21628 9.67711e-18
9460.11160 9.83019e-18
9463.01707 9.46044e-18
9465.91238 9.16227e-18
9468.81786 9.30908e-18
9471.71317 9.42908e-18
9474.60849 9.61290e-18
9477.51396 9.30911e-18
9480.40928 8.57093e-18
9483.31475 8.38112e-18
9486.21007 8.47951e-18
9489.10538 8.35325e-18
9492.01086 8.11468e-18
9494.90617 8.00233e-18
9497.81164 8.01311e-18
9500.70696 8.14090e-18
9503.61243 8.44084e-18
9506.50775 8.54222e-18
9509.40306 8.29994e-18
9512.30854 7.89410e-18
9515.20385 7.43762e-18
9518.09917 7.35521e-18
9521.00464 7.58771e-18
9523.89996 7.63704e-18
9526.80543 7.68649e-18
9529.70075 7.94013e-18
9532.60622 8.18605e-18
9535.50153 8.22188e-18
9538.39685 7.92913e-18
9541.30232 7.72702e-18
9544.19764 8.01109e-18
