# wavelength flux
3320.00184 7.39122e-18
3321.49521 1.82466e-17
3322.99874 1.51778e-17
3324.50227 1.21092e-17
3325.99565 9.04092e-18
3327.49918 9.04053e-18
3329.00271 1.49012e-17
3330.49608 -1.79371e-18
3331.99962 5.93491e-18
3333.50315 -5.30753e-18
3334.99652 1.05694e-18
3336.50005 2.34336e-17
3338.00358 2.18981e-18
3339.49696 3.67452e-18
3341.00049 2.95487e-18
3342.50402 2.23528e-18
3343.99739 2.23518e-18
3345.50093 -1.99648e-18
3347.00446 -4.63744e-18
3348.49783 -4.63724e-18
3350.00136 1.30505e-17
3351.50490 8.09937e-18
3352.99827 2.38861e-18
3354.50180 1.06609e-17
3355.99517 9.70217e-18
3357.49870 1.05456e-17
3359.00224 1.03659e-17
3360.49561 1.01204e-17
3361.99914 -1.18669e-18
3363.50267 -5.83622e-18
3364.99605 5.80241e-18
3366.49958 8.57139e-18
3368.00311 1.13401e-17
3369.49648 1.41086e-17
3371.00002 1.41080e-17
3372.50355 6.69232e-18
3373.99692 -2.59521e-18
3375.50045 -3.75907e-18
3377.00399 -7.24326e-19
3378.49736 2.31014e-18
3380.00089 5.34434e-18
3381.50442 8.37826e-18
3382.99780 1.14119e-17
3384.50133 1.14114e-17
3386.00486 -4.46250e-19
3387.49823 9.54596e-18
3389.00176 -7.52490e-18
3390.49514 -6.13602e-18
3391.99867 6.62188e-18
3393.50220 2.08759e-17
3394.99557 1.50695e-17
3396.49911 1.89511e-17
3398.00264 2.62615e-18
3399.49601 8.35209e-18
3400.99954 1.31593e-17
3402.50308 6.14517e-18
3403.99645 1.21500e-17
3405.49998 1.42519e-17
3407.00351 1.24020e-18
3408.49689 -4.49450e-18
3410.00042 -1.92211e-18
3411.50395 -3.74994e-18
3412.99732 3.92946e-18
3414.50085 -1.72968e-18
3416.00439 -4.24936e-18
3417.49776 4.25211e-18
3419.00129 -1.70988e-18
3420.50482 1.18181e-17
3421.99820 2.22053e-17
3423.50173 1.49789e-17
3424.99510 1.82769e-17
3426.49863 1.00436e-17
3428.00216 2.17589e-19
3429.49554 -1.06827e-19
3430.99907 1.77517e-17
3432.50260 8.95707e-18
3433.99598 8.64859e-19
3435.49951 1.32885e-17
3437.00304 -1.76957e-18
3438.49641 4.18982e-18
3439.99994 1.41212e-17
3441.50348 4.13954e-18
3442.99685 8.68736e-18
3444.50038 1.12955e-17
3446.00391 2.87546e-18
3447.49729 8.74496e-18
3449.00082 1.37508e-17
3450.50435 4.11590e-18
3451.99772 -5.05615e-18
3453.50125 4.25977e-18
3455.00479 1.28637e-17
3456.49816 1.39349e-17
3458.00169 1.38865e-18
3459.49507 -6.16278e-18
3460.99860 9.31192e-20
3462.50213 -3.75759e-18
3463.99550 9.59673e-19
3465.49903 1.18126e-17
3467.00257 1.14667e-17
3468.49594 1.08299e-17
3469.99947 1.65345e-17
3471.50300 1.25307e-17
3472.99638 7.11729e-18
3474.49991 -1.51627e-19
3476.00344 3.38341e-19
3477.49681 4.32354e-18
3479.00035 4.07608e-18
3480.50388 1.01881e-17
3481.99725 1.95229e-17
3483.50078 1.47762e-17
3485.00431 -1.94438e-18
3486.49769 4.87928e-18
3488.00122 1.17023e-17
3489.50475 1.17018e-17
3490.99812 1.15403e-17
3492.50166 6.88399e-18
3493.99503 9.93881e-18
3495.49856 1.36356e-17
3497.00209 7.43551e-18
3498.49547 2.67419e-18
3499.99900 1.25219e-18
3501.50253 7.06160e-18
3502.99590 3.72774e-18
3504.49944 2.69908e-18
3506.00297 7.13638e-18
3507.49634 7.96877e-18
3508.99987 2.19145e-17
3510.50340 9.78770e-18
3511.99678 7.30292e-18
3513.50031 1.73769e-17
3515.00384 8.60300e-18
3516.49721 7.96580e-18
3518.00075 4.85995e-18
3519.50428 4.83827e-18
3520.99765 4.83806e-18
3522.50118 5.83391e-18
3524.00472 9.75456e-18
3525.49809 1.35328e-17
3527.00162 1.35322e-17
3528.49499 1.04507e-17
3529.99852 8.34982e-18
3531.50206 -1.77204e-18
3532.99543 1.64452e-17
3534.49896 1.43578e-17
3536.00249 8.51364e-19
3537.49587 -5.49883e-18
3538.99940 6.71241e-18
3540.50293 6.26127e-18
3541.99630 4.00979e-18
3543.49984 1.69356e-17
3545.00337 1.59984e-17
3546.49674 5.42855e-18
3548.00027 6.12779e-18
3549.50380 7.75328e-18
3550.99718 8.14273e-18
3552.50071 7.78784e-18
3554.00424 7.11684e-18
3555.49761 1.31789e-17
3557.00115 1.18151e-17
3558.50468 -1.01854e-19
3559.99805 -3.72192e-18
3561.50158 -1.06242e-18
3562.99496 3.12811e-18
3564.49849 2.06276e-18
3566.00202 4.55240e-18
3567.49539 -8.30567e-20
3568.99893 2.01447e-20
3570.50246 4.90956e-18
3571.99583 -1.43729e-18
3573.49936 2.39214e-18
3575.00290 8.14679e-18
3576.49627 1.27181e-17
3577.99980 8.69802e-18
3579.50333 3.46642e-18
3580.99671 -3.04760e-19
3582.50024 1.14988e-17
3584.00377 1.94843e-17
3585.49714 4.89702e-18
3587.00067 2.58410e-19
3588.50421 9.99126e-19
3589.99758 1.10356e-17
3591.50111 3.96699e-18
3593.00464 8.13025e-18
3594.49802 2.02615e-17
3596.00155 1.01306e-17
3597.49492 7.99705e-18
3598.99845 9.78531e-18
3600.50199 2.00881e-18
3601.99536 9.04710e-18
3603.49889 6.02577e-18
3605.00242 6.97724e-18
3606.49580 1.19234e-17
3607.99933 1.14573e-17
3609.50286 8.26770e-18
3610.99623 3.16370e-18
3612.49976 7.63808e-18
3614.00330 7.41981e-18
3615.49667 8.01034e-18
3617.00020 2.07882e-17
3618.50373 1.75387e-17
3619.99711 6.05203e-18
3621.50064 7.54838e-18
3623.00417 1.91328e-18
3624.49754 2.31592e-18
3626.00108 6.84216e-18
3627.50461 9.99588e-18
3628.99798 5.66319e-18
3630.50151 7.03950e-18
3632.00504 7.30693e-19
3633.49842 7.07311e-18
3635.00195 7.97413e-18
3636.49532 -6.30275e-20
3637.99885 3.69712e-18
3639.50239 9.74208e-18
3640.99576 4.78730e-18
3642.49929 7.41964e-18
3644.00282 1.24529e-17
3645.49620 8.49705e-18
3646.99973 8.79032e-19
3648.50326 5.80736e-18
3649.99663 2.08462e-17
3651.50016 1.20970e-17
3653.00370 1.16462e-17
3654.49707 9.33487e-18
3656.00060 9.82170e-18
3657.50413 1.03085e-17
3658.99751 1.07953e-17
3660.50104 1.12820e-17
3662.00457 1.17687e-17
3663.49794 1.22554e-17
3665.00148 1.27420e-17
3666.49485 1.32286e-17
3667.99838 1.32281e-17
3669.50191 1.45003e-17
3670.99529 9.48138e-18
3672.49882 6.15580e-18
3674.00235 9.98178e-18
3675.49572 5.04676e-18
3676.99925 1.47694e-19
3678.50279 1.81159e-18
3679.99616 6.94716e-18
3681.49969 7.70415e-18
3683.00322 7.78780e-18
3684.49660 3.64674e-18
3686.00013 6.01619e-18
3687.50366 1.03028e-17
3688.99703 7.16694e-18
3690.50057 1.20112e-17
3692.00410 1.46153e-17
3693.49747 9.86472e-18
3695.00100 6.85414e-18
3696.50454 9.38863e-18
3697.99791 1.01059e-17
3699.50144 3.02546e-18
3700.99481 1.51319e-18
3702.49835 9.62020e-18
3704.00188 7.51024e-18
3705.49525 7.27901e-18
3706.99878 1.29812e-17
3708.50231 1.06824e-17
3709.99569 5.27741e-19
3711.49922 1.52144e-18
3713.00275 1.61807e-17
3714.49612 1.82620e-17
3715.99966 9.74787e-18
3717.50319 3.23173e-18
3718.99656 8.96717e-18
3720.50009 5.69492e-18
3722.00363 8.71896e-18
3723.49700 6.97315e-18
3725.00053 1.21234e-17
3726.50406 8.10335e-18
3727.99744 1.50802e-17
3729.50097 1.44928e-17
3731.00450 1.36810e-17
3732.49787 1.24704e-17
3734.00140 2.50201e-18
3735.50494 5.91159e-18
3736.99831 8.91559e-18
3738.50184 5.03026e-18
3739.99521 9.37813e-18
3741.49875 8.04847e-18
3743.00228 1.02565e-17
3744.49565 8.47190e-18
3745.99918 6.40493e-18
3747.50272 1.10714e-17
3748.99609 7.60575e-18
3750.49962 6.63612e-18
3752.00315 8.66570e-18
3753.49653 1.04061e-17
3755.00006 1.37597e-17
3756.50359 1.10044e-17
3757.99696 9.59090e-18
3759.50049 5.34474e-18
3761.00403 2.16424e-18
3762.49740 2.17488e-18
3764.00093 7.08031e-18
3765.50446 8.07248e-18
3766.99784 8.13193e-18
3768.50137 8.19138e-18
3770.00490 8.05161e-18
3771.49827 7.91186e-18
3773.00180 7.77211e-18
3774.49518 7.63238e-18
3775.99871 7.49267e-18
3777.50224 7.35295e-18
3778.99561 7.21324e-18
3780.49915 7.07354e-18
3782.00268 6.93385e-18
3783.49605 6.79417e-18
3784.99958 6.65451e-18
3786.50312 6.51485e-18
3787.99649 6.37519e-18
3789.50002 6.23554e-18
3791.00355 6.09590e-18
3792.49693 5.95627e-18
3794.00046 5.81667e-18
3795.50399 5.67705e-18
3796.99736 5.53745e-18
3798.50090 5.39785e-18
3800.00443 5.25826e-18
3801.49780 5.11868e-18
3803.00133 4.97913e-18
3804.50486 4.83956e-18
3805.99824 4.70000e-18
3807.50177 4.56046e-18
3808.99514 8.05554e-18
3810.49867 4.59207e-18
3812.00221 5.85910e-18
3813.49558 5.51906e-18
3814.99911 4.77070e-18
3816.50264 6.76539e-18
3817.99602 7.16241e-18
3819.49955 3.99310e-18
3821.00308 5.33821e-18
3822.49645 7.00871e-18
3823.99999 3.36956e-18
3825.50352 2.43428e-18
3826.99689 -4.12599e-19
3828.50042 2.99634e-18
3830.00395 1.02476e-17
3831.49733 1.15838e-17
3833.00086 6.78330e-18
3834.50439 7.49200e-18
3835.99776 6.59224e-18
3837.50130 4.65645e-18
3839.00483 6.69822e-18
3840.49820 8.17475e-18
3842.00173 6.85630e-18
3843.49511 8.82783e-18
3844.99864 8.27595e-18
3846.50217 7.48174e-18
3847.99554 9.91982e-18
3849.49908 8.66572e-18
3851.00261 6.70340e-18
3852.49598 6.62973e-18
3853.99951 8.98892e-18
3855.50304 9.09365e-18
3856.99642 1.23733e-17
3858.49995 6.91232e-18
3860.00348 5.81836e-18
3861.49685 5.21564e-18
3863.00039 7.41104e-18
3864.50392 1.18130e-17
3865.99729 9.52684e-18
3867.50082 8.72995e-18
3869.00436 9.79016e-18
3870.49773 8.10330e-18
3872.00126 4.62869e-18
3873.50479 9.33862e-18
3874.99816 8.07740e-18
3876.50170 7.28401e-18
3877.99507 7.38413e-18
3879.49860 7.69331e-18
3881.00213 7.22254e-18
3882.49551 8.21523e-18
3883.99904 7.71707e-18
3885.50257 8.81117e-18
3886.99594 8.06776e-18
3888.49948 4.30703e-18
3890.00301 5.68414e-18
3891.49638 7.50372e-18
3892.99991 7.76029e-18
3894.50345 7.45597e-18
3895.99682 7.37512e-18
3897.50035 6.16063e-18
3899.00388 6.87928e-18
3900.49725 8.73581e-18
3902.00079 9.75647e-18
3903.50432 1.00311e-17
3904.99769 1.22387e-17
3906.50122 1.41459e-17
3908.00476 1.26876e-17
3909.49813 1.18073e-17
3911.00166 1.09986e-17
3912.49503 9.01901e-18
3913.99857 6.39817e-18
3915.50210 5.76933e-18
3916.99547 7.11736e-18
3918.49900 7.04419e-18
3920.00254 9.25877e-18
3921.49591 6.72852e-18
3922.99944 7.28932e-18
3924.50297 1.26984e-17
3925.99635 9.82886e-18
3927.49988 1.08809e-17
3929.00341 1.15607e-17
3930.49678 8.91882e-18
3932.00031 1.05002e-17
3933.50385 1.01979e-17
3934.99722 7.09958e-18
3936.50075 9.56850e-18
3938.00428 1.33847e-17
3939.49766 1.11013e-17
3941.00119 1.02510e-17
3942.50472 5.16314e-18
3943.99809 7.68582e-18
3945.50162 1.34508e-17
3946.99500 1.28662e-17
3948.49853 7.61377e-18
3950.00206 6.53777e-18
3951.49544 6.82583e-18
3952.99897 1.28287e-17
3954.50250 1.13159e-17
3955.99587 1.03903e-17
3957.49940 1.21882e-17
3959.00294 9.55117e-18
3960.49631 6.65380e-18
3961.99984 1.11513e-17
3963.50337 9.08103e-18
3964.99675 8.78774e-18
3966.50028 1.09431e-17
3968.00381 1.29599e-17
3969.49718 1.20574e-17
3971.00072 8.84085e-18
3972.50425 6.96653e-18
3973.99762 7.50257e-18
3975.50115 1.12160e-17
3977.00468 1.15773e-17
3978.49806 7.49130e-18
3980.00159 9.08152e-18
3981.49496 9.21786e-18
3982.99849 6.41894e-18
3984.50203 1.13351e-17
3985.99540 1.17517e-17
3987.49893 7.81068e-18
3989.00246 1.00639e-17
3990.49584 1.40533e-17
3991.99937 1.13646e-17
3993.50290 9.28392e-18
3994.99627 7.23227e-18
3996.49980 1.00148e-17
3998.00334 7.07688e-18
3999.49671 9.00808e-18
4001.00024 1.43430e-17
4002.50377 1.20387e-17
4003.99715 8.93603e-18
4005.50068 9.44461e-18
4007.00421 1.10001e-17
4008.49758 9.27665e-18
4010.00112 1.05730e-17
4011.50465 8.00478e-18
4012.99802 9.99259e-18
4014.50155 1.36242e-17
4016.00509 9.69465e-18
4017.49846 6.04428e-18
4019.00199 9.50287e-18
4020.49536 1.08112e-17
4021.99890 1.17487e-17
4023.50243 9.06976e-18
4024.99580 1.17893e-17
4026.49933 1.06664e-17
4028.00286 6.64789e-18
4029.49624 6.15211e-18
4030.99977 8.20903e-18
4032.50330 8.62390e-18
4033.99667 9.40497e-18
4035.50021 1.01627e-17
4037.00374 7.45902e-18
4038.49711 7.39489e-18
4040.00064 9.81917e-18
4041.50418 8.83456e-18
4042.99755 1.06366e-17
4044.50108 1.18691e-17
4046.00461 9.55898e-18
4047.49798 9.92081e-18
4049.00152 1.13457e-17
4050.49489 1.27941e-17
4051.99842 1.12659e-17
4053.50195 1.01103e-17
4054.99533 1.22031e-17
4056.49886 1.02543e-17
4058.00239 7.70793e-18
4059.49576 9.15399e-18
4060.99930 1.31111e-17
4062.50283 1.17565e-17
4063.99620 1.05663e-17
4065.49973 1.08993e-17
4067.00326 6.54924e-18
4068.49664 8.32500e-18
4070.00017 1.39888e-17
4071.50370 1.28860e-17
4072.99708 9.30378e-18
4074.50061 1.27535e-17
4076.00414 9.58926e-18
4077.49751 4.59405e-18
4079.00104 6.90087e-18
4080.50458 9.46327e-18
4081.99795 7.13034e-18
4083.50148 6.41454e-18
4084.99485 9.99092e-18
4086.49839 9.59719e-18
4088.00192 9.57524e-18
4089.49529 8.75216e-18
4090.99882 8.92478e-18
4092.50236 1.46380e-17
4093.99573 1.32753e-17
4095.49926 1.14512e-17
4097.00279 1.11450e-17
4098.49616 1.05464e-17
4099.99970 1.17902e-17
4101.50323 1.25567e-17
4102.99660 1.23609e-17
4104.50013 9.22900e-18
4106.00367 7.60595e-18
4107.49704 1.25226e-17
4109.00057 1.31148e-17
4110.50410 8.59024e-18
4111.99748 1.00940e-17
4113.50101 1.15611e-17
4115.00454 7.44438e-18
4116.49791 7.39385e-18
4118.00144 1.05970e-17
4119.50498 1.09181e-17
4120.99835 1.15555e-17
4122.50188 1.12153e-17
4123.99525 9.80406e-18
4125.49879 1.12180e-17
4127.00232 1.04573e-17
4128.49569 9.87469e-18
4129.99922 1.04395e-17
4131.50276 1.20965e-17
4132.99613 1.29253e-17
4134.49966 1.00688e-17
4136.00319 1.28075e-17
4137.49657 1.17653e-17
4139.00010 8.28644e-18
4140.50363 1.08966e-17
4141.99700 9.69355e-18
4143.50054 8.63364e-18
4145.00407 8.90753e-18
4146.49744 1.26809e-17
4148.00097 9.47366e-18
4149.50450 8.72364e-18
4150.99788 1.18922e-17
4152.50141 1.04799e-17
4154.00494 1.55275e-17
4155.49831 1.07033e-17
4157.00185 6.28178e-18
4158.49522 1.12469e-17
4159.99875 1.36535e-17
4161.50228 9.81029e-18
4162.99566 1.25251e-17
4164.49919 1.22031e-17
4166.00272 1.18811e-17
4167.49609 1.15590e-17
4168.99963 1.12371e-17
4170.50316 1.12368e-17
4171.99653 7.79686e-18
4173.50006 8.96463e-18
4175.00359 8.57104e-18
4176.49697 1.06382e-17
4178.00050 9.85104e-18
4179.50403 8.51156e-18
4180.99740 1.09113e-17
4182.50094 1.00559e-17
4184.00447 1.06640e-17
4185.49784 1.08291e-17
4187.00137 9.71418e-18
4188.50490 1.12168e-17
4189.99828 1.06591e-17
4191.50181 1.26448e-17
4192.99518 1.13868e-17
4194.49872 7.83329e-18
4196.00225 9.07276e-18
4197.49562 1.04526e-17
4198.99915 1.07949e-17
4200.50268 1.19118e-17
4201.99606 9.48136e-18
4203.49959 8.20142e-18
4205.00312 8.55381e-18
4206.49649 9.62503e-18
4208.00003 9.51453e-18
4209.50356 9.65859e-18
4210.99693 8.48778e-18
4212.50046 1.17988e-17
4214.00400 1.08437e-17
4215.49737 1.00176e-17
4217.00090 1.01882e-17
4218.50443 1.29079e-17
4219.99780 7.40355e-18
4221.50134 8.19245e-18
4223.00487 1.11637e-17
4224.49824 1.16998e-17
4226.00177 9.99030e-18
4227.49515 8.63347e-18
4228.99868 9.57489e-18
4230.50221 9.96775e-18
4231.99558 1.17989e-17
4233.49912 1.17161e-17
4235.00265 1.18393e-17
4236.49602 1.25325e-17
4237.99955 1.06536e-17
4239.50308 9.53886e-18
4240.99646 9.74996e-18
4242.49999 9.96105e-18
4244.00352 1.01721e-17
4245.49690 1.03832e-17
4247.00043 1.05943e-17
4248.50396 1.05940e-17
4249.99733 9.52850e-18
4251.50086 1.10430e-17
4253.00440 1.23380e-17
4254.49777 1.02389e-17
4256.00130 1.15909e-17
4257.50483 1.51536e-17
4258.99821 1.36487e-17
4260.50174 9.77462e-18
4261.99511 7.63285e-18
4263.49864 8.05042e-18
4265.00218 1.14106e-17
4266.49555 1.38364e-17
4267.99908 1.29490e-17
4269.50261 1.25160e-17
4270.99598 1.15270e-17
4272.49952 1.17059e-17
4274.00305 1.15381e-17
4275.49642 1.05420e-17
4276.99995 1.09198e-17
4278.50349 8.88379e-18
4279.99686 1.01951e-17
4281.50039 9.25127e-18
4283.00392 8.52653e-18
4284.49730 1.17649e-17
4286.00083 1.05985e-17
4287.50436 8.97851e-18
4288.99773 1.08310e-17
4290.50127 9.24123e-18
4292.00480 1.05434e-17
4293.49817 1.30066e-17
4295.00170 1.24356e-17
4296.49507 8.30325e-18
4297.99861 8.72107e-18
4299.50214 9.52854e-18
4300.99551 9.22295e-18
4302.49904 9.77837e-18
4304.00258 1.10851e-17
4305.49595 1.16921e-17
4306.99948 1.10010e-17
4308.50301 1.08136e-17
4309.99639 8.92949e-18
4311.49992 9.01670e-18
4313.00345 9.22153e-18
4314.49682 8.29943e-18
4316.00036 7.76925e-18
4317.50389 8.80384e-18
4318.99726 9.16339e-18
4320.50079 9.28157e-18
4322.00432 1.01749e-17
4323.49770 9.06258e-18
4325.00123 9.80646e-18
4326.50476 8.81183e-18
4327.99813 6.40823e-18
4329.50167 7.59020e-18
4330.99504 1.03604e-17
4332.49857 1.04641e-17
4334.00210 8.58388e-18
4335.49548 6.65077e-18
4336.99901 6.20499e-18
4338.50254 7.19941e-18
4339.99591 8.16588e-18
4341.49945 7.62178e-18
4343.00298 7.36383e-18
4344.49635 7.64597e-18
4345.99988 7.93155e-18
4347.50341 8.04028e-18
4348.99679 6.51668e-18
4350.50032 7.58176e-18
4352.00385 6.88422e-18
4353.49722 8.36720e-18
4355.00076 1.16654e-17
4356.50429 1.12912e-17
4357.99766 9.71643e-18
4359.50119 8.74472e-18
4361.00472 7.08887e-18
4362.49810 5.58176e-18
4364.00163 7.26306e-18
4365.49500 7.55602e-18
4366.99853 6.74023e-18
4368.50207 7.28276e-18
4369.99544 9.61864e-18
4371.49897 8.78542e-18
4373.00250 9.43453e-18
4374.49588 9.76349e-18
4375.99941 7.04562e-18
4377.50294 6.82401e-18
4378.99631 6.31467e-18
4380.49985 5.95211e-18
4382.00338 7.45990e-18
4383.49675 9.57060e-18
4385.00028 1.01327e-17
4386.50382 9.98478e-18
4387.99719 9.84264e-18
4389.50072 9.85497e-18
4391.00425 9.05007e-18
4392.49762 7.58767e-18
4394.00116 6.85217e-18
4395.50469 8.80650e-18
4396.99806 9.83320e-18
4398.50159 8.17648e-18
4399.99497 9.03819e-18
4401.49850 1.05683e-17
4403.00203 1.17662e-17
4404.49540 1.06766e-17
4405.99894 7.97464e-18
4407.50247 7.94037e-18
4408.99584 8.75197e-18
4410.49937 8.65152e-18
4412.00291 9.18497e-18
4413.49628 1.00373e-17
4414.99981 1.00153e-17
4416.50334 9.99327e-18
4417.99672 9.97124e-18
4419.50025 9.94921e-18
4421.00378 9.92719e-18
4422.49715 9.90516e-18
4424.00068 9.88313e-18
4425.50422 9.86111e-18
4426.99759 9.83909e-18
4428.50112 9.81706e-18
4430.00465 9.79504e-18
4431.49803 9.77302e-18
4433.00156 9.75101e-18
4434.49493 9.72899e-18
4435.99846 9.70697e-18
4437.50200 9.68495e-18
4438.99537 9.66294e-18
4440.49890 9.64092e-18
4442.00243 9.61891e-18
4443.49580 9.59690e-18
4444.99934 9.57488e-18
4446.50287 9.55287e-18
4447.99624 9.53086e-18
4449.49977 9.50885e-18
4451.00331 9.48684e-18
4452.49668 9.92667e-18
4454.00021 1.04749e-17
4455.50374 9.64125e-18
4456.99712 8.83888e-18
4458.50065 9.58317e-18
4460.00418 8.21235e-18
4461.49755 7.20407e-18
4463.00108 9.69659e-18
4464.50462 1.07477e-17
4465.99799 9.39358e-18
4467.50152 7.43568e-18
4469.00505 6.97208e-18
4470.49843 9.68898e-18
4472.00196 1.00339e-17
4473.49533 9.01021e-18
4474.99886 1.04813e-17
4476.50240 1.02363e-17
4477.99577 1.03343e-17
4479.49930 1.29220e-17
4481.00283 1.36438e-17
4482.49621 1.34366e-17
4483.99974 1.04435e-17
4485.50327 7.24232e-18
4486.99664 1.03182e-17
4488.50018 9.91231e-18
4490.00371 9.77309e-18
4491.49708 1.21127e-17
4493.00061 1.25313e-17
4494.50414 1.04556e-17
4495.99752 1.02801e-17
4497.50105 1.01545e-17
4499.00458 1.05889e-17
4500.49795 1.00684e-17
4502.00149 9.86480e-18
4503.50502 1.03227e-17
4504.99839 1.17317e-17
4506.50192 1.45371e-17
4507.99530 1.25422e-17
4509.49883 1.25687e-17
4511.00236 1.43502e-17
4512.49573 1.18057e-17
4513.99927 9.32243e-18
4515.50280 1.05375e-17
4516.99617 1.30434e-17
4518.49970 1.20444e-17
4520.00323 1.21775e-17
4521.49661 1.44476e-17
4523.00014 1.28801e-17
4524.50367 1.36709e-17
4525.99704 1.45921e-17
4527.50058 1.35790e-17
4529.00411 1.37345e-17
4530.49748 1.51377e-17
4532.00101 1.40634e-17
4533.50455 1.28434e-17
4534.99792 1.20457e-17
4536.50145 1.16752e-17
4538.00498 1.25906e-17
4539.49835 1.15279e-17
4541.00189 1.28223e-17
4542.49526 1.45901e-17
4543.99879 1.53191e-17
4545.50232 1.40018e-17
4546.99570 1.17867e-17
4548.49923 1.21419e-17
4550.00276 1.24436e-17
4551.49613 1.28969e-17
4552.99967 1.39425e-17
4554.50320 1.38697e-17
4555.99657 1.58579e-17
4557.50010 1.66787e-17
4559.00364 1.37300e-17
4560.49701 1.33518e-17
4562.00054 1.47871e-17
4563.50407 1.53072e-17
4564.99744 1.48475e-17
4566.50098 1.39611e-17
4568.00451 1.48073e-17
4569.49788 1.57112e-17
4571.00141 1.72432e-17
4572.50495 1.35542e-17
4573.99832 1.43798e-17
4575.50185 1.63864e-17
4576.99522 1.47354e-17
4578.49876 1.34665e-17
4580.00229 1.50632e-17
4581.49566 1.53314e-17
4582.99919 1.46756e-17
4584.50273 1.52859e-17
4585.99610 1.35824e-17
4587.49963 1.27480e-17
4589.00316 1.47952e-17
4590.49653 1.54173e-17
4592.00007 1.51365e-17
4593.50360 1.46741e-17
4594.99697 1.48613e-17
4596.50050 1.35226e-17
4598.00404 1.31767e-17
4599.49741 1.36196e-17
4601.00094 1.42469e-17
4602.50447 1.44685e-17
4603.99785 1.52759e-17
4605.50138 1.60115e-17
4607.00491 1.54074e-17
4608.49828 1.36831e-17
4610.00182 1.26379e-17
4611.49519 1.31609e-17
4612.99872 1.33686e-17
4614.50225 1.35657e-17
4615.99563 1.52078e-17
4617.49916 1.27876e-17
4619.00269 1.05911e-17
4620.49606 1.28862e-17
4621.99959 1.37993e-17
4623.50313 1.25722e-17
4624.99650 1.57955e-17
4626.50003 1.43035e-17
4628.00356 1.33818e-17
4629.49694 1.49334e-17
4631.00047 1.28566e-17
4632.50400 1.21945e-17
4633.99737 1.39483e-17
4635.50090 1.50460e-17
4637.00444 1.50524e-17
4638.49781 1.44224e-17
4640.00134 1.64017e-17
4641.49472 1.70108e-17
4642.99825 1.47476e-17
4644.50178 1.24160e-17
4645.99515 1.47786e-17
4647.49868 1.55732e-17
4649.00222 1.36018e-17
4650.49559 1.24198e-17
4651.99912 1.29229e-17
4653.50265 1.39602e-17
4654.99603 1.40639e-17
4656.49956 1.29075e-17
4658.00309 1.26087e-17
4659.49646 1.21308e-17
4661.00000 1.39638e-17
4662.50353 1.48166e-17
4663.99690 1.31428e-17
4665.50043 1.22017e-17
4667.00396 1.07018e-17
4668.49734 1.00360e-17
4670.00087 1.15143e-17
4671.50440 1.20741e-17
4672.99777 1.15928e-17
4674.50131 1.15333e-17
4675.99468 1.12650e-17
4677.49821 1.20135e-17
4679.00174 1.35330e-17
4680.49512 1.37922e-17
4681.99865 1.36726e-17
4683.50218 1.28680e-17
4684.99555 1.18189e-17
4686.49908 1.15057e-17
4688.00262 1.16111e-17
4689.49599 1.31890e-17
4690.99952 1.19419e-17
4692.50305 1.31603e-17
4693.99643 1.40376e-17
4695.49996 1.31394e-17
4697.00349 1.23573e-17
4698.49686 1.11254e-17
4700.00040 1.31804e-17
4701.50393 1.01820e-17
4702.99730 1.13233e-17
4704.50083 1.28922e-17
4706.00437 1.31407e-17
4707.49774 1.13089e-17
4709.00127 1.03432e-17
4710.50480 1.17679e-17
4711.99817 1.27324e-17
4713.50171 1.30565e-17
4714.99508 1.25338e-17
4716.49861 1.29495e-17
4718.00214 1.20392e-17
4719.49552 9.71745e-18
4720.99905 1.16373e-17
4722.50258 1.35325e-17
4723.99595 1.26763e-17
4725.49949 1.28034e-17
4727.00302 1.22020e-17
4728.49639 1.12521e-17
4729.99992 1.17268e-17
4731.50346 1.24090e-17
4732.99683 1.11463e-17
4734.50036 1.22640e-17
4736.00389 1.37946e-17
4737.49727 1.28939e-17
4739.00080 1.21131e-17
4740.50433 1.17437e-17
4741.99770 1.13592e-17
4743.50123 1.14348e-17
4745.00477 1.37447e-17
4746.49814 1.26599e-17
4748.00167 1.08486e-17
4749.50520 1.18919e-17
4750.99858 1.17494e-17
4752.50211 9.84446e-18
4753.99548 9.88868e-18
4755.49901 1.14212e-17
4757.00255 1.10973e-17
4758.49592 1.17230e-17
4759.99945 1.34408e-17
4761.50298 1.26420e-17
4762.99636 1.05749e-17
4764.49989 8.92967e-18
4766.00342 1.08071e-17
4767.49679 1.19855e-17
4769.00032 1.07801e-17
4770.50386 1.12350e-17
4771.99723 1.10014e-17
4773.50076 1.26226e-17
4775.00429 1.17885e-17
4776.49767 9.88894e-18
4778.00120 9.29823e-18
4779.50473 1.04306e-17
4780.99810 1.15345e-17
4782.50163 1.21601e-17
4783.99501 9.81966e-18
4785.49854 1.03328e-17
4787.00207 1.12546e-17
4788.49545 9.63821e-18
4789.99898 1.01639e-17
4791.50251 1.12872e-17
4792.99588 1.10156e-17
4794.49941 9.21669e-18
4796.00295 9.40819e-18
4797.49632 1.11399e-17
4798.99985 1.13468e-17
4800.50338 1.08809e-17
4801.99676 9.71070e-18
4803.50029 9.46826e-18
4805.00382 9.98964e-18
4806.49719 9.93549e-18
4808.00072 1.14069e-17
4809.50426 1.16839e-17
4810.99763 1.13774e-17
4812.50116 1.33066e-17
4814.00469 1.28848e-17
4815.49807 9.23290e-18
4817.00160 8.64834e-18
4818.49497 8.95089e-18
4819.99850 1.03254e-17
4821.50204 1.26038e-17
4822.99541 1.07897e-17
4824.49894 1.04535e-17
4826.00247 1.20308e-17
4827.49585 1.07267e-17
4828.99938 8.67096e-18
4830.50291 1.06930e-17
4831.99628 1.28275e-17
4833.49982 1.18253e-17
4835.00335 1.24607e-17
4836.49672 1.16351e-17
4838.00025 1.06888e-17
4839.50378 1.09825e-17
4840.99716 1.11582e-17
4842.50069 1.27755e-17
4844.00422 1.15584e-17
4845.49759 1.08448e-17
4847.00113 1.28778e-17
4848.50466 1.27575e-17
4849.99803 1.26445e-17
4851.50156 1.10657e-17
4852.99494 9.16189e-18
4854.49847 1.00689e-17
4856.00200 1.04073e-17
4857.49537 9.90424e-18
4858.99891 9.34819e-18
4860.50244 1.04190e-17
4861.99581 1.17386e-17
4863.49934 1.05909e-17
4865.00287 1.01971e-17
4866.49625 1.05807e-17
4867.99978 1.08119e-17
4869.50331 1.16326e-17
4870.99668 1.22845e-17
4872.50022 1.02815e-17
4874.00375 8.49444e-18
4875.49712 9.85519e-18
4877.00065 1.12105e-17
4878.50418 1.04335e-17
4879.99756 9.44540e-18
4881.50109 1.02054e-17
4883.00462 1.13645e-17
4884.49800 1.08945e-17
4886.00153 1.04922e-17
4887.49490 1.19375e-17
4888.99843 1.01819e-17
4890.50196 8.39370e-18
4891.99534 9.64717e-18
4893.49887 1.19269e-17
4895.00240 1.21942e-17
4896.49577 1.05624e-17
4897.99931 9.60103e-18
4899.50284 9.49444e-18
4900.99621 9.74497e-18
4902.49974 9.83603e-18
4904.00328 1.03760e-17
4905.49665 1.04218e-17
4907.00018 9.26984e-18
4908.50371 9.90443e-18
4909.99708 1.09437e-17
4911.50062 1.08579e-17
4913.00415 9.90951e-18
4914.49752 1.14190e-17
4916.00105 1.26814e-17
4917.50459 1.03673e-17
4918.99796 1.05563e-17
4920.50149 1.05061e-17
4921.99486 1.04559e-17
4923.49840 1.04057e-17
4925.00193 1.03555e-17
4926.49530 1.03053e-17
4927.99883 1.02552e-17
4929.50237 1.02050e-17
4930.99574 1.01548e-17
4932.49927 1.01046e-17
4934.00280 1.00544e-17
4935.49618 1.00043e-17
4936.99971 9.95410e-18
4938.50324 9.90393e-18
4939.99661 9.85377e-18
4941.50014 9.80360e-18
4943.00368 9.75344e-18
4944.49705 9.70329e-18
4946.00058 9.65313e-18
4947.50411 9.60298e-18
4948.99749 9.55283e-18
4950.50102 9.50268e-18
4952.00455 9.45254e-18
4953.49792 9.40240e-18
4955.00145 9.35227e-18
4956.49483 9.30215e-18
4957.99836 9.25202e-18
4959.50189 1.16768e-17
4960.99527 1.01742e-17
4962.49880 9.51274e-18
4964.00233 9.53751e-18
4965.49570 9.99925e-18
4966.99923 1.13552e-17
4968.50277 1.07431e-17
4969.99614 1.01828e-17
4971.49967 8.48771e-18
4973.00320 1.05609e-17
4974.49658 1.14762e-17
4976.00011 1.10504e-17
4977.50364 1.10625e-17
4978.99701 1.02512e-17
4980.50054 9.16995e-18
4982.00408 1.08627e-17
4983.49745 9.39383e-18
4985.00098 8.03375e-18
4986.50451 8.99809e-18
4987.99789 9.35454e-18
4989.50142 1.07378e-17
4991.00495 1.17739e-17
4992.49832 8.83132e-18
4994.00186 8.12340e-18
4995.49523 9.88970e-18
4996.99876 9.84228e-18
4998.50229 9.51746e-18
4999.99567 1.04217e-17
5001.49920 1.01039e-17
5003.00273 1.00210e-17
5004.49610 1.08956e-17
5005.99964 1.06195e-17
5007.50317 9.54530e-18
5008.99654 9.07824e-18
5010.50007 9.59468e-18
5012.00360 1.08360e-17
5013.49698 9.68026e-18
5015.00051 9.19336e-18
5016.50404 9.15641e-18
5017.99741 9.53126e-18
5019.50095 9.55999e-18
5021.00448 9.58871e-18
5022.49785 9.61744e-18
5024.00138 9.64616e-18
5025.50492 9.67488e-18
5026.99829 9.70360e-18
5028.50182 9.73232e-18
5029.99519 9.76103e-18
5031.49873 9.78974e-18
5033.00226 9.81846e-18
5034.49563 9.84717e-18
5035.99916 9.87588e-18
5037.50269 9.90459e-18
5038.99607 9.93330e-18
5040.49960 9.96200e-18
5042.00313 9.99071e-18
5043.49650 1.00194e-17
5045.00004 1.00481e-17
5046.50357 1.00768e-17
5047.99694 1.01055e-17
5049.50047 1.01342e-17
5051.00400 1.01629e-17
5052.49738 1.01916e-17
5054.00091 1.02203e-17
5055.50444 1.02490e-17
5056.99782 1.02777e-17
5058.50135 1.21328e-17
5060.00488 1.16052e-17
5061.49825 1.06703e-17
5063.00178 1.16798e-17
5064.49516 1.14979e-17
5065.99869 1.00931e-17
5067.50222 9.83204e-18
5068.99559 9.85436e-18
5070.49913 9.87669e-18
5072.00266 9.89901e-18
5073.49603 9.92133e-18
5074.99956 9.94365e-18
5076.50310 9.96597e-18
5077.99647 9.98829e-18
5079.50000 1.00106e-17
5081.00353 1.00329e-17
5082.49690 1.00552e-17
5084.00044 1.00776e-17
5085.50397 1.00999e-17
5086.99734 1.01222e-17
5088.50087 1.01445e-17
5090.00441 1.01668e-17
5091.49778 1.01891e-17
5093.00131 1.02114e-17
5094.50484 1.02337e-17
5095.99822 1.02560e-17
5097.50175 1.02783e-17
5098.99512 1.03006e-17
5100.49865 1.03229e-17
5102.00218 1.03452e-17
5103.49556 1.03675e-17
5104.99909 1.03898e-17
5106.50262 1.22536e-17
5107.99600 1.19946e-17
5109.49953 1.08446e-17
5111.00306 1.10423e-17
5112.49643 1.32238e-17
5113.99996 1.29581e-17
5115.50350 1.26813e-17
5116.99687 1.11977e-17
5118.50040 1.21927e-17
5120.00393 1.31373e-17
5121.49731 1.29809e-17
5123.00084 1.14486e-17
5124.50437 1.08898e-17
5125.99774 1.17854e-17
5127.50128 1.21183e-17
5129.00481 1.36973e-17
5130.49818 1.50494e-17
5132.00171 1.30154e-17
5133.49508 1.06396e-17
5134.99862 1.03434e-17
5136.50215 1.24767e-17
5137.99552 1.31664e-17
5139.49905 1.25198e-17
5141.00259 1.35516e-17
5142.49596 1.31122e-17
5143.99949 1.38412e-17
5145.50302 1.32037e-17
5146.99640 1.15612e-17
5148.49993 1.30917e-17
5150.00346 1.44482e-17
5151.49683 1.31018e-17
5153.00037 1.24333e-17
5154.50390 1.23140e-17
5155.99727 1.20473e-17
5157.50080 1.21478e-17
5159.00433 1.26323e-17
5160.49771 1.40675e-17
5162.00124 1.44626e-17
5163.50477 1.40274e-17
5164.99814 1.38434e-17
5166.50168 1.35931e-17
5167.99505 1.30246e-17
5169.49858 1.23441e-17
5171.00211 1.33321e-17
5172.49549 1.44796e-17
5173.99902 1.32901e-17
5175.50255 1.22817e-17
5176.99592 1.39311e-17
5178.49946 1.29804e-17
5180.00299 1.43691e-17
5181.49636 1.34065e-17
5182.99989 1.18797e-17
5184.50342 1.48785e-17
5185.99680 1.33868e-17
5187.50033 1.26576e-17
5189.00386 1.34048e-17
5190.49723 1.36408e-17
5192.00077 1.41380e-17
5193.50430 1.27721e-17
5194.99767 1.23340e-17
5196.50120 1.39436e-17
5198.00473 1.42402e-17
5199.49811 1.28228e-17
5201.00164 1.37443e-17
5202.49501 1.48372e-17
5203.99855 1.58297e-17
5205.50208 1.59259e-17
5206.99545 1.50303e-17
5208.49898 1.51078e-17
5210.00251 1.41123e-17
5211.49589 1.23725e-17
5212.99942 1.19237e-17
5214.50295 1.26319e-17
5215.99632 1.25905e-17
5217.49986 1.26495e-17
5219.00339 1.42507e-17
5220.49676 1.51714e-17
5222.00029 1.35688e-17
5223.50382 1.45833e-17
5224.99720 1.50367e-17
5226.50073 1.32903e-17
5228.00426 1.40954e-17
5229.49763 1.33963e-17
5231.00117 1.36491e-17
5232.50470 1.41350e-17
5233.99807 1.35714e-17
5235.50160 1.26658e-17
5236.99498 1.25244e-17
5238.49851 1.46446e-17
5240.00204 1.38896e-17
5241.49541 1.26117e-17
5242.99895 1.31735e-17
5244.50248 1.26224e-17
5245.99585 1.25137e-17
5247.49938 1.52194e-17
5249.00292 1.41762e-17
5250.49629 1.17393e-17
5251.99982 1.24091e-17
5253.50335 1.23073e-17
5254.99672 1.44501e-17
5256.50026 1.60927e-17
5258.00379 1.33476e-17
5259.49716 1.06162e-17
5261.00069 1.27239e-17
5262.50423 1.43664e-17
5263.99760 1.34724e-17
5265.50113 1.45496e-17
5267.00466 1.42486e-17
5268.49804 1.27157e-17
5270.00157 1.32679e-17
5271.50510 1.40050e-17
5272.99847 1.38992e-17
5274.50201 1.36614e-17
5275.99538 1.33943e-17
5277.49891 1.37716e-17
5279.00244 1.46565e-17
5280.49582 1.44195e-17
5281.99935 1.35345e-17
5283.50288 1.26644e-17
5284.99625 1.40465e-17
5286.49978 1.54122e-17
5288.00332 1.46780e-17
5289.49669 1.42465e-17
5291.00022 1.27040e-17
5292.50375 1.19205e-17
5293.99713 1.42329e-17
5295.50066 1.49549e-17
5297.00419 1.36587e-17
5298.49756 1.32186e-17
5300.00110 1.37690e-17
5301.50463 1.23439e-17
5302.99800 1.19150e-17
5304.50153 1.32633e-17
5306.00506 1.34300e-17
5307.49844 1.27923e-17
5309.00197 1.24063e-17
5310.49534 1.31702e-17
5311.99887 1.24398e-17
5313.50241 1.31447e-17
5314.99578 1.39822e-17
5316.49931 1.15420e-17
5318.00284 1.23255e-17
5319.49622 1.38923e-17
5320.99975 1.24993e-17
5322.50328 1.21888e-17
5323.99665 1.35308e-17
5325.50018 1.17248e-17
5327.00372 1.11868e-17
5328.49709 1.20810e-17
5330.00062 1.12155e-17
5331.50415 1.31707e-17
5332.99753 1.31617e-17
5334.50106 1.41831e-17
5336.00459 1.40691e-17
5337.49796 1.18569e-17
5339.00150 1.15992e-17
5340.50503 1.09700e-17
5341.99840 1.31836e-17
5343.50193 1.48462e-17
5344.99531 1.29892e-17
5346.49884 1.32542e-17
5348.00237 1.37884e-17
5349.49574 1.45763e-17
5350.99928 1.34757e-17
5352.50281 1.07617e-17
5353.99618 1.13820e-17
5355.49971 1.33296e-17
5357.00324 1.33311e-17
5358.49662 1.23069e-17
5360.00015 1.26358e-17
5361.50368 1.28968e-17
5362.99705 1.22073e-17
5364.50059 1.26357e-17
5366.00412 1.30293e-17
5367.49749 1.35263e-17
5369.00102 1.22838e-17
5370.50455 1.24431e-17
5371.99793 1.25034e-17
5373.50146 1.21978e-17
5375.00499 1.19169e-17
5376.49837 1.33516e-17
5378.00190 1.48095e-17
5379.49527 1.48300e-17
5380.99880 1.43877e-17
5382.50233 1.40961e-17
5383.99571 1.33461e-17
5385.49924 1.27588e-17
5387.00277 1.29267e-17
5388.49614 1.17988e-17
5389.99968 1.36416e-17
5391.50321 1.19317e-17
5392.99658 1.23194e-17
5394.50011 1.51714e-17
5396.00365 1.38819e-17
5397.49702 1.29892e-17
5399.00055 1.31834e-17
5400.50408 1.24860e-17
5401.99745 1.17053e-17
5403.50099 1.06889e-17
5405.00452 1.30901e-17
5406.49789 1.45755e-17
5408.00142 1.48640e-17
5409.49480 1.47612e-17
5410.99833 1.38994e-17
5412.50186 1.41197e-17
5413.99523 1.46967e-17
5415.49877 1.37270e-17
5417.00230 1.32489e-17
5418.49567 1.27690e-17
5419.99920 1.22176e-17
5421.50274 1.22070e-17
5422.99611 1.15316e-17
5424.49964 1.24207e-17
5426.00317 1.24404e-17
5427.49654 1.25987e-17
5429.00008 1.28354e-17
5430.50361 1.34449e-17
5431.99698 1.31094e-17
5433.50051 1.27571e-17
5435.00405 1.21439e-17
5436.49742 1.17350e-17
5438.00095 1.22055e-17
5439.50448 1.12629e-17
5440.99786 1.14636e-17
5442.50139 1.25363e-17
5443.99476 1.21171e-17
5445.49829 1.22151e-17
5447.00183 1.43336e-17
5448.49520 1.34048e-17
5449.99873 1.37175e-17
5451.50226 1.22013e-17
5452.99564 1.34168e-17
5454.49917 1.23166e-17
5456.00270 1.23164e-17
5457.49607 1.27969e-17
5458.99960 1.53180e-17
5460.50314 1.57431e-17
5461.99651 1.58248e-17
5463.50004 1.31045e-17
5465.00357 1.15778e-17
5466.49695 1.22480e-17
5468.00048 1.25168e-17
5469.50401 1.24248e-17
5470.99738 1.18846e-17
5472.50092 1.19525e-17
5474.00445 1.10085e-17
5475.49782 1.02472e-17
5477.00135 1.30101e-17
5478.49473 1.30343e-17
5479.99826 1.13186e-17
5481.50179 1.18888e-17
5482.99516 1.14574e-17
5484.49869 1.28708e-17
5486.00223 1.32254e-17
5487.49560 1.29581e-17
5488.99913 1.22150e-17
5490.50266 1.09859e-17
5491.99604 1.12693e-17
5493.49957 1.15015e-17
5495.00310 1.17417e-17
5496.49647 1.21175e-17
5498.00000 1.26820e-17
5499.50354 1.25801e-17
5500.99691 1.22155e-17
5502.50044 1.24781e-17
5504.00397 1.24403e-17
5505.49735 1.25174e-17
5507.00088 1.18462e-17
5508.50441 1.20664e-17
5509.99778 1.33984e-17
5511.50132 1.21013e-17
5513.00485 1.17695e-17
5514.49822 1.09738e-17
5516.00175 1.09942e-17
5517.49513 1.16704e-17
5518.99866 1.06954e-17
5520.50219 1.26138e-17
5521.99556 1.34497e-17
5523.49910 1.11854e-17
5525.00263 1.04976e-17
5526.49600 1.06950e-17
5527.99953 1.09465e-17
5529.50306 1.23877e-17
5530.99644 1.21859e-17
5532.49997 1.30269e-17
5534.00350 1.27053e-17
5535.49687 1.04237e-17
5537.00041 1.16500e-17
5538.50394 1.24173e-17
5539.99731 1.32395e-17
5541.50084 1.16134e-17
5543.00438 8.89512e-18
5544.49775 1.13197e-17
5546.00128 1.26063e-17
5547.50481 1.28699e-17
5548.99818 1.33146e-17
5550.50172 1.29525e-17
5551.99509 1.20344e-17
5553.49862 1.13288e-17
5555.00215 1.31144e-17
5556.49553 1.30546e-17
5557.99906 1.07445e-17
5559.50259 1.13417e-17
5560.99596 1.20404e-17
5562.49950 1.14351e-17
5564.00303 1.18942e-17
5565.49640 1.32217e-17
5566.99993 1.22203e-17
5568.50347 1.20875e-17
5569.99684 1.29428e-17
5571.50037 1.28787e-17
5573.00390 1.28145e-17
5574.49727 1.27503e-17
5576.00081 1.26861e-17
5577.50434 1.26859e-17
5578.99771 1.29601e-17
5580.50124 1.33137e-17
5582.00478 1.28015e-17
5583.49815 1.29111e-17
5585.00168 9.98472e-18
5586.49505 1.01441e-17
5587.99859 1.25768e-17
5589.50212 1.16968e-17
5590.99549 1.20663e-17
5592.49902 1.23475e-17
5594.00256 1.19047e-17
5595.49593 1.23667e-17
5596.99946 1.38766e-17
5598.50299 1.08733e-17
5599.99637 1.17472e-17
5601.49990 1.23483e-17
5603.00343 1.23027e-17
5604.49680 1.17377e-17
5606.00033 1.39373e-17
5607.50387 1.30655e-17
5608.99724 1.24282e-17
5610.50077 1.34092e-17
5612.00430 1.24853e-17
5613.49768 1.18559e-17
5615.00121 1.21083e-17
5616.50474 1.38433e-17
5617.99811 1.51336e-17
5619.50165 1.38792e-17
5620.99502 1.20866e-17
5622.49855 1.07588e-17
5624.00208 1.08993e-17
5625.49546 9.99714e-18
5626.99899 1.11454e-17
5628.50252 1.29588e-17
5629.99589 1.26599e-17
5631.49942 1.24728e-17
5633.00296 1.22950e-17
5634.49633 1.32668e-17
5635.99986 1.28782e-17
5637.50339 1.25852e-17
5638.99677 1.25792e-17
5640.50030 1.22212e-17
5642.00383 1.14219e-17
5643.49720 1.16121e-17
5645.00073 1.19109e-17
5646.50427 1.10101e-17
5647.99764 1.06381e-17
5649.50117 1.11296e-17
5651.00470 1.18287e-17
5652.49808 1.13195e-17
5654.00161 1.10530e-17
5655.49498 1.08306e-17
5656.99851 1.16442e-17
5658.50205 1.46345e-17
5659.99542 1.34089e-17
5661.49895 1.26856e-17
5663.00248 1.40514e-17
5664.49586 1.05067e-17
5665.99939 1.07489e-17
5667.50292 1.21225e-17
5668.99629 1.07650e-17
5670.49982 1.07301e-17
5672.00336 1.22560e-17
5673.49673 1.40298e-17
5675.00026 1.39978e-17
5676.50379 1.23438e-17
5677.99717 1.34795e-17
5679.50070 1.35520e-17
5681.00423 1.24609e-17
5682.49760 1.15674e-17
5684.00114 1.01626e-17
5685.50467 1.23179e-17
5686.99804 1.41926e-17
5688.50157 1.16174e-17
5689.99495 1.00198e-17
5691.49848 9.47257e-18
5693.00201 1.06787e-17
5694.49538 9.85965e-18
5695.99892 1.05705e-17
5697.50245 1.08493e-17
5698.99582 1.03447e-17
5700.49935 1.09543e-17
5702.00288 1.08696e-17
5703.49626 1.05778e-17
5704.99979 1.01364e-17
5706.50332 1.02207e-17
5707.99669 1.15381e-17
5709.50023 1.17392e-17
5711.00376 1.08957e-17
5712.49713 1.08781e-17
5714.00066 1.12850e-17
5715.50420 1.16920e-17
5716.99757 1.16917e-17
5718.50110 1.24429e-17
5720.00463 1.08126e-17
5721.49801 1.03939e-17
5723.00154 1.11466e-17
5724.49491 1.16431e-17
5725.99844 1.14506e-17
5727.50197 1.15989e-17
5728.99535 1.18448e-17
5730.49888 1.16273e-17
5732.00241 1.13320e-17
5733.49578 1.11991e-17
5734.99932 1.13451e-17
5736.50285 1.18577e-17
5737.99622 1.17536e-17
5739.49975 1.33182e-17
5741.00328 1.40098e-17
5742.49666 1.13304e-17
5744.00019 9.98733e-18
5745.50372 1.10633e-17
5746.99710 1.15644e-17
5748.50063 1.19487e-17
5750.00416 1.21266e-17
5751.49753 1.18085e-17
5753.00106 1.30776e-17
5754.50460 1.16256e-17
5755.99797 8.87700e-18
5757.50150 9.15985e-18
5758.99487 9.83755e-18
5760.49841 1.14095e-17
5762.00194 1.23086e-17
5763.49531 1.29827e-17
5764.99884 1.25257e-17
5766.50238 1.09181e-17
5767.99575 1.07459e-17
5769.49928 1.02513e-17
5771.00281 1.06141e-17
5772.49618 1.13030e-17
5773.99972 1.09777e-17
5775.50325 1.00605e-17
5776.99662 1.05618e-17
5778.50015 1.19327e-17
5780.00369 1.12729e-17
5781.49706 1.05025e-17
5783.00059 9.96096e-18
5784.50412 1.02740e-17
5785.99750 1.11533e-17
5787.50103 1.23112e-17
5789.00456 1.25086e-17
5790.49793 1.17614e-17
5792.00147 1.02929e-17
5793.50500 1.08936e-17
5794.99837 1.06634e-17
5796.50190 1.17723e-17
5797.99528 1.19622e-17
5799.49881 1.22114e-17
5801.00234 1.19839e-17
5802.49571 1.27091e-17
5803.99924 1.34729e-17
5805.50278 1.25318e-17
5806.99615 1.28141e-17
5808.49968 1.32502e-17
5810.00321 1.26590e-17
5811.49659 1.06615e-17
5813.00012 1.16222e-17
5814.50365 1.13822e-17
5815.99702 1.17938e-17
5817.50055 1.24596e-17
5819.00409 1.12784e-17
5820.49746 1.15254e-17
5822.00099 1.17294e-17
5823.50452 1.34348e-17
5824.99790 1.41505e-17
5826.50143 1.16712e-17
5828.00496 1.02674e-17
5829.49833 1.14508e-17
5831.00187 1.33593e-17
5832.49524 1.30195e-17
5833.99877 1.33630e-17
5835.50230 1.27755e-17
5836.99568 1.20106e-17
5838.49921 1.22567e-17
5840.00274 1.27614e-17
5841.49611 1.16061e-17
5842.99965 1.08149e-17
5844.50318 1.08458e-17
5845.99655 1.00677e-17
5847.50008 1.01592e-17
5849.00361 1.21754e-17
5850.49699 1.19518e-17
5852.00052 1.12102e-17
5853.50405 1.20945e-17
5854.99742 1.30619e-17
5856.50096 1.20040e-17
5858.00449 1.16397e-17
5859.49786 1.21258e-17
5861.00139 1.13144e-17
5862.50493 1.41821e-17
5863.99830 1.31914e-17
5865.50183 1.23108e-17
5866.99520 1.09579e-17
5868.49874 1.21717e-17
5870.00227 1.35626e-17
5871.49564 1.29743e-17
5872.99917 1.12143e-17
5874.50270 1.09862e-17
5875.99608 1.19240e-17
5877.49961 1.05750e-17
5879.00314 1.04483e-17
5880.49651 1.13321e-17
5882.00005 9.14791e-18
5883.50358 1.16476e-17
5884.99695 1.38705e-17
5886.50048 1.22608e-17
5888.00402 1.20487e-17
5889.49739 1.00963e-17
5891.00092 1.17571e-17
5892.50445 1.32470e-17
5893.99783 1.08321e-17
5895.50136 1.32885e-17
5897.00489 1.16170e-17
5898.49826 1.03909e-17
5900.00179 1.14964e-17
5901.49517 1.23019e-17
5902.99870 1.18065e-17
5904.50223 1.12329e-17
5905.99560 1.13056e-17
5907.49914 1.04474e-17
5909.00267 1.08120e-17
5910.49604 1.09825e-17
5911.99957 1.09903e-17
5913.50310 1.09248e-17
5914.99648 1.13318e-17
5916.50001 1.25460e-17
5918.00354 1.41088e-17
5919.49692 1.40241e-17
5921.00045 1.27917e-17
5922.50398 1.22965e-17
5923.99735 1.18059e-17
5925.50088 1.04519e-17
5927.00442 1.05941e-17
5928.49779 1.22451e-17
5930.00132 1.02089e-17
5931.50485 1.02109e-17
5932.99823 1.26420e-17
5934.50176 1.34276e-17
5935.99513 1.23034e-17
5937.49866 1.11152e-17
5939.00220 1.16577e-17
5940.49557 1.28944e-17
5941.99910 1.10966e-17
5943.50263 1.01591e-17
5944.99600 1.17724e-17
5946.49954 1.28492e-17
5948.00307 1.12600e-17
5949.49644 1.05469e-17
5950.99997 1.02848e-17
5952.50351 1.13976e-17
5953.99688 1.16251e-17
5955.50041 1.16673e-17
5957.00394 1.21567e-17
5958.49732 1.17358e-17
5960.00085 1.14859e-17
5961.50438 1.13904e-17
5962.99775 1.17719e-17
5964.50128 1.14391e-17
5965.99466 1.00492e-17
5967.49819 1.12664e-17
5969.00172 1.27561e-17
5970.49510 1.12426e-17
5971.99863 1.16263e-17
5973.50216 1.22775e-17
5974.99553 1.05085e-17
5976.49906 9.63876e-18
5978.00260 1.10748e-17
5979.49597 1.22402e-17
5980.99950 1.13710e-17
5982.50303 1.00084e-17
5983.99641 1.07321e-17
5985.49994 1.18843e-17
5987.00347 9.91953e-18
5988.49684 9.07005e-18
5990.00038 1.06835e-17
5991.50391 9.59912e-18
5992.99728 9.55763e-18
5994.50081 1.20114e-17
5996.00434 1.16357e-17
5997.49772 1.06907e-17
5999.00125 1.16003e-17
6000.49462 1.06607e-17
6001.99815 8.80259e-18
6003.50169 1.17164e-17
6004.99506 1.44403e-17
6006.49859 1.16093e-17
6008.00212 1.12069e-17
6009.49550 1.13850e-17
6010.99903 9.92625e-18
6012.50256 1.13230e-17
6013.99593 1.25827e-17
6015.49947 1.04794e-17
6017.00300 9.79727e-18
6018.49637 1.01773e-17
6019.99990 9.98513e-18
6021.50343 8.94594e-18
6022.99681 1.05903e-17
6024.50034 1.19129e-17
6026.00387 1.19877e-17
6027.49724 1.32155e-17
6029.00078 1.25507e-17
6030.50431 1.09654e-17
6031.99768 1.06587e-17
6033.50121 1.08622e-17
6035.00475 1.17345e-17
6036.49812 1.01258e-17
6038.00165 1.13779e-17
6039.49502 1.14241e-17
6040.99856 1.17602e-17
6042.50209 1.24830e-17
6043.99546 1.06044e-17
6045.49899 8.38107e-18
6047.00252 8.52357e-18
6048.49590 9.91512e-18
6049.99943 9.95723e-18
6051.50296 9.89222e-18
6052.99633 1.16916e-17
6054.49987 1.08012e-17
6056.00340 1.04945e-17
6057.49677 1.10635e-17
6059.00030 9.47137e-18
6060.50383 9.69256e-18
6061.99721 1.15195e-17
6063.50074 9.90528e-18
6065.00427 9.99223e-18
6066.49765 1.12931e-17
6068.00118 1.07023e-17
6069.50471 9.65753e-18
6070.99808 9.20316e-18
6072.50161 8.79899e-18
6074.00515 9.89293e-18
6075.49852 1.07089e-17
6077.00205 1.25703e-17
6078.49542 1.13498e-17
6079.99896 9.19721e-18
6081.50249 1.02440e-17
6082.99586 1.20266e-17
6084.49939 1.33938e-17
6086.00292 1.14380e-17
6087.49630 1.10512e-17
6088.99983 9.61400e-18
6090.50336 1.02269e-17
6091.99673 1.08885e-17
6093.50027 1.08320e-17
6095.00380 1.15934e-17
6096.49717 1.27881e-17
6098.00070 1.10725e-17
6099.50424 1.13982e-17
6100.99761 1.21198e-17
6102.50114 9.89951e-18
6104.00467 9.16577e-18
6105.49805 8.99173e-18
6107.00158 8.38974e-18
6108.50511 9.73601e-18
6109.99848 1.13985e-17
6111.50202 9.23632e-18
6112.99539 8.88684e-18
6114.49892 8.94369e-18
6116.00245 9.44058e-18
6117.49582 1.02569e-17
6118.99936 9.34161e-18
6120.50289 9.21635e-18
6121.99626 1.02902e-17
6123.49979 1.11003e-17
6125.00333 1.04578e-17
6126.49670 1.08278e-17
6128.00023 1.11628e-17
6129.50376 9.76286e-18
6130.99714 9.31397e-18
6132.50067 9.82064e-18
6134.00420 9.83585e-18
6135.49757 8.77640e-18
6137.00111 8.36759e-18
6138.50464 8.47829e-18
6139.99801 7.50741e-18
6141.50154 9.09605e-18
6142.99492 9.55781e-18
6144.49845 1.12817e-17
6146.00198 1.14592e-17
6147.49535 9.79444e-18
6148.99888 9.96351e-18
6150.50242 1.09434e-17
6151.99579 8.32897e-18
6153.49932 7.83772e-18
6155.00285 8.40236e-18
6156.49623 8.84346e-18
6157.99976 8.95149e-18
6159.50329 1.08384e-17
6160.99666 1.12241e-17
6162.50020 1.15880e-17
6164.00373 9.57815e-18
6165.49710 7.80817e-18
6167.00063 9.20354e-18
6168.50416 9.61981e-18
6169.99754 9.23542e-18
6171.50107 9.23831e-18
6173.00460 1.00163e-17
6174.49797 8.62044e-18
6176.00151 7.91290e-18
6177.49488 8.69958e-18
6178.99841 8.87302e-18
6180.50194 8.81611e-18
6181.99532 9.04739e-18
6183.49885 8.91079e-18
6185.00238 8.46859e-18
6186.49575 8.92442e-18
6187.99928 1.01232e-17
6189.50282 1.02952e-17
6190.99619 1.02532e-17
6192.49972 9.40301e-18
6194.00325 8.54134e-18
6195.49663 8.33663e-18
6197.00016 8.04047e-18
6198.50369 8.93758e-18
6199.99706 1.06337e-17
6201.50060 1.09420e-17
6203.00413 1.01312e-17
6204.49750 1.06686e-17
6206.00103 9.04949e-18
6207.50457 9.06343e-18
6208.99794 9.62756e-18
6210.50147 8.92134e-18
6211.99484 1.02065e-17
6213.49838 9.22684e-18
6215.00191 8.87144e-18
6216.49528 8.30458e-18
6217.99881 8.69464e-18
6219.50234 8.61848e-18
6220.99572 9.66974e-18
6222.49925 1.06954e-17
6224.00278 8.98371e-18
6225.49615 9.20535e-18
6226.99969 1.03712e-17
6228.50322 1.06157e-17
6229.99659 9.90526e-18
6231.50012 9.41477e-18
6233.00365 9.42982e-18
6234.49703 1.01769e-17
6236.00056 1.00961e-17
6237.50409 9.95940e-18
6238.99747 9.45702e-18
6240.50100 9.17621e-18
6242.00453 8.09317e-18
6243.49790 8.75928e-18
6245.00143 9.96621e-18
6246.49481 9.90283e-18
6247.99834 1.09447e-17
6249.50187 1.03393e-17
6250.99524 9.94656e-18
6252.49878 1.15953e-17
6254.00231 1.22279e-17
6255.49568 1.05464e-17
6256.99921 9.42540e-18
6258.50275 9.92378e-18
6259.99612 9.45308e-18
6261.49965 1.01824e-17
6263.00318 1.06814e-17
6264.49655 1.02047e-17
6266.00009 8.55187e-18
6267.50362 1.01237e-17
6268.99699 1.08577e-17
6270.50052 1.16833e-17
6272.00406 1.05982e-17
6273.49743 1.01399e-17
6275.00096 1.08776e-17
6276.50449 1.03140e-17
6277.99787 9.17153e-18
6279.50140 9.92212e-18
6280.99477 1.14420e-17
6282.49830 1.05044e-17
6284.00184 1.05251e-17
6285.49521 1.04402e-17
6286.99874 1.09006e-17
6288.50227 1.18143e-17
6289.99564 1.05909e-17
6291.49918 1.02635e-17
6293.00271 1.03026e-17
6294.49608 1.06433e-17
6295.99961 1.05552e-17
6297.50315 1.22985e-17
6298.99652 1.00656e-17
6300.50005 9.37542e-18
6302.00358 1.13616e-17
6303.49696 1.46995e-17
6305.00049 1.04879e-17
6306.50402 1.12255e-17
6307.99739 1.17665e-17
6309.50093 1.13807e-17
6311.00446 1.13607e-17
6312.49783 1.06545e-17
6314.00136 8.82382e-18
6315.50489 9.39686e-18
6316.99827 1.08172e-17
6318.50180 1.10086e-17
6319.99517 1.06325e-17
6321.49870 1.00762e-17
6323.00224 1.00954e-17
6324.49561 1.19278e-17
6325.99914 1.22244e-17
6327.50267 1.00430e-17
6328.99605 9.12148e-18
6330.49958 1.07566e-17
6332.00311 1.18674e-17
6333.49648 1.14875e-17
6335.00002 1.02077e-17
6336.50355 9.91492e-18
6337.99692 1.02691e-17
6339.50045 1.09275e-17
6341.00398 1.13759e-17
6342.49736 9.96397e-18
6344.00089 1.00430e-17
6345.50442 9.85044e-18
6346.99779 9.99749e-18
6348.50133 9.67030e-18
6350.00486 1.18964e-17
6351.49823 1.15864e-17
6353.00176 9.30595e-18
6354.49514 9.96279e-18
6355.99867 1.11329e-17
6357.50220 1.06741e-17
6358.99557 1.09292e-17
6360.49910 1.08702e-17
6362.00264 1.12445e-17
6363.49601 1.20021e-17
6364.99954 1.16477e-17
6366.50307 1.27600e-17
6367.99645 1.13413e-17
6369.49998 9.10755e-18
6371.00351 1.03861e-17
6372.49688 1.09158e-17
6374.00042 1.08922e-17
6375.50395 1.01168e-17
6376.99732 1.07280e-17
6378.50085 1.18543e-17
6380.00439 1.08523e-17
6381.49776 1.01671e-17
6383.00129 1.07575e-17
6384.50482 1.04842e-17
6385.99820 9.11412e-18
6387.50173 9.03233e-18
6388.99510 1.00090e-17
6390.49863 1.08541e-17
6392.00216 1.12195e-17
6393.49554 1.10152e-17
6394.99907 1.05377e-17
6396.50260 1.04459e-17
6397.99597 1.13105e-17
6399.49951 1.28728e-17
6401.00304 1.27294e-17
6402.49641 1.12967e-17
6403.99994 1.17091e-17
6405.50348 1.14395e-17
6406.99685 1.08003e-17
6408.50038 9.91437e-18
6410.00391 9.91697e-18
6411.49728 1.18132e-17
6413.00082 1.03377e-17
6414.50435 8.94074e-18
6415.99772 9.95525e-18
6417.50125 1.12273e-17
6419.00479 1.12790e-17
6420.49816 9.98103e-18
6422.00169 1.10653e-17
6423.49506 1.10397e-17
6424.99860 9.06234e-18
6426.50213 1.03429e-17
6427.99550 1.05257e-17
6429.49903 1.00333e-17
6431.00257 1.12330e-17
6432.49594 1.03834e-17
6433.99947 1.02933e-17
6435.50300 1.00136e-17
6436.99637 1.17803e-17
6438.49991 1.37424e-17
6440.00344 1.28656e-17
6441.49681 1.09031e-17
6443.00034 8.97319e-18
6444.50388 8.89848e-18
6445.99725 9.85955e-18
6447.50078 9.95281e-18
6449.00431 1.03887e-17
6450.49769 9.32122e-18
6452.00122 9.74164e-18
6453.50475 1.17144e-17
6454.99812 1.13555e-17
6456.50166 9.69814e-18
6457.99503 8.60904e-18
6459.49856 1.03901e-17
6461.00209 1.10028e-17
6462.49547 9.83791e-18
6463.99900 1.04690e-17
6465.50253 1.10689e-17
6466.99590 1.14562e-17
6468.49943 1.15913e-17
6470.00297 1.05774e-17
6471.49634 1.08632e-17
6472.99987 1.08574e-17
6474.50340 1.02181e-17
6475.99678 1.07030e-17
6477.50031 1.05244e-17
6479.00384 1.16654e-17
6480.49721 1.10977e-17
6482.00075 1.17109e-17
6483.50428 1.18646e-17
6484.99765 1.19920e-17
6486.50118 1.10644e-17
6488.00471 1.28178e-17
6489.49809 1.10239e-17
6491.00162 9.16497e-18
6492.49499 9.90995e-18
6493.99852 1.08151e-17
6495.50206 1.11759e-17
6496.99543 1.12608e-17
6498.49896 1.37145e-17
6500.00249 1.33973e-17
6501.49587 1.11226e-17
6502.99940 1.25356e-17
6504.50293 1.08736e-17
6505.99630 1.01453e-17
6507.49983 1.07237e-17
6509.00337 1.03637e-17
6510.49674 1.13776e-17
6512.00027 1.14206e-17
6513.50380 1.01744e-17
6514.99718 1.01766e-17
6516.50071 1.04710e-17
6518.00424 1.01508e-17
6519.49761 1.19116e-17
6521.00115 1.10508e-17
6522.50468 1.05589e-17
6523.99805 9.91278e-18
6525.50158 1.06032e-17
6526.99496 1.10217e-17
6528.49849 1.09394e-17
6530.00202 1.15481e-17
6531.49539 1.07367e-17
6532.99892 1.05047e-17
6534.50246 1.21955e-17
6535.99583 1.15840e-17
6537.49936 1.02047e-17
6539.00289 1.13078e-17
6540.49627 1.19272e-17
6541.99980 1.18551e-17
6543.50333 1.14222e-17
6544.99670 1.02401e-17
6546.50024 1.08177e-17
6548.00377 1.29040e-17
6549.49714 1.32355e-17
6551.00067 1.45504e-17
6552.50421 1.53627e-17
6553.99758 1.46087e-17
6555.50111 1.24398e-17
6557.00464 9.86733e-18
6558.49802 1.17011e-17
6560.00155 1.10211e-17
6561.49492 1.26119e-17
6562.99845 1.15926e-17
6564.50198 1.12981e-17
6565.99536 1.14469e-17
6567.49889 1.06479e-17
6569.00242 9.98012e-18
6570.49579 1.03974e-17
6571.99933 1.10016e-17
6573.50286 1.08457e-17
6574.99623 1.23561e-17
6576.49976 1.25381e-17
6578.00330 1.08469e-17
6579.49667 1.23939e-17
6581.00020 1.13907e-17
6582.50373 1.07174e-17
6583.99711 1.15025e-17
6585.50064 1.06280e-17
6587.00417 9.88387e-18
6588.49754 9.95343e-18
6590.00107 1.12459e-17
6591.50461 1.11446e-17
6592.99798 1.03242e-17
6594.50151 9.95026e-18
6596.00504 1.09130e-17
6597.49842 1.02664e-17
6599.00195 1.03411e-17
6600.49532 1.06867e-17
6601.99885 9.93282e-18
6603.50238 9.55748e-18
6604.99576 1.02657e-17
6606.49929 1.05344e-17
6608.00282 1.15392e-17
6609.49620 1.11484e-17
6610.99973 1.06967e-17
6612.50326 1.09198e-17
6613.99663 1.07910e-17
6615.50016 1.12348e-17
6617.00370 1.14101e-17
6618.49707 1.17316e-17
6620.00060 1.12652e-17
6621.50413 8.59644e-18
6622.99751 9.64403e-18
6624.50104 1.10421e-17
6626.00457 1.17221e-17
6627.49794 1.12225e-17
6629.00148 1.12744e-17
6630.50501 1.26572e-17
6631.99838 1.12878e-17
6633.50191 1.01475e-17
6634.99528 1.02317e-17
6636.49882 1.17103e-17
6638.00235 1.16447e-17
6639.49572 1.15790e-17
6640.99925 1.15134e-17
6642.50279 1.14478e-17
6643.99616 1.13822e-17
6645.49969 1.13165e-17
6647.00322 1.12509e-17
6648.49660 1.11853e-17
6650.00013 1.11197e-17
6651.50366 1.10540e-17
6652.99703 1.09884e-17
6654.50057 1.09228e-17
6656.00410 1.08572e-17
6657.49747 1.07916e-17
6659.00100 1.07260e-17
6660.50453 1.06604e-17
6661.99791 1.05948e-17
6663.50144 1.05292e-17
6665.00497 1.04636e-17
6666.49834 1.03979e-17
6668.00188 1.03323e-17
6669.49525 1.02667e-17
6670.99878 1.02011e-17
6672.50231 1.01356e-17
6673.99569 1.00700e-17
6675.49922 1.00044e-17
6677.00275 9.93879e-18
6678.49612 9.87320e-18
6679.99965 9.80761e-18
6681.50319 9.74202e-18
6682.99656 9.67643e-18
6684.50009 9.61085e-18
6686.00362 9.54527e-18
6687.49700 9.47968e-18
6689.00053 9.41410e-18
6690.50406 9.34853e-18
6691.99743 9.28297e-18
6693.50097 9.21740e-18
6695.00450 9.15182e-18
6696.49787 9.08625e-18
6698.00140 9.02068e-18
6699.50493 1.07568e-17
6700.99831 1.10111e-17
6702.50184 9.18645e-18
6703.99521 9.58641e-18
6705.49875 1.02258e-17
6707.00228 1.11098e-17
6708.49565 1.13977e-17
6709.99918 1.06398e-17
6711.50271 1.18640e-17
6712.99609 1.18410e-17
6714.49962 9.74263e-18
6716.00315 1.03759e-17
6717.49652 1.11031e-17
6719.00006 1.01247e-17
6720.50359 1.01877e-17
6721.99696 1.15748e-17
6723.50049 9.88250e-18
6725.00403 1.14063e-17
6726.49740 1.18791e-17
6728.00093 9.98323e-18
6729.50446 9.25949e-18
6730.99784 9.76235e-18
6732.50137 9.84988e-18
6733.99474 9.30105e-18
6735.49827 8.74179e-18
6737.00180 1.02788e-17
6738.49518 1.08344e-17
6739.99871 9.94963e-18
6741.50224 1.05700e-17
6742.99561 1.01707e-17
6744.49915 1.00292e-17
6746.00268 1.01282e-17
6747.49605 9.70348e-18
6748.99958 1.07947e-17
6750.50312 1.03919e-17
6751.99649 9.51635e-18
6753.50002 1.08984e-17
6755.00355 1.12525e-17
6756.49693 1.06538e-17
6758.00046 1.03138e-17
6759.50399 9.16811e-18
6760.99736 7.97463e-18
6762.50089 8.96044e-18
6764.00443 9.56641e-18
6765.49780 1.00723e-17
6767.00133 9.66181e-18
6768.49470 1.01835e-17
6769.99824 8.39902e-18
6771.50177 1.00332e-17
6772.99514 9.27617e-18
6774.49867 7.47376e-18
6776.00220 8.50130e-18
6777.49558 9.23459e-18
6778.99911 1.00148e-17
6780.50264 9.62261e-18
6781.99602 1.03751e-17
6783.49955 8.46937e-18
6785.00308 8.58283e-18
6786.49645 8.86868e-18
6787.99998 7.75942e-18
6789.50352 8.80829e-18
6790.99689 1.01614e-17
6792.50042 9.46818e-18
6794.00395 9.52475e-18
6795.49733 8.82916e-18
6797.00086 8.58463e-18
6798.50439 9.28226e-18
6799.99776 8.68329e-18
6801.50130 9.19400e-18
6802.99467 9.13097e-18
6804.49820 9.33229e-18
6806.00173 9.41987e-18
6807.49510 8.17908e-18
6808.99864 9.23624e-18
6810.50217 1.05564e-17
6811.99554 1.07953e-17
6813.49907 1.09771e-17
6815.00261 1.04976e-17
6816.49598 1.00779e-17
6817.99951 1.04171e-17
6819.50304 9.58793e-18
6820.99642 9.36713e-18
6822.49995 1.02018e-17
6824.00348 1.00351e-17
6825.49685 9.45581e-18
6827.00038 1.03022e-17
6828.50392 9.39154e-18
6829.99729 9.54521e-18
6831.50082 1.02101e-17
6833.00435 9.09062e-18
6834.49773 8.78510e-18
6836.00126 8.77849e-18
6837.50479 1.05312e-17
6838.99816 1.10174e-17
6840.50170 1.08262e-17
6841.99507 1.00475e-17
6843.49860 9.26884e-18
6845.00213 9.26873e-18
6846.49551 1.00758e-17
6847.99904 1.05264e-17
6849.50257 1.08614e-17
6850.99594 1.03561e-17
6852.49948 1.04112e-17
6854.00301 1.02909e-17
6855.49638 8.67194e-18
6856.99991 8.85377e-18
6858.50344 8.26836e-18
6859.99682 1.04384e-17
6861.50035 1.11678e-17
6863.00388 1.03687e-17
6864.49725 9.93643e-18
6866.00079 8.74601e-18
6867.50432 9.40534e-18
6868.99769 1.15623e-17
6870.50122 1.02333e-17
6872.00475 8.96219e-18
6873.49813 1.05647e-17
6875.00166 1.07289e-17
6876.50519 9.77119e-18
6877.99857 1.02247e-17
6879.50210 9.20366e-18
6880.99547 8.91854e-18
6882.49900 1.06834e-17
6884.00253 1.03404e-17
6885.49591 9.70787e-18
6886.99944 8.01417e-18
6888.50297 8.43157e-18
6889.99634 9.53542e-18
6891.49988 9.39760e-18
6893.00341 8.88869e-18
6894.49678 9.90060e-18
6896.00031 9.76969e-18
6897.50385 9.97823e-18
6898.99722 1.06748e-17
6900.50075 8.64135e-18
6902.00428 8.29678e-18
6903.49766 9.11894e-18
6905.00119 9.19078e-18
6906.50472 8.36721e-18
6907.99809 9.32864e-18
6909.50162 1.08808e-17
6910.99500 9.69368e-18
6912.49853 8.75645e-18
6914.00206 9.48354e-18
6915.49543 1.09579e-17
6916.99897 9.05047e-18
6918.50250 8.84235e-18
6919.99587 9.32785e-18
6921.49940 8.93921e-18
6923.00293 9.00466e-18
6924.49631 9.43934e-18
6925.99984 9.70554e-18
6927.50337 9.39471e-18
6928.99675 9.86333e-18
6930.50028 1.00475e-17
6932.00381 9.60717e-18
6933.49718 9.78361e-18
6935.00071 8.94252e-18
6936.50425 8.36682e-18
6937.99762 9.99745e-18
6939.50115 9.91185e-18
6941.00468 8.54782e-18
6942.49806 9.34747e-18
6944.00159 1.05867e-17
6945.49496 9.51097e-18
6946.99849 8.78429e-18
6948.50202 9.18283e-18
6949.99540 1.01489e-17
6951.49893 1.01597e-17
6953.00246 8.95217e-18
6954.49583 8.38600e-18
6955.99937 1.01015e-17
6957.50290 1.10643e-17
6958.99627 9.19671e-18
6960.49980 8.09926e-18
6962.00334 8.58315e-18
6963.49671 1.03065e-17
6965.00024 1.06070e-17
6966.50377 9.75619e-18
6967.99715 9.77572e-18
6969.50068 9.33609e-18
6971.00421 9.47742e-18
6972.49758 9.64230e-18
6974.00112 9.09432e-18
6975.50465 9.20634e-18
6976.99802 7.72793e-18
6978.50155 8.38961e-18
6979.99492 9.97694e-18
6981.49846 9.57660e-18
6983.00199 9.22606e-18
6984.49536 9.72288e-18
6985.99889 1.00080e-17
6987.50243 7.52721e-18
6988.99580 8.93599e-18
6990.49933 9.40934e-18
6992.00286 9.10174e-18
6993.49624 9.79564e-18
6994.99977 9.33235e-18
6996.50330 8.46731e-18
6997.99667 8.87215e-18
6999.50021 1.03437e-17
7001.00374 9.80556e-18
7002.49711 7.82829e-18
7004.00064 7.68342e-18
7005.50417 8.93783e-18
7006.99755 9.60379e-18
7008.50108 1.00587e-17
7010.00461 1.11920e-17
7011.49798 1.00851e-17
7013.00152 8.76858e-18
7014.49489 8.84900e-18
7015.99842 7.85306e-18
7017.50195 8.73829e-18
7018.99533 1.01226e-17
7020.49886 9.68439e-18
7022.00239 1.02206e-17
7023.49576 1.00452e-17
7024.99930 8.77227e-18
7026.50283 8.75844e-18
7027.99620 9.89222e-18
7029.49973 9.18935e-18
7031.00326 8.98951e-18
7032.49664 8.85224e-18
7034.00017 8.07302e-18
7035.50370 8.98375e-18
7036.99707 8.97970e-18
7038.50061 1.06945e-17
7040.00414 1.15414e-17
7041.49751 8.49562e-18
7043.00104 8.34204e-18
7044.50457 9.65761e-18
7045.99795 8.86284e-18
7047.50148 7.67763e-18
7048.99485 8.05921e-18
7050.49838 8.10598e-18
7052.00192 8.20920e-18
7053.49529 9.22354e-18
7054.99882 9.35250e-18
7056.50235 8.22695e-18
7057.99573 7.73902e-18
7059.49926 8.80440e-18
7061.00279 8.75024e-18
7062.49616 9.42583e-18
7063.99970 1.02355e-17
7065.50323 9.44885e-18
7066.99660 7.88557e-18
7068.50013 8.84990e-18
7070.00367 8.85001e-18
7071.49704 7.79345e-18
7073.00057 7.44030e-18
7074.50410 7.45770e-18
7075.99748 8.40461e-18
7077.50101 9.54420e-18
7079.00454 9.67715e-18
7080.49791 9.97933e-18
7082.00144 9.34524e-18
7083.49482 8.15138e-18
7084.99835 7.59026e-18
7086.50188 8.15769e-18
7087.99525 8.80582e-18
7089.49879 9.07431e-18
7091.00232 8.86729e-18
7092.49569 8.75801e-18
7093.99922 8.79831e-18
7095.50276 8.71557e-18
7096.99613 8.71001e-18
7098.49966 9.30913e-18
7100.00319 9.21027e-18
7101.49657 7.87720e-18
7103.00010 8.53627e-18
7104.50363 8.68994e-18
7105.99700 8.50612e-18
7107.50053 9.54892e-18
7109.00407 8.32194e-18
7110.49744 7.03708e-18
7112.00097 7.66459e-18
7113.50450 9.01025e-18
7114.99788 9.37176e-18
7116.50141 8.96721e-18
7118.00494 8.44116e-18
7119.49831 8.80865e-18
7121.00185 9.88170e-18
7122.49522 9.43963e-18
7123.99875 8.66598e-18
7125.50228 6.50926e-18
7126.99565 1.02411e-17
7128.49919 1.05140e-17
7130.00272 1.05323e-17
7131.49609 7.88553e-18
7132.99962 7.71031e-18
7134.50316 8.63036e-18
7135.99653 9.27243e-18
7137.50006 9.21252e-18
7139.00359 8.63374e-18
7140.49697 9.77881e-18
7142.00050 8.77055e-18
7143.50403 7.72415e-18
7144.99740 6.90118e-18
7146.50094 7.70908e-18
7148.00447 9.15523e-18
7149.49784 8.66482e-18
7151.00137 8.27604e-18
7152.50490 9.87103e-18
7153.99828 1.03470e-17
7155.50181 9.54681e-18
7156.99518 8.56183e-18
7158.49871 8.41791e-18
7160.00225 8.91347e-18
7161.49562 9.36486e-18
7162.99915 9.94923e-18
7164.50268 1.02121e-17
7165.99606 9.89692e-18
7167.49959 9.10255e-18
7169.00312 8.82235e-18
7170.49649 1.04064e-17
7172.00003 9.56320e-18
7173.50356 8.65075e-18
7174.99693 7.83527e-18
7176.50046 9.45237e-18
7178.00399 8.68448e-18
7179.49737 8.78940e-18
7181.00090 9.84741e-18
7182.50443 8.89966e-18
7183.99780 8.16565e-18
7185.50134 8.14959e-18
7187.00487 9.60390e-18
7188.49824 1.05777e-17
7190.00177 9.14951e-18
7191.49515 9.04660e-18
7192.99868 1.17855e-17
7194.50221 9.12490e-18
7195.99558 9.81523e-18
7197.49912 1.01243e-17
7199.00265 1.09069e-17
7200.49602 1.03186e-17
7201.99955 7.74298e-18
7203.50308 8.57520e-18
7204.99646 1.06380e-17
7206.49999 9.57777e-18
7208.00352 8.62304e-18
7209.49689 8.12741e-18
7211.00043 8.36447e-18
7212.50396 9.28973e-18
7213.99733 1.04951e-17
7215.50086 1.07717e-17
7217.00439 1.05217e-17
7218.49777 9.92221e-18
7220.00130 9.49652e-18
