# wavelength flux
3720.00230 5.92288e-18
3721.49568 2.47819e-18
3722.99921 3.98322e-18
3724.50274 7.76006e-19
3725.99611 5.19573e-18
3727.49964 7.94134e-18
3729.00318 1.03059e-17
3730.49655 4.70629e-18
3732.00008 5.18941e-18
3733.50361 5.93769e-18
3734.99699 5.93750e-18
3736.50052 -8.79741e-19
3738.00405 3.65127e-18
3739.49742 5.74790e-18
3741.00095 5.70385e-18
3742.50449 4.14526e-18
3743.99786 5.03101e-18
3745.50139 5.49557e-18
3746.99476 6.49921e-18
3748.49830 -9.02451e-19
3750.00183 -5.71196e-19
3751.49520 -5.71179e-19
3752.99873 9.84250e-19
3754.50227 1.07800e-18
3755.99564 7.69685e-19
3757.49917 7.60234e-18
3759.00270 9.46272e-18
3760.49608 1.06228e-17
3761.99961 7.73843e-18
3763.50314 2.00495e-18
3764.99651 2.06421e-18
3766.50005 7.95508e-18
3768.00358 7.80670e-18
3769.49695 7.65834e-18
3771.00048 7.47518e-18
3772.50401 7.29204e-18
3773.99739 7.10890e-18
3775.50092 6.92581e-18
3777.00445 6.74270e-18
3778.49782 6.55960e-18
3780.00136 6.37651e-18
3781.50489 6.19343e-18
3782.99826 6.01037e-18
3784.50179 5.82734e-18
3785.99517 5.64430e-18
3787.49870 5.46126e-18
3789.00223 5.27824e-18
3790.49560 5.09523e-18
3791.99914 4.91223e-18
3793.50267 4.72927e-18
3794.99604 4.54629e-18
3796.49957 4.36333e-18
3798.00310 4.18037e-18
3799.49648 3.99742e-18
3801.00001 3.81449e-18
3802.50354 3.63156e-18
3803.99691 3.44868e-18
3805.50045 3.26578e-18
3807.00398 3.08289e-18
3808.49735 4.29077e-18
3810.00088 6.56976e-18
3811.50441 5.44576e-18
3812.99779 2.23589e-18
3814.50132 8.72902e-19
3816.00485 1.95100e-18
3817.49823 6.93164e-18
3819.00176 8.83584e-18
3820.49513 5.40259e-18
3821.99866 2.39484e-18
3823.50219 5.75139e-18
3824.99557 8.95043e-18
3826.49910 1.14437e-17
3828.00263 9.43519e-18
3829.49600 3.99496e-18
3830.99954 1.96866e-18
3832.50307 1.72478e-18
3833.99644 4.99277e-18
3835.49997 4.99096e-18
3837.00351 2.02477e-18
3838.49688 5.23549e-18
3840.00041 6.74577e-18
3841.50394 1.99928e-18
3842.99732 1.90039e-18
3844.50085 4.37444e-18
3846.00438 7.68486e-19
3847.49775 2.74037e-18
3849.00128 2.74029e-18
3850.50482 6.48713e-18
3851.99819 1.96805e-18
3853.50172 3.49378e-18
3854.99509 4.75502e-18
3856.49863 1.93422e-18
3858.00216 4.57250e-18
3859.49553 4.57238e-18
3860.99906 5.72436e-18
3862.50260 1.53482e-18
3863.99597 4.72965e-18
3865.49950 1.48130e-18
3867.00303 3.12734e-18
3868.49640 1.79510e-18
3869.99994 9.92519e-19
3871.50347 6.49256e-18
3872.99684 5.74658e-18
3874.50037 4.97058e-18
3876.00391 7.28895e-18
3877.49728 3.95362e-18
3879.00081 1.21363e-18
3880.50434 2.68534e-18
3881.99772 3.72413e-18
3883.50125 4.42022e-18
3885.00478 4.08140e-18
3886.49815 4.56252e-18
3888.00169 6.12357e-18
3889.49506 8.80024e-18
3890.99859 8.30136e-18
3892.50212 4.42744e-18
3893.99550 5.15459e-18
3895.49903 3.65826e-18
3897.00256 3.66607e-18
3898.49593 3.85221e-18
3899.99946 4.03834e-18
3901.50300 4.22446e-18
3902.99637 4.22436e-18
3904.49990 4.54288e-18
3906.00343 2.83152e-18
3907.49681 1.87668e-18
3909.00034 7.47180e-18
3910.50387 7.77520e-18
3911.99724 6.44535e-18
3913.50077 6.73490e-18
3915.00431 6.43054e-18
3916.49768 6.98578e-18
3918.00121 4.89824e-18
3919.50474 4.42117e-18
3920.99812 6.60528e-18
3922.50165 6.81536e-18
3923.99502 5.83484e-18
3925.49855 1.22171e-18
3927.00209 2.51949e-18
3928.49546 9.83970e-18
3929.99899 9.25887e-18
3931.50252 5.55563e-18
3932.99590 7.23871e-18
3934.49943 5.59891e-18
3936.00296 2.49679e-18
3937.49633 9.69975e-18
3938.99987 4.33976e-18
3940.50340 3.28222e-18
3941.99677 6.03789e-18
3943.50030 5.37946e-18
3945.00383 4.35390e-18
3946.49721 5.87799e-18
3948.00074 7.69980e-18
3949.50427 3.41488e-18
3950.99764 5.01050e-18
3952.50118 7.66334e-18
3954.00471 4.92582e-18
3955.49808 4.02804e-18
3957.00161 4.78434e-18
3958.49499 6.61836e-18
3959.99852 4.70424e-18
3961.50205 6.03329e-18
3962.99542 4.27301e-18
3964.49896 3.87073e-18
3966.00249 6.31098e-18
3967.49586 5.18748e-18
3968.99939 7.77338e-18
3970.50292 5.40405e-18
3971.99630 5.40948e-18
3973.49983 8.16630e-18
3975.00336 7.35934e-18
3976.49673 6.62930e-18
3978.00027 1.08187e-17
3979.50380 7.94363e-18
3980.99717 8.34960e-18
3982.50070 7.58566e-18
3984.00424 6.82176e-18
3985.49761 6.05789e-18
3987.00114 6.05775e-18
3988.50467 7.52881e-18
3989.99805 5.34203e-18
3991.50158 2.84909e-18
3992.99495 7.50491e-18
3994.49848 6.35834e-18
3996.00201 2.24213e-18
3997.49539 2.93328e-18
3998.99892 4.71378e-18
4000.50245 5.58726e-18
4001.99582 8.89682e-18
4003.49936 9.26350e-18
4005.00289 6.06800e-18
4006.49626 5.46465e-18
4007.99979 8.56276e-18
4009.50333 4.89557e-18
4010.99670 4.70848e-18
4012.50023 7.69797e-18
4014.00376 7.31901e-18
4015.49714 8.06361e-18
4017.00067 7.70098e-18
4018.50420 7.14851e-18
4019.99757 5.11188e-18
4021.50110 4.53544e-18
4023.00464 8.28832e-18
4024.49801 6.44870e-18
4026.00154 5.29494e-18
4027.49491 4.50976e-18
4028.99845 5.29845e-18
4030.50198 5.65581e-18
4031.99535 2.32858e-18
4033.49888 1.77775e-18
4035.00241 4.62511e-18
4036.49579 7.70809e-18
4037.99932 7.97704e-18
4039.50285 7.94001e-18
4040.99623 8.07186e-18
4042.49976 5.61447e-18
4044.00329 6.05660e-18
4045.49666 6.99855e-18
4047.00019 4.75677e-18
4048.50373 5.76432e-18
4049.99710 7.41870e-18
4051.50063 9.29907e-18
4053.00416 3.70440e-18
4054.49754 5.68407e-18
4056.00107 6.69309e-18
4057.50460 6.59314e-18
4058.99797 5.76088e-18
4060.50150 2.50761e-18
4062.00504 4.90203e-18
4063.49841 4.81749e-18
4065.00194 6.24101e-18
4066.49532 8.51189e-18
4067.99885 9.08914e-18
4069.50238 8.59146e-18
4070.99575 8.40896e-18
4072.49928 6.56817e-18
4074.00282 5.90776e-18
4075.49619 7.36163e-18
4076.99972 6.63220e-18
4078.50325 7.98181e-18
4079.99663 6.40549e-18
4081.50016 6.86214e-18
4083.00369 7.86662e-18
4084.49706 7.72476e-18
4086.00060 1.00375e-17
4087.50413 7.42262e-18
4088.99750 4.81987e-18
4090.50103 4.71188e-18
4092.00456 5.38461e-18
4093.49794 8.17383e-18
4095.00147 7.94977e-18
4096.50500 6.79468e-18
4097.99837 7.90838e-18
4099.50191 9.39661e-18
4100.99528 6.85484e-18
4102.49881 6.60026e-18
4104.00234 6.24864e-18
4105.49572 7.37435e-18
4106.99925 6.54321e-18
4108.50278 3.73656e-18
4109.99615 6.27177e-18
4111.49968 7.82643e-18
4113.00322 4.96438e-18
4114.49659 5.92491e-18
4116.00012 7.44026e-18
4117.50365 4.29703e-18
4118.99703 5.38095e-18
4120.50056 7.13047e-18
4122.00409 3.80438e-18
4123.49746 1.85357e-18
4125.00100 1.87281e-18
4126.50453 1.89205e-18
4127.99790 1.89200e-18
4129.50143 1.34073e-18
4130.99481 7.31591e-18
4132.49834 1.02220e-17
4134.00187 1.03127e-17
4135.49524 7.59614e-18
4136.99878 5.03075e-18
4138.50231 3.16975e-18
4139.99568 5.86938e-18
4141.49921 7.95256e-18
4143.00274 5.91798e-18
4144.49612 6.76680e-18
4145.99965 6.02276e-18
4147.50318 9.21487e-18
4148.99655 9.18830e-18
4150.50009 2.95842e-18
4152.00362 7.50660e-18
4153.49699 8.22586e-18
4155.00052 8.79119e-18
4156.50406 7.08165e-18
4157.99743 6.91560e-18
4159.50096 3.71955e-18
4161.00449 1.69211e-18
4162.49787 3.35742e-18
4164.00140 4.46960e-18
4165.50493 3.60649e-18
4166.99830 4.55526e-18
4168.50183 5.37098e-18
4169.99521 5.58776e-18
4171.49874 6.67675e-18
4173.00227 6.22992e-18
4174.49564 6.05828e-18
4175.99918 4.51762e-18
4177.50271 4.02457e-18
4178.99608 4.92868e-18
4180.49961 5.23248e-18
4182.00315 5.10573e-18
4183.49652 3.66432e-18
4185.00005 4.35110e-18
4186.50358 5.63298e-18
4187.99695 4.54138e-18
4189.50049 5.57513e-18
4191.00402 2.85438e-18
4192.49739 5.25096e-18
4194.00092 5.09762e-18
4195.50446 4.89054e-18
4196.99783 2.06912e-18
4198.50136 3.91680e-18
4200.00489 6.95168e-18
4201.49827 6.23992e-18
4203.00180 6.89605e-18
4204.49517 6.24491e-18
4205.99870 5.62008e-18
4207.50223 5.34276e-18
4208.99561 4.68986e-18
4210.49914 4.45569e-18
4212.00267 4.60243e-18
4213.49604 4.51228e-18
4214.99958 5.72834e-18
4216.50311 6.28573e-18
4217.99648 7.73594e-18
4219.50001 6.13296e-18
4221.00355 5.26052e-18
4222.49692 1.73760e-18
4224.00045 3.02206e-18
4225.50398 6.50571e-18
4226.99736 8.46353e-18
4228.50089 4.93447e-18
4230.00442 4.49765e-18
4231.49779 6.03009e-18
4233.00133 5.42386e-18
4234.50486 6.37605e-18
4235.99823 6.29366e-18
4237.50176 5.00301e-18
4238.99514 4.85751e-18
4240.49867 5.09866e-18
4242.00220 4.22763e-18
4243.49557 4.78082e-18
4244.99910 4.09752e-18
4246.50264 3.03614e-18
4247.99601 4.77028e-18
4249.49954 6.51586e-18
4251.00307 7.23344e-18
4252.49645 7.66497e-18
4253.99998 6.25555e-18
4255.50351 4.67505e-18
4256.99688 7.03099e-18
4258.50042 8.44090e-18
4260.00395 4.84345e-18
4261.49732 2.49069e-18
4263.00085 5.44273e-18
4264.50438 5.76262e-18
4265.99776 3.54327e-18
4267.50129 4.63332e-18
4269.00482 4.93219e-18
4270.49819 1.27093e-18
4272.00173 3.17319e-18
4273.49510 3.60719e-18
4274.99863 5.55026e-18
4276.50216 7.13500e-18
4277.99554 5.00959e-18
4279.49907 3.10019e-18
4281.00260 5.78838e-18
4282.49597 4.69682e-18
4283.99950 5.23963e-18
4285.50304 7.32339e-18
4286.99641 5.92297e-18
4288.49994 5.51171e-18
4290.00347 4.67818e-18
4291.49685 7.48063e-18
4293.00038 7.83278e-18
4294.50391 6.53848e-18
4295.99728 6.38300e-18
4297.50082 6.09146e-18
4299.00435 7.31357e-18
4300.49772 4.24677e-18
4302.00125 3.84784e-18
4303.50479 5.16122e-18
4304.99816 7.93805e-18
4306.50169 8.17184e-18
4307.99506 6.10589e-18
4309.49860 6.97635e-18
4311.00213 5.30927e-18
4312.49550 5.20066e-18
4313.99903 7.17154e-18
4315.50256 8.44772e-18
4316.99594 4.87414e-18
4318.49947 4.49300e-18
4320.00300 6.18397e-18
4321.49637 6.05510e-18
4322.99991 4.43919e-18
4324.50344 5.27437e-18
4325.99681 7.76777e-18
4327.50034 6.85929e-18
4329.00388 6.02243e-18
4330.49725 6.45520e-18
4332.00078 5.26535e-18
4333.50431 6.59720e-18
4334.99768 6.54093e-18
4336.50122 5.74035e-18
4338.00475 5.11454e-18
4339.49812 5.73747e-18
4341.00165 6.42048e-18
4342.49503 4.89825e-18
4343.99856 6.10513e-18
4345.50209 6.59468e-18
4346.99546 5.52735e-18
4348.49900 4.69604e-18
4350.00253 4.66895e-18
4351.49590 5.13533e-18
4352.99943 7.23016e-18
4354.50297 7.34783e-18
4355.99634 6.10510e-18
4357.49987 4.45858e-18
4359.00340 4.16693e-18
4360.49678 5.51731e-18
4362.00031 6.81381e-18
4363.50384 5.51411e-18
4364.99721 3.75487e-18
4366.50074 3.89202e-18
4368.00428 5.73535e-18
4369.49765 5.77881e-18
4371.00118 4.18015e-18
4372.50471 6.23174e-18
4373.99809 5.88271e-18
4375.50162 4.90569e-18
4376.99499 5.32184e-18
4378.49852 5.82485e-18
4380.00205 5.30014e-18
4381.49543 6.40009e-18
4382.99896 5.71577e-18
4384.50249 4.31596e-18
4385.99587 6.92582e-18
4387.49940 6.94816e-18
4389.00293 3.12820e-18
4390.49630 3.17868e-18
4391.99983 3.35630e-18
4393.50337 4.41522e-18
4394.99674 6.31049e-18
4396.50027 4.47489e-18
4398.00380 2.07532e-18
4399.49718 6.12313e-18
4401.00071 7.94032e-18
4402.50424 5.28914e-18
4403.99761 4.13286e-18
4405.50115 4.98873e-18
4407.00468 4.57507e-18
4408.49805 4.23621e-18
4410.00158 4.81637e-18
4411.50511 4.03943e-18
4412.99849 3.42346e-18
4414.50202 3.55088e-18
4415.99539 3.67833e-18
4417.49892 3.80578e-18
4419.00246 3.93322e-18
4420.49583 4.06066e-18
4421.99936 4.18809e-18
4423.50289 4.31551e-18
4424.99627 4.44293e-18
4426.49980 4.57033e-18
4428.00333 4.69774e-18
4429.49670 4.82513e-18
4431.00023 4.95252e-18
4432.50377 5.07990e-18
4433.99714 5.20724e-18
4435.50067 5.33460e-18
4437.00420 5.46197e-18
4438.49758 5.58932e-18
4440.00111 5.71667e-18
4441.50464 5.84401e-18
4442.99801 5.97135e-18
4444.50155 6.09868e-18
4446.00508 6.22600e-18
4447.49845 6.35331e-18
4449.00198 6.48062e-18
4450.49536 6.60792e-18
4451.99889 6.73518e-18
4453.50242 6.75118e-18
4454.99579 6.11861e-18
4456.49932 5.87185e-18
4458.00286 3.81119e-18
4459.49623 3.68315e-18
4460.99976 3.93514e-18
4462.50329 3.62981e-18
4463.99667 4.55391e-18
4465.50020 4.04493e-18
4467.00373 5.27325e-18
4468.49710 4.73423e-18
4470.00064 5.02606e-18
4471.50417 5.89574e-18
4472.99754 5.64016e-18
4474.50107 4.79510e-18
4476.00461 6.66402e-18
4477.49798 6.30262e-18
4479.00151 6.92759e-18
4480.50504 5.92073e-18
4481.99842 5.63490e-18
4483.50195 6.44591e-18
4484.99532 7.17637e-18
4486.49885 6.17730e-18
4488.00238 4.89409e-18
4489.49576 5.59079e-18
4490.99929 6.88242e-18
4492.50282 9.03442e-18
4493.99619 7.83047e-18
4495.49973 4.62337e-18
4497.00326 4.79914e-18
4498.49663 5.87792e-18
4500.00016 5.52176e-18
4501.50370 4.79967e-18
4502.99707 5.62958e-18
4504.50060 4.53849e-18
4506.00413 5.95977e-18
4507.49751 5.94686e-18
4509.00104 5.40465e-18
4510.50457 6.61419e-18
4511.99794 6.01732e-18
4513.50147 5.34449e-18
4514.99485 5.19151e-18
4516.49838 5.88464e-18
4518.00191 6.92073e-18
4519.49528 6.62907e-18
4520.99882 7.25429e-18
4522.50235 5.65775e-18
4523.99572 6.19618e-18
4525.49925 6.77831e-18
4527.00278 5.50453e-18
4528.49616 4.64670e-18
4529.99969 3.97756e-18
4531.50322 4.27632e-18
4532.99660 5.92610e-18
4534.50013 7.16156e-18
4536.00366 6.57457e-18
4537.49703 6.04734e-18
4539.00056 6.47686e-18
4540.50410 8.12321e-18
4541.99747 8.20231e-18
4543.50100 6.68707e-18
4545.00453 6.05379e-18
4546.49791 3.83725e-18
4548.00144 5.07821e-18
4549.49481 8.35170e-18
4550.99834 6.65928e-18
4552.50187 5.96997e-18
4553.99525 5.51333e-18
4555.49878 5.88060e-18
4557.00231 5.71105e-18
4558.49568 7.44093e-18
4559.99922 8.89083e-18
4561.50275 8.20015e-18
4562.99612 1.09885e-17
4564.49965 8.11569e-18
4566.00319 7.22367e-18
4567.49656 7.53747e-18
4569.00009 5.54980e-18
4570.50362 7.00091e-18
4571.99700 7.52920e-18
4573.50053 8.94919e-18
4575.00406 8.88222e-18
4576.49743 6.83887e-18
4578.00097 7.41824e-18
4579.50450 8.93105e-18
4580.99787 7.47474e-18
4582.50140 6.62863e-18
4583.99478 6.75866e-18
4585.49831 6.87130e-18
4587.00184 9.08686e-18
4588.49521 1.03298e-17
4589.99874 9.87080e-18
4591.50228 8.78895e-18
4592.99565 8.15866e-18
4594.49918 7.10992e-18
4596.00271 7.22759e-18
4597.49609 8.79340e-18
4598.99962 1.02335e-17
4600.50315 9.22616e-18
4601.99652 7.14488e-18
4603.50005 7.38515e-18
4605.00359 8.30122e-18
4606.49696 8.95462e-18
4608.00049 8.65621e-18
4609.50402 7.84096e-18
4610.99740 9.26434e-18
4612.50093 9.45689e-18
4614.00446 8.60091e-18
4615.49783 8.85865e-18
4617.00137 1.00592e-17
4618.50490 1.06765e-17
4619.99827 1.12070e-17
4621.50180 1.02960e-17
4622.99518 8.47827e-18
4624.49871 8.32178e-18
4626.00224 9.84401e-18
4627.49561 9.60121e-18
4628.99915 8.85074e-18
4630.50268 9.85696e-18
4631.99605 9.38544e-18
4633.49958 7.65308e-18
4635.00311 9.38291e-18
4636.49649 9.13956e-18
4638.00002 8.16487e-18
4639.50355 7.88681e-18
4640.99692 8.78019e-18
4642.50046 9.18722e-18
4644.00399 8.38803e-18
4645.49736 8.99047e-18
4647.00089 7.04194e-18
4648.50443 7.83518e-18
4649.99780 9.22152e-18
4651.50133 1.01184e-17
4653.00486 8.17025e-18
4654.49824 6.85486e-18
4656.00177 8.47494e-18
4657.49514 9.06619e-18
4658.99867 8.23754e-18
4660.50220 8.66323e-18
4661.99558 9.15299e-18
4663.49911 9.10790e-18
4665.00264 8.11829e-18
4666.49601 8.56202e-18
4667.99955 8.68887e-18
4669.50308 7.45193e-18
4670.99645 7.01078e-18
4672.49998 8.83751e-18
4674.00352 9.54982e-18
4675.49689 9.48624e-18
4677.00042 9.92680e-18
4678.50395 9.03531e-18
4679.99733 1.00755e-17
4681.50086 9.87436e-18
4683.00439 7.66546e-18
4684.49776 7.79890e-18
4686.00129 7.93055e-18
4687.50483 7.77452e-18
4688.99820 8.90998e-18
4690.50173 8.61778e-18
4691.99510 6.81283e-18
4693.49864 6.23980e-18
4695.00217 8.70389e-18
4696.49554 8.70854e-18
4697.99907 8.11845e-18
4699.50260 7.28809e-18
4700.99598 8.64587e-18
4702.49951 8.85381e-18
4704.00304 7.64930e-18
4705.49642 8.13252e-18
4706.99995 9.13635e-18
4708.50348 9.32094e-18
4709.99685 9.20986e-18
4711.50038 7.24949e-18
4713.00392 8.15866e-18
4714.49729 1.02275e-17
4716.00082 8.33988e-18
4717.50435 7.54249e-18
4718.99773 6.82204e-18
4720.50126 8.43005e-18
4722.00479 7.00448e-18
4723.49816 8.32785e-18
4725.00169 7.20940e-18
4726.49507 7.52626e-18
4727.99860 8.10235e-18
4729.50213 8.46409e-18
4730.99550 8.83266e-18
4732.49904 8.35717e-18
4734.00257 8.36986e-18
4735.49594 8.48732e-18
4736.99947 6.96562e-18
4738.50301 7.10210e-18
4739.99638 8.52846e-18
4741.49991 6.79830e-18
4743.00344 7.65099e-18
4744.49682 8.44302e-18
4746.00035 7.14829e-18
4747.50388 8.48848e-18
4748.99725 6.92575e-18
4750.50079 6.23831e-18
4752.00432 8.05831e-18
4753.49769 8.13706e-18
4755.00122 7.23721e-18
4756.50475 6.78802e-18
4757.99813 8.00023e-18
4759.50166 8.13569e-18
4760.99503 7.91085e-18
4762.49856 7.28669e-18
4764.00210 8.17262e-18
4765.49547 8.36619e-18
4766.99900 8.05206e-18
4768.50253 8.19777e-18
4769.99591 9.21543e-18
4771.49944 8.12867e-18
4773.00297 7.55614e-18
4774.49634 6.15040e-18
4775.99988 8.09892e-18
4777.50341 7.97738e-18
4778.99678 6.09257e-18
4780.50031 7.98266e-18
4782.00384 7.27044e-18
4783.49722 7.90501e-18
4785.00075 6.92405e-18
4786.50428 5.82935e-18
4787.99765 5.96074e-18
4789.50119 7.01196e-18
4791.00472 5.76528e-18
4792.49809 6.63052e-18
4794.00162 6.79287e-18
4795.49500 6.81252e-18
4796.99853 7.23242e-18
4798.50206 7.98393e-18
4799.99543 7.27847e-18
4801.49897 6.35623e-18
4803.00250 7.78872e-18
4804.49587 7.11997e-18
4805.99940 7.06386e-18
4807.50293 5.73304e-18
4808.99631 6.83936e-18
4810.49984 8.21773e-18
4812.00337 6.74862e-18
4813.49674 5.00213e-18
4815.00028 6.66811e-18
4816.50381 7.33065e-18
4817.99718 7.65245e-18
4819.50071 8.06434e-18
4821.00425 6.78186e-18
4822.49762 7.13385e-18
4824.00115 8.60449e-18
4825.50468 7.98101e-18
4826.99806 7.91459e-18
4828.50159 7.33329e-18
4829.99496 7.09721e-18
4831.49849 8.19224e-18
4833.00202 7.68603e-18
4834.49540 6.80603e-18
4835.99893 7.03277e-18
4837.50246 7.71483e-18
4838.99583 8.80573e-18
4840.49937 7.50764e-18
4842.00290 6.55146e-18
4843.49627 7.55062e-18
4844.99980 7.74413e-18
4846.50333 7.45249e-18
4847.99671 6.10803e-18
4849.50024 8.29314e-18
4851.00377 8.04088e-18
4852.49715 7.28255e-18
4854.00068 5.91880e-18
4855.50421 8.07190e-18
4856.99758 7.64252e-18
4858.50111 9.38719e-18
4860.00465 9.61824e-18
4861.49802 5.77952e-18
4863.00155 8.42418e-18
4864.49492 7.54283e-18
4865.99846 6.50959e-18
4867.50199 6.31056e-18
4868.99536 8.10647e-18
4870.49889 8.00681e-18
4872.00242 7.33470e-18
4873.49580 5.56141e-18
4874.99933 6.64686e-18
4876.50286 6.90860e-18
4877.99623 6.22038e-18
4879.49977 5.91331e-18
4881.00330 6.40437e-18
4882.49667 6.50711e-18
4884.00020 6.71320e-18
4885.50374 6.89831e-18
4886.99711 7.54050e-18
4888.50064 7.14767e-18
4890.00417 6.90895e-18
4891.49755 8.15034e-18
4893.00108 8.03232e-18
4894.50461 7.31092e-18
4895.99798 7.84310e-18
4897.50152 7.19202e-18
4899.00505 7.40337e-18
4900.49842 7.64293e-18
4902.00195 6.52383e-18
4903.49532 7.43245e-18
4904.99886 9.32272e-18
4906.50239 9.02791e-18
4907.99576 7.54842e-18
4909.49929 5.33208e-18
4911.00283 6.44291e-18
4912.49620 6.57758e-18
4913.99973 7.73718e-18
4915.50326 7.35445e-18
4916.99664 6.77139e-18
4918.50017 7.00052e-18
4920.00370 8.70568e-18
4921.49707 8.65567e-18
4923.00061 8.60567e-18
4924.50414 8.55566e-18
4925.99751 8.50566e-18
4927.50104 8.45566e-18
4929.00457 8.40566e-18
4930.49795 8.35567e-18
4932.00148 8.30568e-18
4933.50501 8.25569e-18
4934.99838 8.20571e-18
4936.50192 8.15572e-18
4937.99529 8.10576e-18
4939.49882 8.05579e-18
4941.00235 8.00581e-18
4942.49573 7.95584e-18
4943.99926 7.90587e-18
4945.50279 7.85591e-18
4946.99616 7.80595e-18
4948.49970 7.75599e-18
4950.00323 7.70603e-18
4951.49660 7.65608e-18
4953.00013 7.60613e-18
4954.50366 7.55618e-18
4955.99704 7.50625e-18
4957.50057 7.45631e-18
4959.00410 6.77032e-18
4960.49747 9.03009e-18
4962.00101 9.81790e-18
4963.50454 9.57075e-18
4964.99791 8.83914e-18
4966.50144 7.99825e-18
4968.00497 7.96825e-18
4969.49835 7.93826e-18
4971.00188 7.90826e-18
4972.49525 7.87827e-18
4973.99878 7.84828e-18
4975.50232 7.84806e-18
4976.99569 7.39920e-18
4978.49922 7.28892e-18
4980.00275 8.47883e-18
4981.49613 8.97708e-18
4982.99966 7.66077e-18
4984.50319 6.50963e-18
4985.99656 8.35020e-18
4987.50010 8.40959e-18
4989.00363 8.49537e-18
4990.49700 8.64033e-18
4992.00053 7.74082e-18
4993.50407 7.32029e-18
4994.99744 8.44689e-18
4996.50097 7.09446e-18
4998.00450 5.98102e-18
4999.49788 6.75489e-18
5001.00141 8.63492e-18
5002.50494 7.90239e-18
5003.99831 6.96567e-18
5005.50184 7.73913e-18
5006.99522 8.27995e-18
5008.49875 8.99241e-18
5010.00228 8.18463e-18
5011.49565 7.53272e-18
5012.99919 7.73983e-18
5014.50272 7.01197e-18
5015.99609 7.29633e-18
5017.49962 8.24582e-18
5019.00316 9.32642e-18
5020.49653 9.24598e-18
5022.00006 9.16554e-18
5023.50359 9.08511e-18
5024.99697 9.00468e-18
5026.50050 8.92426e-18
5028.00403 8.84384e-18
5029.49740 8.76343e-18
5031.00093 8.68305e-18
5032.50447 8.60264e-18
5033.99784 8.52224e-18
5035.50137 8.44184e-18
5037.00490 8.36145e-18
5038.49828 8.28107e-18
5040.00181 8.20069e-18
5041.49518 8.12031e-18
5042.99871 8.03993e-18
5044.50225 7.95956e-18
5045.99562 7.87920e-18
5047.49915 7.79884e-18
5049.00268 7.71851e-18
5050.49605 7.63816e-18
5051.99959 7.55782e-18
5053.50312 7.47747e-18
5054.99649 7.39714e-18
5056.50002 7.31681e-18
5058.00356 8.64208e-18
5059.49693 8.19228e-18
5061.00046 6.75866e-18
5062.50399 6.34802e-18
5063.99737 5.73789e-18
5065.50090 7.06338e-18
5067.00443 6.88699e-18
5068.49780 6.89350e-18
5070.00133 6.90002e-18
5071.49471 6.90653e-18
5072.99824 6.91304e-18
5074.50177 6.91956e-18
5075.99514 6.92607e-18
5077.49868 6.93258e-18
5079.00221 6.93910e-18
5080.49558 6.94561e-18
5081.99911 6.95212e-18
5083.50265 6.95863e-18
5084.99602 6.96515e-18
5086.49955 6.97166e-18
5088.00308 6.97817e-18
5089.49646 6.98468e-18
5090.99999 6.99119e-18
5092.50352 6.99770e-18
5093.99689 7.00421e-18
5095.50043 7.01072e-18
5097.00396 7.01723e-18
5098.49733 7.02374e-18
5100.00086 7.03025e-18
5101.50439 7.03676e-18
5102.99777 7.04327e-18
5104.50130 7.04977e-18
5105.99467 7.05628e-18
5107.49820 6.36555e-18
5109.00174 6.21258e-18
5110.49511 6.82007e-18
5111.99864 6.34605e-18
5113.50217 5.71262e-18
5114.99555 6.64805e-18
5116.49908 7.60502e-18
5118.00261 8.46815e-18
5119.49598 7.54953e-18
5120.99952 8.52732e-18
5122.50305 7.79265e-18
5123.99642 8.65127e-18
5125.49995 7.65183e-18
5127.00348 7.20641e-18
5128.49686 7.05994e-18
5130.00039 7.53017e-18
5131.50392 9.58416e-18
5132.99729 8.49273e-18
5134.50083 8.09230e-18
5136.00436 7.41652e-18
5137.49773 6.61175e-18
5139.00126 8.20182e-18
5140.50480 6.11107e-18
5141.99817 6.08024e-18
5143.50170 7.50784e-18
5144.99507 6.37381e-18
5146.49860 6.57726e-18
5148.00214 7.04546e-18
5149.49551 6.42088e-18
5150.99904 6.68854e-18
5152.50257 7.76148e-18
5153.99595 7.97884e-18
5155.49948 6.57896e-18
5157.00301 6.45665e-18
5158.49638 7.20068e-18
5159.99992 7.74766e-18
5161.50345 7.47575e-18
5162.99682 6.81752e-18
5164.50035 7.46330e-18
5166.00389 7.88964e-18
5167.49726 7.36326e-18
5169.00079 7.50141e-18
5170.50432 6.63554e-18
5171.99770 5.76317e-18
5173.50123 8.01808e-18
5175.00476 8.25708e-18
5176.49813 7.20398e-18
5178.00166 6.13582e-18
5179.49504 6.42217e-18
5180.99857 7.39616e-18
5182.50210 7.52586e-18
5183.99547 6.95832e-18
5185.49901 6.27568e-18
5187.00254 6.68085e-18
5188.49591 6.99608e-18
5189.99944 7.74324e-18
5191.50298 7.42076e-18
5192.99635 8.77794e-18
5194.49988 8.04054e-18
5196.00341 6.96001e-18
5197.49678 8.48189e-18
5199.00032 7.81914e-18
5200.50385 6.52385e-18
5201.99722 7.71009e-18
5203.50075 7.13173e-18
5205.00429 8.02753e-18
5206.49766 7.88798e-18
5208.00119 7.10721e-18
5209.50472 6.23387e-18
5210.99810 7.02445e-18
5212.50163 7.68572e-18
5214.00516 8.40637e-18
5215.49853 9.28548e-18
5217.00207 8.47417e-18
5218.49544 7.88000e-18
5219.99897 7.77822e-18
5221.50250 8.51867e-18
5222.99588 8.20190e-18
5224.49941 7.35658e-18
5226.00294 7.70380e-18
5227.49631 8.65355e-18
5228.99984 8.58079e-18
5230.50338 8.49814e-18
5231.99675 8.77514e-18
5233.50028 9.20798e-18
5235.00381 9.78882e-18
5236.49719 7.95128e-18
5238.00072 7.30059e-18
5239.50425 7.15383e-18
5240.99762 6.62720e-18
5242.50115 6.40848e-18
5244.00469 7.45341e-18
5245.49806 8.21593e-18
5247.00159 7.79086e-18
5248.49497 8.05047e-18
5249.99850 8.10813e-18
5251.50203 7.89481e-18
5252.99540 8.35572e-18
5254.49893 8.43243e-18
5256.00247 9.14241e-18
5257.49584 1.06137e-17
5258.99937 1.00351e-17
5260.50290 9.05162e-18
5261.99628 8.80223e-18
5263.49981 9.01785e-18
5265.00334 1.00309e-17
5266.49671 1.04740e-17
5268.00025 9.24753e-18
5269.50378 9.32127e-18
5270.99715 9.36521e-18
5272.50068 9.46546e-18
5274.00421 1.03347e-17
5275.49759 9.73012e-18
5277.00112 8.83373e-18
5278.50465 9.73317e-18
5279.99802 1.00177e-17
5281.50156 1.12394e-17
5282.99493 9.05951e-18
5284.49846 1.10341e-17
5286.00199 1.16585e-17
5287.49537 9.99474e-18
5288.99890 1.13532e-17
5290.50243 1.10339e-17
5291.99580 9.76891e-18
5293.49933 9.62653e-18
5295.00287 9.57916e-18
5296.49624 9.74488e-18
5297.99977 1.06820e-17
5299.50330 9.13667e-18
5300.99668 8.29558e-18
5302.50021 8.14036e-18
5304.00374 1.00807e-17
5305.49711 1.12460e-17
5307.00065 1.01767e-17
5308.50418 1.02326e-17
5309.99755 9.85722e-18
5311.50108 9.22625e-18
5313.00462 8.99647e-18
5314.49799 8.38187e-18
5316.00152 8.54764e-18
5317.49489 8.92032e-18
5318.99842 9.46119e-18
5320.50196 1.08136e-17
5321.99533 1.10463e-17
5323.49886 1.05799e-17
5325.00239 1.06906e-17
5326.49577 1.15985e-17
5327.99930 1.02041e-17
5329.50283 9.65543e-18
5330.99620 1.06318e-17
5332.49974 9.85667e-18
5334.00327 8.57956e-18
5335.49664 1.13855e-17
5337.00017 1.17370e-17
5338.50371 9.19395e-18
5339.99708 9.80356e-18
5341.50061 1.23073e-17
5343.00414 1.19541e-17
5344.49752 1.00543e-17
5346.00105 9.44845e-18
5347.50458 9.15054e-18
5348.99795 8.99804e-18
5350.50148 9.74224e-18
5351.99486 1.23009e-17
5353.49839 1.15804e-17
5355.00192 1.00600e-17
5356.49529 1.17607e-17
5357.99883 1.17030e-17
5359.50236 1.10701e-17
5360.99573 1.08858e-17
5362.49926 1.18795e-17
5364.00280 1.14054e-17
5365.49617 1.22535e-17
5366.99970 1.17899e-17
5368.50323 1.10490e-17
5369.99661 1.02293e-17
5371.50014 1.08946e-17
5373.00367 1.13394e-17
5374.49704 1.11198e-17
5376.00057 1.06450e-17
5377.50411 1.06953e-17
5378.99748 1.16261e-17
5380.50101 1.20092e-17
5382.00454 1.15344e-17
5383.49792 1.17744e-17
5385.00145 1.07644e-17
5386.49482 9.49454e-18
5387.99835 9.90543e-18
5389.50188 1.14782e-17
5390.99526 1.08680e-17
5392.49879 9.26534e-18
5394.00232 9.24972e-18
5395.49570 1.07149e-17
5396.99923 1.11667e-17
5398.50276 1.08124e-17
5399.99613 1.07404e-17
5401.49966 1.15276e-17
5403.00320 1.19255e-17
5404.49657 1.21520e-17
5406.00010 1.09020e-17
5407.50363 9.48622e-18
5408.99701 1.10409e-17
5410.50054 1.03477e-17
5412.00407 9.95369e-18
5413.49744 1.02234e-17
5415.00097 1.11224e-17
5416.50451 1.13168e-17
5417.99788 1.11779e-17
5419.50141 1.16463e-17
5421.00494 1.07749e-17
5422.49832 1.10000e-17
5424.00185 1.13230e-17
5425.49522 1.12664e-17
5426.99875 1.03618e-17
5428.50229 9.88991e-18
5429.99566 1.07069e-17
5431.49919 1.12143e-17
5433.00272 1.12950e-17
5434.49610 1.11383e-17
5435.99963 1.11960e-17
5437.50316 1.21883e-17
5438.99653 1.32910e-17
5440.50007 1.22797e-17
5442.00360 1.04062e-17
5443.49697 9.55847e-18
5445.00050 1.01461e-17
5446.50403 1.08313e-17
5447.99741 1.06584e-17
5449.50094 1.04841e-17
5451.00447 1.11721e-17
5452.49784 1.29868e-17
5454.00138 1.31807e-17
5455.50491 1.07957e-17
5456.99828 9.70489e-18
5458.50181 1.20069e-17
5459.99519 1.35916e-17
5461.49872 1.28193e-17
5463.00225 1.22971e-17
5464.49562 1.17046e-17
5465.99915 1.15405e-17
5467.50269 1.11827e-17
5468.99606 1.07514e-17
5470.49959 1.08202e-17
5472.00312 1.09044e-17
5473.49650 1.18616e-17
5475.00003 1.27179e-17
5476.50356 1.18728e-17
5477.99693 1.14817e-17
5479.50047 1.15663e-17
5481.00400 1.19974e-17
5482.49737 1.32805e-17
5484.00090 1.28179e-17
5485.50443 1.10784e-17
5486.99781 1.11025e-17
5488.50134 1.26844e-17
5490.00487 1.21943e-17
5491.49825 1.17133e-17
5493.00178 1.23381e-17
5494.49515 1.12642e-17
5495.99868 1.23588e-17
5497.50221 1.22755e-17
5498.99559 1.31965e-17
5500.49912 1.32708e-17
5502.00265 1.18999e-17
5503.49602 1.30091e-17
5504.99956 1.30063e-17
5506.50309 1.26922e-17
5507.99646 1.27483e-17
5509.49999 1.35993e-17
5511.00353 1.23671e-17
5512.49690 1.19010e-17
5514.00043 1.26269e-17
5515.50396 1.30601e-17
5516.99734 1.30055e-17
5518.50087 1.18429e-17
5520.00440 1.30375e-17
5521.49777 1.26201e-17
5523.00130 1.23174e-17
5524.50484 1.22745e-17
5525.99821 1.31919e-17
5527.50174 1.36278e-17
5528.99511 1.28651e-17
5530.49865 1.32653e-17
5532.00218 1.46534e-17
5533.49555 1.44750e-17
5534.99908 1.45714e-17
5536.50262 1.39875e-17
5537.99599 1.21703e-17
5539.49952 1.12022e-17
5541.00305 1.21712e-17
5542.49643 1.24709e-17
5543.99996 1.38971e-17
5545.50349 1.45295e-17
5546.99686 1.39813e-17
5548.50039 1.48348e-17
5550.00393 1.15379e-17
5551.49730 1.23015e-17
5553.00083 1.37759e-17
5554.50436 1.26628e-17
5555.99774 1.43263e-17
5557.50127 1.42527e-17
5559.00480 1.43319e-17
5560.49817 1.29302e-17
5562.00170 1.34484e-17
5563.49508 1.50034e-17
5564.99861 1.29260e-17
5566.50214 1.21099e-17
5567.99552 1.21954e-17
5569.49905 1.22722e-17
5571.00258 1.35317e-17
5572.49595 1.43198e-17
5573.99948 1.44779e-17
5575.50302 1.20451e-17
5576.99639 1.40346e-17
5578.49992 1.38365e-17
5580.00345 1.36385e-17
5581.49683 1.34405e-17
5583.00036 1.32425e-17
5584.50389 1.30445e-17
5585.99726 1.28466e-17
5587.50079 1.28463e-17
5589.00433 1.20006e-17
5590.49770 1.18562e-17
5592.00123 1.18385e-17
5593.50476 1.26240e-17
5594.99814 1.20044e-17
5596.50167 1.15449e-17
5597.99504 1.02505e-17
5599.49857 1.14345e-17
5601.00211 1.23083e-17
5602.49548 1.12650e-17
5603.99901 1.06237e-17
5605.50254 1.07008e-17
5606.99592 1.15025e-17
5608.49945 1.12283e-17
5610.00298 1.18090e-17
5611.49635 1.31657e-17
5612.99989 1.32392e-17
5614.50342 1.25030e-17
5615.99679 1.26511e-17
5617.50032 1.31691e-17
5619.00385 1.30580e-17
5620.49723 1.12751e-17
5622.00076 1.20017e-17
5623.50429 1.38455e-17
5624.99766 1.40361e-17
5626.50120 1.30247e-17
5628.00473 1.13440e-17
5629.49810 1.29627e-17
5631.00163 1.14705e-17
5632.49501 1.39654e-17
5633.99854 1.44493e-17
5635.50207 1.29950e-17
5636.99544 1.20203e-17
5638.49898 1.16597e-17
5640.00251 1.31141e-17
5641.49588 1.30110e-17
5642.99941 1.28496e-17
5644.50294 1.19852e-17
5645.99632 1.25446e-17
5647.49985 1.28469e-17
5649.00338 1.34626e-17
5650.49675 1.20187e-17
5652.00029 1.17250e-17
5653.50382 1.18575e-17
5654.99719 1.19451e-17
5656.50072 1.22444e-17
5658.00425 1.24284e-17
5659.49763 1.38600e-17
5661.00116 1.23252e-17
5662.50469 1.31519e-17
5663.99807 1.35389e-17
5665.50160 1.33630e-17
5666.99497 1.25916e-17
5668.49850 1.14878e-17
5670.00203 1.15957e-17
5671.49541 1.30402e-17
5672.99894 1.25255e-17
5674.50247 1.26949e-17
5675.99584 1.44952e-17
5677.49938 1.33980e-17
5679.00291 1.26689e-17
5680.49628 1.35397e-17
5681.99981 1.42485e-17
5683.50335 1.36714e-17
5684.99672 1.31855e-17
5686.50025 1.24489e-17
5688.00378 1.17041e-17
5689.49716 1.32165e-17
5691.00069 1.38835e-17
5692.50422 1.38925e-17
5693.99759 1.33068e-17
5695.50112 1.38321e-17
5697.00466 1.43393e-17
5698.49803 1.40421e-17
5700.00156 1.40902e-17
5701.50509 1.40924e-17
5702.99847 1.27026e-17
5704.50200 1.37136e-17
5705.99537 1.52903e-17
5707.49890 1.29604e-17
5709.00243 1.22712e-17
5710.49581 1.33860e-17
5711.99934 1.34389e-17
5713.50287 1.30215e-17
5714.99625 1.37283e-17
5716.49978 1.47822e-17
5718.00331 1.39538e-17
5719.49668 1.25166e-17
5721.00021 1.16065e-17
5722.50375 1.31649e-17
5723.99712 1.38229e-17
5725.50065 1.27706e-17
5727.00418 1.29588e-17
5728.49756 1.27541e-17
5730.00109 1.33753e-17
5731.50462 1.41515e-17
5732.99799 1.41458e-17
5734.50153 1.41492e-17
5736.00506 1.37080e-17
5737.49843 1.32896e-17
5739.00196 1.32433e-17
5740.49533 1.26632e-17
5741.99887 1.23105e-17
5743.50240 1.29887e-17
5744.99577 1.26695e-17
5746.49930 1.25440e-17
5748.00284 1.35245e-17
5749.49621 1.27428e-17
5750.99974 1.19526e-17
5752.50327 1.22793e-17
5753.99665 1.06410e-17
5755.50018 1.12843e-17
5757.00371 1.24621e-17
5758.49708 1.21262e-17
5760.00062 1.34565e-17
5761.50415 1.35728e-17
5762.99752 1.29207e-17
5764.50105 1.39610e-17
5766.00458 1.27783e-17
5767.49796 1.14536e-17
5769.00149 1.21562e-17
5770.50502 1.07605e-17
5771.99839 1.13195e-17
5773.50193 1.15248e-17
5774.99530 1.02934e-17
5776.49883 1.24911e-17
5778.00236 1.16503e-17
5779.49574 1.11661e-17
5780.99927 1.00484e-17
5782.50280 9.72075e-18
5783.99617 1.10997e-17
5785.49971 1.08274e-17
5787.00324 1.31319e-17
5788.49661 1.25033e-17
5790.00014 9.74936e-18
5791.50367 1.07414e-17
5792.99705 1.12888e-17
5794.50058 1.04414e-17
5796.00411 1.06849e-17
5797.49748 1.10843e-17
5799.00102 1.14301e-17
5800.50455 1.13873e-17
5801.99792 1.13532e-17
5803.50145 1.06025e-17
5805.00498 9.88371e-18
5806.49836 1.05380e-17
5808.00189 1.09190e-17
5809.49526 1.06175e-17
5810.99880 1.16627e-17
5812.50233 1.19323e-17
5813.99570 1.06590e-17
5815.49923 9.95340e-18
5817.00276 1.04923e-17
5818.49614 1.07054e-17
5819.99967 1.11041e-17
5821.50320 1.14369e-17
5822.99657 1.22229e-17
5824.50011 1.19035e-17
5826.00364 1.02965e-17
5827.49701 1.02083e-17
5829.00054 1.08767e-17
5830.50407 1.19740e-17
5831.99745 1.14378e-17
5833.50098 1.09955e-17
5835.00451 1.10086e-17
5836.49788 1.04894e-17
5838.00142 1.10367e-17
5839.49479 1.17779e-17
5840.99832 1.02278e-17
5842.50185 1.01629e-17
5843.99523 1.20693e-17
5845.49876 1.12113e-17
5847.00229 1.19233e-17
5848.49566 1.00780e-17
5849.99920 1.17397e-17
5851.50273 1.23113e-17
5852.99610 1.21466e-17
5854.49963 1.03903e-17
5856.00317 1.07808e-17
5857.49654 1.25277e-17
5859.00007 1.12604e-17
5860.50360 1.04324e-17
5861.99698 1.02232e-17
5863.50051 1.03478e-17
5865.00404 1.09210e-17
5866.49741 1.08729e-17
5868.00094 1.03377e-17
5869.50448 1.04540e-17
5870.99785 1.19789e-17
5872.50138 1.15090e-17
5873.99475 1.11946e-17
5875.49829 1.16903e-17
5877.00182 1.13601e-17
5878.49519 1.15511e-17
5879.99872 1.34841e-17
5881.50226 1.40641e-17
5882.99563 1.20572e-17
5884.49916 1.13616e-17
5886.00269 1.21194e-17
5887.49607 1.28068e-17
5888.99960 1.18190e-17
5890.50313 1.17210e-17
5891.99650 1.22291e-17
5893.50003 1.29007e-17
5895.00357 1.23746e-17
5896.49694 1.12271e-17
5898.00047 1.20239e-17
5899.50400 1.18810e-17
5900.99738 1.22659e-17
5902.50091 1.18273e-17
5904.00444 1.13758e-17
5905.49781 1.09478e-17
5907.00135 1.28554e-17
5908.49472 1.22136e-17
5909.99825 1.23482e-17
5911.50178 1.30089e-17
5912.99515 1.32712e-17
5914.49869 1.33640e-17
5916.00222 1.27168e-17
5917.49559 1.21574e-17
5918.99912 1.23459e-17
5920.50266 1.24791e-17
5921.99603 1.32942e-17
5923.49956 1.28423e-17
5925.00309 1.31045e-17
5926.49647 1.25438e-17
5928.00000 1.15428e-17
5929.50353 1.19395e-17
5930.99690 1.10541e-17
5932.50043 1.09751e-17
5934.00397 1.21398e-17
5935.49734 1.33552e-17
5937.00087 1.37193e-17
5938.50440 1.36199e-17
5939.99778 1.32348e-17
5941.50131 1.28759e-17
5943.00484 1.36378e-17
5944.49821 1.26384e-17
5946.00175 1.19696e-17
5947.49512 1.23432e-17
5948.99865 1.31547e-17
5950.50218 1.38029e-17
5951.99556 1.15130e-17
5953.49909 1.17818e-17
5955.00262 1.40759e-17
5956.49599 1.29196e-17
5957.99953 1.16475e-17
5959.50306 1.37172e-17
5960.99643 1.44064e-17
5962.49996 1.18498e-17
5964.00349 1.12698e-17
5965.49687 1.32498e-17
5967.00040 1.27245e-17
5968.50393 1.22161e-17
5969.99730 1.35449e-17
5971.50084 1.37944e-17
5973.00437 1.42221e-17
5974.49774 1.43282e-17
5976.00127 1.26914e-17
5977.50480 1.20646e-17
5978.99818 1.25067e-17
5980.50171 1.32842e-17
5981.99508 1.34510e-17
5983.49862 1.22535e-17
5985.00215 1.13116e-17
5986.49552 1.00451e-17
5987.99905 1.02399e-17
5989.50258 1.14381e-17
5990.99596 1.17710e-17
5992.49949 1.10576e-17
5994.00302 1.07097e-17
5995.49639 1.16998e-17
5996.99993 1.33390e-17
5998.50346 1.35957e-17
5999.99683 1.19679e-17
6001.50036 1.14232e-17
6003.00390 1.27735e-17
6004.49727 1.24168e-17
6006.00080 1.16312e-17
6007.50433 1.23074e-17
6008.99770 1.15199e-17
6010.50124 1.21575e-17
6012.00477 1.25313e-17
6013.49814 1.25281e-17
6015.00167 1.09347e-17
6016.49505 1.23945e-17
6017.99858 1.18021e-17
6019.50211 1.18487e-17
6020.99548 1.22527e-17
6022.49902 1.30854e-17
6024.00255 1.12982e-17
6025.49592 1.14747e-17
6026.99945 1.34771e-17
6028.50299 1.18973e-17
6029.99636 1.15955e-17
6031.49989 1.23465e-17
6033.00342 1.22052e-17
6034.49680 1.29543e-17
6036.00033 1.12838e-17
6037.50386 1.12728e-17
6038.99723 1.21226e-17
6040.50076 1.22149e-17
6042.00430 1.18378e-17
6043.49767 1.15312e-17
6045.00120 1.28118e-17
6046.50473 1.23429e-17
6047.99811 1.07846e-17
6049.50164 1.04377e-17
6050.99501 1.16764e-17
6052.49854 1.11996e-17
6054.00208 1.26808e-17
6055.49545 1.22704e-17
6056.99898 1.04402e-17
6058.50251 1.21739e-17
6059.99588 1.20593e-17
6061.49942 1.15034e-17
6063.00295 1.14026e-17
6064.49632 1.11014e-17
6065.99985 1.14663e-17
6067.50339 1.33773e-17
6068.99676 1.17649e-17
6070.50029 1.21744e-17
6072.00382 1.24565e-17
6073.49720 1.31761e-17
6075.00073 1.28621e-17
6076.50426 1.23800e-17
6077.99763 1.18980e-17
6079.50117 1.14159e-17
6081.00470 1.14158e-17
6082.49807 1.20292e-17
6084.00160 1.20859e-17
6085.49498 1.18045e-17
6086.99851 1.09729e-17
6088.50204 1.00303e-17
6089.99541 1.12060e-17
6091.49894 1.19324e-17
6093.00248 1.21143e-17
6094.49585 1.17625e-17
6095.99938 1.10222e-17
6097.50291 1.12456e-17
6098.99629 1.18950e-17
6100.49982 1.10154e-17
6102.00335 1.22150e-17
6103.49672 1.28408e-17
6105.00025 1.16184e-17
6106.50379 1.20059e-17
6107.99716 1.06442e-17
6109.50069 1.01258e-17
6111.00422 1.08065e-17
6112.49760 1.17893e-17
6114.00113 1.29353e-17
6115.50466 1.27523e-17
6116.99803 1.26594e-17
6118.50157 1.03267e-17
6119.99494 1.10333e-17
6121.49847 1.16504e-17
6123.00200 1.11290e-17
6124.49538 1.05358e-17
6125.99891 1.04199e-17
6127.50244 1.17583e-17
6128.99581 1.24916e-17
6130.49935 1.17117e-17
6132.00288 1.10653e-17
6133.49625 1.07482e-17
6134.99978 1.16537e-17
6136.50331 1.26064e-17
6137.99669 1.33781e-17
6139.50022 1.28139e-17
6141.00375 1.09478e-17
6142.49712 1.10900e-17
6144.00066 1.13069e-17
6145.50419 1.12945e-17
6146.99756 1.14799e-17
6148.50109 1.10648e-17
6150.00463 1.10728e-17
6151.49800 1.23060e-17
6153.00153 1.15520e-17
6154.49490 1.12689e-17
6155.99843 1.24031e-17
6157.50197 1.18985e-17
6158.99534 1.23251e-17
6160.49887 1.25037e-17
6162.00240 1.18320e-17
6163.49578 1.29590e-17
6164.99931 1.33468e-17
6166.50284 1.22579e-17
6167.99621 1.09248e-17
6169.49975 1.13080e-17
6171.00328 1.19005e-17
6172.49665 1.15324e-17
6174.00018 1.21489e-17
6175.50372 1.17160e-17
6176.99709 1.14260e-17
6178.50062 1.23966e-17
6180.00415 1.26791e-17
6181.49752 1.16651e-17
6183.00106 1.19615e-17
6184.50459 1.31410e-17
6185.99796 1.26529e-17
6187.50149 1.23672e-17
6188.99487 1.29647e-17
6190.49840 1.40473e-17
6192.00193 1.33725e-17
6193.49530 1.19928e-17
6194.99884 1.35253e-17
6196.50237 1.34110e-17
6197.99574 1.27211e-17
6199.49927 1.35891e-17
6201.00281 1.27790e-17
6202.49618 1.15330e-17
6203.99971 1.15546e-17
6205.50324 1.18486e-17
6206.99662 1.14289e-17
6208.50015 1.18268e-17
6210.00368 1.22561e-17
6211.49705 1.17686e-17
6213.00058 1.23121e-17
6214.50412 1.29257e-17
6215.99749 1.32653e-17
6217.50102 1.35751e-17
6219.00455 1.27885e-17
6220.49793 1.29520e-17
6222.00146 1.12522e-17
6223.50499 1.10277e-17
6224.99836 1.05799e-17
6226.50190 1.03774e-17
6227.99527 1.13289e-17
6229.49880 1.23680e-17
6231.00233 1.10083e-17
6232.49571 1.13181e-17
6233.99924 1.22268e-17
6235.50277 1.22766e-17
6236.99614 1.20165e-17
6238.49967 1.29860e-17
6240.00321 1.23365e-17
6241.49658 1.18818e-17
6243.00011 1.14252e-17
6244.50364 1.13169e-17
6245.99702 1.24360e-17
6247.50055 1.29115e-17
6249.00408 1.19807e-17
6250.49745 9.86967e-18
6252.00098 9.77301e-18
6253.50452 1.03334e-17
6254.99789 1.08743e-17
6256.50142 1.10970e-17
6258.00495 1.24542e-17
6259.49833 1.00616e-17
6261.00186 1.15013e-17
6262.49523 1.11417e-17
6263.99876 8.86977e-18
6265.50230 9.48077e-18
6266.99567 1.19957e-17
6268.49920 1.14912e-17
6270.00273 9.79214e-18
6271.49611 1.13359e-17
6272.99964 1.20235e-17
6274.50317 9.72571e-18
6275.99654 9.97455e-18
6277.50007 9.95470e-18
6279.00361 1.00657e-17
6280.49698 1.19991e-17
6282.00051 1.03832e-17
6283.50404 1.03086e-17
6284.99742 1.03891e-17
6286.50095 1.14277e-17
6288.00448 1.13060e-17
6289.49785 1.14113e-17
6291.00139 1.16832e-17
6292.50492 1.15257e-17
6293.99829 1.04622e-17
6295.50182 1.02222e-17
6296.99520 1.15208e-17
6298.49873 1.25580e-17
6300.00226 1.32803e-17
6301.49563 1.12952e-17
6302.99917 9.71621e-18
6304.50270 1.04248e-17
6305.99607 1.23646e-17
6307.49960 1.20559e-17
6309.00313 1.13841e-17
6310.49651 1.17822e-17
6312.00004 1.03361e-17
6313.50357 9.71211e-18
6314.99694 1.11206e-17
6316.50048 1.13776e-17
6318.00401 1.05223e-17
6319.49738 9.38251e-18
6321.00091 1.02008e-17
6322.50445 1.20180e-17
6323.99782 1.21396e-17
6325.50135 1.12839e-17
6327.00488 1.19059e-17
6328.49826 1.23421e-17
6330.00179 1.13404e-17
6331.49516 1.05857e-17
6332.99869 1.07970e-17
6334.50222 1.10131e-17
6335.99560 1.09925e-17
6337.49913 1.00193e-17
6339.00266 1.04221e-17
6340.49603 1.15696e-17
6341.99957 9.37294e-18
6343.50310 9.18236e-18
6344.99647 1.12252e-17
6346.50000 9.87616e-18
6348.00353 9.50906e-18
6349.49691 1.20254e-17
6351.00044 1.30704e-17
6352.50397 1.23283e-17
6353.99735 1.11144e-17
6355.50088 1.10403e-17
6357.00441 1.07874e-17
6358.49778 1.17410e-17
6360.00131 1.29139e-17
6361.50485 1.19040e-17
6362.99822 1.19985e-17
6364.50175 1.26529e-17
6365.99512 1.19421e-17
6367.49866 1.17384e-17
6369.00219 1.13848e-17
6370.49556 1.07128e-17
6371.99909 1.08042e-17
6373.50263 1.19192e-17
6374.99600 1.24873e-17
6376.49953 1.01275e-17
6378.00306 9.27345e-18
6379.49644 1.13518e-17
6380.99997 1.16406e-17
6382.50350 1.10594e-17
6383.99687 1.22311e-17
6385.50040 1.22899e-17
6387.00394 1.10508e-17
6388.49731 1.01461e-17
6390.00084 1.04948e-17
6391.50437 1.00031e-17
6392.99775 1.08895e-17
6394.50128 1.19165e-17
6396.00481 1.08360e-17
6397.49818 1.10557e-17
6399.00172 1.26188e-17
6400.49509 1.32742e-17
6401.99862 1.37189e-17
6403.50215 1.16862e-17
6404.99553 1.11226e-17
6406.49906 1.25009e-17
6408.00259 1.12518e-17
6409.49596 9.66612e-18
6410.99949 1.13205e-17
6412.50303 1.23840e-17
6413.99640 1.22946e-17
6415.49993 1.34942e-17
6417.00346 1.23196e-17
6418.49684 1.04378e-17
6420.00037 1.12642e-17
6421.50390 1.28554e-17
6422.99727 1.15269e-17
6424.50080 1.19239e-17
6426.00434 1.15943e-17
6427.49771 1.10186e-17
6429.00124 1.15797e-17
6430.49462 1.14909e-17
6431.99815 1.22708e-17
6433.50168 1.11979e-17
6434.99505 1.11911e-17
6436.49858 1.19672e-17
6438.00212 1.16602e-17
6439.49549 1.07462e-17
6440.99902 1.13915e-17
6442.50255 1.21437e-17
6443.99593 1.23126e-17
6445.49946 1.05853e-17
6447.00299 1.14831e-17
6448.49636 1.12789e-17
6449.99989 1.14313e-17
6451.50343 1.12857e-17
6452.99680 1.12380e-17
6454.50033 1.20287e-17
6456.00386 1.17104e-17
6457.49724 1.10053e-17
6459.00077 1.20067e-17
6460.50430 1.30933e-17
6461.99767 1.31420e-17
6463.50121 1.27582e-17
6465.00474 1.20642e-17
6466.49811 1.12557e-17
6468.00164 1.13854e-17
6469.49502 1.33064e-17
6470.99855 1.26651e-17
6472.50208 1.16107e-17
6473.99545 1.29923e-17
6475.49899 1.15488e-17
6477.00252 1.02043e-17
6478.49589 1.15450e-17
6479.99942 1.20270e-17
6481.50295 1.25837e-17
6482.99633 1.19014e-17
6484.49986 1.17541e-17
6486.00339 1.33091e-17
6487.49676 1.30214e-17
6489.00030 1.25627e-17
6490.50383 1.37018e-17
6491.99720 1.24197e-17
6493.50073 1.25867e-17
6495.00427 1.26471e-17
6496.49764 1.26749e-17
6498.00117 1.24615e-17
6499.50470 1.19232e-17
6500.99808 1.28130e-17
6502.50161 1.41105e-17
6504.00514 1.40176e-17
6505.49851 1.29589e-17
6507.00204 1.20188e-17
6508.49542 1.13757e-17
6509.99895 1.20030e-17
6511.50248 1.35117e-17
6512.99585 1.28339e-17
6514.49939 1.33517e-17
6516.00292 1.33775e-17
6517.49629 1.31728e-17
6518.99982 1.36533e-17
6520.50335 1.29962e-17
6521.99673 1.34167e-17
6523.50026 1.37709e-17
6525.00379 1.31854e-17
6526.49717 1.25806e-17
6528.00070 1.29560e-17
6529.50423 1.43412e-17
6530.99760 1.51376e-17
6532.50113 1.39738e-17
6534.00467 1.23785e-17
6535.49804 1.32878e-17
6537.00157 1.32870e-17
6538.50510 1.09046e-17
6539.99848 1.18553e-17
6541.50201 1.38677e-17
6542.99538 1.42852e-17
6544.49891 1.34469e-17
6546.00245 1.18972e-17
6547.49582 1.25816e-17
6548.99935 1.25324e-17
6550.50288 1.23480e-17
6551.99626 1.38279e-17
6553.49979 1.33179e-17
6555.00332 1.39894e-17
6556.49669 1.43780e-17
6558.00022 1.29556e-17
6559.50376 1.23652e-17
6560.99713 1.26642e-17
6562.50066 1.22531e-17
6564.00419 1.39278e-17
6565.49757 1.27018e-17
6567.00110 1.22054e-17
6568.50463 1.31678e-17
6569.99800 1.36130e-17
6571.50153 1.39646e-17
6572.99491 1.21092e-17
6574.49844 1.19692e-17
6576.00197 1.29181e-17
6577.49535 1.37435e-17
6578.99888 1.53780e-17
6580.50241 1.39461e-17
6581.99578 1.29313e-17
6583.49931 1.34036e-17
6585.00285 1.28360e-17
6586.49622 1.33596e-17
6587.99975 1.26769e-17
6589.50328 1.12636e-17
6590.99666 1.25693e-17
6592.50019 1.36125e-17
6594.00372 1.26029e-17
6595.49709 1.23541e-17
6597.00063 1.32742e-17
6598.50416 1.38541e-17
6599.99753 1.43144e-17
6601.50106 1.39908e-17
6603.00459 1.32931e-17
6604.49797 1.29510e-17
6606.00150 1.20040e-17
6607.49487 1.23288e-17
6608.99840 1.40894e-17
6610.50194 1.35383e-17
6611.99531 1.14817e-17
6613.49884 1.18163e-17
6615.00237 1.33662e-17
6616.49575 1.37405e-17
6617.99928 1.40428e-17
6619.50281 1.41146e-17
6620.99618 1.32454e-17
6622.49972 1.27924e-17
6624.00325 1.31118e-17
6625.49662 1.39277e-17
6627.00015 1.39146e-17
6628.50368 1.24835e-17
6629.99706 1.30321e-17
6631.50059 1.39368e-17
6633.00412 1.25219e-17
6634.49749 1.24095e-17
6636.00103 1.24084e-17
6637.50456 1.24200e-17
6638.99793 1.24316e-17
6640.50146 1.24432e-17
6641.99484 1.24548e-17
6643.49837 1.24664e-17
6645.00190 1.24779e-17
6646.49527 1.24895e-17
6647.99881 1.25011e-17
6649.50234 1.25127e-17
6650.99571 1.25243e-17
6652.49924 1.25359e-17
6654.00277 1.25475e-17
6655.49615 1.25590e-17
6656.99968 1.25706e-17
6658.50321 1.25822e-17
6659.99658 1.25938e-17
6661.50012 1.26054e-17
6663.00365 1.26170e-17
6664.49702 1.26286e-17
6666.00055 1.26401e-17
6667.50408 1.26517e-17
6668.99746 1.26633e-17
6670.50099 1.26749e-17
6672.00452 1.26865e-17
6673.49790 1.26981e-17
6675.00143 1.27096e-17
6676.49480 1.27212e-17
6677.99833 1.27328e-17
6679.50186 1.27444e-17
6680.99524 1.27560e-17
6682.49877 1.27675e-17
6684.00230 1.27791e-17
6685.49567 1.27907e-17
6686.99921 1.28023e-17
6688.50274 1.28139e-17
6689.99611 1.28254e-17
6691.49964 1.28370e-17
6693.00317 1.28486e-17
6694.49655 1.28602e-17
6696.00008 1.28718e-17
6697.50361 1.28833e-17
6698.99698 1.28949e-17
6700.50052 1.31232e-17
6702.00405 1.44568e-17
6703.49742 1.40194e-17
6705.00095 1.42502e-17
6706.50449 1.37410e-17
6707.99786 1.32401e-17
6709.50139 1.37878e-17
6710.99476 1.29653e-17
6712.49830 1.24500e-17
6714.00183 1.24682e-17
6715.49520 1.26845e-17
6716.99873 1.43943e-17
6718.50227 1.29446e-17
6719.99564 1.21495e-17
6721.49917 1.17742e-17
6723.00270 1.23958e-17
6724.49608 1.21366e-17
6725.99961 1.22589e-17
6727.50314 1.36153e-17
6728.99651 1.30337e-17
6730.50004 1.25272e-17
6732.00358 1.29033e-17
6733.49695 1.34388e-17
6735.00048 1.30197e-17
6736.50401 1.22513e-17
6737.99739 1.22351e-17
6739.50092 1.24040e-17
6741.00445 1.38424e-17
6742.49782 1.36835e-17
6744.00136 1.24152e-17
6745.50489 1.29379e-17
6746.99826 1.28080e-17
6748.50179 1.30915e-17
6749.99517 1.37477e-17
6751.49870 1.30161e-17
6753.00223 1.23278e-17
6754.49560 1.36336e-17
6755.99913 1.41387e-17
6757.50267 1.26960e-17
6758.99604 1.24631e-17
6760.49957 1.30720e-17
6762.00310 1.37781e-17
6763.49648 1.37722e-17
6765.00001 1.33909e-17
6766.50354 1.34215e-17
6767.99691 1.19431e-17
6769.50045 1.16794e-17
6771.00398 1.27420e-17
6772.49735 1.35822e-17
6774.00088 1.35189e-17
6775.50441 1.38356e-17
6776.99779 1.29874e-17
6778.50132 1.24411e-17
6780.00485 1.14042e-17
6781.49822 1.26967e-17
6783.00176 1.32384e-17
6784.49513 1.34151e-17
6785.99866 1.33401e-17
6787.50219 1.09218e-17
6788.99557 1.19133e-17
6790.49910 1.35883e-17
6792.00263 1.27860e-17
6793.49600 1.21677e-17
6794.99953 1.22640e-17
6796.50307 1.22903e-17
6797.99644 1.35264e-17
6799.49997 1.18391e-17
6801.00350 1.10939e-17
6802.49688 1.16169e-17
6804.00041 1.07640e-17
6805.50394 1.05780e-17
6806.99731 1.22390e-17
6808.50085 1.37228e-17
6810.00438 1.30009e-17
6811.49775 1.27570e-17
6813.00128 1.17851e-17
6814.50482 1.18514e-17
6815.99819 1.16097e-17
6817.50172 1.11921e-17
6818.99509 1.18247e-17
6820.49863 1.20509e-17
6822.00216 1.28443e-17
6823.49553 1.31645e-17
6824.99906 1.36575e-17
6826.50259 1.27984e-17
6827.99597 1.28999e-17
6829.49950 1.30511e-17
6831.00303 1.25848e-17
6832.49640 1.30112e-17
6833.99994 1.35567e-17
6835.50347 1.14780e-17
6836.99684 1.33790e-17
6838.50037 1.28466e-17
6840.00390 1.23137e-17
6841.49728 1.15749e-17
6843.00081 1.14250e-17
6844.50434 1.24608e-17
6845.99772 1.10667e-17
6847.50125 1.11293e-17
6849.00478 1.17562e-17
6850.49815 1.12536e-17
6852.00168 1.15546e-17
6853.49506 1.10820e-17
6854.99859 1.18408e-17
6856.50212 1.30421e-17
6857.99549 1.23018e-17
6859.49903 1.14274e-17
6861.00256 1.15699e-17
6862.49593 1.20522e-17
6863.99946 1.27807e-17
6865.50300 1.30446e-17
6866.99637 1.16478e-17
6868.49990 1.06295e-17
6870.00343 9.42399e-18
6871.49680 1.13518e-17
6873.00034 1.21854e-17
6874.50387 1.13948e-17
6875.99724 1.19486e-17
6877.50077 1.14193e-17
6879.00431 1.18994e-17
6880.49768 1.21574e-17
6882.00121 1.14881e-17
6883.50474 1.12382e-17
6884.99812 1.04519e-17
6886.50165 1.17533e-17
6887.99502 1.16383e-17
6889.49855 1.10060e-17
6891.00209 1.20061e-17
6892.49546 1.20771e-17
6893.99899 1.10822e-17
6895.50252 1.01277e-17
6896.99590 1.02282e-17
6898.49943 1.12844e-17
6900.00296 1.10119e-17
6901.49633 1.06877e-17
6902.99986 1.04435e-17
6904.50340 9.62188e-18
6905.99677 8.97083e-18
6907.50030 1.03434e-17
6909.00383 9.63267e-18
6910.49721 1.03843e-17
6912.00074 1.13274e-17
6913.50427 9.21564e-18
6914.99764 1.05943e-17
6916.50118 1.13067e-17
6918.00471 9.38797e-18
6919.49808 1.16118e-17
6921.00161 1.25997e-17
6922.49498 1.25671e-17
6923.99852 9.68478e-18
6925.50205 1.03278e-17
6926.99542 1.06866e-17
6928.49895 1.01925e-17
6930.00249 1.21947e-17
6931.49586 1.10255e-17
6932.99939 9.72998e-18
6934.50292 1.06199e-17
6935.99630 1.16542e-17
6937.49983 1.14655e-17
6939.00336 1.16925e-17
6940.49673 1.08340e-17
6942.00027 1.04103e-17
6943.50380 1.06534e-17
6944.99717 1.07927e-17
6946.50070 1.14229e-17
6948.00423 1.15689e-17
6949.49761 1.20637e-17
6951.00114 1.05341e-17
6952.50467 1.05277e-17
6953.99804 1.17252e-17
6955.50158 1.06007e-17
6956.99495 1.00915e-17
6958.49848 1.03650e-17
6960.00201 1.01013e-17
6961.49539 1.09014e-17
6962.99892 1.18238e-17
6964.50245 1.15335e-17
6965.99582 1.12138e-17
6967.49935 1.09887e-17
6969.00289 1.03444e-17
6970.49626 1.11330e-17
6971.99979 1.11493e-17
6973.50332 1.02068e-17
6974.99670 9.94033e-18
6976.50023 9.98361e-18
6978.00376 1.07510e-17
6979.49713 1.09070e-17
6981.00067 1.10781e-17
6982.50420 1.07328e-17
6983.99757 1.02737e-17
6985.50110 1.11897e-17
6987.00464 1.10542e-17
6988.49801 1.05316e-17
6990.00154 1.13734e-17
6991.49491 1.14551e-17
6992.99845 1.10605e-17
6994.50198 1.18512e-17
6995.99535 1.16035e-17
6997.49888 1.09057e-17
6999.00241 1.05053e-17
7000.49579 1.06319e-17
7001.99932 1.16977e-17
7003.50285 1.07401e-17
7004.99622 1.07563e-17
7006.49976 1.14419e-17
7008.00329 1.17815e-17
7009.49666 1.10456e-17
7011.00019 1.06145e-17
7012.50373 1.06766e-17
7013.99710 1.10173e-17
7015.50063 1.14900e-17
7017.00416 1.15029e-17
7018.49753 1.19279e-17
7020.00107 1.16793e-17
7021.50460 1.15800e-17
7022.99797 1.01073e-17
7024.50150 9.73133e-18
7026.00504 1.11920e-17
7027.49841 1.14272e-17
7029.00194 1.04197e-17
7030.49531 1.15128e-17
7031.99885 1.23863e-17
7033.50238 1.17688e-17
7034.99575 1.12553e-17
7036.49928 1.14106e-17
7038.00282 1.10961e-17
7039.49619 1.11226e-17
7040.99972 1.05223e-17
7042.50325 1.04406e-17
7043.99662 1.04563e-17
7045.50016 1.18303e-17
7047.00369 1.19879e-17
7048.49706 1.19248e-17
7050.00059 1.20484e-17
7051.50413 1.17055e-17
7052.99750 1.12640e-17
7054.50103 1.06539e-17
7056.00456 1.00390e-17
7057.49794 1.23822e-17
7059.00147 1.17396e-17
7060.50500 1.09499e-17
7061.99837 1.15647e-17
7063.50191 1.25014e-17
7064.99528 1.11712e-17
7066.49881 1.19750e-17
7068.00234 1.18274e-17
7069.49572 1.12818e-17
7070.99925 1.03218e-17
7072.50278 1.14105e-17
7073.99615 1.17287e-17
7075.49968 1.10524e-17
7077.00322 1.14481e-17
7078.49659 1.15347e-17
7080.00012 1.07372e-17
7081.50365 9.94688e-18
7082.99703 1.05355e-17
7084.50056 1.08237e-17
7086.00409 1.13031e-17
7087.49746 1.02633e-17
7089.00100 1.10276e-17
7090.50453 1.04173e-17
7091.99790 9.81628e-18
7093.50143 1.14331e-17
7095.00496 1.07597e-17
7096.49834 1.06619e-17
7098.00187 1.17696e-17
7099.49524 1.17517e-17
7100.99877 1.06955e-17
7102.50231 9.96782e-18
7103.99568 9.71238e-18
7105.49921 9.76769e-18
7107.00274 1.01300e-17
7108.49612 1.05665e-17
7109.99965 9.93125e-18
7111.50318 1.09685e-17
7112.99655 1.19335e-17
7114.50008 1.08920e-17
7116.00362 1.18284e-17
7117.49699 9.96597e-18
7119.00052 9.98299e-18
7120.50405 1.05422e-17
7121.99743 1.08809e-17
7123.50096 9.97937e-18
7125.00449 1.06308e-17
7126.49786 1.15495e-17
7128.00140 1.13221e-17
7129.50493 1.10342e-17
7130.99830 1.03512e-17
7132.50183 1.10784e-17
7133.99521 1.18991e-17
7135.49874 1.15127e-17
7137.00227 1.13321e-17
7138.49564 1.03607e-17
7139.99917 1.03824e-17
7141.50271 1.05141e-17
7142.99608 1.22389e-17
7144.49961 1.07843e-17
7146.00314 1.04320e-17
7147.49652 1.02373e-17
7149.00005 9.24015e-18
7150.50358 1.07271e-17
7151.99695 1.17042e-17
7153.50049 1.07449e-17
7155.00402 9.19855e-18
7156.49739 9.93948e-18
7158.00092 1.17701e-17
7159.50446 9.81481e-18
7160.99783 8.97820e-18
7162.50136 1.06923e-17
7164.00489 1.05949e-17
7165.49827 9.95493e-18
7167.00180 1.05559e-17
7168.49517 1.22332e-17
7169.99870 1.13267e-17
7171.50223 9.35557e-18
7172.99561 1.03551e-17
7174.49914 1.12314e-17
7176.00267 1.05643e-17
7177.49604 1.09800e-17
7178.99958 1.15974e-17
7180.50311 1.04991e-17
7181.99648 8.93461e-18
7183.50001 9.73480e-18
7185.00355 9.97404e-18
7186.49692 1.01169e-17
7188.00045 1.07338e-17
7189.50398 1.02424e-17
7190.99736 9.64193e-18
7192.50089 8.55963e-18
7194.00442 9.19220e-18
7195.49779 1.11558e-17
7197.00132 8.85347e-18
7198.49470 1.03142e-17
7199.99823 1.15470e-17
7201.50176 9.60322e-18
7202.99513 8.41627e-18
7204.49867 1.10241e-17
7206.00220 1.12152e-17
7207.49557 1.14063e-17
7208.99910 1.14062e-17
7210.50263 1.24981e-17
7211.99601 1.11874e-17
7213.49954 1.04066e-17
7215.00307 9.45479e-18
7216.49645 9.97522e-18
7217.99998 1.16174e-17
7219.50351 1.19862e-17
7220.99688 1.16944e-17
7222.50041 1.12365e-17
7224.00395 1.03116e-17
7225.49732 1.08517e-17
7227.00085 1.11369e-17
7228.50438 1.00129e-17
7229.99776 1.05130e-17
7231.50129 1.12986e-17
7232.99466 1.06533e-17
7234.49819 1.05077e-17
7236.00173 1.16475e-17
7237.49510 1.07775e-17
7238.99863 9.43703e-18
7240.50216 1.01461e-17
7241.99554 1.10962e-17
7243.49907 1.22252e-17
7245.00260 1.27502e-17
7246.49597 1.20890e-17
7247.99950 1.22363e-17
7249.50304 1.20724e-17
7250.99641 1.05844e-17
7252.49994 9.34019e-18
7254.00347 1.06628e-17
7255.49685 1.24064e-17
7257.00038 1.29199e-17
7258.50391 1.21418e-17
7259.99728 1.04383e-17
7261.50082 1.06181e-17
7263.00435 1.25550e-17
7264.49772 1.31777e-17
7266.00125 1.16578e-17
7267.50478 1.17756e-17
7268.99816 1.16715e-17
7270.50169 1.13763e-17
7271.99506 1.15867e-17
7273.49859 1.28867e-17
7275.00213 1.30781e-17
7276.49550 9.90128e-18
7277.99903 1.15047e-17
7279.50256 1.21092e-17
7280.99594 1.10676e-17
7282.49947 1.14535e-17
7284.00300 1.06308e-17
7285.49637 1.07345e-17
7286.99990 1.00172e-17
7288.50344 9.45777e-18
7289.99681 1.04318e-17
7291.50034 1.09035e-17
7293.00387 1.17967e-17
7294.49725 1.30308e-17
7296.00078 1.20897e-17
7297.50431 1.09860e-17
7298.99768 1.15191e-17
7300.50122 1.23558e-17
7302.00475 1.12118e-17
7303.49812 1.09356e-17
7305.00165 1.16852e-17
7306.50518 1.09241e-17
7307.99856 1.01254e-17
7309.50209 9.77640e-18
7310.99546 1.02364e-17
7312.49899 1.15064e-17
7314.00253 1.14826e-17
7315.49590 9.82402e-18
7316.99943 1.08248e-17
7318.50296 1.22633e-17
7319.99634 1.11909e-17
7321.49987 1.10672e-17
7323.00340 1.10083e-17
7324.49677 1.13020e-17
7326.00031 1.06605e-17
7327.50384 9.58846e-18
7328.99721 1.01141e-17
7330.50074 1.02381e-17
7332.00428 1.10754e-17
7333.49765 1.12336e-17
7335.00118 1.19892e-17
7336.50471 1.15213e-17
7337.99809 1.24730e-17
7339.50162 1.30015e-17
7340.99499 9.24635e-18
7342.49852 1.08998e-17
7344.00205 1.11587e-17
7345.49543 1.00136e-17
7346.99896 1.00433e-17
7348.50249 1.29515e-17
7349.99586 1.21790e-17
7351.49940 9.67219e-18
7353.00293 9.51985e-18
7354.49630 1.01320e-17
7355.99983 1.09471e-17
7357.50337 1.09865e-17
7358.99674 1.11452e-17
7360.50027 1.04976e-17
7362.00380 9.69193e-18
7363.49718 1.11949e-17
7365.00071 1.11650e-17
7366.50424 1.07596e-17
7367.99761 1.04311e-17
7369.50114 9.42182e-18
7371.00468 9.05495e-18
7372.49805 1.00537e-17
7374.00158 9.87986e-18
7375.49495 1.10036e-17
7376.99849 1.15305e-17
7378.50202 1.13796e-17
7379.99539 1.16615e-17
7381.49892 1.09333e-17
7383.00245 1.18004e-17
7384.49583 1.28582e-17
7385.99936 1.29401e-17
7387.50289 1.19041e-17
7388.99627 9.69906e-18
7390.49980 1.02842e-17
7392.00333 1.08493e-17
7393.49670 1.05872e-17
7395.00023 1.06899e-17
7396.50377 1.11465e-17
7397.99714 1.21418e-17
7399.50067 1.11159e-17
7401.00420 9.36601e-18
7402.49758 1.03694e-17
7404.00111 1.14860e-17
7405.50464 1.07024e-17
7406.99801 1.13702e-17
7408.50155 1.07256e-17
7409.99492 1.21932e-17
7411.49845 1.13452e-17
7413.00198 1.22959e-17
7414.49536 1.09625e-17
7415.99889 1.19718e-17
7417.50242 1.24145e-17
7418.99579 1.13615e-17
7420.49932 1.26019e-17
7422.00286 1.06915e-17
7423.49623 9.42064e-18
7424.99976 1.12293e-17
7426.50329 1.22310e-17
7427.99667 1.10996e-17
7429.50020 1.11252e-17
7431.00373 1.04015e-17
7432.49710 1.05637e-17
7434.00063 1.09764e-17
7435.50417 1.13054e-17
7436.99754 1.27564e-17
7438.50107 1.25784e-17
7440.00460 1.04352e-17
7441.49798 9.96332e-18
7443.00151 1.08692e-17
7444.49488 1.08532e-17
7445.99841 1.03998e-17
7447.50195 1.07237e-17
7448.99532 1.10526e-17
7450.49885 1.12695e-17
7452.00238 9.67166e-18
7453.49576 9.62663e-18
7454.99929 1.11556e-17
7456.50282 1.16058e-17
7457.99619 1.18733e-17
7459.49973 1.24886e-17
7461.00326 1.15357e-17
7462.49663 1.19145e-17
7464.00016 1.25305e-17
7465.50369 1.19759e-17
7466.99707 1.12792e-17
7468.50060 9.78748e-18
7470.00413 1.05117e-17
7471.49750 1.14215e-17
7473.00104 1.15285e-17
7474.50457 1.06425e-17
7475.99794 1.14428e-17
7477.50147 1.23733e-17
7478.99485 1.27264e-17
7480.49838 1.13876e-17
7482.00191 1.11369e-17
7483.49528 1.25074e-17
7484.99882 1.19273e-17
7486.50235 1.15168e-17
7487.99572 9.80492e-18
7489.49925 1.16110e-17
7491.00278 1.08365e-17
7492.49616 1.18648e-17
7493.99969 1.05635e-17
7495.50322 1.07575e-17
7496.99659 1.27159e-17
7498.50013 1.01795e-17
7500.00366 1.17220e-17
7501.49703 1.18338e-17
7503.00056 1.09319e-17
7504.50410 1.22450e-17
7505.99747 1.14533e-17
7507.50100 9.66780e-18
7509.00453 1.02006e-17
7510.49791 1.05260e-17
7512.00144 1.14591e-17
7513.49481 1.25013e-17
7514.99834 1.22296e-17
7516.50187 1.01847e-17
7517.99525 9.82433e-18
7519.49878 9.33122e-18
7521.00231 9.78194e-18
7522.49568 1.14569e-17
7523.99922 1.10938e-17
7525.50275 1.20110e-17
7526.99612 1.24692e-17
7528.49965 1.04768e-17
7530.00318 1.12780e-17
7531.49656 1.16419e-17
7533.00009 1.10964e-17
7534.50362 9.37030e-18
7535.99700 7.81779e-18
7537.50053 8.59873e-18
7539.00406 1.04510e-17
7540.49743 1.08378e-17
