# wavelength flux
3579.96049 1.12061e-18
3581.43354 4.73070e-19
3582.89644 -3.21432e-18
3584.36949 -2.33504e-18
3585.84255 4.54154e-18
3587.30544 3.92897e-18
3588.77850 6.14647e-18
3590.25155 4.78945e-18
3591.72461 3.29433e-18
3593.18750 1.66355e-17
3594.66056 1.55138e-17
3596.13362 7.44460e-18
3597.59651 8.27222e-18
3599.06957 1.30749e-17
3600.54262 1.21746e-17
3602.00552 3.86577e-18
3603.47857 4.49391e-19
3604.95163 -2.64215e-18
3606.42468 2.71605e-18
3607.88758 6.66993e-18
3609.36063 -2.23246e-18
3610.83369 -3.42501e-18
3612.29658 -5.83488e-19
3613.76964 3.71799e-18
3615.24269 1.17245e-17
3616.70559 1.14366e-17
3618.17865 5.88408e-18
3619.65170 2.43236e-18
3621.12475 -1.29562e-19
3622.58765 3.35994e-18
3624.06071 3.72797e-18
3625.53376 4.32691e-18
3626.99666 4.87195e-18
3628.46971 6.42991e-18
3629.94277 7.82854e-18
3631.40566 5.72244e-18
3632.87872 4.32690e-18
3634.35177 1.79296e-18
3635.82483 -2.00527e-18
3637.28772 -3.57986e-18
3638.76078 5.03379e-19
3640.23383 6.19504e-18
3641.69673 5.02585e-18
3643.16979 6.11563e-19
3644.64284 -1.68056e-18
3646.10574 1.10798e-18
3647.57879 3.62117e-18
3649.05185 6.03728e-18
3650.52490 8.64449e-18
3651.98780 9.79755e-18
3653.46085 7.28621e-18
3654.93391 1.10638e-18
3656.39680 -8.46668e-19
3657.86986 4.59272e-18
3659.34291 5.82762e-18
3660.80581 2.14281e-18
3662.27886 3.38367e-18
3663.75192 7.11888e-18
3665.21481 7.71022e-18
3666.68787 3.37760e-18
3668.16093 -3.02909e-19
3669.63398 2.31898e-19
3671.09688 7.66668e-19
3672.56993 1.30140e-18
3674.04299 1.83610e-18
3675.50588 2.37076e-18
3676.97894 2.90538e-18
3678.45199 3.43997e-18
3679.91489 3.97452e-18
3681.38794 4.50903e-18
3682.86100 5.04351e-18
3684.33405 5.57795e-18
3685.79695 6.11236e-18
3687.27000 6.64673e-18
3688.74306 7.18106e-18
3690.20595 7.18082e-18
3691.67901 8.46824e-18
3693.15207 6.81748e-18
3694.61496 1.74824e-18
3696.08802 -7.58430e-19
3697.56107 4.41894e-18
3699.03413 4.90408e-18
3700.49702 3.11556e-18
3701.97008 8.93496e-18
3703.44313 3.35616e-18
3704.90603 -1.83451e-18
3706.37908 4.43265e-18
3707.85214 8.12122e-18
3709.31503 5.28586e-18
3710.78809 3.79420e-18
3712.26114 3.78541e-18
3713.73420 6.46587e-18
3715.19710 4.73823e-18
3716.67015 2.63525e-18
3718.14320 5.14340e-18
3719.60610 8.34453e-18
3721.07916 5.85576e-18
3722.55221 6.76577e-19
3724.01511 2.32097e-18
3725.48816 5.22360e-18
3726.96122 8.71855e-18
3728.43427 1.08441e-17
3729.89717 8.57667e-18
3731.37022 3.54634e-18
3732.84328 -2.75143e-18
3734.30617 4.12851e-19
3735.77923 8.98527e-18
3737.25228 4.99070e-18
3738.71518 -2.87741e-19
3740.18824 7.22478e-18
3741.66129 1.01678e-17
3743.13435 3.73612e-18
3744.59724 8.54858e-19
3746.07030 -8.27871e-19
3747.54335 4.06677e-18
3749.00625 1.16851e-17
3750.47930 1.25304e-17
3751.95236 6.09552e-18
3753.41525 1.79285e-18
3754.88831 2.78991e-18
3756.36136 4.01641e-18
3757.83442 3.88615e-18
3759.29731 3.66444e-18
3760.77037 3.08648e-18
3762.24342 4.27545e-18
3763.70632 6.67572e-18
3765.17938 7.50284e-18
3766.65243 7.68875e-18
3768.11533 7.73083e-18
3769.58838 7.77289e-18
3771.06144 7.70891e-18
3772.53449 7.64493e-18
3773.99739 7.58095e-18
3775.47044 7.51699e-18
3776.94350 7.45302e-18
3778.40639 7.38906e-18
3779.87945 7.32510e-18
3781.35250 7.26114e-18
3782.81540 7.19719e-18
3784.28845 7.13324e-18
3785.76151 7.06930e-18
3787.23456 7.00537e-18
3788.69746 6.94144e-18
3790.17051 6.87751e-18
3791.64357 6.81358e-18
3793.10647 6.74966e-18
3794.57952 6.68574e-18
3796.05258 6.62183e-18
3797.51547 6.55791e-18
3798.98853 6.49401e-18
3800.46158 6.43012e-18
3801.93464 6.36622e-18
3803.39753 6.30232e-18
3804.87059 6.23842e-18
3806.34364 6.17455e-18
3807.80654 6.11066e-18
3809.27959 7.52108e-18
3810.75265 2.25597e-18
3812.21555 5.40715e-18
3813.68860 1.17248e-17
3815.16165 8.03601e-18
3816.63471 7.67371e-18
3818.09761 1.08349e-17
3819.57066 1.20263e-17
3821.04372 1.30567e-17
3822.50661 9.20533e-18
3823.97967 -5.50024e-19
3825.45272 -3.44097e-18
3826.91562 6.30906e-20
3828.38867 2.91464e-18
3829.86173 -3.41236e-19
3831.33478 -2.20542e-18
3832.79768 1.91360e-18
3834.27073 5.79108e-18
3835.74379 7.54445e-18
3837.20669 4.31795e-18
3838.67974 2.24877e-18
3840.15280 3.92074e-18
3841.61569 4.44434e-18
3843.08875 7.29364e-18
3844.56180 8.78725e-18
3846.03486 7.39655e-18
3847.49775 3.86400e-18
3848.97081 3.29866e-18
3850.44386 8.55986e-18
3851.90676 8.69795e-18
3853.37981 4.81246e-18
3854.85287 -3.17756e-19
3856.31576 3.08561e-18
3857.78882 8.43417e-18
3859.26187 4.83297e-18
3860.73493 6.37947e-19
3862.19783 4.28279e-19
3863.67088 3.16120e-18
3865.14394 5.28387e-18
3866.60683 6.22930e-18
3868.07989 9.33047e-18
3869.55294 5.67374e-18
3871.01584 8.55196e-19
3872.48889 5.40021e-18
3873.96195 7.61022e-18
3875.42484 5.86785e-18
3876.89790 7.35164e-18
3878.37095 9.59399e-18
3879.84401 4.43044e-18
3881.30690 2.27101e-18
3882.77996 5.20264e-18
3884.25301 6.26102e-18
3885.71591 6.03291e-18
3887.18896 7.73631e-18
3888.66202 1.24084e-17
3890.12492 1.07871e-17
3891.59797 5.62262e-18
3893.07103 2.91338e-18
3894.54408 3.22677e-18
3896.00698 6.51117e-18
3897.48003 6.13452e-18
3898.95309 7.15546e-18
3900.41598 5.81171e-18
3901.88904 2.34675e-18
3903.36209 3.56137e-18
3904.82499 2.41153e-18
3906.29804 1.55686e-18
3907.77110 3.12938e-18
3909.24415 3.91513e-18
3910.70705 6.06597e-18
3912.18010 8.28002e-18
3913.65316 5.07778e-18
3915.11606 5.45695e-18
3916.58911 7.72421e-18
3918.06217 6.36020e-18
3919.52506 8.26196e-18
3920.99812 1.10074e-17
3922.47117 6.15739e-18
3923.94423 4.13926e-18
3925.40712 8.67538e-18
3926.88018 6.42136e-18
3928.35323 4.67412e-18
3929.81613 6.84095e-18
3931.28918 4.90642e-18
3932.76224 7.87393e-18
3934.22514 9.46458e-18
3935.69819 1.02238e-17
3937.17125 1.21765e-17
3938.64430 1.01551e-17
3940.10720 6.96836e-18
3941.58025 2.53817e-18
3943.05331 7.63101e-18
3944.51620 6.72237e-18
3945.98926 4.85882e-18
3947.46231 5.29756e-18
3948.92521 1.26371e-18
3950.39826 3.28699e-18
3951.87132 6.84796e-18
3953.34437 6.23251e-18
3954.80727 9.44260e-18
3956.28032 6.93973e-18
3957.75338 2.66777e-18
3959.21628 4.69009e-18
3960.68933 7.10133e-18
3962.16239 6.96872e-18
3963.62528 9.51986e-18
3965.09834 1.11214e-17
3966.57139 7.26864e-18
3968.04445 6.83324e-18
3969.50734 7.62168e-18
3970.98040 8.87534e-18
3972.45345 1.29057e-17
3973.91635 1.22385e-17
3975.38940 8.31233e-18
3976.86246 7.81268e-18
3978.32535 5.15645e-18
3979.79841 1.87428e-18
3981.27146 1.78458e-18
3982.74452 4.16435e-18
3984.20741 5.11288e-18
3985.68047 6.24645e-18
3987.15353 5.86303e-18
3988.61642 5.26652e-18
3990.08948 7.09567e-18
3991.56253 1.08252e-17
3993.02543 8.84094e-18
3994.49848 7.37898e-18
3995.97154 9.89749e-18
3997.44459 3.09917e-18
3998.90749 2.31105e-18
4000.38054 1.04835e-17
4001.85360 9.18386e-18
4003.31649 4.18336e-18
4004.78955 6.56666e-18
4006.26260 1.00277e-17
4007.72550 1.00082e-17
4009.19855 7.66041e-18
4010.67161 7.48119e-18
4012.14466 8.68439e-18
4013.60756 1.17021e-17
4015.08062 1.13791e-17
4016.55367 9.47578e-18
4018.01657 8.59805e-18
4019.48962 7.84190e-18
4020.96268 8.28910e-18
4022.42557 6.78382e-18
4023.89863 7.40572e-18
4025.37168 1.30600e-17
4026.84474 1.28518e-17
4028.30763 6.50571e-18
4029.78069 3.21376e-18
4031.25374 4.71471e-18
4032.71664 3.92596e-18
4034.18970 4.49776e-18
4035.66275 8.53056e-18
4037.12565 6.16220e-18
4038.59870 4.03354e-18
4040.07176 8.62781e-18
4041.54481 1.30019e-17
4043.00771 9.56031e-18
4044.48076 6.42726e-18
4045.95382 1.16717e-17
4047.41671 1.51539e-17
4048.88977 1.21143e-17
4050.36282 7.72753e-18
4051.82572 6.50240e-18
4053.29877 6.08073e-18
4054.77183 1.12618e-17
4056.24488 1.62395e-17
4057.70778 1.42986e-17
4059.18084 9.30553e-18
4060.65389 9.48832e-18
4062.11679 1.37782e-17
4063.58984 1.56888e-17
4065.06290 1.36531e-17
4066.52579 1.17412e-17
4067.99885 1.31501e-17
4069.47190 1.34460e-17
4070.94496 1.20848e-17
4072.40785 9.30829e-18
4073.88091 1.87810e-17
4075.35396 2.04755e-17
4076.81686 1.48503e-17
4078.28991 1.36782e-17
4079.76297 1.48233e-17
4081.22586 1.70517e-17
4082.69892 2.09762e-17
4084.17198 2.18271e-17
4085.63487 1.90461e-17
4087.10793 1.65748e-17
4088.58098 1.30737e-17
4090.05404 1.30990e-17
4091.51693 1.74352e-17
4092.98999 1.70125e-17
4094.46304 1.47923e-17
4095.92594 1.26406e-17
4097.39899 1.10602e-17
4098.87205 1.09808e-17
4100.33494 1.01286e-17
4101.80800 9.03590e-18
4103.28105 6.71919e-18
4104.75411 6.55529e-18
4106.21700 8.05219e-18
4107.69006 8.39960e-18
4109.16312 3.90779e-18
4110.62601 6.29136e-18
4112.09907 9.36918e-18
4113.57212 6.99343e-18
4115.03502 7.28581e-18
4116.50807 1.06616e-17
4117.98113 1.53719e-17
4119.45418 1.41240e-17
4120.91708 1.28851e-17
4122.39013 1.02658e-17
4123.86319 8.79663e-18
4125.32608 7.79398e-18
4126.79914 1.02164e-17
4128.27219 8.49148e-18
4129.73509 1.08604e-17
4131.20815 1.23932e-17
4132.68120 1.01379e-17
4134.15425 5.80008e-18
4135.61715 7.08261e-18
4137.09021 1.08203e-17
4138.56326 1.03778e-17
4140.02616 1.01464e-17
4141.49921 1.04230e-17
4142.97227 8.26295e-18
4144.43516 6.30902e-18
4145.90822 6.74610e-18
4147.38127 8.50563e-18
4148.85433 7.27078e-18
4150.31722 6.31071e-18
4151.79028 6.32040e-18
4153.26333 8.19629e-18
4154.72623 9.92117e-18
4156.19929 1.03345e-17
4157.67234 8.48984e-18
4159.13524 8.81735e-18
4160.60829 1.03601e-17
4162.08135 1.14474e-17
4163.55440 6.19773e-18
4165.01730 5.36555e-18
4166.49035 7.68861e-18
4167.96341 8.74203e-18
4169.42630 6.87243e-18
4170.89936 3.85863e-18
4172.37241 5.59836e-18
4173.83531 7.00610e-18
4175.30836 7.80554e-18
4176.78142 7.68022e-18
4178.25447 6.79722e-18
4179.71737 6.91018e-18
4181.19042 5.55972e-18
4182.66348 7.87757e-18
4184.12638 9.54774e-18
4185.59943 9.29243e-18
4187.07249 7.66587e-18
4188.53538 6.13549e-18
4190.00844 7.45751e-18
4191.48149 5.57564e-18
4192.95455 3.64054e-18
4194.41744 6.08232e-18
4195.89050 6.20151e-18
4197.36355 7.65299e-18
4198.82645 1.05521e-17
4200.29950 1.02794e-17
4201.77256 9.84501e-18
4203.23546 9.22469e-18
4204.70851 1.02401e-17
4206.18157 9.09123e-18
4207.65462 5.23355e-18
4209.11752 5.42482e-18
4210.59057 6.35696e-18
4212.06363 5.20448e-18
4213.52652 6.43699e-18
4214.99958 8.43522e-18
4216.47263 8.78406e-18
4217.93553 8.04805e-18
4219.40858 1.06566e-17
4220.88164 9.65051e-18
4222.35469 8.85938e-18
4223.81759 1.02730e-17
4225.29064 9.30036e-18
4226.76370 8.52951e-18
4228.22660 8.64392e-18
4229.69965 7.01482e-18
4231.17270 7.09038e-18
4232.63560 5.93050e-18
4234.10866 9.16921e-18
4235.58171 1.02464e-17
4237.04461 6.01954e-18
4238.51766 7.60256e-18
4239.99072 8.12690e-18
4241.46377 7.55211e-18
4242.92667 7.98958e-18
4244.39972 5.73820e-18
4245.87278 6.87358e-18
4247.33567 8.38371e-18
4248.80873 6.00022e-18
4250.28178 6.45299e-18
4251.75484 9.97623e-18
4253.21774 7.30326e-18
4254.69079 6.22840e-18
4256.16385 7.77842e-18
4257.62674 6.32643e-18
4259.09980 7.53540e-18
4260.57285 1.01150e-17
4262.03575 9.47402e-18
4263.50880 5.11274e-18
4264.98186 4.09928e-18
4266.45491 9.22836e-18
4267.91781 1.14942e-17
4269.39086 6.87237e-18
4270.86392 6.37517e-18
4272.32681 8.70942e-18
4273.79987 8.58645e-18
4275.27292 7.32842e-18
4276.73582 9.96828e-18
4278.20888 8.95357e-18
4279.68193 7.81959e-18
4281.15499 9.44528e-18
4282.61788 9.11461e-18
4284.09094 9.11055e-18
4285.56399 8.88378e-18
4287.02689 1.20541e-17
4288.49994 7.62987e-18
4289.97300 7.86191e-18
4291.43589 1.03888e-17
4292.90895 6.96460e-18
4294.38200 6.50112e-18
4295.85506 8.33768e-18
4297.31795 6.98923e-18
4298.79101 6.61371e-18
4300.26406 1.00996e-17
4301.72696 7.89392e-18
4303.20002 8.31365e-18
4304.67307 9.29577e-18
4306.13597 7.45256e-18
4307.60902 6.77520e-18
4309.08208 6.85619e-18
4310.54497 6.07545e-18
4312.01803 8.37816e-18
4313.49108 8.18800e-18
4314.96414 9.70912e-18
4316.42703 9.91091e-18
4317.90009 9.85276e-18
4319.37314 7.31837e-18
4320.83604 9.57791e-18
4322.30909 9.13386e-18
4323.78215 5.38361e-18
4325.24505 7.32168e-18
4326.71810 9.48841e-18
4328.19115 7.32559e-18
4329.66421 6.16696e-18
4331.12711 7.12209e-18
4332.60016 6.99373e-18
4334.07322 6.79755e-18
4335.53611 9.77634e-18
4337.00917 9.05709e-18
4338.48222 6.35027e-18
4339.94512 6.84033e-18
4341.41817 8.29017e-18
4342.89123 7.86090e-18
4344.36428 9.54982e-18
4345.82718 1.29109e-17
4347.30023 5.02506e-18
4348.77329 4.21044e-18
4350.23618 8.38374e-18
4351.70924 1.49051e-17
4353.18230 1.02547e-17
4354.64519 4.31521e-18
4356.11825 6.32526e-18
4357.59130 7.17801e-18
4359.06436 7.41494e-18
4360.52725 7.60510e-18
4362.00031 9.66030e-18
4363.47336 7.66618e-18
4364.93626 6.50471e-18
4366.40931 6.29520e-18
4367.88237 5.97730e-18
4369.34526 7.55830e-18
4370.81832 8.15584e-18
4372.29137 7.42594e-18
4373.76443 6.71566e-18
4375.22732 6.75870e-18
4376.70038 7.53963e-18
4378.17343 8.01602e-18
4379.63633 6.80956e-18
4381.10939 7.10404e-18
4382.58244 7.60573e-18
4384.04534 7.21070e-18
4385.51839 7.19088e-18
4386.99145 9.84919e-18
4388.46450 8.21296e-18
4389.92740 8.72751e-18
4391.40045 8.89530e-18
4392.87351 8.66997e-18
4394.33640 9.48733e-18
4395.80946 9.39243e-18
4397.28251 7.28214e-18
4398.74541 2.35430e-18
4400.21847 3.77238e-18
4401.69152 6.93995e-18
4403.16457 7.91280e-18
4404.62747 7.04645e-18
4406.10053 7.88237e-18
4407.57358 6.14985e-18
4409.03648 7.18907e-18
4410.50953 6.27104e-18
4411.98259 8.66478e-18
4413.44548 5.75818e-18
4414.91854 5.97748e-18
4416.39159 6.19683e-18
4417.86465 6.41610e-18
4419.32754 6.63544e-18
4420.80060 6.85468e-18
4422.27365 7.07392e-18
4423.73655 7.29322e-18
4425.20961 7.51244e-18
4426.68266 7.73172e-18
4428.14556 7.95091e-18
4429.61861 8.17017e-18
4431.09167 8.38934e-18
4432.56472 8.60857e-18
4434.02762 8.82764e-18
4435.50067 9.04686e-18
4436.97373 9.26606e-18
4438.43662 9.48517e-18
4439.90968 9.70435e-18
4441.38273 9.92344e-18
4442.84563 1.01426e-17
4444.31868 1.03617e-17
4445.79174 1.05808e-17
4447.25463 1.07998e-17
4448.72769 1.10189e-17
4450.20075 1.12380e-17
4451.67380 1.14570e-17
4453.13670 1.13132e-17
4454.60975 8.63983e-18
4456.08281 7.90700e-18
4457.54570 7.36268e-18
4459.01876 7.97781e-18
4460.49181 8.83800e-18
4461.95471 6.78110e-18
4463.42776 5.75091e-18
4464.90082 9.27134e-18
4466.37387 9.05261e-18
4467.83677 8.58245e-18
4469.30982 8.25185e-18
4470.78288 7.41187e-18
4472.24578 9.87035e-18
4473.71883 1.06015e-17
4475.19189 5.84254e-18
4476.66494 4.95102e-18
4478.12784 7.66996e-18
4479.60089 7.46983e-18
4481.07395 7.04602e-18
4482.53684 7.56146e-18
4484.00990 8.22665e-18
4485.48295 8.32355e-18
4486.94585 7.33805e-18
4488.41890 6.36584e-18
4489.89196 7.55049e-18
4491.35485 7.71099e-18
4492.82791 7.21085e-18
4494.30096 9.31919e-18
4495.77402 8.41475e-18
4497.23692 7.86588e-18
4498.70997 7.57265e-18
4500.18303 7.99206e-18
4501.64592 8.58094e-18
4503.11898 5.87538e-18
4504.59203 7.57238e-18
4506.06509 7.31500e-18
4507.52798 7.38540e-18
4509.00104 9.64453e-18
4510.47409 8.65881e-18
4511.93699 7.88757e-18
4513.41004 9.34530e-18
4514.88310 9.71733e-18
4516.34599 9.20951e-18
4517.81905 9.73102e-18
4519.29210 1.06253e-17
4520.75500 1.02567e-17
4522.22805 6.57166e-18
4523.70111 5.35261e-18
4525.17417 8.21403e-18
4526.63706 7.59306e-18
4528.11012 6.85391e-18
4529.58317 7.31031e-18
4531.04607 7.33476e-18
4532.51912 8.62105e-18
4533.99218 1.07033e-17
4535.45507 9.07635e-18
4536.92813 7.69159e-18
4538.40118 8.65374e-18
4539.87424 7.95248e-18
4541.33713 8.57686e-18
4542.81019 6.04368e-18
4544.28324 6.57331e-18
4545.74614 6.06011e-18
4547.21920 6.14781e-18
4548.69225 6.73169e-18
4550.15515 6.25123e-18
4551.62820 1.07895e-17
4553.10126 1.09469e-17
4554.57431 8.32886e-18
4556.03721 9.81529e-18
4557.51026 9.09097e-18
4558.98332 7.43171e-18
4560.44621 9.15040e-18
4561.91927 1.15546e-17
4563.39232 9.18066e-18
4564.85522 9.33592e-18
4566.32827 8.69990e-18
4567.80133 9.68859e-18
4569.27438 1.10497e-17
4570.73728 1.03087e-17
4572.21033 1.27085e-17
4573.68339 1.08193e-17
4575.14629 8.39167e-18
4576.61934 1.01730e-17
4578.09240 8.87234e-18
4579.55529 7.63421e-18
4581.02835 7.08062e-18
4582.50140 9.59679e-18
4583.97446 9.56096e-18
4585.43735 1.09042e-17
4586.91041 8.65920e-18
4588.38346 7.17887e-18
4589.84636 1.00219e-17
4591.31941 8.02915e-18
4592.79247 7.88355e-18
4594.25537 9.30745e-18
4595.72842 1.01442e-17
4597.20147 7.55378e-18
4598.67453 1.10047e-17
4600.13743 1.08899e-17
4601.61048 1.01233e-17
4603.08354 1.01922e-17
4604.54643 1.15340e-17
4606.01949 1.05585e-17
4607.49254 8.74550e-18
4608.95544 9.76270e-18
4610.42849 1.00950e-17
4611.90155 1.00932e-17
4613.37460 9.93249e-18
4614.83750 1.18409e-17
4616.31055 8.75461e-18
4617.78361 1.07462e-17
4619.24651 1.29232e-17
4620.71956 1.17016e-17
4622.19262 6.99241e-18
4623.65551 8.98071e-18
4625.12857 1.03370e-17
4626.60162 9.25858e-18
4628.07468 1.00572e-17
4629.53757 1.03070e-17
4631.01063 1.12122e-17
4632.48368 1.04884e-17
4633.94658 8.27536e-18
4635.41963 1.05615e-17
4636.89269 1.28851e-17
4638.35558 1.19893e-17
4639.82864 1.14491e-17
4641.30169 1.24973e-17
4642.77475 1.14329e-17
4644.23765 8.78770e-18
4645.71070 1.05667e-17
4647.18376 1.01514e-17
4648.64665 1.02770e-17
4650.11971 9.43850e-18
4651.59276 1.07248e-17
4653.05566 8.37798e-18
4654.52871 8.61170e-18
4656.00177 1.09105e-17
4657.47482 7.54926e-18
4658.93772 7.24953e-18
4660.41077 9.66393e-18
4661.88383 9.26072e-18
4663.34672 1.03484e-17
4664.81978 1.17151e-17
4666.29283 9.89672e-18
4667.75573 1.10185e-17
4669.22878 1.20194e-17
4670.70184 1.10302e-17
4672.16474 1.15526e-17
4673.63779 1.35396e-17
4675.11085 1.14273e-17
4676.58390 1.18847e-17
4678.04680 1.08901e-17
4679.51985 9.42228e-18
4680.99291 1.18602e-17
4682.45580 1.30360e-17
4683.92886 1.28070e-17
4685.40191 1.13017e-17
4686.87497 1.09508e-17
4688.33786 1.40106e-17
4689.81092 1.05766e-17
4691.28397 1.13351e-17
4692.74687 1.14958e-17
4694.21993 1.23652e-17
4695.69298 9.84551e-18
4697.15588 1.08388e-17
4698.62893 1.08087e-17
4700.10199 1.08489e-17
4701.56488 1.11216e-17
4703.03794 1.19995e-17
4704.51099 1.34389e-17
4705.98405 1.10318e-17
4707.44694 1.16534e-17
4708.92000 1.06874e-17
4710.39305 9.81042e-18
4711.85595 1.02693e-17
4713.32900 1.09617e-17
4714.80206 9.89402e-18
4716.27511 1.30780e-17
4717.73801 1.14309e-17
4719.21107 7.79161e-18
4720.68412 8.18038e-18
4722.14702 9.66705e-18
4723.62007 1.13206e-17
4725.09313 1.07193e-17
4726.55602 9.96413e-18
4728.02908 9.57005e-18
4729.50213 7.53598e-18
4730.96503 8.97336e-18
4732.43808 1.08687e-17
4733.91114 8.14799e-18
4735.38419 8.78599e-18
4736.84709 1.16177e-17
4738.32014 9.17546e-18
4739.79320 1.13312e-17
4741.25610 9.72295e-18
4742.72915 9.08234e-18
4744.20220 1.20724e-17
4745.66510 7.63869e-18
4747.13816 8.94978e-18
4748.61121 1.10312e-17
4750.08427 1.07409e-17
4751.54716 7.84167e-18
4753.02022 1.05590e-17
4754.49327 9.28821e-18
4755.95617 8.75707e-18
4757.42922 1.14337e-17
4758.90228 9.90106e-18
4760.36517 1.10579e-17
4761.83823 1.00977e-17
4763.31128 1.21844e-17
4764.78434 1.04976e-17
4766.24723 9.12178e-18
4767.72029 1.15874e-17
4769.19335 1.31595e-17
4770.65624 1.21077e-17
4772.12930 1.01958e-17
4773.60235 8.87928e-18
4775.06525 1.00779e-17
4776.53830 9.80570e-18
4778.01136 1.03559e-17
4779.48441 9.53148e-18
4780.94731 8.19467e-18
4782.42036 9.27433e-18
4783.89342 9.40864e-18
4785.35631 7.09414e-18
4786.82937 1.04320e-17
4788.30242 9.68344e-18
4789.76532 7.97556e-18
4791.23837 8.46947e-18
4792.71143 1.02831e-17
4794.18448 1.06754e-17
4795.64738 1.00278e-17
4797.12044 5.45611e-18
4798.59349 8.51203e-18
4800.05639 8.37825e-18
4801.52944 9.47296e-18
4803.00250 8.91475e-18
4804.46539 8.14554e-18
4805.93845 7.88267e-18
4807.41150 8.67034e-18
4808.88456 6.91756e-18
4810.34745 6.13051e-18
4811.82051 7.32111e-18
4813.29356 1.14495e-17
4814.75646 9.63513e-18
4816.22952 7.55076e-18
4817.70257 9.63595e-18
4819.16547 1.04839e-17
4820.63852 8.07683e-18
4822.11158 8.35470e-18
4823.58463 8.05798e-18
4825.04753 8.54256e-18
4826.52058 6.70129e-18
4827.99364 9.49935e-18
4829.45653 1.04003e-17
4830.92959 8.45522e-18
4832.40264 1.08969e-17
4833.86554 8.45154e-18
4835.33859 9.85100e-18
4836.81165 9.51687e-18
4838.28470 8.44794e-18
4839.74760 9.25614e-18
4841.22066 8.32757e-18
4842.69371 7.42508e-18
4844.15661 1.13358e-17
4845.62966 1.13294e-17
4847.10272 1.20861e-17
4848.56561 1.06073e-17
4850.03867 8.32536e-18
4851.51172 8.69497e-18
4852.98478 1.00271e-17
4854.44767 8.93339e-18
4855.92073 9.57870e-18
4857.39378 9.26279e-18
4858.85668 6.23249e-18
4860.32973 9.36178e-18
4861.80279 1.01485e-17
4863.26568 7.22102e-18
4864.73874 8.22079e-18
4866.21180 9.72476e-18
4867.68485 8.80004e-18
4869.14775 7.21975e-18
4870.62080 7.92854e-18
4872.09386 8.41061e-18
4873.55675 8.70096e-18
4875.02981 8.79357e-18
4876.50286 1.06780e-17
4877.96576 1.14120e-17
4879.43881 7.97192e-18
4880.91187 7.94292e-18
4882.37476 8.74347e-18
4883.84782 8.68391e-18
4885.32087 1.00877e-17
4886.79393 1.06806e-17
4888.25683 7.64456e-18
4889.72988 7.94125e-18
4891.20293 8.88310e-18
4892.66583 9.08875e-18
4894.13889 9.96399e-18
4895.61194 8.85004e-18
4897.08500 7.23384e-18
4898.54789 9.60989e-18
4900.02095 1.07142e-17
4901.49400 9.91324e-18
4902.95690 7.59564e-18
4904.42995 7.71194e-18
4905.90301 9.57539e-18
4907.36590 8.02355e-18
4908.83896 9.31385e-18
4910.31201 8.55049e-18
4911.77491 8.11775e-18
4913.24797 8.37516e-18
4914.72102 8.67660e-18
4916.19408 8.53893e-18
4917.65697 7.64138e-18
4919.13003 8.91263e-18
4920.60308 8.94245e-18
4922.06598 8.97226e-18
4923.53903 9.00208e-18
4925.01209 9.03189e-18
4926.48514 9.06170e-18
4927.94804 9.09152e-18
4929.42109 9.12131e-18
4930.89415 9.15112e-18
4932.35704 9.18092e-18
4933.83010 9.21073e-18
4935.30315 9.24052e-18
4936.76605 9.27033e-18
4938.23910 9.30013e-18
4939.71216 9.32992e-18
4941.17506 9.35971e-18
4942.64811 9.38950e-18
4944.12117 9.41930e-18
4945.59422 9.44908e-18
4947.05712 9.47888e-18
4948.53017 9.50866e-18
4950.00323 9.53845e-18
4951.46612 9.56824e-18
4952.93918 9.59801e-18
4954.41223 9.62779e-18
4955.87513 9.65756e-18
4957.34818 9.68735e-18
4958.82124 1.06012e-17
4960.29429 1.01989e-17
4961.75719 8.14217e-18
4963.23025 9.37703e-18
4964.70330 9.12007e-18
4966.16620 6.40528e-18
4967.63925 9.65521e-18
4969.11231 8.08892e-18
4970.57520 8.44116e-18
4972.04826 1.21403e-17
4973.52131 1.02159e-17
4974.99437 9.52045e-18
4976.45726 9.60733e-18
4977.93032 1.00991e-17
4979.40337 1.15211e-17
4980.86627 1.13634e-17
4982.33932 8.16286e-18
4983.81238 8.70890e-18
4985.27527 1.15644e-17
4986.74833 1.08715e-17
4988.22138 9.77556e-18
4989.69444 1.17600e-17
4991.15734 1.16972e-17
4992.63039 1.09211e-17
4994.10345 9.54150e-18
4995.56634 1.10567e-17
4997.03940 1.08146e-17
4998.51245 8.96797e-18
4999.97535 1.14683e-17
5001.44840 1.08970e-17
5002.92146 1.12226e-17
5004.39451 9.87027e-18
5005.85741 9.23199e-18
5007.33046 9.33267e-18
5008.80352 9.28048e-18
5010.26642 9.35811e-18
5011.73947 1.04234e-17
5013.21252 1.07114e-17
5014.67542 9.01563e-18
5016.14848 9.64188e-18
5017.62153 9.52230e-18
5019.09459 8.56866e-18
5020.55748 8.58462e-18
5022.03054 8.60058e-18
5023.50359 8.61654e-18
5024.96649 8.63249e-18
5026.43954 8.64845e-18
5027.91260 8.66440e-18
5029.37549 8.68035e-18
5030.84855 8.69630e-18
5032.32160 8.71225e-18
5033.79466 8.72821e-18
5035.25756 8.74415e-18
5036.73061 8.76011e-18
5038.20367 8.77606e-18
5039.66656 8.79200e-18
5041.13962 8.80795e-18
5042.61267 8.82389e-18
5044.07557 8.83984e-18
5045.54862 8.85578e-18
5047.02168 8.87173e-18
5048.49473 8.88767e-18
5049.95763 8.90361e-18
5051.43068 8.91956e-18
5052.90374 8.93549e-18
5054.36663 8.95143e-18
5055.83969 8.96737e-18
5057.31274 8.98331e-18
5058.77564 7.75269e-18
5060.24870 8.16320e-18
5061.72175 9.25093e-18
5063.19481 9.69234e-18
5064.65770 9.83389e-18
5066.13076 8.46004e-18
5067.60381 8.58250e-18
5069.06671 8.59770e-18
5070.53976 8.61290e-18
5072.01282 8.62810e-18
5073.47571 8.64330e-18
5074.94877 8.65850e-18
5076.42182 8.67370e-18
5077.89488 8.68889e-18
5079.35777 8.70409e-18
5080.83083 8.71928e-18
5082.30388 8.73448e-18
5083.76678 8.74967e-18
5085.23983 8.76487e-18
5086.71289 8.78006e-18
5088.17579 8.79525e-18
5089.64884 8.81044e-18
5091.12190 8.82563e-18
5092.58479 8.84082e-18
5094.05785 8.85601e-18
5095.53090 8.87120e-18
5097.00396 8.88639e-18
5098.46685 8.90158e-18
5099.93991 8.91676e-18
5101.41296 8.93195e-18
5102.87586 8.94713e-18
5104.34891 8.96231e-18
5105.82197 8.97749e-18
5107.28487 8.86993e-18
5108.75792 8.76621e-18
5110.23098 8.47711e-18
5111.70403 8.66604e-18
5113.16693 8.49306e-18
5114.63998 8.38334e-18
5116.11304 8.80777e-18
5117.57593 7.07937e-18
5119.04899 8.71845e-18
5120.52204 1.00740e-17
5121.99510 8.48988e-18
5123.45799 7.46313e-18
5124.93105 7.35673e-18
5126.40410 7.22843e-18
5127.86700 6.61057e-18
5129.34005 7.97159e-18
5130.81311 9.64754e-18
5132.27600 8.84364e-18
5133.74906 7.70040e-18
5135.22212 8.77510e-18
5136.68501 8.49107e-18
5138.15807 7.84621e-18
5139.63112 7.29452e-18
5141.10418 8.82365e-18
5142.56707 9.22686e-18
5144.04013 7.83409e-18
5145.51318 7.93500e-18
5146.97608 7.30689e-18
5148.44913 7.26335e-18
5149.92219 9.30245e-18
5151.39524 1.00527e-17
5152.85814 9.82524e-18
5154.33119 1.00130e-17
5155.80425 7.86308e-18
5157.26715 9.14748e-18
5158.74020 1.01384e-17
5160.21325 6.94654e-18
5161.67615 7.65270e-18
5163.14921 7.90622e-18
5164.62226 7.28369e-18
5166.08516 7.79768e-18
5167.55821 8.75015e-18
5169.03127 1.00524e-17
5170.50432 9.16087e-18
5171.96722 8.67885e-18
5173.44027 9.79322e-18
5174.91333 1.00071e-17
5176.37622 9.00588e-18
5177.84928 8.96794e-18
5179.32233 8.96823e-18
5180.78523 9.68428e-18
5182.25828 8.68772e-18
5183.73134 7.87488e-18
5185.20440 8.96042e-18
5186.66729 8.76177e-18
5188.14035 7.28698e-18
5189.61340 7.41388e-18
5191.07630 9.17041e-18
5192.54935 9.22646e-18
5194.02241 8.75558e-18
5195.48530 7.66558e-18
5196.95836 8.79383e-18
5198.43141 8.61992e-18
5199.90447 9.06227e-18
5201.36736 1.20236e-17
5202.84042 1.15108e-17
5204.31347 9.62221e-18
5205.77637 9.23569e-18
5207.24942 8.59378e-18
5208.72248 8.73408e-18
5210.18538 8.32523e-18
5211.65843 9.13717e-18
5213.13149 9.30122e-18
5214.60454 8.36750e-18
5216.06744 9.35095e-18
5217.54049 1.14540e-17
5219.01355 1.06736e-17
5220.47644 9.39710e-18
5221.94950 9.70859e-18
5223.42255 8.93619e-18
5224.88545 1.01469e-17
5226.35850 1.01749e-17
5227.83156 1.00873e-17
5229.30461 1.09866e-17
5230.76751 9.42008e-18
5232.24057 8.27206e-18
5233.71362 1.02503e-17
5235.17652 1.07474e-17
5236.64957 8.98863e-18
5238.12263 8.01496e-18
5239.58552 1.04064e-17
5241.05858 1.09876e-17
5242.53163 8.66949e-18
5244.00469 8.76034e-18
5245.46758 9.09968e-18
5246.94064 1.01747e-17
5248.41369 9.12964e-18
5249.87659 9.17868e-18
5251.34964 9.15046e-18
5252.82270 9.10881e-18
5254.28560 1.11002e-17
5255.75865 9.83366e-18
5257.23171 9.38068e-18
5258.70476 9.83984e-18
5260.16766 1.02534e-17
5261.64071 9.48900e-18
5263.11377 1.00864e-17
5264.57666 1.09186e-17
5266.04972 1.03916e-17
5267.52277 1.02714e-17
5268.98567 1.10978e-17
5270.45872 1.08966e-17
5271.93178 1.04802e-17
5273.40483 1.03941e-17
5274.86773 1.12079e-17
5276.34078 1.16627e-17
5277.81384 1.07052e-17
5279.27673 1.12283e-17
5280.74979 9.98408e-18
5282.22285 1.08352e-17
5283.68574 1.17606e-17
5285.15880 9.56029e-18
5286.63185 9.71952e-18
5288.09475 9.89688e-18
5289.56780 9.70222e-18
5291.04086 1.08482e-17
5292.51391 1.08078e-17
5293.97681 1.05721e-17
5295.44986 1.21508e-17
5296.92292 1.22972e-17
5298.38581 1.24231e-17
5299.85887 1.07918e-17
5301.33192 1.01203e-17
5302.79482 1.00866e-17
5304.26788 9.87836e-18
5305.74093 1.10078e-17
5307.21398 1.02935e-17
5308.67688 1.04923e-17
5310.14994 9.62930e-18
5311.62299 8.08277e-18
5313.08589 8.41223e-18
5314.55894 1.18031e-17
5316.03200 1.16531e-17
5317.49489 9.22000e-18
5318.96795 9.75778e-18
5320.44100 1.02305e-17
5321.91406 1.07384e-17
5323.37695 1.00975e-17
5324.85001 1.09910e-17
5326.32306 1.12272e-17
5327.78596 1.10013e-17
5329.25902 1.06337e-17
5330.73207 1.18623e-17
5332.20513 9.98219e-18
5333.66802 1.04543e-17
5335.14108 1.24774e-17
5336.61413 1.11500e-17
5338.07703 9.54555e-18
5339.55008 1.06539e-17
5341.02314 1.08151e-17
5342.48603 9.68278e-18
5343.95909 1.10363e-17
5345.43214 1.13964e-17
5346.89504 1.12211e-17
5348.36809 1.28375e-17
5349.84115 1.28609e-17
5351.31420 1.26190e-17
5352.77710 1.16406e-17
5354.25015 1.21195e-17
5355.72321 1.18123e-17
5357.18611 1.02319e-17
5358.65916 1.08156e-17
5360.13222 1.18398e-17
5361.60527 1.24359e-17
5363.06817 1.18718e-17
5364.54122 1.30995e-17
5366.01428 1.48335e-17
5367.47717 1.33113e-17
5368.95023 1.34908e-17
5370.42328 1.22598e-17
5371.88618 1.28959e-17
5373.35923 1.27571e-17
5374.83229 1.17477e-17
5376.29518 1.31062e-17
5377.76824 1.28402e-17
5379.24130 1.09990e-17
5380.71435 1.01171e-17
5382.17725 1.05991e-17
5383.65030 1.15282e-17
5385.12336 1.38044e-17
5386.58625 1.18189e-17
5388.05931 1.08139e-17
5389.53236 1.19235e-17
5390.99526 1.28576e-17
5392.46831 1.21142e-17
5393.94137 1.27948e-17
5395.41442 1.25816e-17
5396.87732 1.22219e-17
5398.35037 1.39999e-17
5399.82343 1.37440e-17
5401.28633 1.30993e-17
5402.75938 1.26092e-17
5404.23243 1.18424e-17
5405.69533 1.13934e-17
5407.16839 1.25372e-17
5408.64144 1.22869e-17
5410.11450 1.11387e-17
5411.57739 1.07072e-17
5413.05045 1.08285e-17
5414.52350 1.03464e-17
5415.98640 1.16562e-17
5417.45945 1.28637e-17
5418.93251 1.27043e-17
5420.39540 1.17103e-17
5421.86846 1.19704e-17
5423.34151 1.23276e-17
5424.81457 1.24834e-17
5426.27747 1.11846e-17
5427.75052 1.03514e-17
5429.22357 1.18250e-17
5430.68647 1.34425e-17
5432.15953 1.32365e-17
5433.63258 1.16593e-17
5435.09548 1.04167e-17
5436.56853 8.96135e-18
5438.04159 9.54323e-18
5439.51464 1.19212e-17
5440.97754 1.31553e-17
5442.45059 1.24139e-17
5443.92365 1.14802e-17
5445.38654 1.03537e-17
5446.85960 9.70106e-18
5448.33265 1.27260e-17
5449.79555 1.24860e-17
5451.26861 1.09427e-17
5452.74166 1.25034e-17
5454.21472 1.23072e-17
5455.67761 1.12424e-17
5457.15067 1.02575e-17
5458.62372 9.85788e-18
5460.08662 1.28089e-17
5461.55967 1.46918e-17
5463.03273 1.25471e-17
5464.49562 1.09338e-17
5465.96868 1.13631e-17
5467.44173 1.01197e-17
5468.91479 1.12031e-17
5470.37768 1.28900e-17
5471.85074 1.29255e-17
5473.32379 1.27453e-17
5474.78669 1.24512e-17
5476.25975 1.33921e-17
5477.73280 1.22386e-17
5479.19570 1.07092e-17
5480.66875 1.11080e-17
5482.14181 1.15513e-17
5483.61486 1.12580e-17
5485.07776 1.32455e-17
5486.55081 1.41117e-17
5488.02387 1.23587e-17
5489.48676 1.20336e-17
5490.95982 1.27555e-17
5492.43287 1.16557e-17
5493.89577 1.31461e-17
5495.36882 1.44015e-17
5496.84188 1.25339e-17
5498.30478 1.21713e-17
5499.77783 1.29184e-17
5501.25088 1.22655e-17
5502.72394 1.19685e-17
5504.18684 1.24983e-17
5505.65989 1.29874e-17
5507.13295 1.29490e-17
5508.59584 1.28752e-17
5510.06890 1.33871e-17
5511.54195 1.41230e-17
5513.00485 1.36979e-17
5514.47790 1.25393e-17
5515.95096 1.23271e-17
5517.42401 1.24356e-17
5518.88691 1.24714e-17
5520.35996 1.25048e-17
5521.83302 1.22288e-17
5523.29592 1.20538e-17
5524.76897 1.14718e-17
5526.24203 1.13164e-17
5527.70492 1.21006e-17
5529.17798 1.29869e-17
5530.65103 1.34793e-17
5532.12409 1.32640e-17
5533.58698 1.37379e-17
5535.06004 1.40336e-17
5536.53309 1.39114e-17
5537.99599 1.40965e-17
5539.46904 1.33423e-17
5540.94210 1.27841e-17
5542.41515 1.31772e-17
5543.87805 1.31155e-17
5545.35110 1.37025e-17
5546.82416 1.43047e-17
5548.28705 1.38610e-17
5549.76011 1.37738e-17
5551.23317 1.41314e-17
5552.69606 1.42414e-17
5554.16912 1.36721e-17
5555.64217 1.33868e-17
5557.10507 1.32476e-17
5558.57812 1.29626e-17
5560.05118 1.32666e-17
5561.52423 1.44809e-17
5562.98713 1.49644e-17
5564.46018 1.38015e-17
5565.93324 1.25717e-17
5567.39613 1.19377e-17
5568.86919 1.20866e-17
5570.34224 1.17145e-17
5571.80514 1.15053e-17
5573.27819 1.13788e-17
5574.75125 1.13215e-17
5576.22430 1.15872e-17
5577.68720 1.24079e-17
5579.16026 1.33985e-17
5580.63331 1.42355e-17
5582.09621 1.45792e-17
5583.56926 1.41679e-17
5585.04232 1.33585e-17
5586.50521 1.26973e-17
5587.97827 1.24316e-17
5589.45132 1.24143e-17
5590.92438 1.24978e-17
5592.38727 1.30397e-17
5593.86033 1.26501e-17
5595.33338 1.22322e-17
5596.79628 1.23423e-17
5598.26933 1.28986e-17
5599.74239 1.37531e-17
5601.20529 1.31985e-17
5602.67834 1.29202e-17
5604.15140 1.30170e-17
5605.62445 1.32731e-17
5607.08735 1.35064e-17
5608.56040 1.34975e-17
5610.03346 1.40719e-17
5611.49635 1.39396e-17
5612.96941 1.29079e-17
5614.44246 1.21988e-17
5615.90536 1.16779e-17
5617.37841 1.20880e-17
5618.85147 1.14518e-17
5620.32452 1.15079e-17
5621.78742 1.19624e-17
5623.26048 1.22249e-17
5624.73353 1.22564e-17
5626.19643 1.19550e-17
5627.66948 1.27697e-17
5629.14254 1.31959e-17
5630.60543 1.18888e-17
5632.07849 1.11334e-17
5633.55154 1.15785e-17
5635.02460 1.18038e-17
5636.48749 1.18191e-17
5637.96055 1.18628e-17
5639.43360 1.21569e-17
5640.89650 1.19726e-17
5642.36955 1.17592e-17
5643.84261 1.11359e-17
5645.30551 1.12738e-17
5646.77856 1.17499e-17
5648.25162 1.16707e-17
5649.72467 1.19543e-17
5651.18757 1.16715e-17
5652.66062 1.14316e-17
5654.13368 1.13143e-17
5655.59657 1.19123e-17
5657.06963 1.30406e-17
5658.54268 1.32954e-17
5660.00558 1.27810e-17
5661.47863 1.20658e-17
5662.95169 1.23351e-17
5664.42474 1.24054e-17
5665.88764 1.20565e-17
5667.36069 1.24940e-17
5668.83375 1.29574e-17
5670.29665 1.29513e-17
5671.76970 1.25513e-17
5673.24276 1.29546e-17
5674.70565 1.26033e-17
5676.17871 1.18323e-17
5677.65176 1.30085e-17
5679.12482 1.36880e-17
5680.58771 1.33018e-17
5682.06077 1.37574e-17
5683.53382 1.32659e-17
5684.99672 1.19197e-17
5686.46977 1.18082e-17
5687.94283 1.19972e-17
5689.40572 1.26144e-17
5690.87878 1.36641e-17
5692.35183 1.47121e-17
5693.82489 1.51688e-17
5695.28778 1.44765e-17
5696.76084 1.39612e-17
5698.23390 1.39565e-17
5699.69679 1.33212e-17
5701.16985 1.25345e-17
5702.64290 1.27868e-17
5704.10580 1.33408e-17
5705.57885 1.37469e-17
5707.05191 1.38682e-17
5708.51480 1.36350e-17
5709.98786 1.30268e-17
5711.46091 1.19282e-17
5712.93397 1.17663e-17
5714.39686 1.23061e-17
5715.86992 1.21703e-17
5717.34297 1.20155e-17
5718.80587 1.27092e-17
5720.27893 1.28064e-17
5721.75198 1.18884e-17
5723.22503 1.20360e-17
5724.68793 1.20942e-17
5726.16099 1.13332e-17
5727.63404 1.14518e-17
5729.09694 1.15915e-17
5730.56999 1.10218e-17
5732.04305 1.11046e-17
5733.50594 1.14395e-17
5734.97900 1.17534e-17
5736.45205 1.20074e-17
5737.91495 1.18935e-17
5739.38800 1.25611e-17
5740.86106 1.24469e-17
5742.33411 1.17970e-17
5743.79701 1.19660e-17
5745.27007 1.21018e-17
5746.74312 1.23880e-17
5748.20602 1.24378e-17
5749.67907 1.17083e-17
5751.15213 1.10534e-17
5752.61502 1.15532e-17
5754.08808 1.16603e-17
5755.56113 1.13665e-17
5757.03419 1.17529e-17
5758.49708 1.11926e-17
5759.97014 1.07419e-17
5761.44319 1.11302e-17
5762.90609 1.10958e-17
5764.37914 1.08480e-17
5765.85220 1.00964e-17
5767.31509 8.97708e-18
5768.78815 9.23070e-18
5770.26120 1.03765e-17
5771.73426 1.05380e-17
5773.19716 1.03405e-17
5774.67021 1.02792e-17
5776.14327 9.86511e-18
5777.60616 8.97839e-18
5779.07922 8.28679e-18
5780.55227 8.65080e-18
5782.01517 9.82784e-18
5783.48822 1.01853e-17
5784.96128 1.06366e-17
5786.43433 1.10914e-17
5787.89723 1.02660e-17
5789.37028 1.00382e-17
5790.84334 1.01277e-17
5792.30624 9.26094e-18
5793.77929 8.12009e-18
5795.25234 7.82983e-18
5796.71524 9.25605e-18
5798.18830 9.57802e-18
5799.66135 8.42923e-18
5801.13441 8.58906e-18
5802.59730 8.77863e-18
5804.07036 7.88692e-18
5805.54341 7.19992e-18
5807.00631 7.85529e-18
5808.47936 8.21908e-18
5809.95242 7.65044e-18
5811.41531 7.34064e-18
5812.88837 7.06889e-18
5814.36142 7.34927e-18
5815.83448 8.08268e-18
5817.29738 8.36365e-18
5818.77043 8.15117e-18
5820.24348 7.93328e-18
5821.70638 7.88804e-18
5823.17944 7.88513e-18
5824.65249 7.88077e-18
5826.11539 7.91952e-18
5827.58844 8.03904e-18
5829.06150 8.16510e-18
5830.53455 8.19085e-18
5831.99745 7.63558e-18
5833.47050 7.98885e-18
5834.94356 7.32938e-18
5836.40645 7.21704e-18
5837.87951 7.76798e-18
5839.35256 7.61166e-18
5840.81546 6.97763e-18
5842.28852 6.78309e-18
5843.76157 7.37325e-18
5845.23463 8.03771e-18
5846.69752 8.42990e-18
5848.17058 8.64158e-18
5849.64363 8.36157e-18
5851.10653 8.04191e-18
5852.57958 8.25501e-18
5854.05264 8.62633e-18
5855.51553 8.23668e-18
5856.98859 7.59987e-18
5858.46164 7.69053e-18
5859.93470 7.77002e-18
5861.39759 8.34167e-18
5862.87065 9.38698e-18
5864.34370 9.65533e-18
5865.80660 8.66320e-18
5867.27966 8.40903e-18
5868.75271 8.94774e-18
5870.21561 8.70640e-18
5871.68866 8.68757e-18
5873.16172 9.17668e-18
5874.63477 8.99536e-18
5876.09767 8.79594e-18
5877.57072 8.91205e-18
5879.04378 1.03417e-17
5880.50667 1.06848e-17
5881.97973 9.44527e-18
5883.45278 8.13915e-18
5884.91568 7.72680e-18
5886.38873 8.23903e-18
5887.86179 7.89824e-18
5889.33484 9.43866e-18
5890.79774 1.05219e-17
5892.27080 1.00853e-17
5893.74385 1.02039e-17
5895.20675 9.76239e-18
5896.67980 9.98815e-18
5898.15286 1.10328e-17
5899.61575 1.10887e-17
5901.08881 1.17575e-17
5902.56186 1.25670e-17
5904.02476 1.28766e-17
5905.49781 1.24504e-17
5906.97087 1.09160e-17
5908.44392 1.06540e-17
5909.90682 1.10965e-17
5911.37987 1.03859e-17
5912.85293 1.03901e-17
5914.31583 1.09807e-17
5915.78888 9.90910e-18
5917.26193 1.00268e-17
5918.73499 1.03213e-17
5920.19789 1.05314e-17
5921.67094 1.16559e-17
5923.14400 1.14767e-17
5924.60689 1.22721e-17
5926.07995 1.28884e-17
5927.55300 1.20693e-17
5929.01590 1.20812e-17
5930.48895 1.28346e-17
5931.96201 1.26056e-17
5933.42490 1.16734e-17
5934.89796 1.03500e-17
5936.37101 1.01610e-17
5937.84407 1.14434e-17
5939.30697 1.21286e-17
5940.78002 1.24212e-17
5942.25308 1.31535e-17
5943.71597 1.20349e-17
5945.18903 1.10602e-17
5946.66208 1.12315e-17
5948.12498 1.17810e-17
5949.59803 1.21474e-17
5951.07109 1.15152e-17
5952.54414 1.13481e-17
5954.00704 1.19890e-17
5955.48009 1.21727e-17
5956.95315 1.22988e-17
5958.41604 1.22924e-17
5959.88910 1.25706e-17
5961.36215 1.33393e-17
5962.82505 1.26387e-17
5964.29810 1.32676e-17
5965.77116 1.31916e-17
5967.24422 1.20748e-17
5968.70711 1.27373e-17
5970.18017 1.31724e-17
5971.65322 1.25316e-17
5973.11612 1.19572e-17
5974.58917 1.21322e-17
5976.06223 1.28461e-17
5977.52512 1.23074e-17
5978.99818 1.22809e-17
5980.47123 1.28181e-17
5981.94429 1.20183e-17
5983.40718 1.14513e-17
5984.88024 1.17627e-17
5986.35329 1.17725e-17
5987.81619 1.13811e-17
5989.28924 1.12297e-17
5990.76230 1.13906e-17
5992.22520 1.13745e-17
5993.69825 1.18906e-17
5995.17131 1.31136e-17
5996.64436 1.34807e-17
5998.10726 1.25353e-17
5999.58031 1.21220e-17
6001.05337 1.31964e-17
6002.51626 1.36833e-17
6003.98932 1.37090e-17
6005.46237 1.30283e-17
6006.92527 1.31345e-17
6008.39832 1.39055e-17
6009.87138 1.32669e-17
6011.34443 1.28012e-17
6012.80733 1.26495e-17
6014.28039 1.38782e-17
6015.75344 1.48371e-17
6017.21634 1.43936e-17
6018.68939 1.37131e-17
6020.16245 1.38351e-17
6021.62534 1.35750e-17
6023.09840 1.37012e-17
6024.57145 1.37414e-17
6026.04451 1.35895e-17
6027.50740 1.36730e-17
6028.98046 1.39149e-17
6030.45351 1.38373e-17
6031.91641 1.34003e-17
6033.38946 1.28858e-17
6034.86252 1.20768e-17
6036.32542 1.17971e-17
6037.79847 1.18174e-17
6039.27153 1.17299e-17
6040.74458 1.16201e-17
6042.20748 1.16444e-17
6043.68053 1.19485e-17
6045.15359 1.25588e-17
6046.61648 1.28982e-17
6048.08954 1.22278e-17
6049.56259 1.20269e-17
6051.02549 1.17898e-17
6052.49854 1.21091e-17
6053.97160 1.17883e-17
6055.44465 1.22781e-17
6056.90755 1.24808e-17
6058.38060 1.29234e-17
6059.85366 1.38913e-17
6061.31656 1.37248e-17
6062.78961 1.33362e-17
6064.26267 1.28056e-17
6065.72556 1.32504e-17
6067.19862 1.28313e-17
6068.67167 1.13481e-17
6070.14473 1.15297e-17
6071.60762 1.29414e-17
6073.08068 1.30323e-17
6074.55373 1.20362e-17
6076.01663 1.17475e-17
6077.48968 1.16591e-17
6078.96274 1.21675e-17
6080.42563 1.23867e-17
6081.89869 1.17433e-17
6083.37174 1.08148e-17
6084.83464 1.01768e-17
6086.30770 1.07830e-17
6087.78075 1.19599e-17
6089.25381 1.19563e-17
6090.71670 1.16317e-17
6092.18976 1.20846e-17
6093.66281 1.24677e-17
6095.12571 1.24363e-17
6096.59876 1.17681e-17
6098.07182 1.19654e-17
6099.54487 1.28380e-17
6101.00777 1.28883e-17
6102.48082 1.25591e-17
6103.95388 1.27752e-17
6105.41677 1.31688e-17
6106.88983 1.29920e-17
6108.36288 1.31814e-17
6109.82578 1.24473e-17
6111.29883 1.19318e-17
6112.77189 1.18643e-17
6114.24495 1.14295e-17
6115.70784 1.12026e-17
6117.18090 1.09504e-17
6118.65395 1.14706e-17
6120.11685 1.13595e-17
6121.58990 1.15168e-17
6123.06296 1.20015e-17
6124.52585 1.24489e-17
6125.99891 1.24497e-17
6127.47196 1.21845e-17
6128.94502 1.17803e-17
6130.40791 1.15645e-17
6131.88097 1.13387e-17
6133.35402 1.07376e-17
6134.81692 1.02186e-17
6136.28998 1.08279e-17
6137.76303 1.01849e-17
6139.22593 1.01831e-17
6140.69898 1.07953e-17
6142.17204 1.05624e-17
6143.63493 1.00822e-17
6145.10799 1.03429e-17
6146.58104 1.10024e-17
6148.05410 1.05086e-17
6149.51699 1.07779e-17
6150.99005 1.13936e-17
6152.46310 1.07304e-17
6153.92600 1.02417e-17
6155.39905 1.04390e-17
6156.87211 1.06657e-17
6158.33500 9.70322e-18
6159.80806 9.96453e-18
6161.28112 1.04673e-17
6162.75417 1.03946e-17
6164.21707 1.01726e-17
6165.69012 9.85398e-18
6167.16318 1.03989e-17
6168.62607 1.05543e-17
6170.09913 1.07678e-17
6171.57218 1.06153e-17
6173.03508 1.00178e-17
6174.50813 1.03483e-17
6175.98119 1.09005e-17
6177.45424 1.04753e-17
6178.91714 1.02703e-17
6180.39019 1.06199e-17
6181.86325 1.09515e-17
6183.32614 1.15392e-17
6184.79920 1.18255e-17
6186.27225 1.09003e-17
6187.74531 1.07979e-17
6189.20821 1.15999e-17
6190.68126 1.21693e-17
6192.15432 1.16837e-17
6193.61721 1.17924e-17
6195.09027 1.21002e-17
6196.56332 1.21437e-17
6198.02622 1.19423e-17
6199.49927 1.14867e-17
6200.97233 1.18332e-17
6202.43522 1.20250e-17
6203.90828 1.19441e-17
6205.38133 1.15014e-17
6206.85439 1.12781e-17
6208.31729 1.16840e-17
6209.79034 1.22210e-17
6211.26339 1.24972e-17
6212.72629 1.27555e-17
6214.19935 1.29487e-17
6215.67240 1.25532e-17
6217.13530 1.23345e-17
6218.60835 1.21722e-17
6220.08141 1.16255e-17
6221.55446 1.17607e-17
6223.01736 1.16731e-17
6224.49041 1.25299e-17
6225.96347 1.21386e-17
6227.42636 1.11944e-17
6228.89942 1.14111e-17
6230.37247 1.25741e-17
6231.83537 1.29589e-17
6233.30843 1.20531e-17
6234.78148 1.17079e-17
6236.25454 1.23623e-17
6237.71743 1.20692e-17
6239.19049 1.12293e-17
6240.66354 1.05869e-17
6242.12644 1.17970e-17
6243.59949 1.16943e-17
6245.07255 1.12267e-17
6246.53544 1.21413e-17
6248.00850 1.24443e-17
6249.48155 1.28277e-17
6250.95461 1.27207e-17
6252.41750 1.25024e-17
6253.89056 1.22935e-17
6255.36361 1.27857e-17
6256.82651 1.20917e-17
6258.29957 1.06783e-17
6259.77262 1.04508e-17
6261.23552 1.12753e-17
6262.70857 1.23504e-17
6264.18163 1.17099e-17
6265.64452 1.19556e-17
6267.11758 1.23495e-17
6268.59063 1.19269e-17
6270.06369 1.26326e-17
6271.52658 1.28969e-17
6272.99964 1.32375e-17
6274.47269 1.38589e-17
6275.93559 1.38115e-17
6277.40864 1.40040e-17
6278.88170 1.43902e-17
6280.35475 1.31382e-17
6281.81765 1.30567e-17
6283.29071 1.37334e-17
6284.76376 1.32858e-17
6286.22666 1.28355e-17
6287.69971 1.23869e-17
6289.17277 1.22357e-17
6290.63566 1.19341e-17
6292.10872 1.23513e-17
6293.58177 1.21787e-17
6295.04467 1.25076e-17
6296.51772 1.27291e-17
6297.99078 1.29990e-17
6299.46383 1.38056e-17
6300.92673 1.42494e-17
6302.39978 1.41499e-17
6303.87284 1.35151e-17
6305.33573 1.21309e-17
6306.80879 1.14105e-17
6308.28185 1.29069e-17
6309.75490 1.27477e-17
6311.21780 1.27279e-17
6312.69085 1.26898e-17
6314.16391 1.23345e-17
6315.62680 1.24313e-17
6317.09986 1.21539e-17
6318.57291 1.28023e-17
6320.03581 1.26355e-17
6321.50886 1.27885e-17
6322.98192 1.34109e-17
6324.45497 1.41668e-17
6325.91787 1.39656e-17
6327.39092 1.33794e-17
6328.86398 1.31947e-17
6330.32687 1.29150e-17
6331.79993 1.30222e-17
6333.27298 1.33141e-17
6334.73588 1.29864e-17
6336.20894 1.36172e-17
6337.68199 1.39589e-17
6339.15505 1.32724e-17
6340.61794 1.26987e-17
6342.09100 1.32795e-17
6343.56405 1.37952e-17
6345.02695 1.47800e-17
6346.50000 1.44375e-17
6347.97306 1.46081e-17
6349.43595 1.41811e-17
6350.90901 1.34174e-17
6352.38206 1.33048e-17
6353.84496 1.34271e-17
6355.31802 1.36973e-17
6356.79107 1.34970e-17
6358.26413 1.35071e-17
6359.72702 1.39583e-17
6361.20008 1.42499e-17
6362.67313 1.39576e-17
6364.13603 1.32269e-17
6365.60908 1.31272e-17
6367.08214 1.34913e-17
6368.54503 1.31016e-17
6370.01809 1.37624e-17
6371.49114 1.36126e-17
6372.96420 1.39081e-17
6374.42709 1.43487e-17
6375.90015 1.36541e-17
6377.37320 1.38713e-17
6378.83610 1.36007e-17
6380.30915 1.37031e-17
6381.78221 1.30963e-17
6383.24511 1.23403e-17
6384.71816 1.32178e-17
6386.19122 1.29703e-17
6387.66427 1.31083e-17
6389.12717 1.33408e-17
6390.60022 1.31647e-17
6392.07328 1.28367e-17
6393.53617 1.29794e-17
6395.00923 1.37843e-17
6396.48228 1.43060e-17
6397.94518 1.43724e-17
6399.41823 1.38234e-17
6400.89129 1.36703e-17
6402.36434 1.42622e-17
6403.82724 1.40080e-17
6405.30030 1.39264e-17
6406.77335 1.35560e-17
6408.23625 1.31224e-17
6409.70930 1.34755e-17
6411.18236 1.36316e-17
6412.64525 1.41678e-17
6414.11831 1.41680e-17
6415.59136 1.38765e-17
6417.06442 1.43172e-17
6418.52731 1.48047e-17
6420.00037 1.34868e-17
6421.47342 1.32538e-17
6422.93632 1.36792e-17
6424.40937 1.29766e-17
6425.88243 1.36714e-17
6427.34533 1.34202e-17
6428.81838 1.31677e-17
6430.29144 1.33301e-17
6431.76449 1.34569e-17
6433.22739 1.29258e-17
6434.70044 1.25668e-17
6436.17350 1.30704e-17
6437.63639 1.36653e-17
6439.10945 1.47028e-17
6440.58250 1.44783e-17
6442.04540 1.31829e-17
6443.51845 1.31101e-17
6444.99151 1.40276e-17
6446.46456 1.40607e-17
6447.92746 1.29050e-17
6449.40051 1.28243e-17
6450.87357 1.29233e-17
6452.33647 1.30700e-17
6453.80952 1.30763e-17
6455.28258 1.29766e-17
6456.74547 1.28534e-17
6458.21853 1.27880e-17
6459.69158 1.28251e-17
6461.16464 1.29284e-17
6462.62753 1.29805e-17
6464.10059 1.28433e-17
6465.57364 1.25065e-17
6467.03654 1.23049e-17
6468.50959 1.23706e-17
6469.98265 1.25751e-17
6471.44554 1.26682e-17
6472.91860 1.25721e-17
6474.39165 1.26567e-17
6475.86471 1.25490e-17
6477.32761 1.26497e-17
6478.80066 1.26107e-17
6480.27372 1.26954e-17
6481.73661 1.34054e-17
6483.20967 1.25896e-17
6484.68272 1.29530e-17
6486.14562 1.33951e-17
6487.61867 1.33609e-17
6489.09173 1.28302e-17
6490.56478 1.34027e-17
6492.02768 1.42047e-17
6493.50073 1.33739e-17
6494.97379 1.31061e-17
6496.43668 1.27713e-17
6497.90974 1.35106e-17
6499.38279 1.31425e-17
6500.84569 1.36821e-17
6502.31875 1.26003e-17
6503.79180 1.24832e-17
6505.25470 1.16252e-17
6506.72775 1.25734e-17
6508.20081 1.29052e-17
6509.67386 1.20835e-17
6511.13676 1.21226e-17
6512.60981 1.23190e-17
6514.08287 1.20635e-17
6515.54576 1.28033e-17
6517.01882 1.20056e-17
6518.49187 1.23900e-17
6519.96493 1.38736e-17
6521.42782 1.44415e-17
6522.90088 1.23302e-17
6524.37393 1.36238e-17
6525.83683 1.40886e-17
6527.30988 1.30629e-17
6528.78294 1.24829e-17
6530.24584 1.27117e-17
6531.71889 1.26901e-17
6533.19195 1.34209e-17
6534.66500 1.26652e-17
6536.12790 1.31874e-17
6537.60095 1.32269e-17
6539.07401 1.16002e-17
6540.53690 1.25694e-17
6542.00996 1.35138e-17
6543.48301 1.28617e-17
6544.94591 1.34349e-17
6546.41896 1.25133e-17
6547.89202 1.23273e-17
6549.35492 1.32819e-17
6550.82797 1.32695e-17
6552.30102 1.30433e-17
6553.77408 1.18026e-17
6555.23698 1.19810e-17
6556.71003 1.34932e-17
6558.18309 1.26113e-17
6559.64598 1.14973e-17
6561.11904 1.09024e-17
6562.59209 1.19160e-17
6564.05499 1.32502e-17
6565.52804 1.28753e-17
6567.00110 1.28071e-17
6568.47415 1.27353e-17
6569.93705 1.27717e-17
6571.41010 1.28644e-17
6572.88316 1.24504e-17
6574.34605 1.38176e-17
6575.81911 1.31056e-17
6577.29217 1.29455e-17
6578.75506 1.37201e-17
6580.22812 1.35150e-17
6581.70117 1.35494e-17
6583.17423 1.35897e-17
6584.63712 1.34235e-17
6586.11018 1.42939e-17
6587.58323 1.36339e-17
6589.04613 1.21325e-17
6590.51918 1.32003e-17
6591.99224 1.30263e-17
6593.45513 1.23099e-17
6594.92819 1.35342e-17
6596.40124 1.27563e-17
6597.87430 1.18775e-17
6599.33720 1.26615e-17
6600.81025 1.40645e-17
6602.28330 1.28503e-17
6603.74620 1.24881e-17
6605.21926 1.31851e-17
6606.69231 1.28300e-17
6608.15521 1.21652e-17
6609.62826 1.29557e-17
6611.10132 1.30926e-17
6612.57437 1.28284e-17
6614.03727 1.31785e-17
6615.51032 1.32090e-17
6616.98338 1.23206e-17
6618.44627 1.20682e-17
6619.91933 1.33406e-17
6621.39238 1.24678e-17
6622.85528 1.17078e-17
6624.32834 1.21819e-17
6625.80139 1.24655e-17
6627.27445 1.25114e-17
6628.73734 1.25390e-17
6630.21040 1.27496e-17
6631.68345 1.27063e-17
6633.14635 1.26081e-17
6634.61940 1.21620e-17
6636.09246 1.16966e-17
6637.55535 1.17169e-17
6639.02841 1.17371e-17
6640.50146 1.17574e-17
6641.97452 1.17777e-17
6643.43741 1.17979e-17
6644.91047 1.18182e-17
6646.38352 1.18384e-17
6647.84642 1.18587e-17
6649.31948 1.18789e-17
6650.79253 1.18992e-17
6652.25543 1.19194e-17
6653.72848 1.19397e-17
6655.20154 1.19600e-17
6656.67459 1.19802e-17
6658.13749 1.20005e-17
6659.61054 1.20207e-17
6661.08360 1.20410e-17
6662.54649 1.20612e-17
6664.01955 1.20815e-17
6665.49260 1.21017e-17
6666.95550 1.21220e-17
6668.42855 1.21422e-17
6669.90161 1.21625e-17
6671.37466 1.21827e-17
6672.83756 1.22030e-17
6674.31062 1.22232e-17
6675.78367 1.22435e-17
6677.24657 1.22637e-17
6678.71962 1.22840e-17
6680.19268 1.23042e-17
6681.65557 1.23245e-17
6683.12863 1.23447e-17
6684.60168 1.23650e-17
6686.07474 1.23852e-17
6687.53763 1.24054e-17
6689.01069 1.24257e-17
6690.48374 1.24459e-17
6691.94664 1.24662e-17
6693.41969 1.24864e-17
6694.89275 1.25067e-17
6696.35565 1.25269e-17
6697.82870 1.25471e-17
6699.30176 1.23327e-17
6700.77481 1.21588e-17
6702.23771 1.15736e-17
6703.71076 1.15913e-17
6705.18382 1.29042e-17
6706.64671 1.25540e-17
6708.11977 1.22671e-17
6709.59282 1.27220e-17
6711.05572 1.25043e-17
6712.52877 1.19770e-17
6714.00183 1.37505e-17
6715.47488 1.30007e-17
6716.93778 1.19306e-17
6718.41083 1.08787e-17
6719.88389 1.14455e-17
6721.34678 1.19728e-17
6722.81984 1.21059e-17
6724.29290 1.18649e-17
6725.75579 1.21428e-17
6727.22885 1.28231e-17
6728.70190 1.17325e-17
6730.16480 1.10023e-17
6731.63785 1.13658e-17
6733.11091 1.09824e-17
6734.58396 1.02149e-17
6736.04686 1.06713e-17
6737.51991 1.13479e-17
6738.99297 1.04525e-17
6740.45586 1.20900e-17
6741.92892 1.24712e-17
6743.40197 1.21505e-17
6744.87503 1.15649e-17
6746.33792 1.12512e-17
6747.81098 1.10274e-17
6749.28403 1.10251e-17
6750.74693 1.09438e-17
6752.21999 1.12138e-17
6753.69304 1.10008e-17
6755.15594 1.06115e-17
6756.62899 1.11412e-17
6758.10205 1.13073e-17
6759.56494 1.13551e-17
6761.03800 1.03461e-17
6762.51105 1.00003e-17
6763.98411 1.04709e-17
6765.44700 1.12150e-17
6766.92006 1.06893e-17
6768.39311 1.14584e-17
6769.85601 1.09708e-17
6771.32907 1.06581e-17
6772.80212 1.16300e-17
6774.26502 1.09310e-17
6775.73807 1.04394e-17
6777.21113 1.04767e-17
6778.68418 1.12665e-17
6780.14708 1.16310e-17
6781.62013 1.11118e-17
6783.09319 1.12249e-17
6784.55608 1.06307e-17
6786.02914 1.02722e-17
6787.50219 1.01185e-17
6788.96509 9.60271e-18
6790.43814 1.01238e-17
6791.91120 1.10928e-17
6793.38425 1.04424e-17
6794.84715 1.02824e-17
6796.32020 1.04831e-17
6797.79326 1.09236e-17
6799.25616 1.09161e-17
6800.72921 1.09031e-17
6802.20227 1.08884e-17
6803.66516 1.08555e-17
6805.13822 1.07896e-17
6806.61127 1.06835e-17
6808.08433 1.05599e-17
6809.54722 1.04564e-17
6811.02028 1.04036e-17
6812.49333 1.18562e-17
6813.95623 1.10831e-17
6815.42928 1.06102e-17
6816.90234 1.04912e-17
6818.36524 1.01577e-17
6819.83829 1.04259e-17
6821.31135 1.15963e-17
6822.78440 1.10320e-17
6824.24730 1.23787e-17
6825.72035 1.23964e-17
6827.19341 1.23565e-17
6828.65630 1.16447e-17
6830.12936 1.04867e-17
6831.60241 1.18277e-17
6833.06531 1.08899e-17
6834.53836 1.09890e-17
6836.01142 1.05878e-17
6837.48447 1.13603e-17
6838.94737 1.12561e-17
6840.42042 1.06385e-17
6841.89348 1.05122e-17
6843.35638 1.19335e-17
6844.82943 1.12542e-17
6846.30249 1.08373e-17
6847.76538 1.02545e-17
6849.23844 9.54625e-18
6850.71149 1.04761e-17
6852.18455 9.65175e-18
6853.64744 9.24070e-18
6855.12050 9.18843e-18
6856.59355 9.18438e-18
6858.05645 9.95152e-18
6859.52950 1.09604e-17
6861.00256 1.01223e-17
6862.46545 8.89462e-18
6863.93851 9.38768e-18
6865.41156 8.76848e-18
6866.88462 7.68967e-18
6868.34752 8.35003e-18
6869.82057 8.36265e-18
6871.29363 8.02947e-18
6872.75652 8.28953e-18
6874.22958 9.64417e-18
6875.70263 9.93461e-18
6877.16553 9.47720e-18
6878.63858 1.09057e-17
6880.11164 1.10021e-17
6881.58469 9.25348e-18
6883.04759 9.39562e-18
6884.52064 9.69509e-18
6885.99370 9.94498e-18
6887.45659 9.62485e-18
6888.92965 9.62518e-18
6890.40270 9.63989e-18
6891.86560 8.81287e-18
6893.33865 8.35088e-18
6894.81171 8.36392e-18
6896.28477 8.75901e-18
6897.74766 8.65734e-18
6899.22072 8.60108e-18
6900.69377 8.49749e-18
6902.15667 9.13877e-18
6903.62972 8.58786e-18
6905.10278 8.63167e-18
6906.56567 9.48025e-18
6908.03873 9.30744e-18
6909.51178 9.06192e-18
6910.97468 8.77066e-18
6912.44773 8.82327e-18
6913.92079 9.19618e-18
6915.39384 8.79963e-18
6916.85674 8.96828e-18
6918.32980 9.23242e-18
6919.80285 8.29992e-18
6921.26575 8.84615e-18
6922.73880 1.07014e-17
6924.21186 1.03698e-17
6925.68491 9.67356e-18
6927.14781 9.39119e-18
6928.62086 8.84921e-18
6930.09392 8.59005e-18
6931.55681 8.05155e-18
6933.02987 8.25443e-18
6934.50292 8.10203e-18
6935.96582 8.19489e-18
6937.43887 8.96909e-18
6938.91193 9.27502e-18
6940.37482 8.51243e-18
6941.84788 8.16345e-18
6943.32093 9.45344e-18
6944.79399 9.91096e-18
6946.25689 9.67061e-18
6947.72994 8.98912e-18
6949.20300 8.76401e-18
6950.66589 9.19675e-18
6952.13895 8.99014e-18
6953.61200 8.82928e-18
6955.08506 8.69826e-18
6956.54795 8.56096e-18
6958.02101 8.40110e-18
6959.49406 8.40543e-18
6960.95696 8.96538e-18
6962.43001 8.97640e-18
6963.90307 8.20804e-18
6965.36597 8.43940e-18
6966.83902 8.51171e-18
6968.31207 8.30472e-18
6969.77497 8.22072e-18
6971.24803 8.69447e-18
6972.72108 8.74375e-18
6974.19414 9.33260e-18
6975.65703 1.00584e-17
6977.13009 9.64903e-18
6978.60314 8.95823e-18
6980.06604 9.35910e-18
6981.53909 9.33870e-18
6983.01215 9.08769e-18
6984.47504 9.69741e-18
6985.94810 9.90621e-18
6987.42115 9.55313e-18
6988.89421 9.30450e-18
6990.35711 9.89491e-18
6991.83016 9.60814e-18
6993.30322 8.73072e-18
6994.76611 9.08780e-18
6996.23917 1.01162e-17
6997.71222 9.85173e-18
6999.17512 9.62529e-18
7001.99932 9.32165e-18
7004.00064 9.41491e-18
7006.00197 9.49226e-18
7008.00329 9.46138e-18
7010.00461 9.23338e-18
7011.99578 9.11050e-18
7013.99710 9.24194e-18
7015.99842 9.47589e-18
7017.99974 9.51306e-18
7020.00107 9.46187e-18
7022.00239 9.33876e-18
7024.00371 9.04514e-18
7026.00504 8.84805e-18
7027.99620 8.74735e-18
7029.99752 8.75038e-18
7031.99885 8.94446e-18
7034.00017 9.33055e-18
7036.00149 9.70756e-18
7038.00282 1.03655e-17
7040.00414 1.06210e-17
7041.99530 1.03637e-17
7043.99662 9.97673e-18
7045.99795 9.76421e-18
7047.99927 9.57103e-18
7050.00059 9.56663e-18
7052.00192 9.86860e-18
7054.00324 9.92576e-18
7056.00456 9.73752e-18
7057.99573 9.55638e-18
7059.99705 9.51959e-18
7061.99837 9.55118e-18
7063.99970 9.58537e-18
7066.00102 9.62765e-18
7068.00234 9.73648e-18
7070.00367 9.91317e-18
7071.99483 1.01134e-17
7073.99615 1.03864e-17
7075.99748 1.06560e-17
7077.99880 1.06176e-17
7080.00012 1.01632e-17
7082.00144 1.01445e-17
7084.00277 1.04227e-17
7086.00409 1.06610e-17
7087.99525 1.09028e-17
7089.99658 1.10576e-17
7091.99790 1.08405e-17
7093.99922 1.02053e-17
7096.00055 1.00324e-17
7098.00187 1.01687e-17
7100.00319 1.02383e-17
7102.00452 1.02794e-17
7103.99568 1.02843e-17
7105.99700 1.01983e-17
7107.99833 1.00323e-17
7109.99965 9.93733e-18
7112.00097 9.88381e-18
7114.00229 9.80660e-18
7116.00362 9.61988e-18
7118.00494 9.56263e-18
7119.99610 9.79908e-18
7121.99743 1.02370e-17
7123.99875 1.06696e-17
7126.00007 1.14913e-17
7128.00140 1.16358e-17
7130.00272 1.11010e-17
7132.00404 1.06312e-17
7133.99521 1.04581e-17
7135.99653 1.04032e-17
7137.99785 1.03882e-17
7139.99917 1.05201e-17
7142.00050 1.05036e-17
7144.00182 1.03900e-17
7146.00314 1.02864e-17
7148.00447 1.02233e-17
7149.99563 1.01489e-17
7151.99695 9.97632e-18
7153.99828 9.65452e-18
7155.99960 9.64682e-18
7158.00092 9.97102e-18
7160.00225 1.01338e-17
7162.00357 1.00982e-17
7164.00489 1.00408e-17
7165.99606 1.01119e-17
7167.99738 1.02606e-17
7169.99870 1.03003e-17
7172.00003 1.02756e-17
7174.00135 1.02412e-17
7176.00267 1.01661e-17
7178.00399 1.01015e-17
7179.99516 1.01030e-17
7181.99648 1.01383e-17
7183.99780 1.00314e-17
7185.99913 9.78665e-18
7188.00045 9.59317e-18
7190.00177 9.26605e-18
7192.00310 9.16614e-18
7194.00442 9.54520e-18
7195.99558 1.01322e-17
7197.99691 1.02303e-17
7199.99823 9.88772e-18
7201.99955 9.90914e-18
7204.00088 1.01006e-17
7206.00220 1.03247e-17
7208.00352 1.06463e-17
7210.00484 1.09414e-17
7211.99601 1.09200e-17
7213.99733 1.05776e-17
7215.99865 1.05640e-17
7217.99998 1.08142e-17
7220.00130 1.09086e-17
7222.00262 1.08440e-17
7224.00395 1.07068e-17
7225.99511 1.05118e-17
7227.99643 1.02134e-17
7229.99776 1.02086e-17
7231.99908 1.05894e-17
7234.00040 1.06498e-17
7236.00173 1.02813e-17
7238.00305 1.00570e-17
7240.00437 1.03650e-17
7241.99554 1.09917e-17
7243.99686 1.14185e-17
7245.99818 1.20431e-17
7247.99950 1.21499e-17
7250.00083 1.16787e-17
7252.00215 1.12766e-17
7254.00347 1.12512e-17
7256.00480 1.13127e-17
7257.99596 1.08841e-17
7259.99728 9.65100e-18
7261.99861 9.60550e-18
7263.99993 1.06552e-17
7266.00125 1.13624e-17
7268.00258 1.15143e-17
7270.00390 1.14303e-17
7271.99506 1.12921e-17
7273.99638 1.09482e-17
7275.99771 1.08074e-17
7277.99903 1.06944e-17
7280.00035 1.07492e-17
7282.00168 1.10306e-17
7284.00300 1.13860e-17
7286.00432 1.16840e-17
7287.99549 1.20004e-17
7289.99681 1.21729e-17
7291.99813 1.22392e-17
7293.99946 1.22496e-17
7296.00078 1.21446e-17
7298.00210 1.20467e-17
7300.00342 1.20567e-17
7302.00475 1.21196e-17
7303.99591 1.20444e-17
7305.99723 1.16482e-17
7307.99856 1.17558e-17
7309.99988 1.25340e-17
7312.00120 1.29846e-17
7314.00253 1.26395e-17
7316.00385 1.19284e-17
7317.99501 1.16482e-17
7319.99634 1.15583e-17
7321.99766 1.14465e-17
7323.99898 1.13313e-17
7326.00031 1.13413e-17
7328.00163 1.15376e-17
7330.00295 1.18165e-17
7332.00428 1.19989e-17
7333.99544 1.20614e-17
7335.99676 1.25021e-17
7337.99809 1.37309e-17
7339.99941 1.40495e-17
7342.00073 1.31062e-17
7344.00205 1.19600e-17
7346.00338 1.15851e-17
7348.00470 1.15706e-17
7349.99586 1.16252e-17
7351.99719 1.20031e-17
7353.99851 1.22058e-17
7355.99983 1.22098e-17
7358.00116 1.22843e-17
7360.00248 1.25674e-17
7362.00380 1.29861e-17
7363.99497 1.36107e-17
7365.99629 1.49867e-17
7367.99761 1.52337e-17
7369.99893 1.43795e-17
7372.00026 1.36115e-17
7374.00158 1.33384e-17
7376.00290 1.32485e-17
7378.00423 1.31280e-17
7379.99539 1.31344e-17
7381.99671 1.29791e-17
7383.99804 1.25370e-17
7385.99936 1.24066e-17
7388.00068 1.27707e-17
7390.00201 1.33349e-17
7392.00333 1.37334e-17
7394.00465 1.42118e-17
7395.99582 1.42688e-17
7397.99714 1.38362e-17
7399.99846 1.35899e-17
7401.99978 1.35025e-17
7404.00111 1.35165e-17
7406.00243 1.36731e-17
7408.00375 1.39969e-17
7409.99492 1.40770e-17
7411.99624 1.39766e-17
7413.99756 1.39227e-17
7415.99889 1.38149e-17
7418.00021 1.38001e-17
7420.00153 1.40700e-17
7422.00286 1.45217e-17
7424.00418 1.44583e-17
7425.99534 1.38242e-17
7427.99667 1.36019e-17
7429.99799 1.36591e-17
7431.99931 1.36917e-17
7434.00063 1.35297e-17
7436.00196 1.33377e-17
7438.00328 1.35175e-17
7440.00460 1.42664e-17
7441.99577 1.43056e-17
7443.99709 1.38083e-17
7445.99841 1.33682e-17
7447.99974 1.30501e-17
7450.00106 1.27741e-17
7452.00238 1.25501e-17
7454.00371 1.23421e-17
7456.00503 1.23131e-17
7457.99619 1.25731e-17
7459.99752 1.26400e-17
7461.99884 1.25020e-17
7464.00016 1.22645e-17
7466.00148 1.19554e-17
7468.00281 1.15155e-17
7470.00413 1.13794e-17
7471.99530 1.16215e-17
7473.99662 1.15577e-17
7475.99794 1.11452e-17
7477.99926 1.07707e-17
7480.00059 1.06403e-17
7482.00191 1.06456e-17
7484.00323 1.08790e-17
7486.00456 1.14694e-17
7487.99572 1.18866e-17
7489.99704 1.21775e-17
7491.99837 1.25682e-17
7493.99969 1.32629e-17
7496.00101 1.40422e-17
7498.00234 1.42342e-17
7500.00366 1.40357e-17
7501.99482 1.36402e-17
7503.99615 1.27618e-17
7505.99747 1.20433e-17
7507.99879 1.14925e-17
7510.00011 1.11376e-17
7512.00144 1.12805e-17
7514.00276 1.20750e-17
7516.00408 1.21335e-17
7517.99525 1.16991e-17
7519.99657 1.13437e-17
7521.99789 1.09906e-17
7523.99922 1.07116e-17
7526.00054 1.06637e-17
7528.00186 1.07993e-17
7530.00318 1.09113e-17
7532.00451 1.11040e-17
7533.99567 1.12640e-17
7535.99700 1.14661e-17
7537.99832 1.15769e-17
7539.99964 1.14430e-17
7542.00096 1.11433e-17
7544.00229 1.11711e-17
7546.00361 1.16162e-17
7548.00493 1.16202e-17
7549.99610 1.12424e-17
7551.99742 1.08872e-17
7553.99874 1.07285e-17
7556.00007 1.06217e-17
7558.00139 1.03348e-17
7560.00271 9.84356e-18
7562.00403 9.55037e-18
7563.99520 9.28297e-18
7565.99652 9.18726e-18
7567.99785 9.34048e-18
7569.99917 9.61643e-18
7572.00049 9.81563e-18
7574.00181 1.00412e-17
7576.00314 1.01783e-17
7578.00446 1.03285e-17
7579.99562 1.02959e-17
7581.99695 9.92783e-18
7583.99827 9.57865e-18
7585.99959 9.69057e-18
7588.00092 1.01626e-17
7590.00224 1.01320e-17
7592.00356 9.70259e-18
7594.00488 9.43759e-18
7595.99605 9.16103e-18
7597.99737 9.06820e-18
7599.99870 9.49365e-18
7602.00002 1.02718e-17
7604.00134 9.94620e-18
7606.00266 8.30803e-18
7608.00399 7.70307e-18
7609.99515 7.71583e-18
7611.99647 7.91681e-18
7613.99780 8.31795e-18
7615.99912 8.82919e-18
7618.00044 8.72024e-18
7620.00177 8.03417e-18
7622.00309 7.59409e-18
7624.00441 6.82437e-18
7625.99558 6.65137e-18
7627.99690 7.61297e-18
7629.99822 8.83364e-18
7631.99955 8.78554e-18
7634.00087 7.74960e-18
7636.00219 7.36443e-18
7638.00351 7.24979e-18
7640.00484 7.01279e-18
7641.99600 6.48815e-18
7643.99732 6.08404e-18
7645.99865 6.29920e-18
7647.99997 7.03047e-18
7650.00129 7.23581e-18
7652.00262 7.04284e-18
7654.00394 7.12289e-18
7655.99510 7.53510e-18
7657.99643 7.87193e-18
7659.99775 7.91453e-18
7661.99907 7.77789e-18
7664.00040 7.29969e-18
7666.00172 6.11725e-18
7668.00304 5.60540e-18
7670.00436 5.50601e-18
7671.99553 5.61222e-18
7673.99685 5.99113e-18
7675.99817 6.52459e-18
7677.99950 6.54219e-18
7680.00082 6.03629e-18
7682.00214 5.92676e-18
7684.00347 6.05829e-18
7686.00479 6.09570e-18
7687.99595 5.85105e-18
7689.99728 5.62598e-18
7691.99860 5.96716e-18
7693.99992 6.87131e-18
7696.00125 7.28382e-18
7698.00257 7.53607e-18
7700.00389 7.62170e-18
7701.99506 7.37747e-18
7703.99638 7.14851e-18
7705.99770 7.40201e-18
7707.99902 8.04018e-18
7710.00035 8.12125e-18
7712.00167 7.90186e-18
7714.00299 7.54451e-18
7716.00432 6.72280e-18
7717.99548 6.15210e-18
7719.99680 6.37823e-18
7721.99813 7.12545e-18
7723.99945 7.85134e-18
7726.00077 9.25613e-18
7728.00210 9.65919e-18
7730.00342 9.08055e-18
7732.00474 8.53655e-18
7733.99590 8.37308e-18
7735.99723 8.35992e-18
7737.99855 8.49321e-18
7739.99987 9.03654e-18
7742.00120 9.05064e-18
7744.00252 8.67565e-18
7746.00384 8.30421e-18
7747.99501 7.86100e-18
7749.99633 7.50986e-18
7751.99765 7.75417e-18
7753.99898 8.60185e-18
7756.00030 9.03973e-18
7758.00162 9.41735e-18
7760.00295 9.63482e-18
7762.00427 9.52819e-18
7763.99543 9.45567e-18
7765.99676 9.88329e-18
7767.99808 1.07020e-17
7769.99940 1.10923e-17
7772.00072 1.12944e-17
7774.00205 1.13959e-17
7776.00337 1.13831e-17
7778.00469 1.12551e-17
7779.99586 1.09977e-17
7781.99718 1.06161e-17
7783.99850 1.02466e-17
7785.99983 9.61807e-18
7788.00115 9.46473e-18
7790.00247 9.69906e-18
7792.00380 1.00865e-17
7793.99496 1.06252e-17
7795.99628 1.12745e-17
7797.99760 1.16332e-17
7799.99893 1.18101e-17
7802.00025 1.19437e-17
7804.00157 1.19607e-17
7806.00290 1.19505e-17
7808.00422 1.18791e-17
7809.99538 1.18129e-17
7811.99671 1.19545e-17
7813.99803 1.24055e-17
7815.99935 1.22889e-17
7818.00068 1.16347e-17
7820.00200 1.11645e-17
7822.00332 1.07168e-17
7824.00464 1.05351e-17
7825.99581 1.11418e-17
7827.99713 1.25435e-17
7829.99845 1.27812e-17
7831.99978 1.20388e-17
7834.00110 1.17421e-17
7836.00242 1.16767e-17
7838.00375 1.18118e-17
7839.99491 1.22616e-17
7841.99623 1.29780e-17
7843.99756 1.33370e-17
7845.99888 1.33134e-17
7848.00020 1.36938e-17
7850.00153 1.42921e-17
7852.00285 1.51012e-17
7854.00417 1.64769e-17
7855.99534 1.62461e-17
7857.99666 1.55975e-17
7859.99798 1.53188e-17
7861.99931 1.46508e-17
7864.00063 1.38318e-17
7866.00195 1.32935e-17
7868.00327 1.30807e-17
7870.00460 1.31251e-17
7871.99576 1.33766e-17
7873.99708 1.42071e-17
7875.99841 1.39409e-17
7877.99973 1.24477e-17
7880.00105 1.16592e-17
7882.00238 1.17371e-17
7884.00370 1.21006e-17
7885.99486 1.22795e-17
7887.99619 1.24480e-17
7889.99751 1.28714e-17
7891.99883 1.38545e-17
7894.00015 1.41759e-17
7896.00148 1.36271e-17
7898.00280 1.31570e-17
7900.00412 1.34471e-17
7901.99529 1.41630e-17
7903.99661 1.46390e-17
7905.99793 1.54623e-17
7907.99926 1.54638e-17
7910.00058 1.46018e-17
7912.00190 1.37082e-17
7914.00323 1.29802e-17
7916.00455 1.23432e-17
7917.99571 1.23382e-17
7919.99704 1.31551e-17
7921.99836 1.34255e-17
7923.99968 1.36365e-17
7926.00101 1.35652e-17
7928.00233 1.29780e-17
7930.00365 1.22517e-17
7931.99482 1.21360e-17
7933.99614 1.24430e-17
7935.99746 1.26561e-17
7937.99878 1.29033e-17
7940.00011 1.32802e-17
7942.00143 1.39219e-17
7944.00275 1.45359e-17
7946.00408 1.47470e-17
7947.99524 1.46599e-17
7949.99656 1.47526e-17
7951.99789 1.50710e-17
7953.99921 1.49870e-17
7956.00053 1.44359e-17
7958.00186 1.38009e-17
7960.00318 1.32940e-17
7962.00450 1.28027e-17
7963.99567 1.25480e-17
7965.99699 1.25016e-17
7967.99831 1.25077e-17
7969.99963 1.28134e-17
7972.00096 1.28737e-17
7974.00228 1.22566e-17
7976.00360 1.13575e-17
7978.00493 1.14067e-17
7979.99609 1.24034e-17
7981.99741 1.27716e-17
7983.99874 1.28620e-17
7986.00006 1.30026e-17
7988.00138 1.33701e-17
7990.00270 1.36984e-17
7992.00403 1.34953e-17
7993.99519 1.27736e-17
7995.99652 1.23860e-17
7997.99784 1.20562e-17
7999.99916 1.18185e-17
8002.00048 1.17796e-17
8004.00181 1.17146e-17
8006.00313 1.12376e-17
8008.00445 1.03156e-17
8009.99562 1.05292e-17
8011.99694 1.20807e-17
8013.99826 1.27380e-17
8015.99959 1.23913e-17
8018.00091 1.21051e-17
8020.00223 1.27423e-17
8022.00356 1.39104e-17
8024.00488 1.38599e-17
8025.99604 1.24102e-17
8027.99737 1.21100e-17
8029.99869 1.28015e-17
8032.00001 1.33459e-17
8034.00133 1.32519e-17
8036.00266 1.28745e-17
8038.00398 1.26602e-17
8039.99514 1.23767e-17
8041.99647 1.22647e-17
8043.99779 1.23552e-17
8045.99911 1.23627e-17
8048.00044 1.21552e-17
8050.00176 1.19252e-17
8052.00308 1.20293e-17
8054.00440 1.25459e-17
8055.99557 1.24575e-17
8057.99689 1.16296e-17
8059.99822 1.13908e-17
8061.99954 1.21096e-17
8064.00086 1.28812e-17
8066.00218 1.26814e-17
8068.00351 1.18086e-17
8070.00483 1.14073e-17
8071.99599 1.10912e-17
8073.99732 1.09047e-17
8075.99864 1.08772e-17
8077.99996 1.09236e-17
8080.00129 1.10196e-17
8082.00261 1.11854e-17
8084.00393 1.11333e-17
8085.99510 1.09391e-17
8087.99642 1.06770e-17
8089.99774 1.01660e-17
8091.99907 9.82881e-18
8094.00039 9.89304e-18
8096.00171 1.01832e-17
8098.00303 1.03528e-17
8100.00436 1.05272e-17
8101.99552 1.07101e-17
8103.99684 1.10111e-17
8105.99817 1.11231e-17
8107.99949 1.09497e-17
8110.00081 1.06185e-17
8112.00214 1.02873e-17
8114.00346 9.80529e-18
8116.00478 9.58045e-18
8117.99595 9.47583e-18
8119.99727 9.52247e-18
8121.99859 9.83314e-18
8123.99992 1.01729e-17
8126.00124 1.02563e-17
8128.00256 1.02158e-17
8130.00388 9.99074e-18
8131.99505 9.46729e-18
8133.99637 9.06029e-18
8135.99769 8.53169e-18
8137.99902 8.29469e-18
8140.00034 8.85504e-18
8142.00166 1.00072e-17
8144.00299 1.01640e-17
8146.00431 9.55079e-18
8147.99547 9.20367e-18
8149.99680 8.72139e-18
8151.99812 8.52059e-18
8153.99944 8.97262e-18
8156.00077 9.74847e-18
8158.00209 9.75492e-18
8160.00341 8.95528e-18
8162.00473 8.84942e-18
8163.99590 9.15657e-18
8165.99722 9.42330e-18
8167.99854 9.56882e-18
8169.99987 9.67575e-18
8172.00119 9.76235e-18
8174.00251 9.84973e-18
8176.00384 9.80883e-18
8177.99500 9.56357e-18
8179.99632 9.45566e-18
8181.99765 9.46095e-18
8183.99897 9.59560e-18
8186.00029 9.98744e-18
8188.00162 1.06949e-17
8190.00294 1.08711e-17
8192.00426 1.08793e-17
8193.99543 1.04453e-17
8195.99675 9.32084e-18
8197.99807 8.18061e-18
8199.99939 7.42649e-18
8202.00072 6.83555e-18
8204.00204 7.08330e-18
8206.00336 8.84405e-18
8208.00469 9.17433e-18
8209.99585 8.21284e-18
8211.99717 7.33897e-18
8213.99850 7.07162e-18
8215.99982 7.08713e-18
8218.00114 7.38958e-18
8220.00247 8.49972e-18
8222.00379 8.62724e-18
8223.99495 7.92961e-18
8225.99627 7.43758e-18
8227.99760 7.46216e-18
8229.99892 7.61113e-18
8232.00024 7.35785e-18
8234.00157 6.74501e-18
8236.00289 6.51487e-18
8238.00421 6.59352e-18
8239.99538 6.52341e-18
8241.99670 6.23360e-18
8243.99802 5.91076e-18
8245.99935 5.73590e-18
8248.00067 5.64368e-18
8250.00199 5.53861e-18
8252.00331 5.49749e-18
8254.00464 5.37825e-18
8255.99580 5.13504e-18
8257.99712 4.92265e-18
8259.99845 4.85789e-18
8261.99977 4.88542e-18
8264.00109 4.92837e-18
8266.00242 4.87002e-18
8268.00374 5.17468e-18
8269.99490 5.93374e-18
8271.99623 6.64153e-18
8273.99755 7.13299e-18
8275.99887 7.49396e-18
8278.00020 7.52417e-18
8280.00152 7.35862e-18
8282.00284 6.78520e-18
8284.00417 5.49348e-18
8285.99533 4.51469e-18
8287.99665 4.02588e-18
8289.99798 3.86231e-18
8291.99930 4.11269e-18
8294.00062 5.16139e-18
8296.00194 5.12758e-18
8298.00327 4.20129e-18
8300.00459 3.53042e-18
8301.99575 2.97030e-18
8303.99708 2.71599e-18
8305.99840 3.28588e-18
8307.99972 4.65115e-18
8310.00105 5.40716e-18
8312.00237 6.19279e-18
8314.00369 6.43796e-18
8315.99486 5.96276e-18
8317.99618 5.37444e-18
8319.99750 5.12769e-18
8321.99883 5.00617e-18
8324.00015 4.77729e-18
8326.00147 4.40367e-18
8328.00279 4.26399e-18
8330.00412 4.41623e-18
8331.99528 4.49293e-18
8333.99660 4.38337e-18
8335.99793 4.13909e-18
8337.99925 3.54997e-18
8340.00057 1.92198e-18
8342.00190 1.86804e-18
8344.00322 3.38020e-18
8346.00454 4.35092e-18
8347.99571 4.10351e-18
8349.99703 3.47612e-18
8351.99835 3.62990e-18
8353.99968 4.33428e-18
8356.00100 4.59486e-18
8358.00232 4.79916e-18
8360.00364 4.71033e-18
8361.99481 4.05836e-18
8363.99613 3.40879e-18
8365.99745 3.55790e-18
8367.99878 4.34244e-18
8370.00010 4.48846e-18
8372.00142 4.11949e-18
8374.00275 4.12704e-18
8376.00407 4.63147e-18
8378.00539 5.06365e-18
8379.99656 4.98960e-18
8381.99788 4.60678e-18
8383.99920 4.32418e-18
8386.00052 3.65958e-18
8388.00185 3.72396e-18
8390.00317 4.80013e-18
8392.00449 5.52930e-18
8393.99566 5.32228e-18
8395.99698 4.55363e-18
8397.99830 3.41158e-18
8399.99963 1.73478e-18
8402.00095 1.24642e-18
8404.00227 5.99904e-19
8406.00360 2.42514e-18
8408.00492 3.22417e-18
8409.99608 5.09610e-18
8411.99741 5.00503e-18
8413.99873 2.97510e-18
8416.00005 2.52030e-18
8418.00137 2.69524e-18
8420.00270 3.09722e-18
8422.00402 3.90044e-18
8423.99518 4.78390e-18
8425.99651 5.22629e-18
8427.99783 5.38624e-18
8429.99915 5.71972e-18
8432.00048 6.29247e-18
8434.00180 6.44678e-18
8436.00312 6.07019e-18
8438.00445 5.63286e-18
8439.99561 5.47871e-18
8441.99693 5.44483e-18
8443.99826 5.39044e-18
8445.99958 5.32725e-18
8448.00090 5.37244e-18
8450.00223 5.60542e-18
8452.00355 5.75724e-18
8454.00487 5.63307e-18
8455.99604 5.38615e-18
8457.99736 5.49295e-18
8459.99868 5.87027e-18
8462.00000 6.21680e-18
8464.00133 6.72153e-18
8466.00265 7.10718e-18
8468.00397 7.32328e-18
8469.99514 7.41392e-18
8471.99646 7.33340e-18
8473.99778 6.83790e-18
8475.99911 7.07340e-18
8478.00043 8.18704e-18
8480.00175 8.71632e-18
8482.00308 8.58569e-18
8484.00440 8.04821e-18
8485.99556 7.09894e-18
8487.99689 5.48005e-18
8489.99821 4.97905e-18
8491.99953 5.22514e-18
8494.00085 5.58352e-18
8496.00218 6.39132e-18
8498.00350 7.06975e-18
8499.99466 7.05434e-18
8501.99599 6.58962e-18
8503.99731 6.36797e-18
8505.99863 6.06778e-18
8507.99996 5.96814e-18
8510.00128 6.05304e-18
8512.00260 6.20672e-18
8514.00393 6.38546e-18
8515.99509 6.61460e-18
8517.99641 6.87940e-18
8519.99773 7.41671e-18
8521.99906 7.44449e-18
8524.00038 7.01463e-18
8526.00170 6.60978e-18
8528.00303 6.28443e-18
8530.00435 6.01767e-18
8531.99551 5.97175e-18
8533.99684 6.07611e-18
8535.99816 6.36330e-18
8537.99948 6.95685e-18
8540.00081 7.46660e-18
8542.00213 7.92357e-18
8544.00345 8.29065e-18
8546.00477 8.43558e-18
8547.99594 8.37306e-18
8549.99726 8.38654e-18
8551.99858 8.41481e-18
8553.99991 8.36509e-18
8556.00123 8.17723e-18
8558.00255 8.01813e-18
8560.00388 8.01680e-18
8562.00520 8.11117e-18
8563.99636 8.28384e-18
8565.99769 8.52870e-18
8567.99901 8.88451e-18
8570.00033 9.46515e-18
8572.00166 9.95981e-18
8574.00298 1.02256e-17
8576.00430 1.03509e-17
8577.99547 1.03747e-17
8579.99679 1.01144e-17
8581.99811 1.01386e-17
8583.99943 1.02147e-17
8586.00076 1.05292e-17
8588.00208 1.12577e-17
8590.00340 1.21480e-17
8592.00473 1.26507e-17
8593.99589 1.30512e-17
8595.99721 1.30378e-17
8597.99854 1.22223e-17
8599.99986 1.20167e-17
8602.00118 1.26688e-17
8604.00251 1.36030e-17
8606.00383 1.42575e-17
8607.99499 1.48819e-17
8609.99632 1.54073e-17
8611.99764 1.60484e-17
8613.99896 1.62131e-17
8616.00029 1.56871e-17
8618.00161 1.51407e-17
8620.00293 1.51026e-17
8622.00425 1.53274e-17
8623.99542 1.55915e-17
8625.99674 1.62249e-17
8627.99806 1.64075e-17
8629.99939 1.58529e-17
8632.00071 1.57372e-17
8634.00203 1.68383e-17
8636.00336 1.85899e-17
8638.00468 1.94014e-17
8639.99584 1.98714e-17
8641.99717 1.99125e-17
8643.99849 1.92265e-17
8645.99981 1.86986e-17
8648.00114 1.84674e-17
8650.00246 1.84424e-17
8652.00378 1.88341e-17
8653.99495 1.98034e-17
8655.99627 2.03122e-17
8657.99759 2.06943e-17
8659.99891 2.09055e-17
8662.00024 2.07948e-17
8664.00156 2.06639e-17
8666.00288 2.10300e-17
8668.00421 2.19151e-17
8669.99537 2.17269e-17
8671.99669 2.03946e-17
8673.99802 1.97089e-17
8675.99934 1.95751e-17
8678.00066 1.96810e-17
8680.00198 1.98761e-17
8682.00331 2.02313e-17
8683.99447 2.07778e-17
8685.99579 2.16245e-17
8687.99712 2.23861e-17
8689.99844 2.32153e-17
8691.99976 2.39349e-17
8694.00109 2.44385e-17
8696.00241 2.47965e-17
8698.00373 2.51294e-17
8699.99490 2.54314e-17
8701.99622 2.55761e-17
8703.99754 2.55178e-17
8705.99887 2.54802e-17
8708.00019 2.55448e-17
8710.00151 2.56175e-17
8712.00283 2.55578e-17
8714.00416 2.54147e-17
8715.99532 2.52096e-17
8717.99664 2.47094e-17
8719.99797 2.45731e-17
8721.99929 2.48812e-17
8724.00061 2.54431e-17
8726.00194 2.62074e-17
8728.00326 2.74632e-17
8730.00458 2.74739e-17
8731.99575 2.60483e-17
8733.99707 2.54847e-17
8735.99839 2.58719e-17
8737.99972 2.63412e-17
8740.00104 2.61785e-17
8742.00236 2.56552e-17
8744.00368 2.60658e-17
8746.00501 2.74887e-17
8747.99617 2.82626e-17
8749.99749 2.90068e-17
8751.99882 2.90508e-17
8754.00014 2.74204e-17
8756.00146 2.49183e-17
8758.00279 2.54475e-17
8760.00411 2.96973e-17
8761.99527 3.06375e-17
8763.99660 2.98025e-17
8765.99792 2.84694e-17
8767.99924 2.62325e-17
8770.00057 2.39104e-17
8772.00189 2.44741e-17
8774.00321 2.82887e-17
8776.00454 2.89847e-17
8777.99570 2.77009e-17
8779.99702 2.67948e-17
8781.99834 2.64339e-17
8783.99967 2.61903e-17
8786.00099 2.58091e-17
8788.00231 2.52576e-17
8790.00364 2.54361e-17
8791.99480 2.67118e-17
8793.99612 2.70733e-17
8795.99745 2.63022e-17
8797.99877 2.54656e-17
8800.00009 2.53735e-17
8802.00142 2.56613e-17
8804.00274 2.59049e-17
8806.00406 2.63336e-17
8807.99523 2.66700e-17
8809.99655 2.70523e-17
8811.99787 2.72796e-17
8813.99920 2.70357e-17
8816.00052 2.65808e-17
8818.00184 2.72597e-17
8820.00316 2.98674e-17
8822.00449 3.01130e-17
8823.99565 2.81173e-17
8825.99697 2.68621e-17
8827.99830 2.75356e-17
8829.99962 2.87644e-17
8832.00094 2.82956e-17
8834.00227 2.68069e-17
8836.00359 2.50908e-17
8837.99475 2.16238e-17
8839.99608 2.01234e-17
8841.99740 2.16278e-17
8843.99872 2.39687e-17
8846.00004 2.46093e-17
8848.00137 2.45358e-17
8850.00269 2.42788e-17
8852.00401 2.32985e-17
8853.99518 2.27269e-17
8855.99650 2.22896e-17
8857.99782 2.22940e-17
8859.99915 2.32701e-17
8862.00047 2.50804e-17
8864.00179 2.58280e-17
8866.00312 2.62742e-17
8868.00444 2.60283e-17
8869.99560 2.48109e-17
8871.99693 2.35301e-17
8873.99825 2.24081e-17
8875.99957 2.13828e-17
8878.00089 2.17121e-17
8880.00222 2.41737e-17
8882.00354 2.46460e-17
8884.00486 2.40381e-17
8885.99603 2.30353e-17
8887.99735 2.14405e-17
8889.99867 1.96596e-17
8892.00000 1.92033e-17
8894.00132 1.98987e-17
8896.00264 2.00534e-17
8898.00397 2.01458e-17
8900.00529 2.02881e-17
8901.99645 2.06334e-17
8903.99778 2.08803e-17
8905.99910 2.06182e-17
8908.00042 2.00644e-17
8910.00174 1.89405e-17
8912.00307 1.61767e-17
8914.00439 1.53179e-17
8915.99556 1.69524e-17
8917.99688 1.87854e-17
8919.99820 1.89913e-17
8921.99952 1.83847e-17
8924.00085 1.78495e-17
8926.00217 1.66880e-17
8928.00349 1.61840e-17
8930.00482 1.62253e-17
8931.99598 1.64258e-17
8933.99730 1.67076e-17
8935.99863 1.70891e-17
8937.99995 1.70374e-17
8940.00127 1.69316e-17
8942.00259 1.61383e-17
8944.00392 1.37546e-17
8945.99508 1.27137e-17
8947.99641 1.44083e-17
8949.99773 1.71963e-17
8951.99905 1.80368e-17
8954.00037 1.82352e-17
8956.00170 1.72165e-17
8958.00302 1.37634e-17
8960.00434 1.19061e-17
8961.99551 1.24175e-17
8963.99683 1.36942e-17
8965.99815 1.41288e-17
8967.99948 1.45105e-17
8970.00080 1.41353e-17
8972.00212 1.27399e-17
8974.00345 1.18157e-17
8976.00477 1.12475e-17
8977.99593 1.08985e-17
8979.99726 1.07135e-17
8981.99858 1.06944e-17
8983.99990 1.12096e-17
8986.00122 1.27608e-17
8988.00255 1.33428e-17
8990.00387 1.32693e-17
8991.99503 1.27863e-17
8993.99636 1.16368e-17
8995.99768 1.00705e-17
8997.99900 1.02461e-17
9000.00033 1.22825e-17
9002.00165 1.32018e-17
9004.00297 1.39078e-17
9006.00429 1.41990e-17
9007.99546 1.38271e-17
9009.99678 1.31292e-17
9011.99811 1.29719e-17
9013.99943 1.32935e-17
9016.00075 1.29885e-17
9018.00207 1.20596e-17
9020.00340 1.14730e-17
9021.99456 1.14267e-17
9023.99588 1.15186e-17
9025.99721 1.13016e-17
9027.99853 1.08993e-17
9029.99985 1.06987e-17
9032.00118 1.04119e-17
9034.00250 1.05401e-17
9036.00382 1.13273e-17
9037.99499 1.20943e-17
9039.99631 1.22204e-17
9041.99763 1.19599e-17
9043.99896 1.18875e-17
9046.00028 1.16713e-17
9048.00160 1.17558e-17
9050.00292 1.23740e-17
9052.00425 1.27176e-17
9053.99541 1.21919e-17
9055.99673 1.11943e-17
9057.99806 1.10248e-17
9059.99938 1.16208e-17
9062.00070 1.16419e-17
9064.00203 1.14033e-17
9066.00335 1.10564e-17
9068.00467 1.04471e-17
9069.99584 9.82907e-18
9071.99716 1.00578e-17
9073.99848 1.12243e-17
9075.99981 1.16293e-17
9078.00113 1.19677e-17
9080.00245 1.17280e-17
9082.00377 1.03911e-17
9084.00510 8.96381e-18
9085.99626 9.02499e-18
9087.99758 1.02745e-17
9089.99891 1.05546e-17
9092.00023 1.04788e-17
9094.00155 1.02743e-17
9096.00288 9.81538e-18
9098.00420 9.32595e-18
9099.99536 9.00387e-18
9101.99669 8.74280e-18
9103.99801 8.72401e-18
9105.99933 9.03438e-18
9108.00066 9.20147e-18
9110.00198 9.36034e-18
9112.00330 9.41169e-18
9114.00462 9.20628e-18
9115.99579 8.85302e-18
9117.99711 8.93255e-18
9119.99843 9.18339e-18
9121.99976 9.78954e-18
9124.00108 1.10856e-17
9126.00240 1.20310e-17
9128.00373 1.23110e-17
9129.99489 1.22158e-17
9131.99621 1.19987e-17
9133.99754 1.15139e-17
9135.99886 1.09603e-17
9138.00018 1.00239e-17
9140.00151 9.43511e-18
9142.00283 9.38683e-18
9144.00415 9.50261e-18
9145.99532 9.31435e-18
9147.99664 8.93571e-18
9149.99796 8.84938e-18
9151.99928 9.01623e-18
9154.00061 9.08742e-18
9156.00193 9.18846e-18
9158.00325 9.12538e-18
9160.00458 8.56179e-18
9161.99574 7.55385e-18
9163.99706 7.48474e-18
9165.99839 8.02212e-18
9167.99971 8.74733e-18
9170.00103 1.00985e-17
9172.00236 1.11938e-17
9174.00368 1.14629e-17
9175.99484 1.12561e-17
9177.99617 1.12956e-17
9179.99749 1.13294e-17
9181.99881 1.13426e-17
9184.00013 1.14248e-17
9186.00146 1.13451e-17
9188.00278 1.10029e-17
9190.00410 1.05063e-17
9191.99527 1.00278e-17
9193.99659 9.30602e-18
9195.99791 9.12596e-18
9197.99924 9.55756e-18
9200.00056 9.71300e-18
9202.00188 9.26089e-18
9204.00321 8.83676e-18
9206.00453 9.37030e-18
9207.99569 1.08025e-17
9209.99702 1.12142e-17
9211.99834 1.11033e-17
9213.99966 1.08124e-17
9216.00098 9.98824e-18
9218.00231 9.33493e-18
9220.00363 9.63556e-18
9222.00495 1.06119e-17
9223.99612 1.10980e-17
9225.99744 1.17865e-17
9227.99876 1.17119e-17
9230.00009 1.04132e-17
9232.00141 9.50866e-18
9234.00273 1.00793e-17
9236.00406 1.14555e-17
9238.00538 1.18983e-17
9239.99654 1.18908e-17
9241.99787 1.18785e-17
9243.99919 1.16746e-17
9246.00051 1.14557e-17
9248.00183 1.12599e-17
9250.00316 1.10636e-17
9252.00448 1.09013e-17
9253.99564 1.07136e-17
9255.99697 1.06850e-17
9257.99829 1.07028e-17
9259.99961 1.09299e-17
9262.00094 1.15717e-17
9264.00226 1.22386e-17
9266.00358 1.22765e-17
9268.00491 1.17615e-17
9269.99607 1.18232e-17
9271.99739 1.21637e-17
9273.99871 1.25979e-17
9276.00004 1.34519e-17
9278.00136 1.40449e-17
9280.00268 1.35293e-17
9282.00401 1.21352e-17
9283.99517 1.19700e-17
9285.99649 1.29381e-17
9287.99782 1.30995e-17
9289.99914 1.26910e-17
9292.00046 1.20663e-17
9294.00179 1.12756e-17
9296.00311 1.08034e-17
9298.00443 1.06486e-17
9299.99560 1.06485e-17
9301.99692 1.06484e-17
9303.99824 1.23191e-17
9305.99957 1.47920e-17
9308.00089 1.52956e-17
9310.00221 1.57605e-17
9312.00353 1.59150e-17
9313.99470 1.56055e-17
9315.99602 1.49469e-17
9317.99734 1.23718e-17
9319.99867 1.04919e-17
9321.99999 9.52405e-18
9324.00131 9.52396e-18
9326.00264 1.01822e-17
9328.00396 1.30609e-17
9329.99512 1.32808e-17
9331.99645 1.00826e-17
9333.99777 8.78974e-18
9335.99909 9.55283e-18
9338.00042 1.08108e-17
9340.00174 1.15944e-17
9342.00306 1.24208e-17
9344.00438 1.24790e-17
9345.99555 1.14644e-17
9347.99687 1.12097e-17
9349.99819 1.16268e-17
9351.99952 1.20556e-17
9354.00084 1.20691e-17
9356.00216 1.19284e-17
9358.00349 1.24244e-17
9359.99465 1.38025e-17
9361.99597 1.43149e-17
9363.99730 1.30378e-17
9365.99862 1.37093e-17
9367.99994 1.63757e-17
9370.00127 1.63756e-17
9372.00259 1.59106e-17
9374.00391 1.52909e-17
9375.99508 1.36650e-17
9377.99640 1.09539e-17
9379.99772 1.07992e-17
9381.99904 1.07991e-17
9384.00037 1.27348e-17
9386.00169 1.27347e-17
9388.00301 1.22311e-17
9390.00434 1.21312e-17
9391.99550 1.19951e-17
9393.99682 1.24109e-17
9395.99815 1.32085e-17
9397.99947 1.44646e-17
9400.00079 1.66487e-17
9402.00212 1.83089e-17
9404.00344 1.83087e-17
9406.00476 1.76504e-17
9407.99593 1.70308e-17
9409.99725 1.59078e-17
9411.99857 1.38186e-17
9413.99989 1.33926e-17
9416.00122 1.41956e-17
9418.00254 1.43157e-17
9420.00386 1.49474e-17
9422.00519 1.43619e-17
9423.99635 1.23186e-17
9425.99767 1.06984e-17
9427.99900 1.02427e-17
9430.00032 1.02380e-17
9432.00164 9.56223e-18
9434.00297 7.93955e-18
9436.00429 8.10142e-18
9437.99545 1.02277e-17
9439.99677 1.14384e-17
9441.99810 1.14708e-17
9443.99942 1.07689e-17
9446.00074 9.19421e-18
9448.00207 8.74459e-18
9450.00339 9.05371e-18
9452.00471 9.67294e-18
9453.99588 1.07955e-17
9455.99720 1.16080e-17
9457.99852 1.30388e-17
9459.99985 1.30960e-17
9462.00117 1.17927e-17
9464.00249 1.11051e-17
9466.00382 9.44501e-18
9467.99498 9.76847e-18
9469.99630 1.26716e-17
9471.99762 1.53069e-17
9473.99895 1.62910e-17
9476.00027 1.63666e-17
9478.00159 1.48009e-17
9480.00292 9.85883e-18
9482.00424 8.16448e-18
9483.99540 8.69441e-18
9485.99673 9.48272e-18
9487.99805 1.01845e-17
9489.99937 1.09388e-17
9492.00070 1.08594e-17
9494.00202 9.30156e-18
9496.00334 1.00617e-17
9498.00467 1.32665e-17
9499.99583 1.52744e-17
9501.99715 1.55518e-17
9503.99848 1.50136e-17
9505.99980 1.42625e-17
9508.00112 1.27032e-17
9510.00244 1.22596e-17
9512.00377 1.25102e-17
9513.99493 1.28895e-17
9515.99625 1.39341e-17
9517.99758 1.45866e-17
9519.99890 1.34751e-17
9522.00022 1.09503e-17
9524.00155 1.01977e-17
9526.00287 1.09092e-17
9528.00419 1.07010e-17
9529.99536 9.39099e-18
9531.99668 8.52576e-18
9533.99800 9.17484e-18
9535.99933 1.07125e-17
9538.00065 1.12630e-17
9540.00197 1.12921e-17
9542.00329 1.14447e-17
9543.99446 1.18612e-17
9545.99578 1.17128e-17
9547.99710 1.03688e-17
9549.99843 8.55475e-18
9551.99975 8.16826e-18
9554.00107 9.07099e-18
9556.00240 9.04341e-18
9558.00372 8.99463e-18
9560.00504 8.24376e-18
9561.99621 6.14845e-18
9563.99753 5.62163e-18
9565.99885 6.27194e-18
9568.00018 7.81324e-18
9570.00150 9.21022e-18
9572.00282 1.00916e-17
9574.00414 1.02881e-17
9575.99531 9.28267e-18
9577.99663 8.24137e-18
9579.99795 8.49141e-18
9581.99928 9.61229e-18
9584.00060 9.51937e-18
9586.00192 8.18078e-18
9588.00325 7.89212e-18
9590.00457 8.68283e-18
9591.99573 9.43528e-18
9593.99706 9.72139e-18
9595.99838 9.75536e-18
9597.99970 8.54265e-18
9600.00102 5.00211e-18
9602.00235 5.37354e-18
9604.00367 8.27410e-18
9606.00499 1.11811e-17
9607.99616 1.06680e-17
9609.99748 8.68818e-18
9611.99880 7.96482e-18
9614.00013 7.28544e-18
9616.00145 7.37396e-18
9618.00277 8.51410e-18
9620.00410 9.27534e-18
9621.99526 9.36673e-18
9623.99658 9.27915e-18
9625.99791 9.57457e-18
9627.99923 1.02389e-17
9630.00055 1.01046e-17
9632.00187 9.29800e-18
9634.00320 8.54898e-18
9636.00452 7.14959e-18
9637.99568 6.49681e-18
9639.99701 8.55369e-18
9641.99833 1.29412e-17
9643.99965 1.40801e-17
9646.00098 1.32682e-17
9648.00230 1.22555e-17
9650.00362 1.03543e-17
9651.99479 8.45809e-18
9653.99611 6.94898e-18
9655.99743 5.64033e-18
9657.99876 5.79555e-18
9660.00008 7.61324e-18
9662.00140 8.96697e-18
9664.00273 1.11799e-17
9666.00405 1.22068e-17
9667.99521 1.08326e-17
9669.99654 8.32370e-18
9671.99786 7.55741e-18
9673.99918 7.43645e-18
9676.00050 8.02883e-18
9678.00183 1.02024e-17
9680.00315 1.14302e-17
9682.00447 1.12051e-17
9683.99564 1.03645e-17
9685.99696 9.68361e-18
9687.99828 8.56337e-18
9689.99961 8.51782e-18
9692.00093 9.84438e-18
9694.00225 1.02108e-17
9696.00358 9.00035e-18
9697.99474 8.00920e-18
9699.99606 9.14148e-18
9701.99739 1.18476e-17
9703.99871 1.27832e-17
9706.00003 1.33966e-17
9708.00135 1.26108e-17
9710.00268 9.17131e-18
9712.00400 6.61441e-18
9713.99516 7.62073e-18
9715.99649 1.06836e-17
9717.99781 1.11045e-17
9719.99913 9.93022e-18
9722.00046 9.14434e-18
9724.00178 7.58723e-18
9726.00310 6.97398e-18
9728.00443 8.38656e-18
9729.99559 1.06952e-17
9731.99691 1.11814e-17
9733.99823 1.01888e-17
9735.99956 1.02672e-17
9738.00088 1.10958e-17
9740.00220 1.14047e-17
9742.00353 1.06568e-17
9744.00485 9.77875e-18
9745.99601 1.02025e-17
9747.99734 1.17133e-17
9749.99866 1.23607e-17
9751.99998 1.27908e-17
9754.00131 1.29074e-17
9756.00263 1.25184e-17
9758.00395 1.20582e-17
9760.00527 1.20915e-17
9761.99644 1.25049e-17
9763.99776 1.18322e-17
9765.99908 9.60662e-18
9768.00041 8.83589e-18
9770.00173 9.33869e-18
9772.00305 1.02393e-17
9774.00438 1.12835e-17
9775.99554 1.25944e-17
9777.99686 1.29237e-17
9779.99819 1.17313e-17
9781.99951 1.22459e-17
9784.00083 1.51058e-17
9786.00216 1.64190e-17
9788.00348 1.40566e-17
9790.00480 1.01303e-17
9791.99597 9.32972e-18
9793.99729 1.09169e-17
9795.99861 1.10777e-17
9797.99993 1.00722e-17
9800.00126 1.04171e-17
9802.00258 1.31509e-17
9804.00390 1.65057e-17
9805.99507 1.79814e-17
9807.99639 1.88646e-17
9809.99771 1.77340e-17
9811.99904 1.32109e-17
9814.00036 1.07776e-17
9816.00168 1.06566e-17
9818.00301 1.13603e-17
9820.00433 1.19494e-17
9821.99549 1.29439e-17
9823.99682 1.34065e-17
9825.99814 1.35790e-17
9827.99946 1.36758e-17
9830.00079 1.40081e-17
9832.00211 1.37284e-17
9834.00343 1.17968e-17
9835.99460 8.79858e-18
9837.99592 8.67780e-18
9839.99724 1.17081e-17
9841.99856 1.24355e-17
9843.99989 1.18573e-17
9846.00121 1.10213e-17
9848.00253 9.94440e-18
9850.00386 8.78892e-18
9851.99502 8.96153e-18
9853.99634 1.07403e-17
9855.99767 1.11268e-17
9857.99899 1.02077e-17
9860.00031 1.02894e-17
9862.00164 1.20917e-17
9864.00296 1.44337e-17
9866.00428 1.57874e-17
9867.99544 1.69176e-17
9869.99677 1.70689e-17
9871.99809 1.60451e-17
9873.99941 1.51466e-17
9876.00074 1.42903e-17
9878.00206 1.34235e-17
9880.00338 1.26294e-17
9881.99455 1.18826e-17
9883.99587 1.10624e-17
9885.99719 9.61428e-18
9887.99852 9.41252e-18
9889.99984 1.10445e-17
9892.00116 1.22901e-17
9894.00248 1.16926e-17
9896.00381 1.00317e-17
9897.99497 8.56883e-18
9899.99629 5.90932e-18
9901.99762 5.20282e-18
9903.99894 6.50980e-18
9906.00026 7.56004e-18
9908.00159 7.54561e-18
9910.00291 7.09508e-18
9912.00423 6.73235e-18
9913.99540 6.12783e-18
9915.99672 5.78040e-18
9917.99804 5.57340e-18
9919.99937 5.41322e-18
9922.00069 5.37669e-18
9924.00201 5.32058e-18
9926.00333 4.87186e-18
9928.00466 3.83940e-18
9929.99582 3.98049e-18
9931.99714 5.85675e-18
9933.99847 6.13407e-18
9935.99979 4.00530e-18
9938.00111 1.77530e-18
9940.00244 1.68602e-18
9942.00376 2.87112e-18
9944.00508 3.95405e-18
9945.99625 5.74827e-18
9947.99757 7.13141e-18
9949.99889 5.74818e-18
9952.00022 7.66507e-18
9954.00154 4.58910e-18
9956.00286 4.76459e-18
9958.00418 4.93587e-18
9959.99535 6.39020e-18
9961.99667 4.39277e-18
9963.99799 3.66534e-18
9965.99932 4.39270e-18
9968.00064 7.21304e-18
9970.00196 3.75992e-18
9972.00329 2.14602e-18
9974.00461 1.79735e-18
9975.99577 1.87713e-18
9977.99710 3.02187e-18
9979.99842 4.14277e-18
9981.99974 5.03585e-18
9984.00107 5.99902e-18
9986.00239 7.35013e-18
9988.00371 9.24150e-18
9989.99488 1.02457e-17
9991.99620 1.07117e-17
9993.99752 1.09346e-17
9995.99885 1.02259e-17
9998.00017 1.00087e-17
10000.00149 1.23330e-17
