# wavelength flux
4101.98376 1.13490e-17
4104.72787 1.10905e-17
4107.46197 1.11422e-17
4110.19606 1.08320e-17
4112.94017 1.08501e-17
4115.67427 1.07508e-17
4118.41838 1.05641e-17
4121.15247 1.08568e-17
4123.88657 1.06209e-17
4126.63068 1.07345e-17
4129.36477 1.02496e-17
4132.09886 1.01719e-17
4134.84297 1.03471e-17
4137.57707 1.03387e-17
4140.31117 1.01197e-17
4143.05528 1.02027e-17
4145.78937 1.00125e-17
4148.52347 1.01480e-17
4151.25756 9.91033e-18
4154.00167 9.81661e-18
4156.73577 9.70648e-18
4159.47987 9.95383e-18
4162.21397 9.89384e-18
4164.94807 1.01041e-17
4167.69218 1.00217e-17
4170.42627 1.02699e-17
4173.16036 1.02372e-17
4175.90448 1.04483e-17
4178.63857 1.04966e-17
4181.37266 1.04044e-17
4184.11678 1.06062e-17
4186.85087 1.08042e-17
4189.58497 1.07685e-17
4192.32908 1.08315e-17
4195.06317 1.10229e-17
4197.79727 1.12018e-17
4200.54137 1.10879e-17
4203.27547 1.11939e-17
4206.00957 1.12934e-17
4208.75367 1.13834e-17
4211.48777 1.14327e-17
4214.22187 1.17581e-17
4216.96598 1.18044e-17
4219.70007 1.18075e-17
4222.43416 1.20602e-17
4225.17828 1.21246e-17
4227.91237 1.22935e-17
4230.64647 1.22241e-17
4233.39058 1.23163e-17
4236.12467 1.25476e-17
4238.85877 1.25436e-17
4241.60288 1.25799e-17
4244.33697 1.27825e-17
4247.07107 1.28637e-17
4249.81517 1.27036e-17
4252.54927 1.27286e-17
4255.28337 1.30684e-17
4258.02747 1.28572e-17
4260.76157 1.31664e-17
4263.49566 1.32280e-17
4266.23978 1.32575e-17
4268.97387 1.32100e-17
4271.70797 1.34881e-17
4274.45208 1.33291e-17
4277.18617 1.35059e-17
4279.92027 1.34145e-17
4282.66438 1.33452e-17
4285.39847 1.33867e-17
4288.13256 1.34963e-17
4290.87668 1.35310e-17
4293.61077 1.34528e-17
4296.34487 1.35397e-17
4299.08897 1.33986e-17
4301.82307 1.34031e-17
4304.55717 1.35897e-17
4307.30128 1.35355e-17
4310.03537 1.33553e-17
4312.76947 1.32929e-17
4315.51358 1.32547e-17
4318.24767 1.32397e-17
4320.98177 1.31779e-17
4323.72588 1.31783e-17
4326.45997 1.31637e-17
4329.19407 1.32111e-17
4331.93818 1.28539e-17
4334.67227 1.29864e-17
4337.40636 1.29471e-17
4340.15047 1.29075e-17
4342.88457 1.26818e-17
4345.61866 1.25104e-17
4348.36278 1.24134e-17
4351.09687 1.24154e-17
4353.83097 1.24141e-17
4356.57508 1.23330e-17
4359.30917 1.21800e-17
4362.04327 1.23122e-17
4364.78737 1.22622e-17
4367.52147 1.20778e-17
4370.25557 1.20672e-17
4372.99968 1.20340e-17
4375.73377 1.19885e-17
4378.46787 1.21143e-17
4381.21198 1.17787e-17
4383.94607 1.21115e-17
4386.68016 1.20693e-17
4389.42428 1.21800e-17
4392.15837 1.20462e-17
4394.89247 1.20762e-17
4397.63658 1.22055e-17
4400.37067 1.23878e-17
4403.10477 1.23895e-17
4405.84888 1.23893e-17
4408.58297 1.23793e-17
4411.31707 1.26806e-17
4414.06117 1.28276e-17
4416.79527 1.26881e-17
4419.52937 1.31382e-17
4422.27347 1.33174e-17
4425.00757 1.34721e-17
4427.74166 1.36935e-17
4430.48578 1.37311e-17
4433.21987 1.39926e-17
4435.95397 1.41294e-17
4438.69808 1.40584e-17
4441.43217 1.43159e-17
4444.16627 1.45557e-17
4446.91038 1.47875e-17
4449.64447 1.48291e-17
4452.37856 1.50798e-17
4455.12267 1.51200e-17
4457.85677 1.53583e-17
4460.59087 1.51997e-17
4463.33497 1.56756e-17
4466.06907 1.57137e-17
4468.80317 1.58337e-17
4471.54728 1.61179e-17
4474.28137 1.63568e-17
4477.01547 1.59828e-17
4479.75958 1.65761e-17
4482.49367 1.65409e-17
4485.23778 1.65292e-17
4487.97188 1.65166e-17
4490.70597 1.68439e-17
4493.44007 1.66633e-17
4496.18418 1.71153e-17
4498.91827 1.68830e-17
4501.66238 1.69608e-17
4504.39647 1.71282e-17
4507.13057 1.71948e-17
4509.86467 1.71608e-17
4512.60878 1.73660e-17
4515.34287 1.73605e-17
4518.07697 1.71433e-17
4520.82108 1.73290e-17
4523.55517 1.71118e-17
4526.29928 1.70636e-17
4529.03337 1.69488e-17
4531.76747 1.70892e-17
4534.51158 1.68198e-17
4537.24568 1.66638e-17
4539.97977 1.68115e-17
4542.72388 1.67933e-17
4545.45798 1.65270e-17
4548.19207 1.65208e-17
4550.93618 1.62950e-17
4553.67028 1.61896e-17
4556.40437 1.60178e-17
4559.14848 1.60256e-17
4561.88258 1.57434e-17
4564.61667 1.56652e-17
4567.36078 1.55206e-17
4570.09488 1.52568e-17
4572.82897 1.51993e-17
4575.57308 1.49803e-17
4578.30717 1.46744e-17
4581.04127 1.47278e-17
4583.78538 1.45542e-17
4586.51948 1.43711e-17
4589.25357 1.42685e-17
4591.99768 1.42671e-17
4594.73178 1.38383e-17
4597.46587 1.38913e-17
4600.20998 1.36694e-17
4602.94408 1.35723e-17
4605.67817 1.34610e-17
4608.42228 1.34903e-17
4611.15638 1.30854e-17
4613.89047 1.31993e-17
4616.63458 1.28486e-17
4619.36867 1.28576e-17
4622.10277 1.27490e-17
4624.84688 1.25467e-17
4627.58097 1.26604e-17
4630.31507 1.23709e-17
4633.05918 1.23834e-17
4635.79328 1.21150e-17
4638.52737 1.20722e-17
4641.27148 1.21213e-17
4644.00558 1.18936e-17
4646.73967 1.17558e-17
4649.48378 1.17108e-17
4652.21788 1.16076e-17
4654.95197 1.14349e-17
4657.69608 1.15137e-17
4660.43018 1.12530e-17
4663.16427 1.14996e-17
4665.90838 1.12320e-17
4668.64247 1.15447e-17
4671.37657 1.14958e-17
4674.12068 1.16462e-17
4676.85478 1.14696e-17
4679.58887 1.18968e-17
4682.33298 1.16403e-17
4685.06708 1.19132e-17
4687.80117 1.20320e-17
4690.54528 1.21129e-17
4693.27938 1.21561e-17
4696.01347 1.22792e-17
4698.75758 1.23420e-17
4701.49168 1.24878e-17
4704.22577 1.22756e-17
4706.96988 1.26886e-17
4709.70398 1.27291e-17
4712.43807 1.27210e-17
4715.18218 1.26706e-17
4717.91628 1.27646e-17
4720.65037 1.30658e-17
4723.39448 1.31865e-17
4726.12858 1.32658e-17
4728.86267 1.32332e-17
4731.60678 1.34256e-17
4734.34087 1.35214e-17
4737.07497 1.35509e-17
4739.81908 1.36068e-17
4742.55318 1.38145e-17
4745.28727 1.39048e-17
4748.03138 1.40916e-17
4750.76548 1.41971e-17
4753.49957 1.41691e-17
4756.24368 1.43320e-17
4758.97778 1.46287e-17
4761.71187 1.46133e-17
4764.45598 1.46119e-17
4767.19008 1.46568e-17
4769.92417 1.49600e-17
4772.66828 1.49869e-17
4775.40238 1.49777e-17
4778.13647 1.50894e-17
4780.88058 1.51328e-17
4783.61467 1.50781e-17
4786.34877 1.50054e-17
4789.09288 1.52717e-17
4791.82697 1.52233e-17
4794.56107 1.56355e-17
4797.30518 1.51598e-17
4800.03928 1.52851e-17
4802.77337 1.50617e-17
4805.51748 1.50164e-17
4808.25158 1.52740e-17
4810.98567 1.52704e-17
4813.72978 1.52051e-17
4816.46388 1.54292e-17
4819.19797 1.51499e-17
4821.94208 1.52995e-17
4824.67618 1.50617e-17
4827.41027 1.50630e-17
4830.15438 1.52209e-17
4832.88847 1.52206e-17
4835.62257 1.50003e-17
4838.36668 1.52288e-17
4841.10078 1.52788e-17
4843.83487 1.52625e-17
4846.57898 1.53094e-17
4849.31308 1.55500e-17
4852.04717 1.53470e-17
4854.79128 1.55566e-17
4857.52538 1.52129e-17
4860.25947 1.52893e-17
4863.00358 1.55598e-17
4865.73768 1.53674e-17
4868.47177 1.54332e-17
4871.21588 1.55150e-17
4873.94997 1.56295e-17
4876.68407 1.55157e-17
4879.42818 1.53290e-17
4882.16228 1.54347e-17
4884.89637 1.56802e-17
4887.64048 1.55826e-17
4890.37458 1.55242e-17
4893.11869 1.55949e-17
4895.85278 1.56152e-17
4898.58687 1.56409e-17
4901.33099 1.55549e-17
4904.06508 1.57047e-17
4906.79918 1.56218e-17
4909.54328 1.56597e-17
4912.27738 1.56667e-17
4915.01148 1.55197e-17
4917.75559 1.53819e-17
4920.48968 1.53406e-17
4923.22378 1.52461e-17
4925.96789 1.51433e-17
4928.70198 1.50330e-17
4931.43608 1.49456e-17
4934.18019 1.49433e-17
4936.91428 1.50297e-17
4939.64838 1.45159e-17
4942.39249 1.44931e-17
4945.12658 1.45605e-17
4947.86067 1.42252e-17
4950.60478 1.41778e-17
4953.33888 1.39964e-17
4956.07298 1.38403e-17
4958.81709 1.38463e-17
4961.55118 1.37165e-17
4964.28528 1.37012e-17
4967.02939 1.35431e-17
4969.76348 1.34767e-17
4972.49758 1.35261e-17
4975.24168 1.34599e-17
4977.97578 1.32672e-17
4980.70988 1.33376e-17
4983.45399 1.31799e-17
4986.18808 1.33698e-17
4988.92217 1.32874e-17
4991.66629 1.31588e-17
4994.40038 1.31716e-17
4997.13447 1.30281e-17
4999.87859 1.31144e-17
5002.61268 1.30427e-17
5005.34678 1.29642e-17
5008.09089 1.30490e-17
5010.82498 1.31878e-17
5013.55908 1.30421e-17
5016.30319 1.29238e-17
5019.03728 1.30392e-17
5021.77138 1.30698e-17
5024.51548 1.28179e-17
5027.24958 1.28989e-17
5029.98368 1.30771e-17
5032.72779 1.30678e-17
5035.46188 1.30756e-17
5038.19597 1.30959e-17
5040.94009 1.31695e-17
5043.67418 1.32864e-17
5046.40828 1.33302e-17
5049.15239 1.32697e-17
5051.88648 1.33987e-17
5054.62058 1.34199e-17
5057.36469 1.35427e-17
5060.09878 1.33910e-17
5062.83288 1.35437e-17
5065.57698 1.32941e-17
5068.31108 1.33302e-17
5071.04518 1.35155e-17
5073.78928 1.35311e-17
5076.52338 1.33569e-17
5079.25748 1.34533e-17
5082.00159 1.34250e-17
5084.73568 1.34132e-17
5087.46978 1.36513e-17
5090.21389 1.33811e-17
5092.94798 1.35349e-17
5095.68208 1.36846e-17
5098.42619 1.35610e-17
5101.16028 1.34395e-17
5103.89437 1.37379e-17
5106.63849 1.36428e-17
5109.37258 1.33210e-17
5112.10667 1.36831e-17
5114.85078 1.35443e-17
5117.58488 1.35317e-17
5120.31898 1.37072e-17
5123.06309 1.35297e-17
5125.79718 1.36126e-17
5128.53128 1.36798e-17
5131.27539 1.39333e-17
5134.00948 1.38933e-17
5136.74358 1.39914e-17
5139.48769 1.37257e-17
5142.22178 1.39606e-17
5144.95588 1.39514e-17
5147.69999 1.41226e-17
5150.43408 1.41876e-17
5153.16817 1.41250e-17
5155.91229 1.41224e-17
5158.64638 1.39934e-17
5161.38047 1.42115e-17
5164.12459 1.44209e-17
5166.85868 1.40738e-17
5169.59278 1.42540e-17
5172.33689 1.45033e-17
5175.07098 1.43332e-17
5177.80508 1.43286e-17
5180.54918 1.43406e-17
5183.28328 1.45867e-17
5186.01738 1.43075e-17
5188.76148 1.46078e-17
5191.49558 1.45840e-17
5194.22968 1.46639e-17
5196.97379 1.47076e-17
5199.70788 1.48363e-17
5202.44197 1.46832e-17
5205.18609 1.47830e-17
5207.92018 1.47122e-17
5210.65428 1.47600e-17
5213.39839 1.48561e-17
5216.13248 1.48079e-17
5218.86658 1.47165e-17
5221.61069 1.46571e-17
5224.34478 1.50619e-17
5227.07888 1.50017e-17
5229.82298 1.48275e-17
5232.55708 1.49252e-17
5235.29118 1.47090e-17
5238.03528 1.48463e-17
5240.76938 1.48804e-17
5243.50347 1.47728e-17
5246.24759 1.49413e-17
5248.98168 1.47879e-17
5251.71578 1.47604e-17
5254.45989 1.48386e-17
5257.19398 1.48172e-17
5259.93809 1.46344e-17
5262.67219 1.44916e-17
5265.40628 1.45389e-17
5268.14037 1.45860e-17
5270.88449 1.43742e-17
5273.61858 1.45358e-17
5276.36269 1.45936e-17
5279.09678 1.47053e-17
5281.83088 1.45320e-17
5284.57499 1.45225e-17
5287.30909 1.44996e-17
5290.04318 1.44963e-17
5292.78729 1.43621e-17
5295.52139 1.42176e-17
5298.25548 1.42176e-17
5300.99959 1.41479e-17
5303.73369 1.41688e-17
5306.46778 1.40486e-17
5309.20188 1.41874e-17
5311.94599 1.39328e-17
5314.68008 1.37588e-17
5317.42419 1.39196e-17
5320.15828 1.39575e-17
5322.89238 1.39144e-17
5325.63649 1.39083e-17
5328.37059 1.37182e-17
5331.10468 1.36559e-17
5333.84879 1.37139e-17
5336.58289 1.37272e-17
5339.31698 1.36863e-17
5342.06109 1.37559e-17
5344.79518 1.36966e-17
5347.52928 1.38373e-17
5350.27339 1.37219e-17
5353.00749 1.33885e-17
5355.74158 1.37283e-17
5358.48569 1.36619e-17
5361.21979 1.35393e-17
5363.95388 1.36416e-17
5366.69799 1.36584e-17
5369.43209 1.34983e-17
5372.16618 1.32618e-17
5374.91029 1.34827e-17
5377.64439 1.35406e-17
5380.37848 1.34615e-17
5383.12259 1.32961e-17
5385.85669 1.34100e-17
5388.59078 1.33917e-17
5391.33489 1.32603e-17
5394.06898 1.33192e-17
5396.80308 1.32772e-17
5399.54719 1.30997e-17
5402.28129 1.31029e-17
5405.01538 1.32578e-17
5407.75949 1.33531e-17
5410.49359 1.29884e-17
5413.22768 1.29386e-17
5415.97179 1.29879e-17
5418.70589 1.28889e-17
5421.43998 1.26886e-17
5424.18409 1.27465e-17
5426.91819 1.27242e-17
5429.65228 1.27660e-17
5432.39639 1.26916e-17
5435.13048 1.25803e-17
5437.86458 1.25024e-17
5440.60869 1.25488e-17
5443.34278 1.23495e-17
5446.07688 1.25366e-17
5448.82099 1.23416e-17
5451.55509 1.21344e-17
5454.28918 1.22073e-17
5457.03329 1.22707e-17
5459.76739 1.19238e-17
5462.50148 1.19495e-17
5465.24559 1.19610e-17
5467.97969 1.17919e-17
5470.71378 1.17479e-17
5473.45789 1.17237e-17
5476.19199 1.17270e-17
5478.92608 1.14500e-17
5481.67019 1.14918e-17
5484.40428 1.14293e-17
5487.13838 1.13917e-17
5489.88249 1.12158e-17
5492.61659 1.14255e-17
5495.35068 1.13726e-17
5498.09479 1.11470e-17
5500.82889 1.12468e-17
5503.56298 1.13051e-17
5506.30709 1.10591e-17
5509.04119 1.10853e-17
5511.77528 1.10843e-17
5514.51939 1.10237e-17
5517.25349 1.09177e-17
5519.98758 1.10236e-17
5522.73169 1.08686e-17
5525.46579 1.10897e-17
5528.19988 1.09053e-17
5530.94399 1.09386e-17
5533.67809 1.09313e-17
5536.41218 1.09924e-17
5539.15629 1.10627e-17
5541.89039 1.09192e-17
5544.62448 1.10802e-17
5547.36859 1.11591e-17
5550.10268 1.09654e-17
5552.83678 1.10491e-17
5555.58089 1.08967e-17
5558.31498 1.10949e-17
5561.04908 1.10601e-17
5563.79319 1.07909e-17
5566.52729 1.09890e-17
5569.26138 1.07920e-17
5572.00549 1.08533e-17
5574.73959 1.06804e-17
5577.47368 1.09312e-17
5580.21779 1.06691e-17
5582.95189 1.07214e-17
5585.68598 1.06978e-17
5588.43009 1.07160e-17
5591.16419 1.07164e-17
5593.89828 1.05305e-17
5596.64239 1.04808e-17
5599.37648 1.06346e-17
5602.11058 1.06364e-17
5604.85469 1.04969e-17
5607.58878 1.05345e-17
5610.32288 1.04715e-17
5613.06699 1.04347e-17
5615.80109 1.03630e-17
5618.53518 1.04106e-17
5621.27929 1.03629e-17
5624.01339 1.02662e-17
5626.74748 1.05056e-17
5629.49159 1.04715e-17
5632.22569 1.03294e-17
5634.95978 1.03368e-17
5637.70389 1.03099e-17
5640.43799 1.03030e-17
5643.18210 1.03836e-17
5645.91619 1.03145e-17
5648.65028 1.04594e-17
5651.38438 1.03696e-17
5654.12849 1.04564e-17
5656.86259 1.04080e-17
5659.59668 1.04890e-17
5662.34079 1.05537e-17
5665.07489 1.05590e-17
5667.80898 1.06427e-17
5670.55309 1.06057e-17
5673.28719 1.06383e-17
5676.02128 1.06674e-17
5678.76539 1.06778e-17
5681.49949 1.05749e-17
5684.24359 1.07864e-17
5686.97769 1.09107e-17
5689.71178 1.07536e-17
5692.45590 1.07515e-17
5695.18999 1.08181e-17
5697.92409 1.09830e-17
5700.66820 1.08487e-17
5703.40229 1.08250e-17
5706.13639 1.09246e-17
5708.88050 1.09832e-17
5711.61459 1.08615e-17
5714.34868 1.10033e-17
5717.09280 1.08617e-17
5719.82689 1.08980e-17
5722.56099 1.10151e-17
5725.30509 1.08802e-17
5728.03919 1.11464e-17
5730.77329 1.11177e-17
5733.51740 1.10864e-17
5736.25149 1.11690e-17
5738.98559 1.11972e-17
5741.72969 1.11833e-17
5744.46379 1.11334e-17
5747.19789 1.11073e-17
5749.94200 1.13487e-17
5752.67609 1.14086e-17
5755.41019 1.13337e-17
5758.15430 1.13571e-17
5760.88839 1.14563e-17
5763.62248 1.13278e-17
5766.36659 1.13623e-17
5769.10069 1.14139e-17
5771.83479 1.13998e-17
5774.57890 1.14036e-17
5777.31299 1.14313e-17
5780.04709 1.14275e-17
5782.79120 1.13662e-17
5785.52529 1.14811e-17
5788.25939 1.13872e-17
5791.00349 1.13692e-17
5793.73759 1.14655e-17
5796.47169 1.15814e-17
5799.21580 1.14924e-17
5801.94989 1.13818e-17
5804.68398 1.16288e-17
5807.42810 1.17082e-17
5810.16219 1.16684e-17
5812.89628 1.16251e-17
5815.64040 1.14957e-17
5818.37449 1.17310e-17
5821.10859 1.17989e-17
5823.85270 1.15662e-17
5826.58679 1.16178e-17
5829.32089 1.15792e-17
5832.06500 1.16401e-17
5834.79909 1.16604e-17
5837.53319 1.16966e-17
5840.27729 1.17762e-17
5843.01139 1.16587e-17
5845.74549 1.16634e-17
5848.48960 1.17559e-17
5851.22369 1.16811e-17
5853.95778 1.16353e-17
5856.70190 1.16045e-17
5859.43599 1.17200e-17
5862.17009 1.15979e-17
5864.91420 1.15408e-17
5867.64829 1.16296e-17
5870.38239 1.17225e-17
5873.12650 1.16532e-17
5875.86059 1.14838e-17
5878.59469 1.15799e-17
5881.33879 1.15218e-17
5884.07289 1.15631e-17
5886.80699 1.13898e-17
5889.55109 1.13672e-17
5892.28519 1.12205e-17
5895.01929 1.12907e-17
5897.76340 1.13740e-17
5900.49749 1.14079e-17
5903.23159 1.08170e-17
5905.97570 1.08392e-17
5908.70979 1.10439e-17
5911.44389 1.11902e-17
5914.18800 1.13282e-17
5916.92209 1.11196e-17
5919.65619 1.11759e-17
5922.40030 1.11626e-17
5925.13439 1.11914e-17
5927.86848 1.11261e-17
5930.61259 1.12825e-17
5933.34669 1.12159e-17
5936.08079 1.10870e-17
5938.82490 1.11528e-17
5941.55899 1.10733e-17
5944.29309 1.09769e-17
5947.03720 1.10742e-17
5949.77129 1.13723e-17
5952.50539 1.09788e-17
5955.24950 1.08586e-17
5957.98359 1.12814e-17
5960.71769 1.11126e-17
5963.46180 1.08986e-17
5966.19589 1.11447e-17
5968.92998 1.09576e-17
5971.67410 1.09427e-17
5974.40819 1.08861e-17
5977.14228 1.11285e-17
5979.88640 1.09844e-17
5982.62049 1.09052e-17
5985.35459 1.07694e-17
5988.09870 1.08525e-17
5990.83279 1.08784e-17
5993.56689 1.08568e-17
5996.31099 1.09762e-17
5999.04509 1.07822e-17
6001.77919 1.07411e-17
6004.52329 1.07047e-17
6007.25739 1.07946e-17
6009.99149 1.07625e-17
6012.73560 1.07374e-17
6015.46969 1.07462e-17
6018.20378 1.05812e-17
6020.94790 1.08062e-17
6023.68199 1.07981e-17
6026.41609 1.07554e-17
6029.16020 1.06786e-17
6031.89429 1.06506e-17
6034.62839 1.05866e-17
6037.37250 1.05632e-17
6040.10659 1.05806e-17
6042.84069 1.06028e-17
6045.58479 1.06532e-17
6048.31889 1.06343e-17
6051.06300 1.05925e-17
6053.79709 1.04823e-17
6056.53119 1.04845e-17
6059.27530 1.04175e-17
6062.00940 1.04828e-17
6064.74349 1.05045e-17
6067.48760 1.03181e-17
6070.22170 1.05293e-17
6072.95579 1.06139e-17
6075.69990 1.02971e-17
6078.43400 1.03833e-17
6081.16809 1.02750e-17
6083.91220 1.03218e-17
6086.64630 1.03484e-17
6089.38039 1.03425e-17
6092.12450 1.00892e-17
6094.85859 1.01419e-17
6097.59269 1.01202e-17
6100.33680 9.99746e-18
6103.07090 9.89387e-18
6105.80499 9.84157e-18
6108.54910 9.69359e-18
6111.28320 9.85665e-18
6114.01729 9.71469e-18
6116.76140 9.64789e-18
6119.49550 9.45438e-18
6122.22959 9.52537e-18
6124.97370 9.37917e-18
6127.70780 9.40584e-18
6130.44189 9.33676e-18
6133.18600 9.36431e-18
6135.92009 9.16105e-18
6138.65419 9.09115e-18
6141.39830 9.03862e-18
6144.13240 9.14406e-18
6146.86649 9.17929e-18
6149.61060 8.97416e-18
6152.34470 8.85622e-18
6155.07879 8.87301e-18
6157.82290 8.84876e-18
6160.55699 8.68270e-18
6163.29109 8.59609e-18
6166.03520 8.60347e-18
6168.76930 8.43596e-18
6171.50339 8.38664e-18
6174.24750 8.45473e-18
6176.98160 8.32658e-18
6179.71569 8.19041e-18
6182.45980 8.28251e-18
6185.19390 8.15368e-18
6187.92799 8.01477e-18
6190.67210 8.11074e-18
6193.40620 8.04215e-18
6196.14029 8.05705e-18
6198.88440 7.93504e-18
6201.61850 8.01315e-18
6204.35259 8.08497e-18
6207.09670 8.02242e-18
6209.83079 7.98143e-18
6212.56489 8.06145e-18
6215.30900 8.12089e-18
6218.04309 7.99521e-18
6220.77719 8.04188e-18
6223.52130 8.07908e-18
6226.25540 8.10376e-18
6228.98949 8.16397e-18
6231.73360 8.33787e-18
6234.46770 8.29057e-18
6237.20179 8.19199e-18
6239.94590 8.30372e-18
6242.68000 8.18691e-18
6245.41409 8.32269e-18
6248.15820 8.26655e-18
6250.89229 8.28766e-18
6253.62639 8.41873e-18
6256.37050 8.44504e-18
6259.10459 8.56469e-18
6261.83869 8.45257e-18
6264.58280 8.50367e-18
6267.31690 8.58911e-18
6270.05099 8.54874e-18
6272.79510 8.81584e-18
6275.52920 8.83923e-18
6278.26329 8.67729e-18
6281.00740 8.95123e-18
6283.74150 9.19294e-18
6286.47559 9.17496e-18
6289.21970 8.94262e-18
6291.95380 9.15270e-18
6294.68789 9.45237e-18
6297.43200 9.54616e-18
6300.16609 9.62375e-18
6302.90019 9.58710e-18
6305.64430 9.93263e-18
6308.37840 9.93171e-18
6311.11249 1.01415e-17
6313.85660 1.02478e-17
6316.59070 1.04356e-17
6319.32479 1.07258e-17
6322.06890 1.08165e-17
6324.80300 1.08520e-17
6327.53709 1.10818e-17
6330.28120 1.10854e-17
6333.01530 1.11635e-17
6335.74939 1.14061e-17
6338.49350 1.15771e-17
6341.22760 1.15380e-17
6343.96169 1.17260e-17
6346.70580 1.20988e-17
6349.43990 1.20338e-17
6352.17399 1.22230e-17
6354.91810 1.24358e-17
6357.65220 1.24478e-17
6360.38629 1.27367e-17
6363.13040 1.27260e-17
6365.86450 1.29410e-17
6368.59859 1.32655e-17
6371.34270 1.31536e-17
6374.07679 1.34840e-17
6376.81089 1.36660e-17
6379.55500 1.37595e-17
6382.28910 1.39454e-17
6385.02319 1.42164e-17
6387.76730 1.42350e-17
6390.50140 1.44704e-17
6393.23549 1.45709e-17
6395.97960 1.45079e-17
6398.71370 1.47539e-17
6401.44779 1.47426e-17
6404.19190 1.48038e-17
6406.92600 1.50486e-17
6409.66009 1.51303e-17
6412.40420 1.50770e-17
6415.13829 1.51922e-17
6417.88241 1.52885e-17
6420.61650 1.55721e-17
6423.35059 1.56813e-17
6426.08469 1.57522e-17
6428.82880 1.57887e-17
6431.56290 1.58664e-17
6434.30701 1.58926e-17
6437.04110 1.61079e-17
6439.77520 1.60267e-17
6442.51930 1.59623e-17
6445.25340 1.60270e-17
6447.98750 1.60716e-17
6450.73160 1.60768e-17
6453.46570 1.60867e-17
6456.19980 1.62699e-17
6458.94391 1.62753e-17
6461.67800 1.61640e-17
6464.41209 1.62399e-17
6467.15621 1.62346e-17
6469.89030 1.60441e-17
6472.62440 1.58421e-17
6475.36851 1.58662e-17
6478.10260 1.59758e-17
6480.83670 1.60199e-17
6483.58081 1.59836e-17
6486.31490 1.59925e-17
6489.04900 1.60350e-17
6491.79310 1.60285e-17
6494.52720 1.60079e-17
6497.26130 1.59234e-17
6500.00541 1.60873e-17
6502.73950 1.61756e-17
6505.47359 1.59635e-17
6508.21771 1.61064e-17
6510.95180 1.60384e-17
6513.68590 1.60047e-17
6516.43001 1.58224e-17
6519.16410 1.57264e-17
6521.89820 1.55518e-17
6524.64231 1.54919e-17
6527.37640 1.56381e-17
6530.11049 1.55699e-17
6532.85461 1.56508e-17
6535.58870 1.54818e-17
6538.32280 1.54603e-17
6541.06691 1.53726e-17
6543.80100 1.54101e-17
6546.53510 1.54417e-17
6549.27921 1.52625e-17
6552.01330 1.51777e-17
6554.74740 1.51296e-17
6557.49151 1.49618e-17
6560.22560 1.49887e-17
6562.95970 1.50510e-17
6565.70381 1.49894e-17
6568.43790 1.51114e-17
6571.17200 1.51009e-17
6573.91611 1.48836e-17
6576.65020 1.48718e-17
6579.38429 1.47613e-17
6582.12841 1.46271e-17
6584.86250 1.44715e-17
6587.59659 1.44317e-17
6590.34071 1.45509e-17
6593.07480 1.43257e-17
6595.80890 1.42852e-17
6598.55301 1.43559e-17
6601.28710 1.43303e-17
6604.02120 1.42333e-17
6606.76530 1.40696e-17
6609.49940 1.41297e-17
6612.23350 1.41458e-17
6614.97761 1.38677e-17
6617.71170 1.37637e-17
6620.44580 1.38118e-17
6623.18991 1.39070e-17
6625.92400 1.36893e-17
6628.65809 1.37633e-17
6631.40221 1.36302e-17
6634.13630 1.36026e-17
6636.87040 1.35936e-17
6639.61451 1.33481e-17
6642.34860 1.33530e-17
6645.08270 1.33926e-17
6647.82681 1.33584e-17
6650.56090 1.32662e-17
6653.29500 1.30239e-17
6656.03910 1.29973e-17
6658.77320 1.29493e-17
6661.50730 1.28110e-17
6664.25141 1.29133e-17
6666.98550 1.28155e-17
6669.71959 1.28840e-17
6672.46371 1.28225e-17
6675.19780 1.27751e-17
6677.93190 1.27345e-17
6680.67601 1.27162e-17
6683.41010 1.26420e-17
6686.14420 1.24636e-17
6688.88831 1.26097e-17
6691.62240 1.25048e-17
6694.35649 1.22741e-17
6697.10061 1.23589e-17
6699.83470 1.22545e-17
6702.56880 1.21647e-17
6705.31291 1.21142e-17
6708.04700 1.21487e-17
6710.78110 1.19417e-17
6713.52521 1.21608e-17
6716.25930 1.18343e-17
6718.99340 1.18810e-17
6721.73751 1.19129e-17
6724.47160 1.18584e-17
6727.20570 1.16827e-17
6729.94981 1.15087e-17
6732.68390 1.16028e-17
6735.41800 1.15790e-17
6738.16211 1.15538e-17
6740.89620 1.14596e-17
6743.63029 1.12333e-17
6746.37441 1.15479e-17
6749.10850 1.11321e-17
6751.84260 1.12211e-17
6754.58671 1.12432e-17
6757.32080 1.10954e-17
6760.05490 1.10573e-17
6762.79901 1.10961e-17
6765.53310 1.10410e-17
6768.26720 1.09745e-17
6771.01130 1.09953e-17
6773.74540 1.09594e-17
6776.47950 1.08983e-17
6779.22361 1.08243e-17
6781.95770 1.08632e-17
6784.69179 1.08471e-17
6787.43591 1.07994e-17
6790.17000 1.08187e-17
6792.90409 1.07043e-17
6795.64821 1.06837e-17
6798.38230 1.05304e-17
6801.11640 1.05883e-17
6803.86051 1.04937e-17
6806.59460 1.04753e-17
6809.32870 1.04832e-17
6812.07281 1.05281e-17
6814.80690 1.04971e-17
6817.54100 1.04089e-17
6820.28510 1.03203e-17
6823.01920 1.03223e-17
6825.76331 1.01027e-17
6828.49741 1.01525e-17
6831.23150 1.01586e-17
6833.96559 1.01082e-17
6836.70971 1.00848e-17
6839.44380 1.00497e-17
6842.18791 1.00610e-17
6844.92201 9.94098e-18
6847.65610 9.91846e-18
6850.40021 9.89028e-18
6853.13431 9.78705e-18
6855.86840 9.78462e-18
6858.61251 9.88357e-18
6861.34660 9.60619e-18
6864.08070 9.63245e-18
6866.82481 9.84036e-18
6869.55891 9.85323e-18
6872.29300 1.00318e-17
6875.03711 9.61955e-18
6877.77121 9.26761e-18
6880.50530 9.02720e-18
6883.24941 9.20793e-18
6885.98351 9.37897e-18
6888.71760 9.35324e-18
6891.46171 9.39473e-18
6894.19581 9.42359e-18
6896.92990 9.41936e-18
6899.67401 9.10265e-18
6902.40811 9.29944e-18
6905.14220 9.04351e-18
6907.88631 9.21494e-18
6910.62041 9.21661e-18
6913.35450 8.98246e-18
6916.09861 8.93484e-18
6918.83271 9.04762e-18
6921.56680 8.89812e-18
6924.31091 9.06747e-18
6927.04501 8.89414e-18
6929.77910 8.97625e-18
6932.52321 8.93386e-18
6935.25731 9.07600e-18
6937.99140 8.97743e-18
6940.73551 9.06020e-18
6943.46961 9.02172e-18
6946.20370 8.99887e-18
6948.94781 8.82752e-18
6951.68191 8.57006e-18
6954.41600 8.82787e-18
6957.16011 8.56372e-18
6959.89421 8.53858e-18
6962.62830 8.59963e-18
6965.37241 8.71157e-18
6968.10651 8.56923e-18
6970.84060 8.61971e-18
6973.58471 8.79660e-18
6976.31880 8.59341e-18
6979.05290 8.65367e-18
6981.79701 8.79940e-18
6984.53111 8.52642e-18
6987.26520 8.37728e-18
6990.00931 8.47018e-18
6992.74341 8.43276e-18
6995.47750 8.55169e-18
6998.22161 8.35809e-18
7000.95571 8.44453e-18
7003.68980 8.42871e-18
7006.43391 8.36278e-18
7009.16801 8.34793e-18
7011.90210 8.33373e-18
7014.64621 8.32536e-18
7017.38031 8.35598e-18
7020.11440 8.38539e-18
7022.85851 8.33926e-18
7025.59260 8.26927e-18
7028.32670 8.26451e-18
7031.07081 8.15527e-18
7033.80491 8.18706e-18
7036.53900 8.29719e-18
7039.28311 8.17748e-18
7042.01721 8.10971e-18
7044.75130 8.21048e-18
7047.49541 8.25237e-18
7050.22951 8.13493e-18
7052.96360 8.22188e-18
7055.70771 8.16037e-18
7058.44181 8.08383e-18
7061.17590 8.05697e-18
7063.92001 8.12897e-18
7066.65411 8.14826e-18
7069.38820 8.02933e-18
7072.13231 8.07954e-18
7074.86641 7.98425e-18
7077.60050 8.26352e-18
7080.34461 8.03562e-18
7083.07871 7.89349e-18
7085.81280 8.06646e-18
7088.55691 8.02676e-18
7091.29101 8.06428e-18
7094.02510 8.01695e-18
7096.76921 7.99294e-18
7099.50331 7.90601e-18
7102.23740 7.82755e-18
7104.98151 7.94572e-18
7107.71561 8.12265e-18
7110.44970 8.13304e-18
7113.19381 8.01290e-18
7115.92791 7.88176e-18
7118.66200 7.88691e-18
7121.40611 8.01466e-18
7124.14021 7.97011e-18
7126.87430 7.94782e-18
7129.61841 7.81818e-18
7132.35251 7.79923e-18
7135.08660 7.85451e-18
7137.83071 7.98902e-18
7140.56480 7.76285e-18
7143.29890 7.84783e-18
7146.04301 7.85558e-18
7148.77711 7.87481e-18
7151.51120 7.77526e-18
7154.25531 7.85495e-18
7156.98941 7.68545e-18
7159.72350 7.75297e-18
7162.46761 7.78431e-18
7165.20171 7.63329e-18
7167.93580 7.54424e-18
7170.67991 7.92800e-18
7173.41401 7.71558e-18
7176.14810 7.64525e-18
7178.89221 7.81722e-18
7181.62631 7.70887e-18
7184.36040 7.62547e-18
7187.10451 7.69029e-18
7189.83860 7.62343e-18
7192.57270 7.47121e-18
7195.31681 7.57448e-18
7198.05091 7.72400e-18
7200.78500 7.64040e-18
7203.52911 7.36702e-18
7206.26321 7.49746e-18
7209.00732 7.61057e-18
7211.74141 7.42314e-18
7214.47551 7.45429e-18
7217.21961 7.32429e-18
7219.95371 7.34103e-18
7222.68781 7.43143e-18
7225.43192 7.29498e-18
7228.16601 7.23560e-18
7230.90010 7.37688e-18
7233.64422 7.51940e-18
7236.37831 7.64941e-18
7239.11241 7.50708e-18
7241.85652 7.46343e-18
7244.59061 7.49814e-18
7247.32471 7.49370e-18
7250.06882 7.42829e-18
7252.80291 7.30683e-18
7255.53701 7.32551e-18
7258.28112 7.40486e-18
7261.01521 7.35567e-18
7263.74931 7.30906e-18
7266.49341 7.38735e-18
7269.22751 7.40562e-18
7271.96161 7.30079e-18
7274.70572 7.40204e-18
7277.43981 7.36155e-18
7280.17391 7.42733e-18
7282.91802 7.24987e-18
7285.65211 7.00101e-18
7288.38621 7.25003e-18
7291.13032 7.46189e-18
7293.86441 7.36704e-18
7296.59851 7.22094e-18
7299.34262 7.18509e-18
7302.07671 7.26767e-18
7304.81081 7.21465e-18
7307.55491 7.35435e-18
7310.28901 7.20721e-18
7313.02311 7.23748e-18
7315.76722 7.22630e-18
7318.50131 7.25398e-18
7321.23541 7.32803e-18
7323.97952 7.27344e-18
7326.71361 7.08412e-18
7329.44771 7.11828e-18
7332.19182 7.11736e-18
7334.92591 7.03461e-18
7337.66001 7.08364e-18
7340.40412 6.98967e-18
7343.13821 7.12960e-18
7345.87230 7.08078e-18
7348.61642 7.05616e-18
7351.35051 6.97731e-18
7354.08461 7.08059e-18
7356.82872 7.21224e-18
7359.56281 6.95555e-18
7362.29691 6.97372e-18
7365.04102 7.04138e-18
7367.77511 6.91216e-18
7370.50921 7.00176e-18
7373.25332 6.89575e-18
7375.98741 6.85678e-18
7378.72151 7.00005e-18
7381.46562 6.99046e-18
7384.19971 6.87322e-18
7386.93381 6.78247e-18
7389.67792 6.79960e-18
7392.41201 6.91472e-18
7395.14610 6.86154e-18
7397.89022 6.75596e-18
7400.62431 6.77818e-18
7403.35841 6.76489e-18
7406.10252 6.89233e-18
7408.83661 6.80894e-18
7411.57071 6.72270e-18
7414.31482 6.85550e-18
7417.04891 6.80738e-18
7419.78301 6.69445e-18
7422.52711 6.76807e-18
7425.26121 6.77267e-18
7427.99531 6.76192e-18
7430.73942 6.59574e-18
7433.47351 6.60347e-18
7436.20761 6.70889e-18
7438.95172 6.73843e-18
7441.68581 6.78835e-18
7444.41991 6.70426e-18
7447.16402 6.71981e-18
7449.89811 6.57363e-18
7452.63221 6.55956e-18
7455.37632 6.68675e-18
7458.11041 6.61045e-18
7460.84451 6.58853e-18
7463.58862 6.56575e-18
7466.32271 6.64897e-18
7469.05681 6.60044e-18
7471.80091 6.65130e-18
7474.53501 6.61103e-18
7477.26911 6.53606e-18
7480.01322 6.65745e-18
7482.74731 6.59354e-18
7485.48141 6.63741e-18
7488.22552 6.53107e-18
7490.95961 6.64977e-18
7493.69371 6.49509e-18
7496.43782 6.45282e-18
7499.17191 6.61264e-18
7501.90601 6.66156e-18
7504.65012 6.59242e-18
7507.38421 6.54333e-18
7510.11830 6.54767e-18
7512.86242 6.44575e-18
7515.59651 6.51402e-18
7518.33061 6.62698e-18
7521.07472 6.62604e-18
7523.80881 6.65812e-18
7526.54291 6.55551e-18
7529.28702 6.46780e-18
7532.02111 6.51542e-18
7534.75521 6.53614e-18
7537.49932 6.59863e-18
7540.23341 6.54403e-18
7542.96751 6.43735e-18
7545.71162 6.58371e-18
7548.44571 6.46193e-18
7551.17981 6.45604e-18
7553.92392 6.46070e-18
7556.65801 6.50910e-18
7559.39210 6.54372e-18
7562.13622 6.55273e-18
7564.87031 6.48746e-18
7567.60441 6.45206e-18
7570.34852 6.48290e-18
7573.08261 6.57575e-18
7575.82672 6.75593e-18
7578.56082 6.52255e-18
7581.29491 6.49809e-18
7584.03902 6.49346e-18
7586.77311 6.45392e-18
7589.50721 6.51054e-18
7592.25132 6.53350e-18
7594.98542 6.53056e-18
7597.71951 6.52763e-18
7600.46362 6.52470e-18
7603.19772 6.52179e-18
7605.93181 6.51886e-18
7608.67592 6.51593e-18
7611.41002 6.51300e-18
7614.14411 6.51007e-18
7616.88822 6.50717e-18
7619.62232 6.50424e-18
7622.35641 6.50131e-18
7625.10052 6.49837e-18
7627.83462 6.49547e-18
7630.56871 6.49254e-18
7633.31282 6.48961e-18
7636.04691 6.48668e-18
7638.78101 6.48378e-18
7641.52512 6.48085e-18
7644.25922 6.47792e-18
7646.99331 6.47499e-18
7649.73742 6.47209e-18
7652.47152 6.46916e-18
7655.20561 6.46623e-18
7657.94972 6.46330e-18
7660.68382 6.44850e-18
7663.41791 6.25291e-18
7666.16202 6.17788e-18
7668.89612 6.26526e-18
7671.63021 6.14499e-18
7674.37432 6.48272e-18
7677.10841 6.35786e-18
7679.84251 6.25640e-18
7682.58662 6.25871e-18
7685.32072 6.32974e-18
7688.05481 6.26221e-18
7690.79892 6.23774e-18
7693.53302 6.48470e-18
7696.26711 6.45574e-18
7699.01122 6.21420e-18
7701.74532 6.22960e-18
7704.47941 6.28065e-18
7707.22352 6.21530e-18
7709.95762 6.35487e-18
7712.69171 6.25669e-18
7715.43582 6.15152e-18
7718.16992 6.29328e-18
7720.90401 6.25041e-18
7723.64812 6.42501e-18
7726.38222 6.38015e-18
7729.11631 6.33876e-18
7731.86042 6.26664e-18
7734.59452 6.21028e-18
7737.32861 6.31035e-18
7740.07272 6.18214e-18
7742.80682 6.17397e-18
7745.54091 6.24330e-18
7748.28502 6.13852e-18
7751.01912 6.19652e-18
7753.75321 6.29911e-18
7756.49732 6.32361e-18
7759.23142 6.31048e-18
7761.96551 6.31825e-18
7764.70962 6.34444e-18
7767.44372 6.10650e-18
7770.17781 6.22166e-18
7772.92192 6.23611e-18
7775.65602 6.26081e-18
7778.39011 6.35931e-18
7781.13422 6.36378e-18
7783.86832 6.17528e-18
7786.60241 6.01285e-18
7789.34652 6.09184e-18
7792.08061 6.23987e-18
7794.81471 6.55534e-18
7797.55882 6.17553e-18
7800.29291 6.05463e-18
7803.02701 5.98318e-18
7805.77112 6.02330e-18
7808.50522 6.15209e-18
7811.23931 6.16778e-18
7813.98342 6.13856e-18
7816.71752 6.09372e-18
7819.45161 5.98753e-18
7822.19572 5.99604e-18
7824.92982 6.02389e-18
7827.66391 6.21200e-18
7830.40802 6.17940e-18
7833.14212 5.90082e-18
7835.87621 5.84011e-18
7838.62032 5.95214e-18
7841.35441 5.93838e-18
7844.08851 6.04193e-18
7846.83262 6.16913e-18
7849.56672 5.97895e-18
7852.30081 5.83012e-18
7855.04492 5.78826e-18
7857.77902 5.82740e-18
7860.51311 5.93656e-18
7863.25722 5.93403e-18
7865.99132 6.19524e-18
7868.72541 6.05705e-18
7871.46952 5.78577e-18
7874.20362 5.75263e-18
7876.93771 5.70294e-18
7879.68182 5.87223e-18
7882.41592 5.84893e-18
7885.15001 5.85966e-18
7887.89412 5.71975e-18
7890.62822 5.58181e-18
7893.36231 5.57531e-18
7896.10642 5.66068e-18
7898.84052 5.78119e-18
7901.57461 5.84607e-18
7904.31872 5.83074e-18
7907.05282 5.63885e-18
7909.78691 5.62379e-18
7912.53102 5.62596e-18
7915.26512 5.69790e-18
7917.99921 5.73056e-18
7920.74332 5.77861e-18
7923.47742 5.57507e-18
7926.21151 5.48566e-18
7928.95562 5.57243e-18
7931.68972 5.56619e-18
7934.42381 5.62352e-18
7937.16792 5.88585e-18
7939.90202 5.80774e-18
7942.64613 5.49280e-18
7945.38022 5.45167e-18
7948.11432 5.45429e-18
7950.84841 5.58087e-18
7953.59252 5.65604e-18
7956.32661 5.91579e-18
7959.06071 5.76454e-18
7961.80482 5.51305e-18
7964.53892 5.52767e-18
7967.27301 5.29952e-18
7970.01712 5.42715e-18
7972.75122 5.58917e-18
7975.48531 5.59810e-18
7978.22942 5.53313e-18
7980.96352 5.58753e-18
7983.70763 5.35637e-18
7986.44172 5.56774e-18
7989.17582 5.67022e-18
7991.90991 5.80228e-18
7994.65402 5.87423e-18
7997.38812 5.66226e-18
8000.13223 5.42739e-18
8002.86632 5.37903e-18
8005.60041 5.44256e-18
8008.34453 5.59380e-18
8011.07862 5.75693e-18
8013.81272 5.59446e-18
8016.55683 5.38476e-18
8019.29092 5.34513e-18
8022.02502 5.32798e-18
8024.76913 5.56396e-18
8027.50322 5.61162e-18
8030.23732 5.65284e-18
8032.98142 5.52645e-18
8035.71552 5.20288e-18
8038.44962 5.29922e-18
8041.19373 5.24826e-18
8043.92782 5.40898e-18
8046.66191 5.56907e-18
8049.40603 5.44339e-18
8052.14012 5.09184e-18
8054.87422 4.91522e-18
8057.61833 5.12778e-18
8060.35242 5.29685e-18
8063.08652 5.31623e-18
8065.83063 5.31202e-18
8068.56472 5.21380e-18
8071.29882 4.95904e-18
8074.04293 4.70505e-18
8076.77702 4.74616e-18
8079.51112 4.75572e-18
8082.25522 4.76476e-18
8084.98932 4.77387e-18
8087.72342 4.78303e-18
8090.46753 4.79222e-18
8093.20162 4.80152e-18
