# wavelength flux
3501.01366 1.10818e-17
3502.03519 1.05680e-17
3503.05672 1.09031e-17
3504.06823 1.14299e-17
3505.08976 1.11107e-17
3506.11129 1.06848e-17
3507.13282 1.05839e-17
3508.14433 1.10586e-17
3509.16586 1.12775e-17
3510.18739 1.16290e-17
3511.19891 1.11625e-17
3512.22044 1.10078e-17
3513.24197 1.12460e-17
3514.25349 1.07625e-17
3515.27502 1.08875e-17
3516.29655 1.14492e-17
3517.30806 1.13823e-17
3518.32959 1.10700e-17
3519.35112 1.11568e-17
3520.36264 1.10163e-17
3521.38417 1.09960e-17
3522.40570 1.13488e-17
3523.41721 1.10774e-17
3524.43874 1.07916e-17
3525.46027 1.11273e-17
3526.47179 1.07598e-17
3527.49332 1.04181e-17
3528.51485 1.04261e-17
3529.53638 1.08009e-17
3530.54789 1.07146e-17
3531.56942 1.01829e-17
3532.59095 1.01840e-17
3533.60246 1.02164e-17
3534.62399 1.04758e-17
3535.64552 1.05422e-17
3536.65704 1.06825e-17
3537.67857 1.08186e-17
3538.70010 1.06572e-17
3539.71162 1.00620e-17
3540.73315 1.04146e-17
3541.75468 1.03079e-17
3542.76619 9.75904e-18
3543.78772 1.00772e-17
3544.80925 1.00282e-17
3545.82077 9.74152e-18
3546.84230 9.93516e-18
3547.86383 1.03346e-17
3548.87534 1.01735e-17
3549.89687 9.52247e-18
3550.91840 9.41151e-18
3551.92992 9.64934e-18
3552.95145 9.94774e-18
3553.97298 9.94034e-18
3554.99451 9.67844e-18
3556.00602 9.96337e-18
3557.02755 1.01277e-17
3558.04908 1.02170e-17
3559.06060 1.00330e-17
3560.08213 9.52914e-18
3561.10366 9.55641e-18
3562.11517 1.02354e-17
3563.13670 1.00578e-17
3564.15823 9.97856e-18
3565.16975 1.01824e-17
3566.19128 9.59876e-18
3567.21281 9.95213e-18
3568.22432 1.02635e-17
3569.24585 9.75577e-18
3570.26738 9.55459e-18
3571.27889 9.84640e-18
3572.30042 1.00471e-17
3573.32195 1.01511e-17
3574.33347 1.00395e-17
3575.35500 9.99852e-18
3576.37653 9.96073e-18
3577.38805 9.95371e-18
3578.40958 9.86429e-18
3579.43111 9.93821e-18
3580.45264 9.92656e-18
3581.46415 9.78337e-18
3582.48568 9.34947e-18
3583.50721 9.28040e-18
3584.51873 9.77063e-18
3585.54026 9.87694e-18
3586.56179 9.67541e-18
3587.57330 9.19601e-18
3588.59483 9.36422e-18
3589.61636 9.64688e-18
3590.62788 9.63625e-18
3591.64941 9.81275e-18
3592.67094 9.47418e-18
3593.68245 9.22657e-18
3594.70398 8.94115e-18
3595.72551 9.11460e-18
3596.73702 9.15682e-18
3597.75855 9.09096e-18
3598.78008 8.98299e-18
3599.79160 8.99335e-18
3600.81313 9.03770e-18
3601.83466 9.55614e-18
3602.85619 9.55535e-18
3603.86771 8.84734e-18
3604.88924 9.06542e-18
3605.91077 9.20003e-18
3606.92228 9.36403e-18
3607.94381 9.62699e-18
3608.96534 9.42196e-18
3609.97686 9.50551e-18
3610.99839 9.43150e-18
3612.01992 9.41411e-18
3613.03143 9.38666e-18
3614.05296 9.33609e-18
3615.07449 9.70607e-18
3616.08601 9.35596e-18
3617.10754 8.87609e-18
3618.12907 9.33714e-18
3619.14058 9.41837e-18
3620.16211 9.30248e-18
3621.18364 9.16053e-18
3622.19516 9.66046e-18
3623.21669 9.89361e-18
3624.23822 9.48763e-18
3625.24973 9.68238e-18
3626.27126 1.02523e-17
3627.29279 1.01084e-17
3628.31432 9.98512e-18
3629.32584 1.01555e-17
3630.34737 1.03614e-17
3631.36890 1.05356e-17
3632.38041 1.01382e-17
3633.40194 1.01405e-17
3634.42347 1.02532e-17
3635.43498 1.03063e-17
3636.45652 1.04403e-17
3637.47805 1.11106e-17
3638.48956 1.13768e-17
3639.51109 1.14956e-17
3640.53262 1.16515e-17
3641.54414 1.13695e-17
3642.56567 1.17158e-17
3643.58720 1.15736e-17
3644.59871 1.13352e-17
3645.62024 1.17661e-17
3646.64177 1.19769e-17
3647.65329 1.21120e-17
3648.67482 1.26718e-17
3649.69635 1.27290e-17
3650.70786 1.20588e-17
3651.72939 1.21943e-17
3652.75092 1.28624e-17
3653.77245 1.29498e-17
3654.78397 1.31694e-17
3655.80550 1.32443e-17
3656.82703 1.36081e-17
3657.83854 1.40052e-17
3658.86007 1.38111e-17
3659.88160 1.37602e-17
3660.89311 1.42979e-17
3661.91464 1.43364e-17
3662.93617 1.41616e-17
3663.94769 1.40672e-17
3664.96922 1.41883e-17
3665.99075 1.46841e-17
3667.00227 1.48575e-17
3668.02380 1.49956e-17
3669.04533 1.56185e-17
3670.05684 1.54607e-17
3671.07837 1.53916e-17
3672.09990 1.52967e-17
3673.11142 1.56400e-17
3674.13295 1.62546e-17
3675.15448 1.60874e-17
3676.17601 1.61870e-17
3677.18752 1.68953e-17
3678.20905 1.69386e-17
3679.23058 1.68018e-17
3680.24210 1.67195e-17
3681.26363 1.65749e-17
3682.28516 1.68177e-17
3683.29667 1.68582e-17
3684.31820 1.70884e-17
3685.33973 1.71237e-17
3686.35125 1.69898e-17
3687.37278 1.71230e-17
3688.39431 1.75038e-17
3689.40582 1.76681e-17
3690.42735 1.73594e-17
3691.44888 1.75216e-17
3692.46040 1.72929e-17
3693.48193 1.72297e-17
3694.50346 1.74908e-17
3695.51497 1.69472e-17
3696.53650 1.72516e-17
3697.55803 1.78980e-17
3698.56955 1.79657e-17
3699.59108 1.77586e-17
3700.61261 1.79461e-17
3701.63414 1.79257e-17
3702.64565 1.77767e-17
3703.66718 1.79511e-17
3704.68871 1.83366e-17
3705.70023 1.85897e-17
3706.72176 1.86642e-17
3707.74329 1.86660e-17
3708.75480 1.85512e-17
3709.77633 1.86178e-17
3710.79786 1.83146e-17
3711.80938 1.82764e-17
3712.83091 1.83960e-17
3713.85244 1.82848e-17
3714.86395 1.85402e-17
3715.88548 1.85562e-17
3716.90701 1.83292e-17
3717.91853 1.79623e-17
3718.94006 1.78519e-17
3719.96159 1.78168e-17
3720.97310 1.72854e-17
3721.99463 1.71435e-17
3723.01616 1.72622e-17
3724.02767 1.70526e-17
3725.04920 1.68432e-17
3726.07073 1.65517e-17
3727.09227 1.63471e-17
3728.10378 1.60404e-17
3729.12531 1.56927e-17
3730.14684 1.57179e-17
3731.15836 1.57457e-17
3732.17989 1.57626e-17
3733.20142 1.55411e-17
3734.21293 1.53651e-17
3735.23446 1.52405e-17
3736.25599 1.47443e-17
3737.26751 1.46182e-17
3738.28904 1.43728e-17
3739.31057 1.41712e-17
3740.32208 1.45766e-17
3741.34361 1.42459e-17
3742.36514 1.32168e-17
3743.37666 1.32062e-17
3744.39819 1.33587e-17
3745.41971 1.31676e-17
3746.43123 1.30645e-17
3747.45276 1.27893e-17
3748.47429 1.26727e-17
3749.48581 1.25532e-17
3750.50734 1.22477e-17
3751.52887 1.20590e-17
3752.55040 1.20867e-17
3753.56191 1.22720e-17
3754.58344 1.18022e-17
3755.60497 1.15703e-17
3756.61649 1.13843e-17
3757.63802 1.12149e-17
3758.65955 1.10282e-17
3759.67106 1.06464e-17
3760.69259 1.05990e-17
3761.71412 1.05429e-17
3762.72564 1.04343e-17
3763.74717 1.03845e-17
3764.76870 1.02255e-17
3765.78021 1.01962e-17
3766.80174 1.00882e-17
3767.82327 1.01702e-17
3768.83479 1.01431e-17
3769.85632 9.97819e-18
3770.87785 9.91685e-18
3771.88936 1.00467e-17
3772.91089 9.43440e-18
3773.93242 9.36818e-18
3774.94394 9.55335e-18
3775.96547 9.20560e-18
3776.98700 9.38287e-18
3778.00853 9.49070e-18
3779.02004 8.93211e-18
3780.04157 8.82768e-18
3781.06310 8.85166e-18
3782.07461 9.10989e-18
3783.09614 9.21530e-18
3784.11767 9.12507e-18
3785.12919 8.97039e-18
3786.15072 8.87597e-18
3787.17225 8.91655e-18
3788.18377 8.90012e-18
3789.20530 8.75253e-18
3790.22683 8.77520e-18
3791.23834 8.76350e-18
3792.25987 8.53417e-18
3793.28140 8.58819e-18
3794.29292 8.58406e-18
3795.31445 8.54846e-18
3796.33598 8.84934e-18
3797.34749 8.76561e-18
3798.36902 8.62985e-18
3799.39055 9.05563e-18
3800.41208 8.91328e-18
3801.42360 8.62020e-18
3802.44513 8.60652e-18
3803.46666 8.68279e-18
3804.47817 8.71121e-18
3805.49970 8.60626e-18
3806.52123 8.76335e-18
3807.53274 9.00440e-18
3808.55427 9.04369e-18
3809.57580 9.01005e-18
3810.58732 8.75693e-18
3811.60885 8.91408e-18
3812.63038 9.14349e-18
3813.64190 8.96452e-18
3814.66343 9.19632e-18
3815.68496 9.29644e-18
3816.69647 9.17224e-18
3817.71800 9.06571e-18
3818.73953 8.98840e-18
3819.75105 8.87005e-18
3820.77258 9.08496e-18
3821.79411 9.55078e-18
3822.80562 9.61843e-18
3823.82715 9.64493e-18
3824.84868 1.00016e-17
3825.87021 1.02527e-17
3826.88173 1.03433e-17
3827.90326 1.02887e-17
3828.92479 1.02897e-17
3829.93630 1.05841e-17
3830.95783 1.12835e-17
3831.97936 1.12971e-17
3832.99088 1.09905e-17
3834.01241 1.11865e-17
3835.03394 1.17385e-17
3836.04545 1.20912e-17
3837.06698 1.21409e-17
3838.08851 1.22479e-17
3839.10003 1.20904e-17
3840.12156 1.22426e-17
3841.14309 1.22769e-17
3842.15460 1.23692e-17
3843.17613 1.26041e-17
3844.19766 1.23962e-17
3845.20917 1.25702e-17
3846.23070 1.29109e-17
3847.25223 1.31195e-17
3848.26375 1.34334e-17
3849.28528 1.35452e-17
3850.30681 1.31967e-17
3851.32834 1.36234e-17
3852.33986 1.39504e-17
3853.36139 1.39750e-17
3854.38292 1.43816e-17
3855.39443 1.45044e-17
3856.41596 1.47839e-17
3857.43749 1.46311e-17
3858.44901 1.46451e-17
3859.47054 1.48818e-17
3860.49207 1.53789e-17
3861.50358 1.54541e-17
3862.52511 1.53405e-17
3863.54664 1.57255e-17
3864.55816 1.59108e-17
3865.57969 1.59021e-17
3866.60122 1.64266e-17
3867.61273 1.69397e-17
3868.63426 1.69607e-17
3869.65579 1.68567e-17
3870.66730 1.74783e-17
3871.68883 1.76161e-17
3872.71036 1.74630e-17
3873.73189 1.80125e-17
3874.74341 1.82895e-17
3875.76494 1.78393e-17
3876.78647 1.80616e-17
3877.79799 1.87441e-17
3878.81952 1.88447e-17
3879.84105 1.89109e-17
3880.85256 1.93887e-17
3881.87409 1.97976e-17
3882.89562 1.98136e-17
3883.90714 1.96543e-17
3884.92867 1.98932e-17
3885.95020 2.03088e-17
3886.96171 2.05311e-17
3887.98324 2.08052e-17
3889.00477 2.09183e-17
3890.01629 2.07945e-17
3891.03782 2.11953e-17
3892.05935 2.14572e-17
3893.07086 2.17894e-17
3894.09239 2.23215e-17
3895.11392 2.27521e-17
3896.12544 2.25735e-17
3897.14697 2.27077e-17
3898.16850 2.27998e-17
3899.19003 2.31384e-17
3900.20154 2.33678e-17
3901.22307 2.36953e-17
3902.24460 2.36606e-17
3903.25612 2.38063e-17
3904.27765 2.43996e-17
3905.29918 2.47651e-17
3906.31069 2.47985e-17
3907.33222 2.45883e-17
3908.35375 2.46250e-17
3909.36527 2.49134e-17
3910.38680 2.49279e-17
3911.40833 2.48179e-17
3912.41984 2.46911e-17
3913.44137 2.49317e-17
3914.46290 2.51848e-17
3915.47442 2.58152e-17
3916.49595 2.61017e-17
3917.51748 2.59220e-17
3918.52899 2.58440e-17
3919.55052 2.64161e-17
3920.57205 2.70671e-17
3921.59358 2.69640e-17
3922.60510 2.65297e-17
3923.62663 2.67688e-17
3924.64816 2.68963e-17
3925.65967 2.65844e-17
3926.68120 2.64884e-17
3927.70273 2.66955e-17
3928.71425 2.69860e-17
3929.73578 2.70065e-17
3930.75731 2.69254e-17
3931.76882 2.68373e-17
3932.79035 2.65188e-17
3933.81188 2.59053e-17
3934.82339 2.55256e-17
3935.84492 2.57823e-17
3936.86645 2.64961e-17
3937.87797 2.68685e-17
3938.89950 2.67168e-17
3939.92103 2.62597e-17
3940.93255 2.60432e-17
3941.95408 2.58671e-17
3942.97561 2.60838e-17
3943.98712 2.66726e-17
3945.00865 2.70006e-17
3946.03018 2.69604e-17
3947.05171 2.68718e-17
3948.06323 2.66494e-17
3949.08476 2.61621e-17
3950.10629 2.60188e-17
3951.11780 2.63404e-17
3952.13933 2.65401e-17
3953.16086 2.66456e-17
3954.17238 2.67778e-17
3955.19391 2.66633e-17
3956.21544 2.64190e-17
3957.22695 2.62324e-17
3958.24848 2.62251e-17
3959.27001 2.62614e-17
3960.28153 2.64659e-17
3961.30306 2.65758e-17
3962.32459 2.66782e-17
3963.33610 2.66751e-17
3964.35763 2.65952e-17
3965.37916 2.67793e-17
3966.39068 2.69492e-17
3967.41221 2.68934e-17
3968.43374 2.65213e-17
3969.44525 2.62860e-17
3970.46678 2.65880e-17
3971.48831 2.68992e-17
3972.50984 2.70153e-17
3973.52136 2.71153e-17
3974.54289 2.67746e-17
3975.56442 2.64254e-17
3976.57593 2.65958e-17
3977.59746 2.69977e-17
3978.61899 2.69871e-17
3979.63051 2.70252e-17
3980.65204 2.67893e-17
3981.67357 2.67335e-17
3982.68508 2.68297e-17
3983.70661 2.64668e-17
3984.72814 2.64221e-17
3985.73966 2.67700e-17
3986.76119 2.68692e-17
3987.78272 2.64056e-17
3988.79423 2.64281e-17
3989.81576 2.64312e-17
3990.83729 2.64624e-17
3991.84881 2.65153e-17
3992.87034 2.65979e-17
3993.89187 2.66440e-17
3994.91340 2.63246e-17
3995.92491 2.62291e-17
3996.94644 2.65092e-17
3997.96797 2.66555e-17
3998.97948 2.66348e-17
4000.00102 2.65114e-17
4001.02255 2.63426e-17
4002.03406 2.62874e-17
4003.05559 2.63141e-17
4004.07712 2.62727e-17
4005.08864 2.62948e-17
4006.11017 2.61811e-17
4007.13170 2.61475e-17
4008.14321 2.62120e-17
4009.16474 2.60353e-17
4010.18627 2.59642e-17
4011.19779 2.60029e-17
4012.21932 2.57831e-17
4013.24085 2.58322e-17
4014.25236 2.58925e-17
4015.27389 2.56338e-17
4016.29542 2.52459e-17
4017.30694 2.50277e-17
4018.32847 2.48151e-17
4019.35000 2.47395e-17
4020.37153 2.47530e-17
4021.38304 2.46481e-17
4022.40457 2.46357e-17
4023.42610 2.43964e-17
4024.43762 2.44055e-17
4025.45915 2.44873e-17
4026.48068 2.42577e-17
4027.49219 2.40529e-17
4028.51372 2.35045e-17
4029.53525 2.36443e-17
4030.54677 2.39585e-17
4031.56830 2.37767e-17
4032.58983 2.34128e-17
4033.60134 2.33105e-17
4034.62287 2.31512e-17
4035.64440 2.28170e-17
4036.65592 2.30536e-17
4037.67745 2.28828e-17
4038.69898 2.24911e-17
4039.71049 2.21663e-17
4040.73202 2.19647e-17
4041.75355 2.22924e-17
4042.76507 2.20870e-17
4043.78660 2.13866e-17
4044.80813 2.14316e-17
4045.82966 2.13091e-17
4046.84117 2.15199e-17
4047.86270 2.16917e-17
4048.88423 2.11618e-17
4049.89575 2.08478e-17
4050.91728 2.08464e-17
4051.93881 2.10034e-17
4052.95032 2.11115e-17
4053.97185 2.11654e-17
4054.99338 2.13726e-17
4056.00490 2.12100e-17
4057.02643 2.09822e-17
4058.04796 2.08802e-17
4059.05947 2.08921e-17
4060.08100 2.10781e-17
4061.10253 2.08209e-17
4062.11405 2.12059e-17
4063.13558 2.13400e-17
4064.15711 2.09035e-17
4065.16862 2.07053e-17
4066.19015 2.08919e-17
4067.21168 2.07104e-17
4068.22320 2.06608e-17
4069.24473 2.05471e-17
4070.26626 2.02041e-17
4071.28779 2.04665e-17
4072.29930 2.04869e-17
4073.32083 1.99712e-17
4074.34236 1.95395e-17
4075.35388 1.95056e-17
4076.37541 1.95933e-17
4077.39694 1.97720e-17
4078.40845 1.97084e-17
4079.42998 1.88877e-17
4080.45151 1.89712e-17
4081.46303 1.92344e-17
4082.48456 1.88825e-17
4083.50608 1.86402e-17
4084.51760 1.85920e-17
4085.53913 1.85148e-17
4086.56066 1.83609e-17
4087.57218 1.84118e-17
4088.59371 1.85233e-17
4089.61524 1.81883e-17
4090.62675 1.82212e-17
4091.64828 1.82217e-17
4092.66981 1.78032e-17
4093.68133 1.76853e-17
4094.70286 1.78332e-17
4095.72439 1.77442e-17
4096.74592 1.77523e-17
4097.75743 1.78253e-17
4098.77896 1.77708e-17
4099.80049 1.78303e-17
4100.81201 1.75282e-17
4101.83354 1.73984e-17
4102.85507 1.73113e-17
4103.86658 1.72779e-17
4104.88811 1.70734e-17
4105.90964 1.69988e-17
4106.92116 1.71252e-17
4107.94268 1.66739e-17
4108.96422 1.65996e-17
4109.97573 1.70962e-17
4110.99726 1.71577e-17
4112.01879 1.68712e-17
4113.03031 1.68314e-17
4114.05184 1.66805e-17
4115.07337 1.65772e-17
4116.08488 1.66535e-17
4117.10641 1.64689e-17
4118.12794 1.63198e-17
4119.14947 1.64524e-17
4120.16099 1.64621e-17
4121.18252 1.63883e-17
4122.20405 1.62630e-17
4123.21556 1.62120e-17
4124.23709 1.60929e-17
4125.25862 1.61687e-17
4126.27014 1.57004e-17
4127.29166 1.55549e-17
4128.31320 1.60914e-17
4129.32471 1.58718e-17
4130.34624 1.53378e-17
4131.36777 1.54100e-17
4132.37928 1.51934e-17
4133.40081 1.50816e-17
4134.42234 1.51066e-17
4135.43386 1.49544e-17
4136.45539 1.50752e-17
4137.47692 1.51908e-17
4138.48844 1.50103e-17
4139.50997 1.46306e-17
4140.53150 1.44962e-17
4141.54301 1.46247e-17
4142.56454 1.43170e-17
4143.58607 1.41764e-17
4144.60760 1.41291e-17
4145.61912 1.41143e-17
4146.64065 1.41790e-17
4147.66218 1.42477e-17
4148.67369 1.41781e-17
4149.69522 1.42269e-17
4150.71675 1.42369e-17
4151.72827 1.41836e-17
4152.74979 1.42360e-17
4153.77133 1.42464e-17
4154.78284 1.41037e-17
4155.80437 1.40256e-17
4156.82590 1.42294e-17
4157.83741 1.41728e-17
4158.85894 1.39985e-17
4159.88047 1.41309e-17
4160.89199 1.40081e-17
4161.91352 1.39946e-17
4162.93505 1.40755e-17
4163.94657 1.42287e-17
4164.96810 1.42751e-17
4165.98963 1.42347e-17
4167.01116 1.41184e-17
4168.02267 1.40933e-17
4169.04420 1.40411e-17
4170.06573 1.42658e-17
4171.07725 1.43115e-17
4172.09878 1.41368e-17
4173.12031 1.41662e-17
4174.13182 1.44476e-17
4175.15335 1.43353e-17
4176.17488 1.40078e-17
4177.18640 1.41767e-17
4178.20792 1.41887e-17
4179.22946 1.40246e-17
4180.24097 1.40466e-17
4181.26250 1.42468e-17
4182.28403 1.44161e-17
4183.29554 1.43947e-17
4184.31708 1.44051e-17
4185.33860 1.43458e-17
4186.35012 1.41917e-17
4187.37165 1.41575e-17
4188.39318 1.41830e-17
4189.40470 1.42435e-17
4190.42623 1.45878e-17
4191.44776 1.47762e-17
4192.46929 1.46108e-17
4193.48080 1.45379e-17
4194.50233 1.44862e-17
4195.52386 1.45007e-17
4196.53538 1.47441e-17
4197.55691 1.50767e-17
4198.57844 1.51725e-17
4199.58995 1.49950e-17
4200.61148 1.49172e-17
4201.63301 1.50228e-17
4202.64453 1.50913e-17
4203.66605 1.52167e-17
4204.68759 1.52985e-17
4205.69910 1.51733e-17
4206.72063 1.51932e-17
4207.74216 1.53179e-17
4208.75367 1.53166e-17
4209.77521 1.52968e-17
4210.79673 1.53123e-17
4211.80825 1.53253e-17
4212.82978 1.53819e-17
4213.85131 1.52426e-17
4214.86283 1.53887e-17
4215.88436 1.54456e-17
4216.90589 1.54358e-17
4217.91740 1.57394e-17
4218.93893 1.56790e-17
4219.96046 1.57445e-17
4220.98199 1.58137e-17
4221.99351 1.58786e-17
4223.01503 1.57880e-17
4224.03657 1.57290e-17
4225.04808 1.58180e-17
4226.06961 1.60909e-17
4227.09114 1.59977e-17
4228.10266 1.59609e-17
4229.12419 1.59751e-17
4230.14572 1.60701e-17
4231.15723 1.60019e-17
4232.17876 1.58692e-17
4233.20029 1.58266e-17
4234.21180 1.62142e-17
4235.23334 1.66605e-17
4236.25486 1.66577e-17
4237.26638 1.66191e-17
4238.28791 1.68130e-17
4239.30944 1.66440e-17
4240.32096 1.65733e-17
4241.34249 1.67346e-17
4242.36402 1.69339e-17
4243.38555 1.72556e-17
4244.39706 1.70714e-17
4245.41859 1.71180e-17
4246.44012 1.72461e-17
4247.45164 1.74859e-17
4248.47317 1.73447e-17
4249.49470 1.74588e-17
4250.50621 1.74118e-17
4251.52774 1.74428e-17
4252.54927 1.73845e-17
4253.56078 1.75521e-17
4254.58232 1.77492e-17
4255.60384 1.76709e-17
4256.61536 1.76513e-17
4257.63689 1.78289e-17
4258.65842 1.81167e-17
4259.66993 1.81474e-17
4260.69147 1.82051e-17
4261.71299 1.85432e-17
4262.72451 1.84837e-17
4263.74604 1.82912e-17
4264.76757 1.82404e-17
4265.78910 1.83956e-17
4266.80062 1.87593e-17
4267.82215 1.88491e-17
4268.84368 1.87998e-17
4269.85519 1.87154e-17
4270.87672 1.87625e-17
4271.89825 1.87883e-17
4272.90977 1.89441e-17
4273.93130 1.91511e-17
4274.95283 1.90329e-17
4275.96434 1.90998e-17
4276.98587 1.94107e-17
4278.00740 1.94211e-17
4279.01891 1.93343e-17
4280.04045 1.95556e-17
4281.06197 1.96742e-17
4282.07349 1.97467e-17
4283.09502 1.97391e-17
4284.11655 1.97386e-17
4285.12806 1.97400e-17
4286.14959 2.00348e-17
4287.17112 2.02120e-17
4288.18264 2.02212e-17
4289.20417 2.00572e-17
4290.22570 2.02281e-17
4291.23722 2.02852e-17
4292.25875 2.04446e-17
4293.28028 2.04438e-17
4294.30181 2.02947e-17
4295.31332 2.03147e-17
4296.33485 2.06520e-17
4297.35638 2.05464e-17
4298.36790 2.04517e-17
4299.38943 2.04633e-17
4300.41096 2.07066e-17
4301.42247 2.08310e-17
4302.44400 2.07626e-17
4303.46553 2.06207e-17
4304.47704 2.08655e-17
4305.49858 2.07997e-17
4306.52010 2.04172e-17
4307.53162 2.05846e-17
4308.55315 2.07834e-17
4309.57468 2.07677e-17
4310.58620 2.07951e-17
4311.60772 2.08342e-17
4312.62926 2.08377e-17
4313.64077 2.07620e-17
4314.66230 2.07251e-17
4315.68383 2.08943e-17
4316.70536 2.07372e-17
4317.71688 2.05579e-17
4318.73841 2.09149e-17
4319.75994 2.10612e-17
4320.77145 2.09527e-17
4321.79298 2.05439e-17
4322.81451 2.05522e-17
4323.82603 2.06791e-17
4324.84756 2.06755e-17
4325.86909 2.06518e-17
4326.88060 2.03803e-17
4327.90213 2.02489e-17
4328.92366 2.00883e-17
4329.93517 1.99102e-17
4330.95671 1.97899e-17
4331.97823 1.96167e-17
4332.98975 1.94434e-17
4334.01128 1.95880e-17
4335.03281 1.97353e-17
4336.04433 1.97620e-17
4337.06585 1.97424e-17
4338.08739 1.97898e-17
4339.09890 1.97357e-17
4340.12043 1.94283e-17
4341.14196 1.94591e-17
4342.16349 1.92338e-17
4343.17501 1.90299e-17
4344.19654 1.90781e-17
4345.21807 1.92191e-17
4346.22958 1.88657e-17
4347.25111 1.86044e-17
4348.27264 1.87065e-17
4349.28416 1.86657e-17
4350.30569 1.84284e-17
4351.32722 1.82424e-17
4352.33873 1.82667e-17
4353.36026 1.81814e-17
4354.38179 1.82065e-17
4355.39331 1.80646e-17
4356.41484 1.77613e-17
4357.43637 1.74799e-17
4358.44788 1.74041e-17
4359.46941 1.73973e-17
4360.49094 1.73359e-17
4361.50246 1.73474e-17
4362.52398 1.71409e-17
4363.54552 1.71692e-17
4364.55703 1.69273e-17
4365.57856 1.65368e-17
4366.60009 1.64300e-17
4367.62162 1.65982e-17
4368.63314 1.65613e-17
4369.65467 1.63399e-17
4370.67620 1.63490e-17
4371.68771 1.63742e-17
4372.70924 1.64193e-17
4373.73077 1.65031e-17
4374.74229 1.63856e-17
4375.76382 1.61114e-17
4376.78535 1.60859e-17
4377.79686 1.60256e-17
4378.81839 1.56410e-17
4379.83992 1.55173e-17
4380.85144 1.54185e-17
4381.87297 1.54099e-17
4382.89450 1.55885e-17
4383.90601 1.57306e-17
4384.92754 1.56759e-17
4385.94907 1.53964e-17
4386.96059 1.53358e-17
4387.98211 1.54215e-17
4389.00365 1.54808e-17
4390.02517 1.54285e-17
4391.03669 1.54003e-17
4392.05822 1.53605e-17
4393.07975 1.53297e-17
4394.09127 1.52373e-17
4395.11280 1.51322e-17
4396.13432 1.52445e-17
4397.14584 1.54768e-17
4398.16737 1.53351e-17
4399.18890 1.51777e-17
4400.20042 1.52227e-17
4401.22195 1.52612e-17
4402.24348 1.52502e-17
4403.25499 1.53053e-17
4404.27652 1.54239e-17
4405.29805 1.53991e-17
4406.30957 1.53296e-17
4407.33109 1.52772e-17
4408.35263 1.53531e-17
4409.36414 1.55531e-17
4410.38567 1.55385e-17
4411.40720 1.56148e-17
4412.41872 1.58698e-17
4413.44024 1.58243e-17
4414.46178 1.56781e-17
4415.48330 1.55707e-17
4416.49482 1.56487e-17
4417.51635 1.58076e-17
4418.53788 1.57405e-17
4419.54940 1.57160e-17
4420.57092 1.56449e-17
4421.59246 1.55878e-17
4422.60397 1.56621e-17
4423.62550 1.57896e-17
4424.64703 1.59849e-17
4425.65855 1.60492e-17
4426.68008 1.61429e-17
4427.70161 1.62129e-17
4428.71312 1.60541e-17
4429.73465 1.61492e-17
4430.75618 1.64215e-17
4431.76770 1.65680e-17
4432.78922 1.65831e-17
4433.81076 1.65820e-17
4434.82227 1.66460e-17
4435.84380 1.68837e-17
4436.86533 1.69901e-17
4437.87684 1.69408e-17
4438.89838 1.70823e-17
4439.91991 1.73799e-17
4440.94144 1.73954e-17
4441.95295 1.72420e-17
4442.97448 1.73041e-17
4443.99601 1.76717e-17
4445.00753 1.80088e-17
4446.02905 1.79491e-17
4447.05059 1.80132e-17
4448.06210 1.82719e-17
4449.08363 1.81990e-17
4450.10516 1.80609e-17
4451.11668 1.80379e-17
4452.13821 1.82556e-17
4453.15974 1.84750e-17
4454.17125 1.86433e-17
4455.19278 1.86091e-17
4456.21431 1.85900e-17
4457.22583 1.88627e-17
4458.24735 1.89123e-17
4459.26889 1.87250e-17
4460.28040 1.88053e-17
4461.30193 1.91022e-17
4462.32346 1.91526e-17
4463.34499 1.91397e-17
4464.35651 1.93482e-17
4465.37803 1.94377e-17
4466.39957 1.93357e-17
4467.41108 1.95296e-17
4468.43261 1.97249e-17
4469.45414 1.97396e-17
4470.46566 1.96813e-17
4471.48718 1.98767e-17
4472.50872 1.99672e-17
4473.52023 1.98609e-17
4474.54176 2.00002e-17
4475.56329 2.02020e-17
4476.57481 2.01608e-17
4477.59634 2.02342e-17
4478.61787 2.06465e-17
4479.62938 2.09031e-17
4480.65091 2.07926e-17
4481.67244 2.08452e-17
4482.68396 2.10196e-17
4483.70549 2.10853e-17
4484.72702 2.12640e-17
4485.73853 2.14115e-17
4486.76006 2.14881e-17
4487.78159 2.17485e-17
4488.80312 2.19488e-17
4489.81464 2.18684e-17
4490.83616 2.17211e-17
4491.85770 2.17119e-17
4492.86921 2.18436e-17
4493.89074 2.20180e-17
4494.91227 2.21590e-17
4495.92378 2.20734e-17
4496.94531 2.23477e-17
4497.96684 2.29462e-17
4498.97836 2.28373e-17
4499.99989 2.24738e-17
4501.02142 2.27175e-17
4502.03294 2.28398e-17
4503.05447 2.29496e-17
4504.07600 2.31497e-17
4505.08751 2.33453e-17
4506.10904 2.33496e-17
4507.13057 2.33218e-17
4508.14209 2.33572e-17
4509.16362 2.34774e-17
4510.18515 2.36060e-17
4511.19666 2.38661e-17
4512.21819 2.40131e-17
4513.23972 2.38881e-17
4514.26125 2.38465e-17
4515.27277 2.40829e-17
4516.29429 2.42045e-17
4517.31583 2.42283e-17
4518.32734 2.46636e-17
4519.34887 2.47198e-17
4520.37040 2.47891e-17
4521.38191 2.45986e-17
4522.40344 2.44739e-17
4523.42497 2.47409e-17
4524.43649 2.49002e-17
4525.45802 2.49174e-17
4526.47955 2.50287e-17
4527.49107 2.50647e-17
4528.51260 2.50186e-17
4529.53413 2.50120e-17
4530.54564 2.49321e-17
4531.56717 2.47377e-17
4532.58870 2.47119e-17
4533.60022 2.46824e-17
4534.62175 2.46285e-17
4535.64328 2.46299e-17
4536.65479 2.45601e-17
4537.67632 2.47151e-17
4538.69785 2.50558e-17
4539.71938 2.52214e-17
4540.73090 2.53766e-17
4541.75242 2.56993e-17
4542.77396 2.57652e-17
4543.78547 2.56902e-17
4544.80700 2.58001e-17
4545.82853 2.58532e-17
4546.84004 2.59004e-17
4547.86158 2.60588e-17
4548.88310 2.59767e-17
4549.89462 2.58961e-17
4550.91615 2.57663e-17
4551.93768 2.58566e-17
4552.94920 2.57876e-17
4553.97073 2.57412e-17
4554.99226 2.55937e-17
4556.00377 2.55746e-17
4557.02530 2.57390e-17
4558.04683 2.57908e-17
4559.05834 2.56268e-17
4560.07988 2.56120e-17
4561.10141 2.54318e-17
4562.12294 2.54490e-17
4563.13445 2.54744e-17
4564.15598 2.54684e-17
4565.17751 2.54229e-17
4566.18903 2.52514e-17
4567.21056 2.51331e-17
4568.23209 2.51474e-17
4569.24360 2.51159e-17
4570.26513 2.51382e-17
4571.28666 2.50699e-17
4572.29817 2.49582e-17
4573.31971 2.49175e-17
4574.34123 2.46162e-17
4575.35275 2.44464e-17
4576.37428 2.46474e-17
4577.39581 2.45495e-17
4578.40733 2.42172e-17
4579.42886 2.43081e-17
4580.45039 2.45560e-17
4581.46190 2.44826e-17
4582.48343 2.42699e-17
4583.50496 2.42405e-17
4584.51647 2.44681e-17
4585.53801 2.44921e-17
4586.55953 2.42097e-17
4587.58107 2.41441e-17
4588.59258 2.42441e-17
4589.61411 2.40192e-17
4590.63564 2.39064e-17
4591.64716 2.42279e-17
4592.66869 2.42583e-17
4593.69022 2.36656e-17
4594.70173 2.36252e-17
4595.72326 2.38484e-17
4596.74479 2.36914e-17
4597.75630 2.33726e-17
4598.77784 2.32995e-17
4599.79936 2.35468e-17
4600.81088 2.36679e-17
4601.83241 2.36903e-17
4602.85394 2.36219e-17
4603.86546 2.32561e-17
4604.88699 2.30679e-17
4605.90852 2.30265e-17
4606.92003 2.28512e-17
4607.94156 2.29543e-17
4608.96309 2.30997e-17
4609.97461 2.29818e-17
4610.99614 2.27476e-17
4612.01767 2.25480e-17
4613.03920 2.24937e-17
4614.05071 2.26092e-17
4615.07224 2.27384e-17
4616.09377 2.26952e-17
4617.10528 2.24427e-17
4618.12682 2.22779e-17
4619.14834 2.21214e-17
4620.15986 2.18272e-17
4621.18139 2.17878e-17
4622.20292 2.17660e-17
4623.21443 2.16107e-17
4624.23597 2.15180e-17
4625.25749 2.15337e-17
4626.26901 2.12689e-17
4627.29054 2.08175e-17
4628.31207 2.08154e-17
4629.32359 2.06561e-17
4630.34512 2.04201e-17
4631.36665 2.04321e-17
4632.37816 2.02653e-17
4633.39969 1.98930e-17
4634.42122 1.97729e-17
4635.44275 1.97484e-17
4636.45427 1.97914e-17
4637.47580 1.96516e-17
4638.49733 1.94417e-17
4639.50884 1.93819e-17
4640.53037 1.93206e-17
4641.55190 1.89138e-17
4642.56341 1.86743e-17
4643.58495 1.86039e-17
4644.60647 1.85748e-17
4645.61799 1.84979e-17
4646.63952 1.83322e-17
4647.66105 1.82930e-17
4648.67256 1.82201e-17
4649.69409 1.81174e-17
4650.71562 1.77898e-17
4651.72714 1.73423e-17
4652.74867 1.72986e-17
4653.77020 1.73673e-17
4654.78172 1.71919e-17
4655.80325 1.70440e-17
4656.82478 1.71420e-17
4657.83629 1.68255e-17
4658.85782 1.66304e-17
4659.87935 1.64064e-17
4660.90088 1.63134e-17
4661.91240 1.60989e-17
4662.93393 1.59485e-17
4663.95546 1.60863e-17
4664.96697 1.59730e-17
4665.98850 1.58029e-17
4667.01003 1.55880e-17
4668.02154 1.54916e-17
4669.04308 1.55329e-17
4670.06460 1.55080e-17
4671.07612 1.51937e-17
4672.09765 1.50507e-17
4673.11918 1.47529e-17
4674.13070 1.46307e-17
4675.15222 1.46906e-17
4676.17376 1.46454e-17
4677.18527 1.45491e-17
4678.20680 1.45489e-17
4679.22833 1.44578e-17
4680.23985 1.43053e-17
4681.26138 1.42609e-17
4682.28291 1.43032e-17
4683.29442 1.41491e-17
4684.31595 1.40333e-17
4685.33748 1.43927e-17
4686.35901 1.43662e-17
4687.37053 1.41215e-17
4688.39206 1.42142e-17
4689.41359 1.41953e-17
4690.42510 1.42639e-17
4691.44663 1.44183e-17
4692.46816 1.43810e-17
4693.47968 1.43241e-17
4694.50121 1.42631e-17
4695.52274 1.43801e-17
4696.53425 1.46445e-17
4697.55578 1.47480e-17
4698.57731 1.48006e-17
4699.58883 1.48471e-17
4700.61035 1.50151e-17
4701.63189 1.52006e-17
4702.64340 1.53250e-17
4703.66493 1.53797e-17
4704.68646 1.52245e-17
4705.69798 1.53134e-17
4706.71951 1.57231e-17
4707.74104 1.58325e-17
4708.76256 1.58381e-17
4709.77408 1.58545e-17
4710.79561 1.58945e-17
4711.81714 1.60649e-17
4712.82866 1.59687e-17
4713.85019 1.59938e-17
4714.87172 1.61706e-17
4715.88323 1.61899e-17
4716.90476 1.65009e-17
4717.92629 1.65395e-17
4718.93781 1.64086e-17
4719.95934 1.66112e-17
4720.98087 1.68387e-17
4721.99238 1.66701e-17
4723.01391 1.67611e-17
4724.03544 1.68914e-17
4725.04696 1.68877e-17
4726.06848 1.70235e-17
4727.09002 1.73064e-17
4728.10153 1.73000e-17
4729.12306 1.71382e-17
4730.14459 1.71956e-17
4731.16612 1.71979e-17
4732.17764 1.71982e-17
4733.19916 1.72186e-17
4734.21068 1.71653e-17
4735.23221 1.71749e-17
4736.25374 1.70454e-17
4737.27527 1.68855e-17
4738.28679 1.69558e-17
4739.30832 1.70481e-17
4740.32985 1.70269e-17
4741.34136 1.68991e-17
4742.36289 1.68234e-17
4743.38442 1.68354e-17
4744.39594 1.68620e-17
4745.41747 1.68749e-17
4746.43900 1.67501e-17
4747.45051 1.67932e-17
4748.47204 1.69209e-17
4749.49357 1.67400e-17
4750.50509 1.65723e-17
4751.52661 1.67691e-17
4752.54815 1.68925e-17
4753.55966 1.68213e-17
4754.58119 1.69258e-17
4755.60272 1.69873e-17
4756.61424 1.69993e-17
4757.63577 1.72029e-17
4758.65729 1.72912e-17
4759.67883 1.71374e-17
4760.69034 1.71191e-17
4761.71187 1.72253e-17
4762.73340 1.73114e-17
4763.74492 1.73917e-17
4764.76645 1.73429e-17
4765.78798 1.74006e-17
4766.79949 1.76143e-17
4767.82102 1.75128e-17
4768.84255 1.73451e-17
4769.85407 1.74655e-17
4770.87559 1.75523e-17
4771.89713 1.73136e-17
4772.90864 1.71100e-17
4773.93017 1.73329e-17
4774.95170 1.75514e-17
4775.96322 1.74891e-17
4776.98474 1.75762e-17
4778.00628 1.78240e-17
4779.01779 1.78424e-17
4780.03932 1.78482e-17
4781.06085 1.81780e-17
4782.08238 1.82396e-17
4783.09390 1.79575e-17
4784.11542 1.79145e-17
4785.13696 1.81386e-17
4786.14847 1.83270e-17
4787.17000 1.81547e-17
4788.19153 1.81237e-17
4789.20305 1.83256e-17
4790.22458 1.84417e-17
4791.24611 1.85638e-17
4792.25762 1.84970e-17
4793.27915 1.84797e-17
4794.30068 1.86631e-17
4795.31220 1.87272e-17
4796.33372 1.87368e-17
4797.35526 1.88678e-17
4798.36677 1.88627e-17
4799.38830 1.90613e-17
4800.40983 1.88877e-17
4801.42134 1.87964e-17
4802.44288 1.89456e-17
4803.46441 1.89922e-17
4804.47592 1.88209e-17
4805.49745 1.88730e-17
4806.51898 1.89746e-17
4807.53049 1.90503e-17
4808.55203 1.91639e-17
4809.57355 1.91693e-17
4810.59509 1.91280e-17
4811.60660 1.91188e-17
4812.62813 1.91318e-17
4813.64966 1.90436e-17
4814.66118 1.89047e-17
4815.68271 1.90313e-17
4816.70424 1.90806e-17
4817.71575 1.89936e-17
4818.73728 1.91732e-17
4819.75881 1.90524e-17
4820.77033 1.87794e-17
4821.79186 1.86354e-17
4822.81339 1.87241e-17
4823.82490 1.87342e-17
4824.84643 1.86856e-17
4825.86796 1.85879e-17
4826.87947 1.86898e-17
4827.90101 1.86242e-17
4828.92253 1.85463e-17
4829.94407 1.85543e-17
4830.95558 1.84600e-17
4831.97711 1.84236e-17
4832.98862 1.85250e-17
4834.01016 1.86292e-17
4835.03168 1.85300e-17
4836.05322 1.83326e-17
4837.06473 1.82454e-17
4838.08626 1.82081e-17
4839.10779 1.81243e-17
4840.11931 1.81495e-17
4841.14084 1.81686e-17
4842.16237 1.80131e-17
4843.17388 1.81142e-17
4844.19541 1.80997e-17
4845.21694 1.81400e-17
4846.22846 1.81411e-17
4847.24999 1.81833e-17
4848.27152 1.81923e-17
4849.28303 1.79973e-17
4850.30456 1.81419e-17
4851.32609 1.82746e-17
4852.33760 1.82503e-17
4853.35914 1.81672e-17
4854.38066 1.82596e-17
4855.39218 1.82949e-17
4856.41371 1.83709e-17
4857.43524 1.86570e-17
4858.45677 1.86478e-17
4859.46828 1.85304e-17
4860.48981 1.87231e-17
4861.51134 1.87327e-17
4862.52286 1.85524e-17
4863.54439 1.85878e-17
4864.56592 1.85739e-17
4865.57744 1.85240e-17
4866.59897 1.87230e-17
4867.62050 1.87952e-17
4868.63201 1.88294e-17
4869.65354 1.87292e-17
4870.67507 1.85881e-17
4871.68659 1.88037e-17
4872.70812 1.89919e-17
4873.72965 1.89317e-17
4874.74116 1.87904e-17
4875.76269 1.88046e-17
4876.78422 1.88802e-17
4877.79573 1.91950e-17
4878.81727 1.91623e-17
4879.83879 1.90047e-17
4880.85031 1.90299e-17
4881.87184 1.90755e-17
4882.89337 1.92139e-17
4883.91490 1.90845e-17
4884.92641 1.89753e-17
4885.94795 1.90958e-17
4886.96947 1.90496e-17
4887.98099 1.90400e-17
4889.00252 1.91409e-17
4890.02405 1.92832e-17
4891.03557 1.93384e-17
4892.05710 1.93910e-17
4893.07863 1.95160e-17
4894.09014 1.95991e-17
4895.11167 1.95902e-17
4896.13320 1.94899e-17
4897.14472 1.94752e-17
4898.16625 1.97053e-17
4899.18778 1.97741e-17
4900.19929 1.96989e-17
4901.22082 1.98982e-17
4902.24235 2.00696e-17
4903.26388 1.98481e-17
4904.27540 1.97269e-17
4905.29692 1.98191e-17
4906.30844 1.98571e-17
4907.32997 1.99863e-17
4908.35150 1.99450e-17
4909.37303 2.01150e-17
4910.38454 2.04355e-17
4911.40608 2.03413e-17
4912.42760 2.02693e-17
4913.43912 2.03160e-17
4914.46065 2.03931e-17
4915.48218 2.02362e-17
4916.49370 2.02010e-17
4917.51523 2.03423e-17
4918.53676 2.04970e-17
4919.54827 2.05792e-17
4920.56980 2.07228e-17
4921.59133 2.06100e-17
4922.60284 2.04296e-17
4923.62438 2.05132e-17
4924.64591 2.04845e-17
4925.65742 2.04295e-17
4926.67895 2.05971e-17
4927.70048 2.07386e-17
4928.71200 2.07374e-17
4929.73353 2.08073e-17
4930.75506 2.10315e-17
4931.77659 2.07674e-17
4932.78810 2.08342e-17
4933.80963 2.10484e-17
4934.83116 2.08589e-17
4935.84267 2.09220e-17
4936.86421 2.09397e-17
4937.88573 2.07737e-17
4938.89725 2.07742e-17
4939.91878 2.09505e-17
4940.94031 2.10041e-17
4941.95183 2.10498e-17
4942.97336 2.10770e-17
4943.99489 2.11033e-17
4945.00640 2.10336e-17
4946.02793 2.08899e-17
4947.04946 2.09541e-17
4948.06098 2.08825e-17
4949.08251 2.08394e-17
4950.10404 2.07247e-17
4951.11555 2.05487e-17
4952.13708 2.05324e-17
4953.15861 2.03616e-17
4954.17013 2.03881e-17
4955.19166 2.03274e-17
4956.21319 2.00666e-17
4957.23472 2.00493e-17
4958.24623 2.00411e-17
4959.26776 2.00721e-17
4960.28929 2.01874e-17
4961.30080 2.00566e-17
4962.32234 1.97522e-17
4963.34386 1.96320e-17
4964.35538 1.96249e-17
4965.37691 1.95019e-17
4966.39844 1.94046e-17
4967.40996 1.94513e-17
4968.43149 1.93269e-17
4969.45302 1.89169e-17
4970.46453 1.87190e-17
4971.48606 1.87778e-17
4972.50759 1.86279e-17
4973.51911 1.85721e-17
4974.54064 1.84394e-17
4975.56217 1.81681e-17
4976.57368 1.79644e-17
4977.59521 1.77793e-17
4978.61674 1.77749e-17
4979.62826 1.78468e-17
4980.64978 1.77165e-17
4981.67132 1.74673e-17
4982.69284 1.73025e-17
4983.70436 1.73481e-17
4984.72589 1.73404e-17
4985.74742 1.71842e-17
4986.75893 1.71289e-17
4987.78047 1.69971e-17
4988.80199 1.69709e-17
4989.81351 1.69649e-17
4990.83504 1.70642e-17
4991.85657 1.70725e-17
4992.86809 1.68270e-17
4993.88962 1.66730e-17
4994.91115 1.66635e-17
4995.92266 1.67265e-17
4996.94419 1.67180e-17
4997.96572 1.67045e-17
4998.97724 1.67178e-17
4999.99877 1.64802e-17
5001.02030 1.64070e-17
5002.03181 1.65319e-17
5003.05334 1.65640e-17
5004.07487 1.66184e-17
5005.09640 1.64810e-17
5006.10791 1.64793e-17
5007.12945 1.65492e-17
5008.15097 1.62901e-17
5009.16249 1.61840e-17
5010.18402 1.61815e-17
5011.20555 1.62708e-17
5012.21707 1.61475e-17
5013.23859 1.60674e-17
5014.26013 1.61207e-17
5015.27164 1.61074e-17
5016.29317 1.62404e-17
5017.31470 1.62672e-17
5018.32622 1.61460e-17
5019.34775 1.61467e-17
5020.36928 1.62700e-17
5021.38079 1.62887e-17
5022.40232 1.63412e-17
5023.42385 1.64307e-17
5024.43537 1.63277e-17
5025.45690 1.63492e-17
5026.47843 1.63211e-17
5027.49996 1.64334e-17
5028.51147 1.65111e-17
5029.53300 1.64666e-17
5030.55453 1.65282e-17
5031.56604 1.66544e-17
5032.58758 1.67280e-17
5033.60910 1.66420e-17
5034.62062 1.64382e-17
5035.64215 1.65587e-17
5036.66368 1.68961e-17
5037.67520 1.69341e-17
5038.69672 1.67456e-17
5039.71826 1.66313e-17
5040.72977 1.67317e-17
5041.75130 1.67452e-17
5042.77283 1.64880e-17
5043.78435 1.66764e-17
5044.80588 1.68581e-17
5045.82741 1.66688e-17
5046.83892 1.68142e-17
5047.86045 1.67974e-17
5048.88198 1.70203e-17
5049.89350 1.71582e-17
5050.91503 1.69017e-17
5051.93656 1.68202e-17
5052.94807 1.68455e-17
5053.96960 1.69819e-17
5054.99113 1.68472e-17
5056.01266 1.68969e-17
5057.02418 1.71605e-17
5058.04571 1.70697e-17
5059.06724 1.70566e-17
5060.07875 1.71106e-17
5061.10028 1.71102e-17
5062.12181 1.71827e-17
5063.13333 1.73676e-17
5064.15485 1.74392e-17
5065.17639 1.75859e-17
5066.18790 1.77232e-17
5067.20943 1.75399e-17
5068.23096 1.75248e-17
5069.24248 1.75463e-17
5070.26400 1.75096e-17
5071.28553 1.76049e-17
5072.29705 1.77604e-17
5073.31858 1.78433e-17
5074.34011 1.78480e-17
5075.35163 1.78719e-17
5076.37316 1.79652e-17
5077.39469 1.79409e-17
5078.41622 1.77950e-17
5079.42773 1.79166e-17
5080.44926 1.81931e-17
5081.47079 1.82084e-17
5082.48231 1.82189e-17
5083.50384 1.81932e-17
5084.52537 1.83485e-17
5085.53688 1.82338e-17
5086.55841 1.84047e-17
5087.57994 1.83101e-17
5088.59146 1.81227e-17
5089.61298 1.82353e-17
5090.63452 1.83284e-17
5091.64603 1.82000e-17
5092.66756 1.80943e-17
5093.68909 1.82877e-17
5094.70060 1.85896e-17
5095.72214 1.85816e-17
5096.74366 1.83837e-17
5097.75518 1.83256e-17
5098.77671 1.82526e-17
5099.79824 1.83821e-17
5100.80976 1.86822e-17
5101.83129 1.87458e-17
5102.85282 1.85191e-17
5103.87435 1.85448e-17
5104.88586 1.85628e-17
5105.90739 1.87615e-17
5106.92892 1.88409e-17
5107.94044 1.86250e-17
5108.96197 1.85512e-17
5109.98350 1.86754e-17
5110.99501 1.86713e-17
5112.01654 1.85905e-17
5113.03807 1.86950e-17
5114.04959 1.87360e-17
5115.07111 1.86931e-17
5116.09265 1.86099e-17
5117.10416 1.86089e-17
5118.12569 1.86402e-17
5119.14722 1.85398e-17
5120.15873 1.85256e-17
5121.18027 1.85294e-17
5122.20179 1.83717e-17
5123.21331 1.83242e-17
5124.23484 1.82700e-17
5125.25637 1.82938e-17
5126.27790 1.84366e-17
5127.28942 1.83222e-17
5128.31095 1.80938e-17
5129.33248 1.80736e-17
5130.34399 1.82026e-17
5131.36552 1.82797e-17
5132.38705 1.83563e-17
5133.39857 1.84515e-17
5134.42009 1.83396e-17
5135.44163 1.82881e-17
5136.45314 1.82564e-17
5137.47467 1.82940e-17
5138.49620 1.83115e-17
5139.50772 1.83561e-17
5140.52925 1.83193e-17
5141.55078 1.83957e-17
5142.56229 1.85436e-17
5143.58382 1.85713e-17
5144.60535 1.85666e-17
5145.61686 1.85320e-17
5146.63840 1.85126e-17
5147.65992 1.85110e-17
5148.67144 1.85305e-17
5149.69297 1.84475e-17
5150.71450 1.84751e-17
5151.72602 1.85117e-17
5152.74755 1.85673e-17
5153.76908 1.86761e-17
5154.79061 1.86579e-17
5155.80212 1.86427e-17
5156.82365 1.86449e-17
5157.84518 1.87126e-17
5158.85670 1.87971e-17
5159.87822 1.89578e-17
5160.89976 1.90567e-17
5161.91127 1.89334e-17
5162.93280 1.88611e-17
5163.95433 1.88667e-17
5164.96584 1.89920e-17
5165.98738 1.89718e-17
5167.00891 1.89268e-17
5168.02042 1.90459e-17
5169.04195 1.92261e-17
5170.06348 1.93300e-17
5171.07499 1.94556e-17
5172.09653 1.94835e-17
5173.11805 1.94814e-17
5174.12957 1.95165e-17
5175.15110 1.94030e-17
5176.17263 1.92130e-17
5177.19416 1.92871e-17
5178.20568 1.94945e-17
5179.22721 1.96033e-17
5180.24874 1.96626e-17
5181.26025 1.95961e-17
5182.28178 1.97049e-17
5183.30331 1.98501e-17
5184.31483 1.98453e-17
5185.33636 1.98144e-17
5186.35789 1.98358e-17
5187.36940 1.98954e-17
5188.39093 1.99582e-17
5189.41246 1.99816e-17
5190.42397 2.00586e-17
5191.44551 2.00837e-17
5192.46703 1.99688e-17
5193.47855 1.98453e-17
5194.50008 1.98422e-17
5195.52161 1.99737e-17
5196.53312 2.00699e-17
5197.55466 2.02265e-17
5198.57618 2.03990e-17
5199.59772 2.04618e-17
5200.60923 2.05751e-17
5201.63076 2.07283e-17
5202.64228 2.07064e-17
5203.66381 2.05921e-17
5204.68534 2.07226e-17
5205.70687 2.08787e-17
5206.71838 2.08365e-17
5207.73991 2.08207e-17
5208.76144 2.09235e-17
5209.77296 2.09759e-17
5210.79449 2.09820e-17
5211.81602 2.09439e-17
5212.82753 2.08735e-17
5213.84906 2.10309e-17
5214.87059 2.11736e-17
5215.88210 2.11913e-17
5216.90364 2.12260e-17
5217.92516 2.10569e-17
5218.93668 2.11243e-17
5219.95821 2.13712e-17
5220.97974 2.13846e-17
5221.99126 2.13528e-17
5223.01278 2.14918e-17
5224.03431 2.15572e-17
5225.05584 2.15669e-17
5226.06736 2.16919e-17
5227.08889 2.17074e-17
5228.11042 2.15998e-17
5229.12194 2.16279e-17
5230.14347 2.17768e-17
5231.16500 2.18071e-17
5232.17651 2.17603e-17
5233.19804 2.18017e-17
5234.21957 2.18929e-17
5235.23109 2.19162e-17
5236.25262 2.20458e-17
5237.27415 2.22535e-17
5238.28566 2.23391e-17
5239.30719 2.22916e-17
5240.32872 2.23858e-17
5241.34023 2.24795e-17
5242.36177 2.23846e-17
5243.38329 2.24560e-17
5244.39481 2.25825e-17
5245.41634 2.26142e-17
5246.43787 2.23946e-17
5247.44939 2.21301e-17
5248.47091 2.22016e-17
5249.49245 2.24315e-17
5250.51397 2.23479e-17
5251.52549 2.25173e-17
5252.54702 2.28911e-17
5253.56855 2.28032e-17
5254.58007 2.25225e-17
5255.60160 2.25812e-17
5256.62313 2.26174e-17
5257.63464 2.25615e-17
5258.65617 2.25754e-17
5259.67770 2.23500e-17
5260.68922 2.23226e-17
5261.71075 2.22572e-17
5262.73228 2.22943e-17
5263.74379 2.24280e-17
5264.76532 2.26480e-17
5265.78685 2.27522e-17
5266.79837 2.26699e-17
5267.81990 2.27031e-17
5268.84143 2.27994e-17
5269.85294 2.27847e-17
5270.87447 2.27433e-17
5271.89600 2.27369e-17
5272.91753 2.27142e-17
5273.92904 2.26100e-17
5274.95058 2.24430e-17
5275.96209 2.22741e-17
5276.98362 2.22920e-17
5278.00515 2.25867e-17
5279.02668 2.26901e-17
5280.03820 2.26695e-17
5281.05973 2.26422e-17
5282.08126 2.23796e-17
5283.09277 2.23818e-17
5284.11430 2.25101e-17
5285.13583 2.24561e-17
5286.14735 2.24991e-17
5287.16888 2.25995e-17
5288.19041 2.25938e-17
5289.20192 2.25341e-17
5290.22345 2.24442e-17
5291.24498 2.24113e-17
5292.25650 2.23615e-17
5293.27803 2.23434e-17
5294.29956 2.24461e-17
5295.31107 2.22984e-17
5296.33260 2.22984e-17
5297.35413 2.23493e-17
5298.37566 2.22154e-17
5299.38717 2.24233e-17
5300.40871 2.26776e-17
5301.43023 2.25297e-17
5302.44175 2.24115e-17
5303.46328 2.23379e-17
5304.48481 2.22508e-17
5305.49633 2.23025e-17
5306.51786 2.22295e-17
5307.53939 2.20609e-17
5308.55090 2.19942e-17
5309.57243 2.21541e-17
5310.59396 2.20319e-17
5311.60548 2.20076e-17
5312.62701 2.21067e-17
5313.64854 2.21704e-17
5314.66005 2.21986e-17
5315.68158 2.22514e-17
5316.70311 2.22525e-17
5317.71463 2.21207e-17
5318.73616 2.20433e-17
5319.75769 2.19108e-17
5320.76920 2.16820e-17
5321.79073 2.18182e-17
5322.81226 2.21004e-17
5323.83379 2.21249e-17
5324.84530 2.21813e-17
5325.86684 2.20534e-17
5326.88836 2.18354e-17
5327.89988 2.17972e-17
5328.92141 2.17913e-17
5329.94294 2.17768e-17
5330.95446 2.17404e-17
5331.97599 2.18095e-17
5332.99752 2.17905e-17
5334.00903 2.16229e-17
5335.03056 2.17895e-17
5336.05209 2.16597e-17
5337.06361 2.16090e-17
5338.08514 2.17155e-17
5339.10667 2.16502e-17
5340.11818 2.16163e-17
5341.13971 2.14162e-17
5342.16124 2.13292e-17
5343.17276 2.16079e-17
5344.19428 2.17659e-17
5345.21582 2.17305e-17
5346.23734 2.16079e-17
5347.24886 2.14200e-17
5348.27039 2.13669e-17
5349.28191 2.13431e-17
5350.30344 2.15083e-17
5351.32497 2.16978e-17
5352.34649 2.17275e-17
5353.35801 2.17436e-17
5354.37954 2.16446e-17
5355.40107 2.14649e-17
5356.41259 2.15188e-17
5357.43412 2.14895e-17
5358.45565 2.12873e-17
5359.46716 2.13429e-17
5360.48869 2.13695e-17
5361.51022 2.12861e-17
5362.52174 2.13059e-17
5363.54327 2.11838e-17
5364.56480 2.11901e-17
5365.57631 2.11346e-17
5366.59784 2.11870e-17
5367.61937 2.13525e-17
5368.63089 2.12773e-17
5369.65241 2.10793e-17
5370.67395 2.11856e-17
5371.69547 2.10930e-17
5372.70699 2.07941e-17
5373.72852 2.07734e-17
5374.75005 2.08370e-17
5375.76157 2.09296e-17
5376.78309 2.10949e-17
5377.80463 2.11156e-17
5378.81614 2.12341e-17
5379.83767 2.11197e-17
5380.85920 2.06867e-17
5381.87072 2.07181e-17
5382.89225 2.07750e-17
5383.91378 2.07832e-17
5384.92529 2.07872e-17
5385.94682 2.08303e-17
5386.96835 2.08459e-17
5387.97987 2.08296e-17
5389.00140 2.09170e-17
5390.02293 2.09091e-17
5391.03444 2.07879e-17
5392.05597 2.07734e-17
5393.07750 2.07443e-17
5394.08902 2.08583e-17
5395.11055 2.07775e-17
5396.13208 2.03533e-17
5397.14359 2.02219e-17
5398.16512 2.06176e-17
5399.18665 2.06357e-17
5400.20818 2.06536e-17
5401.21970 2.06299e-17
5402.24122 2.05536e-17
5403.26276 2.06246e-17
5404.27427 2.06619e-17
5405.29580 2.05745e-17
5406.31733 2.05396e-17
5407.32885 2.05205e-17
5408.35037 2.05369e-17
5409.37191 2.05983e-17
5410.38342 2.06364e-17
5411.40495 2.05354e-17
5412.42648 2.03657e-17
5413.43800 2.04580e-17
5414.45953 2.06287e-17
5415.48106 2.05066e-17
5416.49257 2.03761e-17
5417.51410 2.03344e-17
5418.53563 2.02388e-17
5419.54715 2.00993e-17
5420.56868 1.99246e-17
5421.59021 1.99901e-17
5422.61174 2.00724e-17
5423.62325 1.99493e-17
5424.64478 1.98760e-17
5425.66631 1.99200e-17
5426.67783 1.99587e-17
5427.69935 1.99018e-17
5428.72089 1.97461e-17
5429.73240 1.97209e-17
5430.75393 1.97534e-17
5431.77546 1.96299e-17
5432.78697 1.95906e-17
5433.80850 1.96829e-17
5434.83003 1.96208e-17
5435.84155 1.94909e-17
5436.86308 1.94359e-17
5437.88461 1.95096e-17
5438.89613 1.95175e-17
5439.91766 1.94285e-17
5440.93919 1.94169e-17
5441.95070 1.94349e-17
5442.97223 1.94105e-17
5443.99376 1.94310e-17
5445.00528 1.94711e-17
5446.02681 1.95084e-17
5447.04834 1.95071e-17
5448.05985 1.94025e-17
5449.08138 1.93092e-17
5450.10291 1.92509e-17
5451.12444 1.91635e-17
5452.13596 1.90389e-17
5453.15748 1.89992e-17
5454.17902 1.89973e-17
5455.19053 1.89363e-17
5456.21206 1.89378e-17
5457.23359 1.89435e-17
5458.24510 1.89129e-17
5459.26664 1.89112e-17
5460.28816 1.88085e-17
5461.29968 1.86995e-17
5462.32121 1.87963e-17
5463.34274 1.88568e-17
5464.35426 1.87405e-17
5465.37579 1.86591e-17
5466.39732 1.87341e-17
5467.40883 1.86620e-17
5468.43036 1.85544e-17
5469.45189 1.85576e-17
5470.46341 1.84999e-17
5471.48494 1.83786e-17
5472.50647 1.82891e-17
5473.52800 1.82453e-17
5474.53951 1.82542e-17
5475.56104 1.82176e-17
5476.58257 1.81805e-17
5477.59409 1.81745e-17
5478.61562 1.80432e-17
5479.63715 1.80957e-17
5480.64866 1.81756e-17
5481.67019 1.81287e-17
5482.69172 1.81032e-17
5483.70323 1.81211e-17
5484.72477 1.80554e-17
5485.74629 1.79506e-17
5486.75781 1.79879e-17
5487.77934 1.81047e-17
5488.80087 1.80926e-17
5489.81239 1.80490e-17
5490.83392 1.80666e-17
5491.85545 1.80304e-17
5492.86696 1.79898e-17
5493.88849 1.79150e-17
5494.91002 1.79503e-17
5495.93155 1.79466e-17
5496.94307 1.78604e-17
5497.96459 1.78172e-17
5498.98613 1.77795e-17
5499.99764 1.79802e-17
5501.01917 1.79864e-17
5502.04070 1.79883e-17
5503.05222 1.79840e-17
5504.07375 1.79711e-17
5505.09528 1.79473e-17
5506.10679 1.79052e-17
5507.12832 1.78535e-17
5508.14985 1.78002e-17
5509.16136 1.77510e-17
5510.18290 1.77150e-17
5511.20442 1.76983e-17
5512.21594 1.76948e-17
5513.23747 1.77030e-17
5514.25900 1.77214e-17
5515.27052 1.77469e-17
5516.29205 1.77775e-17
5517.31358 1.78106e-17
5518.32509 1.78438e-17
5519.34662 1.78739e-17
5520.36815 1.78985e-17
5521.38968 1.79164e-17
5522.40120 1.79264e-17
5523.42273 1.79275e-17
5524.44426 1.79165e-17
5525.45577 1.78972e-17
5526.47730 1.78725e-17
5527.49883 1.78451e-17
5528.51034 1.78189e-17
5529.53188 1.77968e-17
5530.55341 1.77750e-17
5531.56492 1.77525e-17
5532.58645 1.77285e-17
5533.60798 1.77001e-17
5534.61949 1.76694e-17
5535.64103 1.76376e-17
5536.66255 1.76059e-17
5537.67407 1.75752e-17
5538.69560 1.75466e-17
5539.71713 1.75212e-17
5540.72865 1.74997e-17
5541.75018 1.74832e-17
5542.77171 1.74725e-17
5543.78322 1.74680e-17
5544.80475 1.74700e-17
5545.82628 1.74786e-17
5546.84781 1.74941e-17
5547.85933 1.75161e-17
5548.88086 1.75419e-17
5549.90239 1.75695e-17
5550.91390 1.75972e-17
5551.93543 1.76230e-17
5552.95696 1.76446e-17
5553.96847 1.76603e-17
5554.99001 1.76684e-17
5556.01153 1.76668e-17
5557.02305 1.76545e-17
5558.04458 1.76344e-17
5559.06611 1.76081e-17
5560.07762 1.75774e-17
5561.09916 1.75435e-17
5562.12068 1.75099e-17
5563.13220 1.74793e-17
5564.15373 1.74539e-17
5565.17526 1.74380e-17
5566.18678 1.74330e-17
5567.20831 1.74336e-17
5568.22984 1.74376e-17
5569.25137 1.74424e-17
5570.26288 1.74446e-17
5571.28441 1.74425e-17
5572.30594 1.74339e-17
5573.31746 1.74175e-17
5574.33899 1.73894e-17
5575.36052 1.73494e-17
5576.37203 1.73042e-17
5577.39356 1.72576e-17
5578.41509 1.72137e-17
5579.42660 1.71795e-17
5580.44814 1.71520e-17
5581.46966 1.71293e-17
5582.48118 1.71104e-17
5583.50271 1.70938e-17
5584.52424 1.70778e-17
5585.53576 1.70613e-17
5586.55728 1.70431e-17
5587.57882 1.70216e-17
5588.59033 1.69938e-17
5589.61186 1.69622e-17
5590.63339 1.69280e-17
5591.64491 1.68922e-17
5592.66644 1.68571e-17
5593.68797 1.68233e-17
5594.70950 1.67884e-17
5595.72101 1.67512e-17
5596.74254 1.67110e-17
5597.76407 1.66662e-17
5598.77559 1.66171e-17
5599.79712 1.65638e-17
5600.81865 1.65065e-17
5601.83016 1.64448e-17
5602.85169 1.63795e-17
5603.87322 1.63137e-17
5604.88474 1.62493e-17
5605.90627 1.61884e-17
5606.92780 1.61336e-17
5607.93931 1.60856e-17
5608.96084 1.60452e-17
5609.98237 1.60132e-17
5610.99389 1.59910e-17
5612.01541 1.59785e-17
5613.03695 1.59727e-17
5614.04846 1.59721e-17
5615.06999 1.59747e-17
5616.09152 1.59769e-17
5617.10304 1.59804e-17
5618.12457 1.59864e-17
5619.14610 1.59950e-17
5620.16763 1.60075e-17
5621.17914 1.60239e-17
5622.20067 1.60423e-17
5623.22220 1.60615e-17
5624.23372 1.60807e-17
5625.25525 1.60994e-17
5626.27678 1.61153e-17
5627.28829 1.61268e-17
5628.30982 1.61324e-17
5629.33135 1.61290e-17
5630.34287 1.61165e-17
5631.36440 1.61002e-17
5632.38593 1.60820e-17
5633.39744 1.60649e-17
5634.41897 1.60543e-17
5635.44050 1.60464e-17
5636.45202 1.60392e-17
5637.47354 1.60313e-17
5638.49508 1.60203e-17
5639.50659 1.60051e-17
5640.52812 1.59873e-17
5641.54965 1.59670e-17
5642.57118 1.59443e-17
5643.58270 1.59195e-17
5644.60423 1.58935e-17
5645.62576 1.58671e-17
5646.63727 1.58410e-17
5647.65880 1.58161e-17
5648.68033 1.57928e-17
5649.69185 1.57716e-17
5650.71338 1.57525e-17
5651.73491 1.57361e-17
5652.74642 1.57235e-17
5653.76795 1.57116e-17
5654.78948 1.56985e-17
5655.80100 1.56825e-17
5656.82253 1.56606e-17
5657.84406 1.56321e-17
5658.85557 1.55995e-17
5659.87710 1.55636e-17
5660.89863 1.55255e-17
5661.91015 1.54861e-17
5662.93167 1.54476e-17
5663.95321 1.54113e-17
5664.96472 1.53787e-17
5665.98625 1.53526e-17
5667.00778 1.53329e-17
5668.02931 1.53168e-17
5669.04083 1.53028e-17
5670.06236 1.52891e-17
5671.08389 1.52736e-17
5672.09540 1.52558e-17
5673.11693 1.52352e-17
5674.13846 1.52111e-17
5675.14998 1.51813e-17
5676.17151 1.51469e-17
5677.19304 1.51125e-17
5678.20455 1.50806e-17
5679.22608 1.50543e-17
5680.24761 1.50399e-17
5681.25913 1.50306e-17
5682.28066 1.50230e-17
5683.30219 1.50146e-17
5684.31370 1.49988e-17
5685.33523 1.49758e-17
5686.35676 1.49518e-17
5687.36828 1.49292e-17
5688.38980 1.49110e-17
5689.41134 1.49025e-17
5690.42285 1.48993e-17
5691.44438 1.48990e-17
5692.46591 1.49000e-17
5693.48744 1.49004e-17
5694.49896 1.48982e-17
5695.52049 1.48916e-17
5696.54202 1.48794e-17
5697.55353 1.48596e-17
5698.57506 1.48284e-17
5699.59659 1.47928e-17
5700.60811 1.47566e-17
5701.62964 1.47236e-17
5702.65117 1.46994e-17
5703.66268 1.46856e-17
5704.68421 1.46804e-17
5705.70574 1.46836e-17
5706.71726 1.46946e-17
5707.73878 1.47129e-17
5708.76032 1.47352e-17
5709.77183 1.47584e-17
5710.79336 1.47794e-17
5711.81489 1.47960e-17
5712.82641 1.48050e-17
5713.84794 1.48031e-17
5714.86947 1.47883e-17
5715.88098 1.47576e-17
5716.90251 1.47057e-17
5717.92404 1.46436e-17
5718.94557 1.45779e-17
5719.95709 1.45148e-17
5720.97861 1.44637e-17
5722.00015 1.44278e-17
5723.01166 1.44061e-17
5724.03319 1.43995e-17
5725.05472 1.44090e-17
5726.06624 1.44362e-17
5727.08777 1.44745e-17
5728.10930 1.45193e-17
5729.12081 1.45662e-17
5730.14234 1.46080e-17
5731.16387 1.46426e-17
5732.17539 1.46705e-17
5733.19692 1.46908e-17
5734.21845 1.47028e-17
5735.22996 1.47063e-17
5736.25149 1.47021e-17
5737.27302 1.46912e-17
5738.28453 1.46748e-17
5739.30607 1.46540e-17
5740.32759 1.46309e-17
5741.34913 1.46080e-17
5742.36064 1.45875e-17
5743.38217 1.45714e-17
5744.40370 1.45621e-17
5745.41522 1.45603e-17
5746.43674 1.45672e-17
5747.45828 1.45831e-17
5748.46979 1.46106e-17
5749.49132 1.46472e-17
5750.51285 1.46884e-17
5751.52437 1.47310e-17
5752.54590 1.47716e-17
5753.56743 1.48054e-17
5754.57894 1.48342e-17
5755.60047 1.48581e-17
5756.62200 1.48773e-17
5757.63352 1.48915e-17
5758.65505 1.49023e-17
5759.67658 1.49119e-17
5760.68809 1.49222e-17
5761.70962 1.49356e-17
5762.73115 1.49557e-17
5763.74266 1.49784e-17
5764.76420 1.50025e-17
5765.78572 1.50266e-17
5766.80726 1.50474e-17
5767.81877 1.50655e-17
5768.84030 1.50828e-17
5769.86183 1.51002e-17
5770.87334 1.51185e-17
5771.89487 1.51387e-17
5772.91641 1.51614e-17
5773.92792 1.51871e-17
5774.94945 1.52163e-17
5775.97098 1.52508e-17
5776.98250 1.52892e-17
5778.00403 1.53287e-17
5779.02556 1.53678e-17
5780.03707 1.54043e-17
5781.05860 1.54349e-17
5782.08013 1.54637e-17
5783.09165 1.54921e-17
5784.11318 1.55216e-17
5785.13471 1.55555e-17
5786.14622 1.55929e-17
5787.16775 1.56321e-17
5788.18928 1.56721e-17
5789.20079 1.57118e-17
5790.22233 1.57496e-17
5791.24385 1.57853e-17
5792.26539 1.58180e-17
5793.27690 1.58470e-17
5794.29843 1.58721e-17
5795.31996 1.58922e-17
5796.33147 1.59064e-17
5797.35301 1.59139e-17
5798.37453 1.59138e-17
5799.38605 1.59047e-17
5800.40758 1.58917e-17
5801.42911 1.58772e-17
5802.44063 1.58642e-17
5803.46216 1.58573e-17
5804.48369 1.58563e-17
5805.49520 1.58604e-17
5806.51673 1.58694e-17
5807.53826 1.58828e-17
5808.54978 1.59009e-17
5809.57131 1.59200e-17
5810.59284 1.59379e-17
5811.60435 1.59525e-17
5812.62588 1.59588e-17
5813.64741 1.59587e-17
5814.66894 1.59553e-17
5815.68046 1.59505e-17
5816.70198 1.59467e-17
5817.72352 1.59463e-17
5818.73503 1.59487e-17
5819.75656 1.59542e-17
5820.77809 1.59628e-17
5821.78960 1.59753e-17
5822.81114 1.59902e-17
5823.83266 1.60058e-17
5824.84418 1.60206e-17
5825.86571 1.60331e-17
5826.88724 1.60422e-17
5827.89876 1.60458e-17
5828.92029 1.60427e-17
5829.94182 1.60322e-17
5830.95333 1.60102e-17
5831.97486 1.59808e-17
5832.99639 1.59494e-17
5834.00791 1.59196e-17
5835.02944 1.58961e-17
5836.05097 1.58840e-17
5837.06248 1.58804e-17
5838.08401 1.58849e-17
5839.10554 1.58969e-17
5840.12707 1.59162e-17
5841.13859 1.59405e-17
5842.16012 1.59673e-17
5843.18165 1.59940e-17
5844.19316 1.60180e-17
5845.21469 1.60359e-17
5846.23622 1.60500e-17
5847.24773 1.60608e-17
5848.26927 1.60689e-17
5849.29079 1.60752e-17
5850.30231 1.60803e-17
5851.32384 1.60843e-17
5852.34537 1.60877e-17
5853.35689 1.60915e-17
5854.37842 1.60966e-17
5855.39995 1.61003e-17
5856.41146 1.61011e-17
5857.43299 1.60983e-17
5858.45452 1.60887e-17
5859.46604 1.60740e-17
5860.48757 1.60563e-17
5861.50910 1.60369e-17
5862.52061 1.60166e-17
5863.54214 1.59959e-17
5864.56367 1.59801e-17
5865.58520 1.59720e-17
5866.59672 1.59738e-17
5867.61825 1.59956e-17
5868.63978 1.60278e-17
5869.65129 1.60595e-17
5870.67282 1.60840e-17
5871.69435 1.60907e-17
5872.70586 1.60701e-17
5873.72740 1.60339e-17
5874.74892 1.59863e-17
5875.76044 1.59316e-17
5876.78197 1.58756e-17
5877.80350 1.58225e-17
5878.81502 1.57762e-17
5879.83655 1.57407e-17
5880.85808 1.57222e-17
5881.86959 1.57260e-17
5882.89112 1.57390e-17
5883.91265 1.57559e-17
5884.92417 1.57705e-17
5885.94570 1.57697e-17
5886.96723 1.57586e-17
5887.98876 1.57431e-17
5889.00027 1.57260e-17
5890.02180 1.57116e-17
5891.04333 1.57042e-17
5892.05484 1.57034e-17
5893.07638 1.57110e-17
5894.09791 1.57280e-17
5895.10942 1.57580e-17
5896.13095 1.57970e-17
5897.15248 1.58406e-17
5898.16399 1.58857e-17
5899.18553 1.59280e-17
5900.20705 1.59637e-17
5901.21857 1.59926e-17
5902.24010 1.60134e-17
5903.26163 1.60250e-17
5904.27315 1.60240e-17
5905.29468 1.60145e-17
5906.31621 1.60004e-17
5907.32772 1.59846e-17
5908.34925 1.59719e-17
5909.37078 1.59658e-17
5910.38230 1.59619e-17
5911.40383 1.59589e-17
5912.42536 1.59552e-17
5913.43687 1.59489e-17
5914.45840 1.59392e-17
5915.47993 1.59252e-17
5916.50146 1.59062e-17
5917.51297 1.58800e-17
5918.53451 1.58455e-17
5919.55603 1.58103e-17
5920.56755 1.57783e-17
5921.58908 1.57529e-17
5922.61061 1.57432e-17
5923.62213 1.57437e-17
5924.64366 1.57500e-17
5925.66519 1.57589e-17
5926.67670 1.57662e-17
5927.69823 1.57684e-17
5928.71976 1.57649e-17
5929.73128 1.57544e-17
5930.75281 1.57357e-17
5931.77434 1.57047e-17
5932.78585 1.56663e-17
5933.80738 1.56247e-17
5934.82891 1.55834e-17
5935.84043 1.55477e-17
5936.86196 1.55213e-17
5937.88349 1.55004e-17
5938.90502 1.54840e-17
5939.91653 1.54712e-17
5940.93806 1.54586e-17
5941.95959 1.54476e-17
5942.97110 1.54389e-17
5943.99264 1.54321e-17
5945.01416 1.54290e-17
5946.02568 1.54295e-17
5947.04721 1.54265e-17
5948.06874 1.54161e-17
5949.08026 1.53947e-17
5950.10178 1.53533e-17
5951.12332 1.52991e-17
5952.13483 1.52381e-17
5953.15636 1.51745e-17
5954.17789 1.51148e-17
5955.18941 1.50641e-17
5956.21094 1.50189e-17
5957.23247 1.49794e-17
5958.24398 1.49453e-17
5959.26551 1.49171e-17
5960.28704 1.48926e-17
5961.29856 1.48697e-17
5962.32009 1.48470e-17
5963.34162 1.48206e-17
5964.36315 1.47887e-17
5965.37466 1.47579e-17
5966.39619 1.47306e-17
5967.41772 1.47099e-17
5968.42924 1.47028e-17
5969.45077 1.47034e-17
5970.47230 1.47073e-17
5971.48381 1.47112e-17
5972.50534 1.47105e-17
5973.52687 1.47021e-17
5974.53839 1.46884e-17
5975.55991 1.46701e-17
5976.58145 1.46474e-17
5977.59296 1.46195e-17
5978.61449 1.45910e-17
5979.63602 1.45655e-17
5980.64754 1.45463e-17
5981.66907 1.45388e-17
5982.69060 1.45454e-17
5983.70211 1.45589e-17
5984.72364 1.45764e-17
5985.74517 1.45943e-17
5986.75669 1.46073e-17
5987.77822 1.46156e-17
5988.79975 1.46193e-17
5989.82128 1.46174e-17
5990.83279 1.46085e-17
5991.85432 1.45929e-17
5992.87585 1.45754e-17
5993.88737 1.45589e-17
5994.90890 1.45463e-17
5995.93043 1.45452e-17
5996.94194 1.45496e-17
5997.96347 1.45552e-17
5998.98500 1.45596e-17
5999.99652 1.45558e-17
6001.01804 1.45420e-17
6002.03958 1.45281e-17
6003.05109 1.45178e-17
6004.07262 1.45155e-17
6005.09415 1.45311e-17
6006.10567 1.45565e-17
6007.12720 1.45860e-17
6008.14873 1.46157e-17
6009.16024 1.46393e-17
6010.18177 1.46530e-17
6011.20330 1.46594e-17
6012.21482 1.46580e-17
6013.23635 1.46488e-17
6014.25788 1.46312e-17
6015.27941 1.46080e-17
6016.29092 1.45819e-17
6017.31245 1.45550e-17
6018.33398 1.45314e-17
6019.34550 1.45127e-17
6020.36703 1.44954e-17
6021.38856 1.44787e-17
6022.40007 1.44614e-17
6023.42160 1.44405e-17
6024.44313 1.44183e-17
6025.45465 1.43960e-17
6026.47617 1.43745e-17
6027.49771 1.43553e-17
6028.50922 1.43390e-17
6029.53075 1.43255e-17
6030.55228 1.43149e-17
6031.56380 1.43073e-17
6032.58533 1.43027e-17
6033.60685 1.43010e-17
6034.61837 1.43018e-17
6035.63990 1.43046e-17
6036.66143 1.43092e-17
6037.68296 1.43150e-17
6038.69448 1.43208e-17
6039.71601 1.43253e-17
6040.73754 1.43279e-17
6041.74905 1.43270e-17
6042.77058 1.43232e-17
6043.79211 1.43170e-17
6044.80363 1.43088e-17
6045.82516 1.42988e-17
6046.84669 1.42876e-17
6047.85820 1.42769e-17
6048.87973 1.42678e-17
6049.90126 1.42611e-17
6050.91278 1.42579e-17
6051.93431 1.42588e-17
6052.95584 1.42644e-17
6053.96735 1.42744e-17
6054.98888 1.42918e-17
6056.01041 1.43149e-17
6057.02193 1.43360e-17
6058.04346 1.43511e-17
6059.06498 1.43554e-17
6060.07650 1.43397e-17
6061.09803 1.43127e-17
6062.11956 1.42800e-17
6063.14109 1.42456e-17
6064.15261 1.42169e-17
6065.17414 1.41968e-17
6066.19567 1.41831e-17
6067.20718 1.41762e-17
6068.22871 1.41764e-17
6069.25024 1.41845e-17
6070.26176 1.41973e-17
6071.28328 1.42126e-17
6072.30482 1.42283e-17
6073.31633 1.42383e-17
6074.33786 1.42425e-17
6075.35939 1.42494e-17
6076.37091 1.42619e-17
6077.39244 1.42845e-17
6078.41397 1.43287e-17
6079.42548 1.43781e-17
6080.44701 1.44230e-17
6081.46854 1.44559e-17
6082.48005 1.44614e-17
6083.50159 1.44374e-17
6084.52311 1.43965e-17
6085.53463 1.43434e-17
6086.55616 1.42842e-17
6087.57769 1.42277e-17
6088.59922 1.41740e-17
6089.61074 1.41247e-17
6090.63227 1.40818e-17
6091.65380 1.40494e-17
6092.66531 1.40267e-17
6093.68684 1.40095e-17
6094.70837 1.39951e-17
6095.71989 1.39802e-17
6096.74142 1.39598e-17
6097.76295 1.39357e-17
6098.77446 1.39078e-17
6099.79599 1.38761e-17
6100.81752 1.38414e-17
6101.82903 1.38033e-17
6102.85057 1.37609e-17
6103.87209 1.37138e-17
6104.88361 1.36618e-17
6105.90514 1.36025e-17
6106.92667 1.35412e-17
6107.93818 1.34810e-17
6108.95972 1.34244e-17
6109.98124 1.33769e-17
6111.00278 1.33385e-17
6112.01429 1.33041e-17
6113.03582 1.32715e-17
6114.05735 1.32381e-17
6115.06887 1.32015e-17
6116.09040 1.31597e-17
6117.11193 1.31108e-17
6118.12344 1.30540e-17
6119.14497 1.29847e-17
6120.16650 1.29061e-17
6121.17802 1.28267e-17
6122.19955 1.27522e-17
6123.22108 1.26883e-17
6124.23259 1.26402e-17
6125.25412 1.26134e-17
6126.27565 1.26119e-17
6127.28716 1.26385e-17
6128.30870 1.27044e-17
6129.33022 1.28027e-17
6130.34174 1.29133e-17
6131.36327 1.30248e-17
6132.38480 1.31225e-17
6133.39631 1.31866e-17
6134.41784 1.32258e-17
6135.43937 1.32419e-17
6136.46091 1.32366e-17
6137.47242 1.32122e-17
6138.49395 1.31723e-17
6139.51548 1.31213e-17
6140.52700 1.30638e-17
6141.54853 1.30050e-17
6142.57006 1.29531e-17
6143.58157 1.29027e-17
6144.60310 1.28522e-17
6145.62463 1.28003e-17
6146.63615 1.27428e-17
6147.65768 1.26805e-17
6148.67921 1.26171e-17
6149.69072 1.25540e-17
6150.71225 1.24929e-17
6151.73378 1.24363e-17
6152.74529 1.23835e-17
6153.76683 1.23346e-17
6154.78835 1.22895e-17
6155.79987 1.22491e-17
6156.82140 1.22124e-17
6157.84293 1.21779e-17
6158.85445 1.21445e-17
6159.87597 1.21108e-17
6160.89751 1.20747e-17
6161.91903 1.20381e-17
6162.93055 1.20015e-17
6163.95208 1.19656e-17
6164.97361 1.19322e-17
6165.98513 1.19007e-17
6167.00666 1.18694e-17
6168.02819 1.18377e-17
6169.03970 1.18047e-17
6170.06123 1.17683e-17
6171.08276 1.17311e-17
6172.09428 1.16938e-17
6173.11581 1.16573e-17
6174.13734 1.16239e-17
6175.14885 1.15931e-17
6176.17038 1.15628e-17
6177.19191 1.15323e-17
6178.20343 1.15000e-17
6179.22496 1.14643e-17
6180.24649 1.14275e-17
6181.25800 1.13913e-17
6182.27953 1.13568e-17
6183.30106 1.13259e-17
6184.32259 1.12990e-17
6185.33410 1.12759e-17
6186.35564 1.12565e-17
6187.37716 1.12411e-17
6188.38868 1.12300e-17
6189.41021 1.12208e-17
6190.43174 1.12117e-17
6191.44326 1.12015e-17
6192.46479 1.11874e-17
6193.48632 1.11695e-17
6194.49783 1.11488e-17
6195.51936 1.11259e-17
6196.54089 1.11012e-17
6197.55241 1.10751e-17
6198.57394 1.10499e-17
6199.59547 1.10271e-17
6200.60698 1.10080e-17
6201.62851 1.09957e-17
6202.65004 1.09893e-17
6203.66156 1.09868e-17
6204.68309 1.09873e-17
6205.70462 1.09891e-17
6206.71613 1.09910e-17
6207.73766 1.09916e-17
6208.75919 1.09898e-17
6209.78072 1.09844e-17
6210.79223 1.09729e-17
6211.81377 1.09564e-17
6212.83529 1.09372e-17
6213.84681 1.09167e-17
6214.86834 1.08969e-17
6215.88987 1.08798e-17
6216.90139 1.08646e-17
6217.92292 1.08508e-17
6218.94445 1.08386e-17
6219.95596 1.08277e-17
6220.97749 1.08179e-17
6221.99902 1.08093e-17
6223.01054 1.08017e-17
6224.03207 1.07947e-17
6225.05360 1.07877e-17
6226.06511 1.07826e-17
6227.08664 1.07802e-17
6228.10817 1.07815e-17
6229.11969 1.07891e-17
6230.14122 1.08011e-17
6231.16275 1.08143e-17
6232.17426 1.08268e-17
6233.19579 1.08359e-17
6234.21732 1.08388e-17
6235.23885 1.08375e-17
6236.25036 1.08327e-17
6237.27190 1.08246e-17
6238.29342 1.08140e-17
6239.30494 1.08019e-17
6240.32647 1.07897e-17
6241.34800 1.07787e-17
6242.35952 1.07702e-17
6243.38105 1.07667e-17
6244.40258 1.07644e-17
6245.41409 1.07619e-17
6246.43562 1.07574e-17
6247.45715 1.07479e-17
6248.46867 1.07341e-17
6249.49020 1.07174e-17
6250.51173 1.06986e-17
6251.52324 1.06784e-17
6252.54477 1.06582e-17
6253.56630 1.06385e-17
6254.57782 1.06205e-17
6255.59934 1.06048e-17
6256.62088 1.05929e-17
6257.64241 1.05845e-17
6258.65392 1.05793e-17
6259.67545 1.05770e-17
6260.69698 1.05771e-17
6261.70849 1.05795e-17
6262.73003 1.05822e-17
6263.75155 1.05844e-17
6264.76307 1.05845e-17
6265.78460 1.05813e-17
6266.80613 1.05744e-17
6267.81765 1.05633e-17
6268.83918 1.05483e-17
6269.86071 1.05287e-17
6270.87222 1.05041e-17
6271.89375 1.04785e-17
6272.91528 1.04542e-17
6273.92680 1.04335e-17
6274.94833 1.04204e-17
6275.96986 1.04147e-17
6276.98137 1.04157e-17
6278.00290 1.04231e-17
6279.02443 1.04367e-17
6280.03595 1.04559e-17
6281.05747 1.04787e-17
6282.07901 1.05034e-17
6283.10053 1.05285e-17
6284.11205 1.05513e-17
6285.13358 1.05718e-17
6286.15511 1.05896e-17
6287.16663 1.06048e-17
6288.18816 1.06170e-17
6289.20969 1.06257e-17
6290.22120 1.06337e-17
6291.24273 1.06424e-17
6292.26426 1.06533e-17
6293.27578 1.06697e-17
6294.29731 1.06904e-17
6295.31884 1.07141e-17
6296.33035 1.07400e-17
6297.35188 1.07671e-17
6298.37341 1.07946e-17
6299.38493 1.08216e-17
6300.40646 1.08477e-17
6301.42799 1.08721e-17
6302.43950 1.08932e-17
6303.46103 1.09121e-17
6304.48256 1.09307e-17
6305.49408 1.09497e-17
6306.51561 1.09707e-17
6307.53714 1.09948e-17
6308.55867 1.10225e-17
6309.57018 1.10544e-17
6310.59171 1.10910e-17
6311.61324 1.11337e-17
6312.62476 1.11813e-17
6313.64628 1.12325e-17
6314.66782 1.12861e-17
6315.67933 1.13408e-17
6316.70086 1.13955e-17
6317.72239 1.14505e-17
6318.73391 1.15057e-17
6319.75544 1.15611e-17
6320.77697 1.16157e-17
6321.78848 1.16711e-17
6322.81001 1.17288e-17
6323.83154 1.17898e-17
6324.84306 1.18558e-17
6325.86459 1.19281e-17
6326.88612 1.20041e-17
6327.89763 1.20823e-17
6328.91916 1.21618e-17
6329.94069 1.22444e-17
6330.95221 1.23250e-17
6331.97374 1.23989e-17
6332.99527 1.24637e-17
6334.01680 1.25073e-17
6335.02831 1.25211e-17
6336.04984 1.25127e-17
6337.07137 1.25874e-17
6338.08289 1.26620e-17
6339.10441 1.27367e-17
6340.12595 1.28113e-17
6341.13746 1.28859e-17
6342.15899 1.29605e-17
6343.18052 1.30351e-17
6344.19204 1.31098e-17
6345.21357 1.31845e-17
6346.23510 1.32591e-17
6347.24661 1.33337e-17
6348.26814 1.34083e-17
6349.28967 1.34829e-17
6350.30119 1.35574e-17
6351.32272 1.36320e-17
6352.34425 1.37067e-17
6353.35576 1.37813e-17
6354.37729 1.38559e-17
6355.39882 1.39305e-17
6356.42035 1.40051e-17
6357.43187 1.40796e-17
6358.45340 1.41543e-17
6359.47493 1.42289e-17
6360.48644 1.43035e-17
6361.50797 1.43780e-17
6362.52950 1.44526e-17
6363.54102 1.45273e-17
6364.56254 1.46018e-17
6365.58408 1.46764e-17
6366.59559 1.47509e-17
6367.61712 1.48255e-17
6368.63865 1.49001e-17
6369.65017 1.49747e-17
6370.67170 1.50492e-17
6371.69322 1.51238e-17
6372.70474 1.51983e-17
6373.72627 1.52729e-17
6374.74780 1.53474e-17
6375.75932 1.54220e-17
6376.78085 1.54966e-17
6377.80238 1.56248e-17
6378.81389 1.57489e-17
6379.83542 1.58695e-17
6380.85695 1.59723e-17
6381.86847 1.60703e-17
6382.89000 1.61635e-17
6383.91153 1.62522e-17
6384.93306 1.63383e-17
6385.94457 1.64214e-17
6386.96610 1.65018e-17
6387.98763 1.65802e-17
6388.99915 1.66576e-17
6390.02067 1.67348e-17
6391.04221 1.68108e-17
6392.05372 1.68852e-17
6393.07525 1.69578e-17
6394.09678 1.70294e-17
6395.10829 1.70980e-17
6396.12983 1.71628e-17
6397.15135 1.72228e-17
6398.16287 1.72757e-17
6399.18440 1.73207e-17
6400.20593 1.73652e-17
6401.21745 1.74125e-17
6402.23898 1.74663e-17
6403.26051 1.75342e-17
6404.27202 1.76118e-17
6405.29355 1.76959e-17
6406.31508 1.77842e-17
6407.33661 1.78737e-17
6408.34813 1.79617e-17
6409.36966 1.80469e-17
6410.39119 1.81277e-17
6411.40270 1.82025e-17
6412.42423 1.82682e-17
6413.44576 1.83273e-17
6414.45728 1.83819e-17
6415.47881 1.84336e-17
6416.50034 1.84834e-17
6417.51185 1.85336e-17
6418.53338 1.85893e-17
6419.55491 1.86536e-17
6420.56642 1.87296e-17
6421.58796 1.88253e-17
6422.60948 1.89320e-17
6423.62100 1.90424e-17
6424.64253 1.91508e-17
6425.66406 1.92508e-17
6426.67558 1.93369e-17
6427.69711 1.94062e-17
6428.71864 1.94560e-17
6429.73015 1.94834e-17
6430.75168 1.94775e-17
6431.77321 1.94551e-17
6432.79474 1.94292e-17
6433.80626 1.94098e-17
6434.82779 1.94146e-17
6435.84932 1.94518e-17
6436.86083 1.95042e-17
6437.88236 1.95663e-17
6438.90389 1.96313e-17
6439.91541 1.96873e-17
6440.93694 1.97361e-17
6441.95847 1.97772e-17
6442.96998 1.98094e-17
6443.99151 1.98300e-17
6445.01304 1.98391e-17
6446.02455 1.98436e-17
6447.04609 1.98470e-17
6448.06761 1.98537e-17
6449.07913 1.98715e-17
6450.10066 1.98963e-17
6451.12219 1.99260e-17
6452.14372 1.99588e-17
6453.15524 1.99925e-17
6454.17677 2.00251e-17
6455.18828 2.00559e-17
6456.20981 2.00834e-17
6457.23134 2.01059e-17
6458.25287 2.01208e-17
6459.26439 2.01304e-17
6460.28592 2.01363e-17
6461.30745 2.01395e-17
6462.31896 2.01429e-17
6463.34049 2.01473e-17
6464.36202 2.01510e-17
6465.37353 2.01542e-17
6466.39507 2.01564e-17
6467.41659 2.01564e-17
6468.42811 2.01563e-17
6469.44964 2.01574e-17
6470.47117 2.01608e-17
6471.48268 2.01674e-17
6472.50422 2.01781e-17
6473.52574 2.01950e-17
6474.53726 2.02189e-17
6475.55879 2.02513e-17
6476.58032 2.02952e-17
6477.59184 2.03458e-17
6478.61337 2.03998e-17
6479.63490 2.04544e-17
6480.65643 2.05044e-17
6481.66794 2.05482e-17
6482.68947 2.05895e-17
6483.71100 2.06294e-17
6484.72252 2.06689e-17
6485.74405 2.07111e-17
6486.76558 2.07537e-17
6487.77709 2.07959e-17
6488.79862 2.08368e-17
6489.82015 2.08762e-17
6490.83166 2.09127e-17
6491.85320 2.09443e-17
6492.87472 2.09695e-17
6493.88624 2.09865e-17
6494.90777 2.09920e-17
6495.92930 2.09896e-17
6496.94082 2.09813e-17
6497.96234 2.09687e-17
6498.98388 2.09554e-17
6499.99539 2.09423e-17
6501.01692 2.09270e-17
6502.03845 2.09091e-17
6503.04997 2.08882e-17
6504.07150 2.08624e-17
6505.09303 2.08341e-17
6506.11456 2.08048e-17
6507.12607 2.07761e-17
6508.14760 2.07484e-17
6509.16913 2.07236e-17
6510.18065 2.07052e-17
6511.20218 2.06951e-17
6512.22371 2.06957e-17
6513.23522 2.07114e-17
6514.25675 2.07367e-17
6515.27828 2.07682e-17
6516.28979 2.08024e-17
6517.31133 2.08359e-17
6518.33285 2.08652e-17
6519.34437 2.08874e-17
6520.36590 2.08998e-17
6521.38743 2.08995e-17
6522.39895 2.08814e-17
6523.42047 2.08514e-17
6524.44201 2.08129e-17
6525.45352 2.07694e-17
6526.47505 2.07261e-17
6527.49658 2.06851e-17
6528.50810 2.06458e-17
6529.52963 2.06089e-17
6530.55116 2.05753e-17
6531.57269 2.05459e-17
6532.58420 2.05191e-17
6533.60573 2.04939e-17
6534.62726 2.04693e-17
6535.63878 2.04426e-17
6536.66031 2.04142e-17
6537.68184 2.03864e-17
6538.69335 2.03603e-17
6539.71488 2.03373e-17
6540.73641 2.03199e-17
6541.74793 2.03061e-17
6542.76946 2.02952e-17
6543.79099 2.02865e-17
6544.80250 2.02783e-17
6545.82403 2.02707e-17
6546.84556 2.02659e-17
6547.85708 2.02647e-17
6548.87860 2.02679e-17
6549.90014 2.02777e-17
6550.91165 2.02912e-17
6551.93318 2.03066e-17
6552.95471 2.03225e-17
6553.97624 2.03371e-17
6554.98776 2.03490e-17
6556.00929 2.03562e-17
6557.03082 2.03577e-17
6558.04233 2.03517e-17
6559.06386 2.03350e-17
6560.08539 2.03130e-17
6561.09691 2.02885e-17
6562.11844 2.02642e-17
6563.13997 2.02449e-17
6564.15148 2.02316e-17
6565.17301 2.02222e-17
6566.19454 2.02162e-17
6567.20606 2.02128e-17
6568.22759 2.02114e-17
6569.24912 2.02107e-17
6570.26063 2.02094e-17
6571.28216 2.02064e-17
6572.30369 2.02000e-17
6573.31521 2.01898e-17
6574.33673 2.01766e-17
6575.35827 2.01607e-17
6576.36978 2.01422e-17
6577.39131 2.01210e-17
6578.41284 2.00997e-17
6579.43437 2.00806e-17
6580.44589 2.00651e-17
6581.46742 2.00574e-17
6582.48895 2.00564e-17
6583.50046 2.00578e-17
6584.52199 2.00593e-17
6585.54352 2.00581e-17
6586.55504 2.00497e-17
6587.57657 2.00377e-17
6588.59810 2.00237e-17
6589.60961 2.00090e-17
6590.63114 1.99951e-17
6591.65267 1.99832e-17
6592.66419 1.99733e-17
6593.68572 1.99662e-17
6594.70725 1.99623e-17
6595.71876 1.99631e-17
6596.74029 1.99653e-17
6597.76182 1.99668e-17
6598.77334 1.99656e-17
6599.79486 1.99588e-17
6600.81640 1.99457e-17
6601.82791 1.99272e-17
6602.84944 1.99034e-17
6603.87097 1.98742e-17
6604.89250 1.98389e-17
6605.90402 1.98015e-17
6606.92555 1.97644e-17
6607.94708 1.97294e-17
6608.95859 1.97024e-17
6609.98012 1.96813e-17
6611.00165 1.96607e-17
6612.01317 1.96380e-17
6613.03470 1.96094e-17
6614.05623 1.95702e-17
6615.06774 1.95242e-17
6616.08927 1.94730e-17
6617.11080 1.94178e-17
6618.12232 1.93599e-17
6619.14384 1.93019e-17
6620.16538 1.92469e-17
6621.17689 1.91974e-17
6622.19842 1.91565e-17
6623.21995 1.91277e-17
6624.23147 1.91081e-17
6625.25300 1.90961e-17
6626.27453 1.90901e-17
6627.28604 1.90891e-17
6628.30757 1.90902e-17
6629.32910 1.90898e-17
6630.35063 1.90852e-17
6631.36215 1.90728e-17
6632.38368 1.90482e-17
6633.40521 1.90160e-17
6634.41672 1.89781e-17
6635.43825 1.89365e-17
6636.45978 1.88942e-17
6637.47130 1.88526e-17
6638.49283 1.88123e-17
6639.51436 1.87743e-17
6640.52587 1.87400e-17
6641.54740 1.87112e-17
6642.56893 1.86850e-17
6643.58045 1.86596e-17
6644.60197 1.86337e-17
6645.62351 1.86037e-17
6646.63502 1.85704e-17
6647.65655 1.85362e-17
6648.67808 1.85018e-17
6649.68959 1.84688e-17
6650.71113 1.84390e-17
6651.73266 1.84108e-17
6652.75419 1.83839e-17
6653.76570 1.83578e-17
6654.78723 1.83309e-17
6655.80876 1.83040e-17
6656.82028 1.82788e-17
6657.84181 1.82558e-17
6658.86334 1.82362e-17
6659.87485 1.82219e-17
6660.89638 1.82088e-17
6661.91791 1.81949e-17
6662.92943 1.81786e-17
6663.95096 1.81556e-17
6664.97249 1.81270e-17
6665.98400 1.80950e-17
6667.00553 1.80605e-17
6668.02706 1.80252e-17
6669.03858 1.79910e-17
6670.06011 1.79566e-17
6671.08164 1.79221e-17
6672.09315 1.78873e-17
6673.11468 1.78520e-17
6674.13621 1.78163e-17
6675.15774 1.77807e-17
6676.16926 1.77452e-17
6677.19078 1.77101e-17
6678.21232 1.76756e-17
6679.22383 1.76412e-17
6680.24536 1.76065e-17
6681.26689 1.75712e-17
6682.27841 1.75347e-17
6683.29994 1.74972e-17
6684.32147 1.74591e-17
6685.33298 1.74206e-17
6686.35451 1.73819e-17
6687.37604 1.73430e-17
6688.38756 1.73048e-17
6689.40909 1.72678e-17
6690.43062 1.72322e-17
6691.44213 1.72003e-17
6692.46366 1.71701e-17
6693.48519 1.71392e-17
6694.49671 1.71058e-17
6695.51824 1.70676e-17
6696.53977 1.70213e-17
6697.55128 1.69730e-17
6698.57281 1.69255e-17
6699.59434 1.68813e-17
6700.60585 1.68460e-17
6701.62739 1.68179e-17
6702.64891 1.67938e-17
6703.67045 1.67718e-17
6704.68196 1.67497e-17
6705.70349 1.67251e-17
6706.72502 1.66984e-17
6707.73654 1.66695e-17
6708.75806 1.66378e-17
6709.77959 1.66027e-17
6710.79111 1.65647e-17
6711.81264 1.65236e-17
6712.83417 1.64798e-17
6713.84569 1.64339e-17
6714.86722 1.63861e-17
6715.88875 1.63370e-17
6716.90026 1.62868e-17
6717.92179 1.62360e-17
6718.94332 1.61842e-17
6719.95484 1.61330e-17
6720.97637 1.60839e-17
6721.99790 1.60378e-17
6723.00941 1.59965e-17
6724.03094 1.59617e-17
6725.05247 1.59291e-17
6726.07400 1.58969e-17
6727.08552 1.58631e-17
6728.10704 1.58243e-17
6729.12858 1.57810e-17
6730.14009 1.57341e-17
6731.16162 1.56842e-17
6732.18315 1.56312e-17
6733.19466 1.55752e-17
6734.21620 1.55216e-17
6735.23772 1.54734e-17
6736.24924 1.54333e-17
6737.27077 1.54077e-17
6738.29230 1.53938e-17
6739.30382 1.53882e-17
6740.32535 1.53888e-17
6741.34688 1.53929e-17
6742.35839 1.53978e-17
6743.37992 1.54010e-17
6744.40145 1.54001e-17
6745.41297 1.53928e-17
6746.43450 1.53741e-17
6747.45603 1.53468e-17
6748.47756 1.53142e-17
6749.48907 1.52787e-17
6750.51060 1.52435e-17
6751.53213 1.52118e-17
6752.54365 1.51810e-17
6753.56518 1.51509e-17
6754.58671 1.51210e-17
6755.59822 1.50914e-17
6756.61975 1.50607e-17
6757.64128 1.50280e-17
6758.65279 1.49924e-17
6759.67433 1.49517e-17
6760.69585 1.49042e-17
6761.70737 1.48565e-17
6762.72890 1.48117e-17
6763.75043 1.47726e-17
6764.76195 1.47471e-17
6765.78348 1.47304e-17
6766.80501 1.47173e-17
6767.81652 1.47049e-17
6768.83805 1.46882e-17
6769.85958 1.46631e-17
6770.87109 1.46346e-17
6771.89263 1.46042e-17
6772.91416 1.45733e-17
6773.93569 1.45442e-17
6774.94720 1.45175e-17
6775.96873 1.44937e-17
6776.99026 1.44733e-17
6778.00178 1.44576e-17
6779.02331 1.44474e-17
6780.04484 1.44385e-17
6781.05635 1.44288e-17
6782.07788 1.44161e-17
6783.09941 1.43970e-17
6784.11092 1.43717e-17
6785.13246 1.43405e-17
6786.15398 1.43038e-17
6787.16550 1.42613e-17
6788.18703 1.42137e-17
6789.20856 1.41641e-17
6790.22008 1.41148e-17
6791.24161 1.40681e-17
6792.26314 1.40276e-17
6793.27465 1.39931e-17
6794.29618 1.39645e-17
6795.31771 1.39416e-17
6796.32923 1.39252e-17
6797.35076 1.39147e-17
6798.37229 1.39068e-17
6799.39382 1.38993e-17
6800.40533 1.38903e-17
6801.42686 1.38754e-17
6802.44839 1.38559e-17
6803.45991 1.38333e-17
6804.48144 1.38081e-17
6805.50297 1.37813e-17
6806.51448 1.37541e-17
6807.53601 1.37262e-17
6808.55754 1.36980e-17
6809.56905 1.36699e-17
6810.59059 1.36434e-17
6811.61211 1.36170e-17
6812.62363 1.35894e-17
6813.64516 1.35598e-17
6814.66669 1.35261e-17
6815.67821 1.34875e-17
6816.69974 1.34486e-17
6817.72127 1.34115e-17
6818.73278 1.33785e-17
6819.75431 1.33539e-17
6820.77584 1.33356e-17
6821.79737 1.33217e-17
6822.80889 1.33109e-17
6823.83042 1.33019e-17
6824.84193 1.32928e-17
6825.86346 1.32827e-17
6826.88499 1.32702e-17
6827.90652 1.32542e-17
6828.91803 1.32327e-17
6829.93957 1.32064e-17
6830.96109 1.31755e-17
6831.97261 1.31404e-17
6832.99414 1.31016e-17
6834.01567 1.30595e-17
6835.02718 1.30161e-17
6836.04872 1.29730e-17
6837.07024 1.29316e-17
6838.08176 1.28944e-17
6839.10329 1.28608e-17
6840.12482 1.28304e-17
6841.13634 1.28031e-17
6842.15787 1.27778e-17
6843.17940 1.27542e-17
6844.19091 1.27343e-17
6845.21244 1.27186e-17
6846.23397 1.27079e-17
6847.25550 1.27032e-17
6848.26702 1.27024e-17
6849.28855 1.27032e-17
6850.31008 1.27033e-17
6851.32159 1.26998e-17
6852.34312 1.26876e-17
6853.36465 1.26744e-17
6854.37616 1.26610e-17
6855.39770 1.26478e-17
6856.41922 1.26345e-17
6857.43074 1.26212e-17
6858.45227 1.26079e-17
6859.47380 1.25947e-17
6860.48532 1.25813e-17
6861.50684 1.25681e-17
6862.52838 1.25547e-17
6863.53989 1.25415e-17
6864.56142 1.25282e-17
6865.58295 1.25149e-17
6866.59447 1.25017e-17
6867.61600 1.24884e-17
6868.63753 1.24751e-17
6869.64904 1.24618e-17
6870.67057 1.24486e-17
6871.69210 1.24352e-17
6872.71363 1.24220e-17
6873.72515 1.24087e-17
6874.74668 1.23954e-17
6875.76821 1.23822e-17
6876.77972 1.23689e-17
6877.80125 1.23556e-17
6878.82278 1.23423e-17
6879.83430 1.23291e-17
6880.85583 1.23158e-17
6881.87736 1.23025e-17
6882.88887 1.22893e-17
6883.91040 1.22759e-17
6884.93193 1.22627e-17
6885.94345 1.22494e-17
6886.96497 1.22361e-17
6887.98651 1.22229e-17
6888.99802 1.22096e-17
6890.01955 1.21963e-17
6891.04108 1.21831e-17
6892.05260 1.21698e-17
6893.07413 1.21565e-17
6894.09566 1.21433e-17
6895.10717 1.21299e-17
6896.12870 1.21167e-17
6897.15023 1.21035e-17
6898.16175 1.20901e-17
6899.18328 1.20769e-17
6900.20481 1.20637e-17
6901.22634 1.20503e-17
6902.23785 1.20371e-17
6903.25938 1.20239e-17
6904.28091 1.20106e-17
6905.29243 1.19973e-17
6906.31396 1.19841e-17
6907.33549 1.19708e-17
6908.34700 1.19575e-17
6909.36853 1.19443e-17
6910.39006 1.19310e-17
6911.40158 1.19177e-17
6912.42310 1.19044e-17
6913.44464 1.18912e-17
6914.45615 1.18780e-17
6915.47768 1.18646e-17
6916.49921 1.18514e-17
6917.51073 1.18382e-17
6918.53226 1.18249e-17
6919.55379 1.18116e-17
6920.57532 1.17984e-17
6921.58683 1.17851e-17
6922.60836 1.17719e-17
6923.62989 1.17586e-17
6924.64141 1.17453e-17
6925.66294 1.17321e-17
6926.68447 1.17189e-17
6927.69598 1.17055e-17
6928.71751 1.16923e-17
6929.73904 1.16791e-17
6930.75056 1.16658e-17
6931.77209 1.16525e-17
6932.79362 1.16393e-17
6933.80513 1.16260e-17
6934.82666 1.16128e-17
6935.84819 1.15686e-17
6936.85971 1.15387e-17
6937.88123 1.15161e-17
6938.90277 1.15005e-17
6939.91428 1.14904e-17
6940.93581 1.14845e-17
6941.95734 1.14814e-17
6942.96886 1.14804e-17
6943.99039 1.14798e-17
6945.01192 1.14775e-17
6946.02343 1.14717e-17
6947.04496 1.14609e-17
6948.06649 1.14422e-17
6949.08802 1.14186e-17
6950.09954 1.13925e-17
6951.12107 1.13655e-17
6952.14260 1.13401e-17
6953.15411 1.13182e-17
6954.17564 1.13004e-17
6955.19717 1.12876e-17
6956.20869 1.12809e-17
6957.23022 1.12819e-17
6958.25175 1.12886e-17
6959.26326 1.13000e-17
6960.28479 1.13144e-17
6961.30632 1.13304e-17
6962.31784 1.13465e-17
6963.33936 1.13618e-17
6964.36090 1.13750e-17
6965.37241 1.13848e-17
6966.39394 1.13893e-17
6967.41547 1.13898e-17
6968.42699 1.13871e-17
6969.44852 1.13816e-17
6970.47005 1.13752e-17
6971.49158 1.13676e-17
6972.50309 1.13574e-17
6973.52462 1.13440e-17
6974.54615 1.13269e-17
6975.55767 1.13047e-17
6976.57920 1.12791e-17
6977.60073 1.12512e-17
6978.61224 1.12221e-17
6979.63377 1.11926e-17
6980.65530 1.11640e-17
6981.66682 1.11374e-17
6982.68834 1.11142e-17
6983.70988 1.10954e-17
6984.72139 1.10831e-17
6985.74292 1.10754e-17
6986.76445 1.10710e-17
6987.77597 1.10692e-17
6988.79750 1.10678e-17
6989.81903 1.10666e-17
6990.83054 1.10665e-17
6991.85207 1.10676e-17
6992.87360 1.10702e-17
6993.89513 1.10748e-17
6994.90665 1.10807e-17
6995.92818 1.10870e-17
6996.93969 1.10936e-17
6997.96122 1.11000e-17
6998.98275 1.11056e-17
7000.00428 1.11098e-17
7001.01580 1.11122e-17
7002.03733 1.11123e-17
7003.05886 1.11092e-17
7004.07037 1.11037e-17
7005.09190 1.10959e-17
7006.11343 1.10861e-17
7007.12495 1.10748e-17
7008.14648 1.10623e-17
7009.16801 1.10487e-17
7010.17952 1.10343e-17
7011.20105 1.10196e-17
7012.22258 1.10048e-17
7013.23409 1.09902e-17
7014.25563 1.09757e-17
7015.27716 1.09617e-17
7016.28867 1.09479e-17
7017.31020 1.09348e-17
7018.33173 1.09240e-17
7019.34325 1.09163e-17
7020.36478 1.09124e-17
7021.38630 1.09137e-17
7022.40784 1.09188e-17
7023.41935 1.09269e-17
7024.44088 1.09370e-17
7025.46241 1.09495e-17
7026.47393 1.09621e-17
7027.49546 1.09714e-17
7028.51699 1.09754e-17
7029.52850 1.09711e-17
7030.55003 1.09535e-17
7031.57156 1.09298e-17
7032.58308 1.09038e-17
7033.60461 1.08787e-17
7034.62614 1.08618e-17
7035.63765 1.08526e-17
7036.65918 1.08469e-17
7037.68071 1.08430e-17
7038.69222 1.08387e-17
7039.71376 1.08308e-17
7040.73528 1.08218e-17
7041.74680 1.08126e-17
7042.76833 1.08040e-17
7043.78986 1.07959e-17
7044.81139 1.07899e-17
7045.82291 1.07880e-17
7046.84443 1.07914e-17
7047.86597 1.08019e-17
7048.87748 1.08230e-17
7049.89901 1.08476e-17
7050.92054 1.08720e-17
7051.93206 1.08930e-17
7052.95359 1.09050e-17
7053.97512 1.09069e-17
7054.98663 1.08992e-17
7056.00816 1.08818e-17
7057.02969 1.08540e-17
7058.04121 1.08146e-17
7059.06274 1.07704e-17
7060.08427 1.07262e-17
7061.09578 1.06858e-17
7062.11731 1.06578e-17
7063.13884 1.06411e-17
7064.15035 1.06310e-17
7065.17189 1.06257e-17
7066.19341 1.06222e-17
7067.20493 1.06173e-17
7068.22646 1.06115e-17
7069.24799 1.06047e-17
7070.26952 1.05965e-17
7071.28103 1.05841e-17
7072.30257 1.05702e-17
7073.32409 1.05586e-17
7074.33561 1.05517e-17
7075.35714 1.05530e-17
7076.37867 1.05673e-17
7077.39019 1.05877e-17
7078.41172 1.06113e-17
7079.43325 1.06348e-17
7080.44476 1.06522e-17
7081.46629 1.06639e-17
7082.48782 1.06723e-17
7083.49934 1.06780e-17
7084.52087 1.06825e-17
7085.54240 1.06885e-17
7086.55391 1.06911e-17
7087.57544 1.06886e-17
7088.59697 1.06794e-17
7089.60848 1.06597e-17
7090.63002 1.06313e-17
7091.65154 1.05982e-17
7092.66306 1.05625e-17
7093.68459 1.05267e-17
7094.70612 1.04928e-17
7095.72765 1.04652e-17
7096.73916 1.04468e-17
7097.76070 1.04402e-17
7098.78222 1.04527e-17
7099.79374 1.04799e-17
7100.81527 1.05135e-17
7101.83680 1.05489e-17
7102.84832 1.05796e-17
7103.86985 1.05980e-17
7104.89138 1.06082e-17
7105.90289 1.06104e-17
7106.92442 1.06052e-17
7107.94595 1.05929e-17
7108.95747 1.05754e-17
7109.97900 1.05555e-17
7111.00053 1.05354e-17
7112.01204 1.05178e-17
7113.03357 1.05064e-17
7114.05510 1.04987e-17
7115.06662 1.04945e-17
7116.08815 1.04934e-17
7117.10968 1.04947e-17
7118.13121 1.04972e-17
7119.14272 1.05000e-17
7120.16425 1.05022e-17
7121.18578 1.05019e-17
7122.19729 1.04975e-17
7123.21883 1.04917e-17
7124.24035 1.04852e-17
7125.25187 1.04792e-17
7126.27340 1.04760e-17
7127.29493 1.04748e-17
7128.30645 1.04746e-17
7129.32798 1.04749e-17
7130.34951 1.04747e-17
7131.36102 1.04736e-17
7132.38255 1.04719e-17
7133.40408 1.04694e-17
7134.41560 1.04662e-17
7135.43713 1.04616e-17
7136.45866 1.04572e-17
7137.47017 1.04543e-17
7138.49170 1.04545e-17
7139.51323 1.04589e-17
7140.52475 1.04689e-17
7141.54628 1.04840e-17
7142.56781 1.05037e-17
7143.58934 1.05276e-17
7144.60085 1.05568e-17
7145.62238 1.05882e-17
7146.64391 1.06183e-17
7147.65542 1.06447e-17
7148.67696 1.06638e-17
7149.69848 1.06722e-17
7150.71000 1.06731e-17
7151.73153 1.06674e-17
7152.75306 1.06561e-17
7153.76458 1.06405e-17
7154.78611 1.06222e-17
7155.80764 1.06026e-17
7156.81915 1.05831e-17
7157.84068 1.05670e-17
7158.86221 1.05570e-17
7159.87373 1.05457e-17
7160.89526 1.05301e-17
7161.91679 1.05076e-17
7162.92830 1.04672e-17
7163.94983 1.04182e-17
7164.97136 1.03712e-17
7165.98288 1.03325e-17
7167.00441 1.03119e-17
7168.02594 1.03184e-17
7169.04747 1.03415e-17
7170.05898 1.03776e-17
7171.08051 1.04226e-17
7172.10204 1.04720e-17
7173.11355 1.05211e-17
7174.13509 1.05662e-17
7175.15661 1.06036e-17
7176.16813 1.06275e-17
7177.18966 1.06333e-17
7178.21119 1.06294e-17
7179.22271 1.06198e-17
7180.24424 1.06082e-17
7181.26577 1.06017e-17
7182.27728 1.06004e-17
7183.29881 1.06038e-17
7184.32034 1.06121e-17
7185.33186 1.06263e-17
7186.35339 1.06468e-17
7187.37492 1.06690e-17
7188.38643 1.06902e-17
7189.40796 1.07076e-17
7190.42949 1.07166e-17
7191.44101 1.07180e-17
7192.46253 1.07133e-17
7193.48407 1.07033e-17
7194.50559 1.06884e-17
7195.51711 1.06695e-17
7196.53864 1.06519e-17
7197.56017 1.06388e-17
7198.57169 1.06331e-17
7199.59322 1.06415e-17
7200.61475 1.06611e-17
7201.62626 1.06882e-17
7202.64779 1.07209e-17
7203.66932 1.07561e-17
7204.68084 1.07911e-17
7205.70237 1.08230e-17
7206.72390 1.08492e-17
7207.73541 1.08670e-17
7208.75694 1.08720e-17
7209.77847 1.08657e-17
7210.78999 1.08495e-17
7211.81152 1.08247e-17
7212.83305 1.07930e-17
7213.84456 1.07561e-17
7214.86609 1.07151e-17
7215.88762 1.06713e-17
7216.90915 1.06265e-17
7217.92066 1.05819e-17
7218.94220 1.05390e-17
7219.96372 1.04995e-17
7220.97524 1.04646e-17
7221.99677 1.04365e-17
7223.01830 1.04164e-17
7224.02982 1.03999e-17
7225.05134 1.03851e-17
7226.07288 1.03698e-17
7227.08439 1.03484e-17
7228.10592 1.03245e-17
7229.12745 1.03014e-17
7230.13897 1.02809e-17
7231.16050 1.02660e-17
7232.18203 1.02589e-17
7233.19354 1.02576e-17
7234.21507 1.02613e-17
7235.23660 1.02695e-17
7236.24812 1.02812e-17
7237.26965 1.02950e-17
7238.29118 1.03094e-17
7239.30269 1.03227e-17
7240.32422 1.03348e-17
7241.34575 1.03445e-17
7242.36728 1.03468e-17
7243.37880 1.03394e-17
7244.40033 1.03197e-17
7245.42186 1.02766e-17
7246.43337 1.02249e-17
7247.45490 1.01776e-17
7248.47643 1.01436e-17
7249.48795 1.01388e-17
7250.50947 1.01728e-17
7251.53101 1.02248e-17
7252.54252 1.02871e-17
7253.56405 1.03507e-17
7254.58558 1.03994e-17
7255.59710 1.04361e-17
7256.61863 1.04631e-17
7257.64016 1.04799e-17
7258.65167 1.04865e-17
7259.67320 1.04842e-17
7260.69473 1.04750e-17
7261.70625 1.04608e-17
7262.72778 1.04439e-17
7263.74931 1.04295e-17
7264.76082 1.04148e-17
7265.78235 1.03976e-17
7266.80388 1.03770e-17
7267.82541 1.03504e-17
7268.83693 1.03172e-17
7269.85846 1.02812e-17
7270.87999 1.02446e-17
7271.89150 1.02091e-17
7272.91303 1.01762e-17
7273.93456 1.01489e-17
7274.94608 1.01294e-17
7275.96760 1.01194e-17
7276.98914 1.01233e-17
7278.00065 1.01422e-17
7279.02218 1.01666e-17
7280.04371 1.01921e-17
7281.05523 1.02136e-17
7282.07676 1.02202e-17
7283.09829 1.02185e-17
7284.10980 1.02132e-17
7285.13133 1.02069e-17
7286.15286 1.02061e-17
7287.16438 1.02135e-17
7288.18591 1.02209e-17
7289.20744 1.02259e-17
7290.22897 1.02253e-17
7291.24048 1.02122e-17
7292.26201 1.01916e-17
7293.27353 1.01670e-17
7294.29506 1.01406e-17
7295.31659 1.01161e-17
7296.33812 1.00961e-17
7297.34963 1.00791e-17
7298.37116 1.00654e-17
7299.39269 1.00554e-17
7300.40421 1.00493e-17
7301.42573 1.00463e-17
7302.44727 1.00455e-17
7303.45878 1.00461e-17
7304.48031 1.00468e-17
7305.50184 1.00468e-17
7306.51336 1.00474e-17
7307.53489 1.00488e-17
7308.55642 1.00514e-17
7309.56793 1.00566e-17
7310.58946 1.00628e-17
7311.61099 1.00690e-17
7312.62251 1.00745e-17
7313.64404 1.00775e-17
7314.66557 1.00777e-17
7315.68710 1.00777e-17
7316.69861 1.00786e-17
7317.72014 1.00818e-17
7318.74167 1.00903e-17
7319.75319 1.01013e-17
7320.77472 1.01130e-17
7321.79625 1.01240e-17
7322.80776 1.01322e-17
7323.82929 1.01366e-17
7324.85082 1.01379e-17
7325.86234 1.01363e-17
7326.88387 1.01318e-17
7327.90540 1.01237e-17
7328.91691 1.01144e-17
7329.93844 1.01057e-17
7330.95997 1.00991e-17
7331.97149 1.00974e-17
7332.99302 1.01013e-17
7334.01454 1.01079e-17
7335.02606 1.01161e-17
7336.04759 1.01245e-17
7337.06912 1.01307e-17
7338.08064 1.01353e-17
7339.10217 1.01385e-17
7340.12370 1.01402e-17
7341.14523 1.01401e-17
7342.15674 1.01386e-17
7343.17827 1.01367e-17
7344.19980 1.01352e-17
7345.21132 1.01349e-17
7346.23284 1.01369e-17
7347.25438 1.01407e-17
7348.26589 1.01455e-17
7349.28742 1.01509e-17
7350.30895 1.01571e-17
7351.32047 1.01632e-17
7352.34200 1.01669e-17
7353.36353 1.01670e-17
7354.37504 1.01619e-17
7355.39657 1.01481e-17
7356.41810 1.01299e-17
7357.42962 1.01102e-17
7358.45115 1.00913e-17
7359.47267 1.00775e-17
7360.48419 1.00700e-17
7361.50572 1.00651e-17
7362.52725 1.00619e-17
7363.54878 1.00590e-17
7364.56030 1.00543e-17
7365.58183 1.00480e-17
7366.60336 1.00400e-17
7367.61487 1.00302e-17
7368.63640 1.00171e-17
7369.65793 1.00017e-17
7370.66945 9.98816e-18
7371.69098 9.97872e-18
7372.71251 9.97603e-18
7373.72402 9.98477e-18
7374.74555 1.00010e-17
7375.76708 1.00226e-17
7376.77859 1.00476e-17
7377.80013 1.00733e-17
7378.82166 1.00979e-17
7379.83317 1.01202e-17
7380.85470 1.01387e-17
7381.87623 1.01520e-17
7382.88774 1.01579e-17
7383.90928 1.01579e-17
7384.93080 1.01528e-17
7385.94232 1.01434e-17
7386.96385 1.01309e-17
7387.98538 1.01164e-17
7389.00691 1.01010e-17
7390.01843 1.00858e-17
7391.03996 1.00720e-17
7392.06149 1.00614e-17
7393.07300 1.00532e-17
7394.09453 1.00472e-17
7395.11606 1.00432e-17
7396.12758 1.00404e-17
7397.14911 1.00386e-17
7398.17064 1.00387e-17
7399.18215 1.00407e-17
7400.20368 1.00447e-17
7401.22521 1.00513e-17
7402.23672 1.00594e-17
7403.25826 1.00685e-17
7404.27978 1.00778e-17
7405.29130 1.00867e-17
7406.31283 1.00946e-17
7407.33436 1.01014e-17
7408.34587 1.01069e-17
7409.36741 1.01107e-17
7410.38893 1.01129e-17
7411.40045 1.01131e-17
7412.42198 1.01111e-17
7413.44351 1.01068e-17
7414.46504 1.00999e-17
7415.47656 1.00908e-17
7416.49809 1.00802e-17
7417.51962 1.00689e-17
7418.53113 1.00573e-17
7419.55266 1.00458e-17
7420.57419 1.00357e-17
7421.58571 1.00277e-17
7422.60724 1.00226e-17
7423.62877 1.00225e-17
7424.64028 1.00264e-17
7425.66181 1.00308e-17
7426.68334 1.00339e-17
7427.69485 1.00333e-17
7428.71639 1.00260e-17
7429.73791 1.00134e-17
7430.74943 9.99632e-18
7431.77096 9.97532e-18
7432.79249 9.95058e-18
7433.80401 9.92357e-18
7434.82553 9.89665e-18
7435.84707 9.87154e-18
7436.86859 9.85032e-18
7437.88011 9.83605e-18
7438.90164 9.82629e-18
7439.92317 9.81998e-18
7440.93469 9.81614e-18
7441.95622 9.81335e-18
7442.97775 9.81073e-18
7443.98926 9.80785e-18
7445.01079 9.80412e-18
7446.03232 9.79865e-18
7447.04384 9.78982e-18
7448.06537 9.78047e-18
7449.08690 9.77218e-18
7450.09841 9.76622e-18
7451.11994 9.76509e-18
7452.14147 9.76878e-18
7453.15299 9.77567e-18
7454.17452 9.78491e-18
7455.19605 9.79577e-18
7456.20756 9.80800e-18
7457.22909 9.81778e-18
7458.25062 9.82243e-18
7459.26214 9.81971e-18
7460.28366 9.80534e-18
7461.30520 9.77964e-18
7462.32672 9.74559e-18
7463.33824 9.70480e-18
7464.35977 9.65916e-18
7465.38130 9.61052e-18
7466.39282 9.56219e-18
7467.41435 9.51703e-18
7468.43588 9.47757e-18
7469.44739 9.44812e-18
7470.46892 9.42882e-18
7471.49045 9.41747e-18
7472.50197 9.41305e-18
7473.52350 9.41435e-18
7474.54503 9.42033e-18
7475.55654 9.42773e-18
7476.57807 9.43407e-18
7477.59960 9.43717e-18
7478.61112 9.43181e-18
7479.63265 9.41936e-18
7480.65418 9.40424e-18
7481.66569 9.38867e-18
7482.68722 9.37562e-18
7483.70875 9.36904e-18
7484.72027 9.36686e-18
7485.74179 9.36873e-18
7486.76333 9.37421e-18
7487.78485 9.38361e-18
7488.79637 9.39518e-18
7489.81790 9.40638e-18
7490.83943 9.41537e-18
7491.85095 9.41970e-18
7492.87248 9.41625e-18
7493.89401 9.40765e-18
7494.90552 9.39484e-18
7495.92705 9.37871e-18
7496.94858 9.36173e-18
7497.96010 9.34369e-18
7498.98163 9.32348e-18
7500.00316 9.30106e-18
7501.01467 9.27599e-18
7502.03620 9.24740e-18
7503.05773 9.21830e-18
7504.06925 9.19051e-18
7505.09078 9.16562e-18
7506.11231 9.14595e-18
7507.12382 9.13221e-18
7508.14535 9.12444e-18
7509.16688 9.12296e-18
7510.17840 9.12805e-18
7511.19992 9.14007e-18
7512.22146 9.15686e-18
7513.24298 9.17689e-18
7514.25450 9.19862e-18
7515.27603 9.22004e-18
7516.29756 9.24010e-18
7517.30908 9.25817e-18
7518.33061 9.27352e-18
7519.35214 9.28508e-18
7520.36365 9.29149e-18
7521.38518 9.29529e-18
7522.40671 9.29769e-18
7523.41823 9.29978e-18
7524.43976 9.30502e-18
7525.46129 9.31178e-18
7526.47280 9.31709e-18
7527.49433 9.31944e-18
7528.51586 9.31674e-18
7529.52738 9.30652e-18
7530.54891 9.29099e-18
7531.57044 9.27098e-18
7532.58195 9.24737e-18
7533.60348 9.22141e-18
7534.62501 9.19420e-18
7535.63653 9.16696e-18
7536.65805 9.14102e-18
7537.67959 9.11753e-18
7538.70111 9.09749e-18
7539.71263 9.08309e-18
7540.73416 9.07582e-18
7541.75569 9.07687e-18
7542.76721 9.08835e-18
7543.78874 9.10943e-18
7544.81027 9.13840e-18
7545.82178 9.17384e-18
7546.84331 9.21451e-18
7547.86484 9.25925e-18
7548.87636 9.30323e-18
7549.89789 9.34304e-18
7550.91942 9.37550e-18
7551.93093 9.39509e-18
7552.95246 9.40250e-18
7553.97399 9.39997e-18
7554.98551 9.38863e-18
7556.00703 9.36999e-18
7557.02857 9.34580e-18
7558.04008 9.31858e-18
7559.06161 9.29062e-18
7560.08314 9.26409e-18
7561.09466 9.24157e-18
7562.11619 9.22385e-18
7563.13772 9.21104e-18
7564.15925 9.20297e-18
7565.17076 9.20162e-18
7566.19229 9.20958e-18
7567.21382 9.21327e-18
7568.22534 9.20586e-18
7569.24687 9.18212e-18
7570.26840 9.19003e-18
7571.27991 9.19793e-18
7572.30144 9.20583e-18
7573.32297 9.21373e-18
7574.33449 9.22164e-18
7575.35602 9.22954e-18
7576.37755 9.23743e-18
7577.38906 9.24534e-18
7578.41059 9.25324e-18
7579.43212 9.26114e-18
7580.44364 9.26904e-18
7581.46517 9.27694e-18
7582.48670 9.28484e-18
7583.49821 9.29273e-18
7584.51974 9.30064e-18
7585.54127 9.30854e-18
7586.56280 9.31644e-18
7587.57432 9.32433e-18
7588.59584 9.33223e-18
7589.61738 9.34013e-18
7590.62889 9.34803e-18
7591.65042 9.35592e-18
7592.67195 9.36382e-18
7593.68347 9.37172e-18
7594.70500 9.37961e-18
7595.72653 9.38751e-18
7596.73804 9.39541e-18
7597.75957 9.40331e-18
7598.78110 9.41119e-18
7599.79262 9.41909e-18
7600.81415 9.42699e-18
7601.83568 9.43488e-18
7602.84719 9.44277e-18
7603.86872 9.45067e-18
7604.89025 9.45857e-18
7605.90177 9.46645e-18
7606.92330 9.47435e-18
7607.94483 9.48225e-18
7608.95634 9.49014e-18
7609.97787 9.49802e-18
7610.99940 9.50592e-18
7612.02093 9.51382e-18
7613.03245 9.52170e-18
7614.05397 9.52959e-18
7615.07551 9.53749e-18
7616.08702 9.54538e-18
7617.10855 9.55327e-18
7618.13008 9.56116e-18
7619.14160 9.56905e-18
7620.16313 9.57694e-18
7621.18466 9.58482e-18
7622.19617 9.59272e-18
7623.21770 9.60061e-18
7624.23923 9.60850e-18
7625.25075 9.61638e-18
7626.27228 9.62427e-18
7627.29381 9.63215e-18
7628.30532 9.64004e-18
7629.32685 9.64793e-18
7630.34838 9.65582e-18
7631.35990 9.66371e-18
7632.38143 9.67159e-18
7633.40296 9.67948e-18
7634.41447 9.68737e-18
7635.43600 9.69526e-18
7636.45753 9.70314e-18
7637.47906 9.71102e-18
7638.49058 9.71890e-18
7639.51210 9.72679e-18
7640.53364 9.73468e-18
7641.54515 9.74256e-18
7642.56668 9.75045e-18
7643.58821 9.75833e-18
7644.59973 9.76621e-18
7645.62126 9.77410e-18
7646.64279 9.78198e-18
7647.65430 9.78986e-18
7648.67583 9.79775e-18
7649.69736 9.80562e-18
7650.70888 9.81350e-18
7651.73041 9.82139e-18
7652.75194 9.82927e-18
7653.76345 9.83715e-18
7654.78498 9.84503e-18
7655.80651 9.85291e-18
7656.81803 9.86080e-18
7657.83956 9.86868e-18
7658.86109 9.87655e-18
7659.88262 9.88443e-18
7660.89413 9.89232e-18
7661.91566 9.90019e-18
7662.93719 9.90807e-18
7663.94871 9.91595e-18
7664.97023 9.92382e-18
7665.99177 9.93170e-18
7667.00328 9.93958e-18
7668.02481 9.94746e-18
7669.04634 9.95534e-18
7670.05786 9.96321e-18
7671.07939 9.97109e-18
7672.10091 9.97897e-18
7673.11243 9.98684e-18
7674.13396 9.99472e-18
7675.15549 1.00026e-17
7676.16701 1.00105e-17
7677.18854 1.00183e-17
7678.21007 1.00262e-17
7679.22158 1.00341e-17
7680.24311 1.00420e-17
7681.26464 1.00498e-17
7682.27616 1.00577e-17
7683.29769 1.00656e-17
7684.31922 1.00735e-17
7685.34075 1.00813e-17
7686.35226 1.00892e-17
7687.37379 1.00971e-17
7688.39532 1.00232e-17
7689.40684 9.96083e-18
7690.42837 9.90845e-18
7691.44990 9.86472e-18
7692.46141 9.82831e-18
7693.48294 9.79697e-18
7694.50447 9.76931e-18
7695.51599 9.74738e-18
7696.53752 9.73160e-18
7697.55904 9.72247e-18
7698.57056 9.72177e-18
7699.59209 9.72735e-18
7700.61362 9.73738e-18
7701.62514 9.75034e-18
7702.64667 9.76471e-18
7703.66820 9.77876e-18
7704.67971 9.79047e-18
7705.70124 9.79803e-18
7706.72277 9.79974e-18
7707.73429 9.79341e-18
7708.75582 9.77910e-18
7709.77735 9.75690e-18
7710.79888 9.72698e-18
7711.81039 9.68941e-18
7712.83192 9.64483e-18
7713.85345 9.59536e-18
7714.86497 9.54262e-18
7715.88650 9.48831e-18
7716.90803 9.43474e-18
7717.91954 9.38264e-18
7718.94107 9.33277e-18
7719.96260 9.28601e-18
7720.97411 9.24354e-18
7721.99565 9.20593e-18
7723.01717 9.17199e-18
7724.02869 9.14128e-18
7725.05022 9.11323e-18
7726.07175 9.08600e-18
7727.08327 9.06138e-18
7728.10480 9.04062e-18
7729.12633 9.02455e-18
7730.13784 9.01427e-18
7731.15937 9.01043e-18
7732.18090 9.01252e-18
7733.20243 9.02032e-18
7734.21395 9.03354e-18
7735.23548 9.05276e-18
7736.25701 9.07529e-18
7737.26852 9.09886e-18
7738.29005 9.12156e-18
7739.31158 9.14090e-18
7740.32309 9.15526e-18
7741.34463 9.16527e-18
7742.36616 9.17079e-18
7743.37767 9.17183e-18
7744.39920 9.16750e-18
7745.42073 9.16062e-18
7746.43224 9.15349e-18
7747.45378 9.14797e-18
7748.47530 9.14699e-18
7749.48682 9.15194e-18
7750.50835 9.16084e-18
7751.52988 9.17306e-18
7752.54140 9.18784e-18
7753.56293 9.20555e-18
7754.58446 9.22240e-18
7755.59597 9.23542e-18
7756.61750 9.24235e-18
7757.63903 9.23844e-18
7758.66056 9.22268e-18
7759.67208 9.20142e-18
7760.69361 9.17754e-18
7761.71514 9.15436e-18
7762.72665 9.13696e-18
7763.74818 9.12484e-18
7764.76971 9.11824e-18
7765.78122 9.11757e-18
7766.80276 9.12388e-18
7767.82428 9.13662e-18
7768.83580 9.15247e-18
7769.85733 9.16936e-18
7770.87886 9.18492e-18
7771.89038 9.19587e-18
7772.91191 9.20236e-18
7773.93344 9.20412e-18
7774.94495 9.20093e-18
7775.96648 9.19190e-18
7776.98801 9.17764e-18
7777.99953 9.16099e-18
7779.02106 9.14383e-18
7780.04259 9.12810e-18
7781.05410 9.11634e-18
7782.07563 9.10873e-18
7783.09716 9.10562e-18
7784.11869 9.10716e-18
7785.13021 9.11526e-18
7786.15174 9.12885e-18
7787.17327 9.14241e-18
7788.18478 9.15294e-18
7789.20631 9.15698e-18
7790.22784 9.14779e-18
7791.23935 9.13108e-18
7792.26089 9.11031e-18
7793.28241 9.08810e-18
7794.29393 9.06850e-18
7795.31546 9.05386e-18
7796.33699 9.04399e-18
7797.34851 9.03977e-18
7798.37003 9.04209e-18
7799.39157 9.05331e-18
7800.40308 9.06911e-18
7801.42461 9.08649e-18
7802.44614 9.10294e-18
7803.45766 9.11358e-18
7804.47919 9.11706e-18
7805.50072 9.11669e-18
7806.51223 9.11324e-18
7807.53376 9.10803e-18
7808.55529 9.10390e-18
7809.57682 9.09849e-18
7810.58834 9.09071e-18
7811.60987 9.07994e-18
7812.63140 9.06474e-18
7813.64291 9.04505e-18
7814.66444 9.02249e-18
7815.68597 8.99784e-18
7816.69749 8.97192e-18
7817.71902 8.94526e-18
7818.74055 8.91953e-18
7819.75206 8.89596e-18
7820.77359 8.87552e-18
7821.79512 8.86098e-18
7822.80664 8.85192e-18
7823.82816 8.84445e-18
7824.84970 8.83677e-18
7825.86121 8.82648e-18
7826.88274 8.80922e-18
7827.90427 8.78897e-18
7828.91579 8.76781e-18
7829.93732 8.74730e-18
7830.95885 8.73036e-18
7831.98038 8.71793e-18
7832.99189 8.70900e-18
7834.01342 8.70364e-18
7835.03495 8.70177e-18
7836.04647 8.70341e-18
7837.06800 8.70747e-18
7838.08953 8.71305e-18
7839.10104 8.71927e-18
7840.12257 8.72452e-18
7841.14410 8.72840e-18
7842.15562 8.73163e-18
7843.17715 8.73423e-18
7844.19868 8.73648e-18
7845.21019 8.73938e-18
7846.23172 8.74102e-18
7847.25325 8.74038e-18
7848.26477 8.73671e-18
7849.28629 8.72831e-18
7850.30783 8.71540e-18
7851.31934 8.69972e-18
7852.34087 8.68223e-18
7853.36240 8.66397e-18
7854.37392 8.64610e-18
7855.39545 8.62958e-18
7856.41698 8.61533e-18
7857.43851 8.60409e-18
7858.45002 8.59766e-18
7859.47155 8.59565e-18
7860.49308 8.59603e-18
7861.50460 8.59769e-18
7862.52613 8.59924e-18
7863.54766 8.59860e-18
7864.55917 8.59670e-18
7865.58070 8.59371e-18
7866.60223 8.58971e-18
7867.61375 8.58504e-18
7868.63528 8.57982e-18
7869.65681 8.57406e-18
7870.66832 8.56791e-18
7871.68985 8.56149e-18
7872.71138 8.55462e-18
7873.72290 8.54822e-18
7874.74442 8.54279e-18
7875.76596 8.53865e-18
7876.77747 8.53712e-18
7877.79900 8.53748e-18
7878.82053 8.53781e-18
7879.83205 8.53699e-18
7880.85358 8.53375e-18
7881.87511 8.52657e-18
7882.89664 8.51551e-18
7883.90815 8.50031e-18
7884.92968 8.48092e-18
7885.95121 8.45657e-18
7886.96273 8.42829e-18
7887.98426 8.39823e-18
7889.00579 8.36791e-18
7890.01730 8.33893e-18
7891.03883 8.31289e-18
7892.06036 8.29089e-18
7893.07188 8.27389e-18
7894.09341 8.26254e-18
7895.11494 8.25969e-18
7896.12645 8.26344e-18
7897.14798 8.26939e-18
7898.16951 8.27502e-18
7899.18103 8.27694e-18
7900.20256 8.27027e-18
7901.22409 8.25939e-18
7902.23560 8.24610e-18
7903.25713 8.23199e-18
7904.27866 8.21945e-18
7905.30019 8.20964e-18
7906.31171 8.20294e-18
7907.33324 8.20008e-18
7908.35477 8.20200e-18
7909.36628 8.21026e-18
7910.38781 8.22106e-18
7911.40934 8.23206e-18
7912.42086 8.24106e-18
7913.44239 8.24527e-18
7914.46392 8.24324e-18
7915.47543 8.23430e-18
7916.49696 8.21778e-18
7917.51849 8.19243e-18
7918.53001 8.15597e-18
7919.55153 8.11506e-18
7920.57307 8.07358e-18
7921.58458 8.03501e-18
7922.60611 8.00669e-18
7923.62764 7.98787e-18
7924.63916 7.97444e-18
7925.66069 7.96469e-18
7926.68222 7.95646e-18
7927.69373 7.94715e-18
7928.71526 7.93613e-18
7929.73679 7.92239e-18
7930.75832 7.90516e-18
7931.76984 7.88027e-18
7932.79137 7.85105e-18
7933.81290 7.82354e-18
7934.82441 7.80120e-18
7935.84594 7.78880e-18
7936.86747 7.79271e-18
7937.87899 7.80591e-18
7938.90052 7.82534e-18
7939.92205 7.84806e-18
7940.93356 7.87030e-18
7941.95509 7.88935e-18
7942.97662 7.90298e-18
7943.98814 7.90900e-18
7945.00967 7.90448e-18
7946.03120 7.88568e-18
7947.04271 7.85906e-18
7948.06424 7.82803e-18
7949.08577 7.79581e-18
7950.09728 7.76801e-18
7951.11882 7.74554e-18
7952.14034 7.72774e-18
7953.15186 7.71501e-18
7954.17339 7.70787e-18
7955.19492 7.70716e-18
7956.21645 7.70868e-18
7957.22797 7.70981e-18
7958.24950 7.70815e-18
7959.27103 7.69889e-18
7960.28254 7.68254e-18
7961.30407 7.66122e-18
7962.32560 7.63585e-18
7963.33712 7.60755e-18
7964.35865 7.57756e-18
7965.38018 7.54790e-18
7966.39169 7.52029e-18
7967.41322 7.49632e-18
7968.43475 7.47918e-18
7969.44627 7.46813e-18
7970.46780 7.46129e-18
7971.48933 7.45768e-18
7972.50084 7.45594e-18
7973.52237 7.45453e-18
7974.54390 7.45299e-18
7975.55541 7.45053e-18
7976.57695 7.44639e-18
7977.59847 7.43912e-18
7978.62001 7.42920e-18
7979.63152 7.41760e-18
7980.65305 7.40490e-18
7981.67458 7.39197e-18
7982.68610 7.37982e-18
7983.70763 7.36818e-18
7984.72916 7.35722e-18
7985.74067 7.34717e-18
7986.76220 7.33814e-18
7987.78373 7.33029e-18
7988.79525 7.32372e-18
7989.81678 7.31846e-18
7990.83831 7.31450e-18
7991.84982 7.31168e-18
7992.87135 7.31021e-18
7993.89288 7.31004e-18
7994.90440 7.31109e-18
7995.92593 7.31399e-18
7996.94746 7.31762e-18
7997.95897 7.32056e-18
7998.98050 7.32193e-18
8000.00203 7.32032e-18
8001.02356 7.31427e-18
8002.03508 7.30574e-18
8003.05660 7.29550e-18
8004.06812 7.28427e-18
8005.08965 7.27414e-18
8006.11118 7.26434e-18
8007.13271 7.25377e-18
8008.14423 7.24204e-18
8009.16576 7.22806e-18
8010.18728 7.21056e-18
8011.19880 7.19262e-18
8012.22033 7.17554e-18
8013.24186 7.16045e-18
8014.25338 7.15113e-18
8015.27491 7.14501e-18
8016.29644 7.13879e-18
8017.30795 7.13058e-18
8018.32948 7.11756e-18
8019.35101 7.09691e-18
8020.36253 7.07159e-18
8021.38406 7.04255e-18
8022.40559 7.01089e-18
8023.41710 6.97771e-18
8024.43863 6.94468e-18
8025.46016 6.91353e-18
8026.47168 6.88582e-18
8027.49321 6.86347e-18
8028.51474 6.84824e-18
8029.53627 6.83872e-18
8030.54778 6.83443e-18
8031.56931 6.83473e-18
8032.59084 6.83888e-18
8033.60235 6.84580e-18
8034.62389 6.85432e-18
8035.64541 6.86330e-18
8036.65693 6.87139e-18
8037.67846 6.87733e-18
8038.69999 6.88103e-18
8039.71151 6.88212e-18
8040.73304 6.88028e-18
8041.75457 6.87506e-18
8042.76608 6.86683e-18
8043.78761 6.85606e-18
8044.80914 6.84317e-18
8045.82066 6.82869e-18
8046.84219 6.81316e-18
8047.86372 6.79695e-18
8048.87523 6.78046e-18
8049.89676 6.76407e-18
8050.91829 6.74831e-18
8051.93982 6.73305e-18
8052.95134 6.71807e-18
8053.97287 6.70314e-18
8054.99440 6.68810e-18
8056.00591 6.67267e-18
8057.02744 6.65594e-18
8058.04897 6.63721e-18
8059.06048 6.61585e-18
8060.08202 6.59114e-18
8061.10354 6.56266e-18
8062.11506 6.53016e-18
8063.13659 6.49344e-18
8064.15812 6.45221e-18
8065.16964 6.40641e-18
8066.19117 6.35748e-18
8067.21270 6.30640e-18
8068.22421 6.25419e-18
8069.24574 6.20099e-18
8070.26727 6.14900e-18
8071.27879 6.10016e-18
8072.30032 6.05574e-18
8073.32185 6.01872e-18
8074.33336 5.99103e-18
8075.35489 5.96517e-18
8076.37642 5.93768e-18
8077.38794 5.90500e-18
8078.40947 5.85868e-18
8079.43100 5.80327e-18
8080.45253 5.74332e-18
8081.46404 5.68136e-18
8082.48557 5.62207e-18
8083.50710 5.56932e-18
8084.51861 5.51857e-18
8085.54015 5.46896e-18
8086.56167 5.41953e-18
8087.57319 5.36630e-18
8088.59472 5.31278e-18
8089.61625 5.26210e-18
8090.62777 5.21604e-18
8091.64930 5.17797e-18
8092.67083 5.15017e-18
8093.68234 5.12742e-18
8094.70387 5.10764e-18
8095.72540 5.08861e-18
8096.73692 5.06613e-18
8097.75845 5.04121e-18
8098.77998 5.01477e-18
8099.80151 4.98716e-18
8100.81302 4.95809e-18
8101.83455 4.92784e-18
8102.85608 4.89975e-18
8103.86759 4.87542e-18
8104.88913 4.85655e-18
8105.91066 4.84978e-18
8106.92217 4.84762e-18
8107.94370 4.84344e-18
8108.96523 4.83286e-18
8109.97674 4.80812e-18
8110.99828 4.76423e-18
8112.01980 4.71031e-18
8113.03132 4.64954e-18
8114.05285 4.58557e-18
8115.07438 4.52505e-18
8116.08590 4.46730e-18
8117.10743 4.41206e-18
8118.12896 4.35995e-18
8119.14047 4.31164e-18
8120.16200 4.26729e-18
8121.18353 4.22535e-18
8122.19505 4.18488e-18
8123.21658 4.14481e-18
8124.23811 4.10279e-18
8125.24962 4.05986e-18
8126.27115 4.01680e-18
8127.29268 3.97394e-18
8128.31421 3.93212e-18
8129.32572 3.89183e-18
8130.34726 3.85228e-18
8131.36878 3.81328e-18
8132.38030 3.77465e-18
8133.40183 3.73562e-18
8134.42336 3.69701e-18
8135.43488 3.65940e-18
8136.45641 3.62318e-18
8137.47794 3.58926e-18
8138.48945 3.55804e-18
8139.51098 3.52797e-18
8140.53251 3.49847e-18
8141.54403 3.46885e-18
8142.56556 3.43704e-18
8143.58709 3.40496e-18
8144.59860 3.37398e-18
8145.62013 3.34498e-18
8146.64166 3.31984e-18
8147.65318 3.29935e-18
8148.67471 3.28067e-18
8149.69624 3.26265e-18
8150.70775 3.24403e-18
8151.72928 3.22287e-18
8152.75081 3.19935e-18
8153.77234 3.17353e-18
8154.78386 3.14544e-18
8155.80539 3.11437e-18
8156.82692 3.08065e-18
8157.83843 3.04750e-18
8158.85996 3.01665e-18
8159.88149 2.99003e-18
8160.89301 2.97164e-18
8161.91453 2.95858e-18
8162.93607 2.94875e-18
8163.94758 2.94068e-18
8164.96911 2.93199e-18
8165.99064 2.92114e-18
8167.00216 2.90893e-18
8168.02369 2.89510e-18
8169.04522 2.87948e-18
8170.05673 2.86149e-18
8171.07826 2.84237e-18
8172.09979 2.82319e-18
8173.12132 2.80479e-18
8174.13284 2.78874e-18
8175.15437 2.77577e-18
8176.16588 2.76436e-18
8177.18741 2.75405e-18
8178.20894 2.74425e-18
8179.23047 2.73395e-18
8180.24199 2.72345e-18
8181.26352 2.71291e-18
8182.28505 2.70239e-18
8183.29656 2.69176e-18
8184.31809 2.68122e-18
8185.33962 2.67167e-18
8186.35114 2.66360e-18
8187.37266 2.65761e-18
8188.39420 2.65485e-18
8189.40571 2.65445e-18
8190.42724 2.65587e-18
8191.44877 2.65872e-18
8192.46028 2.66208e-18
8193.48182 2.66559e-18
8194.50334 2.66990e-18
8195.51486 2.67505e-18
8196.53639 2.68111e-18
8197.55792 2.68869e-18
8198.56944 2.69658e-18
8199.59097 2.70386e-18
8200.61250 2.70975e-18
8201.62401 2.71360e-18
8202.64554 2.71471e-18
8203.66707 2.71230e-18
8204.68860 2.70590e-18
8205.70011 2.69489e-18
8206.72165 2.67700e-18
8207.74318 2.65599e-18
8208.75469 2.63443e-18
8209.77622 2.61417e-18
8210.79775 2.59961e-18
8211.80926 2.59149e-18
8212.83080 2.58451e-18
8213.85232 2.57661e-18
8214.86384 2.56535e-18
8215.88537 2.54695e-18
8216.90690 2.52283e-18
8217.91842 2.49377e-18
8218.93995 2.46053e-18
8219.96148 2.42197e-18
8220.97299 2.38034e-18
8221.99452 2.34295e-18
8223.01605 2.31409e-18
8224.02757 2.29857e-18
8225.04910 2.30509e-18
8226.07063 2.32687e-18
8227.09216 2.35979e-18
8228.10367 2.40055e-18
8229.12520 2.44414e-18
8230.14673 2.48717e-18
8231.15825 2.52884e-18
8232.17978 2.56705e-18
8233.20131 2.59968e-18
8234.21282 2.62332e-18
8235.23435 2.64058e-18
8236.25588 2.65300e-18
8237.26740 2.66182e-18
8238.28893 2.67030e-18
8239.31045 2.67896e-18
8240.32197 2.68477e-18
8241.34350 2.68687e-18
8242.36503 2.68405e-18
8243.37655 2.67351e-18
8244.39807 2.65866e-18
8245.41961 2.64154e-18
8246.43112 2.62370e-18
8247.45265 2.60818e-18
8248.47418 2.59578e-18
8249.49571 2.58460e-18
8250.50722 2.57423e-18
8251.52876 2.56394e-18
8252.55029 2.55202e-18
8253.56180 2.54012e-18
8254.58333 2.52902e-18
8255.60486 2.51915e-18
8256.61637 2.51198e-18
8257.63791 2.50731e-18
8258.65944 2.50310e-18
8259.67095 2.49848e-18
8260.69248 2.49231e-18
8261.71401 2.48286e-18
8262.72553 2.47133e-18
8263.74706 2.45837e-18
8264.76858 2.44454e-18
8265.78010 2.43006e-18
8266.80163 2.41590e-18
8267.82316 2.40376e-18
8268.83468 2.39472e-18
8269.85621 2.39012e-18
8270.87774 2.39249e-18
8271.88925 2.39877e-18
8272.91078 2.40719e-18
8273.93231 2.41628e-18
8274.95384 2.42335e-18
8275.96536 2.42765e-18
8276.98689 2.43015e-18
8278.00842 2.43088e-18
8279.01993 2.43000e-18
8280.04146 2.42766e-18
8281.06299 2.42464e-18
8282.07451 2.42159e-18
8283.09604 2.41914e-18
8284.11757 2.41825e-18
8285.12908 2.41923e-18
8286.15061 2.42179e-18
8287.17214 2.42586e-18
8288.18366 2.43146e-18
8289.20519 2.43897e-18
8290.22672 2.44679e-18
8291.23823 2.45389e-18
8292.25976 2.45947e-18
8293.28129 2.46145e-18
8294.29281 2.46022e-18
8295.31433 2.45804e-18
8296.33587 2.45602e-18
8297.34738 2.45547e-18
8298.36891 2.45800e-18
8299.39044 2.46360e-18
8300.41197 2.47247e-18
8301.42348 2.48473e-18
8302.44502 2.50189e-18
8303.46655 2.52249e-18
8304.47806 2.54309e-18
8305.49959 2.56165e-18
8306.52112 2.57599e-18
8307.53264 2.58340e-18
8308.55417 2.58535e-18
8309.57569 2.58269e-18
8310.58721 2.57672e-18
8311.60874 2.56429e-18
8312.63027 2.55094e-18
8313.64179 2.54733e-18
8314.66331 2.55963e-18
8315.68484 2.59599e-18
8316.69636 2.66962e-18
8317.71789 2.76360e-18
8318.73942 2.86886e-18
8319.75094 2.97743e-18
8320.77247 3.07571e-18
8321.79399 3.15961e-18
8322.80551 3.23085e-18
8323.82704 3.28771e-18
8324.84857 3.32883e-18
8325.87010 3.35253e-18
8326.88162 3.36343e-18
8327.90315 3.36489e-18
8328.92468 3.36023e-18
8329.93619 3.35513e-18
8330.95772 3.35117e-18
8331.97925 3.34776e-18
8332.99077 3.34565e-18
8334.01230 3.34551e-18
8335.03383 3.34818e-18
8336.04534 3.35197e-18
8337.06687 3.35580e-18
8338.08840 3.35870e-18
8339.09992 3.35832e-18
8340.12144 3.35495e-18
8341.14298 3.35009e-18
8342.16451 3.34442e-18
8343.17602 3.33845e-18
8344.19755 3.33230e-18
8345.20906 3.32846e-18
8346.23060 3.32843e-18
8347.25213 3.33325e-18
8348.26364 3.34811e-18
8349.28517 3.36956e-18
8350.30670 3.39054e-18
8351.32823 3.40723e-18
8352.33975 3.41425e-18
8353.36128 3.40396e-18
8354.38281 3.38500e-18
8355.39432 3.36125e-18
8356.41585 3.33621e-18
8357.43738 3.31583e-18
8358.44890 3.30184e-18
8359.47043 3.29407e-18
8360.49195 3.29356e-18
8361.50347 3.30148e-18
8362.52500 3.31930e-18
8363.54653 3.34361e-18
8364.55805 3.37233e-18
8365.57957 3.40343e-18
8366.60110 3.43292e-18
8367.61262 3.46057e-18
8368.63415 3.48750e-18
8369.65568 3.51370e-18
8370.66719 3.53956e-18
8371.68872 3.56584e-18
8372.71025 3.59127e-18
8373.73179 3.61537e-18
8374.74330 3.63780e-18
8375.76483 3.65780e-18
8376.78636 3.67564e-18
8377.79788 3.69195e-18
8378.81941 3.70709e-18
8379.84094 3.72153e-18
8380.85245 3.73573e-18
8381.87398 3.75011e-18
8382.89551 3.76510e-18
8383.90703 3.78107e-18
8384.92856 3.79866e-18
8385.95009 3.81776e-18
8386.96160 3.83791e-18
8387.98313 3.85882e-18
8389.00466 3.88026e-18
8390.01618 3.90202e-18
8391.03771 3.92333e-18
8392.05924 3.94373e-18
8393.07075 3.96282e-18
8394.09228 3.97948e-18
8395.11381 3.99444e-18
8396.12532 4.00898e-18
8397.14686 4.02396e-18
8398.16839 4.04028e-18
8399.18992 4.05880e-18
8400.20143 4.08052e-18
8401.22296 4.10621e-18
8402.24449 4.13647e-18
8403.25601 4.17327e-18
8404.27754 4.21515e-18
8405.29906 4.25981e-18
8406.31058 4.30571e-18
8407.33211 4.35105e-18
8408.35364 4.39387e-18
8409.36516 4.43445e-18
8410.38669 4.47254e-18
8411.40821 4.50805e-18
8412.41973 4.53918e-18
8413.44126 4.56839e-18
8414.46279 4.59898e-18
8415.47431 4.63309e-18
8416.49583 4.67351e-18
8417.51736 4.72326e-18
8418.52888 4.77904e-18
8419.55041 4.83933e-18
8420.57194 4.90241e-18
8421.59347 4.96796e-18
8422.60498 5.03182e-18
8423.62651 5.08926e-18
8424.64805 5.13678e-18
8425.65956 5.16972e-18
8426.68109 5.18334e-18
8427.70262 5.18333e-18
8428.71414 5.17223e-18
8429.73567 5.15282e-18
8430.75720 5.12832e-18
8431.76871 5.10211e-18
8432.79024 5.07757e-18
8433.81177 5.05785e-18
8434.82329 5.04694e-18
8435.84482 5.04875e-18
8436.86635 5.05959e-18
8437.87786 5.07811e-18
8438.89939 5.10273e-18
8439.92092 5.13053e-18
8440.93244 5.16074e-18
8441.95397 5.19280e-18
8442.97550 5.22558e-18
8443.98701 5.25807e-18
8445.00854 5.28937e-18
8446.03007 5.31839e-18
8447.05160 5.34432e-18
8448.06312 5.36660e-18
8449.08465 5.38341e-18
8450.10618 5.39626e-18
8451.11769 5.40708e-18
8452.13922 5.41715e-18
8453.16075 5.42824e-18
8454.17227 5.44212e-18
8455.19380 5.45769e-18
8456.21532 5.47478e-18
8457.22684 5.49312e-18
8458.24837 5.51342e-18
8459.26990 5.53370e-18
8460.28142 5.55182e-18
8461.30294 5.56627e-18
8462.32447 5.57488e-18
8463.33599 5.57566e-18
8464.35752 5.57205e-18
8465.37905 5.56570e-18
8466.39056 5.55837e-18
8467.41209 5.55166e-18
8468.43362 5.54804e-18
8469.44514 5.54995e-18
8470.46667 5.55941e-18
8471.48820 5.57919e-18
8472.50973 5.61164e-18
8473.52124 5.65292e-18
8474.54278 5.70130e-18
8475.56431 5.75476e-18
8476.57582 5.81058e-18
8477.59735 5.86720e-18
8478.61888 5.92316e-18
8479.63040 5.97691e-18
8480.65193 6.02614e-18
8481.67346 6.06892e-18
8482.68497 6.10791e-18
8483.70650 6.14397e-18
8484.72803 6.17807e-18
8485.73955 6.21452e-18
8486.76108 6.24975e-18
8487.78261 6.28016e-18
8488.79412 6.30387e-18
8489.81565 6.31679e-18
8490.83718 6.31565e-18
8491.84870 6.30924e-18
8492.87023 6.30136e-18
8493.89176 6.29580e-18
8494.90327 6.30112e-18
8495.92480 6.31359e-18
8496.94633 6.32903e-18
8497.96786 6.34519e-18
8498.97938 6.35906e-18
8500.00091 6.36773e-18
8501.02244 6.37071e-18
8502.03395 6.36682e-18
8503.05548 6.35513e-18
8504.07701 6.33181e-18
8505.08853 6.30170e-18
8506.11006 6.26982e-18
8507.13158 6.23987e-18
8508.14310 6.21690e-18
8509.16463 6.20532e-18
8510.18616 6.20288e-18
8511.19768 6.20968e-18
8512.21920 6.22553e-18
8513.24073 6.25082e-18
8514.25225 6.28301e-18
8515.27378 6.31943e-18
8516.29531 6.35780e-18
8517.30682 6.39494e-18
8518.32835 6.42816e-18
8519.34989 6.45904e-18
8520.36140 6.48756e-18
8521.38293 6.51386e-18
8522.40446 6.53783e-18
8523.42599 6.56063e-18
8524.43750 6.58342e-18
8525.45904 6.60709e-18
8526.48056 6.63339e-18
8527.49208 6.66340e-18
8528.51361 6.69410e-18
8529.53514 6.72416e-18
8530.54666 6.75219e-18
8531.56819 6.77623e-18
8532.58972 6.79590e-18
8533.60123 6.81093e-18
8534.62276 6.82107e-18
8535.64429 6.82528e-18
8536.65581 6.82339e-18
8537.67734 6.81923e-18
8538.69887 6.81488e-18
8539.71038 6.81253e-18
8540.73191 6.81674e-18
8541.75344 6.82527e-18
8542.76496 6.83621e-18
8543.78649 6.84843e-18
8544.80802 6.85990e-18
8545.82955 6.86905e-18
8546.84106 6.87734e-18
8547.86259 6.88483e-18
8548.88412 6.89167e-18
8549.89564 6.89845e-18
8550.91717 6.90467e-18
8551.93869 6.90991e-18
8552.95021 6.91395e-18
8553.97174 6.91665e-18
8554.99327 6.91785e-18
8556.00479 6.91757e-18
8557.02631 6.91588e-18
8558.04784 6.91283e-18
8559.05936 6.90746e-18
8560.08089 6.90181e-18
8561.10242 6.89757e-18
8562.11394 6.89589e-18
8563.13546 6.89914e-18
8564.15700 6.90844e-18
8565.16851 6.92002e-18
8566.19004 6.93231e-18
8567.21157 6.94359e-18
8568.23310 6.95101e-18
8569.24461 6.95516e-18
8570.26615 6.95645e-18
8571.28768 6.95517e-18
8572.29919 6.95070e-18
8573.32072 6.94356e-18
8574.34225 6.93823e-18
8575.35376 6.93713e-18
8576.37530 6.94285e-18
8577.39682 6.96126e-18
8578.40834 6.98782e-18
8579.42987 7.01892e-18
8580.45140 7.05206e-18
8581.46292 7.08313e-18
8582.48445 7.10935e-18
8583.50598 7.13256e-18
8584.51749 7.15252e-18
8585.53902 7.16920e-18
8586.56055 7.18288e-18
8587.57207 7.19369e-18
8588.59360 7.20185e-18
8589.61513 7.20778e-18
8590.62664 7.21202e-18
8591.64817 7.21506e-18
8592.66970 7.21704e-18
8593.69123 7.21829e-18
8594.70275 7.21907e-18
8595.72428 7.21936e-18
8596.74581 7.21985e-18
8597.75732 7.22104e-18
8598.77885 7.22320e-18
8599.80038 7.22729e-18
8600.81190 7.23336e-18
8601.83343 7.23913e-18
8602.85496 7.24346e-18
8603.86647 7.24511e-18
8604.88800 7.24173e-18
8605.90953 7.23460e-18
8606.92105 7.22457e-18
8607.94257 7.21224e-18
8608.96411 7.19838e-18
8609.97562 7.18376e-18
8610.99715 7.16892e-18
8612.01868 7.15449e-18
8613.03019 7.14109e-18
8614.05172 7.12987e-18
8615.07326 7.12004e-18
8616.08477 7.11107e-18
8617.10630 7.10251e-18
8618.12783 7.09404e-18
8619.14936 7.08515e-18
8620.16088 7.07501e-18
8621.18241 7.06313e-18
8622.20394 7.04893e-18
8623.21545 7.03031e-18
8624.23698 7.01044e-18
8625.25851 6.99155e-18
8626.27003 6.97532e-18
8627.29156 6.96526e-18
8628.31308 6.96250e-18
8629.32460 6.96337e-18
8630.34613 6.96666e-18
8631.36766 6.97084e-18
8632.37918 6.97262e-18
8633.40071 6.97452e-18
8634.42224 6.97811e-18
8635.43375 6.98449e-18
8636.45528 6.99431e-18
8637.47681 7.00877e-18
8638.48833 7.02995e-18
8639.50986 7.05891e-18
8640.53139 7.09705e-18
8641.54290 7.14925e-18
8642.56443 7.20699e-18
8643.58596 7.26418e-18
8644.60749 7.31605e-18
8645.61901 7.35407e-18
8646.64054 7.37520e-18
8647.66207 7.38563e-18
8648.67358 7.38705e-18
8649.69511 7.38196e-18
8650.71664 7.37475e-18
8651.72816 7.36462e-18
8652.74969 7.35199e-18
8653.77122 7.33766e-18
8654.78273 7.32251e-18
8655.80426 7.30711e-18
8656.82579 7.29162e-18
8657.83731 7.27631e-18
8658.85883 7.26127e-18
8659.88037 7.24610e-18
8660.89188 7.23175e-18
8661.91341 7.21872e-18
8662.93494 7.20728e-18
8663.94645 7.19873e-18
8664.96799 7.19268e-18
8665.98952 7.18632e-18
8667.00103 7.17829e-18
8668.02256 7.16696e-18
8669.04409 7.14948e-18
8670.06562 7.12823e-18
8671.07714 7.10469e-18
8672.09867 7.08010e-18
8673.12019 7.05559e-18
8674.13171 7.03273e-18
8675.15324 7.01352e-18
8676.17477 6.99945e-18
8677.18629 6.99225e-18
8678.20781 6.99539e-18
8679.22934 7.00474e-18
8680.24086 7.01766e-18
8681.26239 7.03203e-18
8682.28392 7.04403e-18
8683.29544 7.05237e-18
8684.31696 7.05887e-18
8685.33849 7.06375e-18
8686.35001 7.06740e-18
8687.37154 7.07026e-18
8688.39307 7.07331e-18
8689.40459 7.07742e-18
8690.42612 7.08340e-18
8691.44765 7.09247e-18
8692.46918 7.10489e-18
8693.48069 7.11975e-18
8694.50222 7.13652e-18
8695.52375 7.15477e-18
8696.53527 7.17492e-18
8697.55680 7.19352e-18
8698.57833 7.20816e-18
8699.58984 7.21696e-18
8700.61137 7.21612e-18
8701.63290 7.20552e-18
8702.64442 7.18873e-18
8703.66594 7.16745e-18
8704.68748 7.14364e-18
8705.69899 7.11914e-18
8706.72052 7.09674e-18
8707.74205 7.07875e-18
8708.75356 7.06700e-18
8709.77510 7.06613e-18
8710.79663 7.07520e-18
8711.80814 7.08844e-18
8712.82967 7.10280e-18
8713.85120 7.11451e-18
8714.86271 7.11821e-18
8715.88425 7.11552e-18
8716.90578 7.10648e-18
8717.92731 7.09108e-18
8718.93882 7.06904e-18
8719.96035 7.04136e-18
8720.98188 7.01011e-18
8721.99340 6.97690e-18
8723.01493 6.94369e-18
8724.03645 6.91319e-18
8725.04797 6.88480e-18
8726.06950 6.85874e-18
8727.09103 6.83531e-18
8728.10255 6.81433e-18
8729.12407 6.79611e-18
8730.14560 6.78125e-18
8731.15712 6.76997e-18
8732.17865 6.76244e-18
8733.20018 6.75894e-18
8734.21169 6.75869e-18
8735.23322 6.76104e-18
8736.25475 6.76535e-18
8737.26627 6.77148e-18
8738.28780 6.77836e-18
8739.30933 6.78434e-18
8740.33086 6.78840e-18
8741.34238 6.78924e-18
8742.36391 6.78449e-18
8743.38544 6.77778e-18
8744.39695 6.77116e-18
8745.41848 6.76646e-18
8746.44001 6.76639e-18
8747.45153 6.77195e-18
8748.47306 6.78288e-18
8749.49459 6.79937e-18
8750.50610 6.82163e-18
8751.52763 6.85036e-18
8752.54916 6.88211e-18
8753.56068 6.91439e-18
8754.58221 6.94486e-18
8755.60374 6.97066e-18
8756.61525 6.98993e-18
8757.63678 7.00160e-18
8758.65831 7.00454e-18
8759.66982 6.99744e-18
8760.69136 6.97821e-18
8761.71289 6.95117e-18
8762.73442 6.91901e-18
8763.74593 6.88430e-18
8764.76746 6.85062e-18
8765.78899 6.81961e-18
8766.80051 6.79166e-18
8767.82204 6.76757e-18
8768.84356 6.74865e-18
8769.85508 6.73754e-18
8770.87661 6.72791e-18
8771.89814 6.71625e-18
8772.90966 6.69961e-18
8773.93119 6.67043e-18
8774.95271 6.63064e-18
8775.96423 6.58678e-18
8776.98576 6.54214e-18
8778.00729 6.50073e-18
8779.01881 6.46746e-18
8780.04033 6.44194e-18
8781.06186 6.42500e-18
8782.07338 6.41717e-18
8783.09491 6.42210e-18
8784.11644 6.43626e-18
8785.12795 6.45303e-18
8786.14948 6.46837e-18
8787.17101 6.47685e-18
8788.18253 6.47097e-18
8789.20406 6.45796e-18
8790.22559 6.44077e-18
8791.24712 6.42215e-18
8792.25864 6.40623e-18
8793.28017 6.39502e-18
8794.29168 6.38952e-18
8795.31321 6.39119e-18
8796.33474 6.40188e-18
8797.35627 6.42414e-18
8798.36779 6.45286e-18
8799.38932 6.48504e-18
8800.41085 6.51778e-18
8801.42236 6.54664e-18
8802.44389 6.57015e-18
8803.46542 6.58800e-18
8804.47694 6.59923e-18
8805.49847 6.60292e-18
8806.52000 6.59807e-18
8807.53151 6.58707e-18
8808.55304 6.57154e-18
8809.57457 6.55318e-18
8810.58609 6.53317e-18
8811.60762 6.51393e-18
8812.62915 6.49805e-18
8813.64066 6.48737e-18
8814.66219 6.48461e-18
8815.68372 6.49344e-18
8816.70525 6.50640e-18
8817.71677 6.51948e-18
8818.73830 6.52892e-18
8819.75982 6.52887e-18
8820.77134 6.51798e-18
8821.79287 6.49653e-18
8822.81440 6.46409e-18
8823.82592 6.41963e-18
8824.84744 6.36152e-18
8825.86897 6.29789e-18
8826.88049 6.23361e-18
8827.90202 6.17326e-18
8828.92355 6.12687e-18
8829.93506 6.09247e-18
8830.95659 6.06486e-18
8831.97812 6.04199e-18
8832.98964 6.02017e-18
8834.01117 5.99453e-18
8835.03270 5.97036e-18
8836.04421 5.94932e-18
8837.06574 5.93277e-18
8838.08728 5.92315e-18
8839.09879 5.92055e-18
8840.12032 5.92437e-18
8841.14185 5.93428e-18
8842.16338 5.95070e-18
8843.17490 5.97451e-18
8844.19643 5.99947e-18
8845.21796 6.02205e-18
8846.22947 6.03917e-18
8847.25100 6.04249e-18
8848.27253 6.03578e-18
8849.28405 6.02536e-18
8850.30558 6.01455e-18
8851.32711 6.00843e-18
8852.33862 6.01287e-18
8853.36015 6.02240e-18
8854.38168 6.03541e-18
8855.39320 6.05030e-18
8856.41473 6.06396e-18
8857.43626 6.07566e-18
8858.44777 6.08500e-18
8859.46930 6.09086e-18
8860.49083 6.09282e-18
8861.50235 6.09087e-18
8862.52388 6.08148e-18
8863.54541 6.06296e-18
8864.56694 6.03414e-18
8865.57845 5.98943e-18
8866.59998 5.93429e-18
8867.62151 5.87596e-18
8868.63303 5.81920e-18
8869.65456 5.77024e-18
8870.67608 5.73550e-18
8871.68760 5.71167e-18
8872.70913 5.69842e-18
8873.73066 5.69504e-18
8874.74218 5.70220e-18
8875.76370 5.71571e-18
8876.78524 5.73062e-18
8877.79675 5.74301e-18
8878.81828 5.74787e-18
8879.83981 5.74020e-18
8880.85132 5.72306e-18
8881.87285 5.69707e-18
8882.89439 5.66324e-18
8883.90590 5.62150e-18
8884.92743 5.57556e-18
8885.94896 5.52958e-18
8886.97049 5.48692e-18
8887.98200 5.45203e-18
8889.00354 5.42920e-18
8890.02506 5.41500e-18
8891.03658 5.40848e-18
8892.05811 5.40838e-18
8893.07964 5.41314e-18
8894.09116 5.42084e-18
8895.11269 5.42942e-18
8896.13422 5.43685e-18
8897.14573 5.44106e-18
8898.16726 5.44021e-18
8899.18879 5.43326e-18
8900.20031 5.41938e-18
8901.22184 5.39810e-18
8902.24337 5.36537e-18
8903.25488 5.32657e-18
8904.27641 5.28772e-18
8905.29794 5.25280e-18
8906.30946 5.22815e-18
8907.33099 5.21961e-18
8908.35252 5.21870e-18
8909.36403 5.22227e-18
8910.38556 5.22696e-18
8911.40709 5.22632e-18
8912.42862 5.22062e-18
8913.44014 5.21045e-18
8914.46167 5.19526e-18
8915.47318 5.17520e-18
8916.49471 5.15064e-18
8917.51624 5.12004e-18
8918.53777 5.08311e-18
8919.54929 5.03983e-18
8920.57081 4.98835e-18
8921.59235 4.93233e-18
8922.60386 4.87566e-18
8923.62539 4.82142e-18
8924.64692 4.77303e-18
8925.65844 4.73370e-18
8926.67996 4.70445e-18
8927.70150 4.68665e-18
8928.71301 4.68129e-18
8929.73454 4.69158e-18
8930.75607 4.71349e-18
8931.76758 4.74255e-18
8932.78911 4.77532e-18
8933.81065 4.80724e-18
8934.83218 4.83412e-18
8935.84369 4.85627e-18
8936.86522 4.87243e-18
8937.88675 4.88162e-18
8938.89827 4.88257e-18
8939.91980 4.87622e-18
8940.93131 4.86388e-18
8941.95284 4.84685e-18
8942.97437 4.82595e-18
8943.99590 4.80241e-18
8945.00742 4.78052e-18
8946.02895 4.76294e-18
8947.05048 4.75219e-18
8948.06199 4.75520e-18
8949.08352 4.76636e-18
8950.10505 4.78012e-18
8951.11657 4.79280e-18
8952.13810 4.79900e-18
8953.15963 4.79432e-18
8954.17114 4.78185e-18
8955.19267 4.76197e-18
8956.21420 4.73543e-18
8957.22572 4.70131e-18
8958.24725 4.66447e-18
8959.26878 4.62966e-18
8960.29031 4.60064e-18
8961.30182 4.58293e-18
8962.32335 4.58062e-18
8963.34488 4.58943e-18
8964.35640 4.60823e-18
8965.37793 4.63541e-18
8966.39946 4.66797e-18
8967.41097 4.70504e-18
8968.43250 4.74537e-18
8969.45403 4.78715e-18
8970.46555 4.82893e-18
8971.48707 4.86900e-18
8972.50861 4.90404e-18
8973.52012 4.93169e-18
8974.54165 4.94983e-18
8975.56318 4.95667e-18
8976.57469 4.95104e-18
8977.59622 4.93234e-18
8978.61776 4.90075e-18
8979.62927 4.85427e-18
8980.65080 4.79346e-18
8981.67233 4.72999e-18
8982.68384 4.67059e-18
8983.70538 4.62213e-18
8984.72691 4.59554e-18
8985.73842 4.58902e-18
8986.75995 4.60084e-18
8987.78148 4.62999e-18
8988.80301 4.67638e-18
8989.81453 4.73767e-18
8990.83606 4.80403e-18
8991.85758 4.86882e-18
8992.86910 4.92517e-18
8993.89063 4.96135e-18
8994.91216 4.98061e-18
8995.92368 4.98550e-18
8996.94520 4.97743e-18
8997.96673 4.95840e-18
8998.97825 4.93109e-18
8999.99978 4.89883e-18
9001.02131 4.86485e-18
9002.03283 4.83256e-18
9003.05436 4.80767e-18
9004.07589 4.78868e-18
9005.08740 4.77456e-18
9006.10893 4.76486e-18
9007.13046 4.75842e-18
9008.14198 4.75419e-18
9009.16351 4.75239e-18
9010.18504 4.75247e-18
9011.19655 4.75386e-18
9012.21808 4.75640e-18
9013.23961 4.75898e-18
9014.26114 4.76074e-18
9015.27266 4.76116e-18
9016.29419 4.75874e-18
9017.31572 4.75327e-18
9018.32723 4.74827e-18
9019.34876 4.74552e-18
9020.37029 4.74690e-18
9021.38181 4.75499e-18
9022.40333 4.76980e-18
9023.42487 4.79133e-18
9024.43638 4.81948e-18
9025.45791 4.85554e-18
9026.47944 4.89869e-18
9027.49095 4.94270e-18
9028.51249 4.98402e-18
9029.53402 5.01879e-18
9030.54553 5.03984e-18
9031.56706 5.05097e-18
9032.58859 5.05482e-18
9033.60010 5.05311e-18
9034.62164 5.04882e-18
9035.64317 5.04416e-18
9036.65468 5.03875e-18
9037.67621 5.03356e-18
9038.69774 5.02942e-18
9039.71927 5.02703e-18
9040.73079 5.02691e-18
9041.75231 5.02943e-18
9042.77384 5.03471e-18
9043.78536 5.04344e-18
9044.80689 5.05526e-18
9045.82842 5.06753e-18
9046.83994 5.07864e-18
9047.86146 5.08690e-18
9048.88299 5.08978e-18
9049.89451 5.08767e-18
9050.91604 5.08076e-18
9051.93757 5.06912e-18
9052.94909 5.05229e-18
9053.97062 5.03083e-18
9054.99215 5.00743e-18
9056.00366 4.98362e-18
9057.02519 4.96131e-18
9058.04672 4.94499e-18
9059.06825 4.93057e-18
9060.07977 4.91546e-18
9061.10130 4.89808e-18
9062.11281 4.87404e-18
9063.13434 4.84263e-18
9064.15587 4.81044e-18
9065.17740 4.78020e-18
9066.18892 4.75516e-18
9067.21045 4.74107e-18
9068.23198 4.73497e-18
9069.24349 4.73525e-18
9070.26502 4.74081e-18
9071.28655 4.75029e-18
9072.29806 4.76223e-18
9073.31960 4.77520e-18
9074.34113 4.78783e-18
9075.35264 4.79861e-18
9076.37417 4.80417e-18
9077.39570 4.80794e-18
9078.40721 4.81214e-18
9079.42875 4.81837e-18
9080.45028 4.82971e-18
9081.47181 4.84712e-18
9082.48332 4.86814e-18
9083.50485 4.89186e-18
9084.52638 4.91733e-18
9085.53790 4.94422e-18
9086.55943 4.96954e-18
9087.57094 4.99097e-18
9088.59247 5.00671e-18
9089.61400 5.01267e-18
9090.63553 5.00858e-18
9091.64705 4.99974e-18
9092.66857 4.98895e-18
9093.69010 4.97914e-18
9094.70162 4.97544e-18
9095.72315 4.97580e-18
9096.74468 4.97953e-18
9097.75619 4.98633e-18
9098.77772 4.99532e-18
9099.79925 5.00591e-18
9100.81077 5.01797e-18
9101.83230 5.03093e-18
9102.85383 5.04426e-18
9103.86535 5.05790e-18
9104.88688 5.07021e-18
9105.90841 5.08004e-18
9106.92994 5.08657e-18
9107.94145 5.08749e-18
9108.96298 5.08310e-18
9109.97450 5.07686e-18
9110.99603 5.07047e-18
9112.01756 5.06592e-18
9113.02907 5.06615e-18
9114.05060 5.06990e-18
9115.07213 5.07654e-18
9116.09366 5.08548e-18
9117.10518 5.09747e-18
9118.12671 5.11072e-18
9119.14824 5.12060e-18
9120.15975 5.12443e-18
9121.18128 5.11910e-18
9122.20281 5.09917e-18
9123.21432 5.06994e-18
9124.23586 5.03462e-18
9125.25739 4.99612e-18
9126.26890 4.95745e-18
9127.29043 4.92198e-18
9128.31196 4.89311e-18
9129.32348 4.87376e-18
9130.34501 4.86712e-18
9131.36654 4.87851e-18
9132.38806 4.90205e-18
9133.39958 4.93403e-18
9134.42111 4.97107e-18
9135.43263 5.00824e-18
9136.45416 5.04248e-18
9137.47569 5.07279e-18
9138.49721 5.09709e-18
9139.50873 5.11357e-18
9140.53026 5.12052e-18
9141.55179 5.11791e-18
9142.56331 5.10586e-18
9143.58483 5.08496e-18
9144.60636 5.05429e-18
9145.61788 5.01640e-18
9146.63941 4.97683e-18
9147.66094 4.93930e-18
9148.67245 4.90803e-18
9149.69398 4.88875e-18
9150.71551 4.87949e-18
9151.72703 4.87978e-18
9152.74856 4.88911e-18
9153.77009 4.90716e-18
9154.78161 4.93208e-18
9155.80314 4.96092e-18
9156.82467 4.99117e-18
9157.83618 5.02004e-18
9158.85771 5.04425e-18
9159.87924 5.06336e-18
9160.90077 5.07644e-18
9161.91229 5.08281e-18
9162.93382 5.08088e-18
9163.95535 5.07150e-18
9164.96686 5.05741e-18
9165.98839 5.04042e-18
9167.00992 5.02276e-18
9168.02144 5.00739e-18
9169.04297 4.99408e-18
9170.06450 4.98341e-18
9171.07601 4.97597e-18
9172.09754 4.97106e-18
9173.11907 4.96953e-18
9174.13059 4.97303e-18
9175.15212 4.98185e-18
9176.17365 4.99716e-18
9177.18516 5.02282e-18
9178.20669 5.04817e-18
9179.22822 5.06684e-18
9180.23974 5.07357e-18
9181.26127 5.05758e-18
9182.28280 5.01932e-18
9183.29431 4.96651e-18
9184.31584 4.90274e-18
9185.33737 4.83239e-18
9186.35890 4.76053e-18
9187.37042 4.69101e-18
9188.39194 4.62781e-18
9189.41347 4.57452e-18
9190.42499 4.53841e-18
9191.44652 4.51846e-18
9192.46805 4.50879e-18
9193.47956 4.50637e-18
9194.50109 4.50735e-18
9195.52263 4.50679e-18
9196.53414 4.50485e-18
9197.55567 4.50051e-18
9198.57720 4.49297e-18
9199.58871 4.47855e-18
9200.61024 4.46003e-18
9201.63178 4.44354e-18
9202.64329 4.43272e-18
9203.66482 4.43213e-18
9204.68635 4.44790e-18
9205.70788 4.47578e-18
9206.71940 4.51411e-18
9207.74093 4.56117e-18
9208.75244 4.61618e-18
9209.77397 4.67541e-18
9210.79550 4.73380e-18
9211.81703 4.78750e-18
9212.82855 4.83165e-18
9213.85008 4.85961e-18
9214.87161 4.87765e-18
9215.88312 4.88842e-18
9216.90465 4.89432e-18
9217.92618 4.90068e-18
9218.93770 4.90785e-18
9219.95923 4.91400e-18
9220.98076 4.91914e-18
9221.99227 4.92269e-18
9223.01380 4.92317e-18
9224.03533 4.92334e-18
9225.04685 4.92435e-18
9226.06838 4.92688e-18
9227.08991 4.93407e-18
9228.10142 4.94363e-18
9229.12295 4.95110e-18
9230.14448 4.95377e-18
9231.15600 4.94870e-18
9232.17753 4.93281e-18
9233.19906 4.90573e-18
9234.21057 4.86686e-18
9235.23210 4.81619e-18
9236.25363 4.74933e-18
9237.27516 4.67205e-18
9238.28668 4.59369e-18
9239.30820 4.52023e-18
9240.32974 4.45975e-18
9241.34125 4.42260e-18
9242.36278 4.39937e-18
9243.38431 4.38666e-18
9244.39582 4.38135e-18
9245.41735 4.37618e-18
9246.43889 4.37118e-18
9247.45040 4.36867e-18
9248.47193 4.36857e-18
9249.49346 4.37138e-18
9250.50497 4.37809e-18
9251.52650 4.38653e-18
9252.54804 4.39578e-18
9253.56956 4.40500e-18
9254.58108 4.41255e-18
9255.60261 4.41864e-18
9256.61413 4.42399e-18
9257.63566 4.42880e-18
9258.65719 4.43379e-18
9259.66870 4.44012e-18
9260.69023 4.44562e-18
9261.71176 4.44944e-18
9262.73329 4.45100e-18
9263.74481 4.44896e-18
9264.76634 4.44413e-18
9265.78787 4.43816e-18
9266.79938 4.43240e-18
9267.82091 4.42715e-18
9268.84244 4.42173e-18
9269.85396 4.42490e-18
9270.87549 4.44146e-18
9271.89702 4.47519e-18
9272.90853 4.53841e-18
9273.93006 4.62325e-18
9274.95159 4.71689e-18
9275.96311 4.81158e-18
9276.98464 4.89663e-18
9278.00617 4.95979e-18
9279.01768 5.00803e-18
9280.03921 5.04198e-18
9281.06074 5.06237e-18
9282.07226 5.07329e-18
9283.09379 5.07380e-18
9284.11531 5.06241e-18
9285.13685 5.03968e-18
9286.14836 5.00512e-18
9287.16989 4.95771e-18
9288.19142 4.90683e-18
9289.20294 4.85801e-18
9290.22446 4.81644e-18
9291.24600 4.79107e-18
9292.25751 4.78151e-18
9293.27904 4.78522e-18
9294.30057 4.80129e-18
9295.31208 4.82818e-18
9296.33361 4.86382e-18
9297.35515 4.90505e-18
9298.36666 4.94871e-18
9299.38819 4.99157e-18
9300.40972 5.02947e-18
9301.42123 5.06048e-18
9302.44277 5.08326e-18
9303.46430 5.09631e-18
9304.47581 5.09877e-18
9305.49734 5.09041e-18
9306.51887 5.07036e-18
9307.53039 5.03894e-18
9308.55192 4.99706e-18
9309.57344 4.94015e-18
9310.59497 4.87744e-18
9311.60649 4.81977e-18
9312.62802 4.77452e-18
9313.64955 4.75289e-18
9314.66107 4.76643e-18
9315.68260 4.79973e-18
9316.70413 4.84723e-18
9317.71564 4.90318e-18
9318.73717 4.95088e-18
9319.75870 4.99741e-18
9320.77022 5.05194e-18
9321.79175 5.11777e-18
9322.81328 5.20311e-18
9323.82479 5.31633e-18
9324.84632 5.43498e-18
9325.86785 5.54869e-18
9326.87937 5.64759e-18
9327.90090 5.71276e-18
9328.92243 5.74812e-18
9329.93394 5.76039e-18
9330.95547 5.75293e-18
9331.97700 5.72996e-18
9332.99853 5.69668e-18
9334.01005 5.66098e-18
9335.03157 5.63005e-18
9336.05311 5.61081e-18
9337.06462 5.61007e-18
9338.08615 5.63241e-18
9339.10768 5.68090e-18
9340.11919 5.75698e-18
9341.14072 5.86778e-18
9342.16226 6.01862e-18
9343.17377 6.17500e-18
9344.19530 6.31899e-18
9345.21683 6.43333e-18
9346.22834 6.47826e-18
9347.24988 6.47280e-18
9348.27141 6.44008e-18
9349.28292 6.39388e-18
9350.30445 6.35026e-18
9351.32598 6.32525e-18
9352.33749 6.32843e-18
9353.35903 6.36916e-18
9354.38056 6.45509e-18
9355.40208 6.62199e-18
9356.41360 6.82870e-18
9357.43513 7.03132e-18
9358.45666 7.20028e-18
9359.46818 7.29040e-18
9360.48970 7.26274e-18
9361.51123 7.16337e-18
9362.52275 7.00667e-18
9363.54428 6.80936e-18
9364.56581 6.59619e-18
9365.57733 6.37957e-18
9366.59886 6.17181e-18
9367.62039 5.98649e-18
9368.63190 5.84200e-18
9369.65343 5.75263e-18
9370.67496 5.69960e-18
9371.68648 5.67579e-18
9372.70801 5.67268e-18
9373.72954 5.67640e-18
9374.74105 5.68338e-18
9375.76258 5.69006e-18
9376.78411 5.69177e-18
9377.79563 5.68082e-18
9378.81716 5.65204e-18
9379.83869 5.61902e-18
9380.85020 5.58785e-18
9381.87173 5.56494e-18
9382.89326 5.56325e-18
9383.91479 5.57839e-18
9384.92631 5.60572e-18
9385.94784 5.64260e-18
9386.96937 5.68721e-18
9387.98088 5.73652e-18
9389.00241 5.78017e-18
9390.02394 5.81137e-18
9391.03545 5.82354e-18
9392.05699 5.80149e-18
9393.07852 5.75488e-18
9394.09003 5.69307e-18
9395.11156 5.62218e-18
9396.13309 5.55216e-18
9397.14460 5.49128e-18
9398.16614 5.43392e-18
9399.18767 5.38045e-18
9400.19918 5.33114e-18
9401.22071 5.28810e-18
9402.24224 5.24840e-18
9403.25375 5.20987e-18
9404.27529 5.17187e-18
9405.29681 5.12451e-18
9406.30833 5.06401e-18
9407.32986 5.02451e-18
9408.35139 5.02071e-18
9409.37292 5.06752e-18
9410.38444 5.21268e-18
9411.40596 5.40890e-18
9412.42749 5.61436e-18
9413.43901 5.80073e-18
9414.46054 5.92536e-18
9415.48207 5.95790e-18
9416.49359 5.92676e-18
9417.51512 5.83846e-18
9418.53665 5.70158e-18
9419.54816 5.50681e-18
9420.56969 5.30263e-18
9421.59122 5.13182e-18
9422.60274 5.02576e-18
9423.62427 5.04518e-18
9424.64580 5.22116e-18
9425.65731 5.46027e-18
9426.67884 5.72323e-18
9427.70037 5.96656e-18
9428.71189 6.11560e-18
9429.73342 6.18376e-18
9430.75495 6.17983e-18
9431.76646 6.10644e-18
9432.78799 5.95522e-18
9433.80952 5.73486e-18
9434.83105 5.51183e-18
9435.84256 5.32480e-18
9436.86410 5.21466e-18
9437.88563 5.26771e-18
9438.89714 5.42899e-18
9439.91867 5.65455e-18
9440.94020 5.91441e-18
9441.95171 6.16485e-18
9442.97325 6.37072e-18
9443.99478 6.53373e-18
9445.00629 6.64075e-18
9446.02782 6.68001e-18
9447.04935 6.62192e-18
9448.06087 6.50134e-18
9449.08240 6.34759e-18
9450.10393 6.18321e-18
9451.11544 6.04827e-18
9452.13697 5.96608e-18
9453.15850 5.90486e-18
9454.17002 5.85847e-18
9455.19155 5.81804e-18
9456.21307 5.76093e-18
9457.23460 5.70112e-18
9458.24612 5.64728e-18
9459.26765 5.60355e-18
9460.28918 5.57682e-18
9461.30069 5.57079e-18
9462.32222 5.58001e-18
9463.34375 5.60253e-18
9464.35527 5.63633e-18
9465.37680 5.68488e-18
9466.39833 5.73359e-18
9467.40985 5.77103e-18
9468.43138 5.78877e-18
9469.45291 5.76965e-18
9470.46442 5.70823e-18
9471.48595 5.62864e-18
9472.50748 5.54134e-18
9473.51900 5.45855e-18
9474.54053 5.40079e-18
9475.56206 5.36355e-18
9476.57357 5.34545e-18
9477.59510 5.34676e-18
9478.61663 5.36677e-18
9479.63816 5.40346e-18
9480.64968 5.45325e-18
9481.67121 5.51219e-18
9482.69274 5.57606e-18
9483.70425 5.64203e-18
9484.72578 5.70218e-18
9485.74731 5.74985e-18
9486.75882 5.77962e-18
9487.78036 5.78409e-18
9488.80189 5.76043e-18
9489.81340 5.71460e-18
9490.83493 5.65002e-18
9491.85646 5.57076e-18
9492.86798 5.47782e-18
9493.88951 5.38583e-18
9494.91104 5.30722e-18
9495.92255 5.25270e-18
9496.94408 5.23324e-18
9497.96561 5.25670e-18
9498.97713 5.32572e-18
9499.99866 5.44163e-18
9501.02019 5.60619e-18
9502.04171 5.83940e-18
9503.05323 6.09299e-18
9504.07476 6.33102e-18
9505.09629 6.52537e-18
9506.10781 6.62513e-18
9507.12933 6.61341e-18
9508.15086 6.53405e-18
9509.16238 6.40226e-18
9510.18391 6.23794e-18
9511.20544 6.07152e-18
9512.21695 5.90557e-18
9513.23848 5.74797e-18
9514.26002 5.60788e-18
9515.27153 5.50064e-18
9516.29306 5.42969e-18
9517.31459 5.37989e-18
9518.32611 5.34486e-18
9519.34764 5.31551e-18
9520.36917 5.27251e-18
9521.38068 5.22980e-18
9522.40221 5.19420e-18
9523.42374 5.16928e-18
9524.43526 5.16636e-18
9525.45679 5.18576e-18
9526.47832 5.21122e-18
9527.49985 5.23583e-18
9528.51136 5.25171e-18
9529.53289 5.24669e-18
9530.55442 5.22592e-18
9531.56594 5.19199e-18
9532.58747 5.14735e-18
9533.60900 5.08888e-18
9534.62051 5.02317e-18
9535.64204 4.96956e-18
9536.66357 4.93888e-18
9537.67509 4.94426e-18
9538.69662 5.01353e-18
9539.71815 5.11504e-18
9540.72966 5.22922e-18
9541.75119 5.34065e-18
9542.77272 5.42245e-18
9543.78424 5.46483e-18
9544.80577 5.48020e-18
9545.82730 5.47007e-18
9546.83881 5.43709e-18
9547.86034 5.38202e-18
9548.88187 5.31864e-18
9549.89339 5.25794e-18
9550.91492 5.20944e-18
9551.93644 5.19262e-18
9552.95797 5.20993e-18
9553.96949 5.24424e-18
9554.99102 5.28896e-18
9556.01255 5.33524e-18
9557.02406 5.36827e-18
9558.04559 5.39481e-18
9559.06713 5.41677e-18
9560.07864 5.43493e-18
9561.10017 5.44906e-18
9562.12170 5.46146e-18
9563.13321 5.47676e-18
9564.15474 5.49762e-18
9565.17628 5.52819e-18
9566.18779 5.57918e-18
9567.20932 5.63342e-18
9568.23085 5.68073e-18
9569.24237 5.71339e-18
9570.26390 5.71266e-18
9571.28543 5.67862e-18
9572.29694 5.62947e-18
9573.31847 5.57257e-18
9574.34000 5.51808e-18
9575.35152 5.48383e-18
9576.37305 5.45642e-18
9577.39458 5.43033e-18
9578.40609 5.40188e-18
9579.42762 5.36272e-18
9580.44915 5.31196e-18
9581.47068 5.25550e-18
9582.48220 5.19544e-18
9583.50373 5.13384e-18
9584.52526 5.07135e-18
9585.53677 5.01562e-18
9586.55830 4.97211e-18
9587.57983 4.94507e-18
9588.59135 4.94425e-18
9589.61288 4.96819e-18
9590.63441 5.00630e-18
9591.64592 5.05291e-18
9592.66745 5.10144e-18
9593.68898 5.14442e-18
9594.70050 5.17780e-18
9595.72203 5.19726e-18
9596.74356 5.19926e-18
9597.75507 5.17452e-18
9598.77660 5.12608e-18
9599.79813 5.06610e-18
9600.80965 5.00126e-18
9601.83118 4.94011e-18
9602.85270 4.89519e-18
9603.87424 4.86013e-18
9604.88575 4.83329e-18
9605.90728 4.81346e-18
9606.92881 4.79904e-18
9607.94032 4.78769e-18
9608.96185 4.77670e-18
9609.98339 4.76361e-18
9610.99490 4.74550e-18
9612.01643 4.71822e-18
9613.03796 4.68544e-18
9614.04947 4.64909e-18
9615.07100 4.61112e-18
9616.09254 4.57179e-18
9617.10405 4.53489e-18
9618.12558 4.50623e-18
9619.14711 4.48942e-18
9620.15863 4.48942e-18
9621.18016 4.51483e-18
9622.20169 4.55249e-18
9623.21320 4.59516e-18
9624.23473 4.63652e-18
9625.25626 4.66492e-18
9626.26778 4.67853e-18
9627.28931 4.68136e-18
9628.31084 4.67389e-18
9629.33237 4.65732e-18
9630.34388 4.63332e-18
9631.36541 4.60454e-18
9632.38694 4.57374e-18
9633.39846 4.54372e-18
9634.41999 4.51791e-18
9635.44152 4.49842e-18
9636.45303 4.48641e-18
9637.47456 4.48317e-18
9638.49609 4.48995e-18
9639.50761 4.50839e-18
9640.52914 4.53488e-18
9641.55067 4.56687e-18
9642.56218 4.60175e-18
9643.58371 4.63705e-18
9644.60524 4.66957e-18
9645.61676 4.69592e-18
9646.63829 4.71334e-18
9647.65981 4.71851e-18
9648.67133 4.70704e-18
9649.69286 4.68404e-18
9650.71439 4.65213e-18
9651.73592 4.61390e-18
9652.74744 4.57445e-18
9653.76896 4.53486e-18
9654.79050 4.49452e-18
9655.80201 4.45451e-18
9656.82354 4.41505e-18
9657.84507 4.37511e-18
9658.85658 4.34078e-18
9659.87811 4.31545e-18
9660.89965 4.30179e-18
9661.91116 4.30595e-18
9662.93269 4.32589e-18
9663.95422 4.35622e-18
9664.96573 4.39371e-18
9665.98727 4.43440e-18
9667.00880 4.47370e-18
9668.02031 4.50976e-18
9669.04184 4.53994e-18
9670.06337 4.56182e-18
9671.07488 4.57252e-18
9672.09642 4.57145e-18
9673.11794 4.55926e-18
9674.13947 4.53657e-18
9675.15099 4.50365e-18
9676.17252 4.46022e-18
9677.19405 4.41364e-18
9678.20557 4.36874e-18
9679.22710 4.32996e-18
9680.24863 4.30571e-18
9681.26014 4.29537e-18
9682.28167 4.29513e-18
9683.30320 4.30342e-18
9684.31472 4.31788e-18
9685.33625 4.33546e-18
9686.35778 4.35531e-18
9687.36929 4.37565e-18
9688.39082 4.39474e-18
9689.41235 4.41011e-18
9690.42387 4.42118e-18
9691.44540 4.42804e-18
9692.46693 4.43053e-18
9693.47844 4.42844e-18
9694.49997 4.42148e-18
9695.52150 4.41170e-18
9696.53302 4.40037e-18
9697.55455 4.38870e-18
9698.57607 4.38075e-18
9699.59761 4.37464e-18
9700.60912 4.36716e-18
9701.63065 4.35696e-18
9702.65218 4.34070e-18
9703.66369 4.31355e-18
9704.68523 4.28647e-18
9705.70676 4.26444e-18
9706.71827 4.25169e-18
9707.73980 4.26142e-18
9708.76133 4.28663e-18
9709.77284 4.31569e-18
9710.79438 4.34235e-18
9711.81591 4.35737e-18
9712.82742 4.34988e-18
9713.84895 4.33031e-18
9714.87048 4.30195e-18
9715.88199 4.26807e-18
9716.90353 4.23366e-18
9717.92506 4.20105e-18
9718.93657 4.17194e-18
9719.95810 4.14838e-18
9720.97963 4.13368e-18
9721.99114 4.13169e-18
9723.01268 4.13387e-18
9724.03420 4.13603e-18
9725.05573 4.13427e-18
9726.06725 4.12004e-18
9727.08878 4.09553e-18
9728.11031 4.06504e-18
9729.12183 4.03074e-18
9730.14336 3.99504e-18
9731.16489 3.96057e-18
9732.17640 3.93083e-18
9733.19793 3.90878e-18
9734.21946 3.89697e-18
9735.23098 3.90122e-18
9736.25251 3.91859e-18
9737.27404 3.94446e-18
9738.28555 3.97570e-18
9739.30708 4.00888e-18
9740.32861 4.04045e-18
9741.34013 4.06682e-18
9742.36166 4.08487e-18
9743.38319 4.09190e-18
9744.39470 4.08070e-18
9745.41623 4.05604e-18
9746.43776 4.02443e-18
9747.44928 3.99010e-18
9748.47081 3.95924e-18
9749.49234 3.93839e-18
9750.51387 3.92322e-18
9751.52538 3.91344e-18
9752.54691 3.90861e-18
9753.56844 3.90669e-18
9754.57995 3.90852e-18
9755.60149 3.91504e-18
9756.62302 3.92643e-18
9757.63453 3.94264e-18
9758.65606 3.96342e-18
9759.67759 3.98906e-18
9760.68910 4.01932e-18
9761.71064 4.05373e-18
9762.73217 4.09456e-18
9763.74368 4.13726e-18
9764.76521 4.17679e-18
9765.78674 4.20975e-18
9766.79826 4.23132e-18
9767.81979 4.23710e-18
9768.84131 4.23226e-18
9769.85283 4.21877e-18
9770.87436 4.19884e-18
9771.89589 4.17466e-18
9772.90741 4.14943e-18
9773.92894 4.12629e-18
9774.95046 4.10793e-18
9775.97199 4.09841e-18
9776.98351 4.10123e-18
9778.00504 4.11018e-18
9779.02657 4.12258e-18
9780.03809 4.13558e-18
9781.05962 4.14373e-18
9782.08115 4.14732e-18
9783.09266 4.14695e-18
9784.11419 4.14229e-18
9785.13572 4.13357e-18
9786.14724 4.12126e-18
9787.16877 4.10438e-18
9788.19030 4.08294e-18
9789.20181 4.05716e-18
9790.22334 4.02588e-18
9791.24487 3.99207e-18
9792.25639 3.95890e-18
9793.27792 3.92886e-18
9794.29945 3.90469e-18
9795.31096 3.88889e-18
9796.33249 3.88225e-18
9797.35402 3.88579e-18
9798.37555 3.90013e-18
9799.38706 3.92805e-18
9800.40860 3.96556e-18
9801.43013 4.00831e-18
9802.44164 4.05292e-18
9803.46317 4.09493e-18
9804.48470 4.13027e-18
9805.49621 4.15976e-18
9806.51775 4.18250e-18
9807.53928 4.19783e-18
9808.55079 4.20514e-18
9809.57232 4.20502e-18
9810.59385 4.19833e-18
9811.60537 4.18606e-18
9812.62690 4.16919e-18
9813.64843 4.14892e-18
9814.65994 4.12741e-18
9815.68147 4.10637e-18
9816.70300 4.08746e-18
9817.71452 4.07374e-18
9818.73605 4.06429e-18
9819.75757 4.05817e-18
9820.77910 4.05489e-18
9821.79062 4.05324e-18
9822.81215 4.05216e-18
9823.83368 4.05309e-18
9824.84519 4.05623e-18
9825.86672 4.06173e-18
9826.88825 4.07117e-18
9827.89977 4.08227e-18
9828.92130 4.09294e-18
9829.94283 4.10176e-18
9830.95435 4.10668e-18
9831.97588 4.10626e-18
9832.99741 4.10213e-18
9834.00892 4.09490e-18
9835.03045 4.08530e-18
9836.05198 4.07286e-18
9837.06350 4.06073e-18
9838.08503 4.05176e-18
9839.10656 4.04801e-18
9840.11807 4.05301e-18
9841.13960 4.06884e-18
9842.16113 4.09034e-18
9843.17265 4.11518e-18
9844.19418 4.14077e-18
9845.21571 4.16408e-18
9846.23724 4.18296e-18
9847.24875 4.19541e-18
9848.27028 4.19970e-18
9849.29181 4.19292e-18
9850.30332 4.17373e-18
9851.32486 4.14732e-18
9852.33637 4.11634e-18
9853.35790 4.08375e-18
9854.37943 4.05306e-18
9855.40096 4.02631e-18
9856.41248 4.00537e-18
9857.43401 3.99185e-18
9858.45554 3.98906e-18
9859.46705 3.99818e-18
9860.48858 4.01196e-18
9861.51011 4.02675e-18
9862.52163 4.03863e-18
9863.54316 4.04075e-18
9864.56469 4.03478e-18
9865.57620 4.02200e-18
9866.59773 4.00298e-18
9867.61926 3.97802e-18
9868.63078 3.94839e-18
9869.65231 3.91829e-18
9870.67383 3.89062e-18
9871.69536 3.86839e-18
9872.70688 3.85697e-18
9873.72841 3.85418e-18
9874.74994 3.85834e-18
9875.76145 3.86830e-18
9876.78298 3.88254e-18
9877.80452 3.89938e-18
9878.81603 3.91717e-18
9879.83756 3.93423e-18
9880.85909 3.94879e-18
9881.87061 3.95784e-18
9882.89214 3.96248e-18
9883.91367 3.96347e-18
9884.92518 3.96123e-18
9885.94671 3.95732e-18
9886.96824 3.95253e-18
9887.97976 3.94460e-18
9889.00129 3.93308e-18
9890.02282 3.91741e-18
9891.03433 3.89401e-18
9892.05586 3.86850e-18
9893.07739 3.84523e-18
9894.08891 3.82723e-18
9895.11044 3.82040e-18
9896.13197 3.82723e-18
9897.15350 3.84067e-18
9898.16501 3.85812e-18
9899.18654 3.87636e-18
9900.20807 3.88896e-18
9901.21959 3.89864e-18
9902.24112 3.90678e-18
9903.26265 3.91379e-18
9904.27416 3.92174e-18
9905.29569 3.93119e-18
9906.31722 3.93855e-18
9907.32874 3.94263e-18
9908.35027 3.94200e-18
9909.37180 3.93287e-18
9910.38331 3.91938e-18
9911.40484 3.90456e-18
9912.42637 3.89058e-18
9913.43789 3.88125e-18
9914.45942 3.87841e-18
9915.48094 3.87920e-18
9916.49246 3.88293e-18
9917.51399 3.88867e-18
9918.53552 3.89530e-18
9919.54704 3.90186e-18
9920.56856 3.90740e-18
9921.59009 3.91114e-18
9922.61163 3.91091e-18
9923.62314 3.90645e-18
9924.64467 3.90167e-18
9925.66620 3.89826e-18
9926.67771 3.89822e-18
9927.69924 3.90542e-18
9928.72078 3.91713e-18
9929.73229 3.93154e-18
9930.75382 3.94724e-18
9931.77535 3.96319e-18
9932.78687 3.97766e-18
9933.80840 3.98772e-18
9934.82993 3.99141e-18
9935.84144 3.98666e-18
9936.86297 3.96835e-18
9937.88450 3.94272e-18
9938.89602 3.91420e-18
9939.91755 3.88631e-18
9940.93908 3.86440e-18
9941.95059 3.85137e-18
9942.97212 3.84569e-18
9943.99365 3.84768e-18
9945.00517 3.85740e-18
9946.02670 3.87591e-18
9947.04823 3.89920e-18
9948.06976 3.92401e-18
9949.08127 3.94746e-18
9950.10280 3.96523e-18
9951.12433 3.97519e-18
9952.13585 3.97897e-18
9953.15738 3.97657e-18
9954.17891 3.96828e-18
9955.19042 3.95406e-18
9956.21195 3.93625e-18
9957.23348 3.91682e-18
9958.24500 3.89757e-18
9959.26653 3.88152e-18
9960.28806 3.86982e-18
9961.29957 3.86084e-18
9962.32110 3.85433e-18
9963.34263 3.84967e-18
9964.35415 3.84575e-18
9965.37568 3.84286e-18
9966.39720 3.84089e-18
9967.40872 3.83955e-18
9968.43025 3.83890e-18
9969.45178 3.83847e-18
9970.47331 3.83722e-18
9971.48482 3.83454e-18
9972.50635 3.82983e-18
9973.52789 3.82229e-18
9974.53940 3.81254e-18
9975.56093 3.80108e-18
9976.58246 3.78854e-18
9977.59397 3.77405e-18
9978.61550 3.75909e-18
9979.63704 3.74795e-18
9980.64855 3.74286e-18
9981.67008 3.74668e-18
9982.69161 3.76586e-18
9983.70312 3.79183e-18
9984.72466 3.81932e-18
9985.74619 3.84416e-18
9986.75770 3.85842e-18
9987.77923 3.86016e-18
9988.80076 3.85445e-18
9989.81228 3.84268e-18
9990.83381 3.82681e-18
9991.85534 3.80961e-18
9992.87687 3.79210e-18
9993.88838 3.77571e-18
9994.90991 3.76192e-18
9995.93144 3.75321e-18
9996.94296 3.74989e-18
9997.96449 3.74946e-18
