# wavelength flux
3652.61071 1.65514e-18
3655.60520 1.80045e-18
3658.60970 1.73713e-18
3661.60418 1.92365e-18
3664.59867 1.76193e-18
3667.60317 1.78327e-18
3670.59765 2.08244e-18
3673.59214 2.00225e-18
3676.59664 1.64993e-18
3679.59112 1.67371e-18
3682.58561 1.73471e-18
3685.59011 1.90559e-18
3688.58459 1.94954e-18
3691.57908 1.88040e-18
3694.58358 2.14741e-18
3697.57806 2.23918e-18
3700.57255 2.31677e-18
3703.57705 2.50515e-18
3706.57153 2.37018e-18
3709.56602 2.50998e-18
3712.57052 2.53278e-18
3715.56500 2.52507e-18
3718.55948 2.56412e-18
3721.56398 2.74926e-18
3724.55847 2.64607e-18
3727.55296 2.26351e-18
3730.55746 2.03294e-18
3733.55194 2.19960e-18
3736.54642 2.23921e-18
3739.54091 2.35137e-18
3742.54541 2.38349e-18
3745.53989 2.13008e-18
3748.53438 1.99285e-18
3751.53888 1.84155e-18
3754.53337 1.62545e-18
3757.52785 1.73634e-18
3760.53235 1.76630e-18
3763.52684 1.56426e-18
3766.52132 1.28365e-18
3769.52582 9.77367e-19
3772.52031 1.10532e-18
3775.51479 9.69333e-19
3778.51929 7.03922e-19
3781.51378 8.57144e-19
3784.50826 9.60591e-19
3787.51276 8.89393e-19
3790.50725 8.74706e-19
3793.50173 8.57750e-19
3796.50623 8.63238e-19
3799.50072 6.81219e-19
3802.49520 5.71444e-19
3805.49970 7.09640e-19
3808.49419 8.66022e-19
3811.48867 6.24845e-19
3814.49317 6.13215e-19
3817.48766 7.40198e-19
3820.48214 6.44207e-19
3823.48664 7.43511e-19
3826.48113 7.97244e-19
3829.47561 9.06691e-19
3832.48011 1.11344e-18
3835.47460 9.33474e-19
3838.46908 8.38256e-19
3841.47358 1.04139e-18
3844.46807 1.21838e-18
3847.46255 9.18307e-19
3850.46705 7.39217e-19
3853.46154 9.33220e-19
3856.45602 9.56478e-19
3859.45051 1.15587e-18
3862.45501 1.15669e-18
3865.44949 1.21326e-18
3868.44398 1.41317e-18
3871.44848 1.64461e-18
3874.44296 1.66109e-18
3877.43745 1.54989e-18
3880.44195 1.59399e-18
3883.43643 2.00190e-18
3886.43092 2.16113e-18
3889.43542 2.31915e-18
3892.42990 2.52478e-18
3895.42439 2.79588e-18
3898.42889 2.96533e-18
3901.42337 3.35238e-18
3904.41786 3.63965e-18
3907.42236 3.80905e-18
3910.41684 4.02942e-18
3913.41133 4.20160e-18
3916.41583 4.60643e-18
3919.41031 4.83405e-18
3922.40480 4.67577e-18
3925.40930 4.54152e-18
3928.40378 4.74197e-18
3931.39827 4.92891e-18
3934.40277 4.73512e-18
3937.39725 4.66164e-18
3940.39174 4.75369e-18
3943.39624 4.83392e-18
3946.39072 4.84927e-18
3949.38521 4.89643e-18
3952.38971 4.96786e-18
3955.38419 5.12036e-18
3958.37867 5.08824e-18
3961.38317 5.03956e-18
3964.37766 5.00351e-18
3967.37215 5.15491e-18
3970.37665 5.50401e-18
3973.37113 5.46338e-18
3976.36562 5.47093e-18
3979.36010 5.82789e-18
3982.36460 5.84646e-18
3985.35909 5.80166e-18
3988.35357 5.86532e-18
3991.35807 6.05630e-18
3994.35255 6.18111e-18
3997.34704 6.15832e-18
4000.35154 6.14795e-18
4003.34603 6.19652e-18
4006.34051 6.30573e-18
4009.34501 6.77700e-18
4012.33950 7.17585e-18
4015.33398 7.17718e-18
4018.33848 6.98948e-18
4021.33297 7.11383e-18
4024.32745 7.20091e-18
4027.33195 7.21526e-18
4030.32644 7.38548e-18
4033.32092 7.49336e-18
4036.32542 7.75283e-18
4039.31991 7.84011e-18
4042.31439 8.11386e-18
4045.31889 8.12416e-18
4048.31338 8.31577e-18
4051.30786 8.36072e-18
4054.31236 8.23931e-18
4057.30685 8.13360e-18
4060.30133 8.36569e-18
4063.30583 8.58701e-18
4066.30032 8.60994e-18
4069.29480 8.52900e-18
4072.29930 8.39643e-18
4075.29379 8.04952e-18
4078.28827 7.89770e-18
4081.29277 7.93102e-18
4084.28726 7.84430e-18
4087.28174 7.41306e-18
4090.28624 7.07280e-18
4093.28073 6.96658e-18
4096.27521 6.82258e-18
4099.27971 6.64823e-18
4102.27419 6.58649e-18
4105.26868 6.37298e-18
4108.26317 6.02412e-18
4111.26767 6.00756e-18
4114.26215 5.86556e-18
4117.25664 5.57066e-18
4120.26114 5.42728e-18
4123.25562 5.34700e-18
4126.25011 5.42786e-18
4129.25461 5.39627e-18
4132.24909 5.24934e-18
4135.24358 5.08841e-18
4138.24808 5.09182e-18
4141.24256 4.97574e-18
4144.23704 4.85409e-18
4147.24154 4.97544e-18
4150.23603 5.11099e-18
4153.23052 5.06253e-18
4156.23502 4.80867e-18
4159.22950 4.64170e-18
4162.22398 4.66178e-18
4165.22848 4.61692e-18
4168.22297 4.45805e-18
4171.21746 4.47002e-18
4174.22196 4.36953e-18
4177.21644 4.49844e-18
4180.21093 4.42739e-18
4183.21543 4.22734e-18
4186.20991 4.28947e-18
4189.20440 4.20128e-18
4192.20890 4.18742e-18
4195.20338 4.17809e-18
4198.19787 4.04840e-18
4201.20237 4.16141e-18
4204.19685 4.19084e-18
4207.19134 4.34844e-18
4210.19584 4.33862e-18
4213.19032 4.16925e-18
4216.18480 4.15625e-18
4219.18930 4.18921e-18
4222.18379 4.14145e-18
4225.17828 4.24374e-18
4228.17276 4.26320e-18
4231.17726 4.16040e-18
4234.17175 4.24813e-18
4237.16623 4.26320e-18
4240.17073 4.20068e-18
4243.16522 4.17596e-18
4246.15970 4.16048e-18
4249.16420 4.19072e-18
4252.15869 4.23047e-18
4255.15317 4.28252e-18
4258.15767 4.39669e-18
4261.15216 4.50951e-18
4264.14664 4.58997e-18
4267.15114 4.59783e-18
4270.14563 4.61532e-18
4273.14011 4.75380e-18
4276.14461 4.82913e-18
4279.13909 4.81058e-18
4282.13358 4.93098e-18
4285.13808 4.92459e-18
4288.13256 4.78116e-18
4291.12705 4.88005e-18
4294.13155 4.98066e-18
4297.12604 4.92501e-18
4300.12052 4.85073e-18
4303.12502 4.85361e-18
4306.11951 4.94517e-18
4309.11399 5.08002e-18
4312.11849 5.01835e-18
4315.11298 4.90232e-18
4318.10746 4.86669e-18
4321.11196 4.90682e-18
4324.10645 4.92511e-18
4327.10093 4.98651e-18
4330.10543 4.89969e-18
4333.09991 4.80848e-18
4336.09440 4.92863e-18
4339.09890 4.88508e-18
4342.09339 4.78696e-18
4345.08787 4.74024e-18
4348.09237 4.73022e-18
4351.08685 4.74466e-18
4354.08134 4.61562e-18
4357.07583 4.39965e-18
4360.08033 4.31805e-18
4363.07481 4.22123e-18
4366.06930 4.21200e-18
4369.07380 4.17486e-18
4372.06828 4.11683e-18
4375.06277 4.09600e-18
4378.06727 3.94523e-18
4381.06175 3.83137e-18
4384.05624 3.92871e-18
4387.06074 3.94644e-18
4390.05522 3.87989e-18
4393.04971 4.01415e-18
4396.05421 4.12465e-18
4399.04869 4.08405e-18
4402.04317 4.17540e-18
4405.04767 4.28157e-18
4408.04216 4.25590e-18
4411.03665 4.21292e-18
4414.04115 4.33322e-18
4417.03563 4.39877e-18
4420.03012 4.38349e-18
4423.03462 4.47263e-18
4426.02910 4.46428e-18
4429.02359 4.49589e-18
4432.02809 4.42658e-18
4435.02257 4.44485e-18
4438.01706 4.55392e-18
4441.02156 4.64728e-18
4444.01604 4.68731e-18
4447.01053 4.65521e-18
4450.01503 4.62605e-18
4453.00951 4.59415e-18
4456.00400 4.60839e-18
4459.00850 4.59806e-18
4462.00298 4.54753e-18
4464.99747 4.52788e-18
4468.00197 4.59230e-18
4470.99645 4.64218e-18
4473.99093 4.57604e-18
4476.98542 4.57711e-18
4479.98992 4.71146e-18
4482.98441 4.80711e-18
4485.97889 4.74796e-18
4488.98339 4.77944e-18
4491.97788 4.94409e-18
4494.97236 4.97860e-18
4497.97686 5.15862e-18
4500.97134 5.25620e-18
4503.96583 5.42142e-18
4506.97033 5.33240e-18
4509.96482 5.49430e-18
4512.95930 5.84055e-18
4515.96380 6.04569e-18
4518.95828 6.13225e-18
4521.95277 6.37375e-18
4524.95727 6.53448e-18
4527.95176 6.60497e-18
4530.94624 6.87295e-18
4533.95074 7.25070e-18
4536.94522 7.51018e-18
4539.93971 7.64190e-18
4542.94421 7.71753e-18
4545.93870 7.94198e-18
4548.93318 8.18582e-18
4551.93768 8.30010e-18
4554.93217 8.56028e-18
4557.92665 8.78645e-18
4560.93115 8.91079e-18
4563.92564 9.04988e-18
4566.92012 9.23952e-18
4569.92462 9.53015e-18
4572.91910 9.64139e-18
4575.91359 9.55284e-18
4578.91809 9.93147e-18
4581.91258 1.01359e-17
4584.90706 1.00461e-17
4587.91156 1.01648e-17
4590.90604 1.03407e-17
4593.90053 1.04511e-17
4596.89502 1.04315e-17
4599.89952 1.03704e-17
4602.89400 1.03126e-17
4605.89850 1.04144e-17
4608.89299 1.06166e-17
4611.88747 1.05953e-17
4614.88196 1.04700e-17
4617.88646 1.06830e-17
4620.88094 1.08359e-17
4623.87543 1.06379e-17
4626.87993 1.06244e-17
4629.87441 1.08895e-17
4632.86890 1.08884e-17
4635.87340 1.08942e-17
4638.86788 1.12305e-17
4641.86236 1.14621e-17
4644.86686 1.15418e-17
4647.86135 1.16598e-17
4650.85584 1.14314e-17
4653.86034 1.14228e-17
4656.85482 1.12600e-17
4659.84930 1.11402e-17
4662.85380 1.09125e-17
4665.84829 1.05204e-17
4668.84278 1.01536e-17
4671.84728 9.88125e-18
4674.84176 9.62686e-18
4677.83625 9.12962e-18
4680.84075 8.58830e-18
4683.83523 8.15458e-18
4686.82972 8.01786e-18
4689.83422 8.00763e-18
4692.82870 7.84076e-18
4695.82319 7.79209e-18
4698.82769 7.90079e-18
4701.82217 8.14007e-18
4704.81666 8.54112e-18
4707.82116 8.96936e-18
4710.81564 9.23998e-18
4713.81012 9.45047e-18
4716.81462 9.86961e-18
4719.80911 1.02377e-17
4722.80359 1.04907e-17
4725.80809 1.07301e-17
4728.80258 1.07532e-17
4731.79707 1.09238e-17
4734.79155 1.10193e-17
4737.79605 1.10912e-17
4740.79054 1.12063e-17
4743.78502 1.12874e-17
4746.78952 1.14176e-17
4749.78401 1.14927e-17
4752.77849 1.14220e-17
4755.78299 1.12982e-17
4758.77747 1.12810e-17
4761.77196 1.12910e-17
4764.77646 1.12896e-17
4767.77095 1.12042e-17
4770.76543 1.12555e-17
4773.76993 1.13982e-17
4776.76441 1.14803e-17
4779.75890 1.14202e-17
4782.76340 1.12372e-17
4785.75788 1.12124e-17
4788.75237 1.12356e-17
4791.75687 1.12325e-17
4794.75136 1.09950e-17
4797.74584 1.08046e-17
4800.75034 1.07602e-17
4803.74483 1.05357e-17
4806.73931 1.02102e-17
4809.74381 9.95343e-18
4812.73830 9.88487e-18
4815.73278 9.76269e-18
4818.73728 9.52226e-18
4821.73177 9.34017e-18
4824.72625 9.19417e-18
4827.73075 8.90426e-18
4830.72523 8.74271e-18
4833.71972 8.83542e-18
4836.72422 8.80628e-18
4839.71871 8.69815e-18
4842.71319 8.64998e-18
4845.71769 8.55350e-18
4848.71217 8.56741e-18
4851.70666 8.50339e-18
4854.71116 8.22913e-18
4857.70565 8.17305e-18
4860.70013 8.22396e-18
4863.69462 8.07378e-18
4866.69912 7.93233e-18
4869.69360 7.84897e-18
4872.68809 7.89749e-18
4875.69259 7.89613e-18
4878.68707 7.79303e-18
4881.68156 7.71852e-18
4884.68606 7.62707e-18
4887.68054 7.56058e-18
4890.67503 7.40828e-18
4893.67953 7.33528e-18
4896.67401 7.36780e-18
4899.66849 7.22572e-18
4902.67299 7.35540e-18
4905.66748 7.64204e-18
4908.66197 7.75123e-18
4911.66647 7.86876e-18
4914.66095 8.04324e-18
4917.65544 8.13099e-18
4920.65994 8.34655e-18
4923.65442 8.74035e-18
4926.64891 8.98294e-18
4929.65341 9.09157e-18
4932.64789 9.22342e-18
4935.64238 9.43785e-18
4938.64688 9.65752e-18
4941.64136 9.74296e-18
4944.63584 9.90370e-18
4947.64034 1.00480e-17
4950.63483 1.01905e-17
4953.62932 1.05065e-17
4956.63382 1.06357e-17
4959.62830 1.07877e-17
4962.62278 1.11001e-17
4965.62728 1.13363e-17
4968.62177 1.15613e-17
4971.61625 1.18282e-17
4974.62075 1.22925e-17
4977.61524 1.25766e-17
4980.60973 1.26308e-17
4983.60421 1.29157e-17
4986.60871 1.33248e-17
4989.60320 1.36581e-17
4992.59768 1.39181e-17
4995.60218 1.43171e-17
4998.59667 1.47155e-17
5001.59115 1.47788e-17
5004.59565 1.47569e-17
5007.59014 1.50722e-17
5010.58462 1.52416e-17
5013.58912 1.50728e-17
5016.58360 1.50215e-17
5019.57809 1.50228e-17
5022.58259 1.48585e-17
5025.57708 1.46662e-17
5028.57156 1.45309e-17
5031.57606 1.43482e-17
5034.57054 1.39498e-17
5037.56503 1.34958e-17
5040.56953 1.29814e-17
5043.56402 1.24897e-17
5046.55850 1.20900e-17
5049.56300 1.17050e-17
5052.55749 1.13301e-17
5055.55197 1.09365e-17
5058.55647 1.05259e-17
5061.55096 1.00513e-17
5064.54544 9.54674e-18
5067.54994 9.19796e-18
5070.54443 8.91242e-18
5073.53891 8.59547e-18
5076.54341 8.37197e-18
5079.53790 8.19497e-18
5082.53238 7.98797e-18
5085.53688 7.79267e-18
5088.53136 7.77573e-18
5091.52585 7.84688e-18
5094.53035 7.76987e-18
5097.52484 7.72751e-18
5100.51932 7.78919e-18
5103.51381 7.78451e-18
5106.51831 7.75623e-18
5109.51279 7.80470e-18
5112.50728 8.08082e-18
5115.51178 8.36297e-18
5118.50626 8.42474e-18
5121.50075 8.47974e-18
5124.50525 8.59572e-18
5127.49973 8.82338e-18
5130.49422 9.04084e-18
5133.49872 9.12575e-18
5136.49320 9.13730e-18
5139.48769 9.16076e-18
5142.49219 9.40650e-18
5145.48667 9.68248e-18
5148.48116 9.78052e-18
5151.48566 9.83986e-18
5154.48014 9.83229e-18
5157.47463 9.82201e-18
5160.47912 9.95245e-18
5163.47361 1.01237e-17
5166.46810 1.01843e-17
5169.47260 1.02276e-17
5172.46708 1.02330e-17
5175.46157 1.02223e-17
5178.46607 1.00851e-17
5181.46055 1.00354e-17
5184.45503 1.01570e-17
5187.45953 1.02688e-17
5190.45402 1.03339e-17
5193.44851 1.02738e-17
5196.45301 1.03135e-17
5199.44749 1.03048e-17
5202.44197 1.01803e-17
5205.44647 1.01112e-17
5208.44096 1.00933e-17
5211.43545 9.98692e-18
5214.42993 9.87576e-18
5217.43443 9.64054e-18
5220.42892 9.69693e-18
5223.42340 9.76988e-18
5226.42790 9.71110e-18
5229.42239 9.57930e-18
5232.41687 9.55048e-18
5235.42137 9.50974e-18
5238.41586 9.62486e-18
5241.41034 9.58335e-18
5244.41484 9.59426e-18
5247.40933 9.69882e-18
5250.40381 9.80845e-18
5253.40831 9.83508e-18
5256.40279 9.92044e-18
5259.39728 1.01190e-17
5262.40178 1.02976e-17
5265.39627 1.03417e-17
5268.39075 1.03456e-17
5271.39525 1.04365e-17
5274.38973 1.05932e-17
5277.38422 1.08910e-17
5280.38872 1.11824e-17
5283.38321 1.12251e-17
5286.37769 1.13825e-17
5289.38219 1.15504e-17
5292.37668 1.17682e-17
5295.37116 1.18472e-17
5298.37566 1.18608e-17
5301.37015 1.21160e-17
5304.36463 1.22828e-17
5307.36913 1.25785e-17
5310.36362 1.28359e-17
5313.35810 1.29643e-17
5316.36260 1.33171e-17
5319.35709 1.35668e-17
5322.35157 1.36028e-17
5325.35607 1.37376e-17
5328.35055 1.39285e-17
5331.34504 1.40769e-17
5334.33953 1.41205e-17
5337.34403 1.42374e-17
5340.33851 1.44114e-17
5343.33300 1.45808e-17
5346.33750 1.46606e-17
5349.33198 1.47174e-17
5352.32647 1.50344e-17
5355.33097 1.52878e-17
5358.32545 1.53929e-17
5361.31994 1.55720e-17
5364.32444 1.56705e-17
5367.31892 1.57636e-17
5370.31341 1.58207e-17
5373.31791 1.56675e-17
5376.31239 1.57293e-17
5379.30688 1.59121e-17
5382.31138 1.60843e-17
5385.30586 1.60978e-17
5388.30034 1.60706e-17
5391.30484 1.61390e-17
5394.29933 1.61628e-17
5397.29381 1.62313e-17
5400.29832 1.65083e-17
5403.29280 1.66221e-17
5406.28729 1.65314e-17
5409.29179 1.65661e-17
5412.28627 1.66021e-17
5415.28076 1.64360e-17
5418.28526 1.65231e-17
5421.27974 1.67905e-17
5424.27423 1.68209e-17
5427.27873 1.67516e-17
5430.27321 1.66614e-17
5433.26770 1.67423e-17
5436.27220 1.66476e-17
5439.26668 1.65266e-17
5442.26116 1.63574e-17
5445.26566 1.61249e-17
5448.26015 1.60192e-17
5451.25464 1.58443e-17
5454.25914 1.55719e-17
5457.25362 1.55443e-17
5460.24810 1.54274e-17
5463.25260 1.52405e-17
5466.24709 1.52424e-17
5469.24158 1.53557e-17
5472.23606 1.52868e-17
5475.24056 1.50461e-17
5478.23505 1.50994e-17
5481.22953 1.53284e-17
5484.23403 1.54803e-17
5487.22852 1.56748e-17
5490.22300 1.58509e-17
5493.22750 1.60576e-17
5496.22199 1.64748e-17
5499.21647 1.70985e-17
5502.22097 1.74823e-17
5505.21546 1.76883e-17
5508.20994 1.81112e-17
5511.21444 1.85229e-17
5514.20892 1.89610e-17
5517.20341 1.91415e-17
5520.20791 1.92261e-17
5523.20240 1.95674e-17
5526.19688 1.97816e-17
5529.20138 1.98649e-17
5532.19587 1.98860e-17
5535.19035 1.98953e-17
5538.19485 1.98088e-17
5541.18934 1.97024e-17
5544.18382 1.97466e-17
5547.18832 1.95443e-17
5550.18281 1.93587e-17
5553.17729 1.93281e-17
5556.18179 1.91699e-17
5559.17628 1.91430e-17
5562.17076 1.87437e-17
5565.17526 1.83261e-17
5568.16975 1.81980e-17
5571.16423 1.79486e-17
5574.16873 1.74959e-17
5577.16322 1.71071e-17
5580.15770 1.68071e-17
5583.16220 1.65365e-17
5586.15668 1.62902e-17
5589.15117 1.58584e-17
5592.15567 1.54363e-17
5595.15016 1.51409e-17
5598.14464 1.47218e-17
5601.13913 1.42975e-17
5604.14363 1.39785e-17
5607.13811 1.36990e-17
5610.13260 1.35574e-17
5613.13710 1.34757e-17
5616.13158 1.33711e-17
5619.12607 1.34630e-17
5622.13057 1.36359e-17
5625.12505 1.39129e-17
5628.11953 1.41885e-17
5631.12403 1.43123e-17
5634.11852 1.43642e-17
5637.11301 1.44856e-17
5640.11751 1.48039e-17
5643.11199 1.51296e-17
5646.10647 1.52322e-17
5649.11097 1.54185e-17
5652.10546 1.54152e-17
5655.09995 1.52805e-17
5658.10445 1.52600e-17
5661.09893 1.52252e-17
5664.09342 1.48891e-17
5667.09792 1.43763e-17
5670.09240 1.39483e-17
5673.08689 1.33509e-17
5676.09139 1.25140e-17
5679.08587 1.17010e-17
5682.08036 1.09246e-17
5685.08486 1.01041e-17
5688.07934 9.31225e-18
5691.07383 8.69001e-18
5694.07833 8.03786e-18
5697.07281 7.46248e-18
5700.06729 6.95761e-18
5703.07179 6.58303e-18
5706.06628 6.30449e-18
5709.06077 6.11933e-18
5712.06527 5.86617e-18
5715.05975 5.61581e-18
5718.05424 5.48580e-18
5721.04872 5.43352e-18
5724.05322 5.39751e-18
5727.04771 5.35147e-18
5730.04219 5.33903e-18
5733.04669 5.33314e-18
5736.04118 5.32802e-18
5739.03566 5.41217e-18
5742.04016 5.48651e-18
5745.03465 5.59671e-18
5748.02913 5.68782e-18
5751.03363 5.76548e-18
5754.02812 5.98142e-18
5757.02260 6.25168e-18
5760.02710 6.51459e-18
5763.02159 6.73312e-18
5766.01607 6.89470e-18
5769.02057 7.11763e-18
5772.01505 7.33204e-18
5775.00954 7.57667e-18
5778.01404 7.90448e-18
5781.00853 8.16539e-18
5784.00301 8.44568e-18
5787.00751 8.71961e-18
5790.00200 9.01979e-18
5792.99648 9.31075e-18
5796.00098 9.71756e-18
5798.99547 1.02697e-17
5801.98995 1.06549e-17
5804.99445 1.10700e-17
5807.98894 1.15117e-17
5810.98342 1.18532e-17
5813.98792 1.23330e-17
5816.98241 1.28203e-17
5819.97689 1.33081e-17
5822.98139 1.36342e-17
5825.97588 1.40310e-17
5828.97036 1.45211e-17
5831.97486 1.49036e-17
5834.96934 1.52345e-17
5837.96383 1.56507e-17
5840.95832 1.61023e-17
5843.96282 1.64653e-17
5846.95730 1.69364e-17
5849.95179 1.74033e-17
5852.95629 1.77416e-17
5855.95077 1.82378e-17
5858.94526 1.88808e-17
5861.94976 1.94945e-17
5864.94424 2.02196e-17
5867.93872 2.08272e-17
5870.94322 2.14975e-17
5873.93771 2.23164e-17
5876.93220 2.29516e-17
5879.93670 2.33486e-17
5882.93118 2.38592e-17
5885.92566 2.42509e-17
5888.93016 2.43648e-17
5891.92465 2.46519e-17
5894.91914 2.51108e-17
5897.92364 2.55916e-17
5900.91812 2.60831e-17
5903.91261 2.64182e-17
5906.91711 2.65115e-17
5909.91159 2.65026e-17
5912.90608 2.64364e-17
5915.91058 2.63385e-17
5918.90506 2.63264e-17
5921.89955 2.62882e-17
5924.90405 2.60890e-17
5927.89853 2.58575e-17
5930.89302 2.55797e-17
5933.89752 2.52922e-17
5936.89200 2.49914e-17
5939.88648 2.46322e-17
5942.89099 2.44276e-17
5945.88547 2.43304e-17
5948.87996 2.42158e-17
5951.88446 2.41302e-17
5954.87894 2.39384e-17
5957.87342 2.36181e-17
5960.86791 2.33000e-17
5963.87241 2.31024e-17
5966.86690 2.30212e-17
5969.86138 2.29677e-17
5972.86588 2.27234e-17
5975.86037 2.24844e-17
5978.85485 2.23747e-17
5981.85935 2.22259e-17
5984.85384 2.20419e-17
5987.84832 2.19046e-17
5990.85282 2.19149e-17
5993.84731 2.19396e-17
5996.84179 2.17835e-17
5999.84629 2.15490e-17
6002.84078 2.13788e-17
6005.83526 2.12830e-17
6008.83976 2.11301e-17
6011.83425 2.09195e-17
6014.82873 2.06547e-17
6017.83323 2.03565e-17
6020.82772 2.01112e-17
6023.82220 1.99788e-17
6026.82670 1.97736e-17
6029.82119 1.96231e-17
6032.81567 1.95325e-17
6035.82017 1.93636e-17
6038.81466 1.91248e-17
6041.80914 1.88526e-17
6044.81364 1.86354e-17
6047.80813 1.84473e-17
6050.80261 1.82391e-17
6053.80711 1.80952e-17
6056.80159 1.79202e-17
6059.79608 1.76690e-17
6062.80058 1.74791e-17
6065.79507 1.74186e-17
6068.78955 1.72306e-17
6071.79405 1.70594e-17
6074.78853 1.69302e-17
6077.78302 1.67467e-17
6080.78752 1.64776e-17
6083.78201 1.62258e-17
6086.77649 1.60635e-17
6089.77098 1.60337e-17
6092.77548 1.59721e-17
6095.76996 1.58223e-17
6098.77446 1.58032e-17
6101.76895 1.57921e-17
6104.76343 1.57219e-17
6107.75792 1.57292e-17
6110.76242 1.58167e-17
6113.75690 1.59562e-17
6116.75139 1.60119e-17
6119.75589 1.60025e-17
6122.75037 1.59002e-17
6125.74485 1.57515e-17
6128.74935 1.57401e-17
6131.74384 1.57727e-17
6134.73833 1.58389e-17
6137.74283 1.58412e-17
6140.73731 1.58224e-17
6143.73179 1.58504e-17
6146.73629 1.58706e-17
6149.73078 1.59106e-17
6152.72527 1.58888e-17
6155.72977 1.57202e-17
6158.72425 1.55074e-17
6161.71874 1.54056e-17
6164.72324 1.52927e-17
6167.71772 1.50093e-17
6170.71221 1.47036e-17
6173.71671 1.45031e-17
6176.71119 1.43292e-17
6179.70568 1.41492e-17
6182.71018 1.39686e-17
6185.70466 1.37585e-17
6188.69915 1.36567e-17
6191.70365 1.36292e-17
6194.69813 1.34935e-17
6197.69261 1.33482e-17
6200.69711 1.33197e-17
6203.69160 1.32807e-17
6206.68609 1.31383e-17
6209.69059 1.30892e-17
6212.68507 1.30613e-17
6215.67956 1.29693e-17
6218.68406 1.28915e-17
6221.67854 1.28613e-17
6224.67303 1.28461e-17
6227.66751 1.28295e-17
6230.67201 1.27346e-17
6233.66650 1.25773e-17
6236.66098 1.24364e-17
6239.66548 1.23055e-17
6242.65997 1.22217e-17
6245.65445 1.20935e-17
6248.65895 1.18642e-17
6251.65344 1.15544e-17
6254.64792 1.12697e-17
6257.65242 1.11136e-17
6260.64691 1.08527e-17
6263.64139 1.05208e-17
6266.64589 1.02041e-17
6269.64037 9.68629e-18
6272.63486 9.05164e-18
6275.63936 8.49447e-18
6278.63385 7.95351e-18
6281.62833 7.34227e-18
6284.63283 6.76686e-18
6287.62732 6.23817e-18
6290.62180 5.69398e-18
6293.62630 5.21376e-18
6296.62079 4.81681e-18
6299.61527 4.48862e-18
6302.61977 4.22747e-18
6305.61426 3.97085e-18
6308.60874 3.71164e-18
6311.61324 3.53232e-18
6314.60772 3.46953e-18
6317.60221 3.43010e-18
6320.60671 3.38705e-18
6323.60120 3.46757e-18
6326.59568 3.62119e-18
6329.60018 3.82108e-18
6332.59466 4.12388e-18
6335.58915 4.51923e-18
6338.59365 4.94153e-18
6341.58814 5.40663e-18
6344.58262 5.93911e-18
6347.57711 6.49755e-18
6350.58161 7.13416e-18
6353.57609 7.83455e-18
6356.57058 8.47574e-18
6359.57508 9.06191e-18
6362.56956 9.61918e-18
6365.56405 1.01635e-17
6368.56855 1.06214e-17
6371.56303 1.09257e-17
6374.55752 1.12052e-17
6377.56202 1.15625e-17
6380.55650 1.18839e-17
6383.55098 1.21118e-17
6386.55548 1.23539e-17
6389.54997 1.25676e-17
6392.54446 1.28175e-17
6395.54896 1.31085e-17
6398.54344 1.33013e-17
6401.53793 1.34957e-17
6404.54243 1.37328e-17
6407.53691 1.38338e-17
6410.53140 1.39466e-17
6413.53590 1.41978e-17
6416.53038 1.44649e-17
6419.52487 1.46655e-17
6422.52937 1.48320e-17
6425.52385 1.50516e-17
6428.51834 1.52768e-17
6431.52284 1.54877e-17
6434.51732 1.57725e-17
6437.51181 1.59528e-17
6440.51631 1.61059e-17
6443.51079 1.63814e-17
6446.50528 1.65817e-17
6449.50978 1.67481e-17
6452.50426 1.69727e-17
6455.49874 1.71625e-17
6458.50324 1.72338e-17
6461.49773 1.71568e-17
6464.49222 1.71008e-17
6467.48670 1.69458e-17
6470.49120 1.67507e-17
6473.48569 1.66257e-17
6476.48017 1.65929e-17
6479.48467 1.65070e-17
6482.47916 1.62776e-17
6485.47364 1.60245e-17
6488.47814 1.57665e-17
6491.47263 1.55075e-17
6494.46711 1.53308e-17
6497.47161 1.51381e-17
6500.46609 1.49022e-17
6503.46058 1.46868e-17
6506.46508 1.44553e-17
6509.45957 1.41987e-17
6512.45405 1.39775e-17
6515.45855 1.38350e-17
6518.45303 1.37570e-17
6521.44752 1.36582e-17
6524.45202 1.35479e-17
6527.44651 1.35049e-17
6530.44099 1.35677e-17
6533.44549 1.36335e-17
6536.43998 1.36381e-17
6539.43446 1.36100e-17
6542.43896 1.36163e-17
6545.43345 1.36803e-17
6548.42793 1.38355e-17
6551.43243 1.40605e-17
6554.42692 1.41957e-17
6557.42140 1.43311e-17
6560.42590 1.46199e-17
6563.42039 1.49083e-17
6566.41487 1.52281e-17
6569.41937 1.55124e-17
6572.41385 1.57751e-17
6575.40834 1.60722e-17
6578.41284 1.63505e-17
6581.40733 1.66693e-17
6584.40181 1.71512e-17
6587.40631 1.77125e-17
6590.40080 1.81502e-17
6593.39528 1.84978e-17
6596.38977 1.89783e-17
6599.39427 1.92737e-17
6602.38875 1.94274e-17
6605.38324 1.96845e-17
6608.38774 1.98450e-17
6611.38222 1.99686e-17
6614.37671 2.01722e-17
6617.38121 2.04667e-17
6620.37569 2.06428e-17
6623.37018 2.06728e-17
6626.37468 2.06812e-17
6629.36916 2.06859e-17
6632.36365 2.07024e-17
6635.36815 2.07165e-17
6638.36263 2.06542e-17
6641.35711 2.06182e-17
6644.36161 2.06869e-17
6647.35610 2.08245e-17
6650.35059 2.09615e-17
6653.35509 2.10272e-17
6656.34957 2.11415e-17
6659.34406 2.14072e-17
6662.34856 2.17255e-17
6665.34304 2.19976e-17
6668.33753 2.22850e-17
6671.34203 2.27173e-17
6674.33651 2.30211e-17
6677.33100 2.31831e-17
6680.33550 2.32768e-17
6683.32998 2.33797e-17
6686.32447 2.35357e-17
6689.32897 2.37378e-17
6692.32345 2.39495e-17
6695.31794 2.40220e-17
6698.32244 2.40042e-17
6701.31692 2.40568e-17
6704.31141 2.41289e-17
6707.31591 2.40353e-17
6710.31039 2.38889e-17
6713.30488 2.36922e-17
6716.29936 2.34637e-17
6719.30386 2.33205e-17
6722.29835 2.31815e-17
6725.30285 2.30877e-17
6728.29733 2.29966e-17
6731.29182 2.27233e-17
6734.28630 2.24182e-17
6737.29080 2.21562e-17
6740.28528 2.18778e-17
6743.27977 2.18105e-17
6746.28427 2.17131e-17
6749.27876 2.14717e-17
6752.27324 2.11533e-17
6755.27774 2.08802e-17
6758.27222 2.07101e-17
6761.26671 2.05210e-17
6764.27121 2.03624e-17
6767.26570 2.01907e-17
6770.26018 1.99990e-17
6773.26468 1.98940e-17
6776.25917 1.98235e-17
6779.25365 1.97232e-17
6782.25815 1.96546e-17
6785.25264 1.95801e-17
6788.24712 1.94565e-17
6791.25162 1.94101e-17
6794.24611 1.94371e-17
6797.24059 1.93718e-17
6800.24509 1.92231e-17
6803.23958 1.91172e-17
6806.23406 1.91016e-17
6809.23856 1.90383e-17
6812.23304 1.90123e-17
6815.22753 1.89238e-17
6818.23203 1.86748e-17
6821.22652 1.85476e-17
6824.22100 1.84667e-17
6827.22550 1.84095e-17
6830.21998 1.82528e-17
6833.21447 1.80267e-17
6836.20896 1.77292e-17
6839.21346 1.74548e-17
6842.20794 1.71715e-17
6845.21244 1.66976e-17
6848.20693 1.61943e-17
6851.20141 1.58153e-17
6854.19590 1.53631e-17
6857.20040 1.48201e-17
6860.19488 1.43843e-17
6863.18937 1.40337e-17
6866.19387 1.37190e-17
6869.18835 1.35048e-17
6872.18284 1.32744e-17
6875.18734 1.29072e-17
6878.18182 1.24361e-17
6881.17630 1.19669e-17
6884.18080 1.15157e-17
6887.17529 1.10866e-17
6890.16978 1.08460e-17
6893.17428 1.06678e-17
6896.16876 1.04752e-17
6899.16325 1.03251e-17
6902.16775 1.03023e-17
6905.16223 1.03328e-17
6908.15672 1.03143e-17
6911.16122 1.02718e-17
6914.15570 1.02286e-17
6917.15019 1.02024e-17
6920.15469 1.02431e-17
6923.14917 1.03084e-17
6926.14366 1.03581e-17
6929.14816 1.04728e-17
6932.14264 1.05917e-17
6935.13713 1.06683e-17
6938.14163 1.08437e-17
6941.13611 1.10131e-17
6944.13059 1.12186e-17
6947.13509 1.14705e-17
6950.12958 1.17128e-17
6953.12407 1.20161e-17
6956.12856 1.22637e-17
6959.12305 1.26038e-17
6962.11754 1.28745e-17
6965.12204 1.31049e-17
6968.11652 1.33985e-17
6971.11101 1.37655e-17
6974.10549 1.41345e-17
6977.10999 1.44793e-17
6980.10448 1.48533e-17
6983.09896 1.50507e-17
6986.10346 1.51213e-17
6989.09795 1.52391e-17
6992.09243 1.53860e-17
6995.09693 1.56312e-17
6998.09141 1.59361e-17
7001.08590 1.63085e-17
7004.09040 1.66041e-17
7007.08489 1.67403e-17
7010.07937 1.68180e-17
7013.08387 1.69024e-17
7016.07836 1.69862e-17
7019.07284 1.70062e-17
7022.07734 1.71350e-17
7025.07183 1.72029e-17
7028.06631 1.72406e-17
7031.07081 1.74197e-17
7034.06530 1.77085e-17
7037.05978 1.79548e-17
7040.06428 1.81177e-17
7043.05877 1.81699e-17
7046.05325 1.82993e-17
7049.05775 1.85168e-17
7052.05224 1.86394e-17
7055.04672 1.87917e-17
7058.05122 1.90441e-17
7061.04571 1.93067e-17
7064.04019 1.95901e-17
7067.04469 1.97426e-17
7070.03917 1.96869e-17
7073.03366 1.95507e-17
7076.03816 1.94985e-17
7079.03265 1.95952e-17
7082.02713 1.95908e-17
7085.03163 1.97081e-17
7088.02612 1.97612e-17
7091.02060 1.96773e-17
7094.02510 1.95688e-17
7097.01959 1.93621e-17
7100.01407 1.90928e-17
7103.00856 1.88341e-17
7106.01306 1.85091e-17
7109.00754 1.84168e-17
7112.00203 1.84566e-17
7115.00653 1.84116e-17
7118.00101 1.83628e-17
7120.99550 1.82438e-17
7124.00000 1.79751e-17
7126.99448 1.76449e-17
7129.98897 1.72996e-17
7132.99347 1.70010e-17
7135.98795 1.67562e-17
7138.98244 1.64865e-17
7141.98694 1.63423e-17
7144.98142 1.63738e-17
7147.97591 1.64246e-17
7150.98041 1.63493e-17
7153.97489 1.62864e-17
7156.96938 1.62242e-17
7159.97388 1.59222e-17
7162.96836 1.55113e-17
7165.96285 1.52804e-17
7168.96735 1.52624e-17
7171.96183 1.54104e-17
7174.95632 1.56811e-17
7177.96082 1.57209e-17
7180.95530 1.57875e-17
7183.94978 1.58742e-17
7186.95428 1.56991e-17
7189.94877 1.55245e-17
7192.94326 1.54215e-17
7195.94776 1.51931e-17
7198.94224 1.50010e-17
7201.93673 1.50279e-17
7204.94123 1.51805e-17
7207.93571 1.52853e-17
7210.93020 1.53829e-17
7213.92468 1.55371e-17
7216.92918 1.55166e-17
7219.92367 1.55602e-17
7222.91815 1.55277e-17
7225.92265 1.52687e-17
7228.91714 1.50579e-17
7231.91162 1.49450e-17
7234.91612 1.47679e-17
7237.91061 1.46941e-17
7240.90509 1.46917e-17
7243.90959 1.46034e-17
7246.90408 1.44755e-17
7249.89856 1.43814e-17
7252.90306 1.43038e-17
7255.89754 1.42513e-17
7258.89203 1.43026e-17
7261.89653 1.43845e-17
7264.89102 1.42804e-17
7267.88550 1.40868e-17
7270.89000 1.40889e-17
7273.88449 1.42173e-17
7276.87897 1.42825e-17
7279.88347 1.43817e-17
7282.87796 1.47026e-17
7285.87244 1.49743e-17
7288.87694 1.51853e-17
7291.87143 1.52583e-17
7294.86591 1.51817e-17
7297.87041 1.52173e-17
7300.86490 1.53519e-17
7303.85938 1.53993e-17
7306.86388 1.54669e-17
7309.85837 1.55975e-17
7312.85285 1.58261e-17
7315.85735 1.61697e-17
7318.85184 1.64039e-17
7321.84632 1.62341e-17
7324.85082 1.59465e-17
7327.84531 1.59777e-17
7330.83979 1.59964e-17
7333.83428 1.57763e-17
7336.83878 1.56511e-17
7339.83326 1.56271e-17
7342.82775 1.56588e-17
7345.83225 1.57100e-17
7348.82673 1.57521e-17
7351.82122 1.58270e-17
7354.82572 1.58157e-17
7357.82020 1.56858e-17
7360.81469 1.54691e-17
7363.81919 1.52427e-17
7366.81367 1.49832e-17
7369.80816 1.46957e-17
7372.81266 1.46332e-17
7375.80714 1.47187e-17
7378.80163 1.47333e-17
7381.80613 1.46716e-17
7384.80061 1.45582e-17
7387.79510 1.44506e-17
7390.79960 1.43353e-17
7393.79408 1.41688e-17
7396.78857 1.40035e-17
7399.79307 1.37979e-17
7402.78755 1.35917e-17
7405.78204 1.36455e-17
7408.78654 1.38566e-17
7411.78102 1.39055e-17
7414.77551 1.39411e-17
7417.78001 1.40557e-17
7420.77449 1.40517e-17
7423.76897 1.39907e-17
7426.77347 1.38604e-17
7429.76796 1.37578e-17
7432.76245 1.36822e-17
7435.76695 1.36445e-17
7438.76143 1.38083e-17
7441.75591 1.40003e-17
7444.76041 1.40639e-17
7447.75490 1.40711e-17
7450.74939 1.41174e-17
7453.74387 1.41328e-17
7456.74837 1.40849e-17
7459.74286 1.40374e-17
7462.73734 1.40339e-17
7465.74184 1.39680e-17
7468.73633 1.38555e-17
7471.73081 1.38134e-17
7474.73531 1.38077e-17
7477.72980 1.39281e-17
7480.72428 1.40994e-17
7483.72878 1.41680e-17
7486.72327 1.41433e-17
7489.71775 1.41029e-17
7492.72225 1.40786e-17
7495.71673 1.39147e-17
7498.71122 1.37494e-17
7501.71572 1.35921e-17
7504.71021 1.35279e-17
7507.70469 1.35183e-17
7510.70919 1.35722e-17
7513.70368 1.37111e-17
7516.69816 1.39181e-17
7519.70266 1.39444e-17
7522.69715 1.38460e-17
7525.69163 1.37313e-17
7528.69613 1.37277e-17
7531.69062 1.36985e-17
7534.68510 1.36278e-17
7537.68960 1.37073e-17
7540.68409 1.36851e-17
7543.67857 1.36592e-17
7546.68307 1.37851e-17
7549.67756 1.37590e-17
7552.67204 1.36782e-17
7555.67654 1.35380e-17
7558.67103 1.32477e-17
7561.66551 1.29306e-17
7564.67001 1.26766e-17
7567.66449 1.25043e-17
7570.65898 1.23524e-17
7573.65347 1.22720e-17
7576.65797 1.23422e-17
7579.65245 1.25183e-17
7582.64694 1.25481e-17
7585.65144 1.22073e-17
7588.64592 1.17399e-17
7591.64041 1.13545e-17
7594.64491 1.12048e-17
7597.63939 1.11804e-17
7600.63388 1.12002e-17
7603.63838 1.12389e-17
7606.63286 1.11450e-17
7609.62734 1.11165e-17
7612.63184 1.10435e-17
7615.62633 1.06289e-17
7618.62082 1.02459e-17
7621.62532 1.00683e-17
7624.61980 1.01232e-17
7627.61428 1.01016e-17
7630.61878 9.98070e-18
7633.61327 9.73635e-18
7636.60776 9.38877e-18
7639.61226 9.13073e-18
7642.60674 9.03300e-18
7645.60123 8.98576e-18
7648.60573 8.92297e-18
7651.60021 8.94701e-18
7654.59470 9.01836e-18
7657.59920 9.01147e-18
7660.59368 9.04094e-18
7663.58817 9.17133e-18
7666.59267 9.24676e-18
7669.58715 9.24282e-18
7672.58164 9.21612e-18
7675.58614 9.19779e-18
7678.58062 9.18935e-18
7681.57510 9.13358e-18
7684.57960 9.12323e-18
7687.57409 9.04505e-18
7690.56858 8.89797e-18
7693.57308 8.97887e-18
7696.56756 9.20688e-18
7699.56205 9.48696e-18
7702.56655 9.82305e-18
7705.56103 1.00752e-17
7708.55552 1.02717e-17
7711.55000 1.04603e-17
7714.55450 1.06739e-17
7717.54899 1.07949e-17
7720.54347 1.07244e-17
7723.54797 1.05496e-17
7726.54246 1.05111e-17
7729.53694 1.04941e-17
7732.54144 1.04633e-17
7735.53593 1.06241e-17
7738.53041 1.09134e-17
7741.53491 1.12312e-17
7744.52940 1.15790e-17
7747.52388 1.18942e-17
7750.52838 1.22117e-17
7753.52286 1.25408e-17
7756.51735 1.28390e-17
7759.52185 1.30828e-17
7762.51634 1.32012e-17
7765.51082 1.31947e-17
7768.51532 1.32269e-17
7771.50981 1.32742e-17
7774.50429 1.31428e-17
7777.50879 1.28665e-17
7780.50328 1.27020e-17
7783.49776 1.28007e-17
7786.50226 1.29462e-17
7789.49675 1.30675e-17
7792.49123 1.33305e-17
7795.49573 1.36317e-17
7798.49022 1.38339e-17
7801.48470 1.39439e-17
7804.48920 1.39226e-17
7807.48369 1.37594e-17
7810.47817 1.35381e-17
7813.48267 1.33067e-17
7816.47716 1.30355e-17
7819.47164 1.27310e-17
7822.47614 1.24340e-17
7825.47063 1.21495e-17
7828.46511 1.19378e-17
7831.46961 1.18159e-17
7834.46410 1.18914e-17
7837.45858 1.21001e-17
7840.45307 1.22695e-17
7843.45757 1.24518e-17
7846.45205 1.25646e-17
7849.44654 1.24832e-17
7852.45104 1.22169e-17
7855.44552 1.20295e-17
7858.44001 1.19556e-17
7861.44451 1.19127e-17
7864.43899 1.19909e-17
7867.43347 1.20482e-17
7870.43797 1.21479e-17
7873.43246 1.24037e-17
7876.42695 1.25439e-17
7879.43145 1.25470e-17
7882.42593 1.26162e-17
7885.42042 1.27182e-17
7888.42492 1.28165e-17
7891.41940 1.29297e-17
7894.41389 1.29123e-17
7897.41839 1.27539e-17
7900.41287 1.25205e-17
7903.40736 1.22172e-17
7906.41186 1.21570e-17
7909.40634 1.25920e-17
7912.40083 1.30221e-17
7915.40533 1.31920e-17
7918.39981 1.33666e-17
7921.39430 1.33395e-17
7924.39880 1.30329e-17
7927.39328 1.26961e-17
7930.38777 1.27920e-17
7933.39227 1.29251e-17
7936.38675 1.26409e-17
7939.38123 1.21595e-17
7942.38573 1.19141e-17
7945.38022 1.19239e-17
7948.37471 1.19870e-17
7951.37921 1.20640e-17
7954.37369 1.19908e-17
7957.36818 1.20154e-17
7960.36266 1.21853e-17
7963.36716 1.23475e-17
7966.36165 1.24918e-17
7969.35613 1.26055e-17
7972.36063 1.24759e-17
7975.35512 1.22142e-17
7978.34960 1.20327e-17
7981.35410 1.18354e-17
7984.34859 1.17341e-17
7987.34307 1.16311e-17
7990.34757 1.15685e-17
7993.34206 1.16806e-17
7996.33654 1.18267e-17
7999.34104 1.19117e-17
8002.33553 1.19301e-17
8005.33001 1.19268e-17
8008.33451 1.18534e-17
8011.32900 1.16652e-17
8014.32348 1.14581e-17
8017.32798 1.11948e-17
8020.32247 1.09416e-17
8023.31695 1.08133e-17
8026.32145 1.06410e-17
8029.31594 1.06205e-17
8032.31042 1.07384e-17
8035.31492 1.08326e-17
8038.30941 1.10070e-17
8041.30389 1.11984e-17
8044.30839 1.13795e-17
8047.30288 1.15130e-17
8050.29736 1.15846e-17
8053.30186 1.15340e-17
8056.29634 1.14028e-17
8059.29083 1.12500e-17
8062.29533 1.10234e-17
8065.28982 1.07307e-17
8068.28430 1.04973e-17
8071.28880 1.03705e-17
8074.28329 1.03314e-17
8077.27777 1.03996e-17
8080.27226 1.05103e-17
8083.27676 1.06049e-17
8086.27124 1.07177e-17
8089.26573 1.08065e-17
8092.27023 1.08833e-17
8095.26471 1.10344e-17
8098.25920 1.12022e-17
8101.26370 1.12054e-17
8104.25818 1.11441e-17
8107.25266 1.11435e-17
8110.25716 1.10177e-17
8113.25165 1.07881e-17
8116.24614 1.05385e-17
8119.25064 1.03313e-17
8122.24512 1.01369e-17
8125.23960 9.88438e-18
8128.24410 9.66466e-18
8131.23859 9.54680e-18
8134.23308 9.54869e-18
8137.23758 9.57670e-18
8140.23206 9.54321e-18
8143.22655 9.53090e-18
8146.23105 9.52125e-18
8149.22553 9.47806e-18
8152.22002 9.43634e-18
8155.22452 9.32561e-18
8158.21900 9.24276e-18
8161.21349 9.29094e-18
8164.21799 9.38823e-18
8167.21247 9.51043e-18
8170.20696 9.52401e-18
8173.21146 9.50102e-18
8176.20594 9.38508e-18
8179.20042 9.27202e-18
8182.20493 9.20446e-18
8185.19941 9.05748e-18
8188.19390 8.92429e-18
8191.19840 8.86650e-18
8194.19288 8.92314e-18
8197.18736 9.01139e-18
8200.19187 9.00401e-18
8203.18635 9.06738e-18
8206.18083 9.25890e-18
8209.17532 9.35021e-18
8212.17982 9.36821e-18
8215.17431 9.27225e-18
8218.17881 8.94065e-18
8221.17329 8.49457e-18
8224.16778 8.19767e-18
8227.16226 8.22008e-18
8230.16676 8.19198e-18
8233.16125 8.15281e-18
8236.15573 8.12198e-18
8239.16023 7.99413e-18
8242.15472 7.83106e-18
8245.14920 7.59743e-18
8248.15370 7.26777e-18
8251.14819 6.93721e-18
8254.14267 6.56459e-18
8257.14717 6.21384e-18
8260.14166 5.90334e-18
8263.13614 5.60445e-18
8266.14064 5.30511e-18
8269.13513 5.02609e-18
8272.12961 4.77673e-18
8275.13411 4.51511e-18
8278.12860 4.32721e-18
8281.12308 4.17501e-18
8284.12758 3.96421e-18
8287.12206 3.82332e-18
8290.11655 3.76187e-18
8293.12105 3.65059e-18
8296.11554 3.50251e-18
8299.11002 3.34255e-18
8302.11452 3.12729e-18
8305.10901 2.92464e-18
8308.10349 2.76725e-18
8311.10799 2.64623e-18
8314.10247 2.51630e-18
8317.09696 2.41163e-18
8320.09145 2.36235e-18
8323.09594 2.30325e-18
8326.09043 2.24344e-18
8329.09493 2.26229e-18
8332.08942 2.39547e-18
8335.08390 2.49814e-18
8338.07839 2.50123e-18
8341.08288 2.50246e-18
8344.07737 2.50161e-18
8347.07186 2.46792e-18
8350.07636 2.42636e-18
8353.07084 2.40776e-18
8356.06532 2.43739e-18
8359.06983 2.44971e-18
8362.06431 2.40281e-18
8365.05880 2.34209e-18
8368.06330 2.29098e-18
8371.05778 2.34952e-18
8374.05227 2.42134e-18
8377.05677 2.46280e-18
8380.05125 2.52587e-18
8383.04573 2.66553e-18
8386.05024 2.83625e-18
8389.04472 2.97919e-18
8392.03920 3.04228e-18
8395.04371 3.12222e-18
8398.03819 3.19796e-18
8401.03268 3.30570e-18
8404.03718 3.43256e-18
8407.03166 3.50989e-18
8410.02615 3.51131e-18
8413.03065 3.51518e-18
8416.02513 3.53778e-18
8419.01962 3.53943e-18
8422.02412 3.51025e-18
8425.01860 3.49843e-18
8428.01309 3.54181e-18
8431.01758 3.55372e-18
8434.01207 3.56430e-18
8437.00656 3.61275e-18
8440.01106 3.64439e-18
8443.00554 3.68445e-18
8446.00003 3.80868e-18
8449.00453 3.98924e-18
8451.99901 4.09422e-18
8454.99350 4.14936e-18
8457.99799 4.22256e-18
8460.99248 4.20529e-18
8463.98697 4.15442e-18
8466.98145 4.13727e-18
8469.98595 4.16621e-18
8472.98044 4.15297e-18
8475.97492 4.05929e-18
8478.97942 4.01866e-18
8481.97391 4.06670e-18
8484.96839 4.18317e-18
8487.97289 4.35355e-18
8490.96738 4.53564e-18
8493.96186 4.76771e-18
8496.96636 4.98249e-18
8499.96084 5.03080e-18
8502.95533 5.06347e-18
8505.95983 5.29636e-18
8508.95431 5.58354e-18
8511.94880 5.66833e-18
8514.95330 5.61673e-18
8517.94779 5.76059e-18
8520.94227 6.01578e-18
8523.94677 6.13038e-18
8526.94125 6.21906e-18
8529.93574 6.28216e-18
8532.94024 6.29468e-18
8535.93473 6.34581e-18
8538.92921 6.45276e-18
8541.93371 6.59816e-18
8544.92820 6.82882e-18
8547.92268 7.14547e-18
8550.92718 7.53067e-18
8553.92167 7.90945e-18
8556.91615 8.22603e-18
8559.92065 8.54838e-18
8562.91514 8.91011e-18
8565.90962 9.22404e-18
8568.91412 9.46331e-18
8571.90861 9.75508e-18
8574.90309 1.00153e-17
8577.89757 1.01302e-17
8580.90207 1.01666e-17
8583.89656 1.02739e-17
8586.89105 1.03327e-17
8589.89555 1.03228e-17
8592.89003 1.03447e-17
8595.88452 1.04743e-17
8598.88902 1.07726e-17
8601.88350 1.10342e-17
8604.88800 1.12292e-17
8607.88249 1.14726e-17
8610.87697 1.17471e-17
8613.87146 1.20312e-17
8616.87595 1.23749e-17
8619.87044 1.27846e-17
8622.86493 1.31090e-17
8625.86943 1.33427e-17
8628.86391 1.36789e-17
8631.85840 1.40308e-17
8634.86290 1.42065e-17
8637.85738 1.42838e-17
8640.85187 1.43712e-17
8643.85636 1.44217e-17
8646.85085 1.43474e-17
8649.84533 1.43048e-17
8652.84983 1.43613e-17
8655.84432 1.44716e-17
8658.83881 1.45360e-17
8661.84331 1.45162e-17
8664.83779 1.43797e-17
8667.83228 1.43895e-17
8670.83678 1.43496e-17
8673.83126 1.41987e-17
8676.82575 1.44181e-17
8679.83025 1.48221e-17
8682.82473 1.50581e-17
8685.81921 1.53098e-17
8688.82372 1.55497e-17
8691.81820 1.56220e-17
8694.81269 1.56118e-17
8697.81719 1.55131e-17
8700.81167 1.52995e-17
8703.80616 1.50082e-17
8706.80064 1.47020e-17
8709.80514 1.45452e-17
8712.79962 1.44839e-17
8715.79411 1.43856e-17
8718.79861 1.41699e-17
8721.79310 1.39636e-17
8724.78758 1.38738e-17
8727.79208 1.37031e-17
8730.78657 1.36160e-17
8733.78105 1.36772e-17
8736.78555 1.37512e-17
8739.78004 1.37765e-17
8742.77452 1.37848e-17
8745.77902 1.39442e-17
8748.77351 1.40426e-17
8751.76799 1.41180e-17
8754.77249 1.42707e-17
8757.76698 1.42636e-17
8760.76146 1.41130e-17
8763.76596 1.39718e-17
8766.76044 1.36575e-17
8769.75493 1.31236e-17
8772.75943 1.27685e-17
8775.75392 1.26509e-17
8778.74840 1.24289e-17
8781.75290 1.21532e-17
8784.74739 1.18556e-17
8787.74187 1.17620e-17
8790.74637 1.16082e-17
8793.74086 1.15397e-17
8796.73534 1.17369e-17
8799.73984 1.20700e-17
8802.73432 1.21149e-17
8805.72881 1.19395e-17
8808.73331 1.18703e-17
8811.72780 1.18172e-17
8814.72228 1.16361e-17
8817.72678 1.14375e-17
8820.72127 1.12303e-17
8823.71575 1.10506e-17
8826.72025 1.08713e-17
8829.71473 1.06251e-17
8832.70922 1.03610e-17
8835.71372 1.00712e-17
8838.70820 9.85325e-18
8841.70269 9.81475e-18
8844.70719 9.84277e-18
8847.70168 9.80136e-18
8850.69616 9.70456e-18
8853.69065 9.73068e-18
8856.69515 9.86244e-18
8859.68963 9.92339e-18
8862.68412 9.93559e-18
8865.68862 9.96555e-18
8868.68310 9.85724e-18
8871.67758 9.81069e-18
8874.68209 9.91410e-18
8877.67657 9.89742e-18
8880.67106 9.89507e-18
8883.67556 9.83475e-18
8886.67004 9.71275e-18
8889.66453 9.47440e-18
8892.66903 9.25571e-18
8895.66351 9.24774e-18
8898.65799 9.34622e-18
8901.66250 9.30556e-18
8904.65698 9.00082e-18
8907.65147 8.87252e-18
8910.65596 9.00334e-18
8913.65045 9.01805e-18
8916.64494 9.19814e-18
8919.64944 9.36849e-18
8922.64392 9.28273e-18
8925.63841 9.01504e-18
8928.64291 8.52929e-18
8931.63739 8.35830e-18
8934.63188 8.27799e-18
8937.63638 8.52970e-18
8940.63086 8.79941e-18
8943.62535 8.71848e-18
8946.61983 8.40437e-18
8949.62433 8.17326e-18
8952.61881 8.08041e-18
8955.62331 7.96554e-18
8958.61780 7.70485e-18
8961.61229 7.53760e-18
8964.60677 7.61113e-18
8967.61127 7.63313e-18
8970.60576 7.61319e-18
8973.60024 7.69098e-18
8976.60474 7.63938e-18
8979.59922 7.53121e-18
8982.59371 7.54460e-18
8985.59821 7.65899e-18
8988.59269 7.80592e-18
8991.58718 7.97813e-18
8994.59168 8.09325e-18
8997.58617 8.06775e-18
9000.58065 7.98407e-18
9003.58515 7.80437e-18
9006.57964 7.68423e-18
9009.57412 7.74721e-18
9012.57862 7.71181e-18
9015.57310 7.49331e-18
9018.56759 7.39192e-18
9021.57209 7.55707e-18
9024.56657 7.78777e-18
9027.56106 7.90368e-18
9030.56556 7.97689e-18
9033.56005 8.16194e-18
9036.55453 8.43491e-18
9039.55903 8.73574e-18
9042.55352 9.01979e-18
9045.54800 9.19505e-18
9048.55250 9.31118e-18
9051.54699 9.25872e-18
9054.54147 9.14269e-18
9057.54597 9.03293e-18
9060.54046 8.83611e-18
9063.53494 8.59187e-18
9066.53944 8.41882e-18
9069.53393 8.21838e-18
9072.52841 8.17176e-18
9075.53291 8.19172e-18
9078.52740 8.27714e-18
9081.52188 8.23330e-18
9084.52638 8.22686e-18
9087.52087 8.32481e-18
9090.51535 8.32127e-18
9093.50984 8.19675e-18
9096.51433 8.24321e-18
9099.50882 8.54487e-18
9102.50331 8.87592e-18
9105.50781 9.05659e-18
9108.50229 9.07923e-18
9111.49678 9.12390e-18
9114.50128 9.22247e-18
9117.49576 9.17250e-18
9120.49025 8.97915e-18
9123.49474 8.76443e-18
9126.48923 8.52164e-18
9129.48372 8.41478e-18
9132.48821 8.37659e-18
9135.48270 8.19484e-18
9138.47719 8.05260e-18
9141.48169 7.90928e-18
9144.47617 7.62768e-18
9147.47066 7.40149e-18
9150.47516 7.32244e-18
9153.46964 7.33411e-18
9156.46413 7.42162e-18
9159.46863 7.54613e-18
9162.46311 7.53059e-18
9165.45759 7.32986e-18
9168.46210 7.29726e-18
9171.45658 7.55313e-18
9174.45106 7.84279e-18
9177.45557 7.99144e-18
9180.45005 7.97237e-18
9183.44454 8.07776e-18
9186.44904 8.43418e-18
9189.44352 8.85883e-18
9192.43800 9.04970e-18
9195.44251 9.21362e-18
9198.43699 9.47549e-18
