# wavelength flux
3560.00396 5.91379e-18
3561.00386 6.12711e-18
3562.00376 6.49113e-18
3563.00366 6.77934e-18
3564.00356 6.74315e-18
3565.00346 6.70741e-18
3566.00336 6.67209e-18
3567.00326 6.63719e-18
3568.00316 6.75283e-18
3569.00306 6.73027e-18
3570.00296 7.02938e-18
3571.00286 7.02090e-18
3572.00276 6.98540e-18
3573.00266 6.95032e-18
3574.00256 6.91563e-18
3575.00246 6.99277e-18
3576.00236 7.21966e-18
3577.00226 7.16845e-18
3578.00216 7.09634e-18
3579.00206 7.06208e-18
3580.00196 7.02821e-18
3581.00186 6.99472e-18
3582.00176 6.96161e-18
3583.00166 7.00782e-18
3584.00156 7.01346e-18
3585.00146 7.67606e-18
3586.00136 7.97869e-18
3587.00126 7.94213e-18
3588.00116 7.90598e-18
3589.00106 7.87022e-18
3590.00096 7.83940e-18
3591.00086 7.89900e-18
3592.00076 7.83868e-18
3593.00066 7.27949e-18
3594.00056 7.24760e-18
3595.00046 7.21605e-18
3596.00036 7.18485e-18
3597.00026 7.15397e-18
3598.00016 7.33143e-18
3599.00006 7.58669e-18
3599.99996 7.51045e-18
3600.99986 7.41807e-18
3601.99976 7.38718e-18
3602.99966 7.35662e-18
3603.99956 7.32637e-18
3604.99946 7.29644e-18
3605.99936 7.18055e-18
3606.99926 7.12924e-18
3607.99916 8.12223e-18
3608.99906 8.35435e-18
3609.99896 8.32124e-18
3610.99886 8.28847e-18
3611.99876 8.25602e-18
3612.99866 8.38414e-18
3613.99856 9.14410e-18
3614.99846 9.18331e-18
3615.99836 9.51597e-18
3616.99826 9.47981e-18
3617.99816 9.44400e-18
3618.99806 9.40853e-18
3619.99796 9.37340e-18
3620.99786 9.03392e-18
3621.99776 8.74373e-18
3622.99766 9.30851e-18
3623.99756 9.77772e-18
3624.99746 9.74224e-18
3625.99736 9.70708e-18
3626.99726 9.67225e-18
3627.99716 9.63774e-18
3628.99706 9.51061e-18
3629.99696 9.46852e-18
3630.99686 8.88776e-18
3631.99676 8.80650e-18
3632.99666 8.77593e-18
3633.99656 8.74563e-18
3634.99646 8.71559e-18
3635.99636 8.76010e-18
3636.99626 8.91182e-18
3637.99616 9.22383e-18
3638.99606 1.00288e-17
3639.99596 9.99522e-18
3640.99586 9.96196e-18
3641.99576 9.92899e-18
3642.99566 9.89629e-18
3643.99556 1.01460e-17
3644.99546 1.02553e-17
3645.99536 1.04833e-17
3646.99526 1.05814e-17
3647.99516 1.05474e-17
3648.99506 1.05138e-17
3649.99496 1.04803e-17
3651.00486 1.04522e-17
3652.00476 1.05467e-17
3653.00466 1.05122e-17
3654.00456 1.04429e-17
3655.00446 1.04105e-17
3656.00436 1.03783e-17
3657.00426 1.03464e-17
3658.00416 1.03148e-17
3659.00406 1.02315e-17
3660.00396 1.01267e-17
3661.00386 1.04124e-17
3662.00376 1.08313e-17
3663.00366 1.07989e-17
3664.00356 1.07668e-17
3665.00346 1.07349e-17
3666.00336 1.07033e-17
3667.00326 1.10685e-17
3668.00316 1.11439e-17
3669.00306 1.10918e-17
3670.00296 1.10543e-17
3671.00286 1.10224e-17
3672.00276 1.09907e-17
3673.00266 1.09592e-17
3674.00256 1.09242e-17
3675.00246 1.08733e-17
3676.00236 1.07995e-17
3677.00226 1.05436e-17
3678.00216 1.05140e-17
3679.00206 1.04847e-17
3680.00196 1.04555e-17
3681.00186 1.04265e-17
3682.00176 1.02891e-17
3683.00166 1.01664e-17
3684.00156 1.06494e-17
3685.00146 1.10647e-17
3686.00136 1.10346e-17
3687.00126 1.10048e-17
3688.00116 1.09751e-17
3689.00106 1.09456e-17
3690.00096 1.13981e-17
3691.00086 1.14162e-17
3692.00076 1.20222e-17
3693.00066 1.20544e-17
3694.00056 1.20226e-17
3695.00046 1.19910e-17
3696.00036 1.19596e-17
3697.00026 1.20857e-17
3698.00016 1.24532e-17
3699.00006 1.24565e-17
3699.99996 1.25145e-17
3700.99986 1.24822e-17
3701.99976 1.24502e-17
3702.99966 1.24184e-17
3703.99956 1.23867e-17
3704.99946 1.23747e-17
3705.99936 1.23536e-17
3706.99926 1.22724e-17
3707.99916 1.22156e-17
3708.99906 1.21850e-17
3709.99896 1.21547e-17
3710.99886 1.21245e-17
3711.99876 1.21034e-17
3712.99866 1.23542e-17
3713.99856 1.23410e-17
3714.99846 1.28497e-17
3715.99836 1.28184e-17
3716.99826 1.27873e-17
3717.99816 1.27564e-17
3718.99806 1.27257e-17
3719.99796 1.25080e-17
3720.99786 1.22035e-17
3721.99776 1.23855e-17
3722.99766 1.26658e-17
3723.99756 1.26358e-17
3724.99746 1.26060e-17
3725.99736 1.25764e-17
3726.99726 1.25469e-17
3727.99716 1.30921e-17
3728.99706 1.32244e-17
3729.99696 1.28967e-17
3730.99686 1.27828e-17
3731.99676 1.27534e-17
3732.99666 1.27241e-17
3733.99656 1.26950e-17
3734.99646 1.26115e-17
3735.99636 1.22810e-17
3736.99626 1.24215e-17
3737.99616 1.33226e-17
3738.99606 1.32927e-17
3739.99596 1.32629e-17
3740.99586 1.32333e-17
3741.99576 1.32039e-17
3742.99566 1.32713e-17
3743.99556 1.33284e-17
3744.99546 1.30728e-17
3745.99536 1.28417e-17
3746.99526 1.28136e-17
3748.00516 1.27857e-17
3749.00506 1.27579e-17
3750.00496 1.27302e-17
3751.00486 1.26913e-17
3752.00476 1.26627e-17
3753.00466 1.23173e-17
3754.00456 1.22562e-17
3755.00446 1.22300e-17
3756.00436 1.22040e-17
3757.00426 1.21782e-17
3758.00416 1.21676e-17
3759.00406 1.21819e-17
3760.00396 1.20117e-17
3761.00386 1.16070e-17
3762.00376 1.15828e-17
3763.00366 1.15587e-17
3764.00356 1.15347e-17
3765.00346 1.15109e-17
3766.00336 1.12528e-17
3767.00326 1.11035e-17
3768.00316 1.14032e-17
3769.00306 1.15534e-17
3770.00296 1.15298e-17
3771.00286 1.15064e-17
3772.00276 1.14831e-17
3773.00266 1.14565e-17
3774.00256 1.12918e-17
3775.00246 1.12687e-17
3776.00236 1.12260e-17
3777.00226 1.12036e-17
3778.00216 1.11813e-17
3779.00206 1.11591e-17
3780.00196 1.11371e-17
3781.00186 1.09467e-17
3782.00176 1.06711e-17
3783.00166 1.04388e-17
3784.00156 1.00994e-17
3785.00146 1.00797e-17
3786.00136 1.00600e-17
3787.00126 1.00405e-17
3788.00116 1.00211e-17
3789.00106 1.01384e-17
3790.00096 1.01592e-17
3791.00086 1.00471e-17
3792.00076 1.00006e-17
3793.00066 9.98155e-18
3794.00056 9.96255e-18
3795.00046 9.94365e-18
3796.00036 9.88626e-18
3797.00026 9.64307e-18
3798.00016 9.56153e-18
3799.00006 9.17462e-18
3799.99996 9.15743e-18
3800.99986 9.14033e-18
3801.99976 9.12330e-18
3802.99966 9.10634e-18
3803.99956 9.19454e-18
3804.99946 9.27414e-18
3805.99936 9.36791e-18
3806.99926 9.45260e-18
3807.99916 9.43526e-18
3808.99906 9.41800e-18
3809.99896 9.40081e-18
3810.99886 9.38369e-18
3811.99876 9.08977e-18
3812.99866 9.04077e-18
3813.99856 8.52379e-18
3814.99846 8.44962e-18
3815.99836 8.43442e-18
3816.99826 8.41929e-18
3817.99816 8.40422e-18
3818.99806 8.41599e-18
3819.99796 8.47369e-18
3820.99786 8.51489e-18
3821.99776 8.65250e-18
3822.99766 8.63720e-18
3823.99756 8.62196e-18
3824.99746 8.60679e-18
3825.99736 8.59167e-18
3826.99726 8.56032e-18
3827.99716 8.53632e-18
3828.99706 8.31708e-18
3829.99696 8.18937e-18
3830.99686 8.17515e-18
3831.99676 8.16099e-18
3832.99666 8.14688e-18
3833.99656 8.13897e-18
3834.99646 8.47494e-18
3835.99636 8.45995e-18
3836.99626 8.42020e-18
3837.99616 8.40581e-18
3838.99606 8.39147e-18
3839.99596 8.37718e-18
3840.99586 8.36296e-18
3841.99576 8.28179e-18
3842.99566 8.16378e-18
3843.99556 8.35785e-18
3844.99546 8.66646e-18
3845.99536 8.65190e-18
3846.99526 8.63739e-18
3848.00516 8.62294e-18
3849.00506 8.60854e-18
3850.00496 8.61060e-18
3851.00486 8.60130e-18
3852.00476 8.40522e-18
3853.00466 8.33571e-18
3854.00456 8.32192e-18
3855.00446 8.30819e-18
3856.00436 8.29451e-18
3857.00426 8.34863e-18
3858.00416 8.75150e-18
3859.00406 8.89730e-18
3860.00396 9.86738e-18
3861.00386 9.85129e-18
3862.00376 9.83525e-18
3863.00366 9.81928e-18
3864.00356 9.80336e-18
3865.00346 9.88169e-18
3866.00336 9.95471e-18
3867.00326 1.00172e-17
3868.00316 1.00753e-17
3869.00306 1.00591e-17
3870.00296 1.00430e-17
3871.00286 1.00269e-17
3872.00276 1.00109e-17
3873.00266 1.08856e-17
3874.00256 1.09805e-17
3875.00246 1.19612e-17
3876.00236 1.20680e-17
3877.00226 1.20488e-17
3878.00216 1.20298e-17
3879.00206 1.20108e-17
3880.00196 1.20966e-17
3881.00186 1.23720e-17
3882.00176 1.27146e-17
3883.00166 1.37123e-17
3884.00156 1.36908e-17
3885.00146 1.36694e-17
3886.00136 1.36481e-17
3887.00126 1.36269e-17
3888.00116 1.35956e-17
3889.00106 1.35687e-17
3890.00096 1.39316e-17
3891.00086 1.41292e-17
3892.00076 1.41074e-17
3893.00066 1.40857e-17
3894.00056 1.40640e-17
3895.00046 1.40468e-17
3896.00036 1.44476e-17
3897.00026 1.44383e-17
3898.00016 1.56457e-17
3899.00006 1.56218e-17
3899.99996 1.55980e-17
3900.99986 1.55743e-17
3901.99976 1.55506e-17
3902.99966 1.57427e-17
3903.99956 1.60636e-17
3904.99946 1.60803e-17
3905.99936 1.61215e-17
3906.99926 1.60973e-17
3907.99916 1.60731e-17
3908.99906 1.60490e-17
3909.99896 1.60250e-17
3910.99886 1.62294e-17
3911.99876 1.62778e-17
3912.99866 1.71486e-17
3913.99856 1.74076e-17
3914.99846 1.73818e-17
3915.99836 1.73560e-17
3916.99826 1.73304e-17
3917.99816 1.73190e-17
3918.99806 1.73862e-17
3919.99796 1.74623e-17
3920.99786 1.81001e-17
3921.99776 1.80735e-17
3922.99766 1.80471e-17
3923.99756 1.80207e-17
3924.99746 1.79943e-17
3925.99736 1.81385e-17
3926.99726 1.82777e-17
3927.99716 1.80343e-17
3928.99706 1.77975e-17
3929.99696 1.77716e-17
3930.99686 1.77459e-17
3931.99676 1.77202e-17
3932.99666 1.76946e-17
3933.99656 1.75572e-17
3934.99646 1.75168e-17
3935.99636 1.77157e-17
3936.99626 1.77204e-17
3937.99616 1.76949e-17
3938.99606 1.76695e-17
3939.99596 1.76442e-17
3940.99586 1.77404e-17
3941.99576 1.80695e-17
3942.99566 1.82174e-17
3943.99556 1.86984e-17
3944.99546 1.86717e-17
3945.99536 1.86450e-17
3946.99526 1.86184e-17
3948.00516 1.85919e-17
3949.00506 1.83108e-17
3950.00496 1.81348e-17
3951.00486 1.82482e-17
3952.00476 1.83043e-17
3953.00466 1.82783e-17
3954.00456 1.82523e-17
3955.00446 1.82264e-17
3956.00436 1.82010e-17
3957.00426 1.83324e-17
3958.00416 1.83025e-17
3959.00406 1.69888e-17
3960.00396 1.69647e-17
3961.00386 1.69407e-17
3962.00376 1.69168e-17
3963.00366 1.68928e-17
3964.00356 1.68588e-17
3965.00346 1.68183e-17
3966.00336 1.70376e-17
3967.00326 1.74145e-17
3968.00316 1.73899e-17
3969.00306 1.73654e-17
3970.00296 1.73408e-17
3971.00286 1.73163e-17
3972.00276 1.70550e-17
3973.00266 1.69525e-17
3974.00256 1.68140e-17
3975.00246 1.67523e-17
3976.00236 1.67286e-17
3977.00226 1.67050e-17
3978.00216 1.66814e-17
3979.00206 1.66732e-17
3980.00196 1.67570e-17
3981.00186 1.66912e-17
3982.00176 1.63734e-17
3983.00166 1.63502e-17
3984.00156 1.63271e-17
3985.00146 1.63040e-17
3986.00136 1.62809e-17
3987.00126 1.63960e-17
3988.00116 1.65113e-17
3989.00106 1.68975e-17
3990.00096 1.72841e-17
3991.00086 1.72596e-17
3992.00076 1.72351e-17
3993.00066 1.72106e-17
3994.00056 1.71861e-17
3995.00046 1.74895e-17
3996.00036 1.75122e-17
3997.00026 1.76034e-17
3998.00016 1.75952e-17
3999.00006 1.75701e-17
3999.99996 1.75450e-17
4000.99986 1.75199e-17
4001.99976 1.75145e-17
4002.99966 1.75492e-17
4003.99956 1.77152e-17
4004.99946 1.82722e-17
4005.99936 1.82458e-17
4006.99926 1.82195e-17
4007.99916 1.81931e-17
4008.99906 1.81667e-17
4009.99896 1.83531e-17
4010.99886 1.84562e-17
4011.99876 1.88347e-17
4012.99866 1.90544e-17
4013.99856 1.90266e-17
4014.99846 1.89988e-17
4015.99836 1.89710e-17
4016.99826 1.89432e-17
4017.99816 1.91137e-17
4018.99806 1.90866e-17
4019.99796 2.00305e-17
4020.99786 2.00061e-17
4021.99776 1.99766e-17
4022.99766 1.99472e-17
4023.99756 1.99178e-17
4024.99746 2.00418e-17
4025.99736 2.02744e-17
4026.99726 2.03682e-17
4027.99716 2.05495e-17
4028.99706 2.05191e-17
4029.99696 2.04887e-17
4030.99686 2.04583e-17
4031.99676 2.04280e-17
4032.99666 2.03078e-17
4033.99656 2.02465e-17
4034.99646 2.01965e-17
4035.99636 2.01597e-17
4036.99626 2.01297e-17
4037.99616 2.00999e-17
4038.99606 2.00700e-17
4039.99596 2.00171e-17
4040.99586 1.98128e-17
4041.99576 1.97755e-17
4042.99566 1.96863e-17
4043.99556 1.96571e-17
4044.99546 1.96279e-17
4045.99536 1.95988e-17
4046.99526 1.95697e-17
4048.00516 1.96083e-17
4049.00506 1.96493e-17
4050.00496 1.93853e-17
4051.00486 1.91128e-17
4052.00476 1.90844e-17
4053.00466 1.90562e-17
4054.00456 1.90280e-17
4055.00446 1.89998e-17
4056.00436 1.85722e-17
4057.00426 1.84820e-17
4058.00416 1.76686e-17
4059.00406 1.75192e-17
4060.00396 1.74933e-17
4061.00386 1.74676e-17
4062.00376 1.74419e-17
4063.00366 1.73889e-17
4064.00356 1.72760e-17
4065.00346 1.72190e-17
4066.00336 1.70926e-17
4067.00326 1.70676e-17
4068.00316 1.70426e-17
4069.00306 1.70177e-17
4070.00296 1.69929e-17
4071.00286 1.69793e-17
4072.00276 1.69617e-17
4073.00266 1.70346e-17
4074.00256 1.70718e-17
4075.00246 1.70471e-17
4076.00236 1.70224e-17
4077.00226 1.69978e-17
4078.00216 1.69734e-17
4079.00206 1.71297e-17
4080.00196 1.71077e-17
4081.00186 1.78293e-17
4082.00176 1.78147e-17
4083.00166 1.77893e-17
4084.00156 1.77639e-17
4085.00146 1.77387e-17
4086.00136 1.77979e-17
4087.00126 1.79229e-17
4088.00116 1.76185e-17
4089.00106 1.70969e-17
4090.00096 1.70728e-17
4091.00086 1.70489e-17
4092.00076 1.70250e-17
4093.00066 1.70013e-17
4094.00056 1.69462e-17
4095.00046 1.69112e-17
4096.00036 1.74563e-17
4097.00026 1.76389e-17
4098.00016 1.76146e-17
4099.00006 1.75904e-17
4099.99996 1.75663e-17
4100.99986 1.75241e-17
4101.99976 1.73482e-17
4102.99966 1.72635e-17
4103.99956 1.67298e-17
4104.99946 1.67072e-17
4105.99936 1.66847e-17
4106.99926 1.66623e-17
4107.99916 1.66400e-17
4108.99906 1.65688e-17
4109.99896 1.64938e-17
4110.99886 1.63427e-17
4111.99876 1.61816e-17
4112.99866 1.61601e-17
4113.99856 1.61388e-17
4114.99846 1.61175e-17
4115.99836 1.60962e-17
4116.99826 1.60301e-17
4117.99816 1.60014e-17
4118.99806 1.57067e-17
4119.99796 1.56394e-17
4120.99786 1.56190e-17
4121.99776 1.55987e-17
4122.99766 1.55784e-17
4123.99756 1.55432e-17
4124.99746 1.54723e-17
4125.99736 1.54350e-17
4126.99726 1.53567e-17
4127.99716 1.53369e-17
4128.99706 1.53171e-17
4129.99696 1.52974e-17
4130.99686 1.52777e-17
4131.99676 1.54028e-17
4132.99666 1.54789e-17
4133.99656 1.57678e-17
4134.99646 1.59519e-17
4135.99636 1.59315e-17
4136.99626 1.59111e-17
4137.99616 1.58907e-17
4138.99606 1.58704e-17
4139.99596 1.58878e-17
4140.99586 1.58684e-17
4141.99576 1.57533e-17
4142.99566 1.57307e-17
4143.99556 1.57107e-17
4144.99546 1.56906e-17
4145.99536 1.56706e-17
4147.00526 1.55459e-17
4148.00516 1.53306e-17
4149.00506 1.51710e-17
4150.00496 1.48901e-17
4151.00486 1.48711e-17
4152.00476 1.48521e-17
4153.00466 1.48331e-17
4154.00456 1.48142e-17
4155.00446 1.45875e-17
4156.00436 1.44889e-17
4157.00426 1.45690e-17
4158.00416 1.45882e-17
4159.00406 1.45695e-17
4160.00396 1.45508e-17
4161.00386 1.45321e-17
4162.00376 1.45293e-17
4163.00366 1.46607e-17
4164.00356 1.45594e-17
4165.00346 1.37611e-17
4166.00336 1.37433e-17
4167.00326 1.37255e-17
4168.00316 1.37077e-17
4169.00306 1.36900e-17
4170.00296 1.34326e-17
4171.00286 1.31441e-17
4172.00276 1.30492e-17
4173.00266 1.29442e-17
4174.00256 1.29273e-17
4175.00246 1.29104e-17
4176.00236 1.28934e-17
4177.00226 1.28765e-17
4178.00216 1.27600e-17
4179.00206 1.27245e-17
4180.00196 1.26203e-17
4181.00186 1.25873e-17
4182.00176 1.25705e-17
4183.00166 1.25538e-17
4184.00156 1.25370e-17
4185.00146 1.24643e-17
4186.00136 1.22443e-17
4187.00126 1.20871e-17
4188.00116 1.15599e-17
4189.00106 1.15442e-17
4190.00096 1.15286e-17
4191.00086 1.15129e-17
4192.00076 1.14973e-17
4193.00066 1.14192e-17
4194.00056 1.13602e-17
4195.00046 1.13602e-17
4196.00036 1.13555e-17
4197.00026 1.13398e-17
4198.00016 1.13241e-17
4199.00006 1.13083e-17
4199.99996 1.12926e-17
4200.99986 1.15619e-17
4201.99976 1.15568e-17
4202.99966 1.13189e-17
4203.99956 1.12943e-17
4204.99946 1.12784e-17
4205.99936 1.12625e-17
4206.99926 1.12466e-17
4207.99916 1.12546e-17
4208.99906 1.12858e-17
4209.99896 1.13055e-17
4210.99886 1.13600e-17
4211.99876 1.13438e-17
4212.99866 1.13276e-17
4213.99856 1.13114e-17
4214.99846 1.12952e-17
4215.99836 1.21408e-17
4216.99826 1.24764e-17
4217.99816 1.31123e-17
4218.99806 1.33613e-17
4219.99796 1.33420e-17
4220.99786 1.33227e-17
4221.99776 1.33034e-17
4222.99766 1.31301e-17
4223.99756 1.13966e-17
4224.99746 1.13146e-17
4225.99736 1.05704e-17
4226.99726 1.05550e-17
4227.99716 1.05395e-17
4228.99706 1.05241e-17
4229.99696 1.05087e-17
4230.99686 1.06162e-17
4231.99676 1.07473e-17
4232.99666 1.12673e-17
4233.99656 1.18902e-17
4234.99646 1.18727e-17
4235.99636 1.18552e-17
4236.99626 1.18376e-17
4237.99616 1.18201e-17
4238.99606 1.23033e-17
4239.99596 1.23884e-17
4240.99586 1.25855e-17
4241.99576 1.26113e-17
4242.99566 1.25925e-17
4243.99556 1.25737e-17
4244.99546 1.25550e-17
4245.99536 1.26707e-17
4246.99526 1.31827e-17
4247.99516 1.31588e-17
4248.99506 1.31227e-17
4250.00496 1.31030e-17
4251.00486 1.30833e-17
4252.00476 1.30636e-17
4253.00466 1.30439e-17
4254.00456 1.31007e-17
4255.00446 1.31373e-17
4256.00436 1.33712e-17
4257.00426 1.35382e-17
4258.00416 1.35177e-17
4259.00406 1.34972e-17
4260.00396 1.34768e-17
4261.00386 1.34563e-17
4262.00376 1.36707e-17
4263.00366 1.36628e-17
4264.00356 1.43281e-17
4265.00346 1.43439e-17
4266.00336 1.43221e-17
4267.00326 1.43002e-17
4268.00316 1.42784e-17
4269.00306 1.43339e-17
4270.00296 1.44750e-17
4271.00286 1.45561e-17
4272.00276 1.47518e-17
4273.00266 1.47292e-17
4274.00256 1.47067e-17
4275.00246 1.46841e-17
4276.00236 1.46616e-17
4277.00226 1.46442e-17
4278.00216 1.46239e-17
4279.00206 1.45896e-17
4280.00196 1.45620e-17
4281.00186 1.45396e-17
4282.00176 1.45172e-17
4283.00166 1.44949e-17
4284.00156 1.45067e-17
4285.00146 1.49583e-17
4286.00136 1.49865e-17
4287.00126 1.56761e-17
4288.00116 1.56519e-17
4289.00106 1.56278e-17
4290.00096 1.56036e-17
4291.00086 1.55795e-17
4292.00076 1.54975e-17
4293.00066 1.53998e-17
4294.00056 1.53060e-17
4295.00046 1.51934e-17
4296.00036 1.51698e-17
4297.00026 1.51464e-17
4298.00016 1.51229e-17
4299.00006 1.50995e-17
4299.99996 1.52318e-17
4300.99986 1.52440e-17
4301.99976 1.56713e-17
4302.99966 1.57506e-17
4303.99956 1.57261e-17
4304.99946 1.57016e-17
4305.99936 1.56770e-17
4306.99926 1.57346e-17
4307.99916 1.60692e-17
4308.99906 1.60920e-17
4309.99896 1.62765e-17
4310.99886 1.62509e-17
4311.99876 1.62254e-17
4312.99866 1.61998e-17
4313.99856 1.61743e-17
4314.99846 1.60194e-17
4315.99836 1.58921e-17
4316.99826 1.60779e-17
4317.99816 1.62190e-17
4318.99806 1.61933e-17
4319.99796 1.61676e-17
4320.99786 1.61419e-17
4321.99776 1.61163e-17
4322.99766 1.64815e-17
4323.99756 1.64841e-17
4324.99746 1.63310e-17
4325.99736 1.62956e-17
4326.99726 1.62696e-17
4327.99716 1.62436e-17
4328.99706 1.62176e-17
4329.99696 1.62253e-17
4330.99686 1.62763e-17
4331.99676 1.65993e-17
4332.99666 1.73709e-17
4333.99656 1.73430e-17
4334.99646 1.73151e-17
4335.99636 1.72873e-17
4336.99626 1.72595e-17
4337.99616 1.75947e-17
4338.99606 1.77396e-17
4339.99596 1.79813e-17
4340.99586 1.80812e-17
4341.99576 1.80520e-17
4342.99566 1.80228e-17
4343.99556 1.79937e-17
4344.99546 1.79533e-17
4345.99536 1.77078e-17
4347.00526 1.77035e-17
4348.00516 1.81446e-17
4349.00506 1.81152e-17
4350.00496 1.80858e-17
4351.00486 1.80565e-17
4352.00476 1.80271e-17
4353.00466 1.80032e-17
4354.00456 1.79812e-17
4355.00446 1.75336e-17
4356.00436 1.69326e-17
4357.00426 1.69051e-17
4358.00416 1.68775e-17
4359.00406 1.68501e-17
4360.00396 1.68226e-17
4361.00386 1.61708e-17
4362.00376 1.59831e-17
4363.00366 1.55600e-17
4364.00356 1.54320e-17
4365.00346 1.54069e-17
4366.00336 1.53817e-17
4367.00326 1.53566e-17
4368.00316 1.53140e-17
4369.00306 1.52017e-17
4370.00296 1.50758e-17
4371.00286 1.45473e-17
4372.00276 1.45235e-17
4373.00266 1.44998e-17
4374.00256 1.44761e-17
4375.00246 1.44524e-17
4376.00236 1.42596e-17
4377.00226 1.40921e-17
4378.00216 1.39103e-17
4379.00206 1.37523e-17
4380.00196 1.37298e-17
4381.00186 1.37074e-17
4382.00176 1.36850e-17
4383.00166 1.36626e-17
4384.00156 1.36209e-17
4385.00146 1.35968e-17
4386.00136 1.30615e-17
4387.00126 1.29905e-17
4388.00116 1.29693e-17
4389.00106 1.29482e-17
4390.00096 1.29270e-17
4391.00086 1.28579e-17
4392.00076 1.27162e-17
4393.00066 1.26721e-17
4394.00056 1.25930e-17
4395.00046 1.25724e-17
4396.00036 1.25519e-17
4397.00026 1.25315e-17
4398.00016 1.25111e-17
4399.00006 1.25746e-17
4399.99996 1.25979e-17
4400.99986 1.25507e-17
4401.99976 1.25164e-17
4402.99966 1.24960e-17
4403.99956 1.24757e-17
4404.99946 1.24554e-17
4405.99936 1.24293e-17
4406.99926 1.22085e-17
4407.99916 1.21829e-17
4408.99906 1.19651e-17
4409.99896 1.19456e-17
4410.99886 1.19262e-17
4411.99876 1.19069e-17
4412.99866 1.18876e-17
4413.99856 1.19222e-17
4414.99846 1.19834e-17
4415.99836 1.20440e-17
4416.99826 1.21439e-17
4417.99816 1.21242e-17
4418.99806 1.21045e-17
4419.99796 1.20849e-17
4420.99786 1.20653e-17
4421.99776 1.20436e-17
4422.99766 1.20234e-17
4423.99756 1.19320e-17
4424.99746 1.18915e-17
4425.99736 1.18723e-17
4426.99726 1.18530e-17
4427.99716 1.18338e-17
4428.99706 1.17700e-17
4429.99696 1.14892e-17
4430.99686 1.14751e-17
4431.99676 1.14830e-17
4432.99666 1.14644e-17
4433.99656 1.14458e-17
4434.99646 1.14272e-17
4435.99636 1.14086e-17
4436.99626 1.16031e-17
4437.99616 1.17828e-17
4438.99606 1.19402e-17
4439.99596 1.20854e-17
4440.99586 1.20657e-17
4441.99576 1.20461e-17
4442.99566 1.20265e-17
4443.99556 1.20069e-17
4444.99546 1.20855e-17
4445.99536 1.20780e-17
4446.99526 1.19554e-17
4447.99516 1.19232e-17
4448.99506 1.19037e-17
4450.00495 1.18843e-17
4451.00486 1.18649e-17
4452.00475 1.18770e-17
4453.00465 1.19462e-17
4454.00455 1.20703e-17
4455.00446 1.24561e-17
4456.00436 1.24357e-17
4457.00425 1.24153e-17
4458.00415 1.23950e-17
4459.00405 1.23747e-17
4460.00396 1.24883e-17
4461.00385 1.25453e-17
4462.00375 1.27921e-17
4463.00365 1.29257e-17
4464.00356 1.29045e-17
4465.00346 1.28832e-17
4466.00335 1.28620e-17
4467.00325 1.28412e-17
4468.00315 1.28871e-17
4469.00306 1.28675e-17
4470.00295 1.31745e-17
4471.00285 1.31527e-17
4472.00275 1.31310e-17
4473.00266 1.31093e-17
4474.00256 1.30875e-17
4475.00245 1.31629e-17
4476.00235 1.33014e-17
4477.00225 1.34720e-17
4478.00216 1.37676e-17
4479.00205 1.37447e-17
4480.00195 1.37218e-17
4481.00185 1.36990e-17
4482.00176 1.36761e-17
4483.00166 1.38277e-17
4484.00155 1.38631e-17
4485.00145 1.41986e-17
4486.00135 1.42951e-17
4487.00126 1.42712e-17
4488.00115 1.42472e-17
4489.00105 1.42233e-17
4490.00095 1.42322e-17
4491.00086 1.44474e-17
4492.00076 1.44786e-17
4493.00065 1.48588e-17
4494.00055 1.48337e-17
4495.00045 1.48087e-17
4496.00036 1.47837e-17
4497.00025 1.47586e-17
4498.00015 1.49674e-17
4499.00005 1.51830e-17
4499.99996 1.53310e-17
4500.99986 1.54840e-17
4501.99975 1.54577e-17
4502.99965 1.54314e-17
4503.99955 1.54051e-17
4504.99946 1.53789e-17
4505.99935 1.52387e-17
4506.99925 1.51948e-17
4507.99915 1.55527e-17
4508.99906 1.55867e-17
4509.99896 1.55601e-17
4510.99885 1.55335e-17
4511.99875 1.55069e-17
4512.99865 1.55211e-17
4513.99856 1.56266e-17
4514.99845 1.57135e-17
4515.99835 1.60555e-17
4516.99825 1.60280e-17
4517.99816 1.60005e-17
4518.99806 1.59731e-17
4519.99795 1.59457e-17
4520.99785 1.60759e-17
4521.99775 1.61503e-17
4522.99766 1.61796e-17
4523.99755 1.61887e-17
4524.99745 1.61608e-17
4525.99735 1.61330e-17
4526.99726 1.61052e-17
4527.99716 1.60775e-17
4528.99705 1.64674e-17
4529.99695 1.64484e-17
4530.99685 1.70579e-17
4531.99676 1.70428e-17
4532.99665 1.70134e-17
4533.99655 1.69840e-17
4534.99645 1.69547e-17
4535.99636 1.69294e-17
4536.99626 1.69076e-17
4537.99615 1.70351e-17
4538.99605 1.72968e-17
4539.99596 1.72668e-17
4540.99586 1.72370e-17
4541.99575 1.72072e-17
4542.99565 1.71774e-17
4543.99555 1.73326e-17
4544.99546 1.73741e-17
4545.99536 1.73694e-17
4546.99525 1.73491e-17
4548.00515 1.73190e-17
4549.00505 1.72890e-17
4550.00495 1.72590e-17
4551.00485 1.72372e-17
4552.00475 1.72871e-17
4553.00465 1.73199e-17
4554.00455 1.79082e-17
4555.00445 1.78771e-17
4556.00435 1.78461e-17
4557.00425 1.78151e-17
4558.00415 1.77842e-17
4559.00405 1.78423e-17
4560.00395 1.79144e-17
4561.00385 1.80513e-17
4562.00375 1.82145e-17
4563.00365 1.81828e-17
4564.00355 1.81512e-17
4565.00345 1.81197e-17
4566.00335 1.80882e-17
4567.00325 1.83681e-17
4568.00315 1.83979e-17
4569.00305 1.87695e-17
4570.00295 1.88168e-17
4571.00285 1.87841e-17
4572.00275 1.87514e-17
4573.00265 1.87188e-17
4574.00255 1.86725e-17
4575.00245 1.85871e-17
4576.00235 1.85930e-17
4577.00225 1.87080e-17
4578.00215 1.86755e-17
4579.00205 1.86430e-17
4580.00195 1.86105e-17
4581.00185 1.85781e-17
4582.00175 1.85184e-17
4583.00165 1.84661e-17
4584.00155 1.84926e-17
4585.00145 1.85035e-17
4586.00135 1.84713e-17
4587.00125 1.84391e-17
4588.00115 1.84070e-17
4589.00105 1.83750e-17
4590.00095 1.87084e-17
4591.00085 1.86961e-17
4592.00075 1.86336e-17
4593.00065 1.85996e-17
4594.00055 1.85672e-17
4595.00045 1.85349e-17
4596.00035 1.85026e-17
4597.00025 1.84210e-17
4598.00015 1.82834e-17
4599.00005 1.82599e-17
4599.99995 1.82461e-17
4600.99985 1.82144e-17
4601.99975 1.81827e-17
4602.99965 1.81512e-17
4603.99955 1.81196e-17
4604.99945 1.81234e-17
4605.99935 1.81079e-17
4606.99925 1.79962e-17
4607.99915 1.79288e-17
4608.99905 1.78978e-17
4609.99895 1.78668e-17
4610.99885 1.78360e-17
4611.99875 1.77968e-17
4612.99865 1.76349e-17
4613.99855 1.76044e-17
4614.99845 1.75734e-17
4615.99835 1.75431e-17
4616.99825 1.75128e-17
4617.99815 1.74826e-17
4618.99805 1.74525e-17
4619.99795 1.74406e-17
4620.99785 1.74345e-17
4621.99775 1.73749e-17
4622.99765 1.73058e-17
4623.99755 1.72760e-17
4624.99745 1.72463e-17
4625.99735 1.72167e-17
4626.99725 1.71871e-17
4627.99715 1.70874e-17
4628.99705 1.70407e-17
4629.99695 1.67561e-17
4630.99685 1.66640e-17
4631.99675 1.66354e-17
4632.99665 1.66069e-17
4633.99655 1.65784e-17
4634.99645 1.65127e-17
4635.99635 1.63048e-17
4636.99625 1.62491e-17
4637.99615 1.60879e-17
4638.99605 1.60604e-17
4639.99595 1.60329e-17
4640.99585 1.60054e-17
4641.99575 1.59780e-17
4642.99565 1.59229e-17
4643.99555 1.58723e-17
4644.99545 1.56303e-17
4645.99535 1.54225e-17
4646.99525 1.53961e-17
4647.99515 1.53697e-17
4648.99505 1.53434e-17
4650.00495 1.53172e-17
4651.00485 1.49801e-17
4652.00475 1.49248e-17
4653.00465 1.47676e-17
4654.00455 1.47297e-17
4655.00445 1.47045e-17
4656.00435 1.46793e-17
4657.00425 1.46542e-17
4658.00415 1.45954e-17
4659.00405 1.44850e-17
4660.00395 1.43178e-17
4661.00385 1.39331e-17
4662.00375 1.39093e-17
4663.00365 1.38854e-17
4664.00355 1.38616e-17
4665.00345 1.38379e-17
4666.00335 1.37936e-17
4667.00325 1.37591e-17
4668.00315 1.35952e-17
4669.00305 1.34975e-17
4670.00295 1.34744e-17
4671.00285 1.34513e-17
4672.00275 1.34282e-17
4673.00265 1.34015e-17
4674.00255 1.32267e-17
4675.00245 1.31943e-17
4676.00235 1.27686e-17
4677.00225 1.27467e-17
4678.00215 1.27248e-17
4679.00205 1.27029e-17
4680.00195 1.26810e-17
4681.00185 1.25456e-17
4682.00175 1.23495e-17
4683.00165 1.23144e-17
4684.00155 1.22720e-17
4685.00145 1.22508e-17
4686.00135 1.22297e-17
4687.00125 1.22086e-17
4688.00115 1.21875e-17
4689.00105 1.19560e-17
4690.00095 1.18704e-17
4691.00085 1.15662e-17
4692.00075 1.14586e-17
4693.00065 1.14388e-17
4694.00055 1.14190e-17
4695.00045 1.13992e-17
4696.00035 1.13646e-17
4697.00025 1.12488e-17
4698.00015 1.11570e-17
4699.00005 1.06705e-17
4699.99995 1.06519e-17
4700.99985 1.06334e-17
4701.99975 1.06149e-17
4702.99965 1.05963e-17
4703.99955 1.05695e-17
4704.99945 1.05429e-17
4705.99935 1.05019e-17
4706.99925 1.04614e-17
4707.99915 1.04431e-17
4708.99905 1.04247e-17
4709.99895 1.04064e-17
4710.99885 1.03882e-17
4711.99875 1.04323e-17
4712.99865 1.04230e-17
4713.99855 1.03273e-17
4714.99845 1.02979e-17
4715.99835 1.02797e-17
4716.99825 1.02616e-17
4717.99815 1.02435e-17
4718.99805 1.02570e-17
4719.99795 1.03367e-17
4720.99785 1.03924e-17
4721.99775 1.06037e-17
4722.99765 1.05849e-17
4723.99755 1.05662e-17
4724.99745 1.05475e-17
4725.99735 1.05288e-17
4726.99725 1.06362e-17
4727.99715 1.06967e-17
4728.99705 1.10302e-17
4729.99695 1.12326e-17
4730.99685 1.12127e-17
4731.99675 1.11928e-17
4732.99665 1.11730e-17
4733.99655 1.11532e-17
4734.99645 1.15237e-17
4735.99635 1.15101e-17
4736.99625 1.20928e-17
4737.99615 1.20819e-17
4738.99605 1.20605e-17
4739.99595 1.20392e-17
4740.99585 1.20179e-17
4741.99575 1.21325e-17
4742.99565 1.23604e-17
4743.99555 1.25600e-17
4744.99545 1.29442e-17
4745.99535 1.29213e-17
4746.99525 1.28985e-17
4748.00515 1.28757e-17
4749.00505 1.28530e-17
4750.00495 1.29280e-17
4751.00485 1.29427e-17
4752.00475 1.33165e-17
4753.00465 1.34456e-17
4754.00455 1.34220e-17
4755.00445 1.33984e-17
4756.00435 1.33749e-17
4757.00425 1.33524e-17
4758.00415 1.33387e-17
4759.00405 1.33235e-17
4760.00395 1.33820e-17
4761.00385 1.33586e-17
4762.00375 1.33353e-17
4763.00365 1.33120e-17
4764.00355 1.32888e-17
4765.00345 1.33103e-17
4766.00335 1.33392e-17
4767.00325 1.33033e-17
4768.00315 1.32653e-17
4769.00305 1.32423e-17
4770.00295 1.32194e-17
4771.00285 1.31966e-17
4772.00275 1.31738e-17
4773.00265 1.31630e-17
4774.00255 1.31428e-17
4775.00245 1.30766e-17
4776.00235 1.30453e-17
4777.00225 1.30229e-17
4778.00215 1.30006e-17
4779.00205 1.29784e-17
4780.00195 1.29723e-17
4781.00185 1.30147e-17
4782.00175 1.30046e-17
4783.00165 1.30309e-17
4784.00155 1.30089e-17
4785.00145 1.29868e-17
4786.00135 1.29649e-17
4787.00125 1.29431e-17
4788.00115 1.29018e-17
4789.00105 1.28653e-17
4790.00095 1.29829e-17
4791.00085 1.30667e-17
4792.00075 1.30449e-17
4793.00065 1.30231e-17
4794.00055 1.30015e-17
4795.00045 1.29799e-17
4796.00035 1.31256e-17
4797.00025 1.31151e-17
4798.00015 1.33637e-17
4799.00005 1.33597e-17
4799.99995 1.33378e-17
4800.99985 1.33160e-17
4801.99975 1.32942e-17
4802.99965 1.33062e-17
4803.99955 1.33606e-17
4804.99945 1.33958e-17
4805.99935 1.35027e-17
4806.99925 1.34808e-17
4807.99915 1.34590e-17
4808.99905 1.34373e-17
4809.99895 1.34157e-17
4810.99885 1.35902e-17
4811.99875 1.36626e-17
4812.99865 1.41016e-17
4813.99855 1.43004e-17
4814.99845 1.42776e-17
4815.99835 1.42548e-17
4816.99825 1.42321e-17
4817.99815 1.42123e-17
4818.99805 1.42513e-17
4819.99795 1.42343e-17
4820.99785 1.43342e-17
4821.99775 1.43115e-17
4822.99765 1.42889e-17
4823.99755 1.42664e-17
4824.99745 1.42440e-17
4825.99735 1.43370e-17
4826.99725 1.44785e-17
4827.99715 1.44972e-17
4828.99705 1.45334e-17
4829.99695 1.45107e-17
4830.99685 1.44880e-17
4831.99675 1.44654e-17
4832.99665 1.44429e-17
4833.99655 1.45134e-17
4834.99645 1.45169e-17
4835.99635 1.48438e-17
4836.99625 1.49184e-17
4837.99615 1.48954e-17
4838.99605 1.48724e-17
4839.99595 1.48495e-17
4840.99585 1.48575e-17
4841.99575 1.50099e-17
4842.99565 1.50738e-17
4843.99555 1.55425e-17
4844.99545 1.55187e-17
4845.99535 1.54950e-17
4846.99525 1.54713e-17
4847.99515 1.54477e-17
4848.99505 1.52752e-17
4850.00495 1.51137e-17
4851.00485 1.49266e-17
4852.00475 1.47517e-17
4853.00465 1.47293e-17
4854.00455 1.47069e-17
4855.00445 1.46846e-17
4856.00435 1.46624e-17
4857.00425 1.47969e-17
4858.00415 1.47945e-17
4859.00405 1.49560e-17
4860.00395 1.49569e-17
4861.00385 1.49344e-17
4862.00375 1.49119e-17
4863.00365 1.48895e-17
4864.00355 1.48071e-17
4865.00345 1.46100e-17
4866.00335 1.45092e-17
4867.00325 1.42575e-17
4868.00315 1.42362e-17
4869.00305 1.42149e-17
4870.00295 1.41936e-17
4871.00285 1.41724e-17
4872.00275 1.42580e-17
4873.00265 1.43011e-17
4874.00255 1.41516e-17
4875.00245 1.40531e-17
4876.00235 1.40322e-17
4877.00225 1.40113e-17
4878.00215 1.39905e-17
4879.00205 1.39697e-17
4880.00195 1.38520e-17
4881.00185 1.38306e-17
4882.00175 1.39728e-17
4883.00165 1.39534e-17
4884.00155 1.39328e-17
4885.00145 1.39121e-17
4886.00135 1.38915e-17
4887.00125 1.38953e-17
4888.00115 1.39181e-17
4889.00105 1.39901e-17
4890.00095 1.41341e-17
4891.00085 1.41133e-17
4892.00075 1.40924e-17
4893.00065 1.40716e-17
4894.00055 1.40509e-17
4895.00045 1.40122e-17
4896.00035 1.39849e-17
4897.00025 1.38377e-17
4898.00015 1.37699e-17
4899.00005 1.37497e-17
4899.99995 1.37294e-17
4900.99985 1.37092e-17
4901.99975 1.37172e-17
4902.99965 1.39637e-17
4903.99955 1.39772e-17
4904.99945 1.42791e-17
4905.99935 1.42581e-17
4906.99925 1.42371e-17
4907.99915 1.42162e-17
4908.99905 1.41953e-17
4909.99895 1.42500e-17
4910.99885 1.43165e-17
4911.99875 1.44348e-17
4912.99865 1.45748e-17
4913.99855 1.45535e-17
4914.99845 1.45322e-17
4915.99835 1.45109e-17
4916.99825 1.44897e-17
4917.99815 1.45926e-17
4918.99805 1.45965e-17
4919.99795 1.48667e-17
4920.99785 1.49043e-17
4921.99775 1.48825e-17
4922.99765 1.48608e-17
4923.99755 1.48392e-17
4924.99745 1.48557e-17
4925.99735 1.49877e-17
4926.99725 1.50561e-17
4927.99715 1.53978e-17
4928.99705 1.53754e-17
4929.99695 1.53531e-17
4930.99685 1.53309e-17
4931.99675 1.53087e-17
4932.99665 1.54542e-17
4933.99655 1.55603e-17
4934.99645 1.58317e-17
4935.99635 1.60338e-17
4936.99625 1.60107e-17
4937.99615 1.59876e-17
4938.99605 1.59647e-17
4939.99595 1.59417e-17
4940.99585 1.62171e-17
4941.99575 1.62151e-17
4942.99565 1.67283e-17
4943.99555 1.67425e-17
4944.99545 1.67186e-17
4945.99535 1.66947e-17
4946.99525 1.66709e-17
4948.00515 1.66811e-17
4949.00505 1.67361e-17
4950.00495 1.67905e-17
4951.00485 1.69480e-17
4952.00475 1.69240e-17
4953.00465 1.69000e-17
4954.00455 1.68762e-17
4955.00445 1.68524e-17
4956.00435 1.69171e-17
4957.00425 1.69372e-17
4958.00415 1.70786e-17
4959.00405 1.71366e-17
4960.00395 1.71126e-17
4961.00385 1.70887e-17
4962.00375 1.70648e-17
4963.00365 1.70452e-17
4964.00355 1.71341e-17
4965.00345 1.71202e-17
4966.00335 1.73649e-17
4967.00325 1.73408e-17
4968.00315 1.73169e-17
4969.00305 1.72930e-17
4970.00295 1.72691e-17
4971.00285 1.72381e-17
4972.00275 1.72036e-17
4973.00265 1.72501e-17
4974.00255 1.73303e-17
4975.00245 1.73066e-17
4976.00235 1.72830e-17
4977.00225 1.72595e-17
4978.00215 1.72361e-17
4979.00205 1.71577e-17
4980.00195 1.71180e-17
4981.00185 1.68993e-17
4982.00175 1.68181e-17
4983.00165 1.67954e-17
4984.00155 1.67729e-17
4985.00145 1.67505e-17
4986.00135 1.67043e-17
4987.00125 1.65319e-17
4988.00115 1.64650e-17
4989.00105 1.61591e-17
4990.00095 1.61377e-17
4991.00085 1.61164e-17
4992.00075 1.60952e-17
4993.00065 1.60740e-17
4994.00055 1.58884e-17
4995.00045 1.57054e-17
4996.00035 1.54625e-17
4997.00025 1.52229e-17
4998.00015 1.52031e-17
4999.00005 1.51834e-17
4999.99995 1.51638e-17
5000.99985 1.51442e-17
5001.99975 1.49373e-17
5002.99965 1.48902e-17
5003.99955 1.42955e-17
5004.99945 1.41912e-17
5005.99935 1.41732e-17
5006.99925 1.41552e-17
5007.99915 1.41374e-17
5008.99905 1.40666e-17
5009.99895 1.38781e-17
5010.99885 1.37378e-17
5011.99875 1.33240e-17
5012.99865 1.33074e-17
5013.99855 1.32909e-17
5014.99845 1.32745e-17
5015.99835 1.32581e-17
5016.99825 1.31708e-17
5017.99815 1.31080e-17
5018.99805 1.29140e-17
5019.99795 1.27811e-17
5020.99785 1.27655e-17
5021.99775 1.27500e-17
5022.99765 1.27346e-17
5023.99755 1.27192e-17
5024.99745 1.24874e-17
5025.99735 1.24655e-17
5026.99725 1.22586e-17
5027.99715 1.22379e-17
5028.99705 1.22233e-17
5029.99695 1.22087e-17
5030.99685 1.21941e-17
5031.99675 1.21545e-17
5032.99665 1.20905e-17
5033.99655 1.20863e-17
5034.99645 1.20921e-17
5035.99635 1.20779e-17
5036.99625 1.20637e-17
5037.99615 1.20495e-17
5038.99605 1.20353e-17
5039.99595 1.20731e-17
5040.99585 1.20810e-17
5041.99575 1.20388e-17
5042.99565 1.20129e-17
5043.99555 1.19989e-17
5044.99545 1.19849e-17
5045.99535 1.19710e-17
5046.99525 1.19666e-17
5047.99515 1.20819e-17
5048.99505 1.20834e-17
5050.00495 1.22811e-17
5051.00485 1.22669e-17
5052.00475 1.22528e-17
5053.00465 1.22387e-17
5054.00455 1.22246e-17
5055.00445 1.22467e-17
5056.00435 1.22796e-17
5057.00425 1.22656e-17
5058.00415 1.22516e-17
5059.00405 1.22376e-17
5060.00395 1.22236e-17
5061.00385 1.22096e-17
5062.00375 1.21956e-17
5063.00365 1.21554e-17
5064.00355 1.21349e-17
5065.00345 1.24835e-17
5066.00335 1.25598e-17
5067.00325 1.25455e-17
5068.00315 1.25312e-17
5069.00305 1.25169e-17
5070.00295 1.25603e-17
5071.00285 1.28359e-17
5072.00275 1.28490e-17
5073.00265 1.29733e-17
5074.00255 1.29585e-17
5075.00245 1.29437e-17
5076.00235 1.29289e-17
5077.00225 1.29142e-17
5078.00215 1.28820e-17
5079.00205 1.28520e-17
5080.00195 1.30758e-17
5081.00185 1.32708e-17
5082.00175 1.32557e-17
5083.00165 1.32405e-17
5084.00155 1.32254e-17
5085.00145 1.32103e-17
5086.00135 1.34105e-17
5087.00125 1.34198e-17
5088.00115 1.33711e-17
5089.00105 1.33520e-17
5090.00095 1.33367e-17
5091.00085 1.33213e-17
5092.00075 1.33060e-17
5093.00065 1.33479e-17
5094.00055 1.34930e-17
5095.00045 1.35863e-17
5096.00035 1.38758e-17
5097.00025 1.38597e-17
5098.00015 1.38437e-17
5099.00005 1.38276e-17
5099.99995 1.38116e-17
5100.99985 1.39321e-17
5101.99975 1.39967e-17
5102.99965 1.42293e-17
5103.99955 1.43599e-17
5104.99945 1.43432e-17
5105.99935 1.43264e-17
5106.99925 1.43097e-17
5107.99915 1.42929e-17
5108.99905 1.42485e-17
5109.99895 1.42316e-17
5110.99885 1.41259e-17
5111.99875 1.41087e-17
5112.99865 1.40921e-17
5113.99855 1.40755e-17
5114.99845 1.40590e-17
5115.99835 1.40561e-17
5116.99825 1.40640e-17
5117.99815 1.41506e-17
5118.99805 1.43182e-17
5119.99795 1.43013e-17
5120.99785 1.42844e-17
5121.99775 1.42676e-17
5122.99765 1.42507e-17
5123.99755 1.42769e-17
5124.99745 1.42764e-17
5125.99735 1.43041e-17
5126.99725 1.43042e-17
5127.99715 1.42873e-17
5128.99705 1.42704e-17
5129.99695 1.42536e-17
5130.99685 1.42322e-17
5131.99675 1.41678e-17
5132.99665 1.41737e-17
5133.99655 1.43883e-17
5134.99645 1.43714e-17
5135.99635 1.43544e-17
5136.99625 1.43375e-17
5137.99615 1.43207e-17
5138.99605 1.43398e-17
5139.99595 1.43663e-17
5140.99585 1.42712e-17
5141.99575 1.41603e-17
5142.99565 1.41437e-17
5143.99555 1.41272e-17
5144.99545 1.41106e-17
5145.99535 1.40941e-17
5146.99525 1.40109e-17
5148.00515 1.39798e-17
5149.00505 1.40653e-17
5150.00495 1.40715e-17
5151.00485 1.40551e-17
5152.00475 1.40388e-17
5153.00465 1.40225e-17
5154.00455 1.40287e-17
5155.00445 1.41122e-17
5156.00435 1.41060e-17
5157.00425 1.41346e-17
5158.00415 1.41183e-17
5159.00405 1.41021e-17
5160.00395 1.40859e-17
5161.00385 1.40698e-17
5162.00375 1.40757e-17
5163.00365 1.40779e-17
5164.00355 1.39886e-17
5165.00345 1.39122e-17
5166.00335 1.38964e-17
5167.00325 1.38807e-17
5168.00315 1.38649e-17
5169.00305 1.38493e-17
5170.00295 1.37917e-17
5171.00285 1.37722e-17
5172.00275 1.38407e-17
5173.00265 1.38333e-17
5174.00255 1.38179e-17
5175.00245 1.38025e-17
5176.00235 1.37872e-17
5177.00225 1.38342e-17
5178.00215 1.39818e-17
5179.00205 1.40341e-17
5180.00195 1.41958e-17
5181.00185 1.41803e-17
5182.00175 1.41648e-17
5183.00165 1.41493e-17
5184.00155 1.41340e-17
5185.00145 1.41385e-17
5186.00135 1.41343e-17
5187.00125 1.42713e-17
5188.00115 1.43413e-17
5189.00105 1.43260e-17
5190.00095 1.43107e-17
5191.00085 1.42955e-17
5192.00075 1.42812e-17
5193.00065 1.44545e-17
5194.00055 1.44397e-17
5195.00045 1.44943e-17
5196.00035 1.44792e-17
5197.00025 1.44641e-17
5198.00015 1.44491e-17
5199.00005 1.44342e-17
5199.99995 1.44324e-17
5200.99985 1.44398e-17
5201.99975 1.46319e-17
5202.99965 1.49706e-17
5203.99955 1.49554e-17
5204.99945 1.49403e-17
5205.99935 1.49253e-17
5206.99925 1.49104e-17
5207.99915 1.50553e-17
5208.99905 1.50986e-17
5209.99895 1.52014e-17
5210.99885 1.52292e-17
5211.99875 1.52143e-17
5212.99865 1.51993e-17
5213.99855 1.51845e-17
5214.99845 1.51872e-17
5215.99835 1.53358e-17
5216.99825 1.53641e-17
5217.99815 1.57530e-17
5218.99805 1.57378e-17
5219.99795 1.57228e-17
5220.99785 1.57077e-17
5221.99775 1.56928e-17
5222.99765 1.56621e-17
5223.99755 1.56288e-17
5224.99745 1.57442e-17
5225.99735 1.58820e-17
5226.99725 1.58671e-17
5227.99715 1.58522e-17
5228.99705 1.58374e-17
5229.99695 1.58226e-17
5230.99685 1.60331e-17
5231.99675 1.60664e-17
5232.99665 1.61866e-17
5233.99655 1.62005e-17
5234.99645 1.61855e-17
5235.99635 1.61706e-17
5236.99625 1.61558e-17
5237.99615 1.61941e-17
5238.99605 1.64097e-17
5239.99595 1.64938e-17
5240.99585 1.69087e-17
5241.99575 1.68933e-17
5242.99565 1.68780e-17
5243.99555 1.68627e-17
5244.99545 1.68474e-17
5245.99535 1.68528e-17
5246.99525 1.68543e-17
5247.99515 1.68423e-17
5248.99505 1.68298e-17
5249.99495 1.68146e-17
5251.00485 1.67995e-17
5252.00475 1.67845e-17
5253.00465 1.67694e-17
5254.00455 1.68893e-17
5255.00445 1.68868e-17
5256.00435 1.73131e-17
5257.00425 1.73392e-17
5258.00415 1.73237e-17
5259.00405 1.73082e-17
5260.00395 1.72928e-17
5261.00385 1.72836e-17
5262.00375 1.72844e-17
5263.00365 1.72990e-17
5264.00355 1.73618e-17
5265.00345 1.73463e-17
5266.00335 1.73309e-17
5267.00325 1.73155e-17
5268.00315 1.73001e-17
5269.00305 1.73906e-17
5270.00295 1.74346e-17
5271.00285 1.74964e-17
5272.00275 1.75242e-17
5273.00265 1.75086e-17
5274.00255 1.74931e-17
5275.00245 1.74775e-17
5276.00235 1.74622e-17
5277.00225 1.75292e-17
5278.00215 1.75142e-17
5279.00205 1.76985e-17
5280.00195 1.76827e-17
5281.00185 1.76669e-17
5282.00175 1.76511e-17
5283.00165 1.76353e-17
5284.00155 1.76467e-17
5285.00145 1.76780e-17
5286.00135 1.76821e-17
5287.00125 1.77007e-17
5288.00115 1.76848e-17
5289.00105 1.76688e-17
5290.00095 1.76529e-17
5291.00085 1.76369e-17
5292.00075 1.77239e-17
5293.00065 1.77462e-17
5294.00055 1.80020e-17
5295.00045 1.80869e-17
5296.00035 1.80704e-17
5297.00025 1.80539e-17
5298.00015 1.80374e-17
5299.00005 1.80217e-17
5299.99995 1.80137e-17
5300.99985 1.79902e-17
5301.99975 1.79052e-17
5302.99965 1.78887e-17
5303.99955 1.78722e-17
5304.99945 1.78558e-17
5305.99935 1.78393e-17
5306.99925 1.78180e-17
5307.99915 1.77958e-17
5308.99905 1.77841e-17
5309.99895 1.77734e-17
5310.99885 1.77569e-17
5311.99875 1.77405e-17
5312.99865 1.77240e-17
5313.99855 1.77076e-17
5314.99845 1.78427e-17
5315.99835 1.78603e-17
5316.99825 1.80914e-17
5317.99815 1.81305e-17
5318.99805 1.81136e-17
5319.99795 1.80968e-17
5320.99785 1.80799e-17
5321.99775 1.80497e-17
5322.99765 1.79709e-17
5323.99755 1.79610e-17
5324.99745 1.79759e-17
5325.99735 1.79592e-17
5326.99725 1.79424e-17
5327.99715 1.79257e-17
5328.99705 1.79089e-17
5329.99695 1.79581e-17
5330.99685 1.79974e-17
5331.99675 1.80486e-17
5332.99665 1.80898e-17
5333.99655 1.80729e-17
5334.99645 1.80560e-17
5335.99635 1.80392e-17
5336.99625 1.80223e-17
5337.99615 1.79670e-17
5338.99605 1.79461e-17
5339.99595 1.78629e-17
5340.99585 1.78390e-17
5341.99575 1.78224e-17
5342.99565 1.78058e-17
5343.99555 1.77892e-17
5344.99545 1.78198e-17
5345.99535 1.79351e-17
5346.99525 1.79474e-17
5348.00515 1.80116e-17
5349.00505 1.79948e-17
5350.00495 1.79781e-17
5351.00485 1.79614e-17
5352.00475 1.79447e-17
5353.00465 1.78040e-17
5354.00455 1.77132e-17
5355.00445 1.75817e-17
5356.00435 1.74964e-17
5357.00425 1.74802e-17
5358.00415 1.74641e-17
5359.00405 1.74479e-17
5360.00395 1.74318e-17
5361.00385 1.73741e-17
5362.00375 1.73576e-17
5363.00365 1.71495e-17
5364.00355 1.71312e-17
5365.00345 1.71154e-17
5366.00335 1.70997e-17
5367.00325 1.70840e-17
5368.00315 1.70881e-17
5369.00305 1.71094e-17
5370.00295 1.71731e-17
5371.00285 1.73057e-17
5372.00275 1.72899e-17
5373.00265 1.72742e-17
5374.00255 1.72584e-17
5375.00245 1.72427e-17
5376.00235 1.72376e-17
5377.00225 1.72263e-17
5378.00215 1.71276e-17
5379.00205 1.70781e-17
5380.00195 1.70627e-17
5381.00185 1.70473e-17
5382.00175 1.70320e-17
5383.00165 1.70069e-17
5384.00155 1.68636e-17
5385.00145 1.68414e-17
5386.00135 1.67332e-17
5387.00125 1.67183e-17
5388.00115 1.67033e-17
5389.00105 1.66884e-17
5390.00095 1.66736e-17
5391.00085 1.66488e-17
5392.00075 1.66208e-17
5393.00065 1.66099e-17
5394.00055 1.66001e-17
5395.00045 1.65855e-17
5396.00035 1.65709e-17
5397.00025 1.65563e-17
5398.00015 1.65418e-17
5399.00005 1.65216e-17
5399.99995 1.65057e-17
5400.99985 1.64778e-17
5401.99975 1.64598e-17
5402.99965 1.64455e-17
5403.99955 1.64311e-17
5404.99945 1.64168e-17
5405.99935 1.64259e-17
5406.99925 1.65410e-17
5407.99915 1.65424e-17
5408.99905 1.66148e-17
5409.99895 1.66003e-17
5410.99885 1.65858e-17
5411.99875 1.65714e-17
5412.99865 1.65569e-17
5413.99855 1.65065e-17
5414.99845 1.64582e-17
5415.99835 1.65086e-17
5416.99825 1.65553e-17
5417.99815 1.65409e-17
5418.99805 1.65265e-17
5419.99795 1.65121e-17
5420.99785 1.64978e-17
5421.99775 1.65943e-17
5422.99765 1.65957e-17
5423.99755 1.66346e-17
5424.99745 1.66278e-17
5425.99735 1.66134e-17
5426.99725 1.65990e-17
5427.99715 1.65847e-17
5428.99705 1.65510e-17
5429.99695 1.64740e-17
5430.99685 1.64851e-17
5431.99675 1.65530e-17
5432.99665 1.65387e-17
5433.99655 1.65245e-17
5434.99645 1.65103e-17
5435.99635 1.64961e-17
5436.99625 1.66520e-17
5437.99615 1.67532e-17
5438.99605 1.69041e-17
5439.99595 1.70018e-17
5440.99585 1.69873e-17
5441.99575 1.69728e-17
5442.99565 1.69583e-17
5443.99555 1.69439e-17
5444.99545 1.69093e-17
5445.99535 1.68941e-17
5446.99525 1.70702e-17
5447.99515 1.70646e-17
5448.99505 1.70502e-17
5449.99495 1.70358e-17
5451.00485 1.70215e-17
5452.00475 1.70158e-17
5453.00464 1.70201e-17
5454.00455 1.69197e-17
5455.00445 1.67189e-17
5456.00435 1.67049e-17
5457.00425 1.66910e-17
5458.00414 1.66771e-17
5459.00405 1.66633e-17
5460.00395 1.66106e-17
5461.00385 1.65783e-17
5462.00374 1.66467e-17
5463.00365 1.66723e-17
5464.00355 1.66586e-17
5465.00345 1.66449e-17
5466.00335 1.66313e-17
5467.00324 1.66204e-17
5468.00315 1.66802e-17
5469.00305 1.66717e-17
5470.00295 1.67954e-17
5471.00284 1.67818e-17
5472.00275 1.67683e-17
5473.00265 1.67548e-17
5474.00255 1.67413e-17
5475.00245 1.67073e-17
5476.00234 1.66625e-17
5477.00225 1.65755e-17
5478.00215 1.64496e-17
5479.00205 1.64365e-17
5480.00194 1.64235e-17
5481.00185 1.64106e-17
5482.00175 1.63976e-17
5483.00165 1.63721e-17
5484.00155 1.63552e-17
5485.00144 1.63954e-17
5486.00135 1.63998e-17
5487.00125 1.63871e-17
5488.00115 1.63745e-17
5489.00104 1.63618e-17
5490.00095 1.63487e-17
5491.00085 1.63317e-17
5492.00075 1.63064e-17
5493.00065 1.61944e-17
5494.00054 1.61821e-17
5495.00045 1.61699e-17
5496.00035 1.61577e-17
5497.00025 1.61456e-17
5498.00014 1.61506e-17
5499.00005 1.61575e-17
5499.99995 1.61512e-17
5500.99985 1.61455e-17
5501.99975 1.61336e-17
5502.99964 1.61218e-17
5503.99955 1.61100e-17
5504.99945 1.60982e-17
5505.99935 1.61011e-17
5506.99924 1.60923e-17
5507.99915 1.61113e-17
5508.99905 1.61058e-17
5509.99895 1.60943e-17
5510.99885 1.60828e-17
5511.99874 1.60713e-17
5512.99865 1.60614e-17
5513.99855 1.60562e-17
5514.99845 1.60303e-17
5515.99834 1.59576e-17
5516.99825 1.59464e-17
5517.99815 1.59353e-17
5518.99805 1.59241e-17
5519.99795 1.59131e-17
5520.99784 1.58857e-17
5521.99775 1.58614e-17
5522.99765 1.58920e-17
5523.99755 1.59150e-17
5524.99744 1.59041e-17
5525.99735 1.58932e-17
5526.99725 1.58824e-17
5527.99715 1.58716e-17
5528.99705 1.58518e-17
5529.99694 1.58402e-17
5530.99685 1.58744e-17
5531.99675 1.58682e-17
5532.99665 1.58576e-17
5533.99654 1.58470e-17
5534.99645 1.58365e-17
5535.99635 1.58017e-17
5536.99625 1.57251e-17
5537.99615 1.56595e-17
5538.99604 1.54981e-17
5539.99595 1.54879e-17
5540.99585 1.54777e-17
5541.99575 1.54676e-17
5542.99564 1.54575e-17
5543.99555 1.54163e-17
5544.99545 1.53877e-17
5545.99535 1.54655e-17
5546.99525 1.55080e-17
5548.00514 1.54979e-17
5549.00504 1.54879e-17
5550.00494 1.54779e-17
5551.00484 1.54679e-17
5552.00474 1.56129e-17
5553.00464 1.56054e-17
5554.00454 1.56024e-17
5555.00444 1.55925e-17
5556.00434 1.55826e-17
5557.00424 1.55726e-17
5558.00414 1.55627e-17
5559.00404 1.55113e-17
5560.00394 1.54218e-17
5561.00384 1.54130e-17
5562.00374 1.54053e-17
5563.00364 1.53955e-17
5564.00354 1.53858e-17
5565.00344 1.53761e-17
5566.00334 1.53664e-17
5567.00324 1.54127e-17
5568.00314 1.54269e-17
5569.00304 1.53516e-17
5570.00294 1.53139e-17
5571.00284 1.53043e-17
5572.00274 1.52947e-17
5573.00264 1.52851e-17
5574.00254 1.52719e-17
5575.00244 1.52022e-17
5576.00234 1.51876e-17
5577.00224 1.50959e-17
5578.00214 1.50865e-17
5579.00204 1.50771e-17
5580.00194 1.50677e-17
5581.00184 1.50583e-17
5582.00174 1.50498e-17
5583.00164 1.50417e-17
5584.00154 1.50274e-17
5585.00144 1.50110e-17
5586.00134 1.50017e-17
5587.00124 1.49924e-17
5588.00114 1.49830e-17
5589.00104 1.49737e-17
5590.00094 1.48009e-17
5591.00084 1.47439e-17
5592.00074 1.45290e-17
5593.00064 1.44598e-17
5594.00054 1.44508e-17
5595.00044 1.44418e-17
5596.00034 1.44328e-17
5597.00024 1.44358e-17
5598.00014 1.45059e-17
5599.00004 1.44880e-17
5599.99994 1.44203e-17
5600.99984 1.44114e-17
5601.99974 1.44024e-17
5602.99964 1.43935e-17
5603.99954 1.43845e-17
5604.99944 1.43506e-17
5605.99934 1.43155e-17
5606.99924 1.42716e-17
5607.99914 1.42261e-17
5608.99904 1.42173e-17
5609.99894 1.42086e-17
5610.99884 1.41998e-17
5611.99874 1.41911e-17
5612.99864 1.40297e-17
5613.99854 1.39931e-17
5614.99844 1.37068e-17
5615.99834 1.36477e-17
5616.99824 1.36393e-17
5617.99814 1.36310e-17
5618.99804 1.36227e-17
5619.99794 1.35872e-17
5620.99784 1.34721e-17
5621.99774 1.34531e-17
5622.99764 1.34025e-17
5623.99754 1.33944e-17
5624.99744 1.33863e-17
5625.99734 1.33782e-17
5626.99724 1.33701e-17
5627.99714 1.32987e-17
5628.99704 1.32408e-17
5629.99694 1.29869e-17
5630.99684 1.27854e-17
5631.99674 1.27778e-17
5632.99664 1.27701e-17
5633.99654 1.27624e-17
5634.99644 1.27547e-17
5635.99634 1.26975e-17
5636.99624 1.26853e-17
5637.99614 1.25816e-17
5638.99604 1.25653e-17
5639.99594 1.25578e-17
5640.99584 1.25503e-17
5641.99574 1.25428e-17
5642.99564 1.25033e-17
5643.99554 1.24102e-17
5644.99544 1.23789e-17
5645.99534 1.23076e-17
5646.99524 1.23003e-17
5647.99514 1.22931e-17
5648.99504 1.22858e-17
5649.99494 1.22786e-17
5651.00484 1.23251e-17
5652.00474 1.23496e-17
5653.00464 1.23127e-17
5654.00454 1.22879e-17
5655.00444 1.22807e-17
5656.00434 1.22735e-17
5657.00424 1.22663e-17
5658.00414 1.22592e-17
5659.00404 1.21542e-17
5660.00394 1.21457e-17
5661.00384 1.22483e-17
5662.00374 1.22428e-17
5663.00364 1.22357e-17
5664.00354 1.22286e-17
5665.00344 1.22215e-17
5666.00334 1.22241e-17
5667.00324 1.22358e-17
5668.00314 1.22390e-17
5669.00304 1.22518e-17
5670.00294 1.22447e-17
5671.00284 1.22376e-17
5672.00274 1.22306e-17
5673.00264 1.22235e-17
5674.00254 1.23010e-17
5675.00244 1.23306e-17
5676.00234 1.23652e-17
5677.00224 1.23762e-17
5678.00214 1.23691e-17
5679.00204 1.23620e-17
5680.00194 1.23549e-17
5681.00184 1.23420e-17
5682.00174 1.22298e-17
5683.00164 1.22241e-17
5684.00154 1.22392e-17
5685.00144 1.22323e-17
5686.00134 1.22253e-17
5687.00124 1.22184e-17
5688.00114 1.22115e-17
5689.00104 1.22183e-17
5690.00094 1.22313e-17
5691.00084 1.22000e-17
5692.00074 1.21580e-17
5693.00064 1.21511e-17
5694.00054 1.21443e-17
5695.00044 1.21375e-17
5696.00034 1.21306e-17
5697.00024 1.21371e-17
5698.00014 1.21344e-17
5699.00004 1.20168e-17
5699.99994 1.19759e-17
5700.99984 1.19693e-17
5701.99974 1.19626e-17
5702.99964 1.19560e-17
5703.99954 1.19471e-17
5704.99944 1.19240e-17
5705.99934 1.19195e-17
5706.99924 1.19288e-17
5707.99914 1.19222e-17
5708.99904 1.19157e-17
5709.99894 1.19092e-17
5710.99884 1.19028e-17
5711.99874 1.19024e-17
5712.99864 1.19027e-17
5713.99854 1.19233e-17
5714.99844 1.19467e-17
5715.99834 1.19403e-17
5716.99824 1.19339e-17
5717.99814 1.19275e-17
5718.99804 1.19211e-17
5719.99794 1.19401e-17
5720.99784 1.19389e-17
5721.99774 1.19239e-17
5722.99764 1.19158e-17
5723.99754 1.19095e-17
5724.99744 1.19032e-17
5725.99734 1.18969e-17
5726.99724 1.18904e-17
5727.99714 1.18828e-17
5728.99704 1.18845e-17
5729.99694 1.19128e-17
5730.99684 1.19066e-17
5731.99674 1.19003e-17
5732.99664 1.18941e-17
5733.99654 1.18879e-17
5734.99644 1.18879e-17
5735.99634 1.18870e-17
5736.99624 1.19139e-17
5737.99614 1.19359e-17
5738.99604 1.19297e-17
5739.99594 1.19235e-17
5740.99584 1.19173e-17
5741.99574 1.19111e-17
5742.99564 1.19562e-17
5743.99554 1.19561e-17
5744.99544 1.21653e-17
5745.99534 1.21844e-17
5746.99524 1.21781e-17
5748.00514 1.21718e-17
5749.00504 1.21655e-17
5750.00494 1.21955e-17
5751.00484 1.22987e-17
5752.00474 1.23302e-17
5753.00464 1.24379e-17
5754.00454 1.24314e-17
5755.00444 1.24250e-17
5756.00434 1.24186e-17
5757.00424 1.24121e-17
5758.00414 1.24900e-17
5759.00404 1.25390e-17
5760.00394 1.26042e-17
5761.00384 1.26448e-17
5762.00374 1.26383e-17
5763.00364 1.26317e-17
5764.00354 1.26251e-17
5765.00344 1.26186e-17
5766.00334 1.26347e-17
5767.00324 1.26291e-17
5768.00314 1.28319e-17
5769.00304 1.28345e-17
5770.00294 1.28278e-17
5771.00284 1.28211e-17
5772.00274 1.28143e-17
5773.00264 1.28631e-17
5774.00254 1.29790e-17
5775.00244 1.30673e-17
5776.00234 1.32707e-17
5777.00224 1.32637e-17
5778.00214 1.32567e-17
5779.00204 1.32496e-17
5780.00194 1.32426e-17
5781.00184 1.33465e-17
5782.00174 1.33952e-17
5783.00164 1.36480e-17
5784.00154 1.37714e-17
5785.00144 1.37640e-17
5786.00134 1.37567e-17
5787.00124 1.37493e-17
5788.00114 1.37425e-17
5789.00104 1.37635e-17
5790.00094 1.37567e-17
5791.00084 1.37848e-17
5792.00074 1.37774e-17
5793.00064 1.37699e-17
5794.00054 1.37624e-17
5795.00044 1.37549e-17
5796.00034 1.38140e-17
5797.00024 1.39186e-17
5798.00014 1.40500e-17
5799.00004 1.42763e-17
5799.99994 1.42684e-17
5800.99984 1.42605e-17
5801.99974 1.42526e-17
5802.99964 1.42446e-17
5803.99954 1.42809e-17
5804.99944 1.42896e-17
5805.99934 1.44434e-17
5806.99924 1.44963e-17
5807.99914 1.44881e-17
5808.99904 1.44798e-17
5809.99894 1.44715e-17
5810.99884 1.44776e-17
5811.99874 1.46370e-17
5812.99864 1.46519e-17
5813.99854 1.49157e-17
5814.99844 1.49070e-17
5815.99834 1.48983e-17
5816.99824 1.48896e-17
5817.99814 1.48809e-17
5818.99804 1.49215e-17
5819.99794 1.49775e-17
5820.99784 1.49885e-17
5821.99774 1.50057e-17
5822.99764 1.49968e-17
5823.99754 1.49879e-17
5824.99744 1.49790e-17
5825.99734 1.49701e-17
5826.99724 1.49825e-17
5827.99714 1.49794e-17
5828.99704 1.52038e-17
5829.99694 1.52586e-17
5830.99684 1.52495e-17
5831.99674 1.52403e-17
5832.99664 1.52312e-17
5833.99654 1.52395e-17
5834.99644 1.53399e-17
5835.99634 1.53535e-17
5836.99624 1.54876e-17
5837.99614 1.54783e-17
5838.99604 1.54689e-17
5839.99594 1.54597e-17
5840.99584 1.54504e-17
5841.99574 1.54300e-17
5842.99564 1.54093e-17
5843.99554 1.54016e-17
5844.99544 1.53940e-17
5845.99534 1.53848e-17
5846.99524 1.53756e-17
5847.99514 1.53663e-17
5848.99504 1.53571e-17
5849.99494 1.53661e-17
5851.00484 1.53603e-17
5852.00474 1.53210e-17
5853.00464 1.53062e-17
5854.00454 1.52971e-17
5855.00444 1.52880e-17
5856.00434 1.52789e-17
5857.00424 1.52785e-17
5858.00414 1.53052e-17
5859.00404 1.52980e-17
5860.00394 1.52967e-17
5861.00384 1.52877e-17
5862.00374 1.52787e-17
5863.00364 1.52697e-17
5864.00354 1.52608e-17
5865.00344 1.52437e-17
5866.00334 1.52280e-17
5867.00324 1.52517e-17
5868.00314 1.52697e-17
5869.00304 1.52609e-17
5870.00294 1.52521e-17
5871.00284 1.52433e-17
5872.00274 1.52346e-17
5873.00264 1.49565e-17
5874.00254 1.49176e-17
5875.00244 1.44578e-17
5876.00234 1.43989e-17
5877.00224 1.43908e-17
5878.00214 1.43827e-17
5879.00204 1.43747e-17
5880.00194 1.43475e-17
5881.00184 1.42822e-17
5882.00174 1.42236e-17
5883.00164 1.40641e-17
5884.00154 1.40565e-17
5885.00144 1.40488e-17
5886.00134 1.40412e-17
5887.00124 1.40336e-17
5888.00114 1.39397e-17
5889.00104 1.38752e-17
5890.00094 1.37161e-17
5891.00084 1.36087e-17
5892.00074 1.36016e-17
5893.00064 1.35945e-17
5894.00054 1.35874e-17
5895.00044 1.35804e-17
5896.00034 1.37847e-17
5897.00024 1.37879e-17
5898.00014 1.40724e-17
5899.00004 1.40795e-17
5899.99994 1.40725e-17
5900.99984 1.40655e-17
5901.99974 1.40586e-17
5902.99964 1.40708e-17
5903.99954 1.41077e-17
5904.99944 1.41714e-17
5905.99934 1.43252e-17
5906.99924 1.43183e-17
5907.99914 1.43115e-17
5908.99904 1.43048e-17
5909.99894 1.42981e-17
5910.99884 1.42727e-17
5911.99874 1.42563e-17
5912.99864 1.41482e-17
5913.99854 1.40885e-17
5914.99844 1.40821e-17
5915.99834 1.40757e-17
5916.99824 1.40694e-17
5917.99814 1.40635e-17
5918.99804 1.41181e-17
5919.99794 1.41131e-17
5920.99784 1.42838e-17
5921.99774 1.42776e-17
5922.99764 1.42713e-17
5923.99754 1.42651e-17
5924.99744 1.42590e-17
5925.99734 1.42689e-17
5926.99724 1.42916e-17
5927.99714 1.42994e-17
5928.99704 1.43183e-17
5929.99694 1.43123e-17
5930.99684 1.43062e-17
5931.99674 1.43002e-17
5932.99664 1.42943e-17
5933.99654 1.41818e-17
5934.99644 1.41320e-17
5935.99634 1.39718e-17
5936.99624 1.39025e-17
5937.99614 1.38967e-17
5938.99604 1.38910e-17
5939.99594 1.38853e-17
5940.99584 1.38806e-17
5941.99574 1.38906e-17
5942.99564 1.38885e-17
5943.99554 1.39390e-17
5944.99544 1.39334e-17
5945.99534 1.39278e-17
5946.99524 1.39222e-17
5947.99514 1.39165e-17
5949.00504 1.39239e-17
5950.00494 1.39371e-17
5951.00484 1.39178e-17
5952.00474 1.38923e-17
5953.00464 1.38867e-17
5954.00454 1.38811e-17
5955.00444 1.38756e-17
5956.00434 1.38700e-17
5957.00424 1.37521e-17
5958.00414 1.37109e-17
5959.00404 1.37078e-17
5960.00394 1.37031e-17
5961.00384 1.36976e-17
5962.00374 1.36921e-17
5963.00364 1.36867e-17
5964.00354 1.36728e-17
5965.00344 1.35986e-17
5966.00334 1.35578e-17
5967.00324 1.32626e-17
5968.00314 1.32572e-17
5969.00304 1.32519e-17
5970.00294 1.32465e-17
5971.00284 1.32412e-17
5972.00274 1.32702e-17
5973.00264 1.33055e-17
5974.00254 1.32830e-17
5975.00244 1.32575e-17
5976.00234 1.32520e-17
5977.00224 1.32466e-17
5978.00214 1.32411e-17
5979.00204 1.32357e-17
5980.00194 1.31774e-17
5981.00184 1.31594e-17
5982.00174 1.30648e-17
5983.00164 1.30382e-17
5984.00154 1.30327e-17
5985.00144 1.30272e-17
5986.00134 1.30217e-17
5987.00124 1.30252e-17
5988.00114 1.30685e-17
5989.00104 1.30750e-17
5990.00094 1.31347e-17
5991.00084 1.31290e-17
5992.00074 1.31233e-17
5993.00064 1.31175e-17
5994.00054 1.31118e-17
5995.00044 1.30320e-17
5996.00034 1.29542e-17
5997.00024 1.28787e-17
5998.00014 1.28051e-17
5999.00004 1.27993e-17
5999.99994 1.27935e-17
6000.99984 1.27877e-17
6001.99974 1.27819e-17
6002.99964 1.27973e-17
6003.99954 1.27950e-17
6004.99944 1.28218e-17
6005.99934 1.28214e-17
6006.99924 1.28155e-17
6007.99914 1.28095e-17
6008.99904 1.28035e-17
6009.99894 1.27967e-17
6010.99884 1.27876e-17
6011.99874 1.27892e-17
6012.99864 1.28127e-17
6013.99854 1.28067e-17
6014.99844 1.28006e-17
6015.99834 1.27946e-17
6016.99824 1.27885e-17
6017.99814 1.27678e-17
6018.99804 1.27499e-17
6019.99794 1.27388e-17
6020.99784 1.27287e-17
6021.99774 1.27226e-17
6022.99764 1.27165e-17
6023.99754 1.27104e-17
6024.99744 1.27043e-17
6025.99734 1.27616e-17
6026.99724 1.27623e-17
6027.99714 1.26328e-17
6028.99704 1.26132e-17
6029.99694 1.26071e-17
6030.99684 1.26010e-17
6031.99674 1.25948e-17
6032.99664 1.25682e-17
6033.99654 1.25006e-17
6034.99644 1.24789e-17
6035.99634 1.24259e-17
6036.99624 1.24198e-17
6037.99614 1.24137e-17
6038.99604 1.24076e-17
6039.99594 1.24015e-17
6040.99584 1.24050e-17
6041.99574 1.24053e-17
6042.99564 1.24516e-17
6043.99554 1.24807e-17
6044.99544 1.24746e-17
6045.99534 1.24684e-17
6046.99524 1.24623e-17
6047.99514 1.24562e-17
6048.99504 1.25018e-17
6049.99494 1.24986e-17
6051.00484 1.24558e-17
6052.00474 1.24476e-17
6053.00464 1.24414e-17
6054.00454 1.24353e-17
6055.00444 1.24292e-17
6056.00434 1.24080e-17
6057.00424 1.23657e-17
6058.00414 1.24058e-17
6059.00404 1.25105e-17
6060.00394 1.25044e-17
6061.00384 1.24982e-17
6062.00374 1.24921e-17
6063.00364 1.24860e-17
6064.00354 1.24737e-17
6065.00344 1.24641e-17
6066.00334 1.22982e-17
6067.00324 1.22028e-17
6068.00314 1.21969e-17
6069.00304 1.21909e-17
6070.00294 1.21850e-17
6071.00284 1.21790e-17
6072.00274 1.20860e-17
6073.00264 1.20791e-17
6074.00254 1.22724e-17
6075.00244 1.22687e-17
6076.00234 1.22628e-17
6077.00224 1.22568e-17
6078.00214 1.22509e-17
6079.00204 1.22628e-17
6080.00194 1.22920e-17
6081.00184 1.22164e-17
6082.00174 1.20727e-17
6083.00164 1.20669e-17
6084.00154 1.20612e-17
6085.00144 1.20554e-17
6086.00134 1.20497e-17
6087.00124 1.20443e-17
6088.00114 1.20387e-17
6089.00104 1.21501e-17
6090.00094 1.21987e-17
6091.00084 1.21929e-17
6092.00074 1.21872e-17
6093.00064 1.21815e-17
6094.00054 1.21768e-17
6095.00044 1.22027e-17
6096.00034 1.21956e-17
6097.00024 1.21430e-17
6098.00014 1.21374e-17
6099.00004 1.21318e-17
6099.99994 1.21262e-17
6100.99984 1.21207e-17
6101.99974 1.20997e-17
6102.99964 1.20687e-17
6103.99954 1.20094e-17
6104.99944 1.19149e-17
6105.99934 1.19094e-17
6106.99924 1.19040e-17
6107.99914 1.18986e-17
6108.99904 1.18932e-17
6109.99894 1.18753e-17
6110.99884 1.18651e-17
6111.99874 1.19456e-17
6112.99864 1.19730e-17
6113.99854 1.19676e-17
6114.99844 1.19622e-17
6115.99834 1.19568e-17
6116.99824 1.19499e-17
6117.99814 1.19250e-17
6118.99804 1.19166e-17
6119.99794 1.18705e-17
6120.99784 1.18652e-17
6121.99774 1.18598e-17
6122.99764 1.18545e-17
6123.99754 1.18492e-17
6124.99744 1.18674e-17
6125.99734 1.18953e-17
6126.99724 1.19366e-17
6127.99714 1.19969e-17
6128.99704 1.19916e-17
6129.99694 1.19862e-17
6130.99684 1.19808e-17
6131.99674 1.19755e-17
6132.99664 1.20404e-17
6133.99654 1.20570e-17
6134.99644 1.21430e-17
6135.99634 1.21662e-17
6136.99624 1.21608e-17
6137.99614 1.21554e-17
6138.99604 1.21500e-17
6139.99594 1.21468e-17
6140.99584 1.21591e-17
6141.99574 1.21582e-17
6142.99564 1.21893e-17
6143.99554 1.21839e-17
6144.99544 1.21785e-17
6145.99534 1.21732e-17
6146.99524 1.21678e-17
6147.99514 1.21795e-17
6149.00504 1.21946e-17
6150.00494 1.22259e-17
6151.00484 1.22648e-17
6152.00474 1.22594e-17
6153.00464 1.22540e-17
6154.00454 1.22487e-17
6155.00444 1.22433e-17
6156.00434 1.22334e-17
6157.00424 1.22269e-17
6158.00414 1.22320e-17
6159.00404 1.22293e-17
6160.00394 1.22240e-17
6161.00384 1.22187e-17
6162.00374 1.22134e-17
6163.00364 1.21796e-17
6164.00354 1.20047e-17
6165.00344 1.19221e-17
6166.00334 1.14552e-17
6167.00324 1.14503e-17
6168.00314 1.14453e-17
6169.00304 1.14404e-17
6170.00294 1.14355e-17
6171.00284 1.14206e-17
6172.00274 1.14052e-17
6173.00264 1.14817e-17
6174.00254 1.15620e-17
6175.00244 1.15570e-17
6176.00234 1.15520e-17
6177.00224 1.15471e-17
6178.00214 1.15422e-17
6179.00204 1.15019e-17
6180.00194 1.14900e-17
6181.00184 1.12988e-17
6182.00174 1.12568e-17
6183.00164 1.12520e-17
6184.00154 1.12472e-17
6185.00144 1.12424e-17
6186.00134 1.12215e-17
6187.00124 1.11421e-17
6188.00114 1.11178e-17
6189.00104 1.10228e-17
6190.00094 1.10181e-17
6191.00084 1.10135e-17
6192.00074 1.10088e-17
6193.00064 1.10042e-17
6194.00054 1.09383e-17
6195.00044 1.08777e-17
6196.00034 1.07209e-17
6197.00024 1.05773e-17
6198.00014 1.05729e-17
6199.00004 1.05684e-17
6199.99994 1.05640e-17
6200.99984 1.05596e-17
6201.99974 1.04426e-17
6202.99964 1.04208e-17
6203.99954 1.02356e-17
6204.99944 1.02035e-17
6205.99934 1.01992e-17
6206.99924 1.01949e-17
6207.99914 1.01906e-17
6208.99904 1.01654e-17
6209.99894 1.00832e-17
6210.99884 1.00362e-17
6211.99874 9.87199e-18
6212.99864 9.86780e-18
6213.99854 9.86361e-18
6214.99844 9.85942e-18
6215.99834 9.85523e-18
6216.99824 9.83238e-18
6217.99814 9.81321e-18
6218.99804 9.79642e-18
6219.99794 9.78213e-18
6220.99784 9.77797e-18
6221.99774 9.77381e-18
6222.99764 9.76965e-18
6223.99754 9.76550e-18
6224.99744 9.73682e-18
6225.99734 9.72991e-18
6226.99724 9.64672e-18
6227.99714 9.63367e-18
6228.99704 9.62959e-18
6229.99694 9.62551e-18
6230.99684 9.62143e-18
6231.99674 9.61282e-18
6232.99664 9.59450e-18
6233.99654 9.58226e-18
6234.99644 9.55253e-18
6235.99634 9.54850e-18
6236.99624 9.54449e-18
6237.99614 9.54047e-18
6238.99604 9.53647e-18
6239.99594 9.57953e-18
6240.99584 9.60891e-18
6241.99574 9.66861e-18
6242.99564 9.70977e-18
6243.99554 9.70573e-18
6244.99544 9.70169e-18
6245.99534 9.69767e-18
6246.99524 9.69365e-18
6247.99514 9.65333e-18
6248.99504 9.64654e-18
6249.99494 9.51847e-18
6251.00484 9.50494e-18
6252.00474 9.50104e-18
6253.00464 9.49716e-18
6254.00454 9.49329e-18
6255.00444 9.48292e-18
6256.00434 9.46155e-18
6257.00424 9.49392e-18
6258.00414 9.58745e-18
6259.00404 9.58359e-18
6260.00394 9.57975e-18
6261.00384 9.57592e-18
6262.00374 9.57210e-18
6263.00364 9.60115e-18
6264.00354 9.61802e-18
6265.00344 9.57040e-18
6266.00334 9.53906e-18
6267.00324 9.53533e-18
6268.00314 9.53161e-18
6269.00304 9.52790e-18
6270.00294 9.52421e-18
6271.00284 9.39965e-18
6272.00274 9.39050e-18
6273.00264 9.29918e-18
6274.00254 9.29162e-18
6275.00244 9.28810e-18
6276.00234 9.28459e-18
6277.00224 9.28110e-18
6278.00214 9.30320e-18
6279.00204 9.35983e-18
6280.00194 9.41406e-18
6281.00184 9.54617e-18
6282.00174 9.54267e-18
6283.00164 9.53919e-18
6284.00154 9.53573e-18
6285.00144 9.53229e-18
6286.00134 9.51917e-18
6287.00124 9.51034e-18
6288.00114 9.44993e-18
6289.00104 9.41461e-18
6290.00094 9.41131e-18
6291.00084 9.40803e-18
6292.00074 9.40477e-18
6293.00064 9.40154e-18
6294.00054 9.44870e-18
6295.00044 9.44640e-18
6296.00034 9.34345e-18
6297.00024 9.33854e-18
6298.00014 9.33544e-18
6299.00004 9.33236e-18
6299.99994 9.32931e-18
6300.99984 9.31353e-18
6301.99974 9.28393e-18
6302.99964 9.29327e-18
6303.99954 9.31594e-18
6304.99944 9.31304e-18
6305.99934 9.31018e-18
6306.99924 9.30734e-18
6307.99914 9.30453e-18
6308.99904 9.29089e-18
6309.99894 9.28269e-18
6310.99884 9.31647e-18
6311.99874 9.33209e-18
6312.99864 9.32941e-18
6313.99854 9.32675e-18
6314.99844 9.32412e-18
6315.99834 9.32151e-18
6316.99824 9.31948e-18
6317.99814 9.31671e-18
6318.99804 9.28447e-18
6319.99794 9.28196e-18
6320.99784 9.27947e-18
6321.99774 9.27700e-18
6322.99764 9.27455e-18
6323.99754 9.27554e-18
6324.99744 9.27954e-18
6325.99734 9.31110e-18
6326.99724 9.37231e-18
6327.99714 9.36993e-18
6328.99704 9.36756e-18
6329.99694 9.36520e-18
6330.99684 9.36287e-18
6331.99674 9.39822e-18
6332.99664 9.41291e-18
6333.99654 9.45365e-18
6334.99644 9.47077e-18
6335.99634 9.46847e-18
6336.99624 9.46619e-18
6337.99614 9.46391e-18
6338.99604 9.46405e-18
6339.99594 9.53995e-18
6340.99584 9.53806e-18
6341.99574 9.54786e-18
6342.99564 9.54562e-18
6343.99554 9.54338e-18
6344.99544 9.54115e-18
6345.99534 9.53893e-18
6346.99524 9.59536e-18
6347.99514 9.69290e-18
6349.00504 9.80011e-18
6350.00494 9.98402e-18
6351.00484 9.98172e-18
6352.00474 9.97943e-18
6353.00464 9.97713e-18
6354.00454 9.97485e-18
6355.00444 9.98777e-18
6356.00434 9.99168e-18
6357.00424 1.01859e-17
6358.00414 1.02636e-17
6359.00404 1.02613e-17
6360.00394 1.02589e-17
6361.00384 1.02566e-17
6362.00374 1.02712e-17
6363.00364 1.05879e-17
6364.00354 1.06132e-17
6365.00344 1.11328e-17
6366.00334 1.11302e-17
6367.00324 1.11276e-17
6368.00314 1.11250e-17
6369.00304 1.11224e-17
6370.00294 1.12145e-17
6371.00284 1.13596e-17
6372.00274 1.15112e-17
6373.00264 1.17492e-17
6374.00254 1.17464e-17
6375.00244 1.17436e-17
6376.00234 1.17408e-17
6377.00224 1.17379e-17
6378.00214 1.19362e-17
6379.00204 1.20076e-17
6380.00194 1.25197e-17
6381.00184 1.27069e-17
6382.00174 1.27038e-17
6383.00164 1.27006e-17
6384.00154 1.26974e-17
6385.00144 1.27133e-17
6386.00134 1.29650e-17
6387.00124 1.30003e-17
6388.00114 1.35143e-17
6389.00104 1.35108e-17
6390.00094 1.35072e-17
6391.00084 1.35037e-17
6392.00074 1.35001e-17
6393.00064 1.36272e-17
6394.00054 1.38125e-17
6395.00044 1.40357e-17
6396.00034 1.43599e-17
6397.00024 1.43559e-17
6398.00014 1.43519e-17
6399.00004 1.43479e-17
6399.99994 1.43438e-17
6400.99984 1.45270e-17
6401.99974 1.45859e-17
6402.99964 1.49862e-17
6403.99954 1.51182e-17
6404.99944 1.51138e-17
6405.99934 1.51093e-17
6406.99924 1.51049e-17
6407.99914 1.51219e-17
6408.99904 1.53443e-17
6409.99894 1.53766e-17
6410.99884 1.57599e-17
6411.99874 1.57552e-17
6412.99864 1.57504e-17
6413.99854 1.57456e-17
6414.99844 1.57408e-17
6415.99834 1.57874e-17
6416.99824 1.58519e-17
6417.99814 1.60814e-17
6418.99804 1.63929e-17
6419.99794 1.63878e-17
6420.99784 1.63827e-17
6421.99774 1.63776e-17
6422.99764 1.63725e-17
6423.99754 1.66366e-17
6424.99744 1.67146e-17
6425.99734 1.69030e-17
6426.99724 1.69575e-17
6427.99714 1.69521e-17
6428.99704 1.69468e-17
6429.99694 1.69414e-17
6430.99684 1.69536e-17
6431.99674 1.71035e-17
6432.99664 1.71432e-17
6433.99654 1.75354e-17
6434.99644 1.75298e-17
6435.99634 1.75242e-17
6436.99624 1.75185e-17
6437.99614 1.75129e-17
6438.99604 1.75416e-17
6439.99594 1.75797e-17
6440.99584 1.77208e-17
6441.99574 1.79017e-17
6442.99564 1.78959e-17
6443.99554 1.78901e-17
6444.99544 1.78843e-17
6445.99534 1.78785e-17
6447.00523 1.81015e-17
6448.00513 1.81609e-17
6449.00504 1.84130e-17
6450.00493 1.84807e-17
6451.00483 1.84747e-17
6452.00473 1.84687e-17
6453.00463 1.84626e-17
6454.00454 1.84361e-17
6455.00443 1.82725e-17
6456.00433 1.82620e-17
6457.00423 1.82210e-17
6458.00414 1.82151e-17
6459.00403 1.82092e-17
6460.00393 1.82033e-17
6461.00383 1.81974e-17
6462.00373 1.82256e-17
6463.00364 1.82610e-17
6464.00353 1.82749e-17
6465.00343 1.82930e-17
6466.00333 1.82871e-17
6467.00324 1.82812e-17
6468.00313 1.82753e-17
6469.00303 1.82694e-17
6470.00293 1.82488e-17
6471.00283 1.82390e-17
6472.00274 1.82673e-17
6473.00263 1.82705e-17
6474.00253 1.82647e-17
6475.00243 1.82589e-17
6476.00234 1.82532e-17
6477.00223 1.82779e-17
6478.00213 1.84820e-17
6479.00203 1.85097e-17
6480.00193 1.87348e-17
6481.00184 1.87290e-17
6482.00173 1.87232e-17
6483.00163 1.87173e-17
6484.00153 1.87116e-17
6485.00144 1.86830e-17
6486.00133 1.86509e-17
6487.00123 1.86964e-17
6488.00113 1.87499e-17
6489.00103 1.87442e-17
6490.00094 1.87385e-17
6491.00083 1.87329e-17
6492.00073 1.87273e-17
6493.00063 1.87736e-17
6494.00054 1.87810e-17
6495.00043 1.87443e-17
6496.00033 1.87310e-17
6497.00023 1.87255e-17
6498.00013 1.87200e-17
6499.00004 1.87145e-17
6499.99993 1.86998e-17
6500.99983 1.86352e-17
6501.99973 1.86427e-17
6502.99964 1.87186e-17
6503.99953 1.87132e-17
6504.99943 1.87078e-17
6505.99933 1.87025e-17
6506.99923 1.86971e-17
6507.99914 1.86710e-17
6508.99903 1.86426e-17
6509.99893 1.86317e-17
6510.99883 1.86201e-17
6511.99874 1.86149e-17
6512.99863 1.86096e-17
6513.99853 1.86043e-17
6514.99843 1.85991e-17
6515.99833 1.86208e-17
6516.99824 1.86219e-17
6517.99813 1.85207e-17
6518.99803 1.84927e-17
6519.99793 1.84875e-17
6520.99784 1.84824e-17
6521.99773 1.84772e-17
6522.99763 1.84681e-17
6523.99753 1.84393e-17
6524.99743 1.84314e-17
6525.99734 1.84097e-17
6526.99723 1.84046e-17
6527.99713 1.83995e-17
6528.99703 1.83944e-17
6529.99694 1.83893e-17
6530.99683 1.84389e-17
6531.99673 1.84932e-17
6532.99663 1.85335e-17
6533.99653 1.85776e-17
6534.99644 1.85725e-17
6535.99633 1.85675e-17
6536.99623 1.85624e-17
6537.99613 1.85574e-17
6538.99604 1.84170e-17
6539.99593 1.83812e-17
6540.99583 1.81556e-17
6541.99573 1.81005e-17
6542.99563 1.80957e-17
6543.99554 1.80908e-17
6544.99543 1.80860e-17
6545.99533 1.80892e-17
6546.99523 1.81302e-17
6547.99514 1.81587e-17
6549.00503 1.83431e-17
6550.00493 1.83382e-17
6551.00483 1.83334e-17
6552.00473 1.83285e-17
6553.00463 1.83237e-17
6554.00453 1.83171e-17
6555.00443 1.83104e-17
6556.00433 1.83134e-17
6557.00423 1.83170e-17
6558.00413 1.83122e-17
6559.00403 1.83074e-17
6560.00393 1.83026e-17
6561.00383 1.82978e-17
6562.00373 1.83532e-17
6563.00363 1.83617e-17
6564.00353 1.82877e-17
6565.00343 1.82677e-17
6566.00333 1.82630e-17
6567.00323 1.82583e-17
6568.00313 1.82536e-17
6569.00303 1.82422e-17
6570.00293 1.82005e-17
6571.00283 1.81999e-17
6572.00273 1.82180e-17
6573.00263 1.82134e-17
6574.00253 1.82088e-17
6575.00243 1.82041e-17
6576.00233 1.81995e-17
6577.00223 1.82450e-17
6578.00213 1.82929e-17
6579.00203 1.83567e-17
6580.00193 1.84240e-17
6581.00183 1.84194e-17
6582.00173 1.84148e-17
6583.00163 1.84102e-17
6584.00153 1.84056e-17
6585.00143 1.83977e-17
6586.00133 1.83924e-17
6587.00123 1.83976e-17
6588.00113 1.83951e-17
6589.00103 1.83906e-17
6590.00093 1.83861e-17
6591.00083 1.83816e-17
6592.00073 1.83928e-17
6593.00063 1.84740e-17
6594.00053 1.85010e-17
6595.00043 1.86678e-17
6596.00033 1.86633e-17
6597.00023 1.86587e-17
6598.00013 1.86542e-17
6599.00003 1.86497e-17
6599.99993 1.86035e-17
6600.99983 1.85554e-17
6601.99973 1.85137e-17
6602.99963 1.84702e-17
6603.99953 1.84657e-17
6604.99943 1.84612e-17
6605.99933 1.84567e-17
6606.99923 1.84522e-17
6607.99913 1.84919e-17
6608.99903 1.84969e-17
6609.99893 1.85065e-17
6610.99883 1.85050e-17
6611.99873 1.85005e-17
6612.99863 1.84960e-17
6613.99853 1.84914e-17
6614.99843 1.84679e-17
6615.99833 1.83594e-17
6616.99823 1.83353e-17
6617.99813 1.82240e-17
6618.99803 1.82195e-17
6619.99793 1.82150e-17
6620.99783 1.82106e-17
6621.99773 1.82061e-17
6622.99763 1.82317e-17
6623.99753 1.82588e-17
6624.99743 1.82616e-17
6625.99733 1.82647e-17
6626.99723 1.82603e-17
6627.99713 1.82558e-17
6628.99703 1.82514e-17
6629.99693 1.82470e-17
6630.99683 1.81524e-17
6631.99673 1.81283e-17
6632.99663 1.78878e-17
6633.99653 1.78317e-17
6634.99643 1.78274e-17
6635.99633 1.78232e-17
6636.99623 1.78189e-17
6637.99613 1.77968e-17
6638.99603 1.76931e-17
6639.99593 1.76580e-17
6640.99583 1.74820e-17
6641.99573 1.74779e-17
6642.99563 1.74738e-17
6643.99553 1.74697e-17
6644.99543 1.74656e-17
6645.99533 1.73809e-17
6647.00523 1.72911e-17
6648.00513 1.71547e-17
6649.00503 1.70098e-17
6650.00493 1.70059e-17
6651.00483 1.70020e-17
6652.00473 1.69982e-17
6653.00463 1.69944e-17
6654.00453 1.68599e-17
6655.00443 1.68268e-17
6656.00433 1.66417e-17
6657.00423 1.65972e-17
6658.00413 1.65936e-17
6659.00403 1.65900e-17
6660.00393 1.65864e-17
6661.00383 1.65683e-17
6662.00373 1.64807e-17
6663.00363 1.64257e-17
6664.00353 1.61256e-17
6665.00343 1.61223e-17
6666.00333 1.61189e-17
6667.00323 1.61156e-17
6668.00313 1.61123e-17
6669.00303 1.60701e-17
6670.00293 1.60245e-17
6671.00283 1.59047e-17
6672.00273 1.57749e-17
6673.00263 1.57718e-17
6674.00253 1.57688e-17
6675.00243 1.57658e-17
6676.00233 1.57628e-17
6677.00223 1.56135e-17
6678.00213 1.55763e-17
6679.00203 1.55209e-17
6680.00193 1.55058e-17
6681.00183 1.55030e-17
6682.00173 1.55002e-17
6683.00163 1.54975e-17
6684.00153 1.54893e-17
6685.00143 1.54534e-17
6686.00133 1.54431e-17
6687.00123 1.53937e-17
6688.00113 1.53911e-17
6689.00103 1.53886e-17
6690.00093 1.53861e-17
6691.00083 1.53837e-17
6692.00073 1.53604e-17
6693.00063 1.53347e-17
6694.00053 1.52072e-17
6695.00043 1.50650e-17
6696.00033 1.50628e-17
6697.00023 1.50606e-17
6698.00013 1.50585e-17
6699.00003 1.50564e-17
6699.99993 1.49346e-17
6700.99983 1.49032e-17
6701.99973 1.46969e-17
6702.99963 1.46448e-17
6703.99953 1.46430e-17
6704.99943 1.46412e-17
6705.99933 1.46394e-17
6706.99923 1.46251e-17
6707.99913 1.45417e-17
6708.99903 1.45134e-17
6709.99893 1.43378e-17
6710.99883 1.43363e-17
6711.99873 1.43347e-17
6712.99863 1.43332e-17
6713.99853 1.43318e-17
6714.99843 1.43157e-17
6715.99833 1.42974e-17
6716.99823 1.41755e-17
6717.99813 1.40344e-17
6718.99803 1.40331e-17
6719.99793 1.40319e-17
6720.99783 1.40307e-17
6721.99773 1.40295e-17
6722.99763 1.38880e-17
6723.99753 1.38501e-17
6724.99743 1.38163e-17
6725.99733 1.38067e-17
6726.99723 1.38056e-17
6727.99713 1.38046e-17
6728.99703 1.38036e-17
6729.99693 1.37965e-17
6730.99683 1.37515e-17
6731.99673 1.37075e-17
6732.99663 1.33972e-17
6733.99653 1.33963e-17
6734.99643 1.33955e-17
6735.99633 1.33947e-17
6736.99623 1.33938e-17
6737.99613 1.34100e-17
6738.99603 1.34299e-17
6739.99593 1.33958e-17
6740.99583 1.33546e-17
6741.99573 1.33539e-17
6742.99563 1.33532e-17
6743.99553 1.33525e-17
6744.99543 1.33519e-17
6745.99533 1.31796e-17
6746.99523 1.31307e-17
6747.99513 1.29130e-17
6749.00503 1.28513e-17
6750.00493 1.28508e-17
6751.00483 1.28502e-17
6752.00473 1.28497e-17
6753.00463 1.28477e-17
6754.00453 1.28355e-17
6755.00443 1.28332e-17
6756.00433 1.28187e-17
6757.00423 1.28182e-17
6758.00413 1.28178e-17
6759.00403 1.28173e-17
6760.00393 1.28169e-17
6761.00383 1.27370e-17
6762.00373 1.26346e-17
6763.00363 1.25520e-17
6764.00353 1.24461e-17
6765.00343 1.24457e-17
6766.00333 1.24454e-17
6767.00323 1.24450e-17
6768.00313 1.24446e-17
6769.00303 1.24525e-17
6770.00293 1.24547e-17
6771.00283 1.23690e-17
6772.00273 1.23426e-17
6773.00263 1.23423e-17
6774.00253 1.23420e-17
6775.00243 1.23417e-17
6776.00233 1.23339e-17
6777.00223 1.22619e-17
6778.00213 1.22430e-17
6779.00203 1.20644e-17
6780.00193 1.20641e-17
6781.00183 1.20638e-17
6782.00173 1.20635e-17
6783.00163 1.20632e-17
6784.00153 1.20018e-17
6785.00143 1.19179e-17
6786.00133 1.18898e-17
6787.00123 1.18515e-17
6788.00113 1.18512e-17
6789.00103 1.18509e-17
6790.00093 1.18507e-17
6791.00083 1.18504e-17
6792.00073 1.17966e-17
6793.00063 1.17785e-17
6794.00053 1.16584e-17
6795.00043 1.16182e-17
6796.00033 1.16179e-17
6797.00023 1.16176e-17
6798.00013 1.16173e-17
6799.00003 1.16202e-17
6799.99993 1.16587e-17
6800.99983 1.16487e-17
6801.99973 1.15323e-17
6802.99963 1.15320e-17
6803.99953 1.15318e-17
6804.99943 1.15316e-17
6805.99933 1.15314e-17
6806.99923 1.15012e-17
6807.99913 1.14568e-17
6808.99903 1.14491e-17
6809.99893 1.14377e-17
6810.99883 1.14376e-17
6811.99873 1.14375e-17
6812.99863 1.14374e-17
6813.99853 1.14373e-17
6814.99843 1.13921e-17
6815.99833 1.13754e-17
6816.99823 1.12995e-17
6817.99813 1.12717e-17
6818.99803 1.12716e-17
6819.99793 1.12716e-17
6820.99783 1.12716e-17
6821.99773 1.12734e-17
6822.99763 1.13015e-17
6823.99753 1.12960e-17
6824.99743 1.12062e-17
6825.99733 1.12063e-17
6826.99723 1.12063e-17
6827.99713 1.12064e-17
6828.99703 1.12065e-17
6829.99693 1.11887e-17
6830.99683 1.11602e-17
6831.99673 1.11048e-17
6832.99663 1.10160e-17
6833.99653 1.10161e-17
6834.99643 1.10162e-17
6835.99633 1.10163e-17
6836.99623 1.10165e-17
6837.99613 1.09423e-17
6838.99603 1.09122e-17
6839.99593 1.08528e-17
6840.99583 1.08288e-17
6841.99573 1.08290e-17
6842.99563 1.08291e-17
6843.99553 1.08293e-17
6844.99543 1.08273e-17
6845.99533 1.08167e-17
6847.00523 1.08062e-17
6848.00513 1.07956e-17
6849.00503 1.07851e-17
6850.00493 1.07745e-17
6851.00483 1.07639e-17
6852.00473 1.07534e-17
6853.00463 1.07428e-17
6854.00453 1.07323e-17
6855.00443 1.07217e-17
6856.00433 1.07111e-17
6857.00423 1.07006e-17
6858.00413 1.06900e-17
6859.00403 1.06795e-17
6860.00393 1.06689e-17
6861.00383 1.06584e-17
6862.00373 1.06478e-17
6863.00363 1.06373e-17
6864.00353 1.06267e-17
6865.00343 1.06161e-17
6866.00333 1.06056e-17
6867.00323 1.05950e-17
6868.00313 1.05845e-17
6869.00303 1.05739e-17
6870.00293 1.05634e-17
6871.00283 1.05528e-17
6872.00273 1.05423e-17
6873.00263 1.05317e-17
6874.00253 1.05212e-17
6875.00243 1.05107e-17
6876.00233 1.05001e-17
6877.00223 1.04896e-17
6878.00213 1.04790e-17
6879.00203 1.04685e-17
6880.00193 1.04579e-17
6881.00183 1.04474e-17
6882.00173 1.04368e-17
6883.00163 1.04263e-17
6884.00153 1.04158e-17
6885.00143 1.04052e-17
6886.00133 1.03947e-17
6887.00123 1.03841e-17
6888.00113 1.03736e-17
6889.00103 1.03631e-17
6890.00093 1.03525e-17
6891.00083 1.03420e-17
6892.00073 1.03315e-17
6893.00063 1.03209e-17
6894.00053 1.03104e-17
6895.00043 1.02999e-17
6896.00033 1.02893e-17
6897.00023 1.02788e-17
6898.00013 1.02683e-17
6899.00003 1.02577e-17
6899.99993 1.02472e-17
6900.99983 1.02367e-17
6901.99973 1.02261e-17
6902.99963 1.02156e-17
6903.99953 1.02051e-17
6904.99943 1.01946e-17
6905.99933 1.01840e-17
6906.99923 1.01735e-17
6907.99913 1.01630e-17
6908.99903 1.01524e-17
6909.99893 1.01419e-17
6910.99883 1.01314e-17
6911.99873 1.01209e-17
6912.99863 1.01103e-17
6913.99853 1.00998e-17
6914.99843 1.00893e-17
6915.99833 1.00788e-17
6916.99823 1.00683e-17
6917.99813 1.00577e-17
6918.99803 1.00472e-17
6919.99793 1.00367e-17
6920.99783 1.00262e-17
6921.99773 1.00157e-17
6922.99763 1.00052e-17
6923.99753 9.99464e-18
6924.99743 9.98412e-18
6925.99733 9.97360e-18
6926.99723 9.96309e-18
6927.99713 9.95258e-18
6928.99703 9.94206e-18
6929.99693 9.93155e-18
6930.99683 9.92104e-18
6931.99673 9.91053e-18
6932.99663 9.90002e-18
6933.99653 9.88951e-18
6934.99643 9.87900e-18
6935.99633 9.87113e-18
6936.99623 9.88628e-18
6937.99613 9.88875e-18
6938.99603 9.87351e-18
6939.99593 9.76166e-18
6940.99583 9.74588e-18
6941.99573 9.73810e-18
6942.99563 9.73033e-18
6943.99553 9.72255e-18
6944.99543 9.74355e-18
6945.99533 9.82821e-18
6946.99523 9.85769e-18
6947.99513 9.96100e-18
6949.00503 9.95302e-18
6950.00493 9.94506e-18
6951.00483 9.93709e-18
6952.00473 9.92913e-18
6953.00463 9.91933e-18
6954.00453 9.93216e-18
6955.00443 9.95942e-18
6956.00433 9.97758e-18
6957.00423 9.96958e-18
6958.00413 9.96157e-18
6959.00403 9.95356e-18
6960.00393 9.93288e-18
6961.00383 9.91276e-18
6962.00373 9.91226e-18
6963.00363 1.00597e-17
6964.00353 1.00696e-17
6965.00343 1.00615e-17
6966.00333 1.00534e-17
6967.00323 1.00453e-17
6968.00313 1.00376e-17
6969.00303 1.00193e-17
6970.00293 1.00208e-17
6971.00283 1.00471e-17
6972.00273 1.00389e-17
6973.00263 1.00308e-17
6974.00253 1.00227e-17
6975.00243 1.00592e-17
6976.00233 1.00670e-17
6977.00223 1.00737e-17
6978.00213 1.00327e-17
6979.00203 9.99773e-18
6980.00193 9.99745e-18
6981.00183 9.99719e-18
6982.00173 9.99694e-18
6983.00163 9.99670e-18
6984.00153 9.94113e-18
6985.00143 9.93198e-18
6986.00133 9.81086e-18
6987.00123 9.79115e-18
6988.00113 9.79098e-18
6989.00103 9.79082e-18
6990.00093 9.79068e-18
6991.00083 9.77413e-18
6992.00073 9.70031e-18
6993.00063 9.69606e-18
6994.00053 9.67736e-18
6995.00043 9.67729e-18
6996.00033 9.67723e-18
6997.00023 9.67720e-18
6998.00013 9.67718e-18
6999.00003 9.68783e-18
6999.99993 9.69834e-18
7000.99983 9.70204e-18
7001.99973 9.70567e-18
7002.99963 9.70560e-18
7003.99953 9.70552e-18
7004.99943 9.70543e-18
7005.99933 9.70531e-18
7006.99923 9.73583e-18
7007.99913 9.74224e-18
7008.99903 9.72616e-18
7009.99893 9.72258e-18
7010.99883 9.72238e-18
7011.99873 9.72217e-18
7012.99863 9.72195e-18
7013.99853 9.71904e-18
7014.99843 9.70289e-18
7015.99833 9.71826e-18
7016.99823 9.81070e-18
7017.99813 9.81043e-18
7018.99803 9.81016e-18
7019.99793 9.80988e-18
7020.99783 9.80959e-18
7021.99773 9.81610e-18
7022.99763 9.82364e-18
7023.99753 9.85610e-18
7024.99743 9.89360e-18
7025.99733 9.89330e-18
7026.99723 9.89301e-18
7027.99713 9.89272e-18
7028.99703 9.89243e-18
7029.99693 9.95684e-18
7030.99683 9.97436e-18
7031.99673 9.96426e-18
7032.99663 9.96128e-18
7033.99653 9.96102e-18
7034.99643 9.96077e-18
7035.99633 9.96053e-18
7036.99623 9.94657e-18
7037.99613 9.82789e-18
7038.99603 9.80980e-18
7039.99593 9.65525e-18
7040.99583 9.65507e-18
7041.99573 9.65491e-18
7042.99563 9.65477e-18
7043.99553 9.65465e-18
7044.99543 9.66216e-18
7045.99533 9.67245e-18
7047.00523 9.72761e-18
7048.00513 9.80284e-18
7049.00503 9.80281e-18
7050.00493 9.80280e-18
7051.00483 9.80282e-18
7052.00473 9.80286e-18
7053.00463 9.76310e-18
7054.00453 9.74936e-18
7055.00443 9.59616e-18
7056.00433 9.54307e-18
7057.00423 9.54324e-18
7058.00413 9.54345e-18
7059.00403 9.54368e-18
7060.00393 9.54620e-18
7061.00383 9.58121e-18
7062.00373 9.58401e-18
7063.00363 9.62220e-18
7064.00353 9.62261e-18
7065.00343 9.62304e-18
7066.00333 9.62352e-18
7067.00323 9.62403e-18
7068.00313 9.60430e-18
7069.00303 9.57176e-18
7070.00293 9.55713e-18
7071.00283 9.53288e-18
7072.00273 9.53359e-18
7073.00263 9.53434e-18
7074.00253 9.53514e-18
7075.00243 9.53597e-18
7076.00233 9.53662e-18
7077.00223 9.53745e-18
7078.00213 9.48653e-18
7079.00203 9.46510e-18
7080.00193 9.46617e-18
7081.00183 9.46729e-18
7082.00173 9.46845e-18
7083.00163 9.46970e-18
7084.00153 9.47229e-18
7085.00143 9.47277e-18
7086.00133 9.42244e-18
7087.00123 9.42387e-18
7088.00113 9.42535e-18
7089.00103 9.42689e-18
7090.00093 9.42849e-18
7091.00083 9.42524e-18
7092.00073 9.41716e-18
7093.00063 9.42572e-18
7094.00053 9.44112e-18
7095.00043 9.44301e-18
7096.00033 9.44498e-18
7097.00023 9.44700e-18
7098.00013 9.44910e-18
7099.00003 9.42540e-18
7099.99993 9.41379e-18
7100.99983 9.31376e-18
7101.99973 9.26133e-18
7102.99963 9.26376e-18
7103.99953 9.26628e-18
7104.99943 9.26887e-18
7105.99933 9.27154e-18
7106.99923 9.30040e-18
7107.99913 9.30408e-18
7108.99903 9.43457e-18
7109.99893 9.44172e-18
7110.99883 9.44480e-18
7111.99873 9.44796e-18
7112.99863 9.45118e-18
7113.99853 9.44369e-18
7114.99843 9.42007e-18
7115.99833 9.42635e-18
7116.99823 9.43701e-18
7117.99813 9.44054e-18
7118.99803 9.44414e-18
7119.99793 9.44779e-18
7120.99783 9.45150e-18
7121.99773 9.39692e-18
7122.99763 9.36218e-18
7123.99753 9.20479e-18
7124.99743 9.10212e-18
7125.99733 9.10594e-18
7126.99723 9.10981e-18
7127.99713 9.11372e-18
7128.99703 9.11768e-18
7129.99693 9.08976e-18
7130.99683 9.09096e-18
7131.99673 9.13268e-18
7132.99663 9.14013e-18
7133.99653 9.14429e-18
7134.99643 9.14849e-18
7135.99633 9.15271e-18
7136.99623 9.16580e-18
7137.99613 9.19885e-18
7138.99603 9.16745e-18
7139.99593 9.05539e-18
7140.99583 9.05971e-18
7141.99573 9.06406e-18
7142.99563 9.06844e-18
7143.99553 9.07284e-18
7144.99543 9.02218e-18
7145.99533 8.98167e-18
7146.99523 8.96875e-18
7147.99513 9.14468e-18
7149.00503 9.13984e-18
7150.00493 9.13501e-18
7151.00483 9.13019e-18
7152.00473 9.12537e-18
7153.00463 9.03303e-18
7154.00453 9.01623e-18
7155.00443 8.92831e-18
7156.00433 8.91085e-18
7157.00423 8.90623e-18
7158.00413 8.90162e-18
7159.00403 8.89703e-18
7160.00393 8.98694e-18
7161.00383 9.16270e-18
7162.00373 9.07438e-18
7163.00363 8.69375e-18
7164.00353 8.68933e-18
7165.00343 8.68492e-18
7166.00333 8.68053e-18
7167.00323 8.67615e-18
7168.00313 8.63835e-18
7169.00303 8.56784e-18
7170.00293 8.44363e-18
7171.00283 8.31808e-18
7172.00273 8.31395e-18
7173.00263 8.30983e-18
7174.00253 8.30573e-18
7175.00243 8.30165e-18
7176.00233 8.73868e-18
7177.00223 8.76646e-18
7178.00213 8.67060e-18
7179.00203 8.64517e-18
7180.00193 8.64098e-18
7181.00183 8.63681e-18
7182.00173 8.63266e-18
7183.00163 8.66312e-18
7184.00153 8.75863e-18
7185.00143 8.74646e-18
7186.00133 8.68705e-18
7187.00123 8.68294e-18
7188.00113 8.67885e-18
7189.00103 8.67477e-18
7190.00093 8.67071e-18
7191.00083 8.60959e-18
7192.00073 8.55819e-18
7193.00063 8.59586e-18
7194.00053 8.64467e-18
7195.00043 8.64055e-18
7196.00033 8.63638e-18
7197.00023 8.63217e-18
7198.00013 8.62792e-18
7199.00003 8.62831e-18
7199.99993 8.64040e-18
7200.99983 8.87143e-18
7201.99973 8.94347e-18
7202.99963 8.93898e-18
7203.99953 8.93449e-18
7204.99943 8.93001e-18
7205.99933 8.91372e-18
7206.99923 8.93482e-18
7207.99913 8.94564e-18
7208.99903 9.14936e-18
7209.99893 9.14480e-18
7210.99883 9.14024e-18
7211.99873 9.13569e-18
7212.99863 9.13114e-18
7213.99853 8.97293e-18
7214.99843 8.80026e-18
7215.99833 8.82317e-18
7216.99823 8.86292e-18
7217.99813 8.85853e-18
7218.99803 8.85415e-18
7219.99793 8.84977e-18
7220.99783 8.84540e-18
7221.99773 8.97513e-18
7222.99763 9.00916e-18
7223.99753 8.92760e-18
7224.99743 8.88937e-18
7225.99733 8.88501e-18
7226.99723 8.88064e-18
7227.99713 8.87628e-18
7228.99703 8.88680e-18
7229.99693 8.95510e-18
7230.99683 8.94878e-18
7231.99673 8.70150e-18
7232.99663 8.69724e-18
7233.99653 8.69300e-18
7234.99643 8.68877e-18
7235.99633 8.68453e-18
7236.99623 8.75639e-18
7237.99613 8.87725e-18
7238.99603 8.82401e-18
7239.99593 8.71606e-18
7240.99583 8.71184e-18
7241.99573 8.70762e-18
7242.99563 8.70341e-18
7243.99553 8.69920e-18
7244.99543 8.64756e-18
7245.99533 8.61793e-18
7247.00523 8.62551e-18
7248.00513 8.62816e-18
7249.00503 8.62401e-18
7250.00493 8.61986e-18
7251.00483 8.61572e-18
7252.00473 8.61159e-18
7253.00463 8.68188e-18
7254.00453 8.67671e-18
7255.00443 8.60534e-18
7256.00433 8.59732e-18
7257.00423 8.59321e-18
7258.00413 8.58911e-18
7259.00403 8.58502e-18
7260.00393 8.55376e-18
7261.00383 8.48738e-18
7262.00373 8.46238e-18
7263.00363 8.39770e-18
7264.00353 8.39372e-18
7265.00343 8.38974e-18
7266.00333 8.38577e-18
7267.00323 8.38180e-18
7268.00313 8.44906e-18
7269.00303 8.49517e-18
7270.00293 8.50327e-18
7271.00283 8.50846e-18
7272.00273 8.50446e-18
7273.00263 8.50046e-18
7274.00253 8.49647e-18
7275.00243 8.49248e-18
7276.00233 8.55974e-18
7277.00223 8.56481e-18
7278.00213 8.55644e-18
7279.00203 8.55184e-18
7280.00193 8.54785e-18
7281.00183 8.54386e-18
7282.00173 8.53988e-18
7283.00163 8.51513e-18
7284.00153 8.42375e-18
7285.00143 8.42481e-18
7286.00133 8.44202e-18
7287.00123 8.43810e-18
7288.00113 8.43419e-18
7289.00103 8.43028e-18
7290.00093 8.42638e-18
7291.00083 8.43460e-18
7292.00073 8.44367e-18
7293.00063 8.39238e-18
7294.00053 8.34140e-18
7295.00043 8.33767e-18
7296.00033 8.33398e-18
7297.00023 8.33034e-18
7298.00013 8.32674e-18
7299.00003 8.43202e-18
7299.99993 8.45528e-18
7300.99983 8.47989e-18
7301.99973 8.48282e-18
7302.99963 8.47920e-18
7303.99953 8.47557e-18
7304.99943 8.47193e-18
7305.99933 8.45461e-18
7306.99923 8.31235e-18
7307.99913 8.31784e-18
7308.99903 8.37980e-18
7309.99893 8.37616e-18
7310.99883 8.37251e-18
7311.99873 8.36885e-18
7312.99863 8.36519e-18
7313.99853 8.32922e-18
7314.99843 8.27782e-18
7315.99833 8.30571e-18
7316.99823 8.34359e-18
7317.99813 8.33988e-18
7318.99803 8.33617e-18
7319.99793 8.33246e-18
7320.99783 8.32873e-18
7321.99773 8.44744e-18
7322.99763 8.49535e-18
7323.99753 8.56994e-18
7324.99743 8.59347e-18
7325.99733 8.58958e-18
7326.99723 8.58567e-18
7327.99713 8.58176e-18
7328.99703 8.57724e-18
7329.99693 8.61449e-18
7330.99683 8.61022e-18
7331.99673 8.59187e-18
7332.99663 8.58790e-18
7333.99653 8.58392e-18
7334.99643 8.57993e-18
7335.99633 8.57593e-18
7336.99623 8.52306e-18
7337.99613 8.38779e-18
7338.99603 8.38438e-18
7339.99593 8.38138e-18
7340.99583 8.37742e-18
7341.99573 8.37344e-18
7342.99563 8.36946e-18
7343.99553 8.36546e-18
7344.99543 8.45397e-18
7345.99533 8.51316e-18
7346.99523 8.44081e-18
7347.99513 8.42682e-18
7348.99503 8.42658e-18
7350.00493 8.42635e-18
7351.00483 8.42614e-18
7352.00473 8.42592e-18
7353.00463 8.35019e-18
7354.00453 8.34817e-18
7355.00443 8.40299e-18
7356.00433 8.40417e-18
7357.00423 8.40403e-18
7358.00413 8.40390e-18
7359.00403 8.40380e-18
7360.00393 8.41222e-18
7361.00383 8.43355e-18
7362.00373 8.41952e-18
7363.00363 8.38428e-18
7364.00353 8.38431e-18
7365.00343 8.38436e-18
7366.00333 8.38444e-18
7367.00323 8.38455e-18
7368.00313 8.35991e-18
7369.00303 8.34302e-18
7370.00293 8.33757e-18
7371.00283 8.33393e-18
7372.00273 8.33423e-18
7373.00263 8.33457e-18
7374.00253 8.33496e-18
7375.00243 8.33539e-18
7376.00233 8.33051e-18
7377.00223 8.33044e-18
7378.00213 8.41460e-18
7379.00203 8.42455e-18
7380.00193 8.42524e-18
7381.00183 8.42598e-18
7382.00173 8.42678e-18
7383.00163 8.43077e-18
7384.00153 8.44369e-18
7385.00143 8.42509e-18
7386.00133 8.35104e-18
7387.00123 8.35214e-18
7388.00113 8.35331e-18
7389.00103 8.35454e-18
7390.00093 8.35584e-18
7391.00083 8.34907e-18
7392.00073 8.34281e-18
7393.00063 8.29483e-18
7394.00053 8.24958e-18
7395.00043 8.25123e-18
7396.00033 8.25296e-18
7397.00023 8.25477e-18
7398.00013 8.25666e-18
7399.00003 8.27554e-18
7399.99993 8.28128e-18
7400.99983 8.33013e-18
7401.99973 8.34252e-18
7402.99963 8.34474e-18
7403.99953 8.34700e-18
7404.99943 8.34932e-18
7405.99933 8.34949e-18
7406.99923 8.33685e-18
7407.99913 8.32840e-18
7408.99903 8.25584e-18
7409.99893 8.25836e-18
7410.99883 8.26092e-18
7411.99873 8.26353e-18
7412.99863 8.26618e-18
7413.99853 8.26347e-18
7414.99843 8.25913e-18
7415.99833 8.25045e-18
7416.99823 8.23825e-18
7417.99813 8.24110e-18
7418.99803 8.24399e-18
7419.99793 8.24692e-18
7420.99783 8.24989e-18
7421.99773 8.24927e-18
7422.99763 8.25103e-18
7423.99753 8.30248e-18
7424.99743 8.32274e-18
7425.99733 8.32592e-18
7426.99723 8.32915e-18
7427.99713 8.33240e-18
7428.99703 8.33313e-18
7429.99693 8.28105e-18
7430.99683 8.28583e-18
7431.99673 8.32027e-18
7432.99663 8.32369e-18
7433.99653 8.32715e-18
7434.99643 8.33065e-18
7435.99633 8.33417e-18
7436.99623 8.34596e-18
7437.99613 8.36489e-18
7438.99603 8.36674e-18
7439.99593 8.36709e-18
7440.99583 8.37078e-18
7441.99573 8.37450e-18
7442.99563 8.37825e-18
7443.99553 8.38203e-18
7444.99543 8.36449e-18
7445.99533 8.35702e-18
7447.00522 8.24130e-18
7448.00512 8.18192e-18
7449.00503 8.18574e-18
7450.00493 8.18958e-18
7451.00482 8.19344e-18
7452.00472 8.19734e-18
7453.00463 8.20830e-18
7454.00453 8.21255e-18
7455.00443 8.22422e-18
7456.00432 8.22855e-18
7457.00422 8.23256e-18
7458.00413 8.23659e-18
7459.00403 8.24065e-18
7460.00392 8.23407e-18
7461.00382 8.20830e-18
7462.00373 8.19109e-18
7463.00363 8.13553e-18
7464.00353 8.13963e-18
7465.00342 8.14374e-18
7466.00332 8.14787e-18
7467.00323 8.15201e-18
7468.00313 8.13428e-18
7469.00302 8.12173e-18
7470.00292 8.09023e-18
7471.00283 8.06716e-18
7472.00273 8.07133e-18
7473.00263 8.07551e-18
7474.00252 8.07971e-18
7475.00242 8.08392e-18
7476.00233 8.06058e-18
7477.00223 8.06072e-18
7478.00212 7.99801e-18
7479.00202 7.99229e-18
7480.00193 7.99649e-18
7481.00183 8.00071e-18
7482.00173 8.00494e-18
7483.00162 8.00488e-18
7484.00152 7.98874e-18
7485.00143 7.96155e-18
7486.00133 7.81684e-18
7487.00122 7.82100e-18
7488.00112 7.82516e-18
7489.00103 7.82933e-18
7490.00093 7.83350e-18
7491.00083 7.81477e-18
7492.00072 7.79386e-18
7493.00062 7.76532e-18
7494.00053 7.73367e-18
7495.00043 7.73780e-18
7496.00032 7.74193e-18
7497.00022 7.74607e-18
7498.00013 7.75020e-18
7499.00003 7.70670e-18
7499.99993 7.69740e-18
7500.99982 7.77048e-18
7501.99972 7.79413e-18
7502.99963 7.79841e-18
7503.99953 7.80272e-18
7504.99942 7.80708e-18
7505.99932 7.81237e-18
7506.99923 7.82676e-18
7507.99913 7.83491e-18
7508.99903 7.88011e-18
7509.99892 7.88468e-18
7510.99882 7.88928e-18
7511.99873 7.89392e-18
7512.99863 7.89858e-18
7513.99852 7.87773e-18
7514.99842 7.84161e-18
7515.99833 7.76037e-18
7516.99823 7.62767e-18
7517.99813 7.63231e-18
7518.99802 7.63698e-18
7519.99792 7.64168e-18
7520.99783 7.64641e-18
7521.99773 7.64497e-18
7522.99762 7.64692e-18
7523.99752 7.64358e-18
7524.99743 7.64469e-18
7525.99733 7.64952e-18
7526.99723 7.65438e-18
7527.99712 7.65925e-18
7528.99702 7.66415e-18
7529.99693 7.65939e-18
7530.99683 7.66421e-18
7531.99672 7.60620e-18
7532.99662 7.61039e-18
7533.99653 7.61533e-18
7534.99643 7.62029e-18
7535.99633 7.62526e-18
7536.99622 7.60032e-18
7537.99612 7.53191e-18
7538.99603 7.49651e-18
7539.99593 7.40253e-18
7540.99582 7.40741e-18
7541.99572 7.41230e-18
7542.99563 7.41720e-18
7543.99553 7.42211e-18
7544.99543 7.44064e-18
7545.99532 7.45500e-18
7546.99522 7.44815e-18
7547.99513 7.44491e-18
7548.99503 7.44986e-18
7550.00492 7.45482e-18
7551.00482 7.45803e-18
7552.00472 7.46125e-18
7553.00462 7.46446e-18
7554.00452 7.46768e-18
7555.00442 7.47089e-18
7556.00432 7.47411e-18
7557.00422 7.47732e-18
7558.00412 7.48054e-18
7559.00402 7.48375e-18
7560.00392 7.48697e-18
7561.00382 7.49018e-18
7562.00372 7.49339e-18
7563.00362 7.49661e-18
7564.00352 7.49982e-18
7565.00342 7.50303e-18
7566.00332 7.50624e-18
7567.00322 7.50946e-18
7568.00312 7.51267e-18
7569.00302 7.51588e-18
7570.00292 7.51909e-18
7571.00282 7.52230e-18
7572.00272 7.52551e-18
7573.00262 7.52872e-18
7574.00252 7.53193e-18
7575.00242 7.53514e-18
7576.00232 7.53835e-18
7577.00222 7.54156e-18
7578.00212 7.54477e-18
7579.00202 7.54798e-18
7580.00192 7.55119e-18
7581.00182 7.55440e-18
7582.00172 7.55761e-18
7583.00162 7.56081e-18
7584.00152 7.56402e-18
7585.00142 7.56723e-18
7586.00132 7.57044e-18
7587.00122 7.57364e-18
7588.00112 7.57685e-18
7589.00102 7.58006e-18
7590.00092 7.58326e-18
7591.00082 7.58647e-18
7592.00072 7.58967e-18
7593.00062 7.59288e-18
7594.00052 7.59608e-18
7595.00042 7.59929e-18
7596.00032 7.60249e-18
7597.00022 7.60570e-18
7598.00012 7.60890e-18
7599.00002 7.61211e-18
7599.99992 7.61531e-18
7600.99982 7.61851e-18
7601.99972 7.62171e-18
7602.99962 7.62492e-18
7603.99952 7.62812e-18
7604.99942 7.63132e-18
7605.99932 7.63452e-18
7606.99922 7.63773e-18
7607.99912 7.64093e-18
7608.99902 7.64413e-18
7609.99892 7.64733e-18
7610.99882 7.65053e-18
7611.99872 7.65373e-18
7612.99862 7.65693e-18
7613.99852 7.66013e-18
7614.99842 7.66333e-18
7615.99832 7.66653e-18
7616.99822 7.66973e-18
7617.99812 7.67293e-18
7618.99802 7.67613e-18
7619.99792 7.67933e-18
7620.99782 7.68253e-18
7621.99772 7.68572e-18
7622.99762 7.68892e-18
7623.99752 7.69212e-18
7624.99742 7.69531e-18
7625.99732 7.69851e-18
7626.99722 7.70171e-18
7627.99712 7.70490e-18
7628.99702 7.70810e-18
7629.99692 7.71130e-18
7630.99682 7.71449e-18
7631.99672 7.71769e-18
7632.99662 7.72088e-18
7633.99652 7.72408e-18
7634.99642 7.72727e-18
7635.99632 7.73047e-18
7636.99622 7.73366e-18
7637.99612 7.73685e-18
7638.99602 7.74005e-18
7639.99592 7.74324e-18
7640.99582 7.74643e-18
7641.99572 7.74963e-18
7642.99562 7.75282e-18
7643.99552 7.75601e-18
7644.99542 7.75920e-18
7645.99532 7.76240e-18
7647.00522 7.76559e-18
7648.00512 7.76878e-18
7649.00502 7.77197e-18
7650.00492 7.77516e-18
7651.00482 7.77835e-18
7652.00472 7.78154e-18
7653.00462 7.78473e-18
7654.00452 7.78792e-18
7655.00442 7.79111e-18
7656.00432 7.79430e-18
7657.00422 7.79749e-18
7658.00412 7.80068e-18
7659.00402 7.80387e-18
7660.00392 7.80706e-18
7661.00382 7.81024e-18
7662.00372 7.81343e-18
7663.00362 7.81662e-18
7664.00352 7.81981e-18
7665.00342 7.82299e-18
7666.00332 7.82618e-18
7667.00322 7.82937e-18
7668.00312 7.83255e-18
7669.00302 7.83574e-18
7670.00292 7.83892e-18
7671.00282 7.84211e-18
7672.00272 7.84529e-18
7673.00262 7.84848e-18
7674.00252 7.85166e-18
7675.00242 7.85485e-18
7676.00232 7.85803e-18
7677.00222 7.86122e-18
7678.00212 7.86440e-18
7679.00202 7.86758e-18
7680.00192 7.87077e-18
7681.00182 7.86845e-18
7682.00172 7.86612e-18
7683.00162 7.86380e-18
7684.00152 7.88472e-18
7685.00142 7.77032e-18
7686.00132 7.94441e-18
7687.00122 7.95011e-18
7688.00112 7.94773e-18
7689.00102 7.94535e-18
7690.00092 7.94297e-18
7691.00082 7.95135e-18
7692.00072 7.95515e-18
7693.00062 7.91867e-18
7694.00052 7.90466e-18
7695.00042 7.90233e-18
7696.00032 7.90003e-18
7697.00022 7.89775e-18
7698.00012 7.89549e-18
7699.00002 7.91226e-18
7699.99992 7.98243e-18
7700.99982 7.96519e-18
7701.99972 7.93321e-18
7702.99962 7.93098e-18
7703.99952 7.92874e-18
7704.99942 7.92650e-18
7705.99932 7.92426e-18
7706.99922 7.86328e-18
7707.99912 7.85000e-18
7708.99902 7.76468e-18
7709.99892 7.74673e-18
7710.99882 7.74452e-18
7711.99872 7.74232e-18
7712.99862 7.74012e-18
7713.99852 7.73968e-18
7714.99842 7.74375e-18
7715.99832 7.74897e-18
7716.99822 7.87750e-18
7717.99812 7.87525e-18
7718.99802 7.87299e-18
7719.99792 7.87074e-18
7720.99782 7.86848e-18
7721.99772 7.86441e-18
7722.99762 7.90765e-18
7723.99752 7.88622e-18
7724.99742 7.79228e-18
7725.99732 7.79647e-18
7726.99722 7.80066e-18
7727.99712 7.80487e-18
7728.99702 7.80908e-18
7729.99692 7.81025e-18
7730.99682 7.81331e-18
7731.99672 7.87255e-18
7732.99662 7.89800e-18
7733.99652 7.90230e-18
7734.99642 7.90660e-18
7735.99632 7.91091e-18
7736.99622 7.91636e-18
7737.99612 7.99298e-18
7738.99602 7.99932e-18
7739.99592 8.12904e-18
7740.99582 8.13351e-18
7741.99572 8.13800e-18
7742.99562 8.14250e-18
7743.99552 8.14701e-18
7744.99542 8.12866e-18
7745.99532 8.08183e-18
7746.99522 8.05326e-18
7747.99512 7.98349e-18
7748.99502 7.98797e-18
7750.00492 7.99245e-18
7751.00482 7.99695e-18
7752.00472 8.00147e-18
7753.00462 7.96232e-18
7754.00452 7.93780e-18
7755.00442 7.84289e-18
7756.00432 7.78127e-18
7757.00422 7.78573e-18
7758.00412 7.79019e-18
7759.00402 7.79468e-18
7760.00392 7.79918e-18
7761.00382 7.86267e-18
7762.00372 7.87430e-18
7763.00362 8.06648e-18
7764.00352 8.09367e-18
7765.00342 8.09842e-18
7766.00332 8.10318e-18
7767.00322 8.10797e-18
7768.00312 8.11187e-18
7769.00302 8.11275e-18
7770.00292 8.07183e-18
7771.00282 7.87490e-18
7772.00272 7.87963e-18
7773.00262 7.88438e-18
7774.00252 7.88915e-18
7775.00242 7.89394e-18
7776.00232 7.96039e-18
7777.00222 8.03300e-18
7778.00212 8.07562e-18
7779.00202 8.12201e-18
7780.00192 8.12703e-18
7781.00182 8.13208e-18
7782.00172 8.13715e-18
7783.00162 8.14224e-18
7784.00152 8.04119e-18
7785.00142 8.01413e-18
7786.00132 8.07577e-18
7787.00122 8.09801e-18
7788.00112 8.10319e-18
7789.00102 8.10838e-18
7790.00092 8.11361e-18
7791.00082 8.12535e-18
7792.00072 8.23464e-18
7793.00062 8.24631e-18
7794.00052 8.35262e-18
7795.00042 8.35812e-18
7796.00032 8.36365e-18
7797.00022 8.36920e-18
7798.00012 8.37478e-18
7799.00002 8.36528e-18
7799.99992 8.34275e-18
7800.99982 8.29317e-18
7801.99972 8.19592e-18
7802.99962 8.20151e-18
7803.99952 8.20713e-18
7804.99942 8.21277e-18
7805.99932 8.21844e-18
7806.99922 8.28853e-18
7807.99912 8.33059e-18
7808.99902 8.41699e-18
7809.99892 8.46831e-18
7810.99882 8.47428e-18
7811.99872 8.48027e-18
7812.99862 8.48629e-18
7813.99852 8.49234e-18
7814.99842 8.32295e-18
7815.99832 8.31563e-18
7816.99822 8.08571e-18
7817.99812 8.07368e-18
7818.99802 8.07954e-18
7819.99792 8.08541e-18
7820.99782 8.09131e-18
7821.99772 8.09595e-18
7822.99762 8.09729e-18
7823.99752 8.10450e-18
7824.99742 8.11491e-18
7825.99732 8.12093e-18
7826.99722 8.12696e-18
7827.99712 8.13302e-18
7828.99702 8.13910e-18
7829.99692 8.19651e-18
7830.99682 8.25229e-18
7831.99672 8.25131e-18
7832.99662 8.25058e-18
7833.99652 8.25683e-18
7834.99642 8.26311e-18
7835.99632 8.26940e-18
7836.99622 8.27572e-18
7837.99612 8.21511e-18
7838.99602 8.20441e-18
7839.99592 8.19576e-18
7840.99582 8.19828e-18
7841.99572 8.20462e-18
7842.99562 8.21097e-18
7843.99552 8.21734e-18
7844.99542 8.21985e-18
7845.99532 8.18510e-18
7846.99522 8.18315e-18
7848.00512 8.10119e-18
7849.00502 8.10754e-18
7850.00492 8.11391e-18
7852.03408 8.11391e-18
7856.32197 8.31044e-18
7860.60985 8.34664e-18
7864.89774 8.21379e-18
7869.17544 8.15139e-18
7873.46332 8.17510e-18
7877.75121 8.25458e-18
7882.02891 8.24136e-18
7886.31679 8.18840e-18
7890.60468 8.25353e-18
7894.88238 8.33011e-18
7899.17026 8.36655e-18
7903.45815 8.34229e-18
7907.74603 8.17590e-18
7912.02373 7.96622e-18
7916.31162 8.00553e-18
7920.59950 8.09182e-18
7924.87720 8.08932e-18
7929.16509 8.20073e-18
7933.45298 8.20412e-18
7937.74086 8.14156e-18
7942.01856 8.19347e-18
7946.30645 8.19573e-18
7950.59433 8.24894e-18
7954.87203 8.31415e-18
7959.15992 8.18009e-18
7963.44780 8.09263e-18
7967.73568 8.16574e-18
7972.01338 8.18332e-18
7976.30127 8.27651e-18
7980.58915 8.32898e-18
7984.86685 8.16341e-18
7989.15474 8.13382e-18
7993.44262 8.16591e-18
7997.72032 8.07514e-18
8002.00821 8.08457e-18
8006.29609 8.09642e-18
8010.58398 7.89893e-18
8014.86168 7.88460e-18
8019.14956 7.89623e-18
8023.43745 7.86865e-18
8027.71515 7.90830e-18
8032.00303 7.85632e-18
8036.29092 7.77372e-18
8040.57880 7.65077e-18
8044.85650 7.59307e-18
8049.14439 7.57525e-18
8053.43227 7.63138e-18
8057.70997 7.85181e-18
8061.99786 7.84525e-18
8066.28575 7.66509e-18
8070.56344 7.77563e-18
8074.85133 7.94753e-18
8079.13922 7.85671e-18
8083.42710 7.62362e-18
8087.70480 7.59094e-18
8091.99269 7.52804e-18
8096.28057 7.40457e-18
8100.55827 7.44681e-18
8104.84616 7.44349e-18
8109.13404 7.44240e-18
8113.42192 7.46322e-18
8117.69962 7.43160e-18
8121.98751 7.35205e-18
8126.27539 7.30578e-18
8130.55309 7.24617e-18
8134.84098 7.17379e-18
8139.12886 7.30940e-18
8143.40656 7.40780e-18
8147.69445 7.27509e-18
8151.98233 7.25248e-18
8156.27022 7.37673e-18
8160.54792 7.40461e-18
8164.83580 7.37360e-18
8169.12369 7.28640e-18
8173.40139 7.17601e-18
8177.68927 7.06084e-18
8181.97716 7.03775e-18
8186.26504 7.25399e-18
8190.54274 7.41738e-18
8194.83063 7.41359e-18
8199.11852 7.28818e-18
8203.39622 7.19448e-18
8207.68410 7.22395e-18
8211.97199 7.20044e-18
8216.25987 7.17216e-18
8220.53757 7.16892e-18
8224.82546 7.08190e-18
8229.11334 7.03036e-18
8233.39104 7.08388e-18
8237.67893 7.06528e-18
8241.96681 7.10715e-18
8246.24451 7.21056e-18
8250.53240 7.17207e-18
8254.82028 7.09081e-18
8259.10816 7.01398e-18
8263.38587 6.98964e-18
8267.67375 7.05023e-18
8271.96163 7.03112e-18
8276.23934 6.93988e-18
8280.52722 6.87708e-18
8284.81510 6.77600e-18
8289.10299 6.68821e-18
8293.38069 6.78546e-18
8297.66857 6.93859e-18
8301.95646 6.85328e-18
8306.23416 6.77594e-18
8310.52204 6.83842e-18
8314.80993 6.81296e-18
8319.08763 6.69181e-18
8323.37551 6.60969e-18
8327.66340 6.62980e-18
8331.94110 6.67278e-18
8336.22898 6.65493e-18
8340.51687 6.69826e-18
8344.80475 6.57207e-18
8349.08245 6.22414e-18
8353.37034 6.26243e-18
8357.65822 6.40276e-18
8361.93592 6.24398e-18
8366.22381 6.06424e-18
8370.51169 5.98294e-18
8374.79958 5.93530e-18
8379.07728 5.96265e-18
8383.36516 5.90883e-18
8387.65305 5.71257e-18
8391.93075 5.59420e-18
8396.21863 5.47384e-18
8400.50652 5.31952e-18
8404.79440 5.12058e-18
8409.07210 5.02583e-18
8413.35999 4.97107e-18
8417.64788 4.84509e-18
8421.92558 4.77336e-18
8426.21346 4.75618e-18
8430.50135 4.83893e-18
8434.78923 4.86029e-18
8439.06693 4.74648e-18
8443.35481 4.76343e-18
8447.64270 4.88861e-18
8451.92040 4.94760e-18
8456.20829 4.87378e-18
8460.49617 4.78705e-18
8464.77387 4.61873e-18
8469.06175 4.60539e-18
8473.34964 4.73522e-18
8477.63753 4.71783e-18
8481.91523 4.69815e-18
8486.20311 4.70649e-18
8490.49100 4.73312e-18
8494.76869 4.76693e-18
8499.05658 4.87051e-18
8503.34446 5.03525e-18
8507.63235 5.02139e-18
8511.91005 4.89163e-18
8516.19794 4.92121e-18
8520.48582 4.88668e-18
8524.76352 4.83428e-18
8529.05140 4.87771e-18
8533.33929 4.97313e-18
8537.61699 4.97174e-18
8541.90488 4.84448e-18
8546.19276 4.85680e-18
8550.48064 4.98062e-18
8554.75835 5.12046e-18
8559.04623 5.17808e-18
8563.33411 5.05651e-18
8567.61182 4.95989e-18
8571.89970 4.98963e-18
8576.18758 5.10992e-18
8580.47547 5.23497e-18
8584.75317 5.20990e-18
8589.04105 5.14593e-18
8593.32894 5.16781e-18
8597.60664 5.22813e-18
8601.89452 5.31242e-18
8606.18241 5.36810e-18
8610.46011 5.40968e-18
8614.74799 5.37543e-18
8619.03588 5.22542e-18
8623.32377 5.20220e-18
8627.60146 5.30166e-18
8631.88935 5.46861e-18
8636.17723 5.60166e-18
8640.45493 5.44876e-18
8644.74282 5.41836e-18
8649.03070 5.67835e-18
8653.31859 5.69663e-18
8657.59629 5.63284e-18
8661.88417 5.78832e-18
8666.17206 5.85563e-18
8670.44976 5.73444e-18
8674.73764 5.78970e-18
8679.02553 6.08581e-18
8683.30323 6.24857e-18
8687.59112 6.48041e-18
8691.87900 6.62336e-18
8696.16688 6.47916e-18
8700.44458 6.60367e-18
8704.73247 6.67699e-18
8709.02035 6.56220e-18
8713.29806 6.59863e-18
8717.58594 6.81522e-18
8721.87383 6.93947e-18
8726.16171 6.95746e-18
8730.43941 6.88937e-18
8734.72729 7.08631e-18
8739.01518 7.37045e-18
8743.29288 7.29241e-18
8747.58077 7.14146e-18
8751.86865 7.20877e-18
8756.15654 7.38653e-18
8760.43423 7.33285e-18
8764.72212 7.29291e-18
8769.01001 7.24721e-18
8773.28771 7.19833e-18
8777.57559 7.26336e-18
8781.86348 7.18320e-18
8786.14117 7.10790e-18
8790.42906 7.23050e-18
8794.71694 7.32917e-18
8798.99464 7.28322e-18
8803.28253 7.25478e-18
8807.57042 7.28534e-18
8811.85830 7.23381e-18
8816.13600 7.18639e-18
8820.42388 7.15069e-18
8824.71177 7.06802e-18
8828.98947 7.15005e-18
8833.27736 7.22387e-18
8837.56524 7.10299e-18
8841.85312 7.08216e-18
8846.13083 7.10447e-18
8850.41871 6.91675e-18
8854.70659 6.72742e-18
8858.98430 6.83851e-18
8863.27218 6.94824e-18
8867.56006 6.93033e-18
8871.84795 6.93628e-18
8876.12565 6.72969e-18
8880.41353 6.59409e-18
8884.70142 6.59811e-18
8888.97912 6.56536e-18
8893.26700 6.94588e-18
8897.55489 7.38573e-18
8901.84277 7.31157e-18
8906.12047 6.93901e-18
8910.40836 6.85660e-18
8914.69625 6.96882e-18
8918.97394 7.05067e-18
8923.26183 6.87139e-18
8927.54971 6.54935e-18
8931.82741 6.58584e-18
8936.11530 6.75785e-18
8940.40318 6.64908e-18
8944.69107 6.65752e-18
8948.96877 6.59592e-18
8953.25665 6.25393e-18
8957.54454 6.18385e-18
8961.82224 6.37000e-18
8966.11012 6.42258e-18
8970.39801 6.33978e-18
8974.68590 6.30958e-18
8978.96360 6.47193e-18
8983.25148 6.70272e-18
8987.53937 6.63126e-18
8991.81706 6.41087e-18
8996.10495 6.27996e-18
9000.39283 6.18696e-18
9004.68072 6.23879e-18
9008.95842 6.35376e-18
9013.24631 6.32373e-18
9017.53419 6.20145e-18
9021.81189 5.99702e-18
9026.09977 5.79159e-18
9030.38766 5.82914e-18
9034.66536 5.90462e-18
9038.95325 5.83684e-18
9043.24113 5.71114e-18
9047.51883 5.58669e-18
9051.80671 5.66481e-18
9056.09460 5.62863e-18
9060.38248 5.53787e-18
9064.66019 5.59862e-18
9068.94807 5.65618e-18
9073.23596 5.50145e-18
9077.51365 5.25959e-18
9081.80154 5.19280e-18
9086.08942 5.19342e-18
9090.37731 5.14532e-18
9094.65501 5.18365e-18
9098.94290 5.35185e-18
9103.23078 5.38897e-18
9107.50848 5.34562e-18
9111.79637 5.32769e-18
9116.08425 5.25346e-18
9120.37213 5.22865e-18
9124.64984 5.25970e-18
9128.93772 5.18469e-18
9133.22560 5.04939e-18
9137.50331 4.99369e-18
9141.79119 5.10669e-18
9146.07907 5.30860e-18
9150.36696 5.41470e-18
9154.64466 5.35580e-18
9158.93254 5.16711e-18
9163.22043 5.06439e-18
9167.49813 5.27177e-18
9171.78601 5.47388e-18
9176.07390 5.28447e-18
9180.35160 5.00357e-18
9184.63948 5.02698e-18
9188.92737 5.15093e-18
9193.21525 5.15521e-18
9197.49295 5.16959e-18
9201.78084 5.15889e-18
9206.06872 5.11927e-18
9210.34642 5.05409e-18
9214.63431 4.86760e-18
9218.92219 4.76064e-18
9223.19989 5.01004e-18
9227.48778 5.27009e-18
9231.77566 5.31819e-18
9236.06355 5.17367e-18
9240.34125 5.12186e-18
9244.62913 5.12808e-18
9248.91702 4.95833e-18
9253.19472 4.96332e-18
9257.48260 5.00217e-18
9261.77049 5.11074e-18
9266.05838 5.32128e-18
9270.33608 5.08216e-18
9274.62396 4.81561e-18
9278.91185 4.88736e-18
9283.18954 5.02568e-18
9287.47743 5.03648e-18
9291.76531 5.14506e-18
9296.04301 5.17895e-18
9300.33090 5.01043e-18
9304.61879 5.10943e-18
9308.90667 5.24598e-18
9313.18437 5.19313e-18
9317.47225 5.31570e-18
9321.76014 5.41148e-18
9326.03784 5.33960e-18
9330.32573 5.51363e-18
9334.61361 5.61245e-18
9338.90150 5.24813e-18
9343.17919 5.09416e-18
9347.46708 5.22853e-18
9351.75496 5.07955e-18
9356.03267 4.86148e-18
9360.32055 4.96140e-18
9364.60844 5.31573e-18
9368.88613 5.33965e-18
9373.17402 5.08378e-18
9377.46190 4.67757e-18
9381.74979 4.63339e-18
9386.02749 4.86199e-18
9390.31538 4.80392e-18
9394.60326 4.66321e-18
9398.89114 4.61062e-18
9403.16885 4.67901e-18
9407.45673 4.84658e-18
9411.74462 4.72762e-18
9416.02232 4.46470e-18
9420.31020 4.50818e-18
9424.59808 4.92164e-18
9428.87579 5.03384e-18
9433.16367 4.71995e-18
9437.45155 4.51991e-18
9441.73944 4.40016e-18
9446.01714 4.37370e-18
9450.30502 4.61567e-18
9454.59291 4.68938e-18
9458.87061 4.43810e-18
9463.15849 4.39583e-18
9467.44638 4.82365e-18
9471.72408 5.02256e-18
9476.01196 4.70868e-18
9480.29985 4.38893e-18
9484.58773 4.28362e-18
9488.86543 4.53010e-18
9493.15332 4.62654e-18
9497.44120 4.36879e-18
9501.71890 4.31874e-18
9506.00679 4.55441e-18
9510.29467 5.01575e-18
9514.57237 4.91062e-18
9518.86026 4.42350e-18
9523.14814 4.52777e-18
9527.43603 4.97791e-18
9531.71373 5.03654e-18
9536.00162 4.94364e-18
9540.28950 4.81727e-18
9544.56720 4.68232e-18
9548.85508 4.49472e-18
9553.14297 4.39758e-18
9557.43085 4.54718e-18
9561.70856 4.40336e-18
9565.99644 4.48301e-18
9570.28433 4.59157e-18
9574.56202 4.52228e-18
9578.84991 4.56585e-18
9583.13779 4.56474e-18
9587.42568 4.44364e-18
9591.70338 4.34684e-18
9595.99127 4.39197e-18
9600.27915 4.49478e-18
9604.55685 4.67862e-18
9608.84473 4.79746e-18
9613.13262 4.89763e-18
9617.41032 5.01593e-18
9621.69821 4.88158e-18
9625.98609 4.71753e-18
9630.27398 4.66629e-18
9634.55167 4.65896e-18
9638.83956 4.52016e-18
9643.12744 4.32525e-18
9647.40514 4.24752e-18
9651.69303 3.98444e-18
9655.98092 3.86972e-18
9660.26880 4.08273e-18
9664.54650 4.28650e-18
9668.83438 4.35090e-18
9673.12227 4.56190e-18
9677.39997 4.66201e-18
9681.68786 4.50746e-18
9685.97574 4.27813e-18
9690.26362 4.31826e-18
9694.54133 4.75211e-18
9698.82921 5.12478e-18
9703.11709 5.10090e-18
9707.39480 4.55058e-18
9711.68268 4.10752e-18
9715.97056 4.07596e-18
9720.24827 3.96743e-18
9724.53615 3.85854e-18
9728.82403 3.71411e-18
9733.11192 3.46716e-18
9737.38962 3.51254e-18
9741.67750 3.95658e-18
9745.96539 4.35899e-18
9750.24309 4.31958e-18
9754.53097 4.08306e-18
9758.81886 4.06290e-18
9763.09656 4.21323e-18
9767.38444 4.23153e-18
9771.67233 4.20877e-18
9775.96021 4.31385e-18
9780.23791 4.18665e-18
9784.52580 3.84068e-18
9788.81368 3.86143e-18
9793.09138 3.84634e-18
9797.37927 3.73020e-18
9801.66715 3.83941e-18
9805.94485 4.04207e-18
9810.23274 4.16010e-18
9814.52062 4.00007e-18
9818.80851 3.73167e-18
9823.08621 3.69083e-18
9827.37410 3.54226e-18
9831.66198 3.46853e-18
9835.94987 3.78912e-18
9840.22756 3.87818e-18
9844.51545 3.78191e-18
9848.80333 3.98462e-18
9853.08104 3.84360e-18
9857.36892 3.28944e-18
9861.65681 3.07469e-18
9865.93450 3.18543e-18
9870.22239 3.20540e-18
9874.51027 3.07250e-18
9878.79816 3.08454e-18
9883.07586 3.31815e-18
9887.36375 3.51940e-18
9891.65163 3.63845e-18
9895.92933 3.57873e-18
9900.21721 3.30446e-18
9904.50510 3.06840e-18
9908.79298 2.95901e-18
9913.07069 3.44186e-18
9917.35857 3.57787e-18
9921.64646 3.16272e-18
9925.92415 2.97990e-18
9930.21204 2.84269e-18
9934.49992 2.63405e-18
9938.77762 2.56668e-18
9943.06551 2.81267e-18
9947.35340 2.96950e-18
9951.64128 2.94404e-18
9955.91898 2.64027e-18
9960.20687 2.42334e-18
9964.49475 2.64562e-18
9968.77245 3.13461e-18
9973.06034 3.48009e-18
9977.34822 3.42955e-18
9981.63610 3.46947e-18
9985.91381 3.70535e-18
9990.20169 3.86585e-18
9994.48957 3.88415e-18
9998.76728 3.93355e-18
