# wavelength flux
3890.00096 -1.24267e-18
3891.00086 -1.24259e-18
3892.00076 6.83844e-19
3893.00066 -1.24243e-18
3894.00056 6.83756e-19
3895.00046 6.83712e-19
3896.00036 6.83668e-19
3897.00026 2.07959e-18
3898.00016 1.77441e-18
3899.00006 2.07933e-18
3899.99996 1.77419e-18
3900.99986 1.77407e-18
3901.99976 2.88239e-18
3902.99966 4.09799e-18
3903.99956 2.14347e-18
3904.99946 2.88184e-18
3905.99936 2.14319e-18
3906.99926 2.14306e-18
3907.99916 2.14292e-18
3908.99906 2.87318e-18
3909.99896 2.87300e-18
3910.99886 3.23680e-18
3911.99876 2.68138e-18
3912.99866 2.87245e-18
3913.99856 2.68105e-18
3914.99846 2.87209e-18
3915.99836 2.87191e-18
3916.99826 3.23558e-18
3917.99816 2.32758e-18
3918.99806 2.32744e-18
3919.99796 2.31312e-18
3920.99786 2.31297e-18
3921.99776 1.84515e-18
3922.99766 2.31268e-18
3923.99756 2.32671e-18
3924.99746 2.31239e-18
3925.99736 2.31225e-18
3926.99726 2.16812e-18
3927.99716 1.84446e-18
3928.99706 8.52305e-19
3929.99696 2.16772e-18
3930.99686 2.16758e-18
3931.99676 2.50019e-18
3932.99666 2.50003e-18
3933.99656 2.49988e-18
3934.99646 3.06569e-18
3935.99636 3.06550e-18
3936.99626 3.06531e-18
3937.99616 3.48956e-18
3938.99606 3.59395e-18
3939.99596 3.48913e-18
3940.99586 3.48892e-18
3941.99576 3.32487e-18
3942.99566 3.32467e-18
3943.99556 3.32447e-18
3944.99546 3.48806e-18
3945.99536 2.86963e-18
3946.99526 2.86946e-18
3948.00516 2.84382e-18
3949.00506 2.84365e-18
3950.00496 2.84347e-18
3951.00486 2.67840e-18
3952.00476 2.84313e-18
3953.00466 2.89112e-18
3954.00456 2.86823e-18
3955.00446 2.86806e-18
3956.00436 2.86789e-18
3957.00426 2.84226e-18
3958.00416 2.65661e-18
3959.00406 2.44548e-18
3960.00396 2.44533e-18
3961.00386 2.44518e-18
3962.00376 2.33862e-18
3963.00366 2.16595e-18
3964.00356 2.16582e-18
3965.00346 2.14873e-18
3966.00336 2.14860e-18
3967.00326 2.14847e-18
3968.00316 1.95293e-18
3969.00306 2.14821e-18
3970.00296 1.95269e-18
3971.00286 1.92526e-18
3972.00276 1.92514e-18
3973.00266 1.86231e-18
3974.00256 1.41556e-18
3975.00246 1.41547e-18
3976.00236 1.64186e-18
3977.00226 1.45567e-18
3978.00216 1.23276e-18
3979.00206 1.41513e-18
3980.00196 6.41528e-19
3981.00186 6.41490e-19
3982.00176 1.23247e-18
3983.00166 1.26744e-18
3984.00156 7.43384e-19
3985.00146 1.26729e-18
3986.00136 1.26721e-18
3987.00126 1.25839e-18
3988.00116 1.25832e-18
3989.00106 1.90639e-18
3990.00096 1.26691e-18
3991.00086 1.26684e-18
3992.00076 1.90605e-18
3993.00066 1.93908e-18
3994.00056 1.90583e-18
3995.00046 1.93885e-18
3996.00036 2.31558e-18
3997.00026 1.93862e-18
3998.00016 2.33810e-18
3999.00006 2.33796e-18
3999.99996 2.31504e-18
4000.99986 2.01062e-18
4001.99976 2.48991e-18
4002.99966 2.31463e-18
4003.99956 2.31449e-18
4004.99946 2.48948e-18
4005.99936 2.31422e-18
4006.99926 2.25490e-18
4007.99916 2.33589e-18
4008.99906 2.48987e-18
4009.99896 2.33562e-18
4010.99886 2.48958e-18
4011.99876 2.48943e-18
4012.99866 2.25411e-18
4013.99856 2.25397e-18
4014.99846 2.33494e-18
4015.99836 2.49066e-18
4016.99826 2.71936e-18
4017.99816 2.82884e-18
4018.99806 2.65253e-18
4019.99796 2.71888e-18
4020.99786 2.71872e-18
4021.99776 2.82818e-18
4022.99766 2.82801e-18
4023.99756 3.34833e-18
4024.99746 3.23049e-18
4025.99736 3.41825e-18
4026.99726 3.41806e-18
4027.99716 4.05268e-18
4028.99706 4.21636e-18
4029.99696 4.21611e-18
4030.99686 4.26721e-18
4031.99676 4.26697e-18
4032.99666 4.21538e-18
4033.99656 4.32630e-18
4034.99646 4.26622e-18
4035.99636 4.26597e-18
4036.99626 4.26573e-18
4037.99616 4.25125e-18
4038.99606 4.08898e-18
4039.99596 4.25076e-18
4040.99586 4.08850e-18
4041.99576 4.08826e-18
4042.99566 4.35364e-18
4043.99556 4.76206e-18
4044.99546 4.76179e-18
4045.99536 4.76151e-18
4046.99526 4.82357e-18
4048.00516 4.82329e-18
4049.00506 4.82301e-18
4050.00496 4.82273e-18
4051.00486 4.82539e-18
4052.00476 4.71498e-18
4053.00466 4.71471e-18
4054.00456 4.34444e-18
4055.00446 4.25348e-18
4056.00436 4.25323e-18
4057.00426 3.88408e-18
4058.00416 3.88386e-18
4059.00406 4.12075e-18
4060.00396 4.25225e-18
4061.00386 4.12028e-18
4062.00376 4.25176e-18
4063.00366 3.84302e-18
4064.00356 3.84280e-18
4065.00346 3.88229e-18
4066.00336 4.48316e-18
4067.00326 4.22554e-18
4068.00316 4.46453e-18
4069.00306 4.10876e-18
4070.00296 4.10853e-18
4071.00286 4.10829e-18
4072.00276 4.22432e-18
4073.00266 4.22408e-18
4074.00256 4.48109e-18
4075.00246 4.22359e-18
4076.00236 4.22335e-18
4077.00226 4.46221e-18
4078.00216 4.46196e-18
4079.00206 4.19315e-18
4080.00196 4.50951e-18
4081.00186 4.14364e-18
4082.00176 4.14340e-18
4083.00166 3.75047e-18
4084.00156 3.18743e-18
4085.00146 3.18691e-18
4086.00136 3.18707e-18
4087.00126 3.18688e-18
4088.00116 3.18670e-18
4089.00106 3.18652e-18
4090.00096 3.18633e-18
4091.00086 3.18615e-18
4092.00076 3.25466e-18
4093.00066 4.48763e-18
4094.00056 4.76250e-18
4095.00046 4.48711e-18
4096.00036 4.48686e-18
4097.00026 4.48660e-18
4098.00016 4.46910e-18
4099.00006 4.48608e-18
4099.99996 4.76160e-18
4100.99986 4.46833e-18
4101.99976 4.46807e-18
4102.99966 3.81294e-18
4103.99956 3.81272e-18
4104.99946 3.81250e-18
4105.99936 4.03759e-18
4106.99926 3.62861e-18
4107.99916 3.72332e-18
4108.99906 3.58730e-18
4109.99896 3.54716e-18
4110.99886 3.54696e-18
4111.99876 3.11470e-18
4112.99866 3.02331e-18
4113.99856 3.11435e-18
4114.99846 3.02296e-18
4115.99836 3.01508e-18
4116.99826 3.11381e-18
4117.99816 3.01474e-18
4118.99806 2.97535e-18
4119.99796 3.11327e-18
4120.99786 3.11309e-18
4121.99776 3.21443e-18
4122.99766 3.44942e-18
4123.99756 3.56532e-18
4124.99746 3.44902e-18
4125.99736 3.88187e-18
4126.99726 3.44863e-18
4127.99716 3.70549e-18
4128.99706 3.70527e-18
4129.99696 3.92844e-18
4130.99686 3.70485e-18
4131.99676 3.92799e-18
4132.99666 3.70442e-18
4133.99656 3.82511e-18
4134.99646 3.70399e-18
4135.99636 3.82467e-18
4136.99626 3.36690e-18
4137.99616 3.46864e-18
4138.99606 3.37879e-18
4139.99596 3.46824e-18
4140.99586 3.51294e-18
4141.99576 3.82335e-18
4142.99566 3.82313e-18
4143.99556 3.51254e-18
4144.99546 3.51233e-18
4145.99536 3.59827e-18
4147.00526 3.51193e-18
4148.00516 3.51173e-18
4149.00506 3.73762e-18
4150.00496 3.59744e-18
4151.00486 3.73719e-18
4152.00476 3.94214e-18
4153.00466 3.73676e-18
4154.00456 3.59660e-18
4155.00446 3.59640e-18
4156.00436 3.28170e-18
4157.00426 3.28151e-18
4158.00416 3.94078e-18
4159.00406 3.74889e-18
4160.00396 3.74867e-18
4161.00386 3.28075e-18
4162.00376 2.70862e-18
4163.00366 2.48306e-18
4164.00356 3.06795e-18
4165.00346 2.72903e-18
4166.00336 2.72887e-18
4167.00326 2.72871e-18
4168.00316 2.72855e-18
4169.00306 2.48219e-18
4170.00296 3.11789e-18
4171.00286 2.72808e-18
4172.00276 2.72792e-18
4173.00266 2.72776e-18
4174.00256 2.72760e-18
4175.00246 2.63179e-18
4176.00236 3.11681e-18
4177.00226 3.16494e-18
4178.00216 2.63133e-18
4179.00206 2.48923e-18
4180.00196 2.31937e-18
4181.00186 2.31923e-18
4182.00176 2.39157e-18
4183.00166 2.43693e-18
4184.00156 2.43679e-18
4185.00146 2.39115e-18
4186.00136 2.18763e-18
4187.00126 2.18750e-18
4188.00116 2.31829e-18
4189.00106 2.31815e-18
4190.00096 2.57218e-18
4191.00086 2.60165e-18
4192.00076 2.62350e-18
4193.00066 2.62335e-18
4194.00056 2.60120e-18
4195.00046 2.57143e-18
4196.00036 2.57128e-18
4197.00026 2.57113e-18
4198.00016 2.60059e-18
4199.00006 2.88836e-18
4199.99996 2.88819e-18
4200.99986 2.72185e-18
4201.99976 2.60829e-18
4202.99966 2.13669e-18
4203.99956 2.13657e-18
4204.99946 2.13644e-18
4205.99936 2.13632e-18
4206.99926 2.19146e-18
4207.99916 2.15790e-18
4208.99906 1.52620e-18
4209.99896 1.52611e-18
4210.99886 1.52602e-18
4211.99876 1.43240e-18
4212.99866 1.46197e-18
4213.99856 1.52575e-18
4214.99846 1.52566e-18
4215.99836 1.52557e-18
4216.99826 1.85539e-18
4217.99816 1.77840e-18
4218.99806 1.91380e-18
4219.99796 2.22667e-18
4220.99786 1.91358e-18
4221.99776 1.91346e-18
4222.99766 1.94410e-18
4223.99756 2.00907e-18
4224.99746 2.00895e-18
4225.99736 2.29897e-18
4226.99726 2.00871e-18
4227.99716 1.94352e-18
4228.99706 1.91267e-18
4229.99696 1.94329e-18
4230.99686 1.94318e-18
4231.99676 1.94306e-18
4232.99666 1.71089e-18
4233.99656 1.71079e-18
4234.99646 1.40059e-18
4235.99636 1.71059e-18
4236.99626 1.71049e-18
4237.99616 1.93544e-18
4238.99606 1.84460e-18
4239.99596 1.60822e-18
4240.99586 1.60812e-18
4241.99576 1.84427e-18
4242.99566 1.60793e-18
4243.99556 1.93475e-18
4244.99546 1.93463e-18
4245.99536 1.85379e-18
4246.99526 1.60755e-18
4247.99516 1.85357e-18
4248.99506 1.60736e-18
4250.00496 1.85335e-18
4251.00486 1.96309e-18
4252.00476 1.96297e-18
4253.00466 1.89615e-18
4254.00456 1.96274e-18
4255.00446 2.14632e-18
4256.00436 2.15725e-18
4257.00426 2.33913e-18
4258.00416 2.38271e-18
4259.00406 2.39736e-18
4260.00396 2.38243e-18
4261.00386 2.38229e-18
4262.00376 2.39693e-18
4263.00366 2.38200e-18
4264.00356 2.39664e-18
4265.00346 2.53940e-18
4266.00336 2.64881e-18
4267.00326 2.40633e-18
4268.00316 2.64849e-18
4269.00306 2.64833e-18
4270.00296 2.53863e-18
4271.00286 2.78867e-18
4272.00276 2.86159e-18
4273.00266 2.78833e-18
4274.00256 2.78816e-18
4275.00246 2.86107e-18
4276.00236 2.97137e-18
4277.00226 2.97119e-18
4278.00216 3.16174e-18
4279.00206 3.20084e-18
4280.00196 3.20065e-18
4281.00186 3.29561e-18
4282.00176 3.89531e-18
4283.00166 3.29521e-18
4284.00156 4.19181e-18
4285.00146 4.19156e-18
4286.00136 4.19131e-18
4287.00126 4.19105e-18
4288.00116 4.24354e-18
4289.00106 4.19054e-18
4290.00096 4.19869e-18
4291.00086 4.19843e-18
4292.00076 4.19818e-18
4293.00066 3.94848e-18
4294.00056 3.97850e-18
4295.00046 3.94800e-18
4296.00036 3.95396e-18
4297.00026 3.95371e-18
4298.00016 3.97752e-18
4299.00006 3.95323e-18
4299.99996 4.17209e-18
4300.99986 3.97679e-18
4301.99976 3.97655e-18
4302.99966 3.95226e-18
4303.99956 3.90743e-18
4304.99946 3.77717e-18
4305.99936 3.77694e-18
4306.99926 3.77670e-18
4307.99916 3.77647e-18
4308.99906 3.56942e-18
4309.99896 3.37900e-18
4310.99886 3.37879e-18
4311.99876 3.37858e-18
4312.99866 3.38243e-18
4313.99856 3.38222e-18
4314.99846 3.38201e-18
4315.99836 3.38180e-18
4316.99826 3.42791e-18
4317.99816 3.56745e-18
4318.99806 3.56723e-18
4319.99796 3.65243e-18
4320.99786 3.42706e-18
4321.99776 3.65198e-18
4322.99766 3.56363e-18
4323.99756 3.56341e-18
4324.99746 3.76918e-18
4325.99736 3.56297e-18
4326.99726 3.42579e-18
4327.99716 3.20202e-18
4328.99706 3.56231e-18
4329.99696 3.20162e-18
4330.99686 3.56187e-18
4331.99676 3.56165e-18
4332.99666 3.56143e-18
4333.99656 3.29712e-18
4334.99646 3.77562e-18
4335.99636 3.59329e-18
4336.99626 3.77514e-18
4337.99616 3.80723e-18
4338.99606 3.99308e-18
4339.99596 3.99284e-18
4340.99586 3.80652e-18
4341.99576 3.80628e-18
4342.99566 3.78950e-18
4343.99556 3.80581e-18
4344.99546 3.94838e-18
4345.99536 3.94814e-18
4347.00526 3.68890e-18
4348.00516 3.68867e-18
4349.00506 3.41254e-18
4350.00496 3.22615e-18
4351.00486 3.22595e-18
4352.00476 3.41190e-18
4353.00466 3.41169e-18
4354.00456 3.63392e-18
4355.00446 3.63369e-18
4356.00436 3.63346e-18
4357.00426 3.22473e-18
4358.00416 3.50244e-18
4359.00406 3.63278e-18
4360.00396 3.63255e-18
4361.00386 3.63232e-18
4362.00376 3.68495e-18
4363.00366 3.61165e-18
4364.00356 3.53303e-18
4365.00346 3.53280e-18
4366.00336 3.40275e-18
4367.00326 3.40057e-18
4368.00316 3.40035e-18
4369.00306 3.23008e-18
4370.00296 3.10572e-18
4371.00286 3.39971e-18
4372.00276 3.39949e-18
4373.00266 3.22926e-18
4374.00256 3.22745e-18
4375.00246 3.22724e-18
4376.00236 2.90133e-18
4377.00226 3.10434e-18
4378.00216 3.22663e-18
4379.00206 3.22642e-18
4380.00196 3.10375e-18
4381.00186 3.22601e-18
4382.00176 2.75691e-18
4383.00166 2.44234e-18
4384.00156 2.44218e-18
4385.00146 2.33381e-18
4386.00136 2.14865e-18
4387.00126 2.14879e-18
4388.00116 2.14865e-18
4389.00106 2.14823e-18
4390.00096 2.21793e-18
4391.00086 2.33292e-18
4392.00076 2.33277e-18
4393.00066 2.33262e-18
4394.00056 2.35311e-18
4395.00046 2.35296e-18
4396.00036 2.35281e-18
4397.00026 2.40332e-18
4398.00016 2.40316e-18
4399.00006 2.50310e-18
4399.99996 2.49214e-18
4400.99986 2.49197e-18
4401.99976 2.40254e-18
4402.99966 2.40239e-18
4403.99956 2.40224e-18
4404.99946 2.50652e-18
4405.99936 2.49117e-18
4406.99926 2.54213e-18
4407.99916 2.54196e-18
4408.99906 2.54180e-18
4409.99896 2.70809e-18
4410.99886 2.70792e-18
4411.99876 2.54131e-18
4412.99866 2.70757e-18
4413.99856 2.59404e-18
4414.99846 2.57508e-18
4415.99836 2.70704e-18
4416.99826 2.72651e-18
4417.99816 2.70669e-18
4418.99806 2.72615e-18
4419.99796 2.72597e-18
4420.99786 2.59286e-18
4421.99776 2.72993e-18
4422.99766 2.72544e-18
4423.99756 2.59235e-18
4424.99746 2.72509e-18
4425.99736 2.72491e-18
4426.99726 2.72473e-18
4427.99716 2.79827e-18
4428.99706 2.57894e-18
4429.99696 2.57878e-18
4430.99686 2.51809e-18
4431.99676 2.51793e-18
4432.99666 2.51776e-18
4433.99656 2.51760e-18
4434.99646 2.57793e-18
4435.99636 2.63140e-18
4436.99626 2.51710e-18
4437.99616 2.57742e-18
4438.99606 2.57726e-18
4439.99596 2.63071e-18
4440.99586 2.63054e-18
4441.99576 2.65895e-18
4442.99566 2.50600e-18
4443.99556 2.50583e-18
4444.99546 2.38195e-18
4445.99536 2.50550e-18
4446.99526 2.38164e-18
4447.99516 2.67446e-18
4448.99506 2.68823e-18
4450.00495 2.68805e-18
4451.00486 2.47343e-18
4452.00475 2.58031e-18
4453.00465 2.58014e-18
4454.00455 2.68734e-18
4455.00446 2.78529e-18
4456.00436 3.15278e-18
4457.00425 3.19586e-18
4458.00415 3.19565e-18
4459.00405 3.07876e-18
4460.00396 3.07855e-18
4461.00385 3.10748e-18
4462.00375 3.15152e-18
4463.00365 3.19459e-18
4464.00356 3.19438e-18
4465.00346 3.25998e-18
4466.00335 3.07733e-18
4467.00325 2.91369e-18
4468.00315 2.99570e-18
4469.00306 2.99550e-18
4470.00295 2.99530e-18
4471.00285 3.31227e-18
4472.00275 3.26349e-18
4473.00266 3.26328e-18
4474.00256 2.99450e-18
4475.00245 2.99430e-18
4476.00235 2.99410e-18
4477.00225 2.99390e-18
4478.00216 2.99370e-18
4479.00205 3.26197e-18
4480.00195 2.78113e-18
4481.00185 2.78094e-18
4482.00176 2.84841e-18
4483.00166 2.78057e-18
4484.00155 2.78038e-18
4485.00145 2.83131e-18
4486.00135 2.78001e-18
4487.00126 2.77982e-18
4488.00115 2.83074e-18
4489.00105 2.78331e-18
4490.00095 2.83036e-18
4491.00086 2.88332e-18
4492.00076 2.82998e-18
4493.00065 2.82979e-18
4494.00055 2.88274e-18
4495.00045 2.88255e-18
4496.00036 3.03075e-18
4497.00025 3.06440e-18
4498.00015 3.06419e-18
4499.00005 3.03014e-18
4499.99996 3.03810e-18
4500.99986 3.06357e-18
4501.99975 3.43889e-18
4502.99965 3.49119e-18
4503.99955 3.72783e-18
4504.99946 3.93627e-18
4505.99935 4.02549e-18
4506.99925 4.02522e-18
4507.99915 4.07768e-18
4508.99906 4.09754e-18
4509.99896 4.07713e-18
4510.99885 4.09698e-18
4511.99875 4.07657e-18
4512.99865 4.07630e-18
4513.99856 4.07602e-18
4514.99845 4.16624e-18
4515.99835 4.16596e-18
4516.99825 4.18842e-18
4517.99816 4.18813e-18
4518.99806 4.18785e-18
4519.99795 4.19237e-18
4520.99785 4.38880e-18
4521.99775 4.38850e-18
4522.99766 4.54985e-18
4523.99755 4.58140e-18
4524.99745 4.73013e-18
4525.99735 4.72981e-18
4526.99726 4.58046e-18
4527.99716 4.63851e-18
4528.99705 4.63820e-18
4529.99695 4.63788e-18
4530.99685 4.89800e-18
4531.99676 4.96083e-18
4532.99665 4.96049e-18
4533.99655 4.89473e-18
4534.99645 4.89439e-18
4535.99636 4.93384e-18
4536.99626 4.96171e-18
4537.99615 5.24021e-18
4538.99605 5.51188e-18
4539.99596 5.62422e-18
4540.99586 5.62383e-18
4541.99575 5.53950e-18
4542.99565 5.53912e-18
4543.99555 5.53874e-18
4544.99546 5.99247e-18
4545.99536 6.05780e-18
4546.99525 6.05739e-18
4548.00515 6.21685e-18
4549.00505 6.21642e-18
4550.00495 6.05614e-18
4551.00485 6.05572e-18
4552.00475 6.07682e-18
4553.00465 6.07640e-18
4554.00455 6.21428e-18
4555.00445 6.11912e-18
4556.00435 6.11870e-18
4557.00425 6.11827e-18
4558.00415 6.07430e-18
4559.00405 6.07388e-18
4560.00395 6.37598e-18
4561.00385 6.37554e-18
4562.00375 6.28376e-18
4563.00365 6.37465e-18
4564.00355 6.62040e-18
4565.00345 6.61994e-18
4566.00335 6.94862e-18
4567.00325 6.96411e-18
4568.00315 6.96362e-18
4569.00305 6.94718e-18
4570.00295 6.96266e-18
4571.00285 7.24197e-18
4572.00275 7.33443e-18
4573.00265 7.34978e-18
4574.00255 7.61694e-18
4575.00245 7.33290e-18
4576.00235 7.23946e-18
4577.00225 7.21455e-18
4578.00215 7.23845e-18
4579.00205 7.63840e-18
4580.00195 7.63787e-18
4581.00185 7.61323e-18
4582.00175 7.61270e-18
4583.00165 7.36900e-18
4584.00155 7.36848e-18
4585.00145 7.68349e-18
4586.00135 7.68295e-18
4587.00125 7.52436e-18
4588.00115 7.52384e-18
4589.00105 7.42360e-18
4590.00095 7.36540e-18
4591.00085 7.35350e-18
4592.00075 7.42204e-18
4593.00065 7.35247e-18
4594.00055 7.29100e-18
4595.00045 7.29049e-18
4596.00035 7.25537e-18
4597.00025 7.28947e-18
4598.00015 7.25436e-18
4599.00005 7.09552e-18
4599.99995 7.09019e-18
4600.99985 7.07231e-18
4601.99975 7.07181e-18
4602.99965 7.13345e-18
4603.99955 7.16634e-18
4604.99945 7.16583e-18
4605.99935 7.16533e-18
4606.99925 6.76145e-18
4607.99915 6.76098e-18
4608.99905 6.82946e-18
4609.99895 6.95802e-18
4610.99885 6.88380e-18
4611.99875 6.88332e-18
4612.99865 6.82755e-18
4613.99855 6.77403e-18
4614.99845 6.77355e-18
4615.99835 6.82610e-18
4616.99825 6.77260e-18
4617.99815 6.59158e-18
4618.99805 6.55233e-18
4619.99795 6.51766e-18
4620.99785 6.51720e-18
4621.99775 6.51674e-18
4622.99765 6.51628e-18
4623.99755 6.44240e-18
4624.99745 6.23660e-18
4625.99735 6.23616e-18
4626.99725 5.95872e-18
4627.99715 6.17499e-18
4628.99705 6.17455e-18
4629.99695 5.95745e-18
4630.99685 5.64761e-18
4631.99675 5.64721e-18
4632.99665 5.64681e-18
4633.99655 5.76711e-18
4634.99645 5.90418e-18
4635.99635 5.97852e-18
4636.99625 6.17106e-18
4637.99615 5.97768e-18
4638.99605 6.21470e-18
4639.99595 6.21426e-18
4640.99585 6.29456e-18
4641.99575 6.51823e-18
4642.99565 6.45153e-18
4643.99555 6.51731e-18
4644.99545 6.51684e-18
4645.99535 6.51638e-18
4646.99525 6.60357e-18
4647.99515 6.65465e-18
4648.99505 6.64923e-18
4650.00495 6.60217e-18
4651.00485 6.41444e-18
4652.00475 6.41399e-18
4653.00465 6.41353e-18
4654.00455 6.68148e-18
4655.00445 6.96959e-18
4656.00435 7.11991e-18
4657.00425 7.07200e-18
4658.00415 7.07150e-18
4659.00405 7.07099e-18
4660.00395 7.11788e-18
4661.00385 7.11737e-18
4662.00375 7.31267e-18
4663.00365 7.31214e-18
4664.00355 7.04208e-18
4665.00345 7.02900e-18
4666.00335 6.84941e-18
4667.00325 6.22623e-18
4668.00315 6.22579e-18
4669.00305 6.17330e-18
4670.00295 6.14165e-18
4671.00285 6.14121e-18
4672.00275 6.11034e-18
4673.00265 6.10991e-18
4674.00255 6.10947e-18
4675.00245 6.13946e-18
4676.00235 5.88170e-18
4677.00225 6.13858e-18
4678.00215 6.13814e-18
4679.00205 6.16890e-18
4680.00195 5.93912e-18
4681.00185 5.93870e-18
4682.00175 5.77922e-18
4683.00165 5.77880e-18
4684.00155 5.77839e-18
4685.00145 5.61321e-18
4686.00135 5.61281e-18
4687.00125 5.61241e-18
4688.00115 5.33164e-18
4689.00105 5.28159e-18
4690.00095 5.31558e-18
4691.00085 5.31520e-18
4692.00075 5.25619e-18
4693.00065 5.28008e-18
4694.00055 5.25544e-18
4695.00045 4.91542e-18
4696.00035 4.91507e-18
4697.00025 4.91471e-18
4698.00015 4.77963e-18
4699.00005 4.72776e-18
4699.99995 4.32472e-18
4700.99985 4.32441e-18
4701.99975 4.27344e-18
4702.99965 3.91966e-18
4703.99955 3.74197e-18
4704.99945 3.74170e-18
4705.99935 3.47956e-18
4706.99925 3.47931e-18
4707.99915 3.34487e-18
4708.99905 3.17322e-18
4709.99895 3.17332e-18
4710.99885 3.17276e-18
4711.99875 3.08969e-18
4712.99865 3.08947e-18
4713.99855 2.95703e-18
4714.99845 2.87013e-18
4715.99835 2.84324e-18
4716.99825 2.80763e-18
4717.99815 1.92738e-18
4718.99805 2.11448e-18
4719.99795 1.92710e-18
4720.99785 1.92323e-18
4721.99775 1.92309e-18
4722.99765 1.92295e-18
4723.99755 1.62501e-18
4724.99745 1.62489e-18
4725.99735 1.66968e-18
4726.99725 1.66956e-18
4727.99715 1.92226e-18
4728.99705 2.00805e-18
4729.99695 2.00791e-18
4730.99685 2.00777e-18
4731.99675 2.16154e-18
4732.99665 2.18360e-18
4733.99655 2.57155e-18
4734.99645 2.57136e-18
4735.99635 2.61216e-18
4736.99625 3.05481e-18
4737.99615 3.05459e-18
4738.99605 3.17026e-18
4739.99595 3.17003e-18
4740.99585 3.43211e-18
4741.99575 3.50037e-18
4742.99565 3.50012e-18
4743.99555 3.83509e-18
4744.99545 3.87232e-18
4745.99535 4.15257e-18
4746.99525 4.15914e-18
4748.00515 4.15884e-18
4749.00505 4.26840e-18
4750.00495 4.16613e-18
4751.00485 4.26779e-18
4752.00475 4.26748e-18
4753.00465 4.37485e-18
4754.00455 4.37453e-18
4755.00445 4.42829e-18
4756.00435 4.42797e-18
4757.00425 4.98673e-18
4758.00415 4.98637e-18
4759.00405 4.98601e-18
4760.00395 5.00850e-18
4761.00385 5.15015e-18
4762.00375 5.36768e-18
4763.00365 5.36746e-18
4764.00355 5.36707e-18
4765.00345 5.44057e-18
4766.00335 5.36630e-18
4767.00325 5.41242e-18
4768.00315 5.44323e-18
4769.00305 5.44284e-18
4770.00295 5.51046e-18
4771.00285 5.81817e-18
4772.00275 5.81775e-18
4773.00265 5.81733e-18
4774.00255 5.81691e-18
4775.00245 5.79048e-18
4776.00235 5.71320e-18
4777.00225 5.71279e-18
4778.00215 5.78922e-18
4779.00205 5.78880e-18
4780.00195 5.78838e-18
4781.00185 5.81396e-18
4782.00175 5.92093e-18
4783.00165 6.05057e-18
4784.00155 5.92007e-18
4785.00145 5.91965e-18
4786.00135 5.89759e-18
4787.00125 5.91879e-18
4788.00115 5.91836e-18
4789.00105 5.99476e-18
4790.00095 5.99432e-18
4791.00085 6.00335e-18
4792.00075 6.03492e-18
4793.00065 6.03449e-18
4794.00055 6.00205e-18
4795.00045 6.03361e-18
4796.00035 6.00118e-18
4797.00025 6.00074e-18
4798.00015 6.20214e-18
4799.00005 6.24621e-18
4799.99995 6.20124e-18
4800.99985 6.24531e-18
4801.99975 6.30204e-18
4802.99965 6.36621e-18
4803.99955 6.53450e-18
4804.99945 6.53403e-18
4805.99935 6.36483e-18
4806.99925 6.39247e-18
4807.99915 6.39201e-18
4808.99905 6.80851e-18
4809.99895 6.80802e-18
4810.99885 6.80753e-18
4811.99875 6.51160e-18
4812.99865 6.38969e-18
4813.99855 6.38923e-18
4814.99845 6.35667e-18
4815.99835 6.33619e-18
4816.99825 6.44459e-18
4817.99815 6.09355e-18
4818.99805 6.05378e-18
4819.99795 6.05334e-18
4820.99785 6.08404e-18
4821.99775 6.08360e-18
4822.99765 6.05202e-18
4823.99755 6.08272e-18
4824.99745 5.81612e-18
4825.99735 5.81476e-18
4826.99725 5.81528e-18
4827.99715 5.87010e-18
4828.99705 5.81443e-18
4829.99695 5.68665e-18
4830.99685 5.58332e-18
4831.99675 5.51538e-18
4832.99665 5.45224e-18
4833.99655 5.45184e-18
4834.99645 5.33255e-18
4835.99635 5.35284e-18
4836.99625 5.45066e-18
4837.99615 5.36825e-18
4838.99605 5.44987e-18
4839.99595 5.51218e-18
4840.99585 5.57927e-18
4841.99575 5.44869e-18
4842.99565 5.86257e-18
4843.99555 6.15228e-18
4844.99545 6.20530e-18
4845.99535 6.23903e-18
4846.99525 6.29081e-18
4847.99515 6.27328e-18
4848.99505 6.43792e-18
4850.00495 6.28945e-18
4851.00485 6.23677e-18
4852.00475 6.20215e-18
4853.00465 6.20170e-18
4854.00455 6.15061e-18
4855.00445 6.18820e-18
4856.00435 6.18775e-18
4857.00425 6.18731e-18
4858.00415 6.18686e-18
4859.00405 6.27540e-18
4860.00395 6.14794e-18
4861.00385 6.27449e-18
4862.00375 6.53933e-18
4863.00365 6.93179e-18
4864.00355 6.93129e-18
4865.00345 7.23373e-18
4866.00335 7.38011e-18
4867.00325 7.42007e-18
4868.00315 7.66820e-18
4869.00305 7.55365e-18
4870.00295 7.55311e-18
4871.00285 7.55256e-18
4872.00275 7.55201e-18
4873.00265 7.20837e-18
4874.00255 7.42513e-18
4875.00245 7.29707e-18
4876.00235 7.20681e-18
4877.00225 6.63935e-18
4878.00215 6.57541e-18
4879.00205 6.53959e-18
4880.00195 6.53912e-18
4881.00185 6.44427e-18
4882.00175 6.44380e-18
4883.00165 6.41889e-18
4884.00155 6.44287e-18
4885.00145 6.44241e-18
4886.00135 6.44194e-18
4887.00125 6.41704e-18
4888.00115 6.40203e-18
4889.00105 6.40157e-18
4890.00095 6.40111e-18
4891.00085 6.26659e-18
4892.00075 6.26614e-18
4893.00065 6.23345e-18
4894.00055 6.19680e-18
4895.00045 6.19635e-18
4896.00035 5.91345e-18
4897.00025 5.90498e-18
4898.00015 5.91260e-18
4899.00005 5.91217e-18
4899.99995 5.91174e-18
4900.99985 5.71959e-18
4901.99975 5.69748e-18
4902.99965 5.69370e-18
4903.99955 5.69329e-18
4904.99945 5.38619e-18
4905.99935 5.31220e-18
4906.99925 5.31182e-18
4907.99915 5.31144e-18
4908.99905 5.26181e-18
4909.99895 5.38425e-18
4910.99885 5.26105e-18
4911.99875 5.15616e-18
4912.99865 5.15579e-18
4913.99855 5.13886e-18
4914.99845 5.13849e-18
4915.99835 5.16113e-18
4916.99825 5.35668e-18
4917.99815 5.38524e-18
4918.99805 5.38485e-18
4919.99795 5.38446e-18
4920.99785 5.35514e-18
4921.99775 5.35475e-18
4922.99765 5.35437e-18
4923.99755 5.35398e-18
4924.99745 5.37770e-18
4925.99735 5.38214e-18
4926.99725 5.39320e-18
4927.99715 5.39281e-18
4928.99705 5.53214e-18
4929.99695 5.53174e-18
4930.99685 5.39165e-18
4931.99675 5.58713e-18
4932.99665 5.59997e-18
4933.99655 5.74483e-18
4934.99645 5.59916e-18
4935.99635 5.74400e-18
4936.99625 5.74359e-18
4937.99615 5.82461e-18
4938.99605 5.84523e-18
4939.99595 6.18048e-18
4940.99585 6.47641e-18
4941.99575 6.47595e-18
4942.99565 6.51095e-18
4943.99555 7.17549e-18
4944.99545 6.99176e-18
4945.99535 7.17447e-18
4946.99525 6.99076e-18
4948.00515 6.99026e-18
4949.00505 6.98976e-18
4950.00495 7.17241e-18
4951.00485 7.17190e-18
4952.00475 7.31602e-18
4953.00465 7.76328e-18
4954.00455 7.84112e-18
4955.00445 7.31445e-18
4956.00435 7.84000e-18
4957.00425 7.84259e-18
4958.00415 8.08544e-18
4959.00405 8.54209e-18
4960.00395 8.72213e-18
4961.00385 8.72151e-18
4962.00375 9.24650e-18
4963.00365 9.24584e-18
4964.00355 9.49387e-18
4965.00345 9.49319e-18
4966.00335 9.67375e-18
4967.00325 9.98455e-18
4968.00315 9.98384e-18
4969.00305 9.98313e-18
4970.00295 1.00859e-17
4971.00285 1.02889e-17
4972.00275 1.00845e-17
4973.00265 1.07667e-17
4974.00255 1.07659e-17
4975.00245 1.07651e-17
4976.00235 1.07644e-17
4977.00225 1.08340e-17
4978.00215 1.08332e-17
4979.00205 1.10087e-17
4980.00195 1.10079e-17
4981.00185 1.10071e-17
4982.00175 1.10063e-17
4983.00165 1.12361e-17
4984.00155 1.09228e-17
4985.00145 1.12345e-17
4986.00135 1.16489e-17
4987.00125 1.18759e-17
4988.00115 1.20545e-17
4989.00105 1.22259e-17
4990.00095 1.23164e-17
4991.00085 1.20520e-17
4992.00075 1.20511e-17
4993.00065 1.22224e-17
4994.00055 1.22215e-17
4995.00045 1.22207e-17
4996.00035 1.23112e-17
4997.00025 1.19348e-17
4998.00015 1.19339e-17
4999.00005 1.22526e-17
4999.99995 1.20220e-17
5000.99985 1.19314e-17
5001.99975 1.19891e-17
5002.99965 1.16499e-17
5003.99955 1.13657e-17
5004.99945 1.16482e-17
5005.99935 1.17167e-17
5006.99925 1.17158e-17
5007.99915 1.17379e-17
5008.99905 1.17142e-17
5009.99895 1.09792e-17
5010.99885 1.09581e-17
5011.99875 1.04580e-17
5012.99865 1.04572e-17
5013.99855 1.02083e-17
5014.99845 9.68350e-18
5015.99835 9.38312e-18
5016.99825 9.38246e-18
5017.99815 9.21496e-18
5018.99805 9.11950e-18
5019.99795 9.21366e-18
5020.99785 9.21301e-18
5021.99775 9.21237e-18
5022.99765 9.11693e-18
5023.99755 8.95021e-18
5024.99745 8.94958e-18
5025.99735 8.94895e-18
5026.99725 9.24561e-18
5027.99715 9.37547e-18
5028.99705 1.03107e-17
5029.99695 1.03214e-17
5030.99685 9.37350e-18
5031.99675 9.35711e-18
5032.99665 9.35645e-18
5033.99655 9.35580e-18
5034.99645 9.42298e-18
5035.99635 1.03056e-17
5036.99625 1.02110e-17
5037.99615 9.60442e-18
5038.99605 9.60375e-18
5039.99595 9.26226e-18
5040.99585 9.26162e-18
5041.99575 9.60173e-18
5042.99565 9.41770e-18
5043.99555 9.60039e-18
5044.99545 9.73822e-18
5045.99535 9.59904e-18
5046.99525 9.49439e-18
5047.99515 9.59770e-18
5048.99505 9.39702e-18
5050.00495 9.25579e-18
5051.00485 9.01823e-18
5052.00475 8.85417e-18
5053.00465 8.80872e-18
5054.00455 7.81891e-18
5055.00445 7.14060e-18
5056.00435 7.14010e-18
5057.00425 6.99280e-18
5058.00415 6.89257e-18
5059.00405 6.80873e-18
5060.00395 6.80826e-18
5061.00385 6.89114e-18
5062.00375 6.89066e-18
5063.00365 7.06888e-18
5064.00355 6.88970e-18
5065.00345 6.80589e-18
5066.00335 6.80542e-18
5067.00325 6.83231e-18
5068.00315 6.83183e-18
5069.00305 7.06593e-18
5070.00295 6.95297e-18
5071.00285 6.74513e-18
5072.00275 6.71779e-18
5073.00265 6.71732e-18
5074.00255 6.61263e-18
5075.00245 6.39686e-18
5076.00235 6.17149e-18
5077.00225 6.06092e-18
5078.00215 6.13210e-18
5079.00205 6.06008e-18
5080.00195 5.73584e-18
5081.00185 5.70736e-18
5082.00175 5.66236e-18
5083.00165 5.66197e-18
5084.00155 5.73425e-18
5085.00145 5.76415e-18
5086.00135 5.76318e-18
5087.00125 5.76335e-18
5088.00115 5.76296e-18
5089.00105 5.76199e-18
5090.00095 5.76216e-18
5091.00085 6.00234e-18
5092.00075 6.24836e-18
5093.00065 6.39193e-18
5094.00055 6.39149e-18
5095.00045 6.96463e-18
5096.00035 7.22439e-18
5097.00025 7.32896e-18
5098.00015 7.39608e-18
5099.00005 7.53748e-18
5099.99995 7.96496e-18
5100.99985 8.20335e-18
5101.99975 8.20279e-18
5102.99965 8.38600e-18
5103.99955 8.42780e-18
5104.99945 8.47375e-18
5105.99935 9.19594e-18
5106.99925 9.19531e-18
5107.99915 9.19468e-18
5108.99905 8.87331e-18
5109.99895 8.87271e-18
5110.99885 8.82443e-18
5111.99875 8.94261e-18
5112.99865 8.97577e-18
5113.99855 9.06938e-18
5114.99845 9.06876e-18
5115.99835 9.06815e-18
5116.99825 8.97331e-18
5117.99815 9.06691e-18
5118.99805 9.38873e-18
5119.99795 9.38809e-18
5120.99785 9.38745e-18
5121.99775 9.38681e-18
5122.99765 9.38617e-18
5123.99755 9.11248e-18
5124.99745 9.38489e-18
5125.99735 9.38425e-18
5126.99725 9.38361e-18
5127.99715 9.38298e-18
5128.99705 9.38234e-18
5129.99695 9.10876e-18
5130.99685 9.30276e-18
5131.99675 9.47636e-18
5132.99665 9.58858e-18
5133.99655 9.58793e-18
5134.99645 9.62756e-18
5135.99635 9.80631e-18
5136.99625 9.62625e-18
5137.99615 9.83446e-18
5138.99605 9.89041e-18
5139.99595 9.62430e-18
5140.99585 9.83246e-18
5141.99575 9.91960e-18
5142.99565 9.88773e-18
5143.99555 9.98372e-18
5144.99545 9.98420e-18
5145.99535 9.98237e-18
5146.99525 9.98551e-18
5148.00515 1.01641e-17
5149.00505 1.02664e-17
5150.00495 1.02657e-17
5151.00485 1.06951e-17
5152.00475 1.07154e-17
5153.00465 1.07980e-17
5154.00455 1.07973e-17
5155.00445 1.08142e-17
5156.00435 1.10606e-17
5157.00425 1.07481e-17
5158.00415 1.07111e-17
5159.00405 1.07311e-17
5160.00395 1.06886e-17
5161.00385 1.06879e-17
5162.00375 1.07289e-17
5163.00365 1.07282e-17
5164.00355 1.05681e-17
5165.00345 1.05674e-17
5166.00335 1.03931e-17
5167.00325 1.01666e-17
5168.00315 1.01659e-17
5169.00305 1.01659e-17
5170.00295 1.01652e-17
5171.00285 1.01147e-17
5172.00275 1.01140e-17
5173.00265 1.01625e-17
5174.00255 1.01127e-17
5175.00245 1.01612e-17
5176.00235 1.01611e-17
5177.00225 1.02211e-17
5178.00215 1.01598e-17
5179.00205 1.01591e-17
5180.00195 1.02191e-17
5181.00185 1.02572e-17
5182.00175 1.05563e-17
5183.00165 1.06520e-17
5184.00155 1.07104e-17
5185.00145 1.07097e-17
5186.00135 1.05873e-17
5187.00125 1.05528e-17
5188.00115 1.05416e-17
5189.00105 1.05409e-17
5190.00095 1.05507e-17
5191.00085 1.06131e-17
5192.00075 1.05460e-17
5193.00065 1.03380e-17
5194.00055 1.00049e-17
5195.00045 1.00043e-17
5196.00035 9.87062e-18
5197.00025 1.03353e-17
5198.00015 1.03346e-17
5199.00005 1.03339e-17
5199.99995 9.94307e-18
5200.99985 1.04605e-17
5201.99975 9.94176e-18
5202.99965 1.04592e-17
5203.99955 1.04585e-17
5204.99945 1.04934e-17
5205.99935 1.04927e-17
5206.99925 1.05600e-17
5207.99915 1.02996e-17
5208.99905 1.04906e-17
5209.99895 1.02983e-17
5210.99885 1.02786e-17
5211.99875 1.02779e-17
5212.99865 9.91052e-18
5213.99855 9.87774e-18
5214.99845 9.87710e-18
5215.99835 9.90858e-18
5216.99825 9.90793e-18
5217.99815 9.94343e-18
5218.99805 9.94278e-18
5219.99795 9.90599e-18
5220.99785 9.94148e-18
5221.99775 9.94083e-18
5222.99765 9.94898e-18
5223.99755 1.01714e-17
5224.99745 1.01707e-17
5225.99735 1.01701e-17
5226.99725 1.02407e-17
5227.99715 1.02400e-17
5228.99705 1.00611e-17
5229.99695 1.01674e-17
5230.99685 1.00598e-17
5231.99675 1.00155e-17
5232.99665 1.00585e-17
5233.99655 1.01352e-17
5234.99645 1.00572e-17
5235.99635 1.01339e-17
5236.99625 1.01567e-17
5237.99615 1.01560e-17
5238.99605 1.01554e-17
5239.99595 1.05451e-17
5240.99585 1.02985e-17
5241.99575 1.05438e-17
5242.99565 1.06045e-17
5243.99555 1.05424e-17
5244.99545 1.05417e-17
5245.99535 1.08533e-17
5246.99525 1.08597e-17
5247.99515 1.08519e-17
5248.99505 1.08512e-17
5249.99495 1.08505e-17
5251.00485 1.08569e-17
5252.00475 1.13088e-17
5253.00465 1.13773e-17
5254.00455 1.13992e-17
5255.00445 1.14275e-17
5256.00435 1.12949e-17
5257.00425 1.12942e-17
5258.00415 1.16209e-17
5259.00405 1.16202e-17
5260.00395 1.17186e-17
5261.00385 1.17209e-17
5262.00375 1.17201e-17
5263.00365 1.17163e-17
5264.00355 1.17186e-17
5265.00345 1.17495e-17
5266.00335 1.17991e-17
5267.00325 1.17983e-17
5268.00315 1.18331e-17
5269.00305 1.18895e-17
5270.00295 1.18988e-17
5271.00285 1.21386e-17
5272.00275 1.22874e-17
5273.00265 1.18965e-17
5274.00255 1.18857e-17
5275.00245 1.18950e-17
5276.00235 1.21347e-17
5277.00225 1.21340e-17
5278.00215 1.21873e-17
5279.00205 1.21866e-17
5280.00195 1.21316e-17
5281.00185 1.21850e-17
5282.00175 1.22044e-17
5283.00165 1.22036e-17
5284.00155 1.22104e-17
5285.00145 1.22096e-17
5286.00135 1.23123e-17
5287.00125 1.25100e-17
5288.00115 1.30707e-17
5289.00105 1.31340e-17
5290.00095 1.31332e-17
5291.00085 1.31323e-17
5292.00075 1.31315e-17
5293.00065 1.31909e-17
5294.00055 1.34112e-17
5295.00045 1.35472e-17
5296.00035 1.39001e-17
5297.00025 1.33743e-17
5298.00015 1.33735e-17
5299.00005 1.34070e-17
5299.99995 1.34797e-17
5300.99985 1.38263e-17
5301.99975 1.41849e-17
5302.99965 1.41840e-17
5303.99955 1.38237e-17
5304.99945 1.36337e-17
5305.99935 1.34747e-17
5306.99925 1.34738e-17
5307.99915 1.34191e-17
5308.99905 1.33639e-17
5309.99895 1.33631e-17
5310.99885 1.34166e-17
5311.99875 1.34157e-17
5312.99865 1.34149e-17
5313.99855 1.30772e-17
5314.99845 1.29982e-17
5315.99835 1.29974e-17
5316.99825 1.30748e-17
5317.99815 1.34122e-17
5318.99805 1.34113e-17
5319.99795 1.31286e-17
5320.99785 1.31278e-17
5321.99775 1.31270e-17
5322.99765 1.34080e-17
5323.99755 1.35028e-17
5324.99745 1.38755e-17
5325.99735 1.34369e-17
5326.99725 1.34047e-17
5327.99715 1.31221e-17
5328.99705 1.34344e-17
5329.99695 1.34335e-17
5330.99685 1.36413e-17
5331.99675 1.36060e-17
5332.99665 1.36052e-17
5333.99655 1.34302e-17
5334.99645 1.36035e-17
5335.99635 1.36026e-17
5336.99625 1.33562e-17
5337.99615 1.33554e-17
5338.99605 1.36001e-17
5339.99595 1.35993e-17
5340.99585 1.36361e-17
5341.99575 1.39523e-17
5342.99565 1.39582e-17
5343.99555 1.39574e-17
5344.99545 1.39565e-17
5345.99535 1.41454e-17
5346.99525 1.44379e-17
5348.00515 1.44370e-17
5349.00505 1.44362e-17
5350.00495 1.44353e-17
5351.00485 1.44345e-17
5352.00475 1.46044e-17
5353.00465 1.48742e-17
5354.00455 1.47006e-17
5355.00445 1.46018e-17
5356.00435 1.43533e-17
5357.00425 1.42967e-17
5358.00415 1.42141e-17
5359.00405 1.39403e-17
5360.00395 1.38674e-17
5361.00385 1.39386e-17
5362.00375 1.41539e-17
5363.00365 1.39369e-17
5364.00355 1.38640e-17
5365.00345 1.37344e-17
5366.00335 1.31533e-17
5367.00325 1.31525e-17
5368.00315 1.31517e-17
5369.00305 1.38598e-17
5370.00295 1.40475e-17
5371.00285 1.41462e-17
5372.00275 1.37286e-17
5373.00265 1.37278e-17
5374.00255 1.40441e-17
5375.00245 1.41661e-17
5376.00235 1.45063e-17
5377.00225 1.45054e-17
5378.00215 1.46089e-17
5379.00205 1.45037e-17
5380.00195 1.45028e-17
5381.00185 1.46753e-17
5382.00175 1.48809e-17
5383.00165 1.46735e-17
5384.00155 1.46726e-17
5385.00145 1.44051e-17
5386.00135 1.43435e-17
5387.00125 1.43426e-17
5388.00115 1.48042e-17
5389.00105 1.44017e-17
5390.00095 1.39407e-17
5391.00085 1.39495e-17
5392.00075 1.39496e-17
5393.00065 1.39383e-17
5394.00055 1.39470e-17
5395.00045 1.39462e-17
5396.00035 1.38658e-17
5397.00025 1.39446e-17
5398.00015 1.39437e-17
5399.00005 1.39429e-17
5399.99995 1.42210e-17
5400.99985 1.47231e-17
5401.99975 1.42193e-17
5402.99965 1.42185e-17
5403.99955 1.47163e-17
5404.99945 1.47196e-17
5405.99935 1.52089e-17
5406.99925 1.52080e-17
5407.99915 1.52071e-17
5408.99905 1.47577e-17
5409.99895 1.47111e-17
5410.99885 1.45838e-17
5411.99875 1.45089e-17
5412.99865 1.45821e-17
5413.99855 1.43629e-17
5414.99845 1.40125e-17
5415.99835 1.39893e-17
5416.99825 1.39785e-17
5417.99815 1.39776e-17
5418.99805 1.39768e-17
5419.99795 1.39760e-17
5420.99785 1.37213e-17
5421.99775 1.39744e-17
5422.99765 1.39736e-17
5423.99755 1.39727e-17
5424.99745 1.39719e-17
5425.99735 1.39711e-17
5426.99725 1.37401e-17
5427.99715 1.40024e-17
5428.99705 1.43347e-17
5429.99695 1.43339e-17
5430.99685 1.40063e-17
5431.99675 1.40055e-17
5432.99665 1.39983e-17
5433.99655 1.39604e-17
5434.99645 1.38562e-17
5435.99635 1.39588e-17
5436.99625 1.39580e-17
5437.99615 1.40006e-17
5438.99605 1.39998e-17
5439.99595 1.39556e-17
5440.99585 1.38514e-17
5441.99575 1.38331e-17
5442.99565 1.31009e-17
5443.99555 1.30037e-17
5444.99545 1.30030e-17
5445.99535 1.27502e-17
5446.99525 1.26909e-17
5447.99515 1.26688e-17
5448.99505 1.26894e-17
5449.99495 1.26887e-17
5451.00485 1.26666e-17
5452.00475 1.29977e-17
5453.00464 1.29970e-17
5454.00455 1.33851e-17
5455.00445 1.33909e-17
5456.00435 1.34132e-17
5457.00425 1.38799e-17
5458.00414 1.48559e-17
5459.00405 1.50997e-17
5460.00395 1.52557e-17
5461.00385 1.51603e-17
5462.00374 1.51595e-17
5463.00365 1.52531e-17
5464.00355 1.52797e-17
5465.00345 1.56624e-17
5466.00335 1.56615e-17
5467.00324 1.52771e-17
5468.00315 1.46974e-17
5469.00305 1.45682e-17
5470.00295 1.45674e-17
5471.00284 1.46949e-17
5472.00275 1.48750e-17
5473.00265 1.48742e-17
5474.00255 1.45641e-17
5475.00245 1.42774e-17
5476.00234 1.42766e-17
5477.00225 1.42758e-17
5478.00215 1.45181e-17
5479.00205 1.45173e-17
5480.00194 1.45178e-17
5481.00185 1.44266e-17
5482.00175 1.44002e-17
5483.00165 1.42710e-17
5484.00155 1.43986e-17
5485.00144 1.44234e-17
5486.00135 1.45129e-17
5487.00125 1.46361e-17
5488.00115 1.46353e-17
5489.00104 1.46345e-17
5490.00095 1.50099e-17
5491.00085 1.47248e-17
5492.00075 1.50082e-17
5493.00065 1.51276e-17
5494.00054 1.51766e-17
5495.00045 1.51757e-17
5496.00035 1.52366e-17
5497.00025 1.56627e-17
5498.00014 1.54316e-17
5499.00005 1.54154e-17
5499.99995 1.54146e-17
5500.99985 1.52323e-17
5501.99975 1.51121e-17
5502.99964 1.51112e-17
5503.99955 1.54265e-17
5504.99945 1.56618e-17
5505.99935 1.56609e-17
5506.99924 1.56601e-17
5507.99915 1.54231e-17
5508.99905 1.56584e-17
5509.99895 1.66571e-17
5510.99885 1.72677e-17
5511.99874 1.72667e-17
5512.99865 1.72658e-17
5513.99855 1.75411e-17
5514.99845 1.75401e-17
5515.99834 1.75392e-17
5516.99825 1.78607e-17
5517.99815 1.78598e-17
5518.99805 1.78588e-17
5519.99795 1.78578e-17
5520.99784 1.78568e-17
5521.99775 1.75607e-17
5522.99765 1.75597e-17
5523.99755 1.76108e-17
5524.99744 1.77225e-17
5525.99735 1.78264e-17
5526.99725 1.78255e-17
5527.99715 1.78245e-17
5528.99705 1.77186e-17
5529.99694 1.76051e-17
5530.99685 1.75804e-17
5531.99675 1.75795e-17
5532.99665 1.74396e-17
5533.99654 1.75775e-17
5534.99645 1.74018e-17
5535.99635 1.74009e-17
5536.99625 1.75747e-17
5537.99615 1.80760e-17
5538.99604 1.75728e-17
5539.99595 1.75718e-17
5540.99585 1.75709e-17
5541.99575 1.77218e-17
5542.99564 1.77208e-17
5543.99555 1.85540e-17
5544.99545 1.77189e-17
5545.99535 1.69439e-17
5546.99525 1.67893e-17
5548.00514 1.67883e-17
5549.00504 1.68493e-17
5550.00494 1.69402e-17
5551.00484 1.69393e-17
5552.00474 1.69384e-17
5553.00464 1.67838e-17
5554.00454 1.64670e-17
5555.00444 1.63925e-17
5556.00434 1.63917e-17
5557.00424 1.63908e-17
5558.00414 1.62689e-17
5559.00404 1.62349e-17
5560.00394 1.57705e-17
5561.00384 1.57444e-17
5562.00374 1.50563e-17
5563.00364 1.50555e-17
5564.00354 1.54170e-17
5565.00344 1.54162e-17
5566.00334 1.52155e-17
5567.00324 1.49449e-17
5568.00314 1.48890e-17
5569.00304 1.48882e-17
5570.00294 1.48874e-17
5571.00284 1.54113e-17
5572.00274 1.54939e-17
5573.00264 1.54931e-17
5574.00254 1.58924e-17
5575.00244 1.62704e-17
5576.00234 1.67204e-17
5577.00224 1.68563e-17
5578.00214 1.67186e-17
5579.00204 1.67177e-17
5580.00194 1.62661e-17
5581.00184 1.57622e-17
5582.00174 1.41892e-17
5583.00164 1.41373e-17
5584.00154 1.41365e-17
5585.00144 1.39887e-17
5586.00134 1.34091e-17
5587.00124 1.36198e-17
5588.00114 1.36038e-17
5589.00104 1.34070e-17
5590.00094 1.32079e-17
5591.00084 1.32072e-17
5592.00074 1.29120e-17
5593.00064 1.29113e-17
5594.00054 1.29106e-17
5595.00044 1.32044e-17
5596.00034 1.29128e-17
5597.00024 1.29122e-17
5598.00014 1.27299e-17
5599.00004 1.25287e-17
5599.99994 1.24987e-17
5600.99984 1.19243e-17
5601.99974 1.15806e-17
5602.99964 1.15800e-17
5603.99954 1.24564e-17
5604.99944 1.24558e-17
5605.99934 1.22531e-17
5606.99924 1.22524e-17
5607.99914 1.19199e-17
5608.99904 1.22512e-17
5609.99894 1.24526e-17
5610.99884 1.27452e-17
5611.99874 1.24513e-17
5612.99864 1.24966e-17
5613.99854 1.26861e-17
5614.99844 1.25568e-17
5615.99834 1.26848e-17
5616.99824 1.27413e-17
5617.99814 1.27406e-17
5618.99804 1.27400e-17
5619.99794 1.26822e-17
5620.99784 1.25161e-17
5621.99774 1.25523e-17
5622.99764 1.26803e-17
5623.99754 1.26796e-17
5624.99744 1.27553e-17
5625.99734 1.27547e-17
5626.99724 1.25123e-17
5627.99714 1.25117e-17
5628.99704 1.25966e-17
5629.99694 1.25959e-17
5630.99684 1.25966e-17
5631.99674 1.27328e-17
5632.99664 1.25953e-17
5633.99654 1.27315e-17
5634.99644 1.27308e-17
5635.99634 1.28805e-17
5636.99624 1.28798e-17
5637.99614 1.28792e-17
5638.99604 1.30153e-17
5639.99594 1.30525e-17
5640.99584 1.30571e-17
5641.99574 1.30511e-17
5642.99564 1.30127e-17
5643.99554 1.24873e-17
5644.99544 1.23365e-17
5645.99534 1.23358e-17
5646.99524 1.17634e-17
5647.99514 1.16744e-17
5648.99504 1.16565e-17
5649.99494 1.16732e-17
5651.00484 1.16553e-17
5652.00474 1.13202e-17
5653.00464 1.11060e-17
5654.00454 1.06087e-17
5655.00444 1.05874e-17
5656.00434 1.04551e-17
5657.00424 1.03346e-17
5658.00414 1.05858e-17
5659.00404 1.03335e-17
5660.00394 1.02859e-17
5661.00384 1.02854e-17
5662.00374 1.02754e-17
5663.00364 1.02749e-17
5664.00354 1.02839e-17
5665.00344 1.05646e-17
5666.00334 1.02828e-17
5667.00324 1.03766e-17
5668.00314 1.05630e-17
5669.00304 1.05625e-17
5670.00294 1.07605e-17
5671.00284 1.10539e-17
5672.00274 1.13342e-17
5673.00264 1.12014e-17
5674.00254 1.10523e-17
5675.00244 1.11621e-17
5676.00234 1.11997e-17
5677.00224 1.11992e-17
5678.00214 1.13309e-17
5679.00204 1.13304e-17
5680.00194 1.11593e-17
5681.00184 1.09908e-17
5682.00174 1.05205e-17
5683.00164 1.03383e-17
5684.00154 1.00817e-17
5685.00144 9.14311e-18
5686.00134 9.14267e-18
5687.00124 9.14222e-18
5688.00114 9.01624e-18
5689.00104 8.95445e-18
5690.00094 8.95401e-18
5691.00084 8.89905e-18
5692.00074 8.81266e-18
5693.00064 8.44144e-18
5694.00054 8.26548e-18
5695.00044 8.07272e-18
5696.00034 7.67445e-18
5697.00024 7.49189e-18
5698.00014 7.18408e-18
5699.00004 6.72192e-18
5699.99994 6.49025e-18
5700.99984 6.48994e-18
5701.99974 6.44945e-18
5702.99964 6.21755e-18
5703.99954 6.17797e-18
5704.99944 5.65744e-18
5705.99934 5.09599e-18
5706.99924 5.59338e-18
5707.99914 5.09550e-18
5708.99904 4.81336e-18
5709.99894 4.66570e-18
5710.99884 4.58563e-18
5711.99874 4.51341e-18
5712.99864 4.51320e-18
5713.99854 4.13141e-18
5714.99844 4.13121e-18
5715.99834 4.01973e-18
5716.99824 3.78017e-18
5717.99814 3.77999e-18
5718.99804 3.42683e-18
5719.99794 3.36768e-18
5720.99784 3.32131e-18
5721.99774 3.23438e-18
5722.99764 3.09902e-18
5723.99754 3.30023e-18
5724.99744 3.25655e-18
5725.99734 3.09858e-18
5726.99724 3.07400e-18
5727.99714 3.00128e-18
5728.99704 2.99289e-18
5729.99694 2.94519e-18
5730.99684 2.94505e-18
5731.99674 2.94491e-18
5732.99664 2.76915e-18
5733.99654 2.81678e-18
5734.99644 2.79557e-18
5735.99634 2.77861e-18
5736.99624 2.77848e-18
5737.99614 2.77835e-18
5738.99604 2.76836e-18
5739.99594 2.77809e-18
5740.99584 2.81585e-18
5741.99574 2.81572e-18
5742.99564 3.13530e-18
5743.99554 3.16934e-18
5744.99544 3.21784e-18
5745.99534 3.31851e-18
5746.99524 3.40497e-18
5748.00514 3.40481e-18
5749.00504 3.34482e-18
5750.00494 3.40450e-18
5751.00484 3.42021e-18
5752.00474 3.34436e-18
5753.00464 3.41989e-18
5754.00454 3.43133e-18
5755.00444 3.43117e-18
5756.00434 3.41942e-18
5757.00424 3.43085e-18
5758.00414 3.43069e-18
5759.00404 3.43053e-18
5760.00394 3.44569e-18
5761.00384 3.86163e-18
5762.00374 4.16454e-18
5763.00364 4.45788e-18
5764.00354 4.55280e-18
5765.00344 4.80962e-18
5766.00334 4.85184e-18
5767.00324 4.80917e-18
5768.00314 4.80895e-18
5769.00304 4.85117e-18
5770.00294 4.88674e-18
5771.00284 4.95721e-18
5772.00274 5.21224e-18
5773.00264 5.37168e-18
5774.00254 5.37144e-18
5775.00244 5.37119e-18
5776.00234 5.21128e-18
5777.00224 5.37070e-18
5778.00214 6.07070e-18
5779.00204 6.10838e-18
5780.00194 6.26450e-18
5781.00184 6.29207e-18
5782.00174 6.34276e-18
5783.00164 6.48961e-18
5784.00154 6.53990e-18
5785.00144 6.53960e-18
5786.00134 7.08605e-18
5787.00124 7.42818e-18
5788.00114 7.87245e-18
5789.00104 8.17610e-18
5790.00094 8.17573e-18
5791.00084 8.33529e-18
5792.00074 8.67882e-18
5793.00064 8.83970e-18
5794.00054 8.95034e-18
5795.00044 8.94993e-18
5796.00034 9.70913e-18
5797.00024 9.87600e-18
5798.00014 9.87555e-18
5799.00004 1.01038e-17
5799.99994 1.02189e-17
5800.99984 1.02725e-17
5801.99974 1.03545e-17
5802.99964 1.03784e-17
5803.99954 1.08028e-17
5804.99944 1.03774e-17
5805.99934 1.15693e-17
5806.99924 1.19194e-17
5807.99914 1.20118e-17
5808.99904 1.20113e-17
5809.99894 1.21371e-17
5810.99884 1.21366e-17
5811.99874 1.23264e-17
5812.99864 1.25253e-17
5813.99854 1.33649e-17
5814.99844 1.34822e-17
5815.99834 1.34816e-17
5816.99824 1.34810e-17
5817.99814 1.33626e-17
5818.99804 1.34798e-17
5819.99794 1.35521e-17
5820.99784 1.35515e-17
5821.99774 1.39008e-17
5822.99764 1.44238e-17
5823.99754 1.45477e-17
5824.99744 1.46244e-17
5825.99734 1.46335e-17
5826.99724 1.46328e-17
5827.99714 1.51892e-17
5828.99704 1.52933e-17
5829.99694 1.55720e-17
5830.99684 1.56854e-17
5831.99674 1.56847e-17
5832.99664 1.62377e-17
5833.99654 1.67680e-17
5834.99644 1.68578e-17
5835.99634 1.71491e-17
5836.99624 1.72422e-17
5837.99614 1.72414e-17
5838.99604 1.72846e-17
5839.99594 1.78989e-17
5840.99584 1.85805e-17
5841.99574 1.99113e-17
5842.99564 2.03768e-17
5843.99554 2.04004e-17
5844.99544 2.09927e-17
5845.99534 2.09917e-17
5846.99524 2.07784e-17
5847.99514 2.07775e-17
5848.99504 2.06025e-17
5849.99494 2.03951e-17
5851.00484 1.96900e-17
5852.00474 2.05999e-17
5853.00464 2.05990e-17
5854.00454 2.05981e-17
5855.00444 2.05972e-17
5856.00434 2.05963e-17
5857.00424 1.96849e-17
5858.00414 2.06759e-17
5859.00404 2.06816e-17
5860.00394 2.07823e-17
5861.00384 2.13877e-17
5862.00374 2.22173e-17
5863.00364 2.25043e-17
5864.00354 2.22153e-17
5865.00344 2.19234e-17
5866.00334 2.16296e-17
5867.00324 2.15994e-17
5868.00314 2.15984e-17
5869.00304 2.15975e-17
5870.00294 2.09928e-17
5871.00284 2.15957e-17
5872.00274 2.15947e-17
5873.00264 2.15938e-17
5874.00254 2.15929e-17
5875.00244 2.15920e-17
5876.00234 2.09874e-17
5877.00224 2.27864e-17
5878.00214 2.27854e-17
5879.00204 2.27845e-17
5880.00194 2.27835e-17
5881.00184 2.27825e-17
5882.00174 2.24963e-17
5883.00164 2.22890e-17
5884.00154 1.99802e-17
5885.00144 1.96161e-17
5886.00134 1.96152e-17
5887.00124 1.93909e-17
5888.00114 1.96136e-17
5889.00104 1.93893e-17
5890.00094 1.93076e-17
5891.00084 1.93026e-17
5892.00074 1.90227e-17
5893.00064 1.90219e-17
5894.00054 1.90211e-17
5895.00044 1.92993e-17
5896.00034 1.98926e-17
5897.00024 2.00035e-17
5898.00014 1.92969e-17
5899.00004 1.92248e-17
5899.99994 1.90163e-17
5900.99984 1.89604e-17
5901.99974 1.90826e-17
5902.99964 1.99984e-17
5903.99954 2.01908e-17
5904.99944 2.01899e-17
5905.99934 2.01891e-17
5906.99924 2.01883e-17
5907.99914 1.90778e-17
5908.99904 1.93364e-17
5909.99894 1.93850e-17
5910.99884 1.98446e-17
5911.99874 2.02034e-17
5912.99864 2.03110e-17
5913.99854 2.08948e-17
5914.99844 2.08939e-17
5915.99834 2.07771e-17
5916.99824 2.06813e-17
5917.99814 2.05240e-17
5918.99804 2.05232e-17
5919.99794 2.06788e-17
5920.99784 2.09537e-17
5921.99774 2.10153e-17
5922.99764 2.10145e-17
5923.99754 2.14223e-17
5924.99744 2.16097e-17
5925.99734 2.16088e-17
5926.99724 2.16281e-17
5927.99714 2.16070e-17
5928.99704 2.16061e-17
5929.99694 2.16052e-17
5930.99684 2.16043e-17
5931.99674 2.15356e-17
5932.99664 2.15348e-17
5933.99654 2.09591e-17
5934.99644 2.09583e-17
5935.99634 2.12096e-17
5936.99624 2.09566e-17
5937.99614 2.07561e-17
5938.99604 2.02889e-17
5939.99594 2.02881e-17
5940.99584 2.02873e-17
5941.99574 2.06082e-17
5942.99564 2.06073e-17
5943.99554 2.00408e-17
5944.99544 1.92879e-17
5945.99534 1.90979e-17
5946.99524 1.90971e-17
5947.99514 1.90963e-17
5949.00504 1.89594e-17
5950.00494 1.89586e-17
5951.00484 1.90094e-17
5952.00474 1.90086e-17
5953.00464 1.90924e-17
5954.00454 1.92808e-17
5955.00444 1.90909e-17
5956.00434 1.93729e-17
5957.00424 1.94322e-17
5958.00414 1.94314e-17
5959.00404 1.94307e-17
5960.00394 1.94299e-17
5961.00384 1.95551e-17
5962.00374 1.98078e-17
5963.00364 2.00993e-17
5964.00354 1.99570e-17
5965.00344 1.98054e-17
5966.00334 1.90842e-17
5967.00324 1.87447e-17
5968.00314 1.84110e-17
5969.00304 1.84103e-17
5970.00294 1.84670e-17
5971.00284 1.84508e-17
5972.00274 1.84501e-17
5973.00264 1.84493e-17
5974.00254 1.84422e-17
5975.00244 1.84415e-17
5976.00234 1.84471e-17
5977.00224 1.84400e-17
5978.00214 1.84457e-17
5979.00204 1.84604e-17
5980.00194 1.86834e-17
5981.00184 1.91419e-17
5982.00174 1.92184e-17
5983.00164 1.92177e-17
5984.00154 1.86804e-17
5985.00144 1.80723e-17
5986.00134 1.77907e-17
5987.00124 1.80708e-17
5988.00114 1.89633e-17
5989.00104 1.89625e-17
5990.00094 1.76361e-17
5991.00084 1.73851e-17
5992.00074 1.71964e-17
5993.00064 1.71957e-17
5994.00054 1.71951e-17
5995.00044 1.73692e-17
5996.00034 1.73685e-17
5997.00024 1.71930e-17
5998.00014 1.67556e-17
5999.00004 1.66334e-17
5999.99994 1.65412e-17
6000.99984 1.62627e-17
6001.99974 1.58592e-17
6002.99964 1.50680e-17
6003.99954 1.50118e-17
6004.99944 1.49125e-17
6005.99934 1.50107e-17
6006.99924 1.50101e-17
6007.99914 1.50095e-17
6008.99904 1.50089e-17
6009.99894 1.50083e-17
6010.99884 1.49090e-17
6011.99874 1.51166e-17
6012.99864 1.57703e-17
6013.99854 1.59365e-17
6014.99844 1.61454e-17
6015.99834 1.62948e-17
6016.99824 1.62130e-17
6017.99814 1.61435e-17
6018.99804 1.61429e-17
6019.99794 1.61423e-17
6020.99784 1.61416e-17
6021.99774 1.53489e-17
6022.99764 1.53483e-17
6023.99754 1.53273e-17
6024.99744 1.49066e-17
6025.99734 1.49060e-17
6026.99724 1.49054e-17
6027.99714 1.51119e-17
6028.99704 1.53243e-17
6029.99694 1.53237e-17
6030.99684 1.49031e-17
6031.99674 1.46715e-17
6032.99664 1.46126e-17
6033.99654 1.45369e-17
6034.99644 1.46115e-17
6035.99634 1.46692e-17
6036.99624 1.45352e-17
6037.99614 1.46681e-17
6038.99604 1.46676e-17
6039.99594 1.46670e-17
6040.99584 1.45330e-17
6041.99574 1.45122e-17
6042.99564 1.44944e-17
6043.99554 1.44938e-17
6044.99544 1.44933e-17
6045.99534 1.44927e-17
6046.99524 1.44794e-17
6047.99514 1.43317e-17
6048.99504 1.42165e-17
6049.99494 1.40527e-17
6051.00484 1.40354e-17
6052.00474 1.40516e-17
6053.00464 1.40511e-17
6054.00454 1.40506e-17
6055.00444 1.40500e-17
6056.00434 1.40495e-17
6057.00424 1.40322e-17
6058.00414 1.45342e-17
6059.00404 1.45337e-17
6060.00394 1.45331e-17
6061.00384 1.45326e-17
6062.00374 1.45320e-17
6063.00364 1.41792e-17
6064.00354 1.38263e-17
6065.00344 1.28459e-17
6066.00334 1.27945e-17
6067.00324 1.28449e-17
6068.00314 1.28445e-17
6069.00304 1.28440e-17
6070.00294 1.28435e-17
6071.00284 1.28430e-17
6072.00274 1.27916e-17
6073.00264 1.31296e-17
6074.00254 1.37452e-17
6075.00244 1.38304e-17
6076.00234 1.37442e-17
6077.00224 1.38294e-17
6078.00214 1.40612e-17
6079.00204 1.42387e-17
6080.00194 1.42381e-17
6081.00184 1.42663e-17
6082.00174 1.42371e-17
6083.00164 1.42365e-17
6084.00154 1.44656e-17
6085.00144 1.44651e-17
6086.00134 1.42350e-17
6087.00124 1.42344e-17
6088.00114 1.40253e-17
6089.00104 1.37451e-17
6090.00094 1.35983e-17
6091.00084 1.37441e-17
6092.00074 1.37436e-17
6093.00064 1.37431e-17
6094.00054 1.37426e-17
6095.00044 1.37420e-17
6096.00034 1.34319e-17
6097.00024 1.34314e-17
6098.00014 1.34309e-17
6099.00004 1.35869e-17
6099.99994 1.35932e-17
6100.99984 1.38899e-17
6101.99974 1.38894e-17
6102.99964 1.38889e-17
6103.99954 1.38693e-17
6104.99944 1.33467e-17
6105.99934 1.33462e-17
6106.99924 1.35829e-17
6107.99914 1.38673e-17
6108.99904 1.41709e-17
6109.99894 1.42966e-17
6110.99884 1.43573e-17
6111.99874 1.44517e-17
6112.99864 1.43562e-17
6113.99854 1.44507e-17
6114.99844 1.46085e-17
6115.99834 1.47285e-17
6116.99824 1.47649e-17
6117.99814 1.47644e-17
6118.99804 1.51950e-17
6119.99794 1.51944e-17
6120.99784 1.47258e-17
6121.99774 1.44286e-17
6122.99764 1.44281e-17
6123.99754 1.44276e-17
6124.99744 1.44271e-17
6125.99734 1.43464e-17
6126.99724 1.44260e-17
6127.99714 1.43454e-17
6128.99704 1.41608e-17
6129.99694 1.42021e-17
6130.99684 1.42016e-17
6131.99674 1.42011e-17
6132.99664 1.45293e-17
6133.99654 1.49081e-17
6134.99644 1.49512e-17
6135.99634 1.51219e-17
6136.99624 1.51214e-17
6137.99614 1.54429e-17
6138.99604 1.54947e-17
6139.99594 1.60000e-17
6140.99584 1.59994e-17
6141.99574 1.61344e-17
6142.99564 1.61338e-17
6143.99554 1.61332e-17
6144.99544 1.61327e-17
6145.99534 1.61321e-17
6146.99524 1.55842e-17
6147.99514 1.56583e-17
6149.00504 1.56577e-17
6150.00494 1.56572e-17
6151.00484 1.55819e-17
6152.00474 1.55039e-17
6153.00464 1.54115e-17
6154.00454 1.52479e-17
6155.00444 1.50863e-17
6156.00434 1.50857e-17
6157.00424 1.38669e-17
6158.00414 1.29059e-17
6159.00404 1.31360e-17
6160.00394 1.31355e-17
6161.00384 1.31351e-17
6162.00374 1.31346e-17
6163.00364 1.31341e-17
6164.00354 1.29032e-17
6165.00344 1.29373e-17
6166.00334 1.29368e-17
6167.00324 1.29363e-17
6168.00314 1.29409e-17
6169.00304 1.33738e-17
6170.00294 1.36481e-17
6171.00284 1.36476e-17
6172.00274 1.36471e-17
6173.00264 1.36467e-17
6174.00254 1.33714e-17
6175.00244 1.36457e-17
6176.00234 1.41218e-17
6177.00224 1.41290e-17
6178.00214 1.42145e-17
6179.00204 1.42140e-17
6180.00194 1.42135e-17
6181.00184 1.41496e-17
6182.00174 1.41491e-17
6183.00164 1.41486e-17
6184.00154 1.43741e-17
6185.00144 1.43736e-17
6186.00134 1.42105e-17
6187.00124 1.40229e-17
6188.00114 1.40225e-17
6189.00104 1.40220e-17
6190.00094 1.42089e-17
6191.00084 1.42722e-17
6192.00074 1.42717e-17
6193.00064 1.42074e-17
6194.00054 1.42707e-17
6195.00044 1.42702e-17
6196.00034 1.42697e-17
6197.00024 1.44968e-17
6198.00014 1.49003e-17
6199.00004 1.49072e-17
6199.99994 1.52175e-17
6200.99984 1.52694e-17
6201.99974 1.52689e-17
6202.99964 1.52273e-17
6203.99954 1.52020e-17
6204.99944 1.52014e-17
6205.99934 1.52009e-17
6206.99924 1.58304e-17
6207.99914 1.58333e-17
6208.99904 1.58465e-17
6209.99894 1.58460e-17
6210.99884 1.58454e-17
6211.99874 1.51977e-17
6212.99864 1.59813e-17
6213.99854 1.63535e-17
6214.99844 1.64894e-17
6215.99834 1.65708e-17
6216.99824 1.72620e-17
6217.99814 1.72614e-17
6218.99804 1.65691e-17
6219.99794 1.65685e-17
6220.99784 1.65680e-17
6221.99774 1.65674e-17
6222.99764 1.65668e-17
6223.99754 1.63951e-17
6224.99744 1.63946e-17
6225.99734 1.63711e-17
6226.99724 1.63934e-17
6227.99714 1.63929e-17
6228.99704 1.63923e-17
6229.99694 1.63917e-17
6230.99684 1.63912e-17
6231.99674 1.68325e-17
6232.99664 1.68319e-17
6233.99654 1.68313e-17
6234.99644 1.70417e-17
6235.99634 1.73040e-17
6236.99624 1.74305e-17
6237.99614 1.75831e-17
6238.99604 1.74293e-17
6239.99594 1.70593e-17
6240.99584 1.70587e-17
6241.99574 1.72982e-17
6242.99564 1.73010e-17
6243.99554 1.75795e-17
6244.99544 1.76085e-17
6245.99534 1.76415e-17
6246.99524 1.76409e-17
6247.99514 1.85450e-17
6248.99504 1.85548e-17
6249.99494 1.85492e-17
6251.00484 1.85431e-17
6252.00474 1.85551e-17
6253.00464 1.85473e-17
6254.00454 1.85412e-17
6255.00444 1.84646e-17
6256.00434 1.81831e-17
6257.00424 1.71851e-17
6258.00414 1.77185e-17
6259.00404 1.73351e-17
6260.00394 1.71834e-17
6261.00384 1.70822e-17
6262.00374 1.67939e-17
6263.00364 1.67933e-17
6264.00354 1.70805e-17
6265.00344 1.73316e-17
6266.00334 1.73310e-17
6267.00324 1.71793e-17
6268.00314 1.70781e-17
6269.00304 1.70776e-17
6270.00294 1.70770e-17
6271.00284 1.75185e-17
6272.00274 1.79575e-17
6273.00264 1.79569e-17
6274.00254 1.79563e-17
6275.00244 1.70907e-17
6276.00234 1.69549e-17
6277.00224 1.68326e-17
6278.00214 1.68320e-17
6279.00204 1.67962e-17
6280.00194 1.64995e-17
6281.00184 1.64989e-17
6282.00174 1.64951e-17
6283.00164 1.63861e-17
6284.00154 1.59855e-17
6285.00144 1.58756e-17
6286.00134 1.58750e-17
6287.00124 1.59839e-17
6288.00114 1.61711e-17
6289.00104 1.63630e-17
6290.00094 1.63737e-17
6291.00084 1.61694e-17
6292.00074 1.58718e-17
6293.00064 1.58713e-17
6294.00054 1.58708e-17
6295.00044 1.57681e-17
6296.00034 1.63591e-17
6297.00024 1.63586e-17
6298.00014 1.60154e-17
6299.00004 1.60149e-17
6299.99994 1.57284e-17
6300.99984 1.56805e-17
6301.99974 1.52784e-17
6302.99964 1.51211e-17
6303.99954 1.51156e-17
6304.99944 1.51198e-17
6305.99934 1.51145e-17
6306.99924 1.51188e-17
6307.99914 1.51135e-17
6308.99904 1.42683e-17
6309.99894 1.39313e-17
6310.99884 1.38427e-17
6311.99874 1.38422e-17
6312.99864 1.36719e-17
6313.99854 1.36714e-17
6314.99844 1.36709e-17
6315.99834 1.35644e-17
6316.99824 1.35639e-17
6317.99814 1.35112e-17
6318.99804 1.33164e-17
6319.99794 1.33159e-17
6320.99784 1.33155e-17
6321.99774 1.32028e-17
6322.99764 1.30640e-17
6323.99754 1.27613e-17
6324.99744 1.25747e-17
6325.99734 1.25660e-17
6326.99724 1.24861e-17
6327.99714 1.24857e-17
6328.99704 1.23175e-17
6329.99694 1.23171e-17
6330.99684 1.22477e-17
6331.99674 1.20170e-17
6332.99664 1.20166e-17
6333.99654 1.19482e-17
6334.99644 1.17973e-17
6335.99634 1.12071e-17
6336.99624 1.04027e-17
6337.99614 1.03095e-17
6338.99604 1.03092e-17
6339.99594 1.03033e-17
6340.99584 1.02914e-17
6341.99574 1.01949e-17
6342.99564 1.01945e-17
6343.99554 1.02904e-17
6344.99544 1.02900e-17
6345.99534 1.03013e-17
6346.99524 1.03010e-17
6347.99514 1.03006e-17
6349.00504 1.01925e-17
6350.00494 1.01922e-17
6351.00484 1.01919e-17
6352.00474 9.98120e-18
6353.00464 9.46310e-18
6354.00454 9.82415e-18
6355.00444 9.82383e-18
6356.00434 9.82351e-18
6357.00424 9.82319e-18
6358.00414 9.82286e-18
6359.00404 9.46124e-18
6360.00394 9.82222e-18
6361.00384 9.82190e-18
6362.00374 9.82158e-18
6363.00364 9.82126e-18
6364.00354 9.82094e-18
6365.00344 9.81738e-18
6366.00334 9.85461e-18
6367.00324 9.85429e-18
6368.00314 9.85397e-18
6369.00304 9.85365e-18
6370.00294 9.85333e-18
6371.00284 9.81546e-18
6372.00274 9.85269e-18
6373.00264 1.01870e-17
6374.00254 1.02559e-17
6375.00244 1.04891e-17
6376.00234 1.05206e-17
6377.00224 1.05203e-17
6378.00214 1.06799e-17
6379.00204 1.08210e-17
6380.00194 1.16975e-17
6381.00184 1.26266e-17
6382.00174 1.30600e-17
6383.00164 1.30634e-17
6384.00154 1.30629e-17
6385.00144 1.35389e-17
6386.00134 1.40577e-17
6387.00124 1.42010e-17
6388.00114 1.46072e-17
6389.00104 1.46067e-17
6390.00094 1.46466e-17
6391.00084 1.49010e-17
6392.00074 1.52137e-17
6393.00064 1.52968e-17
6394.00054 1.52964e-17
6395.00044 1.67937e-17
6396.00034 1.68736e-17
6397.00024 1.68953e-17
6398.00014 1.68947e-17
6399.00004 1.72245e-17
6399.99994 1.77023e-17
6400.99984 1.81039e-17
6401.99974 1.81098e-17
6402.99964 1.81092e-17
6403.99954 1.85253e-17
6404.99944 1.92484e-17
6405.99934 1.96348e-17
6406.99924 2.19489e-17
6407.99914 2.21681e-17
6408.99904 2.21955e-17
6409.99894 2.21947e-17
6410.99884 2.25424e-17
6411.99874 2.38353e-17
6412.99864 2.38272e-17
6413.99854 2.38265e-17
6414.99844 2.38257e-17
6415.99834 2.38249e-17
6416.99824 2.32857e-17
6417.99814 2.33946e-17
6418.99804 2.33938e-17
6419.99794 2.33931e-17
6420.99784 2.33923e-17
6421.99774 2.33916e-17
6422.99764 2.32812e-17
6423.99754 2.33962e-17
6424.99744 2.33954e-17
6425.99734 2.45173e-17
6426.99724 2.47734e-17
6427.99714 2.53932e-17
6428.99704 2.64001e-17
6429.99694 2.64178e-17
6430.99684 2.94197e-17
6431.99674 2.94187e-17
6432.99664 2.94178e-17
6433.99654 2.94168e-17
6434.99644 2.95158e-17
6435.99634 2.95742e-17
6436.99624 3.03839e-17
6437.99614 2.95130e-17
6438.99604 2.95120e-17
6439.99594 2.94896e-17
6440.99584 2.94887e-17
6441.99574 2.93078e-17
6442.99564 2.98102e-17
6443.99554 2.95206e-17
6444.99544 2.98083e-17
6445.99534 2.98073e-17
6447.00523 3.02899e-17
6448.00513 3.02890e-17
6449.00504 3.02880e-17
6450.00493 3.02455e-17
6451.00483 2.95140e-17
6452.00473 2.95130e-17
6453.00463 3.02426e-17
6454.00454 3.02888e-17
6455.00443 3.08665e-17
6456.00433 3.09067e-17
6457.00423 3.08646e-17
6458.00414 3.02378e-17
6459.00403 3.01681e-17
6460.00393 3.01622e-17
6461.00383 3.01613e-17
6462.00373 3.01603e-17
6463.00364 2.97233e-17
6464.00353 3.01584e-17
6465.00343 3.01574e-17
6466.00333 3.01565e-17
6467.00324 3.01555e-17
6468.00313 3.01595e-17
6469.00303 2.97177e-17
6470.00293 3.02346e-17
6471.00283 3.08871e-17
6472.00274 3.12599e-17
6473.00263 3.13326e-17
6474.00253 3.13316e-17
6475.00243 3.16958e-17
6476.00234 3.17545e-17
6477.00223 3.18949e-17
6478.00213 3.20150e-17
6479.00203 3.21611e-17
6480.00193 3.21601e-17
6481.00184 3.21642e-17
6482.00173 3.21632e-17
6483.00163 3.21621e-17
6484.00153 3.22138e-17
6485.00144 3.23409e-17
6486.00133 3.23445e-17
6487.00123 3.23388e-17
6488.00113 3.22097e-17
6489.00103 3.21561e-17
6490.00094 3.20665e-17
6491.00083 2.97721e-17
6492.00073 3.28071e-17
6493.00063 3.28107e-17
6494.00054 3.26906e-17
6495.00043 3.11723e-17
6496.00033 3.11714e-17
6497.00023 2.97665e-17
6498.00013 3.11694e-17
6499.00004 3.12134e-17
6499.99993 3.15084e-17
6500.99983 3.18488e-17
6501.99973 3.18478e-17
6502.99964 3.15055e-17
6503.99953 3.12085e-17
6504.99943 3.11625e-17
6505.99933 3.00199e-17
6506.99923 3.00189e-17
6507.99914 2.99342e-17
6508.99903 2.84715e-17
6509.99893 2.84466e-17
6510.99883 2.81188e-17
6511.99874 2.84449e-17
6512.99863 2.84440e-17
6513.99853 2.86334e-17
6514.99843 2.81153e-17
6515.99833 2.81102e-17
6516.99824 2.77154e-17
6517.99813 2.77103e-17
6518.99803 2.72458e-17
6519.99793 2.72406e-17
6520.99784 2.57442e-17
6521.99773 2.72389e-17
6522.99763 2.72380e-17
6523.99753 2.72372e-17
6524.99743 2.57367e-17
6525.99734 2.56136e-17
6526.99723 2.55093e-17
6527.99713 2.55070e-17
6528.99703 2.55062e-17
6529.99694 2.57327e-17
6530.99683 2.57361e-17
6531.99673 2.55053e-17
6532.99663 2.54835e-17
6533.99653 2.50972e-17
6534.99644 2.48751e-17
6535.99633 2.47344e-17
6536.99623 2.46952e-17
6537.99613 2.46944e-17
6538.99604 2.46936e-17
6539.99593 2.41396e-17
6540.99583 2.39602e-17
6541.99573 2.28947e-17
6542.99563 2.35027e-17
6543.99554 2.35020e-17
6544.99543 2.28925e-17
6545.99533 2.28642e-17
6546.99523 2.20658e-17
6547.99514 2.20327e-17
6549.00503 2.20320e-17
6550.00493 2.20313e-17
6551.00483 2.19348e-17
6552.00473 2.17872e-17
6553.00463 2.17010e-17
6554.00453 2.17003e-17
6555.00443 2.16996e-17
6556.00433 2.20272e-17
6557.00423 2.20539e-17
6558.00413 2.20532e-17
6559.00403 2.20816e-17
6560.00393 2.21184e-17
6561.00383 2.28858e-17
6562.00373 2.43530e-17
6563.00363 2.43523e-17
6564.00353 2.48706e-17
6565.00343 2.50358e-17
6566.00333 2.52194e-17
6567.00323 2.62048e-17
6568.00313 2.62379e-17
6569.00303 2.66651e-17
6570.00293 2.70057e-17
6571.00283 2.70401e-17
6572.00273 2.81245e-17
6573.00263 2.81538e-17
6574.00253 2.81529e-17
6575.00243 2.81520e-17
6576.00233 2.81512e-17
6577.00223 2.81503e-17
6578.00213 2.70463e-17
6579.00203 2.71378e-17
6580.00193 2.71369e-17
6581.00183 2.70457e-17
6582.00173 2.70430e-17
6583.00163 2.70056e-17
6584.00153 2.64780e-17
6585.00143 2.64772e-17
6586.00133 2.64764e-17
6587.00123 2.71310e-17
6588.00113 2.72767e-17
6589.00103 2.72759e-17
6590.00093 2.84088e-17
6591.00083 2.84191e-17
6592.00073 2.86087e-17
6593.00063 2.86593e-17
6594.00053 2.86701e-17
6595.00043 2.98490e-17
6596.00033 2.98481e-17
6597.00023 2.86674e-17
6598.00013 3.06125e-17
6599.00003 3.12794e-17
6599.99993 3.14931e-17
6600.99983 3.31985e-17
6601.99973 3.31975e-17
6602.99963 3.31964e-17
6603.99953 3.31954e-17
6604.99943 3.31944e-17
6605.99933 3.27436e-17
6606.99923 3.03610e-17
6607.99913 3.27416e-17
6608.99903 3.27406e-17
6609.99893 3.27396e-17
6610.99883 3.12707e-17
6611.99873 3.12536e-17
6612.99863 3.03554e-17
6613.99853 3.12516e-17
6614.99843 3.12668e-17
6615.99833 3.38954e-17
6616.99823 3.38943e-17
6617.99813 3.30135e-17
6618.99803 3.30124e-17
6619.99793 3.30114e-17
6620.99783 3.38901e-17
6621.99773 3.42434e-17
6622.99763 3.42972e-17
6623.99753 3.44625e-17
6624.99743 3.44614e-17
6625.99733 3.42940e-17
6626.99723 3.42930e-17
6627.99713 3.42919e-17
6628.99703 3.43226e-17
6629.99693 3.44561e-17
6630.99683 3.46796e-17
6631.99673 3.46950e-17
6632.99663 3.47963e-17
6633.99653 3.48190e-17
6634.99643 3.48179e-17
6635.99633 3.66167e-17
6636.99623 3.65936e-17
6637.99613 3.65924e-17
6638.99603 3.65913e-17
6639.99593 3.65902e-17
6640.99583 3.62566e-17
6641.99573 3.63933e-17
6642.99563 3.63921e-17
6643.99553 3.63910e-17
6644.99543 3.62521e-17
6645.99533 3.58831e-17
6647.00523 3.49541e-17
6648.00513 3.48151e-17
6649.00503 3.48141e-17
6650.00493 3.16791e-17
6651.00483 3.49099e-17
6652.00473 3.49089e-17
6653.00463 3.49078e-17
6654.00453 3.49067e-17
6655.00443 3.49056e-17
6656.00433 3.16733e-17
6657.00423 3.49035e-17
6658.00413 3.50168e-17
6659.00403 3.54112e-17
6660.00393 3.54101e-17
6661.00383 3.54090e-17
6662.00373 3.54079e-17
6663.00363 3.54069e-17
6664.00353 3.53959e-17
6665.00343 3.50324e-17
6666.00333 3.16829e-17
6667.00323 3.22984e-17
6668.00313 3.22974e-17
6669.00303 3.22965e-17
6670.00293 3.22955e-17
6671.00283 3.22945e-17
6672.00273 3.16771e-17
6673.00263 3.16761e-17
6674.00253 3.14724e-17
6675.00243 3.11782e-17
6676.00233 3.11772e-17
6677.00223 3.04594e-17
6678.00213 3.04585e-17
6679.00203 2.97853e-17
6680.00193 2.96828e-17
6681.00183 2.96819e-17
6682.00173 2.96268e-17
6683.00163 2.89900e-17
6684.00153 2.89891e-17
6685.00143 2.89882e-17
6686.00133 2.94321e-17
6687.00123 2.96223e-17
6688.00113 2.96756e-17
6689.00103 2.96205e-17
6690.00093 2.95744e-17
6691.00083 2.93828e-17
6692.00073 2.93819e-17
6693.00063 2.93810e-17
6694.00053 2.93801e-17
6695.00043 2.93562e-17
6696.00033 2.83817e-17
6697.00023 2.83636e-17
6698.00013 2.81086e-17
6699.00003 2.71783e-17
6699.99993 2.71560e-17
6700.99983 2.66048e-17
6701.99973 2.61402e-17
6702.99963 2.61394e-17
6703.99953 2.61312e-17
6704.99943 2.59838e-17
6705.99933 2.59830e-17
6706.99923 2.59822e-17
6707.99913 2.60317e-17
6708.99903 2.61272e-17
6709.99893 2.61338e-17
6710.99883 2.61330e-17
6711.99873 2.71048e-17
6712.99863 2.71553e-17
6713.99853 2.71545e-17
6714.99843 2.71536e-17
6715.99833 2.71528e-17
6716.99823 2.71520e-17
6717.99813 2.55943e-17
6718.99803 2.50599e-17
6719.99793 2.55927e-17
6720.99783 2.55919e-17
6721.99773 2.55912e-17
6722.99763 2.55904e-17
6723.99753 2.55896e-17
6724.99743 2.50259e-17
6725.99733 2.48827e-17
6726.99723 2.39606e-17
6727.99713 2.39599e-17
6728.99703 2.39591e-17
6729.99693 2.35162e-17
6730.99683 2.47613e-17
6731.99673 2.47605e-17
6732.99663 2.47598e-17
6733.99653 2.47590e-17
6734.99643 2.47583e-17
6735.99633 2.35119e-17
6736.99623 2.41406e-17
6737.99613 2.41600e-17
6738.99603 2.45102e-17
6739.99593 2.46547e-17
6740.99583 2.47602e-17
6741.99573 2.47759e-17
6742.99563 2.47751e-17
6743.99553 2.47786e-17
6744.99543 2.46509e-17
6745.99533 2.45050e-17
6746.99523 2.41534e-17
6747.99513 2.41526e-17
6749.00503 2.33019e-17
6750.00493 2.40006e-17
6751.00483 2.39999e-17
6752.00473 2.39992e-17
6753.00463 2.39984e-17
6754.00453 2.32983e-17
6755.00443 2.32748e-17
6756.00433 2.32741e-17
6757.00423 2.32734e-17
6758.00413 2.32727e-17
6759.00403 2.32720e-17
6760.00393 2.15121e-17
6761.00383 2.05755e-17
6762.00373 2.05577e-17
6763.00363 2.04106e-17
6764.00353 2.05565e-17
6765.00343 2.05558e-17
6766.00333 2.05552e-17
6767.00323 2.05546e-17
6768.00313 2.05711e-17
6769.00303 2.04068e-17
6770.00293 2.05844e-17
6771.00283 2.07148e-17
6772.00273 2.07312e-17
6773.00263 2.07306e-17
6774.00253 2.07299e-17
6775.00243 2.07293e-17
6776.00233 2.14701e-17
6777.00223 2.14694e-17
6778.00213 2.14687e-17
6779.00203 2.07268e-17
6780.00193 2.07091e-17
6781.00183 2.04546e-17
6782.00173 2.04476e-17
6783.00163 2.03318e-17
6784.00153 2.00851e-17
6785.00143 2.00784e-17
6786.00133 1.93135e-17
6787.00123 1.92903e-17
6788.00113 1.91805e-17
6789.00103 1.81374e-17
6790.00093 1.81368e-17
6791.00083 1.80939e-17
6792.00073 1.80168e-17
6793.00063 1.80162e-17
6794.00053 1.80015e-17
6795.00043 1.79753e-17
6796.00033 1.79313e-17
6797.00023 1.76647e-17
6798.00013 1.75056e-17
6799.00003 1.75050e-17
6799.99993 1.74911e-17
6800.99983 1.73191e-17
6801.99973 1.73186e-17
6802.99963 1.73181e-17
6803.99953 1.74321e-17
6804.99943 1.74885e-17
6805.99933 1.75013e-17
6806.99923 1.75007e-17
6807.99913 1.75002e-17
6808.99903 1.72473e-17
6809.99893 1.71638e-17
6810.99883 1.71632e-17
6811.99873 1.70292e-17
6812.99863 1.70287e-17
6813.99853 1.70215e-17
6814.99843 1.70277e-17
6815.99833 1.70205e-17
6816.99823 1.68143e-17
6817.99813 1.67580e-17
6818.99803 1.60234e-17
6819.99793 1.58659e-17
6820.99783 1.56203e-17
6821.99773 1.56198e-17
6822.99763 1.56194e-17
6823.99753 1.56189e-17
6824.99743 1.56072e-17
6825.99733 1.54183e-17
6826.99723 1.52396e-17
6827.99713 1.52283e-17
6828.99703 1.46514e-17
6829.99693 1.42635e-17
6830.99683 1.46505e-17
6831.99673 1.46500e-17
6832.99663 1.46496e-17
6833.99653 1.46491e-17
6834.99643 1.46487e-17
6835.99633 1.42609e-17
6836.99623 1.46680e-17
6837.99613 1.46939e-17
6838.99603 1.47037e-17
6839.99593 1.47396e-17
6840.99583 1.47391e-17
6841.99573 1.47023e-17
6842.99563 1.46917e-17
6843.99553 1.24948e-17
6844.99543 1.23966e-17
6845.99533 1.23892e-17
6847.00523 1.23456e-17
6848.00513 1.23453e-17
6849.00503 1.23223e-17
6850.00493 1.21768e-17
6851.00483 1.23216e-17
6852.00473 1.23212e-17
6853.00463 1.23208e-17
6854.00453 1.23288e-17
6855.00443 1.23284e-17
6856.00433 1.21745e-17
6857.00423 1.23238e-17
6858.00413 1.23234e-17
6859.00403 1.23230e-17
6860.00393 1.23226e-17
6861.00383 1.23223e-17
6862.00373 1.16500e-17
6863.00363 1.16497e-17
6864.00353 1.15846e-17
6865.00343 1.14831e-17
6866.00333 1.14752e-17
6867.00323 1.14824e-17
6868.00313 1.14821e-17
6869.00303 1.14742e-17
6870.00293 1.12926e-17
6871.00283 1.12474e-17
6872.00273 1.09153e-17
6873.00263 1.09150e-17
6874.00253 1.09146e-17
6875.00243 1.11915e-17
6876.00233 1.11912e-17
6877.00223 1.08238e-17
6878.00213 1.06048e-17
6879.00203 1.05853e-17
6880.00193 1.02691e-17
6881.00183 1.02688e-17
6882.00173 9.73971e-18
6883.00163 9.16280e-18
6884.00153 9.15667e-18
6885.00143 9.16224e-18
6886.00133 9.16196e-18
6887.00123 9.16168e-18
6888.00113 9.16139e-18
6889.00103 9.16111e-18
6890.00093 8.92895e-18
6891.00083 8.89430e-18
6892.00073 8.89403e-18
6893.00063 8.89375e-18
6894.00053 8.92785e-18
6895.00043 9.19897e-18
6896.00033 9.18215e-18
6897.00023 8.89266e-18
6898.00013 8.37715e-18
6899.00003 8.31919e-18
6899.99993 8.30398e-18
6900.99983 7.62735e-18
6901.99973 7.62712e-18
6902.99963 7.59015e-18
6903.99953 7.59462e-18
6904.99943 7.58968e-18
6905.99933 7.45648e-18
6906.99923 7.41914e-18
6907.99913 7.41891e-18
6908.99903 7.41868e-18
6909.99893 7.44387e-18
6910.99883 7.58828e-18
6911.99873 7.59275e-18
6912.99863 7.59252e-18
6913.99853 7.68663e-18
6914.99843 8.10906e-18
6915.99833 8.11381e-18
6916.99823 8.18802e-18
6917.99813 8.19282e-18
6918.99803 8.19257e-18
6919.99793 8.57857e-18
6920.99783 8.57830e-18
6921.99773 8.57804e-18
6922.99763 8.63260e-18
6923.99753 8.63763e-18
6924.99743 8.70370e-18
6925.99733 8.70343e-18
6926.99723 8.70316e-18
6927.99713 8.63657e-18
6928.99703 8.70262e-18
6929.99693 9.17523e-18
6930.99683 9.19147e-18
6931.99673 9.89207e-18
6932.99663 1.02090e-17
6933.99653 1.02271e-17
6934.99643 1.11756e-17
6935.99633 1.11752e-17
6936.99623 1.11749e-17
6937.99613 1.11523e-17
6938.99603 1.11519e-17
6939.99593 1.11516e-17
6940.99583 1.11908e-17
6941.99573 1.11933e-17
6942.99563 1.11929e-17
6943.99553 1.13124e-17
6944.99543 1.25991e-17
6945.99533 1.25987e-17
6946.99523 1.26668e-17
6947.99513 1.40289e-17
6949.00503 1.40456e-17
6950.00493 1.40534e-17
6951.00483 1.45292e-17
6952.00473 1.45391e-17
6953.00463 1.47165e-17
6954.00453 1.47356e-17
6955.00443 1.47442e-17
6956.00433 1.47437e-17
6957.00423 1.66400e-17
6958.00413 1.66394e-17
6959.00403 1.66389e-17
6960.00393 1.66745e-17
6961.00383 1.70337e-17
6962.00373 1.70437e-17
6963.00363 1.71644e-17
6964.00353 1.72060e-17
6965.00343 1.72160e-17
6966.00333 1.72154e-17
6967.00323 1.74025e-17
6968.00313 1.74122e-17
6969.00303 1.75757e-17
6970.00293 1.75861e-17
6971.00283 1.78795e-17
6972.00273 1.79872e-17
6973.00263 1.83264e-17
6974.00253 1.83366e-17
6975.00243 1.83253e-17
6976.00233 1.83915e-17
6977.00223 1.83909e-17
6978.00213 1.87784e-17
6979.00203 1.97726e-17
6980.00193 1.97720e-17
6981.00183 1.98176e-17
6982.00173 2.01417e-17
6983.00163 2.01529e-17
6984.00153 2.02014e-17
6985.00143 2.05166e-17
6986.00133 2.05392e-17
6987.00123 2.05516e-17
6988.00113 2.05524e-17
6989.00103 2.05647e-17
6990.00093 2.27108e-17
6991.00083 2.34099e-17
6992.00073 2.34553e-17
6993.00063 2.34695e-17
6994.00053 2.34538e-17
6995.00043 2.34680e-17
6996.00033 2.34673e-17
6997.00023 2.48166e-17
6998.00013 2.48158e-17
6999.00003 2.48150e-17
6999.99993 2.49103e-17
7000.99983 2.49553e-17
7001.99973 2.55628e-17
7002.99963 2.55621e-17
7003.99953 2.55613e-17
7004.99943 2.55605e-17
7005.99933 2.55449e-17
7006.99923 2.56586e-17
7007.99913 2.56724e-17
7008.99903 2.72486e-17
7009.99893 2.74593e-17
7010.99883 2.74763e-17
7011.99873 2.74754e-17
7012.99863 2.78162e-17
7013.99853 2.78154e-17
7014.99843 2.78145e-17
7015.99833 2.78136e-17
7016.99823 2.78128e-17
7017.99813 2.76959e-17
7018.99803 2.76950e-17
7019.99793 2.71382e-17
7020.99783 2.67118e-17
7021.99773 2.67919e-17
7022.99763 2.67910e-17
7023.99753 2.67902e-17
7024.99743 2.67894e-17
7025.99733 2.67076e-17
7026.99723 2.63237e-17
7027.99713 2.62829e-17
7028.99703 2.62821e-17
7029.99693 2.62813e-17
7030.99683 2.75190e-17
7031.99673 2.76047e-17
7032.99663 2.76230e-17
7033.99653 2.76222e-17
7034.99643 2.76021e-17
7035.99633 2.76204e-17
7036.99623 2.76196e-17
7037.99613 2.76187e-17
7038.99603 2.76178e-17
7039.99593 2.76170e-17
7040.99583 2.76161e-17
7041.99573 2.64153e-17
7042.99563 2.56070e-17
7043.99553 2.56617e-17
7044.99543 2.56609e-17
7045.99533 2.56601e-17
7047.00523 2.56593e-17
7048.00513 2.56030e-17
7049.00503 2.51220e-17
7050.00493 2.51212e-17
7051.00483 2.55822e-17
7052.00473 2.55998e-17
7053.00463 2.60998e-17
7054.00453 2.61179e-17
7055.00443 2.61361e-17
7056.00433 2.61353e-17
7057.00423 2.72759e-17
7058.00413 2.81722e-17
7059.00403 2.81713e-17
7060.00393 2.95215e-17
7061.00383 3.04660e-17
7062.00373 3.05262e-17
7063.00363 3.06083e-17
7064.00353 3.06074e-17
7065.00343 3.06064e-17
7066.00333 3.05224e-17
7067.00323 3.04603e-17
7068.00313 2.79638e-17
7069.00303 2.78284e-17
7070.00293 2.78060e-17
7071.00283 2.64824e-17
7072.00273 2.60255e-17
7073.00263 2.60247e-17
7074.00253 2.57289e-17
7075.00243 2.54993e-17
7076.00233 2.54985e-17
7077.00223 2.54455e-17
7078.00213 2.54969e-17
7079.00203 2.54961e-17
7080.00193 2.54431e-17
7081.00183 2.48494e-17
7082.00173 2.36490e-17
7083.00163 2.36137e-17
7084.00153 2.35983e-17
7085.00143 2.35975e-17
7086.00133 2.36460e-17
7087.00123 2.38778e-17
7088.00113 2.38770e-17
7089.00103 2.38763e-17
7090.00093 2.38755e-17
7091.00083 2.36423e-17
7092.00073 2.38740e-17
7093.00063 2.44348e-17
7094.00053 2.44340e-17
7095.00043 2.44332e-17
7096.00033 2.44325e-17
7097.00023 2.44317e-17
7098.00013 2.43439e-17
7099.00003 2.43221e-17
7099.99993 2.40413e-17
7100.99983 2.40619e-17
7101.99973 2.40398e-17
7102.99963 2.39798e-17
7103.99953 2.38375e-17
7104.99943 2.38159e-17
7105.99933 2.36952e-17
7106.99923 2.23980e-17
7107.99913 2.23855e-17
7108.99903 2.23764e-17
7109.99893 2.22931e-17
7110.99883 2.22924e-17
7111.99873 2.22430e-17
7112.99863 2.18854e-17
7113.99853 2.17623e-17
7114.99843 2.17616e-17
7115.99833 2.11297e-17
7116.99823 2.06085e-17
7117.99813 2.06208e-17
7118.99803 2.06072e-17
7119.99793 2.05998e-17
7120.99783 2.03170e-17
7121.99773 2.03095e-17
7122.99763 2.02406e-17
7123.99753 2.02399e-17
7124.99743 2.02332e-17
7125.99733 1.98359e-17
7126.99723 1.90882e-17
7127.99713 1.90555e-17
7128.99703 1.90436e-17
7129.99693 1.90430e-17
7130.99683 1.90424e-17
7131.99673 1.90530e-17
7132.99663 1.90846e-17
7133.99653 1.90840e-17
7134.99643 1.90834e-17
7135.99633 1.90506e-17
7136.99623 1.88019e-17
7137.99613 1.87962e-17
7138.99603 1.87576e-17
7139.99593 1.86647e-17
7140.99583 1.86641e-17
7141.99573 1.80663e-17
7142.99563 1.79322e-17
7143.99553 1.79509e-17
7144.99543 1.79503e-17
7145.99533 1.79498e-17
7146.99523 1.79492e-17
7147.99513 1.79486e-17
7149.00503 1.77222e-17
7150.00493 1.77216e-17
7151.00483 1.77210e-17
7152.00473 1.77205e-17
7153.00463 1.70111e-17
7154.00453 1.70298e-17
7155.00443 1.70100e-17
7156.00433 1.69904e-17
7157.00423 1.63993e-17
7158.00413 1.63988e-17
7159.00403 1.63983e-17
7160.00393 1.63983e-17
7161.00383 1.64796e-17
7162.00373 1.64790e-17
7163.00363 1.64340e-17
7164.00353 1.63287e-17
7165.00343 1.63094e-17
7166.00333 1.57083e-17
7167.00323 1.57078e-17
7168.00313 1.57073e-17
7169.00303 1.57068e-17
7170.00293 1.57063e-17
7171.00283 1.57058e-17
7172.00273 1.57038e-17
7173.00263 1.57048e-17
7174.00253 1.59733e-17
7175.00243 1.60849e-17
7176.00233 1.60844e-17
7177.00223 1.60839e-17
7178.00213 1.63116e-17
7179.00203 1.63310e-17
7180.00193 1.64056e-17
7181.00183 1.64281e-17
7182.00173 1.64686e-17
7183.00163 1.64689e-17
7184.00153 1.64675e-17
7185.00143 1.65020e-17
7186.00133 1.65014e-17
7187.00123 1.65009e-17
7188.00113 1.65004e-17
7189.00103 1.64998e-17
7190.00093 1.64807e-17
7191.00083 1.64802e-17
7192.00073 1.64362e-17
7193.00063 1.64791e-17
7194.00053 1.64786e-17
7195.00043 1.64780e-17
7196.00033 1.64775e-17
7197.00023 1.64770e-17
7198.00013 1.69211e-17
7199.00003 1.69206e-17
7199.99993 1.69200e-17
7200.99983 1.69195e-17
7201.99973 1.69577e-17
7202.99963 1.69572e-17
7203.99953 1.69566e-17
7204.99943 1.69561e-17
7205.99933 1.69555e-17
7206.99923 1.69550e-17
7207.99913 1.82131e-17
7208.99903 1.82396e-17
7209.99893 1.86535e-17
7210.99883 1.93411e-17
7211.99873 1.93405e-17
7212.99863 1.87744e-17
7213.99853 1.82367e-17
7214.99843 1.82249e-17
7215.99833 1.82243e-17
7216.99823 1.86493e-17
7217.99813 1.86970e-17
7218.99803 1.87257e-17
7219.99793 1.87251e-17
7220.99783 1.87245e-17
7221.99773 1.86946e-17
7222.99763 1.87233e-17
7223.99753 1.89339e-17
7224.99743 2.20287e-17
7225.99733 2.20220e-17
7226.99723 2.20273e-17
7227.99713 2.20283e-17
7228.99703 2.20276e-17
7229.99693 2.20269e-17
7230.99683 2.20337e-17
7231.99673 2.20255e-17
7232.99663 2.20323e-17
7233.99653 2.20315e-17
7234.99643 2.20308e-17
7235.99633 2.20301e-17
7236.99623 2.20294e-17
7237.99613 2.23964e-17
7238.99603 2.33737e-17
7239.99593 2.33730e-17
7240.99583 2.33722e-17
7241.99573 2.33715e-17
7242.99563 2.33707e-17
7243.99553 2.30255e-17
7244.99543 2.30247e-17
7245.99533 2.26129e-17
7247.00523 2.13994e-17
7248.00513 2.13987e-17
7249.00503 2.13198e-17
7250.00493 2.08011e-17
7251.00483 2.08400e-17
7252.00473 2.08394e-17
7253.00463 2.08387e-17
7254.00453 2.08380e-17
7255.00443 2.08373e-17
7256.00433 2.05035e-17
7257.00423 2.05029e-17
7258.00413 2.05022e-17
7259.00403 2.05015e-17
7260.00393 2.07944e-17
7261.00383 2.08533e-17
7262.00373 2.08725e-17
7263.00363 2.08914e-17
7264.00353 2.08908e-17
7265.00343 2.05589e-17
7266.00333 2.05583e-17
7267.00323 2.06000e-17
7268.00313 2.11100e-17
7269.00303 2.17013e-17
7270.00293 2.17444e-17
7271.00283 2.17878e-17
7272.00273 2.17871e-17
7273.00263 2.25254e-17
7274.00253 2.25247e-17
7275.00243 2.26020e-17
7276.00233 2.37665e-17
7277.00223 2.37657e-17
7278.00213 2.37649e-17
7279.00203 2.37641e-17
7280.00193 2.37634e-17
7281.00183 2.35126e-17
7282.00173 2.35118e-17
7283.00163 2.34752e-17
7284.00153 2.34259e-17
7285.00143 2.34737e-17
7286.00133 2.34730e-17
7287.00123 2.34236e-17
7288.00113 2.30938e-17
7289.00103 2.15038e-17
7290.00093 2.15031e-17
7291.00083 2.15024e-17
7292.00073 2.15336e-17
7293.00063 2.18687e-17
7294.00053 2.18918e-17
7295.00043 2.18911e-17
7296.00033 2.18904e-17
7297.00023 2.18897e-17
7298.00013 2.18651e-17
7299.00003 2.18882e-17
7299.99993 2.21621e-17
7300.99983 2.21875e-17
7301.99973 2.22435e-17
7302.99963 2.39821e-17
7303.99953 2.42953e-17
7304.99943 2.44021e-17
7305.99933 2.44621e-17
7306.99923 2.39789e-17
7307.99913 2.39782e-17
7308.99903 2.39774e-17
7309.26525 2.39774e-17
7310.53838 2.32630e-17
7311.80131 2.31008e-17
7313.07444 2.36425e-17
7314.33738 2.37957e-17
7315.61050 2.40605e-17
7316.87345 2.73009e-17
7318.14657 2.83484e-17
7319.40951 2.46686e-17
7320.68264 2.26288e-17
7321.94557 2.24788e-17
7323.21870 2.37633e-17
7324.48164 2.55232e-17
7325.75476 2.51596e-17
7327.02789 2.56218e-17
7328.29083 2.70776e-17
7329.56395 2.57441e-17
7330.82690 2.54297e-17
7332.10002 2.55945e-17
7333.36296 2.27100e-17
7334.63608 1.99195e-17
7335.89902 2.05370e-17
7337.17215 2.55377e-17
7338.43509 2.80188e-17
7339.70821 2.55452e-17
7340.97116 2.45034e-17
7342.24428 2.66590e-17
7343.51740 2.67071e-17
7344.78034 2.38242e-17
7346.05347 2.43170e-17
7347.31641 2.61069e-17
7348.58953 2.54301e-17
7349.85247 2.50602e-17
7351.12560 2.57701e-17
7352.38854 2.58453e-17
7353.66166 2.49826e-17
7354.92460 2.47094e-17
7356.19773 2.37590e-17
7357.46067 2.25316e-17
7358.73379 2.35035e-17
7360.00692 2.55695e-17
7361.26986 2.64237e-17
7362.54299 2.64382e-17
7363.80592 2.70147e-17
7365.07905 2.66217e-17
7366.34199 2.50891e-17
7367.61511 2.45156e-17
7368.87805 2.62577e-17
7370.15118 2.71954e-17
7371.41412 2.62134e-17
7372.68725 2.43918e-17
7373.96037 2.38324e-17
7375.22331 2.52914e-17
7376.49644 2.65804e-17
7377.75937 2.76546e-17
7379.03250 2.81290e-17
7380.29544 2.82967e-17
7381.56856 2.75839e-17
7382.83150 2.58753e-17
7384.10463 2.53778e-17
7385.36757 2.45710e-17
7386.64070 2.28514e-17
7387.90363 2.41510e-17
7389.17676 2.90417e-17
7390.44988 3.00078e-17
7391.71282 2.74390e-17
7392.98595 2.64186e-17
7394.24889 2.78063e-17
7395.52201 2.73632e-17
7396.78496 2.68120e-17
7398.05808 2.69255e-17
7399.32102 2.80117e-17
7400.59415 3.04187e-17
7401.85708 3.01599e-17
7403.13021 2.87585e-17
7404.39315 2.85909e-17
7405.66627 2.91175e-17
7406.93940 2.92756e-17
7408.20234 2.77177e-17
7409.47547 2.73463e-17
7410.73841 2.82065e-17
7412.01153 2.65050e-17
7413.27447 2.50689e-17
7414.54760 2.52617e-17
7415.81053 2.53831e-17
7417.08366 2.60943e-17
7418.34660 2.63825e-17
7419.61973 2.64954e-17
7420.88267 2.64844e-17
7422.15579 2.55326e-17
7423.42891 2.52331e-17
7424.69186 2.77768e-17
7425.96498 2.95783e-17
7427.22792 2.75598e-17
7428.50104 2.50363e-17
7429.76399 2.53118e-17
7431.03711 2.57679e-17
7432.30005 2.43873e-17
7433.57317 2.31511e-17
7434.83612 2.40579e-17
7436.10924 2.71304e-17
7437.37218 2.72325e-17
7438.64530 2.55939e-17
7439.91843 2.61597e-17
7441.18137 2.86746e-17
7442.45449 2.89315e-17
7443.71743 2.81152e-17
7444.99056 2.78120e-17
7446.25350 2.62581e-17
7447.52662 2.57202e-17
7448.78956 2.71561e-17
7450.06269 2.71265e-17
7451.32563 2.62255e-17
7452.59875 2.57579e-17
7453.87188 2.59773e-17
7455.13482 2.63939e-17
7456.40794 2.66007e-17
7457.67088 2.64274e-17
7458.94401 2.48528e-17
7460.20695 2.29376e-17
7461.48007 2.32120e-17
7462.74301 2.54460e-17
7464.01614 2.60244e-17
7465.27908 2.56990e-17
7466.55220 2.68719e-17
7467.81514 2.58983e-17
7469.08827 2.34259e-17
7470.36139 2.41125e-17
7471.62433 2.54142e-17
7472.89746 2.48905e-17
7474.16040 2.42490e-17
7475.43352 2.36588e-17
7476.69646 2.43802e-17
7477.96959 2.54430e-17
7479.23253 2.44898e-17
7480.50565 2.36600e-17
7481.76859 2.52427e-17
7483.04172 2.68478e-17
7484.30466 2.56722e-17
7485.57778 2.29804e-17
7486.85091 2.33123e-17
7488.11385 2.48383e-17
7489.38698 2.46444e-17
7490.64991 2.37943e-17
7491.92304 2.49868e-17
7493.18598 2.51421e-17
7494.45910 2.28480e-17
7495.72204 2.24582e-17
7496.99517 2.29164e-17
7498.25811 2.26135e-17
7499.53124 2.34278e-17
7500.79417 2.46839e-17
7502.06730 2.46218e-17
7503.34043 2.29678e-17
7504.60336 2.13461e-17
7505.87649 2.15024e-17
7507.13943 2.28412e-17
7508.41255 2.42455e-17
7509.67550 2.58302e-17
7510.94862 2.54189e-17
7512.21156 2.44015e-17
7513.48469 2.52525e-17
7514.74762 2.62784e-17
7516.02075 2.34049e-17
7517.28369 2.05188e-17
7518.55681 2.10528e-17
7519.82994 2.37024e-17
7521.09288 2.71487e-17
7522.36600 2.78807e-17
7523.62895 2.64734e-17
7524.90207 2.64204e-17
7526.16501 2.51594e-17
7527.43813 2.27133e-17
7528.70107 2.12113e-17
7529.97420 2.07215e-17
7531.23714 2.14537e-17
7532.51026 2.25065e-17
7533.78339 2.26092e-17
7535.04633 2.37368e-17
7536.31945 2.64033e-17
7537.58239 2.64180e-17
7538.85552 2.33489e-17
7540.11846 2.29712e-17
7541.39158 2.47727e-17
7542.65452 2.43816e-17
7543.92765 2.38680e-17
7545.19059 2.20968e-17
7546.46371 2.06066e-17
7547.72665 2.22879e-17
7548.99978 2.24279e-17
7550.26272 2.24020e-17
7551.53584 2.23762e-17
7552.80897 2.23503e-17
7554.07191 2.23246e-17
7555.34503 2.22987e-17
7556.60797 2.22729e-17
7557.88110 2.22470e-17
7559.14404 2.22213e-17
7560.41716 2.21955e-17
7561.68010 2.21696e-17
7562.95323 2.21439e-17
7564.21617 2.21180e-17
7565.48929 2.20922e-17
7566.76242 2.20665e-17
7568.02536 2.20406e-17
7569.29849 2.20149e-17
7570.56142 2.19889e-17
7571.83455 2.19632e-17
7573.09749 2.19375e-17
7574.37061 2.19115e-17
7575.63355 2.18858e-17
7576.90668 2.18601e-17
7578.16962 2.18343e-17
7579.44275 2.18084e-17
7580.70568 2.17827e-17
7581.97881 2.17570e-17
7583.25194 2.17312e-17
7584.51487 2.17053e-17
7585.78800 2.16796e-17
7587.05094 2.16538e-17
7588.32406 2.16281e-17
7589.58700 2.16022e-17
7590.86013 2.15765e-17
7592.12307 2.15507e-17
7593.39620 2.15250e-17
7594.65913 2.14993e-17
7595.93226 2.14735e-17
7597.19520 2.14476e-17
7598.46832 2.14219e-17
7599.74145 2.13962e-17
7601.00439 2.13704e-17
7602.27751 2.13447e-17
7603.54046 2.13190e-17
7604.81358 2.12932e-17
7606.07652 2.12675e-17
7607.34965 2.12418e-17
7608.61258 2.12160e-17
7609.88571 2.11903e-17
7611.14865 2.11646e-17
7612.42177 2.11387e-17
7613.69490 2.11129e-17
7614.95784 2.10874e-17
7616.23096 2.10617e-17
7617.49391 2.10359e-17
7618.76703 2.10102e-17
7620.02997 2.09845e-17
7621.30309 2.09587e-17
7622.56603 2.09330e-17
7623.83916 2.09073e-17
7625.10210 2.08816e-17
7626.37522 2.08558e-17
7627.63817 2.08301e-17
7628.91129 2.08044e-17
7630.17423 2.07786e-17
7631.44735 2.07529e-17
7632.72048 2.07274e-17
7633.98342 2.07016e-17
7635.25654 2.06759e-17
7636.51948 2.06502e-17
7637.79261 2.06244e-17
7639.05555 2.05987e-17
7640.32867 2.05732e-17
7641.59161 2.05475e-17
7642.86474 2.05217e-17
7644.12768 2.04960e-17
7645.40080 2.04705e-17
7646.67393 2.04447e-17
7647.93687 2.04190e-17
7649.21000 2.03933e-17
7650.47293 2.03677e-17
7651.74606 2.03420e-17
7653.00900 2.03163e-17
7654.28212 2.02907e-17
7655.54506 2.02650e-17
7656.81819 2.02393e-17
7658.08113 2.02138e-17
7659.35425 2.01880e-17
7660.61719 2.01623e-17
7661.89032 2.01368e-17
7663.16345 2.01110e-17
7664.42638 2.00853e-17
7665.69951 2.00598e-17
7666.96245 2.00340e-17
7668.23557 2.00085e-17
7669.49851 1.99828e-17
7670.77164 1.99572e-17
7672.03458 1.99315e-17
7673.30771 1.99060e-17
7674.57064 1.98802e-17
7675.84377 1.98547e-17
7677.10671 1.98290e-17
7678.37983 1.98034e-17
7679.65296 1.97777e-17
7680.91590 1.97522e-17
7682.18902 1.95178e-17
7683.45197 1.95077e-17
7684.72509 1.97292e-17
7685.98803 2.16165e-17
7687.26116 2.26864e-17
7688.52409 2.18235e-17
7689.79722 2.13463e-17
7691.06016 2.15411e-17
7692.33328 2.18120e-17
7693.59623 2.18108e-17
7694.86935 2.28474e-17
7696.14247 2.38057e-17
7697.40542 2.23853e-17
7698.67854 2.29517e-17
7699.94148 2.35046e-17
7701.21460 2.04748e-17
7702.47754 1.85753e-17
7703.75067 2.08220e-17
7705.01361 2.24735e-17
7706.28673 2.16684e-17
7707.54968 2.02196e-17
7708.82280 2.11337e-17
7710.08574 2.27410e-17
7711.35886 2.29313e-17
7712.63199 2.23770e-17
7713.89493 2.19443e-17
7715.16805 2.30939e-17
7716.43099 2.24739e-17
7717.70412 1.99417e-17
7718.96706 1.93643e-17
7720.24018 1.95233e-17
7721.50312 2.03990e-17
7722.77625 1.89918e-17
7724.03919 1.73286e-17
7725.31231 1.85975e-17
7726.57525 2.04001e-17
7727.84838 1.87349e-17
7729.12150 1.84922e-17
7730.38444 1.97488e-17
7731.65757 2.04616e-17
7732.92051 2.00193e-17
7734.19363 1.86053e-17
7735.45657 1.77931e-17
7736.72970 1.80561e-17
7737.99264 2.02299e-17
7739.26576 2.23411e-17
7740.52870 2.07963e-17
7741.80183 1.87708e-17
7743.07496 1.95205e-17
7744.33789 2.10399e-17
7745.61102 1.97331e-17
7746.87396 1.63232e-17
7748.14708 1.74863e-17
7749.41002 1.87497e-17
7750.68315 1.60702e-17
7751.94609 1.79531e-17
7753.21922 2.16921e-17
7754.48215 2.24965e-17
7755.75528 2.03890e-17
7757.01822 1.77092e-17
7758.29134 1.66048e-17
7759.56447 1.70702e-17
7760.82741 1.79108e-17
7762.10053 1.87382e-17
7763.36348 1.90045e-17
7764.63660 1.85049e-17
7765.89954 1.76408e-17
7767.17267 1.69052e-17
7768.43560 1.68075e-17
7769.70873 1.68688e-17
7770.97167 1.72405e-17
7772.24479 1.64417e-17
7773.50774 1.44282e-17
7774.78086 1.42910e-17
7776.05399 1.57400e-17
7777.31693 1.67713e-17
7778.59005 1.81065e-17
7779.85299 1.99256e-17
7781.12612 2.01969e-17
7782.38905 1.87253e-17
7783.66218 1.73157e-17
7784.92512 1.63179e-17
7786.19825 1.54073e-17
7787.46119 1.52419e-17
7788.73431 1.66326e-17
7789.99725 1.76479e-17
7791.27038 1.70988e-17
7792.54350 1.75285e-17
7793.80644 1.69203e-17
7795.07956 1.61160e-17
7796.34250 1.73454e-17
7797.61563 1.67530e-17
7798.87857 1.70425e-17
7800.15169 1.80064e-17
7801.41464 1.84460e-17
7802.68776 1.94249e-17
7803.95070 2.10137e-17
7805.22382 2.21268e-17
7806.48676 2.18153e-17
7807.75989 2.06144e-17
7809.03301 2.03387e-17
7810.29595 2.06655e-17
7811.56908 1.85506e-17
7812.83202 1.60866e-17
7814.10514 1.59911e-17
7815.36808 1.57898e-17
7816.64121 1.69943e-17
7817.90415 1.75648e-17
7819.17727 1.57434e-17
7820.44021 1.66856e-17
7821.71334 1.98423e-17
7822.98646 2.14900e-17
7824.24940 2.39120e-17
7825.52253 2.61774e-17
7826.78547 2.52904e-17
7828.05859 2.11593e-17
7829.32153 1.70625e-17
7830.59466 1.66755e-17
7831.85760 1.85177e-17
7833.13072 1.83720e-17
7834.39366 1.80757e-17
7835.66679 1.89386e-17
7836.92973 1.93939e-17
7838.20285 2.11648e-17
7839.47598 2.11654e-17
7840.73892 1.92537e-17
7842.01204 1.90161e-17
7843.27499 2.19192e-17
7844.54811 2.33489e-17
7845.81105 2.21188e-17
7847.08417 2.28702e-17
7848.34711 2.56033e-17
7849.62024 2.53138e-17
7850.88318 2.33762e-17
7852.15630 2.37144e-17
7853.41925 2.68004e-17
7854.69237 2.72345e-17
7855.96550 2.43926e-17
7857.22843 2.38073e-17
7858.50156 2.40033e-17
7859.76450 2.45969e-17
7861.03762 2.21274e-17
7862.30056 1.99494e-17
7863.57369 1.91610e-17
7864.83663 1.92012e-17
7866.10975 2.21209e-17
7867.37270 2.48823e-17
7868.64582 2.59278e-17
7869.90876 2.31947e-17
7871.18188 1.82948e-17
7872.45501 1.81400e-17
7873.71795 2.12991e-17
7874.99107 2.23969e-17
7876.25401 2.24220e-17
7877.52714 2.25355e-17
7878.79008 2.20192e-17
7880.06321 2.28787e-17
7881.32614 2.55980e-17
7882.59927 2.53625e-17
7883.86221 2.27585e-17
7885.13533 2.25487e-17
7886.39827 2.49292e-17
7887.67140 2.74201e-17
7888.94452 2.97280e-17
7890.20747 3.05368e-17
7891.48059 2.74024e-17
7892.74353 2.53947e-17
7894.01665 2.66028e-17
7895.27959 2.59209e-17
7896.55272 2.33742e-17
7897.81566 2.22816e-17
7899.08878 2.25544e-17
7900.35173 2.22195e-17
7901.62485 2.38741e-17
7902.89797 2.54992e-17
7904.16091 2.49779e-17
7905.43404 2.46696e-17
7906.69698 2.44841e-17
7907.97010 2.24550e-17
7909.23304 2.28553e-17
7910.50617 2.34866e-17
7911.76911 2.28374e-17
7913.04223 2.36598e-17
7914.30517 2.45401e-17
7915.57830 2.43333e-17
7916.84124 2.37146e-17
7918.11436 2.38910e-17
7919.37730 2.55897e-17
7920.65043 2.62344e-17
7921.92355 2.27828e-17
7923.18649 2.20696e-17
7924.45962 2.38348e-17
7925.72256 2.39175e-17
7926.99568 2.35449e-17
7928.25862 2.48616e-17
7929.53175 2.59688e-17
7930.79469 2.42836e-17
7932.06781 2.11251e-17
7933.33075 1.95028e-17
7934.60388 2.10591e-17
7935.87700 2.27353e-17
7937.13994 2.30639e-17
7938.41307 2.45527e-17
7939.67601 2.38542e-17
7940.94913 2.16234e-17
7942.21207 2.14213e-17
7943.48520 2.41581e-17
7944.74814 2.52111e-17
7946.02126 2.26801e-17
7947.28420 2.20822e-17
7948.55733 2.29680e-17
7949.82027 2.35072e-17
7951.09339 2.50702e-17
7952.36652 2.52064e-17
7953.62946 2.30509e-17
7954.90258 2.15572e-17
7956.16552 2.15437e-17
7957.43865 2.19563e-17
7958.70159 2.36840e-17
7959.97472 2.68295e-17
7961.23765 2.79223e-17
7962.51078 2.61311e-17
7963.77372 2.46688e-17
7965.04684 2.47872e-17
7966.30978 2.65029e-17
7967.58291 2.84933e-17
7968.85603 2.66378e-17
7970.11898 2.36849e-17
7971.39210 2.48131e-17
7972.65504 2.57367e-17
7973.92817 2.49151e-17
7975.19110 2.48748e-17
7976.46423 2.42596e-17
7977.72717 2.20891e-17
7979.00029 2.10253e-17
7980.26324 2.50622e-17
7981.53636 2.69456e-17
7982.79930 2.33233e-17
7984.07243 2.15266e-17
7985.34555 2.26937e-17
7986.60849 2.41567e-17
7987.88161 2.49314e-17
7989.14455 2.25318e-17
7990.41768 2.02929e-17
7991.68062 2.33440e-17
7992.95374 2.60737e-17
7994.21669 2.36684e-17
7995.48981 2.07364e-17
7996.75275 1.96724e-17
7998.02587 2.02026e-17
7999.28881 2.20150e-17
8000.56194 2.35154e-17
8001.83506 2.23802e-17
8003.09800 2.15289e-17
8004.37113 2.24943e-17
8005.63407 2.25181e-17
8006.90719 2.19571e-17
8008.17013 2.24756e-17
8009.44326 2.33416e-17
8010.70620 2.28469e-17
8011.97932 2.10550e-17
8013.24226 2.04781e-17
8014.51539 2.22083e-17
8015.78851 2.31737e-17
8017.05145 2.19579e-17
8018.32458 2.06506e-17
8019.58752 2.10996e-17
8020.86064 2.22234e-17
8022.12358 2.30572e-17
8023.39671 2.34579e-17
8024.65965 2.42864e-17
8025.93277 2.71475e-17
8027.19571 2.84418e-17
8028.46884 2.63730e-17
8029.73178 2.43820e-17
8031.00490 2.20543e-17
8032.27803 2.05296e-17
8033.54097 2.06616e-17
8034.81409 2.18302e-17
8036.07703 2.31218e-17
8037.35016 2.20406e-17
8038.61310 2.12422e-17
8039.88623 2.10202e-17
8041.14916 2.03473e-17
8042.42229 2.05347e-17
8043.68523 2.02024e-17
8044.95835 2.14877e-17
8046.22129 2.25285e-17
8047.49442 2.26946e-17
8048.76754 2.24835e-17
8050.03049 2.12712e-17
8051.30361 2.01244e-17
8052.56655 2.04335e-17
8053.83968 2.17194e-17
8055.10261 2.23872e-17
8056.37574 2.40253e-17
8057.63868 2.67533e-17
8058.91180 2.58822e-17
8060.17475 2.26707e-17
8061.44787 2.19331e-17
8062.71081 2.33671e-17
8063.98394 2.39501e-17
8065.25706 2.21189e-17
8066.52000 2.12596e-17
8067.79312 2.24454e-17
8069.05606 2.34793e-17
8070.32919 2.38723e-17
8071.59213 2.26068e-17
8072.86525 2.12510e-17
8074.12820 2.19314e-17
8075.40132 2.18377e-17
8076.66426 2.10261e-17
8077.93739 2.09069e-17
8079.20032 2.08319e-17
8080.47345 2.02405e-17
8081.74657 1.92838e-17
8083.00951 2.02715e-17
8084.28264 2.12703e-17
8085.54558 2.18683e-17
8086.81870 2.24619e-17
8088.08165 2.01432e-17
8089.35477 1.76991e-17
8090.61771 1.92944e-17
8091.89083 2.11901e-17
8093.15377 2.07250e-17
8094.42690 2.01256e-17
8095.70002 1.97602e-17
8096.96296 1.82843e-17
8098.23609 1.90829e-17
8099.49903 2.30861e-17
8100.77215 2.64308e-17
8102.03509 2.54741e-17
8103.30822 2.21413e-17
8104.57116 1.97581e-17
8105.84428 1.83323e-17
8107.10722 1.98121e-17
8108.38035 2.17259e-17
8109.64329 1.85125e-17
8110.91641 1.63702e-17
8112.17935 1.80160e-17
8113.45248 1.92556e-17
8114.72560 1.97198e-17
8115.98854 1.86794e-17
8117.26167 1.75126e-17
8118.52461 1.87692e-17
8119.79774 1.98089e-17
8121.06067 1.92065e-17
8122.33380 1.96408e-17
8123.59674 1.89633e-17
8124.86986 1.75609e-17
8126.13280 1.79649e-17
8127.40593 1.69975e-17
8128.67905 1.61087e-17
8129.94200 1.64837e-17
8131.21512 1.82290e-17
8132.47806 1.87999e-17
8133.75119 1.99657e-17
8135.01412 2.10094e-17
8136.28725 1.92833e-17
8137.55019 1.71408e-17
8138.82331 1.61801e-17
8140.08625 1.84485e-17
8141.35938 2.18471e-17
8142.62232 2.14299e-17
8143.89545 1.89920e-17
8145.16857 1.89537e-17
8146.43151 2.01491e-17
8147.70464 1.98419e-17
8148.96757 1.94271e-17
8150.24070 1.94462e-17
8151.50364 1.96919e-17
8152.77676 2.05422e-17
8154.03971 2.00331e-17
8155.31283 1.88238e-17
8156.57577 1.88901e-17
8157.84890 2.01758e-17
8159.11183 2.03226e-17
8160.38496 1.83823e-17
8161.65808 1.87161e-17
8162.92102 1.86617e-17
8164.19415 1.72613e-17
8165.45709 1.82723e-17
8166.73021 2.00488e-17
8167.99316 1.97037e-17
8169.26628 1.95453e-17
8170.52922 2.11072e-17
8171.80234 2.08906e-17
8173.06528 2.04308e-17
8174.33841 2.07788e-17
8175.60135 1.94554e-17
8176.87447 1.79832e-17
8178.14760 1.84753e-17
8179.41054 2.00146e-17
8180.68366 1.98001e-17
8181.94660 1.84176e-17
8183.21973 1.92728e-17
8184.48267 1.99651e-17
8185.75579 1.87321e-17
8187.01873 1.89514e-17
8188.29186 1.98610e-17
8189.55480 1.92223e-17
8190.82792 1.79798e-17
8192.09087 1.70207e-17
8193.36399 1.81851e-17
8194.63711 1.90016e-17
8195.90006 1.84021e-17
8197.17318 1.87775e-17
8198.43612 1.94597e-17
8199.70925 1.94534e-17
8200.97219 1.87538e-17
8202.24531 2.06301e-17
8203.50825 2.06977e-17
8204.78138 1.80471e-17
8206.04431 1.77204e-17
8207.31744 1.96032e-17
8208.59056 2.18575e-17
8209.85350 2.17029e-17
8211.12663 1.79365e-17
8212.38957 1.57768e-17
8213.66269 1.70191e-17
8214.92563 1.93120e-17
8216.19876 1.98443e-17
8217.46170 1.86795e-17
8218.73482 1.84974e-17
8219.99777 1.82162e-17
8221.27089 1.78029e-17
8222.53383 1.90076e-17
8223.80696 1.93488e-17
8225.08008 1.75071e-17
8226.34302 1.62419e-17
8227.61614 1.56717e-17
8228.87908 1.52909e-17
8230.15221 1.65888e-17
8231.41515 1.84982e-17
8232.68827 1.86035e-17
8233.95121 1.73551e-17
8235.22434 1.75179e-17
8236.48728 2.05135e-17
8237.76040 2.15719e-17
8239.02334 2.04318e-17
8240.29647 2.04436e-17
8241.56959 1.98034e-17
8242.83253 1.89894e-17
8244.10566 1.82749e-17
8245.36860 1.88608e-17
8246.64172 1.97614e-17
8247.90467 2.10436e-17
8249.17779 1.92818e-17
8250.44073 1.60663e-17
8251.71385 1.64939e-17
8252.97679 1.68296e-17
8254.24992 1.60189e-17
8255.51286 1.59552e-17
8256.78599 1.54671e-17
8258.05911 1.67136e-17
8259.32205 1.83948e-17
8260.59518 1.83962e-17
8261.85811 1.72307e-17
8263.13124 1.65726e-17
8264.39418 1.80754e-17
8265.66730 1.97671e-17
8266.93024 1.92060e-17
8268.20337 1.96384e-17
8269.46631 2.01745e-17
8270.73943 1.77071e-17
8272.00238 1.66969e-17
8273.27550 1.86130e-17
8274.54862 2.01157e-17
8275.81156 1.86395e-17
8277.08469 1.75541e-17
8278.34763 1.79646e-17
8279.62075 1.78588e-17
8280.88370 1.83814e-17
8282.15682 2.09550e-17
8283.41976 2.39346e-17
8284.69289 2.41021e-17
8285.95582 2.09741e-17
8287.22895 1.52184e-17
8288.49189 1.42802e-17
8289.76501 1.77451e-17
8291.03814 2.04178e-17
8292.30108 2.00810e-17
8293.57421 1.78471e-17
8294.83714 1.79890e-17
8296.11027 1.65888e-17
8297.37321 1.48280e-17
8298.64633 1.66977e-17
8299.90927 1.85200e-17
8301.18240 2.10497e-17
8302.44534 2.05748e-17
8303.71846 1.80356e-17
8304.98141 1.83118e-17
8306.25453 1.98416e-17
8307.52765 2.16142e-17
8308.79060 2.22097e-17
8310.06372 2.18681e-17
8311.32666 1.90841e-17
8312.59978 1.52182e-17
8313.86273 1.67449e-17
8315.13585 2.04443e-17
8316.39879 1.99928e-17
8317.67191 1.74730e-17
8318.93485 1.61589e-17
8320.20798 1.62548e-17
8321.48110 1.73710e-17
8322.74404 1.83664e-17
8324.01717 1.79149e-17
8325.28011 1.77980e-17
8326.55323 1.81094e-17
8327.81617 1.65171e-17
8329.08930 1.71489e-17
8330.35224 1.91759e-17
8331.62536 1.86635e-17
8332.88830 1.76343e-17
8334.16143 1.54383e-17
8335.42437 1.42558e-17
8336.69750 1.71527e-17
8337.97062 2.41620e-17
8339.23356 3.01025e-17
8340.50669 2.82678e-17
8341.76962 2.31075e-17
8343.04275 1.84337e-17
8344.30569 1.58541e-17
8345.57881 1.88107e-17
8346.84175 2.46597e-17
8348.11488 2.76627e-17
8349.37782 2.38550e-17
8350.65094 2.07034e-17
8351.91388 2.14989e-17
8353.18701 2.22337e-17
8354.46013 1.99117e-17
8355.72307 1.84920e-17
8356.99620 2.00352e-17
8358.25914 2.01876e-17
8359.53226 1.85265e-17
8360.79521 1.78939e-17
8362.06833 1.80489e-17
8363.33127 1.84845e-17
8364.60440 2.20885e-17
8365.86733 2.34932e-17
8367.14046 1.90786e-17
8368.41359 1.63173e-17
8369.67652 1.86002e-17
8370.94965 2.11035e-17
8372.21259 1.98101e-17
8373.48571 1.78184e-17
8374.74865 1.79895e-17
8376.02178 1.66724e-17
8377.28472 1.70200e-17
8378.55785 1.93235e-17
8379.82078 1.89004e-17
8381.09391 1.69073e-17
8382.35685 1.74060e-17
8383.62997 1.92412e-17
8384.89292 1.70501e-17
8386.16604 1.30106e-17
8387.43916 1.31884e-17
8388.70211 1.50079e-17
8389.97523 1.54602e-17
8391.23817 1.49120e-17
8392.51130 1.36348e-17
8393.77423 1.45838e-17
8395.04736 1.45435e-17
8396.31030 1.03902e-17
8397.58342 1.17497e-17
8398.84637 1.29327e-17
8400.11949 8.33728e-18
8401.39262 1.34351e-17
8402.65556 2.21728e-17
8403.92868 1.88905e-17
8405.19162 1.33467e-17
8406.46474 1.24776e-17
8407.72768 1.21843e-17
8409.00081 1.40063e-17
8410.26375 1.67488e-17
8411.53687 1.77644e-17
8412.79982 1.78249e-17
8414.07294 2.02293e-17
8415.33588 1.88795e-17
8416.60900 1.32838e-17
8417.87194 1.13440e-17
8419.14507 1.29821e-17
8420.41819 1.41237e-17
8421.68113 1.26789e-17
8422.95426 1.24060e-17
8424.21720 1.59900e-17
8425.49033 1.86683e-17
8426.75326 1.59983e-17
8428.02639 1.52402e-17
8429.28933 1.67009e-17
8430.56245 1.43988e-17
8431.82539 1.35500e-17
8433.09852 1.34311e-17
8434.37164 1.09534e-17
8435.63458 1.04624e-17
8436.90771 1.13192e-17
8438.17065 9.84997e-18
8439.44377 1.05839e-17
8440.70671 1.44779e-17
8441.97984 1.56187e-17
8443.24278 1.34103e-17
8444.51590 1.13248e-17
8445.77885 1.18052e-17
8447.05197 1.46597e-17
8448.31491 1.74738e-17
8449.58804 1.50745e-17
8450.86116 1.01462e-17
8452.12410 8.17884e-18
8453.39723 8.50117e-18
8454.66016 7.84002e-18
8455.93329 7.00392e-18
8457.19623 8.57791e-18
8458.46935 9.92176e-18
8459.73229 1.29436e-17
8461.00542 1.45463e-17
8462.26836 9.46174e-18
8463.54148 7.09046e-18
8464.80442 1.22853e-17
8466.07755 1.58335e-17
8467.35067 1.70440e-17
8468.61362 1.64197e-17
8469.88674 1.17655e-17
8471.14968 7.38109e-18
8472.42281 7.13208e-18
8473.68575 9.25244e-18
8474.95887 9.44532e-18
8476.22181 8.16750e-18
8477.49494 9.90530e-18
8478.75787 1.33943e-17
8480.03100 1.37769e-17
8481.30413 1.09108e-17
8482.56706 9.97616e-18
8483.84019 1.12548e-17
8485.10313 9.64269e-18
8486.37625 8.20790e-18
8487.63919 9.87334e-18
8488.91232 1.02030e-17
8490.17526 9.85435e-18
8491.44838 1.01781e-17
8492.71133 9.98545e-18
8493.98445 1.11254e-17
8495.24739 1.48273e-17
8496.52052 1.45164e-17
8497.79364 1.10724e-17
8499.05658 1.14333e-17
8500.32971 1.29958e-17
8501.59265 1.26508e-17
8502.86577 9.02233e-18
8504.12871 6.46824e-18
8505.40183 1.02683e-17
8506.66477 1.28086e-17
8507.93790 1.22254e-17
8509.20084 1.15423e-17
8510.47396 9.85549e-18
8511.73690 9.39592e-18
8513.01003 9.30960e-18
8514.27297 9.95919e-18
8515.54609 1.15191e-17
8516.81922 1.18771e-17
8518.08216 1.13972e-17
8519.35528 1.20133e-17
8520.61823 1.23168e-17
8521.89135 1.05397e-17
8523.15429 1.02570e-17
8524.42742 1.19362e-17
8525.69035 1.06016e-17
8526.96348 8.07073e-18
8528.23661 7.03741e-18
8529.49954 6.69533e-18
8530.77267 6.53944e-18
8532.03561 7.52602e-18
8533.30873 9.35224e-18
8534.57167 9.96864e-18
8535.84480 1.04638e-17
8537.10774 1.18303e-17
8538.38087 1.13842e-17
8539.64380 9.29691e-18
8540.91693 8.20176e-18
8542.17987 1.01636e-17
8543.45299 1.32280e-17
8544.71594 1.30906e-17
8545.98906 1.09614e-17
8547.26218 1.01733e-17
8548.52513 1.14662e-17
8549.79825 1.34496e-17
8551.06119 1.50490e-17
8552.33432 1.45048e-17
8553.59725 1.25809e-17
8554.87038 1.19533e-17
8556.13332 1.23930e-17
8557.40644 1.28807e-17
8558.66938 1.27992e-17
8559.94251 1.28923e-17
8561.21563 1.27758e-17
8562.47858 1.18826e-17
8563.75170 1.06577e-17
8565.01464 1.00541e-17
8566.28777 1.09940e-17
8567.55070 1.30658e-17
8568.82383 1.45712e-17
8570.08677 1.33282e-17
8571.35989 1.16258e-17
8572.62284 1.34370e-17
8573.89596 1.45365e-17
8575.15890 1.25947e-17
8576.43203 1.17154e-17
8577.69496 1.17786e-17
8578.96809 1.09898e-17
8580.24121 8.62353e-18
8581.50415 8.52419e-18
8582.77728 1.10121e-17
8584.04022 1.17480e-17
8585.31335 1.07957e-17
8586.57629 1.14213e-17
8587.84941 1.26666e-17
8589.11235 1.17173e-17
8590.38547 1.01013e-17
8591.64841 1.00658e-17
8592.92154 1.01790e-17
8594.19466 1.05758e-17
8595.45760 1.27704e-17
8596.73073 1.44681e-17
8597.99367 1.62067e-17
8599.26679 1.76323e-17
8600.52973 1.52507e-17
8601.80286 1.44922e-17
8603.06580 1.62099e-17
8604.33892 1.52370e-17
8605.60187 1.45455e-17
8606.87499 1.69131e-17
8608.13793 1.71411e-17
8609.41106 1.58409e-17
8610.68418 1.68726e-17
8611.94712 1.71598e-17
8613.22025 1.42574e-17
8614.48318 1.07869e-17
8615.75631 1.10143e-17
8617.01925 1.44567e-17
8618.29237 1.33922e-17
8619.55531 1.09951e-17
8620.82844 1.40808e-17
8622.09138 1.23201e-17
8623.36450 7.82470e-18
8624.62744 1.17848e-17
8625.90057 1.59202e-17
8627.17369 1.35198e-17
8628.43663 8.80331e-18
8629.70976 5.30576e-18
8630.97270 1.09827e-17
8632.24582 1.62098e-17
8633.50877 1.11053e-17
8634.78189 9.63533e-18
8636.04483 1.56773e-17
8637.31796 1.73941e-17
8638.58089 1.54756e-17
8639.85402 1.39364e-17
8641.12715 1.34078e-17
8642.39008 1.30966e-17
8643.66321 1.37589e-17
8644.92615 1.44566e-17
8646.19927 1.31340e-17
8647.46221 1.32558e-17
8648.73534 1.64998e-17
8649.99828 1.83473e-17
8651.27140 1.92174e-17
8652.53435 1.95127e-17
8653.80747 1.80759e-17
8655.07041 1.77643e-17
8656.34353 1.75915e-17
8657.61666 1.81637e-17
8658.87960 1.79220e-17
8660.15272 1.55508e-17
8661.41567 1.79778e-17
8662.68879 1.91191e-17
8663.95173 2.05577e-17
8665.22486 2.53081e-17
8666.48779 2.62632e-17
8667.76092 2.19108e-17
8669.02386 1.69767e-17
8670.29698 1.46195e-17
8671.55992 1.64749e-17
8672.83305 1.90604e-17
8674.09599 1.74236e-17
8675.36912 1.53833e-17
8676.64224 1.57979e-17
8677.90518 1.78898e-17
8679.17830 2.06592e-17
8680.44124 1.95109e-17
8681.71437 1.60940e-17
8682.97731 1.48263e-17
8684.25043 1.66748e-17
8685.51338 1.82253e-17
8686.78650 2.03695e-17
8688.05962 2.18768e-17
8689.32256 1.92386e-17
8690.59569 1.79897e-17
8691.85863 1.91275e-17
8693.13175 2.00937e-17
8694.39469 1.80119e-17
8695.66782 1.33065e-17
8696.93076 1.33455e-17
8698.20388 1.78982e-17
8699.46682 1.93207e-17
8700.73995 1.91642e-17
8702.00289 1.98541e-17
8703.27601 1.95504e-17
8704.53895 1.76694e-17
8705.81208 1.93015e-17
8707.07502 2.18343e-17
8708.34814 1.94898e-17
8709.62127 1.86835e-17
8710.88421 2.10055e-17
8712.15733 2.16607e-17
8713.42027 2.05404e-17
8714.69340 2.09314e-17
8715.95634 2.16097e-17
8717.22946 2.21160e-17
8718.49240 2.39621e-17
8719.76553 2.49481e-17
8721.02847 2.40383e-17
8722.30160 2.21243e-17
8723.57472 2.22085e-17
8724.83766 2.41827e-17
8726.11079 2.52902e-17
8727.37372 2.69273e-17
8728.64685 2.86736e-17
8729.90979 2.68533e-17
8731.18291 2.31782e-17
8732.44585 2.22327e-17
8733.71898 2.49102e-17
8734.98192 2.80345e-17
8736.25504 2.80504e-17
8737.51798 2.51700e-17
8738.79111 2.34915e-17
8740.06423 2.48756e-17
8741.32717 2.58690e-17
8742.60030 2.51824e-17
8743.86324 2.61193e-17
8745.13637 2.79045e-17
8746.39931 2.96048e-17
8747.67243 3.24096e-17
8748.93537 3.11908e-17
8750.20850 2.70591e-17
8751.47143 2.75774e-17
8752.74456 2.92012e-17
8754.00750 2.69745e-17
8755.28062 2.46690e-17
8756.55375 2.35787e-17
8757.81669 2.37429e-17
8759.08981 2.62629e-17
8760.35275 2.85275e-17
8761.62588 2.56978e-17
8762.88882 2.71027e-17
8764.16194 3.71032e-17
8765.42488 4.26032e-17
8766.69801 4.17144e-17
8767.96095 4.07759e-17
8769.23408 4.02315e-17
8770.50720 3.51776e-17
8771.77014 3.30487e-17
8773.04327 4.26393e-17
8774.30621 4.92717e-17
8775.57933 4.43102e-17
8776.84227 4.24490e-17
8778.11539 4.48372e-17
8779.37833 4.06111e-17
8780.65146 3.26160e-17
8781.91440 2.81351e-17
8783.18752 2.84037e-17
8784.45046 3.14648e-17
8785.72359 3.26816e-17
8786.99671 3.33001e-17
8788.25965 3.46455e-17
8789.53278 3.59452e-17
8790.79572 3.63421e-17
8792.06884 3.48419e-17
8793.33179 2.99479e-17
8794.60491 2.69365e-17
8795.86785 3.09159e-17
8797.14098 3.21232e-17
8798.40391 2.86530e-17
8799.67704 2.82712e-17
8800.93998 3.18137e-17
8802.21310 3.30198e-17
8803.48623 2.97700e-17
8804.74917 3.05248e-17
8806.02229 3.31440e-17
8807.28523 2.90154e-17
8808.55836 2.45134e-17
8809.82130 2.52020e-17
8811.09442 2.72832e-17
8812.35736 2.95459e-17
8813.63049 2.93997e-17
8814.89343 2.88374e-17
8816.16655 2.91269e-17
8817.43968 2.95353e-17
8818.70262 3.05623e-17
8819.96556 3.21762e-17
8821.23869 3.66609e-17
8822.51181 4.43357e-17
8823.77475 4.63951e-17
8825.04788 4.14194e-17
8826.31081 4.21716e-17
8827.58394 4.74182e-17
8828.84688 4.88467e-17
8830.12000 4.65893e-17
8831.38294 3.86374e-17
8832.65607 3.37293e-17
8833.91901 3.61933e-17
8835.19213 3.80303e-17
8836.46526 3.61406e-17
8837.72820 3.59338e-17
8839.00133 3.69732e-17
8840.26426 3.55879e-17
8841.53739 3.29167e-17
8842.80033 2.92911e-17
8844.07345 2.91095e-17
8845.33640 3.41728e-17
8846.60952 3.55129e-17
8847.87246 3.17592e-17
8849.14559 3.00349e-17
8850.41871 3.07373e-17
8851.68165 3.18928e-17
8852.95478 3.28099e-17
8854.21771 3.18828e-17
8855.49084 2.94777e-17
8856.75378 2.86607e-17
8858.02690 2.97755e-17
8859.28985 3.01663e-17
8860.56297 2.88620e-17
8861.82591 2.54693e-17
8863.09904 2.24024e-17
8864.36197 2.40514e-17
8865.63510 2.56917e-17
8866.89804 2.46038e-17
8868.17116 2.65107e-17
8869.44429 2.63785e-17
8870.70723 2.21262e-17
8871.98035 2.30346e-17
8873.24330 2.87824e-17
8874.51642 3.11867e-17
8875.77936 2.92116e-17
8877.05248 2.81716e-17
8878.31542 2.92499e-17
8879.58855 3.04007e-17
8880.85149 3.43434e-17
8882.12462 3.86419e-17
8883.39774 3.80539e-17
8884.66068 3.66986e-17
8885.93381 3.78645e-17
8887.19674 4.17116e-17
8888.46987 3.96242e-17
8889.73281 3.08601e-17
8891.00593 2.61393e-17
8892.26887 2.37790e-17
8893.54200 2.19184e-17
8894.80494 2.44653e-17
8896.07806 2.84935e-17
8897.34100 2.51211e-17
8898.61413 1.78447e-17
8899.88725 1.85085e-17
8901.15019 2.80767e-17
8902.42332 3.53540e-17
8903.68626 3.21976e-17
8904.95938 2.89270e-17
8906.22233 3.14831e-17
8907.49545 3.26680e-17
8908.75839 3.04602e-17
8910.03152 2.78764e-17
8911.29445 2.65885e-17
8912.56758 2.25664e-17
8913.83052 2.10870e-17
8915.10364 2.55027e-17
8916.37677 2.83739e-17
8917.63971 2.82778e-17
8918.91283 2.90437e-17
8920.17577 3.11588e-17
8921.44890 3.09432e-17
8922.71184 3.62732e-17
8923.98496 4.12336e-17
8925.24790 3.17457e-17
8926.52103 2.30973e-17
8927.78397 2.36276e-17
8929.05710 2.48852e-17
8930.33022 2.55143e-17
8931.59316 2.76768e-17
8932.86629 2.71626e-17
8934.12923 2.51948e-17
8935.40235 2.61464e-17
8936.66529 2.69073e-17
8937.93842 2.47864e-17
8939.20135 2.34212e-17
8940.47448 2.38268e-17
8941.73742 2.58235e-17
8943.01054 2.93595e-17
8944.27348 2.81288e-17
8945.54661 2.43170e-17
8946.80955 2.66307e-17
8948.08267 2.78304e-17
8949.35580 2.49777e-17
8950.61874 3.11916e-17
8951.89187 3.96853e-17
8953.15481 3.81142e-17
8954.42793 3.42191e-17
8955.69087 3.46591e-17
8956.96400 3.72248e-17
8958.22694 3.63101e-17
8959.50006 3.46929e-17
8960.76300 3.57529e-17
8962.03613 2.83965e-17
8963.30925 2.24705e-17
8964.57219 2.53971e-17
8965.84531 2.81924e-17
8967.10825 2.74837e-17
8968.38138 2.76071e-17
8969.64432 3.30237e-17
8970.91744 3.31728e-17
8972.18038 2.89712e-17
8973.45351 2.84546e-17
8974.71645 2.88127e-17
8975.98957 2.98513e-17
8977.26270 3.23648e-17
8978.52564 3.23066e-17
8979.78858 2.89148e-17
8981.06171 2.90256e-17
8982.33483 2.96109e-17
8983.59777 2.74240e-17
8984.87090 2.89500e-17
8986.13383 3.29574e-17
8987.40696 3.50865e-17
8988.66990 3.02221e-17
8989.94302 2.79646e-17
8991.20596 3.08057e-17
8992.47909 3.00619e-17
8993.74203 2.89686e-17
8995.01515 2.46261e-17
8996.28828 2.40420e-17
8997.55122 2.91574e-17
8998.82435 3.25561e-17
9000.08728 2.90873e-17
