# wavelength flux
3225.99737 7.76233e-18
3226.99727 7.66618e-18
3227.99717 7.57200e-18
3228.99707 7.04099e-18
3229.99697 6.36388e-18
3230.99687 6.28088e-18
3231.99677 4.33019e-18
3232.99667 3.18841e-18
3233.99657 3.15105e-18
3234.99647 3.11441e-18
3235.99637 3.07848e-18
3236.99627 3.67237e-18
3237.99617 3.76926e-18
3238.99607 3.93041e-18
3239.99597 5.22972e-18
3240.99587 5.45517e-18
3241.99577 5.39494e-18
3242.99567 5.33581e-18
3243.99557 5.11675e-18
3244.99547 4.47203e-18
3245.99537 4.42403e-18
3246.99527 3.77599e-18
3247.99517 3.18309e-18
3248.99507 3.14960e-18
3250.00497 3.11670e-18
3251.00487 3.08435e-18
3252.00477 2.69745e-18
3253.00467 2.44281e-18
3254.00457 2.63935e-18
3255.00447 4.77512e-18
3256.00437 5.17252e-18
3257.00427 5.12095e-18
3258.00417 5.07023e-18
3259.00407 5.02581e-18
3260.00397 7.29734e-18
3261.00387 7.22635e-18
3262.00377 6.69862e-18
3263.00367 5.89518e-18
3264.00357 5.81689e-18
3265.00347 5.76165e-18
3266.00337 5.70725e-18
3267.00327 5.05682e-18
3268.00317 4.11159e-18
3269.00307 4.07347e-18
3270.00297 4.21668e-18
3271.00287 3.96873e-18
3272.00277 3.93258e-18
3273.00267 3.89697e-18
3274.00257 3.86187e-18
3275.00247 4.74036e-18
3276.00237 4.93636e-18
3277.00227 4.91281e-18
3278.00217 4.29536e-18
3279.00207 3.96766e-18
3280.00197 3.93310e-18
3281.00187 3.89903e-18
3282.00177 3.84457e-18
3283.00167 3.72120e-18
3284.00157 3.68948e-18
3285.00147 3.69372e-18
3286.00137 3.41774e-18
3287.00127 3.38907e-18
3288.00117 3.36079e-18
3289.00107 3.33289e-18
3290.00097 3.35529e-18
3291.00087 3.36350e-18
3292.00077 3.33601e-18
3293.00067 4.05382e-18
3294.00057 4.53816e-18
3295.00047 4.50161e-18
3296.00037 4.46554e-18
3297.00027 4.42994e-18
3298.00017 4.46395e-18
3299.00007 4.43048e-18
3299.99997 4.60057e-18
3300.99987 4.08164e-18
3301.99977 3.87594e-18
3302.99967 3.84596e-18
3303.99957 3.81635e-18
3304.99947 3.82556e-18
3305.99937 3.86163e-18
3306.99927 3.83232e-18
3307.99917 3.92914e-18
3308.99907 4.92199e-18
3309.99897 4.88512e-18
3310.99887 4.84869e-18
3311.99877 4.81271e-18
3312.99867 5.05745e-18
3313.99857 5.10662e-18
3314.99847 5.00463e-18
3315.99837 4.03524e-18
3316.99827 3.81348e-18
3317.99817 3.78592e-18
3318.99807 3.75869e-18
3319.99797 3.67263e-18
3320.99787 3.33153e-18
3321.99777 3.30788e-18
3322.99767 3.69899e-18
3323.99757 4.27378e-18
3324.99747 4.24663e-18
3325.99737 4.21703e-18
3326.99727 4.18776e-18
3327.99717 4.64585e-18
3328.99707 5.00792e-18
3329.99697 4.97359e-18
3330.99687 4.84068e-18
3331.99677 4.79963e-18
3332.99667 4.76714e-18
3333.99657 4.73501e-18
3334.99647 4.70322e-18
3335.99637 4.42475e-18
3336.99627 4.38099e-18
3337.99617 4.45281e-18
3338.99607 5.89886e-18
3339.99597 6.23677e-18
3340.99587 6.19592e-18
3341.99577 6.15551e-18
3342.99567 6.28891e-18
3343.99557 6.58470e-18
3344.99547 6.54225e-18
3345.99537 6.27244e-18
3346.99527 6.12001e-18
3347.99517 6.08102e-18
3348.99507 6.04244e-18
3350.00497 6.00426e-18
3351.00487 5.67279e-18
3352.00477 5.53051e-18
3353.00467 5.49597e-18
3354.00457 5.38569e-18
3355.00447 5.03891e-18
3356.00437 5.00783e-18
3357.00427 4.97706e-18
3358.00417 4.86018e-18
3359.00407 4.23349e-18
3360.00397 4.20779e-18
3361.00387 4.15174e-18
3362.00377 3.89393e-18
3363.00367 3.84951e-18
3364.00357 3.82650e-18
3365.00347 3.80372e-18
3366.00337 4.06136e-18
3367.00327 4.29530e-18
3368.00317 4.27001e-18
3369.00307 4.37510e-18
3370.00297 4.68450e-18
3371.00287 4.65722e-18
3372.00277 4.63021e-18
3373.00267 4.60345e-18
3374.00257 5.35524e-18
3375.00247 5.39868e-18
3376.00237 5.36574e-18
3377.00227 5.46324e-18
3378.00217 5.51476e-18
3379.00207 5.48359e-18
3380.00197 5.45271e-18
3381.00187 5.22704e-18
3382.00177 4.75743e-18
3383.00167 4.73093e-18
3384.00157 4.86561e-18
3385.00147 4.59997e-18
3386.00137 4.57464e-18
3387.00127 4.54954e-18
3388.00117 4.52467e-18
3389.00107 4.23219e-18
3390.00097 4.09448e-18
3391.00087 4.07233e-18
3392.00077 3.57898e-18
3393.00067 3.27661e-18
3394.00057 3.25907e-18
3395.00047 3.24168e-18
3396.00037 3.30124e-18
3397.00027 4.03789e-18
3398.00017 4.01656e-18
3399.00007 4.02627e-18
3399.99997 4.63584e-18
3400.99987 4.73420e-18
3401.99977 4.70952e-18
3402.99967 4.68504e-18
3403.99957 4.64323e-18
3404.99947 4.60072e-18
3405.99937 4.57705e-18
3406.99927 4.66725e-18
3407.99917 4.72459e-18
3408.99907 4.70051e-18
3409.99897 4.67664e-18
3410.99887 4.65297e-18
3411.99877 4.69691e-18
3412.99867 4.68262e-18
3413.99857 4.65914e-18
3414.99847 4.05879e-18
3415.99837 3.59534e-18
3416.99827 3.57748e-18
3417.99817 3.55977e-18
3418.99807 3.52901e-18
3419.99797 3.47627e-18
3420.99787 3.45921e-18
3421.99777 3.43968e-18
3422.99767 4.22485e-18
3423.99757 4.24737e-18
3424.99747 4.22677e-18
3425.99737 4.20633e-18
3426.99727 4.08419e-18
3427.99717 4.01307e-18
3428.99707 3.99383e-18
3429.99697 4.03569e-18
3430.99687 4.15255e-18
3431.99677 4.13282e-18
3432.99667 4.11323e-18
3433.99657 4.07805e-18
3434.99647 3.79311e-18
3435.99637 3.77529e-18
3436.99627 3.77652e-18
3437.99617 4.07096e-18
3438.99607 4.03683e-18
3439.99597 4.01807e-18
3440.99587 3.99945e-18
3441.99577 4.12377e-18
3442.99567 4.27979e-18
3443.99557 4.26011e-18
3444.99547 4.25650e-18
3445.99537 3.96231e-18
3446.99527 3.94423e-18
3447.99517 3.92628e-18
3448.99507 3.90846e-18
3449.99497 4.32984e-18
3451.00486 4.39323e-18
3452.00477 4.37343e-18
3453.00466 4.72671e-18
3454.00456 5.07500e-18
3455.00446 5.05231e-18
3456.00436 5.02978e-18
3457.00427 5.05525e-18
3458.00416 5.18982e-18
3459.00407 5.16684e-18
3460.00396 5.20483e-18
3461.00387 5.70074e-18
3462.00376 5.71115e-18
3463.00366 5.68612e-18
3464.00356 5.66126e-18
3465.00346 5.77650e-18
3466.00337 5.83500e-18
3467.00326 5.80967e-18
3468.00317 5.80489e-18
3469.00306 5.83083e-18
3470.00297 5.80571e-18
3471.00286 5.78076e-18
3472.00276 5.75719e-18
3473.00266 5.80301e-18
3474.00256 5.77825e-18
3475.00247 5.75365e-18
3476.00236 6.01482e-18
3477.00227 6.08196e-18
3478.00216 6.05626e-18
3479.00207 6.03074e-18
3480.00196 5.86659e-18
3481.00186 5.64217e-18
3482.00176 5.61857e-18
3483.00166 5.56191e-18
3484.00157 5.39734e-18
3485.00146 5.37493e-18
3486.00137 5.35267e-18
3487.00126 5.33056e-18
3488.00117 5.33906e-18
3489.00106 5.32467e-18
3490.00096 5.30283e-18
3491.00086 5.26566e-18
3492.00076 5.28106e-18
3493.00067 5.25956e-18
3494.00056 5.23820e-18
3495.00047 5.18525e-18
3496.00036 5.03168e-18
3497.00027 5.01140e-18
3498.00016 4.97992e-18
3499.00006 4.55115e-18
3499.99996 4.49554e-18
3500.99986 4.47760e-18
3501.99977 4.45978e-18
3502.99966 4.66366e-18
3503.99957 4.80236e-18
3504.99946 4.78339e-18
3505.99937 4.80879e-18
3506.99926 4.91178e-18
3507.99916 4.89252e-18
3508.99906 4.87339e-18
3509.99896 4.85439e-18
3510.99887 4.62418e-18
3511.99876 4.60098e-18
3512.99867 4.58318e-18
3513.99856 4.83525e-18
3514.99847 4.90149e-18
3515.99836 4.88268e-18
3516.99827 4.86399e-18
3517.99816 4.87381e-18
3518.99806 4.90403e-18
3519.99797 4.88540e-18
3520.99786 4.89147e-18
3521.99777 4.54658e-18
3522.99766 4.49486e-18
3523.99757 4.47798e-18
3524.99746 4.46120e-18
3525.99737 4.56368e-18
3526.99726 4.58450e-18
3527.99716 4.56747e-18
3528.99707 4.63571e-18
3529.99696 4.94624e-18
3530.99687 4.92800e-18
3531.99676 4.90987e-18
3532.99667 4.89150e-18
3533.99656 4.87156e-18
3534.99647 4.85379e-18
3535.99636 4.83613e-18
3536.99626 4.79034e-18
3537.99617 4.73871e-18
3538.99606 4.72162e-18
3539.99597 4.70464e-18
3540.99586 4.79359e-18
3541.99577 4.86601e-18
3542.99566 4.84866e-18
3543.99557 4.88519e-18
3544.99546 5.12243e-18
3545.99536 5.10432e-18
3546.99527 5.08632e-18
3547.99516 5.06843e-18
3548.99507 5.41548e-18
3549.99496 5.42320e-18
3551.00486 5.40430e-18
3552.00476 5.90604e-18
3553.00466 6.23397e-18
3554.00456 6.21245e-18
3555.00446 6.19107e-18
3556.00436 6.25658e-18
3557.00426 6.41670e-18
3558.00416 6.39482e-18
3559.00406 6.37122e-18
3560.00396 6.27401e-18
3561.00386 6.24924e-18
3562.00376 6.22819e-18
3563.00366 6.20728e-18
3564.00356 6.06436e-18
3565.00346 5.99522e-18
3566.00336 5.97528e-18
3567.00326 6.27349e-18
3568.00316 6.96187e-18
3569.00306 6.93891e-18
3570.00296 6.91610e-18
3571.00286 6.94949e-18
3572.00276 7.40759e-18
3573.00266 7.38346e-18
3574.00256 7.35948e-18
3575.00246 7.74967e-18
3576.00236 7.90732e-18
3577.00226 7.88187e-18
3578.00216 7.85658e-18
3579.00206 7.80069e-18
3580.00196 7.74449e-18
3581.00186 7.71986e-18
3582.00176 7.63015e-18
3583.00166 7.28113e-18
3584.00156 7.25825e-18
3585.00146 7.23542e-18
3586.00136 7.21272e-18
3587.00126 7.35047e-18
3588.00116 7.34826e-18
3589.00106 7.32540e-18
3590.00096 7.55445e-18
3591.00086 7.85499e-18
3592.00076 7.83074e-18
3593.00066 7.80663e-18
3594.00056 7.76652e-18
3595.00046 7.70042e-18
3596.00036 7.67690e-18
3597.00026 7.65350e-18
3598.00016 7.60302e-18
3599.00006 7.54415e-18
3599.99996 7.52133e-18
3600.99986 7.49863e-18
3601.99976 7.58223e-18
3602.99966 7.61258e-18
3603.99956 7.58977e-18
3604.99946 7.53173e-18
3605.99936 7.32627e-18
3606.99926 7.30447e-18
3607.99916 7.28278e-18
3608.99906 7.25496e-18
3609.99896 7.12847e-18
3610.99886 7.10744e-18
3611.99876 7.08652e-18
3612.99866 7.10683e-18
3613.99856 7.14932e-18
3614.99846 7.12840e-18
3615.99836 7.10759e-18
3616.99826 6.96765e-18
3617.99816 6.79975e-18
3618.99806 6.78001e-18
3619.99796 6.75529e-18
3620.99786 6.29318e-18
3621.99776 6.24969e-18
3622.99766 6.23168e-18
3623.99756 6.21375e-18
3624.99746 6.03324e-18
3625.99736 5.98413e-18
3626.99726 5.96700e-18
3627.99716 5.81112e-18
3628.99706 5.50545e-18
3629.99696 5.48977e-18
3630.99686 5.47415e-18
3631.99676 5.43554e-18
3632.99666 5.34126e-18
3633.99656 5.32613e-18
3634.99646 5.31107e-18
3635.99636 4.76255e-18
3636.99626 4.55512e-18
3637.99616 4.54230e-18
3638.99606 4.52952e-18
3639.99596 4.34856e-18
3640.99586 4.23160e-18
3641.99576 4.21974e-18
3642.99566 4.21443e-18
3643.99556 4.35330e-18
3644.99546 4.34115e-18
3645.99536 4.32904e-18
3646.99526 4.31719e-18
3647.99516 4.34301e-18
3648.99506 4.33094e-18
3649.99496 4.31891e-18
3651.00486 4.17384e-18
3652.00476 4.00794e-18
3653.00466 3.99684e-18
3654.00456 3.98578e-18
3655.00446 3.95455e-18
3656.00436 3.91271e-18
3657.00426 3.90191e-18
3658.00416 3.89115e-18
3659.00406 3.85363e-18
3660.00396 3.85645e-18
3661.00386 3.84586e-18
3662.00376 3.83530e-18
3663.00366 3.69560e-18
3664.00356 3.65001e-18
3665.00346 3.64001e-18
3666.00336 3.68579e-18
3667.00326 3.81345e-18
3668.00316 3.80304e-18
3669.00306 3.79266e-18
3670.00296 3.78253e-18
3671.00286 3.77327e-18
3672.00276 3.76300e-18
3673.00266 3.75277e-18
3674.00256 3.62347e-18
3675.00246 3.53439e-18
3676.00236 3.52480e-18
3677.00226 3.51525e-18
3678.00216 3.60470e-18
3679.00206 3.67167e-18
3680.00196 3.66176e-18
3681.00186 3.64490e-18
3682.00176 3.40484e-18
3683.00166 3.39569e-18
3684.00156 3.38656e-18
3685.00146 3.37747e-18
3686.00136 3.36540e-18
3687.00126 3.35624e-18
3688.00116 3.34727e-18
3689.00106 3.45742e-18
3690.00096 3.63630e-18
3691.00086 3.62662e-18
3692.00076 3.61697e-18
3693.00066 3.57911e-18
3694.00056 3.51507e-18
3695.00046 3.50577e-18
3696.00036 3.49651e-18
3697.00026 3.33731e-18
3698.00016 3.27783e-18
3699.00006 3.26920e-18
3699.99996 3.26062e-18
3700.99986 3.34048e-18
3701.99976 3.36442e-18
3702.99966 3.35563e-18
3703.99956 3.35405e-18
3704.99946 3.39694e-18
3705.99936 3.38811e-18
3706.99926 3.37932e-18
3707.99916 3.36600e-18
3708.99906 3.32333e-18
3709.99896 3.31476e-18
3710.99886 3.30622e-18
3711.99876 3.35516e-18
3712.99866 3.39890e-18
3713.99856 3.39020e-18
3714.99846 3.38153e-18
3715.99836 3.30421e-18
3716.99826 3.22916e-18
3717.99816 3.22096e-18
3718.99806 3.21280e-18
3719.99796 3.50354e-18
3720.99786 3.52582e-18
3721.99776 3.51695e-18
3722.99766 3.50812e-18
3723.99756 3.81208e-18
3724.99746 3.83898e-18
3725.99736 3.82940e-18
3726.99726 3.93849e-18
3727.99716 4.22518e-18
3728.99706 4.21472e-18
3729.99696 4.20431e-18
3730.99686 4.19287e-18
3731.99676 4.17986e-18
3732.99666 4.16961e-18
3733.99656 4.15941e-18
3734.99646 4.26813e-18
3735.99636 4.31642e-18
3736.99626 4.30595e-18
3737.99616 4.29552e-18
3738.99606 4.54245e-18
3739.99596 4.65669e-18
3740.99586 4.64551e-18
3741.99576 4.66296e-18
3742.99566 5.32823e-18
3743.99556 5.31555e-18
3744.99546 5.30293e-18
3745.99536 5.32842e-18
3746.99526 5.90662e-18
3748.00516 5.89272e-18
3749.00506 5.87889e-18
3750.00496 6.12348e-18
3751.00486 6.44961e-18
3752.00476 6.43462e-18
3753.00466 6.41971e-18
3754.00456 6.66800e-18
3755.00446 6.97553e-18
3756.00436 6.95951e-18
3757.00426 6.94358e-18
3758.00416 8.33586e-18
3759.00406 8.66808e-18
3760.00396 8.64846e-18
3761.00386 8.62896e-18
3762.00376 8.97540e-18
3763.00366 9.02669e-18
3764.00356 9.00654e-18
3765.00346 9.25872e-18
3766.00336 1.04194e-17
3767.00326 1.03964e-17
3768.00316 1.03735e-17
3769.00306 1.04839e-17
3770.00296 1.09206e-17
3771.00286 1.08968e-17
3772.00276 1.08731e-17
3773.00266 1.12731e-17
3774.00256 1.15883e-17
3775.00246 1.15634e-17
3776.00236 1.15386e-17
3777.00226 1.16021e-17
3778.00216 1.16331e-17
3779.00206 1.16083e-17
3780.00196 1.15837e-17
3781.00186 1.17869e-17
3782.00176 1.17598e-17
3783.00166 1.17351e-17
3784.00156 1.17104e-17
3785.00146 1.18788e-17
3786.00136 1.18541e-17
3787.00126 1.18294e-17
3788.00116 1.17763e-17
3789.00106 1.17184e-17
3790.00096 1.16941e-17
3791.00086 1.16700e-17
3792.00076 1.15353e-17
3793.00066 1.13368e-17
3794.00056 1.13136e-17
3795.00046 1.12904e-17
3796.00036 1.11733e-17
3797.00026 1.10969e-17
3798.00016 1.10743e-17
3799.00006 1.10518e-17
3799.99996 1.09877e-17
3800.99986 1.09534e-17
3801.99976 1.09313e-17
3802.99966 1.08238e-17
3803.99956 1.00883e-17
3804.99946 1.00681e-17
3805.99936 1.00479e-17
3806.99926 9.98318e-18
3807.99916 9.73277e-18
3808.99906 9.71333e-18
3809.99896 9.69395e-18
3810.99886 9.54249e-18
3811.99876 9.32930e-18
3812.99866 9.31075e-18
3813.99856 9.29225e-18
3814.99846 9.19646e-18
3815.99836 9.11481e-18
3816.99826 9.09676e-18
3817.99816 9.07875e-18
3818.99806 8.70141e-18
3819.99796 8.63761e-18
3820.99786 8.62054e-18
3821.99776 8.60351e-18
3822.99766 8.48906e-18
3823.99756 8.46566e-18
3824.99746 8.44895e-18
3825.99736 8.37930e-18
3826.99726 8.10190e-18
3827.99716 8.08592e-18
3828.99706 8.06998e-18
3829.99696 7.96991e-18
3830.99686 7.77815e-18
3831.99676 7.76281e-18
3832.99666 7.74750e-18
3833.99656 7.87779e-18
3834.99646 7.95853e-18
3835.99636 7.94282e-18
3836.99626 7.92713e-18
3837.99616 7.95907e-18
3838.99606 7.96275e-18
3839.99596 7.94700e-18
3840.99586 7.93688e-18
3841.99576 8.25595e-18
3842.99566 8.25933e-18
3843.99556 8.24294e-18
3844.99546 8.24475e-18
3845.99536 8.39818e-18
3846.99526 8.38146e-18
3848.00516 8.36475e-18
3849.00506 8.44119e-18
3850.00496 8.59231e-18
3851.00486 8.57512e-18
3852.00476 8.55793e-18
3853.00466 8.61055e-18
3854.00456 8.66776e-18
3855.00446 8.65031e-18
3856.00436 8.63287e-18
3857.00426 9.11793e-18
3858.00416 9.28818e-18
3859.00406 9.26936e-18
3860.00396 9.25054e-18
3861.00386 9.77527e-18
3862.00376 9.83669e-18
3863.00366 9.81662e-18
3864.00356 9.91888e-18
3865.00346 1.07040e-17
3866.00336 1.06821e-17
3867.00326 1.06602e-17
3868.00316 1.07378e-17
3869.00306 1.10045e-17
3870.00296 1.09818e-17
3871.00286 1.09592e-17
3872.00276 1.11183e-17
3873.00266 1.12931e-17
3874.00256 1.12697e-17
3875.00246 1.12463e-17
3876.00236 1.15461e-17
3877.00226 1.17018e-17
3878.00216 1.16774e-17
3879.00206 1.16530e-17
3880.00196 1.26675e-17
3881.00186 1.27731e-17
3882.00176 1.27464e-17
3883.00166 1.27276e-17
3884.00156 1.29668e-17
3885.00146 1.29397e-17
3886.00136 1.29126e-17
3887.00126 1.29367e-17
3888.00116 1.30930e-17
3889.00106 1.30656e-17
3890.00096 1.30382e-17
3891.00086 1.30833e-17
3892.00076 1.31582e-17
3893.00066 1.31305e-17
3894.00056 1.31030e-17
3895.00046 1.41199e-17
3896.00036 1.45391e-17
3897.00026 1.45087e-17
3898.00016 1.44783e-17
3899.00006 1.44544e-17
3899.99996 1.44257e-17
3900.99986 1.43955e-17
3901.99976 1.42190e-17
3902.99966 1.29468e-17
3903.99956 1.29071e-17
3904.99946 1.28801e-17
3905.99936 1.29085e-17
3906.99926 1.31226e-17
3907.99916 1.30953e-17
3908.99906 1.30680e-17
3909.99896 1.30680e-17
3910.99886 1.31129e-17
3911.99876 1.30858e-17
3912.99866 1.30587e-17
3913.99856 1.29652e-17
3914.99846 1.28888e-17
3915.99836 1.28622e-17
3916.99826 1.28357e-17
3917.99816 1.28662e-17
3918.99806 1.28240e-17
3919.99796 1.27978e-17
3920.99786 1.27716e-17
3921.99776 1.26979e-17
3922.99766 1.26699e-17
3923.99756 1.26442e-17
3924.99746 1.26881e-17
3925.99736 1.27926e-17
3926.99726 1.27668e-17
3927.99716 1.27411e-17
3928.99706 1.28290e-17
3929.99696 1.30207e-17
3930.99686 1.29947e-17
3931.99676 1.29688e-17
3932.99666 1.31308e-17
3933.99656 1.32784e-17
3934.99646 1.32522e-17
3935.99636 1.32261e-17
3936.99626 1.30574e-17
3937.99616 1.29787e-17
3938.99606 1.29534e-17
3939.99596 1.29280e-17
3940.99586 1.30376e-17
3941.99576 1.30451e-17
3942.99566 1.30200e-17
3943.99556 1.30206e-17
3944.99546 1.31959e-17
3945.99536 1.31708e-17
3946.99526 1.31459e-17
3948.00516 1.31925e-17
3949.00506 1.32185e-17
3950.00496 1.31938e-17
3951.00486 1.31692e-17
3952.00476 1.30969e-17
3953.00466 1.30246e-17
3954.00456 1.30006e-17
3955.00446 1.29767e-17
3956.00436 1.27973e-17
3957.00426 1.27617e-17
3958.00416 1.27386e-17
3959.00406 1.27156e-17
3960.00396 1.23896e-17
3961.00386 1.23273e-17
3962.00376 1.23053e-17
3963.00366 1.22962e-17
3964.00356 1.22962e-17
3965.00346 1.22724e-17
3966.00336 1.22508e-17
3967.00326 1.22802e-17
3968.00316 1.23973e-17
3969.00306 1.23758e-17
3970.00296 1.23544e-17
3971.00286 1.24302e-17
3972.00276 1.24448e-17
3973.00266 1.24235e-17
3974.00256 1.24022e-17
3975.00246 1.24189e-17
3976.00236 1.24180e-17
3977.00226 1.23969e-17
3978.00216 1.23760e-17
3979.00206 1.25383e-17
3980.00196 1.25391e-17
3981.00186 1.25181e-17
3982.00176 1.25073e-17
3983.00166 1.27476e-17
3984.00156 1.27265e-17
3985.00146 1.27055e-17
3986.00136 1.27892e-17
3987.00126 1.31803e-17
3988.00116 1.31587e-17
3989.00106 1.31371e-17
3990.00096 1.32075e-17
3991.00086 1.33117e-17
3992.00076 1.32901e-17
3993.00066 1.32686e-17
3994.00056 1.32338e-17
3995.00046 1.32512e-17
3996.00036 1.32299e-17
3997.00026 1.32087e-17
3998.00016 1.30142e-17
3999.00006 1.29521e-17
3999.99996 1.29316e-17
4000.99986 1.28982e-17
4001.99976 1.27652e-17
4002.99966 1.27427e-17
4003.99956 1.27223e-17
4004.99946 1.27096e-17
4005.99936 1.27218e-17
4006.99926 1.27015e-17
4007.99916 1.26812e-17
4008.99906 1.26389e-17
4009.99896 1.26351e-17
4010.99886 1.26151e-17
4011.99876 1.25950e-17
4012.99866 1.24295e-17
4013.99856 1.23021e-17
4014.99846 1.22826e-17
4015.99836 1.22631e-17
4016.99826 1.18111e-17
4017.99816 1.15525e-17
4018.99806 1.15342e-17
4019.99796 1.15160e-17
4020.99786 1.14543e-17
4021.99776 1.14344e-17
4022.99766 1.14163e-17
4023.99756 1.13491e-17
4024.99746 1.10993e-17
4025.99736 1.10769e-17
4026.99726 1.10594e-17
4027.99716 1.09539e-17
4028.99706 1.07675e-17
4029.99696 1.07505e-17
4030.99686 1.07335e-17
4031.99676 1.03283e-17
4032.99666 1.00312e-17
4033.99656 1.00154e-17
4034.99646 9.99953e-18
4035.99636 9.81191e-18
4036.99626 9.73157e-18
4037.99616 9.71618e-18
4038.99606 9.70112e-18
4039.99596 9.53973e-18
4040.99586 9.45773e-18
4041.99576 9.44274e-18
4042.99566 9.40039e-18
4043.99556 9.16279e-18
4044.99546 9.14824e-18
4045.99536 9.13371e-18
4046.99526 9.08076e-18
4048.00516 8.70458e-18
4049.00506 8.69072e-18
4050.00496 8.67689e-18
4051.00486 8.52556e-18
4052.00476 8.37068e-18
4053.00466 8.35735e-18
4054.00456 8.34403e-18
4055.00446 7.90539e-18
4056.00436 7.69991e-18
4057.00426 7.68761e-18
4058.00416 7.67534e-18
4059.00406 7.50089e-18
4060.00396 7.46603e-18
4061.00386 7.45412e-18
4062.00376 7.42317e-18
4063.00366 7.09059e-18
4064.00356 7.03231e-18
4065.00346 7.02109e-18
4066.00336 6.97083e-18
4067.00326 6.84835e-18
4068.00316 6.83743e-18
4069.00306 6.82652e-18
4070.00296 6.62833e-18
4071.00286 6.45886e-18
4072.00276 6.44858e-18
4073.00266 6.43832e-18
4074.00256 6.42347e-18
4075.00246 6.41070e-18
4076.00236 6.40052e-18
4077.00226 6.39036e-18
4078.00216 6.60250e-18
4079.00206 6.59102e-18
4080.00196 6.58057e-18
4081.00186 6.57380e-18
4082.00176 6.70336e-18
4083.00166 6.69275e-18
4084.00156 6.68215e-18
4085.00146 6.69185e-18
4086.00136 6.98480e-18
4087.00126 6.98447e-18
4088.00116 6.97344e-18
4089.00106 7.01693e-18
4090.00096 7.08473e-18
4091.00086 7.07354e-18
4092.00076 7.06237e-18
4093.00066 7.28881e-18
4094.00056 7.50783e-18
4095.00046 7.49598e-18
4096.00036 7.48415e-18
4097.00026 7.77609e-18
4098.00016 7.84394e-18
4099.00006 7.83156e-18
4099.99996 7.83879e-18
4100.99986 8.10805e-18
4101.99976 8.13152e-18
4102.99966 8.11869e-18
4103.99956 8.12024e-18
4104.99946 8.17571e-18
4105.99936 8.16280e-18
4106.99926 8.14990e-18
4107.99916 8.22886e-18
4108.99906 8.50770e-18
4109.99896 8.49426e-18
4110.99886 8.48083e-18
4111.99876 8.57586e-18
4112.99866 8.64873e-18
4113.99856 8.63505e-18
4114.99846 8.62138e-18
4115.99836 8.98120e-18
4116.99826 9.14527e-18
4117.99816 9.13078e-18
4118.99806 9.11631e-18
4119.99796 9.39603e-18
4120.99786 9.40040e-18
4121.99776 9.38548e-18
4122.99766 9.44304e-18
4123.99756 9.83418e-18
4124.99746 9.85205e-18
4125.99736 9.83637e-18
4126.99726 9.91497e-18
4127.99716 1.00986e-17
4128.99706 1.00825e-17
4129.99696 1.00664e-17
4130.99686 1.02438e-17
4131.99676 1.05238e-17
4132.99666 1.05070e-17
4133.99656 1.04902e-17
4134.99646 1.04523e-17
4135.99636 1.04267e-17
4136.99626 1.04099e-17
4137.99616 1.03941e-17
4138.99606 1.06182e-17
4139.99596 1.06912e-17
4140.99586 1.06740e-17
4141.99576 1.06853e-17
4142.99566 1.09754e-17
4143.99556 1.09577e-17
4144.99546 1.09399e-17
4145.99536 1.09730e-17
4147.00526 1.11894e-17
4148.00516 1.11757e-17
4149.00506 1.11575e-17
4150.00496 1.11779e-17
4151.00486 1.12036e-17
4152.00476 1.11854e-17
4153.00466 1.11671e-17
4154.00456 1.11914e-17
4155.00446 1.11399e-17
4156.00436 1.11216e-17
4157.00426 1.11034e-17
4158.00416 1.09856e-17
4159.00406 1.09497e-17
4160.00396 1.09316e-17
4161.00386 1.09115e-17
4162.00376 1.07921e-17
4163.00366 1.07400e-17
4164.00356 1.07222e-17
4165.00346 1.06787e-17
4166.00336 1.05751e-17
4167.00326 1.05575e-17
4168.00316 1.05399e-17
4169.00306 1.05210e-17
4170.00296 1.05182e-17
4171.00286 1.05006e-17
4172.00276 1.04829e-17
4173.00266 1.04997e-17
4174.00256 1.05038e-17
4175.00246 1.04861e-17
4176.00236 1.04684e-17
4177.00226 1.02888e-17
4178.00216 1.02577e-17
4179.00206 1.02403e-17
4180.00196 1.02230e-17
4181.00186 1.00817e-17
4182.00176 1.00636e-17
4183.00166 1.00465e-17
4184.00156 1.00700e-17
4185.00146 1.01789e-17
4186.00136 1.01673e-17
4187.00126 1.01500e-17
4188.00116 1.01870e-17
4189.00106 1.02604e-17
4190.00096 1.02429e-17
4191.00086 1.02253e-17
4192.00076 1.02841e-17
4193.00066 1.03511e-17
4194.00056 1.03334e-17
4195.00046 1.03157e-17
4196.00036 1.03693e-17
4197.00026 1.03746e-17
4198.00016 1.03568e-17
4199.00006 1.03413e-17
4199.99996 1.03202e-17
4200.99986 1.02804e-17
4201.99976 1.02627e-17
4202.99966 1.02573e-17
4203.99956 1.03174e-17
4204.99946 1.02997e-17
4205.99936 1.02820e-17
4206.99926 1.01532e-17
4207.99916 1.00845e-17
4208.99906 1.00686e-17
4209.99896 1.00514e-17
4210.99886 9.98815e-18
4211.99876 9.92807e-18
4212.99866 9.91104e-18
4213.99856 9.89404e-18
4214.99846 9.97955e-18
4215.99836 9.85585e-18
4216.99826 9.83897e-18
4217.99816 9.82212e-18
4218.99806 9.59277e-18
4219.99796 9.55205e-18
4220.99786 9.53573e-18
4221.99776 9.46088e-18
4222.99766 9.06006e-18
4223.99756 8.98137e-18
4224.99746 8.96607e-18
4225.99736 8.86595e-18
4226.99726 8.63055e-18
4227.99716 8.61590e-18
4228.99706 8.60128e-18
4229.99696 8.36126e-18
4230.99686 8.10689e-18
4231.99676 8.09318e-18
4232.99666 8.07951e-18
4233.99656 7.93041e-18
4234.99646 7.84680e-18
4235.99636 7.83360e-18
4236.99626 7.82045e-18
4237.99616 7.59178e-18
4238.99606 7.47601e-18
4239.99596 7.46351e-18
4240.99586 7.44625e-18
4241.99576 7.31374e-18
4242.99566 7.30157e-18
4243.99556 7.28945e-18
4244.99546 7.23107e-18
4245.99536 7.01678e-18
4246.99526 6.98590e-18
4247.99516 6.97438e-18
4248.99506 6.99691e-18
4250.00496 7.03257e-18
4251.00486 7.02104e-18
4252.00476 7.00954e-18
4253.00466 7.06938e-18
4254.00456 7.11137e-18
4255.00446 7.09979e-18
4256.00436 7.08825e-18
4257.00426 7.12612e-18
4258.00416 7.12701e-18
4259.00406 7.11549e-18
4260.00396 7.13642e-18
4261.00386 7.47541e-18
4262.00376 7.54710e-18
4263.00366 7.53498e-18
4264.00356 7.54830e-18
4265.00346 7.65291e-18
4266.00336 7.64068e-18
4267.00326 7.62851e-18
4268.00316 7.59666e-18
4269.00306 7.69077e-18
4270.00296 7.67960e-18
4271.00286 7.66744e-18
4272.00276 7.71636e-18
4273.00266 7.75241e-18
4274.00256 7.74019e-18
4275.00246 7.72801e-18
4276.00236 8.03340e-18
4277.00226 8.23150e-18
4278.00216 8.21859e-18
4279.00206 8.20573e-18
4280.00196 8.37090e-18
4281.00186 8.36961e-18
4282.00176 8.35656e-18
4283.00166 8.35447e-18
4284.00156 8.37655e-18
4285.00146 8.36576e-18
4286.00136 8.35277e-18
4287.00126 8.38570e-18
4288.00116 8.47128e-18
4289.00106 8.45817e-18
4290.00096 8.44509e-18
4291.00086 8.49130e-18
4292.00076 8.59286e-18
4293.00066 8.57961e-18
4294.00056 8.56640e-18
4295.00046 8.72128e-18
4296.00036 8.78094e-18
4297.00026 8.76746e-18
4298.00016 8.76730e-18
4299.00006 9.15819e-18
4299.99996 9.23434e-18
4300.99986 9.22021e-18
4301.99976 9.20111e-18
4302.99966 9.12631e-18
4303.99956 9.11237e-18
4304.99946 9.09846e-18
4305.99936 9.08892e-18
4306.99926 9.16329e-18
4307.99916 9.16140e-18
4308.99906 9.14746e-18
4309.99896 9.18791e-18
4310.99886 9.23899e-18
4311.99876 9.22495e-18
4312.99866 9.21093e-18
4313.99856 9.28532e-18
4314.99846 9.38162e-18
4315.99836 9.36739e-18
4316.99826 9.35318e-18
4317.99816 9.47709e-18
4318.99806 9.49019e-18
4319.99796 9.47581e-18
4320.99786 9.46648e-18
4321.99776 9.48565e-18
4322.99766 9.47823e-18
4323.99756 9.46389e-18
4324.99746 9.43714e-18
4325.99736 9.37693e-18
4326.99726 9.36275e-18
4327.99716 9.34859e-18
4328.99706 9.40821e-18
4329.99696 9.45741e-18
4330.99686 9.44312e-18
4331.99676 9.42884e-18
4332.99666 9.44044e-18
4333.99656 9.44401e-18
4334.99646 9.42973e-18
4335.99636 9.41548e-18
4336.99626 9.47887e-18
4337.99616 9.55578e-18
4338.99606 9.54133e-18
4339.99596 9.52690e-18
4340.99586 9.70022e-18
4341.99576 9.69136e-18
4342.99566 9.67669e-18
4343.99556 9.69028e-18
4344.99546 9.74720e-18
4345.99536 9.73722e-18
4347.00526 9.72247e-18
4348.00516 9.68932e-18
4349.00506 9.64024e-18
4350.00496 9.62562e-18
4351.00486 9.61102e-18
4352.00476 9.64149e-18
4353.00466 9.71933e-18
4354.00456 9.70456e-18
4355.00446 9.68982e-18
4356.00436 9.77544e-18
4357.00426 9.79827e-18
4358.00416 9.78336e-18
4359.00406 9.78969e-18
4360.00396 1.00742e-17
4361.00386 1.01511e-17
4362.00376 1.01357e-17
4363.00366 1.01615e-17
4364.00356 1.04987e-17
4365.00346 1.04826e-17
4366.00336 1.04666e-17
4367.00326 1.05857e-17
4368.00316 1.09249e-17
4369.00306 1.09367e-17
4370.00296 1.09200e-17
4371.00286 1.09802e-17
4372.00276 1.10456e-17
4373.00266 1.10287e-17
4374.00256 1.10119e-17
4375.00246 1.11736e-17
4376.00236 1.13548e-17
4377.00226 1.13374e-17
4378.00216 1.13200e-17
4379.00206 1.16395e-17
4380.00196 1.16761e-17
4381.00186 1.16582e-17
4382.00176 1.17456e-17
4383.00166 1.23227e-17
4384.00156 1.24546e-17
4385.00146 1.24355e-17
4386.00136 1.24748e-17
4387.00126 1.26419e-17
4388.00116 1.26225e-17
4389.00106 1.26032e-17
4390.00096 1.26820e-17
4391.00086 1.30202e-17
4392.00076 1.30002e-17
4393.00066 1.29803e-17
4394.00056 1.31844e-17
4395.00046 1.33037e-17
4396.00036 1.32833e-17
4397.00026 1.32630e-17
4398.00016 1.37439e-17
4399.00006 1.39607e-17
4399.99996 1.39394e-17
4400.99986 1.39181e-17
4401.99976 1.40979e-17
4402.99966 1.40777e-17
4403.99956 1.40562e-17
4404.99946 1.41236e-17
4405.99936 1.43966e-17
4406.99926 1.44229e-17
4407.99916 1.44010e-17
4408.99906 1.44076e-17
4409.99896 1.44340e-17
4410.99886 1.44121e-17
4411.99876 1.43902e-17
4412.99866 1.45511e-17
4413.99856 1.46362e-17
4414.99846 1.46141e-17
4415.99836 1.45919e-17
4416.99826 1.48469e-17
4417.99816 1.49178e-17
4418.99806 1.48953e-17
4419.99796 1.48776e-17
4420.99786 1.51160e-17
4421.99776 1.53180e-17
4422.99766 1.52950e-17
4423.99756 1.52771e-17
4424.99746 1.52897e-17
4425.99736 1.52667e-17
4426.99726 1.52439e-17
4427.99716 1.54098e-17
4428.99706 1.53536e-17
4429.99696 1.53033e-17
4430.99686 1.52804e-17
4431.99676 1.53436e-17
4432.99666 1.54059e-17
4433.99656 1.53830e-17
4434.99646 1.53602e-17
4435.99636 1.54513e-17
4436.99626 1.57227e-17
4437.99616 1.56995e-17
4438.99606 1.56763e-17
4439.99596 1.57273e-17
4440.99586 1.57143e-17
4441.99576 1.56912e-17
4442.99566 1.56652e-17
4443.99556 1.56004e-17
4444.99546 1.55577e-17
4445.99536 1.55350e-17
4446.99526 1.54945e-17
4447.99516 1.54198e-17
4448.99506 1.53974e-17
4450.00495 1.53751e-17
4451.00486 1.53761e-17
4452.00475 1.52067e-17
4453.00465 1.51848e-17
4454.00455 1.51629e-17
4455.00446 1.50752e-17
4456.00436 1.50151e-17
4457.00425 1.49937e-17
4458.00415 1.49700e-17
4459.00405 1.49036e-17
4460.00396 1.48901e-17
4461.00385 1.48691e-17
4462.00375 1.48484e-17
4463.00365 1.48545e-17
4464.00356 1.48337e-17
4465.00346 1.48130e-17
4466.00335 1.48157e-17
4467.00325 1.47916e-17
4468.00315 1.47599e-17
4469.00306 1.47394e-17
4470.00295 1.45900e-17
4471.00285 1.43633e-17
4472.00275 1.43436e-17
4473.00266 1.43239e-17
4474.00256 1.39058e-17
4475.00245 1.35027e-17
4476.00235 1.34843e-17
4477.00225 1.34660e-17
4478.00216 1.33109e-17
4479.00205 1.32498e-17
4480.00195 1.32319e-17
4481.00185 1.31853e-17
4482.00176 1.29602e-17
4483.00166 1.28654e-17
4484.00155 1.28483e-17
4485.00145 1.28334e-17
4486.00135 1.28307e-17
4487.00126 1.28137e-17
4488.00115 1.27967e-17
4489.00105 1.27879e-17
4490.00095 1.27398e-17
4491.00086 1.27180e-17
4492.00076 1.27012e-17
4493.00065 1.26661e-17
4494.00055 1.26319e-17
4495.00045 1.26153e-17
4496.00036 1.25987e-17
4497.00025 1.25413e-17
4498.00015 1.24536e-17
4499.00005 1.24372e-17
4499.99996 1.24209e-17
4500.99986 1.24591e-17
4501.99975 1.24497e-17
4502.99965 1.24334e-17
4503.99955 1.24053e-17
4504.99946 1.25504e-17
4505.99935 1.26415e-17
4506.99925 1.26250e-17
4507.99915 1.26151e-17
4508.99906 1.26173e-17
4509.99896 1.26007e-17
4510.99885 1.25842e-17
4511.99875 1.26471e-17
4512.99865 1.26268e-17
4513.99856 1.26102e-17
4514.99845 1.25936e-17
4515.99835 1.26540e-17
4516.99825 1.26809e-17
4517.99816 1.26642e-17
4518.99806 1.26614e-17
4519.99795 1.27936e-17
4520.99785 1.27728e-17
4521.99775 1.27559e-17
4522.99766 1.27389e-17
4523.99755 1.27148e-17
4524.99745 1.26979e-17
4525.99735 1.26810e-17
4526.99726 1.25923e-17
4527.99716 1.24542e-17
4528.99705 1.24252e-17
4529.99695 1.24085e-17
4530.99685 1.23764e-17
4531.99676 1.23354e-17
4532.99665 1.23187e-17
4533.99655 1.23020e-17
4534.99645 1.23052e-17
4535.99636 1.23177e-17
4536.99626 1.23009e-17
4537.99615 1.22841e-17
4538.99605 1.21167e-17
4539.99596 1.20535e-17
4540.99586 1.20369e-17
4541.99575 1.19640e-17
4542.99565 1.16373e-17
4543.99555 1.15100e-17
4544.99546 1.14940e-17
4545.99536 1.14248e-17
4546.99525 1.10787e-17
4548.00515 1.10631e-17
4549.00505 1.10474e-17
4550.00495 1.08194e-17
4551.00485 1.01907e-17
4552.00475 1.01123e-17
4553.00465 1.00978e-17
4554.00455 9.83867e-18
4555.00445 9.59271e-18
4556.00435 9.57882e-18
4557.00425 9.56491e-18
4558.00415 8.82878e-18
4559.00405 8.40484e-18
4560.00395 8.39250e-18
4561.00385 8.38013e-18
4562.00375 7.86876e-18
4563.00365 7.79399e-18
4564.00355 7.78240e-18
4565.00345 7.63135e-18
4566.00335 7.16989e-18
4567.00325 7.04023e-18
4568.00315 7.02961e-18
4569.00305 6.96404e-18
4570.00295 6.79891e-18
4571.00285 6.78857e-18
4572.00275 6.77821e-18
4573.00265 6.63185e-18
4574.00255 6.34852e-18
4575.00245 6.33875e-18
4576.00235 6.32897e-18
4577.00225 6.37934e-18
4578.00215 6.40381e-18
4579.00205 6.39385e-18
4580.00195 6.40273e-18
4581.00185 6.64909e-18
4582.00175 6.82827e-18
4583.00165 6.81756e-18
4584.00155 6.81118e-18
4585.00145 7.21966e-18
4586.00135 7.20827e-18
4587.00125 7.19688e-18
4588.00115 7.33643e-18
4589.00105 7.70942e-18
4590.00095 7.77340e-18
4591.00085 7.76104e-18
4592.00075 7.91321e-18
4593.00065 8.16395e-18
4594.00055 8.15092e-18
4595.00045 8.13789e-18
4596.00035 8.63032e-18
4597.00025 9.10456e-18
4598.00015 9.08997e-18
4599.00005 9.07539e-18
4599.99995 9.33046e-18
4600.99985 9.40147e-18
4601.99975 9.38635e-18
4602.99965 9.45551e-18
4603.99955 9.88909e-18
4604.99945 1.00740e-17
4605.99935 1.00578e-17
4606.99925 1.00832e-17
4607.99915 1.03412e-17
4608.99905 1.03245e-17
4609.99895 1.03078e-17
4610.99885 1.04618e-17
4611.99875 1.07127e-17
4612.99865 1.07197e-17
4613.99855 1.07024e-17
4614.99845 1.09016e-17
4615.99835 1.10959e-17
4616.99825 1.10780e-17
4617.99815 1.10639e-17
4618.99805 1.14629e-17
4619.99795 1.16731e-17
4620.99785 1.16543e-17
4621.99775 1.16356e-17
4622.99765 1.17124e-17
4623.99755 1.17068e-17
4624.99745 1.16880e-17
4625.99735 1.17336e-17
4626.99725 1.19153e-17
4627.99715 1.19568e-17
4628.99705 1.19377e-17
4629.99695 1.19298e-17
4630.99685 1.19440e-17
4631.99675 1.19250e-17
4632.99665 1.19061e-17
4633.99655 1.20244e-17
4634.99645 1.22343e-17
4635.99635 1.22158e-17
4636.99625 1.21966e-17
4637.99615 1.23011e-17
4638.99605 1.23560e-17
4639.99595 1.23367e-17
4640.99585 1.23467e-17
4641.99575 1.25311e-17
4642.99565 1.25649e-17
4643.99555 1.25454e-17
4644.99545 1.25259e-17
4645.99535 1.26877e-17
4646.99525 1.26686e-17
4647.99515 1.26492e-17
4648.99505 1.27364e-17
4650.00495 1.29867e-17
4651.00485 1.30265e-17
4652.00475 1.30067e-17
4653.00465 1.30359e-17
4654.00455 1.30993e-17
4655.00445 1.30795e-17
4656.00435 1.30598e-17
4657.00425 1.30886e-17
4658.00415 1.31109e-17
4659.00405 1.30912e-17
4660.00395 1.30716e-17
4661.00385 1.30278e-17
4662.00375 1.30000e-17
4663.00365 1.29807e-17
4664.00355 1.29198e-17
4665.00345 1.27550e-17
4666.00335 1.26968e-17
4667.00325 1.26781e-17
4668.00315 1.26488e-17
4669.00305 1.25485e-17
4670.00295 1.25301e-17
4671.00285 1.25118e-17
4672.00275 1.24354e-17
4673.00265 1.23276e-17
4674.00255 1.23003e-17
4675.00245 1.22824e-17
4676.00235 1.21836e-17
4677.00225 1.20809e-17
4678.00215 1.20634e-17
4679.00205 1.20391e-17
4680.00195 1.17918e-17
4681.00185 1.16731e-17
4682.00175 1.16563e-17
4683.00165 1.16396e-17
4684.00155 1.15460e-17
4685.00145 1.15170e-17
4686.00135 1.15005e-17
4687.00125 1.15489e-17
4688.00115 1.16020e-17
4689.00105 1.15706e-17
4690.00095 1.15542e-17
4691.00085 1.15547e-17
4692.00075 1.15944e-17
4693.00065 1.15779e-17
4694.00055 1.15615e-17
4695.00045 1.15491e-17
4696.00035 1.16840e-17
4697.00025 1.16700e-17
4698.00015 1.16536e-17
4699.00005 1.17673e-17
4699.99995 1.18362e-17
4700.99985 1.18195e-17
4701.99975 1.18121e-17
4702.99965 1.18809e-17
4703.99955 1.19350e-17
4704.99945 1.19183e-17
4705.99935 1.19016e-17
4706.99925 1.21382e-17
4707.99915 1.21276e-17
4708.99905 1.21107e-17
4709.99895 1.22982e-17
4710.99885 1.26263e-17
4711.99875 1.26730e-17
4712.99865 1.26553e-17
4713.99855 1.26923e-17
4714.99845 1.27773e-17
4715.99835 1.27595e-17
4716.99825 1.27417e-17
4717.99815 1.28016e-17
4718.99805 1.29695e-17
4719.99795 1.29515e-17
4720.99785 1.29335e-17
4721.99775 1.29387e-17
4722.99765 1.29299e-17
4723.99755 1.29120e-17
4724.99745 1.29199e-17
4725.99735 1.29205e-17
4726.99725 1.28555e-17
4727.99715 1.28377e-17
4728.99705 1.28017e-17
4729.99695 1.25991e-17
4730.99685 1.25817e-17
4731.99675 1.25643e-17
4732.99665 1.24805e-17
4733.99655 1.23483e-17
4734.99645 1.23164e-17
4735.99635 1.22994e-17
4736.99625 1.22865e-17
4737.99615 1.22743e-17
4738.99605 1.22573e-17
4739.99595 1.22295e-17
4740.99585 1.19881e-17
4741.99575 1.19162e-17
4742.99565 1.18998e-17
4743.99555 1.18833e-17
4744.99545 1.17570e-17
4745.99535 1.17186e-17
4746.99525 1.17024e-17
4748.00515 1.17056e-17
4749.00505 1.16634e-17
4750.00495 1.16117e-17
4751.00485 1.15956e-17
4752.00475 1.15741e-17
4753.00465 1.15367e-17
4754.00455 1.15207e-17
4755.00445 1.15047e-17
4756.00435 1.13566e-17
4757.00425 1.12367e-17
4758.00415 1.12185e-17
4759.00405 1.12030e-17
4760.00395 1.10717e-17
4761.00385 1.09702e-17
4762.00375 1.09550e-17
4763.00365 1.08974e-17
4764.00355 1.06144e-17
4765.00345 1.04559e-17
4766.00335 1.04414e-17
4767.00325 1.04269e-17
4768.00315 1.02976e-17
4769.00305 1.02765e-17
4770.00295 1.02622e-17
4771.00285 1.02786e-17
4772.00275 1.02275e-17
4773.00265 1.01882e-17
4774.00255 1.01741e-17
4775.00245 1.01708e-17
4776.00235 1.01805e-17
4777.00225 1.01663e-17
4778.00215 1.01522e-17
4779.00205 1.02463e-17
4780.00195 1.04191e-17
4781.00185 1.04046e-17
4782.00175 1.03901e-17
4783.00165 1.05670e-17
4784.00155 1.06406e-17
4785.00145 1.06258e-17
4786.00135 1.06727e-17
4787.00125 1.09342e-17
4788.00115 1.10834e-17
4789.00105 1.10680e-17
4790.00095 1.10714e-17
4791.00085 1.13832e-17
4792.00075 1.13675e-17
4793.00065 1.13517e-17
4794.00055 1.15816e-17
4795.00045 1.19996e-17
4796.00035 1.20500e-17
4797.00025 1.20334e-17
4798.00015 1.22325e-17
4799.00005 1.25082e-17
4799.99995 1.24910e-17
4800.99985 1.24991e-17
4801.99975 1.30091e-17
4802.99965 1.34542e-17
4803.99955 1.34357e-17
4804.99945 1.34172e-17
4805.99935 1.38369e-17
4806.99925 1.39316e-17
4807.99915 1.39125e-17
4808.99905 1.41174e-17
4809.99895 1.45542e-17
4810.99885 1.46575e-17
4811.99875 1.46375e-17
4812.99865 1.46705e-17
4813.99855 1.49215e-17
4814.99845 1.49012e-17
4815.99835 1.48810e-17
4816.99825 1.51498e-17
4817.99815 1.56316e-17
4818.99805 1.56371e-17
4819.99795 1.56160e-17
4820.99785 1.58652e-17
4821.99775 1.60805e-17
4822.99765 1.60588e-17
4823.99755 1.61310e-17
4824.99745 1.66434e-17
4825.99735 1.68799e-17
4826.99725 1.68573e-17
4827.99715 1.68347e-17
4828.99705 1.69935e-17
4829.99695 1.69905e-17
4830.99685 1.69679e-17
4831.99675 1.72054e-17
4832.99665 1.76174e-17
4833.99655 1.76996e-17
4834.99645 1.76762e-17
4835.99635 1.77600e-17
4836.99625 1.80242e-17
4837.99615 1.80005e-17
4838.99605 1.79769e-17
4839.99595 1.81877e-17
4840.99585 1.85067e-17
4841.99575 1.84826e-17
4842.99565 1.84585e-17
4843.99555 1.85717e-17
4844.99545 1.86246e-17
4845.99535 1.86005e-17
4846.99525 1.85819e-17
4847.99515 1.85939e-17
4848.99505 1.86018e-17
4850.00495 1.85780e-17
4851.00485 1.85527e-17
4852.00475 1.83643e-17
4853.00465 1.83409e-17
4854.00455 1.83176e-17
4855.00445 1.83414e-17
4856.00435 1.82635e-17
4857.00425 1.82213e-17
4858.00415 1.81985e-17
4859.00405 1.81443e-17
4860.00395 1.80700e-17
4861.00385 1.80475e-17
4862.00375 1.80092e-17
4863.00365 1.76803e-17
4864.00355 1.74263e-17
4865.00345 1.74049e-17
4866.00335 1.73835e-17
4867.00325 1.71179e-17
4868.00315 1.70140e-17
4869.00305 1.69933e-17
4870.00295 1.68320e-17
4871.00285 1.64771e-17
4872.00275 1.63304e-17
4873.00265 1.63107e-17
4874.00255 1.62730e-17
4875.00245 1.61129e-17
4876.00235 1.60937e-17
4877.00225 1.60745e-17
4878.00215 1.59851e-17
4879.00205 1.59489e-17
4880.00195 1.59300e-17
4881.00185 1.59112e-17
4882.00175 1.59272e-17
4883.00165 1.59456e-17
4884.00155 1.59269e-17
4885.00145 1.59077e-17
4886.00135 1.58729e-17
4887.00125 1.58206e-17
4888.00115 1.58022e-17
4889.00105 1.57839e-17
4890.00095 1.56087e-17
4891.00085 1.55631e-17
4892.00075 1.55452e-17
4893.00065 1.54376e-17
4894.00055 1.53323e-17
4895.00045 1.53065e-17
4896.00035 1.52890e-17
4897.00025 1.52827e-17
4898.00015 1.53051e-17
4899.00005 1.52876e-17
4899.99995 1.52703e-17
4900.99985 1.52145e-17
4901.99975 1.51303e-17
4902.99965 1.51131e-17
4903.99955 1.50960e-17
4904.99945 1.49705e-17
4905.99935 1.48772e-17
4906.99925 1.48604e-17
4907.99915 1.48153e-17
4908.99905 1.46325e-17
4909.99895 1.44620e-17
4910.99885 1.44457e-17
4911.99875 1.44295e-17
4912.99865 1.41581e-17
4913.99855 1.41298e-17
4914.99845 1.41139e-17
4915.99835 1.38612e-17
4916.99825 1.34942e-17
4917.99815 1.34065e-17
4918.99805 1.33914e-17
4919.99795 1.32733e-17
4920.99785 1.30410e-17
4921.99775 1.30263e-17
4922.99765 1.29972e-17
4923.99755 1.26714e-17
4924.99745 1.24587e-17
4925.99735 1.24447e-17
4926.99725 1.24307e-17
4927.99715 1.23299e-17
4928.99705 1.22768e-17
4929.99695 1.22630e-17
4930.99685 1.22059e-17
4931.99675 1.20390e-17
4932.99665 1.19339e-17
4933.99655 1.19204e-17
4934.99645 1.18985e-17
4935.99635 1.17427e-17
4936.99625 1.17294e-17
4937.99615 1.17161e-17
4938.99605 1.16743e-17
4939.99595 1.16646e-17
4940.99585 1.16528e-17
4941.99575 1.16395e-17
4942.99565 1.16467e-17
4943.99555 1.16615e-17
4944.99545 1.16481e-17
4945.99535 1.16598e-17
4946.99525 1.17985e-17
4948.00515 1.18709e-17
4949.00505 1.18572e-17
4950.00495 1.18434e-17
4951.00485 1.21345e-17
4952.00475 1.22017e-17
4953.00465 1.21875e-17
4954.00455 1.23542e-17
4955.00445 1.27659e-17
4956.00435 1.29205e-17
4957.00425 1.29054e-17
4958.00415 1.29453e-17
4959.00405 1.32280e-17
4960.00395 1.32124e-17
4961.00385 1.31968e-17
4962.00375 1.34545e-17
4963.00365 1.37170e-17
4964.00355 1.37043e-17
4965.00345 1.36879e-17
4966.00335 1.38295e-17
4967.00325 1.39573e-17
4968.00315 1.39406e-17
4969.00305 1.40249e-17
4970.00295 1.43744e-17
4971.00285 1.45643e-17
4972.00275 1.45468e-17
4973.00265 1.45292e-17
4974.00255 1.47525e-17
4975.00245 1.47648e-17
4976.00235 1.47469e-17
4977.00225 1.49163e-17
4978.00215 1.51375e-17
4979.00205 1.51729e-17
4980.00195 1.51544e-17
4981.00185 1.52234e-17
4982.00175 1.54603e-17
4983.00165 1.54414e-17
4984.00155 1.54375e-17
4985.00145 1.59162e-17
4986.00135 1.61853e-17
4987.00125 1.61655e-17
4988.00115 1.61457e-17
4989.00105 1.62895e-17
4990.00095 1.63693e-17
4991.00085 1.63492e-17
4992.00075 1.63734e-17
4993.00065 1.65316e-17
4994.00055 1.66412e-17
4995.00045 1.66208e-17
4996.00035 1.66004e-17
4997.00025 1.66880e-17
4998.00015 1.66690e-17
4999.00005 1.66485e-17
4999.99995 1.66994e-17
5000.99985 1.68867e-17
5001.99975 1.69034e-17
5002.99965 1.68827e-17
5003.99955 1.68966e-17
5004.99945 1.69394e-17
5005.99935 1.69187e-17
5006.99925 1.69543e-17
5007.99915 1.72537e-17
5008.99905 1.72048e-17
5009.99895 1.71838e-17
5010.99885 1.71628e-17
5011.99875 1.71422e-17
5012.99865 1.71214e-17
5013.99855 1.71006e-17
5014.99845 1.70141e-17
5015.99835 1.69845e-17
5016.99825 1.70029e-17
5017.99815 1.69823e-17
5018.99805 1.69665e-17
5019.99795 1.69988e-17
5020.99785 1.69782e-17
5021.99775 1.69578e-17
5022.99765 1.67483e-17
5023.99755 1.67099e-17
5024.99745 1.66902e-17
5025.99735 1.66702e-17
5026.99725 1.67035e-17
5027.99715 1.67491e-17
5028.99705 1.67292e-17
5029.99695 1.67341e-17
5030.99685 1.68014e-17
5031.99675 1.68195e-17
5032.99665 1.67997e-17
5033.99655 1.67799e-17
5034.99645 1.68380e-17
5035.99635 1.68361e-17
5036.99625 1.68165e-17
5037.99615 1.68489e-17
5038.99605 1.68678e-17
5039.99595 1.68522e-17
5040.99585 1.68327e-17
5041.99575 1.68070e-17
5042.99565 1.67584e-17
5043.99555 1.67392e-17
5044.99545 1.67201e-17
5045.99535 1.67196e-17
5046.99525 1.68057e-17
5047.99515 1.67867e-17
5048.99505 1.67678e-17
5050.00495 1.67285e-17
5051.00485 1.66926e-17
5052.00475 1.66740e-17
5053.00465 1.66702e-17
5054.00455 1.66789e-17
5055.00445 1.66640e-17
5056.00435 1.66457e-17
5057.00425 1.66274e-17
5058.00415 1.66516e-17
5059.00405 1.66378e-17
5060.00395 1.66198e-17
5061.00385 1.66043e-17
5062.00375 1.66116e-17
5063.00365 1.66005e-17
5064.00355 1.65828e-17
5065.00345 1.66010e-17
5066.00335 1.66795e-17
5067.00325 1.66619e-17
5068.00315 1.66524e-17
5069.00305 1.67128e-17
5070.00295 1.67887e-17
5071.00285 1.67712e-17
5072.00275 1.67539e-17
5073.00265 1.67527e-17
5074.00255 1.67447e-17
5075.00245 1.67276e-17
5076.00235 1.67531e-17
5077.00225 1.67781e-17
5078.00215 1.67582e-17
5079.00205 1.67412e-17
5080.00195 1.67243e-17
5081.00185 1.66608e-17
5082.00175 1.66616e-17
5083.00165 1.66431e-17
5084.00155 1.66245e-17
5085.00145 1.66714e-17
5086.00135 1.66615e-17
5087.00125 1.66433e-17
5088.00115 1.66170e-17
5089.00105 1.65457e-17
5090.00095 1.65278e-17
5091.00085 1.65154e-17
5092.00075 1.65144e-17
5093.00065 1.64906e-17
5094.00055 1.64729e-17
5095.00045 1.64552e-17
5096.00035 1.65012e-17
5097.00025 1.65341e-17
5098.00015 1.65165e-17
5099.00005 1.65265e-17
5099.99995 1.65220e-17
5100.99985 1.65009e-17
5101.99975 1.64835e-17
5102.99965 1.64668e-17
5103.99955 1.65055e-17
5104.99945 1.65051e-17
5105.99935 1.64878e-17
5106.99925 1.64768e-17
5107.99915 1.65120e-17
5108.99905 1.64953e-17
5109.99895 1.64781e-17
5110.99885 1.65090e-17
5111.99875 1.67227e-17
5112.99865 1.67053e-17
5113.99855 1.67273e-17
5114.99845 1.68234e-17
5115.99835 1.68692e-17
5116.99825 1.68517e-17
5117.99815 1.68343e-17
5118.99805 1.69568e-17
5119.99795 1.70736e-17
5120.99785 1.70560e-17
5121.99775 1.70724e-17
5122.99765 1.70798e-17
5123.99755 1.70662e-17
5124.99745 1.70485e-17
5125.99735 1.70494e-17
5126.99725 1.73553e-17
5127.99715 1.73951e-17
5128.99705 1.73798e-17
5129.99695 1.74024e-17
5130.99685 1.74572e-17
5131.99675 1.74392e-17
5132.99665 1.74212e-17
5133.99655 1.74803e-17
5134.99645 1.76435e-17
5135.99635 1.76252e-17
5136.99625 1.76654e-17
5137.99615 1.77509e-17
5138.99605 1.77681e-17
5139.99595 1.77496e-17
5140.99585 1.77312e-17
5141.99575 1.79459e-17
5142.99565 1.80941e-17
5143.99555 1.80752e-17
5144.99545 1.81041e-17
5145.99535 1.82076e-17
5146.99525 1.82122e-17
5148.00515 1.81931e-17
5149.00505 1.82038e-17
5150.00495 1.84299e-17
5151.00485 1.84355e-17
5152.00475 1.84260e-17
5153.00465 1.84679e-17
5154.00455 1.85152e-17
5155.00445 1.84956e-17
5156.00435 1.84760e-17
5157.00425 1.85511e-17
5158.00415 1.87831e-17
5159.00405 1.87631e-17
5160.00395 1.87901e-17
5161.00385 1.88192e-17
5162.00375 1.88074e-17
5163.00365 1.87872e-17
5164.00355 1.87669e-17
5165.00345 1.89172e-17
5166.00335 1.89710e-17
5167.00325 1.89505e-17
5168.00315 1.89395e-17
5169.00305 1.89972e-17
5170.00295 1.89829e-17
5171.00285 1.89622e-17
5172.00275 1.89498e-17
5173.00265 1.89119e-17
5174.00255 1.88889e-17
5175.00245 1.88949e-17
5176.00235 1.89517e-17
5177.00225 1.89559e-17
5178.00215 1.89350e-17
5179.00205 1.89142e-17
5180.00195 1.89332e-17
5181.00185 1.90137e-17
5182.00175 1.89928e-17
5183.00165 1.89859e-17
5184.00155 1.89870e-17
5185.00145 1.89737e-17
5186.00135 1.89527e-17
5187.00125 1.89350e-17
5188.00115 1.89486e-17
5189.00105 1.89260e-17
5190.00095 1.89046e-17
5191.00085 1.88619e-17
5192.00075 1.88303e-17
5193.00065 1.88094e-17
5194.00055 1.87886e-17
5195.00045 1.87873e-17
5196.00035 1.88334e-17
5197.00025 1.88126e-17
5198.00015 1.88094e-17
5199.00005 1.88344e-17
5199.99995 1.88422e-17
5200.99985 1.88214e-17
5201.99975 1.88006e-17
5202.99965 1.88978e-17
5203.99955 1.90468e-17
5204.99945 1.90258e-17
5205.99935 1.90611e-17
5206.99925 1.90840e-17
5207.99915 1.90714e-17
5208.99905 1.90505e-17
5209.99895 1.90336e-17
5210.99885 1.90821e-17
5211.99875 1.90811e-17
5212.99865 1.90616e-17
5213.99855 1.90616e-17
5214.99845 1.91225e-17
5215.99835 1.91017e-17
5216.99825 1.90809e-17
5217.99815 1.90800e-17
5218.99805 1.91876e-17
5219.99795 1.91668e-17
5220.99785 1.91974e-17
5221.99775 1.92366e-17
5222.99765 1.92226e-17
5223.99755 1.92020e-17
5224.99745 1.91814e-17
5225.99735 1.92896e-17
5226.99725 1.93736e-17
5227.99715 1.93530e-17
5228.99705 1.93682e-17
5229.99695 1.94283e-17
5230.99685 1.94210e-17
5231.99675 1.94005e-17
5232.99665 1.94037e-17
5233.99655 1.95520e-17
5234.99645 1.95589e-17
5235.99635 1.95411e-17
5236.99625 1.95340e-17
5237.99615 1.95288e-17
5238.99605 1.95087e-17
5239.99595 1.94886e-17
5240.99585 1.96006e-17
5241.99575 1.99828e-17
5242.99565 1.99625e-17
5243.99555 2.00180e-17
5244.99545 2.01026e-17
5245.99535 2.01200e-17
5246.99525 2.00998e-17
5247.99515 2.00797e-17
5248.99505 2.01205e-17
5249.99495 2.01652e-17
5251.00485 2.01453e-17
5252.00475 2.01412e-17
5253.00465 2.02116e-17
5254.00455 2.01971e-17
5255.00445 2.01774e-17
5256.00435 2.01972e-17
5257.00425 2.03358e-17
5258.00415 2.03300e-17
5259.00405 2.03260e-17
5260.00395 2.03588e-17
5261.00385 2.03834e-17
5262.00375 2.03641e-17
5263.00365 2.03449e-17
5264.00355 2.02760e-17
5265.00345 2.02057e-17
5266.00335 2.01868e-17
5267.00325 2.01726e-17
5268.00315 2.00756e-17
5269.00305 2.00181e-17
5270.00295 1.99997e-17
5271.00285 1.99813e-17
5272.00275 1.99064e-17
5273.00265 1.98455e-17
5274.00255 1.98244e-17
5275.00245 1.97530e-17
5276.00235 1.97491e-17
5277.00225 1.97314e-17
5278.00215 1.97137e-17
5279.00205 1.96760e-17
5280.00195 1.96659e-17
5281.00185 1.96516e-17
5282.00175 1.96463e-17
5283.00165 1.96496e-17
5284.00155 1.96380e-17
5285.00145 1.96208e-17
5286.00135 1.96036e-17
5287.00125 1.95334e-17
5288.00115 1.94461e-17
5289.00105 1.94292e-17
5290.00095 1.93550e-17
5291.00085 1.93056e-17
5292.00075 1.92838e-17
5293.00065 1.92673e-17
5294.00055 1.92437e-17
5295.00045 1.90281e-17
5296.00035 1.89263e-17
5297.00025 1.88996e-17
5298.00015 1.88149e-17
5299.00005 1.87457e-17
5299.99995 1.87299e-17
5300.99985 1.87142e-17
5301.99975 1.86893e-17
5302.99965 1.86727e-17
5303.99955 1.86572e-17
5304.99945 1.86668e-17
5305.99935 1.86707e-17
5306.99925 1.86506e-17
5307.99915 1.86352e-17
5308.99905 1.86198e-17
5309.99895 1.87269e-17
5310.99885 1.88393e-17
5311.99875 1.88238e-17
5312.99865 1.88050e-17
5313.99855 1.87917e-17
5314.99845 1.87767e-17
5315.99835 1.87614e-17
5316.99825 1.87490e-17
5317.99815 1.87320e-17
5318.99805 1.87114e-17
5319.99795 1.87138e-17
5320.99785 1.87765e-17
5321.99775 1.88431e-17
5322.99765 1.88279e-17
5323.99755 1.88127e-17
5324.99745 1.89332e-17
5325.99735 1.94437e-17
5326.99725 1.94281e-17
5327.99715 1.94696e-17
5328.99705 1.95556e-17
5329.99695 1.95861e-17
5330.99685 1.95704e-17
5331.99675 1.95547e-17
5332.99665 1.96816e-17
5333.99655 1.97985e-17
5334.99645 1.97827e-17
5335.99635 1.98781e-17
5336.99625 1.99786e-17
5337.99615 1.99691e-17
5338.99605 1.99532e-17
5339.99595 1.99812e-17
5340.99585 2.04270e-17
5341.99575 2.05049e-17
5342.99565 2.05482e-17
5343.99555 2.06918e-17
5344.99545 2.07686e-17
5345.99535 2.07521e-17
5346.99525 2.07357e-17
5348.00515 2.09201e-17
5349.00505 2.14327e-17
5350.00495 2.14158e-17
5351.00485 2.15502e-17
5352.00475 2.17488e-17
5353.00465 2.18050e-17
5354.00455 2.17877e-17
5355.00445 2.17705e-17
5356.00435 2.22008e-17
5357.00425 2.24697e-17
5358.00415 2.24666e-17
5359.00405 2.26734e-17
5360.00395 2.28427e-17
5361.00385 2.28246e-17
5362.00375 2.28066e-17
5363.00365 2.28517e-17
5364.00355 2.34284e-17
5365.00345 2.34852e-17
5366.00335 2.34992e-17
5367.00325 2.35879e-17
5368.00315 2.36657e-17
5369.00305 2.36471e-17
5370.00295 2.36286e-17
5371.00285 2.37991e-17
5372.00275 2.41040e-17
5373.00265 2.40852e-17
5374.00255 2.41899e-17
5375.00245 2.42533e-17
5376.00235 2.42501e-17
5377.00225 2.42313e-17
5378.00215 2.42172e-17
5379.00205 2.43734e-17
5380.00195 2.44318e-17
5381.00185 2.44161e-17
5382.00175 2.44212e-17
5383.00165 2.44475e-17
5384.00155 2.44287e-17
5385.00145 2.44100e-17
5386.00135 2.43863e-17
5387.00125 2.44297e-17
5388.00115 2.44152e-17
5389.00105 2.44167e-17
5390.00095 2.44211e-17
5391.00085 2.44067e-17
5392.00075 2.43881e-17
5393.00065 2.43695e-17
5394.00055 2.43076e-17
5395.00045 2.41972e-17
5396.00035 2.41789e-17
5397.00025 2.41210e-17
5398.00015 2.41038e-17
5399.00005 2.40867e-17
5399.99995 2.40686e-17
5400.99985 2.40390e-17
5401.99975 2.38210e-17
5402.99965 2.37382e-17
5403.99955 2.36994e-17
5404.99945 2.35949e-17
5405.99935 2.34997e-17
5406.99925 2.34821e-17
5407.99915 2.34645e-17
5408.99905 2.33833e-17
5409.99895 2.30918e-17
5410.99885 2.30746e-17
5411.99875 2.29890e-17
5412.99865 2.28485e-17
5413.99855 2.27722e-17
5414.99845 2.27553e-17
5415.99835 2.27385e-17
5416.99825 2.25098e-17
5417.99815 2.22863e-17
5418.99805 2.22699e-17
5419.99795 2.21201e-17
5420.99785 2.19841e-17
5421.99775 2.19593e-17
5422.99765 2.19432e-17
5423.99755 2.19024e-17
5424.99745 2.14337e-17
5425.99735 2.12949e-17
5426.99725 2.12453e-17
5427.99715 2.11211e-17
5428.99705 2.10123e-17
5429.99695 2.09970e-17
5430.99685 2.09818e-17
5431.99675 2.08363e-17
5432.99665 2.03853e-17
5433.99655 2.03706e-17
5434.99645 2.02430e-17
5435.99635 2.00484e-17
5436.99625 1.99651e-17
5437.99615 1.99507e-17
5438.99605 1.99364e-17
5439.99595 1.95681e-17
5440.99585 1.92990e-17
5441.99575 1.92769e-17
5442.99565 1.90992e-17
5443.99555 1.89725e-17
5444.99545 1.89589e-17
5445.99535 1.89454e-17
5446.99525 1.88845e-17
5447.99515 1.83319e-17
5448.99505 1.82316e-17
5449.99495 1.81651e-17
5451.00485 1.80203e-17
5452.00475 1.79152e-17
5453.00464 1.79025e-17
5454.00455 1.78899e-17
5455.00445 1.78339e-17
5456.00435 1.76876e-17
5457.00425 1.76751e-17
5458.00414 1.76537e-17
5459.00405 1.76411e-17
5460.00395 1.76296e-17
5461.00385 1.76173e-17
5462.00374 1.76050e-17
5463.00365 1.75362e-17
5464.00355 1.75127e-17
5465.00345 1.74904e-17
5466.00335 1.74058e-17
5467.00324 1.73372e-17
5468.00315 1.73252e-17
5469.00305 1.73132e-17
5470.00295 1.73048e-17
5471.00284 1.73459e-17
5472.00275 1.73385e-17
5473.00265 1.73596e-17
5474.00255 1.74008e-17
5475.00245 1.74116e-17
5476.00234 1.73996e-17
5477.00225 1.73876e-17
5478.00215 1.74162e-17
5479.00205 1.74456e-17
5480.00194 1.74336e-17
5481.00185 1.74703e-17
5482.00175 1.75001e-17
5483.00165 1.74958e-17
5484.00155 1.74838e-17
5485.00144 1.74710e-17
5486.00135 1.75029e-17
5487.00125 1.75273e-17
5488.00115 1.75099e-17
5489.00104 1.74748e-17
5490.00095 1.74499e-17
5491.00085 1.74381e-17
5492.00075 1.74264e-17
5493.00065 1.74100e-17
5494.00054 1.74008e-17
5495.00045 1.73892e-17
5496.00035 1.73761e-17
5497.00025 1.73697e-17
5498.00014 1.73637e-17
5499.00005 1.73521e-17
5499.99995 1.73405e-17
5500.99985 1.73043e-17
5501.99975 1.72174e-17
5502.99964 1.72059e-17
5503.99955 1.71176e-17
5504.99945 1.70332e-17
5505.99935 1.70137e-17
5506.99924 1.70024e-17
5507.99915 1.69787e-17
5508.99905 1.67080e-17
5509.99895 1.66333e-17
5510.99885 1.66191e-17
5511.99874 1.65806e-17
5512.99865 1.65110e-17
5513.99855 1.65002e-17
5514.99845 1.64893e-17
5515.99834 1.64143e-17
5516.99825 1.60899e-17
5517.99815 1.60794e-17
5518.99805 1.59860e-17
5519.99795 1.58869e-17
5520.99784 1.58483e-17
5521.99775 1.58380e-17
5522.99765 1.58277e-17
5523.99755 1.55838e-17
5524.99744 1.53680e-17
5525.99735 1.53574e-17
5526.99725 1.52676e-17
5527.99715 1.51382e-17
5528.99705 1.51245e-17
5529.99694 1.51148e-17
5530.99685 1.50775e-17
5531.99675 1.47147e-17
5532.99665 1.46507e-17
5533.99654 1.45912e-17
5534.99645 1.44509e-17
5535.99635 1.43499e-17
5536.99625 1.43408e-17
5537.99615 1.43316e-17
5538.99604 1.41567e-17
5539.99595 1.36895e-17
5540.99585 1.36808e-17
5541.99575 1.35285e-17
5542.99564 1.33463e-17
5543.99555 1.32829e-17
5544.99545 1.32745e-17
5545.99535 1.32661e-17
5546.99525 1.26470e-17
5548.00514 1.22553e-17
5549.00504 1.22210e-17
5550.00494 1.19078e-17
5551.00484 1.15720e-17
5552.00474 1.15647e-17
5553.00464 1.15575e-17
5554.00454 1.14788e-17
5555.00444 1.03964e-17
5556.00434 1.02870e-17
5557.00424 1.01464e-17
5558.00414 9.84813e-18
5559.00404 9.65920e-18
5560.00394 9.65324e-18
5561.00384 9.64729e-18
5562.00374 9.24187e-18
5563.00364 8.48594e-18
5564.00354 8.48075e-18
5565.00344 8.23906e-18
5566.00334 7.95784e-18
5567.00324 7.88411e-18
5568.00314 7.87934e-18
5569.00304 7.87458e-18
5570.00294 7.18546e-18
5571.00284 6.87814e-18
5572.00274 6.84274e-18
5573.00264 6.64865e-18
5574.00254 6.47471e-18
5575.00244 6.47086e-18
5576.00234 6.46702e-18
5577.00224 6.41611e-18
5578.00214 5.83671e-18
5579.00204 5.82358e-18
5580.00194 5.75834e-18
5581.00184 5.63192e-18
5582.00174 5.55679e-18
5583.00164 5.55354e-18
5584.00154 5.55030e-18
5585.00144 5.43935e-18
5586.00134 5.28476e-18
5587.00124 5.28169e-18
5588.00114 5.21432e-18
5589.00104 5.16283e-18
5590.00094 5.15193e-18
5591.00084 5.14896e-18
5592.00074 5.14599e-18
5593.00064 5.13726e-18
5594.00054 5.13519e-18
5595.00044 5.12800e-18
5596.00034 5.11967e-18
5597.00024 5.15535e-18
5598.00014 5.15240e-18
5599.00004 5.14946e-18
5599.99994 5.18623e-18
5600.99984 5.39298e-18
5601.99974 5.38991e-18
5602.99964 5.44201e-18
5603.99954 5.51226e-18
5604.99944 5.53771e-18
5605.99934 5.53457e-18
5606.99924 5.53142e-18
5607.99914 5.64148e-18
5608.99904 5.75968e-18
5609.99894 5.75641e-18
5610.99884 5.83342e-18
5611.99874 5.89937e-18
5612.99864 5.90304e-18
5613.99854 5.89969e-18
5614.99844 5.90211e-18
5615.99834 6.21866e-18
5616.99824 6.27168e-18
5617.99814 6.29366e-18
5618.99804 6.37983e-18
5619.99794 6.46107e-18
5620.99784 6.45740e-18
5621.99774 6.45373e-18
5622.99764 6.58319e-18
5623.99754 7.01525e-18
5624.99744 7.01126e-18
5625.99734 7.13083e-18
5626.99724 7.29549e-18
5627.99714 7.35613e-18
5628.99704 7.35193e-18
5629.99694 7.34772e-18
5630.99684 7.88087e-18
5631.99674 8.27525e-18
5632.99664 8.27267e-18
5633.99654 8.50179e-18
5634.99644 8.72912e-18
5635.99634 8.73120e-18
5636.99624 8.72616e-18
5637.99614 8.75239e-18
5638.99604 9.67379e-18
5639.99594 9.75422e-18
5640.99584 9.84522e-18
5641.99574 1.01111e-17
5642.99564 1.03186e-17
5643.99554 1.03125e-17
5644.99544 1.03065e-17
5645.99534 1.07042e-17
5646.99524 1.15956e-17
5647.99514 1.15888e-17
5648.99504 1.18496e-17
5649.99494 1.21924e-17
5651.00484 1.22998e-17
5652.00474 1.22925e-17
5653.00464 1.22852e-17
5654.00454 1.31637e-17
5655.00444 1.36167e-17
5656.00434 1.36321e-17
5657.00424 1.39279e-17
5658.00414 1.42222e-17
5659.00404 1.42135e-17
5660.00394 1.42049e-17
5661.00384 1.42497e-17
5662.00374 1.53851e-17
5663.00364 1.53954e-17
5664.00354 1.55227e-17
5665.00344 1.58227e-17
5666.00334 1.60111e-17
5667.00324 1.60011e-17
5668.00314 1.59911e-17
5669.00304 1.63878e-17
5670.00294 1.70403e-17
5671.00284 1.70295e-17
5672.00274 1.71709e-17
5673.00264 1.73195e-17
5674.00254 1.73482e-17
5675.00244 1.73371e-17
5676.00234 1.73260e-17
5677.00224 1.79031e-17
5678.00214 1.80842e-17
5679.00204 1.81118e-17
5680.00194 1.83780e-17
5681.00184 1.86590e-17
5682.00174 1.86469e-17
5683.00164 1.86348e-17
5684.00154 1.87336e-17
5685.00144 1.96786e-17
5686.00134 1.96657e-17
5687.00124 1.98004e-17
5688.00114 2.00556e-17
5689.00104 2.01802e-17
5690.00094 2.01669e-17
5691.00084 2.01536e-17
5692.00074 2.06663e-17
5693.00064 2.12500e-17
5694.00054 2.12360e-17
5695.00044 2.14855e-17
5696.00034 2.17611e-17
5697.00024 2.18030e-17
5698.00014 2.17885e-17
5699.00004 2.17741e-17
5699.99994 2.27065e-17
5700.99984 2.28899e-17
5701.99974 2.29252e-17
5702.99964 2.31508e-17
5703.99954 2.33304e-17
5704.99944 2.33150e-17
5705.99934 2.32997e-17
5706.99924 2.34148e-17
5707.99914 2.39599e-17
5708.99904 2.39441e-17
5709.99894 2.40119e-17
5710.99884 2.41376e-17
5711.99874 2.41902e-17
5712.99864 2.41744e-17
5713.99854 2.41586e-17
5714.99844 2.43710e-17
5715.99834 2.45422e-17
5716.99824 2.45263e-17
5717.99814 2.45788e-17
5718.99804 2.46456e-17
5719.99794 2.46406e-17
5720.99784 2.46247e-17
5721.99774 2.46089e-17
5722.99764 2.46722e-17
5723.99754 2.46654e-17
5724.99744 2.46536e-17
5725.99734 2.46385e-17
5726.99724 2.45866e-17
5727.99714 2.45710e-17
5728.99704 2.45556e-17
5729.99694 2.44540e-17
5730.99684 2.42089e-17
5731.99674 2.41938e-17
5732.99664 2.40766e-17
5733.99654 2.39208e-17
5734.99644 2.38513e-17
5735.99634 2.38367e-17
5736.99624 2.38221e-17
5737.99614 2.32825e-17
5738.99604 2.29628e-17
5739.99594 2.29490e-17
5740.99584 2.27194e-17
5741.99574 2.25138e-17
5742.99564 2.24873e-17
5743.99554 2.24741e-17
5744.99544 2.24606e-17
5745.99534 2.21019e-17
5746.99524 2.20850e-17
5748.00514 2.20797e-17
5749.00504 2.20830e-17
5750.00494 2.20696e-17
5751.00484 2.20571e-17
5752.00474 2.20447e-17
5753.00464 2.20562e-17
5754.00454 2.20878e-17
5755.00444 2.20756e-17
5756.00434 2.20657e-17
5757.00424 2.20726e-17
5758.00414 2.20708e-17
5759.00404 2.20590e-17
5760.00394 2.20472e-17
5761.00384 2.22074e-17
5762.00374 2.22650e-17
5763.00364 2.22546e-17
5764.00354 2.23067e-17
5765.00344 2.23151e-17
5766.00334 2.23039e-17
5767.00324 2.22927e-17
5768.00314 2.22686e-17
5769.00304 2.21072e-17
5770.00294 2.20963e-17
5771.00284 2.20743e-17
5772.00274 2.20358e-17
5773.00264 2.20083e-17
5774.00254 2.19977e-17
5775.00244 2.19872e-17
5776.00234 2.19391e-17
5777.00224 2.18769e-17
5778.00214 2.18667e-17
5779.00204 2.18053e-17
5780.00194 2.17730e-17
5781.00184 2.17620e-17
5782.00174 2.17520e-17
5783.00164 2.17422e-17
5784.00154 2.15654e-17
5785.00144 2.15098e-17
5786.00134 2.14985e-17
5787.00124 2.14621e-17
5788.00114 2.13538e-17
5789.00104 2.13444e-17
5790.00094 2.13351e-17
5791.00084 2.12910e-17
5792.00074 2.10968e-17
5793.00064 2.10877e-17
5794.00054 2.10067e-17
5795.00044 2.08741e-17
5796.00034 2.08277e-17
5797.00024 2.08188e-17
5798.00014 2.08100e-17
5799.00004 2.05974e-17
5799.99994 2.04031e-17
5800.99984 2.03946e-17
5801.99974 2.03942e-17
5802.99964 2.03282e-17
5803.99954 2.02999e-17
5804.99944 2.02915e-17
5805.99934 2.02831e-17
5806.99924 2.01153e-17
5807.99914 2.00841e-17
5808.99904 2.00643e-17
5809.99894 1.99675e-17
5810.99884 1.99076e-17
5811.99874 1.98995e-17
5812.99864 1.98913e-17
5813.99854 1.98201e-17
5814.99844 1.95857e-17
5815.99834 1.95777e-17
5816.99824 1.95406e-17
5817.99814 1.94672e-17
5818.99804 1.94198e-17
5819.99794 1.94119e-17
5820.99784 1.94039e-17
5821.99774 1.91936e-17
5822.99764 1.90443e-17
5823.99754 1.90366e-17
5824.99744 1.89518e-17
5825.99734 1.88449e-17
5826.99724 1.88170e-17
5827.99714 1.88093e-17
5828.99704 1.88007e-17
5829.99694 1.83493e-17
5830.99684 1.83330e-17
5831.99674 1.83101e-17
5832.99664 1.82199e-17
5833.99654 1.81659e-17
5834.99644 1.81583e-17
5835.99634 1.81507e-17
5836.99624 1.80523e-17
5837.99614 1.78275e-17
5838.99604 1.78200e-17
5839.99594 1.77384e-17
5840.99584 1.75837e-17
5841.99574 1.74989e-17
5842.99564 1.74914e-17
5843.99554 1.74839e-17
5844.99544 1.72057e-17
5845.99534 1.70777e-17
5846.99524 1.70703e-17
5847.99514 1.70241e-17
5848.99504 1.69582e-17
5849.99494 1.69418e-17
5851.00484 1.69343e-17
5852.00474 1.69037e-17
5853.00464 1.66051e-17
5854.00454 1.65851e-17
5855.00444 1.65644e-17
5856.00434 1.64859e-17
5857.00424 1.63880e-17
5858.00414 1.63805e-17
5859.00404 1.63729e-17
5860.00394 1.62632e-17
5861.00384 1.61052e-17
5862.00374 1.60976e-17
5863.00364 1.60511e-17
5864.00354 1.60086e-17
5865.00344 1.59972e-17
5866.00334 1.59896e-17
5867.00324 1.59820e-17
5868.00314 1.58160e-17
5869.00304 1.57437e-17
5870.00294 1.57361e-17
5871.00284 1.56809e-17
5872.00274 1.56214e-17
5873.00264 1.56087e-17
5874.00254 1.56011e-17
5875.00244 1.55761e-17
5876.00234 1.55026e-17
5877.00224 1.54957e-17
5878.00214 1.54778e-17
5879.00204 1.54249e-17
5880.00194 1.53700e-17
5881.00184 1.53624e-17
5882.00174 1.53548e-17
5883.00164 1.52251e-17
5884.00154 1.50811e-17
5885.00144 1.50736e-17
5886.00134 1.50300e-17
5887.00124 1.49717e-17
5888.00114 1.49461e-17
5889.00104 1.49386e-17
5890.00094 1.49311e-17
5891.00084 1.48332e-17
5892.00074 1.48173e-17
5893.00064 1.48098e-17
5894.00054 1.48261e-17
5895.00044 1.48133e-17
5896.00034 1.48055e-17
5897.00024 1.47980e-17
5898.00014 1.47686e-17
5899.00004 1.46806e-17
5899.99994 1.46713e-17
5900.99984 1.46411e-17
5901.99974 1.45656e-17
5902.99964 1.45224e-17
5903.99954 1.45150e-17
5904.99944 1.45077e-17
5905.99934 1.44883e-17
5906.99924 1.44316e-17
5907.99914 1.44243e-17
5908.99904 1.43943e-17
5909.99894 1.43644e-17
5910.99884 1.43515e-17
5911.99874 1.43443e-17
5912.99864 1.43312e-17
5913.99854 1.40800e-17
5914.99844 1.40700e-17
5915.99834 1.40628e-17
5916.99824 1.40445e-17
5917.99814 1.40062e-17
5918.99804 1.39990e-17
5919.99794 1.39919e-17
5920.99784 1.39597e-17
5921.99774 1.38997e-17
5922.99764 1.38922e-17
5923.99754 1.38696e-17
5924.99744 1.38213e-17
5925.99734 1.37938e-17
5926.99724 1.37869e-17
5927.99714 1.37799e-17
5928.99704 1.37671e-17
5929.99694 1.37556e-17
5930.99684 1.37487e-17
5931.99674 1.37555e-17
5932.99664 1.37646e-17
5933.99654 1.37621e-17
5934.99644 1.37553e-17
5935.99634 1.37662e-17
5936.99624 1.39030e-17
5937.99614 1.39041e-17
5938.99604 1.38975e-17
5939.99594 1.38968e-17
5940.99584 1.39125e-17
5941.99574 1.39057e-17
5942.99564 1.38990e-17
5943.99554 1.39036e-17
5944.99544 1.39224e-17
5945.99534 1.39157e-17
5946.99524 1.39262e-17
5947.99514 1.39656e-17
5949.00504 1.39869e-17
5950.00494 1.39803e-17
5951.00484 1.39736e-17
5952.00474 1.41175e-17
5953.00464 1.41643e-17
5954.00454 1.41576e-17
5955.00444 1.41876e-17
5956.00434 1.41925e-17
5957.00424 1.41849e-17
5958.00414 1.41783e-17
5959.00404 1.41905e-17
5960.00394 1.42690e-17
5961.00384 1.42706e-17
5962.00374 1.42653e-17
5963.00364 1.42830e-17
5964.00354 1.43433e-17
5965.00344 1.43368e-17
5966.00334 1.43302e-17
5967.00324 1.44115e-17
5968.00314 1.45140e-17
5969.00304 1.45074e-17
5970.00294 1.45314e-17
5971.00284 1.45900e-17
5972.00274 1.46119e-17
5973.00264 1.46053e-17
5974.00254 1.45987e-17
5975.00244 1.46826e-17
5976.00234 1.47278e-17
5977.00224 1.47212e-17
5978.00214 1.47384e-17
5979.00204 1.47634e-17
5980.00194 1.47639e-17
5981.00184 1.47573e-17
5982.00174 1.47873e-17
5983.00164 1.48625e-17
5984.00154 1.48570e-17
5985.00144 1.48500e-17
5986.00134 1.48387e-17
5987.00124 1.48254e-17
5988.00114 1.48188e-17
5989.00104 1.48123e-17
5990.00094 1.48392e-17
5991.00084 1.48228e-17
5992.00074 1.48163e-17
5993.00064 1.47944e-17
5994.00054 1.47675e-17
5995.00044 1.47599e-17
5996.00034 1.47534e-17
5997.00024 1.47369e-17
5998.00014 1.45126e-17
5999.00004 1.44794e-17
5999.99994 1.44731e-17
6000.99984 1.44423e-17
6001.99974 1.43807e-17
6002.99964 1.43629e-17
6003.99954 1.43566e-17
6004.99944 1.43318e-17
6005.99934 1.42937e-17
6006.99924 1.42857e-17
6007.99914 1.42699e-17
6008.99904 1.41898e-17
6009.99894 1.41442e-17
6010.99884 1.41382e-17
6011.99874 1.41321e-17
6012.99864 1.39925e-17
6013.99854 1.39077e-17
6014.99844 1.39017e-17
6015.99834 1.38982e-17
6016.99824 1.38932e-17
6017.99814 1.38855e-17
6018.99804 1.38796e-17
6019.99794 1.38711e-17
6020.99784 1.38498e-17
6021.99774 1.38439e-17
6022.99764 1.38381e-17
6023.99754 1.38618e-17
6024.99744 1.38869e-17
6025.99734 1.38856e-17
6026.99724 1.38798e-17
6027.99714 1.39129e-17
6028.99704 1.39608e-17
6029.99694 1.39601e-17
6030.99684 1.39542e-17
6031.99674 1.39432e-17
6032.99664 1.39163e-17
6033.99654 1.39106e-17
6034.99644 1.39048e-17
6035.99634 1.40325e-17
6036.99624 1.40568e-17
6037.99614 1.40510e-17
6038.99604 1.40922e-17
6039.99594 1.41817e-17
6040.99584 1.42177e-17
6041.99574 1.42119e-17
6042.99564 1.42289e-17
6043.99554 1.43234e-17
6044.99544 1.43540e-17
6045.99534 1.43482e-17
6046.99524 1.43509e-17
6047.99514 1.43890e-17
6048.99504 1.43892e-17
6049.99494 1.43834e-17
6051.00484 1.45091e-17
6052.00474 1.46673e-17
6053.00464 1.46828e-17
6054.00454 1.46913e-17
6055.00444 1.47609e-17
6056.00434 1.47850e-17
6057.00424 1.47790e-17
6058.00414 1.47731e-17
6059.00404 1.49524e-17
6060.00394 1.50469e-17
6061.00384 1.50409e-17
6062.00374 1.50940e-17
6063.00364 1.52130e-17
6064.00354 1.52618e-17
6065.00344 1.52557e-17
6066.00334 1.54049e-17
6067.00324 1.57445e-17
6068.00314 1.57911e-17
6069.00304 1.57847e-17
6070.00294 1.58854e-17
6071.00284 1.60215e-17
6072.00274 1.60283e-17
6073.00264 1.60219e-17
6074.00254 1.62923e-17
6075.00244 1.65382e-17
6076.00234 1.65642e-17
6077.00224 1.65787e-17
6078.00214 1.66908e-17
6079.00204 1.67850e-17
6080.00194 1.67782e-17
6081.00184 1.67997e-17
6082.00174 1.71570e-17
6083.00164 1.71965e-17
6084.00154 1.71896e-17
6085.00144 1.72205e-17
6086.00134 1.72833e-17
6087.00124 1.73024e-17
6088.00114 1.72955e-17
6089.00104 1.73298e-17
6090.00094 1.73937e-17
6091.00084 1.74060e-17
6092.00074 1.73991e-17
6093.00064 1.74392e-17
6094.00054 1.74829e-17
6095.00044 1.74793e-17
6096.00034 1.74724e-17
6097.00024 1.75833e-17
6098.00014 1.76138e-17
6099.00004 1.76087e-17
6099.99994 1.76055e-17
6100.99984 1.76188e-17
6101.99974 1.76308e-17
6102.99964 1.76239e-17
6103.99954 1.76012e-17
6104.99944 1.75208e-17
6105.99934 1.75309e-17
6106.99924 1.75242e-17
6107.99914 1.75089e-17
6108.99904 1.74761e-17
6109.99894 1.74575e-17
6110.99884 1.74508e-17
6111.99874 1.74242e-17
6112.99864 1.73535e-17
6113.99854 1.73013e-17
6114.99844 1.72948e-17
6115.99834 1.72977e-17
6116.99824 1.72677e-17
6117.99814 1.72603e-17
6118.99804 1.72539e-17
6119.99794 1.71867e-17
6120.99784 1.71556e-17
6121.99774 1.71461e-17
6122.99764 1.71265e-17
6123.99754 1.70627e-17
6124.99744 1.70242e-17
6125.99734 1.70182e-17
6126.99724 1.69627e-17
6127.99714 1.68192e-17
6128.99704 1.68002e-17
6129.99694 1.67944e-17
6130.99684 1.67428e-17
6131.99674 1.66547e-17
6132.99664 1.66219e-17
6133.99654 1.66162e-17
6134.99644 1.66585e-17
6135.99634 1.66924e-17
6136.99624 1.66976e-17
6137.99614 1.66921e-17
6138.99604 1.67019e-17
6139.99594 1.67224e-17
6140.99584 1.67175e-17
6141.99574 1.67121e-17
6142.99564 1.66715e-17
6143.99554 1.66403e-17
6144.99544 1.66309e-17
6145.99534 1.66264e-17
6146.99524 1.66229e-17
6147.99514 1.66163e-17
6149.00504 1.66113e-17
6150.00494 1.65732e-17
6151.00484 1.65089e-17
6152.00474 1.64963e-17
6153.00464 1.64915e-17
6154.00454 1.64906e-17
6155.00444 1.65086e-17
6156.00434 1.65142e-17
6157.00424 1.65096e-17
6158.00414 1.64907e-17
6159.00404 1.64381e-17
6160.00394 1.63967e-17
6161.00384 1.63923e-17
6162.00374 1.62950e-17
6163.00364 1.61421e-17
6164.00354 1.61380e-17
6165.00344 1.60974e-17
6166.00334 1.57537e-17
6167.00324 1.56458e-17
6168.00314 1.56269e-17
6169.00304 1.55866e-17
6170.00294 1.54317e-17
6171.00284 1.53396e-17
6172.00274 1.53361e-17
6173.00264 1.51268e-17
6174.00254 1.48543e-17
6175.00244 1.47381e-17
6176.00234 1.47349e-17
6177.00224 1.46465e-17
6178.00214 1.44956e-17
6179.00204 1.44504e-17
6180.00194 1.44474e-17
6181.00184 1.41056e-17
6182.00174 1.39607e-17
6183.00164 1.38988e-17
6184.00154 1.38961e-17
6185.00144 1.37978e-17
6186.00134 1.36784e-17
6187.00124 1.36758e-17
6188.00114 1.35916e-17
6189.00104 1.32496e-17
6190.00094 1.31726e-17
6191.00084 1.31605e-17
6192.00074 1.31281e-17
6193.00064 1.29985e-17
6194.00054 1.29172e-17
6195.00044 1.29150e-17
6196.00034 1.28032e-17
6197.00024 1.26865e-17
6198.00014 1.25853e-17
6199.00004 1.25832e-17
6199.99994 1.25397e-17
6200.99984 1.24568e-17
6201.99974 1.24315e-17
6202.99964 1.24295e-17
6203.99954 1.22526e-17
6204.99944 1.22199e-17
6205.99934 1.22049e-17
6206.99924 1.22030e-17
6207.99914 1.21366e-17
6208.99904 1.20945e-17
6209.99894 1.20926e-17
6210.99884 1.20977e-17
6211.99874 1.21129e-17
6212.99864 1.21256e-17
6213.99854 1.21254e-17
6214.99844 1.21298e-17
6215.99834 1.21597e-17
6216.99824 1.21832e-17
6217.99814 1.21813e-17
6218.99804 1.22113e-17
6219.99794 1.22459e-17
6220.99784 1.23098e-17
6221.99774 1.23079e-17
6222.99764 1.23694e-17
6223.99754 1.25103e-17
6224.99744 1.25498e-17
6225.99734 1.25576e-17
6226.99724 1.30037e-17
6227.99714 1.30867e-17
6228.99704 1.31497e-17
6229.99694 1.31476e-17
6230.99684 1.33223e-17
6231.99674 1.34767e-17
6232.99664 1.34745e-17
6233.99654 1.37177e-17
6234.99644 1.41050e-17
6235.99634 1.43104e-17
6236.99624 1.43305e-17
6237.99614 1.43929e-17
6238.99604 1.46518e-17
6239.99594 1.47904e-17
6240.99584 1.47879e-17
6241.99574 1.54105e-17
6242.99564 1.56734e-17
6243.99554 1.58601e-17
6244.99544 1.58573e-17
6245.99534 1.60184e-17
6246.99524 1.63271e-17
6247.99514 1.64032e-17
6248.99504 1.64780e-17
6249.99494 1.70629e-17
6251.00484 1.72283e-17
6252.00474 1.73504e-17
6253.00464 1.73471e-17
6254.00454 1.75673e-17
6255.00444 1.77911e-17
6256.00434 1.77875e-17
6257.00424 1.80867e-17
6258.00414 1.84084e-17
6259.00404 1.85409e-17
6260.00394 1.85507e-17
6261.00384 1.86025e-17
6262.00374 1.88148e-17
6263.00364 1.89135e-17
6264.00354 1.89094e-17
6265.00344 1.94068e-17
6266.00334 1.95484e-17
6267.00324 1.97164e-17
6268.00314 1.97120e-17
6269.00304 1.98362e-17
6270.00294 2.00736e-17
6271.00284 2.01271e-17
6272.00274 2.02309e-17
6273.00264 2.06285e-17
6274.00254 2.07222e-17
6275.00244 2.07892e-17
6276.00234 2.07843e-17
6277.00224 2.09285e-17
6278.00214 2.11141e-17
6279.00204 2.11090e-17
6280.00194 2.14981e-17
6281.00184 2.17816e-17
6282.00174 2.19443e-17
6283.00164 2.19551e-17
6284.00154 2.20042e-17
6285.00144 2.22224e-17
6286.00134 2.23287e-17
6287.00124 2.23232e-17
6288.00114 2.28195e-17
6289.00104 2.28909e-17
6290.00094 2.30266e-17
6291.00084 2.30208e-17
6292.00074 2.31303e-17
6293.00064 2.33359e-17
6294.00054 2.33780e-17
6295.00044 2.35074e-17
6296.00034 2.38069e-17
6297.00024 2.38940e-17
6298.00014 2.39553e-17
6299.00004 2.39492e-17
6299.99994 2.40672e-17
6300.99984 2.41559e-17
6301.99974 2.41498e-17
6302.99964 2.43309e-17
6303.99954 2.44163e-17
6304.99944 2.45297e-17
6305.99934 2.45347e-17
6306.99924 2.45507e-17
6307.99914 2.46621e-17
6308.99904 2.47356e-17
6309.99894 2.47393e-17
6310.99884 2.49981e-17
6311.99874 2.50196e-17
6312.99864 2.50977e-17
6313.99854 2.50913e-17
6314.99844 2.51610e-17
6315.99834 2.52823e-17
6316.99824 2.53023e-17
6317.99814 2.54343e-17
6318.99804 2.56345e-17
6319.99794 2.56422e-17
6320.99784 2.56459e-17
6321.99774 2.56395e-17
6322.99764 2.57119e-17
6323.99754 2.57855e-17
6324.99744 2.57791e-17
6325.99734 2.59761e-17
6326.99724 2.60319e-17
6327.99714 2.60553e-17
6328.99704 2.60517e-17
6329.99694 2.60630e-17
6330.99684 2.61330e-17
6331.99674 2.61610e-17
6332.99664 2.61611e-17
6333.99654 2.61981e-17
6334.99644 2.62009e-17
6335.99634 2.62226e-17
6336.99624 2.62163e-17
6337.99614 2.61612e-17
6338.99604 2.60652e-17
6339.99594 2.60401e-17
6340.99584 2.59805e-17
6341.99574 2.59197e-17
6342.99564 2.58558e-17
6343.99554 2.58079e-17
6344.99544 2.58020e-17
6345.99534 2.57253e-17
6346.99524 2.56082e-17
6347.99514 2.56024e-17
6349.00504 2.51173e-17
6350.00494 2.50331e-17
6351.00484 2.48885e-17
6352.00474 2.48696e-17
6353.00464 2.48011e-17
6354.00454 2.45090e-17
6355.00444 2.43786e-17
6356.00434 2.42180e-17
6357.00424 2.36729e-17
6358.00414 2.36092e-17
6359.00404 2.34231e-17
6360.00394 2.34182e-17
6361.00384 2.33212e-17
6362.00374 2.30881e-17
6363.00364 2.30281e-17
6364.00354 2.26458e-17
6365.00344 2.23763e-17
6366.00334 2.22335e-17
6367.00324 2.21276e-17
6368.00314 2.21231e-17
6369.00304 2.18829e-17
6370.00294 2.16562e-17
6371.00284 2.16518e-17
6372.00274 2.11309e-17
6373.00264 2.11006e-17
6374.00254 2.09368e-17
6375.00244 2.09166e-17
6376.00234 2.08679e-17
6377.00224 2.06359e-17
6378.00214 2.05244e-17
6379.00204 2.03734e-17
6380.00194 2.00512e-17
6381.00184 2.00170e-17
6382.00174 1.99174e-17
6383.00164 1.99136e-17
6384.00154 1.98623e-17
6385.00144 1.97646e-17
6386.00134 1.97411e-17
6387.00124 1.95123e-17
6388.00114 1.94026e-17
6389.00104 1.93594e-17
6390.00094 1.93261e-17
6391.00084 1.93225e-17
6392.00074 1.92757e-17
6393.00064 1.92137e-17
6394.00054 1.92047e-17
6395.00044 1.90835e-17
6396.00034 1.90800e-17
6397.00024 1.90857e-17
6398.00014 1.90831e-17
6399.00004 1.90769e-17
6399.99994 1.90578e-17
6400.99984 1.90466e-17
6401.99974 1.90676e-17
6402.99964 1.90995e-17
6403.99954 1.90909e-17
6404.99944 1.90702e-17
6405.99934 1.90668e-17
6406.99924 1.90792e-17
6407.99914 1.91087e-17
6408.99904 1.91123e-17
6409.99894 1.91848e-17
6410.99884 1.92039e-17
6411.99874 1.92250e-17
6412.99864 1.92406e-17
6413.99854 1.92372e-17
6414.99844 1.92874e-17
6415.99834 1.93697e-17
6416.99824 1.94029e-17
6417.99814 1.96335e-17
6418.99804 1.96301e-17
6419.99794 1.97476e-17
6420.99784 1.97584e-17
6421.99774 1.97750e-17
6422.99764 1.98961e-17
6423.99754 1.99484e-17
6424.99744 2.01450e-17
6425.99734 2.03427e-17
6426.99724 2.03759e-17
6427.99714 2.04978e-17
6428.99704 2.04945e-17
6429.99694 2.05861e-17
6430.99684 2.08326e-17
6431.99674 2.08904e-17
6432.99664 2.13038e-17
6433.99654 2.13671e-17
6434.99644 2.14815e-17
6435.99634 2.15723e-17
6436.99624 2.15688e-17
6437.99614 2.17585e-17
6438.99604 2.19896e-17
6439.99594 2.21479e-17
6440.99584 2.26998e-17
6441.99574 2.26963e-17
6442.99564 2.28190e-17
6443.99554 2.28318e-17
6444.99544 2.28552e-17
6445.99534 2.30665e-17
6447.00523 2.31811e-17
6448.00513 2.34808e-17
6449.00504 2.36890e-17
6450.00493 2.37242e-17
6451.00483 2.38619e-17
6452.00473 2.38583e-17
6453.00463 2.39250e-17
6454.00454 2.40562e-17
6455.00443 2.40771e-17
6456.00433 2.43442e-17
6457.00423 2.43543e-17
6458.00414 2.43955e-17
6459.00403 2.44293e-17
6460.00393 2.44257e-17
6461.00383 2.44765e-17
6462.00373 2.45553e-17
6463.00364 2.46254e-17
6464.00353 2.47820e-17
6465.00343 2.47784e-17
6466.00333 2.48262e-17
6467.00324 2.48300e-17
6468.00313 2.48348e-17
6469.00303 2.49186e-17
6470.00293 2.49692e-17
6471.00283 2.51571e-17
6472.00274 2.52443e-17
6473.00263 2.52612e-17
6474.00253 2.53384e-17
6475.00243 2.53347e-17
6476.00234 2.53748e-17
6477.00223 2.54755e-17
6478.00213 2.54957e-17
6479.00203 2.55207e-17
6480.00193 2.55170e-17
6481.00184 2.55308e-17
6482.00173 2.55426e-17
6483.00163 2.55388e-17
6484.00153 2.55380e-17
6485.00144 2.55349e-17
6486.00133 2.56067e-17
6487.00123 2.57146e-17
6488.00113 2.57108e-17
6489.00103 2.56821e-17
6490.00094 2.56743e-17
6491.00083 2.56748e-17
6492.00073 2.57187e-17
6493.00063 2.57344e-17
6494.00054 2.56117e-17
6495.00043 2.55718e-17
6496.00033 2.55621e-17
6497.00023 2.55324e-17
6498.00013 2.55289e-17
6499.00004 2.55089e-17
6499.99993 2.54312e-17
6500.99983 2.53935e-17
6501.99973 2.53253e-17
6502.99964 2.53219e-17
6503.99953 2.52933e-17
6504.99943 2.52664e-17
6505.99933 2.52631e-17
6506.99923 2.51281e-17
6507.99914 2.50132e-17
6508.99903 2.48807e-17
6509.99893 2.47437e-17
6510.99883 2.47406e-17
6511.99874 2.46968e-17
6512.99863 2.46863e-17
6513.99853 2.46812e-17
6514.99843 2.46188e-17
6515.99833 2.45578e-17
6516.99824 2.43333e-17
6517.99813 2.42925e-17
6518.99803 2.42688e-17
6519.99793 2.41658e-17
6520.99784 2.41632e-17
6521.99773 2.41327e-17
6522.99763 2.40230e-17
6523.99753 2.39275e-17
6524.99743 2.37071e-17
6525.99734 2.37047e-17
6526.99723 2.36562e-17
6527.99713 2.36076e-17
6528.99703 2.36054e-17
6529.99694 2.35310e-17
6530.99683 2.34395e-17
6531.99673 2.32546e-17
6532.99663 2.31199e-17
6533.99653 2.31179e-17
6534.99644 2.30321e-17
6535.99633 2.30127e-17
6536.99623 2.30083e-17
6537.99613 2.28903e-17
6538.99604 2.28285e-17
6539.99593 2.24915e-17
6540.99583 2.24685e-17
6541.99573 2.24556e-17
6542.99563 2.23915e-17
6543.99554 2.23901e-17
6544.99543 2.23513e-17
6545.99533 2.21787e-17
6546.99523 2.20413e-17
6547.99514 2.18612e-17
6549.00503 2.18601e-17
6550.00493 2.17948e-17
6551.00483 2.17246e-17
6552.00473 2.17237e-17
6553.00463 2.16262e-17
6554.00453 2.14696e-17
6555.00443 2.11699e-17
6556.00433 2.10200e-17
6557.00423 2.10194e-17
6558.00413 2.09087e-17
6559.00403 2.08819e-17
6560.00393 2.08815e-17
6561.00383 2.07800e-17
6562.00373 2.07059e-17
6563.00363 2.03060e-17
6564.00353 2.03058e-17
6565.00343 2.02905e-17
6566.00333 2.01920e-17
6567.00323 2.01920e-17
6568.00313 2.01464e-17
6569.00303 1.99695e-17
6570.00293 1.98573e-17
6571.00283 1.97553e-17
6572.00273 1.97556e-17
6573.00263 1.96950e-17
6574.00253 1.96238e-17
6575.00243 1.96242e-17
6576.00233 1.95703e-17
6577.00223 1.94663e-17
6578.00213 1.91289e-17
6579.00203 1.90174e-17
6580.00193 1.90180e-17
6581.00183 1.89660e-17
6582.00173 1.89523e-17
6583.00163 1.89531e-17
6584.00153 1.88156e-17
6585.00143 1.86677e-17
6586.00133 1.83906e-17
6587.00123 1.83915e-17
6588.00113 1.83770e-17
6589.00103 1.82547e-17
6590.00093 1.82557e-17
6591.00083 1.82209e-17
6592.00073 1.80351e-17
6593.00063 1.78184e-17
6594.00053 1.76452e-17
6595.00043 1.76463e-17
6596.00033 1.75908e-17
6597.00023 1.75191e-17
6598.00013 1.75202e-17
6599.00003 1.74600e-17
6599.99993 1.73432e-17
6600.99983 1.70599e-17
6601.99973 1.70050e-17
6602.99963 1.70063e-17
6603.99953 1.69662e-17
6604.99943 1.69547e-17
6605.99933 1.69560e-17
6606.99923 1.68408e-17
6607.99913 1.66965e-17
6608.99903 1.64482e-17
6609.99893 1.64496e-17
6610.99883 1.64391e-17
6611.99873 1.63150e-17
6612.99863 1.63165e-17
6613.99853 1.62972e-17
6614.99843 1.61634e-17
6615.99833 1.59485e-17
6616.99823 1.58148e-17
6617.99813 1.58163e-17
6618.99803 1.57709e-17
6619.99793 1.57055e-17
6620.99783 1.57070e-17
6621.99773 1.56566e-17
6622.99763 1.55182e-17
6623.99753 1.51397e-17
6624.99743 1.51066e-17
6625.99733 1.51081e-17
6626.99723 1.50663e-17
6627.99713 1.50523e-17
6628.99703 1.50538e-17
6629.99693 1.49114e-17
6630.99683 1.47187e-17
6631.99673 1.45420e-17
6632.99663 1.45435e-17
6633.99653 1.45378e-17
6634.99643 1.44286e-17
6635.99633 1.44301e-17
6636.99623 1.44194e-17
6637.99613 1.43257e-17
6638.99603 1.41059e-17
6639.99593 1.39976e-17
6640.99583 1.39991e-17
6641.99573 1.39591e-17
6642.99563 1.38943e-17
6643.99553 1.38958e-17
6644.99543 1.38528e-17
6645.99533 1.37173e-17
6647.00523 1.34324e-17
6648.00513 1.34323e-17
6649.00503 1.34337e-17
6650.00493 1.33813e-17
6651.00483 1.33605e-17
6652.00473 1.33619e-17
6653.00463 1.33082e-17
6654.00453 1.32000e-17
6655.00443 1.30990e-17
6656.00433 1.31004e-17
6657.00423 1.30995e-17
6658.00413 1.30325e-17
6659.00403 1.30339e-17
6660.00393 1.30271e-17
6661.00383 1.29180e-17
6662.00373 1.26713e-17
6663.00363 1.25926e-17
6664.00353 1.25940e-17
6665.00343 1.25645e-17
6666.00333 1.25100e-17
6667.00323 1.25114e-17
6668.00313 1.24731e-17
6669.00303 1.23213e-17
6670.00293 1.20612e-17
6671.00283 1.20627e-17
6672.00273 1.20641e-17
6673.00263 1.20163e-17
6674.00253 1.19944e-17
6675.00243 1.19959e-17
6676.00233 1.19281e-17
6677.00223 1.17896e-17
6678.00213 1.16843e-17
6679.00203 1.16859e-17
6680.00193 1.16873e-17
6681.00183 1.16490e-17
6682.00173 1.16505e-17
6683.00163 1.16505e-17
6684.00153 1.15931e-17
6685.00143 1.14744e-17
6686.00133 1.14542e-17
6687.00123 1.14557e-17
6688.00113 1.14369e-17
6689.00103 1.13961e-17
6690.00093 1.13977e-17
6691.00083 1.13758e-17
6692.00073 1.12659e-17
6693.00063 1.11065e-17
6694.00053 1.11081e-17
6695.00043 1.11097e-17
6696.00033 1.10797e-17
6697.00023 1.10475e-17
6698.00013 1.10453e-17
6699.00003 1.09981e-17
6699.99993 1.08572e-17
6700.99983 1.08705e-17
6701.99973 1.09019e-17
6702.99963 1.08997e-17
6703.99953 1.08127e-17
6704.99943 1.08050e-17
6705.99933 1.08218e-17
6706.99923 1.08410e-17
6707.99913 1.04552e-17
6708.99903 1.05792e-17
6709.99893 1.05741e-17
6710.99883 1.05110e-17
6711.99873 1.03647e-17
6712.99863 1.03597e-17
6713.99853 1.04693e-17
6714.99843 1.02521e-17
6715.99833 9.95439e-18
6716.99823 1.03008e-17
6717.99813 1.02958e-17
6718.99803 1.01859e-17
6719.99793 1.01147e-17
6720.99783 1.01098e-17
6721.99773 1.02523e-17
6722.99763 9.73607e-18
6723.99753 9.71208e-18
6724.99743 9.77989e-18
6725.99733 9.77520e-18
6726.99723 9.65598e-18
6727.99713 9.64333e-18
6728.99703 9.64657e-18
6729.99693 9.59126e-18
6730.99683 9.20285e-18
6731.99673 8.95913e-18
6732.99663 8.95485e-18
6733.99653 8.93492e-18
6734.99643 8.88511e-18
6735.99633 8.88087e-18
6736.99623 8.80704e-18
6737.99613 8.67173e-18
6738.99603 8.59776e-18
6739.99593 8.53354e-18
6740.99583 8.52947e-18
6741.99573 8.52403e-18
6742.99563 8.51895e-18
6743.99553 8.51489e-18
6744.99543 8.48294e-18
6745.99533 8.41115e-18
6746.99523 8.43597e-18
6747.99513 8.43992e-18
6749.00503 8.43589e-18
6750.00493 8.41266e-18
6751.00483 8.40646e-18
6752.00473 8.40245e-18
6753.00463 8.26118e-18
6754.00453 8.05475e-18
6755.00443 7.93776e-18
6756.00433 7.93398e-18
6757.00423 7.92904e-18
6758.00413 7.92114e-18
6759.00403 7.91736e-18
6760.00393 7.89301e-18
6761.00383 7.92511e-18
6762.00373 8.01139e-18
6763.00363 7.99315e-18
6764.00353 7.98933e-18
6765.00343 8.02220e-18
6766.00333 8.04976e-18
6767.00323 8.04592e-18
6768.00313 8.03914e-18
6769.00303 8.21757e-18
6770.00293 8.16787e-18
6771.00283 8.15236e-18
6772.00273 8.14846e-18
6773.00263 8.21429e-18
6774.00253 8.22180e-18
6775.00243 8.21787e-18
6776.00233 8.26470e-18
6777.00223 8.58388e-18
6778.00213 8.58379e-18
6779.00203 8.57968e-18
6780.00193 8.59227e-18
6781.00183 8.66484e-18
6782.00173 8.66068e-18
6783.00163 8.68372e-18
6784.00153 9.12275e-18
6785.00143 9.41110e-18
6786.00133 9.41654e-18
6787.00123 9.41202e-18
6788.00113 9.51723e-18
6789.00103 9.62298e-18
6790.00093 9.61836e-18
6791.00083 9.68393e-18
6792.00073 1.05379e-17
6793.00063 1.07454e-17
6794.00053 1.07434e-17
6795.00043 1.07382e-17
6796.00033 1.09453e-17
6797.00023 1.09873e-17
6798.00013 1.09820e-17
6799.00003 1.13562e-17
6799.99993 1.23727e-17
6800.99983 1.23300e-17
6801.99973 1.23241e-17
6802.99963 1.23649e-17
6803.99953 1.26525e-17
6804.99943 1.26464e-17
6805.99933 1.26431e-17
6806.99923 1.36503e-17
6807.99913 1.42808e-17
6808.99903 1.42703e-17
6809.99893 1.42635e-17
6810.99883 1.43897e-17
6811.99873 1.45412e-17
6812.99863 1.45342e-17
6813.99853 1.45979e-17
6814.99843 1.58072e-17
6815.99833 1.59148e-17
6816.99823 1.59069e-17
6817.99813 1.58992e-17
6818.99803 1.60591e-17
6819.99793 1.61000e-17
6820.99783 1.60922e-17
6821.99773 1.63194e-17
6822.99763 1.69892e-17
6823.99753 1.69124e-17
6824.99743 1.69042e-17
6825.99733 1.69105e-17
6826.99723 1.70419e-17
6827.99713 1.70337e-17
6828.99703 1.70325e-17
6829.99693 1.74134e-17
6830.99683 1.75833e-17
6831.99673 1.75801e-17
6832.99663 1.75769e-17
6833.99653 1.75983e-17
6834.99643 1.76302e-17
6835.99633 1.76271e-17
6836.99623 1.76525e-17
6837.99613 1.78150e-17
6838.99603 1.78300e-17
6839.99593 1.78268e-17
6840.99583 1.78237e-17
6841.99573 1.78602e-17
6842.99563 1.78717e-17
6843.99553 1.78686e-17
6844.99543 1.80634e-17
6845.99533 1.84334e-17
6847.00523 1.84303e-17
6848.00513 1.84271e-17
6849.00503 1.84323e-17
6850.00493 1.85960e-17
6851.00483 1.85928e-17
6852.00473 1.85896e-17
6853.00463 1.91324e-17
6854.00453 1.94253e-17
6855.00443 1.94220e-17
6856.00433 1.94187e-17
6857.00423 1.94715e-17
6858.00413 1.95656e-17
6859.00403 1.95622e-17
6860.00393 1.95978e-17
6861.00383 2.03976e-17
6862.00373 2.04421e-17
6863.00363 2.04387e-17
6864.00353 2.04352e-17
6865.00343 2.05598e-17
6866.00333 2.06158e-17
6867.00323 2.06123e-17
6868.00313 2.09225e-17
6869.00303 2.15832e-17
6870.00293 2.15809e-17
6871.00283 2.15771e-17
6872.00273 2.15734e-17
6873.00263 2.17061e-17
6874.00253 2.17023e-17
6875.00243 2.16984e-17
6876.00233 2.20186e-17
6877.00223 2.22002e-17
6878.00213 2.21962e-17
6879.00203 2.21922e-17
6880.00193 2.22090e-17
6881.00183 2.22498e-17
6882.00173 2.22457e-17
6883.00163 2.22360e-17
6884.00153 2.22205e-17
6885.00143 2.22164e-17
6886.00133 2.22124e-17
6887.00123 2.22084e-17
6888.00113 2.22031e-17
6889.00103 2.21983e-17
6890.00093 2.21943e-17
6891.00083 2.21865e-17
6892.00073 2.21396e-17
6893.00063 2.21323e-17
6894.00053 2.21283e-17
6895.00043 2.21244e-17
6896.00033 2.20409e-17
6897.00023 2.20328e-17
6898.00013 2.20289e-17
6899.00003 2.18385e-17
6899.99993 2.17349e-17
6900.99983 2.17311e-17
6901.99973 2.17273e-17
6902.99963 2.16940e-17
6903.99953 2.16085e-17
6904.99943 2.16049e-17
6905.99933 2.15584e-17
6906.99923 2.11160e-17
6907.99913 2.10781e-17
6908.99903 2.10747e-17
6909.99893 2.10712e-17
6910.99883 2.10496e-17
6911.99873 2.10332e-17
6912.99863 2.10299e-17
6913.99853 2.09583e-17
6914.99843 2.08330e-17
6915.99833 2.08213e-17
6916.99823 2.08182e-17
6917.99813 2.08150e-17
6918.99803 2.07563e-17
6919.99793 2.07469e-17
6920.99783 2.06594e-17
6921.99773 2.04483e-17
6922.99763 2.03392e-17
6923.99753 2.03419e-17
6924.99743 2.03447e-17
6925.99733 2.03370e-17
6926.99723 2.03008e-17
6927.99713 2.03039e-17
6928.99703 2.02885e-17
6929.99693 2.01781e-17
6930.99683 2.01587e-17
6931.99673 2.01621e-17
6932.99663 2.01656e-17
6933.99653 2.01474e-17
6934.99643 2.01316e-17
6935.99633 2.01354e-17
6936.99623 1.99590e-17
6937.99613 1.97015e-17
6938.99603 1.96849e-17
6939.99593 1.96891e-17
6940.99583 1.96933e-17
6941.99573 1.95960e-17
6942.99563 1.95816e-17
6943.99553 1.95862e-17
6944.99543 1.93216e-17
6945.99533 1.91451e-17
6946.99523 1.91500e-17
6947.99513 1.91549e-17
6949.00503 1.91399e-17
6950.00493 1.90371e-17
6951.00483 1.90424e-17
6952.00473 1.89310e-17
6953.00463 1.84993e-17
6954.00453 1.84210e-17
6955.00443 1.84267e-17
6956.00433 1.84326e-17
6957.00423 1.83949e-17
6958.00413 1.83522e-17
6959.00403 1.83584e-17
6960.00393 1.81622e-17
6961.00383 1.78520e-17
6962.00373 1.78182e-17
6963.00363 1.78249e-17
6964.00353 1.78318e-17
6965.00343 1.77358e-17
6966.00333 1.77149e-17
6967.00323 1.77222e-17
6968.00313 1.72933e-17
6969.00303 1.70747e-17
6970.00293 1.70821e-17
6971.00283 1.70897e-17
6972.00273 1.70855e-17
6973.00263 1.69867e-17
6974.00253 1.69946e-17
6975.00243 1.69068e-17
6976.00233 1.66164e-17
6977.00223 1.65273e-17
6978.00213 1.65355e-17
6979.00203 1.65438e-17
6980.00193 1.65235e-17
6981.00183 1.64913e-17
6982.00173 1.64999e-17
6983.00163 1.63473e-17
6984.00153 1.61307e-17
6985.00143 1.61089e-17
6986.00133 1.61177e-17
6987.00123 1.61265e-17
6988.00113 1.60627e-17
6989.00103 1.60444e-17
6990.00093 1.60510e-17
6991.00083 1.59558e-17
6992.00073 1.58734e-17
6993.00063 1.58776e-17
6994.00053 1.58869e-17
6995.00043 1.58934e-17
6996.00033 1.58374e-17
6997.00023 1.58468e-17
6998.00013 1.57580e-17
6999.00003 1.55067e-17
6999.99993 1.54629e-17
7000.99983 1.54662e-17
7001.99973 1.54695e-17
7002.99963 1.54607e-17
7003.99953 1.54419e-17
7004.99943 1.54452e-17
7005.99933 1.53650e-17
7006.99923 1.53413e-17
7007.99913 1.53297e-17
7008.99903 1.53330e-17
7009.99893 1.53364e-17
7010.99883 1.52800e-17
7011.99873 1.52534e-17
7012.99863 1.52322e-17
7013.99853 1.49262e-17
7014.99843 1.52220e-17
7015.99833 1.52067e-17
7016.99823 1.52035e-17
7017.99813 1.52004e-17
7018.99803 1.50877e-17
7019.99793 1.50823e-17
7020.99783 1.49633e-17
7021.99773 1.51349e-17
7022.99763 1.54985e-17
7023.99753 1.54954e-17
7024.99743 1.54922e-17
7025.99733 1.54586e-17
7026.99723 1.53813e-17
7027.99713 1.53782e-17
7028.99703 1.52085e-17
7029.99693 1.55425e-17
7030.99683 1.56137e-17
7031.99673 1.56105e-17
7032.99663 1.56074e-17
7033.99653 1.55981e-17
7034.99643 1.55910e-17
7035.99633 1.55783e-17
7036.99623 1.55627e-17
7037.99613 1.60781e-17
7038.99603 1.60743e-17
7039.99593 1.60711e-17
7040.99583 1.60680e-17
7041.99573 1.60947e-17
7042.99563 1.60943e-17
7043.99553 1.61486e-17
7044.99543 1.61854e-17
7045.99533 1.61473e-17
7047.00523 1.61441e-17
7048.00513 1.61409e-17
7049.00503 1.61532e-17
7050.00493 1.62026e-17
7051.00483 1.61995e-17
7052.00473 1.63893e-17
7053.00463 1.62670e-17
7054.00453 1.62827e-17
7055.00443 1.62796e-17
7056.00433 1.62765e-17
7057.00423 1.63536e-17
7058.00413 1.64193e-17
7059.00403 1.65164e-17
7060.00393 1.68872e-17
7061.00383 1.62757e-17
7062.00373 1.63396e-17
7063.00363 1.63362e-17
7064.00353 1.63328e-17
7065.00343 1.64638e-17
7066.00333 1.64842e-17
7067.00323 1.67635e-17
7068.00313 1.68746e-17
7069.00303 1.67960e-17
7070.00293 1.67987e-17
7071.00283 1.67951e-17
7072.00273 1.67954e-17
7073.00263 1.68121e-17
7074.00253 1.68085e-17
7075.00243 1.69027e-17
7076.00233 1.72454e-17
7077.00223 1.74323e-17
7078.00213 1.74287e-17
7079.00203 1.74250e-17
7080.00193 1.74510e-17
7081.00183 1.74808e-17
7082.00173 1.74579e-17
7083.00163 1.74505e-17
7084.00153 1.80150e-17
7085.00143 1.80646e-17
7086.00133 1.80608e-17
7087.00123 1.80570e-17
7088.00113 1.80399e-17
7089.00103 1.80323e-17
7090.00093 1.80642e-17
7091.00083 1.82157e-17
7092.00073 1.85782e-17
7093.00063 1.85719e-17
7094.00053 1.85680e-17
7095.00043 1.85694e-17
7096.00033 1.86177e-17
7097.00023 1.86138e-17
7098.00013 1.87344e-17
7099.00003 1.86163e-17
7099.99993 1.86167e-17
7100.99983 1.86128e-17
7101.99973 1.86089e-17
7102.99963 1.86279e-17
7103.99953 1.86583e-17
7104.99943 1.87242e-17
7105.99933 1.89208e-17
7106.99923 1.90476e-17
7107.99913 1.90820e-17
7108.99903 1.90780e-17
7109.99893 1.90741e-17
7110.99883 1.91167e-17
7111.99873 1.91317e-17
7112.99863 1.91636e-17
7113.99853 1.91235e-17
7114.99843 1.91391e-17
7115.99833 1.91491e-17
7116.99823 1.91451e-17
7117.99813 1.91405e-17
7118.99803 1.91078e-17
7119.99793 1.91038e-17
7120.99783 1.90432e-17
7121.99773 1.91688e-17
7122.99763 1.92734e-17
7123.99753 1.92694e-17
7124.99743 1.92653e-17
7125.99733 1.92765e-17
7126.99723 1.93036e-17
7127.99713 1.93494e-17
7128.99703 1.94354e-17
7129.99693 1.93386e-17
7130.99683 1.93160e-17
7131.99673 1.93119e-17
7132.99663 1.93078e-17
7133.99653 1.92939e-17
7134.99643 1.92842e-17
7135.99633 1.93382e-17
7136.99623 1.93800e-17
7137.99613 1.93636e-17
7138.99603 1.93592e-17
7139.99593 1.93551e-17
7140.99583 1.93511e-17
7141.99573 1.93751e-17
7142.99563 1.93721e-17
7143.99553 1.93352e-17
7144.99543 1.92759e-17
7145.99533 1.92720e-17
7146.99523 1.92662e-17
7147.99513 1.92622e-17
7149.00503 1.92467e-17
7150.00493 1.92091e-17
7151.00483 1.92021e-17
7152.00473 1.91993e-17
7153.00463 1.92255e-17
7154.00453 1.92279e-17
7155.00443 1.92237e-17
7156.00433 1.92196e-17
7157.00423 1.91973e-17
7158.00413 1.91791e-17
7159.00403 1.90736e-17
7160.00393 1.90406e-17
7161.00383 1.90306e-17
7162.00373 1.90164e-17
7163.00363 1.90124e-17
7164.00353 1.90085e-17
7165.00343 1.90000e-17
7166.00333 1.89910e-17
7167.00323 1.89116e-17
7168.00313 1.86867e-17
7169.00303 1.84986e-17
7170.00293 1.84861e-17
7171.00283 1.84822e-17
7172.00273 1.84731e-17
7173.00263 1.84451e-17
7174.00253 1.84136e-17
7175.00243 1.83275e-17
7176.00233 1.81517e-17
7177.00223 1.79752e-17
7178.00213 1.79713e-17
7179.00203 1.79673e-17
7180.00193 1.79281e-17
7181.00183 1.78868e-17
7182.00173 1.79376e-17
7183.00163 1.79626e-17
7184.00153 1.79430e-17
7185.00143 1.79176e-17
7186.00133 1.79135e-17
7187.00123 1.79094e-17
7188.00113 1.78568e-17
7189.00103 1.78146e-17
7190.00093 1.75581e-17
7191.00083 1.74665e-17
7192.00073 1.73286e-17
7193.00063 1.72889e-17
7194.00053 1.72849e-17
7195.00043 1.72754e-17
7196.00033 1.72229e-17
7197.00023 1.71202e-17
7198.00013 1.70029e-17
7199.00003 1.70248e-17
7199.99993 1.69091e-17
7200.99983 1.69050e-17
7201.99973 1.69010e-17
7202.99963 1.68560e-17
7203.99953 1.67921e-17
7204.99943 1.65931e-17
7205.99933 1.65341e-17
7206.99923 1.64116e-17
7207.99913 1.62459e-17
7208.99903 1.62458e-17
7209.99893 1.62456e-17
7210.99883 1.62315e-17
7211.99873 1.62003e-17
7212.99863 1.60244e-17
7213.99853 1.60244e-17
7214.99843 1.59623e-17
7215.99833 1.59352e-17
7216.99823 1.59353e-17
7217.99813 1.59338e-17
7218.99803 1.58473e-17
7219.99793 1.57377e-17
7220.99783 1.56145e-17
7221.99773 1.56148e-17
7222.99763 1.55005e-17
7223.99753 1.54908e-17
7224.99743 1.54912e-17
7225.99733 1.54811e-17
7226.99723 1.54594e-17
7227.99713 1.53369e-17
7228.99703 1.53096e-17
7229.99693 1.52851e-17
7230.99683 1.52038e-17
7231.99673 1.52048e-17
7232.99663 1.52058e-17
7233.99653 1.51529e-17
7234.99643 1.50954e-17
7235.99633 1.49536e-17
7236.99623 1.49550e-17
7237.99613 1.49143e-17
7238.99603 1.48776e-17
7239.99593 1.48793e-17
7240.99583 1.48811e-17
7241.99573 1.48353e-17
7242.99563 1.47697e-17
7243.99553 1.47082e-17
7244.99543 1.47104e-17
7245.99533 1.46322e-17
7247.00523 1.46139e-17
7248.00513 1.46165e-17
7249.00503 1.46116e-17
7250.00493 1.45903e-17
7251.00483 1.45013e-17
7252.00473 1.44876e-17
7253.00463 1.44830e-17
7254.00453 1.44081e-17
7255.00443 1.44116e-17
7256.00433 1.44153e-17
7257.00423 1.44003e-17
7258.00413 1.43734e-17
7259.00403 1.43122e-17
7260.00393 1.43164e-17
7261.00383 1.42969e-17
7262.00373 1.42613e-17
7263.00363 1.42658e-17
7264.00353 1.42703e-17
7265.00343 1.42419e-17
7266.00333 1.41528e-17
7267.00323 1.40799e-17
7268.00313 1.40848e-17
7269.00303 1.40459e-17
7270.00293 1.40284e-17
7271.00283 1.40335e-17
7272.00273 1.40312e-17
7273.00263 1.39952e-17
7274.00253 1.39601e-17
7275.00243 1.39597e-17
7276.00233 1.39652e-17
7277.00223 1.39033e-17
7278.00213 1.39054e-17
7279.00203 1.39111e-17
7280.00193 1.39193e-17
7281.00183 1.39074e-17
7282.00173 1.38383e-17
7283.00163 1.38443e-17
7284.00153 1.38405e-17
7285.00143 1.38139e-17
7286.00133 1.38200e-17
7287.00123 1.38263e-17
7288.00113 1.38157e-17
7289.00103 1.37691e-17
7290.00093 1.37378e-17
7291.00083 1.37442e-17
7292.00073 1.37542e-17
7293.00063 1.37635e-17
7294.00053 1.37702e-17
7295.00043 1.37749e-17
7296.00033 1.37535e-17
7297.00023 1.36822e-17
7298.00013 1.36803e-17
7299.00003 1.36872e-17
7299.99993 1.36315e-17
7300.99983 1.36231e-17
7301.99973 1.36301e-17
7302.99963 1.36277e-17
7303.99953 1.36100e-17
7304.99943 1.35905e-17
7305.99933 1.35977e-17
7306.99923 1.36008e-17
7307.99913 1.35634e-17
7308.99903 1.35708e-17
7309.99893 1.35781e-17
7310.99883 1.35631e-17
7311.99873 1.34894e-17
7312.99863 1.34463e-17
7313.99853 1.34537e-17
7314.99843 1.34451e-17
7315.99833 1.34252e-17
7316.99823 1.34328e-17
7317.99813 1.34404e-17
7318.99803 1.34002e-17
7319.99793 1.32998e-17
7320.99783 1.32984e-17
7321.99773 1.33061e-17
7322.99763 1.32485e-17
7323.99753 1.32209e-17
7324.99743 1.32286e-17
7325.99733 1.32252e-17
7326.99723 1.31511e-17
7327.99713 1.30100e-17
7328.99703 1.30176e-17
7329.99693 1.30253e-17
7330.99683 1.29912e-17
7331.99673 1.29955e-17
7332.99663 1.30033e-17
7333.99653 1.29830e-17
7334.99643 1.29517e-17
7335.99633 1.29471e-17
7336.99623 1.29549e-17
7337.99613 1.29442e-17
7338.99603 1.28888e-17
7339.99593 1.28966e-17
7340.99583 1.29044e-17
7341.99573 1.29040e-17
7342.99563 1.27738e-17
7343.99553 1.27732e-17
7344.99543 1.27810e-17
7345.99533 1.27345e-17
7346.99523 1.26873e-17
7347.99513 1.26950e-17
7348.99503 1.26949e-17
7350.00493 1.26550e-17
7351.00483 1.26302e-17
7352.00473 1.26379e-17
7353.00463 1.26457e-17
7354.00453 1.26064e-17
7355.00443 1.26014e-17
7356.00433 1.26092e-17
7357.00423 1.26063e-17
7358.00413 1.25301e-17
7359.00403 1.24934e-17
7360.00393 1.25012e-17
7361.00383 1.25061e-17
7362.00373 1.24573e-17
7363.00363 1.24653e-17
7364.00353 1.24732e-17
7365.00343 1.24383e-17
7366.00333 1.22512e-17
7367.00323 1.22515e-17
7368.00313 1.22595e-17
7369.00303 1.22354e-17
7370.00293 1.21796e-17
7371.00283 1.21877e-17
7372.00273 1.21934e-17
7373.00263 1.21206e-17
7374.00253 1.19989e-17
7375.00243 1.20072e-17
7376.00233 1.20154e-17
7377.00223 1.19849e-17
7378.00213 1.19729e-17
7379.00203 1.19813e-17
7380.00193 1.19668e-17
7381.00183 1.18917e-17
7382.00173 1.18731e-17
7383.00163 1.18815e-17
7384.00153 1.18900e-17
7385.00143 1.17326e-17
7386.00133 1.17199e-17
7387.00123 1.17284e-17
7388.00113 1.16786e-17
7389.00103 1.14054e-17
7390.00093 1.14069e-17
7391.00083 1.14153e-17
7392.00073 1.14106e-17
7393.00063 1.13621e-17
7394.00053 1.13705e-17
7395.00043 1.13789e-17
7396.00033 1.12943e-17
7397.00023 1.11985e-17
7398.00013 1.12069e-17
7399.00003 1.12153e-17
7399.99993 1.11554e-17
7400.99983 1.10865e-17
7401.99973 1.10948e-17
7402.99963 1.10857e-17
7403.99953 1.09329e-17
7404.99943 1.08772e-17
7405.99933 1.08854e-17
7406.99923 1.08937e-17
7407.99913 1.08396e-17
7408.99903 1.08254e-17
7409.99893 1.08336e-17
7410.99883 1.08188e-17
7411.99873 1.07340e-17
7412.99863 1.07410e-17
7413.99853 1.07492e-17
7414.99843 1.07536e-17
7415.99833 1.06804e-17
7416.99823 1.06861e-17
7417.99813 1.06941e-17
7418.99803 1.06519e-17
7419.99793 1.05452e-17
7420.99783 1.05532e-17
7421.99773 1.05612e-17
7422.99763 1.05565e-17
7423.99753 1.05267e-17
7424.99743 1.05346e-17
7425.99733 1.05290e-17
7426.99723 1.04237e-17
7427.99713 1.04017e-17
7428.99703 1.04536e-17
7429.99693 1.04571e-17
7430.99683 1.03769e-17
7431.99673 1.03236e-17
7432.99663 9.96099e-18
7433.99653 9.95807e-18
7434.99643 9.06017e-18
7435.99633 9.56430e-18
7436.99623 9.79310e-18
7437.99613 9.79023e-18
7438.99603 9.78735e-18
7439.99593 9.78449e-18
7440.99583 9.78162e-18
7441.99573 9.03537e-18
7442.99563 7.60646e-18
7443.99553 1.05825e-17
7444.99543 1.05794e-17
7445.99533 1.05763e-17
7447.00522 1.05732e-17
7448.00512 1.05701e-17
7449.00503 1.05670e-17
7450.00493 7.94684e-18
7451.00482 7.86818e-18
7452.00472 1.15684e-17
7453.00463 1.15650e-17
7454.00453 1.15616e-17
7455.00443 1.15582e-17
7456.00432 1.15547e-17
7457.00422 1.15506e-17
7458.00413 9.73972e-18
7459.00403 9.80506e-18
7460.00392 9.83162e-18
7461.00382 9.82863e-18
7462.00373 9.82563e-18
7463.00363 9.82262e-18
7464.00353 9.81960e-18
7465.00342 1.04715e-17
7466.00332 1.16200e-17
7467.00323 8.35915e-18
7468.00313 8.35655e-18
7469.00302 8.35393e-18
7470.00292 8.35131e-18
7471.00283 8.34869e-18
7472.00273 8.34605e-18
7473.00263 9.25610e-18
7474.00252 9.57220e-18
7475.00242 9.34549e-18
7476.00233 9.34251e-18
7477.00223 9.33951e-18
7478.00212 9.33651e-18
7479.00202 9.33350e-18
7480.00193 9.33058e-18
7481.00183 9.35950e-18
7482.00173 9.67708e-18
7483.00162 9.82329e-18
7484.00152 9.82008e-18
7485.00143 9.81686e-18
7486.00133 9.81362e-18
7487.00122 9.81039e-18
7488.00112 9.90157e-18
7489.00103 1.00653e-17
7490.00093 9.32101e-18
7491.00083 9.31791e-18
7492.00072 9.31479e-18
7493.00062 9.31166e-18
7494.00053 9.30853e-18
7495.00043 9.30539e-18
7496.00032 1.01928e-17
7497.00022 1.01246e-17
7498.00013 9.31305e-18
7499.00003 9.30988e-18
7499.99993 9.30670e-18
7500.99982 9.30351e-18
7501.99972 9.30032e-18
7502.99963 9.30065e-18
7503.99953 1.04839e-17
7504.99942 9.51548e-18
7505.99932 9.12199e-18
7506.99923 9.11882e-18
7507.99913 9.11565e-18
7508.99903 9.11246e-18
7509.99892 9.10927e-18
7510.99882 9.35161e-18
7511.99873 9.82202e-18
7512.99863 8.91281e-18
7513.99852 8.90966e-18
7514.99842 8.90650e-18
7515.99833 8.90334e-18
7516.99823 8.90017e-18
7517.99813 8.89699e-18
7518.99802 9.50959e-18
7519.99792 9.66791e-18
7520.99783 9.39741e-18
7521.99773 9.39402e-18
7522.99762 9.39064e-18
7523.99752 9.38724e-18
7524.99743 9.38384e-18
7525.99733 9.38044e-18
7526.99723 1.02898e-17
7527.99712 9.97456e-18
7528.99702 9.82445e-18
7529.99693 9.82086e-18
7530.99683 9.81726e-18
7531.99672 9.81365e-18
7532.99662 9.81004e-18
7533.99653 1.00381e-17
7534.99643 1.05023e-17
7535.99633 1.02735e-17
7536.99622 1.02695e-17
7537.99612 1.02657e-17
7538.99603 1.02618e-17
7539.99593 1.02580e-17
7540.99582 1.02542e-17
7541.99572 1.05842e-17
7542.99563 1.07401e-17
7543.99553 1.07152e-17
7544.99543 1.07111e-17
7545.99532 1.07071e-17
7546.99522 1.07030e-17
7547.99513 1.06990e-17
7548.99503 1.06949e-17
7550.00492 1.12383e-17
7551.00482 1.11254e-17
7552.00472 1.10630e-17
7553.00462 1.10587e-17
7554.00452 1.10545e-17
7555.00442 1.10503e-17
7556.00432 1.10461e-17
7557.00422 1.11005e-17
7558.00412 1.12187e-17
7559.00402 1.12852e-17
7560.00392 1.12823e-17
7561.00382 1.12782e-17
7562.00372 1.12740e-17
7563.00362 1.12699e-17
7564.00352 1.12657e-17
7565.00342 1.15344e-17
7566.00332 1.16688e-17
7567.00322 1.16514e-17
7568.00312 1.16471e-17
7569.00302 1.16428e-17
7570.00292 1.16384e-17
7571.00282 1.16341e-17
7572.00272 1.16297e-17
7573.00262 1.20002e-17
7574.00252 1.20091e-17
7575.00242 1.20134e-17
7576.00232 1.20177e-17
7577.00222 1.20220e-17
7578.00212 1.20263e-17
7579.00202 1.20307e-17
7580.00192 1.21670e-17
7581.00182 1.24617e-17
7582.00172 1.24662e-17
7583.00162 1.24707e-17
7584.00152 1.24751e-17
7585.00142 1.24796e-17
7586.00132 1.24841e-17
7587.00122 1.24885e-17
7588.00112 1.27478e-17
7589.00102 1.28947e-17
7590.00092 1.28993e-17
7591.00082 1.29040e-17
7592.00072 1.29086e-17
7593.00062 1.29132e-17
7594.00052 1.29179e-17
7595.00042 1.29225e-17
7596.00032 1.30783e-17
7597.00022 1.30876e-17
7598.00012 1.30923e-17
7599.00002 1.30971e-17
7599.99992 1.31018e-17
7600.99982 1.31066e-17
7601.99972 1.31113e-17
7602.99962 1.31701e-17
7603.99952 1.33017e-17
7604.99942 1.33065e-17
7605.99932 1.33114e-17
7606.99922 1.33163e-17
7607.99912 1.33212e-17
7608.99902 1.33261e-17
7609.99892 1.33310e-17
7610.99882 1.31798e-17
7611.99872 1.30916e-17
7612.99862 1.30965e-17
7613.99852 1.31013e-17
7614.99842 1.31062e-17
7615.99832 1.31112e-17
7616.99822 1.31161e-17
7617.99812 1.31210e-17
7618.99802 1.29862e-17
7619.99792 1.29844e-17
7620.99782 1.29893e-17
7621.99772 1.29943e-17
7622.99762 1.29993e-17
7623.99752 1.30043e-17
7624.99742 1.30093e-17
7625.99732 1.30499e-17
7626.99722 1.31461e-17
7627.99712 1.31512e-17
7628.99702 1.31564e-17
7629.99692 1.31616e-17
7630.99682 1.31668e-17
7631.99672 1.31720e-17
7632.99662 1.31772e-17
7633.99652 1.30707e-17
7634.99642 1.30039e-17
7635.99632 1.30091e-17
7636.99622 1.30144e-17
7637.99612 1.30197e-17
7638.99602 1.30250e-17
7639.99592 1.30304e-17
7640.99582 1.30358e-17
7641.99572 1.29057e-17
7642.99562 1.29016e-17
7643.99552 1.29070e-17
7644.99542 1.29125e-17
7645.99532 1.29180e-17
7647.00522 1.29235e-17
7648.00512 1.29290e-17
7649.00502 1.28259e-17
7650.00492 1.25227e-17
7651.00482 1.25281e-17
7652.00472 1.25336e-17
7653.00462 1.25391e-17
7654.00452 1.25447e-17
7655.00442 1.25503e-17
7656.00432 1.25559e-17
7657.00422 1.23746e-17
7658.00412 1.22481e-17
7659.00402 1.22536e-17
7660.00392 1.22592e-17
7661.00382 1.22649e-17
7662.00372 1.22706e-17
7663.00362 1.22763e-17
7664.00352 1.22820e-17
7665.00342 1.20659e-17
7666.00332 1.20501e-17
7667.00322 1.20558e-17
7668.00312 1.20615e-17
7669.00302 1.20673e-17
7670.00292 1.20732e-17
7671.00282 1.20790e-17
7672.00272 1.20652e-17
7673.00262 1.20074e-17
7674.00252 1.20133e-17
7675.00242 1.20193e-17
7676.00232 1.20252e-17
7677.00222 1.20312e-17
7678.00212 1.20372e-17
7679.00202 1.20433e-17
7680.00192 1.18030e-17
7681.00182 1.16158e-17
7682.00172 1.16217e-17
7683.00162 1.16277e-17
7684.00152 1.16336e-17
7685.00142 1.16396e-17
7686.00132 1.16456e-17
7687.00122 1.16516e-17
7688.00112 1.15213e-17
7689.00102 1.15095e-17
7690.00092 1.15155e-17
7691.00082 1.15216e-17
7692.00072 1.15276e-17
7693.00062 1.15337e-17
7694.00052 1.15398e-17
7695.00042 1.14891e-17
7696.00032 1.12797e-17
7697.00022 1.12857e-17
7698.00012 1.12917e-17
7699.00002 1.12978e-17
7699.99992 1.13038e-17
7700.99982 1.13099e-17
7701.99972 1.13160e-17
7702.99962 1.11281e-17
7703.99952 1.09633e-17
7704.99942 1.09692e-17
7705.99932 1.09752e-17
7706.99922 1.09812e-17
7707.99912 1.09872e-17
7708.99902 1.09932e-17
7709.99892 1.09992e-17
7710.99882 1.07458e-17
7711.99872 1.07076e-17
7712.99862 1.07134e-17
7713.99852 1.07194e-17
7714.99842 1.07253e-17
7715.99832 1.07312e-17
7716.99822 1.07371e-17
7717.99812 1.06771e-17
7718.99802 1.03767e-17
7719.99792 1.03825e-17
7720.99782 1.03883e-17
7721.99772 1.03941e-17
7722.99762 1.03998e-17
7723.99752 1.04056e-17
7724.99742 1.04115e-17
7725.99732 1.02325e-17
7726.99722 1.00529e-17
7727.99712 1.00586e-17
7728.99702 1.00642e-17
7729.99692 1.00698e-17
7730.99682 1.00755e-17
7731.99672 1.00811e-17
7732.99662 1.00868e-17
7733.99652 9.91020e-18
7734.99642 9.87606e-18
7735.99632 9.88160e-18
7736.99622 9.88714e-18
7737.99612 9.89268e-18
7738.99602 9.89823e-18
7739.99592 9.90378e-18
7740.99582 9.85223e-18
7741.99572 9.51400e-18
7742.99562 9.51933e-18
7743.99552 9.52466e-18
7744.99542 9.52999e-18
7745.99532 9.53532e-18
7746.99522 9.54065e-18
7747.99512 9.54598e-18
7748.99502 9.48827e-18
7750.00492 9.42054e-18
7751.00482 9.42579e-18
7752.00472 9.43104e-18
7753.00462 9.43629e-18
7754.00452 9.44153e-18
7755.00442 9.44678e-18
7756.00432 9.45202e-18
7757.00422 9.39037e-18
7758.00412 9.37713e-18
7759.00402 9.38231e-18
7760.00392 9.38748e-18
7761.00382 9.39266e-18
7762.00372 9.39785e-18
7763.00362 9.40304e-18
7764.00352 9.39167e-18
7765.00342 9.25430e-18
7766.00332 9.25941e-18
7767.00322 9.26454e-18
7768.00312 9.26967e-18
7769.00302 9.27481e-18
7770.00292 9.27996e-18
7771.00282 9.28511e-18
7772.00272 9.25114e-18
7773.00262 9.20306e-18
7774.00252 9.20818e-18
7775.00242 9.21330e-18
7776.00232 9.21843e-18
7777.00222 9.22357e-18
7778.00212 9.22871e-18
7779.00202 9.23386e-18
7780.00192 9.06095e-18
7781.00182 9.00442e-18
7782.00172 9.00946e-18
7783.00162 9.01449e-18
7784.00152 9.01954e-18
7785.00142 9.02459e-18
7786.00132 9.02965e-18
7787.00122 9.02405e-18
7788.00112 8.86770e-18
7789.00102 8.87268e-18
7790.00092 8.87766e-18
7791.00082 8.88266e-18
7792.00072 8.88765e-18
7793.00062 8.89265e-18
7794.00052 8.89766e-18
7795.00042 8.90547e-18
7796.00032 8.91504e-18
7797.00022 8.92007e-18
7798.00012 8.92511e-18
7799.00002 8.93015e-18
7799.99992 8.93520e-18
7800.99982 8.94026e-18
7801.99972 8.94532e-18
7802.99962 8.82564e-18
7803.99952 8.77677e-18
7804.99942 8.78175e-18
7805.99932 8.78673e-18
7806.99922 8.79172e-18
7807.99912 8.79672e-18
7808.99902 8.80172e-18
7809.99892 8.80247e-18
7810.99882 8.54856e-18
7811.99872 8.55343e-18
7812.99862 8.55831e-18
7813.99852 8.56319e-18
7814.99842 8.56808e-18
7815.99832 8.57297e-18
7816.99822 8.57788e-18
7817.99812 8.53621e-18
7818.99802 8.44792e-18
7819.99792 8.45276e-18
7820.99782 8.45760e-18
7821.99772 8.46245e-18
7822.99762 8.46730e-18
7823.99752 8.47217e-18
7824.99742 8.47703e-18
7825.99732 8.42367e-18
7826.99722 8.39717e-18
7827.99712 8.40200e-18
7828.99702 8.40684e-18
7829.99692 8.41168e-18
7830.99682 8.41653e-18
7831.99672 8.42139e-18
7832.99662 8.42625e-18
7833.99652 8.33014e-18
7834.99642 8.33146e-18
7835.99632 8.33628e-18
7836.99622 8.34110e-18
7837.99612 8.34594e-18
7838.99602 8.35077e-18
7839.99592 8.35562e-18
7840.99582 8.36867e-18
7841.99572 8.39437e-18
7842.99562 8.39924e-18
7843.99552 8.40413e-18
7844.99542 8.40902e-18
7845.99532 8.41391e-18
7846.99522 8.41882e-18
7848.00512 8.42372e-18
7849.00502 8.33719e-18
7850.00492 8.28057e-18
7851.00482 8.28540e-18
7852.00472 8.29024e-18
7853.00462 8.29509e-18
7854.00452 8.29995e-18
7855.00442 8.30481e-18
7856.00432 8.30967e-18
7857.00422 8.18224e-18
7858.00412 8.17445e-18
7859.00402 8.17924e-18
7860.00392 8.18405e-18
7861.00382 8.18885e-18
7862.00372 8.19364e-18
7863.00362 8.19841e-18
7864.00352 8.15956e-18
7865.00342 8.01636e-18
7866.00332 8.02099e-18
7867.00322 8.02561e-18
7868.00312 8.03023e-18
7869.00302 8.03483e-18
7870.00292 8.03943e-18
7871.00282 8.04402e-18
7872.00272 8.03269e-18
7873.00262 8.02381e-18
7874.00252 8.02836e-18
7875.00242 8.03291e-18
7876.00232 8.03745e-18
7877.00222 8.04199e-18
7878.00212 8.04653e-18
7879.00202 8.05106e-18
7880.00192 7.84484e-18
7881.00182 7.81372e-18
7882.00172 7.81811e-18
7883.00162 7.82250e-18
7884.00152 7.82689e-18
7885.00142 7.83128e-18
7886.00132 7.83567e-18
7887.00122 7.85263e-18
7888.00112 7.91881e-18
7889.00102 7.92325e-18
7890.00092 7.92769e-18
7891.00082 7.93214e-18
7892.00072 7.93658e-18
7893.00062 7.94104e-18
7894.00052 7.94549e-18
7895.00042 7.87522e-18
7896.00032 7.79931e-18
7897.00022 7.80370e-18
7898.00012 7.80810e-18
7899.00002 7.81251e-18
7899.99992 7.81692e-18
7900.99982 7.82134e-18
7901.99972 7.82578e-18
7902.99962 7.69742e-18
7903.99952 7.66745e-18
7904.99942 7.67182e-18
7905.99932 7.67620e-18
7906.99922 7.68059e-18
7907.99912 7.68500e-18
7908.99902 7.68942e-18
7909.99892 7.70146e-18
7910.99882 7.76966e-18
7911.99872 7.77417e-18
7912.99862 7.77869e-18
7913.99852 7.78322e-18
7914.99842 7.78778e-18
7915.99832 7.79235e-18
7916.99822 7.79694e-18
7917.99812 7.73126e-18
7918.99802 7.63800e-18
7919.99792 7.64255e-18
7920.99782 7.64711e-18
7921.99772 7.65170e-18
7922.99762 7.65631e-18
7923.99752 7.66094e-18
7924.99742 7.66559e-18
7925.99732 7.59680e-18
7926.99722 7.57417e-18
7927.99712 7.57883e-18
7928.99702 7.58351e-18
7929.99692 7.58822e-18
7930.99682 7.59295e-18
7931.99672 7.59771e-18
7932.99662 7.59623e-18
7933.99652 7.45062e-18
7934.99642 7.45536e-18
7935.99632 7.46013e-18
7936.99622 7.46492e-18
7937.99612 7.46975e-18
7938.99602 7.47460e-18
7939.99592 7.47948e-18
7940.99582 7.43958e-18
7941.99572 7.36132e-18
7942.99562 7.36621e-18
7943.99552 7.37113e-18
7944.99542 7.37609e-18
7945.99532 7.46794e-18
7946.99522 7.46665e-18
7947.99512 7.46536e-18
7948.99502 7.35674e-18
7950.00492 7.32590e-18
7951.00482 7.38488e-18
7952.00472 7.38359e-18
7953.00462 7.38230e-18
7954.00452 7.38100e-18
7955.00442 7.37970e-18
7956.00432 7.37837e-18
7957.00422 7.26716e-18
7958.00412 7.38147e-18
7959.00402 7.45731e-18
7960.00392 7.45592e-18
7961.00382 7.45453e-18
7962.00372 7.45315e-18
7963.00362 7.45178e-18
7964.00352 7.41643e-18
7965.00342 7.32697e-18
7966.00332 7.36000e-18
7967.00322 7.36149e-18
7968.00312 7.36018e-18
7969.00302 7.35886e-18
7970.00292 7.35756e-18
7971.00282 7.35626e-18
7972.00272 7.25273e-18
7973.00262 7.19899e-18
7974.00252 7.26187e-18
7975.00242 7.26062e-18
7976.00232 7.25937e-18
7977.00222 7.25813e-18
7978.00212 7.25690e-18
7979.00202 7.25567e-18
7980.00192 6.93766e-18
7981.00182 7.01815e-18
7982.00172 7.11892e-18
7983.00162 7.11774e-18
7984.00152 7.11657e-18
7985.00142 7.11540e-18
7986.00132 7.11424e-18
7987.00122 7.07433e-18
7988.00112 6.92033e-18
7989.00102 7.11300e-18
7990.00092 7.14535e-18
7991.00082 7.14421e-18
7992.00072 7.14308e-18
7993.00062 7.14195e-18
7994.00052 7.14082e-18
7995.00042 7.01302e-18
7996.00032 6.94107e-18
7997.00022 7.20786e-18
7998.00012 7.20674e-18
7999.00002 7.20563e-18
7999.99992 7.20452e-18
8000.99982 7.20342e-18
8001.99972 7.20232e-18
8002.99962 7.09520e-18
8003.99952 7.14841e-18
8004.99942 7.23532e-18
8005.99932 7.23423e-18
8006.99922 7.23315e-18
8007.99912 7.23207e-18
8008.99902 7.23100e-18
8009.99892 7.20409e-18
8010.99882 7.01706e-18
8011.99872 7.17581e-18
8012.99862 7.21959e-18
8013.99852 7.21853e-18
8014.99842 7.21748e-18
8015.99832 7.21643e-18
8016.99822 7.21539e-18
8017.99812 7.26953e-18
8018.99802 7.34776e-18
8019.99792 7.39886e-18
8020.99782 7.39780e-18
8021.99772 7.39675e-18
8022.99762 7.39569e-18
8023.99752 7.39464e-18
8024.99742 7.39360e-18
8025.99732 7.59678e-18
8026.99722 7.62101e-18
8027.99712 7.54838e-18
8028.99702 7.54732e-18
8029.99692 7.54627e-18
8030.99682 7.54521e-18
8031.99672 7.54416e-18
8032.99662 7.54578e-18
8033.99652 7.61337e-18
8034.99642 7.63916e-18
8035.99632 7.64903e-18
8036.99622 7.64797e-18
8037.99612 7.64691e-18
8038.99602 7.64585e-18
8039.99592 7.64480e-18
8040.99582 7.70666e-18
8041.99572 7.82483e-18
8042.99562 7.72927e-18
8043.99552 7.72821e-18
8044.99542 7.72715e-18
8045.99532 7.72609e-18
8046.99522 7.72503e-18
8048.00512 7.72397e-18
8049.00502 7.81250e-18
8050.00492 7.78707e-18
8051.00482 7.63920e-18
8052.00472 7.63816e-18
8053.00462 7.63712e-18
8054.00452 7.63607e-18
8055.00442 7.63502e-18
8056.00432 7.63392e-18
8057.00422 7.85610e-18
8058.00412 7.73103e-18
8059.00402 7.65372e-18
8060.00392 7.65248e-18
8061.00382 7.65122e-18
8062.00372 7.64995e-18
8063.00362 7.64868e-18
8064.00352 7.57692e-18
8065.00342 7.36593e-18
8066.00332 7.51945e-18
8067.00322 7.52797e-18
8068.00312 7.52670e-18
8069.00302 7.52543e-18
8070.00292 7.52415e-18
8071.00282 7.52287e-18
8072.00272 7.22060e-18
8073.00262 7.12348e-18
8074.00252 7.60573e-18
8075.00242 7.60442e-18
8076.00232 7.60311e-18
8077.00222 7.60179e-18
8078.00212 7.60047e-18
8079.00202 7.59915e-18
8080.00192 7.30131e-18
8081.00182 7.46405e-18
8082.00172 7.64393e-18
8083.00162 7.64258e-18
8084.00152 7.64123e-18
8085.00142 7.63988e-18
8086.00132 7.63852e-18
8087.00122 7.69310e-18
8088.00112 7.99205e-18
8089.00102 7.44299e-18
8090.00092 7.35993e-18
8091.00082 7.35860e-18
8092.00072 7.35727e-18
8093.00062 7.35593e-18
8094.00052 7.35460e-18
8095.00042 7.47776e-18
8096.00032 7.57333e-18
8097.00022 7.32846e-18
8098.00012 7.32711e-18
8099.00002 7.32575e-18
8099.99992 7.32440e-18
8100.99982 7.32304e-18
8101.99972 7.32168e-18
8102.99962 7.18868e-18
8103.99952 7.13662e-18
8104.99942 7.12549e-18
8105.99932 7.12415e-18
8106.99922 7.12280e-18
8107.99912 7.12145e-18
8108.99902 7.12010e-18
8109.99892 7.11763e-18
8110.99882 7.09831e-18
8111.99872 7.21686e-18
8112.99862 7.25078e-18
8113.99852 7.24938e-18
8114.99842 7.24798e-18
8115.99832 7.24658e-18
8116.99822 7.24517e-18
8117.99812 7.08251e-18
8118.99802 6.80181e-18
8119.99792 6.92194e-18
8120.99782 6.92058e-18
8121.99772 6.91922e-18
8122.99762 6.91785e-18
8123.99752 6.91648e-18
8124.99742 6.91511e-18
8125.99732 6.65648e-18
8126.99722 6.57034e-18
8127.99712 6.65027e-18
8128.99702 6.64894e-18
8129.99692 6.64760e-18
8130.99682 6.64625e-18
8131.99672 6.64490e-18
8132.99662 6.64355e-18
8133.99652 6.35202e-18
8134.99642 6.35967e-18
8135.99632 6.36868e-18
8136.99622 6.36737e-18
8137.99612 6.36606e-18
8138.99602 6.36474e-18
8139.99592 6.36342e-18
8140.99582 6.27080e-18
8141.99572 5.99943e-18
8142.99562 6.00650e-18
8143.99552 6.00531e-18
8144.99542 6.00404e-18
8145.99532 6.00278e-18
8146.99522 6.00151e-18
8147.99512 6.00023e-18
8148.99502 5.89639e-18
8150.00492 5.77677e-18
8151.00482 5.69497e-18
8152.00472 5.69375e-18
8153.00462 5.69252e-18
8154.00452 5.69129e-18
8155.00442 5.69007e-18
8156.00432 5.68886e-18
8157.00422 5.46029e-18
8158.00412 5.44978e-18
8159.00402 5.47020e-18
8160.00392 5.46908e-18
8161.00382 5.46798e-18
8162.00372 5.46686e-18
8163.00362 5.46573e-18
8164.00352 5.41801e-18
8165.00342 5.13820e-18
8166.00332 5.16761e-18
8167.00322 5.16991e-18
8168.00312 5.16880e-18
8169.00302 5.16770e-18
8170.00292 5.16658e-18
8171.00282 5.16546e-18
8172.00272 5.07724e-18
8173.00262 4.96743e-18
8174.00252 4.97634e-18
8175.00242 4.97524e-18
8176.00232 4.97412e-18
8177.00222 4.97300e-18
8178.00212 4.97188e-18
8179.00202 4.97074e-18
8180.00192 4.84112e-18
8181.00182 4.78814e-18
8182.00172 4.78172e-18
8183.00162 4.78061e-18
8184.00152 4.77949e-18
8185.00142 4.77836e-18
8186.00132 4.77723e-18
8187.00122 4.77304e-18
8188.00112 4.67095e-18
8189.00102 4.60200e-18
8190.00092 4.58481e-18
8191.00082 4.58369e-18
8192.00072 4.58257e-18
8193.00062 4.58144e-18
8194.00052 4.58031e-18
8195.00042 4.60461e-18
8196.00032 4.65881e-18
8197.00022 4.67610e-18
8198.00012 4.67492e-18
8199.00002 4.67374e-18
8199.99992 4.67255e-18
8200.99982 4.67135e-18
8201.99972 4.67015e-18
8202.99962 4.51563e-18
8203.99952 4.42529e-18
8204.99942 4.43261e-18
8205.99932 4.43145e-18
8206.99922 4.43029e-18
8207.99912 4.42912e-18
8208.99902 4.42794e-18
8209.99892 4.42676e-18
8210.99882 4.45677e-18
8211.99872 4.48503e-18
8212.99862 4.49484e-18
8213.99852 4.49363e-18
8214.99842 4.49240e-18
8215.99832 4.49118e-18
8216.99822 4.48995e-18
8217.99812 4.49265e-18
8218.99802 4.50631e-18
8219.99792 4.43491e-18
8220.99782 4.43367e-18
8221.99772 4.43243e-18
8222.99762 4.43119e-18
8223.99752 4.42994e-18
8224.99742 4.47695e-18
8225.99732 4.50467e-18
8226.99722 4.53286e-18
8227.99712 4.53499e-18
8228.99702 4.53712e-18
8229.99692 4.53927e-18
8230.99682 4.54142e-18
8231.99672 4.54359e-18
8232.99662 4.54576e-18
8233.99652 4.66059e-18
8234.99642 4.69325e-18
8235.99632 4.69553e-18
8236.99622 4.69783e-18
8237.99612 4.70013e-18
8238.99602 4.70245e-18
8239.99592 4.70479e-18
8240.99582 4.74534e-18
8241.99572 5.19479e-18
8242.99562 5.19742e-18
8243.99552 5.20007e-18
8245.00542 5.20274e-18
8246.00532 5.20543e-18
8247.00522 5.20814e-18
8248.00512 5.21087e-18
8249.00502 5.35372e-18
8250.00492 5.59584e-18
8251.00482 5.59884e-18
8252.00472 5.60186e-18
8253.00462 5.60491e-18
8254.00452 5.60799e-18
8255.00442 5.61109e-18
8256.00432 5.61422e-18
8257.00422 6.05164e-18
8258.00412 6.27931e-18
8259.00402 6.28291e-18
8260.00392 6.28653e-18
8261.00382 6.29018e-18
8262.00372 6.29386e-18
8263.00362 6.29755e-18
8264.00352 6.30126e-18
8265.00342 7.09548e-18
8266.00332 7.14201e-18
8267.00322 7.14627e-18
8268.00312 7.15056e-18
8269.00302 7.15486e-18
8270.00292 7.15919e-18
8271.00282 7.16354e-18
8272.00272 7.37593e-18
8273.00262 8.04573e-18
8274.00252 8.05067e-18
8275.00242 8.05564e-18
8276.00232 8.06062e-18
8277.00222 8.06563e-18
8278.00212 8.07065e-18
8279.00202 8.07570e-18
8280.00192 8.63838e-18
8281.00182 9.14485e-18
8282.00172 9.15063e-18
8283.00162 9.15642e-18
8284.00152 9.16224e-18
8285.00142 9.16808e-18
8286.00132 9.17394e-18
8287.00122 9.17983e-18
8288.00112 9.81106e-18
8289.00102 9.95951e-18
8290.00092 9.96596e-18
8291.00082 9.97242e-18
8292.00072 9.97890e-18
8293.00062 9.98541e-18
8294.00052 9.99193e-18
8295.00042 1.01225e-17
8296.00032 1.12166e-17
8297.00022 1.12239e-17
8298.00012 1.12314e-17
8299.00002 1.12388e-17
8299.99992 1.12462e-17
8300.99982 1.12537e-17
8301.99972 1.12612e-17
8302.99962 1.16593e-17
8303.99952 1.22801e-17
8304.99942 1.22883e-17
8305.99932 1.22966e-17
8306.99922 1.23048e-17
8307.99912 1.23131e-17
8308.99902 1.23214e-17
8309.99892 1.23297e-17
8310.99882 1.26994e-17
8311.99872 1.28815e-17
8312.99862 1.28902e-17
8313.99852 1.28990e-17
8314.99842 1.29077e-17
8315.99832 1.29165e-17
8316.99822 1.29253e-17
8317.99812 1.29341e-17
8318.99802 1.30235e-17
8319.99792 1.30356e-17
8320.99782 1.30445e-17
8321.99772 1.30535e-17
8322.99762 1.30624e-17
8323.99752 1.30714e-17
8324.99742 1.30804e-17
8325.99732 1.29981e-17
8326.99722 1.27283e-17
8327.99712 1.27371e-17
8328.99702 1.27459e-17
8329.99692 1.27546e-17
8330.99682 1.27635e-17
8331.99672 1.27723e-17
8332.99662 1.27811e-17
8333.99652 1.24551e-17
8334.99642 1.21685e-17
8335.99632 1.21770e-17
8336.99622 1.21854e-17
8337.99612 1.21938e-17
8338.99602 1.22022e-17
8339.99592 1.22107e-17
8340.99582 1.22191e-17
8341.99572 1.18168e-17
8342.99562 1.17322e-17
8343.99552 1.17404e-17
8344.99542 1.17485e-17
8345.99532 1.17566e-17
8346.99522 1.17647e-17
8347.99512 1.17729e-17
8348.99502 1.17300e-17
8349.99492 1.12768e-17
8350.99482 1.12846e-17
8351.99472 1.12924e-17
8353.00462 1.13002e-17
8354.00452 1.13080e-17
8355.00442 1.13157e-17
8356.00432 1.13235e-17
8357.00422 1.12426e-17
8358.00412 1.11071e-17
8359.00402 1.11147e-17
8360.00392 1.11224e-17
8361.00382 1.11300e-17
8362.00372 1.11376e-17
8363.00362 1.11452e-17
8364.00352 1.11528e-17
8365.00342 1.13233e-17
8366.00332 1.14131e-17
8367.00322 1.14208e-17
8368.00312 1.14286e-17
8369.00302 1.14364e-17
8370.00292 1.14442e-17
8371.00282 1.14520e-17
8372.00272 1.14597e-17
8373.00262 1.15526e-17
8374.00252 1.15652e-17
8375.00242 1.15731e-17
8376.00232 1.15809e-17
8377.00222 1.15888e-17
8378.00212 1.15967e-17
8379.00202 1.16045e-17
8380.00192 1.17593e-17
8381.00182 1.22628e-17
8382.00172 1.22711e-17
8383.00162 1.22794e-17
8384.00152 1.22878e-17
8385.00142 1.22961e-17
8386.00132 1.23045e-17
8387.00122 1.23128e-17
8388.00112 1.27451e-17
8389.00102 1.31619e-17
8390.00092 1.31709e-17
8391.00082 1.31799e-17
8392.00072 1.31889e-17
8393.00062 1.31978e-17
8394.00052 1.32069e-17
8395.00042 1.32159e-17
8396.00032 1.39592e-17
8397.00022 1.41643e-17
8398.00012 1.41739e-17
8399.00002 1.41837e-17
8399.99992 1.41934e-17
8400.99982 1.42031e-17
8401.99972 1.42129e-17
8402.99962 1.43052e-17
8403.99952 1.54190e-17
8404.99942 1.54296e-17
8405.99932 1.54403e-17
8406.99922 1.54510e-17
8407.99912 1.54617e-17
8408.99902 1.54724e-17
8409.99892 1.54832e-17
8410.99882 1.60045e-17
8411.99872 1.69694e-17
8412.99862 1.69812e-17
8413.99852 1.69931e-17
8414.99842 1.70050e-17
8415.99832 1.70170e-17
8416.99822 1.70289e-17
8417.99812 1.70409e-17
8418.99802 1.79913e-17
8419.99792 1.85616e-17
8420.99782 1.85748e-17
8421.99772 1.85880e-17
8422.99762 1.86012e-17
8423.99752 1.86145e-17
8424.99742 1.86278e-17
8425.99732 1.86411e-17
8426.99722 1.98610e-17
8427.99712 2.00014e-17
8428.99702 2.00158e-17
8429.99692 2.00303e-17
8430.99682 2.00448e-17
8431.99672 2.00594e-17
8432.99662 2.00740e-17
8433.99652 2.02364e-17
8434.99642 2.09117e-17
8435.99632 2.09270e-17
8436.99622 2.09424e-17
8437.99612 2.09579e-17
8438.99602 2.09734e-17
8439.99592 2.09890e-17
8440.99582 2.10046e-17
8441.99572 2.14797e-17
8442.99562 2.20358e-17
8443.99552 2.20523e-17
8444.99542 2.20689e-17
8445.99532 2.20856e-17
8446.99522 2.21024e-17
8447.99512 2.21192e-17
8448.99502 2.21360e-17
8450.00492 2.25299e-17
8451.00482 2.26824e-17
8452.00472 2.26998e-17
8453.00461 2.27174e-17
8454.00452 2.27350e-17
8455.00442 2.27527e-17
8456.00432 2.27705e-17
8457.00422 2.27991e-17
8458.00411 2.37190e-17
8459.00402 2.37377e-17
8460.00392 2.37565e-17
8461.00382 2.37754e-17
8462.00372 2.37944e-17
8463.00361 2.38134e-17
8464.00352 2.38325e-17
8465.00342 2.40941e-17
8466.00331 2.47159e-17
8467.00322 2.47360e-17
8468.00312 2.47561e-17
8469.00302 2.47763e-17
8470.00292 2.47966e-17
8471.00281 2.48169e-17
8472.00272 2.48374e-17
8473.00262 2.51469e-17
8474.00252 2.53936e-17
8475.00242 2.54147e-17
8476.00231 2.54359e-17
8477.00222 2.54571e-17
8478.00212 2.54784e-17
8479.00202 2.54998e-17
8480.00192 2.55213e-17
8481.00181 2.57654e-17
8482.00172 2.58310e-17
8483.00162 2.58529e-17
8484.00151 2.58749e-17
8485.00142 2.58969e-17
8486.00132 2.59190e-17
8487.00122 2.59412e-17
8488.00112 2.59779e-17
8489.00101 2.61185e-17
8490.00092 2.61410e-17
8491.00082 2.61636e-17
8492.00072 2.61863e-17
8493.00062 2.62090e-17
8494.00051 2.62317e-17
8495.00042 2.62546e-17
8496.00032 2.61217e-17
8497.00022 2.58920e-17
8498.00012 2.59147e-17
8499.00001 2.59374e-17
8499.99992 2.59602e-17
8500.99982 2.59830e-17
8501.99971 2.60059e-17
8502.99962 2.60288e-17
8503.99952 2.60800e-17
8504.99942 2.61181e-17
8505.99932 2.61412e-17
8506.99921 2.61644e-17
8507.99912 2.61877e-17
8508.99902 2.62110e-17
8509.99892 2.62343e-17
8510.99882 2.62577e-17
8511.99871 2.57895e-17
8512.99862 2.57731e-17
8513.99852 2.57961e-17
8514.99842 2.58193e-17
8515.99832 2.58424e-17
8516.99821 2.58656e-17
8517.99812 2.58889e-17
8518.99802 2.57772e-17
8519.99791 2.52487e-17
8520.99782 2.52714e-17
8521.99772 2.52942e-17
8522.99762 2.53170e-17
8523.99752 2.53399e-17
8524.99741 2.53628e-17
8525.99732 2.53858e-17
8526.99722 2.52313e-17
8527.99712 2.50515e-17
8528.99702 2.50742e-17
8529.99691 2.50969e-17
8530.99682 2.51197e-17
8531.99672 2.51424e-17
8532.99662 2.51653e-17
8533.99652 2.51881e-17
8534.99641 2.44692e-17
8535.99632 2.42264e-17
8536.99622 2.42485e-17
8537.99611 2.42705e-17
8538.99602 2.42926e-17
8539.99592 2.43146e-17
8540.99582 2.43367e-17
8541.99572 2.43549e-17
8542.99561 2.37385e-17
8543.99552 2.37600e-17
8544.99542 2.37816e-17
8545.99532 2.38033e-17
8546.99522 2.38249e-17
8548.00511 2.38465e-17
8549.00501 2.38682e-17
8550.00491 2.37043e-17
8551.00481 2.32357e-17
8552.00471 2.32568e-17
8553.00461 2.32779e-17
8554.00451 2.32990e-17
8555.00441 2.33201e-17
8556.00431 2.33412e-17
8557.00421 2.33623e-17
8558.00411 2.28988e-17
8559.00401 2.25109e-17
8560.00391 2.25313e-17
8561.00381 2.25516e-17
8562.00371 2.25720e-17
8563.00361 2.25923e-17
8564.00351 2.26127e-17
8565.00341 2.26331e-17
8566.00331 2.22088e-17
8567.00321 2.21246e-17
8568.00311 2.21445e-17
8569.00301 2.21644e-17
8570.00291 2.21843e-17
8571.00281 2.22043e-17
8572.00271 2.22242e-17
8573.00261 2.22077e-17
8574.00251 2.17900e-17
8575.00241 2.18096e-17
8576.00231 2.18292e-17
8577.00221 2.18488e-17
8578.00211 2.18684e-17
8579.00201 2.18880e-17
8580.00191 2.19077e-17
8581.00181 2.16809e-17
8582.00171 2.12285e-17
8583.00161 2.12476e-17
8584.00151 2.12667e-17
8585.00141 2.12858e-17
8586.00131 2.13049e-17
8587.00121 2.13241e-17
8588.00111 2.13433e-17
8589.00101 2.11267e-17
8590.00091 2.09942e-17
8591.00081 2.10131e-17
8592.00071 2.10320e-17
8593.00061 2.10510e-17
8594.00051 2.10699e-17
8595.00041 2.10890e-17
8596.00031 2.11080e-17
8597.00021 2.05593e-17
8598.00011 2.04958e-17
8599.00001 2.05144e-17
8599.99991 2.05330e-17
8600.99981 2.05516e-17
8601.99971 2.05702e-17
8602.99961 2.05889e-17
8603.99951 2.05042e-17
8604.99941 1.98771e-17
8605.99931 1.98952e-17
8606.99921 1.99134e-17
8607.99911 1.99316e-17
8608.99901 1.99498e-17
8609.99891 1.99680e-17
8610.99881 1.99863e-17
8611.99871 1.98643e-17
8612.99861 1.96735e-17
8613.99851 1.96916e-17
8614.99841 1.97098e-17
8615.99831 1.97280e-17
8616.99821 1.97462e-17
8617.99811 1.97644e-17
8618.99801 1.97827e-17
8619.99791 1.92352e-17
8620.99781 1.89678e-17
8621.99771 1.89854e-17
8622.99761 1.90031e-17
8623.99751 1.90209e-17
8624.99741 1.90387e-17
8625.99731 1.90565e-17
8626.99721 1.90744e-17
8627.99711 1.86081e-17
8628.99701 1.85877e-17
8629.99691 1.86053e-17
8630.99681 1.86229e-17
8631.99671 1.86405e-17
8632.99661 1.86582e-17
8633.99651 1.86760e-17
8634.99641 1.85703e-17
8635.99631 1.80587e-17
8636.99621 1.80760e-17
8637.99611 1.80934e-17
8638.99601 1.81108e-17
8639.99591 1.81282e-17
8640.99581 1.81457e-17
8641.99571 1.81633e-17
8642.99561 1.79219e-17
8643.99551 1.76231e-17
8644.99541 1.76403e-17
8646.00531 1.76576e-17
8647.00521 1.76749e-17
8648.00511 1.76922e-17
8649.00501 1.77096e-17
8650.00491 1.77271e-17
8651.00481 1.72002e-17
8652.00471 1.69960e-17
8653.00461 1.70129e-17
8654.00451 1.70299e-17
8655.00441 1.70469e-17
8656.00431 1.70640e-17
8657.00421 1.70812e-17
8658.00411 1.70984e-17
8659.00401 1.64798e-17
8660.00391 1.64776e-17
8661.00381 1.64943e-17
8662.00371 1.65111e-17
8663.00361 1.65280e-17
8664.00351 1.65448e-17
8665.00341 1.65618e-17
8666.00331 1.64254e-17
8667.00321 1.59298e-17
8668.00311 1.59462e-17
8669.00301 1.59626e-17
8670.00291 1.59790e-17
8671.00281 1.59955e-17
8672.00271 1.60121e-17
8673.00261 1.60287e-17
8674.00251 1.57169e-17
8675.00241 1.53900e-17
8676.00231 1.54060e-17
8677.00221 1.54221e-17
8678.00211 1.54382e-17
8679.00201 1.54544e-17
8680.00191 1.54706e-17
8681.00181 1.54868e-17
8682.00171 1.48129e-17
8683.00161 1.45949e-17
8684.00151 1.46103e-17
8685.00141 1.46257e-17
8686.00131 1.46412e-17
8687.00121 1.46567e-17
8688.00111 1.46723e-17
8689.00101 1.46842e-17
8690.00091 1.39251e-17
8691.00081 1.39400e-17
8692.00071 1.39549e-17
8693.00061 1.39698e-17
8694.00051 1.39848e-17
8695.00041 1.39998e-17
8696.00031 1.40149e-17
8697.00021 1.38937e-17
8698.00011 1.35233e-17
8699.00001 1.35380e-17
8699.99991 1.35526e-17
8700.99981 1.35673e-17
8701.99971 1.35820e-17
8702.99961 1.35968e-17
8703.99951 1.36116e-17
8704.99941 1.34817e-17
8705.99931 1.33615e-17
8706.99921 1.33761e-17
8707.99911 1.33908e-17
8708.99901 1.34055e-17
8709.99891 1.34202e-17
8710.99881 1.34350e-17
8711.99871 1.34498e-17
8712.99861 1.30312e-17
8713.99851 1.29183e-17
8714.99841 1.29326e-17
8715.99831 1.29470e-17
8716.99821 1.29614e-17
8717.99811 1.29758e-17
8718.99801 1.29903e-17
8719.99791 1.29997e-17
8720.99781 1.28380e-17
8721.99771 1.28524e-17
8722.99761 1.28668e-17
8723.99751 1.28813e-17
8724.99741 1.28958e-17
8725.99731 1.29103e-17
8726.99721 1.29249e-17
8727.99711 1.27908e-17
8728.99701 1.24269e-17
8729.99691 1.24410e-17
8730.99681 1.24552e-17
8731.99671 1.24693e-17
8732.99661 1.24835e-17
8733.99651 1.24978e-17
8734.99641 1.25120e-17
8735.99631 1.23472e-17
8736.99621 1.22060e-17
8737.99611 1.22200e-17
8738.99601 1.22341e-17
8739.99591 1.22481e-17
8740.99581 1.22623e-17
8741.99571 1.22764e-17
8743.00561 1.22906e-17
8744.00551 1.21074e-17
8745.00541 1.20685e-17
8746.00531 1.20825e-17
8747.00521 1.20966e-17
8748.00511 1.21107e-17
8749.00501 1.21248e-17
8750.00491 1.21389e-17
8751.00481 1.21434e-17
8752.00471 1.19300e-17
8753.00461 1.19440e-17
8754.00451 1.19580e-17
8755.00441 1.19721e-17
8756.00431 1.19862e-17
8757.00421 1.20004e-17
8758.00411 1.20145e-17
8759.00401 1.19678e-17
8760.00391 1.18342e-17
8761.00381 1.18483e-17
8762.00371 1.18624e-17
8763.00361 1.18765e-17
8764.00351 1.18907e-17
8765.00341 1.19050e-17
8766.00331 1.19193e-17
8767.00321 1.16569e-17
8768.00311 1.14382e-17
8769.00301 1.14521e-17
8770.00291 1.14660e-17
8771.00281 1.14799e-17
8772.00271 1.14938e-17
8773.00261 1.15079e-17
8774.00251 1.15219e-17
8775.00241 1.13197e-17
8776.00231 1.12774e-17
8777.00221 1.12912e-17
8778.00211 1.13051e-17
8779.00201 1.13190e-17
8780.00191 1.13330e-17
8781.00181 1.13471e-17
8782.00171 1.13413e-17
8783.00161 1.09165e-17
8784.00151 1.09300e-17
8785.00141 1.09436e-17
8786.00131 1.09573e-17
8787.00121 1.09710e-17
8788.00111 1.09847e-17
8789.00101 1.09985e-17
8790.00091 1.07573e-17
8791.00081 1.01525e-17
8792.00071 1.01653e-17
8793.00061 1.01781e-17
8794.00051 1.01910e-17
8795.00041 1.02039e-17
8796.00031 1.02168e-17
8797.00021 1.02297e-17
8798.00011 1.00187e-17
8799.00001 9.84086e-18
8799.99991 9.85338e-18
8800.99981 9.86593e-18
8801.99971 9.87851e-18
8802.99961 9.89112e-18
8803.99951 9.90376e-18
8804.99941 9.91643e-18
8805.99931 9.47873e-18
8806.99921 9.36968e-18
8807.99911 9.38170e-18
8808.99901 9.39375e-18
8809.99891 9.40582e-18
8810.99881 9.41792e-18
8811.99871 9.43005e-18
8812.99861 9.41899e-18
8813.99851 8.79256e-18
8814.99841 8.80391e-18
8815.99831 8.81528e-18
8816.99821 8.82667e-18
8817.99811 8.83809e-18
8818.99801 8.84953e-18
8819.99791 8.86099e-18
8820.99781 8.71229e-18
8821.99771 8.31394e-18
8822.99761 8.32472e-18
8823.99751 8.33553e-18
8824.99741 8.34635e-18
8825.99731 8.35719e-18
8826.99721 8.36805e-18
8827.99711 8.37893e-18
8828.99701 8.17655e-18
8829.99691 7.99547e-18
8830.99681 8.00587e-18
8831.99671 8.01630e-18
8832.99661 8.02674e-18
8833.99651 8.03719e-18
8834.99641 8.04766e-18
8835.99631 8.05815e-18
8836.99621 7.78276e-18
8837.99611 7.70829e-18
8838.99601 7.71834e-18
8839.99591 7.72840e-18
8840.99581 7.73848e-18
8841.99571 7.74857e-18
8842.99561 7.75867e-18
8843.99551 7.76898e-18
8844.99541 7.79086e-18
8845.99531 7.80101e-18
8846.99521 7.81118e-18
8847.99511 7.82136e-18
8848.99501 7.83156e-18
8849.99491 7.84176e-18
8851.00481 7.85197e-18
8852.00471 7.90693e-18
8853.00461 8.04496e-18
8854.00451 8.05543e-18
8855.00441 8.06591e-18
8856.00431 8.07640e-18
8857.00421 8.08690e-18
8858.00411 8.09741e-18
8859.00401 8.10793e-18
8860.00391 8.12438e-18
8861.00381 8.14081e-18
8862.00371 8.15143e-18
8863.00361 8.16209e-18
8864.00351 8.17279e-18
8865.00341 8.18354e-18
8866.00331 8.19433e-18
8867.00321 8.20517e-18
8868.00311 8.34775e-18
8869.00301 8.40406e-18
8870.00291 8.41526e-18
8871.00281 8.42649e-18
8872.00271 8.43776e-18
8873.00261 8.44907e-18
8874.00251 8.46041e-18
8875.00241 8.47179e-18
8876.00231 8.96906e-18
8877.00221 8.98802e-18
8878.00211 9.00017e-18
8879.00201 9.01236e-18
8880.00191 9.02459e-18
8881.00181 9.03685e-18
8882.00171 9.04914e-18
8883.00161 9.21300e-18
8884.00151 9.74252e-18
8885.00141 9.75582e-18
8886.00131 9.76916e-18
8887.00121 9.78252e-18
8888.00111 9.79591e-18
8889.00101 9.80933e-18
8890.00091 9.82278e-18
8891.00081 9.87144e-18
8892.00071 9.92520e-18
8893.00061 9.93883e-18
8894.00051 9.95248e-18
8895.00041 9.96616e-18
8896.00031 9.97986e-18
8897.00021 9.99358e-18
8898.00011 1.00073e-17
8899.00001 1.01743e-17
8899.99991 1.02520e-17
8900.99981 1.02661e-17
8901.99971 1.02802e-17
8902.99961 1.02943e-17
8903.99951 1.03085e-17
8904.99941 1.03226e-17
8905.99931 1.03368e-17
8906.99921 9.94474e-18
8907.99911 9.93476e-18
8908.99901 9.94836e-18
8909.99891 9.96198e-18
8910.99881 9.97560e-18
8911.99871 9.98923e-18
8912.99861 1.00029e-17
8913.99851 9.92676e-18
8914.99841 9.53952e-18
8915.99831 9.55249e-18
8916.99821 9.56546e-18
8917.99811 9.57843e-18
8918.99801 9.59139e-18
8919.99791 9.60435e-18
8920.99781 9.61731e-18
8921.99771 9.41168e-18
8922.99761 9.12262e-18
8923.99751 9.13486e-18
8924.99741 9.14709e-18
8925.99731 9.15931e-18
8926.99721 9.17153e-18
8927.99711 9.18373e-18
8928.99701 9.19592e-18
8929.99691 9.16643e-18
8930.99681 9.15676e-18
8931.99671 9.16882e-18
8932.99661 9.18087e-18
8933.99651 9.19289e-18
8934.99641 9.20491e-18
8935.99631 9.21689e-18
8936.99621 9.22886e-18
8937.99611 8.80920e-18
8938.99601 8.76877e-18
8939.99591 8.78004e-18
8940.99581 8.79129e-18
8941.99571 8.80252e-18
8942.99561 8.81372e-18
8943.99551 8.82490e-18
8944.99541 8.81613e-18
8945.99531 8.69164e-18
8946.99521 8.70253e-18
8948.00511 8.71339e-18
8949.00501 8.72422e-18
8950.00491 8.73501e-18
8951.00481 8.74577e-18
8952.00471 8.75650e-18
8953.00461 8.74925e-18
8954.00451 8.72830e-18
8955.00441 8.73886e-18
8956.00431 8.74937e-18
8957.00421 8.75985e-18
8958.00411 8.77028e-18
8959.00401 8.78067e-18
8960.00391 8.79101e-18
8961.00381 8.69662e-18
8962.00371 8.63569e-18
8963.00361 8.64538e-18
8964.00351 8.65492e-18
8965.00341 8.66430e-18
8966.00331 8.67352e-18
8967.00321 8.68260e-18
8968.00311 8.69153e-18
8969.00301 8.65513e-18
8970.00291 8.65444e-18
8971.00281 8.66291e-18
8972.00271 8.67126e-18
8973.00261 8.67949e-18
8974.00251 8.68760e-18
8975.00241 8.69559e-18
8976.00231 8.68128e-18
8977.00221 8.35192e-18
8978.00211 8.35929e-18
8979.00201 8.36657e-18
8980.00191 8.37377e-18
8981.00181 8.38088e-18
8982.00171 8.38792e-18
8983.00161 8.39488e-18
8984.00151 8.37540e-18
8985.00141 8.31867e-18
8986.00131 8.32537e-18
8987.00121 8.33202e-18
8988.00111 8.33862e-18
8989.00101 8.34518e-18
8990.00091 8.35169e-18
8991.00081 8.35817e-18
8992.00071 8.44332e-18
8993.00061 8.52124e-18
8994.00051 8.52775e-18
8995.00041 8.53425e-18
8996.00031 8.54074e-18
8997.00021 8.54721e-18
8998.00011 8.55368e-18
8999.00001 8.56016e-18
8999.99991 8.62584e-18
9000.99981 8.65164e-18
9001.99971 8.65821e-18
9002.99961 8.66480e-18
9003.99951 8.67140e-18
9004.99941 8.67805e-18
9005.99931 8.68472e-18
9006.99921 8.69144e-18
9007.99911 9.27119e-18
9008.99901 9.28775e-18
9009.99891 9.29508e-18
9010.99881 9.30247e-18
9011.99871 9.30993e-18
9012.99861 9.31746e-18
9013.99851 9.32508e-18
9014.99841 9.36885e-18
9015.99831 9.51023e-18
9016.99821 9.51826e-18
9017.99811 9.52639e-18
9018.99801 9.53463e-18
9019.99791 9.54299e-18
9020.99781 9.55147e-18
9021.99771 9.56007e-18
9022.99761 9.67800e-18
9023.99751 9.82562e-18
9024.99741 9.83487e-18
9025.99731 9.84427e-18
9026.99721 9.85383e-18
9027.99711 9.86355e-18
9028.99701 9.87345e-18
9029.99691 9.88352e-18
9030.99681 1.02649e-17
9031.99671 1.04602e-17
9032.99661 1.04715e-17
9033.99651 1.04829e-17
9034.99641 1.04946e-17
9035.99631 1.05065e-17
9036.99621 1.05186e-17
9037.99611 1.05309e-17
9038.99601 1.08986e-17
9039.99591 1.09537e-17
9040.99581 1.09674e-17
9041.99571 1.09812e-17
9042.99561 1.09954e-17
9043.99551 1.10098e-17
9044.99541 1.10246e-17
9046.00531 1.11212e-17
9047.00521 1.17332e-17
9048.00511 1.17499e-17
9049.00501 1.17669e-17
9050.00491 1.17842e-17
9051.00481 1.18019e-17
9052.00471 1.18200e-17
9053.00461 1.18384e-17
9054.00451 1.21323e-17
9055.00441 1.26737e-17
9056.00431 1.26946e-17
9057.00421 1.27160e-17
9058.00411 1.27379e-17
9059.00401 1.27602e-17
9060.00391 1.27829e-17
9061.00381 1.28062e-17
9062.00371 1.38852e-17
9063.00361 1.47093e-17
9064.00351 1.47375e-17
9065.00341 1.47663e-17
9066.00331 1.47957e-17
9067.00321 1.48255e-17
9068.00311 1.48559e-17
9069.00301 1.48868e-17
9070.00291 1.36557e-17
9071.00281 1.33557e-17
9072.00271 1.33846e-17
9073.00261 1.34140e-17
9074.00251 1.34439e-17
9075.00241 1.34741e-17
9076.00231 1.35048e-17
9077.00221 1.35357e-17
9078.00211 1.35540e-17
9079.00201 1.35859e-17
9080.00191 1.36182e-17
9081.00181 1.36509e-17
9082.00171 1.36839e-17
9083.00161 1.37174e-17
9084.00151 1.37512e-17
9085.00141 1.37258e-17
9086.00131 1.35691e-17
9087.00121 1.36034e-17
9088.00111 1.36381e-17
9089.00101 1.36731e-17
9090.00091 1.37084e-17
9091.00081 1.37433e-17
9092.00071 1.37793e-17
9093.00061 1.38311e-17
9094.00051 1.38861e-17
9095.00041 1.39231e-17
9096.00031 1.39604e-17
9097.00021 1.39980e-17
9098.00011 1.40358e-17
9099.00001 1.40740e-17
9099.99991 1.41124e-17
9100.99981 1.40391e-17
9101.99971 1.40250e-17
9102.99961 1.40638e-17
9103.99951 1.41028e-17
9104.99941 1.41420e-17
9105.99931 1.41815e-17
9106.99921 1.42212e-17
9107.99911 1.42611e-17
9108.99901 1.43084e-17
9109.99891 1.43495e-17
9110.99881 1.43901e-17
9111.99871 1.44308e-17
9112.99861 1.44717e-17
9113.99851 1.45127e-17
9114.99841 1.45540e-17
9115.99831 1.45101e-17
9116.99821 1.39210e-17
9117.99811 1.39606e-17
9118.99801 1.40004e-17
9119.99791 1.40402e-17
9120.99781 1.40802e-17
9121.99771 1.41203e-17
9122.99761 1.41605e-17
9123.99751 1.38656e-17
9124.99741 1.32462e-17
9125.99731 1.32838e-17
9126.99721 1.33214e-17
9127.99711 1.33591e-17
9128.99701 1.33968e-17
9129.99691 1.34345e-17
9130.99681 1.34723e-17
9131.99671 1.30128e-17
9132.99661 1.26501e-17
9133.99651 1.26853e-17
9134.99641 1.27206e-17
9135.99631 1.27558e-17
9136.99621 1.27910e-17
9137.99611 1.28262e-17
9138.99601 1.28613e-17
9139.99591 1.17950e-17
9140.99581 1.15014e-17
9141.99571 1.15325e-17
9142.99561 1.15635e-17
9144.00551 1.15944e-17
9145.00541 1.16252e-17
9146.00531 1.16560e-17
9147.00521 1.16866e-17
9148.00511 1.06650e-17
9149.00501 1.06803e-17
9150.00491 1.07078e-17
9151.00481 1.07352e-17
9152.00471 1.07625e-17
9153.00461 1.07896e-17
9154.00451 1.08166e-17
9155.00441 1.05607e-17
9156.00431 9.47880e-18
9157.00421 9.50190e-18
9158.00411 9.52483e-18
9159.00401 9.54761e-18
9160.00391 9.57021e-18
9161.00381 9.59278e-18
9162.00371 9.61546e-18
9163.00361 9.05740e-18
9164.00351 8.26906e-18
9165.00341 8.28874e-18
9166.00331 8.30850e-18
9167.00321 8.32834e-18
9168.00311 8.34826e-18
9169.00301 8.36826e-18
9170.00291 8.38833e-18
9171.00281 7.61609e-18
9172.00271 7.17198e-18
9173.00261 7.18923e-18
9174.00251 7.20654e-18
9175.00241 7.22391e-18
9176.00231 7.24133e-18
9177.00221 7.25879e-18
9178.00211 7.27631e-18
9179.00201 6.22716e-18
9180.00191 6.04613e-18
9181.00181 6.06072e-18
9182.00171 6.07534e-18
9183.00161 6.08999e-18
9184.00151 6.10467e-18
9185.00141 6.11937e-18
9186.00131 6.09329e-18
9187.00121 5.43509e-18
9188.00111 5.44815e-18
9189.00101 5.46122e-18
9190.00091 5.47431e-18
9191.00081 5.48740e-18
9192.00071 5.50051e-18
9193.00061 5.51363e-18
9194.00051 5.60683e-18
9195.00041 5.83850e-18
9196.00031 5.85234e-18
9197.00021 5.86619e-18
9198.00011 5.88003e-18
9199.00001 5.89387e-18
9199.99991 5.90771e-18
9200.99981 5.92154e-18
9201.99971 5.89663e-18
9202.99961 5.86820e-18
9203.99951 5.88181e-18
9204.99941 5.89541e-18
9205.99931 5.90899e-18
9206.99921 5.92255e-18
9207.99911 5.93609e-18
9208.99901 5.94960e-18
9209.99891 6.14255e-18
9210.99881 6.23745e-18
9211.99871 6.25147e-18
9212.99861 6.26546e-18
9213.99851 6.27940e-18
9214.99841 6.29332e-18
9215.99831 6.30719e-18
9216.99821 6.32101e-18
9217.99811 6.36647e-18
9218.99801 6.38386e-18
9219.99791 6.39762e-18
9220.99781 6.41133e-18
9221.99771 6.42498e-18
9222.99761 6.43857e-18
9223.99751 6.45210e-18
9224.99741 6.46449e-18
9225.99731 6.46884e-18
9226.99721 6.48215e-18
9227.99711 6.49540e-18
9228.99701 6.50856e-18
9229.99691 6.52166e-18
9230.99681 6.53467e-18
9231.99671 6.54761e-18
9232.99661 6.85156e-18
9233.99651 7.50072e-18
9234.99641 7.51518e-18
9235.99631 7.52954e-18
9236.99621 7.54378e-18
9237.99611 7.55792e-18
9238.99601 7.57194e-18
9239.99591 7.58585e-18
9240.99581 8.15911e-18
9241.99571 8.68856e-18
9242.99561 8.70400e-18
9243.99551 8.71930e-18
9244.99541 8.73444e-18
9245.99531 8.74943e-18
9246.99521 8.76426e-18
9247.99511 8.77892e-18
9248.99501 9.04654e-18
9249.99491 9.15636e-18
9251.00481 9.17108e-18
9252.00471 9.18561e-18
9253.00461 9.19995e-18
9254.00451 9.21410e-18
9255.00441 9.22805e-18
9256.00431 9.24180e-18
9257.00421 9.16251e-18
9258.00411 9.16897e-18
9259.00401 9.18196e-18
9260.00391 9.19473e-18
9261.00381 9.20725e-18
9262.00371 9.21950e-18
9263.00361 9.23147e-18
9264.00351 9.17954e-18
9265.00341 8.78912e-18
9266.00331 8.79973e-18
9267.00321 8.81009e-18
9268.00311 8.82021e-18
9269.00301 8.83009e-18
9270.00291 8.83973e-18
9271.00281 8.84915e-18
9272.00271 8.57325e-18
9273.00261 8.02912e-18
9274.00251 8.03704e-18
9275.00241 8.04476e-18
9276.00231 8.05229e-18
9277.00221 8.05964e-18
9278.00211 8.06679e-18
9279.00201 8.07377e-18
9280.00191 7.52645e-18
9281.00181 7.06643e-18
9282.00171 7.07207e-18
9283.00161 7.07757e-18
9284.00151 7.08292e-18
9285.00141 7.08814e-18
9286.00131 7.09322e-18
9287.00121 7.09817e-18
9288.00111 6.65800e-18
9289.00101 6.51023e-18
9290.00091 6.51443e-18
9291.00081 6.51851e-18
9292.00071 6.52249e-18
9293.00061 6.52637e-18
9294.00051 6.53015e-18
9295.00041 6.53384e-18
9296.00031 6.53053e-18
9297.00021 6.53364e-18
9298.00011 6.53705e-18
9299.00001 6.54039e-18
9299.99991 6.54365e-18
9300.99981 6.54683e-18
9301.99971 6.54994e-18
9302.99961 6.50640e-18
9303.99951 6.23885e-18
9304.99941 6.24162e-18
9305.99931 6.24433e-18
9306.99921 6.24700e-18
9307.99911 6.24961e-18
9308.99901 6.25217e-18
9309.99891 6.25469e-18
9310.99881 6.33172e-18
9311.99871 6.47482e-18
9312.99861 6.47731e-18
9313.99851 6.47978e-18
9314.99841 6.48221e-18
9315.99831 6.48462e-18
9316.99821 6.48701e-18
9317.99811 6.48938e-18
9318.99801 6.41909e-18
9319.99791 6.36081e-18
9320.99781 6.36310e-18
9321.99771 6.36538e-18
9322.99761 6.36767e-18
9323.99751 6.36995e-18
9324.99741 6.37224e-18
9325.99731 6.37454e-18
9326.99721 6.21439e-18
9327.99711 6.16054e-18
9328.99701 6.16281e-18
9329.99691 6.16509e-18
9330.99681 6.16740e-18
9331.99671 6.16974e-18
9332.99661 6.17210e-18
9333.99651 6.17450e-18
9334.99641 3.87679e-18
9335.99631 3.73276e-18
9336.99621 3.73428e-18
9337.99611 3.73583e-18
9338.99601 3.73742e-18
9339.99591 3.73903e-18
9340.99581 3.74068e-18
9341.99571 3.28873e-18
9342.99561 4.27721e-19
9343.99551 4.27922e-19
9344.99541 4.28129e-19
9345.99531 4.28340e-19
9346.99521 4.28557e-19
9347.99511 4.28779e-19
9349.00501 4.29007e-19
9350.00491 3.47170e-19
9351.00481 1.82433e-19
9352.00471 1.82537e-19
9353.00461 1.82644e-19
9354.00451 1.82754e-19
9355.00441 1.82867e-19
9356.00431 1.82983e-19
9357.00421 1.83103e-19
9358.00411 9.11076e-20
9359.00401 8.47109e-21
