# wavelength flux
3890.00096 3.67029e-18
3891.00086 3.67005e-18
3892.00076 3.52263e-18
3893.00066 3.52241e-18
3894.00056 3.52927e-18
3895.00046 3.52195e-18
3896.00036 3.52173e-18
3897.00026 3.52859e-18
3898.00016 2.91668e-18
3899.00006 2.91650e-18
3899.99996 3.20671e-18
3900.99986 2.91612e-18
3901.99976 2.90485e-18
3902.99966 2.51171e-18
3903.99956 2.51155e-18
3904.99946 2.43592e-18
3905.99936 2.76697e-18
3906.99926 2.91501e-18
3907.99916 3.20508e-18
3908.99906 3.20487e-18
3909.99896 3.49263e-18
3910.99886 3.42210e-18
3911.99876 3.49218e-18
3912.99866 3.65194e-18
3913.99856 3.68015e-18
3914.99846 3.65148e-18
3915.99836 3.67969e-18
3916.99826 3.65102e-18
3917.99816 3.62743e-18
3918.99806 3.65056e-18
3919.99796 3.67876e-18
3920.99786 4.12875e-18
3921.99776 4.22983e-18
3922.99766 4.12823e-18
3923.99756 4.03225e-18
3924.99746 3.53508e-18
3925.99736 3.45273e-18
3926.99726 3.17704e-18
3927.99716 3.45230e-18
3928.99706 2.89863e-18
3929.99696 2.57961e-18
3930.99686 2.57945e-18
3931.99676 1.56417e-18
3932.99666 1.56408e-18
3933.99656 1.51918e-18
3934.99646 1.56388e-18
3935.99636 1.51899e-18
3936.99626 2.57849e-18
3937.99616 2.57833e-18
3938.99606 2.57817e-18
3939.99596 2.00766e-18
3940.99586 2.00754e-18
3941.99576 2.00741e-18
3942.99566 2.67973e-18
3943.99556 3.54691e-18
3944.99546 3.54670e-18
3945.99536 2.67923e-18
3946.99526 2.00680e-18
3948.00516 1.90463e-18
3949.00506 1.81817e-18
3950.00496 1.81806e-18
3951.00486 1.81795e-18
3952.00476 1.90416e-18
3953.00466 1.81773e-18
3954.00456 1.98249e-18
3955.00446 1.98237e-18
3956.00436 1.98225e-18
3957.00426 1.98213e-18
3958.00416 2.26532e-18
3959.00406 2.63741e-18
3960.00396 2.63725e-18
3961.00386 2.59282e-18
3962.00376 2.59266e-18
3963.00366 2.26464e-18
3964.00356 1.94036e-18
3965.00346 1.46108e-18
3966.00336 1.04439e-18
3967.00326 1.46091e-18
3968.00316 1.04426e-18
3969.00306 9.56825e-19
3970.00296 9.56767e-19
3971.00286 9.56710e-19
3972.00276 6.96790e-19
3973.00266 5.95431e-19
3974.00256 9.56538e-19
3975.00246 9.56481e-19
3976.00236 1.61560e-18
3977.00226 1.45140e-18
3978.00216 1.45131e-18
3979.00206 1.45122e-18
3980.00196 1.53564e-18
3981.00186 1.53555e-18
3982.00176 1.86157e-18
3983.00166 1.86146e-18
3984.00156 1.86135e-18
3985.00146 1.53518e-18
3986.00136 1.45062e-18
3987.00126 1.45053e-18
3988.00116 1.57971e-18
3989.00106 2.01631e-18
3990.00096 2.19547e-18
3991.00086 2.43590e-18
3992.00076 1.57933e-18
3993.00066 1.32958e-18
3994.00056 1.57915e-18
3995.00046 2.00599e-18
3996.00036 2.19469e-18
3997.00026 2.19978e-18
3998.00016 2.19965e-18
3999.00006 2.19952e-18
3999.99996 2.19417e-18
4000.99986 2.00528e-18
4001.99976 2.19913e-18
4002.99966 2.19900e-18
4003.99956 2.44257e-18
4004.99946 2.44243e-18
4005.99936 3.21330e-18
4006.99926 3.33811e-18
4007.99916 3.21292e-18
4008.99906 3.16581e-18
4009.99896 3.33752e-18
4010.99886 3.33732e-18
4011.99876 3.59589e-18
4012.99866 3.83834e-18
4013.99856 3.83811e-18
4014.99846 3.16470e-18
4015.99836 3.16451e-18
4016.99826 3.16433e-18
4017.99816 3.59463e-18
4018.99806 3.75479e-18
4019.99796 3.97787e-18
4020.99786 3.75435e-18
4021.99776 3.28175e-18
4022.99766 3.28156e-18
4023.99756 3.97694e-18
4024.99746 3.98342e-18
4025.99736 4.15815e-18
4026.99726 4.43872e-18
4027.99716 3.97601e-18
4028.99706 3.75260e-18
4029.99696 3.97555e-18
4030.99686 3.98203e-18
4031.99676 4.09032e-18
4032.99666 4.65363e-18
4033.99656 4.72131e-18
4034.99646 4.72104e-18
4035.99636 4.72076e-18
4036.99626 4.65255e-18
4037.99616 4.72021e-18
4038.99606 4.72307e-18
4039.99596 5.14441e-18
4040.99586 5.22109e-18
4041.99576 5.26260e-18
4042.99566 5.38344e-18
4043.99556 5.38313e-18
4044.99546 5.38281e-18
4045.99536 5.51173e-18
4046.99526 5.51141e-18
4048.00516 5.51109e-18
4049.00506 5.51077e-18
4050.00496 5.51045e-18
4051.00486 6.33520e-18
4052.00476 5.91362e-18
4053.00466 6.29759e-18
4054.00456 6.29722e-18
4055.00446 6.29686e-18
4056.00436 5.91225e-18
4057.00426 6.33301e-18
4058.00416 5.98267e-18
4059.00406 5.98233e-18
4060.00396 6.29504e-18
4061.00386 6.29468e-18
4062.00376 6.29432e-18
4063.00366 6.67548e-18
4064.00356 6.91977e-18
4065.00346 6.91938e-18
4066.00336 6.80140e-18
4067.00326 6.77521e-18
4068.00316 6.77482e-18
4069.00306 6.77443e-18
4070.00296 6.79983e-18
4071.00286 6.77365e-18
4072.00276 6.77326e-18
4073.00266 6.40510e-18
4074.00256 6.47412e-18
4075.00246 6.40436e-18
4076.00236 6.33962e-18
4077.00226 6.33925e-18
4078.00216 6.20864e-18
4079.00206 5.61090e-18
4080.00196 5.61058e-18
4081.00186 5.61026e-18
4082.00176 4.87972e-18
4083.00166 5.29045e-18
4084.00156 5.83704e-18
4085.00146 5.60896e-18
4086.00136 4.96989e-18
4087.00126 5.60832e-18
4088.00116 4.77481e-18
4089.00106 4.69747e-18
4090.00096 4.28307e-18
4091.00086 4.13517e-18
4092.00076 4.19519e-18
4093.00066 4.19495e-18
4094.00056 4.13445e-18
4095.00046 3.64794e-18
4096.00036 3.63393e-18
4097.00026 3.54209e-18
4098.00016 3.54189e-18
4099.00006 3.71056e-18
4099.99996 3.75218e-18
4100.99986 3.75197e-18
4101.99976 3.37344e-18
4102.99966 3.14822e-18
4103.99956 3.14804e-18
4104.99946 3.26462e-18
4105.99936 3.75089e-18
4106.99926 3.91224e-18
4107.99916 3.91202e-18
4108.99906 3.98114e-18
4109.99896 3.91157e-18
4110.99886 3.89482e-18
4111.99876 3.89460e-18
4112.99866 3.89437e-18
4113.99856 3.74243e-18
4114.99846 3.74222e-18
4115.99836 3.89370e-18
4116.99826 3.74179e-18
4117.99816 3.27694e-18
4118.99806 3.42418e-18
4119.99796 3.27657e-18
4120.99786 3.27638e-18
4121.99776 3.27619e-18
4122.99766 3.27600e-18
4123.99756 3.27581e-18
4124.99746 2.84131e-18
4125.99736 3.42280e-18
4126.99726 3.59888e-18
4127.99716 3.59868e-18
4128.99706 3.72944e-18
4129.99696 3.80226e-18
4130.99686 3.72901e-18
4131.99676 3.83440e-18
4132.99666 3.83418e-18
4133.99656 3.83396e-18
4134.99646 3.72815e-18
4135.99636 4.04828e-18
4136.99626 3.72772e-18
4137.99616 3.24221e-18
4138.99606 3.24202e-18
4139.99596 4.04735e-18
4140.99586 4.04711e-18
4141.99576 4.27418e-18
4142.99566 4.27393e-18
4143.99556 4.04641e-18
4144.99546 3.52852e-18
4145.99536 3.54831e-18
4147.00526 3.54811e-18
4148.00516 4.05137e-18
4149.00506 4.05114e-18
4150.00496 4.05090e-18
4151.00486 3.74698e-18
4152.00476 3.54708e-18
4153.00466 3.40448e-18
4154.00456 3.05356e-18
4155.00446 3.35923e-18
4156.00436 3.05321e-18
4157.00426 3.05303e-18
4158.00416 3.05285e-18
4159.00406 2.87534e-18
4160.00396 2.87517e-18
4161.00386 3.08021e-18
4162.00376 3.08003e-18
4163.00366 3.18799e-18
4164.00356 3.35748e-18
4165.00346 3.24425e-18
4166.00336 3.24406e-18
4167.00326 3.62784e-18
4168.00316 3.47766e-18
4169.00306 3.47745e-18
4170.00296 3.62721e-18
4171.00286 3.37960e-18
4172.00276 3.24293e-18
4173.00266 3.18614e-18
4174.00256 2.93226e-18
4175.00246 2.93209e-18
4176.00236 2.70489e-18
4177.00226 2.33857e-18
4178.00216 2.31012e-18
4179.00206 2.30998e-18
4180.00196 2.33816e-18
4181.00186 2.36129e-18
4182.00176 2.70395e-18
4183.00166 2.73429e-18
4184.00156 2.08642e-18
4185.00146 1.89176e-18
4186.00136 2.08618e-18
4187.00126 2.61173e-18
4188.00116 2.73350e-18
4189.00106 2.75879e-18
4190.00096 2.85671e-18
4191.00086 2.85654e-18
4192.00076 2.85637e-18
4193.00066 2.72094e-18
4194.00056 2.72078e-18
4195.00046 2.61051e-18
4196.00036 2.61036e-18
4197.00026 2.45945e-18
4198.00016 2.17015e-18
4199.00006 2.17002e-18
4199.99996 1.75258e-18
4200.99986 1.57563e-18
4201.99976 1.39646e-18
4202.99966 1.39638e-18
4203.99956 1.23844e-18
4204.99946 1.39621e-18
4205.99936 1.18942e-18
4206.99926 1.10581e-18
4207.99916 1.18928e-18
4208.99906 1.10568e-18
4209.99896 9.59687e-19
4210.99886 1.10555e-18
4211.99876 8.09953e-19
4212.99866 7.90674e-19
4213.99856 9.59461e-19
4214.99846 8.09810e-19
4215.99836 8.09762e-19
4216.99826 8.09715e-19
4217.99816 6.53903e-19
4218.99806 6.53865e-19
4219.99796 7.90348e-19
4220.99786 7.90301e-19
4221.99776 1.06969e-18
4222.99766 1.33181e-18
4223.99756 1.33173e-18
4224.99746 1.37932e-18
4225.99736 1.33157e-18
4226.99726 1.33149e-18
4227.99716 1.51093e-18
4228.99706 1.51677e-18
4229.99696 1.75789e-18
4230.99686 1.76654e-18
4231.99676 1.84207e-18
4232.99666 1.84196e-18
4233.99656 2.12249e-18
4234.99646 2.19224e-18
4235.99636 2.34942e-18
4236.99626 2.34928e-18
4237.99616 2.54887e-18
4238.99606 2.54872e-18
4239.99596 2.54857e-18
4240.99586 2.50841e-18
4241.99576 2.50826e-18
4242.99566 2.50811e-18
4243.99556 2.29700e-18
4244.99546 2.07602e-18
4245.99536 2.29673e-18
4246.99526 2.21888e-18
4247.99516 2.21875e-18
4248.99506 2.21862e-18
4250.00496 2.29618e-18
4251.00486 2.21835e-18
4252.00476 2.67998e-18
4253.00466 2.67982e-18
4254.00456 2.69862e-18
4255.00446 2.69846e-18
4256.00436 2.69830e-18
4257.00426 2.69813e-18
4258.00416 2.85409e-18
4259.00406 2.91674e-18
4260.00396 2.91657e-18
4261.00386 2.85358e-18
4262.00376 2.81979e-18
4263.00366 2.67014e-18
4264.00356 2.66998e-18
4265.00346 2.66982e-18
4266.00336 2.81911e-18
4267.00326 2.81894e-18
4268.00316 2.42001e-18
4269.00306 2.41987e-18
4270.00296 2.41972e-18
4271.00286 3.07286e-18
4272.00276 3.11201e-18
4273.00266 3.28081e-18
4274.00256 3.07231e-18
4275.00246 3.11145e-18
4276.00236 3.57112e-18
4277.00226 3.57091e-18
4278.00216 3.66328e-18
4279.00206 3.76497e-18
4280.00196 3.66284e-18
4281.00186 3.57004e-18
4282.00176 3.60984e-18
4283.00166 3.60962e-18
4284.00156 3.76383e-18
4285.00146 3.92747e-18
4286.00136 3.92723e-18
4287.00126 3.92700e-18
4288.00116 3.78628e-18
4289.00106 3.70945e-18
4290.00096 3.70922e-18
4291.00086 3.78558e-18
4292.00076 3.78535e-18
4293.00066 3.99053e-18
4294.00056 3.70832e-18
4295.00046 3.36101e-18
4296.00036 3.70787e-18
4297.00026 3.07377e-18
4298.00016 3.07358e-18
4299.00006 3.36019e-18
4299.99996 3.02799e-18
4300.99986 2.95419e-18
4301.99976 2.94001e-18
4302.99966 2.91379e-18
4303.99956 2.85813e-18
4304.99946 2.93947e-18
4305.99936 2.83962e-18
4306.99926 2.93911e-18
4307.99916 2.93893e-18
4308.99906 2.83910e-18
4309.99896 2.80898e-18
4310.99886 2.80881e-18
4311.99876 2.80863e-18
4312.99866 2.80846e-18
4313.99856 2.96101e-18
4314.99846 2.96083e-18
4315.99836 2.96065e-18
4316.99826 2.82548e-18
4317.99816 2.80759e-18
4318.99806 2.80742e-18
4319.99796 2.71470e-18
4320.99786 2.71453e-18
4321.99776 2.71436e-18
4322.99766 2.82443e-18
4323.99756 2.71403e-18
4324.99746 2.82408e-18
4325.99736 2.82391e-18
4326.99726 2.71352e-18
4327.99716 2.71335e-18
4328.99706 2.76262e-18
4329.99696 2.71302e-18
4330.99686 2.21724e-18
4331.99676 2.76210e-18
4332.99666 2.21697e-18
4333.99656 2.76176e-18
4334.99646 2.77285e-18
4335.99636 2.77268e-18
4336.99626 2.76124e-18
4337.99616 2.77234e-18
4338.99606 3.18524e-18
4339.99596 3.54226e-18
4340.99586 3.54204e-18
4341.99576 3.54182e-18
4342.99566 3.43104e-18
4343.99556 3.29616e-18
4344.99546 3.20565e-18
4345.99536 3.43040e-18
4347.00526 3.50040e-18
4348.00516 3.50018e-18
4349.00506 3.49996e-18
4350.00496 3.49974e-18
4351.00486 3.40489e-18
4352.00476 3.40468e-18
4353.00466 3.49908e-18
4354.00456 3.49886e-18
4355.00446 3.49864e-18
4356.00436 3.55059e-18
4357.00426 4.02756e-18
4358.00416 3.56494e-18
4359.00406 3.83087e-18
4360.00396 3.83063e-18
4361.00386 3.56427e-18
4362.00376 3.27017e-18
4363.00366 3.82991e-18
4364.00356 3.26976e-18
4365.00346 3.55514e-18
4366.00336 3.55492e-18
4367.00326 3.55469e-18
4368.00316 3.55447e-18
4369.00306 3.55424e-18
4370.00296 3.57952e-18
4371.00286 3.55379e-18
4372.00276 3.17688e-18
4373.00266 3.17667e-18
4374.00256 3.17647e-18
4375.00246 3.10796e-18
4376.00236 2.66130e-18
4377.00226 2.74754e-18
4378.00216 2.74737e-18
4379.00206 2.74719e-18
4380.00196 2.74702e-18
4381.00186 2.74684e-18
4382.00176 2.66028e-18
4383.00166 2.74649e-18
4384.00156 2.93719e-18
4385.00146 2.93700e-18
4386.00136 2.94305e-18
4387.00126 2.94286e-18
4388.00116 2.94267e-18
4389.00106 2.94248e-18
4390.00096 2.93606e-18
4391.00086 2.74356e-18
4392.00076 2.74339e-18
4393.00066 2.48088e-18
4394.00056 2.45939e-18
4395.00046 2.22593e-18
4396.00036 2.45907e-18
4397.00026 2.45891e-18
4398.00016 2.48008e-18
4399.00006 2.47992e-18
4399.99996 2.47976e-18
4400.99986 2.22507e-18
4401.99976 2.45097e-18
4402.99966 2.45081e-18
4403.99956 2.45065e-18
4404.99946 2.45049e-18
4405.99936 2.45034e-18
4406.99926 2.33795e-18
4407.99916 2.33780e-18
4408.99906 2.33765e-18
4409.99896 2.17471e-18
4410.99886 2.33734e-18
4411.99876 2.17443e-18
4412.99866 2.17429e-18
4413.99856 2.17338e-18
4414.99846 2.17324e-18
4415.99836 2.17310e-18
4416.99826 2.30172e-18
4417.99816 2.51940e-18
4418.99806 2.72845e-18
4419.99796 2.51907e-18
4420.99786 2.17239e-18
4421.99776 2.12258e-18
4422.99766 1.91855e-18
4423.99756 1.90506e-18
4424.99746 1.91830e-18
4425.99736 2.36566e-18
4426.99726 2.31762e-18
4427.99716 2.31747e-18
4428.99706 2.15256e-18
4429.99696 1.90431e-18
4430.99686 2.15228e-18
4431.99676 2.15214e-18
4432.99666 2.15199e-18
4433.99656 2.36442e-18
4434.99646 2.31641e-18
4435.99636 2.15157e-18
4436.99626 2.31611e-18
4437.99616 2.41557e-18
4438.99606 2.15115e-18
4439.99596 2.63970e-18
4440.99586 2.60393e-18
4441.99576 2.00364e-18
4442.99566 2.20023e-18
4443.99556 2.26013e-18
4444.99546 2.19994e-18
4445.99536 2.25984e-18
4446.99526 2.25969e-18
4447.99516 2.20939e-18
4448.99506 2.20925e-18
4450.00495 2.22929e-18
4451.00486 2.20896e-18
4452.00475 2.25894e-18
4453.00465 2.41664e-18
4454.00455 2.41648e-18
4455.00446 2.47761e-18
4456.00436 2.51215e-18
4457.00425 2.51198e-18
4458.00415 2.51182e-18
4459.00405 2.75336e-18
4460.00396 2.76835e-18
4461.00385 2.76817e-18
4462.00375 2.75660e-18
4463.00365 2.75642e-18
4464.00356 2.61170e-18
4465.00346 2.45247e-18
4466.00335 2.27766e-18
4467.00325 2.43913e-18
4468.00315 2.45198e-18
4469.00306 2.61083e-18
4470.00295 2.61065e-18
4471.00285 2.61048e-18
4472.00275 2.61031e-18
4473.00266 2.43815e-18
4474.00256 2.72582e-18
4475.00245 3.12767e-18
4476.00235 3.12746e-18
4477.00225 3.12725e-18
4478.00216 3.12705e-18
4479.00205 3.45438e-18
4480.00195 3.12663e-18
4481.00185 3.12642e-18
4482.00176 3.12621e-18
4483.00166 3.12432e-18
4484.00155 2.98960e-18
4485.00145 2.98940e-18
4486.00135 3.03530e-18
4487.00126 3.03510e-18
4488.00115 3.12327e-18
4489.00105 3.44491e-18
4490.00095 3.12285e-18
4491.00086 3.44444e-18
4492.00076 3.44421e-18
4493.00065 3.44398e-18
4494.00055 3.74440e-18
4495.00045 3.81841e-18
4496.00036 3.74390e-18
4497.00025 3.74364e-18
4498.00015 3.66194e-18
4499.00005 3.51213e-18
4499.99996 3.30711e-18
4500.99986 3.66120e-18
4501.99975 3.30667e-18
4502.99965 3.90127e-18
4503.99955 3.91566e-18
4504.99946 4.02527e-18
4505.99935 3.88097e-18
4506.99925 3.88071e-18
4507.99915 3.89995e-18
4508.99906 4.02305e-18
4509.99896 4.02391e-18
4510.99885 4.08174e-18
4511.99875 4.41661e-18
4512.99865 4.41631e-18
4513.99856 4.41601e-18
4514.99845 4.41571e-18
4515.99835 4.23198e-18
4516.99825 4.41511e-18
4517.99816 4.45003e-18
4518.99806 4.68830e-18
4519.99795 4.44943e-18
4520.99785 4.44912e-18
4521.99775 4.68734e-18
4522.99766 4.68702e-18
4523.99755 4.70050e-18
4524.99745 5.00052e-18
4525.99735 5.00018e-18
4526.99726 4.87410e-18
4527.99716 4.87376e-18
4528.99705 4.81066e-18
4529.99695 4.81033e-18
4530.99685 4.99847e-18
4531.99676 5.09018e-18
4532.99665 5.08984e-18
4533.99655 5.26465e-18
4534.99645 5.56315e-18
4535.99636 5.72793e-18
4536.99626 5.72754e-18
4537.99615 5.72715e-18
4538.99605 5.56162e-18
4539.99596 5.52880e-18
4540.99586 5.49304e-18
4541.99575 5.30728e-18
4542.99565 5.49228e-18
4543.99555 5.52728e-18
4544.99546 5.52690e-18
4545.99536 5.52652e-18
4546.99525 5.52614e-18
4548.00515 5.52576e-18
4549.00505 5.67908e-18
4550.00495 6.15688e-18
4551.00485 6.32050e-18
4552.00475 6.34625e-18
4553.00465 6.34581e-18
4554.00455 6.34538e-18
4555.00445 6.31875e-18
4556.00435 6.61150e-18
4557.00425 6.68422e-18
4558.00415 6.81541e-18
4559.00405 7.12231e-18
4560.00395 6.95456e-18
4561.00385 6.95408e-18
4562.00375 6.95360e-18
4563.00365 6.95312e-18
4564.00355 7.18357e-18
4565.00345 7.18307e-18
4566.00335 7.15026e-18
4567.00325 7.14977e-18
4568.00315 6.77124e-18
4569.00305 6.77077e-18
4570.00295 6.77030e-18
4571.00285 7.14778e-18
4572.00275 7.14729e-18
4573.00265 7.59849e-18
4574.00255 7.25932e-18
4575.00245 6.78050e-18
4576.00235 6.78002e-18
4577.00225 7.22168e-18
4578.00215 7.22117e-18
4579.00205 7.59532e-18
4580.00195 7.59884e-18
4581.00185 7.74416e-18
4582.00175 7.59778e-18
4583.00165 7.74308e-18
4584.00155 7.74809e-18
4585.00145 7.74200e-18
4586.00135 7.74146e-18
4587.00125 7.74092e-18
4588.00115 7.67182e-18
4589.00105 7.73984e-18
4590.00095 7.85020e-18
4591.00085 7.98355e-18
4592.00075 7.98300e-18
4593.00065 7.98244e-18
4594.00055 7.84801e-18
4595.00045 8.07459e-18
4596.00035 8.12059e-18
4597.00025 8.07346e-18
4598.00015 8.32836e-18
4599.00005 8.32778e-18
4599.99995 8.32720e-18
4600.99985 8.57497e-18
4601.99975 8.63290e-18
4602.99965 8.63229e-18
4603.99955 8.57317e-18
4604.99945 8.57257e-18
4605.99935 8.46629e-18
4606.99925 8.46569e-18
4607.99915 8.55957e-18
4608.99905 8.84769e-18
4609.99895 8.55837e-18
4610.99885 8.46331e-18
4611.99875 8.22384e-18
4612.99865 8.21893e-18
4613.99855 8.21835e-18
4614.99845 8.21777e-18
4615.99835 8.39040e-18
4616.99825 8.38981e-18
4617.99815 8.21604e-18
4618.99805 8.08882e-18
4619.99795 8.08825e-18
4620.99785 8.08768e-18
4621.99775 8.43227e-18
4622.99765 8.53163e-18
4623.99755 8.53983e-18
4624.99745 8.43048e-18
4625.99735 8.53863e-18
4626.99725 8.54537e-18
4627.99715 8.54477e-18
4628.99705 8.55337e-18
4629.99695 8.57424e-18
4630.99685 8.60717e-18
4631.99675 8.90315e-18
4632.99665 8.90252e-18
4633.99655 8.69412e-18
4634.99645 8.54054e-18
4635.99635 7.74953e-18
4636.99625 7.74898e-18
4637.99615 7.92304e-18
4638.99605 8.36981e-18
4639.99595 8.36921e-18
4640.99585 8.36862e-18
4641.99575 8.36803e-18
4642.99565 7.92023e-18
4643.99555 8.36684e-18
4644.99545 8.36625e-18
4645.99535 8.70602e-18
4646.99525 8.85902e-18
4647.99515 8.85839e-18
4648.99505 8.96904e-18
4650.00495 8.96840e-18
4651.00485 8.96776e-18
4652.00475 8.96713e-18
4653.00465 8.97325e-18
4654.00455 8.85462e-18
4655.00445 8.91163e-18
4656.00435 8.98088e-18
4657.00425 8.98024e-18
4658.00415 8.97960e-18
4659.00405 9.13871e-18
4660.00395 9.13806e-18
4661.00385 8.71324e-18
4662.00375 9.13676e-18
4663.00365 9.13610e-18
4664.00355 8.71138e-18
4665.00345 8.68354e-18
4666.00335 8.67112e-18
4667.00325 8.56515e-18
4668.00315 8.20940e-18
4669.00305 8.05639e-18
4670.00295 8.05582e-18
4671.00285 6.82501e-18
4672.00275 6.82453e-18
4673.00265 6.53772e-18
4674.00255 6.53725e-18
4675.00245 6.53678e-18
4676.00235 6.45932e-18
4677.00225 6.34497e-18
4678.00215 6.34452e-18
4679.00205 6.22630e-18
4680.00195 6.34361e-18
4681.00185 6.69320e-18
4682.00175 6.69273e-18
4683.00165 6.74564e-18
4684.00155 6.74515e-18
4685.00145 6.88859e-18
4686.00135 6.34089e-18
4687.00125 6.30767e-18
4688.00115 6.30722e-18
4689.00105 6.30677e-18
4690.00095 6.03953e-18
4691.00085 6.03910e-18
4692.00075 5.54915e-18
4693.00065 5.18304e-18
4694.00055 5.16986e-18
4695.00045 5.16949e-18
4696.00035 4.85052e-18
4697.00025 4.70812e-18
4698.00015 4.55747e-18
4699.00005 4.01191e-18
4699.99995 3.65012e-18
4700.99985 3.64986e-18
4701.99975 3.64029e-18
4702.99965 3.21496e-18
4703.99955 3.19507e-18
4704.99945 3.12749e-18
4705.99935 3.19461e-18
4706.99925 3.19438e-18
4707.99915 3.12681e-18
4708.99905 2.78692e-18
4709.99895 2.78672e-18
4710.99885 2.69956e-18
4711.99875 2.65366e-18
4712.99865 2.69917e-18
4713.99855 2.75718e-18
4714.99845 2.69878e-18
4715.99835 2.69859e-18
4716.99825 2.63728e-18
4717.99815 2.28106e-18
4718.99805 1.78195e-18
4719.99795 1.78182e-18
4720.99785 1.57742e-18
4721.99775 1.64629e-18
4722.99765 1.64617e-18
4723.99755 1.64606e-18
4724.99745 1.64594e-18
4725.99735 1.64582e-18
4726.99725 1.57674e-18
4727.99715 1.64558e-18
4728.99705 1.83738e-18
4729.99695 2.57461e-18
4730.99685 2.57443e-18
4731.99675 2.84133e-18
4732.99665 3.17422e-18
4733.99655 3.27451e-18
4734.99645 3.44760e-18
4735.99635 3.50802e-18
4736.99625 3.64124e-18
4737.99615 3.64097e-18
4738.99605 4.13807e-18
4739.99595 4.13777e-18
4740.99585 4.18984e-18
4741.99575 4.68519e-18
4742.99565 4.68485e-18
4743.99555 4.62908e-18
4744.99545 4.62875e-18
4745.99535 4.55907e-18
4746.99525 4.26666e-18
4748.00515 4.62774e-18
4749.00505 4.86124e-18
4750.00495 4.86089e-18
4751.00485 4.86054e-18
4752.00475 4.55709e-18
4753.00465 4.32732e-18
4754.00455 4.32701e-18
4755.00445 4.34693e-18
4756.00435 4.88189e-18
4757.00425 5.13560e-18
4758.00415 5.18822e-18
4759.00405 5.46568e-18
4760.00395 5.46528e-18
4761.00385 5.18710e-18
4762.00375 5.56275e-18
4763.00365 5.65106e-18
4764.00355 5.65065e-18
4765.00345 5.66037e-18
4766.00335 5.65996e-18
4767.00325 5.67561e-18
4768.00315 5.65914e-18
4769.00305 5.67478e-18
4770.00295 5.93543e-18
4771.00285 5.93500e-18
4772.00275 6.17604e-18
4773.00265 6.61452e-18
4774.00255 6.75004e-18
4775.00245 6.79056e-18
4776.00235 7.12619e-18
4777.00225 7.19672e-18
4778.00215 7.25501e-18
4779.00205 7.25448e-18
4780.00195 7.11011e-18
4781.00185 7.09699e-18
4782.00175 7.09648e-18
4783.00165 7.12259e-18
4784.00155 7.25185e-18
4785.00145 7.69417e-18
4786.00135 7.72941e-18
4787.00125 7.69306e-18
4788.00115 7.69250e-18
4789.00105 7.72773e-18
4790.00095 7.69138e-18
4791.00085 7.69083e-18
4792.00075 7.69027e-18
4793.00065 6.71239e-18
4794.00055 7.21659e-18
4795.00045 6.71142e-18
4796.00035 6.70215e-18
4797.00025 6.62198e-18
4798.00015 6.62150e-18
4799.00005 6.60005e-18
4799.99995 6.59957e-18
4800.99985 6.62006e-18
4801.99975 7.19892e-18
4802.99965 6.81506e-18
4803.99955 6.96949e-18
4804.99945 6.96899e-18
4805.99935 7.19684e-18
4806.99925 7.21361e-18
4807.99915 7.41720e-18
4808.99905 7.21257e-18
4809.99895 6.98012e-18
4810.99885 6.96596e-18
4811.99875 6.81061e-18
4812.99865 6.24223e-18
4813.99855 6.24178e-18
4814.99845 6.22772e-18
4815.99835 5.80203e-18
4816.99825 5.62097e-18
4817.99815 5.57155e-18
4818.99805 5.47787e-18
4819.99795 4.88161e-18
4820.99785 5.50332e-18
4821.99775 4.88091e-18
4822.99765 4.79425e-18
4823.99755 4.48504e-18
4824.99745 4.48471e-18
4825.99735 4.37913e-18
4826.99725 4.43758e-18
4827.99715 4.43725e-18
4828.99705 4.37817e-18
4829.99695 4.43661e-18
4830.99685 5.49934e-18
4831.99675 4.43597e-18
4832.99665 5.12360e-18
4833.99655 5.12323e-18
4834.99645 5.43585e-18
4835.99635 5.50770e-18
4836.99625 5.82862e-18
4837.99615 5.67959e-18
4838.99605 5.67918e-18
4839.99595 5.72925e-18
4840.99585 5.67836e-18
4841.99575 5.67795e-18
4842.99565 5.82609e-18
4843.99555 5.83797e-18
4844.99545 5.83755e-18
4845.99535 6.94767e-18
4846.99525 6.94717e-18
4847.99515 6.94666e-18
4848.99505 7.02900e-18
4850.00495 7.02849e-18
4851.00485 7.02798e-18
4852.00475 7.75942e-18
4853.00465 7.40236e-18
4854.00455 7.02645e-18
4855.00445 7.40129e-18
4856.00435 7.40075e-18
4857.00425 7.40022e-18
4858.00415 7.66485e-18
4859.00405 7.80968e-18
4860.00395 7.66374e-18
4861.00385 7.70719e-18
4862.00375 7.78603e-18
4863.00365 7.82378e-18
4864.00355 8.00331e-18
4865.00345 8.43227e-18
4866.00335 8.57132e-18
4867.00325 8.62866e-18
4868.00315 8.84666e-18
4869.00305 8.62742e-18
4870.00295 8.56885e-18
4871.00285 8.56823e-18
4872.00275 9.16831e-18
4873.00265 9.27811e-18
4874.00255 9.41183e-18
4875.00245 9.41115e-18
4876.00235 9.27736e-18
4877.00225 9.16500e-18
4878.00215 8.83796e-18
4879.00205 8.51944e-18
4880.00195 8.51882e-18
4881.00185 8.51821e-18
4882.00175 8.47081e-18
4883.00165 8.14056e-18
4884.00155 8.11962e-18
4885.00145 8.11903e-18
4886.00135 8.13879e-18
4887.00125 8.46775e-18
4888.00115 8.51390e-18
4889.00105 8.46653e-18
4890.00095 8.41647e-18
4891.00085 8.41586e-18
4892.00075 8.41526e-18
4893.00065 8.42260e-18
4894.00055 8.66112e-18
4895.00045 8.64678e-18
4896.00035 8.42078e-18
4897.00025 8.41222e-18
4898.00015 8.30493e-18
4899.00005 8.30434e-18
4899.99995 8.33955e-18
4900.99985 8.41775e-18
4901.99975 8.79022e-18
4902.99965 9.36014e-18
4903.99955 8.76360e-18
4904.99945 8.33654e-18
4905.99935 8.33594e-18
4906.99925 8.33534e-18
4907.99915 8.33474e-18
4908.99905 7.63047e-18
4909.99895 7.71870e-18
4910.99885 7.71814e-18
4911.99875 7.40712e-18
4912.99865 7.40659e-18
4913.99855 7.29635e-18
4914.99845 7.21985e-18
4915.99835 6.92528e-18
4916.99825 5.91141e-18
4917.99815 5.91098e-18
4918.99805 5.80836e-18
4919.99795 5.80794e-18
4920.99785 5.77974e-18
4921.99775 5.77933e-18
4922.99765 5.80669e-18
4923.99755 5.90843e-18
4924.99745 5.90801e-18
4925.99735 6.80025e-18
4926.99725 6.95830e-18
4927.99715 7.30622e-18
4928.99705 7.30570e-18
4929.99695 7.30517e-18
4930.99685 7.67952e-18
4931.99675 6.95581e-18
4932.99665 6.84087e-18
4933.99655 6.95481e-18
4934.99645 6.95431e-18
4935.99635 6.95381e-18
4936.99625 7.08873e-18
4937.99615 7.08822e-18
4938.99605 6.83792e-18
4939.99595 7.08720e-18
4940.99585 8.15050e-18
4941.99575 8.21781e-18
4942.99565 8.70237e-18
4943.99555 8.70174e-18
4944.99545 8.87756e-18
4945.99535 8.87692e-18
4946.99525 8.87629e-18
4948.00515 8.87565e-18
4949.00505 8.87502e-18
4950.00495 8.87213e-18
4951.00485 8.87149e-18
4952.00475 9.56237e-18
4953.00465 9.66732e-18
4954.00455 1.03276e-17
4955.00445 1.03269e-17
4956.00435 1.04581e-17
4957.00425 1.03254e-17
4958.00415 1.03247e-17
4959.00405 1.05290e-17
4960.00395 1.07900e-17
4961.00385 1.10380e-17
4962.00375 1.10372e-17
4963.00365 1.08273e-17
4964.00355 1.08265e-17
4965.00345 1.08258e-17
4966.00335 1.10341e-17
4967.00325 1.12879e-17
4968.00315 1.16427e-17
4969.00305 1.16419e-17
4970.00295 1.16958e-17
4971.00285 1.16402e-17
4972.00275 1.12839e-17
4973.00265 1.16386e-17
4974.00255 1.19540e-17
4975.00245 1.23317e-17
4976.00235 1.23340e-17
4977.00225 1.23331e-17
4978.00215 1.24319e-17
4979.00205 1.24355e-17
4980.00195 1.24347e-17
4981.00185 1.24338e-17
4982.00175 1.24329e-17
4983.00165 1.24320e-17
4984.00155 1.24311e-17
4985.00145 1.29232e-17
4986.00135 1.29223e-17
4987.00125 1.27705e-17
4988.00115 1.27696e-17
4989.00105 1.27387e-17
4990.00095 1.26362e-17
4991.00085 1.27669e-17
4992.00075 1.32418e-17
4993.00065 1.27651e-17
4994.00055 1.32399e-17
4995.00045 1.33772e-17
4996.00035 1.37089e-17
4997.00025 1.37079e-17
4998.00015 1.37504e-17
4999.00005 1.38097e-17
4999.99995 1.38088e-17
5000.99985 1.37475e-17
5001.99975 1.37465e-17
5002.99965 1.37021e-17
5003.99955 1.35211e-17
5004.99945 1.35201e-17
5005.99935 1.32985e-17
5006.99925 1.30438e-17
5007.99915 1.29581e-17
5008.99905 1.27335e-17
5009.99895 1.27326e-17
5010.99885 1.27347e-17
5011.99875 1.27338e-17
5012.99865 1.25307e-17
5013.99855 1.21907e-17
5014.99845 1.15628e-17
5015.99835 1.15620e-17
5016.99825 1.21143e-17
5017.99815 1.19121e-17
5018.99805 1.19112e-17
5019.99795 1.19104e-17
5020.99785 1.13765e-17
5021.99775 1.13757e-17
5022.99765 1.21014e-17
5023.99755 1.21006e-17
5024.99745 1.21074e-17
5025.99735 1.20989e-17
5026.99725 1.23650e-17
5027.99715 1.19037e-17
5028.99705 1.18165e-17
5029.99695 1.20955e-17
5030.99685 1.25016e-17
5031.99675 1.20938e-17
5032.99665 1.21241e-17
5033.99655 1.18672e-17
5034.99645 1.18116e-17
5035.99635 1.18107e-17
5036.99625 1.21207e-17
5037.99615 1.21199e-17
5038.99605 1.23511e-17
5039.99595 1.24937e-17
5040.99585 1.23494e-17
5041.99575 1.25482e-17
5042.99565 1.25473e-17
5043.99555 1.27028e-17
5044.99545 1.25456e-17
5045.99535 1.25447e-17
5046.99525 1.21370e-17
5047.99515 1.19102e-17
5048.99505 1.19388e-17
5050.00495 1.19379e-17
5051.00485 1.19371e-17
5052.00475 1.19363e-17
5053.00465 1.19354e-17
5054.00455 1.19052e-17
5055.00445 1.19338e-17
5056.00435 1.27293e-17
5057.00425 1.28203e-17
5058.00415 1.28194e-17
5059.00405 1.29262e-17
5060.00395 1.28176e-17
5061.00385 1.27392e-17
5062.00375 1.27240e-17
5063.00365 1.27231e-17
5064.00355 1.19133e-17
5065.00345 1.11459e-17
5066.00335 1.02065e-17
5067.00325 1.00338e-17
5068.00315 9.79979e-18
5069.00305 9.52297e-18
5070.00295 9.23790e-18
5071.00285 8.30194e-18
5072.00275 8.09915e-18
5073.00265 8.30078e-18
5074.00255 8.30021e-18
5075.00245 8.29963e-18
5076.00235 8.29906e-18
5077.00225 8.29848e-18
5078.00215 8.09578e-18
5079.00205 8.81658e-18
5080.00195 9.26288e-18
5081.00185 9.26224e-18
5082.00175 9.63364e-18
5083.00165 9.86347e-18
5084.00155 9.86279e-18
5085.00145 1.05020e-17
5086.00135 1.05012e-17
5087.00125 1.09272e-17
5088.00115 1.14190e-17
5089.00105 1.15291e-17
5090.00095 1.14175e-17
5091.00085 1.14167e-17
5092.00075 1.15267e-17
5093.00065 1.14460e-17
5094.00055 1.14452e-17
5095.00045 1.14444e-17
5096.00035 1.14437e-17
5097.00025 1.11488e-17
5098.00015 1.11428e-17
5099.00005 1.11472e-17
5099.99995 1.11465e-17
5100.99985 1.11457e-17
5101.99975 1.14389e-17
5102.99965 1.11442e-17
5103.99955 1.10438e-17
5104.99945 1.10431e-17
5105.99935 9.53813e-18
5106.99925 9.53747e-18
5107.99915 9.14862e-18
5108.99905 8.53427e-18
5109.99895 9.14737e-18
5110.99885 9.14674e-18
5111.99875 9.14612e-18
5112.99865 9.31455e-18
5113.99855 8.99737e-18
5114.99845 8.99675e-18
5115.99835 9.31264e-18
5116.99825 9.43609e-18
5117.99815 1.03429e-17
5118.99805 1.03720e-17
5119.99795 1.03415e-17
5120.99785 1.03408e-17
5121.99775 1.00700e-17
5122.99765 1.00693e-17
5123.99755 1.01930e-17
5124.99745 1.03677e-17
5125.99735 1.01916e-17
5126.99725 1.01574e-17
5127.99715 9.84969e-18
5128.99705 9.46678e-18
5129.99695 9.83260e-18
5130.99685 9.83193e-18
5131.99675 9.46485e-18
5132.99665 9.77621e-18
5133.99655 9.35176e-18
5134.99645 9.35004e-18
5135.99635 9.15426e-18
5136.99625 9.12075e-18
5137.99615 9.12014e-18
5138.99605 9.69866e-18
5139.99595 9.69800e-18
5140.99585 9.77092e-18
5141.99575 9.77026e-18
5142.99565 9.80086e-18
5143.99555 9.80020e-18
5144.99545 1.04961e-17
5145.99535 1.04954e-17
5146.99525 1.04947e-17
5148.00515 1.04939e-17
5149.00505 1.04932e-17
5150.00495 1.05750e-17
5151.00485 1.04918e-17
5152.00475 1.02419e-17
5153.00465 1.02322e-17
5154.00455 1.02315e-17
5155.00445 1.02207e-17
5156.00435 1.02200e-17
5157.00425 1.02295e-17
5158.00415 1.02288e-17
5159.00405 1.02179e-17
5160.00395 1.02173e-17
5161.00385 1.02166e-17
5162.00375 1.01507e-17
5163.00365 1.03566e-17
5164.00355 1.03559e-17
5165.00345 9.83494e-18
5166.00335 9.65342e-18
5167.00325 9.74632e-18
5168.00315 9.74567e-18
5169.00305 9.65148e-18
5170.00295 9.65084e-18
5171.00285 9.64211e-18
5172.00275 9.64146e-18
5173.00265 9.64082e-18
5174.00255 9.74177e-18
5175.00245 9.74112e-18
5176.00235 9.82185e-18
5177.00225 9.95366e-18
5178.00215 1.00935e-17
5179.00205 1.02126e-17
5180.00195 1.02120e-17
5181.00185 1.02113e-17
5182.00175 1.00908e-17
5183.00165 1.00902e-17
5184.00155 1.01900e-17
5185.00145 1.01893e-17
5186.00135 1.01886e-17
5187.00125 1.01879e-17
5188.00115 1.01873e-17
5189.00105 9.82477e-18
5190.00095 1.01859e-17
5191.00085 1.01852e-17
5192.00075 1.01846e-17
5193.00065 1.04285e-17
5194.00055 1.04278e-17
5195.00045 1.04271e-17
5196.00035 1.04264e-17
5197.00025 1.04257e-17
5198.00015 1.04064e-17
5199.00005 1.04244e-17
5199.99995 1.04237e-17
5200.99985 1.04230e-17
5201.99975 1.04223e-17
5202.99965 1.04216e-17
5203.99955 1.04023e-17
5204.99945 1.04016e-17
5205.99935 1.04009e-17
5206.99925 1.04002e-17
5207.99915 1.03996e-17
5208.99905 1.03009e-17
5209.99895 1.07149e-17
5210.99885 1.07142e-17
5211.99875 1.07135e-17
5212.99865 1.07128e-17
5213.99855 1.07121e-17
5214.99845 1.02969e-17
5215.99835 1.07107e-17
5216.99825 1.07100e-17
5217.99815 1.07093e-17
5218.99805 1.07086e-17
5219.99795 1.07079e-17
5220.99785 1.08748e-17
5221.99775 1.08741e-17
5222.99765 1.05414e-17
5223.99755 1.04731e-17
5224.99745 1.04102e-17
5225.99735 1.04095e-17
5226.99725 1.04088e-17
5227.99715 1.00506e-17
5228.99705 1.00500e-17
5229.99695 1.04690e-17
5230.99685 1.04683e-17
5231.99675 1.05650e-17
5232.99665 1.06231e-17
5233.99655 1.06224e-17
5234.99645 1.08107e-17
5235.99635 1.10042e-17
5236.99625 1.12291e-17
5237.99615 1.12501e-17
5238.99605 1.14991e-17
5239.99595 1.17416e-17
5240.99585 1.17409e-17
5241.99575 1.16021e-17
5242.99565 1.16014e-17
5243.99555 1.16006e-17
5244.99545 1.15999e-17
5245.99535 1.17371e-17
5246.99525 1.17363e-17
5247.99515 1.15861e-17
5248.99505 1.14809e-17
5249.99495 1.13112e-17
5251.00485 1.09918e-17
5252.00475 1.09911e-17
5253.00465 1.12363e-17
5254.00455 1.09897e-17
5255.00445 1.09890e-17
5256.00435 1.09882e-17
5257.00425 1.09741e-17
5258.00415 1.09868e-17
5259.00405 1.12320e-17
5260.00395 1.12313e-17
5261.00385 1.12383e-17
5262.00375 1.12376e-17
5263.00365 1.12368e-17
5264.00355 1.12361e-17
5265.00345 1.14884e-17
5266.00335 1.14877e-17
5267.00325 1.14869e-17
5268.00315 1.12333e-17
5269.00305 1.12116e-17
5270.00295 1.07602e-17
5271.00285 1.07595e-17
5272.00275 1.07588e-17
5273.00265 1.15980e-17
5274.00255 1.17192e-17
5275.00245 1.23514e-17
5276.00235 1.23506e-17
5277.00225 1.25161e-17
5278.00215 1.26312e-17
5279.00205 1.26665e-17
5280.00195 1.29315e-17
5281.00185 1.31243e-17
5282.00175 1.29299e-17
5283.00165 1.33078e-17
5284.00155 1.38005e-17
5285.00145 1.38668e-17
5286.00135 1.38659e-17
5287.00125 1.38650e-17
5288.00115 1.38642e-17
5289.00105 1.42109e-17
5290.00095 1.42100e-17
5291.00085 1.43271e-17
5292.00075 1.43262e-17
5293.00065 1.42547e-17
5294.00055 1.42538e-17
5295.00045 1.43235e-17
5296.00035 1.48558e-17
5297.00025 1.50167e-17
5298.00015 1.50158e-17
5299.00005 1.48240e-17
5299.99995 1.47529e-17
5300.99985 1.47519e-17
5301.99975 1.48212e-17
5302.99965 1.50111e-17
5303.99955 1.50102e-17
5304.99945 1.49444e-17
5305.99935 1.47473e-17
5306.99925 1.47464e-17
5307.99915 1.47455e-17
5308.99905 1.49407e-17
5309.99895 1.52353e-17
5310.99885 1.53162e-17
5311.99875 1.54114e-17
5312.99865 1.53143e-17
5313.99855 1.50748e-17
5314.99845 1.50739e-17
5315.99835 1.50729e-17
5316.99825 1.52187e-17
5317.99815 1.52177e-17
5318.99805 1.50701e-17
5319.99795 1.47225e-17
5320.99785 1.44359e-17
5321.99775 1.43611e-17
5322.99765 1.43602e-17
5323.99755 1.44332e-17
5324.99745 1.46130e-17
5325.99735 1.46121e-17
5326.99725 1.45038e-17
5327.99715 1.43558e-17
5328.99705 1.43549e-17
5329.99695 1.44423e-17
5330.99685 1.46427e-17
5331.99675 1.47895e-17
5332.99665 1.47886e-17
5333.99655 1.54771e-17
5334.99645 1.54762e-17
5335.99635 1.55928e-17
5336.99625 1.55918e-17
5337.99615 1.55909e-17
5338.99605 1.48136e-17
5339.99595 1.51975e-17
5340.99585 1.55256e-17
5341.99575 1.56496e-17
5342.99565 1.57653e-17
5343.99555 1.55227e-17
5344.99545 1.55218e-17
5345.99535 1.53831e-17
5346.99525 1.53159e-17
5348.00515 1.51901e-17
5349.00505 1.51892e-17
5350.00495 1.51883e-17
5351.00485 1.47843e-17
5352.00475 1.45802e-17
5353.00465 1.46273e-17
5354.00455 1.45784e-17
5355.00445 1.44796e-17
5356.00435 1.44788e-17
5357.00425 1.42704e-17
5358.00415 1.42416e-17
5359.00405 1.40555e-17
5360.00395 1.40547e-17
5361.00385 1.39150e-17
5362.00375 1.41637e-17
5363.00365 1.42652e-17
5364.00355 1.42643e-17
5365.00345 1.44276e-17
5366.00335 1.45468e-17
5367.00325 1.44259e-17
5368.00315 1.45451e-17
5369.00305 1.47587e-17
5370.00295 1.49079e-17
5371.00285 1.52826e-17
5372.00275 1.54797e-17
5373.00265 1.54788e-17
5374.00255 1.56838e-17
5375.00245 1.56828e-17
5376.00235 1.56364e-17
5377.00225 1.56355e-17
5378.00215 1.57335e-17
5379.00205 1.57780e-17
5380.00195 1.57771e-17
5381.00185 1.56317e-17
5382.00175 1.55125e-17
5383.00165 1.53659e-17
5384.00155 1.55107e-17
5385.00145 1.57235e-17
5386.00135 1.57226e-17
5387.00125 1.57216e-17
5388.00115 1.57207e-17
5389.00105 1.55060e-17
5390.00095 1.55051e-17
5391.00085 1.57179e-17
5392.00075 1.57169e-17
5393.00065 1.59346e-17
5394.00055 1.61040e-17
5395.00045 1.66006e-17
5396.00035 1.66955e-17
5397.00025 1.66946e-17
5398.00015 1.65361e-17
5399.00005 1.60993e-17
5399.99995 1.59280e-17
5400.99985 1.55253e-17
5401.99975 1.57192e-17
5402.99965 1.59279e-17
5403.99955 1.59269e-17
5404.99945 1.57164e-17
5405.99935 1.56932e-17
5406.99925 1.48993e-17
5407.99915 1.48984e-17
5408.99905 1.48975e-17
5409.99895 1.53505e-17
5410.99885 1.53554e-17
5411.99875 1.53545e-17
5412.99865 1.48940e-17
5413.99855 1.48931e-17
5414.99845 1.48923e-17
5415.99835 1.53041e-17
5416.99825 1.53442e-17
5417.99815 1.53491e-17
5418.99805 1.53482e-17
5419.99795 1.53520e-17
5420.99785 1.53511e-17
5421.99775 1.56172e-17
5422.99765 1.56163e-17
5423.99755 1.56171e-17
5424.99745 1.53475e-17
5425.99735 1.53466e-17
5426.99725 1.45450e-17
5427.99715 1.44503e-17
5428.99705 1.44495e-17
5429.99695 1.43155e-17
5430.99685 1.43147e-17
5431.99675 1.41505e-17
5432.99665 1.36878e-17
5433.99655 1.33858e-17
5434.99645 1.32573e-17
5435.99635 1.33296e-17
5436.99625 1.36629e-17
5437.99615 1.36621e-17
5438.99605 1.33736e-17
5439.99595 1.33265e-17
5440.99585 1.31163e-17
5441.99575 1.26394e-17
5442.99565 1.24721e-17
5443.99555 1.24714e-17
5444.99545 1.26214e-17
5445.99535 1.26207e-17
5446.99525 1.25946e-17
5447.99515 1.25938e-17
5448.99505 1.25931e-17
5449.99495 1.25798e-17
5451.00485 1.25791e-17
5452.00475 1.26110e-17
5453.00464 1.26103e-17
5454.00455 1.26149e-17
5455.00445 1.28950e-17
5456.00435 1.64063e-17
5457.00425 1.64054e-17
5458.00414 1.65802e-17
5459.00405 1.65793e-17
5460.00395 1.65784e-17
5461.00385 1.65774e-17
5462.00374 1.65765e-17
5463.00365 1.53154e-17
5464.00355 1.46554e-17
5465.00345 1.49458e-17
5466.00335 1.48868e-17
5467.00324 1.45046e-17
5468.00315 1.42661e-17
5469.00305 1.43125e-17
5470.00295 1.42533e-17
5471.00284 1.42021e-17
5472.00275 1.42013e-17
5473.00265 1.42620e-17
5474.00255 1.41997e-17
5475.00245 1.43077e-17
5476.00234 1.43069e-17
5477.00225 1.43061e-17
5478.00215 1.43053e-17
5479.00205 1.56855e-17
5480.00194 1.56846e-17
5481.00185 1.56837e-17
5482.00175 1.56828e-17
5483.00165 1.56820e-17
5484.00155 1.50110e-17
5485.00144 1.57397e-17
5486.00135 1.57389e-17
5487.00125 1.53732e-17
5488.00115 1.53723e-17
5489.00104 1.53715e-17
5490.00095 1.50059e-17
5491.00085 1.50590e-17
5492.00075 1.53503e-17
5493.00065 1.53680e-17
5494.00054 1.56886e-17
5495.00045 1.57310e-17
5496.00035 1.59661e-17
5497.00025 1.56860e-17
5498.00014 1.59643e-17
5499.00005 1.61638e-17
5499.99995 1.61629e-17
5500.99985 1.63146e-17
5501.99975 1.63350e-17
5502.99964 1.63341e-17
5503.99955 1.63332e-17
5504.99945 1.64018e-17
5505.99935 1.65160e-17
5506.99924 1.66699e-17
5507.99915 1.65142e-17
5508.99905 1.65133e-17
5509.99895 1.65123e-17
5510.99885 1.65114e-17
5511.99874 1.65105e-17
5512.99865 1.67905e-17
5513.99855 1.66635e-17
5514.99845 1.67887e-17
5515.99834 1.70275e-17
5516.99825 1.73038e-17
5517.99815 1.73029e-17
5518.99805 1.76813e-17
5519.99795 1.76803e-17
5520.99784 1.76794e-17
5521.99775 1.76784e-17
5522.99765 1.79904e-17
5523.99755 1.76765e-17
5524.99744 1.76755e-17
5525.99735 1.76724e-17
5526.99725 1.72637e-17
5527.99715 1.72628e-17
5528.99705 1.72618e-17
5529.99694 1.75157e-17
5530.99685 1.75148e-17
5531.99675 1.75138e-17
5532.99665 1.73639e-17
5533.99654 1.72572e-17
5534.99645 1.71818e-17
5535.99635 1.68306e-17
5536.99625 1.68297e-17
5537.99615 1.67959e-17
5538.99604 1.67950e-17
5539.99595 1.68270e-17
5540.99585 1.68261e-17
5541.99575 1.67923e-17
5542.99564 1.68242e-17
5543.99555 1.62901e-17
5544.99545 1.62891e-17
5545.99535 1.62882e-17
5546.99525 1.62875e-17
5548.00514 1.62864e-17
5549.00504 1.53143e-17
5550.00494 1.43896e-17
5551.00484 1.43376e-17
5552.00474 1.43880e-17
5553.00464 1.43873e-17
5554.00454 1.43865e-17
5555.00444 1.43857e-17
5556.00434 1.43850e-17
5557.00424 1.43330e-17
5558.00414 1.51311e-17
5559.00404 1.51303e-17
5560.00394 1.64058e-17
5561.00384 1.65273e-17
5562.00374 1.65264e-17
5563.00364 1.65256e-17
5564.00354 1.69219e-17
5565.00344 1.65238e-17
5566.00334 1.65229e-17
5567.00324 1.65588e-17
5568.00314 1.65580e-17
5569.00304 1.65571e-17
5570.00294 1.70140e-17
5571.00284 1.70131e-17
5572.00274 1.65545e-17
5573.00264 1.65536e-17
5574.00254 1.65527e-17
5575.00244 1.68589e-17
5576.00234 1.68580e-17
5577.00224 1.68571e-17
5578.00214 1.68562e-17
5579.00204 1.61104e-17
5580.00194 1.59449e-17
5581.00184 1.51539e-17
5582.00174 1.44864e-17
5583.00164 1.44857e-17
5584.00154 1.42250e-17
5585.00144 1.38942e-17
5586.00134 1.34342e-17
5587.00124 1.34570e-17
5588.00114 1.34563e-17
5589.00104 1.32241e-17
5590.00094 1.32234e-17
5591.00084 1.29565e-17
5592.00074 1.24683e-17
5593.00064 1.27544e-17
5594.00054 1.27538e-17
5595.00044 1.27815e-17
5596.00034 1.29532e-17
5597.00024 1.34500e-17
5598.00014 1.34671e-17
5599.00004 1.29511e-17
5599.99994 1.34657e-17
5600.99984 1.34650e-17
5601.99974 1.34643e-17
5602.99964 1.36042e-17
5603.99954 1.34629e-17
5604.99944 1.26351e-17
5605.99934 1.26444e-17
5606.99924 1.26437e-17
5607.99914 1.26431e-17
5608.99904 1.26424e-17
5609.99894 1.26319e-17
5610.99884 1.26411e-17
5611.99874 1.26306e-17
5612.99864 1.26398e-17
5613.99854 1.29477e-17
5614.99844 1.33388e-17
5615.99834 1.34268e-17
5616.99824 1.35467e-17
5617.99814 1.35460e-17
5618.99804 1.38872e-17
5619.99794 1.38865e-17
5620.99784 1.38858e-17
5621.99774 1.38851e-17
5622.99764 1.38844e-17
5623.99754 1.40315e-17
5624.99744 1.39226e-17
5625.99734 1.38823e-17
5626.99724 1.38816e-17
5627.99714 1.37854e-17
5628.99704 1.36204e-17
5629.99694 1.36197e-17
5630.99684 1.35115e-17
5631.99674 1.34473e-17
5632.99664 1.35101e-17
5633.99654 1.30904e-17
5634.99644 1.26952e-17
5635.99634 1.26931e-17
5636.99624 1.25011e-17
5637.99614 1.25005e-17
5638.99604 1.22670e-17
5639.99594 1.20389e-17
5640.99584 1.18679e-17
5641.99574 1.20377e-17
5642.99564 1.20371e-17
5643.99554 1.20365e-17
5644.99544 1.18655e-17
5645.99534 1.18649e-17
5646.99524 1.16746e-17
5647.99514 1.18638e-17
5648.99504 1.18632e-17
5649.99494 1.21400e-17
5651.00484 1.21394e-17
5652.00474 1.21388e-17
5653.00464 1.19974e-17
5654.00454 1.19968e-17
5655.00444 1.17193e-17
5656.00434 1.17187e-17
5657.00424 1.17181e-17
5658.00414 1.16658e-17
5659.00404 1.16652e-17
5660.00394 1.16646e-17
5661.00384 1.15339e-17
5662.00374 1.15252e-17
5663.00364 1.15246e-17
5664.00354 1.15322e-17
5665.00344 1.16617e-17
5666.00334 1.17512e-17
5667.00324 1.17507e-17
5668.00314 1.16600e-17
5669.00304 1.17495e-17
5670.00294 1.19062e-17
5671.00284 1.19056e-17
5672.00274 1.19728e-17
5673.00264 1.19722e-17
5674.00254 1.19716e-17
5675.00244 1.21260e-17
5676.00234 1.21374e-17
5677.00224 1.21248e-17
5678.00214 1.21242e-17
5679.00204 1.20636e-17
5680.00194 1.20631e-17
5681.00184 1.20625e-17
5682.00174 1.21218e-17
5683.00164 1.20613e-17
5684.00154 1.20214e-17
5685.00144 1.16088e-17
5686.00134 1.15456e-17
5687.00124 1.04745e-17
5688.00114 1.00680e-17
5689.00104 9.65209e-18
5690.00094 9.65162e-18
5691.00084 9.28152e-18
5692.00074 8.90871e-18
5693.00064 8.90828e-18
5694.00054 8.63100e-18
5695.00044 8.37056e-18
5696.00034 8.01877e-18
5697.00024 7.89779e-18
5698.00014 7.81784e-18
5699.00004 7.70425e-18
5699.99994 7.64566e-18
5700.99984 7.64529e-18
5701.99974 6.96606e-18
5702.99964 6.80962e-18
5703.99954 6.96539e-18
5704.99944 6.80897e-18
5705.99934 6.26544e-18
5706.99924 6.17763e-18
5707.99914 6.15024e-18
5708.99904 6.08653e-18
5709.99894 5.95492e-18
5710.99884 5.95464e-18
5711.99874 5.95435e-18
5712.99864 5.78282e-18
5713.99854 5.45861e-18
5714.99844 5.45835e-18
5715.99834 5.22347e-18
5716.99824 4.89639e-18
5717.99814 4.85182e-18
5718.99804 4.79928e-18
5719.99794 4.55633e-18
5720.99784 4.47607e-18
5721.99774 4.39345e-18
5722.99764 4.47565e-18
5723.99754 4.39303e-18
5724.99744 4.08017e-18
5725.99734 4.05430e-18
5726.99724 3.91837e-18
5727.99714 3.91818e-18
5728.99704 4.05373e-18
5729.99694 4.05439e-18
5730.99684 4.07901e-18
5731.99674 4.14047e-18
5732.99664 4.28923e-18
5733.99654 4.14008e-18
5734.99644 4.13988e-18
5735.99634 4.13969e-18
5736.99624 4.13949e-18
5737.99614 4.13930e-18
5738.99604 3.91430e-18
5739.99594 4.00519e-18
5740.99584 4.00501e-18
5741.99574 4.00482e-18
5742.99564 4.00463e-18
5743.99554 4.00444e-18
5744.99544 3.91320e-18
5745.99534 4.00407e-18
5746.99524 4.22126e-18
5748.00514 4.66923e-18
5749.00504 4.75781e-18
5750.00494 4.79630e-18
5751.00484 4.88922e-18
5752.00474 4.88900e-18
5753.00464 4.88877e-18
5754.00454 4.91357e-18
5755.00444 4.99320e-18
5756.00434 5.27274e-18
5757.00424 5.43693e-18
5758.00414 5.43668e-18
5759.00404 5.50074e-18
5760.00394 5.83150e-18
5761.00384 5.90204e-18
5762.00374 5.90176e-18
5763.00364 6.23323e-18
5764.00354 6.28196e-18
5765.00344 6.58613e-18
5766.00334 6.58583e-18
5767.00324 6.58742e-18
5768.00314 6.68832e-18
5769.00304 6.80962e-18
5770.00294 6.80931e-18
5771.00284 7.28596e-18
5772.00274 7.31435e-18
5773.00264 7.67241e-18
5774.00254 7.69890e-18
5775.00244 7.79077e-18
5776.00234 7.79042e-18
5777.00224 7.69784e-18
5778.00214 7.78970e-18
5779.00204 7.78935e-18
5780.00194 8.07660e-18
5781.00184 8.69465e-18
5782.00174 9.25664e-18
5783.00164 9.56044e-18
5784.00154 1.00511e-17
5785.00144 1.01250e-17
5786.00134 1.04759e-17
5787.00124 1.06767e-17
5788.00114 1.06762e-17
5789.00104 1.12843e-17
5790.00094 1.23539e-17
5791.00084 1.23533e-17
5792.00074 1.23891e-17
5793.00064 1.23886e-17
5794.00054 1.25527e-17
5795.00044 1.26892e-17
5796.00034 1.26887e-17
5797.00024 1.27904e-17
5798.00014 1.27898e-17
5799.00004 1.38273e-17
5799.99994 1.40953e-17
5800.99984 1.41744e-17
5801.99974 1.42978e-17
5802.99964 1.41731e-17
5803.99954 1.41725e-17
5804.99944 1.40921e-17
5805.99934 1.40915e-17
5806.99924 1.41706e-17
5807.99914 1.44751e-17
5808.99904 1.44745e-17
5809.99894 1.41687e-17
5810.99884 1.40548e-17
5811.99874 1.40542e-17
5812.99864 1.40535e-17
5813.99854 1.42096e-17
5814.99844 1.44450e-17
5815.99834 1.48269e-17
5816.99824 1.48263e-17
5817.99814 1.48256e-17
5818.99804 1.48250e-17
5819.99794 1.44418e-17
5820.99784 1.53034e-17
5821.99774 1.55112e-17
5822.99764 1.57056e-17
5823.99754 1.57500e-17
5824.99744 1.58483e-17
5825.99734 1.59847e-17
5826.99724 1.59878e-17
5827.99714 1.59870e-17
5828.99704 1.62887e-17
5829.99694 1.65484e-17
5830.99684 1.68327e-17
5831.99674 1.68319e-17
5832.99664 1.68391e-17
5833.99654 1.68762e-17
5834.99644 1.68377e-17
5835.99634 1.80952e-17
5836.99624 1.84697e-17
5837.99614 1.85434e-17
5838.99604 1.85520e-17
5839.99594 1.85417e-17
5840.99584 1.85568e-17
5841.99574 1.85496e-17
5842.99564 1.85552e-17
5843.99554 1.88878e-17
5844.99544 1.91519e-17
5845.99534 1.93739e-17
5846.99524 1.95294e-17
5847.99514 1.98182e-17
5848.99504 1.98173e-17
5849.99494 2.07553e-17
5851.00484 2.08022e-17
5852.00474 2.09522e-17
5853.00464 2.10698e-17
5854.00454 2.11643e-17
5855.00444 2.15130e-17
5856.00434 2.23383e-17
5857.00424 2.23374e-17
5858.00414 2.19723e-17
5859.00404 2.19714e-17
5860.00394 2.15084e-17
5861.00384 2.14936e-17
5862.00374 2.11840e-17
5863.00364 2.14918e-17
5864.00354 2.14909e-17
5865.00344 2.12487e-17
5866.00334 2.12478e-17
5867.00324 2.12469e-17
5868.00314 2.11785e-17
5869.00304 2.12451e-17
5870.00294 2.17032e-17
5871.00284 2.12432e-17
5872.00274 2.12423e-17
5873.00264 2.12414e-17
5874.00254 2.10391e-17
5875.00244 2.06712e-17
5876.00234 1.88744e-17
5877.00224 1.87599e-17
5878.00214 1.85564e-17
5879.00204 1.84244e-17
5880.00194 1.85548e-17
5881.00184 1.85541e-17
5882.00174 1.85533e-17
5883.00164 1.85525e-17
5884.00154 1.85517e-17
5885.00144 1.84197e-17
5886.00134 1.84911e-17
5887.00124 1.84903e-17
5888.00114 1.84895e-17
5889.00104 1.84887e-17
5890.00094 1.87278e-17
5891.00084 1.93813e-17
5892.00074 1.95362e-17
5893.00064 1.95354e-17
5894.00054 1.95346e-17
5895.00044 1.95337e-17
5896.00034 1.88658e-17
5897.00024 1.95321e-17
5898.00014 1.98375e-17
5899.00004 2.01435e-17
5899.99994 2.01782e-17
5900.99984 2.02235e-17
5901.99974 2.02227e-17
5902.99964 2.02218e-17
5903.99954 2.02652e-17
5904.99944 2.01384e-17
5905.99934 1.82309e-17
5906.99924 1.80962e-17
5907.99914 1.79993e-17
5908.99904 1.80947e-17
5909.99894 1.80940e-17
5910.99884 1.80932e-17
5911.99874 1.80924e-17
5912.99864 1.80917e-17
5913.99854 1.79948e-17
5914.99844 1.95754e-17
5915.99834 1.95746e-17
5916.99824 1.95738e-17
5917.99814 1.98144e-17
5918.99804 2.01089e-17
5919.99794 2.01307e-17
5920.99784 2.01299e-17
5921.99774 1.98111e-17
5922.99764 1.93160e-17
5923.99754 1.93152e-17
5924.99744 1.95196e-17
5925.99734 1.95188e-17
5926.99724 1.98990e-17
5927.99714 2.01240e-17
5928.99704 1.98974e-17
5929.99694 1.98965e-17
5930.99684 2.02736e-17
5931.99674 1.98949e-17
5932.99664 2.01105e-17
5933.99654 2.01231e-17
5934.99644 2.01223e-17
5935.99634 2.01970e-17
5936.99624 2.02686e-17
5937.99614 2.02678e-17
5938.99604 2.02670e-17
5939.99594 2.01937e-17
5940.99584 2.01173e-17
5941.99574 2.01841e-17
5942.99564 2.01913e-17
5943.99554 2.06850e-17
5944.99544 2.06966e-17
5945.99534 2.06957e-17
5946.99524 2.05545e-17
5947.99514 2.01791e-17
5949.00504 2.01783e-17
5950.00494 2.01775e-17
5951.00484 2.06791e-17
5952.00474 2.06907e-17
5953.00464 2.06898e-17
5954.00454 2.02465e-17
5955.00444 2.01720e-17
5956.00434 2.01030e-17
5957.00424 1.95789e-17
5958.00414 1.88453e-17
5959.00404 1.87664e-17
5960.00394 1.87407e-17
5961.00384 1.87649e-17
5962.00374 1.87642e-17
5963.00364 1.87634e-17
5964.00354 1.87627e-17
5965.00344 1.87619e-17
5966.00334 1.85794e-17
5967.00324 1.84414e-17
5968.00314 1.84407e-17
5969.00304 1.84400e-17
5970.00294 1.87331e-17
5971.00284 1.90686e-17
5972.00274 1.85863e-17
5973.00264 1.76834e-17
5974.00254 1.76827e-17
5975.00244 1.74287e-17
5976.00234 1.74280e-17
5977.00224 1.80077e-17
5978.00214 1.80070e-17
5979.00204 1.74284e-17
5980.00194 1.74278e-17
5981.00184 1.74246e-17
5982.00174 1.72216e-17
5983.00164 1.74257e-17
5984.00154 1.78878e-17
5985.00144 1.74243e-17
5986.00134 1.72188e-17
5987.00124 1.69806e-17
5988.00114 1.67126e-17
5989.00104 1.59357e-17
5990.00094 1.67113e-17
5991.00084 1.69779e-17
5992.00074 1.67099e-17
5993.00064 1.68015e-17
5994.00054 1.67086e-17
5995.00044 1.66516e-17
5996.00034 1.66509e-17
5997.00024 1.67067e-17
5998.00014 1.67060e-17
5999.00004 1.70597e-17
5999.99994 1.73555e-17
6000.99984 1.73077e-17
6001.99974 1.73071e-17
6002.99964 1.73535e-17
6003.99954 1.73528e-17
6004.99944 1.73937e-17
6005.99934 1.73930e-17
6006.99924 1.73037e-17
6007.99914 1.73011e-17
6008.99904 1.71543e-17
6009.99894 1.68451e-17
6010.99884 1.69984e-17
6011.99874 1.69978e-17
6012.99864 1.68431e-17
6013.99854 1.67389e-17
6014.99844 1.63263e-17
6015.99834 1.62692e-17
6016.99824 1.62686e-17
6017.99814 1.63244e-17
6018.99804 1.68310e-17
6019.99794 1.68304e-17
6020.99784 1.67344e-17
6021.99774 1.63219e-17
6022.99764 1.59769e-17
6023.99754 1.57907e-17
6024.99744 1.57111e-17
6025.99734 1.55534e-17
6026.99724 1.57888e-17
6027.99714 1.57882e-17
6028.99704 1.57876e-17
6029.99694 1.57870e-17
6030.99684 1.57864e-17
6031.99674 1.55498e-17
6032.99664 1.58542e-17
6033.99654 1.58763e-17
6034.99644 1.58895e-17
6035.99634 1.58889e-17
6036.99624 1.58745e-17
6037.99614 1.58580e-17
6038.99604 1.58505e-17
6039.99594 1.55524e-17
6040.99584 1.55518e-17
6041.99574 1.55513e-17
6042.99564 1.55254e-17
6043.99554 1.51998e-17
6044.99544 1.50088e-17
6045.99534 1.47557e-17
6046.99524 1.47344e-17
6047.99514 1.43967e-17
6048.99504 1.43572e-17
6049.99494 1.43956e-17
6051.00484 1.43950e-17
6052.00474 1.43945e-17
6053.00464 1.43939e-17
6054.00454 1.43934e-17
6055.00444 1.43539e-17
6056.00434 1.51237e-17
6057.00424 1.51231e-17
6058.00414 1.52825e-17
6059.00404 1.56201e-17
6060.00394 1.56622e-17
6061.00384 1.59313e-17
6062.00374 1.59307e-17
6063.00364 1.56177e-17
6064.00354 1.55762e-17
6065.00344 1.55756e-17
6066.00334 1.55193e-17
6067.00324 1.55187e-17
6068.00314 1.55739e-17
6069.00304 1.55733e-17
6070.00294 1.55169e-17
6071.00284 1.55721e-17
6072.00274 1.55157e-17
6073.00264 1.53291e-17
6074.00254 1.50407e-17
6075.00244 1.50401e-17
6076.00234 1.49516e-17
6077.00224 1.50390e-17
6078.00214 1.50384e-17
6079.00204 1.47350e-17
6080.00194 1.47344e-17
6081.00184 1.49488e-17
6082.00174 1.49482e-17
6083.00164 1.50356e-17
6084.00154 1.51403e-17
6085.00144 1.49424e-17
6086.00134 1.47311e-17
6087.00124 1.47306e-17
6088.00114 1.48954e-17
6089.00104 1.49401e-17
6090.00094 1.51734e-17
6091.00084 1.51728e-17
6092.00074 1.51723e-17
6093.00064 1.51717e-17
6094.00054 1.51711e-17
6095.00044 1.50112e-17
6096.00034 1.53572e-17
6097.00024 1.54759e-17
6098.00014 1.62821e-17
6099.00004 1.62815e-17
6099.99994 1.68137e-17
6100.99984 1.68890e-17
6101.99974 1.69892e-17
6102.99964 1.69886e-17
6103.99954 1.69821e-17
6104.99944 1.67176e-17
6105.99934 1.62773e-17
6106.99924 1.60834e-17
6107.99914 1.59490e-17
6108.99904 1.55080e-17
6109.99894 1.56181e-17
6110.99884 1.56176e-17
6111.99874 1.56170e-17
6112.99864 1.56164e-17
6113.99854 1.56158e-17
6114.99844 1.55046e-17
6115.99834 1.54722e-17
6116.99824 1.54716e-17
6117.99814 1.55340e-17
6118.99804 1.56107e-17
6119.99794 1.58529e-17
6120.99784 1.58523e-17
6121.99774 1.56090e-17
6122.99764 1.55691e-17
6123.99754 1.55520e-17
6124.99744 1.55301e-17
6125.99734 1.54666e-17
6126.99724 1.54298e-17
6127.99714 1.54292e-17
6128.99704 1.52769e-17
6129.99694 1.52816e-17
6130.99684 1.52758e-17
6131.99674 1.52753e-17
6132.99664 1.52687e-17
6133.99654 1.49338e-17
6134.99644 1.49333e-17
6135.99634 1.49341e-17
6136.99624 1.52730e-17
6137.99614 1.52725e-17
6138.99604 1.52767e-17
6139.99594 1.52761e-17
6140.99584 1.61528e-17
6141.99574 1.62867e-17
6142.99564 1.62861e-17
6143.99554 1.62855e-17
6144.99544 1.62849e-17
6145.99534 1.62843e-17
6146.99524 1.61584e-17
6147.99514 1.53808e-17
6149.00504 1.53802e-17
6150.00494 1.51880e-17
6151.00484 1.46014e-17
6152.00474 1.47429e-17
6153.00464 1.47424e-17
6154.00454 1.47419e-17
6155.00444 1.47413e-17
6156.00434 1.47408e-17
6157.00424 1.45982e-17
6158.00414 1.47398e-17
6159.00404 1.53997e-17
6160.00394 1.61553e-17
6161.00384 1.61616e-17
6162.00374 1.69011e-17
6163.00364 1.72102e-17
6164.00354 1.72096e-17
6165.00344 1.69030e-17
6166.00334 1.69009e-17
6167.00324 1.68981e-17
6168.00314 1.65783e-17
6169.00304 1.65777e-17
6170.00294 1.65771e-17
6171.00284 1.63758e-17
6172.00274 1.63490e-17
6173.00264 1.63269e-17
6174.00254 1.53728e-17
6175.00244 1.40578e-17
6176.00234 1.40889e-17
6177.00224 1.40884e-17
6178.00214 1.40879e-17
6179.00204 1.40874e-17
6180.00194 1.40869e-17
6181.00184 1.40548e-17
6182.00174 1.40859e-17
6183.00164 1.55926e-17
6184.00154 1.55920e-17
6185.00144 1.55915e-17
6186.00134 1.55909e-17
6187.00124 1.55904e-17
6188.00114 1.56463e-17
6189.00104 1.58822e-17
6190.00094 1.55887e-17
6191.00084 1.55848e-17
6192.00074 1.54661e-17
6193.00064 1.53380e-17
6194.00054 1.52811e-17
6195.00044 1.51810e-17
6196.00034 1.51804e-17
6197.00024 1.55551e-17
6198.00014 1.53353e-17
6199.00004 1.51651e-17
6199.99994 1.51646e-17
6200.99984 1.50257e-17
6201.99974 1.50251e-17
6202.99964 1.55547e-17
6203.99954 1.56522e-17
6204.99944 1.56516e-17
6205.99934 1.62476e-17
6206.99924 1.63074e-17
6207.99914 1.65136e-17
6208.99904 1.69499e-17
6209.99894 1.70497e-17
6210.99884 1.71530e-17
6211.99874 1.71524e-17
6212.99864 1.71572e-17
6213.99854 1.71566e-17
6214.99844 1.71560e-17
6215.99834 1.71554e-17
6216.99824 1.71548e-17
6217.99814 1.69983e-17
6218.99804 1.67004e-17
6219.99794 1.69971e-17
6220.99784 1.69966e-17
6221.99774 1.69960e-17
6222.99764 1.69954e-17
6223.99754 1.69948e-17
6224.99744 1.66969e-17
6225.99734 1.70248e-17
6226.99724 1.72840e-17
6227.99714 1.72891e-17
6228.99704 1.72828e-17
6229.99694 1.72822e-17
6230.99684 1.70312e-17
6231.99674 1.70213e-17
6232.99664 1.68818e-17
6233.99654 1.68812e-17
6234.99644 1.68806e-17
6235.99634 1.68482e-17
6236.99624 1.67654e-17
6237.99614 1.67648e-17
6238.99604 1.67595e-17
6239.99594 1.67636e-17
6240.99584 1.68453e-17
6241.99574 1.69453e-17
6242.99564 1.69461e-17
6243.99554 1.69442e-17
6244.99544 1.69436e-17
6245.99534 1.65620e-17
6246.99524 1.64436e-17
6247.99514 1.60126e-17
6248.99504 1.60120e-17
6249.99494 1.51854e-17
6251.00484 1.52911e-17
6252.00474 1.52906e-17
6253.00464 1.52900e-17
6254.00454 1.52895e-17
6255.00444 1.52890e-17
6256.00434 1.51823e-17
6257.00424 1.51871e-17
6258.00414 1.51866e-17
6259.00404 1.52869e-17
6260.00394 1.58799e-17
6261.00384 1.66375e-17
6262.00374 1.67113e-17
6263.00364 1.67750e-17
6264.00354 1.67745e-17
6265.00344 1.67096e-17
6266.00334 1.67090e-17
6267.00324 1.67085e-17
6268.00314 1.67079e-17
6269.00304 1.67073e-17
6270.00294 1.47929e-17
6271.00284 1.48505e-17
6272.00274 1.48500e-17
6273.00264 1.48495e-17
6274.00254 1.48490e-17
6275.00244 1.48485e-17
6276.00234 1.47899e-17
6277.00224 1.48475e-17
6278.00214 1.50979e-17
6279.00204 1.52600e-17
6280.00194 1.52595e-17
6281.00184 1.52590e-17
6282.00174 1.52585e-17
6283.00164 1.52579e-17
6284.00154 1.51463e-17
6285.00144 1.48723e-17
6286.00134 1.51452e-17
6287.00124 1.51447e-17
6288.00114 1.48708e-17
6289.00104 1.48155e-17
6290.00094 1.48151e-17
6291.00084 1.46028e-17
6292.00074 1.46023e-17
6293.00064 1.48686e-17
6294.00054 1.51839e-17
6295.00044 1.51834e-17
6296.00034 1.48671e-17
6297.00024 1.48116e-17
6298.00014 1.45994e-17
6299.00004 1.44402e-17
6299.99994 1.43566e-17
6300.99984 1.42425e-17
6301.99974 1.43556e-17
6302.99964 1.43551e-17
6303.99954 1.42411e-17
6304.99944 1.41893e-17
6305.99934 1.39326e-17
6306.99924 1.38096e-17
6307.99914 1.37623e-17
6308.99904 1.35770e-17
6309.99894 1.34886e-17
6310.99884 1.32778e-17
6311.99874 1.30664e-17
6312.99864 1.27848e-17
6313.99854 1.27843e-17
6314.99844 1.27639e-17
6315.99834 1.26608e-17
6316.99824 1.16912e-17
6317.99814 1.14040e-17
6318.99804 1.09847e-17
6319.99794 1.08763e-17
6320.99784 1.09633e-17
6321.99774 1.09629e-17
6322.99764 1.09625e-17
6323.99754 1.09622e-17
6324.99744 1.08745e-17
6325.99734 1.08742e-17
6326.99724 1.08754e-17
6327.99714 1.08901e-17
6328.99704 1.09604e-17
6329.99694 1.11100e-17
6330.99684 1.11164e-17
6331.99674 1.11161e-17
6332.99664 1.11157e-17
6333.99654 1.11085e-17
6334.99644 1.11082e-17
6335.99634 1.10287e-17
6336.99624 1.10284e-17
6337.99614 1.09967e-17
6338.99604 1.09895e-17
6339.99594 1.07703e-17
6340.99584 1.07700e-17
6341.99574 1.07560e-17
6342.99564 1.07170e-17
6343.99554 1.05097e-17
6344.99544 9.64363e-18
6345.99534 9.64331e-18
6346.99524 9.61218e-18
6347.99514 9.47749e-18
6349.00504 9.47718e-18
6350.00494 9.46031e-18
6351.00484 9.46000e-18
6352.00474 9.47624e-18
6353.00464 9.47593e-18
6354.00454 9.47562e-18
6355.00444 9.80842e-18
6356.00434 9.81377e-18
6357.00424 9.81345e-18
6358.00414 9.88446e-18
6359.00404 1.01666e-17
6360.00394 1.02855e-17
6361.00384 1.03030e-17
6362.00374 1.03026e-17
6363.00364 1.03938e-17
6364.00354 1.04166e-17
6365.00344 1.10222e-17
6366.00334 1.14608e-17
6367.00324 1.18672e-17
6368.00314 1.31136e-17
6369.00304 1.31132e-17
6370.00294 1.31128e-17
6371.00284 1.31176e-17
6372.00274 1.36229e-17
6373.00264 1.37881e-17
6374.00254 1.38805e-17
6375.00244 1.38800e-17
6376.00234 1.38796e-17
6377.00224 1.37863e-17
6378.00214 1.38787e-17
6379.00204 1.38782e-17
6380.00194 1.38778e-17
6381.00184 1.39587e-17
6382.00174 1.55442e-17
6383.00164 1.55437e-17
6384.00154 1.57059e-17
6385.00144 1.57698e-17
6386.00134 1.60246e-17
6387.00124 1.64232e-17
6388.00114 1.66045e-17
6389.00104 1.91706e-17
6390.00094 1.91700e-17
6391.00084 1.91693e-17
6392.00074 1.91687e-17
6393.00064 1.91786e-17
6394.00054 1.90305e-17
6395.00044 1.91669e-17
6396.00034 1.91662e-17
6397.00024 1.91656e-17
6398.00014 1.91650e-17
6399.00004 1.91644e-17
6399.99994 1.90269e-17
6400.99984 2.12831e-17
6401.99974 2.13096e-17
6402.99964 2.15395e-17
6403.99954 2.16217e-17
6404.99944 2.24510e-17
6405.99934 2.34451e-17
6406.99924 2.34444e-17
6407.99914 2.34510e-17
6408.99904 2.34429e-17
6409.99894 2.34421e-17
6410.99884 2.31335e-17
6411.99874 2.34406e-17
6412.99864 2.34472e-17
6413.99854 2.35319e-17
6414.99844 2.35153e-17
6415.99834 2.35145e-17
6416.99824 2.31290e-17
6417.99814 2.35130e-17
6418.99804 2.37220e-17
6419.99794 2.37255e-17
6420.99784 2.37247e-17
6421.99774 2.38721e-17
6422.99764 2.40009e-17
6423.99754 2.40927e-17
6424.99744 2.44573e-17
6425.99734 2.45425e-17
6426.99724 2.45417e-17
6427.99714 2.45409e-17
6428.99704 2.45402e-17
6429.99694 2.45455e-17
6430.99684 2.44700e-17
6431.99674 2.75904e-17
6432.99664 2.76672e-17
6433.99654 2.87950e-17
6434.99644 2.91623e-17
6435.99634 2.91614e-17
6436.99624 2.91604e-17
6437.99614 2.91595e-17
6438.99604 2.91586e-17
6439.99594 2.89517e-17
6440.99584 2.91567e-17
6441.99574 2.91558e-17
6442.99564 2.89490e-17
6443.99554 2.89264e-17
6444.99544 2.84682e-17
6445.99534 2.83718e-17
6447.00523 2.77903e-17
6448.00513 2.83700e-17
6449.00504 2.83691e-17
6450.00493 2.87831e-17
6451.00483 2.93861e-17
6452.00473 2.93907e-17
6453.00463 2.77850e-17
6454.00454 3.05845e-17
6455.00443 3.05835e-17
6456.00433 3.07899e-17
6457.00423 3.05816e-17
6458.00414 3.05806e-17
6459.00403 2.94643e-17
6460.00393 3.05787e-17
6461.00383 3.05777e-17
6462.00373 3.08683e-17
6463.00364 3.23221e-17
6464.00353 3.23211e-17
6465.00343 2.94587e-17
6466.00333 3.15145e-17
6467.00324 3.17176e-17
6468.00313 3.17918e-17
6469.00303 3.21398e-17
6470.00293 3.21745e-17
6471.00283 3.21378e-17
6472.00274 3.17126e-17
6473.00263 3.15075e-17
6474.00253 2.98208e-17
6475.00243 3.01117e-17
6476.00234 3.01108e-17
6477.00223 3.01098e-17
6478.00213 3.01089e-17
6479.00203 3.01079e-17
6480.00193 2.97067e-17
6481.00184 2.89651e-17
6482.00173 2.81552e-17
6483.00163 2.81504e-17
6484.00153 2.77253e-17
6485.00144 3.01022e-17
6486.00133 3.01243e-17
6487.00123 3.02958e-17
6488.00113 3.02949e-17
6489.00103 3.02939e-17
6490.00094 2.76969e-17
6491.00083 2.74088e-17
6492.00073 2.74079e-17
6493.00063 2.76795e-17
6494.00054 2.81547e-17
6495.00043 2.81698e-17
6496.00033 2.81530e-17
6497.00023 2.81521e-17
6498.00013 2.79235e-17
6499.00004 2.79226e-17
6499.99993 2.79180e-17
6500.99983 2.79209e-17
6501.99973 2.79163e-17
6502.99964 2.79154e-17
6503.99953 2.75143e-17
6504.99943 2.75134e-17
6505.99933 2.75035e-17
6506.99923 2.68598e-17
6507.99914 2.65224e-17
6508.99903 2.57433e-17
6509.99893 2.56536e-17
6510.99883 2.56742e-17
6511.99874 2.56734e-17
6512.99863 2.56726e-17
6513.99853 2.56504e-17
6514.99843 2.53382e-17
6515.99833 2.53162e-17
6516.99824 2.46793e-17
6517.99813 2.46577e-17
6518.99803 2.43649e-17
6519.99793 2.45525e-17
6520.99784 2.45518e-17
6521.99773 2.45510e-17
6522.99763 2.45502e-17
6523.99753 2.45495e-17
6524.99743 2.43401e-17
6525.99734 2.43393e-17
6526.99723 2.43385e-17
6527.99713 2.43581e-17
6528.99703 2.45456e-17
6529.99694 2.51409e-17
6530.99683 2.53640e-17
6531.99673 2.55342e-17
6532.99663 2.55334e-17
6533.99653 2.55326e-17
6534.99644 2.57032e-17
6535.99633 2.59766e-17
6536.99623 2.59773e-17
6537.99613 2.59765e-17
6538.99604 2.59801e-17
6539.99593 2.59915e-17
6540.99583 2.62956e-17
6541.99573 2.65814e-17
6542.99563 2.75309e-17
6543.99554 2.75300e-17
6544.99543 2.65789e-17
6545.99533 2.62915e-17
6546.99523 2.62907e-17
6547.99514 2.62899e-17
6549.00503 2.62679e-17
6550.00493 2.58647e-17
6551.00483 2.58639e-17
6552.00473 2.58534e-17
6553.00463 2.58526e-17
6554.00453 2.57251e-17
6555.00443 2.57243e-17
6556.00433 2.58502e-17
6557.00423 2.58591e-17
6558.00413 2.58583e-17
6559.00403 2.69261e-17
6560.00393 2.75437e-17
6561.00383 2.78411e-17
6562.00373 2.78870e-17
6563.00363 2.78934e-17
6564.00353 2.84895e-17
6565.00343 2.93893e-17
6566.00333 2.95951e-17
6567.00323 2.95942e-17
6568.00313 2.93866e-17
6569.00303 2.95924e-17
6570.00293 3.04242e-17
6571.00283 3.08216e-17
6572.00273 3.17523e-17
6573.00263 3.17602e-17
6574.00253 3.17592e-17
6575.00243 3.23704e-17
6576.00233 3.23694e-17
6577.00223 3.23684e-17
6578.00213 3.23674e-17
6579.00203 3.30236e-17
6580.00193 3.30325e-17
6581.00183 3.31599e-17
6582.00173 3.31589e-17
6583.00163 3.31579e-17
6584.00153 3.25277e-17
6585.00143 3.31558e-17
6586.00133 3.33505e-17
6587.00123 3.35377e-17
6588.00113 3.36764e-17
6589.00103 3.36970e-17
6590.00093 3.37308e-17
6591.00083 3.37297e-17
6592.00073 3.36722e-17
6593.00063 3.36712e-17
6594.00053 3.36702e-17
6595.00043 3.36691e-17
6596.00033 3.35631e-17
6597.00023 3.33509e-17
6598.00013 3.33499e-17
6599.00003 3.33294e-17
6599.99993 3.28993e-17
6600.99983 3.28982e-17
6601.99973 3.28972e-17
6602.99963 3.29970e-17
6603.99953 3.30849e-17
6604.99943 3.31599e-17
6605.99933 3.31589e-17
6606.99923 3.30819e-17
6607.99913 3.31568e-17
6608.99903 3.34833e-17
6609.99893 3.35335e-17
6610.99883 3.37657e-17
6611.99873 3.37809e-17
6612.99863 3.37799e-17
6613.99853 3.42737e-17
6614.99843 3.42908e-17
6615.99833 3.42898e-17
6616.99823 3.42887e-17
6617.99813 3.42877e-17
6618.99803 3.42684e-17
6619.99793 3.25757e-17
6620.99783 3.34887e-17
6621.99773 3.34877e-17
6622.99763 3.34866e-17
6623.99753 3.34856e-17
6624.99743 3.34846e-17
6625.99733 3.25697e-17
6626.99723 3.34825e-17
6627.99713 3.39943e-17
6628.99703 3.39933e-17
6629.99693 3.39922e-17
6630.99683 3.39912e-17
6631.99673 3.39901e-17
6632.99663 3.37742e-17
6633.99653 3.39254e-17
6634.99643 3.39244e-17
6635.99633 3.39233e-17
6636.99623 3.39223e-17
6637.99613 3.39212e-17
6638.99603 3.37680e-17
6639.99593 3.32661e-17
6640.99583 3.32651e-17
6641.99573 3.32641e-17
6642.99563 3.32631e-17
6643.99553 3.26979e-17
6644.99543 3.26969e-17
6645.99533 3.26529e-17
6647.00523 3.26395e-17
6648.00513 3.25735e-17
6649.00503 3.25725e-17
6650.00493 3.25758e-17
6651.00483 3.25705e-17
6652.00473 3.25695e-17
6653.00463 3.22011e-17
6654.00453 3.22001e-17
6655.00443 3.21991e-17
6656.00433 3.26420e-17
6657.00423 3.27520e-17
6658.00413 3.27509e-17
6659.00403 3.30986e-17
6660.00393 3.39422e-17
6661.00383 3.40001e-17
6662.00373 3.39991e-17
6663.00363 3.39980e-17
6664.00353 3.39970e-17
6665.00343 3.39959e-17
6666.00333 3.11208e-17
6667.00323 3.11198e-17
6668.00313 3.05580e-17
6669.00303 3.05571e-17
6670.00293 3.05218e-17
6671.00283 3.02057e-17
6672.00273 2.98460e-17
6673.00263 2.98451e-17
6674.00253 2.98442e-17
6675.00243 2.98432e-17
6676.00233 2.98423e-17
6677.00223 2.95084e-17
6678.00213 2.94352e-17
6679.00203 2.93494e-17
6680.00193 2.92488e-17
6681.00183 2.92479e-17
6682.00173 2.89041e-17
6683.00163 2.89032e-17
6684.00153 2.88805e-17
6685.00143 2.86646e-17
6686.00133 2.85939e-17
6687.00123 2.85930e-17
6688.00113 2.85921e-17
6689.00103 2.88760e-17
6690.00093 2.88970e-17
6691.00083 2.88961e-17
6692.00073 2.88952e-17
6693.00063 2.86576e-17
6694.00053 2.86498e-17
6695.00043 2.86490e-17
6696.00033 2.86481e-17
6697.00023 2.86472e-17
6698.00013 2.74754e-17
6699.00003 2.69805e-17
6699.99993 2.74737e-17
6700.99983 2.74729e-17
6701.99973 2.74720e-17
6702.99963 2.74712e-17
6703.99953 2.74704e-17
6704.99943 2.69756e-17
6705.99933 2.94157e-17
6706.99923 2.94230e-17
6707.99913 3.07188e-17
6708.99903 3.07422e-17
6709.99893 3.07413e-17
6710.99883 3.07403e-17
6711.99873 3.01648e-17
6712.99863 2.94176e-17
6713.99853 2.94085e-17
6714.99843 2.80457e-17
6715.99833 2.93712e-17
6716.99823 2.93703e-17
6717.99813 2.93694e-17
6718.99803 2.80511e-17
6719.99793 2.80414e-17
6720.99783 2.76607e-17
6721.99773 2.76598e-17
6722.99763 2.76590e-17
6723.99753 2.76302e-17
6724.99743 2.73847e-17
6725.99733 2.59067e-17
6726.99723 2.59059e-17
6727.99713 2.58837e-17
6728.99703 2.55187e-17
6729.99693 2.51793e-17
6730.99683 2.51785e-17
6731.99673 2.51777e-17
6732.99663 2.55156e-17
6733.99653 2.55652e-17
6734.99643 2.56135e-17
6735.99633 2.56127e-17
6736.99623 2.55629e-17
6737.99613 2.56112e-17
6738.99603 2.62842e-17
6739.99593 2.63984e-17
6740.99583 2.63750e-17
6741.99573 2.63742e-17
6742.99563 2.63734e-17
6743.99553 2.63951e-17
6744.99543 2.64503e-17
6745.99533 2.66679e-17
6746.99523 2.70169e-17
6747.99513 2.70681e-17
6749.00503 2.70673e-17
6750.00493 2.78966e-17
6751.00483 2.88538e-17
6752.00473 2.89706e-17
6753.00463 2.90653e-17
6754.00453 2.91205e-17
6755.00443 2.90635e-17
6756.00433 2.89671e-17
6757.00423 2.88621e-17
6758.00413 2.88477e-17
6759.00403 2.82856e-17
6760.00393 2.51958e-17
6761.00383 2.51950e-17
6762.00373 2.51456e-17
6763.00363 2.50951e-17
6764.00353 2.50736e-17
6765.00343 2.49309e-17
6766.00333 2.48989e-17
6767.00323 2.49294e-17
6768.00313 2.49286e-17
6769.00303 2.49278e-17
6770.00293 2.48959e-17
6771.00283 2.48746e-17
6772.00273 2.36411e-17
6773.00263 2.36151e-17
6774.00253 2.32143e-17
6775.00243 2.36137e-17
6776.00233 2.36549e-17
6777.00223 2.36542e-17
6778.00213 2.34755e-17
6779.00203 2.33454e-17
6780.00193 2.32101e-17
6781.00183 2.33440e-17
6782.00173 2.33881e-17
6783.00163 2.36499e-17
6784.00153 2.38742e-17
6785.00143 2.38929e-17
6786.00133 2.38921e-17
6787.00123 2.44451e-17
6788.00113 2.45869e-17
6789.00103 2.45861e-17
6790.00093 2.45854e-17
6791.00083 2.45846e-17
6792.00073 2.45839e-17
6793.00063 2.43840e-17
6794.00053 2.32140e-17
6795.00043 2.32132e-17
6796.00033 2.29284e-17
6797.00023 2.26217e-17
6798.00013 2.26033e-17
6799.00003 2.24013e-17
6799.99993 2.24427e-17
6800.99983 2.23999e-17
6801.99973 2.21630e-17
6802.99963 2.21606e-17
6803.99953 2.20039e-17
6804.99943 2.14992e-17
6805.99933 2.08574e-17
6806.99923 2.08492e-17
6807.99913 2.04389e-17
6808.99903 2.04383e-17
6809.99893 2.04194e-17
6810.99883 2.04179e-17
6811.99873 2.04364e-17
6812.99863 2.04357e-17
6813.99853 2.04351e-17
6814.99843 2.04162e-17
6815.99833 2.05130e-17
6816.99823 2.05124e-17
6817.99813 2.07696e-17
6818.99803 2.07689e-17
6819.99793 2.07683e-17
6820.99783 2.07677e-17
6821.99773 2.07670e-17
6822.99763 2.04944e-17
6823.99753 2.04791e-17
6824.99743 1.98020e-17
6825.99733 1.98379e-17
6826.99723 1.98373e-17
6827.99713 1.98367e-17
6828.99703 1.98361e-17
6829.99693 1.98355e-17
6830.99683 1.97984e-17
6831.99673 1.98343e-17
6832.99663 1.99963e-17
6833.99653 2.00013e-17
6834.99643 2.00218e-17
6835.99633 2.00023e-17
6836.99623 2.00206e-17
6837.99613 2.00011e-17
6838.99603 1.99926e-17
6839.99593 1.92599e-17
6840.99583 1.92461e-17
6841.99573 1.90094e-17
6842.99563 1.84610e-17
6843.99553 1.84604e-17
6844.99543 1.84513e-17
6845.99533 1.80193e-17
6847.00523 1.79352e-17
6848.00513 1.79224e-17
6849.00503 1.74004e-17
6850.00493 1.79335e-17
6851.00483 1.80165e-17
6852.00473 1.80160e-17
6853.00463 1.73983e-17
6854.00453 1.72433e-17
6855.00443 1.71343e-17
6856.00433 1.71337e-17
6857.00423 1.67305e-17
6858.00413 1.53641e-17
6859.00403 1.53637e-17
6860.00393 1.53354e-17
6861.00383 1.48521e-17
6862.00373 1.48418e-17
6863.00363 1.48414e-17
6864.00353 1.48508e-17
6865.00343 1.48503e-17
6866.00333 1.47774e-17
6867.00323 1.44622e-17
6868.00313 1.43166e-17
6869.00303 1.43069e-17
6870.00293 1.40157e-17
6871.00283 1.40153e-17
6872.00273 1.39075e-17
6873.00263 1.38430e-17
6874.00253 1.38195e-17
6875.00243 1.28718e-17
6876.00233 1.27007e-17
6877.00223 1.27003e-17
6878.00213 8.68126e-18
6879.00203 8.13254e-18
6880.00193 8.68073e-18
6881.00183 8.68046e-18
6882.00173 8.68019e-18
6883.00163 8.67993e-18
6884.00153 8.67966e-18
6885.00143 8.13104e-18
6886.00133 1.05464e-17
6887.00123 1.06749e-17
6888.00113 1.07061e-17
6889.00103 1.26880e-17
6890.00093 1.26956e-17
6891.00083 1.27524e-17
6892.00073 1.34232e-17
6893.00063 1.35454e-17
6894.00053 1.41481e-17
6895.00043 1.41689e-17
6896.00033 1.41685e-17
6897.00023 1.41680e-17
6898.00013 1.42839e-17
6899.00003 1.43258e-17
6899.99993 1.43577e-17
6900.99983 1.56503e-17
6901.99973 1.56499e-17
6902.99963 1.57139e-17
6903.99953 1.65548e-17
6904.99943 1.65646e-17
6905.99933 1.66766e-17
6906.99923 1.66761e-17
6907.99913 1.66756e-17
6908.99903 1.65625e-17
6909.99893 1.65518e-17
6910.99883 1.64749e-17
6911.99873 1.64642e-17
6912.99863 1.64526e-17
6913.99853 1.61285e-17
6914.99843 1.61653e-17
6915.99833 1.61648e-17
6916.99823 1.61643e-17
6917.99813 1.61638e-17
6918.99803 1.61633e-17
6919.99793 1.61256e-17
6920.99783 1.61623e-17
6921.99773 1.69692e-17
6922.99763 1.70191e-17
6923.99753 1.70371e-17
6924.99743 1.75111e-17
6925.99733 1.75106e-17
6926.99723 1.75622e-17
6927.99713 1.78400e-17
6928.99703 1.78503e-17
6929.99693 1.86337e-17
6930.99683 1.86601e-17
6931.99673 1.86923e-17
6932.99663 1.86917e-17
6933.99653 1.94770e-17
6934.99643 1.95246e-17
6935.99633 1.95240e-17
6936.99623 1.95403e-17
6937.99613 1.95861e-17
6938.99603 1.95855e-17
6939.99593 1.96276e-17
6940.99583 1.97079e-17
6941.99573 1.97073e-17
6942.99563 2.17232e-17
6943.99553 2.17979e-17
6944.99543 2.18105e-17
6945.99533 2.21058e-17
6946.99523 2.21186e-17
6947.99513 2.27537e-17
6949.00503 2.27530e-17
6950.00493 2.27523e-17
6951.00483 2.18064e-17
6952.00473 2.18057e-17
6953.00463 2.18051e-17
6954.00453 2.18910e-17
6955.00443 2.27900e-17
6956.00433 2.28299e-17
6957.00423 2.28292e-17
6958.00413 2.27879e-17
6959.00403 2.28278e-17
6960.00393 2.28271e-17
6961.00383 2.32197e-17
6962.00373 2.35590e-17
6963.00363 2.35582e-17
6964.00353 2.39574e-17
6965.00343 2.42733e-17
6966.00333 2.43456e-17
6967.00323 2.43910e-17
6968.00313 2.44650e-17
6969.00303 2.44643e-17
6970.00293 2.54360e-17
6971.00283 2.71322e-17
6972.00273 2.72133e-17
6973.00263 2.78551e-17
6974.00253 2.78542e-17
6975.00243 2.78533e-17
6976.00233 2.78525e-17
6977.00223 2.78516e-17
6978.00213 2.74045e-17
6979.00203 2.74207e-17
6980.00193 2.74199e-17
6981.00183 2.74190e-17
6982.00173 2.74182e-17
6983.00163 2.73173e-17
6984.00153 2.68951e-17
6985.00143 2.68943e-17
6986.00133 2.68934e-17
6987.00123 2.54026e-17
6988.00113 2.49266e-17
6989.00103 2.49259e-17
6990.00093 2.48338e-17
6991.00083 2.48330e-17
6992.00073 2.48107e-17
6993.00063 2.45293e-17
6994.00053 2.45441e-17
6995.00043 2.45434e-17
6996.00033 2.45426e-17
6997.00023 2.45419e-17
6998.00013 2.42266e-17
6999.00003 2.36675e-17
6999.99993 2.36667e-17
7000.99983 2.36660e-17
7001.99973 2.42236e-17
7002.99963 2.45373e-17
7003.99953 2.45623e-17
7004.99943 2.46065e-17
7005.99933 2.46498e-17
7006.99923 2.46049e-17
7007.99913 2.52336e-17
7008.99903 2.52328e-17
7009.99893 2.54495e-17
7010.99883 2.70776e-17
7011.99873 2.70941e-17
7012.99863 2.73452e-17
7013.99853 2.73444e-17
7014.99843 2.73435e-17
7015.99833 2.71577e-17
7016.99823 2.71383e-17
7017.99813 2.70891e-17
7018.99803 2.70882e-17
7019.99793 2.71543e-17
7020.99783 2.71535e-17
7021.99773 2.71607e-17
7022.99763 2.71599e-17
7023.99753 2.71590e-17
7024.99743 2.71501e-17
7025.99733 2.73384e-17
7026.99723 2.73376e-17
7027.99713 2.74036e-17
7028.99703 2.74028e-17
7029.99693 2.75974e-17
7030.99683 2.76788e-17
7031.99673 2.76779e-17
7032.99663 2.76771e-17
7033.99653 2.76762e-17
7034.99643 2.76261e-17
7035.99633 2.91370e-17
7036.99623 2.91361e-17
7037.99613 2.91352e-17
7038.99603 2.94274e-17
7039.99593 2.95506e-17
7040.99583 2.95906e-17
7041.99573 2.97696e-17
7042.99563 2.98917e-17
7043.99553 2.98972e-17
7044.99543 2.98963e-17
7045.99533 2.94209e-17
7047.00523 2.94200e-17
7048.00513 2.94191e-17
7049.00503 2.94181e-17
7050.00493 2.93726e-17
7051.00483 2.93222e-17
7052.00473 2.93192e-17
7053.00463 2.62174e-17
7054.00453 2.62166e-17
7055.00443 2.61126e-17
7056.00433 2.61118e-17
7057.00423 2.61949e-17
7058.00413 2.61941e-17
7059.00403 2.61933e-17
7060.00393 2.62117e-17
7061.00383 2.62108e-17
7062.00373 2.64679e-17
7063.00363 2.65533e-17
7064.00353 2.66700e-17
7065.00343 2.66927e-17
7066.00333 2.67783e-17
7067.00323 2.74552e-17
7068.00313 2.74756e-17
7069.00303 2.74747e-17
7070.00293 2.74738e-17
7071.00283 2.74517e-17
7072.00273 2.74297e-17
7073.00263 2.74288e-17
7074.00253 2.74491e-17
7075.00243 2.74695e-17
7076.00233 2.78596e-17
7077.00223 2.79779e-17
7078.00213 2.79771e-17
7079.00203 2.77768e-17
7080.00193 2.71437e-17
7081.00183 2.71214e-17
7082.00173 2.68923e-17
7083.00163 2.68697e-17
7084.00153 2.67214e-17
7085.00143 2.52532e-17
7086.00133 2.67197e-17
7087.00123 2.67189e-17
7088.00113 2.67180e-17
7088.55630 2.67180e-17
7089.82942 2.85059e-17
7091.09236 2.82550e-17
7092.36549 2.64550e-17
7093.62843 2.54588e-17
7094.90155 2.60048e-17
7096.16449 2.60732e-17
7097.43762 2.46298e-17
7098.70056 2.40948e-17
7099.97368 2.44194e-17
7101.24681 2.49430e-17
7102.50975 2.63293e-17
7103.78287 2.69125e-17
7105.04581 2.69928e-17
7106.31894 2.60438e-17
7107.58188 2.62710e-17
7108.85500 2.77889e-17
7110.11794 2.73580e-17
7111.39107 2.63233e-17
7112.65401 2.85163e-17
7113.92713 3.07011e-17
7115.19007 3.09464e-17
7116.46320 3.08523e-17
7117.73632 2.93156e-17
7118.99926 2.76707e-17
7120.27239 2.84564e-17
7121.53533 2.94686e-17
7122.80846 2.80054e-17
7124.07139 2.68953e-17
7125.34452 2.91229e-17
7126.60746 2.98488e-17
7127.88058 2.75980e-17
7129.14352 2.81659e-17
7130.41665 3.02943e-17
7131.68977 3.01706e-17
7132.95272 3.13193e-17
7134.22584 3.17465e-17
7135.48878 2.82427e-17
7136.76190 2.74138e-17
7138.02484 3.05130e-17
7139.29797 3.25929e-17
7140.56091 3.25107e-17
7141.83403 3.21468e-17
7143.09698 3.08483e-17
7144.37010 2.91223e-17
7145.63304 3.14829e-17
7146.90617 3.45132e-17
7148.16910 3.26132e-17
7149.44223 3.08487e-17
7150.71535 3.04155e-17
7151.97829 2.91397e-17
7153.25142 2.96216e-17
7154.51436 3.13047e-17
7155.78748 3.20616e-17
7157.05043 3.05672e-17
7158.32355 2.89336e-17
7159.58649 2.96640e-17
7160.85961 2.98105e-17
7162.12255 2.91546e-17
7163.39568 2.88778e-17
7164.65862 2.81726e-17
7165.93174 2.89450e-17
7167.20487 2.88526e-17
7168.46781 2.73752e-17
7169.74093 2.89435e-17
7171.00387 3.04008e-17
7172.27700 3.03408e-17
7173.53994 3.06367e-17
7174.81306 3.00991e-17
7176.07600 2.93285e-17
7177.34913 2.95736e-17
7178.61207 2.91038e-17
7179.88519 2.88432e-17
7181.15832 3.20569e-17
7182.42126 3.22843e-17
7183.69438 2.78248e-17
7184.95732 2.62674e-17
7186.23045 2.77478e-17
7187.49339 2.99160e-17
7188.76651 3.13286e-17
7190.02945 3.08069e-17
7191.30258 2.98086e-17
7192.56552 2.89966e-17
7193.83864 2.89428e-17
7195.10158 2.95725e-17
7196.37471 2.85965e-17
7197.63765 2.81836e-17
7198.91077 2.93334e-17
7200.18390 3.06320e-17
7201.44684 3.07516e-17
7202.71997 3.00221e-17
7203.98290 2.94780e-17
7205.25603 2.83021e-17
7206.51897 2.77682e-17
7207.79209 3.00003e-17
7209.05503 3.24832e-17
7210.32816 3.29087e-17
7211.59110 3.36619e-17
7212.86423 3.36468e-17
7214.13735 3.11173e-17
7215.40029 3.04839e-17
7216.67342 3.09115e-17
7217.93635 2.99534e-17
7219.20948 3.06423e-17
7220.47242 3.23709e-17
7221.74554 3.10079e-17
7223.00849 2.82432e-17
7224.28161 2.73585e-17
7225.54455 2.86062e-17
7226.81768 3.09705e-17
7228.08061 3.15021e-17
7229.35374 2.82337e-17
7230.62686 2.59090e-17
7231.88980 2.54164e-17
7233.16293 2.59691e-17
7234.42587 2.95303e-17
7235.69899 3.21961e-17
7236.96194 2.81534e-17
7238.23506 2.50846e-17
7239.49800 2.47097e-17
7240.77112 2.47846e-17
7242.03406 2.73802e-17
7243.30719 3.10194e-17
7244.57013 3.05801e-17
7245.84325 2.89452e-17
7247.11638 2.97066e-17
7248.37932 2.89704e-17
7249.65244 2.85376e-17
7250.91538 3.02013e-17
7252.18851 2.89202e-17
7253.45145 2.48117e-17
7254.72457 2.46707e-17
7255.98751 2.80170e-17
7257.26064 2.85757e-17
7258.52358 2.96059e-17
7259.79670 3.02513e-17
7261.05964 2.80280e-17
7262.33277 2.74953e-17
7263.60589 2.88376e-17
7264.86883 2.85042e-17
7266.14196 2.81722e-17
7267.40490 2.66388e-17
7268.67802 2.61621e-17
7269.94096 2.81461e-17
7271.21409 2.81076e-17
7272.47703 2.83899e-17
7273.75015 2.85094e-17
7275.01309 2.57321e-17
7276.28622 2.72169e-17
7277.54916 3.12671e-17
7278.82228 3.23323e-17
7280.09541 3.03905e-17
7281.35835 2.67019e-17
7282.63148 2.49527e-17
7283.89441 2.77686e-17
7285.16754 2.90866e-17
7286.43048 2.64062e-17
7287.70360 2.59990e-17
7288.96654 2.65540e-17
7290.23967 2.51575e-17
7291.50261 2.43763e-17
7292.77574 2.54024e-17
7294.04886 2.70047e-17
7295.31180 2.92064e-17
7296.58493 3.12161e-17
7297.84786 2.95039e-17
7299.12099 2.61931e-17
7300.38393 2.38736e-17
7301.65705 2.23628e-17
7302.92000 2.15915e-17
7304.19312 2.25516e-17
7305.45606 2.56549e-17
7306.72919 2.71325e-17
7307.99212 2.67940e-17
7309.26525 2.62719e-17
7310.53838 2.54892e-17
7311.80131 2.53114e-17
7313.07444 2.59049e-17
7314.33738 2.60728e-17
7315.61050 2.63629e-17
7316.87345 2.99134e-17
7318.14657 3.10611e-17
7319.40951 2.70292e-17
7320.68264 2.47943e-17
7321.94557 2.46298e-17
7323.21870 2.60373e-17
7324.48164 2.79656e-17
7325.75476 2.75672e-17
7327.02789 2.80736e-17
7328.29083 2.96687e-17
7329.56395 2.82077e-17
7330.82690 2.78631e-17
7332.10002 2.80437e-17
7333.36296 2.48831e-17
7334.63608 2.18257e-17
7335.89902 2.25023e-17
7337.17215 2.79815e-17
7338.43509 3.07000e-17
7339.70821 2.79897e-17
7340.97116 2.68482e-17
7342.24428 2.92101e-17
7343.51740 2.92628e-17
7344.78034 2.61040e-17
7346.05347 2.66440e-17
7347.31641 2.86052e-17
7348.58953 2.78635e-17
7349.85247 2.74583e-17
7351.12560 2.82361e-17
7352.38854 2.83185e-17
7353.66166 2.73733e-17
7354.92460 2.70740e-17
7356.19773 2.60326e-17
7357.46067 2.46877e-17
7358.73379 2.57526e-17
7360.00692 2.80163e-17
7361.26986 2.89523e-17
7362.54299 2.89682e-17
7363.80592 2.95998e-17
7365.07905 2.91692e-17
7366.34199 2.74899e-17
7367.61511 2.68615e-17
7368.87805 2.87704e-17
7370.15118 2.97978e-17
7371.41412 2.87218e-17
7372.68725 2.67260e-17
7373.96037 2.61131e-17
7375.22331 2.77116e-17
7376.49644 2.91240e-17
7377.75937 3.03010e-17
7379.03250 3.08207e-17
7380.29544 3.10045e-17
7381.56856 3.02235e-17
7382.83150 2.83514e-17
7384.10463 2.78063e-17
7385.36757 2.69222e-17
7386.64070 2.50381e-17
7387.90363 2.64621e-17
7389.17676 3.18208e-17
7390.44988 3.28794e-17
7391.71282 3.00647e-17
7392.98595 2.89467e-17
7394.24889 3.04671e-17
7395.52201 2.99816e-17
7396.78496 2.93777e-17
7398.05808 2.95021e-17
7399.32102 3.06922e-17
7400.59415 3.33296e-17
7401.85708 3.30460e-17
7403.13021 3.15105e-17
7404.39315 3.13269e-17
7405.66627 3.19039e-17
7406.93940 3.20771e-17
7408.20234 3.03701e-17
7409.47547 2.99631e-17
7410.73841 3.09057e-17
7412.01153 2.90414e-17
7413.27447 2.74678e-17
7414.54760 2.76791e-17
7415.81053 2.78121e-17
7417.08366 2.85914e-17
7418.34660 2.89071e-17
7419.61973 2.90308e-17
7420.88267 2.90188e-17
7422.15579 2.79759e-17
7423.42891 2.76477e-17
7424.69186 3.04348e-17
7425.96498 3.24087e-17
7427.22792 3.01970e-17
7428.50104 2.74321e-17
7429.76399 2.77340e-17
7431.03711 2.82337e-17
7432.30005 2.67210e-17
7433.57317 2.53665e-17
7434.83612 2.63601e-17
7436.10924 2.97266e-17
7437.37218 2.98385e-17
7438.64530 2.80430e-17
7439.91843 2.86630e-17
7441.18137 3.14186e-17
7442.45449 3.17001e-17
7443.71743 3.08056e-17
7444.99056 3.04734e-17
7446.25350 2.87709e-17
7447.52662 2.81814e-17
7448.78956 2.97548e-17
7450.06269 2.97223e-17
7451.32563 2.87351e-17
7452.59875 2.82227e-17
7453.87188 2.84631e-17
7455.13482 2.89196e-17
7456.40794 2.91462e-17
7457.67088 2.89564e-17
7458.94401 2.72311e-17
7460.20695 2.51326e-17
7461.48007 2.54332e-17
7462.74301 2.78810e-17
7464.01614 2.85148e-17
7465.27908 2.81582e-17
7466.55220 2.94434e-17
7467.81514 2.83766e-17
7469.08827 2.56676e-17
7470.36139 2.64199e-17
7471.62433 2.78461e-17
7472.89746 2.72724e-17
7474.16040 2.65695e-17
7475.43352 2.59228e-17
7476.69646 2.67133e-17
7477.96959 2.78778e-17
7479.23253 2.68334e-17
7480.50565 2.59241e-17
7481.76859 2.76582e-17
7483.04172 2.94169e-17
7484.30466 2.81289e-17
7485.57778 2.51795e-17
7486.85091 2.55432e-17
7488.11385 2.72151e-17
7489.38698 2.70027e-17
7490.64991 2.60713e-17
7491.92304 2.73778e-17
7493.18598 2.75481e-17
7494.45910 2.50344e-17
7495.72204 2.46072e-17
7496.99517 2.51093e-17
7498.25811 2.47775e-17
7499.53124 2.56697e-17
7500.79417 2.70460e-17
7502.06730 2.69780e-17
7503.34043 2.51657e-17
7504.60336 2.33887e-17
7505.87649 2.35600e-17
7507.13943 2.50269e-17
7508.41255 2.65656e-17
7509.67550 2.83019e-17
7510.94862 2.78513e-17
7512.21156 2.67365e-17
7513.48469 2.76690e-17
7514.74762 2.87930e-17
7516.02075 2.56445e-17
7517.28369 2.24823e-17
7518.55681 2.30674e-17
7519.82994 2.59706e-17
7521.09288 2.97466e-17
7522.36600 3.05487e-17
7523.62895 2.90067e-17
7524.90207 2.89486e-17
7526.16501 2.75670e-17
7527.43813 2.48868e-17
7528.70107 2.32411e-17
7529.97420 2.27044e-17
7531.23714 2.35067e-17
7532.51026 2.46602e-17
7533.78339 2.47727e-17
7535.04633 2.60082e-17
7536.31945 2.89299e-17
7537.58239 2.89460e-17
7538.85552 2.55832e-17
7540.11846 2.51694e-17
7541.39158 2.71432e-17
7542.65452 2.67148e-17
7543.92765 2.61520e-17
7545.19059 2.42113e-17
7546.46371 2.25785e-17
7547.72665 2.44207e-17
7548.99978 2.45741e-17
7550.26272 2.45457e-17
7551.53584 2.45175e-17
7552.80897 2.44891e-17
7554.07191 2.44609e-17
7555.34503 2.44325e-17
7556.60797 2.44043e-17
7557.88110 2.43759e-17
7559.14404 2.43477e-17
7560.41716 2.43195e-17
7561.68010 2.42911e-17
7562.95323 2.42629e-17
7564.21617 2.42345e-17
7565.48929 2.42063e-17
7566.76242 2.41781e-17
7568.02536 2.41497e-17
7569.29849 2.41215e-17
7570.56142 2.40931e-17
7571.83455 2.40649e-17
7573.09749 2.40367e-17
7574.37061 2.40083e-17
7575.63355 2.39801e-17
7576.90668 2.39519e-17
7578.16962 2.39237e-17
7579.44275 2.38953e-17
7580.70568 2.38671e-17
7581.97881 2.38390e-17
7583.25194 2.38108e-17
7584.51487 2.37824e-17
7585.78800 2.37542e-17
7587.05094 2.37260e-17
7588.32406 2.36978e-17
7589.58700 2.36694e-17
7590.86013 2.36412e-17
7592.12307 2.36130e-17
7593.39620 2.35848e-17
7594.65913 2.35566e-17
7595.93226 2.35284e-17
7597.19520 2.35000e-17
7598.46832 2.34718e-17
7599.74145 2.34436e-17
7601.00439 2.34154e-17
7602.27751 2.33872e-17
7603.54046 2.33590e-17
7604.81358 2.33309e-17
7606.07652 2.33027e-17
7607.34965 2.32745e-17
7608.61258 2.32463e-17
7609.88571 2.32181e-17
7611.14865 2.31899e-17
7612.42177 2.31615e-17
7613.69490 2.31333e-17
7614.95784 2.31053e-17
7616.23096 2.30771e-17
7617.49391 2.30489e-17
7618.76703 2.30207e-17
7620.02997 2.29925e-17
7621.30309 2.29644e-17
7622.56603 2.29362e-17
7623.83916 2.29080e-17
7625.10210 2.28798e-17
7626.37522 2.28516e-17
7627.63817 2.28234e-17
7628.91129 2.27952e-17
7630.17423 2.27670e-17
7631.44735 2.27388e-17
7632.72048 2.27108e-17
7633.98342 2.26826e-17
7635.25654 2.26545e-17
7636.51948 2.26263e-17
7637.79261 2.25981e-17
7639.05555 2.25699e-17
7640.32867 2.25419e-17
7641.59161 2.25137e-17
7642.86474 2.24855e-17
7644.12768 2.24573e-17
7645.40080 2.24293e-17
7646.67393 2.24012e-17
7647.93687 2.23730e-17
7649.21000 2.23448e-17
7650.47293 2.23168e-17
7651.74606 2.22886e-17
7653.00900 2.22604e-17
7654.28212 2.22324e-17
7655.54506 2.22042e-17
7656.81819 2.21760e-17
7658.08113 2.21481e-17
7659.35425 2.21199e-17
7660.61719 2.20917e-17
7661.89032 2.20637e-17
7663.16345 2.20355e-17
7664.42638 2.20073e-17
7665.69951 2.19793e-17
7666.96245 2.19512e-17
7668.23557 2.19232e-17
7669.49851 2.18950e-17
7670.77164 2.18670e-17
7672.03458 2.18388e-17
7673.30771 2.18108e-17
7674.57064 2.17826e-17
7675.84377 2.17547e-17
7677.10671 2.17265e-17
7678.37983 2.16985e-17
7679.65296 2.16703e-17
7680.91590 2.16423e-17
7682.18902 2.13855e-17
7683.45197 2.13745e-17
7684.72509 2.16172e-17
7685.98803 2.36851e-17
7687.26116 2.48573e-17
7688.52409 2.39119e-17
7689.79722 2.33890e-17
7691.06016 2.36024e-17
7692.33328 2.38992e-17
7693.59623 2.38979e-17
7694.86935 2.50338e-17
7696.14247 2.60838e-17
7697.40542 2.45274e-17
7698.67854 2.51481e-17
7699.94148 2.57539e-17
7701.21460 2.24341e-17
7702.47754 2.03529e-17
7703.75067 2.28146e-17
7705.01361 2.46240e-17
7706.28673 2.37419e-17
7707.54968 2.21545e-17
7708.82280 2.31561e-17
7710.08574 2.49171e-17
7711.35886 2.51257e-17
7712.63199 2.45184e-17
7713.89493 2.40443e-17
7715.16805 2.53039e-17
7716.43099 2.46245e-17
7717.70412 2.18500e-17
7718.96706 2.12173e-17
7720.24018 2.13916e-17
7721.50312 2.23510e-17
7722.77625 2.08092e-17
7724.03919 1.89869e-17
7725.31231 2.03772e-17
7726.57525 2.23523e-17
7727.84838 2.05277e-17
7729.12150 2.02618e-17
7730.38444 2.16387e-17
7731.65757 2.24197e-17
7732.92051 2.19350e-17
7734.19363 2.03857e-17
7735.45657 1.94958e-17
7736.72970 1.97840e-17
7737.99264 2.21657e-17
7739.26576 2.44790e-17
7740.52870 2.27864e-17
7741.80183 2.05670e-17
7743.07496 2.13885e-17
7744.33789 2.30532e-17
7745.61102 2.16215e-17
7746.87396 1.78852e-17
7748.14708 1.91596e-17
7749.41002 2.05439e-17
7750.68315 1.76080e-17
7751.94609 1.96711e-17
7753.21922 2.37679e-17
7754.48215 2.46492e-17
7755.75528 2.23400e-17
7757.01822 1.94038e-17
7758.29134 1.81938e-17
7759.56447 1.87037e-17
7760.82741 1.96247e-17
7762.10053 2.05313e-17
7763.36348 2.08231e-17
7764.63660 2.02757e-17
7765.89954 1.93289e-17
7767.17267 1.85229e-17
7768.43560 1.84159e-17
7769.70873 1.84830e-17
7770.97167 1.88903e-17
7772.24479 1.80151e-17
7773.50774 1.58089e-17
7774.78086 1.56586e-17
7776.05399 1.72462e-17
7777.31693 1.83762e-17
7778.59005 1.98391e-17
7779.85299 2.18324e-17
7781.12612 2.21296e-17
7782.38905 2.05172e-17
7783.66218 1.89727e-17
7784.92512 1.78794e-17
7786.19825 1.68816e-17
7787.46119 1.67005e-17
7788.73431 1.82243e-17
7789.99725 1.93367e-17
7791.27038 1.87350e-17
7792.54350 1.92059e-17
7793.80644 1.85395e-17
7795.07956 1.76582e-17
7796.34250 1.90052e-17
7797.61563 1.83562e-17
7798.87857 1.86734e-17
7800.15169 1.97295e-17
7801.41464 2.02111e-17
7802.68776 2.12837e-17
7803.95070 2.30246e-17
7805.22382 2.42442e-17
7806.48676 2.39029e-17
7807.75989 2.25871e-17
7809.03301 2.22849e-17
7810.29595 2.26430e-17
7811.56908 2.03258e-17
7812.83202 1.76260e-17
7814.10514 1.75213e-17
7815.36808 1.73008e-17
7816.64121 1.86206e-17
7817.90415 1.92457e-17
7819.17727 1.72499e-17
7820.44021 1.82823e-17
7821.71334 2.17411e-17
7822.98646 2.35465e-17
7824.24940 2.62002e-17
7825.52253 2.86824e-17
7826.78547 2.77105e-17
7828.05859 2.31841e-17
7829.32153 1.86953e-17
7830.59466 1.82713e-17
7831.85760 2.02897e-17
7833.13072 2.01300e-17
7834.39366 1.98054e-17
7835.66679 2.07509e-17
7836.92973 2.12498e-17
7838.20285 2.31901e-17
7839.47598 2.31908e-17
7840.73892 2.10962e-17
7842.01204 2.08358e-17
7843.27499 2.40167e-17
7844.54811 2.55832e-17
7845.81105 2.42354e-17
7847.08417 2.50588e-17
7848.34711 2.80534e-17
7849.62024 2.77361e-17
7850.88318 2.56131e-17
7852.15630 2.59837e-17
7853.41925 2.93651e-17
7854.69237 2.98407e-17
7855.96550 2.67268e-17
7857.22843 2.60855e-17
7858.50156 2.63003e-17
7859.76450 2.69506e-17
7861.03762 2.42448e-17
7862.30056 2.18584e-17
7863.57369 2.09946e-17
7864.83663 2.10387e-17
7866.10975 2.42377e-17
7867.37270 2.72633e-17
7868.64582 2.84089e-17
7869.90876 2.54143e-17
7871.18188 2.00455e-17
7872.45501 1.98758e-17
7873.71795 2.33373e-17
7874.99107 2.45401e-17
7876.25401 2.45676e-17
7877.52714 2.46920e-17
7878.79008 2.41263e-17
7880.06321 2.50680e-17
7881.32614 2.80476e-17
7882.59927 2.77895e-17
7883.86221 2.49363e-17
7885.13533 2.47065e-17
7886.39827 2.73148e-17
7887.67140 3.00440e-17
7888.94452 3.25727e-17
7890.20747 3.34589e-17
7891.48059 3.00247e-17
7892.74353 2.78248e-17
7894.01665 2.91486e-17
7895.27959 2.84014e-17
7896.55272 2.56110e-17
7897.81566 2.44138e-17
7899.08878 2.47127e-17
7900.35173 2.43458e-17
7901.62485 2.61587e-17
7902.89797 2.79393e-17
7904.16091 2.73681e-17
7905.43404 2.70303e-17
7906.69698 2.68271e-17
7907.97010 2.46038e-17
7909.23304 2.50424e-17
7910.50617 2.57341e-17
7911.76911 2.50228e-17
7913.04223 2.59239e-17
7914.30517 2.68884e-17
7915.57830 2.66618e-17
7916.84124 2.59839e-17
7918.11436 2.61772e-17
7919.37730 2.80385e-17
7920.65043 2.87448e-17
7921.92355 2.49630e-17
7923.18649 2.41816e-17
7924.45962 2.61156e-17
7925.72256 2.62062e-17
7926.99568 2.57980e-17
7928.25862 2.72407e-17
7929.53175 2.84539e-17
7930.79469 2.66074e-17
7932.06781 2.31466e-17
7933.33075 2.13691e-17
7934.60388 2.30743e-17
7935.87700 2.49109e-17
7937.13994 2.52709e-17
7938.41307 2.69022e-17
7939.67601 2.61369e-17
7940.94913 2.36926e-17
7942.21207 2.34712e-17
7943.48520 2.64699e-17
7944.74814 2.76236e-17
7946.02126 2.48504e-17
7947.28420 2.41953e-17
7948.55733 2.51659e-17
7949.82027 2.57567e-17
7951.09339 2.74693e-17
7952.36652 2.76184e-17
7953.62946 2.52567e-17
7954.90258 2.36201e-17
7956.16552 2.36052e-17
7957.43865 2.40574e-17
7958.70159 2.59504e-17
7959.97472 2.93969e-17
7961.23765 3.05943e-17
7962.51078 2.86316e-17
7963.77372 2.70294e-17
7965.04684 2.71592e-17
7966.30978 2.90390e-17
7967.58291 3.12199e-17
7968.85603 2.91869e-17
7970.11898 2.59514e-17
7971.39210 2.71876e-17
7972.65504 2.81995e-17
7973.92817 2.72993e-17
7975.19110 2.72552e-17
7976.46423 2.65811e-17
7977.72717 2.42029e-17
7979.00029 2.30373e-17
7980.26324 2.74605e-17
7981.53636 2.95241e-17
7982.79930 2.55552e-17
7984.07243 2.35865e-17
7985.34555 2.48653e-17
7986.60849 2.64684e-17
7987.88161 2.73171e-17
7989.14455 2.46879e-17
7990.41768 2.22348e-17
7991.68062 2.55778e-17
7992.95374 2.85688e-17
7994.21669 2.59334e-17
7995.48981 2.27207e-17
7996.75275 2.15550e-17
7998.02587 2.21358e-17
7999.28881 2.41217e-17
8000.56194 2.57657e-17
8001.83506 2.45218e-17
8003.09800 2.35891e-17
8004.37113 2.46468e-17
8005.63407 2.46729e-17
8006.90719 2.40583e-17
8008.17013 2.46264e-17
8009.44326 2.55752e-17
8010.70620 2.50331e-17
8011.97932 2.30698e-17
8013.24226 2.24377e-17
8014.51539 2.43335e-17
8015.78851 2.53912e-17
8017.05145 2.40591e-17
8018.32458 2.26267e-17
8019.58752 2.31187e-17
8020.86064 2.43501e-17
8022.12358 2.52636e-17
8023.39671 2.57027e-17
8024.65965 2.66104e-17
8025.93277 2.97453e-17
8027.19571 3.11635e-17
8028.46884 2.88968e-17
8029.73178 2.67152e-17
8031.00490 2.41648e-17
8032.27803 2.24941e-17
8033.54097 2.26387e-17
8034.81409 2.39192e-17
8036.07703 2.53344e-17
8037.35016 2.41497e-17
8038.61310 2.32749e-17
8039.88623 2.30317e-17
8041.14916 2.22944e-17
8042.42229 2.24997e-17
8043.68523 2.21356e-17
8044.95835 2.35439e-17
8046.22129 2.46843e-17
8047.49442 2.48664e-17
8048.76754 2.46350e-17
8050.03049 2.33067e-17
8051.30361 2.20502e-17
8052.56655 2.23889e-17
8053.83968 2.37979e-17
8055.10261 2.45296e-17
8056.37574 2.63244e-17
8057.63868 2.93134e-17
8058.91180 2.83590e-17
8060.17475 2.48401e-17
8061.44787 2.40320e-17
8062.71081 2.56032e-17
8063.98394 2.62420e-17
8065.25706 2.42356e-17
8066.52000 2.32941e-17
8067.79312 2.45933e-17
8069.05606 2.57261e-17
8070.32919 2.61567e-17
8071.59213 2.47702e-17
8072.86525 2.32846e-17
8074.12820 2.40301e-17
8075.40132 2.39274e-17
8076.66426 2.30382e-17
8077.93739 2.29075e-17
8079.20032 2.28253e-17
8080.47345 2.21773e-17
8081.74657 2.11292e-17
8083.00951 2.22113e-17
8084.28264 2.33057e-17
8085.54558 2.39610e-17
8086.81870 2.46113e-17
8088.08165 2.20708e-17
8089.35477 1.93928e-17
8090.61771 2.11407e-17
8091.89083 2.32179e-17
8093.15377 2.27083e-17
8094.42690 2.20514e-17
8095.70002 2.16512e-17
8096.96296 2.00339e-17
8098.23609 2.09090e-17
8099.49903 2.52953e-17
8100.77215 2.89600e-17
8102.03509 2.79118e-17
8103.30822 2.42601e-17
8104.57116 2.16488e-17
8105.84428 2.00866e-17
8107.10722 2.17080e-17
8108.38035 2.38050e-17
8109.64329 2.02840e-17
8110.91641 1.79367e-17
8112.17935 1.97400e-17
8113.45248 2.10983e-17
8114.72560 2.16068e-17
8115.98854 2.04669e-17
8117.26167 1.91885e-17
8118.52461 2.05653e-17
8119.79774 2.17045e-17
8121.06067 2.10445e-17
8122.33380 2.15203e-17
8123.59674 2.07780e-17
8124.86986 1.92413e-17
8126.13280 1.96840e-17
8127.40593 1.86240e-17
8128.67905 1.76502e-17
8129.94200 1.80610e-17
8131.21512 1.99734e-17
8132.47806 2.05989e-17
8133.75119 2.18763e-17
8135.01412 2.30199e-17
8136.28725 2.11286e-17
8137.55019 1.87810e-17
8138.82331 1.77284e-17
8140.08625 2.02139e-17
8141.35938 2.39377e-17
8142.62232 2.34806e-17
8143.89545 2.08094e-17
8145.16857 2.07675e-17
8146.43151 2.20773e-17
8147.70464 2.17407e-17
8148.96757 2.12862e-17
8150.24070 2.13070e-17
8151.50364 2.15763e-17
8152.77676 2.25079e-17
8154.03971 2.19501e-17
8155.31283 2.06251e-17
8156.57577 2.06978e-17
8157.84890 2.21065e-17
8159.11183 2.22673e-17
8160.38496 2.01414e-17
8161.65808 2.05071e-17
8162.92102 2.04475e-17
8164.19415 1.89131e-17
8165.45709 2.00209e-17
8166.73021 2.19673e-17
8167.99316 2.15892e-17
8169.26628 2.14157e-17
8170.52922 2.31270e-17
8171.80234 2.28897e-17
8173.06528 2.23859e-17
8174.33841 2.27672e-17
8175.60135 2.13172e-17
8176.87447 1.97040e-17
8178.14760 2.02432e-17
8179.41054 2.19299e-17
8180.68366 2.16948e-17
8181.94660 2.01800e-17
8183.21973 2.11170e-17
8184.48267 2.18756e-17
8185.75579 2.05247e-17
8187.01873 2.07649e-17
8188.29186 2.17616e-17
8189.55480 2.10617e-17
8190.82792 1.97003e-17
8192.09087 1.86495e-17
8193.36399 1.99253e-17
8194.63711 2.08199e-17
8195.90006 2.01630e-17
8197.17318 2.05744e-17
8198.43612 2.13218e-17
8199.70925 2.13149e-17
8200.97219 2.05484e-17
8202.24531 2.26043e-17
8203.50825 2.26783e-17
8204.78138 1.97740e-17
8206.04431 1.94161e-17
8207.31744 2.14791e-17
8208.59056 2.39491e-17
8209.85350 2.37798e-17
8211.12663 1.96529e-17
8212.38957 1.72866e-17
8213.66269 1.86477e-17
8214.92563 2.11601e-17
8216.19876 2.17433e-17
8217.46170 2.04670e-17
8218.73482 2.02675e-17
8219.99777 1.99593e-17
8221.27089 1.95066e-17
8222.53383 2.08265e-17
8223.80696 2.12003e-17
8225.08008 1.91824e-17
8226.34302 1.77962e-17
8227.61614 1.71714e-17
8228.87908 1.67541e-17
8230.15221 1.81763e-17
8231.41515 2.02684e-17
8232.68827 2.03837e-17
8233.95121 1.90159e-17
8235.22434 1.91943e-17
8236.48728 2.24765e-17
8237.76040 2.36362e-17
8239.02334 2.23870e-17
8240.29647 2.23999e-17
8241.56959 2.16985e-17
8242.83253 2.08065e-17
8244.10566 2.00237e-17
8245.36860 2.06656e-17
8246.64172 2.16524e-17
8247.90467 2.30573e-17
8249.17779 2.11270e-17
8250.44073 1.76037e-17
8251.71385 1.80723e-17
8252.97679 1.84401e-17
8254.24992 1.75518e-17
8255.51286 1.74820e-17
8256.78599 1.69472e-17
8258.05911 1.83130e-17
8259.32205 2.01550e-17
8260.59518 2.01565e-17
8261.85811 1.88796e-17
8263.13124 1.81585e-17
8264.39418 1.98051e-17
8265.66730 2.16587e-17
8266.93024 2.10439e-17
8268.20337 2.15176e-17
8269.46631 2.21050e-17
8270.73943 1.94015e-17
8272.00238 1.82947e-17
8273.27550 2.03941e-17
8274.54862 2.20407e-17
8275.81156 2.04232e-17
8277.08469 1.92339e-17
8278.34763 1.96837e-17
8279.62075 1.95678e-17
8280.88370 2.01403e-17
8282.15682 2.29603e-17
8283.41976 2.62250e-17
8284.69289 2.64085e-17
8285.95582 2.29811e-17
8287.22895 1.66747e-17
8288.49189 1.56468e-17
8289.76501 1.94432e-17
8291.03814 2.23717e-17
8292.30108 2.20026e-17
8293.57421 1.95550e-17
8294.83714 1.97104e-17
8296.11027 1.81763e-17
8297.37321 1.62469e-17
8298.64633 1.82955e-17
8299.90927 2.02922e-17
8301.18240 2.30640e-17
8302.44534 2.25436e-17
8303.71846 1.97615e-17
8304.98141 2.00641e-17
8306.25453 2.17403e-17
8307.52765 2.36825e-17
8308.79060 2.43350e-17
8310.06372 2.39608e-17
8311.32666 2.09103e-17
8312.59978 1.66744e-17
8313.86273 1.83473e-17
8315.13585 2.24007e-17
8316.39879 2.19060e-17
8317.67191 1.91450e-17
8318.93485 1.77052e-17
8320.20798 1.78103e-17
8321.48110 1.90332e-17
8322.74404 2.01239e-17
8324.01717 1.96292e-17
8325.28011 1.95011e-17
8326.55323 1.98424e-17
8327.81617 1.80977e-17
8329.08930 1.87900e-17
8330.35224 2.10109e-17
8331.62536 2.04495e-17
8332.88830 1.93217e-17
8334.16143 1.69156e-17
8335.42437 1.56200e-17
8336.69750 1.87941e-17
8337.97062 2.64742e-17
8339.23356 3.29831e-17
8340.50669 3.09729e-17
8341.76962 2.53187e-17
8343.04275 2.01977e-17
8344.30569 1.73712e-17
8345.57881 2.06108e-17
8346.84175 2.70195e-17
8348.11488 3.03098e-17
8349.37782 2.61378e-17
8350.65094 2.26846e-17
8351.91388 2.35562e-17
8353.18701 2.43613e-17
8354.46013 2.18171e-17
8355.72307 2.02616e-17
8356.99620 2.19524e-17
8358.25914 2.21194e-17
8359.53226 2.02993e-17
8360.79521 1.96062e-17
8362.06833 1.97761e-17
8363.33127 2.02534e-17
8364.60440 2.42022e-17
8365.86733 2.57414e-17
8367.14046 2.09043e-17
8368.41359 1.78787e-17
8369.67652 2.03802e-17
8370.94965 2.31230e-17
8372.21259 2.17058e-17
8373.48571 1.95235e-17
8374.74865 1.97110e-17
8376.02178 1.82679e-17
8377.28472 1.86486e-17
8378.55785 2.11726e-17
8379.82078 2.07090e-17
8381.09391 1.85252e-17
8382.35685 1.90716e-17
8383.62997 2.10825e-17
8384.89292 1.86816e-17
8386.16604 1.42556e-17
8387.43916 1.44505e-17
8388.70211 1.64440e-17
8389.97523 1.69397e-17
8391.23817 1.63390e-17
8392.51130 1.49395e-17
8393.77423 1.59793e-17
8395.04736 1.59352e-17
8396.31030 1.13845e-17
8397.58342 1.28741e-17
8398.84637 1.41702e-17
8400.11949 9.13510e-18
8401.39262 1.47207e-17
8402.65556 2.42945e-17
8403.92868 2.06982e-17
8405.19162 1.46239e-17
8406.46474 1.36717e-17
8407.72768 1.33503e-17
8409.00081 1.53466e-17
8410.26375 1.83516e-17
8411.53687 1.94644e-17
8412.79982 1.95306e-17
8414.07294 2.21651e-17
8415.33588 2.06862e-17
8416.60900 1.45550e-17
8417.87194 1.24295e-17
8419.14507 1.42244e-17
8420.41819 1.54752e-17
8421.68113 1.38922e-17
8422.95426 1.35932e-17
8424.21720 1.75202e-17
8425.49033 2.04547e-17
8426.75326 1.75292e-17
8428.02639 1.66986e-17
8429.28933 1.82991e-17
8430.56245 1.57767e-17
8431.82539 1.48467e-17
8433.09852 1.47164e-17
8434.37164 1.20015e-17
8435.63458 1.14636e-17
8436.90771 1.24023e-17
8438.17065 1.07925e-17
8439.44377 1.15968e-17
8440.70671 1.58634e-17
8441.97984 1.71134e-17
8443.24278 1.46936e-17
8444.51590 1.24085e-17
8445.77885 1.29348e-17
8447.05197 1.60626e-17
8448.31491 1.91459e-17
8449.58804 1.65170e-17
8450.86116 1.11171e-17
8452.12410 8.96149e-18
8453.39723 9.31467e-18
8454.66016 8.59026e-18
8455.93329 7.67415e-18
8457.19623 9.39875e-18
8458.46935 1.08712e-17
8459.73229 1.41822e-17
8461.00542 1.59382e-17
8462.26836 1.03672e-17
8463.54148 7.76897e-18
8464.80442 1.34609e-17
8466.07755 1.73486e-17
8467.35067 1.86750e-17
8468.61362 1.79909e-17
8469.88674 1.28914e-17
8471.14968 8.08741e-18
8472.42281 7.81457e-18
8473.68575 1.01378e-17
8474.95887 1.03492e-17
8476.22181 8.94908e-18
8477.49494 1.08532e-17
8478.75787 1.46760e-17
8480.03100 1.50952e-17
8481.30413 1.19549e-17
8482.56706 1.09308e-17
8483.84019 1.23318e-17
8485.10313 1.05654e-17
8486.37625 8.99335e-18
8487.63919 1.08182e-17
8488.91232 1.11794e-17
8490.17526 1.07973e-17
8491.44838 1.11521e-17
8492.71133 1.09410e-17
8493.98445 1.21900e-17
8495.24739 1.62461e-17
8496.52052 1.59055e-17
8497.79364 1.21320e-17
8499.05658 1.25274e-17
8500.32971 1.42395e-17
8501.59265 1.38614e-17
8502.86577 9.88570e-18
8504.12871 7.08721e-18
8505.40183 1.12509e-17
8506.66477 1.40343e-17
8507.93790 1.33953e-17
8509.20084 1.26468e-17
8510.47396 1.07986e-17
8511.73690 1.02950e-17
8513.01003 1.02005e-17
8514.27297 1.09122e-17
8515.54609 1.26214e-17
8516.81922 1.30136e-17
8518.08216 1.24879e-17
8519.35528 1.31629e-17
8520.61823 1.34954e-17
8521.89135 1.15482e-17
8523.15429 1.12385e-17
8524.42742 1.30784e-17
8525.69035 1.16161e-17
8526.96348 8.84304e-18
8528.23661 7.71084e-18
8529.49954 7.33603e-18
8530.77267 7.16522e-18
8532.03561 8.24621e-18
8533.30873 1.02472e-17
8534.57167 1.09226e-17
8535.84480 1.14651e-17
8537.10774 1.29623e-17
8538.38087 1.24736e-17
8539.64380 1.01866e-17
8540.91693 8.98661e-18
8542.17987 1.11362e-17
8543.45299 1.44938e-17
8544.71594 1.43433e-17
8545.98906 1.20104e-17
8547.26218 1.11468e-17
8548.52513 1.25635e-17
8549.79825 1.47367e-17
8551.06119 1.64891e-17
8552.33432 1.58928e-17
8553.59725 1.37848e-17
8554.87038 1.30972e-17
8556.13332 1.35789e-17
8557.40644 1.41133e-17
8558.66938 1.40240e-17
8559.94251 1.41260e-17
8561.21563 1.39984e-17
8562.47858 1.30197e-17
8563.75170 1.16776e-17
8565.01464 1.10162e-17
8566.28777 1.20461e-17
8567.55070 1.43161e-17
8568.82383 1.59655e-17
8570.08677 1.46036e-17
8571.35989 1.27384e-17
8572.62284 1.47228e-17
8573.89596 1.59276e-17
8575.15890 1.37999e-17
8576.43203 1.28365e-17
8577.69496 1.29057e-17
8578.96809 1.20415e-17
8580.24121 9.44875e-18
8581.50415 9.33989e-18
8582.77728 1.20659e-17
8584.04022 1.28722e-17
8585.31335 1.18288e-17
8586.57629 1.25143e-17
8587.84941 1.38787e-17
8589.11235 1.28385e-17
8590.38547 1.10679e-17
8591.64841 1.10290e-17
8592.92154 1.11531e-17
8594.19466 1.15878e-17
8595.45760 1.39924e-17
8596.73073 1.58526e-17
8597.99367 1.77576e-17
8599.26679 1.93196e-17
8600.52973 1.67101e-17
8601.80286 1.58790e-17
8603.06580 1.77611e-17
8604.33892 1.66951e-17
8605.60187 1.59374e-17
8606.87499 1.85316e-17
8608.13793 1.87813e-17
8609.41106 1.73568e-17
8610.68418 1.84872e-17
8611.94712 1.88019e-17
8613.22025 1.56217e-17
8614.48318 1.18191e-17
8615.75631 1.20683e-17
8617.01925 1.58401e-17
8618.29237 1.46738e-17
8619.55531 1.20472e-17
8620.82844 1.54283e-17
8622.09138 1.34991e-17
8623.36450 8.57348e-18
8624.62744 1.29126e-17
8625.90057 1.74436e-17
8627.17369 1.48135e-17
8628.43663 9.64573e-18
8629.70976 5.81348e-18
8630.97270 1.20337e-17
8632.24582 1.77610e-17
8633.50877 1.21680e-17
8634.78189 1.05574e-17
8636.04483 1.71775e-17
8637.31796 1.90586e-17
8638.58089 1.69565e-17
8639.85402 1.52701e-17
8641.12715 1.46909e-17
8642.39008 1.43499e-17
8643.66321 1.50756e-17
8644.92615 1.58400e-17
8646.19927 1.43908e-17
8647.46221 1.45243e-17
8648.73534 1.80787e-17
8649.99828 2.01030e-17
8651.27140 2.10563e-17
8652.53435 2.13799e-17
8653.80747 1.98056e-17
8655.07041 1.94642e-17
8656.34353 1.92749e-17
8657.61666 1.99018e-17
8658.87960 1.96370e-17
8660.15272 1.70389e-17
8661.41567 1.96981e-17
8662.68879 2.09487e-17
8663.95173 2.25249e-17
8665.22486 2.77299e-17
8666.48779 2.87765e-17
8667.76092 2.40075e-17
8669.02386 1.86013e-17
8670.29698 1.60185e-17
8671.55992 1.80514e-17
8672.83305 2.08844e-17
8674.09599 1.90909e-17
8675.36912 1.68554e-17
8676.64224 1.73097e-17
8677.90518 1.96017e-17
8679.17830 2.26362e-17
8680.44124 2.13779e-17
8681.71437 1.76341e-17
8682.97731 1.62450e-17
8684.25043 1.82704e-17
8685.51338 1.99693e-17
8686.78650 2.23187e-17
8688.05962 2.39702e-17
8689.32256 2.10796e-17
8690.59569 1.97112e-17
8691.85863 2.09579e-17
8693.13175 2.20166e-17
8694.39469 1.97355e-17
8695.66782 1.45798e-17
8696.93076 1.46225e-17
8698.20388 1.96110e-17
8699.46682 2.11696e-17
8700.73995 2.09981e-17
8702.00289 2.17540e-17
8703.27601 2.14213e-17
8704.53895 1.93603e-17
8705.81208 2.11485e-17
8707.07502 2.39237e-17
8708.34814 2.13549e-17
8709.62127 2.04714e-17
8710.88421 2.30156e-17
8712.15733 2.37335e-17
8713.42027 2.25060e-17
8714.69340 2.29344e-17
8715.95634 2.36775e-17
8717.22946 2.42324e-17
8718.49240 2.62551e-17
8719.76553 2.73354e-17
8721.02847 2.63386e-17
8722.30160 2.42414e-17
8723.57472 2.43337e-17
8724.83766 2.64968e-17
8726.11079 2.77103e-17
8727.37372 2.95041e-17
8728.64685 3.14175e-17
8729.90979 2.94229e-17
8731.18291 2.53962e-17
8732.44585 2.43602e-17
8733.71898 2.72939e-17
8734.98192 3.07172e-17
8736.25504 3.07346e-17
8737.51798 2.75786e-17
8738.79111 2.57395e-17
8740.06423 2.72560e-17
8741.32717 2.83445e-17
8742.60030 2.75922e-17
8743.86324 2.86187e-17
8745.13637 3.05747e-17
8746.39931 3.24378e-17
8747.67243 3.55109e-17
8748.93537 3.41756e-17
8750.20850 2.96485e-17
8751.47143 3.02164e-17
8752.74456 3.19955e-17
8754.00750 2.95557e-17
8755.28062 2.70296e-17
8756.55375 2.58350e-17
8757.81669 2.60149e-17
8759.08981 2.87760e-17
8760.35275 3.12574e-17
8761.62588 2.81569e-17
8762.88882 2.96963e-17
8764.16194 4.06538e-17
8765.42488 4.66800e-17
8766.69801 4.57062e-17
8767.96095 4.46779e-17
8769.23408 4.40814e-17
8770.50720 3.85439e-17
8771.77014 3.62112e-17
8773.04327 4.67196e-17
8774.30621 5.39867e-17
8775.57933 4.85504e-17
8776.84227 4.65111e-17
8778.11539 4.91278e-17
8779.37833 4.44974e-17
8780.65146 3.57371e-17
8781.91440 3.08274e-17
8783.18752 3.11218e-17
8784.45046 3.44758e-17
8785.72359 3.58090e-17
8786.99671 3.64867e-17
8788.25965 3.79609e-17
8789.53278 3.93849e-17
8790.79572 3.98198e-17
8792.06884 3.81761e-17
8793.33179 3.28137e-17
8794.60491 2.95142e-17
8795.86785 3.38743e-17
8797.14098 3.51972e-17
8798.40391 3.13949e-17
8799.67704 3.09765e-17
8800.93998 3.48580e-17
8802.21310 3.61796e-17
8803.48623 3.26188e-17
8804.74917 3.34458e-17
8806.02229 3.63156e-17
8807.28523 3.17919e-17
8808.55836 2.68592e-17
8809.82130 2.76137e-17
8811.09442 2.98940e-17
8812.35736 3.23732e-17
8813.63049 3.22131e-17
8814.89343 3.15970e-17
8816.16655 3.19142e-17
8817.43968 3.23616e-17
8818.70262 3.34869e-17
8819.96556 3.52553e-17
8821.23869 4.01691e-17
8822.51181 4.85783e-17
8823.77475 5.08348e-17
8825.04788 4.53829e-17
8826.31081 4.62072e-17
8827.58394 5.19558e-17
8828.84688 5.35210e-17
8830.12000 5.10476e-17
8831.38294 4.23347e-17
8832.65607 3.69569e-17
8833.91901 3.96567e-17
8835.19213 4.16695e-17
8836.46526 3.95990e-17
8837.72820 3.93724e-17
8839.00133 4.05113e-17
8840.26426 3.89934e-17
8841.53739 3.60666e-17
8842.80033 3.20941e-17
8844.07345 3.18950e-17
8845.33640 3.74429e-17
8846.60952 3.89112e-17
8847.87246 3.47984e-17
8849.14559 3.29091e-17
8850.41871 3.36787e-17
8851.68165 3.49447e-17
8852.95478 3.59495e-17
8854.21771 3.49338e-17
8855.49084 3.22985e-17
8856.75378 3.14033e-17
8858.02690 3.26248e-17
8859.28985 3.30531e-17
8860.56297 3.16239e-17
8861.82591 2.79066e-17
8863.09904 2.45461e-17
8864.36197 2.63530e-17
8865.63510 2.81502e-17
8866.89804 2.69582e-17
8868.17116 2.90476e-17
8869.44429 2.89028e-17
8870.70723 2.42435e-17
8871.98035 2.52389e-17
8873.24330 3.15367e-17
8874.51642 3.41711e-17
8875.77936 3.20069e-17
8877.05248 3.08674e-17
8878.31542 3.20489e-17
8879.58855 3.33098e-17
8880.85149 3.76299e-17
8882.12462 4.23397e-17
8883.39774 4.16954e-17
8884.66068 4.02104e-17
8885.93381 4.14879e-17
8887.19674 4.57032e-17
8888.46987 4.34159e-17
8889.73281 3.38132e-17
8891.00593 2.86407e-17
8892.26887 2.60545e-17
8893.54200 2.40159e-17
8894.80494 2.68065e-17
8896.07806 3.12201e-17
8897.34100 2.75250e-17
8898.61413 1.95523e-17
8899.88725 2.02796e-17
8901.15019 3.07635e-17
8902.42332 3.87371e-17
8903.68626 3.52787e-17
8904.95938 3.16951e-17
8906.22233 3.44958e-17
8907.49545 3.57942e-17
8908.75839 3.33750e-17
8910.03152 3.05440e-17
8911.29445 2.91328e-17
8912.56758 2.47258e-17
8913.83052 2.31049e-17
8915.10364 2.79432e-17
8916.37677 3.10891e-17
8917.63971 3.09838e-17
8918.91283 3.18229e-17
8920.17577 3.41405e-17
8921.44890 3.39042e-17
8922.71184 3.97443e-17
8923.98496 4.51794e-17
8925.24790 3.47835e-17
8926.52103 2.53075e-17
8927.78397 2.58886e-17
8929.05710 2.72666e-17
8930.33022 2.79559e-17
8931.59316 3.03253e-17
8932.86629 2.97619e-17
8934.12923 2.76057e-17
8935.40235 2.86484e-17
8936.66529 2.94821e-17
8937.93842 2.71583e-17
8939.20135 2.56624e-17
8940.47448 2.61068e-17
8941.73742 2.82946e-17
8943.01054 3.21690e-17
8944.27348 3.08205e-17
8945.54661 2.66440e-17
8946.80955 2.91791e-17
8948.08267 3.04936e-17
8949.35580 2.73679e-17
8950.61874 3.41764e-17
8951.89187 4.34829e-17
8953.15481 4.17614e-17
8954.42793 3.74937e-17
8955.69087 3.79757e-17
8956.96400 4.07870e-17
8958.22694 3.97847e-17
8959.50006 3.80127e-17
8960.76300 3.91742e-17
8962.03613 3.11138e-17
8963.30925 2.46208e-17
8964.57219 2.78274e-17
8965.84531 3.08902e-17
8967.10825 3.01138e-17
8968.38138 3.02489e-17
8969.64432 3.61839e-17
8970.91744 3.63472e-17
8972.18038 3.17435e-17
8973.45351 3.11775e-17
8974.71645 3.15699e-17
8975.98957 3.27079e-17
8977.26270 3.54619e-17
8978.52564 3.53982e-17
8979.78858 3.16818e-17
8981.06171 3.18031e-17
8982.33483 3.24445e-17
8983.59777 3.00483e-17
8984.87090 3.17203e-17
8986.13383 3.61112e-17
8987.40696 3.84440e-17
8988.66990 3.31142e-17
8989.94302 3.06406e-17
8991.20596 3.37536e-17
8992.47909 3.29386e-17
8993.74203 3.17407e-17
8995.01515 2.69827e-17
8996.28828 2.63427e-17
8997.55122 3.19475e-17
8998.82435 3.56715e-17
9000.08728 3.18707e-17
