# wavelength flux
3890.00096 2.04813e-18
3891.00086 2.04800e-18
3892.00076 2.04787e-18
3893.00066 2.04774e-18
3894.00056 2.04761e-18
3895.00046 2.23162e-18
3896.00036 2.04734e-18
3897.00026 1.43328e-18
3898.00016 1.43589e-18
3899.00006 1.43580e-18
3899.99996 1.92772e-18
3900.99986 2.23076e-18
3901.99976 2.47575e-18
3902.99966 1.92735e-18
3903.99956 1.92723e-18
3904.99946 2.75722e-18
3905.99936 2.75705e-18
3906.99926 3.13829e-18
3907.99916 3.19919e-18
3908.99906 3.13790e-18
3909.99896 3.19878e-18
3910.99886 3.42906e-18
3911.99876 3.45587e-18
3912.99866 3.95967e-18
3913.99856 3.95942e-18
3914.99846 3.71484e-18
3915.99836 3.95892e-18
3916.99826 3.95867e-18
3917.99816 3.89080e-18
3918.99806 4.04495e-18
3919.99796 4.40089e-18
3920.99786 4.04444e-18
3921.99776 4.04419e-18
3922.99766 4.04394e-18
3923.99756 3.88934e-18
3924.99746 3.71251e-18
3925.99736 3.69836e-18
3926.99726 3.35800e-18
3927.99716 3.33156e-18
3928.99706 3.33135e-18
3929.99696 3.04797e-18
3930.99686 3.04778e-18
3931.99676 2.69124e-18
3932.99666 2.36394e-18
3933.99656 2.69091e-18
3934.99646 2.36365e-18
3935.99636 2.36350e-18
3936.99626 2.35284e-18
3937.99616 2.25638e-18
3938.99606 2.20790e-18
3939.99596 2.25610e-18
3940.99586 2.25596e-18
3941.99576 2.20750e-18
3942.99566 2.20736e-18
3943.99556 2.20723e-18
3944.99546 2.20709e-18
3945.99536 2.08430e-18
3946.99526 2.25513e-18
3948.00516 2.29277e-18
3949.00506 2.08392e-18
3950.00496 2.08379e-18
3951.00486 1.93301e-18
3952.00476 1.91657e-18
3953.00466 1.93277e-18
3954.00456 2.14280e-18
3955.00446 2.09553e-18
3956.00436 2.09541e-18
3957.00426 2.09528e-18
3958.00416 1.93219e-18
3959.00406 1.95242e-18
3960.00396 1.95230e-18
3961.00386 2.09477e-18
3962.00376 2.09465e-18
3963.00366 2.09889e-18
3964.00356 2.01910e-18
3965.00346 2.01898e-18
3966.00336 1.95160e-18
3967.00326 2.01873e-18
3968.00316 2.26281e-18
3969.00306 2.26267e-18
3970.00296 2.01837e-18
3971.00286 1.03517e-18
3972.00276 1.03511e-18
3973.00266 1.03505e-18
3974.00256 1.06833e-18
3975.00246 1.28797e-18
3976.00236 1.82671e-18
3977.00226 1.82660e-18
3978.00216 1.28774e-18
3979.00206 1.22455e-18
3980.00196 1.22448e-18
3981.00186 1.22441e-18
3982.00176 1.28743e-18
3983.00166 1.82594e-18
3984.00156 2.04180e-18
3985.00146 1.92829e-18
3986.00136 1.68009e-18
3987.00126 1.47552e-18
3988.00116 1.22390e-18
3989.00106 1.16254e-18
3990.00096 1.65494e-18
3991.00086 1.79465e-18
3992.00076 1.92749e-18
3993.00066 1.92738e-18
3994.00056 1.79433e-18
3995.00046 1.65445e-18
3996.00036 1.65436e-18
3997.00026 1.65426e-18
3998.00016 1.79391e-18
3999.00006 2.49468e-18
3999.99996 2.51384e-18
4000.99986 2.51369e-18
4001.99976 2.51354e-18
4002.99966 2.51339e-18
4003.99956 2.66595e-18
4004.99946 2.63710e-18
4005.99936 2.63694e-18
4006.99926 2.63679e-18
4007.99916 2.63663e-18
4008.99906 2.36031e-18
4009.99896 2.71928e-18
4010.99886 2.71912e-18
4011.99876 2.71896e-18
4012.99866 2.71880e-18
4013.99856 3.00165e-18
4014.99846 3.17411e-18
4015.99836 3.28520e-18
4016.99826 3.28500e-18
4017.99816 3.34196e-18
4018.99806 3.44278e-18
4019.99796 3.44258e-18
4020.99786 3.52898e-18
4021.99776 3.52878e-18
4022.99766 3.52857e-18
4023.99756 3.55313e-18
4024.99746 3.71145e-18
4025.99736 4.23070e-18
4026.99726 4.29882e-18
4027.99716 4.29857e-18
4028.99706 4.35407e-18
4029.99696 4.41334e-18
4030.99686 4.35357e-18
4031.99676 4.40643e-18
4032.99666 4.41257e-18
4033.99656 4.40591e-18
4034.99646 4.40566e-18
4035.99636 4.40540e-18
4036.99626 4.38772e-18
4037.99616 4.16628e-18
4038.99606 4.38721e-18
4039.99596 4.38696e-18
4040.99586 4.40412e-18
4041.99576 4.40387e-18
4042.99566 4.53256e-18
4043.99556 4.46112e-18
4044.99546 4.46086e-18
4045.99536 4.46060e-18
4046.99526 4.61229e-18
4048.00516 4.65179e-18
4049.00506 4.65152e-18
4050.00496 4.88251e-18
4051.00486 4.88222e-18
4052.00476 4.67593e-18
4053.00466 4.58449e-18
4054.00456 4.67539e-18
4055.00446 4.58396e-18
4056.00436 4.70338e-18
4057.00426 5.01768e-18
4058.00416 5.01739e-18
4059.00406 4.70256e-18
4060.00396 5.01681e-18
4061.00386 5.04948e-18
4062.00376 5.17874e-18
4063.00366 5.17844e-18
4064.00356 5.08350e-18
4065.00346 5.08321e-18
4066.00336 5.06901e-18
4067.00326 5.06872e-18
4068.00316 5.50530e-18
4069.00306 5.50498e-18
4070.00296 5.54699e-18
4071.00286 5.54667e-18
4072.00276 5.08116e-18
4073.00266 5.08087e-18
4074.00256 5.67535e-18
4075.00246 5.63523e-18
4076.00236 5.63490e-18
4077.00226 5.63458e-18
4078.00216 5.63425e-18
4079.00206 4.94625e-18
4080.00196 4.88401e-18
4081.00186 4.88373e-18
4082.00176 4.88345e-18
4083.00166 4.84459e-18
4084.00156 4.84431e-18
4085.00146 4.82460e-18
4086.00136 4.51916e-18
4087.00126 4.37429e-18
4088.00116 4.28950e-18
4089.00106 4.37379e-18
4090.00096 4.28901e-18
4091.00086 4.42716e-18
4092.00076 4.56837e-18
4093.00066 4.42665e-18
4094.00056 4.37253e-18
4095.00046 4.37228e-18
4096.00036 4.28753e-18
4097.00026 4.12264e-18
4098.00016 3.84765e-18
4099.00006 3.76773e-18
4099.99996 3.84720e-18
4100.99986 3.84698e-18
4101.99976 3.84676e-18
4102.99966 3.84654e-18
4103.99956 3.84632e-18
4104.99946 3.76643e-18
4105.99936 4.33453e-18
4106.99926 4.33428e-18
4107.99916 4.33403e-18
4108.99906 4.33379e-18
4109.99896 4.33354e-18
4110.99886 3.88020e-18
4111.99876 4.36701e-18
4112.99866 4.12171e-18
4113.99856 3.87953e-18
4114.99846 3.66721e-18
4115.99836 3.34072e-18
4116.99826 3.33834e-18
4117.99816 3.24063e-18
4118.99806 3.24044e-18
4119.99796 3.24026e-18
4120.99786 3.33757e-18
4121.99776 3.33957e-18
4122.99766 3.33719e-18
4123.99756 3.33699e-18
4124.99746 3.33680e-18
4125.99736 3.28827e-18
4126.99726 3.28808e-18
4127.99716 3.67991e-18
4128.99706 4.00914e-18
4129.99696 4.00891e-18
4130.99686 4.35513e-18
4131.99676 4.37123e-18
4132.99666 4.50654e-18
4133.99656 4.50628e-18
4134.99646 4.50602e-18
4135.99636 4.72906e-18
4136.99626 4.79022e-18
4137.99616 4.64954e-18
4138.99606 4.64927e-18
4139.99596 4.64900e-18
4140.99586 4.64874e-18
4141.99576 4.60204e-18
4142.99566 4.41581e-18
4143.99556 4.41555e-18
4144.99546 4.19995e-18
4145.99536 4.19971e-18
4147.00526 3.93771e-18
4148.00516 4.16343e-18
4149.00506 3.99850e-18
4150.00496 3.93703e-18
4151.00486 3.93545e-18
4152.00476 3.92421e-18
4153.00466 3.80284e-18
4154.00456 3.72443e-18
4155.00446 3.72421e-18
4156.00436 3.16819e-18
4157.00426 3.47918e-18
4158.00416 3.32571e-18
4159.00406 3.16764e-18
4160.00396 3.03120e-18
4161.00386 2.93881e-18
4162.00376 2.93864e-18
4163.00366 2.93847e-18
4164.00356 3.02345e-18
4165.00346 3.29028e-18
4166.00336 3.32417e-18
4167.00326 3.29295e-18
4168.00316 3.28971e-18
4169.00306 3.04980e-18
4170.00296 3.04963e-18
4171.00286 3.04945e-18
4172.00276 3.04927e-18
4173.00266 2.73903e-18
4174.00256 2.97369e-18
4175.00246 2.97352e-18
4176.00236 2.87167e-18
4177.00226 2.87150e-18
4178.00216 2.87133e-18
4179.00206 2.73808e-18
4180.00196 2.58319e-18
4181.00186 2.58304e-18
4182.00176 2.87066e-18
4183.00166 2.91033e-18
4184.00156 2.96909e-18
4185.00146 2.96891e-18
4186.00136 2.96874e-18
4187.00126 2.96857e-18
4188.00116 2.92919e-18
4189.00106 2.90931e-18
4190.00096 2.56166e-18
4191.00086 2.56151e-18
4192.00076 2.80309e-18
4193.00066 2.80293e-18
4194.00056 2.44247e-18
4195.00046 2.44233e-18
4196.00036 2.26897e-18
4197.00026 2.21679e-18
4198.00016 2.21666e-18
4199.00006 2.12208e-18
4199.99996 2.12195e-18
4200.99986 2.10238e-18
4201.99976 2.10225e-18
4202.99966 2.06996e-18
4203.99956 1.82526e-18
4204.99946 1.82515e-18
4205.99936 1.78301e-18
4206.99926 1.60635e-18
4207.99916 1.45367e-18
4208.99906 1.45600e-18
4209.99896 1.45592e-18
4210.99886 1.45583e-18
4211.99876 1.45333e-18
4212.99866 1.45151e-18
4213.99856 1.36328e-18
4214.99846 1.36320e-18
4215.99836 1.44911e-18
4216.99826 1.45532e-18
4217.99816 1.52370e-18
4218.99806 1.56605e-18
4219.99796 1.64346e-18
4220.99786 1.56587e-18
4221.99776 1.52334e-18
4222.99766 1.64317e-18
4223.99756 1.64797e-18
4224.99746 1.64788e-18
4225.99736 1.65521e-18
4226.99726 1.70166e-18
4227.99716 1.70156e-18
4228.99706 1.64749e-18
4229.99696 1.64739e-18
4230.99686 1.63572e-18
4231.99676 1.63562e-18
4232.99666 1.86608e-18
4233.99656 1.87703e-18
4234.99646 1.87692e-18
4235.99636 2.10132e-18
4236.99626 2.10119e-18
4237.99616 1.87658e-18
4238.99606 2.03915e-18
4239.99596 2.10082e-18
4240.99586 2.25681e-18
4241.99576 2.29528e-18
4242.99566 2.29514e-18
4243.99556 2.39565e-18
4244.99546 2.41316e-18
4245.99536 2.41302e-18
4246.99526 2.41287e-18
4247.99516 2.41273e-18
4248.99506 2.31581e-18
4250.00496 2.35959e-18
4251.00486 2.35945e-18
4252.00476 2.35931e-18
4253.00466 2.31526e-18
4254.00456 2.57217e-18
4255.00446 2.70072e-18
4256.00436 2.70056e-18
4257.00426 2.70040e-18
4258.00416 2.70024e-18
4259.00406 2.36174e-18
4260.00396 2.69992e-18
4261.00386 2.92095e-18
4262.00376 2.86261e-18
4263.00366 2.86244e-18
4264.00356 2.86227e-18
4265.00346 2.86210e-18
4266.00336 2.64520e-18
4267.00326 2.91990e-18
4268.00316 2.91972e-18
4269.00306 2.91955e-18
4270.00296 2.91937e-18
4271.00286 2.91919e-18
4272.00276 2.64425e-18
4273.00266 3.04624e-18
4274.00256 3.29032e-18
4275.00246 3.29012e-18
4276.00236 3.48155e-18
4277.00226 3.48134e-18
4278.00216 3.48112e-18
4279.00206 3.68906e-18
4280.00196 3.68884e-18
4281.00186 3.71504e-18
4282.00176 3.90326e-18
4283.00166 3.90303e-18
4284.00156 3.84707e-18
4285.00146 3.84684e-18
4286.00136 3.76086e-18
4287.00126 3.84637e-18
4288.00116 4.11249e-18
4289.00106 4.12536e-18
4290.00096 4.12511e-18
4291.00086 3.84543e-18
4292.00076 3.66492e-18
4293.00066 3.60525e-18
4294.00056 3.66447e-18
4295.00046 3.57961e-18
4296.00036 3.57939e-18
4297.00026 3.57917e-18
4298.00016 3.56185e-18
4299.00006 3.56164e-18
4299.99996 3.60371e-18
4300.99986 3.57830e-18
4301.99976 3.51972e-18
4302.99966 3.50206e-18
4303.99956 3.45139e-18
4304.99946 3.45118e-18
4305.99936 3.56011e-18
4306.99926 3.59743e-18
4307.99916 3.64028e-18
4308.99906 3.64006e-18
4309.99896 3.63984e-18
4310.99886 3.59654e-18
4311.99876 3.70779e-18
4312.99866 3.70757e-18
4313.99856 3.70734e-18
4314.99846 3.70711e-18
4315.99836 3.70688e-18
4316.99826 3.65227e-18
4317.99816 3.65205e-18
4318.99806 3.80361e-18
4319.99796 3.65159e-18
4320.99786 3.49474e-18
4321.99776 3.36561e-18
4322.99766 3.31628e-18
4323.99756 3.23940e-18
4324.99746 3.23919e-18
4325.99736 3.23899e-18
4326.99726 3.36457e-18
4327.99716 3.40912e-18
4328.99706 3.44913e-18
4329.99696 3.40870e-18
4330.99686 3.33831e-18
4331.99676 3.20763e-18
4332.99666 3.44827e-18
4333.99656 3.44806e-18
4334.99646 3.62643e-18
4335.99636 3.77452e-18
4336.99626 3.77429e-18
4337.99616 3.86441e-18
4338.99606 3.86416e-18
4339.99596 3.86392e-18
4340.99586 4.03308e-18
4341.99576 4.03283e-18
4342.99566 4.13398e-18
4343.99556 4.25668e-18
4344.99546 4.25642e-18
4345.99536 4.25615e-18
4347.00526 4.27387e-18
4348.00516 4.45592e-18
4349.00506 4.67937e-18
4350.00496 4.80929e-18
4351.00486 4.87263e-18
4352.00476 4.67849e-18
4353.00466 4.57108e-18
4354.00456 4.48306e-18
4355.00446 4.33945e-18
4356.00436 4.33917e-18
4357.00426 4.33890e-18
4358.00416 4.33863e-18
4359.00406 4.08728e-18
4360.00396 4.22525e-18
4361.00386 4.08676e-18
4362.00376 3.97557e-18
4363.00366 3.44403e-18
4364.00356 3.44381e-18
4365.00346 3.35290e-18
4366.00336 3.44338e-18
4367.00326 3.58450e-18
4368.00316 3.58427e-18
4369.00306 3.53186e-18
4370.00296 3.53164e-18
4371.00286 3.44229e-18
4372.00276 3.44207e-18
4373.00266 3.35844e-18
4374.00256 3.46808e-18
4375.00246 3.35802e-18
4376.00236 3.31998e-18
4377.00226 3.01515e-18
4378.00216 3.00599e-18
4379.00206 2.96036e-18
4380.00196 2.96017e-18
4381.00186 2.95998e-18
4382.00176 2.95979e-18
4383.00166 2.95960e-18
4384.00156 2.82409e-18
4385.00146 2.82391e-18
4386.00136 2.85962e-18
4387.00126 2.86706e-18
4388.00116 2.95866e-18
4389.00106 3.04782e-18
4390.00096 3.11217e-18
4391.00086 3.04743e-18
4392.00076 3.04723e-18
4393.00066 3.02045e-18
4394.00056 3.02025e-18
4395.00046 3.02006e-18
4396.00036 3.11097e-18
4397.00026 3.10561e-18
4398.00016 2.95220e-18
4399.00006 2.95201e-18
4399.99996 3.01057e-18
4400.99986 2.95163e-18
4401.99976 3.01870e-18
4402.99966 3.10441e-18
4403.99956 3.10421e-18
4404.99946 3.01869e-18
4405.99936 3.10381e-18
4406.99926 3.30937e-18
4407.99916 3.49180e-18
4408.99906 3.49157e-18
4409.99896 3.30873e-18
4410.99886 3.23786e-18
4411.99876 3.23765e-18
4412.99866 3.23744e-18
4413.99856 3.18017e-18
4414.99846 3.17997e-18
4415.99836 3.11895e-18
4416.99826 3.11875e-18
4417.99816 3.17935e-18
4418.99806 3.18213e-18
4419.99796 3.18192e-18
4420.99786 3.11794e-18
4421.99776 3.09519e-18
4422.99766 3.02383e-18
4423.99756 3.00412e-18
4424.99746 2.48548e-18
4425.99736 2.48532e-18
4426.99726 2.41984e-18
4427.99716 2.41968e-18
4428.99706 2.46274e-18
4429.99696 2.46258e-18
4430.99686 2.46242e-18
4431.99676 2.48435e-18
4432.99666 2.46210e-18
4433.99656 2.66982e-18
4434.99646 2.66964e-18
4435.99636 2.87708e-18
4436.99626 2.91356e-18
4437.99616 3.12543e-18
4438.99606 3.41636e-18
4439.99596 3.12502e-18
4440.99586 3.06687e-18
4441.99576 2.94206e-18
4442.99566 2.94186e-18
4443.99556 2.99230e-18
4444.99546 2.99211e-18
4445.99536 3.06587e-18
4446.99526 2.99171e-18
4447.99516 2.93367e-18
4448.99506 2.29999e-18
4450.00495 2.53063e-18
4451.00486 2.53047e-18
4452.00475 2.53030e-18
4453.00465 2.53013e-18
4454.00455 2.52997e-18
4455.00446 2.29908e-18
4456.00436 2.52963e-18
4457.00425 2.67157e-18
4458.00415 2.94866e-18
4459.00405 3.21365e-18
4460.00396 3.31060e-18
4461.00385 3.31038e-18
4462.00375 3.48916e-18
4463.00365 3.71210e-18
4464.00356 3.79228e-18
4465.00346 3.80467e-18
4466.00335 3.79177e-18
4467.00325 3.79152e-18
4468.00315 3.66462e-18
4469.00306 3.66437e-18
4470.00295 3.60432e-18
4471.00285 3.47554e-18
4472.00275 3.47530e-18
4473.00266 3.40340e-18
4474.00256 3.39914e-18
4475.00245 3.39892e-18
4476.00235 3.39869e-18
4477.00225 3.38574e-18
4478.00216 3.27806e-18
4479.00205 3.27785e-18
4480.00195 3.27763e-18
4481.00185 3.38432e-18
4482.00176 3.38461e-18
4483.00166 3.46112e-18
4484.00155 3.46088e-18
4485.00145 3.52750e-18
4486.00135 3.52726e-18
4487.00126 3.38296e-18
4488.00115 3.38273e-18
4489.00105 3.38251e-18
4490.00095 3.29695e-18
4491.00086 3.38205e-18
4492.00076 3.68057e-18
4493.00065 4.00024e-18
4494.00055 3.99997e-18
4495.00045 3.99573e-18
4496.00036 3.29562e-18
4497.00025 3.99520e-18
4498.00015 4.00466e-18
4499.00005 4.14946e-18
4499.99996 4.33670e-18
4500.99986 4.43050e-18
4501.99975 4.33611e-18
4502.99965 4.30038e-18
4503.99955 4.13644e-18
4504.99946 4.04035e-18
4505.99935 4.13589e-18
4506.99925 4.42870e-18
4507.99915 4.42840e-18
4508.99906 4.42810e-18
4509.99896 4.83053e-18
4510.99885 4.83021e-18
4511.99875 4.33932e-18
4512.99865 4.92772e-18
4513.99856 4.94201e-18
4514.99845 4.98795e-18
4515.99835 4.94134e-18
4516.99825 4.98727e-18
4517.99816 5.02135e-18
4518.99806 5.02101e-18
4519.99795 5.12536e-18
4520.99785 5.42002e-18
4521.99775 5.45137e-18
4522.99766 5.48408e-18
4523.99755 5.41891e-18
4524.99745 5.48333e-18
4525.99735 5.52547e-18
4526.99726 5.53798e-18
4527.99716 5.54099e-18
4528.99705 5.68858e-18
4529.99695 5.77300e-18
4530.99685 5.86371e-18
4531.99676 5.86331e-18
4532.99665 5.77182e-18
4533.99655 5.86250e-18
4534.99645 6.27120e-18
4535.99636 6.32530e-18
4536.99626 6.37501e-18
4537.99615 6.67005e-18
4538.99605 6.66959e-18
4539.99596 6.76513e-18
4540.99586 6.98836e-18
4541.99575 6.98788e-18
4542.99565 7.01201e-18
4543.99555 7.08842e-18
4544.99546 7.10887e-18
4545.99536 7.10838e-18
4546.99525 7.10789e-18
4548.00515 7.00960e-18
4549.00505 6.98213e-18
4550.00495 6.98165e-18
4551.00485 6.98116e-18
4552.00475 6.96824e-18
4553.00465 6.96776e-18
4554.00455 6.96728e-18
4555.00445 6.93138e-18
4556.00435 6.96631e-18
4557.00425 6.97913e-18
4558.00415 6.97864e-18
4559.00405 7.16149e-18
4560.00395 7.16099e-18
4561.00385 7.36437e-18
4562.00375 7.37250e-18
4563.00365 7.71605e-18
4564.00355 7.59950e-18
4565.00345 7.71498e-18
4566.00335 7.72422e-18
4567.00325 7.78305e-18
4568.00315 7.86869e-18
4569.00305 7.93518e-18
4570.00295 7.86760e-18
4571.00285 7.93408e-18
4572.00275 7.97944e-18
4573.00265 8.21538e-18
4574.00255 8.22168e-18
4575.00245 8.22110e-18
4576.00235 8.50223e-18
4577.00225 8.50164e-18
4578.00215 8.72346e-18
4579.00205 8.84901e-18
4580.00195 9.25400e-18
4581.00185 9.25336e-18
4582.00175 9.42630e-18
4583.00165 9.71694e-18
4584.00155 9.71626e-18
4585.00145 9.71558e-18
4586.00135 9.71490e-18
4587.00125 9.71423e-18
4588.00115 9.42649e-18
4589.00105 9.42583e-18
4590.00095 8.86491e-18
4591.00085 9.23556e-18
4592.00075 9.23491e-18
4593.00065 8.86305e-18
4594.00055 8.78022e-18
4595.00045 8.77961e-18
4596.00035 8.58458e-18
4597.00025 8.58398e-18
4598.00015 8.97584e-18
4599.00005 8.97521e-18
4599.99995 8.77654e-18
4600.99985 8.77592e-18
4601.99975 8.57291e-18
4602.99965 8.57231e-18
4603.99955 8.83491e-18
4604.99945 8.83429e-18
4605.99935 8.59813e-18
4606.99925 8.56991e-18
4607.99915 8.52010e-18
4608.99905 8.44427e-18
4609.99895 8.44367e-18
4610.99885 8.59511e-18
4611.99875 8.61083e-18
4612.99865 8.61023e-18
4613.99855 8.60962e-18
4614.99845 8.59269e-18
4615.99835 8.44011e-18
4616.99825 8.60684e-18
4617.99815 8.60624e-18
4618.99805 8.60563e-18
4619.99795 8.75545e-18
4620.99785 8.74361e-18
4621.99775 8.53543e-18
4622.99765 8.35457e-18
4623.99755 8.31232e-18
4624.99745 8.31173e-18
4625.99735 8.36241e-18
4626.99725 8.38243e-18
4627.99715 8.36123e-18
4628.99705 8.22639e-18
4629.99695 8.01855e-18
4630.99685 8.01798e-18
4631.99675 8.01742e-18
4632.99665 8.03231e-18
4633.99655 8.13468e-18
4634.99645 8.03117e-18
4635.99635 7.96694e-18
4636.99625 7.91656e-18
4637.99615 7.86519e-18
4638.99605 7.91544e-18
4639.99595 7.96468e-18
4640.99585 7.96412e-18
4641.99575 7.96355e-18
4642.99565 8.02662e-18
4643.99555 7.86184e-18
4644.99545 8.25790e-18
4645.99535 8.66184e-18
4646.99525 8.99991e-18
4647.99515 9.04076e-18
4648.99505 9.22769e-18
4650.00495 9.22703e-18
4651.00485 9.16143e-18
4652.00475 9.12725e-18
4653.00465 9.03755e-18
4654.00455 9.03691e-18
4655.00445 9.53292e-18
4656.00435 9.53224e-18
4657.00425 9.15752e-18
4658.00415 9.10677e-18
4659.00405 8.87150e-18
4660.00395 8.86452e-18
4661.00385 8.75231e-18
4662.00375 8.53539e-18
4663.00365 8.27895e-18
4664.00355 8.12477e-18
4665.00345 8.12419e-18
4666.00335 8.00818e-18
4667.00325 7.99510e-18
4668.00315 7.84968e-18
4669.00305 7.74015e-18
4670.00295 7.84856e-18
4671.00285 7.73904e-18
4672.00275 7.48752e-18
4673.00265 7.48698e-18
4674.00255 7.40132e-18
4675.00245 7.16640e-18
4676.00235 7.10432e-18
4677.00225 6.54947e-18
4678.00215 6.91934e-18
4679.00205 6.91885e-18
4680.00195 6.91835e-18
4681.00185 6.85876e-18
4682.00175 6.85827e-18
4683.00165 6.54666e-18
4684.00155 6.85729e-18
4685.00145 6.85679e-18
4686.00135 6.91538e-18
4687.00125 6.85581e-18
4688.00115 6.85532e-18
4689.00105 6.55818e-18
4690.00095 6.39574e-18
4691.00085 6.39528e-18
4692.00075 5.91189e-18
4693.00065 5.71405e-18
4694.00055 5.69178e-18
4695.00045 5.49992e-18
4696.00035 5.63873e-18
4697.00025 5.49913e-18
4698.00015 5.31651e-18
4699.00005 5.19853e-18
4699.99995 5.15809e-18
4700.99985 5.00244e-18
4701.99975 4.77878e-18
4702.99965 4.47686e-18
4703.99955 4.03795e-18
4704.99945 4.02706e-18
4705.99935 4.02677e-18
4706.99925 3.96860e-18
4707.99915 3.83145e-18
4708.99905 3.73009e-18
4709.99895 3.72982e-18
4710.99885 3.72955e-18
4711.99875 3.72929e-18
4712.99865 3.71422e-18
4713.99855 3.65768e-18
4714.99845 3.63531e-18
4715.99835 3.35827e-18
4716.99825 2.96662e-18
4717.99815 2.83120e-18
4718.99805 2.83099e-18
4719.99795 2.62693e-18
4720.99785 2.57322e-18
4721.99775 2.57304e-18
4722.99765 2.57285e-18
4723.99755 2.57267e-18
4724.99745 2.47471e-18
4725.99735 2.57230e-18
4726.99725 2.57211e-18
4727.99715 2.57193e-18
4728.99705 2.73307e-18
4729.99695 2.99261e-18
4730.99685 2.99240e-18
4731.99675 3.13338e-18
4732.99665 3.31110e-18
4733.99655 3.61165e-18
4734.99645 3.73279e-18
4735.99635 3.77404e-18
4736.99625 3.77377e-18
4737.99615 3.83630e-18
4738.99605 4.19409e-18
4739.99595 4.32602e-18
4740.99585 4.32570e-18
4741.99575 4.34278e-18
4742.99565 4.45969e-18
4743.99555 4.45937e-18
4744.99545 4.76787e-18
4745.99535 5.11691e-18
4746.99525 5.23353e-18
4748.00515 5.41313e-18
4749.00505 5.41274e-18
4750.00495 5.44059e-18
4751.00485 5.44020e-18
4752.00475 5.43981e-18
4753.00465 5.43941e-18
4754.00455 5.62913e-18
4755.00445 5.75421e-18
4756.00435 5.76830e-18
4757.00425 6.05148e-18
4758.00415 5.76747e-18
4759.00405 6.15947e-18
4760.00395 6.26311e-18
4761.00385 6.39692e-18
4762.00375 6.61008e-18
4763.00365 6.84842e-18
4764.00355 6.84793e-18
4765.00345 6.88358e-18
4766.00335 7.02579e-18
4767.00325 7.07608e-18
4768.00315 7.07557e-18
4769.00305 7.03878e-18
4770.00295 7.03827e-18
4771.00285 7.02325e-18
4772.00275 7.03725e-18
4773.00265 7.03674e-18
4774.00255 7.19723e-18
4775.00245 7.19671e-18
4776.00235 7.19619e-18
4777.00225 7.19858e-18
4778.00215 7.19806e-18
4779.00205 7.21199e-18
4780.00195 7.21147e-18
4781.00185 7.21095e-18
4782.00175 7.18738e-18
4783.00165 7.18686e-18
4784.00155 7.19494e-18
4785.00145 7.20886e-18
4786.00135 7.20834e-18
4787.00125 7.34629e-18
4788.00115 7.34576e-18
4789.00105 7.34522e-18
4790.00095 7.34469e-18
4791.00085 7.49770e-18
4792.00075 7.47775e-18
4793.00065 7.49661e-18
4794.00055 7.58015e-18
4795.00045 7.67059e-18
4796.00035 7.72545e-18
4797.00025 7.84371e-18
4798.00015 7.84315e-18
4799.00005 7.79867e-18
4799.99995 7.99444e-18
4800.99985 8.26654e-18
4801.99975 8.12969e-18
4802.99965 8.12910e-18
4803.99955 8.12852e-18
4804.99945 8.08091e-18
4805.99935 8.08032e-18
4806.99925 8.19310e-18
4807.99915 8.20375e-18
4808.99905 8.19191e-18
4809.99895 8.19132e-18
4810.99885 8.06129e-18
4811.99875 8.02605e-18
4812.99865 7.87785e-18
4813.99855 7.87728e-18
4814.99845 7.87671e-18
4815.99835 7.84790e-18
4816.99825 7.77307e-18
4817.99815 7.77251e-18
4818.99805 7.41894e-18
4819.99795 7.36099e-18
4820.99785 7.36046e-18
4821.99775 7.35993e-18
4822.99765 7.12163e-18
4823.99755 7.12112e-18
4824.99745 7.00526e-18
4825.99735 6.81585e-18
4826.99725 6.68294e-18
4827.99715 6.53377e-18
4828.99705 6.68197e-18
4829.99695 6.68149e-18
4830.99685 6.60199e-18
4831.99675 6.53187e-18
4832.99665 6.44645e-18
4833.99655 6.44598e-18
4834.99645 6.44552e-18
4835.99635 6.45460e-18
4836.99625 6.59912e-18
4837.99615 6.61404e-18
4838.99605 6.61357e-18
4839.99595 6.61309e-18
4840.99585 6.85404e-18
4841.99575 7.09559e-18
4842.99565 7.09508e-18
4843.99555 7.23137e-18
4844.99545 7.37709e-18
4845.99535 7.37655e-18
4846.99525 7.49146e-18
4847.99515 7.70778e-18
4848.99505 7.76586e-18
4850.00495 7.99025e-18
4851.00485 7.98967e-18
4852.00475 7.98909e-18
4853.00465 8.13065e-18
4854.00455 8.16291e-18
4855.00445 8.22820e-18
4856.00435 8.22760e-18
4857.00425 8.23102e-18
4858.00415 8.21387e-18
4859.00405 8.15995e-18
4860.00395 7.81011e-18
4861.00385 7.80954e-18
4862.00375 8.22804e-18
4863.00365 8.35807e-18
4864.00355 8.50754e-18
4865.00345 8.50693e-18
4866.00335 8.20517e-18
4867.00325 8.11358e-18
4868.00315 8.11300e-18
4869.00305 8.20339e-18
4870.00295 8.41137e-18
4871.00285 8.53745e-18
4872.00275 8.80327e-18
4873.00265 8.80264e-18
4874.00255 8.40893e-18
4875.00245 8.34247e-18
4876.00235 8.34187e-18
4877.00225 8.40711e-18
4878.00215 8.53314e-18
4879.00205 8.92226e-18
4880.00195 8.56328e-18
4881.00185 8.53129e-18
4882.00175 8.33526e-18
4883.00165 8.33466e-18
4884.00155 8.27010e-18
4885.00145 8.33345e-18
4886.00135 8.33431e-18
4887.00125 8.33225e-18
4888.00115 8.26772e-18
4889.00105 8.10593e-18
4890.00095 8.04755e-18
4891.00085 8.05063e-18
4892.00075 8.10418e-18
4893.00065 8.10711e-18
4894.00055 8.10652e-18
4895.00045 8.10594e-18
4896.00035 8.10535e-18
4897.00025 8.04714e-18
4898.00015 8.01078e-18
4899.00005 8.01020e-18
4899.99995 8.00962e-18
4900.99985 8.00905e-18
4901.99975 7.75112e-18
4902.99965 7.75056e-18
4903.99955 7.75000e-18
4904.99945 7.74944e-18
4905.99935 7.74888e-18
4906.99925 7.71036e-18
4907.99915 7.70980e-18
4908.99905 7.47183e-18
4909.99895 7.51029e-18
4910.99885 7.74609e-18
4911.99875 7.74554e-18
4912.99865 7.75857e-18
4913.99855 7.75801e-18
4914.99845 7.38082e-18
4915.99835 7.31401e-18
4916.99825 6.64599e-18
4917.99815 6.96590e-18
4918.99805 6.96540e-18
4919.99795 6.96489e-18
4920.99785 6.96439e-18
4921.99775 6.96389e-18
4922.99765 6.64312e-18
4923.99755 6.90693e-18
4924.99745 6.96239e-18
4925.99735 7.00533e-18
4926.99725 7.25318e-18
4927.99715 7.37607e-18
4928.99705 7.37726e-18
4929.99695 7.37673e-18
4930.99685 7.37620e-18
4931.99675 7.47643e-18
4932.99665 7.47590e-18
4933.99655 7.50798e-18
4934.99645 7.57144e-18
4935.99635 7.57089e-18
4936.99625 7.75171e-18
4937.99615 8.09395e-18
4938.99605 8.09337e-18
4939.99595 8.09279e-18
4940.99585 8.15541e-18
4941.99575 8.15483e-18
4942.99565 8.65674e-18
4943.99555 8.70808e-18
4944.99545 8.81679e-18
4945.99535 8.81616e-18
4946.99525 8.82494e-18
4948.00515 9.10806e-18
4949.00505 9.10741e-18
4950.00495 9.39454e-18
4951.00485 9.70353e-18
4952.00475 9.76887e-18
4953.00465 9.93210e-18
4954.00455 1.00502e-17
4955.00445 1.00151e-17
4956.00435 9.92997e-18
4957.00425 1.00137e-17
4958.00415 1.00130e-17
4959.00405 1.00947e-17
4960.00395 1.02693e-17
4961.00385 1.07455e-17
4962.00375 1.07448e-17
4963.00365 1.07440e-17
4964.00355 1.10047e-17
4965.00345 1.10039e-17
4966.00335 1.10718e-17
4967.00325 1.14175e-17
4968.00315 1.14563e-17
4969.00305 1.15510e-17
4970.00295 1.15501e-17
4971.00285 1.18729e-17
4972.00275 1.18922e-17
4973.00265 1.20618e-17
4974.00255 1.20610e-17
4975.00245 1.20604e-17
4976.00235 1.20595e-17
4977.00225 1.20631e-17
4978.00215 1.21116e-17
4979.00205 1.21107e-17
4980.00195 1.30520e-17
4981.00185 1.30511e-17
4982.00175 1.31670e-17
4983.00165 1.32218e-17
4984.00155 1.33103e-17
4985.00145 1.33094e-17
4986.00135 1.34350e-17
4987.00125 1.33075e-17
4988.00115 1.32171e-17
4989.00105 1.32162e-17
4990.00095 1.31595e-17
4991.00085 1.31585e-17
4992.00075 1.31576e-17
4993.00065 1.32287e-17
4994.00055 1.29846e-17
4995.00045 1.32268e-17
4996.00035 1.32259e-17
4997.00025 1.32249e-17
4998.00015 1.32240e-17
4999.00005 1.32323e-17
4999.99995 1.34446e-17
5000.99985 1.35711e-17
5001.99975 1.35702e-17
5002.99965 1.34417e-17
5003.99955 1.31567e-17
5004.99945 1.31250e-17
5005.99935 1.24501e-17
5006.99925 1.20912e-17
5007.99915 1.17422e-17
5008.99905 1.17413e-17
5009.99895 1.17405e-17
5010.99885 1.17397e-17
5011.99875 1.17388e-17
5012.99865 1.16178e-17
5013.99855 1.15898e-17
5014.99845 1.15323e-17
5015.99835 1.16153e-17
5016.99825 1.17149e-17
5017.99815 1.17140e-17
5018.99805 1.16129e-17
5019.99795 1.14552e-17
5020.99785 1.12555e-17
5021.99775 1.11571e-17
5022.99765 1.08963e-17
5023.99755 1.06620e-17
5024.99745 1.04411e-17
5025.99735 1.05889e-17
5026.99725 1.05882e-17
5027.99715 1.05874e-17
5028.99705 1.04382e-17
5029.99695 1.00253e-17
5030.99685 1.00246e-17
5031.99675 1.01022e-17
5032.99665 1.03647e-17
5033.99655 1.04345e-17
5034.99645 1.03632e-17
5035.99635 1.00993e-17
5036.99625 1.00557e-17
5037.99615 9.82595e-18
5038.99605 9.82526e-18
5039.99595 9.82457e-18
5040.99585 9.52102e-18
5041.99575 9.51287e-18
5042.99565 9.51220e-18
5043.99555 9.51154e-18
5044.99545 9.35845e-18
5045.99535 9.35780e-18
5046.99525 9.50954e-18
5047.99515 9.50888e-18
5048.99505 9.56004e-18
5050.00495 9.55937e-18
5051.00485 9.50688e-18
5052.00475 9.35388e-18
5053.00465 8.99851e-18
5054.00455 8.57739e-18
5055.00445 8.49841e-18
5056.00435 8.49781e-18
5057.00425 8.40942e-18
5058.00415 8.14251e-18
5059.00405 8.14194e-18
5060.00395 8.14138e-18
5061.00385 8.14081e-18
5062.00375 7.75639e-18
5063.00365 7.58947e-18
5064.00355 7.50095e-18
5065.00345 7.50043e-18
5066.00335 7.49991e-18
5067.00325 6.97416e-18
5068.00315 7.00788e-18
5069.00305 7.00740e-18
5070.00295 7.00691e-18
5071.00285 6.97223e-18
5072.00275 6.66831e-18
5073.00265 6.40018e-18
5074.00255 6.39974e-18
5075.00245 6.39929e-18
5076.00235 6.71052e-18
5077.00225 6.71005e-18
5078.00215 6.40259e-18
5079.00205 6.40214e-18
5080.00195 6.40170e-18
5081.00185 6.44040e-18
5082.00175 6.70773e-18
5083.00165 7.17383e-18
5084.00155 7.29410e-18
5085.00145 7.18356e-18
5086.00135 7.17234e-18
5087.00125 7.18257e-18
5088.00115 7.28424e-18
5089.00105 7.55035e-18
5090.00095 7.56361e-18
5091.00085 7.65387e-18
5092.00075 7.65334e-18
5093.00065 7.56204e-18
5094.00055 7.56152e-18
5095.00045 7.71658e-18
5096.00035 7.81208e-18
5097.00025 8.07655e-18
5098.00015 8.07599e-18
5099.00005 8.67598e-18
5099.99995 9.02544e-18
5100.99985 9.17197e-18
5101.99975 9.42259e-18
5102.99965 9.57729e-18
5103.99955 9.70535e-18
5104.99945 9.85044e-18
5105.99935 9.90921e-18
5106.99925 9.90853e-18
5107.99915 1.00143e-17
5108.99905 1.00286e-17
5109.99895 1.05400e-17
5110.99885 1.06964e-17
5111.99875 1.07366e-17
5112.99865 1.07359e-17
5113.99855 1.05550e-17
5114.99845 1.05543e-17
5115.99835 1.05535e-17
5116.99825 1.05528e-17
5117.99815 1.06913e-17
5118.99805 1.03577e-17
5119.99795 9.52099e-18
5120.99785 9.56209e-18
5121.99775 9.56143e-18
5122.99765 9.56078e-18
5123.99755 9.56013e-18
5124.99745 9.55948e-18
5125.99735 9.51710e-18
5126.99725 9.55818e-18
5127.99715 9.66577e-18
5128.99705 9.74065e-18
5129.99695 1.01484e-17
5130.99685 1.04141e-17
5131.99675 1.05604e-17
5132.99665 1.05597e-17
5133.99655 1.05590e-17
5134.99645 1.05583e-17
5135.99635 1.01823e-17
5136.99625 1.01816e-17
5137.99615 1.00975e-17
5138.99605 1.05654e-17
5139.99595 1.05647e-17
5140.99585 1.05640e-17
5141.99575 1.05633e-17
5142.99565 1.00941e-17
5143.99555 9.97337e-18
5144.99545 9.98622e-18
5145.99535 9.98555e-18
5146.99525 1.05597e-17
5148.00515 1.06719e-17
5149.00505 1.06711e-17
5150.00495 1.02942e-17
5151.00485 1.02935e-17
5152.00475 1.02928e-17
5153.00465 1.02430e-17
5154.00455 1.02914e-17
5155.00445 1.02907e-17
5156.00435 1.02738e-17
5157.00425 1.02731e-17
5158.00415 1.02886e-17
5159.00405 1.02945e-17
5160.00395 1.03337e-17
5161.00385 1.03330e-17
5162.00375 1.03323e-17
5163.00365 1.04842e-17
5164.00355 1.05911e-17
5165.00345 1.05904e-17
5166.00335 1.07307e-17
5167.00325 1.07300e-17
5168.00315 1.05883e-17
5169.00305 1.05876e-17
5170.00295 1.07756e-17
5171.00285 1.05908e-17
5172.00275 1.05901e-17
5173.00265 1.05894e-17
5174.00255 1.05887e-17
5175.00245 1.05880e-17
5176.00235 1.05883e-17
5177.00225 1.05866e-17
5178.00215 1.05859e-17
5179.00205 1.03741e-17
5180.00195 1.03734e-17
5181.00185 1.04827e-17
5182.00175 1.04820e-17
5183.00165 1.03713e-17
5184.00155 1.03706e-17
5185.00145 1.03377e-17
5186.00135 1.01627e-17
5187.00125 1.03686e-17
5188.00115 1.04778e-17
5189.00105 1.03350e-17
5190.00095 1.02861e-17
5191.00085 1.01966e-17
5192.00075 1.01587e-17
5193.00065 1.01952e-17
5194.00055 1.01406e-17
5195.00045 1.02827e-17
5196.00035 1.06378e-17
5197.00025 1.02813e-17
5198.00015 1.01918e-17
5199.00005 1.01912e-17
5199.99995 9.80069e-18
5200.99985 1.01359e-17
5201.99975 1.06336e-17
5202.99965 1.06329e-17
5203.99955 1.06322e-17
5204.99945 1.09339e-17
5205.99935 1.06308e-17
5206.99925 1.10163e-17
5207.99915 1.10155e-17
5208.99905 1.10148e-17
5209.99895 1.13093e-17
5210.99885 1.13179e-17
5211.99875 1.13172e-17
5212.99865 1.13825e-17
5213.99855 1.13157e-17
5214.99845 1.09383e-17
5215.99835 1.09376e-17
5216.99825 1.09368e-17
5217.99815 1.09361e-17
5218.99805 1.09415e-17
5219.99795 1.10855e-17
5220.99785 1.09340e-17
5221.99775 1.05926e-17
5222.99765 1.05919e-17
5223.99755 1.04244e-17
5224.99745 1.04237e-17
5225.99735 1.04230e-17
5226.99725 1.05892e-17
5227.99715 1.04216e-17
5228.99705 1.04089e-17
5229.99695 1.04082e-17
5230.99685 1.02315e-17
5231.99675 9.81779e-18
5232.99665 9.81715e-18
5233.99655 1.03024e-17
5234.99645 1.02289e-17
5235.99635 1.02524e-17
5236.99625 1.02518e-17
5237.99615 1.02284e-17
5238.99605 1.02262e-17
5239.99595 1.02498e-17
5240.99585 1.02264e-17
5241.99575 1.02485e-17
5242.99565 1.02964e-17
5243.99555 1.02957e-17
5244.99545 1.04596e-17
5245.99535 1.11613e-17
5246.99525 1.11606e-17
5247.99515 1.11598e-17
5248.99505 1.11591e-17
5249.99495 1.11584e-17
5251.00485 1.11368e-17
5252.00475 1.11570e-17
5253.00465 1.12261e-17
5254.00455 1.11762e-17
5255.00445 1.11755e-17
5256.00435 1.11748e-17
5257.00425 1.11741e-17
5258.00415 1.11734e-17
5259.00405 1.12218e-17
5260.00395 1.15236e-17
5261.00385 1.15246e-17
5262.00375 1.15238e-17
5263.00365 1.15231e-17
5264.00355 1.16142e-17
5265.00345 1.17612e-17
5266.00335 1.18882e-17
5267.00325 1.21902e-17
5268.00315 1.26801e-17
5269.00305 1.26793e-17
5270.00295 1.26785e-17
5271.00285 1.26777e-17
5272.00275 1.27878e-17
5273.00265 1.29482e-17
5274.00255 1.29474e-17
5275.00245 1.29466e-17
5276.00235 1.27845e-17
5277.00225 1.23750e-17
5278.00215 1.23742e-17
5279.00205 1.25088e-17
5280.00195 1.23726e-17
5281.00185 1.22480e-17
5282.00175 1.22472e-17
5283.00165 1.20980e-17
5284.00155 1.19770e-17
5285.00145 1.19505e-17
5286.00135 1.20957e-17
5287.00125 1.20949e-17
5288.00115 1.25017e-17
5289.00105 1.25264e-17
5290.00095 1.27334e-17
5291.00085 1.27326e-17
5292.00075 1.28343e-17
5293.00065 1.28697e-17
5294.00055 1.28689e-17
5295.00045 1.30774e-17
5296.00035 1.30766e-17
5297.00025 1.30758e-17
5298.00015 1.34085e-17
5299.00005 1.38268e-17
5299.99995 1.38259e-17
5300.99985 1.38250e-17
5301.99975 1.40351e-17
5302.99965 1.38233e-17
5303.99955 1.40333e-17
5304.99945 1.40325e-17
5305.99935 1.40316e-17
5306.99925 1.40307e-17
5307.99915 1.40298e-17
5308.99905 1.42735e-17
5309.99895 1.45552e-17
5310.99885 1.42717e-17
5311.99875 1.42708e-17
5312.99865 1.44715e-17
5313.99855 1.41727e-17
5314.99845 1.41718e-17
5315.99835 1.46082e-17
5316.99825 1.47151e-17
5317.99815 1.47142e-17
5318.99805 1.46055e-17
5319.99795 1.45368e-17
5320.99785 1.45359e-17
5321.99775 1.46028e-17
5322.99765 1.51571e-17
5323.99755 1.51562e-17
5324.99745 1.50125e-17
5325.99735 1.45314e-17
5326.99725 1.44566e-17
5327.99715 1.43438e-17
5328.99705 1.44548e-17
5329.99695 1.41637e-17
5330.99685 1.41628e-17
5331.99675 1.43367e-17
5332.99665 1.43358e-17
5333.99655 1.43349e-17
5334.99645 1.44495e-17
5335.99635 1.43332e-17
5336.99625 1.42595e-17
5337.99615 1.42586e-17
5338.99605 1.43305e-17
5339.99595 1.44298e-17
5340.99585 1.47529e-17
5341.99575 1.48222e-17
5342.99565 1.50220e-17
5343.99555 1.51069e-17
5344.99545 1.51060e-17
5345.99535 1.50192e-17
5346.99525 1.51042e-17
5348.00515 1.53810e-17
5349.00505 1.53801e-17
5350.00495 1.56539e-17
5351.00485 1.56530e-17
5352.00475 1.57712e-17
5353.00465 1.57827e-17
5354.00455 1.57817e-17
5355.00445 1.57683e-17
5356.00435 1.56482e-17
5357.00425 1.51228e-17
5358.00415 1.47831e-17
5359.00405 1.51210e-17
5360.00395 1.47813e-17
5361.00385 1.44980e-17
5362.00375 1.41700e-17
5363.00365 1.41692e-17
5364.00355 1.41683e-17
5365.00345 1.44491e-17
5366.00335 1.44936e-17
5367.00325 1.47603e-17
5368.00315 1.44918e-17
5369.00305 1.41640e-17
5370.00295 1.41632e-17
5371.00285 1.47567e-17
5372.00275 1.48451e-17
5373.00265 1.49373e-17
5374.00255 1.48433e-17
5375.00245 1.47532e-17
5376.00235 1.47289e-17
5377.00225 1.42514e-17
5378.00215 1.42505e-17
5379.00205 1.48244e-17
5380.00195 1.52028e-17
5381.00185 1.52019e-17
5382.00175 1.49565e-17
5383.00165 1.47227e-17
5384.00155 1.42454e-17
5385.00145 1.42445e-17
5386.00135 1.42915e-17
5387.00125 1.47639e-17
5388.00115 1.49511e-17
5389.00105 1.49503e-17
5390.00095 1.49494e-17
5391.00085 1.47604e-17
5392.00075 1.43471e-17
5393.00065 1.42855e-17
5394.00055 1.43454e-17
5395.00045 1.47569e-17
5396.00035 1.50125e-17
5397.00025 1.52818e-17
5398.00015 1.52809e-17
5399.00005 1.48145e-17
5399.99995 1.47578e-17
5400.99985 1.47569e-17
5401.99975 1.47560e-17
5402.99965 1.48110e-17
5403.99955 1.47543e-17
5404.99945 1.48093e-17
5405.99935 1.47525e-17
5406.99925 1.47517e-17
5407.99915 1.47508e-17
5408.99905 1.47499e-17
5409.99895 1.46806e-17
5410.99885 1.44780e-17
5411.99875 1.43561e-17
5412.99865 1.43552e-17
5413.99855 1.44754e-17
5414.99845 1.45360e-17
5415.99835 1.45352e-17
5416.99825 1.45343e-17
5417.99815 1.43510e-17
5418.99805 1.43502e-17
5419.99795 1.41165e-17
5420.99785 1.41156e-17
5421.99775 1.41148e-17
5422.99765 1.43148e-17
5423.99755 1.43231e-17
5424.99745 1.48780e-17
5425.99735 1.43215e-17
5426.99725 1.40381e-17
5427.99715 1.38994e-17
5428.99705 1.37615e-17
5429.99695 1.36477e-17
5430.99685 1.39790e-17
5431.99675 1.39782e-17
5432.99665 1.43156e-17
5433.99655 1.43250e-17
5434.99645 1.40125e-17
5435.99635 1.34558e-17
5436.99625 1.34550e-17
5437.99615 1.32937e-17
5438.99605 1.32485e-17
5439.99595 1.31254e-17
5440.99585 1.30887e-17
5441.99575 1.30698e-17
5442.99565 1.29224e-17
5443.99555 1.30683e-17
5444.99545 1.30676e-17
5445.99535 1.30668e-17
5446.99525 1.30661e-17
5447.99515 1.30653e-17
5448.99505 1.29179e-17
5449.99495 1.31779e-17
5451.00485 1.38617e-17
5452.00475 1.39385e-17
5453.00464 1.43351e-17
5454.00455 1.43342e-17
5455.00445 1.44983e-17
5456.00435 1.45748e-17
5457.00425 1.45867e-17
5458.00414 1.44958e-17
5459.00405 1.45850e-17
5460.00395 1.47540e-17
5461.00385 1.47849e-17
5462.00374 1.47523e-17
5463.00365 1.47515e-17
5464.00355 1.47507e-17
5465.00345 1.47815e-17
5466.00335 1.57677e-17
5467.00324 1.57668e-17
5468.00315 1.57659e-17
5469.00305 1.47350e-17
5470.00295 1.45446e-17
5471.00284 1.41406e-17
5472.00275 1.41398e-17
5473.00265 1.45421e-17
5474.00255 1.47308e-17
5475.00245 1.46532e-17
5476.00234 1.45782e-17
5477.00225 1.42120e-17
5478.00215 1.42112e-17
5479.00205 1.44021e-17
5480.00194 1.45749e-17
5481.00185 1.46483e-17
5482.00175 1.46475e-17
5483.00165 1.46466e-17
5484.00155 1.46458e-17
5485.00144 1.46450e-17
5486.00135 1.49216e-17
5487.00125 1.50350e-17
5488.00115 1.50342e-17
5489.00104 1.50334e-17
5490.00095 1.50471e-17
5491.00085 1.50716e-17
5492.00075 1.51336e-17
5493.00065 1.51327e-17
5494.00054 1.55153e-17
5495.00045 1.56710e-17
5496.00035 1.56902e-17
5497.00025 1.56893e-17
5498.00014 1.60117e-17
5499.00005 1.56875e-17
5499.99995 1.55102e-17
5500.99985 1.55093e-17
5501.99975 1.56649e-17
5502.99964 1.56141e-17
5503.99955 1.56632e-17
5504.99945 1.56823e-17
5505.99935 1.56115e-17
5506.99924 1.56107e-17
5507.99915 1.63840e-17
5508.99905 1.56090e-17
5509.99895 1.63822e-17
5510.99885 1.64328e-17
5511.99874 1.64521e-17
5512.99865 1.67081e-17
5513.99855 1.69899e-17
5514.99845 1.69890e-17
5515.99834 1.67054e-17
5516.99825 1.64274e-17
5517.99815 1.72385e-17
5518.99805 1.72376e-17
5519.99795 1.74204e-17
5520.99784 1.74780e-17
5521.99775 1.73234e-17
5522.99765 1.69625e-17
5523.99755 1.69616e-17
5524.99744 1.69110e-17
5525.99735 1.66781e-17
5526.99725 1.69091e-17
5527.99715 1.70407e-17
5528.99705 1.69569e-17
5529.99694 1.69560e-17
5530.99685 1.69386e-17
5531.99675 1.67164e-17
5532.99665 1.67155e-17
5533.99654 1.66709e-17
5534.99645 1.66413e-17
5535.99635 1.69340e-17
5536.99625 1.70324e-17
5537.99615 1.69322e-17
5538.99604 1.69313e-17
5539.99595 1.70894e-17
5540.99585 1.67083e-17
5541.99575 1.67074e-17
5542.99564 1.66341e-17
5543.99555 1.66332e-17
5544.99545 1.66210e-17
5545.99535 1.64244e-17
5546.99525 1.62690e-17
5548.00514 1.62681e-17
5549.00504 1.61887e-17
5550.00494 1.59311e-17
5551.00484 1.57319e-17
5552.00474 1.55451e-17
5553.00464 1.54666e-17
5554.00454 1.54658e-17
5555.00444 1.54649e-17
5556.00434 1.53532e-17
5557.00424 1.52830e-17
5558.00414 1.52822e-17
5559.00404 1.51547e-17
5560.00394 1.49034e-17
5561.00384 1.49027e-17
5562.00374 1.48876e-17
5563.00364 1.49011e-17
5564.00354 1.49003e-17
5565.00344 1.48921e-17
5566.00334 1.44982e-17
5567.00324 1.40866e-17
5568.00314 1.38907e-17
5569.00304 1.38899e-17
5570.00294 1.39219e-17
5571.00284 1.45447e-17
5572.00274 1.45439e-17
5573.00264 1.45431e-17
5574.00254 1.39272e-17
5575.00244 1.39183e-17
5576.00234 1.38848e-17
5577.00224 1.38624e-17
5578.00214 1.38617e-17
5579.00204 1.39236e-17
5580.00194 1.39146e-17
5581.00184 1.38136e-17
5582.00174 1.38129e-17
5583.00164 1.36554e-17
5584.00154 1.36546e-17
5585.00144 1.38107e-17
5586.00134 1.38100e-17
5587.00124 1.36525e-17
5588.00114 1.35936e-17
5589.00104 1.35224e-17
5590.00094 1.32147e-17
5591.00084 1.35210e-17
5592.00074 1.35276e-17
5593.00064 1.35196e-17
5594.00054 1.30483e-17
5595.00044 1.31846e-17
5596.00034 1.27257e-17
5597.00024 1.25065e-17
5598.00014 1.25059e-17
5599.00004 1.30450e-17
5599.99994 1.22268e-17
5600.99984 1.22262e-17
5601.99974 1.21630e-17
5602.99964 1.20432e-17
5603.99954 1.20426e-17
5604.99944 1.21611e-17
5605.99934 1.21605e-17
5606.99924 1.22224e-17
5607.99914 1.22217e-17
5608.99904 1.24104e-17
5609.99894 1.27238e-17
5610.99884 1.27232e-17
5611.99874 1.27225e-17
5612.99864 1.27219e-17
5613.99854 1.27212e-17
5614.99844 1.25882e-17
5615.99834 1.27199e-17
5616.99824 1.25869e-17
5617.99814 1.24934e-17
5618.99804 1.23907e-17
5619.99794 1.21155e-17
5620.99784 1.21148e-17
5621.99774 1.21142e-17
5622.99764 1.23882e-17
5623.99754 1.25824e-17
5624.99744 1.27396e-17
5625.99734 1.26364e-17
5626.99724 1.26357e-17
5627.99714 1.27377e-17
5628.99704 1.28343e-17
5629.99694 1.28151e-17
5630.99684 1.29199e-17
5631.99674 1.28323e-17
5632.99664 1.28072e-17
5633.99654 1.28065e-17
5634.99644 1.29172e-17
5635.99634 1.28052e-17
5636.99624 1.28105e-17
5637.99614 1.29526e-17
5638.99604 1.28092e-17
5639.99594 1.28086e-17
5640.99584 1.30815e-17
5641.99574 1.30809e-17
5642.99564 1.24165e-17
5643.99554 1.24158e-17
5644.99544 1.24152e-17
5645.99534 1.24146e-17
5646.99524 1.29796e-17
5647.99514 1.29789e-17
5648.99504 1.29086e-17
5649.99494 1.21455e-17
5651.00484 1.20427e-17
5652.00474 1.16805e-17
5653.00464 1.15198e-17
5654.00454 1.12035e-17
5655.00444 1.15530e-17
5656.00434 1.15524e-17
5657.00424 1.15519e-17
5658.00414 1.12013e-17
5659.00404 1.09941e-17
5660.00394 1.09679e-17
5661.00384 1.09674e-17
5662.00374 1.09668e-17
5663.00364 1.09919e-17
5664.00354 1.13075e-17
5665.00344 1.13687e-17
5666.00334 1.13064e-17
5667.00324 1.13058e-17
5668.00314 1.13670e-17
5669.00304 1.14808e-17
5670.00294 1.13659e-17
5671.00284 1.13653e-17
5672.00274 1.13031e-17
5673.00264 1.13025e-17
5674.00254 1.14721e-17
5675.00244 1.18267e-17
5676.00234 1.18261e-17
5677.00224 1.18255e-17
5678.00214 1.17542e-17
5679.00204 1.14692e-17
5680.00194 1.12117e-17
5681.00184 1.12111e-17
5682.00174 1.12106e-17
5683.00164 1.06133e-17
5684.00154 1.06128e-17
5685.00144 1.03883e-17
5686.00134 9.93746e-18
5687.00124 9.36308e-18
5688.00114 9.69512e-18
5689.00104 9.36217e-18
5690.00094 9.33847e-18
5691.00084 9.21776e-18
5692.00074 8.97383e-18
5693.00064 8.95151e-18
5694.00054 8.83944e-18
5695.00044 8.83901e-18
5696.00034 8.79111e-18
5697.00024 8.40461e-18
5698.00014 7.45537e-18
5699.00004 7.31832e-18
5699.99994 6.96952e-18
5700.99984 6.85497e-18
5701.99974 6.85464e-18
5702.99964 6.31976e-18
5703.99954 6.03873e-18
5704.99944 6.02175e-18
5705.99934 6.02146e-18
5706.99924 5.74345e-18
5707.99914 5.56987e-18
5708.99904 5.33752e-18
5709.99894 5.20909e-18
5710.99884 5.22621e-18
5711.99874 5.22596e-18
5712.99864 5.20835e-18
5713.99854 5.20272e-18
5714.99844 5.18285e-18
5715.99834 5.11014e-18
5716.99824 5.09536e-18
5717.99814 5.04820e-18
5718.99804 5.04796e-18
5719.99794 5.04772e-18
5720.99784 4.56878e-18
5721.99774 4.56856e-18
5722.99764 4.53609e-18
5723.99754 4.48619e-18
5724.99744 4.13723e-18
5725.99734 4.02087e-18
5726.99724 3.72263e-18
5727.99714 3.66860e-18
5728.99704 3.72228e-18
5729.99694 3.72211e-18
5730.99684 3.72193e-18
5731.99674 3.72175e-18
5732.99664 3.72158e-18
5733.99654 3.66756e-18
5734.99644 3.90194e-18
5735.99634 4.02441e-18
5736.99624 4.04468e-18
5737.99614 4.05315e-18
5738.99604 4.08835e-18
5739.99594 4.16661e-18
5740.99584 4.16642e-18
5741.99574 4.05239e-18
5742.99564 4.02309e-18
5743.99554 3.91301e-18
5744.99544 3.90131e-18
5745.99534 3.90113e-18
5746.99524 3.87845e-18
5748.00514 3.87827e-18
5749.00504 3.86119e-18
5750.00494 3.87791e-18
5751.00484 3.87773e-18
5752.00474 3.90004e-18
5753.00464 3.89986e-18
5754.00454 4.35886e-18
5755.00444 4.45211e-18
5756.00434 4.64859e-18
5757.00424 4.83233e-18
5758.00414 4.87934e-18
5759.00404 4.89065e-18
5760.00394 4.89042e-18
5761.00384 5.07996e-18
5762.00374 5.30016e-18
5763.00364 5.29992e-18
5764.00354 5.32574e-18
5765.00344 5.41170e-18
5766.00334 5.47456e-18
5767.00324 5.51316e-18
5768.00314 5.51291e-18
5769.00304 5.51265e-18
5770.00294 5.47355e-18
5771.00284 5.80907e-18
5772.00274 5.98623e-18
5773.00264 5.98596e-18
5774.00254 6.14158e-18
5775.00244 6.30781e-18
5776.00234 6.54356e-18
5777.00224 6.78008e-18
5778.00214 6.77977e-18
5779.00204 7.99080e-18
5780.00194 7.99044e-18
5781.00184 7.99007e-18
5782.00174 7.98971e-18
5783.00164 8.12212e-18
5784.00154 8.14723e-18
5785.00144 8.18537e-18
5786.00134 8.61675e-18
5787.00124 8.73844e-18
5788.00114 8.61596e-18
5789.00104 8.73764e-18
5790.00094 9.27695e-18
5791.00084 9.61111e-18
5792.00074 9.96726e-18
5793.00064 1.03697e-17
5794.00054 1.06127e-17
5795.00044 1.06122e-17
5796.00034 1.07183e-17
5797.00024 1.09567e-17
5798.00014 1.09768e-17
5799.00004 1.11235e-17
5799.99994 1.12931e-17
5800.99984 1.13942e-17
5801.99974 1.13937e-17
5802.99964 1.09718e-17
5803.99954 1.15697e-17
5804.99944 1.24100e-17
5805.99934 1.24947e-17
5806.99924 1.25908e-17
5807.99914 1.27419e-17
5808.99904 1.29290e-17
5809.99894 1.29834e-17
5810.99884 1.29828e-17
5811.99874 1.31248e-17
5812.99864 1.35422e-17
5813.99854 1.29261e-17
5814.99844 1.36042e-17
5815.99834 1.45746e-17
5816.99824 1.49186e-17
5817.99814 1.50472e-17
5818.99804 1.52144e-17
5819.99794 1.52476e-17
5820.99784 1.54508e-17
5821.99774 1.52549e-17
5822.99764 1.52542e-17
5823.99754 1.54487e-17
5824.99744 1.54623e-17
5825.99734 1.54616e-17
5826.99724 1.54609e-17
5827.99714 1.54055e-17
5828.99704 1.54048e-17
5829.99694 1.54042e-17
5830.99684 1.54932e-17
5831.99674 1.56068e-17
5832.99664 1.58114e-17
5833.99654 1.60852e-17
5834.99644 1.63558e-17
5835.99634 1.58093e-17
5836.99624 1.67687e-17
5837.99614 1.75670e-17
5838.99604 1.79452e-17
5839.99594 1.81013e-17
5840.99584 1.88286e-17
5841.99574 1.98379e-17
5842.99564 1.99273e-17
5843.99554 2.01502e-17
5844.99544 2.03384e-17
5845.99534 2.03375e-17
5846.99524 2.05823e-17
5847.99514 2.05915e-17
5848.99504 2.04839e-17
5849.99494 2.04830e-17
5851.00484 2.04821e-17
5852.00474 2.04812e-17
5853.00464 2.05910e-17
5854.00454 2.06683e-17
5855.00444 2.06674e-17
5856.00434 2.07350e-17
5857.00424 2.06656e-17
5858.00414 2.06647e-17
5859.00404 2.07923e-17
5860.00394 2.07855e-17
5861.00384 2.07905e-17
5862.00374 2.08671e-17
5863.00364 2.08699e-17
5864.00354 2.10354e-17
5865.00344 2.13752e-17
5866.00334 2.13743e-17
5867.00324 2.10327e-17
5868.00314 2.13725e-17
5869.00304 2.17636e-17
5870.00294 2.19969e-17
5871.00284 2.21461e-17
5872.00274 2.22736e-17
5873.00264 2.23905e-17
5874.00254 2.28132e-17
5875.00244 2.28122e-17
5876.00234 2.22698e-17
5877.00224 2.19903e-17
5878.00214 2.17408e-17
5879.00204 2.01897e-17
5880.00194 1.99949e-17
5881.00184 1.96400e-17
5882.00174 1.96267e-17
5883.00164 1.96259e-17
5884.00154 1.92927e-17
5885.00144 1.89319e-17
5886.00134 1.86131e-17
5887.00124 1.84557e-17
5888.00114 1.82477e-17
5889.00104 1.81692e-17
5890.00094 1.81685e-17
5891.00084 1.77076e-17
5892.00074 1.77052e-17
5893.00064 1.77045e-17
5894.00054 1.77054e-17
5895.00044 1.77046e-17
5896.00034 1.78023e-17
5897.00024 1.78015e-17
5898.00014 1.77007e-17
5899.00004 1.77564e-17
5899.99994 1.77993e-17
5900.99984 1.82824e-17
5901.99974 1.83846e-17
5902.99964 1.83838e-17
5903.99954 1.85394e-17
5904.99944 1.83823e-17
5905.99934 1.83815e-17
5906.99924 1.87403e-17
5907.99914 1.87937e-17
5908.99904 1.90968e-17
5909.99894 1.90960e-17
5910.99884 1.90952e-17
5911.99874 1.91947e-17
5912.99864 1.93727e-17
5913.99854 2.04111e-17
5914.99844 2.04103e-17
5915.99834 2.01918e-17
5916.99824 1.99077e-17
5917.99814 1.96546e-17
5918.99804 1.95272e-17
5919.99794 1.96114e-17
5920.99784 1.96586e-17
5921.99774 1.99036e-17
5922.99764 2.01860e-17
5923.99754 2.01851e-17
5924.99744 2.01843e-17
5925.99734 2.01835e-17
5926.99724 1.96537e-17
5927.99714 1.96529e-17
5928.99704 1.96571e-17
5929.99694 2.03898e-17
5930.99684 2.04601e-17
5931.99674 2.05288e-17
5932.99664 2.05279e-17
5933.99654 2.04269e-17
5934.99644 2.03968e-17
5935.99634 2.03959e-17
5936.99624 2.03951e-17
5937.99614 2.03943e-17
5938.99604 2.04227e-17
5939.99594 2.02761e-17
5940.99584 1.99533e-17
5941.99574 1.97931e-17
5942.99564 1.97923e-17
5943.99554 1.75718e-17
5944.99544 1.77236e-17
5945.99534 1.75704e-17
5946.99524 1.75696e-17
5947.99514 1.75689e-17
5949.00504 1.75682e-17
5950.00494 1.75447e-17
5951.00484 1.77192e-17
5952.00474 1.77185e-17
5953.00464 1.77828e-17
5954.00454 1.78721e-17
5955.00444 1.80422e-17
5956.00434 1.84442e-17
5957.00424 1.84102e-17
5958.00414 1.84427e-17
5959.00404 1.91640e-17
5960.00394 1.91633e-17
5961.00384 1.91625e-17
5962.00374 1.92494e-17
5963.00364 1.90984e-17
5964.00354 1.90425e-17
5965.00344 1.88406e-17
5966.00334 1.88398e-17
5967.00324 1.84807e-17
5968.00314 1.84800e-17
5969.00304 1.83636e-17
5970.00294 1.84785e-17
5971.00284 1.84777e-17
5972.00274 1.85585e-17
5973.00264 1.83607e-17
5974.00254 1.81938e-17
5975.00244 1.81930e-17
5976.00234 1.83585e-17
5977.00224 1.83769e-17
5978.00214 1.85540e-17
5979.00204 1.85920e-17
5980.00194 1.85525e-17
5981.00184 1.83944e-17
5982.00174 1.83733e-17
5983.00164 1.80602e-17
5984.00154 1.78923e-17
5985.00144 1.74248e-17
5986.00134 1.74241e-17
5987.00124 1.71238e-17
5988.00114 1.68726e-17
5989.00104 1.61890e-17
5990.00094 1.65393e-17
5991.00084 1.65387e-17
5992.00074 1.65380e-17
5993.00064 1.65374e-17
5994.00054 1.65258e-17
5995.00044 1.61851e-17
5996.00034 1.61845e-17
5997.00024 1.62891e-17
5998.00014 1.65232e-17
5999.00004 1.68538e-17
5999.99994 1.69507e-17
6000.99984 1.69500e-17
6001.99974 1.65995e-17
6002.99964 1.65200e-17
6003.99954 1.62847e-17
6004.99944 1.62840e-17
6005.99934 1.67190e-17
6006.99924 1.67184e-17
6007.99914 1.66721e-17
6008.99904 1.65950e-17
6009.99894 1.60931e-17
6010.99884 1.60925e-17
6011.99874 1.60918e-17
6012.99864 1.66688e-17
6013.99854 1.67138e-17
6014.99844 1.67507e-17
6015.99834 1.67125e-17
6016.99824 1.66663e-17
6017.99814 1.64838e-17
6018.99804 1.64832e-17
6019.99794 1.64826e-17
6020.99784 1.63512e-17
6021.99774 1.68297e-17
6022.99764 1.68290e-17
6023.99754 1.68284e-17
6024.99744 1.66383e-17
6025.99734 1.63480e-17
6026.99724 1.61244e-17
6027.99714 1.61126e-17
6028.99704 1.60402e-17
6029.99694 1.59885e-17
6030.99684 1.59839e-17
6031.99674 1.59833e-17
6032.99664 1.57808e-17
6033.99654 1.54799e-17
6034.99644 1.54793e-17
6035.99634 1.54787e-17
6036.99624 1.55443e-17
6037.99614 1.55698e-17
6038.99604 1.56867e-17
6039.99594 1.57765e-17
6040.99584 1.56855e-17
6041.99574 1.56849e-17
6042.99564 1.60563e-17
6043.99554 1.61668e-17
6044.99544 1.63764e-17
6045.99534 1.65195e-17
6046.99524 1.63752e-17
6047.99514 1.69536e-17
6048.99504 1.69530e-17
6049.99494 1.69523e-17
6051.00484 1.69517e-17
6052.00474 1.69510e-17
6053.00464 1.65982e-17
6054.00454 1.61015e-17
6055.00444 1.59099e-17
6056.00434 1.56292e-17
6057.00424 1.55653e-17
6058.00414 1.55085e-17
6059.00404 1.53633e-17
6060.00394 1.55073e-17
6061.00384 1.53621e-17
6062.00374 1.53506e-17
6063.00364 1.52981e-17
6064.00354 1.51704e-17
6065.00344 1.51698e-17
6066.00334 1.51692e-17
6067.00324 1.51687e-17
6068.00314 1.51681e-17
6069.00304 1.52947e-17
6070.00294 1.52941e-17
6071.00284 1.52935e-17
6072.00274 1.52929e-17
6073.00264 1.50649e-17
6074.00254 1.50235e-17
6075.00244 1.50229e-17
6076.00234 1.50632e-17
6077.00224 1.52742e-17
6078.00214 1.55231e-17
6079.00204 1.52731e-17
6080.00194 1.50201e-17
6081.00184 1.49890e-17
6082.00174 1.50190e-17
6083.00164 1.50593e-17
6084.00154 1.56153e-17
6085.00144 1.56147e-17
6086.00134 1.56141e-17
6087.00124 1.47357e-17
6088.00114 1.45918e-17
6089.00104 1.45913e-17
6090.00094 1.49498e-17
6091.00084 1.52998e-17
6092.00074 1.53951e-17
6093.00064 1.53945e-17
6094.00054 1.52981e-17
6095.00044 1.47313e-17
6096.00034 1.45809e-17
6097.00024 1.45803e-17
6098.00014 1.45798e-17
6099.00004 1.45792e-17
6099.99994 1.50250e-17
6100.99984 1.49785e-17
6101.99974 1.49027e-17
6102.99964 1.49021e-17
6103.99954 1.49016e-17
6104.99944 1.45760e-17
6105.99934 1.49005e-17
6106.99924 1.50211e-17
6107.99914 1.49747e-17
6108.99904 1.49741e-17
6109.99894 1.50195e-17
6110.99884 1.54428e-17
6111.99874 1.55945e-17
6112.99864 1.59118e-17
6113.99854 1.59112e-17
6114.99844 1.57461e-17
6115.99834 1.54400e-17
6116.99824 1.51249e-17
6117.99814 1.51243e-17
6118.99804 1.54383e-17
6119.99794 1.54508e-17
6120.99784 1.56360e-17
6121.99774 1.56354e-17
6122.99764 1.54491e-17
6123.99754 1.56343e-17
6124.99744 1.58228e-17
6125.99734 1.58582e-17
6126.99724 1.58577e-17
6127.99714 1.58571e-17
6128.99704 1.58204e-17
6129.99694 1.58199e-17
6130.99684 1.58193e-17
6131.99674 1.49915e-17
6132.99664 1.49910e-17
6133.99654 1.49904e-17
6134.99644 1.49899e-17
6135.99634 1.49893e-17
6136.99624 1.49888e-17
6137.99614 1.48637e-17
6138.99604 1.48632e-17
6139.99594 1.48626e-17
6140.99584 1.49836e-17
6141.99574 1.49861e-17
6142.99564 1.59072e-17
6143.99554 1.59940e-17
6144.99544 1.62042e-17
6145.99534 1.61263e-17
6146.99524 1.59171e-17
6147.99514 1.57786e-17
6149.00504 1.58220e-17
6150.00494 1.59154e-17
6151.00484 1.59148e-17
6152.00474 1.59894e-17
6153.00464 1.59137e-17
6154.00454 1.53476e-17
6155.00444 1.53470e-17
6156.00434 1.53465e-17
6157.00424 1.53253e-17
6158.00414 1.53247e-17
6159.00404 1.53242e-17
6160.00394 1.51901e-17
6161.00384 1.52287e-17
6162.00374 1.51890e-17
6163.00364 1.49315e-17
6164.00354 1.50654e-17
6165.00344 1.50649e-17
6166.00334 1.50644e-17
6167.00324 1.52915e-17
6168.00314 1.60914e-17
6169.00304 1.60594e-17
6170.00294 1.52251e-17
6171.00284 1.52246e-17
6172.00274 1.52888e-17
6173.00264 1.59906e-17
6174.00254 1.61671e-17
6175.00244 1.61813e-17
6176.00234 1.63371e-17
6177.00224 1.61801e-17
6178.00214 1.61796e-17
6179.00204 1.60537e-17
6180.00194 1.59867e-17
6181.00184 1.60200e-17
6182.00174 1.60194e-17
6183.00164 1.60189e-17
6184.00154 1.60183e-17
6185.00144 1.58068e-17
6186.00134 1.58006e-17
6187.00124 1.58001e-17
6188.00114 1.58051e-17
6189.00104 1.58793e-17
6190.00094 1.58788e-17
6191.00084 1.58034e-17
6192.00074 1.58029e-17
6193.00064 1.58023e-17
6194.00054 1.58442e-17
6195.00044 1.58760e-17
6196.00034 1.58754e-17
6197.00024 1.57089e-17
6198.00014 1.57021e-17
6199.00004 1.56916e-17
6199.99994 1.57010e-17
6200.99984 1.57067e-17
6201.99974 1.58398e-17
6202.99964 1.60512e-17
6203.99954 1.61807e-17
6204.99944 1.57045e-17
6205.99934 1.60649e-17
6206.99924 1.61790e-17
6207.99914 1.64996e-17
6208.99904 1.65824e-17
6209.99894 1.71718e-17
6210.99884 1.71712e-17
6211.99874 1.67844e-17
6212.99864 1.67838e-17
6213.99854 1.67832e-17
6214.99844 1.69250e-17
6215.99834 1.71683e-17
6216.99824 1.71677e-17
6217.99814 1.71671e-17
6218.99804 1.70444e-17
6219.99794 1.70438e-17
6220.99784 1.70432e-17
6221.99774 1.69384e-17
6222.99764 1.69378e-17
6223.99754 1.69372e-17
6224.99744 1.69366e-17
6225.99734 1.70403e-17
6226.99724 1.70893e-17
6227.99714 1.71961e-17
6228.99704 1.71955e-17
6229.99694 1.70770e-17
6230.99684 1.70764e-17
6231.99674 1.70767e-17
6232.99664 1.71437e-17
6233.99654 1.72345e-17
6234.99644 1.74564e-17
6235.99634 1.75592e-17
6236.99624 1.76339e-17
6237.99614 1.81895e-17
6238.99604 1.79325e-17
6239.99594 1.75568e-17
6240.99584 1.79313e-17
6241.99574 1.79306e-17
6242.99564 1.79300e-17
6243.99554 1.79880e-17
6244.99544 1.79288e-17
6245.99534 1.73513e-17
6246.99524 1.71112e-17
6247.99514 1.57195e-17
6248.99504 1.57190e-17
6249.99494 1.56927e-17
6251.00484 1.56921e-17
6252.00474 1.56916e-17
6253.00464 1.56871e-17
6254.00454 1.56866e-17
6255.00444 1.56861e-17
6256.00434 1.56855e-17
6257.00424 1.57147e-17
6258.00414 1.58062e-17
6259.00404 1.59900e-17
6260.00394 1.59894e-17
6261.00384 1.59889e-17
6262.00374 1.58040e-17
6263.00364 1.57781e-17
6264.00354 1.57656e-17
6265.00344 1.56809e-17
6266.00334 1.56804e-17
6267.00324 1.56361e-17
6268.00314 1.55688e-17
6269.00304 1.54451e-17
6270.00294 1.54003e-17
6271.00284 1.52807e-17
6272.00274 1.53993e-17
6273.00264 1.53988e-17
6274.00254 1.52791e-17
6275.00244 1.51338e-17
6276.00234 1.44981e-17
6277.00224 1.42649e-17
6278.00214 1.42644e-17
6279.00204 1.42639e-17
6280.00194 1.51313e-17
6281.00184 1.51308e-17
6282.00174 1.49623e-17
6283.00164 1.44342e-17
6284.00154 1.40475e-17
6285.00144 1.38448e-17
6286.00134 1.38443e-17
6287.00124 1.38439e-17
6288.00114 1.38594e-17
6289.00104 1.38589e-17
6290.00094 1.38585e-17
6291.00084 1.38580e-17
6292.00074 1.38575e-17
6293.00064 1.38411e-17
6294.00054 1.37474e-17
6295.00044 1.37470e-17
6296.00034 1.38557e-17
6297.00024 1.39364e-17
6298.00014 1.41385e-17
6299.00004 1.43513e-17
6299.99994 1.43509e-17
6300.99984 1.41371e-17
6301.99974 1.39341e-17
6302.99964 1.38362e-17
6303.99954 1.37428e-17
6304.99944 1.37380e-17
6305.99934 1.37375e-17
6306.99924 1.33716e-17
6307.99914 1.33712e-17
6308.99904 1.32899e-17
6309.99894 1.32017e-17
6310.99884 1.31318e-17
6311.99874 1.28868e-17
6312.99864 1.24372e-17
6313.99854 1.24368e-17
6314.99844 1.23467e-17
6315.99834 1.22223e-17
6316.99824 1.22219e-17
6317.99814 1.21219e-17
6318.99804 1.19759e-17
6319.99794 1.18694e-17
6320.99784 1.18623e-17
6321.99774 1.18506e-17
6322.99764 1.17714e-17
6323.99754 1.16397e-17
6324.99744 1.10272e-17
6325.99734 1.09229e-17
6326.99724 1.09226e-17
6327.99714 1.09151e-17
6328.99704 1.07850e-17
6329.99694 1.07503e-17
6330.99684 1.07500e-17
6331.99674 1.07496e-17
6332.99664 1.08275e-17
6333.99654 1.09074e-17
6334.99644 1.09126e-17
6335.99634 1.09193e-17
6336.99624 1.09063e-17
6337.99614 1.09858e-17
6338.99604 1.11416e-17
6339.99594 1.11542e-17
6340.99584 1.11409e-17
6341.99574 1.11405e-17
6342.99564 1.09840e-17
6343.99554 1.09203e-17
6344.99544 1.08360e-17
6345.99534 1.05519e-17
6346.99524 1.08353e-17
6347.99514 1.08349e-17
6349.00504 1.08346e-17
6350.00494 1.08342e-17
6351.00484 1.08339e-17
6352.00474 1.05498e-17
6353.00464 1.10290e-17
6354.00454 1.10287e-17
6355.00444 1.10283e-17
6356.00434 1.10279e-17
6357.00424 1.10276e-17
6358.00414 1.09743e-17
6359.00404 1.06072e-17
6360.00394 1.06069e-17
6361.00384 1.05875e-17
6362.00374 1.05872e-17
6363.00364 1.05868e-17
6364.00354 1.05144e-17
6365.00344 1.05861e-17
6366.00334 1.06048e-17
6367.00324 1.06045e-17
6368.00314 1.07805e-17
6369.00304 1.09615e-17
6370.00294 1.13089e-17
6371.00284 1.14066e-17
6372.00274 1.22772e-17
6373.00264 1.23874e-17
6374.00254 1.27923e-17
6375.00244 1.27930e-17
6376.00234 1.28193e-17
6377.00224 1.28963e-17
6378.00214 1.29529e-17
6379.00204 1.31472e-17
6380.00194 1.33274e-17
6381.00184 1.33270e-17
6382.00174 1.31459e-17
6383.00164 1.34634e-17
6384.00154 1.37104e-17
6385.00144 1.45778e-17
6386.00134 1.49891e-17
6387.00124 1.59844e-17
6388.00114 1.62741e-17
6389.00104 1.69255e-17
6390.00094 1.70072e-17
6391.00084 1.74485e-17
6392.00074 1.75204e-17
6393.00064 1.81602e-17
6394.00054 1.83034e-17
6395.00044 1.83028e-17
6396.00034 1.84466e-17
6397.00024 1.92216e-17
6398.00014 1.94448e-17
6399.00004 1.95820e-17
6399.99994 1.98000e-17
6400.99984 1.97993e-17
6401.99974 1.98202e-17
6402.99964 1.99951e-17
6403.99954 2.16010e-17
6404.99944 2.16126e-17
6405.99934 2.16119e-17
6406.99924 2.16112e-17
6407.99914 2.16105e-17
6408.99904 2.18529e-17
6409.99894 2.18522e-17
6410.99884 2.18515e-17
6411.99874 2.18508e-17
6412.99864 2.18501e-17
6413.99854 2.17371e-17
6414.99844 2.18487e-17
6415.99834 2.36809e-17
6416.99824 2.38003e-17
6417.99814 2.41391e-17
6418.99804 2.42236e-17
6419.99794 2.44122e-17
6420.99784 2.50695e-17
6421.99774 2.58478e-17
6422.99764 2.58942e-17
6423.99754 2.59334e-17
6424.99744 2.59326e-17
6425.99734 2.59318e-17
6426.99724 2.62648e-17
6427.99714 2.62640e-17
6428.99704 2.62632e-17
6429.99694 2.62623e-17
6430.99684 2.62615e-17
6431.99674 2.59268e-17
6432.99664 2.60695e-17
6433.99654 2.60687e-17
6434.99644 2.66564e-17
6435.99634 2.71238e-17
6436.99624 2.73774e-17
6437.99614 2.74276e-17
6438.99604 2.75426e-17
6439.99594 2.75417e-17
6440.99584 2.74250e-17
6441.99574 2.75400e-17
6442.99564 2.82202e-17
6443.99554 2.85981e-17
6444.99544 2.88608e-17
6445.99534 2.88599e-17
6447.00523 2.85954e-17
6448.00513 2.84864e-17
6449.00504 2.84855e-17
6450.00493 2.85927e-17
6451.00483 2.88645e-17
6452.00473 2.94054e-17
6453.00463 2.96104e-17
6454.00454 2.96095e-17
6455.00443 2.94026e-17
6456.00433 2.94725e-17
6457.00423 2.94715e-17
6458.00414 2.96057e-17
6459.00403 2.98168e-17
6460.00393 2.99464e-17
6461.00383 3.00590e-17
6462.00373 3.02672e-17
6463.00364 3.05330e-17
6464.00353 3.05320e-17
6465.00343 3.07613e-17
6466.00333 3.13056e-17
6467.00324 3.10190e-17
6468.00313 3.13036e-17
6469.00303 3.18244e-17
6470.00293 3.22064e-17
6471.00283 3.31679e-17
6472.00274 3.31668e-17
6473.00263 3.31084e-17
6474.00253 3.18193e-17
6475.00243 3.17308e-17
6476.00234 3.07146e-17
6477.00223 3.00633e-17
6478.00213 2.94619e-17
6479.00203 2.94610e-17
6480.00193 2.94601e-17
6481.00184 2.94592e-17
6482.00173 2.92129e-17
6483.00163 2.94573e-17
6484.00153 2.94564e-17
6485.00144 2.94554e-17
6486.00133 2.97701e-17
6487.00123 2.97691e-17
6488.00113 2.97823e-17
6489.00103 2.97673e-17
6490.00094 2.97663e-17
6491.00083 2.93073e-17
6492.00073 2.93064e-17
6493.00063 2.92207e-17
6494.00054 2.89450e-17
6495.00043 2.83704e-17
6496.00033 2.82355e-17
6497.00023 2.78771e-17
6498.00013 2.78762e-17
6499.00004 2.82363e-17
6499.99993 2.83659e-17
6500.99983 2.83650e-17
6501.99973 2.83641e-17
6502.99964 2.83632e-17
6503.99953 2.77011e-17
6504.99943 2.77002e-17
6505.99933 2.76993e-17
6506.99923 2.76984e-17
6507.99914 2.76976e-17
6508.99903 2.68120e-17
6509.99893 2.76958e-17
6510.99883 2.76950e-17
6511.99874 2.76941e-17
6512.99863 2.76932e-17
6513.99853 2.76033e-17
6514.99843 2.68070e-17
6515.99833 2.65713e-17
6516.99824 2.65704e-17
6517.99813 2.65696e-17
6518.99803 2.65688e-17
6519.99793 2.65679e-17
6520.99784 2.61642e-17
6521.99773 2.41613e-17
6522.99763 2.55470e-17
6523.99753 2.48973e-17
6524.99743 2.41591e-17
6525.99734 2.41583e-17
6526.99723 2.40785e-17
6527.99713 2.40777e-17
6528.99703 2.41560e-17
6529.99694 2.44810e-17
6530.99683 2.42415e-17
6531.99673 2.42408e-17
6532.99663 2.43900e-17
6533.99653 2.42401e-17
6534.99644 2.42385e-17
6535.99633 2.42386e-17
6536.99623 2.42370e-17
6537.99613 2.38624e-17
6538.99604 2.38616e-17
6539.99593 2.39897e-17
6540.99583 2.39890e-17
6541.99573 2.39938e-17
6542.99563 2.39875e-17
6543.99554 2.36330e-17
6544.99543 2.36323e-17
6545.99533 2.36316e-17
6546.99523 2.39845e-17
6547.99514 2.41051e-17
6549.00503 2.42700e-17
6550.00493 2.42693e-17
6551.00483 2.47408e-17
6552.00473 2.51333e-17
6553.00463 2.51637e-17
6554.00453 2.51629e-17
6555.00443 2.53536e-17
6556.00433 2.54347e-17
6557.00423 2.59340e-17
6558.00413 2.61714e-17
6559.00403 2.61706e-17
6560.00393 2.58668e-17
6561.00383 2.58659e-17
6562.00373 2.58651e-17
6563.00363 2.62657e-17
6564.00353 2.65608e-17
6565.00343 2.66817e-17
6566.00333 2.66809e-17
6567.00323 2.65584e-17
6568.00313 2.66793e-17
6569.00303 2.69678e-17
6570.00293 2.69670e-17
6571.00283 2.69661e-17
6572.00273 2.69653e-17
6573.00263 2.69644e-17
6574.00253 2.72426e-17
6575.00243 2.77040e-17
6576.00233 2.78207e-17
6577.00223 2.78199e-17
6578.00213 2.78190e-17
6579.00203 2.74773e-17
6580.00193 2.92738e-17
6581.00183 2.96844e-17
6582.00173 2.97175e-17
6583.00163 2.96826e-17
6584.00153 2.96817e-17
6585.00143 2.94304e-17
6586.00133 2.94295e-17
6587.00123 2.94382e-17
6588.00113 3.00990e-17
6589.00103 3.03998e-17
6590.00093 3.07232e-17
6591.00083 3.07223e-17
6592.00073 3.03970e-17
6593.00063 3.06256e-17
6594.00053 3.07194e-17
6595.00043 3.08339e-17
6596.00033 3.16197e-17
6597.00023 3.17190e-17
6598.00013 3.20410e-17
6599.00003 3.21660e-17
6599.99993 3.21650e-17
6600.99983 3.21640e-17
6601.99973 3.20370e-17
6602.99963 3.21862e-17
6603.99953 3.21852e-17
6604.99943 3.29372e-17
6605.99933 3.34877e-17
6606.99923 3.35989e-17
6607.99913 3.37721e-17
6608.99903 3.37873e-17
6609.99893 3.37862e-17
6610.99883 3.45092e-17
6611.99873 3.45082e-17
6612.99863 3.45071e-17
6613.99853 3.45061e-17
6614.99843 3.45050e-17
6615.99833 3.32917e-17
6616.99823 3.28344e-17
6617.99813 3.32897e-17
6618.99803 3.32886e-17
6619.99793 3.32876e-17
6620.99783 3.32866e-17
6621.99773 3.32856e-17
6622.99763 3.28283e-17
6623.99753 3.30352e-17
6624.99743 3.36267e-17
6625.99733 3.36533e-17
6626.99723 3.42864e-17
6627.99713 3.43295e-17
6628.99703 3.43285e-17
6629.99693 3.36492e-17
6630.99683 3.36481e-17
6631.99673 3.36471e-17
6632.99663 3.37392e-17
6633.99653 3.39869e-17
6634.99643 3.39858e-17
6635.99633 3.37859e-17
6636.99623 3.37351e-17
6637.99613 3.37340e-17
6638.99603 3.37330e-17
6639.99593 3.41148e-17
6640.99583 3.41707e-17
6641.99573 3.41696e-17
6642.99563 3.41686e-17
6643.99553 3.41675e-17
6644.99543 3.41003e-17
6645.99533 3.43227e-17
6647.00523 3.45130e-17
6648.00513 3.45800e-17
6649.00503 3.45789e-17
6650.00493 3.40950e-17
6651.00483 3.37193e-17
6652.00473 3.36600e-17
6653.00463 3.33202e-17
6654.00453 3.23838e-17
6655.00443 3.34501e-17
6656.00433 3.34491e-17
6657.00423 3.34481e-17
6658.00413 3.34471e-17
6659.00403 3.34325e-17
6660.00393 3.23779e-17
6661.00383 3.34304e-17
6662.00373 3.34429e-17
6663.00363 3.34419e-17
6664.00353 3.34894e-17
6665.00343 3.34399e-17
6666.00333 3.34253e-17
6667.00323 3.09217e-17
6668.00313 3.13251e-17
6669.00303 3.13241e-17
6670.00293 3.13231e-17
6671.00283 3.13222e-17
6672.00273 3.13212e-17
6673.00263 3.09160e-17
6674.00253 3.13193e-17
6675.00243 3.15857e-17
6676.00233 3.15847e-17
6677.00223 3.15838e-17
6678.00213 3.15828e-17
6679.00203 3.15818e-17
6680.00193 3.08340e-17
6681.00183 3.08193e-17
6682.00173 2.97913e-17
6683.00163 3.08174e-17
6684.00153 3.08165e-17
6685.00143 3.08155e-17
6686.00133 3.08146e-17
6687.00123 3.08270e-17
6688.00113 2.97858e-17
6689.00103 3.03419e-17
6690.00093 3.03410e-17
6691.00083 3.03401e-17
6692.00073 3.03392e-17
6693.00063 3.03382e-17
6694.00053 3.00874e-17
6695.00043 3.00782e-17
6696.00033 3.00540e-17
6697.00023 2.84731e-17
6698.00013 2.84722e-17
6699.00003 2.84713e-17
6699.99993 2.84704e-17
6700.99983 2.84696e-17
6701.99973 2.84687e-17
6702.99963 2.83305e-17
6703.99953 2.83297e-17
6704.99943 2.84440e-17
6705.99933 2.84659e-17
6706.99923 2.89196e-17
6707.99913 2.90360e-17
6708.99903 2.90351e-17
6709.99893 2.92726e-17
6710.99883 2.92795e-17
6711.99873 2.92896e-17
6712.99863 2.92887e-17
6713.99853 2.92690e-17
6714.99843 2.92921e-17
6715.99833 2.92750e-17
6716.99823 2.92851e-17
6717.99813 2.92894e-17
6718.99803 2.92885e-17
6719.99793 2.92877e-17
6720.99783 2.94128e-17
6721.99773 2.94119e-17
6722.99763 2.94673e-17
6723.99753 2.94101e-17
6724.99743 2.94092e-17
6725.99733 2.85695e-17
6726.99723 2.94074e-17
6727.99713 2.92949e-17
6728.99703 2.85668e-17
6729.99693 2.84231e-17
6730.99683 2.79898e-17
6731.99673 2.79890e-17
6732.99663 2.79158e-17
6733.99653 2.79872e-17
6734.99643 2.78481e-17
6735.99633 2.68173e-17
6736.99623 2.67786e-17
6737.99613 2.67778e-17
6738.99603 2.67770e-17
6739.99593 2.71423e-17
6740.99583 2.71643e-17
6741.99573 2.71406e-17
6742.99563 2.67077e-17
6743.99553 2.66789e-17
6744.99543 2.65687e-17
6745.99533 2.63827e-17
6746.99523 2.57967e-17
6747.99513 2.43439e-17
6749.00503 2.26210e-17
6750.00493 2.27351e-17
6751.00483 2.27344e-17
6752.00473 2.27337e-17
6753.00463 2.27330e-17
6754.00453 2.27323e-17
6755.00443 2.26169e-17
6756.00433 2.26162e-17
6757.00423 2.26155e-17
6758.00413 2.27295e-17
6759.00403 2.37171e-17
6760.00393 2.41739e-17
6761.00383 2.44426e-17
6762.00373 2.46698e-17
6763.00363 2.44411e-17
6764.00353 2.49327e-17
6765.00343 2.49767e-17
6766.00333 2.50805e-17
6767.00323 2.49752e-17
6768.00313 2.49744e-17
6769.00303 2.49737e-17
6770.00293 2.49282e-17
6771.00283 2.41621e-17
6772.00273 2.40689e-17
6773.00263 2.39473e-17
6774.00253 2.38917e-17
6775.00243 2.28317e-17
6776.00233 2.11258e-17
6777.00223 2.08827e-17
6778.00213 2.03311e-17
6779.00203 2.08815e-17
6780.00193 2.08808e-17
6781.00183 2.08802e-17
6782.00173 2.08795e-17
6783.00163 2.08789e-17
6784.00153 2.03274e-17
6785.00143 2.06378e-17
6786.00133 2.06372e-17
6787.00123 2.06365e-17
6788.00113 2.10920e-17
6789.00103 2.11052e-17
6790.00093 2.14696e-17
6791.00083 2.19728e-17
6792.00073 2.19721e-17
6793.00063 2.19715e-17
6794.00053 2.19886e-17
6795.00043 2.14663e-17
6796.00033 2.18343e-17
6797.00023 2.19213e-17
6798.00013 2.21134e-17
6799.00003 2.21127e-17
6799.99993 2.21196e-17
6800.99983 2.21114e-17
6801.99973 2.18302e-17
6802.99963 2.17207e-17
6803.99953 2.18289e-17
6804.99943 2.18282e-17
6805.99933 2.17187e-17
6806.99923 2.15819e-17
6807.99913 2.09350e-17
6808.99903 2.08359e-17
6809.99893 2.08352e-17
6810.99883 2.08346e-17
6811.99873 2.00757e-17
6812.99863 2.00751e-17
6813.99853 1.99475e-17
6814.99843 1.98616e-17
6815.99833 1.94743e-17
6816.99823 1.94573e-17
6817.99813 1.94567e-17
6818.99803 1.84492e-17
6819.99793 1.93503e-17
6820.99783 1.93497e-17
6821.99773 1.93491e-17
6822.99763 1.93486e-17
6823.99753 1.93480e-17
6824.99743 1.84458e-17
6825.99733 1.93468e-17
6826.99723 1.93462e-17
6827.99713 1.93456e-17
6828.99703 1.93450e-17
6829.99693 1.93444e-17
6830.99683 1.93798e-17
6831.99673 1.97920e-17
6832.99663 1.97914e-17
6833.99653 1.97908e-17
6834.99643 1.97902e-17
6835.99633 1.93369e-17
6836.99623 1.93081e-17
6837.99613 1.90711e-17
6838.99603 1.90622e-17
6839.99593 1.90616e-17
6840.99583 1.90694e-17
6841.99573 1.88430e-17
6842.99563 1.87281e-17
6843.99553 1.86768e-17
6844.99543 1.85077e-17
6845.99533 1.85071e-17
6847.00523 1.81857e-17
6848.00513 1.81851e-17
6849.00503 1.70898e-17
6850.00493 1.71112e-17
6851.00483 1.71028e-17
6852.00473 1.70882e-17
6853.00463 1.66875e-17
6854.00453 1.65540e-17
6855.00443 1.64433e-17
6856.00433 1.63182e-17
6857.00423 1.63177e-17
6858.00413 1.62223e-17
6859.00403 1.60494e-17
6860.00393 1.60381e-17
6861.00383 1.53687e-17
6862.00373 1.60372e-17
6863.00363 1.60367e-17
6864.00353 1.54777e-17
6865.00343 1.54114e-17
6866.00333 1.50095e-17
6867.00323 1.49914e-17
6868.00313 1.49909e-17
6869.00303 1.49904e-17
6870.00293 1.48592e-17
6871.00283 1.44267e-17
6872.00273 1.43925e-17
6873.00263 1.43244e-17
6874.00253 1.43240e-17
6875.00243 1.42947e-17
6876.00233 1.42694e-17
6877.00223 1.42674e-17
6878.00213 1.42412e-17
6879.00203 1.41938e-17
6880.00193 1.36464e-17
6881.00183 1.36371e-17
6882.00173 1.31620e-17
6883.00163 1.30975e-17
6884.00153 1.30971e-17
6885.00143 1.30878e-17
6886.00133 1.30064e-17
6887.00123 1.26995e-17
6888.00113 1.30056e-17
6889.00103 1.30052e-17
6890.00093 1.27006e-17
6891.00083 1.26979e-17
6892.00073 1.26147e-17
6893.00063 1.26143e-17
6894.00053 1.26968e-17
6895.00043 1.26986e-17
6896.00033 1.27392e-17
6897.00023 1.27388e-17
6898.00013 1.26981e-17
6899.00003 1.26971e-17
6899.99993 1.26967e-17
6900.99983 1.26970e-17
6901.99973 1.27596e-17
6902.99963 1.27603e-17
6903.99953 1.27679e-17
6904.99943 1.27803e-17
6905.99933 1.27880e-17
6906.99923 1.27667e-17
6907.99913 1.29769e-17
6908.99903 1.29925e-17
6909.99893 1.30523e-17
6910.99883 1.30601e-17
6911.99873 1.31148e-17
6912.99863 1.31216e-17
6913.99853 1.31212e-17
6914.99843 1.33991e-17
6915.99833 1.34777e-17
6916.99823 1.41012e-17
6917.99813 1.43402e-17
6918.99803 1.45713e-17
6919.99793 1.46472e-17
6920.99783 1.49081e-17
6921.99773 1.50953e-17
6922.99763 1.51043e-17
6923.99753 1.49068e-17
6924.99743 1.54356e-17
6925.99733 1.54628e-17
6926.99723 1.61450e-17
6927.99713 1.61534e-17
6928.99703 1.63897e-17
6929.99693 1.64202e-17
6930.99683 1.67467e-17
6931.99673 1.69124e-17
6932.99663 1.64187e-17
6933.99653 1.69636e-17
6934.99643 1.75122e-17
6935.99633 1.77331e-17
6936.99623 1.87827e-17
6937.99613 1.89439e-17
6938.99603 1.94525e-17
6939.99593 1.94519e-17
6940.99583 1.93748e-17
6941.99573 1.92140e-17
6942.99563 1.92134e-17
6943.99553 1.93730e-17
6944.99543 1.94511e-17
6945.99533 1.94531e-17
6946.99523 1.94645e-17
6947.99513 1.94493e-17
6949.00503 2.01220e-17
6950.00493 2.01690e-17
6951.00483 2.02465e-17
6952.00473 2.02584e-17
6953.00463 2.03621e-17
6954.00453 2.03704e-17
6955.00443 2.03697e-17
6956.00433 2.12241e-17
6957.00423 2.16326e-17
6958.00413 2.16319e-17
6959.00403 2.16313e-17
6960.00393 2.16306e-17
6961.00383 2.16299e-17
6962.00373 2.16781e-17
6963.00363 2.17593e-17
6964.00353 2.19098e-17
6965.00343 2.19938e-17
6966.00333 2.19932e-17
6967.00323 2.19078e-17
6968.00313 2.19918e-17
6969.00303 2.27583e-17
6970.00293 2.27374e-17
6971.00283 2.27367e-17
6972.00273 2.27360e-17
6973.00263 2.27352e-17
6974.00253 2.25875e-17
6975.00243 2.32683e-17
6976.00233 2.32676e-17
6977.00223 2.32669e-17
6978.00213 2.32661e-17
6979.00203 2.32654e-17
6980.00193 2.25832e-17
6981.00183 2.32640e-17
6982.00173 2.33059e-17
6983.00163 2.38987e-17
6984.00153 2.40668e-17
6985.00143 2.41884e-17
6986.00133 2.43962e-17
6987.00123 2.44403e-17
6988.00113 2.57882e-17
6989.00103 2.61300e-17
6990.00093 2.67990e-17
6991.00083 2.81377e-17
6992.00073 2.81189e-17
6993.00063 2.81180e-17
6994.00053 2.81171e-17
6995.00043 2.81162e-17
6996.00033 2.69764e-17
6997.00023 2.74283e-17
6998.00013 2.74185e-17
6999.00003 2.69738e-17
6999.99993 2.69555e-17
7000.99983 2.67690e-17
7001.99973 2.67682e-17
7002.99963 2.69530e-17
7003.99953 2.69550e-17
7004.99943 2.74125e-17
7005.99933 2.74206e-17
7006.99923 2.74197e-17
7007.99913 2.83595e-17
7008.99903 2.83542e-17
7009.99893 2.83577e-17
7010.99883 2.83681e-17
7011.99873 2.89141e-17
7012.99863 2.89326e-17
7013.99853 2.89317e-17
7014.99843 2.88599e-17
7015.99833 2.83637e-17
7016.99823 2.83628e-17
7017.99813 2.86374e-17
7018.99803 2.86520e-17
7019.99793 2.86356e-17
7020.99783 2.83425e-17
7021.99773 2.78762e-17
7022.99763 2.74834e-17
7023.99753 2.73842e-17
7024.99743 2.74816e-17
7025.99733 2.74808e-17
7026.99723 2.74799e-17
7027.99713 2.74791e-17
7028.99703 2.74782e-17
7029.99693 2.73790e-17
7030.99683 2.82367e-17
7031.99673 2.82871e-17
7032.99663 2.88976e-17
7033.99653 2.88967e-17
7034.99643 2.88958e-17
7035.99633 2.88949e-17
7036.99623 2.90260e-17
7037.99613 2.94062e-17
7038.99603 2.96599e-17
7039.99593 2.95144e-17
7040.99583 2.94984e-17
7041.99573 2.94025e-17
7042.99563 2.90206e-17
7043.99553 2.89357e-17
7044.99543 2.89338e-17
7045.99533 2.89329e-17
7047.00523 2.89320e-17
7048.00513 2.76295e-17
7049.00503 2.69580e-17
7050.00493 2.76278e-17
7051.00483 2.76269e-17
7052.00473 2.76261e-17
7053.00463 2.76252e-17
7054.00453 2.76243e-17
7055.00443 2.69530e-17
7056.00433 2.79410e-17
7057.00423 2.79539e-17
7058.00413 2.88245e-17
7059.00403 2.89777e-17
7060.00393 2.90631e-17
7061.00383 2.90842e-17
7062.00373 2.90833e-17
7063.00363 2.92460e-17
7064.00353 2.93189e-17
7065.00343 2.92934e-17
7066.00333 2.92925e-17
7067.00323 2.92916e-17
7068.00313 2.92907e-17
7069.00303 2.85452e-17
7070.00293 2.85220e-17
7071.00283 2.70295e-17
7072.00273 2.61904e-17
7073.00263 2.58701e-17
7074.00253 2.56683e-17
7075.00243 2.56675e-17
7076.00233 2.56141e-17
7077.00223 2.48867e-17
7078.00213 2.42741e-17
7079.00203 2.42063e-17
7080.00193 2.42055e-17
7081.00183 2.42718e-17
7082.00173 2.43293e-17
7083.00163 2.43285e-17
7084.00153 2.43003e-17
7085.00143 2.40020e-17
7086.00133 2.39913e-17
7087.00123 2.39906e-17
7088.00113 2.39998e-17
7089.00103 2.39890e-17
7090.00093 2.42957e-17
7091.09236 2.42957e-17
7092.36549 2.27479e-17
7093.62843 2.18913e-17
7094.90155 2.23608e-17
7096.16449 2.24197e-17
7097.43762 2.11785e-17
7098.70056 2.07185e-17
7099.97368 2.09975e-17
7101.24681 2.14478e-17
7102.50975 2.26399e-17
7103.78287 2.31414e-17
7105.04581 2.32104e-17
7106.31894 2.23943e-17
7107.58188 2.25897e-17
7108.85500 2.38949e-17
7110.11794 2.35244e-17
7111.39107 2.26347e-17
7112.65401 2.45204e-17
7113.92713 2.63990e-17
7115.19007 2.66099e-17
7116.46320 2.65291e-17
7117.73632 2.52076e-17
7118.99926 2.37933e-17
7120.27239 2.44689e-17
7121.53533 2.53392e-17
7122.80846 2.40810e-17
7124.07139 2.31265e-17
7125.34452 2.50420e-17
7126.60746 2.56662e-17
7127.88058 2.37307e-17
7129.14352 2.42191e-17
7130.41665 2.60492e-17
7131.68977 2.59428e-17
7132.95272 2.69306e-17
7134.22584 2.72980e-17
7135.48878 2.42852e-17
7136.76190 2.35723e-17
7138.02484 2.62373e-17
7139.29797 2.80258e-17
7140.56091 2.79551e-17
7141.83403 2.76422e-17
7143.09698 2.65256e-17
7144.37010 2.50415e-17
7145.63304 2.70713e-17
7146.90617 2.96770e-17
7148.16910 2.80432e-17
7149.44223 2.65259e-17
7150.71535 2.61534e-17
7151.97829 2.50564e-17
7153.25142 2.54708e-17
7154.51436 2.69181e-17
7155.78748 2.75689e-17
7157.05043 2.62839e-17
7158.32355 2.48792e-17
7159.58649 2.55072e-17
7160.85961 2.56332e-17
7162.12255 2.50692e-17
7163.39568 2.48312e-17
7164.65862 2.42248e-17
7165.93174 2.48890e-17
7167.20487 2.48096e-17
7168.46781 2.35392e-17
7169.74093 2.48877e-17
7171.00387 2.61408e-17
7172.27700 2.60892e-17
7173.53994 2.63437e-17
7174.81306 2.58814e-17
7176.07600 2.52187e-17
7177.34913 2.54295e-17
7178.61207 2.50255e-17
7179.88519 2.48014e-17
7181.15832 2.75648e-17
7182.42126 2.77604e-17
7183.69438 2.39258e-17
7184.95732 2.25866e-17
7186.23045 2.38595e-17
7187.49339 2.57239e-17
7188.76651 2.69386e-17
7190.02945 2.64900e-17
7191.30258 2.56316e-17
7192.56552 2.49334e-17
7193.83864 2.48871e-17
7195.10158 2.54286e-17
7196.37471 2.45894e-17
7197.63765 2.42343e-17
7198.91077 2.52230e-17
7200.18390 2.63396e-17
7201.44684 2.64425e-17
7202.71997 2.58152e-17
7203.98290 2.53473e-17
7205.25603 2.43362e-17
7206.51897 2.38771e-17
7207.79209 2.57965e-17
7209.05503 2.79314e-17
7210.32816 2.82972e-17
7211.59110 2.89449e-17
7212.86423 2.89320e-17
7214.13735 2.67569e-17
7215.40029 2.62123e-17
7216.67342 2.65800e-17
7217.93635 2.57561e-17
7219.20948 2.63485e-17
7220.47242 2.78348e-17
7221.74554 2.66629e-17
7223.00849 2.42855e-17
7224.28161 2.35248e-17
7225.54455 2.45977e-17
7226.81768 2.66307e-17
7228.08061 2.70877e-17
7229.35374 2.42774e-17
7230.62686 2.22785e-17
7231.88980 2.18549e-17
7233.16293 2.23301e-17
7234.42587 2.53923e-17
7235.69899 2.76845e-17
7236.96194 2.42084e-17
7238.23506 2.15695e-17
7239.49800 2.12472e-17
7240.77112 2.13116e-17
7242.03406 2.35435e-17
7243.30719 2.66727e-17
7244.57013 2.62950e-17
7245.84325 2.48892e-17
7247.11638 2.55439e-17
7248.37932 2.49108e-17
7249.65244 2.45387e-17
7250.91538 2.59693e-17
7252.18851 2.48677e-17
7253.45145 2.13349e-17
7254.72457 2.12137e-17
7255.98751 2.40910e-17
7257.26064 2.45714e-17
7258.52358 2.54573e-17
7259.79670 2.60122e-17
7261.05964 2.41005e-17
7262.33277 2.36425e-17
7263.60589 2.47966e-17
7264.86883 2.45100e-17
7266.14196 2.42245e-17
7267.40490 2.29060e-17
7268.67802 2.24961e-17
7269.94096 2.42021e-17
7271.21409 2.41689e-17
7272.47703 2.44117e-17
7273.75015 2.45144e-17
7275.01309 2.21263e-17
7276.28622 2.34030e-17
7277.54916 2.68857e-17
7278.82228 2.78017e-17
7280.09541 2.61320e-17
7281.35835 2.29602e-17
7282.63148 2.14561e-17
7283.89441 2.38775e-17
7285.16754 2.50107e-17
7286.43048 2.27059e-17
7287.70360 2.23558e-17
7288.96654 2.28331e-17
7290.23967 2.16323e-17
7291.50261 2.09605e-17
7292.77574 2.18429e-17
7294.04886 2.32206e-17
7295.31180 2.51138e-17
7296.58493 2.68418e-17
7297.84786 2.53696e-17
7299.12099 2.25227e-17
7300.38393 2.05282e-17
7301.65705 1.92292e-17
7302.92000 1.85660e-17
7304.19312 1.93915e-17
7305.45606 2.20599e-17
7306.72919 2.33305e-17
7307.99212 2.30394e-17
7309.26525 2.25905e-17
7310.53838 2.19174e-17
7311.80131 2.17646e-17
7313.07444 2.22749e-17
7314.33738 2.24193e-17
7315.61050 2.26687e-17
7316.87345 2.57217e-17
7318.14657 2.67086e-17
7319.40951 2.32417e-17
7320.68264 2.13199e-17
7321.94557 2.11785e-17
7323.21870 2.23888e-17
7324.48164 2.40468e-17
7325.75476 2.37043e-17
7327.02789 2.41397e-17
7328.29083 2.55113e-17
7329.56395 2.42550e-17
7330.82690 2.39587e-17
7332.10002 2.41140e-17
7333.36296 2.13963e-17
7334.63608 1.87673e-17
7335.89902 1.93491e-17
7337.17215 2.40605e-17
7338.43509 2.63981e-17
7339.70821 2.40675e-17
7340.97116 2.30860e-17
7342.24428 2.51170e-17
7343.51740 2.51623e-17
7344.78034 2.24461e-17
7346.05347 2.29104e-17
7347.31641 2.45968e-17
7348.58953 2.39591e-17
7349.85247 2.36106e-17
7351.12560 2.42794e-17
7352.38854 2.43503e-17
7353.66166 2.35375e-17
7354.92460 2.32801e-17
7356.19773 2.23847e-17
7357.46067 2.12283e-17
7358.73379 2.21439e-17
7360.00692 2.40905e-17
7361.26986 2.48953e-17
7362.54299 2.49090e-17
7363.80592 2.54521e-17
7365.07905 2.50818e-17
7366.34199 2.36378e-17
7367.61511 2.30975e-17
7368.87805 2.47389e-17
7370.15118 2.56223e-17
7371.41412 2.46971e-17
7372.68725 2.29809e-17
7373.96037 2.24539e-17
7375.22331 2.38284e-17
7376.49644 2.50429e-17
7377.75937 2.60550e-17
7379.03250 2.65019e-17
7380.29544 2.66599e-17
7381.56856 2.59884e-17
7382.83150 2.43786e-17
7384.10463 2.39099e-17
7385.36757 2.31497e-17
7386.64070 2.15296e-17
7387.90363 2.27540e-17
7389.17676 2.73618e-17
7390.44988 2.82721e-17
7391.71282 2.58518e-17
7392.98595 2.48905e-17
7394.24889 2.61978e-17
7395.52201 2.57804e-17
7396.78496 2.52611e-17
7398.05808 2.53681e-17
7399.32102 2.63914e-17
7400.59415 2.86592e-17
7401.85708 2.84153e-17
7403.13021 2.70950e-17
7404.39315 2.69371e-17
7405.66627 2.74332e-17
7406.93940 2.75822e-17
7408.20234 2.61144e-17
7409.47547 2.57644e-17
7410.73841 2.65750e-17
7412.01153 2.49719e-17
7413.27447 2.36188e-17
7414.54760 2.38005e-17
7415.81053 2.39149e-17
7417.08366 2.45849e-17
7418.34660 2.48564e-17
7419.61973 2.49628e-17
7420.88267 2.49524e-17
7422.15579 2.40557e-17
7423.42891 2.37735e-17
7424.69186 2.61701e-17
7425.96498 2.78674e-17
7427.22792 2.59656e-17
7428.50104 2.35881e-17
7429.76399 2.38477e-17
7431.03711 2.42774e-17
7432.30005 2.29767e-17
7433.57317 2.18119e-17
7434.83612 2.26663e-17
7436.10924 2.55611e-17
7437.37218 2.56573e-17
7438.64530 2.41134e-17
7439.91843 2.46466e-17
7441.18137 2.70159e-17
7442.45449 2.72580e-17
7443.71743 2.64889e-17
7444.99056 2.62032e-17
7446.25350 2.47393e-17
7447.52662 2.42324e-17
7448.78956 2.55853e-17
7450.06269 2.55574e-17
7451.32563 2.47085e-17
7452.59875 2.42679e-17
7453.87188 2.44746e-17
7455.13482 2.48671e-17
7456.40794 2.50620e-17
7457.67088 2.48988e-17
7458.94401 2.34152e-17
7460.20695 2.16108e-17
7461.48007 2.18693e-17
7462.74301 2.39741e-17
7464.01614 2.45191e-17
7465.27908 2.42124e-17
7466.55220 2.53176e-17
7467.81514 2.44003e-17
7469.08827 2.20708e-17
7470.36139 2.27178e-17
7471.62433 2.39441e-17
7472.89746 2.34508e-17
7474.16040 2.28464e-17
7475.43352 2.22903e-17
7476.69646 2.29700e-17
7477.96959 2.39713e-17
7479.23253 2.30733e-17
7480.50565 2.22914e-17
7481.76859 2.37826e-17
7483.04172 2.52948e-17
7484.30466 2.41873e-17
7485.57778 2.16511e-17
7486.85091 2.19639e-17
7488.11385 2.34015e-17
7489.38698 2.32189e-17
7490.64991 2.24180e-17
7491.92304 2.35414e-17
7493.18598 2.36878e-17
7494.45910 2.15264e-17
7495.72204 2.11591e-17
7496.99517 2.15908e-17
7498.25811 2.13055e-17
7499.53124 2.20727e-17
7500.79417 2.32561e-17
7502.06730 2.31976e-17
7503.34043 2.16393e-17
7504.60336 2.01113e-17
7505.87649 2.02586e-17
7507.13943 2.15199e-17
7508.41255 2.28431e-17
7509.67550 2.43360e-17
7510.94862 2.39485e-17
7512.21156 2.29900e-17
7513.48469 2.37918e-17
7514.74762 2.47583e-17
7516.02075 2.20510e-17
7517.28369 1.93319e-17
7518.55681 1.98350e-17
7519.82994 2.23314e-17
7521.09288 2.55783e-17
7522.36600 2.62680e-17
7523.62895 2.49421e-17
7524.90207 2.48921e-17
7526.16501 2.37041e-17
7527.43813 2.13995e-17
7528.70107 1.99844e-17
7529.97420 1.95229e-17
7531.23714 2.02127e-17
7532.51026 2.12046e-17
7533.78339 2.13014e-17
7535.04633 2.23638e-17
7536.31945 2.48760e-17
7537.58239 2.48899e-17
7538.85552 2.19983e-17
7540.11846 2.16424e-17
7541.39158 2.33397e-17
7542.65452 2.29713e-17
7543.92765 2.24874e-17
7545.19059 2.08186e-17
7546.46371 1.94146e-17
7547.72665 2.09986e-17
7548.99978 2.11306e-17
7550.26272 2.11062e-17
7551.53584 2.10819e-17
7552.80897 2.10575e-17
7554.07191 2.10333e-17
7555.34503 2.10088e-17
7556.60797 2.09846e-17
7557.88110 2.09602e-17
7559.14404 2.09359e-17
7560.41716 2.09117e-17
7561.68010 2.08872e-17
7562.95323 2.08630e-17
7564.21617 2.08386e-17
7565.48929 2.08143e-17
7566.76242 2.07901e-17
7568.02536 2.07657e-17
7569.29849 2.07414e-17
7570.56142 2.07170e-17
7571.83455 2.06928e-17
7573.09749 2.06685e-17
7574.37061 2.06441e-17
7575.63355 2.06198e-17
7576.90668 2.05956e-17
7578.16962 2.05714e-17
7579.44275 2.05469e-17
7580.70568 2.05227e-17
7581.97881 2.04985e-17
7583.25194 2.04742e-17
7584.51487 2.04498e-17
7585.78800 2.04255e-17
7587.05094 2.04013e-17
7588.32406 2.03771e-17
7589.58700 2.03526e-17
7590.86013 2.03284e-17
7592.12307 2.03042e-17
7593.39620 2.02799e-17
7594.65913 2.02557e-17
7595.93226 2.02314e-17
7597.19520 2.02070e-17
7598.46832 2.01828e-17
7599.74145 2.01585e-17
7601.00439 2.01343e-17
7602.27751 2.01100e-17
7603.54046 2.00858e-17
7604.81358 2.00616e-17
7606.07652 2.00373e-17
7607.34965 2.00131e-17
7608.61258 1.99888e-17
7609.88571 1.99646e-17
7611.14865 1.99403e-17
7612.42177 1.99159e-17
7613.69490 1.98917e-17
7614.95784 1.98676e-17
7616.23096 1.98434e-17
7617.49391 1.98191e-17
7618.76703 1.97949e-17
7620.02997 1.97707e-17
7621.30309 1.97464e-17
7622.56603 1.97222e-17
7623.83916 1.96979e-17
7625.10210 1.96737e-17
7626.37522 1.96494e-17
7627.63817 1.96252e-17
7628.91129 1.96010e-17
7630.17423 1.95767e-17
7631.44735 1.95525e-17
7632.72048 1.95284e-17
7633.98342 1.95042e-17
7635.25654 1.94799e-17
7636.51948 1.94557e-17
7637.79261 1.94315e-17
7639.05555 1.94072e-17
7640.32867 1.93832e-17
7641.59161 1.93589e-17
7642.86474 1.93347e-17
7644.12768 1.93104e-17
7645.40080 1.92864e-17
7646.67393 1.92621e-17
7647.93687 1.92379e-17
7649.21000 1.92136e-17
7650.47293 1.91896e-17
7651.74606 1.91653e-17
7653.00900 1.91411e-17
7654.28212 1.91171e-17
7655.54506 1.90928e-17
7656.81819 1.90686e-17
7658.08113 1.90445e-17
7659.35425 1.90203e-17
7660.61719 1.89960e-17
7661.89032 1.89720e-17
7663.16345 1.89477e-17
7664.42638 1.89235e-17
7665.69951 1.88994e-17
7666.96245 1.88752e-17
7668.23557 1.88511e-17
7669.49851 1.88269e-17
7670.77164 1.88028e-17
7672.03458 1.87786e-17
7673.30771 1.87545e-17
7674.57064 1.87303e-17
7675.84377 1.87062e-17
7677.10671 1.86820e-17
7678.37983 1.86579e-17
7679.65296 1.86337e-17
7680.91590 1.86096e-17
7682.18902 1.83888e-17
7683.45197 1.83793e-17
7684.72509 1.85880e-17
7685.98803 2.03661e-17
7687.26116 2.13741e-17
7688.52409 2.05612e-17
7689.79722 2.01115e-17
7691.06016 2.02951e-17
7692.33328 2.05503e-17
7693.59623 2.05492e-17
7694.86935 2.15259e-17
7696.14247 2.24287e-17
7697.40542 2.10904e-17
7698.67854 2.16241e-17
7699.94148 2.21450e-17
7701.21460 1.92904e-17
7702.47754 1.75009e-17
7703.75067 1.96176e-17
7705.01361 2.11735e-17
7706.28673 2.04150e-17
7707.54968 1.90501e-17
7708.82280 1.99113e-17
7710.08574 2.14256e-17
7711.35886 2.16049e-17
7712.63199 2.10827e-17
7713.89493 2.06750e-17
7715.16805 2.17581e-17
7716.43099 2.11739e-17
7717.70412 1.87882e-17
7718.96706 1.82442e-17
7720.24018 1.83940e-17
7721.50312 1.92190e-17
7722.77625 1.78932e-17
7724.03919 1.63263e-17
7725.31231 1.75218e-17
7726.57525 1.92201e-17
7727.84838 1.76512e-17
7729.12150 1.74225e-17
7730.38444 1.86065e-17
7731.65757 1.92780e-17
7732.92051 1.88613e-17
7734.19363 1.75291e-17
7735.45657 1.67639e-17
7736.72970 1.70117e-17
7737.99264 1.90597e-17
7739.26576 2.10488e-17
7740.52870 1.95934e-17
7741.80183 1.76850e-17
7743.07496 1.83914e-17
7744.33789 1.98228e-17
7745.61102 1.85917e-17
7746.87396 1.53790e-17
7748.14708 1.64748e-17
7749.41002 1.76651e-17
7750.68315 1.51406e-17
7751.94609 1.69146e-17
7753.21922 2.04374e-17
7754.48215 2.11952e-17
7755.75528 1.92096e-17
7757.01822 1.66848e-17
7758.29134 1.56443e-17
7759.56447 1.60828e-17
7760.82741 1.68747e-17
7762.10053 1.76543e-17
7763.36348 1.79052e-17
7764.63660 1.74345e-17
7765.89954 1.66204e-17
7767.17267 1.59273e-17
7768.43560 1.58353e-17
7769.70873 1.58930e-17
7770.97167 1.62432e-17
7772.24479 1.54907e-17
7773.50774 1.35936e-17
7774.78086 1.34644e-17
7776.05399 1.48295e-17
7777.31693 1.58012e-17
7778.59005 1.70591e-17
7779.85299 1.87730e-17
7781.12612 1.90286e-17
7782.38905 1.76422e-17
7783.66218 1.63141e-17
7784.92512 1.53740e-17
7786.19825 1.45161e-17
7787.46119 1.43603e-17
7788.73431 1.56705e-17
7789.99725 1.66271e-17
7791.27038 1.61097e-17
7792.54350 1.65146e-17
7793.80644 1.59416e-17
7795.07956 1.51838e-17
7796.34250 1.63421e-17
7797.61563 1.57840e-17
7798.87857 1.60567e-17
7800.15169 1.69649e-17
7801.41464 1.73790e-17
7802.68776 1.83013e-17
7803.95070 1.97982e-17
7805.22382 2.08469e-17
7806.48676 2.05534e-17
7807.75989 1.94220e-17
7809.03301 1.91622e-17
7810.29595 1.94701e-17
7811.56908 1.74776e-17
7812.83202 1.51561e-17
7814.10514 1.50661e-17
7815.36808 1.48765e-17
7816.64121 1.60113e-17
7817.90415 1.65488e-17
7819.17727 1.48328e-17
7820.44021 1.57204e-17
7821.71334 1.86946e-17
7822.98646 2.02470e-17
7824.24940 2.25288e-17
7825.52253 2.46632e-17
7826.78547 2.38275e-17
7828.05859 1.99353e-17
7829.32153 1.60756e-17
7830.59466 1.57110e-17
7831.85760 1.74465e-17
7833.13072 1.73093e-17
7834.39366 1.70301e-17
7835.66679 1.78431e-17
7836.92973 1.82721e-17
7838.20285 1.99405e-17
7839.47598 1.99411e-17
7840.73892 1.81400e-17
7842.01204 1.79161e-17
7843.27499 2.06513e-17
7844.54811 2.19983e-17
7845.81105 2.08393e-17
7847.08417 2.15473e-17
7848.34711 2.41223e-17
7849.62024 2.38495e-17
7850.88318 2.20240e-17
7852.15630 2.23427e-17
7853.41925 2.52502e-17
7854.69237 2.56592e-17
7855.96550 2.29817e-17
7857.22843 2.24302e-17
7858.50156 2.26149e-17
7859.76450 2.31741e-17
7861.03762 2.08475e-17
7862.30056 1.87954e-17
7863.57369 1.80527e-17
7864.83663 1.80906e-17
7866.10975 2.08414e-17
7867.37270 2.34430e-17
7868.64582 2.44280e-17
7869.90876 2.18530e-17
7871.18188 1.72366e-17
7872.45501 1.70907e-17
7873.71795 2.00671e-17
7874.99107 2.11014e-17
7876.25401 2.11250e-17
7877.52714 2.12320e-17
7878.79008 2.07455e-17
7880.06321 2.15553e-17
7881.32614 2.41173e-17
7882.59927 2.38954e-17
7883.86221 2.14420e-17
7885.13533 2.12444e-17
7886.39827 2.34872e-17
7887.67140 2.58340e-17
7888.94452 2.80084e-17
7890.20747 2.87704e-17
7891.48059 2.58174e-17
7892.74353 2.39258e-17
7894.01665 2.50640e-17
7895.27959 2.44215e-17
7896.55272 2.20222e-17
7897.81566 2.09927e-17
7899.08878 2.12498e-17
7900.35173 2.09343e-17
7901.62485 2.24931e-17
7902.89797 2.40242e-17
7904.16091 2.35331e-17
7905.43404 2.32426e-17
7906.69698 2.30679e-17
7907.97010 2.11561e-17
7909.23304 2.15333e-17
7910.50617 2.21280e-17
7911.76911 2.15164e-17
7913.04223 2.22912e-17
7914.30517 2.31206e-17
7915.57830 2.29258e-17
7916.84124 2.23429e-17
7918.11436 2.25090e-17
7919.37730 2.41095e-17
7920.65043 2.47169e-17
7921.92355 2.14650e-17
7923.18649 2.07931e-17
7924.45962 2.24561e-17
7925.72256 2.25340e-17
7926.99568 2.21830e-17
7928.25862 2.34236e-17
7929.53175 2.44667e-17
7930.79469 2.28790e-17
7932.06781 1.99031e-17
7933.33075 1.83747e-17
7934.60388 1.98410e-17
7935.87700 2.14202e-17
7937.13994 2.17298e-17
7938.41307 2.31325e-17
7939.67601 2.24744e-17
7940.94913 2.03726e-17
7942.21207 2.01822e-17
7943.48520 2.27607e-17
7944.74814 2.37528e-17
7946.02126 2.13682e-17
7947.28420 2.08049e-17
7948.55733 2.16395e-17
7949.82027 2.21474e-17
7951.09339 2.36201e-17
7952.36652 2.37483e-17
7953.62946 2.17176e-17
7954.90258 2.03103e-17
7956.16552 2.02975e-17
7957.43865 2.06863e-17
7958.70159 2.23140e-17
7959.97472 2.52776e-17
7961.23765 2.63072e-17
7962.51078 2.46195e-17
7963.77372 2.32418e-17
7965.04684 2.33534e-17
7966.30978 2.49698e-17
7967.58291 2.68451e-17
7968.85603 2.50970e-17
7970.11898 2.23149e-17
7971.39210 2.33778e-17
7972.65504 2.42480e-17
7973.92817 2.34739e-17
7975.19110 2.34360e-17
7976.46423 2.28564e-17
7977.72717 2.08114e-17
7979.00029 1.98091e-17
7980.26324 2.36125e-17
7981.53636 2.53869e-17
7982.79930 2.19742e-17
7984.07243 2.02814e-17
7985.34555 2.13810e-17
7986.60849 2.27594e-17
7987.88161 2.34892e-17
7989.14455 2.12285e-17
7990.41768 1.91191e-17
7991.68062 2.19937e-17
7992.95374 2.45655e-17
7994.21669 2.22994e-17
7995.48981 1.95369e-17
7996.75275 1.85345e-17
7998.02587 1.90340e-17
7999.28881 2.07416e-17
8000.56194 2.21552e-17
8001.83506 2.10856e-17
8003.09800 2.02836e-17
8004.37113 2.11931e-17
8005.63407 2.12155e-17
8006.90719 2.06870e-17
8008.17013 2.11756e-17
8009.44326 2.19914e-17
8010.70620 2.15253e-17
8011.97932 1.98371e-17
8013.24226 1.92936e-17
8014.51539 2.09237e-17
8015.78851 2.18332e-17
8017.05145 2.06878e-17
8018.32458 1.94561e-17
8019.58752 1.98791e-17
8020.86064 2.09380e-17
8022.12358 2.17235e-17
8023.39671 2.21010e-17
8024.65965 2.28815e-17
8025.93277 2.55772e-17
8027.19571 2.67967e-17
8028.46884 2.48475e-17
8029.73178 2.29717e-17
8031.00490 2.07786e-17
8032.27803 1.93421e-17
8033.54097 1.94664e-17
8034.81409 2.05675e-17
8036.07703 2.17844e-17
8037.35016 2.07657e-17
8038.61310 2.00134e-17
8039.88623 1.98043e-17
8041.14916 1.91703e-17
8042.42229 1.93469e-17
8043.68523 1.90338e-17
8044.95835 2.02448e-17
8046.22129 2.12253e-17
8047.49442 2.13819e-17
8048.76754 2.11830e-17
8050.03049 2.00408e-17
8051.30361 1.89603e-17
8052.56655 1.92516e-17
8053.83968 2.04631e-17
8055.10261 2.10923e-17
8056.37574 2.26356e-17
8057.63868 2.52058e-17
8058.91180 2.43851e-17
8060.17475 2.13593e-17
8061.44787 2.06644e-17
8062.71081 2.20155e-17
8063.98394 2.25647e-17
8065.25706 2.08395e-17
8066.52000 2.00299e-17
8067.79312 2.11471e-17
8069.05606 2.21212e-17
8070.32919 2.24915e-17
8071.59213 2.12992e-17
8072.86525 2.00218e-17
8074.12820 2.06628e-17
8075.40132 2.05745e-17
8076.66426 1.98099e-17
8077.93739 1.96976e-17
8079.20032 1.96269e-17
8080.47345 1.90697e-17
8081.74657 1.81684e-17
8083.00951 1.90989e-17
8084.28264 2.00399e-17
8085.54558 2.06034e-17
8086.81870 2.11626e-17
8088.08165 1.89781e-17
8089.35477 1.66753e-17
8090.61771 1.81783e-17
8091.89083 1.99644e-17
8093.15377 1.95262e-17
8094.42690 1.89614e-17
8095.70002 1.86172e-17
8096.96296 1.72266e-17
8098.23609 1.79790e-17
8099.49903 2.17507e-17
8100.77215 2.49019e-17
8102.03509 2.40005e-17
8103.30822 2.08606e-17
8104.57116 1.86152e-17
8105.84428 1.72719e-17
8107.10722 1.86661e-17
8108.38035 2.04692e-17
8109.64329 1.74417e-17
8110.91641 1.54233e-17
8112.17935 1.69739e-17
8113.45248 1.81418e-17
8114.72560 1.85791e-17
8115.98854 1.75989e-17
8117.26167 1.64996e-17
8118.52461 1.76836e-17
8119.79774 1.86631e-17
8121.06067 1.80956e-17
8122.33380 1.85047e-17
8123.59674 1.78664e-17
8124.86986 1.65451e-17
8126.13280 1.69257e-17
8127.40593 1.60143e-17
8128.67905 1.51769e-17
8129.94200 1.55302e-17
8131.21512 1.71745e-17
8132.47806 1.77125e-17
8133.75119 1.88108e-17
8135.01412 1.97942e-17
8136.28725 1.81679e-17
8137.55019 1.61493e-17
8138.82331 1.52441e-17
8140.08625 1.73814e-17
8141.35938 2.05834e-17
8142.62232 2.01903e-17
8143.89545 1.78934e-17
8145.16857 1.78574e-17
8146.43151 1.89836e-17
8147.70464 1.86942e-17
8148.96757 1.83034e-17
8150.24070 1.83213e-17
8151.50364 1.85528e-17
8152.77676 1.93539e-17
8154.03971 1.88743e-17
8155.31283 1.77349e-17
8156.57577 1.77975e-17
8157.84890 1.90088e-17
8159.11183 1.91470e-17
8160.38496 1.73190e-17
8161.65808 1.76335e-17
8162.92102 1.75822e-17
8164.19415 1.62629e-17
8165.45709 1.72154e-17
8166.73021 1.88891e-17
8167.99316 1.85639e-17
8169.26628 1.84147e-17
8170.52922 1.98863e-17
8171.80234 1.96822e-17
8173.06528 1.92490e-17
8174.33841 1.95769e-17
8175.60135 1.83301e-17
8176.87447 1.69430e-17
8178.14760 1.74066e-17
8179.41054 1.88569e-17
8180.68366 1.86548e-17
8181.94660 1.73522e-17
8183.21973 1.81580e-17
8184.48267 1.88102e-17
8185.75579 1.76486e-17
8187.01873 1.78552e-17
8188.29186 1.87122e-17
8189.55480 1.81104e-17
8190.82792 1.69398e-17
8192.09087 1.60362e-17
8193.36399 1.71333e-17
8194.63711 1.79025e-17
8195.90006 1.73376e-17
8197.17318 1.76914e-17
8198.43612 1.83340e-17
8199.70925 1.83281e-17
8200.97219 1.76690e-17
8202.24531 1.94368e-17
8203.50825 1.95005e-17
8204.78138 1.70031e-17
8206.04431 1.66953e-17
8207.31744 1.84693e-17
8208.59056 2.05932e-17
8209.85350 2.04476e-17
8211.12663 1.68990e-17
8212.38957 1.48642e-17
8213.66269 1.60346e-17
8214.92563 1.81950e-17
8216.19876 1.86964e-17
8217.46170 1.75990e-17
8218.73482 1.74275e-17
8219.99777 1.71625e-17
8221.27089 1.67731e-17
8222.53383 1.79082e-17
8223.80696 1.82295e-17
8225.08008 1.64945e-17
8226.34302 1.53024e-17
8227.61614 1.47652e-17
8228.87908 1.44064e-17
8230.15221 1.56293e-17
8231.41515 1.74282e-17
8232.68827 1.75274e-17
8233.95121 1.63512e-17
8235.22434 1.65046e-17
8236.48728 1.93269e-17
8237.76040 2.03241e-17
8239.02334 1.92499e-17
8240.29647 1.92610e-17
8241.56959 1.86579e-17
8242.83253 1.78909e-17
8244.10566 1.72178e-17
8245.36860 1.77698e-17
8246.64172 1.86183e-17
8247.90467 1.98264e-17
8249.17779 1.81665e-17
8250.44073 1.51370e-17
8251.71385 1.55399e-17
8252.97679 1.58561e-17
8254.24992 1.50923e-17
8255.51286 1.50323e-17
8256.78599 1.45725e-17
8258.05911 1.57468e-17
8259.32205 1.73307e-17
8260.59518 1.73321e-17
8261.85811 1.62341e-17
8263.13124 1.56140e-17
8264.39418 1.70299e-17
8265.66730 1.86237e-17
8266.93024 1.80951e-17
8268.20337 1.85024e-17
8269.46631 1.90075e-17
8270.73943 1.66828e-17
8272.00238 1.57311e-17
8273.27550 1.75363e-17
8274.54862 1.89522e-17
8275.81156 1.75613e-17
8277.08469 1.65387e-17
8278.34763 1.69255e-17
8279.62075 1.68258e-17
8280.88370 1.73181e-17
8282.15682 1.97429e-17
8283.41976 2.25501e-17
8284.69289 2.27080e-17
8285.95582 1.97608e-17
8287.22895 1.43381e-17
8288.49189 1.34542e-17
8289.76501 1.67187e-17
8291.03814 1.92368e-17
8292.30108 1.89194e-17
8293.57421 1.68148e-17
8294.83714 1.69484e-17
8296.11027 1.56293e-17
8297.37321 1.39703e-17
8298.64633 1.57318e-17
8299.90927 1.74487e-17
8301.18240 1.98321e-17
8302.44534 1.93846e-17
8303.71846 1.69924e-17
8304.98141 1.72526e-17
8306.25453 1.86938e-17
8307.52765 2.03639e-17
8308.79060 2.09250e-17
8310.06372 2.06032e-17
8311.32666 1.79802e-17
8312.59978 1.43379e-17
8313.86273 1.57763e-17
8315.13585 1.92618e-17
8316.39879 1.88363e-17
8317.67191 1.64623e-17
8318.93485 1.52242e-17
8320.20798 1.53146e-17
8321.48110 1.63662e-17
8322.74404 1.73040e-17
8324.01717 1.68786e-17
8325.28011 1.67685e-17
8326.55323 1.70619e-17
8327.81617 1.55617e-17
8329.08930 1.61570e-17
8330.35224 1.80667e-17
8331.62536 1.75840e-17
8332.88830 1.66142e-17
8334.16143 1.45453e-17
8335.42437 1.34312e-17
8336.69750 1.61606e-17
8337.97062 2.27644e-17
8339.23356 2.83613e-17
8340.50669 2.66327e-17
8341.76962 2.17709e-17
8343.04275 1.73675e-17
8344.30569 1.49370e-17
8345.57881 1.77226e-17
8346.84175 2.32333e-17
8348.11488 2.60626e-17
8349.37782 2.24752e-17
8350.65094 1.95058e-17
8351.91388 2.02553e-17
8353.18701 2.09476e-17
8354.46013 1.87599e-17
8355.72307 1.74224e-17
8356.99620 1.88763e-17
8358.25914 1.90199e-17
8359.53226 1.74548e-17
8360.79521 1.68588e-17
8362.06833 1.70049e-17
8363.33127 1.74153e-17
8364.60440 2.08108e-17
8365.86733 2.21343e-17
8367.14046 1.79750e-17
8368.41359 1.53734e-17
8369.67652 1.75243e-17
8370.94965 1.98828e-17
8372.21259 1.86642e-17
8373.48571 1.67877e-17
8374.74865 1.69489e-17
8376.02178 1.57080e-17
8377.28472 1.60355e-17
8378.55785 1.82057e-17
8379.82078 1.78071e-17
8381.09391 1.59293e-17
8382.35685 1.63992e-17
8383.62997 1.81282e-17
8384.89292 1.60638e-17
8386.16604 1.22580e-17
8387.43916 1.24256e-17
8388.70211 1.41398e-17
8389.97523 1.45659e-17
8391.23817 1.40495e-17
8392.51130 1.28461e-17
8393.77423 1.37402e-17
8395.04736 1.37022e-17
8396.31030 9.78919e-18
8397.58342 1.10701e-17
8398.84637 1.21846e-17
8400.11949 7.85502e-18
8401.39262 1.26579e-17
8402.65556 2.08902e-17
8403.92868 1.77978e-17
8405.19162 1.25747e-17
8406.46474 1.17559e-17
8407.72768 1.14795e-17
8409.00081 1.31961e-17
8410.26375 1.57800e-17
8411.53687 1.67369e-17
8412.79982 1.67938e-17
8414.07294 1.90591e-17
8415.33588 1.77875e-17
8416.60900 1.25154e-17
8417.87194 1.06878e-17
8419.14507 1.22312e-17
8420.41819 1.33067e-17
8421.68113 1.19455e-17
8422.95426 1.16884e-17
8424.21720 1.50651e-17
8425.49033 1.75885e-17
8426.75326 1.50729e-17
8428.02639 1.43587e-17
8429.28933 1.57349e-17
8430.56245 1.35659e-17
8431.82539 1.27662e-17
8433.09852 1.26542e-17
8434.37164 1.03198e-17
8435.63458 9.85720e-18
8436.90771 1.06644e-17
8438.17065 9.28021e-18
8439.44377 9.97173e-18
8440.70671 1.36405e-17
8441.97984 1.47153e-17
8443.24278 1.26346e-17
8444.51590 1.06698e-17
8445.77885 1.11223e-17
8447.05197 1.38118e-17
8448.31491 1.64631e-17
8449.58804 1.42025e-17
8450.86116 9.55932e-18
8452.12410 7.70574e-18
8453.39723 8.00943e-18
8454.66016 7.38653e-18
8455.93329 6.59878e-18
8457.19623 8.08173e-18
8458.46935 9.34785e-18
8459.73229 1.21949e-17
8461.00542 1.37048e-17
8462.26836 8.91444e-18
8463.54148 6.68032e-18
8464.80442 1.15747e-17
8466.07755 1.49176e-17
8467.35067 1.60581e-17
8468.61362 1.54699e-17
8469.88674 1.10849e-17
8471.14968 6.95414e-18
8472.42281 6.71953e-18
8473.68575 8.71725e-18
8474.95887 8.89897e-18
8476.22181 7.69506e-18
8477.49494 9.33234e-18
8478.75787 1.26195e-17
8480.03100 1.29799e-17
8481.30413 1.02797e-17
8482.56706 9.39910e-18
8483.84019 1.06038e-17
8485.10313 9.08492e-18
8486.37625 7.73313e-18
8487.63919 9.30223e-18
8488.91232 9.61284e-18
8490.17526 9.28434e-18
8491.44838 9.58939e-18
8492.71133 9.40786e-18
8493.98445 1.04819e-17
8495.24739 1.39696e-17
8496.52052 1.36767e-17
8497.79364 1.04319e-17
8499.05658 1.07720e-17
8500.32971 1.22441e-17
8501.59265 1.19190e-17
8502.86577 8.50044e-18
8504.12871 6.09410e-18
8505.40183 9.67431e-18
8506.66477 1.20677e-17
8507.93790 1.15183e-17
8509.20084 1.08746e-17
8510.47396 9.28541e-18
8511.73690 8.85243e-18
8513.01003 8.77110e-18
8514.27297 9.38312e-18
8515.54609 1.08528e-17
8516.81922 1.11901e-17
8518.08216 1.07380e-17
8519.35528 1.13184e-17
8520.61823 1.16043e-17
8521.89135 9.93000e-18
8523.15429 9.66369e-18
8524.42742 1.12458e-17
8525.69035 9.98832e-18
8526.96348 7.60389e-18
8528.23661 6.63034e-18
8529.49954 6.30805e-18
8530.77267 6.16118e-18
8532.03561 7.09069e-18
8533.30873 8.81127e-18
8534.57167 9.39202e-18
8535.84480 9.85851e-18
8537.10774 1.11459e-17
8538.38087 1.07257e-17
8539.64380 8.75914e-18
8540.91693 7.72734e-18
8542.17987 9.57574e-18
8543.45299 1.24628e-17
8544.71594 1.23334e-17
8545.98906 1.03274e-17
8547.26218 9.58484e-18
8548.52513 1.08030e-17
8549.79825 1.26717e-17
8551.06119 1.41785e-17
8552.33432 1.36658e-17
8553.59725 1.18532e-17
8554.87038 1.12619e-17
8556.13332 1.16761e-17
8557.40644 1.21356e-17
8558.66938 1.20589e-17
8559.94251 1.21465e-17
8561.21563 1.20368e-17
8562.47858 1.11953e-17
8563.75170 1.00412e-17
8565.01464 9.47251e-18
8566.28777 1.03581e-17
8567.55070 1.23100e-17
8568.82383 1.37283e-17
8570.08677 1.25573e-17
8571.35989 1.09534e-17
8572.62284 1.26598e-17
8573.89596 1.36957e-17
8575.15890 1.18662e-17
8576.43203 1.10377e-17
8577.69496 1.10973e-17
8578.96809 1.03541e-17
8580.24121 8.12471e-18
8581.50415 8.03112e-18
8582.77728 1.03751e-17
8584.04022 1.10684e-17
8585.31335 1.01712e-17
8586.57629 1.07607e-17
8587.84941 1.19339e-17
8589.11235 1.10395e-17
8590.38547 9.51702e-18
8591.64841 9.48352e-18
8592.92154 9.59024e-18
8594.19466 9.96401e-18
8595.45760 1.20317e-17
8596.73073 1.36312e-17
8597.99367 1.52693e-17
8599.26679 1.66124e-17
8600.52973 1.43686e-17
8601.80286 1.36539e-17
8603.06580 1.52723e-17
8604.33892 1.43556e-17
8605.60187 1.37041e-17
8606.87499 1.59348e-17
8608.13793 1.61496e-17
8609.41106 1.49246e-17
8610.68418 1.58966e-17
8611.94712 1.61672e-17
8613.22025 1.34327e-17
8614.48318 1.01630e-17
8615.75631 1.03772e-17
8617.01925 1.36205e-17
8618.29237 1.26176e-17
8619.55531 1.03591e-17
8620.82844 1.32664e-17
8622.09138 1.16075e-17
8623.36450 7.37209e-18
8624.62744 1.11031e-17
8625.90057 1.49993e-17
8627.17369 1.27378e-17
8628.43663 8.29409e-18
8629.70976 4.99885e-18
8630.97270 1.03474e-17
8632.24582 1.52722e-17
8633.50877 1.04629e-17
8634.78189 9.07799e-18
8636.04483 1.47705e-17
8637.31796 1.63880e-17
8638.58089 1.45804e-17
8639.85402 1.31303e-17
8641.12715 1.26323e-17
8642.39008 1.23391e-17
8643.66321 1.29631e-17
8644.92615 1.36204e-17
8646.19927 1.23742e-17
8647.46221 1.24890e-17
8648.73534 1.55453e-17
8649.99828 1.72860e-17
8651.27140 1.81058e-17
8652.53435 1.83840e-17
8653.80747 1.70303e-17
8655.07041 1.67368e-17
8656.34353 1.65739e-17
8657.61666 1.71130e-17
8658.87960 1.68853e-17
8660.15272 1.46513e-17
8661.41567 1.69379e-17
8662.68879 1.80132e-17
8663.95173 1.93685e-17
8665.22486 2.38442e-17
8666.48779 2.47441e-17
8667.76092 2.06434e-17
8669.02386 1.59947e-17
8670.29698 1.37738e-17
8671.55992 1.55219e-17
8672.83305 1.79579e-17
8674.09599 1.64158e-17
8675.36912 1.44935e-17
8676.64224 1.48841e-17
8677.90518 1.68550e-17
8679.17830 1.94642e-17
8680.44124 1.83823e-17
8681.71437 1.51630e-17
8682.97731 1.39687e-17
8684.25043 1.57102e-17
8685.51338 1.71711e-17
8686.78650 1.91913e-17
8688.05962 2.06113e-17
8689.32256 1.81258e-17
8690.59569 1.69491e-17
8691.85863 1.80211e-17
8693.13175 1.89314e-17
8694.39469 1.69700e-17
8695.66782 1.25368e-17
8696.93076 1.25735e-17
8698.20388 1.68629e-17
8699.46682 1.82032e-17
8700.73995 1.80557e-17
8702.00289 1.87057e-17
8703.27601 1.84196e-17
8704.53895 1.66474e-17
8705.81208 1.81850e-17
8707.07502 2.05714e-17
8708.34814 1.83625e-17
8709.62127 1.76028e-17
8710.88421 1.97905e-17
8712.15733 2.04078e-17
8713.42027 1.93523e-17
8714.69340 1.97207e-17
8715.95634 2.03597e-17
8717.22946 2.08367e-17
8718.49240 2.25760e-17
8719.76553 2.35050e-17
8721.02847 2.26478e-17
8722.30160 2.08445e-17
8723.57472 2.09239e-17
8724.83766 2.27838e-17
8726.11079 2.38273e-17
8727.37372 2.53697e-17
8728.64685 2.70150e-17
8729.90979 2.53000e-17
8731.18291 2.18375e-17
8732.44585 2.09466e-17
8733.71898 2.34693e-17
8734.98192 2.64129e-17
8736.25504 2.64279e-17
8737.51798 2.37141e-17
8738.79111 2.21326e-17
8740.06423 2.34367e-17
8741.32717 2.43727e-17
8742.60030 2.37257e-17
8743.86324 2.46084e-17
8745.13637 2.62904e-17
8746.39931 2.78923e-17
8747.67243 3.05349e-17
8748.93537 2.93866e-17
8750.20850 2.54939e-17
8751.47143 2.59823e-17
8752.74456 2.75121e-17
8754.00750 2.54141e-17
8755.28062 2.32420e-17
8756.55375 2.22148e-17
8757.81669 2.23695e-17
8759.08981 2.47437e-17
8760.35275 2.68773e-17
8761.62588 2.42113e-17
8762.88882 2.55350e-17
8764.16194 3.49570e-17
8765.42488 4.01388e-17
8766.69801 3.93015e-17
8767.96095 3.84173e-17
8769.23408 3.79043e-17
8770.50720 3.31428e-17
8771.77014 3.11370e-17
8773.04327 4.01729e-17
8774.30621 4.64217e-17
8775.57933 4.17471e-17
8776.84227 3.99936e-17
8778.11539 4.22436e-17
8779.37833 3.82620e-17
8780.65146 3.07294e-17
8781.91440 2.65076e-17
8783.18752 2.67608e-17
8784.45046 2.96448e-17
8785.72359 3.07912e-17
8786.99671 3.13739e-17
8788.25965 3.26415e-17
8789.53278 3.38660e-17
8790.79572 3.42400e-17
8792.06884 3.28265e-17
8793.33179 2.82156e-17
8794.60491 2.53784e-17
8795.86785 2.91276e-17
8797.14098 3.02651e-17
8798.40391 2.69956e-17
8799.67704 2.66359e-17
8800.93998 2.99734e-17
8802.21310 3.11098e-17
8803.48623 2.80480e-17
8804.74917 2.87591e-17
8806.02229 3.12268e-17
8807.28523 2.73370e-17
8808.55836 2.30955e-17
8809.82130 2.37442e-17
8811.09442 2.57050e-17
8812.35736 2.78368e-17
8813.63049 2.76992e-17
8814.89343 2.71694e-17
8816.16655 2.74421e-17
8817.43968 2.78268e-17
8818.70262 2.87945e-17
8819.96556 3.03150e-17
8821.23869 3.45403e-17
8822.51181 4.17712e-17
8823.77475 4.37114e-17
8825.04788 3.90235e-17
8826.31081 3.97323e-17
8827.58394 4.46754e-17
8828.84688 4.60212e-17
8830.12000 4.38944e-17
8831.38294 3.64025e-17
8832.65607 3.17782e-17
8833.91901 3.40997e-17
8835.19213 3.58305e-17
8836.46526 3.40501e-17
8837.72820 3.38552e-17
8839.00133 3.48345e-17
8840.26426 3.35294e-17
8841.53739 3.10127e-17
8842.80033 2.75968e-17
8844.07345 2.74257e-17
8845.33640 3.21961e-17
8846.60952 3.34587e-17
8847.87246 2.99222e-17
8849.14559 2.82976e-17
8850.41871 2.89594e-17
8851.68165 3.00480e-17
8852.95478 3.09120e-17
8854.21771 3.00386e-17
8855.49084 2.77726e-17
8856.75378 2.70028e-17
8858.02690 2.80532e-17
8859.28985 2.84214e-17
8860.56297 2.71925e-17
8861.82591 2.39961e-17
8863.09904 2.11065e-17
8864.36197 2.26602e-17
8865.63510 2.42056e-17
8866.89804 2.31806e-17
8868.17116 2.49772e-17
8869.44429 2.48527e-17
8870.70723 2.08464e-17
8871.98035 2.17022e-17
8873.24330 2.71175e-17
8874.51642 2.93827e-17
8875.77936 2.75219e-17
8877.05248 2.65420e-17
8878.31542 2.75580e-17
8879.58855 2.86422e-17
8880.85149 3.23569e-17
8882.12462 3.64067e-17
8883.39774 3.58527e-17
8884.66068 3.45758e-17
8885.93381 3.56743e-17
8887.19674 3.92989e-17
8888.46987 3.73322e-17
8889.73281 2.90750e-17
8891.00593 2.46273e-17
8892.26887 2.24036e-17
8893.54200 2.06506e-17
8894.80494 2.30501e-17
8896.07806 2.68453e-17
8897.34100 2.36680e-17
8898.61413 1.68125e-17
8899.88725 1.74379e-17
8901.15019 2.64527e-17
8902.42332 3.33090e-17
8903.68626 3.03352e-17
8904.95938 2.72537e-17
8906.22233 2.96620e-17
8907.49545 3.07784e-17
8908.75839 2.86982e-17
8910.03152 2.62639e-17
8911.29445 2.50505e-17
8912.56758 2.12611e-17
8913.83052 1.98672e-17
8915.10364 2.40276e-17
8916.37677 2.67326e-17
8917.63971 2.66421e-17
8918.91283 2.73637e-17
8920.17577 2.93565e-17
8921.44890 2.91533e-17
8922.71184 3.41750e-17
8923.98496 3.88485e-17
8925.24790 2.99094e-17
8926.52103 2.17612e-17
8927.78397 2.22609e-17
8929.05710 2.34458e-17
8930.33022 2.40385e-17
8931.59316 2.60759e-17
8932.86629 2.55914e-17
8934.12923 2.37374e-17
8935.40235 2.46340e-17
8936.66529 2.53509e-17
8937.93842 2.33527e-17
8939.20135 2.20664e-17
8940.47448 2.24485e-17
8941.73742 2.43297e-17
8943.01054 2.76612e-17
8944.27348 2.65017e-17
8945.54661 2.29104e-17
8946.80955 2.50903e-17
8948.08267 2.62206e-17
8949.35580 2.35329e-17
8950.61874 2.93874e-17
8951.89187 3.73897e-17
8953.15481 3.59095e-17
8954.42793 3.22397e-17
8955.69087 3.26543e-17
8956.96400 3.50716e-17
8958.22694 3.42098e-17
8959.50006 3.26861e-17
8960.76300 3.36848e-17
8962.03613 2.67539e-17
8963.30925 2.11707e-17
8964.57219 2.39280e-17
8965.84531 2.65616e-17
8967.10825 2.58940e-17
8968.38138 2.60102e-17
8969.64432 3.11135e-17
8970.91744 3.12540e-17
8972.18038 2.72954e-17
8973.45351 2.68087e-17
8974.71645 2.71460e-17
8975.98957 2.81246e-17
8977.26270 3.04927e-17
8978.52564 3.04379e-17
8979.78858 2.72423e-17
8981.06171 2.73466e-17
8982.33483 2.78981e-17
8983.59777 2.58377e-17
8984.87090 2.72754e-17
8986.13383 3.10510e-17
8987.40696 3.30569e-17
8988.66990 2.84740e-17
8989.94302 2.63470e-17
8991.20596 2.90237e-17
8992.47909 2.83230e-17
8993.74203 2.72930e-17
8995.01515 2.32017e-17
8996.28828 2.26513e-17
8997.55122 2.74708e-17
8998.82435 3.06729e-17
9000.08728 2.74047e-17
