# wavelength flux
3483.22702 1.97338e-18
3486.73227 4.02790e-18
3490.24753 8.74017e-18
3493.75278 1.34508e-17
3497.26805 1.81595e-17
3500.78331 2.31633e-17
3504.28856 3.59157e-17
3507.80383 2.28281e-17
3511.30908 1.30271e-17
3514.82434 1.40116e-17
3518.33961 2.49635e-17
3521.84486 4.70117e-17
3525.36012 3.94109e-17
3528.86537 3.31671e-17
3532.38064 3.55248e-17
3535.89590 4.13486e-17
3539.40115 4.71706e-17
3542.91642 5.29906e-17
3546.42167 5.48109e-17
3549.93693 4.30323e-17
3553.45220 5.01754e-17
3556.95745 3.62621e-17
3560.47271 4.67223e-17
3563.97796 2.40972e-17
3567.49323 2.94250e-17
3571.00849 2.68648e-17
3574.51374 3.02461e-17
3578.02901 2.66113e-17
3581.53426 2.52137e-17
3585.04952 2.57749e-17
3588.56479 3.15837e-17
3592.07004 2.53232e-17
3595.58530 1.69928e-17
3599.09055 1.32020e-17
3602.60582 2.44331e-17
3606.12108 2.63105e-17
3609.62633 2.42237e-17
3613.14160 1.30289e-17
3616.65686 1.33924e-17
3620.16211 1.68823e-17
3623.67738 1.90509e-17
3627.18263 1.84349e-17
3630.69789 1.58132e-17
3634.21316 8.89323e-18
3637.71841 1.22006e-17
3641.23367 9.68321e-18
3644.73892 6.92545e-18
3648.25419 1.24494e-17
3651.76945 1.65800e-17
3655.27470 1.65672e-17
3658.78996 1.80520e-17
3662.29522 1.51724e-17
3665.81048 1.41249e-17
3669.32575 1.07800e-17
3672.83100 1.22296e-17
3676.34626 1.59238e-17
3679.85151 1.54811e-17
3683.36677 1.43434e-17
3686.88204 1.44539e-17
3690.38729 1.41813e-17
3693.90256 1.74155e-17
3697.40781 1.70040e-17
3700.92307 1.92928e-17
3704.43834 1.85829e-17
3707.94358 1.68886e-17
3711.45885 1.65612e-17
3714.96410 1.65452e-17
3718.47937 1.63220e-17
3721.99463 1.60989e-17
3725.49988 1.58758e-17
3729.01514 1.56528e-17
3732.52040 1.54298e-17
3736.03566 1.52069e-17
3739.55093 1.49841e-17
3743.05618 1.47614e-17
3746.57144 1.45387e-17
3750.07669 1.43161e-17
3753.59195 1.40935e-17
3757.10722 1.78899e-17
3760.61247 1.99389e-17
3764.12774 1.83608e-17
3767.64300 1.76810e-17
3771.14825 1.82480e-17
3774.66352 1.82474e-17
3778.16877 1.72861e-17
3781.68403 1.78446e-17
3785.19930 1.90879e-17
3788.70455 1.93669e-17
3792.21981 1.79391e-17
3795.72506 1.79425e-17
3799.24033 1.90186e-17
3802.75559 1.88933e-17
3806.26084 1.67079e-17
3809.77611 1.75772e-17
3813.28136 1.97948e-17
3816.79662 1.98035e-17
3820.31189 2.05305e-17
3823.81714 2.15423e-17
3827.33240 2.08265e-17
3830.83765 2.18187e-17
3834.35292 2.25790e-17
3837.86818 2.26395e-17
3841.37343 2.20046e-17
3844.88870 2.12226e-17
3848.39395 2.24302e-17
3851.90921 2.38774e-17
3855.42448 2.41968e-17
3858.92973 2.47912e-17
3862.44499 2.42213e-17
3865.95024 2.43917e-17
3869.46551 2.51248e-17
3872.98077 2.48982e-17
3876.48602 2.43246e-17
3880.00129 2.50080e-17
3883.50654 2.54714e-17
3887.02180 2.50008e-17
3890.53707 2.45131e-17
3894.04232 2.52971e-17
3897.55758 2.66239e-17
3901.06283 2.57474e-17
3904.57810 2.43876e-17
3908.09336 2.48700e-17
3911.59861 2.52641e-17
3915.11388 2.64090e-17
3918.61913 2.64167e-17
3922.13439 2.59573e-17
3925.64966 2.54045e-17
3929.15491 2.37672e-17
3932.67017 2.42131e-17
3936.18544 2.51563e-17
3939.69069 2.46330e-17
3943.20595 2.43069e-17
3946.71120 2.41624e-17
3950.22647 2.27725e-17
3953.74173 2.34085e-17
3957.24698 2.42492e-17
3960.76225 2.35596e-17
3964.26750 2.37029e-17
3967.78276 2.38967e-17
3971.29803 2.33670e-17
3974.80328 2.32143e-17
3978.31854 2.40340e-17
3981.82379 2.38946e-17
3985.33905 2.36112e-17
3988.85432 2.37128e-17
3992.35957 2.32257e-17
3995.87484 2.34742e-17
3999.38009 2.39057e-17
4002.89535 2.36147e-17
4006.41062 2.42222e-17
4009.91586 2.44638e-17
4013.43113 2.36025e-17
4016.93638 2.33870e-17
4020.45165 2.37270e-17
4023.96691 2.27801e-17
4027.47216 2.25648e-17
4030.98743 2.20638e-17
4034.49267 2.25173e-17
4038.00794 2.24101e-17
4041.52320 2.23055e-17
4045.02846 2.26520e-17
4048.54372 2.27950e-17
4052.04897 2.21827e-17
4055.56423 2.19340e-17
4059.07950 2.20661e-17
4062.58475 2.17206e-17
4066.10002 2.17728e-17
4069.60527 2.17716e-17
4073.12053 2.20513e-17
4076.63580 2.24178e-17
4080.14105 2.26487e-17
4083.65631 2.23631e-17
4087.16156 2.15835e-17
4090.67683 2.18822e-17
4094.19209 2.20262e-17
4097.69734 2.16123e-17
4101.21261 2.16032e-17
4104.72787 2.12940e-17
4108.23312 2.10675e-17
4111.74839 2.14689e-17
4115.25364 2.12797e-17
4118.76890 2.12452e-17
4122.28417 2.15134e-17
4125.78942 2.10950e-17
4129.30468 2.04507e-17
4132.80993 2.06099e-17
4136.32520 2.10619e-17
4139.84046 2.07931e-17
4143.34571 2.05062e-17
4146.86097 2.05359e-17
4150.36622 2.05403e-17
4153.88149 2.11458e-17
4157.39676 2.10994e-17
4160.90200 2.11964e-17
4164.41727 2.07905e-17
4167.92252 2.04602e-17
4171.43779 2.05746e-17
4174.95305 2.08934e-17
4178.45830 2.08023e-17
4181.97357 2.10379e-17
4185.47882 2.13493e-17
4188.99408 2.11339e-17
4192.50934 2.09543e-17
4196.01459 2.14642e-17
4199.52986 2.12792e-17
4203.03511 2.05451e-17
4206.55037 2.01039e-17
4210.06564 2.00657e-17
4213.57089 2.01077e-17
4217.08616 1.94733e-17
4220.59141 1.91460e-17
4224.10667 1.88033e-17
4227.62194 1.82218e-17
4231.12719 1.84380e-17
4234.64245 1.82990e-17
4238.15772 1.81708e-17
4241.66297 1.79483e-17
4245.17823 1.78022e-17
4248.68348 1.75131e-17
4252.19875 1.70195e-17
4255.70399 1.70293e-17
4259.21926 1.67539e-17
4262.73453 1.65648e-17
4266.23978 1.65654e-17
4269.75504 1.65785e-17
4273.27031 1.66992e-17
4276.77556 1.66705e-17
4280.29082 1.64129e-17
4283.79607 1.61182e-17
4287.31134 1.57352e-17
4290.82660 1.62423e-17
4294.33185 1.61938e-17
4297.84712 1.61086e-17
4301.35236 1.62261e-17
4304.86763 1.63891e-17
4308.38290 1.60999e-17
4311.88815 1.63587e-17
4315.40341 1.64769e-17
4318.90866 1.61965e-17
4322.42393 1.66228e-17
4325.93919 1.65259e-17
4329.44444 1.62778e-17
4332.95971 1.63758e-17
4336.46496 1.61610e-17
4339.98022 1.60895e-17
4343.49549 1.63359e-17
4347.00073 1.64112e-17
4350.51600 1.63496e-17
4354.02125 1.63629e-17
4357.53652 1.63761e-17
4361.05178 1.63894e-17
4364.55703 1.64027e-17
4368.07229 1.64159e-17
4371.58756 1.64292e-17
4375.09281 1.64424e-17
4378.60808 1.64557e-17
4382.11333 1.64689e-17
4385.62859 1.64822e-17
4389.13384 1.64954e-17
4392.64910 1.69491e-17
4396.16437 1.73138e-17
4399.66962 1.72275e-17
4403.18489 1.74815e-17
4406.70015 1.74170e-17
4410.20540 1.73077e-17
4413.72066 1.77162e-17
4417.22591 1.81779e-17
4420.74118 1.81726e-17
4424.25644 1.81810e-17
4427.76170 1.84052e-17
4431.27696 1.86005e-17
4434.78221 1.89326e-17
4438.29748 1.89991e-17
4441.81274 1.87697e-17
4445.31799 1.90826e-17
4448.83326 1.94608e-17
4452.33851 1.94395e-17
4455.85377 1.94654e-17
4459.36903 1.98366e-17
4462.87428 1.98815e-17
4466.38955 2.01430e-17
4469.89480 2.04594e-17
4473.41007 2.03407e-17
4476.92533 2.02702e-17
4480.43058 2.03370e-17
4483.94585 2.04378e-17
4487.45109 2.03083e-17
4490.96636 2.04708e-17
4494.48163 2.04802e-17
4497.98688 2.04791e-17
4501.50214 2.04536e-17
4505.00739 2.02849e-17
4508.52266 2.02352e-17
4512.03792 2.00662e-17
4515.54317 1.98887e-17
4519.05843 1.94905e-17
4522.56369 1.94684e-17
4526.07895 1.93654e-17
4529.59422 1.93666e-17
4533.09947 1.90506e-17
4536.61473 1.90285e-17
4540.11998 1.90121e-17
4543.63525 1.90028e-17
4547.15051 1.88559e-17
4550.65576 1.85812e-17
4554.17103 1.84280e-17
4557.67628 1.87836e-17
4561.19154 1.90747e-17
4564.70680 1.87468e-17
4568.21205 1.87269e-17
4571.72732 1.89756e-17
4575.24259 1.86270e-17
4578.74784 1.83985e-17
4582.26310 1.86530e-17
4585.76835 1.86686e-17
4589.28362 1.80770e-17
4592.79888 1.79605e-17
4596.30413 1.79947e-17
4599.81940 1.80626e-17
4603.32465 1.77340e-17
4606.83991 1.74458e-17
4610.35517 1.75508e-17
4613.86042 1.79400e-17
4617.37569 1.78925e-17
4620.88094 1.72894e-17
4624.39621 1.69290e-17
4627.91147 1.68362e-17
4631.41672 1.67174e-17
4634.93199 1.68771e-17
4638.43724 1.69446e-17
4641.95250 1.65358e-17
4645.46777 1.63178e-17
4648.97302 1.61632e-17
4652.48828 1.59712e-17
4655.99353 1.61715e-17
4659.50879 1.58459e-17
4663.02406 1.57014e-17
4666.52931 1.58533e-17
4670.04458 1.55223e-17
4673.54983 1.54793e-17
4677.06509 1.54145e-17
4680.58036 1.53567e-17
4684.08561 1.49737e-17
4687.60087 1.47179e-17
4691.10612 1.43240e-17
4694.62139 1.43299e-17
4698.13665 1.42779e-17
4701.64190 1.41625e-17
4705.15716 1.38892e-17
4708.66241 1.38447e-17
4712.17768 1.37927e-17
4715.69295 1.35952e-17
4719.19819 1.33886e-17
4722.71346 1.35299e-17
4726.22872 1.36414e-17
4729.73398 1.35629e-17
4733.24924 1.34596e-17
4736.75449 1.33368e-17
4740.26976 1.33861e-17
4743.78502 1.33901e-17
4747.29027 1.31920e-17
4750.80553 1.32525e-17
4754.31078 1.33839e-17
4757.82605 1.33364e-17
4761.34132 1.32489e-17
4764.84657 1.31656e-17
4768.36183 1.31490e-17
4771.86708 1.27174e-17
4775.38234 1.28220e-17
4778.89761 1.31176e-17
4782.40286 1.31308e-17
4785.91813 1.29901e-17
4789.42338 1.27082e-17
4792.93864 1.26130e-17
4796.45391 1.27191e-17
4799.95916 1.25993e-17
4803.47442 1.24620e-17
4806.97967 1.25493e-17
4810.49494 1.25408e-17
4814.01020 1.26113e-17
4817.51545 1.24797e-17
4821.03072 1.24734e-17
4824.53597 1.23925e-17
4828.05123 1.23643e-17
4831.56650 1.20654e-17
4835.07175 1.19930e-17
4838.58701 1.20123e-17
4842.09226 1.17441e-17
4845.60753 1.14280e-17
4849.12279 1.14055e-17
4852.62804 1.13882e-17
4856.14331 1.13710e-17
4859.65857 1.13537e-17
4863.16382 1.13364e-17
4866.67909 1.13192e-17
4870.18434 1.13019e-17
4873.69960 1.12847e-17
4877.20485 1.12674e-17
4880.72012 1.12502e-17
4884.23538 1.12330e-17
4887.74063 1.12157e-17
4891.25590 1.12421e-17
4894.77116 1.12261e-17
4898.27641 1.11719e-17
4901.79168 1.13113e-17
4905.29692 1.13427e-17
4908.81219 1.12531e-17
4912.32746 1.14648e-17
4915.83271 1.15326e-17
4919.34797 1.14470e-17
4922.85322 1.16495e-17
4926.36848 1.15955e-17
4929.88375 1.15159e-17
4933.38900 1.17214e-17
4936.90427 1.17216e-17
4940.40952 1.17725e-17
4943.92478 1.16842e-17
4947.44005 1.16314e-17
4950.94530 1.16685e-17
4954.46056 1.17055e-17
4957.96581 1.17425e-17
4961.48108 1.17796e-17
4964.99634 1.18166e-17
4968.50159 1.18536e-17
4972.01685 1.18906e-17
4975.52211 1.19276e-17
4979.03737 1.19646e-17
4982.55264 1.20015e-17
4986.05789 1.20385e-17
4989.57315 1.20686e-17
4993.07840 1.21030e-17
4996.59367 1.21739e-17
5000.10893 1.22447e-17
5003.61418 1.23155e-17
5007.12945 1.23863e-17
5010.63470 1.24570e-17
5014.14996 1.25278e-17
5017.66522 1.25985e-17
5021.17047 1.26693e-17
5024.68574 1.27400e-17
5028.20101 1.28107e-17
5031.70626 1.28814e-17
5035.22152 1.29520e-17
5038.72677 1.30755e-17
5042.24204 1.32037e-17
5045.74728 1.33609e-17
5049.26255 1.34493e-17
5052.77782 1.36273e-17
5056.28307 1.37802e-17
5059.79833 1.38703e-17
5063.31359 1.41307e-17
5066.81884 1.42986e-17
5070.33411 1.42657e-17
5073.83936 1.43027e-17
5077.35462 1.45518e-17
5080.86989 1.47289e-17
5084.37514 1.46206e-17
5087.89041 1.46561e-17
5091.39566 1.48395e-17
5094.91092 1.48462e-17
5098.42619 1.48004e-17
5101.93144 1.47619e-17
5105.44670 1.48963e-17
5108.95195 1.49561e-17
5112.46722 1.49902e-17
5115.98248 1.49627e-17
5119.48773 1.50692e-17
5123.00299 1.51165e-17
5126.50824 1.50162e-17
5130.02351 1.50374e-17
5133.53878 1.50176e-17
5137.04403 1.50292e-17
5140.55929 1.50347e-17
5144.06454 1.50105e-17
5147.57981 1.50096e-17
5151.09507 1.50974e-17
5154.60032 1.51326e-17
5158.11559 1.52562e-17
5161.63085 1.53405e-17
5165.13610 1.53067e-17
5168.65136 1.52736e-17
5172.15661 1.53209e-17
5175.67188 1.53637e-17
5179.17713 1.53519e-17
5182.69240 1.54403e-17
5186.20766 1.55204e-17
5189.71291 1.54087e-17
5193.22818 1.55158e-17
5196.74344 1.57025e-17
5200.24869 1.57463e-17
5203.76396 1.57712e-17
5207.26921 1.58697e-17
5210.78447 1.58547e-17
5214.29974 1.58343e-17
5217.80498 1.58972e-17
5221.32025 1.58959e-17
5224.82550 1.59866e-17
5228.34077 1.60515e-17
5231.85603 1.59225e-17
5235.36128 1.60190e-17
5238.87655 1.61652e-17
5242.38180 1.60857e-17
5245.89706 1.59853e-17
5249.41233 1.60796e-17
5252.91758 1.60646e-17
5256.43284 1.59083e-17
5259.93809 1.58665e-17
5263.45335 1.58831e-17
5266.96862 1.59231e-17
5270.47387 1.59288e-17
5273.98914 1.59018e-17
5277.49439 1.59788e-17
5281.00965 1.59149e-17
5284.52491 1.57523e-17
5288.03017 1.58558e-17
5291.54543 1.58202e-17
5295.05068 1.58260e-17
5298.56595 1.58051e-17
5302.08121 1.58645e-17
5305.58646 1.57315e-17
5309.10172 1.56584e-17
5312.60697 1.56187e-17
5316.12224 1.56099e-17
5319.63751 1.56595e-17
5323.14276 1.56941e-17
5326.65802 1.57040e-17
5330.17328 1.56274e-17
5333.67854 1.55690e-17
5337.19380 1.56094e-17
5340.69905 1.55300e-17
5344.21432 1.54513e-17
5347.72958 1.52630e-17
5351.23483 1.52346e-17
5354.75009 1.54483e-17
5358.25534 1.54491e-17
5361.77061 1.52068e-17
5365.28588 1.51552e-17
5368.79113 1.51405e-17
5372.30639 1.51271e-17
5375.81164 1.50485e-17
5379.32691 1.49771e-17
5382.84217 1.50688e-17
5386.34742 1.52906e-17
5389.86269 1.51808e-17
5393.36794 1.51206e-17
5396.88320 1.50250e-17
5400.39847 1.50270e-17
5403.90372 1.50064e-17
5407.41898 1.50099e-17
5410.92423 1.49130e-17
5414.43950 1.48768e-17
5417.95476 1.49927e-17
5421.46001 1.48511e-17
5424.97528 1.47960e-17
5428.48053 1.47206e-17
5431.99579 1.47923e-17
5435.51105 1.46869e-17
5439.01631 1.45836e-17
5442.53157 1.45140e-17
5446.03682 1.46681e-17
5449.55209 1.46123e-17
5453.06735 1.44102e-17
5456.57260 1.43453e-17
5460.08787 1.43395e-17
5463.59312 1.43226e-17
5467.10838 1.41562e-17
5470.62365 1.41118e-17
5474.12890 1.40160e-17
5477.64416 1.38993e-17
5481.14941 1.37828e-17
5484.66467 1.37409e-17
5488.17994 1.36629e-17
5491.68519 1.35736e-17
5495.20046 1.34692e-17
5498.71572 1.33545e-17
5502.22097 1.32912e-17
5505.73624 1.31988e-17
5509.24149 1.30255e-17
5512.75675 1.28461e-17
5516.27202 1.26731e-17
5519.77727 1.26102e-17
5523.29253 1.26521e-17
5526.79778 1.25783e-17
5530.31304 1.25245e-17
5533.82831 1.25024e-17
5537.33356 1.24298e-17
5540.84883 1.23701e-17
5544.35408 1.23818e-17
5547.86934 1.23807e-17
5551.38461 1.23334e-17
5554.88986 1.23664e-17
5558.40512 1.22256e-17
5561.91037 1.21850e-17
5565.42564 1.21572e-17
5568.94090 1.22529e-17
5572.44615 1.23291e-17
5575.96141 1.23370e-17
5579.46666 1.22795e-17
5582.98193 1.22961e-17
5586.49720 1.22648e-17
5590.00245 1.21586e-17
5593.51771 1.21571e-17
5597.02296 1.20891e-17
5600.53823 1.19821e-17
5604.05349 1.19064e-17
5607.55874 1.19034e-17
5611.07401 1.18666e-17
5614.57926 1.16961e-17
5618.09452 1.16445e-17
5621.60978 1.16010e-17
5625.11503 1.15967e-17
5628.63030 1.15242e-17
5632.13555 1.13899e-17
5635.65081 1.13091e-17
5639.16608 1.13169e-17
5642.67133 1.12983e-17
5646.18660 1.11503e-17
5649.69185 1.10323e-17
5653.20711 1.09547e-17
5656.72238 1.08763e-17
5660.22763 1.08531e-17
5663.74289 1.08437e-17
5667.25816 1.07292e-17
5670.76341 1.05934e-17
5674.27867 1.05720e-17
5677.78392 1.05210e-17
5681.29918 1.04327e-17
5684.81445 1.04106e-17
5688.31970 1.04970e-17
5691.83497 1.04671e-17
5695.34022 1.03760e-17
5698.85548 1.05192e-17
5702.37075 1.05005e-17
5705.87600 1.04641e-17
5709.39126 1.04745e-17
5712.89651 1.04309e-17
5716.41178 1.04502e-17
5719.92704 1.05516e-17
5723.43229 1.05993e-17
5726.94756 1.06047e-17
5730.45280 1.06089e-17
5733.96807 1.06421e-17
5737.48334 1.07037e-17
5740.98859 1.07127e-17
5744.50385 1.07325e-17
5748.00910 1.07036e-17
5751.52437 1.07426e-17
5755.03963 1.06828e-17
5758.54488 1.07400e-17
5762.06015 1.08007e-17
5765.56540 1.08029e-17
5769.08066 1.07565e-17
5772.59593 1.08078e-17
5776.10117 1.07903e-17
5779.61644 1.08129e-17
5783.12169 1.08556e-17
5786.63696 1.08401e-17
5790.15222 1.08076e-17
5793.65747 1.08468e-17
5797.17274 1.08142e-17
5800.67799 1.08633e-17
5804.19325 1.09300e-17
5807.70852 1.09250e-17
5811.21377 1.09529e-17
5814.72903 1.09238e-17
5818.23428 1.09773e-17
5821.74954 1.09155e-17
5825.26481 1.08709e-17
5828.77006 1.08809e-17
5832.28533 1.09227e-17
5835.80059 1.09088e-17
5839.30584 1.08548e-17
5842.82110 1.08799e-17
5846.32636 1.08923e-17
5849.84162 1.08317e-17
5853.35689 1.08361e-17
5856.86214 1.07504e-17
5860.37740 1.07340e-17
5863.88265 1.07016e-17
5867.39791 1.06625e-17
5870.91318 1.06587e-17
5874.41843 1.06388e-17
5877.93370 1.05725e-17
5881.43895 1.04776e-17
5884.95421 1.04251e-17
5888.46947 1.02600e-17
5891.97473 9.74731e-18
5895.48999 9.15781e-18
5898.99524 8.68475e-18
5902.51051 8.36642e-18
5906.02577 8.57209e-18
5909.53102 8.93701e-18
5913.04629 9.48650e-18
5916.55153 9.95826e-18
5920.06680 1.01488e-17
5923.58207 1.01920e-17
5927.08732 1.01317e-17
5930.60258 1.01737e-17
5934.10783 1.01724e-17
5937.62309 1.01248e-17
5941.13836 9.94909e-18
5944.64361 9.89065e-18
5948.15888 9.73551e-18
5951.66413 9.57836e-18
5955.17939 9.50952e-18
5958.69466 9.51977e-18
5962.19991 9.43266e-18
5965.71517 9.38443e-18
5969.22042 9.34167e-18
5972.73569 9.28072e-18
5976.25095 9.18863e-18
5979.75620 9.13104e-18
5983.27147 9.05130e-18
5986.77672 8.98428e-18
5990.29198 8.99155e-18
5993.80724 8.97398e-18
5997.31250 8.92797e-18
6000.82776 8.83055e-18
6004.34303 8.83056e-18
6007.84828 8.78200e-18
6011.36354 8.71773e-18
6014.86879 8.66372e-18
6018.38406 8.64622e-18
6021.89932 8.59456e-18
6025.40457 8.51291e-18
6028.91984 8.44731e-18
6032.42509 8.39417e-18
6035.94035 8.35222e-18
6039.45561 8.34188e-18
6042.96087 8.26225e-18
6046.47613 8.22842e-18
6049.98138 8.20608e-18
6053.49665 8.20299e-18
6057.01191 8.15672e-18
6060.51716 8.15493e-18
6064.03243 8.11894e-18
6067.53768 8.05331e-18
6071.05294 8.04386e-18
6074.56821 8.10479e-18
6078.07346 8.06869e-18
6081.58872 8.03993e-18
6085.09397 8.08927e-18
6088.60923 8.12195e-18
6092.12450 8.03939e-18
6095.62975 7.96410e-18
6099.14502 7.88666e-18
6102.65027 7.88100e-18
6106.16553 7.93986e-18
6109.68080 8.02100e-18
6113.18605 7.92506e-18
6116.70131 7.82463e-18
6120.20656 7.84814e-18
6123.72183 7.86923e-18
6127.23709 7.88010e-18
6130.74234 7.83794e-18
6134.25760 7.87918e-18
6137.77287 7.83540e-18
6141.27812 7.82480e-18
6144.79339 7.84926e-18
6148.29864 7.82114e-18
6151.81390 7.80709e-18
6155.31915 7.76789e-18
6158.83442 7.74165e-18
6162.34968 7.77242e-18
6165.85493 7.72319e-18
6169.37020 7.69569e-18
6172.88546 7.70774e-18
6176.39071 7.58880e-18
6179.90597 7.53994e-18
6183.41122 7.63001e-18
6186.92649 7.64246e-18
6190.44176 7.59693e-18
6193.94700 7.60766e-18
6197.46227 7.66329e-18
6200.96752 7.65085e-18
6204.48279 7.68419e-18
6207.99805 7.69137e-18
6211.50330 7.66670e-18
6215.01857 7.76055e-18
6218.52382 7.75293e-18
6222.03908 7.78798e-18
6225.55434 7.85155e-18
6229.05959 7.88354e-18
6232.57486 7.87803e-18
6236.08011 7.84300e-18
6239.59538 7.81705e-18
6243.11064 7.90709e-18
6246.61589 7.93068e-18
6250.13116 7.89211e-18
6253.63641 7.90728e-18
6257.15167 7.88311e-18
6260.66694 7.85267e-18
6264.17219 7.85004e-18
6267.68745 7.88444e-18
6271.19270 7.80485e-18
6274.70797 7.77806e-18
6278.22323 7.73965e-18
6281.72848 7.61024e-18
6285.24375 7.50527e-18
6288.74899 7.50692e-18
6292.26426 7.49861e-18
6295.77953 7.44262e-18
6299.28478 7.42460e-18
6302.80004 7.45296e-18
6306.31531 7.44922e-18
6309.82056 7.42899e-18
6313.33582 7.41630e-18
6316.84107 7.42302e-18
6320.35634 7.41372e-18
6323.87160 7.42427e-18
6327.37685 7.42830e-18
6330.89212 7.39534e-18
6334.39736 7.48931e-18
6337.91263 7.48574e-18
6341.42790 7.43093e-18
6344.93315 7.44038e-18
6348.44841 7.44546e-18
6351.95366 7.51743e-18
6355.46893 7.48166e-18
6358.98419 7.45357e-18
6362.48944 7.56132e-18
6366.00471 7.55125e-18
6369.50996 7.58582e-18
6373.02522 7.65402e-18
6376.54049 7.73798e-18
6380.04573 7.68127e-18
6383.56100 7.60940e-18
6387.06625 7.62579e-18
6390.58152 7.58032e-18
6394.09678 7.63161e-18
6397.60203 7.70837e-18
6401.11730 7.71638e-18
6404.62255 7.75553e-18
6408.13781 7.74744e-18
6411.65308 7.74991e-18
6415.15833 7.80460e-18
6418.67359 7.82235e-18
6422.17884 7.82631e-18
6425.69411 7.85704e-18
6429.20937 7.87359e-18
6432.71462 7.87522e-18
6436.22989 7.81919e-18
6439.74515 7.86672e-18
6443.25040 7.91411e-18
6446.76566 7.88313e-18
6450.27092 7.87397e-18
6453.78618 7.91589e-18
6457.29143 7.91179e-18
6460.80670 7.90549e-18
6464.32196 7.95513e-18
6467.82721 7.93817e-18
6471.34248 7.95983e-18
6474.85774 7.92151e-18
6478.36299 7.95154e-18
6481.87826 7.92986e-18
6485.38351 7.95610e-18
6488.89877 7.97455e-18
6492.41403 8.01486e-18
6495.91928 8.06884e-18
6499.43455 8.05653e-18
6502.93980 8.06215e-18
6506.45507 8.08728e-18
6509.97033 8.01791e-18
6513.47558 8.05173e-18
6516.99085 8.09627e-18
6520.49609 8.10878e-18
6524.01136 8.11423e-18
6527.52663 8.07493e-18
6531.03188 8.09835e-18
6534.54714 8.20338e-18
6538.05239 8.19512e-18
6541.56766 8.17525e-18
6545.08292 8.17199e-18
6548.58817 8.16873e-18
6552.10343 8.16547e-18
6555.60869 8.16221e-18
6559.12395 8.15895e-18
6562.63922 8.15569e-18
6566.14447 8.15243e-18
6569.65973 8.14917e-18
6573.16498 8.14592e-18
6576.68025 8.14266e-18
6580.19551 8.13940e-18
6583.70076 8.13615e-18
6587.21603 8.13289e-18
6590.72128 8.12964e-18
6594.23654 8.12638e-18
6597.75180 8.12313e-18
6601.25706 8.11987e-18
6604.77232 8.11662e-18
6608.27757 8.16738e-18
6611.79284 8.11094e-18
6615.30810 8.07910e-18
6618.81335 8.06408e-18
6622.32862 8.03811e-18
6625.84388 8.04111e-18
6629.34913 8.04991e-18
6632.86440 7.97631e-18
6636.36965 7.96046e-18
6639.88491 7.93464e-18
6643.40017 7.95999e-18
6646.90542 8.00523e-18
6650.42069 7.96067e-18
6653.92594 7.84440e-18
6657.44121 7.75483e-18
6660.95647 7.71210e-18
6664.46172 7.77462e-18
6667.97699 7.79361e-18
6671.48224 7.73708e-18
6674.99750 7.67684e-18
6678.51277 7.65383e-18
6682.01802 7.60104e-18
6685.53328 7.50084e-18
6689.03853 7.44373e-18
6692.55379 7.42594e-18
6696.06906 7.45557e-18
6699.57431 7.42656e-18
6703.08958 7.38934e-18
6706.59483 7.30634e-18
6710.11009 7.25578e-18
6713.62536 7.29012e-18
6717.13061 7.27843e-18
6720.64587 7.19742e-18
6724.15112 7.13834e-18
6727.66639 7.16119e-18
6731.18165 7.12455e-18
6734.68690 7.12062e-18
6738.20216 7.09677e-18
6741.70741 7.04586e-18
6745.22268 6.99390e-18
6748.73795 7.00889e-18
6752.24320 6.95430e-18
6755.75846 6.89915e-18
6759.26371 6.87024e-18
6762.77898 6.88065e-18
6766.29424 6.86298e-18
6769.79949 6.85185e-18
6773.31476 6.85373e-18
6776.82001 6.85161e-18
6780.33527 6.76405e-18
6783.85053 6.77746e-18
6787.35578 6.74494e-18
6790.87105 6.71366e-18
6794.38632 6.68260e-18
6797.89157 6.68253e-18
6801.40683 6.62385e-18
6804.91208 6.57817e-18
6808.42735 6.55297e-18
6811.94261 6.48959e-18
6815.44786 6.52464e-18
6818.96313 6.46667e-18
6822.46838 6.37890e-18
6825.98364 6.40216e-18
6829.49891 6.41767e-18
6833.00416 6.32123e-18
6836.51942 6.27310e-18
6840.02467 6.27215e-18
6843.53994 6.26090e-18
6847.05520 6.23565e-18
6850.56045 6.20643e-18
6854.07572 6.17720e-18
6857.58097 6.14798e-18
6861.09623 6.11877e-18
6864.61150 6.08955e-18
6868.11675 6.06034e-18
6871.63201 6.03113e-18
6875.13726 6.00192e-18
6878.65253 5.97272e-18
6882.16779 5.94351e-18
6885.67304 5.91431e-18
6889.18831 5.88512e-18
6892.69355 5.85592e-18
6896.20882 5.82673e-18
6899.72409 5.79754e-18
6903.22934 5.76836e-18
6906.74460 5.73918e-18
6910.24985 5.70999e-18
6913.76512 5.68082e-18
6917.28038 5.65164e-18
6920.78563 5.62247e-18
6924.30090 5.59330e-18
6927.81616 5.56413e-18
6931.32141 5.53497e-18
6934.83668 5.50581e-18
6938.34193 5.47665e-18
6941.85719 5.44749e-18
6945.36244 5.44723e-18
6948.87771 5.46099e-18
6952.39297 5.45449e-18
6955.89822 5.40186e-18
6959.41349 5.38183e-18
6962.92875 5.38095e-18
6966.43400 5.36402e-18
6969.94927 5.37558e-18
6973.45452 5.34540e-18
6976.96978 5.30229e-18
6980.48505 5.33530e-18
6983.99030 5.27484e-18
6987.50556 5.19392e-18
6991.01081 5.22880e-18
6994.52608 5.25537e-18
6998.04134 5.22434e-18
7001.54659 5.16127e-18
7005.06185 5.12697e-18
7008.56711 5.15802e-18
7012.08237 5.17652e-18
7015.59764 5.18497e-18
7019.10289 5.12997e-18
7022.61815 5.08095e-18
7026.12340 5.09395e-18
7029.63867 5.08556e-18
7033.15393 5.11668e-18
7036.65918 5.10724e-18
7040.17445 5.03566e-18
7043.67970 5.05196e-18
7047.19496 5.07285e-18
7050.71022 5.05458e-18
7054.21547 4.99834e-18
7057.73074 4.96892e-18
7061.24601 4.96536e-18
7064.75126 4.95584e-18
7068.26652 4.94397e-18
7071.77177 4.94317e-18
7075.28704 4.94557e-18
7078.79229 4.90919e-18
7082.30755 4.94629e-18
7085.82282 4.97455e-18
7089.32807 4.88843e-18
7092.84333 4.82863e-18
7096.35859 4.87146e-18
7099.86384 4.83902e-18
7103.37911 4.80908e-18
7106.88436 4.79764e-18
7110.39963 4.77221e-18
7113.91489 4.72480e-18
7117.42014 4.75095e-18
7120.93541 4.75374e-18
7124.44066 4.72199e-18
7127.95592 4.67691e-18
7131.47119 4.67121e-18
7134.97644 4.64394e-18
7138.49170 4.62549e-18
7141.99695 4.61097e-18
7145.51222 4.56022e-18
7149.02748 4.56794e-18
7152.53273 4.54541e-18
7156.04799 4.50126e-18
7159.55325 4.48765e-18
7163.06851 4.43243e-18
7166.58378 4.29911e-18
7170.08903 4.24380e-18
7173.60429 4.19315e-18
7177.10954 4.14867e-18
7180.62481 4.04844e-18
7184.14007 3.99739e-18
7187.64532 3.99609e-18
7191.16059 3.90132e-18
7194.66584 3.88436e-18
7198.18110 3.92355e-18
7201.69637 3.87379e-18
7205.20161 3.86118e-18
7208.71688 3.91762e-18
7212.22213 3.92945e-18
7215.73740 3.89516e-18
7219.25266 3.87970e-18
7222.75791 3.90071e-18
7226.27318 3.84235e-18
7229.78844 3.76206e-18
7233.29369 3.76601e-18
7236.80896 3.69400e-18
7240.31421 3.63369e-18
7243.82947 3.56442e-18
7247.34474 3.55626e-18
7250.84998 3.55224e-18
7254.36525 3.52854e-18
7257.87050 3.51763e-18
7261.38577 3.47342e-18
7264.90103 3.47801e-18
7268.40628 3.45345e-18
7271.92155 3.45665e-18
7275.42680 3.38314e-18
7278.94206 3.33786e-18
7282.45733 3.34103e-18
7285.96258 3.35730e-18
7289.47784 3.34851e-18
7292.98309 3.36371e-18
7296.49835 3.30905e-18
7300.01362 3.26812e-18
7303.51887 3.29288e-18
7307.03414 3.34033e-18
7310.53939 3.29703e-18
7314.05465 3.30810e-18
7317.56992 3.32226e-18
7321.07517 3.26539e-18
7324.59043 3.31168e-18
7328.09568 3.31565e-18
7331.61095 3.27819e-18
7335.12621 3.27775e-18
7338.63146 3.29565e-18
7342.14672 3.26596e-18
7345.65197 3.26726e-18
7349.16724 3.28731e-18
7352.68251 3.23523e-18
7356.18776 3.20230e-18
7359.70302 3.19862e-18
7363.20827 3.14862e-18
7366.72354 3.16970e-18
7370.23880 3.15320e-18
7373.74405 3.16131e-18
7377.25932 3.15704e-18
7380.76457 3.14448e-18
7384.27983 3.15583e-18
7387.79510 3.09772e-18
7391.30034 3.06409e-18
7394.81561 3.03296e-18
7398.33088 3.02642e-18
7401.83613 3.01304e-18
7405.35139 2.97382e-18
7408.85664 2.92317e-18
7412.37191 2.93096e-18
7415.88717 2.98422e-18
7419.39242 2.92108e-18
7422.90769 2.90907e-18
7426.41294 2.92216e-18
7429.92820 2.90453e-18
7433.44347 2.85436e-18
7436.94872 2.88609e-18
7440.46398 2.85845e-18
7443.96923 2.86634e-18
7447.48450 2.86557e-18
7450.99976 2.86465e-18
7454.50501 2.80981e-18
7458.02028 2.80928e-18
7461.52553 2.79626e-18
7465.04079 2.78464e-18
7468.55606 2.77446e-18
7472.06131 2.80056e-18
7475.57657 2.80315e-18
7479.08182 2.76397e-18
7482.59709 2.79089e-18
7486.11235 2.82194e-18
7489.61760 2.82726e-18
7493.13287 2.78536e-18
7496.63812 2.78777e-18
7500.15338 2.78958e-18
7503.66865 2.76477e-18
7507.17390 2.77285e-18
7510.68916 2.75314e-18
7514.19441 2.77774e-18
7517.70968 2.80115e-18
7521.22494 2.77010e-18
7524.73019 2.77779e-18
7528.24546 2.76562e-18
7531.75071 2.76788e-18
7535.26597 2.78480e-18
7538.78124 2.80012e-18
7542.28649 2.80440e-18
7545.80175 2.80433e-18
7549.30700 2.79284e-18
7552.82227 2.79889e-18
7556.33753 2.82959e-18
7559.84278 2.82243e-18
7563.35804 2.79358e-18
7566.87331 2.81666e-18
7570.37856 2.84120e-18
7573.89383 2.81604e-18
7577.39908 2.77886e-18
7580.91434 2.77641e-18
7584.42961 2.77869e-18
7587.93486 2.78096e-18
7591.45012 2.78324e-18
7594.95537 2.78551e-18
7598.47064 2.78779e-18
7601.98590 2.79006e-18
7605.49115 2.79234e-18
7609.00641 2.79461e-18
7612.51166 2.79688e-18
7616.02693 2.79916e-18
7619.54220 2.80143e-18
7623.04745 2.80370e-18
7626.56271 2.80597e-18
7630.06796 2.80825e-18
7633.58323 2.81052e-18
7637.09849 2.81279e-18
7640.60374 2.81506e-18
7644.11901 2.81733e-18
7647.62426 2.81960e-18
7651.13952 2.82187e-18
7654.65478 2.82414e-18
7658.16003 2.82641e-18
7661.67530 2.82868e-18
7665.18055 2.83095e-18
7668.69582 2.83322e-18
7672.21108 2.83307e-18
7675.71633 2.78194e-18
7679.23160 2.75444e-18
7682.73685 2.69435e-18
7686.25211 2.61285e-18
7689.76738 2.42191e-18
7693.27263 2.09001e-18
7696.78789 1.94768e-18
7698.86586 1.94768e-18
7700.98946 1.95414e-18
7703.10305 1.95800e-18
7705.22665 1.96186e-18
7707.34024 1.96199e-18
7709.46385 1.96211e-18
7711.57743 1.97600e-18
7713.70104 1.98989e-18
7715.82464 2.01196e-18
7717.93823 2.03403e-18
7720.06183 2.03540e-18
7722.17542 2.03677e-18
7724.29902 2.03028e-18
7726.41261 2.02378e-18
7728.53621 2.02845e-18
7730.65982 2.03312e-18
7732.77340 2.03849e-18
7734.89701 2.04386e-18
7737.01060 2.04523e-18
7739.13420 2.04659e-18
7741.24779 2.04905e-18
7743.37139 2.05151e-18
7745.49500 2.05413e-18
7747.60858 2.05674e-18
7749.73219 2.05999e-18
7751.84577 2.06323e-18
7753.96938 2.07190e-18
7756.08296 2.08057e-18
7758.20657 2.08372e-18
7760.33017 2.08687e-18
7762.44376 2.08283e-18
7764.56736 2.07879e-18
7766.68095 2.09017e-18
7768.80455 2.10154e-18
7770.91814 2.10331e-18
7773.04175 2.10508e-18
7775.16535 2.09604e-18
7777.27894 2.08701e-18
7779.40254 2.08459e-18
7781.51613 2.08218e-18
7783.63973 2.08480e-18
7785.75332 2.08742e-18
7787.87692 2.08757e-18
7790.00053 2.08772e-18
7792.11411 2.08577e-18
7794.23772 2.08381e-18
7796.35130 2.08245e-18
7798.47491 2.08109e-18
7800.58850 2.08370e-18
7802.71210 2.08631e-18
7804.83570 2.09049e-18
7806.94929 2.09467e-18
7809.07289 2.08979e-18
7811.18648 2.08492e-18
7813.31009 2.08267e-18
7815.42367 2.08043e-18
7817.54728 2.08035e-18
7819.67088 2.08027e-18
7821.78447 2.08624e-18
7823.90807 2.09221e-18
7826.02166 2.09213e-18
7828.14526 2.09205e-18
7830.25885 2.09651e-18
7832.38245 2.10096e-18
7834.50606 2.10542e-18
7836.61964 2.10987e-18
7838.74325 2.10979e-18
7840.85684 2.10971e-18
7842.98044 2.11120e-18
7845.09403 2.11268e-18
7847.21763 2.10650e-18
7849.34123 2.10032e-18
7851.45482 2.09571e-18
7853.57843 2.09110e-18
7855.69201 2.08498e-18
7857.81562 2.07886e-18
7859.92920 2.08240e-18
7862.05281 2.08595e-18
7864.17641 2.07925e-18
7866.29000 2.07256e-18
7868.41360 2.06514e-18
7870.52719 2.05772e-18
7872.65079 2.05003e-18
7874.76438 2.04234e-18
7876.88798 2.03483e-18
7879.01159 2.02731e-18
7881.12518 2.02037e-18
7883.24878 2.01342e-18
7885.36237 2.00758e-18
7887.48597 2.00175e-18
7889.59956 1.99696e-18
7891.72316 1.99217e-18
7893.84677 1.98788e-18
7895.96035 1.98360e-18
7898.08396 1.97933e-18
7900.19754 1.97507e-18
7902.32115 1.97034e-18
7904.43473 1.96561e-18
7906.55834 1.96045e-18
7908.68194 1.95528e-18
7910.79553 1.94959e-18
7912.91913 1.94390e-18
7915.03272 1.93766e-18
7917.15632 1.93141e-18
7919.26991 1.92438e-18
7921.39351 1.91736e-18
7923.51712 1.90938e-18
7925.63071 1.90141e-18
7927.75431 1.89228e-18
7929.86790 1.88315e-18
7931.99150 1.87292e-18
7934.10509 1.86269e-18
7936.22869 1.85162e-18
7938.35230 1.84055e-18
7940.46588 1.82886e-18
7942.58949 1.81717e-18
7944.70307 1.80508e-18
7946.82668 1.79300e-18
7948.94027 1.78054e-18
7951.06387 1.76808e-18
7953.18747 1.75531e-18
7955.30106 1.74255e-18
7957.42466 1.72957e-18
7959.53825 1.71658e-18
7961.66186 1.70333e-18
7963.77544 1.69009e-18
7965.89905 1.67654e-18
7968.02265 1.66299e-18
7970.13624 1.64912e-18
7972.25984 1.63524e-18
7974.37343 1.62104e-18
7976.49703 1.60684e-18
7978.61062 1.59236e-18
7980.73422 1.57788e-18
7982.85783 1.56314e-18
7984.97141 1.54841e-18
7987.09502 1.53351e-18
7989.20860 1.51862e-18
7991.33221 1.50397e-18
7993.44580 1.48933e-18
7995.56940 1.47527e-18
7997.69300 1.46121e-18
7999.80659 1.44808e-18
8001.93020 1.43496e-18
8004.04378 1.42287e-18
8006.16739 1.41079e-18
8008.28097 1.39981e-18
8010.40458 1.38883e-18
8012.52818 1.37910e-18
8014.64177 1.36937e-18
8016.76537 1.36068e-18
8018.87896 1.35200e-18
8021.00256 1.34401e-18
8023.11615 1.33602e-18
8025.23975 1.32836e-18
8027.36336 1.32069e-18
8029.47695 1.31306e-18
8031.60055 1.30543e-18
8033.71414 1.29810e-18
8035.83774 1.29077e-18
8037.95133 1.28385e-18
8040.07493 1.27693e-18
8042.19854 1.27062e-18
8044.31212 1.26430e-18
8046.43573 1.25839e-18
8048.54931 1.25247e-18
8050.67292 1.24679e-18
8052.78650 1.24110e-18
8054.91011 1.23550e-18
8057.03371 1.22990e-18
8059.14730 1.22420e-18
8061.27090 1.21850e-18
8063.38449 1.21252e-18
8065.50809 1.20653e-18
8067.62168 1.20009e-18
8069.74529 1.19364e-18
8071.86889 1.18663e-18
8073.98248 1.17962e-18
8076.10608 1.17215e-18
8078.21967 1.16467e-18
8080.34327 1.15681e-18
8082.46688 1.14895e-18
8084.58046 1.14075e-18
8086.70407 1.13254e-18
8088.81765 1.12440e-18
8090.94126 1.11625e-18
8093.05484 1.10849e-18
8095.17845 1.10073e-18
8097.29204 1.09390e-18
8099.41564 1.08707e-18
8101.53924 1.08095e-18
8103.65283 1.07484e-18
8105.77643 1.06897e-18
8107.89002 1.06311e-18
8110.01363 1.05700e-18
8112.12721 1.05090e-18
8114.25082 1.04432e-18
8116.37442 1.03773e-18
8118.48801 1.03129e-18
8120.61161 1.02484e-18
8122.72520 1.01891e-18
8124.84880 1.01298e-18
8126.96239 1.00804e-18
8129.08599 1.00311e-18
8131.20960 9.98913e-19
8133.32318 9.94721e-19
8135.44679 9.91098e-19
8137.56038 9.87475e-19
8139.68398 9.84238e-19
8141.79757 9.81000e-19
8143.92117 9.77987e-19
8146.04477 9.74971e-19
8148.15836 9.72039e-19
8150.28197 9.69106e-19
8152.39555 9.66050e-19
8154.51916 9.62993e-19
8156.63274 9.59745e-19
8158.75635 9.56497e-19
8160.87995 9.53350e-19
8162.99354 9.50204e-19
8165.11714 9.47368e-19
8167.23073 9.44534e-19
8169.35433 9.42302e-19
8171.46792 9.40069e-19
8173.59152 9.38188e-19
8175.71513 9.36308e-19
8177.82872 9.34620e-19
8179.95232 9.32936e-19
8182.06591 9.31228e-19
8184.18951 9.29522e-19
8186.30310 9.27858e-19
8188.42670 9.26194e-19
8190.55030 9.24720e-19
8192.66389 9.23247e-19
8194.78750 9.22062e-19
8196.90108 9.20876e-19
8199.02469 9.20149e-19
8201.14829 9.19419e-19
8203.26188 9.19458e-19
8205.38548 9.19495e-19
8207.49907 9.20538e-19
8209.62267 9.21578e-19
8211.73626 9.23827e-19
8213.85986 9.26076e-19
8215.97345 9.29517e-19
8218.09706 9.32959e-19
8220.22066 9.37514e-19
8222.33425 9.42069e-19
8224.45785 9.47879e-19
8226.57144 9.53684e-19
8228.69504 9.59945e-19
8230.80863 9.66206e-19
8232.93223 9.71965e-19
8235.05584 9.77727e-19
8237.16942 9.81967e-19
8239.29303 9.86204e-19
8241.40661 9.88485e-19
8243.53022 9.90764e-19
8245.65382 9.91828e-19
8247.76741 9.92891e-19
8249.89101 9.93204e-19
8252.00460 9.93515e-19
8254.12820 9.93637e-19
8256.24179 9.93759e-19
8258.36540 9.94240e-19
8260.48900 9.94721e-19
8262.60259 9.96084e-19
8264.72619 9.97446e-19
8266.83978 1.00042e-18
8268.96338 1.00341e-18
8271.07697 1.00771e-18
8273.20057 1.01202e-18
8275.31416 1.01713e-18
8277.43776 1.02225e-18
8279.56137 1.02767e-18
8281.67495 1.03310e-18
8283.79856 1.03841e-18
8285.91215 1.04372e-18
8288.03575 1.04870e-18
8290.14934 1.05368e-18
8292.27294 1.05805e-18
8294.39654 1.06241e-18
8296.51013 1.06587e-18
8298.63373 1.06933e-18
8300.74732 1.07249e-18
8302.87093 1.07566e-18
8304.99453 1.07899e-18
8307.10812 1.08233e-18
8309.23172 1.08647e-18
8311.34531 1.09060e-18
8313.46891 1.09556e-18
8315.58250 1.10052e-18
8317.70610 1.10622e-18
8319.82971 1.11191e-18
8321.94329 1.11836e-18
8324.06690 1.12480e-18
8326.18048 1.13179e-18
8328.30409 1.13878e-18
8330.41768 1.14585e-18
8332.54128 1.15293e-18
8334.65487 1.15966e-18
8336.77847 1.16640e-18
8338.90207 1.17235e-18
8341.01566 1.17829e-18
8343.13927 1.18390e-18
8345.25285 1.18951e-18
8347.37646 1.19507e-18
8349.50006 1.20063e-18
8351.61365 1.20662e-18
8353.73725 1.21262e-18
8355.85084 1.21886e-18
8357.97444 1.22509e-18
8360.08803 1.23132e-18
8362.21163 1.23756e-18
8364.32522 1.24352e-18
8366.44882 1.24949e-18
8368.57243 1.25520e-18
8370.68602 1.26091e-18
8372.80962 1.26672e-18
8374.92321 1.27254e-18
8377.04681 1.27869e-18
8379.17042 1.28484e-18
8381.28400 1.29157e-18
8383.40761 1.29830e-18
8385.52119 1.30588e-18
8387.64480 1.31346e-18
8389.75838 1.32212e-18
8391.88199 1.33077e-18
8393.99558 1.34092e-18
8396.11918 1.35107e-18
8398.24278 1.36212e-18
8400.35637 1.37318e-18
8402.47997 1.38450e-18
8404.59356 1.39582e-18
8406.71717 1.40656e-18
8408.83075 1.41730e-18
8410.95436 1.42737e-18
8413.07796 1.43743e-18
8415.19155 1.44757e-18
8417.31515 1.45771e-18
8419.42874 1.46842e-18
8421.55234 1.47913e-18
8423.67595 1.49090e-18
8425.78953 1.50266e-18
8427.91314 1.51516e-18
8430.02672 1.52766e-18
8432.15033 1.54068e-18
8434.26392 1.55370e-18
8436.38752 1.56714e-18
8438.51112 1.58057e-18
8440.62471 1.59374e-18
8442.74831 1.60691e-18
8444.86190 1.61916e-18
8446.98551 1.63141e-18
8449.09909 1.64195e-18
8451.22270 1.65248e-18
8453.33628 1.66112e-18
8455.45989 1.66975e-18
8457.58349 1.67694e-18
8459.69708 1.68414e-18
8461.82068 1.69021e-18
8463.93427 1.69628e-18
8466.05787 1.70162e-18
8468.17146 1.70695e-18
8470.29506 1.71182e-18
8472.41867 1.71669e-18
8474.53226 1.72141e-18
8476.65586 1.72613e-18
8478.76945 1.73107e-18
8480.89305 1.73600e-18
8483.01665 1.74111e-18
8485.13024 1.74623e-18
8487.25385 1.75143e-18
8489.36743 1.75663e-18
8491.49104 1.76179e-18
8493.60462 1.76695e-18
8495.72823 1.77197e-18
8497.85183 1.77699e-18
8499.96542 1.78179e-18
8502.08902 1.78659e-18
8504.20261 1.79107e-18
8506.32621 1.79554e-18
8508.43980 1.79959e-18
8510.56340 1.80363e-18
8512.68701 1.80705e-18
8514.80060 1.81046e-18
8516.92420 1.81310e-18
8519.03779 1.81574e-18
8521.16139 1.81746e-18
8523.27498 1.81918e-18
8525.39858 1.82004e-18
8527.51217 1.82089e-18
8529.63577 1.82100e-18
8531.75938 1.82112e-18
8533.87296 1.82051e-18
8535.99657 1.81990e-18
8538.11015 1.81890e-18
8540.23376 1.81791e-18
8542.35736 1.81704e-18
8544.47095 1.81617e-18
8546.59455 1.81590e-18
8548.70814 1.81563e-18
8550.83174 1.81632e-18
8552.94533 1.81701e-18
8555.06893 1.81829e-18
8557.19254 1.81957e-18
8559.30613 1.82121e-18
8561.42973 1.82285e-18
8563.54332 1.82460e-18
8565.66692 1.82636e-18
8567.78051 1.82777e-18
8569.90411 1.82918e-18
8572.02772 1.82983e-18
8574.14130 1.83049e-18
8576.26491 1.82976e-18
8578.37849 1.82902e-18
8580.50210 1.82711e-18
8582.61568 1.82520e-18
8584.73929 1.82283e-18
8586.86289 1.82047e-18
8588.97648 1.81824e-18
8591.10008 1.81601e-18
8593.21367 1.81444e-18
8595.33727 1.81288e-18
8597.45086 1.81190e-18
8599.57447 1.81092e-18
8601.68805 1.81055e-18
8603.81166 1.81019e-18
8605.93526 1.81054e-18
8608.04885 1.81089e-18
8610.17245 1.81120e-18
8612.28604 1.81150e-18
8614.40964 1.81106e-18
8616.53325 1.81062e-18
8618.64683 1.80861e-18
8620.77044 1.80659e-18
8622.88403 1.80277e-18
8625.00763 1.79896e-18
8627.12122 1.79349e-18
8629.24482 1.78803e-18
8631.36842 1.78097e-18
8633.48201 1.77391e-18
8635.60562 1.76551e-18
8637.71920 1.75711e-18
8639.84281 1.74824e-18
8641.95639 1.73937e-18
8644.08000 1.73078e-18
8646.19358 1.72218e-18
8648.31719 1.71472e-18
8650.44079 1.70726e-18
8652.55438 1.70090e-18
8654.67798 1.69454e-18
8656.79157 1.68924e-18
8658.91517 1.68394e-18
8661.02876 1.67973e-18
8663.15237 1.67552e-18
8665.27597 1.67194e-18
8667.38956 1.66836e-18
8669.51316 1.66475e-18
8671.62675 1.66115e-18
8673.75035 1.65685e-18
8675.87395 1.65255e-18
8677.98754 1.64707e-18
8680.11115 1.64158e-18
8682.22473 1.63512e-18
8684.34834 1.62865e-18
8686.46192 1.62130e-18
8688.58553 1.61395e-18
8690.70913 1.60582e-18
8692.82272 1.59770e-18
8694.94632 1.58930e-18
8697.05991 1.58091e-18
8699.18351 1.57274e-18
8701.29710 1.56457e-18
8703.42071 1.55723e-18
8705.53429 1.54989e-18
8707.65790 1.54350e-18
8709.78150 1.53710e-18
8711.89509 1.53154e-18
8714.01869 1.52597e-18
8716.13228 1.52117e-18
8718.25588 1.51636e-18
8720.37949 1.51216e-18
8722.49307 1.50795e-18
8724.61668 1.50403e-18
8726.73026 1.50012e-18
8728.85387 1.49621e-18
8730.96745 1.49230e-18
8733.09106 1.48807e-18
8735.21466 1.48384e-18
8737.32825 1.47916e-18
8739.45185 1.47449e-18
8741.56544 1.46927e-18
8743.68905 1.46405e-18
8745.80263 1.45816e-18
8747.92624 1.45227e-18
8750.04984 1.44583e-18
8752.16343 1.43938e-18
8754.28703 1.43259e-18
8756.40062 1.42580e-18
8758.52422 1.41888e-18
8760.63781 1.41196e-18
8762.76141 1.40515e-18
8764.88502 1.39834e-18
8766.99860 1.39188e-18
8769.12221 1.38542e-18
8771.23580 1.37956e-18
8773.35940 1.37370e-18
8775.47299 1.36872e-18
8777.59659 1.36373e-18
8779.72019 1.35958e-18
8781.83378 1.35543e-18
8783.95738 1.35209e-18
8786.07097 1.34875e-18
8788.19458 1.34610e-18
8790.30816 1.34345e-18
8792.43177 1.34163e-18
8794.54535 1.33982e-18
8796.66896 1.33902e-18
8798.79256 1.33823e-18
8800.90615 1.33858e-18
8803.02975 1.33893e-18
8805.14334 1.34046e-18
8807.26694 1.34198e-18
8809.39055 1.34451e-18
8811.50413 1.34703e-18
8813.62774 1.35040e-18
8815.74133 1.35376e-18
8817.86493 1.35786e-18
8819.97852 1.36195e-18
8822.10212 1.36599e-18
8824.22573 1.37003e-18
8826.33931 1.37338e-18
8828.46292 1.37674e-18
8830.57650 1.37861e-18
8832.70011 1.38048e-18
8834.81369 1.38094e-18
8836.93730 1.38141e-18
8839.05088 1.38081e-18
8841.17449 1.38021e-18
8843.29809 1.37877e-18
8845.41168 1.37732e-18
8847.53528 1.37549e-18
8849.64887 1.37366e-18
8851.77247 1.37232e-18
8853.89608 1.37097e-18
8856.00967 1.37085e-18
8858.13327 1.37073e-18
8860.24686 1.37266e-18
8862.37046 1.37459e-18
8864.48405 1.37764e-18
8866.60765 1.38068e-18
8868.73126 1.38413e-18
8870.84484 1.38757e-18
8872.96845 1.39052e-18
8875.08203 1.39346e-18
8877.20564 1.39546e-18
8879.31923 1.39745e-18
8881.44283 1.39814e-18
8883.56643 1.39883e-18
8885.68002 1.39786e-18
8887.80362 1.39689e-18
8889.91721 1.39407e-18
8892.04082 1.39126e-18
8894.15440 1.38667e-18
8896.27801 1.38208e-18
8898.39159 1.37579e-18
8900.51520 1.36950e-18
8902.63880 1.36159e-18
8904.75239 1.35368e-18
8906.87599 1.34547e-18
8908.98958 1.33725e-18
8911.11318 1.32977e-18
8913.23679 1.32229e-18
8915.35037 1.31695e-18
8917.47398 1.31162e-18
8919.58757 1.30808e-18
8921.71117 1.30455e-18
8923.82476 1.30212e-18
8925.94836 1.29970e-18
8928.07196 1.29783e-18
8930.18555 1.29596e-18
8932.30916 1.29397e-18
8934.42274 1.29198e-18
8936.54635 1.28911e-18
8938.65993 1.28623e-18
8940.78354 1.28172e-18
8942.90714 1.27721e-18
8945.02073 1.27035e-18
8947.14433 1.26348e-18
8949.25792 1.25556e-18
8951.38152 1.24763e-18
8953.49511 1.23966e-18
8955.61871 1.23168e-18
8957.74232 1.22481e-18
8959.85591 1.21793e-18
8961.97951 1.21281e-18
8964.09310 1.20770e-18
8966.21670 1.20483e-18
8968.33029 1.20196e-18
8970.45389 1.20205e-18
8972.57750 1.20214e-18
8974.69108 1.20503e-18
8976.81469 1.20792e-18
8978.92827 1.21240e-18
8981.05188 1.21688e-18
8983.16546 1.22190e-18
8985.28907 1.22693e-18
8987.41267 1.23138e-18
8989.52626 1.23584e-18
8991.64986 1.23954e-18
8993.76345 1.24325e-18
8995.88705 1.24590e-18
8998.00064 1.24854e-18
9000.12425 1.24983e-18
9002.24785 1.25111e-18
9004.36144 1.25110e-18
9006.48504 1.25109e-18
9008.59863 1.24995e-18
9010.72223 1.24880e-18
9012.83582 1.24680e-18
9014.95942 1.24480e-18
9017.08303 1.24223e-18
9019.19661 1.23966e-18
9021.32022 1.23683e-18
9023.43380 1.23399e-18
9025.55741 1.23119e-18
9027.67100 1.22839e-18
9029.79460 1.22590e-18
9031.90819 1.22342e-18
9034.03179 1.22205e-18
9036.15539 1.22068e-18
9038.26898 1.22102e-18
9040.39258 1.22135e-18
9042.50617 1.22416e-18
9044.62978 1.22696e-18
9046.75338 1.23159e-18
9048.86697 1.23621e-18
9050.99057 1.24183e-18
9053.10416 1.24746e-18
9055.22776 1.25336e-18
9057.34135 1.25927e-18
9059.46495 1.26459e-18
9061.58856 1.26990e-18
9063.70214 1.27368e-18
9065.82575 1.27745e-18
9067.93933 1.27871e-18
9070.06294 1.27996e-18
9072.17653 1.27793e-18
9074.30013 1.27590e-18
9076.42373 1.27241e-18
9078.53732 1.26891e-18
9080.66093 1.26526e-18
9082.77451 1.26161e-18
9084.89812 1.25963e-18
9087.01170 1.25765e-18
9089.13531 1.25708e-18
9091.25891 1.25646e-18
9093.37250 1.25696e-18
9095.49610 1.25746e-18
9097.60969 1.25875e-18
9099.73329 1.26003e-18
9101.84688 1.26179e-18
9103.97048 1.26355e-18
9106.09409 1.26552e-18
9108.20767 1.26749e-18
9110.33128 1.26927e-18
9112.44487 1.27104e-18
9114.56847 1.27228e-18
9116.68206 1.27352e-18
9118.80566 1.27473e-18
9120.92927 1.27593e-18
9123.04285 1.27741e-18
9125.16646 1.27889e-18
9127.28004 1.28116e-18
9129.40365 1.28343e-18
9131.51723 1.28601e-18
9133.64084 1.28859e-18
9135.76444 1.29103e-18
9137.87803 1.29346e-18
9140.00163 1.29523e-18
9142.11522 1.29699e-18
9144.23882 1.29795e-18
9146.35241 1.29892e-18
9148.47602 1.29928e-18
9150.59962 1.29964e-18
9152.71321 1.29951e-18
9154.83681 1.29938e-18
9156.95040 1.29893e-18
9159.07400 1.29848e-18
9161.18759 1.29784e-18
9163.31119 1.29720e-18
9165.43480 1.29654e-18
9167.54838 1.29588e-18
9169.67199 1.29535e-18
9171.78557 1.29481e-18
9173.90918 1.29464e-18
9176.02277 1.29447e-18
9178.14637 1.29485e-18
9180.26997 1.29523e-18
9182.38356 1.29642e-18
9184.50716 1.29760e-18
9186.62075 1.29949e-18
9188.74436 1.30138e-18
9190.85794 1.30365e-18
9192.98155 1.30593e-18
9195.10515 1.30827e-18
9197.21874 1.31061e-18
9199.34234 1.31272e-18
9201.45593 1.31483e-18
9203.57953 1.31670e-18
9205.69312 1.31858e-18
9207.81672 1.32012e-18
9209.94033 1.32167e-18
9212.05391 1.32279e-18
9214.17752 1.32391e-18
9216.29111 1.32449e-18
9218.41471 1.32507e-18
9220.52830 1.32499e-18
9222.65190 1.32491e-18
9224.77550 1.32413e-18
9226.88909 1.32336e-18
9229.01270 1.32160e-18
9231.12628 1.31985e-18
9233.24989 1.31671e-18
9235.36347 1.31357e-18
9237.48708 1.30873e-18
9239.61068 1.30390e-18
9241.72427 1.29716e-18
9243.84787 1.29042e-18
9245.96146 1.28187e-18
9248.08506 1.27332e-18
9250.19865 1.26308e-18
9252.32225 1.25283e-18
9254.44586 1.24091e-18
9256.55945 1.22899e-18
9258.68305 1.21652e-18
9260.79664 1.20405e-18
9262.92024 1.19207e-18
9265.03383 1.18009e-18
9267.15743 1.16991e-18
9269.27102 1.15973e-18
9271.39462 1.15160e-18
9273.51823 1.14346e-18
9275.63181 1.13706e-18
9277.75542 1.13065e-18
9279.86900 1.12565e-18
9281.99261 1.12065e-18
9284.11621 1.11678e-18
9286.22980 1.11291e-18
9288.35340 1.11070e-18
9290.46699 1.10848e-18
9292.59059 1.10813e-18
9294.70418 1.10777e-18
9296.82778 1.10985e-18
9298.95139 1.11192e-18
9301.06498 1.11450e-18
9303.18858 1.11708e-18
9305.30217 1.11861e-18
9307.42577 1.12015e-18
9309.53936 1.11843e-18
9311.66296 1.11672e-18
9313.78657 1.11230e-18
9315.90015 1.10789e-18
9318.02376 1.10249e-18
9320.13734 1.09710e-18
9322.26095 1.09214e-18
9324.37453 1.08719e-18
9326.49814 1.08393e-18
9328.62174 1.08067e-18
9330.73533 1.07932e-18
9332.85893 1.07798e-18
9334.97252 1.07906e-18
9337.09613 1.08013e-18
9339.20971 1.08442e-18
9341.33332 1.08871e-18
9343.45692 1.09414e-18
9345.57051 1.09958e-18
9347.69411 1.10452e-18
9349.80770 1.10947e-18
9351.93130 1.11106e-18
9354.04489 1.11265e-18
9356.16849 1.11221e-18
9358.29210 1.11177e-18
9360.40568 1.11194e-18
9362.52929 1.11212e-18
9364.64287 1.11541e-18
9366.76648 1.11872e-18
9368.88007 1.12641e-18
9371.00367 1.13411e-18
9373.12727 1.14343e-18
9375.24086 1.15276e-18
9377.36447 1.16212e-18
9379.47805 1.17147e-18
9381.60166 1.17918e-18
9383.71524 1.18689e-18
9385.83885 1.19120e-18
9387.96245 1.19551e-18
9390.07604 1.19503e-18
9392.19964 1.19456e-18
9394.31323 1.18663e-18
9396.43683 1.17870e-18
9398.55042 1.16616e-18
9400.67402 1.15362e-18
9402.78761 1.14088e-18
9404.91122 1.12813e-18
9407.03482 1.11945e-18
9409.14841 1.11076e-18
9411.27201 1.10894e-18
9413.39561 1.10713e-18
9415.50920 1.11093e-18
9417.63280 1.11474e-18
9419.74639 1.12389e-18
9421.87000 1.13304e-18
9423.98358 1.14729e-18
9426.10719 1.16153e-18
9428.22077 1.17634e-18
9430.34438 1.19115e-18
9432.46798 1.20275e-18
9434.58157 1.21435e-18
9436.70517 1.21713e-18
9438.81876 1.21991e-18
9440.94236 1.21566e-18
9443.05595 1.21140e-18
9445.17956 1.20379e-18
9447.30316 1.19618e-18
9449.41675 1.18874e-18
9451.54035 1.18130e-18
9453.65394 1.17652e-18
9455.77754 1.17174e-18
9457.89113 1.16915e-18
9460.01473 1.16656e-18
9462.13834 1.16665e-18
9464.25192 1.16673e-18
9466.37553 1.16988e-18
9468.48911 1.17303e-18
9470.61272 1.17770e-18
9472.72631 1.18236e-18
9474.84991 1.18722e-18
9476.97351 1.19208e-18
9479.08710 1.19476e-18
9481.21070 1.19744e-18
9483.32429 1.19912e-18
9485.44790 1.20080e-18
9487.56148 1.20324e-18
9489.68509 1.20568e-18
9491.80869 1.21088e-18
9493.92228 1.21607e-18
9496.04588 1.22436e-18
9498.15947 1.23266e-18
9500.28307 1.24115e-18
9502.39666 1.24964e-18
9504.52026 1.25636e-18
9506.64387 1.26309e-18
9508.75745 1.26578e-18
9510.88106 1.26846e-18
9512.99465 1.26820e-18
9515.11825 1.26794e-18
9517.23184 1.26530e-18
9519.35544 1.26266e-18
9521.47904 1.25871e-18
9523.59263 1.25476e-18
9525.71623 1.24943e-18
9527.82982 1.24410e-18
9529.95343 1.23730e-18
9532.06701 1.23050e-18
9534.19062 1.22201e-18
9536.31422 1.21352e-18
9538.42781 1.20397e-18
9540.55141 1.19442e-18
9542.66500 1.18581e-18
9544.78860 1.17720e-18
9546.91221 1.17110e-18
9549.02579 1.16499e-18
9551.14940 1.16296e-18
9553.26298 1.16094e-18
9555.38659 1.16146e-18
9557.50018 1.16198e-18
9559.62378 1.16394e-18
9561.73737 1.16591e-18
9563.86097 1.16817e-18
9565.98458 1.17043e-18
9568.09816 1.17182e-18
9570.22177 1.17321e-18
9572.33535 1.17274e-18
9574.45896 1.17226e-18
9576.57254 1.16832e-18
9578.69615 1.16439e-18
9580.81975 1.15728e-18
9582.93334 1.15017e-18
9585.05694 1.14275e-18
9587.17053 1.13533e-18
9589.29413 1.12984e-18
9591.40772 1.12435e-18
9593.53132 1.12314e-18
9595.65493 1.12193e-18
9597.76852 1.12324e-18
9599.89212 1.12454e-18
9602.00571 1.12729e-18
9604.12931 1.13004e-18
9606.25292 1.13303e-18
9608.36650 1.13601e-18
9610.49011 1.13834e-18
9612.60369 1.14066e-18
9614.72730 1.14156e-18
9616.84088 1.14246e-18
9618.96449 1.14070e-18
9621.07807 1.13894e-18
9623.20168 1.13478e-18
9625.32528 1.13061e-18
9627.43887 1.12604e-18
9629.56247 1.12147e-18
9631.67606 1.11805e-18
9633.79967 1.11462e-18
9635.91325 1.11392e-18
9638.03686 1.11323e-18
9640.16046 1.11494e-18
9642.27405 1.11666e-18
9644.39765 1.12071e-18
9646.51124 1.12477e-18
9648.63484 1.13133e-18
9650.75845 1.13789e-18
9652.87203 1.14544e-18
9654.99564 1.15300e-18
9657.10922 1.15998e-18
9659.23283 1.16697e-18
9661.34642 1.17144e-18
9663.47002 1.17590e-18
9665.58361 1.17735e-18
9667.70721 1.17879e-18
9669.83081 1.17828e-18
9671.94440 1.17777e-18
9674.06800 1.17593e-18
9676.18159 1.17410e-18
9678.30520 1.17171e-18
9680.41878 1.16932e-18
9682.54239 1.16685e-18
9684.66599 1.16439e-18
9686.77958 1.16240e-18
9688.90318 1.16040e-18
9691.01677 1.15989e-18
9693.14037 1.15937e-18
9695.25396 1.15905e-18
9697.37756 1.15872e-18
9699.50117 1.15731e-18
9701.61476 1.15591e-18
9703.73836 1.15171e-18
9705.85195 1.14750e-18
9707.97555 1.14050e-18
9710.08914 1.13350e-18
9712.21274 1.12526e-18
9714.33635 1.11702e-18
9716.44993 1.10870e-18
9718.57354 1.10039e-18
9720.68712 1.09318e-18
9722.81073 1.08597e-18
9724.92431 1.07942e-18
9727.04792 1.07288e-18
9729.17152 1.06694e-18
9731.28511 1.06100e-18
9733.40871 1.05544e-18
9735.52230 1.04987e-18
9737.64590 1.04485e-18
9739.75949 1.03982e-18
9741.88310 1.03543e-18
9744.00670 1.03104e-18
9746.12029 1.02745e-18
9748.24389 1.02385e-18
9750.35748 1.02085e-18
9752.48108 1.01785e-18
9754.59467 1.01500e-18
9756.71827 1.01215e-18
9758.84188 1.00905e-18
9760.95546 1.00595e-18
9763.07907 1.00231e-18
9765.19265 9.98666e-19
9767.31626 9.95045e-19
9769.42985 9.91425e-19
9771.55345 9.88191e-19
9773.67705 9.84954e-19
9775.79064 9.82422e-19
9777.91424 9.79888e-19
9780.02783 9.78472e-19
9782.15143 9.77057e-19
9784.27504 9.77041e-19
9786.38863 9.77025e-19
9788.51223 9.79036e-19
9790.62582 9.81048e-19
9792.74942 9.84363e-19
9794.86301 9.87677e-19
9796.98661 9.90700e-19
9799.10020 9.93722e-19
9801.22380 9.95112e-19
9803.34741 9.96500e-19
9805.46099 9.95103e-19
9807.58460 9.93708e-19
9809.69818 9.89659e-19
9811.82179 9.85608e-19
9813.93538 9.78903e-19
9816.05898 9.72198e-19
9818.18258 9.62687e-19
9820.29617 9.53178e-19
9822.41978 9.42645e-19
9824.53336 9.32109e-19
9826.65697 9.22267e-19
9828.77055 9.12422e-19
9830.89416 9.05420e-19
9833.01776 8.98418e-19
9835.13135 8.94820e-19
9837.25495 8.91222e-19
9839.36854 8.90601e-19
9841.49214 8.89979e-19
9843.61575 8.92058e-19
9845.72933 8.94136e-19
9847.85294 8.98514e-19
9849.96652 9.02895e-19
9852.09013 9.09591e-19
9854.20372 9.16284e-19
9856.32732 9.24990e-19
9858.44091 9.33695e-19
9860.56451 9.43977e-19
9862.68812 9.54257e-19
9864.80170 9.65562e-19
9866.92531 9.76866e-19
9869.03889 9.88508e-19
9871.16250 1.00015e-18
9873.27608 1.01198e-18
9875.39969 1.02382e-18
9877.52329 1.03416e-18
9879.63688 1.04451e-18
9881.76048 1.05114e-18
9883.87407 1.05777e-18
9885.99767 1.05853e-18
9888.11126 1.05929e-18
9890.23487 1.05302e-18
9892.35847 1.04676e-18
9894.47206 1.03641e-18
9896.59566 1.02606e-18
9898.70925 1.01369e-18
9900.83285 1.00133e-18
9902.94644 9.89422e-19
9905.07004 9.77517e-19
9907.19365 9.67044e-19
9909.30723 9.56571e-19
9911.43084 9.48461e-19
9913.54442 9.40352e-19
9915.66803 9.36055e-19
9917.79163 9.31757e-19
9919.90522 9.30477e-19
9922.02882 9.29197e-19
9924.14241 9.29142e-19
9926.26601 9.29089e-19
9928.37960 9.28534e-19
9930.50321 9.27982e-19
9932.61679 9.25531e-19
9934.74040 9.23081e-19
9936.86400 9.18973e-19
9938.97759 9.14864e-19
9941.10119 9.08967e-19
9943.21478 9.03069e-19
9945.33838 8.95269e-19
9947.45197 8.87470e-19
9949.57557 8.78923e-19
9951.69918 8.70377e-19
9953.81276 8.62169e-19
9955.93637 8.53965e-19
9958.04996 8.47407e-19
9960.17356 8.40854e-19
9962.28715 8.36390e-19
9964.41075 8.31930e-19
9966.53435 8.29586e-19
9968.64794 8.27241e-19
9970.77155 8.27234e-19
9972.88513 8.27227e-19
9975.00874 8.29333e-19
9977.13234 8.31442e-19
9979.24593 8.34342e-19
9981.36953 8.37242e-19
9983.48312 8.39836e-19
