# wavelength flux
3703.84745 7.04625e-18
3705.31966 7.10048e-18
3706.79186 6.83802e-18
3708.26407 4.75596e-18
3709.73627 6.54744e-18
3711.19846 5.77611e-18
3712.67067 4.38816e-18
3714.14287 4.46296e-18
3715.61508 4.53774e-18
3717.07727 4.45942e-18
3718.54947 4.38111e-18
3720.02167 4.30281e-18
3721.49388 4.22453e-18
3722.96609 4.14623e-18
3724.42828 4.06796e-18
3725.90048 3.98969e-18
3727.37269 3.91145e-18
3728.84489 3.83320e-18
3730.30708 3.75496e-18
3731.77929 3.67673e-18
3733.25149 3.59852e-18
3734.72370 3.52030e-18
3736.19590 3.44209e-18
3737.65809 3.36389e-18
3739.13030 3.28572e-18
3740.60250 3.20754e-18
3742.07470 3.12937e-18
3743.53690 3.05121e-18
3745.00910 2.97307e-18
3746.48131 2.89492e-18
3747.95351 2.81677e-18
3749.41570 2.73864e-18
3750.88791 2.66053e-18
3752.36011 2.58242e-18
3753.83232 2.50432e-18
3755.30452 -1.14062e-19
3756.76671 4.62700e-19
3758.23892 3.54248e-18
3759.71112 5.64381e-18
3761.18333 6.18041e-18
3762.64552 4.30986e-18
3764.11772 5.69610e-18
3765.58993 9.02003e-18
3767.06213 5.15505e-18
3768.53434 5.43796e-18
3769.99653 7.57416e-19
3771.46873 6.13159e-18
3772.94094 5.93738e-18
3774.41314 5.57762e-18
3775.87533 7.28018e-18
3777.34754 3.75659e-18
3778.81974 1.15959e-18
3780.29195 3.40652e-18
3781.75414 4.98592e-18
3783.22634 5.06405e-18
3784.69855 5.04838e-18
3786.17075 6.43778e-18
3787.64295 4.20496e-18
3789.10514 8.24039e-18
3790.57735 9.69155e-18
3792.04956 7.05767e-18
3793.52176 5.89134e-18
3794.98395 4.82575e-18
3796.45616 8.94541e-18
3797.92836 3.51472e-18
3799.40057 3.44930e-18
3800.87277 3.28118e-18
3802.33496 4.50110e-18
3803.80717 6.02372e-18
3805.27937 7.91135e-18
3806.75158 8.90217e-18
3808.21377 4.94980e-18
3809.68597 2.94178e-18
3811.15818 6.68141e-18
3812.63038 6.87800e-18
3814.10259 6.25365e-18
3815.56478 5.02102e-18
3817.03698 3.85544e-18
3818.50919 4.43874e-18
3819.98139 8.02305e-18
3821.44358 8.41599e-18
3822.91579 3.91137e-18
3824.38799 4.79357e-18
3825.86020 6.28853e-18
3827.32239 4.52894e-18
3828.79459 4.48975e-18
3830.26680 6.96124e-18
3831.73900 7.26289e-18
3833.21121 7.16282e-18
3834.67340 7.94986e-18
3836.14560 7.99074e-18
3837.61781 6.60540e-18
3839.09001 4.31468e-18
3840.55220 1.47090e-18
3842.02441 5.58806e-18
3843.49661 7.10271e-18
3844.96882 5.71430e-18
3846.44102 4.95819e-18
3847.90321 7.37991e-18
3849.37542 7.84354e-18
3850.84762 9.18360e-18
3852.31983 8.42432e-18
3853.78202 8.59539e-18
3855.25422 7.41904e-18
3856.72642 5.15036e-18
3858.19863 7.76388e-18
3859.67083 9.07210e-18
3861.13303 7.47128e-18
3862.60523 1.03193e-17
3864.07744 6.76941e-18
3865.54964 4.37485e-18
3867.01183 7.38911e-18
3868.48404 8.04168e-18
3869.95624 1.09602e-17
3871.42845 7.87445e-18
3872.89064 9.92816e-18
3874.36284 9.78510e-18
3875.83505 7.16847e-18
3877.30725 8.74325e-18
3878.77945 1.12991e-17
3880.24165 9.95254e-18
3881.71385 6.67632e-18
3883.18606 6.77979e-18
3884.65826 7.81582e-18
3886.12045 9.77602e-18
3887.59266 9.33888e-18
3889.06486 1.00183e-17
3890.53707 8.74925e-18
3892.00927 7.47220e-18
3893.47146 7.94199e-18
3894.94367 7.02437e-18
3896.41587 7.84991e-18
3897.88808 6.81702e-18
3899.35027 8.23715e-18
3900.82247 8.39581e-18
3902.29468 8.62957e-18
3903.76688 1.23041e-17
3905.23909 1.09536e-17
3906.70128 9.87005e-18
3908.17348 1.00798e-17
3909.64569 1.10812e-17
3911.11789 1.29259e-17
3912.58008 1.18620e-17
3914.05229 1.04169e-17
3915.52449 1.10049e-17
3916.99670 9.87366e-18
3918.45889 9.66701e-18
3919.93109 9.47997e-18
3921.40330 8.85469e-18
3922.87550 8.32090e-18
3924.34771 7.61563e-18
3925.80989 5.99913e-18
3927.28210 8.21073e-18
3928.75430 1.01920e-17
3930.22651 1.07631e-17
3931.68870 1.15385e-17
3933.16091 1.14864e-17
3934.63311 9.11973e-18
3936.10532 1.06880e-17
3937.57752 1.15281e-17
3939.03971 8.09760e-18
3940.51192 8.86912e-18
3941.98412 9.14420e-18
3943.45633 1.15286e-17
3944.91852 1.03346e-17
3946.39072 9.59916e-18
3947.86292 1.05898e-17
3949.33513 9.65316e-18
3950.80733 9.64689e-18
3952.26953 1.00018e-17
3953.74173 1.09819e-17
3955.21394 1.34388e-17
3956.68614 1.17788e-17
3958.14833 1.19846e-17
3959.62054 1.29918e-17
3961.09274 1.34098e-17
3962.56495 1.28359e-17
3964.02714 1.07319e-17
3965.49934 1.10638e-17
3966.97155 1.09571e-17
3968.44375 9.88766e-18
3969.91595 9.72097e-18
3971.37815 7.22294e-18
3972.85035 3.02711e-18
3974.32256 3.57616e-18
3975.79476 7.80288e-18
3977.25695 8.21282e-18
3978.72915 9.75903e-18
3980.20136 1.10976e-17
3981.67357 9.06558e-18
3983.14577 9.10583e-18
3984.60796 1.17740e-17
3986.08017 1.29065e-17
3987.55237 1.06367e-17
3989.02458 9.44661e-18
3990.48677 1.00405e-17
3991.95897 1.16697e-17
3993.43118 1.23450e-17
3994.90338 1.42151e-17
3996.37559 1.48046e-17
3997.83777 1.36969e-17
3999.30998 1.23591e-17
4000.78219 1.32303e-17
4002.25439 1.31690e-17
4003.71658 1.12458e-17
4005.18879 1.29916e-17
4006.66099 1.22652e-17
4008.13320 1.16857e-17
4009.59539 1.27420e-17
4011.06759 1.13069e-17
4012.53980 8.38837e-18
4014.01200 1.08956e-17
4015.48421 1.35480e-17
4016.94639 1.31504e-17
4018.41860 1.44906e-17
4019.89081 1.38292e-17
4021.36301 9.21335e-18
4022.82520 8.11703e-18
4024.29741 1.34146e-17
4025.76961 1.28987e-17
4027.24182 1.03056e-17
4028.71402 1.37328e-17
4030.17621 1.35508e-17
4031.64842 1.16753e-17
4033.12062 1.17641e-17
4034.59283 1.03537e-17
4036.05502 1.09370e-17
4037.52722 1.16671e-17
4038.99942 1.23415e-17
4040.47163 1.33164e-17
4041.94384 1.16488e-17
4043.40603 8.76569e-18
4044.87823 1.13064e-17
4046.35044 1.18147e-17
4047.82264 1.06792e-17
4049.28483 1.30134e-17
4050.75704 1.39704e-17
4052.22924 1.37581e-17
4053.70145 1.48223e-17
4055.16364 1.30012e-17
4056.63584 1.36874e-17
4058.10805 1.38835e-17
4059.58025 1.13731e-17
4061.05246 9.70400e-18
4062.51465 8.02206e-18
4063.98685 9.62783e-18
4065.45906 9.92745e-18
4066.93126 1.05613e-17
4068.39345 1.25652e-17
4069.86566 1.32099e-17
4071.33786 1.31625e-17
4072.81007 1.17574e-17
4074.28227 1.03542e-17
4075.74446 1.06660e-17
4077.21667 1.19103e-17
4078.68887 1.19011e-17
4080.16108 9.81048e-18
4081.62327 8.83864e-18
4083.09547 1.06251e-17
4084.56768 1.14590e-17
4086.03988 1.04312e-17
4087.50207 1.02729e-17
4088.97428 1.15516e-17
4090.44648 1.23859e-17
4091.91869 1.15578e-17
4093.39089 1.09233e-17
4094.85308 1.05993e-17
4096.32528 1.11427e-17
4097.79749 1.12916e-17
4099.26969 1.01619e-17
4100.73189 9.30138e-18
4102.20409 9.17305e-18
4103.67630 1.01810e-17
4105.14850 1.05270e-17
4106.62071 8.69910e-18
4108.08290 9.59054e-18
4109.55510 1.17322e-17
4111.02731 1.03464e-17
4112.49951 7.61229e-18
4113.96170 6.18416e-18
4115.43391 6.95968e-18
4116.90611 9.81578e-18
4118.37831 1.27834e-17
4119.84051 1.06523e-17
4121.31271 9.12485e-18
4122.78492 1.02134e-17
4124.25712 1.00507e-17
4125.72933 7.87588e-18
4127.19152 6.90392e-18
4128.66372 1.00803e-17
4130.13593 1.18049e-17
4131.60813 1.00975e-17
4133.08034 8.33758e-18
4134.54253 8.40807e-18
4136.01473 9.99889e-18
4137.48693 9.38342e-18
4138.95914 8.21320e-18
4140.42133 1.02594e-17
4141.89354 1.20884e-17
4143.36574 1.03743e-17
4144.83795 8.23818e-18
4146.30014 9.85030e-18
4147.77234 1.05276e-17
4149.24454 8.59358e-18
4150.71675 7.48807e-18
4152.18896 8.74906e-18
4153.65115 1.08877e-17
4155.12335 1.09756e-17
4156.59555 1.11482e-17
4158.06776 1.07431e-17
4159.52995 9.74684e-18
4161.00216 9.12682e-18
4162.47436 9.85101e-18
4163.94657 1.05003e-17
4165.41877 1.02067e-17
4166.88096 1.02999e-17
4168.35316 9.50881e-18
4169.82537 1.01937e-17
4171.29758 1.09064e-17
4172.75977 1.05348e-17
4174.23197 9.44872e-18
4175.70417 8.27479e-18
4177.17638 8.79694e-18
4178.63857 9.01933e-18
4180.11078 1.00839e-17
4181.58298 1.07912e-17
4183.05519 1.17690e-17
4184.52739 1.14472e-17
4185.98958 1.05319e-17
4187.46178 1.00435e-17
4188.93399 7.93569e-18
4190.40620 6.64091e-18
4191.86839 8.22950e-18
4193.34059 9.21700e-18
4194.81279 7.65339e-18
4196.28500 6.75577e-18
4197.75721 8.19518e-18
4199.21940 9.58404e-18
4200.69160 9.75740e-18
4202.16381 9.33219e-18
4203.63601 9.12962e-18
4205.09820 9.84671e-18
4206.57041 1.12586e-17
4208.04261 1.03432e-17
4209.51482 8.94162e-18
4210.97701 9.29735e-18
4212.44921 1.00581e-17
4213.92141 8.77248e-18
4215.39362 8.55405e-18
4216.86583 1.02366e-17
4218.32802 1.13367e-17
4219.80022 1.10448e-17
4221.27243 1.09629e-17
4222.74463 1.12583e-17
4224.20682 8.98300e-18
4225.67903 9.26830e-18
4227.15123 1.19293e-17
4228.62344 1.29216e-17
4230.09564 1.17419e-17
4231.55783 1.10407e-17
4233.03003 1.02497e-17
4234.50224 9.61664e-18
4235.97445 1.03995e-17
4237.43664 1.12521e-17
4238.90884 1.06561e-17
4240.38105 8.31086e-18
4241.85325 7.53140e-18
4243.32546 9.47245e-18
4244.78765 1.16937e-17
4246.25985 1.08431e-17
4247.73206 9.00980e-18
4249.20426 1.07140e-17
4250.66645 1.25512e-17
4252.13866 1.20232e-17
4253.61086 1.21275e-17
4255.08307 1.21785e-17
4256.55527 1.10349e-17
4258.01746 9.17043e-18
4259.48967 1.00421e-17
4260.96187 1.04943e-17
4262.43408 1.06949e-17
4263.89627 1.09689e-17
4265.36847 9.84298e-18
4266.84068 1.06306e-17
4268.31288 1.14164e-17
4269.77507 1.17066e-17
4271.24728 1.05892e-17
4272.71948 9.92159e-18
4274.19168 1.11059e-17
4275.66389 1.16586e-17
4277.12608 9.79323e-18
4278.59829 8.70532e-18
4280.07049 9.99700e-18
4281.54270 9.83620e-18
4283.00489 1.01239e-17
4284.47709 9.74309e-18
4285.94930 9.00496e-18
4287.42150 1.04432e-17
4288.89371 1.13354e-17
4290.35590 1.13926e-17
4291.82810 1.21176e-17
4293.30030 1.13091e-17
4294.77251 1.17803e-17
4296.23470 1.31245e-17
4297.70691 1.12159e-17
4299.17911 1.10742e-17
4300.65132 1.22957e-17
4302.11351 8.72238e-18
4303.58571 8.67717e-18
4305.05792 1.07753e-17
4306.53012 1.09950e-17
4308.00233 9.18481e-18
4309.46452 8.11048e-18
4310.93672 9.32785e-18
4312.40892 8.92591e-18
4313.88113 8.14320e-18
4315.34332 9.55859e-18
4316.81553 1.01561e-17
4318.28773 8.75862e-18
4319.75994 8.62054e-18
4321.23214 8.79797e-18
4322.69433 9.76042e-18
4324.16654 1.03160e-17
4325.63874 9.67230e-18
4327.11095 9.21071e-18
4328.57314 9.43732e-18
4330.04534 1.10544e-17
4331.51754 1.13829e-17
4332.98975 1.10122e-17
4334.45194 9.91017e-18
4335.92415 7.83114e-18
4337.39635 8.60137e-18
4338.86856 7.53079e-18
4340.34076 6.69520e-18
4341.80295 6.71091e-18
4343.27516 8.33201e-18
4344.74736 9.42435e-18
4346.21957 8.13759e-18
4347.68176 8.08449e-18
4349.15396 9.51332e-18
4350.62616 9.77270e-18
4352.09837 9.68107e-18
4353.57058 9.58945e-18
4355.03277 9.49783e-18
4356.50497 9.40622e-18
4357.97717 9.31465e-18
4359.44938 9.22303e-18
4360.91157 9.13147e-18
4362.38378 9.03990e-18
4363.85598 8.94832e-18
4365.32819 8.85676e-18
4366.80039 8.76517e-18
4368.26258 8.67365e-18
4369.73478 8.58211e-18
4371.20699 8.49057e-18
4372.67920 8.39904e-18
4374.14139 8.30755e-18
4375.61359 8.21600e-18
4377.08579 8.12452e-18
4378.55800 8.03299e-18
4380.03021 7.94150e-18
4381.49240 7.85005e-18
4382.96460 7.75854e-18
4384.43681 7.66710e-18
4385.90901 7.57563e-18
4387.37120 7.48417e-18
4388.84341 7.39272e-18
4390.31561 7.55668e-18
4391.78782 9.59335e-18
4393.25000 1.03626e-17
4394.72221 9.65855e-18
4396.19441 9.73532e-18
4397.66662 1.18067e-17
4399.13882 1.09594e-17
4400.60102 9.60437e-18
4402.07322 9.69215e-18
4403.54543 9.77992e-18
4405.01763 9.86768e-18
4406.47982 9.95543e-18
4407.95203 1.00432e-17
4409.42423 1.01309e-17
4410.89644 1.02187e-17
4412.36864 1.03064e-17
4413.83083 1.03941e-17
4415.30303 1.03937e-17
4416.77524 7.85455e-18
4418.24744 8.90136e-18
4419.70964 9.52549e-18
4421.18184 1.08242e-17
4422.65405 1.13397e-17
4424.12625 8.46526e-18
4425.58844 9.91238e-18
4427.06065 1.05233e-17
4428.53285 1.07324e-17
4430.00506 9.75669e-18
4431.47726 9.12993e-18
4432.93945 9.25592e-18
4434.41166 9.66379e-18
4435.88386 1.10684e-17
4437.35606 1.13198e-17
4438.81826 8.59556e-18
4440.29046 9.14519e-18
4441.76267 1.11537e-17
4443.23487 1.08110e-17
4444.70708 1.06032e-17
4446.16927 1.23559e-17
4447.64147 1.10529e-17
4449.11368 1.07070e-17
4450.58588 1.08959e-17
4452.04807 9.66611e-18
4453.52028 9.28610e-18
4454.99248 1.06540e-17
4456.46468 1.01525e-17
4457.93689 9.79724e-18
4459.39908 9.90243e-18
4460.87129 9.03888e-18
4462.34349 1.10191e-17
4463.81570 1.08658e-17
4465.27789 1.02137e-17
4466.75009 1.15619e-17
4468.22229 1.07781e-17
4469.69450 1.01556e-17
4471.15669 1.18771e-17
4472.62890 1.11166e-17
4474.10110 1.07226e-17
4475.57330 1.11789e-17
4477.04551 1.25160e-17
4478.50770 1.21476e-17
4479.97991 1.31864e-17
4481.45211 1.26984e-17
4482.92432 1.20851e-17
4484.38651 1.22031e-17
4485.85871 1.06431e-17
4487.33091 1.05428e-17
4488.80312 1.19205e-17
4490.27533 1.44679e-17
4491.73752 1.41502e-17
4493.20972 1.25692e-17
4494.68192 1.37888e-17
4496.15413 1.23650e-17
4497.61632 1.16390e-17
4499.08853 1.32874e-17
4500.56073 1.31988e-17
4502.03294 1.16974e-17
4503.50514 1.25863e-17
4504.96733 1.39263e-17
4506.43953 1.36247e-17
4507.91174 1.24248e-17
4509.38395 1.19229e-17
4510.84614 1.34001e-17
4512.31834 1.37397e-17
4513.79054 1.45257e-17
4515.26275 1.38825e-17
4516.72494 1.32974e-17
4518.19715 1.20252e-17
4519.66935 1.27252e-17
4521.14156 1.44114e-17
4522.61376 1.41287e-17
4524.07595 1.46429e-17
4525.54816 1.52064e-17
4527.02036 1.40274e-17
4528.49257 1.39770e-17
4529.95476 1.48702e-17
4531.42696 1.53784e-17
4532.89916 1.49407e-17
4534.37137 1.46706e-17
4535.84358 1.44769e-17
4537.30577 1.40468e-17
4538.77797 1.57972e-17
4540.25018 1.46291e-17
4541.72238 1.34928e-17
4543.18457 1.51631e-17
4544.65678 1.59706e-17
4546.12898 1.59727e-17
4547.60119 1.52843e-17
4549.07339 1.60920e-17
4550.53558 1.58079e-17
4552.00778 1.40915e-17
4553.47999 1.48423e-17
4554.95220 1.52209e-17
4556.41439 1.64318e-17
4557.88659 1.45389e-17
4559.35880 1.42529e-17
4560.83100 1.70846e-17
4562.29319 1.69096e-17
4563.76540 1.48475e-17
4565.23760 1.63568e-17
4566.70981 1.68779e-17
4568.18201 1.69110e-17
4569.64420 1.62203e-17
4571.11641 1.68494e-17
4572.58861 1.68198e-17
4574.06082 1.57826e-17
4575.52301 1.61242e-17
4576.99521 1.76519e-17
4578.46742 1.77780e-17
4579.93962 1.60532e-17
4581.41183 1.64411e-17
4582.87402 1.77100e-17
4584.34622 1.66301e-17
4585.81843 1.50145e-17
4587.29063 1.51405e-17
4588.75282 1.68639e-17
4590.22503 1.49688e-17
4591.69723 1.51960e-17
4593.16943 1.61556e-17
4594.63162 1.43961e-17
4596.10383 1.51916e-17
4597.57604 1.50212e-17
4599.04824 1.59278e-17
4600.52045 1.60942e-17
4601.98264 1.74020e-17
4603.45484 1.77656e-17
4604.92705 1.53574e-17
4606.39925 1.64941e-17
4607.86144 1.71307e-17
4609.33365 1.68670e-17
4610.80585 1.53664e-17
4612.27805 1.68111e-17
4613.75026 1.68019e-17
4615.21245 1.60056e-17
4616.68466 1.54505e-17
4618.15686 1.62379e-17
4619.62907 1.66200e-17
4621.09126 1.71718e-17
4622.56346 1.68090e-17
4624.03567 1.68867e-17
4625.50787 1.69502e-17
4626.98008 1.70554e-17
4628.44227 1.50041e-17
4629.91447 1.52837e-17
4631.38667 1.71003e-17
4632.85888 1.74735e-17
4634.32107 1.64109e-17
4635.79328 1.68184e-17
4637.26548 1.71962e-17
4638.73769 1.52862e-17
4640.20989 1.49148e-17
4641.67208 1.73717e-17
4643.14429 1.61843e-17
4644.61649 1.56630e-17
4646.08870 1.42460e-17
4647.55089 1.56517e-17
4649.02309 1.64495e-17
4650.49529 1.49529e-17
4651.96750 1.61952e-17
4653.42969 1.63060e-17
4654.90190 1.76505e-17
4656.37410 1.49555e-17
4657.84631 1.59649e-17
4659.31851 1.66284e-17
4660.78070 1.53984e-17
4662.25291 1.42654e-17
4663.72511 1.62377e-17
4665.19732 1.48572e-17
4666.65951 1.49430e-17
4668.13171 1.39572e-17
4669.60391 1.36795e-17
4671.07612 1.32555e-17
4672.54833 1.49629e-17
4674.01052 1.35632e-17
4675.48272 1.40633e-17
4676.95493 1.56952e-17
4678.42713 1.39453e-17
4679.88932 1.35580e-17
4681.36153 1.58595e-17
4682.83373 1.33756e-17
4684.30594 1.31373e-17
4685.76813 1.37448e-17
4687.24033 1.37663e-17
4688.71253 1.43603e-17
4690.18474 1.38038e-17
4691.65695 1.47358e-17
4693.11914 1.41339e-17
4694.59134 1.37214e-17
4696.06354 1.32958e-17
4697.53575 1.34283e-17
4698.99794 1.32636e-17
4700.47015 1.42895e-17
4701.94235 1.27211e-17
4703.41456 1.26017e-17
4704.88676 1.31819e-17
4706.34895 1.43813e-17
4707.82116 1.31061e-17
4709.29336 1.28588e-17
4710.76557 1.37386e-17
4712.22775 1.34205e-17
4713.69996 1.32532e-17
4715.17216 1.30376e-17
4716.64437 1.31650e-17
4718.10656 1.30097e-17
4719.57877 1.21624e-17
4721.05097 1.27892e-17
4722.52318 1.48998e-17
4723.99538 1.43525e-17
4725.45757 1.21386e-17
4726.92978 1.30230e-17
4728.40198 1.47617e-17
4729.87419 1.34671e-17
4731.33637 1.31101e-17
4732.80858 1.31156e-17
4734.28078 1.29177e-17
4735.75299 1.23555e-17
4737.22519 1.14117e-17
4738.68739 1.27168e-17
4740.15959 1.34553e-17
4741.63180 1.30275e-17
4743.10400 1.26996e-17
4744.56619 1.14082e-17
4746.03840 1.18529e-17
4747.51060 1.26390e-17
4748.98281 1.15226e-17
4750.45501 1.14628e-17
4751.91720 1.26162e-17
4753.38941 1.20889e-17
4754.86161 1.14644e-17
4756.33381 1.25120e-17
4757.79601 1.09655e-17
4759.26821 1.07098e-17
4760.74042 1.17435e-17
4762.21262 1.19258e-17
4763.68483 1.27899e-17
4765.14702 1.27661e-17
4766.61922 1.24371e-17
4768.09143 1.20804e-17
4769.56363 1.03926e-17
4771.02582 9.14550e-18
4772.49803 9.41151e-18
4773.97023 1.10622e-17
4775.44243 1.07964e-17
4776.90463 1.11061e-17
4778.37683 1.22794e-17
4779.84904 1.20132e-17
4781.32124 1.19237e-17
4782.79345 1.13088e-17
4784.25564 1.18496e-17
4785.72784 1.17480e-17
4787.20004 1.14415e-17
4788.67225 1.12575e-17
4790.13444 1.10117e-17
4791.60665 1.08733e-17
4793.07885 1.00536e-17
4794.55105 1.04376e-17
4796.02326 1.07679e-17
4797.48545 1.08558e-17
4798.95766 1.15559e-17
4800.42986 1.16816e-17
4801.90207 1.13394e-17
4803.36426 1.15725e-17
4804.83646 1.13219e-17
4806.30866 1.06719e-17
4807.78087 1.09504e-17
4809.24306 1.08819e-17
4810.71527 1.01105e-17
4812.18747 8.81230e-18
4813.65967 8.96928e-18
4815.13188 1.04844e-17
4816.59407 1.08767e-17
4818.06628 9.89574e-18
4819.53848 1.07227e-17
4821.01069 1.21509e-17
4822.47288 1.05353e-17
4823.94508 1.00091e-17
4825.41728 9.86870e-18
4826.88949 9.74297e-18
4828.36170 1.02177e-17
4829.82389 1.05214e-17
4831.29609 1.09323e-17
4832.76829 1.13079e-17
4834.24050 1.15402e-17
4835.70269 1.09684e-17
4837.17490 1.21512e-17
4838.64710 1.23345e-17
4840.11931 1.11864e-17
4841.58150 1.06515e-17
4843.05370 1.17261e-17
4844.52591 1.18176e-17
4845.99811 1.11215e-17
4847.47032 1.11298e-17
4848.93251 1.05807e-17
4850.40471 9.42720e-18
4851.87691 9.46028e-18
4853.34912 9.49336e-18
4854.81131 9.52645e-18
4856.28352 9.55953e-18
4857.75572 9.59262e-18
4859.22793 9.62568e-18
4860.70013 9.65875e-18
4862.16232 9.69182e-18
4863.63453 9.72489e-18
4865.10673 9.75794e-18
4866.57894 9.79101e-18
4868.04113 9.82406e-18
4869.51333 9.85710e-18
4870.98553 9.89017e-18
4872.45774 9.92320e-18
4873.92995 9.95626e-18
4875.39214 9.98929e-18
4876.86434 1.00223e-17
4878.33655 1.00554e-17
4879.80875 1.00884e-17
4881.27094 1.01214e-17
4882.74315 1.01544e-17
4884.21535 1.01875e-17
4885.68756 1.02205e-17
4887.15976 1.02535e-17
4888.62195 1.17589e-17
4890.09416 1.10765e-17
4891.56636 1.12788e-17
4893.03857 1.17609e-17
4894.50076 1.15789e-17
4895.97296 1.13768e-17
4897.44517 1.18844e-17
4898.91737 1.15219e-17
4900.37956 1.11766e-17
4901.85177 1.20878e-17
4903.32397 1.25424e-17
4904.79618 1.23133e-17
4906.26838 1.22183e-17
4907.73057 1.18931e-17
4909.20278 1.21890e-17
4910.67498 1.27909e-17
4912.14718 1.33038e-17
4913.60938 1.35661e-17
4915.08158 1.20568e-17
4916.55379 1.15379e-17
4918.02599 1.17365e-17
4919.49820 1.20203e-17
4920.96039 1.29268e-17
4922.43259 1.29990e-17
4923.90480 1.26153e-17
4925.37700 1.26876e-17
4926.83919 1.33385e-17
4928.31140 1.29590e-17
4929.78360 1.26588e-17
4931.25580 1.32375e-17
4932.71799 1.37217e-17
4934.19020 1.36559e-17
4935.66241 1.39751e-17
4937.13461 1.42264e-17
4938.60682 1.38909e-17
4940.06901 1.30205e-17
4941.54121 1.32333e-17
4943.01342 1.40880e-17
4944.48562 1.28057e-17
4945.94781 1.19131e-17
4947.42002 1.26042e-17
4948.89222 1.25810e-17
4950.36442 1.25578e-17
4951.83663 1.25345e-17
4953.29882 1.25113e-17
4954.77103 1.24881e-17
4956.24323 1.24649e-17
4957.71544 1.24416e-17
4959.17763 1.24184e-17
4960.64983 1.23952e-17
4962.12204 1.23720e-17
4963.59424 1.23488e-17
4965.06645 1.23256e-17
4966.52864 1.23024e-17
4968.00084 1.22792e-17
4969.47304 1.22560e-17
4970.94525 1.22328e-17
4972.40744 1.22096e-17
4973.87965 1.21864e-17
4975.35185 1.21632e-17
4976.82406 1.21400e-17
4978.29626 1.21168e-17
4979.75845 1.20936e-17
4981.23066 1.20704e-17
4982.70286 1.20473e-17
4984.17507 1.20241e-17
4985.63726 1.20009e-17
4987.10946 1.23439e-17
4988.58166 1.24818e-17
4990.05387 1.11762e-17
4991.51606 1.06202e-17
4992.98827 1.16776e-17
4994.46047 1.24885e-17
4995.93268 1.13311e-17
4997.40488 1.12792e-17
4998.86707 1.12274e-17
5000.33928 1.11755e-17
5001.81148 1.11236e-17
5003.28369 1.10718e-17
5004.74588 1.10199e-17
5006.21808 1.09681e-17
5007.69028 1.09162e-17
5009.16249 1.08644e-17
5010.63470 1.08126e-17
5012.09689 1.07608e-17
5013.56909 1.07089e-17
5015.04129 1.06571e-17
5016.51350 1.06053e-17
5017.97569 1.05535e-17
5019.44790 1.05017e-17
5020.92010 1.04499e-17
5022.39231 1.03981e-17
5023.85450 1.03463e-17
5025.32670 1.02945e-17
5026.79891 1.02427e-17
5028.27111 1.01909e-17
5029.74332 1.01392e-17
5031.20551 1.00874e-17
5032.67771 1.00356e-17
5034.14991 1.03661e-17
5035.62212 9.62842e-18
5037.08431 1.01630e-17
5038.55652 1.04078e-17
5040.02872 9.72202e-18
5041.50093 9.70602e-18
5042.97313 1.05450e-17
5044.43532 9.98209e-18
5045.90753 9.25456e-18
5047.37973 9.94818e-18
5048.85194 9.92758e-18
5050.31412 1.03965e-17
5051.78633 9.95321e-18
5053.25853 1.07608e-17
5054.73074 1.13655e-17
5056.20294 1.13992e-17
5057.66514 1.04145e-17
5059.13734 9.76474e-18
5060.60955 1.01866e-17
5062.08175 1.04408e-17
5063.54394 1.15583e-17
5065.01615 1.23963e-17
5066.48835 1.16849e-17
5067.96056 1.07149e-17
5069.42274 1.00112e-17
5070.89495 1.09956e-17
5072.36716 1.13497e-17
5073.83936 1.11033e-17
5075.31156 1.11836e-17
5076.77376 1.09369e-17
5078.24596 1.14271e-17
5079.71817 1.16663e-17
5081.19037 1.15773e-17
5082.65256 1.15651e-17
5084.12477 1.12324e-17
5085.59697 1.04301e-17
5087.06918 1.09759e-17
5088.54138 1.14647e-17
5090.00357 1.12027e-17
5091.47578 1.15401e-17
5092.94798 1.16753e-17
5094.42018 1.09542e-17
5095.88238 1.12609e-17
5097.35458 1.15632e-17
5098.82679 1.17346e-17
5100.29899 1.23495e-17
5101.77120 1.22044e-17
5103.23339 1.15613e-17
5104.70559 1.17026e-17
5106.17779 1.23077e-17
5107.65000 1.26545e-17
5109.11219 1.18535e-17
5110.58440 1.16900e-17
5112.05660 1.24448e-17
5113.52880 1.25652e-17
5114.99100 1.19195e-17
5116.46320 1.18328e-17
5117.93541 1.20719e-17
5119.40761 1.21580e-17
5120.87982 1.20227e-17
5122.34201 1.20069e-17
5123.81421 1.25134e-17
5125.28641 1.30542e-17
5126.75862 1.31128e-17
5128.22081 1.29710e-17
5129.69302 1.20752e-17
5131.16522 1.11004e-17
5132.63742 1.15192e-17
5134.10963 1.25173e-17
5135.57182 1.25125e-17
5137.04403 1.16815e-17
5138.51623 1.19913e-17
5139.98844 1.30384e-17
5141.45063 1.35086e-17
5142.92283 1.33617e-17
5144.39503 1.21996e-17
5145.86724 1.16461e-17
5147.33945 1.18442e-17
5148.80164 1.21048e-17
5150.27384 1.27579e-17
5151.74604 1.23153e-17
5153.21825 1.19203e-17
5154.68044 1.22858e-17
5156.15265 1.24162e-17
5157.62485 1.26235e-17
5159.09706 1.30735e-17
5160.55925 1.30630e-17
5162.03145 1.29571e-17
5163.50366 1.31382e-17
5164.97586 1.30772e-17
5166.44807 1.24499e-17
5167.91026 1.22758e-17
5169.38246 1.28831e-17
5170.85466 1.33100e-17
5172.32687 1.28873e-17
5173.78906 1.25239e-17
5175.26127 1.24968e-17
5176.73347 1.26073e-17
5178.20568 1.23820e-17
5179.67788 1.17745e-17
5181.14007 1.21146e-17
5182.61228 1.24048e-17
5184.08448 1.23886e-17
5185.55669 1.35683e-17
5187.01888 1.41024e-17
5188.49108 1.33055e-17
5189.96328 1.29335e-17
5191.43549 1.32497e-17
5192.89768 1.35933e-17
5194.36989 1.40914e-17
5195.84209 1.44155e-17
5197.31430 1.40154e-17
5198.78650 1.37371e-17
5200.24869 1.32086e-17
5201.72090 1.30066e-17
5203.19310 1.38452e-17
5204.66531 1.43043e-17
5206.12750 1.39377e-17
5207.59970 1.40440e-17
5209.07191 1.43198e-17
5210.54411 1.39855e-17
5212.01632 1.35840e-17
5213.47851 1.38915e-17
5214.95071 1.41909e-17
5216.42292 1.48646e-17
5217.89512 1.49591e-17
5219.35731 1.43809e-17
5220.82952 1.40053e-17
5222.30172 1.43492e-17
5223.77393 1.49210e-17
5225.24613 1.44604e-17
5226.70832 1.42718e-17
5228.18053 1.43044e-17
5229.65273 1.39272e-17
5231.12493 1.36068e-17
5232.58713 1.37527e-17
5234.05933 1.42088e-17
5235.53154 1.51921e-17
5237.00374 1.55911e-17
5238.47595 1.44478e-17
5239.93814 1.37965e-17
5241.41034 1.45189e-17
5242.88255 1.48557e-17
5244.35475 1.41737e-17
5245.81694 1.42159e-17
5247.28915 1.50246e-17
5248.76135 1.48899e-17
5250.23355 1.43596e-17
5251.69574 1.48816e-17
5253.16795 1.49412e-17
5254.64016 1.44368e-17
5256.11236 1.47874e-17
5257.58457 1.50161e-17
5259.04676 1.44576e-17
5260.51896 1.38686e-17
5261.99117 1.44465e-17
5263.46337 1.55417e-17
5264.92556 1.59114e-17
5266.39777 1.52683e-17
5267.86997 1.47938e-17
5269.34217 1.50550e-17
5270.81438 1.50409e-17
5272.27657 1.51534e-17
5273.74878 1.55449e-17
5275.22098 1.50589e-17
5276.69319 1.45377e-17
5278.15538 1.49041e-17
5279.62758 1.53362e-17
5281.09979 1.47753e-17
5282.57199 1.46255e-17
5284.03418 1.54539e-17
5285.50639 1.55209e-17
5286.97859 1.53406e-17
5288.45079 1.62808e-17
5289.92300 1.65382e-17
5291.38519 1.64276e-17
5292.85740 1.63171e-17
5294.32960 1.62066e-17
5295.80181 1.60961e-17
5297.26400 1.59856e-17
5298.73620 1.58751e-17
5300.20841 1.57646e-17
5301.68061 1.56541e-17
5303.15282 1.56535e-17
5304.61501 1.51479e-17
5306.08721 1.49963e-17
5307.55941 1.49925e-17
5309.03162 1.51594e-17
5310.49381 1.50444e-17
5311.96602 1.49251e-17
5313.43822 1.54928e-17
5314.91043 1.58852e-17
5316.38263 1.60691e-17
5317.84482 1.58920e-17
5319.31703 1.51543e-17
5320.78923 1.53356e-17
5322.26144 1.61845e-17
5323.72363 1.62394e-17
5325.19583 1.54623e-17
5326.66803 1.54086e-17
5328.14024 1.57777e-17
5329.60243 1.57310e-17
5331.07464 1.56912e-17
5332.54684 1.56124e-17
5334.01905 1.63876e-17
5335.49125 1.71279e-17
5336.95344 1.64267e-17
5338.42565 1.61341e-17
5339.89785 1.66929e-17
5341.37006 1.67125e-17
5342.83225 1.61982e-17
5344.30445 1.54591e-17
5345.77666 1.54418e-17
5347.24886 1.57548e-17
5348.72107 1.54372e-17
5350.18326 1.49128e-17
5351.65546 1.54130e-17
5353.12766 1.63329e-17
5354.59987 1.60167e-17
5356.06206 1.57310e-17
5357.53427 1.58104e-17
5359.00647 1.56102e-17
5360.47868 1.56652e-17
5361.95088 1.55295e-17
5363.41307 1.53621e-17
5364.88528 1.55415e-17
5366.35748 1.53007e-17
5367.82969 1.54036e-17
5369.29187 1.52336e-17
5370.76408 1.50076e-17
5372.23628 1.51943e-17
5373.70849 1.48523e-17
5375.17068 1.47038e-17
5376.64289 1.45527e-17
5378.11509 1.48260e-17
5379.58730 1.50322e-17
5381.05950 1.46403e-17
5382.52169 1.51548e-17
5383.99390 1.51670e-17
5385.46610 1.45007e-17
5386.93831 1.40266e-17
5388.40049 1.47964e-17
5389.87270 1.53953e-17
5391.34491 1.51497e-17
5392.81711 1.53935e-17
5394.28931 1.56645e-17
5395.75151 1.50355e-17
5397.22371 1.44985e-17
5398.69592 1.50416e-17
5400.16812 1.54699e-17
5401.63031 1.50574e-17
5403.10252 1.42470e-17
5404.57472 1.45187e-17
5406.04693 1.42957e-17
5407.51913 1.35402e-17
5408.98132 1.36742e-17
5410.45353 1.37419e-17
5411.92573 1.41971e-17
5413.39793 1.45940e-17
5414.86013 1.32555e-17
5416.33233 1.32498e-17
5417.80454 1.36230e-17
5419.27674 1.41761e-17
5420.73893 1.51061e-17
5422.21114 1.43793e-17
5423.68334 1.39020e-17
5425.15554 1.43042e-17
5426.62775 1.46889e-17
5428.08994 1.49756e-17
5429.56215 1.44687e-17
5431.03435 1.46826e-17
5432.50655 1.56942e-17
5433.96875 1.52623e-17
5435.44095 1.37312e-17
5436.91316 1.39143e-17
5438.38536 1.49992e-17
5439.85757 1.49183e-17
5441.31976 1.49327e-17
5442.79196 1.50467e-17
5444.26416 1.43727e-17
5445.73637 1.47806e-17
5447.19856 1.54820e-17
5448.67077 1.54891e-17
5450.14297 1.54632e-17
5451.61517 1.61077e-17
5453.08738 1.57608e-17
5454.54957 1.52969e-17
5456.02178 1.50147e-17
5457.49398 1.49758e-17
5458.96619 1.58003e-17
5460.42838 1.54090e-17
5461.90058 1.52257e-17
5463.37278 1.46339e-17
5464.84499 1.50799e-17
5466.30718 1.62515e-17
5467.77939 1.66634e-17
5469.25159 1.62640e-17
5470.72379 1.59861e-17
5472.19600 1.56559e-17
5473.65819 1.55400e-17
5475.13040 1.53997e-17
5476.60260 1.52376e-17
5478.07481 1.58692e-17
5479.53700 1.52787e-17
5481.00920 1.51115e-17
5482.48141 1.59397e-17
5483.95361 1.54963e-17
5485.42582 1.53053e-17
5486.88801 1.57869e-17
5488.36021 1.57337e-17
5489.83241 1.55728e-17
5491.30462 1.49835e-17
5492.76681 1.50432e-17
5494.23902 1.50322e-17
5495.71122 1.51046e-17
5497.18343 1.47063e-17
5498.65563 1.48237e-17
5500.11782 1.51915e-17
5501.59003 1.50536e-17
5503.06223 1.51737e-17
5504.53444 1.44647e-17
5505.99663 1.46878e-17
5507.46883 1.51456e-17
5508.94103 1.44673e-17
5510.41324 1.29301e-17
5511.87543 1.36895e-17
5513.34764 1.42140e-17
5514.81984 1.31388e-17
5516.29205 1.29450e-17
5517.76425 1.39567e-17
5519.22644 1.35022e-17
5520.69865 1.31263e-17
5522.17085 1.36073e-17
5523.64306 1.30264e-17
5525.10525 1.26057e-17
5526.57745 1.27388e-17
5528.04966 1.29027e-17
5529.52186 1.28194e-17
5530.99407 1.32754e-17
5532.45626 1.28382e-17
5533.92846 1.21381e-17
5535.40067 1.19805e-17
5536.87287 1.27473e-17
5538.33506 1.27648e-17
5539.80727 1.26289e-17
5541.27947 1.20519e-17
5542.75168 1.08899e-17
5544.22388 1.09261e-17
5545.68607 1.11469e-17
5547.15828 1.15524e-17
5548.63048 1.13754e-17
5550.10268 1.15534e-17
5551.56488 1.12271e-17
5553.03708 1.05618e-17
5554.50929 1.06093e-17
5555.98149 1.11947e-17
5557.44368 1.11586e-17
5558.91589 9.91716e-18
5560.38809 9.66309e-18
5561.86030 1.01432e-17
5563.33250 1.11276e-17
5564.79469 9.70176e-18
5566.26690 1.03773e-17
5567.73910 1.04077e-17
5569.21130 1.00374e-17
5570.67350 9.28448e-18
5572.14570 9.89040e-18
5573.61791 9.21047e-18
5575.09011 9.29713e-18
5576.56232 1.05699e-17
5578.02451 1.05401e-17
5579.49671 9.53991e-18
5580.96892 8.70478e-18
5582.44112 9.42690e-18
5583.90331 9.38662e-18
5585.37552 9.36462e-18
5586.84772 9.27569e-18
5588.31992 9.15527e-18
5589.78211 9.30320e-18
5591.25432 9.77746e-18
5592.72653 8.90911e-18
5594.19873 8.58080e-18
5595.67094 8.26814e-18
5597.13313 7.98418e-18
5598.60533 8.02812e-18
5600.07754 7.86138e-18
5601.54974 8.21635e-18
5603.01193 8.40725e-18
5604.48414 8.04308e-18
5605.95634 7.55512e-18
5607.42854 7.29016e-18
5608.90075 8.17427e-18
5610.36294 8.70412e-18
5611.83515 7.77191e-18
5613.30735 7.74610e-18
5614.77956 7.96775e-18
5616.24175 7.84358e-18
5617.71395 7.38424e-18
5619.18616 8.21586e-18
5620.65836 7.02755e-18
5622.13057 7.20993e-18
5623.59276 7.40137e-18
5625.06496 6.62525e-18
5626.53716 6.60667e-18
5628.00937 6.75752e-18
5629.47156 6.78841e-18
5630.94377 7.01536e-18
5632.41597 7.21598e-18
5633.88818 7.27712e-18
5635.36038 6.68731e-18
5636.82257 6.59310e-18
5638.29478 6.25234e-18
5639.76698 6.99846e-18
5641.23919 7.59886e-18
5642.70138 6.55295e-18
5644.17358 6.47900e-18
5645.64578 6.98412e-18
5647.11799 6.68401e-18
5648.58018 7.07913e-18
5650.05239 6.95738e-18
5651.52459 5.51940e-18
5652.99680 5.90118e-18
5654.46900 6.66926e-18
5655.93119 6.05472e-18
5657.40340 6.40218e-18
5658.87560 6.61241e-18
5660.34781 6.57702e-18
5661.81000 6.51506e-18
5663.28220 6.40316e-18
5664.75441 7.14392e-18
5666.22661 7.03154e-18
5667.69882 6.02089e-18
5669.16101 6.33989e-18
5670.63321 6.48026e-18
5672.10541 6.23961e-18
5673.57762 6.50140e-18
5675.03981 6.52927e-18
5676.51202 6.51611e-18
5677.98422 6.34681e-18
5679.45643 6.45670e-18
5680.91862 6.96806e-18
5682.39082 6.84267e-18
5683.86303 6.74640e-18
5685.33523 6.94026e-18
5686.80744 7.30837e-18
5688.26962 6.96214e-18
5689.74183 6.59841e-18
5691.21403 7.23786e-18
5692.68624 7.30220e-18
5694.14843 7.13290e-18
5695.62064 6.84744e-18
5697.09284 6.73748e-18
5698.56505 6.70534e-18
5700.03725 6.59451e-18
5701.49944 6.67428e-18
5702.97165 6.73720e-18
5704.44385 6.72941e-18
5705.91606 6.14011e-18
5707.37824 6.98611e-18
5708.85045 7.64783e-18
5710.32266 7.20289e-18
5711.79486 6.88882e-18
5713.26707 6.93241e-18
5714.72926 7.18381e-18
5716.20146 7.52702e-18
5717.67367 8.23285e-18
5719.14587 7.66120e-18
5720.60806 7.45373e-18
5722.08027 7.19780e-18
5723.55247 7.22846e-18
5725.02468 7.11162e-18
5726.49688 7.73585e-18
5727.95907 8.01209e-18
5729.43128 7.34636e-18
5730.90348 6.69575e-18
5732.37568 6.95052e-18
5733.83788 7.74712e-18
5735.31008 7.98252e-18
5736.78229 7.80079e-18
5738.25449 8.39557e-18
5739.71668 7.81782e-18
5741.18889 7.58507e-18
5742.66109 8.40072e-18
5744.13329 8.35146e-18
5745.60550 7.97526e-18
5747.06769 8.12805e-18
5748.53990 8.77395e-18
5750.01210 8.45765e-18
5751.48430 9.58150e-18
5752.94650 9.28127e-18
5754.41870 8.87255e-18
5755.89091 9.35693e-18
5757.36311 8.70449e-18
5758.83532 8.81349e-18
5760.29751 1.01296e-17
5761.76971 1.02553e-17
5763.24191 9.97669e-18
5764.71412 9.82585e-18
5766.17631 9.33717e-18
5767.64852 9.54426e-18
5769.12072 9.76550e-18
5770.59292 9.98981e-18
5772.05512 1.01109e-17
5773.52732 9.24590e-18
5774.99953 9.82039e-18
5776.47173 9.49218e-18
5777.94394 1.00537e-17
5779.40613 1.08784e-17
5780.87833 1.01934e-17
5782.35053 1.04652e-17
5783.82274 1.05120e-17
5785.28493 1.03409e-17
5786.75714 1.08356e-17
5788.22934 1.15379e-17
5789.70154 1.13770e-17
5791.17375 1.04797e-17
5792.63594 1.09975e-17
5794.10815 1.11625e-17
5795.58035 1.19855e-17
5797.05256 1.17047e-17
5798.51475 1.14662e-17
5799.98695 1.21914e-17
5801.45916 1.19061e-17
5802.93136 1.21734e-17
5804.39355 1.25402e-17
5805.86576 1.27743e-17
5807.33796 1.29266e-17
5808.81016 1.25823e-17
5810.28237 1.27644e-17
5811.74456 1.21477e-17
5813.21677 1.27620e-17
5814.68897 1.24805e-17
5816.16118 1.24760e-17
5817.62337 1.24440e-17
5819.09557 1.33854e-17
5820.56778 1.32014e-17
5822.03998 1.28859e-17
5823.51219 1.27059e-17
5824.97438 1.38775e-17
5826.44658 1.38286e-17
5827.91878 1.34773e-17
5829.39099 1.26401e-17
5830.85318 1.43037e-17
5832.32539 1.45669e-17
5833.79759 1.39967e-17
5835.26980 1.34757e-17
5836.74200 1.33871e-17
5838.20419 1.37879e-17
5839.67640 1.38897e-17
5841.14860 1.40412e-17
5842.62081 1.41782e-17
5844.08300 1.45182e-17
5845.55520 1.44818e-17
5847.02741 1.43698e-17
5848.49961 1.49509e-17
5849.97182 1.49046e-17
5851.43401 1.44096e-17
5852.90621 1.43481e-17
5854.37842 1.41571e-17
5855.85062 1.38880e-17
5857.31281 1.44891e-17
5858.78502 1.48483e-17
5860.25722 1.52111e-17
5861.72943 1.49203e-17
5863.19162 1.41952e-17
5864.66382 1.48003e-17
5866.13603 1.46100e-17
5867.60823 1.53732e-17
5869.08043 1.56180e-17
5870.54263 1.55265e-17
5872.01483 1.48951e-17
5873.48704 1.50047e-17
5874.95924 1.48454e-17
5876.42143 1.54293e-17
5877.89364 1.50521e-17
5879.36584 1.44931e-17
5880.83805 1.51479e-17
5882.31025 1.55770e-17
5883.77244 1.47998e-17
5885.24465 1.41322e-17
5886.71685 1.41185e-17
5888.18905 1.47295e-17
5889.65125 1.46163e-17
5891.12345 1.48434e-17
5892.59566 1.45489e-17
5894.06786 1.24660e-17
5895.53005 1.00041e-17
5897.00226 9.87746e-18
5898.47446 9.49937e-18
5899.94667 9.80368e-18
5901.41887 1.00908e-17
5902.88106 9.76366e-18
5904.35327 1.02110e-17
5905.82547 1.22279e-17
5907.29767 1.27259e-17
5908.75986 1.36907e-17
5910.23207 1.48893e-17
5911.70428 1.47218e-17
5913.17648 1.42410e-17
5914.64869 1.48727e-17
5916.11088 1.52306e-17
5917.58308 1.51975e-17
5919.05529 1.53735e-17
5920.52749 1.55268e-17
5921.98968 1.56813e-17
5923.46189 1.53394e-17
5924.93409 1.50743e-17
5926.40629 1.44841e-17
5927.87850 1.49083e-17
5929.34069 1.49955e-17
5930.81290 1.39861e-17
5932.28510 1.43272e-17
5933.75731 1.54083e-17
5935.21950 1.50496e-17
5936.69170 1.48716e-17
5938.16391 1.51323e-17
5939.63611 1.51429e-17
5941.09830 1.52910e-17
5942.57051 1.49585e-17
5944.04271 1.42369e-17
5945.51491 1.45473e-17
5946.98712 1.46576e-17
5948.44931 1.42116e-17
5949.92152 1.48313e-17
5951.39372 1.53984e-17
5952.86593 1.48313e-17
5954.32812 1.43394e-17
5955.80032 1.52124e-17
5957.27253 1.54596e-17
5958.74473 1.45539e-17
5960.21694 1.43951e-17
5961.67913 1.52393e-17
5963.15133 1.53105e-17
5964.62353 1.45920e-17
5966.09574 1.44577e-17
5967.55793 1.54421e-17
5969.03014 1.54947e-17
5970.50234 1.50776e-17
5971.97455 1.50471e-17
5973.44675 1.45088e-17
5974.90894 1.41421e-17
5976.38115 1.41764e-17
5977.85335 1.40335e-17
5979.32556 1.43641e-17
5980.78775 1.54159e-17
5982.25995 1.49206e-17
5983.73216 1.45761e-17
5985.20436 1.49589e-17
5986.66655 1.48556e-17
5988.13876 1.50762e-17
5989.61096 1.42288e-17
5991.08317 1.35932e-17
5992.55537 1.39655e-17
5994.01756 1.34353e-17
5995.48977 1.36503e-17
5996.96197 1.43457e-17
5998.43418 1.46275e-17
5999.89637 1.49843e-17
6001.36857 1.39976e-17
6002.84078 1.32484e-17
6004.31298 1.37775e-17
6005.78519 1.36679e-17
6007.24737 1.39328e-17
6008.71958 1.44948e-17
6010.19178 1.41623e-17
6011.66399 1.36398e-17
6013.12618 1.41303e-17
6014.59839 1.35194e-17
6016.07059 1.35453e-17
6017.54280 1.34806e-17
6019.01500 1.36873e-17
6020.47719 1.39671e-17
6021.94940 1.39414e-17
6023.42160 1.39451e-17
6024.89381 1.37866e-17
6026.35599 1.35484e-17
6027.82820 1.33705e-17
6029.30041 1.30155e-17
6030.77261 1.35480e-17
6032.23480 1.37718e-17
6033.70701 1.33307e-17
6035.17921 1.40588e-17
6036.65142 1.39795e-17
6038.12362 1.39001e-17
6039.58581 1.38208e-17
6041.05802 1.37414e-17
6042.53022 1.36621e-17
6044.00243 1.35827e-17
6045.46461 1.35034e-17
6046.93682 1.34241e-17
6048.40903 1.33447e-17
6049.88123 1.32654e-17
6051.35343 1.32651e-17
6052.81563 1.29886e-17
6054.28783 1.33440e-17
6055.76004 1.31771e-17
6057.23224 1.27928e-17
6058.69443 1.30523e-17
6060.16664 1.31469e-17
6061.63884 1.29646e-17
6063.11104 1.29026e-17
6064.57323 1.27009e-17
6066.04544 1.25030e-17
6067.51765 1.23141e-17
6068.98985 1.22818e-17
6070.46205 1.26449e-17
6071.92425 1.26785e-17
6073.39645 1.23527e-17
6074.86866 1.20291e-17
6076.34086 1.20958e-17
6077.80305 1.20427e-17
6079.27526 1.22568e-17
6080.74746 1.19830e-17
6082.21966 1.18281e-17
6083.69187 1.21068e-17
6085.15406 1.27114e-17
6086.62627 1.23379e-17
6088.09847 1.11900e-17
6089.57067 1.14200e-17
6091.03287 1.25119e-17
6092.50507 1.17613e-17
6093.97728 1.10623e-17
6095.44948 1.17798e-17
6096.92169 1.23225e-17
6098.38388 1.19070e-17
6099.85608 1.11848e-17
6101.32828 1.14112e-17
6102.80049 1.23186e-17
6104.26268 1.15649e-17
6105.73489 1.16693e-17
6107.20709 1.19231e-17
6108.67929 1.15131e-17
6110.15150 1.14139e-17
6111.61369 1.15016e-17
6113.08590 1.15116e-17
6114.55810 1.13390e-17
6116.03031 1.10934e-17
6117.49250 1.10449e-17
6118.96470 1.11446e-17
6120.43691 1.16138e-17
6121.90911 1.20946e-17
6123.37130 1.16193e-17
6124.84351 1.17315e-17
6126.31571 1.18720e-17
6127.78791 1.15889e-17
6129.26012 1.16538e-17
6130.72231 1.15618e-17
6132.19452 1.13984e-17
6133.66672 1.12579e-17
6135.13893 1.13084e-17
6136.60112 1.09867e-17
6138.07332 1.08580e-17
6139.54553 1.18285e-17
6141.01773 1.18439e-17
6142.48994 1.14619e-17
6143.95213 1.13309e-17
6145.42433 1.11491e-17
6146.89653 1.11099e-17
6148.36874 1.09535e-17
6149.83093 1.12272e-17
6151.30314 1.11304e-17
6152.77534 1.09958e-17
6154.24755 1.12736e-17
6155.70974 1.13048e-17
6157.18194 1.16350e-17
6158.65415 1.20508e-17
6160.12635 1.21183e-17
6161.59856 1.16383e-17
6163.06075 1.17663e-17
6164.53295 1.24650e-17
6166.00516 1.24558e-17
6167.47736 1.22818e-17
6168.93955 1.24740e-17
6170.41176 1.21496e-17
6171.88396 1.19537e-17
6173.35617 1.25717e-17
6174.82837 1.25046e-17
6176.29056 1.22643e-17
6177.76277 1.22455e-17
6179.23497 1.23583e-17
6180.70718 1.24711e-17
6182.16937 1.25839e-17
6183.64157 1.26967e-17
6185.11378 1.28095e-17
6186.58598 1.29223e-17
6188.04817 1.30351e-17
6189.52038 1.31478e-17
6190.99258 1.32606e-17
6192.46479 1.33734e-17
6193.93699 1.34861e-17
6195.39918 1.34858e-17
6196.87139 1.38026e-17
6198.34359 1.33661e-17
6199.81580 1.31180e-17
6201.27798 1.28723e-17
6202.75019 1.32302e-17
6204.22240 1.36918e-17
6205.69460 1.33914e-17
6207.16680 1.30005e-17
6208.62900 1.29955e-17
6210.10120 1.33324e-17
6211.57341 1.32283e-17
6213.04561 1.28077e-17
6214.50780 1.31024e-17
6215.98001 1.37564e-17
6217.45221 1.36756e-17
6218.92442 1.27646e-17
6220.39662 1.25114e-17
6221.85881 1.28372e-17
6223.33102 1.27689e-17
6224.80322 1.30534e-17
6226.27542 1.29873e-17
6227.73762 1.23350e-17
6229.20982 1.24804e-17
6230.68203 1.31332e-17
6232.15423 1.31941e-17
6233.62644 1.37034e-17
6235.08863 1.37572e-17
6236.56083 1.27827e-17
6238.03304 1.19564e-17
6239.50524 1.20499e-17
6240.96743 1.26125e-17
6242.43964 1.26691e-17
6243.91184 1.30715e-17
6245.38404 1.28304e-17
6246.84623 1.19943e-17
6248.31844 1.23073e-17
6249.79065 1.24163e-17
6251.26285 1.24520e-17
6252.73506 1.26568e-17
6254.19725 1.28229e-17
6255.66945 1.29623e-17
6257.14166 1.25022e-17
6258.61386 1.23715e-17
6260.07605 1.27942e-17
6261.54826 1.26549e-17
6263.02046 1.21824e-17
6264.49266 1.26958e-17
6265.96487 1.24392e-17
6267.42706 1.17898e-17
6268.89927 1.20293e-17
6270.37147 1.19464e-17
6271.84368 1.23786e-17
6273.30587 1.27685e-17
6274.77807 1.20344e-17
6276.25028 1.19627e-17
6277.72248 1.22129e-17
6279.18467 1.19378e-17
6280.65688 1.19243e-17
6282.12908 1.16248e-17
6283.60128 1.15481e-17
6285.07349 1.22307e-17
6286.53568 1.30082e-17
6288.00789 1.28135e-17
6289.48009 1.21940e-17
6290.95230 1.21104e-17
6292.41449 1.21606e-17
6293.88669 1.13531e-17
6295.35890 1.11997e-17
6296.83110 1.15447e-17
6298.30331 1.16326e-17
6299.76550 1.16857e-17
6301.23770 1.13052e-17
6302.70991 1.16722e-17
6304.18211 1.20266e-17
6305.64430 1.12372e-17
6307.11651 1.16249e-17
6308.58871 1.24493e-17
6310.06092 1.20907e-17
6311.52311 1.15094e-17
6312.99531 1.13414e-17
6314.46752 1.14150e-17
6315.93972 1.14990e-17
6317.41193 1.15140e-17
6318.87412 1.12452e-17
6320.34632 1.14437e-17
6321.81853 1.15744e-17
6323.29073 1.12636e-17
6324.75292 1.15599e-17
6326.22512 1.19497e-17
6327.69733 1.14201e-17
6329.16953 1.14416e-17
6330.64174 1.18096e-17
6332.10393 1.16968e-17
6333.57614 1.19105e-17
6335.04834 1.22247e-17
6336.52055 1.22726e-17
6337.98274 1.16802e-17
6339.45494 1.13815e-17
6340.92715 1.16148e-17
6342.39935 1.18525e-17
6343.87156 1.16568e-17
6345.33374 1.15049e-17
6346.80595 1.22455e-17
6348.27816 1.25211e-17
6349.75036 1.20540e-17
6351.21255 1.22284e-17
6352.68476 1.24667e-17
6354.15696 1.19706e-17
6355.62917 1.17663e-17
6357.10137 1.16693e-17
6358.56356 1.12024e-17
6360.03577 1.09743e-17
6361.50797 1.16046e-17
6362.98018 1.25299e-17
6364.44236 1.26911e-17
6365.91457 1.22348e-17
6367.38678 1.17096e-17
6368.85898 1.12726e-17
6370.32117 1.16169e-17
6371.79338 1.22770e-17
6373.26558 1.20087e-17
6374.73779 1.14080e-17
6376.20999 1.11066e-17
6377.67218 1.14087e-17
6379.14439 1.17549e-17
6380.61659 1.15181e-17
6382.08879 1.12849e-17
6383.55098 1.15021e-17
6385.02319 1.18998e-17
6386.49540 1.19372e-17
6387.96760 1.18130e-17
6389.43980 1.18017e-17
6390.90200 1.18989e-17
6392.37420 1.16781e-17
6393.84641 1.15584e-17
6395.31861 1.10955e-17
6396.78080 1.12265e-17
6398.25301 1.20511e-17
6399.72521 1.22903e-17
6401.19741 1.18832e-17
6402.65960 1.22874e-17
6404.13181 1.22512e-17
6405.60402 1.17996e-17
6407.07622 1.20073e-17
6408.54842 1.22309e-17
6410.01062 1.18707e-17
6411.48282 1.13422e-17
6412.95503 1.19819e-17
6414.42723 1.23976e-17
6415.88942 1.20843e-17
6417.36163 1.19692e-17
6418.83383 1.22958e-17
6420.30603 1.19293e-17
6421.77824 1.15173e-17
6423.24043 1.24241e-17
6424.71264 1.25130e-17
6426.18484 1.16152e-17
6427.65704 1.12085e-17
6429.11924 1.15736e-17
6430.59144 1.21655e-17
6432.06365 1.23316e-17
6433.53585 1.22235e-17
6435.00806 1.22886e-17
6436.47025 1.26951e-17
6437.94245 1.21426e-17
6439.41466 1.18072e-17
6440.88686 1.15393e-17
6442.34905 1.19470e-17
6443.82126 1.24061e-17
6445.29346 1.28001e-17
6446.76566 1.26935e-17
6448.23787 1.30707e-17
6449.70006 1.25773e-17
6451.17227 1.22247e-17
6452.64447 1.20789e-17
6454.11668 1.20912e-17
6455.57887 1.21328e-17
6457.05107 1.26207e-17
6458.52328 1.23217e-17
6459.99548 1.23363e-17
6461.45767 1.21849e-17
6462.92988 1.25997e-17
6464.40208 1.23342e-17
6465.87428 1.19832e-17
6467.34649 1.25120e-17
6468.80868 1.25924e-17
6470.28089 1.21740e-17
6471.75309 1.20482e-17
6473.22530 1.19043e-17
6474.68749 1.23846e-17
6476.15969 1.19602e-17
6477.63190 1.22956e-17
6479.10410 1.22549e-17
6480.57631 1.23340e-17
6482.03850 1.30562e-17
6483.51070 1.27926e-17
6484.98291 1.22285e-17
6486.45511 1.21268e-17
6487.91730 1.17237e-17
6489.38951 1.19798e-17
6490.86171 1.21202e-17
6492.33392 1.15659e-17
6493.79611 1.17991e-17
6495.26831 1.19794e-17
6496.74052 1.20878e-17
6498.21272 1.21717e-17
6499.68493 1.18288e-17
6501.14712 1.16328e-17
6502.61932 1.13810e-17
6504.09153 1.24477e-17
6505.56373 1.24800e-17
6507.02592 1.15122e-17
6508.49813 1.15661e-17
6509.97033 1.22278e-17
6511.44254 1.22680e-17
6512.91474 1.13229e-17
6514.37693 1.09076e-17
6515.84914 1.14568e-17
6517.32134 1.17021e-17
6518.79355 1.23327e-17
6520.25573 1.29148e-17
6521.72794 1.25470e-17
6523.20015 1.18276e-17
6524.67235 1.18078e-17
6526.14455 1.20350e-17
6527.60675 1.21125e-17
6529.07895 1.17523e-17
6530.55116 1.20082e-17
6532.02336 1.26131e-17
6533.48555 1.15270e-17
6534.95776 1.14584e-17
6536.42996 1.21156e-17
6537.90217 1.15417e-17
6539.36435 1.17577e-17
6540.83656 1.20718e-17
6542.30877 1.17385e-17
6543.78097 1.17350e-17
6545.25317 1.17316e-17
6546.71537 1.17281e-17
6548.18757 1.17247e-17
6549.65978 1.17212e-17
6551.13198 1.17177e-17
6552.59417 1.17143e-17
6554.06638 1.17108e-17
6555.53858 1.17074e-17
6557.01079 1.17039e-17
6558.48299 1.17005e-17
6559.94518 1.16970e-17
6561.41739 1.16936e-17
6562.88959 1.16901e-17
6564.36179 1.16867e-17
6565.82398 1.16832e-17
6567.29619 1.16798e-17
6568.76840 1.16763e-17
6570.24060 1.16729e-17
6571.71281 1.16694e-17
6573.17500 1.16659e-17
6574.64720 1.16625e-17
6576.11941 1.16590e-17
6577.59161 1.16556e-17
6579.05380 1.16521e-17
6580.52601 1.16487e-17
6581.99821 1.16452e-17
6583.47041 1.16418e-17
6584.93260 1.16383e-17
6586.40481 1.16349e-17
6587.87702 1.16314e-17
6589.34922 1.16280e-17
6590.82143 1.16245e-17
6592.28362 1.16211e-17
6593.75582 1.16176e-17
6595.22803 1.16142e-17
6596.70023 1.16107e-17
6598.16242 1.16073e-17
6599.63463 1.16038e-17
6601.10683 1.16004e-17
6602.57903 1.15970e-17
6604.05124 1.15935e-17
6605.51343 1.09183e-17
6606.98564 1.09518e-17
6608.45784 1.10696e-17
6609.93005 1.12285e-17
6611.39224 1.13173e-17
6612.86444 1.15571e-17
6614.33665 1.10535e-17
6615.80885 1.11658e-17
6617.28106 1.08712e-17
6618.74325 1.06636e-17
6620.21545 1.03880e-17
6621.68766 1.06772e-17
6623.15986 1.12539e-17
6624.62205 1.07203e-17
6626.09426 1.10802e-17
6627.56646 1.07072e-17
6629.03867 1.02500e-17
6630.50086 1.06360e-17
6631.97306 1.12373e-17
6633.44527 1.13686e-17
6634.91747 1.09567e-17
6636.38968 1.04941e-17
6637.85187 1.03955e-17
6639.32407 1.08796e-17
6640.79628 1.02600e-17
6642.26848 9.88562e-18
6643.73067 1.01048e-17
6645.20287 1.07596e-17
6646.67508 1.08848e-17
6648.14729 1.03595e-17
6649.61949 9.99642e-18
6651.08168 1.04681e-17
6652.55389 1.01977e-17
6654.02609 9.77010e-18
6655.49830 1.03393e-17
6656.96049 9.86281e-18
6658.43269 9.75378e-18
6659.90490 1.00837e-17
6661.37710 1.02940e-17
6662.83929 1.04115e-17
6664.31149 1.02833e-17
6665.78370 1.02274e-17
6667.25591 9.56717e-18
6668.72811 1.02942e-17
6670.19030 1.05323e-17
6671.66251 1.02120e-17
6673.13471 9.92638e-18
6674.60692 9.84798e-18
6676.06911 9.80783e-18
6677.54131 9.19956e-18
6679.01352 9.80518e-18
6680.48572 9.51421e-18
6681.95793 9.34335e-18
6683.42011 9.26401e-18
6684.89232 9.88542e-18
6686.36453 9.42797e-18
6687.83673 9.09257e-18
6689.29892 9.89836e-18
6690.77113 9.76105e-18
6692.24333 9.14106e-18
6693.71554 9.35670e-18
6695.18774 9.75484e-18
6696.64993 9.40265e-18
6698.12214 9.38379e-18
6699.59434 9.46815e-18
6701.06654 9.61504e-18
6702.52873 9.36276e-18
6704.00094 9.58616e-18
6705.47315 8.90004e-18
6706.94535 8.86416e-18
6708.41755 8.96635e-18
6709.87975 9.21081e-18
6711.35195 8.83779e-18
6712.82416 8.54100e-18
6714.29636 8.59725e-18
6715.75855 8.68578e-18
6717.23076 9.07375e-18
6718.70296 9.02330e-18
6720.17516 8.97722e-18
6721.63735 8.95425e-18
6723.10956 8.89931e-18
6724.58177 8.80345e-18
6726.05397 9.03069e-18
6727.52617 9.23321e-18
6728.98837 9.93523e-18
6730.46057 9.33191e-18
6731.93278 9.12133e-18
6733.40498 9.14297e-18
6734.86717 8.60745e-18
6736.33938 8.81671e-18
6737.81158 9.47182e-18
6739.28378 9.41466e-18
6740.75599 8.66443e-18
6742.21818 8.73979e-18
6743.69039 9.43132e-18
6745.16259 9.66365e-18
6746.63479 9.53811e-18
6748.09699 8.55681e-18
6749.56919 9.24656e-18
6751.04140 9.94143e-18
6752.51360 8.67914e-18
6753.97579 8.40172e-18
6755.44800 8.87765e-18
6756.92020 9.11073e-18
6758.39241 8.65762e-18
6759.86461 8.50737e-18
6761.32680 8.74312e-18
6762.79901 9.06444e-18
6764.27121 8.64116e-18
6765.74341 8.50050e-18
6767.20561 8.93587e-18
6768.67781 8.24282e-18
6770.15002 8.88837e-18
6771.62222 9.35262e-18
6773.09443 9.18464e-18
6774.55662 9.52148e-18
6776.02882 9.14425e-18
6777.50103 8.99121e-18
6778.97323 8.79066e-18
6780.43542 8.47180e-18
6781.90763 8.40083e-18
6783.37983 8.18857e-18
6784.85203 8.48002e-18
6786.31423 8.39446e-18
6787.78643 7.78433e-18
6789.25864 8.22732e-18
6790.73084 8.56679e-18
6792.20305 8.57159e-18
6793.66524 8.63892e-18
6795.13744 8.49379e-18
6796.60965 8.12626e-18
6798.08185 8.52200e-18
6799.54404 9.54239e-18
6801.01625 8.80008e-18
6802.48845 8.40699e-18
6803.96066 8.17764e-18
6805.43286 7.39985e-18
6806.89505 8.16193e-18
6808.36726 8.31564e-18
6809.83946 7.76589e-18
6811.31167 7.96317e-18
6812.77386 7.93301e-18
6814.24606 7.91813e-18
6815.71827 7.90950e-18
6817.19047 7.72300e-18
6818.66268 7.82614e-18
6820.12487 7.67712e-18
6821.59707 7.38042e-18
6823.06928 7.15925e-18
6824.54148 7.67551e-18
6826.00367 7.84689e-18
6827.47588 7.90315e-18
6828.94808 8.15126e-18
6830.42029 7.99228e-18
6831.89249 8.45015e-18
6833.35468 7.99399e-18
6834.82689 7.54994e-18
6836.29909 7.55719e-18
6837.77130 7.56444e-18
6839.23348 7.57169e-18
6840.70569 7.57894e-18
6842.17790 7.58619e-18
6843.65010 7.59344e-18
6845.11229 7.60069e-18
6846.58450 7.60793e-18
6848.05670 7.60778e-18
6849.52891 7.73584e-18
6851.00111 7.94591e-18
6852.46330 7.66502e-18
6853.93551 6.92180e-18
6855.40771 7.77185e-18
6856.87992 7.89025e-18
6858.34210 8.34491e-18
6859.81431 7.28679e-18
6861.28652 7.32246e-18
6862.75872 7.31006e-18
6864.23092 7.39285e-18
6865.69312 7.96313e-18
6867.16532 7.92051e-18
6868.63753 7.88342e-18
6870.10973 7.65742e-18
6871.57192 7.56528e-18
6873.04413 7.27508e-18
6874.51633 7.53302e-18
6875.98854 6.93647e-18
6877.45072 7.39642e-18
6878.92293 7.61513e-18
6880.39514 8.23410e-18
6881.86734 7.73834e-18
6883.33954 7.44337e-18
6884.80174 7.47052e-18
6886.27394 7.72929e-18
6887.74615 7.78588e-18
6889.21835 7.85058e-18
6890.68054 8.55605e-18
6892.15275 8.45638e-18
6893.62495 7.30849e-18
6895.09716 7.38018e-18
6896.56936 7.86726e-18
6898.03155 7.64458e-18
6899.50376 8.20122e-18
6900.97596 7.81130e-18
6902.44816 7.64945e-18
6903.91035 7.65912e-18
6905.38256 8.12327e-18
6906.85477 7.74544e-18
6908.32697 8.59870e-18
6909.78916 7.48135e-18
6911.26137 7.63754e-18
6912.73357 8.00094e-18
6914.20578 7.53177e-18
6915.67798 7.60750e-18
6917.14017 8.20668e-18
6918.61238 7.75519e-18
6920.08458 8.07294e-18
6921.55678 8.13715e-18
6923.01897 8.62450e-18
6924.49118 8.90194e-18
6925.96339 8.69246e-18
6927.43559 8.01852e-18
6928.90780 7.93790e-18
6930.36999 8.47785e-18
6931.84219 9.38067e-18
6933.31440 9.35680e-18
6934.78660 8.55438e-18
6936.24879 8.93056e-18
6937.72100 8.83356e-18
6939.19320 8.93971e-18
6940.66541 8.61926e-18
6942.13761 8.66786e-18
6943.59980 8.60047e-18
6945.07201 8.49502e-18
6946.54421 8.91705e-18
6948.01642 8.93905e-18
6949.47861 8.95689e-18
6950.95081 8.81725e-18
6952.42302 8.18699e-18
6953.89522 8.07367e-18
6955.36743 8.63975e-18
6956.82962 9.02450e-18
6958.30182 8.25374e-18
6959.77403 7.70645e-18
6961.24623 8.43375e-18
6962.70842 9.06261e-18
6964.18062 9.37027e-18
6965.65283 9.55051e-18
6967.12504 9.27007e-18
6968.58723 8.74673e-18
6970.05943 8.42496e-18
6971.53164 8.57651e-18
6973.00384 8.65814e-18
6974.47605 8.64988e-18
6975.93824 8.99359e-18
6977.41044 9.08053e-18
6978.88265 8.84942e-18
6980.35485 9.09811e-18
6981.81704 9.15451e-18
6983.28924 9.04523e-18
6984.76145 9.19197e-18
6986.23366 9.12798e-18
6987.70586 8.44284e-18
6989.16805 8.22657e-18
6990.64026 8.58951e-18
6992.11246 8.95829e-18
6993.58467 9.33510e-18
6995.04686 8.55956e-18
6996.51906 8.31352e-18
6997.99127 9.12020e-18
6999.46347 9.14821e-18
7000.92566 8.24685e-18
7002.39786 8.19327e-18
7003.87007 8.56665e-18
7005.34228 8.20171e-18
7006.81448 8.12268e-18
7008.27667 8.06195e-18
7009.74888 8.32654e-18
7011.22108 8.86360e-18
7012.69329 8.99613e-18
7014.15548 9.10435e-18
7015.62768 8.68034e-18
7017.09989 8.33706e-18
7018.57209 8.23549e-18
7020.04429 8.23406e-18
7021.50648 8.85350e-18
7022.97869 8.62842e-18
7024.45090 8.26994e-18
7025.92310 8.64891e-18
7027.38529 8.37355e-18
7028.85750 8.12495e-18
7030.32970 8.36400e-18
7031.80191 8.42111e-18
7033.27411 8.71204e-18
7034.73630 8.70846e-18
7036.20851 8.70005e-18
7037.68071 8.28617e-18
7039.15291 8.50253e-18
7040.61510 8.31503e-18
7042.08731 8.12073e-18
7043.55952 8.35132e-18
7045.03172 8.91303e-18
7046.49391 8.53161e-18
7047.96612 8.13081e-18
7049.43832 8.52727e-18
7050.91053 8.15020e-18
7052.38273 8.81372e-18
7053.84492 8.63201e-18
7055.31713 8.08980e-18
7056.78933 8.46006e-18
7058.26153 8.92544e-18
7059.72372 8.79494e-18
7061.19593 8.52125e-18
7062.66814 8.51337e-18
7064.14034 8.76273e-18
7065.61254 9.27180e-18
7067.07474 8.75488e-18
7068.54694 8.23266e-18
7070.01915 7.92916e-18
7071.49135 8.04694e-18
7072.95354 8.39526e-18
7074.42575 8.32606e-18
7075.89795 9.12315e-18
7077.37016 9.01162e-18
7078.84236 8.58794e-18
7080.30455 8.78998e-18
7081.77676 8.98353e-18
7083.24896 8.72936e-18
7084.72116 8.58758e-18
7086.18336 8.43316e-18
7087.65556 8.91839e-18
7089.12777 8.27530e-18
7090.59997 8.59714e-18
7092.06216 9.04877e-18
7093.53437 9.35619e-18
7095.00657 8.96265e-18
7096.47878 8.46095e-18
7097.95098 8.57368e-18
7099.41317 8.50472e-18
7100.88538 8.97729e-18
7102.35758 8.79260e-18
7103.82978 8.38967e-18
7105.29198 8.55406e-18
7106.76418 8.85691e-18
7108.23639 9.04082e-18
7109.70859 8.97666e-18
7111.18080 9.03402e-18
7112.64299 8.84029e-18
7114.11519 8.60741e-18
7115.58740 8.69971e-18
7117.05960 8.53428e-18
7118.52179 8.77367e-18
7119.99400 8.87962e-18
7121.46620 8.68500e-18
7122.93841 8.59986e-18
7124.41061 9.08516e-18
7125.87280 8.50877e-18
7127.34501 7.90040e-18
7128.81721 8.91696e-18
7130.28942 9.30157e-18
7131.75161 9.43184e-18
7133.22381 9.06755e-18
7134.69602 8.88030e-18
7136.16822 9.06224e-18
7137.63041 8.66666e-18
7139.10262 8.73633e-18
7140.57482 9.38884e-18
7142.04703 9.79621e-18
7143.51923 9.69968e-18
7144.98142 9.34318e-18
7146.45363 9.07362e-18
7147.92583 8.87908e-18
7149.39804 8.91350e-18
7150.86023 8.51030e-18
7152.33243 8.63482e-18
7153.80464 9.14475e-18
7155.27684 9.07614e-18
7156.74905 9.15834e-18
7158.21123 9.14562e-18
7159.68344 9.19619e-18
7161.15565 9.10448e-18
7162.62785 9.43698e-18
7164.09004 9.89511e-18
7165.56225 9.65480e-18
7167.03445 9.87226e-18
7168.50666 1.01624e-17
7169.96885 9.37303e-18
7171.44105 8.82109e-18
7172.91326 9.28347e-18
7174.38546 9.87554e-18
7175.85767 9.92923e-18
7177.31985 1.00774e-17
7178.79206 1.00202e-17
7180.26427 9.96088e-18
7181.73647 1.00290e-17
7183.19866 9.96339e-18
7184.67087 1.02279e-17
7186.14307 1.01519e-17
7187.61528 1.04474e-17
7189.08748 1.01899e-17
7190.54967 9.62988e-18
7192.02188 1.02459e-17
7193.49408 1.02205e-17
7194.96629 9.70113e-18
7196.42847 9.89773e-18
7197.90068 9.78198e-18
7199.37289 1.01486e-17
7200.84509 1.11483e-17
7202.31729 1.09639e-17
7203.77949 1.05894e-17
7205.25169 1.00072e-17
7206.72390 9.61896e-18
7208.19610 1.03007e-17
7209.65829 1.06557e-17
7211.13050 1.00876e-17
7212.60270 1.04417e-17
7214.07491 1.09163e-17
7215.54711 1.09554e-17
7217.00930 1.09251e-17
7218.48151 1.06599e-17
7219.95371 1.06728e-17
7221.42591 1.12333e-17
7222.88810 1.11384e-17
7224.36031 1.08946e-17
7225.83252 1.11501e-17
7227.30472 1.10245e-17
7228.76691 1.09054e-17
7230.23912 1.09300e-17
7231.71132 1.12630e-17
7233.18353 1.16484e-17
7234.65573 1.14658e-17
7236.11792 1.09583e-17
7237.59013 1.09352e-17
7239.06233 1.13365e-17
7240.53453 1.13617e-17
7241.99672 1.14154e-17
7243.46893 1.13914e-17
7244.94114 1.15441e-17
7246.41334 1.14524e-17
7247.88555 1.09837e-17
7249.34774 1.10008e-17
7250.81994 1.15931e-17
7252.29215 1.14475e-17
7253.76435 1.06880e-17
7255.22654 1.06985e-17
7256.69875 1.11719e-17
7258.17095 1.13364e-17
7259.64316 1.14114e-17
7261.10534 1.13286e-17
7262.57755 1.10774e-17
7264.04976 1.14242e-17
7265.52196 1.15174e-17
7266.99417 1.12670e-17
7268.45636 1.12001e-17
7269.92856 1.13191e-17
7271.40077 1.13390e-17
7272.87297 1.14670e-17
7274.33516 1.15391e-17
7275.80737 1.11472e-17
7277.27957 1.13454e-17
7278.75178 1.16941e-17
7280.22398 1.11821e-17
7281.68617 1.12337e-17
7283.15837 1.17056e-17
7284.63058 1.17378e-17
7286.10279 1.21716e-17
7287.56498 1.19216e-17
7289.03718 1.11233e-17
7290.50939 1.11250e-17
7291.98159 1.12035e-17
7293.45380 1.09924e-17
7294.91599 1.07321e-17
7296.38819 1.11116e-17
7297.86040 1.15996e-17
7299.33260 1.14044e-17
7300.79479 1.13013e-17
7302.26699 1.15810e-17
7303.73920 1.15193e-17
7305.21141 1.11920e-17
7306.68361 1.12506e-17
7308.14580 1.13782e-17
7309.61801 1.11933e-17
7311.09021 1.04147e-17
7312.56242 9.94252e-18
7314.02461 1.06867e-17
7315.49681 1.08826e-17
7316.96902 1.04146e-17
7318.44122 1.02452e-17
7319.90341 9.98328e-18
7321.37561 1.03405e-17
7322.84782 1.14810e-17
7324.32003 1.13937e-17
7325.79223 1.08107e-17
7327.25442 1.10074e-17
7328.72663 1.01832e-17
7330.19883 9.37102e-18
7331.67104 1.05403e-17
7333.13323 1.13044e-17
7334.60543 1.03186e-17
7336.07764 1.01850e-17
7337.54984 1.03229e-17
7339.02204 1.00214e-17
7340.48423 1.04897e-17
7341.95644 1.04793e-17
7343.42865 9.92538e-18
7344.90085 1.01260e-17
7346.36304 1.01798e-17
7347.83525 9.91010e-18
7349.30745 1.01759e-17
7350.77966 1.00369e-17
7352.24184 1.00208e-17
7353.71405 1.00890e-17
7355.18626 9.83008e-18
7356.65846 1.03061e-17
7358.13066 1.11765e-17
7359.59285 1.09506e-17
7361.06506 1.02471e-17
7362.53727 1.01929e-17
7364.00947 1.04668e-17
7365.47166 1.07237e-17
7366.94387 1.00772e-17
7368.41607 9.49409e-18
7369.88828 1.01101e-17
7371.36048 1.04397e-17
7372.82267 9.90224e-18
7374.29488 9.60721e-18
7375.76708 1.01006e-17
7377.23928 1.06341e-17
7378.70147 1.01510e-17
7380.17368 9.72684e-18
7381.64589 9.98927e-18
7383.11809 9.86193e-18
7384.58028 1.00811e-17
7386.05249 9.87547e-18
7387.52469 9.47989e-18
7388.99690 1.00779e-17
7390.46910 1.03605e-17
7391.93129 1.01992e-17
7393.40350 9.78173e-18
7394.87570 9.56834e-18
7396.34791 1.01161e-17
7397.81009 1.03655e-17
7399.28230 1.02193e-17
7400.75451 1.00701e-17
7402.22671 9.93998e-18
7403.69891 1.01121e-17
7405.16111 1.03182e-17
7406.63331 1.05866e-17
7408.10552 1.03869e-17
7409.57772 9.76516e-18
7411.03991 9.55780e-18
7412.51212 9.50688e-18
7413.98432 9.34743e-18
7415.45653 9.42613e-18
7416.92873 9.31287e-18
7418.39092 9.67301e-18
7419.86313 9.70991e-18
7421.33533 9.43858e-18
7422.80753 9.16074e-18
7424.26973 9.37287e-18
7425.74193 9.15141e-18
7427.21414 9.50987e-18
7428.68634 1.00480e-17
7430.15855 9.47820e-18
7431.62074 9.34127e-18
7433.09294 9.33638e-18
7434.56515 9.82742e-18
7436.03735 9.69811e-18
7437.49954 8.95372e-18
7438.97175 8.60206e-18
7440.44395 8.81180e-18
7441.91616 9.38333e-18
7443.37835 9.26567e-18
7444.85055 8.68409e-18
7446.32276 8.56694e-18
7447.79496 8.76523e-18
7449.26717 9.10686e-18
7450.72936 9.11734e-18
7452.20156 8.94543e-18
7453.67377 1.00079e-17
7455.14597 1.01785e-17
7456.60816 8.55970e-18
7458.08037 9.61977e-18
7459.55257 1.04372e-17
7461.02478 8.84393e-18
7462.49698 7.98311e-18
7463.95917 8.10880e-18
7465.43138 8.55600e-18
7466.90358 8.59651e-18
7468.37579 8.44139e-18
7469.83798 8.31332e-18
7471.31018 7.74181e-18
7472.78239 8.20389e-18
7474.25459 8.18853e-18
7475.71678 7.96913e-18
7477.18898 8.11975e-18
7478.66119 7.86341e-18
7480.13340 7.88136e-18
7481.60560 8.21945e-18
7483.06779 7.66961e-18
7484.54000 7.19843e-18
7486.01220 7.61611e-18
7487.48441 8.04597e-18
7488.94660 7.84880e-18
7490.41880 7.96812e-18
7491.89101 8.01292e-18
7493.36321 7.97109e-18
7494.83542 7.28719e-18
7496.29760 7.06269e-18
7497.76981 7.55817e-18
7499.24202 7.79799e-18
7500.71422 7.53127e-18
7502.17641 7.78518e-18
7503.64862 7.70828e-18
7505.12082 7.42163e-18
7506.59303 7.34882e-18
7508.05522 7.03623e-18
7509.52742 6.30509e-18
7510.99963 6.41649e-18
7512.47183 6.93166e-18
7513.94404 7.22833e-18
7515.40622 7.28244e-18
7516.87843 7.02605e-18
7518.35064 7.22840e-18
7519.82284 7.76612e-18
7521.28503 7.98913e-18
7522.75724 7.92856e-18
7524.22944 8.04863e-18
7525.70165 8.20492e-18
7527.17385 8.35590e-18
7528.63604 7.88646e-18
7530.10825 7.40021e-18
7531.58045 7.76565e-18
7533.05266 7.85787e-18
7534.51484 8.28036e-18
7535.98705 8.49480e-18
7537.45926 7.56745e-18
7538.93146 7.12855e-18
7540.40366 7.48184e-18
7541.86586 7.62879e-18
7543.33806 7.57598e-18
7544.81027 7.57934e-18
7546.28247 7.79276e-18
7547.74466 7.74764e-18
7549.21687 7.60271e-18
7550.68907 8.00735e-18
7552.16128 7.95999e-18
7553.63348 7.75914e-18
7555.09567 6.77131e-18
7556.56788 6.74384e-18
7558.04008 6.76663e-18
7559.51228 6.77160e-18
7560.97447 6.75665e-18
7562.44668 6.75973e-18
7563.91889 7.35862e-18
7565.39109 7.32110e-18
7566.85328 6.71628e-18
7568.32549 6.15369e-18
7569.79769 6.61517e-18
7571.26990 6.84375e-18
7572.74210 6.64109e-18
7574.20429 6.46817e-18
7575.67650 6.35392e-18
7577.14870 6.48435e-18
7578.62091 6.68251e-18
7580.08309 6.35518e-18
7581.55530 6.51077e-18
7583.02751 6.82035e-18
7584.49971 6.61413e-18
7585.97192 6.93775e-18
7587.43411 6.81659e-18
7588.90631 6.75593e-18
7590.37852 7.11492e-18
7591.85072 6.90243e-18
7593.31291 6.39708e-18
7594.78512 6.92562e-18
7596.25732 7.34036e-18
7597.72953 7.42144e-18
7599.19172 7.01244e-18
7600.66392 6.70167e-18
7602.13612 5.55645e-18
7603.60833 5.24710e-18
7605.08054 6.88270e-18
7606.54273 7.35914e-18
7608.01493 6.64953e-18
7609.48714 6.11437e-18
7610.95934 6.51086e-18
7612.42153 6.14861e-18
7613.89374 6.72711e-18
7615.36594 6.85925e-18
7616.83815 5.97301e-18
7618.31035 5.73912e-18
7619.77254 5.32191e-18
7621.24474 5.76829e-18
7622.71695 6.38197e-18
7624.18916 5.99260e-18
7625.65135 5.71109e-18
7627.12355 6.06413e-18
7628.59576 6.31548e-18
7628.78693 6.31548e-18
7629.64839 6.45727e-18
7630.50985 6.57788e-18
7631.37131 6.69844e-18
7632.23278 6.81249e-18
7633.10426 6.92652e-18
7633.96572 7.03342e-18
7634.82718 7.14032e-18
7635.68864 7.24008e-18
7636.55010 7.33984e-18
7637.41157 7.41283e-18
7638.27303 7.48576e-18
7639.13449 7.52203e-18
7639.99595 7.55824e-18
7640.85741 7.59230e-18
7641.71888 7.62635e-18
7642.59035 7.69238e-18
7643.45182 7.75846e-18
7644.31328 7.87105e-18
7645.17474 7.98373e-18
7646.03620 8.14909e-18
7646.89766 8.31455e-18
7647.75913 8.48806e-18
7648.62059 8.66157e-18
7649.48205 8.78696e-18
7650.34351 8.91225e-18
7651.20497 8.97755e-18
7652.06644 9.04273e-18
7652.93792 9.05418e-18
7653.79938 9.06552e-18
7654.66084 9.06628e-18
7655.52230 9.06702e-18
7656.38376 9.12374e-18
7657.24523 9.18057e-18
7658.10669 9.30401e-18
7658.96815 9.42758e-18
7659.82961 9.58115e-18
7660.69107 9.73477e-18
7661.55254 9.88738e-18
7662.42401 1.00400e-17
7663.28548 1.01634e-17
7664.14694 1.02868e-17
7665.00840 1.03794e-17
7665.86986 1.04720e-17
7666.73132 1.05872e-17
7667.59279 1.07025e-17
7668.45425 1.08652e-17
7669.31571 1.10280e-17
7670.17717 1.11874e-17
7671.03863 1.13468e-17
7671.91011 1.14621e-17
7672.77158 1.15773e-17
7673.63304 1.16410e-17
7674.49450 1.17045e-17
7675.35596 1.17194e-17
7676.21742 1.17342e-17
7677.07889 1.17606e-17
7677.94035 1.17869e-17
7678.80181 1.18851e-17
7679.66327 1.19834e-17
7680.52473 1.21178e-17
7681.38620 1.22522e-17
7682.25767 1.23666e-17
7683.11914 1.24811e-17
7683.98060 1.25754e-17
7684.84206 1.26697e-17
7685.70352 1.27597e-17
7686.56498 1.28497e-17
7687.42645 1.29392e-17
7688.28791 1.30285e-17
7689.14937 1.31186e-17
7690.01083 1.32088e-17
7690.88231 1.32910e-17
7691.74377 1.33732e-17
7692.60524 1.34301e-17
7693.46670 1.34871e-17
7694.32816 1.35230e-17
7695.18962 1.35590e-17
7696.05108 1.36004e-17
7696.91255 1.36419e-17
7697.77401 1.36989e-17
7698.63547 1.37558e-17
7699.49693 1.38149e-17
7700.35839 1.38738e-17
7701.22987 1.39236e-17
7702.09133 1.39734e-17
7702.95280 1.40073e-17
7703.81426 1.40410e-17
7704.67572 1.40542e-17
7705.53718 1.40672e-17
7706.39864 1.40606e-17
7707.26011 1.40540e-17
7708.12157 1.40335e-17
7708.98303 1.40131e-17
7709.84449 1.40025e-17
7710.71597 1.39919e-17
7711.57743 1.40124e-17
7712.43890 1.40329e-17
7713.30036 1.40794e-17
7714.16182 1.41259e-17
7715.02328 1.41868e-17
7715.88474 1.42476e-17
7716.74620 1.43042e-17
7717.60767 1.43609e-17
7718.46913 1.43930e-17
7719.33059 1.44252e-17
7720.20207 1.44314e-17
7721.06353 1.44376e-17
7721.92499 1.44253e-17
7722.78646 1.44130e-17
7723.64792 1.43948e-17
7724.50938 1.43766e-17
7725.37084 1.43695e-17
7726.23230 1.43623e-17
7727.09377 1.43716e-17
7727.95523 1.43811e-17
7728.81669 1.44014e-17
7729.67815 1.44219e-17
7730.54963 1.44520e-17
7731.41109 1.44823e-17
7732.27255 1.45286e-17
7733.13402 1.45748e-17
7733.99548 1.46298e-17
7734.85694 1.46847e-17
7735.71840 1.47187e-17
7736.57986 1.47526e-17
7737.44133 1.47486e-17
7738.30279 1.47447e-17
7739.17427 1.47150e-17
7740.03573 1.46853e-17
7740.89719 1.46456e-17
7741.75865 1.46060e-17
7742.62012 1.45800e-17
7743.48158 1.45540e-17
7744.34304 1.45609e-17
7745.20450 1.45678e-17
7746.06596 1.45946e-17
7746.92743 1.46213e-17
7747.78889 1.46500e-17
7748.65035 1.46787e-17
7749.52183 1.47030e-17
7750.38329 1.47271e-17
7751.24475 1.47423e-17
7752.10621 1.47574e-17
7752.96768 1.47635e-17
7753.82914 1.47695e-17
7754.69060 1.47698e-17
7755.55206 1.47701e-17
7756.41352 1.47606e-17
7757.27499 1.47510e-17
7758.13645 1.47236e-17
7759.00793 1.46964e-17
7759.86939 1.46593e-17
7760.73085 1.46220e-17
7761.59231 1.45937e-17
7762.45378 1.45653e-17
7763.31524 1.45503e-17
7764.17670 1.45352e-17
7765.03816 1.45236e-17
7765.89962 1.45121e-17
7766.76109 1.44965e-17
7767.62255 1.44810e-17
7768.49403 1.44557e-17
7769.35549 1.44302e-17
7770.21695 1.43948e-17
7771.07841 1.43592e-17
7771.93988 1.43256e-17
7772.80134 1.42920e-17
7773.66280 1.42692e-17
7774.52426 1.42464e-17
7775.38572 1.42297e-17
7776.24719 1.42131e-17
7777.10865 1.41988e-17
7777.98013 1.41847e-17
7778.84159 1.41751e-17
7779.70305 1.41655e-17
7780.56451 1.41625e-17
7781.42597 1.41594e-17
7782.28744 1.41624e-17
7783.14890 1.41653e-17
7784.01036 1.41730e-17
7784.87182 1.41807e-17
7785.73328 1.41921e-17
7786.59475 1.42035e-17
7787.46623 1.42173e-17
7788.32769 1.42311e-17
7789.18915 1.42435e-17
7790.05061 1.42557e-17
7790.91207 1.42619e-17
7791.77354 1.42680e-17
7792.63500 1.42657e-17
7793.49646 1.42634e-17
7794.35792 1.42520e-17
7795.21938 1.42405e-17
7796.08085 1.42253e-17
7796.94231 1.42100e-17
7797.81379 1.42007e-17
7798.67525 1.41914e-17
7799.53671 1.41953e-17
7800.39817 1.41994e-17
7801.25963 1.42215e-17
7802.12110 1.42438e-17
7802.98256 1.42804e-17
7803.84402 1.43171e-17
7804.70548 1.43496e-17
7805.56694 1.43822e-17
7806.42841 1.43974e-17
7807.29989 1.44125e-17
7808.16135 1.44117e-17
7809.02281 1.44109e-17
7809.88427 1.43968e-17
7810.74573 1.43826e-17
7811.60720 1.43580e-17
7812.46866 1.43332e-17
7813.33012 1.43025e-17
7814.19158 1.42718e-17
7815.05304 1.42406e-17
7815.91450 1.42095e-17
7816.78598 1.41830e-17
7817.64745 1.41566e-17
7818.50891 1.41412e-17
7819.37037 1.41259e-17
7820.23183 1.41266e-17
7821.09329 1.41274e-17
7821.95476 1.41327e-17
7822.81622 1.41381e-17
7823.67768 1.41309e-17
7824.53914 1.41236e-17
7825.40060 1.41017e-17
7826.27208 1.40797e-17
7827.13355 1.40483e-17
7827.99501 1.40170e-17
7828.85647 1.39805e-17
7829.71793 1.39442e-17
7830.57939 1.39071e-17
7831.44085 1.38701e-17
7832.30232 1.38353e-17
7833.16378 1.38005e-17
7834.02524 1.37680e-17
7834.88670 1.37355e-17
7835.75818 1.37083e-17
7836.61964 1.36810e-17
7837.48111 1.36676e-17
7838.34257 1.36542e-17
7839.20403 1.36568e-17
7840.06549 1.36592e-17
7840.92695 1.36683e-17
7841.78842 1.36773e-17
7842.64988 1.36845e-17
7843.51134 1.36918e-17
7844.37280 1.36934e-17
7845.23426 1.36950e-17
7846.10574 1.36888e-17
7846.96720 1.36827e-17
7847.82867 1.36719e-17
7848.69013 1.36611e-17
7849.55159 1.36494e-17
7850.41305 1.36378e-17
7851.27452 1.36279e-17
7852.13598 1.36178e-17
7852.99744 1.36111e-17
7853.85890 1.36045e-17
7854.72036 1.36024e-17
7855.59184 1.36004e-17
7856.45330 1.36037e-17
7857.31477 1.36071e-17
7858.17623 1.36106e-17
7859.03769 1.36141e-17
7859.89915 1.36096e-17
7860.76061 1.36050e-17
7861.62208 1.35931e-17
7862.48354 1.35811e-17
7863.34500 1.35683e-17
7864.20646 1.35556e-17
7865.07794 1.35385e-17
7865.93940 1.35216e-17
7866.80087 1.34891e-17
7867.66233 1.34566e-17
7868.52379 1.34075e-17
7869.38525 1.33585e-17
7870.24671 1.33021e-17
7871.10818 1.32457e-17
7871.96964 1.31951e-17
7872.83110 1.31444e-17
7873.69256 1.31207e-17
7874.56404 1.30972e-17
7875.42550 1.31088e-17
7876.28696 1.31206e-17
7877.14843 1.31436e-17
7878.00989 1.31666e-17
7878.87135 1.31789e-17
7879.73281 1.31914e-17
7880.59427 1.31863e-17
7881.45574 1.31812e-17
7882.31720 1.31551e-17
7883.17866 1.31289e-17
7884.05014 1.30910e-17
7884.91160 1.30530e-17
7885.77306 1.30147e-17
7886.63453 1.29766e-17
7887.49599 1.29371e-17
7888.35745 1.28976e-17
7889.21891 1.28543e-17
7890.08037 1.28109e-17
7890.94184 1.27659e-17
7891.80330 1.27211e-17
7892.66476 1.26774e-17
7893.52622 1.26338e-17
7894.39770 1.26027e-17
7895.25916 1.25717e-17
7896.12062 1.25690e-17
7896.98209 1.25662e-17
7897.84355 1.25828e-17
7898.70501 1.25992e-17
7899.56647 1.26090e-17
7900.42793 1.26187e-17
7901.28940 1.26101e-17
7902.15086 1.26015e-17
7903.01232 1.25775e-17
7903.88380 1.25533e-17
7904.74526 1.25211e-17
7905.60672 1.24890e-17
7906.46819 1.24655e-17
7907.32965 1.24422e-17
7908.19111 1.24340e-17
7909.05257 1.24259e-17
7909.91403 1.24143e-17
7910.77550 1.24026e-17
7911.63696 1.23763e-17
7912.49842 1.23500e-17
7913.36990 1.23224e-17
7914.23136 1.22948e-17
7915.09282 1.22772e-17
7915.95428 1.22595e-17
7916.81575 1.22527e-17
7917.67721 1.22458e-17
7918.53867 1.22481e-17
7919.40013 1.22505e-17
7920.26159 1.22455e-17
7921.12306 1.22407e-17
7921.98452 1.22118e-17
7922.85600 1.21827e-17
7923.71746 1.21401e-17
7924.57892 1.20974e-17
7925.44038 1.20589e-17
7926.30185 1.20202e-17
7927.16331 1.19963e-17
7928.02477 1.19724e-17
7928.88623 1.19700e-17
7929.74769 1.19677e-17
7930.60916 1.19826e-17
7931.47062 1.19975e-17
7932.34210 1.20174e-17
7933.20356 1.20374e-17
7934.06502 1.20517e-17
7934.92648 1.20661e-17
7935.78794 1.20661e-17
7936.64941 1.20662e-17
7937.51087 1.20475e-17
7938.37233 1.20286e-17
7939.23379 1.19920e-17
7940.09525 1.19553e-17
7940.95672 1.19062e-17
7941.81818 1.18570e-17
7942.68966 1.18077e-17
7943.55112 1.17583e-17
7944.41258 1.17184e-17
7945.27404 1.16784e-17
7946.13551 1.16495e-17
7946.99697 1.16206e-17
7947.85843 1.16026e-17
7948.71989 1.15845e-17
7949.58135 1.15741e-17
7950.44282 1.15638e-17
7951.30428 1.15563e-17
7952.17576 1.15488e-17
7953.03722 1.15344e-17
7953.89868 1.15199e-17
7954.76014 1.14899e-17
7955.62160 1.14599e-17
7956.48307 1.14268e-17
7957.34453 1.13936e-17
7958.20599 1.13737e-17
7959.06745 1.13539e-17
7959.92891 1.13485e-17
7960.79038 1.13431e-17
7961.66186 1.13486e-17
7962.52332 1.13540e-17
7963.38478 1.13618e-17
7964.24624 1.13696e-17
7965.10770 1.13673e-17
7965.96917 1.13648e-17
7966.83063 1.13593e-17
7967.69209 1.13538e-17
7968.55355 1.13659e-17
7969.41501 1.13781e-17
7970.27648 1.14125e-17
7971.14795 1.14471e-17
7972.00942 1.14935e-17
7972.87088 1.15399e-17
7973.73234 1.15843e-17
7974.59380 1.16288e-17
7975.45526 1.16509e-17
7976.31673 1.16731e-17
7977.17819 1.16643e-17
7978.03965 1.16555e-17
7978.90111 1.16323e-17
7979.76257 1.16092e-17
7980.63405 1.15861e-17
7981.49552 1.15632e-17
7982.35698 1.15439e-17
7983.21844 1.15246e-17
7984.07990 1.15112e-17
7984.94136 1.14979e-17
7985.80283 1.14857e-17
7986.66429 1.14736e-17
7987.52575 1.14575e-17
7988.38721 1.14412e-17
7989.24867 1.14232e-17
7990.11014 1.14051e-17
7990.98161 1.13878e-17
7991.84308 1.13705e-17
7992.70454 1.13593e-17
7993.56600 1.13482e-17
7994.42746 1.13492e-17
7995.28892 1.13503e-17
7996.15039 1.13514e-17
7997.01185 1.13526e-17
7997.87331 1.13345e-17
7998.73477 1.13164e-17
7999.59623 1.12815e-17
8000.46771 1.12466e-17
8001.32917 1.12094e-17
8002.19064 1.11722e-17
8003.05210 1.11438e-17
8003.91356 1.11154e-17
8004.77502 1.11052e-17
8005.63649 1.10950e-17
8006.49795 1.11005e-17
8007.35941 1.11060e-17
8008.22087 1.11081e-17
8009.08233 1.11101e-17
8009.95381 1.11024e-17
8010.81527 1.10947e-17
8011.67674 1.10957e-17
8012.53820 1.10966e-17
8013.39966 1.11152e-17
8014.26112 1.11337e-17
8015.12258 1.11569e-17
8015.98405 1.11801e-17
8016.84551 1.11956e-17
8017.70697 1.12110e-17
8018.56843 1.12063e-17
8019.43991 1.12014e-17
8020.30137 1.11687e-17
8021.16284 1.11359e-17
8022.02430 1.10959e-17
8022.88576 1.10560e-17
8023.74722 1.10318e-17
8024.60868 1.10076e-17
8025.47015 1.09984e-17
8026.33161 1.09893e-17
8027.19307 1.09891e-17
8028.05453 1.09889e-17
8028.92601 1.09901e-17
8029.78747 1.09913e-17
8030.64893 1.09852e-17
8031.51040 1.09790e-17
8032.37186 1.09663e-17
8033.23332 1.09537e-17
8034.09478 1.09407e-17
8034.95624 1.09277e-17
8035.81771 1.09182e-17
8036.67917 1.09088e-17
8037.54063 1.09053e-17
8038.41211 1.09017e-17
8039.27357 1.09049e-17
8040.13503 1.09082e-17
8040.99650 1.09171e-17
8041.85796 1.09260e-17
8042.71942 1.09377e-17
8043.58088 1.09494e-17
8044.44234 1.09586e-17
8045.30380 1.09678e-17
8046.16527 1.09705e-17
8047.02673 1.09732e-17
8047.88819 1.09676e-17
8048.75967 1.09620e-17
8049.62113 1.09491e-17
8050.48259 1.09361e-17
8051.34406 1.09254e-17
8052.20552 1.09147e-17
8053.06698 1.09134e-17
8053.92844 1.09121e-17
8054.78990 1.09146e-17
8055.65137 1.09172e-17
8056.51283 1.09170e-17
8057.37429 1.09166e-17
8058.24577 1.09053e-17
8059.10723 1.08940e-17
8059.96869 1.08647e-17
8060.83015 1.08353e-17
8061.69162 1.07937e-17
8062.55308 1.07521e-17
8063.41454 1.07077e-17
8064.27600 1.06634e-17
8065.13746 1.06272e-17
8065.99893 1.05910e-17
8066.86039 1.05737e-17
8067.73187 1.05564e-17
8068.59333 1.05585e-17
8069.45479 1.05607e-17
8070.31625 1.05765e-17
8071.17772 1.05924e-17
8072.03918 1.06107e-17
8072.90064 1.06289e-17
8073.76210 1.06332e-17
8074.62356 1.06376e-17
8075.48503 1.06221e-17
8076.34649 1.06065e-17
8077.21797 1.05789e-17
8078.07943 1.05512e-17
8078.94089 1.05163e-17
8079.80235 1.04814e-17
8080.66381 1.04383e-17
8081.52528 1.03952e-17
8082.38674 1.03446e-17
8083.24820 1.02940e-17
8084.10966 1.02380e-17
8084.97113 1.01820e-17
8085.83259 1.01232e-17
8086.70407 1.00643e-17
8087.56553 1.00064e-17
8088.42699 9.94838e-18
8089.28845 9.89477e-18
8090.14991 9.84118e-18
8091.01138 9.79510e-18
8091.87284 9.74904e-18
8092.73430 9.71218e-18
8093.59576 9.67534e-18
8094.45722 9.64699e-18
8095.31869 9.61866e-18
8096.18015 9.59654e-18
8097.05163 9.57445e-18
8097.91309 9.54624e-18
8098.77455 9.51803e-18
8099.63601 9.46914e-18
8100.49748 9.42019e-18
8101.35894 9.34599e-18
8102.22040 9.27173e-18
8103.08186 9.17317e-18
8103.94332 9.07455e-18
8104.80479 8.96355e-18
8105.67626 8.85254e-18
8106.53773 8.74848e-18
8107.39919 8.64445e-18
8108.26065 8.55940e-18
8109.12211 8.47439e-18
8109.98357 8.41245e-18
8110.84504 8.35055e-18
8111.70650 8.30628e-18
8112.56796 8.26203e-18
8113.42942 8.21645e-18
8114.29088 8.17087e-18
8115.15235 8.10864e-18
8116.02383 8.04640e-18
8116.88529 7.96101e-18
8117.74675 7.87557e-18
8118.60821 7.76580e-18
8119.46967 7.65597e-18
8120.33114 7.53764e-18
8121.19260 7.41931e-18
8122.05406 7.30509e-18
8122.91552 7.19089e-18
8123.77698 7.06666e-18
8124.63845 6.94241e-18
8125.49991 6.79507e-18
8126.37139 6.64766e-18
8127.23285 6.48423e-18
8128.09431 6.32075e-18
8128.95577 6.15155e-18
8129.81723 5.98234e-18
8130.67870 5.82718e-18
8131.54016 5.67205e-18
8132.40162 5.55224e-18
8133.26308 5.43253e-18
8134.12454 5.33663e-18
8134.99602 5.24079e-18
8135.85749 5.14317e-18
8136.71895 5.04555e-18
8137.58041 4.93649e-18
8138.44187 4.82741e-18
8139.30333 4.70654e-18
8140.16480 4.58565e-18
8141.02626 4.45607e-18
8141.88772 4.32647e-18
8142.74918 4.19538e-18
8143.61064 4.06429e-18
8144.47210 3.93884e-18
8145.34358 3.81342e-18
8146.20505 3.69933e-18
8147.06651 3.58528e-18
8147.92797 3.48656e-18
8148.78943 3.38790e-18
8149.65089 3.30584e-18
8150.51236 3.22382e-18
8151.37382 3.15637e-18
8152.23528 3.08896e-18
8153.09674 3.02723e-18
8153.95820 2.96552e-18
8154.82968 2.90232e-18
8155.69115 2.83914e-18
8156.55261 2.77516e-18
8157.41407 2.71118e-18
8158.27553 2.64861e-18
8159.13699 2.58604e-18
8159.99845 2.53019e-18
8160.85992 2.47436e-18
8161.72138 2.43047e-18
8162.58284 2.38661e-18
8163.44430 2.35626e-18
8164.31578 2.32595e-18
8165.17724 2.30888e-18
8166.03871 2.29182e-18
8166.90017 2.27989e-18
8167.76163 2.26796e-18
8168.62309 2.25129e-18
8169.48455 2.23462e-18
8170.34602 2.20500e-18
8171.20748 2.17536e-18
8172.06894 2.12498e-18
8172.93040 2.07454e-18
8173.80188 2.01671e-18
8174.66334 1.95886e-18
8175.52481 1.92233e-18
8176.38627 1.88585e-18
8177.24773 1.87701e-18
8178.10919 1.86823e-18
8178.97065 1.87042e-18
8179.83212 1.87264e-18
8180.69358 1.87317e-18
8181.55504 1.87370e-18
8182.41650 1.86458e-18
8183.28798 1.85546e-18
8184.14944 1.83380e-18
8185.01090 1.81212e-18
8185.87237 1.78866e-18
8186.73383 1.76519e-18
8187.59529 1.74763e-18
8188.45675 1.73007e-18
8189.31821 1.71246e-18
8190.17968 1.69484e-18
8191.04114 1.67304e-18
8191.90260 1.65121e-18
8192.77408 1.63026e-18
8193.63554 1.60931e-18
8194.49700 1.59436e-18
8195.35846 1.57941e-18
8196.21993 1.57504e-18
8197.08139 1.57070e-18
8197.94285 1.58037e-18
8198.80431 1.59008e-18
8199.66577 1.60550e-18
8200.52724 1.62094e-18
8201.38870 1.63052e-18
8202.25016 1.64008e-18
8203.12164 1.64155e-18
8203.98310 1.64301e-18
8204.84456 1.63825e-18
8205.70603 1.63349e-18
8206.56749 1.62347e-18
8207.42895 1.61343e-18
8208.29041 1.59895e-18
8209.15187 1.58446e-18
8210.01334 1.56787e-18
8210.87480 1.55128e-18
8211.73626 1.53564e-18
8212.60774 1.52001e-18
8213.46920 1.50662e-18
8214.33066 1.49324e-18
8215.19212 1.48186e-18
8216.05359 1.47050e-18
8216.91505 1.45755e-18
8217.77651 1.44459e-18
8218.63797 1.42005e-18
8219.49943 1.39548e-18
8220.36090 1.35551e-18
8221.22236 1.31551e-18
8222.08382 1.27036e-18
8222.95530 1.22520e-18
8223.81676 1.18629e-18
8224.67822 1.14740e-18
8225.53969 1.12906e-18
8226.40115 1.11077e-18
8227.26261 1.12334e-18
8228.12407 1.13598e-18
8228.98553 1.16983e-18
8229.84700 1.20372e-18
8230.70846 1.24546e-18
8231.57994 1.28722e-18
8232.44140 1.32386e-18
8233.30286 1.36049e-18
8234.16432 1.37995e-18
8235.02578 1.39938e-18
8235.88725 1.40567e-18
8236.74871 1.41191e-18
8237.61017 1.41510e-18
8238.47163 1.41828e-18
8239.33309 1.42538e-18
8240.19456 1.43250e-18
8241.06604 1.44937e-18
8241.92750 1.46627e-18
8242.78896 1.48949e-18
8243.65042 1.51272e-18
8244.51188 1.53173e-18
8245.37335 1.55075e-18
8246.23481 1.56040e-18
8247.09627 1.57002e-18
8247.95773 1.57087e-18
8248.81919 1.57169e-18
8249.68066 1.56585e-18
8250.54212 1.56000e-18
8251.41360 1.55216e-18
8252.27506 1.54432e-18
8253.13652 1.53885e-18
8253.99798 1.53339e-18
8254.85945 1.53295e-18
8255.72091 1.53254e-18
8256.58237 1.53862e-18
8257.44383 1.54473e-18
8258.30529 1.55631e-18
8259.16676 1.56790e-18
8260.02822 1.58274e-18
8260.89970 1.59759e-18
8261.76116 1.61158e-18
8262.62262 1.62558e-18
8263.48408 1.63470e-18
8264.34554 1.64380e-18
8265.20701 1.64440e-18
8266.06847 1.64497e-18
8266.92993 1.63466e-18
8267.79139 1.62433e-18
8268.65285 1.60860e-18
8269.52433 1.59284e-18
8270.38580 1.57930e-18
8271.24726 1.56577e-18
8272.10872 1.55954e-18
8272.97018 1.55333e-18
8273.83164 1.55836e-18
8274.69311 1.56342e-18
8275.55457 1.57578e-18
8276.41603 1.58813e-18
8277.27749 1.59888e-18
8278.13895 1.60962e-18
8279.01043 1.61514e-18
8279.87189 1.62064e-18
8280.73336 1.62177e-18
8281.59482 1.62288e-18
8282.45628 1.62233e-18
8283.31774 1.62177e-18
8284.17920 1.62515e-18
8285.04067 1.62855e-18
8285.90213 1.63803e-18
8286.76359 1.64751e-18
8287.62505 1.65798e-18
8288.48651 1.66845e-18
8289.34798 1.67720e-18
8290.21946 1.68595e-18
8291.08092 1.69705e-18
8291.94238 1.70815e-18
8292.80384 1.72393e-18
8293.66530 1.73970e-18
8294.52677 1.75604e-18
8295.38823 1.77237e-18
8296.24969 1.78545e-18
8297.11115 1.79853e-18
8297.97261 1.80589e-18
8298.83408 1.81324e-18
8299.70555 1.81344e-18
8300.56702 1.81361e-18
8301.42848 1.81529e-18
8302.28994 1.81697e-18
8303.15140 1.83040e-18
8304.01286 1.84385e-18
8304.87433 1.86508e-18
8305.73579 1.88631e-18
8306.59725 1.90680e-18
8307.45871 1.92729e-18
8308.32017 1.94185e-18
8309.18164 1.95640e-18
8310.05312 1.96126e-18
8310.91458 1.96609e-18
8311.77604 1.96528e-18
8312.63750 1.96444e-18
8313.49896 1.96775e-18
8314.36043 1.97106e-18
8315.22189 1.98399e-18
8316.08335 1.99695e-18
8316.94481 2.02061e-18
8317.80627 2.04431e-18
8318.67775 2.07591e-18
8319.53921 2.10753e-18
8320.40068 2.13827e-18
8321.26214 2.16901e-18
8322.12360 2.19260e-18
8322.98506 2.21617e-18
8323.84652 2.23252e-18
8324.70799 2.24886e-18
8325.56945 2.25880e-18
8326.43091 2.26874e-18
8327.29237 2.27472e-18
8328.16385 2.28069e-18
8329.02531 2.28576e-18
8329.88678 2.29082e-18
8330.74824 2.29671e-18
8331.60970 2.30262e-18
8332.47116 2.31108e-18
8333.33262 2.31955e-18
8334.19408 2.33482e-18
8335.05555 2.35011e-18
8335.91701 2.37572e-18
8336.77847 2.40136e-18
8337.64995 2.43456e-18
8338.51141 2.46776e-18
8339.37287 2.50381e-18
8340.23434 2.53987e-18
8341.09580 2.57227e-18
8341.95726 2.60466e-18
8342.81872 2.62638e-18
8343.68018 2.64807e-18
8344.54165 2.65927e-18
8345.40311 2.67042e-18
8346.26457 2.67601e-18
8347.12603 2.68158e-18
8347.99751 2.68558e-18
8348.85897 2.68959e-18
8349.72043 2.69500e-18
8350.58190 2.70041e-18
8351.44336 2.71072e-18
8352.30482 2.72104e-18
8353.16628 2.73992e-18
8354.02775 2.75883e-18
8354.88921 2.78672e-18
8355.75067 2.81464e-18
8356.62215 2.84699e-18
8357.48361 2.87935e-18
8358.34507 2.91161e-18
8359.20653 2.94386e-18
8360.06800 2.97207e-18
8360.92946 3.00026e-18
8361.79092 3.02203e-18
8362.65238 3.04380e-18
8363.51384 3.06325e-18
8364.37531 3.08270e-18
8365.23677 3.10386e-18
8366.10825 3.12504e-18
8366.96971 3.14528e-18
8367.83117 3.16552e-18
8368.69263 3.18205e-18
8369.55410 3.19858e-18
8370.41556 3.21410e-18
8371.27702 3.22963e-18
8372.13848 3.24786e-18
8372.99994 3.26608e-18
8373.86140 3.28903e-18
8374.72287 3.31200e-18
8375.59435 3.34098e-18
8376.45581 3.36998e-18
8377.31727 3.40472e-18
8378.17873 3.43947e-18
8379.04019 3.47862e-18
8379.90166 3.51779e-18
8380.76312 3.55923e-18
8381.62458 3.60066e-18
8382.48604 3.64185e-18
8383.34750 3.68304e-18
8384.20897 3.72190e-18
8385.07043 3.76073e-18
8385.94191 3.79534e-18
8386.80337 3.82994e-18
8387.66483 3.86144e-18
8388.52629 3.89293e-18
8389.38775 3.92745e-18
8390.24922 3.96197e-18
8391.11068 4.00122e-18
8391.97214 4.04046e-18
8392.83360 4.07654e-18
8393.69507 4.11262e-18
8394.55653 4.13989e-18
8395.41799 4.16714e-18
8396.28947 4.18543e-18
8397.15093 4.20371e-18
8398.01239 4.21532e-18
8398.87385 4.22690e-18
8399.73532 4.24466e-18
8400.59678 4.26242e-18
8401.45824 4.29802e-18
8402.31970 4.33366e-18
8403.18116 4.38333e-18
8404.04263 4.43302e-18
8404.90409 4.48960e-18
8405.77557 4.54618e-18
8406.63703 4.60174e-18
8407.49849 4.65729e-18
8408.35995 4.70365e-18
8409.22142 4.74999e-18
8410.08288 4.78719e-18
8410.94434 4.82437e-18
8411.80580 4.85658e-18
8412.66726 4.88877e-18
8413.52873 4.91888e-18
8414.39019 4.94898e-18
8415.26167 4.97931e-18
8416.12313 5.00966e-18
8416.98459 5.04270e-18
8417.84605 5.07576e-18
8418.70751 5.11356e-18
8419.56898 5.15136e-18
8420.43044 5.19469e-18
8421.29190 5.23803e-18
8422.15336 5.28672e-18
8423.01482 5.33543e-18
8423.87629 5.38688e-18
8424.74777 5.43836e-18
8425.60923 5.48547e-18
8426.47069 5.53259e-18
8427.33215 5.57247e-18
8428.19361 5.61233e-18
8429.05508 5.65301e-18
8429.91654 5.69369e-18
8430.77800 5.74172e-18
8431.63946 5.78976e-18
8432.50092 5.84584e-18
8433.36239 5.90194e-18
8434.23386 5.96503e-18
8435.09533 6.02813e-18
8435.95679 6.08775e-18
8436.81825 6.14737e-18
8437.67971 6.19320e-18
8438.54117 6.23900e-18
8439.40264 6.27707e-18
8440.26410 6.31512e-18
8441.12556 6.35523e-18
8441.98702 6.39534e-18
8442.84848 6.44037e-18
8443.70995 6.48543e-18
8444.58143 6.53607e-18
8445.44289 6.58672e-18
8446.30435 6.64351e-18
8447.16581 6.70030e-18
8448.02727 6.76306e-18
8448.88874 6.82582e-18
8449.75020 6.89261e-18
8450.61166 6.95940e-18
8451.47312 7.02737e-18
8452.33458 7.09533e-18
8453.20606 7.16124e-18
8454.06752 7.22713e-18
8454.92899 7.28701e-18
8455.79045 7.34686e-18
8456.65191 7.40157e-18
8457.51337 7.45626e-18
8458.37483 7.51428e-18
8459.23630 7.57232e-18
8460.09776 7.63725e-18
8460.95922 7.70220e-18
8461.82068 7.76674e-18
8462.69216 7.83128e-18
8463.55362 7.89026e-18
8464.41508 7.94925e-18
8465.27655 8.00307e-18
8466.13801 8.05689e-18
8466.99947 8.10772e-18
8467.86093 8.15854e-18
8468.72240 8.21716e-18
8469.58386 8.27580e-18
8470.44532 8.35176e-18
8471.30678 8.42775e-18
8472.16824 8.51514e-18
8473.03972 8.60256e-18
8473.90118 8.69281e-18
8474.76265 8.78305e-18
8475.62411 8.86965e-18
8476.48557 8.95624e-18
8477.34703 9.03293e-18
8478.20849 9.10960e-18
8479.06996 9.18379e-18
8479.93142 9.25796e-18
8480.79288 9.34314e-18
8481.65434 9.42833e-18
8482.51580 9.52147e-18
8483.38728 9.61462e-18
8484.24875 9.70316e-18
8485.11021 9.79168e-18
8485.97167 9.87001e-18
8486.83313 9.94832e-18
8487.69459 1.00163e-17
8488.55605 1.00842e-17
8489.41752 1.01455e-17
8490.27898 1.02067e-17
8491.14044 1.02702e-17
8492.00190 1.03337e-17
8492.87338 1.04054e-17
8493.73484 1.04771e-17
8494.59631 1.05554e-17
8495.45777 1.06337e-17
8496.31923 1.07194e-17
8497.18069 1.08052e-17
8498.04215 1.09080e-17
8498.90362 1.10108e-17
8499.76508 1.11342e-17
8500.62654 1.12577e-17
8501.48800 1.13853e-17
8502.35948 1.15129e-17
8503.22094 1.16286e-17
8504.08240 1.17442e-17
8504.94387 1.18446e-17
8505.80533 1.19449e-17
8506.66679 1.20294e-17
8507.52825 1.21137e-17
8508.38972 1.21882e-17
8509.25118 1.22626e-17
8510.11264 1.23350e-17
8510.98412 1.24075e-17
8511.84558 1.24810e-17
8512.70704 1.25545e-17
8513.56850 1.26308e-17
8514.42997 1.27069e-17
8515.29143 1.27855e-17
8516.15289 1.28641e-17
8517.01435 1.29441e-17
8517.87581 1.30242e-17
8518.73728 1.31058e-17
8519.59874 1.31872e-17
8520.46020 1.32704e-17
8521.33168 1.33535e-17
8522.19314 1.34421e-17
8523.05460 1.35305e-17
8523.91607 1.36311e-17
8524.77753 1.37319e-17
8525.63899 1.38469e-17
8526.50045 1.39620e-17
8527.36191 1.40874e-17
8528.22337 1.42126e-17
8529.08484 1.43416e-17
8529.94630 1.44706e-17
8530.80776 1.45924e-17
8531.67924 1.47143e-17
8532.54070 1.48203e-17
8533.40216 1.49263e-17
8534.26363 1.50131e-17
8535.12509 1.50999e-17
8535.98655 1.51685e-17
8536.84801 1.52372e-17
8537.70947 1.53007e-17
8538.57094 1.53643e-17
8539.43240 1.54369e-17
8540.30388 1.55097e-17
8541.16534 1.56007e-17
8542.02680 1.56917e-17
8542.88826 1.58067e-17
8543.74972 1.59218e-17
8544.61119 1.60531e-17
8545.47265 1.61844e-17
8546.33411 1.63201e-17
8547.19557 1.64556e-17
8548.05703 1.65746e-17
8548.91850 1.66936e-17
8549.78998 1.67729e-17
8550.65144 1.68523e-17
8551.51290 1.68942e-17
8552.37436 1.69360e-17
8553.23582 1.69577e-17
8554.09729 1.69794e-17
8554.95875 1.70043e-17
8555.82021 1.70294e-17
8556.68167 1.70854e-17
8557.54313 1.71416e-17
8558.40460 1.72413e-17
8559.27607 1.73410e-17
8560.13754 1.74766e-17
8560.99900 1.76123e-17
8561.86046 1.77690e-17
8562.72192 1.79258e-17
8563.58338 1.80794e-17
8564.44485 1.82331e-17
8565.30631 1.83614e-17
8566.16777 1.84895e-17
8567.02923 1.85777e-17
8567.89070 1.86658e-17
8568.75216 1.87069e-17
8569.62364 1.87480e-17
8570.48510 1.87537e-17
8571.34656 1.87593e-17
8572.20802 1.87464e-17
8573.06948 1.87333e-17
8573.93095 1.87200e-17
8574.79241 1.87068e-17
8575.65387 1.87112e-17
8576.51533 1.87157e-17
8577.37679 1.87565e-17
8578.23826 1.87974e-17
8579.09972 1.88887e-17
8579.97120 1.89800e-17
8580.83266 1.91040e-17
8581.69412 1.92281e-17
8582.55558 1.93554e-17
8583.41705 1.94827e-17
8584.27851 1.95894e-17
8585.13997 1.96962e-17
8586.00143 1.97631e-17
8586.86289 1.98300e-17
8587.72436 1.98542e-17
8588.58582 1.98785e-17
8589.45730 1.98711e-17
8590.31876 1.98634e-17
8591.18022 1.98408e-17
8592.04168 1.98182e-17
8592.90314 1.98031e-17
8593.76461 1.97879e-17
8594.62607 1.97929e-17
8595.48753 1.97978e-17
8596.34899 1.98178e-17
8597.21045 1.98376e-17
8598.07192 1.98695e-17
8598.94340 1.99014e-17
8599.80486 1.99484e-17
8600.66632 1.99955e-17
8601.52778 2.00563e-17
8602.38924 2.01170e-17
8603.25071 2.01819e-17
8604.11217 2.02468e-17
8604.97363 2.03051e-17
8605.83509 2.03635e-17
8606.69655 2.04009e-17
8607.56803 2.04384e-17
8608.42949 2.04436e-17
8609.29096 2.04487e-17
8610.15242 2.04248e-17
8611.01388 2.04006e-17
8611.87534 2.03557e-17
8612.73680 2.03106e-17
8613.59827 2.02539e-17
8614.45973 2.01971e-17
8615.32119 2.01384e-17
8616.18265 2.00797e-17
8617.04411 2.00373e-17
8617.91559 1.99950e-17
8618.77706 1.99891e-17
8619.63852 1.99832e-17
8620.49998 2.00149e-17
8621.36144 2.00467e-17
8622.22290 2.01051e-17
8623.08437 2.01637e-17
8623.94583 2.02332e-17
8624.80729 2.03029e-17
8625.66875 2.03640e-17
8626.53021 2.04251e-17
8627.40169 2.04659e-17
8628.26315 2.05065e-17
8629.12462 2.05266e-17
8629.98608 2.05467e-17
8630.84754 2.05457e-17
8631.70900 2.05447e-17
8632.57046 2.05199e-17
8633.43193 2.04949e-17
8634.29339 2.04496e-17
8635.15485 2.04043e-17
8636.01631 2.03528e-17
8636.88779 2.03012e-17
8637.74925 2.02583e-17
8638.61072 2.02155e-17
8639.47218 2.01983e-17
8640.33364 2.01813e-17
8641.19510 2.02017e-17
8642.05656 2.02222e-17
8642.91803 2.02702e-17
8643.77949 2.03184e-17
8644.64095 2.03790e-17
8645.50241 2.04397e-17
8646.37389 2.04972e-17
8647.23535 2.05547e-17
8648.09681 2.05933e-17
8648.95828 2.06318e-17
8649.81974 2.06457e-17
8650.68120 2.06596e-17
8651.54266 2.06490e-17
8652.40412 2.06382e-17
8653.26559 2.06014e-17
8654.12705 2.05646e-17
8654.98851 2.05004e-17
8655.85999 2.04363e-17
8656.72145 2.03560e-17
8657.58291 2.02757e-17
8658.44438 2.01986e-17
8659.30584 2.01214e-17
8660.16730 2.00607e-17
8661.02876 2.00000e-17
8661.89022 1.99615e-17
8662.75168 1.99232e-17
8663.61315 1.99101e-17
8664.47461 1.98972e-17
8665.33607 1.99086e-17
8666.20755 1.99200e-17
8667.06901 1.99505e-17
8667.93047 1.99811e-17
8668.79194 2.00212e-17
8669.65340 2.00614e-17
8670.51486 2.00982e-17
8671.37632 2.01350e-17
8672.23778 2.01464e-17
8673.09925 2.01577e-17
8673.96071 2.01272e-17
8674.82217 2.00966e-17
8675.68363 2.00292e-17
8676.55511 1.99616e-17
8677.41657 1.98681e-17
8678.27803 1.97744e-17
8679.13950 1.96731e-17
8680.00096 1.95717e-17
8680.86242 1.94826e-17
8681.72388 1.93936e-17
8682.58535 1.93248e-17
8683.44681 1.92561e-17
8684.30827 1.92105e-17
8685.16973 1.91649e-17
8686.04121 1.91451e-17
8686.90267 1.91255e-17
8687.76413 1.91319e-17
8688.62560 1.91385e-17
8689.48706 1.91661e-17
8690.34852 1.91938e-17
8691.20998 1.92345e-17
8692.07144 1.92752e-17
8692.93291 1.93152e-17
8693.79437 1.93551e-17
8694.66585 1.93766e-17
8695.52731 1.93982e-17
8696.38877 1.93908e-17
8697.25023 1.93832e-17
8698.11170 1.93448e-17
8698.97316 1.93063e-17
8699.83462 1.92411e-17
8700.69608 1.91760e-17
8701.55754 1.90981e-17
8702.41900 1.90203e-17
8703.28047 1.89418e-17
8704.15195 1.88632e-17
8705.01341 1.87843e-17
8705.87487 1.87055e-17
8706.73633 1.86295e-17
8707.59779 1.85536e-17
8708.45926 1.84964e-17
8709.32072 1.84394e-17
8710.18218 1.84135e-17
8711.04364 1.83877e-17
8711.90510 1.83935e-17
8712.76657 1.83996e-17
8713.62803 1.84329e-17
8714.49951 1.84661e-17
8715.36097 1.85023e-17
8716.22243 1.85386e-17
8717.08389 1.85503e-17
8717.94535 1.85620e-17
8718.80682 1.85381e-17
8719.66828 1.85139e-17
8720.52974 1.84501e-17
8721.39120 1.83862e-17
8722.25267 1.82981e-17
8723.11413 1.82100e-17
8723.98561 1.81251e-17
8724.84707 1.80401e-17
8725.70853 1.79684e-17
8726.56999 1.78965e-17
8727.43145 1.78351e-17
8728.29292 1.77738e-17
8729.15438 1.77229e-17
8730.01584 1.76721e-17
8730.87730 1.76333e-17
8731.73876 1.75943e-17
8732.61024 1.75711e-17
8733.47170 1.75477e-17
8734.33317 1.75507e-17
8735.19463 1.75539e-17
8736.05609 1.75801e-17
8736.91755 1.76063e-17
8737.77902 1.76247e-17
8738.64048 1.76431e-17
8739.50194 1.76275e-17
8740.36340 1.76119e-17
8741.22486 1.75480e-17
8742.08633 1.74840e-17
8742.95780 1.73680e-17
8743.81927 1.72519e-17
8744.68073 1.71173e-17
8745.54219 1.69826e-17
8746.40365 1.68657e-17
8747.26511 1.67488e-17
8748.12658 1.66666e-17
8748.98804 1.65846e-17
8749.84950 1.65473e-17
8750.71096 1.65102e-17
8751.57242 1.65073e-17
8752.44390 1.65046e-17
8753.30537 1.65161e-17
8754.16683 1.65278e-17
8755.02829 1.65427e-17
8755.88975 1.65576e-17
8756.75121 1.65686e-17
8757.61268 1.65797e-17
8758.47414 1.65708e-17
8759.33560 1.65618e-17
8760.19706 1.65132e-17
8761.05852 1.64645e-17
8761.91999 1.63732e-17
8762.79146 1.62817e-17
8763.65293 1.61580e-17
8764.51439 1.60342e-17
8765.37585 1.58955e-17
8766.23731 1.57568e-17
8767.09877 1.56276e-17
8767.96024 1.54986e-17
8768.82170 1.53949e-17
8769.68316 1.52915e-17
8770.54462 1.52114e-17
8771.40608 1.51315e-17
8772.26755 1.50715e-17
8773.13903 1.50116e-17
8774.00049 1.49691e-17
8774.86195 1.49264e-17
8775.72341 1.48954e-17
8776.58487 1.48644e-17
8777.44633 1.48400e-17
8778.30780 1.48157e-17
8779.16926 1.47908e-17
8780.03072 1.47660e-17
8780.89218 1.47191e-17
8781.76366 1.46722e-17
8782.62512 1.45838e-17
8783.48659 1.44953e-17
8784.34805 1.43748e-17
8785.20951 1.42543e-17
8786.07097 1.41189e-17
8786.93243 1.39835e-17
8787.79390 1.38462e-17
8788.65536 1.37088e-17
8789.51682 1.35822e-17
8790.37828 1.34556e-17
8791.24976 1.33394e-17
8792.11122 1.32232e-17
8792.97268 1.31084e-17
8793.83415 1.29934e-17
8794.69561 1.28856e-17
8795.55707 1.27780e-17
8796.41853 1.26940e-17
8797.28000 1.26102e-17
8798.14146 1.25466e-17
8799.00292 1.24832e-17
8799.86438 1.24179e-17
8800.72584 1.23526e-17
8801.59732 1.22676e-17
8802.45878 1.21825e-17
8803.32025 1.20655e-17
8804.18171 1.19485e-17
8805.04317 1.17980e-17
8805.90463 1.16474e-17
8806.76609 1.14850e-17
8807.62756 1.13225e-17
8808.48902 1.11680e-17
8809.35048 1.10136e-17
8810.21194 1.08765e-17
8811.08342 1.07395e-17
8811.94488 1.06262e-17
8812.80635 1.05130e-17
8813.66781 1.04211e-17
8814.52927 1.03292e-17
8815.39073 1.02526e-17
8816.25219 1.01760e-17
8817.11365 1.01072e-17
8817.97512 1.00384e-17
8818.83658 9.96894e-18
8819.70806 9.89951e-18
8820.56952 9.81930e-18
8821.43098 9.73906e-18
8822.29244 9.63924e-18
8823.15391 9.53937e-18
8824.01537 9.41884e-18
8824.87683 9.29826e-18
8825.73829 9.16020e-18
8826.59975 9.02209e-18
8827.46122 8.87922e-18
8828.32268 8.73633e-18
8829.19416 8.60697e-18
8830.05562 8.47765e-18
8830.91708 8.37113e-18
8831.77854 8.26467e-18
8832.64000 8.18167e-18
8833.50147 8.09873e-18
8834.36293 8.03627e-18
8835.22439 7.97386e-18
8836.08585 7.92463e-18
8836.94732 7.87544e-18
8837.80878 7.83087e-18
8838.67024 7.78632e-18
8839.54172 7.73763e-18
8840.40318 7.68895e-18
8841.26464 7.62967e-18
8842.12610 7.57037e-18
8842.98757 7.49964e-18
8843.84903 7.42887e-18
8844.71049 7.34805e-18
8845.57195 7.26720e-18
8846.43341 7.18101e-18
8847.29488 7.09480e-18
8848.15634 7.00931e-18
8849.02782 6.92382e-18
8849.88928 6.84227e-18
8850.75074 6.76074e-18
8851.61220 6.68622e-18
8852.47367 6.61173e-18
8853.33513 6.56007e-18
8854.19659 6.50846e-18
8855.05805 6.49542e-18
8855.91951 6.48248e-18
8856.78097 6.49554e-18
8857.64244 6.50868e-18
8858.50390 6.52577e-18
8859.36536 6.54287e-18
8860.23684 6.54579e-18
8861.09830 6.54865e-18
8861.95976 6.52093e-18
8862.82123 6.49311e-18
8863.68269 6.44094e-18
8864.54415 6.38870e-18
8865.40561 6.33607e-18
8866.26707 6.28344e-18
8867.12854 6.24152e-18
8867.99000 6.19963e-18
8868.86148 6.16561e-18
8869.72294 6.13159e-18
8870.58440 6.10423e-18
8871.44586 6.07687e-18
8872.30732 6.05511e-18
8873.16879 6.03337e-18
8874.03025 6.01841e-18
8874.89171 6.00345e-18
8875.75317 6.00452e-18
8876.61463 6.00562e-18
8877.47610 6.02644e-18
8878.34758 6.04731e-18
8879.20904 6.07636e-18
8880.07050 6.10545e-18
8880.93196 6.13067e-18
8881.79342 6.15589e-18
8882.65489 6.16607e-18
8883.51635 6.17620e-18
8884.37781 6.16314e-18
8885.23927 6.15003e-18
8886.10073 6.12129e-18
8886.96220 6.09251e-18
8887.83367 6.05992e-18
8888.69514 6.02732e-18
8889.55660 6.00179e-18
8890.41806 5.97628e-18
8891.27952 5.96773e-18
8892.14099 5.95924e-18
8893.00245 5.97327e-18
8893.86391 5.98736e-18
8894.72537 6.02619e-18
8895.58683 6.06507e-18
8896.44830 6.11955e-18
8897.30976 6.17408e-18
8898.18124 6.22862e-18
8899.04270 6.28316e-18
8899.90416 6.32444e-18
8900.76562 6.36567e-18
8901.62708 6.38256e-18
8902.48855 6.39939e-18
8903.35001 6.39362e-18
8904.21147 6.38779e-18
8905.07293 6.37782e-18
8905.93439 6.36784e-18
8906.80587 6.36579e-18
8907.66734 6.36376e-18
8908.52880 6.36842e-18
8909.39026 6.37311e-18
8910.25172 6.38452e-18
8911.11318 6.39593e-18
8911.97465 6.41634e-18
8912.83611 6.43676e-18
8913.69757 6.46708e-18
8914.55903 6.49744e-18
8915.42049 6.53985e-18
8916.29197 6.58228e-18
8917.15343 6.63625e-18
8918.01490 6.69024e-18
8918.87636 6.74190e-18
8919.73782 6.79354e-18
8920.59928 6.82898e-18
8921.46074 6.86437e-18
8922.32221 6.87965e-18
8923.18367 6.89489e-18
8924.04513 6.88960e-18
8924.90659 6.88426e-18
8925.76805 6.87477e-18
8926.63953 6.86528e-18
8927.50100 6.87393e-18
8928.36246 6.88262e-18
8929.22392 6.91027e-18
8930.08538 6.93796e-18
8930.94684 6.97449e-18
8931.80831 7.01105e-18
8932.66977 7.04917e-18
8933.53123 7.08727e-18
8934.39269 7.11987e-18
8935.25415 7.15246e-18
8936.12563 7.18289e-18
8936.98709 7.21332e-18
8937.84856 7.25754e-18
8938.71002 7.30181e-18
8939.57148 7.36056e-18
8940.43294 7.41934e-18
8941.29440 7.47095e-18
8942.15587 7.52255e-18
8943.01733 7.55114e-18
8943.87879 7.57965e-18
8944.74025 7.57808e-18
8945.61173 7.57642e-18
8946.47319 7.54726e-18
8947.33466 7.51802e-18
8948.19612 7.49470e-18
8949.05758 7.47139e-18
8949.91904 7.48104e-18
8950.78050 7.49077e-18
8951.64197 7.52496e-18
8952.50343 7.55920e-18
8953.36489 7.60427e-18
8954.22635 7.64938e-18
8955.08781 7.66979e-18
8955.95929 7.69015e-18
8956.82075 7.65096e-18
8957.68222 7.61162e-18
8958.54368 7.55631e-18
8959.40514 7.50096e-18
8960.26660 7.49358e-18
8961.12806 7.48635e-18
8961.98953 7.53606e-18
8962.85099 7.58593e-18
8963.71245 7.68060e-18
8964.57391 7.77540e-18
8965.44539 7.88435e-18
8966.30685 7.99333e-18
8967.16832 8.07011e-18
8968.02978 8.14683e-18
8968.89124 8.19654e-18
8969.75270 8.24620e-18
8970.61416 8.31961e-18
8971.47563 8.39308e-18
8972.33709 8.50776e-18
8973.19855 8.62256e-18
8974.06001 8.75678e-18
8974.93149 8.89104e-18
8975.79295 9.01331e-18
8976.65441 9.13554e-18
8977.51588 9.19771e-18
8978.37734 9.25972e-18
8979.23880 9.22431e-18
8980.10026 9.18862e-18
8980.96172 9.03147e-18
8981.82319 8.87401e-18
8982.68465 8.61064e-18
8983.54611 8.34698e-18
8984.41759 8.11903e-18
8985.27905 7.89119e-18
8986.14051 7.82936e-18
8987.00198 7.76797e-18
8987.86344 7.91706e-18
8988.72490 8.06672e-18
8989.58636 8.43349e-18
8990.44782 8.80083e-18
8991.30928 9.21023e-18
8992.17075 9.61972e-18
8993.03221 9.86103e-18
8993.89367 1.01019e-17
8994.76515 1.01435e-17
8995.62661 1.01846e-17
8996.48807 1.00650e-17
8997.34954 9.94504e-18
8998.21100 9.75858e-18
8999.07246 9.57194e-18
8999.93392 9.44717e-18
9000.79538 9.32256e-18
9001.65685 9.31555e-18
9002.51831 9.30886e-18
9003.38979 9.41615e-18
9004.25125 9.52373e-18
9005.11271 9.70791e-18
9005.97417 9.89229e-18
9006.83563 1.00800e-17
9007.69710 1.02678e-17
9008.55856 1.04019e-17
9009.42002 1.05359e-17
9010.28148 1.05899e-17
9011.14295 1.06437e-17
9012.00441 1.06187e-17
9012.87589 1.05936e-17
9013.73735 1.05527e-17
9014.59881 1.05118e-17
9015.46027 1.05018e-17
9016.32173 1.04918e-17
9017.18320 1.04840e-17
9018.04466 1.04762e-17
9018.90612 1.04494e-17
9019.76758 1.04225e-17
9020.62904 1.04013e-17
9021.49051 1.03801e-17
9022.35197 1.03900e-17
9023.22345 1.03999e-17
9024.08491 1.04729e-17
9024.94637 1.05461e-17
9025.80783 1.07080e-17
9026.66930 1.08701e-17
9027.53076 1.10818e-17
9028.39222 1.12937e-17
9029.25368 1.14966e-17
9030.11514 1.16993e-17
9030.97660 1.18523e-17
9031.83807 1.20051e-17
9032.70955 1.20779e-17
9033.57101 1.21506e-17
9034.43247 1.21405e-17
9035.29393 1.21302e-17
9036.15539 1.20528e-17
9037.01686 1.19751e-17
9037.87832 1.18699e-17
9038.73978 1.17647e-17
9039.60124 1.16930e-17
9040.46270 1.16215e-17
9041.32417 1.15996e-17
9042.18563 1.15778e-17
9043.05711 1.15609e-17
9043.91857 1.15440e-17
9044.78003 1.15086e-17
9045.64149 1.14732e-17
9046.50295 1.14334e-17
9047.36442 1.13937e-17
9048.22588 1.13618e-17
9049.08734 1.13300e-17
9049.94880 1.13257e-17
9050.81027 1.13213e-17
9051.67173 1.13497e-17
9052.54321 1.13783e-17
9053.40467 1.13814e-17
9054.26613 1.13842e-17
9055.12759 1.13108e-17
9055.98905 1.12372e-17
9056.85052 1.11146e-17
9057.71198 1.09918e-17
9058.57344 1.08569e-17
9059.43490 1.07219e-17
9060.29636 1.05793e-17
9061.16784 1.04367e-17
9062.02931 1.02882e-17
9062.89077 1.01396e-17
9063.75223 9.97987e-18
9064.61369 9.82006e-18
9065.47515 9.63709e-18
9066.33662 9.45406e-18
9067.19808 9.29451e-18
9068.05954 9.13502e-18
9068.92100 9.07624e-18
9069.78246 9.01773e-18
9070.64393 9.04261e-18
9071.51540 9.06773e-18
9072.37687 9.08966e-18
9073.23833 9.11159e-18
9074.09979 9.09862e-18
9074.96125 9.08557e-18
9075.82271 9.06188e-18
9076.68418 9.03815e-18
9077.54564 9.01887e-18
9078.40710 8.99960e-18
9079.26856 8.99347e-18
9080.13002 8.98737e-18
9080.99149 8.99405e-18
9081.86297 9.00074e-18
9082.72443 8.99020e-18
9083.58589 8.97959e-18
9084.44735 8.93504e-18
9085.30881 8.89041e-18
9086.17028 8.84495e-18
9087.03174 8.79948e-18
9087.89320 8.77859e-18
9088.75466 8.75776e-18
9089.61612 8.72891e-18
9090.48760 8.70003e-18
9091.34906 8.63206e-18
9092.21053 8.56437e-18
9093.07199 8.48944e-18
9093.93345 8.41449e-18
9094.79491 8.37195e-18
9095.65637 8.32951e-18
9096.51784 8.30821e-18
9097.37930 8.28698e-18
9098.24076 8.26345e-18
9099.10222 8.23991e-18
9099.97370 8.22022e-18
9100.83516 8.20055e-18
9101.69663 8.19728e-18
9102.55809 8.19405e-18
9103.41955 8.23125e-18
9104.28101 8.26856e-18
9105.14247 8.38069e-18
9106.00393 8.49304e-18
9106.86540 8.63924e-18
9107.72686 8.78554e-18
9108.58832 8.86101e-18
9109.45980 8.93628e-18
9110.32126 8.89635e-18
9111.18272 8.85610e-18
9112.04419 8.72677e-18
9112.90565 8.59719e-18
9113.76711 8.43188e-18
9114.62857 8.26650e-18
9115.49003 8.17494e-18
9116.35150 8.08357e-18
9117.21296 8.12289e-18
9118.07442 8.16256e-18
9118.93588 8.24813e-18
9119.80736 8.33384e-18
9120.66882 8.38304e-18
9121.53028 8.43214e-18
9122.39175 8.39206e-18
9123.25321 8.35174e-18
9124.11467 8.19059e-18
9124.97613 8.02912e-18
9125.83760 7.82143e-18
9126.69906 7.61363e-18
9127.56052 7.45014e-18
9128.43200 7.28677e-18
9129.29346 7.21432e-18
9130.15492 7.14213e-18
9131.01638 7.19093e-18
9131.87785 7.24007e-18
9132.73931 7.38976e-18
9133.60077 7.53974e-18
9134.46223 7.74431e-18
9135.32369 7.94901e-18
9136.18516 8.16054e-18
9137.04662 8.37209e-18
9137.90808 8.54114e-18
9138.76954 8.71006e-18
9139.64102 8.80483e-18
9140.50248 8.89937e-18
9141.36395 8.90910e-18
9142.22541 8.91860e-18
9143.08687 8.82718e-18
9143.94833 8.73548e-18
9144.80979 8.51975e-18
9145.67125 8.30368e-18
9146.53272 7.99159e-18
9147.39418 7.67924e-18
9148.26566 7.36505e-18
9149.12712 7.05087e-18
9149.98858 6.82014e-18
9150.85004 6.58963e-18
9151.71151 6.51153e-18
9152.57297 6.43387e-18
9153.43443 6.53542e-18
9154.29589 6.63745e-18
9155.15735 6.82989e-18
9156.01882 7.02257e-18
9156.88028 7.21212e-18
9157.75176 7.40166e-18
9158.61322 7.54447e-18
9159.47468 7.68715e-18
9160.33614 7.74937e-18
9161.19760 7.81135e-18
9162.05907 7.79521e-18
9162.92053 7.77884e-18
9163.78199 7.70276e-18
9164.64345 7.62652e-18
9165.50492 7.48795e-18
9166.36638 7.34920e-18
9167.22784 7.14486e-18
9168.09932 6.94034e-18
9168.96078 6.72094e-18
9169.82224 6.50149e-18
9170.68370 6.33565e-18
9171.54517 6.16996e-18
9172.40663 6.09198e-18
9173.26809 6.01424e-18
9174.12955 6.03905e-18
9174.99101 6.06415e-18
9175.85248 6.14957e-18
9176.71394 6.23515e-18
9177.58542 6.28532e-18
9178.44688 6.33538e-18
9179.30834 6.32239e-18
9180.16980 6.30923e-18
9181.03127 6.29601e-18
9181.89273 6.28280e-18
9182.75419 6.30396e-18
9183.61565 6.32523e-18
9184.47711 6.36843e-18
9185.33857 6.41170e-18
9186.20004 6.46205e-18
9187.07152 6.51240e-18
9187.93298 6.53378e-18
9188.79444 6.55508e-18
9189.65590 6.52745e-18
9190.51736 6.49966e-18
9191.37883 6.47883e-18
9192.24029 6.45800e-18
9193.10175 6.49364e-18
9193.96321 6.52943e-18
9194.82467 6.59946e-18
9195.68614 6.66957e-18
9196.55762 6.74247e-18
9197.41908 6.81537e-18
9198.28054 6.86264e-18
9199.14200 6.90985e-18
9200.00346 6.90413e-18
9200.86492 6.89826e-18
9201.72639 6.85972e-18
9202.58785 6.82107e-18
9203.44931 6.78938e-18
9204.31077 6.75772e-18
9205.17224 6.73404e-18
9206.04371 6.71036e-18
9206.90518 6.67726e-18
9207.76664 6.64413e-18
9208.62810 6.60714e-18
9209.48956 6.57015e-18
9210.35102 6.54792e-18
9211.21249 6.52573e-18
9212.07395 6.53698e-18
9212.93541 6.54833e-18
9213.79687 6.61451e-18
9214.65833 6.68083e-18
9215.52981 6.79765e-18
9216.39127 6.91462e-18
9217.25274 7.03769e-18
9218.11420 7.16078e-18
9218.97566 7.26129e-18
9219.83712 7.36172e-18
9220.69859 7.44885e-18
9221.56005 7.53595e-18
9222.42151 7.61488e-18
9223.28297 7.69378e-18
9224.14443 7.75573e-18
9225.00590 7.81763e-18
9225.87737 7.85643e-18
9226.73884 7.89518e-18
9227.60030 7.90440e-18
9228.46176 7.91355e-18
9229.32322 7.89072e-18
9230.18468 7.86781e-18
9231.04615 7.83895e-18
9231.90761 7.81007e-18
9232.76907 7.80524e-18
9233.63053 7.80046e-18
9234.49199 7.81305e-18
9235.35346 7.82568e-18
9236.22494 7.83877e-18
9237.08640 7.85186e-18
9237.94786 7.87316e-18
9238.80932 7.89448e-18
9239.67078 7.93989e-18
9240.53225 7.98535e-18
9241.39371 8.06249e-18
9242.25517 8.13971e-18
9243.11663 8.25168e-18
9243.97809 8.36374e-18
9244.84957 8.50079e-18
9245.71103 8.63789e-18
9246.57250 8.77777e-18
9247.43396 8.91765e-18
9248.29542 9.04765e-18
9249.15688 9.17761e-18
9250.01834 9.30035e-18
9250.87981 9.42307e-18
9251.74127 9.53236e-18
9252.60273 9.64160e-18
9253.46419 9.71123e-18
9254.32565 9.78076e-18
9255.19713 9.80646e-18
9256.05860 9.83203e-18
9256.92006 9.86471e-18
9257.78152 9.89742e-18
9258.64298 9.97540e-18
9259.50444 1.00535e-17
9260.36591 1.01652e-17
9261.22737 1.02770e-17
9262.08883 1.04018e-17
9262.95029 1.05266e-17
9263.81175 1.06195e-17
9264.68323 1.07123e-17
9265.54469 1.07301e-17
9266.40616 1.07477e-17
9267.26762 1.06916e-17
9268.12908 1.06354e-17
9268.99054 1.05233e-17
9269.85200 1.04110e-17
9270.71347 1.02845e-17
9271.57493 1.01580e-17
9272.43639 1.00670e-17
9273.29785 9.97600e-18
9274.16933 9.95963e-18
9275.03079 9.94347e-18
9275.89226 1.00305e-17
9276.75372 1.01179e-17
9277.61518 1.02938e-17
9278.47664 1.04699e-17
9279.33810 1.06861e-17
9280.19957 1.09024e-17
9281.06103 1.11067e-17
9281.92249 1.13110e-17
9282.79397 1.14530e-17
9283.65543 1.15948e-17
9284.51689 1.16343e-17
9285.37835 1.16735e-17
9286.23982 1.15868e-17
9287.10128 1.14997e-17
9287.96274 1.12972e-17
9288.82420 1.10943e-17
9289.68566 1.08402e-17
9290.54713 1.05860e-17
9291.40859 1.03550e-17
9292.27005 1.01240e-17
9293.14153 1.00144e-17
9294.00299 9.90512e-18
9294.86445 9.98104e-18
9295.72592 1.00575e-17
9296.58738 1.02529e-17
9297.44884 1.04486e-17
9298.31030 1.06756e-17
9299.17176 1.09028e-17
9300.03323 1.10419e-17
9300.89469 1.11808e-17
9301.75615 1.11174e-17
9302.62763 1.10533e-17
9303.48909 1.08974e-17
9304.35055 1.07412e-17
9305.21201 1.06730e-17
9306.07348 1.06051e-17
9306.93494 1.05826e-17
9307.79640 1.05603e-17
9308.65786 1.04529e-17
9309.51932 1.03452e-17
9310.38079 1.01588e-17
9311.24225 9.97226e-18
9312.11373 9.78411e-18
9312.97519 9.59597e-18
9313.83665 9.48168e-18
9314.69811 9.36760e-18
9315.55958 9.41314e-18
9316.42104 9.45915e-18
9317.28250 9.64781e-18
9318.14396 9.83687e-18
9319.00542 1.00033e-17
9319.86688 1.01696e-17
9320.72835 1.02488e-17
9321.58981 1.03278e-17
9322.46129 1.04723e-17
9323.32275 1.06169e-17
9324.18421 1.08599e-17
9325.04567 1.11032e-17
9325.90714 1.11332e-17
9326.76860 1.11626e-17
9327.63006 1.07873e-17
9328.49152 1.04110e-17
9329.35298 9.93220e-18
9330.21445 9.45313e-18
9331.07591 9.16286e-18
9331.94739 8.87314e-18
9332.80885 8.71504e-18
9333.67031 8.55734e-18
9334.53177 8.44707e-18
9335.39323 8.33694e-18
9336.25470 8.27640e-18
9337.11616 8.21600e-18
9337.97762 8.19071e-18
9338.83908 8.16554e-18
9339.70055 8.43269e-18
9340.56201 8.70066e-18
9341.43349 9.60853e-18
9342.29495 1.05182e-17
9343.15641 1.16207e-17
9344.01787 1.27236e-17
9344.87933 1.31998e-17
9345.74080 1.36742e-17
9346.60226 1.32793e-17
9347.46372 1.28819e-17
9348.32518 1.17557e-17
9349.18664 1.06275e-17
9350.04811 9.28795e-18
9350.90957 7.94777e-18
9351.78105 7.34986e-18
9352.64251 6.75410e-18
9353.50397 7.21127e-18
9354.36543 7.67143e-18
9355.22689 8.49272e-18
9356.08836 9.31502e-18
9356.94982 9.91948e-18
9357.81128 1.05233e-17
9358.67274 1.05644e-17
9359.53420 1.06039e-17
9360.39567 9.93190e-18
9361.26715 9.25783e-18
9362.12861 8.41694e-18
9362.99007 7.57561e-18
9363.85153 7.07965e-18
9364.71299 6.58469e-18
9365.57446 6.46324e-18
9366.43592 6.34288e-18
9367.29738 6.54644e-18
9368.15884 6.75092e-18
9369.02030 7.02426e-18
9369.89178 7.29779e-18
9370.75324 7.34860e-18
9371.61471 7.39876e-18
9372.47617 7.24496e-18
9373.33763 7.09058e-18
9374.19909 6.84139e-18
9375.06056 6.59193e-18
9375.92202 6.41436e-18
9376.78348 6.23700e-18
9377.64494 6.33507e-18
9378.50640 6.43393e-18
9379.37788 6.73026e-18
9380.23934 7.02717e-18
9381.10081 7.25910e-18
9381.96227 7.49083e-18
9382.82373 7.57466e-18
9383.68519 7.65806e-18
9384.54665 7.66932e-18
9385.40812 7.68037e-18
9386.26958 7.63996e-18
9387.13104 7.59939e-18
9387.99250 7.47193e-18
9388.85396 7.34422e-18
9389.72544 7.12771e-18
9390.58691 6.91095e-18
9391.44837 6.63806e-18
9392.30983 6.36502e-18
9393.17129 6.08052e-18
9394.03275 5.79600e-18
9394.89422 5.57933e-18
9395.75568 5.36287e-18
9396.61714 5.26783e-18
9397.47860 5.17313e-18
9398.34006 5.15984e-18
9399.21154 5.14678e-18
9400.07300 5.16515e-18
9400.93447 5.18360e-18
9401.79593 5.18546e-18
9402.65739 5.18727e-18
9403.51885 5.13049e-18
9404.38031 5.07353e-18
9405.24178 5.00546e-18
9406.10324 4.93736e-18
9406.96470 4.92451e-18
9407.82616 4.91180e-18
9408.69764 4.95489e-18
9409.55910 4.99814e-18
9410.42057 5.07404e-18
9411.28203 5.15004e-18
9412.14349 5.22284e-18
9413.00495 5.29564e-18
9413.86641 5.32276e-18
9414.72788 5.34973e-18
9415.58934 5.30276e-18
9416.45080 5.25556e-18
9417.31226 5.12573e-18
9418.17372 4.99566e-18
9419.04520 4.79205e-18
9419.90666 4.58822e-18
9420.76813 4.32443e-18
9421.62959 4.06047e-18
9422.49105 3.83091e-18
9423.35251 3.60145e-18
9424.21397 3.63144e-18
9425.07544 3.66218e-18
9425.93690 4.02405e-18
9426.79836 4.38687e-18
9427.65982 4.84441e-18
9428.53130 5.30220e-18
9429.39276 5.62766e-18
9430.25423 5.95271e-18
9431.11569 5.93524e-18
9431.97715 5.91679e-18
9432.83861 5.44960e-18
9433.70007 4.98113e-18
9434.56153 4.43467e-18
9435.42300 3.88800e-18
9436.28446 3.64974e-18
9437.14592 3.41240e-18
9438.01740 3.54340e-18
9438.87886 3.67548e-18
9439.74032 4.15065e-18
9440.60179 4.62680e-18
9441.46325 5.20481e-18
9442.32471 5.78310e-18
9443.18617 6.15333e-18
9444.04763 6.52295e-18
9444.90910 6.59656e-18
9445.77056 6.66930e-18
9446.63202 6.46568e-18
9447.49348 6.26126e-18
9448.36496 5.89033e-18
9449.22642 5.51893e-18
9450.08788 5.15755e-18
9450.94935 4.79619e-18
9451.81081 4.55957e-18
9452.67227 4.32333e-18
9453.53373 4.25639e-18
9454.39520 4.18995e-18
9455.25666 4.30391e-18
9456.11812 4.41840e-18
9456.98960 4.68562e-18
9457.85106 4.95326e-18
9458.71252 5.29372e-18
9459.57398 5.63438e-18
9460.43545 5.88664e-18
9461.29691 6.13863e-18
9462.15837 6.20540e-18
9463.01983 6.27165e-18
9463.88129 6.22895e-18
9464.74276 6.18594e-18
9465.60422 6.11323e-18
9466.47570 6.04043e-18
9467.33716 5.98650e-18
9468.19862 5.93263e-18
9469.06008 5.93671e-18
9469.92155 5.94096e-18
9470.78301 5.94291e-18
9471.64447 5.94485e-18
9472.50593 5.88063e-18
9473.36739 5.81622e-18
9474.22885 5.72592e-18
9475.09032 5.63555e-18
9475.96180 5.57372e-18
9476.82326 5.51197e-18
9477.68472 5.59169e-18
9478.54618 5.67181e-18
9479.40764 6.02058e-18
9480.26911 6.37011e-18
9481.13057 6.84945e-18
9481.99203 7.32917e-18
9482.85349 7.67127e-18
9483.71495 8.01296e-18
9484.57642 8.07664e-18
9485.43788 8.13950e-18
9486.30936 7.87533e-18
9487.17082 7.61021e-18
9488.03228 7.12576e-18
9488.89374 6.64068e-18
9489.75520 6.21926e-18
9490.61667 5.79803e-18
9491.47813 5.62078e-18
9492.33959 5.44425e-18
9493.20105 5.50786e-18
9494.06252 5.57217e-18
9494.92398 5.87574e-18
9495.79546 6.17999e-18
9496.65692 6.76218e-18
9497.51838 7.34517e-18
9498.37984 8.14460e-18
9499.24130 8.94466e-18
9500.10277 9.64852e-18
9500.96423 1.03521e-17
9501.82569 1.06898e-17
9502.68715 1.10264e-17
9503.54861 1.09552e-17
9504.41008 1.08828e-17
9505.28155 1.04302e-17
9506.14302 9.97659e-18
9507.00448 9.37781e-18
9507.86594 8.77861e-18
9508.72740 8.31317e-18
9509.58887 7.84813e-18
9510.45033 7.54343e-18
9511.31179 7.23921e-18
9512.17325 7.04001e-18
9513.03471 6.84111e-18
9513.89617 6.80180e-18
9514.75764 6.76295e-18
9515.62912 6.96138e-18
9516.49058 7.16051e-18
9517.35204 7.57398e-18
9518.21350 7.98808e-18
9519.07496 8.54024e-18
9519.93643 9.09282e-18
9520.79789 9.64927e-18
9521.65935 1.02057e-17
9522.52081 1.05813e-17
9523.38227 1.09564e-17
9524.24374 1.10888e-17
9525.11522 1.12204e-17
9525.97668 1.12069e-17
9526.83814 1.11929e-17
9527.69960 1.11231e-17
9528.56106 1.10532e-17
9529.42252 1.09980e-17
9530.28399 1.09430e-17
9531.14545 1.09422e-17
9532.00691 1.09416e-17
9532.86837 1.09323e-17
9533.72984 1.09229e-17
9534.60131 1.08519e-17
9535.46278 1.07807e-17
9536.32424 1.06318e-17
9537.18570 1.04827e-17
9538.04716 1.02646e-17
9538.90862 1.00463e-17
9539.77009 9.95798e-18
9540.63155 9.87004e-18
9541.49301 1.00994e-17
9542.35447 1.03296e-17
9543.21593 1.07420e-17
9544.08741 1.11550e-17
9544.94888 1.15501e-17
9545.81034 1.19451e-17
9546.67180 1.21275e-17
9547.53326 1.23092e-17
9548.39472 1.20784e-17
9549.25619 1.18464e-17
9550.11765 1.14349e-17
9550.97911 1.10229e-17
9551.84057 1.08987e-17
9552.70203 1.07754e-17
9553.57351 1.09704e-17
9554.43497 1.11664e-17
9555.29644 1.14040e-17
9556.15790 1.16416e-17
9557.01936 1.17352e-17
9557.88082 1.18284e-17
9558.74228 1.16539e-17
9559.60375 1.14787e-17
9560.46521 1.11132e-17
9561.32667 1.07471e-17
9562.18813 1.06131e-17
9563.05961 1.04798e-17
9563.92107 1.07953e-17
9564.78254 1.11121e-17
9565.64400 1.16527e-17
9566.50546 1.21940e-17
9567.36692 1.27183e-17
9568.22838 1.32424e-17
9569.08985 1.34621e-17
9569.95131 1.36809e-17
9570.81277 1.33977e-17
9571.67423 1.31130e-17
9572.53569 1.25764e-17
9573.40717 1.20392e-17
9574.26863 1.15459e-17
9575.13010 1.10528e-17
9575.99156 1.08011e-17
9576.85302 1.05501e-17
9577.71448 1.06964e-17
9578.57594 1.08440e-17
9579.43741 1.11424e-17
9580.29887 1.14411e-17
9581.16033 1.15320e-17
9582.02179 1.16224e-17
9582.89327 1.14583e-17
9583.75473 1.12935e-17
9584.61620 1.09449e-17
9585.47766 1.05958e-17
9586.33912 1.03141e-17
9587.20058 1.00326e-17
9588.06204 1.02006e-17
9588.92351 1.03698e-17
9589.78497 1.09395e-17
9590.64643 1.15103e-17
9591.51791 1.20426e-17
9592.37937 1.25749e-17
9593.24083 1.28330e-17
9594.10229 1.30905e-17
9594.96376 1.30973e-17
9595.82522 1.31034e-17
9596.68668 1.29064e-17
9597.54814 1.27089e-17
9598.40960 1.24192e-17
9599.27107 1.21294e-17
9600.13253 1.18697e-17
9600.99399 1.16099e-17
9601.86547 1.14770e-17
9602.72693 1.13444e-17
9603.58839 1.14016e-17
9604.44986 1.14594e-17
9605.31132 1.16961e-17
9606.17278 1.19334e-17
9607.03424 1.22964e-17
9607.89570 1.26596e-17
9608.75717 1.29179e-17
9609.61863 1.31760e-17
9610.48009 1.31073e-17
9611.35157 1.30377e-17
9612.21303 1.27362e-17
9613.07449 1.24343e-17
9613.93595 1.20781e-17
9614.79742 1.17216e-17
9615.65888 1.14343e-17
9616.52034 1.11472e-17
9617.38180 1.10319e-17
9618.24326 1.09171e-17
9619.10473 1.10003e-17
9619.96619 1.10841e-17
9620.82765 1.13372e-17
9621.69913 1.15909e-17
9622.56059 1.19225e-17
9623.42205 1.22545e-17
9624.28352 1.25377e-17
9625.14498 1.28208e-17
9626.00644 1.29345e-17
9626.86790 1.30477e-17
9627.72936 1.28784e-17
9628.59083 1.27083e-17
9629.45229 1.22894e-17
9630.31375 1.18697e-17
9631.17521 1.14490e-17
9632.04669 1.10283e-17
9632.90815 1.07983e-17
9633.76961 1.05689e-17
9634.63108 1.06046e-17
9635.49254 1.06411e-17
9636.35400 1.09345e-17
9637.21546 1.12287e-17
9638.07692 1.15015e-17
9638.93839 1.17743e-17
9639.79985 1.17964e-17
9640.67133 1.18177e-17
9641.53279 1.17328e-17
9642.39425 1.16476e-17
9643.25571 1.16234e-17
9644.11718 1.15994e-17
9644.97864 1.16766e-17
9645.84010 1.17542e-17
9646.70156 1.19491e-17
9647.56302 1.21444e-17
9648.42448 1.23269e-17
9649.28595 1.25092e-17
9650.15743 1.25097e-17
9651.01889 1.25095e-17
9651.88035 1.23272e-17
9652.74181 1.21444e-17
9653.60327 1.18555e-17
9654.46474 1.15661e-17
9655.32620 1.12751e-17
9656.18766 1.09839e-17
9657.04912 1.08113e-17
9657.91058 1.06390e-17
9658.77205 1.06521e-17
9659.64352 1.06658e-17
9660.50499 1.08812e-17
9661.36645 1.10972e-17
9662.22791 1.14466e-17
9663.08937 1.17965e-17
9663.95083 1.21020e-17
9664.81230 1.24074e-17
9665.67376 1.25658e-17
9666.53522 1.27239e-17
9667.39668 1.27899e-17
9668.25815 1.28556e-17
9669.11961 1.28604e-17
9669.99109 1.28649e-17
9670.85255 1.27557e-17
9671.71401 1.26460e-17
9672.57547 1.24084e-17
9673.43693 1.21703e-17
9674.29840 1.19014e-17
9675.15986 1.16323e-17
9676.02132 1.14290e-17
9676.88278 1.12260e-17
9677.74424 1.11560e-17
9678.61572 1.10864e-17
9679.47718 1.11946e-17
9680.33865 1.13032e-17
9681.20011 1.15004e-17
9682.06157 1.16977e-17
9682.92303 1.18598e-17
9683.78449 1.20217e-17
9684.64596 1.21119e-17
9685.50742 1.22018e-17
9686.36888 1.22152e-17
9687.23034 1.22283e-17
9688.10182 1.21776e-17
9688.96328 1.21267e-17
9689.82475 1.20434e-17
9690.68621 1.19599e-17
9691.54767 1.18496e-17
9692.40913 1.17391e-17
9693.27059 1.15852e-17
9694.13206 1.14311e-17
9694.99352 1.12562e-17
9695.85498 1.10813e-17
9696.71644 1.09476e-17
9697.57790 1.08141e-17
9698.44938 1.07525e-17
9699.31084 1.06912e-17
9700.17231 1.06900e-17
9701.03377 1.06890e-17
9701.89523 1.07227e-17
9702.75669 1.07566e-17
9703.61816 1.07688e-17
9704.47962 1.07809e-17
9705.34108 1.07351e-17
9706.20254 1.06891e-17
9707.06400 1.06205e-17
9707.93548 1.05517e-17
9708.79694 1.04967e-17
9709.65841 1.04418e-17
9710.51987 1.04203e-17
9711.38133 1.03989e-17
9712.24279 1.04240e-17
9713.10425 1.04492e-17
9713.96572 1.04861e-17
9714.82718 1.05231e-17
9715.68864 1.05302e-17
9716.55010 1.05372e-17
9717.41156 1.05026e-17
9718.28304 1.04678e-17
9719.14451 1.03866e-17
9720.00597 1.03053e-17
9720.86743 1.02210e-17
9721.72889 1.01367e-17
9722.59035 1.01161e-17
9723.45182 1.00956e-17
9724.31328 1.01094e-17
9725.17474 1.01232e-17
9726.03620 1.00841e-17
9726.89766 1.00448e-17
9727.76914 9.92209e-18
9728.63060 9.79910e-18
9729.49207 9.60889e-18
9730.35353 9.41849e-18
9731.21499 9.20140e-18
9732.07645 8.98424e-18
9732.93791 8.81491e-18
9733.79938 8.64574e-18
9734.66084 8.57066e-18
9735.52230 8.49586e-18
9736.38376 8.50599e-18
9737.25524 8.51637e-18
9738.11670 8.59078e-18
9738.97817 8.66539e-18
9739.83963 8.76289e-18
9740.70109 8.86048e-18
9741.56255 8.94037e-18
9742.42401 9.02021e-18
9743.28548 9.06090e-18
9744.14694 9.10148e-18
9745.00840 9.09018e-18
9745.86986 9.07872e-18
9746.74134 9.03278e-18
9747.60280 8.98675e-18
9748.46426 8.92999e-18
9749.32573 8.87320e-18
9750.18719 8.81127e-18
9751.04865 8.74933e-18
9751.91011 8.68523e-18
9752.77157 8.62112e-18
9753.63304 8.55272e-18
9754.49450 8.48432e-18
9755.35596 8.40721e-18
9756.22744 8.33006e-18
9757.08890 8.26028e-18
9757.95036 8.19051e-18
9758.81183 8.15176e-18
9759.67329 8.11311e-18
9760.53475 8.12373e-18
9761.39621 8.13451e-18
9762.25767 8.21024e-18
9763.11913 8.28618e-18
9763.98060 8.40318e-18
9764.84206 8.52029e-18
9765.71354 8.61140e-18
9766.57500 8.70244e-18
9767.43646 8.73474e-18
9768.29792 8.76686e-18
9769.15939 8.76193e-18
9770.02085 8.75689e-18
9770.88231 8.73312e-18
9771.74377 8.70931e-18
9772.60523 8.67590e-18
9773.46670 8.64247e-18
9774.32816 8.61109e-18
9775.19964 8.57969e-18
9776.06110 8.55954e-18
9776.92256 8.53942e-18
9777.78402 8.53665e-18
9778.64548 8.53394e-18
9779.50695 8.55642e-18
9780.36841 8.57897e-18
9781.22987 8.62885e-18
9782.09133 8.67883e-18
9782.95280 8.71294e-18
9783.81426 8.74700e-18
9784.68574 8.71841e-18
9785.54720 8.68961e-18
9786.40866 8.62105e-18
9787.27012 8.55237e-18
9788.13158 8.48661e-18
9788.99305 8.42086e-18
9789.85451 8.37297e-18
9790.71597 8.32512e-18
9791.57743 8.30136e-18
9792.43889 8.27765e-18
9793.30036 8.26198e-18
9794.16182 8.24632e-18
9795.03330 8.20502e-18
9795.89476 8.16364e-18
9796.75622 8.10656e-18
9797.61768 8.04943e-18
9798.47915 8.02582e-18
9799.34061 8.00231e-18
9800.20207 8.02862e-18
9801.06353 8.05509e-18
9801.92499 8.10799e-18
9802.78645 8.16097e-18
9803.64792 8.21688e-18
9804.51940 8.27279e-18
9805.38086 8.30408e-18
9806.24232 8.33528e-18
9807.10378 8.32853e-18
9807.96524 8.32164e-18
9808.82671 8.30337e-18
9809.68817 8.28505e-18
9810.54963 8.28051e-18
9811.41109 8.27600e-18
9812.27255 8.30115e-18
9813.13402 8.32639e-18
9813.99548 8.38864e-18
9814.86696 8.45102e-18
9815.72842 8.50607e-18
9816.58988 8.56110e-18
9817.45134 8.56191e-18
9818.31280 8.56255e-18
9819.17427 8.51535e-18
9820.03573 8.46802e-18
9820.89719 8.39264e-18
9821.75865 8.31717e-18
9822.62012 8.24264e-18
9823.48158 8.16813e-18
9824.35306 8.12832e-18
9825.21452 8.08862e-18
9826.07598 8.07859e-18
9826.93744 8.06867e-18
9827.79890 8.06102e-18
9828.66037 8.05339e-18
9829.52183 8.04135e-18
9830.38329 8.02930e-18
9831.24475 8.02099e-18
9832.10621 8.01268e-18
9832.97769 8.00623e-18
9833.83915 7.99977e-18
9834.70062 7.98451e-18
9835.56208 7.96923e-18
9836.42354 7.94027e-18
9837.28500 7.91127e-18
9838.14647 7.87148e-18
9839.00793 7.83166e-18
9839.86939 7.78429e-18
9840.73085 7.73689e-18
9841.59231 7.68361e-18
9842.45377 7.63030e-18
9843.32525 7.57719e-18
9844.18672 7.52407e-18
9845.04818 7.48995e-18
9845.90964 7.45588e-18
9846.77110 7.45557e-18
9847.63256 7.45536e-18
9848.49403 7.48428e-18
9849.35549 7.51328e-18
9850.21695 7.56300e-18
9851.07841 7.61280e-18
9851.93987 7.67527e-18
9852.81135 7.73779e-18
9853.67282 7.80352e-18
9854.53428 7.86925e-18
9855.39574 7.93222e-18
9856.25720 7.99517e-18
9857.11866 8.05095e-18
9857.98013 8.10670e-18
9858.84159 8.14336e-18
9859.70305 8.17995e-18
9860.56451 8.18381e-18
9861.42597 8.18759e-18
9862.29745 8.15681e-18
9863.15891 8.12594e-18
9864.02038 8.06639e-18
9864.88184 8.00674e-18
9865.74330 7.92928e-18
9866.60476 7.85175e-18
9867.46622 7.77192e-18
9868.32769 7.69209e-18
9869.18915 7.61879e-18
9870.05061 7.54552e-18
9870.92209 7.47774e-18
9871.78355 7.40998e-18
9872.64501 7.34887e-18
9873.50648 7.28778e-18
9874.36794 7.23859e-18
9875.22940 7.18943e-18
9876.09086 7.15628e-18
9876.95232 7.12319e-18
9877.81379 7.10991e-18
9878.67525 7.09670e-18
9879.53671 7.10502e-18
9880.39817 7.11341e-18
9881.26965 7.14070e-18
9882.13111 7.16804e-18
9882.99257 7.20939e-18
9883.85404 7.25076e-18
9884.71550 7.29723e-18
9885.57696 7.34370e-18
9886.43842 7.38560e-18
9887.29988 7.42748e-18
9888.16135 7.45575e-18
9889.02281 7.48398e-18
9889.88427 7.49104e-18
9890.74573 7.49802e-18
9891.61721 7.48367e-18
9892.47867 7.46926e-18
9893.34014 7.43733e-18
9894.20160 7.40535e-18
9895.06306 7.35996e-18
9895.92452 7.31452e-18
9896.78598 7.25998e-18
9897.64745 7.20542e-18
9898.50891 7.14883e-18
9899.37037 7.09223e-18
9900.23183 7.04296e-18
9901.09329 6.99370e-18
9901.96477 6.95330e-18
9902.82623 6.91291e-18
9903.68770 6.87341e-18
9904.54916 6.83391e-18
9905.41062 6.79714e-18
9906.27208 6.76038e-18
9907.13354 6.74369e-18
9907.99501 6.72705e-18
9908.85647 6.73865e-18
9909.71793 6.75035e-18
9910.57939 6.78238e-18
9911.45087 6.81447e-18
9912.31233 6.85403e-18
9913.17380 6.89361e-18
9914.03526 6.91350e-18
9914.89672 6.93333e-18
9915.75818 6.91193e-18
9916.61964 6.89042e-18
9917.48111 6.83529e-18
9918.34257 6.78007e-18
9919.20403 6.70442e-18
9920.07551 6.62872e-18
9920.93697 6.54757e-18
9921.79843 6.46640e-18
9922.65989 6.39500e-18
9923.52136 6.32363e-18
9924.38282 6.26868e-18
9925.24428 6.21378e-18
9926.10574 6.17789e-18
9926.96720 6.14207e-18
9927.82867 6.11532e-18
9928.69013 6.08858e-18
9929.56161 6.05517e-18
9930.42307 6.02173e-18
9931.28453 5.97650e-18
9932.14599 5.93123e-18
9933.00746 5.87645e-18
9933.86892 5.82163e-18
9934.73038 5.76193e-18
9935.59184 5.70223e-18
9936.45330 5.64434e-18
9937.31477 5.58645e-18
9938.17623 5.53924e-18
9939.03769 5.49207e-18
9939.90917 5.46669e-18
9940.77063 5.44138e-18
9941.63209 5.44090e-18
9942.49355 5.44049e-18
9943.35502 5.45335e-18
9944.21648 5.46625e-18
9945.07794 5.48250e-18
9945.93940 5.49875e-18
9946.80086 5.51586e-18
9947.66233 5.53298e-18
9948.52379 5.54806e-18
9949.39527 5.56314e-18
9950.25673 5.57066e-18
9951.11819 5.57816e-18
9951.97965 5.57455e-18
9952.84112 5.57093e-18
9953.70258 5.56336e-18
9954.56404 5.55578e-18
9955.42550 5.55211e-18
9956.28696 5.54846e-18
9957.14843 5.54343e-18
9958.00989 5.53839e-18
9958.88137 5.52475e-18
9959.74283 5.51106e-18
9960.60429 5.48510e-18
9961.46575 5.45909e-18
9962.32721 5.41840e-18
9963.18868 5.37767e-18
9964.05014 5.33443e-18
9964.91160 5.29120e-18
9965.77306 5.26578e-18
9966.63452 5.24042e-18
9967.49599 5.23757e-18
9968.36747 5.23479e-18
9969.22893 5.24668e-18
9970.09039 5.25861e-18
9970.95185 5.28401e-18
9971.81331 5.30945e-18
9972.67477 5.35420e-18
9973.53624 5.39900e-18
9974.39770 5.46066e-18
9975.25916 5.52237e-18
9976.12062 5.58775e-18
9976.98208 5.65312e-18
9977.85356 5.71171e-18
9978.71503 5.77028e-18
9979.57649 5.81706e-18
9980.43795 5.86380e-18
9981.29941 5.89700e-18
9982.16087 5.93017e-18
9983.02234 5.95686e-18
9983.88380 5.98353e-18
9984.74526 6.01083e-18
9985.60672 6.03814e-18
9986.46818 6.06959e-18
9987.32965 6.10104e-18
9988.20112 6.13848e-18
9989.06259 6.17593e-18
9989.92405 6.20616e-18
9990.78551 6.23637e-18
9991.64697 6.24444e-18
9992.50843 6.25245e-18
9993.36990 6.24959e-18
9994.23136 6.24670e-18
9995.09282 6.25209e-18
9995.95428 6.25751e-18
9996.81574 6.26788e-18
9997.67721 6.27827e-18
9998.54869 6.28140e-18
9999.41015 6.28449e-18
