# wavelength flux
3743.84736 -2.00976e-17
3745.31957 -1.65516e-17
3746.79177 -1.30053e-17
3748.26398 -9.45946e-18
3749.72617 -5.91395e-18
3751.19837 -2.36880e-18
3752.67058 1.17599e-18
3754.14278 4.72043e-18
3755.61499 -3.51275e-18
3757.07717 -9.05280e-19
3758.54938 6.24335e-18
3760.02158 1.52459e-17
3761.49379 9.80055e-19
3762.95598 -3.07615e-18
3764.42819 3.91403e-18
3765.90039 -3.51793e-19
3767.37260 5.17213e-18
3768.83479 1.12380e-17
3770.30699 9.10859e-18
3771.77920 6.00524e-18
3773.25140 7.20431e-18
3774.72361 -5.56537e-18
3776.18580 -5.16008e-18
3777.65800 -5.44803e-19
3779.13020 4.48410e-18
3780.60241 1.80627e-19
3782.06460 6.31615e-19
3783.53681 1.00777e-17
3785.00901 8.75868e-18
3786.48122 1.01875e-17
3787.95342 1.41149e-17
3789.41561 -3.76139e-18
3790.88782 1.68854e-18
3792.36002 1.02410e-17
3793.83223 1.69320e-17
3795.29442 1.29393e-17
3796.76662 6.65054e-18
3798.23883 4.32829e-18
3799.71103 3.58429e-18
3801.18323 7.72672e-18
3802.64543 2.06019e-18
3804.11763 3.18988e-18
3805.58984 1.15094e-17
3807.06204 6.38504e-18
3808.52423 1.11351e-17
3809.99644 5.96838e-18
3811.46864 1.24016e-18
3812.94085 -7.98296e-19
3814.40304 6.16290e-18
3815.87524 -2.55493e-18
3817.34745 6.57995e-18
3818.81965 8.31415e-18
3820.29186 8.87061e-18
3821.75405 8.12713e-18
3823.22625 1.41908e-17
3824.69846 7.97844e-18
3826.17066 1.15167e-18
3827.63285 9.33487e-18
3829.10505 9.71776e-18
3830.57726 1.29384e-18
3832.04947 2.15880e-18
3833.52167 2.54507e-18
3834.98386 7.01201e-18
3836.45607 3.86131e-18
3837.92827 8.36545e-18
3839.40048 9.64978e-18
3840.86267 6.19333e-18
3842.33487 -1.68481e-18
3843.80708 4.35567e-18
3845.27928 1.09395e-17
3846.75148 1.08298e-17
3848.21367 4.12699e-18
3849.68588 3.17459e-18
3851.15809 5.09282e-18
3852.63029 2.18053e-18
3854.09248 7.88823e-18
3855.56469 3.44453e-18
3857.03689 6.14331e-18
3858.50910 1.33420e-17
3859.97129 1.02097e-17
3861.44349 1.33141e-17
3862.91570 1.12682e-17
3864.38790 6.63794e-18
3865.86011 5.87326e-18
3867.32230 9.38949e-18
3868.79450 5.47683e-18
3870.26671 1.42547e-18
3871.73891 5.70567e-18
3873.20110 9.82368e-18
3874.67331 1.25567e-17
3876.14551 1.50569e-17
3877.61772 8.17551e-18
3879.08992 9.47918e-18
3880.55211 1.21487e-17
3882.02432 9.40213e-18
3883.49652 8.43610e-18
3884.96873 8.54434e-18
3886.43092 1.50956e-17
3887.90312 1.14532e-17
3889.37533 8.00634e-18
3890.84753 5.89013e-18
3892.31974 4.78798e-18
3893.78193 8.77792e-18
3895.25413 1.11858e-17
3896.72634 9.24711e-18
3898.19854 1.15781e-17
3899.66073 9.26091e-18
3901.13294 9.96080e-18
3902.60514 3.77080e-18
3904.07735 1.15180e-17
3905.53954 1.04266e-17
3907.01174 1.08950e-17
3908.48395 1.09814e-17
3909.95615 1.05432e-17
3911.42836 1.12549e-17
3912.89055 1.07016e-17
3914.36275 9.38977e-18
3915.83495 1.19209e-17
3917.30716 1.25248e-17
3918.76935 1.07762e-17
3920.24156 9.97194e-18
3921.71376 1.03385e-17
3923.18597 9.22712e-18
3924.65817 5.97609e-18
3926.12036 5.27790e-18
3927.59257 9.04051e-18
3929.06477 8.96556e-18
3930.53698 5.92702e-18
3931.99917 7.31163e-18
3933.47137 5.38005e-18
3934.94358 2.35352e-18
3936.41578 3.11834e-18
3937.88798 7.48504e-18
3939.35018 8.48636e-18
3940.82238 5.26771e-18
3942.29459 4.33421e-18
3943.76679 9.16592e-18
3945.22898 1.37919e-17
3946.70119 1.12231e-17
3948.17339 9.13582e-18
3949.64560 8.75581e-18
3951.10779 9.18073e-18
3952.57999 7.42883e-18
3954.05220 1.09565e-17
3955.52440 7.52030e-18
3956.99661 3.53940e-18
3958.45880 9.03443e-18
3959.93100 9.87262e-18
3961.40321 1.08586e-17
3962.87541 8.26203e-18
3964.33760 8.68419e-18
3965.80981 8.28299e-18
3967.28201 1.01134e-17
3968.75422 1.02753e-17
3970.22642 6.48822e-18
3971.68861 7.83391e-18
3973.16082 7.56293e-18
3974.63302 6.71121e-18
3976.10523 6.78498e-18
3977.56742 2.35401e-18
3979.03962 2.63834e-18
3980.51183 6.33166e-18
3981.98403 5.36882e-18
3983.45624 2.93337e-18
3984.91842 6.82059e-18
3986.39063 8.00150e-18
3987.86283 7.02543e-18
3989.33504 7.22912e-18
3990.79723 9.16450e-18
3992.26944 1.28168e-17
3993.74164 9.54172e-18
3995.21385 8.65181e-18
3996.67604 7.62577e-18
3998.14824 5.50281e-18
3999.62045 7.06854e-18
4001.09265 9.55397e-18
4002.56486 1.08426e-17
4004.02705 9.20914e-18
4005.49925 6.55939e-18
4006.97145 7.49379e-18
4008.44366 8.62173e-18
4009.90585 1.23574e-17
4011.37806 1.34252e-17
4012.85026 1.18279e-17
4014.32247 9.69369e-18
4015.79467 1.10944e-17
4017.25686 1.16838e-17
4018.72907 6.89456e-18
4020.20127 6.96798e-18
4021.67348 8.51557e-18
4023.13567 7.71574e-18
4024.60787 5.41145e-18
4026.08008 6.52012e-18
4027.55228 9.27109e-18
4029.01447 8.64467e-18
4030.48668 9.19077e-18
4031.95888 8.43229e-18
4033.43109 9.36477e-18
4034.90329 8.12798e-18
4036.36548 6.90435e-18
4037.83769 9.72921e-18
4039.30989 1.26657e-17
4040.78210 1.33740e-17
4042.24429 1.06527e-17
4043.71649 6.83666e-18
4045.18870 7.85572e-18
4046.66090 9.08971e-18
4048.13311 6.47031e-18
4049.59530 7.55905e-18
4051.06750 1.03112e-17
4052.53971 9.96302e-18
4054.01191 1.07933e-17
4055.47410 1.07352e-17
4056.94630 9.87100e-18
4058.41851 1.18601e-17
4059.89072 8.07424e-18
4061.36292 8.14534e-18
4062.82511 1.12944e-17
4064.29732 8.27835e-18
4065.76952 3.79232e-18
4067.24173 4.61447e-18
4068.70392 1.10886e-17
4070.17612 1.17906e-17
4071.64833 1.12476e-17
4073.12053 1.05089e-17
4074.58272 9.69641e-18
4076.05492 1.03400e-17
4077.52713 9.01459e-18
4078.99933 7.91512e-18
4080.47154 6.69907e-18
4081.93373 7.66815e-18
4083.40594 8.84122e-18
4084.87814 6.18053e-18
4086.35035 9.26147e-18
4087.81254 1.04196e-17
4089.28474 8.67539e-18
4090.75695 1.07569e-17
4092.22915 8.30638e-18
4093.70136 8.09881e-18
4095.16355 9.55496e-18
4096.63575 5.93131e-18
4098.10796 5.12191e-18
4099.58016 6.72088e-18
4101.04235 7.56270e-18
4102.51455 9.69781e-18
4103.98676 9.83946e-18
4105.45897 8.11070e-18
4106.92116 9.57757e-18
4108.39336 7.69517e-18
4109.86557 4.85561e-18
4111.33777 7.40937e-18
4112.80998 7.84849e-18
4114.27217 7.06121e-18
4115.74437 6.60147e-18
4117.21658 6.67308e-18
4118.68878 8.32550e-18
4120.15097 7.91365e-18
4121.62317 6.81781e-18
4123.09538 6.98839e-18
4124.56759 6.81391e-18
4126.03979 6.52231e-18
4127.50198 7.61139e-18
4128.97419 7.50845e-18
4130.44639 7.72913e-18
4131.91860 6.52254e-18
4133.38079 9.59743e-18
4134.85299 1.01623e-17
4136.32520 6.31330e-18
4137.79740 7.37168e-18
4139.26960 8.32986e-18
4140.73179 7.98746e-18
4142.20400 9.05328e-18
4143.67621 1.08092e-17
4145.14841 8.79462e-18
4146.61060 9.22246e-18
4148.08281 7.32452e-18
4149.55501 5.62531e-18
4151.02722 7.04263e-18
4152.48941 9.56073e-18
4153.96161 9.71356e-18
4155.43382 5.32819e-18
4156.90602 5.92209e-18
4158.37822 6.44009e-18
4159.84041 8.01693e-18
4161.31262 8.99835e-18
4162.78483 7.87685e-18
4164.25703 8.17153e-18
4165.71922 9.05138e-18
4167.19142 7.07242e-18
4168.66363 3.10492e-18
4170.13584 8.73982e-18
4171.60804 1.01616e-17
4173.07023 7.94426e-18
4174.54244 7.89844e-18
4176.01464 5.72649e-18
4177.48684 6.76983e-18
4178.94903 4.79759e-18
4180.42124 4.59484e-18
4181.89345 5.11157e-18
4183.36565 5.00410e-18
4184.83785 7.89120e-18
4186.30004 1.03171e-17
4187.77225 9.78202e-18
4189.24446 1.19267e-17
4190.71666 9.76587e-18
4192.17885 5.78279e-18
4193.65106 8.98258e-18
4195.12326 7.46898e-18
4196.59547 4.79484e-18
4198.05766 7.27056e-18
4199.52986 7.29162e-18
4201.00207 6.20959e-18
4202.47427 7.86318e-18
4203.94647 7.80711e-18
4205.40866 6.76532e-18
4206.88087 6.65827e-18
4208.35307 5.47943e-18
4209.82528 5.66773e-18
4211.28747 8.42596e-18
4212.75968 8.95310e-18
4214.23188 6.65517e-18
4215.70409 5.42107e-18
4217.17629 8.73380e-18
4218.63848 9.02702e-18
4220.11069 7.61837e-18
4221.58289 9.65201e-18
4223.05509 9.89187e-18
4224.51728 9.79486e-18
4225.98949 9.27282e-18
4227.46169 7.12340e-18
4228.93390 8.21223e-18
4230.39609 1.05439e-17
4231.86830 8.52913e-18
4233.34050 7.10692e-18
4234.81271 8.34571e-18
4236.28491 8.23612e-18
4237.74710 7.26411e-18
4239.21931 8.63574e-18
4240.69151 1.17656e-17
4242.16372 1.22876e-17
4243.62591 9.72962e-18
4245.09811 9.14212e-18
4246.57031 6.43322e-18
4248.04252 8.19747e-18
4249.51472 1.02859e-17
4250.97692 7.74240e-18
4252.44912 8.44545e-18
4253.92133 9.43503e-18
4255.39353 5.78483e-18
4256.85572 6.71354e-18
4258.32793 9.55964e-18
4259.80013 8.44598e-18
4261.27234 7.78083e-18
4262.74454 9.30716e-18
4264.20673 9.88660e-18
4265.67893 1.01782e-17
4267.15114 7.25160e-18
4268.62334 7.97223e-18
4270.08554 1.13422e-17
4271.55774 9.51516e-18
4273.02995 7.43785e-18
4274.50215 6.45786e-18
4275.97436 8.28635e-18
4277.43654 1.24025e-17
4278.90875 1.15651e-17
4280.38096 9.98865e-18
4281.85316 7.29199e-18
4283.31535 6.86088e-18
4284.78755 8.09368e-18
4286.25976 6.02081e-18
4287.73197 6.84110e-18
4289.19416 1.03735e-17
4290.66636 1.01499e-17
4292.13857 9.30368e-18
4293.61077 9.24913e-18
4295.08298 9.75010e-18
4296.54516 8.62366e-18
4298.01737 8.90377e-18
4299.48958 8.59476e-18
4300.96178 8.09397e-18
4302.42397 6.56902e-18
4303.89617 9.50517e-18
4305.36838 9.18420e-18
4306.84059 8.67252e-18
4308.31279 8.27037e-18
4309.77498 8.14622e-18
4311.24719 8.97557e-18
4312.71939 9.80888e-18
4314.19160 1.05907e-17
4315.65378 1.09282e-17
4317.12599 9.54133e-18
4318.59820 7.04050e-18
4320.07040 7.22902e-18
4321.53259 1.08936e-17
4323.00479 1.06266e-17
4324.47700 1.10022e-17
4325.94921 1.08809e-17
4327.42141 9.58963e-18
4328.88360 1.11178e-17
4330.35581 8.09843e-18
4331.82801 8.07920e-18
4333.30022 1.16022e-17
4334.76241 8.91329e-18
4336.23461 6.59327e-18
4337.70682 7.04207e-18
4339.17902 5.34283e-18
4340.65122 5.62044e-18
4342.11341 6.47265e-18
4343.58562 7.81241e-18
4345.05783 7.63616e-18
4346.53003 6.98934e-18
4347.99222 8.29856e-18
4349.46443 9.30675e-18
4350.93663 7.78447e-18
4352.40884 7.93952e-18
4353.87103 8.09450e-18
4355.34323 8.24957e-18
4356.81544 8.40458e-18
4358.28764 8.55953e-18
4359.75984 8.71456e-18
4361.22203 8.86948e-18
4362.69424 9.02443e-18
4364.16645 9.17938e-18
4365.63865 9.33431e-18
4367.10084 9.48922e-18
4368.57305 9.64413e-18
4370.04525 9.79902e-18
4371.51746 9.95390e-18
4372.98966 1.01088e-17
4374.45185 1.02636e-17
4375.92406 1.04185e-17
4377.39626 1.05732e-17
4378.86847 1.07281e-17
4380.33066 1.08828e-17
4381.80286 1.10376e-17
4383.27507 1.11925e-17
4384.74727 1.13472e-17
4386.21947 1.15019e-17
4387.68167 1.16567e-17
4389.15387 1.18114e-17
4390.62608 7.87182e-18
4392.09828 9.76976e-18
4393.56047 1.05033e-17
4395.03268 9.98071e-18
4396.50488 8.02230e-18
4397.97709 1.05195e-17
4399.44929 8.12719e-18
4400.91148 7.67105e-18
4402.38368 8.68176e-18
4403.85589 7.10732e-18
4405.32809 8.43239e-18
4406.79029 6.22561e-18
4408.26249 8.53722e-18
4409.73470 9.70004e-18
4411.20690 1.01608e-17
4412.66909 7.71553e-18
4414.14130 8.91145e-18
4415.61350 8.06803e-18
4417.08571 7.50893e-18
4418.55791 7.98530e-18
4420.02010 8.04220e-18
4421.49230 7.35015e-18
4422.96451 7.22510e-18
4424.43672 5.04036e-18
4425.89891 7.07224e-18
4427.37111 8.60910e-18
4428.84332 5.64047e-18
4430.31552 8.64623e-18
4431.78773 1.08930e-17
4433.24992 9.82112e-18
4434.72212 6.92815e-18
4436.19433 7.43138e-18
4437.66653 1.06362e-17
4439.12872 8.77011e-18
4440.60092 1.17741e-17
4442.07313 9.40478e-18
4443.54534 1.01108e-17
4445.00753 9.01105e-18
4446.47973 8.19621e-18
4447.95194 9.59116e-18
4449.42414 1.01419e-17
4450.89635 9.49838e-18
4452.35854 8.22610e-18
4453.83074 7.21320e-18
4455.30295 8.10388e-18
4456.77515 9.28045e-18
4458.23734 5.96727e-18
4459.70954 7.15632e-18
4461.18175 1.03002e-17
4462.65396 1.04198e-17
4464.12616 9.95120e-18
4465.58835 7.82356e-18
4467.06056 7.69239e-18
4468.53276 8.98660e-18
4470.00497 1.05165e-17
4471.46716 9.47488e-18
4472.93936 9.65479e-18
4474.41157 9.31187e-18
4475.88377 1.08085e-17
4477.35597 1.04383e-17
4478.81816 9.12961e-18
4480.29037 1.10040e-17
4481.76258 9.71376e-18
4483.23478 6.48570e-18
4484.69697 7.04936e-18
4486.16917 9.17483e-18
4487.64138 8.49524e-18
4489.11359 8.39397e-18
4490.57578 1.07191e-17
4492.04798 1.03147e-17
4493.52019 1.31769e-17
4494.99239 1.40355e-17
4496.46459 1.07690e-17
4497.92678 1.24914e-17
4499.39899 1.28048e-17
4500.87120 1.36733e-17
4502.34340 1.32897e-17
4503.80559 1.12216e-17
4505.27779 1.32501e-17
4506.75000 1.15078e-17
4508.22221 1.01145e-17
4509.69441 1.24884e-17
4511.15660 1.23949e-17
4512.62881 1.21915e-17
4514.10101 1.30402e-17
4515.57322 1.16957e-17
4517.03541 1.32443e-17
4518.50761 1.34502e-17
4519.97982 1.25875e-17
4521.45202 1.43496e-17
4522.92422 1.34923e-17
4524.38641 1.17492e-17
4525.85862 1.42089e-17
4527.33083 1.09812e-17
4528.80303 1.13492e-17
4530.26522 1.42424e-17
4531.73743 1.33439e-17
4533.20963 1.30623e-17
4534.68184 1.30756e-17
4536.14403 1.23604e-17
4537.61623 1.22479e-17
4539.08844 1.37488e-17
4540.56064 1.38691e-17
4542.03284 1.32969e-17
4543.49503 1.45341e-17
4544.96724 1.22881e-17
4546.43944 1.22449e-17
4547.91165 1.52541e-17
4549.37384 1.12489e-17
4550.84605 1.13094e-17
4552.31825 1.43266e-17
4553.79046 1.33990e-17
4555.26266 1.36112e-17
4556.72485 1.42402e-17
4558.19706 1.26202e-17
4559.66926 1.44464e-17
4561.14147 1.31827e-17
4562.60366 1.36191e-17
4564.07586 1.33807e-17
4565.54806 1.49735e-17
4567.02027 1.47308e-17
4568.49248 1.38073e-17
4569.95467 1.26231e-17
4571.42687 1.52205e-17
4572.89908 1.40358e-17
4574.37128 1.46118e-17
4575.83347 1.41743e-17
4577.30568 1.27332e-17
4578.77788 1.35757e-17
4580.25009 1.49962e-17
4581.71228 1.38624e-17
4583.18448 1.48002e-17
4584.65668 1.51293e-17
4586.12889 1.45107e-17
4587.60109 1.48858e-17
4589.06329 1.45195e-17
4590.53549 1.34527e-17
4592.00770 1.46225e-17
4593.47990 1.31219e-17
4594.94209 1.31452e-17
4596.41429 1.28907e-17
4597.88650 1.35494e-17
4599.35871 1.44511e-17
4600.83091 1.62099e-17
4602.29310 1.52438e-17
4603.76530 1.48195e-17
4605.23751 1.61497e-17
4606.70972 1.55638e-17
4608.17191 1.44270e-17
4609.64411 1.27413e-17
4611.11632 1.54292e-17
4612.58852 1.44730e-17
4614.06073 1.65948e-17
4615.52291 1.54571e-17
4616.99512 1.51731e-17
4618.46733 1.63455e-17
4619.93953 1.47487e-17
4621.40172 1.31694e-17
4622.87392 1.55506e-17
4624.34613 1.42037e-17
4625.81834 1.39299e-17
4627.28053 1.45846e-17
4628.75273 1.40337e-17
4630.22494 1.60365e-17
4631.69714 1.80952e-17
4633.16935 1.62899e-17
4634.63153 1.43323e-17
4636.10374 1.61407e-17
4637.57595 1.47661e-17
4639.04815 1.34194e-17
4640.51034 1.45596e-17
4641.98254 1.39789e-17
4643.45475 1.28542e-17
4644.92696 1.13418e-17
4646.39916 1.28633e-17
4647.86135 1.21124e-17
4649.33356 1.44491e-17
4650.80576 1.59108e-17
4652.27797 1.62500e-17
4653.74016 1.35683e-17
4655.21236 1.32032e-17
4656.68457 1.16882e-17
4658.15677 1.20379e-17
4659.62897 1.39671e-17
4661.09116 1.33762e-17
4662.56337 1.46665e-17
4664.03558 1.64424e-17
4665.50778 1.46243e-17
4666.96997 1.35875e-17
4668.44218 1.34766e-17
4669.91438 1.43053e-17
4671.38659 1.19169e-17
4672.84878 1.06136e-17
4674.32098 1.46403e-17
4675.79319 1.43757e-17
4677.26539 1.41493e-17
4678.73759 1.51321e-17
4680.19978 1.34421e-17
4681.67199 1.30472e-17
4683.14420 1.53140e-17
4684.61640 1.49286e-17
4686.07859 1.56757e-17
4687.55080 1.52273e-17
4689.02300 1.35137e-17
4690.49521 1.37726e-17
4691.96741 1.35085e-17
4693.42960 1.35291e-17
4694.90181 1.57542e-17
4696.37401 1.56824e-17
4697.84622 1.50698e-17
4699.30841 1.34326e-17
4700.78061 1.18383e-17
4702.25282 1.27341e-17
4703.72502 1.34460e-17
4705.19722 1.37209e-17
4706.65942 1.17423e-17
4708.13162 1.13638e-17
4709.60383 1.20870e-17
4711.07603 1.18072e-17
4712.53822 1.38067e-17
4714.01043 1.43931e-17
4715.48263 1.42140e-17
4716.95484 1.23105e-17
4718.41703 1.19071e-17
4719.88923 1.19379e-17
4721.36143 1.21439e-17
4722.83364 1.44949e-17
4724.30584 1.42473e-17
4725.76804 1.12326e-17
4727.24024 1.18301e-17
4728.71245 1.37964e-17
4730.18465 1.42001e-17
4731.64684 1.23107e-17
4733.11905 1.20325e-17
4734.59125 1.32979e-17
4736.06346 1.23687e-17
4737.53566 1.30611e-17
4738.99785 1.38951e-17
4740.47005 1.31832e-17
4741.94226 1.43023e-17
4743.41447 1.42837e-17
4744.87666 1.17135e-17
4746.34886 1.24434e-17
4747.82107 1.40736e-17
4749.29327 1.14086e-17
4750.76548 1.28191e-17
4752.22767 1.30466e-17
4753.69987 1.17999e-17
4755.17208 1.25430e-17
4756.64428 1.17785e-17
4758.10647 1.26625e-17
4759.57867 1.21875e-17
4761.05088 1.04730e-17
4762.52309 1.12183e-17
4763.98528 1.24804e-17
4765.45748 1.37603e-17
4766.92969 1.39183e-17
4768.40189 1.16398e-17
4769.87410 1.14543e-17
4771.33629 1.30073e-17
4772.80849 1.27664e-17
4774.28070 1.17153e-17
4775.75290 1.41043e-17
4777.21509 1.45461e-17
4778.68729 1.10248e-17
4780.15950 9.59591e-18
4781.63171 1.11094e-17
4783.10391 1.12040e-17
4784.56610 1.16718e-17
4786.03831 1.07080e-17
4787.51051 1.12667e-17
4788.98272 1.14064e-17
4790.44491 9.99393e-18
4791.91711 1.14787e-17
4793.38932 1.26306e-17
4794.86152 1.19374e-17
4796.33372 1.18680e-17
4797.79591 1.23662e-17
4799.26812 1.17454e-17
4800.74033 1.07619e-17
4802.21253 1.26424e-17
4803.67472 1.23872e-17
4805.14693 1.12994e-17
4806.61913 1.19674e-17
4808.09134 1.27780e-17
4809.55353 1.19542e-17
4811.02573 1.19189e-17
4812.49794 1.13405e-17
4813.97014 9.63828e-18
4815.44234 1.04521e-17
4816.90453 1.22964e-17
4818.37674 1.12035e-17
4819.84895 1.22032e-17
4821.32115 1.25355e-17
4822.78334 1.10690e-17
4824.25554 1.12469e-17
4825.72775 1.21724e-17
4827.19996 1.05554e-17
4828.67216 1.01802e-17
4830.13435 1.14977e-17
4831.60656 1.20391e-17
4833.07876 1.22091e-17
4834.55097 1.18613e-17
4836.01316 1.14393e-17
4837.48536 1.18921e-17
4838.95757 1.37389e-17
4840.42977 1.37296e-17
4841.89196 1.11017e-17
4843.36416 1.02652e-17
4844.83637 1.14523e-17
4846.30858 1.31077e-17
4847.78078 1.38397e-17
4849.24297 1.29964e-17
4850.71518 1.29163e-17
4852.18738 1.28362e-17
4853.65959 1.27561e-17
4855.12178 1.26760e-17
4856.59398 1.25959e-17
4858.06619 1.25158e-17
4859.53839 1.24357e-17
4861.01059 1.23557e-17
4862.47278 1.22756e-17
4863.94499 1.21956e-17
4865.41719 1.21155e-17
4866.88940 1.20355e-17
4868.35159 1.19555e-17
4869.82380 1.18754e-17
4871.29600 1.17954e-17
4872.76821 1.17154e-17
4874.24041 1.16354e-17
4875.70260 1.15555e-17
4877.17481 1.14755e-17
4878.64701 1.13955e-17
4880.11922 1.13155e-17
4881.58141 1.12356e-17
4883.05361 1.11556e-17
4884.52581 1.10757e-17
4885.99802 1.09957e-17
4887.47023 1.09158e-17
4888.93242 1.12248e-17
4890.40462 1.12233e-17
4891.87683 9.75895e-18
4893.34903 1.06761e-17
4894.81122 1.02515e-17
4896.28343 9.97054e-18
4897.75563 9.94228e-18
4899.22784 1.19982e-17
4900.69003 1.37331e-17
4902.16223 1.25546e-17
4903.63443 1.28328e-17
4905.10664 1.31798e-17
4906.57885 1.29528e-17
4908.04104 1.25516e-17
4909.51324 1.19723e-17
4910.98545 1.27436e-17
4912.45765 1.25857e-17
4913.91984 1.20438e-17
4915.39204 1.25456e-17
4916.86425 1.26655e-17
4918.33646 1.20292e-17
4919.80866 1.28666e-17
4921.27085 1.32904e-17
4922.74305 1.32222e-17
4924.21526 1.33509e-17
4925.68747 1.22096e-17
4927.14966 1.14156e-17
4928.62186 1.30325e-17
4930.09407 1.38596e-17
4931.56627 1.27148e-17
4933.02846 1.24654e-17
4934.50066 1.25167e-17
4935.97287 1.29284e-17
4937.44508 1.35131e-17
4938.91728 1.30014e-17
4940.37947 1.43065e-17
4941.85167 1.38061e-17
4943.32388 1.26675e-17
4944.79609 1.34278e-17
4946.25828 1.41777e-17
4947.73048 1.31741e-17
4949.20269 1.32328e-17
4950.67489 1.32915e-17
4952.14710 1.33503e-17
4953.60928 1.34090e-17
4955.08149 1.34677e-17
4956.55370 1.35264e-17
4958.02590 1.35852e-17
4959.48809 1.36439e-17
4960.96029 1.37026e-17
4962.43250 1.37613e-17
4963.90471 1.38200e-17
4965.37691 1.38787e-17
4966.83910 1.39374e-17
4968.31131 1.39960e-17
4969.78351 1.40547e-17
4971.25572 1.41134e-17
4972.71791 1.41720e-17
4974.19011 1.42307e-17
4975.66232 1.42893e-17
4977.13452 1.43480e-17
4978.59671 1.44066e-17
4980.06891 1.44653e-17
4981.54112 1.45239e-17
4983.01333 1.45825e-17
4984.48553 1.46412e-17
4985.94772 1.35403e-17
4987.41993 1.26659e-17
4988.89213 1.12230e-17
4990.36434 1.27580e-17
4991.82653 1.31687e-17
4993.29873 1.34244e-17
4994.77094 1.38201e-17
4996.24314 1.22515e-17
4997.71534 1.23419e-17
4999.17753 1.24322e-17
5000.64974 1.25225e-17
5002.12195 1.26128e-17
5003.59415 1.27031e-17
5005.05634 1.27934e-17
5006.52855 1.28837e-17
5008.00075 1.29739e-17
5009.47296 1.30642e-17
5010.94516 1.31544e-17
5012.40735 1.32447e-17
5013.87956 1.33349e-17
5015.35176 1.34251e-17
5016.82397 1.35154e-17
5018.28616 1.36056e-17
5019.75836 1.36958e-17
5021.23057 1.37860e-17
5022.70277 1.38762e-17
5024.16496 1.39664e-17
5025.63717 1.40565e-17
5027.10937 1.41467e-17
5028.58158 1.42369e-17
5030.05378 1.43270e-17
5031.51597 1.44172e-17
5032.98818 1.45073e-17
5034.46038 1.20625e-17
5035.93259 9.96493e-18
5037.39478 1.00213e-17
5038.86698 1.17038e-17
5040.33918 1.22775e-17
5041.81139 1.18529e-17
5043.28359 1.14029e-17
5044.74579 1.23400e-17
5046.21799 1.37574e-17
5047.69020 1.28911e-17
5049.16240 1.12257e-17
5050.62459 1.09239e-17
5052.09680 1.20977e-17
5053.56900 1.19504e-17
5055.04121 1.27036e-17
5056.51341 1.38632e-17
5057.97560 1.33099e-17
5059.44780 1.18348e-17
5060.92001 1.25920e-17
5062.39222 1.33816e-17
5063.85441 1.34753e-17
5065.32661 1.31046e-17
5066.79882 1.23086e-17
5068.27102 1.28820e-17
5069.73321 1.35163e-17
5071.20542 1.35545e-17
5072.67762 1.34882e-17
5074.14983 1.22157e-17
5075.62203 1.25558e-17
5077.08422 1.41017e-17
5078.55642 1.29679e-17
5080.02863 1.21527e-17
5081.50084 1.27039e-17
5082.96303 1.03378e-17
5084.43523 1.02878e-17
5085.90744 1.25047e-17
5087.37964 1.47119e-17
5088.85185 1.39697e-17
5090.31404 1.32800e-17
5091.78624 1.35265e-17
5093.25845 1.31005e-17
5094.73065 1.34405e-17
5096.19284 1.24499e-17
5097.66504 1.26605e-17
5099.13725 1.33838e-17
5100.60946 1.34788e-17
5102.07165 1.31211e-17
5103.54385 1.24086e-17
5105.01606 1.23197e-17
5106.48826 1.29894e-17
5107.96047 1.29253e-17
5109.42266 1.16762e-17
5110.89486 1.11952e-17
5112.36707 1.13300e-17
5113.83927 1.32951e-17
5115.30146 1.30142e-17
5116.77366 1.21417e-17
5118.24587 1.10332e-17
5119.71808 1.24955e-17
5121.19028 1.42573e-17
5122.65247 1.29267e-17
5124.12468 1.19674e-17
5125.59688 1.21567e-17
5127.06909 1.24343e-17
5128.53128 1.29841e-17
5130.00348 1.28832e-17
5131.47569 1.25710e-17
5132.94789 1.28360e-17
5134.42009 1.33074e-17
5135.88228 1.37485e-17
5137.35449 1.65267e-17
5138.82670 1.46793e-17
5140.29890 1.31988e-17
5141.76109 1.41226e-17
5143.23329 1.51683e-17
5144.70550 1.46605e-17
5146.17771 1.30522e-17
5147.64991 1.29881e-17
5149.11210 1.32946e-17
5150.58431 1.36471e-17
5152.05651 1.47108e-17
5153.52872 1.42150e-17
5154.99091 1.23738e-17
5156.46311 1.38531e-17
5157.93532 1.30438e-17
5159.40752 1.29595e-17
5160.86971 1.46941e-17
5162.34191 1.43007e-17
5163.81412 1.40257e-17
5165.28633 1.40854e-17
5166.75853 1.43496e-17
5168.22072 1.34063e-17
5169.69293 1.31347e-17
5171.16513 1.36746e-17
5172.63734 1.29865e-17
5174.09953 1.36922e-17
5175.57173 1.36078e-17
5177.04394 1.37695e-17
5178.51614 1.35502e-17
5179.98834 1.34509e-17
5181.45053 1.30309e-17
5182.92274 1.37526e-17
5184.39495 1.54330e-17
5185.86715 1.35832e-17
5187.32934 1.35752e-17
5188.80155 1.42088e-17
5190.27375 1.49916e-17
5191.74596 1.45544e-17
5193.20815 1.29967e-17
5194.68035 1.44935e-17
5196.15256 1.60507e-17
5197.62476 1.58481e-17
5199.09697 1.54801e-17
5200.55916 1.53075e-17
5202.03136 1.56174e-17
5203.50356 1.48045e-17
5204.97577 1.31684e-17
5206.43796 1.42338e-17
5207.91017 1.58403e-17
5209.38237 1.56033e-17
5210.85458 1.52996e-17
5212.32678 1.61349e-17
5213.78897 1.48402e-17
5215.26118 1.47372e-17
5216.73338 1.52736e-17
5218.20559 1.59533e-17
5219.66778 1.60999e-17
5221.13998 1.47265e-17
5222.61218 1.43415e-17
5224.08439 1.62222e-17
5225.54658 1.54642e-17
5227.01879 1.49429e-17
5228.49099 1.54656e-17
5229.96320 1.49363e-17
5231.43540 1.49400e-17
5232.89759 1.45313e-17
5234.36979 1.41567e-17
5235.84200 1.53240e-17
5237.31421 1.59171e-17
5238.78641 1.50381e-17
5240.24860 1.51687e-17
5241.72080 1.45009e-17
5243.19301 1.53755e-17
5244.66522 1.55079e-17
5246.12741 1.47037e-17
5247.59961 1.48037e-17
5249.07182 1.60381e-17
5250.54402 1.56455e-17
5252.00621 1.58607e-17
5253.47841 1.55572e-17
5254.95062 1.55778e-17
5256.42283 1.66306e-17
5257.89503 1.63666e-17
5259.35722 1.55525e-17
5260.82942 1.70380e-17
5262.30163 1.50676e-17
5263.77384 1.49166e-17
5265.23603 1.72048e-17
5266.70823 1.69999e-17
5268.18044 1.64797e-17
5269.65264 1.63955e-17
5271.12485 1.59101e-17
5272.58703 1.51156e-17
5274.05924 1.56783e-17
5275.53145 1.72109e-17
5277.00365 1.69442e-17
5278.46584 1.46964e-17
5279.93804 1.45755e-17
5281.41025 1.62861e-17
5282.88246 1.58894e-17
5284.34465 1.62454e-17
5285.81685 1.50792e-17
5287.28906 1.58421e-17
5288.76126 1.68288e-17
5290.23347 1.66520e-17
5291.69566 1.55355e-17
5293.16786 1.63977e-17
5294.64007 1.62637e-17
5296.11227 1.61031e-17
5297.57446 1.45749e-17
5299.04666 1.55885e-17
5300.51887 1.68515e-17
5301.99108 1.59166e-17
5303.46328 1.55913e-17
5304.92547 1.56116e-17
5306.39768 1.51920e-17
5307.86988 1.58748e-17
5309.34209 1.60637e-17
5310.80428 1.59027e-17
5312.27648 1.56730e-17
5313.74869 1.51133e-17
5315.22089 1.49027e-17
5316.68308 1.48995e-17
5318.15528 1.60928e-17
5319.62749 1.53468e-17
5321.09970 1.51043e-17
5322.57190 1.56217e-17
5324.03409 1.50817e-17
5325.50630 1.51366e-17
5326.97850 1.57119e-17
5328.45071 1.54760e-17
5329.91290 1.48200e-17
5331.38510 1.58513e-17
5332.85731 1.47409e-17
5334.32951 1.45957e-17
5335.80172 1.54355e-17
5337.26391 1.59873e-17
5338.73611 1.66333e-17
5340.20832 1.52566e-17
5341.68052 1.45883e-17
5343.14271 1.47131e-17
5344.61492 1.51176e-17
5346.08712 1.39218e-17
5347.55933 1.42218e-17
5349.03153 1.45429e-17
5350.49372 1.47693e-17
5351.96593 1.59839e-17
5353.43813 1.59913e-17
5354.91034 1.60794e-17
5356.37253 1.45500e-17
5357.84473 1.44175e-17
5359.31693 1.55231e-17
5360.78914 1.72264e-17
5362.26134 1.76692e-17
5363.72354 1.67881e-17
5365.19574 1.64276e-17
5366.66795 1.59500e-17
5368.14015 1.56015e-17
5369.60234 1.55723e-17
5371.07455 1.58274e-17
5372.54675 1.54916e-17
5374.01896 1.48895e-17
5375.48115 1.51786e-17
5376.95335 1.51097e-17
5378.42555 1.60727e-17
5379.89776 1.58576e-17
5381.36997 1.44461e-17
5382.83216 1.43848e-17
5384.30436 1.56059e-17
5385.77657 1.48332e-17
5387.24877 1.51064e-17
5388.71096 1.55827e-17
5390.18317 1.51417e-17
5391.65537 1.55865e-17
5393.12758 1.49158e-17
5394.59978 1.39352e-17
5396.06197 1.40853e-17
5397.53417 1.40870e-17
5399.00638 1.39379e-17
5400.47859 1.43711e-17
5401.94078 1.40468e-17
5403.41298 1.41940e-17
5404.88519 1.38980e-17
5406.35739 1.28405e-17
5407.81958 1.32412e-17
5409.29179 1.30424e-17
5410.76399 1.20888e-17
5412.23620 1.33945e-17
5413.70840 1.43417e-17
5415.17059 1.42146e-17
5416.64279 1.41420e-17
5418.11500 1.33002e-17
5419.58721 1.39588e-17
5421.04940 1.31513e-17
5422.52160 1.29288e-17
5423.99381 1.40094e-17
5425.46601 1.43141e-17
5426.93822 1.50042e-17
5428.40041 1.42974e-17
5429.87261 1.45252e-17
5431.34482 1.51561e-17
5432.81702 1.42427e-17
5434.27921 1.39621e-17
5435.75141 1.48489e-17
5437.22362 1.61728e-17
5438.69583 1.57550e-17
5440.15802 1.37792e-17
5441.63022 1.36880e-17
5443.10243 1.60532e-17
5444.57463 1.63420e-17
5446.04684 1.42886e-17
5447.50903 1.43673e-17
5448.98123 1.48404e-17
5450.45344 1.52250e-17
5451.92564 1.58565e-17
5453.38783 1.54596e-17
5454.86003 1.39846e-17
5456.33224 1.31543e-17
5457.80445 1.34107e-17
5459.27665 1.45875e-17
5460.73884 1.66087e-17
5462.21105 1.61955e-17
5463.68325 1.50268e-17
5465.15546 1.58727e-17
5466.61765 1.40081e-17
5468.08985 1.21556e-17
5469.56206 1.39893e-17
5471.03426 1.53572e-17
5472.50647 1.51755e-17
5473.96866 1.45384e-17
5475.44086 1.42637e-17
5476.91307 1.52563e-17
5478.38527 1.50708e-17
5479.84746 1.49034e-17
5481.31966 1.54729e-17
5482.79187 1.57088e-17
5484.26408 1.46928e-17
5485.73628 1.30976e-17
5487.19847 1.37143e-17
5488.67068 1.37409e-17
5490.14288 1.38091e-17
5491.61509 1.53014e-17
5493.07728 1.48627e-17
5494.54948 1.42331e-17
5496.02169 1.53176e-17
5497.49389 1.39343e-17
5498.95608 1.51850e-17
5500.42828 1.61762e-17
5501.90049 1.39960e-17
5503.37270 1.32196e-17
5504.84490 1.46270e-17
5506.30709 1.47722e-17
5507.77930 1.57287e-17
5509.25150 1.62607e-17
5510.72371 1.50901e-17
5512.18590 1.38892e-17
5513.65810 1.42398e-17
5515.13031 1.41213e-17
5516.60251 1.41623e-17
5518.07472 1.26539e-17
5519.53691 1.27673e-17
5521.00911 1.49769e-17
5522.48131 1.50023e-17
5523.95352 1.43922e-17
5525.41571 1.58314e-17
5526.88792 1.49008e-17
5528.36012 1.33249e-17
5529.83233 1.42801e-17
5531.29452 1.54254e-17
5532.76672 1.54035e-17
5534.23893 1.30285e-17
5535.71113 1.16672e-17
5537.18334 1.34521e-17
5538.64553 1.24499e-17
5540.11773 1.29992e-17
5541.58993 1.16427e-17
5543.06214 1.21759e-17
5544.52433 1.37485e-17
5545.99654 1.37249e-17
5547.46874 1.27961e-17
5548.94095 1.26264e-17
5550.41315 1.30207e-17
5551.87534 1.16458e-17
5553.34754 1.19613e-17
5554.81975 1.23849e-17
5556.29196 1.12163e-17
5557.75415 1.29945e-17
5559.22635 1.21903e-17
5560.69855 1.09892e-17
5562.17076 1.30016e-17
5563.64297 1.24835e-17
5565.10516 1.16434e-17
5566.57736 1.23260e-17
5568.04957 1.21016e-17
5569.52177 1.24457e-17
5570.98396 1.24923e-17
5572.45616 1.13989e-17
5573.92837 7.99002e-18
5575.40058 6.19850e-18
5576.86277 6.75995e-18
5578.33497 1.30723e-17
5579.80717 1.18016e-17
5581.27938 1.14077e-17
5582.75159 1.16687e-17
5584.21378 1.14131e-17
5585.68598 9.61770e-18
5587.15819 1.13717e-17
5588.63039 1.29431e-17
5590.09258 1.22444e-17
5591.56478 1.23125e-17
5593.03699 1.14998e-17
5594.50920 1.03418e-17
5595.98140 9.79635e-18
5597.44359 1.07919e-17
5598.91579 1.07544e-17
5600.38800 1.09841e-17
5601.86021 1.24638e-17
5603.32240 1.20527e-17
5604.79460 1.14103e-17
5606.26681 1.11112e-17
5607.73901 1.21917e-17
5609.21122 1.06839e-17
5610.67341 9.90237e-18
5612.14561 1.17450e-17
5613.61782 1.01859e-17
5615.09002 9.39455e-18
5616.55221 1.18072e-17
5618.02441 1.06936e-17
5619.49662 1.13560e-17
5620.96883 1.27204e-17
5622.43102 1.12446e-17
5623.90322 1.09863e-17
5625.37543 1.15187e-17
5626.84763 1.04282e-17
5628.31984 1.08341e-17
5629.78203 1.10062e-17
5631.25423 1.08907e-17
5632.72644 1.01517e-17
5634.19864 1.03350e-17
5635.66083 1.14838e-17
5637.13303 1.05680e-17
5638.60524 1.10537e-17
5640.07745 9.98524e-18
5641.54965 9.19391e-18
5643.01184 9.73858e-18
5644.48405 1.02039e-17
5645.95625 9.58869e-18
5647.42846 1.02367e-17
5648.89065 1.09341e-17
5650.36285 8.98408e-18
5651.83506 9.10187e-18
5653.30726 8.86029e-18
5654.77947 9.36687e-18
5656.24166 9.68076e-18
5657.71386 1.00408e-17
5659.18607 9.46386e-18
5660.65827 9.90642e-18
5662.12046 1.05794e-17
5663.59267 9.96734e-18
5665.06487 9.88344e-18
5666.53708 1.00093e-17
5667.99927 1.15704e-17
5669.47147 1.08881e-17
5670.94368 1.06775e-17
5672.41588 1.06641e-17
5673.88809 1.17575e-17
5675.35028 1.03082e-17
5676.82248 8.34164e-18
5678.29468 1.00230e-17
5679.76689 1.06872e-17
5681.22908 1.01502e-17
5682.70129 1.13496e-17
5684.17349 1.11399e-17
5685.64570 1.12005e-17
5687.11790 1.05963e-17
5688.58009 1.04948e-17
5690.05230 1.07741e-17
5691.52450 1.06540e-17
5692.99671 9.93634e-18
5694.45890 9.22415e-18
5695.93110 1.05965e-17
5697.40330 1.11363e-17
5698.87551 1.05468e-17
5700.33770 1.02882e-17
5701.80991 1.02691e-17
5703.28211 1.01750e-17
5704.75432 1.09225e-17
5706.22652 1.05855e-17
5707.68871 1.10112e-17
5709.16092 1.18514e-17
5710.63312 1.09614e-17
5712.10533 1.06128e-17
5713.56752 1.03488e-17
5715.03972 9.94489e-18
5716.51192 1.09735e-17
5717.98413 1.13809e-17
5719.45634 1.11122e-17
5720.91853 1.09043e-17
5722.39073 1.04448e-17
5723.86294 1.06102e-17
5725.33514 1.14464e-17
5726.79733 1.15005e-17
5728.26954 1.08744e-17
5729.74174 1.08799e-17
5731.21395 1.18552e-17
5732.68615 1.19878e-17
5734.14834 1.11581e-17
5735.62054 1.14258e-17
5737.09275 1.21833e-17
5738.56496 1.15413e-17
5740.02715 1.16565e-17
5741.49935 1.24136e-17
5742.97156 1.18096e-17
5744.44376 1.05390e-17
5745.91597 1.13101e-17
5747.37816 1.20525e-17
5748.85036 1.21060e-17
5750.32257 1.24180e-17
5751.79477 1.21122e-17
5753.25696 1.22815e-17
5754.72916 1.23100e-17
5756.20137 1.16521e-17
5757.67358 1.16445e-17
5759.13577 1.16802e-17
5760.60797 1.08870e-17
5762.08018 1.12198e-17
5763.55238 1.10288e-17
5765.02459 1.03465e-17
5766.48678 1.05097e-17
5767.95898 1.13142e-17
5769.43119 1.19047e-17
5770.90339 1.16945e-17
5772.36558 1.17310e-17
5773.83778 1.19875e-17
5775.30999 1.18351e-17
5776.78220 1.10181e-17
5778.25440 1.13139e-17
5779.71659 1.19091e-17
5781.18880 1.24728e-17
5782.66100 1.32201e-17
5784.13321 1.29713e-17
5785.59540 1.28328e-17
5787.06760 1.21825e-17
5788.53981 1.08217e-17
5790.01201 1.14755e-17
5791.47420 1.21774e-17
5792.94641 1.26311e-17
5794.41861 1.27111e-17
5795.89082 1.30557e-17
5797.36302 1.43518e-17
5798.82521 1.37532e-17
5800.29742 1.28805e-17
5801.76962 1.26624e-17
5803.24183 1.21793e-17
5804.70402 1.24388e-17
5806.17622 1.23017e-17
5807.64843 1.22875e-17
5809.12063 1.26401e-17
5810.59284 1.36183e-17
5812.05503 1.37984e-17
5813.52723 1.37314e-17
5814.99944 1.34021e-17
5816.47164 1.23602e-17
5817.93383 1.30059e-17
5819.40603 1.34425e-17
5820.87824 1.26663e-17
5822.35045 1.33614e-17
5823.81264 1.29365e-17
5825.28484 1.27965e-17
5826.75705 1.45913e-17
5828.22925 1.49745e-17
5829.70146 1.46715e-17
5831.16365 1.44703e-17
5832.63585 1.38075e-17
5834.10806 1.20467e-17
5835.58026 1.25821e-17
5837.04245 1.42000e-17
5838.51466 1.51295e-17
5839.98686 1.48216e-17
5841.45907 1.42180e-17
5842.93127 1.41530e-17
5844.39346 1.35768e-17
5845.86567 1.36289e-17
5847.33787 1.39339e-17
5848.81008 1.36370e-17
5850.27227 1.32827e-17
5851.74447 1.36502e-17
5853.21668 1.47158e-17
5854.68888 1.43178e-17
5856.16109 1.42731e-17
5857.62328 1.49356e-17
5859.09548 1.52434e-17
5860.56768 1.41158e-17
5862.03989 1.36649e-17
5863.50208 1.33731e-17
5864.97429 1.32733e-17
5866.44649 1.35479e-17
5867.91870 1.32037e-17
5869.39090 1.43166e-17
5870.85309 1.53762e-17
5872.32529 1.40540e-17
5873.79750 1.39505e-17
5875.26971 1.46168e-17
5876.73190 1.46311e-17
5878.20410 1.42203e-17
5879.67630 1.33045e-17
5881.14851 1.31544e-17
5882.61070 1.32034e-17
5884.08291 1.14416e-17
5885.55511 6.23659e-18
5887.02732 3.10019e-18
5888.49952 4.13830e-18
5889.96171 5.53207e-18
5891.43391 8.53142e-18
5892.90612 1.13483e-17
5894.37833 1.08076e-17
5895.84052 8.93275e-18
5897.31272 8.75520e-18
5898.78492 9.15456e-18
5900.25713 9.50306e-18
5901.72934 9.58387e-18
5903.19153 1.01369e-17
5904.66373 1.13359e-17
5906.13594 1.27418e-17
5907.60814 1.31781e-17
5909.07033 1.33332e-17
5910.54253 1.25333e-17
5912.01474 1.32321e-17
5913.48695 1.35503e-17
5914.94914 1.26317e-17
5916.42134 1.23945e-17
5917.89354 1.18173e-17
5919.36575 1.19146e-17
5920.83796 1.30154e-17
5922.30015 1.35834e-17
5923.77235 1.39441e-17
5925.24456 1.36926e-17
5926.71676 1.37486e-17
5928.17895 1.29830e-17
5929.65116 1.30822e-17
5931.12336 1.40879e-17
5932.59557 1.31892e-17
5934.06777 1.31166e-17
5935.52996 1.43064e-17
5937.00216 1.43013e-17
5938.47437 1.44772e-17
5939.94658 1.46782e-17
5941.40877 1.37091e-17
5942.88097 1.32395e-17
5944.35318 1.29515e-17
5945.82538 1.30833e-17
5947.28757 1.45402e-17
5948.75978 1.56395e-17
5950.23198 1.49545e-17
5951.70419 1.37387e-17
5953.17639 1.37360e-17
5954.63858 1.34590e-17
5956.11078 1.21732e-17
5957.58299 1.30870e-17
5959.05520 1.47189e-17
5960.51739 1.53148e-17
5961.98959 1.42344e-17
5963.46180 1.12467e-17
5964.93400 9.82844e-18
5966.40621 1.01473e-17
5967.86840 1.08003e-17
5969.34060 1.23043e-17
5970.81281 1.30722e-17
5972.28501 1.31516e-17
5973.74720 1.36608e-17
5975.21941 1.31924e-17
5976.69161 1.26804e-17
5978.16382 1.35745e-17
5979.63602 1.41744e-17
5981.09821 1.43536e-17
5982.57042 1.43182e-17
5984.04262 1.34652e-17
5985.51483 1.40438e-17
5986.97702 1.49973e-17
5988.44922 1.36740e-17
5989.92143 1.41628e-17
5991.39363 1.56502e-17
5992.86584 1.46544e-17
5994.32803 1.42218e-17
5995.80023 1.39767e-17
5997.27243 1.35947e-17
5998.74464 1.36029e-17
6000.20683 1.30192e-17
6001.67904 1.32434e-17
6003.15124 1.34907e-17
6004.62345 1.31128e-17
6006.08564 1.31933e-17
6007.55784 1.34784e-17
6009.03005 1.28296e-17
6010.50225 1.29344e-17
6011.97446 1.43179e-17
6013.43665 1.40914e-17
6014.90885 1.35859e-17
6016.38105 1.40984e-17
6017.85326 1.39474e-17
6019.31545 1.33792e-17
6020.78766 1.37461e-17
6022.25986 1.39989e-17
6023.73207 1.39997e-17
6025.20427 1.41669e-17
6026.66646 1.34944e-17
6028.13867 1.29812e-17
6029.61087 1.33222e-17
6031.08308 1.24993e-17
6032.54527 1.24683e-17
6034.01747 1.32649e-17
6035.48967 1.32961e-17
6036.96188 1.30418e-17
6038.42407 1.35871e-17
6039.89628 1.36465e-17
6041.36848 1.36341e-17
6042.84069 1.35052e-17
6044.31289 1.28334e-17
6045.77508 1.25038e-17
6047.24729 1.24704e-17
6048.71949 1.30113e-17
6050.19170 1.29735e-17
6051.65389 1.23942e-17
6053.12609 1.21845e-17
6054.59829 1.36589e-17
6056.07050 1.41092e-17
6057.54271 1.29086e-17
6059.00490 1.23835e-17
6060.47710 1.16492e-17
6061.94931 1.21630e-17
6063.42151 1.21931e-17
6064.88370 1.17115e-17
6066.35591 1.17147e-17
6067.82811 1.17107e-17
6069.30032 1.23526e-17
6070.77252 1.26556e-17
6072.23471 1.22052e-17
6073.70691 1.20763e-17
6075.17912 1.11156e-17
6076.65133 1.20339e-17
6078.11352 1.25564e-17
6079.58572 1.22832e-17
6081.05793 1.13259e-17
6082.53013 1.18394e-17
6084.00234 1.29299e-17
6085.46453 1.28116e-17
6086.93673 1.21428e-17
6088.40894 1.13353e-17
6089.88114 1.12972e-17
6091.34333 1.24772e-17
6092.81553 1.23312e-17
6094.28774 1.10142e-17
6095.75995 1.09573e-17
6097.22214 1.09232e-17
6098.69434 1.15722e-17
6100.16655 1.23328e-17
6101.63875 1.25216e-17
6103.11096 1.21977e-17
6104.57315 1.16734e-17
6106.04535 1.19571e-17
6107.51756 1.19711e-17
6108.98976 1.17943e-17
6110.45195 1.14537e-17
6111.92416 1.01215e-17
6113.39636 1.06683e-17
6114.86857 1.15394e-17
6116.34077 1.31155e-17
6117.80296 1.21175e-17
6119.27517 1.05483e-17
6120.74737 1.02810e-17
6122.21958 1.12848e-17
6123.68177 1.15798e-17
6125.15397 1.13158e-17
6126.62618 1.18277e-17
6128.09838 1.22206e-17
6129.56057 1.14965e-17
6131.03278 1.07054e-17
6132.50498 1.14150e-17
6133.97719 1.28704e-17
6135.44939 1.20060e-17
6136.91158 1.14585e-17
6138.38378 1.17702e-17
6139.85599 1.30747e-17
6141.32820 1.25057e-17
6142.79039 1.13461e-17
6144.26259 1.09050e-17
6145.73480 1.11101e-17
6147.20700 1.18019e-17
6148.67921 1.24804e-17
6150.14140 1.24082e-17
6151.61360 1.13729e-17
6153.08581 1.14417e-17
6154.55801 1.14692e-17
6156.02020 1.03696e-17
6157.49241 9.55934e-18
6158.96461 1.10617e-17
6160.43682 1.11492e-17
6161.90902 1.13190e-17
6163.37121 1.26130e-17
6164.84342 1.28553e-17
6166.31562 1.24079e-17
6167.78783 1.07187e-17
6169.25002 1.04172e-17
6170.72222 1.14965e-17
6172.19443 1.29222e-17
6173.66663 1.23190e-17
6175.12882 1.14571e-17
6176.60103 1.23908e-17
6178.07323 1.24309e-17
6179.54543 1.21139e-17
6181.01764 1.18963e-17
6182.47983 1.15470e-17
6183.95204 1.14065e-17
6185.42424 1.12669e-17
6186.89645 1.16710e-17
6188.35864 1.19701e-17
6189.83084 1.12004e-17
6191.30304 1.19102e-17
6192.77525 1.22009e-17
6194.24746 1.22971e-17
6195.70965 1.35036e-17
6197.18185 1.25807e-17
6198.65405 1.16773e-17
6200.12626 1.24438e-17
6201.58845 1.32806e-17
6203.06066 1.32832e-17
6204.53286 1.31401e-17
6206.00507 1.22275e-17
6207.47727 1.09168e-17
6208.93946 1.10637e-17
6210.41166 1.20092e-17
6211.88387 1.19419e-17
6213.35608 1.20741e-17
6214.81827 1.27822e-17
6216.29047 1.29054e-17
6217.76267 1.37111e-17
6219.23488 1.44329e-17
6220.69707 1.29428e-17
6222.16928 1.21663e-17
6223.64148 1.39264e-17
6225.11369 1.35133e-17
6226.58589 1.31953e-17
6228.04808 1.37618e-17
6229.52028 1.32028e-17
6230.99249 1.28459e-17
6232.46470 1.30449e-17
6233.92689 1.24577e-17
6235.39909 1.28571e-17
6236.87129 1.33592e-17
6238.34350 1.38345e-17
6239.81571 1.35095e-17
6241.27790 1.18862e-17
6242.75010 1.16212e-17
6244.22231 1.25361e-17
6245.69451 1.26468e-17
6247.15670 1.19994e-17
6248.62891 1.25919e-17
6250.10111 1.41356e-17
6251.57332 1.43108e-17
6253.04552 1.26051e-17
6254.50771 1.16234e-17
6255.97991 1.32524e-17
6257.45212 1.16702e-17
6258.92433 1.14682e-17
6260.38652 1.37030e-17
6261.85872 1.33822e-17
6263.33093 1.26073e-17
6264.80313 1.21864e-17
6266.26532 1.25493e-17
6267.73753 1.27781e-17
6269.20973 1.09023e-17
6270.68194 1.13396e-17
6272.15414 1.25218e-17
6273.61633 1.21472e-17
6275.08853 1.31406e-17
6276.56074 1.34462e-17
6278.03295 1.33921e-17
6279.49514 1.28601e-17
6280.96734 1.30592e-17
6282.43955 1.32146e-17
6283.91175 1.37488e-17
6285.38396 1.31370e-17
6286.84615 1.25732e-17
6288.31835 1.21060e-17
6289.79056 1.21904e-17
6291.26276 1.30898e-17
6292.72495 1.26373e-17
6294.19716 1.21483e-17
6295.66936 1.14994e-17
6297.14157 1.31809e-17
6298.60376 1.30739e-17
6300.07596 1.24773e-17
6301.54817 1.19803e-17
6303.02037 1.34342e-17
6304.49258 1.25486e-17
6305.95477 1.14487e-17
6307.42697 1.18654e-17
6308.89918 1.30285e-17
6310.37138 1.33811e-17
6311.83357 1.33886e-17
6313.30578 1.25638e-17
6314.77798 1.25182e-17
6316.25018 1.18556e-17
6317.72239 1.18083e-17
6319.18458 1.24261e-17
6320.65679 1.13510e-17
6322.12899 1.11301e-17
6323.60120 1.06761e-17
6325.06339 1.29069e-17
6326.53559 1.29877e-17
6328.00780 1.16035e-17
6329.48000 1.25476e-17
6330.95221 1.27517e-17
6332.41440 1.31216e-17
6333.88660 1.30777e-17
6335.35880 1.27110e-17
6336.83101 1.23636e-17
6338.29320 1.30658e-17
6339.76541 1.27715e-17
6341.23761 1.17759e-17
6342.70982 1.24024e-17
6344.18202 1.23896e-17
6345.64421 1.13399e-17
6347.11642 1.22975e-17
6348.58862 1.27169e-17
6350.06083 1.22979e-17
6351.52302 1.21852e-17
6352.99522 1.29089e-17
6354.46742 1.17640e-17
6355.93963 1.25084e-17
6357.40182 1.35807e-17
6358.87403 1.22593e-17
6360.34623 1.15103e-17
6361.81844 1.13682e-17
6363.29064 1.08428e-17
6364.75283 1.13955e-17
6366.22504 1.13859e-17
6367.69724 1.18287e-17
6369.16945 1.22020e-17
6370.63164 1.16134e-17
6372.10384 1.20077e-17
6373.57604 1.13175e-17
6375.04825 1.18127e-17
6376.52046 1.31477e-17
6377.98265 1.30109e-17
6379.45485 1.36720e-17
6380.92706 1.29633e-17
6382.39926 1.11139e-17
6383.86145 1.12490e-17
6385.33366 1.14733e-17
6386.80586 1.05327e-17
6388.27807 1.10685e-17
6389.74026 1.07045e-17
6391.21246 1.06585e-17
6392.68466 1.15214e-17
6394.15687 1.06485e-17
6395.62908 1.11426e-17
6397.09127 1.24021e-17
6398.56347 1.22623e-17
6400.03568 1.21229e-17
6401.50788 1.20313e-17
6402.97007 1.14833e-17
6404.44228 1.13851e-17
6405.91448 1.19421e-17
6407.38669 1.20551e-17
6408.85889 1.09740e-17
6410.32108 1.13300e-17
6411.79328 1.05783e-17
6413.26549 1.12706e-17
6414.73770 1.11226e-17
6416.19989 1.14106e-17
6417.67209 1.41345e-17
6419.14430 1.23091e-17
6420.61650 1.22963e-17
6422.07869 1.23826e-17
6423.55090 1.17874e-17
6425.02310 1.16235e-17
6426.49531 1.14377e-17
6427.96751 1.11980e-17
6429.42970 1.13948e-17
6430.90191 1.18828e-17
6432.37411 1.20949e-17
6433.84632 1.11785e-17
6435.30851 1.19897e-17
6436.78071 1.21895e-17
6438.25292 1.29181e-17
6439.72512 1.23368e-17
6441.19733 1.16375e-17
6442.65952 1.17037e-17
6444.13172 1.32269e-17
6445.60393 1.17652e-17
6447.07613 1.16066e-17
6448.53832 1.05365e-17
6450.01053 1.13498e-17
6451.48273 1.19966e-17
6452.95494 1.16997e-17
6454.42714 1.15925e-17
6455.88933 1.10120e-17
6457.36154 1.14367e-17
6458.83374 1.13968e-17
6460.30595 1.19654e-17
6461.76814 1.20666e-17
6463.24034 1.04669e-17
6464.71255 1.13375e-17
6466.18475 1.12771e-17
6467.65696 1.12103e-17
6469.11915 1.20633e-17
6470.59135 1.15783e-17
6472.06356 1.17700e-17
6473.53576 1.19779e-17
6474.99795 1.20532e-17
6476.47016 1.12927e-17
6477.94236 1.00279e-17
6479.41457 1.18477e-17
6480.87676 1.20343e-17
6482.34896 1.11871e-17
6483.82117 1.00290e-17
6485.29337 1.07247e-17
6486.76558 1.11419e-17
6488.22777 1.23048e-17
6489.69997 1.27986e-17
6491.17218 1.09837e-17
6492.64438 1.18022e-17
6494.10657 1.15604e-17
6495.57878 1.09983e-17
6497.05098 1.02687e-17
6498.52319 1.11555e-17
6499.99539 1.19693e-17
6501.45758 1.01160e-17
6502.92979 1.17163e-17
6504.40199 1.15075e-17
6505.87420 1.14370e-17
6507.33639 9.78796e-18
6508.80859 1.12201e-17
6510.28079 1.18263e-17
6511.75300 1.05551e-17
6513.21519 1.24364e-17
6514.68740 1.22408e-17
6516.15960 1.28439e-17
6517.63180 1.29495e-17
6519.10401 1.13180e-17
6520.56620 1.10198e-17
6522.03841 9.48679e-18
6523.51061 1.07939e-17
6524.98282 1.19517e-17
6526.44501 1.14128e-17
6527.91721 1.11883e-17
6529.38941 1.10748e-17
6530.86162 1.10554e-17
6532.33383 1.15637e-17
6533.79602 1.17443e-17
6535.26822 1.20003e-17
6536.74042 1.00357e-17
6538.21263 9.71662e-18
6539.67482 1.08061e-17
6541.14703 1.06110e-17
6542.61923 1.06048e-17
6544.09144 1.05986e-17
6545.55363 1.05924e-17
6547.02583 1.05862e-17
6548.49803 1.05800e-17
6549.97024 1.05738e-17
6551.44245 1.05676e-17
6552.90464 1.05614e-17
6554.37684 1.05553e-17
6555.84904 1.05491e-17
6557.32125 1.05429e-17
6558.78344 1.05367e-17
6560.25565 1.05305e-17
6561.72785 1.05243e-17
6563.20006 1.05181e-17
6564.67226 1.05119e-17
6566.13445 1.05058e-17
6567.60666 1.04996e-17
6569.07886 1.04934e-17
6570.55107 1.04872e-17
6572.01326 1.04810e-17
6573.48546 1.04748e-17
6574.95766 1.04687e-17
6576.42987 1.04625e-17
6577.90208 1.04563e-17
6579.36427 1.04501e-17
6580.83647 1.04439e-17
6582.30868 1.04377e-17
6583.78088 1.04316e-17
6585.24307 1.04254e-17
6586.71528 1.04192e-17
6588.18748 1.04130e-17
6589.65969 1.04068e-17
6591.13189 1.04007e-17
6592.59408 1.03945e-17
6594.06628 1.03883e-17
6595.53849 1.03821e-17
6597.01070 1.03759e-17
6598.47289 1.03698e-17
6599.94509 1.03636e-17
6601.41730 1.03574e-17
6602.88950 1.03512e-17
6604.35169 1.07917e-17
6605.82390 1.10250e-17
6607.29610 1.11434e-17
6608.76831 1.04309e-17
6610.24051 1.02417e-17
6611.70270 1.07552e-17
6613.17491 1.14884e-17
6614.64711 1.01450e-17
6616.11932 9.56115e-18
6617.58151 1.02567e-17
6619.05371 1.02378e-17
6620.52592 1.00584e-17
6621.99812 1.05707e-17
6623.47033 1.11751e-17
6624.93252 1.16219e-17
6626.40472 1.08247e-17
6627.87693 1.05009e-17
6629.34913 9.19410e-18
6630.81132 9.51778e-18
6632.28353 1.08910e-17
6633.75573 1.04888e-17
6635.22793 1.03193e-17
6636.69013 1.06250e-17
6638.16233 1.10772e-17
6639.63454 1.16480e-17
6641.10674 1.05062e-17
6642.57895 1.04062e-17
6644.04114 1.03039e-17
6645.51334 1.02927e-17
6646.98555 1.04345e-17
6648.45775 1.09300e-17
6649.91994 9.88754e-18
6651.39215 9.67900e-18
6652.86435 8.25860e-18
6654.33655 1.01292e-17
6655.80876 1.06808e-17
6657.27095 7.60390e-18
6658.74316 8.80083e-18
6660.21536 9.10783e-18
6661.68757 9.51474e-18
6663.14976 1.05725e-17
6664.62196 9.17116e-18
6666.09417 9.16840e-18
6667.56637 9.74232e-18
6669.03858 1.03130e-17
6670.50077 1.10089e-17
6671.97297 1.04357e-17
6673.44517 1.05191e-17
6674.91738 9.36004e-18
6676.37957 8.78770e-18
6677.85178 1.02501e-17
6679.32398 1.03018e-17
6680.79619 1.02312e-17
6682.25838 9.42945e-18
6683.73058 9.59441e-18
6685.20279 1.00535e-17
6686.67499 9.45036e-18
6688.14720 9.80416e-18
6689.60939 1.00692e-17
6691.08159 1.01919e-17
6692.55379 9.81028e-18
6694.02600 9.98530e-18
6695.48819 9.90524e-18
6696.96040 1.08131e-17
6698.43260 1.10278e-17
6699.90481 1.02159e-17
6701.37701 1.00104e-17
6702.83920 1.10189e-17
6704.31141 1.02654e-17
6705.78361 8.63470e-18
6707.25582 8.45706e-18
6708.71801 9.30978e-18
6710.19021 8.49450e-18
6711.66241 8.54953e-18
6713.13462 1.03153e-17
6714.60683 1.00799e-17
6716.06902 9.35729e-18
6717.54122 1.02831e-17
6719.01343 9.28092e-18
6720.48563 8.59769e-18
6721.94782 8.98492e-18
6723.42003 9.79986e-18
6724.89223 9.48852e-18
6726.36444 8.31991e-18
6727.82663 8.81826e-18
6729.29883 9.33598e-18
6730.77103 9.04235e-18
6732.24324 9.62375e-18
6733.71545 9.58185e-18
6735.17764 9.87293e-18
6736.64984 1.09061e-17
6738.12205 1.06420e-17
6739.59425 9.11882e-18
6741.05644 8.80813e-18
6742.52865 8.57180e-18
6744.00085 9.59060e-18
6745.47306 1.03891e-17
6746.94526 1.03254e-17
6748.40745 1.02888e-17
6749.87966 1.00184e-17
6751.35186 8.28667e-18
6752.82407 7.40068e-18
6754.28626 8.39485e-18
6755.75846 9.35876e-18
6757.23067 9.53028e-18
6758.70287 8.10050e-18
6760.17508 7.32610e-18
6761.63727 8.36747e-18
6763.10947 8.17134e-18
6764.58168 8.53661e-18
6766.05388 8.86593e-18
6767.51607 9.59874e-18
6768.98828 1.10065e-17
6770.46048 1.05891e-17
6771.93269 9.49278e-18
6773.39487 9.95183e-18
6774.86708 1.05358e-17
6776.33929 1.03257e-17
6777.81149 1.04045e-17
6779.28370 1.01912e-17
6780.74589 9.74446e-18
6782.21809 8.71275e-18
6783.69030 8.35102e-18
6785.16250 9.35452e-18
6786.62469 1.00403e-17
6788.09690 9.95325e-18
6789.56910 8.95494e-18
6791.04131 8.97364e-18
6792.51351 1.00116e-17
6793.97570 9.63410e-18
6795.44791 8.49938e-18
6796.92011 9.20647e-18
6798.39232 1.01973e-17
6799.85451 9.42473e-18
6801.32671 8.85460e-18
6802.79892 9.47609e-18
6804.27112 9.48659e-18
6805.73331 9.53020e-18
6807.20552 1.00128e-17
6808.67772 9.32792e-18
6810.14993 9.14566e-18
6811.62213 9.18246e-18
6813.08432 9.22454e-18
6814.55653 9.27202e-18
6816.02873 9.16898e-18
6817.50094 9.89204e-18
6818.96313 1.00684e-17
6820.43533 9.86755e-18
6821.90754 9.59047e-18
6823.37974 8.98704e-18
6824.85195 9.39516e-18
6826.31414 9.85184e-18
6827.78634 9.88164e-18
6829.25854 9.94602e-18
6830.73075 9.84054e-18
6832.19294 9.93197e-18
6833.66515 8.90910e-18
6835.13735 8.72279e-18
6836.60956 9.35099e-18
6838.08176 8.56685e-18
6839.54395 8.67936e-18
6841.01616 9.58548e-18
6842.48836 8.33696e-18
6843.96057 7.36624e-18
6845.42276 9.55022e-18
6846.89496 1.03535e-17
6848.36716 9.46426e-18
6849.83937 9.84379e-18
6851.31158 8.79670e-18
6852.77377 7.73753e-18
6854.24597 8.95945e-18
6855.71817 8.90223e-18
6857.19038 8.25857e-18
6858.65257 8.52841e-18
6860.12478 8.39564e-18
6861.59698 8.49830e-18
6863.06919 9.62176e-18
6864.53138 1.01185e-17
6866.00358 8.96936e-18
6867.47578 8.35683e-18
6868.94799 8.45843e-18
6870.42020 8.73586e-18
6871.88239 8.79258e-18
6873.35459 9.25896e-18
6874.82679 9.90259e-18
6876.29900 8.91317e-18
6877.76119 8.05068e-18
6879.23340 9.19710e-18
6880.70560 9.97149e-18
6882.17781 9.68378e-18
6883.65001 9.50512e-18
6885.11220 8.68901e-18
6886.58441 8.92702e-18
6888.05661 9.76237e-18
6889.52882 9.60286e-18
6890.99101 9.26010e-18
6892.46321 9.05754e-18
6893.93541 9.32110e-18
6895.40762 8.70307e-18
6896.86981 9.17217e-18
6898.34202 1.00764e-17
6899.81422 8.64054e-18
6901.28643 9.00438e-18
6902.75863 9.16371e-18
6904.22082 9.09859e-18
6905.69303 8.81665e-18
6907.16523 8.90637e-18
6908.63744 9.69325e-18
6910.09963 9.73537e-18
6911.57183 9.13045e-18
6913.04403 8.74703e-18
6914.51624 9.77601e-18
6915.98845 9.56844e-18
6917.45064 8.55626e-18
6918.92284 8.81089e-18
6920.39505 1.00418e-17
6921.86725 1.10860e-17
6923.32944 9.90714e-18
6924.80165 8.51724e-18
6926.27385 9.66674e-18
6927.74606 1.03519e-17
6929.21826 9.96591e-18
6930.68045 9.78940e-18
6932.15266 1.05323e-17
6933.62486 9.73304e-18
6935.09707 8.22802e-18
6936.55926 7.30476e-18
6938.03146 7.85730e-18
6939.50367 9.58134e-18
6940.97587 1.00483e-17
6942.44808 9.47892e-18
6943.91027 8.98212e-18
6945.38247 8.50064e-18
6946.85468 8.66292e-18
6948.32688 9.45826e-18
6949.78907 9.21362e-18
6951.26128 8.50744e-18
6952.73348 9.04872e-18
6954.20569 1.00198e-17
6955.66788 1.03324e-17
6957.14008 1.01310e-17
6958.61229 9.57414e-18
6960.08449 9.34342e-18
6961.55670 9.26369e-18
6963.01889 8.84665e-18
6964.49109 8.74776e-18
6965.96330 8.23738e-18
6967.43550 8.37627e-18
6968.89769 9.74035e-18
6970.36990 1.00210e-17
6971.84210 9.53208e-18
6973.31430 9.09809e-18
6974.78651 9.63279e-18
6976.24870 1.02590e-17
6977.72091 9.24847e-18
6979.19311 8.65007e-18
6980.66532 9.31831e-18
6982.12751 9.36131e-18
6983.59971 9.09448e-18
6985.07192 9.13575e-18
6986.54412 8.80623e-18
6988.00631 8.93240e-18
6989.47852 8.88506e-18
6990.95072 8.83696e-18
6992.42292 9.05801e-18
6993.89513 9.20541e-18
6995.35732 9.66645e-18
6996.82953 9.40622e-18
6998.30173 8.44517e-18
6999.77394 8.24645e-18
7001.23613 8.85410e-18
7002.70833 9.84809e-18
7004.18054 1.07298e-17
7005.65274 9.92793e-18
7007.12495 8.74687e-18
7008.58714 8.78101e-18
7010.05934 8.88399e-18
7011.53154 8.46345e-18
7013.00375 8.82721e-18
7014.46594 1.00488e-17
7015.93815 9.32819e-18
7017.41035 8.95580e-18
7018.88256 9.37472e-18
7020.34475 9.07398e-18
7021.81695 9.33160e-18
7023.28916 9.39665e-18
7024.76136 9.04176e-18
7026.23357 9.00293e-18
7027.69576 9.25481e-18
7029.16796 9.43166e-18
7030.64016 9.35290e-18
7032.11237 8.65684e-18
7033.57456 8.34582e-18
7035.04677 8.00626e-18
7036.51897 8.39009e-18
7037.99118 8.88842e-18
7039.46338 8.32700e-18
7040.92557 8.59979e-18
7042.39778 8.72712e-18
7043.86998 8.96892e-18
7045.34219 8.87985e-18
7046.80438 8.40832e-18
7048.27658 8.51471e-18
7049.74878 8.60054e-18
7051.22099 9.69477e-18
7052.69320 9.42106e-18
7054.15539 9.06134e-18
7055.62759 1.03813e-17
7057.09980 9.88981e-18
7058.57200 8.45868e-18
7060.03419 8.67566e-18
7061.50640 8.63607e-18
7062.97860 8.96832e-18
7064.45081 9.04895e-18
7065.92301 9.19805e-18
7067.38520 9.01267e-18
7068.85741 7.84237e-18
7070.32961 8.84040e-18
7071.80182 9.70247e-18
7073.26401 8.81343e-18
7074.73621 9.89196e-18
7076.20842 9.98440e-18
7077.68062 9.38743e-18
7079.14281 8.86147e-18
7080.61502 9.09534e-18
7082.08722 9.38619e-18
7083.55943 9.59076e-18
7085.03163 9.01548e-18
7086.49382 8.55132e-18
7087.96603 8.52423e-18
7089.43823 8.52468e-18
7090.91044 9.08287e-18
7092.37262 9.10689e-18
7093.84483 8.52729e-18
7095.31704 8.89613e-18
7096.78924 9.05761e-18
7098.26145 8.66348e-18
7099.72364 8.69295e-18
7101.19584 8.31304e-18
7102.66805 8.97054e-18
7104.14025 9.25038e-18
7105.60244 8.60369e-18
7107.07465 9.44453e-18
7108.54685 9.31320e-18
7110.01906 9.18990e-18
7111.48124 7.83978e-18
7112.95345 7.21889e-18
7114.42566 8.54469e-18
7115.89786 7.95116e-18
7117.37007 8.11742e-18
7118.83226 8.66716e-18
7120.30446 8.29493e-18
7121.77667 8.32630e-18
7123.24887 8.41074e-18
7124.71106 8.38388e-18
7126.18327 8.39858e-18
7127.65547 8.47623e-18
7129.12768 8.78508e-18
7130.59988 9.33587e-18
7132.06207 8.41560e-18
7133.53428 8.70930e-18
7135.00648 9.28618e-18
7136.47869 9.43222e-18
7137.94088 8.62041e-18
7139.41308 8.99971e-18
7140.88529 8.72153e-18
7142.35749 9.38699e-18
7143.81968 8.70087e-18
7145.29189 9.01010e-18
7146.76409 8.11456e-18
7148.23629 7.86283e-18
7149.70850 8.61665e-18
7151.17069 1.01184e-17
7152.64290 1.01619e-17
7154.11510 8.23394e-18
7155.58731 7.27385e-18
7157.04950 8.17537e-18
7158.52170 6.77823e-18
7159.99391 7.49358e-18
7161.46611 9.07848e-18
7162.93832 9.05911e-18
7164.40051 9.45809e-18
7165.87271 9.42524e-18
7167.34491 9.14040e-18
7168.81712 8.87224e-18
7170.27931 1.00369e-17
7171.75152 9.54610e-18
7173.22372 9.92854e-18
7174.69592 1.07901e-17
7176.16813 1.00988e-17
7177.63032 9.31680e-18
7179.10253 9.62548e-18
7180.57473 9.40510e-18
7182.04694 1.07857e-17
7183.50913 1.02955e-17
7184.98133 9.96086e-18
7186.45353 1.05162e-17
7187.92574 1.09085e-17
7189.39795 1.18049e-17
7190.86014 1.17474e-17
7192.33234 1.00857e-17
7193.80454 8.87894e-18
7195.27675 9.58265e-18
7196.73894 1.14017e-17
7198.21115 1.01127e-17
7199.68335 9.19149e-18
7201.15556 9.75036e-18
7202.61775 9.55444e-18
7204.08995 1.00796e-17
7205.56216 1.15450e-17
7207.03436 1.14880e-17
7208.50657 1.05270e-17
7209.96876 1.03936e-17
7211.44096 1.04367e-17
7212.91316 8.97885e-18
7214.38537 9.92148e-18
7215.84756 1.02468e-17
7217.31977 1.05184e-17
7218.79197 1.01033e-17
7220.26418 9.73008e-18
7221.73638 1.01455e-17
7223.19857 1.13094e-17
7224.67078 1.09908e-17
7226.14298 1.12924e-17
7227.61519 9.55314e-18
7229.07738 9.54655e-18
7230.54958 1.04198e-17
7232.02178 1.12435e-17
7233.49399 1.18308e-17
7234.95618 1.20865e-17
7236.42839 1.21620e-17
7237.90059 1.10038e-17
7239.37280 1.11515e-17
7240.84500 1.13804e-17
7242.30719 1.08010e-17
7243.77940 1.01504e-17
7245.25160 9.88507e-18
7246.72381 1.05559e-17
7248.18600 1.05792e-17
7249.65820 9.77014e-18
7251.13041 1.16657e-17
7252.60261 1.17492e-17
7254.07482 1.10144e-17
7255.53701 1.00830e-17
7257.00921 1.04422e-17
7258.48142 1.17790e-17
7259.95362 1.11201e-17
7261.41581 1.06851e-17
7262.88802 1.06410e-17
7264.36022 1.03568e-17
7265.83243 1.00724e-17
7267.30463 1.05947e-17
7268.76682 1.16353e-17
7270.23903 1.25835e-17
7271.71123 1.07208e-17
7273.18344 9.83433e-18
7274.64563 1.12091e-17
7276.11783 1.22010e-17
7277.59004 1.08713e-17
7279.06224 1.10529e-17
7280.52443 1.19906e-17
7281.99664 1.08319e-17
7283.46884 9.36867e-18
7284.94105 8.72107e-18
7286.41325 1.07772e-17
7287.87544 1.14366e-17
7289.34765 9.20211e-18
7290.81985 8.32054e-18
7292.29205 9.20578e-18
7293.75425 1.06420e-17
7295.22645 1.03108e-17
7296.69866 1.05655e-17
7298.17086 1.04727e-17
7299.64307 8.93927e-18
7301.10526 9.93126e-18
7302.57746 1.11675e-17
7304.04967 1.08258e-17
7305.52187 1.08483e-17
7306.98406 1.10486e-17
7308.45627 9.91642e-18
7309.92847 1.00417e-17
7311.40067 1.03448e-17
7312.87288 1.00002e-17
7314.33507 9.61907e-18
7315.80728 1.07542e-17
7317.27948 1.12361e-17
7318.75169 1.09554e-17
7320.21388 9.49018e-18
7321.68608 8.94385e-18
7323.15829 9.93430e-18
7324.63049 8.91290e-18
7326.09268 9.70763e-18
7327.56489 9.62360e-18
7329.03709 8.65668e-18
7330.50929 9.50946e-18
7331.98150 1.03051e-17
7333.44369 9.73169e-18
7334.91590 1.07935e-17
7336.38810 1.07969e-17
7337.86031 9.76832e-18
7339.32250 9.38286e-18
7340.79470 7.57296e-18
7342.26691 9.16988e-18
7343.73911 9.90027e-18
7345.21132 8.67271e-18
7346.67351 9.63094e-18
7348.14571 1.01188e-17
7349.61791 9.05813e-18
7351.09012 9.99000e-18
7352.55231 1.04135e-17
7354.02452 9.78542e-18
7355.49672 1.02365e-17
7356.96893 9.58043e-18
7358.44113 1.00561e-17
7359.90332 1.07790e-17
7361.37553 1.04636e-17
7362.84773 9.29722e-18
7364.31994 9.05860e-18
7365.78213 9.02785e-18
7367.25433 9.83516e-18
7368.72653 1.04530e-17
7370.19874 9.23819e-18
7371.66093 1.01702e-17
7373.13314 9.87172e-18
7374.60534 8.83490e-18
7376.07755 8.64171e-18
7377.54975 8.70834e-18
7379.01194 9.68662e-18
7380.48415 1.00806e-17
7381.95635 9.28826e-18
7383.42856 9.23149e-18
7384.89075 1.03851e-17
7386.36295 1.02557e-17
7387.83516 8.67810e-18
7389.30736 8.39839e-18
7390.77957 8.70954e-18
7392.24176 8.56787e-18
7393.71396 9.27109e-18
7395.18617 9.39150e-18
7396.65837 9.31035e-18
7398.12056 8.13685e-18
7399.59277 7.96106e-18
7401.06497 9.57682e-18
7402.53718 9.98643e-18
7404.00938 9.48876e-18
7405.47157 9.16607e-18
7406.94378 1.02973e-17
7408.41598 8.96568e-18
7409.88819 8.99334e-18
7411.35037 9.17828e-18
7412.82258 8.32598e-18
7414.29479 9.52543e-18
7415.76699 9.27123e-18
7417.22918 1.02679e-17
7418.70139 9.82743e-18
7420.17359 9.22421e-18
7421.64580 9.59513e-18
7423.11800 1.01940e-17
7424.58019 9.01304e-18
7426.05240 8.83058e-18
7427.52460 9.78613e-18
7428.99681 8.44184e-18
7430.45899 9.41398e-18
7431.93120 1.07433e-17
7433.40341 8.76380e-18
7434.87561 7.76509e-18
7436.34782 8.66287e-18
7437.81001 8.94049e-18
7439.28221 8.70535e-18
7440.75442 8.40584e-18
7442.22662 8.32502e-18
7443.68881 9.63344e-18
7445.16102 8.42572e-18
7446.63322 8.48231e-18
7448.10543 8.83280e-18
7449.57763 9.21635e-18
7451.03982 7.73757e-18
7452.51203 6.66924e-18
7453.98423 9.27900e-18
7455.45644 8.49011e-18
7456.91863 8.28811e-18
7458.39083 8.04550e-18
7459.86304 8.65219e-18
7461.33524 8.51775e-18
7462.79743 7.05622e-18
7464.26964 7.32444e-18
7465.74184 8.28045e-18
7467.21404 8.79163e-18
7468.68625 8.94730e-18
7470.14844 7.55907e-18
7471.62065 7.45953e-18
7473.09285 7.78538e-18
7474.56506 7.67043e-18
7476.02725 7.90065e-18
7477.49945 6.98046e-18
7478.97166 6.64602e-18
7480.44386 7.63161e-18
7481.91607 5.17525e-18
7483.37826 6.47867e-18
7484.85046 7.42050e-18
7486.32266 7.50659e-18
7487.79487 8.11971e-18
7489.25706 8.00864e-18
7490.72927 6.84026e-18
7492.20147 7.81715e-18
7493.67368 8.04372e-18
7495.14588 8.43955e-18
7496.60807 7.35208e-18
7498.08028 7.55748e-18
7499.55248 8.40401e-18
7501.02469 7.32831e-18
7502.48688 8.52504e-18
7503.95908 9.09157e-18
7505.43128 7.06021e-18
7506.90349 8.59568e-18
7508.36568 8.37149e-18
7509.83789 7.03775e-18
7511.31009 6.64494e-18
7512.78229 7.58037e-18
7514.25450 8.20237e-18
7515.71669 8.25567e-18
7517.18890 7.83497e-18
7518.66110 7.73807e-18
7520.13331 6.00161e-18
7521.59550 6.34569e-18
7523.06770 7.63863e-18
7524.53991 8.18952e-18
7526.01211 8.26923e-18
7527.48432 9.40343e-18
7528.94651 8.10948e-18
7530.41871 5.80527e-18
7531.89091 6.28905e-18
7533.36312 7.25785e-18
7534.82531 8.46640e-18
7536.29752 8.19450e-18
7537.76972 8.31505e-18
7539.24193 6.89898e-18
7540.71413 6.89808e-18
7542.17632 8.16055e-18
7543.64853 7.84222e-18
7545.12073 7.43116e-18
7546.59294 7.48077e-18
7548.05513 7.90653e-18
7549.52733 7.33329e-18
7550.99953 8.48717e-18
7552.47174 7.60389e-18
7553.93393 7.83728e-18
7555.40614 7.42999e-18
7556.87834 6.87806e-18
7558.35055 7.85395e-18
7559.82275 7.76482e-18
7561.28494 7.22685e-18
7562.75715 7.41384e-18
7564.22935 5.93144e-18
7565.70156 7.14852e-18
7567.16375 8.56854e-18
7568.63595 8.79790e-18
7570.10816 7.19508e-18
7571.58036 7.61424e-18
7573.05257 7.80283e-18
7574.51476 8.04643e-18
7575.98696 7.76612e-18
7577.45917 8.65319e-18
7578.93137 8.78195e-18
7580.39356 7.55941e-18
7581.86577 6.19624e-18
7583.33797 7.02666e-18
7584.81018 8.42043e-18
7586.28238 8.36216e-18
7587.74457 8.41066e-18
7589.21678 9.14278e-18
7590.68898 8.38519e-18
7592.16119 6.81945e-18
7593.62338 7.23305e-18
7595.09558 9.06850e-18
7596.56779 8.71505e-18
7598.03999 6.30170e-18
7599.50218 6.74949e-18
7600.97439 7.29522e-18
7602.44659 6.79807e-18
7603.91880 6.65031e-18
7605.39100 4.69588e-18
7606.85319 7.25328e-18
7608.32540 8.03606e-18
7609.79760 5.41944e-18
7611.26980 5.72837e-18
7612.73200 6.41263e-18
7614.20420 7.45073e-18
7615.67641 7.37190e-18
7617.14861 7.38190e-18
7618.62082 7.44445e-18
7620.08301 7.44928e-18
7621.55521 6.39217e-18
7623.02742 6.14237e-18
7624.49962 5.92516e-18
7625.96181 6.51598e-18
7627.43402 7.33163e-18
7628.90622 7.07024e-18
7630.37842 5.73773e-18
7631.85063 5.49111e-18
7633.31282 5.90787e-18
7634.78503 6.06145e-18
7636.25723 6.85981e-18
7637.72944 7.04596e-18
7639.19163 7.91280e-18
7640.66383 8.05018e-18
7642.13604 6.56956e-18
7643.60824 6.33393e-18
7645.07043 7.05798e-18
7646.54264 8.05746e-18
7648.01484 7.09826e-18
7649.48704 6.98420e-18
7650.95925 6.35062e-18
7652.42144 9.23864e-18
7653.89365 9.00010e-18
7655.36585 8.80553e-18
7656.83806 7.45501e-18
7658.30025 8.61388e-18
7659.77245 1.04410e-17
7661.24466 9.58549e-18
7662.71686 8.65883e-18
7664.18907 9.18838e-18
7665.65126 9.50360e-18
7667.12346 1.00447e-17
7668.59566 1.00235e-17
7669.31571 1.00235e-17
7670.17717 1.01684e-17
7671.03863 1.03133e-17
7671.91011 1.04181e-17
7672.77158 1.05228e-17
7673.63304 1.05807e-17
7674.49450 1.06384e-17
7675.35596 1.06519e-17
7676.21742 1.06654e-17
7677.07889 1.06894e-17
7677.94035 1.07133e-17
7678.80181 1.08025e-17
7679.66327 1.08919e-17
7680.52473 1.10141e-17
7681.38620 1.11362e-17
7682.25767 1.12402e-17
7683.11914 1.13443e-17
7683.98060 1.14300e-17
7684.84206 1.15157e-17
7685.70352 1.15975e-17
7686.56498 1.16793e-17
7687.42645 1.17606e-17
7688.28791 1.18418e-17
7689.14937 1.19238e-17
7690.01083 1.20057e-17
7690.88231 1.20804e-17
7691.74377 1.21551e-17
7692.60524 1.22069e-17
7693.46670 1.22587e-17
7694.32816 1.22913e-17
7695.18962 1.23240e-17
7696.05108 1.23616e-17
7696.91255 1.23993e-17
7697.77401 1.24512e-17
7698.63547 1.25029e-17
7699.49693 1.25566e-17
7700.35839 1.26102e-17
7701.22987 1.26554e-17
7702.09133 1.27007e-17
7702.95280 1.27315e-17
7703.81426 1.27621e-17
7704.67572 1.27741e-17
7705.53718 1.27859e-17
7706.39864 1.27799e-17
7707.26011 1.27739e-17
7708.12157 1.27553e-17
7708.98303 1.27367e-17
7709.84449 1.27271e-17
7710.71597 1.27175e-17
7711.57743 1.27361e-17
7712.43890 1.27548e-17
7713.30036 1.27970e-17
7714.16182 1.28393e-17
7715.02328 1.28946e-17
7715.88474 1.29499e-17
7716.74620 1.30013e-17
7717.60767 1.30529e-17
7718.46913 1.30820e-17
7719.33059 1.31113e-17
7720.20207 1.31169e-17
7721.06353 1.31226e-17
7721.92499 1.31114e-17
7722.78646 1.31002e-17
7723.64792 1.30837e-17
7724.50938 1.30671e-17
7725.37084 1.30607e-17
7726.23230 1.30541e-17
7727.09377 1.30626e-17
7727.95523 1.30713e-17
7728.81669 1.30897e-17
7729.67815 1.31083e-17
7730.54963 1.31357e-17
7731.41109 1.31632e-17
7732.27255 1.32053e-17
7733.13402 1.32473e-17
7733.99548 1.32973e-17
7734.85694 1.33472e-17
7735.71840 1.33781e-17
7736.57986 1.34089e-17
7737.44133 1.34053e-17
7738.30279 1.34017e-17
7739.17427 1.33747e-17
7740.03573 1.33477e-17
7740.89719 1.33117e-17
7741.75865 1.32756e-17
7742.62012 1.32520e-17
7743.48158 1.32284e-17
7744.34304 1.32347e-17
7745.20450 1.32409e-17
7746.06596 1.32653e-17
7746.92743 1.32896e-17
7747.78889 1.33157e-17
7748.65035 1.33417e-17
7749.52183 1.33638e-17
7750.38329 1.33858e-17
7751.24475 1.33995e-17
7752.10621 1.34133e-17
7752.96768 1.34188e-17
7753.82914 1.34243e-17
7754.69060 1.34246e-17
7755.55206 1.34248e-17
7756.41352 1.34161e-17
7757.27499 1.34074e-17
7758.13645 1.33826e-17
7759.00793 1.33578e-17
7759.86939 1.33241e-17
7760.73085 1.32902e-17
7761.59231 1.32644e-17
7762.45378 1.32387e-17
7763.31524 1.32250e-17
7764.17670 1.32113e-17
7765.03816 1.32008e-17
7765.89962 1.31903e-17
7766.76109 1.31762e-17
7767.62255 1.31620e-17
7768.49403 1.31390e-17
7769.35549 1.31159e-17
7770.21695 1.30837e-17
7771.07841 1.30513e-17
7771.93988 1.30207e-17
7772.80134 1.29903e-17
7773.66280 1.29695e-17
7774.52426 1.29488e-17
7775.38572 1.29336e-17
7776.24719 1.29185e-17
7777.10865 1.29056e-17
7777.98013 1.28927e-17
7778.84159 1.28840e-17
7779.70305 1.28753e-17
7780.56451 1.28725e-17
7781.42597 1.28698e-17
7782.28744 1.28724e-17
7783.14890 1.28751e-17
7784.01036 1.28821e-17
7784.87182 1.28891e-17
7785.73328 1.28994e-17
7786.59475 1.29098e-17
7787.46623 1.29223e-17
7788.32769 1.29349e-17
7789.18915 1.29461e-17
7790.05061 1.29572e-17
7790.91207 1.29629e-17
7791.77354 1.29684e-17
7792.63500 1.29663e-17
7793.49646 1.29643e-17
7794.35792 1.29539e-17
7795.21938 1.29435e-17
7796.08085 1.29296e-17
7796.94231 1.29157e-17
7797.81379 1.29072e-17
7798.67525 1.28988e-17
7799.53671 1.29024e-17
7800.39817 1.29061e-17
7801.25963 1.29262e-17
7802.12110 1.29464e-17
7802.98256 1.29797e-17
7803.84402 1.30131e-17
7804.70548 1.30426e-17
7805.56694 1.30723e-17
7806.42841 1.30860e-17
7807.29989 1.30998e-17
7808.16135 1.30991e-17
7809.02281 1.30984e-17
7809.88427 1.30855e-17
7810.74573 1.30726e-17
7811.60720 1.30502e-17
7812.46866 1.30277e-17
7813.33012 1.29998e-17
7814.19158 1.29719e-17
7815.05304 1.29436e-17
7815.91450 1.29152e-17
7816.78598 1.28912e-17
7817.64745 1.28672e-17
7818.50891 1.28532e-17
7819.37037 1.28393e-17
7820.23183 1.28399e-17
7821.09329 1.28406e-17
7821.95476 1.28454e-17
7822.81622 1.28504e-17
7823.67768 1.28438e-17
7824.53914 1.28372e-17
7825.40060 1.28173e-17
7826.27208 1.27973e-17
7827.13355 1.27687e-17
7827.99501 1.27403e-17
7828.85647 1.27072e-17
7829.71793 1.26741e-17
7830.57939 1.26404e-17
7831.44085 1.26068e-17
7832.30232 1.25752e-17
7833.16378 1.25435e-17
7834.02524 1.25140e-17
7834.88670 1.24844e-17
7835.75818 1.24597e-17
7836.61964 1.24349e-17
7837.48111 1.24227e-17
7838.34257 1.24105e-17
7839.20403 1.24129e-17
7840.06549 1.24151e-17
7840.92695 1.24233e-17
7841.78842 1.24316e-17
7842.64988 1.24381e-17
7843.51134 1.24447e-17
7844.37280 1.24461e-17
7845.23426 1.24477e-17
7846.10574 1.24420e-17
7846.96720 1.24365e-17
7847.82867 1.24266e-17
7848.69013 1.24168e-17
7849.55159 1.24062e-17
7850.41305 1.23956e-17
7851.27452 1.23866e-17
7852.13598 1.23775e-17
7852.99744 1.23714e-17
7853.85890 1.23653e-17
7854.72036 1.23635e-17
7855.59184 1.23616e-17
7856.45330 1.23646e-17
7857.31477 1.23677e-17
7858.17623 1.23709e-17
7859.03769 1.23741e-17
7859.89915 1.23700e-17
7860.76061 1.23659e-17
7861.62208 1.23550e-17
7862.48354 1.23441e-17
7863.34500 1.23325e-17
7864.20646 1.23209e-17
7865.07794 1.23054e-17
7865.93940 1.22900e-17
7866.80087 1.22604e-17
7867.66233 1.22310e-17
7868.52379 1.21863e-17
7869.38525 1.21418e-17
7870.24671 1.20906e-17
7871.10818 1.20392e-17
7871.96964 1.19932e-17
7872.83110 1.19472e-17
7873.69256 1.19256e-17
7874.56404 1.19043e-17
7875.42550 1.19148e-17
7876.28696 1.19255e-17
7877.14843 1.19464e-17
7878.00989 1.19674e-17
7878.87135 1.19786e-17
7879.73281 1.19899e-17
7880.59427 1.19852e-17
7881.45574 1.19806e-17
7882.31720 1.19569e-17
7883.17866 1.19331e-17
7884.05014 1.18986e-17
7884.91160 1.18641e-17
7885.77306 1.18293e-17
7886.63453 1.17946e-17
7887.49599 1.17588e-17
7888.35745 1.17229e-17
7889.21891 1.16835e-17
7890.08037 1.16440e-17
7890.94184 1.16032e-17
7891.80330 1.15624e-17
7892.66476 1.15227e-17
7893.52622 1.14831e-17
7894.39770 1.14549e-17
7895.25916 1.14266e-17
7896.12062 1.14242e-17
7896.98209 1.14216e-17
7897.84355 1.14367e-17
7898.70501 1.14517e-17
7899.56647 1.14605e-17
7900.42793 1.14693e-17
7901.28940 1.14615e-17
7902.15086 1.14537e-17
7903.01232 1.14319e-17
7903.88380 1.14099e-17
7904.74526 1.13806e-17
7905.60672 1.13515e-17
7906.46819 1.13301e-17
7907.32965 1.13089e-17
7908.19111 1.13015e-17
7909.05257 1.12941e-17
7909.91403 1.12835e-17
7910.77550 1.12730e-17
7911.63696 1.12491e-17
7912.49842 1.12251e-17
7913.36990 1.12001e-17
7914.23136 1.11749e-17
7915.09282 1.11589e-17
7915.95428 1.11429e-17
7916.81575 1.11367e-17
7917.67721 1.11304e-17
7918.53867 1.11325e-17
7919.40013 1.11347e-17
7920.26159 1.11302e-17
7921.12306 1.11258e-17
7921.98452 1.10995e-17
7922.85600 1.10731e-17
7923.71746 1.10343e-17
7924.57892 1.09955e-17
7925.44038 1.09605e-17
7926.30185 1.09254e-17
7927.16331 1.09036e-17
7928.02477 1.08819e-17
7928.88623 1.08797e-17
7929.74769 1.08777e-17
7930.60916 1.08912e-17
7931.47062 1.09048e-17
7932.34210 1.09228e-17
7933.20356 1.09410e-17
7934.06502 1.09540e-17
7934.92648 1.09671e-17
7935.78794 1.09671e-17
7936.64941 1.09672e-17
7937.51087 1.09501e-17
7938.37233 1.09330e-17
7939.23379 1.08997e-17
7940.09525 1.08664e-17
7940.95672 1.08217e-17
7941.81818 1.07771e-17
7942.68966 1.07322e-17
7943.55112 1.06874e-17
7944.41258 1.06510e-17
7945.27404 1.06147e-17
7946.13551 1.05884e-17
7946.99697 1.05621e-17
7947.85843 1.05458e-17
7948.71989 1.05294e-17
7949.58135 1.05199e-17
7950.44282 1.05105e-17
7951.30428 1.05037e-17
7952.17576 1.04970e-17
7953.03722 1.04838e-17
7953.89868 1.04707e-17
7954.76014 1.04434e-17
7955.62160 1.04161e-17
7956.48307 1.03860e-17
7957.34453 1.03558e-17
7958.20599 1.03377e-17
7959.06745 1.03198e-17
7959.92891 1.03149e-17
7960.79038 1.03099e-17
7961.66186 1.03150e-17
7962.52332 1.03199e-17
7963.38478 1.03270e-17
7964.24624 1.03341e-17
7965.10770 1.03319e-17
7965.96917 1.03296e-17
7966.83063 1.03247e-17
7967.69209 1.03197e-17
7968.55355 1.03307e-17
7969.41501 1.03417e-17
7970.27648 1.03731e-17
7971.14795 1.04045e-17
7972.00942 1.04467e-17
7972.87088 1.04888e-17
7973.73234 1.05292e-17
7974.59380 1.05696e-17
7975.45526 1.05897e-17
7976.31673 1.06099e-17
7977.17819 1.06019e-17
7978.03965 1.05939e-17
7978.90111 1.05728e-17
7979.76257 1.05518e-17
7980.63405 1.05308e-17
7981.49552 1.05100e-17
7982.35698 1.04924e-17
7983.21844 1.04749e-17
7984.07990 1.04628e-17
7984.94136 1.04507e-17
7985.80283 1.04396e-17
7986.66429 1.04286e-17
7987.52575 1.04139e-17
7988.38721 1.03991e-17
7989.24867 1.03827e-17
7990.11014 1.03663e-17
7990.98161 1.03506e-17
7991.84308 1.03349e-17
7992.70454 1.03247e-17
7993.56600 1.03145e-17
7994.42746 1.03155e-17
7995.28892 1.03165e-17
7996.15039 1.03175e-17
7997.01185 1.03186e-17
7997.87331 1.03021e-17
7998.73477 1.02857e-17
7999.59623 1.02540e-17
8000.46771 1.02222e-17
8001.32917 1.01884e-17
8002.19064 1.01546e-17
8003.05210 1.01288e-17
8003.91356 1.01030e-17
8004.77502 1.00937e-17
8005.63649 1.00844e-17
8006.49795 1.00894e-17
8007.35941 1.00945e-17
8008.22087 1.00963e-17
8009.08233 1.00982e-17
8009.95381 1.00912e-17
8010.81527 1.00842e-17
8011.67674 1.00851e-17
8012.53820 1.00859e-17
8013.39966 1.01028e-17
8014.26112 1.01197e-17
8015.12258 1.01407e-17
8015.98405 1.01618e-17
8016.84551 1.01759e-17
8017.70697 1.01899e-17
8018.56843 1.01856e-17
8019.43991 1.01812e-17
8020.30137 1.01514e-17
8021.16284 1.01216e-17
8022.02430 1.00853e-17
8022.88576 1.00490e-17
8023.74722 1.00270e-17
8024.60868 1.00050e-17
8025.47015 9.99667e-18
8026.33161 9.98838e-18
8027.19307 9.98820e-18
8028.05453 9.98802e-18
8028.92601 9.98911e-18
8029.78747 9.99020e-18
8030.64893 9.98461e-18
8031.51040 9.97899e-18
8032.37186 9.96751e-18
8033.23332 9.95601e-18
8034.09478 9.94418e-18
8034.95624 9.93237e-18
8035.81771 9.92378e-18
8036.67917 9.91520e-18
8037.54063 9.91197e-18
8038.41211 9.90876e-18
8039.27357 9.91169e-18
8040.13503 9.91461e-18
8040.99650 9.92274e-18
8041.85796 9.93087e-18
8042.71942 9.94149e-18
8043.58088 9.95212e-18
8044.44234 9.96047e-18
8045.30380 9.96882e-18
8046.16527 9.97129e-18
8047.02673 9.97375e-18
8047.88819 9.96867e-18
8048.75967 9.96356e-18
8049.62113 9.95181e-18
8050.48259 9.94005e-18
8051.34406 9.93032e-18
8052.20552 9.92059e-18
8053.06698 9.91936e-18
8053.92844 9.91816e-18
8054.78990 9.92051e-18
8055.65137 9.92287e-18
8056.51283 9.92261e-18
8057.37429 9.92233e-18
8058.24577 9.91203e-18
8059.10723 9.90171e-18
8059.96869 9.87508e-18
8060.83015 9.84842e-18
8061.69162 9.81060e-18
8062.55308 9.77274e-18
8063.41454 9.73243e-18
8064.27600 9.69212e-18
8065.13746 9.65924e-18
8065.99893 9.62638e-18
8066.86039 9.61062e-18
8067.73187 9.59491e-18
8068.59333 9.59683e-18
8069.45479 9.59880e-18
8070.31625 9.61321e-18
8071.17772 9.62765e-18
8072.03918 9.64422e-18
8072.90064 9.66078e-18
8073.76210 9.66475e-18
8074.62356 9.66867e-18
8075.48503 9.65457e-18
8076.34649 9.64044e-18
8077.21797 9.61533e-18
8078.07943 9.59020e-18
8078.94089 9.55849e-18
8079.80235 9.52675e-18
8080.66381 9.48759e-18
8081.52528 9.44841e-18
8082.38674 9.40242e-18
8083.24820 9.35640e-18
8084.10966 9.30552e-18
8084.97113 9.25463e-18
8085.83259 9.20115e-18
8086.70407 9.14765e-18
8087.56553 9.09495e-18
8088.42699 9.04226e-18
8089.28845 8.99353e-18
8090.14991 8.94482e-18
8091.01138 8.90294e-18
8091.87284 8.86108e-18
8092.73430 8.82757e-18
8093.59576 8.79409e-18
8094.45722 8.76831e-18
8095.31869 8.74257e-18
8096.18015 8.72246e-18
8097.05163 8.70238e-18
8097.91309 8.67674e-18
8098.77455 8.65110e-18
8099.63601 8.60667e-18
8100.49748 8.56218e-18
8101.35894 8.49474e-18
8102.22040 8.42724e-18
8103.08186 8.33766e-18
8103.94332 8.24801e-18
8104.80479 8.14713e-18
8105.67626 8.04623e-18
8106.53773 7.95165e-18
8107.39919 7.85709e-18
8108.26065 7.77979e-18
8109.12211 7.70252e-18
8109.98357 7.64622e-18
8110.84504 7.58996e-18
8111.70650 7.54972e-18
8112.56796 7.50951e-18
8113.42942 7.46808e-18
8114.29088 7.42665e-18
8115.15235 7.37009e-18
8116.02383 7.31351e-18
8116.88529 7.23590e-18
8117.74675 7.15825e-18
8118.60821 7.05847e-18
8119.46967 6.95865e-18
8120.33114 6.85109e-18
8121.19260 6.74354e-18
8122.05406 6.63972e-18
8122.91552 6.53592e-18
8123.77698 6.42301e-18
8124.63845 6.31008e-18
8125.49991 6.17615e-18
8126.37139 6.04218e-18
8127.23285 5.89363e-18
8128.09431 5.74504e-18
8128.95577 5.59125e-18
8129.81723 5.43745e-18
8130.67870 5.29642e-18
8131.54016 5.15543e-18
8132.40162 5.04653e-18
8133.26308 4.93772e-18
8134.12454 4.85055e-18
8134.99602 4.76345e-18
8135.85749 4.67472e-18
8136.71895 4.58599e-18
8137.58041 4.48686e-18
8138.44187 4.38771e-18
8139.30333 4.27786e-18
8140.16480 4.16798e-18
8141.02626 4.05020e-18
8141.88772 3.93240e-18
8142.74918 3.81326e-18
8143.61064 3.69410e-18
8144.47210 3.58008e-18
8145.34358 3.46608e-18
8146.20505 3.36239e-18
8147.06651 3.25872e-18
8147.92797 3.16900e-18
8148.78943 3.07933e-18
8149.65089 3.00473e-18
8150.51236 2.93019e-18
8151.37382 2.86888e-18
8152.23528 2.80761e-18
8153.09674 2.75150e-18
8153.95820 2.69541e-18
8154.82968 2.63797e-18
8155.69115 2.58054e-18
8156.55261 2.52239e-18
8157.41407 2.46424e-18
8158.27553 2.40736e-18
8159.13699 2.35050e-18
8159.99845 2.29974e-18
8160.85992 2.24899e-18
8161.72138 2.20910e-18
8162.58284 2.16923e-18
8163.44430 2.14165e-18
8164.31578 2.11410e-18
8165.17724 2.09858e-18
8166.03871 2.08308e-18
8166.90017 2.07223e-18
8167.76163 2.06139e-18
8168.62309 2.04624e-18
8169.48455 2.03109e-18
8170.34602 2.00416e-18
8171.20748 1.97722e-18
8172.06894 1.93143e-18
8172.93040 1.88559e-18
8173.80188 1.83302e-18
8174.66334 1.78044e-18
8175.52481 1.74724e-18
8176.38627 1.71408e-18
8177.24773 1.70604e-18
8178.10919 1.69807e-18
8178.97065 1.70006e-18
8179.83212 1.70207e-18
8180.69358 1.70255e-18
8181.55504 1.70304e-18
8182.41650 1.69475e-18
8183.28798 1.68646e-18
8184.14944 1.66677e-18
8185.01090 1.64706e-18
8185.87237 1.62574e-18
8186.73383 1.60441e-18
8187.59529 1.58845e-18
8188.45675 1.57249e-18
8189.31821 1.55649e-18
8190.17968 1.54047e-18
8191.04114 1.52065e-18
8191.90260 1.50081e-18
8192.77408 1.48177e-18
8193.63554 1.46273e-18
8194.49700 1.44914e-18
8195.35846 1.43556e-18
8196.21993 1.43159e-18
8197.08139 1.42763e-18
8197.94285 1.43643e-18
8198.80431 1.44525e-18
8199.66577 1.45927e-18
8200.52724 1.47330e-18
8201.38870 1.48201e-18
8202.25016 1.49070e-18
8203.12164 1.49203e-18
8203.98310 1.49336e-18
8204.84456 1.48904e-18
8205.70603 1.48471e-18
8206.56749 1.47560e-18
8207.42895 1.46648e-18
8208.29041 1.45332e-18
8209.15187 1.44015e-18
8210.01334 1.42507e-18
8210.87480 1.40999e-18
8211.73626 1.39577e-18
8212.60774 1.38157e-18
8213.46920 1.36939e-18
8214.33066 1.35723e-18
8215.19212 1.34689e-18
8216.05359 1.33656e-18
8216.91505 1.32479e-18
8217.77651 1.31302e-18
8218.63797 1.29071e-18
8219.49943 1.26838e-18
8220.36090 1.23205e-18
8221.22236 1.19569e-18
8222.08382 1.15465e-18
8222.95530 1.11360e-18
8223.81676 1.07824e-18
8224.67822 1.04289e-18
8225.53969 1.02622e-18
8226.40115 1.00960e-18
8227.26261 1.02102e-18
8228.12407 1.03251e-18
8228.98553 1.06328e-18
8229.84700 1.09408e-18
8230.70846 1.13202e-18
8231.57994 1.16998e-18
8232.44140 1.20328e-18
8233.30286 1.23658e-18
8234.16432 1.25426e-18
8235.02578 1.27192e-18
8235.88725 1.27763e-18
8236.74871 1.28331e-18
8237.61017 1.28621e-18
8238.47163 1.28910e-18
8239.33309 1.29556e-18
8240.19456 1.30202e-18
8241.06604 1.31736e-18
8241.92750 1.33272e-18
8242.78896 1.35382e-18
8243.65042 1.37493e-18
8244.51188 1.39222e-18
8245.37335 1.40951e-18
8246.23481 1.41827e-18
8247.09627 1.42702e-18
8247.95773 1.42779e-18
8248.81919 1.42854e-18
8249.68066 1.42323e-18
8250.54212 1.41791e-18
8251.41360 1.41079e-18
8252.27506 1.40366e-18
8253.13652 1.39869e-18
8253.99798 1.39373e-18
8254.85945 1.39333e-18
8255.72091 1.39295e-18
8256.58237 1.39848e-18
8257.44383 1.40403e-18
8258.30529 1.41456e-18
8259.16676 1.42509e-18
8260.02822 1.43858e-18
8260.89970 1.45207e-18
8261.76116 1.46479e-18
8262.62262 1.47752e-18
8263.48408 1.48580e-18
8264.34554 1.49408e-18
8265.20701 1.49462e-18
8266.06847 1.49514e-18
8266.92993 1.48577e-18
8267.79139 1.47638e-18
8268.65285 1.46208e-18
8269.52433 1.44776e-18
8270.38580 1.43546e-18
8271.24726 1.42316e-18
8272.10872 1.41749e-18
8272.97018 1.41185e-18
8273.83164 1.41642e-18
8274.69311 1.42102e-18
8275.55457 1.43225e-18
8276.41603 1.44348e-18
8277.27749 1.45325e-18
8278.13895 1.46302e-18
8279.01043 1.46803e-18
8279.87189 1.47302e-18
8280.73336 1.47405e-18
8281.59482 1.47507e-18
8282.45628 1.47456e-18
8283.31774 1.47405e-18
8284.17920 1.47713e-18
8285.04067 1.48022e-18
8285.90213 1.48883e-18
8286.76359 1.49745e-18
8287.62505 1.50697e-18
8288.48651 1.51649e-18
8289.34798 1.52444e-18
8290.21946 1.53239e-18
8291.08092 1.54248e-18
8291.94238 1.55257e-18
8292.80384 1.56691e-18
8293.66530 1.58125e-18
8294.52677 1.59610e-18
8295.38823 1.61094e-18
8296.24969 1.62283e-18
8297.11115 1.63471e-18
8297.97261 1.64141e-18
8298.83408 1.64809e-18
8299.70555 1.64826e-18
8300.56702 1.64842e-18
8301.42848 1.64995e-18
8302.28994 1.65148e-18
8303.15140 1.66368e-18
8304.01286 1.67591e-18
8304.87433 1.69521e-18
8305.73579 1.71450e-18
8306.59725 1.73312e-18
8307.45871 1.75174e-18
8308.32017 1.76498e-18
8309.18164 1.77821e-18
8310.05312 1.78262e-18
8310.91458 1.78701e-18
8311.77604 1.78627e-18
8312.63750 1.78551e-18
8313.49896 1.78852e-18
8314.36043 1.79153e-18
8315.22189 1.80328e-18
8316.08335 1.81507e-18
8316.94481 1.83657e-18
8317.80627 1.85811e-18
8318.67775 1.88683e-18
8319.53921 1.91557e-18
8320.40068 1.94351e-18
8321.26214 1.97145e-18
8322.12360 1.99289e-18
8322.98506 2.01432e-18
8323.84652 2.02918e-18
8324.70799 2.04403e-18
8325.56945 2.05307e-18
8326.43091 2.06210e-18
8327.29237 2.06753e-18
8328.16385 2.07296e-18
8329.02531 2.07757e-18
8329.88678 2.08217e-18
8330.74824 2.08752e-18
8331.60970 2.09289e-18
8332.47116 2.10058e-18
8333.33262 2.10828e-18
8334.19408 2.12216e-18
8335.05555 2.13606e-18
8335.91701 2.15934e-18
8336.77847 2.18264e-18
8337.64995 2.21282e-18
8338.51141 2.24299e-18
8339.37287 2.27576e-18
8340.23434 2.30853e-18
8341.09580 2.33798e-18
8341.95726 2.36742e-18
8342.81872 2.38716e-18
8343.68018 2.40688e-18
8344.54165 2.41705e-18
8345.40311 2.42720e-18
8346.26457 2.43228e-18
8347.12603 2.43734e-18
8347.99751 2.44097e-18
8348.85897 2.44461e-18
8349.72043 2.44953e-18
8350.58190 2.45445e-18
8351.44336 2.46382e-18
8352.30482 2.47320e-18
8353.16628 2.49036e-18
8354.02775 2.50755e-18
8354.88921 2.53290e-18
8355.75067 2.55828e-18
8356.62215 2.58767e-18
8357.48361 2.61709e-18
8358.34507 2.64641e-18
8359.20653 2.67573e-18
8360.06800 2.70137e-18
8360.92946 2.72699e-18
8361.79092 2.74678e-18
8362.65238 2.76656e-18
8363.51384 2.78425e-18
8364.37531 2.80192e-18
8365.23677 2.82116e-18
8366.10825 2.84040e-18
8366.96971 2.85880e-18
8367.83117 2.87719e-18
8368.69263 2.89222e-18
8369.55410 2.90725e-18
8370.41556 2.92135e-18
8371.27702 2.93547e-18
8372.13848 2.95203e-18
8372.99994 2.96860e-18
8373.86140 2.98946e-18
8374.72287 3.01034e-18
8375.59435 3.03668e-18
8376.45581 3.06304e-18
8377.31727 3.09461e-18
8378.17873 3.12620e-18
8379.04019 3.16178e-18
8379.90166 3.19738e-18
8380.76312 3.23504e-18
8381.62458 3.27270e-18
8382.48604 3.31014e-18
8383.34750 3.34758e-18
8384.20897 3.38290e-18
8385.07043 3.41820e-18
8385.94191 3.44965e-18
8386.80337 3.48110e-18
8387.66483 3.50973e-18
8388.52629 3.53836e-18
8389.38775 3.56973e-18
8390.24922 3.60110e-18
8391.11068 3.63677e-18
8391.97214 3.67244e-18
8392.83360 3.70524e-18
8393.69507 3.73804e-18
8394.55653 3.76282e-18
8395.41799 3.78758e-18
8396.28947 3.80421e-18
8397.15093 3.82082e-18
8398.01239 3.83137e-18
8398.87385 3.84191e-18
8399.73532 3.85804e-18
8400.59678 3.87419e-18
8401.45824 3.90654e-18
8402.31970 3.93894e-18
8403.18116 3.98408e-18
8404.04263 4.02925e-18
8404.90409 4.08067e-18
8405.77557 4.13210e-18
8406.63703 4.18260e-18
8407.49849 4.23310e-18
8408.35995 4.27523e-18
8409.22142 4.31735e-18
8410.08288 4.35116e-18
8410.94434 4.38495e-18
8411.80580 4.41423e-18
8412.66726 4.44349e-18
8413.52873 4.47086e-18
8414.39019 4.49821e-18
8415.26167 4.52579e-18
8416.12313 4.55337e-18
8416.98459 4.58340e-18
8417.84605 4.61345e-18
8418.70751 4.64780e-18
8419.56898 4.68216e-18
8420.43044 4.72154e-18
8421.29190 4.76094e-18
8422.15336 4.80519e-18
8423.01482 4.84946e-18
8423.87629 4.89623e-18
8424.74777 4.94302e-18
8425.60923 4.98584e-18
8426.47069 5.02867e-18
8427.33215 5.06491e-18
8428.19361 5.10115e-18
8429.05508 5.13812e-18
8429.91654 5.17509e-18
8430.77800 5.21875e-18
8431.63946 5.26242e-18
8432.50092 5.31339e-18
8433.36239 5.36438e-18
8434.23386 5.42172e-18
8435.09533 5.47907e-18
8435.95679 5.53326e-18
8436.81825 5.58745e-18
8437.67971 5.62910e-18
8438.54117 5.67074e-18
8439.40264 5.70534e-18
8440.26410 5.73992e-18
8441.12556 5.77638e-18
8441.98702 5.81283e-18
8442.84848 5.85377e-18
8443.70995 5.89472e-18
8444.58143 5.94075e-18
8445.44289 5.98679e-18
8446.30435 6.03840e-18
8447.16581 6.09002e-18
8448.02727 6.14706e-18
8448.88874 6.20410e-18
8449.75020 6.26481e-18
8450.61166 6.32552e-18
8451.47312 6.38730e-18
8452.33458 6.44907e-18
8453.20606 6.50898e-18
8454.06752 6.56886e-18
8454.92899 6.62329e-18
8455.79045 6.67769e-18
8456.65191 6.72741e-18
8457.51337 6.77712e-18
8458.37483 6.82987e-18
8459.23630 6.88262e-18
8460.09776 6.94163e-18
8460.95922 7.00066e-18
8461.82068 7.05932e-18
8462.69216 7.11799e-18
8463.55362 7.17160e-18
8464.41508 7.22521e-18
8465.27655 7.27413e-18
8466.13801 7.32305e-18
8466.99947 7.36925e-18
8467.86093 7.41544e-18
8468.72240 7.46872e-18
8469.58386 7.52202e-18
8470.44532 7.59106e-18
8471.30678 7.66013e-18
8472.16824 7.73956e-18
8473.03972 7.81902e-18
8473.90118 7.90104e-18
8474.76265 7.98307e-18
8475.62411 8.06178e-18
8476.48557 8.14048e-18
8477.34703 8.21019e-18
8478.20849 8.27988e-18
8479.06996 8.34731e-18
8479.93142 8.41472e-18
8480.79288 8.49214e-18
8481.65434 8.56958e-18
8482.51580 8.65423e-18
8483.38728 8.73890e-18
8484.24875 8.81937e-18
8485.11021 8.89983e-18
8485.97167 8.97102e-18
8486.83313 9.04220e-18
8487.69459 9.10398e-18
8488.55605 9.16575e-18
8489.41752 9.22138e-18
8490.27898 9.27701e-18
8491.14044 9.33472e-18
8492.00190 9.39245e-18
8492.87338 9.45762e-18
8493.73484 9.52282e-18
8494.59631 9.59398e-18
8495.45777 9.66515e-18
8496.31923 9.74309e-18
8497.18069 9.82105e-18
8498.04215 9.91447e-18
8498.90362 1.00079e-17
8499.76508 1.01201e-17
8500.62654 1.02323e-17
8501.48800 1.03483e-17
8502.35948 1.04643e-17
8503.22094 1.05694e-17
8504.08240 1.06745e-17
8504.94387 1.07658e-17
8505.80533 1.08569e-17
8506.66679 1.09337e-17
8507.52825 1.10104e-17
8508.38972 1.10780e-17
8509.25118 1.11457e-17
8510.11264 1.12115e-17
8510.98412 1.12774e-17
8511.84558 1.13442e-17
8512.70704 1.14110e-17
8513.56850 1.14803e-17
8514.42997 1.15495e-17
8515.29143 1.16209e-17
8516.15289 1.16924e-17
8517.01435 1.17652e-17
8517.87581 1.18379e-17
8518.73728 1.19121e-17
8519.59874 1.19861e-17
8520.46020 1.20617e-17
8521.33168 1.21373e-17
8522.19314 1.22177e-17
8523.05460 1.22981e-17
8523.91607 1.23896e-17
8524.77753 1.24811e-17
8525.63899 1.25857e-17
8526.50045 1.26903e-17
8527.36191 1.28043e-17
8528.22337 1.29181e-17
8529.08484 1.30353e-17
8529.94630 1.31525e-17
8530.80776 1.32633e-17
8531.67924 1.33741e-17
8532.54070 1.34704e-17
8533.40216 1.35667e-17
8534.26363 1.36457e-17
8535.12509 1.37246e-17
8535.98655 1.37869e-17
8536.84801 1.38493e-17
8537.70947 1.39071e-17
8538.57094 1.39649e-17
8539.43240 1.40309e-17
8540.30388 1.40970e-17
8541.16534 1.41797e-17
8542.02680 1.42625e-17
8542.88826 1.43670e-17
8543.74972 1.44716e-17
8544.61119 1.45909e-17
8545.47265 1.47103e-17
8546.33411 1.48336e-17
8547.19557 1.49568e-17
8548.05703 1.50650e-17
8548.91850 1.51731e-17
8549.78998 1.52452e-17
8550.65144 1.53174e-17
8551.51290 1.53555e-17
8552.37436 1.53934e-17
8553.23582 1.54132e-17
8554.09729 1.54329e-17
8554.95875 1.54556e-17
8555.82021 1.54783e-17
8556.68167 1.55293e-17
8557.54313 1.55803e-17
8558.40460 1.56709e-17
8559.27607 1.57615e-17
8560.13754 1.58848e-17
8560.99900 1.60081e-17
8561.86046 1.61506e-17
8562.72192 1.62931e-17
8563.58338 1.64327e-17
8564.44485 1.65724e-17
8565.30631 1.66890e-17
8566.16777 1.68055e-17
8567.02923 1.68856e-17
8567.89070 1.69657e-17
8568.75216 1.70031e-17
8569.62364 1.70404e-17
8570.48510 1.70456e-17
8571.34656 1.70507e-17
8572.20802 1.70389e-17
8573.06948 1.70270e-17
8573.93095 1.70150e-17
8574.79241 1.70030e-17
8575.65387 1.70070e-17
8576.51533 1.70111e-17
8577.37679 1.70481e-17
8578.23826 1.70853e-17
8579.09972 1.71682e-17
8579.97120 1.72513e-17
8580.83266 1.73640e-17
8581.69412 1.74768e-17
8582.55558 1.75925e-17
8583.41705 1.77082e-17
8584.27851 1.78052e-17
8585.13997 1.79023e-17
8586.00143 1.79630e-17
8586.86289 1.80238e-17
8587.72436 1.80459e-17
8588.58582 1.80679e-17
8589.45730 1.80612e-17
8590.31876 1.80542e-17
8591.18022 1.80336e-17
8592.04168 1.80131e-17
8592.90314 1.79994e-17
8593.76461 1.79856e-17
8594.62607 1.79901e-17
8595.48753 1.79945e-17
8596.34899 1.80127e-17
8597.21045 1.80308e-17
8598.07192 1.80597e-17
8598.94340 1.80888e-17
8599.80486 1.81315e-17
8600.66632 1.81743e-17
8601.52778 1.82295e-17
8602.38924 1.82847e-17
8603.25071 1.83436e-17
8604.11217 1.84027e-17
8604.97363 1.84556e-17
8605.83509 1.85087e-17
8606.69655 1.85428e-17
8607.56803 1.85769e-17
8608.42949 1.85816e-17
8609.29096 1.85862e-17
8610.15242 1.85644e-17
8611.01388 1.85425e-17
8611.87534 1.85016e-17
8612.73680 1.84607e-17
8613.59827 1.84091e-17
8614.45973 1.83575e-17
8615.32119 1.83041e-17
8616.18265 1.82507e-17
8617.04411 1.82123e-17
8617.91559 1.81738e-17
8618.77706 1.81684e-17
8619.63852 1.81631e-17
8620.49998 1.81919e-17
8621.36144 1.82208e-17
8622.22290 1.82738e-17
8623.08437 1.83271e-17
8623.94583 1.83903e-17
8624.80729 1.84537e-17
8625.66875 1.85092e-17
8626.53021 1.85647e-17
8627.40169 1.86018e-17
8628.26315 1.86388e-17
8629.12462 1.86570e-17
8629.98608 1.86753e-17
8630.84754 1.86744e-17
8631.70900 1.86735e-17
8632.57046 1.86509e-17
8633.43193 1.86282e-17
8634.29339 1.85870e-17
8635.15485 1.85459e-17
8636.01631 1.84991e-17
8636.88779 1.84521e-17
8637.74925 1.84131e-17
8638.61072 1.83742e-17
8639.47218 1.83586e-17
8640.33364 1.83431e-17
8641.19510 1.83617e-17
8642.05656 1.83803e-17
8642.91803 1.84239e-17
8643.77949 1.84677e-17
8644.64095 1.85229e-17
8645.50241 1.85780e-17
8646.37389 1.86302e-17
8647.23535 1.86825e-17
8648.09681 1.87176e-17
8648.95828 1.87526e-17
8649.81974 1.87652e-17
8650.68120 1.87778e-17
8651.54266 1.87682e-17
8652.40412 1.87584e-17
8653.26559 1.87250e-17
8654.12705 1.86915e-17
8654.98851 1.86332e-17
8655.85999 1.85749e-17
8656.72145 1.85019e-17
8657.58291 1.84289e-17
8658.44438 1.83588e-17
8659.30584 1.82887e-17
8660.16730 1.82335e-17
8661.02876 1.81784e-17
8661.89022 1.81434e-17
8662.75168 1.81086e-17
8663.61315 1.80967e-17
8664.47461 1.80849e-17
8665.33607 1.80952e-17
8666.20755 1.81056e-17
8667.06901 1.81333e-17
8667.93047 1.81611e-17
8668.79194 1.81976e-17
8669.65340 1.82341e-17
8670.51486 1.82676e-17
8671.37632 1.83010e-17
8672.23778 1.83114e-17
8673.09925 1.83217e-17
8673.96071 1.82940e-17
8674.82217 1.82661e-17
8675.68363 1.82049e-17
8676.55511 1.81435e-17
8677.41657 1.80585e-17
8678.27803 1.79733e-17
8679.13950 1.78812e-17
8680.00096 1.77890e-17
8680.86242 1.77081e-17
8681.72388 1.76272e-17
8682.58535 1.75647e-17
8683.44681 1.75022e-17
8684.30827 1.74608e-17
8685.16973 1.74193e-17
8686.04121 1.74013e-17
8686.90267 1.73835e-17
8687.76413 1.73893e-17
8688.62560 1.73953e-17
8689.48706 1.74204e-17
8690.34852 1.74456e-17
8691.20998 1.74825e-17
8692.07144 1.75196e-17
8692.93291 1.75559e-17
8693.79437 1.75922e-17
8694.66585 1.76118e-17
8695.52731 1.76314e-17
8696.38877 1.76246e-17
8697.25023 1.76177e-17
8698.11170 1.75828e-17
8698.97316 1.75478e-17
8699.83462 1.74886e-17
8700.69608 1.74294e-17
8701.55754 1.73586e-17
8702.41900 1.72879e-17
8703.28047 1.72166e-17
8704.15195 1.71451e-17
8705.01341 1.70734e-17
8705.87487 1.70017e-17
8706.73633 1.69327e-17
8707.59779 1.68637e-17
8708.45926 1.68117e-17
8709.32072 1.67599e-17
8710.18218 1.67364e-17
8711.04364 1.67129e-17
8711.90510 1.67182e-17
8712.76657 1.67238e-17
8713.62803 1.67539e-17
8714.49951 1.67841e-17
8715.36097 1.68171e-17
8716.22243 1.68500e-17
8717.08389 1.68607e-17
8717.94535 1.68714e-17
8718.80682 1.68496e-17
8719.66828 1.68276e-17
8720.52974 1.67696e-17
8721.39120 1.67115e-17
8722.25267 1.66315e-17
8723.11413 1.65514e-17
8723.98561 1.64742e-17
8724.84707 1.63969e-17
8725.70853 1.63318e-17
8726.56999 1.62665e-17
8727.43145 1.62106e-17
8728.29292 1.61549e-17
8729.15438 1.61087e-17
8730.01584 1.60625e-17
8730.87730 1.60272e-17
8731.73876 1.59918e-17
8732.61024 1.59706e-17
8733.47170 1.59494e-17
8734.33317 1.59522e-17
8735.19463 1.59550e-17
8736.05609 1.59788e-17
8736.91755 1.60027e-17
8737.77902 1.60194e-17
8738.64048 1.60361e-17
8739.50194 1.60220e-17
8740.36340 1.60078e-17
8741.22486 1.59497e-17
8742.08633 1.58915e-17
8742.95780 1.57861e-17
8743.81927 1.56806e-17
8744.68073 1.55582e-17
8745.54219 1.54357e-17
8746.40365 1.53295e-17
8747.26511 1.52233e-17
8748.12658 1.51485e-17
8748.98804 1.50740e-17
8749.84950 1.50401e-17
8750.71096 1.50064e-17
8751.57242 1.50038e-17
8752.44390 1.50013e-17
8753.30537 1.50118e-17
8754.16683 1.50224e-17
8755.02829 1.50359e-17
8755.88975 1.50495e-17
8756.75121 1.50595e-17
8757.61268 1.50696e-17
8758.47414 1.50615e-17
8759.33560 1.50533e-17
8760.19706 1.50091e-17
8761.05852 1.49649e-17
8761.91999 1.48819e-17
8762.79146 1.47987e-17
8763.65293 1.46863e-17
8764.51439 1.45738e-17
8765.37585 1.44477e-17
8766.23731 1.43216e-17
8767.09877 1.42042e-17
8767.96024 1.40870e-17
8768.82170 1.39927e-17
8769.68316 1.38987e-17
8770.54462 1.38259e-17
8771.40608 1.37532e-17
8772.26755 1.36987e-17
8773.13903 1.36443e-17
8774.00049 1.36056e-17
8774.86195 1.35668e-17
8775.72341 1.35387e-17
8776.58487 1.35105e-17
8777.44633 1.34883e-17
8778.30780 1.34662e-17
8779.16926 1.34437e-17
8780.03072 1.34211e-17
8780.89218 1.33785e-17
8781.76366 1.33358e-17
8782.62512 1.32555e-17
8783.48659 1.31750e-17
8784.34805 1.30655e-17
8785.20951 1.29560e-17
8786.07097 1.28329e-17
8786.93243 1.27098e-17
8787.79390 1.25850e-17
8788.65536 1.24602e-17
8789.51682 1.23451e-17
8790.37828 1.22301e-17
8791.24976 1.21244e-17
8792.11122 1.20188e-17
8792.97268 1.19144e-17
8793.83415 1.18099e-17
8794.69561 1.17120e-17
8795.55707 1.16142e-17
8796.41853 1.15378e-17
8797.28000 1.14616e-17
8798.14146 1.14038e-17
8799.00292 1.13462e-17
8799.86438 1.12868e-17
8800.72584 1.12275e-17
8801.59732 1.11502e-17
8802.45878 1.10729e-17
8803.32025 1.09666e-17
8804.18171 1.08602e-17
8805.04317 1.07234e-17
8805.90463 1.05866e-17
8806.76609 1.04390e-17
8807.62756 1.02912e-17
8808.48902 1.01508e-17
8809.35048 1.00104e-17
8810.21194 9.88583e-18
8811.08342 9.76129e-18
8811.94488 9.65835e-18
8812.80635 9.55548e-18
8813.66781 9.47192e-18
8814.52927 9.38843e-18
8815.39073 9.31878e-18
8816.25219 9.24917e-18
8817.11365 9.18660e-18
8817.97512 9.12406e-18
8818.83658 9.06094e-18
8819.70806 8.99783e-18
8820.56952 8.92493e-18
8821.43098 8.85200e-18
8822.29244 8.76127e-18
8823.15391 8.67050e-18
8824.01537 8.56095e-18
8824.87683 8.45135e-18
8825.73829 8.32586e-18
8826.59975 8.20033e-18
8827.46122 8.07047e-18
8828.32268 7.94061e-18
8829.19416 7.82302e-18
8830.05562 7.70548e-18
8830.91708 7.60866e-18
8831.77854 7.51191e-18
8832.64000 7.43646e-18
8833.50147 7.36108e-18
8834.36293 7.30430e-18
8835.22439 7.24758e-18
8836.08585 7.20284e-18
8836.94732 7.15812e-18
8837.80878 7.11762e-18
8838.67024 7.07712e-18
8839.54172 7.03287e-18
8840.40318 6.98862e-18
8841.26464 6.93474e-18
8842.12610 6.88084e-18
8842.98757 6.81655e-18
8843.84903 6.75223e-18
8844.71049 6.67877e-18
8845.57195 6.60528e-18
8846.43341 6.52694e-18
8847.29488 6.44859e-18
8848.15634 6.37089e-18
8849.02782 6.29318e-18
8849.88928 6.21906e-18
8850.75074 6.14496e-18
8851.61220 6.07722e-18
8852.47367 6.00952e-18
8853.33513 5.96256e-18
8854.19659 5.91565e-18
8855.05805 5.90380e-18
8855.91951 5.89204e-18
8856.78097 5.90391e-18
8857.64244 5.91585e-18
8858.50390 5.93139e-18
8859.36536 5.94693e-18
8860.23684 5.94958e-18
8861.09830 5.95219e-18
8861.95976 5.92699e-18
8862.82123 5.90170e-18
8863.68269 5.85428e-18
8864.54415 5.80680e-18
8865.40561 5.75896e-18
8866.26707 5.71113e-18
8867.12854 5.67303e-18
8867.99000 5.63495e-18
8868.86148 5.60403e-18
8869.72294 5.57311e-18
8870.58440 5.54824e-18
8871.44586 5.52338e-18
8872.30732 5.50360e-18
8873.16879 5.48384e-18
8874.03025 5.47024e-18
8874.89171 5.45665e-18
8875.75317 5.45761e-18
8876.61463 5.45862e-18
8877.47610 5.47753e-18
8878.34758 5.49650e-18
8879.20904 5.52291e-18
8880.07050 5.54935e-18
8880.93196 5.57228e-18
8881.79342 5.59520e-18
8882.65489 5.60445e-18
8883.51635 5.61366e-18
8884.37781 5.60179e-18
8885.23927 5.58987e-18
8886.10073 5.56375e-18
8886.96220 5.53759e-18
8887.83367 5.50797e-18
8888.69514 5.47833e-18
8889.55660 5.45514e-18
8890.41806 5.43195e-18
8891.27952 5.42418e-18
8892.14099 5.41646e-18
8893.00245 5.42921e-18
8893.86391 5.44202e-18
8894.72537 5.47731e-18
8895.58683 5.51265e-18
8896.44830 5.56217e-18
8897.30976 5.61173e-18
8898.18124 5.66130e-18
8899.04270 5.71087e-18
8899.90416 5.74839e-18
8900.76562 5.78587e-18
8901.62708 5.80122e-18
8902.48855 5.81652e-18
8903.35001 5.81127e-18
8904.21147 5.80598e-18
8905.07293 5.79691e-18
8905.93439 5.78784e-18
8906.80587 5.78598e-18
8907.66734 5.78413e-18
8908.52880 5.78837e-18
8909.39026 5.79263e-18
8910.25172 5.80300e-18
8911.11318 5.81338e-18
8911.97465 5.83193e-18
8912.83611 5.85048e-18
8913.69757 5.87804e-18
8914.55903 5.90564e-18
8915.42049 5.94418e-18
8916.29197 5.98275e-18
8917.15343 6.03180e-18
8918.01490 6.08088e-18
8918.87636 6.12783e-18
8919.73782 6.17477e-18
8920.59928 6.20698e-18
8921.46074 6.23915e-18
8922.32221 6.25304e-18
8923.18367 6.26688e-18
8924.04513 6.26208e-18
8924.90659 6.25723e-18
8925.76805 6.24860e-18
8926.63953 6.23997e-18
8927.50100 6.24783e-18
8928.36246 6.25574e-18
8929.22392 6.28086e-18
8930.08538 6.30603e-18
8930.94684 6.33924e-18
8931.80831 6.37247e-18
8932.66977 6.40711e-18
8933.53123 6.44174e-18
8934.39269 6.47138e-18
8935.25415 6.50099e-18
8936.12563 6.52866e-18
8936.98709 6.55631e-18
8937.84856 6.59651e-18
8938.71002 6.63674e-18
8939.57148 6.69014e-18
8940.43294 6.74357e-18
8941.29440 6.79048e-18
8942.15587 6.83738e-18
8943.01733 6.86336e-18
8943.87879 6.88928e-18
8944.74025 6.88785e-18
8945.61173 6.88634e-18
8946.47319 6.85984e-18
8947.33466 6.83326e-18
8948.19612 6.81207e-18
8949.05758 6.79088e-18
8949.91904 6.79965e-18
8950.78050 6.80849e-18
8951.64197 6.83957e-18
8952.50343 6.87069e-18
8953.36489 6.91165e-18
8954.22635 6.95265e-18
8955.08781 6.97121e-18
8955.95929 6.98971e-18
8956.82075 6.95409e-18
8957.68222 6.91834e-18
8958.54368 6.86806e-18
8959.40514 6.81775e-18
8960.26660 6.81105e-18
8961.12806 6.80447e-18
8961.98953 6.84966e-18
8962.85099 6.89499e-18
8963.71245 6.98103e-18
8964.57391 7.06720e-18
8965.44539 7.16622e-18
8966.30685 7.26528e-18
8967.16832 7.33507e-18
8968.02978 7.40479e-18
8968.89124 7.44998e-18
8969.75270 7.49511e-18
8970.61416 7.56184e-18
8971.47563 7.62862e-18
8972.33709 7.73286e-18
8973.19855 7.83720e-18
8974.06001 7.95919e-18
8974.93149 8.08122e-18
8975.79295 8.19236e-18
8976.65441 8.30345e-18
8977.51588 8.35996e-18
8978.37734 8.41633e-18
8979.23880 8.38414e-18
8980.10026 8.35170e-18
8980.96172 8.20886e-18
8981.82319 8.06574e-18
8982.68465 7.82636e-18
8983.54611 7.58672e-18
8984.41759 7.37953e-18
8985.27905 7.17244e-18
8986.14051 7.11624e-18
8987.00198 7.06044e-18
8987.86344 7.19596e-18
8988.72490 7.33199e-18
8989.58636 7.66535e-18
8990.44782 7.99923e-18
8991.30928 8.37134e-18
8992.17075 8.74354e-18
8993.03221 8.96286e-18
8993.89367 9.18177e-18
8994.76515 9.21959e-18
8995.62661 9.25694e-18
8996.48807 9.14827e-18
8997.34954 9.03922e-18
8998.21100 8.86974e-18
8999.07246 8.70011e-18
8999.93392 8.58670e-18
9000.79538 8.47344e-18
9001.65685 8.46706e-18
9002.51831 8.46099e-18
9003.38979 8.55850e-18
9004.25125 8.65628e-18
9005.11271 8.82369e-18
9005.97417 8.99128e-18
9006.83563 9.16192e-18
9007.69710 9.33256e-18
9008.55856 9.45447e-18
9009.42002 9.57625e-18
9010.28148 9.62534e-18
9011.14295 9.67422e-18
9012.00441 9.65157e-18
9012.87589 9.62871e-18
9013.73735 9.59156e-18
9014.59881 9.55438e-18
9015.46027 9.54523e-18
9016.32173 9.53616e-18
9017.18320 9.52907e-18
9018.04466 9.52198e-18
9018.90612 9.49763e-18
9019.76758 9.47323e-18
9020.62904 9.45394e-18
9021.49051 9.43465e-18
9022.35197 9.44361e-18
9023.22345 9.45265e-18
9024.08491 9.51903e-18
9024.94637 9.58556e-18
9025.80783 9.73267e-18
9026.66930 9.88000e-18
9027.53076 1.00725e-17
9028.39222 1.02651e-17
9029.25368 1.04494e-17
9030.11514 1.06337e-17
9030.97660 1.07728e-17
9031.83807 1.09116e-17
9032.70955 1.09779e-17
9033.57101 1.10439e-17
9034.43247 1.10347e-17
9035.29393 1.10254e-17
9036.15539 1.09550e-17
9037.01686 1.08843e-17
9037.87832 1.07888e-17
9038.73978 1.06931e-17
9039.60124 1.06279e-17
9040.46270 1.05630e-17
9041.32417 1.05430e-17
9042.18563 1.05232e-17
9043.05711 1.05079e-17
9043.91857 1.04925e-17
9044.78003 1.04604e-17
9045.64149 1.04282e-17
9046.50295 1.03920e-17
9047.36442 1.03559e-17
9048.22588 1.03270e-17
9049.08734 1.02980e-17
9049.94880 1.02941e-17
9050.81027 1.02901e-17
9051.67173 1.03160e-17
9052.54321 1.03420e-17
9053.40467 1.03447e-17
9054.26613 1.03473e-17
9055.12759 1.02806e-17
9055.98905 1.02137e-17
9056.85052 1.01022e-17
9057.71198 9.99064e-18
9058.57344 9.86801e-18
9059.43490 9.74536e-18
9060.29636 9.61572e-18
9061.16784 9.48607e-18
9062.02931 9.35110e-18
9062.89077 9.21610e-18
9063.75223 9.07088e-18
9064.61369 8.92562e-18
9065.47515 8.75932e-18
9066.33662 8.59296e-18
9067.19808 8.44794e-18
9068.05954 8.30298e-18
9068.92100 8.24955e-18
9069.78246 8.19637e-18
9070.64393 8.21899e-18
9071.51540 8.24181e-18
9072.37687 8.26175e-18
9073.23833 8.28168e-18
9074.09979 8.26990e-18
9074.96125 8.25803e-18
9075.82271 8.23650e-18
9076.68418 8.21493e-18
9077.54564 8.19741e-18
9078.40710 8.17990e-18
9079.26856 8.17432e-18
9080.13002 8.16878e-18
9080.99149 8.17485e-18
9081.86297 8.18093e-18
9082.72443 8.17135e-18
9083.58589 8.16171e-18
9084.44735 8.12121e-18
9085.30881 8.08065e-18
9086.17028 8.03933e-18
9087.03174 7.99801e-18
9087.89320 7.97902e-18
9088.75466 7.96008e-18
9089.61612 7.93386e-18
9090.48760 7.90761e-18
9091.34906 7.84583e-18
9092.21053 7.78430e-18
9093.07199 7.71620e-18
9093.93345 7.64808e-18
9094.79491 7.60941e-18
9095.65637 7.57084e-18
9096.51784 7.55148e-18
9097.37930 7.53218e-18
9098.24076 7.51080e-18
9099.10222 7.48940e-18
9099.97370 7.47151e-18
9100.83516 7.45362e-18
9101.69663 7.45065e-18
9102.55809 7.44771e-18
9103.41955 7.48152e-18
9104.28101 7.51544e-18
9105.14247 7.61736e-18
9106.00393 7.71947e-18
9106.86540 7.85236e-18
9107.72686 7.98533e-18
9108.58832 8.05393e-18
9109.45980 8.12234e-18
9110.32126 8.08605e-18
9111.18272 8.04946e-18
9112.04419 7.93191e-18
9112.90565 7.81413e-18
9113.76711 7.66389e-18
9114.62857 7.51357e-18
9115.49003 7.43034e-18
9116.35150 7.34730e-18
9117.21296 7.38303e-18
9118.07442 7.41909e-18
9118.93588 7.49687e-18
9119.80736 7.57477e-18
9120.66882 7.61949e-18
9121.53028 7.66412e-18
9122.39175 7.62769e-18
9123.25321 7.59104e-18
9124.11467 7.44457e-18
9124.97613 7.29781e-18
9125.83760 7.10904e-18
9126.69906 6.92016e-18
9127.56052 6.77156e-18
9128.43200 6.62307e-18
9129.29346 6.55722e-18
9130.15492 6.49161e-18
9131.01638 6.53596e-18
9131.87785 6.58063e-18
9132.73931 6.71669e-18
9133.60077 6.85300e-18
9134.46223 7.03894e-18
9135.32369 7.22500e-18
9136.18516 7.41726e-18
9137.04662 7.60954e-18
9137.90808 7.76319e-18
9138.76954 7.91673e-18
9139.64102 8.00286e-18
9140.50248 8.08880e-18
9141.36395 8.09764e-18
9142.22541 8.10627e-18
9143.08687 8.02317e-18
9143.94833 7.93984e-18
9144.80979 7.74375e-18
9145.67125 7.54736e-18
9146.53272 7.26370e-18
9147.39418 6.97979e-18
9148.26566 6.69423e-18
9149.12712 6.40866e-18
9149.98858 6.19894e-18
9150.85004 5.98943e-18
9151.71151 5.91845e-18
9152.57297 5.84786e-18
9153.43443 5.94016e-18
9154.29589 6.03290e-18
9155.15735 6.20781e-18
9156.01882 6.38294e-18
9156.88028 6.55522e-18
9157.75176 6.72749e-18
9158.61322 6.85730e-18
9159.47468 6.98699e-18
9160.33614 7.04354e-18
9161.19760 7.09987e-18
9162.05907 7.08520e-18
9162.92053 7.07033e-18
9163.78199 7.00117e-18
9164.64345 6.93188e-18
9165.50492 6.80593e-18
9166.36638 6.67982e-18
9167.22784 6.49408e-18
9168.09932 6.30820e-18
9168.96078 6.10878e-18
9169.82224 5.90932e-18
9170.68370 5.75858e-18
9171.54517 5.60799e-18
9172.40663 5.53711e-18
9173.26809 5.46645e-18
9174.12955 5.48900e-18
9174.99101 5.51181e-18
9175.85248 5.58945e-18
9176.71394 5.66724e-18
9177.58542 5.71283e-18
9178.44688 5.75834e-18
9179.30834 5.74653e-18
9180.16980 5.73457e-18
9181.03127 5.72255e-18
9181.89273 5.71054e-18
9182.75419 5.72978e-18
9183.61565 5.74911e-18
9184.47711 5.78838e-18
9185.33857 5.82771e-18
9186.20004 5.87347e-18
9187.07152 5.91924e-18
9187.93298 5.93867e-18
9188.79444 5.95803e-18
9189.65590 5.93291e-18
9190.51736 5.90766e-18
9191.37883 5.88872e-18
9192.24029 5.86979e-18
9193.10175 5.90219e-18
9193.96321 5.93472e-18
9194.82467 5.99837e-18
9195.68614 6.06209e-18
9196.55762 6.12835e-18
9197.41908 6.19461e-18
9198.28054 6.23758e-18
9199.14200 6.28048e-18
9200.00346 6.27528e-18
9200.86492 6.26995e-18
9201.72639 6.23492e-18
9202.58785 6.19979e-18
9203.44931 6.17099e-18
9204.31077 6.14221e-18
9205.17224 6.12068e-18
9206.04371 6.09917e-18
9206.90518 6.06908e-18
9207.76664 6.03897e-18
9208.62810 6.00535e-18
9209.48956 5.97172e-18
9210.35102 5.95152e-18
9211.21249 5.93135e-18
9212.07395 5.94157e-18
9212.93541 5.95189e-18
9213.79687 6.01204e-18
9214.65833 6.07233e-18
9215.52981 6.17850e-18
9216.39127 6.28482e-18
9217.25274 6.39668e-18
9218.11420 6.50856e-18
9218.97566 6.59991e-18
9219.83712 6.69120e-18
9220.69859 6.77039e-18
9221.56005 6.84955e-18
9222.42151 6.92129e-18
9223.28297 6.99301e-18
9224.14443 7.04932e-18
9225.00590 7.10558e-18
9225.87737 7.14085e-18
9226.73884 7.17607e-18
9227.60030 7.18445e-18
9228.46176 7.19277e-18
9229.32322 7.17201e-18
9230.18468 7.15119e-18
9231.04615 7.12496e-18
9231.90761 7.09871e-18
9232.76907 7.09432e-18
9233.63053 7.08997e-18
9234.49199 7.10142e-18
9235.35346 7.11290e-18
9236.22494 7.12479e-18
9237.08640 7.13669e-18
9237.94786 7.15605e-18
9238.80932 7.17543e-18
9239.67078 7.21670e-18
9240.53225 7.25803e-18
9241.39371 7.32814e-18
9242.25517 7.39833e-18
9243.11663 7.50009e-18
9243.97809 7.60195e-18
9244.84957 7.72651e-18
9245.71103 7.85113e-18
9246.57250 7.97827e-18
9247.43396 8.10541e-18
9248.29542 8.22356e-18
9249.15688 8.34169e-18
9250.01834 8.45325e-18
9250.87981 8.56480e-18
9251.74127 8.66413e-18
9252.60273 8.76342e-18
9253.46419 8.82671e-18
9254.32565 8.88990e-18
9255.19713 8.91326e-18
9256.05860 8.93650e-18
9256.92006 8.96621e-18
9257.78152 8.99594e-18
9258.64298 9.06681e-18
9259.50444 9.13779e-18
9260.36591 9.23931e-18
9261.22737 9.34091e-18
9262.08883 9.45436e-18
9262.95029 9.56783e-18
9263.81175 9.65224e-18
9264.68323 9.73657e-18
9265.54469 9.75276e-18
9266.40616 9.76876e-18
9267.26762 9.71783e-18
9268.12908 9.66671e-18
9268.99054 9.56479e-18
9269.85200 9.46274e-18
9270.71347 9.34778e-18
9271.57493 9.23280e-18
9272.43639 9.15003e-18
9273.29785 9.06736e-18
9274.16933 9.05248e-18
9275.03079 9.03780e-18
9275.89226 9.11694e-18
9276.75372 9.19634e-18
9277.61518 9.35619e-18
9278.47664 9.51626e-18
9279.33810 9.71279e-18
9280.19957 9.90941e-18
9281.06103 1.00951e-17
9281.92249 1.02808e-17
9282.79397 1.04098e-17
9283.65543 1.05387e-17
9284.51689 1.05747e-17
9285.37835 1.06103e-17
9286.23982 1.05314e-17
9287.10128 1.04523e-17
9287.96274 1.02683e-17
9288.82420 1.00838e-17
9289.68566 9.85286e-18
9290.54713 9.62179e-18
9291.40859 9.41182e-18
9292.27005 9.20192e-18
9293.14153 9.10228e-18
9294.00299 9.00294e-18
9294.86445 9.07195e-18
9295.72592 9.14143e-18
9296.58738 9.31900e-18
9297.44884 9.49688e-18
9298.31030 9.70326e-18
9299.17176 9.90970e-18
9300.03323 1.00362e-17
9300.89469 1.01624e-17
9301.75615 1.01048e-17
9302.62763 1.00465e-17
9303.48909 9.90483e-18
9304.35055 9.76289e-18
9305.21201 9.70091e-18
9306.07348 9.63916e-18
9306.93494 9.61875e-18
9307.79640 9.59845e-18
9308.65786 9.50080e-18
9309.51932 9.40292e-18
9310.38079 9.23353e-18
9311.24225 9.06396e-18
9312.11373 8.89295e-18
9312.97519 8.72195e-18
9313.83665 8.61807e-18
9314.69811 8.51437e-18
9315.55958 8.55577e-18
9316.42104 8.59759e-18
9317.28250 8.76906e-18
9318.14396 8.94091e-18
9319.00542 9.09215e-18
9319.86688 9.24332e-18
9320.72835 9.31532e-18
9321.58981 9.38712e-18
9322.46129 9.51841e-18
9323.32275 9.64988e-18
9324.18421 9.87078e-18
9325.04567 1.00919e-17
9325.90714 1.01192e-17
9326.76860 1.01459e-17
9327.63006 9.80481e-18
9328.49152 9.46272e-18
9329.35298 9.02755e-18
9330.21445 8.59212e-18
9331.07591 8.32828e-18
9331.94739 8.06495e-18
9332.80885 7.92126e-18
9333.67031 7.77792e-18
9334.53177 7.67769e-18
9335.39323 7.57759e-18
9336.25470 7.52256e-18
9337.11616 7.46767e-18
9337.97762 7.44468e-18
9338.83908 7.42180e-18
9339.70055 7.66462e-18
9340.56201 7.90818e-18
9341.43349 8.73336e-18
9342.29495 9.56019e-18
9343.15641 1.05622e-17
9344.01787 1.15647e-17
9344.87933 1.19976e-17
9345.74080 1.24287e-17
9346.60226 1.20698e-17
9347.46372 1.17086e-17
9348.32518 1.06850e-17
9349.18664 9.65956e-18
9350.04811 8.44198e-18
9350.90957 7.22387e-18
9351.78105 6.68042e-18
9352.64251 6.13892e-18
9353.50397 6.55445e-18
9354.36543 6.97270e-18
9355.22689 7.71918e-18
9356.08836 8.46658e-18
9356.94982 9.01599e-18
9357.81128 9.56482e-18
9358.67274 9.60219e-18
9359.53420 9.63811e-18
9360.39567 9.02727e-18
9361.26715 8.41460e-18
9362.12861 7.65031e-18
9362.99007 6.88560e-18
9363.85153 6.43482e-18
9364.71299 5.98494e-18
9365.57446 5.87455e-18
9366.43592 5.76515e-18
9367.29738 5.95018e-18
9368.15884 6.13603e-18
9369.02030 6.38448e-18
9369.89178 6.63309e-18
9370.75324 6.67927e-18
9371.61471 6.72487e-18
9372.47617 6.58507e-18
9373.33763 6.44475e-18
9374.19909 6.21826e-18
9375.06056 5.99152e-18
9375.92202 5.83013e-18
9376.78348 5.66892e-18
9377.64494 5.75806e-18
9378.50640 5.84791e-18
9379.37788 6.11725e-18
9380.23934 6.38712e-18
9381.10081 6.59792e-18
9381.96227 6.80855e-18
9382.82373 6.88474e-18
9383.68519 6.96055e-18
9384.54665 6.97078e-18
9385.40812 6.98082e-18
9386.26958 6.94409e-18
9387.13104 6.90722e-18
9387.99250 6.79137e-18
9388.85396 6.67529e-18
9389.72544 6.47850e-18
9390.58691 6.28148e-18
9391.44837 6.03345e-18
9392.30983 5.78528e-18
9393.17129 5.52669e-18
9394.03275 5.26808e-18
9394.89422 5.07115e-18
9395.75568 4.87441e-18
9396.61714 4.78802e-18
9397.47860 4.70195e-18
9398.34006 4.68987e-18
9399.21154 4.67800e-18
9400.07300 4.69469e-18
9400.93447 4.71146e-18
9401.79593 4.71316e-18
9402.65739 4.71480e-18
9403.51885 4.66319e-18
9404.38031 4.61142e-18
9405.24178 4.54955e-18
9406.10324 4.48765e-18
9406.96470 4.47597e-18
9407.82616 4.46442e-18
9408.69764 4.50358e-18
9409.55910 4.54290e-18
9410.42057 4.61189e-18
9411.28203 4.68096e-18
9412.14349 4.74713e-18
9413.00495 4.81330e-18
9413.86641 4.83795e-18
9414.72788 4.86246e-18
9415.58934 4.81977e-18
9416.45080 4.77687e-18
9417.31226 4.65887e-18
9418.17372 4.54064e-18
9419.04520 4.35558e-18
9419.90666 4.17032e-18
9420.76813 3.93055e-18
9421.62959 3.69063e-18
9422.49105 3.48198e-18
9423.35251 3.27342e-18
9424.21397 3.30068e-18
9425.07544 3.32862e-18
9425.93690 3.65753e-18
9426.79836 3.98731e-18
9427.65982 4.40317e-18
9428.53130 4.81927e-18
9429.39276 5.11508e-18
9430.25423 5.41053e-18
9431.11569 5.39465e-18
9431.97715 5.37787e-18
9432.83861 4.95324e-18
9433.70007 4.52744e-18
9434.56153 4.03075e-18
9435.42300 3.53387e-18
9436.28446 3.31731e-18
9437.14592 3.10159e-18
9438.01740 3.22066e-18
9438.87886 3.34071e-18
9439.74032 3.77260e-18
9440.60179 4.20538e-18
9441.46325 4.73074e-18
9442.32471 5.25636e-18
9443.18617 5.59287e-18
9444.04763 5.92882e-18
9444.90910 5.99573e-18
9445.77056 6.06185e-18
9446.63202 5.87677e-18
9447.49348 5.69097e-18
9448.36496 5.35382e-18
9449.22642 5.01626e-18
9450.08788 4.68778e-18
9450.94935 4.35934e-18
9451.81081 4.14427e-18
9452.67227 3.92955e-18
9453.53373 3.86871e-18
9454.39520 3.80832e-18
9455.25666 3.91190e-18
9456.11812 4.01597e-18
9456.98960 4.25884e-18
9457.85106 4.50210e-18
9458.71252 4.81156e-18
9459.57398 5.12118e-18
9460.43545 5.35047e-18
9461.29691 5.57950e-18
9462.15837 5.64020e-18
9463.01983 5.70041e-18
9463.88129 5.66160e-18
9464.74276 5.62251e-18
9465.60422 5.55642e-18
9466.47570 5.49025e-18
9467.33716 5.44124e-18
9468.19862 5.39228e-18
9469.06008 5.39598e-18
9469.92155 5.39984e-18
9470.78301 5.40162e-18
9471.64447 5.40338e-18
9472.50593 5.34501e-18
9473.36739 5.28647e-18
9474.22885 5.20439e-18
9475.09032 5.12225e-18
9475.96180 5.06605e-18
9476.82326 5.00992e-18
9477.68472 5.08238e-18
9478.54618 5.15521e-18
9479.40764 5.47221e-18
9480.26911 5.78990e-18
9481.13057 6.22559e-18
9481.99203 6.66162e-18
9482.85349 6.97256e-18
9483.71495 7.28312e-18
9484.57642 7.34100e-18
9485.43788 7.39813e-18
9486.30936 7.15803e-18
9487.17082 6.91705e-18
9488.03228 6.47673e-18
9488.89374 6.03583e-18
9489.75520 5.65279e-18
9490.61667 5.26993e-18
9491.47813 5.10882e-18
9492.33959 4.94838e-18
9493.20105 5.00619e-18
9494.06252 5.06464e-18
9494.92398 5.34056e-18
9495.79546 5.61710e-18
9496.65692 6.14626e-18
9497.51838 6.67615e-18
9498.37984 7.40277e-18
9499.24130 8.12996e-18
9500.10277 8.76971e-18
9500.96423 9.40919e-18
9501.82569 9.71614e-18
9502.68715 1.00221e-17
9503.54861 9.95737e-18
9504.41008 9.89155e-18
9505.28155 9.48023e-18
9506.14302 9.06790e-18
9507.00448 8.52365e-18
9507.86594 7.97904e-18
9508.72740 7.55598e-18
9509.58887 7.13330e-18
9510.45033 6.85636e-18
9511.31179 6.57985e-18
9512.17325 6.39879e-18
9513.03471 6.21800e-18
9513.89617 6.18227e-18
9514.75764 6.14696e-18
9515.62912 6.32732e-18
9516.49058 6.50831e-18
9517.35204 6.88412e-18
9518.21350 7.26050e-18
9519.07496 7.76238e-18
9519.93643 8.26462e-18
9520.79789 8.77039e-18
9521.65935 9.27616e-18
9522.52081 9.61755e-18
9523.38227 9.95845e-18
9524.24374 1.00788e-17
9525.11522 1.01985e-17
9525.97668 1.01861e-17
9526.83814 1.01734e-17
9527.69960 1.01100e-17
9528.56106 1.00464e-17
9529.42252 9.99632e-18
9530.28399 9.94625e-18
9531.14545 9.94555e-18
9532.00691 9.94501e-18
9532.86837 9.93653e-18
9533.72984 9.92803e-18
9534.60131 9.86346e-18
9535.46278 9.79872e-18
9536.32424 9.66343e-18
9537.18570 9.52794e-18
9538.04716 9.32969e-18
9538.90862 9.13127e-18
9539.77009 9.05099e-18
9540.63155 8.97105e-18
9541.49301 9.17950e-18
9542.35447 9.38879e-18
9543.21593 9.76363e-18
9544.08741 1.01389e-17
9544.94888 1.04981e-17
9545.81034 1.08571e-17
9546.67180 1.10229e-17
9547.53326 1.11881e-17
9548.39472 1.09783e-17
9549.25619 1.07674e-17
9550.11765 1.03934e-17
9550.97911 1.00189e-17
9551.84057 9.90603e-18
9552.70203 9.79396e-18
9553.57351 9.97123e-18
9554.43497 1.01493e-17
9555.29644 1.03653e-17
9556.15790 1.05812e-17
9557.01936 1.06663e-17
9557.88082 1.07510e-17
9558.74228 1.05924e-17
9559.60375 1.04332e-17
9560.46521 1.01009e-17
9561.32667 9.76825e-18
9562.18813 9.64643e-18
9563.05961 9.52526e-18
9563.92107 9.81204e-18
9564.78254 1.01000e-17
9565.64400 1.05914e-17
9566.50546 1.10834e-17
9567.36692 1.15599e-17
9568.22838 1.20363e-17
9569.08985 1.22359e-17
9569.95131 1.24348e-17
9570.81277 1.21774e-17
9571.67423 1.19186e-17
9572.53569 1.14309e-17
9573.40717 1.09426e-17
9574.26863 1.04943e-17
9575.13010 1.00461e-17
9575.99156 9.81730e-18
9576.85302 9.58915e-18
9577.71448 9.72218e-18
9578.57594 9.85628e-18
9579.43741 1.01275e-17
9580.29887 1.03990e-17
9581.16033 1.04817e-17
9582.02179 1.05638e-17
9582.89327 1.04146e-17
9583.75473 1.02649e-17
9584.61620 9.94805e-18
9585.47766 9.63071e-18
9586.33912 9.37468e-18
9587.20058 9.11884e-18
9588.06204 9.27147e-18
9588.92351 9.42532e-18
9589.78497 9.94309e-18
9590.64643 1.04619e-17
9591.51791 1.09457e-17
9592.37937 1.14295e-17
9593.24083 1.16642e-17
9594.10229 1.18982e-17
9594.96376 1.19044e-17
9595.82522 1.19099e-17
9596.68668 1.17309e-17
9597.54814 1.15513e-17
9598.40960 1.12881e-17
9599.27107 1.10247e-17
9600.13253 1.07886e-17
9600.99399 1.05525e-17
9601.86547 1.04317e-17
9602.72693 1.03112e-17
9603.58839 1.03631e-17
9604.44986 1.04157e-17
9605.31132 1.06308e-17
9606.17278 1.08465e-17
9607.03424 1.11764e-17
9607.89570 1.15065e-17
9608.75717 1.17413e-17
9609.61863 1.19759e-17
9610.48009 1.19135e-17
9611.35157 1.18502e-17
9612.21303 1.15762e-17
9613.07449 1.13017e-17
9613.93595 1.09780e-17
9614.79742 1.06540e-17
9615.65888 1.03929e-17
9616.52034 1.01319e-17
9617.38180 1.00271e-17
9618.24326 9.92274e-18
9619.10473 9.99838e-18
9619.96619 1.00746e-17
9620.82765 1.03046e-17
9621.69913 1.05351e-17
9622.56059 1.08366e-17
9623.42205 1.11383e-17
9624.28352 1.13957e-17
9625.14498 1.16531e-17
9626.00644 1.17564e-17
9626.86790 1.18593e-17
9627.72936 1.17054e-17
9628.59083 1.15508e-17
9629.45229 1.11700e-17
9630.31375 1.07886e-17
9631.17521 1.04062e-17
9632.04669 1.00238e-17
9632.90815 9.81478e-18
9633.76961 9.60628e-18
9634.63108 9.63872e-18
9635.49254 9.67188e-18
9636.35400 9.93858e-18
9637.21546 1.02060e-17
9638.07692 1.04539e-17
9638.93839 1.07018e-17
9639.79985 1.07220e-17
9640.67133 1.07414e-17
9641.53279 1.06642e-17
9642.39425 1.05867e-17
9643.25571 1.05647e-17
9644.11718 1.05429e-17
9644.97864 1.06130e-17
9645.84010 1.06836e-17
9646.70156 1.08607e-17
9647.56302 1.10382e-17
9648.42448 1.12041e-17
9649.28595 1.13699e-17
9650.15743 1.13703e-17
9651.01889 1.13701e-17
9651.88035 1.12044e-17
9652.74181 1.10382e-17
9653.60327 1.07756e-17
9654.46474 1.05127e-17
9655.32620 1.02481e-17
9656.18766 9.98349e-18
9657.04912 9.82655e-18
9657.91058 9.66994e-18
9658.77205 9.68186e-18
9659.64352 9.69430e-18
9660.50499 9.89008e-18
9661.36645 1.00864e-17
9662.22791 1.04041e-17
9663.08937 1.07221e-17
9663.95083 1.09997e-17
9664.81230 1.12773e-17
9665.67376 1.14213e-17
9666.53522 1.15650e-17
9667.39668 1.16249e-17
9668.25815 1.16847e-17
9669.11961 1.16890e-17
9669.99109 1.16931e-17
9670.85255 1.15938e-17
9671.71401 1.14942e-17
9672.57547 1.12782e-17
9673.43693 1.10618e-17
9674.29840 1.08174e-17
9675.15986 1.05728e-17
9676.02132 1.03880e-17
9676.88278 1.02035e-17
9677.74424 1.01399e-17
9678.61572 1.00767e-17
9679.47718 1.01749e-17
9680.33865 1.02737e-17
9681.20011 1.04529e-17
9682.06157 1.06322e-17
9682.92303 1.07795e-17
9683.78449 1.09267e-17
9684.64596 1.10088e-17
9685.50742 1.10905e-17
9686.36888 1.11026e-17
9687.23034 1.11145e-17
9688.10182 1.10684e-17
9688.96328 1.10222e-17
9689.82475 1.09464e-17
9690.68621 1.08706e-17
9691.54767 1.07703e-17
9692.40913 1.06699e-17
9693.27059 1.05300e-17
9694.13206 1.03899e-17
9694.99352 1.02310e-17
9695.85498 1.00720e-17
9696.71644 9.95050e-18
9697.57790 9.82914e-18
9698.44938 9.77317e-18
9699.31084 9.71742e-18
9700.17231 9.71632e-18
9701.03377 9.71539e-18
9701.89523 9.74606e-18
9702.75669 9.77684e-18
9703.61816 9.78793e-18
9704.47962 9.79897e-18
9705.34108 9.75732e-18
9706.20254 9.71553e-18
9707.06400 9.65313e-18
9707.93548 9.59067e-18
9708.79694 9.54067e-18
9709.65841 9.49072e-18
9710.51987 9.47120e-18
9711.38133 9.45178e-18
9712.24279 9.47455e-18
9713.10425 9.49744e-18
9713.96572 9.53101e-18
9714.82718 9.56459e-18
9715.68864 9.57106e-18
9716.55010 9.57745e-18
9717.41156 9.54597e-18
9718.28304 9.51439e-18
9719.14451 9.44061e-18
9720.00597 9.36669e-18
9720.86743 9.29007e-18
9721.72889 9.21345e-18
9722.59035 9.19469e-18
9723.45182 9.17611e-18
9724.31328 9.18857e-18
9725.17474 9.20114e-18
9726.03620 9.16561e-18
9726.89766 9.12993e-18
9727.76914 9.01836e-18
9728.63060 8.90657e-18
9729.49207 8.73369e-18
9730.35353 8.56063e-18
9731.21499 8.36332e-18
9732.07645 8.16594e-18
9732.93791 8.01203e-18
9733.79938 7.85826e-18
9734.66084 7.79002e-18
9735.52230 7.72204e-18
9736.38376 7.73124e-18
9737.25524 7.74068e-18
9738.11670 7.80831e-18
9738.97817 7.87612e-18
9739.83963 7.96475e-18
9740.70109 8.05345e-18
9741.56255 8.12606e-18
9742.42401 8.19863e-18
9743.28548 8.23561e-18
9744.14694 8.27250e-18
9745.00840 8.26222e-18
9745.86986 8.25181e-18
9746.74134 8.21006e-18
9747.60280 8.16822e-18
9748.46426 8.11663e-18
9749.32573 8.06500e-18
9750.18719 8.00872e-18
9751.04865 7.95242e-18
9751.91011 7.89416e-18
9752.77157 7.83588e-18
9753.63304 7.77372e-18
9754.49450 7.71155e-18
9755.35596 7.64146e-18
9756.22744 7.57134e-18
9757.08890 7.50791e-18
9757.95036 7.44450e-18
9758.81183 7.40928e-18
9759.67329 7.37414e-18
9760.53475 7.38380e-18
9761.39621 7.39360e-18
9762.25767 7.46243e-18
9763.11913 7.53145e-18
9763.98060 7.63779e-18
9764.84206 7.74424e-18
9765.71354 7.82706e-18
9766.57500 7.90980e-18
9767.43646 7.93916e-18
9768.29792 7.96835e-18
9769.15939 7.96388e-18
9770.02085 7.95929e-18
9770.88231 7.93769e-18
9771.74377 7.91604e-18
9772.60523 7.88568e-18
9773.46670 7.85529e-18
9774.32816 7.82677e-18
9775.19964 7.79823e-18
9776.06110 7.77992e-18
9776.92256 7.76163e-18
9777.78402 7.75911e-18
9778.64548 7.75665e-18
9779.50695 7.77708e-18
9780.36841 7.79758e-18
9781.22987 7.84292e-18
9782.09133 7.88834e-18
9782.95280 7.91935e-18
9783.81426 7.95031e-18
9784.68574 7.92431e-18
9785.54720 7.89814e-18
9786.40866 7.83582e-18
9787.27012 7.77340e-18
9788.13158 7.71363e-18
9788.99305 7.65387e-18
9789.85451 7.61034e-18
9790.71597 7.56684e-18
9791.57743 7.54525e-18
9792.43889 7.52370e-18
9793.30036 7.50945e-18
9794.16182 7.49523e-18
9795.03330 7.45769e-18
9795.89476 7.42008e-18
9796.75622 7.36819e-18
9797.61768 7.31627e-18
9798.47915 7.29481e-18
9799.34061 7.27344e-18
9800.20207 7.29735e-18
9801.06353 7.32141e-18
9801.92499 7.36949e-18
9802.78645 7.41765e-18
9803.64792 7.46847e-18
9804.51940 7.51929e-18
9805.38086 7.54772e-18
9806.24232 7.57608e-18
9807.10378 7.56994e-18
9807.96524 7.56368e-18
9808.82671 7.54707e-18
9809.68817 7.53043e-18
9810.54963 7.52630e-18
9811.41109 7.52220e-18
9812.27255 7.54506e-18
9813.13402 7.56800e-18
9813.99548 7.62458e-18
9814.86696 7.68128e-18
9815.72842 7.73132e-18
9816.58988 7.78134e-18
9817.45134 7.78207e-18
9818.31280 7.78265e-18
9819.17427 7.73975e-18
9820.03573 7.69673e-18
9820.89719 7.62822e-18
9821.75865 7.55962e-18
9822.62012 7.49188e-18
9823.48158 7.42415e-18
9824.35306 7.38797e-18
9825.21452 7.35189e-18
9826.07598 7.34278e-18
9826.93744 7.33375e-18
9827.79890 7.32680e-18
9828.66037 7.31986e-18
9829.52183 7.30892e-18
9830.38329 7.29797e-18
9831.24475 7.29041e-18
9832.10621 7.28287e-18
9832.97769 7.27700e-18
9833.83915 7.27113e-18
9834.70062 7.25726e-18
9835.56208 7.24337e-18
9836.42354 7.21705e-18
9837.28500 7.19069e-18
9838.14647 7.15453e-18
9839.00793 7.11834e-18
9839.86939 7.07528e-18
9840.73085 7.03219e-18
9841.59231 6.98376e-18
9842.45377 6.93532e-18
9843.32525 6.88704e-18
9844.18672 6.83875e-18
9845.04818 6.80774e-18
9845.90964 6.77678e-18
9846.77110 6.77650e-18
9847.63256 6.77630e-18
9848.49403 6.80259e-18
9849.35549 6.82895e-18
9850.21695 6.87415e-18
9851.07841 6.91940e-18
9851.93987 6.97619e-18
9852.81135 7.03302e-18
9853.67282 7.09276e-18
9854.53428 7.15250e-18
9855.39574 7.20973e-18
9856.25720 7.26695e-18
9857.11866 7.31765e-18
9857.98013 7.36832e-18
9858.84159 7.40164e-18
9859.70305 7.43490e-18
9860.56451 7.43841e-18
9861.42597 7.44184e-18
9862.29745 7.41387e-18
9863.15891 7.38580e-18
9864.02038 7.33168e-18
9864.88184 7.27747e-18
9865.74330 7.20706e-18
9866.60476 7.13660e-18
9867.46622 7.06404e-18
9868.32769 6.99147e-18
9869.18915 6.92486e-18
9870.05061 6.85826e-18
9870.92209 6.79665e-18
9871.78355 6.73506e-18
9872.64501 6.67952e-18
9873.50648 6.62400e-18
9874.36794 6.57928e-18
9875.22940 6.53460e-18
9876.09086 6.50447e-18
9876.95232 6.47440e-18
9877.81379 6.46233e-18
9878.67525 6.45032e-18
9879.53671 6.45788e-18
9880.39817 6.46551e-18
9881.26965 6.49031e-18
9882.13111 6.51516e-18
9882.99257 6.55274e-18
9883.85404 6.59035e-18
9884.71550 6.63258e-18
9885.57696 6.67482e-18
9886.43842 6.71290e-18
9887.29988 6.75097e-18
9888.16135 6.77666e-18
9889.02281 6.80232e-18
9889.88427 6.80874e-18
9890.74573 6.81508e-18
9891.61721 6.80204e-18
9892.47867 6.78894e-18
9893.34014 6.75992e-18
9894.20160 6.73085e-18
9895.06306 6.68960e-18
9895.92452 6.64829e-18
9896.78598 6.59872e-18
9897.64745 6.54913e-18
9898.50891 6.49770e-18
9899.37037 6.44625e-18
9900.23183 6.40147e-18
9901.09329 6.35670e-18
9901.96477 6.31997e-18
9902.82623 6.28327e-18
9903.68770 6.24736e-18
9904.54916 6.21146e-18
9905.41062 6.17804e-18
9906.27208 6.14463e-18
9907.13354 6.12946e-18
9907.99501 6.11433e-18
9908.85647 6.12488e-18
9909.71793 6.13552e-18
9910.57939 6.16463e-18
9911.45087 6.19379e-18
9912.31233 6.22975e-18
9913.17380 6.26572e-18
9914.03526 6.28380e-18
9914.89672 6.30183e-18
9915.75818 6.28237e-18
9916.61964 6.26282e-18
9917.48111 6.21272e-18
9918.34257 6.16252e-18
9919.20403 6.09377e-18
9920.07551 6.02496e-18
9920.93697 5.95120e-18
9921.79843 5.87743e-18
9922.65989 5.81252e-18
9923.52136 5.74766e-18
9924.38282 5.69771e-18
9925.24428 5.64782e-18
9926.10574 5.61519e-18
9926.96720 5.58264e-18
9927.82867 5.55832e-18
9928.69013 5.53402e-18
9929.56161 5.50365e-18
9930.42307 5.47325e-18
9931.28453 5.43214e-18
9932.14599 5.39100e-18
9933.00746 5.34121e-18
9933.86892 5.29138e-18
9934.73038 5.23712e-18
9935.59184 5.18285e-18
9936.45330 5.13024e-18
9937.31477 5.07762e-18
9938.17623 5.03471e-18
9939.03769 4.99184e-18
9939.90917 4.96877e-18
9940.77063 4.94577e-18
9941.63209 4.94533e-18
9942.49355 4.94496e-18
9943.35502 4.95665e-18
9944.21648 4.96837e-18
9945.07794 4.98314e-18
9945.93940 4.99791e-18
9946.80086 5.01346e-18
9947.66233 5.02903e-18
9948.52379 5.04273e-18
9949.39527 5.05643e-18
9950.25673 5.06327e-18
9951.11819 5.07008e-18
9951.97965 5.06681e-18
9952.84112 5.06352e-18
9953.70258 5.05664e-18
9954.56404 5.04975e-18
9955.42550 5.04641e-18
9956.28696 5.04309e-18
9957.14843 5.03852e-18
9958.00989 5.03394e-18
9958.88137 5.02154e-18
9959.74283 5.00910e-18
9960.60429 4.98550e-18
9961.46575 4.96186e-18
9962.32721 4.92488e-18
9963.18868 4.88785e-18
9964.05014 4.84856e-18
9964.91160 4.80927e-18
9965.77306 4.78616e-18
9966.63452 4.76311e-18
9967.49599 4.76052e-18
9968.36747 4.75799e-18
9969.22893 4.76880e-18
9970.09039 4.77964e-18
9970.95185 4.80273e-18
9971.81331 4.82586e-18
9972.67477 4.86652e-18
9973.53624 4.90724e-18
9974.39770 4.96329e-18
9975.25916 5.01938e-18
9976.12062 5.07880e-18
9976.98208 5.13822e-18
9977.85356 5.19148e-18
9978.71503 5.24471e-18
9979.57649 5.28723e-18
9980.43795 5.32971e-18
9981.29941 5.35989e-18
9982.16087 5.39004e-18
9983.02234 5.41429e-18
9983.88380 5.43854e-18
9984.74526 5.46335e-18
9985.60672 5.48817e-18
9986.46818 5.51676e-18
9987.32965 5.54534e-18
9988.20112 5.57937e-18
9989.06259 5.61341e-18
9989.92405 5.64089e-18
9990.78551 5.66835e-18
9991.64697 5.67569e-18
9992.50843 5.68296e-18
9993.36990 5.68037e-18
9994.23136 5.67774e-18
9995.09282 5.68263e-18
9995.95428 5.68756e-18
9996.81574 5.69698e-18
9997.67721 5.70643e-18
9998.54869 5.70927e-18
9999.41015 5.71208e-18
