# wavelength flux
3199.87262 4.19691e-18
3201.87562 4.45737e-18
3203.86861 4.35952e-18
3205.87161 4.04862e-18
3207.87461 4.42642e-18
3209.86759 5.62000e-18
3211.87059 5.30065e-18
3213.87359 4.56213e-18
3215.87659 4.05516e-18
3217.86958 4.13754e-18
3219.87258 4.12034e-18
3221.87558 3.76085e-18
3223.86856 4.04488e-18
3225.87156 3.75146e-18
3227.87456 3.33800e-18
3229.86755 2.87894e-18
3231.87055 3.49624e-18
3233.87355 3.87783e-18
3235.86653 3.85148e-18
3237.86953 3.87658e-18
3239.87253 4.33467e-18
3241.87553 3.73235e-18
3243.86852 3.86424e-18
3245.87152 4.40792e-18
3247.87452 4.18449e-18
3249.86750 4.48682e-18
3251.87050 4.75581e-18
3253.87350 4.57153e-18
3255.86649 3.97549e-18
3257.86949 4.10291e-18
3259.87248 4.58469e-18
3261.86547 4.49020e-18
3263.86847 4.44955e-18
3265.87147 4.64751e-18
3267.87447 3.99510e-18
3269.86746 3.97028e-18
3271.87045 4.21393e-18
3273.87345 4.23637e-18
3275.86644 3.78915e-18
3277.86944 3.39098e-18
3279.87244 3.28546e-18
3281.86542 3.85349e-18
3283.86843 4.32503e-18
3285.87142 3.74574e-18
3287.86441 4.14904e-18
3289.86741 4.16680e-18
3291.87041 3.85453e-18
3293.87341 3.61004e-18
3295.86640 4.05722e-18
3297.86940 4.21541e-18
3299.87239 4.49407e-18
3301.86538 4.49566e-18
3303.86838 4.11216e-18
3305.87138 4.10997e-18
3307.86436 4.38179e-18
3309.86737 4.31171e-18
3311.87037 4.18029e-18
3313.86335 4.15455e-18
3315.86635 3.81700e-18
3317.86935 4.06897e-18
3319.87235 4.21428e-18
3321.86533 4.11733e-18
3323.86834 4.07874e-18
3325.87134 3.54215e-18
3327.86432 3.41214e-18
3329.86732 3.62276e-18
3331.87032 3.95385e-18
3333.86330 4.11801e-18
3335.86631 3.94922e-18
3337.86931 4.01842e-18
3339.86229 4.11256e-18
3341.86529 3.98778e-18
3343.86829 4.04419e-18
3345.87129 4.15311e-18
3347.86427 3.99304e-18
3349.86728 3.65706e-18
3351.87028 4.07542e-18
3353.86326 4.13340e-18
3355.86626 4.22685e-18
3357.86926 4.18019e-18
3359.86225 4.16311e-18
3361.86524 4.04233e-18
3363.86825 4.29273e-18
3365.86123 4.26349e-18
3367.86423 3.87779e-18
3369.86723 3.49890e-18
3371.87023 3.95370e-18
3373.86322 4.32425e-18
3375.86622 4.32159e-18
3377.86922 4.10121e-18
3379.86220 4.40067e-18
3381.86520 4.74831e-18
3383.86820 4.51992e-18
3385.86119 4.36526e-18
3387.86419 4.67410e-18
3389.86719 4.73950e-18
3391.86017 4.68216e-18
3393.86317 4.56526e-18
3395.86617 4.56906e-18
3397.86917 4.74971e-18
3399.86216 4.91388e-18
3401.86515 4.97807e-18
3403.86816 4.93280e-18
3405.86114 4.89008e-18
3407.86414 5.00961e-18
3409.86714 4.94642e-18
3411.86013 5.01465e-18
3413.86313 5.01388e-18
3415.86613 4.82698e-18
3417.85911 4.81456e-18
3419.86211 5.23784e-18
3421.86511 5.43080e-18
3423.86811 5.52458e-18
3425.86110 5.65813e-18
3427.86410 5.57669e-18
3429.86710 5.60263e-18
3431.86008 5.58558e-18
3433.86308 5.53947e-18
3435.86608 5.83757e-18
3437.85907 5.61841e-18
3439.86207 5.85753e-18
3441.86507 5.81154e-18
3443.85805 5.44974e-18
3445.86105 5.66662e-18
3447.86405 5.39642e-18
3449.86705 5.38186e-18
3451.86004 5.49980e-18
3453.86304 5.60611e-18
3455.86604 5.51963e-18
3457.85902 5.79171e-18
3459.86202 5.54023e-18
3461.86502 5.26799e-18
3463.85801 5.61345e-18
3465.86101 5.24184e-18
3467.86401 5.52883e-18
3469.85699 5.73348e-18
3471.85999 5.45818e-18
3473.86299 5.20910e-18
3475.86599 5.37188e-18
3477.85898 5.16664e-18
3479.86198 5.08119e-18
3481.86498 5.25391e-18
3483.85796 5.54171e-18
3485.86096 5.22383e-18
3487.86396 5.07536e-18
3489.85695 5.22435e-18
3491.85995 5.21686e-18
3493.86295 5.28836e-18
3495.85593 5.47736e-18
3497.85893 5.54114e-18
3499.86193 5.48894e-18
3501.86493 5.42818e-18
3503.85792 5.58031e-18
3505.86092 5.42092e-18
3507.86392 5.31465e-18
3509.85690 5.57316e-18
3511.85990 5.68501e-18
3513.86290 5.52671e-18
3515.85589 5.53182e-18
3517.85889 5.48716e-18
3519.86189 5.36728e-18
3521.85487 5.33392e-18
3523.85787 5.48512e-18
3525.86087 5.75994e-18
3527.86387 5.75006e-18
3529.85686 5.31013e-18
3531.85986 5.53345e-18
3533.86286 5.33578e-18
3535.85584 5.26204e-18
3537.85884 5.46574e-18
3539.86184 5.52629e-18
3541.85483 5.40658e-18
3543.85783 5.34989e-18
3545.86083 5.49200e-18
3547.85381 5.72278e-18
3549.85681 5.53470e-18
3551.85981 5.58050e-18
3553.86281 5.48774e-18
3555.85580 5.44306e-18
3557.85880 5.80816e-18
3559.86180 5.54474e-18
3561.85478 5.43100e-18
3563.85778 5.47168e-18
3565.86078 5.61993e-18
3567.85377 5.51424e-18
3569.85677 5.29260e-18
3571.85977 5.26790e-18
3573.85275 5.37545e-18
3575.85575 5.66360e-18
3577.85875 5.47152e-18
3579.86175 5.59832e-18
3581.85473 5.63828e-18
3583.85774 5.50320e-18
3585.86074 5.40430e-18
3587.85372 5.54160e-18
3589.85672 5.46486e-18
3591.85972 5.56449e-18
3593.85270 5.74603e-18
3595.85570 5.78846e-18
3597.85871 5.85619e-18
3599.85169 6.01699e-18
3601.85469 5.97378e-18
3603.85769 5.73466e-18
3605.86069 5.62242e-18
3607.85367 5.68246e-18
3609.85667 5.70780e-18
3611.85968 5.65082e-18
3613.85266 5.75232e-18
3615.85566 5.69790e-18
3617.85866 5.62423e-18
3619.85165 5.56625e-18
3621.85464 5.48605e-18
3623.85765 5.40596e-18
3625.85063 5.53209e-18
3627.85363 5.54652e-18
3629.85663 5.39008e-18
3631.85963 5.36340e-18
3633.85262 5.42607e-18
3635.85561 5.34703e-18
3637.85862 5.29558e-18
3639.85160 5.34528e-18
3641.85460 5.65990e-18
3643.85760 5.66836e-18
3645.85059 5.68943e-18
3647.85359 5.54780e-18
3649.85658 5.34576e-18
3651.84957 5.35226e-18
3653.85257 5.50846e-18
3655.85557 5.34691e-18
3657.85857 5.36955e-18
3659.85156 5.71208e-18
3661.85455 5.97866e-18
3663.85756 6.12689e-18
3665.85054 6.03391e-18
3667.85354 5.84175e-18
3669.85654 5.85903e-18
3671.84953 5.90607e-18
3673.85253 5.77814e-18
3675.85552 5.95649e-18
3677.84851 6.27849e-18
3679.85151 6.24662e-18
3681.85451 5.95253e-18
3683.85751 5.93550e-18
3685.85050 6.01282e-18
3687.85350 5.94241e-18
3689.85649 5.76556e-18
3691.84948 5.86194e-18
3693.85248 6.05687e-18
3695.85548 6.17013e-18
3697.84847 6.00053e-18
3699.85147 5.96621e-18
3701.85447 5.97333e-18
3703.84745 5.91547e-18
3705.85045 5.84152e-18
3707.85345 5.54636e-18
3709.85645 5.58794e-18
3711.84944 5.40405e-18
3713.85244 5.36602e-18
3715.85544 5.32801e-18
3717.84842 5.27057e-18
3719.85142 5.21313e-18
3721.85442 5.15571e-18
3723.84740 5.09829e-18
3725.85041 5.04089e-18
3727.85341 4.98349e-18
3729.84639 4.92610e-18
3731.84939 4.86872e-18
3733.85239 4.81135e-18
3735.85539 4.75399e-18
3737.84838 4.69665e-18
3739.85138 4.63930e-18
3741.85438 4.58197e-18
3743.84736 4.52464e-18
3745.85036 4.46733e-18
3747.85336 4.41003e-18
3749.84635 4.35273e-18
3751.84935 4.29544e-18
3753.85235 4.23816e-18
3755.84533 4.04591e-18
3757.84833 4.15297e-18
3759.85133 4.51286e-18
3761.85433 4.78330e-18
3763.84732 4.73471e-18
3765.85032 4.66235e-18
3767.85332 4.66326e-18
3769.84630 4.61617e-18
3771.84930 4.39856e-18
3773.85230 4.17743e-18
3775.84529 3.88931e-18
3777.84829 3.80321e-18
3779.85129 4.06674e-18
3781.84427 4.43322e-18
3783.84727 4.76277e-18
3785.85027 4.98989e-18
3787.85327 4.95073e-18
3789.84626 4.85983e-18
3791.84926 4.85532e-18
3793.85226 4.77094e-18
3795.84524 4.68543e-18
3797.84824 4.59046e-18
3799.85124 4.35070e-18
3801.84423 4.00218e-18
3803.84723 3.80011e-18
3805.85023 3.95527e-18
3807.85323 4.28374e-18
3809.84621 4.69770e-18
3811.84921 4.95300e-18
3813.85221 5.36209e-18
3815.84520 5.30268e-18
3817.84820 5.14124e-18
3819.85120 5.32236e-18
3821.84418 5.50256e-18
3823.84718 5.55033e-18
3825.85018 5.60190e-18
3827.84317 5.60508e-18
3829.84617 5.53691e-18
3831.84917 5.32418e-18
3833.84215 5.17211e-18
3835.84515 5.07927e-18
3837.84815 5.02402e-18
3839.85115 4.87178e-18
3841.84414 4.98558e-18
3843.84714 5.36101e-18
3845.85014 5.92109e-18
3847.84312 6.38774e-18
3849.84612 6.61260e-18
3851.84912 6.90788e-18
3853.84211 7.17410e-18
3855.84511 7.48055e-18
3857.84811 7.81812e-18
3859.84109 7.90689e-18
3861.84409 8.07618e-18
3863.84709 8.45791e-18
3865.85009 8.76983e-18
3867.84308 8.86774e-18
3869.84608 9.36358e-18
3871.84908 9.59284e-18
3873.84206 9.51652e-18
3875.84506 9.44929e-18
3877.84806 9.90997e-18
3879.84105 1.03978e-17
3881.84405 1.02156e-17
3883.84705 9.90792e-18
3885.84003 1.04069e-17
3887.84303 1.02630e-17
3889.84603 1.01173e-17
3891.84903 1.00128e-17
3893.84202 9.93817e-18
3895.84502 9.97190e-18
3897.84802 1.03986e-17
3899.84100 1.08725e-17
3901.84400 1.11219e-17
3903.84700 1.12202e-17
3905.83999 1.16403e-17
3907.84299 1.18901e-17
3909.84598 1.19774e-17
3911.84899 1.19525e-17
3913.84197 1.18918e-17
3915.84497 1.24466e-17
3917.84797 1.24253e-17
3919.84096 1.24820e-17
3921.84395 1.25982e-17
3923.84695 1.23185e-17
3925.83994 1.25017e-17
3927.84294 1.22109e-17
3929.84594 1.20317e-17
3931.83893 1.19982e-17
3933.84193 1.15560e-17
3935.84492 1.10760e-17
3937.84793 1.05420e-17
3939.84091 1.03806e-17
3941.84391 1.09065e-17
3943.84691 1.19478e-17
3945.83990 1.24401e-17
3947.84290 1.25843e-17
3949.84589 1.25804e-17
3951.83888 1.24743e-17
3953.84188 1.24060e-17
3955.84488 1.24905e-17
3957.83786 1.25716e-17
3959.84087 1.25701e-17
3961.84387 1.25730e-17
3963.84686 1.23296e-17
3965.83985 1.21359e-17
3967.84285 1.18385e-17
3969.84585 1.12767e-17
3971.83884 1.08097e-17
3973.84184 1.07635e-17
3975.84483 1.09985e-17
3977.83782 1.12761e-17
3979.84082 1.14242e-17
3981.84382 1.22078e-17
3983.83680 1.22993e-17
3985.83981 1.25122e-17
3987.84281 1.30034e-17
3989.83579 1.28591e-17
3991.83879 1.30726e-17
3993.84179 1.31864e-17
3995.84479 1.32562e-17
3997.83777 1.33617e-17
3999.84078 1.31855e-17
4001.84378 1.34529e-17
4003.83676 1.32021e-17
4005.83976 1.31588e-17
4007.84276 1.37784e-17
4009.83575 1.39207e-17
4011.83875 1.38284e-17
4013.84175 1.38688e-17
4015.84475 1.40187e-17
4017.83773 1.39141e-17
4019.84073 1.37609e-17
4021.84373 1.38894e-17
4023.83672 1.39853e-17
4025.83972 1.39187e-17
4027.84272 1.37586e-17
4029.83570 1.38378e-17
4031.83870 1.38033e-17
4033.84170 1.38036e-17
4035.83469 1.37035e-17
4037.83769 1.35146e-17
4039.84069 1.33265e-17
4041.84369 1.33745e-17
4043.83667 1.36469e-17
4045.83967 1.37937e-17
4047.84267 1.35832e-17
4049.83566 1.34419e-17
4051.83866 1.32129e-17
4053.84166 1.29477e-17
4055.83464 1.31482e-17
4057.83764 1.29210e-17
4059.84064 1.28748e-17
4061.83363 1.29543e-17
4063.83663 1.29315e-17
4065.83963 1.25001e-17
4067.84263 1.23627e-17
4069.83561 1.24536e-17
4071.83861 1.25213e-17
4073.84161 1.23042e-17
4075.83460 1.20089e-17
4077.83760 1.17026e-17
4079.84060 1.18469e-17
4081.83358 1.21194e-17
4083.83658 1.16226e-17
4085.83958 1.17256e-17
4087.83257 1.18745e-17
4089.83557 1.17432e-17
4091.83857 1.15023e-17
4093.84157 1.16910e-17
4095.83455 1.13915e-17
4097.83755 1.12375e-17
4099.84055 1.12043e-17
4101.83354 1.06982e-17
4103.83653 1.04381e-17
4105.83954 1.01853e-17
4107.83252 1.00249e-17
4109.83552 9.99307e-18
4111.83852 1.00833e-17
4113.83151 1.00923e-17
4115.83451 1.02297e-17
4117.83751 1.04857e-17
4119.84051 1.05298e-17
4121.83349 1.03400e-17
4123.83649 1.04381e-17
4125.83949 1.05063e-17
4127.83248 1.05640e-17
4129.83547 1.04093e-17
4131.83847 1.03089e-17
4133.83146 1.01220e-17
4135.83446 1.01686e-17
4137.83746 1.03350e-17
4139.83045 1.03039e-17
4141.83345 1.03137e-17
4143.83644 1.03675e-17
4145.82943 1.03857e-17
4147.83243 1.02567e-17
4149.83543 1.01373e-17
4151.83843 1.03039e-17
4153.83141 1.04610e-17
4155.83442 1.05593e-17
4157.83741 1.05540e-17
4159.83040 1.05508e-17
4161.83340 1.04352e-17
4163.83640 1.03098e-17
4165.82939 1.03130e-17
4167.83239 1.04463e-17
4169.83539 1.03330e-17
4171.83839 1.02402e-17
4173.83137 1.01342e-17
4175.83437 9.87882e-18
4177.83737 9.79207e-18
4179.83036 9.85681e-18
4181.83335 9.65418e-18
4183.83636 9.49452e-18
4185.82934 9.55070e-18
4187.83234 9.71069e-18
4189.83534 9.71349e-18
4191.82833 9.58577e-18
4193.83133 9.50111e-18
4195.83433 9.64232e-18
4197.83733 9.78527e-18
4199.83031 9.81550e-18
4201.83331 9.77853e-18
4203.83631 9.87033e-18
4205.82929 9.88003e-18
4207.83230 9.82359e-18
4209.83529 9.82915e-18
4211.82828 9.79849e-18
4213.83128 9.86741e-18
4215.83428 1.00326e-17
4217.82727 1.02944e-17
4219.83027 1.01782e-17
4221.83327 1.00256e-17
4223.83627 1.02960e-17
4225.82925 1.04873e-17
4227.83225 1.04408e-17
4229.83525 1.01814e-17
4231.82823 1.01325e-17
4233.83123 1.03647e-17
4235.83424 1.06222e-17
4237.82722 1.06204e-17
4239.83022 1.06328e-17
4241.83322 1.06758e-17
4243.82621 1.06229e-17
4245.82921 1.06797e-17
4247.83221 1.08340e-17
4249.83521 1.09245e-17
4251.82819 1.07476e-17
4253.83119 1.05482e-17
4255.83419 1.06131e-17
4257.82718 1.06165e-17
4259.83018 1.06328e-17
4261.83317 1.07704e-17
4263.82616 1.07872e-17
4265.82916 1.06361e-17
4267.83216 1.04883e-17
4269.82515 1.05964e-17
4271.82815 1.09204e-17
4273.83115 1.04872e-17
4275.83415 1.03396e-17
4277.82713 1.04865e-17
4279.83013 1.04289e-17
4281.83313 1.01376e-17
4283.82611 1.03231e-17
4285.82912 1.04363e-17
4287.83212 1.05456e-17
4289.82510 1.08330e-17
4291.82810 1.03860e-17
4293.83110 1.02052e-17
4295.82409 1.02340e-17
4297.82709 1.04277e-17
4299.83009 1.04975e-17
4301.83309 1.03889e-17
4303.82607 1.05369e-17
4305.82907 1.04932e-17
4307.83207 1.01574e-17
4309.82506 1.05215e-17
4311.82805 1.05221e-17
4313.83106 1.06370e-17
4315.82404 1.06874e-17
4317.82704 1.06529e-17
4319.83004 1.03147e-17
4321.82303 1.05281e-17
4323.82603 1.07686e-17
4325.82903 1.07638e-17
4327.83203 1.05006e-17
4329.82501 1.03174e-17
4331.82801 1.03426e-17
4333.83101 1.02129e-17
4335.82399 9.94175e-18
4337.82700 1.01204e-17
4339.83000 1.00106e-17
4341.82298 9.80898e-18
4343.82598 9.61115e-18
4345.82898 9.85709e-18
4347.82197 9.48884e-18
4349.82497 9.56548e-18
4351.82797 9.60571e-18
4353.83097 9.64592e-18
4355.82395 9.68613e-18
4357.82695 9.72635e-18
4359.82995 9.76655e-18
4361.82294 9.80674e-18
4363.82593 9.84694e-18
4365.82894 9.88713e-18
4367.82192 9.92731e-18
4369.82492 9.96749e-18
4371.82792 1.00077e-17
4373.82091 1.00478e-17
4375.82391 1.00880e-17
4377.82691 1.01282e-17
4379.82991 1.01683e-17
4381.82289 1.02085e-17
4383.82589 1.02486e-17
4385.82889 1.02887e-17
4387.82188 1.03289e-17
4389.82488 1.02257e-17
4391.82787 9.86917e-18
4393.82086 1.01482e-17
4395.82386 9.96522e-18
4397.82686 1.00800e-17
4399.81984 1.02985e-17
4401.82284 1.02213e-17
4403.82584 1.02154e-17
4405.82885 1.00684e-17
4407.82183 1.00006e-17
4409.82483 1.01292e-17
4411.82783 1.00031e-17
4413.82082 9.96763e-18
4415.82382 9.80819e-18
4417.82682 9.79559e-18
4419.81980 9.91464e-18
4421.82280 9.76021e-18
4423.82580 9.94083e-18
4425.81878 9.95660e-18
4427.82179 9.78095e-18
4429.82478 9.64758e-18
4431.82778 9.86126e-18
4433.82077 9.94108e-18
4435.82377 9.80581e-18
4437.82677 9.57716e-18
4439.81976 9.52834e-18
4441.82276 9.89825e-18
4443.82576 1.01081e-17
4445.81874 1.00801e-17
4447.82174 1.00572e-17
4449.82474 1.02382e-17
4451.81772 1.03183e-17
4453.82072 1.02761e-17
4455.82373 1.02943e-17
4457.82672 1.04220e-17
4459.81971 1.05700e-17
4461.82271 1.05446e-17
4463.82571 1.05038e-17
4465.81869 1.06070e-17
4467.82170 1.09042e-17
4469.82470 1.11136e-17
4471.81768 1.12232e-17
4473.82068 1.13095e-17
4475.82368 1.14161e-17
4477.81667 1.17003e-17
4479.81966 1.19099e-17
4481.82266 1.21114e-17
4483.82567 1.23175e-17
4485.81865 1.25694e-17
4487.82165 1.23955e-17
4489.82465 1.24358e-17
4491.81764 1.27575e-17
4493.82064 1.31830e-17
4495.82364 1.33368e-17
4497.81662 1.34150e-17
4499.81962 1.35698e-17
4501.82262 1.37077e-17
4503.81560 1.37770e-17
4505.81861 1.39308e-17
4507.82161 1.41630e-17
4509.82460 1.43947e-17
4511.81759 1.46592e-17
4513.82059 1.48146e-17
4515.82359 1.50535e-17
4517.81658 1.51138e-17
4519.81958 1.52383e-17
4521.82258 1.52891e-17
4523.81556 1.52029e-17
4525.81856 1.53711e-17
4527.82156 1.55715e-17
4529.81455 1.56751e-17
4531.81754 1.57269e-17
4533.82054 1.57013e-17
4535.82355 1.57794e-17
4537.81653 1.59535e-17
4539.81953 1.59902e-17
4541.82253 1.59925e-17
4543.81552 1.62147e-17
4545.81852 1.66989e-17
4547.82152 1.67623e-17
4549.81450 1.65830e-17
4551.81750 1.67619e-17
4553.82050 1.66271e-17
4555.81348 1.67317e-17
4557.81649 1.67227e-17
4559.81948 1.66811e-17
4561.82248 1.70246e-17
4563.81547 1.73266e-17
4565.81847 1.75657e-17
4567.82147 1.77542e-17
4569.81446 1.79081e-17
4571.81746 1.78139e-17
4573.82046 1.76859e-17
4575.81344 1.76358e-17
4577.81644 1.77539e-17
4579.81944 1.79860e-17
4581.81243 1.79592e-17
4583.81542 1.78654e-17
4585.81843 1.76881e-17
4587.82143 1.75043e-17
4589.81441 1.75048e-17
4591.81741 1.76976e-17
4593.82041 1.77289e-17
4595.81340 1.77347e-17
4597.81640 1.77390e-17
4599.81940 1.76714e-17
4601.81238 1.76852e-17
4603.81538 1.77399e-17
4605.81838 1.77868e-17
4607.82138 1.78776e-17
4609.81437 1.81214e-17
4611.81736 1.80079e-17
4613.82037 1.77971e-17
4615.81335 1.78230e-17
4617.81635 1.81989e-17
4619.81935 1.82147e-17
4621.81234 1.80586e-17
4623.81534 1.79560e-17
4625.81834 1.80093e-17
4627.81132 1.80100e-17
4629.81432 1.79198e-17
4631.81732 1.77864e-17
4633.82032 1.77305e-17
4635.81331 1.76332e-17
4637.81631 1.76964e-17
4639.81930 1.77692e-17
4641.81229 1.75566e-17
4643.81529 1.71719e-17
4645.81829 1.69081e-17
4647.81128 1.73593e-17
4649.81428 1.73194e-17
4651.81728 1.71489e-17
4653.81026 1.69587e-17
4655.81326 1.67023e-17
4657.81626 1.68576e-17
4659.80925 1.67605e-17
4661.81225 1.67712e-17
4663.81524 1.69574e-17
4665.81825 1.67121e-17
4667.81123 1.64999e-17
4669.81423 1.63266e-17
4671.81723 1.62221e-17
4673.81022 1.61865e-17
4675.81322 1.62162e-17
4677.81622 1.60160e-17
4679.80920 1.58928e-17
4681.81220 1.58783e-17
4683.81520 1.59162e-17
4685.80818 1.56622e-17
4687.81119 1.54708e-17
4689.81419 1.53924e-17
4691.81718 1.53938e-17
4693.81017 1.53743e-17
4695.81317 1.53055e-17
4697.81617 1.52977e-17
4699.80916 1.52804e-17
4701.81216 1.51179e-17
4703.81516 1.47926e-17
4705.80814 1.45390e-17
4707.81114 1.43313e-17
4709.81414 1.41861e-17
4711.80713 1.42532e-17
4713.81012 1.41865e-17
4715.81313 1.42426e-17
4717.81613 1.42147e-17
4719.80911 1.41287e-17
4721.81211 1.41875e-17
4723.81511 1.38929e-17
4725.80809 1.39270e-17
4727.81110 1.40366e-17
4729.81409 1.39174e-17
4731.80708 1.41232e-17
4733.81008 1.39047e-17
4735.81308 1.35465e-17
4737.80607 1.34356e-17
4739.80907 1.36400e-17
4741.81207 1.35719e-17
4743.81507 1.35154e-17
4745.80805 1.34631e-17
4747.81105 1.34262e-17
4749.81405 1.30637e-17
4751.80703 1.30964e-17
4753.81003 1.30879e-17
4755.81304 1.29935e-17
4757.80602 1.28638e-17
4759.80902 1.28412e-17
4761.81202 1.26703e-17
4763.80501 1.24962e-17
4765.80801 1.22889e-17
4767.81101 1.21081e-17
4769.81401 1.18627e-17
4771.80699 1.17351e-17
4773.80999 1.16857e-17
4775.81299 1.17030e-17
4777.80598 1.16253e-17
4779.80897 1.16881e-17
4781.81197 1.17037e-17
4783.80496 1.15431e-17
4785.80796 1.11991e-17
4787.81096 1.11099e-17
4789.80395 1.11442e-17
4791.80695 1.11200e-17
4793.80994 1.10636e-17
4795.81295 1.09578e-17
4797.80593 1.11178e-17
4799.80893 1.11245e-17
4801.81193 1.11995e-17
4803.80491 1.12381e-17
4805.80792 1.12918e-17
4807.81092 1.09701e-17
4809.80390 1.10537e-17
4811.80690 1.12564e-17
4813.80990 1.13565e-17
4815.81290 1.13627e-17
4817.80589 1.13239e-17
4819.80889 1.13507e-17
4821.81189 1.15421e-17
4823.80487 1.16104e-17
4825.80787 1.16717e-17
4827.81087 1.18915e-17
4829.80386 1.19933e-17
4831.80685 1.19289e-17
4833.80986 1.19612e-17
4835.80284 1.20779e-17
4837.80584 1.20793e-17
4839.80884 1.20843e-17
4841.81184 1.21692e-17
4843.80483 1.22054e-17
4845.80783 1.20766e-17
4847.81083 1.19177e-17
4849.80381 1.18120e-17
4851.80681 1.17877e-17
4853.80981 1.17634e-17
4855.80279 1.17392e-17
4857.80580 1.17149e-17
4859.80879 1.16906e-17
4861.80178 1.16663e-17
4863.80478 1.16420e-17
4865.80778 1.16177e-17
4867.81078 1.15935e-17
4869.80377 1.15692e-17
4871.80677 1.15449e-17
4873.80977 1.15207e-17
4875.80275 1.14964e-17
4877.80575 1.14722e-17
4879.80875 1.14479e-17
4881.80174 1.14236e-17
4883.80473 1.13994e-17
4885.80774 1.13751e-17
4887.80072 1.13509e-17
4889.80372 1.15836e-17
4891.80672 1.17056e-17
4893.80972 1.18470e-17
4895.80271 1.19406e-17
4897.80571 1.19314e-17
4899.80871 1.18967e-17
4901.80169 1.19435e-17
4903.80469 1.20827e-17
4905.80769 1.23369e-17
4907.80068 1.25883e-17
4909.80368 1.26273e-17
4911.80667 1.27238e-17
4913.79966 1.28785e-17
4915.80266 1.29213e-17
4917.80566 1.28743e-17
4919.80866 1.29433e-17
4921.80165 1.30939e-17
4923.80465 1.31632e-17
4925.80765 1.31768e-17
4927.80063 1.32426e-17
4929.80363 1.36632e-17
4931.80663 1.38135e-17
4933.79961 1.40464e-17
4935.80262 1.43225e-17
4937.80562 1.41894e-17
4939.79860 1.44459e-17
4941.80160 1.45996e-17
4943.80460 1.46166e-17
4945.80760 1.46238e-17
4947.80059 1.46659e-17
4949.80359 1.46672e-17
4951.80659 1.46685e-17
4953.79957 1.46698e-17
4955.80257 1.46711e-17
4957.80557 1.46724e-17
4959.79856 1.46737e-17
4961.80156 1.46750e-17
4963.80456 1.46763e-17
4965.79754 1.46777e-17
4967.80054 1.46790e-17
4969.80354 1.46803e-17
4971.79653 1.46816e-17
4973.79953 1.46829e-17
4975.80253 1.46842e-17
4977.80553 1.46855e-17
4979.79851 1.46868e-17
4981.80151 1.46881e-17
4983.80451 1.46894e-17
4985.79749 1.46908e-17
4987.80050 1.44318e-17
4989.80350 1.41235e-17
4991.79648 1.40232e-17
4993.79948 1.39537e-17
4995.80248 1.39193e-17
4997.80548 1.37503e-17
4999.79847 1.35814e-17
5001.80147 1.34125e-17
5003.80447 1.32436e-17
5005.79745 1.30747e-17
5007.80045 1.29059e-17
5009.80345 1.27370e-17
5011.79644 1.25683e-17
5013.79943 1.23995e-17
5015.80244 1.22307e-17
5017.79542 1.20619e-17
5019.79842 1.18933e-17
5021.80142 1.17245e-17
5023.80442 1.15559e-17
5025.79741 1.13872e-17
5027.80041 1.12186e-17
5029.80341 1.10500e-17
5031.79639 1.08814e-17
5033.79939 1.07128e-17
5035.80239 1.06461e-17
5037.79538 1.06782e-17
5039.79838 1.06452e-17
5041.80138 1.06208e-17
5043.79436 1.07356e-17
5045.79736 1.08189e-17
5047.80036 1.07273e-17
5049.80336 1.07684e-17
5051.79634 1.07878e-17
5053.79934 1.07324e-17
5055.80235 1.06857e-17
5057.79533 1.07802e-17
5059.79833 1.10268e-17
5061.80133 1.11157e-17
5063.79432 1.11267e-17
5065.79732 1.12337e-17
5067.80032 1.14923e-17
5069.79330 1.14754e-17
5071.79630 1.15176e-17
5073.79930 1.16216e-17
5075.80230 1.17526e-17
5077.79529 1.19207e-17
5079.79828 1.19797e-17
5081.80128 1.19601e-17
5083.79427 1.20310e-17
5085.79727 1.21986e-17
5087.80027 1.24341e-17
5089.79326 1.25492e-17
5091.79626 1.26165e-17
5093.79926 1.26739e-17
5095.79224 1.27215e-17
5097.79524 1.27852e-17
5099.79824 1.30108e-17
5101.80124 1.31468e-17
5103.79422 1.31678e-17
5105.79723 1.31838e-17
5107.80022 1.33556e-17
5109.79321 1.34038e-17
5111.79621 1.33803e-17
5113.79921 1.33746e-17
5115.79219 1.35408e-17
5117.79520 1.37269e-17
5119.79820 1.39031e-17
5121.79118 1.39379e-17
5123.79418 1.37855e-17
5125.79718 1.40301e-17
5127.80018 1.39384e-17
5129.79317 1.38141e-17
5131.79616 1.39383e-17
5133.79917 1.41025e-17
5135.79215 1.41380e-17
5137.79515 1.40931e-17
5139.79815 1.40241e-17
5141.79114 1.40503e-17
5143.79414 1.41066e-17
5145.79714 1.42263e-17
5147.79012 1.42446e-17
5149.79312 1.41811e-17
5151.79612 1.41498e-17
5153.79912 1.42696e-17
5155.79211 1.43333e-17
5157.79511 1.43530e-17
5159.79810 1.43612e-17
5161.79109 1.44531e-17
5163.79409 1.45369e-17
5165.79709 1.45223e-17
5167.79008 1.44070e-17
5169.79308 1.43833e-17
5171.79608 1.47288e-17
5173.78906 1.44127e-17
5175.79206 1.42702e-17
5177.79506 1.43636e-17
5179.79806 1.44824e-17
5181.79104 1.44113e-17
5183.79404 1.46701e-17
5185.79705 1.47818e-17
5187.79003 1.46854e-17
5189.79303 1.47025e-17
5191.79603 1.46722e-17
5193.78902 1.46785e-17
5195.79202 1.47950e-17
5197.79502 1.49552e-17
5199.78800 1.49063e-17
5201.79100 1.48973e-17
5203.79400 1.50830e-17
5205.79700 1.52860e-17
5207.78999 1.53323e-17
5209.79299 1.54897e-17
5211.79598 1.54069e-17
5213.78897 1.54287e-17
5215.79197 1.54527e-17
5217.79497 1.52606e-17
5219.78796 1.53419e-17
5221.79096 1.55370e-17
5223.79396 1.57441e-17
5225.78694 1.58028e-17
5227.78994 1.58314e-17
5229.79294 1.59696e-17
5231.79594 1.59775e-17
5233.78892 1.58895e-17
5235.79193 1.58662e-17
5237.79493 1.60148e-17
5239.78791 1.60581e-17
5241.79091 1.61028e-17
5243.79391 1.62097e-17
5245.78690 1.64086e-17
5247.78990 1.63223e-17
5249.79290 1.63567e-17
5251.78588 1.65378e-17
5253.78888 1.66398e-17
5255.79188 1.63546e-17
5257.79488 1.65125e-17
5259.78787 1.67870e-17
5261.79086 1.70207e-17
5263.79387 1.70401e-17
5265.78685 1.69318e-17
5267.78985 1.68614e-17
5269.79285 1.70428e-17
5271.78584 1.71455e-17
5273.78884 1.69129e-17
5275.79184 1.67087e-17
5277.78482 1.68740e-17
5279.78782 1.70323e-17
5281.79082 1.70814e-17
5283.79382 1.70500e-17
5285.78681 1.70474e-17
5287.78981 1.70171e-17
5289.79281 1.71878e-17
5291.78579 1.75120e-17
5293.78879 1.74902e-17
5295.79179 1.73482e-17
5297.78478 1.72527e-17
5299.78778 1.72778e-17
5301.79078 1.73929e-17
5303.78376 1.74161e-17
5305.78676 1.73547e-17
5307.78976 1.73487e-17
5309.79276 1.73475e-17
5311.78575 1.74709e-17
5313.78874 1.74060e-17
5315.79175 1.74606e-17
5317.78473 1.75363e-17
5319.78773 1.75210e-17
5321.79073 1.73954e-17
5323.78372 1.73924e-17
5325.78672 1.74395e-17
5327.78972 1.74732e-17
5329.78270 1.74497e-17
5331.78570 1.74856e-17
5333.78870 1.75015e-17
5335.79170 1.73552e-17
5337.78469 1.72596e-17
5339.78769 1.74648e-17
5341.79068 1.76835e-17
5343.78367 1.75378e-17
5345.78667 1.74976e-17
5347.78967 1.75234e-17
5349.78266 1.73686e-17
5351.78566 1.75162e-17
5353.78866 1.75588e-17
5355.78164 1.76408e-17
5357.78464 1.76892e-17
5359.78764 1.75382e-17
5361.79064 1.75505e-17
5363.78363 1.76649e-17
5365.78663 1.76312e-17
5367.78963 1.74259e-17
5369.78261 1.74178e-17
5371.78561 1.74003e-17
5373.78861 1.72401e-17
5375.78159 1.70649e-17
5377.78460 1.69726e-17
5379.78759 1.70984e-17
5381.78058 1.68586e-17
5383.78358 1.65565e-17
5385.78658 1.62544e-17
5387.78958 1.64126e-17
5389.78257 1.64005e-17
5391.78557 1.62899e-17
5393.78857 1.62588e-17
5395.78155 1.63241e-17
5397.78455 1.64343e-17
5399.78755 1.64279e-17
5401.78053 1.63133e-17
5403.78353 1.61559e-17
5405.78654 1.60489e-17
5407.77952 1.58986e-17
5409.78252 1.58165e-17
5411.78552 1.58457e-17
5413.78852 1.58760e-17
5415.78151 1.55595e-17
5417.78451 1.54931e-17
5419.78751 1.56147e-17
5421.78049 1.57251e-17
5423.78349 1.57077e-17
5425.78649 1.57853e-17
5427.77948 1.57928e-17
5429.78247 1.58193e-17
5431.78547 1.58419e-17
5433.78848 1.57355e-17
5435.78146 1.56896e-17
5437.78446 1.57770e-17
5439.78746 1.58653e-17
5441.78045 1.59028e-17
5443.78345 1.60011e-17
5445.78645 1.61809e-17
5447.77943 1.62854e-17
5449.78243 1.63973e-17
5451.78543 1.65046e-17
5453.77841 1.63215e-17
5455.78142 1.59526e-17
5457.78442 1.60842e-17
5459.77740 1.65699e-17
5461.78040 1.68139e-17
5463.78340 1.71882e-17
5465.78640 1.71824e-17
5467.77939 1.70728e-17
5469.78239 1.70173e-17
5471.78539 1.70360e-17
5473.77837 1.69808e-17
5475.78137 1.69830e-17
5477.78437 1.69834e-17
5479.77736 1.69329e-17
5481.78035 1.67959e-17
5483.78335 1.68710e-17
5485.77634 1.69700e-17
5487.77934 1.69524e-17
5489.78234 1.67475e-17
5491.78534 1.65499e-17
5493.77833 1.65816e-17
5495.78133 1.64263e-17
5497.78433 1.61193e-17
5499.77731 1.60571e-17
5501.78031 1.60309e-17
5503.78331 1.59493e-17
5505.77629 1.57975e-17
5507.77930 1.56006e-17
5509.78229 1.55489e-17
5511.77528 1.55188e-17
5513.77828 1.54862e-17
5515.78128 1.54005e-17
5517.78428 1.52254e-17
5519.77727 1.49567e-17
5521.78027 1.48748e-17
5523.78327 1.48125e-17
5525.77625 1.46061e-17
5527.77925 1.44997e-17
5529.78225 1.41826e-17
5531.77524 1.39612e-17
5533.77823 1.37663e-17
5535.78124 1.35005e-17
5537.77422 1.33414e-17
5539.77722 1.32048e-17
5541.78022 1.30486e-17
5543.78322 1.28304e-17
5545.77621 1.26590e-17
5547.77921 1.24139e-17
5549.78221 1.22777e-17
5551.77519 1.21937e-17
5553.77819 1.20591e-17
5555.78119 1.17353e-17
5557.77418 1.14005e-17
5559.77718 1.12190e-17
5561.78017 1.11182e-17
5563.77316 1.10051e-17
5565.77616 1.06969e-17
5567.77916 1.07556e-17
5569.78216 1.06081e-17
5571.77515 1.02904e-17
5573.77815 1.00247e-17
5575.78115 9.94353e-18
5577.77413 1.00354e-17
5579.77713 1.00470e-17
5581.78013 1.00202e-17
5583.77311 1.00244e-17
5585.77612 9.96514e-18
5587.77912 9.83856e-18
5589.77210 9.68131e-18
5591.77510 9.48352e-18
5593.77810 9.21147e-18
5595.78110 9.02381e-18
5597.77409 8.95004e-18
5599.77709 8.94506e-18
5601.78009 8.81264e-18
5603.77307 8.78260e-18
5605.77607 8.60755e-18
5607.77907 8.36262e-18
5609.77206 8.21766e-18
5611.77506 8.24382e-18
5613.77805 8.31416e-18
5615.77104 8.14880e-18
5617.77404 7.95202e-18
5619.77704 7.81331e-18
5621.78004 7.68599e-18
5623.77303 7.47976e-18
5625.77603 7.34849e-18
5627.77903 7.29808e-18
5629.77201 7.16715e-18
5631.77501 6.97664e-18
5633.77801 7.01590e-18
5635.77099 7.06247e-18
5637.77400 6.94881e-18
5639.77700 6.61428e-18
5641.77999 6.46638e-18
5643.77298 6.48244e-18
5645.77598 6.50528e-18
5647.77898 6.49368e-18
5649.77197 6.32929e-18
5651.77497 6.30710e-18
5653.77797 6.45403e-18
5655.77095 6.58153e-18
5657.77395 6.56022e-18
5659.77695 6.44494e-18
5661.76994 6.35258e-18
5663.77293 6.17313e-18
5665.77594 6.09487e-18
5667.77894 6.22263e-18
5669.77192 6.11149e-18
5671.77492 6.20037e-18
5673.77792 6.37228e-18
5675.77091 6.42413e-18
5677.77391 6.24318e-18
5679.77691 6.44900e-18
5681.76989 6.49327e-18
5683.77289 6.43844e-18
5685.77589 6.51035e-18
5687.76888 6.60220e-18
5689.77188 6.58924e-18
5691.77488 6.58409e-18
5693.77788 6.64863e-18
5695.77086 6.75386e-18
5697.77386 6.80668e-18
5699.77686 6.90859e-18
5701.76984 6.95705e-18
5703.77284 6.92280e-18
5705.77585 6.96555e-18
5707.76883 6.96252e-18
5709.77183 7.03510e-18
5711.77483 7.15922e-18
5713.76782 7.19545e-18
5715.77082 7.09159e-18
5717.77382 6.90862e-18
5719.77682 7.02002e-18
5721.76980 7.37724e-18
5723.77280 7.72778e-18
5725.77580 7.80003e-18
5727.76879 7.85527e-18
5729.77178 7.95361e-18
5731.77478 8.04866e-18
5733.76777 8.06792e-18
5735.77077 7.94768e-18
5737.77377 8.30799e-18
5739.76676 8.46716e-18
5741.76976 8.42857e-18
5743.77275 8.72824e-18
5745.77576 8.63411e-18
5747.76874 8.72227e-18
5749.77174 8.98236e-18
5751.77474 9.15856e-18
5753.76772 9.11692e-18
5755.77073 9.21407e-18
5757.77373 9.39868e-18
5759.76671 9.50055e-18
5761.76971 9.46042e-18
5763.77271 9.58514e-18
5765.76570 9.65072e-18
5767.76870 9.94160e-18
5769.77170 1.03179e-17
5771.76468 1.03361e-17
5773.76768 1.03096e-17
5775.77068 1.05013e-17
5777.77368 1.06886e-17
5779.76667 1.06657e-17
5781.76966 1.07961e-17
5783.77267 1.08988e-17
5785.76565 1.09618e-17
5787.76865 1.10274e-17
5789.77165 1.12048e-17
5791.76464 1.15428e-17
5793.76764 1.18258e-17
5795.77064 1.18125e-17
5797.76362 1.18139e-17
5799.76662 1.22125e-17
5801.76962 1.23903e-17
5803.77262 1.23375e-17
5805.76560 1.24067e-17
5807.76861 1.28088e-17
5809.77160 1.29658e-17
5811.76459 1.30628e-17
5813.76759 1.31264e-17
5815.77059 1.32281e-17
5817.76358 1.34153e-17
5819.76658 1.36442e-17
5821.76958 1.38796e-17
5823.76256 1.40785e-17
5825.76556 1.41659e-17
5827.76856 1.41514e-17
5829.77156 1.41663e-17
5831.76454 1.45828e-17
5833.76754 1.48683e-17
5835.77055 1.48775e-17
5837.76353 1.46787e-17
5839.76653 1.48478e-17
5841.76953 1.50948e-17
5843.76252 1.52079e-17
5845.76552 1.52357e-17
5847.76852 1.52933e-17
5849.77152 1.53018e-17
5851.76450 1.54140e-17
5853.76750 1.55961e-17
5855.77050 1.56374e-17
5857.76349 1.53996e-17
5859.76649 1.54913e-17
5861.76948 1.56501e-17
5863.76247 1.57040e-17
5865.76547 1.55334e-17
5867.76847 1.54751e-17
5869.76146 1.56145e-17
5871.76446 1.56968e-17
5873.76746 1.56514e-17
5875.77046 1.55814e-17
5877.76344 1.55782e-17
5879.76644 1.55194e-17
5881.76944 1.54739e-17
5883.76242 1.53274e-17
5885.76543 1.50864e-17
5887.76843 1.50008e-17
5889.76141 1.50198e-17
5891.76441 1.49687e-17
5893.76741 1.31803e-17
5895.76040 1.11195e-17
5897.76340 1.00661e-17
5899.76640 1.03404e-17
5901.76940 1.11362e-17
5903.76238 1.16970e-17
5905.76538 1.26013e-17
5907.76838 1.36364e-17
5909.76137 1.46053e-17
5911.76436 1.52945e-17
5913.76737 1.56086e-17
5915.76035 1.55755e-17
5917.76335 1.55217e-17
5919.76635 1.56080e-17
5921.75934 1.58421e-17
5923.76234 1.58049e-17
5925.76534 1.58693e-17
5927.76834 1.58186e-17
5929.76132 1.58370e-17
5931.76432 1.59796e-17
5933.76732 1.59247e-17
5935.76030 1.58173e-17
5937.76331 1.58206e-17
5939.76631 1.58903e-17
5941.75929 1.60253e-17
5943.76229 1.60625e-17
5945.76529 1.60057e-17
5947.75828 1.59035e-17
5949.76128 1.59190e-17
5951.76428 1.60108e-17
5953.76728 1.58351e-17
5955.76026 1.57073e-17
5957.76326 1.59086e-17
5959.76626 1.60874e-17
5961.75925 1.59243e-17
5963.76224 1.58014e-17
5965.76525 1.57921e-17
5967.75823 1.57849e-17
5969.76123 1.57036e-17
5971.76423 1.57542e-17
5973.75722 1.58850e-17
5975.76022 1.60062e-17
5977.76322 1.60412e-17
5979.76622 1.60536e-17
5981.75920 1.57823e-17
5983.76220 1.55916e-17
5985.76520 1.55435e-17
5987.75819 1.52238e-17
5989.76119 1.51730e-17
5991.76418 1.53435e-17
5993.75717 1.53683e-17
5995.76017 1.51257e-17
5997.76317 1.49588e-17
5999.75616 1.48656e-17
6001.75916 1.47773e-17
6003.76216 1.47007e-17
6005.76516 1.46242e-17
6007.75814 1.45479e-17
6009.76114 1.44716e-17
6011.76414 1.43955e-17
6013.75713 1.43412e-17
6015.76013 1.42706e-17
6017.76313 1.41770e-17
6019.75611 1.41583e-17
6021.75911 1.41122e-17
6023.76211 1.38838e-17
6025.75509 1.40380e-17
6027.75810 1.41090e-17
6029.76109 1.40570e-17
6031.76409 1.39621e-17
6033.75708 1.39201e-17
6035.76008 1.37551e-17
6037.76308 1.35974e-17
6039.75607 1.36384e-17
6041.75907 1.37570e-17
6043.76207 1.37075e-17
6045.75505 1.36388e-17
6047.75805 1.36131e-17
6049.76105 1.35968e-17
6051.75403 1.34851e-17
6053.75703 1.32867e-17
6055.76004 1.32534e-17
6057.76303 1.32813e-17
6059.75602 1.32559e-17
6061.75902 1.31252e-17
6063.76202 1.30410e-17
6065.75500 1.30673e-17
6067.75801 1.30839e-17
6069.76101 1.30404e-17
6071.75399 1.30203e-17
6073.75699 1.29402e-17
6075.75999 1.28849e-17
6077.75298 1.28237e-17
6079.75598 1.27228e-17
6081.75897 1.26872e-17
6083.76198 1.28241e-17
6085.75496 1.29260e-17
6087.75796 1.28844e-17
6089.76096 1.27139e-17
6091.75395 1.25744e-17
6093.75695 1.24999e-17
6095.75995 1.24387e-17
6097.75293 1.24194e-17
6100.91767 1.24685e-17
6102.38988 1.30580e-17
6103.85207 1.21031e-17
6105.32427 1.21280e-17
6106.79648 1.25563e-17
6108.26868 1.23751e-17
6109.74089 1.22979e-17
6111.20308 1.18734e-17
6112.67528 1.22248e-17
6114.14749 1.17537e-17
6115.61969 1.19642e-17
6117.08188 1.27606e-17
6118.55409 1.24390e-17
6120.02629 1.19628e-17
6121.49849 1.18418e-17
6122.96069 1.14011e-17
6124.43289 1.21092e-17
6125.90510 1.23782e-17
6127.37730 1.14800e-17
6128.84951 1.04753e-17
6130.31170 1.02424e-17
6131.78390 1.14785e-17
6133.25611 1.23611e-17
6134.72831 1.19481e-17
6136.19050 1.14462e-17
6137.66271 1.16093e-17
6139.13491 1.15891e-17
6140.60711 1.16832e-17
6142.07932 1.23990e-17
6143.54151 1.21183e-17
6145.01372 1.09237e-17
6146.48592 1.07192e-17
6147.95813 1.14365e-17
6149.42032 1.14459e-17
6150.89252 1.19206e-17
6152.36473 1.35518e-17
6153.83693 1.32249e-17
6155.29912 1.27503e-17
6156.77133 1.25716e-17
6158.24353 1.23988e-17
6159.71573 1.21971e-17
6161.18794 1.19622e-17
6162.65013 1.17807e-17
6164.12234 1.16237e-17
6165.59454 1.29944e-17
6167.06675 1.33466e-17
6168.52894 1.27650e-17
6170.00114 1.27713e-17
6171.47335 1.28608e-17
6172.94555 1.33643e-17
6174.41776 1.39991e-17
6175.87995 1.37277e-17
6177.35215 1.31726e-17
6178.82435 1.31024e-17
6180.29656 1.35387e-17
6181.75875 1.32898e-17
6183.23096 1.21146e-17
6184.70316 1.19945e-17
6186.17537 1.27980e-17
6187.64757 1.28047e-17
6189.10976 1.27136e-17
6190.58197 1.24316e-17
6192.05417 1.22637e-17
6193.52638 1.27949e-17
6194.98857 1.36854e-17
6196.46077 1.44478e-17
6197.93297 1.37602e-17
6199.40518 1.31165e-17
6200.87739 1.34843e-17
6202.33958 1.32204e-17
6203.81178 1.38174e-17
6205.28399 1.39625e-17
6206.75619 1.38173e-17
6208.21838 1.34816e-17
6209.69059 1.34206e-17
6211.16279 1.46275e-17
6212.63500 1.47836e-17
6214.09719 1.44474e-17
6215.56939 1.37501e-17
6217.04159 1.38916e-17
6218.51380 1.35779e-17
6219.98601 1.49834e-17
6221.44820 1.47910e-17
6222.92040 1.39943e-17
6224.39261 1.48531e-17
6225.86481 1.56233e-17
6227.32700 1.43898e-17
6228.79921 1.36126e-17
6230.27141 1.49738e-17
6231.74362 1.43706e-17
6233.21582 1.36737e-17
6234.67801 1.38396e-17
6236.15022 1.44977e-17
6237.62242 1.47055e-17
6239.09463 1.46571e-17
6240.55682 1.49375e-17
6242.02902 1.36516e-17
6243.50122 1.32094e-17
6244.97343 1.38656e-17
6246.43562 1.40568e-17
6247.90783 1.48607e-17
6249.38003 1.54484e-17
6250.85224 1.38772e-17
6252.32444 1.38671e-17
6253.78663 1.37697e-17
6255.25884 1.46256e-17
6256.73104 1.43815e-17
6258.20325 1.41732e-17
6259.66543 1.40509e-17
6261.13764 1.38763e-17
6262.60984 1.43091e-17
6264.08205 1.37794e-17
6265.55426 1.41343e-17
6267.01645 1.36243e-17
6268.48865 1.38945e-17
6269.96086 1.42863e-17
6271.43306 1.44642e-17
6272.89525 1.30745e-17
6274.36746 1.37577e-17
6275.83966 1.37775e-17
6277.31187 1.40041e-17
6278.78407 1.40243e-17
6280.24626 1.34020e-17
6281.71847 1.34365e-17
6283.19067 1.52725e-17
6284.66287 1.54136e-17
6286.12507 1.43298e-17
6287.59727 1.42049e-17
6289.06948 1.40019e-17
6290.54168 1.30160e-17
6292.00387 1.22217e-17
6293.47608 1.39168e-17
6294.94828 1.43211e-17
6296.42049 1.37608e-17
6297.89269 1.42331e-17
6299.35488 1.22119e-17
6300.82709 1.31678e-17
6302.29929 1.56935e-17
6303.77149 1.49258e-17
6305.23369 1.24825e-17
6306.70589 1.31322e-17
6308.17810 1.48590e-17
6309.65030 1.46453e-17
6311.12251 1.31006e-17
6312.58470 1.21202e-17
6314.05690 1.37250e-17
6315.52910 1.26897e-17
6317.00131 1.23792e-17
6318.46350 1.38636e-17
6319.93571 1.36263e-17
6321.40791 1.47197e-17
6322.88011 1.27128e-17
6324.35232 1.16401e-17
6325.81451 1.23380e-17
6327.28672 1.27058e-17
6328.75892 1.28742e-17
6330.23113 1.37077e-17
6331.69332 1.31983e-17
6333.16552 1.24662e-17
6334.63772 1.42193e-17
6336.10993 1.47687e-17
6337.57212 1.31572e-17
6339.04433 1.33424e-17
6340.51653 1.43732e-17
6341.98873 1.29804e-17
6343.46094 1.29223e-17
6344.92313 1.41995e-17
6346.39534 1.39077e-17
6347.86754 1.33911e-17
6349.33975 1.39876e-17
6350.80194 1.45554e-17
6352.27414 1.29471e-17
6353.74634 1.25927e-17
6355.21855 1.23065e-17
6356.69076 1.23504e-17
6358.15295 1.32035e-17
6359.62515 1.29986e-17
6361.09735 1.24234e-17
6362.56956 1.31110e-17
6364.03175 1.25465e-17
6365.50396 1.18667e-17
6366.97616 1.24428e-17
6368.44837 1.33960e-17
6369.92057 1.51052e-17
6371.38276 1.41951e-17
6372.85497 1.37341e-17
6374.32717 1.33467e-17
6375.79938 1.29124e-17
6377.26157 1.21238e-17
6378.73377 1.17118e-17
6380.20597 1.28584e-17
6381.67818 1.22577e-17
6383.14037 1.21539e-17
6384.61258 1.18848e-17
6386.08478 1.19121e-17
6387.55699 1.25795e-17
6389.02919 1.32153e-17
6390.49138 1.33752e-17
6391.96359 1.36821e-17
6393.43579 1.21741e-17
6394.90800 1.17352e-17
6396.37019 1.13768e-17
6397.84239 1.00648e-17
6399.31459 1.14042e-17
6400.78680 1.39102e-17
6402.25901 1.32164e-17
6403.72120 1.28176e-17
6405.19340 1.31790e-17
6406.66561 1.20872e-17
6408.13781 1.21429e-17
6409.60000 1.20948e-17
6411.07221 1.10858e-17
6412.54441 1.18004e-17
6414.01662 1.10269e-17
6415.48882 1.26075e-17
6416.95101 1.34815e-17
6418.42322 1.32821e-17
6419.89542 1.31391e-17
6421.36763 1.37909e-17
6422.82982 1.25881e-17
6424.30202 1.20062e-17
6425.77423 1.28872e-17
6427.24643 1.35087e-17
6428.70862 1.30944e-17
6430.18083 1.25656e-17
6431.65303 1.27326e-17
6433.12524 1.28595e-17
6434.59744 1.25543e-17
6436.05963 1.17716e-17
6437.53184 1.33194e-17
6439.00404 1.31065e-17
6440.47625 1.20745e-17
6441.93844 1.26438e-17
6443.41064 1.35737e-17
6444.88285 1.35700e-17
6446.35505 1.42458e-17
6447.82726 1.35966e-17
6449.28945 1.19560e-17
6450.76165 1.43311e-17
6452.23386 1.32850e-17
6453.70606 1.15232e-17
6455.16825 1.31081e-17
6456.64046 1.22675e-17
6458.11266 1.33127e-17
6459.58486 1.24713e-17
6461.05707 1.25376e-17
6462.51926 1.32786e-17
6463.99147 1.33833e-17
6465.46367 1.23837e-17
6466.93588 1.21529e-17
6468.39807 1.19148e-17
6469.87027 1.40589e-17
6471.34248 1.40251e-17
6472.81468 1.25076e-17
6474.27687 1.23129e-17
6475.74908 1.27286e-17
6477.22128 1.24639e-17
6478.69348 1.25137e-17
6480.16569 1.09514e-17
6481.62788 1.21306e-17
6483.10009 1.24215e-17
6484.57229 1.27865e-17
6486.04450 1.11052e-17
6487.50669 1.17401e-17
6488.97889 1.21792e-17
6490.45110 1.33986e-17
6491.92330 1.15514e-17
6493.39551 1.25949e-17
6494.85770 1.35805e-17
6496.32990 1.27685e-17
6497.80210 1.17198e-17
6499.27431 1.19285e-17
6500.73650 1.41549e-17
6502.20871 1.30880e-17
6503.68091 1.19818e-17
6505.15312 1.33523e-17
6506.62532 1.26259e-17
6508.08751 1.03873e-17
6509.55972 1.19548e-17
6511.03192 1.17459e-17
6512.50413 1.31793e-17
6513.96632 1.34483e-17
6515.43852 1.24894e-17
6516.91072 1.21501e-17
6518.38293 1.31494e-17
6519.84512 1.42746e-17
6521.31733 1.23107e-17
6522.78953 1.04212e-17
6524.26174 1.10954e-17
6525.73394 1.18668e-17
6527.19613 1.29280e-17
6528.66834 1.37036e-17
6530.14054 1.28133e-17
6531.61275 1.18123e-17
6533.07494 1.23902e-17
6534.54714 1.29822e-17
6536.01934 1.32916e-17
6537.49155 1.15153e-17
6538.96376 1.10926e-17
6540.42595 1.22001e-17
6541.89815 1.19890e-17
6543.37036 1.19651e-17
6544.84256 1.19412e-17
6546.30475 1.19173e-17
6547.77696 1.18934e-17
6549.24916 1.18695e-17
6550.72137 1.18456e-17
6552.19357 1.18217e-17
6553.65576 1.17978e-17
6555.12797 1.17739e-17
6556.60017 1.17500e-17
6558.07238 1.17262e-17
6559.53457 1.17023e-17
6561.00677 1.16784e-17
6562.47897 1.16545e-17
6563.95118 1.16306e-17
6565.41337 1.16067e-17
6566.88558 1.15828e-17
6568.35778 1.15590e-17
6569.82999 1.15351e-17
6571.30219 1.15112e-17
6572.76438 1.14873e-17
6574.23659 1.14634e-17
6575.70879 1.14396e-17
6577.18100 1.14157e-17
6578.64318 1.13918e-17
6580.11539 1.13679e-17
6581.58759 1.13441e-17
6583.05980 1.13202e-17
6584.53201 1.12963e-17
6585.99420 1.12725e-17
6587.46640 1.12486e-17
6588.93861 1.12247e-17
6590.41081 1.12008e-17
6591.87300 1.11770e-17
6593.34521 1.11531e-17
6594.81741 1.11292e-17
6596.28962 1.11054e-17
6597.76182 1.10815e-17
6599.22401 1.10577e-17
6600.69622 1.10338e-17
6602.16842 1.10099e-17
6603.64062 1.09861e-17
6605.10282 1.22025e-17
6606.57502 1.23361e-17
6608.04723 1.15142e-17
6609.51943 1.10303e-17
6610.98162 1.13847e-17
6612.45383 1.13522e-17
6613.92603 1.27196e-17
6615.39824 1.21075e-17
6616.87044 1.02854e-17
6618.33263 1.00322e-17
6619.80484 1.13474e-17
6621.27704 1.09857e-17
6622.74924 1.11844e-17
6624.21144 1.01748e-17
6625.68364 1.02272e-17
6627.15585 1.14535e-17
6628.62805 1.13148e-17
6630.10026 1.14303e-17
6631.56245 1.23699e-17
6633.03465 1.13717e-17
6634.50685 1.09402e-17
6635.97906 1.06733e-17
6637.44125 1.10223e-17
6638.91346 1.01817e-17
6640.38566 1.17267e-17
6641.85786 1.12998e-17
6643.33007 1.11428e-17
6644.79226 1.19661e-17
6646.26447 1.21539e-17
6647.73667 1.03275e-17
6649.20888 1.02480e-17
6650.67107 1.16462e-17
6652.14327 1.15966e-17
6653.61547 1.19778e-17
6655.08768 1.23656e-17
6656.54987 1.24276e-17
6658.02208 1.16119e-17
6659.49428 1.07982e-17
6660.96648 1.07648e-17
6662.43869 9.84945e-18
6663.90088 9.38733e-18
6665.37309 1.08341e-17
6666.84529 1.07922e-17
6668.31750 1.12095e-17
6669.77969 1.06177e-17
6671.25189 9.70649e-18
6672.72409 1.06065e-17
6674.19630 1.08173e-17
6675.66851 9.99075e-18
6677.13070 1.03343e-17
6678.60290 1.01165e-17
6680.07510 9.35408e-18
6681.54731 1.01919e-17
6683.00950 9.89199e-18
6684.48171 1.01437e-17
6685.95391 1.07104e-17
6687.42612 1.02880e-17
6688.89832 1.04328e-17
6690.36051 1.05881e-17
6691.83272 1.01492e-17
6693.30492 9.35664e-18
6694.77713 9.97414e-18
6696.23932 9.77861e-18
6697.71152 1.01508e-17
6699.18372 1.09306e-17
6700.65593 1.06000e-17
6702.11812 9.71715e-18
6703.59033 9.95647e-18
6705.06253 9.64588e-18
6706.53474 9.72212e-18
6708.00694 1.01719e-17
6709.46913 1.04661e-17
6710.94134 8.92449e-18
6712.41354 8.65965e-18
6713.88575 9.92867e-18
6715.34794 1.03067e-17
6716.82014 8.99257e-18
6718.29234 8.89120e-18
6719.76455 9.72230e-18
6721.23676 9.60730e-18
6722.69895 8.79732e-18
6724.17115 9.72501e-18
6725.64336 1.02303e-17
6727.11556 9.19281e-18
6728.57775 8.24588e-18
6730.04996 8.58161e-18
6731.52216 8.58926e-18
6732.99437 9.39385e-18
6734.46657 1.00511e-17
6735.92876 8.97068e-18
6737.40097 9.01328e-18
6738.87317 9.64147e-18
6740.34538 9.61006e-18
6741.80757 9.69036e-18
6743.27977 9.85215e-18
6744.75198 9.68343e-18
6746.22418 9.46414e-18
6747.68637 9.58253e-18
6749.15858 9.38931e-18
6750.63078 9.85155e-18
6752.10299 1.02856e-17
6753.57519 9.27117e-18
6755.03738 8.31152e-18
6756.50959 8.11580e-18
6757.98179 8.82678e-18
6759.45400 9.27511e-18
6760.91619 8.60768e-18
6762.38839 9.12948e-18
6763.86060 9.43773e-18
6765.33280 9.46438e-18
6766.80501 9.44127e-18
6768.26720 8.36453e-18
6769.73940 8.02420e-18
6771.21161 8.67185e-18
6772.68381 9.28521e-18
6774.14600 1.02134e-17
6775.61821 9.61808e-18
6777.09041 8.86069e-18
6778.56261 9.11522e-18
6780.02481 8.80050e-18
6781.49701 9.67503e-18
6782.96922 1.08191e-17
6784.44142 9.97971e-18
6785.91363 8.91037e-18
6787.37582 9.16252e-18
6788.84802 9.31376e-18
6790.32023 9.72797e-18
6791.79243 9.91275e-18
6793.25462 9.92827e-18
6794.72683 9.44749e-18
6796.19903 9.13620e-18
6797.67123 9.16790e-18
6799.14344 8.34422e-18
6800.60563 8.69958e-18
6802.07784 9.26659e-18
6803.55004 9.36970e-18
6805.02225 8.82978e-18
6806.48444 8.33285e-18
6807.95664 8.37577e-18
6809.42885 8.46235e-18
6810.90105 8.82544e-18
6812.37326 9.28772e-18
6813.83545 9.26439e-18
6815.30765 8.65063e-18
6816.77985 8.43585e-18
6818.25206 8.75053e-18
6819.71425 8.08486e-18
6821.18646 7.53650e-18
6822.65866 8.37744e-18
6824.13087 8.19627e-18
6825.60307 8.03837e-18
6827.06526 8.23388e-18
6828.53747 7.84184e-18
6830.00967 8.23527e-18
6831.48188 8.56241e-18
6832.94407 8.97414e-18
6834.41627 8.54269e-18
6835.88847 8.96327e-18
6837.36068 9.43255e-18
6838.82287 8.33455e-18
6840.29508 9.01477e-18
6841.76728 8.02732e-18
6843.23949 7.75495e-18
6844.71169 8.41804e-18
6846.17388 8.60340e-18
6847.64609 8.48700e-18
6849.11829 8.44974e-18
6850.59050 8.34075e-18
6852.05269 7.10614e-18
6853.52489 6.85516e-18
6854.99709 8.42141e-18
6856.46930 8.47063e-18
6857.94151 6.91927e-18
6859.40370 7.33134e-18
6860.87590 8.63514e-18
6862.34811 9.26482e-18
6863.82031 9.91540e-18
6865.28250 9.77895e-18
6866.75471 8.74444e-18
6868.22691 8.09667e-18
6869.69912 7.94525e-18
6871.16131 8.20679e-18
6872.63351 8.05237e-18
6874.10572 8.27705e-18
6875.57792 9.68343e-18
6877.05013 1.08726e-17
6878.51232 1.13025e-17
6879.98452 1.01705e-17
6881.45673 9.26467e-18
6882.92893 8.47482e-18
6884.39112 8.03377e-18
6885.86333 9.27719e-18
6887.33553 9.54335e-18
6888.80774 9.06787e-18
6890.27994 8.34521e-18
6891.74213 6.52454e-18
6893.21434 7.22129e-18
6894.68654 9.04079e-18
6896.15875 7.87575e-18
6897.62093 7.23068e-18
6899.09314 8.11678e-18
6900.56534 8.24351e-18
6902.03755 8.01795e-18
6903.49974 7.74623e-18
6904.97195 8.30917e-18
6906.44415 8.29729e-18
6907.91636 7.60957e-18
6909.38856 8.24714e-18
6910.85075 8.39477e-18
6912.32296 9.85586e-18
6913.79516 9.66448e-18
6915.26737 7.85521e-18
6916.72955 7.98848e-18
6918.20176 9.38332e-18
6919.67397 9.47524e-18
6921.14617 7.99828e-18
6922.61838 8.71290e-18
6924.08057 9.34246e-18
6925.55277 9.25503e-18
6927.02498 9.02352e-18
6928.49718 9.15513e-18
6929.95937 9.06881e-18
6931.43158 9.20477e-18
6932.90378 9.89603e-18
6934.37599 9.28348e-18
6935.84819 8.29451e-18
6937.31038 8.17647e-18
6938.78259 8.42073e-18
6940.25479 8.85112e-18
6941.72699 9.41743e-18
6943.18919 8.66893e-18
6944.66139 8.40704e-18
6946.13360 9.07577e-18
6947.60580 8.94614e-18
6949.07801 8.72504e-18
6950.54020 8.46202e-18
6952.01240 8.14050e-18
6953.48461 8.58961e-18
6954.95681 8.95657e-18
6956.41900 8.84026e-18
6957.89121 9.22978e-18
6959.36341 9.35265e-18
6960.83561 8.34327e-18
6962.29781 7.66015e-18
6963.77001 9.08172e-18
6965.24222 9.48616e-18
6966.71442 8.76675e-18
6968.18663 9.67770e-18
6969.64882 9.83713e-18
6971.12102 8.70571e-18
6972.59322 8.67245e-18
6974.06543 8.07930e-18
6975.52762 7.44227e-18
6976.99983 8.98100e-18
6978.47203 1.03851e-17
6979.94423 9.75565e-18
6981.41644 9.01129e-18
6982.87863 9.44535e-18
6984.35084 9.85330e-18
6985.82304 1.00218e-17
6987.29525 9.77138e-18
6988.75744 9.33309e-18
6990.22964 9.46914e-18
6991.70184 9.51501e-18
6993.17405 9.02419e-18
6994.63624 9.13414e-18
6996.10845 1.03091e-17
6997.58065 1.03494e-17
6999.05285 9.79260e-18
7000.52506 9.84186e-18
7001.98725 9.32248e-18
7003.45946 9.01303e-18
7004.93166 9.32190e-18
7006.40387 9.59764e-18
7007.86606 9.39232e-18
7009.33826 9.92777e-18
7010.81047 1.00127e-17
7012.28267 9.06641e-18
7013.75488 9.53349e-18
7015.21707 9.83007e-18
7016.68927 9.61181e-18
7018.16147 9.32116e-18
7019.63368 9.06446e-18
7021.09587 9.18387e-18
7022.56808 8.75183e-18
7024.04028 8.81542e-18
7025.51249 9.45686e-18
7026.97468 8.92342e-18
7028.44688 8.91184e-18
7029.91909 9.97450e-18
7031.39129 9.62347e-18
7032.86350 9.34628e-18
7034.32569 9.71775e-18
7035.79789 9.08253e-18
7037.27009 8.11169e-18
7038.74230 8.70504e-18
7040.21451 9.97461e-18
7041.67670 1.04536e-17
7043.14890 1.05162e-17
7044.62111 1.03641e-17
7046.09331 9.46938e-18
7047.55550 8.79068e-18
7049.02771 8.53286e-18
7050.49991 8.47228e-18
7051.97212 9.73134e-18
7053.43431 1.07723e-17
7054.90651 1.01123e-17
7056.37872 9.61161e-18
7057.85092 1.02469e-17
7059.32313 1.04495e-17
7060.78532 1.12084e-17
7062.25752 1.06363e-17
7063.72973 9.65617e-18
7065.20193 8.73474e-18
7066.66412 8.35814e-18
7068.13633 8.36842e-18
7069.60853 8.37870e-18
7071.08074 8.38899e-18
7072.55294 8.39927e-18
7074.01513 8.40955e-18
7075.48734 8.41984e-18
7076.95954 8.43012e-18
7078.43175 8.44040e-18
7079.89394 8.45068e-18
7081.36614 8.46096e-18
7082.83835 8.46079e-18
7084.31055 9.18818e-18
7085.77274 1.00591e-17
7087.24495 9.64482e-18
7088.71715 8.81275e-18
7090.18936 8.02591e-18
7091.66156 9.11022e-18
7093.12375 9.12924e-18
7094.59596 8.51512e-18
7096.06816 8.87915e-18
7097.54036 7.73645e-18
7099.00256 8.78400e-18
7100.47476 9.77132e-18
7101.94697 9.63807e-18
7103.41917 9.49867e-18
7104.89138 1.02277e-17
7106.35357 9.29058e-18
7107.82577 9.90203e-18
7109.29798 9.93910e-18
7110.77018 8.62320e-18
7112.23237 9.65435e-18
7113.70458 9.99507e-18
7115.17678 8.95762e-18
7116.64898 8.86966e-18
7118.11118 1.00047e-17
7119.58338 1.05948e-17
7121.05559 1.07521e-17
7122.52779 9.94008e-18
7124.00000 9.64189e-18
7125.46219 1.05078e-17
7126.93439 9.57681e-18
7128.40660 9.82398e-18
7129.87880 9.98509e-18
7131.34099 1.05364e-17
7132.81320 1.02140e-17
7134.28540 9.98053e-18
7135.75760 9.76399e-18
7137.22981 9.07329e-18
7138.69200 9.17473e-18
7140.16421 9.56916e-18
7141.63641 1.02997e-17
7143.10862 9.82388e-18
7144.57081 9.46946e-18
7146.04301 1.03009e-17
7147.51522 9.41453e-18
7148.98742 9.34110e-18
7150.45963 9.82366e-18
7151.92182 9.28228e-18
7153.39402 1.06103e-17
7154.86622 1.08863e-17
7156.33843 1.00672e-17
7157.80062 1.02459e-17
7159.27283 9.72534e-18
7160.74503 9.69176e-18
7162.21724 1.00054e-17
7163.68944 9.93791e-18
7165.15163 1.10181e-17
7166.62384 1.13624e-17
7168.09604 1.11263e-17
7169.56825 1.02709e-17
7171.03044 1.00164e-17
7172.50264 1.08091e-17
7173.97484 9.96774e-18
7175.44705 1.01780e-17
7176.90924 1.07717e-17
7178.38145 1.12668e-17
7179.85365 1.18619e-17
7181.32586 1.24918e-17
7182.79806 1.19943e-17
7184.26025 1.09298e-17
7185.73246 1.01428e-17
7187.20466 1.04319e-17
7188.67687 9.73410e-18
7190.13906 1.01759e-17
7191.61126 1.06749e-17
7193.08347 1.02841e-17
7194.55567 9.96594e-18
7196.02788 1.03771e-17
7197.49007 1.08960e-17
7198.96227 1.29680e-17
7200.43448 1.25367e-17
7201.90668 1.19529e-17
7203.36887 1.01860e-17
7204.84108 1.02024e-17
7206.31328 1.18378e-17
7207.78549 1.16798e-17
7209.24768 1.21927e-17
7210.71988 1.27325e-17
7212.19209 1.18360e-17
7213.66429 1.22476e-17
7215.13650 1.25841e-17
7216.59868 1.28810e-17
7218.07089 1.19339e-17
7219.54309 1.22656e-17
7221.01530 1.27999e-17
7222.47749 1.24761e-17
7223.94970 1.28050e-17
7225.42190 1.40779e-17
7226.89411 1.36114e-17
7228.36631 1.27635e-17
7229.82850 1.37368e-17
7231.30071 1.22539e-17
7232.77291 1.06660e-17
7234.24512 1.24902e-17
7235.70730 1.31597e-17
7237.17951 1.34586e-17
7238.65172 1.23673e-17
7240.12392 1.28600e-17
7241.59613 1.29934e-17
7243.05832 1.28171e-17
7244.53052 1.21981e-17
7246.00273 1.26452e-17
7247.47493 1.35678e-17
7248.93712 1.34486e-17
7250.40933 1.42296e-17
7251.88153 1.30496e-17
7253.35374 1.21795e-17
7254.81592 1.22976e-17
7256.28813 1.29104e-17
7257.76034 1.28039e-17
7259.23254 1.34686e-17
7260.70475 1.44562e-17
7262.16694 1.33282e-17
7263.63914 1.19095e-17
7265.11135 1.22614e-17
7266.58355 1.19355e-17
7268.04574 1.23647e-17
7269.51795 1.17759e-17
7270.99015 1.21526e-17
7272.46236 1.32682e-17
7273.93456 1.27694e-17
7275.39675 1.15227e-17
7276.86896 1.18453e-17
7278.34116 1.21192e-17
7279.81336 1.16545e-17
7281.27556 1.33207e-17
7282.74776 1.37215e-17
7284.21997 1.17708e-17
7285.69217 1.17082e-17
7287.16438 1.23170e-17
7288.62657 1.24503e-17
7290.09877 1.22595e-17
7291.57097 1.20148e-17
7293.04318 1.12168e-17
7294.50537 1.22724e-17
7295.97758 1.33182e-17
7297.44978 1.21878e-17
7298.92198 1.21646e-17
7300.38418 1.22247e-17
7301.85638 1.12925e-17
7303.32859 1.12830e-17
7304.80079 1.29076e-17
7306.27300 1.33675e-17
7307.73519 1.21089e-17
7309.20739 1.13859e-17
7310.67959 1.07315e-17
7312.15180 1.09910e-17
7313.61399 1.23847e-17
7315.08620 1.24221e-17
7316.55840 1.18462e-17
7318.03060 1.17377e-17
7319.50281 1.18069e-17
7320.96500 1.09913e-17
7322.43721 1.05745e-17
7323.90941 1.10438e-17
7325.38162 1.13897e-17
7326.84381 1.08707e-17
7328.31601 1.07029e-17
7329.78822 1.25031e-17
7331.26042 1.17059e-17
7332.73263 1.03886e-17
7334.19482 1.04490e-17
7335.66702 1.03572e-17
7337.13922 1.13679e-17
7338.61143 1.34017e-17
7340.07362 1.19942e-17
7341.54583 9.72765e-18
7343.01803 1.06655e-17
7344.49024 1.07085e-17
7345.95243 1.10658e-17
7347.42463 1.16564e-17
7348.89684 1.17066e-17
7350.36904 1.14865e-17
7351.84125 9.98958e-18
7353.30344 1.00459e-17
7354.77564 1.10249e-17
7356.24784 1.08728e-17
7357.72005 9.53470e-18
7359.18224 1.11006e-17
7360.65445 1.14423e-17
7362.12665 1.04984e-17
7363.59886 1.05013e-17
7365.07106 1.00519e-17
7366.53325 1.00522e-17
7368.00546 1.16815e-17
7369.47766 1.10293e-17
7370.94987 1.05701e-17
7372.41206 1.23827e-17
7373.88426 1.12148e-17
7375.35647 1.13141e-17
7376.82867 1.24036e-17
7378.29086 1.11489e-17
7379.76307 1.14333e-17
7381.23527 1.21691e-17
7382.70748 1.19830e-17
7384.17968 1.11779e-17
7385.64187 1.02522e-17
7387.11408 1.00103e-17
7388.58628 9.71664e-18
7390.05849 1.05193e-17
7391.52068 1.01297e-17
7392.99288 1.13258e-17
7394.46509 1.12745e-17
7395.93729 1.12232e-17
7397.40950 1.11719e-17
7398.87169 1.11206e-17
7400.34389 1.10693e-17
7401.81610 1.10180e-17
7403.28830 1.09667e-17
7404.75049 1.09154e-17
7406.22270 1.08641e-17
7407.69490 1.08128e-17
7409.16711 1.07616e-17
7410.63931 1.07103e-17
7412.10150 1.06590e-17
7413.57371 1.06077e-17
7415.04591 1.05564e-17
7416.51811 1.05052e-17
7417.98031 1.04539e-17
7419.45251 1.04026e-17
7420.92472 1.03514e-17
7422.39692 1.03001e-17
7423.86913 1.02488e-17
7425.33132 1.01976e-17
7426.80352 1.01463e-17
7428.27573 1.00951e-17
7429.74793 1.00948e-17
7431.21012 9.88385e-18
7432.68233 9.52257e-18
7434.15453 1.09483e-17
7435.62673 1.04454e-17
7437.08893 1.01484e-17
7438.56113 1.04061e-17
7440.03334 9.87837e-18
7441.50554 9.93951e-18
7442.97775 1.02749e-17
7444.43994 9.39648e-18
7445.91214 9.58025e-18
7447.38435 8.72184e-18
7448.85655 9.46010e-18
7450.31874 1.07284e-17
7451.79095 1.01146e-17
7453.26315 9.56143e-18
7454.73535 1.01788e-17
7456.20756 9.57938e-18
7457.66975 9.48170e-18
7459.14196 9.18657e-18
7460.61416 9.18158e-18
7462.08637 9.36233e-18
7463.54856 7.60044e-18
7465.02076 7.95542e-18
7466.49297 8.41457e-18
7467.96517 8.51634e-18
7469.42736 8.92618e-18
7470.89957 8.46807e-18
7472.37177 8.35179e-18
7473.84397 8.67547e-18
7475.31618 8.71235e-18
7476.77837 8.84400e-18
7478.25058 9.96465e-18
7479.72278 8.94101e-18
7481.19499 9.26046e-18
7482.65718 9.42901e-18
7484.12938 8.56247e-18
7485.60159 8.58559e-18
7487.07379 9.32439e-18
7488.54600 8.92678e-18
7490.00819 8.43810e-18
7491.48039 6.91130e-18
7492.95259 7.45773e-18
7494.42480 8.90584e-18
7495.88699 8.80703e-18
7497.35920 8.36753e-18
7498.83140 8.67827e-18
7500.30361 9.15698e-18
7501.76580 8.83583e-18
7503.23800 9.52280e-18
7504.71021 8.38497e-18
7506.18241 8.39259e-18
7507.65462 9.36997e-18
7509.11681 9.28594e-18
7510.58901 7.54591e-18
7512.06122 7.88167e-18
7513.53342 9.07648e-18
7514.99561 8.80344e-18
7516.46782 9.61121e-18
7517.94002 9.26773e-18
7519.41223 7.61938e-18
7520.88443 6.54508e-18
7522.34662 8.49670e-18
7523.81883 8.90666e-18
7525.29103 9.86870e-18
7526.76324 8.89312e-18
7528.22543 9.06167e-18
7529.69763 8.33579e-18
7531.16984 7.29209e-18
7532.64204 7.00462e-18
7534.11425 7.76122e-18
7535.57643 6.28667e-18
7537.04864 8.88896e-18
7538.52085 8.83710e-18
7539.99305 8.18922e-18
7541.45524 8.57833e-18
7542.92745 8.30248e-18
7544.39965 8.08510e-18
7545.87186 7.20200e-18
7547.34406 7.22190e-18
7548.80625 7.64981e-18
7550.27846 7.02599e-18
7551.75066 7.60253e-18
7553.22287 7.63138e-18
7554.68505 6.72328e-18
7556.15726 7.79323e-18
7557.62947 8.31432e-18
7559.10167 9.00486e-18
7560.56386 8.24920e-18
7562.03607 9.02490e-18
7563.50827 8.47179e-18
7564.98048 8.10671e-18
7566.45268 8.64921e-18
7567.91487 6.98713e-18
7569.38708 8.01080e-18
7570.85928 8.25580e-18
7572.33149 8.15978e-18
7573.79367 6.53368e-18
7575.26588 7.27271e-18
7576.73809 7.06513e-18
7578.21029 6.81990e-18
7579.68250 7.15478e-18
7581.14469 7.83761e-18
7582.61689 7.59926e-18
7584.08910 7.83071e-18
7585.56130 8.55401e-18
7587.02349 9.06084e-18
7588.49570 8.26403e-18
7589.96790 8.66829e-18
7591.44011 8.50642e-18
7592.90229 9.03307e-18
7594.37450 7.37764e-18
7595.84671 7.32262e-18
7597.31891 9.48091e-18
7598.79111 1.04814e-17
7600.25331 5.76107e-18
7601.72551 5.19845e-18
7603.19772 4.84257e-18
7604.66992 4.16805e-18
7606.13211 6.92963e-18
7607.60432 8.40866e-18
7609.07652 6.37948e-18
7610.54872 6.61194e-18
7612.02093 8.78378e-18
7613.48312 6.71170e-18
7614.95533 7.75659e-18
7616.42753 7.49517e-18
7617.89973 6.89335e-18
7619.36193 8.84133e-18
7620.83413 8.84526e-18
7622.30634 7.47432e-18
7623.77854 7.46975e-18
7625.24073 6.88284e-18
7626.71294 6.00872e-18
7628.18514 7.70753e-18
7629.65734 8.21232e-18
7631.12955 7.59792e-18
7632.59174 7.86007e-18
7633.10426 7.86007e-18
7633.96572 7.98138e-18
7634.82718 8.10268e-18
7635.68864 8.21589e-18
7636.55010 8.32909e-18
7637.41157 8.41192e-18
7638.27303 8.49468e-18
7639.13449 8.53584e-18
7639.99595 8.57693e-18
7640.85741 8.61558e-18
7641.71888 8.65422e-18
7642.59035 8.72915e-18
7643.45182 8.80414e-18
7644.31328 8.93191e-18
7645.17474 9.05977e-18
7646.03620 9.24741e-18
7646.89766 9.43517e-18
7647.75913 9.63207e-18
7648.62059 9.82897e-18
7649.48205 9.97126e-18
7650.34351 1.01134e-17
7651.20497 1.01875e-17
7652.06644 1.02615e-17
7652.93792 1.02745e-17
7653.79938 1.02874e-17
7654.66084 1.02882e-17
7655.52230 1.02891e-17
7656.38376 1.03534e-17
7657.24523 1.04179e-17
7658.10669 1.05580e-17
7658.96815 1.06982e-17
7659.82961 1.08725e-17
7660.69107 1.10468e-17
7661.55254 1.12200e-17
7662.42401 1.13932e-17
7663.28548 1.15332e-17
7664.14694 1.16733e-17
7665.00840 1.17783e-17
7665.86986 1.18834e-17
7666.73132 1.20141e-17
7667.59279 1.21450e-17
7668.45425 1.23296e-17
7669.31571 1.25143e-17
7670.17717 1.26952e-17
7671.03863 1.28761e-17
7671.91011 1.30070e-17
7672.77158 1.31377e-17
7673.63304 1.32100e-17
7674.49450 1.32820e-17
7675.35596 1.32989e-17
7676.21742 1.33157e-17
7677.07889 1.33457e-17
7677.94035 1.33755e-17
7678.80181 1.34869e-17
7679.66327 1.35985e-17
7680.52473 1.37510e-17
7681.38620 1.39035e-17
7682.25767 1.40334e-17
7683.11914 1.41633e-17
7683.98060 1.42703e-17
7684.84206 1.43773e-17
7685.70352 1.44795e-17
7686.56498 1.45816e-17
7687.42645 1.46831e-17
7688.28791 1.47845e-17
7689.14937 1.48867e-17
7690.01083 1.49890e-17
7690.88231 1.50823e-17
7691.74377 1.51756e-17
7692.60524 1.52402e-17
7693.46670 1.53049e-17
7694.32816 1.53457e-17
7695.18962 1.53864e-17
7696.05108 1.54335e-17
7696.91255 1.54805e-17
7697.77401 1.55452e-17
7698.63547 1.56098e-17
7699.49693 1.56768e-17
7700.35839 1.57437e-17
7701.22987 1.58002e-17
7702.09133 1.58568e-17
7702.95280 1.58952e-17
7703.81426 1.59334e-17
7704.67572 1.59484e-17
7705.53718 1.59631e-17
7706.39864 1.59557e-17
7707.26011 1.59481e-17
7708.12157 1.59249e-17
7708.98303 1.59017e-17
7709.84449 1.58897e-17
7710.71597 1.58778e-17
7711.57743 1.59010e-17
7712.43890 1.59243e-17
7713.30036 1.59770e-17
7714.16182 1.60298e-17
7715.02328 1.60988e-17
7715.88474 1.61679e-17
7716.74620 1.62321e-17
7717.60767 1.62965e-17
7718.46913 1.63328e-17
7719.33059 1.63694e-17
7720.20207 1.63764e-17
7721.06353 1.63835e-17
7721.92499 1.63695e-17
7722.78646 1.63555e-17
7723.64792 1.63349e-17
7724.50938 1.63143e-17
7725.37084 1.63062e-17
7726.23230 1.62980e-17
7727.09377 1.63086e-17
7727.95523 1.63194e-17
7728.81669 1.63425e-17
7729.67815 1.63657e-17
7730.54963 1.63999e-17
7731.41109 1.64342e-17
7732.27255 1.64868e-17
7733.13402 1.65392e-17
7733.99548 1.66016e-17
7734.85694 1.66639e-17
7735.71840 1.67024e-17
7736.57986 1.67409e-17
7737.44133 1.67364e-17
7738.30279 1.67319e-17
7739.17427 1.66982e-17
7740.03573 1.66645e-17
7740.89719 1.66195e-17
7741.75865 1.65745e-17
7742.62012 1.65451e-17
7743.48158 1.65156e-17
7744.34304 1.65234e-17
7745.20450 1.65312e-17
7746.06596 1.65616e-17
7746.92743 1.65920e-17
7747.78889 1.66245e-17
7748.65035 1.66571e-17
7749.52183 1.66846e-17
7750.38329 1.67121e-17
7751.24475 1.67292e-17
7752.10621 1.67464e-17
7752.96768 1.67533e-17
7753.82914 1.67601e-17
7754.69060 1.67605e-17
7755.55206 1.67608e-17
7756.41352 1.67500e-17
7757.27499 1.67391e-17
7758.13645 1.67081e-17
7759.00793 1.66772e-17
7759.86939 1.66350e-17
7760.73085 1.65927e-17
7761.59231 1.65606e-17
7762.45378 1.65284e-17
7763.31524 1.65114e-17
7764.17670 1.64942e-17
7765.03816 1.64811e-17
7765.89962 1.64681e-17
7766.76109 1.64504e-17
7767.62255 1.64327e-17
7768.49403 1.64040e-17
7769.35549 1.63751e-17
7770.21695 1.63349e-17
7771.07841 1.62945e-17
7771.93988 1.62563e-17
7772.80134 1.62183e-17
7773.66280 1.61924e-17
7774.52426 1.61665e-17
7775.38572 1.61475e-17
7776.24719 1.61287e-17
7777.10865 1.61126e-17
7777.98013 1.60965e-17
7778.84159 1.60856e-17
7779.70305 1.60747e-17
7780.56451 1.60713e-17
7781.42597 1.60678e-17
7782.28744 1.60712e-17
7783.14890 1.60745e-17
7784.01036 1.60832e-17
7784.87182 1.60919e-17
7785.73328 1.61049e-17
7786.59475 1.61178e-17
7787.46623 1.61334e-17
7788.32769 1.61492e-17
7789.18915 1.61632e-17
7790.05061 1.61770e-17
7790.91207 1.61841e-17
7791.77354 1.61910e-17
7792.63500 1.61884e-17
7793.49646 1.61859e-17
7794.35792 1.61729e-17
7795.21938 1.61598e-17
7796.08085 1.61425e-17
7796.94231 1.61252e-17
7797.81379 1.61146e-17
7798.67525 1.61041e-17
7799.53671 1.61086e-17
7800.39817 1.61132e-17
7801.25963 1.61383e-17
7802.12110 1.61636e-17
7802.98256 1.62051e-17
7803.84402 1.62467e-17
7804.70548 1.62836e-17
7805.56694 1.63207e-17
7806.42841 1.63378e-17
7807.29989 1.63550e-17
7808.16135 1.63541e-17
7809.02281 1.63532e-17
7809.88427 1.63372e-17
7810.74573 1.63211e-17
7811.60720 1.62931e-17
7812.46866 1.62651e-17
7813.33012 1.62302e-17
7814.19158 1.61953e-17
7815.05304 1.61600e-17
7815.91450 1.61246e-17
7816.78598 1.60946e-17
7817.64745 1.60646e-17
7818.50891 1.60472e-17
7819.37037 1.60298e-17
7820.23183 1.60305e-17
7821.09329 1.60314e-17
7821.95476 1.60375e-17
7822.81622 1.60436e-17
7823.67768 1.60354e-17
7824.53914 1.60272e-17
7825.40060 1.60023e-17
7826.27208 1.59773e-17
7827.13355 1.59417e-17
7827.99501 1.59062e-17
7828.85647 1.58648e-17
7829.71793 1.58236e-17
7830.57939 1.57815e-17
7831.44085 1.57395e-17
7832.30232 1.57000e-17
7833.16378 1.56605e-17
7834.02524 1.56236e-17
7834.88670 1.55867e-17
7835.75818 1.55558e-17
7836.61964 1.55250e-17
7837.48111 1.55097e-17
7838.34257 1.54945e-17
7839.20403 1.54974e-17
7840.06549 1.55002e-17
7840.92695 1.55105e-17
7841.78842 1.55207e-17
7842.64988 1.55289e-17
7843.51134 1.55371e-17
7844.37280 1.55389e-17
7845.23426 1.55409e-17
7846.10574 1.55338e-17
7846.96720 1.55269e-17
7847.82867 1.55146e-17
7848.69013 1.55023e-17
7849.55159 1.54891e-17
7850.41305 1.54759e-17
7851.27452 1.54646e-17
7852.13598 1.54532e-17
7852.99744 1.54456e-17
7853.85890 1.54381e-17
7854.72036 1.54358e-17
7855.59184 1.54335e-17
7856.45330 1.54372e-17
7857.31477 1.54410e-17
7858.17623 1.54450e-17
7859.03769 1.54490e-17
7859.89915 1.54438e-17
7860.76061 1.54387e-17
7861.62208 1.54251e-17
7862.48354 1.54115e-17
7863.34500 1.53971e-17
7864.20646 1.53826e-17
7865.07794 1.53632e-17
7865.93940 1.53440e-17
7866.80087 1.53071e-17
7867.66233 1.52703e-17
7868.52379 1.52146e-17
7869.38525 1.51589e-17
7870.24671 1.50950e-17
7871.10818 1.50309e-17
7871.96964 1.49735e-17
7872.83110 1.49160e-17
7873.69256 1.48891e-17
7874.56404 1.48624e-17
7875.42550 1.48756e-17
7876.28696 1.48889e-17
7877.14843 1.49151e-17
7878.00989 1.49412e-17
7878.87135 1.49552e-17
7879.73281 1.49693e-17
7880.59427 1.49635e-17
7881.45574 1.49577e-17
7882.31720 1.49281e-17
7883.17866 1.48984e-17
7884.05014 1.48553e-17
7884.91160 1.48123e-17
7885.77306 1.47688e-17
7886.63453 1.47255e-17
7887.49599 1.46808e-17
7888.35745 1.46359e-17
7889.21891 1.45867e-17
7890.08037 1.45375e-17
7890.94184 1.44865e-17
7891.80330 1.44356e-17
7892.66476 1.43860e-17
7893.52622 1.43366e-17
7894.39770 1.43013e-17
7895.25916 1.42661e-17
7896.12062 1.42630e-17
7896.98209 1.42598e-17
7897.84355 1.42787e-17
7898.70501 1.42974e-17
7899.56647 1.43084e-17
7900.42793 1.43194e-17
7901.28940 1.43097e-17
7902.15086 1.42999e-17
7903.01232 1.42726e-17
7903.88380 1.42452e-17
7904.74526 1.42087e-17
7905.60672 1.41723e-17
7906.46819 1.41456e-17
7907.32965 1.41191e-17
7908.19111 1.41099e-17
7909.05257 1.41006e-17
7909.91403 1.40874e-17
7910.77550 1.40742e-17
7911.63696 1.40444e-17
7912.49842 1.40145e-17
7913.36990 1.39833e-17
7914.23136 1.39519e-17
7915.09282 1.39319e-17
7915.95428 1.39119e-17
7916.81575 1.39041e-17
7917.67721 1.38962e-17
7918.53867 1.38989e-17
7919.40013 1.39016e-17
7920.26159 1.38960e-17
7921.12306 1.38905e-17
7921.98452 1.38577e-17
7922.85600 1.38247e-17
7923.71746 1.37763e-17
7924.57892 1.37278e-17
7925.44038 1.36841e-17
7926.30185 1.36403e-17
7927.16331 1.36131e-17
7928.02477 1.35860e-17
7928.88623 1.35833e-17
7929.74769 1.35807e-17
7930.60916 1.35976e-17
7931.47062 1.36146e-17
7932.34210 1.36371e-17
7933.20356 1.36598e-17
7934.06502 1.36761e-17
7934.92648 1.36923e-17
7935.78794 1.36923e-17
7936.64941 1.36925e-17
7937.51087 1.36712e-17
7938.37233 1.36498e-17
7939.23379 1.36083e-17
7940.09525 1.35666e-17
7940.95672 1.35109e-17
7941.81818 1.34551e-17
7942.68966 1.33991e-17
7943.55112 1.33431e-17
7944.41258 1.32978e-17
7945.27404 1.32524e-17
7946.13551 1.32196e-17
7946.99697 1.31868e-17
7947.85843 1.31664e-17
7948.71989 1.31459e-17
7949.58135 1.31341e-17
7950.44282 1.31223e-17
7951.30428 1.31139e-17
7952.17576 1.31054e-17
7953.03722 1.30890e-17
7953.89868 1.30726e-17
7954.76014 1.30385e-17
7955.62160 1.30044e-17
7956.48307 1.29669e-17
7957.34453 1.29292e-17
7958.20599 1.29066e-17
7959.06745 1.28842e-17
7959.92891 1.28780e-17
7960.79038 1.28719e-17
7961.66186 1.28782e-17
7962.52332 1.28843e-17
7963.38478 1.28932e-17
7964.24624 1.29020e-17
7965.10770 1.28993e-17
7965.96917 1.28965e-17
7966.83063 1.28903e-17
7967.69209 1.28841e-17
7968.55355 1.28978e-17
7969.41501 1.29116e-17
7970.27648 1.29507e-17
7971.14795 1.29899e-17
7972.00942 1.30426e-17
7972.87088 1.30953e-17
7973.73234 1.31456e-17
7974.59380 1.31961e-17
7975.45526 1.32212e-17
7976.31673 1.32464e-17
7977.17819 1.32364e-17
7978.03965 1.32264e-17
7978.90111 1.32001e-17
7979.76257 1.31738e-17
7980.63405 1.31477e-17
7981.49552 1.31217e-17
7982.35698 1.30998e-17
7983.21844 1.30778e-17
7984.07990 1.30627e-17
7984.94136 1.30476e-17
7985.80283 1.30338e-17
7986.66429 1.30200e-17
7987.52575 1.30017e-17
7988.38721 1.29833e-17
7989.24867 1.29628e-17
7990.11014 1.29423e-17
7990.98161 1.29226e-17
7991.84308 1.29030e-17
7992.70454 1.28903e-17
7993.56600 1.28777e-17
7994.42746 1.28788e-17
7995.28892 1.28801e-17
7996.15039 1.28814e-17
7997.01185 1.28827e-17
7997.87331 1.28622e-17
7998.73477 1.28416e-17
7999.59623 1.28020e-17
8000.46771 1.27624e-17
8001.32917 1.27202e-17
8002.19064 1.26780e-17
8003.05210 1.26457e-17
8003.91356 1.26135e-17
8004.77502 1.26019e-17
8005.63649 1.25903e-17
8006.49795 1.25966e-17
8007.35941 1.26029e-17
8008.22087 1.26052e-17
8009.08233 1.26076e-17
8009.95381 1.25988e-17
8010.81527 1.25901e-17
8011.67674 1.25911e-17
8012.53820 1.25922e-17
8013.39966 1.26133e-17
8014.26112 1.26343e-17
8015.12258 1.26607e-17
8015.98405 1.26870e-17
8016.84551 1.27045e-17
8017.70697 1.27221e-17
8018.56843 1.27166e-17
8019.43991 1.27111e-17
8020.30137 1.26740e-17
8021.16284 1.26368e-17
8022.02430 1.25914e-17
8022.88576 1.25461e-17
8023.74722 1.25186e-17
8024.60868 1.24912e-17
8025.47015 1.24808e-17
8026.33161 1.24704e-17
8027.19307 1.24702e-17
8028.05453 1.24700e-17
8028.92601 1.24714e-17
8029.78747 1.24727e-17
8030.64893 1.24657e-17
8031.51040 1.24587e-17
8032.37186 1.24444e-17
8033.23332 1.24300e-17
8034.09478 1.24153e-17
8034.95624 1.24005e-17
8035.81771 1.23898e-17
8036.67917 1.23791e-17
8037.54063 1.23750e-17
8038.41211 1.23710e-17
8039.27357 1.23747e-17
8040.13503 1.23783e-17
8040.99650 1.23885e-17
8041.85796 1.23986e-17
8042.71942 1.24119e-17
8043.58088 1.24252e-17
8044.44234 1.24356e-17
8045.30380 1.24460e-17
8046.16527 1.24491e-17
8047.02673 1.24522e-17
8047.88819 1.24458e-17
8048.75967 1.24395e-17
8049.62113 1.24248e-17
8050.48259 1.24101e-17
8051.34406 1.23980e-17
8052.20552 1.23858e-17
8053.06698 1.23843e-17
8053.92844 1.23828e-17
8054.78990 1.23857e-17
8055.65137 1.23887e-17
8056.51283 1.23883e-17
8057.37429 1.23880e-17
8058.24577 1.23751e-17
8059.10723 1.23622e-17
8059.96869 1.23290e-17
8060.83015 1.22957e-17
8061.69162 1.22485e-17
8062.55308 1.22012e-17
8063.41454 1.21509e-17
8064.27600 1.21006e-17
8065.13746 1.20595e-17
8065.99893 1.20185e-17
8066.86039 1.19988e-17
8067.73187 1.19792e-17
8068.59333 1.19816e-17
8069.45479 1.19840e-17
8070.31625 1.20020e-17
8071.17772 1.20201e-17
8072.03918 1.20408e-17
8072.90064 1.20614e-17
8073.76210 1.20664e-17
8074.62356 1.20713e-17
8075.48503 1.20537e-17
8076.34649 1.20360e-17
8077.21797 1.20047e-17
8078.07943 1.19733e-17
8078.94089 1.19337e-17
8079.80235 1.18941e-17
8080.66381 1.18452e-17
8081.52528 1.17963e-17
8082.38674 1.17389e-17
8083.24820 1.16814e-17
8084.10966 1.16179e-17
8084.97113 1.15544e-17
8085.83259 1.14876e-17
8086.70407 1.14208e-17
8087.56553 1.13550e-17
8088.42699 1.12892e-17
8089.28845 1.12284e-17
8090.14991 1.11676e-17
8091.01138 1.11153e-17
8091.87284 1.10630e-17
8092.73430 1.10212e-17
8093.59576 1.09794e-17
8094.45722 1.09472e-17
8095.31869 1.09151e-17
8096.18015 1.08900e-17
8097.05163 1.08649e-17
8097.91309 1.08329e-17
8098.77455 1.08009e-17
8099.63601 1.07454e-17
8100.49748 1.06898e-17
8101.35894 1.06056e-17
8102.22040 1.05214e-17
8103.08186 1.04095e-17
8103.94332 1.02976e-17
8104.80479 1.01717e-17
8105.67626 1.00457e-17
8106.53773 9.92760e-18
8107.39919 9.80954e-18
8108.26065 9.71303e-18
8109.12211 9.61656e-18
8109.98357 9.54627e-18
8110.84504 9.47603e-18
8111.70650 9.42579e-18
8112.56796 9.37558e-18
8113.42942 9.32386e-18
8114.29088 9.27213e-18
8115.15235 9.20152e-18
8116.02383 9.13088e-18
8116.88529 9.03398e-18
8117.74675 8.93703e-18
8118.60821 8.81247e-18
8119.46967 8.68784e-18
8120.33114 8.55356e-18
8121.19260 8.41927e-18
8122.05406 8.28966e-18
8122.91552 8.16007e-18
8123.77698 8.01910e-18
8124.63845 7.87810e-18
8125.49991 7.71090e-18
8126.37139 7.54363e-18
8127.23285 7.35816e-18
8128.09431 7.17266e-18
8128.95577 6.98064e-18
8129.81723 6.78863e-18
8130.67870 6.61256e-18
8131.54016 6.43652e-18
8132.40162 6.30056e-18
8133.26308 6.16472e-18
8134.12454 6.05589e-18
8134.99602 5.94714e-18
8135.85749 5.83636e-18
8136.71895 5.72558e-18
8137.58041 5.60182e-18
8138.44187 5.47804e-18
8139.30333 5.34089e-18
8140.16480 5.20370e-18
8141.02626 5.05665e-18
8141.88772 4.90958e-18
8142.74918 4.76083e-18
8143.61064 4.61207e-18
8144.47210 4.46972e-18
8145.34358 4.32739e-18
8146.20505 4.19792e-18
8147.06651 4.06850e-18
8147.92797 3.95648e-18
8148.78943 3.84452e-18
8149.65089 3.75139e-18
8150.51236 3.65833e-18
8151.37382 3.58178e-18
8152.23528 3.50528e-18
8153.09674 3.43523e-18
8153.95820 3.36521e-18
8154.82968 3.29350e-18
8155.69115 3.22179e-18
8156.55261 3.14919e-18
8157.41407 3.07659e-18
8158.27553 3.00558e-18
8159.13699 2.93458e-18
8159.99845 2.87121e-18
8160.85992 2.80785e-18
8161.72138 2.75805e-18
8162.58284 2.70828e-18
8163.44430 2.67384e-18
8164.31578 2.63944e-18
8165.17724 2.62007e-18
8166.03871 2.60071e-18
8166.90017 2.58717e-18
8167.76163 2.57364e-18
8168.62309 2.55472e-18
8169.48455 2.53580e-18
8170.34602 2.50219e-18
8171.20748 2.46855e-18
8172.06894 2.41138e-18
8172.93040 2.35414e-18
8173.80188 2.28852e-18
8174.66334 2.22288e-18
8175.52481 2.18142e-18
8176.38627 2.14002e-18
8177.24773 2.12999e-18
8178.10919 2.12003e-18
8178.97065 2.12252e-18
8179.83212 2.12503e-18
8180.69358 2.12563e-18
8181.55504 2.12623e-18
8182.41650 2.11589e-18
8183.28798 2.10554e-18
8184.14944 2.08096e-18
8185.01090 2.05635e-18
8185.87237 2.02973e-18
8186.73383 2.00310e-18
8187.59529 1.98317e-18
8188.45675 1.96325e-18
8189.31821 1.94327e-18
8190.17968 1.92327e-18
8191.04114 1.89853e-18
8191.90260 1.87376e-18
8192.77408 1.84998e-18
8193.63554 1.82621e-18
8194.49700 1.80924e-18
8195.35846 1.79229e-18
8196.21993 1.78733e-18
8197.08139 1.78239e-18
8197.94285 1.79338e-18
8198.80431 1.80438e-18
8199.66577 1.82189e-18
8200.52724 1.83941e-18
8201.38870 1.85028e-18
8202.25016 1.86113e-18
8203.12164 1.86280e-18
8203.98310 1.86445e-18
8204.84456 1.85906e-18
8205.70603 1.85365e-18
8206.56749 1.84228e-18
8207.42895 1.83089e-18
8208.29041 1.81446e-18
8209.15187 1.79802e-18
8210.01334 1.77919e-18
8210.87480 1.76036e-18
8211.73626 1.74261e-18
8212.60774 1.72488e-18
8213.46920 1.70968e-18
8214.33066 1.69449e-18
8215.19212 1.68159e-18
8216.05359 1.66869e-18
8216.91505 1.65399e-18
8217.77651 1.63930e-18
8218.63797 1.61145e-18
8219.49943 1.58356e-18
8220.36090 1.53821e-18
8221.22236 1.49281e-18
8222.08382 1.44158e-18
8222.95530 1.39033e-18
8223.81676 1.34618e-18
8224.67822 1.30204e-18
8225.53969 1.28123e-18
8226.40115 1.26048e-18
8227.26261 1.27474e-18
8228.12407 1.28909e-18
8228.98553 1.32749e-18
8229.84700 1.36595e-18
8230.70846 1.41332e-18
8231.57994 1.46071e-18
8232.44140 1.50228e-18
8233.30286 1.54386e-18
8234.16432 1.56594e-18
8235.02578 1.58798e-18
8235.88725 1.59512e-18
8236.74871 1.60221e-18
8237.61017 1.60582e-18
8238.47163 1.60944e-18
8239.33309 1.61750e-18
8240.19456 1.62557e-18
8241.06604 1.64472e-18
8241.92750 1.66389e-18
8242.78896 1.69024e-18
8243.65042 1.71660e-18
8244.51188 1.73818e-18
8245.37335 1.75976e-18
8246.23481 1.77071e-18
8247.09627 1.78162e-18
8247.95773 1.78259e-18
8248.81919 1.78352e-18
8249.68066 1.77690e-18
8250.54212 1.77026e-18
8251.41360 1.76136e-18
8252.27506 1.75246e-18
8253.13652 1.74625e-18
8253.99798 1.74006e-18
8254.85945 1.73956e-18
8255.72091 1.73909e-18
8256.58237 1.74600e-18
8257.44383 1.75293e-18
8258.30529 1.76607e-18
8259.16676 1.77922e-18
8260.02822 1.79605e-18
8260.89970 1.81291e-18
8261.76116 1.82879e-18
8262.62262 1.84468e-18
8263.48408 1.85502e-18
8264.34554 1.86535e-18
8265.20701 1.86603e-18
8266.06847 1.86668e-18
8266.92993 1.85498e-18
8267.79139 1.84325e-18
8268.65285 1.82540e-18
8269.52433 1.80752e-18
8270.38580 1.79216e-18
8271.24726 1.77681e-18
8272.10872 1.76973e-18
8272.97018 1.76268e-18
8273.83164 1.76840e-18
8274.69311 1.77414e-18
8275.55457 1.78816e-18
8276.41603 1.80218e-18
8277.27749 1.81438e-18
8278.13895 1.82657e-18
8279.01043 1.83282e-18
8279.87189 1.83906e-18
8280.73336 1.84035e-18
8281.59482 1.84161e-18
8282.45628 1.84099e-18
8283.31774 1.84035e-18
8284.17920 1.84419e-18
8285.04067 1.84805e-18
8285.90213 1.85880e-18
8286.76359 1.86956e-18
8287.62505 1.88144e-18
8288.48651 1.89332e-18
8289.34798 1.90326e-18
8290.21946 1.91318e-18
8291.08092 1.92577e-18
8291.94238 1.93837e-18
8292.80384 1.95627e-18
8293.66530 1.97418e-18
8294.52677 1.99272e-18
8295.38823 2.01125e-18
8296.24969 2.02609e-18
8297.11115 2.04093e-18
8297.97261 2.04929e-18
8298.83408 2.05763e-18
8299.70555 2.05785e-18
8300.56702 2.05804e-18
8301.42848 2.05995e-18
8302.28994 2.06186e-18
8303.15140 2.07710e-18
8304.01286 2.09236e-18
8304.87433 2.11646e-18
8305.73579 2.14055e-18
8306.59725 2.16380e-18
8307.45871 2.18704e-18
8308.32017 2.20357e-18
8309.18164 2.22008e-18
8310.05312 2.22559e-18
8310.91458 2.23108e-18
8311.77604 2.23015e-18
8312.63750 2.22921e-18
8313.49896 2.23296e-18
8314.36043 2.23672e-18
8315.22189 2.25139e-18
8316.08335 2.26610e-18
8316.94481 2.29295e-18
8317.80627 2.31984e-18
8318.67775 2.35569e-18
8319.53921 2.39158e-18
8320.40068 2.42646e-18
8321.26214 2.46135e-18
8322.12360 2.48812e-18
8322.98506 2.51486e-18
8323.84652 2.53342e-18
8324.70799 2.55196e-18
8325.56945 2.56324e-18
8326.43091 2.57452e-18
8327.29237 2.58130e-18
8328.16385 2.58808e-18
8329.02531 2.59383e-18
8329.88678 2.59957e-18
8330.74824 2.60626e-18
8331.60970 2.61297e-18
8332.47116 2.62257e-18
8333.33262 2.63218e-18
8334.19408 2.64950e-18
8335.05555 2.66686e-18
8335.91701 2.69592e-18
8336.77847 2.72501e-18
8337.64995 2.76269e-18
8338.51141 2.80037e-18
8339.37287 2.84127e-18
8340.23434 2.88219e-18
8341.09580 2.91896e-18
8341.95726 2.95572e-18
8342.81872 2.98036e-18
8343.68018 3.00498e-18
8344.54165 3.01768e-18
8345.40311 3.03034e-18
8346.26457 3.03669e-18
8347.12603 3.04300e-18
8347.99751 3.04754e-18
8348.85897 3.05209e-18
8349.72043 3.05823e-18
8350.58190 3.06437e-18
8351.44336 3.07607e-18
8352.30482 3.08778e-18
8353.16628 3.10921e-18
8354.02775 3.13066e-18
8354.88921 3.16232e-18
8355.75067 3.19400e-18
8356.62215 3.23070e-18
8357.48361 3.26743e-18
8358.34507 3.30403e-18
8359.20653 3.34063e-18
8360.06800 3.37264e-18
8360.92946 3.40463e-18
8361.79092 3.42934e-18
8362.65238 3.45404e-18
8363.51384 3.47612e-18
8364.37531 3.49818e-18
8365.23677 3.52220e-18
8366.10825 3.54623e-18
8366.96971 3.56920e-18
8367.83117 3.59216e-18
8368.69263 3.61092e-18
8369.55410 3.62968e-18
8370.41556 3.64729e-18
8371.27702 3.66491e-18
8372.13848 3.68560e-18
8372.99994 3.70628e-18
8373.86140 3.73232e-18
8374.72287 3.75839e-18
8375.59435 3.79128e-18
8376.45581 3.82419e-18
8377.31727 3.86361e-18
8378.17873 3.90304e-18
8379.04019 3.94747e-18
8379.90166 3.99191e-18
8380.76312 4.03893e-18
8381.62458 4.08595e-18
8382.48604 4.13269e-18
8383.34750 4.17943e-18
8384.20897 4.22353e-18
8385.07043 4.26760e-18
8385.94191 4.30687e-18
8386.80337 4.34614e-18
8387.66483 4.38188e-18
8388.52629 4.41762e-18
8389.38775 4.45678e-18
8390.24922 4.49596e-18
8391.11068 4.54050e-18
8391.97214 4.58503e-18
8392.83360 4.62597e-18
8393.69507 4.66692e-18
8394.55653 4.69786e-18
8395.41799 4.72878e-18
8396.28947 4.74954e-18
8397.15093 4.77028e-18
8398.01239 4.78345e-18
8398.87385 4.79660e-18
8399.73532 4.81675e-18
8400.59678 4.83691e-18
8401.45824 4.87730e-18
8402.31970 4.91775e-18
8403.18116 4.97411e-18
8404.04263 5.03050e-18
8404.90409 5.09470e-18
8405.77557 5.15891e-18
8406.63703 5.22196e-18
8407.49849 5.28500e-18
8408.35995 5.33761e-18
8409.22142 5.39019e-18
8410.08288 5.43240e-18
8410.94434 5.47459e-18
8411.80580 5.51114e-18
8412.66726 5.54768e-18
8413.52873 5.58184e-18
8414.39019 5.61600e-18
8415.26167 5.65042e-18
8416.12313 5.68486e-18
8416.98459 5.72235e-18
8417.84605 5.75986e-18
8418.70751 5.80276e-18
8419.56898 5.84565e-18
8420.43044 5.89483e-18
8421.29190 5.94401e-18
8422.15336 5.99926e-18
8423.01482 6.05453e-18
8423.87629 6.11292e-18
8424.74777 6.17133e-18
8425.60923 6.22480e-18
8426.47069 6.27826e-18
8427.33215 6.32352e-18
8428.19361 6.36876e-18
8429.05508 6.41492e-18
8429.91654 6.46108e-18
8430.77800 6.51558e-18
8431.63946 6.57010e-18
8432.50092 6.63374e-18
8433.36239 6.69740e-18
8434.23386 6.76900e-18
8435.09533 6.84060e-18
8435.95679 6.90825e-18
8436.81825 6.97590e-18
8437.67971 7.02791e-18
8438.54117 7.07989e-18
8439.40264 7.12309e-18
8440.26410 7.16626e-18
8441.12556 7.21178e-18
8441.98702 7.25729e-18
8442.84848 7.30840e-18
8443.70995 7.35953e-18
8444.58143 7.41700e-18
8445.44289 7.47448e-18
8446.30435 7.53891e-18
8447.16581 7.60336e-18
8448.02727 7.67458e-18
8448.88874 7.74579e-18
8449.75020 7.82159e-18
8450.61166 7.89738e-18
8451.47312 7.97451e-18
8452.33458 8.05164e-18
8453.20606 8.12643e-18
8454.06752 8.20119e-18
8454.92899 8.26914e-18
8455.79045 8.33706e-18
8456.65191 8.39914e-18
8457.51337 8.46121e-18
8458.37483 8.52705e-18
8459.23630 8.59291e-18
8460.09776 8.66659e-18
8460.95922 8.74029e-18
8461.82068 8.81353e-18
8462.69216 8.88677e-18
8463.55362 8.95371e-18
8464.41508 9.02064e-18
8465.27655 9.08172e-18
8466.13801 9.14279e-18
8466.99947 9.20047e-18
8467.86093 9.25814e-18
8468.72240 9.32466e-18
8469.58386 9.39120e-18
8470.44532 9.47740e-18
8471.30678 9.56364e-18
8472.16824 9.66280e-18
8473.03972 9.76201e-18
8473.90118 9.86442e-18
8474.76265 9.96682e-18
8475.62411 1.00651e-17
8476.48557 1.01633e-17
8477.34703 1.02504e-17
8478.20849 1.03374e-17
8479.06996 1.04216e-17
8479.93142 1.05057e-17
8480.79288 1.06024e-17
8481.65434 1.06991e-17
8482.51580 1.08048e-17
8483.38728 1.09105e-17
8484.24875 1.10109e-17
8485.11021 1.11114e-17
8485.97167 1.12003e-17
8486.83313 1.12891e-17
8487.69459 1.13663e-17
8488.55605 1.14434e-17
8489.41752 1.15128e-17
8490.27898 1.15823e-17
8491.14044 1.16544e-17
8492.00190 1.17264e-17
8492.87338 1.18078e-17
8493.73484 1.18892e-17
8494.59631 1.19780e-17
8495.45777 1.20669e-17
8496.31923 1.21642e-17
8497.18069 1.22615e-17
8498.04215 1.23782e-17
8498.90362 1.24948e-17
8499.76508 1.26349e-17
8500.62654 1.27750e-17
8501.48800 1.29198e-17
8502.35948 1.30646e-17
8503.22094 1.31959e-17
8504.08240 1.33271e-17
8504.94387 1.34410e-17
8505.80533 1.35548e-17
8506.66679 1.36507e-17
8507.52825 1.37464e-17
8508.38972 1.38309e-17
8509.25118 1.39153e-17
8510.11264 1.39975e-17
8510.98412 1.40798e-17
8511.84558 1.41632e-17
8512.70704 1.42466e-17
8513.56850 1.43331e-17
8514.42997 1.44195e-17
8515.29143 1.45087e-17
8516.15289 1.45979e-17
8517.01435 1.46887e-17
8517.87581 1.47796e-17
8518.73728 1.48721e-17
8519.59874 1.49645e-17
8520.46020 1.50590e-17
8521.33168 1.51533e-17
8522.19314 1.52538e-17
8523.05460 1.53541e-17
8523.91607 1.54683e-17
8524.77753 1.55826e-17
8525.63899 1.57132e-17
8526.50045 1.58438e-17
8527.36191 1.59861e-17
8528.22337 1.61282e-17
8529.08484 1.62745e-17
8529.94630 1.64209e-17
8530.80776 1.65592e-17
8531.67924 1.66975e-17
8532.54070 1.68178e-17
8533.40216 1.69380e-17
8534.26363 1.70365e-17
8535.12509 1.71351e-17
8535.98655 1.72129e-17
8536.84801 1.72908e-17
8537.70947 1.73630e-17
8538.57094 1.74351e-17
8539.43240 1.75175e-17
8540.30388 1.76000e-17
8541.16534 1.77033e-17
8542.02680 1.78066e-17
8542.88826 1.79371e-17
8543.74972 1.80677e-17
8544.61119 1.82167e-17
8545.47265 1.83658e-17
8546.33411 1.85197e-17
8547.19557 1.86735e-17
8548.05703 1.88085e-17
8548.91850 1.89435e-17
8549.78998 1.90336e-17
8550.65144 1.91237e-17
8551.51290 1.91712e-17
8552.37436 1.92186e-17
8553.23582 1.92433e-17
8554.09729 1.92679e-17
8554.95875 1.92962e-17
8555.82021 1.93246e-17
8556.68167 1.93882e-17
8557.54313 1.94519e-17
8558.40460 1.95650e-17
8559.27607 1.96782e-17
8560.13754 1.98321e-17
8560.99900 1.99860e-17
8561.86046 2.01639e-17
8562.72192 2.03418e-17
8563.58338 2.05161e-17
8564.44485 2.06905e-17
8565.30631 2.08361e-17
8566.16777 2.09815e-17
8567.02923 2.10816e-17
8567.89070 2.11816e-17
8568.75216 2.12282e-17
8569.62364 2.12749e-17
8570.48510 2.12813e-17
8571.34656 2.12877e-17
8572.20802 2.12730e-17
8573.06948 2.12581e-17
8573.93095 2.12431e-17
8574.79241 2.12281e-17
8575.65387 2.12331e-17
8576.51533 2.12382e-17
8577.37679 2.12845e-17
8578.23826 2.13309e-17
8579.09972 2.14344e-17
8579.97120 2.15381e-17
8580.83266 2.16788e-17
8581.69412 2.18197e-17
8582.55558 2.19641e-17
8583.41705 2.21085e-17
8584.27851 2.22296e-17
8585.13997 2.23509e-17
8586.00143 2.24268e-17
8586.86289 2.25026e-17
8587.72436 2.25302e-17
8588.58582 2.25577e-17
8589.45730 2.25493e-17
8590.31876 2.25406e-17
8591.18022 2.25149e-17
8592.04168 2.24893e-17
8592.90314 2.24721e-17
8593.76461 2.24549e-17
8594.62607 2.24606e-17
8595.48753 2.24661e-17
8596.34899 2.24888e-17
8597.21045 2.25113e-17
8598.07192 2.25475e-17
8598.94340 2.25837e-17
8599.80486 2.26371e-17
8600.66632 2.26905e-17
8601.52778 2.27594e-17
8602.38924 2.28284e-17
8603.25071 2.29019e-17
8604.11217 2.29756e-17
8604.97363 2.30418e-17
8605.83509 2.31080e-17
8606.69655 2.31506e-17
8607.56803 2.31931e-17
8608.42949 2.31990e-17
8609.29096 2.32048e-17
8610.15242 2.31776e-17
8611.01388 2.31502e-17
8611.87534 2.30992e-17
8612.73680 2.30480e-17
8613.59827 2.29837e-17
8614.45973 2.29193e-17
8615.32119 2.28526e-17
8616.18265 2.27860e-17
8617.04411 2.27379e-17
8617.91559 2.26899e-17
8618.77706 2.26832e-17
8619.63852 2.26765e-17
8620.49998 2.27125e-17
8621.36144 2.27485e-17
8622.22290 2.28148e-17
8623.08437 2.28813e-17
8623.94583 2.29603e-17
8624.80729 2.30393e-17
8625.66875 2.31087e-17
8626.53021 2.31780e-17
8627.40169 2.32243e-17
8628.26315 2.32704e-17
8629.12462 2.32932e-17
8629.98608 2.33160e-17
8630.84754 2.33149e-17
8631.70900 2.33137e-17
8632.57046 2.32855e-17
8633.43193 2.32572e-17
8634.29339 2.32058e-17
8635.15485 2.31544e-17
8636.01631 2.30960e-17
8636.88779 2.30374e-17
8637.74925 2.29887e-17
8638.61072 2.29401e-17
8639.47218 2.29207e-17
8640.33364 2.29013e-17
8641.19510 2.29245e-17
8642.05656 2.29477e-17
8642.91803 2.30022e-17
8643.77949 2.30569e-17
8644.64095 2.31257e-17
8645.50241 2.31945e-17
8646.37389 2.32598e-17
8647.23535 2.33250e-17
8648.09681 2.33688e-17
8648.95828 2.34125e-17
8649.81974 2.34283e-17
8650.68120 2.34440e-17
8651.54266 2.34320e-17
8652.40412 2.34198e-17
8653.26559 2.33780e-17
8654.12705 2.33363e-17
8654.98851 2.32635e-17
8655.85999 2.31907e-17
8656.72145 2.30996e-17
8657.58291 2.30084e-17
8658.44438 2.29209e-17
8659.30584 2.28334e-17
8660.16730 2.27644e-17
8661.02876 2.26956e-17
8661.89022 2.26519e-17
8662.75168 2.26085e-17
8663.61315 2.25936e-17
8664.47461 2.25789e-17
8665.33607 2.25918e-17
8666.20755 2.26048e-17
8667.06901 2.26394e-17
8667.93047 2.26741e-17
8668.79194 2.27196e-17
8669.65340 2.27652e-17
8670.51486 2.28070e-17
8671.37632 2.28488e-17
8672.23778 2.28617e-17
8673.09925 2.28745e-17
8673.96071 2.28399e-17
8674.82217 2.28052e-17
8675.68363 2.27287e-17
8676.55511 2.26520e-17
8677.41657 2.25459e-17
8678.27803 2.24396e-17
8679.13950 2.23246e-17
8680.00096 2.22095e-17
8680.86242 2.21084e-17
8681.72388 2.20074e-17
8682.58535 2.19294e-17
8683.44681 2.18515e-17
8684.30827 2.17997e-17
8685.16973 2.17479e-17
8686.04121 2.17255e-17
8686.90267 2.17032e-17
8687.76413 2.17105e-17
8688.62560 2.17179e-17
8689.48706 2.17493e-17
8690.34852 2.17807e-17
8691.20998 2.18269e-17
8692.07144 2.18731e-17
8692.93291 2.19185e-17
8693.79437 2.19637e-17
8694.66585 2.19882e-17
8695.52731 2.20127e-17
8696.38877 2.20042e-17
8697.25023 2.19956e-17
8698.11170 2.19521e-17
8698.97316 2.19084e-17
8699.83462 2.18344e-17
8700.69608 2.17605e-17
8701.55754 2.16722e-17
8702.41900 2.15839e-17
8703.28047 2.14948e-17
8704.15195 2.14056e-17
8705.01341 2.13160e-17
8705.87487 2.12266e-17
8706.73633 2.11403e-17
8707.59779 2.10542e-17
8708.45926 2.09894e-17
8709.32072 2.09246e-17
8710.18218 2.08953e-17
8711.04364 2.08659e-17
8711.90510 2.08726e-17
8712.76657 2.08795e-17
8713.62803 2.09172e-17
8714.49951 2.09549e-17
8715.36097 2.09960e-17
8716.22243 2.10372e-17
8717.08389 2.10505e-17
8717.94535 2.10638e-17
8718.80682 2.10367e-17
8719.66828 2.10092e-17
8720.52974 2.09368e-17
8721.39120 2.08643e-17
8722.25267 2.07643e-17
8723.11413 2.06644e-17
8723.98561 2.05680e-17
8724.84707 2.04715e-17
8725.70853 2.03901e-17
8726.56999 2.03086e-17
8727.43145 2.02389e-17
8728.29292 2.01693e-17
8729.15438 2.01116e-17
8730.01584 2.00540e-17
8730.87730 2.00099e-17
8731.73876 1.99657e-17
8732.61024 1.99393e-17
8733.47170 1.99127e-17
8734.33317 1.99162e-17
8735.19463 1.99198e-17
8736.05609 1.99495e-17
8736.91755 1.99792e-17
8737.77902 2.00001e-17
8738.64048 2.00210e-17
8739.50194 2.00033e-17
8740.36340 1.99857e-17
8741.22486 1.99131e-17
8742.08633 1.98405e-17
8742.95780 1.97088e-17
8743.81927 1.95771e-17
8744.68073 1.94243e-17
8745.54219 1.92714e-17
8746.40365 1.91388e-17
8747.26511 1.90062e-17
8748.12658 1.89129e-17
8748.98804 1.88198e-17
8749.84950 1.87775e-17
8750.71096 1.87354e-17
8751.57242 1.87322e-17
8752.44390 1.87291e-17
8753.30537 1.87422e-17
8754.16683 1.87554e-17
8755.02829 1.87723e-17
8755.88975 1.87892e-17
8756.75121 1.88018e-17
8757.61268 1.88143e-17
8758.47414 1.88042e-17
8759.33560 1.87939e-17
8760.19706 1.87388e-17
8761.05852 1.86836e-17
8761.91999 1.85799e-17
8762.79146 1.84761e-17
8763.65293 1.83358e-17
8764.51439 1.81953e-17
8765.37585 1.80378e-17
8766.23731 1.78804e-17
8767.09877 1.77338e-17
8767.96024 1.75875e-17
8768.82170 1.74698e-17
8769.68316 1.73525e-17
8770.54462 1.72616e-17
8771.40608 1.71709e-17
8772.26755 1.71028e-17
8773.13903 1.70349e-17
8774.00049 1.69866e-17
8774.86195 1.69381e-17
8775.72341 1.69030e-17
8776.58487 1.68678e-17
8777.44633 1.68401e-17
8778.30780 1.68125e-17
8779.16926 1.67843e-17
8780.03072 1.67561e-17
8780.89218 1.67030e-17
8781.76366 1.66496e-17
8782.62512 1.65494e-17
8783.48659 1.64490e-17
8784.34805 1.63122e-17
8785.20951 1.61755e-17
8786.07097 1.60218e-17
8786.93243 1.58682e-17
8787.79390 1.57123e-17
8788.65536 1.55565e-17
8789.51682 1.54128e-17
8790.37828 1.52692e-17
8791.24976 1.51373e-17
8792.11122 1.50054e-17
8792.97268 1.48751e-17
8793.83415 1.47446e-17
8794.69561 1.46224e-17
8795.55707 1.45002e-17
8796.41853 1.44049e-17
8797.28000 1.43098e-17
8798.14146 1.42376e-17
8799.00292 1.41656e-17
8799.86438 1.40915e-17
8800.72584 1.40175e-17
8801.59732 1.39210e-17
8802.45878 1.38245e-17
8803.32025 1.36917e-17
8804.18171 1.35589e-17
8805.04317 1.33881e-17
8805.90463 1.32173e-17
8806.76609 1.30330e-17
8807.62756 1.28486e-17
8808.48902 1.26732e-17
8809.35048 1.24980e-17
8810.21194 1.23424e-17
8811.08342 1.21869e-17
8811.94488 1.20584e-17
8812.80635 1.19300e-17
8813.66781 1.18256e-17
8814.52927 1.17214e-17
8815.39073 1.16345e-17
8816.25219 1.15475e-17
8817.11365 1.14694e-17
8817.97512 1.13913e-17
8818.83658 1.13125e-17
8819.70806 1.12338e-17
8820.56952 1.11427e-17
8821.43098 1.10517e-17
8822.29244 1.09384e-17
8823.15391 1.08251e-17
8824.01537 1.06883e-17
8824.87683 1.05515e-17
8825.73829 1.03948e-17
8826.59975 1.02381e-17
8827.46122 1.00759e-17
8828.32268 9.91381e-18
8829.19416 9.76700e-18
8830.05562 9.62025e-18
8830.91708 9.49938e-18
8831.77854 9.37858e-18
8832.64000 9.28439e-18
8833.50147 9.19027e-18
8834.36293 9.11939e-18
8835.22439 9.04857e-18
8836.08585 8.99270e-18
8836.94732 8.93688e-18
8837.80878 8.88631e-18
8838.67024 8.83575e-18
8839.54172 8.78051e-18
8840.40318 8.72526e-18
8841.26464 8.65799e-18
8842.12610 8.59069e-18
8842.98757 8.51043e-18
8843.84903 8.43013e-18
8844.71049 8.33841e-18
8845.57195 8.24666e-18
8846.43341 8.14885e-18
8847.29488 8.05103e-18
8848.15634 7.95402e-18
8849.02782 7.85701e-18
8849.88928 7.76447e-18
8850.75074 7.67195e-18
8851.61220 7.58738e-18
8852.47367 7.50285e-18
8853.33513 7.44423e-18
8854.19659 7.38567e-18
8855.05805 7.37086e-18
8855.91951 7.35618e-18
8856.78097 7.37100e-18
8857.64244 7.38591e-18
8858.50390 7.40531e-18
8859.36536 7.42471e-18
8860.23684 7.42802e-18
8861.09830 7.43128e-18
8861.95976 7.39981e-18
8862.82123 7.36825e-18
8863.68269 7.30904e-18
8864.54415 7.24976e-18
8865.40561 7.19004e-18
8866.26707 7.13032e-18
8867.12854 7.08275e-18
8867.99000 7.03521e-18
8868.86148 6.99660e-18
8869.72294 6.95800e-18
8870.58440 6.92695e-18
8871.44586 6.89591e-18
8872.30732 6.87121e-18
8873.16879 6.84654e-18
8874.03025 6.82956e-18
8874.89171 6.81259e-18
8875.75317 6.81380e-18
8876.61463 6.81506e-18
8877.47610 6.83867e-18
8878.34758 6.86236e-18
8879.20904 6.89533e-18
8880.07050 6.92833e-18
8880.93196 6.95696e-18
8881.79342 6.98558e-18
8882.65489 6.99713e-18
8883.51635 7.00862e-18
8884.37781 6.99381e-18
8885.23927 6.97893e-18
8886.10073 6.94631e-18
8886.96220 6.91366e-18
8887.83367 6.87667e-18
8888.69514 6.83967e-18
8889.55660 6.81071e-18
8890.41806 6.78176e-18
8891.27952 6.77206e-18
8892.14099 6.76242e-18
8893.00245 6.77834e-18
8893.86391 6.79433e-18
8894.72537 6.83839e-18
8895.58683 6.88252e-18
8896.44830 6.94434e-18
8897.30976 7.00621e-18
8898.18124 7.06811e-18
8899.04270 7.13000e-18
8899.90416 7.17684e-18
8900.76562 7.22363e-18
8901.62708 7.24280e-18
8902.48855 7.26189e-18
8903.35001 7.25534e-18
8904.21147 7.24873e-18
8905.07293 7.23742e-18
8905.93439 7.22609e-18
8906.80587 7.22377e-18
8907.66734 7.22146e-18
8908.52880 7.22675e-18
8909.39026 7.23207e-18
8910.25172 7.24502e-18
8911.11318 7.25797e-18
8911.97465 7.28113e-18
8912.83611 7.30430e-18
8913.69757 7.33871e-18
8914.55903 7.37316e-18
8915.42049 7.42128e-18
8916.29197 7.46943e-18
8917.15343 7.53067e-18
8918.01490 7.59194e-18
8918.87636 7.65056e-18
8919.73782 7.70917e-18
8920.59928 7.74938e-18
8921.46074 7.78955e-18
8922.32221 7.80689e-18
8923.18367 7.82417e-18
8924.04513 7.81818e-18
8924.90659 7.81211e-18
8925.76805 7.80135e-18
8926.63953 7.79057e-18
8927.50100 7.80039e-18
8928.36246 7.81026e-18
8929.22392 7.84163e-18
8930.08538 7.87305e-18
8930.94684 7.91451e-18
8931.80831 7.95599e-18
8932.66977 7.99925e-18
8933.53123 8.04249e-18
8934.39269 8.07948e-18
8935.25415 8.11646e-18
8936.12563 8.15099e-18
8936.98709 8.18552e-18
8937.84856 8.23571e-18
8938.71002 8.28594e-18
8939.57148 8.35261e-18
8940.43294 8.41931e-18
8941.29440 8.47788e-18
8942.15587 8.53643e-18
8943.01733 8.56887e-18
8943.87879 8.60123e-18
8944.74025 8.59945e-18
8945.61173 8.59756e-18
8946.47319 8.56447e-18
8947.33466 8.53129e-18
8948.19612 8.50483e-18
8949.05758 8.47838e-18
8949.91904 8.48932e-18
8950.78050 8.50037e-18
8951.64197 8.53916e-18
8952.50343 8.57802e-18
8953.36489 8.62917e-18
8954.22635 8.68035e-18
8955.08781 8.70352e-18
8955.95929 8.72662e-18
8956.82075 8.68215e-18
8957.68222 8.63751e-18
8958.54368 8.57474e-18
8959.40514 8.51193e-18
8960.26660 8.50356e-18
8961.12806 8.49535e-18
8961.98953 8.55176e-18
8962.85099 8.60835e-18
8963.71245 8.71579e-18
8964.57391 8.82336e-18
8965.44539 8.94699e-18
8966.30685 9.07066e-18
8967.16832 9.15779e-18
8968.02978 9.24485e-18
8968.89124 9.30126e-18
8969.75270 9.35761e-18
8970.61416 9.44091e-18
8971.47563 9.52429e-18
8972.33709 9.65443e-18
8973.19855 9.78470e-18
8974.06001 9.93701e-18
8974.93149 1.00894e-17
8975.79295 1.02281e-17
8976.65441 1.03668e-17
8977.51588 1.04374e-17
8978.37734 1.05077e-17
8979.23880 1.04676e-17
8980.10026 1.04271e-17
8980.96172 1.02487e-17
8981.82319 1.00700e-17
8982.68465 9.77117e-18
8983.54611 9.47198e-18
8984.41759 9.21331e-18
8985.27905 8.95476e-18
8986.14051 8.88459e-18
8987.00198 8.81493e-18
8987.86344 8.98412e-18
8988.72490 9.15395e-18
8989.58636 9.57015e-18
8990.44782 9.98700e-18
8991.30928 1.04516e-17
8992.17075 1.09163e-17
8993.03221 1.11901e-17
8993.89367 1.14634e-17
8994.76515 1.15106e-17
8995.62661 1.15572e-17
8996.48807 1.14216e-17
8997.34954 1.12854e-17
8998.21100 1.10738e-17
8999.07246 1.08620e-17
8999.93392 1.07205e-17
9000.79538 1.05790e-17
9001.65685 1.05711e-17
9002.51831 1.05635e-17
9003.38979 1.06852e-17
9004.25125 1.08073e-17
9005.11271 1.10163e-17
9005.97417 1.12256e-17
9006.83563 1.14386e-17
9007.69710 1.16517e-17
9008.55856 1.18039e-17
9009.42002 1.19559e-17
9010.28148 1.20172e-17
9011.14295 1.20782e-17
9012.00441 1.20499e-17
9012.87589 1.20214e-17
9013.73735 1.19750e-17
9014.59881 1.19286e-17
9015.46027 1.19172e-17
9016.32173 1.19058e-17
9017.18320 1.18970e-17
9018.04466 1.18882e-17
9018.90612 1.18577e-17
9019.76758 1.18273e-17
9020.62904 1.18032e-17
9021.49051 1.17791e-17
9022.35197 1.17903e-17
9023.22345 1.18016e-17
9024.08491 1.18845e-17
9024.94637 1.19675e-17
9025.80783 1.21512e-17
9026.66930 1.23351e-17
9027.53076 1.25754e-17
9028.39222 1.28159e-17
9029.25368 1.30461e-17
9030.11514 1.32761e-17
9030.97660 1.34497e-17
9031.83807 1.36231e-17
9032.70955 1.37058e-17
9033.57101 1.37882e-17
9034.43247 1.37768e-17
9035.29393 1.37651e-17
9036.15539 1.36772e-17
9037.01686 1.35890e-17
9037.87832 1.34697e-17
9038.73978 1.33503e-17
9039.60124 1.32689e-17
9040.46270 1.31878e-17
9041.32417 1.31629e-17
9042.18563 1.31382e-17
9043.05711 1.31191e-17
9043.91857 1.30999e-17
9044.78003 1.30598e-17
9045.64149 1.30195e-17
9046.50295 1.29744e-17
9047.36442 1.29293e-17
9048.22588 1.28932e-17
9049.08734 1.28570e-17
9049.94880 1.28522e-17
9050.81027 1.28472e-17
9051.67173 1.28795e-17
9052.54321 1.29119e-17
9053.40467 1.29153e-17
9054.26613 1.29185e-17
9055.12759 1.28352e-17
9055.98905 1.27517e-17
9056.85052 1.26126e-17
9057.71198 1.24733e-17
9058.57344 1.23202e-17
9059.43490 1.21670e-17
9060.29636 1.20052e-17
9061.16784 1.18433e-17
9062.02931 1.16748e-17
9062.89077 1.15063e-17
9063.75223 1.13249e-17
9064.61369 1.11436e-17
9065.47515 1.09360e-17
9066.33662 1.07283e-17
9067.19808 1.05472e-17
9068.05954 1.03662e-17
9068.92100 1.02995e-17
9069.78246 1.02331e-17
9070.64393 1.02614e-17
9071.51540 1.02899e-17
9072.37687 1.03148e-17
9073.23833 1.03396e-17
9074.09979 1.03249e-17
9074.96125 1.03101e-17
9075.82271 1.02832e-17
9076.68418 1.02563e-17
9077.54564 1.02344e-17
9078.40710 1.02126e-17
9079.26856 1.02056e-17
9080.13002 1.01987e-17
9080.99149 1.02063e-17
9081.86297 1.02139e-17
9082.72443 1.02019e-17
9083.58589 1.01899e-17
9084.44735 1.01393e-17
9085.30881 1.00886e-17
9086.17028 1.00371e-17
9087.03174 9.98547e-18
9087.89320 9.96176e-18
9088.75466 9.93812e-18
9089.61612 9.90539e-18
9090.48760 9.87262e-18
9091.34906 9.79548e-18
9092.21053 9.71866e-18
9093.07199 9.63363e-18
9093.93345 9.54859e-18
9094.79491 9.50031e-18
9095.65637 9.45215e-18
9096.51784 9.42798e-18
9097.37930 9.40389e-18
9098.24076 9.37720e-18
9099.10222 9.35047e-18
9099.97370 9.32814e-18
9100.83516 9.30581e-18
9101.69663 9.30210e-18
9102.55809 9.29843e-18
9103.41955 9.34065e-18
9104.28101 9.38299e-18
9105.14247 9.51023e-18
9106.00393 9.63772e-18
9106.86540 9.80363e-18
9107.72686 9.96964e-18
9108.58832 1.00553e-17
9109.45980 1.01407e-17
9110.32126 1.00954e-17
9111.18272 1.00497e-17
9112.04419 9.90295e-18
9112.90565 9.75591e-18
9113.76711 9.56833e-18
9114.62857 9.38066e-18
9115.49003 9.27675e-18
9116.35150 9.17307e-18
9117.21296 9.21768e-18
9118.07442 9.26270e-18
9118.93588 9.35980e-18
9119.80736 9.45706e-18
9120.66882 9.51290e-18
9121.53028 9.56862e-18
9122.39175 9.52314e-18
9123.25321 9.47737e-18
9124.11467 9.29451e-18
9124.97613 9.11127e-18
9125.83760 8.87560e-18
9126.69906 8.63979e-18
9127.56052 8.45426e-18
9128.43200 8.26887e-18
9129.29346 8.18666e-18
9130.15492 8.10474e-18
9131.01638 8.16012e-18
9131.87785 8.21588e-18
9132.73931 8.38575e-18
9133.60077 8.55594e-18
9134.46223 8.78808e-18
9135.32369 9.02037e-18
9136.18516 9.26041e-18
9137.04662 9.50047e-18
9137.90808 9.69230e-18
9138.76954 9.88400e-18
9139.64102 9.99153e-18
9140.50248 1.00988e-17
9141.36395 1.01099e-17
9142.22541 1.01206e-17
9143.08687 1.00169e-17
9143.94833 9.91284e-18
9144.80979 9.66803e-18
9145.67125 9.42284e-18
9146.53272 9.06869e-18
9147.39418 8.71424e-18
9148.26566 8.35771e-18
9149.12712 8.00118e-18
9149.98858 7.73935e-18
9150.85004 7.47777e-18
9151.71151 7.38915e-18
9152.57297 7.30102e-18
9153.43443 7.41626e-18
9154.29589 7.53204e-18
9155.15735 7.75042e-18
9156.01882 7.96907e-18
9156.88028 8.18416e-18
9157.75176 8.39924e-18
9158.61322 8.56131e-18
9159.47468 8.72322e-18
9160.33614 8.79382e-18
9161.19760 8.86415e-18
9162.05907 8.84584e-18
9162.92053 8.82727e-18
9163.78199 8.74093e-18
9164.64345 8.65441e-18
9165.50492 8.49717e-18
9166.36638 8.33972e-18
9167.22784 8.10783e-18
9168.09932 7.87576e-18
9168.96078 7.62678e-18
9169.82224 7.37776e-18
9170.68370 7.18956e-18
9171.54517 7.00155e-18
9172.40663 6.91306e-18
9173.26809 6.82483e-18
9174.12955 6.85299e-18
9174.99101 6.88147e-18
9175.85248 6.97840e-18
9176.71394 7.07552e-18
9177.58542 7.13244e-18
9178.44688 7.18926e-18
9179.30834 7.17452e-18
9180.16980 7.15959e-18
9181.03127 7.14458e-18
9181.89273 7.12959e-18
9182.75419 7.15360e-18
9183.61565 7.17773e-18
9184.47711 7.22677e-18
9185.33857 7.27586e-18
9186.20004 7.33299e-18
9187.07152 7.39014e-18
9187.93298 7.41440e-18
9188.79444 7.43857e-18
9189.65590 7.40721e-18
9190.51736 7.37568e-18
9191.37883 7.35204e-18
9192.24029 7.32841e-18
9193.10175 7.36885e-18
9193.96321 7.40946e-18
9194.82467 7.48893e-18
9195.68614 7.56849e-18
9196.55762 7.65122e-18
9197.41908 7.73394e-18
9198.28054 7.78759e-18
9199.14200 7.84115e-18
9200.00346 7.83466e-18
9200.86492 7.82801e-18
9201.72639 7.78427e-18
9202.58785 7.74041e-18
9203.44931 7.70445e-18
9204.31077 7.66852e-18
9205.17224 7.64164e-18
9206.04371 7.61478e-18
9206.90518 7.57722e-18
9207.76664 7.53962e-18
9208.62810 7.49765e-18
9209.48956 7.45566e-18
9210.35102 7.43044e-18
9211.21249 7.40526e-18
9212.07395 7.41802e-18
9212.93541 7.43090e-18
9213.79687 7.50600e-18
9214.65833 7.58127e-18
9215.52981 7.71383e-18
9216.39127 7.84656e-18
9217.25274 7.98623e-18
9218.11420 8.12590e-18
9218.97566 8.23996e-18
9219.83712 8.35393e-18
9220.69859 8.45280e-18
9221.56005 8.55163e-18
9222.42151 8.64120e-18
9223.28297 8.73074e-18
9224.14443 8.80104e-18
9225.00590 8.87128e-18
9225.87737 8.91531e-18
9226.73884 8.95928e-18
9227.60030 8.96975e-18
9228.46176 8.98013e-18
9229.32322 8.95422e-18
9230.18468 8.92823e-18
9231.04615 8.89547e-18
9231.90761 8.86270e-18
9232.76907 8.85722e-18
9233.63053 8.85180e-18
9234.49199 8.86609e-18
9235.35346 8.88041e-18
9236.22494 8.89527e-18
9237.08640 8.91012e-18
9237.94786 8.93429e-18
9238.80932 8.95849e-18
9239.67078 9.01002e-18
9240.53225 9.06161e-18
9241.39371 9.14914e-18
9242.25517 9.23678e-18
9243.11663 9.36383e-18
9243.97809 9.49100e-18
9244.84957 9.64651e-18
9245.71103 9.80209e-18
9246.57250 9.96083e-18
9247.43396 1.01196e-17
9248.29542 1.02671e-17
9249.15688 1.04146e-17
9250.01834 1.05538e-17
9250.87981 1.06931e-17
9251.74127 1.08171e-17
9252.60273 1.09411e-17
9253.46419 1.10201e-17
9254.32565 1.10990e-17
9255.19713 1.11282e-17
9256.05860 1.11572e-17
9256.92006 1.11943e-17
9257.78152 1.12314e-17
9258.64298 1.13199e-17
9259.50444 1.14085e-17
9260.36591 1.15352e-17
9261.22737 1.16621e-17
9262.08883 1.18037e-17
9262.95029 1.19454e-17
9263.81175 1.20508e-17
9264.68323 1.21561e-17
9265.54469 1.21763e-17
9266.40616 1.21962e-17
9267.26762 1.21327e-17
9268.12908 1.20688e-17
9268.99054 1.19416e-17
9269.85200 1.18142e-17
9270.71347 1.16707e-17
9271.57493 1.15271e-17
9272.43639 1.14238e-17
9273.29785 1.13206e-17
9274.16933 1.13020e-17
9275.03079 1.12836e-17
9275.89226 1.13825e-17
9276.75372 1.14816e-17
9277.61518 1.16812e-17
9278.47664 1.18810e-17
9279.33810 1.21264e-17
9280.19957 1.23718e-17
9281.06103 1.26037e-17
9281.92249 1.28355e-17
9282.79397 1.29966e-17
9283.65543 1.31576e-17
9284.51689 1.32024e-17
9285.37835 1.32469e-17
9286.23982 1.31485e-17
9287.10128 1.30496e-17
9287.96274 1.28199e-17
9288.82420 1.25896e-17
9289.68566 1.23012e-17
9290.54713 1.20128e-17
9291.40859 1.17506e-17
9292.27005 1.14885e-17
9293.14153 1.13641e-17
9294.00299 1.12401e-17
9294.86445 1.13263e-17
9295.72592 1.14130e-17
9296.58738 1.16347e-17
9297.44884 1.18568e-17
9298.31030 1.21145e-17
9299.17176 1.23722e-17
9300.03323 1.25301e-17
9300.89469 1.26877e-17
9301.75615 1.26157e-17
9302.62763 1.25431e-17
9303.48909 1.23661e-17
9304.35055 1.21889e-17
9305.21201 1.21115e-17
9306.07348 1.20344e-17
9306.93494 1.20090e-17
9307.79640 1.19836e-17
9308.65786 1.18617e-17
9309.51932 1.17395e-17
9310.38079 1.15280e-17
9311.24225 1.13163e-17
9312.11373 1.11028e-17
9312.97519 1.08893e-17
9313.83665 1.07596e-17
9314.69811 1.06302e-17
9315.55958 1.06818e-17
9316.42104 1.07340e-17
9317.28250 1.09481e-17
9318.14396 1.11627e-17
9319.00542 1.13515e-17
9319.86688 1.15402e-17
9320.72835 1.16301e-17
9321.58981 1.17198e-17
9322.46129 1.18837e-17
9323.32275 1.20478e-17
9324.18421 1.23236e-17
9325.04567 1.25997e-17
9325.90714 1.26337e-17
9326.76860 1.26671e-17
9327.63006 1.22413e-17
9328.49152 1.18142e-17
9329.35298 1.12709e-17
9330.21445 1.07272e-17
9331.07591 1.03978e-17
9331.94739 1.00691e-17
9332.80885 9.88965e-18
9333.67031 9.71069e-18
9334.53177 9.58556e-18
9335.39323 9.46059e-18
9336.25470 9.39188e-18
9337.11616 9.32334e-18
9337.97762 9.29465e-18
9338.83908 9.26608e-18
9339.70055 9.56924e-18
9340.56201 9.87332e-18
9341.43349 1.09036e-17
9342.29495 1.19358e-17
9343.15641 1.31869e-17
9344.01787 1.44385e-17
9344.87933 1.49789e-17
9345.74080 1.55171e-17
9346.60226 1.50691e-17
9347.46372 1.46181e-17
9348.32518 1.33402e-17
9349.18664 1.20599e-17
9350.04811 1.05398e-17
9350.90957 9.01896e-18
9351.78105 8.34047e-18
9352.64251 7.66442e-18
9353.50397 8.18320e-18
9354.36543 8.70538e-18
9355.22689 9.63736e-18
9356.08836 1.05705e-17
9356.94982 1.12564e-17
9357.81128 1.19416e-17
9358.67274 1.19883e-17
9359.53420 1.20331e-17
9360.39567 1.12705e-17
9361.26715 1.05056e-17
9362.12861 9.55137e-18
9362.99007 8.59664e-18
9363.85153 8.03384e-18
9364.71299 7.47217e-18
9365.57446 7.33435e-18
9366.43592 7.19776e-18
9367.29738 7.42876e-18
9368.15884 7.66080e-18
9369.02030 7.97099e-18
9369.89178 8.28138e-18
9370.75324 8.33904e-18
9371.61471 8.39596e-18
9372.47617 8.22143e-18
9373.33763 8.04624e-18
9374.19909 7.76347e-18
9375.06056 7.48039e-18
9375.92202 7.27889e-18
9376.78348 7.07762e-18
9377.64494 7.18891e-18
9378.50640 7.30108e-18
9379.37788 7.63736e-18
9380.23934 7.97428e-18
9381.10081 8.23747e-18
9381.96227 8.50044e-18
9382.82373 8.59556e-18
9383.68519 8.69021e-18
9384.54665 8.70298e-18
9385.40812 8.71552e-18
9386.26958 8.66966e-18
9387.13104 8.62363e-18
9387.99250 8.47899e-18
9388.85396 8.33406e-18
9389.72544 8.08838e-18
9390.58691 7.84240e-18
9391.44837 7.53274e-18
9392.30983 7.22290e-18
9393.17129 6.90005e-18
9394.03275 6.57717e-18
9394.89422 6.33131e-18
9395.75568 6.08567e-18
9396.61714 5.97782e-18
9397.47860 5.87036e-18
9398.34006 5.85528e-18
9399.21154 5.84046e-18
9400.07300 5.86130e-18
9400.93447 5.88224e-18
9401.79593 5.88435e-18
9402.65739 5.88641e-18
9403.51885 5.82197e-18
9404.38031 5.75734e-18
9405.24178 5.68009e-18
9406.10324 5.60281e-18
9406.96470 5.58823e-18
9407.82616 5.57381e-18
9408.69764 5.62270e-18
9409.55910 5.67178e-18
9410.42057 5.75792e-18
9411.28203 5.84415e-18
9412.14349 5.92677e-18
9413.00495 6.00938e-18
9413.86641 6.04015e-18
9414.72788 6.07076e-18
9415.58934 6.01746e-18
9416.45080 5.96390e-18
9417.31226 5.81657e-18
9418.17372 5.66896e-18
9419.04520 5.43791e-18
9419.90666 5.20662e-18
9420.76813 4.90727e-18
9421.62959 4.60774e-18
9422.49105 4.34724e-18
9423.35251 4.08685e-18
9424.21397 4.12088e-18
9425.07544 4.15576e-18
9425.93690 4.56641e-18
9426.79836 4.97813e-18
9427.65982 5.49734e-18
9428.53130 6.01683e-18
9429.39276 6.38615e-18
9430.25423 6.75501e-18
9431.11569 6.73519e-18
9431.97715 6.71425e-18
9432.83861 6.18410e-18
9433.70007 5.65248e-18
9434.56153 5.03237e-18
9435.42300 4.41202e-18
9436.28446 4.14165e-18
9437.14592 3.87232e-18
9438.01740 4.02098e-18
9438.87886 4.17086e-18
9439.74032 4.71007e-18
9440.60179 5.25040e-18
9441.46325 5.90631e-18
9442.32471 6.56254e-18
9443.18617 6.98267e-18
9444.04763 7.40211e-18
9444.90910 7.48564e-18
9445.77056 7.56818e-18
9446.63202 7.33712e-18
9447.49348 7.10515e-18
9448.36496 6.68422e-18
9449.22642 6.26277e-18
9450.08788 5.85267e-18
9450.94935 5.44262e-18
9451.81081 5.17411e-18
9452.67227 4.90602e-18
9453.53373 4.83006e-18
9454.39520 4.75467e-18
9455.25666 4.88399e-18
9456.11812 5.01391e-18
9456.98960 5.31714e-18
9457.85106 5.62086e-18
9458.71252 6.00720e-18
9459.57398 6.39377e-18
9460.43545 6.68003e-18
9461.29691 6.96598e-18
9462.15837 7.04176e-18
9463.01983 7.11694e-18
9463.88129 7.06848e-18
9464.74276 7.01968e-18
9465.60422 6.93716e-18
9466.47570 6.85455e-18
9467.33716 6.79336e-18
9468.19862 6.73223e-18
9469.06008 6.73686e-18
9469.92155 6.74167e-18
9470.78301 6.74389e-18
9471.64447 6.74609e-18
9472.50593 6.67321e-18
9473.36739 6.60013e-18
9474.22885 6.49765e-18
9475.09032 6.39510e-18
9475.96180 6.32494e-18
9476.82326 6.25486e-18
9477.68472 6.34533e-18
9478.54618 6.43625e-18
9479.40764 6.83202e-18
9480.26911 7.22866e-18
9481.13057 7.77262e-18
9481.99203 8.31699e-18
9482.85349 8.70520e-18
9483.71495 9.09293e-18
9484.57642 9.16520e-18
9485.43788 9.23653e-18
9486.30936 8.93676e-18
9487.17082 8.63591e-18
9488.03228 8.08616e-18
9488.89374 7.53571e-18
9489.75520 7.05749e-18
9490.61667 6.57948e-18
9491.47813 6.37834e-18
9492.33959 6.17802e-18
9493.20105 6.25020e-18
9494.06252 6.32318e-18
9494.92398 6.66766e-18
9495.79546 7.01293e-18
9496.65692 7.67358e-18
9497.51838 8.33514e-18
9498.37984 9.24232e-18
9499.24130 1.01502e-17
9500.10277 1.09489e-17
9500.96423 1.17473e-17
9501.82569 1.21306e-17
9502.68715 1.25126e-17
9503.54861 1.24317e-17
9504.41008 1.23495e-17
9505.28155 1.18360e-17
9506.14302 1.13212e-17
9507.00448 1.06417e-17
9507.86594 9.96179e-18
9508.72740 9.43361e-18
9509.58887 8.90589e-18
9510.45033 8.56013e-18
9511.31179 8.21491e-18
9512.17325 7.98885e-18
9513.03471 7.76315e-18
9513.89617 7.71854e-18
9514.75764 7.67445e-18
9515.62912 7.89963e-18
9516.49058 8.12559e-18
9517.35204 8.59480e-18
9518.21350 9.06470e-18
9519.07496 9.69129e-18
9519.93643 1.03183e-17
9520.79789 1.09498e-17
9521.65935 1.15812e-17
9522.52081 1.20075e-17
9523.38227 1.24331e-17
9524.24374 1.25833e-17
9525.11522 1.27327e-17
9525.97668 1.27173e-17
9526.83814 1.27015e-17
9527.69960 1.26223e-17
9528.56106 1.25429e-17
9529.42252 1.24804e-17
9530.28399 1.24178e-17
9531.14545 1.24170e-17
9532.00691 1.24163e-17
9532.86837 1.24057e-17
9533.72984 1.23951e-17
9534.60131 1.23145e-17
9535.46278 1.22337e-17
9536.32424 1.20647e-17
9537.18570 1.18956e-17
9538.04716 1.16481e-17
9538.90862 1.14003e-17
9539.77009 1.13001e-17
9540.63155 1.12003e-17
9541.49301 1.14606e-17
9542.35447 1.17219e-17
9543.21593 1.21898e-17
9544.08741 1.26584e-17
9544.94888 1.31068e-17
9545.81034 1.35551e-17
9546.67180 1.37621e-17
9547.53326 1.39683e-17
9548.39472 1.37063e-17
9549.25619 1.34431e-17
9550.11765 1.29761e-17
9550.97911 1.25085e-17
9551.84057 1.23676e-17
9552.70203 1.22277e-17
9553.57351 1.24490e-17
9554.43497 1.26714e-17
9555.29644 1.29410e-17
9556.15790 1.32106e-17
9557.01936 1.33168e-17
9557.88082 1.34226e-17
9558.74228 1.32246e-17
9559.60375 1.30258e-17
9560.46521 1.26110e-17
9561.32667 1.21956e-17
9562.18813 1.20435e-17
9563.05961 1.18922e-17
9563.92107 1.22503e-17
9564.78254 1.26098e-17
9565.64400 1.32233e-17
9566.50546 1.38375e-17
9567.36692 1.44324e-17
9568.22838 1.50272e-17
9569.08985 1.52765e-17
9569.95131 1.55248e-17
9570.81277 1.52034e-17
9571.67423 1.48803e-17
9572.53569 1.42715e-17
9573.40717 1.36618e-17
9574.26863 1.31021e-17
9575.13010 1.25425e-17
9575.99156 1.22569e-17
9576.85302 1.19720e-17
9577.71448 1.21381e-17
9578.57594 1.23055e-17
9579.43741 1.26441e-17
9580.29887 1.29831e-17
9581.16033 1.30863e-17
9582.02179 1.31888e-17
9582.89327 1.30026e-17
9583.75473 1.28156e-17
9584.61620 1.24201e-17
9585.47766 1.20239e-17
9586.33912 1.17042e-17
9587.20058 1.13848e-17
9588.06204 1.15754e-17
9588.92351 1.17675e-17
9589.78497 1.24139e-17
9590.64643 1.30617e-17
9591.51791 1.36657e-17
9592.37937 1.42697e-17
9593.24083 1.45626e-17
9594.10229 1.48548e-17
9594.96376 1.48625e-17
9595.82522 1.48694e-17
9596.68668 1.46459e-17
9597.54814 1.44218e-17
9598.40960 1.40931e-17
9599.27107 1.37642e-17
9600.13253 1.34695e-17
9600.99399 1.31747e-17
9601.86547 1.30239e-17
9602.72693 1.28734e-17
9603.58839 1.29383e-17
9604.44986 1.30039e-17
9605.31132 1.32725e-17
9606.17278 1.35418e-17
9607.03424 1.39537e-17
9607.89570 1.43658e-17
9608.75717 1.46590e-17
9609.61863 1.49519e-17
9610.48009 1.48739e-17
9611.35157 1.47949e-17
9612.21303 1.44528e-17
9613.07449 1.41101e-17
9613.93595 1.37059e-17
9614.79742 1.33015e-17
9615.65888 1.29754e-17
9616.52034 1.26496e-17
9617.38180 1.25187e-17
9618.24326 1.23885e-17
9619.10473 1.24829e-17
9619.96619 1.25780e-17
9620.82765 1.28652e-17
9621.69913 1.31531e-17
9622.56059 1.35295e-17
9623.42205 1.39061e-17
9624.28352 1.42275e-17
9625.14498 1.45488e-17
9626.00644 1.46779e-17
9626.86790 1.48063e-17
9627.72936 1.46142e-17
9628.59083 1.44212e-17
9629.45229 1.39457e-17
9630.31375 1.34695e-17
9631.17521 1.29921e-17
9632.04669 1.25146e-17
9632.90815 1.22537e-17
9633.76961 1.19934e-17
9634.63108 1.20339e-17
9635.49254 1.20753e-17
9636.35400 1.24083e-17
9637.21546 1.27421e-17
9638.07692 1.30517e-17
9638.93839 1.33612e-17
9639.79985 1.33863e-17
9640.67133 1.34105e-17
9641.53279 1.33142e-17
9642.39425 1.32174e-17
9643.25571 1.31900e-17
9644.11718 1.31628e-17
9644.97864 1.32503e-17
9645.84010 1.33384e-17
9646.70156 1.35596e-17
9647.56302 1.37812e-17
9648.42448 1.39883e-17
9649.28595 1.41952e-17
9650.15743 1.41957e-17
9651.01889 1.41955e-17
9651.88035 1.39886e-17
9652.74181 1.37812e-17
9653.60327 1.34533e-17
9654.46474 1.31250e-17
9655.32620 1.27947e-17
9656.18766 1.24643e-17
9657.04912 1.22684e-17
9657.91058 1.20729e-17
9658.77205 1.20878e-17
9659.64352 1.21033e-17
9660.50499 1.23477e-17
9661.36645 1.25928e-17
9662.22791 1.29894e-17
9663.08937 1.33864e-17
9663.95083 1.37331e-17
9664.81230 1.40796e-17
9665.67376 1.42594e-17
9666.53522 1.44388e-17
9667.39668 1.45137e-17
9668.25815 1.45883e-17
9669.11961 1.45937e-17
9669.99109 1.45988e-17
9670.85255 1.44749e-17
9671.71401 1.43504e-17
9672.57547 1.40808e-17
9673.43693 1.38106e-17
9674.29840 1.35055e-17
9675.15986 1.32001e-17
9676.02132 1.29694e-17
9676.88278 1.27390e-17
9677.74424 1.26596e-17
9678.61572 1.25806e-17
9679.47718 1.27034e-17
9680.33865 1.28267e-17
9681.20011 1.30504e-17
9682.06157 1.32743e-17
9682.92303 1.34582e-17
9683.78449 1.36420e-17
9684.64596 1.37444e-17
9685.50742 1.38464e-17
9686.36888 1.38615e-17
9687.23034 1.38764e-17
9688.10182 1.38188e-17
9688.96328 1.37612e-17
9689.82475 1.36666e-17
9690.68621 1.35719e-17
9691.54767 1.34467e-17
9692.40913 1.33213e-17
9693.27059 1.31467e-17
9694.13206 1.29717e-17
9694.99352 1.27733e-17
9695.85498 1.25748e-17
9696.71644 1.24231e-17
9697.57790 1.22716e-17
9698.44938 1.22018e-17
9699.31084 1.21321e-17
9700.17231 1.21308e-17
9701.03377 1.21296e-17
9701.89523 1.21679e-17
9702.75669 1.22063e-17
9703.61816 1.22202e-17
9704.47962 1.22340e-17
9705.34108 1.21820e-17
9706.20254 1.21298e-17
9707.06400 1.20519e-17
9707.93548 1.19739e-17
9708.79694 1.19115e-17
9709.65841 1.18491e-17
9710.51987 1.18248e-17
9711.38133 1.18005e-17
9712.24279 1.18289e-17
9713.10425 1.18575e-17
9713.96572 1.18994e-17
9714.82718 1.19413e-17
9715.68864 1.19494e-17
9716.55010 1.19574e-17
9717.41156 1.19181e-17
9718.28304 1.18787e-17
9719.14451 1.17865e-17
9720.00597 1.16943e-17
9720.86743 1.15986e-17
9721.72889 1.15029e-17
9722.59035 1.14795e-17
9723.45182 1.14563e-17
9724.31328 1.14719e-17
9725.17474 1.14876e-17
9726.03620 1.14432e-17
9726.89766 1.13987e-17
9727.76914 1.12594e-17
9728.63060 1.11198e-17
9729.49207 1.09040e-17
9730.35353 1.06879e-17
9731.21499 1.04416e-17
9732.07645 1.01951e-17
9732.93791 1.00030e-17
9733.79938 9.81100e-18
9734.66084 9.72580e-18
9735.52230 9.64093e-18
9736.38376 9.65242e-18
9737.25524 9.66420e-18
9738.11670 9.74864e-18
9738.97817 9.83330e-18
9739.83963 9.94395e-18
9740.70109 1.00547e-17
9741.56255 1.01453e-17
9742.42401 1.02359e-17
9743.28548 1.02821e-17
9744.14694 1.03282e-17
9745.00840 1.03153e-17
9745.86986 1.03023e-17
9746.74134 1.02502e-17
9747.60280 1.01980e-17
9748.46426 1.01336e-17
9749.32573 1.00691e-17
9750.18719 9.99885e-18
9751.04865 9.92856e-18
9751.91011 9.85582e-18
9752.77157 9.78306e-18
9753.63304 9.70545e-18
9754.49450 9.62783e-18
9755.35596 9.54032e-18
9756.22744 9.45278e-18
9757.08890 9.37359e-18
9757.95036 9.29442e-18
9758.81183 9.25045e-18
9759.67329 9.20658e-18
9760.53475 9.21864e-18
9761.39621 9.23087e-18
9762.25767 9.31681e-18
9763.11913 9.40298e-18
9763.98060 9.53575e-18
9764.84206 9.66865e-18
9765.71354 9.77204e-18
9766.57500 9.87535e-18
9767.43646 9.91200e-18
9768.29792 9.94845e-18
9769.15939 9.94286e-18
9770.02085 9.93713e-18
9770.88231 9.91017e-18
9771.74377 9.88314e-18
9772.60523 9.84523e-18
9773.46670 9.80730e-18
9774.32816 9.77168e-18
9775.19964 9.73605e-18
9776.06110 9.71319e-18
9776.92256 9.69035e-18
9777.78402 9.68722e-18
9778.64548 9.68414e-18
9779.50695 9.70964e-18
9780.36841 9.73523e-18
9781.22987 9.79184e-18
9782.09133 9.84855e-18
9782.95280 9.88727e-18
9783.81426 9.92592e-18
9784.68574 9.89347e-18
9785.54720 9.86079e-18
9786.40866 9.78299e-18
9787.27012 9.70505e-18
9788.13158 9.63043e-18
9788.99305 9.55582e-18
9789.85451 9.50147e-18
9790.71597 9.44717e-18
9791.57743 9.42020e-18
9792.43889 9.39330e-18
9793.30036 9.37552e-18
9794.16182 9.35775e-18
9795.03330 9.31089e-18
9795.89476 9.26393e-18
9796.75622 9.19915e-18
9797.61768 9.13433e-18
9798.47915 9.10753e-18
9799.34061 9.08085e-18
9800.20207 9.11071e-18
9801.06353 9.14075e-18
9801.92499 9.20078e-18
9802.78645 9.26089e-18
9803.64792 9.32434e-18
9804.51940 9.38779e-18
9805.38086 9.42329e-18
9806.24232 9.45870e-18
9807.10378 9.45104e-18
9807.96524 9.44322e-18
9808.82671 9.42249e-18
9809.68817 9.40170e-18
9810.54963 9.39655e-18
9811.41109 9.39143e-18
9812.27255 9.41997e-18
9813.13402 9.44862e-18
9813.99548 9.51926e-18
9814.86696 9.59004e-18
9815.72842 9.65251e-18
9816.58988 9.71496e-18
9817.45134 9.71587e-18
9818.31280 9.71660e-18
9819.17427 9.66305e-18
9820.03573 9.60934e-18
9820.89719 9.52379e-18
9821.75865 9.43815e-18
9822.62012 9.35358e-18
9823.48158 9.26902e-18
9824.35306 9.22384e-18
9825.21452 9.17880e-18
9826.07598 9.16742e-18
9826.93744 9.15615e-18
9827.79890 9.14748e-18
9828.66037 9.13881e-18
9829.52183 9.12515e-18
9830.38329 9.11148e-18
9831.24475 9.10205e-18
9832.10621 9.09263e-18
9832.97769 9.08530e-18
9833.83915 9.07797e-18
9834.70062 9.06065e-18
9835.56208 9.04331e-18
9836.42354 9.01045e-18
9837.28500 8.97754e-18
9838.14647 8.93239e-18
9839.00793 8.88721e-18
9839.86939 8.83345e-18
9840.73085 8.77966e-18
9841.59231 8.71920e-18
9842.45377 8.65871e-18
9843.32525 8.59844e-18
9844.18672 8.53815e-18
9845.04818 8.49944e-18
9845.90964 8.46077e-18
9846.77110 8.46043e-18
9847.63256 8.46018e-18
9848.49403 8.49300e-18
9849.35549 8.52591e-18
9850.21695 8.58234e-18
9851.07841 8.63884e-18
9851.93987 8.70974e-18
9852.81135 8.78068e-18
9853.67282 8.85527e-18
9854.53428 8.92986e-18
9855.39574 9.00132e-18
9856.25720 9.07275e-18
9857.11866 9.13605e-18
9857.98013 9.19932e-18
9858.84159 9.24092e-18
9859.70305 9.28244e-18
9860.56451 9.28682e-18
9861.42597 9.29110e-18
9862.29745 9.25618e-18
9863.15891 9.22114e-18
9864.02038 9.15356e-18
9864.88184 9.08589e-18
9865.74330 8.99798e-18
9866.60476 8.91001e-18
9867.46622 8.81941e-18
9868.32769 8.72882e-18
9869.18915 8.64565e-18
9870.05061 8.56250e-18
9870.92209 8.48558e-18
9871.78355 8.40869e-18
9872.64501 8.33934e-18
9873.50648 8.27003e-18
9874.36794 8.21420e-18
9875.22940 8.15841e-18
9876.09086 8.12080e-18
9876.95232 8.08325e-18
9877.81379 8.06818e-18
9878.67525 8.05319e-18
9879.53671 8.06263e-18
9880.39817 8.07215e-18
9881.26965 8.10312e-18
9882.13111 8.13414e-18
9882.99257 8.18106e-18
9883.85404 8.22802e-18
9884.71550 8.28074e-18
9885.57696 8.33347e-18
9886.43842 8.38102e-18
9887.29988 8.42855e-18
9888.16135 8.46063e-18
9889.02281 8.49267e-18
9889.88427 8.50068e-18
9890.74573 8.50860e-18
9891.61721 8.49231e-18
9892.47867 8.47596e-18
9893.34014 8.43973e-18
9894.20160 8.40343e-18
9895.06306 8.35193e-18
9895.92452 8.30036e-18
9896.78598 8.23847e-18
9897.64745 8.17656e-18
9898.50891 8.11234e-18
9899.37037 8.04811e-18
9900.23183 7.99220e-18
9901.09329 7.93631e-18
9901.96477 7.89046e-18
9902.82623 7.84463e-18
9903.68770 7.79980e-18
9904.54916 7.75498e-18
9905.41062 7.71326e-18
9906.27208 7.67154e-18
9907.13354 7.65260e-18
9907.99501 7.63371e-18
9908.85647 7.64688e-18
9909.71793 7.66016e-18
9910.57939 7.69651e-18
9911.45087 7.73291e-18
9912.31233 7.77781e-18
9913.17380 7.82273e-18
9914.03526 7.84529e-18
9914.89672 7.86780e-18
9915.75818 7.84351e-18
9916.61964 7.81910e-18
9917.48111 7.75655e-18
9918.34257 7.69388e-18
9919.20403 7.60804e-18
9920.07551 7.52214e-18
9920.93697 7.43005e-18
9921.79843 7.33794e-18
9922.65989 7.25691e-18
9923.52136 7.17593e-18
9924.38282 7.11357e-18
9925.24428 7.05127e-18
9926.10574 7.01054e-18
9926.96720 6.96989e-18
9927.82867 6.93953e-18
9928.69013 6.90920e-18
9929.56161 6.87128e-18
9930.42307 6.83333e-18
9931.28453 6.78200e-18
9932.14599 6.73064e-18
9933.00746 6.66847e-18
9933.86892 6.60627e-18
9934.73038 6.53852e-18
9935.59184 6.47077e-18
9936.45330 6.40507e-18
9937.31477 6.33938e-18
9938.17623 6.28581e-18
9939.03769 6.23228e-18
9939.90917 6.20349e-18
9940.77063 6.17477e-18
9941.63209 6.17422e-18
9942.49355 6.17375e-18
9943.35502 6.18835e-18
9944.21648 6.20299e-18
9945.07794 6.22143e-18
9945.93940 6.23987e-18
9946.80086 6.25929e-18
9947.66233 6.27871e-18
9948.52379 6.29582e-18
9949.39527 6.31293e-18
9950.25673 6.32147e-18
9951.11819 6.32998e-18
9951.97965 6.32589e-18
9952.84112 6.32177e-18
9953.70258 6.31319e-18
9954.56404 6.30459e-18
9955.42550 6.30042e-18
9956.28696 6.29627e-18
9957.14843 6.29057e-18
9958.00989 6.28485e-18
9958.88137 6.26937e-18
9959.74283 6.25384e-18
9960.60429 6.22438e-18
9961.46575 6.19486e-18
9962.32721 6.14869e-18
9963.18868 6.10246e-18
9964.05014 6.05340e-18
9964.91160 6.00435e-18
9965.77306 5.97550e-18
9966.63452 5.94672e-18
9967.49599 5.94349e-18
9968.36747 5.94033e-18
9969.22893 5.95383e-18
9970.09039 5.96736e-18
9970.95185 5.99618e-18
9971.81331 6.02506e-18
9972.67477 6.07583e-18
9973.53624 6.12667e-18
9974.39770 6.19664e-18
9975.25916 6.26667e-18
9976.12062 6.34086e-18
9976.98208 6.41504e-18
9977.85356 6.48153e-18
9978.71503 6.54799e-18
9979.57649 6.60107e-18
9980.43795 6.65412e-18
9981.29941 6.69180e-18
9982.16087 6.72943e-18
9983.02234 6.75972e-18
9983.88380 6.78999e-18
9984.74526 6.82096e-18
9985.60672 6.85195e-18
9986.46818 6.88764e-18
9987.32965 6.92333e-18
9988.20112 6.96582e-18
9989.06259 7.00831e-18
9989.92405 7.04262e-18
9990.78551 7.07690e-18
9991.64697 7.08606e-18
9992.50843 7.09515e-18
9993.36990 7.09191e-18
9994.23136 7.08863e-18
9995.09282 7.09474e-18
9995.95428 7.10089e-18
9996.81574 7.11266e-18
9997.67721 7.12445e-18
9998.54869 7.12800e-18
9999.41015 7.13151e-18
