# wavelength flux
3709.85645 4.90008e-18
3711.31864 4.74798e-18
3712.79085 7.32136e-18
3714.26305 7.24466e-18
3715.73526 7.16797e-18
3717.19745 7.14335e-18
3718.66965 7.11874e-18
3720.14186 7.09414e-18
3721.61406 7.06953e-18
3723.08627 7.04493e-18
3724.54846 7.02033e-18
3726.02066 6.99574e-18
3727.49287 6.97115e-18
3728.96507 6.94656e-18
3730.42726 6.92197e-18
3731.89946 6.89739e-18
3733.37167 6.87282e-18
3734.84388 6.84825e-18
3736.30607 6.82367e-18
3737.77827 6.79911e-18
3739.25048 6.77454e-18
3740.72268 6.74998e-18
3742.19489 6.72543e-18
3743.65708 6.70087e-18
3745.12928 6.67632e-18
3746.60149 6.65178e-18
3748.07369 6.62723e-18
3749.53588 6.60269e-18
3751.00808 6.57816e-18
3752.48029 6.55362e-18
3753.95249 2.35230e-18
3755.42470 4.58271e-18
3756.88689 5.20847e-18
3758.35910 7.99518e-19
3759.83130 5.59654e-18
3761.30351 9.30223e-18
3762.76570 5.85239e-18
3764.23790 4.63581e-18
3765.71011 4.36310e-18
3767.18231 4.35262e-18
3768.65452 4.19068e-18
3770.11670 1.54757e-18
3771.58891 1.21056e-18
3773.06111 3.74666e-18
3774.53332 6.06951e-18
3775.99551 4.53771e-18
3777.46772 4.33272e-18
3778.93992 4.12775e-18
3780.41213 3.92280e-18
3781.87432 3.71787e-18
3783.34652 3.51296e-18
3784.81873 3.30807e-18
3786.29093 3.10320e-18
3787.76314 2.89835e-18
3789.22533 2.69352e-18
3790.69753 2.48871e-18
3792.16973 2.28392e-18
3793.64194 2.28381e-18
3795.10413 2.43125e-18
3796.57634 6.02321e-18
3798.04854 4.39229e-18
3799.52075 4.57139e-18
3800.99295 5.75088e-18
3802.45514 1.11007e-18
3803.92735 -2.46428e-18
3805.39955 -2.47944e-19
3806.87176 6.55973e-19
3808.33395 2.06087e-18
3809.80615 5.03049e-18
3811.27836 3.55743e-18
3812.75056 3.28097e-18
3814.22277 8.54482e-18
3815.68496 6.44754e-18
3817.15716 4.53362e-18
3818.62937 7.24097e-18
3820.10157 4.83611e-18
3821.56376 2.69959e-18
3823.03597 1.26129e-18
3824.50817 2.25793e-18
3825.98038 6.74224e-18
3827.44257 6.79051e-18
3828.91477 5.12576e-18
3830.38698 5.00081e-18
3831.85918 3.83939e-18
3833.33139 2.99312e-18
3834.79358 4.53523e-18
3836.26578 6.48937e-18
3837.73799 6.10547e-18
3839.21019 3.30026e-18
3840.67238 2.69183e-18
3842.14459 3.36431e-18
3843.61679 4.68162e-18
3845.08900 1.73423e-18
3846.56120 3.86813e-18
3848.02339 8.93543e-18
3849.49560 1.02703e-17
3850.96780 6.39259e-18
3852.44001 2.12811e-18
3853.90220 5.20334e-18
3855.37440 9.63724e-18
3856.84661 1.03695e-17
3858.31881 7.24844e-18
3859.78100 6.44651e-18
3861.25320 9.09924e-18
3862.72541 8.55054e-18
3864.19762 5.26117e-18
3865.66982 7.53942e-18
3867.13201 8.21091e-18
3868.60422 1.06887e-17
3870.07642 1.06118e-17
3871.54863 6.34918e-18
3873.01082 7.20823e-18
3874.48302 1.16957e-17
3875.95523 1.12973e-17
3877.42743 1.14468e-17
3878.89964 1.16423e-17
3880.36183 1.07328e-17
3881.83403 9.41082e-18
3883.30624 8.22159e-18
3884.77844 6.87395e-18
3886.24063 1.00844e-17
3887.71284 1.28354e-17
3889.18504 1.08395e-17
3890.65725 9.37993e-18
3892.12945 9.21936e-18
3893.59164 9.69432e-18
3895.06385 8.94501e-18
3896.53605 6.25029e-18
3898.00826 9.34702e-18
3899.47045 1.54131e-17
3900.94265 1.40515e-17
3902.41486 1.11355e-17
3903.88706 1.11484e-17
3905.34925 1.28792e-17
3906.82146 1.38018e-17
3908.29366 1.17289e-17
3909.76586 1.02174e-17
3911.23807 1.43644e-17
3912.70026 1.44277e-17
3914.17247 8.85223e-18
3915.64467 8.99469e-18
3917.11688 8.23730e-18
3918.57907 7.07420e-18
3920.05127 9.63256e-18
3921.52348 1.18520e-17
3922.99568 1.28383e-17
3924.46789 1.24029e-17
3925.93008 1.31749e-17
3927.40228 1.10633e-17
3928.87448 1.03667e-17
3930.34669 1.16686e-17
3931.80888 1.27528e-17
3933.28109 1.25565e-17
3934.75329 8.18448e-18
3936.22550 7.48118e-18
3937.69770 8.23182e-18
3939.15989 1.18984e-17
3940.63210 1.41634e-17
3942.10430 1.18938e-17
3943.57651 1.00900e-17
3945.03870 1.55477e-17
3946.51090 1.69859e-17
3947.98311 1.43108e-17
3949.45531 1.12320e-17
3950.91750 8.85016e-18
3952.38971 1.13928e-17
3953.86191 1.57749e-17
3955.33412 1.52314e-17
3956.80632 1.25467e-17
3958.26851 1.04017e-17
3959.74072 9.49372e-18
3961.21292 1.10275e-17
3962.68513 1.16143e-17
3964.14732 1.31733e-17
3965.61952 1.36960e-17
3967.09173 1.24728e-17
3968.56393 1.01974e-17
3970.03614 9.77899e-18
3971.49833 1.06785e-17
3972.97053 1.30373e-17
3974.44274 1.12443e-17
3975.91494 6.52593e-18
3977.37713 5.97772e-18
3978.84933 7.36901e-18
3980.32154 8.60658e-18
3981.79374 1.13302e-17
3983.26595 1.18612e-17
3984.72814 1.20718e-17
3986.20035 9.69040e-18
3987.67255 1.34371e-17
3989.14476 1.41090e-17
3990.60695 1.22366e-17
3992.07915 1.37102e-17
3993.55136 1.00527e-17
3995.02356 1.08653e-17
3996.48575 1.14086e-17
3997.95795 1.16868e-17
3999.43016 1.19669e-17
4000.90236 1.00324e-17
4002.37457 1.23916e-17
4003.83676 1.54877e-17
4005.30897 1.27296e-17
4006.78117 1.12358e-17
4008.25338 9.81416e-18
4009.71557 1.26362e-17
4011.18777 1.37428e-17
4012.65998 8.50307e-18
4014.13218 1.07963e-17
4015.60439 1.83613e-17
4017.06658 1.31698e-17
4018.53878 1.11878e-17
4020.01098 1.34433e-17
4021.48319 1.36984e-17
4022.94538 1.34200e-17
4024.41759 1.23641e-17
4025.88979 1.41134e-17
4027.36200 1.05997e-17
4028.83420 1.25458e-17
4030.29639 1.32806e-17
4031.76860 1.35689e-17
4033.24080 1.52333e-17
4034.71301 1.06319e-17
4036.17520 7.88506e-18
4037.64740 8.32775e-18
4039.11961 1.12164e-17
4040.59181 1.55893e-17
4042.05400 1.42851e-17
4043.52621 1.33431e-17
4044.99841 1.48763e-17
4046.47062 1.09234e-17
4047.94282 1.22138e-17
4049.40501 1.42364e-17
4050.87721 1.36148e-17
4052.34942 1.08508e-17
4053.82163 1.22468e-17
4055.28382 1.52112e-17
4056.75602 1.10192e-17
4058.22823 1.06430e-17
4059.70043 1.09822e-17
4061.17264 1.27894e-17
4062.63483 1.29856e-17
4064.10703 1.37222e-17
4065.57924 1.22874e-17
4067.05144 1.24695e-17
4068.51363 1.10407e-17
4069.98583 1.03087e-17
4071.45804 1.01326e-17
4072.93025 1.26294e-17
4074.40245 1.29785e-17
4075.86464 1.20737e-17
4077.33685 1.01757e-17
4078.80905 9.88248e-18
4080.28126 1.00991e-17
4081.74345 1.25729e-17
4083.21565 1.24158e-17
4084.68786 9.88096e-18
4086.16006 1.11125e-17
4087.62225 8.73831e-18
4089.09445 8.35201e-18
4090.56666 1.09726e-17
4092.03886 1.22886e-17
4093.51107 1.24514e-17
4094.97326 1.25827e-17
4096.44546 1.31370e-17
4097.91767 9.60923e-18
4099.38987 9.40463e-18
4100.85207 8.70838e-18
4102.32427 6.90424e-18
4103.79648 6.59174e-18
4105.26868 9.35014e-18
4106.74089 1.06166e-17
4108.20308 1.07346e-17
4109.67528 9.60661e-18
4111.14749 8.60928e-18
4112.61969 1.01451e-17
4114.08188 9.49106e-18
4115.55409 1.18170e-17
4117.02629 1.07332e-17
4118.49849 1.07083e-17
4119.96069 1.30758e-17
4121.43289 1.09242e-17
4122.90510 9.72732e-18
4124.37730 9.35102e-18
4125.84951 9.75733e-18
4127.31170 1.19010e-17
4128.78390 1.02185e-17
4130.25611 8.13415e-18
4131.72831 9.25017e-18
4133.19050 9.02725e-18
4134.66271 1.03530e-17
4136.13491 8.91106e-18
4137.60711 1.01120e-17
4139.07932 1.05201e-17
4140.54151 1.04368e-17
4142.01372 1.11933e-17
4143.48592 1.13429e-17
4144.95813 9.90387e-18
4146.42032 1.06468e-17
4147.89252 1.02210e-17
4149.36472 1.17553e-17
4150.83693 9.84834e-18
4152.30914 8.97330e-18
4153.77133 9.29744e-18
4155.24353 1.06893e-17
4156.71573 9.54177e-18
4158.18794 1.00211e-17
4159.65013 7.75082e-18
4161.12234 8.48636e-18
4162.59454 1.09299e-17
4164.06675 9.14926e-18
4165.52894 7.54257e-18
4167.00114 9.04253e-18
4168.47334 1.01969e-17
4169.94555 9.40739e-18
4171.41776 1.07502e-17
4172.87995 1.05606e-17
4174.35215 8.90172e-18
4175.82435 8.37713e-18
4177.29656 1.08271e-17
4178.75875 1.02971e-17
4180.23096 9.64134e-18
4181.70316 6.91814e-18
4183.17537 9.69893e-18
4184.64757 8.55706e-18
4186.10976 7.09648e-18
4187.58197 7.83448e-18
4189.05417 6.45150e-18
4190.52638 9.25069e-18
4191.98857 9.04411e-18
4193.46077 1.06815e-17
4194.93297 1.08888e-17
4196.40518 6.96380e-18
4197.87739 4.97984e-18
4199.33957 6.21880e-18
4200.81178 6.91752e-18
4202.28399 8.70757e-18
4203.75619 7.11656e-18
4205.21838 9.67312e-18
4206.69059 9.01267e-18
4208.16279 1.06238e-17
4209.63500 1.09066e-17
4211.09719 8.83386e-18
4212.56939 8.24947e-18
4214.04159 7.91328e-18
4215.51380 9.61542e-18
4216.98601 8.81469e-18
4218.44819 8.85811e-18
4219.92040 9.88094e-18
4221.39261 9.84784e-18
4222.86481 9.08276e-18
4224.32700 8.35503e-18
4225.79921 8.49624e-18
4227.27141 1.05500e-17
4228.74362 1.00340e-17
4230.21582 8.90522e-18
4231.67801 1.13904e-17
4233.15022 9.07245e-18
4234.62242 9.22323e-18
4236.09463 9.37400e-18
4237.55681 9.52476e-18
4239.02902 9.67550e-18
4240.50122 9.82624e-18
4241.97343 9.97696e-18
4243.43562 1.01277e-17
4244.90783 1.02784e-17
4246.38003 1.02780e-17
4247.85224 1.00214e-17
4249.32444 1.03868e-17
4250.78663 1.03730e-17
4252.25884 1.02827e-17
4253.73104 1.17221e-17
4255.20325 8.33999e-18
4256.66543 1.29318e-17
4258.13764 1.15472e-17
4259.60984 8.84433e-18
4261.08205 8.70788e-18
4262.55426 8.82122e-18
4264.01645 1.16259e-17
4265.48865 1.06276e-17
4266.96086 9.90849e-18
4268.43306 9.49703e-18
4269.89525 1.11847e-17
4271.36746 1.17251e-17
4272.83966 1.01210e-17
4274.31186 9.41163e-18
4275.78407 1.05868e-17
4277.24626 1.06373e-17
4278.71847 1.09060e-17
4280.19067 1.03066e-17
4281.66287 1.06901e-17
4283.12507 1.07695e-17
4284.59727 1.06080e-17
4286.06948 1.02992e-17
4287.54168 9.35545e-18
4289.01389 1.16306e-17
4290.47608 1.00666e-17
4291.94828 1.16766e-17
4293.42048 8.34061e-18
4294.89269 1.02781e-17
4296.35488 9.86673e-18
4297.82709 9.90039e-18
4299.29929 9.88156e-18
4300.77149 1.29518e-17
4302.23369 1.13637e-17
4303.70589 1.07928e-17
4305.17810 8.19543e-18
4306.65030 8.56546e-18
4308.12251 9.84544e-18
4309.58470 9.78097e-18
4311.05690 7.68904e-18
4312.52910 8.88377e-18
4314.00131 8.39135e-18
4315.46350 9.24496e-18
4316.93571 1.03514e-17
4318.40791 8.82936e-18
4319.88011 1.11441e-17
4321.35232 1.00391e-17
4322.81451 9.19245e-18
4324.28672 1.08669e-17
4325.75892 1.22256e-17
4327.23113 1.15042e-17
4328.69332 1.07335e-17
4330.16552 9.21215e-18
4331.63772 9.12307e-18
4333.10993 1.05501e-17
4334.57212 1.07252e-17
4336.04433 1.11943e-17
4337.51653 9.94070e-18
4338.98873 8.95676e-18
4340.46094 8.78187e-18
4341.92313 1.00521e-17
4343.39534 8.21495e-18
4344.86754 9.55467e-18
4346.33975 9.71320e-18
4347.80194 8.75320e-18
4349.27414 9.45301e-18
4350.74634 8.53819e-18
4352.21855 8.55869e-18
4353.69076 8.57919e-18
4355.15295 8.59969e-18
4356.62515 8.62018e-18
4358.09735 8.64068e-18
4359.56956 8.66117e-18
4361.03175 8.68166e-18
4362.50396 8.70215e-18
4363.97616 8.72263e-18
4365.44837 8.74312e-18
4366.92057 8.76360e-18
4368.38276 8.78408e-18
4369.85497 8.80456e-18
4371.32717 8.82503e-18
4372.79938 8.84551e-18
4374.26157 8.86598e-18
4375.73377 8.88645e-18
4377.20597 8.90692e-18
4378.67818 8.92739e-18
4380.14037 8.94785e-18
4381.61258 8.96832e-18
4383.08478 8.98877e-18
4384.55699 9.00924e-18
4386.02919 9.02969e-18
4387.49138 9.05014e-18
4388.96359 9.07060e-18
4390.43579 9.59194e-18
4391.90800 1.02569e-17
4393.37018 1.08648e-17
4394.84239 1.02625e-17
4396.31459 8.99257e-18
4397.78680 7.77480e-18
4399.25900 8.79308e-18
4400.72120 1.10437e-17
4402.19340 1.15297e-17
4403.66561 1.00887e-17
4405.13781 8.01342e-18
4406.60000 9.39393e-18
4408.07221 1.07645e-17
4409.54441 8.58840e-18
4411.01662 9.03331e-18
4412.48882 9.98312e-18
4413.95101 1.01014e-17
4415.42322 9.67287e-18
4416.89542 9.40793e-18
4418.36762 9.57875e-18
4419.82982 1.02546e-17
4421.30202 1.03273e-17
4422.77423 9.52612e-18
4424.24643 9.84327e-18
4425.70862 9.24228e-18
4427.18083 9.40757e-18
4428.65303 1.01814e-17
4430.12524 9.31298e-18
4431.59744 9.53549e-18
4433.05963 9.68178e-18
4434.53184 1.08816e-17
4436.00404 8.71045e-18
4437.47624 1.02538e-17
4438.93844 1.16746e-17
4440.41064 8.42307e-18
4441.88285 7.98550e-18
4443.35505 8.49555e-18
4444.82726 9.09889e-18
4446.28945 9.73622e-18
4447.76165 9.57490e-18
4449.23386 9.49088e-18
4450.70606 1.07046e-17
4452.16825 1.04863e-17
4453.64046 1.01606e-17
4455.11266 7.79012e-18
4456.58486 9.37364e-18
4458.05707 1.10251e-17
4459.51926 1.05586e-17
4460.99147 8.81835e-18
4462.46367 1.00390e-17
4463.93588 9.80701e-18
4465.39807 9.20238e-18
4466.87027 1.04390e-17
4468.34247 1.06821e-17
4469.81468 9.96014e-18
4471.27687 9.72331e-18
4472.74908 9.89754e-18
4474.22128 9.38561e-18
4475.69348 1.01467e-17
4477.16569 1.04583e-17
4478.62788 1.16388e-17
4480.10009 1.10982e-17
4481.57229 1.12646e-17
4483.04450 1.25317e-17
4484.50669 1.06943e-17
4485.97889 1.16675e-17
4487.45109 1.11158e-17
4488.92330 1.10702e-17
4490.39551 1.38532e-17
4491.85770 1.23812e-17
4493.32990 1.17312e-17
4494.80210 1.21566e-17
4496.27431 1.28825e-17
4497.73650 1.30149e-17
4499.20871 1.24439e-17
4500.68091 1.28324e-17
4502.15312 1.33001e-17
4503.62532 1.25851e-17
4505.08751 1.34896e-17
4506.55972 1.45917e-17
4508.03192 1.39366e-17
4509.50413 1.37205e-17
4510.96632 1.18511e-17
4512.43852 1.22552e-17
4513.91072 1.34216e-17
4515.38293 1.30508e-17
4516.84512 1.46271e-17
4518.31733 1.32011e-17
4519.78953 1.24842e-17
4521.26174 1.37396e-17
4522.73394 1.35759e-17
4524.19613 1.42037e-17
4525.66834 1.46238e-17
4527.14054 1.42534e-17
4528.61275 1.55111e-17
4530.07494 1.57618e-17
4531.54714 1.38117e-17
4533.01934 1.30896e-17
4534.49155 1.42368e-17
4535.96376 1.41575e-17
4537.42594 1.36703e-17
4538.89815 1.42283e-17
4540.37036 1.30435e-17
4541.84256 1.32185e-17
4543.30475 1.48760e-17
4544.77696 1.50565e-17
4546.24916 1.58065e-17
4547.72137 1.46944e-17
4549.19357 1.51143e-17
4550.65576 1.63918e-17
4552.12797 1.46760e-17
4553.60017 1.42835e-17
4555.07238 1.54702e-17
4556.53456 1.59754e-17
4558.00677 1.66676e-17
4559.47897 1.63969e-17
4560.95118 1.46349e-17
4562.41337 1.49667e-17
4563.88558 1.61038e-17
4565.35778 1.52485e-17
4566.82999 1.43199e-17
4568.30219 1.60468e-17
4569.76438 1.86142e-17
4571.23659 1.76312e-17
4572.70879 1.70179e-17
4574.18100 1.72968e-17
4575.64318 1.52873e-17
4577.11539 1.54408e-17
4578.58759 1.62513e-17
4580.05980 1.67510e-17
4581.53201 1.60375e-17
4582.99420 1.49637e-17
4584.46640 1.47470e-17
4585.93861 1.48844e-17
4587.41081 1.54935e-17
4588.87300 1.54922e-17
4590.34521 1.58137e-17
4591.81741 1.73692e-17
4593.28961 1.58714e-17
4594.76182 1.40180e-17
4596.22401 1.55406e-17
4597.69622 1.66164e-17
4599.16842 1.61371e-17
4600.64062 1.56453e-17
4602.10282 1.69968e-17
4603.57502 1.64114e-17
4605.04723 1.57989e-17
4606.51943 1.69314e-17
4607.98162 1.64651e-17
4609.45383 1.66262e-17
4610.92603 1.74156e-17
4612.39823 1.62915e-17
4613.87044 1.60093e-17
4615.33263 1.61484e-17
4616.80484 1.67422e-17
4618.27704 1.62719e-17
4619.74924 1.56142e-17
4621.21144 1.59997e-17
4622.68364 1.65536e-17
4624.15585 1.52895e-17
4625.62805 1.53956e-17
4627.10026 1.48493e-17
4628.56245 1.49269e-17
4630.03465 1.73861e-17
4631.50685 1.67082e-17
4632.97906 1.59184e-17
4634.44125 1.66255e-17
4635.91346 1.58521e-17
4637.38566 1.56238e-17
4638.85786 1.57038e-17
4640.32006 1.54664e-17
4641.79226 1.61454e-17
4643.26447 1.62941e-17
4644.73667 1.65235e-17
4646.20888 1.56779e-17
4647.67107 1.59945e-17
4649.14327 1.51997e-17
4650.61547 1.45759e-17
4652.08768 1.48023e-17
4653.54987 1.56267e-17
4655.02208 1.53527e-17
4656.49428 1.60932e-17
4657.96648 1.67003e-17
4659.43869 1.55736e-17
4660.90088 1.54543e-17
4662.37309 1.59363e-17
4663.84529 1.44219e-17
4665.31750 1.38316e-17
4666.77969 1.43039e-17
4668.25189 1.50169e-17
4669.72409 1.61748e-17
4671.19630 1.48819e-17
4672.66851 1.36429e-17
4674.13070 1.41697e-17
4675.60290 1.49131e-17
4677.07510 1.43290e-17
4678.54731 1.28919e-17
4680.00950 1.50838e-17
4681.48171 1.59458e-17
4682.95391 1.41181e-17
4684.42612 1.42894e-17
4685.89832 1.44619e-17
4687.36051 1.44517e-17
4688.83272 1.44416e-17
4690.30492 1.44314e-17
4691.77713 1.44213e-17
4693.23932 1.44111e-17
4694.71152 1.44009e-17
4696.18372 1.43908e-17
4697.65593 1.43806e-17
4699.11812 1.43705e-17
4700.59033 1.43603e-17
4702.06253 1.43501e-17
4703.53474 1.43400e-17
4705.00694 1.43298e-17
4706.46913 1.43197e-17
4707.94134 1.43095e-17
4709.41354 1.42994e-17
4710.88575 1.42892e-17
4712.34793 1.42791e-17
4713.82014 1.42784e-17
4715.29234 1.39927e-17
4716.76455 1.27636e-17
4718.23675 1.24888e-17
4719.69895 1.22170e-17
4721.17115 1.23865e-17
4722.64336 1.26587e-17
4724.11556 1.33540e-17
4725.57775 1.31159e-17
4727.04996 1.23398e-17
4728.52216 1.23482e-17
4729.99437 1.27592e-17
4731.45655 1.25471e-17
4732.92876 1.12100e-17
4734.40097 1.22905e-17
4735.87317 1.33198e-17
4737.34537 1.13278e-17
4738.80757 1.16621e-17
4740.27977 1.28406e-17
4741.75198 1.36819e-17
4743.22418 1.35698e-17
4744.68637 1.31321e-17
4746.15858 1.32985e-17
4747.63078 1.31655e-17
4749.10299 1.27278e-17
4750.57519 1.15811e-17
4752.03738 1.10839e-17
4753.50959 1.15804e-17
4754.98179 1.22667e-17
4756.45399 1.19490e-17
4757.91619 1.21009e-17
4759.38839 1.24084e-17
4760.86060 1.24911e-17
4762.33280 1.19138e-17
4763.80501 1.21834e-17
4765.26720 1.28395e-17
4766.73940 1.24327e-17
4768.21161 1.26265e-17
4769.68381 1.19757e-17
4771.14600 1.18353e-17
4772.61821 1.20831e-17
4774.09041 1.09704e-17
4775.56261 1.08986e-17
4777.03482 1.16740e-17
4778.49701 1.16623e-17
4779.96922 1.17266e-17
4781.44142 1.14073e-17
4782.91363 1.10117e-17
4784.37582 1.13221e-17
4785.84802 1.14318e-17
4787.32022 1.07496e-17
4788.79243 1.12100e-17
4790.25462 1.15267e-17
4791.72683 1.15938e-17
4793.19903 1.12915e-17
4794.67123 1.12069e-17
4796.14344 1.12127e-17
4797.60563 1.06044e-17
4799.07784 1.04511e-17
4800.55004 1.01507e-17
4802.02225 1.04031e-17
4803.48444 1.00087e-17
4804.95664 9.27952e-18
4806.42884 1.00446e-17
4807.90105 9.80139e-18
4809.37326 1.02241e-17
4810.83545 1.09423e-17
4812.30765 1.06451e-17
4813.77985 1.06193e-17
4815.25206 1.09244e-17
4816.71425 1.10269e-17
4818.18646 1.06583e-17
4819.65866 1.11984e-17
4821.13087 1.17899e-17
4822.59306 1.16374e-17
4824.06526 1.14477e-17
4825.53747 1.10551e-17
4827.00967 1.03118e-17
4828.48188 1.07609e-17
4829.94407 1.16744e-17
4831.41627 1.06723e-17
4832.88847 9.99139e-18
4834.36068 1.04956e-17
4835.82287 1.06035e-17
4837.29508 1.11507e-17
4838.76728 1.15867e-17
4840.23949 1.17098e-17
4841.71169 1.17171e-17
4843.17388 1.15723e-17
4844.64609 1.06765e-17
4846.11829 1.05063e-17
4847.59050 1.20104e-17
4849.05269 1.24297e-17
4850.52489 1.18919e-17
4851.99709 1.18372e-17
4853.46930 1.17825e-17
4854.93149 1.17278e-17
4856.40369 1.16730e-17
4857.87590 1.16184e-17
4859.34811 1.15636e-17
4860.82031 1.15090e-17
4862.28250 1.14543e-17
4863.75471 1.13996e-17
4865.22691 1.13449e-17
4866.69912 1.12903e-17
4868.16131 1.12356e-17
4869.63351 1.11809e-17
4871.10572 1.11263e-17
4872.57792 1.10716e-17
4874.05013 1.10170e-17
4875.51231 1.09623e-17
4876.98452 1.09077e-17
4878.45673 1.08531e-17
4879.92893 1.07985e-17
4881.39112 1.07439e-17
4882.86333 1.06892e-17
4884.33553 1.06346e-17
4885.80774 1.05800e-17
4887.27994 1.05254e-17
4888.74213 1.00836e-17
4890.21434 1.05108e-17
4891.68654 1.07136e-17
4893.15875 1.09822e-17
4894.62093 1.07578e-17
4896.09314 9.97385e-18
4897.56534 1.00295e-17
4899.03755 1.07780e-17
4900.50976 1.08492e-17
4901.97195 1.07713e-17
4903.44415 1.08344e-17
4904.91636 1.17230e-17
4906.38856 1.20404e-17
4907.85075 1.14098e-17
4909.32296 1.15856e-17
4910.79516 1.10462e-17
4912.26736 1.10107e-17
4913.72955 1.11551e-17
4915.20176 1.05223e-17
4916.67397 1.05175e-17
4918.14617 1.11641e-17
4919.61838 1.19393e-17
4921.08057 1.21280e-17
4922.55277 1.22747e-17
4924.02498 1.27679e-17
4925.49718 1.16936e-17
4926.95937 1.08378e-17
4928.43158 1.16316e-17
4929.90378 1.20147e-17
4931.37598 1.19058e-17
4932.84819 1.20137e-17
4934.31038 1.27997e-17
4935.78259 1.31962e-17
4937.25479 1.32202e-17
4938.72699 1.25180e-17
4940.18919 1.16940e-17
4941.66139 1.25646e-17
4943.13360 1.37365e-17
4944.60580 1.35884e-17
4946.06799 1.29403e-17
4947.54020 1.36352e-17
4949.01240 1.36370e-17
4950.48460 1.36389e-17
4951.95681 1.36408e-17
4953.41900 1.36427e-17
4954.89121 1.36445e-17
4956.36341 1.36464e-17
4957.83561 1.36483e-17
4959.29781 1.36501e-17
4960.77001 1.36520e-17
4962.24222 1.36539e-17
4963.71442 1.36557e-17
4965.18663 1.36576e-17
4966.64882 1.36595e-17
4968.12102 1.36613e-17
4969.59322 1.36632e-17
4971.06543 1.36651e-17
4972.52762 1.36669e-17
4973.99983 1.36688e-17
4975.47203 1.36707e-17
4976.94423 1.36726e-17
4978.41644 1.36744e-17
4979.87863 1.36763e-17
4981.35084 1.36782e-17
4982.82304 1.36800e-17
4984.29525 1.36819e-17
4985.75744 1.36838e-17
4987.22964 1.34360e-17
4988.70184 1.29988e-17
4990.17405 1.27384e-17
4991.63624 1.30171e-17
4993.10845 1.31779e-17
4994.58065 1.32326e-17
4996.05285 1.38994e-17
4997.52506 1.37906e-17
4998.98725 1.36818e-17
5000.45946 1.35730e-17
5001.93166 1.34642e-17
5003.40387 1.33554e-17
5004.86606 1.32467e-17
5006.33826 1.31379e-17
5007.81047 1.30292e-17
5009.28267 1.29204e-17
5010.75488 1.28117e-17
5012.21707 1.27030e-17
5013.68927 1.25943e-17
5015.16147 1.24856e-17
5016.63368 1.23769e-17
5018.09587 1.22682e-17
5019.56808 1.21596e-17
5021.04028 1.20509e-17
5022.51249 1.19422e-17
5023.98469 1.18336e-17
5025.44688 1.17250e-17
5026.91909 1.16164e-17
5028.39129 1.15078e-17
5029.86350 1.13992e-17
5031.32569 1.12906e-17
5032.79789 1.11820e-17
5034.27009 1.07088e-17
5035.74230 1.15141e-17
5037.20449 1.14251e-17
5038.67670 1.10438e-17
5040.14890 1.01846e-17
5041.62111 9.57212e-18
5043.09331 1.00009e-17
5044.55550 1.05254e-17
5046.02771 1.06747e-17
5047.49991 1.06008e-17
5048.97212 1.02139e-17
5050.43430 1.03359e-17
5051.90651 1.00056e-17
5053.37872 9.17449e-18
5054.85092 9.74524e-18
5056.32312 1.09988e-17
5057.78532 1.08274e-17
5059.25752 1.03210e-17
5060.72973 9.97469e-18
5062.20193 9.39463e-18
5063.66412 9.71656e-18
5065.13633 9.77584e-18
5066.60853 9.45476e-18
5068.08074 9.73088e-18
5069.55294 9.71851e-18
5071.01513 9.68718e-18
5072.48734 1.02372e-17
5073.95954 1.05338e-17
5075.43174 1.01817e-17
5076.89394 1.08248e-17
5078.36614 1.13342e-17
5079.83835 1.14764e-17
5081.31055 1.06889e-17
5082.77274 9.65714e-18
5084.24495 8.97492e-18
5085.71715 9.82408e-18
5087.18936 1.14618e-17
5088.66156 1.13898e-17
5090.12375 1.09037e-17
5091.59596 1.04584e-17
5093.06816 9.56467e-18
5094.54036 1.03014e-17
5096.00256 1.10235e-17
5097.47476 1.06269e-17
5098.94697 1.11448e-17
5100.41917 1.20687e-17
5101.89138 1.23924e-17
5103.35357 1.26698e-17
5104.82577 1.19648e-17
5106.29797 1.21166e-17
5107.77018 1.27000e-17
5109.23237 1.17830e-17
5110.70458 1.20873e-17
5112.17678 1.20913e-17
5113.64898 1.21127e-17
5115.11118 1.23517e-17
5116.58338 1.19047e-17
5118.05559 1.25764e-17
5119.52779 1.33877e-17
5121.00000 1.30621e-17
5122.46219 1.22769e-17
5123.93439 1.30574e-17
5125.40659 1.36121e-17
5126.87880 1.31964e-17
5128.34099 1.32203e-17
5129.81320 1.32093e-17
5131.28540 1.26858e-17
5132.75760 1.24352e-17
5134.22981 1.25303e-17
5135.69200 1.30259e-17
5137.16421 1.24873e-17
5138.63641 1.24543e-17
5140.10862 1.16876e-17
5141.57081 1.22752e-17
5143.04301 1.32659e-17
5144.51522 1.29148e-17
5145.98742 1.34895e-17
5147.45963 1.36127e-17
5148.92182 1.30980e-17
5150.39402 1.36198e-17
5151.86622 1.38439e-17
5153.33843 1.31204e-17
5154.80062 1.21230e-17
5156.27283 1.22693e-17
5157.74503 1.25639e-17
5159.21724 1.27885e-17
5160.68944 1.35750e-17
5162.15163 1.37007e-17
5163.62384 1.35276e-17
5165.09604 1.35242e-17
5166.56825 1.35816e-17
5168.03044 1.39695e-17
5169.50264 1.33405e-17
5170.97484 1.31457e-17
5172.44705 1.38540e-17
5173.90924 1.36532e-17
5175.38144 1.38276e-17
5176.85365 1.35685e-17
5178.32586 1.28970e-17
5179.79806 1.34506e-17
5181.26025 1.28138e-17
5182.73246 1.24127e-17
5184.20466 1.31618e-17
5185.67687 1.36485e-17
5187.13906 1.39366e-17
5188.61126 1.35807e-17
5190.08347 1.37919e-17
5191.55567 1.45504e-17
5193.02788 1.42727e-17
5194.49006 1.38274e-17
5195.96227 1.41464e-17
5197.43448 1.40846e-17
5198.90668 1.40598e-17
5200.36887 1.34178e-17
5201.84108 1.34962e-17
5203.31328 1.40898e-17
5204.78549 1.41458e-17
5206.24768 1.50835e-17
5207.71988 1.56340e-17
5209.19209 1.47814e-17
5210.66429 1.43769e-17
5212.13650 1.51878e-17
5213.59868 1.56588e-17
5215.07089 1.45863e-17
5216.54309 1.41402e-17
5218.01530 1.54897e-17
5219.47749 1.56746e-17
5220.94970 1.46958e-17
5222.42190 1.54761e-17
5223.89411 1.48913e-17
5225.36631 1.50532e-17
5226.82850 1.52150e-17
5228.30071 1.53769e-17
5229.77291 1.55387e-17
5231.24511 1.57005e-17
5232.70730 1.58623e-17
5234.17951 1.60241e-17
5235.65172 1.61858e-17
5237.12392 1.63476e-17
5238.58611 1.65094e-17
5240.05832 1.65087e-17
5241.53052 1.59207e-17
5243.00273 1.45117e-17
5244.47493 1.53235e-17
5245.93712 1.58971e-17
5247.40933 1.47954e-17
5248.88153 1.54380e-17
5250.35373 1.57959e-17
5251.81592 1.51769e-17
5253.28813 1.54843e-17
5254.76034 1.55390e-17
5256.23254 1.49138e-17
5257.70475 1.51319e-17
5259.16694 1.61193e-17
5260.63914 1.58484e-17
5262.11135 1.53860e-17
5263.58355 1.62073e-17
5265.04574 1.69464e-17
5266.51795 1.62580e-17
5267.99015 1.56448e-17
5269.46235 1.54370e-17
5270.93456 1.51731e-17
5272.39675 1.46805e-17
5273.86896 1.46531e-17
5275.34116 1.60655e-17
5276.81336 1.52718e-17
5278.27556 1.48741e-17
5279.74776 1.60431e-17
5281.21997 1.61210e-17
5282.69217 1.57804e-17
5284.16438 1.49671e-17
5285.62657 1.51498e-17
5287.09877 1.58547e-17
5288.57097 1.67236e-17
5290.04318 1.58007e-17
5291.50537 1.49487e-17
5292.97758 1.59219e-17
5294.44978 1.56016e-17
5295.92198 1.59824e-17
5297.38418 1.64612e-17
5298.85638 1.54107e-17
5300.32859 1.56795e-17
5301.80079 1.59959e-17
5303.27300 1.55930e-17
5304.73519 1.60453e-17
5306.20739 1.59697e-17
5307.67959 1.54240e-17
5309.15180 1.55975e-17
5310.61399 1.64475e-17
5312.08620 1.62800e-17
5313.55840 1.60341e-17
5315.03060 1.63795e-17
5316.50281 1.57266e-17
5317.96500 1.47273e-17
5319.43721 1.47904e-17
5320.90941 1.59688e-17
5322.38162 1.53706e-17
5323.84381 1.53579e-17
5325.31601 1.59601e-17
5326.78822 1.56470e-17
5328.26042 1.51785e-17
5329.72261 1.49651e-17
5331.19482 1.52372e-17
5332.66702 1.56096e-17
5334.13922 1.55244e-17
5335.61143 1.50175e-17
5337.07362 1.52351e-17
5338.54583 1.51007e-17
5340.01803 1.56709e-17
5341.49024 1.50225e-17
5342.95243 1.51445e-17
5344.42463 1.50432e-17
5345.89684 1.50175e-17
5347.36904 1.53190e-17
5348.84125 1.64907e-17
5350.30344 1.60868e-17
5351.77564 1.51415e-17
5353.24784 1.54731e-17
5354.72005 1.54868e-17
5356.18224 1.61684e-17
5357.65445 1.53302e-17
5359.12665 1.49164e-17
5360.59886 1.60424e-17
5362.06105 1.62151e-17
5363.53325 1.63830e-17
5365.00546 1.58909e-17
5366.47766 1.52112e-17
5367.94987 1.54458e-17
5369.41205 1.56848e-17
5370.88426 1.55277e-17
5372.35647 1.50163e-17
5373.82867 1.54576e-17
5375.29086 1.59252e-17
5376.76307 1.49650e-17
5378.23527 1.45310e-17
5379.70748 1.46195e-17
5381.17968 1.49224e-17
5382.64187 1.43180e-17
5384.11408 1.39856e-17
5385.58628 1.43397e-17
5387.05849 1.42493e-17
5388.52067 1.42488e-17
5389.99288 1.42370e-17
5391.46509 1.48274e-17
5392.93729 1.49037e-17
5394.40949 1.41985e-17
5395.87169 1.43191e-17
5397.34389 1.34852e-17
5398.81610 1.39804e-17
5400.28830 1.49323e-17
5401.75049 1.47680e-17
5403.22270 1.36985e-17
5404.69490 1.43584e-17
5406.16711 1.43351e-17
5407.63931 1.51775e-17
5409.10150 1.38537e-17
5410.57371 1.38666e-17
5412.04591 1.38454e-17
5413.51811 1.34304e-17
5414.98031 1.30820e-17
5416.45251 1.44841e-17
5417.92472 1.44023e-17
5419.39692 1.36147e-17
5420.85911 1.30157e-17
5422.33132 1.37328e-17
5423.80352 1.39320e-17
5425.27572 1.38986e-17
5426.74793 1.40492e-17
5428.21012 1.45384e-17
5429.68233 1.46173e-17
5431.15453 1.44449e-17
5432.62673 1.38962e-17
5434.08893 1.32626e-17
5435.56113 1.35974e-17
5437.03334 1.36520e-17
5438.50554 1.38380e-17
5439.97775 1.41904e-17
5441.43994 1.44069e-17
5442.91214 1.37543e-17
5444.38434 1.51156e-17
5445.85655 1.54026e-17
5447.31874 1.46093e-17
5448.79095 1.45555e-17
5450.26315 1.59356e-17
5451.73535 1.59354e-17
5453.19754 1.46956e-17
5454.66975 1.48085e-17
5456.14196 1.41494e-17
5457.61416 1.40933e-17
5459.08637 1.41329e-17
5460.54856 1.52503e-17
5462.02076 1.47031e-17
5463.49297 1.42760e-17
5464.96517 1.49435e-17
5466.42736 1.51109e-17
5467.89957 1.45563e-17
5469.37177 1.46487e-17
5470.84397 1.49696e-17
5472.31618 1.48267e-17
5473.77837 1.45146e-17
5475.25058 1.50876e-17
5476.72278 1.48241e-17
5478.19499 1.50210e-17
5479.65718 1.47323e-17
5481.12938 1.42609e-17
5482.60159 1.51327e-17
5484.07379 1.48052e-17
5485.54600 1.51329e-17
5487.00819 1.44904e-17
5488.48039 1.43360e-17
5489.95259 1.39762e-17
5491.42480 1.40880e-17
5492.88699 1.39538e-17
5494.35919 1.52120e-17
5495.83140 1.48564e-17
5497.30361 1.46699e-17
5498.77581 1.43956e-17
5500.23800 1.41647e-17
5501.71021 1.40435e-17
5503.18241 1.44933e-17
5504.65462 1.43142e-17
5506.11681 1.39841e-17
5507.58901 1.44823e-17
5509.06122 1.37872e-17
5510.53342 1.44468e-17
5511.99561 1.47259e-17
5513.46781 1.40779e-17
5514.94002 1.35138e-17
5516.41223 1.37789e-17
5517.88443 1.42194e-17
5519.34662 1.35224e-17
5520.81883 1.37459e-17
5522.29103 1.35444e-17
5523.76324 1.33723e-17
5525.22543 1.21408e-17
5526.69763 1.26146e-17
5528.16984 1.23110e-17
5529.64204 1.21564e-17
5531.11425 1.26461e-17
5532.57643 1.29690e-17
5534.04864 1.29679e-17
5535.52085 1.17346e-17
5536.99305 1.17965e-17
5538.45524 1.20499e-17
5539.92745 1.28444e-17
5541.39965 1.28603e-17
5542.87186 1.14457e-17
5544.33404 1.15395e-17
5545.80625 1.10118e-17
5547.27846 1.11442e-17
5548.75066 1.10638e-17
5550.22286 1.05163e-17
5551.68505 1.06144e-17
5553.15726 9.94512e-18
5554.62947 1.03623e-17
5556.10167 1.02674e-17
5557.56386 9.78701e-18
5559.03607 1.01840e-17
5560.50827 1.07417e-17
5561.98048 1.04835e-17
5563.45268 1.00375e-17
5564.91487 9.91884e-18
5566.38708 9.62306e-18
5567.85928 9.00699e-18
5569.33148 9.25807e-18
5570.79367 9.13573e-18
5572.26588 9.10292e-18
5573.73809 9.70950e-18
5575.21029 9.67375e-18
5576.68250 9.10848e-18
5578.14469 1.01167e-17
5579.61689 9.90024e-18
5581.08910 9.37874e-18
5582.56130 8.20328e-18
5584.02349 8.82114e-18
5585.49570 8.99534e-18
5586.96790 8.99350e-18
5588.44010 8.97570e-18
5589.90229 9.26113e-18
5591.37450 8.88513e-18
5592.84671 7.91917e-18
5594.31891 8.74619e-18
5595.79111 8.52402e-18
5597.25331 7.20847e-18
5598.72551 7.86514e-18
5600.19772 7.33977e-18
5601.66992 7.88763e-18
5603.13211 8.29187e-18
5604.60432 7.93953e-18
5606.07652 7.51267e-18
5607.54872 8.20346e-18
5609.02093 8.29405e-18
5610.48312 7.26584e-18
5611.95533 6.67681e-18
5613.42753 7.32037e-18
5614.89973 7.84814e-18
5616.36193 7.37549e-18
5617.83413 7.43744e-18
5619.30634 7.22012e-18
5620.77854 7.43852e-18
5622.25075 7.30794e-18
5623.71294 7.10549e-18
5625.18514 7.00635e-18
5626.65734 6.29614e-18
5628.12955 6.46589e-18
5629.59174 6.99484e-18
5631.06395 6.22146e-18
5632.53615 5.74155e-18
5634.00835 6.13101e-18
5635.47055 6.22056e-18
5636.94275 6.40977e-18
5638.41496 5.93335e-18
5639.88716 5.29223e-18
5641.35937 6.01833e-18
5642.82156 6.08429e-18
5644.29376 6.27481e-18
5645.76597 6.73906e-18
5647.23817 6.49968e-18
5648.70036 6.20224e-18
5650.17257 5.76947e-18
5651.64477 5.53926e-18
5653.11697 5.69367e-18
5654.58918 5.79692e-18
5656.05137 5.91708e-18
5657.52358 5.97896e-18
5658.99578 5.98694e-18
5660.46799 5.83269e-18
5661.93018 6.06080e-18
5663.40238 6.08483e-18
5664.87459 5.64747e-18
5666.34679 5.51319e-18
5667.81900 5.59831e-18
5669.28119 6.14673e-18
5670.75339 5.97475e-18
5672.22559 5.70628e-18
5673.69780 5.97471e-18
5675.15999 5.80426e-18
5676.63220 5.37951e-18
5678.10440 5.60349e-18
5679.57661 6.41376e-18
5681.03880 6.04555e-18
5682.51100 5.41488e-18
5683.98321 5.99584e-18
5685.45541 6.24337e-18
5686.92762 6.12525e-18
5688.38980 6.12793e-18
5689.86201 5.42707e-18
5691.33422 5.79034e-18
5692.80642 6.48243e-18
5694.26861 5.90661e-18
5695.74082 5.98224e-18
5697.21302 6.68864e-18
5698.68523 6.76971e-18
5700.15743 6.19625e-18
5701.61962 5.98327e-18
5703.09183 6.38431e-18
5704.56403 6.55103e-18
5706.03624 6.34341e-18
5707.49842 6.39705e-18
5708.97063 6.30204e-18
5710.44284 6.43052e-18
5711.91504 6.56046e-18
5713.37723 6.18093e-18
5714.84944 6.34864e-18
5716.32164 7.00066e-18
5717.79385 7.15001e-18
5719.26605 6.69048e-18
5720.72824 6.49636e-18
5722.20045 7.02753e-18
5723.67265 7.21067e-18
5725.14486 6.66399e-18
5726.60704 6.73436e-18
5728.07925 6.94611e-18
5729.55146 7.17472e-18
5731.02366 7.65092e-18
5732.49586 7.53710e-18
5733.95806 7.40040e-18
5735.43026 7.48351e-18
5736.90247 7.55498e-18
5738.37467 7.78923e-18
5739.83686 7.81488e-18
5741.30907 7.97154e-18
5742.78127 7.72600e-18
5744.25347 8.19806e-18
5745.72568 8.46689e-18
5747.18787 7.73076e-18
5748.66008 7.81472e-18
5750.13228 7.56022e-18
5751.60448 8.19411e-18
5753.06668 8.89889e-18
5754.53888 8.49147e-18
5756.01109 7.88517e-18
5757.48329 8.10182e-18
5758.95550 8.13424e-18
5760.41769 8.47929e-18
5761.88989 8.25208e-18
5763.36209 8.27463e-18
5764.83430 8.52837e-18
5766.29649 8.84914e-18
5767.76870 9.10399e-18
5769.24090 8.78797e-18
5770.71310 8.75646e-18
5772.17530 8.97921e-18
5773.64750 9.51344e-18
5775.11971 9.85722e-18
5776.59191 9.72645e-18
5778.06412 9.42545e-18
5779.52631 9.29620e-18
5780.99851 9.59212e-18
5782.47072 9.37048e-18
5783.94292 9.83728e-18
5785.40511 1.04243e-17
5786.87732 1.04228e-17
5788.34952 1.05280e-17
5789.82172 1.02271e-17
5791.29393 1.01203e-17
5792.75612 1.05669e-17
5794.22833 1.02005e-17
5795.70053 1.01396e-17
5797.17274 1.04832e-17
5798.63493 1.04807e-17
5800.10713 1.02688e-17
5801.57934 1.01552e-17
5803.05154 1.05095e-17
5804.51373 1.13946e-17
5805.98594 1.06463e-17
5807.45814 1.08150e-17
5808.93034 1.19326e-17
5810.40255 1.14327e-17
5811.86474 1.08124e-17
5813.33695 1.11749e-17
5814.80915 1.16176e-17
5816.28136 1.18804e-17
5817.74355 1.12713e-17
5819.21575 1.14342e-17
5820.68796 1.18911e-17
5822.16016 1.16380e-17
5823.63237 1.22507e-17
5825.09456 1.30684e-17
5826.56676 1.26381e-17
5828.03897 1.27431e-17
5829.51117 1.30468e-17
5830.97336 1.28031e-17
5832.44556 1.28926e-17
5833.91777 1.32277e-17
5835.38998 1.31613e-17
5836.85217 1.28399e-17
5838.32437 1.26473e-17
5839.79658 1.27930e-17
5841.26878 1.30335e-17
5842.74099 1.32697e-17
5844.20318 1.31652e-17
5845.67538 1.34768e-17
5847.14759 1.35157e-17
5848.61979 1.33109e-17
5850.08198 1.39654e-17
5851.55418 1.39525e-17
5853.02639 1.32396e-17
5854.49860 1.28351e-17
5855.97080 1.28373e-17
5857.43299 1.33910e-17
5858.90520 1.42376e-17
5860.37740 1.38152e-17
5861.84961 1.35409e-17
5863.31180 1.35466e-17
5864.78400 1.34449e-17
5866.25621 1.31476e-17
5867.72841 1.34016e-17
5869.20061 1.38097e-17
5870.66280 1.33198e-17
5872.13501 1.35708e-17
5873.60722 1.39886e-17
5875.07942 1.33784e-17
5876.54161 1.38361e-17
5878.01382 1.44389e-17
5879.48602 1.39135e-17
5880.95823 1.37475e-17
5882.43043 1.39250e-17
5883.89262 1.41505e-17
5885.36483 1.37609e-17
5886.83703 1.31913e-17
5888.30923 1.32267e-17
5889.77142 1.30771e-17
5891.24363 1.31543e-17
5892.71584 1.29537e-17
5894.18804 1.16484e-17
5895.65023 9.77811e-18
5897.12244 8.13594e-18
5898.59464 8.51143e-18
5900.06685 9.19881e-18
5901.53905 9.19860e-18
5903.00124 8.98172e-18
5904.47345 9.35988e-18
5905.94565 1.08276e-17
5907.41785 1.25291e-17
5908.88004 1.34885e-17
5910.35225 1.35838e-17
5911.82446 1.35052e-17
5913.29666 1.34401e-17
5914.76887 1.38266e-17
5916.23106 1.43038e-17
5917.70326 1.36110e-17
5919.17547 1.31092e-17
5920.64767 1.36939e-17
5922.10986 1.35247e-17
5923.58207 1.33211e-17
5925.05427 1.41380e-17
5926.52647 1.41088e-17
5927.98866 1.37352e-17
5929.46087 1.37480e-17
5930.93308 1.38978e-17
5932.40528 1.39729e-17
5933.87748 1.41286e-17
5935.33968 1.45676e-17
5936.81188 1.43813e-17
5938.28409 1.40099e-17
5939.75629 1.38476e-17
5941.21848 1.36299e-17
5942.69069 1.35780e-17
5944.16289 1.37959e-17
5945.63509 1.38559e-17
5947.10730 1.39726e-17
5948.56949 1.43914e-17
5950.04170 1.44113e-17
5951.51390 1.40113e-17
5952.98610 1.33954e-17
5954.44830 1.33171e-17
5955.92050 1.34637e-17
5957.39271 1.36102e-17
5958.86491 1.37568e-17
5960.32710 1.39033e-17
5961.79931 1.40498e-17
5963.27151 1.41964e-17
5964.74372 1.43429e-17
5966.21592 1.44894e-17
5967.67811 1.44890e-17
5969.15032 1.41443e-17
5970.62252 1.39816e-17
5972.09472 1.37878e-17
5973.55692 1.31295e-17
5975.02912 1.29331e-17
5976.50133 1.39073e-17
5977.97353 1.41526e-17
5979.44574 1.38358e-17
5980.90793 1.37329e-17
5982.38013 1.35749e-17
5983.85234 1.36773e-17
5985.32454 1.35479e-17
5986.78673 1.30649e-17
5988.25894 1.30925e-17
5989.73114 1.30432e-17
5991.20334 1.22996e-17
5992.67555 1.25181e-17
5994.13774 1.29372e-17
5995.60995 1.28126e-17
5997.08215 1.28911e-17
5998.55436 1.30095e-17
6000.01655 1.31910e-17
6001.48875 1.30812e-17
6002.96096 1.33395e-17
6004.43316 1.28810e-17
6005.90537 1.26760e-17
6007.36755 1.27318e-17
6008.83976 1.19591e-17
6010.31197 1.18282e-17
6011.78417 1.21971e-17
6013.24636 1.25993e-17
6014.71857 1.29417e-17
6016.19077 1.27013e-17
6017.66298 1.27337e-17
6019.12517 1.23215e-17
6020.59737 1.17209e-17
6022.06958 1.21956e-17
6023.54178 1.23402e-17
6025.01399 1.25235e-17
6026.47617 1.19485e-17
6027.94838 1.16426e-17
6029.42059 1.20017e-17
6030.89279 1.23004e-17
6032.35498 1.21088e-17
6033.82719 1.23513e-17
6035.29939 1.25526e-17
6036.77160 1.24096e-17
6038.24380 1.23637e-17
6039.70599 1.20344e-17
6041.17820 1.19675e-17
6042.65040 1.26017e-17
6044.12261 1.28370e-17
6045.58479 1.22351e-17
6047.05700 1.24713e-17
6048.52921 1.22311e-17
6050.00141 1.19657e-17
6051.46360 1.20553e-17
6052.93581 1.24780e-17
6054.40801 1.23079e-17
6055.88022 1.15709e-17
6057.35242 1.16730e-17
6058.81461 1.21474e-17
6060.28682 1.23687e-17
6061.75902 1.20108e-17
6063.23122 1.17638e-17
6064.69341 1.15945e-17
6066.16562 1.16550e-17
6067.63783 1.14839e-17
6069.11003 1.11003e-17
6070.58223 1.13226e-17
6072.04443 1.16253e-17
6073.51663 1.18688e-17
6074.98884 1.11226e-17
6076.46104 1.09458e-17
6077.92323 1.11774e-17
6079.39544 1.16453e-17
6080.86764 1.18840e-17
6082.33984 1.18310e-17
6083.81205 1.14257e-17
6085.27424 1.11130e-17
6086.74645 1.17988e-17
6088.21865 1.16349e-17
6089.69085 1.11153e-17
6091.15305 1.12883e-17
6092.62525 1.03698e-17
6094.09746 1.06769e-17
6095.56966 1.10787e-17
6097.03185 1.11358e-17
6098.50406 1.13605e-17
6099.97626 1.17100e-17
6101.44847 1.14985e-17
6102.92067 1.02397e-17
6104.38286 1.02409e-17
6105.85507 1.10456e-17
6107.32727 1.08138e-17
6108.79947 1.06004e-17
6110.26166 1.04876e-17
6111.73387 1.04014e-17
6113.20608 1.05528e-17
6114.67828 1.03766e-17
6116.15049 1.03052e-17
6117.61268 1.05198e-17
6119.08488 1.11887e-17
6120.55709 1.11236e-17
6122.02929 1.06667e-17
6123.49148 1.04505e-17
6124.96369 1.04949e-17
6126.43589 1.06480e-17
6127.90809 1.06931e-17
6129.38030 1.08436e-17
6130.84249 1.10016e-17
6132.31470 1.08331e-17
6133.78690 1.02145e-17
6135.25911 9.86249e-18
6136.72130 1.03870e-17
6138.19350 1.07644e-17
6139.66571 1.05496e-17
6141.13791 1.05141e-17
6142.60010 1.08384e-17
6144.07231 1.07249e-17
6145.54451 1.09360e-17
6147.01672 1.12689e-17
6148.48892 1.09794e-17
6149.95111 1.10113e-17
6151.42332 1.08008e-17
6152.89552 1.07477e-17
6154.36773 1.11995e-17
6155.82992 1.11168e-17
6157.30212 1.12210e-17
6158.77433 1.11701e-17
6160.24653 1.08896e-17
6161.71874 1.09382e-17
6163.18093 1.11990e-17
6164.65313 1.13567e-17
6166.12534 1.10667e-17
6167.59754 1.13863e-17
6169.05973 1.13066e-17
6170.53193 1.11233e-17
6172.00414 1.15791e-17
6173.47635 1.17227e-17
6174.94855 1.18375e-17
6176.41074 1.24787e-17
6177.88295 1.21406e-17
6179.35515 1.15707e-17
6180.82736 1.13955e-17
6182.28955 1.18080e-17
6183.76175 1.19836e-17
6185.23396 1.25854e-17
6186.70616 1.27325e-17
6188.16835 1.24045e-17
6189.64055 1.24040e-17
6191.11276 1.24900e-17
6192.58497 1.26499e-17
6194.05717 1.26365e-17
6195.51936 1.27267e-17
6196.99157 1.28140e-17
6198.46377 1.29998e-17
6199.93598 1.31517e-17
6201.39816 1.26825e-17
6202.87037 1.24707e-17
6204.34258 1.28354e-17
6205.81478 1.29040e-17
6207.28698 1.33627e-17
6208.74917 1.33711e-17
6210.22138 1.30358e-17
6211.69359 1.34576e-17
6213.16579 1.31937e-17
6214.62798 1.33025e-17
6216.10019 1.41588e-17
6217.57239 1.37823e-17
6219.04460 1.36014e-17
6220.50678 1.35076e-17
6221.97899 1.37032e-17
6223.45120 1.44526e-17
6224.92340 1.48276e-17
6226.39560 1.39427e-17
6227.85779 1.41332e-17
6229.33000 1.43828e-17
6230.80221 1.42284e-17
6232.27441 1.39041e-17
6233.73660 1.40872e-17
6235.20881 1.40017e-17
6236.68101 1.33722e-17
6238.15322 1.35646e-17
6239.62542 1.36494e-17
6241.08761 1.40646e-17
6242.55982 1.40361e-17
6244.03202 1.40396e-17
6245.50422 1.36963e-17
6246.96641 1.39583e-17
6248.43862 1.45244e-17
6249.91083 1.50135e-17
6251.38303 1.42320e-17
6252.85523 1.39474e-17
6254.31743 1.37598e-17
6255.78963 1.32460e-17
6257.26184 1.29052e-17
6258.73404 1.28835e-17
6260.19623 1.36360e-17
6261.66844 1.39751e-17
6263.14064 1.40975e-17
6264.61284 1.34934e-17
6266.08505 1.28542e-17
6267.54724 1.27324e-17
6269.01945 1.33196e-17
6270.49165 1.33852e-17
6271.96385 1.41391e-17
6273.42605 1.46917e-17
6274.89825 1.43633e-17
6276.37046 1.40335e-17
6277.84266 1.31647e-17
6279.30485 1.36093e-17
6280.77706 1.38015e-17
6282.24926 1.28358e-17
6283.72147 1.30994e-17
6285.19367 1.39949e-17
6286.65586 1.34615e-17
6288.12807 1.36503e-17
6289.60027 1.35352e-17
6291.07247 1.33501e-17
6292.53467 1.32078e-17
6294.00687 1.32880e-17
6295.47908 1.37172e-17
6296.95128 1.25916e-17
6298.42349 1.27751e-17
6299.88568 1.29952e-17
6301.35788 1.32719e-17
6302.83009 1.35033e-17
6304.30229 1.42324e-17
6305.76448 1.41525e-17
6307.23669 1.31509e-17
6308.70889 1.31335e-17
6310.18109 1.33953e-17
6311.64329 1.34286e-17
6313.11549 1.31394e-17
6314.58770 1.32790e-17
6316.05990 1.33735e-17
6317.53211 1.32377e-17
6318.99430 1.29288e-17
6320.46650 1.31392e-17
6321.93871 1.31285e-17
6323.41091 1.27180e-17
6324.87310 1.21881e-17
6326.34530 1.25702e-17
6327.81751 1.32052e-17
6329.28972 1.27501e-17
6330.76192 1.24290e-17
6332.22411 1.31911e-17
6333.69632 1.29534e-17
6335.16852 1.21727e-17
6336.64073 1.26352e-17
6338.10292 1.31192e-17
6339.57512 1.29571e-17
6341.04733 1.27574e-17
6342.51953 1.29427e-17
6343.99174 1.21051e-17
6345.45392 1.20137e-17
6346.92613 1.27685e-17
6348.39834 1.32839e-17
6349.87054 1.31654e-17
6351.33273 1.25855e-17
6352.80494 1.25471e-17
6354.27714 1.25885e-17
6355.74935 1.26912e-17
6357.22155 1.23764e-17
6358.68374 1.18680e-17
6360.15595 1.17928e-17
6361.62815 1.17866e-17
6363.10036 1.20441e-17
6364.56254 1.20478e-17
6366.03475 1.19708e-17
6367.50696 1.22274e-17
6368.97916 1.18526e-17
6370.44135 1.18214e-17
6371.91356 1.21405e-17
6373.38576 1.21065e-17
6374.85797 1.21812e-17
6376.33017 1.20092e-17
6377.79236 1.14274e-17
6379.26457 1.23641e-17
6380.73677 1.26151e-17
6382.20897 1.23671e-17
6383.67116 1.20265e-17
6385.14337 1.18119e-17
6386.61558 1.18493e-17
6388.08778 1.23176e-17
6389.55998 1.21846e-17
6391.02218 1.16510e-17
6392.49438 1.18738e-17
6393.96659 1.18505e-17
6395.43879 1.16900e-17
6396.90098 1.22806e-17
6398.37319 1.22822e-17
6399.84539 1.19322e-17
6401.31759 1.18703e-17
6402.77978 1.20653e-17
6404.25199 1.22050e-17
6405.72420 1.25517e-17
6407.19640 1.15645e-17
6408.66860 1.15166e-17
6410.13080 1.16898e-17
6411.60300 1.17203e-17
6413.07521 1.14746e-17
6414.54741 1.21506e-17
6416.00960 1.25190e-17
6417.48181 1.21626e-17
6418.95401 1.21957e-17
6420.42622 1.27179e-17
6421.89842 1.23689e-17
6423.36061 1.20632e-17
6424.83282 1.19605e-17
6426.30502 1.23125e-17
6427.77722 1.27722e-17
6429.23942 1.29592e-17
6430.71162 1.14981e-17
6432.18383 1.11781e-17
6433.65603 1.20972e-17
6435.11822 1.26141e-17
6436.59043 1.22111e-17
6438.06263 1.22619e-17
6439.53484 1.23315e-17
6441.00704 1.21284e-17
6442.46923 1.24225e-17
6443.94144 1.24119e-17
6445.41364 1.22703e-17
6446.88584 1.21837e-17
6448.34803 1.22756e-17
6449.82024 1.23885e-17
6451.29245 1.22965e-17
6452.76465 1.16161e-17
6454.23686 1.15732e-17
6455.69905 1.14679e-17
6457.17125 1.17057e-17
6458.64346 1.19980e-17
6460.11566 1.15228e-17
6461.57785 1.14135e-17
6463.05006 1.25708e-17
6464.52226 1.17320e-17
6465.99447 1.24216e-17
6467.46667 1.19372e-17
6468.92886 1.19237e-17
6470.40107 1.14106e-17
6471.87327 1.14289e-17
6473.34548 1.21250e-17
6474.80767 1.11798e-17
6476.27987 1.13057e-17
6477.75208 1.18696e-17
6479.22428 1.18643e-17
6480.69649 1.17399e-17
6482.15868 1.18742e-17
6483.63088 1.16425e-17
6485.10309 1.15034e-17
6486.57529 1.14024e-17
6488.03748 1.17165e-17
6489.50968 1.12811e-17
6490.98189 1.20662e-17
6492.45410 1.19721e-17
6493.91629 1.15805e-17
6495.38849 1.13702e-17
6496.86070 1.18778e-17
6498.33290 1.12520e-17
6499.80511 1.12611e-17
6501.26730 1.12357e-17
6502.73950 1.24156e-17
6504.21171 1.23834e-17
6505.68391 1.11935e-17
6507.14610 1.13440e-17
6508.61830 1.10985e-17
6510.09051 1.06636e-17
6511.56272 1.06060e-17
6513.03492 1.14955e-17
6514.49711 1.15894e-17
6515.96932 1.11489e-17
6517.44152 1.12452e-17
6518.91373 1.09200e-17
6520.37591 1.20121e-17
6521.84812 1.17909e-17
6523.32033 1.12896e-17
6524.79253 1.17199e-17
6526.25472 1.19101e-17
6527.72692 1.15901e-17
6529.19913 1.15714e-17
6530.67134 1.15906e-17
6532.14354 1.17731e-17
6533.60573 1.14448e-17
6535.07794 1.12534e-17
6536.55014 1.11908e-17
6538.02235 1.10316e-17
6539.48453 1.15363e-17
6540.95674 1.12678e-17
6542.42895 1.12978e-17
6543.90115 1.12705e-17
6545.37335 1.12432e-17
6546.83554 1.12159e-17
6548.30775 1.11886e-17
6549.77996 1.11613e-17
6551.25216 1.11340e-17
6552.71435 1.11067e-17
6554.18656 1.10794e-17
6555.65876 1.10521e-17
6557.13097 1.10248e-17
6558.59316 1.09976e-17
6560.06536 1.09703e-17
6561.53757 1.09430e-17
6563.00977 1.09157e-17
6564.48197 1.08884e-17
6565.94416 1.08611e-17
6567.41637 1.08338e-17
6568.88858 1.08065e-17
6570.36078 1.07793e-17
6571.82297 1.07520e-17
6573.29518 1.07247e-17
6574.76738 1.06974e-17
6576.23959 1.06701e-17
6577.71179 1.06429e-17
6579.17398 1.06156e-17
6580.64619 1.05883e-17
6582.11839 1.05610e-17
6583.59059 1.05338e-17
6585.05278 1.05065e-17
6586.52499 1.04792e-17
6587.99720 1.04520e-17
6589.46940 1.04247e-17
6590.94160 1.03974e-17
6592.40380 1.03702e-17
6593.87600 1.03429e-17
6595.34821 1.03156e-17
6596.82041 1.02884e-17
6598.28260 1.02611e-17
6599.75481 1.02338e-17
6601.22701 1.02066e-17
6602.69922 1.01793e-17
6604.17142 9.80307e-18
6605.63361 1.05424e-17
6607.10582 1.10120e-17
6608.57802 1.09159e-17
6610.05022 1.04951e-17
6611.51242 1.07379e-17
6612.98462 1.00252e-17
6614.45683 9.99923e-18
6615.92903 1.02489e-17
6617.39122 1.01260e-17
6618.86343 1.03784e-17
6620.33563 9.95338e-18
6621.80784 1.02472e-17
6623.28004 9.99006e-18
6624.74223 9.63298e-18
6626.21444 1.00245e-17
6627.68664 1.00726e-17
6629.15884 1.01124e-17
6630.62104 1.02571e-17
6632.09324 1.02234e-17
6633.56545 9.80670e-18
6635.03765 1.00477e-17
6636.50986 9.61729e-18
6637.97205 9.56178e-18
6639.44425 9.79996e-18
6640.91646 9.98499e-18
6642.38866 9.40837e-18
6643.85085 9.16906e-18
6645.32305 8.70093e-18
6646.79526 9.35207e-18
6648.26747 9.47922e-18
6649.72966 9.38267e-18
6651.20186 8.61110e-18
6652.67407 8.62506e-18
6654.14627 8.92812e-18
6655.61848 9.38611e-18
6657.08067 9.09613e-18
6658.55287 8.76832e-18
6660.02508 9.29173e-18
6661.49728 9.89166e-18
6662.95947 1.00059e-17
6664.43167 9.58943e-18
6665.90388 9.27471e-18
6667.37609 9.22476e-18
6668.84829 9.26967e-18
6670.31048 9.23284e-18
6671.78269 9.21849e-18
6673.25489 9.50187e-18
6674.72710 9.42467e-18
6676.18929 8.86787e-18
6677.66149 8.76990e-18
6679.13370 8.74607e-18
6680.60590 8.95334e-18
6682.07811 8.74249e-18
6683.54029 8.93437e-18
6685.01250 8.87441e-18
6686.48471 8.43725e-18
6687.95691 8.84002e-18
6689.41910 9.33270e-18
6690.89131 9.23615e-18
6692.36351 8.43686e-18
6693.83572 8.56503e-18
6695.29791 9.33133e-18
6696.77011 8.51797e-18
6698.24232 8.23528e-18
6699.71452 8.29274e-18
6701.18672 8.27595e-18
6702.64891 8.29043e-18
6704.12112 8.54214e-18
6705.59333 8.25900e-18
6707.06553 8.66508e-18
6708.52772 8.30745e-18
6709.99993 8.38642e-18
6711.47213 8.35386e-18
6712.94434 7.91745e-18
6714.41654 7.84692e-18
6715.87873 8.37018e-18
6717.35094 8.54314e-18
6718.82314 8.44580e-18
6720.29534 8.05465e-18
6721.75753 8.10674e-18
6723.22974 8.41540e-18
6724.70195 8.45646e-18
6726.17415 8.01283e-18
6727.64635 8.18521e-18
6729.10855 8.85642e-18
6730.58075 8.86257e-18
6732.05296 7.99221e-18
6733.52516 8.09046e-18
6734.98735 8.97198e-18
6736.45956 8.75923e-18
6737.93176 8.41701e-18
6739.40397 8.25797e-18
6740.86616 7.47580e-18
6742.33836 7.56671e-18
6743.81057 7.98751e-18
6745.28277 7.80473e-18
6746.75497 8.10890e-18
6748.21717 8.19912e-18
6749.68937 8.46654e-18
6751.16158 8.52044e-18
6752.63378 7.66956e-18
6754.09597 7.45522e-18
6755.56818 7.74856e-18
6757.04038 8.20444e-18
6758.51259 8.14052e-18
6759.98479 8.13876e-18
6761.44698 8.00507e-18
6762.91919 7.63695e-18
6764.39139 7.92907e-18
6765.86359 7.71112e-18
6767.32578 7.96128e-18
6768.79799 8.22217e-18
6770.27020 7.87263e-18
6771.74240 8.17605e-18
6773.21461 8.35312e-18
6774.67680 8.33742e-18
6776.14900 8.16170e-18
6777.62121 7.86255e-18
6779.09341 7.57781e-18
6780.55560 7.79895e-18
6782.02781 8.21956e-18
6783.50001 7.45975e-18
6784.97222 7.33008e-18
6786.43441 8.12238e-18
6787.90661 7.78631e-18
6789.37882 7.12923e-18
6790.85102 7.59714e-18
6792.32323 7.50766e-18
6793.78542 7.53723e-18
6795.25762 7.69880e-18
6796.72983 7.08958e-18
6798.20203 6.85241e-18
6799.66422 7.52334e-18
6801.13643 8.08570e-18
6802.60863 7.60426e-18
6804.08084 7.31206e-18
6805.55304 7.75463e-18
6807.01523 8.01711e-18
6808.48744 6.94744e-18
6809.95964 6.83639e-18
6811.43185 7.38578e-18
6812.89404 7.72944e-18
6814.36624 7.62804e-18
6815.83845 7.10054e-18
6817.31065 6.91779e-18
6818.77284 7.15544e-18
6820.24505 7.52799e-18
6821.71725 7.46988e-18
6823.18946 7.74640e-18
6824.66166 7.57693e-18
6826.12385 7.70543e-18
6827.59605 7.31959e-18
6829.06826 7.18385e-18
6830.54047 7.11980e-18
6832.00266 6.88321e-18
6833.47486 7.23139e-18
6834.94707 6.77023e-18
6836.41927 6.33956e-18
6837.89148 6.26879e-18
6839.35366 7.04732e-18
6840.82587 7.52668e-18
6842.29808 6.94752e-18
6843.77028 6.81124e-18
6845.23247 7.44296e-18
6846.70467 7.28118e-18
6848.17688 6.91553e-18
6849.64909 6.90543e-18
6851.12129 7.01944e-18
6852.58348 6.91632e-18
6854.05569 7.04755e-18
6855.52789 6.88244e-18
6857.00010 6.85410e-18
6858.46228 6.69722e-18
6859.93449 7.15181e-18
6861.40670 7.13473e-18
6862.87890 6.89630e-18
6864.35110 6.64531e-18
6865.81329 6.44982e-18
6867.28550 6.68208e-18
6868.75771 6.49299e-18
6870.22991 6.02578e-18
6871.69210 6.73947e-18
6873.16431 6.78107e-18
6874.63651 6.37201e-18
6876.10872 6.33645e-18
6877.57091 6.28321e-18
6879.04311 6.34849e-18
6880.51532 6.64223e-18
6881.98752 6.54186e-18
6883.45972 7.17532e-18
6884.92191 7.43023e-18
6886.39412 6.79058e-18
6887.86633 7.09660e-18
6889.33853 7.22775e-18
6890.80072 6.62482e-18
6892.27293 6.75060e-18
6893.74513 6.81312e-18
6895.21734 7.13619e-18
6896.68954 7.63945e-18
6898.15173 6.75916e-18
6899.62394 6.75949e-18
6901.09614 7.04485e-18
6902.56834 6.81636e-18
6904.03053 7.31388e-18
6905.50274 7.45283e-18
6906.97495 6.53776e-18
6908.44715 6.89190e-18
6909.90934 7.35354e-18
6911.38155 7.50761e-18
6912.85375 7.29970e-18
6914.32596 7.26290e-18
6915.79816 7.10673e-18
6917.26035 7.22626e-18
6918.73256 7.44163e-18
6920.20476 7.27527e-18
6921.67697 7.23686e-18
6923.13916 7.76226e-18
6924.61136 7.89352e-18
6926.08357 7.61120e-18
6927.55577 7.71750e-18
6929.02797 7.70257e-18
6930.49017 7.80945e-18
6931.96237 7.95872e-18
6933.43458 7.28337e-18
6934.90678 7.50717e-18
6936.36897 7.97596e-18
6937.84118 7.41884e-18
6939.31338 7.32562e-18
6940.78559 7.91171e-18
6942.24778 8.13954e-18
6943.71998 8.07588e-18
6945.19219 8.04830e-18
6946.66439 7.61121e-18
6948.13659 7.39898e-18
6949.59879 7.52644e-18
6951.07099 7.45362e-18
6952.54320 8.07200e-18
6954.01540 8.41874e-18
6955.47759 8.17003e-18
6956.94980 7.94900e-18
6958.42200 8.20837e-18
6959.89421 7.84446e-18
6961.36641 7.73233e-18
6962.82860 7.87070e-18
6964.30080 8.18922e-18
6965.77301 8.27729e-18
6967.24522 7.74943e-18
6968.70741 7.88956e-18
6970.17961 8.59139e-18
6971.65182 8.53420e-18
6973.12402 8.07151e-18
6974.59623 7.78408e-18
6976.05842 7.68237e-18
6977.53062 7.55474e-18
6979.00283 7.38621e-18
6980.47503 8.10186e-18
6981.93722 8.78916e-18
6983.40942 8.08797e-18
6984.88163 6.96418e-18
6986.35384 7.14289e-18
6987.82604 7.92604e-18
6989.28823 8.18396e-18
6990.76044 8.25620e-18
6992.23264 8.20244e-18
6993.70485 8.63524e-18
6995.16704 9.01803e-18
6996.63924 8.19832e-18
6998.11145 7.48393e-18
6999.58365 7.88846e-18
7001.04584 8.40291e-18
7002.51804 8.89878e-18
7003.99025 9.04322e-18
7005.46246 8.63636e-18
7006.93466 8.49540e-18
7008.39685 8.17453e-18
7009.86906 8.00362e-18
7011.34126 8.20904e-18
7012.81347 8.20848e-18
7014.27566 8.05094e-18
7015.74786 7.81384e-18
7017.22007 8.01864e-18
7018.69227 8.57467e-18
7020.16447 8.46910e-18
7021.62666 8.25310e-18
7023.09887 8.33319e-18
7024.57108 8.22916e-18
7026.04328 8.11176e-18
7027.50547 8.00332e-18
7028.97768 7.79392e-18
7030.44988 7.75466e-18
7031.92209 7.80666e-18
7033.38428 7.85867e-18
7034.85648 7.91067e-18
7036.32869 7.96267e-18
7037.80089 8.01467e-18
7039.27309 8.06667e-18
7040.73528 8.11866e-18
7042.20749 8.17065e-18
7043.67970 8.17049e-18
7045.15190 8.10052e-18
7046.61409 8.15228e-18
7048.08630 8.14152e-18
7049.55850 8.11106e-18
7051.03071 8.53126e-18
7052.50291 8.50440e-18
7053.96510 7.54082e-18
7055.43731 7.69526e-18
7056.90951 8.20660e-18
7058.38172 7.76986e-18
7059.84391 7.73848e-18
7061.31611 7.74706e-18
7062.78832 7.95486e-18
7064.26052 8.17580e-18
7065.73272 7.93312e-18
7067.19492 8.07305e-18
7068.66712 8.30095e-18
7070.13933 8.29116e-18
7071.61153 8.12883e-18
7073.07372 8.42098e-18
7074.54593 7.99214e-18
7076.01813 7.88285e-18
7077.49034 8.24048e-18
7078.96254 7.68558e-18
7080.42473 7.60896e-18
7081.89694 7.85250e-18
7083.36914 8.20184e-18
7084.84134 8.40354e-18
7086.30354 7.87219e-18
7087.77574 7.71615e-18
7089.24795 8.24219e-18
7090.72015 8.54755e-18
7092.18234 8.38292e-18
7093.65455 8.23195e-18
7095.12675 8.04630e-18
7096.59896 7.95549e-18
7098.07116 8.42103e-18
7099.53335 8.83866e-18
7101.00556 8.46583e-18
7102.47776 7.70949e-18
7103.94997 7.93324e-18
7105.41216 8.64001e-18
7106.88436 8.65880e-18
7108.35657 8.60347e-18
7109.82877 8.56633e-18
7111.30098 8.64131e-18
7112.76317 8.60656e-18
7114.23537 8.59266e-18
7115.70758 8.48575e-18
7117.17978 8.41648e-18
7118.64197 8.18700e-18
7120.11418 8.05731e-18
7121.58638 8.65074e-18
7123.05859 8.80617e-18
7124.52078 8.44535e-18
7125.99298 8.53161e-18
7127.46519 8.61699e-18
7128.93739 8.43599e-18
7130.40960 8.70004e-18
7131.87179 9.02450e-18
7133.34399 9.09778e-18
7134.81620 9.11745e-18
7136.28840 9.31518e-18
7137.75059 9.32258e-18
7139.22280 9.06071e-18
7140.69500 9.26141e-18
7142.16721 9.41655e-18
7143.63941 9.39532e-18
7145.10160 9.32006e-18
7146.57380 9.21714e-18
7148.04601 9.10691e-18
7149.51822 8.96926e-18
7150.98041 9.13251e-18
7152.45261 9.65711e-18
7153.92482 9.59815e-18
7155.39702 9.62591e-18
7156.86923 9.59080e-18
7158.33141 9.44060e-18
7159.80362 9.95176e-18
7161.27583 1.01002e-17
7162.74803 9.87585e-18
7164.21022 9.61741e-18
7165.68242 9.85523e-18
7167.15463 1.04080e-17
7168.62684 1.04776e-17
7170.08903 1.11630e-17
7171.56123 1.16412e-17
7173.03344 1.14054e-17
7174.50564 1.13323e-17
7175.97785 1.15523e-17
7177.44003 1.13612e-17
7178.91224 1.09649e-17
7180.38445 1.08599e-17
7181.85665 1.13244e-17
7183.31884 1.11132e-17
7184.79104 1.10593e-17
7186.26325 1.10427e-17
7187.73546 1.07575e-17
7189.20766 1.12554e-17
7190.66985 1.13314e-17
7192.14206 1.14717e-17
7193.61426 1.25718e-17
7195.08647 1.28764e-17
7196.54866 1.24329e-17
7198.02086 1.21792e-17
7199.49307 1.24354e-17
7200.96527 1.21142e-17
7202.43747 1.14790e-17
7203.89966 1.19097e-17
7205.37187 1.24115e-17
7206.84408 1.21995e-17
7208.31628 1.21828e-17
7209.77847 1.21194e-17
7211.25068 1.17284e-17
7212.72288 1.19423e-17
7214.19509 1.17065e-17
7215.65728 1.20492e-17
7217.12948 1.26762e-17
7218.60169 1.26701e-17
7220.07389 1.27864e-17
7221.54609 1.26094e-17
7223.00828 1.23787e-17
7224.48049 1.23260e-17
7225.95270 1.25154e-17
7227.42490 1.31280e-17
7228.88709 1.41238e-17
7230.35930 1.44370e-17
7231.83150 1.43171e-17
7233.30371 1.36088e-17
7234.77591 1.28866e-17
7236.23810 1.32508e-17
7237.71031 1.34600e-17
7239.18251 1.35081e-17
7240.65472 1.38144e-17
7242.11691 1.32761e-17
7243.58911 1.26012e-17
7245.06132 1.25105e-17
7246.53352 1.26338e-17
7248.00572 1.32797e-17
7249.46792 1.35830e-17
7250.94012 1.34465e-17
7252.41233 1.32219e-17
7253.88453 1.31839e-17
7255.34672 1.36452e-17
7256.81893 1.32314e-17
7258.29113 1.29754e-17
7259.76334 1.32280e-17
7261.22553 1.34796e-17
7262.69773 1.37045e-17
7264.16994 1.39260e-17
7265.64214 1.34256e-17
7267.11434 1.29365e-17
7268.57654 1.30246e-17
7270.04874 1.30403e-17
7271.52095 1.38372e-17
7272.99315 1.41601e-17
7274.45534 1.32251e-17
7275.92755 1.34144e-17
7277.39975 1.37141e-17
7278.87196 1.28538e-17
7280.34416 1.27113e-17
7281.80635 1.26862e-17
7283.27855 1.23489e-17
7284.75076 1.23253e-17
7286.22297 1.30916e-17
7287.68516 1.34831e-17
7289.15736 1.34519e-17
7290.62957 1.36830e-17
7292.10177 1.34056e-17
7293.57398 1.29700e-17
7295.03617 1.27983e-17
7296.50837 1.29336e-17
7297.98058 1.27574e-17
7299.45278 1.26268e-17
7300.91497 1.28264e-17
7302.38717 1.26040e-17
7303.85938 1.21969e-17
7305.33159 1.25938e-17
7306.79378 1.28974e-17
7308.26598 1.28983e-17
7309.73819 1.22501e-17
7311.21039 1.19718e-17
7312.68260 1.22413e-17
7314.14479 1.15743e-17
7315.61699 1.13111e-17
7317.08920 1.13784e-17
7318.56140 1.13804e-17
7320.02359 1.13490e-17
7321.49579 1.13183e-17
7322.96800 1.15012e-17
7324.44021 1.17903e-17
7325.91241 1.18631e-17
7327.37460 1.15375e-17
7328.84681 1.07451e-17
7330.31901 1.09673e-17
7331.79122 1.07291e-17
7333.25341 1.10941e-17
7334.72561 1.13079e-17
7336.19782 1.11132e-17
7337.67002 1.14322e-17
7339.14222 1.13034e-17
7340.60441 1.11894e-17
7342.07662 1.08566e-17
7343.54883 1.07294e-17
7345.02103 1.08063e-17
7346.48322 1.09776e-17
7347.95543 1.05664e-17
7349.42763 1.08470e-17
7350.89984 1.09103e-17
7352.36203 1.07834e-17
7353.83423 1.10610e-17
7355.30644 1.03814e-17
7356.77864 1.05480e-17
7358.25084 1.06453e-17
7359.71303 1.07341e-17
7361.18524 1.09543e-17
7362.65745 1.08169e-17
7364.12965 1.04855e-17
7365.59184 1.09710e-17
7367.06405 1.07934e-17
7368.53625 1.05913e-17
7370.00846 1.03574e-17
7371.48066 9.55568e-18
7372.94285 1.06763e-17
7374.41506 1.07441e-17
7375.88726 1.03473e-17
7377.35947 1.07555e-17
7378.82166 1.02910e-17
7380.29386 9.72871e-18
7381.76607 9.90187e-18
7383.23827 9.62827e-18
7384.71047 9.67546e-18
7386.17267 1.00727e-17
7387.64487 1.03731e-17
7389.11708 9.92597e-18
7390.58928 1.02807e-17
7392.05147 1.09763e-17
7393.52368 1.04930e-17
7394.99588 1.07395e-17
7396.46809 1.05521e-17
7397.93028 1.01437e-17
7399.40248 9.85290e-18
7400.87469 1.05128e-17
7402.34689 1.06689e-17
7403.81909 1.06724e-17
7405.28129 1.01710e-17
7406.75349 9.80328e-18
7408.22570 1.00505e-17
7409.69790 9.94783e-18
7411.16009 9.85941e-18
7412.63230 1.03520e-17
7414.10450 1.01753e-17
7415.57671 1.02161e-17
7417.04891 9.70525e-18
7418.51110 1.02877e-17
7419.98331 1.00230e-17
7421.45551 9.35259e-18
7422.92772 9.32413e-18
7424.38991 9.29566e-18
7425.86211 9.26720e-18
7427.33432 9.23873e-18
7428.80652 9.21027e-18
7430.26871 9.18181e-18
7431.74092 9.15335e-18
7433.21312 9.12489e-18
7434.68533 9.09643e-18
7436.15753 9.06798e-18
7437.61972 9.03952e-18
7439.09193 9.01107e-18
7440.56413 8.98261e-18
7442.03634 8.95416e-18
7443.49853 8.92571e-18
7444.97073 8.89726e-18
7446.44294 8.86882e-18
7447.91514 8.84037e-18
7449.38735 8.81192e-18
7450.84954 8.78348e-18
7452.32174 8.75503e-18
7453.79395 8.72659e-18
7455.26615 8.69815e-18
7456.72834 8.69796e-18
7458.20055 9.13650e-18
7459.67275 8.43601e-18
7461.14496 8.64490e-18
7462.61716 8.49487e-18
7464.07935 8.45395e-18
7465.55156 8.06263e-18
7467.02376 8.67514e-18
7468.49597 9.13756e-18
7469.95816 8.44122e-18
7471.43036 7.99228e-18
7472.90257 7.76760e-18
7474.37477 8.84030e-18
7475.84698 8.33873e-18
7477.30916 8.26736e-18
7478.78137 8.15264e-18
7480.25358 8.23377e-18
7481.72578 7.54955e-18
7483.18797 8.16942e-18
7484.66017 7.46627e-18
7486.13238 7.74839e-18
7487.60459 7.83171e-18
7489.06678 7.40955e-18
7490.53898 7.48141e-18
7492.01119 8.17094e-18
7493.48339 7.26817e-18
7494.95560 7.49115e-18
7496.41778 7.20566e-18
7497.88999 7.02028e-18
7499.36220 7.09792e-18
7500.83440 6.84263e-18
7502.29659 7.13573e-18
7503.76879 7.15979e-18
7505.24100 6.90646e-18
7506.71321 7.29562e-18
7508.18541 7.64097e-18
7509.64760 7.22620e-18
7511.11981 7.15173e-18
7512.59201 7.57822e-18
7514.06422 7.23348e-18
7515.52641 6.59391e-18
7516.99861 6.99034e-18
7518.47082 7.48493e-18
7519.94302 7.70063e-18
7521.40521 7.71714e-18
7522.87741 7.09673e-18
7524.34962 7.17929e-18
7525.82183 7.31866e-18
7527.29403 7.02205e-18
7528.75622 6.58776e-18
7530.22843 6.80098e-18
7531.70063 6.86465e-18
7533.17284 6.45322e-18
7534.63503 6.98573e-18
7536.10723 6.83875e-18
7537.57944 6.70519e-18
7539.05164 6.93539e-18
7540.52384 6.63646e-18
7541.98603 7.19540e-18
7543.45824 7.01167e-18
7544.93045 6.79466e-18
7546.40265 6.58775e-18
7547.86484 6.33374e-18
7549.33705 7.03759e-18
7550.80925 7.11100e-18
7552.28146 6.62463e-18
7553.75366 6.30155e-18
7555.21585 7.32674e-18
7556.68806 7.09295e-18
7558.16026 6.84944e-18
7559.63247 6.79794e-18
7561.09466 6.25506e-18
7562.56686 6.24373e-18
7564.03907 6.39522e-18
7565.51127 5.77628e-18
7566.97346 5.88678e-18
7568.44567 6.93549e-18
7569.91787 6.81277e-18
7571.39008 6.91974e-18
7572.86228 6.16053e-18
7574.32447 5.86380e-18
7575.79668 6.64605e-18
7577.26888 6.36698e-18
7578.74109 6.93240e-18
7580.20328 6.09757e-18
7581.67548 6.23308e-18
7583.14769 7.08858e-18
7584.61989 6.52841e-18
7586.09209 5.67445e-18
7587.55429 6.59854e-18
7589.02649 7.22864e-18
7590.49870 6.75174e-18
7591.97090 7.73522e-18
7593.43309 6.89258e-18
7594.90530 6.95794e-18
7596.37750 8.07791e-18
7597.84971 6.98023e-18
7599.32191 6.15930e-18
7600.78410 6.05929e-18
7602.25630 5.40088e-18
7603.72851 5.31115e-18
7605.20072 5.53419e-18
7606.66291 5.75375e-18
7608.13511 4.75496e-18
7609.60732 5.68982e-18
7611.07952 5.90421e-18
7612.54171 5.87640e-18
7614.01392 5.40544e-18
7615.48612 5.24088e-18
7616.95833 5.89727e-18
7618.43053 6.43652e-18
7619.89272 6.35237e-18
7621.36492 5.90750e-18
7622.83713 6.20292e-18
7624.30934 5.88654e-18
7625.77153 5.62119e-18
7627.24373 5.86121e-18
7628.71594 6.63052e-18
7630.18814 6.24982e-18
7631.66035 5.00510e-18
7633.12254 5.83015e-18
7634.59474 6.68084e-18
7634.82718 6.68084e-18
7635.68864 6.77419e-18
7636.55010 6.86752e-18
7637.41157 6.93581e-18
7638.27303 7.00405e-18
7639.13449 7.03799e-18
7639.99595 7.07187e-18
7640.85741 7.10374e-18
7641.71888 7.13560e-18
7642.59035 7.19738e-18
7643.45182 7.25921e-18
7644.31328 7.36456e-18
7645.17474 7.46998e-18
7646.03620 7.62470e-18
7646.89766 7.77951e-18
7647.75913 7.94186e-18
7648.62059 8.10420e-18
7649.48205 8.22152e-18
7650.34351 8.33875e-18
7651.20497 8.39985e-18
7652.06644 8.46084e-18
7652.93792 8.47155e-18
7653.79938 8.48216e-18
7654.66084 8.48287e-18
7655.52230 8.48357e-18
7656.38376 8.53663e-18
7657.24523 8.58980e-18
7658.10669 8.70530e-18
7658.96815 8.82092e-18
7659.82961 8.96460e-18
7660.69107 9.10834e-18
7661.55254 9.25113e-18
7662.42401 9.39391e-18
7663.28548 9.50941e-18
7664.14694 9.62486e-18
7665.00840 9.71151e-18
7665.86986 9.79810e-18
7666.73132 9.90592e-18
7667.59279 1.00138e-17
7668.45425 1.01660e-17
7669.31571 1.03183e-17
7670.17717 1.04675e-17
7671.03863 1.06166e-17
7671.91011 1.07245e-17
7672.77158 1.08323e-17
7673.63304 1.08919e-17
7674.49450 1.09513e-17
7675.35596 1.09652e-17
7676.21742 1.09791e-17
7677.07889 1.10038e-17
7677.94035 1.10284e-17
7678.80181 1.11203e-17
7679.66327 1.12123e-17
7680.52473 1.13380e-17
7681.38620 1.14638e-17
7682.25767 1.15708e-17
7683.11914 1.16780e-17
7683.98060 1.17662e-17
7684.84206 1.18544e-17
7685.70352 1.19386e-17
7686.56498 1.20229e-17
7687.42645 1.21065e-17
7688.28791 1.21901e-17
7689.14937 1.22745e-17
7690.01083 1.23588e-17
7690.88231 1.24357e-17
7691.74377 1.25126e-17
7692.60524 1.25659e-17
7693.46670 1.26192e-17
7694.32816 1.26528e-17
7695.18962 1.26864e-17
7696.05108 1.27252e-17
7696.91255 1.27640e-17
7697.77401 1.28174e-17
7698.63547 1.28706e-17
7699.49693 1.29259e-17
7700.35839 1.29810e-17
7701.22987 1.30276e-17
7702.09133 1.30742e-17
7702.95280 1.31059e-17
7703.81426 1.31374e-17
7704.67572 1.31498e-17
7705.53718 1.31619e-17
7706.39864 1.31558e-17
7707.26011 1.31496e-17
7708.12157 1.31305e-17
7708.98303 1.31113e-17
7709.84449 1.31014e-17
7710.71597 1.30916e-17
7711.57743 1.31107e-17
7712.43890 1.31299e-17
7713.30036 1.31734e-17
7714.16182 1.32169e-17
7715.02328 1.32738e-17
7715.88474 1.33308e-17
7716.74620 1.33837e-17
7717.60767 1.34368e-17
7718.46913 1.34668e-17
7719.33059 1.34969e-17
7720.20207 1.35027e-17
7721.06353 1.35085e-17
7721.92499 1.34970e-17
7722.78646 1.34855e-17
7723.64792 1.34685e-17
7724.50938 1.34515e-17
7725.37084 1.34448e-17
7726.23230 1.34381e-17
7727.09377 1.34468e-17
7727.95523 1.34557e-17
7728.81669 1.34747e-17
7729.67815 1.34938e-17
7730.54963 1.35221e-17
7731.41109 1.35504e-17
7732.27255 1.35937e-17
7733.13402 1.36369e-17
7733.99548 1.36884e-17
7734.85694 1.37397e-17
7735.71840 1.37715e-17
7736.57986 1.38032e-17
7737.44133 1.37995e-17
7738.30279 1.37958e-17
7739.17427 1.37681e-17
7740.03573 1.37403e-17
7740.89719 1.37032e-17
7741.75865 1.36661e-17
7742.62012 1.36418e-17
7743.48158 1.36175e-17
7744.34304 1.36239e-17
7745.20450 1.36304e-17
7746.06596 1.36554e-17
7746.92743 1.36805e-17
7747.78889 1.37073e-17
7748.65035 1.37341e-17
7749.52183 1.37569e-17
7750.38329 1.37795e-17
7751.24475 1.37936e-17
7752.10621 1.38078e-17
7752.96768 1.38135e-17
7753.82914 1.38191e-17
7754.69060 1.38194e-17
7755.55206 1.38196e-17
7756.41352 1.38107e-17
7757.27499 1.38018e-17
7758.13645 1.37762e-17
7759.00793 1.37507e-17
7759.86939 1.37160e-17
7760.73085 1.36811e-17
7761.59231 1.36546e-17
7762.45378 1.36280e-17
7763.31524 1.36140e-17
7764.17670 1.35998e-17
7765.03816 1.35891e-17
7765.89962 1.35783e-17
7766.76109 1.35637e-17
7767.62255 1.35491e-17
7768.49403 1.35254e-17
7769.35549 1.35017e-17
7770.21695 1.34685e-17
7771.07841 1.34352e-17
7771.93988 1.34037e-17
7772.80134 1.33723e-17
7773.66280 1.33510e-17
7774.52426 1.33296e-17
7775.38572 1.33140e-17
7776.24719 1.32985e-17
7777.10865 1.32852e-17
7777.98013 1.32719e-17
7778.84159 1.32630e-17
7779.70305 1.32540e-17
7780.56451 1.32511e-17
7781.42597 1.32483e-17
7782.28744 1.32510e-17
7783.14890 1.32538e-17
7784.01036 1.32610e-17
7784.87182 1.32681e-17
7785.73328 1.32788e-17
7786.59475 1.32895e-17
7787.46623 1.33024e-17
7788.32769 1.33154e-17
7789.18915 1.33269e-17
7790.05061 1.33383e-17
7790.91207 1.33441e-17
7791.77354 1.33498e-17
7792.63500 1.33477e-17
7793.49646 1.33456e-17
7794.35792 1.33349e-17
7795.21938 1.33241e-17
7796.08085 1.33099e-17
7796.94231 1.32956e-17
7797.81379 1.32868e-17
7798.67525 1.32782e-17
7799.53671 1.32819e-17
7800.39817 1.32857e-17
7801.25963 1.33064e-17
7802.12110 1.33272e-17
7802.98256 1.33614e-17
7803.84402 1.33958e-17
7804.70548 1.34262e-17
7805.56694 1.34568e-17
7806.42841 1.34709e-17
7807.29989 1.34851e-17
7808.16135 1.34843e-17
7809.02281 1.34836e-17
7809.88427 1.34704e-17
7810.74573 1.34571e-17
7811.60720 1.34340e-17
7812.46866 1.34109e-17
7813.33012 1.33822e-17
7814.19158 1.33534e-17
7815.05304 1.33243e-17
7815.91450 1.32951e-17
7816.78598 1.32704e-17
7817.64745 1.32456e-17
7818.50891 1.32313e-17
7819.37037 1.32169e-17
7820.23183 1.32175e-17
7821.09329 1.32183e-17
7821.95476 1.32232e-17
7822.81622 1.32283e-17
7823.67768 1.32215e-17
7824.53914 1.32148e-17
7825.40060 1.31943e-17
7826.27208 1.31737e-17
7827.13355 1.31443e-17
7827.99501 1.31150e-17
7828.85647 1.30809e-17
7829.71793 1.30469e-17
7830.57939 1.30122e-17
7831.44085 1.29776e-17
7832.30232 1.29450e-17
7833.16378 1.29125e-17
7834.02524 1.28820e-17
7834.88670 1.28516e-17
7835.75818 1.28261e-17
7836.61964 1.28007e-17
7837.48111 1.27881e-17
7838.34257 1.27755e-17
7839.20403 1.27780e-17
7840.06549 1.27803e-17
7840.92695 1.27887e-17
7841.78842 1.27972e-17
7842.64988 1.28040e-17
7843.51134 1.28107e-17
7844.37280 1.28122e-17
7845.23426 1.28138e-17
7846.10574 1.28080e-17
7846.96720 1.28023e-17
7847.82867 1.27921e-17
7848.69013 1.27820e-17
7849.55159 1.27711e-17
7850.41305 1.27602e-17
7851.27452 1.27509e-17
7852.13598 1.27415e-17
7852.99744 1.27353e-17
7853.85890 1.27290e-17
7854.72036 1.27271e-17
7855.59184 1.27252e-17
7856.45330 1.27283e-17
7857.31477 1.27315e-17
7858.17623 1.27347e-17
7859.03769 1.27380e-17
7859.89915 1.27338e-17
7860.76061 1.27296e-17
7861.62208 1.27184e-17
7862.48354 1.27072e-17
7863.34500 1.26952e-17
7864.20646 1.26833e-17
7865.07794 1.26673e-17
7865.93940 1.26515e-17
7866.80087 1.26210e-17
7867.66233 1.25907e-17
7868.52379 1.25447e-17
7869.38525 1.24989e-17
7870.24671 1.24462e-17
7871.10818 1.23933e-17
7871.96964 1.23460e-17
7872.83110 1.22985e-17
7873.69256 1.22764e-17
7874.56404 1.22544e-17
7875.42550 1.22653e-17
7876.28696 1.22763e-17
7877.14843 1.22978e-17
7878.00989 1.23194e-17
7878.87135 1.23309e-17
7879.73281 1.23425e-17
7880.59427 1.23377e-17
7881.45574 1.23330e-17
7882.31720 1.23086e-17
7883.17866 1.22841e-17
7884.05014 1.22486e-17
7884.91160 1.22131e-17
7885.77306 1.21772e-17
7886.63453 1.21415e-17
7887.49599 1.21046e-17
7888.35745 1.20677e-17
7889.21891 1.20271e-17
7890.08037 1.19865e-17
7890.94184 1.19445e-17
7891.80330 1.19025e-17
7892.66476 1.18616e-17
7893.52622 1.18208e-17
7894.39770 1.17918e-17
7895.25916 1.17627e-17
7896.12062 1.17602e-17
7896.98209 1.17575e-17
7897.84355 1.17731e-17
7898.70501 1.17885e-17
7899.56647 1.17976e-17
7900.42793 1.18067e-17
7901.28940 1.17986e-17
7902.15086 1.17906e-17
7903.01232 1.17681e-17
7903.88380 1.17455e-17
7904.74526 1.17154e-17
7905.60672 1.16854e-17
7906.46819 1.16634e-17
7907.32965 1.16415e-17
7908.19111 1.16339e-17
7909.05257 1.16263e-17
7909.91403 1.16154e-17
7910.77550 1.16045e-17
7911.63696 1.15799e-17
7912.49842 1.15553e-17
7913.36990 1.15295e-17
7914.23136 1.15036e-17
7915.09282 1.14871e-17
7915.95428 1.14706e-17
7916.81575 1.14642e-17
7917.67721 1.14578e-17
7918.53867 1.14600e-17
7919.40013 1.14622e-17
7920.26159 1.14575e-17
7921.12306 1.14530e-17
7921.98452 1.14260e-17
7922.85600 1.13988e-17
7923.71746 1.13589e-17
7924.57892 1.13189e-17
7925.44038 1.12829e-17
7926.30185 1.12467e-17
7927.16331 1.12243e-17
7928.02477 1.12019e-17
7928.88623 1.11997e-17
7929.74769 1.11976e-17
7930.60916 1.12116e-17
7931.47062 1.12255e-17
7932.34210 1.12441e-17
7933.20356 1.12628e-17
7934.06502 1.12762e-17
7934.92648 1.12896e-17
7935.78794 1.12896e-17
7936.64941 1.12897e-17
7937.51087 1.12722e-17
7938.37233 1.12546e-17
7939.23379 1.12203e-17
7940.09525 1.11860e-17
7940.95672 1.11400e-17
7941.81818 1.10941e-17
7942.68966 1.10479e-17
7943.55112 1.10017e-17
7944.41258 1.09643e-17
7945.27404 1.09269e-17
7946.13551 1.08998e-17
7946.99697 1.08728e-17
7947.85843 1.08560e-17
7948.71989 1.08391e-17
7949.58135 1.08294e-17
7950.44282 1.08196e-17
7951.30428 1.08127e-17
7952.17576 1.08057e-17
7953.03722 1.07922e-17
7953.89868 1.07786e-17
7954.76014 1.07505e-17
7955.62160 1.07224e-17
7956.48307 1.06915e-17
7957.34453 1.06604e-17
7958.20599 1.06418e-17
7959.06745 1.06233e-17
7959.92891 1.06182e-17
7960.79038 1.06132e-17
7961.66186 1.06183e-17
7962.52332 1.06234e-17
7963.38478 1.06307e-17
7964.24624 1.06380e-17
7965.10770 1.06358e-17
7965.96917 1.06335e-17
7966.83063 1.06284e-17
7967.69209 1.06232e-17
7968.55355 1.06345e-17
7969.41501 1.06459e-17
7970.27648 1.06781e-17
7971.14795 1.07105e-17
7972.00942 1.07539e-17
7972.87088 1.07973e-17
7973.73234 1.08389e-17
7974.59380 1.08805e-17
7975.45526 1.09012e-17
7976.31673 1.09219e-17
7977.17819 1.09137e-17
7978.03965 1.09054e-17
7978.90111 1.08838e-17
7979.76257 1.08621e-17
7980.63405 1.08406e-17
7981.49552 1.08191e-17
7982.35698 1.08010e-17
7983.21844 1.07830e-17
7984.07990 1.07705e-17
7984.94136 1.07580e-17
7985.80283 1.07466e-17
7986.66429 1.07353e-17
7987.52575 1.07202e-17
7988.38721 1.07050e-17
7989.24867 1.06881e-17
7990.11014 1.06712e-17
7990.98161 1.06550e-17
7991.84308 1.06388e-17
7992.70454 1.06284e-17
7993.56600 1.06179e-17
7994.42746 1.06189e-17
7995.28892 1.06199e-17
7996.15039 1.06210e-17
7997.01185 1.06220e-17
7997.87331 1.06051e-17
7998.73477 1.05882e-17
7999.59623 1.05555e-17
8000.46771 1.05229e-17
8001.32917 1.04881e-17
8002.19064 1.04533e-17
8003.05210 1.04267e-17
8003.91356 1.04001e-17
8004.77502 1.03905e-17
8005.63649 1.03810e-17
8006.49795 1.03862e-17
8007.35941 1.03914e-17
8008.22087 1.03933e-17
8009.08233 1.03952e-17
8009.95381 1.03880e-17
8010.81527 1.03808e-17
8011.67674 1.03817e-17
8012.53820 1.03826e-17
8013.39966 1.03999e-17
8014.26112 1.04173e-17
8015.12258 1.04390e-17
8015.98405 1.04607e-17
8016.84551 1.04752e-17
8017.70697 1.04896e-17
8018.56843 1.04851e-17
8019.43991 1.04806e-17
8020.30137 1.04500e-17
8021.16284 1.04193e-17
8022.02430 1.03819e-17
8022.88576 1.03445e-17
8023.74722 1.03219e-17
8024.60868 1.02993e-17
8025.47015 1.02907e-17
8026.33161 1.02822e-17
8027.19307 1.02820e-17
8028.05453 1.02818e-17
8028.92601 1.02829e-17
8029.78747 1.02840e-17
8030.64893 1.02783e-17
8031.51040 1.02725e-17
8032.37186 1.02607e-17
8033.23332 1.02488e-17
8034.09478 1.02367e-17
8034.95624 1.02245e-17
8035.81771 1.02157e-17
8036.67917 1.02068e-17
8037.54063 1.02035e-17
8038.41211 1.02002e-17
8039.27357 1.02032e-17
8040.13503 1.02062e-17
8040.99650 1.02146e-17
8041.85796 1.02230e-17
8042.71942 1.02339e-17
8043.58088 1.02448e-17
8044.44234 1.02534e-17
8045.30380 1.02620e-17
8046.16527 1.02646e-17
8047.02673 1.02671e-17
8047.88819 1.02619e-17
8048.75967 1.02566e-17
8049.62113 1.02445e-17
8050.48259 1.02324e-17
8051.34406 1.02224e-17
8052.20552 1.02124e-17
8053.06698 1.02111e-17
8053.92844 1.02099e-17
8054.78990 1.02123e-17
8055.65137 1.02147e-17
8056.51283 1.02145e-17
8057.37429 1.02142e-17
8058.24577 1.02036e-17
8059.10723 1.01929e-17
8059.96869 1.01655e-17
8060.83015 1.01381e-17
8061.69162 1.00991e-17
8062.55308 1.00602e-17
8063.41454 1.00187e-17
8064.27600 9.97719e-18
8065.13746 9.94334e-18
8065.99893 9.90951e-18
8066.86039 9.89329e-18
8067.73187 9.87711e-18
8068.59333 9.87910e-18
8069.45479 9.88111e-18
8070.31625 9.89595e-18
8071.17772 9.91082e-18
8072.03918 9.92787e-18
8072.90064 9.94493e-18
8073.76210 9.94901e-18
8074.62356 9.95304e-18
8075.48503 9.93853e-18
8076.34649 9.92398e-18
8077.21797 9.89814e-18
8078.07943 9.87227e-18
8078.94089 9.83962e-18
8079.80235 9.80695e-18
8080.66381 9.76663e-18
8081.52528 9.72630e-18
8082.38674 9.67896e-18
8083.24820 9.63159e-18
8084.10966 9.57921e-18
8084.97113 9.52682e-18
8085.83259 9.47177e-18
8086.70407 9.41670e-18
8087.56553 9.36245e-18
8088.42699 9.30821e-18
8089.28845 9.25805e-18
8090.14991 9.20790e-18
8091.01138 9.16479e-18
8091.87284 9.12170e-18
8092.73430 9.08721e-18
8093.59576 9.05274e-18
8094.45722 9.02621e-18
8095.31869 8.99971e-18
8096.18015 8.97901e-18
8097.05163 8.95834e-18
8097.91309 8.93194e-18
8098.77455 8.90555e-18
8099.63601 8.85980e-18
8100.49748 8.81401e-18
8101.35894 8.74458e-18
8102.22040 8.67510e-18
8103.08186 8.58288e-18
8103.94332 8.49060e-18
8104.80479 8.38675e-18
8105.67626 8.28288e-18
8106.53773 8.18552e-18
8107.39919 8.08818e-18
8108.26065 8.00861e-18
8109.12211 7.92907e-18
8109.98357 7.87111e-18
8110.84504 7.81320e-18
8111.70650 7.77177e-18
8112.56796 7.73037e-18
8113.42942 7.68773e-18
8114.29088 7.64508e-18
8115.15235 7.58686e-18
8116.02383 7.52861e-18
8116.88529 7.44872e-18
8117.74675 7.36878e-18
8118.60821 7.26607e-18
8119.46967 7.16331e-18
8120.33114 7.05260e-18
8121.19260 6.94188e-18
8122.05406 6.83501e-18
8122.91552 6.72816e-18
8123.77698 6.61192e-18
8124.63845 6.49567e-18
8125.49991 6.35781e-18
8126.37139 6.21989e-18
8127.23285 6.06697e-18
8128.09431 5.91402e-18
8128.95577 5.75570e-18
8129.81723 5.59738e-18
8130.67870 5.45220e-18
8131.54016 5.30706e-18
8132.40162 5.19495e-18
8133.26308 5.08295e-18
8134.12454 4.99322e-18
8134.99602 4.90355e-18
8135.85749 4.81221e-18
8136.71895 4.72087e-18
8137.58041 4.61883e-18
8138.44187 4.51677e-18
8139.30333 4.40368e-18
8140.16480 4.29056e-18
8141.02626 4.16932e-18
8141.88772 4.04806e-18
8142.74918 3.92541e-18
8143.61064 3.80275e-18
8144.47210 3.68538e-18
8145.34358 3.56803e-18
8146.20505 3.46128e-18
8147.06651 3.35457e-18
8147.92797 3.26221e-18
8148.78943 3.16990e-18
8149.65089 3.09311e-18
8150.51236 3.01637e-18
8151.37382 2.95326e-18
8152.23528 2.89018e-18
8153.09674 2.83243e-18
8153.95820 2.77469e-18
8154.82968 2.71556e-18
8155.69115 2.65644e-18
8156.55261 2.59658e-18
8157.41407 2.53672e-18
8158.27553 2.47817e-18
8159.13699 2.41963e-18
8159.99845 2.36738e-18
8160.85992 2.31514e-18
8161.72138 2.27407e-18
8162.58284 2.23303e-18
8163.44430 2.20464e-18
8164.31578 2.17628e-18
8165.17724 2.16030e-18
8166.03871 2.14435e-18
8166.90017 2.13318e-18
8167.76163 2.12202e-18
8168.62309 2.10642e-18
8169.48455 2.09083e-18
8170.34602 2.06311e-18
8171.20748 2.03537e-18
8172.06894 1.98824e-18
8172.93040 1.94104e-18
8173.80188 1.88693e-18
8174.66334 1.83281e-18
8175.52481 1.79863e-18
8176.38627 1.76450e-18
8177.24773 1.75622e-18
8178.10919 1.74801e-18
8178.97065 1.75006e-18
8179.83212 1.75213e-18
8180.69358 1.75263e-18
8181.55504 1.75313e-18
8182.41650 1.74460e-18
8183.28798 1.73606e-18
8184.14944 1.71579e-18
8185.01090 1.69551e-18
8185.87237 1.67356e-18
8186.73383 1.65160e-18
8187.59529 1.63517e-18
8188.45675 1.61874e-18
8189.31821 1.60227e-18
8190.17968 1.58578e-18
8191.04114 1.56538e-18
8191.90260 1.54495e-18
8192.77408 1.52535e-18
8193.63554 1.50575e-18
8194.49700 1.49176e-18
8195.35846 1.47778e-18
8196.21993 1.47369e-18
8197.08139 1.46962e-18
8197.94285 1.47868e-18
8198.80431 1.48776e-18
8199.66577 1.50219e-18
8200.52724 1.51663e-18
8201.38870 1.52559e-18
8202.25016 1.53454e-18
8203.12164 1.53592e-18
8203.98310 1.53728e-18
8204.84456 1.53283e-18
8205.70603 1.52837e-18
8206.56749 1.51900e-18
8207.42895 1.50961e-18
8208.29041 1.49606e-18
8209.15187 1.48250e-18
8210.01334 1.46698e-18
8210.87480 1.45146e-18
8211.73626 1.43682e-18
8212.60774 1.42220e-18
8213.46920 1.40967e-18
8214.33066 1.39715e-18
8215.19212 1.38651e-18
8216.05359 1.37588e-18
8216.91505 1.36376e-18
8217.77651 1.35164e-18
8218.63797 1.32867e-18
8219.49943 1.30568e-18
8220.36090 1.26829e-18
8221.22236 1.23086e-18
8222.08382 1.18861e-18
8222.95530 1.14636e-18
8223.81676 1.10995e-18
8224.67822 1.07356e-18
8225.53969 1.05640e-18
8226.40115 1.03929e-18
8227.26261 1.05105e-18
8228.12407 1.06288e-18
8228.98553 1.09455e-18
8229.84700 1.12626e-18
8230.70846 1.16531e-18
8231.57994 1.20439e-18
8232.44140 1.23867e-18
8233.30286 1.27295e-18
8234.16432 1.29115e-18
8235.02578 1.30933e-18
8235.88725 1.31521e-18
8236.74871 1.32106e-18
8237.61017 1.32404e-18
8238.47163 1.32702e-18
8239.33309 1.33366e-18
8240.19456 1.34032e-18
8241.06604 1.35611e-18
8241.92750 1.37191e-18
8242.78896 1.39364e-18
8243.65042 1.41537e-18
8244.51188 1.43317e-18
8245.37335 1.45096e-18
8246.23481 1.45999e-18
8247.09627 1.46899e-18
8247.95773 1.46978e-18
8248.81919 1.47055e-18
8249.68066 1.46509e-18
8250.54212 1.45962e-18
8251.41360 1.45228e-18
8252.27506 1.44494e-18
8253.13652 1.43982e-18
8253.99798 1.43472e-18
8254.85945 1.43431e-18
8255.72091 1.43392e-18
8256.58237 1.43961e-18
8257.44383 1.44533e-18
8258.30529 1.45616e-18
8259.16676 1.46700e-18
8260.02822 1.48089e-18
8260.89970 1.49478e-18
8261.76116 1.50787e-18
8262.62262 1.52098e-18
8263.48408 1.52950e-18
8264.34554 1.53802e-18
8265.20701 1.53858e-18
8266.06847 1.53912e-18
8266.92993 1.52947e-18
8267.79139 1.51980e-18
8268.65285 1.50508e-18
8269.52433 1.49034e-18
8270.38580 1.47767e-18
8271.24726 1.46502e-18
8272.10872 1.45918e-18
8272.97018 1.45337e-18
8273.83164 1.45808e-18
8274.69311 1.46282e-18
8275.55457 1.47438e-18
8276.41603 1.48594e-18
8277.27749 1.49600e-18
8278.13895 1.50605e-18
8279.01043 1.51120e-18
8279.87189 1.51635e-18
8280.73336 1.51741e-18
8281.59482 1.51845e-18
8282.45628 1.51793e-18
8283.31774 1.51741e-18
8284.17920 1.52058e-18
8285.04067 1.52376e-18
8285.90213 1.53262e-18
8286.76359 1.54150e-18
8287.62505 1.55129e-18
8288.48651 1.56109e-18
8289.34798 1.56928e-18
8290.21946 1.57746e-18
8291.08092 1.58784e-18
8291.94238 1.59823e-18
8292.80384 1.61299e-18
8293.66530 1.62775e-18
8294.52677 1.64304e-18
8295.38823 1.65832e-18
8296.24969 1.67056e-18
8297.11115 1.68279e-18
8297.97261 1.68968e-18
8298.83408 1.69656e-18
8299.70555 1.69674e-18
8300.56702 1.69690e-18
8301.42848 1.69848e-18
8302.28994 1.70005e-18
8303.15140 1.71261e-18
8304.01286 1.72520e-18
8304.87433 1.74506e-18
8305.73579 1.76493e-18
8306.59725 1.78410e-18
8307.45871 1.80327e-18
8308.32017 1.81690e-18
8309.18164 1.83051e-18
8310.05312 1.83505e-18
8310.91458 1.83957e-18
8311.77604 1.83881e-18
8312.63750 1.83803e-18
8313.49896 1.84113e-18
8314.36043 1.84422e-18
8315.22189 1.85632e-18
8316.08335 1.86845e-18
8316.94481 1.89059e-18
8317.80627 1.91276e-18
8318.67775 1.94232e-18
8319.53921 1.97191e-18
8320.40068 2.00067e-18
8321.26214 2.02943e-18
8322.12360 2.05151e-18
8322.98506 2.07356e-18
8323.84652 2.08886e-18
8324.70799 2.10415e-18
8325.56945 2.11345e-18
8326.43091 2.12275e-18
8327.29237 2.12834e-18
8328.16385 2.13393e-18
8329.02531 2.13867e-18
8329.88678 2.14341e-18
8330.74824 2.14892e-18
8331.60970 2.15445e-18
8332.47116 2.16236e-18
8333.33262 2.17029e-18
8334.19408 2.18457e-18
8335.05555 2.19888e-18
8335.91701 2.22285e-18
8336.77847 2.24683e-18
8337.64995 2.27790e-18
8338.51141 2.30897e-18
8339.37287 2.34269e-18
8340.23434 2.37643e-18
8341.09580 2.40675e-18
8341.95726 2.43705e-18
8342.81872 2.45737e-18
8343.68018 2.47767e-18
8344.54165 2.48814e-18
8345.40311 2.49858e-18
8346.26457 2.50381e-18
8347.12603 2.50902e-18
8347.99751 2.51276e-18
8348.85897 2.51652e-18
8349.72043 2.52158e-18
8350.58190 2.52664e-18
8351.44336 2.53629e-18
8352.30482 2.54594e-18
8353.16628 2.56361e-18
8354.02775 2.58130e-18
8354.88921 2.60740e-18
8355.75067 2.63352e-18
8356.62215 2.66378e-18
8357.48361 2.69407e-18
8358.34507 2.72425e-18
8359.20653 2.75442e-18
8360.06800 2.78082e-18
8360.92946 2.80719e-18
8361.79092 2.82757e-18
8362.65238 2.84793e-18
8363.51384 2.86614e-18
8364.37531 2.88433e-18
8365.23677 2.90413e-18
8366.10825 2.92395e-18
8366.96971 2.94288e-18
8367.83117 2.96182e-18
8368.69263 2.97729e-18
8369.55410 2.99276e-18
8370.41556 3.00727e-18
8371.27702 3.02180e-18
8372.13848 3.03886e-18
8372.99994 3.05591e-18
8373.86140 3.07738e-18
8374.72287 3.09888e-18
8375.59435 3.12599e-18
8376.45581 3.15313e-18
8377.31727 3.18563e-18
8378.17873 3.21814e-18
8379.04019 3.25478e-18
8379.90166 3.29142e-18
8380.76312 3.33019e-18
8381.62458 3.36896e-18
8382.48604 3.40750e-18
8383.34750 3.44603e-18
8384.20897 3.48239e-18
8385.07043 3.51873e-18
8385.94191 3.55111e-18
8386.80337 3.58349e-18
8387.66483 3.61296e-18
8388.52629 3.64243e-18
8389.38775 3.67472e-18
8390.24922 3.70702e-18
8391.11068 3.74374e-18
8391.97214 3.78046e-18
8392.83360 3.81422e-18
8393.69507 3.84798e-18
8394.55653 3.87349e-18
8395.41799 3.89898e-18
8396.28947 3.91610e-18
8397.15093 3.93320e-18
8398.01239 3.94406e-18
8398.87385 3.95490e-18
8399.73532 3.97151e-18
8400.59678 3.98814e-18
8401.45824 4.02144e-18
8402.31970 4.05479e-18
8403.18116 4.10126e-18
8404.04263 4.14776e-18
8404.90409 4.20069e-18
8405.77557 4.25363e-18
8406.63703 4.30562e-18
8407.49849 4.35760e-18
8408.35995 4.40098e-18
8409.22142 4.44433e-18
8410.08288 4.47914e-18
8410.94434 4.51392e-18
8411.80580 4.54406e-18
8412.66726 4.57418e-18
8413.52873 4.60236e-18
8414.39019 4.63052e-18
8415.26167 4.65890e-18
8416.12313 4.68729e-18
8416.98459 4.71821e-18
8417.84605 4.74914e-18
8418.70751 4.78450e-18
8419.56898 4.81987e-18
8420.43044 4.86041e-18
8421.29190 4.90097e-18
8422.15336 4.94652e-18
8423.01482 4.99210e-18
8423.87629 5.04024e-18
8424.74777 5.08840e-18
8425.60923 5.13248e-18
8426.47069 5.17657e-18
8427.33215 5.21388e-18
8428.19361 5.25118e-18
8429.05508 5.28924e-18
8429.91654 5.32730e-18
8430.77800 5.37224e-18
8431.63946 5.41719e-18
8432.50092 5.46967e-18
8433.36239 5.52215e-18
8434.23386 5.58119e-18
8435.09533 5.64022e-18
8435.95679 5.69601e-18
8436.81825 5.75179e-18
8437.67971 5.79467e-18
8438.54117 5.83752e-18
8439.40264 5.87314e-18
8440.26410 5.90874e-18
8441.12556 5.94628e-18
8441.98702 5.98380e-18
8442.84848 6.02594e-18
8443.70995 6.06810e-18
8444.58143 6.11548e-18
8445.44289 6.16287e-18
8446.30435 6.21600e-18
8447.16581 6.26914e-18
8448.02727 6.32786e-18
8448.88874 6.38658e-18
8449.75020 6.44907e-18
8450.61166 6.51156e-18
8451.47312 6.57516e-18
8452.33458 6.63875e-18
8453.20606 6.70042e-18
8454.06752 6.76207e-18
8454.92899 6.81809e-18
8455.79045 6.87409e-18
8456.65191 6.92528e-18
8457.51337 6.97645e-18
8458.37483 7.03074e-18
8459.23630 7.08505e-18
8460.09776 7.14579e-18
8460.95922 7.20656e-18
8461.82068 7.26695e-18
8462.69216 7.32734e-18
8463.55362 7.38253e-18
8464.41508 7.43772e-18
8465.27655 7.48808e-18
8466.13801 7.53843e-18
8466.99947 7.58599e-18
8467.86093 7.63354e-18
8468.72240 7.68839e-18
8469.58386 7.74326e-18
8470.44532 7.81433e-18
8471.30678 7.88543e-18
8472.16824 7.96719e-18
8473.03972 8.04899e-18
8473.90118 8.13343e-18
8474.76265 8.21787e-18
8475.62411 8.29889e-18
8476.48557 8.37991e-18
8477.34703 8.45167e-18
8478.20849 8.52340e-18
8479.06996 8.59282e-18
8479.93142 8.66222e-18
8480.79288 8.74191e-18
8481.65434 8.82163e-18
8482.51580 8.90877e-18
8483.38728 8.99592e-18
8484.24875 9.07877e-18
8485.11021 9.16159e-18
8485.97167 9.23488e-18
8486.83313 9.30815e-18
8487.69459 9.37175e-18
8488.55605 9.43533e-18
8489.41752 9.49260e-18
8490.27898 9.54986e-18
8491.14044 9.60928e-18
8492.00190 9.66870e-18
8492.87338 9.73579e-18
8493.73484 9.80290e-18
8494.59631 9.87616e-18
8495.45777 9.94942e-18
8496.31923 1.00296e-17
8497.18069 1.01099e-17
8498.04215 1.02061e-17
8498.90362 1.03023e-17
8499.76508 1.04178e-17
8500.62654 1.05333e-17
8501.48800 1.06527e-17
8502.35948 1.07721e-17
8503.22094 1.08803e-17
8504.08240 1.09885e-17
8504.94387 1.10824e-17
8505.80533 1.11763e-17
8506.66679 1.12553e-17
8507.52825 1.13342e-17
8508.38972 1.14039e-17
8509.25118 1.14735e-17
8510.11264 1.15412e-17
8510.98412 1.16091e-17
8511.84558 1.16779e-17
8512.70704 1.17466e-17
8513.56850 1.18180e-17
8514.42997 1.18892e-17
8515.29143 1.19627e-17
8516.15289 1.20363e-17
8517.01435 1.21112e-17
8517.87581 1.21861e-17
8518.73728 1.22624e-17
8519.59874 1.23386e-17
8520.46020 1.24165e-17
8521.33168 1.24942e-17
8522.19314 1.25771e-17
8523.05460 1.26598e-17
8523.91607 1.27540e-17
8524.77753 1.28482e-17
8525.63899 1.29559e-17
8526.50045 1.30636e-17
8527.36191 1.31809e-17
8528.22337 1.32980e-17
8529.08484 1.34187e-17
8529.94630 1.35394e-17
8530.80776 1.36534e-17
8531.67924 1.37674e-17
8532.54070 1.38666e-17
8533.40216 1.39658e-17
8534.26363 1.40470e-17
8535.12509 1.41283e-17
8535.98655 1.41924e-17
8536.84801 1.42567e-17
8537.70947 1.43161e-17
8538.57094 1.43756e-17
8539.43240 1.44436e-17
8540.30388 1.45116e-17
8541.16534 1.45968e-17
8542.02680 1.46820e-17
8542.88826 1.47895e-17
8543.74972 1.48972e-17
8544.61119 1.50201e-17
8545.47265 1.51430e-17
8546.33411 1.52699e-17
8547.19557 1.53967e-17
8548.05703 1.55081e-17
8548.91850 1.56193e-17
8549.78998 1.56936e-17
8550.65144 1.57679e-17
8551.51290 1.58071e-17
8552.37436 1.58462e-17
8553.23582 1.58665e-17
8554.09729 1.58868e-17
8554.95875 1.59101e-17
8555.82021 1.59336e-17
8556.68167 1.59860e-17
8557.54313 1.60385e-17
8558.40460 1.61318e-17
8559.27607 1.62251e-17
8560.13754 1.63520e-17
8560.99900 1.64789e-17
8561.86046 1.66256e-17
8562.72192 1.67723e-17
8563.58338 1.69160e-17
8564.44485 1.70598e-17
8565.30631 1.71798e-17
8566.16777 1.72998e-17
8567.02923 1.73823e-17
8567.89070 1.74647e-17
8568.75216 1.75032e-17
8569.62364 1.75416e-17
8570.48510 1.75469e-17
8571.34656 1.75522e-17
8572.20802 1.75400e-17
8573.06948 1.75278e-17
8573.93095 1.75154e-17
8574.79241 1.75031e-17
8575.65387 1.75072e-17
8576.51533 1.75114e-17
8577.37679 1.75495e-17
8578.23826 1.75878e-17
8579.09972 1.76732e-17
8579.97120 1.77587e-17
8580.83266 1.78747e-17
8581.69412 1.79908e-17
8582.55558 1.81099e-17
8583.41705 1.82290e-17
8584.27851 1.83288e-17
8585.13997 1.84288e-17
8586.00143 1.84914e-17
8586.86289 1.85539e-17
8587.72436 1.85766e-17
8588.58582 1.85993e-17
8589.45730 1.85924e-17
8590.31876 1.85852e-17
8591.18022 1.85641e-17
8592.04168 1.85429e-17
8592.90314 1.85288e-17
8593.76461 1.85146e-17
8594.62607 1.85193e-17
8595.48753 1.85238e-17
8596.34899 1.85425e-17
8597.21045 1.85611e-17
8598.07192 1.85909e-17
8598.94340 1.86208e-17
8599.80486 1.86648e-17
8600.66632 1.87088e-17
8601.52778 1.87657e-17
8602.38924 1.88225e-17
8603.25071 1.88832e-17
8604.11217 1.89439e-17
8604.97363 1.89984e-17
8605.83509 1.90531e-17
8606.69655 1.90882e-17
8607.56803 1.91232e-17
8608.42949 1.91281e-17
8609.29096 1.91329e-17
8610.15242 1.91105e-17
8611.01388 1.90878e-17
8611.87534 1.90458e-17
8612.73680 1.90036e-17
8613.59827 1.89506e-17
8614.45973 1.88974e-17
8615.32119 1.88425e-17
8616.18265 1.87875e-17
8617.04411 1.87479e-17
8617.91559 1.87083e-17
8618.77706 1.87028e-17
8619.63852 1.86973e-17
8620.49998 1.87270e-17
8621.36144 1.87567e-17
8622.22290 1.88113e-17
8623.08437 1.88662e-17
8623.94583 1.89312e-17
8624.80729 1.89964e-17
8625.66875 1.90536e-17
8626.53021 1.91108e-17
8627.40169 1.91489e-17
8628.26315 1.91870e-17
8629.12462 1.92058e-17
8629.98608 1.92246e-17
8630.84754 1.92236e-17
8631.70900 1.92227e-17
8632.57046 1.91994e-17
8633.43193 1.91761e-17
8634.29339 1.91337e-17
8635.15485 1.90913e-17
8636.01631 1.90431e-17
8636.88779 1.89949e-17
8637.74925 1.89547e-17
8638.61072 1.89147e-17
8639.47218 1.88986e-17
8640.33364 1.88826e-17
8641.19510 1.89018e-17
8642.05656 1.89209e-17
8642.91803 1.89658e-17
8643.77949 1.90109e-17
8644.64095 1.90677e-17
8645.50241 1.91244e-17
8646.37389 1.91782e-17
8647.23535 1.92320e-17
8648.09681 1.92681e-17
8648.95828 1.93041e-17
8649.81974 1.93171e-17
8650.68120 1.93301e-17
8651.54266 1.93202e-17
8652.40412 1.93102e-17
8653.26559 1.92757e-17
8654.12705 1.92413e-17
8654.98851 1.91813e-17
8655.85999 1.91212e-17
8656.72145 1.90461e-17
8657.58291 1.89710e-17
8658.44438 1.88988e-17
8659.30584 1.88266e-17
8660.16730 1.87698e-17
8661.02876 1.87130e-17
8661.89022 1.86770e-17
8662.75168 1.86412e-17
8663.61315 1.86289e-17
8664.47461 1.86168e-17
8665.33607 1.86275e-17
8666.20755 1.86381e-17
8667.06901 1.86667e-17
8667.93047 1.86953e-17
8668.79194 1.87328e-17
8669.65340 1.87704e-17
8670.51486 1.88049e-17
8671.37632 1.88393e-17
8672.23778 1.88500e-17
8673.09925 1.88606e-17
8673.96071 1.88320e-17
8674.82217 1.88034e-17
8675.68363 1.87403e-17
8676.55511 1.86771e-17
8677.41657 1.85896e-17
8678.27803 1.85019e-17
8679.13950 1.84071e-17
8680.00096 1.83122e-17
8680.86242 1.82289e-17
8681.72388 1.81456e-17
8682.58535 1.80813e-17
8683.44681 1.80170e-17
8684.30827 1.79743e-17
8685.16973 1.79316e-17
8686.04121 1.79131e-17
8686.90267 1.78948e-17
8687.76413 1.79008e-17
8688.62560 1.79069e-17
8689.48706 1.79328e-17
8690.34852 1.79587e-17
8691.20998 1.79967e-17
8692.07144 1.80349e-17
8692.93291 1.80723e-17
8693.79437 1.81096e-17
8694.66585 1.81298e-17
8695.52731 1.81499e-17
8696.38877 1.81430e-17
8697.25023 1.81359e-17
8698.11170 1.81000e-17
8698.97316 1.80639e-17
8699.83462 1.80030e-17
8700.69608 1.79420e-17
8701.55754 1.78692e-17
8702.41900 1.77964e-17
8703.28047 1.77229e-17
8704.15195 1.76494e-17
8705.01341 1.75755e-17
8705.87487 1.75018e-17
8706.73633 1.74307e-17
8707.59779 1.73597e-17
8708.45926 1.73062e-17
8709.32072 1.72528e-17
8710.18218 1.72286e-17
8711.04364 1.72044e-17
8711.90510 1.72099e-17
8712.76657 1.72156e-17
8713.62803 1.72467e-17
8714.49951 1.72778e-17
8715.36097 1.73117e-17
8716.22243 1.73456e-17
8717.08389 1.73566e-17
8717.94535 1.73676e-17
8718.80682 1.73452e-17
8719.66828 1.73226e-17
8720.52974 1.72629e-17
8721.39120 1.72031e-17
8722.25267 1.71206e-17
8723.11413 1.70382e-17
8723.98561 1.69588e-17
8724.84707 1.68792e-17
8725.70853 1.68121e-17
8726.56999 1.67449e-17
8727.43145 1.66874e-17
8728.29292 1.66300e-17
8729.15438 1.65825e-17
8730.01584 1.65349e-17
8730.87730 1.64986e-17
8731.73876 1.64621e-17
8732.61024 1.64404e-17
8733.47170 1.64185e-17
8734.33317 1.64213e-17
8735.19463 1.64243e-17
8736.05609 1.64488e-17
8736.91755 1.64733e-17
8737.77902 1.64906e-17
8738.64048 1.65078e-17
8739.50194 1.64932e-17
8740.36340 1.64786e-17
8741.22486 1.64188e-17
8742.08633 1.63589e-17
8742.95780 1.62504e-17
8743.81927 1.61417e-17
8744.68073 1.60158e-17
8745.54219 1.58897e-17
8746.40365 1.57804e-17
8747.26511 1.56710e-17
8748.12658 1.55941e-17
8748.98804 1.55174e-17
8749.84950 1.54825e-17
8750.71096 1.54477e-17
8751.57242 1.54451e-17
8752.44390 1.54426e-17
8753.30537 1.54533e-17
8754.16683 1.54642e-17
8755.02829 1.54782e-17
8755.88975 1.54921e-17
8756.75121 1.55025e-17
8757.61268 1.55128e-17
8758.47414 1.55045e-17
8759.33560 1.54960e-17
8760.19706 1.54506e-17
8761.05852 1.54050e-17
8761.91999 1.53196e-17
8762.79146 1.52340e-17
8763.65293 1.51183e-17
8764.51439 1.50025e-17
8765.37585 1.48726e-17
8766.23731 1.47428e-17
8767.09877 1.46219e-17
8767.96024 1.45013e-17
8768.82170 1.44043e-17
8769.68316 1.43075e-17
8770.54462 1.42326e-17
8771.40608 1.41578e-17
8772.26755 1.41016e-17
8773.13903 1.40456e-17
8774.00049 1.40058e-17
8774.86195 1.39659e-17
8775.72341 1.39369e-17
8776.58487 1.39078e-17
8777.44633 1.38850e-17
8778.30780 1.38623e-17
8779.16926 1.38391e-17
8780.03072 1.38158e-17
8780.89218 1.37720e-17
8781.76366 1.37280e-17
8782.62512 1.36454e-17
8783.48659 1.35625e-17
8784.34805 1.34498e-17
8785.20951 1.33370e-17
8786.07097 1.32103e-17
8786.93243 1.30836e-17
8787.79390 1.29552e-17
8788.65536 1.28267e-17
8789.51682 1.27082e-17
8790.37828 1.25898e-17
8791.24976 1.24810e-17
8792.11122 1.23723e-17
8792.97268 1.22648e-17
8793.83415 1.21573e-17
8794.69561 1.20565e-17
8795.55707 1.19558e-17
8796.41853 1.18771e-17
8797.28000 1.17987e-17
8798.14146 1.17393e-17
8799.00292 1.16799e-17
8799.86438 1.16188e-17
8800.72584 1.15577e-17
8801.59732 1.14782e-17
8802.45878 1.13986e-17
8803.32025 1.12891e-17
8804.18171 1.11796e-17
8805.04317 1.10388e-17
8805.90463 1.08979e-17
8806.76609 1.07460e-17
8807.62756 1.05939e-17
8808.48902 1.04493e-17
8809.35048 1.03048e-17
8810.21194 1.01766e-17
8811.08342 1.00484e-17
8811.94488 9.94242e-18
8812.80635 9.83652e-18
8813.66781 9.75051e-18
8814.52927 9.66456e-18
8815.39073 9.59287e-18
8816.25219 9.52120e-18
8817.11365 9.45680e-18
8817.97512 9.39242e-18
8818.83658 9.32744e-18
8819.70806 9.26248e-18
8820.56952 9.18743e-18
8821.43098 9.11236e-18
8822.29244 9.01896e-18
8823.15391 8.92552e-18
8824.01537 8.81274e-18
8824.87683 8.69992e-18
8825.73829 8.57074e-18
8826.59975 8.44152e-18
8827.46122 8.30784e-18
8828.32268 8.17415e-18
8829.19416 8.05311e-18
8830.05562 7.93211e-18
8830.91708 7.83245e-18
8831.77854 7.73285e-18
8832.64000 7.65518e-18
8833.50147 7.57758e-18
8834.36293 7.51914e-18
8835.22439 7.46074e-18
8836.08585 7.41468e-18
8836.94732 7.36866e-18
8837.80878 7.32696e-18
8838.67024 7.28527e-18
8839.54172 7.23972e-18
8840.40318 7.19417e-18
8841.26464 7.13870e-18
8842.12610 7.08322e-18
8842.98757 7.01704e-18
8843.84903 6.95083e-18
8844.71049 6.87520e-18
8845.57195 6.79956e-18
8846.43341 6.71891e-18
8847.29488 6.63826e-18
8848.15634 6.55827e-18
8849.02782 6.47828e-18
8849.88928 6.40198e-18
8850.75074 6.32569e-18
8851.61220 6.25596e-18
8852.47367 6.18627e-18
8853.33513 6.13794e-18
8854.19659 6.08965e-18
8855.05805 6.07744e-18
8855.91951 6.06533e-18
8856.78097 6.07756e-18
8857.64244 6.08985e-18
8858.50390 6.10584e-18
8859.36536 6.12184e-18
8860.23684 6.12457e-18
8861.09830 6.12725e-18
8861.95976 6.10131e-18
8862.82123 6.07529e-18
8863.68269 6.02647e-18
8864.54415 5.97759e-18
8865.40561 5.92835e-18
8866.26707 5.87910e-18
8867.12854 5.83988e-18
8867.99000 5.80069e-18
8868.86148 5.76885e-18
8869.72294 5.73703e-18
8870.58440 5.71142e-18
8871.44586 5.68583e-18
8872.30732 5.66547e-18
8873.16879 5.64513e-18
8874.03025 5.63113e-18
8874.89171 5.61714e-18
8875.75317 5.61813e-18
8876.61463 5.61916e-18
8877.47610 5.63864e-18
8878.34758 5.65817e-18
8879.20904 5.68535e-18
8880.07050 5.71256e-18
8880.93196 5.73617e-18
8881.79342 5.75976e-18
8882.65489 5.76929e-18
8883.51635 5.77876e-18
8884.37781 5.76655e-18
8885.23927 5.75428e-18
8886.10073 5.72739e-18
8886.96220 5.70046e-18
8887.83367 5.66997e-18
8888.69514 5.63946e-18
8889.55660 5.61558e-18
8890.41806 5.59171e-18
8891.27952 5.58371e-18
8892.14099 5.57577e-18
8893.00245 5.58889e-18
8893.86391 5.60208e-18
8894.72537 5.63841e-18
8895.58683 5.67479e-18
8896.44830 5.72576e-18
8897.30976 5.77678e-18
8898.18124 5.82781e-18
8899.04270 5.87884e-18
8899.90416 5.91746e-18
8900.76562 5.95604e-18
8901.62708 5.97185e-18
8902.48855 5.98759e-18
8903.35001 5.98219e-18
8904.21147 5.97674e-18
8905.07293 5.96741e-18
8905.93439 5.95807e-18
8906.80587 5.95616e-18
8907.66734 5.95425e-18
8908.52880 5.95862e-18
8909.39026 5.96300e-18
8910.25172 5.97368e-18
8911.11318 5.98436e-18
8911.97465 6.00345e-18
8912.83611 6.02256e-18
8913.69757 6.05093e-18
8914.55903 6.07933e-18
8915.42049 6.11901e-18
8916.29197 6.15871e-18
8917.15343 6.20921e-18
8918.01490 6.25973e-18
8918.87636 6.30806e-18
8919.73782 6.35638e-18
8920.59928 6.38954e-18
8921.46074 6.42265e-18
8922.32221 6.43695e-18
8923.18367 6.45121e-18
8924.04513 6.44626e-18
8924.90659 6.44126e-18
8925.76805 6.43239e-18
8926.63953 6.42350e-18
8927.50100 6.43159e-18
8928.36246 6.43973e-18
8929.22392 6.46560e-18
8930.08538 6.49151e-18
8930.94684 6.52569e-18
8931.80831 6.55989e-18
8932.66977 6.59556e-18
8933.53123 6.63121e-18
8934.39269 6.66171e-18
8935.25415 6.69220e-18
8936.12563 6.72068e-18
8936.98709 6.74914e-18
8937.84856 6.79052e-18
8938.71002 6.83194e-18
8939.57148 6.88691e-18
8940.43294 6.94191e-18
8941.29440 6.99020e-18
8942.15587 7.03848e-18
8943.01733 7.06522e-18
8943.87879 7.09190e-18
8944.74025 7.09044e-18
8945.61173 7.08888e-18
8946.47319 7.06160e-18
8947.33466 7.03424e-18
8948.19612 7.01242e-18
8949.05758 6.99061e-18
8949.91904 6.99964e-18
8950.78050 7.00874e-18
8951.64197 7.04073e-18
8952.50343 7.07277e-18
8953.36489 7.11494e-18
8954.22635 7.15714e-18
8955.08781 7.17625e-18
8955.95929 7.19529e-18
8956.82075 7.15862e-18
8957.68222 7.12182e-18
8958.54368 7.07006e-18
8959.40514 7.01828e-18
8960.26660 7.01138e-18
8961.12806 7.00460e-18
8961.98953 7.05112e-18
8962.85099 7.09778e-18
8963.71245 7.18636e-18
8964.57391 7.27506e-18
8965.44539 7.37699e-18
8966.30685 7.47896e-18
8967.16832 7.55080e-18
8968.02978 7.62258e-18
8968.89124 7.66910e-18
8969.75270 7.71556e-18
8970.61416 7.78424e-18
8971.47563 7.85299e-18
8972.33709 7.96029e-18
8973.19855 8.06770e-18
8974.06001 8.19329e-18
8974.93149 8.31891e-18
8975.79295 8.43331e-18
8976.65441 8.54767e-18
8977.51588 8.60584e-18
8978.37734 8.66387e-18
8979.23880 8.63073e-18
8980.10026 8.59734e-18
8980.96172 8.45030e-18
8981.82319 8.30297e-18
8982.68465 8.05655e-18
8983.54611 7.80986e-18
8984.41759 7.59658e-18
8985.27905 7.38340e-18
8986.14051 7.32554e-18
8987.00198 7.26810e-18
8987.86344 7.40760e-18
8988.72490 7.54763e-18
8989.58636 7.89080e-18
8990.44782 8.23450e-18
8991.30928 8.61755e-18
8992.17075 9.00070e-18
8993.03221 9.22648e-18
8993.89367 9.45182e-18
8994.76515 9.49076e-18
8995.62661 9.52920e-18
8996.48807 9.41734e-18
8997.34954 9.30508e-18
8998.21100 9.13062e-18
8999.07246 8.95599e-18
8999.93392 8.83925e-18
9000.79538 8.72266e-18
9001.65685 8.71610e-18
9002.51831 8.70984e-18
9003.38979 8.81022e-18
9004.25125 8.91088e-18
9005.11271 9.08321e-18
9005.97417 9.25573e-18
9006.83563 9.43139e-18
9007.69710 9.60705e-18
9008.55856 9.73255e-18
9009.42002 9.85791e-18
9010.28148 9.90844e-18
9011.14295 9.95876e-18
9012.00441 9.93544e-18
9012.87589 9.91191e-18
9013.73735 9.87366e-18
9014.59881 9.83539e-18
9015.46027 9.82598e-18
9016.32173 9.81664e-18
9017.18320 9.80933e-18
9018.04466 9.80204e-18
9018.90612 9.77697e-18
9019.76758 9.75185e-18
9020.62904 9.73200e-18
9021.49051 9.71214e-18
9022.35197 9.72137e-18
9023.22345 9.73067e-18
9024.08491 9.79900e-18
9024.94637 9.86749e-18
9025.80783 1.00189e-17
9026.66930 1.01706e-17
9027.53076 1.03687e-17
9028.39222 1.05670e-17
9029.25368 1.07568e-17
9030.11514 1.09464e-17
9030.97660 1.10896e-17
9031.83807 1.12326e-17
9032.70955 1.13007e-17
9033.57101 1.13687e-17
9034.43247 1.13593e-17
9035.29393 1.13497e-17
9036.15539 1.12772e-17
9037.01686 1.12045e-17
9037.87832 1.11061e-17
9038.73978 1.10076e-17
9039.60124 1.09405e-17
9040.46270 1.08736e-17
9041.32417 1.08531e-17
9042.18563 1.08327e-17
9043.05711 1.08170e-17
9043.91857 1.08011e-17
9044.78003 1.07681e-17
9045.64149 1.07349e-17
9046.50295 1.06977e-17
9047.36442 1.06605e-17
9048.22588 1.06307e-17
9049.08734 1.06009e-17
9049.94880 1.05969e-17
9050.81027 1.05928e-17
9051.67173 1.06194e-17
9052.54321 1.06461e-17
9053.40467 1.06490e-17
9054.26613 1.06516e-17
9055.12759 1.05829e-17
9055.98905 1.05141e-17
9056.85052 1.03994e-17
9057.71198 1.02845e-17
9058.57344 1.01582e-17
9059.43490 1.00320e-17
9060.29636 9.89854e-18
9061.16784 9.76507e-18
9062.02931 9.62613e-18
9062.89077 9.48717e-18
9063.75223 9.33767e-18
9064.61369 9.18814e-18
9065.47515 9.01695e-18
9066.33662 8.84570e-18
9067.19808 8.69641e-18
9068.05954 8.54719e-18
9068.92100 8.49219e-18
9069.78246 8.43744e-18
9070.64393 8.46072e-18
9071.51540 8.48422e-18
9072.37687 8.50474e-18
9073.23833 8.52526e-18
9074.09979 8.51313e-18
9074.96125 8.50092e-18
9075.82271 8.47875e-18
9076.68418 8.45655e-18
9077.54564 8.43851e-18
9078.40710 8.42048e-18
9079.26856 8.41475e-18
9080.13002 8.40904e-18
9080.99149 8.41528e-18
9081.86297 8.42155e-18
9082.72443 8.41168e-18
9083.58589 8.40176e-18
9084.44735 8.36007e-18
9085.30881 8.31831e-18
9086.17028 8.27578e-18
9087.03174 8.23324e-18
9087.89320 8.21369e-18
9088.75466 8.19420e-18
9089.61612 8.16721e-18
9090.48760 8.14019e-18
9091.34906 8.07659e-18
9092.21053 8.01325e-18
9093.07199 7.94314e-18
9093.93345 7.87302e-18
9094.79491 7.83322e-18
9095.65637 7.79351e-18
9096.51784 7.77358e-18
9097.37930 7.75372e-18
9098.24076 7.73171e-18
9099.10222 7.70967e-18
9099.97370 7.69126e-18
9100.83516 7.67285e-18
9101.69663 7.66979e-18
9102.55809 7.66676e-18
9103.41955 7.70157e-18
9104.28101 7.73648e-18
9105.14247 7.84140e-18
9106.00393 7.94652e-18
9106.86540 8.08331e-18
9107.72686 8.22019e-18
9108.58832 8.29081e-18
9109.45980 8.36124e-18
9110.32126 8.32387e-18
9111.18272 8.28621e-18
9112.04419 8.16520e-18
9112.90565 8.04396e-18
9113.76711 7.88930e-18
9114.62857 7.73456e-18
9115.49003 7.64888e-18
9116.35150 7.56340e-18
9117.21296 7.60018e-18
9118.07442 7.63730e-18
9118.93588 7.71737e-18
9119.80736 7.79756e-18
9120.66882 7.84360e-18
9121.53028 7.88954e-18
9122.39175 7.85204e-18
9123.25321 7.81431e-18
9124.11467 7.66353e-18
9124.97613 7.51245e-18
9125.83760 7.31813e-18
9126.69906 7.12370e-18
9127.56052 6.97073e-18
9128.43200 6.81787e-18
9129.29346 6.75008e-18
9130.15492 6.68254e-18
9131.01638 6.72820e-18
9131.87785 6.77418e-18
9132.73931 6.91424e-18
9133.60077 7.05456e-18
9134.46223 7.24597e-18
9135.32369 7.43750e-18
9136.18516 7.63541e-18
9137.04662 7.83335e-18
9137.90808 7.99152e-18
9138.76954 8.14958e-18
9139.64102 8.23824e-18
9140.50248 8.32670e-18
9141.36395 8.33580e-18
9142.22541 8.34469e-18
9143.08687 8.25915e-18
9143.94833 8.17336e-18
9144.80979 7.97151e-18
9145.67125 7.76934e-18
9146.53272 7.47733e-18
9147.39418 7.18508e-18
9148.26566 6.89112e-18
9149.12712 6.59715e-18
9149.98858 6.38126e-18
9150.85004 6.16559e-18
9151.71151 6.09252e-18
9152.57297 6.01985e-18
9153.43443 6.11487e-18
9154.29589 6.21034e-18
9155.15735 6.39039e-18
9156.01882 6.57067e-18
9156.88028 6.74802e-18
9157.75176 6.92536e-18
9158.61322 7.05899e-18
9159.47468 7.19249e-18
9160.33614 7.25070e-18
9161.19760 7.30869e-18
9162.05907 7.29359e-18
9162.92053 7.27828e-18
9163.78199 7.20709e-18
9164.64345 7.13576e-18
9165.50492 7.00610e-18
9166.36638 6.87628e-18
9167.22784 6.68509e-18
9168.09932 6.49374e-18
9168.96078 6.28845e-18
9169.82224 6.08313e-18
9170.68370 5.92795e-18
9171.54517 5.77293e-18
9172.40663 5.69997e-18
9173.26809 5.62723e-18
9174.12955 5.65044e-18
9174.99101 5.67392e-18
9175.85248 5.75385e-18
9176.71394 5.83392e-18
9177.58542 5.88086e-18
9178.44688 5.92770e-18
9179.30834 5.91555e-18
9180.16980 5.90324e-18
9181.03127 5.89087e-18
9181.89273 5.87850e-18
9182.75419 5.89830e-18
9183.61565 5.91820e-18
9184.47711 5.95863e-18
9185.33857 5.99911e-18
9186.20004 6.04622e-18
9187.07152 6.09333e-18
9187.93298 6.11334e-18
9188.79444 6.13326e-18
9189.65590 6.10741e-18
9190.51736 6.08141e-18
9191.37883 6.06192e-18
9192.24029 6.04243e-18
9193.10175 6.07578e-18
9193.96321 6.10927e-18
9194.82467 6.17479e-18
9195.68614 6.24039e-18
9196.55762 6.30860e-18
9197.41908 6.37681e-18
9198.28054 6.42104e-18
9199.14200 6.46521e-18
9200.00346 6.45985e-18
9200.86492 6.45436e-18
9201.72639 6.41830e-18
9202.58785 6.38214e-18
9203.44931 6.35249e-18
9204.31077 6.32286e-18
9205.17224 6.30070e-18
9206.04371 6.27856e-18
9206.90518 6.24759e-18
9207.76664 6.21658e-18
9208.62810 6.18198e-18
9209.48956 6.14736e-18
9210.35102 6.12657e-18
9211.21249 6.10580e-18
9212.07395 6.11633e-18
9212.93541 6.12695e-18
9213.79687 6.18887e-18
9214.65833 6.25092e-18
9215.52981 6.36023e-18
9216.39127 6.46967e-18
9217.25274 6.58482e-18
9218.11420 6.69999e-18
9218.97566 6.79403e-18
9219.83712 6.88800e-18
9220.69859 6.96952e-18
9221.56005 7.05101e-18
9222.42151 7.12486e-18
9223.28297 7.19869e-18
9224.14443 7.25665e-18
9225.00590 7.31457e-18
9225.87737 7.35087e-18
9226.73884 7.38713e-18
9227.60030 7.39576e-18
9228.46176 7.40432e-18
9229.32322 7.38295e-18
9230.18468 7.36152e-18
9231.04615 7.33452e-18
9231.90761 7.30750e-18
9232.76907 7.30297e-18
9233.63053 7.29850e-18
9234.49199 7.31029e-18
9235.35346 7.32210e-18
9236.22494 7.33435e-18
9237.08640 7.34659e-18
9237.94786 7.36652e-18
9238.80932 7.38647e-18
9239.67078 7.42896e-18
9240.53225 7.47150e-18
9241.39371 7.54367e-18
9242.25517 7.61593e-18
9243.11663 7.72068e-18
9243.97809 7.82554e-18
9244.84957 7.95376e-18
9245.71103 8.08204e-18
9246.57250 8.21292e-18
9247.43396 8.34380e-18
9248.29542 8.46543e-18
9249.15688 8.58704e-18
9250.01834 8.70187e-18
9250.87981 8.81670e-18
9251.74127 8.91896e-18
9252.60273 9.02117e-18
9253.46419 9.08632e-18
9254.32565 9.15137e-18
9255.19713 9.17542e-18
9256.05860 9.19934e-18
9256.92006 9.22992e-18
9257.78152 9.26052e-18
9258.64298 9.33349e-18
9259.50444 9.40655e-18
9260.36591 9.51106e-18
9261.22737 9.61565e-18
9262.08883 9.73243e-18
9262.95029 9.84923e-18
9263.81175 9.93613e-18
9264.68323 1.00229e-17
9265.54469 1.00396e-17
9266.40616 1.00561e-17
9267.26762 1.00036e-17
9268.12908 9.95102e-18
9268.99054 9.84611e-18
9269.85200 9.74105e-18
9270.71347 9.62272e-18
9271.57493 9.50435e-18
9272.43639 9.41915e-18
9273.29785 9.33405e-18
9274.16933 9.31873e-18
9275.03079 9.30361e-18
9275.89226 9.38508e-18
9276.75372 9.46683e-18
9277.61518 9.63137e-18
9278.47664 9.79615e-18
9279.33810 9.99846e-18
9280.19957 1.02009e-17
9281.06103 1.03920e-17
9281.92249 1.05832e-17
9282.79397 1.07160e-17
9283.65543 1.08487e-17
9284.51689 1.08857e-17
9285.37835 1.09223e-17
9286.23982 1.08412e-17
9287.10128 1.07597e-17
9287.96274 1.05703e-17
9288.82420 1.03804e-17
9289.68566 1.01426e-17
9290.54713 9.90478e-18
9291.40859 9.68864e-18
9292.27005 9.47256e-18
9293.14153 9.36999e-18
9294.00299 9.26773e-18
9294.86445 9.33877e-18
9295.72592 9.41030e-18
9296.58738 9.59309e-18
9297.44884 9.77620e-18
9298.31030 9.98865e-18
9299.17176 1.02012e-17
9300.03323 1.03314e-17
9300.89469 1.04613e-17
9301.75615 1.04020e-17
9302.62763 1.03420e-17
9303.48909 1.01961e-17
9304.35055 1.00500e-17
9305.21201 9.98623e-18
9306.07348 9.92266e-18
9306.93494 9.90166e-18
9307.79640 9.88075e-18
9308.65786 9.78023e-18
9309.51932 9.67948e-18
9310.38079 9.50511e-18
9311.24225 9.33055e-18
9312.11373 9.15451e-18
9312.97519 8.97848e-18
9313.83665 8.87154e-18
9314.69811 8.76480e-18
9315.55958 8.80741e-18
9316.42104 8.85046e-18
9317.28250 9.02698e-18
9318.14396 9.20388e-18
9319.00542 9.35956e-18
9319.86688 9.51518e-18
9320.72835 9.58931e-18
9321.58981 9.66321e-18
9322.46129 9.79837e-18
9323.32275 9.93370e-18
9324.18421 1.01611e-17
9325.04567 1.03887e-17
9325.90714 1.04168e-17
9326.76860 1.04443e-17
9327.63006 1.00932e-17
9328.49152 9.74103e-18
9329.35298 9.29307e-18
9330.21445 8.84483e-18
9331.07591 8.57324e-18
9331.94739 8.30216e-18
9332.80885 8.15424e-18
9333.67031 8.00668e-18
9334.53177 7.90351e-18
9335.39323 7.80046e-18
9336.25470 7.74382e-18
9337.11616 7.68730e-18
9337.97762 7.66365e-18
9338.83908 7.64009e-18
9339.70055 7.89005e-18
9340.56201 8.14077e-18
9341.43349 8.99023e-18
9342.29495 9.84137e-18
9343.15641 1.08729e-17
9344.01787 1.19048e-17
9344.87933 1.23504e-17
9345.74080 1.27942e-17
9346.60226 1.24248e-17
9347.46372 1.20530e-17
9348.32518 1.09993e-17
9349.18664 9.94367e-18
9350.04811 8.69027e-18
9350.90957 7.43634e-18
9351.78105 6.87690e-18
9352.64251 6.31948e-18
9353.50397 6.74723e-18
9354.36543 7.17778e-18
9355.22689 7.94622e-18
9356.08836 8.71560e-18
9356.94982 9.28117e-18
9357.81128 9.84614e-18
9358.67274 9.88461e-18
9359.53420 9.92158e-18
9360.39567 9.29278e-18
9361.26715 8.66209e-18
9362.12861 7.87532e-18
9362.99007 7.08812e-18
9363.85153 6.62408e-18
9364.71299 6.16097e-18
9365.57446 6.04734e-18
9366.43592 5.93472e-18
9367.29738 6.12518e-18
9368.15884 6.31650e-18
9369.02030 6.57226e-18
9369.89178 6.82818e-18
9370.75324 6.87572e-18
9371.61471 6.92266e-18
9372.47617 6.77875e-18
9373.33763 6.63430e-18
9374.19909 6.40115e-18
9375.06056 6.16774e-18
9375.92202 6.00160e-18
9376.78348 5.83565e-18
9377.64494 5.92742e-18
9378.50640 6.01991e-18
9379.37788 6.29717e-18
9380.23934 6.57497e-18
9381.10081 6.79198e-18
9381.96227 7.00880e-18
9382.82373 7.08723e-18
9383.68519 7.16527e-18
9384.54665 7.17580e-18
9385.40812 7.18614e-18
9386.26958 7.14833e-18
9387.13104 7.11038e-18
9387.99250 6.99112e-18
9388.85396 6.87162e-18
9389.72544 6.66905e-18
9390.58691 6.46623e-18
9391.44837 6.21091e-18
9392.30983 5.95544e-18
9393.17129 5.68924e-18
9394.03275 5.42303e-18
9394.89422 5.22030e-18
9395.75568 5.01777e-18
9396.61714 4.92884e-18
9397.47860 4.84024e-18
9398.34006 4.82781e-18
9399.21154 4.81559e-18
9400.07300 4.83277e-18
9400.93447 4.85004e-18
9401.79593 4.85178e-18
9402.65739 4.85347e-18
9403.51885 4.80034e-18
9404.38031 4.74706e-18
9405.24178 4.68336e-18
9406.10324 4.61964e-18
9406.96470 4.60762e-18
9407.82616 4.59573e-18
9408.69764 4.63604e-18
9409.55910 4.67651e-18
9410.42057 4.74753e-18
9411.28203 4.81863e-18
9412.14349 4.88676e-18
9413.00495 4.95487e-18
9413.86641 4.98024e-18
9414.72788 5.00547e-18
9415.58934 4.96153e-18
9416.45080 4.91737e-18
9417.31226 4.79589e-18
9418.17372 4.67419e-18
9419.04520 4.48368e-18
9419.90666 4.29297e-18
9420.76813 4.04616e-18
9421.62959 3.79918e-18
9422.49105 3.58439e-18
9423.35251 3.36970e-18
9424.21397 3.39775e-18
9425.07544 3.42652e-18
9425.93690 3.76511e-18
9426.79836 4.10458e-18
9427.65982 4.53268e-18
9428.53130 4.96101e-18
9429.39276 5.26552e-18
9430.25423 5.56966e-18
9431.11569 5.55331e-18
9431.97715 5.53605e-18
9432.83861 5.09893e-18
9433.70007 4.66060e-18
9434.56153 4.14930e-18
9435.42300 3.63781e-18
9436.28446 3.41488e-18
9437.14592 3.19281e-18
9438.01740 3.31539e-18
9438.87886 3.43896e-18
9439.74032 3.88356e-18
9440.60179 4.32907e-18
9441.46325 4.86988e-18
9442.32471 5.41096e-18
9443.18617 5.75737e-18
9444.04763 6.10320e-18
9444.90910 6.17208e-18
9445.77056 6.24014e-18
9446.63202 6.04962e-18
9447.49348 5.85835e-18
9448.36496 5.51129e-18
9449.22642 5.16379e-18
9450.08788 4.82566e-18
9450.94935 4.48756e-18
9451.81081 4.26617e-18
9452.67227 4.04512e-18
9453.53373 3.98249e-18
9454.39520 3.92033e-18
9455.25666 4.02696e-18
9456.11812 4.13408e-18
9456.98960 4.38410e-18
9457.85106 4.63452e-18
9458.71252 4.95307e-18
9459.57398 5.27181e-18
9460.43545 5.50783e-18
9461.29691 5.74361e-18
9462.15837 5.80609e-18
9463.01983 5.86807e-18
9463.88129 5.82812e-18
9464.74276 5.78788e-18
9465.60422 5.71984e-18
9466.47570 5.65173e-18
9467.33716 5.60128e-18
9468.19862 5.55087e-18
9469.06008 5.55469e-18
9469.92155 5.55866e-18
9470.78301 5.56049e-18
9471.64447 5.56231e-18
9472.50593 5.50221e-18
9473.36739 5.44195e-18
9474.22885 5.35746e-18
9475.09032 5.27291e-18
9475.96180 5.21505e-18
9476.82326 5.15727e-18
9477.68472 5.23186e-18
9478.54618 5.30683e-18
9479.40764 5.63315e-18
9480.26911 5.96019e-18
9481.13057 6.40870e-18
9481.99203 6.85755e-18
9482.85349 7.17763e-18
9483.71495 7.49733e-18
9484.57642 7.55691e-18
9485.43788 7.61573e-18
9486.30936 7.36856e-18
9487.17082 7.12050e-18
9488.03228 6.66722e-18
9488.89374 6.21336e-18
9489.75520 5.81905e-18
9490.61667 5.42493e-18
9491.47813 5.25908e-18
9492.33959 5.09392e-18
9493.20105 5.15343e-18
9494.06252 5.21361e-18
9494.92398 5.49764e-18
9495.79546 5.78231e-18
9496.65692 6.32704e-18
9497.51838 6.87251e-18
9498.37984 7.62050e-18
9499.24130 8.36908e-18
9500.10277 9.02764e-18
9500.96423 9.68594e-18
9501.82569 1.00019e-17
9502.68715 1.03169e-17
9503.54861 1.02502e-17
9504.41008 1.01825e-17
9505.28155 9.75906e-18
9506.14302 9.33461e-18
9507.00448 8.77435e-18
9507.86594 8.21372e-18
9508.72740 7.77822e-18
9509.58887 7.34311e-18
9510.45033 7.05802e-18
9511.31179 6.77337e-18
9512.17325 6.58699e-18
9513.03471 6.40089e-18
9513.89617 6.36410e-18
9514.75764 6.32775e-18
9515.62912 6.51342e-18
9516.49058 6.69973e-18
9517.35204 7.08660e-18
9518.21350 7.47405e-18
9519.07496 7.99068e-18
9519.93643 8.50770e-18
9520.79789 9.02834e-18
9521.65935 9.54899e-18
9522.52081 9.90042e-18
9523.38227 1.02513e-17
9524.24374 1.03752e-17
9525.11522 1.04984e-17
9525.97668 1.04857e-17
9526.83814 1.04727e-17
9527.69960 1.04074e-17
9528.56106 1.03419e-17
9529.42252 1.02903e-17
9530.28399 1.02388e-17
9531.14545 1.02381e-17
9532.00691 1.02375e-17
9532.86837 1.02288e-17
9533.72984 1.02200e-17
9534.60131 1.01536e-17
9535.46278 1.00869e-17
9536.32424 9.94765e-18
9537.18570 9.80817e-18
9538.04716 9.60410e-18
9538.90862 9.39983e-18
9539.77009 9.31719e-18
9540.63155 9.23491e-18
9541.49301 9.44949e-18
9542.35447 9.66493e-18
9543.21593 1.00508e-17
9544.08741 1.04371e-17
9544.94888 1.08068e-17
9545.81034 1.11765e-17
9546.67180 1.13471e-17
9547.53326 1.15171e-17
9548.39472 1.13012e-17
9549.25619 1.10841e-17
9550.11765 1.06991e-17
9550.97911 1.03135e-17
9551.84057 1.01974e-17
9552.70203 1.00820e-17
9553.57351 1.02645e-17
9554.43497 1.04479e-17
9555.29644 1.06701e-17
9556.15790 1.08924e-17
9557.01936 1.09800e-17
9557.88082 1.10672e-17
9558.74228 1.09040e-17
9559.60375 1.07401e-17
9560.46521 1.03980e-17
9561.32667 1.00555e-17
9562.18813 9.93015e-18
9563.05961 9.80541e-18
9563.92107 1.01006e-17
9564.78254 1.03971e-17
9565.64400 1.09029e-17
9566.50546 1.14094e-17
9567.36692 1.18999e-17
9568.22838 1.23903e-17
9569.08985 1.25958e-17
9569.95131 1.28006e-17
9570.81277 1.25356e-17
9571.67423 1.22692e-17
9572.53569 1.17671e-17
9573.40717 1.12645e-17
9574.26863 1.08029e-17
9575.13010 1.03416e-17
9575.99156 1.01060e-17
9576.85302 9.87118e-18
9577.71448 1.00081e-17
9578.57594 1.01462e-17
9579.43741 1.04254e-17
9580.29887 1.07049e-17
9581.16033 1.07899e-17
9582.02179 1.08745e-17
9582.89327 1.07209e-17
9583.75473 1.05668e-17
9584.61620 1.02406e-17
9585.47766 9.91397e-18
9586.33912 9.65041e-18
9587.20058 9.38704e-18
9588.06204 9.54416e-18
9588.92351 9.70254e-18
9589.78497 1.02355e-17
9590.64643 1.07697e-17
9591.51791 1.12677e-17
9592.37937 1.17657e-17
9593.24083 1.20072e-17
9594.10229 1.22481e-17
9594.96376 1.22545e-17
9595.82522 1.22602e-17
9596.68668 1.20759e-17
9597.54814 1.18911e-17
9598.40960 1.16201e-17
9599.27107 1.13489e-17
9600.13253 1.11059e-17
9600.99399 1.08629e-17
9601.86547 1.07385e-17
9602.72693 1.06144e-17
9603.58839 1.06679e-17
9604.44986 1.07220e-17
9605.31132 1.09435e-17
9606.17278 1.11655e-17
9607.03424 1.15051e-17
9607.89570 1.18449e-17
9608.75717 1.20867e-17
9609.61863 1.23281e-17
9610.48009 1.22639e-17
9611.35157 1.21987e-17
9612.21303 1.19167e-17
9613.07449 1.16341e-17
9613.93595 1.13008e-17
9614.79742 1.09674e-17
9615.65888 1.06985e-17
9616.52034 1.04299e-17
9617.38180 1.03220e-17
9618.24326 1.02146e-17
9619.10473 1.02925e-17
9619.96619 1.03709e-17
9620.82765 1.06077e-17
9621.69913 1.08450e-17
9622.56059 1.11553e-17
9623.42205 1.14659e-17
9624.28352 1.17309e-17
9625.14498 1.19958e-17
9626.00644 1.21022e-17
9626.86790 1.22081e-17
9627.72936 1.20497e-17
9628.59083 1.18906e-17
9629.45229 1.14985e-17
9630.31375 1.11059e-17
9631.17521 1.07123e-17
9632.04669 1.03186e-17
9632.90815 1.01034e-17
9633.76961 9.88882e-18
9634.63108 9.92221e-18
9635.49254 9.95635e-18
9636.35400 1.02309e-17
9637.21546 1.05061e-17
9638.07692 1.07614e-17
9638.93839 1.10166e-17
9639.79985 1.10373e-17
9640.67133 1.10573e-17
9641.53279 1.09778e-17
9642.39425 1.08980e-17
9643.25571 1.08754e-17
9644.11718 1.08530e-17
9644.97864 1.09252e-17
9645.84010 1.09978e-17
9646.70156 1.11802e-17
9647.56302 1.13629e-17
9648.42448 1.15336e-17
9649.28595 1.17043e-17
9650.15743 1.17047e-17
9651.01889 1.17045e-17
9651.88035 1.15339e-17
9652.74181 1.13629e-17
9653.60327 1.10926e-17
9654.46474 1.08219e-17
9655.32620 1.05495e-17
9656.18766 1.02771e-17
9657.04912 1.01156e-17
9657.91058 9.95435e-18
9658.77205 9.96662e-18
9659.64352 9.97943e-18
9660.50499 1.01810e-17
9661.36645 1.03831e-17
9662.22791 1.07101e-17
9663.08937 1.10374e-17
9663.95083 1.13232e-17
9664.81230 1.16090e-17
9665.67376 1.17572e-17
9666.53522 1.19051e-17
9667.39668 1.19669e-17
9668.25815 1.20284e-17
9669.11961 1.20328e-17
9669.99109 1.20370e-17
9670.85255 1.19348e-17
9671.71401 1.18322e-17
9672.57547 1.16099e-17
9673.43693 1.13872e-17
9674.29840 1.11356e-17
9675.15986 1.08838e-17
9676.02132 1.06936e-17
9676.88278 1.05036e-17
9677.74424 1.04381e-17
9678.61572 1.03730e-17
9679.47718 1.04742e-17
9680.33865 1.05759e-17
9681.20011 1.07604e-17
9682.06157 1.09450e-17
9682.92303 1.10966e-17
9683.78449 1.12481e-17
9684.64596 1.13325e-17
9685.50742 1.14167e-17
9686.36888 1.14291e-17
9687.23034 1.14414e-17
9688.10182 1.13939e-17
9688.96328 1.13464e-17
9689.82475 1.12684e-17
9690.68621 1.11903e-17
9691.54767 1.10871e-17
9692.40913 1.09837e-17
9693.27059 1.08397e-17
9694.13206 1.06955e-17
9694.99352 1.05319e-17
9695.85498 1.03682e-17
9696.71644 1.02432e-17
9697.57790 1.01182e-17
9698.44938 1.00606e-17
9699.31084 1.00032e-17
9700.17231 1.00021e-17
9701.03377 1.00011e-17
9701.89523 1.00327e-17
9702.75669 1.00644e-17
9703.61816 1.00758e-17
9704.47962 1.00872e-17
9705.34108 1.00443e-17
9706.20254 1.00013e-17
9707.06400 9.93704e-18
9707.93548 9.87275e-18
9708.79694 9.82128e-18
9709.65841 9.76986e-18
9710.51987 9.74977e-18
9711.38133 9.72978e-18
9712.24279 9.75322e-18
9713.10425 9.77678e-18
9713.96572 9.81133e-18
9714.82718 9.84591e-18
9715.68864 9.85256e-18
9716.55010 9.85915e-18
9717.41156 9.82674e-18
9718.28304 9.79422e-18
9719.14451 9.71827e-18
9720.00597 9.64218e-18
9720.86743 9.56331e-18
9721.72889 9.48443e-18
9722.59035 9.46513e-18
9723.45182 9.44600e-18
9724.31328 9.45883e-18
9725.17474 9.47176e-18
9726.03620 9.43519e-18
9726.89766 9.39846e-18
9727.76914 9.28361e-18
9728.63060 9.16853e-18
9729.49207 8.99057e-18
9730.35353 8.81241e-18
9731.21499 8.60930e-18
9732.07645 8.40611e-18
9732.93791 8.24768e-18
9733.79938 8.08939e-18
9734.66084 8.01914e-18
9735.52230 7.94916e-18
9736.38376 7.95864e-18
9737.25524 7.96835e-18
9738.11670 8.03797e-18
9738.97817 8.10777e-18
9739.83963 8.19901e-18
9740.70109 8.29031e-18
9741.56255 8.36506e-18
9742.42401 8.43977e-18
9743.28548 8.47784e-18
9744.14694 8.51581e-18
9745.00840 8.50523e-18
9745.86986 8.49451e-18
9746.74134 8.45153e-18
9747.60280 8.40846e-18
9748.46426 8.35535e-18
9749.32573 8.30221e-18
9750.18719 8.24427e-18
9751.04865 8.18632e-18
9751.91011 8.12634e-18
9752.77157 8.06635e-18
9753.63304 8.00236e-18
9754.49450 7.93836e-18
9755.35596 7.86621e-18
9756.22744 7.79403e-18
9757.08890 7.72874e-18
9757.95036 7.66346e-18
9758.81183 7.62720e-18
9759.67329 7.59103e-18
9760.53475 7.60097e-18
9761.39621 7.61106e-18
9762.25767 7.68192e-18
9763.11913 7.75297e-18
9763.98060 7.86244e-18
9764.84206 7.97201e-18
9765.71354 8.05726e-18
9766.57500 8.14244e-18
9767.43646 8.17266e-18
9768.29792 8.20272e-18
9769.15939 8.19811e-18
9770.02085 8.19338e-18
9770.88231 8.17115e-18
9771.74377 8.14887e-18
9772.60523 8.11761e-18
9773.46670 8.08633e-18
9774.32816 8.05697e-18
9775.19964 8.02759e-18
9776.06110 8.00874e-18
9776.92256 7.98991e-18
9777.78402 7.98732e-18
9778.64548 7.98479e-18
9779.50695 8.00582e-18
9780.36841 8.02692e-18
9781.22987 8.07359e-18
9782.09133 8.12035e-18
9782.95280 8.15227e-18
9783.81426 8.18414e-18
9784.68574 8.15738e-18
9785.54720 8.13044e-18
9786.40866 8.06629e-18
9787.27012 8.00203e-18
9788.13158 7.94050e-18
9788.99305 7.87898e-18
9789.85451 7.83417e-18
9790.71597 7.78940e-18
9791.57743 7.76717e-18
9792.43889 7.74499e-18
9793.30036 7.73032e-18
9794.16182 7.71568e-18
9795.03330 7.67703e-18
9795.89476 7.63832e-18
9796.75622 7.58490e-18
9797.61768 7.53146e-18
9798.47915 7.50936e-18
9799.34061 7.48736e-18
9800.20207 7.51198e-18
9801.06353 7.53675e-18
9801.92499 7.58625e-18
9802.78645 7.63581e-18
9803.64792 7.68813e-18
9804.51940 7.74044e-18
9805.38086 7.76971e-18
9806.24232 7.79891e-18
9807.10378 7.79259e-18
9807.96524 7.78615e-18
9808.82671 7.76905e-18
9809.68817 7.75191e-18
9810.54963 7.74766e-18
9811.41109 7.74345e-18
9812.27255 7.76698e-18
9813.13402 7.79059e-18
9813.99548 7.84884e-18
9814.86696 7.90720e-18
9815.72842 7.95871e-18
9816.58988 8.01020e-18
9817.45134 8.01095e-18
9818.31280 8.01155e-18
9819.17427 7.96740e-18
9820.03573 7.92311e-18
9820.89719 7.85258e-18
9821.75865 7.78196e-18
9822.62012 7.71223e-18
9823.48158 7.64251e-18
9824.35306 7.60527e-18
9825.21452 7.56812e-18
9826.07598 7.55874e-18
9826.93744 7.54945e-18
9827.79890 7.54230e-18
9828.66037 7.53516e-18
9829.52183 7.52389e-18
9830.38329 7.51262e-18
9831.24475 7.50484e-18
9832.10621 7.49707e-18
9832.97769 7.49103e-18
9833.83915 7.48498e-18
9834.70062 7.47071e-18
9835.56208 7.45641e-18
9836.42354 7.42932e-18
9837.28500 7.40218e-18
9838.14647 7.36496e-18
9839.00793 7.32770e-18
9839.86939 7.28337e-18
9840.73085 7.23902e-18
9841.59231 7.18917e-18
9842.45377 7.13930e-18
9843.32525 7.08960e-18
9844.18672 7.03990e-18
9845.04818 7.00797e-18
9845.90964 6.97609e-18
9846.77110 6.97581e-18
9847.63256 6.97561e-18
9848.49403 7.00267e-18
9849.35549 7.02980e-18
9850.21695 7.07633e-18
9851.07841 7.12292e-18
9851.93987 7.18137e-18
9852.81135 7.23987e-18
9853.67282 7.30137e-18
9854.53428 7.36287e-18
9855.39574 7.42179e-18
9856.25720 7.48068e-18
9857.11866 7.53287e-18
9857.98013 7.58504e-18
9858.84159 7.61934e-18
9859.70305 7.65358e-18
9860.56451 7.65719e-18
9861.42597 7.66072e-18
9862.29745 7.63192e-18
9863.15891 7.60304e-18
9864.02038 7.54732e-18
9864.88184 7.49151e-18
9865.74330 7.41904e-18
9866.60476 7.34650e-18
9867.46622 7.27180e-18
9868.32769 7.19711e-18
9869.18915 7.12853e-18
9870.05061 7.05997e-18
9870.92209 6.99655e-18
9871.78355 6.93315e-18
9872.64501 6.87597e-18
9873.50648 6.81882e-18
9874.36794 6.77279e-18
9875.22940 6.72679e-18
9876.09086 6.69578e-18
9876.95232 6.66482e-18
9877.81379 6.65239e-18
9878.67525 6.64003e-18
9879.53671 6.64782e-18
9880.39817 6.65567e-18
9881.26965 6.68120e-18
9882.13111 6.70678e-18
9882.99257 6.74547e-18
9883.85404 6.78418e-18
9884.71550 6.82765e-18
9885.57696 6.87114e-18
9886.43842 6.91034e-18
9887.29988 6.94953e-18
9888.16135 6.97598e-18
9889.02281 7.00239e-18
9889.88427 7.00900e-18
9890.74573 7.01553e-18
9891.61721 7.00210e-18
9892.47867 6.98862e-18
9893.34014 6.95874e-18
9894.20160 6.92882e-18
9895.06306 6.88635e-18
9895.92452 6.84383e-18
9896.78598 6.79280e-18
9897.64745 6.74176e-18
9898.50891 6.68881e-18
9899.37037 6.63585e-18
9900.23183 6.58974e-18
9901.09329 6.54366e-18
9901.96477 6.50586e-18
9902.82623 6.46807e-18
9903.68770 6.43111e-18
9904.54916 6.39416e-18
9905.41062 6.35975e-18
9906.27208 6.32536e-18
9907.13354 6.30974e-18
9907.99501 6.29416e-18
9908.85647 6.30503e-18
9909.71793 6.31597e-18
9910.57939 6.34594e-18
9911.45087 6.37596e-18
9912.31233 6.41297e-18
9913.17380 6.45001e-18
9914.03526 6.46862e-18
9914.89672 6.48717e-18
9915.75818 6.46715e-18
9916.61964 6.44702e-18
9917.48111 6.39544e-18
9918.34257 6.34377e-18
9919.20403 6.27300e-18
9920.07551 6.20217e-18
9920.93697 6.12624e-18
9921.79843 6.05030e-18
9922.65989 5.98348e-18
9923.52136 5.91671e-18
9924.38282 5.86529e-18
9925.24428 5.81393e-18
9926.10574 5.78035e-18
9926.96720 5.74683e-18
9927.82867 5.72180e-18
9928.69013 5.69679e-18
9929.56161 5.66552e-18
9930.42307 5.63423e-18
9931.28453 5.59191e-18
9932.14599 5.54956e-18
9933.00746 5.49830e-18
9933.86892 5.44701e-18
9934.73038 5.39116e-18
9935.59184 5.33529e-18
9936.45330 5.28113e-18
9937.31477 5.22696e-18
9938.17623 5.18279e-18
9939.03769 5.13866e-18
9939.90917 5.11491e-18
9940.77063 5.09123e-18
9941.63209 5.09078e-18
9942.49355 5.09040e-18
9943.35502 5.10243e-18
9944.21648 5.11450e-18
9945.07794 5.12971e-18
9945.93940 5.14491e-18
9946.80086 5.16092e-18
9947.66233 5.17694e-18
9948.52379 5.19105e-18
9949.39527 5.20515e-18
9950.25673 5.21219e-18
9951.11819 5.21921e-18
9951.97965 5.21583e-18
9952.84112 5.21244e-18
9953.70258 5.20536e-18
9954.56404 5.19827e-18
9955.42550 5.19484e-18
9956.28696 5.19142e-18
9957.14843 5.18671e-18
9958.00989 5.18200e-18
9958.88137 5.16924e-18
9959.74283 5.15643e-18
9960.60429 5.13214e-18
9961.46575 5.10780e-18
9962.32721 5.06973e-18
9963.18868 5.03162e-18
9964.05014 4.99117e-18
9964.91160 4.95072e-18
9965.77306 4.92693e-18
9966.63452 4.90320e-18
9967.49599 4.90054e-18
9968.36747 4.89794e-18
9969.22893 4.90906e-18
9970.09039 4.92022e-18
9970.95185 4.94399e-18
9971.81331 4.96779e-18
9972.67477 5.00966e-18
9973.53624 5.05158e-18
9974.39770 5.10927e-18
9975.25916 5.16701e-18
9976.12062 5.22818e-18
9976.98208 5.28935e-18
9977.85356 5.34417e-18
9978.71503 5.39897e-18
9979.57649 5.44273e-18
9980.43795 5.48647e-18
9981.29941 5.51753e-18
9982.16087 5.54857e-18
9983.02234 5.57354e-18
9983.88380 5.59850e-18
9984.74526 5.62404e-18
9985.60672 5.64959e-18
9986.46818 5.67901e-18
9987.32965 5.70844e-18
9988.20112 5.74347e-18
9989.06259 5.77851e-18
9989.92405 5.80680e-18
9990.78551 5.83506e-18
9991.64697 5.84262e-18
9992.50843 5.85011e-18
9993.36990 5.84744e-18
9994.23136 5.84473e-18
9995.09282 5.84977e-18
9995.95428 5.85484e-18
9996.81574 5.86454e-18
9997.67721 5.87427e-18
9998.54869 5.87719e-18
9999.41015 5.88009e-18
