# wavelength flux
3746.85186 2.18976e-17
3748.32407 1.91985e-17
3749.78626 1.64991e-17
3751.25846 1.38001e-17
3752.73067 1.11013e-17
3754.20287 8.40279e-18
3755.67508 9.06495e-19
3757.13727 5.49027e-18
3758.60947 7.84563e-18
3760.08167 -5.44356e-19
3761.55388 3.62914e-18
3763.01607 6.78900e-18
3764.48828 3.42102e-18
3765.96048 8.44966e-18
3767.43269 1.68907e-17
3768.89488 9.16669e-18
3770.36708 6.05755e-18
3771.83929 1.07585e-17
3773.31149 1.43766e-17
3774.78370 1.55526e-17
3776.24589 1.60655e-17
3777.71809 1.12087e-17
3779.19030 9.42030e-18
3780.66250 6.20719e-18
3782.12469 1.06573e-17
3783.59690 1.31823e-17
3785.06910 7.77591e-18
3786.54131 1.84492e-17
3788.01351 2.07690e-17
3789.47570 8.11569e-18
3790.94790 -1.75225e-18
3792.42011 1.00697e-17
3793.89232 2.12256e-17
3795.35451 4.20868e-18
3796.82671 2.98869e-18
3798.29892 4.05297e-18
3799.77112 4.84894e-18
3801.23331 7.58063e-18
3802.70552 1.09778e-17
3804.17772 7.81997e-18
3805.64993 6.33783e-18
3807.12213 1.12790e-17
3808.58432 8.04033e-18
3810.05652 4.97376e-18
3811.52873 7.56376e-18
3813.00094 5.84398e-18
3814.46313 6.53231e-18
3815.93533 8.62805e-18
3817.40754 1.31704e-17
3818.87974 1.97758e-17
3820.35195 8.59237e-18
3821.81414 2.64483e-18
3823.28634 8.17288e-18
3824.75855 1.21587e-17
3826.23075 8.45927e-18
3827.69294 -8.55501e-19
3829.16514 3.01321e-18
3830.63735 1.30149e-17
3832.10956 1.94597e-17
3833.58176 1.54699e-17
3835.04395 1.08844e-17
3836.51616 1.41451e-17
3837.98836 1.48527e-17
3839.46057 1.20009e-17
3840.92276 1.23425e-17
3842.39496 1.18299e-17
3843.86717 8.93321e-18
3845.33937 1.43116e-17
3846.80156 9.10693e-18
3848.27377 3.28585e-18
3849.74597 7.61129e-18
3851.21817 1.22455e-17
3852.69038 1.69729e-17
3854.15257 8.92443e-18
3855.62478 8.27163e-18
3857.09698 1.18592e-17
3858.56919 1.23393e-17
3860.03138 1.32768e-17
3861.50358 1.29696e-17
3862.97579 2.15643e-17
3864.44799 2.53439e-17
3865.92020 1.31205e-17
3867.38239 1.34237e-17
3868.85459 1.30277e-17
3870.32680 4.96392e-18
3871.79900 6.36202e-18
3873.26119 1.01339e-17
3874.73340 1.27478e-17
3876.20560 9.04105e-18
3877.67781 1.01099e-17
3879.15001 9.86639e-18
3880.61220 1.77545e-17
3882.08441 1.15317e-17
3883.55661 1.16564e-17
3885.02882 1.39455e-17
3886.49101 1.46891e-17
3887.96321 1.48614e-17
3889.43542 9.29547e-18
3890.90762 1.21734e-17
3892.36981 1.37881e-17
3893.84202 1.07775e-17
3895.31422 1.47352e-17
3896.78643 1.79664e-17
3898.25863 1.15277e-17
3899.72082 1.38460e-17
3901.19303 1.49170e-17
3902.66523 1.65787e-17
3904.13744 1.35686e-17
3905.59963 1.07715e-17
3907.07183 1.61019e-17
3908.54404 1.55254e-17
3910.01624 1.10251e-17
3911.48845 1.62475e-17
3912.95064 2.20555e-17
3914.42284 1.98076e-17
3915.89505 1.64117e-17
3917.36725 1.99436e-17
3918.82944 1.89939e-17
3920.30165 1.47924e-17
3921.77385 1.79683e-17
3923.24606 2.00073e-17
3924.71826 2.19629e-17
3926.18045 1.95211e-17
3927.65266 1.44341e-17
3929.12486 2.60659e-17
3930.59707 2.18713e-17
3932.05926 1.11994e-17
3933.53146 1.02383e-17
3935.00367 7.64390e-18
3936.47587 6.01301e-18
3937.93806 1.26868e-17
3939.41027 1.74211e-17
3940.88247 1.21052e-17
3942.35468 1.42501e-17
3943.82688 1.59210e-17
3945.28907 1.56479e-17
3946.76128 1.77521e-17
3948.23348 1.89939e-17
3949.70569 1.67002e-17
3951.16788 1.66587e-17
3952.64008 1.75230e-17
3954.11229 2.01131e-17
3955.58449 2.26631e-17
3957.05670 1.62456e-17
3958.51889 2.12156e-17
3959.99109 1.39449e-17
3961.46330 1.98868e-17
3962.93550 1.85350e-17
3964.39769 2.12079e-17
3965.86990 1.44838e-17
3967.34210 1.71838e-17
3968.81431 1.61561e-17
3970.27650 1.52167e-17
3971.74870 1.34514e-17
3973.22091 1.04854e-17
3974.69311 1.09870e-17
3976.16532 1.01103e-17
3977.62751 1.75704e-17
3979.09971 1.48086e-17
3980.57192 1.26037e-17
3982.04412 1.64591e-17
3983.50631 2.03094e-17
3984.97852 1.52825e-17
3986.45072 1.89770e-17
3987.92292 1.28767e-17
3989.39513 1.46578e-17
3990.85732 2.32274e-17
3992.32953 2.21931e-17
3993.80173 1.69550e-17
3995.27394 1.76105e-17
3996.73613 2.07811e-17
3998.20833 2.05733e-17
3999.68054 1.68572e-17
4001.15274 1.04743e-17
4002.62495 8.62176e-18
4004.08714 1.87162e-17
4005.55934 2.27355e-17
4007.03155 1.84324e-17
4008.50375 2.16677e-17
4009.96594 1.26569e-17
4011.43815 1.86359e-17
4012.91035 2.26927e-17
4014.38256 1.76861e-17
4015.84475 1.96136e-17
4017.31695 2.29894e-17
4018.78916 2.07825e-17
4020.26136 1.49524e-17
4021.73357 1.16115e-17
4023.19576 1.85362e-17
4024.66796 2.50069e-17
4026.14017 1.68533e-17
4027.61237 1.93022e-17
4029.07456 2.04734e-17
4030.54677 2.25284e-17
4032.01897 1.93498e-17
4033.49118 1.41720e-17
4034.96338 1.43449e-17
4036.42557 1.44834e-17
4037.89778 1.70016e-17
4039.36998 2.33380e-17
4040.84218 1.30780e-17
4042.30438 1.76254e-17
4043.77658 2.32072e-17
4045.24879 1.66595e-17
4046.72099 2.45995e-17
4048.19320 2.21967e-17
4049.65539 1.30518e-17
4051.12759 1.51520e-17
4052.59980 1.73799e-17
4054.07200 1.17808e-17
4055.53419 6.16973e-18
4057.00639 1.23222e-17
4058.47860 1.74030e-17
4059.95080 1.69271e-17
4061.41300 2.33292e-17
4062.88520 1.46309e-17
4064.35741 2.26033e-17
4065.82961 2.05784e-17
4067.30182 1.55589e-17
4068.76401 1.77726e-17
4070.23621 1.65841e-17
4071.70842 2.13071e-17
4073.18062 1.72649e-17
4074.64281 1.46274e-17
4076.11502 1.79585e-17
4077.58722 1.90533e-17
4079.05942 1.57832e-17
4080.53163 1.59170e-17
4081.99382 1.47408e-17
4083.46603 1.09265e-17
4084.93823 1.80870e-17
4086.41044 1.48612e-17
4087.87263 1.18361e-17
4089.34483 1.58387e-17
4090.81704 1.66484e-17
4092.28924 1.70319e-17
4093.76145 2.02066e-17
4095.22364 1.66659e-17
4096.69584 1.58650e-17
4098.16805 1.89232e-17
4099.64025 1.76460e-17
4101.10244 2.40630e-17
4102.57465 1.70874e-17
4104.04685 1.16262e-17
4105.51905 6.84220e-18
4106.98124 1.31232e-17
4108.45345 1.70987e-17
4109.92566 1.73783e-17
4111.39786 1.79886e-17
4112.87007 8.14800e-18
4114.33226 8.47402e-18
4115.80446 1.04898e-17
4117.27667 1.12686e-17
4118.74887 1.55486e-17
4120.21106 1.39036e-17
4121.68327 1.12762e-17
4123.15547 1.13302e-17
4124.62767 1.16418e-17
4126.09988 1.71570e-17
4127.56207 1.32907e-17
4129.03428 1.21865e-17
4130.50648 1.41709e-17
4131.97869 1.58180e-17
4133.44088 1.56362e-17
4134.91308 1.32385e-17
4136.38528 1.52587e-17
4137.85749 1.08550e-17
4139.32970 1.00691e-17
4140.79189 1.23369e-17
4142.26409 1.96905e-17
4143.73629 1.88361e-17
4145.20850 9.93958e-18
4146.67069 1.11283e-17
4148.14290 8.74436e-18
4149.61510 1.82117e-17
4151.08731 1.61780e-17
4152.54950 9.03624e-18
4154.02170 1.00265e-17
4155.49391 1.15164e-17
4156.96611 1.32597e-17
4158.43832 1.53060e-17
4159.90051 1.43109e-17
4161.37271 1.13676e-17
4162.84491 1.10172e-17
4164.31712 1.53229e-17
4165.77931 2.07163e-17
4167.25152 1.78164e-17
4168.72372 1.36285e-17
4170.19592 1.67930e-17
4171.66813 1.36727e-17
4173.13032 1.24366e-17
4174.60253 1.39413e-17
4176.07473 1.49695e-17
4177.54694 1.46825e-17
4179.00913 1.04998e-17
4180.48133 8.86844e-18
4181.95353 1.38286e-17
4183.42574 1.35039e-17
4184.88793 1.19476e-17
4186.36014 1.33318e-17
4187.83234 1.43805e-17
4189.30454 1.61164e-17
4190.77675 1.25360e-17
4192.23894 1.20385e-17
4193.71115 1.39848e-17
4195.18335 1.10313e-17
4196.65556 1.15575e-17
4198.11775 1.68855e-17
4199.58995 1.86162e-17
4201.06216 1.24775e-17
4202.53436 1.35711e-17
4204.00657 1.28218e-17
4205.46875 1.70629e-17
4206.94096 1.68872e-17
4208.41316 1.28808e-17
4209.88537 1.01096e-17
4211.34756 1.03680e-17
4212.81977 1.20941e-17
4214.29197 8.23557e-18
4215.76418 1.08190e-17
4217.23638 1.10223e-17
4218.69857 1.12624e-17
4220.17078 1.36582e-17
4221.64298 1.64334e-17
4223.11519 1.33979e-17
4224.57737 1.35755e-17
4226.04958 9.27458e-18
4227.52178 1.21788e-17
4228.99399 9.96454e-18
4230.45618 1.09049e-17
4231.92839 1.49851e-17
4233.40059 1.46172e-17
4234.87280 1.54585e-17
4236.34500 1.19548e-17
4237.80719 1.60060e-17
4239.27940 1.28880e-17
4240.75160 1.08628e-17
4242.22381 1.67681e-17
4243.68599 1.64097e-17
4245.15820 1.33790e-17
4246.63041 9.50545e-18
4248.10261 1.29287e-17
4249.57481 9.88767e-18
4251.03701 1.19563e-17
4252.50921 1.44692e-17
4253.98142 1.35154e-17
4255.45362 9.63578e-18
4256.91581 1.31494e-17
4258.38802 1.32108e-17
4259.86022 1.26006e-17
4261.33243 1.04085e-17
4262.80463 1.82511e-17
4264.26682 1.96882e-17
4265.73903 1.47786e-17
4267.21123 1.13429e-17
4268.68343 1.20895e-17
4270.14563 1.49633e-17
4271.61783 1.38258e-17
4273.09004 1.51849e-17
4274.56224 1.43014e-17
4276.02443 1.25090e-17
4277.49664 1.44610e-17
4278.96884 1.36521e-17
4280.44104 1.29298e-17
4281.91325 1.35345e-17
4283.37544 1.58470e-17
4284.84765 1.60515e-17
4286.31985 1.42797e-17
4287.79205 1.52580e-17
4289.25425 1.51312e-17
4290.72645 1.57292e-17
4292.19866 9.53815e-18
4293.67086 1.25849e-17
4295.14307 1.74173e-17
4296.60526 1.26217e-17
4298.07746 1.30841e-17
4299.54966 1.36899e-17
4301.02187 1.29556e-17
4302.48406 1.29881e-17
4303.95627 1.21621e-17
4305.42847 1.25448e-17
4306.90067 1.27616e-17
4308.37288 1.20595e-17
4309.83507 9.55094e-18
4311.30728 8.00298e-18
4312.77948 1.20514e-17
4314.25169 1.29512e-17
4315.71388 7.63642e-18
4317.18608 9.49798e-18
4318.65828 1.31422e-17
4320.13049 1.14007e-17
4321.59268 1.05479e-17
4323.06489 1.52699e-17
4324.53709 1.72998e-17
4326.00929 1.41674e-17
4327.48150 9.03295e-18
4328.94369 1.07995e-17
4330.41590 1.08622e-17
4331.88810 1.22937e-17
4333.36031 1.15511e-17
4334.82250 1.10444e-17
4336.29470 1.20248e-17
4337.76691 1.19563e-17
4339.23911 9.18797e-18
4340.71132 1.29276e-17
4342.17351 1.24974e-17
4343.64571 9.43162e-18
4345.11791 9.02825e-18
4346.59012 1.25841e-17
4348.05231 1.51016e-17
4349.52452 1.06889e-17
4350.99672 1.37114e-17
4352.46893 1.35135e-17
4353.94113 1.33158e-17
4355.40332 1.31180e-17
4356.87553 1.29203e-17
4358.34773 1.27226e-17
4359.81994 1.25248e-17
4361.28213 1.23272e-17
4362.75433 1.21295e-17
4364.22653 1.19318e-17
4365.69874 1.17342e-17
4367.16093 1.15366e-17
4368.63314 1.13389e-17
4370.10534 1.11414e-17
4371.57755 1.09437e-17
4373.04975 1.07462e-17
4374.51194 1.05487e-17
4375.98415 1.03511e-17
4377.45635 1.01536e-17
4378.92856 9.95612e-18
4380.39075 9.75863e-18
4381.86295 9.56115e-18
4383.33516 9.36369e-18
4384.80736 9.16625e-18
4386.27957 8.96882e-18
4387.74176 8.77141e-18
4389.21396 8.57402e-18
4390.68617 8.41905e-18
4392.15837 1.42794e-17
4393.62056 1.49289e-17
4395.09277 1.16028e-17
4396.56497 1.17246e-17
4398.03718 8.02378e-18
4399.50938 7.15259e-18
4400.97157 1.02657e-17
4402.44378 1.27097e-17
4403.91598 1.26273e-17
4405.38818 1.20217e-17
4406.85037 1.31536e-17
4408.32258 1.15982e-17
4409.79479 1.15464e-17
4411.26699 1.04125e-17
4412.72918 1.08535e-17
4414.20139 1.15282e-17
4415.67359 8.77106e-18
4417.14580 7.08504e-18
4418.61800 8.98790e-18
4420.08019 1.26523e-17
4421.55240 1.36521e-17
4423.02460 9.43354e-18
4424.49680 9.44417e-18
4425.95899 1.15297e-17
4427.43120 1.09336e-17
4428.90341 9.76670e-18
4430.37561 1.18240e-17
4431.84782 1.19544e-17
4433.31001 1.12579e-17
4434.78221 1.30378e-17
4436.25442 1.30593e-17
4437.72662 1.25641e-17
4439.18881 1.10941e-17
4440.66102 1.13581e-17
4442.13322 1.28683e-17
4443.60542 1.02988e-17
4445.07763 8.59298e-18
4446.53982 1.31777e-17
4448.01203 1.46602e-17
4449.48423 9.64498e-18
4450.95644 9.53241e-18
4452.41863 1.26950e-17
4453.89083 1.32784e-17
4455.36303 1.08354e-17
4456.83524 8.03146e-18
4458.29743 8.56088e-18
4459.76964 6.69557e-18
4461.24184 6.38731e-18
4462.71404 8.51492e-18
4464.18625 9.77105e-18
4465.64844 1.23012e-17
4467.12065 1.49036e-17
4468.59285 1.42653e-17
4470.06506 1.29996e-17
4471.52725 1.31101e-17
4472.99945 1.18150e-17
4474.47166 1.05957e-17
4475.94386 1.07670e-17
4477.41607 1.31388e-17
4478.87826 1.27944e-17
4480.35046 1.09894e-17
4481.82266 1.51858e-17
4483.29487 1.48322e-17
4484.75706 1.18151e-17
4486.22927 1.60073e-17
4487.70147 1.56752e-17
4489.17368 1.12595e-17
4490.64588 1.21710e-17
4492.10807 1.36653e-17
4493.58028 1.24240e-17
4495.05248 1.31695e-17
4496.52469 1.31225e-17
4497.98688 1.22637e-17
4499.45908 1.32317e-17
4500.93128 1.67097e-17
4502.40349 1.56798e-17
4503.86568 1.40492e-17
4505.33789 1.40477e-17
4506.81009 1.22576e-17
4508.28229 1.36762e-17
4509.75450 1.55718e-17
4511.21669 1.41778e-17
4512.68890 1.32397e-17
4514.16110 1.59370e-17
4515.63331 1.62329e-17
4517.09550 1.48885e-17
4518.56770 1.44149e-17
4520.03991 1.52034e-17
4521.51211 1.66895e-17
4522.98432 1.74757e-17
4524.44650 1.59355e-17
4525.91871 1.37837e-17
4527.39091 1.33727e-17
4528.86312 1.12456e-17
4530.32531 1.52628e-17
4531.79752 1.60978e-17
4533.26972 1.41083e-17
4534.74193 1.39362e-17
4536.21413 1.39695e-17
4537.67632 1.58909e-17
4539.14853 1.76192e-17
4540.62073 2.00119e-17
4542.09294 1.63173e-17
4543.55512 1.38343e-17
4545.02733 1.32470e-17
4546.49953 1.24479e-17
4547.97174 1.72841e-17
4549.43393 1.84590e-17
4550.90614 1.74560e-17
4552.37834 1.83222e-17
4553.85055 1.97894e-17
4555.32275 1.72460e-17
4556.78494 1.56167e-17
4558.25715 1.76366e-17
4559.72935 1.93995e-17
4561.20156 1.97508e-17
4562.66374 1.85241e-17
4564.13595 1.82543e-17
4565.60816 1.84127e-17
4567.08036 1.91297e-17
4568.55256 1.93300e-17
4570.01476 1.80762e-17
4571.48696 1.92856e-17
4572.95917 1.76236e-17
4574.43137 1.64440e-17
4575.89356 1.90535e-17
4577.36577 1.73901e-17
4578.83797 1.69651e-17
4580.31018 1.86693e-17
4581.78238 2.09518e-17
4583.24457 2.00990e-17
4584.71678 1.82786e-17
4586.18898 1.94041e-17
4587.66118 1.70288e-17
4589.12338 1.83007e-17
4590.59558 2.20651e-17
4592.06779 1.89096e-17
4593.53999 1.62420e-17
4595.00218 1.76178e-17
4596.47439 1.92886e-17
4597.94659 1.82436e-17
4599.41879 1.74845e-17
4600.89100 1.93299e-17
4602.35319 2.05979e-17
4603.82540 1.93639e-17
4605.29760 1.88208e-17
4606.76980 1.87405e-17
4608.23200 1.58210e-17
4609.70420 1.69385e-17
4611.17641 1.96411e-17
4612.64861 2.22482e-17
4614.12082 2.35381e-17
4615.58301 1.88217e-17
4617.05521 1.70309e-17
4618.52741 1.84588e-17
4619.99962 1.91976e-17
4621.46181 1.90970e-17
4622.93402 1.94588e-17
4624.40622 1.89670e-17
4625.87842 1.82575e-17
4627.34062 1.96458e-17
4628.81282 1.74695e-17
4630.28503 1.64124e-17
4631.75723 1.95438e-17
4633.22944 2.22801e-17
4634.69163 2.13669e-17
4636.16383 1.90588e-17
4637.63603 1.72740e-17
4639.10824 1.65553e-17
4640.57043 1.76538e-17
4642.04264 1.57113e-17
4643.51484 1.61377e-17
4644.98704 2.15971e-17
4646.45925 2.18217e-17
4647.92144 2.06375e-17
4649.39365 1.88490e-17
4650.86585 1.46846e-17
4652.33806 1.47882e-17
4653.80025 1.70599e-17
4655.27245 1.82506e-17
4656.74466 1.94509e-17
4658.21686 1.93258e-17
4659.68907 1.83576e-17
4661.15126 1.83666e-17
4662.62346 1.83146e-17
4664.09566 1.84819e-17
4665.56787 1.78298e-17
4667.03006 1.67868e-17
4668.50227 1.71203e-17
4669.97447 1.75120e-17
4671.44668 1.82788e-17
4672.91888 1.86188e-17
4674.38107 1.72124e-17
4675.85328 1.76857e-17
4677.32548 1.85618e-17
4678.79769 1.58867e-17
4680.25988 1.42963e-17
4681.73208 1.65173e-17
4683.20428 1.64080e-17
4684.67649 1.60107e-17
4686.13868 1.82100e-17
4687.61089 1.83353e-17
4689.08309 1.54895e-17
4690.55530 1.39088e-17
4692.02750 1.47562e-17
4693.48969 1.38687e-17
4694.96190 1.39734e-17
4696.43410 1.47727e-17
4697.90631 1.39517e-17
4699.36850 1.53462e-17
4700.84070 1.54452e-17
4702.31291 1.42773e-17
4703.78511 1.61900e-17
4705.25732 1.65346e-17
4706.71951 1.61034e-17
4708.19171 1.90841e-17
4709.66392 1.78975e-17
4711.13612 1.44122e-17
4712.59831 1.40771e-17
4714.07052 1.50071e-17
4715.54272 1.64322e-17
4717.01493 1.36438e-17
4718.47711 1.19449e-17
4719.94932 1.27727e-17
4721.42153 1.45110e-17
4722.89373 1.62774e-17
4724.36593 1.68938e-17
4725.82812 1.56410e-17
4727.30033 1.44146e-17
4728.77254 1.49504e-17
4730.24474 1.35864e-17
4731.70693 1.24910e-17
4733.17914 1.38167e-17
4734.65134 1.75504e-17
4736.12355 1.66402e-17
4737.59575 1.33015e-17
4739.05794 1.38591e-17
4740.53015 1.32119e-17
4742.00235 1.20895e-17
4743.47455 1.30404e-17
4744.93674 1.38489e-17
4746.40895 1.53410e-17
4747.88116 1.32789e-17
4749.35336 1.29721e-17
4750.81555 1.55154e-17
4752.28776 1.44689e-17
4753.75996 1.27238e-17
4755.23217 1.14863e-17
4756.70437 1.23920e-17
4758.16656 1.22608e-17
4759.63877 1.38483e-17
4761.11097 1.37373e-17
4762.58317 1.17063e-17
4764.05538 1.25859e-17
4765.51757 1.39602e-17
4766.98978 1.27241e-17
4768.46198 1.07800e-17
4769.93419 1.09959e-17
4771.39638 1.18470e-17
4772.86858 1.26011e-17
4774.34079 9.95597e-18
4775.81299 1.09501e-17
4777.27518 1.17427e-17
4778.74739 1.08497e-17
4780.21959 1.09103e-17
4781.69179 9.94837e-18
4783.16400 9.99017e-18
4784.62619 1.28111e-17
4786.09840 1.33315e-17
4787.57060 1.19327e-17
4789.04281 1.04202e-17
4790.50500 7.43724e-18
4791.97720 9.30460e-18
4793.44941 1.09431e-17
4794.92161 1.03431e-17
4796.39382 1.04737e-17
4797.85601 1.03258e-17
4799.32821 1.21851e-17
4800.80041 1.28666e-17
4802.27262 1.03955e-17
4803.73481 1.12838e-17
4805.20702 1.26775e-17
4806.67922 1.10461e-17
4808.15143 1.15461e-17
4809.61362 1.11731e-17
4811.08582 1.11146e-17
4812.55803 1.23528e-17
4814.03023 1.15441e-17
4815.50244 1.32496e-17
4816.96463 1.12179e-17
4818.43683 1.01731e-17
4819.90903 1.38381e-17
4821.38124 1.26784e-17
4822.84343 1.22429e-17
4824.31564 1.22705e-17
4825.78784 1.22982e-17
4827.26004 1.23258e-17
4828.73225 1.23534e-17
4830.19444 1.23811e-17
4831.66665 1.24087e-17
4833.13885 1.24363e-17
4834.61106 1.24639e-17
4836.07325 1.24916e-17
4837.54545 1.25192e-17
4839.01766 1.25186e-17
4840.48986 1.11473e-17
4841.95205 1.07965e-17
4843.42425 1.32237e-17
4844.89646 1.22813e-17
4846.36866 1.32094e-17
4847.84087 1.21123e-17
4849.30306 1.18828e-17
4850.77527 1.18545e-17
4852.24747 1.18261e-17
4853.71968 1.17977e-17
4855.18187 1.17693e-17
4856.65407 1.17410e-17
4858.12628 1.17126e-17
4859.59848 1.16842e-17
4861.07069 1.16559e-17
4862.53287 1.16275e-17
4864.00508 1.15991e-17
4865.47728 1.15708e-17
4866.94949 1.15424e-17
4868.41168 1.15141e-17
4869.88389 1.14857e-17
4871.35609 1.14574e-17
4872.82830 1.14290e-17
4874.30050 1.14007e-17
4875.76269 1.13724e-17
4877.23490 1.13440e-17
4878.70710 1.13157e-17
4880.17931 1.12874e-17
4881.64149 1.12590e-17
4883.11370 1.12307e-17
4884.58591 1.12024e-17
4886.05811 1.11741e-17
4887.53031 1.11457e-17
4888.99251 1.16840e-17
4890.46471 1.04773e-17
4891.93692 1.12962e-17
4893.40912 1.03614e-17
4894.87131 9.59415e-18
4896.34352 1.11487e-17
4897.81572 1.22231e-17
4899.28793 1.16163e-17
4900.75011 9.81368e-18
4902.22232 1.11676e-17
4903.69453 1.09643e-17
4905.16673 8.36233e-18
4906.63893 1.09365e-17
4908.10113 1.17983e-17
4909.57333 1.30993e-17
4911.04554 1.06184e-17
4912.51774 1.02698e-17
4913.97993 1.14549e-17
4915.45214 1.14318e-17
4916.92434 1.15913e-17
4918.39654 1.17221e-17
4919.86875 1.32345e-17
4921.33094 1.33859e-17
4922.80315 1.33457e-17
4924.27535 1.44353e-17
4925.74755 1.26954e-17
4927.20975 1.25970e-17
4928.68195 1.21018e-17
4930.15416 1.18212e-17
4931.62636 1.31554e-17
4933.08855 1.26461e-17
4934.56076 1.30350e-17
4936.03296 1.32229e-17
4937.50516 1.27300e-17
4938.97737 1.51738e-17
4940.43956 1.41094e-17
4941.91177 1.56144e-17
4943.38397 1.43015e-17
4944.85617 1.48917e-17
4946.31837 1.38456e-17
4947.79057 1.32816e-17
4949.26278 1.32961e-17
4950.73498 1.33106e-17
4952.20719 1.33251e-17
4953.66938 1.33396e-17
4955.14158 1.33541e-17
4956.61378 1.33686e-17
4958.08599 1.33831e-17
4959.54818 1.33976e-17
4961.02039 1.34121e-17
4962.49259 1.34266e-17
4963.96479 1.34410e-17
4965.42699 1.34555e-17
4966.89919 1.34700e-17
4968.37140 1.34845e-17
4969.84360 1.34990e-17
4971.31581 1.35134e-17
4972.77800 1.35279e-17
4974.25020 1.35424e-17
4975.72241 1.35569e-17
4977.19461 1.35714e-17
4978.65680 1.35858e-17
4980.12901 1.36003e-17
4981.60121 1.36148e-17
4983.07341 1.36292e-17
4984.54562 1.36437e-17
4986.00781 1.31499e-17
4987.48002 1.28977e-17
4988.95222 1.32219e-17
4990.42443 1.43348e-17
4991.88662 1.48692e-17
4993.35882 1.32716e-17
4994.83103 1.37086e-17
4996.30323 1.35772e-17
4997.77544 1.34458e-17
4999.23763 1.33145e-17
5000.70983 1.31831e-17
5002.18203 1.30518e-17
5003.65424 1.29205e-17
5005.11643 1.27892e-17
5006.58864 1.26579e-17
5008.06084 1.25267e-17
5009.53305 1.23954e-17
5011.00525 1.22641e-17
5012.46744 1.21329e-17
5013.93965 1.20016e-17
5015.41185 1.18705e-17
5016.88406 1.17393e-17
5018.34625 1.16081e-17
5019.81845 1.14769e-17
5021.29066 1.13457e-17
5022.76286 1.12145e-17
5024.22505 1.10834e-17
5025.69726 1.09523e-17
5027.16946 1.08211e-17
5028.64167 1.06901e-17
5030.11387 1.05589e-17
5031.57606 1.04279e-17
5033.04827 1.02968e-17
5034.52047 9.52943e-18
5035.99268 1.02240e-17
5037.45486 1.34345e-17
5038.92707 1.38333e-17
5040.39928 1.23582e-17
5041.87148 1.36634e-17
5043.34368 1.30411e-17
5044.80588 1.13143e-17
5046.27808 1.12737e-17
5047.75029 8.89751e-18
5049.22249 1.08559e-17
5050.68468 1.27461e-17
5052.15689 1.09082e-17
5053.62909 1.07371e-17
5055.10130 1.08332e-17
5056.56348 8.68972e-18
5058.03569 8.08795e-18
5059.50790 1.11106e-17
5060.98010 1.14260e-17
5062.45230 1.09189e-17
5063.91449 1.10599e-17
5065.38670 1.16287e-17
5066.85891 1.32558e-17
5068.33111 1.13097e-17
5069.79330 1.07871e-17
5071.26551 1.34440e-17
5072.73771 1.18361e-17
5074.20992 1.05755e-17
5075.68212 1.08751e-17
5077.14431 9.89578e-18
5078.61652 1.24730e-17
5080.08872 1.43160e-17
5081.56092 9.93832e-18
5083.02311 1.13011e-17
5084.49532 1.22503e-17
5085.96753 1.13869e-17
5087.43973 9.50678e-18
5088.91194 9.86286e-18
5090.37413 8.83760e-18
5091.84633 1.18947e-17
5093.31854 1.01467e-17
5094.79074 9.95255e-18
5096.25293 7.70910e-18
5097.72514 1.09229e-17
5099.19734 1.21368e-17
5100.66954 1.28420e-17
5102.13173 1.18626e-17
5103.60394 1.01092e-17
5105.07615 1.01266e-17
5106.54835 1.17096e-17
5108.02056 1.12747e-17
5109.48275 1.18384e-17
5110.95495 1.16474e-17
5112.42716 1.10530e-17
5113.89936 1.04317e-17
5115.36155 1.13427e-17
5116.83376 1.16446e-17
5118.30596 1.34783e-17
5119.77816 1.33382e-17
5121.25037 1.27151e-17
5122.71256 1.30972e-17
5124.18477 1.34816e-17
5125.65697 1.24592e-17
5127.12918 1.22074e-17
5128.59137 1.19976e-17
5130.06357 1.31720e-17
5131.53578 1.31762e-17
5133.00798 1.25665e-17
5134.48019 1.21668e-17
5135.94238 1.26582e-17
5137.41458 1.21708e-17
5138.88678 1.27375e-17
5140.35899 1.35402e-17
5141.82118 1.20086e-17
5143.29339 1.16685e-17
5144.76559 1.35416e-17
5146.23780 1.41359e-17
5147.69999 1.31807e-17
5149.17219 1.31922e-17
5150.64440 1.32079e-17
5152.11660 1.37744e-17
5153.58881 1.37947e-17
5155.05100 1.34374e-17
5156.52320 1.56122e-17
5157.99541 1.47558e-17
5159.46761 1.42024e-17
5160.92980 1.38072e-17
5162.40200 1.38411e-17
5163.87421 1.37321e-17
5165.34641 1.44448e-17
5166.81862 1.37479e-17
5168.28081 1.16122e-17
5169.75302 1.09542e-17
5171.22522 1.22206e-17
5172.69743 1.25671e-17
5174.15962 1.34805e-17
5175.63182 1.42142e-17
5177.10403 1.25106e-17
5178.57623 1.23636e-17
5180.04844 1.37741e-17
5181.51062 1.48499e-17
5182.98283 1.35942e-17
5184.45503 1.34046e-17
5185.92724 1.51608e-17
5187.38943 1.65754e-17
5188.86164 1.49526e-17
5190.33384 1.43350e-17
5191.80605 1.40338e-17
5193.26824 1.50723e-17
5194.74044 1.44551e-17
5196.21265 1.36279e-17
5197.68485 1.44132e-17
5199.15706 1.52374e-17
5200.61924 1.40518e-17
5202.09145 1.38495e-17
5203.56366 1.44278e-17
5205.03586 1.50326e-17
5206.49805 1.48820e-17
5207.97026 1.46675e-17
5209.44246 1.37055e-17
5210.91467 1.41069e-17
5212.38687 1.50885e-17
5213.84906 1.29385e-17
5215.32127 1.38854e-17
5216.79347 1.55460e-17
5218.26568 1.62076e-17
5219.72786 1.52226e-17
5221.20007 1.38428e-17
5222.67228 1.31420e-17
5224.14448 1.31888e-17
5225.60667 1.57872e-17
5227.07888 1.56736e-17
5228.55108 1.41283e-17
5230.02329 1.46800e-17
5231.49549 1.56244e-17
5232.95768 1.48864e-17
5234.42989 1.33230e-17
5235.90209 1.44073e-17
5237.37429 1.44239e-17
5238.83648 1.55890e-17
5240.30869 1.52860e-17
5241.78090 1.58606e-17
5243.25310 1.49979e-17
5244.72530 1.48522e-17
5246.18750 1.40887e-17
5247.65970 1.47744e-17
5249.13191 1.59921e-17
5250.60411 1.63494e-17
5252.06630 1.69547e-17
5253.53851 1.64809e-17
5255.01071 1.55779e-17
5256.48291 1.54412e-17
5257.95512 1.61701e-17
5259.41731 1.57348e-17
5260.88952 1.75702e-17
5262.36172 1.83487e-17
5263.83392 1.61880e-17
5265.29612 1.59788e-17
5266.76832 1.73469e-17
5268.24053 1.70058e-17
5269.71273 1.65941e-17
5271.18494 1.61845e-17
5272.64713 1.62321e-17
5274.11933 1.58681e-17
5275.59153 1.72582e-17
5277.06374 1.75009e-17
5278.52593 1.69585e-17
5279.99814 1.59468e-17
5281.47034 1.59977e-17
5282.94254 1.60383e-17
5284.40474 1.63447e-17
5285.87694 1.60916e-17
5287.34915 1.58248e-17
5288.82135 1.58149e-17
5290.29356 1.60494e-17
5291.75575 1.67768e-17
5293.22795 1.67533e-17
5294.70016 1.76756e-17
5296.17236 1.91071e-17
5297.63455 1.83500e-17
5299.10676 1.69150e-17
5300.57896 1.69198e-17
5302.05116 1.60992e-17
5303.52337 1.45144e-17
5304.98556 1.50286e-17
5306.45777 1.72050e-17
5307.92997 1.71705e-17
5309.40218 1.60855e-17
5310.86437 1.56043e-17
5312.33657 1.51389e-17
5313.80878 1.57973e-17
5315.28098 1.51931e-17
5316.74317 1.44582e-17
5318.21538 1.59305e-17
5319.68758 1.68794e-17
5321.15978 1.59545e-17
5322.63199 1.55070e-17
5324.09418 1.66286e-17
5325.56639 1.69701e-17
5327.03859 1.44981e-17
5328.51080 1.38180e-17
5329.97299 1.62253e-17
5331.44519 1.57802e-17
5332.91740 1.34981e-17
5334.38960 1.45636e-17
5335.86181 1.59859e-17
5337.32400 1.56850e-17
5338.79620 1.54972e-17
5340.26841 1.48948e-17
5341.74061 1.33082e-17
5343.20280 1.31798e-17
5344.67501 1.27256e-17
5346.14721 1.31541e-17
5347.61942 1.49623e-17
5349.08161 1.48193e-17
5350.55381 1.57616e-17
5352.02602 1.74462e-17
5353.49822 1.54613e-17
5354.97043 1.49552e-17
5356.43261 1.49657e-17
5357.90482 1.52305e-17
5359.37703 1.59052e-17
5360.84923 1.45575e-17
5362.31142 1.36898e-17
5363.78363 1.45974e-17
5365.25583 1.47211e-17
5366.72804 1.37982e-17
5368.20024 1.34060e-17
5369.66243 1.52519e-17
5371.13464 1.66238e-17
5372.60684 1.55017e-17
5374.07905 1.53139e-17
5375.54123 1.48284e-17
5377.01344 1.40738e-17
5378.48565 1.48641e-17
5379.95785 1.44413e-17
5381.43005 1.38816e-17
5382.89225 1.37857e-17
5384.36445 1.35027e-17
5385.83666 1.46838e-17
5387.30886 1.53960e-17
5388.77105 1.57047e-17
5390.24326 1.52441e-17
5391.71546 1.53588e-17
5393.18767 1.55394e-17
5394.65987 1.50308e-17
5396.12206 1.49883e-17
5397.59427 1.56068e-17
5399.06647 1.53868e-17
5400.53867 1.49597e-17
5402.00086 1.49651e-17
5403.47307 1.47074e-17
5404.94528 1.45954e-17
5406.41748 1.37548e-17
5407.87967 1.41827e-17
5409.35188 1.47827e-17
5410.82408 1.37687e-17
5412.29629 1.35136e-17
5413.76849 1.37561e-17
5415.23068 1.34857e-17
5416.70289 1.33245e-17
5418.17509 1.39344e-17
5419.64729 1.41982e-17
5421.10948 1.43649e-17
5422.58169 1.39712e-17
5424.05390 1.27842e-17
5425.52610 1.26161e-17
5426.99831 1.20133e-17
5428.46050 1.14797e-17
5429.93270 1.26953e-17
5431.40491 1.30357e-17
5432.87711 1.30043e-17
5434.33930 1.37937e-17
5435.81151 1.27615e-17
5437.28371 1.25303e-17
5438.75591 1.35061e-17
5440.21810 1.31304e-17
5441.69031 1.29505e-17
5443.16252 1.36779e-17
5444.63472 1.43618e-17
5446.10693 1.43658e-17
5447.56912 1.37739e-17
5449.04132 1.42846e-17
5450.51353 1.49985e-17
5451.98573 1.43772e-17
5453.44792 1.37428e-17
5454.92013 1.31542e-17
5456.39233 1.34661e-17
5457.86453 1.51691e-17
5459.33674 1.63090e-17
5460.79893 1.55567e-17
5462.27114 1.39193e-17
5463.74334 1.33621e-17
5465.21555 1.34414e-17
5466.67774 1.33123e-17
5468.14994 1.27384e-17
5469.62215 1.34583e-17
5471.09435 1.52184e-17
5472.55654 1.44589e-17
5474.02875 1.37931e-17
5475.50095 1.45552e-17
5476.97316 1.47959e-17
5478.44536 1.44139e-17
5479.90755 1.41166e-17
5481.37975 1.42484e-17
5482.85196 1.37118e-17
5484.32416 1.48123e-17
5485.78636 1.58048e-17
5487.25856 1.47423e-17
5488.73077 1.49776e-17
5490.20297 1.58154e-17
5491.67518 1.56379e-17
5493.13737 1.41835e-17
5494.60957 1.36936e-17
5496.08178 1.52370e-17
5497.55398 1.49820e-17
5499.01617 1.33195e-17
5500.48837 1.28709e-17
5501.96058 1.39656e-17
5503.43278 1.44924e-17
5504.90499 1.33658e-17
5506.36718 1.30742e-17
5507.83939 1.35037e-17
5509.31159 1.31627e-17
5510.78380 1.27120e-17
5512.24599 1.32746e-17
5513.71819 1.40144e-17
5515.19040 1.34286e-17
5516.66260 1.19938e-17
5518.13481 1.23036e-17
5519.59699 1.38475e-17
5521.06920 1.35689e-17
5522.54141 1.22186e-17
5524.01361 1.17177e-17
5525.47580 1.17172e-17
5526.94801 1.13834e-17
5528.42021 1.15837e-17
5529.89242 1.15237e-17
5531.35461 1.06827e-17
5532.82681 1.07493e-17
5534.29902 1.06242e-17
5535.77122 1.05586e-17
5537.24343 1.10438e-17
5538.70561 1.10434e-17
5540.17782 1.11266e-17
5541.65003 1.07305e-17
5543.12223 1.05743e-17
5544.58442 1.02981e-17
5546.05663 9.87138e-18
5547.52883 1.07053e-17
5549.00104 1.03726e-17
5550.47324 1.00491e-17
5551.93543 1.06085e-17
5553.40764 9.72908e-18
5554.87984 1.10893e-17
5556.35204 1.19110e-17
5557.81423 9.93824e-18
5559.28644 9.29444e-18
5560.75865 9.96697e-18
5562.23085 1.05972e-17
5563.69304 9.92414e-18
5565.16525 9.85335e-18
5566.63745 9.96461e-18
5568.10966 9.82261e-18
5569.58186 9.36148e-18
5571.04405 8.93059e-18
5572.51626 9.31666e-18
5573.98846 9.43534e-18
5575.46066 9.10661e-18
5576.92285 9.02438e-18
5578.39506 9.09753e-18
5579.86727 7.60996e-18
5581.33947 7.61302e-18
5582.81167 8.56547e-18
5584.27387 8.15101e-18
5585.74607 8.38881e-18
5587.21828 8.86448e-18
5588.69048 7.66251e-18
5590.15267 7.37832e-18
5591.62488 8.04743e-18
5593.09708 6.28277e-18
5594.56928 6.39845e-18
5596.04149 6.36831e-18
5597.50368 7.57140e-18
5598.97589 8.50648e-18
5600.44809 6.96236e-18
5601.92029 7.27475e-18
5603.38249 6.28783e-18
5604.85469 5.89390e-18
5606.32690 7.75780e-18
5607.79910 7.90120e-18
5609.27131 7.04804e-18
5610.73350 7.09350e-18
5612.20570 8.10561e-18
5613.67791 7.19842e-18
5615.15011 6.62523e-18
5616.61230 7.09919e-18
5618.08451 6.37115e-18
5619.55671 7.49036e-18
5621.02891 7.78131e-18
5622.49111 7.68169e-18
5623.96331 7.61580e-18
5625.43552 6.41873e-18
5626.90772 5.70678e-18
5628.37993 5.79433e-18
5629.84212 5.87734e-18
5631.31432 5.73201e-18
5632.78653 5.65563e-18
5634.25873 6.25135e-18
5635.72092 6.44350e-18
5637.19313 5.62581e-18
5638.66533 5.73995e-18
5640.13753 6.84102e-18
5641.60974 5.80047e-18
5643.07193 5.47211e-18
5644.54414 6.80110e-18
5646.01634 6.03447e-18
5647.48855 5.12664e-18
5648.95074 4.86524e-18
5650.42294 5.46135e-18
5651.89515 6.08751e-18
5653.36735 4.44163e-18
5654.82954 4.43759e-18
5656.30175 5.45703e-18
5657.77395 5.31075e-18
5659.24616 5.71316e-18
5660.71836 6.13059e-18
5662.18055 5.59638e-18
5663.65276 4.04759e-18
5665.12496 5.69322e-18
5666.59717 6.25282e-18
5668.05936 5.96453e-18
5669.53156 6.33297e-18
5671.00377 5.92228e-18
5672.47597 5.33224e-18
5673.94818 5.89780e-18
5675.41036 5.76267e-18
5676.88257 5.19347e-18
5678.35478 5.27157e-18
5679.82698 4.70173e-18
5681.28917 3.25630e-18
5682.76138 4.83672e-18
5684.23358 6.13987e-18
5685.70579 6.34411e-18
5687.17799 5.41156e-18
5688.64018 4.53133e-18
5690.11239 5.20615e-18
5691.58459 4.70992e-18
5693.05680 5.06455e-18
5694.51898 6.01001e-18
5695.99119 4.69693e-18
5697.46340 6.09026e-18
5698.93560 5.53663e-18
5700.39779 4.84458e-18
5701.87000 5.97386e-18
5703.34220 5.64632e-18
5704.81441 5.64440e-18
5706.28661 6.27115e-18
5707.74880 6.62999e-18
5709.22101 6.18383e-18
5710.69321 6.71391e-18
5712.16542 7.81170e-18
5713.62760 7.52642e-18
5715.09981 6.78089e-18
5716.57202 6.92818e-18
5718.04422 5.47343e-18
5719.51642 5.45863e-18
5720.97861 7.04111e-18
5722.45082 6.24923e-18
5723.92303 5.86589e-18
5725.39523 4.75804e-18
5726.85742 5.85899e-18
5728.32963 6.69283e-18
5729.80183 5.89417e-18
5731.27404 6.14455e-18
5732.74624 6.42828e-18
5734.20843 6.13406e-18
5735.68064 5.47821e-18
5737.15284 6.28556e-18
5738.62504 7.29609e-18
5740.08723 7.35493e-18
5741.55944 7.10799e-18
5743.03165 7.01364e-18
5744.50385 7.33768e-18
5745.96604 7.89015e-18
5747.43825 6.60931e-18
5748.91045 6.20305e-18
5750.38266 6.33206e-18
5751.85486 6.64978e-18
5753.31705 7.65055e-18
5754.78926 7.87074e-18
5756.26146 6.36256e-18
5757.73366 7.05998e-18
5759.19585 9.71439e-18
5760.66806 8.75595e-18
5762.14027 6.78668e-18
5763.61247 7.80065e-18
5765.08468 8.15466e-18
5766.54687 8.59076e-18
5768.01907 9.05429e-18
5769.49128 8.45887e-18
5770.96348 8.79455e-18
5772.42567 8.73227e-18
5773.89788 7.32220e-18
5775.37008 8.86470e-18
5776.84228 9.37290e-18
5778.31449 7.66227e-18
5779.77668 7.46994e-18
5781.24889 8.53780e-18
5782.72109 8.25637e-18
5784.19330 8.33290e-18
5785.65549 9.23904e-18
5787.12769 9.96963e-18
5788.59990 9.38703e-18
5790.07210 9.14781e-18
5791.53429 1.01615e-17
5793.00650 9.03402e-18
5794.47870 9.19579e-18
5795.95091 1.01639e-17
5797.42311 9.85052e-18
5798.88530 1.06618e-17
5800.35751 1.12057e-17
5801.82971 1.00767e-17
5803.30192 1.00462e-17
5804.76411 1.00907e-17
5806.23631 9.68118e-18
5807.70852 1.05623e-17
5809.18072 1.10807e-17
5810.65293 1.15727e-17
5812.11512 1.04406e-17
5813.58732 9.54391e-18
5815.05953 1.09795e-17
5816.53173 1.10149e-17
5817.99392 1.05327e-17
5819.46612 1.04887e-17
5820.93833 1.07486e-17
5822.41053 1.21650e-17
5823.87273 1.15602e-17
5825.34493 1.12525e-17
5826.81714 1.15405e-17
5828.28934 1.17261e-17
5829.76155 1.21874e-17
5831.22374 1.14016e-17
5832.69594 1.11335e-17
5834.16815 1.18811e-17
5835.64035 1.24673e-17
5837.10254 1.21061e-17
5838.57474 1.16989e-17
5840.04695 1.24439e-17
5841.51916 1.28853e-17
5842.99136 1.20849e-17
5844.45355 1.25856e-17
5845.92576 1.29864e-17
5847.39796 1.31469e-17
5848.87017 1.22234e-17
5850.33236 1.30093e-17
5851.80456 1.31315e-17
5853.27677 1.25199e-17
5854.74897 1.24649e-17
5856.22118 1.15049e-17
5857.68336 1.12493e-17
5859.15557 1.20329e-17
5860.62778 1.28211e-17
5862.09998 1.32868e-17
5863.56217 1.31695e-17
5865.03438 1.37625e-17
5866.50658 1.37693e-17
5867.97879 1.22378e-17
5869.45099 1.25905e-17
5870.91318 1.24769e-17
5872.38539 1.25831e-17
5873.85759 1.21110e-17
5875.32979 1.18782e-17
5876.79198 1.24650e-17
5878.26419 1.21048e-17
5879.73640 1.35690e-17
5881.20860 1.38888e-17
5882.67079 1.37302e-17
5884.14300 1.45394e-17
5885.61520 1.40777e-17
5887.08741 1.33061e-17
5888.55961 1.29738e-17
5890.02180 1.38204e-17
5891.49401 1.23859e-17
5892.96621 1.20123e-17
5894.43841 9.73446e-18
5895.90060 7.21638e-18
5897.37281 6.81215e-18
5898.84502 7.18992e-18
5900.31722 8.55646e-18
5901.78942 8.73507e-18
5903.25162 8.46984e-18
5904.72382 8.87127e-18
5906.19603 1.11247e-17
5907.66823 1.13370e-17
5909.13042 1.11013e-17
5910.60263 1.25102e-17
5912.07483 1.32971e-17
5913.54703 1.18402e-17
5915.00922 1.15489e-17
5916.48143 1.11758e-17
5917.95364 1.21189e-17
5919.42584 1.22973e-17
5920.89804 1.19515e-17
5922.36024 1.19125e-17
5923.83244 1.19024e-17
5925.30465 1.23437e-17
5926.77685 1.18669e-17
5928.23904 1.18784e-17
5929.71125 1.24199e-17
5931.18345 1.21670e-17
5932.65566 1.10313e-17
5934.12786 1.11145e-17
5935.59005 1.25204e-17
5937.06226 1.34651e-17
5938.53446 1.30416e-17
5940.00666 1.35838e-17
5941.46886 1.29191e-17
5942.94106 1.15823e-17
5944.41327 1.19135e-17
5945.88547 1.11841e-17
5947.34766 1.29227e-17
5948.81987 1.32528e-17
5950.29207 1.37164e-17
5951.76428 1.35849e-17
5953.23648 1.34003e-17
5954.69867 1.42895e-17
5956.17088 1.45435e-17
5957.64308 1.39393e-17
5959.11528 1.39821e-17
5960.57748 1.36825e-17
5962.04968 1.28770e-17
5963.52189 1.32490e-17
5964.99409 1.33298e-17
5966.46630 1.26042e-17
5967.92849 1.27043e-17
5969.40069 1.11444e-17
5970.87290 1.16115e-17
5972.34510 1.42315e-17
5973.80729 1.48192e-17
5975.27950 1.25948e-17
5976.75170 1.22678e-17
5978.22391 1.30038e-17
5979.69611 1.33103e-17
5981.15830 1.25383e-17
5982.63051 1.21542e-17
5984.10271 1.34568e-17
5985.57492 1.29284e-17
5987.03711 1.21674e-17
5988.50931 1.24857e-17
5989.98152 1.17245e-17
5991.45372 1.17647e-17
5992.92593 1.19919e-17
5994.38811 1.14278e-17
5995.86032 1.09040e-17
5997.33253 1.17134e-17
5998.80473 1.16737e-17
6000.26692 1.17331e-17
6001.73913 1.13214e-17
6003.21133 1.07878e-17
6004.68354 1.16049e-17
6006.14573 1.17094e-17
6007.61793 1.08670e-17
6009.09014 1.16806e-17
6010.56234 1.27807e-17
6012.03455 1.18031e-17
6013.49673 1.11125e-17
6014.96894 1.14477e-17
6016.44115 1.18364e-17
6017.91335 1.15457e-17
6019.37554 1.11800e-17
6020.84775 1.08955e-17
6022.31995 1.08086e-17
6023.79216 1.03831e-17
6025.26436 1.11174e-17
6026.72655 1.23334e-17
6028.19876 1.11934e-17
6029.67096 1.04933e-17
6031.14317 1.05083e-17
6032.60535 1.04881e-17
6034.07756 1.09435e-17
6035.54977 1.07429e-17
6037.02197 1.03127e-17
6038.48416 1.02364e-17
6039.95637 9.64921e-18
6041.42857 9.76183e-18
6042.90078 1.04007e-17
6044.37298 9.84466e-18
6045.83517 9.32791e-18
6047.30738 9.90436e-18
6048.77958 1.08054e-17
6050.25179 1.08523e-17
6051.71397 1.02124e-17
6053.18618 1.03923e-17
6054.65839 1.10060e-17
6056.13059 1.01525e-17
6057.60279 1.01258e-17
6059.06498 1.09638e-17
6060.53719 1.02119e-17
6062.00940 1.03544e-17
6063.48160 1.05829e-17
6064.94379 1.04955e-17
6066.41600 1.00484e-17
6067.88820 9.90879e-18
6069.36041 1.04206e-17
6070.82259 1.02502e-17
6072.29480 9.37609e-18
6073.76701 9.11471e-18
6075.23921 9.79990e-18
6076.71141 1.06776e-17
6078.17360 1.03119e-17
6079.64581 9.42485e-18
6081.11802 9.87783e-18
6082.59022 9.74485e-18
6084.05241 1.00678e-17
6085.52462 1.03568e-17
6086.99682 9.97240e-18
6088.46903 1.02424e-17
6089.94123 9.73962e-18
6091.40342 9.73064e-18
6092.87563 1.05933e-17
6094.34783 9.72368e-18
6095.82003 1.02074e-17
6097.28222 9.87508e-18
6098.75443 9.77815e-18
6100.22664 9.98761e-18
6101.69884 9.34529e-18
6103.17105 9.43688e-18
6104.63324 1.03632e-17
6106.10544 1.05535e-17
6107.57765 9.31552e-18
6109.04985 8.32514e-18
6110.51204 8.51017e-18
6111.98425 8.90241e-18
6113.45645 9.43217e-18
6114.92866 1.00239e-17
6116.40086 8.81689e-18
6117.86305 8.50695e-18
6119.33526 8.37632e-18
6120.80746 8.36541e-18
6122.27967 9.49775e-18
6123.74186 9.45322e-18
6125.21406 8.11638e-18
6126.68627 9.09035e-18
6128.15847 9.48327e-18
6129.62066 9.07616e-18
6131.09287 1.01817e-17
6132.56507 9.83854e-18
6134.03728 9.31134e-18
6135.50948 9.19040e-18
6136.97167 8.54537e-18
6138.44387 8.63186e-18
6139.91608 9.35350e-18
6141.38828 8.80921e-18
6142.85048 8.35037e-18
6144.32268 9.04816e-18
6145.79489 9.61551e-18
6147.26709 9.71724e-18
6148.73930 9.64258e-18
6150.20149 9.27938e-18
6151.67369 9.96739e-18
6153.14590 1.03337e-17
6154.61810 9.06780e-18
6156.08029 9.55073e-18
6157.55249 1.03322e-17
6159.02470 9.93004e-18
6160.49691 1.00216e-17
6161.95910 1.03472e-17
6163.43130 1.02272e-17
6164.90351 1.06291e-17
6166.37571 9.96753e-18
6167.84792 9.78422e-18
6169.31011 1.07791e-17
6170.78231 1.15667e-17
6172.25452 1.11516e-17
6173.72672 1.05493e-17
6175.18891 1.08829e-17
6176.66111 1.13060e-17
6178.13332 1.15520e-17
6179.60553 1.11540e-17
6181.07773 1.07803e-17
6182.53992 1.05014e-17
6184.01213 1.00411e-17
6185.48433 9.75871e-18
6186.95654 1.12579e-17
6188.41872 1.22097e-17
6189.89093 1.11546e-17
6191.36314 1.11075e-17
6192.83534 1.20458e-17
6194.30754 1.13807e-17
6195.76973 1.08360e-17
6197.24194 1.12203e-17
6198.71415 1.14270e-17
6200.18635 1.15605e-17
6201.64854 1.17145e-17
6203.12075 1.16914e-17
6204.59295 1.13448e-17
6206.06516 1.13725e-17
6207.52734 1.23389e-17
6208.99955 1.27245e-17
6210.47176 1.18751e-17
6211.94396 1.16527e-17
6213.41616 1.23934e-17
6214.87835 1.21341e-17
6216.35056 1.15439e-17
6217.82277 1.24670e-17
6219.29497 1.32862e-17
6220.75716 1.29732e-17
6222.22937 1.25131e-17
6223.70157 1.20331e-17
6225.17378 1.23744e-17
6226.64598 1.25877e-17
6228.10817 1.24176e-17
6229.58038 1.33129e-17
6231.05258 1.28506e-17
6232.52478 1.17051e-17
6233.98697 1.25248e-17
6235.45918 1.35395e-17
6236.93139 1.33546e-17
6238.40359 1.25880e-17
6239.87579 1.21711e-17
6241.33799 1.26161e-17
6242.81019 1.29581e-17
6244.28240 1.32552e-17
6245.75460 1.34229e-17
6247.21679 1.28971e-17
6248.68900 1.31318e-17
6250.16120 1.35547e-17
6251.63341 1.30390e-17
6253.09559 1.29413e-17
6254.56780 1.32020e-17
6256.04001 1.36207e-17
6257.51221 1.34623e-17
6258.98441 1.22896e-17
6260.44661 1.25272e-17
6261.91881 1.36542e-17
6263.39102 1.33250e-17
6264.86322 1.26355e-17
6266.32541 1.26259e-17
6267.79762 1.30417e-17
6269.26982 1.32721e-17
6270.74203 1.21363e-17
6272.21423 1.23005e-17
6273.67642 1.34360e-17
6275.14863 1.33179e-17
6276.62083 1.35415e-17
6278.09303 1.36518e-17
6279.55523 1.23675e-17
6281.02743 1.22951e-17
6282.49964 1.29375e-17
6283.97184 1.19228e-17
6285.44405 1.13519e-17
6286.90624 1.23953e-17
6288.37844 1.40436e-17
6289.85065 1.42408e-17
6291.32285 1.24297e-17
6292.78504 1.17400e-17
6294.25725 1.24206e-17
6295.72945 1.33425e-17
6297.20166 1.17182e-17
6298.66385 1.17453e-17
6300.13605 1.38355e-17
6301.60826 1.20322e-17
6303.08046 1.10291e-17
6304.55267 1.30990e-17
6306.01486 1.29734e-17
6307.48706 1.22258e-17
6308.95927 1.32351e-17
6310.43147 1.34198e-17
6311.89366 1.27543e-17
6313.36586 1.24565e-17
6314.83807 1.25098e-17
6316.31028 1.24634e-17
6317.78248 1.27116e-17
6319.24467 1.29571e-17
6320.71688 1.17603e-17
6322.18908 1.07101e-17
6323.66129 1.13668e-17
6325.12348 1.15566e-17
6326.59568 1.16513e-17
6328.06789 1.17415e-17
6329.54009 1.23912e-17
6331.00228 1.30446e-17
6332.47448 1.22730e-17
6333.94669 1.19712e-17
6335.41890 1.34056e-17
6336.89110 1.30329e-17
6338.35329 1.05206e-17
6339.82550 1.11815e-17
6341.29770 1.27437e-17
6342.76991 1.19687e-17
6344.23210 1.13684e-17
6345.70430 1.16485e-17
6347.17651 1.17433e-17
6348.64871 1.14230e-17
6350.12092 1.08490e-17
6351.58310 1.03490e-17
6353.05531 1.07837e-17
6354.52752 1.15482e-17
6355.99972 1.27403e-17
6357.46191 1.32508e-17
6358.93412 1.22539e-17
6360.40632 1.15252e-17
6361.87853 1.10586e-17
6363.35073 1.01782e-17
6364.81292 1.08981e-17
6366.28513 1.16695e-17
6367.75733 1.14953e-17
6369.22954 1.12073e-17
6370.69172 1.18361e-17
6372.16393 1.16263e-17
6373.63614 1.20048e-17
6375.10834 1.16811e-17
6376.58054 1.10427e-17
6378.04273 1.12513e-17
6379.51494 1.13272e-17
6380.98715 1.11251e-17
6382.45935 1.01814e-17
6383.92154 1.02965e-17
6385.39375 1.10787e-17
6386.86595 1.03956e-17
6388.33816 1.03299e-17
6389.80034 1.08911e-17
6391.27255 1.00586e-17
6392.74476 9.68877e-18
6394.21696 1.00736e-17
6395.68916 1.05688e-17
6397.15135 1.08625e-17
6398.62356 1.13125e-17
6400.09577 1.11612e-17
6401.56797 1.01209e-17
6403.03016 9.99466e-18
6404.50237 1.04210e-17
6405.97457 1.08481e-17
6407.44678 1.09473e-17
6408.91898 1.14396e-17
6410.38117 1.19314e-17
6411.85338 1.18274e-17
6413.32558 1.18272e-17
6414.79778 1.11446e-17
6416.25997 1.07025e-17
6417.73218 1.02532e-17
6419.20439 9.80779e-18
6420.67659 1.01985e-17
6422.13878 1.04283e-17
6423.61099 1.07174e-17
6425.08319 1.07136e-17
6426.55540 1.03748e-17
6428.02760 1.00304e-17
6429.48979 1.07770e-17
6430.96200 1.12962e-17
6432.43420 1.00461e-17
6433.90641 1.01137e-17
6435.36859 1.07879e-17
6436.84080 1.05248e-17
6438.31301 1.02177e-17
6439.78521 1.06225e-17
6441.25742 1.09963e-17
6442.71961 1.10385e-17
6444.19181 1.12537e-17
6445.66402 1.09761e-17
6447.13622 1.02706e-17
6448.59841 9.33126e-18
6450.07062 9.42955e-18
6451.54282 9.36036e-18
6453.01503 9.98561e-18
6454.48723 1.11405e-17
6455.94942 1.07103e-17
6457.42162 1.03562e-17
6458.89383 1.01430e-17
6460.36604 1.02224e-17
6461.82823 1.00638e-17
6463.30043 1.00040e-17
6464.77264 1.09012e-17
6466.24484 1.03961e-17
6467.71705 9.36433e-18
6469.17924 1.04235e-17
6470.65144 1.18175e-17
6472.12365 1.02841e-17
6473.59585 1.03224e-17
6475.05804 1.06574e-17
6476.53024 1.09346e-17
6478.00245 1.05347e-17
6479.47466 9.80914e-18
6480.93685 1.00958e-17
6482.40905 1.02428e-17
6483.88126 1.05892e-17
6485.35346 1.01577e-17
6486.82567 1.01145e-17
6488.28786 1.09182e-17
6489.76006 1.01008e-17
6491.23227 1.00422e-17
6492.70447 1.02361e-17
6494.16666 1.05064e-17
6495.63886 9.98698e-18
6497.11107 1.03875e-17
6498.58328 9.27592e-18
6500.05548 1.02488e-17
6501.51767 1.04282e-17
6502.98988 1.03794e-17
6504.46208 1.14683e-17
6505.93429 9.56713e-18
6507.39647 9.72253e-18
6508.86868 1.02959e-17
6510.34089 9.71808e-18
6511.81309 9.89465e-18
6513.27528 1.00700e-17
6514.74748 9.76285e-18
6516.21969 1.00710e-17
6517.69190 9.96067e-18
6519.16410 9.73375e-18
6520.62629 1.02435e-17
6522.09850 9.98043e-18
6523.57070 9.90188e-18
6525.04291 9.79860e-18
6526.50509 9.61994e-18
6527.97730 9.83424e-18
6529.44951 9.63250e-18
6530.92171 1.00504e-17
6532.39391 9.96262e-18
6533.85610 9.95199e-18
6535.32831 9.67293e-18
6536.80052 1.01083e-17
6538.27272 9.89634e-18
6539.73491 9.50356e-18
6541.20712 9.98933e-18
6542.67932 9.95451e-18
6544.15153 9.91969e-18
6545.61372 9.88488e-18
6547.08592 9.85005e-18
6548.55813 9.81524e-18
6550.03033 9.78043e-18
6551.50253 9.74561e-18
6552.96472 9.71080e-18
6554.43693 9.67597e-18
6555.90914 9.64118e-18
6557.38134 9.60637e-18
6558.84353 9.57156e-18
6560.31574 9.53675e-18
6561.78794 9.50196e-18
6563.26015 9.46714e-18
6564.73235 9.43234e-18
6566.19454 9.39755e-18
6567.66675 9.36274e-18
6569.13895 9.32796e-18
6570.61116 9.29315e-18
6572.07334 9.25836e-18
6573.54555 9.22357e-18
6575.01776 9.18878e-18
6576.48996 9.15399e-18
6577.96216 9.11920e-18
6579.42436 9.08441e-18
6580.89656 9.04962e-18
6582.36877 9.01484e-18
6583.84097 8.98005e-18
6585.30316 8.94528e-18
6586.77537 8.91049e-18
6588.24757 8.87572e-18
6589.71978 8.84095e-18
6591.19198 8.80616e-18
6592.65417 8.77140e-18
6594.12638 8.73661e-18
6595.59858 8.70185e-18
6597.07078 8.66708e-18
6598.53298 8.63231e-18
6600.00518 8.59754e-18
6601.47739 8.56277e-18
6602.94959 8.52801e-18
6604.41178 8.46570e-18
6605.88399 8.96836e-18
6607.35619 9.02441e-18
6608.82840 8.33837e-18
6610.30060 8.57925e-18
6611.76279 9.98181e-18
6613.23500 1.09252e-17
6614.70720 9.30392e-18
6616.17941 8.23274e-18
6617.64160 9.44383e-18
6619.11380 9.44480e-18
6620.58601 7.85598e-18
6622.05821 7.76032e-18
6623.53042 8.22914e-18
6624.99261 8.33752e-18
6626.46481 9.83790e-18
6627.93702 9.33575e-18
6629.40922 8.02763e-18
6630.87141 7.75004e-18
6632.34362 7.42430e-18
6633.81582 8.63668e-18
6635.28803 9.21592e-18
6636.75022 8.25809e-18
6638.22242 8.34594e-18
6639.69463 8.07254e-18
6641.16683 8.00768e-18
6642.63904 8.01023e-18
6644.10123 7.83636e-18
6645.57343 7.84415e-18
6647.04564 7.91329e-18
6648.51784 6.85651e-18
6649.98003 7.63379e-18
6651.45223 8.36631e-18
6652.92444 7.63490e-18
6654.39665 8.13006e-18
6655.86885 8.30332e-18
6657.33104 7.54192e-18
6658.80325 8.53994e-18
6660.27545 8.72953e-18
6661.74766 7.81514e-18
6663.20985 7.30898e-18
6664.68205 7.98652e-18
6666.15426 8.08004e-18
6667.62646 8.08060e-18
6669.08865 7.69298e-18
6670.56085 9.25608e-18
6672.03306 8.48847e-18
6673.50527 8.42561e-18
6674.97747 7.62029e-18
6676.43966 6.87278e-18
6677.91187 7.27102e-18
6679.38407 8.01064e-18
6680.85628 8.09740e-18
6682.31847 8.82330e-18
6683.79067 8.37957e-18
6685.26288 8.40074e-18
6686.73508 7.71201e-18
6688.20729 8.48491e-18
6689.66947 6.71887e-18
6691.14168 6.88369e-18
6692.61389 7.70997e-18
6694.08609 6.12561e-18
6695.54828 6.40732e-18
6697.02049 7.94303e-18
6698.49269 7.02499e-18
6699.96490 6.52254e-18
6701.43710 7.04096e-18
6702.89929 6.41167e-18
6704.37150 7.18032e-18
6705.84370 6.64704e-18
6707.31591 7.12222e-18
6708.77809 6.45613e-18
6710.25030 7.07278e-18
6711.72251 6.94726e-18
6713.19471 6.53078e-18
6714.66691 6.31500e-18
6716.12910 8.28304e-18
6717.60131 7.15386e-18
6719.07352 6.67302e-18
6720.54572 6.17137e-18
6722.00791 7.24390e-18
6723.48012 6.44700e-18
6724.95232 6.67737e-18
6726.42453 8.58371e-18
6727.88672 5.80948e-18
6729.35892 5.87986e-18
6730.83113 6.42749e-18
6732.30333 5.95477e-18
6733.77553 6.56110e-18
6735.23772 7.29339e-18
6736.70993 6.51463e-18
6738.18214 5.60805e-18
6739.65434 6.58674e-18
6741.11653 6.12643e-18
6742.58874 7.55444e-18
6744.06094 6.84507e-18
6745.53315 7.10646e-18
6747.00535 6.06022e-18
6748.46754 6.98661e-18
6749.93975 6.54486e-18
6751.41195 6.10988e-18
6752.88416 7.03264e-18
6754.34634 6.88648e-18
6755.81855 6.29473e-18
6757.29076 6.84335e-18
6758.76296 6.56115e-18
6760.22515 6.78231e-18
6761.69736 6.89044e-18
6763.16956 6.52892e-18
6764.64177 5.48313e-18
6766.11397 6.15151e-18
6767.57616 6.81255e-18
6769.04837 7.34917e-18
6770.52057 6.91035e-18
6771.99278 6.94992e-18
6773.45497 7.46095e-18
6774.92717 7.88535e-18
6776.39937 6.33089e-18
6777.87158 5.59861e-18
6779.34379 6.62734e-18
6780.80598 6.56765e-18
6782.27818 5.68297e-18
6783.75039 6.35511e-18
6785.22259 6.80579e-18
6786.68478 7.11184e-18
6788.15699 6.89734e-18
6789.62919 6.20575e-18
6791.10140 6.34783e-18
6792.57360 6.87441e-18
6794.03579 6.56220e-18
6795.50799 6.30924e-18
6796.98020 6.16750e-18
6798.45241 6.13573e-18
6799.91460 6.26776e-18
6801.38680 6.75316e-18
6802.85901 5.63506e-18
6804.33121 5.65899e-18
6805.79340 6.55439e-18
6807.26561 6.66285e-18
6808.73781 6.76527e-18
6810.21002 6.33815e-18
6811.68222 6.38324e-18
6813.14441 6.26538e-18
6814.61661 6.09105e-18
6816.08882 5.68400e-18
6817.56103 6.14600e-18
6819.02322 6.32537e-18
6820.49542 5.70671e-18
6821.96763 5.99462e-18
6823.43983 5.79915e-18
6824.91204 5.38807e-18
6826.37422 5.44460e-18
6827.84643 5.33278e-18
6829.31864 5.49558e-18
6830.79084 6.45031e-18
6832.25303 5.79910e-18
6833.72523 5.01582e-18
6835.19744 5.90514e-18
6836.66965 5.77258e-18
6838.14185 5.67203e-18
6839.60404 6.83769e-18
6841.07625 6.80048e-18
6842.54845 6.17949e-18
6844.02066 6.35875e-18
6845.48284 6.00079e-18
6846.95505 5.64433e-18
6848.42726 5.96645e-18
6849.89946 5.59295e-18
6851.36165 5.13319e-18
6852.83385 6.08219e-18
6854.30606 6.58638e-18
6855.77827 6.00829e-18
6857.25047 5.57618e-18
6858.71266 5.56896e-18
6860.18487 5.57112e-18
6861.65707 6.22198e-18
6863.12928 6.60868e-18
6864.59147 6.28350e-18
6866.06367 6.03137e-18
6867.53588 5.06692e-18
6869.00808 5.53392e-18
6870.48028 5.36236e-18
6871.94247 5.15995e-18
6873.41468 5.36337e-18
6874.88689 5.89127e-18
6876.35909 6.37739e-18
6877.82128 5.95834e-18
6879.29349 6.09159e-18
6880.76569 5.52206e-18
6882.23790 5.21685e-18
6883.71010 5.20072e-18
6885.17229 5.39158e-18
6886.64450 4.85732e-18
6888.11670 4.95259e-18
6889.58891 4.59900e-18
6891.05109 5.12267e-18
6892.52330 5.99327e-18
6893.99551 6.19700e-18
6895.46771 6.20232e-18
6896.92990 5.76328e-18
6898.40211 5.64664e-18
6899.87431 5.34475e-18
6901.34652 5.17579e-18
6902.81872 6.08855e-18
6904.28091 6.43498e-18
6905.75312 4.91142e-18
6907.22532 5.12914e-18
6908.69753 5.33061e-18
6910.15972 6.03535e-18
6911.63192 5.51400e-18
6913.10413 5.92312e-18
6914.57633 5.98022e-18
6916.04853 6.03884e-18
6917.51073 6.36786e-18
6918.98293 5.89782e-18
6920.45514 5.21897e-18
6921.92734 6.45880e-18
6923.38953 6.28702e-18
6924.86174 6.23867e-18
6926.33394 6.20993e-18
6927.80615 6.11741e-18
6929.27835 7.08706e-18
6930.74054 6.39543e-18
6932.21275 5.72479e-18
6933.68495 6.46762e-18
6935.15716 6.45485e-18
6936.61935 7.05475e-18
6938.09155 5.94707e-18
6939.56376 5.29686e-18
6941.03596 6.96745e-18
6942.49815 6.73834e-18
6943.97036 6.18433e-18
6945.44256 6.29714e-18
6946.91477 6.77094e-18
6948.38697 6.36327e-18
6949.84916 6.07429e-18
6951.32137 6.46759e-18
6952.79357 7.21197e-18
6954.26578 7.18537e-18
6955.72797 6.97606e-18
6957.20017 6.89244e-18
6958.67238 7.27779e-18
6960.14458 7.85187e-18
6961.61679 7.50122e-18
6963.07898 7.28436e-18
6964.55118 6.88016e-18
6966.02339 6.53872e-18
6967.49559 6.41095e-18
6968.95778 6.46223e-18
6970.42998 6.23881e-18
6971.90219 5.73416e-18
6973.37440 6.76387e-18
6974.84660 7.46376e-18
6976.30879 7.21722e-18
6977.78100 7.09161e-18
6979.25320 7.02336e-18
6980.72541 7.49796e-18
6982.18760 7.12971e-18
6983.65980 6.50411e-18
6985.13201 6.64735e-18
6986.60421 7.51488e-18
6988.06640 7.69871e-18
6989.53860 7.12540e-18
6991.01081 6.18258e-18
6992.48302 6.71259e-18
6993.95522 7.31997e-18
6995.41741 6.37376e-18
6996.88962 5.73481e-18
6998.36182 7.41800e-18
6999.83403 7.56087e-18
7001.29622 7.01178e-18
7002.76842 6.79463e-18
7004.24063 5.96570e-18
7005.71283 6.07127e-18
7007.18504 6.15127e-18
7008.64722 5.86116e-18
7010.11943 6.09226e-18
7011.59164 6.47361e-18
7013.06384 6.56221e-18
7014.52603 6.63879e-18
7015.99824 6.80972e-18
7017.47044 6.86149e-18
7018.94265 6.90914e-18
7020.41485 6.52382e-18
7021.87704 6.16935e-18
7023.34925 6.15313e-18
7024.82145 6.65016e-18
7026.29366 7.47425e-18
7027.75584 7.20522e-18
7029.22805 7.22420e-18
7030.70026 7.48482e-18
7032.17246 6.93432e-18
7033.63465 6.48109e-18
7035.10685 6.52010e-18
7036.57906 6.94485e-18
7038.05127 7.08930e-18
7039.52347 7.05556e-18
7040.98566 7.46882e-18
7042.45787 6.95882e-18
7043.93007 6.34999e-18
7045.40228 6.96397e-18
7046.86447 7.12526e-18
7048.33667 6.90711e-18
7049.80888 6.82872e-18
7051.28108 6.87464e-18
7052.75328 7.11458e-18
7054.21547 6.42429e-18
7055.68768 6.71307e-18
7057.15989 7.97112e-18
7058.63209 7.33662e-18
7060.09428 6.54242e-18
7061.56649 6.76428e-18
7063.03869 6.79150e-18
7064.51090 6.42838e-18
7065.98310 6.47691e-18
7067.44529 6.98021e-18
7068.91750 6.74635e-18
7070.38970 6.25256e-18
7071.86191 6.77782e-18
7073.32409 7.42033e-18
7074.79630 6.97738e-18
7076.26851 6.69037e-18
7077.74071 6.98398e-18
7079.20290 6.95364e-18
7080.67511 7.17752e-18
7082.14731 7.27340e-18
7083.61952 6.36335e-18
7085.09172 6.55266e-18
7086.55391 7.78730e-18
7088.02612 7.47863e-18
7089.49832 6.43188e-18
7090.97053 6.42277e-18
7092.43272 6.74192e-18
7093.90492 6.56079e-18
7095.37712 6.95432e-18
7096.84933 7.13607e-18
7098.32154 6.61110e-18
7099.78373 7.01650e-18
7101.25593 7.98104e-18
7102.72814 7.59895e-18
7104.20034 7.13752e-18
7105.66253 7.89571e-18
7107.13474 8.45596e-18
7108.60694 7.90295e-18
7110.07915 7.23470e-18
7111.55135 6.82554e-18
7113.01354 6.50812e-18
7114.48574 6.47825e-18
7115.95795 7.20455e-18
7117.43016 7.52676e-18
7118.89235 7.08380e-18
7120.36455 7.58241e-18
7121.83676 7.63572e-18
7123.30896 7.26966e-18
7124.77115 6.94282e-18
7126.24336 7.44042e-18
7127.71556 7.69615e-18
7129.18777 6.86846e-18
7130.65997 6.82119e-18
7132.12216 6.96322e-18
7133.59436 6.60073e-18
7135.06657 6.83196e-18
7136.53878 8.46606e-18
7138.00097 8.50648e-18
7139.47317 7.27780e-18
7140.94538 7.70794e-18
7142.41758 8.03311e-18
7143.88979 8.40003e-18
7145.35198 8.88065e-18
7146.82418 8.47902e-18
7148.29639 8.08452e-18
7149.76859 8.17086e-18
7151.23078 8.49961e-18
7152.70298 8.89247e-18
7154.17519 8.70717e-18
7155.64740 9.05699e-18
7157.11960 9.86327e-18
7158.58179 8.32804e-18
7160.05400 7.37088e-18
7161.52620 8.58293e-18
7162.99841 9.27561e-18
7164.46059 8.94012e-18
7165.93280 8.95943e-18
7167.40501 8.57796e-18
7168.87721 8.86032e-18
7170.33940 9.09347e-18
7171.81160 8.98760e-18
7173.28381 8.84855e-18
7174.75602 8.80631e-18
7176.22822 9.77914e-18
7177.69041 1.02645e-17
7179.16262 9.24853e-18
7180.63482 9.44250e-18
7182.10703 1.00480e-17
7183.56922 9.30491e-18
7185.04142 9.91296e-18
7186.51363 1.06904e-17
7187.98583 1.07635e-17
7189.45803 1.00007e-17
7190.92022 9.83750e-18
7192.39243 1.08699e-17
7193.86464 1.09266e-17
7195.33684 1.20296e-17
7196.79903 1.13667e-17
7198.27124 9.18779e-18
7199.74344 9.02585e-18
7201.21565 9.89794e-18
7202.68785 1.05389e-17
7204.15004 1.14351e-17
7205.62225 1.18179e-17
7207.09445 1.08496e-17
7208.56666 1.05175e-17
7210.02884 1.07226e-17
7211.50105 1.07174e-17
7212.97326 9.83323e-18
7214.44546 1.00918e-17
7215.90765 1.06676e-17
7217.37986 9.83018e-18
7218.85206 9.80644e-18
7220.32427 1.07320e-17
7221.79647 1.06627e-17
7223.25866 1.10388e-17
7224.73087 1.20913e-17
7226.20307 1.18780e-17
7227.67528 1.15736e-17
7229.13747 1.12337e-17
7230.60967 1.24407e-17
7232.08188 1.17143e-17
7233.55408 1.07168e-17
7235.02628 1.20817e-17
7236.48848 1.20182e-17
7237.96068 1.07113e-17
7239.43289 1.15129e-17
7240.90509 1.13750e-17
7242.36728 1.06289e-17
7243.83949 1.21806e-17
7245.31169 1.32126e-17
7246.78390 1.17055e-17
7248.25610 1.17541e-17
7249.71829 1.21825e-17
7251.19050 1.11363e-17
7252.66270 1.10412e-17
7254.13491 1.21089e-17
7255.59710 1.16644e-17
7257.06930 1.15001e-17
7258.54151 1.19631e-17
7260.01371 1.18991e-17
7261.47590 1.15665e-17
7262.94811 1.20584e-17
7264.42031 1.18906e-17
7265.89252 1.15470e-17
7267.36472 1.13577e-17
7268.82691 1.13619e-17
7270.29912 1.11745e-17
7271.77132 1.01138e-17
7273.24353 1.08326e-17
7274.70572 1.21139e-17
7276.17792 1.18711e-17
7277.65013 1.14096e-17
7279.12233 1.13995e-17
7280.59454 1.14289e-17
7282.05673 1.12015e-17
7283.52893 1.08766e-17
7285.00114 1.07206e-17
7286.47334 1.06199e-17
7287.93553 1.06446e-17
7289.40773 1.11827e-17
7290.87994 1.14855e-17
7292.35215 1.25800e-17
7293.81434 1.18191e-17
7295.28654 1.09000e-17
7296.75875 1.12789e-17
7298.23095 1.14262e-17
7299.70316 1.16953e-17
7301.16535 1.15744e-17
7302.63755 1.15492e-17
7304.10976 1.11435e-17
7305.58196 1.15142e-17
7307.04415 1.20933e-17
7308.51635 1.14066e-17
7309.98856 1.06875e-17
7311.46077 1.17099e-17
7312.93297 1.16417e-17
7314.39516 1.08083e-17
7315.86737 1.07223e-17
7317.33957 1.04687e-17
7318.81178 1.05854e-17
7320.27397 9.62951e-18
7321.74617 1.00190e-17
7323.21838 1.06900e-17
7324.69058 1.01756e-17
7326.16279 9.67132e-18
7327.62497 9.45964e-18
7329.09718 1.03346e-17
7330.56939 9.98945e-18
7332.04159 8.63434e-18
7333.50378 9.43300e-18
7334.97599 1.12646e-17
7336.44819 1.10607e-17
7337.92040 9.82621e-18
7339.39260 9.44953e-18
7340.85479 9.48618e-18
7342.32700 9.66349e-18
7343.79920 9.79977e-18
7345.27141 9.26027e-18
7346.73359 8.96276e-18
7348.20580 9.29955e-18
7349.67801 8.47506e-18
7351.15021 7.97435e-18
7352.61240 8.94359e-18
7354.08461 9.21846e-18
7355.55681 8.59361e-18
7357.02902 8.55984e-18
7358.50122 8.62311e-18
7359.96341 8.86421e-18
7361.43562 9.38004e-18
7362.90782 9.50142e-18
7364.38003 8.98374e-18
7365.84222 8.09550e-18
7367.31442 8.75602e-18
7368.78663 9.91082e-18
7370.25883 9.74551e-18
7371.73103 8.59753e-18
7373.19322 8.46750e-18
7374.66543 9.67959e-18
7376.13764 1.00044e-17
7377.60984 9.17301e-18
7379.07203 9.01875e-18
7380.54424 9.42971e-18
7382.01644 9.85872e-18
7383.48865 8.30509e-18
7384.95084 6.94791e-18
7386.42304 9.37371e-18
7387.89525 1.02519e-17
7389.36745 9.45098e-18
7390.83966 8.74287e-18
7392.30184 8.81289e-18
7393.77405 9.14272e-18
7395.24626 8.99607e-18
7396.71846 9.07602e-18
7398.18065 8.91604e-18
7399.65286 9.00073e-18
7401.12506 8.46962e-18
7402.59727 7.64872e-18
7404.06947 8.35516e-18
7405.53166 7.98475e-18
7407.00387 7.27751e-18
7408.47607 8.24741e-18
7409.94828 8.80360e-18
7411.41047 8.83795e-18
7412.88267 8.65986e-18
7414.35487 8.63488e-18
7415.82708 8.00016e-18
7417.28927 8.18508e-18
7418.76148 8.34886e-18
7420.23368 8.58186e-18
7421.70589 8.04566e-18
7423.17809 8.21371e-18
7424.64028 8.51222e-18
7426.11249 8.34908e-18
7427.58469 7.10832e-18
7429.05690 8.43495e-18
7430.51909 8.51926e-18
7431.99129 7.97226e-18
7433.46349 7.91328e-18
7434.93570 7.76753e-18
7436.40791 7.68962e-18
7437.87010 7.68455e-18
7439.34230 7.80342e-18
7440.81451 7.50429e-18
7442.28671 7.01515e-18
7443.74890 8.20083e-18
7445.22111 8.42806e-18
7446.69331 7.97033e-18
7448.16552 8.19890e-18
7449.63772 7.85356e-18
7451.09991 7.41761e-18
7452.57211 7.63978e-18
7454.04432 8.02352e-18
7455.51653 8.12387e-18
7456.97872 7.48678e-18
7458.45092 7.59975e-18
7459.92313 8.27357e-18
7461.39533 7.26718e-18
7462.86754 7.11677e-18
7464.32973 8.08312e-18
7465.80193 8.23336e-18
7467.27414 6.97631e-18
7468.74634 7.53349e-18
7470.20853 6.99921e-18
7471.68073 7.48630e-18
7473.15294 7.39621e-18
7474.62515 6.68375e-18
7476.08734 6.17862e-18
7477.55954 6.18938e-18
7479.03175 6.32898e-18
7480.50395 6.93303e-18
7481.97616 6.24042e-18
7483.43834 6.74663e-18
7484.91055 6.38337e-18
7486.38276 5.25246e-18
7487.85496 6.07709e-18
7489.31715 6.61131e-18
7490.78935 6.29031e-18
7492.26156 6.27790e-18
7493.73377 6.15436e-18
7495.20597 5.64413e-18
7496.66816 5.65877e-18
7498.14037 7.27098e-18
7499.61257 7.15970e-18
7501.08478 5.74776e-18
7502.54697 5.84591e-18
7504.01917 5.70921e-18
7505.49138 6.38726e-18
7506.96358 6.45180e-18
7508.42577 6.94051e-18
7509.89797 6.53197e-18
7511.37018 6.13501e-18
7512.84239 5.88929e-18
7514.31459 5.70681e-18
7515.77678 5.36886e-18
7517.24899 6.33525e-18
7518.72119 6.70961e-18
7520.19340 6.04489e-18
7521.65559 5.48452e-18
7523.12779 6.25713e-18
7524.60000 5.92633e-18
7526.07220 6.44215e-18
7527.54441 5.33476e-18
7529.00659 4.29134e-18
7530.47880 4.46580e-18
7531.95101 6.07826e-18
7533.42321 5.57462e-18
7534.88540 5.90903e-18
7536.35761 5.96921e-18
7537.82981 5.37398e-18
7539.30202 5.39907e-18
7540.76421 6.20507e-18
7542.23641 6.33689e-18
7543.70862 6.38211e-18
7545.18082 5.10295e-18
7546.65303 5.93899e-18
7548.11522 5.77489e-18
7549.58742 6.36117e-18
7551.05963 6.06043e-18
7552.53183 4.45604e-18
7553.99402 4.47129e-18
7555.46623 5.52522e-18
7556.93843 4.58214e-18
7558.41064 4.39876e-18
7559.88284 5.22231e-18
7561.34503 5.66441e-18
7562.81724 5.34563e-18
7564.28944 5.49459e-18
7565.76165 5.58978e-18
7567.22384 4.42333e-18
7568.69604 3.01313e-18
7570.16825 3.36275e-18
7571.64045 4.46785e-18
7573.11266 4.09948e-18
7574.57485 5.80240e-18
7576.04705 5.79140e-18
7577.51926 5.66701e-18
7578.99146 6.04961e-18
7580.45365 4.94983e-18
7581.92586 5.21919e-18
7583.39806 5.66904e-18
7584.87027 6.38880e-18
7586.34247 5.72974e-18
7587.80466 5.28414e-18
7589.27687 5.89826e-18
7590.74907 5.73225e-18
7592.22128 5.55762e-18
7593.68347 5.05262e-18
7595.15567 4.36338e-18
7596.62788 4.61671e-18
7598.10008 4.88198e-18
7599.56227 5.84964e-18
7601.03448 3.96371e-18
7602.50668 4.27719e-18
7603.97889 6.70148e-18
7605.45109 5.42327e-18
7606.91328 2.89585e-18
7608.38548 3.66228e-18
7609.85769 5.54774e-18
7611.32990 6.13202e-18
7612.79209 6.82291e-18
7614.26429 6.46521e-18
7615.73650 5.50160e-18
7617.20870 5.49412e-18
7618.68091 4.61417e-18
7620.14310 4.41930e-18
7621.61530 4.15359e-18
7623.08751 4.36439e-18
7624.55971 5.99570e-18
7626.02190 4.74176e-18
7627.49410 4.45553e-18
7628.96631 6.78413e-18
7630.43852 5.23807e-18
7631.90071 6.52425e-18
7633.37291 5.50339e-18
7634.84512 5.01443e-18
7636.31732 6.08548e-18
7637.78953 5.42397e-18
7639.25172 4.82463e-18
7640.72392 5.14968e-18
7642.19613 6.78496e-18
7643.66833 5.29065e-18
7645.13052 5.42427e-18
7646.60272 5.87125e-18
7648.07493 4.74973e-18
7649.54714 6.70929e-18
7651.01934 5.37234e-18
7652.48153 5.62554e-18
7653.95374 6.41778e-18
7655.42594 6.69374e-18
7656.89815 5.89208e-18
7658.36034 6.87566e-18
7659.83254 7.45296e-18
7661.30475 8.38139e-18
7662.77695 6.32281e-18
7664.24916 6.30287e-18
7665.71134 9.36249e-18
7667.18355 7.69757e-18
7668.65576 6.64850e-18
7670.12796 7.99336e-18
7670.17717 7.99336e-18
7671.03863 8.10726e-18
7671.91011 8.18965e-18
7672.77158 8.27195e-18
7673.63304 8.31746e-18
7674.49450 8.36281e-18
7675.35596 8.37346e-18
7676.21742 8.38403e-18
7677.07889 8.40292e-18
7677.94035 8.42172e-18
7678.80181 8.49184e-18
7679.66327 8.56212e-18
7680.52473 8.65814e-18
7681.38620 8.75416e-18
7682.25767 8.83590e-18
7683.11914 8.91772e-18
7683.98060 8.98510e-18
7684.84206 9.05248e-18
7685.70352 9.11679e-18
7686.56498 9.18110e-18
7687.42645 9.24501e-18
7688.28791 9.30883e-18
7689.14937 9.37322e-18
7690.01083 9.43762e-18
7690.88231 9.49636e-18
7691.74377 9.55510e-18
7692.60524 9.59577e-18
7693.46670 9.63652e-18
7694.32816 9.66218e-18
7695.18962 9.68784e-18
7696.05108 9.71745e-18
7696.91255 9.74707e-18
7697.77401 9.78781e-18
7698.63547 9.82848e-18
7699.49693 9.87068e-18
7700.35839 9.91280e-18
7701.22987 9.94839e-18
7702.09133 9.98397e-18
7702.95280 1.00082e-17
7703.81426 1.00322e-17
7704.67572 1.00417e-17
7705.53718 1.00509e-17
7706.39864 1.00463e-17
7707.26011 1.00415e-17
7708.12157 1.00269e-17
7708.98303 1.00123e-17
7709.84449 1.00047e-17
7710.71597 9.99721e-18
7711.57743 1.00118e-17
7712.43890 1.00265e-17
7713.30036 1.00597e-17
7714.16182 1.00929e-17
7715.02328 1.01364e-17
7715.88474 1.01799e-17
7716.74620 1.02203e-17
7717.60767 1.02608e-17
7718.46913 1.02837e-17
7719.33059 1.03067e-17
7720.20207 1.03112e-17
7721.06353 1.03156e-17
7721.92499 1.03068e-17
7722.78646 1.02980e-17
7723.64792 1.02850e-17
7724.50938 1.02720e-17
7725.37084 1.02670e-17
7726.23230 1.02618e-17
7727.09377 1.02685e-17
7727.95523 1.02753e-17
7728.81669 1.02898e-17
7729.67815 1.03044e-17
7730.54963 1.03259e-17
7731.41109 1.03476e-17
7732.27255 1.03807e-17
7733.13402 1.04137e-17
7733.99548 1.04529e-17
7734.85694 1.04922e-17
7735.71840 1.05165e-17
7736.57986 1.05407e-17
7737.44133 1.05378e-17
7738.30279 1.05350e-17
7739.17427 1.05138e-17
7740.03573 1.04926e-17
7740.89719 1.04642e-17
7741.75865 1.04359e-17
7742.62012 1.04174e-17
7743.48158 1.03988e-17
7744.34304 1.04037e-17
7745.20450 1.04087e-17
7746.06596 1.04278e-17
7746.92743 1.04469e-17
7747.78889 1.04674e-17
7748.65035 1.04879e-17
7749.52183 1.05052e-17
7750.38329 1.05225e-17
7751.24475 1.05333e-17
7752.10621 1.05441e-17
7752.96768 1.05485e-17
7753.82914 1.05528e-17
7754.69060 1.05530e-17
7755.55206 1.05532e-17
7756.41352 1.05464e-17
7757.27499 1.05395e-17
7758.13645 1.05200e-17
7759.00793 1.05006e-17
7759.86939 1.04740e-17
7760.73085 1.04474e-17
7761.59231 1.04271e-17
7762.45378 1.04069e-17
7763.31524 1.03961e-17
7764.17670 1.03853e-17
7765.03816 1.03771e-17
7765.89962 1.03689e-17
7766.76109 1.03577e-17
7767.62255 1.03466e-17
7768.49403 1.03285e-17
7769.35549 1.03104e-17
7770.21695 1.02850e-17
7771.07841 1.02596e-17
7771.93988 1.02356e-17
7772.80134 1.02116e-17
7773.66280 1.01953e-17
7774.52426 1.01790e-17
7775.38572 1.01671e-17
7776.24719 1.01552e-17
7777.10865 1.01450e-17
7777.98013 1.01349e-17
7778.84159 1.01281e-17
7779.70305 1.01212e-17
7780.56451 1.01191e-17
7781.42597 1.01169e-17
7782.28744 1.01190e-17
7783.14890 1.01211e-17
7784.01036 1.01266e-17
7784.87182 1.01320e-17
7785.73328 1.01402e-17
7786.59475 1.01483e-17
7787.46623 1.01582e-17
7788.32769 1.01681e-17
7789.18915 1.01769e-17
7790.05061 1.01856e-17
7790.91207 1.01901e-17
7791.77354 1.01944e-17
7792.63500 1.01928e-17
7793.49646 1.01912e-17
7794.35792 1.01830e-17
7795.21938 1.01748e-17
7796.08085 1.01639e-17
7796.94231 1.01530e-17
7797.81379 1.01463e-17
7798.67525 1.01397e-17
7799.53671 1.01425e-17
7800.39817 1.01454e-17
7801.25963 1.01613e-17
7802.12110 1.01771e-17
7802.98256 1.02033e-17
7803.84402 1.02295e-17
7804.70548 1.02528e-17
7805.56694 1.02761e-17
7806.42841 1.02869e-17
7807.29989 1.02977e-17
7808.16135 1.02971e-17
7809.02281 1.02966e-17
7809.88427 1.02865e-17
7810.74573 1.02763e-17
7811.60720 1.02587e-17
7812.46866 1.02411e-17
7813.33012 1.02191e-17
7814.19158 1.01972e-17
7815.05304 1.01749e-17
7815.91450 1.01526e-17
7816.78598 1.01337e-17
7817.64745 1.01149e-17
7818.50891 1.01039e-17
7819.37037 1.00929e-17
7820.23183 1.00934e-17
7821.09329 1.00940e-17
7821.95476 1.00977e-17
7822.81622 1.01016e-17
7823.67768 1.00965e-17
7824.53914 1.00913e-17
7825.40060 1.00756e-17
7826.27208 1.00599e-17
7827.13355 1.00375e-17
7827.99501 1.00151e-17
7828.85647 9.98906e-18
7829.71793 9.96307e-18
7830.57939 9.93661e-18
7831.44085 9.91014e-18
7832.30232 9.88529e-18
7833.16378 9.86044e-18
7834.02524 9.83720e-18
7834.88670 9.81396e-18
7835.75818 9.79451e-18
7836.61964 9.77506e-18
7837.48111 9.76546e-18
7838.34257 9.75586e-18
7839.20403 9.75772e-18
7840.06549 9.75949e-18
7840.92695 9.76595e-18
7841.78842 9.77240e-18
7842.64988 9.77757e-18
7843.51134 9.78273e-18
7844.37280 9.78386e-18
7845.23426 9.78507e-18
7846.10574 9.78063e-18
7846.96720 9.77628e-18
7847.82867 9.76853e-18
7848.69013 9.76078e-18
7849.55159 9.75247e-18
7850.41305 9.74416e-18
7851.27452 9.73706e-18
7852.13598 9.72988e-18
7852.99744 9.72512e-18
7853.85890 9.72036e-18
7854.72036 9.71890e-18
7855.59184 9.71745e-18
7856.45330 9.71979e-18
7857.31477 9.72221e-18
7858.17623 9.72471e-18
7859.03769 9.72722e-18
7859.89915 9.72399e-18
7860.76061 9.72076e-18
7861.62208 9.71221e-18
7862.48354 9.70365e-18
7863.34500 9.69454e-18
7864.20646 9.68542e-18
7865.07794 9.67323e-18
7865.93940 9.66113e-18
7866.80087 9.63789e-18
7867.66233 9.61473e-18
7868.52379 9.57963e-18
7869.38525 9.54461e-18
7870.24671 9.50435e-18
7871.10818 9.46400e-18
7871.96964 9.42785e-18
7872.83110 9.39162e-18
7873.69256 9.37468e-18
7874.56404 9.35789e-18
7875.42550 9.36620e-18
7876.28696 9.37460e-18
7877.14843 9.39106e-18
7878.00989 9.40752e-18
7878.87135 9.41631e-18
7879.73281 9.42519e-18
7880.59427 9.42156e-18
7881.45574 9.41793e-18
7882.31720 9.39929e-18
7883.17866 9.38057e-18
7884.05014 9.35345e-18
7884.91160 9.32634e-18
7885.77306 9.29899e-18
7886.63453 9.27171e-18
7887.49599 9.24355e-18
7888.35745 9.21531e-18
7889.21891 9.18433e-18
7890.08037 9.15334e-18
7890.94184 9.12123e-18
7891.80330 9.08919e-18
7892.66476 9.05796e-18
7893.52622 9.02682e-18
7894.39770 9.00463e-18
7895.25916 8.98244e-18
7896.12062 8.98050e-18
7896.98209 8.97848e-18
7897.84355 8.99035e-18
7898.70501 9.00213e-18
7899.56647 9.00907e-18
7900.42793 9.01601e-18
7901.28940 9.00987e-18
7902.15086 9.00374e-18
7903.01232 8.98655e-18
7903.88380 8.96928e-18
7904.74526 8.94629e-18
7905.60672 8.92337e-18
7906.46819 8.90659e-18
7907.32965 8.88989e-18
7908.19111 8.88408e-18
7909.05257 8.87827e-18
7909.91403 8.86995e-18
7910.77550 8.86164e-18
7911.63696 8.84284e-18
7912.49842 8.82404e-18
7913.36990 8.80435e-18
7914.23136 8.78458e-18
7915.09282 8.77200e-18
7915.95428 8.75941e-18
7916.81575 8.75449e-18
7917.67721 8.74956e-18
7918.53867 8.75126e-18
7919.40013 8.75295e-18
7920.26159 8.74940e-18
7921.12306 8.74593e-18
7921.98452 8.72528e-18
7922.85600 8.70454e-18
7923.71746 8.67404e-18
7924.57892 8.64354e-18
7925.44038 8.61602e-18
7926.30185 8.58842e-18
7927.16331 8.57132e-18
7928.02477 8.55421e-18
7928.88623 8.55252e-18
7929.74769 8.55090e-18
7930.60916 8.56155e-18
7931.47062 8.57220e-18
7932.34210 8.58641e-18
7933.20356 8.60069e-18
7934.06502 8.61094e-18
7934.92648 8.62118e-18
7935.78794 8.62118e-18
7936.64941 8.62126e-18
7937.51087 8.60787e-18
7938.37233 8.59439e-18
7939.23379 8.56825e-18
7940.09525 8.54203e-18
7940.95672 8.50693e-18
7941.81818 8.47183e-18
7942.68966 8.43656e-18
7943.55112 8.40130e-18
7944.41258 8.37274e-18
7945.27404 8.34417e-18
7946.13551 8.32352e-18
7946.99697 8.30286e-18
7947.85843 8.29003e-18
7948.71989 8.27712e-18
7949.58135 8.26969e-18
7950.44282 8.26227e-18
7951.30428 8.25695e-18
7952.17576 8.25162e-18
7953.03722 8.24129e-18
7953.89868 8.23096e-18
7954.76014 8.20950e-18
7955.62160 8.18804e-18
7956.48307 8.16439e-18
7957.34453 8.14067e-18
7958.20599 8.12647e-18
7959.06745 8.11235e-18
7959.92891 8.10847e-18
7960.79038 8.10460e-18
7961.66186 8.10855e-18
7962.52332 8.11243e-18
7963.38478 8.11800e-18
7964.24624 8.12356e-18
7965.10770 8.12187e-18
7965.96917 8.12009e-18
7966.83063 8.11622e-18
7967.69209 8.11227e-18
7968.55355 8.12090e-18
7969.41501 8.12961e-18
7970.27648 8.15423e-18
7971.14795 8.17892e-18
7972.00942 8.21208e-18
7972.87088 8.24524e-18
7973.73234 8.27696e-18
7974.59380 8.30875e-18
7975.45526 8.32456e-18
7976.31673 8.34038e-18
7977.17819 8.33409e-18
7978.03965 8.32779e-18
7978.90111 8.31125e-18
7979.76257 8.29471e-18
7980.63405 8.27825e-18
7981.49552 8.26187e-18
7982.35698 8.24807e-18
7983.21844 8.23427e-18
7984.07990 8.22475e-18
7984.94136 8.21523e-18
7985.80283 8.20651e-18
7986.66429 8.19788e-18
7987.52575 8.18634e-18
7988.38721 8.17472e-18
7989.24867 8.16181e-18
7990.11014 8.14890e-18
7990.98161 8.13655e-18
7991.84308 8.12421e-18
7992.70454 8.11622e-18
7993.56600 8.10823e-18
7994.42746 8.10896e-18
7995.28892 8.10976e-18
7996.15039 8.11057e-18
7997.01185 8.11138e-18
7997.87331 8.09847e-18
7998.73477 8.08556e-18
7999.59623 8.06060e-18
8000.46771 8.03564e-18
8001.32917 8.00908e-18
8002.19064 7.98251e-18
8003.05210 7.96221e-18
8003.91356 7.94192e-18
8004.77502 7.93460e-18
8005.63649 7.92732e-18
8006.49795 7.93127e-18
8007.35941 7.93524e-18
8008.22087 7.93671e-18
8009.08233 7.93817e-18
8009.95381 7.93266e-18
8010.81527 7.92715e-18
8011.67674 7.92783e-18
8012.53820 7.92852e-18
8013.39966 7.94177e-18
8014.26112 7.95503e-18
8015.12258 7.97160e-18
8015.98405 7.98816e-18
8016.84551 7.99922e-18
8017.70697 8.01026e-18
8018.56843 8.00684e-18
8019.43991 8.00339e-18
8020.30137 7.97999e-18
8021.16284 7.95656e-18
8022.02430 7.92802e-18
8022.88576 7.89946e-18
8023.74722 7.88216e-18
8024.60868 7.86489e-18
8025.47015 7.85835e-18
8026.33161 7.85184e-18
8027.19307 7.85169e-18
8028.05453 7.85155e-18
8028.92601 7.85241e-18
8029.78747 7.85326e-18
8030.64893 7.84887e-18
8031.51040 7.84445e-18
8032.37186 7.83542e-18
8033.23332 7.82639e-18
8034.09478 7.81709e-18
8034.95624 7.80780e-18
8035.81771 7.80105e-18
8036.67917 7.79430e-18
8037.54063 7.79177e-18
8038.41211 7.78924e-18
8039.27357 7.79154e-18
8040.13503 7.79384e-18
8040.99650 7.80023e-18
8041.85796 7.80662e-18
8042.71942 7.81498e-18
8043.58088 7.82333e-18
8044.44234 7.82990e-18
8045.30380 7.83646e-18
8046.16527 7.83840e-18
8047.02673 7.84033e-18
8047.88819 7.83634e-18
8048.75967 7.83233e-18
8049.62113 7.82309e-18
8050.48259 7.81384e-18
8051.34406 7.80619e-18
8052.20552 7.79854e-18
8053.06698 7.79758e-18
8053.92844 7.79664e-18
8054.78990 7.79848e-18
8055.65137 7.80034e-18
8056.51283 7.80013e-18
8057.37429 7.79991e-18
8058.24577 7.79182e-18
8059.10723 7.78370e-18
8059.96869 7.76277e-18
8060.83015 7.74181e-18
8061.69162 7.71208e-18
8062.55308 7.68232e-18
8063.41454 7.65063e-18
8064.27600 7.61895e-18
8065.13746 7.59310e-18
8065.99893 7.56726e-18
8066.86039 7.55488e-18
8067.73187 7.54252e-18
8068.59333 7.54404e-18
8069.45479 7.54558e-18
8070.31625 7.55691e-18
8071.17772 7.56826e-18
8072.03918 7.58129e-18
8072.90064 7.59431e-18
8073.76210 7.59743e-18
8074.62356 7.60051e-18
8075.48503 7.58943e-18
8076.34649 7.57832e-18
8077.21797 7.55858e-18
8078.07943 7.53883e-18
8078.94089 7.51389e-18
8079.80235 7.48894e-18
8080.66381 7.45816e-18
8081.52528 7.42736e-18
8082.38674 7.39121e-18
8083.24820 7.35504e-18
8084.10966 7.31504e-18
8084.97113 7.27503e-18
8085.83259 7.23299e-18
8086.70407 7.19094e-18
8087.56553 7.14951e-18
8088.42699 7.10809e-18
8089.28845 7.06979e-18
8090.14991 7.03149e-18
8091.01138 6.99857e-18
8091.87284 6.96566e-18
8092.73430 6.93933e-18
8093.59576 6.91300e-18
8094.45722 6.89274e-18
8095.31869 6.87251e-18
8096.18015 6.85670e-18
8097.05163 6.84092e-18
8097.91309 6.82076e-18
8098.77455 6.80060e-18
8099.63601 6.76567e-18
8100.49748 6.73070e-18
8101.35894 6.67769e-18
8102.22040 6.62462e-18
8103.08186 6.55420e-18
8103.94332 6.48374e-18
8104.80479 6.40443e-18
8105.67626 6.32511e-18
8106.53773 6.25077e-18
8107.39919 6.17643e-18
8108.26065 6.11567e-18
8109.12211 6.05493e-18
8109.98357 6.01067e-18
8110.84504 5.96644e-18
8111.70650 5.93481e-18
8112.56796 5.90320e-18
8113.42942 5.87063e-18
8114.29088 5.83806e-18
8115.15235 5.79360e-18
8116.02383 5.74913e-18
8116.88529 5.68812e-18
8117.74675 5.62707e-18
8118.60821 5.54864e-18
8119.46967 5.47017e-18
8120.33114 5.38562e-18
8121.19260 5.30107e-18
8122.05406 5.21946e-18
8122.91552 5.13787e-18
8123.77698 5.04911e-18
8124.63845 4.96033e-18
8125.49991 4.85505e-18
8126.37139 4.74974e-18
8127.23285 4.63296e-18
8128.09431 4.51616e-18
8128.95577 4.39526e-18
8129.81723 4.27436e-18
8130.67870 4.16350e-18
8131.54016 4.05266e-18
8132.40162 3.96706e-18
8133.26308 3.88153e-18
8134.12454 3.81300e-18
8134.99602 3.74453e-18
8135.85749 3.67478e-18
8136.71895 3.60503e-18
8137.58041 3.52711e-18
8138.44187 3.44917e-18
8139.30333 3.36281e-18
8140.16480 3.27643e-18
8141.02626 3.18385e-18
8141.88772 3.09125e-18
8142.74918 2.99759e-18
8143.61064 2.90392e-18
8144.47210 2.81429e-18
8145.34358 2.72468e-18
8146.20505 2.64316e-18
8147.06651 2.56167e-18
8147.92797 2.49114e-18
8148.78943 2.42065e-18
8149.65089 2.36201e-18
8150.51236 2.30341e-18
8151.37382 2.25522e-18
8152.23528 2.20705e-18
8153.09674 2.16295e-18
8153.95820 2.11886e-18
8154.82968 2.07370e-18
8155.69115 2.02855e-18
8156.55261 1.98284e-18
8157.41407 1.93713e-18
8158.27553 1.89242e-18
8159.13699 1.84772e-18
8159.99845 1.80782e-18
8160.85992 1.76792e-18
8161.72138 1.73657e-18
8162.58284 1.70523e-18
8163.44430 1.68354e-18
8164.31578 1.66189e-18
8165.17724 1.64969e-18
8166.03871 1.63750e-18
8166.90017 1.62897e-18
8167.76163 1.62045e-18
8168.62309 1.60854e-18
8169.48455 1.59663e-18
8170.34602 1.57547e-18
8171.20748 1.55429e-18
8172.06894 1.51829e-18
8172.93040 1.48225e-18
8173.80188 1.44093e-18
8174.66334 1.39960e-18
8175.52481 1.37350e-18
8176.38627 1.34743e-18
8177.24773 1.34112e-18
8178.10919 1.33485e-18
8178.97065 1.33641e-18
8179.83212 1.33799e-18
8180.69358 1.33837e-18
8181.55504 1.33875e-18
8182.41650 1.33224e-18
8183.28798 1.32572e-18
8184.14944 1.31024e-18
8185.01090 1.29475e-18
8185.87237 1.27799e-18
8186.73383 1.26122e-18
8187.59529 1.24868e-18
8188.45675 1.23613e-18
8189.31821 1.22355e-18
8190.17968 1.21096e-18
8191.04114 1.19538e-18
8191.90260 1.17978e-18
8192.77408 1.16481e-18
8193.63554 1.14985e-18
8194.49700 1.13916e-18
8195.35846 1.12849e-18
8196.21993 1.12536e-18
8197.08139 1.12226e-18
8197.94285 1.12917e-18
8198.80431 1.13610e-18
8199.66577 1.14713e-18
8200.52724 1.15816e-18
8201.38870 1.16500e-18
8202.25016 1.17183e-18
8203.12164 1.17288e-18
8203.98310 1.17392e-18
8204.84456 1.17053e-18
8205.70603 1.16712e-18
8206.56749 1.15996e-18
8207.42895 1.15279e-18
8208.29041 1.14245e-18
8209.15187 1.13209e-18
8210.01334 1.12024e-18
8210.87480 1.10839e-18
8211.73626 1.09721e-18
8212.60774 1.08604e-18
8213.46920 1.07647e-18
8214.33066 1.06691e-18
8215.19212 1.05879e-18
8216.05359 1.05067e-18
8216.91505 1.04141e-18
8217.77651 1.03216e-18
8218.63797 1.01462e-18
8219.49943 9.97066e-19
8220.36090 9.68509e-19
8221.22236 9.39929e-19
8222.08382 9.07668e-19
8222.95530 8.75400e-19
8223.81676 8.47602e-19
8224.67822 8.19812e-19
8225.53969 8.06709e-19
8226.40115 7.93643e-19
8227.26261 8.02624e-19
8228.12407 8.11654e-19
8228.98553 8.35837e-19
8229.84700 8.60053e-19
8230.70846 8.89876e-19
8231.57994 9.19716e-19
8232.44140 9.45892e-19
8233.30286 9.72068e-19
8234.16432 9.85971e-19
8235.02578 9.99850e-19
8235.88725 1.00434e-18
8236.74871 1.00881e-18
8237.61017 1.01108e-18
8238.47163 1.01336e-18
8239.33309 1.01843e-18
8240.19456 1.02352e-18
8241.06604 1.03557e-18
8241.92750 1.04764e-18
8242.78896 1.06423e-18
8243.65042 1.08083e-18
8244.51188 1.09442e-18
8245.37335 1.10801e-18
8246.23481 1.11490e-18
8247.09627 1.12177e-18
8247.95773 1.12238e-18
8248.81919 1.12297e-18
8249.68066 1.11880e-18
8250.54212 1.11462e-18
8251.41360 1.10902e-18
8252.27506 1.10341e-18
8253.13652 1.09950e-18
8253.99798 1.09561e-18
8254.85945 1.09529e-18
8255.72091 1.09499e-18
8256.58237 1.09934e-18
8257.44383 1.10371e-18
8258.30529 1.11198e-18
8259.16676 1.12026e-18
8260.02822 1.13086e-18
8260.89970 1.14147e-18
8261.76116 1.15147e-18
8262.62262 1.16147e-18
8263.48408 1.16799e-18
8264.34554 1.17449e-18
8265.20701 1.17492e-18
8266.06847 1.17533e-18
8266.92993 1.16796e-18
8267.79139 1.16058e-18
8268.65285 1.14934e-18
8269.52433 1.13808e-18
8270.38580 1.12841e-18
8271.24726 1.11874e-18
8272.10872 1.11429e-18
8272.97018 1.10985e-18
8273.83164 1.11345e-18
8274.69311 1.11706e-18
8275.55457 1.12589e-18
8276.41603 1.13472e-18
8277.27749 1.14240e-18
8278.13895 1.15007e-18
8279.01043 1.15401e-18
8279.87189 1.15794e-18
8280.73336 1.15875e-18
8281.59482 1.15955e-18
8282.45628 1.15915e-18
8283.31774 1.15875e-18
8284.17920 1.16117e-18
8285.04067 1.16360e-18
8285.90213 1.17037e-18
8286.76359 1.17714e-18
8287.62505 1.18462e-18
8288.48651 1.19210e-18
8289.34798 1.19836e-18
8290.21946 1.20460e-18
8291.08092 1.21254e-18
8291.94238 1.22047e-18
8292.80384 1.23174e-18
8293.66530 1.24301e-18
8294.52677 1.25469e-18
8295.38823 1.26636e-18
8296.24969 1.27570e-18
8297.11115 1.28504e-18
8297.97261 1.29031e-18
8298.83408 1.29556e-18
8299.70555 1.29570e-18
8300.56702 1.29582e-18
8301.42848 1.29702e-18
8302.28994 1.29822e-18
8303.15140 1.30781e-18
8304.01286 1.31743e-18
8304.87433 1.33260e-18
8305.73579 1.34777e-18
8306.59725 1.36240e-18
8307.45871 1.37704e-18
8308.32017 1.38745e-18
8309.18164 1.39784e-18
8310.05312 1.40131e-18
8310.91458 1.40477e-18
8311.77604 1.40418e-18
8312.63750 1.40359e-18
8313.49896 1.40595e-18
8314.36043 1.40832e-18
8315.22189 1.41755e-18
8316.08335 1.42682e-18
8316.94481 1.44372e-18
8317.80627 1.46065e-18
8318.67775 1.48323e-18
8319.53921 1.50582e-18
8320.40068 1.52779e-18
8321.26214 1.54975e-18
8322.12360 1.56661e-18
8322.98506 1.58345e-18
8323.84652 1.59513e-18
8324.70799 1.60681e-18
8325.56945 1.61391e-18
8326.43091 1.62101e-18
8327.29237 1.62528e-18
8328.16385 1.62955e-18
8329.02531 1.63317e-18
8329.88678 1.63678e-18
8330.74824 1.64100e-18
8331.60970 1.64522e-18
8332.47116 1.65126e-18
8333.33262 1.65731e-18
8334.19408 1.66822e-18
8335.05555 1.67915e-18
8335.91701 1.69745e-18
8336.77847 1.71576e-18
8337.64995 1.73949e-18
8338.51141 1.76321e-18
8339.37287 1.78897e-18
8340.23434 1.81473e-18
8341.09580 1.83788e-18
8341.95726 1.86102e-18
8342.81872 1.87654e-18
8343.68018 1.89204e-18
8344.54165 1.90004e-18
8345.40311 1.90801e-18
8346.26457 1.91200e-18
8347.12603 1.91598e-18
8347.99751 1.91884e-18
8348.85897 1.92170e-18
8349.72043 1.92557e-18
8350.58190 1.92943e-18
8351.44336 1.93680e-18
8352.30482 1.94418e-18
8353.16628 1.95767e-18
8354.02775 1.97118e-18
8354.88921 1.99111e-18
8355.75067 2.01105e-18
8356.62215 2.03416e-18
8357.48361 2.05729e-18
8358.34507 2.08033e-18
8359.20653 2.10338e-18
8360.06800 2.12354e-18
8360.92946 2.14368e-18
8361.79092 2.15923e-18
8362.65238 2.17478e-18
8363.51384 2.18869e-18
8364.37531 2.20258e-18
8365.23677 2.21770e-18
8366.10825 2.23283e-18
8366.96971 2.24729e-18
8367.83117 2.26175e-18
8368.69263 2.27356e-18
8369.55410 2.28538e-18
8370.41556 2.29646e-18
8371.27702 2.30756e-18
8372.13848 2.32058e-18
8372.99994 2.33361e-18
8373.86140 2.35000e-18
8374.72287 2.36642e-18
8375.59435 2.38712e-18
8376.45581 2.40784e-18
8377.31727 2.43266e-18
8378.17873 2.45749e-18
8379.04019 2.48547e-18
8379.90166 2.51345e-18
8380.76312 2.54306e-18
8381.62458 2.57266e-18
8382.48604 2.60209e-18
8383.34750 2.63152e-18
8384.20897 2.65928e-18
8385.07043 2.68703e-18
8385.94191 2.71176e-18
8386.80337 2.73648e-18
8387.66483 2.75899e-18
8388.52629 2.78149e-18
8389.38775 2.80615e-18
8390.24922 2.83082e-18
8391.11068 2.85886e-18
8391.97214 2.88690e-18
8392.83360 2.91268e-18
8393.69507 2.93846e-18
8394.55653 2.95794e-18
8395.41799 2.97741e-18
8396.28947 2.99048e-18
8397.15093 3.00354e-18
8398.01239 3.01183e-18
8398.87385 3.02011e-18
8399.73532 3.03279e-18
8400.59678 3.04549e-18
8401.45824 3.07092e-18
8402.31970 3.09639e-18
8403.18116 3.13187e-18
8404.04263 3.16738e-18
8404.90409 3.20780e-18
8405.77557 3.24823e-18
8406.63703 3.28793e-18
8407.49849 3.32762e-18
8408.35995 3.36075e-18
8409.22142 3.39385e-18
8410.08288 3.42043e-18
8410.94434 3.44700e-18
8411.80580 3.47001e-18
8412.66726 3.49302e-18
8413.52873 3.51453e-18
8414.39019 3.53603e-18
8415.26167 3.55771e-18
8416.12313 3.57939e-18
8416.98459 3.60300e-18
8417.84605 3.62662e-18
8418.70751 3.65362e-18
8419.56898 3.68063e-18
8420.43044 3.71159e-18
8421.29190 3.74256e-18
8422.15336 3.77735e-18
8423.01482 3.81215e-18
8423.87629 3.84891e-18
8424.74777 3.88569e-18
8425.60923 3.91935e-18
8426.47069 3.95302e-18
8427.33215 3.98151e-18
8428.19361 4.00999e-18
8429.05508 4.03906e-18
8429.91654 4.06812e-18
8430.77800 4.10244e-18
8431.63946 4.13677e-18
8432.50092 4.17684e-18
8433.36239 4.21692e-18
8434.23386 4.26200e-18
8435.09533 4.30708e-18
8435.95679 4.34968e-18
8436.81825 4.39228e-18
8437.67971 4.42502e-18
8438.54117 4.45775e-18
8439.40264 4.48495e-18
8440.26410 4.51213e-18
8441.12556 4.54080e-18
8441.98702 4.56945e-18
8442.84848 4.60163e-18
8443.70995 4.63382e-18
8444.58143 4.67001e-18
8445.44289 4.70620e-18
8446.30435 4.74677e-18
8447.16581 4.78735e-18
8448.02727 4.83219e-18
8448.88874 4.87703e-18
8449.75020 4.92475e-18
8450.61166 4.97247e-18
8451.47312 5.02104e-18
8452.33458 5.06960e-18
8453.20606 5.11669e-18
8454.06752 5.16376e-18
8454.92899 5.20654e-18
8455.79045 5.24931e-18
8456.65191 5.28840e-18
8457.51337 5.32748e-18
8458.37483 5.36893e-18
8459.23630 5.41040e-18
8460.09776 5.45679e-18
8460.95922 5.50320e-18
8461.82068 5.54931e-18
8462.69216 5.59543e-18
8463.55362 5.63757e-18
8464.41508 5.67972e-18
8465.27655 5.71817e-18
8466.13801 5.75662e-18
8466.99947 5.79294e-18
8467.86093 5.82925e-18
8468.72240 5.87114e-18
8469.58386 5.91303e-18
8470.44532 5.96731e-18
8471.30678 6.02160e-18
8472.16824 6.08404e-18
8473.03972 6.14651e-18
8473.90118 6.21099e-18
8474.76265 6.27547e-18
8475.62411 6.33734e-18
8476.48557 6.39921e-18
8477.34703 6.45400e-18
8478.20849 6.50878e-18
8479.06996 6.56179e-18
8479.93142 6.61479e-18
8480.79288 6.67564e-18
8481.65434 6.73652e-18
8482.51580 6.80306e-18
8483.38728 6.86962e-18
8484.24875 6.93288e-18
8485.11021 6.99612e-18
8485.97167 7.05209e-18
8486.83313 7.10804e-18
8487.69459 7.15661e-18
8488.55605 7.20516e-18
8489.41752 7.24890e-18
8490.27898 7.29262e-18
8491.14044 7.33800e-18
8492.00190 7.38338e-18
8492.87338 7.43461e-18
8493.73484 7.48585e-18
8494.59631 7.54180e-18
8495.45777 7.59774e-18
8496.31923 7.65901e-18
8497.18069 7.72029e-18
8498.04215 7.79373e-18
8498.90362 7.86720e-18
8499.76508 7.95539e-18
8500.62654 8.04361e-18
8501.48800 8.13478e-18
8502.35948 8.22596e-18
8503.22094 8.30859e-18
8504.08240 8.39121e-18
8504.94387 8.46295e-18
8505.80533 8.53460e-18
8506.66679 8.59496e-18
8507.52825 8.65524e-18
8508.38972 8.70841e-18
8509.25118 8.76159e-18
8510.11264 8.81331e-18
8510.98412 8.86511e-18
8511.84558 8.91764e-18
8512.70704 8.97017e-18
8513.56850 9.02464e-18
8514.42997 9.07902e-18
8515.29143 9.13519e-18
8516.15289 9.19135e-18
8517.01435 9.24856e-18
8517.87581 9.30577e-18
8518.73728 9.36403e-18
8519.59874 9.42220e-18
8520.46020 9.48167e-18
8521.33168 9.54106e-18
8522.19314 9.60432e-18
8523.05460 9.66750e-18
8523.91607 9.73940e-18
8524.77753 9.81138e-18
8525.63899 9.89360e-18
8526.50045 9.97582e-18
8527.36191 1.00654e-17
8528.22337 1.01549e-17
8529.08484 1.02470e-17
8529.94630 1.03392e-17
8530.80776 1.04262e-17
8531.67924 1.05133e-17
8532.54070 1.05891e-17
8533.40216 1.06648e-17
8534.26363 1.07268e-17
8535.12509 1.07889e-17
8535.98655 1.08378e-17
8536.84801 1.08869e-17
8537.70947 1.09323e-17
8538.57094 1.09778e-17
8539.43240 1.10296e-17
8540.30388 1.10816e-17
8541.16534 1.11466e-17
8542.02680 1.12117e-17
8542.88826 1.12938e-17
8543.74972 1.13761e-17
8544.61119 1.14699e-17
8545.47265 1.15637e-17
8546.33411 1.16607e-17
8547.19557 1.17575e-17
8548.05703 1.18425e-17
8548.91850 1.19275e-17
8549.78998 1.19842e-17
8550.65144 1.20409e-17
8551.51290 1.20709e-17
8552.37436 1.21007e-17
8553.23582 1.21162e-17
8554.09729 1.21317e-17
8554.95875 1.21496e-17
8555.82021 1.21675e-17
8556.68167 1.22075e-17
8557.54313 1.22476e-17
8558.40460 1.23188e-17
8559.27607 1.23901e-17
8560.13754 1.24870e-17
8560.99900 1.25839e-17
8561.86046 1.26959e-17
8562.72192 1.28079e-17
8563.58338 1.29177e-17
8564.44485 1.30275e-17
8565.30631 1.31191e-17
8566.16777 1.32107e-17
8567.02923 1.32737e-17
8567.89070 1.33367e-17
8568.75216 1.33661e-17
8569.62364 1.33954e-17
8570.48510 1.33995e-17
8571.34656 1.34035e-17
8572.20802 1.33942e-17
8573.06948 1.33849e-17
8573.93095 1.33754e-17
8574.79241 1.33660e-17
8575.65387 1.33691e-17
8576.51533 1.33723e-17
8577.37679 1.34015e-17
8578.23826 1.34307e-17
8579.09972 1.34959e-17
8579.97120 1.35612e-17
8580.83266 1.36498e-17
8581.69412 1.37384e-17
8582.55558 1.38294e-17
8583.41705 1.39203e-17
8584.27851 1.39966e-17
8585.13997 1.40729e-17
8586.00143 1.41207e-17
8586.86289 1.41684e-17
8587.72436 1.41858e-17
8588.58582 1.42031e-17
8589.45730 1.41978e-17
8590.31876 1.41923e-17
8591.18022 1.41762e-17
8592.04168 1.41601e-17
8592.90314 1.41492e-17
8593.76461 1.41384e-17
8594.62607 1.41420e-17
8595.48753 1.41454e-17
8596.34899 1.41597e-17
8597.21045 1.41739e-17
8598.07192 1.41967e-17
8598.94340 1.42195e-17
8599.80486 1.42531e-17
8600.66632 1.42867e-17
8601.52778 1.43302e-17
8602.38924 1.43736e-17
8603.25071 1.44199e-17
8604.11217 1.44663e-17
8604.97363 1.45079e-17
8605.83509 1.45496e-17
8606.69655 1.45764e-17
8607.56803 1.46032e-17
8608.42949 1.46069e-17
8609.29096 1.46106e-17
8610.15242 1.45934e-17
8611.01388 1.45762e-17
8611.87534 1.45441e-17
8612.73680 1.45119e-17
8613.59827 1.44714e-17
8614.45973 1.44308e-17
8615.32119 1.43888e-17
8616.18265 1.43469e-17
8617.04411 1.43166e-17
8617.91559 1.42863e-17
8618.77706 1.42821e-17
8619.63852 1.42779e-17
8620.49998 1.43006e-17
8621.36144 1.43233e-17
8622.22290 1.43650e-17
8623.08437 1.44069e-17
8623.94583 1.44566e-17
8624.80729 1.45064e-17
8625.66875 1.45500e-17
8626.53021 1.45937e-17
8627.40169 1.46228e-17
8628.26315 1.46519e-17
8629.12462 1.46662e-17
8629.98608 1.46806e-17
8630.84754 1.46799e-17
8631.70900 1.46791e-17
8632.57046 1.46614e-17
8633.43193 1.46436e-17
8634.29339 1.46112e-17
8635.15485 1.45788e-17
8636.01631 1.45420e-17
8636.88779 1.45052e-17
8637.74925 1.44745e-17
8638.61072 1.44439e-17
8639.47218 1.44317e-17
8640.33364 1.44195e-17
8641.19510 1.44341e-17
8642.05656 1.44487e-17
8642.91803 1.44830e-17
8643.77949 1.45174e-17
8644.64095 1.45608e-17
8645.50241 1.46041e-17
8646.37389 1.46452e-17
8647.23535 1.46862e-17
8648.09681 1.47138e-17
8648.95828 1.47414e-17
8649.81974 1.47513e-17
8650.68120 1.47612e-17
8651.54266 1.47536e-17
8652.40412 1.47460e-17
8653.26559 1.47196e-17
8654.12705 1.46933e-17
8654.98851 1.46475e-17
8655.85999 1.46017e-17
8656.72145 1.45443e-17
8657.58291 1.44869e-17
8658.44438 1.44318e-17
8659.30584 1.43767e-17
8660.16730 1.43333e-17
8661.02876 1.42900e-17
8661.89022 1.42625e-17
8662.75168 1.42351e-17
8663.61315 1.42257e-17
8664.47461 1.42165e-17
8665.33607 1.42246e-17
8666.20755 1.42328e-17
8667.06901 1.42545e-17
8667.93047 1.42764e-17
8668.79194 1.43051e-17
8669.65340 1.43338e-17
8670.51486 1.43601e-17
8671.37632 1.43864e-17
8672.23778 1.43945e-17
8673.09925 1.44026e-17
8673.96071 1.43808e-17
8674.82217 1.43590e-17
8675.68363 1.43108e-17
8676.55511 1.42625e-17
8677.41657 1.41957e-17
8678.27803 1.41287e-17
8679.13950 1.40564e-17
8680.00096 1.39839e-17
8680.86242 1.39202e-17
8681.72388 1.38567e-17
8682.58535 1.38075e-17
8683.44681 1.37585e-17
8684.30827 1.37259e-17
8685.16973 1.36933e-17
8686.04121 1.36791e-17
8686.90267 1.36651e-17
8687.76413 1.36697e-17
8688.62560 1.36744e-17
8689.48706 1.36941e-17
8690.34852 1.37139e-17
8691.20998 1.37430e-17
8692.07144 1.37721e-17
8692.93291 1.38007e-17
8693.79437 1.38291e-17
8694.66585 1.38446e-17
8695.52731 1.38600e-17
8696.38877 1.38546e-17
8697.25023 1.38492e-17
8698.11170 1.38218e-17
8698.97316 1.37943e-17
8699.83462 1.37477e-17
8700.69608 1.37012e-17
8701.55754 1.36456e-17
8702.41900 1.35900e-17
8703.28047 1.35339e-17
8704.15195 1.34777e-17
8705.01341 1.34213e-17
8705.87487 1.33650e-17
8706.73633 1.33107e-17
8707.59779 1.32565e-17
8708.45926 1.32156e-17
8709.32072 1.31749e-17
8710.18218 1.31564e-17
8711.04364 1.31379e-17
8711.90510 1.31421e-17
8712.76657 1.31465e-17
8713.62803 1.31702e-17
8714.49951 1.31939e-17
8715.36097 1.32198e-17
8716.22243 1.32457e-17
8717.08389 1.32541e-17
8717.94535 1.32625e-17
8718.80682 1.32454e-17
8719.66828 1.32282e-17
8720.52974 1.31826e-17
8721.39120 1.31369e-17
8722.25267 1.30740e-17
8723.11413 1.30110e-17
8723.98561 1.29503e-17
8724.84707 1.28896e-17
8725.70853 1.28383e-17
8726.56999 1.27870e-17
8727.43145 1.27431e-17
8728.29292 1.26993e-17
8729.15438 1.26630e-17
8730.01584 1.26267e-17
8730.87730 1.25989e-17
8731.73876 1.25711e-17
8732.61024 1.25545e-17
8733.47170 1.25378e-17
8734.33317 1.25399e-17
8735.19463 1.25422e-17
8736.05609 1.25609e-17
8736.91755 1.25796e-17
8737.77902 1.25928e-17
8738.64048 1.26059e-17
8739.50194 1.25948e-17
8740.36340 1.25837e-17
8741.22486 1.25380e-17
8742.08633 1.24923e-17
8742.95780 1.24094e-17
8743.81927 1.23264e-17
8744.68073 1.22302e-17
8745.54219 1.21340e-17
8746.40365 1.20505e-17
8747.26511 1.19670e-17
8748.12658 1.19082e-17
8748.98804 1.18496e-17
8749.84950 1.18230e-17
8750.71096 1.17965e-17
8751.57242 1.17944e-17
8752.44390 1.17925e-17
8753.30537 1.18007e-17
8754.16683 1.18090e-17
8755.02829 1.18197e-17
8755.88975 1.18303e-17
8756.75121 1.18383e-17
8757.61268 1.18462e-17
8758.47414 1.18398e-17
8759.33560 1.18333e-17
8760.19706 1.17986e-17
8761.05852 1.17639e-17
8761.91999 1.16986e-17
8762.79146 1.16332e-17
8763.65293 1.15449e-17
8764.51439 1.14564e-17
8765.37585 1.13573e-17
8766.23731 1.12582e-17
8767.09877 1.11659e-17
8767.96024 1.10737e-17
8768.82170 1.09996e-17
8769.68316 1.09257e-17
8770.54462 1.08685e-17
8771.40608 1.08114e-17
8772.26755 1.07685e-17
8773.13903 1.07258e-17
8774.00049 1.06953e-17
8774.86195 1.06648e-17
8775.72341 1.06427e-17
8776.58487 1.06205e-17
8777.44633 1.06031e-17
8778.30780 1.05858e-17
8779.16926 1.05680e-17
8780.03072 1.05503e-17
8780.89218 1.05168e-17
8781.76366 1.04832e-17
8782.62512 1.04201e-17
8783.48659 1.03568e-17
8784.34805 1.02707e-17
8785.20951 1.01847e-17
8786.07097 1.00879e-17
8786.93243 9.99116e-18
8787.79390 9.89304e-18
8788.65536 9.79491e-18
8789.51682 9.70446e-18
8790.37828 9.61401e-18
8791.24976 9.53097e-18
8792.11122 9.44794e-18
8792.97268 9.36588e-18
8793.83415 9.28374e-18
8794.69561 9.20676e-18
8795.55707 9.12986e-18
8796.41853 9.06983e-18
8797.28000 9.00995e-18
8798.14146 8.96452e-18
8799.00292 8.91918e-18
8799.86438 8.87254e-18
8800.72584 8.82590e-18
8801.59732 8.76514e-18
8802.45878 8.70438e-18
8803.32025 8.62078e-18
8804.18171 8.53718e-18
8805.04317 8.42962e-18
8805.90463 8.32206e-18
8806.76609 8.20603e-18
8807.62756 8.08991e-18
8808.48902 7.97951e-18
8809.35048 7.86915e-18
8810.21194 7.77122e-18
8811.08342 7.67332e-18
8811.94488 7.59240e-18
8812.80635 7.51153e-18
8813.66781 7.44585e-18
8814.52927 7.38021e-18
8815.39073 7.32546e-18
8816.25219 7.27074e-18
8817.11365 7.22156e-18
8817.97512 7.17239e-18
8818.83658 7.12278e-18
8819.70806 7.07317e-18
8820.56952 7.01586e-18
8821.43098 6.95853e-18
8822.29244 6.88721e-18
8823.15391 6.81585e-18
8824.01537 6.72973e-18
8824.87683 6.64358e-18
8825.73829 6.54493e-18
8826.59975 6.44626e-18
8827.46122 6.34417e-18
8828.32268 6.24208e-18
8829.19416 6.14965e-18
8830.05562 6.05725e-18
8830.91708 5.98115e-18
8831.77854 5.90509e-18
8832.64000 5.84578e-18
8833.50147 5.78652e-18
8834.36293 5.74189e-18
8835.22439 5.69730e-18
8836.08585 5.66213e-18
8836.94732 5.62698e-18
8837.80878 5.59514e-18
8838.67024 5.56330e-18
8839.54172 5.52852e-18
8840.40318 5.49373e-18
8841.26464 5.45138e-18
8842.12610 5.40901e-18
8842.98757 5.35847e-18
8843.84903 5.30791e-18
8844.71049 5.25016e-18
8845.57195 5.19239e-18
8846.43341 5.13081e-18
8847.29488 5.06922e-18
8848.15634 5.00813e-18
8849.02782 4.94705e-18
8849.88928 4.88878e-18
8850.75074 4.83053e-18
8851.61220 4.77728e-18
8852.47367 4.72406e-18
8853.33513 4.68715e-18
8854.19659 4.65028e-18
8855.05805 4.64096e-18
8855.91951 4.63171e-18
8856.78097 4.64105e-18
8857.64244 4.65043e-18
8858.50390 4.66265e-18
8859.36536 4.67486e-18
8860.23684 4.67695e-18
8861.09830 4.67899e-18
8861.95976 4.65919e-18
8862.82123 4.63931e-18
8863.68269 4.60203e-18
8864.54415 4.56470e-18
8865.40561 4.52710e-18
8866.26707 4.48950e-18
8867.12854 4.45955e-18
8867.99000 4.42962e-18
8868.86148 4.40531e-18
8869.72294 4.38100e-18
8870.58440 4.36145e-18
8871.44586 4.34191e-18
8872.30732 4.32636e-18
8873.16879 4.31083e-18
8874.03025 4.30013e-18
8874.89171 4.28945e-18
8875.75317 4.29021e-18
8876.61463 4.29100e-18
8877.47610 4.30587e-18
8878.34758 4.32078e-18
8879.20904 4.34155e-18
8880.07050 4.36232e-18
8880.93196 4.38035e-18
8881.79342 4.39837e-18
8882.65489 4.40564e-18
8883.51635 4.41288e-18
8884.37781 4.40355e-18
8885.23927 4.39418e-18
8886.10073 4.37364e-18
8886.96220 4.35308e-18
8887.83367 4.32980e-18
8888.69514 4.30650e-18
8889.55660 4.28826e-18
8890.41806 4.27004e-18
8891.27952 4.26393e-18
8892.14099 4.25786e-18
8893.00245 4.26788e-18
8893.86391 4.27795e-18
8894.72537 4.30569e-18
8895.58683 4.33348e-18
8896.44830 4.37240e-18
8897.30976 4.41136e-18
8898.18124 4.45033e-18
8899.04270 4.48930e-18
8899.90416 4.51879e-18
8900.76562 4.54825e-18
8901.62708 4.56032e-18
8902.48855 4.57235e-18
8903.35001 4.56822e-18
8904.21147 4.56406e-18
8905.07293 4.55693e-18
8905.93439 4.54980e-18
8906.80587 4.54834e-18
8907.66734 4.54689e-18
8908.52880 4.55022e-18
8909.39026 4.55357e-18
8910.25172 4.56172e-18
8911.11318 4.56988e-18
8911.97465 4.58446e-18
8912.83611 4.59905e-18
8913.69757 4.62071e-18
8914.55903 4.64240e-18
8915.42049 4.67270e-18
8916.29197 4.70302e-18
8917.15343 4.74158e-18
8918.01490 4.78016e-18
8918.87636 4.81707e-18
8919.73782 4.85397e-18
8920.59928 4.87929e-18
8921.46074 4.90457e-18
8922.32221 4.91549e-18
8923.18367 4.92638e-18
8924.04513 4.92260e-18
8924.90659 4.91878e-18
8925.76805 4.91201e-18
8926.63953 4.90522e-18
8927.50100 4.91140e-18
8928.36246 4.91761e-18
8929.22392 4.93737e-18
8930.08538 4.95715e-18
8930.94684 4.98326e-18
8931.80831 5.00938e-18
8932.66977 5.03661e-18
8933.53123 5.06383e-18
8934.39269 5.08713e-18
8935.25415 5.11041e-18
8936.12563 5.13216e-18
8936.98709 5.15389e-18
8937.84856 5.18549e-18
8938.71002 5.21712e-18
8939.57148 5.25910e-18
8940.43294 5.30110e-18
8941.29440 5.33797e-18
8942.15587 5.37484e-18
8943.01733 5.39526e-18
8943.87879 5.41564e-18
8944.74025 5.41452e-18
8945.61173 5.41333e-18
8946.47319 5.39250e-18
8947.33466 5.37161e-18
8948.19612 5.35494e-18
8949.05758 5.33829e-18
8949.91904 5.34518e-18
8950.78050 5.35213e-18
8951.64197 5.37656e-18
8952.50343 5.40103e-18
8953.36489 5.43323e-18
8954.22635 5.46546e-18
8955.08781 5.48005e-18
8955.95929 5.49459e-18
8956.82075 5.46659e-18
8957.68222 5.43848e-18
8958.54368 5.39896e-18
8959.40514 5.35941e-18
8960.26660 5.35414e-18
8961.12806 5.34897e-18
8961.98953 5.38449e-18
8962.85099 5.42013e-18
8963.71245 5.48777e-18
8964.57391 5.55550e-18
8965.44539 5.63334e-18
8966.30685 5.71121e-18
8967.16832 5.76607e-18
8968.02978 5.82088e-18
8968.89124 5.85641e-18
8969.75270 5.89188e-18
8970.61416 5.94433e-18
8971.47563 5.99683e-18
8972.33709 6.07877e-18
8973.19855 6.16080e-18
8974.06001 6.25670e-18
8974.93149 6.35262e-18
8975.79295 6.43999e-18
8976.65441 6.52732e-18
8977.51588 6.57174e-18
8978.37734 6.61605e-18
8979.23880 6.59074e-18
8980.10026 6.56524e-18
8980.96172 6.45296e-18
8981.82319 6.34045e-18
8982.68465 6.15227e-18
8983.54611 5.96389e-18
8984.41759 5.80103e-18
8985.27905 5.63823e-18
8986.14051 5.59405e-18
8987.00198 5.55019e-18
8987.86344 5.65672e-18
8988.72490 5.76365e-18
8989.58636 6.02570e-18
8990.44782 6.28817e-18
8991.30928 6.58068e-18
8992.17075 6.87326e-18
8993.03221 7.04568e-18
8993.89367 7.21776e-18
8994.76515 7.24749e-18
8995.62661 7.27685e-18
8996.48807 7.19143e-18
8997.34954 7.10570e-18
8998.21100 6.97247e-18
8999.07246 6.83912e-18
8999.93392 6.74998e-18
9000.79538 6.66094e-18
9001.65685 6.65593e-18
9002.51831 6.65115e-18
9003.38979 6.72781e-18
9004.25125 6.80468e-18
9005.11271 6.93628e-18
9005.97417 7.06801e-18
9006.83563 7.20215e-18
9007.69710 7.33629e-18
9008.55856 7.43213e-18
9009.42002 7.52786e-18
9010.28148 7.56645e-18
9011.14295 7.60487e-18
9012.00441 7.58706e-18
9012.87589 7.56909e-18
9013.73735 7.53989e-18
9014.59881 7.51067e-18
9015.46027 7.50348e-18
9016.32173 7.49634e-18
9017.18320 7.49077e-18
9018.04466 7.48520e-18
9018.90612 7.46605e-18
9019.76758 7.44687e-18
9020.62904 7.43171e-18
9021.49051 7.41655e-18
9022.35197 7.42359e-18
9023.22345 7.43069e-18
9024.08491 7.48288e-18
9024.94637 7.53518e-18
9025.80783 7.65082e-18
9026.66930 7.76663e-18
9027.53076 7.91793e-18
9028.39222 8.06934e-18
9029.25368 8.21426e-18
9030.11514 8.35910e-18
9030.97660 8.46844e-18
9031.83807 8.57761e-18
9032.70955 8.62966e-18
9033.57101 8.68154e-18
9034.43247 8.67436e-18
9035.29393 8.66702e-18
9036.15539 8.61166e-18
9037.01686 8.55615e-18
9037.87832 8.48102e-18
9038.73978 8.40582e-18
9039.60124 8.35458e-18
9040.46270 8.30350e-18
9041.32417 8.28785e-18
9042.18563 8.27228e-18
9043.05711 8.26025e-18
9043.91857 8.24815e-18
9044.78003 8.22289e-18
9045.64149 8.19756e-18
9046.50295 8.16915e-18
9047.36442 8.14075e-18
9048.22588 8.11800e-18
9049.08734 8.09524e-18
9049.94880 8.09217e-18
9050.81027 8.08903e-18
9051.67173 8.10936e-18
9052.54321 8.12978e-18
9053.40467 8.13195e-18
9054.26613 8.13397e-18
9055.12759 8.08152e-18
9055.98905 8.02895e-18
9056.85052 7.94133e-18
9057.71198 7.85361e-18
9058.57344 7.75721e-18
9059.43490 7.66079e-18
9060.29636 7.55889e-18
9061.16784 7.45697e-18
9062.02931 7.35087e-18
9062.89077 7.24475e-18
9063.75223 7.13059e-18
9064.61369 7.01640e-18
9065.47515 6.88567e-18
9066.33662 6.75490e-18
9067.19808 6.64090e-18
9068.05954 6.52695e-18
9068.92100 6.48495e-18
9069.78246 6.44314e-18
9070.64393 6.46092e-18
9071.51540 6.47886e-18
9072.37687 6.49453e-18
9073.23833 6.51020e-18
9074.09979 6.50094e-18
9074.96125 6.49161e-18
9075.82271 6.47468e-18
9076.68418 6.45773e-18
9077.54564 6.44396e-18
9078.40710 6.43019e-18
9079.26856 6.42581e-18
9080.13002 6.42145e-18
9080.99149 6.42622e-18
9081.86297 6.43101e-18
9082.72443 6.42347e-18
9083.58589 6.41589e-18
9084.44735 6.38406e-18
9085.30881 6.35217e-18
9086.17028 6.31969e-18
9087.03174 6.28721e-18
9087.89320 6.27228e-18
9088.75466 6.25739e-18
9089.61612 6.23678e-18
9090.48760 6.21615e-18
9091.34906 6.16758e-18
9092.21053 6.11922e-18
9093.07199 6.06568e-18
9093.93345 6.01213e-18
9094.79491 5.98173e-18
9095.65637 5.95141e-18
9096.51784 5.93619e-18
9097.37930 5.92102e-18
9098.24076 5.90421e-18
9099.10222 5.88739e-18
9099.97370 5.87333e-18
9100.83516 5.85927e-18
9101.69663 5.85693e-18
9102.55809 5.85462e-18
9103.41955 5.88120e-18
9104.28101 5.90786e-18
9105.14247 5.98798e-18
9106.00393 6.06825e-18
9106.86540 6.17271e-18
9107.72686 6.27724e-18
9108.58832 6.33117e-18
9109.45980 6.38495e-18
9110.32126 6.35641e-18
9111.18272 6.32766e-18
9112.04419 6.23525e-18
9112.90565 6.14266e-18
9113.76711 6.02456e-18
9114.62857 5.90639e-18
9115.49003 5.84097e-18
9116.35150 5.77569e-18
9117.21296 5.80378e-18
9118.07442 5.83213e-18
9118.93588 5.89326e-18
9119.80736 5.95450e-18
9120.66882 5.98966e-18
9121.53028 6.02474e-18
9122.39175 5.99611e-18
9123.25321 5.96729e-18
9124.11467 5.85215e-18
9124.97613 5.73678e-18
9125.83760 5.58839e-18
9126.69906 5.43992e-18
9127.56052 5.32310e-18
9128.43200 5.20637e-18
9129.29346 5.15461e-18
9130.15492 5.10303e-18
9131.01638 5.13790e-18
9131.87785 5.17301e-18
9132.73931 5.27996e-18
9133.60077 5.38712e-18
9134.46223 5.53329e-18
9135.32369 5.67955e-18
9136.18516 5.83068e-18
9137.04662 5.98183e-18
9137.90808 6.10262e-18
9138.76954 6.22331e-18
9139.64102 6.29102e-18
9140.50248 6.35858e-18
9141.36395 6.36552e-18
9142.22541 6.37231e-18
9143.08687 6.30699e-18
9143.94833 6.24148e-18
9144.80979 6.08733e-18
9145.67125 5.93296e-18
9146.53272 5.70997e-18
9147.39418 5.48679e-18
9148.26566 5.26231e-18
9149.12712 5.03783e-18
9149.98858 4.87297e-18
9150.85004 4.70827e-18
9151.71151 4.65247e-18
9152.57297 4.59698e-18
9153.43443 4.66954e-18
9154.29589 4.74244e-18
9155.15735 4.87994e-18
9156.01882 5.01761e-18
9156.88028 5.15304e-18
9157.75176 5.28846e-18
9158.61322 5.39050e-18
9159.47468 5.49245e-18
9160.33614 5.53690e-18
9161.19760 5.58118e-18
9162.05907 5.56965e-18
9162.92053 5.55796e-18
9163.78199 5.50360e-18
9164.64345 5.44913e-18
9165.50492 5.35012e-18
9166.36638 5.25098e-18
9167.22784 5.10498e-18
9168.09932 4.95886e-18
9168.96078 4.80209e-18
9169.82224 4.64530e-18
9170.68370 4.52680e-18
9171.54517 4.40842e-18
9172.40663 4.35270e-18
9173.26809 4.29716e-18
9174.12955 4.31488e-18
9174.99101 4.33281e-18
9175.85248 4.39385e-18
9176.71394 4.45500e-18
9177.58542 4.49084e-18
9178.44688 4.52661e-18
9179.30834 4.51733e-18
9180.16980 4.50793e-18
9181.03127 4.49848e-18
9181.89273 4.48904e-18
9182.75419 4.50416e-18
9183.61565 4.51936e-18
9184.47711 4.55023e-18
9185.33857 4.58114e-18
9186.20004 4.61711e-18
9187.07152 4.65309e-18
9187.93298 4.66837e-18
9188.79444 4.68359e-18
9189.65590 4.66384e-18
9190.51736 4.64399e-18
9191.37883 4.62910e-18
9192.24029 4.61422e-18
9193.10175 4.63969e-18
9193.96321 4.66526e-18
9194.82467 4.71530e-18
9195.68614 4.76539e-18
9196.55762 4.81748e-18
9197.41908 4.86956e-18
9198.28054 4.90334e-18
9199.14200 4.93707e-18
9200.00346 4.93298e-18
9200.86492 4.92879e-18
9201.72639 4.90125e-18
9202.58785 4.87364e-18
9203.44931 4.85100e-18
9204.31077 4.82837e-18
9205.17224 4.81145e-18
9206.04371 4.79454e-18
9206.90518 4.77089e-18
9207.76664 4.74721e-18
9208.62810 4.72078e-18
9209.48956 4.69435e-18
9210.35102 4.67847e-18
9211.21249 4.66261e-18
9212.07395 4.67065e-18
9212.93541 4.67876e-18
9213.79687 4.72605e-18
9214.65833 4.77344e-18
9215.52981 4.85690e-18
9216.39127 4.94047e-18
9217.25274 5.02841e-18
9218.11420 5.11636e-18
9218.97566 5.18817e-18
9219.83712 5.25993e-18
9220.69859 5.32218e-18
9221.56005 5.38441e-18
9222.42151 5.44081e-18
9223.28297 5.49718e-18
9224.14443 5.54144e-18
9225.00590 5.58567e-18
9225.87737 5.61340e-18
9226.73884 5.64108e-18
9227.60030 5.64767e-18
9228.46176 5.65421e-18
9229.32322 5.63789e-18
9230.18468 5.62153e-18
9231.04615 5.60091e-18
9231.90761 5.58027e-18
9232.76907 5.57682e-18
9233.63053 5.57341e-18
9234.49199 5.58240e-18
9235.35346 5.59142e-18
9236.22494 5.60078e-18
9237.08640 5.61013e-18
9237.94786 5.62535e-18
9238.80932 5.64058e-18
9239.67078 5.67303e-18
9240.53225 5.70551e-18
9241.39371 5.76062e-18
9242.25517 5.81580e-18
9243.11663 5.89580e-18
9243.97809 5.97587e-18
9244.84957 6.07379e-18
9245.71103 6.17175e-18
9246.57250 6.27169e-18
9247.43396 6.37163e-18
9248.29542 6.46452e-18
9249.15688 6.55738e-18
9250.01834 6.64507e-18
9250.87981 6.73276e-18
9251.74127 6.81084e-18
9252.60273 6.88889e-18
9253.46419 6.93865e-18
9254.32565 6.98832e-18
9255.19713 7.00669e-18
9256.05860 7.02496e-18
9256.92006 7.04831e-18
9257.78152 7.07168e-18
9258.64298 7.12739e-18
9259.50444 7.18319e-18
9260.36591 7.26299e-18
9261.22737 7.34286e-18
9262.08883 7.43204e-18
9262.95029 7.52124e-18
9263.81175 7.58760e-18
9264.68323 7.65389e-18
9265.54469 7.66661e-18
9266.40616 7.67919e-18
9267.26762 7.63915e-18
9268.12908 7.59897e-18
9268.99054 7.51885e-18
9269.85200 7.43863e-18
9270.71347 7.34826e-18
9271.57493 7.25787e-18
9272.43639 7.19281e-18
9273.29785 7.12782e-18
9274.16933 7.11613e-18
9275.03079 7.10458e-18
9275.89226 7.16679e-18
9276.75372 7.22922e-18
9277.61518 7.35487e-18
9278.47664 7.48070e-18
9279.33810 7.63519e-18
9280.19957 7.78975e-18
9281.06103 7.93573e-18
9281.92249 8.08168e-18
9282.79397 8.18311e-18
9283.65543 8.28446e-18
9284.51689 8.31270e-18
9285.37835 8.34070e-18
9286.23982 8.27873e-18
9287.10128 8.21652e-18
9287.96274 8.07184e-18
9288.82420 7.92685e-18
9289.68566 7.74530e-18
9290.54713 7.56366e-18
9291.40859 7.39860e-18
9292.27005 7.23360e-18
9293.14153 7.15527e-18
9294.00299 7.07718e-18
9294.86445 7.13143e-18
9295.72592 7.18605e-18
9296.58738 7.32563e-18
9297.44884 7.46546e-18
9298.31030 7.62770e-18
9299.17176 7.78999e-18
9300.03323 7.88941e-18
9300.89469 7.98866e-18
9301.75615 7.94332e-18
9302.62763 7.89756e-18
9303.48909 7.78615e-18
9304.35055 7.67457e-18
9305.21201 7.62585e-18
9306.07348 7.57731e-18
9306.93494 7.56127e-18
9307.79640 7.54531e-18
9308.65786 7.46855e-18
9309.51932 7.39161e-18
9310.38079 7.25845e-18
9311.24225 7.12515e-18
9312.11373 6.99072e-18
9312.97519 6.85630e-18
9313.83665 6.77464e-18
9314.69811 6.69312e-18
9315.55958 6.72566e-18
9316.42104 6.75854e-18
9317.28250 6.89333e-18
9318.14396 7.02842e-18
9319.00542 7.14731e-18
9319.86688 7.26614e-18
9320.72835 7.32275e-18
9321.58981 7.37918e-18
9322.46129 7.48239e-18
9323.32275 7.58574e-18
9324.18421 7.75939e-18
9325.04567 7.93323e-18
9325.90714 7.95464e-18
9326.76860 7.97562e-18
9327.63006 7.70753e-18
9328.49152 7.43861e-18
9329.35298 7.09653e-18
9330.21445 6.75424e-18
9331.07591 6.54684e-18
9331.94739 6.33983e-18
9332.80885 6.22687e-18
9333.67031 6.11420e-18
9334.53177 6.03541e-18
9335.39323 5.95672e-18
9336.25470 5.91346e-18
9337.11616 5.87031e-18
9337.97762 5.85224e-18
9338.83908 5.83426e-18
9339.70055 6.02513e-18
9340.56201 6.21659e-18
9341.43349 6.86527e-18
9342.29495 7.51523e-18
9343.15641 8.30294e-18
9344.01787 9.09097e-18
9344.87933 9.43124e-18
9345.74080 9.77014e-18
9346.60226 9.48805e-18
9347.46372 9.20410e-18
9348.32518 8.39945e-18
9349.18664 7.59335e-18
9350.04811 6.63621e-18
9350.90957 5.67866e-18
9351.78105 5.25146e-18
9352.64251 4.82579e-18
9353.50397 5.15243e-18
9354.36543 5.48122e-18
9355.22689 6.06803e-18
9356.08836 6.65555e-18
9356.94982 7.08744e-18
9357.81128 7.51887e-18
9358.67274 7.54825e-18
9359.53420 7.57649e-18
9360.39567 7.09631e-18
9361.26715 6.61469e-18
9362.12861 6.01388e-18
9362.99007 5.41275e-18
9363.85153 5.05839e-18
9364.71299 4.70474e-18
9365.57446 4.61797e-18
9366.43592 4.53197e-18
9367.29738 4.67741e-18
9368.15884 4.82351e-18
9369.02030 5.01882e-18
9369.89178 5.21425e-18
9370.75324 5.25055e-18
9371.61471 5.28640e-18
9372.47617 5.17650e-18
9373.33763 5.06620e-18
9374.19909 4.88815e-18
9375.06056 4.70992e-18
9375.92202 4.58305e-18
9376.78348 4.45632e-18
9377.64494 4.52639e-18
9378.50640 4.59702e-18
9379.37788 4.80875e-18
9380.23934 5.02089e-18
9381.10081 5.18661e-18
9381.96227 5.35218e-18
9382.82373 5.41207e-18
9383.68519 5.47166e-18
9384.54665 5.47971e-18
9385.40812 5.48760e-18
9386.26958 5.45873e-18
9387.13104 5.42974e-18
9387.99250 5.33868e-18
9388.85396 5.24742e-18
9389.72544 5.09273e-18
9390.58691 4.93785e-18
9391.44837 4.74288e-18
9392.30983 4.54779e-18
9393.17129 4.34451e-18
9394.03275 4.14122e-18
9394.89422 3.98642e-18
9395.75568 3.83176e-18
9396.61714 3.76385e-18
9397.47860 3.69619e-18
9398.34006 3.68669e-18
9399.21154 3.67736e-18
9400.07300 3.69048e-18
9400.93447 3.70367e-18
9401.79593 3.70500e-18
9402.65739 3.70629e-18
9403.51885 3.66572e-18
9404.38031 3.62503e-18
9405.24178 3.57638e-18
9406.10324 3.52773e-18
9406.96470 3.51855e-18
9407.82616 3.50947e-18
9408.69764 3.54025e-18
9409.55910 3.57116e-18
9410.42057 3.62539e-18
9411.28203 3.67969e-18
9412.14349 3.73171e-18
9413.00495 3.78372e-18
9413.86641 3.80309e-18
9414.72788 3.82236e-18
9415.58934 3.78880e-18
9416.45080 3.75508e-18
9417.31226 3.66232e-18
9418.17372 3.56938e-18
9419.04520 3.42390e-18
9419.90666 3.27827e-18
9420.76813 3.08979e-18
9421.62959 2.90120e-18
9422.49105 2.73717e-18
9423.35251 2.57323e-18
9424.21397 2.59465e-18
9425.07544 2.61661e-18
9425.93690 2.87517e-18
9426.79836 3.13441e-18
9427.65982 3.46132e-18
9428.53130 3.78841e-18
9429.39276 4.02094e-18
9430.25423 4.25320e-18
9431.11569 4.24071e-18
9431.97715 4.22753e-18
9432.83861 3.89373e-18
9433.70007 3.55900e-18
9434.56153 3.16856e-18
9435.42300 2.77796e-18
9436.28446 2.60773e-18
9437.14592 2.43815e-18
9438.01740 2.53175e-18
9438.87886 2.62612e-18
9439.74032 2.96563e-18
9440.60179 3.30584e-18
9441.46325 3.71882e-18
9442.32471 4.13201e-18
9443.18617 4.39654e-18
9444.04763 4.66063e-18
9444.90910 4.71322e-18
9445.77056 4.76520e-18
9446.63202 4.61971e-18
9447.49348 4.47365e-18
9448.36496 4.20862e-18
9449.22642 3.94326e-18
9450.08788 3.68505e-18
9450.94935 3.42686e-18
9451.81081 3.25780e-18
9452.67227 3.08900e-18
9453.53373 3.04118e-18
9454.39520 2.99371e-18
9455.25666 3.07513e-18
9456.11812 3.15694e-18
9456.98960 3.34786e-18
9457.85106 3.53909e-18
9458.71252 3.78235e-18
9459.57398 4.02574e-18
9460.43545 4.20598e-18
9461.29691 4.38603e-18
9462.15837 4.43374e-18
9463.01983 4.48108e-18
9463.88129 4.45057e-18
9464.74276 4.41984e-18
9465.60422 4.36788e-18
9466.47570 4.31587e-18
9467.33716 4.27734e-18
9468.19862 4.23885e-18
9469.06008 4.24176e-18
9469.92155 4.24480e-18
9470.78301 4.24619e-18
9471.64447 4.24758e-18
9472.50593 4.20169e-18
9473.36739 4.15567e-18
9474.22885 4.09115e-18
9475.09032 4.02658e-18
9475.96180 3.98241e-18
9476.82326 3.93828e-18
9477.68472 3.99524e-18
9478.54618 4.05249e-18
9479.40764 4.30168e-18
9480.26911 4.55142e-18
9481.13057 4.89392e-18
9481.99203 5.23667e-18
9482.85349 5.48110e-18
9483.71495 5.72523e-18
9484.57642 5.77074e-18
9485.43788 5.81565e-18
9486.30936 5.62690e-18
9487.17082 5.43747e-18
9488.03228 5.09133e-18
9488.89374 4.74475e-18
9489.75520 4.44364e-18
9490.61667 4.14267e-18
9491.47813 4.01603e-18
9492.33959 3.88990e-18
9493.20105 3.93535e-18
9494.06252 3.98130e-18
9494.92398 4.19820e-18
9495.79546 4.41559e-18
9496.65692 4.83156e-18
9497.51838 5.24810e-18
9498.37984 5.81930e-18
9499.24130 6.39093e-18
9500.10277 6.89384e-18
9500.96423 7.39654e-18
9501.82569 7.63783e-18
9502.68715 7.87835e-18
9503.54861 7.82746e-18
9504.41008 7.77571e-18
9505.28155 7.45238e-18
9506.14302 7.12825e-18
9507.00448 6.70042e-18
9507.86594 6.27229e-18
9508.72740 5.93973e-18
9509.58887 5.60747e-18
9510.45033 5.38976e-18
9511.31179 5.17240e-18
9512.17325 5.03006e-18
9513.03471 4.88795e-18
9513.89617 4.85986e-18
9514.75764 4.83211e-18
9515.62912 4.97389e-18
9516.49058 5.11616e-18
9517.35204 5.41159e-18
9518.21350 5.70746e-18
9519.07496 6.10198e-18
9519.93643 6.49679e-18
9520.79789 6.89437e-18
9521.65935 7.29196e-18
9522.52081 7.56032e-18
9523.38227 7.82831e-18
9524.24374 7.92289e-18
9525.11522 8.01697e-18
9525.97668 8.00729e-18
9526.83814 7.99731e-18
9527.69960 7.94745e-18
9528.56106 7.89747e-18
9529.42252 7.85807e-18
9530.28399 7.81871e-18
9531.14545 7.81816e-18
9532.00691 7.81774e-18
9532.86837 7.81107e-18
9533.72984 7.80439e-18
9534.60131 7.75364e-18
9535.46278 7.70274e-18
9536.32424 7.59639e-18
9537.18570 7.48988e-18
9538.04716 7.33404e-18
9538.90862 7.17806e-18
9539.77009 7.11495e-18
9540.63155 7.05212e-18
9541.49301 7.21598e-18
9542.35447 7.38050e-18
9543.21593 7.67516e-18
9544.08741 7.97019e-18
9544.94888 8.25251e-18
9545.81034 8.53476e-18
9546.67180 8.66508e-18
9547.53326 8.79491e-18
9548.39472 8.62998e-18
9549.25619 8.46424e-18
9550.11765 8.17020e-18
9550.97911 7.87580e-18
9551.84057 7.78710e-18
9552.70203 7.69900e-18
9553.57351 7.83835e-18
9554.43497 7.97837e-18
9555.29644 8.14809e-18
9556.15790 8.31787e-18
9557.01936 8.38476e-18
9557.88082 8.45133e-18
9558.74228 8.32666e-18
9559.60375 8.20151e-18
9560.46521 7.94032e-18
9561.32667 7.67879e-18
9562.18813 7.58303e-18
9563.05961 7.48777e-18
9563.92107 7.71321e-18
9564.78254 7.93959e-18
9565.64400 8.32586e-18
9566.50546 8.71261e-18
9567.36692 9.08717e-18
9568.22838 9.46166e-18
9569.08985 9.61861e-18
9569.95131 9.77498e-18
9570.81277 9.57261e-18
9571.67423 9.36919e-18
9572.53569 8.98583e-18
9573.40717 8.60198e-18
9574.26863 8.24952e-18
9575.13010 7.89722e-18
9575.99156 7.71735e-18
9576.85302 7.53800e-18
9577.71448 7.64257e-18
9578.57594 7.74799e-18
9579.43741 7.96118e-18
9580.29887 8.17464e-18
9581.16033 8.23960e-18
9582.02179 8.30415e-18
9582.89327 8.18691e-18
9583.75473 8.06918e-18
9584.61620 7.82013e-18
9585.47766 7.57067e-18
9586.33912 7.36941e-18
9587.20058 7.16829e-18
9588.06204 7.28827e-18
9588.92351 7.40921e-18
9589.78497 7.81623e-18
9590.64643 8.22410e-18
9591.51791 8.60440e-18
9592.37937 8.98470e-18
9593.24083 9.16916e-18
9594.10229 9.35313e-18
9594.96376 9.35797e-18
9595.82522 9.36233e-18
9596.68668 9.22161e-18
9597.54814 9.08048e-18
9598.40960 8.87350e-18
9599.27107 8.66645e-18
9600.13253 8.48086e-18
9600.99399 8.29527e-18
9601.86547 8.20030e-18
9602.72693 8.10557e-18
9603.58839 8.14640e-18
9604.44986 8.18771e-18
9605.31132 8.35684e-18
9606.17278 8.52637e-18
9607.03424 8.78571e-18
9607.89570 9.04522e-18
9608.75717 9.22984e-18
9609.61863 9.41421e-18
9610.48009 9.36515e-18
9611.35157 9.31537e-18
9612.21303 9.10000e-18
9613.07449 8.88424e-18
9613.93595 8.62974e-18
9614.79742 8.37508e-18
9615.65888 8.16980e-18
9616.52034 7.96463e-18
9617.38180 7.88224e-18
9618.24326 7.80023e-18
9619.10473 7.85970e-18
9619.96619 7.91958e-18
9620.82765 8.10040e-18
9621.69913 8.28164e-18
9622.56059 8.51863e-18
9623.42205 8.75578e-18
9624.28352 8.95815e-18
9625.14498 9.16044e-18
9626.00644 9.24170e-18
9626.86790 9.32255e-18
9627.72936 9.20159e-18
9628.59083 9.08007e-18
9629.45229 8.78071e-18
9630.31375 8.48086e-18
9631.17521 8.18029e-18
9632.04669 7.87967e-18
9632.90815 7.71536e-18
9633.76961 7.55146e-18
9634.63108 7.57696e-18
9635.49254 7.60303e-18
9636.35400 7.81268e-18
9637.21546 8.02288e-18
9638.07692 8.21781e-18
9638.93839 8.41268e-18
9639.79985 8.42849e-18
9640.67133 8.44374e-18
9641.53279 8.38307e-18
9642.39425 8.32214e-18
9643.25571 8.30488e-18
9644.11718 8.28777e-18
9644.97864 8.34288e-18
9645.84010 8.39832e-18
9646.70156 8.53759e-18
9647.56302 8.67710e-18
9648.42448 8.80750e-18
9649.28595 8.93782e-18
9650.15743 8.93814e-18
9651.01889 8.93798e-18
9651.88035 8.80774e-18
9652.74181 8.67710e-18
9653.60327 8.47070e-18
9654.46474 8.26397e-18
9655.32620 8.05599e-18
9656.18766 7.84799e-18
9657.04912 7.72462e-18
9657.91058 7.60151e-18
9658.77205 7.61088e-18
9659.64352 7.62066e-18
9660.50499 7.77456e-18
9661.36645 7.92890e-18
9662.22791 8.17859e-18
9663.08937 8.42857e-18
9663.95083 8.64684e-18
9664.81230 8.86503e-18
9665.67376 8.97824e-18
9666.53522 9.09121e-18
9667.39668 9.13833e-18
9668.25815 9.18529e-18
9669.11961 9.18868e-18
9669.99109 9.19191e-18
9670.85255 9.11388e-18
9671.71401 9.03553e-18
9672.57547 8.86576e-18
9673.43693 8.69566e-18
9674.29840 8.50354e-18
9675.15986 8.31125e-18
9676.02132 8.16601e-18
9676.88278 8.02093e-18
9677.74424 7.97094e-18
9678.61572 7.92122e-18
9679.47718 7.99849e-18
9680.33865 8.07612e-18
9681.20011 8.21700e-18
9682.06157 8.35797e-18
9682.92303 8.47376e-18
9683.78449 8.58947e-18
9684.64596 8.65394e-18
9685.50742 8.71817e-18
9686.36888 8.72770e-18
9687.23034 8.73706e-18
9688.10182 8.70083e-18
9688.96328 8.66452e-18
9689.82475 8.60497e-18
9690.68621 8.54533e-18
9691.54767 8.46650e-18
9692.40913 8.38758e-18
9693.27059 8.27760e-18
9694.13206 8.16746e-18
9694.99352 8.04253e-18
9695.85498 7.91754e-18
9696.71644 7.82205e-18
9697.57790 7.72665e-18
9698.44938 7.68266e-18
9699.31084 7.63883e-18
9700.17231 7.63796e-18
9701.03377 7.63724e-18
9701.89523 7.66135e-18
9702.75669 7.68554e-18
9703.61816 7.69426e-18
9704.47962 7.70294e-18
9705.34108 7.67020e-18
9706.20254 7.63734e-18
9707.06400 7.58829e-18
9707.93548 7.53919e-18
9708.79694 7.49989e-18
9709.65841 7.46062e-18
9710.51987 7.44528e-18
9711.38133 7.43002e-18
9712.24279 7.44791e-18
9713.10425 7.46591e-18
9713.96572 7.49229e-18
9714.82718 7.51870e-18
9715.68864 7.52378e-18
9716.55010 7.52881e-18
9717.41156 7.50406e-18
9718.28304 7.47923e-18
9719.14451 7.42123e-18
9720.00597 7.36312e-18
9720.86743 7.30290e-18
9721.72889 7.24266e-18
9722.59035 7.22792e-18
9723.45182 7.21331e-18
9724.31328 7.22311e-18
9725.17474 7.23298e-18
9726.03620 7.20506e-18
9726.89766 7.17701e-18
9727.76914 7.08931e-18
9728.63060 7.00143e-18
9729.49207 6.86553e-18
9730.35353 6.72948e-18
9731.21499 6.57438e-18
9732.07645 6.41922e-18
9732.93791 6.29823e-18
9733.79938 6.17735e-18
9734.66084 6.12371e-18
9735.52230 6.07027e-18
9736.38376 6.07751e-18
9737.25524 6.08492e-18
9738.11670 6.13809e-18
9738.97817 6.19139e-18
9739.83963 6.26106e-18
9740.70109 6.33079e-18
9741.56255 6.38787e-18
9742.42401 6.44492e-18
9743.28548 6.47399e-18
9744.14694 6.50298e-18
9745.00840 6.49490e-18
9745.86986 6.48672e-18
9746.74134 6.45390e-18
9747.60280 6.42101e-18
9748.46426 6.38045e-18
9749.32573 6.33987e-18
9750.18719 6.29563e-18
9751.04865 6.25137e-18
9751.91011 6.20557e-18
9752.77157 6.15976e-18
9753.63304 6.11090e-18
9754.49450 6.06202e-18
9755.35596 6.00693e-18
9756.22744 5.95181e-18
9757.08890 5.90195e-18
9757.95036 5.85210e-18
9758.81183 5.82441e-18
9759.67329 5.79679e-18
9760.53475 5.80438e-18
9761.39621 5.81208e-18
9762.25767 5.86619e-18
9763.11913 5.92045e-18
9763.98060 6.00405e-18
9764.84206 6.08772e-18
9765.71354 6.15282e-18
9766.57500 6.21787e-18
9767.43646 6.24095e-18
9768.29792 6.26389e-18
9769.15939 6.26038e-18
9770.02085 6.25677e-18
9770.88231 6.23979e-18
9771.74377 6.22277e-18
9772.60523 6.19891e-18
9773.46670 6.17502e-18
9774.32816 6.15260e-18
9775.19964 6.13017e-18
9776.06110 6.11577e-18
9776.92256 6.10139e-18
9777.78402 6.09941e-18
9778.64548 6.09748e-18
9779.50695 6.11353e-18
9780.36841 6.12965e-18
9781.22987 6.16529e-18
9782.09133 6.20100e-18
9782.95280 6.22537e-18
9783.81426 6.24971e-18
9784.68574 6.22928e-18
9785.54720 6.20870e-18
9786.40866 6.15971e-18
9787.27012 6.11065e-18
9788.13158 6.06366e-18
9788.99305 6.01668e-18
9789.85451 5.98246e-18
9790.71597 5.94827e-18
9791.57743 5.93129e-18
9792.43889 5.91436e-18
9793.30036 5.90316e-18
9794.16182 5.89197e-18
9795.03330 5.86246e-18
9795.89476 5.83290e-18
9796.75622 5.79211e-18
9797.61768 5.75130e-18
9798.47915 5.73442e-18
9799.34061 5.71762e-18
9800.20207 5.73643e-18
9801.06353 5.75534e-18
9801.92499 5.79314e-18
9802.78645 5.83099e-18
9803.64792 5.87094e-18
9804.51940 5.91089e-18
9805.38086 5.93324e-18
9806.24232 5.95553e-18
9807.10378 5.95071e-18
9807.96524 5.94579e-18
9808.82671 5.93273e-18
9809.68817 5.91964e-18
9810.54963 5.91640e-18
9811.41109 5.91318e-18
9812.27255 5.93115e-18
9813.13402 5.94918e-18
9813.99548 5.99366e-18
9814.86696 6.03823e-18
9815.72842 6.07756e-18
9816.58988 6.11688e-18
9817.45134 6.11746e-18
9818.31280 6.11792e-18
9819.17427 6.08420e-18
9820.03573 6.05038e-18
9820.89719 5.99652e-18
9821.75865 5.94259e-18
9822.62012 5.88934e-18
9823.48158 5.83610e-18
9824.35306 5.80766e-18
9825.21452 5.77930e-18
9826.07598 5.77213e-18
9826.93744 5.76504e-18
9827.79890 5.75958e-18
9828.66037 5.75412e-18
9829.52183 5.74552e-18
9830.38329 5.73691e-18
9831.24475 5.73097e-18
9832.10621 5.72504e-18
9832.97769 5.72042e-18
9833.83915 5.71581e-18
9834.70062 5.70491e-18
9835.56208 5.69399e-18
9836.42354 5.67330e-18
9837.28500 5.65258e-18
9838.14647 5.62415e-18
9839.00793 5.59570e-18
9839.86939 5.56185e-18
9840.73085 5.52798e-18
9841.59231 5.48991e-18
9842.45377 5.45183e-18
9843.32525 5.41388e-18
9844.18672 5.37592e-18
9845.04818 5.35155e-18
9845.90964 5.32720e-18
9846.77110 5.32698e-18
9847.63256 5.32683e-18
9848.49403 5.34750e-18
9849.35549 5.36822e-18
9850.21695 5.40374e-18
9851.07841 5.43932e-18
9851.93987 5.48396e-18
9852.81135 5.52863e-18
9853.67282 5.57559e-18
9854.53428 5.62255e-18
9855.39574 5.66755e-18
9856.25720 5.71252e-18
9857.11866 5.75238e-18
9857.98013 5.79222e-18
9858.84159 5.81841e-18
9859.70305 5.84455e-18
9860.56451 5.84731e-18
9861.42597 5.85001e-18
9862.29745 5.82802e-18
9863.15891 5.80596e-18
9864.02038 5.76341e-18
9864.88184 5.72080e-18
9865.74330 5.66545e-18
9866.60476 5.61006e-18
9867.46622 5.55302e-18
9868.32769 5.49597e-18
9869.18915 5.44361e-18
9870.05061 5.39125e-18
9870.92209 5.34282e-18
9871.78355 5.29441e-18
9872.64501 5.25075e-18
9873.50648 5.20710e-18
9874.36794 5.17195e-18
9875.22940 5.13683e-18
9876.09086 5.11314e-18
9876.95232 5.08950e-18
9877.81379 5.08001e-18
9878.67525 5.07057e-18
9879.53671 5.07652e-18
9880.39817 5.08251e-18
9881.26965 5.10201e-18
9882.13111 5.12154e-18
9882.99257 5.15109e-18
9883.85404 5.18065e-18
9884.71550 5.21385e-18
9885.57696 5.24705e-18
9886.43842 5.27699e-18
9887.29988 5.30692e-18
9888.16135 5.32711e-18
9889.02281 5.34729e-18
9889.88427 5.35233e-18
9890.74573 5.35732e-18
9891.61721 5.34706e-18
9892.47867 5.33676e-18
9893.34014 5.31395e-18
9894.20160 5.29110e-18
9895.06306 5.25867e-18
9895.92452 5.22620e-18
9896.78598 5.18723e-18
9897.64745 5.14825e-18
9898.50891 5.10782e-18
9899.37037 5.06738e-18
9900.23183 5.03217e-18
9901.09329 4.99698e-18
9901.96477 4.96811e-18
9902.82623 4.93926e-18
9903.68770 4.91103e-18
9904.54916 4.88281e-18
9905.41062 4.85654e-18
9906.27208 4.83027e-18
9907.13354 4.81835e-18
9907.99501 4.80645e-18
9908.85647 4.81475e-18
9909.71793 4.82311e-18
9910.57939 4.84599e-18
9911.45087 4.86892e-18
9912.31233 4.89718e-18
9913.17380 4.92547e-18
9914.03526 4.93967e-18
9914.89672 4.95384e-18
9915.75818 4.93855e-18
9916.61964 4.92318e-18
9917.48111 4.88380e-18
9918.34257 4.84434e-18
9919.20403 4.79029e-18
9920.07551 4.73620e-18
9920.93697 4.67822e-18
9921.79843 4.62023e-18
9922.65989 4.56921e-18
9923.52136 4.51822e-18
9924.38282 4.47895e-18
9925.24428 4.43973e-18
9926.10574 4.41409e-18
9926.96720 4.38849e-18
9927.82867 4.36938e-18
9928.69013 4.35028e-18
9929.56161 4.32640e-18
9930.42307 4.30251e-18
9931.28453 4.27019e-18
9932.14599 4.23785e-18
9933.00746 4.19871e-18
9933.86892 4.15954e-18
9934.73038 4.11689e-18
9935.59184 4.07422e-18
9936.45330 4.03286e-18
9937.31477 3.99150e-18
9938.17623 3.95777e-18
9939.03769 3.92407e-18
9939.90917 3.90593e-18
9940.77063 3.88785e-18
9941.63209 3.88751e-18
9942.49355 3.88721e-18
9943.35502 3.89641e-18
9944.21648 3.90562e-18
9945.07794 3.91723e-18
9945.93940 3.92884e-18
9946.80086 3.94107e-18
9947.66233 3.95330e-18
9948.52379 3.96407e-18
9949.39527 3.97485e-18
9950.25673 3.98022e-18
9951.11819 3.98558e-18
9951.97965 3.98300e-18
9952.84112 3.98041e-18
9953.70258 3.97501e-18
9954.56404 3.96959e-18
9955.42550 3.96697e-18
9956.28696 3.96436e-18
9957.14843 3.96076e-18
9958.00989 3.95717e-18
9958.88137 3.94742e-18
9959.74283 3.93764e-18
9960.60429 3.91909e-18
9961.46575 3.90050e-18
9962.32721 3.87143e-18
9963.18868 3.84233e-18
9964.05014 3.81144e-18
9964.91160 3.78055e-18
9965.77306 3.76239e-18
9966.63452 3.74426e-18
9967.49599 3.74223e-18
9968.36747 3.74024e-18
9969.22893 3.74874e-18
9970.09039 3.75726e-18
9970.95185 3.77541e-18
9971.81331 3.79359e-18
9972.67477 3.82556e-18
9973.53624 3.85757e-18
9974.39770 3.90163e-18
9975.25916 3.94572e-18
9976.12062 3.99243e-18
9976.98208 4.03914e-18
9977.85356 4.08100e-18
9978.71503 4.12285e-18
9979.57649 4.15627e-18
9980.43795 4.18967e-18
9981.29941 4.21339e-18
9982.16087 4.23709e-18
9983.02234 4.25616e-18
9983.88380 4.27522e-18
9984.74526 4.29472e-18
9985.60672 4.31423e-18
9986.46818 4.33670e-18
9987.32965 4.35918e-18
9988.20112 4.38593e-18
9989.06259 4.41268e-18
9989.92405 4.43428e-18
9990.78551 4.45587e-18
9991.64697 4.46164e-18
9992.50843 4.46736e-18
9993.36990 4.46532e-18
9994.23136 4.46325e-18
9995.09282 4.46710e-18
9995.95428 4.47097e-18
9996.81574 4.47838e-18
9997.67721 4.48580e-18
9998.54869 4.48804e-18
9999.41015 4.49025e-18
