# wavelength flux
3707.85345 2.61913e-17
3709.32566 1.64566e-17
3710.78785 -4.63179e-18
3712.26005 4.92171e-18
3713.73226 4.94260e-18
3715.20446 4.96350e-18
3716.67667 4.90671e-18
3718.13886 4.84993e-18
3719.61106 4.79317e-18
3721.08327 4.73640e-18
3722.55547 4.67964e-18
3724.01766 4.62290e-18
3725.48987 4.56615e-18
3726.96207 4.50940e-18
3728.43428 4.45266e-18
3729.89647 4.39595e-18
3731.36867 4.33922e-18
3732.84088 4.28251e-18
3734.31308 4.22580e-18
3735.78529 4.16911e-18
3737.24748 4.11241e-18
3738.71968 4.05571e-18
3740.19189 3.99903e-18
3741.66409 3.94236e-18
3743.12628 3.88569e-18
3744.59848 3.82903e-18
3746.07069 3.77237e-18
3747.54290 3.71573e-18
3749.01510 3.65908e-18
3750.47729 3.60244e-18
3751.94950 3.54580e-18
3753.42170 3.48918e-18
3754.89391 7.89862e-18
3756.35610 1.79733e-17
3757.82830 9.14016e-18
3759.30051 4.32254e-18
3760.77271 1.63675e-18
3762.23490 5.96629e-18
3763.70711 4.37079e-18
3765.17931 6.87253e-19
3766.65152 2.27663e-18
3768.12372 2.90038e-18
3769.58591 2.44681e-17
3771.05812 2.83506e-17
3772.53032 2.20687e-17
3774.00253 2.51194e-17
3775.46472 1.07072e-17
3776.93692 9.35131e-18
3778.40913 -3.49991e-18
3779.88133 -1.09329e-17
3781.35354 1.57562e-17
3782.81573 2.11280e-17
3784.28793 1.25514e-17
3785.76014 1.46418e-17
3787.23234 3.81744e-18
3788.69453 4.07617e-18
3790.16673 9.25935e-18
3791.63894 1.40065e-17
3793.11114 7.41373e-18
3794.58335 9.25252e-18
3796.04554 7.63050e-18
3797.51775 6.83699e-19
3798.98995 9.82621e-18
3800.46216 1.13544e-17
3801.92435 1.34614e-17
3803.39655 7.17452e-19
3804.86876 7.37637e-18
3806.34096 1.98816e-17
3807.80315 9.34457e-18
3809.27536 3.23963e-18
3810.74756 8.79714e-18
3812.21977 1.47087e-17
3813.69197 1.03669e-17
3815.15416 1.30581e-17
3816.62637 1.04567e-17
3818.09857 3.76719e-18
3819.57078 6.95774e-18
3821.03297 1.79800e-17
3822.50517 4.89699e-18
3823.97738 -1.37770e-18
3825.44958 9.84142e-20
3826.92179 2.55333e-18
3828.38398 1.58643e-17
3829.85618 2.35641e-17
3831.32839 1.38403e-17
3832.80059 -6.25194e-19
3834.26278 8.07363e-18
3835.73499 1.04544e-17
3837.20719 7.19085e-18
3838.67940 7.41986e-18
3840.15160 1.11671e-17
3841.61379 1.00339e-17
3843.08600 2.26516e-18
3844.55820 -9.94647e-19
3846.03040 8.24921e-18
3847.49260 2.67927e-17
3848.96480 1.26452e-17
3850.43701 -9.35011e-18
3851.90921 8.91328e-18
3853.37140 2.47794e-17
3854.84361 2.12708e-17
3856.31581 1.88624e-17
3857.78802 8.78022e-19
3859.26022 9.98095e-18
3860.72241 1.15052e-17
3862.19461 6.58818e-18
3863.66682 1.04606e-17
3865.13902 1.18090e-17
3866.60122 1.79994e-17
3868.07342 1.98618e-17
3869.54563 2.64521e-17
3871.01783 2.07087e-17
3872.49004 4.10293e-18
3873.95223 5.55136e-18
3875.42443 1.17702e-17
3876.89664 1.81464e-17
3878.36884 6.33708e-18
3879.83103 2.02445e-18
3881.30323 5.75157e-18
3882.77544 4.95698e-18
3884.24764 1.52226e-17
3885.71985 1.84738e-17
3887.18204 1.92941e-17
3888.65425 1.32431e-17
3890.12645 1.53355e-17
3891.59866 1.89029e-17
3893.06085 1.97402e-17
3894.53305 2.23928e-17
3896.00526 1.51337e-17
3897.47746 1.11394e-17
3898.93965 6.33944e-18
3900.41186 1.33633e-17
3901.88406 1.83351e-17
3903.35627 1.41245e-17
3904.82847 8.34066e-18
3906.29066 1.06926e-17
3907.76287 9.82212e-18
3909.23507 1.26554e-17
3910.70728 2.08299e-17
3912.16946 1.18149e-17
3913.64167 1.04267e-17
3915.11388 1.40249e-18
3916.58608 8.85661e-19
3918.05829 1.38963e-17
3919.52048 9.33834e-18
3920.99268 9.57240e-18
3922.46489 1.32821e-17
3923.93709 1.93406e-17
3925.39928 1.67719e-17
3926.87149 1.12137e-17
3928.34369 1.30653e-17
3929.81590 1.30447e-17
3931.28810 1.55608e-17
3932.75029 2.49124e-17
3934.22249 1.45785e-17
3935.69470 1.97801e-17
3937.16691 9.11430e-18
3938.62910 1.15742e-17
3940.10130 2.03080e-17
3941.57351 2.16300e-17
3943.04571 2.03234e-17
3944.50790 2.38241e-17
3945.98011 2.57240e-17
3947.45231 2.65311e-17
3948.92452 2.25890e-17
3950.39672 2.57059e-17
3951.85891 2.61907e-17
3953.33111 1.77405e-17
3954.80332 1.16378e-17
3956.27553 2.38340e-17
3957.73772 2.93771e-17
3959.20992 2.08662e-17
3960.68213 2.37517e-17
3962.15433 2.88883e-17
3963.62654 2.26214e-17
3965.08873 2.47332e-17
3966.56093 2.00010e-17
3968.03314 2.27093e-17
3969.50534 3.07646e-17
3970.96753 2.20418e-17
3972.43973 1.77328e-17
3973.91194 2.31269e-17
3975.38414 2.46669e-17
3976.85635 2.79723e-17
3978.31854 2.84477e-17
3979.79075 3.04469e-17
3981.26295 2.96122e-17
3982.73516 2.50086e-17
3984.19735 1.19875e-17
3985.66955 9.71824e-18
3987.14176 2.41703e-17
3988.61396 2.81792e-17
3990.07615 2.76561e-17
3991.54836 2.40961e-17
3993.02056 1.80327e-17
3994.49277 2.04460e-17
3995.96497 2.40000e-17
3997.42716 2.01313e-17
3998.89937 2.36243e-17
4000.37157 3.14019e-17
4001.84378 2.96046e-17
4003.30597 2.07860e-17
4004.77817 2.96873e-17
4006.25038 3.07686e-17
4007.72258 2.74023e-17
4009.19479 3.42247e-17
4010.65698 2.51450e-17
4012.12918 1.72809e-17
4013.60139 1.93124e-17
4015.07359 2.22912e-17
4016.53578 2.73315e-17
4018.00799 2.06510e-17
4019.48019 1.81931e-17
4020.95240 2.83373e-17
4022.42460 2.53778e-17
4023.88679 8.70397e-18
4025.35900 2.80853e-17
4026.83120 2.45206e-17
4028.30341 2.12374e-17
4029.76560 2.89080e-17
4031.23780 2.52684e-17
4032.71001 2.53990e-17
4034.18221 3.10584e-17
4035.64440 2.81453e-17
4037.11661 2.16981e-17
4038.58881 2.75324e-17
4040.06102 2.21555e-17
4041.53322 2.15053e-17
4042.99541 2.38435e-17
4044.46762 2.06664e-17
4045.93982 1.93753e-17
4047.41203 1.73744e-17
4048.87422 1.80799e-17
4050.34642 1.97748e-17
4051.81863 2.58342e-17
4053.29083 2.34075e-17
4054.76304 2.95072e-17
4056.22523 2.26491e-17
4057.69743 1.77846e-17
4059.16964 2.40630e-17
4060.64184 1.69230e-17
4062.10403 1.93468e-17
4063.57623 2.98172e-17
4065.04844 1.72826e-17
4066.52065 1.49088e-17
4067.98284 1.20446e-17
4069.45504 1.87708e-17
4070.92725 2.26349e-17
4072.39945 1.77216e-17
4073.87166 2.27433e-17
4075.33385 1.92903e-17
4076.80605 1.78720e-17
4078.27826 2.72415e-17
4079.75046 2.40763e-17
4081.21265 1.23721e-17
4082.68486 1.56919e-17
4084.15706 1.57974e-17
4085.62927 1.80647e-17
4087.10147 2.21129e-17
4088.56366 1.59497e-17
4090.03587 1.91604e-17
4091.50807 1.68868e-17
4092.98028 1.43355e-17
4094.44247 1.61062e-17
4095.91467 1.51012e-17
4097.38688 1.63233e-17
4098.85908 2.23318e-17
4100.33129 1.91193e-17
4101.79348 1.94412e-17
4103.26568 2.16996e-17
4104.73789 2.32525e-17
4106.21009 2.10036e-17
4107.67228 1.71612e-17
4109.14448 1.47768e-17
4110.61669 1.66863e-17
4112.08890 2.07548e-17
4113.56110 2.46131e-17
4115.02329 2.69572e-17
4116.49550 1.39880e-17
4117.96770 1.43424e-17
4119.43991 1.71772e-17
4120.90209 1.73349e-17
4122.37430 1.95677e-17
4123.84651 2.22781e-17
4125.31871 2.26853e-17
4126.78090 2.58940e-17
4128.25310 2.91727e-17
4129.72531 2.56226e-17
4131.19752 1.94203e-17
4132.66972 2.19179e-17
4134.13191 2.19152e-17
4135.60412 2.49815e-17
4137.07632 3.61569e-17
4138.54853 2.43013e-17
4140.01072 2.30548e-17
4141.48292 2.07300e-17
4142.95513 2.25067e-17
4144.42733 1.85885e-17
4145.89953 1.49607e-17
4147.36172 2.12770e-17
4148.83393 3.05582e-17
4150.30614 2.13050e-17
4151.77834 2.53275e-17
4153.24053 2.43133e-17
4154.71274 2.08392e-17
4156.18494 2.49577e-17
4157.65715 2.32615e-17
4159.12935 1.76299e-17
4160.59154 2.23870e-17
4162.06375 2.04879e-17
4163.53595 2.12283e-17
4165.00816 2.33949e-17
4166.47034 1.90493e-17
4167.94255 2.64702e-17
4169.41476 2.16481e-17
4170.88696 2.49426e-17
4172.34915 1.88435e-17
4173.82136 2.38245e-17
4175.29356 2.41036e-17
4176.76577 2.38840e-17
4178.23797 2.64050e-17
4179.70016 2.44064e-17
4181.17237 2.18532e-17
4182.64457 1.83155e-17
4184.11678 2.61157e-17
4185.57897 2.41418e-17
4187.05117 2.30384e-17
4188.52338 2.47274e-17
4189.99558 2.67090e-17
4191.46778 2.22542e-17
4192.92998 2.43250e-17
4194.40218 2.19405e-17
4195.87439 2.45782e-17
4197.34659 2.22753e-17
4198.80878 2.10353e-17
4200.28099 1.88663e-17
4201.75319 2.48220e-17
4203.22540 2.67907e-17
4204.68759 2.43735e-17
4206.15979 2.54314e-17
4207.63199 2.05251e-17
4209.10420 1.77213e-17
4210.57641 2.67057e-17
4212.03859 2.80604e-17
4213.51080 2.08004e-17
4214.98301 2.02322e-17
4216.45521 2.80683e-17
4217.91740 2.99002e-17
4219.38961 1.78765e-17
4220.86181 1.70240e-17
4222.33402 1.89046e-17
4223.80622 1.87082e-17
4225.26841 2.30618e-17
4226.74061 2.06636e-17
4228.21282 1.96036e-17
4229.68503 2.47435e-17
4231.14722 2.19936e-17
4232.61942 2.28058e-17
4234.09163 2.10961e-17
4235.56383 1.94588e-17
4237.03604 2.39640e-17
4238.49823 2.19140e-17
4239.97043 2.42331e-17
4241.44264 2.68851e-17
4242.91484 3.20674e-17
4244.37703 2.96042e-17
4245.84923 2.33223e-17
4247.32144 2.20803e-17
4248.79365 2.08440e-17
4250.26585 2.02032e-17
4251.72804 2.23471e-17
4253.20024 2.65276e-17
4254.67245 2.27274e-17
4256.14466 2.78336e-17
4257.60685 2.71141e-17
4259.07905 1.87846e-17
4260.55126 1.85428e-17
4262.02346 2.43716e-17
4263.48565 2.03925e-17
4264.95785 2.25197e-17
4266.43006 2.84772e-17
4267.90227 2.20276e-17
4269.37447 1.99905e-17
4270.83666 2.48979e-17
4272.30886 2.58306e-17
4273.78107 2.70116e-17
4275.25328 2.66902e-17
4276.71547 2.11632e-17
4278.18767 1.95137e-17
4279.65988 1.82809e-17
4281.13208 1.95901e-17
4282.60428 2.56790e-17
4284.06647 2.56637e-17
4285.53868 2.21532e-17
4287.01089 2.49424e-17
4288.48309 2.38929e-17
4289.94528 2.13024e-17
4291.41748 1.76505e-17
4292.88969 2.10989e-17
4294.36190 2.64839e-17
4295.82409 2.30994e-17
4297.29629 1.90488e-17
4298.76850 2.65911e-17
4300.24070 2.61610e-17
4301.71291 1.93245e-17
4303.17509 2.27244e-17
4304.64730 2.13559e-17
4306.11951 2.18517e-17
4307.59171 2.11303e-17
4309.05390 2.17493e-17
4310.52610 2.63771e-17
4311.99831 1.97199e-17
4313.47052 1.53856e-17
4314.94272 2.14215e-17
4316.40491 2.27987e-17
4317.87712 1.87822e-17
4319.34932 2.40025e-17
4320.82153 2.33521e-17
4322.28372 1.84963e-17
4323.75592 1.89291e-17
4325.22813 2.41301e-17
4326.70033 2.36869e-17
4328.16252 1.95343e-17
4329.63472 1.81616e-17
4331.10693 1.93177e-17
4332.57913 1.98683e-17
4334.05134 2.00466e-17
4335.51353 2.28650e-17
4336.98574 2.25561e-17
4338.45794 1.86507e-17
4339.93015 1.70658e-17
4341.39234 1.75028e-17
4342.86454 1.93111e-17
4344.33675 1.70309e-17
4345.80895 1.69455e-17
4347.28116 2.23204e-17
4348.74334 1.91903e-17
4350.21555 1.98115e-17
4351.68775 2.04971e-17
4353.15996 2.03525e-17
4354.62215 2.02081e-17
4356.09436 2.00636e-17
4357.56656 1.99190e-17
4359.03877 1.97746e-17
4360.51097 1.96301e-17
4361.97316 1.94857e-17
4363.44537 1.93412e-17
4364.91757 1.91968e-17
4366.38978 1.90524e-17
4367.85197 1.89080e-17
4369.32417 1.87636e-17
4370.79637 1.86192e-17
4372.26858 1.84749e-17
4373.74078 1.83304e-17
4375.20298 1.81861e-17
4376.67518 1.80418e-17
4378.14739 1.78975e-17
4379.61959 1.77531e-17
4381.08178 1.76088e-17
4382.55399 1.74645e-17
4384.02619 1.73202e-17
4385.49840 1.71760e-17
4386.96059 1.70317e-17
4388.43279 1.68875e-17
4389.90499 1.37286e-17
4391.37720 1.15558e-17
4392.84941 1.31612e-17
4394.31160 1.42909e-17
4395.78380 1.67862e-17
4397.25601 1.41684e-17
4398.72821 1.36093e-17
4400.19040 1.99721e-17
4401.66260 2.25948e-17
4403.13481 1.86629e-17
4404.60702 1.35154e-17
4406.07922 1.64870e-17
4407.54141 1.94482e-17
4409.01361 1.96600e-17
4410.48582 1.77379e-17
4411.95803 1.68623e-17
4413.42022 2.15404e-17
4414.89242 1.61928e-17
4416.36463 1.30357e-17
4417.83683 1.35093e-17
4419.29902 1.54913e-17
4420.77122 1.44966e-17
4422.24343 1.32325e-17
4423.71564 1.51253e-17
4425.18784 1.42371e-17
4426.65003 1.21421e-17
4428.12223 1.50828e-17
4429.59444 1.74852e-17
4431.06665 1.60575e-17
4432.52884 1.17444e-17
4434.00104 1.50522e-17
4435.47325 1.51749e-17
4436.94545 1.11372e-17
4438.41766 1.12043e-17
4439.87984 1.01381e-17
4441.35205 1.15218e-17
4442.82426 1.80629e-17
4444.29646 1.85963e-17
4445.75865 1.28335e-17
4447.23085 1.32803e-17
4448.70306 1.21032e-17
4450.17527 1.18761e-17
4451.63746 1.65953e-17
4453.10966 1.53321e-17
4454.58187 1.06547e-17
4456.05407 1.21732e-17
4457.52628 1.30958e-17
4458.98847 1.10420e-17
4460.46067 1.41968e-17
4461.93288 1.74291e-17
4463.40508 1.35024e-17
4464.86727 1.39770e-17
4466.33947 1.29311e-17
4467.81168 1.44008e-17
4469.28389 1.67842e-17
4470.75609 1.51184e-17
4472.21828 1.15582e-17
4473.69049 1.15893e-17
4475.16269 1.41576e-17
4476.63490 1.28807e-17
4478.09709 1.27441e-17
4479.56929 1.21907e-17
4481.04150 1.27036e-17
4482.51370 1.42458e-17
4483.98591 1.47400e-17
4485.44809 1.44485e-17
4486.92030 1.62206e-17
4488.39251 1.15761e-17
4489.86471 1.12756e-17
4491.32690 1.27944e-17
4492.79911 1.34917e-17
4494.27131 1.54116e-17
4495.74352 1.60337e-17
4497.21572 1.62744e-17
4498.67791 1.48931e-17
4500.15012 1.44195e-17
4501.62232 1.60010e-17
4503.09453 1.44327e-17
4504.55672 1.25613e-17
4506.02892 1.63133e-17
4507.50113 1.78105e-17
4508.97333 1.56735e-17
4510.43552 1.61693e-17
4511.90773 1.63742e-17
4513.37993 1.54393e-17
4514.85214 1.66770e-17
4516.32434 1.78815e-17
4517.78653 1.51527e-17
4519.25874 1.47004e-17
4520.73094 1.58539e-17
4522.20315 1.85140e-17
4523.66534 1.99761e-17
4525.13754 1.97465e-17
4526.60974 1.79542e-17
4528.08195 1.78431e-17
4529.55416 1.91629e-17
4531.01635 1.94034e-17
4532.48855 2.07168e-17
4533.96076 1.96444e-17
4535.43296 1.68090e-17
4536.89515 1.85630e-17
4538.36736 1.66316e-17
4539.83956 1.39018e-17
4541.31177 1.85914e-17
4542.77396 2.01099e-17
4544.24616 1.72502e-17
4545.71836 1.55762e-17
4547.19057 1.64437e-17
4548.66278 1.88578e-17
4550.12497 2.04034e-17
4551.59717 2.17499e-17
4553.06938 2.12737e-17
4554.54158 2.24286e-17
4556.00377 2.20699e-17
4557.47598 1.85721e-17
4558.94818 1.99563e-17
4560.42039 2.07727e-17
4561.89259 1.79703e-17
4563.35478 1.76853e-17
4564.82698 2.00913e-17
4566.29919 2.08983e-17
4567.77140 1.93636e-17
4569.23359 1.89811e-17
4570.70579 1.79481e-17
4572.17800 1.78679e-17
4573.65020 1.93335e-17
4575.12241 2.18465e-17
4576.58460 2.10070e-17
4578.05680 1.87321e-17
4579.52901 2.15575e-17
4581.00121 2.28472e-17
4582.46340 2.34942e-17
4583.93560 2.49137e-17
4585.40781 2.30156e-17
4586.88002 2.25395e-17
4588.34221 2.19523e-17
4589.81441 2.03090e-17
4591.28661 2.08738e-17
4592.75882 2.38436e-17
4594.23103 2.38042e-17
4595.69322 2.00831e-17
4597.16542 2.25016e-17
4598.63763 2.33125e-17
4600.10983 2.15199e-17
4601.57202 2.28729e-17
4603.04422 2.31484e-17
4604.51643 2.50904e-17
4605.98864 2.57194e-17
4607.46084 2.35250e-17
4608.92303 2.45803e-17
4610.39523 2.62622e-17
4611.86744 2.45317e-17
4613.33965 2.21037e-17
4614.80184 2.11509e-17
4616.27404 2.22726e-17
4617.74625 2.45650e-17
4619.21845 2.33558e-17
4620.69066 2.40073e-17
4622.15284 2.56610e-17
4623.62505 2.62524e-17
4625.09726 2.55778e-17
4626.56946 2.46368e-17
4628.03165 2.43425e-17
4629.50385 2.19557e-17
4630.97606 2.26779e-17
4632.44827 2.48187e-17
4633.91046 2.22813e-17
4635.38266 2.06226e-17
4636.85487 2.28852e-17
4638.32707 2.41663e-17
4639.79928 2.33991e-17
4641.26147 2.35554e-17
4642.73367 2.44587e-17
4644.20588 2.56592e-17
4645.67808 2.42626e-17
4647.14027 2.55056e-17
4648.61247 2.49490e-17
4650.08468 2.18785e-17
4651.55688 2.39852e-17
4653.02909 2.60163e-17
4654.49128 2.41243e-17
4655.96349 2.39398e-17
4657.43569 2.48621e-17
4658.90790 2.35585e-17
4660.37009 2.24274e-17
4661.84229 2.35587e-17
4663.31450 2.32533e-17
4664.78670 2.23392e-17
4666.25891 2.57867e-17
4667.72109 2.57759e-17
4669.19330 2.07690e-17
4670.66550 2.29475e-17
4672.13771 2.39062e-17
4673.59990 2.27441e-17
4675.07211 2.21404e-17
4676.54431 2.22390e-17
4678.01652 2.26991e-17
4679.47871 2.15033e-17
4680.95091 2.29257e-17
4682.42312 2.39339e-17
4683.89532 2.12886e-17
4685.36753 2.19565e-17
4686.82972 2.61962e-17
4688.30192 2.60110e-17
4689.77412 2.39346e-17
4691.24633 2.27558e-17
4692.70852 2.15269e-17
4694.18073 2.20220e-17
4695.65293 2.23581e-17
4697.12514 2.25686e-17
4698.59734 2.51565e-17
4700.05953 2.54766e-17
4701.53174 2.39369e-17
4703.00394 2.33242e-17
4704.47615 2.27220e-17
4705.93834 2.55612e-17
4707.41054 2.61109e-17
4708.88274 2.18618e-17
4710.35495 2.13006e-17
4711.81714 2.26373e-17
4713.28935 2.26260e-17
4714.76155 2.25695e-17
4716.23376 2.26991e-17
4717.70596 2.33479e-17
4719.16815 2.17995e-17
4720.64035 2.11429e-17
4722.11256 2.20759e-17
4723.58477 2.28900e-17
4725.04696 2.29771e-17
4726.51916 2.38202e-17
4727.99136 2.23405e-17
4729.46357 1.86968e-17
4730.93578 1.74492e-17
4732.39797 1.80837e-17
4733.87017 1.78703e-17
4735.34238 1.77986e-17
4736.81458 1.68419e-17
4738.27677 1.73678e-17
4739.74897 1.86191e-17
4741.22118 1.93845e-17
4742.69339 1.85906e-17
4744.16559 1.85380e-17
4745.62778 1.85262e-17
4747.09998 1.52965e-17
4748.57219 1.65220e-17
4750.04440 1.78364e-17
4751.50659 1.85671e-17
4752.97879 1.83886e-17
4754.45100 1.75416e-17
4755.92320 1.66160e-17
4757.39541 1.56516e-17
4758.85759 1.63798e-17
4760.32980 1.67889e-17
4761.80201 1.57744e-17
4763.27421 1.41673e-17
4764.73640 1.61590e-17
4766.20860 1.42256e-17
4767.68081 1.35765e-17
4769.15302 1.54685e-17
4770.61521 1.41502e-17
4772.08741 1.68407e-17
4773.55962 1.83829e-17
4775.03182 1.59060e-17
4776.50403 1.60554e-17
4777.96622 1.53630e-17
4779.43842 1.37119e-17
4780.91063 1.55688e-17
4782.38283 1.62718e-17
4783.84502 1.61503e-17
4785.31722 1.69508e-17
4786.78943 1.70750e-17
4788.26164 1.60728e-17
4789.73384 1.72763e-17
4791.19603 1.74625e-17
4792.66824 1.63854e-17
4794.14044 1.71440e-17
4795.61265 1.53745e-17
4797.07484 1.48635e-17
4798.54704 1.51261e-17
4800.01925 1.62418e-17
4801.49145 1.65041e-17
4802.95364 1.69610e-17
4804.42584 1.51519e-17
4805.89805 1.41447e-17
4807.37026 1.60771e-17
4808.84246 1.65644e-17
4810.30465 1.64680e-17
4811.77686 1.63764e-17
4813.24906 1.54136e-17
4814.72127 1.69550e-17
4816.18346 1.67769e-17
4817.65566 1.47042e-17
4819.12787 1.42216e-17
4820.60007 1.43637e-17
4822.07228 1.32298e-17
4823.53447 1.22151e-17
4825.00667 1.33556e-17
4826.47888 1.28417e-17
4827.95108 1.25035e-17
4829.41327 1.24168e-17
4830.88548 1.14777e-17
4832.35768 1.19504e-17
4833.82989 1.31769e-17
4835.30209 1.42300e-17
4836.76428 1.34134e-17
4838.23649 1.19150e-17
4839.70869 1.14271e-17
4841.18090 1.18917e-17
4842.64309 1.14181e-17
4844.11529 1.18749e-17
4845.58749 1.19465e-17
4847.05970 1.15928e-17
4848.53191 1.29721e-17
4849.99410 1.27497e-17
4851.46630 1.27523e-17
4852.93851 1.27548e-17
4854.41071 1.27573e-17
4855.87290 1.27599e-17
4857.34511 1.27624e-17
4858.81731 1.27649e-17
4860.28952 1.27674e-17
4861.75171 1.27700e-17
4863.22391 1.27725e-17
4864.69611 1.27750e-17
4866.16832 1.27775e-17
4867.64053 1.27801e-17
4869.10272 1.27826e-17
4870.57492 1.27851e-17
4872.04713 1.27876e-17
4873.51933 1.27902e-17
4874.98152 1.27927e-17
4876.45373 1.27952e-17
4877.92593 1.27977e-17
4879.39814 1.28003e-17
4880.87034 1.28028e-17
4882.33253 1.28053e-17
4883.80473 1.28078e-17
4885.27694 1.28104e-17
4886.74915 1.28129e-17
4888.21134 1.32642e-17
4889.68354 1.27848e-17
4891.15575 1.48764e-17
4892.62795 1.56027e-17
4894.09014 1.34673e-17
4895.56235 1.28761e-17
4897.03455 1.48520e-17
4898.50676 1.65187e-17
4899.97896 1.37440e-17
4901.44115 1.30071e-17
4902.91335 1.46119e-17
4904.38556 1.47085e-17
4905.85777 1.48135e-17
4907.31996 1.42157e-17
4908.79216 1.18428e-17
4910.26436 1.17087e-17
4911.73657 1.32199e-17
4913.20878 1.19643e-17
4914.67097 1.10197e-17
4916.14317 1.24479e-17
4917.61538 1.20489e-17
4919.08758 1.19325e-17
4920.54977 1.30071e-17
4922.02197 1.43820e-17
4923.49418 1.31024e-17
4924.96639 1.16965e-17
4926.42858 1.12826e-17
4927.90078 1.03070e-17
4929.37298 1.13694e-17
4930.84519 1.20906e-17
4932.31740 1.21782e-17
4933.77959 1.05906e-17
4935.25179 1.07158e-17
4936.72400 1.19427e-17
4938.19620 1.15571e-17
4939.65839 1.11721e-17
4941.13059 1.03138e-17
4942.60280 1.05717e-17
4944.07501 1.11215e-17
4945.54721 1.00588e-17
4947.00940 9.80044e-18
4948.48160 9.92477e-18
4949.95381 1.00490e-17
4951.42602 1.01733e-17
4952.88821 1.02975e-17
4954.36041 1.04217e-17
4955.83262 1.05460e-17
4957.30482 1.06702e-17
4958.77703 1.07944e-17
4960.23922 1.09186e-17
4961.71142 1.10428e-17
4963.18363 1.11669e-17
4964.65583 1.12911e-17
4966.11802 1.14152e-17
4967.59022 1.15394e-17
4969.06243 1.16634e-17
4970.53463 1.17876e-17
4972.00684 1.19117e-17
4973.46903 1.20357e-17
4974.94124 1.21598e-17
4976.41344 1.22839e-17
4977.88565 1.24079e-17
4979.34784 1.25320e-17
4980.82004 1.26560e-17
4982.29225 1.27800e-17
4983.76445 1.29041e-17
4985.22664 1.30281e-17
4986.69884 1.10132e-17
4988.17105 9.82892e-18
4989.64325 1.07675e-17
4991.11546 1.04086e-17
4992.57765 9.80778e-18
4994.04986 1.11368e-17
4995.52206 9.31488e-18
4996.99427 9.38636e-18
4998.45646 9.45784e-18
4999.92866 9.52933e-18
5001.40087 9.60081e-18
5002.87307 9.67228e-18
5004.34528 9.74375e-18
5005.80747 9.81518e-18
5007.27967 9.88666e-18
5008.75187 9.95810e-18
5010.22408 1.00295e-17
5011.68627 1.01010e-17
5013.15848 1.01724e-17
5014.63068 1.02438e-17
5016.10289 1.03152e-17
5017.56508 1.03866e-17
5019.03728 1.04581e-17
5020.50949 1.05294e-17
5021.98169 1.06008e-17
5023.45390 1.06722e-17
5024.91609 1.07436e-17
5026.38829 1.08149e-17
5027.86049 1.08863e-17
5029.33270 1.09576e-17
5030.79489 1.10290e-17
5032.26710 1.11004e-17
5033.73930 1.11717e-17
5035.21151 1.19448e-17
5036.68371 1.13180e-17
5038.14590 1.25379e-17
5039.61810 1.29992e-17
5041.09031 1.16945e-17
5042.56252 1.26873e-17
5044.02471 1.07726e-17
5045.49691 1.28180e-17
5046.96911 1.39128e-17
5048.44132 1.21447e-17
5049.90351 1.31472e-17
5051.37572 1.24664e-17
5052.84792 1.14553e-17
5054.32013 9.98991e-18
5055.79233 9.07401e-18
5057.25452 1.23132e-17
5058.72672 1.31819e-17
5060.19893 1.06994e-17
5061.67114 1.20091e-17
5063.13333 1.27005e-17
5064.60553 1.09322e-17
5066.07773 1.00314e-17
5067.54994 1.06399e-17
5069.02215 1.15031e-17
5070.48434 8.34035e-18
5071.95654 9.65169e-18
5073.42875 1.10761e-17
5074.90095 9.75667e-18
5076.36314 1.13876e-17
5077.83534 1.06205e-17
5079.30755 9.74477e-18
5080.77976 1.14220e-17
5082.25196 9.62263e-18
5083.71415 1.10901e-17
5085.18635 1.25765e-17
5086.65856 1.21574e-17
5088.13077 1.24519e-17
5089.59296 1.07191e-17
5091.06516 1.08733e-17
5092.53737 1.22400e-17
5094.00957 1.24062e-17
5095.48178 1.03179e-17
5096.94397 1.09125e-17
5098.41617 1.09062e-17
5099.88838 1.18354e-17
5101.36058 1.04996e-17
5102.82277 1.02691e-17
5104.29497 1.20084e-17
5105.76718 1.20903e-17
5107.23939 1.19386e-17
5108.70158 1.04534e-17
5110.17378 1.18269e-17
5111.64599 1.17726e-17
5113.11819 1.09450e-17
5114.59040 1.16075e-17
5116.05259 1.28800e-17
5117.52479 1.20216e-17
5118.99700 1.14536e-17
5120.46920 1.01331e-17
5121.93139 1.00361e-17
5123.40359 1.04297e-17
5124.87580 1.09832e-17
5126.34801 1.21966e-17
5127.82021 1.11153e-17
5129.28240 1.05512e-17
5130.75461 1.25338e-17
5132.22681 1.19038e-17
5133.69902 1.15943e-17
5135.16121 1.19988e-17
5136.63341 1.04229e-17
5138.10562 1.00668e-17
5139.57782 1.17566e-17
5141.04001 1.21714e-17
5142.51222 1.21640e-17
5143.98442 1.27860e-17
5145.45663 1.17220e-17
5146.92883 1.18920e-17
5148.39102 1.22840e-17
5149.86323 1.32398e-17
5151.33543 1.31550e-17
5152.80764 1.12644e-17
5154.26983 1.19128e-17
5155.74203 1.20751e-17
5157.21424 1.17096e-17
5158.68644 1.20482e-17
5160.15865 1.07449e-17
5161.62084 1.11779e-17
5163.09304 1.29338e-17
5164.56524 1.40499e-17
5166.03745 1.26023e-17
5167.49964 1.15562e-17
5168.97185 1.22042e-17
5170.44405 1.15086e-17
5171.91626 1.12171e-17
5173.38846 1.19019e-17
5174.85065 1.10863e-17
5176.32286 1.06474e-17
5177.79506 1.27585e-17
5179.26727 1.29281e-17
5180.72946 1.12461e-17
5182.20166 1.20631e-17
5183.67386 1.29317e-17
5185.14607 1.24797e-17
5186.60826 1.32104e-17
5188.08047 1.46725e-17
5189.55267 1.30814e-17
5191.02488 1.13719e-17
5192.49708 1.36009e-17
5193.95927 1.56138e-17
5195.43148 1.51498e-17
5196.90368 1.42355e-17
5198.37589 1.37555e-17
5199.83808 1.52872e-17
5201.31028 1.36427e-17
5202.78248 1.39651e-17
5204.25469 1.53958e-17
5205.72690 1.51342e-17
5207.18909 1.40992e-17
5208.66129 1.33670e-17
5210.13350 1.41123e-17
5211.60570 1.48029e-17
5213.06789 1.51444e-17
5214.54010 1.42806e-17
5216.01230 1.50802e-17
5217.48451 1.43956e-17
5218.95671 1.36323e-17
5220.41890 1.59555e-17
5221.89110 1.62726e-17
5223.36331 1.43520e-17
5224.83552 1.45661e-17
5226.29771 1.61868e-17
5227.76991 1.65840e-17
5229.24212 1.58822e-17
5230.71432 1.49968e-17
5232.17651 1.66033e-17
5233.64872 1.75045e-17
5235.12092 1.44303e-17
5236.59313 1.33359e-17
5238.06533 1.55555e-17
5239.52752 1.69270e-17
5240.99972 1.74856e-17
5242.47193 1.73408e-17
5243.94414 1.56927e-17
5245.40633 1.46220e-17
5246.87853 1.53407e-17
5248.35073 1.72810e-17
5249.82294 1.77586e-17
5251.29515 1.64866e-17
5252.75734 1.48199e-17
5254.22954 1.56213e-17
5255.70175 1.53222e-17
5257.17395 1.51693e-17
5258.63614 1.58438e-17
5260.10834 1.56683e-17
5261.58055 1.62065e-17
5263.05276 1.61932e-17
5264.52496 1.52747e-17
5265.98715 1.62583e-17
5267.45935 1.68106e-17
5268.93156 1.53804e-17
5270.40377 1.59476e-17
5271.86596 1.60231e-17
5273.33816 1.57775e-17
5274.81037 1.65431e-17
5276.28257 1.78539e-17
5277.74476 1.78556e-17
5279.21697 1.70744e-17
5280.68917 1.71515e-17
5282.16138 1.77873e-17
5283.63358 1.69933e-17
5285.09577 1.67216e-17
5286.56797 1.84082e-17
5288.04018 1.84304e-17
5289.51238 1.66060e-17
5290.97458 1.65301e-17
5292.44678 1.70307e-17
5293.91899 1.70783e-17
5295.39119 1.68820e-17
5296.86340 1.58897e-17
5298.32559 1.57100e-17
5299.79779 1.53582e-17
5301.27000 1.69418e-17
5302.74220 1.78987e-17
5304.20439 1.71894e-17
5305.67659 1.68151e-17
5307.14880 1.71346e-17
5308.62100 1.77218e-17
5310.08320 1.77869e-17
5311.55540 1.79391e-17
5313.02761 1.66536e-17
5314.49981 1.60631e-17
5315.97202 1.72834e-17
5317.43421 1.73285e-17
5318.90641 1.69828e-17
5320.37862 1.74066e-17
5321.85082 1.73349e-17
5323.31301 1.58938e-17
5324.78522 1.60728e-17
5326.25742 1.59448e-17
5327.72962 1.60764e-17
5329.20183 1.59894e-17
5330.66402 1.67835e-17
5332.13623 1.75618e-17
5333.60843 1.60017e-17
5335.08064 1.66263e-17
5336.54283 1.69753e-17
5338.01503 1.52829e-17
5339.48724 1.41556e-17
5340.95944 1.52579e-17
5342.43165 1.51172e-17
5343.89384 1.46118e-17
5345.36604 1.52865e-17
5346.83824 1.50542e-17
5348.31045 1.36230e-17
5349.77264 1.44370e-17
5351.24485 1.47454e-17
5352.71705 1.41704e-17
5354.18926 1.40861e-17
5355.66146 1.33067e-17
5357.12365 1.35772e-17
5358.59585 1.31845e-17
5360.06806 1.21345e-17
5361.54027 1.27190e-17
5363.00246 1.26091e-17
5364.47466 1.27134e-17
5365.94686 1.32232e-17
5367.41907 1.39497e-17
5368.88126 1.40032e-17
5370.35347 1.14343e-17
5371.82567 1.14605e-17
5373.29788 1.28534e-17
5374.77008 1.24383e-17
5376.23227 1.22825e-17
5377.70447 1.22058e-17
5379.17668 1.06343e-17
5380.64889 1.18977e-17
5382.11108 1.27244e-17
5383.58328 1.18402e-17
5385.05548 1.18701e-17
5386.52769 1.22142e-17
5387.99990 1.15600e-17
5389.46209 1.17371e-17
5390.93429 1.20588e-17
5392.40650 1.16348e-17
5393.87870 1.21392e-17
5395.34089 1.20803e-17
5396.81309 1.08330e-17
5398.28530 1.02797e-17
5399.75751 1.11803e-17
5401.21970 1.11503e-17
5402.69190 1.20474e-17
5404.16410 1.23819e-17
5405.63631 1.07314e-17
5407.10852 1.00480e-17
5408.57071 1.13893e-17
5410.04291 1.16815e-17
5411.51512 1.15056e-17
5412.98732 1.11361e-17
5414.44951 1.10567e-17
5415.92172 1.12797e-17
5417.39392 1.14819e-17
5418.86613 1.22998e-17
5420.33833 1.20927e-17
5421.80052 1.02555e-17
5423.27272 1.02964e-17
5424.74493 1.13762e-17
5426.21714 1.17327e-17
5427.67933 1.21046e-17
5429.15153 1.11470e-17
5430.62374 1.08005e-17
5432.09594 1.19638e-17
5433.55813 1.11250e-17
5435.03034 1.10028e-17
5436.50254 1.18303e-17
5437.97475 1.19884e-17
5439.44695 1.20685e-17
5440.90914 1.13828e-17
5442.38134 1.10695e-17
5443.85355 1.22424e-17
5445.32576 1.27564e-17
5446.78795 1.15255e-17
5448.26015 1.13940e-17
5449.73236 1.10431e-17
5451.20456 1.11511e-17
5452.67677 1.15251e-17
5454.13896 1.18745e-17
5455.61116 1.20901e-17
5457.08337 1.17171e-17
5458.55557 1.24028e-17
5460.01776 1.13532e-17
5461.48997 1.21591e-17
5462.96217 1.35553e-17
5464.43438 1.20228e-17
5465.90658 1.14642e-17
5467.36877 1.17305e-17
5468.84098 1.20991e-17
5470.31318 1.23345e-17
5471.78539 1.19955e-17
5473.24758 1.18662e-17
5474.71978 1.17410e-17
5476.19199 1.23188e-17
5477.66419 1.19431e-17
5479.13640 1.05982e-17
5480.59859 1.09265e-17
5482.07079 1.17669e-17
5483.54299 1.13447e-17
5485.01520 1.20955e-17
5486.47739 1.16379e-17
5487.94960 1.08966e-17
5489.42180 1.06564e-17
5490.89401 1.12243e-17
5492.35620 1.18013e-17
5493.82840 1.11451e-17
5495.30061 1.11587e-17
5496.77281 1.23478e-17
5498.24502 1.19885e-17
5499.70721 1.10500e-17
5501.17941 1.16054e-17
5502.65161 1.22415e-17
5504.12382 1.20069e-17
5505.58601 1.24406e-17
5507.05822 1.28325e-17
5508.53042 1.27105e-17
5510.00263 1.13495e-17
5511.47483 1.08750e-17
5512.93702 1.24037e-17
5514.40923 1.28700e-17
5515.88143 1.19371e-17
5517.35364 1.08087e-17
5518.81583 9.95331e-18
5520.28803 1.04388e-17
5521.76023 1.11548e-17
5523.23244 1.12727e-17
5524.69463 1.09680e-17
5526.16684 1.13630e-17
5527.63904 1.12778e-17
5529.11125 1.14880e-17
5530.58345 1.12345e-17
5532.04564 9.65942e-18
5533.51785 9.40910e-18
5534.99005 1.02871e-17
5536.46226 1.16825e-17
5537.92445 1.11651e-17
5539.39665 1.03072e-17
5540.86885 1.07643e-17
5542.34106 1.06708e-17
5543.81327 1.03552e-17
5545.27546 1.06859e-17
5546.74766 1.05956e-17
5548.21987 9.72085e-18
5549.69207 9.35875e-18
5551.15426 1.04655e-17
5552.62647 1.08700e-17
5554.09867 1.08564e-17
5555.57088 1.12056e-17
5557.03307 9.22295e-18
5558.50527 8.47966e-18
5559.97747 9.30373e-18
5561.44968 9.72554e-18
5562.92189 9.89876e-18
5564.38408 8.95580e-18
5565.85628 8.57816e-18
5567.32849 9.21291e-18
5568.80069 9.66660e-18
5570.27290 9.35374e-18
5571.73509 8.06225e-18
5573.20729 8.13266e-18
5574.67950 8.20307e-18
5576.15170 8.27348e-18
5577.61389 8.34388e-18
5579.08609 8.41428e-18
5580.55830 8.48467e-18
5582.03051 8.55506e-18
5583.49270 8.62544e-18
5584.96490 8.69582e-18
5586.43710 8.69553e-18
5587.90931 9.09723e-18
5589.38152 9.23216e-18
5590.84371 1.00954e-17
5592.31591 1.05008e-17
5593.78812 1.08515e-17
5595.26032 1.00184e-17
5596.72251 9.31229e-18
5598.19472 9.75551e-18
5599.66692 9.53908e-18
5601.13913 9.18013e-18
5602.61133 9.79608e-18
5604.07352 1.03791e-17
5605.54572 1.05599e-17
5607.01793 1.02862e-17
5608.49014 9.77820e-18
5609.95233 9.52739e-18
5611.42453 1.04527e-17
5612.89674 1.17107e-17
5614.36894 1.18133e-17
5615.83113 1.17004e-17
5617.30334 1.18623e-17
5618.77554 1.20724e-17
5620.24775 1.20908e-17
5621.71995 1.18527e-17
5623.18214 1.12959e-17
5624.65434 1.14504e-17
5626.12655 1.20898e-17
5627.59875 1.14041e-17
5629.06095 1.02380e-17
5630.53315 1.08275e-17
5632.00536 1.09371e-17
5633.47756 1.10063e-17
5634.94977 1.27237e-17
5636.41196 1.25405e-17
5637.88416 1.18036e-17
5639.35637 1.29869e-17
5640.82857 1.32894e-17
5642.29076 1.24600e-17
5643.76297 1.15888e-17
5645.23517 1.20385e-17
5646.70737 1.27942e-17
5648.16957 1.11819e-17
5649.64177 1.09711e-17
5651.11398 1.20357e-17
5652.58618 1.20954e-17
5654.05839 1.23683e-17
5655.52058 1.24569e-17
5656.99278 1.30926e-17
5658.46499 1.41846e-17
5659.93719 1.39689e-17
5661.39938 1.26144e-17
5662.87159 1.21908e-17
5664.34379 1.24617e-17
5665.81599 1.19368e-17
5667.28820 1.27172e-17
5668.75039 1.37132e-17
5670.22260 1.26128e-17
5671.69480 1.19429e-17
5673.16701 1.26840e-17
5674.62920 1.30955e-17
5676.10140 1.28319e-17
5677.57360 1.23268e-17
5679.04581 1.16018e-17
5680.51802 1.26997e-17
5681.98021 1.43757e-17
5683.45241 1.40009e-17
5684.92461 1.40097e-17
5686.39682 1.39605e-17
5687.85901 1.33957e-17
5689.33122 1.42568e-17
5690.80342 1.42029e-17
5692.27563 1.36863e-17
5693.74783 1.33457e-17
5695.21002 1.30585e-17
5696.68222 1.42161e-17
5698.15443 1.41809e-17
5699.62664 1.42161e-17
5701.08883 1.55257e-17
5702.56103 1.48327e-17
5704.03323 1.39652e-17
5705.50544 1.28065e-17
5706.96763 1.30521e-17
5708.43984 1.42326e-17
5709.91204 1.47972e-17
5711.38425 1.39031e-17
5712.85645 1.29092e-17
5714.31864 1.30013e-17
5715.79084 1.39674e-17
5717.26305 1.45822e-17
5718.73526 1.49081e-17
5720.19745 1.43137e-17
5721.66965 1.31763e-17
5723.14185 1.36277e-17
5724.61406 1.38282e-17
5726.08627 1.28871e-17
5727.54846 1.25850e-17
5729.02066 1.27153e-17
5730.49287 1.35996e-17
5731.96507 1.39081e-17
5733.42726 1.34170e-17
5734.89947 1.34896e-17
5736.37167 1.27746e-17
5737.84388 1.23548e-17
5739.30607 1.28424e-17
5740.77827 1.36408e-17
5742.25047 1.28681e-17
5743.72268 1.20895e-17
5745.19489 1.35860e-17
5746.65708 1.34410e-17
5748.12928 1.26911e-17
5749.60149 1.40899e-17
5751.07369 1.39397e-17
5752.53588 1.36149e-17
5754.00809 1.34765e-17
5755.48029 1.33793e-17
5756.95250 1.24322e-17
5758.42470 1.17990e-17
5759.88689 1.22158e-17
5761.35909 1.29500e-17
5762.83130 1.32536e-17
5764.30351 1.34876e-17
5765.76570 1.32840e-17
5767.23790 1.25484e-17
5768.71011 1.32889e-17
5770.18231 1.15188e-17
5771.65452 1.21318e-17
5773.11671 1.39025e-17
5774.58891 1.28467e-17
5776.06112 1.32204e-17
5777.53332 1.41877e-17
5778.99551 1.35906e-17
5780.46772 1.29828e-17
5781.93992 1.29400e-17
5783.41213 1.37296e-17
5784.87432 1.38026e-17
5786.34652 1.30062e-17
5787.81873 1.43269e-17
5789.29093 1.45115e-17
5790.76314 1.37256e-17
5792.22533 1.28005e-17
5793.69753 1.21047e-17
5795.16974 1.21522e-17
5796.64194 1.33670e-17
5798.10413 1.33384e-17
5799.57634 1.21676e-17
5801.04854 1.28261e-17
5802.52074 1.40318e-17
5803.99295 1.33802e-17
5805.45514 1.31604e-17
5806.92735 1.34463e-17
5808.39955 1.30366e-17
5809.87176 1.23245e-17
5811.33395 1.28976e-17
5812.80615 1.33252e-17
5814.27836 1.31453e-17
5815.75056 1.35102e-17
5817.22277 1.27780e-17
5818.68496 1.23657e-17
5820.15716 1.18836e-17
5821.62936 1.22571e-17
5823.10157 1.22888e-17
5824.56376 1.10422e-17
5826.03597 1.14395e-17
5827.50817 1.27727e-17
5828.98038 1.22513e-17
5830.44257 1.20359e-17
5831.91477 1.28154e-17
5833.38698 1.25548e-17
5834.85918 1.29823e-17
5836.33139 1.19721e-17
5837.79358 1.18185e-17
5839.26578 1.09603e-17
5840.73798 1.16645e-17
5842.21019 1.15236e-17
5843.67238 1.15322e-17
5845.14459 1.08352e-17
5846.61679 1.19728e-17
5848.08900 1.24053e-17
5849.56120 1.12665e-17
5851.02339 1.12493e-17
5852.49560 1.15535e-17
5853.96780 1.09111e-17
5855.44001 1.23591e-17
5856.90220 1.11489e-17
5858.37440 1.07339e-17
5859.84660 1.04925e-17
5861.31881 1.03440e-17
5862.79102 1.07863e-17
5864.25321 9.91234e-18
5865.72541 1.06550e-17
5867.19762 1.13819e-17
5868.66982 1.07561e-17
5870.13201 1.01726e-17
5871.60422 1.01578e-17
5873.07642 9.91731e-18
5874.54863 1.05071e-17
5876.01082 1.04940e-17
5877.48302 9.76582e-18
5878.95522 9.46698e-18
5880.42743 9.86128e-18
5881.89964 1.04982e-17
5883.36183 1.17355e-17
5884.83403 1.16800e-17
5886.30624 1.10696e-17
5887.77844 1.04044e-17
5889.24063 1.02759e-17
5890.71284 1.23210e-17
5892.18504 1.17863e-17
5893.65725 1.04154e-17
5895.12945 1.00541e-17
5896.59164 1.11564e-17
5898.06384 1.12941e-17
5899.53605 1.07959e-17
5901.00826 1.07989e-17
5902.47045 1.06561e-17
5903.94265 1.05930e-17
5905.41485 9.62041e-18
5906.88706 1.03752e-17
5908.34925 1.12122e-17
5909.82146 1.07471e-17
5911.29366 1.00570e-17
5912.76587 9.70582e-18
5914.23807 1.02341e-17
5915.70026 1.06042e-17
5917.17247 1.07652e-17
5918.64467 1.08122e-17
5920.11688 1.14239e-17
5921.57907 1.13258e-17
5923.05127 1.08408e-17
5924.52347 1.20153e-17
5925.99568 1.20996e-17
5927.46789 1.17660e-17
5928.93008 1.23378e-17
5930.40228 1.19863e-17
5931.87449 1.11265e-17
5933.34669 1.16597e-17
5934.80888 1.23404e-17
5936.28109 1.14378e-17
5937.75329 1.18211e-17
5939.22550 1.21970e-17
5940.69770 1.15362e-17
5942.15989 1.10804e-17
5943.63209 1.20475e-17
5945.10430 1.21249e-17
5946.57650 1.12421e-17
5948.03870 1.17800e-17
5949.51090 1.26151e-17
5950.98311 1.17364e-17
5952.45531 1.31406e-17
5953.92752 1.24003e-17
5955.38971 1.20169e-17
5956.86191 1.14703e-17
5958.33412 1.19030e-17
5959.80632 1.26620e-17
5961.26851 1.28685e-17
5962.74072 1.28858e-17
5964.21292 1.14155e-17
5965.68512 1.20459e-17
5967.14732 1.18766e-17
5968.61952 1.40261e-17
5970.09173 1.21193e-17
5971.56393 1.20605e-17
5973.03614 1.22510e-17
5974.49833 1.41538e-17
5975.97053 1.50488e-17
5977.44274 1.31146e-17
5978.91494 1.29711e-17
5980.37713 1.27382e-17
5981.84934 1.16937e-17
5983.32154 1.32847e-17
5984.79374 1.18965e-17
5986.26595 1.21946e-17
5987.72814 1.20084e-17
5989.20035 1.40224e-17
5990.67255 1.31625e-17
5992.14476 1.35394e-17
5993.60695 1.27000e-17
5995.07915 1.28644e-17
5996.55135 1.26102e-17
5998.02356 1.38945e-17
5999.48575 1.30938e-17
6000.95796 1.31041e-17
6002.43016 1.35313e-17
6003.90236 1.27105e-17
6005.37457 1.12056e-17
6006.83676 1.14457e-17
6008.30897 1.22725e-17
6009.78117 1.31150e-17
6011.25338 1.28744e-17
6012.71557 1.26499e-17
6014.18777 1.24569e-17
6015.65997 1.38619e-17
6017.13218 1.31935e-17
6018.60439 1.27861e-17
6020.06658 1.35316e-17
6021.53878 1.24526e-17
6023.01098 1.23596e-17
6024.48319 1.18452e-17
6025.94538 1.15358e-17
6027.41759 1.17686e-17
6028.88979 1.24564e-17
6030.36200 1.22843e-17
6031.82419 1.25516e-17
6033.29639 1.24199e-17
6034.76859 1.23864e-17
6036.24080 1.15105e-17
6037.71301 1.29567e-17
6039.17520 1.25022e-17
6040.64740 1.13057e-17
6042.11960 1.09656e-17
6043.59181 1.16010e-17
6045.05400 1.34302e-17
6046.52621 1.30474e-17
6047.99841 1.17509e-17
6049.47062 1.25232e-17
6050.94282 1.33329e-17
6052.40501 1.24207e-17
6053.87722 1.28175e-17
6055.34942 1.29776e-17
6056.82163 1.17866e-17
6058.28382 1.14160e-17
6059.75602 1.27703e-17
6061.22822 1.29012e-17
6062.70043 1.28592e-17
6064.17264 1.15538e-17
6065.63483 1.17524e-17
6067.10703 1.38413e-17
6068.57924 1.38051e-17
6070.05144 1.24861e-17
6071.51363 1.29050e-17
6072.98584 1.21823e-17
6074.45804 1.06431e-17
6075.93025 1.21036e-17
6077.40245 1.22483e-17
6078.86464 1.11300e-17
6080.33684 1.14530e-17
6081.80905 1.15994e-17
6083.28126 1.15250e-17
6084.74345 1.15778e-17
6086.21565 1.12462e-17
6087.68786 1.00389e-17
6089.16006 1.09851e-17
6090.62225 1.15054e-17
6092.09446 1.12034e-17
6093.56666 1.02129e-17
6095.03887 1.12128e-17
6096.51107 1.17511e-17
6097.97326 1.14328e-17
6099.44547 1.13010e-17
6100.91767 1.05304e-17
6102.38988 1.06311e-17
6103.85207 1.06864e-17
6105.32427 1.06936e-17
6106.79648 1.08145e-17
6108.26868 1.13851e-17
6109.74089 1.05796e-17
6111.20308 9.86224e-18
6112.67528 1.10804e-17
6114.14749 1.03470e-17
6115.61969 1.06941e-17
6117.08188 1.06697e-17
6118.55409 9.44214e-18
6120.02629 9.58844e-18
6121.49849 9.36296e-18
6122.96069 9.02415e-18
6124.43289 8.99845e-18
6125.90510 9.19782e-18
6127.37730 9.39338e-18
6128.84951 8.68842e-18
6130.31170 7.98750e-18
6131.78390 8.78418e-18
6133.25611 9.28142e-18
6134.72831 8.99601e-18
6136.19050 9.50762e-18
6137.66271 9.60445e-18
6139.13491 9.12108e-18
6140.60711 9.35608e-18
6142.07932 9.64299e-18
6143.54151 9.14529e-18
6145.01372 8.68184e-18
6146.48592 7.83783e-18
6147.95813 7.96178e-18
6149.42032 8.65668e-18
6150.89252 7.96963e-18
6152.36473 7.91780e-18
6153.83693 7.80330e-18
6155.29912 7.83844e-18
6156.77133 7.80561e-18
6158.24353 7.52333e-18
6159.71573 6.77062e-18
6161.18794 7.24225e-18
6162.65013 7.20494e-18
6164.12234 7.30922e-18
6165.59454 8.45987e-18
6167.06675 7.31967e-18
6168.52894 5.70972e-18
6170.00114 6.13302e-18
6171.47335 6.03099e-18
6172.94555 6.67547e-18
6174.41776 7.18386e-18
6175.87995 7.25185e-18
6177.35215 7.57316e-18
6178.82435 7.13368e-18
6180.29656 6.25630e-18
6181.75875 6.11753e-18
6183.23096 6.83743e-18
6184.70316 7.21485e-18
6186.17537 5.99267e-18
6187.64757 5.87139e-18
6189.10976 5.94361e-18
6190.58197 5.82582e-18
6192.05417 5.83730e-18
6193.52638 5.54367e-18
6194.98857 6.19446e-18
6196.46077 5.23433e-18
6197.93297 5.48015e-18
6199.40518 5.08741e-18
6200.87739 5.54795e-18
6202.33958 6.29098e-18
6203.81178 5.45435e-18
6205.28399 5.48517e-18
6206.75619 5.58467e-18
6208.21838 5.10024e-18
6209.69059 4.40246e-18
6211.16279 4.91182e-18
6212.63500 5.36643e-18
6214.09719 4.61355e-18
6215.56939 4.59989e-18
6217.04159 4.10062e-18
6218.51380 3.90519e-18
6219.98601 4.08172e-18
6221.44820 3.91490e-18
6222.92040 3.40730e-18
6224.39261 3.08004e-18
6225.86481 4.13828e-18
6227.32700 4.53004e-18
6228.79921 4.71285e-18
6230.27141 3.66654e-18
6231.74362 4.46603e-18
6233.21582 4.11169e-18
6234.67801 3.57821e-18
6236.15022 4.19735e-18
6237.62242 3.81764e-18
6239.09463 3.73888e-18
6240.55682 2.80906e-18
6242.02902 3.46413e-18
6243.50122 3.51018e-18
6244.97343 3.31162e-18
6246.43562 3.56662e-18
6247.90783 3.44623e-18
6249.38003 3.24623e-18
6250.85224 4.09180e-18
6252.32444 4.38516e-18
6253.78663 4.46276e-18
6255.25884 3.20810e-18
6256.73104 2.83902e-18
6258.20325 2.83970e-18
6259.66543 3.89777e-18
6261.13764 3.44726e-18
6262.60984 3.71591e-18
6264.08205 3.47375e-18
6265.55426 3.55613e-18
6267.01645 4.42236e-18
6268.48865 3.55574e-18
6269.96086 3.43649e-18
6271.43306 3.34418e-18
6272.89525 3.45516e-18
6274.36746 4.53767e-18
6275.83966 4.18417e-18
6277.31187 3.48692e-18
6278.78407 3.87144e-18
6280.24626 4.03822e-18
6281.71847 3.41685e-18
6283.19067 3.52300e-18
6284.66287 4.48536e-18
6286.12507 5.21625e-18
6287.59727 4.59870e-18
6289.06948 3.68318e-18
6290.54168 3.50346e-18
6292.00387 4.09621e-18
6293.47608 4.70076e-18
6294.94828 4.63150e-18
6296.42049 4.41324e-18
6297.89269 5.02559e-18
6299.35488 4.49350e-18
6300.82709 4.30786e-18
6302.29929 4.17928e-18
6303.77149 4.42433e-18
6305.23369 5.08914e-18
6306.70589 5.44350e-18
6308.17810 6.00836e-18
6309.65030 5.85571e-18
6311.12251 6.18325e-18
6312.58470 6.49207e-18
6314.05690 6.27656e-18
6315.52910 5.77903e-18
6317.00131 5.77888e-18
6318.46350 5.76651e-18
6319.93571 5.42751e-18
6321.40791 5.23222e-18
6322.88011 5.94009e-18
6324.35232 6.77973e-18
6325.81451 6.85632e-18
6327.28672 6.88300e-18
6328.75892 6.43067e-18
6330.23113 6.66603e-18
6331.69332 7.47847e-18
6333.16552 6.92411e-18
6334.63772 6.22948e-18
6336.10993 6.72117e-18
6337.57212 7.29542e-18
6339.04433 7.43431e-18
6340.51653 7.07600e-18
6341.98873 7.02462e-18
6343.46094 7.42039e-18
6344.92313 7.22735e-18
6346.39534 7.66255e-18
6347.86754 8.59501e-18
6349.33975 8.16423e-18
6350.80194 7.65313e-18
6352.27414 7.67954e-18
6353.74634 7.14693e-18
6355.21855 7.78305e-18
6356.69076 8.40564e-18
6358.15295 8.15901e-18
6359.62515 7.94255e-18
6361.09735 7.99576e-18
6362.56956 8.60005e-18
6364.03175 9.51986e-18
6365.50396 9.00547e-18
6366.97616 7.67160e-18
6368.44837 7.38959e-18
6369.92057 8.13197e-18
6371.38276 8.63284e-18
6372.85497 9.24956e-18
6374.32717 9.59572e-18
6375.79938 9.38415e-18
6377.26157 9.72818e-18
6378.73377 9.88528e-18
6380.20597 9.28210e-18
6381.67818 8.62761e-18
6383.14037 8.69269e-18
6384.61258 9.57681e-18
6386.08478 8.76363e-18
6387.55699 8.84238e-18
6389.02919 9.29846e-18
6390.49138 8.85646e-18
6391.96359 8.93479e-18
6393.43579 8.56977e-18
6394.90800 8.93795e-18
6396.37019 8.67305e-18
6397.84239 8.92105e-18
6399.31459 1.01922e-17
6400.78680 9.83522e-18
6402.25901 9.53504e-18
6403.72120 9.68893e-18
6405.19340 9.86464e-18
6406.66561 1.06154e-17
6408.13781 1.02766e-17
6409.60000 9.35614e-18
6411.07221 9.27252e-18
6412.54441 9.63271e-18
6414.01662 9.87081e-18
6415.48882 9.50616e-18
6416.95101 8.78201e-18
6418.42322 1.00515e-17
6419.89542 1.09250e-17
6421.36763 1.02807e-17
6422.82982 1.00846e-17
6424.30202 1.04259e-17
6425.77423 9.56234e-18
6427.24643 9.67687e-18
6428.70862 1.03029e-17
6430.18083 1.03213e-17
6431.65303 9.68362e-18
6433.12524 9.45081e-18
6434.59744 1.00776e-17
6436.05963 1.06332e-17
6437.53184 1.05737e-17
6439.00404 1.00678e-17
6440.47625 9.61546e-18
6441.93844 9.71691e-18
6443.41064 1.04665e-17
6444.88285 9.79859e-18
6446.35505 8.75798e-18
6447.82726 9.13966e-18
6449.28945 1.00561e-17
6450.76165 1.02442e-17
6452.23386 9.83897e-18
6453.70606 9.79246e-18
6455.16825 1.02505e-17
6456.64046 1.00188e-17
6458.11266 9.24797e-18
6459.58486 1.00751e-17
6461.05707 1.06443e-17
6462.51926 9.36448e-18
6463.99147 9.17777e-18
6465.46367 1.08265e-17
6466.93588 1.08536e-17
6468.39807 9.35961e-18
6469.87027 9.83289e-18
6471.34248 1.04715e-17
6472.81468 1.05266e-17
6474.27687 1.03138e-17
6475.74908 9.53997e-18
6477.22128 1.00142e-17
6478.69348 1.08579e-17
6480.16569 9.57622e-18
6481.62788 8.58475e-18
6483.10009 9.28570e-18
6484.57229 8.96955e-18
6486.04450 9.04675e-18
6487.50669 1.00056e-17
6488.97889 1.08468e-17
6490.45110 1.06457e-17
6491.92330 1.01420e-17
6493.39551 9.61029e-18
6494.85770 9.22066e-18
6496.32990 1.01669e-17
6497.80210 1.04068e-17
6499.27431 1.00377e-17
6500.73650 9.41755e-18
6502.20871 8.86746e-18
6503.68091 9.46593e-18
6505.15312 1.03850e-17
6506.62532 9.61178e-18
6508.08751 8.71171e-18
6509.55972 9.59103e-18
6511.03192 1.00480e-17
6512.50413 9.85732e-18
6513.96632 1.03136e-17
6515.43852 1.08867e-17
6516.91072 1.06380e-17
6518.38293 9.87117e-18
6519.84512 9.67116e-18
6521.31733 9.88801e-18
6522.78953 9.85592e-18
6524.26174 9.84351e-18
6525.73394 1.02323e-17
6527.19613 1.01891e-17
6528.66834 9.48778e-18
6530.14054 9.28088e-18
6531.61275 9.41617e-18
6533.07494 9.99073e-18
6534.54714 1.07714e-17
6536.01934 1.07279e-17
6537.49155 1.03992e-17
6538.96376 1.01129e-17
6540.42595 1.02962e-17
6541.89815 1.09023e-17
6543.37036 1.08420e-17
6544.84256 1.07817e-17
6546.30475 1.07214e-17
6547.77696 1.06611e-17
6549.24916 1.06008e-17
6550.72137 1.05405e-17
6552.19357 1.04802e-17
6553.65576 1.04199e-17
6555.12797 1.03596e-17
6556.60017 1.02993e-17
6558.07238 1.02390e-17
6559.53457 1.01787e-17
6561.00677 1.01184e-17
6562.47897 1.00581e-17
6563.95118 9.99785e-18
6565.41337 9.93757e-18
6566.88558 9.87731e-18
6568.35778 9.81702e-18
6569.82999 9.75676e-18
6571.30219 9.69649e-18
6572.76438 9.63622e-18
6574.23659 9.57596e-18
6575.70879 9.51568e-18
6577.18100 9.45543e-18
6578.64318 9.39518e-18
6580.11539 9.33492e-18
6581.58759 9.27467e-18
6583.05980 9.21444e-18
6584.53201 9.15417e-18
6585.99420 9.09394e-18
6587.46640 9.03368e-18
6588.93861 8.97344e-18
6590.41081 8.91322e-18
6591.87300 8.85296e-18
6593.34521 8.79275e-18
6594.81741 8.73252e-18
6596.28962 8.67229e-18
6597.76182 8.61206e-18
6599.22401 8.55184e-18
6600.69622 8.49162e-18
6602.16842 8.43140e-18
6603.64062 8.37118e-18
6605.10282 9.05779e-18
6606.57502 9.47557e-18
6608.04723 9.33413e-18
6609.51943 9.69991e-18
6610.98162 9.41491e-18
6612.45383 7.74574e-18
6613.92603 7.80252e-18
6615.39824 8.98509e-18
6616.87044 9.16153e-18
6618.33263 9.13713e-18
6619.80484 9.55323e-18
6621.27704 9.38359e-18
6622.74924 9.18106e-18
6624.21144 8.41118e-18
6625.68364 7.96765e-18
6627.15585 8.39871e-18
6628.62805 9.21297e-18
6630.10026 8.96716e-18
6631.56245 8.70458e-18
6633.03465 9.91513e-18
6634.50685 8.52447e-18
6635.97906 8.24656e-18
6637.44125 8.95777e-18
6638.91346 8.87389e-18
6640.38566 8.66040e-18
6641.85786 8.67338e-18
6643.33007 8.09176e-18
6644.79226 8.47349e-18
6646.26447 8.36685e-18
6647.73667 7.81833e-18
6649.20888 7.88873e-18
6650.67107 7.76364e-18
6652.14327 8.17724e-18
6653.61547 8.42233e-18
6655.08768 7.68728e-18
6656.54987 9.00001e-18
6658.02208 9.25296e-18
6659.49428 8.42806e-18
6660.96648 7.81370e-18
6662.43869 8.21218e-18
6663.90088 9.11979e-18
6665.37309 8.52542e-18
6666.84529 8.50366e-18
6668.31750 8.11951e-18
6669.77969 7.38881e-18
6671.25189 7.15053e-18
6672.72409 7.67313e-18
6674.19630 7.92049e-18
6675.66851 7.40957e-18
6677.13070 7.84499e-18
6678.60290 7.62651e-18
6680.07510 7.26857e-18
6681.54731 8.22606e-18
6683.00950 7.87052e-18
6684.48171 8.07202e-18
6685.95391 8.24435e-18
6687.42612 7.87831e-18
6688.89832 8.20126e-18
6690.36051 8.18467e-18
6691.83272 8.29179e-18
6693.30492 8.03905e-18
6694.77713 8.13916e-18
6696.23932 7.93423e-18
6697.71152 7.92911e-18
6699.18372 7.00169e-18
6700.65593 6.20007e-18
6702.11812 6.69348e-18
6703.59033 7.92322e-18
6705.06253 8.08512e-18
6706.53474 7.58318e-18
6708.00694 7.33467e-18
6709.46913 6.90781e-18
6710.94134 6.55552e-18
6712.41354 6.64905e-18
6713.88575 6.77402e-18
6715.34794 6.88233e-18
6716.82014 7.57468e-18
6718.29234 7.40581e-18
6719.76455 7.00268e-18
6721.23676 7.21673e-18
6722.69895 7.00957e-18
6724.17115 6.99811e-18
6725.64336 7.43864e-18
6727.11556 7.72107e-18
6728.57775 7.91005e-18
6730.04996 8.82342e-18
6731.52216 8.66967e-18
6732.99437 7.80815e-18
6734.46657 7.46037e-18
6735.92876 6.53461e-18
6737.40097 6.28059e-18
6738.87317 6.46362e-18
6740.34538 7.11853e-18
6741.80757 8.01088e-18
6743.27977 7.73284e-18
6744.75198 7.01420e-18
6746.22418 6.72221e-18
6747.68637 6.66048e-18
6749.15858 7.89722e-18
6750.63078 8.04072e-18
6752.10299 7.19435e-18
6753.57519 7.51028e-18
6755.03738 7.17189e-18
6756.50959 6.11456e-18
6757.98179 6.40169e-18
6759.45400 6.60006e-18
6760.91619 6.92167e-18
6762.38839 6.88183e-18
6763.86060 7.20782e-18
6765.33280 6.42922e-18
6766.80501 5.92209e-18
6768.26720 7.00505e-18
6769.73940 7.29186e-18
6771.21161 7.08902e-18
6772.68381 7.34791e-18
6774.14600 6.87504e-18
6775.61821 7.17928e-18
6777.09041 7.52680e-18
6778.56261 6.95505e-18
6780.02481 7.09746e-18
6781.49701 7.90787e-18
6782.96922 6.85793e-18
6784.44142 6.64277e-18
6785.91363 6.88153e-18
6787.37582 6.92609e-18
6788.84802 6.50035e-18
6790.32023 6.63861e-18
6791.79243 6.96026e-18
6793.25462 6.24398e-18
6794.72683 6.80368e-18
6796.19903 6.98747e-18
6797.67123 6.62626e-18
6799.14344 6.64077e-18
6800.60563 6.29824e-18
6802.07784 6.97376e-18
6803.55004 7.53746e-18
6805.02225 6.70768e-18
6806.48444 6.80378e-18
6807.95664 7.39576e-18
6809.42885 6.10337e-18
6810.90105 5.49076e-18
6812.37326 6.26665e-18
6813.83545 6.66871e-18
6815.30765 6.59318e-18
6816.77985 6.59217e-18
6818.25206 6.23262e-18
6819.71425 7.12229e-18
6821.18646 6.54440e-18
6822.65866 5.60626e-18
6824.13087 6.93925e-18
6825.60307 6.29773e-18
6827.06526 6.17275e-18
6828.53747 5.68949e-18
6830.00967 6.43151e-18
6831.48188 7.65732e-18
6832.94407 7.33999e-18
6834.41627 7.60204e-18
6835.88847 7.08913e-18
6837.36068 6.99109e-18
6838.82287 5.29722e-18
6840.29508 6.45960e-18
6841.76728 6.14324e-18
6843.23949 5.51234e-18
6844.71169 6.27403e-18
6846.17388 5.76581e-18
6847.64609 5.12787e-18
6849.11829 6.84275e-18
6850.59050 6.71790e-18
6852.05269 6.09483e-18
6853.52489 6.13795e-18
6854.99709 5.48893e-18
6856.46930 6.30126e-18
6857.94151 5.44440e-18
6859.40370 5.52623e-18
6860.87590 5.76167e-18
6862.34811 6.83194e-18
6863.82031 6.57168e-18
6865.28250 5.52365e-18
6866.75471 5.46500e-18
6868.22691 6.11346e-18
6869.69912 5.61552e-18
6871.16131 5.62106e-18
6872.63351 6.34918e-18
6874.10572 5.75466e-18
6875.57792 6.18031e-18
6877.05013 6.58688e-18
6878.51232 5.88111e-18
6879.98452 6.28555e-18
6881.45673 5.46939e-18
6882.92893 6.01663e-18
6884.39112 5.56758e-18
6885.86333 4.29781e-18
6887.33553 4.67081e-18
6888.80774 6.02384e-18
6890.27994 5.22428e-18
6891.74213 5.74167e-18
6893.21434 4.98346e-18
6894.68654 4.96159e-18
6896.15875 5.19568e-18
6897.62093 6.61055e-18
6899.09314 7.41782e-18
6900.56534 6.05402e-18
6902.03755 5.47977e-18
6903.49974 5.29440e-18
6904.97195 5.64671e-18
6906.44415 5.41301e-18
6907.91636 5.08542e-18
6909.38856 4.37799e-18
6910.85075 4.93520e-18
6912.32296 6.02843e-18
6913.79516 5.44340e-18
6915.26737 5.36751e-18
6916.72955 6.15512e-18
6918.20176 5.78768e-18
6919.67397 5.30125e-18
6921.14617 5.72643e-18
6922.61838 6.08961e-18
6924.08057 6.40485e-18
6925.55277 5.85875e-18
6927.02498 5.34769e-18
6928.49718 4.94376e-18
6929.95937 4.24949e-18
6931.43158 5.91191e-18
6932.90378 6.04486e-18
6934.37599 4.87854e-18
6935.84819 5.23119e-18
6937.31038 5.69397e-18
6938.78259 6.13452e-18
6940.25479 6.02141e-18
6941.72699 5.32891e-18
6943.18919 4.97000e-18
6944.66139 5.00429e-18
6946.13360 5.18478e-18
6947.60580 5.70526e-18
6949.07801 5.92274e-18
6950.54020 5.84371e-18
6952.01240 4.73881e-18
6953.48461 4.93181e-18
6954.95681 5.91687e-18
6956.41900 5.20052e-18
6957.89121 4.58114e-18
6959.36341 4.99762e-18
6960.83561 6.29505e-18
6962.29781 5.52855e-18
6963.77001 5.11575e-18
6965.24222 5.93204e-18
6966.71442 5.45336e-18
6968.18663 5.43546e-18
6969.64882 6.18136e-18
6971.12102 6.24653e-18
6972.59322 6.49250e-18
6974.06543 5.87869e-18
6975.52762 4.78502e-18
6976.99983 5.67630e-18
6978.47203 6.43211e-18
6979.94423 5.95750e-18
6981.41644 4.69257e-18
6982.87863 5.15565e-18
6984.35084 5.89076e-18
6985.82304 5.30757e-18
6987.29525 4.94048e-18
6988.75744 6.20444e-18
6990.22964 5.64375e-18
6991.70184 4.29464e-18
6993.17405 5.07443e-18
6994.63624 6.16942e-18
6996.10845 5.85685e-18
6997.58065 5.69931e-18
6999.05285 5.05375e-18
7000.52506 5.15433e-18
7001.98725 4.69791e-18
7003.45946 5.69722e-18
7004.93166 5.81963e-18
7006.40387 5.71853e-18
7007.86606 6.69034e-18
7009.33826 5.91284e-18
7010.81047 4.61385e-18
7012.28267 4.58275e-18
7013.75488 4.74731e-18
7015.21707 5.68642e-18
7016.68927 5.36378e-18
7018.16147 5.29031e-18
7019.63368 4.68697e-18
7021.09587 4.96671e-18
7022.56808 5.37897e-18
7024.04028 5.88543e-18
7025.51249 5.30569e-18
7026.97468 4.89575e-18
7028.44688 4.60406e-18
7029.91909 5.31825e-18
7031.39129 4.46736e-18
7032.86350 4.84829e-18
7034.32569 5.54051e-18
7035.79789 4.60846e-18
7037.27009 4.42657e-18
7038.74230 4.58177e-18
7040.21451 5.65709e-18
7041.67670 5.54823e-18
7043.14890 5.18502e-18
7044.62111 5.97160e-18
7046.09331 5.49339e-18
7047.55550 4.75002e-18
7049.02771 5.15616e-18
7050.49991 5.47672e-18
7051.97212 4.48589e-18
7053.43431 5.45988e-18
7054.90651 4.61695e-18
7056.37872 4.44442e-18
7057.85092 4.50922e-18
7059.32313 5.30813e-18
7060.78532 5.98990e-18
7062.25752 4.57825e-18
7063.72973 4.70413e-18
7065.20193 5.44161e-18
7066.66412 5.10666e-18
7068.13633 5.10218e-18
7069.60853 4.77294e-18
7071.08074 4.64532e-18
7072.55294 5.29596e-18
7074.01513 4.44120e-18
7075.48734 5.22209e-18
7076.95954 5.30831e-18
7078.43175 4.19858e-18
7079.89394 5.01659e-18
7081.36614 5.67374e-18
7082.83835 4.95165e-18
7084.31055 4.82305e-18
7085.77274 5.39887e-18
7087.24495 5.45178e-18
7088.71715 4.63660e-18
7090.18936 5.21167e-18
7091.66156 5.80328e-18
7093.12375 4.78735e-18
7094.59596 4.85874e-18
7096.06816 5.01425e-18
7097.54036 4.19821e-18
7099.00256 5.46649e-18
7100.47476 5.30543e-18
7101.94697 4.46793e-18
7103.41917 4.44429e-18
7104.89138 5.27993e-18
7106.35357 4.97958e-18
7107.82577 5.72576e-18
7109.29798 5.04144e-18
7110.77018 5.41888e-18
7112.23237 5.75333e-18
7113.70458 4.11483e-18
7115.17678 4.39830e-18
7116.64898 3.98568e-18
7118.11118 4.56749e-18
7119.58338 5.24480e-18
7121.05559 6.04882e-18
7122.52779 4.99860e-18
7124.00000 3.75915e-18
7125.46219 4.46943e-18
7126.93439 5.02725e-18
7128.40660 4.70880e-18
7129.87880 5.06388e-18
7131.34099 4.13709e-18
7132.81320 4.11808e-18
7134.28540 4.64257e-18
7135.75760 4.80582e-18
7137.22981 4.48856e-18
7138.69200 4.34153e-18
7140.16421 5.16798e-18
7141.63641 4.80814e-18
7143.10862 5.07522e-18
7144.57081 4.30681e-18
7146.04301 4.45689e-18
7147.51522 4.24249e-18
7148.98742 4.04281e-18
7150.45963 4.44842e-18
7151.92182 4.29172e-18
7153.39402 4.80046e-18
7154.86622 4.48739e-18
7156.33843 4.25835e-18
7157.80062 4.94465e-18
7159.27283 4.45503e-18
7160.74503 4.19517e-18
7162.21724 4.37846e-18
7163.68944 4.59101e-18
7165.15163 5.13956e-18
7166.62384 5.00884e-18
7168.09604 4.92755e-18
7169.56825 4.31187e-18
7171.03044 3.79703e-18
7172.50264 4.63832e-18
7173.97484 4.64245e-18
7175.44705 4.74411e-18
7176.90924 5.32503e-18
7178.38145 5.96863e-18
7179.85365 5.81401e-18
7181.32586 5.10316e-18
7182.79806 4.61253e-18
7184.26025 5.64512e-18
7185.73246 5.73223e-18
7187.20466 4.87832e-18
7188.67687 5.02247e-18
7190.13906 5.42496e-18
7191.61126 5.33065e-18
7193.08347 4.86739e-18
7194.55567 4.86106e-18
7196.02788 4.88422e-18
7197.49007 5.04925e-18
7198.96227 4.66087e-18
7200.43448 4.75616e-18
7201.90668 5.05544e-18
7203.36887 3.78169e-18
7204.84108 3.76564e-18
7206.31328 4.05812e-18
7207.78549 3.81789e-18
7209.24768 4.05803e-18
7210.71988 3.32658e-18
7212.19209 3.18889e-18
7213.66429 3.97895e-18
7215.13650 4.15019e-18
7216.59868 4.05046e-18
7218.07089 4.10587e-18
7219.54309 4.52897e-18
7221.01530 4.40438e-18
7222.47749 3.90967e-18
7223.94970 4.26536e-18
7225.42190 4.59318e-18
7226.89411 4.55922e-18
7228.36631 5.06562e-18
7229.82850 5.23218e-18
7231.30071 4.56501e-18
7232.77291 4.21197e-18
7234.24512 4.04543e-18
7235.70730 4.82821e-18
7237.17951 4.56026e-18
7238.65172 3.57546e-18
7240.12392 4.22167e-18
7241.59613 4.21314e-18
7243.05832 3.84928e-18
7244.53052 4.04183e-18
7246.00273 4.44204e-18
7247.47493 3.65425e-18
7248.93712 3.42434e-18
7250.40933 5.01143e-18
7251.88153 5.02033e-18
7253.35374 4.73018e-18
7254.81592 5.06538e-18
7256.28813 5.00603e-18
7257.76034 4.47943e-18
7259.23254 3.84377e-18
7260.70475 4.25485e-18
7262.16694 4.80530e-18
7263.63914 5.22579e-18
7265.11135 4.86459e-18
7266.58355 3.87916e-18
7268.04574 3.95260e-18
7269.51795 4.48405e-18
7270.99015 4.58356e-18
7272.46236 5.37766e-18
7273.93456 6.01329e-18
7275.39675 5.02264e-18
7276.86896 5.05314e-18
7278.34116 6.35613e-18
7279.81336 5.54528e-18
7281.27556 4.07698e-18
7282.74776 4.11037e-18
7284.21997 3.59473e-18
7285.69217 4.61784e-18
7287.16438 4.95137e-18
7288.62657 3.85088e-18
7290.09877 4.09279e-18
7291.57097 4.75342e-18
7293.04318 4.26023e-18
7294.50537 4.17522e-18
7295.97758 3.71308e-18
7297.44978 3.32847e-18
7298.92198 3.27948e-18
7300.38418 3.68666e-18
7301.85638 4.12723e-18
7303.32859 4.60489e-18
7304.80079 3.86018e-18
7306.27300 3.85492e-18
7307.73519 5.28921e-18
7309.20739 4.83713e-18
7310.67959 4.15530e-18
7312.15180 3.90393e-18
7313.61399 4.31373e-18
7315.08620 4.16585e-18
7316.55840 3.67102e-18
7318.03060 3.73376e-18
7319.50281 3.06385e-18
7320.96500 2.98364e-18
7322.43721 3.77964e-18
7323.90941 3.66694e-18
7325.38162 3.51574e-18
7326.84381 3.95510e-18
7328.31601 3.91917e-18
7329.78822 3.84373e-18
7331.26042 5.01335e-18
7332.73263 4.69306e-18
7334.19482 4.27278e-18
7335.66702 4.10675e-18
7337.13922 3.86243e-18
7338.61143 3.62963e-18
7340.07362 3.79447e-18
7341.54583 3.51182e-18
7343.01803 3.78669e-18
7344.49024 4.26258e-18
7345.95243 3.64819e-18
7347.42463 3.42309e-18
7348.89684 3.80124e-18
7350.36904 4.00168e-18
7351.84125 3.91362e-18
7353.30344 3.64555e-18
7354.77564 3.84925e-18
7356.24784 4.20239e-18
7357.72005 3.69195e-18
7359.18224 3.59105e-18
7360.65445 4.04479e-18
7362.12665 4.54835e-18
7363.59886 4.40740e-18
7365.07106 4.31637e-18
7366.53325 3.53576e-18
7368.00546 3.46617e-18
7369.47766 4.93459e-18
7370.94987 4.63318e-18
7372.41206 3.69338e-18
7373.88426 3.82189e-18
7375.35647 3.61571e-18
7376.82867 2.94093e-18
7378.29086 3.48516e-18
7379.76307 4.26309e-18
7381.23527 3.72759e-18
7382.70748 3.16016e-18
7384.17968 3.55820e-18
7385.64187 4.12136e-18
7387.11408 4.27476e-18
7388.58628 4.39838e-18
7390.05849 4.44408e-18
7391.52068 3.81009e-18
7392.99288 3.18854e-18
7394.46509 3.46009e-18
7395.93729 4.08941e-18
7397.40950 4.26935e-18
7398.87169 4.79206e-18
7400.34389 4.62115e-18
7401.81610 3.72812e-18
7403.28830 3.12590e-18
7404.75049 2.81609e-18
7406.22270 2.92240e-18
7407.69490 3.06377e-18
7409.16711 2.82208e-18
7410.63931 3.49638e-18
7412.10150 4.21136e-18
7413.57371 3.56206e-18
7415.04591 3.37606e-18
7416.51811 3.70589e-18
7417.98031 4.43009e-18
7419.45251 3.77326e-18
7420.92472 3.27602e-18
7422.39692 4.13057e-18
7423.86913 4.25951e-18
7425.33132 4.04352e-18
7426.80352 3.59798e-18
7428.27573 3.92904e-18
7429.74793 4.75603e-18
7431.21012 4.03055e-18
7432.68233 3.58169e-18
7434.15453 3.84042e-18
7435.62673 4.39561e-18
7437.08893 4.68152e-18
7438.56113 4.29199e-18
7440.03334 3.89337e-18
7441.50554 3.09946e-18
7442.97775 3.05972e-18
7444.43994 3.91578e-18
7445.91214 3.72767e-18
7447.38435 3.41573e-18
7448.85655 3.80587e-18
7450.31874 3.78996e-18
7451.79095 3.18192e-18
7453.26315 2.80102e-18
7454.73535 2.97019e-18
7456.20756 2.66923e-18
7457.66975 2.97426e-18
7459.14196 3.48409e-18
7460.61416 3.44773e-18
7462.08637 3.32801e-18
7463.54856 3.87869e-18
7465.02076 4.36533e-18
7466.49297 3.54376e-18
7467.96517 3.31507e-18
7469.42736 4.01404e-18
7470.89957 4.73675e-18
7472.37177 4.99910e-18
7473.84397 3.17078e-18
7475.31618 2.58322e-18
7476.77837 2.55668e-18
7478.25058 2.94618e-18
7479.72278 3.27656e-18
7481.19499 3.47750e-18
7482.65718 2.95924e-18
7484.12938 2.64310e-18
7485.60159 2.95675e-18
7487.07379 2.45626e-18
7488.54600 2.81670e-18
7490.00819 3.12489e-18
7491.48039 2.68058e-18
7492.95259 2.79795e-18
7494.42480 3.37900e-18
7495.88699 3.28473e-18
7497.35920 2.66490e-18
7498.83140 3.10609e-18
7500.30361 3.76440e-18
7501.76580 3.32206e-18
7503.23800 2.44632e-18
7504.71021 2.76146e-18
7506.18241 2.85531e-18
7507.65462 2.25193e-18
7509.11681 2.84181e-18
7510.58901 3.59279e-18
7512.06122 3.19302e-18
7513.53342 2.92916e-18
7514.99561 2.55841e-18
7516.46782 2.51640e-18
7517.94002 2.78554e-18
7519.41223 1.97968e-18
7520.88443 2.47823e-18
7522.34662 2.37761e-18
7523.81883 2.93529e-18
7525.29103 3.74972e-18
7526.76324 2.69260e-18
7528.22543 2.60114e-18
7529.69763 3.27744e-18
7531.16984 3.73154e-18
7532.64204 3.51581e-18
7534.11425 2.78797e-18
7535.57643 2.70427e-18
7537.04864 3.24082e-18
7538.52085 2.97829e-18
7539.99305 2.08347e-18
7541.45524 3.11764e-18
7542.92745 2.88018e-18
7544.39965 2.69306e-18
7545.87186 3.08255e-18
7547.34406 2.70462e-18
7548.80625 2.78139e-18
7550.27846 2.53567e-18
7551.75066 2.75126e-18
7553.22287 3.15228e-18
7554.68505 3.15816e-18
7556.15726 3.02127e-18
7557.62947 2.98684e-18
7559.10167 2.48008e-18
7560.56386 2.28065e-18
7562.03607 2.87517e-18
7563.50827 2.40550e-18
7564.98048 2.40760e-18
7566.45268 2.86317e-18
7567.91487 2.04743e-18
7569.38708 1.36314e-18
7570.85928 1.22410e-18
7572.33149 2.53049e-18
7573.79367 3.62328e-18
7575.26588 3.43502e-18
7576.73809 3.47777e-18
7578.21029 2.86656e-18
7579.68250 2.84124e-18
7581.14469 2.47104e-18
7582.61689 2.28377e-18
7584.08910 1.78505e-18
7585.56130 2.62272e-18
7587.02349 3.25780e-18
7588.49570 2.57568e-18
7589.96790 2.24400e-18
7591.44011 1.39568e-18
7592.90229 1.77717e-18
7594.37450 1.12667e-18
7595.84671 2.69854e-18
7597.31891 9.42621e-19
7598.79111 -1.01108e-18
7600.25331 -3.81811e-19
7601.72551 1.09315e-18
7603.19772 1.42312e-18
7604.66992 3.35061e-19
7606.13211 1.83832e-18
7607.60432 3.33338e-18
7609.07652 1.83489e-18
7610.54872 1.54886e-18
7612.02093 2.16507e-18
7613.48312 2.59082e-18
7614.95533 2.91292e-18
7616.42753 1.69742e-18
7617.89973 1.40326e-18
7619.36193 1.04819e-18
7620.83413 6.39350e-19
7622.30634 2.42157e-18
7623.77854 3.23012e-18
7625.24073 1.38296e-18
7626.71294 1.52943e-18
7628.18514 1.70532e-18
7629.65734 9.38421e-19
7631.12955 1.98892e-18
7632.59174 1.48490e-18
7633.10426 1.48490e-18
7633.96572 1.50782e-18
7634.82718 1.53073e-18
7635.68864 1.55212e-18
7636.55010 1.57351e-18
7637.41157 1.58915e-18
7638.27303 1.60479e-18
7639.13449 1.61257e-18
7639.99595 1.62033e-18
7640.85741 1.62763e-18
7641.71888 1.63493e-18
7642.59035 1.64908e-18
7643.45182 1.66325e-18
7644.31328 1.68739e-18
7645.17474 1.71154e-18
7646.03620 1.74699e-18
7646.89766 1.78246e-18
7647.75913 1.81966e-18
7648.62059 1.85686e-18
7649.48205 1.88374e-18
7650.34351 1.91060e-18
7651.20497 1.92460e-18
7652.06644 1.93857e-18
7652.93792 1.94103e-18
7653.79938 1.94346e-18
7654.66084 1.94362e-18
7655.52230 1.94378e-18
7656.38376 1.95594e-18
7657.24523 1.96812e-18
7658.10669 1.99458e-18
7658.96815 2.02107e-18
7659.82961 2.05400e-18
7660.69107 2.08693e-18
7661.55254 2.11965e-18
7662.42401 2.15236e-18
7663.28548 2.17882e-18
7664.14694 2.20528e-18
7665.00840 2.22513e-18
7665.86986 2.24497e-18
7666.73132 2.26967e-18
7667.59279 2.29439e-18
7668.45425 2.32927e-18
7669.31571 2.36416e-18
7670.17717 2.39834e-18
7671.03863 2.43252e-18
7671.91011 2.45724e-18
7672.77158 2.48193e-18
7673.63304 2.49559e-18
7674.49450 2.50919e-18
7675.35596 2.51239e-18
7676.21742 2.51556e-18
7677.07889 2.52122e-18
7677.94035 2.52687e-18
7678.80181 2.54791e-18
7679.66327 2.56899e-18
7680.52473 2.59780e-18
7681.38620 2.62661e-18
7682.25767 2.65114e-18
7683.11914 2.67569e-18
7683.98060 2.69590e-18
7684.84206 2.71612e-18
7685.70352 2.73542e-18
7686.56498 2.75471e-18
7687.42645 2.77389e-18
7688.28791 2.79304e-18
7689.14937 2.81236e-18
7690.01083 2.83168e-18
7690.88231 2.84930e-18
7691.74377 2.86693e-18
7692.60524 2.87913e-18
7693.46670 2.89136e-18
7694.32816 2.89906e-18
7695.18962 2.90676e-18
7696.05108 2.91564e-18
7696.91255 2.92453e-18
7697.77401 2.93675e-18
7698.63547 2.94895e-18
7699.49693 2.96162e-18
7700.35839 2.97425e-18
7701.22987 2.98493e-18
7702.09133 2.99561e-18
7702.95280 3.00287e-18
7703.81426 3.01009e-18
7704.67572 3.01292e-18
7705.53718 3.01570e-18
7706.39864 3.01430e-18
7707.26011 3.01287e-18
7708.12157 3.00849e-18
7708.98303 3.00411e-18
7709.84449 3.00183e-18
7710.71597 2.99958e-18
7711.57743 3.00396e-18
7712.43890 3.00837e-18
7713.30036 3.01832e-18
7714.16182 3.02829e-18
7715.02328 3.04134e-18
7715.88474 3.05439e-18
7716.74620 3.06652e-18
7717.60767 3.07868e-18
7718.46913 3.08555e-18
7719.33059 3.09245e-18
7720.20207 3.09378e-18
7721.06353 3.09511e-18
7721.92499 3.09248e-18
7722.78646 3.08984e-18
7723.64792 3.08594e-18
7724.50938 3.08204e-18
7725.37084 3.08052e-18
7726.23230 3.07897e-18
7727.09377 3.08098e-18
7727.95523 3.08301e-18
7728.81669 3.08737e-18
7729.67815 3.09175e-18
7730.54963 3.09821e-18
7731.41109 3.10470e-18
7732.27255 3.11463e-18
7733.13402 3.12453e-18
7733.99548 3.13632e-18
7734.85694 3.14809e-18
7735.71840 3.15537e-18
7736.57986 3.16264e-18
7737.44133 3.16179e-18
7738.30279 3.16094e-18
7739.17427 3.15458e-18
7740.03573 3.14821e-18
7740.89719 3.13971e-18
7741.75865 3.13121e-18
7742.62012 3.12564e-18
7743.48158 3.12008e-18
7744.34304 3.12155e-18
7745.20450 3.12303e-18
7746.06596 3.12877e-18
7746.92743 3.13451e-18
7747.78889 3.14065e-18
7748.65035 3.14680e-18
7749.52183 3.15201e-18
7750.38329 3.15719e-18
7751.24475 3.16043e-18
7752.10621 3.16368e-18
7752.96768 3.16499e-18
7753.82914 3.16627e-18
7754.69060 3.16634e-18
7755.55206 3.16639e-18
7756.41352 3.16436e-18
7757.27499 3.16230e-18
7758.13645 3.15644e-18
7759.00793 3.15061e-18
7759.86939 3.14264e-18
7760.73085 3.13465e-18
7761.59231 3.12857e-18
7762.45378 3.12250e-18
7763.31524 3.11928e-18
7764.17670 3.11603e-18
7765.03816 3.11356e-18
7765.89962 3.11109e-18
7766.76109 3.10775e-18
7767.62255 3.10441e-18
7768.49403 3.09899e-18
7769.35549 3.09354e-18
7770.21695 3.08594e-18
7771.07841 3.07831e-18
7771.93988 3.07110e-18
7772.80134 3.06391e-18
7773.66280 3.05902e-18
7774.52426 3.05413e-18
7775.38572 3.05054e-18
7776.24719 3.04698e-18
7777.10865 3.04393e-18
7777.98013 3.04091e-18
7778.84159 3.03885e-18
7779.70305 3.03679e-18
7780.56451 3.03614e-18
7781.42597 3.03548e-18
7782.28744 3.03611e-18
7783.14890 3.03674e-18
7784.01036 3.03839e-18
7784.87182 3.04004e-18
7785.73328 3.04248e-18
7786.59475 3.04493e-18
7787.46623 3.04788e-18
7788.32769 3.05086e-18
7789.18915 3.05350e-18
7790.05061 3.05611e-18
7790.91207 3.05744e-18
7791.77354 3.05875e-18
7792.63500 3.05827e-18
7793.49646 3.05778e-18
7794.35792 3.05534e-18
7795.21938 3.05287e-18
7796.08085 3.04960e-18
7796.94231 3.04633e-18
7797.81379 3.04432e-18
7798.67525 3.04234e-18
7799.53671 3.04318e-18
7800.39817 3.04405e-18
7801.25963 3.04880e-18
7802.12110 3.05357e-18
7802.98256 3.06141e-18
7803.84402 3.06928e-18
7804.70548 3.07625e-18
7805.56694 3.08325e-18
7806.42841 3.08650e-18
7807.29989 3.08974e-18
7808.16135 3.08957e-18
7809.02281 3.08940e-18
7809.88427 3.08637e-18
7810.74573 3.08332e-18
7811.60720 3.07805e-18
7812.46866 3.07274e-18
7813.33012 3.06616e-18
7814.19158 3.05957e-18
7815.05304 3.05289e-18
7815.91450 3.04621e-18
7816.78598 3.04054e-18
7817.64745 3.03488e-18
7818.50891 3.03159e-18
7819.37037 3.02829e-18
7820.23183 3.02844e-18
7821.09329 3.02861e-18
7821.95476 3.02975e-18
7822.81622 3.03091e-18
7823.67768 3.02936e-18
7824.53914 3.02781e-18
7825.40060 3.02311e-18
7826.27208 3.01839e-18
7827.13355 3.01166e-18
7827.99501 3.00495e-18
7828.85647 2.99713e-18
7829.71793 2.98934e-18
7830.57939 2.98140e-18
7831.44085 2.97346e-18
7832.30232 2.96600e-18
7833.16378 2.95854e-18
7834.02524 2.95157e-18
7834.88670 2.94460e-18
7835.75818 2.93876e-18
7836.61964 2.93293e-18
7837.48111 2.93005e-18
7838.34257 2.92717e-18
7839.20403 2.92772e-18
7840.06549 2.92825e-18
7840.92695 2.93019e-18
7841.78842 2.93213e-18
7842.64988 2.93368e-18
7843.51134 2.93523e-18
7844.37280 2.93557e-18
7845.23426 2.93593e-18
7846.10574 2.93460e-18
7846.96720 2.93329e-18
7847.82867 2.93097e-18
7848.69013 2.92864e-18
7849.55159 2.92615e-18
7850.41305 2.92365e-18
7851.27452 2.92152e-18
7852.13598 2.91937e-18
7852.99744 2.91794e-18
7853.85890 2.91651e-18
7854.72036 2.91608e-18
7855.59184 2.91564e-18
7856.45330 2.91634e-18
7857.31477 2.91707e-18
7858.17623 2.91782e-18
7859.03769 2.91857e-18
7859.89915 2.91760e-18
7860.76061 2.91663e-18
7861.62208 2.91407e-18
7862.48354 2.91150e-18
7863.34500 2.90876e-18
7864.20646 2.90603e-18
7865.07794 2.90237e-18
7865.93940 2.89874e-18
7866.80087 2.89177e-18
7867.66233 2.88482e-18
7868.52379 2.87429e-18
7869.38525 2.86378e-18
7870.24671 2.85170e-18
7871.10818 2.83960e-18
7871.96964 2.82875e-18
7872.83110 2.81788e-18
7873.69256 2.81279e-18
7874.56404 2.80776e-18
7875.42550 2.81025e-18
7876.28696 2.81277e-18
7877.14843 2.81771e-18
7878.00989 2.82265e-18
7878.87135 2.82529e-18
7879.73281 2.82795e-18
7880.59427 2.82686e-18
7881.45574 2.82577e-18
7882.31720 2.82018e-18
7883.17866 2.81456e-18
7884.05014 2.80643e-18
7884.91160 2.79829e-18
7885.77306 2.79008e-18
7886.63453 2.78190e-18
7887.49599 2.77345e-18
7888.35745 2.76498e-18
7889.21891 2.75568e-18
7890.08037 2.74638e-18
7890.94184 2.73675e-18
7891.80330 2.72714e-18
7892.66476 2.71777e-18
7893.52622 2.70842e-18
7894.39770 2.70176e-18
7895.25916 2.69511e-18
7896.12062 2.69452e-18
7896.98209 2.69392e-18
7897.84355 2.69748e-18
7898.70501 2.70101e-18
7899.56647 2.70310e-18
7900.42793 2.70518e-18
7901.28940 2.70334e-18
7902.15086 2.70150e-18
7903.01232 2.69634e-18
7903.88380 2.69116e-18
7904.74526 2.68426e-18
7905.60672 2.67738e-18
7906.46819 2.67235e-18
7907.32965 2.66734e-18
7908.19111 2.66559e-18
7909.05257 2.66385e-18
7909.91403 2.66136e-18
7910.77550 2.65886e-18
7911.63696 2.65322e-18
7912.49842 2.64758e-18
7913.36990 2.64167e-18
7914.23136 2.63574e-18
7915.09282 2.63196e-18
7915.95428 2.62819e-18
7916.81575 2.62671e-18
7917.67721 2.62523e-18
7918.53867 2.62574e-18
7919.40013 2.62625e-18
7920.26159 2.62519e-18
7921.12306 2.62414e-18
7921.98452 2.61795e-18
7922.85600 2.61172e-18
7923.71746 2.60257e-18
7924.57892 2.59342e-18
7925.44038 2.58517e-18
7926.30185 2.57689e-18
7927.16331 2.57175e-18
7928.02477 2.56662e-18
7928.88623 2.56611e-18
7929.74769 2.56563e-18
7930.60916 2.56882e-18
7931.47062 2.57202e-18
7932.34210 2.57628e-18
7933.20356 2.58057e-18
7934.06502 2.58364e-18
7934.92648 2.58671e-18
7935.78794 2.58671e-18
7936.64941 2.58674e-18
7937.51087 2.58272e-18
7938.37233 2.57868e-18
7939.23379 2.57083e-18
7940.09525 2.56296e-18
7940.95672 2.55243e-18
7941.81818 2.54190e-18
7942.68966 2.53132e-18
7943.55112 2.52074e-18
7944.41258 2.51217e-18
7945.27404 2.50360e-18
7946.13551 2.49740e-18
7946.99697 2.49120e-18
7947.85843 2.48735e-18
7948.71989 2.48348e-18
7949.58135 2.48125e-18
7950.44282 2.47903e-18
7951.30428 2.47743e-18
7952.17576 2.47583e-18
7953.03722 2.47273e-18
7953.89868 2.46963e-18
7954.76014 2.46319e-18
7955.62160 2.45675e-18
7956.48307 2.44966e-18
7957.34453 2.44254e-18
7958.20599 2.43828e-18
7959.06745 2.43404e-18
7959.92891 2.43288e-18
7960.79038 2.43172e-18
7961.66186 2.43290e-18
7962.52332 2.43407e-18
7963.38478 2.43574e-18
7964.24624 2.43741e-18
7965.10770 2.43690e-18
7965.96917 2.43637e-18
7966.83063 2.43520e-18
7967.69209 2.43402e-18
7968.55355 2.43661e-18
7969.41501 2.43922e-18
7970.27648 2.44661e-18
7971.14795 2.45402e-18
7972.00942 2.46397e-18
7972.87088 2.47392e-18
7973.73234 2.48343e-18
7974.59380 2.49297e-18
7975.45526 2.49772e-18
7976.31673 2.50246e-18
7977.17819 2.50057e-18
7978.03965 2.49868e-18
7978.90111 2.49372e-18
7979.76257 2.48876e-18
7980.63405 2.48382e-18
7981.49552 2.47890e-18
7982.35698 2.47476e-18
7983.21844 2.47062e-18
7984.07990 2.46777e-18
7984.94136 2.46491e-18
7985.80283 2.46230e-18
7986.66429 2.45971e-18
7987.52575 2.45624e-18
7988.38721 2.45276e-18
7989.24867 2.44888e-18
7990.11014 2.44501e-18
7990.98161 2.44131e-18
7991.84308 2.43760e-18
7992.70454 2.43520e-18
7993.56600 2.43281e-18
7994.42746 2.43303e-18
7995.28892 2.43327e-18
7996.15039 2.43351e-18
7997.01185 2.43375e-18
7997.87331 2.42988e-18
7998.73477 2.42600e-18
7999.59623 2.41852e-18
8000.46771 2.41103e-18
8001.32917 2.40306e-18
8002.19064 2.39509e-18
8003.05210 2.38899e-18
8003.91356 2.38291e-18
8004.77502 2.38071e-18
8005.63649 2.37853e-18
8006.49795 2.37971e-18
8007.35941 2.38090e-18
8008.22087 2.38134e-18
8009.08233 2.38178e-18
8009.95381 2.38013e-18
8010.81527 2.37848e-18
8011.67674 2.37868e-18
8012.53820 2.37889e-18
8013.39966 2.38286e-18
8014.26112 2.38684e-18
8015.12258 2.39181e-18
8015.98405 2.39678e-18
8016.84551 2.40010e-18
8017.70697 2.40341e-18
8018.56843 2.40238e-18
8019.43991 2.40135e-18
8020.30137 2.39433e-18
8021.16284 2.38730e-18
8022.02430 2.37874e-18
8022.88576 2.37017e-18
8023.74722 2.36498e-18
8024.60868 2.35980e-18
8025.47015 2.35783e-18
8026.33161 2.35588e-18
8027.19307 2.35583e-18
8028.05453 2.35579e-18
8028.92601 2.35605e-18
8029.78747 2.35631e-18
8030.64893 2.35499e-18
8031.51040 2.35366e-18
8032.37186 2.35095e-18
8033.23332 2.34824e-18
8034.09478 2.34545e-18
8034.95624 2.34267e-18
8035.81771 2.34064e-18
8036.67917 2.33862e-18
8037.54063 2.33786e-18
8038.41211 2.33710e-18
8039.27357 2.33779e-18
8040.13503 2.33848e-18
8040.99650 2.34040e-18
8041.85796 2.34231e-18
8042.71942 2.34482e-18
8043.58088 2.34732e-18
8044.44234 2.34930e-18
8045.30380 2.35126e-18
8046.16527 2.35185e-18
8047.02673 2.35243e-18
8047.88819 2.35123e-18
8048.75967 2.35002e-18
8049.62113 2.34725e-18
8050.48259 2.34448e-18
8051.34406 2.34218e-18
8052.20552 2.33989e-18
8053.06698 2.33960e-18
8053.92844 2.33932e-18
8054.78990 2.33987e-18
8055.65137 2.34043e-18
8056.51283 2.34036e-18
8057.37429 2.34030e-18
8058.24577 2.33787e-18
8059.10723 2.33543e-18
8059.96869 2.32915e-18
8060.83015 2.32287e-18
8061.69162 2.31395e-18
8062.55308 2.30502e-18
8063.41454 2.29551e-18
8064.27600 2.28600e-18
8065.13746 2.27825e-18
8065.99893 2.27049e-18
8066.86039 2.26678e-18
8067.73187 2.26307e-18
8068.59333 2.26353e-18
8069.45479 2.26399e-18
8070.31625 2.26739e-18
8071.17772 2.27079e-18
8072.03918 2.27470e-18
8072.90064 2.27861e-18
8073.76210 2.27954e-18
8074.62356 2.28047e-18
8075.48503 2.27715e-18
8076.34649 2.27381e-18
8077.21797 2.26789e-18
8078.07943 2.26196e-18
8078.94089 2.25448e-18
8079.80235 2.24700e-18
8080.66381 2.23776e-18
8081.52528 2.22852e-18
8082.38674 2.21767e-18
8083.24820 2.20682e-18
8084.10966 2.19482e-18
8084.97113 2.18281e-18
8085.83259 2.17020e-18
8086.70407 2.15758e-18
8087.56553 2.14515e-18
8088.42699 2.13272e-18
8089.28845 2.12123e-18
8090.14991 2.10974e-18
8091.01138 2.09986e-18
8091.87284 2.08999e-18
8092.73430 2.08209e-18
8093.59576 2.07419e-18
8094.45722 2.06811e-18
8095.31869 2.06204e-18
8096.18015 2.05730e-18
8097.05163 2.05256e-18
8097.91309 2.04651e-18
8098.77455 2.04046e-18
8099.63601 2.02998e-18
8100.49748 2.01949e-18
8101.35894 2.00358e-18
8102.22040 1.98766e-18
8103.08186 1.96653e-18
8103.94332 1.94539e-18
8104.80479 1.92160e-18
8105.67626 1.89780e-18
8106.53773 1.87549e-18
8107.39919 1.85319e-18
8108.26065 1.83495e-18
8109.12211 1.81673e-18
8109.98357 1.80345e-18
8110.84504 1.79018e-18
8111.70650 1.78069e-18
8112.56796 1.77121e-18
8113.42942 1.76143e-18
8114.29088 1.75166e-18
8115.15235 1.73832e-18
8116.02383 1.72498e-18
8116.88529 1.70667e-18
8117.74675 1.68836e-18
8118.60821 1.66482e-18
8119.46967 1.64128e-18
8120.33114 1.61591e-18
8121.19260 1.59054e-18
8122.05406 1.56606e-18
8122.91552 1.54157e-18
8123.77698 1.51494e-18
8124.63845 1.48831e-18
8125.49991 1.45672e-18
8126.37139 1.42512e-18
8127.23285 1.39008e-18
8128.09431 1.35504e-18
8128.95577 1.31876e-18
8129.81723 1.28249e-18
8130.67870 1.24922e-18
8131.54016 1.21597e-18
8132.40162 1.19028e-18
8133.26308 1.16462e-18
8134.12454 1.14406e-18
8134.99602 1.12351e-18
8135.85749 1.10259e-18
8136.71895 1.08166e-18
8137.58041 1.05828e-18
8138.44187 1.03489e-18
8139.30333 1.00898e-18
8140.16480 9.83066e-19
8141.02626 9.55287e-19
8141.88772 9.27503e-19
8142.74918 8.99402e-19
8143.61064 8.71298e-19
8144.47210 8.44405e-19
8145.34358 8.17516e-19
8146.20505 7.93059e-19
8147.06651 7.68608e-19
8147.92797 7.47446e-19
8148.78943 7.26295e-19
8149.65089 7.08702e-19
8150.51236 6.91120e-19
8151.37382 6.76659e-19
8152.23528 6.62207e-19
8153.09674 6.48974e-19
8153.95820 6.35745e-19
8154.82968 6.22197e-19
8155.69115 6.08651e-19
8156.55261 5.94936e-19
8157.41407 5.81220e-19
8158.27553 5.67805e-19
8159.13699 5.54393e-19
8159.99845 5.42420e-19
8160.85992 5.30451e-19
8161.72138 5.21042e-19
8162.58284 5.11639e-19
8163.44430 5.05134e-19
8164.31578 4.98635e-19
8165.17724 4.94975e-19
8166.03871 4.91319e-19
8166.90017 4.88760e-19
8167.76163 4.86203e-19
8168.62309 4.82630e-19
8169.48455 4.79056e-19
8170.34602 4.72706e-19
8171.20748 4.66350e-19
8172.06894 4.55550e-19
8172.93040 4.44738e-19
8173.80188 4.32339e-19
8174.66334 4.19939e-19
8175.52481 4.12107e-19
8176.38627 4.04286e-19
8177.24773 4.02391e-19
8178.10919 4.00510e-19
8178.97065 4.00979e-19
8179.83212 4.01454e-19
8180.69358 4.01568e-19
8181.55504 4.01681e-19
8182.41650 3.99728e-19
8183.28798 3.97771e-19
8184.14944 3.93128e-19
8185.01090 3.88479e-19
8185.87237 3.83451e-19
8186.73383 3.78420e-19
8187.59529 3.74655e-19
8188.45675 3.70890e-19
8189.31821 3.67116e-19
8190.17968 3.63339e-19
8191.04114 3.58664e-19
8191.90260 3.53984e-19
8192.77408 3.49493e-19
8193.63554 3.45002e-19
8194.49700 3.41796e-19
8195.35846 3.38593e-19
8196.21993 3.37656e-19
8197.08139 3.36724e-19
8197.94285 3.38799e-19
8198.80431 3.40879e-19
8199.66577 3.44186e-19
8200.52724 3.47496e-19
8201.38870 3.49549e-19
8202.25016 3.51599e-19
8203.12164 3.51914e-19
8203.98310 3.52226e-19
8204.84456 3.51207e-19
8205.70603 3.50185e-19
8206.56749 3.48038e-19
8207.42895 3.45886e-19
8208.29041 3.42782e-19
8209.15187 3.39675e-19
8210.01334 3.36119e-19
8210.87480 3.32562e-19
8211.73626 3.29209e-19
8212.60774 3.25858e-19
8213.46920 3.22987e-19
8214.33066 3.20118e-19
8215.19212 3.17680e-19
8216.05359 3.15245e-19
8216.91505 3.12468e-19
8217.77651 3.09691e-19
8218.63797 3.04430e-19
8219.49943 2.99161e-19
8220.36090 2.90593e-19
8221.22236 2.82018e-19
8222.08382 2.72338e-19
8222.95530 2.62657e-19
8223.81676 2.54316e-19
8224.67822 2.45978e-19
8225.53969 2.42046e-19
8226.40115 2.38126e-19
8227.26261 2.40821e-19
8228.12407 2.43530e-19
8228.98553 2.50786e-19
8229.84700 2.58052e-19
8230.70846 2.67000e-19
8231.57994 2.75953e-19
8232.44140 2.83807e-19
8233.30286 2.91661e-19
8234.16432 2.95832e-19
8235.02578 2.99997e-19
8235.88725 3.01345e-19
8236.74871 3.02684e-19
8237.61017 3.03367e-19
8238.47163 3.04050e-19
8239.33309 3.05572e-19
8240.19456 3.07098e-19
8241.06604 3.10715e-19
8241.92750 3.14337e-19
8242.78896 3.19314e-19
8243.65042 3.24294e-19
8244.51188 3.28372e-19
8245.37335 3.32449e-19
8246.23481 3.34516e-19
8247.09627 3.36579e-19
8247.95773 3.36761e-19
8248.81919 3.36937e-19
8249.68066 3.35686e-19
8250.54212 3.34431e-19
8251.41360 3.32751e-19
8252.27506 3.31069e-19
8253.13652 3.29897e-19
8253.99798 3.28727e-19
8254.85945 3.28633e-19
8255.72091 3.28543e-19
8256.58237 3.29848e-19
8257.44383 3.31158e-19
8258.30529 3.33640e-19
8259.16676 3.36124e-19
8260.02822 3.39305e-19
8260.89970 3.42489e-19
8261.76116 3.45488e-19
8262.62262 3.48491e-19
8263.48408 3.50444e-19
8264.34554 3.52396e-19
8265.20701 3.52524e-19
8266.06847 3.52648e-19
8266.92993 3.50437e-19
8267.79139 3.48222e-19
8268.65285 3.44849e-19
8269.52433 3.41472e-19
8270.38580 3.38569e-19
8271.24726 3.35669e-19
8272.10872 3.34332e-19
8272.97018 3.33001e-19
8273.83164 3.34080e-19
8274.69311 3.35165e-19
8275.55457 3.37814e-19
8276.41603 3.40462e-19
8277.27749 3.42767e-19
8278.13895 3.45070e-19
8279.01043 3.46251e-19
8279.87189 3.47430e-19
8280.73336 3.47672e-19
8281.59482 3.47912e-19
8282.45628 3.47793e-19
8283.31774 3.47672e-19
8284.17920 3.48399e-19
8285.04067 3.49127e-19
8285.90213 3.51159e-19
8286.76359 3.53192e-19
8287.62505 3.55437e-19
8288.48651 3.57681e-19
8289.34798 3.59557e-19
8290.21946 3.61431e-19
8291.08092 3.63811e-19
8291.94238 3.66191e-19
8292.80384 3.69573e-19
8293.66530 3.72955e-19
8294.52677 3.76459e-19
8295.38823 3.79960e-19
8296.24969 3.82763e-19
8297.11115 3.85567e-19
8297.97261 3.87145e-19
8298.83408 3.88721e-19
8299.70555 3.88763e-19
8300.56702 3.88799e-19
8301.42848 3.89160e-19
8302.28994 3.89520e-19
8303.15140 3.92399e-19
8304.01286 3.95283e-19
8304.87433 3.99834e-19
8305.73579 4.04386e-19
8306.59725 4.08778e-19
8307.45871 4.13169e-19
8308.32017 4.16293e-19
8309.18164 4.19411e-19
8310.05312 4.20452e-19
8310.91458 4.21488e-19
8311.77604 4.21314e-19
8312.63750 4.21135e-19
8313.49896 4.21844e-19
8314.36043 4.22553e-19
8315.22189 4.25326e-19
8316.08335 4.28105e-19
8316.94481 4.33177e-19
8317.80627 4.38256e-19
8318.67775 4.45031e-19
8319.53921 4.51810e-19
8320.40068 4.58400e-19
8321.26214 4.64990e-19
8322.12360 4.70047e-19
8322.98506 4.75100e-19
8323.84652 4.78606e-19
8324.70799 4.82109e-19
8325.56945 4.84240e-19
8326.43091 4.86370e-19
8327.29237 4.87651e-19
8328.16385 4.88932e-19
8329.02531 4.90019e-19
8329.88678 4.91103e-19
8330.74824 4.92367e-19
8331.60970 4.93633e-19
8332.47116 4.95447e-19
8333.33262 4.97263e-19
8334.19408 5.00536e-19
8335.05555 5.03814e-19
8335.91701 5.09305e-19
8336.77847 5.14801e-19
8337.64995 5.21919e-19
8338.51141 5.29037e-19
8339.37287 5.36765e-19
8340.23434 5.44495e-19
8341.09580 5.51441e-19
8341.95726 5.58385e-19
8342.81872 5.63041e-19
8343.68018 5.67691e-19
8344.54165 5.70091e-19
8345.40311 5.72483e-19
8346.26457 5.73681e-19
8347.12603 5.74875e-19
8347.99751 5.75732e-19
8348.85897 5.76591e-19
8349.72043 5.77751e-19
8350.58190 5.78911e-19
8351.44336 5.81121e-19
8352.30482 5.83334e-19
8353.16628 5.87382e-19
8354.02775 5.91435e-19
8354.88921 5.97415e-19
8355.75067 6.03400e-19
8356.62215 6.10334e-19
8357.48361 6.17272e-19
8358.34507 6.24187e-19
8359.20653 6.31102e-19
8360.06800 6.37149e-19
8360.92946 6.43192e-19
8361.79092 6.47860e-19
8362.65238 6.52526e-19
8363.51384 6.56697e-19
8364.37531 6.60866e-19
8365.23677 6.65403e-19
8366.10825 6.69943e-19
8366.96971 6.74281e-19
8367.83117 6.78620e-19
8368.69263 6.82164e-19
8369.55410 6.85709e-19
8370.41556 6.89035e-19
8371.27702 6.92364e-19
8372.13848 6.96272e-19
8372.99994 7.00179e-19
8373.86140 7.05099e-19
8374.72287 7.10023e-19
8375.59435 7.16236e-19
8376.45581 7.22453e-19
8377.31727 7.29900e-19
8378.17873 7.37350e-19
8379.04019 7.45744e-19
8379.90166 7.54140e-19
8380.76312 7.63023e-19
8381.62458 7.71906e-19
8382.48604 7.80736e-19
8383.34750 7.89565e-19
8384.20897 7.97896e-19
8385.07043 8.06222e-19
8385.94191 8.13640e-19
8386.80337 8.21058e-19
8387.66483 8.27811e-19
8388.52629 8.34563e-19
8389.38775 8.41962e-19
8390.24922 8.49363e-19
8391.11068 8.57776e-19
8391.97214 8.66189e-19
8392.83360 8.73925e-19
8393.69507 8.81660e-19
8394.55653 8.87505e-19
8395.41799 8.93347e-19
8396.28947 8.97269e-19
8397.15093 9.01186e-19
8398.01239 9.03675e-19
8398.87385 9.06159e-19
8399.73532 9.09965e-19
8400.59678 9.13773e-19
8401.45824 9.21404e-19
8402.31970 9.29045e-19
8403.18116 9.39693e-19
8404.04263 9.50346e-19
8404.90409 9.62475e-19
8405.77557 9.74605e-19
8406.63703 9.86516e-19
8407.49849 9.98426e-19
8408.35995 1.00836e-18
8409.22142 1.01830e-18
8410.08288 1.02627e-18
8410.94434 1.03424e-18
8411.80580 1.04115e-18
8412.66726 1.04805e-18
8413.52873 1.05450e-18
8414.39019 1.06096e-18
8415.26167 1.06746e-18
8416.12313 1.07397e-18
8416.98459 1.08105e-18
8417.84605 1.08814e-18
8418.70751 1.09624e-18
8419.56898 1.10434e-18
8420.43044 1.11363e-18
8421.29190 1.12292e-18
8422.15336 1.13336e-18
8423.01482 1.14380e-18
8423.87629 1.15483e-18
8424.74777 1.16587e-18
8425.60923 1.17597e-18
8426.47069 1.18607e-18
8427.33215 1.19462e-18
8428.19361 1.20317e-18
8429.05508 1.21189e-18
8429.91654 1.22061e-18
8430.77800 1.23090e-18
8431.63946 1.24120e-18
8432.50092 1.25323e-18
8433.36239 1.26525e-18
8434.23386 1.27878e-18
8435.09533 1.29230e-18
8435.95679 1.30509e-18
8436.81825 1.31787e-18
8437.67971 1.32769e-18
8438.54117 1.33751e-18
8439.40264 1.34567e-18
8440.26410 1.35383e-18
8441.12556 1.36243e-18
8441.98702 1.37103e-18
8442.84848 1.38068e-18
8443.70995 1.39034e-18
8444.58143 1.40120e-18
8445.44289 1.41205e-18
8446.30435 1.42423e-18
8447.16581 1.43640e-18
8448.02727 1.44986e-18
8448.88874 1.46331e-18
8449.75020 1.47763e-18
8450.61166 1.49195e-18
8451.47312 1.50652e-18
8452.33458 1.52109e-18
8453.20606 1.53522e-18
8454.06752 1.54934e-18
8454.92899 1.56218e-18
8455.79045 1.57501e-18
8456.65191 1.58674e-18
8457.51337 1.59846e-18
8458.37483 1.61090e-18
8459.23630 1.62335e-18
8460.09776 1.63726e-18
8460.95922 1.65119e-18
8461.82068 1.66502e-18
8462.69216 1.67886e-18
8463.55362 1.69151e-18
8464.41508 1.70415e-18
8465.27655 1.71569e-18
8466.13801 1.72723e-18
8466.99947 1.73812e-18
8467.86093 1.74902e-18
8468.72240 1.76159e-18
8469.58386 1.77416e-18
8470.44532 1.79044e-18
8471.30678 1.80673e-18
8472.16824 1.82547e-18
8473.03972 1.84421e-18
8473.90118 1.86355e-18
8474.76265 1.88290e-18
8475.62411 1.90147e-18
8476.48557 1.92003e-18
8477.34703 1.93647e-18
8478.20849 1.95291e-18
8479.06996 1.96881e-18
8479.93142 1.98471e-18
8480.79288 2.00297e-18
8481.65434 2.02124e-18
8482.51580 2.04120e-18
8483.38728 2.06117e-18
8484.24875 2.08015e-18
8485.11021 2.09913e-18
8485.97167 2.11592e-18
8486.83313 2.13271e-18
8487.69459 2.14728e-18
8488.55605 2.16185e-18
8489.41752 2.17497e-18
8490.27898 2.18809e-18
8491.14044 2.20170e-18
8492.00190 2.21532e-18
8492.87338 2.23069e-18
8493.73484 2.24607e-18
8494.59631 2.26285e-18
8495.45777 2.27964e-18
8496.31923 2.29802e-18
8497.18069 2.31641e-18
8498.04215 2.33844e-18
8498.90362 2.36049e-18
8499.76508 2.38695e-18
8500.62654 2.41342e-18
8501.48800 2.44077e-18
8502.35948 2.46813e-18
8503.22094 2.49292e-18
8504.08240 2.51771e-18
8504.94387 2.53924e-18
8505.80533 2.56074e-18
8506.66679 2.57885e-18
8507.52825 2.59693e-18
8508.38972 2.61289e-18
8509.25118 2.62884e-18
8510.11264 2.64436e-18
8510.98412 2.65990e-18
8511.84558 2.67566e-18
8512.70704 2.69143e-18
8513.56850 2.70777e-18
8514.42997 2.72409e-18
8515.29143 2.74094e-18
8516.15289 2.75779e-18
8517.01435 2.77495e-18
8517.87581 2.79212e-18
8518.73728 2.80960e-18
8519.59874 2.82705e-18
8520.46020 2.84490e-18
8521.33168 2.86272e-18
8522.19314 2.88170e-18
8523.05460 2.90065e-18
8523.91607 2.92223e-18
8524.77753 2.94382e-18
8525.63899 2.96849e-18
8526.50045 2.99316e-18
8527.36191 3.02004e-18
8528.22337 3.04689e-18
8529.08484 3.07454e-18
8529.94630 3.10218e-18
8530.80776 3.12831e-18
8531.67924 3.15443e-18
8532.54070 3.17716e-18
8533.40216 3.19987e-18
8534.26363 3.21849e-18
8535.12509 3.23711e-18
8535.98655 3.25181e-18
8536.84801 3.26653e-18
8537.70947 3.28016e-18
8538.57094 3.29379e-18
8539.43240 3.30935e-18
8540.30388 3.32495e-18
8541.16534 3.34446e-18
8542.02680 3.36397e-18
8542.88826 3.38862e-18
8543.74972 3.41329e-18
8544.61119 3.44145e-18
8545.47265 3.46960e-18
8546.33411 3.49868e-18
8547.19557 3.52773e-18
8548.05703 3.55325e-18
8548.91850 3.57875e-18
8549.78998 3.59577e-18
8550.65144 3.61279e-18
8551.51290 3.62177e-18
8552.37436 3.63073e-18
8553.23582 3.63538e-18
8554.09729 3.64002e-18
8554.95875 3.64537e-18
8555.82021 3.65075e-18
8556.68167 3.66276e-18
8557.54313 3.67479e-18
8558.40460 3.69617e-18
8559.27607 3.71755e-18
8560.13754 3.74662e-18
8560.99900 3.77570e-18
8561.86046 3.80930e-18
8562.72192 3.84291e-18
8563.58338 3.87584e-18
8564.44485 3.90879e-18
8565.30631 3.93629e-18
8566.16777 3.96377e-18
8567.02923 3.98268e-18
8567.89070 4.00156e-18
8568.75216 4.01037e-18
8569.62364 4.01919e-18
8570.48510 4.02040e-18
8571.34656 4.02161e-18
8572.20802 4.01882e-18
8573.06948 4.01602e-18
8573.93095 4.01318e-18
8574.79241 4.01035e-18
8575.65387 4.01129e-18
8576.51533 4.01226e-18
8577.37679 4.02100e-18
8578.23826 4.02977e-18
8579.09972 4.04933e-18
8579.97120 4.06892e-18
8580.83266 4.09550e-18
8581.69412 4.12211e-18
8582.55558 4.14939e-18
8583.41705 4.17668e-18
8584.27851 4.19956e-18
8585.13997 4.22246e-18
8586.00143 4.23679e-18
8586.86289 4.25112e-18
8587.72436 4.25633e-18
8588.58582 4.26154e-18
8589.45730 4.25994e-18
8590.31876 4.25829e-18
8591.18022 4.25345e-18
8592.04168 4.24861e-18
8592.90314 4.24536e-18
8593.76461 4.24212e-18
8594.62607 4.24318e-18
8595.48753 4.24422e-18
8596.34899 4.24851e-18
8597.21045 4.25277e-18
8598.07192 4.25960e-18
8598.94340 4.26645e-18
8599.80486 4.27652e-18
8600.66632 4.28662e-18
8601.52778 4.29964e-18
8602.38924 4.31267e-18
8603.25071 4.32657e-18
8604.11217 4.34049e-18
8604.97363 4.35298e-18
8605.83509 4.36550e-18
8606.69655 4.37353e-18
8607.56803 4.38157e-18
8608.42949 4.38269e-18
8609.29096 4.38377e-18
8610.15242 4.37864e-18
8611.01388 4.37346e-18
8611.87534 4.36383e-18
8612.73680 4.35417e-18
8613.59827 4.34201e-18
8614.45973 4.32983e-18
8615.32119 4.31724e-18
8616.18265 4.30465e-18
8617.04411 4.29558e-18
8617.91559 4.28650e-18
8618.77706 4.28524e-18
8619.63852 4.28398e-18
8620.49998 4.29078e-18
8621.36144 4.29758e-18
8622.22290 4.31010e-18
8623.08437 4.32267e-18
8623.94583 4.33758e-18
8624.80729 4.35252e-18
8625.66875 4.36562e-18
8626.53021 4.37871e-18
8627.40169 4.38745e-18
8628.26315 4.39617e-18
8629.12462 4.40048e-18
8629.98608 4.40479e-18
8630.84754 4.40457e-18
8631.70900 4.40435e-18
8632.57046 4.39903e-18
8633.43193 4.39368e-18
8634.29339 4.38397e-18
8635.15485 4.37426e-18
8636.01631 4.36322e-18
8636.88779 4.35216e-18
8637.74925 4.34296e-18
8638.61072 4.33378e-18
8639.47218 4.33010e-18
8640.33364 4.32644e-18
8641.19510 4.33083e-18
8642.05656 4.33521e-18
8642.91803 4.34550e-18
8643.77949 4.35584e-18
8644.64095 4.36884e-18
8645.50241 4.38184e-18
8646.37389 4.39416e-18
8647.23535 4.40648e-18
8648.09681 4.41476e-18
8648.95828 4.42302e-18
8649.81974 4.42600e-18
8650.68120 4.42898e-18
8651.54266 4.42670e-18
8652.40412 4.42440e-18
8653.26559 4.41651e-18
8654.12705 4.40862e-18
8654.98851 4.39486e-18
8655.85999 4.38111e-18
8656.72145 4.36390e-18
8657.58291 4.34668e-18
8658.44438 4.33015e-18
8659.30584 4.31361e-18
8660.16730 4.30059e-18
8661.02876 4.28759e-18
8661.89022 4.27933e-18
8662.75168 4.27112e-18
8663.61315 4.26831e-18
8664.47461 4.26553e-18
8665.33607 4.26798e-18
8666.20755 4.27042e-18
8667.06901 4.27696e-18
8667.93047 4.28352e-18
8668.79194 4.29211e-18
8669.65340 4.30073e-18
8670.51486 4.30863e-18
8671.37632 4.31652e-18
8672.23778 4.31896e-18
8673.09925 4.32138e-18
8673.96071 4.31485e-18
8674.82217 4.30829e-18
8675.68363 4.29383e-18
8676.55511 4.27935e-18
8677.41657 4.25931e-18
8678.27803 4.23921e-18
8679.13950 4.21750e-18
8680.00096 4.19575e-18
8680.86242 4.17665e-18
8681.72388 4.15757e-18
8682.58535 4.14283e-18
8683.44681 4.12811e-18
8684.30827 4.11833e-18
8685.16973 4.10855e-18
8686.04121 4.10431e-18
8686.90267 4.10010e-18
8687.76413 4.10148e-18
8688.62560 4.10288e-18
8689.48706 4.10881e-18
8690.34852 4.11475e-18
8691.20998 4.12346e-18
8692.07144 4.13220e-18
8692.93291 4.14077e-18
8693.79437 4.14932e-18
8694.66585 4.15394e-18
8695.52731 4.15857e-18
8696.38877 4.15697e-18
8697.25023 4.15535e-18
8698.11170 4.14712e-18
8698.97316 4.13886e-18
8699.83462 4.12489e-18
8700.69608 4.11092e-18
8701.55754 4.09424e-18
8702.41900 4.07756e-18
8703.28047 4.06073e-18
8704.15195 4.04388e-18
8705.01341 4.02696e-18
8705.87487 4.01006e-18
8706.73633 3.99377e-18
8707.59779 3.97750e-18
8708.45926 3.96525e-18
8709.32072 3.95302e-18
8710.18218 3.94747e-18
8711.04364 3.94193e-18
8711.90510 3.94319e-18
8712.76657 3.94450e-18
8713.62803 3.95161e-18
8714.49951 3.95873e-18
8715.36097 3.96650e-18
8716.22243 3.97428e-18
8717.08389 3.97679e-18
8717.94535 3.97931e-18
8718.80682 3.97418e-18
8719.66828 3.96900e-18
8720.52974 3.95532e-18
8721.39120 3.94162e-18
8722.25267 3.92273e-18
8723.11413 3.90385e-18
8723.98561 3.88564e-18
8724.84707 3.86741e-18
8725.70853 3.85204e-18
8726.56999 3.83664e-18
8727.43145 3.82347e-18
8728.29292 3.81032e-18
8729.15438 3.79943e-18
8730.01584 3.78853e-18
8730.87730 3.78020e-18
8731.73876 3.77185e-18
8732.61024 3.76686e-18
8733.47170 3.76185e-18
8734.33317 3.76251e-18
8735.19463 3.76318e-18
8736.05609 3.76880e-18
8736.91755 3.77442e-18
8737.77902 3.77836e-18
8738.64048 3.78231e-18
8739.50194 3.77897e-18
8740.36340 3.77563e-18
8741.22486 3.76192e-18
8742.08633 3.74820e-18
8742.95780 3.72333e-18
8743.81927 3.69844e-18
8744.68073 3.66958e-18
8745.54219 3.64070e-18
8746.40365 3.61564e-18
8747.26511 3.59059e-18
8748.12658 3.57296e-18
8748.98804 3.55538e-18
8749.84950 3.54739e-18
8750.71096 3.53943e-18
8751.57242 3.53882e-18
8752.44390 3.53824e-18
8753.30537 3.54071e-18
8754.16683 3.54321e-18
8755.02829 3.54640e-18
8755.88975 3.54960e-18
8756.75121 3.55197e-18
8757.61268 3.55434e-18
8758.47414 3.55243e-18
8759.33560 3.55049e-18
8760.19706 3.54008e-18
8761.05852 3.52965e-18
8761.91999 3.51006e-18
8762.79146 3.49045e-18
8763.65293 3.46394e-18
8764.51439 3.43740e-18
8765.37585 3.40765e-18
8766.23731 3.37792e-18
8767.09877 3.35022e-18
8767.96024 3.32257e-18
8768.82170 3.30035e-18
8769.68316 3.27817e-18
8770.54462 3.26101e-18
8771.40608 3.24386e-18
8772.26755 3.23101e-18
8773.13903 3.21818e-18
8774.00049 3.20905e-18
8774.86195 3.19990e-18
8775.72341 3.19326e-18
8776.58487 3.18661e-18
8777.44633 3.18138e-18
8778.30780 3.17617e-18
8779.16926 3.17085e-18
8780.03072 3.16552e-18
8780.89218 3.15547e-18
8781.76366 3.14540e-18
8782.62512 3.12647e-18
8783.48659 3.10749e-18
8784.34805 3.08165e-18
8785.20951 3.05582e-18
8786.07097 3.02679e-18
8786.93243 2.99776e-18
8787.79390 2.96832e-18
8788.65536 2.93888e-18
8789.51682 2.91174e-18
8790.37828 2.88460e-18
8791.24976 2.85969e-18
8792.11122 2.83478e-18
8792.97268 2.81015e-18
8793.83415 2.78551e-18
8794.69561 2.76241e-18
8795.55707 2.73934e-18
8796.41853 2.72133e-18
8797.28000 2.70336e-18
8798.14146 2.68973e-18
8799.00292 2.67612e-18
8799.86438 2.66213e-18
8800.72584 2.64814e-18
8801.59732 2.62991e-18
8802.45878 2.61168e-18
8803.32025 2.58659e-18
8804.18171 2.56151e-18
8805.04317 2.52924e-18
8805.90463 2.49697e-18
8806.76609 2.46215e-18
8807.62756 2.42731e-18
8808.48902 2.39418e-18
8809.35048 2.36107e-18
8810.21194 2.33169e-18
8811.08342 2.30231e-18
8811.94488 2.27804e-18
8812.80635 2.25377e-18
8813.66781 2.23406e-18
8814.52927 2.21437e-18
8815.39073 2.19794e-18
8816.25219 2.18153e-18
8817.11365 2.16677e-18
8817.97512 2.15202e-18
8818.83658 2.13713e-18
8819.70806 2.12225e-18
8820.56952 2.10505e-18
8821.43098 2.08785e-18
8822.29244 2.06645e-18
8823.15391 2.04504e-18
8824.01537 2.01920e-18
8824.87683 1.99335e-18
8825.73829 1.96375e-18
8826.59975 1.93415e-18
8827.46122 1.90352e-18
8828.32268 1.87289e-18
8829.19416 1.84515e-18
8830.05562 1.81743e-18
8830.91708 1.79459e-18
8831.77854 1.77177e-18
8832.64000 1.75398e-18
8833.50147 1.73620e-18
8834.36293 1.72281e-18
8835.22439 1.70943e-18
8836.08585 1.69887e-18
8836.94732 1.68833e-18
8837.80878 1.67877e-18
8838.67024 1.66922e-18
8839.54172 1.65879e-18
8840.40318 1.64835e-18
8841.26464 1.63564e-18
8842.12610 1.62293e-18
8842.98757 1.60776e-18
8843.84903 1.59259e-18
8844.71049 1.57527e-18
8845.57195 1.55793e-18
8846.43341 1.53946e-18
8847.29488 1.52098e-18
8848.15634 1.50265e-18
8849.02782 1.48432e-18
8849.88928 1.46684e-18
8850.75074 1.44936e-18
8851.61220 1.43338e-18
8852.47367 1.41742e-18
8853.33513 1.40634e-18
8854.19659 1.39528e-18
8855.05805 1.39248e-18
8855.91951 1.38971e-18
8856.78097 1.39251e-18
8857.64244 1.39532e-18
8858.50390 1.39899e-18
8859.36536 1.40265e-18
8860.23684 1.40328e-18
8861.09830 1.40389e-18
8861.95976 1.39795e-18
8862.82123 1.39199e-18
8863.68269 1.38080e-18
8864.54415 1.36960e-18
8865.40561 1.35832e-18
8866.26707 1.34704e-18
8867.12854 1.33805e-18
8867.99000 1.32907e-18
8868.86148 1.32178e-18
8869.72294 1.31448e-18
8870.58440 1.30862e-18
8871.44586 1.30275e-18
8872.30732 1.29809e-18
8873.16879 1.29343e-18
8874.03025 1.29022e-18
8874.89171 1.28701e-18
8875.75317 1.28724e-18
8876.61463 1.28748e-18
8877.47610 1.29194e-18
8878.34758 1.29642e-18
8879.20904 1.30264e-18
8880.07050 1.30888e-18
8880.93196 1.31429e-18
8881.79342 1.31969e-18
8882.65489 1.32188e-18
8883.51635 1.32405e-18
8884.37781 1.32125e-18
8885.23927 1.31844e-18
8886.10073 1.31228e-18
8886.96220 1.30611e-18
8887.83367 1.29912e-18
8888.69514 1.29213e-18
8889.55660 1.28666e-18
8890.41806 1.28119e-18
8891.27952 1.27936e-18
8892.14099 1.27754e-18
8893.00245 1.28054e-18
8893.86391 1.28356e-18
8894.72537 1.29189e-18
8895.58683 1.30022e-18
8896.44830 1.31190e-18
8897.30976 1.32359e-18
8898.18124 1.33529e-18
8899.04270 1.34698e-18
8899.90416 1.35583e-18
8900.76562 1.36467e-18
8901.62708 1.36829e-18
8902.48855 1.37189e-18
8903.35001 1.37066e-18
8904.21147 1.36941e-18
8905.07293 1.36727e-18
8905.93439 1.36513e-18
8906.80587 1.36469e-18
8907.66734 1.36426e-18
8908.52880 1.36526e-18
8909.39026 1.36626e-18
8910.25172 1.36871e-18
8911.11318 1.37115e-18
8911.97465 1.37553e-18
8912.83611 1.37991e-18
8913.69757 1.38641e-18
8914.55903 1.39291e-18
8915.42049 1.40201e-18
8916.29197 1.41110e-18
8917.15343 1.42267e-18
8918.01490 1.43425e-18
8918.87636 1.44532e-18
8919.73782 1.45639e-18
8920.59928 1.46399e-18
8921.46074 1.47158e-18
8922.32221 1.47485e-18
8923.18367 1.47812e-18
8924.04513 1.47699e-18
8924.90659 1.47584e-18
8925.76805 1.47381e-18
8926.63953 1.47177e-18
8927.50100 1.47363e-18
8928.36246 1.47549e-18
8929.22392 1.48142e-18
8930.08538 1.48735e-18
8930.94684 1.49518e-18
8931.80831 1.50302e-18
8932.66977 1.51119e-18
8933.53123 1.51936e-18
8934.39269 1.52635e-18
8935.25415 1.53334e-18
8936.12563 1.53986e-18
8936.98709 1.54638e-18
8937.84856 1.55586e-18
8938.71002 1.56535e-18
8939.57148 1.57795e-18
8940.43294 1.59055e-18
8941.29440 1.60161e-18
8942.15587 1.61268e-18
8943.01733 1.61880e-18
8943.87879 1.62492e-18
8944.74025 1.62458e-18
8945.61173 1.62423e-18
8946.47319 1.61797e-18
8947.33466 1.61171e-18
8948.19612 1.60671e-18
8949.05758 1.60171e-18
8949.91904 1.60378e-18
8950.78050 1.60586e-18
8951.64197 1.61319e-18
8952.50343 1.62053e-18
8953.36489 1.63020e-18
8954.22635 1.63987e-18
8955.08781 1.64424e-18
8955.95929 1.64861e-18
8956.82075 1.64020e-18
8957.68222 1.63177e-18
8958.54368 1.61991e-18
8959.40514 1.60805e-18
8960.26660 1.60647e-18
8961.12806 1.60491e-18
8961.98953 1.61557e-18
8962.85099 1.62626e-18
8963.71245 1.64656e-18
8964.57391 1.66688e-18
8965.44539 1.69024e-18
8966.30685 1.71360e-18
8967.16832 1.73006e-18
8968.02978 1.74651e-18
8968.89124 1.75717e-18
8969.75270 1.76781e-18
8970.61416 1.78355e-18
8971.47563 1.79930e-18
8972.33709 1.82389e-18
8973.19855 1.84850e-18
8974.06001 1.87727e-18
8974.93149 1.90605e-18
8975.79295 1.93226e-18
8976.65441 1.95847e-18
8977.51588 1.97180e-18
8978.37734 1.98509e-18
8979.23880 1.97750e-18
8980.10026 1.96985e-18
8980.96172 1.93616e-18
8981.82319 1.90240e-18
8982.68465 1.84594e-18
8983.54611 1.78942e-18
8984.41759 1.74055e-18
8985.27905 1.69170e-18
8986.14051 1.67845e-18
8987.00198 1.66529e-18
8987.86344 1.69725e-18
8988.72490 1.72934e-18
8989.58636 1.80796e-18
8990.44782 1.88671e-18
8991.30928 1.97448e-18
8992.17075 2.06227e-18
8993.03221 2.11400e-18
8993.89367 2.16563e-18
8994.76515 2.17455e-18
8995.62661 2.18336e-18
8996.48807 2.15773e-18
8997.34954 2.13201e-18
8998.21100 2.09203e-18
8999.07246 2.05202e-18
8999.93392 2.02527e-18
9000.79538 1.99856e-18
9001.65685 1.99706e-18
9002.51831 1.99562e-18
9003.38979 2.01862e-18
9004.25125 2.04169e-18
9005.11271 2.08117e-18
9005.97417 2.12070e-18
9006.83563 2.16095e-18
9007.69710 2.20119e-18
9008.55856 2.22995e-18
9009.42002 2.25867e-18
9010.28148 2.27025e-18
9011.14295 2.28178e-18
9012.00441 2.27644e-18
9012.87589 2.27104e-18
9013.73735 2.26228e-18
9014.59881 2.25351e-18
9015.46027 2.25136e-18
9016.32173 2.24922e-18
9017.18320 2.24754e-18
9018.04466 2.24587e-18
9018.90612 2.24013e-18
9019.76758 2.23437e-18
9020.62904 2.22982e-18
9021.49051 2.22527e-18
9022.35197 2.22739e-18
9023.22345 2.22952e-18
9024.08491 2.24518e-18
9024.94637 2.26087e-18
9025.80783 2.29556e-18
9026.66930 2.33031e-18
9027.53076 2.37571e-18
9028.39222 2.42114e-18
9029.25368 2.46462e-18
9030.11514 2.50808e-18
9030.97660 2.54088e-18
9031.83807 2.57364e-18
9032.70955 2.58926e-18
9033.57101 2.60482e-18
9034.43247 2.60267e-18
9035.29393 2.60047e-18
9036.15539 2.58386e-18
9037.01686 2.56720e-18
9037.87832 2.54466e-18
9038.73978 2.52210e-18
9039.60124 2.50672e-18
9040.46270 2.49140e-18
9041.32417 2.48670e-18
9042.18563 2.48203e-18
9043.05711 2.47842e-18
9043.91857 2.47479e-18
9044.78003 2.46721e-18
9045.64149 2.45961e-18
9046.50295 2.45109e-18
9047.36442 2.44256e-18
9048.22588 2.43574e-18
9049.08734 2.42891e-18
9049.94880 2.42799e-18
9050.81027 2.42705e-18
9051.67173 2.43315e-18
9052.54321 2.43927e-18
9053.40467 2.43993e-18
9054.26613 2.44053e-18
9055.12759 2.42479e-18
9055.98905 2.40902e-18
9056.85052 2.38273e-18
9057.71198 2.35641e-18
9058.57344 2.32749e-18
9059.43490 2.29856e-18
9060.29636 2.26798e-18
9061.16784 2.23740e-18
9062.02931 2.20557e-18
9062.89077 2.17373e-18
9063.75223 2.13947e-18
9064.61369 2.10521e-18
9065.47515 2.06599e-18
9066.33662 2.02675e-18
9067.19808 1.99255e-18
9068.05954 1.95836e-18
9068.92100 1.94575e-18
9069.78246 1.93321e-18
9070.64393 1.93854e-18
9071.51540 1.94393e-18
9072.37687 1.94863e-18
9073.23833 1.95333e-18
9074.09979 1.95055e-18
9074.96125 1.94775e-18
9075.82271 1.94268e-18
9076.68418 1.93759e-18
9077.54564 1.93346e-18
9078.40710 1.92933e-18
9079.26856 1.92801e-18
9080.13002 1.92670e-18
9080.99149 1.92813e-18
9081.86297 1.92957e-18
9082.72443 1.92731e-18
9083.58589 1.92504e-18
9084.44735 1.91548e-18
9085.30881 1.90592e-18
9086.17028 1.89617e-18
9087.03174 1.88642e-18
9087.89320 1.88195e-18
9088.75466 1.87748e-18
9089.61612 1.87129e-18
9090.48760 1.86510e-18
9091.34906 1.85053e-18
9092.21053 1.83602e-18
9093.07199 1.81996e-18
9093.93345 1.80389e-18
9094.79491 1.79477e-18
9095.65637 1.78567e-18
9096.51784 1.78111e-18
9097.37930 1.77655e-18
9098.24076 1.77151e-18
9099.10222 1.76646e-18
9099.97370 1.76224e-18
9100.83516 1.75803e-18
9101.69663 1.75732e-18
9102.55809 1.75663e-18
9103.41955 1.76461e-18
9104.28101 1.77260e-18
9105.14247 1.79664e-18
9106.00393 1.82073e-18
9106.86540 1.85207e-18
9107.72686 1.88343e-18
9108.58832 1.89961e-18
9109.45980 1.91575e-18
9110.32126 1.90719e-18
9111.18272 1.89856e-18
9112.04419 1.87083e-18
9112.90565 1.84306e-18
9113.76711 1.80762e-18
9114.62857 1.77216e-18
9115.49003 1.75253e-18
9116.35150 1.73295e-18
9117.21296 1.74138e-18
9118.07442 1.74988e-18
9118.93588 1.76823e-18
9119.80736 1.78660e-18
9120.66882 1.79715e-18
9121.53028 1.80767e-18
9122.39175 1.79908e-18
9123.25321 1.79044e-18
9124.11467 1.75589e-18
9124.97613 1.72127e-18
9125.83760 1.67675e-18
9126.69906 1.63220e-18
9127.56052 1.59715e-18
9128.43200 1.56213e-18
9129.29346 1.54660e-18
9130.15492 1.53112e-18
9131.01638 1.54158e-18
9131.87785 1.55212e-18
9132.73931 1.58421e-18
9133.60077 1.61636e-18
9134.46223 1.66022e-18
9135.32369 1.70410e-18
9136.18516 1.74945e-18
9137.04662 1.79480e-18
9137.90808 1.83104e-18
9138.76954 1.86725e-18
9139.64102 1.88757e-18
9140.50248 1.90784e-18
9141.36395 1.90992e-18
9142.22541 1.91196e-18
9143.08687 1.89236e-18
9143.94833 1.87270e-18
9144.80979 1.82645e-18
9145.67125 1.78013e-18
9146.53272 1.71323e-18
9147.39418 1.64627e-18
9148.26566 1.57891e-18
9149.12712 1.51156e-18
9149.98858 1.46209e-18
9150.85004 1.41268e-18
9151.71151 1.39594e-18
9152.57297 1.37929e-18
9153.43443 1.40106e-18
9154.29589 1.42293e-18
9155.15735 1.46419e-18
9156.01882 1.50549e-18
9156.88028 1.54613e-18
9157.75176 1.58676e-18
9158.61322 1.61738e-18
9159.47468 1.64796e-18
9160.33614 1.66130e-18
9161.19760 1.67459e-18
9162.05907 1.67113e-18
9162.92053 1.66762e-18
9163.78199 1.65131e-18
9164.64345 1.63496e-18
9165.50492 1.60526e-18
9166.36638 1.57551e-18
9167.22784 1.53171e-18
9168.09932 1.48786e-18
9168.96078 1.44083e-18
9169.82224 1.39378e-18
9170.68370 1.35823e-18
9171.54517 1.32271e-18
9172.40663 1.30599e-18
9173.26809 1.28933e-18
9174.12955 1.29465e-18
9174.99101 1.30003e-18
9175.85248 1.31834e-18
9176.71394 1.33668e-18
9177.58542 1.34744e-18
9178.44688 1.35817e-18
9179.30834 1.35539e-18
9180.16980 1.35257e-18
9181.03127 1.34973e-18
9181.89273 1.34690e-18
9182.75419 1.35144e-18
9183.61565 1.35600e-18
9184.47711 1.36526e-18
9185.33857 1.37453e-18
9186.20004 1.38533e-18
9187.07152 1.39612e-18
9187.93298 1.40071e-18
9188.79444 1.40527e-18
9189.65590 1.39935e-18
9190.51736 1.39339e-18
9191.37883 1.38892e-18
9192.24029 1.38446e-18
9193.10175 1.39210e-18
9193.96321 1.39977e-18
9194.82467 1.41479e-18
9195.68614 1.42982e-18
9196.55762 1.44544e-18
9197.41908 1.46107e-18
9198.28054 1.47121e-18
9199.14200 1.48133e-18
9200.00346 1.48010e-18
9200.86492 1.47884e-18
9201.72639 1.47058e-18
9202.58785 1.46229e-18
9203.44931 1.45550e-18
9204.31077 1.44871e-18
9205.17224 1.44364e-18
9206.04371 1.43856e-18
9206.90518 1.43146e-18
9207.76664 1.42436e-18
9208.62810 1.41643e-18
9209.48956 1.40850e-18
9210.35102 1.40374e-18
9211.21249 1.39898e-18
9212.07395 1.40139e-18
9212.93541 1.40382e-18
9213.79687 1.41801e-18
9214.65833 1.43223e-18
9215.52981 1.45727e-18
9216.39127 1.48235e-18
9217.25274 1.50873e-18
9218.11420 1.53512e-18
9218.97566 1.55667e-18
9219.83712 1.57820e-18
9220.69859 1.59688e-18
9221.56005 1.61555e-18
9222.42151 1.63247e-18
9223.28297 1.64938e-18
9224.14443 1.66266e-18
9225.00590 1.67593e-18
9225.87737 1.68425e-18
9226.73884 1.69256e-18
9227.60030 1.69454e-18
9228.46176 1.69650e-18
9229.32322 1.69160e-18
9230.18468 1.68669e-18
9231.04615 1.68051e-18
9231.90761 1.67431e-18
9232.76907 1.67328e-18
9233.63053 1.67225e-18
9234.49199 1.67495e-18
9235.35346 1.67766e-18
9236.22494 1.68047e-18
9237.08640 1.68327e-18
9237.94786 1.68784e-18
9238.80932 1.69241e-18
9239.67078 1.70214e-18
9240.53225 1.71189e-18
9241.39371 1.72843e-18
9242.25517 1.74498e-18
9243.11663 1.76899e-18
9243.97809 1.79301e-18
9244.84957 1.82239e-18
9245.71103 1.85178e-18
9246.57250 1.88177e-18
9247.43396 1.91176e-18
9248.29542 1.93962e-18
9249.15688 1.96749e-18
9250.01834 1.99380e-18
9250.87981 2.02011e-18
9251.74127 2.04354e-18
9252.60273 2.06696e-18
9253.46419 2.08188e-18
9254.32565 2.09679e-18
9255.19713 2.10230e-18
9256.05860 2.10778e-18
9256.92006 2.11479e-18
9257.78152 2.12180e-18
9258.64298 2.13852e-18
9259.50444 2.15526e-18
9260.36591 2.17920e-18
9261.22737 2.20316e-18
9262.08883 2.22992e-18
9262.95029 2.25668e-18
9263.81175 2.27660e-18
9264.68323 2.29648e-18
9265.54469 2.30030e-18
9266.40616 2.30408e-18
9267.26762 2.29206e-18
9268.12908 2.28001e-18
9268.99054 2.25597e-18
9269.85200 2.23190e-18
9270.71347 2.20478e-18
9271.57493 2.17766e-18
9272.43639 2.15814e-18
9273.29785 2.13864e-18
9274.16933 2.13514e-18
9275.03079 2.13167e-18
9275.89226 2.15034e-18
9276.75372 2.16907e-18
9277.61518 2.20677e-18
9278.47664 2.24452e-18
9279.33810 2.29088e-18
9280.19957 2.33725e-18
9281.06103 2.38105e-18
9281.92249 2.42484e-18
9282.79397 2.45528e-18
9283.65543 2.48568e-18
9284.51689 2.49416e-18
9285.37835 2.50256e-18
9286.23982 2.48396e-18
9287.10128 2.46530e-18
9287.96274 2.42189e-18
9288.82420 2.37838e-18
9289.68566 2.32391e-18
9290.54713 2.26941e-18
9291.40859 2.21989e-18
9292.27005 2.17038e-18
9293.14153 2.14688e-18
9294.00299 2.12345e-18
9294.86445 2.13973e-18
9295.72592 2.15611e-18
9296.58738 2.19800e-18
9297.44884 2.23995e-18
9298.31030 2.28863e-18
9299.17176 2.33732e-18
9300.03323 2.36715e-18
9300.89469 2.39693e-18
9301.75615 2.38333e-18
9302.62763 2.36960e-18
9303.48909 2.33617e-18
9304.35055 2.30269e-18
9305.21201 2.28807e-18
9306.07348 2.27351e-18
9306.93494 2.26870e-18
9307.79640 2.26391e-18
9308.65786 2.24088e-18
9309.51932 2.21779e-18
9310.38079 2.17784e-18
9311.24225 2.13784e-18
9312.11373 2.09751e-18
9312.97519 2.05717e-18
9313.83665 2.03267e-18
9314.69811 2.00822e-18
9315.55958 2.01798e-18
9316.42104 2.02784e-18
9317.28250 2.06829e-18
9318.14396 2.10882e-18
9319.00542 2.14449e-18
9319.86688 2.18015e-18
9320.72835 2.19713e-18
9321.58981 2.21406e-18
9322.46129 2.24503e-18
9323.32275 2.27604e-18
9324.18421 2.32814e-18
9325.04567 2.38030e-18
9325.90714 2.38673e-18
9326.76860 2.39302e-18
9327.63006 2.31258e-18
9328.49152 2.23189e-18
9329.35298 2.12925e-18
9330.21445 2.02655e-18
9331.07591 1.96432e-18
9331.94739 1.90221e-18
9332.80885 1.86832e-18
9333.67031 1.83451e-18
9334.53177 1.81087e-18
9335.39323 1.78726e-18
9336.25470 1.77429e-18
9337.11616 1.76134e-18
9337.97762 1.75592e-18
9338.83908 1.75052e-18
9339.70055 1.80779e-18
9340.56201 1.86524e-18
9341.43349 2.05987e-18
9342.29495 2.25488e-18
9343.15641 2.49123e-18
9344.01787 2.72767e-18
9344.87933 2.82977e-18
9345.74080 2.93145e-18
9346.60226 2.84681e-18
9347.46372 2.76161e-18
9348.32518 2.52018e-18
9349.18664 2.27832e-18
9350.04811 1.99114e-18
9350.90957 1.70383e-18
9351.78105 1.57566e-18
9352.64251 1.44794e-18
9353.50397 1.54594e-18
9354.36543 1.64459e-18
9355.22689 1.82066e-18
9356.08836 1.99694e-18
9356.94982 2.12653e-18
9357.81128 2.25598e-18
9358.67274 2.26479e-18
9359.53420 2.27326e-18
9360.39567 2.12919e-18
9361.26715 1.98468e-18
9362.12861 1.80442e-18
9362.99007 1.62405e-18
9363.85153 1.51773e-18
9364.71299 1.41162e-18
9365.57446 1.38558e-18
9366.43592 1.35978e-18
9367.29738 1.40342e-18
9368.15884 1.44725e-18
9369.02030 1.50585e-18
9369.89178 1.56449e-18
9370.75324 1.57538e-18
9371.61471 1.58614e-18
9372.47617 1.55317e-18
9373.33763 1.52007e-18
9374.19909 1.46665e-18
9375.06056 1.41317e-18
9375.92202 1.37510e-18
9376.78348 1.33708e-18
9377.64494 1.35811e-18
9378.50640 1.37930e-18
9379.37788 1.44283e-18
9380.23934 1.50648e-18
9381.10081 1.55620e-18
9381.96227 1.60588e-18
9382.82373 1.62385e-18
9383.68519 1.64173e-18
9384.54665 1.64414e-18
9385.40812 1.64651e-18
9386.26958 1.63785e-18
9387.13104 1.62915e-18
9387.99250 1.60183e-18
9388.85396 1.57445e-18
9389.72544 1.52803e-18
9390.58691 1.48156e-18
9391.44837 1.42306e-18
9392.30983 1.36453e-18
9393.17129 1.30354e-18
9394.03275 1.24254e-18
9394.89422 1.19609e-18
9395.75568 1.14969e-18
9396.61714 1.12931e-18
9397.47860 1.10901e-18
9398.34006 1.10616e-18
9399.21154 1.10336e-18
9400.07300 1.10730e-18
9400.93447 1.11125e-18
9401.79593 1.11165e-18
9402.65739 1.11204e-18
9403.51885 1.09987e-18
9404.38031 1.08766e-18
9405.24178 1.07306e-18
9406.10324 1.05847e-18
9406.96470 1.05571e-18
9407.82616 1.05299e-18
9408.69764 1.06222e-18
9409.55910 1.07150e-18
9410.42057 1.08777e-18
9411.28203 1.10406e-18
9412.14349 1.11967e-18
9413.00495 1.13527e-18
9413.86641 1.14109e-18
9414.72788 1.14687e-18
9415.58934 1.13680e-18
9416.45080 1.12668e-18
9417.31226 1.09885e-18
9418.17372 1.07096e-18
9419.04520 1.02731e-18
9419.90666 9.83618e-19
9420.76813 9.27067e-19
9421.62959 8.70480e-19
9422.49105 8.21267e-19
9423.35251 7.72075e-19
9424.21397 7.78503e-19
9425.07544 7.85093e-19
9425.93690 8.62672e-19
9426.79836 9.40453e-19
9427.65982 1.03854e-18
9428.53130 1.13668e-18
9429.39276 1.20645e-18
9430.25423 1.27614e-18
9431.11569 1.27239e-18
9431.97715 1.26843e-18
9432.83861 1.16828e-18
9433.70007 1.06785e-18
9434.56153 9.50699e-19
9435.42300 8.33505e-19
9436.28446 7.82428e-19
9437.14592 7.31547e-19
9438.01740 7.59631e-19
9438.87886 7.87945e-19
9439.74032 8.89812e-19
9440.60179 9.91889e-19
9441.46325 1.11580e-18
9442.32471 1.23977e-18
9443.18617 1.31914e-18
9444.04763 1.39838e-18
9444.90910 1.41416e-18
9445.77056 1.42976e-18
9446.63202 1.38611e-18
9447.49348 1.34228e-18
9448.36496 1.26276e-18
9449.22642 1.18314e-18
9450.08788 1.10567e-18
9450.94935 1.02820e-18
9451.81081 9.77476e-19
9452.67227 9.26830e-19
9453.53373 9.12480e-19
9454.39520 8.98237e-19
9455.25666 9.22668e-19
9456.11812 9.47213e-19
9456.98960 1.00450e-18
9457.85106 1.06187e-18
9458.71252 1.13486e-18
9459.57398 1.20789e-18
9460.43545 1.26197e-18
9461.29691 1.31599e-18
9462.15837 1.33031e-18
9463.01983 1.34451e-18
9463.88129 1.33536e-18
9464.74276 1.32614e-18
9465.60422 1.31055e-18
9466.47570 1.29494e-18
9467.33716 1.28338e-18
9468.19862 1.27183e-18
9469.06008 1.27271e-18
9469.92155 1.27362e-18
9470.78301 1.27403e-18
9471.64447 1.27445e-18
9472.50593 1.26068e-18
9473.36739 1.24688e-18
9474.22885 1.22752e-18
9475.09032 1.20814e-18
9475.96180 1.19489e-18
9476.82326 1.18165e-18
9477.68472 1.19874e-18
9478.54618 1.21592e-18
9479.40764 1.29068e-18
9480.26911 1.36562e-18
9481.13057 1.46838e-18
9481.99203 1.57122e-18
9482.85349 1.64456e-18
9483.71495 1.71781e-18
9484.57642 1.73146e-18
9485.43788 1.74494e-18
9486.30936 1.68831e-18
9487.17082 1.63147e-18
9488.03228 1.52761e-18
9488.89374 1.42362e-18
9489.75520 1.33328e-18
9490.61667 1.24298e-18
9491.47813 1.20498e-18
9492.33959 1.16713e-18
9493.20105 1.18077e-18
9494.06252 1.19456e-18
9494.92398 1.25963e-18
9495.79546 1.32486e-18
9496.65692 1.44967e-18
9497.51838 1.57465e-18
9498.37984 1.74603e-18
9499.24130 1.91755e-18
9500.10277 2.06844e-18
9500.96423 2.21927e-18
9501.82569 2.29167e-18
9502.68715 2.36383e-18
9503.54861 2.34856e-18
9504.41008 2.33304e-18
9505.28155 2.23602e-18
9506.14302 2.13877e-18
9507.00448 2.01040e-18
9507.86594 1.88195e-18
9508.72740 1.78217e-18
9509.58887 1.68247e-18
9510.45033 1.61715e-18
9511.31179 1.55193e-18
9512.17325 1.50923e-18
9513.03471 1.46659e-18
9513.89617 1.45816e-18
9514.75764 1.44983e-18
9515.62912 1.49237e-18
9516.49058 1.53506e-18
9517.35204 1.62370e-18
9518.21350 1.71248e-18
9519.07496 1.83085e-18
9519.93643 1.94931e-18
9520.79789 2.06860e-18
9521.65935 2.18789e-18
9522.52081 2.26841e-18
9523.38227 2.34882e-18
9524.24374 2.37720e-18
9525.11522 2.40543e-18
9525.97668 2.40252e-18
9526.83814 2.39953e-18
9527.69960 2.38457e-18
9528.56106 2.36957e-18
9529.42252 2.35775e-18
9530.28399 2.34594e-18
9531.14545 2.34578e-18
9532.00691 2.34565e-18
9532.86837 2.34365e-18
9533.72984 2.34164e-18
9534.60131 2.32641e-18
9535.46278 2.31114e-18
9536.32424 2.27923e-18
9537.18570 2.24728e-18
9538.04716 2.20052e-18
9538.90862 2.15372e-18
9539.77009 2.13478e-18
9540.63155 2.11593e-18
9541.49301 2.16509e-18
9542.35447 2.21446e-18
9543.21593 2.30287e-18
9544.08741 2.39139e-18
9544.94888 2.47610e-18
9545.81034 2.56079e-18
9546.67180 2.59989e-18
9547.53326 2.63884e-18
9548.39472 2.58935e-18
9549.25619 2.53963e-18
9550.11765 2.45140e-18
9550.97911 2.36307e-18
9551.84057 2.33645e-18
9552.70203 2.31002e-18
9553.57351 2.35183e-18
9554.43497 2.39384e-18
9555.29644 2.44477e-18
9556.15790 2.49571e-18
9557.01936 2.51578e-18
9557.88082 2.53575e-18
9558.74228 2.49835e-18
9559.60375 2.46080e-18
9560.46521 2.38243e-18
9561.32667 2.30396e-18
9562.18813 2.27523e-18
9563.05961 2.24664e-18
9563.92107 2.31428e-18
9564.78254 2.38221e-18
9565.64400 2.49810e-18
9566.50546 2.61415e-18
9567.36692 2.72653e-18
9568.22838 2.83889e-18
9569.08985 2.88598e-18
9569.95131 2.93290e-18
9570.81277 2.87218e-18
9571.67423 2.81115e-18
9572.53569 2.69612e-18
9573.40717 2.58095e-18
9574.26863 2.47520e-18
9575.13010 2.36950e-18
9575.99156 2.31553e-18
9576.85302 2.26171e-18
9577.71448 2.29309e-18
9578.57594 2.32472e-18
9579.43741 2.38869e-18
9580.29887 2.45273e-18
9581.16033 2.47222e-18
9582.02179 2.49159e-18
9582.89327 2.45641e-18
9583.75473 2.42109e-18
9584.61620 2.34637e-18
9585.47766 2.27152e-18
9586.33912 2.21113e-18
9587.20058 2.15079e-18
9588.06204 2.18679e-18
9588.92351 2.22307e-18
9589.78497 2.34519e-18
9590.64643 2.46757e-18
9591.51791 2.58168e-18
9592.37937 2.69578e-18
9593.24083 2.75113e-18
9594.10229 2.80633e-18
9594.96376 2.80778e-18
9595.82522 2.80909e-18
9596.68668 2.76687e-18
9597.54814 2.72452e-18
9598.40960 2.66242e-18
9599.27107 2.60030e-18
9600.13253 2.54461e-18
9600.99399 2.48893e-18
9601.86547 2.46043e-18
9602.72693 2.43201e-18
9603.58839 2.44426e-18
9604.44986 2.45666e-18
9605.31132 2.50740e-18
9606.17278 2.55827e-18
9607.03424 2.63608e-18
9607.89570 2.71394e-18
9608.75717 2.76934e-18
9609.61863 2.82466e-18
9610.48009 2.80994e-18
9611.35157 2.79500e-18
9612.21303 2.73038e-18
9613.07449 2.66564e-18
9613.93595 2.58928e-18
9614.79742 2.51287e-18
9615.65888 2.45128e-18
9616.52034 2.38972e-18
9617.38180 2.36500e-18
9618.24326 2.34040e-18
9619.10473 2.35824e-18
9619.96619 2.37620e-18
9620.82765 2.43046e-18
9621.69913 2.48484e-18
9622.56059 2.55594e-18
9623.42205 2.62710e-18
9624.28352 2.68782e-18
9625.14498 2.74851e-18
9626.00644 2.77289e-18
9626.86790 2.79715e-18
9627.72936 2.76086e-18
9628.59083 2.72440e-18
9629.45229 2.63458e-18
9630.31375 2.54461e-18
9631.17521 2.45443e-18
9632.04669 2.36423e-18
9632.90815 2.31493e-18
9633.76961 2.26575e-18
9634.63108 2.27340e-18
9635.49254 2.28123e-18
9636.35400 2.34413e-18
9637.21546 2.40720e-18
9638.07692 2.46569e-18
9638.93839 2.52415e-18
9639.79985 2.52890e-18
9640.67133 2.53348e-18
9641.53279 2.51527e-18
9642.39425 2.49699e-18
9643.25571 2.49181e-18
9644.11718 2.48668e-18
9644.97864 2.50321e-18
9645.84010 2.51984e-18
9646.70156 2.56163e-18
9647.56302 2.60349e-18
9648.42448 2.64262e-18
9649.28595 2.68172e-18
9650.15743 2.68181e-18
9651.01889 2.68177e-18
9651.88035 2.64269e-18
9652.74181 2.60349e-18
9653.60327 2.54156e-18
9654.46474 2.47953e-18
9655.32620 2.41713e-18
9656.18766 2.35472e-18
9657.04912 2.31771e-18
9657.91058 2.28077e-18
9658.77205 2.28358e-18
9659.64352 2.28651e-18
9660.50499 2.33269e-18
9661.36645 2.37900e-18
9662.22791 2.45392e-18
9663.08937 2.52892e-18
9663.95083 2.59441e-18
9664.81230 2.65988e-18
9665.67376 2.69385e-18
9666.53522 2.72774e-18
9667.39668 2.74188e-18
9668.25815 2.75597e-18
9669.11961 2.75699e-18
9669.99109 2.75796e-18
9670.85255 2.73455e-18
9671.71401 2.71104e-18
9672.57547 2.66010e-18
9673.43693 2.60906e-18
9674.29840 2.55142e-18
9675.15986 2.49372e-18
9676.02132 2.45014e-18
9676.88278 2.40661e-18
9677.74424 2.39161e-18
9678.61572 2.37670e-18
9679.47718 2.39988e-18
9680.33865 2.42317e-18
9681.20011 2.46544e-18
9682.06157 2.50774e-18
9682.92303 2.54248e-18
9683.78449 2.57720e-18
9684.64596 2.59654e-18
9685.50742 2.61582e-18
9686.36888 2.61867e-18
9687.23034 2.62148e-18
9688.10182 2.61061e-18
9688.96328 2.59972e-18
9689.82475 2.58185e-18
9690.68621 2.56396e-18
9691.54767 2.54030e-18
9692.40913 2.51662e-18
9693.27059 2.48363e-18
9694.13206 2.45058e-18
9694.99352 2.41309e-18
9695.85498 2.37559e-18
9696.71644 2.34694e-18
9697.57790 2.31832e-18
9698.44938 2.30512e-18
9699.31084 2.29197e-18
9700.17231 2.29171e-18
9701.03377 2.29149e-18
9701.89523 2.29872e-18
9702.75669 2.30598e-18
9703.61816 2.30860e-18
9704.47962 2.31120e-18
9705.34108 2.30138e-18
9706.20254 2.29152e-18
9707.06400 2.27680e-18
9707.93548 2.26207e-18
9708.79694 2.25028e-18
9709.65841 2.23850e-18
9710.51987 2.23390e-18
9711.38133 2.22931e-18
9712.24279 2.23468e-18
9713.10425 2.24008e-18
9713.96572 2.24800e-18
9714.82718 2.25592e-18
9715.68864 2.25745e-18
9716.55010 2.25896e-18
9717.41156 2.25153e-18
9718.28304 2.24408e-18
9719.14451 2.22668e-18
9720.00597 2.20924e-18
9720.86743 2.19117e-18
9721.72889 2.17310e-18
9722.59035 2.16868e-18
9723.45182 2.16429e-18
9724.31328 2.16723e-18
9725.17474 2.17020e-18
9726.03620 2.16182e-18
9726.89766 2.15340e-18
9727.76914 2.12709e-18
9728.63060 2.10072e-18
9729.49207 2.05994e-18
9730.35353 2.01913e-18
9731.21499 1.97259e-18
9732.07645 1.92603e-18
9732.93791 1.88973e-18
9733.79938 1.85346e-18
9734.66084 1.83737e-18
9735.52230 1.82133e-18
9736.38376 1.82351e-18
9737.25524 1.82573e-18
9738.11670 1.84168e-18
9738.97817 1.85768e-18
9739.83963 1.87858e-18
9740.70109 1.89950e-18
9741.56255 1.91663e-18
9742.42401 1.93374e-18
9743.28548 1.94247e-18
9744.14694 1.95117e-18
9745.00840 1.94874e-18
9745.86986 1.94629e-18
9746.74134 1.93644e-18
9747.60280 1.92657e-18
9748.46426 1.91440e-18
9749.32573 1.90223e-18
9750.18719 1.88895e-18
9751.04865 1.87567e-18
9751.91011 1.86193e-18
9752.77157 1.84819e-18
9753.63304 1.83352e-18
9754.49450 1.81886e-18
9755.35596 1.80233e-18
9756.22744 1.78579e-18
9757.08890 1.77083e-18
9757.95036 1.75587e-18
9758.81183 1.74757e-18
9759.67329 1.73928e-18
9760.53475 1.74156e-18
9761.39621 1.74387e-18
9762.25767 1.76010e-18
9763.11913 1.77638e-18
9763.98060 1.80146e-18
9764.84206 1.82657e-18
9765.71354 1.84610e-18
9766.57500 1.86562e-18
9767.43646 1.87254e-18
9768.29792 1.87943e-18
9769.15939 1.87837e-18
9770.02085 1.87729e-18
9770.88231 1.87220e-18
9771.74377 1.86709e-18
9772.60523 1.85993e-18
9773.46670 1.85276e-18
9774.32816 1.84604e-18
9775.19964 1.83931e-18
9776.06110 1.83499e-18
9776.92256 1.83067e-18
9777.78402 1.83008e-18
9778.64548 1.82950e-18
9779.50695 1.83432e-18
9780.36841 1.83915e-18
9781.22987 1.84984e-18
9782.09133 1.86056e-18
9782.95280 1.86787e-18
9783.81426 1.87517e-18
9784.68574 1.86904e-18
9785.54720 1.86287e-18
9786.40866 1.84817e-18
9787.27012 1.83345e-18
9788.13158 1.81935e-18
9788.99305 1.80526e-18
9789.85451 1.79499e-18
9790.71597 1.78473e-18
9791.57743 1.77964e-18
9792.43889 1.77455e-18
9793.30036 1.77119e-18
9794.16182 1.76784e-18
9795.03330 1.75898e-18
9795.89476 1.75011e-18
9796.75622 1.73787e-18
9797.61768 1.72563e-18
9798.47915 1.72057e-18
9799.34061 1.71553e-18
9800.20207 1.72117e-18
9801.06353 1.72684e-18
9801.92499 1.73818e-18
9802.78645 1.74954e-18
9803.64792 1.76153e-18
9804.51940 1.77351e-18
9805.38086 1.78022e-18
9806.24232 1.78691e-18
9807.10378 1.78546e-18
9807.96524 1.78398e-18
9808.82671 1.78007e-18
9809.68817 1.77614e-18
9810.54963 1.77517e-18
9811.41109 1.77420e-18
9812.27255 1.77959e-18
9813.13402 1.78500e-18
9813.99548 1.79835e-18
9814.86696 1.81172e-18
9815.72842 1.82352e-18
9816.58988 1.83532e-18
9817.45134 1.83549e-18
9818.31280 1.83563e-18
9819.17427 1.82551e-18
9820.03573 1.81537e-18
9820.89719 1.79921e-18
9821.75865 1.78303e-18
9822.62012 1.76705e-18
9823.48158 1.75107e-18
9824.35306 1.74254e-18
9825.21452 1.73403e-18
9826.07598 1.73188e-18
9826.93744 1.72975e-18
9827.79890 1.72811e-18
9828.66037 1.72648e-18
9829.52183 1.72390e-18
9830.38329 1.72131e-18
9831.24475 1.71953e-18
9832.10621 1.71775e-18
9832.97769 1.71637e-18
9833.83915 1.71498e-18
9834.70062 1.71171e-18
9835.56208 1.70843e-18
9836.42354 1.70223e-18
9837.28500 1.69601e-18
9838.14647 1.68748e-18
9839.00793 1.67894e-18
9839.86939 1.66879e-18
9840.73085 1.65863e-18
9841.59231 1.64720e-18
9842.45377 1.63578e-18
9843.32525 1.62439e-18
9844.18672 1.61300e-18
9845.04818 1.60569e-18
9845.90964 1.59838e-18
9846.77110 1.59832e-18
9847.63256 1.59827e-18
9848.49403 1.60447e-18
9849.35549 1.61069e-18
9850.21695 1.62135e-18
9851.07841 1.63202e-18
9851.93987 1.64542e-18
9852.81135 1.65882e-18
9853.67282 1.67291e-18
9854.53428 1.68700e-18
9855.39574 1.70050e-18
9856.25720 1.71400e-18
9857.11866 1.72595e-18
9857.98013 1.73791e-18
9858.84159 1.74576e-18
9859.70305 1.75361e-18
9860.56451 1.75444e-18
9861.42597 1.75525e-18
9862.29745 1.74865e-18
9863.15891 1.74203e-18
9864.02038 1.72926e-18
9864.88184 1.71648e-18
9865.74330 1.69987e-18
9866.60476 1.68325e-18
9867.46622 1.66614e-18
9868.32769 1.64902e-18
9869.18915 1.63331e-18
9870.05061 1.61760e-18
9870.92209 1.60307e-18
9871.78355 1.58854e-18
9872.64501 1.57544e-18
9873.50648 1.56235e-18
9874.36794 1.55180e-18
9875.22940 1.54126e-18
9876.09086 1.53416e-18
9876.95232 1.52706e-18
9877.81379 1.52422e-18
9878.67525 1.52138e-18
9879.53671 1.52317e-18
9880.39817 1.52497e-18
9881.26965 1.53082e-18
9882.13111 1.53668e-18
9882.99257 1.54554e-18
9883.85404 1.55441e-18
9884.71550 1.56437e-18
9885.57696 1.57433e-18
9886.43842 1.58332e-18
9887.29988 1.59230e-18
9888.16135 1.59836e-18
9889.02281 1.60441e-18
9889.88427 1.60592e-18
9890.74573 1.60742e-18
9891.61721 1.60434e-18
9892.47867 1.60125e-18
9893.34014 1.59441e-18
9894.20160 1.58755e-18
9895.06306 1.57782e-18
9895.92452 1.56808e-18
9896.78598 1.55639e-18
9897.64745 1.54469e-18
9898.50891 1.53256e-18
9899.37037 1.52042e-18
9900.23183 1.50986e-18
9901.09329 1.49930e-18
9901.96477 1.49064e-18
9902.82623 1.48198e-18
9903.68770 1.47351e-18
9904.54916 1.46505e-18
9905.41062 1.45716e-18
9906.27208 1.44928e-18
9907.13354 1.44571e-18
9907.99501 1.44214e-18
9908.85647 1.44463e-18
9909.71793 1.44713e-18
9910.57939 1.45400e-18
9911.45087 1.46088e-18
9912.31233 1.46936e-18
9913.17380 1.47785e-18
9914.03526 1.48211e-18
9914.89672 1.48636e-18
9915.75818 1.48177e-18
9916.61964 1.47716e-18
9917.48111 1.46534e-18
9918.34257 1.45350e-18
9919.20403 1.43729e-18
9920.07551 1.42106e-18
9920.93697 1.40366e-18
9921.79843 1.38626e-18
9922.65989 1.37095e-18
9923.52136 1.35565e-18
9924.38282 1.34387e-18
9925.24428 1.33210e-18
9926.10574 1.32441e-18
9926.96720 1.31673e-18
9927.82867 1.31099e-18
9928.69013 1.30526e-18
9929.56161 1.29810e-18
9930.42307 1.29093e-18
9931.28453 1.28124e-18
9932.14599 1.27153e-18
9933.00746 1.25979e-18
9933.86892 1.24804e-18
9934.73038 1.23524e-18
9935.59184 1.22244e-18
9936.45330 1.21003e-18
9937.31477 1.19762e-18
9938.17623 1.18750e-18
9939.03769 1.17738e-18
9939.90917 1.17194e-18
9940.77063 1.16652e-18
9941.63209 1.16641e-18
9942.49355 1.16633e-18
9943.35502 1.16908e-18
9944.21648 1.17185e-18
9945.07794 1.17533e-18
9945.93940 1.17882e-18
9946.80086 1.18248e-18
9947.66233 1.18616e-18
9948.52379 1.18939e-18
9949.39527 1.19262e-18
9950.25673 1.19423e-18
9951.11819 1.19584e-18
9951.97965 1.19507e-18
9952.84112 1.19429e-18
9953.70258 1.19267e-18
9954.56404 1.19104e-18
9955.42550 1.19026e-18
9956.28696 1.18947e-18
9957.14843 1.18839e-18
9958.00989 1.18731e-18
9958.88137 1.18439e-18
9959.74283 1.18146e-18
9960.60429 1.17589e-18
9961.46575 1.17031e-18
9962.32721 1.16159e-18
9963.18868 1.15286e-18
9964.05014 1.14359e-18
9964.91160 1.13432e-18
9965.77306 1.12887e-18
9966.63452 1.12343e-18
9967.49599 1.12282e-18
9968.36747 1.12223e-18
9969.22893 1.12478e-18
9970.09039 1.12734e-18
9970.95185 1.13278e-18
9971.81331 1.13823e-18
9972.67477 1.14783e-18
9973.53624 1.15743e-18
9974.39770 1.17065e-18
9975.25916 1.18388e-18
9976.12062 1.19789e-18
9976.98208 1.21191e-18
9977.85356 1.22447e-18
9978.71503 1.23703e-18
9979.57649 1.24705e-18
9980.43795 1.25708e-18
9981.29941 1.26419e-18
9982.16087 1.27130e-18
9983.02234 1.27702e-18
9983.88380 1.28274e-18
9984.74526 1.28860e-18
9985.60672 1.29445e-18
9986.46818 1.30119e-18
9987.32965 1.30793e-18
9988.20112 1.31596e-18
9989.06259 1.32399e-18
9989.92405 1.33047e-18
9990.78551 1.33695e-18
9991.64697 1.33868e-18
9992.50843 1.34039e-18
9993.36990 1.33978e-18
9994.23136 1.33916e-18
9995.09282 1.34032e-18
9995.95428 1.34148e-18
9996.81574 1.34370e-18
9997.67721 1.34593e-18
9998.54869 1.34660e-18
9999.41015 1.34726e-18
