# wavelength flux
3706.85195 5.91664e-18
3708.32416 1.00627e-17
3709.79636 1.61657e-17
3711.25855 2.28343e-18
3712.73076 1.60864e-17
3714.20296 1.63192e-17
3715.67517 1.65521e-17
3717.13736 1.60685e-17
3718.60956 1.55849e-17
3720.08177 1.51015e-17
3721.55397 1.46181e-17
3723.02617 1.41347e-17
3724.48837 1.36513e-17
3725.96057 1.31680e-17
3727.43278 1.26848e-17
3728.90498 1.22016e-17
3730.36717 1.17186e-17
3731.83938 1.12355e-17
3733.31158 1.07525e-17
3734.78379 1.02695e-17
3736.24598 9.78668e-18
3737.71818 9.30373e-18
3739.19039 8.82092e-18
3740.66259 8.33815e-18
3742.13480 7.85552e-18
3743.59699 7.37285e-18
3745.06919 6.89024e-18
3746.54140 6.40767e-18
3748.01360 5.92524e-18
3749.47579 5.44277e-18
3750.94799 4.96028e-18
3752.42020 4.47792e-18
3753.89241 -3.52070e-18
3755.36461 7.98964e-18
3756.82680 1.60445e-17
3758.29901 1.13641e-17
3759.77121 7.39219e-18
3761.24342 4.07447e-18
3762.70561 6.19303e-18
3764.17781 3.37483e-18
3765.65002 1.37236e-17
3767.12222 1.12553e-17
3768.59443 4.88218e-18
3770.05661 4.76996e-18
3771.52882 1.17035e-18
3773.00103 -9.68153e-19
3774.47323 1.95091e-18
3775.93542 8.29591e-18
3777.40763 1.10252e-17
3778.87983 1.41658e-17
3780.35204 4.27615e-18
3781.81423 1.77818e-18
3783.28643 1.03190e-18
3784.75864 1.48202e-18
3786.23084 1.20299e-17
3787.70305 5.12238e-18
3789.16523 6.58383e-18
3790.63744 -2.43954e-18
3792.10965 2.68353e-18
3793.58185 1.23941e-17
3795.04404 1.67416e-17
3796.51625 1.08028e-17
3797.98845 5.08917e-18
3799.46066 3.89542e-18
3800.93286 1.13911e-17
3802.39505 1.00668e-18
3803.86726 -3.62041e-18
3805.33946 7.52284e-18
3806.81167 3.50604e-18
3808.27386 3.97228e-18
3809.74606 -2.02743e-18
3811.21827 -4.84994e-18
3812.69047 4.23961e-18
3814.16268 -1.12196e-18
3815.62487 1.58314e-21
3817.09707 1.78321e-17
3818.56928 1.42398e-17
3820.04148 5.70472e-18
3821.50367 1.17310e-17
3822.97588 8.86500e-19
3824.44808 5.62554e-18
3825.92029 1.48944e-17
3827.38248 -3.33250e-19
3828.85468 -4.54562e-18
3830.32689 3.34557e-18
3831.79909 1.05387e-17
3833.27130 1.63292e-17
3834.73349 1.23358e-17
3836.20569 1.46803e-17
3837.67790 9.27687e-18
3839.15010 9.53623e-19
3840.61229 1.92973e-18
3842.08450 1.26410e-18
3843.55670 4.85111e-18
3845.02891 5.61256e-18
3846.50111 6.78874e-18
3847.96330 1.16097e-17
3849.43551 1.14192e-17
3850.90771 7.61295e-18
3852.37992 1.20744e-17
3853.84211 9.32778e-18
3855.31431 5.82173e-18
3856.78652 1.26695e-17
3858.25872 1.48944e-17
3859.73092 1.61885e-17
3861.19312 7.57309e-18
3862.66532 6.31508e-18
3864.13753 1.66911e-17
3865.60973 1.75566e-17
3867.07192 6.65607e-18
3868.54413 5.79740e-18
3870.01633 2.20565e-17
3871.48854 2.55453e-17
3872.95073 1.81912e-17
3874.42293 1.20526e-17
3875.89514 1.15517e-17
3877.36734 1.82157e-17
3878.83955 1.42228e-17
3880.30174 1.30269e-17
3881.77394 1.85596e-17
3883.24615 1.70423e-17
3884.71835 5.24929e-18
3886.18054 6.12409e-18
3887.65275 1.46687e-17
3889.12495 1.34661e-17
3890.59716 1.95868e-17
3892.06936 1.90991e-17
3893.53155 1.83588e-17
3895.00376 1.47317e-17
3896.47596 1.15361e-17
3897.94817 1.49871e-17
3899.41036 8.79689e-18
3900.88256 4.96993e-18
3902.35477 4.74483e-18
3903.82697 1.84031e-18
3905.29918 9.46706e-18
3906.76137 1.95638e-17
3908.23357 1.51359e-17
3909.70578 1.42216e-17
3911.17798 1.95714e-17
3912.64017 1.20226e-17
3914.11238 6.31367e-18
3915.58458 1.45991e-17
3917.05679 2.45187e-17
3918.51898 2.30316e-17
3919.99118 2.25779e-17
3921.46339 2.45677e-17
3922.93559 2.40888e-17
3924.40780 2.14125e-17
3925.86998 1.44554e-17
3927.34219 1.07129e-17
3928.81439 1.76197e-17
3930.28660 1.72380e-17
3931.74879 1.91014e-17
3933.22100 1.71756e-17
3934.69320 1.44246e-17
3936.16541 2.32315e-17
3937.63761 2.01584e-17
3939.09980 1.68850e-17
3940.57201 1.44040e-17
3942.04421 1.25998e-17
3943.51642 1.66026e-17
3944.97861 1.51085e-17
3946.45081 1.84333e-17
3947.92302 2.31880e-17
3949.39522 1.83746e-17
3950.86742 1.53605e-17
3952.32962 1.30739e-17
3953.80182 1.77221e-17
3955.27403 2.56387e-17
3956.74623 1.90224e-17
3958.20842 1.18367e-17
3959.68063 7.16843e-18
3961.15283 1.25601e-17
3962.62504 2.47375e-17
3964.08723 2.39974e-17
3965.55943 9.15977e-18
3967.03164 1.29166e-17
3968.50384 2.06426e-17
3969.97605 1.48884e-17
3971.43824 1.34497e-17
3972.91044 8.92411e-18
3974.38265 8.68090e-18
3975.85485 1.64448e-17
3977.31704 1.43881e-17
3978.78924 1.02556e-17
3980.26145 1.48413e-17
3981.73365 1.62049e-17
3983.20586 1.73156e-17
3984.66805 2.15873e-17
3986.14026 2.48617e-17
3987.61246 2.11808e-17
3989.08467 1.19592e-17
3990.54686 9.51365e-18
3992.01906 1.56443e-17
3993.49127 2.59280e-17
3994.96347 2.69958e-17
3996.43568 1.99391e-17
3997.89786 1.44456e-17
3999.37007 1.06932e-17
4000.84227 1.41495e-17
4002.31448 1.65420e-17
4003.77667 2.03934e-17
4005.24888 2.45343e-17
4006.72108 1.95948e-17
4008.19329 1.75327e-17
4009.65548 1.84424e-17
4011.12768 1.96378e-17
4012.59989 1.61066e-17
4014.07209 1.62773e-17
4015.54430 1.69335e-17
4017.00648 1.86353e-17
4018.47869 2.73780e-17
4019.95089 1.80692e-17
4021.42310 1.54391e-17
4022.88529 1.92074e-17
4024.35750 1.70902e-17
4025.82970 1.46070e-17
4027.30191 1.33061e-17
4028.77411 1.23426e-17
4030.23630 1.33527e-17
4031.70851 2.11782e-17
4033.18071 1.76681e-17
4034.65292 1.86175e-17
4036.11511 2.24106e-17
4037.58731 1.94085e-17
4039.05952 1.68071e-17
4040.53172 1.82386e-17
4041.99391 1.67677e-17
4043.46612 1.34187e-17
4044.93832 7.62870e-18
4046.41053 9.27348e-18
4047.88273 1.27535e-17
4049.34492 1.28484e-17
4050.81713 1.41483e-17
4052.28933 9.95458e-18
4053.76154 1.22235e-17
4055.22373 2.19707e-17
4056.69593 2.24352e-17
4058.16814 1.48920e-17
4059.64034 8.31398e-18
4061.11255 9.24305e-18
4062.57474 1.59878e-17
4064.04694 1.95988e-17
4065.51915 1.94022e-17
4066.99135 2.05998e-17
4068.45354 1.23466e-17
4069.92575 7.84491e-18
4071.39795 1.40203e-17
4072.87016 1.89115e-17
4074.34236 2.04197e-17
4075.80455 1.77701e-17
4077.27676 1.06181e-17
4078.74896 1.43597e-17
4080.22117 1.90680e-17
4081.68336 1.45027e-17
4083.15556 1.15915e-17
4084.62777 1.17431e-17
4086.09997 1.77196e-17
4087.56216 2.21234e-17
4089.03436 1.75269e-17
4090.50657 1.62775e-17
4091.97878 1.16489e-17
4093.45098 6.01424e-18
4094.91317 7.28929e-18
4096.38537 6.39724e-18
4097.85758 7.10847e-18
4099.32978 7.09894e-18
4100.79198 1.18576e-17
4102.26418 1.51743e-17
4103.73639 1.40133e-17
4105.20859 1.62028e-17
4106.68080 1.54505e-17
4108.14299 1.70623e-17
4109.61519 1.86402e-17
4111.08740 9.18852e-18
4112.55960 2.38619e-18
4114.02179 3.55239e-18
4115.49399 1.03279e-17
4116.96620 9.25782e-18
4118.43841 7.44912e-18
4119.90060 1.75311e-17
4121.37280 1.06659e-17
4122.84501 4.34723e-18
4124.31721 8.60152e-18
4125.78942 1.39690e-17
4127.25161 1.26693e-17
4128.72381 1.55725e-17
4130.19602 1.45333e-17
4131.66822 1.16671e-17
4133.13041 1.06354e-17
4134.60261 5.18414e-18
4136.07482 9.44844e-18
4137.54703 1.99375e-17
4139.01923 2.11233e-17
4140.48142 9.47329e-18
4141.95363 5.96864e-18
4143.42583 1.00897e-17
4144.89804 9.21128e-18
4146.36022 9.36392e-18
4147.83243 9.65277e-18
4149.30464 1.24834e-17
4150.77684 1.43416e-17
4152.24904 8.92934e-18
4153.71123 7.27922e-18
4155.18344 1.46282e-17
4156.65565 9.91958e-18
4158.12785 1.41367e-17
4159.59004 1.33993e-17
4161.06225 7.86179e-18
4162.53445 7.62012e-18
4164.00666 9.04960e-18
4165.47886 1.16427e-17
4166.94105 1.20766e-17
4168.41326 9.55769e-18
4169.88546 1.64415e-17
4171.35766 1.09341e-17
4172.81985 2.64809e-18
4174.29206 2.73235e-18
4175.76427 3.52556e-18
4177.23647 9.77851e-18
4178.69866 1.28301e-17
4180.17087 9.65098e-18
4181.64307 4.74438e-18
4183.11528 3.45422e-18
4184.58748 7.15365e-18
4186.04967 8.02142e-18
4187.52188 1.19592e-17
4188.99408 1.43535e-17
4190.46628 1.51265e-17
4191.92847 1.04451e-17
4193.40068 1.25698e-17
4194.87289 1.35904e-17
4196.34509 1.10659e-17
4197.81729 1.47436e-17
4199.27949 1.14252e-17
4200.75169 1.25863e-17
4202.22390 1.10848e-17
4203.69610 4.78021e-18
4205.15829 5.09867e-18
4206.63050 6.25788e-18
4208.10270 1.15051e-17
4209.57491 1.41205e-17
4211.03709 1.27663e-17
4212.50930 1.53915e-17
4213.98151 7.14241e-18
4215.45371 2.22559e-18
4216.92591 1.02830e-17
4218.38810 1.14530e-17
4219.86031 9.20474e-18
4221.33252 1.23218e-17
4222.80472 1.13020e-17
4224.26691 8.22342e-18
4225.73912 1.00986e-17
4227.21132 1.03927e-17
4228.68353 1.00220e-17
4230.15573 8.87418e-18
4231.61792 8.92894e-18
4233.09013 7.87817e-18
4234.56233 1.11716e-17
4236.03453 1.17086e-17
4237.49672 9.30218e-18
4238.96893 1.35872e-17
4240.44114 1.31951e-17
4241.91334 1.34831e-17
4243.37553 9.06495e-18
4244.84774 6.45189e-18
4246.31994 9.47827e-18
4247.79215 1.04889e-17
4249.26435 7.61023e-18
4250.72654 1.03731e-17
4252.19875 1.03570e-17
4253.67095 1.11514e-17
4255.14316 7.21798e-18
4256.60534 -1.45438e-18
4258.07755 7.82326e-19
4259.54976 5.39594e-18
4261.02196 1.27709e-17
4262.49417 1.42037e-17
4263.95636 9.64949e-18
4265.42856 8.09063e-18
4266.90077 9.25867e-18
4268.37297 1.13502e-17
4269.83516 7.31755e-18
4271.30736 7.96455e-18
4272.77957 1.37806e-17
4274.25178 1.27775e-17
4275.72398 1.16722e-17
4277.18617 1.20819e-17
4278.65837 1.48091e-17
4280.13058 1.34185e-17
4281.60279 1.13823e-17
4283.06498 8.51531e-18
4284.53718 1.53488e-17
4286.00939 1.31871e-17
4287.48159 1.05051e-17
4288.95380 1.00686e-17
4290.41598 7.74899e-18
4291.88819 1.22693e-17
4293.36040 1.40782e-17
4294.83260 1.28461e-17
4296.29479 1.26639e-17
4297.76699 9.92274e-18
4299.23920 8.56359e-18
4300.71141 1.00411e-17
4302.17360 1.00999e-17
4303.64580 1.22873e-17
4305.11801 1.47954e-17
4306.59021 1.28596e-17
4308.06242 1.03728e-17
4309.52460 1.24585e-17
4310.99681 9.91993e-18
4312.46902 1.07056e-17
4313.94122 1.09601e-17
4315.40341 1.48176e-17
4316.87561 1.16394e-17
4318.34782 1.23048e-17
4319.82003 1.25081e-17
4321.29223 1.18211e-17
4322.75442 9.98464e-18
4324.22663 9.90821e-18
4325.69883 1.38458e-17
4327.17103 1.07929e-17
4328.63322 6.02307e-18
4330.10543 9.57994e-18
4331.57764 1.50132e-17
4333.04984 1.56126e-17
4334.51203 1.20244e-17
4335.98423 1.31755e-17
4337.45644 9.71755e-18
4338.92865 9.10386e-18
4340.40085 8.54173e-18
4341.86304 8.75215e-18
4343.33525 1.11191e-17
4344.80745 1.26384e-17
4346.27966 1.16163e-17
4347.74184 8.97306e-18
4349.21405 1.58088e-17
4350.68626 1.29091e-17
4352.15846 1.27046e-17
4353.63066 1.25003e-17
4355.09285 1.22959e-17
4356.56506 1.20915e-17
4358.03727 1.18872e-17
4359.50947 1.16828e-17
4360.97166 1.14785e-17
4362.44387 1.12742e-17
4363.91607 1.10700e-17
4365.38828 1.08657e-17
4366.85047 1.06615e-17
4368.32267 1.04572e-17
4369.79488 1.02530e-17
4371.26708 1.00488e-17
4372.73928 9.84458e-18
4374.20147 9.64048e-18
4375.67368 9.43625e-18
4377.14589 9.23218e-18
4378.61809 9.02806e-18
4380.08028 8.82395e-18
4381.55249 8.61986e-18
4383.02469 8.41579e-18
4384.49690 8.21173e-18
4385.96910 8.00769e-18
4387.43129 7.80367e-18
4388.90350 7.59966e-18
4390.37570 9.55822e-18
4391.84791 1.34336e-17
4393.31009 9.56140e-18
4394.78230 9.45558e-18
4396.25450 1.12305e-17
4397.72671 1.08460e-17
4399.19891 8.17848e-18
4400.66111 5.79134e-18
4402.13331 1.22948e-17
4403.60552 1.23519e-17
4405.07772 1.08723e-17
4406.53991 1.31480e-17
4408.01212 8.95735e-18
4409.48432 1.36741e-17
4410.95653 1.27886e-17
4412.42873 1.62125e-17
4413.89092 1.47612e-17
4415.36312 7.65217e-18
4416.83533 9.09263e-18
4418.30753 1.20370e-17
4419.76973 1.40882e-17
4421.24193 7.72650e-18
4422.71414 9.53195e-18
4424.18634 1.04523e-17
4425.64853 1.04497e-17
4427.12074 1.19815e-17
4428.59294 8.60573e-18
4430.06515 8.90501e-18
4431.53735 9.84878e-18
4432.99954 7.65754e-18
4434.47174 1.00257e-17
4435.94395 1.20021e-17
4437.41616 3.00431e-18
4438.87835 5.75100e-18
4440.35055 1.17787e-17
4441.82276 4.21474e-18
4443.29496 9.00110e-18
4444.76717 1.14365e-17
4446.22936 1.11445e-17
4447.70156 9.22878e-18
4449.17377 1.41980e-17
4450.64597 1.02558e-17
4452.10816 1.11516e-17
4453.58036 1.02868e-17
4455.05257 1.02701e-17
4456.52478 1.32205e-17
4457.98697 1.32268e-17
4459.45917 1.41059e-17
4460.93138 8.11284e-18
4462.40358 8.10980e-18
4463.87579 1.88235e-17
4465.33797 1.74047e-17
4466.81018 1.30280e-17
4468.28239 9.29795e-18
4469.75459 1.20457e-17
4471.21678 1.26621e-17
4472.68898 1.13965e-17
4474.16119 1.23771e-17
4475.63340 1.27630e-17
4477.10560 9.49019e-18
4478.56779 1.37826e-17
4480.04000 1.30949e-17
4481.51220 1.04249e-17
4482.98441 9.70457e-18
4484.44659 1.12698e-17
4485.91880 1.32176e-17
4487.39101 1.14620e-17
4488.86321 1.30667e-17
4490.33541 1.81539e-17
4491.79760 1.51375e-17
4493.26981 1.49645e-17
4494.74202 1.39278e-17
4496.21422 9.86498e-18
4497.67641 1.07997e-17
4499.14862 1.24169e-17
4500.62082 1.36250e-17
4502.09303 1.28205e-17
4503.56523 1.34554e-17
4505.02742 1.26605e-17
4506.49963 1.70706e-17
4507.97183 1.85109e-17
4509.44403 1.69871e-17
4510.90622 1.75397e-17
4512.37843 1.25305e-17
4513.85064 9.25295e-18
4515.32284 9.91322e-18
4516.78503 1.25839e-17
4518.25724 1.45207e-17
4519.72944 1.90873e-17
4521.20165 2.09763e-17
4522.67385 2.00285e-17
4524.13604 1.56128e-17
4525.60825 1.21889e-17
4527.08045 1.51874e-17
4528.55266 1.41020e-17
4530.01484 1.42087e-17
4531.48705 1.75319e-17
4532.95926 1.65502e-17
4534.43146 1.63409e-17
4535.90366 1.89310e-17
4537.36586 1.83439e-17
4538.83806 1.43530e-17
4540.31027 1.37378e-17
4541.78247 1.67366e-17
4543.24466 1.54610e-17
4544.71687 1.78529e-17
4546.18907 1.80680e-17
4547.66128 1.71329e-17
4549.12347 1.89188e-17
4550.59567 1.90412e-17
4552.06788 2.10195e-17
4553.54008 1.84793e-17
4555.01228 1.27172e-17
4556.47447 1.51533e-17
4557.94668 1.96123e-17
4559.41889 1.82014e-17
4560.89109 1.85618e-17
4562.35328 2.16464e-17
4563.82549 2.07627e-17
4565.29769 1.70974e-17
4566.76990 1.39775e-17
4568.24210 1.53298e-17
4569.70429 1.43433e-17
4571.17650 1.44603e-17
4572.64870 1.72578e-17
4574.12091 1.99748e-17
4575.58309 2.06639e-17
4577.05530 1.77669e-17
4578.52751 1.73744e-17
4579.99971 1.87480e-17
4581.47192 1.33979e-17
4582.93411 1.32685e-17
4584.40631 1.45768e-17
4585.87852 1.63931e-17
4587.35072 1.60592e-17
4588.81291 1.72955e-17
4590.28511 1.78344e-17
4591.75732 1.81685e-17
4593.22953 1.76457e-17
4594.69172 1.94992e-17
4596.16392 1.69270e-17
4597.63612 1.86020e-17
4599.10833 1.91944e-17
4600.58054 1.77957e-17
4602.04273 1.97063e-17
4603.51493 1.87940e-17
4604.98714 1.64851e-17
4606.45934 1.96441e-17
4607.92153 2.16354e-17
4609.39373 1.82387e-17
4610.86594 1.57739e-17
4612.33815 1.78932e-17
4613.81035 1.97363e-17
4615.27254 2.05331e-17
4616.74474 2.17625e-17
4618.21695 1.75707e-17
4619.68916 1.91792e-17
4621.15135 1.97254e-17
4622.62355 1.70831e-17
4624.09576 1.76619e-17
4625.56796 1.85175e-17
4627.04017 1.97738e-17
4628.50235 1.79875e-17
4629.97456 1.62161e-17
4631.44677 1.68163e-17
4632.91897 1.92802e-17
4634.38116 2.29717e-17
4635.85336 2.04502e-17
4637.32557 1.73526e-17
4638.79778 1.86379e-17
4640.25997 1.65953e-17
4641.73217 2.01104e-17
4643.20438 1.87326e-17
4644.67658 1.71977e-17
4646.14879 1.55756e-17
4647.61097 1.40929e-17
4649.08318 1.42075e-17
4650.55539 1.04783e-17
4652.02759 1.16746e-17
4653.48978 1.64030e-17
4654.96198 1.83642e-17
4656.43419 1.83483e-17
4657.90640 1.79393e-17
4659.37860 1.89765e-17
4660.84079 1.61732e-17
4662.31300 1.45946e-17
4663.78520 1.88700e-17
4665.25741 1.72717e-17
4666.71959 1.29668e-17
4668.19180 1.61934e-17
4669.66401 1.50438e-17
4671.13621 1.49986e-17
4672.60841 1.45125e-17
4674.07060 1.55967e-17
4675.54281 1.59230e-17
4677.01502 1.58857e-17
4678.48722 1.67731e-17
4679.94941 1.40980e-17
4681.42162 1.37643e-17
4682.89382 1.26084e-17
4684.36603 1.12864e-17
4685.82822 1.51928e-17
4687.30042 1.54790e-17
4688.77263 1.45713e-17
4690.24483 1.57792e-17
4691.71703 1.38554e-17
4693.17922 1.51632e-17
4694.65143 1.39121e-17
4696.12364 1.16796e-17
4697.59584 1.39054e-17
4699.05803 1.61556e-17
4700.53024 1.32748e-17
4702.00244 1.37157e-17
4703.47465 1.29066e-17
4704.94685 1.01781e-17
4706.40904 1.06272e-17
4707.88125 1.29066e-17
4709.35345 1.37905e-17
4710.82566 1.17066e-17
4712.28784 1.12927e-17
4713.76005 1.27437e-17
4715.23225 1.26626e-17
4716.70446 1.25815e-17
4718.16665 1.25003e-17
4719.63886 1.24192e-17
4721.11106 1.23381e-17
4722.58327 1.22570e-17
4724.05547 1.21759e-17
4725.51766 1.20948e-17
4726.98987 1.20138e-17
4728.46207 1.19327e-17
4729.93428 1.19321e-17
4731.39647 1.43938e-17
4732.86867 1.47831e-17
4734.34087 1.20243e-17
4735.81308 1.15596e-17
4737.28528 1.31663e-17
4738.74748 1.43944e-17
4740.21968 1.20359e-17
4741.69189 9.93556e-18
4743.16409 1.07619e-17
4744.62628 1.24023e-17
4746.09849 1.30025e-17
4747.57069 1.10423e-17
4749.04290 1.03054e-17
4750.51510 8.74647e-18
4751.97729 1.06857e-17
4753.44949 1.35098e-17
4754.92170 1.13813e-17
4756.39391 8.81679e-18
4757.85610 1.19536e-17
4759.32830 1.23058e-17
4760.80051 1.07224e-17
4762.27271 1.10547e-17
4763.74492 1.12074e-17
4765.20711 1.00766e-17
4766.67931 9.72737e-18
4768.15152 1.09449e-17
4769.62372 9.75532e-18
4771.08591 9.85341e-18
4772.55811 1.13226e-17
4774.03032 1.11015e-17
4775.50253 1.07665e-17
4776.96472 1.12420e-17
4778.43692 1.10958e-17
4779.90913 9.43381e-18
4781.38133 9.37547e-18
4782.85354 1.09124e-17
4784.31572 1.03785e-17
4785.78793 8.38201e-18
4787.26014 8.18800e-18
4788.73234 9.58090e-18
4790.19453 9.79141e-18
4791.66673 1.08162e-17
4793.13894 1.14034e-17
4794.61115 1.10166e-17
4796.08335 1.06513e-17
4797.54554 1.00399e-17
4799.01775 1.08654e-17
4800.48995 1.14238e-17
4801.96216 1.15825e-17
4803.42434 1.27094e-17
4804.89655 1.15074e-17
4806.36876 1.07139e-17
4807.84096 1.05097e-17
4809.30315 9.13885e-18
4810.77535 8.78151e-18
4812.24756 8.93452e-18
4813.71977 9.75385e-18
4815.19197 1.09002e-17
4816.65416 1.12743e-17
4818.12637 1.25140e-17
4819.59857 1.26586e-17
4821.07078 1.12102e-17
4822.53297 9.31276e-18
4824.00517 7.80051e-18
4825.47738 8.98749e-18
4826.94958 1.04746e-17
4828.42178 1.04569e-17
4829.88397 1.06139e-17
4831.35618 1.11996e-17
4832.82839 1.07217e-17
4834.30059 1.11689e-17
4835.76278 1.16719e-17
4837.23499 1.04048e-17
4838.70719 9.72372e-18
4840.17940 8.40245e-18
4841.65160 8.72245e-18
4843.11379 1.06154e-17
4844.58600 1.08832e-17
4846.05820 1.07848e-17
4847.53041 1.11053e-17
4848.99259 1.07976e-17
4850.46480 9.77104e-18
4851.93701 9.76199e-18
4853.40921 9.75294e-18
4854.87140 9.74390e-18
4856.34361 9.73486e-18
4857.81581 9.72582e-18
4859.28802 9.71678e-18
4860.76022 9.70774e-18
4862.22241 9.69870e-18
4863.69462 9.68966e-18
4865.16682 9.68063e-18
4866.63903 9.67159e-18
4868.10122 9.66255e-18
4869.57342 9.65352e-18
4871.04563 9.64448e-18
4872.51783 9.63545e-18
4873.99003 9.62642e-18
4875.45222 9.61739e-18
4876.92443 9.60836e-18
4878.39664 9.59933e-18
4879.86884 9.59030e-18
4881.33103 9.58127e-18
4882.80324 9.57224e-18
4884.27544 9.56322e-18
4885.74765 9.55420e-18
4887.21985 9.54517e-18
4888.68204 9.82641e-18
4890.15425 1.14002e-17
4891.62645 1.11294e-17
4893.09866 8.22213e-18
4894.56084 8.72194e-18
4896.03305 1.06100e-17
4897.50526 9.82552e-18
4898.97746 9.86272e-18
4900.43965 1.09769e-17
4901.91186 1.28575e-17
4903.38406 1.42028e-17
4904.85627 1.33475e-17
4906.32847 1.10617e-17
4907.79066 1.07701e-17
4909.26286 1.09804e-17
4910.73507 1.07357e-17
4912.20728 1.15953e-17
4913.66947 1.11254e-17
4915.14167 1.07100e-17
4916.61388 1.18164e-17
4918.08608 1.21294e-17
4919.55829 1.14723e-17
4921.02048 1.13239e-17
4922.49268 1.27858e-17
4923.96489 1.52171e-17
4925.43709 1.42764e-17
4926.89928 1.22722e-17
4928.37148 1.32938e-17
4929.84369 1.31931e-17
4931.31590 1.09978e-17
4932.78810 1.16494e-17
4934.25029 1.35589e-17
4935.72249 1.41717e-17
4937.19470 1.34672e-17
4938.66691 1.22158e-17
4940.12910 1.30323e-17
4941.60130 1.46084e-17
4943.07351 1.42421e-17
4944.54571 1.36396e-17
4946.00790 1.34333e-17
4947.48010 1.34054e-17
4948.95231 1.34766e-17
4950.42452 1.35479e-17
4951.89672 1.36192e-17
4953.35891 1.36905e-17
4954.83111 1.37617e-17
4956.30332 1.38330e-17
4957.77553 1.39043e-17
4959.23772 1.39755e-17
4960.70992 1.40467e-17
4962.18213 1.41180e-17
4963.65433 1.41892e-17
4965.12654 1.42604e-17
4966.58872 1.43316e-17
4968.06093 1.44028e-17
4969.53314 1.44740e-17
4971.00534 1.45452e-17
4972.46753 1.46164e-17
4973.93973 1.46876e-17
4975.41194 1.47587e-17
4976.88415 1.48299e-17
4978.35635 1.49011e-17
4979.81854 1.49722e-17
4981.29075 1.50434e-17
4982.76295 1.51145e-17
4984.23516 1.51857e-17
4985.69734 1.52568e-17
4987.16955 1.22237e-17
4988.64176 1.16002e-17
4990.11396 1.32903e-17
4991.57615 1.39124e-17
4993.04835 1.44732e-17
4994.52056 1.33271e-17
4995.99277 1.13397e-17
4997.46497 1.12059e-17
4998.92716 1.10721e-17
5000.39937 1.09384e-17
5001.87157 1.08046e-17
5003.34378 1.06709e-17
5004.80597 1.05372e-17
5006.27817 1.04034e-17
5007.75038 1.02697e-17
5009.22258 1.01360e-17
5010.69478 1.00024e-17
5012.15697 9.86875e-18
5013.62918 9.73505e-18
5015.10139 9.60145e-18
5016.57359 9.46782e-18
5018.03578 9.33416e-18
5019.50799 9.20060e-18
5020.98019 9.06697e-18
5022.45240 8.93343e-18
5023.92460 8.79986e-18
5025.38679 8.66631e-18
5026.85900 8.53277e-18
5028.33120 8.39928e-18
5029.80341 8.26572e-18
5031.26559 8.13221e-18
5032.73780 7.99876e-18
5034.21000 8.63167e-18
5035.68221 8.07196e-18
5037.14440 7.96543e-18
5038.61661 7.31436e-18
5040.08881 7.62286e-18
5041.56102 9.17171e-18
5043.03322 1.06541e-17
5044.49541 1.01347e-17
5045.96762 8.65574e-18
5047.43982 9.79569e-18
5048.91203 1.02880e-17
5050.37422 8.62764e-18
5051.84642 7.51451e-18
5053.31862 9.70246e-18
5054.79083 1.15314e-17
5056.26303 1.10526e-17
5057.72523 9.72535e-18
5059.19743 8.92401e-18
5060.66964 9.37131e-18
5062.14184 9.99274e-18
5063.60403 8.84351e-18
5065.07624 9.17905e-18
5066.54844 9.03666e-18
5068.02065 8.87884e-18
5069.49285 9.80665e-18
5070.95504 9.66743e-18
5072.42724 8.83896e-18
5073.89945 1.06700e-17
5075.37166 1.04265e-17
5076.83385 9.45128e-18
5078.30605 1.14376e-17
5079.77826 1.19587e-17
5081.25046 9.87155e-18
5082.71265 8.20347e-18
5084.18486 7.12438e-18
5085.65706 8.42120e-18
5087.12927 1.07343e-17
5088.60147 9.14160e-18
5090.06366 8.65723e-18
5091.53586 1.01123e-17
5093.00807 1.07185e-17
5094.48028 1.03302e-17
5095.94247 9.17215e-18
5097.41467 9.07308e-18
5098.88688 1.00500e-17
5100.35908 1.08949e-17
5101.83129 1.07805e-17
5103.29347 1.05382e-17
5104.76568 1.12977e-17
5106.23789 1.18026e-17
5107.71009 1.21271e-17
5109.17228 1.22556e-17
5110.64448 1.11676e-17
5112.11669 1.22254e-17
5113.58890 1.21593e-17
5115.05109 1.13997e-17
5116.52329 1.13343e-17
5117.99550 1.16689e-17
5119.46770 1.10665e-17
5120.93991 1.19625e-17
5122.40209 1.25884e-17
5123.87430 1.19489e-17
5125.34651 1.29266e-17
5126.81871 1.42583e-17
5128.28090 1.42946e-17
5129.75310 1.24600e-17
5131.22531 1.25924e-17
5132.69752 1.29186e-17
5134.16972 1.36602e-17
5135.63191 1.31286e-17
5137.10412 1.17402e-17
5138.57632 1.27906e-17
5140.04853 1.20999e-17
5141.51072 1.24873e-17
5142.98292 1.35210e-17
5144.45513 1.21007e-17
5145.92733 1.22801e-17
5147.39953 1.32658e-17
5148.86172 1.23148e-17
5150.33393 1.38031e-17
5151.80614 1.32814e-17
5153.27834 1.19946e-17
5154.74053 1.21361e-17
5156.21274 1.22775e-17
5157.68494 1.24189e-17
5159.15715 1.25603e-17
5160.62935 1.27017e-17
5162.09154 1.28430e-17
5163.56375 1.29844e-17
5165.03595 1.31257e-17
5166.50816 1.32671e-17
5167.97034 1.34084e-17
5169.44255 1.35497e-17
5170.91476 1.36910e-17
5172.38696 1.38323e-17
5173.84915 1.39735e-17
5175.32136 1.39729e-17
5176.79356 1.48490e-17
5178.26577 1.44576e-17
5179.73797 1.43936e-17
5181.20016 1.53609e-17
5182.67237 1.49475e-17
5184.14457 1.19060e-17
5185.61678 1.41943e-17
5187.07897 1.56094e-17
5188.55117 1.56638e-17
5190.02338 1.57884e-17
5191.49558 1.45470e-17
5192.96778 1.43776e-17
5194.42998 1.44638e-17
5195.90218 1.48792e-17
5197.37439 1.53880e-17
5198.84659 1.51917e-17
5200.30878 1.37464e-17
5201.78099 1.51314e-17
5203.25319 1.50685e-17
5204.72540 1.22801e-17
5206.18759 1.35208e-17
5207.65979 1.55396e-17
5209.13200 1.51229e-17
5210.60420 1.48848e-17
5212.07641 1.52376e-17
5213.53859 1.41955e-17
5215.01080 1.39481e-17
5216.48301 1.47226e-17
5217.95521 1.50971e-17
5219.41740 1.43204e-17
5220.88961 1.65109e-17
5222.36181 1.60481e-17
5223.83402 1.40981e-17
5225.30622 1.58643e-17
5226.76841 1.59436e-17
5228.24061 1.42853e-17
5229.71282 1.37099e-17
5231.18503 1.47050e-17
5232.64722 1.58012e-17
5234.11942 1.39967e-17
5235.59163 1.22226e-17
5237.06383 1.44084e-17
5238.53604 1.45042e-17
5239.99823 1.35239e-17
5241.47043 1.50976e-17
5242.94264 1.40031e-17
5244.41484 1.52640e-17
5245.87703 1.60491e-17
5247.34923 1.56240e-17
5248.82144 1.47381e-17
5250.29365 1.41738e-17
5251.76585 1.68177e-17
5253.22804 1.73685e-17
5254.70024 1.48043e-17
5256.17245 1.56740e-17
5257.64466 1.82803e-17
5259.10685 1.73869e-17
5260.57905 1.68198e-17
5262.05126 1.59553e-17
5263.52346 1.59029e-17
5264.98565 1.78686e-17
5266.45785 1.84239e-17
5267.93006 1.61265e-17
5269.40227 1.55744e-17
5270.87447 1.65998e-17
5272.33666 1.54001e-17
5273.80886 1.49626e-17
5275.28107 1.70534e-17
5276.75328 1.79304e-17
5278.21547 1.53010e-17
5279.68767 1.57360e-17
5281.15988 1.67376e-17
5282.63208 1.69053e-17
5284.10429 1.75173e-17
5285.56647 1.64514e-17
5287.03868 1.64936e-17
5288.51089 1.95308e-17
5289.98309 1.91206e-17
5291.44528 1.64802e-17
5292.91748 1.82309e-17
5294.38969 1.79139e-17
5295.86190 1.65170e-17
5297.32409 1.74912e-17
5298.79629 1.70967e-17
5300.26850 1.67229e-17
5301.74070 1.74561e-17
5303.21291 1.54998e-17
5304.67509 1.53300e-17
5306.14730 1.51240e-17
5307.61951 1.56235e-17
5309.09171 1.77768e-17
5310.55390 1.68801e-17
5312.02610 1.77929e-17
5313.49831 1.92045e-17
5314.97052 1.79568e-17
5316.44272 1.74844e-17
5317.90491 1.68101e-17
5319.37712 1.66253e-17
5320.84932 1.81208e-17
5322.32153 1.77992e-17
5323.78372 1.54947e-17
5325.25592 1.39516e-17
5326.72813 1.67139e-17
5328.20033 1.67181e-17
5329.66252 1.75526e-17
5331.13472 1.79470e-17
5332.60693 1.80458e-17
5334.07914 1.78697e-17
5335.55134 1.47008e-17
5337.01353 1.55752e-17
5338.48574 1.81270e-17
5339.95794 1.82699e-17
5341.43015 1.87798e-17
5342.89234 1.89196e-17
5344.36454 1.51416e-17
5345.83675 1.51973e-17
5347.30895 1.76892e-17
5348.78116 1.67011e-17
5350.24334 1.81993e-17
5351.71555 1.77309e-17
5353.18775 1.53348e-17
5354.65996 1.77769e-17
5356.12215 1.86348e-17
5357.59436 1.65374e-17
5359.06656 1.57564e-17
5360.53877 1.42566e-17
5362.01097 1.51550e-17
5363.47316 1.50464e-17
5364.94537 1.55704e-17
5366.41757 1.57824e-17
5367.88978 1.41173e-17
5369.35197 1.47468e-17
5370.82417 1.52748e-17
5372.29637 1.63159e-17
5373.76858 1.53059e-17
5375.24078 1.61623e-17
5376.70298 1.53562e-17
5378.17518 1.35438e-17
5379.64739 1.46280e-17
5381.11959 1.36564e-17
5382.58178 1.38047e-17
5384.05399 1.63716e-17
5385.52619 1.77232e-17
5386.99840 1.58780e-17
5388.46059 1.53197e-17
5389.93279 1.50691e-17
5391.40499 1.42416e-17
5392.87720 1.59855e-17
5394.34941 1.55199e-17
5395.81160 1.49662e-17
5397.28380 1.54245e-17
5398.75601 1.51995e-17
5400.22821 1.48583e-17
5401.69040 1.49430e-17
5403.16261 1.52351e-17
5404.63481 1.56642e-17
5406.10702 1.55054e-17
5407.57922 1.66831e-17
5409.04141 1.62114e-17
5410.51361 1.56347e-17
5411.98582 1.68880e-17
5413.45803 1.62103e-17
5414.92022 1.35529e-17
5416.39242 1.36734e-17
5417.86463 1.24397e-17
5419.33683 1.45102e-17
5420.79902 1.57391e-17
5422.27122 1.28559e-17
5423.74343 1.34734e-17
5425.21564 1.43856e-17
5426.68784 1.51229e-17
5428.15003 1.35536e-17
5429.62223 1.48677e-17
5431.09444 1.56170e-17
5432.56665 1.75567e-17
5434.02884 1.51730e-17
5435.50104 1.49992e-17
5436.97325 1.48897e-17
5438.44545 1.53038e-17
5439.91766 1.49877e-17
5441.37984 1.38068e-17
5442.85205 1.38253e-17
5444.32426 1.30170e-17
5445.79646 1.39340e-17
5447.25865 1.52766e-17
5448.73085 1.52916e-17
5450.20306 1.30413e-17
5451.67527 1.40673e-17
5453.14747 1.57626e-17
5454.60966 1.43954e-17
5456.08187 1.30567e-17
5457.55407 1.47053e-17
5459.02628 1.61585e-17
5460.48847 1.40360e-17
5461.96067 1.59999e-17
5463.43288 1.61736e-17
5464.90508 1.42634e-17
5466.36727 1.54105e-17
5467.83947 1.49576e-17
5469.31168 1.44990e-17
5470.78389 1.81690e-17
5472.25609 1.56668e-17
5473.71828 1.54542e-17
5475.19049 1.43691e-17
5476.66269 1.56140e-17
5478.13490 1.53511e-17
5479.59709 1.60346e-17
5481.06929 1.64555e-17
5482.54150 1.64675e-17
5484.01370 1.61579e-17
5485.48591 1.55829e-17
5486.94809 1.37806e-17
5488.42030 1.34090e-17
5489.89251 1.47333e-17
5491.36471 1.58459e-17
5492.82690 1.53019e-17
5494.29911 1.55128e-17
5495.77131 1.61661e-17
5497.24352 1.50449e-17
5498.71572 1.35835e-17
5500.17791 1.45985e-17
5501.65012 1.51254e-17
5503.12232 1.36346e-17
5504.59453 1.23089e-17
5506.05672 1.39039e-17
5507.52892 1.37837e-17
5509.00113 1.30510e-17
5510.47333 1.38155e-17
5511.93552 1.36876e-17
5513.40773 1.42517e-17
5514.87993 1.28409e-17
5516.35214 1.27750e-17
5517.82434 1.31854e-17
5519.28653 1.25982e-17
5520.75874 1.23238e-17
5522.23094 1.16767e-17
5523.70315 1.24561e-17
5525.16534 1.29916e-17
5526.63754 1.27700e-17
5528.10975 1.22620e-17
5529.58195 1.18089e-17
5531.05416 1.24923e-17
5532.51635 1.20429e-17
5533.98855 1.05656e-17
5535.46076 1.14160e-17
5536.93296 1.26543e-17
5538.39515 1.21870e-17
5539.86736 1.01136e-17
5541.33956 1.08355e-17
5542.81177 1.01544e-17
5544.28397 1.09302e-17
5545.74616 9.66923e-18
5547.21836 1.08704e-17
5548.69057 1.11851e-17
5550.16278 1.11192e-17
5551.62497 1.05649e-17
5553.09717 9.17824e-18
5554.56938 8.02945e-18
5556.04158 7.88180e-18
5557.50377 9.27739e-18
5558.97598 9.43875e-18
5560.44818 8.11804e-18
5561.92039 7.87913e-18
5563.39259 6.25407e-18
5564.85478 7.71043e-18
5566.32698 7.59190e-18
5567.79919 7.40191e-18
5569.27140 8.90329e-18
5570.73359 8.83925e-18
5572.20579 8.13085e-18
5573.67800 8.37842e-18
5575.15020 9.59445e-18
5576.62241 9.54510e-18
5578.08460 9.44921e-18
5579.55680 9.21982e-18
5581.02901 7.49990e-18
5582.50121 7.16434e-18
5583.96340 7.30785e-18
5585.43560 7.50361e-18
5586.90781 5.91477e-18
5588.38002 4.33577e-18
5589.84221 5.81430e-18
5591.31441 6.44351e-18
5592.78661 6.78011e-18
5594.25882 9.30457e-18
5595.73103 9.23285e-18
5597.19322 8.02222e-18
5598.66542 7.06010e-18
5600.13763 8.54028e-18
5601.60983 7.05643e-18
5603.07202 5.71033e-18
5604.54422 5.16982e-18
5606.01643 4.83475e-18
5607.48864 6.88916e-18
5608.96084 7.28896e-18
5610.42303 5.61229e-18
5611.89523 4.12445e-18
5613.36744 4.08614e-18
5614.83965 3.92195e-18
5616.30184 5.13104e-18
5617.77404 5.87984e-18
5619.24625 4.87342e-18
5620.71845 5.15075e-18
5622.19066 4.51739e-18
5623.65284 4.20787e-18
5625.12505 4.35982e-18
5626.59726 3.78904e-18
5628.06946 3.75705e-18
5629.53165 3.87954e-18
5631.00385 4.24257e-18
5632.47606 3.34375e-18
5633.94827 3.66689e-18
5635.42047 4.56880e-18
5636.88266 3.02576e-18
5638.35487 2.64917e-18
5639.82707 4.25410e-18
5641.29928 4.54107e-18
5642.76147 4.14704e-18
5644.23367 4.27662e-18
5645.70588 3.63769e-18
5647.17808 2.14430e-18
5648.64027 2.66896e-18
5650.11247 3.97053e-18
5651.58468 3.46557e-18
5653.05689 3.89284e-18
5654.52909 4.79594e-18
5655.99128 4.88964e-18
5657.46349 4.93005e-18
5658.93569 4.02775e-18
5660.40790 3.60520e-18
5661.87009 3.59053e-18
5663.34229 2.60966e-18
5664.81450 1.66955e-18
5666.28670 2.43823e-18
5667.75891 3.39667e-18
5669.22109 2.65555e-18
5670.69330 2.98194e-18
5672.16551 3.98027e-18
5673.63771 3.95367e-18
5675.09990 4.23127e-18
5676.57211 4.31799e-18
5678.04431 3.92351e-18
5679.51652 4.54437e-18
5680.97871 5.16472e-18
5682.45091 3.90952e-18
5683.92312 3.53014e-18
5685.39532 3.76317e-18
5686.86753 2.81243e-18
5688.32972 3.43125e-18
5689.80192 4.23825e-18
5691.27412 4.35151e-18
5692.74633 4.42026e-18
5694.20852 4.03402e-18
5695.68073 3.85970e-18
5697.15293 4.66346e-18
5698.62514 4.11813e-18
5700.09734 3.64223e-18
5701.55953 4.61712e-18
5703.03174 3.98236e-18
5704.50394 3.95718e-18
5705.97615 4.12104e-18
5707.43834 3.84396e-18
5708.91054 4.00745e-18
5710.38274 4.53736e-18
5711.85495 3.83498e-18
5713.31714 3.28301e-18
5714.78935 2.75343e-18
5716.26155 3.32459e-18
5717.73376 5.12318e-18
5719.20596 5.60311e-18
5720.66815 4.99922e-18
5722.14036 5.16441e-18
5723.61256 5.45393e-18
5725.08477 5.27066e-18
5726.54696 4.14652e-18
5728.01916 4.30347e-18
5729.49136 4.74134e-18
5730.96357 4.88002e-18
5732.43578 4.36257e-18
5733.89797 3.60722e-18
5735.37017 4.93160e-18
5736.84238 5.69219e-18
5738.31458 5.00918e-18
5739.77677 5.80665e-18
5741.24897 6.90159e-18
5742.72118 6.21531e-18
5744.19339 6.50357e-18
5745.66559 6.99026e-18
5747.12778 6.79450e-18
5748.59998 5.61138e-18
5750.07219 5.32066e-18
5751.54440 6.28139e-18
5753.00659 7.29728e-18
5754.47879 7.49717e-18
5755.95100 6.03680e-18
5757.42320 5.03243e-18
5758.89541 6.38041e-18
5760.35759 8.15728e-18
5761.82980 7.95075e-18
5763.30201 7.34255e-18
5764.77421 7.95958e-18
5766.23640 7.07503e-18
5767.70860 6.67057e-18
5769.18081 7.47586e-18
5770.65302 7.86313e-18
5772.11521 8.17308e-18
5773.58741 7.54064e-18
5775.05962 8.13983e-18
5776.53182 8.38816e-18
5778.00403 7.93545e-18
5779.46622 8.04203e-18
5780.93842 8.63189e-18
5782.41063 1.01233e-17
5783.88283 1.06191e-17
5785.34502 9.97568e-18
5786.81722 9.70798e-18
5788.28943 9.37512e-18
5789.76164 8.99242e-18
5791.23384 9.20052e-18
5792.69603 9.05862e-18
5794.16824 1.08683e-17
5795.64044 1.22356e-17
5797.11265 1.20396e-17
5798.57484 1.12781e-17
5800.04704 9.65104e-18
5801.51925 1.14052e-17
5802.99145 1.20556e-17
5804.45364 1.16233e-17
5805.92584 1.19960e-17
5807.39805 1.14961e-17
5808.87026 1.12873e-17
5810.34246 1.13907e-17
5811.80465 1.14615e-17
5813.27686 1.09510e-17
5814.74906 1.03760e-17
5816.22127 1.10019e-17
5817.68346 1.11252e-17
5819.15566 1.14552e-17
5820.62787 1.23542e-17
5822.10007 1.19256e-17
5823.57228 1.22212e-17
5825.03447 1.29520e-17
5826.50667 1.36175e-17
5827.97888 1.26581e-17
5829.45108 1.19468e-17
5830.91327 1.26173e-17
5832.38548 1.30284e-17
5833.85768 1.30337e-17
5835.32989 1.33799e-17
5836.79208 1.32502e-17
5838.26428 1.34101e-17
5839.73649 1.43676e-17
5841.20869 1.40710e-17
5842.68090 1.32935e-17
5844.14309 1.38633e-17
5845.61529 1.45903e-17
5847.08750 1.33862e-17
5848.55970 1.22189e-17
5850.02189 1.24893e-17
5851.49410 1.26738e-17
5852.96630 1.30339e-17
5854.43851 1.44749e-17
5855.91071 1.50011e-17
5857.37290 1.39429e-17
5858.84511 1.42786e-17
5860.31731 1.60991e-17
5861.78952 1.60968e-17
5863.25171 1.52701e-17
5864.72391 1.58827e-17
5866.19611 1.51175e-17
5867.66832 1.49732e-17
5869.14053 1.57618e-17
5870.60272 1.51563e-17
5872.07492 1.57945e-17
5873.54713 1.54733e-17
5875.01933 1.39066e-17
5876.48152 1.37260e-17
5877.95373 1.45504e-17
5879.42593 1.46329e-17
5880.89814 1.35054e-17
5882.37034 1.34661e-17
5883.83253 1.44500e-17
5885.30473 1.44492e-17
5886.77694 1.37538e-17
5888.24915 1.35693e-17
5889.71134 1.43458e-17
5891.18354 1.40484e-17
5892.65575 1.18496e-17
5894.12795 1.03306e-17
5895.59014 8.95210e-18
5897.06235 8.71969e-18
5898.53455 1.02610e-17
5900.00676 1.00174e-17
5901.47896 8.70512e-18
5902.94115 9.31210e-18
5904.41335 1.13967e-17
5905.88556 1.24992e-17
5907.35777 1.37631e-17
5908.81996 1.55170e-17
5910.29216 1.48372e-17
5911.76436 1.50484e-17
5913.23657 1.63686e-17
5914.70878 1.40413e-17
5916.17097 1.22324e-17
5917.64317 1.39687e-17
5919.11538 1.48290e-17
5920.58758 1.48551e-17
5922.04977 1.47439e-17
5923.52197 1.36084e-17
5924.99418 1.40923e-17
5926.46639 1.48249e-17
5927.92858 1.46568e-17
5929.40078 1.47147e-17
5930.87298 1.42159e-17
5932.34519 1.32197e-17
5933.81740 1.33527e-17
5935.27959 1.36949e-17
5936.75179 1.36274e-17
5938.22400 1.37674e-17
5939.69620 1.40881e-17
5941.15839 1.45803e-17
5942.63059 1.45728e-17
5944.10280 1.46640e-17
5945.57501 1.45088e-17
5947.04721 1.46118e-17
5948.50940 1.43282e-17
5949.98160 1.48827e-17
5951.45381 1.45446e-17
5952.92602 1.47053e-17
5954.38821 1.64877e-17
5955.86041 1.50792e-17
5957.33262 1.40126e-17
5958.80482 1.39706e-17
5960.27703 1.39285e-17
5961.73922 1.38865e-17
5963.21142 1.38445e-17
5964.68363 1.38024e-17
5966.15583 1.37604e-17
5967.61802 1.37184e-17
5969.09022 1.36764e-17
5970.56243 1.36344e-17
5972.03464 1.35923e-17
5973.50684 1.35920e-17
5974.96903 1.39730e-17
5976.44124 1.34036e-17
5977.91344 1.41264e-17
5979.38565 1.40799e-17
5980.84784 1.32822e-17
5982.32004 1.34655e-17
5983.79225 1.47335e-17
5985.26445 1.43308e-17
5986.72664 1.39824e-17
5988.19884 1.39116e-17
5989.67105 1.38386e-17
5991.14326 1.37657e-17
5992.61546 1.36927e-17
5994.07765 1.36197e-17
5995.54986 1.35468e-17
5997.02206 1.34738e-17
5998.49427 1.34009e-17
5999.95646 1.33279e-17
6001.42866 1.32550e-17
6002.90087 1.31820e-17
6004.37307 1.31091e-17
6005.84528 1.30361e-17
6007.30747 1.30358e-17
6008.77967 1.31268e-17
6010.25187 1.29703e-17
6011.72408 1.30605e-17
6013.18627 1.28632e-17
6014.65848 1.36893e-17
6016.13068 1.40785e-17
6017.60289 1.44939e-17
6019.06508 1.40097e-17
6020.53728 1.24287e-17
6022.00949 1.18900e-17
6023.48169 1.21060e-17
6024.95390 1.17688e-17
6026.41609 1.30453e-17
6027.88829 1.40615e-17
6029.36049 1.27106e-17
6030.83270 1.25115e-17
6032.29489 1.31942e-17
6033.76710 1.20674e-17
6035.23930 1.23552e-17
6036.71151 1.17794e-17
6038.18371 1.16119e-17
6039.64590 1.20715e-17
6041.11811 1.21884e-17
6042.59031 1.15557e-17
6044.06252 1.23226e-17
6045.52471 1.30440e-17
6046.99691 1.32612e-17
6048.46911 1.26274e-17
6049.94132 1.25687e-17
6051.41353 1.31885e-17
6052.87572 1.32133e-17
6054.34792 1.23747e-17
6055.82013 1.12999e-17
6057.29233 1.30055e-17
6058.75452 1.28744e-17
6060.22672 1.26867e-17
6061.69893 1.33220e-17
6063.17114 1.24001e-17
6064.63333 1.01836e-17
6066.10553 1.07592e-17
6067.57773 1.22173e-17
6069.04994 1.13892e-17
6070.52215 1.10779e-17
6071.98434 1.17255e-17
6073.45654 1.20443e-17
6074.92875 1.19010e-17
6076.40095 1.08288e-17
6077.86314 1.21023e-17
6079.33534 1.27254e-17
6080.80755 1.13887e-17
6082.27976 1.10180e-17
6083.75196 1.03307e-17
6085.21415 9.40893e-18
6086.68635 1.01446e-17
6088.15856 1.20445e-17
6089.63077 1.12645e-17
6091.09296 1.14553e-17
6092.56516 1.15122e-17
6094.03737 1.00235e-17
6095.50957 1.04348e-17
6096.98178 1.09197e-17
6098.44397 9.80944e-18
6099.91617 1.01006e-17
6101.38838 1.02667e-17
6102.86058 1.05080e-17
6104.32277 1.10913e-17
6105.79497 1.12551e-17
6107.26718 1.14888e-17
6108.73939 1.10148e-17
6110.20158 1.08135e-17
6111.67378 1.11666e-17
6113.14599 1.05041e-17
6114.61819 1.02976e-17
6116.09040 1.13545e-17
6117.55259 1.10184e-17
6119.02479 1.04316e-17
6120.49700 1.05618e-17
6121.96920 8.28097e-18
6123.43139 8.19157e-18
6124.90359 1.08574e-17
6126.37580 1.10475e-17
6127.84801 9.30315e-18
6129.32021 9.65386e-18
6130.78240 1.22463e-17
6132.25461 1.05026e-17
6133.72681 9.15593e-18
6135.19902 1.04462e-17
6136.66121 1.03505e-17
6138.13341 1.05197e-17
6139.60562 1.05891e-17
6141.07782 1.06681e-17
6142.55003 1.02927e-17
6144.01222 1.13817e-17
6145.48442 1.13928e-17
6146.95663 1.03468e-17
6148.42883 1.15463e-17
6149.89102 1.19225e-17
6151.36323 1.19022e-17
6152.83543 1.03211e-17
6154.30764 1.08061e-17
6155.76983 1.12494e-17
6157.24203 1.19195e-17
6158.71424 1.12696e-17
6160.18644 1.04431e-17
6161.65865 1.02867e-17
6163.12084 1.13130e-17
6164.59304 1.14551e-17
6166.06525 1.19167e-17
6167.53745 1.26435e-17
6168.99964 1.18219e-17
6170.47185 1.33912e-17
6171.94405 1.27581e-17
6173.41626 1.15570e-17
6174.88846 1.23707e-17
6176.35065 1.33550e-17
6177.82286 1.27071e-17
6179.29506 1.13032e-17
6180.76727 1.22448e-17
6182.22946 1.21993e-17
6183.70166 1.17090e-17
6185.17386 1.39076e-17
6186.64607 1.33145e-17
6188.10826 1.29495e-17
6189.58047 1.17475e-17
6191.05267 1.33820e-17
6192.52488 1.42162e-17
6193.99708 1.22573e-17
6195.45927 1.26356e-17
6196.93148 1.32513e-17
6198.40368 1.23477e-17
6199.87589 1.23768e-17
6201.33808 1.29539e-17
6202.81028 1.24018e-17
6204.28248 1.23890e-17
6205.75469 1.29038e-17
6207.22690 1.38885e-17
6208.68909 1.17310e-17
6210.16129 1.35465e-17
6211.63350 1.44282e-17
6213.10570 1.35105e-17
6214.56789 1.30721e-17
6216.04010 1.29081e-17
6217.51230 1.30648e-17
6218.98451 1.25964e-17
6220.45671 1.36744e-17
6221.91890 1.28423e-17
6223.39110 1.27328e-17
6224.86331 1.37233e-17
6226.33552 1.51292e-17
6227.79771 1.49211e-17
6229.26991 1.32751e-17
6230.74212 1.24338e-17
6232.21432 1.50935e-17
6233.68653 1.38107e-17
6235.14872 1.27858e-17
6236.62092 1.23003e-17
6238.09313 1.36957e-17
6239.56533 1.35740e-17
6241.02752 1.23445e-17
6242.49972 1.26870e-17
6243.97193 1.36308e-17
6245.44414 1.25160e-17
6246.90633 1.26518e-17
6248.37853 1.26684e-17
6249.85073 1.31447e-17
6251.32294 1.29802e-17
6252.79515 1.38459e-17
6254.25734 1.39087e-17
6255.72954 1.47099e-17
6257.20175 1.27546e-17
6258.67395 1.21195e-17
6260.13614 1.36025e-17
6261.60834 1.13044e-17
6263.08055 1.17673e-17
6264.55276 1.37567e-17
6266.02496 1.35442e-17
6267.48715 1.16710e-17
6268.95935 1.23843e-17
6270.43156 1.24958e-17
6271.90377 1.35377e-17
6273.36596 1.24344e-17
6274.83816 1.14012e-17
6276.31037 1.26290e-17
6277.78257 1.23300e-17
6279.24476 1.17775e-17
6280.71697 1.17600e-17
6282.18917 1.23814e-17
6283.66138 1.31665e-17
6285.13358 1.41216e-17
6286.59577 1.41431e-17
6288.06797 1.30700e-17
6289.54018 1.13546e-17
6291.01239 1.05541e-17
6292.47458 1.24573e-17
6293.94678 1.04925e-17
6295.41899 1.12218e-17
6296.89119 1.24040e-17
6298.36340 1.18161e-17
6299.82559 1.20999e-17
6301.29779 1.20513e-17
6302.77000 1.19627e-17
6304.24220 1.20388e-17
6305.70439 1.21158e-17
6307.17659 1.24218e-17
6308.64880 1.33932e-17
6310.12101 1.32666e-17
6311.58320 1.15160e-17
6313.05540 1.23494e-17
6314.52761 1.47478e-17
6315.99981 1.50365e-17
6317.47202 1.35485e-17
6318.93421 1.27631e-17
6320.40641 1.13928e-17
6321.87862 1.02228e-17
6323.35082 1.07064e-17
6324.81301 1.05339e-17
6326.28522 1.03095e-17
6327.75742 1.21019e-17
6329.22962 1.26532e-17
6330.70183 1.16805e-17
6332.16402 1.17786e-17
6333.63623 1.12648e-17
6335.10843 1.10731e-17
6336.58064 1.13902e-17
6338.04283 1.13098e-17
6339.51503 1.20157e-17
6340.98724 1.24163e-17
6342.45944 1.06518e-17
6343.93165 1.18276e-17
6345.39384 1.14655e-17
6346.86604 1.04437e-17
6348.33824 1.25415e-17
6349.81045 1.21429e-17
6351.27264 1.15328e-17
6352.74485 1.20258e-17
6354.21705 1.07087e-17
6355.68926 9.90150e-18
6357.16146 1.00219e-17
6358.62365 9.76495e-18
6360.09586 9.76728e-18
6361.56806 1.11256e-17
6363.04027 1.04071e-17
6364.50246 1.07653e-17
6365.97466 1.08109e-17
6367.44686 1.06855e-17
6368.91907 1.26479e-17
6370.38126 1.14067e-17
6371.85347 1.25735e-17
6373.32567 1.13742e-17
6374.79788 1.13457e-17
6376.27008 1.27176e-17
6377.73227 1.12107e-17
6379.20447 1.09657e-17
6380.67668 1.04912e-17
6382.14889 9.64198e-18
6383.61108 1.04472e-17
6385.08328 1.05936e-17
6386.55548 1.02772e-17
6388.02769 1.07787e-17
6389.49990 1.12212e-17
6390.96209 1.14160e-17
6392.43429 1.08764e-17
6393.90650 1.08180e-17
6395.37870 1.09917e-17
6396.84089 1.14067e-17
6398.31309 1.16285e-17
6399.78530 9.83794e-18
6401.25751 1.08281e-17
6402.71970 1.09546e-17
6404.19190 9.66039e-18
6405.66410 9.65639e-18
6407.13631 1.06137e-17
6408.60852 1.15975e-17
6410.07071 1.03706e-17
6411.54291 1.09551e-17
6413.01512 1.11487e-17
6414.48732 1.07574e-17
6415.94951 1.11706e-17
6417.42172 1.18815e-17
6418.89392 1.18795e-17
6420.36613 1.05975e-17
6421.83833 1.12025e-17
6423.30052 1.15586e-17
6424.77272 1.23119e-17
6426.24493 1.05823e-17
6427.71714 9.03830e-18
6429.17933 1.05126e-17
6430.65153 1.22231e-17
6432.12374 1.04421e-17
6433.59594 1.04015e-17
6435.05813 1.10868e-17
6436.53034 1.16309e-17
6438.00254 1.27071e-17
6439.47475 1.15876e-17
6440.94695 1.13253e-17
6442.40914 1.19735e-17
6443.88134 1.24460e-17
6445.35355 1.16818e-17
6446.82576 1.12398e-17
6448.28795 1.22208e-17
6449.76015 1.13531e-17
6451.23236 1.15078e-17
6452.70456 1.22380e-17
6454.17677 1.21009e-17
6455.63896 1.26801e-17
6457.11116 1.12902e-17
6458.58337 1.23235e-17
6460.05557 1.27367e-17
6461.51776 1.16175e-17
6462.98997 1.14359e-17
6464.46217 1.20322e-17
6465.93438 1.19772e-17
6467.40658 9.69328e-18
6468.86877 8.61330e-18
6470.34098 1.03498e-17
6471.81318 1.08756e-17
6473.28539 1.17696e-17
6474.74758 1.31679e-17
6476.21978 1.25773e-17
6477.69199 1.08390e-17
6479.16419 1.14259e-17
6480.63640 1.09380e-17
6482.09859 1.15147e-17
6483.57079 1.12061e-17
6485.04300 1.02200e-17
6486.51520 1.03349e-17
6487.97739 1.09866e-17
6489.44960 1.01427e-17
6490.92180 1.07322e-17
6492.39401 1.15178e-17
6493.85620 1.20716e-17
6495.32840 1.16085e-17
6496.80061 1.04315e-17
6498.27281 1.01507e-17
6499.74502 1.08401e-17
6501.20721 1.06986e-17
6502.67941 1.07624e-17
6504.15162 1.14368e-17
6505.62382 1.02573e-17
6507.08601 1.07839e-17
6508.55822 1.30127e-17
6510.03042 1.26118e-17
6511.50263 9.59450e-18
6512.97483 9.26529e-18
6514.43702 1.06717e-17
6515.90923 1.02904e-17
6517.38143 9.88853e-18
6518.85364 8.71065e-18
6520.31583 9.71333e-18
6521.78803 1.17539e-17
6523.26023 1.09360e-17
6524.73244 1.00353e-17
6526.19463 1.10108e-17
6527.66684 1.17337e-17
6529.13904 1.09886e-17
6530.61125 1.15659e-17
6532.08345 1.11864e-17
6533.54564 1.04500e-17
6535.01785 1.13428e-17
6536.49005 1.12394e-17
6537.96226 1.13479e-17
6539.42445 1.13399e-17
6540.89665 1.04633e-17
6542.36885 1.08162e-17
6543.84106 1.07999e-17
6545.31327 1.07836e-17
6546.77546 1.07673e-17
6548.24766 1.07510e-17
6549.71987 1.07347e-17
6551.19207 1.07184e-17
6552.65426 1.07021e-17
6554.12647 1.06859e-17
6555.59867 1.06696e-17
6557.07088 1.06533e-17
6558.54308 1.06370e-17
6560.00527 1.06207e-17
6561.47747 1.06044e-17
6562.94968 1.05882e-17
6564.42189 1.05719e-17
6565.88408 1.05556e-17
6567.35628 1.05393e-17
6568.82849 1.05230e-17
6570.30069 1.05068e-17
6571.76288 1.04905e-17
6573.23509 1.04742e-17
6574.70729 1.04579e-17
6576.17950 1.04417e-17
6577.65170 1.04254e-17
6579.11389 1.04091e-17
6580.58609 1.03928e-17
6582.05830 1.03766e-17
6583.53051 1.03603e-17
6584.99270 1.03440e-17
6586.46490 1.03277e-17
6587.93710 1.03115e-17
6589.40931 1.02952e-17
6590.88152 1.02789e-17
6592.34371 1.02627e-17
6593.81591 1.02464e-17
6595.28812 1.02301e-17
6596.76032 1.02139e-17
6598.22251 1.01976e-17
6599.69472 1.01813e-17
6601.16692 1.01651e-17
6602.63913 1.01488e-17
6604.11133 1.01325e-17
6605.57352 9.67420e-18
6607.04572 1.00811e-17
6608.51793 9.43977e-18
6609.99014 9.94945e-18
6611.45233 8.79772e-18
6612.92453 8.61609e-18
6614.39674 9.85097e-18
6615.86894 9.32635e-18
6617.33113 8.92171e-18
6618.80334 9.80549e-18
6620.27554 9.41169e-18
6621.74775 9.71492e-18
6623.21995 9.69258e-18
6624.68214 9.07446e-18
6626.15434 9.36782e-18
6627.62655 1.01544e-17
6629.09876 9.53551e-18
6630.56095 8.71793e-18
6632.03315 8.61183e-18
6633.50536 9.77142e-18
6634.97756 9.08797e-18
6636.44977 9.53134e-18
6637.91196 9.33560e-18
6639.38416 8.67127e-18
6640.85637 9.29881e-18
6642.32857 8.26901e-18
6643.79076 7.27398e-18
6645.26297 7.77033e-18
6646.73517 8.90926e-18
6648.20737 8.31315e-18
6649.67958 8.29789e-18
6651.14177 8.26792e-18
6652.61398 8.23795e-18
6654.08618 8.20798e-18
6655.55839 8.17801e-18
6657.02058 8.14805e-18
6658.49278 8.11808e-18
6659.96499 8.08812e-18
6661.43719 8.05816e-18
6662.89938 8.02820e-18
6664.37159 7.99824e-18
6665.84379 7.96828e-18
6667.31599 7.96812e-18
6668.78820 7.77811e-18
6670.25039 7.76028e-18
6671.72260 7.44024e-18
6673.19480 6.76703e-18
6674.66701 6.94227e-18
6676.12920 7.84487e-18
6677.60140 7.39004e-18
6679.07361 7.79692e-18
6680.54581 8.25034e-18
6682.01802 8.48648e-18
6683.48021 8.10724e-18
6684.95241 6.98682e-18
6686.42461 7.21001e-18
6687.89682 7.98330e-18
6689.35901 8.42218e-18
6690.83122 7.98897e-18
6692.30342 6.85211e-18
6693.77563 6.65775e-18
6695.23782 7.20850e-18
6696.71002 7.05595e-18
6698.18222 7.03908e-18
6699.65443 7.78288e-18
6701.12664 8.18351e-18
6702.58883 7.74537e-18
6704.06103 7.19867e-18
6705.53323 6.90407e-18
6707.00544 7.21880e-18
6708.46763 7.35100e-18
6709.93984 7.11495e-18
6711.41204 7.21902e-18
6712.88425 6.56958e-18
6714.35645 6.95355e-18
6715.81864 8.65935e-18
6717.29084 8.07009e-18
6718.76305 6.38348e-18
6720.23526 6.60125e-18
6721.69745 7.50945e-18
6723.16965 7.60011e-18
6724.64185 7.51555e-18
6726.11406 7.75238e-18
6727.58627 7.73880e-18
6729.04846 7.37775e-18
6730.52066 6.48573e-18
6731.99287 5.80753e-18
6733.46507 6.12384e-18
6734.92726 5.97267e-18
6736.39947 6.24225e-18
6737.87167 7.15859e-18
6739.34388 7.50298e-18
6740.81608 7.44964e-18
6742.27827 6.95057e-18
6743.75047 7.09475e-18
6745.22268 7.28164e-18
6746.69489 7.13500e-18
6748.15708 7.19383e-18
6749.62928 6.68022e-18
6751.10149 6.37417e-18
6752.57369 6.52662e-18
6754.03588 6.84815e-18
6755.50809 6.82808e-18
6756.98029 6.45541e-18
6758.45250 7.32214e-18
6759.92470 7.13039e-18
6761.38689 6.49811e-18
6762.85909 7.12273e-18
6764.33130 6.54357e-18
6765.80351 5.64817e-18
6767.26570 6.13217e-18
6768.73790 6.26066e-18
6770.21011 6.01958e-18
6771.68231 6.47514e-18
6773.15452 6.63469e-18
6774.61671 6.36188e-18
6776.08891 5.71588e-18
6777.56112 6.08630e-18
6779.03332 6.96726e-18
6780.49551 6.88447e-18
6781.96772 6.06663e-18
6783.43992 5.58091e-18
6784.91213 5.82792e-18
6786.37432 6.47112e-18
6787.84652 6.77803e-18
6789.31873 6.59854e-18
6790.79093 6.43403e-18
6792.26314 6.40745e-18
6793.72533 6.32438e-18
6795.19753 6.44825e-18
6796.66974 7.05090e-18
6798.14194 6.33670e-18
6799.60413 6.23874e-18
6801.07634 7.43560e-18
6802.54854 7.33769e-18
6804.02075 5.60861e-18
6805.49295 6.19793e-18
6806.95514 7.64515e-18
6808.42735 6.94503e-18
6809.89955 6.72165e-18
6811.37176 6.34119e-18
6812.83395 4.97101e-18
6814.30615 5.95617e-18
6815.77836 7.30491e-18
6817.25056 6.44286e-18
6818.72277 6.68295e-18
6820.18496 6.97773e-18
6821.65716 5.53125e-18
6823.12937 5.25858e-18
6824.60157 5.74431e-18
6826.06376 5.94880e-18
6827.53597 6.25430e-18
6829.00817 5.35326e-18
6830.48038 5.75723e-18
6831.95258 5.33693e-18
6833.41477 4.87476e-18
6834.88698 6.16512e-18
6836.35918 5.78843e-18
6837.83139 5.04008e-18
6839.29358 4.87015e-18
6840.76578 5.75546e-18
6842.23798 5.50555e-18
6843.71019 4.97904e-18
6845.17238 5.20083e-18
6846.64459 4.97105e-18
6848.11679 4.72089e-18
6849.58900 4.97247e-18
6851.06120 5.74172e-18
6852.52339 6.90911e-18
6853.99560 5.85424e-18
6855.46780 4.24649e-18
6856.94001 4.55242e-18
6858.40220 4.49745e-18
6859.87440 4.20122e-18
6861.34660 5.08095e-18
6862.81881 6.52654e-18
6864.29102 5.81766e-18
6865.75321 4.98194e-18
6867.22541 5.37580e-18
6868.69762 5.75092e-18
6870.16982 6.43778e-18
6871.63201 6.40735e-18
6873.10422 6.12717e-18
6874.57642 5.58129e-18
6876.04863 4.11804e-18
6877.51082 3.66130e-18
6878.98302 5.78751e-18
6880.45522 7.05349e-18
6881.92743 6.31717e-18
6883.39964 6.28061e-18
6884.86183 5.11547e-18
6886.33403 4.98392e-18
6887.80624 5.57537e-18
6889.27844 5.55963e-18
6890.74063 6.28720e-18
6892.21284 6.01555e-18
6893.68504 6.32626e-18
6895.15725 6.67073e-18
6896.62945 5.78299e-18
6898.09164 5.12857e-18
6899.56384 4.93067e-18
6901.03605 5.66065e-18
6902.50826 6.29919e-18
6903.97045 6.07292e-18
6905.44265 6.20654e-18
6906.91485 6.41600e-18
6908.38706 6.61335e-18
6909.84925 7.06150e-18
6911.32146 6.72987e-18
6912.79366 6.37600e-18
6914.26587 6.05016e-18
6915.73807 6.24841e-18
6917.20026 6.32180e-18
6918.67247 5.43289e-18
6920.14467 5.48186e-18
6921.61688 6.12611e-18
6923.07907 6.52398e-18
6924.55127 6.89710e-18
6926.02347 6.32273e-18
6927.49568 5.66566e-18
6928.96789 5.76278e-18
6930.43008 5.56259e-18
6931.90228 5.29016e-18
6933.37449 5.88327e-18
6934.84669 6.77774e-18
6936.30888 7.80323e-18
6937.78109 7.67119e-18
6939.25329 6.62745e-18
6940.72550 6.91061e-18
6942.19770 7.20813e-18
6943.65989 6.04322e-18
6945.13209 5.88424e-18
6946.60430 6.20731e-18
6948.07651 6.41483e-18
6949.53870 6.15882e-18
6951.01090 5.91037e-18
6952.48311 6.79037e-18
6953.95531 6.49661e-18
6955.42752 6.22779e-18
6956.88971 6.54037e-18
6958.36191 6.27082e-18
6959.83412 6.17627e-18
6961.30632 6.69855e-18
6962.76851 7.04874e-18
6964.24072 6.92687e-18
6965.71292 6.79293e-18
6967.18512 7.14944e-18
6968.64732 6.90735e-18
6970.11952 6.21816e-18
6971.59173 6.93641e-18
6973.06393 7.52183e-18
6974.53614 7.16251e-18
6975.99833 6.73026e-18
6977.47053 6.64400e-18
6978.94274 6.77937e-18
6980.41494 7.24911e-18
6981.87713 7.49124e-18
6983.34934 6.82973e-18
6984.82154 6.58611e-18
6986.29374 6.73265e-18
6987.76595 6.67218e-18
6989.22814 6.63408e-18
6990.70035 6.72350e-18
6992.17255 8.06361e-18
6993.64476 8.61004e-18
6995.10695 6.95902e-18
6996.57915 5.78025e-18
6998.05136 6.47499e-18
6999.52356 6.56390e-18
7000.98575 5.42280e-18
7002.45796 5.80449e-18
7003.93016 5.48320e-18
7005.40236 5.60002e-18
7006.87457 6.99128e-18
7008.33676 6.16867e-18
7009.80897 5.95244e-18
7011.28117 6.34775e-18
7012.75338 6.35720e-18
7014.21557 7.27851e-18
7015.68777 7.14928e-18
7017.15998 7.12409e-18
7018.63218 6.91928e-18
7020.10439 5.80747e-18
7021.56658 5.82102e-18
7023.03878 6.18657e-18
7024.51098 6.48677e-18
7025.98319 7.32374e-18
7027.44538 6.61937e-18
7028.91759 6.70479e-18
7030.38979 7.02319e-18
7031.86200 7.07402e-18
7033.32419 6.19647e-18
7034.79639 6.08214e-18
7036.26859 6.19836e-18
7037.74080 5.88741e-18
7039.21301 6.37968e-18
7040.67520 7.61493e-18
7042.14740 8.04777e-18
7043.61960 6.82643e-18
7045.09181 6.58161e-18
7046.55400 6.32679e-18
7048.02621 7.06241e-18
7049.49841 6.58867e-18
7050.97062 6.79639e-18
7052.44282 6.67602e-18
7053.90501 7.07717e-18
7055.37722 7.32710e-18
7056.84942 6.66208e-18
7058.32163 7.51824e-18
7059.78382 7.43625e-18
7061.25602 6.23292e-18
7062.72822 6.78859e-18
7064.20043 7.17220e-18
7065.67264 7.00328e-18
7067.13483 7.69305e-18
7068.60703 7.36596e-18
7070.07924 7.72529e-18
7071.55144 7.66628e-18
7073.01363 6.72116e-18
7074.48584 5.89614e-18
7075.95804 6.42538e-18
7077.43025 7.44730e-18
7078.90245 7.56030e-18
7080.36464 6.97979e-18
7081.83684 6.63903e-18
7083.30905 7.96947e-18
7084.78126 7.78632e-18
7086.24345 6.46917e-18
7087.71565 5.71671e-18
7089.18786 7.66034e-18
7090.66006 7.41911e-18
7092.12225 7.31344e-18
7093.59446 7.05554e-18
7095.06666 6.47496e-18
7096.53887 7.05803e-18
7098.01107 7.43544e-18
7099.47326 7.02151e-18
7100.94547 7.47484e-18
7102.41767 7.55001e-18
7103.88988 7.99351e-18
7105.35207 7.76997e-18
7106.82427 7.19831e-18
7108.29648 7.20773e-18
7109.76868 8.19583e-18
7111.24089 7.66951e-18
7112.70308 6.27356e-18
7114.17528 6.62371e-18
7115.64749 7.71815e-18
7117.11969 7.37092e-18
7118.58188 7.06052e-18
7120.05409 7.99613e-18
7121.52629 7.19688e-18
7122.99850 8.53260e-18
7124.46069 7.21636e-18
7125.93289 7.29593e-18
7127.40510 7.56398e-18
7128.87730 6.50410e-18
7130.34951 7.70166e-18
7131.81170 9.11028e-18
7133.28390 9.20323e-18
7134.75611 8.85338e-18
7136.22831 8.83444e-18
7137.69050 8.74249e-18
7139.16271 9.07658e-18
7140.63491 9.56800e-18
7142.10712 8.76101e-18
7143.57932 8.53307e-18
7145.04151 7.92596e-18
7146.51372 7.77726e-18
7147.98592 9.02778e-18
7149.45813 8.77664e-18
7150.92032 7.97279e-18
7152.39252 7.84120e-18
7153.86473 8.28824e-18
7155.33693 7.58267e-18
7156.80914 7.67190e-18
7158.27133 9.67098e-18
7159.74353 8.84385e-18
7161.21573 8.42061e-18
7162.68794 8.21002e-18
7164.15013 8.58495e-18
7165.62234 1.01491e-17
7167.09454 8.21001e-18
7168.56675 8.11287e-18
7170.02894 7.98832e-18
7171.50114 8.88775e-18
7172.97335 9.50265e-18
7174.44555 9.59987e-18
7175.91776 1.00559e-17
7177.37995 9.95487e-18
7178.85215 1.03399e-17
7180.32435 9.85377e-18
7181.79656 8.85276e-18
7183.25875 9.90157e-18
7184.73096 9.73006e-18
7186.20316 8.59285e-18
7187.67537 9.41379e-18
7189.14757 9.55089e-18
7190.60976 9.13444e-18
7192.08197 9.57144e-18
7193.55417 1.06518e-17
7195.02638 1.02987e-17
7196.48857 9.85337e-18
7197.96077 1.04207e-17
7199.43297 1.01130e-17
7200.90518 9.98924e-18
7202.37739 1.01789e-17
7203.83958 9.94152e-18
7205.31178 1.01422e-17
7206.78399 1.08813e-17
7208.25619 1.07750e-17
7209.71838 1.05236e-17
7211.19059 9.82184e-18
7212.66279 9.83619e-18
7214.13500 1.02689e-17
7215.59719 1.08951e-17
7217.06939 1.07629e-17
7218.54159 1.14695e-17
7220.01380 1.19853e-17
7221.48601 1.12605e-17
7222.94820 1.05869e-17
7224.42040 1.11596e-17
7225.89261 1.12880e-17
7227.36481 1.25589e-17
7228.82700 1.15884e-17
7230.29921 1.07374e-17
7231.77141 1.20534e-17
7233.24362 1.25388e-17
7234.71582 1.27543e-17
7236.17801 1.24021e-17
7237.65022 1.25966e-17
7239.12242 1.27887e-17
7240.59463 1.34426e-17
7242.05682 1.08468e-17
7243.52902 1.05750e-17
7245.00122 1.30468e-17
7246.47343 1.19217e-17
7247.94564 1.13501e-17
7249.40783 1.10391e-17
7250.88003 1.13977e-17
7252.35224 1.23214e-17
7253.82444 1.16296e-17
7255.28663 1.16791e-17
7256.75884 1.27558e-17
7258.23104 1.18388e-17
7259.70325 1.17444e-17
7261.16544 1.22011e-17
7262.63764 1.19901e-17
7264.10984 1.29511e-17
7265.58205 1.18244e-17
7267.05426 1.05023e-17
7268.51645 1.10026e-17
7269.98865 1.19070e-17
7271.46086 1.17056e-17
7272.93306 1.16201e-17
7274.39525 1.23941e-17
7275.86746 1.19039e-17
7277.33966 1.12191e-17
7278.81187 1.24964e-17
7280.28407 1.14109e-17
7281.74626 1.12303e-17
7283.21847 1.31194e-17
7284.69067 1.29835e-17
7286.16287 1.23889e-17
7287.62507 1.16782e-17
7289.09727 1.21272e-17
7290.56948 1.28387e-17
7292.04168 1.12138e-17
7293.50387 1.10717e-17
7294.97608 1.20099e-17
7296.44828 1.11614e-17
7297.92049 1.08670e-17
7299.39269 1.08453e-17
7300.85488 1.09639e-17
7302.32709 1.24349e-17
7303.79929 1.27444e-17
7305.27149 1.24786e-17
7306.73369 1.07991e-17
7308.20589 9.90884e-18
7309.67810 1.28726e-17
7311.15030 1.27002e-17
7312.62251 1.15347e-17
7314.08470 1.27272e-17
7315.55690 1.18620e-17
7317.02911 1.16422e-17
7318.50131 1.17020e-17
7319.96350 1.15463e-17
7321.43571 1.03313e-17
7322.90791 1.20730e-17
7324.38011 1.21970e-17
7325.85232 1.17815e-17
7327.31451 1.18322e-17
7328.78672 9.39618e-18
7330.25892 1.06248e-17
7331.73113 1.21651e-17
7333.19332 9.64004e-18
7334.66552 9.78441e-18
7336.13773 1.05718e-17
7337.60993 1.04170e-17
7339.08214 1.00073e-17
7340.54433 1.22763e-17
7342.01653 1.30093e-17
7343.48873 1.09866e-17
7344.96094 1.12095e-17
7346.42313 1.10672e-17
7347.89534 1.03184e-17
7349.36754 1.17941e-17
7350.83975 9.94661e-18
7352.30194 9.74927e-18
7353.77414 1.15460e-17
7355.24634 1.16984e-17
7356.71855 1.15786e-17
7358.19076 1.20472e-17
7359.65295 1.05095e-17
7361.12515 9.61347e-18
7362.59735 1.06538e-17
7364.06956 8.97055e-18
7365.53175 9.78715e-18
7367.00396 1.11046e-17
7368.47616 1.13476e-17
7369.94837 1.01289e-17
7371.42057 1.04753e-17
7372.88276 1.00169e-17
7374.35497 1.16343e-17
7375.82717 1.12693e-17
7377.29938 1.17409e-17
7378.76157 1.10498e-17
7380.23377 1.01878e-17
7381.70597 1.00695e-17
7383.17818 1.16806e-17
7384.64037 1.04154e-17
7386.11258 1.00046e-17
7387.58478 1.02854e-17
7389.05699 1.14267e-17
7390.52919 1.11897e-17
7391.99138 1.08176e-17
7393.46359 1.09046e-17
7394.93579 9.78113e-18
7396.40800 1.18294e-17
7397.87019 1.27534e-17
7399.34239 1.01083e-17
7400.81459 9.22777e-18
7402.28680 1.09673e-17
7403.75901 1.03624e-17
7405.22120 9.61369e-18
7406.69340 1.00269e-17
7408.16561 1.07530e-17
7409.63781 9.53679e-18
7411.10000 1.04285e-17
7412.57221 1.02463e-17
7414.04441 1.04413e-17
7415.51662 1.03578e-17
7416.98882 1.05241e-17
7418.45101 1.01901e-17
7419.92322 9.47089e-18
7421.39542 9.08732e-18
7422.86763 9.34160e-18
7424.32982 8.83283e-18
7425.80202 8.45041e-18
7427.27423 8.71407e-18
7428.74643 9.58138e-18
7430.20862 9.57041e-18
7431.68083 9.08791e-18
7433.15303 1.04665e-17
7434.62524 9.49515e-18
7436.09744 8.31240e-18
7437.55963 9.43506e-18
7439.03184 1.10942e-17
7440.50404 1.00012e-17
7441.97625 1.02316e-17
7443.43844 1.08920e-17
7444.91064 1.00500e-17
7446.38285 1.06333e-17
7447.85505 8.95140e-18
7449.32726 7.84050e-18
7450.78945 8.78736e-18
7452.26165 9.06093e-18
7453.73386 7.87750e-18
7455.20606 7.81944e-18
7456.66825 9.01543e-18
7458.14046 8.36708e-18
7459.61266 8.43826e-18
7461.08487 7.87411e-18
7462.55707 8.92305e-18
7464.01926 9.91726e-18
7465.49147 8.04594e-18
7466.96367 8.38927e-18
7468.43588 9.55297e-18
7469.89807 8.91860e-18
7471.37027 8.09191e-18
7472.84248 6.97847e-18
7474.31468 7.55427e-18
7475.77687 7.78971e-18
7477.24908 7.77478e-18
7478.72128 7.58327e-18
7480.19348 7.54636e-18
7481.66569 8.15540e-18
7483.12788 8.43253e-18
7484.60009 8.42232e-18
7486.07229 8.19292e-18
7487.54450 8.53914e-18
7489.00669 7.92911e-18
7490.47889 7.82975e-18
7491.95110 8.14521e-18
7493.42330 8.04411e-18
7494.89551 7.81442e-18
7496.35770 6.96769e-18
7497.82990 8.31580e-18
7499.30210 7.35519e-18
7500.77431 7.50446e-18
7502.23650 7.86515e-18
7503.70871 6.22754e-18
7505.18091 5.98735e-18
7506.65312 6.57539e-18
7508.12532 7.34704e-18
7509.58751 7.25350e-18
7511.05972 7.25722e-18
7512.53192 7.71505e-18
7514.00413 7.91024e-18
7515.46632 6.32047e-18
7516.93852 5.47329e-18
7518.41072 7.54824e-18
7519.88293 8.54215e-18
7521.34512 6.78107e-18
7522.81733 5.68169e-18
7524.28953 6.99931e-18
7525.76174 7.62992e-18
7527.23394 6.19398e-18
7528.69613 5.47441e-18
7530.16834 5.64355e-18
7531.64054 6.52383e-18
7533.11275 7.05879e-18
7534.57494 6.82142e-18
7536.04714 6.10968e-18
7537.51934 6.19911e-18
7538.99155 6.09828e-18
7540.46376 5.62347e-18
7541.92595 6.03774e-18
7543.39815 5.79914e-18
7544.87036 5.77619e-18
7546.34256 7.12495e-18
7547.80475 6.42963e-18
7549.27696 5.88196e-18
7550.74916 5.15832e-18
7552.22137 5.06027e-18
7553.69357 6.59989e-18
7555.15576 7.04946e-18
7556.62797 6.72582e-18
7558.10017 5.93504e-18
7559.57238 5.84011e-18
7561.03457 4.96090e-18
7562.50677 4.84823e-18
7563.97897 5.59728e-18
7565.45118 6.08880e-18
7566.91337 6.39008e-18
7568.38558 5.91700e-18
7569.85778 5.42380e-18
7571.32999 5.53006e-18
7572.80219 4.33787e-18
7574.26438 5.08096e-18
7575.73659 5.55346e-18
7577.20879 5.79188e-18
7578.68100 7.15644e-18
7580.14319 6.50470e-18
7581.61539 5.50161e-18
7583.08759 4.86019e-18
7584.55980 5.62683e-18
7586.03201 5.70444e-18
7587.49420 4.78707e-18
7588.96640 3.57087e-18
7590.43861 4.04753e-18
7591.91081 5.05641e-18
7593.37300 4.68316e-18
7594.84521 5.63565e-18
7596.31741 5.09338e-18
7597.78962 4.23577e-18
7599.26182 2.79772e-18
7600.72401 4.10921e-18
7602.19622 6.14559e-18
7603.66842 6.01257e-18
7605.14062 7.10492e-18
7606.60282 4.66673e-18
7608.07502 3.57503e-18
7609.54723 4.42344e-18
7611.01943 5.29418e-18
7612.48162 6.05639e-18
7613.95383 5.02835e-18
7615.42603 4.74628e-18
7616.89824 4.74171e-18
7618.37044 3.91637e-18
7619.83263 4.01683e-18
7621.30484 4.36691e-18
7622.77704 4.36107e-18
7624.24924 4.38736e-18
7625.71144 4.54350e-18
7627.18364 4.87959e-18
7628.65585 5.26161e-18
7630.12805 4.78813e-18
7631.60026 4.17440e-18
7632.23278 4.17440e-18
7633.10426 4.24427e-18
7633.96572 4.30978e-18
7634.82718 4.37528e-18
7635.68864 4.43641e-18
7636.55010 4.49753e-18
7637.41157 4.54226e-18
7638.27303 4.58695e-18
7639.13449 4.60918e-18
7639.99595 4.63136e-18
7640.85741 4.65223e-18
7641.71888 4.67310e-18
7642.59035 4.71356e-18
7643.45182 4.75405e-18
7644.31328 4.82304e-18
7645.17474 4.89208e-18
7646.03620 4.99341e-18
7646.89766 5.09479e-18
7647.75913 5.20111e-18
7648.62059 5.30744e-18
7649.48205 5.38427e-18
7650.34351 5.46104e-18
7651.20497 5.50105e-18
7652.06644 5.54100e-18
7652.93792 5.54801e-18
7653.79938 5.55496e-18
7654.66084 5.55542e-18
7655.52230 5.55588e-18
7656.38376 5.59063e-18
7657.24523 5.62546e-18
7658.10669 5.70109e-18
7658.96815 5.77681e-18
7659.82961 5.87091e-18
7660.69107 5.96505e-18
7661.55254 6.05856e-18
7662.42401 6.15206e-18
7663.28548 6.22771e-18
7664.14694 6.30331e-18
7665.00840 6.36006e-18
7665.86986 6.41677e-18
7666.73132 6.48738e-18
7667.59279 6.55802e-18
7668.45425 6.65771e-18
7669.31571 6.75745e-18
7670.17717 6.85515e-18
7671.03863 6.95284e-18
7671.91011 7.02349e-18
7672.77158 7.09407e-18
7673.63304 7.13310e-18
7674.49450 7.17199e-18
7675.35596 7.18113e-18
7676.21742 7.19019e-18
7677.07889 7.20639e-18
7677.94035 7.22251e-18
7678.80181 7.28265e-18
7679.66327 7.34292e-18
7680.52473 7.42527e-18
7681.38620 7.50762e-18
7682.25767 7.57772e-18
7683.11914 7.64789e-18
7683.98060 7.70567e-18
7684.84206 7.76346e-18
7685.70352 7.81861e-18
7686.56498 7.87376e-18
7687.42645 7.92857e-18
7688.28791 7.98331e-18
7689.14937 8.03853e-18
7690.01083 8.09375e-18
7690.88231 8.14413e-18
7691.74377 8.19451e-18
7692.60524 8.22939e-18
7693.46670 8.26433e-18
7694.32816 8.28634e-18
7695.18962 8.30835e-18
7696.05108 8.33374e-18
7696.91255 8.35914e-18
7697.77401 8.39409e-18
7698.63547 8.42896e-18
7699.49693 8.46515e-18
7700.35839 8.50128e-18
7701.22987 8.53180e-18
7702.09133 8.56231e-18
7702.95280 8.58307e-18
7703.81426 8.60370e-18
7704.67572 8.61179e-18
7705.53718 8.61975e-18
7706.39864 8.61574e-18
7707.26011 8.61165e-18
7708.12157 8.59913e-18
7708.98303 8.58660e-18
7709.84449 8.58010e-18
7710.71597 8.57366e-18
7711.57743 8.58619e-18
7712.43890 8.59878e-18
7713.30036 8.62722e-18
7714.16182 8.65573e-18
7715.02328 8.69303e-18
7715.88474 8.73033e-18
7716.74620 8.76500e-18
7717.60767 8.79974e-18
7718.46913 8.81939e-18
7719.33059 8.83912e-18
7720.20207 8.84292e-18
7721.06353 8.84673e-18
7721.92499 8.83919e-18
7722.78646 8.83164e-18
7723.64792 8.82050e-18
7724.50938 8.80936e-18
7725.37084 8.80500e-18
7726.23230 8.80057e-18
7727.09377 8.80632e-18
7727.95523 8.81213e-18
7728.81669 8.82458e-18
7729.67815 8.83711e-18
7730.54963 8.85559e-18
7731.41109 8.87413e-18
7732.27255 8.90251e-18
7733.13402 8.93081e-18
7733.99548 8.96451e-18
7734.85694 8.99814e-18
7735.71840 9.01897e-18
7736.57986 9.03973e-18
7737.44133 9.03731e-18
7738.30279 9.03489e-18
7739.17427 9.01669e-18
7740.03573 8.99849e-18
7740.89719 8.97420e-18
7741.75865 8.94991e-18
7742.62012 8.93399e-18
7743.48158 8.91808e-18
7744.34304 8.92230e-18
7745.20450 8.92652e-18
7746.06596 8.94292e-18
7746.92743 8.95932e-18
7747.78889 8.97690e-18
7748.65035 8.99447e-18
7749.52183 9.00935e-18
7750.38329 9.02416e-18
7751.24475 9.03343e-18
7752.10621 9.04271e-18
7752.96768 9.04644e-18
7753.82914 9.05011e-18
7754.69060 9.05032e-18
7755.55206 9.05046e-18
7756.41352 9.04464e-18
7757.27499 9.03876e-18
7758.13645 9.02202e-18
7759.00793 9.00534e-18
7759.86939 8.98257e-18
7760.73085 8.95973e-18
7761.59231 8.94236e-18
7762.45378 8.92500e-18
7763.31524 8.91579e-18
7764.17670 8.90652e-18
7765.03816 8.89946e-18
7765.89962 8.89240e-18
7766.76109 8.88285e-18
7767.62255 8.87330e-18
7768.49403 8.85780e-18
7769.35549 8.84223e-18
7770.21695 8.82050e-18
7771.07841 8.79870e-18
7771.93988 8.77808e-18
7772.80134 8.75753e-18
7773.66280 8.74355e-18
7774.52426 8.72957e-18
7775.38572 8.71933e-18
7776.24719 8.70916e-18
7777.10865 8.70044e-18
7777.98013 8.69179e-18
7778.84159 8.68591e-18
7779.70305 8.68002e-18
7780.56451 8.67816e-18
7781.42597 8.67629e-18
7782.28744 8.67809e-18
7783.14890 8.67989e-18
7784.01036 8.68459e-18
7784.87182 8.68930e-18
7785.73328 8.69629e-18
7786.59475 8.70328e-18
7787.46623 8.71172e-18
7788.32769 8.72023e-18
7789.18915 8.72777e-18
7790.05061 8.73525e-18
7790.91207 8.73905e-18
7791.77354 8.74279e-18
7792.63500 8.74141e-18
7793.49646 8.74002e-18
7794.35792 8.73303e-18
7795.21938 8.72597e-18
7796.08085 8.71663e-18
7796.94231 8.70729e-18
7797.81379 8.70155e-18
7798.67525 8.69587e-18
7799.53671 8.69829e-18
7800.39817 8.70078e-18
7801.25963 8.71435e-18
7802.12110 8.72798e-18
7802.98256 8.75040e-18
7803.84402 8.77289e-18
7804.70548 8.79282e-18
7805.56694 8.81282e-18
7806.42841 8.82209e-18
7807.29989 8.83137e-18
7808.16135 8.83088e-18
7809.02281 8.83040e-18
7809.88427 8.82175e-18
7810.74573 8.81303e-18
7811.60720 8.79794e-18
7812.46866 8.78279e-18
7813.33012 8.76396e-18
7814.19158 8.74514e-18
7815.05304 8.72604e-18
7815.91450 8.70694e-18
7816.78598 8.69075e-18
7817.64745 8.67456e-18
7818.50891 8.66515e-18
7819.37037 8.65573e-18
7820.23183 8.65615e-18
7821.09329 8.65663e-18
7821.95476 8.65989e-18
7822.81622 8.66321e-18
7823.67768 8.65878e-18
7824.53914 8.65435e-18
7825.40060 8.64093e-18
7826.27208 8.62743e-18
7827.13355 8.60819e-18
7827.99501 8.58902e-18
7828.85647 8.56667e-18
7829.71793 8.54439e-18
7830.57939 8.52169e-18
7831.44085 8.49899e-18
7832.30232 8.47768e-18
7833.16378 8.45637e-18
7834.02524 8.43644e-18
7834.88670 8.41651e-18
7835.75818 8.39983e-18
7836.61964 8.38315e-18
7837.48111 8.37492e-18
7838.34257 8.36668e-18
7839.20403 8.36827e-18
7840.06549 8.36980e-18
7840.92695 8.37533e-18
7841.78842 8.38087e-18
7842.64988 8.38530e-18
7843.51134 8.38973e-18
7844.37280 8.39069e-18
7845.23426 8.39173e-18
7846.10574 8.38793e-18
7846.96720 8.38419e-18
7847.82867 8.37755e-18
7848.69013 8.37090e-18
7849.55159 8.36378e-18
7850.41305 8.35665e-18
7851.27452 8.35056e-18
7852.13598 8.34440e-18
7852.99744 8.34032e-18
7853.85890 8.33623e-18
7854.72036 8.33499e-18
7855.59184 8.33374e-18
7856.45330 8.33575e-18
7857.31477 8.33782e-18
7858.17623 8.33997e-18
7859.03769 8.34212e-18
7859.89915 8.33935e-18
7860.76061 8.33658e-18
7861.62208 8.32924e-18
7862.48354 8.32191e-18
7863.34500 8.31409e-18
7864.20646 8.30627e-18
7865.07794 8.29582e-18
7865.93940 8.28544e-18
7866.80087 8.26551e-18
7867.66233 8.24565e-18
7868.52379 8.21555e-18
7869.38525 8.18551e-18
7870.24671 8.15098e-18
7871.10818 8.11638e-18
7871.96964 8.08538e-18
7872.83110 8.05431e-18
7873.69256 8.03978e-18
7874.56404 8.02538e-18
7875.42550 8.03251e-18
7876.28696 8.03971e-18
7877.14843 8.05382e-18
7878.00989 8.06794e-18
7878.87135 8.07548e-18
7879.73281 8.08310e-18
7880.59427 8.07998e-18
7881.45574 8.07687e-18
7882.31720 8.06088e-18
7883.17866 8.04483e-18
7884.05014 8.02158e-18
7884.91160 7.99832e-18
7885.77306 7.97487e-18
7886.63453 7.95148e-18
7887.49599 7.92732e-18
7888.35745 7.90310e-18
7889.21891 7.87653e-18
7890.08037 7.84996e-18
7890.94184 7.82242e-18
7891.80330 7.79494e-18
7892.66476 7.76816e-18
7893.52622 7.74145e-18
7894.39770 7.72242e-18
7895.25916 7.70339e-18
7896.12062 7.70173e-18
7896.98209 7.70000e-18
7897.84355 7.71017e-18
7898.70501 7.72027e-18
7899.56647 7.72623e-18
7900.42793 7.73218e-18
7901.28940 7.72692e-18
7902.15086 7.72166e-18
7903.01232 7.70692e-18
7903.88380 7.69211e-18
7904.74526 7.67239e-18
7905.60672 7.65273e-18
7906.46819 7.63834e-18
7907.32965 7.62402e-18
7908.19111 7.61903e-18
7909.05257 7.61405e-18
7909.91403 7.60692e-18
7910.77550 7.59980e-18
7911.63696 7.58367e-18
7912.49842 7.56755e-18
7913.36990 7.55066e-18
7914.23136 7.53371e-18
7915.09282 7.52291e-18
7915.95428 7.51212e-18
7916.81575 7.50790e-18
7917.67721 7.50368e-18
7918.53867 7.50513e-18
7919.40013 7.50658e-18
7920.26159 7.50354e-18
7921.12306 7.50056e-18
7921.98452 7.48285e-18
7922.85600 7.46506e-18
7923.71746 7.43890e-18
7924.57892 7.41275e-18
7925.44038 7.38915e-18
7926.30185 7.36548e-18
7927.16331 7.35081e-18
7928.02477 7.33614e-18
7928.88623 7.33469e-18
7929.74769 7.33330e-18
7930.60916 7.34244e-18
7931.47062 7.35157e-18
7932.34210 7.36375e-18
7933.20356 7.37600e-18
7934.06502 7.38479e-18
7934.92648 7.39358e-18
7935.78794 7.39358e-18
7936.64941 7.39365e-18
7937.51087 7.38216e-18
7938.37233 7.37060e-18
7939.23379 7.34818e-18
7940.09525 7.32569e-18
7940.95672 7.29559e-18
7941.81818 7.26549e-18
7942.68966 7.23524e-18
7943.55112 7.20500e-18
7944.41258 7.18051e-18
7945.27404 7.15601e-18
7946.13551 7.13829e-18
7946.99697 7.12058e-18
7947.85843 7.10958e-18
7948.71989 7.09850e-18
7949.58135 7.09214e-18
7950.44282 7.08577e-18
7951.30428 7.08120e-18
7952.17576 7.07664e-18
7953.03722 7.06778e-18
7953.89868 7.05892e-18
7954.76014 7.04051e-18
7955.62160 7.02211e-18
7956.48307 7.00183e-18
7957.34453 6.98148e-18
7958.20599 6.96931e-18
7959.06745 6.95719e-18
7959.92891 6.95387e-18
7960.79038 6.95055e-18
7961.66186 6.95394e-18
7962.52332 6.95726e-18
7963.38478 6.96204e-18
7964.24624 6.96681e-18
7965.10770 6.96536e-18
7965.96917 6.96384e-18
7966.83063 6.96052e-18
7967.69209 6.95713e-18
7968.55355 6.96453e-18
7969.41501 6.97200e-18
7970.27648 6.99311e-18
7971.14795 7.01429e-18
7972.00942 7.04273e-18
7972.87088 7.07117e-18
7973.73234 7.09837e-18
7974.59380 7.12563e-18
7975.45526 7.13919e-18
7976.31673 7.15276e-18
7977.17819 7.14736e-18
7978.03965 7.14196e-18
7978.90111 7.12778e-18
7979.76257 7.11359e-18
7980.63405 7.09947e-18
7981.49552 7.08542e-18
7982.35698 7.07359e-18
7983.21844 7.06176e-18
7984.07990 7.05359e-18
7984.94136 7.04543e-18
7985.80283 7.03795e-18
7986.66429 7.03055e-18
7987.52575 7.02065e-18
7988.38721 7.01069e-18
7989.24867 6.99962e-18
7990.11014 6.98854e-18
7990.98161 6.97796e-18
7991.84308 6.96737e-18
7992.70454 6.96052e-18
7993.56600 6.95367e-18
7994.42746 6.95429e-18
7995.28892 6.95498e-18
7996.15039 6.95567e-18
7997.01185 6.95636e-18
7997.87331 6.94529e-18
7998.73477 6.93422e-18
7999.59623 6.91282e-18
8000.46771 6.89141e-18
8001.32917 6.86863e-18
8002.19064 6.84584e-18
8003.05210 6.82843e-18
8003.91356 6.81104e-18
8004.77502 6.80476e-18
8005.63649 6.79852e-18
8006.49795 6.80190e-18
8007.35941 6.80531e-18
8008.22087 6.80657e-18
8009.08233 6.80782e-18
8009.95381 6.80310e-18
8010.81527 6.79837e-18
8011.67674 6.79895e-18
8012.53820 6.79954e-18
8013.39966 6.81090e-18
8014.26112 6.82228e-18
8015.12258 6.83649e-18
8015.98405 6.85069e-18
8016.84551 6.86018e-18
8017.70697 6.86964e-18
8018.56843 6.86671e-18
8019.43991 6.86375e-18
8020.30137 6.84368e-18
8021.16284 6.82359e-18
8022.02430 6.79911e-18
8022.88576 6.77462e-18
8023.74722 6.75979e-18
8024.60868 6.74498e-18
8025.47015 6.73936e-18
8026.33161 6.73378e-18
8027.19307 6.73365e-18
8028.05453 6.73354e-18
8028.92601 6.73427e-18
8029.78747 6.73500e-18
8030.64893 6.73123e-18
8031.51040 6.72745e-18
8032.37186 6.71970e-18
8033.23332 6.71195e-18
8034.09478 6.70398e-18
8034.95624 6.69602e-18
8035.81771 6.69022e-18
8036.67917 6.68444e-18
8037.54063 6.68227e-18
8038.41211 6.68010e-18
8039.27357 6.68207e-18
8040.13503 6.68404e-18
8040.99650 6.68953e-18
8041.85796 6.69501e-18
8042.71942 6.70217e-18
8043.58088 6.70933e-18
8044.44234 6.71496e-18
8045.30380 6.72059e-18
8046.16527 6.72226e-18
8047.02673 6.72391e-18
8047.88819 6.72049e-18
8048.75967 6.71705e-18
8049.62113 6.70912e-18
8050.48259 6.70119e-18
8051.34406 6.69463e-18
8052.20552 6.68807e-18
8053.06698 6.68725e-18
8053.92844 6.68644e-18
8054.78990 6.68802e-18
8055.65137 6.68962e-18
8056.51283 6.68944e-18
8057.37429 6.68925e-18
8058.24577 6.68231e-18
8059.10723 6.67535e-18
8059.96869 6.65740e-18
8060.83015 6.63942e-18
8061.69162 6.61392e-18
8062.55308 6.58840e-18
8063.41454 6.56123e-18
8064.27600 6.53405e-18
8065.13746 6.51189e-18
8065.99893 6.48973e-18
8066.86039 6.47911e-18
8067.73187 6.46851e-18
8068.59333 6.46981e-18
8069.45479 6.47113e-18
8070.31625 6.48085e-18
8071.17772 6.49059e-18
8072.03918 6.50176e-18
8072.90064 6.51292e-18
8073.76210 6.51560e-18
8074.62356 6.51824e-18
8075.48503 6.50874e-18
8076.34649 6.49921e-18
8077.21797 6.48228e-18
8078.07943 6.46534e-18
8078.94089 6.44396e-18
8079.80235 6.42256e-18
8080.66381 6.39616e-18
8081.52528 6.36975e-18
8082.38674 6.33875e-18
8083.24820 6.30772e-18
8084.10966 6.27342e-18
8084.97113 6.23911e-18
8085.83259 6.20306e-18
8086.70407 6.16699e-18
8087.56553 6.13146e-18
8088.42699 6.09594e-18
8089.28845 6.06309e-18
8090.14991 6.03025e-18
8091.01138 6.00201e-18
8091.87284 5.97379e-18
8092.73430 5.95121e-18
8093.59576 5.92863e-18
8094.45722 5.91126e-18
8095.31869 5.89390e-18
8096.18015 5.88034e-18
8097.05163 5.86681e-18
8097.91309 5.84952e-18
8098.77455 5.83224e-18
8099.63601 5.80228e-18
8100.49748 5.77229e-18
8101.35894 5.72682e-18
8102.22040 5.68131e-18
8103.08186 5.62092e-18
8103.94332 5.56049e-18
8104.80479 5.49248e-18
8105.67626 5.42445e-18
8106.53773 5.36069e-18
8107.39919 5.29694e-18
8108.26065 5.24483e-18
8109.12211 5.19274e-18
8109.98357 5.15478e-18
8110.84504 5.11686e-18
8111.70650 5.08973e-18
8112.56796 5.06262e-18
8113.42942 5.03469e-18
8114.29088 5.00676e-18
8115.15235 4.96863e-18
8116.02383 4.93048e-18
8116.88529 4.87816e-18
8117.74675 4.82581e-18
8118.60821 4.75855e-18
8119.46967 4.69125e-18
8120.33114 4.61874e-18
8121.19260 4.54623e-18
8122.05406 4.47624e-18
8122.91552 4.40626e-18
8123.77698 4.33014e-18
8124.63845 4.25401e-18
8125.49991 4.16372e-18
8126.37139 4.07340e-18
8127.23285 3.97325e-18
8128.09431 3.87308e-18
8128.95577 3.76940e-18
8129.81723 3.66572e-18
8130.67870 3.57064e-18
8131.54016 3.47559e-18
8132.40162 3.40217e-18
8133.26308 3.32882e-18
8134.12454 3.27005e-18
8134.99602 3.21133e-18
8135.85749 3.15151e-18
8136.71895 3.09169e-18
8137.58041 3.02487e-18
8138.44187 2.95803e-18
8139.30333 2.88397e-18
8140.16480 2.80989e-18
8141.02626 2.73049e-18
8141.88772 2.65107e-18
8142.74918 2.57075e-18
8143.61064 2.49042e-18
8144.47210 2.41355e-18
8145.34358 2.33670e-18
8146.20505 2.26679e-18
8147.06651 2.19690e-18
8147.92797 2.13642e-18
8148.78943 2.07596e-18
8149.65089 2.02567e-18
8150.51236 1.97542e-18
8151.37382 1.93409e-18
8152.23528 1.89278e-18
8153.09674 1.85495e-18
8153.95820 1.81714e-18
8154.82968 1.77842e-18
8155.69115 1.73970e-18
8156.55261 1.70050e-18
8157.41407 1.66130e-18
8158.27553 1.62295e-18
8159.13699 1.58461e-18
8159.99845 1.55039e-18
8160.85992 1.51618e-18
8161.72138 1.48929e-18
8162.58284 1.46241e-18
8163.44430 1.44382e-18
8164.31578 1.42524e-18
8165.17724 1.41478e-18
8166.03871 1.40433e-18
8166.90017 1.39702e-18
8167.76163 1.38971e-18
8168.62309 1.37949e-18
8169.48455 1.36928e-18
8170.34602 1.35113e-18
8171.20748 1.33296e-18
8172.06894 1.30209e-18
8172.93040 1.27119e-18
8173.80188 1.23575e-18
8174.66334 1.20031e-18
8175.52481 1.17792e-18
8176.38627 1.15557e-18
8177.24773 1.15015e-18
8178.10919 1.14477e-18
8178.97065 1.14611e-18
8179.83212 1.14747e-18
8180.69358 1.14780e-18
8181.55504 1.14812e-18
8182.41650 1.14254e-18
8183.28798 1.13695e-18
8184.14944 1.12367e-18
8185.01090 1.11039e-18
8185.87237 1.09601e-18
8186.73383 1.08163e-18
8187.59529 1.07087e-18
8188.45675 1.06011e-18
8189.31821 1.04932e-18
8190.17968 1.03853e-18
8191.04114 1.02516e-18
8191.90260 1.01179e-18
8192.77408 9.98951e-19
8193.63554 9.86115e-19
8194.49700 9.76952e-19
8195.35846 9.67797e-19
8196.21993 9.65119e-19
8197.08139 9.62455e-19
8197.94285 9.68385e-19
8198.80431 9.74330e-19
8199.66577 9.83783e-19
8200.52724 9.93242e-19
8201.38870 9.99111e-19
8202.25016 1.00497e-18
8203.12164 1.00587e-18
8203.98310 1.00676e-18
8204.84456 1.00385e-18
8205.70603 1.00093e-18
8206.56749 9.94793e-19
8207.42895 9.88641e-19
8208.29041 9.79769e-19
8209.15187 9.70890e-19
8210.01334 9.60725e-19
8210.87480 9.50559e-19
8211.73626 9.40975e-19
8212.60774 9.31397e-19
8213.46920 9.23190e-19
8214.33066 9.14990e-19
8215.19212 9.08021e-19
8216.05359 9.01060e-19
8216.91505 8.93122e-19
8217.77651 8.85185e-19
8218.63797 8.70148e-19
8219.49943 8.55089e-19
8220.36090 8.30599e-19
8221.22236 8.06088e-19
8222.08382 7.78422e-19
8222.95530 7.50748e-19
8223.81676 7.26908e-19
8224.67822 7.03076e-19
8225.53969 6.91838e-19
8226.40115 6.80633e-19
8227.26261 6.88335e-19
8228.12407 6.96079e-19
8228.98553 7.16819e-19
8229.84700 7.37586e-19
8230.70846 7.63163e-19
8231.57994 7.88753e-19
8232.44140 8.11202e-19
8233.30286 8.33651e-19
8234.16432 8.45574e-19
8235.02578 8.57477e-19
8235.88725 8.61331e-19
8236.74871 8.65158e-19
8237.61017 8.67110e-19
8238.47163 8.69061e-19
8239.33309 8.73414e-19
8240.19456 8.77774e-19
8241.06604 8.88112e-19
8241.92750 8.98465e-19
8242.78896 9.12692e-19
8243.65042 9.26927e-19
8244.51188 9.38581e-19
8245.37335 9.50234e-19
8246.23481 9.56144e-19
8247.09627 9.62040e-19
8247.95773 9.62559e-19
8248.81919 9.63064e-19
8249.68066 9.59486e-19
8250.54212 9.55902e-19
8251.41360 9.51099e-19
8252.27506 9.46290e-19
8253.13652 9.42940e-19
8253.99798 9.39598e-19
8254.85945 9.39328e-19
8255.72091 9.39072e-19
8256.58237 9.42802e-19
8257.44383 9.46546e-19
8258.30529 9.53639e-19
8259.16676 9.60739e-19
8260.02822 9.69832e-19
8260.89970 9.78932e-19
8261.76116 9.87506e-19
8262.62262 9.96087e-19
8263.48408 1.00167e-18
8264.34554 1.00725e-18
8265.20701 1.00762e-18
8266.06847 1.00797e-18
8266.92993 1.00165e-18
8267.79139 9.95318e-19
8268.65285 9.85679e-19
8269.52433 9.76025e-19
8270.38580 9.67728e-19
8271.24726 9.59438e-19
8272.10872 9.55618e-19
8272.97018 9.51812e-19
8273.83164 9.54898e-19
8274.69311 9.57998e-19
8275.55457 9.65569e-19
8276.41603 9.73140e-19
8277.27749 9.79727e-19
8278.13895 9.86308e-19
8279.01043 9.89685e-19
8279.87189 9.93056e-19
8280.73336 9.93748e-19
8281.59482 9.94433e-19
8282.45628 9.94094e-19
8283.31774 9.93748e-19
8284.17920 9.95824e-19
8285.04067 9.97907e-19
8285.90213 1.00371e-18
8286.76359 1.00953e-18
8287.62505 1.01594e-18
8288.48651 1.02236e-18
8289.34798 1.02772e-18
8290.21946 1.03307e-18
8291.08092 1.03988e-18
8291.94238 1.04668e-18
8292.80384 1.05635e-18
8293.66530 1.06601e-18
8294.52677 1.07603e-18
8295.38823 1.08603e-18
8296.24969 1.09405e-18
8297.11115 1.10206e-18
8297.97261 1.10657e-18
8298.83408 1.11108e-18
8299.70555 1.11120e-18
8300.56702 1.11130e-18
8301.42848 1.11233e-18
8302.28994 1.11336e-18
8303.15140 1.12159e-18
8304.01286 1.12983e-18
8304.87433 1.14284e-18
8305.73579 1.15585e-18
8306.59725 1.16840e-18
8307.45871 1.18096e-18
8308.32017 1.18988e-18
8309.18164 1.19880e-18
8310.05312 1.20177e-18
8310.91458 1.20473e-18
8311.77604 1.20424e-18
8312.63750 1.20372e-18
8313.49896 1.20575e-18
8314.36043 1.20778e-18
8315.22189 1.21570e-18
8316.08335 1.22365e-18
8316.94481 1.23814e-18
8317.80627 1.25266e-18
8318.67775 1.27203e-18
8319.53921 1.29140e-18
8320.40068 1.31024e-18
8321.26214 1.32908e-18
8322.12360 1.34353e-18
8322.98506 1.35797e-18
8323.84652 1.36799e-18
8324.70799 1.37801e-18
8325.56945 1.38410e-18
8326.43091 1.39019e-18
8327.29237 1.39385e-18
8328.16385 1.39751e-18
8329.02531 1.40062e-18
8329.88678 1.40372e-18
8330.74824 1.40733e-18
8331.60970 1.41095e-18
8332.47116 1.41613e-18
8333.33262 1.42132e-18
8334.19408 1.43068e-18
8335.05555 1.44005e-18
8335.91701 1.45574e-18
8336.77847 1.47145e-18
8337.64995 1.49179e-18
8338.51141 1.51214e-18
8339.37287 1.53423e-18
8340.23434 1.55632e-18
8341.09580 1.57618e-18
8341.95726 1.59602e-18
8342.81872 1.60933e-18
8343.68018 1.62263e-18
8344.54165 1.62948e-18
8345.40311 1.63632e-18
8346.26457 1.63975e-18
8347.12603 1.64316e-18
8347.99751 1.64561e-18
8348.85897 1.64806e-18
8349.72043 1.65138e-18
8350.58190 1.65469e-18
8351.44336 1.66101e-18
8352.30482 1.66734e-18
8353.16628 1.67891e-18
8354.02775 1.69049e-18
8354.88921 1.70758e-18
8355.75067 1.72469e-18
8356.62215 1.74451e-18
8357.48361 1.76434e-18
8358.34507 1.78411e-18
8359.20653 1.80387e-18
8360.06800 1.82116e-18
8360.92946 1.83843e-18
8361.79092 1.85177e-18
8362.65238 1.86511e-18
8363.51384 1.87703e-18
8364.37531 1.88895e-18
8365.23677 1.90191e-18
8366.10825 1.91489e-18
8366.96971 1.92729e-18
8367.83117 1.93969e-18
8368.69263 1.94982e-18
8369.55410 1.95995e-18
8370.41556 1.96946e-18
8371.27702 1.97898e-18
8372.13848 1.99015e-18
8372.99994 2.00131e-18
8373.86140 2.01538e-18
8374.72287 2.02945e-18
8375.59435 2.04721e-18
8376.45581 2.06498e-18
8377.31727 2.08627e-18
8378.17873 2.10756e-18
8379.04019 2.13155e-18
8379.90166 2.15555e-18
8380.76312 2.18094e-18
8381.62458 2.20633e-18
8382.48604 2.23157e-18
8383.34750 2.25680e-18
8384.20897 2.28062e-18
8385.07043 2.30442e-18
8385.94191 2.32562e-18
8386.80337 2.34682e-18
8387.66483 2.36612e-18
8388.52629 2.38542e-18
8389.38775 2.40657e-18
8390.24922 2.42772e-18
8391.11068 2.45177e-18
8391.97214 2.47582e-18
8392.83360 2.49793e-18
8393.69507 2.52004e-18
8394.55653 2.53674e-18
8395.41799 2.55344e-18
8396.28947 2.56465e-18
8397.15093 2.57585e-18
8398.01239 2.58296e-18
8398.87385 2.59006e-18
8399.73532 2.60094e-18
8400.59678 2.61183e-18
8401.45824 2.63364e-18
8402.31970 2.65548e-18
8403.18116 2.68591e-18
8404.04263 2.71636e-18
8404.90409 2.75103e-18
8405.77557 2.78570e-18
8406.63703 2.81975e-18
8407.49849 2.85379e-18
8408.35995 2.88220e-18
8409.22142 2.91059e-18
8410.08288 2.93338e-18
8410.94434 2.95616e-18
8411.80580 2.97590e-18
8412.66726 2.99563e-18
8413.52873 3.01408e-18
8414.39019 3.03252e-18
8415.26167 3.05111e-18
8416.12313 3.06970e-18
8416.98459 3.08995e-18
8417.84605 3.11021e-18
8418.70751 3.13337e-18
8419.56898 3.15653e-18
8420.43044 3.18308e-18
8421.29190 3.20964e-18
8422.15336 3.23947e-18
8423.01482 3.26932e-18
8423.87629 3.30085e-18
8424.74777 3.33239e-18
8425.60923 3.36126e-18
8426.47069 3.39013e-18
8427.33215 3.41457e-18
8428.19361 3.43899e-18
8429.05508 3.46392e-18
8429.91654 3.48885e-18
8430.77800 3.51828e-18
8431.63946 3.54772e-18
8432.50092 3.58208e-18
8433.36239 3.61645e-18
8434.23386 3.65512e-18
8435.09533 3.69378e-18
8435.95679 3.73031e-18
8436.81825 3.76684e-18
8437.67971 3.79492e-18
8438.54117 3.82299e-18
8439.40264 3.84632e-18
8440.26410 3.86963e-18
8441.12556 3.89421e-18
8441.98702 3.91879e-18
8442.84848 3.94638e-18
8443.70995 3.97399e-18
8444.58143 4.00502e-18
8445.44289 4.03606e-18
8446.30435 4.07085e-18
8447.16581 4.10566e-18
8448.02727 4.14411e-18
8448.88874 4.18257e-18
8449.75020 4.22349e-18
8450.61166 4.26442e-18
8451.47312 4.30607e-18
8452.33458 4.34771e-18
8453.20606 4.38810e-18
8454.06752 4.42847e-18
8454.92899 4.46516e-18
8455.79045 4.50184e-18
8456.65191 4.53536e-18
8457.51337 4.56887e-18
8458.37483 4.60443e-18
8459.23630 4.63999e-18
8460.09776 4.67978e-18
8460.95922 4.71957e-18
8461.82068 4.75912e-18
8462.69216 4.79867e-18
8463.55362 4.83481e-18
8464.41508 4.87096e-18
8465.27655 4.90394e-18
8466.13801 4.93691e-18
8466.99947 4.96806e-18
8467.86093 4.99920e-18
8468.72240 5.03512e-18
8469.58386 5.07105e-18
8470.44532 5.11760e-18
8471.30678 5.16416e-18
8472.16824 5.21771e-18
8473.03972 5.27128e-18
8473.90118 5.32658e-18
8474.76265 5.38187e-18
8475.62411 5.43494e-18
8476.48557 5.48799e-18
8477.34703 5.53499e-18
8478.20849 5.58197e-18
8479.06996 5.62743e-18
8479.93142 5.67288e-18
8480.79288 5.72507e-18
8481.65434 5.77728e-18
8482.51580 5.83435e-18
8483.38728 5.89142e-18
8484.24875 5.94568e-18
8485.11021 5.99992e-18
8485.97167 6.04791e-18
8486.83313 6.09590e-18
8487.69459 6.13755e-18
8488.55605 6.17919e-18
8489.41752 6.21670e-18
8490.27898 6.25420e-18
8491.14044 6.29311e-18
8492.00190 6.33203e-18
8492.87338 6.37596e-18
8493.73484 6.41991e-18
8494.59631 6.46789e-18
8495.45777 6.51587e-18
8496.31923 6.56841e-18
8497.18069 6.62097e-18
8498.04215 6.68395e-18
8498.90362 6.74696e-18
8499.76508 6.82259e-18
8500.62654 6.89825e-18
8501.48800 6.97643e-18
8502.35948 7.05463e-18
8503.22094 7.12549e-18
8504.08240 7.19635e-18
8504.94387 7.25787e-18
8505.80533 7.31932e-18
8506.66679 7.37109e-18
8507.52825 7.42278e-18
8508.38972 7.46838e-18
8509.25118 7.51399e-18
8510.11264 7.55834e-18
8510.98412 7.60277e-18
8511.84558 7.64782e-18
8512.70704 7.69287e-18
8513.56850 7.73958e-18
8514.42997 7.78622e-18
8515.29143 7.83439e-18
8516.15289 7.88255e-18
8517.01435 7.93161e-18
8517.87581 7.98068e-18
8518.73728 8.03064e-18
8519.59874 8.08054e-18
8520.46020 8.13154e-18
8521.33168 8.18247e-18
8522.19314 8.23672e-18
8523.05460 8.29091e-18
8523.91607 8.35256e-18
8524.77753 8.41429e-18
8525.63899 8.48481e-18
8526.50045 8.55532e-18
8527.36191 8.63214e-18
8528.22337 8.70888e-18
8529.08484 8.78791e-18
8529.94630 8.86694e-18
8530.80776 8.94160e-18
8531.67924 9.01627e-18
8532.54070 9.08125e-18
8533.40216 9.14616e-18
8534.26363 9.19938e-18
8535.12509 9.25259e-18
8535.98655 9.29460e-18
8536.84801 9.33667e-18
8537.70947 9.37563e-18
8538.57094 9.41459e-18
8539.43240 9.45909e-18
8540.30388 9.50365e-18
8541.16534 9.55943e-18
8542.02680 9.61521e-18
8542.88826 9.68565e-18
8543.74972 9.75617e-18
8544.61119 9.83665e-18
8545.47265 9.91713e-18
8546.33411 1.00002e-17
8547.19557 1.00833e-17
8548.05703 1.01562e-17
8548.91850 1.02291e-17
8549.78998 1.02777e-17
8550.65144 1.03264e-17
8551.51290 1.03521e-17
8552.37436 1.03777e-17
8553.23582 1.03910e-17
8554.09729 1.04042e-17
8554.95875 1.04195e-17
8555.82021 1.04349e-17
8556.68167 1.04692e-17
8557.54313 1.05036e-17
8558.40460 1.05647e-17
8559.27607 1.06258e-17
8560.13754 1.07089e-17
8560.99900 1.07920e-17
8561.86046 1.08881e-17
8562.72192 1.09841e-17
8563.58338 1.10783e-17
8564.44485 1.11724e-17
8565.30631 1.12510e-17
8566.16777 1.13296e-17
8567.02923 1.13836e-17
8567.89070 1.14376e-17
8568.75216 1.14628e-17
8569.62364 1.14880e-17
8570.48510 1.14915e-17
8571.34656 1.14949e-17
8572.20802 1.14870e-17
8573.06948 1.14789e-17
8573.93095 1.14708e-17
8574.79241 1.14627e-17
8575.65387 1.14654e-17
8576.51533 1.14682e-17
8577.37679 1.14932e-17
8578.23826 1.15182e-17
8579.09972 1.15741e-17
8579.97120 1.16301e-17
8580.83266 1.17061e-17
8581.69412 1.17822e-17
8582.55558 1.18602e-17
8583.41705 1.19381e-17
8584.27851 1.20035e-17
8585.13997 1.20690e-17
8586.00143 1.21100e-17
8586.86289 1.21509e-17
8587.72436 1.21658e-17
8588.58582 1.21807e-17
8589.45730 1.21761e-17
8590.31876 1.21714e-17
8591.18022 1.21576e-17
8592.04168 1.21437e-17
8592.90314 1.21345e-17
8593.76461 1.21252e-17
8594.62607 1.21282e-17
8595.48753 1.21312e-17
8596.34899 1.21435e-17
8597.21045 1.21556e-17
8598.07192 1.21752e-17
8598.94340 1.21947e-17
8599.80486 1.22235e-17
8600.66632 1.22524e-17
8601.52778 1.22896e-17
8602.38924 1.23268e-17
8603.25071 1.23666e-17
8604.11217 1.24064e-17
8604.97363 1.24421e-17
8605.83509 1.24778e-17
8606.69655 1.25008e-17
8607.56803 1.25238e-17
8608.42949 1.25270e-17
8609.29096 1.25301e-17
8610.15242 1.25154e-17
8611.01388 1.25006e-17
8611.87534 1.24731e-17
8612.73680 1.24455e-17
8613.59827 1.24107e-17
8614.45973 1.23759e-17
8615.32119 1.23399e-17
8616.18265 1.23039e-17
8617.04411 1.22780e-17
8617.91559 1.22520e-17
8618.77706 1.22484e-17
8619.63852 1.22448e-17
8620.49998 1.22643e-17
8621.36144 1.22837e-17
8622.22290 1.23195e-17
8623.08437 1.23554e-17
8623.94583 1.23981e-17
8624.80729 1.24408e-17
8625.66875 1.24782e-17
8626.53021 1.25156e-17
8627.40169 1.25406e-17
8628.26315 1.25655e-17
8629.12462 1.25778e-17
8629.98608 1.25902e-17
8630.84754 1.25895e-17
8631.70900 1.25889e-17
8632.57046 1.25737e-17
8633.43193 1.25584e-17
8634.29339 1.25306e-17
8635.15485 1.25029e-17
8636.01631 1.24713e-17
8636.88779 1.24397e-17
8637.74925 1.24134e-17
8638.61072 1.23872e-17
8639.47218 1.23767e-17
8640.33364 1.23662e-17
8641.19510 1.23787e-17
8642.05656 1.23913e-17
8642.91803 1.24207e-17
8643.77949 1.24502e-17
8644.64095 1.24874e-17
8645.50241 1.25246e-17
8646.37389 1.25598e-17
8647.23535 1.25950e-17
8648.09681 1.26187e-17
8648.95828 1.26423e-17
8649.81974 1.26508e-17
8650.68120 1.26593e-17
8651.54266 1.26528e-17
8652.40412 1.26462e-17
8653.26559 1.26237e-17
8654.12705 1.26011e-17
8654.98851 1.25618e-17
8655.85999 1.25225e-17
8656.72145 1.24733e-17
8657.58291 1.24241e-17
8658.44438 1.23768e-17
8659.30584 1.23295e-17
8660.16730 1.22923e-17
8661.02876 1.22552e-17
8661.89022 1.22316e-17
8662.75168 1.22081e-17
8663.61315 1.22001e-17
8664.47461 1.21921e-17
8665.33607 1.21991e-17
8666.20755 1.22061e-17
8667.06901 1.22248e-17
8667.93047 1.22435e-17
8668.79194 1.22681e-17
8669.65340 1.22927e-17
8670.51486 1.23153e-17
8671.37632 1.23379e-17
8672.23778 1.23448e-17
8673.09925 1.23518e-17
8673.96071 1.23331e-17
8674.82217 1.23143e-17
8675.68363 1.22730e-17
8676.55511 1.22316e-17
8677.41657 1.21743e-17
8678.27803 1.21169e-17
8679.13950 1.20548e-17
8680.00096 1.19927e-17
8680.86242 1.19381e-17
8681.72388 1.18835e-17
8682.58535 1.18414e-17
8683.44681 1.17993e-17
8684.30827 1.17714e-17
8685.16973 1.17434e-17
8686.04121 1.17313e-17
8686.90267 1.17193e-17
8687.76413 1.17232e-17
8688.62560 1.17272e-17
8689.48706 1.17442e-17
8690.34852 1.17611e-17
8691.20998 1.17860e-17
8692.07144 1.18110e-17
8692.93291 1.18355e-17
8693.79437 1.18599e-17
8694.66585 1.18732e-17
8695.52731 1.18864e-17
8696.38877 1.18818e-17
8697.25023 1.18772e-17
8698.11170 1.18537e-17
8698.97316 1.18301e-17
8699.83462 1.17901e-17
8700.69608 1.17502e-17
8701.55754 1.17025e-17
8702.41900 1.16548e-17
8703.28047 1.16067e-17
8704.15195 1.15586e-17
8705.01341 1.15102e-17
8705.87487 1.14619e-17
8706.73633 1.14153e-17
8707.59779 1.13688e-17
8708.45926 1.13338e-17
8709.32072 1.12989e-17
8710.18218 1.12830e-17
8711.04364 1.12672e-17
8711.90510 1.12708e-17
8712.76657 1.12745e-17
8713.62803 1.12949e-17
8714.49951 1.13152e-17
8715.36097 1.13374e-17
8716.22243 1.13596e-17
8717.08389 1.13668e-17
8717.94535 1.13740e-17
8718.80682 1.13593e-17
8719.66828 1.13445e-17
8720.52974 1.13054e-17
8721.39120 1.12663e-17
8722.25267 1.12123e-17
8723.11413 1.11583e-17
8723.98561 1.11063e-17
8724.84707 1.10542e-17
8725.70853 1.10102e-17
8726.56999 1.09662e-17
8727.43145 1.09286e-17
8728.29292 1.08910e-17
8729.15438 1.08599e-17
8730.01584 1.08287e-17
8730.87730 1.08049e-17
8731.73876 1.07810e-17
8732.61024 1.07668e-17
8733.47170 1.07525e-17
8734.33317 1.07543e-17
8735.19463 1.07563e-17
8736.05609 1.07723e-17
8736.91755 1.07884e-17
8737.77902 1.07997e-17
8738.64048 1.08109e-17
8739.50194 1.08014e-17
8740.36340 1.07918e-17
8741.22486 1.07527e-17
8742.08633 1.07134e-17
8742.95780 1.06424e-17
8743.81927 1.05712e-17
8744.68073 1.04887e-17
8745.54219 1.04062e-17
8746.40365 1.03346e-17
8747.26511 1.02629e-17
8748.12658 1.02125e-17
8748.98804 1.01623e-17
8749.84950 1.01395e-17
8750.71096 1.01167e-17
8751.57242 1.01150e-17
8752.44390 1.01133e-17
8753.30537 1.01204e-17
8754.16683 1.01275e-17
8755.02829 1.01366e-17
8755.88975 1.01458e-17
8756.75121 1.01526e-17
8757.61268 1.01593e-17
8758.47414 1.01539e-17
8759.33560 1.01483e-17
8760.19706 1.01186e-17
8761.05852 1.00887e-17
8761.91999 1.00328e-17
8762.79146 9.97671e-18
8763.65293 9.90094e-18
8764.51439 9.82509e-18
8765.37585 9.74005e-18
8766.23731 9.65507e-18
8767.09877 9.57590e-18
8767.96024 9.49687e-18
8768.82170 9.43335e-18
8769.68316 9.36996e-18
8770.54462 9.32089e-18
8771.40608 9.27190e-18
8772.26755 9.23515e-18
8773.13903 9.19848e-18
8774.00049 9.17239e-18
8774.86195 9.14623e-18
8775.72341 9.12727e-18
8776.58487 9.10824e-18
8777.44633 9.09329e-18
8778.30780 9.07841e-18
8779.16926 9.06319e-18
8780.03072 9.04797e-18
8780.89218 9.01925e-18
8781.76366 8.99046e-18
8782.62512 8.93634e-18
8783.48659 8.88209e-18
8784.34805 8.80825e-18
8785.20951 8.73442e-18
8786.07097 8.65144e-18
8786.93243 8.56847e-18
8787.79390 8.48432e-18
8788.65536 8.40017e-18
8789.51682 8.32260e-18
8790.37828 8.24503e-18
8791.24976 8.17382e-18
8792.11122 8.10261e-18
8792.97268 8.03223e-18
8793.83415 7.96179e-18
8794.69561 7.89577e-18
8795.55707 7.82982e-18
8796.41853 7.77833e-18
8797.28000 7.72699e-18
8798.14146 7.68803e-18
8799.00292 7.64914e-18
8799.86438 7.60914e-18
8800.72584 7.56914e-18
8801.59732 7.51703e-18
8802.45878 7.46492e-18
8803.32025 7.39323e-18
8804.18171 7.32154e-18
8805.04317 7.22929e-18
8805.90463 7.13705e-18
8806.76609 7.03754e-18
8807.62756 6.93796e-18
8808.48902 6.84327e-18
8809.35048 6.74863e-18
8810.21194 6.66464e-18
8811.08342 6.58068e-18
8811.94488 6.51128e-18
8812.80635 6.44193e-18
8813.66781 6.38560e-18
8814.52927 6.32931e-18
8815.39073 6.28236e-18
8816.25219 6.23543e-18
8817.11365 6.19325e-18
8817.97512 6.15109e-18
8818.83658 6.10853e-18
8819.70806 6.06599e-18
8820.56952 6.01684e-18
8821.43098 5.96768e-18
8822.29244 5.90651e-18
8823.15391 5.84531e-18
8824.01537 5.77146e-18
8824.87683 5.69757e-18
8825.73829 5.61297e-18
8826.59975 5.52835e-18
8827.46122 5.44080e-18
8828.32268 5.35325e-18
8829.19416 5.27398e-18
8830.05562 5.19473e-18
8830.91708 5.12946e-18
8831.77854 5.06424e-18
8832.64000 5.01337e-18
8833.50147 4.96255e-18
8834.36293 4.92428e-18
8835.22439 4.88604e-18
8836.08585 4.85587e-18
8836.94732 4.82573e-18
8837.80878 4.79842e-18
8838.67024 4.77112e-18
8839.54172 4.74129e-18
8840.40318 4.71146e-18
8841.26464 4.67513e-18
8842.12610 4.63879e-18
8842.98757 4.59545e-18
8843.84903 4.55209e-18
8844.71049 4.50257e-18
8845.57195 4.45302e-18
8846.43341 4.40021e-18
8847.29488 4.34739e-18
8848.15634 4.29500e-18
8849.02782 4.24262e-18
8849.88928 4.19265e-18
8850.75074 4.14269e-18
8851.61220 4.09703e-18
8852.47367 4.05138e-18
8853.33513 4.01973e-18
8854.19659 3.98810e-18
8855.05805 3.98011e-18
8855.91951 3.97218e-18
8856.78097 3.98019e-18
8857.64244 3.98824e-18
8858.50390 3.99871e-18
8859.36536 4.00919e-18
8860.23684 4.01097e-18
8861.09830 4.01273e-18
8861.95976 3.99574e-18
8862.82123 3.97870e-18
8863.68269 3.94673e-18
8864.54415 3.91472e-18
8865.40561 3.88247e-18
8866.26707 3.85022e-18
8867.12854 3.82453e-18
8867.99000 3.79887e-18
8868.86148 3.77802e-18
8869.72294 3.75717e-18
8870.58440 3.74041e-18
8871.44586 3.72365e-18
8872.30732 3.71031e-18
8873.16879 3.69699e-18
8874.03025 3.68782e-18
8874.89171 3.67866e-18
8875.75317 3.67931e-18
8876.61463 3.67999e-18
8877.47610 3.69274e-18
8878.34758 3.70553e-18
8879.20904 3.72333e-18
8880.07050 3.74115e-18
8880.93196 3.75661e-18
8881.79342 3.77207e-18
8882.65489 3.77830e-18
8883.51635 3.78451e-18
8884.37781 3.77651e-18
8885.23927 3.76847e-18
8886.10073 3.75086e-18
8886.96220 3.73323e-18
8887.83367 3.71326e-18
8888.69514 3.69328e-18
8889.55660 3.67764e-18
8890.41806 3.66201e-18
8891.27952 3.65677e-18
8892.14099 3.65157e-18
8893.00245 3.66016e-18
8893.86391 3.66880e-18
8894.72537 3.69259e-18
8895.58683 3.71641e-18
8896.44830 3.74980e-18
8897.30976 3.78321e-18
8898.18124 3.81663e-18
8899.04270 3.85005e-18
8899.90416 3.87534e-18
8900.76562 3.90061e-18
8901.62708 3.91096e-18
8902.48855 3.92127e-18
8903.35001 3.91773e-18
8904.21147 3.91416e-18
8905.07293 3.90805e-18
8905.93439 3.90193e-18
8906.80587 3.90068e-18
8907.66734 3.89944e-18
8908.52880 3.90229e-18
8909.39026 3.90517e-18
8910.25172 3.91216e-18
8911.11318 3.91915e-18
8911.97465 3.93166e-18
8912.83611 3.94417e-18
8913.69757 3.96275e-18
8914.55903 3.98135e-18
8915.42049 4.00733e-18
8916.29197 4.03333e-18
8917.15343 4.06640e-18
8918.01490 4.09949e-18
8918.87636 4.13114e-18
8919.73782 4.16279e-18
8920.59928 4.18450e-18
8921.46074 4.20619e-18
8922.32221 4.21555e-18
8923.18367 4.22489e-18
8924.04513 4.22165e-18
8924.90659 4.21838e-18
8925.76805 4.21256e-18
8926.63953 4.20674e-18
8927.50100 4.21205e-18
8928.36246 4.21737e-18
8929.22392 4.23431e-18
8930.08538 4.25128e-18
8930.94684 4.27367e-18
8931.80831 4.29607e-18
8932.66977 4.31942e-18
8933.53123 4.34277e-18
8934.39269 4.36275e-18
8935.25415 4.38272e-18
8936.12563 4.40137e-18
8936.98709 4.42001e-18
8937.84856 4.44711e-18
8938.71002 4.47423e-18
8939.57148 4.51023e-18
8940.43294 4.54625e-18
8941.29440 4.57788e-18
8942.15587 4.60949e-18
8943.01733 4.62701e-18
8943.87879 4.64448e-18
8944.74025 4.64352e-18
8945.61173 4.64250e-18
8946.47319 4.62464e-18
8947.33466 4.60672e-18
8948.19612 4.59243e-18
8949.05758 4.57815e-18
8949.91904 4.58406e-18
8950.78050 4.59002e-18
8951.64197 4.61097e-18
8952.50343 4.63195e-18
8953.36489 4.65957e-18
8954.22635 4.68721e-18
8955.08781 4.69972e-18
8955.95929 4.71219e-18
8956.82075 4.68818e-18
8957.68222 4.66407e-18
8958.54368 4.63018e-18
8959.40514 4.59626e-18
8960.26660 4.59174e-18
8961.12806 4.58731e-18
8961.98953 4.61777e-18
8962.85099 4.64833e-18
8963.71245 4.70634e-18
8964.57391 4.76443e-18
8965.44539 4.83119e-18
8966.30685 4.89797e-18
8967.16832 4.94502e-18
8968.02978 4.99202e-18
8968.89124 5.02249e-18
8969.75270 5.05291e-18
8970.61416 5.09789e-18
8971.47563 5.14292e-18
8972.33709 5.21319e-18
8973.19855 5.28353e-18
8974.06001 5.36578e-18
8974.93149 5.44804e-18
8975.79295 5.52297e-18
8976.65441 5.59787e-18
8977.51588 5.63596e-18
8978.37734 5.67396e-18
8979.23880 5.65226e-18
8980.10026 5.63039e-18
8980.96172 5.53410e-18
8981.82319 5.43761e-18
8982.68465 5.27623e-18
8983.54611 5.11467e-18
8984.41759 4.97499e-18
8985.27905 4.83538e-18
8986.14051 4.79749e-18
8987.00198 4.75988e-18
8987.86344 4.85123e-18
8988.72490 4.94294e-18
8989.58636 5.16768e-18
8990.44782 5.39277e-18
8991.30928 5.64363e-18
8992.17075 5.89455e-18
8993.03221 6.04241e-18
8993.89367 6.18999e-18
8994.76515 6.21549e-18
8995.62661 6.24067e-18
8996.48807 6.16741e-18
8997.34954 6.09389e-18
8998.21100 5.97963e-18
8999.07246 5.86527e-18
8999.93392 5.78882e-18
9000.79538 5.71246e-18
9001.65685 5.70816e-18
9002.51831 5.70407e-18
9003.38979 5.76981e-18
9004.25125 5.83573e-18
9005.11271 5.94859e-18
9005.97417 6.06157e-18
9006.83563 6.17661e-18
9007.69710 6.29165e-18
9008.55856 6.37384e-18
9009.42002 6.45594e-18
9010.28148 6.48903e-18
9011.14295 6.52198e-18
9012.00441 6.50671e-18
9012.87589 6.49130e-18
9013.73735 6.46626e-18
9014.59881 6.44119e-18
9015.46027 6.43502e-18
9016.32173 6.42891e-18
9017.18320 6.42413e-18
9018.04466 6.41935e-18
9018.90612 6.40293e-18
9019.76758 6.38648e-18
9020.62904 6.37348e-18
9021.49051 6.36047e-18
9022.35197 6.36652e-18
9023.22345 6.37261e-18
9024.08491 6.41736e-18
9024.94637 6.46221e-18
9025.80783 6.56139e-18
9026.66930 6.66071e-18
9027.53076 6.79046e-18
9028.39222 6.92031e-18
9029.25368 7.04460e-18
9030.11514 7.16881e-18
9030.97660 7.26258e-18
9031.83807 7.35621e-18
9032.70955 7.40084e-18
9033.57101 7.44534e-18
9034.43247 7.43918e-18
9035.29393 7.43288e-18
9036.15539 7.38541e-18
9037.01686 7.33780e-18
9037.87832 7.27337e-18
9038.73978 7.20888e-18
9039.60124 7.16494e-18
9040.46270 7.12113e-18
9041.32417 7.10771e-18
9042.18563 7.09435e-18
9043.05711 7.08404e-18
9043.91857 7.07366e-18
9044.78003 7.05200e-18
9045.64149 7.03027e-18
9046.50295 7.00591e-18
9047.36442 6.98155e-18
9048.22588 6.96204e-18
9049.08734 6.94252e-18
9049.94880 6.93989e-18
9050.81027 6.93720e-18
9051.67173 6.95463e-18
9052.54321 6.97214e-18
9053.40467 6.97401e-18
9054.26613 6.97574e-18
9055.12759 6.93076e-18
9055.98905 6.88568e-18
9056.85052 6.81053e-18
9057.71198 6.73530e-18
9058.57344 6.65263e-18
9059.43490 6.56994e-18
9060.29636 6.48255e-18
9061.16784 6.39514e-18
9062.02931 6.30414e-18
9062.89077 6.21314e-18
9063.75223 6.11523e-18
9064.61369 6.01731e-18
9065.47515 5.90519e-18
9066.33662 5.79304e-18
9067.19808 5.69527e-18
9068.05954 5.59755e-18
9068.92100 5.56153e-18
9069.78246 5.52567e-18
9070.64393 5.54092e-18
9071.51540 5.55631e-18
9072.37687 5.56975e-18
9073.23833 5.58319e-18
9074.09979 5.57524e-18
9074.96125 5.56724e-18
9075.82271 5.55273e-18
9076.68418 5.53819e-18
9077.54564 5.52637e-18
9078.40710 5.51457e-18
9079.26856 5.51081e-18
9080.13002 5.50707e-18
9080.99149 5.51116e-18
9081.86297 5.51527e-18
9082.72443 5.50880e-18
9083.58589 5.50231e-18
9084.44735 5.47501e-18
9085.30881 5.44766e-18
9086.17028 5.41980e-18
9087.03174 5.39194e-18
9087.89320 5.37914e-18
9088.75466 5.36637e-18
9089.61612 5.34870e-18
9090.48760 5.33101e-18
9091.34906 5.28935e-18
9092.21053 5.24787e-18
9093.07199 5.20196e-18
9093.93345 5.15604e-18
9094.79491 5.12997e-18
9095.65637 5.10396e-18
9096.51784 5.09091e-18
9097.37930 5.07790e-18
9098.24076 5.06349e-18
9099.10222 5.04906e-18
9099.97370 5.03700e-18
9100.83516 5.02494e-18
9101.69663 5.02294e-18
9102.55809 5.02096e-18
9103.41955 5.04375e-18
9104.28101 5.06662e-18
9105.14247 5.13533e-18
9106.00393 5.20417e-18
9106.86540 5.29375e-18
9107.72686 5.38340e-18
9108.58832 5.42964e-18
9109.45980 5.47577e-18
9110.32126 5.45130e-18
9111.18272 5.42663e-18
9112.04419 5.34739e-18
9112.90565 5.26798e-18
9113.76711 5.16669e-18
9114.62857 5.06536e-18
9115.49003 5.00925e-18
9116.35150 4.95326e-18
9117.21296 4.97735e-18
9118.07442 5.00166e-18
9118.93588 5.05410e-18
9119.80736 5.10661e-18
9120.66882 5.13676e-18
9121.53028 5.16685e-18
9122.39175 5.14229e-18
9123.25321 5.11758e-18
9124.11467 5.01884e-18
9124.97613 4.91990e-18
9125.83760 4.79264e-18
9126.69906 4.66531e-18
9127.56052 4.56512e-18
9128.43200 4.46502e-18
9129.29346 4.42062e-18
9130.15492 4.37639e-18
9131.01638 4.40629e-18
9131.87785 4.43640e-18
9132.73931 4.52813e-18
9133.60077 4.62003e-18
9134.46223 4.74538e-18
9135.32369 4.87081e-18
9136.18516 5.00043e-18
9137.04662 5.13005e-18
9137.90808 5.23364e-18
9138.76954 5.33715e-18
9139.64102 5.39522e-18
9140.50248 5.45315e-18
9141.36395 5.45911e-18
9142.22541 5.46493e-18
9143.08687 5.40891e-18
9143.94833 5.35273e-18
9144.80979 5.22053e-18
9145.67125 5.08814e-18
9146.53272 4.89690e-18
9147.39418 4.70550e-18
9148.26566 4.51299e-18
9149.12712 4.32047e-18
9149.98858 4.17908e-18
9150.85004 4.03784e-18
9151.71151 3.98999e-18
9152.57297 3.94240e-18
9153.43443 4.00462e-18
9154.29589 4.06715e-18
9155.15735 4.18506e-18
9156.01882 4.30313e-18
9156.88028 4.41927e-18
9157.75176 4.53541e-18
9158.61322 4.62293e-18
9159.47468 4.71036e-18
9160.33614 4.74848e-18
9161.19760 4.78646e-18
9162.05907 4.77657e-18
9162.92053 4.76654e-18
9163.78199 4.71992e-18
9164.64345 4.67320e-18
9165.50492 4.58829e-18
9166.36638 4.50327e-18
9167.22784 4.37806e-18
9168.09932 4.25274e-18
9168.96078 4.11830e-18
9169.82224 3.98383e-18
9170.68370 3.88221e-18
9171.54517 3.78069e-18
9172.40663 3.73290e-18
9173.26809 3.68527e-18
9174.12955 3.70047e-18
9174.99101 3.71585e-18
9175.85248 3.76819e-18
9176.71394 3.82063e-18
9177.58542 3.85137e-18
9178.44688 3.88205e-18
9179.30834 3.87409e-18
9180.16980 3.86603e-18
9181.03127 3.85792e-18
9181.89273 3.84983e-18
9182.75419 3.86279e-18
9183.61565 3.87583e-18
9184.47711 3.90230e-18
9185.33857 3.92881e-18
9186.20004 3.95966e-18
9187.07152 3.99052e-18
9187.93298 4.00362e-18
9188.79444 4.01667e-18
9189.65590 3.99974e-18
9190.51736 3.98271e-18
9191.37883 3.96995e-18
9192.24029 3.95718e-18
9193.10175 3.97902e-18
9193.96321 4.00095e-18
9194.82467 4.04387e-18
9195.68614 4.08683e-18
9196.55762 4.13150e-18
9197.41908 4.17616e-18
9198.28054 4.20513e-18
9199.14200 4.23406e-18
9200.00346 4.23055e-18
9200.86492 4.22696e-18
9201.72639 4.20334e-18
9202.58785 4.17966e-18
9203.44931 4.16024e-18
9204.31077 4.14084e-18
9205.17224 4.12633e-18
9206.04371 4.11182e-18
9206.90518 4.09154e-18
9207.76664 4.07124e-18
9208.62810 4.04857e-18
9209.48956 4.02590e-18
9210.35102 4.01228e-18
9211.21249 3.99868e-18
9212.07395 4.00558e-18
9212.93541 4.01253e-18
9213.79687 4.05308e-18
9214.65833 4.09373e-18
9215.52981 4.16531e-18
9216.39127 4.23698e-18
9217.25274 4.31239e-18
9218.11420 4.38782e-18
9218.97566 4.44940e-18
9219.83712 4.51095e-18
9220.69859 4.56433e-18
9221.56005 4.61770e-18
9222.42151 4.66607e-18
9223.28297 4.71442e-18
9224.14443 4.75237e-18
9225.00590 4.79030e-18
9225.87737 4.81408e-18
9226.73884 4.83782e-18
9227.60030 4.84348e-18
9228.46176 4.84908e-18
9229.32322 4.83509e-18
9230.18468 4.82106e-18
9231.04615 4.80337e-18
9231.90761 4.78567e-18
9232.76907 4.78271e-18
9233.63053 4.77978e-18
9234.49199 4.78750e-18
9235.35346 4.79524e-18
9236.22494 4.80326e-18
9237.08640 4.81128e-18
9237.94786 4.82433e-18
9238.80932 4.83739e-18
9239.67078 4.86522e-18
9240.53225 4.89308e-18
9241.39371 4.94034e-18
9242.25517 4.98766e-18
9243.11663 5.05627e-18
9243.97809 5.12494e-18
9244.84957 5.20891e-18
9245.71103 5.29292e-18
9246.57250 5.37864e-18
9247.43396 5.46435e-18
9248.29542 5.54401e-18
9249.15688 5.62364e-18
9250.01834 5.69885e-18
9250.87981 5.77405e-18
9251.74127 5.84102e-18
9252.60273 5.90796e-18
9253.46419 5.95062e-18
9254.32565 5.99322e-18
9255.19713 6.00897e-18
9256.05860 6.02464e-18
9256.92006 6.04467e-18
9257.78152 6.06471e-18
9258.64298 6.11249e-18
9259.50444 6.16035e-18
9260.36591 6.22878e-18
9261.22737 6.29728e-18
9262.08883 6.37376e-18
9262.95029 6.45026e-18
9263.81175 6.50717e-18
9264.68323 6.56402e-18
9265.54469 6.57493e-18
9266.40616 6.58572e-18
9267.26762 6.55138e-18
9268.12908 6.51692e-18
9268.99054 6.44821e-18
9269.85200 6.37941e-18
9270.71347 6.30191e-18
9271.57493 6.22439e-18
9272.43639 6.16859e-18
9273.29785 6.11286e-18
9274.16933 6.10283e-18
9275.03079 6.09293e-18
9275.89226 6.14628e-18
9276.75372 6.19982e-18
9277.61518 6.30758e-18
9278.47664 6.41549e-18
9279.33810 6.54798e-18
9280.19957 6.68054e-18
9281.06103 6.80573e-18
9281.92249 6.93090e-18
9282.79397 7.01788e-18
9283.65543 7.10480e-18
9284.51689 7.12902e-18
9285.37835 7.15303e-18
9286.23982 7.09989e-18
9287.10128 7.04653e-18
9287.96274 6.92246e-18
9288.82420 6.79811e-18
9289.68566 6.64241e-18
9290.54713 6.48663e-18
9291.40859 6.34508e-18
9292.27005 6.20357e-18
9293.14153 6.13640e-18
9294.00299 6.06943e-18
9294.86445 6.11595e-18
9295.72592 6.16279e-18
9296.58738 6.28251e-18
9297.44884 6.40242e-18
9298.31030 6.54156e-18
9299.17176 6.68074e-18
9300.03323 6.76601e-18
9300.89469 6.85112e-18
9301.75615 6.81223e-18
9302.62763 6.77299e-18
9303.48909 6.67745e-18
9304.35055 6.58176e-18
9305.21201 6.53997e-18
9306.07348 6.49834e-18
9306.93494 6.48459e-18
9307.79640 6.47090e-18
9308.65786 6.40507e-18
9309.51932 6.33908e-18
9310.38079 6.22489e-18
9311.24225 6.11057e-18
9312.11373 5.99528e-18
9312.97519 5.88000e-18
9313.83665 5.80997e-18
9314.69811 5.74006e-18
9315.55958 5.76797e-18
9316.42104 5.79616e-18
9317.28250 5.91176e-18
9318.14396 6.02761e-18
9319.00542 6.12957e-18
9319.86688 6.23148e-18
9320.72835 6.28003e-18
9321.58981 6.32843e-18
9322.46129 6.41694e-18
9323.32275 6.50558e-18
9324.18421 6.65450e-18
9325.04567 6.80358e-18
9325.90714 6.82195e-18
9326.76860 6.83994e-18
9327.63006 6.61002e-18
9328.49152 6.37939e-18
9329.35298 6.08602e-18
9330.21445 5.79247e-18
9331.07591 5.61460e-18
9331.94739 5.43708e-18
9332.80885 5.34020e-18
9333.67031 5.24357e-18
9334.53177 5.17600e-18
9335.39323 5.10852e-18
9336.25470 5.07142e-18
9337.11616 5.03441e-18
9337.97762 5.01892e-18
9338.83908 5.00349e-18
9339.70055 5.16719e-18
9340.56201 5.33139e-18
9341.43349 5.88769e-18
9342.29495 6.44511e-18
9343.15641 7.12065e-18
9344.01787 7.79647e-18
9344.87933 8.08829e-18
9345.74080 8.37893e-18
9346.60226 8.13700e-18
9347.46372 7.89348e-18
9348.32518 7.20341e-18
9349.18664 6.51210e-18
9350.04811 5.69125e-18
9350.90957 4.87005e-18
9351.78105 4.50368e-18
9352.64251 4.13862e-18
9353.50397 4.41876e-18
9354.36543 4.70072e-18
9355.22689 5.20397e-18
9356.08836 5.70784e-18
9356.94982 6.07823e-18
9357.81128 6.44823e-18
9358.67274 6.47342e-18
9359.53420 6.49764e-18
9360.39567 6.08584e-18
9361.26715 5.67280e-18
9362.12861 5.15754e-18
9362.99007 4.64201e-18
9363.85153 4.33810e-18
9364.71299 4.03481e-18
9365.57446 3.96040e-18
9366.43592 3.88664e-18
9367.29738 4.01138e-18
9368.15884 4.13667e-18
9369.02030 4.30417e-18
9369.89178 4.47177e-18
9370.75324 4.50290e-18
9371.61471 4.53364e-18
9372.47617 4.43940e-18
9373.33763 4.34480e-18
9374.19909 4.19211e-18
9375.06056 4.03925e-18
9375.92202 3.93045e-18
9376.78348 3.82177e-18
9377.64494 3.88186e-18
9378.50640 3.94243e-18
9379.37788 4.12401e-18
9380.23934 4.30594e-18
9381.10081 4.44806e-18
9381.96227 4.59006e-18
9382.82373 4.64142e-18
9383.68519 4.69253e-18
9384.54665 4.69943e-18
9385.40812 4.70620e-18
9386.26958 4.68144e-18
9387.13104 4.65658e-18
9387.99250 4.57848e-18
9388.85396 4.50022e-18
9389.72544 4.36755e-18
9390.58691 4.23473e-18
9391.44837 4.06752e-18
9392.30983 3.90021e-18
9393.17129 3.72588e-18
9394.03275 3.55154e-18
9394.89422 3.41877e-18
9395.75568 3.28614e-18
9396.61714 3.22790e-18
9397.47860 3.16987e-18
9398.34006 3.16173e-18
9399.21154 3.15373e-18
9400.07300 3.16498e-18
9400.93447 3.17629e-18
9401.79593 3.17743e-18
9402.65739 3.17853e-18
9403.51885 3.14374e-18
9404.38031 3.10884e-18
9405.24178 3.06713e-18
9406.10324 3.02540e-18
9406.96470 3.01752e-18
9407.82616 3.00974e-18
9408.69764 3.03614e-18
9409.55910 3.06264e-18
9410.42057 3.10915e-18
9411.28203 3.15572e-18
9412.14349 3.20033e-18
9413.00495 3.24494e-18
9413.86641 3.26156e-18
9414.72788 3.27808e-18
9415.58934 3.24930e-18
9416.45080 3.22038e-18
9417.31226 3.14083e-18
9418.17372 3.06112e-18
9419.04520 2.93636e-18
9419.90666 2.81146e-18
9420.76813 2.64983e-18
9421.62959 2.48808e-18
9422.49105 2.34742e-18
9423.35251 2.20681e-18
9424.21397 2.22519e-18
9425.07544 2.24402e-18
9425.93690 2.46576e-18
9426.79836 2.68809e-18
9427.65982 2.96845e-18
9428.53130 3.24896e-18
9429.39276 3.44838e-18
9430.25423 3.64757e-18
9431.11569 3.63686e-18
9431.97715 3.62555e-18
9432.83861 3.33928e-18
9433.70007 3.05222e-18
9434.56153 2.71737e-18
9435.42300 2.38240e-18
9436.28446 2.23640e-18
9437.14592 2.09097e-18
9438.01740 2.17124e-18
9438.87886 2.25218e-18
9439.74032 2.54334e-18
9440.60179 2.83510e-18
9441.46325 3.18928e-18
9442.32471 3.54363e-18
9443.18617 3.77049e-18
9444.04763 3.99698e-18
9444.90910 4.04209e-18
9445.77056 4.08666e-18
9446.63202 3.96189e-18
9447.49348 3.83663e-18
9448.36496 3.60934e-18
9449.22642 3.38176e-18
9450.08788 3.16032e-18
9450.94935 2.93890e-18
9451.81081 2.79391e-18
9452.67227 2.64915e-18
9453.53373 2.60813e-18
9454.39520 2.56742e-18
9455.25666 2.63725e-18
9456.11812 2.70741e-18
9456.98960 2.87114e-18
9457.85106 3.03514e-18
9458.71252 3.24376e-18
9459.57398 3.45250e-18
9460.43545 3.60708e-18
9461.29691 3.76148e-18
9462.15837 3.80240e-18
9463.01983 3.84300e-18
9463.88129 3.81683e-18
9464.74276 3.79048e-18
9465.60422 3.74592e-18
9466.47570 3.70131e-18
9467.33716 3.66827e-18
9468.19862 3.63526e-18
9469.06008 3.63776e-18
9469.92155 3.64036e-18
9470.78301 3.64156e-18
9471.64447 3.64275e-18
9472.50593 3.60339e-18
9473.36739 3.56393e-18
9474.22885 3.50860e-18
9475.09032 3.45322e-18
9475.96180 3.41533e-18
9476.82326 3.37749e-18
9477.68472 3.42634e-18
9478.54618 3.47544e-18
9479.40764 3.68915e-18
9480.26911 3.90333e-18
9481.13057 4.19705e-18
9481.99203 4.49100e-18
9482.85349 4.70063e-18
9483.71495 4.90999e-18
9484.57642 4.94902e-18
9485.43788 4.98753e-18
9486.30936 4.82566e-18
9487.17082 4.66321e-18
9488.03228 4.36636e-18
9488.89374 4.06912e-18
9489.75520 3.81089e-18
9490.61667 3.55278e-18
9491.47813 3.44417e-18
9492.33959 3.33600e-18
9493.20105 3.37498e-18
9494.06252 3.41439e-18
9494.92398 3.60040e-18
9495.79546 3.78683e-18
9496.65692 4.14357e-18
9497.51838 4.50080e-18
9498.37984 4.99066e-18
9499.24130 5.48090e-18
9500.10277 5.91220e-18
9500.96423 6.34331e-18
9501.82569 6.55024e-18
9502.68715 6.75652e-18
9503.54861 6.71287e-18
9504.41008 6.66850e-18
9505.28155 6.39120e-18
9506.14302 6.11323e-18
9507.00448 5.74632e-18
9507.86594 5.37916e-18
9508.72740 5.09395e-18
9509.58887 4.80899e-18
9510.45033 4.62229e-18
9511.31179 4.43588e-18
9512.17325 4.31381e-18
9513.03471 4.19194e-18
9513.89617 4.16785e-18
9514.75764 4.14404e-18
9515.62912 4.26563e-18
9516.49058 4.38765e-18
9517.35204 4.64101e-18
9518.21350 4.89475e-18
9519.07496 5.23309e-18
9519.93643 5.57169e-18
9520.79789 5.91265e-18
9521.65935 6.25363e-18
9522.52081 6.48378e-18
9523.38227 6.71360e-18
9524.24374 6.79472e-18
9525.11522 6.87540e-18
9525.97668 6.86710e-18
9526.83814 6.85854e-18
9527.69960 6.81578e-18
9528.56106 6.77292e-18
9529.42252 6.73913e-18
9530.28399 6.70537e-18
9531.14545 6.70490e-18
9532.00691 6.70454e-18
9532.86837 6.69882e-18
9533.72984 6.69309e-18
9534.60131 6.64956e-18
9535.46278 6.60592e-18
9536.32424 6.51471e-18
9537.18570 6.42336e-18
9538.04716 6.28972e-18
9538.90862 6.15594e-18
9539.77009 6.10182e-18
9540.63155 6.04793e-18
9541.49301 6.18846e-18
9542.35447 6.32956e-18
9543.21593 6.58226e-18
9544.08741 6.83528e-18
9544.94888 7.07740e-18
9545.81034 7.31946e-18
9546.67180 7.43122e-18
9547.53326 7.54257e-18
9548.39472 7.40112e-18
9549.25619 7.25898e-18
9550.11765 7.00681e-18
9550.97911 6.75433e-18
9551.84057 6.67826e-18
9552.70203 6.60271e-18
9553.57351 6.72222e-18
9554.43497 6.84229e-18
9555.29644 6.98785e-18
9556.15790 7.13345e-18
9557.01936 7.19082e-18
9557.88082 7.24791e-18
9558.74228 7.14099e-18
9559.60375 7.03366e-18
9560.46521 6.80967e-18
9561.32667 6.58537e-18
9562.18813 6.50325e-18
9563.05961 6.42156e-18
9563.92107 6.61489e-18
9564.78254 6.80904e-18
9565.64400 7.14030e-18
9566.50546 7.47198e-18
9567.36692 7.79321e-18
9568.22838 8.11437e-18
9569.08985 8.24897e-18
9569.95131 8.38308e-18
9570.81277 8.20953e-18
9571.67423 8.03507e-18
9572.53569 7.70630e-18
9573.40717 7.37711e-18
9574.26863 7.07484e-18
9575.13010 6.77270e-18
9575.99156 6.61844e-18
9576.85302 6.46463e-18
9577.71448 6.55431e-18
9578.57594 6.64472e-18
9579.43741 6.82755e-18
9580.29887 7.01062e-18
9581.16033 7.06632e-18
9582.02179 7.12169e-18
9582.89327 7.02114e-18
9583.75473 6.92017e-18
9584.61620 6.70659e-18
9585.47766 6.49265e-18
9586.33912 6.32005e-18
9587.20058 6.14756e-18
9588.06204 6.25047e-18
9588.92351 6.35418e-18
9589.78497 6.70324e-18
9590.64643 7.05304e-18
9591.51791 7.37918e-18
9592.37937 7.70533e-18
9593.24083 7.86352e-18
9594.10229 8.02130e-18
9594.96376 8.02545e-18
9595.82522 8.02919e-18
9596.68668 7.90850e-18
9597.54814 7.78747e-18
9598.40960 7.60997e-18
9599.27107 7.43240e-18
9600.13253 7.27324e-18
9600.99399 7.11407e-18
9601.86547 7.03262e-18
9602.72693 6.95138e-18
9603.58839 6.98640e-18
9604.44986 7.02183e-18
9605.31132 7.16687e-18
9606.17278 7.31227e-18
9607.03424 7.53468e-18
9607.89570 7.75723e-18
9608.75717 7.91556e-18
9609.61863 8.07368e-18
9610.48009 8.03161e-18
9611.35157 7.98891e-18
9612.21303 7.80422e-18
9613.07449 7.61917e-18
9613.93595 7.40091e-18
9614.79742 7.18251e-18
9615.65888 7.00647e-18
9616.52034 6.83051e-18
9617.38180 6.75985e-18
9618.24326 6.68953e-18
9619.10473 6.74052e-18
9619.96619 6.79187e-18
9620.82765 6.94695e-18
9621.69913 7.10238e-18
9622.56059 7.30562e-18
9623.42205 7.50900e-18
9624.28352 7.68256e-18
9625.14498 7.85605e-18
9626.00644 7.92573e-18
9626.86790 7.99507e-18
9627.72936 7.89134e-18
9628.59083 7.78712e-18
9629.45229 7.53039e-18
9630.31375 7.27324e-18
9631.17521 7.01546e-18
9632.04669 6.75765e-18
9632.90815 6.61674e-18
9633.76961 6.47618e-18
9634.63108 6.49805e-18
9635.49254 6.52040e-18
9636.35400 6.70020e-18
9637.21546 6.88046e-18
9638.07692 7.04764e-18
9638.93839 7.21476e-18
9639.79985 7.22832e-18
9640.67133 7.24140e-18
9641.53279 7.18936e-18
9642.39425 7.13712e-18
9643.25571 7.12231e-18
9644.11718 7.10764e-18
9644.97864 7.15490e-18
9645.84010 7.20244e-18
9646.70156 7.32188e-18
9647.56302 7.44153e-18
9648.42448 7.55336e-18
9649.28595 7.66512e-18
9650.15743 7.66540e-18
9651.01889 7.66526e-18
9651.88035 7.55357e-18
9652.74181 7.44153e-18
9653.60327 7.26452e-18
9654.46474 7.08722e-18
9655.32620 6.90886e-18
9656.18766 6.73048e-18
9657.04912 6.62468e-18
9657.91058 6.51910e-18
9658.77205 6.52713e-18
9659.64352 6.53552e-18
9660.50499 6.66751e-18
9661.36645 6.79987e-18
9662.22791 7.01401e-18
9663.08937 7.22839e-18
9663.95083 7.41558e-18
9664.81230 7.60270e-18
9665.67376 7.69979e-18
9666.53522 7.79667e-18
9667.39668 7.83709e-18
9668.25815 7.87736e-18
9669.11961 7.88027e-18
9669.99109 7.88304e-18
9670.85255 7.81612e-18
9671.71401 7.74892e-18
9672.57547 7.60332e-18
9673.43693 7.45745e-18
9674.29840 7.29268e-18
9675.15986 7.12778e-18
9676.02132 7.00321e-18
9676.88278 6.87880e-18
9677.74424 6.83592e-18
9678.61572 6.79329e-18
9679.47718 6.85955e-18
9680.33865 6.92612e-18
9681.20011 7.04695e-18
9682.06157 7.16784e-18
9682.92303 7.26715e-18
9683.78449 7.36638e-18
9684.64596 7.42167e-18
9685.50742 7.47676e-18
9686.36888 7.48492e-18
9687.23034 7.49295e-18
9688.10182 7.46188e-18
9688.96328 7.43074e-18
9689.82475 7.37967e-18
9690.68621 7.32853e-18
9691.54767 7.26092e-18
9692.40913 7.19324e-18
9693.27059 7.09892e-18
9694.13206 7.00446e-18
9694.99352 6.89732e-18
9695.85498 6.79013e-18
9696.71644 6.70824e-18
9697.57790 6.62642e-18
9698.44938 6.58869e-18
9699.31084 6.55110e-18
9700.17231 6.55036e-18
9701.03377 6.54974e-18
9701.89523 6.57042e-18
9702.75669 6.59116e-18
9703.61816 6.59864e-18
9704.47962 6.60608e-18
9705.34108 6.57801e-18
9706.20254 6.54983e-18
9707.06400 6.50776e-18
9707.93548 6.46565e-18
9708.79694 6.43195e-18
9709.65841 6.39827e-18
9710.51987 6.38512e-18
9711.38133 6.37202e-18
9712.24279 6.38737e-18
9713.10425 6.40280e-18
9713.96572 6.42543e-18
9714.82718 6.44808e-18
9715.68864 6.45244e-18
9716.55010 6.45675e-18
9717.41156 6.43552e-18
9718.28304 6.41423e-18
9719.14451 6.36449e-18
9720.00597 6.31466e-18
9720.86743 6.26300e-18
9721.72889 6.21135e-18
9722.59035 6.19870e-18
9723.45182 6.18618e-18
9724.31328 6.19458e-18
9725.17474 6.20305e-18
9726.03620 6.17910e-18
9726.89766 6.15504e-18
9727.76914 6.07983e-18
9728.63060 6.00446e-18
9729.49207 5.88791e-18
9730.35353 5.77124e-18
9731.21499 5.63822e-18
9732.07645 5.50516e-18
9732.93791 5.40140e-18
9733.79938 5.29773e-18
9734.66084 5.25173e-18
9735.52230 5.20590e-18
9736.38376 5.21210e-18
9737.25524 5.21846e-18
9738.11670 5.26406e-18
9738.97817 5.30977e-18
9739.83963 5.36952e-18
9740.70109 5.42932e-18
9741.56255 5.47827e-18
9742.42401 5.52720e-18
9743.28548 5.55213e-18
9744.14694 5.57699e-18
9745.00840 5.57007e-18
9745.86986 5.56305e-18
9746.74134 5.53490e-18
9747.60280 5.50669e-18
9748.46426 5.47191e-18
9749.32573 5.43711e-18
9750.18719 5.39917e-18
9751.04865 5.36121e-18
9751.91011 5.32193e-18
9752.77157 5.28265e-18
9753.63304 5.24074e-18
9754.49450 5.19882e-18
9755.35596 5.15157e-18
9756.22744 5.10430e-18
9757.08890 5.06154e-18
9757.95036 5.01879e-18
9758.81183 4.99505e-18
9759.67329 4.97136e-18
9760.53475 4.97787e-18
9761.39621 4.98447e-18
9762.25767 5.03088e-18
9763.11913 5.07741e-18
9763.98060 5.14910e-18
9764.84206 5.22086e-18
9765.71354 5.27670e-18
9766.57500 5.33248e-18
9767.43646 5.35227e-18
9768.29792 5.37195e-18
9769.15939 5.36893e-18
9770.02085 5.36584e-18
9770.88231 5.35128e-18
9771.74377 5.33669e-18
9772.60523 5.31622e-18
9773.46670 5.29573e-18
9774.32816 5.27650e-18
9775.19964 5.25726e-18
9776.06110 5.24492e-18
9776.92256 5.23259e-18
9777.78402 5.23089e-18
9778.64548 5.22923e-18
9779.50695 5.24300e-18
9780.36841 5.25682e-18
9781.22987 5.28739e-18
9782.09133 5.31801e-18
9782.95280 5.33891e-18
9783.81426 5.35979e-18
9784.68574 5.34226e-18
9785.54720 5.32462e-18
9786.40866 5.28261e-18
9787.27012 5.24052e-18
9788.13158 5.20023e-18
9788.99305 5.15994e-18
9789.85451 5.13059e-18
9790.71597 5.10127e-18
9791.57743 5.08671e-18
9792.43889 5.07219e-18
9793.30036 5.06258e-18
9794.16182 5.05299e-18
9795.03330 5.02768e-18
9795.89476 5.00233e-18
9796.75622 4.96735e-18
9797.61768 4.93235e-18
9798.47915 4.91788e-18
9799.34061 4.90347e-18
9800.20207 4.91959e-18
9801.06353 4.93581e-18
9801.92499 4.96823e-18
9802.78645 5.00069e-18
9803.64792 5.03495e-18
9804.51940 5.06921e-18
9805.38086 5.08838e-18
9806.24232 5.10750e-18
9807.10378 5.10336e-18
9807.96524 5.09914e-18
9808.82671 5.08794e-18
9809.68817 5.07672e-18
9810.54963 5.07394e-18
9811.41109 5.07118e-18
9812.27255 5.08659e-18
9813.13402 5.10205e-18
9813.99548 5.14020e-18
9814.86696 5.17842e-18
9815.72842 5.21215e-18
9816.58988 5.24587e-18
9817.45134 5.24637e-18
9818.31280 5.24676e-18
9819.17427 5.21784e-18
9820.03573 5.18884e-18
9820.89719 5.14265e-18
9821.75865 5.09640e-18
9822.62012 5.05073e-18
9823.48158 5.00508e-18
9824.35306 4.98068e-18
9825.21452 4.95636e-18
9826.07598 4.95021e-18
9826.93744 4.94413e-18
9827.79890 4.93945e-18
9828.66037 4.93477e-18
9829.52183 4.92739e-18
9830.38329 4.92001e-18
9831.24475 4.91491e-18
9832.10621 4.90983e-18
9832.97769 4.90587e-18
9833.83915 4.90191e-18
9834.70062 4.89256e-18
9835.56208 4.88320e-18
9836.42354 4.86546e-18
9837.28500 4.84768e-18
9838.14647 4.82330e-18
9839.00793 4.79890e-18
9839.86939 4.76987e-18
9840.73085 4.74083e-18
9841.59231 4.70818e-18
9842.45377 4.67552e-18
9843.32525 4.64297e-18
9844.18672 4.61042e-18
9845.04818 4.58952e-18
9845.90964 4.56864e-18
9846.77110 4.56845e-18
9847.63256 4.56832e-18
9848.49403 4.58604e-18
9849.35549 4.60381e-18
9850.21695 4.63428e-18
9851.07841 4.66479e-18
9851.93987 4.70308e-18
9852.81135 4.74138e-18
9853.67282 4.78166e-18
9854.53428 4.82193e-18
9855.39574 4.86052e-18
9856.25720 4.89909e-18
9857.11866 4.93327e-18
9857.98013 4.96744e-18
9858.84159 4.98990e-18
9859.70305 5.01232e-18
9860.56451 5.01469e-18
9861.42597 5.01700e-18
9862.29745 4.99814e-18
9863.15891 4.97922e-18
9864.02038 4.94273e-18
9864.88184 4.90619e-18
9865.74330 4.85872e-18
9866.60476 4.81122e-18
9867.46622 4.76230e-18
9868.32769 4.71338e-18
9869.18915 4.66847e-18
9870.05061 4.62357e-18
9870.92209 4.58204e-18
9871.78355 4.54051e-18
9872.64501 4.50307e-18
9873.50648 4.46564e-18
9874.36794 4.43550e-18
9875.22940 4.40537e-18
9876.09086 4.38506e-18
9876.95232 4.36479e-18
9877.81379 4.35665e-18
9878.67525 4.34855e-18
9879.53671 4.35365e-18
9880.39817 4.35879e-18
9881.26965 4.37551e-18
9882.13111 4.39227e-18
9882.99257 4.41760e-18
9883.85404 4.44296e-18
9884.71550 4.47142e-18
9885.57696 4.49990e-18
9886.43842 4.52557e-18
9887.29988 4.55124e-18
9888.16135 4.56856e-18
9889.02281 4.58586e-18
9889.88427 4.59019e-18
9890.74573 4.59446e-18
9891.61721 4.58567e-18
9892.47867 4.57684e-18
9893.34014 4.55728e-18
9894.20160 4.53768e-18
9895.06306 4.50987e-18
9895.92452 4.48202e-18
9896.78598 4.44860e-18
9897.64745 4.41517e-18
9898.50891 4.38049e-18
9899.37037 4.34581e-18
9900.23183 4.31562e-18
9901.09329 4.28544e-18
9901.96477 4.26068e-18
9902.82623 4.23593e-18
9903.68770 4.21173e-18
9904.54916 4.18753e-18
9905.41062 4.16500e-18
9906.27208 4.14247e-18
9907.13354 4.13224e-18
9907.99501 4.12204e-18
9908.85647 4.12916e-18
9909.71793 4.13633e-18
9910.57939 4.15595e-18
9911.45087 4.17561e-18
9912.31233 4.19985e-18
9913.17380 4.22411e-18
9914.03526 4.23629e-18
9914.89672 4.24845e-18
9915.75818 4.23533e-18
9916.61964 4.22215e-18
9917.48111 4.18837e-18
9918.34257 4.15453e-18
9919.20403 4.10818e-18
9920.07551 4.06180e-18
9920.93697 4.01207e-18
9921.79843 3.96233e-18
9922.65989 3.91858e-18
9923.52136 3.87485e-18
9924.38282 3.84118e-18
9925.24428 3.80754e-18
9926.10574 3.78555e-18
9926.96720 3.76359e-18
9927.82867 3.74720e-18
9928.69013 3.73082e-18
9929.56161 3.71034e-18
9930.42307 3.68985e-18
9931.28453 3.66214e-18
9932.14599 3.63440e-18
9933.00746 3.60083e-18
9933.86892 3.56724e-18
9934.73038 3.53066e-18
9935.59184 3.49408e-18
9936.45330 3.45861e-18
9937.31477 3.42313e-18
9938.17623 3.39421e-18
9939.03769 3.36530e-18
9939.90917 3.34975e-18
9940.77063 3.33424e-18
9941.63209 3.33395e-18
9942.49355 3.33370e-18
9943.35502 3.34158e-18
9944.21648 3.34948e-18
9945.07794 3.35944e-18
9945.93940 3.36940e-18
9946.80086 3.37988e-18
9947.66233 3.39037e-18
9948.52379 3.39961e-18
9949.39527 3.40885e-18
9950.25673 3.41346e-18
9951.11819 3.41805e-18
9951.97965 3.41585e-18
9952.84112 3.41362e-18
9953.70258 3.40899e-18
9954.56404 3.40434e-18
9955.42550 3.40210e-18
9956.28696 3.39985e-18
9957.14843 3.39677e-18
9958.00989 3.39369e-18
9958.88137 3.38533e-18
9959.74283 3.37694e-18
9960.60429 3.36103e-18
9961.46575 3.34509e-18
9962.32721 3.32016e-18
9963.18868 3.29520e-18
9964.05014 3.26871e-18
9964.91160 3.24222e-18
9965.77306 3.22664e-18
9966.63452 3.21110e-18
9967.49599 3.20936e-18
9968.36747 3.20765e-18
9969.22893 3.21494e-18
9970.09039 3.22225e-18
9970.95185 3.23781e-18
9971.81331 3.25340e-18
9972.67477 3.28082e-18
9973.53624 3.30827e-18
9974.39770 3.34606e-18
9975.25916 3.38387e-18
9976.12062 3.42393e-18
9976.98208 3.46399e-18
9977.85356 3.49989e-18
9978.71503 3.53578e-18
9979.57649 3.56444e-18
9980.43795 3.59308e-18
9981.29941 3.61343e-18
9982.16087 3.63375e-18
9983.02234 3.65011e-18
9983.88380 3.66645e-18
9984.74526 3.68318e-18
9985.60672 3.69991e-18
9986.46818 3.71918e-18
9987.32965 3.73845e-18
9988.20112 3.76139e-18
9989.06259 3.78434e-18
9989.92405 3.80287e-18
9990.78551 3.82138e-18
9991.64697 3.82633e-18
9992.50843 3.83123e-18
9993.36990 3.82948e-18
9994.23136 3.82771e-18
9995.09282 3.83101e-18
9995.95428 3.83433e-18
9996.81574 3.84068e-18
9997.67721 3.84705e-18
9998.54869 3.84897e-18
9999.41015 3.85086e-18
