# wavelength flux
3707.85345 4.42781e-19
3709.32566 1.06430e-18
3710.78785 3.37298e-18
3712.26005 2.74445e-18
3713.73226 2.94256e-18
3715.20446 3.14072e-18
3716.67667 3.26909e-18
3718.13886 3.39745e-18
3719.61106 3.52577e-18
3721.08327 3.65410e-18
3722.55547 3.78242e-18
3724.01766 3.91070e-18
3725.48987 4.03899e-18
3726.96207 4.16729e-18
3728.43428 4.29555e-18
3729.89647 4.42379e-18
3731.36867 4.55202e-18
3732.84088 4.68025e-18
3734.31308 4.80847e-18
3735.78529 4.93665e-18
3737.24748 5.06483e-18
3738.71968 5.19303e-18
3740.19189 5.32119e-18
3741.66409 5.44932e-18
3743.12628 5.57746e-18
3744.59848 5.70558e-18
3746.07069 5.83370e-18
3747.54290 5.96178e-18
3749.01510 6.08987e-18
3750.47729 6.21794e-18
3751.94950 6.34603e-18
3753.42170 6.47406e-18
3754.89391 6.20736e-18
3756.35610 5.77251e-18
3757.82830 4.55476e-18
3759.30051 2.72314e-18
3760.77271 4.59782e-18
3762.23490 6.84484e-18
3763.70711 4.61156e-18
3765.17931 3.88329e-18
3766.65152 1.00265e-17
3768.12372 9.66787e-18
3769.58591 8.49316e-18
3771.05812 8.47515e-18
3772.53032 6.26755e-18
3774.00253 9.65171e-18
3775.46472 9.08832e-18
3776.93692 1.77237e-18
3778.40913 -1.90275e-18
3779.88133 3.04533e-19
3781.35354 4.25102e-18
3782.81573 5.20820e-18
3784.28793 7.17157e-18
3785.76014 7.17177e-18
3787.23234 6.21152e-18
3788.69453 1.00134e-17
3790.16673 1.19298e-17
3791.63894 8.50213e-18
3793.11114 5.84294e-18
3794.58335 5.55735e-18
3796.04554 8.46151e-18
3797.51775 7.27156e-18
3798.98995 6.98964e-18
3800.46216 7.61157e-18
3801.92435 6.21900e-18
3803.39655 6.91468e-18
3804.86876 5.48956e-18
3806.34096 3.67514e-18
3807.80315 3.25742e-18
3809.27536 4.23020e-18
3810.74756 8.54144e-18
3812.21977 8.32607e-18
3813.69197 8.12586e-18
3815.15416 9.66274e-18
3816.62637 7.32584e-18
3818.09857 9.91591e-18
3819.57078 1.13164e-17
3821.03297 6.63399e-18
3822.50517 5.82822e-18
3823.97738 7.06820e-18
3825.44958 9.28394e-18
3826.92179 8.62922e-18
3828.38398 7.58732e-18
3829.85618 8.27451e-18
3831.32839 6.75042e-18
3832.80059 5.23259e-18
3834.26278 4.51237e-18
3835.73499 7.39019e-18
3837.20719 7.69316e-18
3838.67940 6.98749e-18
3840.15160 7.26323e-18
3841.61379 5.45725e-18
3843.08600 7.61667e-18
3844.55820 9.36854e-18
3846.03040 8.49791e-18
3847.49260 7.94088e-18
3848.96480 6.87908e-18
3850.43701 6.43554e-18
3851.90921 5.75535e-18
3853.37140 5.78527e-18
3854.84361 9.46582e-18
3856.31581 1.26178e-17
3857.78802 9.19401e-18
3859.26022 7.38623e-18
3860.72241 6.83021e-18
3862.19461 7.33281e-18
3863.66682 1.13626e-17
3865.13902 9.34129e-18
3866.60122 6.46949e-18
3868.07342 7.62279e-18
3869.54563 8.24277e-18
3871.01783 4.73820e-18
3872.49004 8.06808e-18
3873.95223 1.02179e-17
3875.42443 8.87811e-18
3876.89664 1.17608e-17
3878.36884 1.19465e-17
3879.83103 8.43742e-18
3881.30323 8.57956e-18
3882.77544 1.19969e-17
3884.24764 1.21894e-17
3885.71985 8.80006e-18
3887.18204 7.50855e-18
3888.65425 7.26557e-18
3890.12645 9.68413e-18
3891.59866 1.17430e-17
3893.06085 9.22005e-18
3894.53305 7.07571e-18
3896.00526 8.68310e-18
3897.47746 1.09426e-17
3898.93965 1.24937e-17
3900.41186 1.12859e-17
3901.88406 1.26924e-17
3903.35627 1.45649e-17
3904.82847 1.45679e-17
3906.29066 1.68984e-17
3907.76287 1.45569e-17
3909.23507 9.73803e-18
3910.70728 9.89993e-18
3912.16946 9.95205e-18
3913.64167 1.23290e-17
3915.11388 1.38892e-17
3916.58608 1.32112e-17
3918.05829 1.11653e-17
3919.52048 1.02139e-17
3920.99268 1.25109e-17
3922.46489 1.16516e-17
3923.93709 1.23384e-17
3925.39928 1.28707e-17
3926.87149 1.05793e-17
3928.34369 8.12597e-18
3929.81590 1.04775e-17
3931.28810 9.22619e-18
3932.75029 9.57227e-18
3934.22249 9.88698e-18
3935.69470 7.81551e-18
3937.16691 7.03051e-18
3938.62910 8.07573e-18
3940.10130 1.04635e-17
3941.57351 7.64555e-18
3943.04571 8.11693e-18
3944.50790 9.36805e-18
3945.98011 1.12239e-17
3947.45231 1.01914e-17
3948.92452 1.04811e-17
3950.39672 1.01770e-17
3951.85891 6.97376e-18
3953.33111 7.19708e-18
3954.80332 1.07150e-17
3956.27553 1.08159e-17
3957.73772 1.20379e-17
3959.20992 1.18678e-17
3960.68213 1.03607e-17
3962.15433 6.19096e-18
3963.62654 3.36468e-18
3965.08873 5.29942e-18
3966.56093 8.72644e-18
3968.03314 7.00188e-18
3969.50534 5.41943e-18
3970.96753 7.76374e-18
3972.43973 9.03238e-18
3973.91194 8.47025e-18
3975.38414 8.57154e-18
3976.85635 9.35796e-18
3978.31854 8.33327e-18
3979.79075 1.12123e-17
3981.26295 1.16584e-17
3982.73516 1.14603e-17
3984.19735 1.22062e-17
3985.66955 1.16611e-17
3987.14176 1.11085e-17
3988.61396 1.13876e-17
3990.07615 1.14046e-17
3991.54836 1.14990e-17
3993.02056 1.23370e-17
3994.49277 1.09430e-17
3995.96497 1.38689e-17
3997.42716 1.50885e-17
3998.89937 1.22589e-17
4000.37157 9.73944e-18
4001.84378 1.07480e-17
4003.30597 9.59791e-18
4004.77817 1.09594e-17
4006.25038 1.08835e-17
4007.72258 9.73915e-18
4009.19479 1.23330e-17
4010.65698 1.62692e-17
4012.12918 1.41132e-17
4013.60139 1.34660e-17
4015.07359 1.52903e-17
4016.53578 1.59557e-17
4018.00799 1.65967e-17
4019.48019 1.57532e-17
4020.95240 1.28240e-17
4022.42460 1.37869e-17
4023.88679 1.13596e-17
4025.35900 1.24584e-17
4026.83120 1.27129e-17
4028.30341 1.44018e-17
4029.76560 1.42055e-17
4031.23780 1.21731e-17
4032.71001 1.19912e-17
4034.18221 1.49267e-17
4035.64440 1.20513e-17
4037.11661 1.05139e-17
4038.58881 1.44687e-17
4040.06102 1.08153e-17
4041.53322 1.35932e-17
4042.99541 1.09626e-17
4044.46762 1.20621e-17
4045.93982 1.60415e-17
4047.41203 1.45816e-17
4048.87422 1.08817e-17
4050.34642 1.00577e-17
4051.81863 1.26491e-17
4053.29083 1.12095e-17
4054.76304 1.54962e-17
4056.22523 1.65807e-17
4057.69743 1.12093e-17
4059.16964 1.07490e-17
4060.64184 1.36475e-17
4062.10403 1.24491e-17
4063.57623 1.35788e-17
4065.04844 1.31491e-17
4066.52065 1.20320e-17
4067.98284 1.59824e-17
4069.45504 1.26730e-17
4070.92725 1.21609e-17
4072.39945 1.23807e-17
4073.87166 1.06737e-17
4075.33385 1.20130e-17
4076.80605 1.25856e-17
4078.27826 1.43149e-17
4079.75046 1.19726e-17
4081.21265 1.01679e-17
4082.68486 1.37276e-17
4084.15706 1.49910e-17
4085.62927 1.16483e-17
4087.10147 1.24233e-17
4088.56366 1.10312e-17
4090.03587 1.16616e-17
4091.50807 1.25335e-17
4092.98028 1.07741e-17
4094.44247 1.13982e-17
4095.91467 1.21867e-17
4097.38688 1.00318e-17
4098.85908 1.02157e-17
4100.33129 1.09188e-17
4101.79348 1.11993e-17
4103.26568 1.05825e-17
4104.73789 7.84614e-18
4106.21009 1.23357e-17
4107.67228 1.22630e-17
4109.14448 7.93619e-18
4110.61669 7.32153e-18
4112.08890 6.72968e-18
4113.56110 7.46794e-18
4115.02329 1.31413e-17
4116.49550 1.10902e-17
4117.96770 8.49364e-18
4119.43991 1.16017e-17
4120.90209 1.04262e-17
4122.37430 9.03638e-18
4123.84651 9.92750e-18
4125.31871 1.03552e-17
4126.78090 1.02828e-17
4128.25310 1.22190e-17
4129.72531 1.07356e-17
4131.19752 8.85658e-18
4132.66972 1.05642e-17
4134.13191 1.27559e-17
4135.60412 8.80739e-18
4137.07632 1.14208e-17
4138.54853 1.39622e-17
4140.01072 8.88431e-18
4141.48292 1.22935e-17
4142.95513 9.26493e-18
4144.42733 1.15534e-17
4145.89953 1.12307e-17
4147.36172 1.25754e-17
4148.83393 1.11894e-17
4150.30614 1.08537e-17
4151.77834 1.03990e-17
4153.24053 1.16835e-17
4154.71274 1.22655e-17
4156.18494 1.02316e-17
4157.65715 7.23646e-18
4159.12935 1.04300e-17
4160.59154 1.13203e-17
4162.06375 1.16901e-17
4163.53595 1.06852e-17
4165.00816 1.16733e-17
4166.47034 1.08468e-17
4167.94255 9.87256e-18
4169.41476 1.14272e-17
4170.88696 1.10327e-17
4172.34915 9.49502e-18
4173.82136 1.35586e-17
4175.29356 1.26364e-17
4176.76577 9.40720e-18
4178.23797 9.94101e-18
4179.70016 1.07729e-17
4181.17237 1.00610e-17
4182.64457 9.42039e-18
4184.11678 9.03424e-18
4185.57897 8.87791e-18
4187.05117 8.93524e-18
4188.52338 7.73485e-18
4189.99558 1.12071e-17
4191.46778 1.27998e-17
4192.92998 1.03653e-17
4194.40218 1.03590e-17
4195.87439 1.08356e-17
4197.34659 1.00722e-17
4198.80878 1.05552e-17
4200.28099 8.53822e-18
4201.75319 9.21962e-18
4203.22540 1.14865e-17
4204.68759 9.99471e-18
4206.15979 1.01547e-17
4207.63199 9.85283e-18
4209.10420 9.04365e-18
4210.57641 1.14226e-17
4212.03859 1.22860e-17
4213.51080 1.03875e-17
4214.98301 9.09120e-18
4216.45521 7.35066e-18
4217.91740 8.72930e-18
4219.38961 9.66050e-18
4220.86181 9.74357e-18
4222.33402 1.06188e-17
4223.80622 1.18686e-17
4225.26841 1.24229e-17
4226.74061 1.23674e-17
4228.21282 9.27956e-18
4229.68503 1.13377e-17
4231.14722 1.11341e-17
4232.61942 9.09381e-18
4234.09163 8.42071e-18
4235.56383 1.14034e-17
4237.03604 1.11043e-17
4238.49823 9.53737e-18
4239.97043 9.98816e-18
4241.44264 8.72511e-18
4242.91484 9.71777e-18
4244.37703 1.07486e-17
4245.84923 8.11909e-18
4247.32144 7.99540e-18
4248.79365 1.01007e-17
4250.26585 1.11303e-17
4251.72804 9.23826e-18
4253.20024 1.11600e-17
4254.67245 1.05068e-17
4256.14466 1.00283e-17
4257.60685 1.19268e-17
4259.07905 1.11603e-17
4260.55126 1.00533e-17
4262.02346 9.70988e-18
4263.48565 9.36726e-18
4264.95785 8.63837e-18
4266.43006 1.21038e-17
4267.90227 1.44887e-17
4269.37447 1.32791e-17
4270.83666 1.22731e-17
4272.30886 1.03765e-17
4273.78107 1.29045e-17
4275.25328 8.43368e-18
4276.71547 7.61931e-18
4278.18767 7.33995e-18
4279.65988 8.91007e-18
4281.13208 1.10290e-17
4282.60428 1.22306e-17
4284.06647 9.88197e-18
4285.53868 1.22843e-17
4287.01089 1.02791e-17
4288.48309 1.17571e-17
4289.94528 1.22285e-17
4291.41748 1.04187e-17
4292.88969 1.03651e-17
4294.36190 1.06063e-17
4295.82409 1.03898e-17
4297.29629 1.08947e-17
4298.76850 1.04888e-17
4300.24070 1.14494e-17
4301.71291 1.21967e-17
4303.17509 1.15388e-17
4304.64730 8.83217e-18
4306.11951 8.29429e-18
4307.59171 8.83107e-18
4309.05390 1.01922e-17
4310.52610 9.61564e-18
4311.99831 9.24329e-18
4313.47052 9.61823e-18
4314.94272 1.07201e-17
4316.40491 1.18473e-17
4317.87712 1.12686e-17
4319.34932 9.55832e-18
4320.82153 1.10364e-17
4322.28372 1.23973e-17
4323.75592 1.04090e-17
4325.22813 9.53722e-18
4326.70033 1.05768e-17
4328.16252 1.04255e-17
4329.63472 1.00155e-17
4331.10693 1.16463e-17
4332.57913 1.12166e-17
4334.05134 9.91245e-18
4335.51353 9.83324e-18
4336.98574 1.03856e-17
4338.45794 9.90320e-18
4339.93015 8.99917e-18
4341.39234 1.02773e-17
4342.86454 7.91237e-18
4344.33675 7.20719e-18
4345.80895 9.85709e-18
4347.28116 1.05709e-17
4348.74334 1.03857e-17
4350.21555 1.01885e-17
4351.68775 9.29792e-18
4353.15996 9.23611e-18
4354.62215 9.17434e-18
4356.09436 9.11256e-18
4357.56656 9.05076e-18
4359.03877 8.98901e-18
4360.51097 8.92724e-18
4361.97316 8.86548e-18
4363.44537 8.80372e-18
4364.91757 8.74197e-18
4366.38978 8.68022e-18
4367.85197 8.61849e-18
4369.32417 8.55673e-18
4370.79637 8.49500e-18
4372.26858 8.43329e-18
4373.74078 8.37154e-18
4375.20298 8.30984e-18
4376.67518 8.24812e-18
4378.14739 8.18641e-18
4379.61959 8.12470e-18
4381.08178 8.06300e-18
4382.55399 8.00131e-18
4384.02619 7.93961e-18
4385.49840 7.87793e-18
4386.96059 7.81624e-18
4388.43279 7.75459e-18
4389.90499 9.44191e-18
4391.37720 9.74452e-18
4392.84941 1.06821e-17
4394.31160 8.69086e-18
4395.78380 8.11852e-18
4397.25601 8.32894e-18
4398.72821 9.23745e-18
4400.19040 1.03890e-17
4401.66260 9.69504e-18
4403.13481 1.03052e-17
4404.60702 1.11208e-17
4406.07922 1.01179e-17
4407.54141 9.93052e-18
4409.01361 9.50684e-18
4410.48582 9.16111e-18
4411.95803 1.03169e-17
4413.42022 9.01017e-18
4414.89242 8.83972e-18
4416.36463 1.07603e-17
4417.83683 1.03963e-17
4419.29902 1.06569e-17
4420.77122 8.90974e-18
4422.24343 9.45809e-18
4423.71564 9.86156e-18
4425.18784 8.84425e-18
4426.65003 1.10417e-17
4428.12223 1.16129e-17
4429.59444 8.65925e-18
4431.06665 9.34502e-18
4432.52884 8.88840e-18
4434.00104 9.57569e-18
4435.47325 9.05910e-18
4436.94545 9.59401e-18
4438.41766 9.82548e-18
4439.87984 9.94237e-18
4441.35205 9.28084e-18
4442.82426 1.05089e-17
4444.29646 1.12586e-17
4445.75865 1.02202e-17
4447.23085 1.09437e-17
4448.70306 1.34622e-17
4450.17527 1.15190e-17
4451.63746 9.20820e-18
4453.10966 8.93258e-18
4454.58187 1.10532e-17
4456.05407 1.14724e-17
4457.52628 9.97703e-18
4458.98847 9.83169e-18
4460.46067 1.17959e-17
4461.93288 1.08119e-17
4463.40508 9.66924e-18
4464.86727 1.13376e-17
4466.33947 1.12816e-17
4467.81168 1.08925e-17
4469.28389 1.13718e-17
4470.75609 1.18217e-17
4472.21828 1.26916e-17
4473.69049 1.19881e-17
4475.16269 1.10735e-17
4476.63490 1.09115e-17
4478.09709 1.06755e-17
4479.56929 1.12041e-17
4481.04150 1.17451e-17
4482.51370 1.27380e-17
4483.98591 1.36601e-17
4485.44809 1.27002e-17
4486.92030 1.18222e-17
4488.39251 1.24114e-17
4489.86471 1.27209e-17
4491.32690 1.21724e-17
4492.79911 1.25270e-17
4494.27131 1.33099e-17
4495.74352 1.27017e-17
4497.21572 1.20642e-17
4498.67791 1.28756e-17
4500.15012 1.30061e-17
4501.62232 1.38145e-17
4503.09453 1.45547e-17
4504.55672 1.31758e-17
4506.02892 1.35130e-17
4507.50113 1.43354e-17
4508.97333 1.38215e-17
4510.43552 1.45004e-17
4511.90773 1.37138e-17
4513.37993 1.29611e-17
4514.85214 1.48602e-17
4516.32434 1.60135e-17
4517.78653 1.57383e-17
4519.25874 1.48235e-17
4520.73094 1.38298e-17
4522.20315 1.50831e-17
4523.66534 1.60354e-17
4525.13754 1.48938e-17
4526.60974 1.43038e-17
4528.08195 1.26633e-17
4529.55416 1.16094e-17
4531.01635 1.39212e-17
4532.48855 1.42855e-17
4533.96076 1.41755e-17
4535.43296 1.46249e-17
4536.89515 1.41246e-17
4538.36736 1.44320e-17
4539.83956 1.51977e-17
4541.31177 1.56757e-17
4542.77396 1.59480e-17
4544.24616 1.60980e-17
4545.71836 1.57957e-17
4547.19057 1.55773e-17
4548.66278 1.56915e-17
4550.12497 1.64132e-17
4551.59717 1.67185e-17
4553.06938 1.59071e-17
4554.54158 1.56610e-17
4556.00377 1.54665e-17
4557.47598 1.55812e-17
4558.94818 1.52453e-17
4560.42039 1.38300e-17
4561.89259 1.47981e-17
4563.35478 1.57161e-17
4564.82698 1.58143e-17
4566.29919 1.59341e-17
4567.77140 1.63916e-17
4569.23359 1.70320e-17
4570.70579 1.60375e-17
4572.17800 1.60043e-17
4573.65020 1.68820e-17
4575.12241 1.66725e-17
4576.58460 1.64366e-17
4578.05680 1.63266e-17
4579.52901 1.71081e-17
4581.00121 1.67788e-17
4582.46340 1.60288e-17
4583.93560 1.77530e-17
4585.40781 1.76907e-17
4586.88002 1.67699e-17
4588.34221 1.76987e-17
4589.81441 1.67346e-17
4591.28661 1.54957e-17
4592.75882 1.66979e-17
4594.23103 1.66349e-17
4595.69322 1.54905e-17
4597.16542 1.62078e-17
4598.63763 1.64891e-17
4600.10983 1.56796e-17
4601.57202 1.60744e-17
4603.04422 1.75002e-17
4604.51643 1.75652e-17
4605.98864 1.72302e-17
4607.46084 1.71425e-17
4608.92303 1.71584e-17
4610.39523 1.71142e-17
4611.86744 1.64737e-17
4613.33965 1.67979e-17
4614.80184 1.77024e-17
4616.27404 1.79010e-17
4617.74625 1.89098e-17
4619.21845 1.87994e-17
4620.69066 1.82865e-17
4622.15284 1.69109e-17
4623.62505 1.55957e-17
4625.09726 1.61079e-17
4626.56946 1.55437e-17
4628.03165 1.60141e-17
4629.50385 1.73849e-17
4630.97606 1.68427e-17
4632.44827 1.56301e-17
4633.91046 1.59380e-17
4635.38266 1.61001e-17
4636.85487 1.59832e-17
4638.32707 1.57652e-17
4639.79928 1.52307e-17
4641.26147 1.50605e-17
4642.73367 1.57906e-17
4644.20588 1.62777e-17
4645.67808 1.62351e-17
4647.14027 1.63859e-17
4648.61247 1.50718e-17
4650.08468 1.48826e-17
4651.55688 1.54067e-17
4653.02909 1.48954e-17
4654.49128 1.53768e-17
4655.96349 1.51195e-17
4657.43569 1.43650e-17
4658.90790 1.45764e-17
4660.37009 1.52144e-17
4661.84229 1.53193e-17
4663.31450 1.51432e-17
4664.78670 1.55467e-17
4666.25891 1.46554e-17
4667.72109 1.40825e-17
4669.19330 1.42725e-17
4670.66550 1.50868e-17
4672.13771 1.52349e-17
4673.59990 1.39595e-17
4675.07211 1.43032e-17
4676.54431 1.38479e-17
4678.01652 1.37082e-17
4679.47871 1.46032e-17
4680.95091 1.42393e-17
4682.42312 1.45804e-17
4683.89532 1.47741e-17
4685.36753 1.41730e-17
4686.82972 1.33607e-17
4688.30192 1.33281e-17
4689.77412 1.42431e-17
4691.24633 1.41588e-17
4692.70852 1.37522e-17
4694.18073 1.35587e-17
4695.65293 1.33768e-17
4697.12514 1.33887e-17
4698.59734 1.40268e-17
4700.05953 1.55531e-17
4701.53174 1.46814e-17
4703.00394 1.35642e-17
4704.47615 1.29726e-17
4705.93834 1.26361e-17
4707.41054 1.41347e-17
4708.88274 1.42362e-17
4710.35495 1.32790e-17
4711.81714 1.31719e-17
4713.28935 1.37398e-17
4714.76155 1.35643e-17
4716.23376 1.25552e-17
4717.70596 1.27892e-17
4719.16815 1.24007e-17
4720.64035 1.25192e-17
4722.11256 1.32110e-17
4723.58477 1.32405e-17
4725.04696 1.32800e-17
4726.51916 1.29484e-17
4727.99136 1.27080e-17
4729.46357 1.36698e-17
4730.93578 1.39632e-17
4732.39797 1.29532e-17
4733.87017 1.29470e-17
4735.34238 1.39647e-17
4736.81458 1.32569e-17
4738.27677 1.27512e-17
4739.74897 1.28346e-17
4741.22118 1.18824e-17
4742.69339 1.13917e-17
4744.16559 1.18597e-17
4745.62778 1.24221e-17
4747.09998 1.21152e-17
4748.57219 1.21606e-17
4750.04440 1.30017e-17
4751.50659 1.27204e-17
4752.97879 1.22571e-17
4754.45100 1.31299e-17
4755.92320 1.22365e-17
4757.39541 1.12833e-17
4758.85759 1.12980e-17
4760.32980 1.13946e-17
4761.80201 1.16156e-17
4763.27421 1.12646e-17
4764.73640 1.13918e-17
4766.20860 1.19178e-17
4767.68081 1.21367e-17
4769.15302 1.21825e-17
4770.61521 1.13717e-17
4772.08741 1.03101e-17
4773.55962 1.06521e-17
4775.03182 1.10024e-17
4776.50403 1.06815e-17
4777.96622 1.03512e-17
4779.43842 1.05579e-17
4780.91063 1.19687e-17
4782.38283 1.22695e-17
4783.84502 1.10597e-17
4785.31722 1.08005e-17
4786.78943 1.13094e-17
4788.26164 1.14523e-17
4789.73384 1.18621e-17
4791.19603 1.19885e-17
4792.66824 1.10219e-17
4794.14044 1.02490e-17
4795.61265 1.07918e-17
4797.07484 1.14048e-17
4798.54704 1.07292e-17
4800.01925 9.91556e-18
4801.49145 9.95927e-18
4802.95364 9.04645e-18
4804.42584 8.71378e-18
4805.89805 1.04007e-17
4807.37026 1.16629e-17
4808.84246 1.12493e-17
4810.30465 1.06999e-17
4811.77686 1.09614e-17
4813.24906 1.12428e-17
4814.72127 1.12673e-17
4816.18346 1.12718e-17
4817.65566 1.16105e-17
4819.12787 1.12471e-17
4820.60007 1.06784e-17
4822.07228 1.16943e-17
4823.53447 1.20278e-17
4825.00667 1.16852e-17
4826.47888 1.17884e-17
4827.95108 1.16738e-17
4829.41327 1.13647e-17
4830.88548 1.19386e-17
4832.35768 1.19482e-17
4833.82989 1.14217e-17
4835.30209 1.10663e-17
4836.76428 1.09043e-17
4838.23649 1.09076e-17
4839.70869 1.10533e-17
4841.18090 1.15606e-17
4842.64309 1.20599e-17
4844.11529 1.15359e-17
4845.58749 1.09603e-17
4847.05970 1.13872e-17
4848.53191 1.17534e-17
4849.99410 1.10989e-17
4851.46630 1.11251e-17
4852.93851 1.11513e-17
4854.41071 1.11775e-17
4855.87290 1.12038e-17
4857.34511 1.12300e-17
4858.81731 1.12562e-17
4860.28952 1.12824e-17
4861.75171 1.13086e-17
4863.22391 1.13348e-17
4864.69611 1.13610e-17
4866.16832 1.13872e-17
4867.64053 1.14134e-17
4869.10272 1.14396e-17
4870.57492 1.14658e-17
4872.04713 1.14920e-17
4873.51933 1.15182e-17
4874.98152 1.15444e-17
4876.45373 1.15706e-17
4877.92593 1.15967e-17
4879.39814 1.16229e-17
4880.87034 1.16491e-17
4882.33253 1.16753e-17
4883.80473 1.17014e-17
4885.27694 1.17276e-17
4886.74915 1.17538e-17
4888.21134 1.19535e-17
4889.68354 1.25680e-17
4891.15575 1.23331e-17
4892.62795 1.19493e-17
4894.09014 1.19854e-17
4895.56235 1.22348e-17
4897.03455 1.12533e-17
4898.50676 1.16489e-17
4899.97896 1.20672e-17
4901.44115 1.20742e-17
4902.91335 1.21061e-17
4904.38556 1.21463e-17
4905.85777 1.23644e-17
4907.31996 1.28464e-17
4908.79216 1.26225e-17
4910.26436 1.17495e-17
4911.73657 1.16791e-17
4913.20878 1.18756e-17
4914.67097 1.15947e-17
4916.14317 1.29569e-17
4917.61538 1.28400e-17
4919.08758 1.22230e-17
4920.54977 1.28229e-17
4922.02197 1.30492e-17
4923.49418 1.29901e-17
4924.96639 1.33474e-17
4926.42858 1.21996e-17
4927.90078 1.23738e-17
4929.37298 1.38979e-17
4930.84519 1.39587e-17
4932.31740 1.41912e-17
4933.77959 1.40365e-17
4935.25179 1.46708e-17
4936.72400 1.45657e-17
4938.19620 1.42712e-17
4939.65839 1.42023e-17
4941.13059 1.41349e-17
4942.60280 1.41335e-17
4944.07501 1.41159e-17
4945.54721 1.49750e-17
4947.00940 1.58463e-17
4948.48160 1.56550e-17
4949.95381 1.54639e-17
4951.42602 1.52727e-17
4952.88821 1.50816e-17
4954.36041 1.48904e-17
4955.83262 1.46993e-17
4957.30482 1.45082e-17
4958.77703 1.43171e-17
4960.23922 1.41260e-17
4961.71142 1.39350e-17
4963.18363 1.37439e-17
4964.65583 1.35529e-17
4966.11802 1.33620e-17
4967.59022 1.31709e-17
4969.06243 1.29800e-17
4970.53463 1.27891e-17
4972.00684 1.25981e-17
4973.46903 1.24072e-17
4974.94124 1.22163e-17
4976.41344 1.20255e-17
4977.88565 1.18346e-17
4979.34784 1.16437e-17
4980.82004 1.14529e-17
4982.29225 1.12621e-17
4983.76445 1.10713e-17
4985.22664 1.08806e-17
4986.69884 1.06035e-17
4988.17105 1.02119e-17
4989.64325 1.08791e-17
4991.11546 1.23304e-17
4992.57765 1.13038e-17
4994.04986 1.12093e-17
4995.52206 1.22660e-17
4996.99427 1.21403e-17
4998.45646 1.20146e-17
4999.92866 1.18889e-17
5001.40087 1.17632e-17
5002.87307 1.16376e-17
5004.34528 1.15119e-17
5005.80747 1.13863e-17
5007.27967 1.12606e-17
5008.75187 1.11350e-17
5010.22408 1.10094e-17
5011.68627 1.08838e-17
5013.15848 1.07582e-17
5014.63068 1.06326e-17
5016.10289 1.05071e-17
5017.56508 1.03815e-17
5019.03728 1.02559e-17
5020.50949 1.01304e-17
5021.98169 1.00049e-17
5023.45390 9.87941e-18
5024.91609 9.75391e-18
5026.38829 9.62847e-18
5027.86049 9.50295e-18
5029.33270 9.37752e-18
5030.79489 9.25203e-18
5032.26710 9.12659e-18
5033.73930 9.00120e-18
5035.21151 8.68401e-18
5036.68371 8.48075e-18
5038.14590 9.51460e-18
5039.61810 9.93170e-18
5041.09031 1.00972e-17
5042.56252 9.21763e-18
5044.02471 9.18591e-18
5045.49691 9.91704e-18
5046.96911 9.46950e-18
5048.44132 8.55358e-18
5049.90351 9.12410e-18
5051.37572 9.57837e-18
5052.84792 1.05881e-17
5054.32013 1.05821e-17
5055.79233 9.16669e-18
5057.25452 8.55254e-18
5058.72672 8.73819e-18
5060.19893 9.06466e-18
5061.67114 1.00368e-17
5063.13333 1.02273e-17
5064.60553 9.53205e-18
5066.07773 9.78063e-18
5067.54994 1.01651e-17
5069.02215 1.13364e-17
5070.48434 1.10480e-17
5071.95654 1.06091e-17
5073.42875 1.06906e-17
5074.90095 9.84286e-18
5076.36314 1.00793e-17
5077.83534 1.06667e-17
5079.30755 1.16944e-17
5080.77976 1.11547e-17
5082.25196 1.08048e-17
5083.71415 1.13948e-17
5085.18635 1.16364e-17
5086.65856 1.11503e-17
5088.13077 1.24209e-17
5089.59296 1.10688e-17
5091.06516 1.08547e-17
5092.53737 1.09271e-17
5094.00957 1.08758e-17
5095.48178 1.12010e-17
5096.94397 1.15474e-17
5098.41617 1.18667e-17
5099.88838 1.11895e-17
5101.36058 1.17148e-17
5102.82277 1.21187e-17
5104.29497 1.22123e-17
5105.76718 1.14427e-17
5107.23939 1.13688e-17
5108.70158 1.18274e-17
5110.17378 1.17203e-17
5111.64599 1.27226e-17
5113.11819 1.26085e-17
5114.59040 1.22158e-17
5116.05259 1.26064e-17
5117.52479 1.15093e-17
5118.99700 1.08032e-17
5120.46920 1.22859e-17
5121.93139 1.24522e-17
5123.40359 1.16092e-17
5124.87580 1.23225e-17
5126.34801 1.24803e-17
5127.82021 1.19292e-17
5129.28240 1.15100e-17
5130.75461 1.11391e-17
5132.22681 1.20273e-17
5133.69902 1.22032e-17
5135.16121 1.21003e-17
5136.63341 1.17624e-17
5138.10562 1.24665e-17
5139.57782 1.22282e-17
5141.04001 1.26588e-17
5142.51222 1.27162e-17
5143.98442 1.22169e-17
5145.45663 1.23376e-17
5146.92883 1.29876e-17
5148.39102 1.39639e-17
5149.86323 1.28311e-17
5151.33543 1.26358e-17
5152.80764 1.27939e-17
5154.26983 1.22986e-17
5155.74203 1.24766e-17
5157.21424 1.26490e-17
5158.68644 1.26412e-17
5160.15865 1.27236e-17
5161.62084 1.24050e-17
5163.09304 1.32338e-17
5164.56524 1.36579e-17
5166.03745 1.24096e-17
5167.49964 1.19360e-17
5168.97185 1.23665e-17
5170.44405 1.22541e-17
5171.91626 1.22857e-17
5173.38846 1.20524e-17
5174.85065 1.25307e-17
5176.32286 1.14838e-17
5177.79506 1.12309e-17
5179.26727 1.22099e-17
5180.72946 1.28206e-17
5182.20166 1.23398e-17
5183.67386 1.26822e-17
5185.14607 1.30842e-17
5186.60826 1.25149e-17
5188.08047 1.29002e-17
5189.55267 1.25805e-17
5191.02488 1.23088e-17
5192.49708 1.23770e-17
5193.95927 1.22460e-17
5195.43148 1.21325e-17
5196.90368 1.21154e-17
5198.37589 1.19841e-17
5199.83808 1.21802e-17
5201.31028 1.23859e-17
5202.78248 1.27802e-17
5204.25469 1.36236e-17
5205.72690 1.32785e-17
5207.18909 1.30889e-17
5208.66129 1.32868e-17
5210.13350 1.31298e-17
5211.60570 1.29041e-17
5213.06789 1.26917e-17
5214.54010 1.28978e-17
5216.01230 1.29981e-17
5217.48451 1.31158e-17
5218.95671 1.38842e-17
5220.41890 1.38641e-17
5221.89110 1.31197e-17
5223.36331 1.30386e-17
5224.83552 1.39903e-17
5226.29771 1.42121e-17
5227.76991 1.41486e-17
5229.24212 1.38188e-17
5230.71432 1.31232e-17
5232.17651 1.33560e-17
5233.64872 1.36144e-17
5235.12092 1.37285e-17
5236.59313 1.36551e-17
5238.06533 1.25408e-17
5239.52752 1.29007e-17
5240.99972 1.39711e-17
5242.47193 1.39525e-17
5243.94414 1.42242e-17
5245.40633 1.36727e-17
5246.87853 1.41658e-17
5248.35073 1.47245e-17
5249.82294 1.41982e-17
5251.29515 1.36413e-17
5252.75734 1.31012e-17
5254.22954 1.37495e-17
5255.70175 1.45937e-17
5257.17395 1.42651e-17
5258.63614 1.41500e-17
5260.10834 1.42269e-17
5261.58055 1.41307e-17
5263.05276 1.45086e-17
5264.52496 1.43284e-17
5265.98715 1.38127e-17
5267.45935 1.41566e-17
5268.93156 1.44343e-17
5270.40377 1.39947e-17
5271.86596 1.40102e-17
5273.33816 1.42696e-17
5274.81037 1.40905e-17
5276.28257 1.35288e-17
5277.74476 1.34907e-17
5279.21697 1.39503e-17
5280.68917 1.37626e-17
5282.16138 1.35702e-17
5283.63358 1.34177e-17
5285.09577 1.16527e-17
5286.56797 1.15477e-17
5288.04018 1.35159e-17
5289.51238 1.46076e-17
5290.97458 1.49124e-17
5292.44678 1.52109e-17
5293.91899 1.50814e-17
5295.39119 1.46099e-17
5296.86340 1.52830e-17
5298.32559 1.56372e-17
5299.79779 1.47619e-17
5301.27000 1.49236e-17
5302.74220 1.56832e-17
5304.20439 1.50267e-17
5305.67659 1.46202e-17
5307.14880 1.51221e-17
5308.62100 1.49901e-17
5310.08320 1.45790e-17
5311.55540 1.47206e-17
5313.02761 1.47005e-17
5314.49981 1.49013e-17
5315.97202 1.49839e-17
5317.43421 1.48509e-17
5318.90641 1.51853e-17
5320.37862 1.55318e-17
5321.85082 1.52766e-17
5323.31301 1.51311e-17
5324.78522 1.55009e-17
5326.25742 1.50469e-17
5327.72962 1.47336e-17
5329.20183 1.51396e-17
5330.66402 1.50035e-17
5332.13623 1.46015e-17
5333.60843 1.44874e-17
5335.08064 1.49413e-17
5336.54283 1.50941e-17
5338.01503 1.48685e-17
5339.48724 1.44731e-17
5340.95944 1.36769e-17
5342.43165 1.39125e-17
5343.89384 1.42323e-17
5345.36604 1.40883e-17
5346.83824 1.51612e-17
5348.31045 1.55885e-17
5349.77264 1.48291e-17
5351.24485 1.47976e-17
5352.71705 1.48610e-17
5354.18926 1.50147e-17
5355.66146 1.50120e-17
5357.12365 1.51553e-17
5358.59585 1.55484e-17
5360.06806 1.56063e-17
5361.54027 1.51964e-17
5363.00246 1.57513e-17
5364.47466 1.59395e-17
5365.94686 1.52153e-17
5367.41907 1.53124e-17
5368.88126 1.57443e-17
5370.35347 1.53871e-17
5371.82567 1.48172e-17
5373.29788 1.51133e-17
5374.77008 1.49853e-17
5376.23227 1.44548e-17
5377.70447 1.46661e-17
5379.17668 1.50243e-17
5380.64889 1.49506e-17
5382.11108 1.45678e-17
5383.58328 1.44085e-17
5385.05548 1.41673e-17
5386.52769 1.44697e-17
5387.99990 1.45239e-17
5389.46209 1.42854e-17
5390.93429 1.40866e-17
5392.40650 1.38261e-17
5393.87870 1.39564e-17
5395.34089 1.48098e-17
5396.81309 1.50025e-17
5398.28530 1.42064e-17
5399.75751 1.41274e-17
5401.21970 1.41218e-17
5402.69190 1.41465e-17
5404.16410 1.42729e-17
5405.63631 1.44884e-17
5407.10852 1.43944e-17
5408.57071 1.38622e-17
5410.04291 1.39815e-17
5411.51512 1.40519e-17
5412.98732 1.35678e-17
5414.44951 1.31362e-17
5415.92172 1.35730e-17
5417.39392 1.41300e-17
5418.86613 1.43373e-17
5420.33833 1.45714e-17
5421.80052 1.41058e-17
5423.27272 1.37766e-17
5424.74493 1.41204e-17
5426.21714 1.40292e-17
5427.67933 1.41294e-17
5429.15153 1.49739e-17
5430.62374 1.50457e-17
5432.09594 1.47712e-17
5433.55813 1.47587e-17
5435.03034 1.49324e-17
5436.50254 1.45589e-17
5437.97475 1.43776e-17
5439.44695 1.49175e-17
5440.90914 1.48181e-17
5442.38134 1.44941e-17
5443.85355 1.47965e-17
5445.32576 1.48965e-17
5446.78795 1.55351e-17
5448.26015 1.52054e-17
5449.73236 1.48976e-17
5451.20456 1.55896e-17
5452.67677 1.50137e-17
5454.13896 1.48660e-17
5455.61116 1.53121e-17
5457.08337 1.57972e-17
5458.55557 1.54936e-17
5460.01776 1.49776e-17
5461.48997 1.52086e-17
5462.96217 1.55073e-17
5464.43438 1.58696e-17
5465.90658 1.61411e-17
5467.36877 1.67591e-17
5468.84098 1.61548e-17
5470.31318 1.51625e-17
5471.78539 1.57198e-17
5473.24758 1.58221e-17
5474.71978 1.59621e-17
5476.19199 1.55590e-17
5477.66419 1.51321e-17
5479.13640 1.52703e-17
5480.59859 1.53476e-17
5482.07079 1.56965e-17
5483.54299 1.53018e-17
5485.01520 1.51322e-17
5486.47739 1.51445e-17
5487.94960 1.48783e-17
5489.42180 1.50579e-17
5490.89401 1.56028e-17
5492.35620 1.52085e-17
5493.82840 1.49181e-17
5495.30061 1.49061e-17
5496.77281 1.48553e-17
5498.24502 1.45061e-17
5499.70721 1.42577e-17
5501.17941 1.44804e-17
5502.65161 1.46128e-17
5504.12382 1.41185e-17
5505.58601 1.40109e-17
5507.05822 1.44886e-17
5508.53042 1.47751e-17
5510.00263 1.43122e-17
5511.47483 1.35300e-17
5512.93702 1.37165e-17
5514.40923 1.39416e-17
5515.88143 1.40264e-17
5517.35364 1.37237e-17
5518.81583 1.34110e-17
5520.28803 1.36171e-17
5521.76023 1.36582e-17
5523.23244 1.34728e-17
5524.69463 1.35386e-17
5526.16684 1.36907e-17
5527.63904 1.33866e-17
5529.11125 1.30699e-17
5530.58345 1.29042e-17
5532.04564 1.26072e-17
5533.51785 1.25357e-17
5534.99005 1.26370e-17
5536.46226 1.26761e-17
5537.92445 1.22728e-17
5539.39665 1.20135e-17
5540.86885 1.16966e-17
5542.34106 1.15861e-17
5543.81327 1.17730e-17
5545.27546 1.17689e-17
5546.74766 1.13731e-17
5548.21987 1.15877e-17
5549.69207 1.17142e-17
5551.15426 1.17312e-17
5552.62647 1.14440e-17
5554.09867 1.09476e-17
5555.57088 1.07390e-17
5557.03307 1.06196e-17
5558.50527 1.08138e-17
5559.97747 1.07664e-17
5561.44968 1.06270e-17
5562.92189 1.07568e-17
5564.38408 1.09192e-17
5565.85628 1.04869e-17
5567.32849 1.01636e-17
5568.80069 1.05921e-17
5570.27290 1.02256e-17
5571.73509 9.80471e-18
5573.20729 1.01658e-17
5574.67950 1.02549e-17
5576.15170 8.94608e-18
5577.61389 8.79078e-18
5579.08609 9.36731e-18
5580.55830 9.25301e-18
5582.03051 9.63616e-18
5583.49270 9.55529e-18
5584.96490 9.35636e-18
5586.43710 9.55862e-18
5587.90931 9.66034e-18
5589.38152 9.53903e-18
5590.84371 9.46222e-18
5592.31591 9.18493e-18
5593.78812 8.98182e-18
5595.26032 8.55146e-18
5596.72251 8.46680e-18
5598.19472 8.53164e-18
5599.66692 8.55990e-18
5601.13913 9.14675e-18
5602.61133 8.96053e-18
5604.07352 8.51333e-18
5605.54572 8.72780e-18
5607.01793 8.79388e-18
5608.49014 8.31982e-18
5609.95233 7.99112e-18
5611.42453 8.35658e-18
5612.89674 8.77128e-18
5614.36894 8.51770e-18
5615.83113 8.38657e-18
5617.30334 8.56584e-18
5618.77554 8.21721e-18
5620.24775 8.01594e-18
5621.71995 8.21269e-18
5623.18214 8.54999e-18
5624.65434 8.61638e-18
5626.12655 8.37008e-18
5627.59875 7.87913e-18
5629.06095 7.53387e-18
5630.53315 7.72039e-18
5632.00536 7.76558e-18
5633.47756 7.58234e-18
5634.94977 7.58840e-18
5636.41196 7.67873e-18
5637.88416 7.45882e-18
5639.35637 7.59587e-18
5640.82857 8.11431e-18
5642.29076 7.76301e-18
5643.76297 6.96627e-18
5645.23517 7.42598e-18
5646.70737 8.38145e-18
5648.16957 8.29579e-18
5649.64177 7.70879e-18
5651.11398 7.46115e-18
5652.58618 7.30647e-18
5654.05839 7.35593e-18
5655.52058 7.84969e-18
5656.99278 7.85292e-18
5658.46499 7.42328e-18
5659.93719 7.45088e-18
5661.39938 7.55690e-18
5662.87159 7.44701e-18
5664.34379 7.57470e-18
5665.81599 7.60101e-18
5667.28820 7.38980e-18
5668.75039 7.14652e-18
5670.22260 7.16590e-18
5671.69480 7.36040e-18
5673.16701 7.12251e-18
5674.62920 7.11926e-18
5676.10140 7.48263e-18
5677.57360 7.28844e-18
5679.04581 7.33457e-18
5680.51802 8.15881e-18
5681.98021 8.06049e-18
5683.45241 7.09871e-18
5684.92461 6.98676e-18
5686.39682 7.36651e-18
5687.85901 7.18605e-18
5689.33122 7.22228e-18
5690.80342 7.59192e-18
5692.27563 7.70655e-18
5693.74783 7.50659e-18
5695.21002 6.66309e-18
5696.68222 6.48309e-18
5698.15443 7.22712e-18
5699.62664 7.61167e-18
5701.08883 7.86954e-18
5702.56103 8.32105e-18
5704.03323 8.12009e-18
5705.50544 7.49113e-18
5706.96763 7.94914e-18
5708.43984 8.32500e-18
5709.91204 8.19509e-18
5711.38425 8.23568e-18
5712.85645 7.98188e-18
5714.31864 7.78509e-18
5715.79084 7.97786e-18
5717.26305 7.64525e-18
5718.73526 7.28927e-18
5720.19745 7.82879e-18
5721.66965 8.50258e-18
5723.14185 8.34196e-18
5724.61406 8.73712e-18
5726.08627 8.39143e-18
5727.54846 8.12256e-18
5729.02066 9.13214e-18
5730.49287 9.38179e-18
5731.96507 8.97132e-18
5733.42726 9.28689e-18
5734.89947 9.56513e-18
5736.37167 9.46202e-18
5737.84388 9.13569e-18
5739.30607 8.72403e-18
5740.77827 8.48585e-18
5742.25047 8.03431e-18
5743.72268 7.58677e-18
5745.19489 7.58584e-18
5746.65708 7.72432e-18
5748.12928 8.24934e-18
5749.60149 8.83733e-18
5751.07369 9.50382e-18
5752.53588 9.87434e-18
5754.00809 1.03619e-17
5755.48029 1.01791e-17
5756.95250 9.64130e-18
5758.42470 9.59362e-18
5759.88689 1.01643e-17
5761.35909 1.01151e-17
5762.83130 1.02558e-17
5764.30351 1.02982e-17
5765.76570 1.06030e-17
5767.23790 1.10020e-17
5768.71011 1.03438e-17
5770.18231 1.03026e-17
5771.65452 1.07316e-17
5773.11671 1.06013e-17
5774.58891 1.05764e-17
5776.06112 1.12705e-17
5777.53332 1.15625e-17
5778.99551 1.13113e-17
5780.46772 1.20232e-17
5781.93992 1.17788e-17
5783.41213 1.08285e-17
5784.87432 1.09624e-17
5786.34652 1.10157e-17
5787.81873 1.17337e-17
5789.29093 1.11741e-17
5790.76314 1.10563e-17
5792.22533 1.16143e-17
5793.69753 1.20345e-17
5795.16974 1.13440e-17
5796.64194 1.16118e-17
5798.10413 1.18530e-17
5799.57634 1.19901e-17
5801.04854 1.20277e-17
5802.52074 1.24400e-17
5803.99295 1.24999e-17
5805.45514 1.24176e-17
5806.92735 1.21957e-17
5808.39955 1.24915e-17
5809.87176 1.35288e-17
5811.33395 1.34847e-17
5812.80615 1.32627e-17
5814.27836 1.33730e-17
5815.75056 1.37197e-17
5817.22277 1.37192e-17
5818.68496 1.29596e-17
5820.15716 1.28948e-17
5821.62936 1.35203e-17
5823.10157 1.39662e-17
5824.56376 1.39632e-17
5826.03597 1.34650e-17
5827.50817 1.36154e-17
5828.98038 1.38777e-17
5830.44257 1.45395e-17
5831.91477 1.47957e-17
5833.38698 1.46093e-17
5834.85918 1.46437e-17
5836.33139 1.45587e-17
5837.79358 1.43171e-17
5839.26578 1.36917e-17
5840.73798 1.44444e-17
5842.21019 1.45985e-17
5843.67238 1.52081e-17
5845.14459 1.46874e-17
5846.61679 1.47555e-17
5848.08900 1.50664e-17
5849.56120 1.52884e-17
5851.02339 1.52833e-17
5852.49560 1.48007e-17
5853.96780 1.46451e-17
5855.44001 1.48994e-17
5856.90220 1.50721e-17
5858.37440 1.50022e-17
5859.84660 1.52382e-17
5861.31881 1.48410e-17
5862.79102 1.36357e-17
5864.25321 1.38107e-17
5865.72541 1.48822e-17
5867.19762 1.46597e-17
5868.66982 1.42429e-17
5870.13201 1.38284e-17
5871.60422 1.42578e-17
5873.07642 1.48325e-17
5874.54863 1.45526e-17
5876.01082 1.48081e-17
5877.48302 1.49792e-17
5878.95522 1.48609e-17
5880.42743 1.53639e-17
5881.89964 1.54666e-17
5883.36183 1.51381e-17
5884.83403 1.49384e-17
5886.30624 1.45708e-17
5887.77844 1.40224e-17
5889.24063 1.38628e-17
5890.71284 1.41350e-17
5892.18504 1.44316e-17
5893.65725 1.31186e-17
5895.12945 1.06943e-17
5896.59164 8.94268e-18
5898.06384 9.27589e-18
5899.53605 1.01056e-17
5901.00826 1.00537e-17
5902.47045 9.92813e-18
5903.94265 1.05705e-17
5905.41485 1.20613e-17
5906.88706 1.36584e-17
5908.34925 1.45602e-17
5909.82146 1.45068e-17
5911.29366 1.45435e-17
5912.76587 1.48022e-17
5914.23807 1.44274e-17
5915.70026 1.44223e-17
5917.17247 1.45640e-17
5918.64467 1.43096e-17
5920.11688 1.43527e-17
5921.57907 1.50717e-17
5923.05127 1.50167e-17
5924.52347 1.49386e-17
5925.99568 1.49577e-17
5927.46789 1.45597e-17
5928.93008 1.45732e-17
5930.40228 1.45051e-17
5931.87449 1.48492e-17
5933.34669 1.46748e-17
5934.80888 1.48208e-17
5936.28109 1.50313e-17
5937.75329 1.47091e-17
5939.22550 1.45240e-17
5940.69770 1.47844e-17
5942.15989 1.48028e-17
5943.63209 1.42672e-17
5945.10430 1.50683e-17
5946.57650 1.50191e-17
5948.03870 1.46073e-17
5949.51090 1.46339e-17
5950.98311 1.45404e-17
5952.45531 1.44813e-17
5953.92752 1.46681e-17
5955.38971 1.45091e-17
5956.86191 1.44526e-17
5958.33412 1.45320e-17
5959.80632 1.45621e-17
5961.26851 1.49732e-17
5962.74072 1.49577e-17
5964.21292 1.45180e-17
5965.68512 1.49467e-17
5967.14732 1.42905e-17
5968.61952 1.46377e-17
5970.09173 1.41661e-17
5971.56393 1.46929e-17
5973.03614 1.50835e-17
5974.49833 1.49532e-17
5975.97053 1.44143e-17
5977.44274 1.43861e-17
5978.91494 1.46958e-17
5980.37713 1.53073e-17
5981.84934 1.43433e-17
5983.32154 1.47634e-17
5984.79374 1.46169e-17
5986.26595 1.39723e-17
5987.72814 1.41988e-17
5989.20035 1.43981e-17
5990.67255 1.49300e-17
5992.14476 1.44327e-17
5993.60695 1.35848e-17
5995.07915 1.40043e-17
5996.55135 1.41223e-17
5998.02356 1.46368e-17
5999.48575 1.45451e-17
6000.95796 1.42996e-17
6002.43016 1.38633e-17
6003.90236 1.39001e-17
6005.37457 1.41444e-17
6006.83676 1.35381e-17
6008.30897 1.39025e-17
6009.78117 1.35716e-17
6011.25338 1.33883e-17
6012.71557 1.38655e-17
6014.18777 1.35732e-17
6015.65997 1.34067e-17
6017.13218 1.30624e-17
6018.60439 1.32478e-17
6020.06658 1.34851e-17
6021.53878 1.31402e-17
6023.01098 1.34314e-17
6024.48319 1.37878e-17
6025.94538 1.35697e-17
6027.41759 1.36105e-17
6028.88979 1.33693e-17
6030.36200 1.29813e-17
6031.82419 1.30679e-17
6033.29639 1.29830e-17
6034.76859 1.29204e-17
6036.24080 1.31669e-17
6037.71301 1.33774e-17
6039.17520 1.31518e-17
6040.64740 1.34601e-17
6042.11960 1.31148e-17
6043.59181 1.28524e-17
6045.05400 1.27428e-17
6046.52621 1.28159e-17
6047.99841 1.26969e-17
6049.47062 1.30088e-17
6050.94282 1.33211e-17
6052.40501 1.29098e-17
6053.87722 1.25916e-17
6055.34942 1.20965e-17
6056.82163 1.27032e-17
6058.28382 1.24908e-17
6059.75602 1.26183e-17
6061.22822 1.26187e-17
6062.70043 1.21216e-17
6064.17264 1.18897e-17
6065.63483 1.24892e-17
6067.10703 1.19657e-17
6068.57924 1.19792e-17
6070.05144 1.25184e-17
6071.51363 1.22648e-17
6072.98584 1.16532e-17
6074.45804 1.30844e-17
6075.93025 1.25525e-17
6077.40245 1.20296e-17
6078.86464 1.19819e-17
6080.33684 1.24079e-17
6081.80905 1.20447e-17
6083.28126 1.17400e-17
6084.74345 1.23001e-17
6086.21565 1.21664e-17
6087.68786 1.11781e-17
6089.16006 1.20000e-17
6090.62225 1.19595e-17
6092.09446 1.17538e-17
6093.56666 1.05872e-17
6095.03887 1.08338e-17
6096.51107 1.14691e-17
6097.97326 1.16785e-17
6099.44547 1.15650e-17
6100.91767 1.11139e-17
6102.38988 1.13632e-17
6103.85207 1.14805e-17
6105.32427 1.14008e-17
6106.79648 1.15973e-17
6108.26868 1.21566e-17
6109.74089 1.19758e-17
6111.20308 1.14332e-17
6112.67528 1.12966e-17
6114.14749 1.14711e-17
6115.61969 1.18345e-17
6117.08188 1.18336e-17
6118.55409 1.18912e-17
6120.02629 1.18158e-17
6121.49849 1.18812e-17
6122.96069 1.19444e-17
6124.43289 1.13485e-17
6125.90510 1.16836e-17
6127.37730 1.16212e-17
6128.84951 1.10823e-17
6130.31170 1.15860e-17
6131.78390 1.14864e-17
6133.25611 1.11250e-17
6134.72831 1.16676e-17
6136.19050 1.19061e-17
6137.66271 1.14869e-17
6139.13491 1.15887e-17
6140.60711 1.21190e-17
6142.07932 1.17264e-17
6143.54151 1.16367e-17
6145.01372 1.15748e-17
6146.48592 1.09942e-17
6147.95813 1.12217e-17
6149.42032 1.10899e-17
6150.89252 1.13610e-17
6152.36473 1.15797e-17
6153.83693 1.15844e-17
6155.29912 1.17418e-17
6156.77133 1.19019e-17
6158.24353 1.21270e-17
6159.71573 1.17670e-17
6161.18794 1.23132e-17
6162.65013 1.18537e-17
6164.12234 1.14716e-17
6165.59454 1.19035e-17
6167.06675 1.19124e-17
6168.52894 1.18665e-17
6170.00114 1.23224e-17
6171.47335 1.16716e-17
6172.94555 1.18695e-17
6174.41776 1.21983e-17
6175.87995 1.21078e-17
6177.35215 1.16435e-17
6178.82435 1.16871e-17
6180.29656 1.22131e-17
6181.75875 1.22114e-17
6183.23096 1.19256e-17
6184.70316 1.19217e-17
6186.17537 1.19959e-17
6187.64757 1.19638e-17
6189.10976 1.24018e-17
6190.58197 1.24125e-17
6192.05417 1.24105e-17
6193.52638 1.23194e-17
6194.98857 1.21395e-17
6196.46077 1.22381e-17
6197.93297 1.24896e-17
6199.40518 1.22724e-17
6200.87739 1.24806e-17
6202.33958 1.21207e-17
6203.81178 1.23461e-17
6205.28399 1.31783e-17
6206.75619 1.28675e-17
6208.21838 1.26825e-17
6209.69059 1.22313e-17
6211.16279 1.22783e-17
6212.63500 1.25362e-17
6214.09719 1.23141e-17
6215.56939 1.27809e-17
6217.04159 1.26346e-17
6218.51380 1.25893e-17
6219.98601 1.28763e-17
6221.44820 1.20854e-17
6222.92040 1.20268e-17
6224.39261 1.21643e-17
6225.86481 1.24353e-17
6227.32700 1.21966e-17
6228.79921 1.25489e-17
6230.27141 1.26861e-17
6231.74362 1.23748e-17
6233.21582 1.22969e-17
6234.67801 1.19401e-17
6236.15022 1.24904e-17
6237.62242 1.19961e-17
6239.09463 1.18635e-17
6240.55682 1.17158e-17
6242.02902 1.19125e-17
6243.50122 1.19936e-17
6244.97343 1.21238e-17
6246.43562 1.22776e-17
6247.90783 1.21976e-17
6249.38003 1.21898e-17
6250.85224 1.17250e-17
6252.32444 1.10943e-17
6253.78663 1.16323e-17
6255.25884 1.20935e-17
6256.73104 1.15882e-17
6258.20325 1.16646e-17
6259.66543 1.17398e-17
6261.13764 1.19530e-17
6262.60984 1.18104e-17
6264.08205 1.17958e-17
6265.55426 1.13738e-17
6267.01645 1.11345e-17
6268.48865 1.11269e-17
6269.96086 1.14946e-17
6271.43306 1.20056e-17
6272.89525 1.21121e-17
6274.36746 1.15956e-17
6275.83966 1.20652e-17
6277.31187 1.18657e-17
6278.78407 1.16880e-17
6280.24626 1.21584e-17
6281.71847 1.16890e-17
6283.19067 1.17128e-17
6284.66287 1.19032e-17
6286.12507 1.15177e-17
6287.59727 1.11941e-17
6289.06948 1.16370e-17
6290.54168 1.20431e-17
6292.00387 1.16541e-17
6293.47608 1.12297e-17
6294.94828 1.10405e-17
6296.42049 1.12337e-17
6297.89269 1.14792e-17
6299.35488 1.16684e-17
6300.82709 1.12489e-17
6302.29929 1.07929e-17
6303.77149 1.09455e-17
6305.23369 1.13850e-17
6306.70589 1.19133e-17
6308.17810 1.18391e-17
6309.65030 1.11822e-17
6311.12251 1.07916e-17
6312.58470 1.06103e-17
6314.05690 1.09190e-17
6315.52910 1.12758e-17
6317.00131 1.16280e-17
6318.46350 1.17151e-17
6319.93571 1.11178e-17
6321.40791 1.09640e-17
6322.88011 1.14603e-17
6324.35232 1.15910e-17
6325.81451 1.13576e-17
6327.28672 1.14522e-17
6328.75892 1.15166e-17
6330.23113 1.15100e-17
6331.69332 1.16644e-17
6333.16552 1.17854e-17
6334.63772 1.15813e-17
6336.10993 1.14859e-17
6337.57212 1.16636e-17
6339.04433 1.15493e-17
6340.51653 1.12548e-17
6341.98873 1.11946e-17
6343.46094 1.12270e-17
6344.92313 1.14605e-17
6346.39534 1.17917e-17
6347.86754 1.19985e-17
6349.33975 1.17476e-17
6350.80194 1.15409e-17
6352.27414 1.14920e-17
6353.74634 1.12298e-17
6355.21855 1.12457e-17
6356.69076 1.12617e-17
6358.15295 1.12776e-17
6359.62515 1.12935e-17
6361.09735 1.13095e-17
6362.56956 1.13254e-17
6364.03175 1.13414e-17
6365.50396 1.13573e-17
6366.97616 1.13732e-17
6368.44837 1.13892e-17
6369.92057 1.14051e-17
6371.38276 1.14210e-17
6372.85497 1.14208e-17
6374.32717 1.13066e-17
6375.79938 1.13949e-17
6377.26157 1.15846e-17
6378.73377 1.15434e-17
6380.20597 1.16101e-17
6381.67818 1.12809e-17
6383.14037 1.14840e-17
6384.61258 1.15573e-17
6386.08478 1.15316e-17
6387.55699 1.16207e-17
6389.02919 1.13733e-17
6390.49138 1.15000e-17
6391.96359 1.13324e-17
6393.43579 1.11581e-17
6394.90800 1.16561e-17
6396.37019 1.14832e-17
6397.84239 1.11518e-17
6399.31459 1.19859e-17
6400.78680 1.22637e-17
6402.25901 1.18071e-17
6403.72120 1.19300e-17
6405.19340 1.18575e-17
6406.66561 1.18108e-17
6408.13781 1.19747e-17
6409.60000 1.19854e-17
6411.07221 1.21042e-17
6412.54441 1.19931e-17
6414.01662 1.20011e-17
6415.48882 1.20086e-17
6416.95101 1.17317e-17
6418.42322 1.16059e-17
6419.89542 1.13043e-17
6421.36763 1.14884e-17
6422.82982 1.23182e-17
6424.30202 1.20601e-17
6425.77423 1.16034e-17
6427.24643 1.18819e-17
6428.70862 1.23934e-17
6430.18083 1.27627e-17
6431.65303 1.21883e-17
6433.12524 1.17700e-17
6434.59744 1.18177e-17
6436.05963 1.19917e-17
6437.53184 1.20651e-17
6439.00404 1.16325e-17
6440.47625 1.20997e-17
6441.93844 1.20361e-17
6443.41064 1.17336e-17
6444.88285 1.23032e-17
6446.35505 1.25966e-17
6447.82726 1.22420e-17
6449.28945 1.20027e-17
6450.76165 1.18805e-17
6452.23386 1.20973e-17
6453.70606 1.23518e-17
6455.16825 1.24639e-17
6456.64046 1.29063e-17
6458.11266 1.26733e-17
6459.58486 1.23467e-17
6461.05707 1.23558e-17
6462.51926 1.21679e-17
6463.99147 1.18536e-17
6465.46367 1.18131e-17
6466.93588 1.20632e-17
6468.39807 1.20274e-17
6469.87027 1.19527e-17
6471.34248 1.19516e-17
6472.81468 1.18481e-17
6474.27687 1.17250e-17
6475.74908 1.23475e-17
6477.22128 1.22773e-17
6478.69348 1.16974e-17
6480.16569 1.18556e-17
6481.62788 1.17765e-17
6483.10009 1.23430e-17
6484.57229 1.30434e-17
6486.04450 1.20847e-17
6487.50669 1.17002e-17
6488.97889 1.18511e-17
6490.45110 1.14910e-17
6491.92330 1.18697e-17
6493.39551 1.21911e-17
6494.85770 1.21186e-17
6496.32990 1.26402e-17
6497.80210 1.26343e-17
6499.27431 1.22206e-17
6500.73650 1.22480e-17
6502.20871 1.19656e-17
6503.68091 1.18245e-17
6505.15312 1.14118e-17
6506.62532 1.11810e-17
6508.08751 1.17319e-17
6509.55972 1.23798e-17
6511.03192 1.23384e-17
6512.50413 1.20900e-17
6513.96632 1.20275e-17
6515.43852 1.18987e-17
6516.91072 1.21314e-17
6518.38293 1.22687e-17
6519.84512 1.20088e-17
6521.31733 1.18389e-17
6522.78953 1.19612e-17
6524.26174 1.19767e-17
6525.73394 1.18702e-17
6527.19613 1.20063e-17
6528.66834 1.26137e-17
6530.14054 1.31022e-17
6531.61275 1.27767e-17
6533.07494 1.23208e-17
6534.54714 1.21252e-17
6536.01934 1.21190e-17
6537.49155 1.21371e-17
6538.96376 1.23975e-17
6540.42595 1.25808e-17
6541.89815 1.21970e-17
6543.37036 1.21842e-17
6544.84256 1.21714e-17
6546.30475 1.21585e-17
6547.77696 1.21457e-17
6549.24916 1.21329e-17
6550.72137 1.21201e-17
6552.19357 1.21072e-17
6553.65576 1.20944e-17
6555.12797 1.20816e-17
6556.60017 1.20687e-17
6558.07238 1.20559e-17
6559.53457 1.20431e-17
6561.00677 1.20303e-17
6562.47897 1.20174e-17
6563.95118 1.20046e-17
6565.41337 1.19918e-17
6566.88558 1.19790e-17
6568.35778 1.19661e-17
6569.82999 1.19533e-17
6571.30219 1.19405e-17
6572.76438 1.19277e-17
6574.23659 1.19148e-17
6575.70879 1.19020e-17
6577.18100 1.18892e-17
6578.64318 1.18764e-17
6580.11539 1.18636e-17
6581.58759 1.18508e-17
6583.05980 1.18379e-17
6584.53201 1.18251e-17
6585.99420 1.18123e-17
6587.46640 1.17995e-17
6588.93861 1.17867e-17
6590.41081 1.17739e-17
6591.87300 1.17610e-17
6593.34521 1.17482e-17
6594.81741 1.17354e-17
6596.28962 1.17226e-17
6597.76182 1.17098e-17
6599.22401 1.16970e-17
6600.69622 1.16842e-17
6602.16842 1.16714e-17
6603.64062 1.16585e-17
6605.10282 1.11302e-17
6606.57502 1.12309e-17
6608.04723 1.17460e-17
6609.51943 1.15522e-17
6610.98162 1.16468e-17
6612.45383 1.14709e-17
6613.92603 1.10269e-17
6615.39824 1.07996e-17
6616.87044 1.09449e-17
6618.33263 1.13752e-17
6619.80484 1.14909e-17
6621.27704 1.10405e-17
6622.74924 1.11254e-17
6624.21144 1.16062e-17
6625.68364 1.16283e-17
6627.15585 1.14800e-17
6628.62805 1.13882e-17
6630.10026 1.10390e-17
6631.56245 1.06486e-17
6633.03465 1.15328e-17
6634.50685 1.11234e-17
6635.97906 1.05593e-17
6637.44125 1.07250e-17
6638.91346 1.08211e-17
6640.38566 1.07461e-17
6641.85786 1.07949e-17
6643.33007 1.10996e-17
6644.79226 1.05197e-17
6646.26447 1.08831e-17
6647.73667 1.10807e-17
6649.20888 1.04789e-17
6650.67107 1.03157e-17
6652.14327 1.07221e-17
6653.61547 1.06750e-17
6655.08768 1.05643e-17
6656.54987 1.03274e-17
6658.02208 1.07728e-17
6659.49428 1.12048e-17
6660.96648 1.08303e-17
6662.43869 1.08141e-17
6663.90088 1.04830e-17
6665.37309 1.04186e-17
6666.84529 1.00911e-17
6668.31750 1.02263e-17
6669.77969 1.03109e-17
6671.25189 9.82054e-18
6672.72409 1.01974e-17
6674.19630 1.07100e-17
6675.66851 1.04667e-17
6677.13070 1.00703e-17
6678.60290 9.90818e-18
6680.07510 1.04729e-17
6681.54731 1.06404e-17
6683.00950 1.03275e-17
6684.48171 1.03475e-17
6685.95391 9.93288e-18
6687.42612 9.59329e-18
6688.89832 9.77609e-18
6690.36051 1.05003e-17
6691.83272 9.98388e-18
6693.30492 1.00436e-17
6694.77713 9.82311e-18
6696.23932 9.97202e-18
6697.71152 1.00482e-17
6699.18372 9.62830e-18
6700.65593 9.84860e-18
6702.11812 1.02512e-17
6703.59033 1.03161e-17
6705.06253 1.00936e-17
6706.53474 9.44910e-18
6708.00694 8.82347e-18
6709.46913 9.39553e-18
6710.94134 9.65470e-18
6712.41354 9.31980e-18
6713.88575 9.44592e-18
6715.34794 9.65840e-18
6716.82014 9.40902e-18
6718.29234 9.70048e-18
6719.76455 1.01420e-17
6721.23676 1.00359e-17
6722.69895 9.97354e-18
6724.17115 9.90008e-18
6725.64336 9.45120e-18
6727.11556 9.51115e-18
6728.57775 9.65341e-18
6730.04996 9.57628e-18
6731.52216 9.42229e-18
6732.99437 9.63126e-18
6734.46657 9.97118e-18
6735.92876 9.70952e-18
6737.40097 9.50269e-18
6738.87317 9.62424e-18
6740.34538 9.87843e-18
6741.80757 1.00784e-17
6743.27977 9.68284e-18
6744.75198 9.55853e-18
6746.22418 1.03222e-17
6747.68637 1.00917e-17
6749.15858 9.47567e-18
6750.63078 9.33999e-18
6752.10299 9.19479e-18
6753.57519 9.44262e-18
6755.03738 9.40776e-18
6756.50959 9.35626e-18
6757.98179 9.66497e-18
6759.45400 9.73666e-18
6760.91619 9.86000e-18
6762.38839 9.82902e-18
6763.86060 9.42486e-18
6765.33280 9.52376e-18
6766.80501 9.43949e-18
6768.26720 9.50338e-18
6769.73940 9.93080e-18
6771.21161 9.78123e-18
6772.68381 9.85813e-18
6774.14600 9.59382e-18
6775.61821 9.21879e-18
6777.09041 9.45609e-18
6778.56261 9.27352e-18
6780.02481 9.22978e-18
6781.49701 9.43003e-18
6782.96922 9.54229e-18
6784.44142 9.22945e-18
6785.91363 9.06097e-18
6787.37582 9.25222e-18
6788.84802 9.33171e-18
6790.32023 8.99016e-18
6791.79243 9.08316e-18
6793.25462 9.34245e-18
6794.72683 9.58469e-18
6796.19903 9.44513e-18
6797.67123 9.03431e-18
6799.14344 9.29268e-18
6800.60563 9.35404e-18
6802.07784 9.00932e-18
6803.55004 9.55527e-18
6805.02225 9.32412e-18
6806.48444 8.60173e-18
6807.95664 8.61524e-18
6809.42885 9.22262e-18
6810.90105 9.09061e-18
6812.37326 9.18417e-18
6813.83545 9.11166e-18
6815.30765 9.11944e-18
6816.77985 9.03465e-18
6818.25206 9.13293e-18
6819.71425 8.69467e-18
6821.18646 8.97198e-18
6822.65866 8.61235e-18
6824.13087 8.63693e-18
6825.60307 8.78485e-18
6827.06526 8.44117e-18
6828.53747 8.41898e-18
6830.00967 9.14217e-18
6831.48188 9.09184e-18
6832.94407 8.55137e-18
6834.41627 9.10578e-18
6835.88847 8.39512e-18
6837.36068 8.48808e-18
6838.82287 8.83925e-18
6840.29508 8.56176e-18
6841.76728 8.43744e-18
6843.23949 8.87178e-18
6844.71169 8.89146e-18
6846.17388 8.44687e-18
6847.64609 8.29201e-18
6849.11829 8.34351e-18
6850.59050 8.69241e-18
6852.05269 8.54710e-18
6853.52489 8.72651e-18
6854.99709 8.43763e-18
6856.46930 8.19378e-18
6857.94151 9.07259e-18
6859.40370 8.94969e-18
6860.87590 8.31967e-18
6862.34811 8.95051e-18
6863.82031 8.93424e-18
6865.28250 8.19647e-18
6866.75471 8.71362e-18
6868.22691 8.81678e-18
6869.69912 8.46562e-18
6871.16131 8.01144e-18
6872.63351 8.52234e-18
6874.10572 8.68585e-18
6875.57792 7.96176e-18
6877.05013 8.33218e-18
6878.51232 8.63194e-18
6879.98452 8.62900e-18
6881.45673 7.99277e-18
6882.92893 8.68675e-18
6884.39112 8.32935e-18
6885.86333 8.22931e-18
6887.33553 8.53197e-18
6888.80774 8.40623e-18
6890.27994 8.53201e-18
6891.74213 8.85099e-18
6893.21434 8.99444e-18
6894.68654 9.07043e-18
6896.15875 8.75780e-18
6897.62093 8.72261e-18
6899.09314 8.72004e-18
6900.56534 8.72303e-18
6902.03755 8.79454e-18
6903.49974 8.86451e-18
6904.97195 9.12019e-18
6906.44415 9.29311e-18
6907.91636 9.41398e-18
6909.38856 9.02655e-18
6910.85075 8.56010e-18
6912.32296 8.87009e-18
6913.79516 9.60266e-18
6915.26737 9.19956e-18
6916.72955 9.13511e-18
6918.20176 8.79908e-18
6919.67397 9.52181e-18
6921.14617 9.25278e-18
6922.61838 8.69416e-18
6924.08057 9.19079e-18
6925.55277 9.24462e-18
6927.02498 9.24541e-18
6928.49718 9.76579e-18
6929.95937 9.11376e-18
6931.43158 9.42917e-18
6932.90378 1.00579e-17
6934.37599 9.26859e-18
6935.84819 9.58780e-18
6937.31038 9.45792e-18
6938.78259 9.40484e-18
6940.25479 8.97450e-18
6941.72699 9.44484e-18
6943.18919 9.81611e-18
6944.66139 9.25811e-18
6946.13360 9.07061e-18
6947.60580 9.27418e-18
6949.07801 9.36993e-18
6950.54020 9.52903e-18
6952.01240 9.59542e-18
6953.48461 9.57520e-18
6954.95681 9.41591e-18
6956.41900 9.16917e-18
6957.89121 9.14537e-18
6959.36341 9.15778e-18
6960.83561 9.28795e-18
6962.29781 9.71303e-18
6963.77001 1.03048e-17
6965.24222 9.77943e-18
6966.71442 9.18479e-18
6968.18663 9.59260e-18
6969.64882 9.88906e-18
6971.12102 9.72986e-18
6972.59322 9.45568e-18
6974.06543 9.54343e-18
6975.52762 9.96110e-18
6976.99983 9.46333e-18
6978.47203 9.63717e-18
6979.94423 1.02507e-17
6981.41644 9.97021e-18
6982.87863 9.41568e-18
6984.35084 8.81335e-18
6985.82304 8.83006e-18
6987.29525 9.20707e-18
6988.75744 9.79418e-18
6990.22964 9.84120e-18
6991.70184 9.83992e-18
6993.17405 9.83074e-18
6994.63624 9.17371e-18
6996.10845 9.37097e-18
6997.58065 9.29725e-18
6999.05285 9.09973e-18
7000.52506 8.73147e-18
7001.98725 8.81474e-18
7003.45946 9.41627e-18
7004.93166 9.35171e-18
7006.40387 9.72733e-18
7007.86606 9.54850e-18
7009.33826 9.60673e-18
7010.81047 9.64863e-18
7012.28267 9.23414e-18
7013.75488 9.08429e-18
7015.21707 8.72812e-18
7016.68927 9.19807e-18
7018.16147 9.37649e-18
7019.63368 9.17089e-18
7021.09587 8.63006e-18
7022.56808 8.57037e-18
7024.04028 8.68345e-18
7025.51249 8.53526e-18
7026.97468 8.74242e-18
7028.44688 8.76730e-18
7029.91909 9.10827e-18
7031.39129 8.59666e-18
7032.86350 8.58193e-18
7034.32569 8.85933e-18
7035.79789 9.25902e-18
7037.27009 9.38174e-18
7038.74230 9.48293e-18
7040.21451 8.76165e-18
7041.67670 8.43412e-18
7043.14890 8.77843e-18
7044.62111 8.76884e-18
7046.09331 8.45227e-18
7047.55550 8.33021e-18
7049.02771 9.15026e-18
7050.49991 9.14289e-18
7051.97212 8.46725e-18
7053.43431 8.75237e-18
7054.90651 9.04401e-18
7056.37872 9.07871e-18
7057.85092 9.32205e-18
7059.32313 9.34876e-18
7060.78532 8.70410e-18
7062.25752 9.15349e-18
7063.72973 9.69565e-18
7065.20193 9.69100e-18
7066.66412 9.04550e-18
7068.13633 9.21673e-18
7069.60853 9.25978e-18
7071.08074 8.66915e-18
7072.55294 8.48160e-18
7074.01513 8.36137e-18
7075.48734 8.44800e-18
7076.95954 8.55835e-18
7078.43175 9.05934e-18
7079.89394 8.81525e-18
7081.36614 8.47778e-18
7082.83835 9.00417e-18
7084.31055 9.58836e-18
7085.77274 9.46937e-18
7087.24495 9.24878e-18
7088.71715 8.79432e-18
7090.18936 9.32081e-18
7091.66156 9.23090e-18
7093.12375 9.12484e-18
7094.59596 9.00777e-18
7096.06816 8.78371e-18
7097.54036 9.28180e-18
7099.00256 9.25750e-18
7100.47476 9.11896e-18
7101.94697 8.38157e-18
7103.41917 8.76019e-18
7104.89138 9.01960e-18
7106.35357 9.22443e-18
7107.82577 9.34179e-18
7109.29798 9.55185e-18
7110.77018 9.42447e-18
7112.23237 9.83064e-18
7113.70458 8.92825e-18
7115.17678 8.55882e-18
7116.64898 8.99622e-18
7118.11118 9.01980e-18
7119.58338 9.33221e-18
7121.05559 9.21094e-18
7122.52779 9.24699e-18
7124.00000 9.26485e-18
7125.46219 9.30131e-18
7126.93439 8.67138e-18
7128.40660 8.90301e-18
7129.87880 9.60356e-18
7131.34099 9.43355e-18
7132.81320 9.10614e-18
7134.28540 9.18360e-18
7135.75760 9.73147e-18
7137.22981 9.46793e-18
7138.69200 9.46508e-18
7140.16421 9.65335e-18
7141.63641 9.80740e-18
7143.10862 9.41667e-18
7144.57081 9.49491e-18
7146.04301 9.92448e-18
7147.51522 9.75412e-18
7148.98742 9.79729e-18
7150.45963 9.63552e-18
7151.92182 9.26249e-18
7153.39402 9.53004e-18
7154.86622 9.37386e-18
7156.33843 8.44552e-18
7157.80062 9.45044e-18
7159.27283 9.78166e-18
7160.74503 9.59947e-18
7162.21724 9.55501e-18
7163.68944 1.00167e-17
7165.15163 9.63640e-18
7166.62384 9.10320e-18
7168.09604 9.41306e-18
7169.56825 9.93272e-18
7171.03044 9.46713e-18
7172.50264 9.50153e-18
7173.97484 9.93585e-18
7175.44705 9.66710e-18
7176.90924 9.67684e-18
7178.38145 1.01315e-17
7179.85365 1.03757e-17
7181.32586 9.86374e-18
7182.79806 9.98661e-18
7184.26025 1.02412e-17
7185.73246 1.03130e-17
7187.20466 1.01402e-17
7188.67687 1.03546e-17
7190.13906 1.00890e-17
7191.61126 9.76230e-18
7193.08347 1.01622e-17
7194.55567 1.04334e-17
7196.02788 9.57982e-18
7197.49007 1.01985e-17
7198.96227 1.06299e-17
7200.43448 1.02607e-17
7201.90668 1.04814e-17
7203.36887 1.05819e-17
7204.84108 1.01730e-17
7206.31328 1.00783e-17
7207.78549 1.04561e-17
7209.24768 1.04434e-17
7210.71988 1.02352e-17
7212.19209 1.01252e-17
7213.66429 9.77016e-18
7215.13650 9.99920e-18
7216.59868 1.04841e-17
7218.07089 1.03337e-17
7219.54309 1.02752e-17
7221.01530 1.01343e-17
7222.47749 1.00354e-17
7223.94970 1.01494e-17
7225.42190 1.03062e-17
7226.89411 1.06963e-17
7228.36631 1.04493e-17
7229.82850 1.04086e-17
7231.30071 1.08910e-17
7232.77291 1.06114e-17
7234.24512 1.03495e-17
7235.70730 1.08855e-17
7237.17951 1.12126e-17
7238.65172 1.05444e-17
7240.12392 1.03028e-17
7241.59613 1.10451e-17
7243.05832 1.06676e-17
7244.53052 1.05767e-17
7246.00273 1.07517e-17
7247.47493 1.04869e-17
7248.93712 1.08592e-17
7250.40933 1.08065e-17
7251.88153 1.13289e-17
7253.35374 1.08313e-17
7254.81592 1.01739e-17
7256.28813 1.07976e-17
7257.76034 1.07977e-17
7259.23254 1.07387e-17
7260.70475 1.02551e-17
7262.16694 9.84820e-18
7263.63914 1.05966e-17
7265.11135 1.12662e-17
7266.58355 1.05568e-17
7268.04574 1.00567e-17
7269.51795 1.07395e-17
7270.99015 1.14101e-17
7272.46236 1.10740e-17
7273.93456 1.05589e-17
7275.39675 1.05816e-17
7276.86896 1.05565e-17
7278.34116 1.05704e-17
7279.81336 1.08876e-17
7281.27556 1.11287e-17
7282.74776 1.09621e-17
7284.21997 1.11269e-17
7285.69217 1.10886e-17
7287.16438 1.04415e-17
7288.62657 1.03118e-17
7290.09877 1.03715e-17
7291.57097 1.06814e-17
7293.04318 1.09592e-17
7294.50537 1.10890e-17
7295.97758 1.04753e-17
7297.44978 9.91656e-18
7298.92198 1.05745e-17
7300.38418 1.08366e-17
7301.85638 1.06984e-17
7303.32859 1.05838e-17
7304.80079 1.09002e-17
7306.27300 1.13419e-17
7307.73519 1.11895e-17
7309.20739 1.06347e-17
7310.67959 1.01770e-17
7312.15180 9.88441e-18
7313.61399 1.01791e-17
7315.08620 1.02691e-17
7316.55840 1.03742e-17
7318.03060 1.04656e-17
7319.50281 1.02097e-17
7320.96500 9.80015e-18
7322.43721 1.02595e-17
7323.90941 1.07367e-17
7325.38162 1.00762e-17
7326.84381 9.50138e-18
7328.31601 9.42483e-18
7329.78822 9.57173e-18
7331.26042 9.77378e-18
7332.73263 1.01500e-17
7334.19482 1.01865e-17
7335.66702 1.00909e-17
7337.13922 9.78645e-18
7338.61143 9.65499e-18
7340.07362 1.01472e-17
7341.54583 1.01586e-17
7343.01803 9.79250e-18
7344.49024 1.00180e-17
7345.95243 1.03502e-17
7347.42463 1.02779e-17
7348.89684 9.90356e-18
7350.36904 9.69229e-18
7351.84125 1.00840e-17
7353.30344 1.00410e-17
7354.77564 1.00472e-17
7356.24784 9.92288e-18
7357.72005 9.72733e-18
7359.18224 1.00727e-17
7360.65445 1.02295e-17
7362.12665 9.62454e-18
7363.59886 9.20698e-18
7365.07106 9.62585e-18
7366.53325 9.21612e-18
7368.00546 9.03503e-18
7369.47766 9.37676e-18
7370.94987 8.73008e-18
7372.41206 8.92542e-18
7373.88426 9.32669e-18
7375.35647 8.92451e-18
7376.82867 9.40413e-18
7378.29086 9.62687e-18
7379.76307 9.02138e-18
7381.23527 8.95399e-18
7382.70748 9.61269e-18
7384.17968 1.00719e-17
7385.64187 9.87285e-18
7387.11408 1.02190e-17
7388.58628 1.06769e-17
7390.05849 1.01778e-17
7391.52068 9.77276e-18
7392.99288 9.80910e-18
7394.46509 9.76177e-18
7395.93729 9.74579e-18
7397.40950 9.77399e-18
7398.87169 1.01549e-17
7400.34389 9.99179e-18
7401.81610 9.40450e-18
7403.28830 9.49812e-18
7404.75049 9.65585e-18
7406.22270 9.54452e-18
7407.69490 9.52197e-18
7409.16711 9.15447e-18
7410.63931 9.22114e-18
7412.10150 9.46063e-18
7413.57371 9.06122e-18
7415.04591 9.33687e-18
7416.51811 9.94717e-18
7417.98031 9.77545e-18
7419.45251 9.65374e-18
7420.92472 9.87010e-18
7422.39692 9.77757e-18
7423.86913 9.73469e-18
7425.33132 9.49570e-18
7426.80352 9.42548e-18
7428.27573 9.65484e-18
7429.74793 9.75783e-18
7431.21012 9.30661e-18
7432.68233 9.06955e-18
7434.15453 8.69195e-18
7435.62673 9.12241e-18
7437.08893 9.75779e-18
7438.56113 8.86863e-18
7440.03334 8.56300e-18
7441.50554 8.80390e-18
7442.97775 8.93887e-18
7444.43994 8.83522e-18
7445.91214 8.85043e-18
7447.38435 9.07820e-18
7448.85655 9.22499e-18
7450.31874 9.08033e-18
7451.79095 9.09020e-18
7453.26315 9.36929e-18
7454.73535 8.92116e-18
7456.20756 8.56087e-18
7457.66975 8.78503e-18
7459.14196 8.81787e-18
7460.61416 8.87883e-18
7462.08637 8.83630e-18
7463.54856 8.65499e-18
7465.02076 8.97418e-18
7466.49297 8.90199e-18
7467.96517 8.78590e-18
7469.42736 8.68463e-18
7470.89957 8.50973e-18
7472.37177 8.80243e-18
7473.84397 8.95657e-18
7475.31618 9.30315e-18
7476.77837 9.34322e-18
7478.25058 9.06623e-18
7479.72278 8.97273e-18
7481.19499 8.53840e-18
7482.65718 7.96385e-18
7484.12938 7.74119e-18
7485.60159 8.37717e-18
7487.07379 8.65743e-18
7488.54600 8.42599e-18
7490.00819 8.19606e-18
7491.48039 8.26881e-18
7492.95259 8.67477e-18
7494.42480 8.74958e-18
7495.88699 8.98441e-18
7497.35920 8.94898e-18
7498.83140 7.99960e-18
7500.30361 7.84079e-18
7501.76580 8.56756e-18
7503.23800 8.83039e-18
7504.71021 8.25269e-18
7506.18241 7.93265e-18
7507.65462 8.07851e-18
7509.11681 8.11508e-18
7510.58901 8.05807e-18
7512.06122 7.95825e-18
7513.53342 7.95100e-18
7514.99561 8.05423e-18
7516.46782 8.04205e-18
7517.94002 7.86050e-18
7519.41223 8.29048e-18
7520.88443 8.53696e-18
7522.34662 8.30045e-18
7523.81883 8.14024e-18
7525.29103 8.54947e-18
7526.76324 8.57399e-18
7528.22543 8.32198e-18
7529.69763 8.12277e-18
7531.16984 8.15429e-18
7532.64204 8.32359e-18
7534.11425 8.13379e-18
7535.57643 8.09741e-18
7537.04864 8.17052e-18
7538.52085 7.96185e-18
7539.99305 7.65292e-18
7541.45524 7.98506e-18
7542.92745 7.98884e-18
7544.39965 8.15711e-18
7545.87186 8.27709e-18
7547.34406 7.49824e-18
7548.80625 7.52387e-18
7550.27846 7.18111e-18
7551.75066 7.20064e-18
7553.22287 7.93194e-18
7554.68505 8.09239e-18
7556.15726 7.62063e-18
7557.62947 7.00882e-18
7559.10167 6.67683e-18
7560.56386 6.60141e-18
7562.03607 7.41214e-18
7563.50827 7.86314e-18
7564.98048 7.36312e-18
7566.45268 7.13459e-18
7567.91487 7.36731e-18
7569.38708 7.03919e-18
7570.85928 7.41341e-18
7572.33149 7.35286e-18
7573.79367 7.12772e-18
7575.26588 7.29714e-18
7576.73809 7.28401e-18
7578.21029 7.43671e-18
7579.68250 7.99920e-18
7581.14469 7.48706e-18
7582.61689 6.60066e-18
7584.08910 6.98798e-18
7585.56130 7.45541e-18
7587.02349 7.30634e-18
7588.49570 7.33690e-18
7589.96790 7.47692e-18
7591.44011 7.16822e-18
7592.90229 7.22432e-18
7594.37450 6.96043e-18
7595.84671 7.02795e-18
7597.31891 7.26765e-18
7598.79111 7.11109e-18
7600.25331 7.19704e-18
7601.72551 6.85250e-18
7603.19772 6.66227e-18
7604.66992 6.43815e-18
7606.13211 5.96016e-18
7607.60432 6.65289e-18
7609.07652 7.49739e-18
7610.54872 7.76084e-18
7612.02093 8.03409e-18
7613.48312 7.70216e-18
7614.95533 7.82293e-18
7616.42753 7.05643e-18
7617.89973 6.94872e-18
7619.36193 6.78934e-18
7620.83413 6.59052e-18
7622.30634 6.81832e-18
7623.77854 7.51127e-18
7625.24073 7.36623e-18
7626.71294 7.10361e-18
7628.18514 6.81949e-18
7629.65734 7.31766e-18
7631.12955 7.09156e-18
7632.59174 6.49453e-18
7633.10426 6.49453e-18
7633.96572 6.59477e-18
7634.82718 6.69499e-18
7635.68864 6.78854e-18
7636.55010 6.88207e-18
7637.41157 6.95051e-18
7638.27303 7.01889e-18
7639.13449 7.05290e-18
7639.99595 7.08685e-18
7640.85741 7.11879e-18
7641.71888 7.15071e-18
7642.59035 7.21263e-18
7643.45182 7.27458e-18
7644.31328 7.38016e-18
7645.17474 7.48580e-18
7646.03620 7.64085e-18
7646.89766 7.79599e-18
7647.75913 7.95868e-18
7648.62059 8.12137e-18
7649.48205 8.23894e-18
7650.34351 8.35641e-18
7651.20497 8.41764e-18
7652.06644 8.47876e-18
7652.93792 8.48950e-18
7653.79938 8.50013e-18
7654.66084 8.50084e-18
7655.52230 8.50154e-18
7656.38376 8.55471e-18
7657.24523 8.60800e-18
7658.10669 8.72374e-18
7658.96815 8.83960e-18
7659.82961 8.98359e-18
7660.69107 9.12764e-18
7661.55254 9.27073e-18
7662.42401 9.41380e-18
7663.28548 9.52955e-18
7664.14694 9.64525e-18
7665.00840 9.73208e-18
7665.86986 9.81886e-18
7666.73132 9.92691e-18
7667.59279 1.00350e-17
7668.45425 1.01875e-17
7669.31571 1.03402e-17
7670.17717 1.04897e-17
7671.03863 1.06391e-17
7671.91011 1.07473e-17
7672.77158 1.08553e-17
7673.63304 1.09150e-17
7674.49450 1.09745e-17
7675.35596 1.09885e-17
7676.21742 1.10023e-17
7677.07889 1.10271e-17
7677.94035 1.10518e-17
7678.80181 1.11438e-17
7679.66327 1.12360e-17
7680.52473 1.13621e-17
7681.38620 1.14881e-17
7682.25767 1.15953e-17
7683.11914 1.17027e-17
7683.98060 1.17911e-17
7684.84206 1.18795e-17
7685.70352 1.19639e-17
7686.56498 1.20483e-17
7687.42645 1.21322e-17
7688.28791 1.22160e-17
7689.14937 1.23005e-17
7690.01083 1.23850e-17
7690.88231 1.24620e-17
7691.74377 1.25391e-17
7692.60524 1.25925e-17
7693.46670 1.26460e-17
7694.32816 1.26796e-17
7695.18962 1.27133e-17
7696.05108 1.27522e-17
7696.91255 1.27910e-17
7697.77401 1.28445e-17
7698.63547 1.28979e-17
7699.49693 1.29533e-17
7700.35839 1.30085e-17
7701.22987 1.30552e-17
7702.09133 1.31019e-17
7702.95280 1.31337e-17
7703.81426 1.31653e-17
7704.67572 1.31777e-17
7705.53718 1.31898e-17
7706.39864 1.31837e-17
7707.26011 1.31774e-17
7708.12157 1.31583e-17
7708.98303 1.31391e-17
7709.84449 1.31292e-17
7710.71597 1.31193e-17
7711.57743 1.31385e-17
7712.43890 1.31577e-17
7713.30036 1.32013e-17
7714.16182 1.32449e-17
7715.02328 1.33020e-17
7715.88474 1.33590e-17
7716.74620 1.34121e-17
7717.60767 1.34652e-17
7718.46913 1.34953e-17
7719.33059 1.35255e-17
7720.20207 1.35313e-17
7721.06353 1.35371e-17
7721.92499 1.35256e-17
7722.78646 1.35141e-17
7723.64792 1.34970e-17
7724.50938 1.34800e-17
7725.37084 1.34733e-17
7726.23230 1.34665e-17
7727.09377 1.34753e-17
7727.95523 1.34842e-17
7728.81669 1.35033e-17
7729.67815 1.35224e-17
7730.54963 1.35507e-17
7731.41109 1.35791e-17
7732.27255 1.36225e-17
7733.13402 1.36658e-17
7733.99548 1.37174e-17
7734.85694 1.37688e-17
7735.71840 1.38007e-17
7736.57986 1.38325e-17
7737.44133 1.38288e-17
7738.30279 1.38251e-17
7739.17427 1.37972e-17
7740.03573 1.37694e-17
7740.89719 1.37322e-17
7741.75865 1.36950e-17
7742.62012 1.36707e-17
7743.48158 1.36463e-17
7744.34304 1.36528e-17
7745.20450 1.36592e-17
7746.06596 1.36843e-17
7746.92743 1.37094e-17
7747.78889 1.37363e-17
7748.65035 1.37632e-17
7749.52183 1.37860e-17
7750.38329 1.38087e-17
7751.24475 1.38228e-17
7752.10621 1.38370e-17
7752.96768 1.38427e-17
7753.82914 1.38484e-17
7754.69060 1.38487e-17
7755.55206 1.38489e-17
7756.41352 1.38400e-17
7757.27499 1.38310e-17
7758.13645 1.38054e-17
7759.00793 1.37799e-17
7759.86939 1.37450e-17
7760.73085 1.37101e-17
7761.59231 1.36835e-17
7762.45378 1.36569e-17
7763.31524 1.36428e-17
7764.17670 1.36286e-17
7765.03816 1.36178e-17
7765.89962 1.36070e-17
7766.76109 1.35924e-17
7767.62255 1.35778e-17
7768.49403 1.35541e-17
7769.35549 1.35303e-17
7770.21695 1.34970e-17
7771.07841 1.34637e-17
7771.93988 1.34321e-17
7772.80134 1.34007e-17
7773.66280 1.33793e-17
7774.52426 1.33579e-17
7775.38572 1.33422e-17
7776.24719 1.33266e-17
7777.10865 1.33133e-17
7777.98013 1.33001e-17
7778.84159 1.32911e-17
7779.70305 1.32821e-17
7780.56451 1.32792e-17
7781.42597 1.32763e-17
7782.28744 1.32791e-17
7783.14890 1.32818e-17
7784.01036 1.32890e-17
7784.87182 1.32962e-17
7785.73328 1.33069e-17
7786.59475 1.33176e-17
7787.46623 1.33306e-17
7788.32769 1.33436e-17
7789.18915 1.33551e-17
7790.05061 1.33666e-17
7790.91207 1.33724e-17
7791.77354 1.33781e-17
7792.63500 1.33760e-17
7793.49646 1.33739e-17
7794.35792 1.33632e-17
7795.21938 1.33524e-17
7796.08085 1.33381e-17
7796.94231 1.33238e-17
7797.81379 1.33150e-17
7798.67525 1.33063e-17
7799.53671 1.33100e-17
7800.39817 1.33138e-17
7801.25963 1.33346e-17
7802.12110 1.33554e-17
7802.98256 1.33897e-17
7803.84402 1.34242e-17
7804.70548 1.34547e-17
7805.56694 1.34853e-17
7806.42841 1.34995e-17
7807.29989 1.35136e-17
7808.16135 1.35129e-17
7809.02281 1.35122e-17
7809.88427 1.34989e-17
7810.74573 1.34856e-17
7811.60720 1.34625e-17
7812.46866 1.34393e-17
7813.33012 1.34105e-17
7814.19158 1.33817e-17
7815.05304 1.33525e-17
7815.91450 1.33233e-17
7816.78598 1.32985e-17
7817.64745 1.32737e-17
7818.50891 1.32593e-17
7819.37037 1.32449e-17
7820.23183 1.32455e-17
7821.09329 1.32463e-17
7821.95476 1.32512e-17
7822.81622 1.32563e-17
7823.67768 1.32496e-17
7824.53914 1.32428e-17
7825.40060 1.32222e-17
7826.27208 1.32016e-17
7827.13355 1.31721e-17
7827.99501 1.31428e-17
7828.85647 1.31086e-17
7829.71793 1.30745e-17
7830.57939 1.30398e-17
7831.44085 1.30050e-17
7832.30232 1.29724e-17
7833.16378 1.29398e-17
7834.02524 1.29093e-17
7834.88670 1.28788e-17
7835.75818 1.28533e-17
7836.61964 1.28278e-17
7837.48111 1.28152e-17
7838.34257 1.28026e-17
7839.20403 1.28050e-17
7840.06549 1.28074e-17
7840.92695 1.28158e-17
7841.78842 1.28243e-17
7842.64988 1.28311e-17
7843.51134 1.28378e-17
7844.37280 1.28393e-17
7845.23426 1.28409e-17
7846.10574 1.28351e-17
7846.96720 1.28294e-17
7847.82867 1.28192e-17
7848.69013 1.28090e-17
7849.55159 1.27981e-17
7850.41305 1.27872e-17
7851.27452 1.27779e-17
7852.13598 1.27685e-17
7852.99744 1.27622e-17
7853.85890 1.27560e-17
7854.72036 1.27541e-17
7855.59184 1.27522e-17
7856.45330 1.27553e-17
7857.31477 1.27584e-17
7858.17623 1.27617e-17
7859.03769 1.27650e-17
7859.89915 1.27608e-17
7860.76061 1.27565e-17
7861.62208 1.27453e-17
7862.48354 1.27341e-17
7863.34500 1.27221e-17
7864.20646 1.27101e-17
7865.07794 1.26942e-17
7865.93940 1.26783e-17
7866.80087 1.26478e-17
7867.66233 1.26174e-17
7868.52379 1.25713e-17
7869.38525 1.25254e-17
7870.24671 1.24725e-17
7871.10818 1.24196e-17
7871.96964 1.23721e-17
7872.83110 1.23246e-17
7873.69256 1.23024e-17
7874.56404 1.22803e-17
7875.42550 1.22912e-17
7876.28696 1.23023e-17
7877.14843 1.23239e-17
7878.00989 1.23455e-17
7878.87135 1.23570e-17
7879.73281 1.23686e-17
7880.59427 1.23639e-17
7881.45574 1.23591e-17
7882.31720 1.23347e-17
7883.17866 1.23101e-17
7884.05014 1.22745e-17
7884.91160 1.22389e-17
7885.77306 1.22030e-17
7886.63453 1.21672e-17
7887.49599 1.21303e-17
7888.35745 1.20932e-17
7889.21891 1.20526e-17
7890.08037 1.20119e-17
7890.94184 1.19698e-17
7891.80330 1.19277e-17
7892.66476 1.18867e-17
7893.52622 1.18459e-17
7894.39770 1.18167e-17
7895.25916 1.17876e-17
7896.12062 1.17851e-17
7896.98209 1.17824e-17
7897.84355 1.17980e-17
7898.70501 1.18135e-17
7899.56647 1.18226e-17
7900.42793 1.18317e-17
7901.28940 1.18236e-17
7902.15086 1.18156e-17
7903.01232 1.17930e-17
7903.88380 1.17704e-17
7904.74526 1.17402e-17
7905.60672 1.17101e-17
7906.46819 1.16881e-17
7907.32965 1.16662e-17
7908.19111 1.16585e-17
7909.05257 1.16509e-17
7909.91403 1.16400e-17
7910.77550 1.16291e-17
7911.63696 1.16044e-17
7912.49842 1.15798e-17
7913.36990 1.15539e-17
7914.23136 1.15280e-17
7915.09282 1.15115e-17
7915.95428 1.14949e-17
7916.81575 1.14885e-17
7917.67721 1.14820e-17
7918.53867 1.14842e-17
7919.40013 1.14865e-17
7920.26159 1.14818e-17
7921.12306 1.14773e-17
7921.98452 1.14502e-17
7922.85600 1.14229e-17
7923.71746 1.13829e-17
7924.57892 1.13429e-17
7925.44038 1.13068e-17
7926.30185 1.12706e-17
7927.16331 1.12481e-17
7928.02477 1.12257e-17
7928.88623 1.12234e-17
7929.74769 1.12213e-17
7930.60916 1.12353e-17
7931.47062 1.12493e-17
7932.34210 1.12679e-17
7933.20356 1.12867e-17
7934.06502 1.13001e-17
7934.92648 1.13136e-17
7935.78794 1.13136e-17
7936.64941 1.13137e-17
7937.51087 1.12961e-17
7938.37233 1.12784e-17
7939.23379 1.12441e-17
7940.09525 1.12097e-17
7940.95672 1.11636e-17
7941.81818 1.11176e-17
7942.68966 1.10713e-17
7943.55112 1.10250e-17
7944.41258 1.09875e-17
7945.27404 1.09500e-17
7946.13551 1.09229e-17
7946.99697 1.08958e-17
7947.85843 1.08790e-17
7948.71989 1.08620e-17
7949.58135 1.08523e-17
7950.44282 1.08426e-17
7951.30428 1.08356e-17
7952.17576 1.08286e-17
7953.03722 1.08150e-17
7953.89868 1.08015e-17
7954.76014 1.07733e-17
7955.62160 1.07451e-17
7956.48307 1.07141e-17
7957.34453 1.06830e-17
7958.20599 1.06643e-17
7959.06745 1.06458e-17
7959.92891 1.06407e-17
7960.79038 1.06356e-17
7961.66186 1.06408e-17
7962.52332 1.06459e-17
7963.38478 1.06532e-17
7964.24624 1.06605e-17
7965.10770 1.06583e-17
7965.96917 1.06560e-17
7966.83063 1.06509e-17
7967.69209 1.06457e-17
7968.55355 1.06570e-17
7969.41501 1.06685e-17
7970.27648 1.07008e-17
7971.14795 1.07332e-17
7972.00942 1.07767e-17
7972.87088 1.08202e-17
7973.73234 1.08618e-17
7974.59380 1.09035e-17
7975.45526 1.09243e-17
7976.31673 1.09451e-17
7977.17819 1.09368e-17
7978.03965 1.09285e-17
7978.90111 1.09068e-17
7979.76257 1.08851e-17
7980.63405 1.08635e-17
7981.49552 1.08420e-17
7982.35698 1.08239e-17
7983.21844 1.08058e-17
7984.07990 1.07933e-17
7984.94136 1.07808e-17
7985.80283 1.07694e-17
7986.66429 1.07581e-17
7987.52575 1.07429e-17
7988.38721 1.07277e-17
7989.24867 1.07107e-17
7990.11014 1.06938e-17
7990.98161 1.06776e-17
7991.84308 1.06614e-17
7992.70454 1.06509e-17
7993.56600 1.06404e-17
7994.42746 1.06414e-17
7995.28892 1.06424e-17
7996.15039 1.06435e-17
7997.01185 1.06445e-17
7997.87331 1.06276e-17
7998.73477 1.06107e-17
7999.59623 1.05779e-17
8000.46771 1.05451e-17
8001.32917 1.05103e-17
8002.19064 1.04754e-17
8003.05210 1.04488e-17
8003.91356 1.04222e-17
8004.77502 1.04126e-17
8005.63649 1.04030e-17
8006.49795 1.04082e-17
8007.35941 1.04134e-17
8008.22087 1.04153e-17
8009.08233 1.04172e-17
8009.95381 1.04100e-17
8010.81527 1.04028e-17
8011.67674 1.04037e-17
8012.53820 1.04046e-17
8013.39966 1.04220e-17
8014.26112 1.04394e-17
8015.12258 1.04611e-17
8015.98405 1.04828e-17
8016.84551 1.04974e-17
8017.70697 1.05118e-17
8018.56843 1.05073e-17
8019.43991 1.05028e-17
8020.30137 1.04721e-17
8021.16284 1.04414e-17
8022.02430 1.04039e-17
8022.88576 1.03664e-17
8023.74722 1.03437e-17
8024.60868 1.03211e-17
8025.47015 1.03125e-17
8026.33161 1.03039e-17
8027.19307 1.03038e-17
8028.05453 1.03036e-17
8028.92601 1.03047e-17
8029.78747 1.03058e-17
8030.64893 1.03000e-17
8031.51040 1.02943e-17
8032.37186 1.02824e-17
8033.23332 1.02705e-17
8034.09478 1.02583e-17
8034.95624 1.02462e-17
8035.81771 1.02373e-17
8036.67917 1.02284e-17
8037.54063 1.02251e-17
8038.41211 1.02218e-17
8039.27357 1.02248e-17
8040.13503 1.02278e-17
8040.99650 1.02362e-17
8041.85796 1.02446e-17
8042.71942 1.02556e-17
8043.58088 1.02665e-17
8044.44234 1.02751e-17
8045.30380 1.02838e-17
8046.16527 1.02863e-17
8047.02673 1.02888e-17
8047.88819 1.02836e-17
8048.75967 1.02783e-17
8049.62113 1.02662e-17
8050.48259 1.02541e-17
8051.34406 1.02440e-17
8052.20552 1.02340e-17
8053.06698 1.02327e-17
8053.92844 1.02315e-17
8054.78990 1.02339e-17
8055.65137 1.02364e-17
8056.51283 1.02361e-17
8057.37429 1.02358e-17
8058.24577 1.02252e-17
8059.10723 1.02145e-17
8059.96869 1.01871e-17
8060.83015 1.01596e-17
8061.69162 1.01205e-17
8062.55308 1.00815e-17
8063.41454 1.00399e-17
8064.27600 9.99832e-18
8065.13746 9.96440e-18
8065.99893 9.93050e-18
8066.86039 9.91424e-18
8067.73187 9.89803e-18
8068.59333 9.90002e-18
8069.45479 9.90204e-18
8070.31625 9.91691e-18
8071.17772 9.93181e-18
8072.03918 9.94890e-18
8072.90064 9.96599e-18
8073.76210 9.97008e-18
8074.62356 9.97412e-18
8075.48503 9.95959e-18
8076.34649 9.94500e-18
8077.21797 9.91910e-18
8078.07943 9.89318e-18
8078.94089 9.86046e-18
8079.80235 9.82772e-18
8080.66381 9.78732e-18
8081.52528 9.74690e-18
8082.38674 9.69947e-18
8083.24820 9.65199e-18
8084.10966 9.59950e-18
8084.97113 9.54700e-18
8085.83259 9.49184e-18
8086.70407 9.43665e-18
8087.56553 9.38228e-18
8088.42699 9.32793e-18
8089.28845 9.27766e-18
8090.14991 9.22741e-18
8091.01138 9.18420e-18
8091.87284 9.14102e-18
8092.73430 9.10646e-18
8093.59576 9.07192e-18
8094.45722 9.04533e-18
8095.31869 9.01877e-18
8096.18015 8.99803e-18
8097.05163 8.97731e-18
8097.91309 8.95086e-18
8098.77455 8.92441e-18
8099.63601 8.87857e-18
8100.49748 8.83268e-18
8101.35894 8.76311e-18
8102.22040 8.69347e-18
8103.08186 8.60106e-18
8103.94332 8.50859e-18
8104.80479 8.40452e-18
8105.67626 8.30043e-18
8106.53773 8.20286e-18
8107.39919 8.10532e-18
8108.26065 8.02557e-18
8109.12211 7.94587e-18
8109.98357 7.88778e-18
8110.84504 7.82975e-18
8111.70650 7.78824e-18
8112.56796 7.74675e-18
8113.42942 7.70401e-18
8114.29088 7.66127e-18
8115.15235 7.60293e-18
8116.02383 7.54456e-18
8116.88529 7.46450e-18
8117.74675 7.38439e-18
8118.60821 7.28147e-18
8119.46967 7.17849e-18
8120.33114 7.06754e-18
8121.19260 6.95658e-18
8122.05406 6.84949e-18
8122.91552 6.74241e-18
8123.77698 6.62593e-18
8124.63845 6.50943e-18
8125.49991 6.37127e-18
8126.37139 6.23307e-18
8127.23285 6.07982e-18
8128.09431 5.92654e-18
8128.95577 5.76789e-18
8129.81723 5.60923e-18
8130.67870 5.46375e-18
8131.54016 5.31830e-18
8132.40162 5.20596e-18
8133.26308 5.09371e-18
8134.12454 5.00379e-18
8134.99602 4.91393e-18
8135.85749 4.82240e-18
8136.71895 4.73087e-18
8137.58041 4.62861e-18
8138.44187 4.52633e-18
8139.30333 4.41301e-18
8140.16480 4.29965e-18
8141.02626 4.17815e-18
8141.88772 4.05663e-18
8142.74918 3.93373e-18
8143.61064 3.81081e-18
8144.47210 3.69319e-18
8145.34358 3.57558e-18
8146.20505 3.46861e-18
8147.06651 3.36167e-18
8147.92797 3.26912e-18
8148.78943 3.17661e-18
8149.65089 3.09966e-18
8150.51236 3.02276e-18
8151.37382 2.95951e-18
8152.23528 2.89631e-18
8153.09674 2.83843e-18
8153.95820 2.78057e-18
8154.82968 2.72131e-18
8155.69115 2.66207e-18
8156.55261 2.60208e-18
8157.41407 2.54209e-18
8158.27553 2.48342e-18
8159.13699 2.42476e-18
8159.99845 2.37239e-18
8160.85992 2.32004e-18
8161.72138 2.27889e-18
8162.58284 2.23776e-18
8163.44430 2.20931e-18
8164.31578 2.18089e-18
8165.17724 2.16488e-18
8166.03871 2.14889e-18
8166.90017 2.13770e-18
8167.76163 2.12651e-18
8168.62309 2.11089e-18
8169.48455 2.09526e-18
8170.34602 2.06748e-18
8171.20748 2.03968e-18
8172.06894 1.99245e-18
8172.93040 1.94516e-18
8173.80188 1.89093e-18
8174.66334 1.83669e-18
8175.52481 1.80244e-18
8176.38627 1.76823e-18
8177.24773 1.75994e-18
8178.10919 1.75172e-18
8178.97065 1.75377e-18
8179.83212 1.75584e-18
8180.69358 1.75634e-18
8181.55504 1.75684e-18
8182.41650 1.74829e-18
8183.28798 1.73974e-18
8184.14944 1.71943e-18
8185.01090 1.69910e-18
8185.87237 1.67710e-18
8186.73383 1.65510e-18
8187.59529 1.63863e-18
8188.45675 1.62217e-18
8189.31821 1.60566e-18
8190.17968 1.58914e-18
8191.04114 1.56869e-18
8191.90260 1.54823e-18
8192.77408 1.52858e-18
8193.63554 1.50894e-18
8194.49700 1.49492e-18
8195.35846 1.48091e-18
8196.21993 1.47681e-18
8197.08139 1.47274e-18
8197.94285 1.48181e-18
8198.80431 1.49091e-18
8199.66577 1.50537e-18
8200.52724 1.51985e-18
8201.38870 1.52883e-18
8202.25016 1.53780e-18
8203.12164 1.53917e-18
8203.98310 1.54054e-18
8204.84456 1.53608e-18
8205.70603 1.53161e-18
8206.56749 1.52222e-18
8207.42895 1.51280e-18
8208.29041 1.49923e-18
8209.15187 1.48564e-18
8210.01334 1.47009e-18
8210.87480 1.45453e-18
8211.73626 1.43987e-18
8212.60774 1.42521e-18
8213.46920 1.41265e-18
8214.33066 1.40011e-18
8215.19212 1.38944e-18
8216.05359 1.37879e-18
8216.91505 1.36664e-18
8217.77651 1.35450e-18
8218.63797 1.33149e-18
8219.49943 1.30845e-18
8220.36090 1.27097e-18
8221.22236 1.23347e-18
8222.08382 1.19113e-18
8222.95530 1.14879e-18
8223.81676 1.11231e-18
8224.67822 1.07584e-18
8225.53969 1.05864e-18
8226.40115 1.04150e-18
8227.26261 1.05328e-18
8228.12407 1.06513e-18
8228.98553 1.09687e-18
8229.84700 1.12864e-18
8230.70846 1.16778e-18
8231.57994 1.20694e-18
8232.44140 1.24129e-18
8233.30286 1.27564e-18
8234.16432 1.29389e-18
8235.02578 1.31210e-18
8235.88725 1.31800e-18
8236.74871 1.32385e-18
8237.61017 1.32684e-18
8238.47163 1.32983e-18
8239.33309 1.33649e-18
8240.19456 1.34316e-18
8241.06604 1.35898e-18
8241.92750 1.37482e-18
8242.78896 1.39659e-18
8243.65042 1.41837e-18
8244.51188 1.43620e-18
8245.37335 1.45404e-18
8246.23481 1.46308e-18
8247.09627 1.47210e-18
8247.95773 1.47289e-18
8248.81919 1.47367e-18
8249.68066 1.46819e-18
8250.54212 1.46271e-18
8251.41360 1.45536e-18
8252.27506 1.44800e-18
8253.13652 1.44287e-18
8253.99798 1.43776e-18
8254.85945 1.43735e-18
8255.72091 1.43696e-18
8256.58237 1.44266e-18
8257.44383 1.44839e-18
8258.30529 1.45925e-18
8259.16676 1.47011e-18
8260.02822 1.48402e-18
8260.89970 1.49795e-18
8261.76116 1.51107e-18
8262.62262 1.52420e-18
8263.48408 1.53274e-18
8264.34554 1.54128e-18
8265.20701 1.54184e-18
8266.06847 1.54238e-18
8266.92993 1.53271e-18
8267.79139 1.52302e-18
8268.65285 1.50827e-18
8269.52433 1.49350e-18
8270.38580 1.48080e-18
8271.24726 1.46812e-18
8272.10872 1.46227e-18
8272.97018 1.45645e-18
8273.83164 1.46117e-18
8274.69311 1.46592e-18
8275.55457 1.47750e-18
8276.41603 1.48909e-18
8277.27749 1.49917e-18
8278.13895 1.50924e-18
8279.01043 1.51440e-18
8279.87189 1.51956e-18
8280.73336 1.52062e-18
8281.59482 1.52167e-18
8282.45628 1.52115e-18
8283.31774 1.52062e-18
8284.17920 1.52380e-18
8285.04067 1.52698e-18
8285.90213 1.53587e-18
8286.76359 1.54476e-18
8287.62505 1.55458e-18
8288.48651 1.56439e-18
8289.34798 1.57260e-18
8290.21946 1.58080e-18
8291.08092 1.59121e-18
8291.94238 1.60162e-18
8292.80384 1.61641e-18
8293.66530 1.63120e-18
8294.52677 1.64652e-18
8295.38823 1.66184e-18
8296.24969 1.67410e-18
8297.11115 1.68636e-18
8297.97261 1.69326e-18
8298.83408 1.70016e-18
8299.70555 1.70034e-18
8300.56702 1.70050e-18
8301.42848 1.70207e-18
8302.28994 1.70365e-18
8303.15140 1.71624e-18
8304.01286 1.72885e-18
8304.87433 1.74876e-18
8305.73579 1.76867e-18
8306.59725 1.78788e-18
8307.45871 1.80709e-18
8308.32017 1.82075e-18
8309.18164 1.83438e-18
8310.05312 1.83894e-18
8310.91458 1.84347e-18
8311.77604 1.84271e-18
8312.63750 1.84192e-18
8313.49896 1.84503e-18
8314.36043 1.84813e-18
8315.22189 1.86025e-18
8316.08335 1.87241e-18
8316.94481 1.89459e-18
8317.80627 1.91681e-18
8318.67775 1.94644e-18
8319.53921 1.97609e-18
8320.40068 2.00491e-18
8321.26214 2.03373e-18
8322.12360 2.05585e-18
8322.98506 2.07795e-18
8323.84652 2.09329e-18
8324.70799 2.10861e-18
8325.56945 2.11793e-18
8326.43091 2.12725e-18
8327.29237 2.13285e-18
8328.16385 2.13845e-18
8329.02531 2.14320e-18
8329.88678 2.14795e-18
8330.74824 2.15347e-18
8331.60970 2.15901e-18
8332.47116 2.16694e-18
8333.33262 2.17489e-18
8334.19408 2.18920e-18
8335.05555 2.20354e-18
8335.91701 2.22756e-18
8336.77847 2.25159e-18
8337.64995 2.28272e-18
8338.51141 2.31386e-18
8339.37287 2.34766e-18
8340.23434 2.38147e-18
8341.09580 2.41185e-18
8341.95726 2.44222e-18
8342.81872 2.46258e-18
8343.68018 2.48292e-18
8344.54165 2.49341e-18
8345.40311 2.50388e-18
8346.26457 2.50912e-18
8347.12603 2.51434e-18
8347.99751 2.51809e-18
8348.85897 2.52185e-18
8349.72043 2.52692e-18
8350.58190 2.53199e-18
8351.44336 2.54166e-18
8352.30482 2.55134e-18
8353.16628 2.56904e-18
8354.02775 2.58677e-18
8354.88921 2.61292e-18
8355.75067 2.63910e-18
8356.62215 2.66943e-18
8357.48361 2.69977e-18
8358.34507 2.73002e-18
8359.20653 2.76026e-18
8360.06800 2.78671e-18
8360.92946 2.81314e-18
8361.79092 2.83356e-18
8362.65238 2.85396e-18
8363.51384 2.87221e-18
8364.37531 2.89044e-18
8365.23677 2.91028e-18
8366.10825 2.93014e-18
8366.96971 2.94911e-18
8367.83117 2.96809e-18
8368.69263 2.98359e-18
8369.55410 2.99909e-18
8370.41556 3.01364e-18
8371.27702 3.02820e-18
8372.13848 3.04529e-18
8372.99994 3.06239e-18
8373.86140 3.08390e-18
8374.72287 3.10544e-18
8375.59435 3.13261e-18
8376.45581 3.15980e-18
8377.31727 3.19238e-18
8378.17873 3.22496e-18
8379.04019 3.26167e-18
8379.90166 3.29839e-18
8380.76312 3.33725e-18
8381.62458 3.37610e-18
8382.48604 3.41471e-18
8383.34750 3.45333e-18
8384.20897 3.48977e-18
8385.07043 3.52619e-18
8385.94191 3.55863e-18
8386.80337 3.59108e-18
8387.66483 3.62061e-18
8388.52629 3.65014e-18
8389.38775 3.68250e-18
8390.24922 3.71487e-18
8391.11068 3.75167e-18
8391.97214 3.78847e-18
8392.83360 3.82230e-18
8393.69507 3.85613e-18
8394.55653 3.88169e-18
8395.41799 3.90724e-18
8396.28947 3.92440e-18
8397.15093 3.94153e-18
8398.01239 3.95242e-18
8398.87385 3.96328e-18
8399.73532 3.97993e-18
8400.59678 3.99658e-18
8401.45824 4.02996e-18
8402.31970 4.06338e-18
8403.18116 4.10995e-18
8404.04263 4.15654e-18
8404.90409 4.20959e-18
8405.77557 4.26264e-18
8406.63703 4.31474e-18
8407.49849 4.36683e-18
8408.35995 4.41030e-18
8409.22142 4.45374e-18
8410.08288 4.48862e-18
8410.94434 4.52348e-18
8411.80580 4.55368e-18
8412.66726 4.58387e-18
8413.52873 4.61210e-18
8414.39019 4.64032e-18
8415.26167 4.66877e-18
8416.12313 4.69722e-18
8416.98459 4.72820e-18
8417.84605 4.75920e-18
8418.70751 4.79464e-18
8419.56898 4.83008e-18
8420.43044 4.87071e-18
8421.29190 4.91135e-18
8422.15336 4.95700e-18
8423.01482 5.00267e-18
8423.87629 5.05091e-18
8424.74777 5.09918e-18
8425.60923 5.14336e-18
8426.47069 5.18753e-18
8427.33215 5.22492e-18
8428.19361 5.26230e-18
8429.05508 5.30045e-18
8429.91654 5.33859e-18
8430.77800 5.38362e-18
8431.63946 5.42867e-18
8432.50092 5.48125e-18
8433.36239 5.53385e-18
8434.23386 5.59301e-18
8435.09533 5.65217e-18
8435.95679 5.70807e-18
8436.81825 5.76397e-18
8437.67971 5.80694e-18
8438.54117 5.84989e-18
8439.40264 5.88559e-18
8440.26410 5.92126e-18
8441.12556 5.95887e-18
8441.98702 5.99647e-18
8442.84848 6.03870e-18
8443.70995 6.08095e-18
8444.58143 6.12843e-18
8445.44289 6.17593e-18
8446.30435 6.22917e-18
8447.16581 6.28242e-18
8448.02727 6.34126e-18
8448.88874 6.40011e-18
8449.75020 6.46273e-18
8450.61166 6.52535e-18
8451.47312 6.58909e-18
8452.33458 6.65282e-18
8453.20606 6.71461e-18
8454.06752 6.77639e-18
8454.92899 6.83253e-18
8455.79045 6.88865e-18
8456.65191 6.93995e-18
8457.51337 6.99123e-18
8458.37483 7.04564e-18
8459.23630 7.10005e-18
8460.09776 7.16093e-18
8460.95922 7.22183e-18
8461.82068 7.28234e-18
8462.69216 7.34286e-18
8463.55362 7.39817e-18
8464.41508 7.45347e-18
8465.27655 7.50394e-18
8466.13801 7.55440e-18
8466.99947 7.60206e-18
8467.86093 7.64971e-18
8468.72240 7.70468e-18
8469.58386 7.75966e-18
8470.44532 7.83088e-18
8471.30678 7.90213e-18
8472.16824 7.98407e-18
8473.03972 8.06604e-18
8473.90118 8.15066e-18
8474.76265 8.23527e-18
8475.62411 8.31647e-18
8476.48557 8.39766e-18
8477.34703 8.46957e-18
8478.20849 8.54146e-18
8479.06996 8.61102e-18
8479.93142 8.68057e-18
8480.79288 8.76043e-18
8481.65434 8.84031e-18
8482.51580 8.92764e-18
8483.38728 9.01498e-18
8484.24875 9.09800e-18
8485.11021 9.18099e-18
8485.97167 9.25444e-18
8486.83313 9.32786e-18
8487.69459 9.39160e-18
8488.55605 9.45531e-18
8489.41752 9.51271e-18
8490.27898 9.57009e-18
8491.14044 9.62963e-18
8492.00190 9.68918e-18
8492.87338 9.75641e-18
8493.73484 9.82366e-18
8494.59631 9.89708e-18
8495.45777 9.97049e-18
8496.31923 1.00509e-17
8497.18069 1.01313e-17
8498.04215 1.02277e-17
8498.90362 1.03241e-17
8499.76508 1.04398e-17
8500.62654 1.05556e-17
8501.48800 1.06752e-17
8502.35948 1.07949e-17
8503.22094 1.09033e-17
8504.08240 1.10118e-17
8504.94387 1.11059e-17
8505.80533 1.11999e-17
8506.66679 1.12791e-17
8507.52825 1.13582e-17
8508.38972 1.14280e-17
8509.25118 1.14978e-17
8510.11264 1.15657e-17
8510.98412 1.16337e-17
8511.84558 1.17026e-17
8512.70704 1.17715e-17
8513.56850 1.18430e-17
8514.42997 1.19144e-17
8515.29143 1.19881e-17
8516.15289 1.20618e-17
8517.01435 1.21369e-17
8517.87581 1.22119e-17
8518.73728 1.22884e-17
8519.59874 1.23647e-17
8520.46020 1.24428e-17
8521.33168 1.25207e-17
8522.19314 1.26037e-17
8523.05460 1.26866e-17
8523.91607 1.27810e-17
8524.77753 1.28754e-17
8525.63899 1.29833e-17
8526.50045 1.30912e-17
8527.36191 1.32088e-17
8528.22337 1.33262e-17
8529.08484 1.34471e-17
8529.94630 1.35681e-17
8530.80776 1.36823e-17
8531.67924 1.37966e-17
8532.54070 1.38960e-17
8533.40216 1.39953e-17
8534.26363 1.40768e-17
8535.12509 1.41582e-17
8535.98655 1.42225e-17
8536.84801 1.42869e-17
8537.70947 1.43465e-17
8538.57094 1.44061e-17
8539.43240 1.44742e-17
8540.30388 1.45424e-17
8541.16534 1.46277e-17
8542.02680 1.47131e-17
8542.88826 1.48209e-17
8543.74972 1.49288e-17
8544.61119 1.50519e-17
8545.47265 1.51751e-17
8546.33411 1.53022e-17
8547.19557 1.54293e-17
8548.05703 1.55409e-17
8548.91850 1.56524e-17
8549.78998 1.57269e-17
8550.65144 1.58013e-17
8551.51290 1.58406e-17
8552.37436 1.58798e-17
8553.23582 1.59001e-17
8554.09729 1.59204e-17
8554.95875 1.59438e-17
8555.82021 1.59673e-17
8556.68167 1.60199e-17
8557.54313 1.60725e-17
8558.40460 1.61660e-17
8559.27607 1.62595e-17
8560.13754 1.63867e-17
8560.99900 1.65138e-17
8561.86046 1.66608e-17
8562.72192 1.68078e-17
8563.58338 1.69518e-17
8564.44485 1.70959e-17
8565.30631 1.72162e-17
8566.16777 1.73364e-17
8567.02923 1.74191e-17
8567.89070 1.75017e-17
8568.75216 1.75402e-17
8569.62364 1.75788e-17
8570.48510 1.75841e-17
8571.34656 1.75894e-17
8572.20802 1.75772e-17
8573.06948 1.75649e-17
8573.93095 1.75525e-17
8574.79241 1.75401e-17
8575.65387 1.75443e-17
8576.51533 1.75485e-17
8577.37679 1.75867e-17
8578.23826 1.76251e-17
8579.09972 1.77106e-17
8579.97120 1.77963e-17
8580.83266 1.79125e-17
8581.69412 1.80289e-17
8582.55558 1.81483e-17
8583.41705 1.82676e-17
8584.27851 1.83677e-17
8585.13997 1.84678e-17
8586.00143 1.85305e-17
8586.86289 1.85932e-17
8587.72436 1.86160e-17
8588.58582 1.86387e-17
8589.45730 1.86318e-17
8590.31876 1.86246e-17
8591.18022 1.86034e-17
8592.04168 1.85822e-17
8592.90314 1.85680e-17
8593.76461 1.85538e-17
8594.62607 1.85585e-17
8595.48753 1.85630e-17
8596.34899 1.85818e-17
8597.21045 1.86004e-17
8598.07192 1.86303e-17
8598.94340 1.86602e-17
8599.80486 1.87043e-17
8600.66632 1.87484e-17
8601.52778 1.88054e-17
8602.38924 1.88624e-17
8603.25071 1.89232e-17
8604.11217 1.89841e-17
8604.97363 1.90387e-17
8605.83509 1.90934e-17
8606.69655 1.91286e-17
8607.56803 1.91637e-17
8608.42949 1.91686e-17
8609.29096 1.91734e-17
8610.15242 1.91509e-17
8611.01388 1.91283e-17
8611.87534 1.90861e-17
8612.73680 1.90439e-17
8613.59827 1.89907e-17
8614.45973 1.89375e-17
8615.32119 1.88824e-17
8616.18265 1.88273e-17
8617.04411 1.87876e-17
8617.91559 1.87479e-17
8618.77706 1.87424e-17
8619.63852 1.87369e-17
8620.49998 1.87667e-17
8621.36144 1.87964e-17
8622.22290 1.88512e-17
8623.08437 1.89061e-17
8623.94583 1.89713e-17
8624.80729 1.90367e-17
8625.66875 1.90940e-17
8626.53021 1.91513e-17
8627.40169 1.91895e-17
8628.26315 1.92276e-17
8629.12462 1.92464e-17
8629.98608 1.92653e-17
8630.84754 1.92643e-17
8631.70900 1.92634e-17
8632.57046 1.92401e-17
8633.43193 1.92167e-17
8634.29339 1.91742e-17
8635.15485 1.91318e-17
8636.01631 1.90835e-17
8636.88779 1.90351e-17
8637.74925 1.89949e-17
8638.61072 1.89547e-17
8639.47218 1.89386e-17
8640.33364 1.89226e-17
8641.19510 1.89418e-17
8642.05656 1.89610e-17
8642.91803 1.90060e-17
8643.77949 1.90512e-17
8644.64095 1.91080e-17
8645.50241 1.91649e-17
8646.37389 1.92188e-17
8647.23535 1.92727e-17
8648.09681 1.93089e-17
8648.95828 1.93450e-17
8649.81974 1.93581e-17
8650.68120 1.93711e-17
8651.54266 1.93611e-17
8652.40412 1.93511e-17
8653.26559 1.93165e-17
8654.12705 1.92820e-17
8654.98851 1.92219e-17
8655.85999 1.91617e-17
8656.72145 1.90864e-17
8657.58291 1.90112e-17
8658.44438 1.89388e-17
8659.30584 1.88665e-17
8660.16730 1.88095e-17
8661.02876 1.87527e-17
8661.89022 1.87166e-17
8662.75168 1.86807e-17
8663.61315 1.86684e-17
8664.47461 1.86562e-17
8665.33607 1.86669e-17
8666.20755 1.86776e-17
8667.06901 1.87062e-17
8667.93047 1.87349e-17
8668.79194 1.87725e-17
8669.65340 1.88102e-17
8670.51486 1.88447e-17
8671.37632 1.88792e-17
8672.23778 1.88899e-17
8673.09925 1.89005e-17
8673.96071 1.88719e-17
8674.82217 1.88432e-17
8675.68363 1.87800e-17
8676.55511 1.87167e-17
8677.41657 1.86290e-17
8678.27803 1.85411e-17
8679.13950 1.84461e-17
8680.00096 1.83510e-17
8680.86242 1.82675e-17
8681.72388 1.81840e-17
8682.58535 1.81196e-17
8683.44681 1.80552e-17
8684.30827 1.80124e-17
8685.16973 1.79696e-17
8686.04121 1.79511e-17
8686.90267 1.79327e-17
8687.76413 1.79387e-17
8688.62560 1.79448e-17
8689.48706 1.79708e-17
8690.34852 1.79967e-17
8691.20998 1.80348e-17
8692.07144 1.80731e-17
8692.93291 1.81106e-17
8693.79437 1.81479e-17
8694.66585 1.81682e-17
8695.52731 1.81884e-17
8696.38877 1.81814e-17
8697.25023 1.81743e-17
8698.11170 1.81383e-17
8698.97316 1.81022e-17
8699.83462 1.80411e-17
8700.69608 1.79800e-17
8701.55754 1.79070e-17
8702.41900 1.78341e-17
8703.28047 1.77605e-17
8704.15195 1.76868e-17
8705.01341 1.76128e-17
8705.87487 1.75389e-17
8706.73633 1.74676e-17
8707.59779 1.73964e-17
8708.45926 1.73429e-17
8709.32072 1.72894e-17
8710.18218 1.72651e-17
8711.04364 1.72409e-17
8711.90510 1.72464e-17
8712.76657 1.72521e-17
8713.62803 1.72832e-17
8714.49951 1.73144e-17
8715.36097 1.73484e-17
8716.22243 1.73824e-17
8717.08389 1.73934e-17
8717.94535 1.74044e-17
8718.80682 1.73819e-17
8719.66828 1.73593e-17
8720.52974 1.72994e-17
8721.39120 1.72395e-17
8722.25267 1.71569e-17
8723.11413 1.70743e-17
8723.98561 1.69947e-17
8724.84707 1.69150e-17
8725.70853 1.68477e-17
8726.56999 1.67804e-17
8727.43145 1.67228e-17
8728.29292 1.66653e-17
8729.15438 1.66176e-17
8730.01584 1.65700e-17
8730.87730 1.65335e-17
8731.73876 1.64970e-17
8732.61024 1.64752e-17
8733.47170 1.64533e-17
8734.33317 1.64561e-17
8735.19463 1.64591e-17
8736.05609 1.64837e-17
8736.91755 1.65082e-17
8737.77902 1.65255e-17
8738.64048 1.65427e-17
8739.50194 1.65281e-17
8740.36340 1.65135e-17
8741.22486 1.64536e-17
8742.08633 1.63935e-17
8742.95780 1.62848e-17
8743.81927 1.61759e-17
8744.68073 1.60497e-17
8745.54219 1.59234e-17
8746.40365 1.58138e-17
8747.26511 1.57042e-17
8748.12658 1.56271e-17
8748.98804 1.55502e-17
8749.84950 1.55153e-17
8750.71096 1.54805e-17
8751.57242 1.54778e-17
8752.44390 1.54753e-17
8753.30537 1.54861e-17
8754.16683 1.54970e-17
8755.02829 1.55109e-17
8755.88975 1.55249e-17
8756.75121 1.55353e-17
8757.61268 1.55457e-17
8758.47414 1.55373e-17
8759.33560 1.55288e-17
8760.19706 1.54833e-17
8761.05852 1.54377e-17
8761.91999 1.53520e-17
8762.79146 1.52662e-17
8763.65293 1.51503e-17
8764.51439 1.50342e-17
8765.37585 1.49041e-17
8766.23731 1.47741e-17
8767.09877 1.46529e-17
8767.96024 1.45320e-17
8768.82170 1.44348e-17
8769.68316 1.43378e-17
8770.54462 1.42627e-17
8771.40608 1.41877e-17
8772.26755 1.41315e-17
8773.13903 1.40754e-17
8774.00049 1.40355e-17
8774.86195 1.39954e-17
8775.72341 1.39664e-17
8776.58487 1.39373e-17
8777.44633 1.39144e-17
8778.30780 1.38917e-17
8779.16926 1.38684e-17
8780.03072 1.38451e-17
8780.89218 1.38011e-17
8781.76366 1.37571e-17
8782.62512 1.36743e-17
8783.48659 1.35913e-17
8784.34805 1.34783e-17
8785.20951 1.33653e-17
8786.07097 1.32383e-17
8786.93243 1.31114e-17
8787.79390 1.29826e-17
8788.65536 1.28538e-17
8789.51682 1.27351e-17
8790.37828 1.26164e-17
8791.24976 1.25075e-17
8792.11122 1.23985e-17
8792.97268 1.22908e-17
8793.83415 1.21830e-17
8794.69561 1.20820e-17
8795.55707 1.19811e-17
8796.41853 1.19023e-17
8797.28000 1.18237e-17
8798.14146 1.17641e-17
8799.00292 1.17046e-17
8799.86438 1.16434e-17
8800.72584 1.15822e-17
8801.59732 1.15025e-17
8802.45878 1.14227e-17
8803.32025 1.13130e-17
8804.18171 1.12033e-17
8805.04317 1.10622e-17
8805.90463 1.09210e-17
8806.76609 1.07687e-17
8807.62756 1.06164e-17
8808.48902 1.04715e-17
8809.35048 1.03267e-17
8810.21194 1.01981e-17
8811.08342 1.00697e-17
8811.94488 9.96348e-18
8812.80635 9.85736e-18
8813.66781 9.77116e-18
8814.52927 9.68503e-18
8815.39073 9.61319e-18
8816.25219 9.54137e-18
8817.11365 9.47683e-18
8817.97512 9.41231e-18
8818.83658 9.34720e-18
8819.70806 9.28210e-18
8820.56952 9.20689e-18
8821.43098 9.13166e-18
8822.29244 9.03806e-18
8823.15391 8.94442e-18
8824.01537 8.83141e-18
8824.87683 8.71835e-18
8825.73829 8.58890e-18
8826.59975 8.45940e-18
8827.46122 8.32544e-18
8828.32268 8.19147e-18
8829.19416 8.07017e-18
8830.05562 7.94892e-18
8830.91708 7.84904e-18
8831.77854 7.74923e-18
8832.64000 7.67140e-18
8833.50147 7.59363e-18
8834.36293 7.53506e-18
8835.22439 7.47655e-18
8836.08585 7.43039e-18
8836.94732 7.38426e-18
8837.80878 7.34248e-18
8838.67024 7.30071e-18
8839.54172 7.25506e-18
8840.40318 7.20941e-18
8841.26464 7.15383e-18
8842.12610 7.09822e-18
8842.98757 7.03190e-18
8843.84903 6.96555e-18
8844.71049 6.88977e-18
8845.57195 6.81396e-18
8846.43341 6.73314e-18
8847.29488 6.65232e-18
8848.15634 6.57216e-18
8849.02782 6.49200e-18
8849.88928 6.41554e-18
8850.75074 6.33909e-18
8851.61220 6.26922e-18
8852.47367 6.19937e-18
8853.33513 6.15094e-18
8854.19659 6.10254e-18
8855.05805 6.09031e-18
8855.91951 6.07818e-18
8856.78097 6.09043e-18
8857.64244 6.10275e-18
8858.50390 6.11878e-18
8859.36536 6.13481e-18
8860.23684 6.13754e-18
8861.09830 6.14023e-18
8861.95976 6.11423e-18
8862.82123 6.08815e-18
8863.68269 6.03923e-18
8864.54415 5.99025e-18
8865.40561 5.94090e-18
8866.26707 5.89156e-18
8867.12854 5.85225e-18
8867.99000 5.81298e-18
8868.86148 5.78107e-18
8869.72294 5.74918e-18
8870.58440 5.72352e-18
8871.44586 5.69787e-18
8872.30732 5.67747e-18
8873.16879 5.65708e-18
8874.03025 5.64305e-18
8874.89171 5.62903e-18
8875.75317 5.63003e-18
8876.61463 5.63107e-18
8877.47610 5.65058e-18
8878.34758 5.67015e-18
8879.20904 5.69740e-18
8880.07050 5.72466e-18
8880.93196 5.74832e-18
8881.79342 5.77196e-18
8882.65489 5.78151e-18
8883.51635 5.79100e-18
8884.37781 5.77876e-18
8885.23927 5.76647e-18
8886.10073 5.73952e-18
8886.96220 5.71254e-18
8887.83367 5.68198e-18
8888.69514 5.65141e-18
8889.55660 5.62748e-18
8890.41806 5.60356e-18
8891.27952 5.59554e-18
8892.14099 5.58758e-18
8893.00245 5.60073e-18
8893.86391 5.61394e-18
8894.72537 5.65035e-18
8895.58683 5.68681e-18
8896.44830 5.73789e-18
8897.30976 5.78901e-18
8898.18124 5.84016e-18
8899.04270 5.89129e-18
8899.90416 5.93000e-18
8900.76562 5.96866e-18
8901.62708 5.98450e-18
8902.48855 6.00028e-18
8903.35001 5.99486e-18
8904.21147 5.98940e-18
8905.07293 5.98005e-18
8905.93439 5.97069e-18
8906.80587 5.96877e-18
8907.66734 5.96687e-18
8908.52880 5.97124e-18
8909.39026 5.97563e-18
8910.25172 5.98633e-18
8911.11318 5.99704e-18
8911.97465 6.01617e-18
8912.83611 6.03531e-18
8913.69757 6.06375e-18
8914.55903 6.09221e-18
8915.42049 6.13197e-18
8916.29197 6.17175e-18
8917.15343 6.22236e-18
8918.01490 6.27299e-18
8918.87636 6.32142e-18
8919.73782 6.36984e-18
8920.59928 6.40307e-18
8921.46074 6.43626e-18
8922.32221 6.45059e-18
8923.18367 6.46487e-18
8924.04513 6.45991e-18
8924.90659 6.45491e-18
8925.76805 6.44601e-18
8926.63953 6.43711e-18
8927.50100 6.44522e-18
8928.36246 6.45337e-18
8929.22392 6.47929e-18
8930.08538 6.50526e-18
8930.94684 6.53951e-18
8931.80831 6.57379e-18
8932.66977 6.60953e-18
8933.53123 6.64525e-18
8934.39269 6.67583e-18
8935.25415 6.70637e-18
8936.12563 6.73491e-18
8936.98709 6.76344e-18
8937.84856 6.80491e-18
8938.71002 6.84641e-18
8939.57148 6.90150e-18
8940.43294 6.95662e-18
8941.29440 7.00501e-18
8942.15587 7.05339e-18
8943.01733 7.08019e-18
8943.87879 7.10693e-18
8944.74025 7.10545e-18
8945.61173 7.10390e-18
8946.47319 7.07656e-18
8947.33466 7.04914e-18
8948.19612 7.02728e-18
8949.05758 7.00542e-18
8949.91904 7.01446e-18
8950.78050 7.02359e-18
8951.64197 7.05564e-18
8952.50343 7.08775e-18
8953.36489 7.13001e-18
8954.22635 7.17230e-18
8955.08781 7.19145e-18
8955.95929 7.21053e-18
8956.82075 7.17379e-18
8957.68222 7.13690e-18
8958.54368 7.08504e-18
8959.40514 7.03314e-18
8960.26660 7.02623e-18
8961.12806 7.01944e-18
8961.98953 7.06605e-18
8962.85099 7.11281e-18
8963.71245 7.20158e-18
8964.57391 7.29047e-18
8965.44539 7.39262e-18
8966.30685 7.49480e-18
8967.16832 7.56680e-18
8968.02978 7.63873e-18
8968.89124 7.68534e-18
8969.75270 7.73190e-18
8970.61416 7.80073e-18
8971.47563 7.86962e-18
8972.33709 7.97716e-18
8973.19855 8.08479e-18
8974.06001 8.21064e-18
8974.93149 8.33653e-18
8975.79295 8.45117e-18
8976.65441 8.56578e-18
8977.51588 8.62407e-18
8978.37734 8.68222e-18
8979.23880 8.64901e-18
8980.10026 8.61555e-18
8980.96172 8.46820e-18
8981.82319 8.32056e-18
8982.68465 8.07361e-18
8983.54611 7.82640e-18
8984.41759 7.61267e-18
8985.27905 7.39904e-18
8986.14051 7.34106e-18
8987.00198 7.28350e-18
8987.86344 7.42330e-18
8988.72490 7.56362e-18
8989.58636 7.90751e-18
8990.44782 8.25194e-18
8991.30928 8.63581e-18
8992.17075 9.01976e-18
8993.03221 9.24602e-18
8993.89367 9.47184e-18
8994.76515 9.51086e-18
8995.62661 9.54939e-18
8996.48807 9.43729e-18
8997.34954 9.32479e-18
8998.21100 9.14996e-18
8999.07246 8.97496e-18
8999.93392 8.85797e-18
9000.79538 8.74113e-18
9001.65685 8.73456e-18
9002.51831 8.72829e-18
9003.38979 8.82889e-18
9004.25125 8.92976e-18
9005.11271 9.10245e-18
9005.97417 9.27533e-18
9006.83563 9.45136e-18
9007.69710 9.62740e-18
9008.55856 9.75316e-18
9009.42002 9.87879e-18
9010.28148 9.92943e-18
9011.14295 9.97985e-18
9012.00441 9.95648e-18
9012.87589 9.93290e-18
9013.73735 9.89458e-18
9014.59881 9.85623e-18
9015.46027 9.84679e-18
9016.32173 9.83743e-18
9017.18320 9.83011e-18
9018.04466 9.82281e-18
9018.90612 9.79768e-18
9019.76758 9.77251e-18
9020.62904 9.75261e-18
9021.49051 9.73271e-18
9022.35197 9.74196e-18
9023.22345 9.75128e-18
9024.08491 9.81976e-18
9024.94637 9.88840e-18
9025.80783 1.00401e-17
9026.66930 1.01921e-17
9027.53076 1.03907e-17
9028.39222 1.05894e-17
9029.25368 1.07795e-17
9030.11514 1.09696e-17
9030.97660 1.11131e-17
9031.83807 1.12564e-17
9032.70955 1.13247e-17
9033.57101 1.13928e-17
9034.43247 1.13833e-17
9035.29393 1.13737e-17
9036.15539 1.13011e-17
9037.01686 1.12282e-17
9037.87832 1.11296e-17
9038.73978 1.10309e-17
9039.60124 1.09637e-17
9040.46270 1.08967e-17
9041.32417 1.08761e-17
9042.18563 1.08557e-17
9043.05711 1.08399e-17
9043.91857 1.08240e-17
9044.78003 1.07909e-17
9045.64149 1.07576e-17
9046.50295 1.07204e-17
9047.36442 1.06831e-17
9048.22588 1.06532e-17
9049.08734 1.06234e-17
9049.94880 1.06193e-17
9050.81027 1.06152e-17
9051.67173 1.06419e-17
9052.54321 1.06687e-17
9053.40467 1.06715e-17
9054.26613 1.06742e-17
9055.12759 1.06054e-17
9055.98905 1.05364e-17
9056.85052 1.04214e-17
9057.71198 1.03063e-17
9058.57344 1.01798e-17
9059.43490 1.00532e-17
9060.29636 9.91951e-18
9061.16784 9.78576e-18
9062.02931 9.64652e-18
9062.89077 9.50726e-18
9063.75223 9.35745e-18
9064.61369 9.20760e-18
9065.47515 9.03605e-18
9066.33662 8.86443e-18
9067.19808 8.71483e-18
9068.05954 8.56529e-18
9068.92100 8.51018e-18
9069.78246 8.45532e-18
9070.64393 8.47864e-18
9071.51540 8.50219e-18
9072.37687 8.52276e-18
9073.23833 8.54332e-18
9074.09979 8.53116e-18
9074.96125 8.51892e-18
9075.82271 8.49671e-18
9076.68418 8.47446e-18
9077.54564 8.45638e-18
9078.40710 8.43832e-18
9079.26856 8.43257e-18
9080.13002 8.42685e-18
9080.99149 8.43311e-18
9081.86297 8.43939e-18
9082.72443 8.42950e-18
9083.58589 8.41956e-18
9084.44735 8.37778e-18
9085.30881 8.33593e-18
9086.17028 8.29331e-18
9087.03174 8.25068e-18
9087.89320 8.23109e-18
9088.75466 8.21156e-18
9089.61612 8.18451e-18
9090.48760 8.15743e-18
9091.34906 8.09370e-18
9092.21053 8.03023e-18
9093.07199 7.95997e-18
9093.93345 7.88970e-18
9094.79491 7.84981e-18
9095.65637 7.81002e-18
9096.51784 7.79005e-18
9097.37930 7.77014e-18
9098.24076 7.74808e-18
9099.10222 7.72600e-18
9099.97370 7.70755e-18
9100.83516 7.68910e-18
9101.69663 7.68603e-18
9102.55809 7.68300e-18
9103.41955 7.71788e-18
9104.28101 7.75287e-18
9105.14247 7.85801e-18
9106.00393 7.96335e-18
9106.86540 8.10043e-18
9107.72686 8.23760e-18
9108.58832 8.30837e-18
9109.45980 8.37895e-18
9110.32126 8.34150e-18
9111.18272 8.30376e-18
9112.04419 8.18250e-18
9112.90565 8.06100e-18
9113.76711 7.90601e-18
9114.62857 7.75094e-18
9115.49003 7.66509e-18
9116.35150 7.57942e-18
9117.21296 7.61628e-18
9118.07442 7.65348e-18
9118.93588 7.73371e-18
9119.80736 7.81407e-18
9120.66882 7.86021e-18
9121.53028 7.90625e-18
9122.39175 7.86867e-18
9123.25321 7.83086e-18
9124.11467 7.67976e-18
9124.97613 7.52836e-18
9125.83760 7.33363e-18
9126.69906 7.13879e-18
9127.56052 6.98549e-18
9128.43200 6.83231e-18
9129.29346 6.76438e-18
9130.15492 6.69670e-18
9131.01638 6.74245e-18
9131.87785 6.78852e-18
9132.73931 6.92888e-18
9133.60077 7.06950e-18
9134.46223 7.26131e-18
9135.32369 7.45325e-18
9136.18516 7.65159e-18
9137.04662 7.84994e-18
9137.90808 8.00845e-18
9138.76954 8.16684e-18
9139.64102 8.25569e-18
9140.50248 8.34434e-18
9141.36395 8.35346e-18
9142.22541 8.36236e-18
9143.08687 8.27665e-18
9143.94833 8.19067e-18
9144.80979 7.98839e-18
9145.67125 7.78580e-18
9146.53272 7.49317e-18
9147.39418 7.20030e-18
9148.26566 6.90571e-18
9149.12712 6.61113e-18
9149.98858 6.39478e-18
9150.85004 6.17865e-18
9151.71151 6.10542e-18
9152.57297 6.03260e-18
9153.43443 6.12782e-18
9154.29589 6.22349e-18
9155.15735 6.40393e-18
9156.01882 6.58459e-18
9156.88028 6.76232e-18
9157.75176 6.94003e-18
9158.61322 7.07394e-18
9159.47468 7.20772e-18
9160.33614 7.26606e-18
9161.19760 7.32417e-18
9162.05907 7.30904e-18
9162.92053 7.29370e-18
9163.78199 7.22236e-18
9164.64345 7.15087e-18
9165.50492 7.02094e-18
9166.36638 6.89085e-18
9167.22784 6.69925e-18
9168.09932 6.50749e-18
9168.96078 6.30177e-18
9169.82224 6.09601e-18
9170.68370 5.94051e-18
9171.54517 5.78516e-18
9172.40663 5.71204e-18
9173.26809 5.63915e-18
9174.12955 5.66241e-18
9174.99101 5.68594e-18
9175.85248 5.76604e-18
9176.71394 5.84628e-18
9177.58542 5.89332e-18
9178.44688 5.94026e-18
9179.30834 5.92808e-18
9180.16980 5.91574e-18
9181.03127 5.90334e-18
9181.89273 5.89095e-18
9182.75419 5.91080e-18
9183.61565 5.93074e-18
9184.47711 5.97125e-18
9185.33857 6.01182e-18
9186.20004 6.05902e-18
9187.07152 6.10624e-18
9187.93298 6.12629e-18
9188.79444 6.14626e-18
9189.65590 6.12034e-18
9190.51736 6.09430e-18
9191.37883 6.07476e-18
9192.24029 6.05523e-18
9193.10175 6.08865e-18
9193.96321 6.12221e-18
9194.82467 6.18787e-18
9195.68614 6.25361e-18
9196.55762 6.32196e-18
9197.41908 6.39031e-18
9198.28054 6.43464e-18
9199.14200 6.47890e-18
9200.00346 6.47353e-18
9200.86492 6.46804e-18
9201.72639 6.43190e-18
9202.58785 6.39566e-18
9203.44931 6.36595e-18
9204.31077 6.33626e-18
9205.17224 6.31405e-18
9206.04371 6.29186e-18
9206.90518 6.26082e-18
9207.76664 6.22975e-18
9208.62810 6.19507e-18
9209.48956 6.16038e-18
9210.35102 6.13954e-18
9211.21249 6.11874e-18
9212.07395 6.12928e-18
9212.93541 6.13992e-18
9213.79687 6.20198e-18
9214.65833 6.26417e-18
9215.52981 6.37370e-18
9216.39127 6.48337e-18
9217.25274 6.59877e-18
9218.11420 6.71418e-18
9218.97566 6.80842e-18
9219.83712 6.90259e-18
9220.69859 6.98428e-18
9221.56005 7.06595e-18
9222.42151 7.13995e-18
9223.28297 7.21394e-18
9224.14443 7.27202e-18
9225.00590 7.33006e-18
9225.87737 7.36644e-18
9226.73884 7.40277e-18
9227.60030 7.41143e-18
9228.46176 7.42000e-18
9229.32322 7.39859e-18
9230.18468 7.37712e-18
9231.04615 7.35005e-18
9231.90761 7.32298e-18
9232.76907 7.31844e-18
9233.63053 7.31396e-18
9234.49199 7.32577e-18
9235.35346 7.33761e-18
9236.22494 7.34988e-18
9237.08640 7.36215e-18
9237.94786 7.38213e-18
9238.80932 7.40212e-18
9239.67078 7.44470e-18
9240.53225 7.48733e-18
9241.39371 7.55965e-18
9242.25517 7.63206e-18
9243.11663 7.73704e-18
9243.97809 7.84211e-18
9244.84957 7.97061e-18
9245.71103 8.09916e-18
9246.57250 8.23032e-18
9247.43396 8.36148e-18
9248.29542 8.48337e-18
9249.15688 8.60522e-18
9250.01834 8.72031e-18
9250.87981 8.83538e-18
9251.74127 8.93785e-18
9252.60273 9.04028e-18
9253.46419 9.10557e-18
9254.32565 9.17075e-18
9255.19713 9.19485e-18
9256.05860 9.21883e-18
9256.92006 9.24947e-18
9257.78152 9.28014e-18
9258.64298 9.35326e-18
9259.50444 9.42648e-18
9260.36591 9.53121e-18
9261.22737 9.63602e-18
9262.08883 9.75305e-18
9262.95029 9.87010e-18
9263.81175 9.95718e-18
9264.68323 1.00442e-17
9265.54469 1.00609e-17
9266.40616 1.00774e-17
9267.26762 1.00248e-17
9268.12908 9.97210e-18
9268.99054 9.86696e-18
9269.85200 9.76169e-18
9270.71347 9.64310e-18
9271.57493 9.52448e-18
9272.43639 9.43910e-18
9273.29785 9.35382e-18
9274.16933 9.33847e-18
9275.03079 9.32332e-18
9275.89226 9.40496e-18
9276.75372 9.48688e-18
9277.61518 9.65177e-18
9278.47664 9.81690e-18
9279.33810 1.00196e-17
9280.19957 1.02225e-17
9281.06103 1.04140e-17
9281.92249 1.06056e-17
9282.79397 1.07387e-17
9283.65543 1.08717e-17
9284.51689 1.09087e-17
9285.37835 1.09455e-17
9286.23982 1.08642e-17
9287.10128 1.07825e-17
9287.96274 1.05927e-17
9288.82420 1.04024e-17
9289.68566 1.01641e-17
9290.54713 9.92576e-18
9291.40859 9.70916e-18
9292.27005 9.49263e-18
9293.14153 9.38984e-18
9294.00299 9.28736e-18
9294.86445 9.35855e-18
9295.72592 9.43023e-18
9296.58738 9.61341e-18
9297.44884 9.79691e-18
9298.31030 1.00098e-17
9299.17176 1.02228e-17
9300.03323 1.03533e-17
9300.89469 1.04835e-17
9301.75615 1.04240e-17
9302.62763 1.03639e-17
9303.48909 1.02177e-17
9304.35055 1.00713e-17
9305.21201 1.00074e-17
9306.07348 9.94368e-18
9306.93494 9.92263e-18
9307.79640 9.90168e-18
9308.65786 9.80095e-18
9309.51932 9.69998e-18
9310.38079 9.52524e-18
9311.24225 9.35031e-18
9312.11373 9.17390e-18
9312.97519 8.99750e-18
9313.83665 8.89033e-18
9314.69811 8.78336e-18
9315.55958 8.82607e-18
9316.42104 8.86921e-18
9317.28250 9.04610e-18
9318.14396 9.22337e-18
9319.00542 9.37939e-18
9319.86688 9.53533e-18
9320.72835 9.60962e-18
9321.58981 9.68368e-18
9322.46129 9.81912e-18
9323.32275 9.95475e-18
9324.18421 1.01826e-17
9325.04567 1.04108e-17
9325.90714 1.04389e-17
9326.76860 1.04664e-17
9327.63006 1.01146e-17
9328.49152 9.76167e-18
9329.35298 9.31275e-18
9330.21445 8.86357e-18
9331.07591 8.59140e-18
9331.94739 8.31974e-18
9332.80885 8.17151e-18
9333.67031 8.02364e-18
9334.53177 7.92025e-18
9335.39323 7.81699e-18
9336.25470 7.76022e-18
9337.11616 7.70359e-18
9337.97762 7.67988e-18
9338.83908 7.65628e-18
9339.70055 7.90676e-18
9340.56201 8.15802e-18
9341.43349 9.00927e-18
9342.29495 9.86222e-18
9343.15641 1.08959e-17
9344.01787 1.19300e-17
9344.87933 1.23766e-17
9345.74080 1.28213e-17
9346.60226 1.24511e-17
9347.46372 1.20785e-17
9348.32518 1.10226e-17
9349.18664 9.96473e-18
9350.04811 8.70868e-18
9350.90957 7.45209e-18
9351.78105 6.89147e-18
9352.64251 6.33287e-18
9353.50397 6.76152e-18
9354.36543 7.19298e-18
9355.22689 7.96305e-18
9356.08836 8.73406e-18
9356.94982 9.30083e-18
9357.81128 9.86699e-18
9358.67274 9.90555e-18
9359.53420 9.94260e-18
9360.39567 9.31247e-18
9361.26715 8.68044e-18
9362.12861 7.89200e-18
9362.99007 7.10314e-18
9363.85153 6.63811e-18
9364.71299 6.17402e-18
9365.57446 6.06015e-18
9366.43592 5.94729e-18
9367.29738 6.13816e-18
9368.15884 6.32988e-18
9369.02030 6.58618e-18
9369.89178 6.84265e-18
9370.75324 6.89029e-18
9371.61471 6.93732e-18
9372.47617 6.79311e-18
9373.33763 6.64836e-18
9374.19909 6.41471e-18
9375.06056 6.18081e-18
9375.92202 6.01432e-18
9376.78348 5.84802e-18
9377.64494 5.93997e-18
9378.50640 6.03266e-18
9379.37788 6.31051e-18
9380.23934 6.58890e-18
9381.10081 6.80637e-18
9381.96227 7.02364e-18
9382.82373 7.10225e-18
9383.68519 7.18045e-18
9384.54665 7.19100e-18
9385.40812 7.20136e-18
9386.26958 7.16347e-18
9387.13104 7.12544e-18
9387.99250 7.00593e-18
9388.85396 6.88618e-18
9389.72544 6.68317e-18
9390.58691 6.47993e-18
9391.44837 6.22406e-18
9392.30983 5.96805e-18
9393.17129 5.70129e-18
9394.03275 5.43451e-18
9394.89422 5.23136e-18
9395.75568 5.02840e-18
9396.61714 4.93928e-18
9397.47860 4.85050e-18
9398.34006 4.83803e-18
9399.21154 4.82579e-18
9400.07300 4.84301e-18
9400.93447 4.86031e-18
9401.79593 4.86206e-18
9402.65739 4.86375e-18
9403.51885 4.81051e-18
9404.38031 4.75711e-18
9405.24178 4.69328e-18
9406.10324 4.62943e-18
9406.96470 4.61738e-18
9407.82616 4.60546e-18
9408.69764 4.64586e-18
9409.55910 4.68642e-18
9410.42057 4.75759e-18
9411.28203 4.82884e-18
9412.14349 4.89711e-18
9413.00495 4.96537e-18
9413.86641 4.99079e-18
9414.72788 5.01608e-18
9415.58934 4.97204e-18
9416.45080 4.92778e-18
9417.31226 4.80605e-18
9418.17372 4.68409e-18
9419.04520 4.49318e-18
9419.90666 4.30207e-18
9420.76813 4.05473e-18
9421.62959 3.80723e-18
9422.49105 3.59199e-18
9423.35251 3.37684e-18
9424.21397 3.40495e-18
9425.07544 3.43378e-18
9425.93690 3.77308e-18
9426.79836 4.11327e-18
9427.65982 4.54228e-18
9428.53130 4.97152e-18
9429.39276 5.27667e-18
9430.25423 5.58146e-18
9431.11569 5.56508e-18
9431.97715 5.54777e-18
9432.83861 5.10973e-18
9433.70007 4.67047e-18
9434.56153 4.15809e-18
9435.42300 3.64551e-18
9436.28446 3.42212e-18
9437.14592 3.19958e-18
9438.01740 3.32241e-18
9438.87886 3.44625e-18
9439.74032 3.89178e-18
9440.60179 4.33824e-18
9441.46325 4.88020e-18
9442.32471 5.42242e-18
9443.18617 5.76956e-18
9444.04763 6.11613e-18
9444.90910 6.18515e-18
9445.77056 6.25335e-18
9446.63202 6.06243e-18
9447.49348 5.87076e-18
9448.36496 5.52296e-18
9449.22642 5.17473e-18
9450.08788 4.83588e-18
9450.94935 4.49706e-18
9451.81081 4.27520e-18
9452.67227 4.05369e-18
9453.53373 3.99093e-18
9454.39520 3.92863e-18
9455.25666 4.03549e-18
9456.11812 4.14284e-18
9456.98960 4.39339e-18
9457.85106 4.64434e-18
9458.71252 4.96356e-18
9459.57398 5.28297e-18
9460.43545 5.51950e-18
9461.29691 5.75577e-18
9462.15837 5.81839e-18
9463.01983 5.88050e-18
9463.88129 5.84047e-18
9464.74276 5.80014e-18
9465.60422 5.73196e-18
9466.47570 5.66370e-18
9467.33716 5.61314e-18
9468.19862 5.56263e-18
9469.06008 5.56645e-18
9469.92155 5.57043e-18
9470.78301 5.57227e-18
9471.64447 5.57409e-18
9472.50593 5.51387e-18
9473.36739 5.45348e-18
9474.22885 5.36881e-18
9475.09032 5.28407e-18
9475.96180 5.22610e-18
9476.82326 5.16820e-18
9477.68472 5.24295e-18
9478.54618 5.31808e-18
9479.40764 5.64509e-18
9480.26911 5.97282e-18
9481.13057 6.42227e-18
9481.99203 6.87207e-18
9482.85349 7.19284e-18
9483.71495 7.51321e-18
9484.57642 7.57292e-18
9485.43788 7.63186e-18
9486.30936 7.38417e-18
9487.17082 7.13558e-18
9488.03228 6.68134e-18
9488.89374 6.22652e-18
9489.75520 5.83138e-18
9490.61667 5.43642e-18
9491.47813 5.27022e-18
9492.33959 5.10471e-18
9493.20105 5.16434e-18
9494.06252 5.22465e-18
9494.92398 5.50928e-18
9495.79546 5.79456e-18
9496.65692 6.34044e-18
9497.51838 6.88707e-18
9498.37984 7.63664e-18
9499.24130 8.38680e-18
9500.10277 9.04677e-18
9500.96423 9.70645e-18
9501.82569 1.00231e-17
9502.68715 1.03387e-17
9503.54861 1.02720e-17
9504.41008 1.02040e-17
9505.28155 9.77973e-18
9506.14302 9.35438e-18
9507.00448 8.79294e-18
9507.86594 8.23111e-18
9508.72740 7.79470e-18
9509.58887 7.35866e-18
9510.45033 7.07297e-18
9511.31179 6.78772e-18
9512.17325 6.60094e-18
9513.03471 6.41445e-18
9513.89617 6.37758e-18
9514.75764 6.34116e-18
9515.62912 6.52722e-18
9516.49058 6.71392e-18
9517.35204 7.10161e-18
9518.21350 7.48988e-18
9519.07496 8.00761e-18
9519.93643 8.52572e-18
9520.79789 9.04747e-18
9521.65935 9.56922e-18
9522.52081 9.92139e-18
9523.38227 1.02731e-17
9524.24374 1.03972e-17
9525.11522 1.05206e-17
9525.97668 1.05079e-17
9526.83814 1.04948e-17
9527.69960 1.04294e-17
9528.56106 1.03638e-17
9529.42252 1.03121e-17
9530.28399 1.02605e-17
9531.14545 1.02598e-17
9532.00691 1.02592e-17
9532.86837 1.02504e-17
9533.72984 1.02417e-17
9534.60131 1.01751e-17
9535.46278 1.01083e-17
9536.32424 9.96872e-18
9537.18570 9.82895e-18
9538.04716 9.62444e-18
9538.90862 9.41974e-18
9539.77009 9.33693e-18
9540.63155 9.25447e-18
9541.49301 9.46950e-18
9542.35447 9.68540e-18
9543.21593 1.00721e-17
9544.08741 1.04593e-17
9544.94888 1.08297e-17
9545.81034 1.12001e-17
9546.67180 1.13712e-17
9547.53326 1.15415e-17
9548.39472 1.13251e-17
9549.25619 1.11076e-17
9550.11765 1.07217e-17
9550.97911 1.03354e-17
9551.84057 1.02190e-17
9552.70203 1.01034e-17
9553.57351 1.02862e-17
9554.43497 1.04700e-17
9555.29644 1.06927e-17
9556.15790 1.09155e-17
9557.01936 1.10033e-17
9557.88082 1.10907e-17
9558.74228 1.09271e-17
9559.60375 1.07628e-17
9560.46521 1.04201e-17
9561.32667 1.00768e-17
9562.18813 9.95119e-18
9563.05961 9.82618e-18
9563.92107 1.01220e-17
9564.78254 1.04191e-17
9565.64400 1.09260e-17
9566.50546 1.14335e-17
9567.36692 1.19251e-17
9568.22838 1.24165e-17
9569.08985 1.26225e-17
9569.95131 1.28277e-17
9570.81277 1.25621e-17
9571.67423 1.22952e-17
9572.53569 1.17921e-17
9573.40717 1.12884e-17
9574.26863 1.08258e-17
9575.13010 1.03635e-17
9575.99156 1.01275e-17
9576.85302 9.89209e-18
9577.71448 1.00293e-17
9578.57594 1.01677e-17
9579.43741 1.04474e-17
9580.29887 1.07276e-17
9581.16033 1.08128e-17
9582.02179 1.08975e-17
9582.89327 1.07437e-17
9583.75473 1.05892e-17
9584.61620 1.02623e-17
9585.47766 9.93497e-18
9586.33912 9.67085e-18
9587.20058 9.40692e-18
9588.06204 9.56438e-18
9588.92351 9.72309e-18
9589.78497 1.02572e-17
9590.64643 1.07925e-17
9591.51791 1.12915e-17
9592.37937 1.17906e-17
9593.24083 1.20327e-17
9594.10229 1.22741e-17
9594.96376 1.22804e-17
9595.82522 1.22862e-17
9596.68668 1.21015e-17
9597.54814 1.19163e-17
9598.40960 1.16447e-17
9599.27107 1.13730e-17
9600.13253 1.11294e-17
9600.99399 1.08859e-17
9601.86547 1.07612e-17
9602.72693 1.06369e-17
9603.58839 1.06905e-17
9604.44986 1.07447e-17
9605.31132 1.09667e-17
9606.17278 1.11891e-17
9607.03424 1.15295e-17
9607.89570 1.18700e-17
9608.75717 1.21123e-17
9609.61863 1.23542e-17
9610.48009 1.22899e-17
9611.35157 1.22245e-17
9612.21303 1.19419e-17
9613.07449 1.16588e-17
9613.93595 1.13248e-17
9614.79742 1.09906e-17
9615.65888 1.07212e-17
9616.52034 1.04520e-17
9617.38180 1.03438e-17
9618.24326 1.02362e-17
9619.10473 1.03143e-17
9619.96619 1.03928e-17
9620.82765 1.06301e-17
9621.69913 1.08680e-17
9622.56059 1.11790e-17
9623.42205 1.14902e-17
9624.28352 1.17558e-17
9625.14498 1.20212e-17
9626.00644 1.21279e-17
9626.86790 1.22340e-17
9627.72936 1.20752e-17
9628.59083 1.19158e-17
9629.45229 1.15229e-17
9630.31375 1.11294e-17
9631.17521 1.07350e-17
9632.04669 1.03405e-17
9632.90815 1.01248e-17
9633.76961 9.90976e-18
9634.63108 9.94323e-18
9635.49254 9.97744e-18
9636.35400 1.02526e-17
9637.21546 1.05284e-17
9638.07692 1.07842e-17
9638.93839 1.10399e-17
9639.79985 1.10607e-17
9640.67133 1.10807e-17
9641.53279 1.10011e-17
9642.39425 1.09211e-17
9643.25571 1.08985e-17
9644.11718 1.08760e-17
9644.97864 1.09483e-17
9645.84010 1.10211e-17
9646.70156 1.12039e-17
9647.56302 1.13869e-17
9648.42448 1.15581e-17
9649.28595 1.17291e-17
9650.15743 1.17295e-17
9651.01889 1.17293e-17
9651.88035 1.15584e-17
9652.74181 1.13869e-17
9653.60327 1.11161e-17
9654.46474 1.08448e-17
9655.32620 1.05719e-17
9656.18766 1.02989e-17
9657.04912 1.01370e-17
9657.91058 9.97544e-18
9658.77205 9.98773e-18
9659.64352 1.00006e-17
9660.50499 1.02025e-17
9661.36645 1.04051e-17
9662.22791 1.07327e-17
9663.08937 1.10608e-17
9663.95083 1.13472e-17
9664.81230 1.16336e-17
9665.67376 1.17821e-17
9666.53522 1.19304e-17
9667.39668 1.19922e-17
9668.25815 1.20538e-17
9669.11961 1.20583e-17
9669.99109 1.20625e-17
9670.85255 1.19601e-17
9671.71401 1.18573e-17
9672.57547 1.16345e-17
9673.43693 1.14113e-17
9674.29840 1.11592e-17
9675.15986 1.09068e-17
9676.02132 1.07162e-17
9676.88278 1.05258e-17
9677.74424 1.04602e-17
9678.61572 1.03950e-17
9679.47718 1.04964e-17
9680.33865 1.05983e-17
9681.20011 1.07831e-17
9682.06157 1.09681e-17
9682.92303 1.11201e-17
9683.78449 1.12719e-17
9684.64596 1.13565e-17
9685.50742 1.14408e-17
9686.36888 1.14533e-17
9687.23034 1.14656e-17
9688.10182 1.14181e-17
9688.96328 1.13704e-17
9689.82475 1.12923e-17
9690.68621 1.12140e-17
9691.54767 1.11106e-17
9692.40913 1.10070e-17
9693.27059 1.08627e-17
9694.13206 1.07181e-17
9694.99352 1.05542e-17
9695.85498 1.03902e-17
9696.71644 1.02649e-17
9697.57790 1.01397e-17
9698.44938 1.00819e-17
9699.31084 1.00244e-17
9700.17231 1.00233e-17
9701.03377 1.00223e-17
9701.89523 1.00540e-17
9702.75669 1.00857e-17
9703.61816 1.00972e-17
9704.47962 1.01085e-17
9705.34108 1.00656e-17
9706.20254 1.00225e-17
9707.06400 9.95809e-18
9707.93548 9.89366e-18
9708.79694 9.84208e-18
9709.65841 9.79055e-18
9710.51987 9.77042e-18
9711.38133 9.75039e-18
9712.24279 9.77387e-18
9713.10425 9.79749e-18
9713.96572 9.83211e-18
9714.82718 9.86676e-18
9715.68864 9.87343e-18
9716.55010 9.88003e-18
9717.41156 9.84755e-18
9718.28304 9.81497e-18
9719.14451 9.73886e-18
9720.00597 9.66260e-18
9720.86743 9.58357e-18
9721.72889 9.50452e-18
9722.59035 9.48517e-18
9723.45182 9.46601e-18
9724.31328 9.47886e-18
9725.17474 9.49182e-18
9726.03620 9.45518e-18
9726.89766 9.41837e-18
9727.76914 9.30328e-18
9728.63060 9.18795e-18
9729.49207 9.00961e-18
9730.35353 8.83108e-18
9731.21499 8.62754e-18
9732.07645 8.42392e-18
9732.93791 8.26515e-18
9733.79938 8.10652e-18
9734.66084 8.03613e-18
9735.52230 7.96600e-18
9736.38376 7.97549e-18
9737.25524 7.98522e-18
9738.11670 8.05500e-18
9738.97817 8.12495e-18
9739.83963 8.21637e-18
9740.70109 8.30787e-18
9741.56255 8.38278e-18
9742.42401 8.45764e-18
9743.28548 8.49580e-18
9744.14694 8.53384e-18
9745.00840 8.52324e-18
9745.86986 8.51251e-18
9746.74134 8.46943e-18
9747.60280 8.42627e-18
9748.46426 8.37305e-18
9749.32573 8.31980e-18
9750.18719 8.26174e-18
9751.04865 8.20366e-18
9751.91011 8.14355e-18
9752.77157 8.08344e-18
9753.63304 8.01931e-18
9754.49450 7.95517e-18
9755.35596 7.88287e-18
9756.22744 7.81054e-18
9757.08890 7.74511e-18
9757.95036 7.67969e-18
9758.81183 7.64336e-18
9759.67329 7.60711e-18
9760.53475 7.61708e-18
9761.39621 7.62718e-18
9762.25767 7.69819e-18
9763.11913 7.76939e-18
9763.98060 7.87909e-18
9764.84206 7.98890e-18
9765.71354 8.07433e-18
9766.57500 8.15969e-18
9767.43646 8.18997e-18
9768.29792 8.22009e-18
9769.15939 8.21547e-18
9770.02085 8.21074e-18
9770.88231 8.18846e-18
9771.74377 8.16613e-18
9772.60523 8.13481e-18
9773.46670 8.10346e-18
9774.32816 8.07404e-18
9775.19964 8.04460e-18
9776.06110 8.02571e-18
9776.92256 8.00684e-18
9777.78402 8.00424e-18
9778.64548 8.00170e-18
9779.50695 8.02277e-18
9780.36841 8.04392e-18
9781.22987 8.09069e-18
9782.09133 8.13755e-18
9782.95280 8.16954e-18
9783.81426 8.20147e-18
9784.68574 8.17466e-18
9785.54720 8.14766e-18
9786.40866 8.08337e-18
9787.27012 8.01898e-18
9788.13158 7.95732e-18
9788.99305 7.89567e-18
9789.85451 7.85077e-18
9790.71597 7.80590e-18
9791.57743 7.78362e-18
9792.43889 7.76139e-18
9793.30036 7.74670e-18
9794.16182 7.73202e-18
9795.03330 7.69330e-18
9795.89476 7.65450e-18
9796.75622 7.60097e-18
9797.61768 7.54741e-18
9798.47915 7.52527e-18
9799.34061 7.50322e-18
9800.20207 7.52789e-18
9801.06353 7.55272e-18
9801.92499 7.60231e-18
9802.78645 7.65199e-18
9803.64792 7.70441e-18
9804.51940 7.75684e-18
9805.38086 7.78617e-18
9806.24232 7.81543e-18
9807.10378 7.80910e-18
9807.96524 7.80264e-18
9808.82671 7.78550e-18
9809.68817 7.76833e-18
9810.54963 7.76407e-18
9811.41109 7.75985e-18
9812.27255 7.78343e-18
9813.13402 7.80710e-18
9813.99548 7.86546e-18
9814.86696 7.92395e-18
9815.72842 7.97557e-18
9816.58988 8.02717e-18
9817.45134 8.02792e-18
9818.31280 8.02852e-18
9819.17427 7.98427e-18
9820.03573 7.93989e-18
9820.89719 7.86921e-18
9821.75865 7.79844e-18
9822.62012 7.72857e-18
9823.48158 7.65870e-18
9824.35306 7.62137e-18
9825.21452 7.58415e-18
9826.07598 7.57475e-18
9826.93744 7.56544e-18
9827.79890 7.55827e-18
9828.66037 7.55112e-18
9829.52183 7.53983e-18
9830.38329 7.52853e-18
9831.24475 7.52074e-18
9832.10621 7.51295e-18
9832.97769 7.50690e-18
9833.83915 7.50084e-18
9834.70062 7.48653e-18
9835.56208 7.47221e-18
9836.42354 7.44506e-18
9837.28500 7.41786e-18
9838.14647 7.38056e-18
9839.00793 7.34322e-18
9839.86939 7.29880e-18
9840.73085 7.25436e-18
9841.59231 7.20440e-18
9842.45377 7.15442e-18
9843.32525 7.10462e-18
9844.18672 7.05481e-18
9845.04818 7.02282e-18
9845.90964 6.99087e-18
9846.77110 6.99058e-18
9847.63256 6.99038e-18
9848.49403 7.01750e-18
9849.35549 7.04469e-18
9850.21695 7.09132e-18
9851.07841 7.13801e-18
9851.93987 7.19658e-18
9852.81135 7.25521e-18
9853.67282 7.31683e-18
9854.53428 7.37846e-18
9855.39574 7.43751e-18
9856.25720 7.49653e-18
9857.11866 7.54883e-18
9857.98013 7.60111e-18
9858.84159 7.63548e-18
9859.70305 7.66979e-18
9860.56451 7.67341e-18
9861.42597 7.67695e-18
9862.29745 7.64809e-18
9863.15891 7.61914e-18
9864.02038 7.56330e-18
9864.88184 7.50738e-18
9865.74330 7.43475e-18
9866.60476 7.36206e-18
9867.46622 7.28721e-18
9868.32769 7.21235e-18
9869.18915 7.14363e-18
9870.05061 7.07493e-18
9870.92209 7.01137e-18
9871.78355 6.94784e-18
9872.64501 6.89054e-18
9873.50648 6.83326e-18
9874.36794 6.78714e-18
9875.22940 6.74104e-18
9876.09086 6.70996e-18
9876.95232 6.67894e-18
9877.81379 6.66649e-18
9878.67525 6.65410e-18
9879.53671 6.66190e-18
9880.39817 6.66977e-18
9881.26965 6.69535e-18
9882.13111 6.72099e-18
9882.99257 6.75975e-18
9883.85404 6.79855e-18
9884.71550 6.84212e-18
9885.57696 6.88569e-18
9886.43842 6.92497e-18
9887.29988 6.96425e-18
9888.16135 6.99075e-18
9889.02281 7.01723e-18
9889.88427 7.02384e-18
9890.74573 7.03039e-18
9891.61721 7.01693e-18
9892.47867 7.00342e-18
9893.34014 6.97348e-18
9894.20160 6.94350e-18
9895.06306 6.90094e-18
9895.92452 6.85833e-18
9896.78598 6.80719e-18
9897.64745 6.75604e-18
9898.50891 6.70298e-18
9899.37037 6.64990e-18
9900.23183 6.60370e-18
9901.09329 6.55752e-18
9901.96477 6.51964e-18
9902.82623 6.48177e-18
9903.68770 6.44473e-18
9904.54916 6.40770e-18
9905.41062 6.37322e-18
9906.27208 6.33875e-18
9907.13354 6.32310e-18
9907.99501 6.30750e-18
9908.85647 6.31838e-18
9909.71793 6.32935e-18
9910.57939 6.35938e-18
9911.45087 6.38947e-18
9912.31233 6.42656e-18
9913.17380 6.46367e-18
9914.03526 6.48232e-18
9914.89672 6.50092e-18
9915.75818 6.48085e-18
9916.61964 6.46068e-18
9917.48111 6.40899e-18
9918.34257 6.35721e-18
9919.20403 6.28629e-18
9920.07551 6.21531e-18
9920.93697 6.13921e-18
9921.79843 6.06311e-18
9922.65989 5.99616e-18
9923.52136 5.92924e-18
9924.38282 5.87772e-18
9925.24428 5.82624e-18
9926.10574 5.79259e-18
9926.96720 5.75900e-18
9927.82867 5.73392e-18
9928.69013 5.70885e-18
9929.56161 5.67752e-18
9930.42307 5.64617e-18
9931.28453 5.60376e-18
9932.14599 5.56132e-18
9933.00746 5.50995e-18
9933.86892 5.45855e-18
9934.73038 5.40258e-18
9935.59184 5.34659e-18
9936.45330 5.29231e-18
9937.31477 5.23803e-18
9938.17623 5.19377e-18
9939.03769 5.14954e-18
9939.90917 5.12575e-18
9940.77063 5.10202e-18
9941.63209 5.10156e-18
9942.49355 5.10118e-18
9943.35502 5.11324e-18
9944.21648 5.12533e-18
9945.07794 5.14057e-18
9945.93940 5.15581e-18
9946.80086 5.17185e-18
9947.66233 5.18790e-18
9948.52379 5.20204e-18
9949.39527 5.21618e-18
9950.25673 5.22323e-18
9951.11819 5.23026e-18
9951.97965 5.22688e-18
9952.84112 5.22348e-18
9953.70258 5.21639e-18
9954.56404 5.20928e-18
9955.42550 5.20584e-18
9956.28696 5.20241e-18
9957.14843 5.19770e-18
9958.00989 5.19298e-18
9958.88137 5.18019e-18
9959.74283 5.16735e-18
9960.60429 5.14301e-18
9961.46575 5.11862e-18
9962.32721 5.08047e-18
9963.18868 5.04227e-18
9964.05014 5.00174e-18
9964.91160 4.96120e-18
9965.77306 4.93737e-18
9966.63452 4.91358e-18
9967.49599 4.91092e-18
9968.36747 4.90831e-18
9969.22893 4.91946e-18
9970.09039 4.93064e-18
9970.95185 4.95446e-18
9971.81331 4.97832e-18
9972.67477 5.02027e-18
9973.53624 5.06228e-18
9974.39770 5.12009e-18
9975.25916 5.17795e-18
9976.12062 5.23925e-18
9976.98208 5.30055e-18
9977.85356 5.35549e-18
9978.71503 5.41040e-18
9979.57649 5.45426e-18
9980.43795 5.49809e-18
9981.29941 5.52922e-18
9982.16087 5.56032e-18
9983.02234 5.58534e-18
9983.88380 5.61035e-18
9984.74526 5.63595e-18
9985.60672 5.66155e-18
9986.46818 5.69104e-18
9987.32965 5.72053e-18
9988.20112 5.75564e-18
9989.06259 5.79075e-18
9989.92405 5.81910e-18
9990.78551 5.84742e-18
9991.64697 5.85499e-18
9992.50843 5.86250e-18
9993.36990 5.85982e-18
9994.23136 5.85711e-18
9995.09282 5.86216e-18
9995.95428 5.86725e-18
9996.81574 5.87697e-18
9997.67721 5.88671e-18
9998.54869 5.88964e-18
9999.41015 5.89254e-18
