# wavelength flux
3707.85345 7.23221e-18
3709.32566 7.87643e-18
3710.78785 6.18982e-18
3712.26005 6.98271e-18
3713.73226 6.96032e-18
3715.20446 6.93793e-18
3716.67667 6.78708e-18
3718.13886 6.63625e-18
3719.61106 6.48547e-18
3721.08327 6.33467e-18
3722.55547 6.18389e-18
3724.01766 6.03316e-18
3725.48987 5.88242e-18
3726.96207 5.73166e-18
3728.43428 5.58095e-18
3729.89647 5.43028e-18
3731.36867 5.27961e-18
3732.84088 5.12895e-18
3734.31308 4.97830e-18
3735.78529 4.82770e-18
3737.24748 4.67709e-18
3738.71968 4.52646e-18
3740.19189 4.37588e-18
3741.66409 4.22534e-18
3743.12628 4.07480e-18
3744.59848 3.92427e-18
3746.07069 3.77375e-18
3747.54290 3.62327e-18
3749.01510 3.47279e-18
3750.47729 3.32232e-18
3751.94950 3.17184e-18
3753.42170 3.02143e-18
3754.89391 1.68775e-18
3756.35610 2.16079e-18
3757.82830 3.05299e-18
3759.30051 4.19783e-18
3760.77271 4.38454e-18
3762.23490 5.39005e-18
3763.70711 7.63794e-18
3765.17931 3.89669e-18
3766.65152 3.28724e-18
3768.12372 8.71041e-18
3769.58591 7.72670e-18
3771.05812 8.36020e-18
3772.53032 5.26941e-18
3774.00253 3.58657e-18
3775.46472 4.10420e-18
3776.93692 4.75109e-18
3778.40913 6.25506e-18
3779.88133 7.25989e-18
3781.35354 4.79238e-18
3782.81573 7.32032e-18
3784.28793 6.99846e-18
3785.76014 5.95256e-18
3787.23234 4.50452e-18
3788.69453 6.42208e-18
3790.16673 6.72143e-18
3791.63894 4.77979e-18
3793.11114 6.38172e-18
3794.58335 6.51144e-18
3796.04554 5.68027e-18
3797.51775 4.20076e-18
3798.98995 6.65315e-18
3800.46216 7.18626e-18
3801.92435 4.44409e-18
3803.39655 5.68565e-18
3804.86876 7.09885e-18
3806.34096 5.67940e-18
3807.80315 8.57085e-18
3809.27536 9.17950e-18
3810.74756 3.83856e-18
3812.21977 4.27841e-18
3813.69197 5.36787e-18
3815.15416 4.98122e-18
3816.62637 5.12682e-18
3818.09857 6.17074e-18
3819.57078 9.70501e-18
3821.03297 1.04966e-17
3822.50517 7.45907e-18
3823.97738 5.85841e-18
3825.44958 7.93924e-18
3826.92179 7.65267e-18
3828.38398 4.09055e-18
3829.85618 6.63694e-18
3831.32839 8.00754e-18
3832.80059 5.43590e-18
3834.26278 7.61988e-18
3835.73499 9.00659e-18
3837.20719 8.62878e-18
3838.67940 4.89906e-18
3840.15160 3.75091e-18
3841.61379 7.24365e-18
3843.08600 6.59563e-18
3844.55820 4.72343e-18
3846.03040 5.52918e-18
3847.49260 7.21145e-18
3848.96480 6.12372e-18
3850.43701 6.33288e-18
3851.90921 9.63814e-18
3853.37140 1.22465e-17
3854.84361 1.14686e-17
3856.31581 6.48805e-18
3857.78802 4.59000e-18
3859.26022 7.07994e-18
3860.72241 7.64185e-18
3862.19461 8.13737e-18
3863.66682 1.95161e-18
3865.13902 -1.06223e-18
3866.60122 4.80485e-18
3868.07342 8.27539e-18
3869.54563 8.44455e-18
3871.01783 8.97602e-18
3872.49004 8.86989e-18
3873.95223 6.73201e-18
3875.42443 1.14034e-17
3876.89664 1.26127e-17
3878.36884 7.83972e-18
3879.83103 9.42518e-18
3881.30323 1.13440e-17
3882.77544 8.23730e-18
3884.24764 9.33278e-18
3885.71985 9.61808e-18
3887.18204 7.16919e-18
3888.65425 7.65454e-18
3890.12645 8.54329e-18
3891.59866 6.52774e-18
3893.06085 7.54250e-18
3894.53305 8.61248e-18
3896.00526 1.02144e-17
3897.47746 9.03739e-18
3898.93965 8.32103e-18
3900.41186 8.64413e-18
3901.88406 1.09192e-17
3903.35627 1.18810e-17
3904.82847 1.03249e-17
3906.29066 1.19636e-17
3907.76287 1.12396e-17
3909.23507 1.37070e-17
3910.70728 1.18694e-17
3912.16946 9.71661e-18
3913.64167 9.88560e-18
3915.11388 9.57645e-18
3916.58608 8.77643e-18
3918.05829 8.40496e-18
3919.52048 7.87438e-18
3920.99268 9.83681e-18
3922.46489 1.01460e-17
3923.93709 8.37120e-18
3925.39928 8.46793e-18
3926.87149 9.82002e-18
3928.34369 9.94723e-18
3929.81590 9.76899e-18
3931.28810 1.26967e-17
3932.75029 1.20822e-17
3934.22249 9.50385e-18
3935.69470 1.13948e-17
3937.16691 1.10599e-17
3938.62910 7.62134e-18
3940.10130 1.00161e-17
3941.57351 1.12620e-17
3943.04571 9.01711e-18
3944.50790 7.76620e-18
3945.98011 9.72569e-18
3947.45231 7.70176e-18
3948.92452 1.17644e-17
3950.39672 1.13945e-17
3951.85891 1.29599e-17
3953.33111 7.77718e-18
3954.80332 7.47866e-18
3956.27553 1.36982e-17
3957.73772 1.31757e-17
3959.20992 1.03587e-17
3960.68213 1.05056e-17
3962.15433 1.20886e-17
3963.62654 1.34559e-17
3965.08873 1.08722e-17
3966.56093 1.05102e-17
3968.03314 1.04392e-17
3969.50534 7.71136e-18
3970.96753 9.14791e-18
3972.43973 9.91224e-18
3973.91194 8.15962e-18
3975.38414 7.62306e-18
3976.85635 8.00377e-18
3978.31854 9.89673e-18
3979.79075 1.04600e-17
3981.26295 9.29579e-18
3982.73516 1.10589e-17
3984.19735 1.27496e-17
3985.66955 1.23577e-17
3987.14176 1.09037e-17
3988.61396 1.24808e-17
3990.07615 1.15943e-17
3991.54836 1.20948e-17
3993.02056 1.11897e-17
3994.49277 1.03569e-17
3995.96497 1.44540e-17
3997.42716 1.46827e-17
3998.89937 1.51870e-17
4000.37157 1.19551e-17
4001.84378 1.06048e-17
4003.30597 1.22144e-17
4004.77817 1.63815e-17
4006.25038 1.14052e-17
4007.72258 1.26303e-17
4009.19479 1.11202e-17
4010.65698 1.37054e-17
4012.12918 1.42283e-17
4013.60139 9.62636e-18
4015.07359 1.12134e-17
4016.53578 1.00641e-17
4018.00799 1.18189e-17
4019.48019 1.24689e-17
4020.95240 1.46224e-17
4022.42460 1.35289e-17
4023.88679 1.49416e-17
4025.35900 1.48909e-17
4026.83120 1.34485e-17
4028.30341 1.32730e-17
4029.76560 1.46514e-17
4031.23780 1.28511e-17
4032.71001 1.14008e-17
4034.18221 1.25135e-17
4035.64440 1.35731e-17
4037.11661 1.26651e-17
4038.58881 1.26148e-17
4040.06102 1.27115e-17
4041.53322 1.14659e-17
4042.99541 8.79857e-18
4044.46762 8.74323e-18
4045.93982 1.04604e-17
4047.41203 1.17213e-17
4048.87422 1.40030e-17
4050.34642 1.63572e-17
4051.81863 1.54127e-17
4053.29083 1.20915e-17
4054.76304 9.64795e-18
4056.22523 1.14861e-17
4057.69743 1.10320e-17
4059.16964 1.06556e-17
4060.64184 9.87455e-18
4062.10403 1.24000e-17
4063.57623 1.10212e-17
4065.04844 1.00074e-17
4066.52065 1.37625e-17
4067.98284 1.24269e-17
4069.45504 1.09040e-17
4070.92725 1.01102e-17
4072.39945 1.14836e-17
4073.87166 1.05152e-17
4075.33385 1.15508e-17
4076.80605 1.14846e-17
4078.27826 1.11559e-17
4079.75046 1.21428e-17
4081.21265 1.17491e-17
4082.68486 9.25029e-18
4084.15706 1.10839e-17
4085.62927 1.13231e-17
4087.10147 9.03739e-18
4088.56366 1.31752e-17
4090.03587 1.44167e-17
4091.50807 1.10142e-17
4092.98028 1.00185e-17
4094.44247 1.21870e-17
4095.91467 1.26189e-17
4097.38688 1.16991e-17
4098.85908 1.16195e-17
4100.33129 1.01181e-17
4101.79348 8.56398e-18
4103.26568 6.79879e-18
4104.73789 7.64386e-18
4106.21009 8.30891e-18
4107.67228 1.06062e-17
4109.14448 9.83148e-18
4110.61669 8.23497e-18
4112.08890 7.77675e-18
4113.56110 8.48339e-18
4115.02329 8.85179e-18
4116.49550 7.97094e-18
4117.96770 8.96070e-18
4119.43991 8.06718e-18
4120.90209 1.21389e-17
4122.37430 1.34164e-17
4123.84651 9.30061e-18
4125.31871 9.99486e-18
4126.78090 8.51135e-18
4128.25310 9.89844e-18
4129.72531 9.77602e-18
4131.19752 8.60550e-18
4132.66972 1.00414e-17
4134.13191 1.28547e-17
4135.60412 8.18863e-18
4137.07632 8.17739e-18
4138.54853 1.10395e-17
4140.01072 9.97474e-18
4141.48292 1.25837e-17
4142.95513 1.23075e-17
4144.42733 1.08618e-17
4145.89953 1.01091e-17
4147.36172 9.16577e-18
4148.83393 1.00991e-17
4150.30614 1.16783e-17
4151.77834 1.08018e-17
4153.24053 1.05252e-17
4154.71274 1.09348e-17
4156.18494 1.40993e-17
4157.65715 1.44153e-17
4159.12935 1.39760e-17
4160.59154 9.56475e-18
4162.06375 1.18213e-17
4163.53595 8.93907e-18
4165.00816 9.86945e-18
4166.47034 9.81737e-18
4167.94255 1.05086e-17
4169.41476 8.24084e-18
4170.88696 8.68015e-18
4172.34915 6.22090e-18
4173.82136 6.83134e-18
4175.29356 1.10926e-17
4176.76577 1.09957e-17
4178.23797 8.54844e-18
4179.70016 9.01211e-18
4181.17237 8.37494e-18
4182.64457 9.59893e-18
4184.11678 9.64520e-18
4185.57897 9.15299e-18
4187.05117 8.96386e-18
4188.52338 8.77896e-18
4189.99558 9.25972e-18
4191.46778 8.66321e-18
4192.92998 1.18350e-17
4194.40218 1.20535e-17
4195.87439 7.21061e-18
4197.34659 8.15319e-18
4198.80878 9.88374e-18
4200.28099 1.00039e-17
4201.75319 9.96194e-18
4203.22540 9.26506e-18
4204.68759 9.08437e-18
4206.15979 1.01182e-17
4207.63199 9.82037e-18
4209.10420 9.18832e-18
4210.57641 1.03357e-17
4212.03859 1.05859e-17
4213.51080 8.78553e-18
4214.98301 8.74140e-18
4216.45521 1.05393e-17
4217.91740 9.58051e-18
4219.38961 7.85172e-18
4220.86181 9.23634e-18
4222.33402 1.01995e-17
4223.80622 1.06749e-17
4225.26841 1.06330e-17
4226.74061 8.26803e-18
4228.21282 9.27749e-18
4229.68503 9.21700e-18
4231.14722 9.15651e-18
4232.61942 9.09603e-18
4234.09163 9.03555e-18
4235.56383 8.97507e-18
4237.03604 8.91460e-18
4238.49823 8.85414e-18
4239.97043 8.79368e-18
4241.44264 8.79334e-18
4242.91484 1.06823e-17
4244.37703 1.03459e-17
4245.84923 9.74701e-18
4247.32144 8.41132e-18
4248.79365 9.99984e-18
4250.26585 1.09527e-17
4251.72804 9.32133e-18
4253.20024 8.71494e-18
4254.67245 9.31105e-18
4256.14466 1.08850e-17
4257.60685 9.75672e-18
4259.07905 1.01697e-17
4260.55126 1.07127e-17
4262.02346 1.07415e-17
4263.48565 1.16896e-17
4264.95785 1.01315e-17
4266.43006 1.01313e-17
4267.90227 1.10423e-17
4269.37447 9.27926e-18
4270.83666 7.50450e-18
4272.30886 9.08697e-18
4273.78107 9.66781e-18
4275.25328 8.25560e-18
4276.71547 9.53626e-18
4278.18767 9.00400e-18
4279.65988 9.48342e-18
4281.13208 8.84571e-18
4282.60428 8.75628e-18
4284.06647 1.09234e-17
4285.53868 1.16369e-17
4287.01089 1.16920e-17
4288.48309 1.06563e-17
4289.94528 1.08138e-17
4291.41748 9.12680e-18
4292.88969 8.99718e-18
4294.36190 1.12233e-17
4295.82409 1.15061e-17
4297.29629 9.63756e-18
4298.76850 1.01622e-17
4300.24070 9.55900e-18
4301.71291 1.00229e-17
4303.17509 1.20791e-17
4304.64730 9.81019e-18
4306.11951 8.02685e-18
4307.59171 9.96382e-18
4309.05390 1.01385e-17
4310.52610 1.07566e-17
4311.99831 1.05206e-17
4313.47052 1.02846e-17
4314.94272 1.00487e-17
4316.40491 9.81270e-18
4317.87712 9.57676e-18
4319.34932 9.34084e-18
4320.82153 9.10494e-18
4322.28372 8.86905e-18
4323.75592 8.63319e-18
4325.22813 8.63284e-18
4326.70033 8.39214e-18
4328.16252 8.16216e-18
4329.63472 8.77080e-18
4331.10693 9.46872e-18
4332.57913 1.01594e-17
4334.05134 1.01826e-17
4335.51353 8.74217e-18
4336.98574 9.52700e-18
4338.45794 1.03599e-17
4339.93015 8.70621e-18
4341.39234 7.23486e-18
4342.86454 8.89290e-18
4344.33675 1.04927e-17
4345.80895 9.56726e-18
4347.28116 8.30389e-18
4348.74334 9.75529e-18
4350.21555 9.64817e-18
4351.68775 8.59544e-18
4353.15996 8.69895e-18
4354.62215 8.80238e-18
4356.09436 8.90584e-18
4357.56656 9.00932e-18
4359.03877 9.11273e-18
4360.51097 9.21616e-18
4361.97316 9.31959e-18
4363.44537 9.42300e-18
4364.91757 9.52641e-18
4366.38978 9.62981e-18
4367.85197 9.73316e-18
4369.32417 9.83657e-18
4370.79637 9.93995e-18
4372.26858 1.00433e-17
4373.74078 1.01467e-17
4375.20298 1.02500e-17
4376.67518 1.03533e-17
4378.14739 1.04566e-17
4379.61959 1.05600e-17
4381.08178 1.06633e-17
4382.55399 1.07666e-17
4384.02619 1.08699e-17
4385.49840 1.09731e-17
4386.96059 1.10764e-17
4388.43279 1.11796e-17
4389.90499 1.19224e-17
4391.37720 1.07625e-17
4392.84941 9.67695e-18
4394.31160 9.73952e-18
4395.78380 9.52045e-18
4397.25601 9.61557e-18
4398.72821 1.05375e-17
4400.19040 9.85209e-18
4401.66260 1.00880e-17
4403.13481 1.04174e-17
4404.60702 1.04069e-17
4406.07922 1.02999e-17
4407.54141 9.53919e-18
4409.01361 9.46981e-18
4410.48582 9.38346e-18
4411.95803 9.85477e-18
4413.42022 1.06215e-17
4414.89242 9.67457e-18
4416.36463 9.34959e-18
4417.83683 9.56731e-18
4419.29902 8.87254e-18
4420.77122 9.51700e-18
4422.24343 1.01148e-17
4423.71564 1.12834e-17
4425.18784 1.14030e-17
4426.65003 1.01631e-17
4428.12223 9.72829e-18
4429.59444 9.88102e-18
4431.06665 1.02137e-17
4432.52884 1.08349e-17
4434.00104 1.05521e-17
4435.47325 9.22845e-18
4436.94545 1.00902e-17
4438.41766 1.06442e-17
4439.87984 1.01407e-17
4441.35205 9.62566e-18
4442.82426 1.12154e-17
4444.29646 1.20233e-17
4445.75865 1.05489e-17
4447.23085 9.02557e-18
4448.70306 1.01615e-17
4450.17527 1.12320e-17
4451.63746 1.00634e-17
4453.10966 1.03776e-17
4454.58187 1.13807e-17
4456.05407 1.07375e-17
4457.52628 9.27575e-18
4458.98847 9.97017e-18
4460.46067 1.13568e-17
4461.93288 1.07885e-17
4463.40508 1.08658e-17
4464.86727 1.15850e-17
4466.33947 1.12852e-17
4467.81168 1.10731e-17
4469.28389 1.04955e-17
4470.75609 1.04771e-17
4472.21828 1.19040e-17
4473.69049 1.20356e-17
4475.16269 1.20561e-17
4476.63490 1.20734e-17
4478.09709 1.19533e-17
4479.56929 1.21773e-17
4481.04150 1.19472e-17
4482.51370 1.24709e-17
4483.98591 1.23860e-17
4485.44809 1.05923e-17
4486.92030 1.07788e-17
4488.39251 1.21045e-17
4489.86471 1.23699e-17
4491.32690 1.29202e-17
4492.79911 1.39999e-17
4494.27131 1.39816e-17
4495.74352 1.33051e-17
4497.21572 1.33149e-17
4498.67791 1.44253e-17
4500.15012 1.57639e-17
4501.62232 1.47820e-17
4503.09453 1.35293e-17
4504.55672 1.36440e-17
4506.02892 1.37384e-17
4507.50113 1.33423e-17
4508.97333 1.39107e-17
4510.43552 1.55313e-17
4511.90773 1.60666e-17
4513.37993 1.51163e-17
4514.85214 1.43551e-17
4516.32434 1.40524e-17
4517.78653 1.36762e-17
4519.25874 1.34310e-17
4520.73094 1.35809e-17
4522.20315 1.46161e-17
4523.66534 1.53032e-17
4525.13754 1.47800e-17
4526.60974 1.48092e-17
4528.08195 1.54032e-17
4529.55416 1.53787e-17
4531.01635 1.53612e-17
4532.48855 1.47293e-17
4533.96076 1.40570e-17
4535.43296 1.45625e-17
4536.89515 1.59162e-17
4538.36736 1.68753e-17
4539.83956 1.57477e-17
4541.31177 1.55347e-17
4542.77396 1.58318e-17
4544.24616 1.53341e-17
4545.71836 1.60596e-17
4547.19057 1.66446e-17
4548.66278 1.47893e-17
4550.12497 1.48616e-17
4551.59717 1.65820e-17
4553.06938 1.63928e-17
4554.54158 1.66190e-17
4556.00377 1.73797e-17
4557.47598 1.71593e-17
4558.94818 1.59687e-17
4560.42039 1.52884e-17
4561.89259 1.57208e-17
4563.35478 1.77408e-17
4564.82698 1.84334e-17
4566.29919 1.79767e-17
4567.77140 1.71157e-17
4569.23359 1.62095e-17
4570.70579 1.64399e-17
4572.17800 1.66293e-17
4573.65020 1.75180e-17
4575.12241 1.71007e-17
4576.58460 1.71430e-17
4578.05680 1.79309e-17
4579.52901 1.79803e-17
4581.00121 1.72129e-17
4582.46340 1.78472e-17
4583.93560 1.86950e-17
4585.40781 1.80784e-17
4586.88002 1.70110e-17
4588.34221 1.54278e-17
4589.81441 1.61651e-17
4591.28661 1.74715e-17
4592.75882 1.66250e-17
4594.23103 1.69861e-17
4595.69322 1.71695e-17
4597.16542 1.66979e-17
4598.63763 1.73530e-17
4600.10983 1.79124e-17
4601.57202 1.78159e-17
4603.04422 1.77630e-17
4604.51643 1.69716e-17
4605.98864 1.66940e-17
4607.46084 1.68461e-17
4608.92303 1.65194e-17
4610.39523 1.73359e-17
4611.86744 1.74460e-17
4613.33965 1.71815e-17
4614.80184 1.74338e-17
4616.27404 1.72040e-17
4617.74625 1.71098e-17
4619.21845 1.74833e-17
4620.69066 1.77519e-17
4622.15284 1.88986e-17
4623.62505 1.94460e-17
4625.09726 1.80676e-17
4626.56946 1.72668e-17
4628.03165 1.78844e-17
4629.50385 1.64025e-17
4630.97606 1.66569e-17
4632.44827 1.73020e-17
4633.91046 1.70987e-17
4635.38266 1.68715e-17
4636.85487 1.66123e-17
4638.32707 1.67486e-17
4639.79928 1.60991e-17
4641.26147 1.54379e-17
4642.73367 1.65267e-17
4644.20588 1.68150e-17
4645.67808 1.64150e-17
4647.14027 1.53352e-17
4648.61247 1.54944e-17
4650.08468 1.65536e-17
4651.55688 1.61271e-17
4653.02909 1.51068e-17
4654.49128 1.56955e-17
4655.96349 1.55887e-17
4657.43569 1.60749e-17
4658.90790 1.65507e-17
4660.37009 1.60107e-17
4661.84229 1.55068e-17
4663.31450 1.53598e-17
4664.78670 1.57384e-17
4666.25891 1.62475e-17
4667.72109 1.59088e-17
4669.19330 1.49763e-17
4670.66550 1.45296e-17
4672.13771 1.45281e-17
4673.59990 1.54785e-17
4675.07211 1.61256e-17
4676.54431 1.60065e-17
4678.01652 1.47849e-17
4679.47871 1.41595e-17
4680.95091 1.51117e-17
4682.42312 1.59263e-17
4683.89532 1.51664e-17
4685.36753 1.50448e-17
4686.82972 1.47243e-17
4688.30192 1.39906e-17
4689.77412 1.37751e-17
4691.24633 1.45117e-17
4692.70852 1.44737e-17
4694.18073 1.39432e-17
4695.65293 1.40496e-17
4697.12514 1.57869e-17
4698.59734 1.57006e-17
4700.05953 1.41718e-17
4701.53174 1.39113e-17
4703.00394 1.30680e-17
4704.47615 1.38807e-17
4705.93834 1.33891e-17
4707.41054 1.28141e-17
4708.88274 1.33415e-17
4710.35495 1.40509e-17
4711.81714 1.34783e-17
4713.28935 1.34018e-17
4714.76155 1.28569e-17
4716.23376 1.32064e-17
4717.70596 1.40537e-17
4719.16815 1.40052e-17
4720.64035 1.42184e-17
4722.11256 1.34354e-17
4723.58477 1.30153e-17
4725.04696 1.36534e-17
4726.51916 1.38568e-17
4727.99136 1.36505e-17
4729.46357 1.29899e-17
4730.93578 1.30390e-17
4732.39797 1.39782e-17
4733.87017 1.41709e-17
4735.34238 1.32986e-17
4736.81458 1.39584e-17
4738.27677 1.33167e-17
4739.74897 1.23587e-17
4741.22118 1.14624e-17
4742.69339 1.18887e-17
4744.16559 1.31631e-17
4745.62778 1.25610e-17
4747.09998 1.29077e-17
4748.57219 1.27594e-17
4750.04440 1.21297e-17
4751.50659 1.23047e-17
4752.97879 1.30559e-17
4754.45100 1.33640e-17
4755.92320 1.27473e-17
4757.39541 1.26418e-17
4758.85759 1.22976e-17
4760.32980 1.15708e-17
4761.80201 1.18268e-17
4763.27421 1.17865e-17
4764.73640 1.25635e-17
4766.20860 1.21497e-17
4767.68081 1.17725e-17
4769.15302 1.18081e-17
4770.61521 1.11435e-17
4772.08741 1.19321e-17
4773.55962 1.09090e-17
4775.03182 9.73290e-18
4776.50403 1.05221e-17
4777.96622 1.06521e-17
4779.43842 1.06957e-17
4780.91063 1.05567e-17
4782.38283 1.07853e-17
4783.84502 1.15048e-17
4785.31722 1.16336e-17
4786.78943 1.14586e-17
4788.26164 1.10036e-17
4789.73384 1.15057e-17
4791.19603 1.09554e-17
4792.66824 1.02442e-17
4794.14044 1.09859e-17
4795.61265 1.10787e-17
4797.07484 1.05724e-17
4798.54704 1.14385e-17
4800.01925 1.14705e-17
4801.49145 1.06715e-17
4802.95364 1.11346e-17
4804.42584 1.14918e-17
4805.89805 1.14241e-17
4807.37026 1.14894e-17
4808.84246 1.09620e-17
4810.30465 1.13449e-17
4811.77686 1.22046e-17
4813.24906 1.15546e-17
4814.72127 1.12451e-17
4816.18346 1.10240e-17
4817.65566 1.13492e-17
4819.12787 1.19175e-17
4820.60007 1.18131e-17
4822.07228 1.10603e-17
4823.53447 1.02283e-17
4825.00667 1.07262e-17
4826.47888 1.15115e-17
4827.95108 1.25033e-17
4829.41327 1.27723e-17
4830.88548 1.18008e-17
4832.35768 1.13574e-17
4833.82989 1.17804e-17
4835.30209 1.20571e-17
4836.76428 1.12377e-17
4838.23649 1.10644e-17
4839.70869 1.14585e-17
4841.18090 1.13862e-17
4842.64309 1.13156e-17
4844.11529 1.18182e-17
4845.58749 1.17013e-17
4847.05970 1.08993e-17
4848.53191 1.06877e-17
4849.99410 1.20894e-17
4851.46630 1.20590e-17
4852.93851 1.20286e-17
4854.41071 1.19982e-17
4855.87290 1.19678e-17
4857.34511 1.19374e-17
4858.81731 1.19070e-17
4860.28952 1.18766e-17
4861.75171 1.18462e-17
4863.22391 1.18158e-17
4864.69611 1.17854e-17
4866.16832 1.17551e-17
4867.64053 1.17247e-17
4869.10272 1.16943e-17
4870.57492 1.16640e-17
4872.04713 1.16336e-17
4873.51933 1.16032e-17
4874.98152 1.15729e-17
4876.45373 1.15425e-17
4877.92593 1.15121e-17
4879.39814 1.14818e-17
4880.87034 1.14514e-17
4882.33253 1.14211e-17
4883.80473 1.13907e-17
4885.27694 1.13604e-17
4886.74915 1.13301e-17
4888.21134 1.12494e-17
4889.68354 1.05464e-17
4891.15575 1.05996e-17
4892.62795 1.12055e-17
4894.09014 1.16514e-17
4895.56235 1.17414e-17
4897.03455 1.10152e-17
4898.50676 1.16011e-17
4899.97896 1.21101e-17
4901.44115 1.20573e-17
4902.91335 1.26569e-17
4904.38556 1.22676e-17
4905.85777 1.25962e-17
4907.31996 1.32565e-17
4908.79216 1.27659e-17
4910.26436 1.33172e-17
4911.73657 1.25980e-17
4913.20878 1.23084e-17
4914.67097 1.30949e-17
4916.14317 1.26235e-17
4917.61538 1.29941e-17
4919.08758 1.40005e-17
4920.54977 1.38254e-17
4922.02197 1.45687e-17
4923.49418 1.34773e-17
4924.96639 1.32753e-17
4926.42858 1.38501e-17
4927.90078 1.38947e-17
4929.37298 1.31018e-17
4930.84519 1.36671e-17
4932.31740 1.36806e-17
4933.77959 1.26740e-17
4935.25179 1.34616e-17
4936.72400 1.46475e-17
4938.19620 1.34843e-17
4939.65839 1.34186e-17
4941.13059 1.40546e-17
4942.60280 1.43680e-17
4944.07501 1.44655e-17
4945.54721 1.41314e-17
4947.00940 1.44246e-17
4948.48160 1.44081e-17
4949.95381 1.43916e-17
4951.42602 1.43751e-17
4952.88821 1.43586e-17
4954.36041 1.43421e-17
4955.83262 1.43256e-17
4957.30482 1.43091e-17
4958.77703 1.42926e-17
4960.23922 1.42761e-17
4961.71142 1.42596e-17
4963.18363 1.42431e-17
4964.65583 1.42266e-17
4966.11802 1.42101e-17
4967.59022 1.41936e-17
4969.06243 1.41771e-17
4970.53463 1.41607e-17
4972.00684 1.41442e-17
4973.46903 1.41277e-17
4974.94124 1.41112e-17
4976.41344 1.40947e-17
4977.88565 1.40783e-17
4979.34784 1.40618e-17
4980.82004 1.40453e-17
4982.29225 1.40288e-17
4983.76445 1.40124e-17
4985.22664 1.39959e-17
4986.69884 1.34922e-17
4988.17105 1.29117e-17
4989.64325 1.24214e-17
4991.11546 1.24158e-17
4992.57765 1.23770e-17
4994.04986 1.10728e-17
4995.52206 1.16118e-17
4996.99427 1.15448e-17
4998.45646 1.14777e-17
4999.92866 1.14106e-17
5001.40087 1.13435e-17
5002.87307 1.12765e-17
5004.34528 1.12094e-17
5005.80747 1.11424e-17
5007.27967 1.10753e-17
5008.75187 1.10083e-17
5010.22408 1.09413e-17
5011.68627 1.08742e-17
5013.15848 1.08072e-17
5014.63068 1.07402e-17
5016.10289 1.06732e-17
5017.56508 1.06062e-17
5019.03728 1.05392e-17
5020.50949 1.04722e-17
5021.98169 1.04052e-17
5023.45390 1.03383e-17
5024.91609 1.02713e-17
5026.38829 1.02044e-17
5027.86049 1.01374e-17
5029.33270 1.00705e-17
5030.79489 1.00035e-17
5032.26710 9.93655e-18
5033.73930 9.86964e-18
5035.21151 1.03577e-17
5036.68371 1.04195e-17
5038.14590 9.85989e-18
5039.61810 1.03597e-17
5041.09031 1.05173e-17
5042.56252 1.12245e-17
5044.02471 1.15944e-17
5045.49691 1.11029e-17
5046.96911 1.06808e-17
5048.44132 1.01899e-17
5049.90351 1.02082e-17
5051.37572 1.04312e-17
5052.84792 1.04388e-17
5054.32013 1.06163e-17
5055.79233 1.06877e-17
5057.25452 1.01835e-17
5058.72672 9.88312e-18
5060.19893 9.85045e-18
5061.67114 1.04906e-17
5063.13333 1.06166e-17
5064.60553 1.08687e-17
5066.07773 1.06482e-17
5067.54994 1.10424e-17
5069.02215 1.09854e-17
5070.48434 1.13094e-17
5071.95654 1.14967e-17
5073.42875 1.11459e-17
5074.90095 1.06900e-17
5076.36314 1.10204e-17
5077.83534 1.12546e-17
5079.30755 1.08511e-17
5080.77976 1.16123e-17
5082.25196 1.13820e-17
5083.71415 1.05397e-17
5085.18635 1.10827e-17
5086.65856 1.19182e-17
5088.13077 1.11329e-17
5089.59296 1.08905e-17
5091.06516 1.18501e-17
5092.53737 1.26551e-17
5094.00957 1.16087e-17
5095.48178 1.18011e-17
5096.94397 1.14901e-17
5098.41617 1.20344e-17
5099.88838 1.21458e-17
5101.36058 1.23416e-17
5102.82277 1.21342e-17
5104.29497 1.16106e-17
5105.76718 1.12702e-17
5107.23939 1.16934e-17
5108.70158 1.23108e-17
5110.17378 1.16906e-17
5111.64599 1.07796e-17
5113.11819 1.12575e-17
5114.59040 1.23838e-17
5116.05259 1.21166e-17
5117.52479 1.23683e-17
5118.99700 1.24365e-17
5120.46920 1.24446e-17
5121.93139 1.29748e-17
5123.40359 1.32431e-17
5124.87580 1.30452e-17
5126.34801 1.28154e-17
5127.82021 1.31693e-17
5129.28240 1.26110e-17
5130.75461 1.21143e-17
5132.22681 1.22019e-17
5133.69902 1.22765e-17
5135.16121 1.22869e-17
5136.63341 1.21060e-17
5138.10562 1.27133e-17
5139.57782 1.29956e-17
5141.04001 1.29374e-17
5142.51222 1.29930e-17
5143.98442 1.30082e-17
5145.45663 1.26297e-17
5146.92883 1.24925e-17
5148.39102 1.28440e-17
5149.86323 1.33327e-17
5151.33543 1.37451e-17
5152.80764 1.35401e-17
5154.26983 1.21755e-17
5155.74203 1.27102e-17
5157.21424 1.36371e-17
5158.68644 1.32281e-17
5160.15865 1.29391e-17
5161.62084 1.25276e-17
5163.09304 1.24831e-17
5164.56524 1.29407e-17
5166.03745 1.36562e-17
5167.49964 1.35998e-17
5168.97185 1.29466e-17
5170.44405 1.32021e-17
5171.91626 1.30300e-17
5173.38846 1.31698e-17
5174.85065 1.29551e-17
5176.32286 1.28037e-17
5177.79506 1.31600e-17
5179.26727 1.27740e-17
5180.72946 1.31311e-17
5182.20166 1.35581e-17
5183.67386 1.34930e-17
5185.14607 1.41246e-17
5186.60826 1.35344e-17
5188.08047 1.31684e-17
5189.55267 1.34514e-17
5191.02488 1.39565e-17
5192.49708 1.35050e-17
5193.95927 1.32074e-17
5195.43148 1.25700e-17
5196.90368 1.31264e-17
5198.37589 1.35174e-17
5199.83808 1.29334e-17
5201.31028 1.34424e-17
5202.78248 1.41661e-17
5204.25469 1.36752e-17
5205.72690 1.36426e-17
5207.18909 1.38275e-17
5208.66129 1.38950e-17
5210.13350 1.42264e-17
5211.60570 1.49913e-17
5213.06789 1.45753e-17
5214.54010 1.43344e-17
5216.01230 1.46016e-17
5217.48451 1.40409e-17
5218.95671 1.47590e-17
5220.41890 1.51560e-17
5221.89110 1.41769e-17
5223.36331 1.42177e-17
5224.83552 1.42977e-17
5226.29771 1.47420e-17
5227.76991 1.50127e-17
5229.24212 1.46083e-17
5230.71432 1.46512e-17
5232.17651 1.45829e-17
5233.64872 1.45766e-17
5235.12092 1.41639e-17
5236.59313 1.43973e-17
5238.06533 1.50854e-17
5239.52752 1.53262e-17
5240.99972 1.52809e-17
5242.47193 1.50478e-17
5243.94414 1.44282e-17
5245.40633 1.43947e-17
5246.87853 1.45267e-17
5248.35073 1.44728e-17
5249.82294 1.44435e-17
5251.29515 1.49390e-17
5252.75734 1.49932e-17
5254.22954 1.50653e-17
5255.70175 1.57267e-17
5257.17395 1.56207e-17
5258.63614 1.51848e-17
5260.10834 1.54447e-17
5261.58055 1.56647e-17
5263.05276 1.53084e-17
5264.52496 1.51167e-17
5265.98715 1.53521e-17
5267.45935 1.56622e-17
5268.93156 1.56708e-17
5270.40377 1.53098e-17
5271.86596 1.54032e-17
5273.33816 1.53566e-17
5274.81037 1.55398e-17
5276.28257 1.56939e-17
5277.74476 1.50854e-17
5279.21697 1.48518e-17
5280.68917 1.55958e-17
5282.16138 1.61677e-17
5283.63358 1.54954e-17
5285.09577 1.56733e-17
5286.56797 1.62131e-17
5288.04018 1.59847e-17
5289.51238 1.57855e-17
5290.97458 1.55446e-17
5292.44678 1.60088e-17
5293.91899 1.63270e-17
5295.39119 1.57489e-17
5296.86340 1.57056e-17
5298.32559 1.63677e-17
5299.79779 1.62581e-17
5301.27000 1.56411e-17
5302.74220 1.60691e-17
5304.20439 1.69982e-17
5305.67659 1.69486e-17
5307.14880 1.59938e-17
5308.62100 1.60976e-17
5310.08320 1.70104e-17
5311.55540 1.68186e-17
5313.02761 1.65720e-17
5314.49981 1.66905e-17
5315.97202 1.71137e-17
5317.43421 1.74089e-17
5318.90641 1.65051e-17
5320.37862 1.54934e-17
5321.85082 1.52575e-17
5323.31301 1.57832e-17
5324.78522 1.56617e-17
5326.25742 1.50917e-17
5327.72962 1.55911e-17
5329.20183 1.65501e-17
5330.66402 1.68468e-17
5332.13623 1.65767e-17
5333.60843 1.63061e-17
5335.08064 1.63065e-17
5336.54283 1.62917e-17
5338.01503 1.60795e-17
5339.48724 1.58885e-17
5340.95944 1.59011e-17
5342.43165 1.63821e-17
5343.89384 1.65174e-17
5345.36604 1.64897e-17
5346.83824 1.67449e-17
5348.31045 1.67840e-17
5349.77264 1.68239e-17
5351.24485 1.71002e-17
5352.71705 1.68936e-17
5354.18926 1.61106e-17
5355.66146 1.54891e-17
5357.12365 1.58693e-17
5358.59585 1.67636e-17
5360.06806 1.62392e-17
5361.54027 1.54224e-17
5363.00246 1.58980e-17
5364.47466 1.63087e-17
5365.94686 1.62715e-17
5367.41907 1.65848e-17
5368.88126 1.71064e-17
5370.35347 1.70317e-17
5371.82567 1.64983e-17
5373.29788 1.61422e-17
5374.77008 1.57789e-17
5376.23227 1.56235e-17
5377.70447 1.60138e-17
5379.17668 1.63248e-17
5380.64889 1.61867e-17
5382.11108 1.57712e-17
5383.58328 1.58575e-17
5385.05548 1.58236e-17
5386.52769 1.53664e-17
5387.99990 1.51392e-17
5389.46209 1.52300e-17
5390.93429 1.53902e-17
5392.40650 1.59437e-17
5393.87870 1.64096e-17
5395.34089 1.55823e-17
5396.81309 1.50784e-17
5398.28530 1.57075e-17
5399.75751 1.56718e-17
5401.21970 1.53055e-17
5402.69190 1.54498e-17
5404.16410 1.60126e-17
5405.63631 1.60459e-17
5407.10852 1.55928e-17
5408.57071 1.54617e-17
5410.04291 1.57291e-17
5411.51512 1.58047e-17
5412.98732 1.52775e-17
5414.44951 1.49442e-17
5415.92172 1.51751e-17
5417.39392 1.54000e-17
5418.86613 1.50098e-17
5420.33833 1.51790e-17
5421.80052 1.58133e-17
5423.27272 1.57344e-17
5424.74493 1.60704e-17
5426.21714 1.59077e-17
5427.67933 1.52145e-17
5429.15153 1.54473e-17
5430.62374 1.58971e-17
5432.09594 1.54803e-17
5433.55813 1.55961e-17
5435.03034 1.60711e-17
5436.50254 1.55574e-17
5437.97475 1.53202e-17
5439.44695 1.57973e-17
5440.90914 1.60555e-17
5442.38134 1.60333e-17
5443.85355 1.59042e-17
5445.32576 1.57102e-17
5446.78795 1.56289e-17
5448.26015 1.63674e-17
5449.73236 1.66749e-17
5451.20456 1.63976e-17
5452.67677 1.62317e-17
5454.13896 1.60969e-17
5455.61116 1.64734e-17
5457.08337 1.68800e-17
5458.55557 1.62340e-17
5460.01776 1.61098e-17
5461.48997 1.64857e-17
5462.96217 1.63187e-17
5464.43438 1.71677e-17
5465.90658 1.74830e-17
5467.36877 1.68233e-17
5468.84098 1.65128e-17
5470.31318 1.67144e-17
5471.78539 1.71739e-17
5473.24758 1.71780e-17
5474.71978 1.69697e-17
5476.19199 1.72687e-17
5477.66419 1.71104e-17
5479.13640 1.64403e-17
5480.59859 1.62822e-17
5482.07079 1.67177e-17
5483.54299 1.65893e-17
5485.01520 1.66897e-17
5486.47739 1.71380e-17
5487.94960 1.64863e-17
5489.42180 1.60700e-17
5490.89401 1.59676e-17
5492.35620 1.55634e-17
5493.82840 1.56030e-17
5495.30061 1.56783e-17
5496.77281 1.55302e-17
5498.24502 1.58921e-17
5499.70721 1.58301e-17
5501.17941 1.53077e-17
5502.65161 1.53143e-17
5504.12382 1.55867e-17
5505.58601 1.50950e-17
5507.05822 1.49348e-17
5508.53042 1.49671e-17
5510.00263 1.46144e-17
5511.47483 1.52719e-17
5512.93702 1.50183e-17
5514.40923 1.48317e-17
5515.88143 1.44907e-17
5517.35364 1.40641e-17
5518.81583 1.38124e-17
5520.28803 1.39370e-17
5521.76023 1.38099e-17
5523.23244 1.29698e-17
5524.69463 1.29699e-17
5526.16684 1.33123e-17
5527.63904 1.33276e-17
5529.11125 1.29633e-17
5530.58345 1.29870e-17
5532.04564 1.31935e-17
5533.51785 1.32656e-17
5534.99005 1.29926e-17
5536.46226 1.22046e-17
5537.92445 1.26750e-17
5539.39665 1.28113e-17
5540.86885 1.28470e-17
5542.34106 1.19474e-17
5543.81327 1.18364e-17
5545.27546 1.24494e-17
5546.74766 1.25326e-17
5548.21987 1.18496e-17
5549.69207 1.15254e-17
5551.15426 1.11010e-17
5552.62647 1.12467e-17
5554.09867 1.15917e-17
5555.57088 1.15631e-17
5557.03307 1.05870e-17
5558.50527 1.07822e-17
5559.97747 1.06197e-17
5561.44968 1.07044e-17
5562.92189 1.10107e-17
5564.38408 1.08655e-17
5565.85628 1.05656e-17
5567.32849 1.00811e-17
5568.80069 1.05954e-17
5570.27290 1.07633e-17
5571.73509 1.06808e-17
5573.20729 1.01681e-17
5574.67950 9.97655e-18
5576.15170 1.09617e-17
5577.61389 9.81312e-18
5579.08609 9.17382e-18
5580.55830 9.89317e-18
5582.03051 9.94876e-18
5583.49270 9.13483e-18
5584.96490 9.60471e-18
5586.43710 1.00318e-17
5587.90931 1.00183e-17
5589.38152 9.80862e-18
5590.84371 9.58959e-18
5592.31591 9.90827e-18
5593.78812 9.81267e-18
5595.26032 9.50094e-18
5596.72251 9.32525e-18
5598.19472 8.26447e-18
5599.66692 8.35033e-18
5601.13913 8.77191e-18
5602.61133 8.63572e-18
5604.07352 8.16754e-18
5605.54572 8.47228e-18
5607.01793 8.83500e-18
5608.49014 8.93361e-18
5609.95233 8.52793e-18
5611.42453 8.49407e-18
5612.89674 8.29232e-18
5614.36894 7.80695e-18
5615.83113 7.48866e-18
5617.30334 7.98080e-18
5618.77554 8.06827e-18
5620.24775 7.71710e-18
5621.71995 7.51134e-18
5623.18214 7.94563e-18
5624.65434 8.16153e-18
5626.12655 7.97043e-18
5627.59875 7.96930e-18
5629.06095 7.14674e-18
5630.53315 6.58480e-18
5632.00536 7.52751e-18
5633.47756 7.23249e-18
5634.94977 6.56489e-18
5636.41196 7.13915e-18
5637.88416 8.11981e-18
5639.35637 7.91949e-18
5640.82857 7.18796e-18
5642.29076 6.57131e-18
5643.76297 7.57434e-18
5645.23517 7.52744e-18
5646.70737 7.17603e-18
5648.16957 7.06634e-18
5649.64177 6.75580e-18
5651.11398 7.83090e-18
5652.58618 7.81880e-18
5654.05839 6.93264e-18
5655.52058 7.28683e-18
5656.99278 7.82110e-18
5658.46499 7.62916e-18
5659.93719 7.03149e-18
5661.39938 6.99067e-18
5662.87159 6.90848e-18
5664.34379 6.55019e-18
5665.81599 6.78297e-18
5667.28820 6.96846e-18
5668.75039 6.85411e-18
5670.22260 6.65473e-18
5671.69480 6.42790e-18
5673.16701 6.50865e-18
5674.62920 6.77838e-18
5676.10140 6.67619e-18
5677.57360 7.16568e-18
5679.04581 7.69167e-18
5680.51802 7.80299e-18
5681.98021 7.34115e-18
5683.45241 6.90861e-18
5684.92461 6.99996e-18
5686.39682 6.73917e-18
5687.85901 6.93383e-18
5689.33122 7.24072e-18
5690.80342 7.46169e-18
5692.27563 7.38508e-18
5693.74783 7.55526e-18
5695.21002 7.57292e-18
5696.68222 7.62071e-18
5698.15443 7.06201e-18
5699.62664 7.64573e-18
5701.08883 7.80016e-18
5702.56103 7.63766e-18
5704.03323 6.77524e-18
5705.50544 7.56518e-18
5706.96763 8.39637e-18
5708.43984 7.26426e-18
5709.91204 6.67966e-18
5711.38425 6.93881e-18
5712.85645 7.55126e-18
5714.31864 7.83084e-18
5715.79084 7.74301e-18
5717.26305 7.17953e-18
5718.73526 7.25898e-18
5720.19745 7.32834e-18
5721.66965 8.28293e-18
5723.14185 8.46794e-18
5724.61406 8.99811e-18
5726.08627 8.42289e-18
5727.54846 7.94021e-18
5729.02066 7.93900e-18
5730.49287 7.79388e-18
5731.96507 9.01569e-18
5733.42726 8.54515e-18
5734.89947 8.02985e-18
5736.37167 8.49968e-18
5737.84388 8.55523e-18
5739.30607 9.33853e-18
5740.77827 9.50823e-18
5742.25047 9.40938e-18
5743.72268 9.46690e-18
5745.19489 9.31395e-18
5746.65708 9.47239e-18
5748.12928 9.29316e-18
5749.60149 9.46886e-18
5751.07369 1.02768e-17
5752.53588 1.00793e-17
5754.00809 1.02871e-17
5755.48029 1.03106e-17
5756.95250 1.02001e-17
5758.42470 1.00670e-17
5759.88689 9.99762e-18
5761.35909 9.52446e-18
5762.83130 9.83737e-18
5764.30351 1.08873e-17
5765.76570 1.04455e-17
5767.23790 1.08283e-17
5768.71011 1.07322e-17
5770.18231 1.09573e-17
5771.65452 1.08412e-17
5773.11671 1.05403e-17
5774.58891 1.11092e-17
5776.06112 1.11510e-17
5777.53332 1.15817e-17
5778.99551 1.16406e-17
5780.46772 1.18596e-17
5781.93992 1.19598e-17
5783.41213 1.17581e-17
5784.87432 1.15612e-17
5786.34652 1.17147e-17
5787.81873 1.10751e-17
5789.29093 1.13663e-17
5790.76314 1.15947e-17
5792.22533 1.13751e-17
5793.69753 1.15338e-17
5795.16974 1.20938e-17
5796.64194 1.15314e-17
5798.10413 1.22241e-17
5799.57634 1.18852e-17
5801.04854 1.23116e-17
5802.52074 1.24497e-17
5803.99295 1.29081e-17
5805.45514 1.32237e-17
5806.92735 1.34305e-17
5808.39955 1.36191e-17
5809.87176 1.34163e-17
5811.33395 1.30743e-17
5812.80615 1.35117e-17
5814.27836 1.26471e-17
5815.75056 1.40434e-17
5817.22277 1.35561e-17
5818.68496 1.40691e-17
5820.15716 1.38568e-17
5821.62936 1.42530e-17
5823.10157 1.42683e-17
5824.56376 1.43822e-17
5826.03597 1.49609e-17
5827.50817 1.46126e-17
5828.98038 1.43438e-17
5830.44257 1.47583e-17
5831.91477 1.44234e-17
5833.38698 1.46056e-17
5834.85918 1.50014e-17
5836.33139 1.46546e-17
5837.79358 1.45366e-17
5839.26578 1.50980e-17
5840.73798 1.48652e-17
5842.21019 1.47195e-17
5843.67238 1.37888e-17
5845.14459 1.42784e-17
5846.61679 1.49763e-17
5848.08900 1.58084e-17
5849.56120 1.55298e-17
5851.02339 1.58456e-17
5852.49560 1.62253e-17
5853.96780 1.61226e-17
5855.44001 1.56816e-17
5856.90220 1.52540e-17
5858.37440 1.57594e-17
5859.84660 1.50882e-17
5861.31881 1.53304e-17
5862.79102 1.60769e-17
5864.25321 1.58611e-17
5865.72541 1.51049e-17
5867.19762 1.56196e-17
5868.66982 1.60765e-17
5870.13201 1.55078e-17
5871.60422 1.53797e-17
5873.07642 1.50314e-17
5874.54863 1.52389e-17
5876.01082 1.60291e-17
5877.48302 1.60886e-17
5878.95522 1.51379e-17
5880.42743 1.50970e-17
5881.89964 1.52849e-17
5883.36183 1.54599e-17
5884.83403 1.59975e-17
5886.30624 1.56155e-17
5887.77844 1.37637e-17
5889.24063 1.46528e-17
5890.71284 1.48969e-17
5892.18504 1.50643e-17
5893.65725 1.35984e-17
5895.12945 9.93017e-18
5896.59164 8.51183e-18
5898.06384 9.72337e-18
5899.53605 1.10836e-17
5901.00826 1.09458e-17
5902.47045 1.05470e-17
5903.94265 1.09537e-17
5905.41485 1.19368e-17
5906.88706 1.36206e-17
5908.34925 1.48113e-17
5909.82146 1.50716e-17
5911.29366 1.56991e-17
5912.76587 1.53133e-17
5914.23807 1.50096e-17
5915.70026 1.55130e-17
5917.17247 1.54226e-17
5918.64467 1.55918e-17
5920.11688 1.56488e-17
5921.57907 1.50146e-17
5923.05127 1.46913e-17
5924.52347 1.48365e-17
5925.99568 1.39128e-17
5927.46789 1.37704e-17
5928.93008 1.54815e-17
5930.40228 1.57232e-17
5931.87449 1.50655e-17
5933.34669 1.52663e-17
5934.80888 1.51521e-17
5936.28109 1.48629e-17
5937.75329 1.49486e-17
5939.22550 1.50513e-17
5940.69770 1.49453e-17
5942.15989 1.52430e-17
5943.63209 1.56228e-17
5945.10430 1.50552e-17
5946.57650 1.44588e-17
5948.03870 1.46664e-17
5949.51090 1.49232e-17
5950.98311 1.48616e-17
5952.45531 1.51929e-17
5953.92752 1.51421e-17
5955.38971 1.52144e-17
5956.86191 1.48705e-17
5958.33412 1.46367e-17
5959.80632 1.46843e-17
5961.26851 1.55835e-17
5962.74072 1.54824e-17
5964.21292 1.47676e-17
5965.68512 1.53707e-17
5967.14732 1.53446e-17
5968.61952 1.54709e-17
5970.09173 1.50582e-17
5971.56393 1.50075e-17
5973.03614 1.45405e-17
5974.49833 1.44520e-17
5975.97053 1.49333e-17
5977.44274 1.45092e-17
5978.91494 1.48776e-17
5980.37713 1.45752e-17
5981.84934 1.57324e-17
5983.32154 1.50930e-17
5984.79374 1.44818e-17
5986.26595 1.50241e-17
5987.72814 1.44681e-17
5989.20035 1.45624e-17
5990.67255 1.50061e-17
5992.14476 1.44807e-17
5993.60695 1.42338e-17
5995.07915 1.44025e-17
5996.55135 1.44011e-17
5998.02356 1.42642e-17
5999.48575 1.41425e-17
6000.95796 1.44140e-17
6002.43016 1.40875e-17
6003.90236 1.40071e-17
6005.37457 1.42537e-17
6006.83676 1.43307e-17
6008.30897 1.40681e-17
6009.78117 1.38787e-17
6011.25338 1.37578e-17
6012.71557 1.39975e-17
6014.18777 1.36218e-17
6015.65997 1.38387e-17
6017.13218 1.40256e-17
6018.60439 1.39492e-17
6020.06658 1.39316e-17
6021.53878 1.36598e-17
6023.01098 1.38690e-17
6024.48319 1.37243e-17
6025.94538 1.37144e-17
6027.41759 1.40833e-17
6028.88979 1.37158e-17
6030.36200 1.35190e-17
6031.82419 1.30452e-17
6033.29639 1.29402e-17
6034.76859 1.35609e-17
6036.24080 1.38630e-17
6037.71301 1.38478e-17
6039.17520 1.31275e-17
6040.64740 1.27658e-17
6042.11960 1.34146e-17
6043.59181 1.31821e-17
6045.05400 1.32379e-17
6046.52621 1.29057e-17
6047.99841 1.24355e-17
6049.47062 1.28017e-17
6050.94282 1.37995e-17
6052.40501 1.30125e-17
6053.87722 1.24056e-17
6055.34942 1.30776e-17
6056.82163 1.28393e-17
6058.28382 1.31906e-17
6059.75602 1.28585e-17
6061.22822 1.18404e-17
6062.70043 1.20545e-17
6064.17264 1.20143e-17
6065.63483 1.18869e-17
6067.10703 1.24294e-17
6068.57924 1.18808e-17
6070.05144 1.18638e-17
6071.51363 1.26306e-17
6072.98584 1.25795e-17
6074.45804 1.17253e-17
6075.93025 1.22156e-17
6077.40245 1.28004e-17
6078.86464 1.19420e-17
6080.33684 1.15368e-17
6081.80905 1.14854e-17
6083.28126 1.19170e-17
6084.74345 1.23629e-17
6086.21565 1.25267e-17
6087.68786 1.19845e-17
6089.16006 1.18893e-17
6090.62225 1.22189e-17
6092.09446 1.18524e-17
6093.56666 1.12932e-17
6095.03887 1.09500e-17
6096.51107 1.15682e-17
6097.97326 1.22136e-17
6099.44547 1.17693e-17
6100.91767 1.15881e-17
6102.38988 1.15448e-17
6103.85207 1.13001e-17
6105.32427 1.17249e-17
6106.79648 1.14463e-17
6108.26868 1.11519e-17
6109.74089 1.19774e-17
6111.20308 1.21862e-17
6112.67528 1.13253e-17
6114.14749 1.11683e-17
6115.61969 1.10581e-17
6117.08188 1.14578e-17
6118.55409 1.23158e-17
6120.02629 1.21075e-17
6121.49849 1.19610e-17
6122.96069 1.20483e-17
6124.43289 1.10609e-17
6125.90510 1.06658e-17
6127.37730 1.11403e-17
6128.84951 1.13655e-17
6130.31170 1.15339e-17
6131.78390 1.16029e-17
6133.25611 1.14896e-17
6134.72831 1.14774e-17
6136.19050 1.14891e-17
6137.66271 1.17673e-17
6139.13491 1.17633e-17
6140.60711 1.13190e-17
6142.07932 1.17217e-17
6143.54151 1.18487e-17
6145.01372 1.14956e-17
6146.48592 1.17848e-17
6147.95813 1.19592e-17
6149.42032 1.17307e-17
6150.89252 1.16827e-17
6152.36473 1.15372e-17
6153.83693 1.15533e-17
6155.29912 1.15592e-17
6156.77133 1.18502e-17
6158.24353 1.20822e-17
6159.71573 1.20653e-17
6161.18794 1.20533e-17
6162.65013 1.15528e-17
6164.12234 1.16066e-17
6165.59454 1.19534e-17
6167.06675 1.20073e-17
6168.52894 1.16931e-17
6170.00114 1.18490e-17
6171.47335 1.21053e-17
6172.94555 1.15224e-17
6174.41776 1.13115e-17
6175.87995 1.16116e-17
6177.35215 1.20470e-17
6178.82435 1.24974e-17
6180.29656 1.23828e-17
6181.75875 1.19304e-17
6183.23096 1.17369e-17
6184.70316 1.20462e-17
6186.17537 1.21540e-17
6187.64757 1.23373e-17
6189.10976 1.23447e-17
6190.58197 1.24106e-17
6192.05417 1.25429e-17
6193.52638 1.20545e-17
6194.98857 1.23817e-17
6196.46077 1.23520e-17
6197.93297 1.25031e-17
6199.40518 1.26947e-17
6200.87739 1.25698e-17
6202.33958 1.25962e-17
6203.81178 1.25888e-17
6205.28399 1.22433e-17
6206.75619 1.26765e-17
6208.21838 1.27648e-17
6209.69059 1.26170e-17
6211.16279 1.27241e-17
6212.63500 1.26367e-17
6214.09719 1.25307e-17
6215.56939 1.21956e-17
6217.04159 1.20845e-17
6218.51380 1.24059e-17
6219.98601 1.28820e-17
6221.44820 1.30142e-17
6222.92040 1.27107e-17
6224.39261 1.23834e-17
6225.86481 1.19061e-17
6227.32700 1.19779e-17
6228.79921 1.25360e-17
6230.27141 1.24170e-17
6231.74362 1.22632e-17
6233.21582 1.22737e-17
6234.67801 1.24879e-17
6236.15022 1.27729e-17
6237.62242 1.27558e-17
6239.09463 1.29441e-17
6240.55682 1.24453e-17
6242.02902 1.20960e-17
6243.50122 1.22991e-17
6244.97343 1.23730e-17
6246.43562 1.20780e-17
6247.90783 1.19382e-17
6249.38003 1.19712e-17
6250.85224 1.24103e-17
6252.32444 1.25538e-17
6253.78663 1.21898e-17
6255.25884 1.21375e-17
6256.73104 1.23333e-17
6258.20325 1.23845e-17
6259.66543 1.20588e-17
6261.13764 1.17480e-17
6262.60984 1.19539e-17
6264.08205 1.22810e-17
6265.55426 1.22964e-17
6267.01645 1.21212e-17
6268.48865 1.18194e-17
6269.96086 1.16772e-17
6271.43306 1.20427e-17
6272.89525 1.23641e-17
6274.36746 1.18515e-17
6275.83966 1.13280e-17
6277.31187 1.12715e-17
6278.78407 1.15343e-17
6280.24626 1.17895e-17
6281.71847 1.17719e-17
6283.19067 1.16261e-17
6284.66287 1.17262e-17
6286.12507 1.18334e-17
6287.59727 1.19593e-17
6289.06948 1.16285e-17
6290.54168 1.12526e-17
6292.00387 1.15618e-17
6293.47608 1.17892e-17
6294.94828 1.15946e-17
6296.42049 1.11549e-17
6297.89269 1.09630e-17
6299.35488 1.06262e-17
6300.82709 1.08958e-17
6302.29929 1.19387e-17
6303.77149 1.20989e-17
6305.23369 1.17457e-17
6306.70589 1.12093e-17
6308.17810 1.09062e-17
6309.65030 1.13541e-17
6311.12251 1.12031e-17
6312.58470 1.09037e-17
6314.05690 1.16097e-17
6315.52910 1.19394e-17
6317.00131 1.16282e-17
6318.46350 1.15777e-17
6319.93571 1.15364e-17
6321.40791 1.14291e-17
6322.88011 1.11374e-17
6324.35232 1.09938e-17
6325.81451 1.12996e-17
6327.28672 1.14662e-17
6328.75892 1.14866e-17
6330.23113 1.11746e-17
6331.69332 1.13546e-17
6333.16552 1.18518e-17
6334.63772 1.15371e-17
6336.10993 1.11331e-17
6337.57212 1.11942e-17
6339.04433 1.11906e-17
6340.51653 1.07528e-17
6341.98873 1.10988e-17
6343.46094 1.15487e-17
6344.92313 1.13192e-17
6346.39534 1.16877e-17
6347.86754 1.22169e-17
6349.33975 1.17594e-17
6350.80194 1.10280e-17
6352.27414 1.11004e-17
6353.74634 1.12594e-17
6355.21855 1.14201e-17
6356.69076 1.16817e-17
6358.15295 1.15542e-17
6359.62515 1.14231e-17
6361.09735 1.14612e-17
6362.56956 1.13546e-17
6364.03175 1.13454e-17
6365.50396 1.13010e-17
6366.97616 1.10297e-17
6368.44837 1.11747e-17
6369.92057 1.15724e-17
6371.38276 1.13756e-17
6372.85497 1.16875e-17
6374.32717 1.12591e-17
6375.79938 1.08879e-17
6377.26157 1.12873e-17
6378.73377 1.15728e-17
6380.20597 1.17060e-17
6381.67818 1.15946e-17
6383.14037 1.10425e-17
6384.61258 1.14093e-17
6386.08478 1.19400e-17
6387.55699 1.14917e-17
6389.02919 1.05612e-17
6390.49138 1.10528e-17
6391.96359 1.15479e-17
6393.43579 1.12117e-17
6394.90800 1.19457e-17
6396.37019 1.25802e-17
6397.84239 1.17727e-17
6399.31459 1.11889e-17
6400.78680 1.17514e-17
6402.25901 1.20331e-17
6403.72120 1.17355e-17
6405.19340 1.14477e-17
6406.66561 1.17865e-17
6408.13781 1.19197e-17
6409.60000 1.16811e-17
6411.07221 1.14077e-17
6412.54441 1.20483e-17
6414.01662 1.20292e-17
6415.48882 1.15178e-17
6416.95101 1.15331e-17
6418.42322 1.13201e-17
6419.89542 1.15209e-17
6421.36763 1.17775e-17
6422.82982 1.16311e-17
6424.30202 1.17903e-17
6425.77423 1.12224e-17
6427.24643 1.15630e-17
6428.70862 1.14606e-17
6430.18083 1.14379e-17
6431.65303 1.17346e-17
6433.12524 1.17818e-17
6434.59744 1.20265e-17
6436.05963 1.22375e-17
6437.53184 1.24899e-17
6439.00404 1.21317e-17
6440.47625 1.20315e-17
6441.93844 1.18795e-17
6443.41064 1.18221e-17
6444.88285 1.18277e-17
6446.35505 1.24929e-17
6447.82726 1.23466e-17
6449.28945 1.21802e-17
6450.76165 1.19206e-17
6452.23386 1.17037e-17
6453.70606 1.15996e-17
6455.16825 1.16642e-17
6456.64046 1.18306e-17
6458.11266 1.19950e-17
6459.58486 1.20091e-17
6461.05707 1.25255e-17
6462.51926 1.20580e-17
6463.99147 1.19598e-17
6465.46367 1.19011e-17
6466.93588 1.18301e-17
6468.39807 1.19668e-17
6469.87027 1.18438e-17
6471.34248 1.18114e-17
6472.81468 1.18951e-17
6474.27687 1.15767e-17
6475.74908 1.15983e-17
6477.22128 1.18947e-17
6478.69348 1.23390e-17
6480.16569 1.23051e-17
6481.62788 1.18222e-17
6483.10009 1.17917e-17
6484.57229 1.19218e-17
6486.04450 1.20752e-17
6487.50669 1.19083e-17
6488.97889 1.16409e-17
6490.45110 1.18670e-17
6491.92330 1.18053e-17
6493.39551 1.20483e-17
6494.85770 1.18102e-17
6496.32990 1.17891e-17
6497.80210 1.20574e-17
6499.27431 1.18994e-17
6500.73650 1.16964e-17
6502.20871 1.15935e-17
6503.68091 1.19930e-17
6505.15312 1.20598e-17
6506.62532 1.17161e-17
6508.08751 1.17223e-17
6509.55972 1.19235e-17
6511.03192 1.21448e-17
6512.50413 1.24989e-17
6513.96632 1.21051e-17
6515.43852 1.16253e-17
6516.91072 1.16966e-17
6518.38293 1.17410e-17
6519.84512 1.16763e-17
6521.31733 1.18343e-17
6522.78953 1.20656e-17
6524.26174 1.19083e-17
6525.73394 1.14335e-17
6527.19613 1.15133e-17
6528.66834 1.15883e-17
6530.14054 1.11330e-17
6531.61275 1.15214e-17
6533.07494 1.23255e-17
6534.54714 1.22975e-17
6536.01934 1.21119e-17
6537.49155 1.19223e-17
6538.96376 1.16478e-17
6540.42595 1.16107e-17
6541.89815 1.16501e-17
6543.37036 1.16396e-17
6544.84256 1.16291e-17
6546.30475 1.16186e-17
6547.77696 1.16081e-17
6549.24916 1.15976e-17
6550.72137 1.15871e-17
6552.19357 1.15766e-17
6553.65576 1.15661e-17
6555.12797 1.15556e-17
6556.60017 1.15451e-17
6558.07238 1.15346e-17
6559.53457 1.15241e-17
6561.00677 1.15136e-17
6562.47897 1.15031e-17
6563.95118 1.14927e-17
6565.41337 1.14822e-17
6566.88558 1.14717e-17
6568.35778 1.14612e-17
6569.82999 1.14507e-17
6571.30219 1.14402e-17
6572.76438 1.14297e-17
6574.23659 1.14192e-17
6575.70879 1.14087e-17
6577.18100 1.13982e-17
6578.64318 1.13878e-17
6580.11539 1.13773e-17
6581.58759 1.13668e-17
6583.05980 1.13563e-17
6584.53201 1.13458e-17
6585.99420 1.13353e-17
6587.46640 1.13248e-17
6588.93861 1.13144e-17
6590.41081 1.13039e-17
6591.87300 1.12934e-17
6593.34521 1.12829e-17
6594.81741 1.12724e-17
6596.28962 1.12619e-17
6597.76182 1.12515e-17
6599.22401 1.12410e-17
6600.69622 1.12305e-17
6602.16842 1.12200e-17
6603.64062 1.12095e-17
6605.10282 1.08224e-17
6606.57502 1.10178e-17
6608.04723 1.10306e-17
6609.51943 1.10524e-17
6610.98162 1.13261e-17
6612.45383 1.14062e-17
6613.92603 1.08149e-17
6615.39824 1.06493e-17
6616.87044 1.08729e-17
6618.33263 1.06521e-17
6619.80484 1.08759e-17
6621.27704 1.10627e-17
6622.74924 1.07599e-17
6624.21144 1.10054e-17
6625.68364 1.13118e-17
6627.15585 1.09123e-17
6628.62805 1.08197e-17
6630.10026 1.12048e-17
6631.56245 1.07961e-17
6633.03465 1.04771e-17
6634.50685 1.05861e-17
6635.97906 1.04888e-17
6637.44125 1.03903e-17
6638.91346 1.05843e-17
6640.38566 1.07890e-17
6641.85786 1.03806e-17
6643.33007 1.06050e-17
6644.79226 1.03782e-17
6646.26447 1.00565e-17
6647.73667 9.92096e-18
6649.20888 9.96022e-18
6650.67107 1.03076e-17
6652.14327 1.00785e-17
6653.61547 1.05057e-17
6655.08768 1.08535e-17
6656.54987 1.06160e-17
6658.02208 1.00287e-17
6659.49428 1.01289e-17
6660.96648 1.02002e-17
6662.43869 1.03465e-17
6663.90088 1.00644e-17
6665.37309 1.03010e-17
6666.84529 9.86192e-18
6668.31750 1.01496e-17
6669.77969 9.72556e-18
6671.25189 1.04012e-17
6672.72409 1.01070e-17
6674.19630 1.00522e-17
6675.66851 1.00610e-17
6677.13070 9.26045e-18
6678.60290 9.72636e-18
6680.07510 9.76841e-18
6681.54731 9.71289e-18
6683.00950 9.51455e-18
6684.48171 9.15231e-18
6685.95391 9.58119e-18
6687.42612 9.67735e-18
6688.89832 9.28727e-18
6690.36051 9.57636e-18
6691.83272 9.40249e-18
6693.30492 9.05062e-18
6694.77713 9.10084e-18
6696.23932 9.20983e-18
6697.71152 9.75763e-18
6699.18372 9.69758e-18
6700.65593 9.12626e-18
6702.11812 8.99733e-18
6703.59033 9.09147e-18
6705.06253 9.45003e-18
6706.53474 9.40947e-18
6708.00694 9.00658e-18
6709.46913 9.18826e-18
6710.94134 8.98497e-18
6712.41354 9.13920e-18
6713.88575 9.17561e-18
6715.34794 9.05035e-18
6716.82014 9.35130e-18
6718.29234 8.34402e-18
6719.76455 7.58267e-18
6721.23676 8.29493e-18
6722.69895 8.68690e-18
6724.17115 9.02805e-18
6725.64336 9.61542e-18
6727.11556 9.57670e-18
6728.57775 9.21749e-18
6730.04996 9.10268e-18
6731.52216 9.13165e-18
6732.99437 9.32511e-18
6734.46657 8.87131e-18
6735.92876 8.67052e-18
6737.40097 8.93885e-18
6738.87317 9.37511e-18
6740.34538 9.46048e-18
6741.80757 8.99035e-18
6743.27977 9.04329e-18
6744.75198 9.24875e-18
6746.22418 9.03125e-18
6747.68637 8.66731e-18
6749.15858 9.06645e-18
6750.63078 9.38327e-18
6752.10299 9.33408e-18
6753.57519 8.82938e-18
6755.03738 9.00734e-18
6756.50959 9.07061e-18
6757.98179 8.73357e-18
6759.45400 9.07717e-18
6760.91619 9.05068e-18
6762.38839 9.02418e-18
6763.86060 8.99769e-18
6765.33280 8.97120e-18
6766.80501 8.94471e-18
6768.26720 8.91822e-18
6769.73940 8.89174e-18
6771.21161 8.86525e-18
6772.68381 8.83876e-18
6774.14600 8.83859e-18
6775.61821 8.44097e-18
6777.09041 8.84424e-18
6778.56261 9.04822e-18
6780.02481 8.87158e-18
6781.49701 9.16761e-18
6782.96922 8.76781e-18
6784.44142 9.20541e-18
6785.91363 9.81125e-18
6787.37582 9.05874e-18
6788.84802 8.55537e-18
6790.32023 8.86631e-18
6791.79243 8.69657e-18
6793.25462 8.55449e-18
6794.72683 7.89449e-18
6796.19903 8.05591e-18
6797.67123 8.69913e-18
6799.14344 8.63763e-18
6800.60563 8.85430e-18
6802.07784 8.43520e-18
6803.55004 8.63914e-18
6805.02225 9.00675e-18
6806.48444 8.44508e-18
6807.95664 8.13238e-18
6809.42885 8.43285e-18
6810.90105 8.36011e-18
6812.37326 8.40878e-18
6813.83545 8.31051e-18
6815.30765 8.39465e-18
6816.77985 8.03551e-18
6818.25206 8.10554e-18
6819.71425 8.03983e-18
6821.18646 8.06954e-18
6822.65866 7.78100e-18
6824.13087 8.32882e-18
6825.60307 8.04547e-18
6827.06526 7.75482e-18
6828.53747 7.88935e-18
6830.00967 7.67094e-18
6831.48188 7.52316e-18
6832.94407 7.82046e-18
6834.41627 7.67153e-18
6835.88847 7.30870e-18
6837.36068 7.48498e-18
6838.82287 7.45908e-18
6840.29508 8.10109e-18
6841.76728 8.16612e-18
6843.23949 8.03173e-18
6844.71169 7.93600e-18
6846.17388 7.92438e-18
6847.64609 7.91384e-18
6849.11829 7.63515e-18
6850.59050 7.74688e-18
6852.05269 7.75493e-18
6853.52489 7.41819e-18
6854.99709 7.57259e-18
6856.46930 7.38373e-18
6857.94151 7.80587e-18
6859.40370 8.11392e-18
6860.87590 7.82671e-18
6862.34811 7.65414e-18
6863.82031 7.58208e-18
6865.28250 7.62218e-18
6866.75471 8.39915e-18
6868.22691 8.26607e-18
6869.69912 7.74894e-18
6871.16131 8.09713e-18
6872.63351 7.54978e-18
6874.10572 7.75752e-18
6875.57792 7.61801e-18
6877.05013 7.36842e-18
6878.51232 8.09026e-18
6879.98452 8.25058e-18
6881.45673 7.85154e-18
6882.92893 7.80304e-18
6884.39112 8.01333e-18
6885.86333 8.21756e-18
6887.33553 7.82251e-18
6888.80774 8.09572e-18
6890.27994 7.67306e-18
6891.74213 7.86779e-18
6893.21434 8.45263e-18
6894.68654 8.57389e-18
6896.15875 8.15482e-18
6897.62093 7.76981e-18
6899.09314 8.12556e-18
6900.56534 8.58055e-18
6902.03755 8.52506e-18
6903.49974 8.22494e-18
6904.97195 8.44756e-18
6906.44415 8.59024e-18
6907.91636 8.09710e-18
6909.38856 8.09059e-18
6910.85075 8.42725e-18
6912.32296 8.34187e-18
6913.79516 8.72506e-18
6915.26737 8.74263e-18
6916.72955 8.34819e-18
6918.20176 8.52145e-18
6919.67397 8.81563e-18
6921.14617 8.59966e-18
6922.61838 8.41035e-18
6924.08057 8.51201e-18
6925.55277 8.31444e-18
6927.02498 8.25843e-18
6928.49718 8.55163e-18
6929.95937 8.42733e-18
6931.43158 8.55911e-18
6932.90378 8.74518e-18
6934.37599 8.93293e-18
6935.84819 9.08087e-18
6937.31038 8.51053e-18
6938.78259 8.55806e-18
6940.25479 8.90393e-18
6941.72699 8.52135e-18
6943.18919 8.39454e-18
6944.66139 8.28023e-18
6946.13360 8.61984e-18
6947.60580 8.68841e-18
6949.07801 8.68100e-18
6950.54020 8.85516e-18
6952.01240 8.72626e-18
6953.48461 8.38445e-18
6954.95681 8.69511e-18
6956.41900 9.20855e-18
6957.89121 9.25507e-18
6959.36341 9.39054e-18
6960.83561 9.25420e-18
6962.29781 9.10216e-18
6963.77001 9.39481e-18
6965.24222 9.26393e-18
6966.71442 8.78503e-18
6968.18663 9.15196e-18
6969.64882 9.25153e-18
6971.12102 8.78959e-18
6972.59322 8.66856e-18
6974.06543 8.50292e-18
6975.52762 8.31897e-18
6976.99983 8.30229e-18
6978.47203 8.60452e-18
6979.94423 9.06214e-18
6981.41644 9.05924e-18
6982.87863 8.81674e-18
6984.35084 8.79031e-18
6985.82304 8.98962e-18
6987.29525 9.14593e-18
6988.75744 8.92785e-18
6990.22964 8.66273e-18
6991.70184 8.66708e-18
6993.17405 9.18650e-18
6994.63624 9.12042e-18
6996.10845 8.47420e-18
6997.58065 8.74048e-18
6999.05285 8.83539e-18
7000.52506 8.64899e-18
7001.98725 8.92932e-18
7003.45946 9.20396e-18
7004.93166 8.76191e-18
7006.40387 8.80269e-18
7007.86606 8.98371e-18
7009.33826 8.79636e-18
7010.81047 8.48492e-18
7012.28267 8.52399e-18
7013.75488 8.49973e-18
7015.21707 8.25391e-18
7016.68927 8.12686e-18
7018.16147 8.72808e-18
7019.63368 8.74129e-18
7021.09587 8.18792e-18
7022.56808 8.35907e-18
7024.04028 8.43849e-18
7025.51249 8.29336e-18
7026.97468 8.33636e-18
7028.44688 8.30072e-18
7029.91909 8.28829e-18
7031.39129 8.52918e-18
7032.86350 8.92408e-18
7034.32569 8.82313e-18
7035.79789 8.70915e-18
7037.27009 7.92180e-18
7038.74230 7.92089e-18
7040.21451 8.32459e-18
7041.67670 8.01656e-18
7043.14890 8.10824e-18
7044.62111 8.47889e-18
7046.09331 8.61286e-18
7047.55550 8.53451e-18
7049.02771 8.55472e-18
7050.49991 8.12937e-18
7051.97212 8.23599e-18
7053.43431 8.47511e-18
7054.90651 8.34734e-18
7056.37872 8.40512e-18
7057.85092 8.82514e-18
7059.32313 8.89798e-18
7060.78532 8.39132e-18
7062.25752 8.04174e-18
7063.72973 8.44473e-18
7065.20193 8.50887e-18
7066.66412 8.60395e-18
7068.13633 8.84420e-18
7069.60853 8.75071e-18
7071.08074 8.67363e-18
7072.55294 8.51627e-18
7074.01513 8.41894e-18
7075.48734 8.54444e-18
7076.95954 8.87587e-18
7078.43175 8.85937e-18
7079.89394 8.27593e-18
7081.36614 8.20586e-18
7082.83835 8.10523e-18
7084.31055 8.36758e-18
7085.77274 8.54139e-18
7087.24495 8.40097e-18
7088.71715 8.52467e-18
7090.18936 8.86649e-18
7091.66156 8.92867e-18
7093.12375 8.58684e-18
7094.59596 8.59917e-18
7096.06816 8.38667e-18
7097.54036 8.66227e-18
7099.00256 8.74380e-18
7100.47476 8.12410e-18
7101.94697 8.30961e-18
7103.41917 8.67943e-18
7104.89138 8.73521e-18
7106.35357 8.60689e-18
7107.82577 8.41794e-18
7109.29798 8.72010e-18
7110.77018 8.97470e-18
7112.23237 8.93292e-18
7113.70458 9.15685e-18
7115.17678 9.02088e-18
7116.64898 8.77176e-18
7118.11118 8.98722e-18
7119.58338 8.86544e-18
7121.05559 8.58982e-18
7122.52779 8.56249e-18
7124.00000 8.53191e-18
7125.46219 8.58968e-18
7126.93439 8.64744e-18
7128.40660 8.70519e-18
7129.87880 8.76295e-18
7131.34099 8.82070e-18
7132.81320 8.87845e-18
7134.28540 8.87827e-18
7135.75760 8.98298e-18
7137.22981 9.06840e-18
7138.69200 9.23626e-18
7140.16421 9.23851e-18
7141.63641 8.85261e-18
7143.10862 8.26224e-18
7144.57081 8.59172e-18
7146.04301 9.15686e-18
7147.51522 9.15382e-18
7148.98742 9.21265e-18
7150.45963 9.38931e-18
7151.92182 9.38366e-18
7153.39402 9.63222e-18
7154.86622 9.29079e-18
7156.33843 9.15611e-18
7157.80062 9.19066e-18
7159.27283 8.88129e-18
7160.74503 9.05347e-18
7162.21724 9.18710e-18
7163.68944 9.34117e-18
7165.15163 9.74433e-18
7166.62384 1.00524e-17
7168.09604 9.65446e-18
7169.56825 9.46725e-18
7171.03044 9.66606e-18
7172.50264 1.00010e-17
7173.97484 1.00927e-17
7175.44705 9.76504e-18
7176.90924 1.02412e-17
7178.38145 1.08203e-17
7179.85365 1.06226e-17
7181.32586 1.05729e-17
7182.79806 1.03592e-17
7184.26025 1.01955e-17
7185.73246 1.05853e-17
7187.20466 1.04491e-17
7188.67687 1.00899e-17
7190.13906 9.73242e-18
7191.61126 1.00926e-17
7193.08347 1.02965e-17
7194.55567 9.90969e-18
7196.02788 1.03662e-17
7197.49007 1.08972e-17
7198.96227 1.07345e-17
7200.43448 1.06143e-17
7201.90668 1.06631e-17
7203.36887 1.04211e-17
7204.84108 1.02997e-17
7206.31328 1.04213e-17
7207.78549 1.08244e-17
7209.24768 1.06918e-17
7210.71988 9.87356e-18
7212.19209 9.86350e-18
7213.66429 1.02956e-17
7215.13650 9.97121e-18
7216.59868 1.01245e-17
7218.07089 1.08490e-17
7219.54309 1.05360e-17
7221.01530 1.01142e-17
7222.47749 1.03732e-17
7223.94970 1.07264e-17
7225.42190 1.11701e-17
7226.89411 1.14487e-17
7228.36631 1.08332e-17
7229.82850 1.03049e-17
7231.30071 1.09543e-17
7232.77291 1.17449e-17
7234.24512 1.17157e-17
7235.70730 1.10744e-17
7237.17951 1.06899e-17
7238.65172 1.09250e-17
7240.12392 1.12297e-17
7241.59613 1.16555e-17
7243.05832 1.17124e-17
7244.53052 1.08940e-17
7246.00273 1.03449e-17
7247.47493 1.08466e-17
7248.93712 1.14175e-17
7250.40933 1.16829e-17
7251.88153 1.18401e-17
7253.35374 1.12476e-17
7254.81592 1.09141e-17
7256.28813 1.12596e-17
7257.76034 1.09761e-17
7259.23254 1.08225e-17
7260.70475 1.10503e-17
7262.16694 1.10005e-17
7263.63914 1.09507e-17
7265.11135 1.09009e-17
7266.58355 1.08511e-17
7268.04574 1.08013e-17
7269.51795 1.07516e-17
7270.99015 1.07513e-17
7272.46236 1.07374e-17
7273.93456 1.10711e-17
7275.39675 1.15298e-17
7276.86896 1.16027e-17
7278.34116 1.10288e-17
7279.81336 1.10084e-17
7281.27556 1.09855e-17
7282.74776 1.09466e-17
7284.21997 1.12776e-17
7285.69217 1.10980e-17
7287.16438 1.11930e-17
7288.62657 1.14352e-17
7290.09877 1.12630e-17
7291.57097 1.11718e-17
7293.04318 1.09328e-17
7294.50537 1.06345e-17
7295.97758 1.05679e-17
7297.44978 1.01787e-17
7298.92198 1.02331e-17
7300.38418 1.07404e-17
7301.85638 1.08933e-17
7303.32859 1.04542e-17
7304.80079 1.00139e-17
7306.27300 1.04800e-17
7307.73519 1.10820e-17
7309.20739 1.10680e-17
7310.67959 1.07375e-17
7312.15180 1.06646e-17
7313.61399 1.05917e-17
7315.08620 1.05188e-17
7316.55840 1.04459e-17
7318.03060 1.03730e-17
7319.50281 1.03001e-17
7320.96500 1.02272e-17
7322.43721 1.01543e-17
7323.90941 1.00814e-17
7325.38162 1.00812e-17
7326.84381 9.61682e-18
7328.31601 1.01167e-17
7329.78822 1.04232e-17
7331.26042 1.07145e-17
7332.73263 1.00483e-17
7334.19482 9.90041e-18
7335.66702 1.02716e-17
7337.13922 1.01914e-17
7338.61143 1.00584e-17
7340.07362 1.03916e-17
7341.54583 1.04123e-17
7343.01803 9.85233e-18
7344.49024 9.55468e-18
7345.95243 1.00117e-17
7347.42463 1.00255e-17
7348.89684 9.45315e-18
7350.36904 9.44966e-18
7351.84125 9.83473e-18
7353.30344 9.69330e-18
7354.77564 1.00141e-17
7356.24784 1.04588e-17
7357.72005 9.89729e-18
7359.18224 9.62065e-18
7360.65445 9.44810e-18
7362.12665 9.60041e-18
7363.59886 9.76063e-18
7365.07106 9.65291e-18
7366.53325 9.38941e-18
7368.00546 9.17099e-18
7369.47766 9.40939e-18
7370.94987 9.23540e-18
7372.41206 9.47692e-18
7373.88426 9.69041e-18
7375.35647 1.02315e-17
7376.82867 9.87972e-18
7378.29086 9.74408e-18
7379.76307 1.01680e-17
7381.23527 1.01935e-17
7382.70748 9.68863e-18
7384.17968 9.75247e-18
7385.64187 9.74281e-18
7387.11408 9.38250e-18
7388.58628 9.64050e-18
7390.05849 1.00333e-17
7391.52068 9.48671e-18
7392.99288 9.37007e-18
7394.46509 9.75154e-18
7395.93729 9.68823e-18
7397.40950 9.42057e-18
7398.87169 9.24552e-18
7400.34389 9.85973e-18
7401.81610 1.02650e-17
7403.28830 1.00061e-17
7404.75049 1.01059e-17
7406.22270 1.02513e-17
7407.69490 1.01384e-17
7409.16711 9.45006e-18
7410.63931 9.37603e-18
7412.10150 9.57862e-18
7413.57371 9.50451e-18
7415.04591 9.35728e-18
7416.51811 9.30932e-18
7417.98031 9.57925e-18
7419.45251 9.20428e-18
7420.92472 9.14345e-18
7422.39692 9.35387e-18
7423.86913 9.84203e-18
7425.33132 9.33929e-18
7426.80352 9.28230e-18
7428.27573 9.90483e-18
7429.74793 9.83107e-18
7431.21012 9.34493e-18
7432.68233 9.11205e-18
7434.15453 8.90987e-18
7435.62673 8.90770e-18
7437.08893 9.44791e-18
7438.56113 9.27465e-18
7440.03334 8.94728e-18
7441.50554 9.04814e-18
7442.97775 9.09288e-18
7444.43994 8.98713e-18
7445.91214 8.97150e-18
7447.38435 8.77854e-18
7448.85655 8.36576e-18
7450.31874 9.28411e-18
7451.79095 9.45633e-18
7453.26315 9.12189e-18
7454.73535 8.68753e-18
7456.20756 8.40147e-18
7457.66975 8.78571e-18
7459.14196 8.81374e-18
7460.61416 8.88614e-18
7462.08637 8.24320e-18
7463.54856 8.20505e-18
7465.02076 8.90534e-18
7466.49297 8.78130e-18
7467.96517 8.83151e-18
7469.42736 8.43343e-18
7470.89957 8.05846e-18
7472.37177 8.21408e-18
7473.84397 8.34629e-18
7475.31618 8.37068e-18
7476.77837 8.80733e-18
7478.25058 8.54267e-18
7479.72278 7.91604e-18
7481.19499 8.33985e-18
7482.65718 7.87184e-18
7484.12938 7.61316e-18
7485.60159 8.28370e-18
7487.07379 8.75354e-18
7488.54600 8.02391e-18
7490.00819 8.52240e-18
7491.48039 7.94098e-18
7492.95259 7.48890e-18
7494.42480 8.10738e-18
7495.88699 8.23534e-18
7497.35920 8.75421e-18
7498.83140 7.97361e-18
7500.30361 8.01129e-18
7501.76580 7.60757e-18
7503.23800 7.55078e-18
7504.71021 8.04726e-18
7506.18241 8.04443e-18
7507.65462 7.93808e-18
7509.11681 7.79883e-18
7510.58901 7.97176e-18
7512.06122 7.95666e-18
7513.53342 7.71967e-18
7514.99561 7.93261e-18
7516.46782 7.40969e-18
7517.94002 7.21717e-18
7519.41223 7.81365e-18
7520.88443 7.59316e-18
7522.34662 7.19193e-18
7523.81883 7.68728e-18
7525.29103 7.46961e-18
7526.76324 7.73618e-18
7528.22543 7.68828e-18
7529.69763 7.70559e-18
7531.16984 7.82939e-18
7532.64204 6.98649e-18
7534.11425 7.29705e-18
7535.57643 7.54109e-18
7537.04864 7.48379e-18
7538.52085 7.66046e-18
7539.99305 7.40947e-18
7541.45524 7.38264e-18
7542.92745 7.08944e-18
7544.39965 7.51328e-18
7545.87186 7.32553e-18
7547.34406 7.01578e-18
7548.80625 7.53203e-18
7550.27846 7.19748e-18
7551.75066 6.55543e-18
7553.22287 6.50667e-18
7554.68505 7.01150e-18
7556.15726 6.87469e-18
7557.62947 6.51189e-18
7559.10167 6.23197e-18
7560.56386 6.86973e-18
7562.03607 7.11593e-18
7563.50827 6.99139e-18
7564.98048 6.76667e-18
7566.45268 6.48913e-18
7567.91487 6.60304e-18
7569.38708 6.03126e-18
7570.85928 6.92220e-18
7572.33149 6.85125e-18
7573.79367 6.74309e-18
7575.26588 6.55088e-18
7576.73809 6.53913e-18
7578.21029 6.46819e-18
7579.68250 6.49834e-18
7581.14469 6.51609e-18
7582.61689 6.70077e-18
7584.08910 6.33600e-18
7585.56130 6.54817e-18
7587.02349 6.74059e-18
7588.49570 7.00167e-18
7589.96790 6.36294e-18
7591.44011 7.08887e-18
7592.90229 6.72072e-18
7594.37450 6.80377e-18
7595.84671 7.14383e-18
7597.31891 6.19808e-18
7598.79111 5.87091e-18
7600.25331 6.02325e-18
7601.72551 5.74812e-18
7603.19772 6.24050e-18
7604.66992 4.90018e-18
7606.13211 5.86243e-18
7607.60432 5.63751e-18
7609.07652 5.74042e-18
7610.54872 6.29659e-18
7612.02093 7.50319e-18
7613.48312 7.94481e-18
7614.95533 7.20593e-18
7616.42753 6.57702e-18
7617.89973 6.00561e-18
7619.36193 5.67168e-18
7620.83413 6.35825e-18
7622.30634 5.35506e-18
7623.77854 6.64318e-18
7625.24073 6.43466e-18
7626.71294 7.13221e-18
7628.18514 5.67115e-18
7629.65734 7.09035e-18
7631.12955 7.52238e-18
7631.37131 7.52238e-18
7632.23278 7.65046e-18
7633.10426 7.77852e-18
7633.96572 7.89857e-18
7634.82718 8.01861e-18
7635.68864 8.13065e-18
7636.55010 8.24267e-18
7637.41157 8.32464e-18
7638.27303 8.40654e-18
7639.13449 8.44728e-18
7639.99595 8.48794e-18
7640.85741 8.52619e-18
7641.71888 8.56443e-18
7642.59035 8.63858e-18
7643.45182 8.71279e-18
7644.31328 8.83923e-18
7645.17474 8.96577e-18
7646.03620 9.15146e-18
7646.89766 9.33728e-18
7647.75913 9.53213e-18
7648.62059 9.72699e-18
7649.48205 9.86780e-18
7650.34351 1.00085e-17
7651.20497 1.00818e-17
7652.06644 1.01550e-17
7652.93792 1.01679e-17
7653.79938 1.01806e-17
7654.66084 1.01815e-17
7655.52230 1.01823e-17
7656.38376 1.02460e-17
7657.24523 1.03098e-17
7658.10669 1.04484e-17
7658.96815 1.05872e-17
7659.82961 1.07597e-17
7660.69107 1.09322e-17
7661.55254 1.11036e-17
7662.42401 1.12749e-17
7663.28548 1.14136e-17
7664.14694 1.15521e-17
7665.00840 1.16561e-17
7665.86986 1.17601e-17
7666.73132 1.18895e-17
7667.59279 1.20189e-17
7668.45425 1.22017e-17
7669.31571 1.23844e-17
7670.17717 1.25635e-17
7671.03863 1.27425e-17
7671.91011 1.28720e-17
7672.77158 1.30014e-17
7673.63304 1.30729e-17
7674.49450 1.31442e-17
7675.35596 1.31609e-17
7676.21742 1.31775e-17
7677.07889 1.32072e-17
7677.94035 1.32368e-17
7678.80181 1.33470e-17
7679.66327 1.34574e-17
7680.52473 1.36084e-17
7681.38620 1.37593e-17
7682.25767 1.38878e-17
7683.11914 1.40164e-17
7683.98060 1.41223e-17
7684.84206 1.42282e-17
7685.70352 1.43292e-17
7686.56498 1.44303e-17
7687.42645 1.45308e-17
7688.28791 1.46311e-17
7689.14937 1.47323e-17
7690.01083 1.48335e-17
7690.88231 1.49258e-17
7691.74377 1.50182e-17
7692.60524 1.50821e-17
7693.46670 1.51461e-17
7694.32816 1.51864e-17
7695.18962 1.52268e-17
7696.05108 1.52733e-17
7696.91255 1.53199e-17
7697.77401 1.53839e-17
7698.63547 1.54478e-17
7699.49693 1.55142e-17
7700.35839 1.55804e-17
7701.22987 1.56363e-17
7702.09133 1.56922e-17
7702.95280 1.57303e-17
7703.81426 1.57681e-17
7704.67572 1.57829e-17
7705.53718 1.57975e-17
7706.39864 1.57901e-17
7707.26011 1.57827e-17
7708.12157 1.57597e-17
7708.98303 1.57367e-17
7709.84449 1.57248e-17
7710.71597 1.57130e-17
7711.57743 1.57360e-17
7712.43890 1.57591e-17
7713.30036 1.58112e-17
7714.16182 1.58634e-17
7715.02328 1.59318e-17
7715.88474 1.60002e-17
7716.74620 1.60637e-17
7717.60767 1.61274e-17
7718.46913 1.61634e-17
7719.33059 1.61995e-17
7720.20207 1.62065e-17
7721.06353 1.62135e-17
7721.92499 1.61997e-17
7722.78646 1.61858e-17
7723.64792 1.61654e-17
7724.50938 1.61450e-17
7725.37084 1.61370e-17
7726.23230 1.61289e-17
7727.09377 1.61394e-17
7727.95523 1.61501e-17
7728.81669 1.61729e-17
7729.67815 1.61959e-17
7730.54963 1.62297e-17
7731.41109 1.62637e-17
7732.27255 1.63157e-17
7733.13402 1.63676e-17
7733.99548 1.64293e-17
7734.85694 1.64910e-17
7735.71840 1.65291e-17
7736.57986 1.65672e-17
7737.44133 1.65628e-17
7738.30279 1.65583e-17
7739.17427 1.65250e-17
7740.03573 1.64916e-17
7740.89719 1.64471e-17
7741.75865 1.64026e-17
7742.62012 1.63734e-17
7743.48158 1.63442e-17
7744.34304 1.63520e-17
7745.20450 1.63597e-17
7746.06596 1.63898e-17
7746.92743 1.64198e-17
7747.78889 1.64520e-17
7748.65035 1.64843e-17
7749.52183 1.65115e-17
7750.38329 1.65387e-17
7751.24475 1.65557e-17
7752.10621 1.65727e-17
7752.96768 1.65795e-17
7753.82914 1.65862e-17
7754.69060 1.65866e-17
7755.55206 1.65869e-17
7756.41352 1.65762e-17
7757.27499 1.65654e-17
7758.13645 1.65347e-17
7759.00793 1.65042e-17
7759.86939 1.64624e-17
7760.73085 1.64206e-17
7761.59231 1.63888e-17
7762.45378 1.63569e-17
7763.31524 1.63401e-17
7764.17670 1.63231e-17
7765.03816 1.63101e-17
7765.89962 1.62972e-17
7766.76109 1.62797e-17
7767.62255 1.62622e-17
7768.49403 1.62338e-17
7769.35549 1.62052e-17
7770.21695 1.61654e-17
7771.07841 1.61255e-17
7771.93988 1.60877e-17
7772.80134 1.60500e-17
7773.66280 1.60244e-17
7774.52426 1.59988e-17
7775.38572 1.59800e-17
7776.24719 1.59614e-17
7777.10865 1.59454e-17
7777.98013 1.59295e-17
7778.84159 1.59187e-17
7779.70305 1.59080e-17
7780.56451 1.59045e-17
7781.42597 1.59011e-17
7782.28744 1.59044e-17
7783.14890 1.59077e-17
7784.01036 1.59163e-17
7784.87182 1.59250e-17
7785.73328 1.59378e-17
7786.59475 1.59506e-17
7787.46623 1.59660e-17
7788.32769 1.59816e-17
7789.18915 1.59955e-17
7790.05061 1.60092e-17
7790.91207 1.60161e-17
7791.77354 1.60230e-17
7792.63500 1.60205e-17
7793.49646 1.60179e-17
7794.35792 1.60051e-17
7795.21938 1.59922e-17
7796.08085 1.59750e-17
7796.94231 1.59579e-17
7797.81379 1.59474e-17
7798.67525 1.59370e-17
7799.53671 1.59414e-17
7800.39817 1.59460e-17
7801.25963 1.59709e-17
7802.12110 1.59958e-17
7802.98256 1.60369e-17
7803.84402 1.60782e-17
7804.70548 1.61147e-17
7805.56694 1.61513e-17
7806.42841 1.61683e-17
7807.29989 1.61853e-17
7808.16135 1.61844e-17
7809.02281 1.61836e-17
7809.88427 1.61677e-17
7810.74573 1.61517e-17
7811.60720 1.61241e-17
7812.46866 1.60963e-17
7813.33012 1.60618e-17
7814.19158 1.60273e-17
7815.05304 1.59923e-17
7815.91450 1.59573e-17
7816.78598 1.59276e-17
7817.64745 1.58979e-17
7818.50891 1.58807e-17
7819.37037 1.58634e-17
7820.23183 1.58642e-17
7821.09329 1.58651e-17
7821.95476 1.58711e-17
7822.81622 1.58771e-17
7823.67768 1.58690e-17
7824.53914 1.58609e-17
7825.40060 1.58363e-17
7826.27208 1.58116e-17
7827.13355 1.57763e-17
7827.99501 1.57412e-17
7828.85647 1.57002e-17
7829.71793 1.56594e-17
7830.57939 1.56178e-17
7831.44085 1.55762e-17
7832.30232 1.55371e-17
7833.16378 1.54981e-17
7834.02524 1.54615e-17
7834.88670 1.54250e-17
7835.75818 1.53944e-17
7836.61964 1.53639e-17
7837.48111 1.53488e-17
7838.34257 1.53337e-17
7839.20403 1.53366e-17
7840.06549 1.53394e-17
7840.92695 1.53495e-17
7841.78842 1.53597e-17
7842.64988 1.53678e-17
7843.51134 1.53759e-17
7844.37280 1.53777e-17
7845.23426 1.53796e-17
7846.10574 1.53726e-17
7846.96720 1.53658e-17
7847.82867 1.53536e-17
7848.69013 1.53414e-17
7849.55159 1.53284e-17
7850.41305 1.53153e-17
7851.27452 1.53041e-17
7852.13598 1.52929e-17
7852.99744 1.52854e-17
7853.85890 1.52779e-17
7854.72036 1.52756e-17
7855.59184 1.52733e-17
7856.45330 1.52770e-17
7857.31477 1.52808e-17
7858.17623 1.52847e-17
7859.03769 1.52887e-17
7859.89915 1.52836e-17
7860.76061 1.52785e-17
7861.62208 1.52651e-17
7862.48354 1.52516e-17
7863.34500 1.52373e-17
7864.20646 1.52230e-17
7865.07794 1.52038e-17
7865.93940 1.51848e-17
7866.80087 1.51483e-17
7867.66233 1.51119e-17
7868.52379 1.50567e-17
7869.38525 1.50017e-17
7870.24671 1.49384e-17
7871.10818 1.48750e-17
7871.96964 1.48181e-17
7872.83110 1.47612e-17
7873.69256 1.47346e-17
7874.56404 1.47082e-17
7875.42550 1.47213e-17
7876.28696 1.47344e-17
7877.14843 1.47603e-17
7878.00989 1.47862e-17
7878.87135 1.48000e-17
7879.73281 1.48140e-17
7880.59427 1.48083e-17
7881.45574 1.48025e-17
7882.31720 1.47733e-17
7883.17866 1.47438e-17
7884.05014 1.47012e-17
7884.91160 1.46586e-17
7885.77306 1.46156e-17
7886.63453 1.45727e-17
7887.49599 1.45285e-17
7888.35745 1.44841e-17
7889.21891 1.44354e-17
7890.08037 1.43867e-17
7890.94184 1.43362e-17
7891.80330 1.42859e-17
7892.66476 1.42368e-17
7893.52622 1.41878e-17
7894.39770 1.41529e-17
7895.25916 1.41181e-17
7896.12062 1.41150e-17
7896.98209 1.41119e-17
7897.84355 1.41305e-17
7898.70501 1.41490e-17
7899.56647 1.41599e-17
7900.42793 1.41708e-17
7901.28940 1.41612e-17
7902.15086 1.41516e-17
7903.01232 1.41245e-17
7903.88380 1.40974e-17
7904.74526 1.40613e-17
7905.60672 1.40252e-17
7906.46819 1.39989e-17
7907.32965 1.39726e-17
7908.19111 1.39635e-17
7909.05257 1.39543e-17
7909.91403 1.39413e-17
7910.77550 1.39282e-17
7911.63696 1.38987e-17
7912.49842 1.38691e-17
7913.36990 1.38382e-17
7914.23136 1.38071e-17
7915.09282 1.37873e-17
7915.95428 1.37675e-17
7916.81575 1.37598e-17
7917.67721 1.37521e-17
7918.53867 1.37547e-17
7919.40013 1.37574e-17
7920.26159 1.37518e-17
7921.12306 1.37463e-17
7921.98452 1.37139e-17
7922.85600 1.36813e-17
7923.71746 1.36333e-17
7924.57892 1.35854e-17
7925.44038 1.35422e-17
7926.30185 1.34988e-17
7927.16331 1.34719e-17
7928.02477 1.34450e-17
7928.88623 1.34423e-17
7929.74769 1.34398e-17
7930.60916 1.34566e-17
7931.47062 1.34733e-17
7932.34210 1.34956e-17
7933.20356 1.35181e-17
7934.06502 1.35342e-17
7934.92648 1.35503e-17
7935.78794 1.35503e-17
7936.64941 1.35504e-17
7937.51087 1.35293e-17
7938.37233 1.35082e-17
7939.23379 1.34671e-17
7940.09525 1.34259e-17
7940.95672 1.33707e-17
7941.81818 1.33155e-17
7942.68966 1.32601e-17
7943.55112 1.32047e-17
7944.41258 1.31598e-17
7945.27404 1.31149e-17
7946.13551 1.30824e-17
7946.99697 1.30499e-17
7947.85843 1.30298e-17
7948.71989 1.30095e-17
7949.58135 1.29978e-17
7950.44282 1.29862e-17
7951.30428 1.29778e-17
7952.17576 1.29694e-17
7953.03722 1.29532e-17
7953.89868 1.29369e-17
7954.76014 1.29032e-17
7955.62160 1.28695e-17
7956.48307 1.28323e-17
7957.34453 1.27950e-17
7958.20599 1.27727e-17
7959.06745 1.27505e-17
7959.92891 1.27444e-17
7960.79038 1.27383e-17
7961.66186 1.27446e-17
7962.52332 1.27506e-17
7963.38478 1.27594e-17
7964.24624 1.27681e-17
7965.10770 1.27655e-17
7965.96917 1.27627e-17
7966.83063 1.27566e-17
7967.69209 1.27504e-17
7968.55355 1.27640e-17
7969.41501 1.27777e-17
7970.27648 1.28163e-17
7971.14795 1.28551e-17
7972.00942 1.29073e-17
7972.87088 1.29594e-17
7973.73234 1.30092e-17
7974.59380 1.30592e-17
7975.45526 1.30841e-17
7976.31673 1.31089e-17
7977.17819 1.30990e-17
7978.03965 1.30891e-17
7978.90111 1.30631e-17
7979.76257 1.30371e-17
7980.63405 1.30113e-17
7981.49552 1.29855e-17
7982.35698 1.29638e-17
7983.21844 1.29421e-17
7984.07990 1.29272e-17
7984.94136 1.29122e-17
7985.80283 1.28985e-17
7986.66429 1.28849e-17
7987.52575 1.28668e-17
7988.38721 1.28486e-17
7989.24867 1.28283e-17
7990.11014 1.28080e-17
7990.98161 1.27886e-17
7991.84308 1.27692e-17
7992.70454 1.27566e-17
7993.56600 1.27440e-17
7994.42746 1.27452e-17
7995.28892 1.27465e-17
7996.15039 1.27477e-17
7997.01185 1.27490e-17
7997.87331 1.27287e-17
7998.73477 1.27084e-17
7999.59623 1.26692e-17
8000.46771 1.26300e-17
8001.32917 1.25882e-17
8002.19064 1.25464e-17
8003.05210 1.25145e-17
8003.91356 1.24826e-17
8004.77502 1.24711e-17
8005.63649 1.24597e-17
8006.49795 1.24659e-17
8007.35941 1.24721e-17
8008.22087 1.24745e-17
8009.08233 1.24767e-17
8009.95381 1.24681e-17
8010.81527 1.24594e-17
8011.67674 1.24605e-17
8012.53820 1.24616e-17
8013.39966 1.24824e-17
8014.26112 1.25033e-17
8015.12258 1.25293e-17
8015.98405 1.25553e-17
8016.84551 1.25727e-17
8017.70697 1.25901e-17
8018.56843 1.25847e-17
8019.43991 1.25793e-17
8020.30137 1.25425e-17
8021.16284 1.25057e-17
8022.02430 1.24608e-17
8022.88576 1.24159e-17
8023.74722 1.23887e-17
8024.60868 1.23616e-17
8025.47015 1.23513e-17
8026.33161 1.23411e-17
8027.19307 1.23408e-17
8028.05453 1.23406e-17
8028.92601 1.23420e-17
8029.78747 1.23433e-17
8030.64893 1.23364e-17
8031.51040 1.23295e-17
8032.37186 1.23153e-17
8033.23332 1.23011e-17
8034.09478 1.22864e-17
8034.95624 1.22719e-17
8035.81771 1.22612e-17
8036.67917 1.22506e-17
8037.54063 1.22467e-17
8038.41211 1.22427e-17
8039.27357 1.22463e-17
8040.13503 1.22499e-17
8040.99650 1.22600e-17
8041.85796 1.22700e-17
8042.71942 1.22831e-17
8043.58088 1.22963e-17
8044.44234 1.23066e-17
8045.30380 1.23169e-17
8046.16527 1.23199e-17
8047.02673 1.23230e-17
8047.88819 1.23167e-17
8048.75967 1.23104e-17
8049.62113 1.22959e-17
8050.48259 1.22813e-17
8051.34406 1.22693e-17
8052.20552 1.22573e-17
8053.06698 1.22558e-17
8053.92844 1.22543e-17
8054.78990 1.22572e-17
8055.65137 1.22601e-17
8056.51283 1.22598e-17
8057.37429 1.22594e-17
8058.24577 1.22467e-17
8059.10723 1.22340e-17
8059.96869 1.22011e-17
8060.83015 1.21681e-17
8061.69162 1.21214e-17
8062.55308 1.20746e-17
8063.41454 1.20248e-17
8064.27600 1.19750e-17
8065.13746 1.19344e-17
8065.99893 1.18938e-17
8066.86039 1.18743e-17
8067.73187 1.18549e-17
8068.59333 1.18573e-17
8069.45479 1.18597e-17
8070.31625 1.18775e-17
8071.17772 1.18954e-17
8072.03918 1.19158e-17
8072.90064 1.19363e-17
8073.76210 1.19412e-17
8074.62356 1.19460e-17
8075.48503 1.19286e-17
8076.34649 1.19112e-17
8077.21797 1.18801e-17
8078.07943 1.18491e-17
8078.94089 1.18099e-17
8079.80235 1.17707e-17
8080.66381 1.17223e-17
8081.52528 1.16739e-17
8082.38674 1.16171e-17
8083.24820 1.15602e-17
8084.10966 1.14974e-17
8084.97113 1.14345e-17
8085.83259 1.13684e-17
8086.70407 1.13023e-17
8087.56553 1.12372e-17
8088.42699 1.11721e-17
8089.28845 1.11119e-17
8090.14991 1.10517e-17
8091.01138 1.09999e-17
8091.87284 1.09482e-17
8092.73430 1.09068e-17
8093.59576 1.08655e-17
8094.45722 1.08336e-17
8095.31869 1.08018e-17
8096.18015 1.07770e-17
8097.05163 1.07522e-17
8097.91309 1.07205e-17
8098.77455 1.06888e-17
8099.63601 1.06339e-17
8100.49748 1.05789e-17
8101.35894 1.04956e-17
8102.22040 1.04122e-17
8103.08186 1.03015e-17
8103.94332 1.01908e-17
8104.80479 1.00661e-17
8105.67626 9.94145e-18
8106.53773 9.82459e-18
8107.39919 9.70776e-18
8108.26065 9.61225e-18
8109.12211 9.51678e-18
8109.98357 9.44722e-18
8110.84504 9.37771e-18
8111.70650 9.32799e-18
8112.56796 9.27830e-18
8113.42942 9.22712e-18
8114.29088 9.17593e-18
8115.15235 9.10605e-18
8116.02383 9.03614e-18
8116.88529 8.94025e-18
8117.74675 8.84431e-18
8118.60821 8.72103e-18
8119.46967 8.59769e-18
8120.33114 8.46481e-18
8121.19260 8.33192e-18
8122.05406 8.20365e-18
8122.91552 8.07540e-18
8123.77698 7.93589e-18
8124.63845 7.79636e-18
8125.49991 7.63089e-18
8126.37139 7.46536e-18
8127.23285 7.28182e-18
8128.09431 7.09824e-18
8128.95577 6.90822e-18
8129.81723 6.71819e-18
8130.67870 6.54395e-18
8131.54016 6.36974e-18
8132.40162 6.23519e-18
8133.26308 6.10076e-18
8134.12454 5.99306e-18
8134.99602 5.88543e-18
8135.85749 5.77580e-18
8136.71895 5.66618e-18
8137.58041 5.54370e-18
8138.44187 5.42120e-18
8139.30333 5.28547e-18
8140.16480 5.14971e-18
8141.02626 5.00419e-18
8141.88772 4.85864e-18
8142.74918 4.71144e-18
8143.61064 4.56422e-18
8144.47210 4.42334e-18
8145.34358 4.28249e-18
8146.20505 4.15437e-18
8147.06651 4.02629e-18
8147.92797 3.91543e-18
8148.78943 3.80463e-18
8149.65089 3.71247e-18
8150.51236 3.62037e-18
8151.37382 3.54462e-18
8152.23528 3.46891e-18
8153.09674 3.39959e-18
8153.95820 3.33029e-18
8154.82968 3.25932e-18
8155.69115 3.18836e-18
8156.55261 3.11652e-18
8157.41407 3.04467e-18
8158.27553 2.97440e-18
8159.13699 2.90414e-18
8159.99845 2.84142e-18
8160.85992 2.77872e-18
8161.72138 2.72943e-18
8162.58284 2.68018e-18
8163.44430 2.64610e-18
8164.31578 2.61206e-18
8165.17724 2.59288e-18
8166.03871 2.57373e-18
8166.90017 2.56033e-18
8167.76163 2.54693e-18
8168.62309 2.52821e-18
8169.48455 2.50949e-18
8170.34602 2.47623e-18
8171.20748 2.44294e-18
8172.06894 2.38636e-18
8172.93040 2.32972e-18
8173.80188 2.26477e-18
8174.66334 2.19981e-18
8175.52481 2.15878e-18
8176.38627 2.11782e-18
8177.24773 2.10789e-18
8178.10919 2.09803e-18
8178.97065 2.10049e-18
8179.83212 2.10298e-18
8180.69358 2.10358e-18
8181.55504 2.10417e-18
8182.41650 2.09394e-18
8183.28798 2.08369e-18
8184.14944 2.05936e-18
8185.01090 2.03501e-18
8185.87237 2.00867e-18
8186.73383 1.98232e-18
8187.59529 1.96260e-18
8188.45675 1.94288e-18
8189.31821 1.92310e-18
8190.17968 1.90332e-18
8191.04114 1.87883e-18
8191.90260 1.85431e-18
8192.77408 1.83079e-18
8193.63554 1.80726e-18
8194.49700 1.79047e-18
8195.35846 1.77369e-18
8196.21993 1.76878e-18
8197.08139 1.76390e-18
8197.94285 1.77477e-18
8198.80431 1.78566e-18
8199.66577 1.80299e-18
8200.52724 1.82032e-18
8201.38870 1.83108e-18
8202.25016 1.84182e-18
8203.12164 1.84347e-18
8203.98310 1.84511e-18
8204.84456 1.83977e-18
8205.70603 1.83441e-18
8206.56749 1.82317e-18
8207.42895 1.81189e-18
8208.29041 1.79563e-18
8209.15187 1.77936e-18
8210.01334 1.76073e-18
8210.87480 1.74210e-18
8211.73626 1.72453e-18
8212.60774 1.70698e-18
8213.46920 1.69194e-18
8214.33066 1.67691e-18
8215.19212 1.66414e-18
8216.05359 1.65138e-18
8216.91505 1.63683e-18
8217.77651 1.62229e-18
8218.63797 1.59473e-18
8219.49943 1.56713e-18
8220.36090 1.52225e-18
8221.22236 1.47733e-18
8222.08382 1.42662e-18
8222.95530 1.37590e-18
8223.81676 1.33221e-18
8224.67822 1.28853e-18
8225.53969 1.26794e-18
8226.40115 1.24740e-18
8227.26261 1.26152e-18
8228.12407 1.27571e-18
8228.98553 1.31372e-18
8229.84700 1.35178e-18
8230.70846 1.39866e-18
8231.57994 1.44556e-18
8232.44140 1.48670e-18
8233.30286 1.52784e-18
8234.16432 1.54969e-18
8235.02578 1.57151e-18
8235.88725 1.57857e-18
8236.74871 1.58558e-18
8237.61017 1.58916e-18
8238.47163 1.59274e-18
8239.33309 1.60071e-18
8240.19456 1.60870e-18
8241.06604 1.62765e-18
8241.92750 1.64662e-18
8242.78896 1.67270e-18
8243.65042 1.69879e-18
8244.51188 1.72015e-18
8245.37335 1.74150e-18
8246.23481 1.75233e-18
8247.09627 1.76314e-18
8247.95773 1.76409e-18
8248.81919 1.76502e-18
8249.68066 1.75846e-18
8250.54212 1.75189e-18
8251.41360 1.74309e-18
8252.27506 1.73427e-18
8253.13652 1.72814e-18
8253.99798 1.72201e-18
8254.85945 1.72151e-18
8255.72091 1.72105e-18
8256.58237 1.72788e-18
8257.44383 1.73474e-18
8258.30529 1.74774e-18
8259.16676 1.76075e-18
8260.02822 1.77742e-18
8260.89970 1.79410e-18
8261.76116 1.80981e-18
8262.62262 1.82554e-18
8263.48408 1.83577e-18
8264.34554 1.84599e-18
8265.20701 1.84667e-18
8266.06847 1.84731e-18
8266.92993 1.83573e-18
8267.79139 1.82413e-18
8268.65285 1.80646e-18
8269.52433 1.78877e-18
8270.38580 1.77356e-18
8271.24726 1.75837e-18
8272.10872 1.75137e-18
8272.97018 1.74439e-18
8273.83164 1.75005e-18
8274.69311 1.75573e-18
8275.55457 1.76961e-18
8276.41603 1.78348e-18
8277.27749 1.79556e-18
8278.13895 1.80762e-18
8279.01043 1.81381e-18
8279.87189 1.81998e-18
8280.73336 1.82125e-18
8281.59482 1.82251e-18
8282.45628 1.82188e-18
8283.31774 1.82125e-18
8284.17920 1.82506e-18
8285.04067 1.82887e-18
8285.90213 1.83951e-18
8286.76359 1.85017e-18
8287.62505 1.86192e-18
8288.48651 1.87368e-18
8289.34798 1.88351e-18
8290.21946 1.89333e-18
8291.08092 1.90579e-18
8291.94238 1.91826e-18
8292.80384 1.93598e-18
8293.66530 1.95369e-18
8294.52677 1.97205e-18
8295.38823 1.99038e-18
8296.24969 2.00507e-18
8297.11115 2.01976e-18
8297.97261 2.02803e-18
8298.83408 2.03628e-18
8299.70555 2.03650e-18
8300.56702 2.03669e-18
8301.42848 2.03858e-18
8302.28994 2.04047e-18
8303.15140 2.05555e-18
8304.01286 2.07065e-18
8304.87433 2.09450e-18
8305.73579 2.11834e-18
8306.59725 2.14134e-18
8307.45871 2.16435e-18
8308.32017 2.18071e-18
8309.18164 2.19705e-18
8310.05312 2.20250e-18
8310.91458 2.20793e-18
8311.77604 2.20701e-18
8312.63750 2.20608e-18
8313.49896 2.20979e-18
8314.36043 2.21351e-18
8315.22189 2.22803e-18
8316.08335 2.24259e-18
8316.94481 2.26916e-18
8317.80627 2.29577e-18
8318.67775 2.33125e-18
8319.53921 2.36676e-18
8320.40068 2.40129e-18
8321.26214 2.43581e-18
8322.12360 2.46230e-18
8322.98506 2.48877e-18
8323.84652 2.50713e-18
8324.70799 2.52549e-18
8325.56945 2.53665e-18
8326.43091 2.54781e-18
8327.29237 2.55452e-18
8328.16385 2.56123e-18
8329.02531 2.56692e-18
8329.88678 2.57260e-18
8330.74824 2.57922e-18
8331.60970 2.58585e-18
8332.47116 2.59535e-18
8333.33262 2.60487e-18
8334.19408 2.62201e-18
8335.05555 2.63919e-18
8335.91701 2.66795e-18
8336.77847 2.69674e-18
8337.64995 2.73403e-18
8338.51141 2.77131e-18
8339.37287 2.81179e-18
8340.23434 2.85229e-18
8341.09580 2.88868e-18
8341.95726 2.92505e-18
8342.81872 2.94944e-18
8343.68018 2.97380e-18
8344.54165 2.98637e-18
8345.40311 2.99890e-18
8346.26457 3.00518e-18
8347.12603 3.01143e-18
8347.99751 3.01592e-18
8348.85897 3.02042e-18
8349.72043 3.02650e-18
8350.58190 3.03257e-18
8351.44336 3.04415e-18
8352.30482 3.05574e-18
8353.16628 3.07695e-18
8354.02775 3.09818e-18
8354.88921 3.12950e-18
8355.75067 3.16086e-18
8356.62215 3.19718e-18
8357.48361 3.23353e-18
8358.34507 3.26975e-18
8359.20653 3.30597e-18
8360.06800 3.33765e-18
8360.92946 3.36931e-18
8361.79092 3.39376e-18
8362.65238 3.41820e-18
8363.51384 3.44005e-18
8364.37531 3.46189e-18
8365.23677 3.48566e-18
8366.10825 3.50944e-18
8366.96971 3.53216e-18
8367.83117 3.55489e-18
8368.69263 3.57346e-18
8369.55410 3.59202e-18
8370.41556 3.60945e-18
8371.27702 3.62689e-18
8372.13848 3.64736e-18
8372.99994 3.66783e-18
8373.86140 3.69360e-18
8374.72287 3.71939e-18
8375.59435 3.75194e-18
8376.45581 3.78451e-18
8377.31727 3.82352e-18
8378.17873 3.86254e-18
8379.04019 3.90651e-18
8379.90166 3.95050e-18
8380.76312 3.99703e-18
8381.62458 4.04356e-18
8382.48604 4.08981e-18
8383.34750 4.13607e-18
8384.20897 4.17971e-18
8385.07043 4.22332e-18
8385.94191 4.26218e-18
8386.80337 4.30104e-18
8387.66483 4.33641e-18
8388.52629 4.37178e-18
8389.38775 4.41054e-18
8390.24922 4.44931e-18
8391.11068 4.49338e-18
8391.97214 4.53746e-18
8392.83360 4.57798e-18
8393.69507 4.61850e-18
8394.55653 4.64911e-18
8395.41799 4.67972e-18
8396.28947 4.70026e-18
8397.15093 4.72078e-18
8398.01239 4.73382e-18
8398.87385 4.74683e-18
8399.73532 4.76677e-18
8400.59678 4.78672e-18
8401.45824 4.82669e-18
8402.31970 4.86672e-18
8403.18116 4.92250e-18
8404.04263 4.97830e-18
8404.90409 5.04184e-18
8405.77557 5.10538e-18
8406.63703 5.16778e-18
8407.49849 5.23016e-18
8408.35995 5.28223e-18
8409.22142 5.33426e-18
8410.08288 5.37604e-18
8410.94434 5.41779e-18
8411.80580 5.45396e-18
8412.66726 5.49012e-18
8413.52873 5.52393e-18
8414.39019 5.55773e-18
8415.26167 5.59179e-18
8416.12313 5.62587e-18
8416.98459 5.66298e-18
8417.84605 5.70010e-18
8418.70751 5.74255e-18
8419.56898 5.78500e-18
8420.43044 5.83366e-18
8421.29190 5.88234e-18
8422.15336 5.93701e-18
8423.01482 5.99171e-18
8423.87629 6.04949e-18
8424.74777 6.10730e-18
8425.60923 6.16021e-18
8426.47069 6.21312e-18
8427.33215 6.25791e-18
8428.19361 6.30268e-18
8429.05508 6.34836e-18
8429.91654 6.39404e-18
8430.77800 6.44798e-18
8431.63946 6.50193e-18
8432.50092 6.56491e-18
8433.36239 6.62791e-18
8434.23386 6.69876e-18
8435.09533 6.76962e-18
8435.95679 6.83657e-18
8436.81825 6.90352e-18
8437.67971 6.95499e-18
8438.54117 7.00643e-18
8439.40264 7.04918e-18
8440.26410 7.09191e-18
8441.12556 7.13696e-18
8441.98702 7.18199e-18
8442.84848 7.23257e-18
8443.70995 7.28317e-18
8444.58143 7.34004e-18
8445.44289 7.39692e-18
8446.30435 7.46069e-18
8447.16581 7.52447e-18
8448.02727 7.59495e-18
8448.88874 7.66543e-18
8449.75020 7.74043e-18
8450.61166 7.81544e-18
8451.47312 7.89177e-18
8452.33458 7.96810e-18
8453.20606 8.04211e-18
8454.06752 8.11610e-18
8454.92899 8.18334e-18
8455.79045 8.25056e-18
8456.65191 8.31199e-18
8457.51337 8.37342e-18
8458.37483 8.43858e-18
8459.23630 8.50375e-18
8460.09776 8.57667e-18
8460.95922 8.64960e-18
8461.82068 8.72208e-18
8462.69216 8.79457e-18
8463.55362 8.86081e-18
8464.41508 8.92705e-18
8465.27655 8.98749e-18
8466.13801 9.04792e-18
8466.99947 9.10501e-18
8467.86093 9.16208e-18
8468.72240 9.22791e-18
8469.58386 9.29376e-18
8470.44532 9.37907e-18
8471.30678 9.46441e-18
8472.16824 9.56254e-18
8473.03972 9.66072e-18
8473.90118 9.76207e-18
8474.76265 9.86341e-18
8475.62411 9.96066e-18
8476.48557 1.00579e-17
8477.34703 1.01440e-17
8478.20849 1.02301e-17
8479.06996 1.03134e-17
8479.93142 1.03967e-17
8480.79288 1.04924e-17
8481.65434 1.05881e-17
8482.51580 1.06927e-17
8483.38728 1.07973e-17
8484.24875 1.08967e-17
8485.11021 1.09961e-17
8485.97167 1.10841e-17
8486.83313 1.11720e-17
8487.69459 1.12483e-17
8488.55605 1.13247e-17
8489.41752 1.13934e-17
8490.27898 1.14621e-17
8491.14044 1.15334e-17
8492.00190 1.16048e-17
8492.87338 1.16853e-17
8493.73484 1.17658e-17
8494.59631 1.18538e-17
8495.45777 1.19417e-17
8496.31923 1.20380e-17
8497.18069 1.21343e-17
8498.04215 1.22497e-17
8498.90362 1.23652e-17
8499.76508 1.25038e-17
8500.62654 1.26425e-17
8501.48800 1.27858e-17
8502.35948 1.29291e-17
8503.22094 1.30590e-17
8504.08240 1.31888e-17
8504.94387 1.33016e-17
8505.80533 1.34142e-17
8506.66679 1.35091e-17
8507.52825 1.36038e-17
8508.38972 1.36874e-17
8509.25118 1.37710e-17
8510.11264 1.38522e-17
8510.98412 1.39337e-17
8511.84558 1.40162e-17
8512.70704 1.40988e-17
8513.56850 1.41844e-17
8514.42997 1.42699e-17
8515.29143 1.43582e-17
8516.15289 1.44464e-17
8517.01435 1.45363e-17
8517.87581 1.46263e-17
8518.73728 1.47178e-17
8519.59874 1.48093e-17
8520.46020 1.49027e-17
8521.33168 1.49961e-17
8522.19314 1.50955e-17
8523.05460 1.51948e-17
8523.91607 1.53078e-17
8524.77753 1.54209e-17
8525.63899 1.55502e-17
8526.50045 1.56794e-17
8527.36191 1.58202e-17
8528.22337 1.59608e-17
8529.08484 1.61057e-17
8529.94630 1.62505e-17
8530.80776 1.63874e-17
8531.67924 1.65242e-17
8532.54070 1.66433e-17
8533.40216 1.67623e-17
8534.26363 1.68598e-17
8535.12509 1.69573e-17
8535.98655 1.70343e-17
8536.84801 1.71114e-17
8537.70947 1.71828e-17
8538.57094 1.72542e-17
8539.43240 1.73358e-17
8540.30388 1.74174e-17
8541.16534 1.75197e-17
8542.02680 1.76219e-17
8542.88826 1.77510e-17
8543.74972 1.78802e-17
8544.61119 1.80277e-17
8545.47265 1.81752e-17
8546.33411 1.83275e-17
8547.19557 1.84797e-17
8548.05703 1.86134e-17
8548.91850 1.87469e-17
8549.78998 1.88361e-17
8550.65144 1.89253e-17
8551.51290 1.89723e-17
8552.37436 1.90192e-17
8553.23582 1.90436e-17
8554.09729 1.90679e-17
8554.95875 1.90960e-17
8555.82021 1.91241e-17
8556.68167 1.91870e-17
8557.54313 1.92501e-17
8558.40460 1.93620e-17
8559.27607 1.94740e-17
8560.13754 1.96264e-17
8560.99900 1.97787e-17
8561.86046 1.99547e-17
8562.72192 2.01307e-17
8563.58338 2.03032e-17
8564.44485 2.04758e-17
8565.30631 2.06199e-17
8566.16777 2.07638e-17
8567.02923 2.08629e-17
8567.89070 2.09618e-17
8568.75216 2.10080e-17
8569.62364 2.10542e-17
8570.48510 2.10605e-17
8571.34656 2.10668e-17
8572.20802 2.10522e-17
8573.06948 2.10375e-17
8573.93095 2.10227e-17
8574.79241 2.10079e-17
8575.65387 2.10128e-17
8576.51533 2.10179e-17
8577.37679 2.10637e-17
8578.23826 2.11096e-17
8579.09972 2.12120e-17
8579.97120 2.13147e-17
8580.83266 2.14539e-17
8581.69412 2.15933e-17
8582.55558 2.17362e-17
8583.41705 2.18792e-17
8584.27851 2.19990e-17
8585.13997 2.21190e-17
8586.00143 2.21941e-17
8586.86289 2.22691e-17
8587.72436 2.22964e-17
8588.58582 2.23237e-17
8589.45730 2.23153e-17
8590.31876 2.23067e-17
8591.18022 2.22813e-17
8592.04168 2.22559e-17
8592.90314 2.22390e-17
8593.76461 2.22220e-17
8594.62607 2.22275e-17
8595.48753 2.22330e-17
8596.34899 2.22554e-17
8597.21045 2.22778e-17
8598.07192 2.23135e-17
8598.94340 2.23494e-17
8599.80486 2.24022e-17
8600.66632 2.24551e-17
8601.52778 2.25233e-17
8602.38924 2.25915e-17
8603.25071 2.26643e-17
8604.11217 2.27373e-17
8604.97363 2.28027e-17
8605.83509 2.28683e-17
8606.69655 2.29104e-17
8607.56803 2.29525e-17
8608.42949 2.29583e-17
8609.29096 2.29640e-17
8610.15242 2.29371e-17
8611.01388 2.29100e-17
8611.87534 2.28595e-17
8612.73680 2.28089e-17
8613.59827 2.27452e-17
8614.45973 2.26814e-17
8615.32119 2.26155e-17
8616.18265 2.25495e-17
8617.04411 2.25020e-17
8617.91559 2.24544e-17
8618.77706 2.24478e-17
8619.63852 2.24412e-17
8620.49998 2.24769e-17
8621.36144 2.25125e-17
8622.22290 2.25781e-17
8623.08437 2.26439e-17
8623.94583 2.27220e-17
8624.80729 2.28003e-17
8625.66875 2.28689e-17
8626.53021 2.29375e-17
8627.40169 2.29833e-17
8628.26315 2.30289e-17
8629.12462 2.30515e-17
8629.98608 2.30741e-17
8630.84754 2.30730e-17
8631.70900 2.30718e-17
8632.57046 2.30439e-17
8633.43193 2.30159e-17
8634.29339 2.29650e-17
8635.15485 2.29142e-17
8636.01631 2.28563e-17
8636.88779 2.27984e-17
8637.74925 2.27502e-17
8638.61072 2.27021e-17
8639.47218 2.26828e-17
8640.33364 2.26637e-17
8641.19510 2.26866e-17
8642.05656 2.27096e-17
8642.91803 2.27635e-17
8643.77949 2.28177e-17
8644.64095 2.28858e-17
8645.50241 2.29539e-17
8646.37389 2.30184e-17
8647.23535 2.30830e-17
8648.09681 2.31264e-17
8648.95828 2.31696e-17
8649.81974 2.31852e-17
8650.68120 2.32008e-17
8651.54266 2.31889e-17
8652.40412 2.31768e-17
8653.26559 2.31355e-17
8654.12705 2.30941e-17
8654.98851 2.30221e-17
8655.85999 2.29501e-17
8656.72145 2.28599e-17
8657.58291 2.27697e-17
8658.44438 2.26831e-17
8659.30584 2.25965e-17
8660.16730 2.25282e-17
8661.02876 2.24601e-17
8661.89022 2.24169e-17
8662.75168 2.23739e-17
8663.61315 2.23592e-17
8664.47461 2.23446e-17
8665.33607 2.23574e-17
8666.20755 2.23702e-17
8667.06901 2.24045e-17
8667.93047 2.24388e-17
8668.79194 2.24839e-17
8669.65340 2.25290e-17
8670.51486 2.25703e-17
8671.37632 2.26117e-17
8672.23778 2.26245e-17
8673.09925 2.26372e-17
8673.96071 2.26029e-17
8674.82217 2.25686e-17
8675.68363 2.24929e-17
8676.55511 2.24170e-17
8677.41657 2.23120e-17
8678.27803 2.22067e-17
8679.13950 2.20930e-17
8680.00096 2.19791e-17
8680.86242 2.18790e-17
8681.72388 2.17791e-17
8682.58535 2.17018e-17
8683.44681 2.16247e-17
8684.30827 2.15735e-17
8685.16973 2.15223e-17
8686.04121 2.15001e-17
8686.90267 2.14780e-17
8687.76413 2.14852e-17
8688.62560 2.14926e-17
8689.48706 2.15237e-17
8690.34852 2.15547e-17
8691.20998 2.16004e-17
8692.07144 2.16462e-17
8692.93291 2.16911e-17
8693.79437 2.17358e-17
8694.66585 2.17601e-17
8695.52731 2.17843e-17
8696.38877 2.17759e-17
8697.25023 2.17674e-17
8698.11170 2.17243e-17
8698.97316 2.16810e-17
8699.83462 2.16079e-17
8700.69608 2.15347e-17
8701.55754 2.14473e-17
8702.41900 2.13599e-17
8703.28047 2.12718e-17
8704.15195 2.11835e-17
8705.01341 2.10949e-17
8705.87487 2.10063e-17
8706.73633 2.09210e-17
8707.59779 2.08358e-17
8708.45926 2.07716e-17
8709.32072 2.07075e-17
8710.18218 2.06785e-17
8711.04364 2.06495e-17
8711.90510 2.06560e-17
8712.76657 2.06629e-17
8713.62803 2.07002e-17
8714.49951 2.07375e-17
8715.36097 2.07782e-17
8716.22243 2.08189e-17
8717.08389 2.08321e-17
8717.94535 2.08453e-17
8718.80682 2.08184e-17
8719.66828 2.07912e-17
8720.52974 2.07196e-17
8721.39120 2.06478e-17
8722.25267 2.05489e-17
8723.11413 2.04500e-17
8723.98561 2.03546e-17
8724.84707 2.02591e-17
8725.70853 2.01785e-17
8726.56999 2.00979e-17
8727.43145 2.00289e-17
8728.29292 1.99600e-17
8729.15438 1.99030e-17
8730.01584 1.98459e-17
8730.87730 1.98023e-17
8731.73876 1.97585e-17
8732.61024 1.97324e-17
8733.47170 1.97061e-17
8734.33317 1.97095e-17
8735.19463 1.97131e-17
8736.05609 1.97425e-17
8736.91755 1.97719e-17
8737.77902 1.97926e-17
8738.64048 1.98133e-17
8739.50194 1.97958e-17
8740.36340 1.97783e-17
8741.22486 1.97065e-17
8742.08633 1.96346e-17
8742.95780 1.95043e-17
8743.81927 1.93740e-17
8744.68073 1.92228e-17
8745.54219 1.90715e-17
8746.40365 1.89402e-17
8747.26511 1.88090e-17
8748.12658 1.87166e-17
8748.98804 1.86246e-17
8749.84950 1.85827e-17
8750.71096 1.85410e-17
8751.57242 1.85378e-17
8752.44390 1.85348e-17
8753.30537 1.85477e-17
8754.16683 1.85608e-17
8755.02829 1.85775e-17
8755.88975 1.85942e-17
8756.75121 1.86067e-17
8757.61268 1.86191e-17
8758.47414 1.86091e-17
8759.33560 1.85989e-17
8760.19706 1.85444e-17
8761.05852 1.84897e-17
8761.91999 1.83871e-17
8762.79146 1.82844e-17
8763.65293 1.81455e-17
8764.51439 1.80065e-17
8765.37585 1.78507e-17
8766.23731 1.76949e-17
8767.09877 1.75498e-17
8767.96024 1.74050e-17
8768.82170 1.72886e-17
8769.68316 1.71724e-17
8770.54462 1.70825e-17
8771.40608 1.69927e-17
8772.26755 1.69254e-17
8773.13903 1.68581e-17
8774.00049 1.68103e-17
8774.86195 1.67624e-17
8775.72341 1.67276e-17
8776.58487 1.66928e-17
8777.44633 1.66654e-17
8778.30780 1.66381e-17
8779.16926 1.66102e-17
8780.03072 1.65823e-17
8780.89218 1.65297e-17
8781.76366 1.64769e-17
8782.62512 1.63777e-17
8783.48659 1.62783e-17
8784.34805 1.61430e-17
8785.20951 1.60076e-17
8786.07097 1.58556e-17
8786.93243 1.57035e-17
8787.79390 1.55493e-17
8788.65536 1.53951e-17
8789.51682 1.52529e-17
8790.37828 1.51107e-17
8791.24976 1.49802e-17
8792.11122 1.48497e-17
8792.97268 1.47207e-17
8793.83415 1.45916e-17
8794.69561 1.44706e-17
8795.55707 1.43498e-17
8796.41853 1.42554e-17
8797.28000 1.41613e-17
8798.14146 1.40899e-17
8799.00292 1.40186e-17
8799.86438 1.39453e-17
8800.72584 1.38720e-17
8801.59732 1.37765e-17
8802.45878 1.36810e-17
8803.32025 1.35496e-17
8804.18171 1.34183e-17
8805.04317 1.32492e-17
8805.90463 1.30801e-17
8806.76609 1.28978e-17
8807.62756 1.27153e-17
8808.48902 1.25417e-17
8809.35048 1.23683e-17
8810.21194 1.22143e-17
8811.08342 1.20605e-17
8811.94488 1.19333e-17
8812.80635 1.18062e-17
8813.66781 1.17029e-17
8814.52927 1.15998e-17
8815.39073 1.15137e-17
8816.25219 1.14277e-17
8817.11365 1.13504e-17
8817.97512 1.12732e-17
8818.83658 1.11952e-17
8819.70806 1.11172e-17
8820.56952 1.10271e-17
8821.43098 1.09370e-17
8822.29244 1.08249e-17
8823.15391 1.07128e-17
8824.01537 1.05774e-17
8824.87683 1.04420e-17
8825.73829 1.02869e-17
8826.59975 1.01318e-17
8827.46122 9.97140e-18
8828.32268 9.81094e-18
8829.19416 9.66567e-18
8830.05562 9.52044e-18
8830.91708 9.40082e-18
8831.77854 9.28127e-18
8832.64000 9.18805e-18
8833.50147 9.09491e-18
8834.36293 9.02477e-18
8835.22439 8.95468e-18
8836.08585 8.89940e-18
8836.94732 8.84415e-18
8837.80878 8.79411e-18
8838.67024 8.74408e-18
8839.54172 8.68940e-18
8840.40318 8.63473e-18
8841.26464 8.56816e-18
8842.12610 8.50156e-18
8842.98757 8.42213e-18
8843.84903 8.34266e-18
8844.71049 8.25189e-18
8845.57195 8.16110e-18
8846.43341 8.06430e-18
8847.29488 7.96750e-18
8848.15634 7.87149e-18
8849.02782 7.77549e-18
8849.88928 7.68390e-18
8850.75074 7.59235e-18
8851.61220 7.50866e-18
8852.47367 7.42500e-18
8853.33513 7.36699e-18
8854.19659 7.30903e-18
8855.05805 7.29439e-18
8855.91951 7.27985e-18
8856.78097 7.29453e-18
8857.64244 7.30928e-18
8858.50390 7.32848e-18
8859.36536 7.34768e-18
8860.23684 7.35095e-18
8861.09830 7.35417e-18
8861.95976 7.32304e-18
8862.82123 7.29180e-18
8863.68269 7.23321e-18
8864.54415 7.17454e-18
8865.40561 7.11544e-18
8866.26707 7.05633e-18
8867.12854 7.00926e-18
8867.99000 6.96222e-18
8868.86148 6.92401e-18
8869.72294 6.88581e-18
8870.58440 6.85508e-18
8871.44586 6.82436e-18
8872.30732 6.79992e-18
8873.16879 6.77551e-18
8874.03025 6.75870e-18
8874.89171 6.74191e-18
8875.75317 6.74310e-18
8876.61463 6.74434e-18
8877.47610 6.76772e-18
8878.34758 6.79116e-18
8879.20904 6.82379e-18
8880.07050 6.85645e-18
8880.93196 6.88478e-18
8881.79342 6.91310e-18
8882.65489 6.92453e-18
8883.51635 6.93590e-18
8884.37781 6.92124e-18
8885.23927 6.90652e-18
8886.10073 6.87424e-18
8886.96220 6.84192e-18
8887.83367 6.80532e-18
8888.69514 6.76871e-18
8889.55660 6.74005e-18
8890.41806 6.71140e-18
8891.27952 6.70179e-18
8892.14099 6.69226e-18
8893.00245 6.70801e-18
8893.86391 6.72384e-18
8894.72537 6.76744e-18
8895.58683 6.81111e-18
8896.44830 6.87229e-18
8897.30976 6.93352e-18
8898.18124 6.99477e-18
8899.04270 7.05602e-18
8899.90416 7.10237e-18
8900.76562 7.14868e-18
8901.62708 7.16765e-18
8902.48855 7.18655e-18
8903.35001 7.18007e-18
8904.21147 7.17352e-18
8905.07293 7.16232e-18
8905.93439 7.15111e-18
8906.80587 7.14882e-18
8907.66734 7.14653e-18
8908.52880 7.15177e-18
8909.39026 7.15703e-18
8910.25172 7.16984e-18
8911.11318 7.18267e-18
8911.97465 7.20558e-18
8912.83611 7.22851e-18
8913.69757 7.26257e-18
8914.55903 7.29666e-18
8915.42049 7.34428e-18
8916.29197 7.39193e-18
8917.15343 7.45254e-18
8918.01490 7.51317e-18
8918.87636 7.57118e-18
8919.73782 7.62918e-18
8920.59928 7.66898e-18
8921.46074 7.70872e-18
8922.32221 7.72588e-18
8923.18367 7.74299e-18
8924.04513 7.73706e-18
8924.90659 7.73106e-18
8925.76805 7.72041e-18
8926.63953 7.70974e-18
8927.50100 7.71945e-18
8928.36246 7.72922e-18
8929.22392 7.76027e-18
8930.08538 7.79136e-18
8930.94684 7.83239e-18
8931.80831 7.87345e-18
8932.66977 7.91625e-18
8933.53123 7.95904e-18
8934.39269 7.99565e-18
8935.25415 8.03224e-18
8936.12563 8.06642e-18
8936.98709 8.10059e-18
8937.84856 8.15025e-18
8938.71002 8.19997e-18
8939.57148 8.26594e-18
8940.43294 8.33196e-18
8941.29440 8.38992e-18
8942.15587 8.44786e-18
8943.01733 8.47996e-18
8943.87879 8.51199e-18
8944.74025 8.51022e-18
8945.61173 8.50836e-18
8946.47319 8.47561e-18
8947.33466 8.44278e-18
8948.19612 8.41659e-18
8949.05758 8.39041e-18
8949.91904 8.40124e-18
8950.78050 8.41217e-18
8951.64197 8.45056e-18
8952.50343 8.48902e-18
8953.36489 8.53963e-18
8954.22635 8.59029e-18
8955.08781 8.61322e-18
8955.95929 8.63607e-18
8956.82075 8.59206e-18
8957.68222 8.54789e-18
8958.54368 8.48577e-18
8959.40514 8.42361e-18
8960.26660 8.41533e-18
8961.12806 8.40720e-18
8961.98953 8.46303e-18
8962.85099 8.51904e-18
8963.71245 8.62535e-18
8964.57391 8.73181e-18
8965.44539 8.85416e-18
8966.30685 8.97655e-18
8967.16832 9.06278e-18
8968.02978 9.14893e-18
8968.89124 9.20476e-18
8969.75270 9.26052e-18
8970.61416 9.34296e-18
8971.47563 9.42547e-18
8972.33709 9.55426e-18
8973.19855 9.68318e-18
8974.06001 9.83391e-18
8974.93149 9.98468e-18
8975.79295 1.01220e-17
8976.65441 1.02593e-17
8977.51588 1.03291e-17
8978.37734 1.03987e-17
8979.23880 1.03589e-17
8980.10026 1.03189e-17
8980.96172 1.01424e-17
8981.82319 9.96556e-18
8982.68465 9.66979e-18
8983.54611 9.37370e-18
8984.41759 9.11772e-18
8985.27905 8.86185e-18
8986.14051 8.79241e-18
8987.00198 8.72347e-18
8987.86344 8.89090e-18
8988.72490 9.05897e-18
8989.58636 9.47085e-18
8990.44782 9.88337e-18
8991.30928 1.03431e-17
8992.17075 1.08030e-17
8993.03221 1.10740e-17
8993.89367 1.13445e-17
8994.76515 1.13912e-17
8995.62661 1.14373e-17
8996.48807 1.13031e-17
8997.34954 1.11683e-17
8998.21100 1.09589e-17
8999.07246 1.07493e-17
8999.93392 1.06092e-17
9000.79538 1.04693e-17
9001.65685 1.04614e-17
9002.51831 1.04539e-17
9003.38979 1.05744e-17
9004.25125 1.06952e-17
9005.11271 1.09020e-17
9005.97417 1.11091e-17
9006.83563 1.13199e-17
9007.69710 1.15308e-17
9008.55856 1.16814e-17
9009.42002 1.18319e-17
9010.28148 1.18925e-17
9011.14295 1.19529e-17
9012.00441 1.19249e-17
9012.87589 1.18967e-17
9013.73735 1.18508e-17
9014.59881 1.18048e-17
9015.46027 1.17935e-17
9016.32173 1.17823e-17
9017.18320 1.17736e-17
9018.04466 1.17648e-17
9018.90612 1.17347e-17
9019.76758 1.17046e-17
9020.62904 1.16807e-17
9021.49051 1.16569e-17
9022.35197 1.16680e-17
9023.22345 1.16791e-17
9024.08491 1.17611e-17
9024.94637 1.18434e-17
9025.80783 1.20251e-17
9026.66930 1.22071e-17
9027.53076 1.24449e-17
9028.39222 1.26829e-17
9029.25368 1.29107e-17
9030.11514 1.31383e-17
9030.97660 1.33102e-17
9031.83807 1.34818e-17
9032.70955 1.35636e-17
9033.57101 1.36451e-17
9034.43247 1.36339e-17
9035.29393 1.36223e-17
9036.15539 1.35353e-17
9037.01686 1.34481e-17
9037.87832 1.33300e-17
9038.73978 1.32118e-17
9039.60124 1.31312e-17
9040.46270 1.30510e-17
9041.32417 1.30264e-17
9042.18563 1.30019e-17
9043.05711 1.29830e-17
9043.91857 1.29640e-17
9044.78003 1.29243e-17
9045.64149 1.28844e-17
9046.50295 1.28398e-17
9047.36442 1.27952e-17
9048.22588 1.27594e-17
9049.08734 1.27236e-17
9049.94880 1.27188e-17
9050.81027 1.27139e-17
9051.67173 1.27458e-17
9052.54321 1.27779e-17
9053.40467 1.27813e-17
9054.26613 1.27845e-17
9055.12759 1.27021e-17
9055.98905 1.26194e-17
9056.85052 1.24817e-17
9057.71198 1.23438e-17
9058.57344 1.21923e-17
9059.43490 1.20408e-17
9060.29636 1.18806e-17
9061.16784 1.17204e-17
9062.02931 1.15537e-17
9062.89077 1.13869e-17
9063.75223 1.12074e-17
9064.61369 1.10280e-17
9065.47515 1.08225e-17
9066.33662 1.06170e-17
9067.19808 1.04378e-17
9068.05954 1.02587e-17
9068.92100 1.01927e-17
9069.78246 1.01270e-17
9070.64393 1.01549e-17
9071.51540 1.01831e-17
9072.37687 1.02077e-17
9073.23833 1.02324e-17
9074.09979 1.02178e-17
9074.96125 1.02031e-17
9075.82271 1.01765e-17
9076.68418 1.01499e-17
9077.54564 1.01282e-17
9078.40710 1.01066e-17
9079.26856 1.00997e-17
9080.13002 1.00929e-17
9080.99149 1.01004e-17
9081.86297 1.01079e-17
9082.72443 1.00960e-17
9083.58589 1.00841e-17
9084.44735 1.00341e-17
9085.30881 9.98397e-18
9086.17028 9.93292e-18
9087.03174 9.88186e-18
9087.89320 9.85840e-18
9088.75466 9.83500e-18
9089.61612 9.80261e-18
9090.48760 9.77018e-18
9091.34906 9.69385e-18
9092.21053 9.61783e-18
9093.07199 9.53368e-18
9093.93345 9.44952e-18
9094.79491 9.40174e-18
9095.65637 9.35408e-18
9096.51784 9.33016e-18
9097.37930 9.30632e-18
9098.24076 9.27990e-18
9099.10222 9.25346e-18
9099.97370 9.23135e-18
9100.83516 9.20926e-18
9101.69663 9.20558e-18
9102.55809 9.20195e-18
9103.41955 9.24373e-18
9104.28101 9.28563e-18
9105.14247 9.41156e-18
9106.00393 9.53772e-18
9106.86540 9.70191e-18
9107.72686 9.86620e-18
9108.58832 9.95096e-18
9109.45980 1.00355e-17
9110.32126 9.99064e-18
9111.18272 9.94544e-18
9112.04419 9.80020e-18
9112.90565 9.65468e-18
9113.76711 9.46905e-18
9114.62857 9.28332e-18
9115.49003 9.18049e-18
9116.35150 9.07789e-18
9117.21296 9.12204e-18
9118.07442 9.16659e-18
9118.93588 9.26269e-18
9119.80736 9.35894e-18
9120.66882 9.41420e-18
9121.53028 9.46934e-18
9122.39175 9.42433e-18
9123.25321 9.37904e-18
9124.11467 9.19807e-18
9124.97613 9.01674e-18
9125.83760 8.78351e-18
9126.69906 8.55015e-18
9127.56052 8.36654e-18
9128.43200 8.18308e-18
9129.29346 8.10172e-18
9130.15492 8.02065e-18
9131.01638 8.07545e-18
9131.87785 8.13063e-18
9132.73931 8.29874e-18
9133.60077 8.46717e-18
9134.46223 8.69690e-18
9135.32369 8.92678e-18
9136.18516 9.16432e-18
9137.04662 9.40189e-18
9137.90808 9.59174e-18
9138.76954 9.78144e-18
9139.64102 9.88786e-18
9140.50248 9.99404e-18
9141.36395 1.00050e-17
9142.22541 1.00156e-17
9143.08687 9.91296e-18
9143.94833 9.80999e-18
9144.80979 9.56772e-18
9145.67125 9.32508e-18
9146.53272 8.97459e-18
9147.39418 8.62382e-18
9148.26566 8.27099e-18
9149.12712 7.91816e-18
9149.98858 7.65905e-18
9150.85004 7.40018e-18
9151.71151 7.31248e-18
9152.57297 7.22527e-18
9153.43443 7.33931e-18
9154.29589 7.45389e-18
9155.15735 7.67000e-18
9156.01882 7.88638e-18
9156.88028 8.09925e-18
9157.75176 8.31210e-18
9158.61322 8.47248e-18
9159.47468 8.63271e-18
9160.33614 8.70258e-18
9161.19760 8.77218e-18
9162.05907 8.75406e-18
9162.92053 8.73568e-18
9163.78199 8.65024e-18
9164.64345 8.56462e-18
9165.50492 8.40900e-18
9166.36638 8.25319e-18
9167.22784 8.02371e-18
9168.09932 7.79404e-18
9168.96078 7.54764e-18
9169.82224 7.30121e-18
9170.68370 7.11497e-18
9171.54517 6.92890e-18
9172.40663 6.84133e-18
9173.26809 6.75402e-18
9174.12955 6.78188e-18
9174.99101 6.81007e-18
9175.85248 6.90600e-18
9176.71394 7.00210e-18
9177.58542 7.05844e-18
9178.44688 7.11466e-18
9179.30834 7.10008e-18
9180.16980 7.08530e-18
9181.03127 7.07045e-18
9181.89273 7.05561e-18
9182.75419 7.07938e-18
9183.61565 7.10326e-18
9184.47711 7.15178e-18
9185.33857 7.20037e-18
9186.20004 7.25691e-18
9187.07152 7.31346e-18
9187.93298 7.33747e-18
9188.79444 7.36139e-18
9189.65590 7.33035e-18
9190.51736 7.29915e-18
9191.37883 7.27576e-18
9192.24029 7.25237e-18
9193.10175 7.29239e-18
9193.96321 7.33259e-18
9194.82467 7.41123e-18
9195.68614 7.48996e-18
9196.55762 7.57183e-18
9197.41908 7.65369e-18
9198.28054 7.70678e-18
9199.14200 7.75980e-18
9200.00346 7.75337e-18
9200.86492 7.74678e-18
9201.72639 7.70350e-18
9202.58785 7.66010e-18
9203.44931 7.62451e-18
9204.31077 7.58895e-18
9205.17224 7.56236e-18
9206.04371 7.53577e-18
9206.90518 7.49860e-18
9207.76664 7.46139e-18
9208.62810 7.41985e-18
9209.48956 7.37831e-18
9210.35102 7.35335e-18
9211.21249 7.32843e-18
9212.07395 7.34106e-18
9212.93541 7.35380e-18
9213.79687 7.42812e-18
9214.65833 7.50261e-18
9215.52981 7.63380e-18
9216.39127 7.76515e-18
9217.25274 7.90336e-18
9218.11420 8.04159e-18
9218.97566 8.15446e-18
9219.83712 8.26725e-18
9220.69859 8.36510e-18
9221.56005 8.46290e-18
9222.42151 8.55154e-18
9223.28297 8.64016e-18
9224.14443 8.70972e-18
9225.00590 8.77923e-18
9225.87737 8.82281e-18
9226.73884 8.86632e-18
9227.60030 8.87668e-18
9228.46176 8.88696e-18
9229.32322 8.86131e-18
9230.18468 8.83559e-18
9231.04615 8.80318e-18
9231.90761 8.77075e-18
9232.76907 8.76532e-18
9233.63053 8.75995e-18
9234.49199 8.77410e-18
9235.35346 8.78827e-18
9236.22494 8.80297e-18
9237.08640 8.81767e-18
9237.94786 8.84159e-18
9238.80932 8.86554e-18
9239.67078 8.91653e-18
9240.53225 8.96759e-18
9241.39371 9.05421e-18
9242.25517 9.14094e-18
9243.11663 9.26667e-18
9243.97809 9.39252e-18
9244.84957 9.54642e-18
9245.71103 9.70039e-18
9246.57250 9.85748e-18
9247.43396 1.00146e-17
9248.29542 1.01606e-17
9249.15688 1.03065e-17
9250.01834 1.04443e-17
9250.87981 1.05822e-17
9251.74127 1.07049e-17
9252.60273 1.08276e-17
9253.46419 1.09058e-17
9254.32565 1.09838e-17
9255.19713 1.10127e-17
9256.05860 1.10414e-17
9256.92006 1.10781e-17
9257.78152 1.11148e-17
9258.64298 1.12024e-17
9259.50444 1.12901e-17
9260.36591 1.14156e-17
9261.22737 1.15411e-17
9262.08883 1.16812e-17
9262.95029 1.18214e-17
9263.81175 1.19257e-17
9264.68323 1.20299e-17
9265.54469 1.20499e-17
9266.40616 1.20697e-17
9267.26762 1.20068e-17
9268.12908 1.19436e-17
9268.99054 1.18177e-17
9269.85200 1.16916e-17
9270.71347 1.15496e-17
9271.57493 1.14075e-17
9272.43639 1.13052e-17
9273.29785 1.12031e-17
9274.16933 1.11847e-17
9275.03079 1.11666e-17
9275.89226 1.12643e-17
9276.75372 1.13625e-17
9277.61518 1.15600e-17
9278.47664 1.17577e-17
9279.33810 1.20005e-17
9280.19957 1.22435e-17
9281.06103 1.24729e-17
9281.92249 1.27023e-17
9282.79397 1.28617e-17
9283.65543 1.30210e-17
9284.51689 1.30654e-17
9285.37835 1.31094e-17
9286.23982 1.30120e-17
9287.10128 1.29142e-17
9287.96274 1.26868e-17
9288.82420 1.24590e-17
9289.68566 1.21736e-17
9290.54713 1.18881e-17
9291.40859 1.16287e-17
9292.27005 1.13693e-17
9293.14153 1.12462e-17
9294.00299 1.11235e-17
9294.86445 1.12088e-17
9295.72592 1.12946e-17
9296.58738 1.15140e-17
9297.44884 1.17338e-17
9298.31030 1.19888e-17
9299.17176 1.22438e-17
9300.03323 1.24001e-17
9300.89469 1.25561e-17
9301.75615 1.24848e-17
9302.62763 1.24129e-17
9303.48909 1.22378e-17
9304.35055 1.20624e-17
9305.21201 1.19859e-17
9306.07348 1.19096e-17
9306.93494 1.18844e-17
9307.79640 1.18593e-17
9308.65786 1.17386e-17
9309.51932 1.16177e-17
9310.38079 1.14084e-17
9311.24225 1.11989e-17
9312.11373 1.09876e-17
9312.97519 1.07763e-17
9313.83665 1.06480e-17
9314.69811 1.05199e-17
9315.55958 1.05710e-17
9316.42104 1.06227e-17
9317.28250 1.08345e-17
9318.14396 1.10469e-17
9319.00542 1.12337e-17
9319.86688 1.14205e-17
9320.72835 1.15095e-17
9321.58981 1.15982e-17
9322.46129 1.17604e-17
9323.32275 1.19228e-17
9324.18421 1.21958e-17
9325.04567 1.24690e-17
9325.90714 1.25026e-17
9326.76860 1.25356e-17
9327.63006 1.21142e-17
9328.49152 1.16916e-17
9329.35298 1.11539e-17
9330.21445 1.06159e-17
9331.07591 1.02899e-17
9331.94739 9.96458e-18
9332.80885 9.78704e-18
9333.67031 9.60994e-18
9334.53177 9.48611e-18
9335.39323 9.36243e-18
9336.25470 9.29443e-18
9337.11616 9.22661e-18
9337.97762 9.19821e-18
9338.83908 9.16994e-18
9339.70055 9.46995e-18
9340.56201 9.77088e-18
9341.43349 1.07904e-17
9342.29495 1.18120e-17
9343.15641 1.30501e-17
9344.01787 1.42887e-17
9344.87933 1.48235e-17
9345.74080 1.53561e-17
9346.60226 1.49128e-17
9347.46372 1.44665e-17
9348.32518 1.32018e-17
9349.18664 1.19348e-17
9350.04811 1.04304e-17
9350.90957 8.92539e-18
9351.78105 8.25393e-18
9352.64251 7.58489e-18
9353.50397 8.09829e-18
9354.36543 8.61506e-18
9355.22689 9.53737e-18
9356.08836 1.04608e-17
9356.94982 1.11396e-17
9357.81128 1.18177e-17
9358.67274 1.18639e-17
9359.53420 1.19083e-17
9360.39567 1.11536e-17
9361.26715 1.03966e-17
9362.12861 9.45227e-18
9362.99007 8.50745e-18
9363.85153 7.95048e-18
9364.71299 7.39464e-18
9365.57446 7.25825e-18
9366.43592 7.12308e-18
9367.29738 7.35169e-18
9368.15884 7.58132e-18
9369.02030 7.88828e-18
9369.89178 8.19545e-18
9370.75324 8.25251e-18
9371.61471 8.30885e-18
9372.47617 8.13613e-18
9373.33763 7.96276e-18
9374.19909 7.68292e-18
9375.06056 7.40277e-18
9375.92202 7.20336e-18
9376.78348 7.00418e-18
9377.64494 7.11432e-18
9378.50640 7.22533e-18
9379.37788 7.55812e-18
9380.23934 7.89154e-18
9381.10081 8.15200e-18
9381.96227 8.41224e-18
9382.82373 8.50638e-18
9383.68519 8.60004e-18
9384.54665 8.61268e-18
9385.40812 8.62509e-18
9386.26958 8.57971e-18
9387.13104 8.53415e-18
9387.99250 8.39102e-18
9388.85396 8.24759e-18
9389.72544 8.00446e-18
9390.58691 7.76103e-18
9391.44837 7.45458e-18
9392.30983 7.14795e-18
9393.17129 6.82846e-18
9394.03275 6.50893e-18
9394.89422 6.26562e-18
9395.75568 6.02253e-18
9396.61714 5.91579e-18
9397.47860 5.80945e-18
9398.34006 5.79452e-18
9399.21154 5.77986e-18
9400.07300 5.80048e-18
9400.93447 5.82121e-18
9401.79593 5.82330e-18
9402.65739 5.82533e-18
9403.51885 5.76156e-18
9404.38031 5.69760e-18
9405.24178 5.62115e-18
9406.10324 5.54468e-18
9406.96470 5.53025e-18
9407.82616 5.51598e-18
9408.69764 5.56436e-18
9409.55910 5.61294e-18
9410.42057 5.69817e-18
9411.28203 5.78352e-18
9412.14349 5.86528e-18
9413.00495 5.94703e-18
9413.86641 5.97748e-18
9414.72788 6.00777e-18
9415.58934 5.95502e-18
9416.45080 5.90202e-18
9417.31226 5.75622e-18
9418.17372 5.61015e-18
9419.04520 5.38149e-18
9419.90666 5.15260e-18
9420.76813 4.85636e-18
9421.62959 4.55993e-18
9422.49105 4.30213e-18
9423.35251 4.04445e-18
9424.21397 4.07812e-18
9425.07544 4.11264e-18
9425.93690 4.51903e-18
9426.79836 4.92648e-18
9427.65982 5.44030e-18
9428.53130 5.95440e-18
9429.39276 6.31989e-18
9430.25423 6.68493e-18
9431.11569 6.66531e-18
9431.97715 6.64458e-18
9432.83861 6.11993e-18
9433.70007 5.59384e-18
9434.56153 4.98015e-18
9435.42300 4.36624e-18
9436.28446 4.09868e-18
9437.14592 3.83214e-18
9438.01740 3.97926e-18
9438.87886 4.12758e-18
9439.74032 4.66120e-18
9440.60179 5.19592e-18
9441.46325 5.84503e-18
9442.32471 6.49445e-18
9443.18617 6.91022e-18
9444.04763 7.32531e-18
9444.90910 7.40797e-18
9445.77056 7.48966e-18
9446.63202 7.26099e-18
9447.49348 7.03143e-18
9448.36496 6.61487e-18
9449.22642 6.19779e-18
9450.08788 5.79195e-18
9450.94935 5.38615e-18
9451.81081 5.12042e-18
9452.67227 4.85512e-18
9453.53373 4.77995e-18
9454.39520 4.70534e-18
9455.25666 4.83331e-18
9456.11812 4.96189e-18
9456.98960 5.26197e-18
9457.85106 5.56254e-18
9458.71252 5.94488e-18
9459.57398 6.32743e-18
9460.43545 6.61072e-18
9461.29691 6.89371e-18
9462.15837 6.96870e-18
9463.01983 7.04309e-18
9463.88129 6.99514e-18
9464.74276 6.94685e-18
9465.60422 6.86518e-18
9466.47570 6.78343e-18
9467.33716 6.72287e-18
9468.19862 6.66238e-18
9469.06008 6.66696e-18
9469.92155 6.67172e-18
9470.78301 6.67392e-18
9471.64447 6.67610e-18
9472.50593 6.60397e-18
9473.36739 6.53165e-18
9474.22885 6.43024e-18
9475.09032 6.32875e-18
9475.96180 6.25931e-18
9476.82326 6.18997e-18
9477.68472 6.27949e-18
9478.54618 6.36947e-18
9479.40764 6.76114e-18
9480.26911 7.15366e-18
9481.13057 7.69197e-18
9481.99203 8.23070e-18
9482.85349 8.61488e-18
9483.71495 8.99859e-18
9484.57642 9.07011e-18
9485.43788 9.14070e-18
9486.30936 8.84404e-18
9487.17082 8.54630e-18
9488.03228 8.00226e-18
9488.89374 7.45752e-18
9489.75520 6.98426e-18
9490.61667 6.51121e-18
9491.47813 6.31216e-18
9492.33959 6.11392e-18
9493.20105 6.18535e-18
9494.06252 6.25758e-18
9494.92398 6.59848e-18
9495.79546 6.94016e-18
9496.65692 7.59396e-18
9497.51838 8.24866e-18
9498.37984 9.14643e-18
9499.24130 1.00449e-17
9500.10277 1.08353e-17
9500.96423 1.16254e-17
9501.82569 1.20047e-17
9502.68715 1.23827e-17
9503.54861 1.23027e-17
9504.41008 1.22214e-17
9505.28155 1.17132e-17
9506.14302 1.12038e-17
9507.00448 1.05313e-17
9507.86594 9.85843e-18
9508.72740 9.33573e-18
9509.58887 8.81349e-18
9510.45033 8.47131e-18
9511.31179 8.12967e-18
9512.17325 7.90596e-18
9513.03471 7.68260e-18
9513.89617 7.63845e-18
9514.75764 7.59482e-18
9515.62912 7.81767e-18
9516.49058 8.04129e-18
9517.35204 8.50562e-18
9518.21350 8.97065e-18
9519.07496 9.59074e-18
9519.93643 1.02113e-17
9520.79789 1.08362e-17
9521.65935 1.14611e-17
9522.52081 1.18829e-17
9523.38227 1.23041e-17
9524.24374 1.24527e-17
9525.11522 1.26006e-17
9525.97668 1.25854e-17
9526.83814 1.25697e-17
9527.69960 1.24913e-17
9528.56106 1.24128e-17
9529.42252 1.23509e-17
9530.28399 1.22890e-17
9531.14545 1.22881e-17
9532.00691 1.22875e-17
9532.86837 1.22770e-17
9533.72984 1.22665e-17
9534.60131 1.21867e-17
9535.46278 1.21067e-17
9536.32424 1.19396e-17
9537.18570 1.17722e-17
9538.04716 1.15272e-17
9538.90862 1.12821e-17
9539.77009 1.11829e-17
9540.63155 1.10841e-17
9541.49301 1.13416e-17
9542.35447 1.16002e-17
9543.21593 1.20634e-17
9544.08741 1.25271e-17
9544.94888 1.29708e-17
9545.81034 1.34144e-17
9546.67180 1.36193e-17
9547.53326 1.38233e-17
9548.39472 1.35641e-17
9549.25619 1.33036e-17
9550.11765 1.28414e-17
9550.97911 1.23787e-17
9551.84057 1.22393e-17
9552.70203 1.21008e-17
9553.57351 1.23199e-17
9554.43497 1.25399e-17
9555.29644 1.28067e-17
9556.15790 1.30735e-17
9557.01936 1.31787e-17
9557.88082 1.32833e-17
9558.74228 1.30874e-17
9559.60375 1.28907e-17
9560.46521 1.24801e-17
9561.32667 1.20691e-17
9562.18813 1.19186e-17
9563.05961 1.17688e-17
9563.92107 1.21232e-17
9564.78254 1.24790e-17
9565.64400 1.30861e-17
9566.50546 1.36940e-17
9567.36692 1.42827e-17
9568.22838 1.48713e-17
9569.08985 1.51180e-17
9569.95131 1.53638e-17
9570.81277 1.50457e-17
9571.67423 1.47259e-17
9572.53569 1.41234e-17
9573.40717 1.35201e-17
9574.26863 1.29661e-17
9575.13010 1.24124e-17
9575.99156 1.21297e-17
9576.85302 1.18478e-17
9577.71448 1.20121e-17
9578.57594 1.21778e-17
9579.43741 1.25129e-17
9580.29887 1.28484e-17
9581.16033 1.29505e-17
9582.02179 1.30520e-17
9582.89327 1.28677e-17
9583.75473 1.26827e-17
9584.61620 1.22912e-17
9585.47766 1.18991e-17
9586.33912 1.15828e-17
9587.20058 1.12667e-17
9588.06204 1.14553e-17
9588.92351 1.16454e-17
9589.78497 1.22851e-17
9590.64643 1.29262e-17
9591.51791 1.35239e-17
9592.37937 1.41216e-17
9593.24083 1.44115e-17
9594.10229 1.47007e-17
9594.96376 1.47083e-17
9595.82522 1.47152e-17
9596.68668 1.44940e-17
9597.54814 1.42722e-17
9598.40960 1.39469e-17
9599.27107 1.36214e-17
9600.13253 1.33297e-17
9600.99399 1.30380e-17
9601.86547 1.28888e-17
9602.72693 1.27399e-17
9603.58839 1.28040e-17
9604.44986 1.28690e-17
9605.31132 1.31348e-17
9606.17278 1.34013e-17
9607.03424 1.38089e-17
9607.89570 1.42167e-17
9608.75717 1.45069e-17
9609.61863 1.47967e-17
9610.48009 1.47196e-17
9611.35157 1.46414e-17
9612.21303 1.43029e-17
9613.07449 1.39637e-17
9613.93595 1.35637e-17
9614.79742 1.31635e-17
9615.65888 1.28408e-17
9616.52034 1.25183e-17
9617.38180 1.23888e-17
9618.24326 1.22600e-17
9619.10473 1.23534e-17
9619.96619 1.24475e-17
9620.82765 1.27317e-17
9621.69913 1.30166e-17
9622.56059 1.33891e-17
9623.42205 1.37618e-17
9624.28352 1.40799e-17
9625.14498 1.43978e-17
9626.00644 1.45256e-17
9626.86790 1.46526e-17
9627.72936 1.44625e-17
9628.59083 1.42715e-17
9629.45229 1.38010e-17
9630.31375 1.33297e-17
9631.17521 1.28573e-17
9632.04669 1.23848e-17
9632.90815 1.21266e-17
9633.76961 1.18690e-17
9634.63108 1.19090e-17
9635.49254 1.19500e-17
9636.35400 1.22795e-17
9637.21546 1.26099e-17
9638.07692 1.29163e-17
9638.93839 1.32226e-17
9639.79985 1.32474e-17
9640.67133 1.32714e-17
9641.53279 1.31760e-17
9642.39425 1.30803e-17
9643.25571 1.30531e-17
9644.11718 1.30262e-17
9644.97864 1.31129e-17
9645.84010 1.32000e-17
9646.70156 1.34189e-17
9647.56302 1.36382e-17
9648.42448 1.38431e-17
9649.28595 1.40479e-17
9650.15743 1.40484e-17
9651.01889 1.40482e-17
9651.88035 1.38435e-17
9652.74181 1.36382e-17
9653.60327 1.33137e-17
9654.46474 1.29888e-17
9655.32620 1.26619e-17
9656.18766 1.23350e-17
9657.04912 1.21411e-17
9657.91058 1.19476e-17
9658.77205 1.19623e-17
9659.64352 1.19777e-17
9660.50499 1.22196e-17
9661.36645 1.24622e-17
9662.22791 1.28546e-17
9663.08937 1.32475e-17
9663.95083 1.35906e-17
9664.81230 1.39335e-17
9665.67376 1.41115e-17
9666.53522 1.42890e-17
9667.39668 1.43631e-17
9668.25815 1.44369e-17
9669.11961 1.44422e-17
9669.99109 1.44473e-17
9670.85255 1.43247e-17
9671.71401 1.42015e-17
9672.57547 1.39347e-17
9673.43693 1.36673e-17
9674.29840 1.33654e-17
9675.15986 1.30631e-17
9676.02132 1.28349e-17
9676.88278 1.26068e-17
9677.74424 1.25283e-17
9678.61572 1.24501e-17
9679.47718 1.25716e-17
9680.33865 1.26936e-17
9681.20011 1.29150e-17
9682.06157 1.31366e-17
9682.92303 1.33186e-17
9683.78449 1.35004e-17
9684.64596 1.36018e-17
9685.50742 1.37027e-17
9686.36888 1.37177e-17
9687.23034 1.37324e-17
9688.10182 1.36755e-17
9688.96328 1.36184e-17
9689.82475 1.35248e-17
9690.68621 1.34311e-17
9691.54767 1.33072e-17
9692.40913 1.31831e-17
9693.27059 1.30103e-17
9694.13206 1.28371e-17
9694.99352 1.26408e-17
9695.85498 1.24443e-17
9696.71644 1.22942e-17
9697.57790 1.21443e-17
9698.44938 1.20752e-17
9699.31084 1.20063e-17
9700.17231 1.20049e-17
9701.03377 1.20038e-17
9701.89523 1.20417e-17
9702.75669 1.20797e-17
9703.61816 1.20934e-17
9704.47962 1.21070e-17
9705.34108 1.20556e-17
9706.20254 1.20039e-17
9707.06400 1.19268e-17
9707.93548 1.18497e-17
9708.79694 1.17879e-17
9709.65841 1.17262e-17
9710.51987 1.17021e-17
9711.38133 1.16781e-17
9712.24279 1.17062e-17
9713.10425 1.17345e-17
9713.96572 1.17760e-17
9714.82718 1.18174e-17
9715.68864 1.18254e-17
9716.55010 1.18333e-17
9717.41156 1.17944e-17
9718.28304 1.17554e-17
9719.14451 1.16643e-17
9720.00597 1.15729e-17
9720.86743 1.14783e-17
9721.72889 1.13836e-17
9722.59035 1.13604e-17
9723.45182 1.13375e-17
9724.31328 1.13529e-17
9725.17474 1.13684e-17
9726.03620 1.13245e-17
9726.89766 1.12804e-17
9727.76914 1.11426e-17
9728.63060 1.10044e-17
9729.49207 1.07908e-17
9730.35353 1.05770e-17
9731.21499 1.03332e-17
9732.07645 1.00894e-17
9732.93791 9.89919e-18
9733.79938 9.70920e-18
9734.66084 9.62489e-18
9735.52230 9.54089e-18
9736.38376 9.55227e-18
9737.25524 9.56393e-18
9738.11670 9.64749e-18
9738.97817 9.73127e-18
9739.83963 9.84077e-18
9740.70109 9.95036e-18
9741.56255 1.00401e-17
9742.42401 1.01297e-17
9743.28548 1.01754e-17
9744.14694 1.02210e-17
9745.00840 1.02083e-17
9745.86986 1.01955e-17
9746.74134 1.01439e-17
9747.60280 1.00922e-17
9748.46426 1.00284e-17
9749.32573 9.96464e-18
9750.18719 9.89510e-18
9751.04865 9.82554e-18
9751.91011 9.75356e-18
9752.77157 9.68156e-18
9753.63304 9.60475e-18
9754.49450 9.52793e-18
9755.35596 9.44134e-18
9756.22744 9.35470e-18
9757.08890 9.27634e-18
9757.95036 9.19798e-18
9758.81183 9.15447e-18
9759.67329 9.11106e-18
9760.53475 9.12299e-18
9761.39621 9.13509e-18
9762.25767 9.22014e-18
9763.11913 9.30542e-18
9763.98060 9.43681e-18
9764.84206 9.56833e-18
9765.71354 9.67065e-18
9766.57500 9.77288e-18
9767.43646 9.80916e-18
9768.29792 9.84522e-18
9769.15939 9.83969e-18
9770.02085 9.83403e-18
9770.88231 9.80734e-18
9771.74377 9.78059e-18
9772.60523 9.74308e-18
9773.46670 9.70554e-18
9774.32816 9.67029e-18
9775.19964 9.63504e-18
9776.06110 9.61241e-18
9776.92256 9.58981e-18
9777.78402 9.58670e-18
9778.64548 9.58366e-18
9779.50695 9.60890e-18
9780.36841 9.63423e-18
9781.22987 9.69024e-18
9782.09133 9.74636e-18
9782.95280 9.78468e-18
9783.81426 9.82293e-18
9784.68574 9.79082e-18
9785.54720 9.75848e-18
9786.40866 9.68148e-18
9787.27012 9.60436e-18
9788.13158 9.53051e-18
9788.99305 9.45667e-18
9789.85451 9.40288e-18
9790.71597 9.34915e-18
9791.57743 9.32246e-18
9792.43889 9.29584e-18
9793.30036 9.27824e-18
9794.16182 9.26066e-18
9795.03330 9.21428e-18
9795.89476 9.16781e-18
9796.75622 9.10370e-18
9797.61768 9.03955e-18
9798.47915 9.01303e-18
9799.34061 8.98663e-18
9800.20207 9.01618e-18
9801.06353 9.04591e-18
9801.92499 9.10531e-18
9802.78645 9.16481e-18
9803.64792 9.22760e-18
9804.51940 9.29039e-18
9805.38086 9.32552e-18
9806.24232 9.36056e-18
9807.10378 9.35298e-18
9807.96524 9.34524e-18
9808.82671 9.32472e-18
9809.68817 9.30415e-18
9810.54963 9.29905e-18
9811.41109 9.29399e-18
9812.27255 9.32223e-18
9813.13402 9.35058e-18
9813.99548 9.42049e-18
9814.86696 9.49053e-18
9815.72842 9.55236e-18
9816.58988 9.61416e-18
9817.45134 9.61506e-18
9818.31280 9.61578e-18
9819.17427 9.56278e-18
9820.03573 9.50963e-18
9820.89719 9.42498e-18
9821.75865 9.34022e-18
9822.62012 9.25653e-18
9823.48158 9.17285e-18
9824.35306 9.12814e-18
9825.21452 9.08356e-18
9826.07598 9.07230e-18
9826.93744 9.06115e-18
9827.79890 9.05257e-18
9828.66037 9.04399e-18
9829.52183 9.03047e-18
9830.38329 9.01694e-18
9831.24475 9.00761e-18
9832.10621 8.99828e-18
9832.97769 8.99103e-18
9833.83915 8.98378e-18
9834.70062 8.96664e-18
9835.56208 8.94948e-18
9836.42354 8.91696e-18
9837.28500 8.88440e-18
9838.14647 8.83972e-18
9839.00793 8.79500e-18
9839.86939 8.74179e-18
9840.73085 8.68856e-18
9841.59231 8.62873e-18
9842.45377 8.56887e-18
9843.32525 8.50922e-18
9844.18672 8.44956e-18
9845.04818 8.41125e-18
9845.90964 8.37299e-18
9846.77110 8.37264e-18
9847.63256 8.37240e-18
9848.49403 8.40488e-18
9849.35549 8.43745e-18
9850.21695 8.49329e-18
9851.07841 8.54921e-18
9851.93987 8.61937e-18
9852.81135 8.68958e-18
9853.67282 8.76339e-18
9854.53428 8.83720e-18
9855.39574 8.90792e-18
9856.25720 8.97861e-18
9857.11866 9.04125e-18
9857.98013 9.10387e-18
9858.84159 9.14503e-18
9859.70305 9.18613e-18
9860.56451 9.19046e-18
9861.42597 9.19470e-18
9862.29745 9.16014e-18
9863.15891 9.12547e-18
9864.02038 9.05859e-18
9864.88184 8.99161e-18
9865.74330 8.90462e-18
9866.60476 8.81756e-18
9867.46622 8.72791e-18
9868.32769 8.63825e-18
9869.18915 8.55594e-18
9870.05061 8.47366e-18
9870.92209 8.39754e-18
9871.78355 8.32144e-18
9872.64501 8.25282e-18
9873.50648 8.18422e-18
9874.36794 8.12897e-18
9875.22940 8.07377e-18
9876.09086 8.03654e-18
9876.95232 7.99938e-18
9877.81379 7.98447e-18
9878.67525 7.96963e-18
9879.53671 7.97898e-18
9880.39817 7.98840e-18
9881.26965 8.01904e-18
9882.13111 8.04975e-18
9882.99257 8.09618e-18
9883.85404 8.14264e-18
9884.71550 8.19482e-18
9885.57696 8.24701e-18
9886.43842 8.29406e-18
9887.29988 8.34110e-18
9888.16135 8.37285e-18
9889.02281 8.40455e-18
9889.88427 8.41248e-18
9890.74573 8.42032e-18
9891.61721 8.40420e-18
9892.47867 8.38801e-18
9893.34014 8.35216e-18
9894.20160 8.31624e-18
9895.06306 8.26527e-18
9895.92452 8.21424e-18
9896.78598 8.15299e-18
9897.64745 8.09172e-18
9898.50891 8.02817e-18
9899.37037 7.96461e-18
9900.23183 7.90927e-18
9901.09329 7.85396e-18
9901.96477 7.80859e-18
9902.82623 7.76323e-18
9903.68770 7.71887e-18
9904.54916 7.67452e-18
9905.41062 7.63323e-18
9906.27208 7.59194e-18
9907.13354 7.57320e-18
9907.99501 7.55450e-18
9908.85647 7.56754e-18
9909.71793 7.58068e-18
9910.57939 7.61665e-18
9911.45087 7.65268e-18
9912.31233 7.69711e-18
9913.17380 7.74156e-18
9914.03526 7.76389e-18
9914.89672 7.78616e-18
9915.75818 7.76213e-18
9916.61964 7.73797e-18
9917.48111 7.67607e-18
9918.34257 7.61405e-18
9919.20403 7.52910e-18
9920.07551 7.44409e-18
9920.93697 7.35295e-18
9921.79843 7.26180e-18
9922.65989 7.18161e-18
9923.52136 7.10147e-18
9924.38282 7.03976e-18
9925.24428 6.97811e-18
9926.10574 6.93780e-18
9926.96720 6.89757e-18
9927.82867 6.86753e-18
9928.69013 6.83751e-18
9929.56161 6.79998e-18
9930.42307 6.76243e-18
9931.28453 6.71164e-18
9932.14599 6.66080e-18
9933.00746 6.59928e-18
9933.86892 6.53772e-18
9934.73038 6.47068e-18
9935.59184 6.40363e-18
9936.45330 6.33862e-18
9937.31477 6.27361e-18
9938.17623 6.22059e-18
9939.03769 6.16762e-18
9939.90917 6.13912e-18
9940.77063 6.11070e-18
9941.63209 6.11015e-18
9942.49355 6.10970e-18
9943.35502 6.12414e-18
9944.21648 6.13863e-18
9945.07794 6.15688e-18
9945.93940 6.17513e-18
9946.80086 6.19434e-18
9947.66233 6.21357e-18
9948.52379 6.23050e-18
9949.39527 6.24743e-18
9950.25673 6.25588e-18
9951.11819 6.26430e-18
9951.97965 6.26025e-18
9952.84112 6.25618e-18
9953.70258 6.24768e-18
9954.56404 6.23917e-18
9955.42550 6.23505e-18
9956.28696 6.23094e-18
9957.14843 6.22530e-18
9958.00989 6.21964e-18
9958.88137 6.20432e-18
9959.74283 6.18895e-18
9960.60429 6.15979e-18
9961.46575 6.13059e-18
9962.32721 6.08489e-18
9963.18868 6.03914e-18
9964.05014 5.99060e-18
9964.91160 5.94205e-18
9965.77306 5.91350e-18
9966.63452 5.88501e-18
9967.49599 5.88182e-18
9968.36747 5.87870e-18
9969.22893 5.89205e-18
9970.09039 5.90545e-18
9970.95185 5.93397e-18
9971.81331 5.96254e-18
9972.67477 6.01279e-18
9973.53624 6.06310e-18
9974.39770 6.13235e-18
9975.25916 6.20165e-18
9976.12062 6.27507e-18
9976.98208 6.34848e-18
9977.85356 6.41428e-18
9978.71503 6.48005e-18
9979.57649 6.53258e-18
9980.43795 6.58508e-18
9981.29941 6.62236e-18
9982.16087 6.65961e-18
9983.02234 6.68958e-18
9983.88380 6.71954e-18
9984.74526 6.75019e-18
9985.60672 6.78086e-18
9986.46818 6.81618e-18
9987.32965 6.85150e-18
9988.20112 6.89354e-18
9989.06259 6.93560e-18
9989.92405 6.96955e-18
9990.78551 7.00347e-18
9991.64697 7.01254e-18
9992.50843 7.02153e-18
9993.36990 7.01833e-18
9994.23136 7.01508e-18
9995.09282 7.02113e-18
9995.95428 7.02722e-18
9996.81574 7.03886e-18
9997.67721 7.05053e-18
9998.54869 7.05404e-18
9999.41015 7.05751e-18
