# wavelength flux
3798.84974 4.23264e-18
3800.32195 6.29302e-18
3801.78414 1.05029e-17
3803.25634 7.44914e-18
3804.72855 1.14279e-17
3806.20075 1.07968e-17
3807.67296 3.48224e-18
3809.13515 3.11981e-18
3810.60735 8.56072e-18
3812.07956 1.20092e-17
3813.55176 5.63440e-18
3815.01395 -4.06529e-18
3816.48616 1.09192e-18
3817.95836 5.95907e-18
3819.43057 6.81305e-18
3820.89276 9.76934e-18
3822.36496 1.01281e-17
3823.83717 5.44016e-18
3825.30937 9.10387e-18
3826.78158 7.15041e-18
3828.24377 3.46655e-18
3829.71597 4.78885e-18
3831.18818 6.63266e-18
3832.66038 6.85006e-18
3834.12257 6.80529e-18
3835.59478 6.35188e-18
3837.06698 1.23853e-17
3838.53919 1.31120e-17
3840.01139 1.19521e-18
3841.47358 -3.93939e-19
3842.94579 2.73049e-18
3844.41799 3.36940e-18
3845.89020 3.80063e-18
3847.35239 1.02305e-17
3848.82459 1.52298e-17
3850.29680 1.15326e-17
3851.76900 1.40530e-17
3853.24120 6.85843e-18
3854.70340 6.60327e-18
3856.17560 9.80314e-18
3857.64781 8.21528e-18
3859.12001 1.13402e-17
3860.58220 8.98622e-18
3862.05441 8.11862e-18
3863.52661 8.46943e-18
3864.99882 1.03712e-17
3866.46101 7.99443e-18
3867.93321 1.49401e-17
3869.40542 1.73842e-17
3870.87762 8.83100e-18
3872.34983 9.66698e-18
3873.81202 1.31870e-17
3875.28422 1.03051e-17
3876.75643 1.10084e-17
3878.22863 1.26643e-17
3879.69082 1.12970e-17
3881.16303 9.24628e-18
3882.63523 1.25618e-17
3884.10744 1.73476e-17
3885.57964 1.50143e-17
3887.04183 9.69108e-18
3888.51404 1.31540e-17
3889.98624 9.07632e-18
3891.45845 4.93844e-18
3892.92064 7.81340e-18
3894.39284 4.41835e-18
3895.86505 1.93381e-18
3897.33725 7.46514e-18
3898.80946 1.17214e-17
3900.27165 1.19889e-17
3901.74385 1.18804e-17
3903.21606 1.17039e-17
3904.68826 1.06864e-17
3906.15045 1.06866e-17
3907.62266 6.89813e-18
3909.09486 8.33197e-18
3910.56707 1.09929e-17
3912.02926 7.09769e-18
3913.50146 1.32903e-17
3914.97367 1.75107e-17
3916.44587 1.13316e-17
3917.91808 1.50929e-17
3919.38027 1.88616e-17
3920.85247 1.15474e-17
3922.32467 1.14792e-17
3923.79688 1.68633e-17
3925.25907 1.11995e-17
3926.73128 1.31716e-17
3928.20348 1.53028e-17
3929.67569 1.09985e-17
3931.14789 6.76469e-18
3932.61008 1.10558e-17
3934.08229 1.52581e-17
3935.55449 1.52143e-17
3937.02670 1.33099e-17
3938.48889 1.46127e-17
3939.96109 1.19699e-17
3941.43330 1.18472e-17
3942.90550 1.47507e-17
3944.37770 8.93540e-18
3945.83990 8.68543e-18
3947.31210 1.07329e-17
3948.78431 9.90569e-18
3950.25651 1.18077e-17
3951.71870 1.55395e-17
3953.19091 1.92277e-17
3954.66311 1.61393e-17
3956.13532 1.25755e-17
3957.59751 1.18845e-17
3959.06971 1.72513e-17
3960.54192 1.77131e-17
3962.01412 1.21775e-17
3963.48633 1.02796e-17
3964.94852 7.07992e-18
3966.42072 5.96570e-18
3967.89293 6.46707e-18
3969.36513 1.09639e-17
3970.82732 1.66794e-17
3972.29953 1.38187e-17
3973.77173 9.73219e-18
3975.24393 1.08779e-17
3976.71614 8.14341e-18
3978.17833 6.36417e-18
3979.65054 1.12080e-17
3981.12274 1.35212e-17
3982.59495 8.80643e-18
3984.05714 9.15445e-18
3985.52934 1.10648e-17
3987.00155 1.57193e-17
3988.47375 1.63797e-17
3989.94596 1.08964e-17
3991.40814 9.37378e-18
3992.88035 1.11063e-17
3994.35255 1.12116e-17
3995.82476 1.12504e-17
3997.28695 1.41713e-17
3998.75916 1.17402e-17
4000.23136 1.20466e-17
4001.70357 1.31543e-17
4003.16576 1.27489e-17
4004.63796 1.20042e-17
4006.11017 1.02031e-17
4007.58237 1.00287e-17
4009.05458 1.12461e-17
4010.51677 1.38444e-17
4011.98897 1.11652e-17
4013.46117 1.13807e-17
4014.93338 1.49692e-17
4016.39557 1.06587e-17
4017.86778 9.40492e-18
4019.33998 1.26954e-17
4020.81219 1.38769e-17
4022.28439 1.54192e-17
4023.74658 1.48235e-17
4025.21879 1.18267e-17
4026.69099 1.14447e-17
4028.16320 1.27044e-17
4029.62539 1.46972e-17
4031.09759 1.49698e-17
4032.56980 1.33269e-17
4034.04200 1.76626e-17
4035.50419 1.56955e-17
4036.97640 1.23082e-17
4038.44860 1.17150e-17
4039.92081 1.13676e-17
4041.39301 8.97892e-18
4042.85520 8.81106e-18
4044.32740 1.29933e-17
4045.79961 1.29675e-17
4047.27182 1.11407e-17
4048.73401 1.14567e-17
4050.20621 1.33374e-17
4051.67842 1.66692e-17
4053.15062 1.85313e-17
4054.62283 1.75164e-17
4056.08502 1.66058e-17
4057.55722 1.45424e-17
4059.02943 1.20803e-17
4060.50163 1.28708e-17
4061.96382 1.53638e-17
4063.43602 1.15603e-17
4064.90823 1.10966e-17
4066.38044 1.34350e-17
4067.85264 9.72822e-18
4069.31483 1.15117e-17
4070.78704 1.52418e-17
4072.25924 1.47848e-17
4073.73145 1.38385e-17
4075.19364 1.24346e-17
4076.66584 1.17273e-17
4078.13805 1.24686e-17
4079.61025 1.04626e-17
4081.07244 1.34006e-17
4082.54464 1.56433e-17
4084.01685 1.05408e-17
4085.48906 1.02650e-17
4086.96126 1.05665e-17
4088.42345 1.23400e-17
4089.89566 1.52852e-17
4091.36786 1.71363e-17
4092.84007 1.95417e-17
4094.30226 1.45087e-17
4095.77446 1.20941e-17
4097.24667 1.10471e-17
4098.71887 1.00050e-17
4100.19108 1.33744e-17
4101.65327 1.85079e-17
4103.12547 2.22257e-17
4104.59767 1.64699e-17
4106.06988 8.70716e-18
4107.53207 1.17439e-17
4109.00428 1.46285e-17
4110.47648 1.31784e-17
4111.94869 9.47491e-18
4113.42089 9.68012e-18
4114.88308 1.13396e-17
4116.35528 1.26073e-17
4117.82749 1.02087e-17
4119.29970 4.50902e-18
4120.76189 5.13637e-18
4122.23409 8.42365e-18
4123.70629 1.02945e-17
4125.17850 9.79832e-18
4126.64069 1.00842e-17
4128.11290 1.03701e-17
4129.58510 1.06560e-17
4131.05731 1.09419e-17
4132.52951 1.12277e-17
4133.99170 1.15135e-17
4135.46391 1.17993e-17
4136.93611 1.20851e-17
4138.40832 1.23708e-17
4139.87050 1.26566e-17
4141.34271 1.29423e-17
4142.81491 1.32280e-17
4144.28712 1.35136e-17
4145.75932 1.37993e-17
4147.22152 1.40849e-17
4148.69372 1.43705e-17
4150.16593 1.46561e-17
4151.63813 1.46555e-17
4153.10032 1.33244e-17
4154.57253 1.29762e-17
4156.04473 8.29603e-18
4157.51694 6.60389e-18
4158.97912 1.02434e-17
4160.45133 1.45533e-17
4161.92353 1.49121e-17
4163.39574 1.30576e-17
4164.86794 1.33895e-17
4166.33014 1.07174e-17
4167.80234 6.70379e-18
4169.27455 1.07092e-17
4170.74675 1.57632e-17
4172.20894 1.75841e-17
4173.68115 1.29413e-17
4175.15335 1.12608e-17
4176.62556 1.20003e-17
4178.09776 1.37160e-17
4179.55995 1.00836e-17
4181.03216 7.64541e-18
4182.50436 1.13544e-17
4183.97656 1.37238e-17
4185.43876 1.42692e-17
4186.91096 1.23010e-17
4188.38317 1.27534e-17
4189.85537 1.41261e-17
4191.32758 1.14905e-17
4192.78977 9.90163e-18
4194.26197 9.84312e-18
4195.73418 1.05612e-17
4197.20638 1.14986e-17
4198.66857 1.14717e-17
4200.14078 1.32879e-17
4201.61298 1.36948e-17
4203.08518 1.24703e-17
4204.55739 1.15307e-17
4206.01958 1.12398e-17
4207.49179 1.34365e-17
4208.96399 1.37156e-17
4210.43620 1.21939e-17
4211.89839 1.18859e-17
4213.37059 1.27187e-17
4214.84279 9.47645e-18
4216.31500 7.43327e-18
4217.77719 1.04290e-17
4219.24940 1.40624e-17
4220.72160 1.20656e-17
4222.19380 1.21526e-17
4223.66601 1.16216e-17
4225.12820 1.12416e-17
4226.60041 1.15996e-17
4228.07261 1.12312e-17
4229.54482 1.00169e-17
4231.00701 1.04694e-17
4232.47921 1.36444e-17
4233.95141 1.47455e-17
4235.42362 1.49746e-17
4236.89583 1.26835e-17
4238.35802 1.11252e-17
4239.83022 1.02509e-17
4241.30242 1.07099e-17
4242.77463 1.23683e-17
4244.23682 9.09271e-18
4245.70903 1.01876e-17
4247.18123 1.22233e-17
4248.65344 1.15796e-17
4250.11563 1.15912e-17
4251.58783 8.13417e-18
4253.06003 1.01424e-17
4254.53224 1.36337e-17
4256.00445 1.24169e-17
4257.46664 1.34421e-17
4258.93884 1.40347e-17
4260.41104 1.36269e-17
4261.88325 1.44878e-17
4263.34544 1.13015e-17
4264.81765 1.01866e-17
4266.28985 1.18664e-17
4267.76206 8.17836e-18
4269.23426 8.04034e-18
4270.69645 1.18062e-17
4272.16866 1.29923e-17
4273.64086 1.10000e-17
4275.11307 1.18524e-17
4276.57526 1.42281e-17
4278.04746 1.46165e-17
4279.51966 1.51814e-17
4280.99187 1.07764e-17
4282.45406 9.26271e-18
4283.92627 8.65855e-18
4285.39847 9.73706e-18
4286.87068 1.04439e-17
4288.34288 9.91945e-18
4289.80507 1.32065e-17
4291.27728 1.31081e-17
4292.74948 1.11583e-17
4294.22169 1.11112e-17
4295.68388 1.34159e-17
4297.15608 1.09144e-17
4298.62828 1.24262e-17
4300.10049 1.48511e-17
4301.57270 1.32194e-17
4303.03489 1.10178e-17
4304.50709 8.70909e-18
4305.97930 1.13733e-17
4307.45150 1.01005e-17
4308.91369 9.42235e-18
4310.38590 1.08954e-17
4311.85810 1.32893e-17
4313.33031 1.37529e-17
4314.80251 1.28479e-17
4316.26470 1.06081e-17
4317.73691 9.84136e-18
4319.20911 9.49557e-18
4320.68132 9.66423e-18
4322.14351 1.22233e-17
4323.61571 8.17555e-18
4325.08792 1.14702e-17
4326.56012 9.69226e-18
4328.03233 1.10960e-17
4329.49452 1.11815e-17
4330.96672 8.52991e-18
4332.43893 1.23302e-17
4333.91113 1.22357e-17
4335.37332 9.89873e-18
4336.84553 1.04334e-17
4338.31773 1.21381e-17
4339.78993 1.12511e-17
4341.25212 1.14357e-17
4342.72433 1.06130e-17
4344.19654 9.66019e-18
4345.66874 1.13580e-17
4347.14095 1.04428e-17
4348.60314 8.88829e-18
4350.07534 1.02924e-17
4351.54755 1.05610e-17
4353.01975 1.05941e-17
4354.48194 1.06272e-17
4355.95415 1.06603e-17
4357.42635 1.06934e-17
4358.89855 1.07265e-17
4360.37076 1.07596e-17
4361.83295 1.07927e-17
4363.30516 1.08258e-17
4364.77736 1.08589e-17
4366.24957 1.08920e-17
4367.71176 1.09251e-17
4369.18396 1.09581e-17
4370.65617 1.09912e-17
4372.12837 1.10243e-17
4373.59056 1.10574e-17
4375.06277 1.10904e-17
4376.53497 1.11235e-17
4378.00717 1.11565e-17
4379.47938 1.11896e-17
4380.94157 1.12227e-17
4382.41378 1.12557e-17
4383.88598 1.12888e-17
4385.35819 1.13218e-17
4386.82038 1.13548e-17
4388.29258 1.13879e-17
4389.76479 1.03159e-17
4391.23699 1.04376e-17
4392.70920 1.02090e-17
4394.17139 1.07152e-17
4395.64359 1.17211e-17
4397.11579 1.13792e-17
4398.58800 1.24201e-17
4400.05019 9.86506e-18
4401.52240 1.07561e-17
4402.99460 1.25050e-17
4404.46681 1.13434e-17
4405.92900 1.22321e-17
4407.40120 1.24159e-17
4408.87341 1.36029e-17
4410.34561 1.26992e-17
4411.81782 1.06565e-17
4413.28001 1.12322e-17
4414.75221 1.07976e-17
4416.22441 1.02879e-17
4417.69662 9.94995e-18
4419.15881 9.71610e-18
4420.63102 1.10357e-17
4422.10322 1.23269e-17
4423.57542 1.14816e-17
4425.04763 1.28986e-17
4426.50982 1.11073e-17
4427.98203 9.67908e-18
4429.45423 1.04651e-17
4430.92644 1.17604e-17
4432.38863 8.44273e-18
4433.86083 8.95393e-18
4435.33303 1.33228e-17
4436.80524 1.41660e-17
4438.27745 1.25635e-17
4439.73964 1.10419e-17
4441.21184 1.12381e-17
4442.68404 1.04781e-17
4444.15625 1.36213e-17
4445.61844 1.24137e-17
4447.09065 1.23787e-17
4448.56285 1.15879e-17
4450.03506 8.14431e-18
4451.50726 1.00260e-17
4452.96945 1.20655e-17
4454.44166 1.00241e-17
4455.91386 7.45162e-18
4457.38607 9.98431e-18
4458.84825 1.22475e-17
4460.32046 1.21702e-17
4461.79266 1.57317e-17
4463.26487 1.27346e-17
4464.72706 8.72062e-18
4466.19927 1.31685e-17
4467.67147 1.37403e-17
4469.14368 1.19685e-17
4470.61588 1.16321e-17
4472.07807 1.34439e-17
4473.55028 1.05167e-17
4475.02248 9.17255e-18
4476.49469 7.37602e-18
4477.95687 1.06527e-17
4479.42908 1.08906e-17
4480.90128 1.04024e-17
4482.37349 1.33073e-17
4483.84569 1.32474e-17
4485.30789 1.16994e-17
4486.78009 1.29266e-17
4488.25230 1.25913e-17
4489.72450 1.09353e-17
4491.18669 1.15879e-17
4492.65890 1.34248e-17
4494.13110 1.36770e-17
4495.60331 1.41866e-17
4497.06549 1.38560e-17
4498.53770 1.25542e-17
4500.00991 1.11951e-17
4501.48211 1.47581e-17
4502.95431 1.44076e-17
4504.41651 1.28656e-17
4505.88871 1.22055e-17
4507.36092 1.48152e-17
4508.83312 1.39710e-17
4510.29531 1.25148e-17
4511.76752 1.18651e-17
4513.23972 1.36950e-17
4514.71193 1.38786e-17
4516.18413 1.40331e-17
4517.64632 1.31397e-17
4519.11853 1.46654e-17
4520.59073 1.54085e-17
4522.06293 1.35081e-17
4523.52513 1.57863e-17
4524.99733 1.44372e-17
4526.46954 1.21466e-17
4527.94174 1.39439e-17
4529.41395 1.54904e-17
4530.87614 1.64436e-17
4532.34834 1.67159e-17
4533.82054 1.20454e-17
4535.29275 1.26212e-17
4536.75494 1.47274e-17
4538.22715 1.50959e-17
4539.69935 1.61379e-17
4541.17155 1.79048e-17
4542.63375 1.95350e-17
4544.10595 1.91524e-17
4545.57816 1.82139e-17
4547.05036 1.80454e-17
4548.52257 1.57369e-17
4549.98476 1.31859e-17
4551.45696 1.89143e-17
4552.92916 1.99863e-17
4554.40137 2.04097e-17
4555.86356 1.89678e-17
4557.33577 1.89216e-17
4558.80797 1.96755e-17
4560.28017 1.77877e-17
4561.75238 1.67132e-17
4563.21457 1.74809e-17
4564.68678 1.89227e-17
4566.15898 1.50127e-17
4567.63119 1.47023e-17
4569.09338 1.70023e-17
4570.56558 1.76612e-17
4572.03778 1.47098e-17
4573.50999 1.62234e-17
4574.98220 1.56793e-17
4576.44439 1.58535e-17
4577.91659 1.77311e-17
4579.38879 1.94040e-17
4580.86100 1.61332e-17
4582.32319 1.51366e-17
4583.79540 1.44580e-17
4585.26760 1.43817e-17
4586.73981 1.52204e-17
4588.20200 1.56026e-17
4589.67420 1.59506e-17
4591.14641 1.58219e-17
4592.61861 1.40683e-17
4594.09082 1.45429e-17
4595.55301 1.80131e-17
4597.02521 1.53714e-17
4598.49741 1.68142e-17
4599.96962 1.33161e-17
4601.43181 1.66334e-17
4602.90402 1.64722e-17
4604.37622 1.65410e-17
4605.84843 1.58776e-17
4607.32063 1.60049e-17
4608.78282 1.67353e-17
4610.25503 1.58115e-17
4611.72723 1.45134e-17
4613.19944 1.70130e-17
4614.66163 1.81270e-17
4616.13383 1.59443e-17
4617.60603 1.59227e-17
4619.07824 1.49921e-17
4620.55045 1.66297e-17
4622.01264 1.77326e-17
4623.48484 1.55540e-17
4624.95705 1.62010e-17
4626.42925 1.76673e-17
4627.89144 1.67361e-17
4629.36365 1.72148e-17
4630.83585 1.43766e-17
4632.30806 1.65600e-17
4633.77025 1.56898e-17
4635.24245 1.58099e-17
4636.71466 1.42312e-17
4638.18686 1.40914e-17
4639.65907 1.55028e-17
4641.12126 1.61249e-17
4642.59346 1.55024e-17
4644.06567 1.31179e-17
4645.53787 1.48063e-17
4647.00006 1.47952e-17
4648.47227 1.10620e-17
4649.94447 1.31123e-17
4651.41668 1.62526e-17
4652.88888 1.38954e-17
4654.35107 1.43986e-17
4655.82328 1.85525e-17
4657.29548 1.79225e-17
4658.76768 1.46511e-17
4660.22987 1.53844e-17
4661.70208 1.67804e-17
4663.17429 1.55325e-17
4664.64649 1.65773e-17
4666.10868 1.66625e-17
4667.58089 1.53962e-17
4669.05309 1.44143e-17
4670.52530 1.63368e-17
4671.99750 1.49149e-17
4673.45969 1.43669e-17
4674.93190 1.37595e-17
4676.40410 1.48074e-17
4677.87630 1.36860e-17
4679.33849 1.44067e-17
4680.81070 1.49016e-17
4682.28291 1.46912e-17
4683.75511 1.17247e-17
4685.22732 1.24432e-17
4686.68951 1.37399e-17
4688.16171 1.29342e-17
4689.63392 1.35299e-17
4691.10612 1.57732e-17
4692.56831 1.50440e-17
4694.04052 1.44286e-17
4695.51272 1.26866e-17
4696.98492 1.30388e-17
4698.45713 1.32362e-17
4699.91932 1.14395e-17
4701.39153 1.13871e-17
4702.86373 1.44435e-17
4704.33594 1.50078e-17
4705.79813 1.37527e-17
4707.27033 1.33971e-17
4708.74254 1.38126e-17
4710.21474 1.37599e-17
4711.68695 1.49054e-17
4713.14914 1.26562e-17
4714.62134 1.32815e-17
4716.09354 1.57818e-17
4717.56575 1.37354e-17
4719.02794 1.25237e-17
4720.50015 1.09938e-17
4721.97235 1.12275e-17
4723.44456 1.22218e-17
4724.90675 1.06430e-17
4726.37895 1.25743e-17
4727.85116 1.49775e-17
4729.32336 1.40173e-17
4730.79557 1.09197e-17
4732.25776 1.17952e-17
4733.72996 1.30010e-17
4735.20216 1.28856e-17
4736.67437 1.31475e-17
4738.13656 1.16828e-17
4739.60877 1.15256e-17
4741.08097 1.21802e-17
4742.55318 1.29556e-17
4744.02538 1.12801e-17
4745.48757 1.09161e-17
4746.95978 1.16123e-17
4748.43198 1.14638e-17
4749.90419 1.18230e-17
4751.36638 1.30779e-17
4752.83858 1.46526e-17
4754.31078 1.35269e-17
4755.78299 1.35928e-17
4757.24518 1.36538e-17
4758.71739 1.33174e-17
4760.18959 1.20554e-17
4761.66179 1.27677e-17
4763.13400 1.29526e-17
4764.59619 1.27578e-17
4766.06840 1.26828e-17
4767.54060 1.25514e-17
4769.01281 1.29547e-17
4770.47500 1.19078e-17
4771.94720 1.16676e-17
4773.41941 1.28205e-17
4774.89161 1.20340e-17
4776.36382 1.02863e-17
4777.82600 1.18407e-17
4779.29821 1.36827e-17
4780.77041 1.04677e-17
4782.24262 1.00635e-17
4783.70481 1.27684e-17
4785.17702 1.07127e-17
4786.64922 1.11591e-17
4788.12143 1.31738e-17
4789.59363 1.24069e-17
4791.05582 1.10181e-17
4792.52803 1.12707e-17
4794.00023 1.22595e-17
4795.47244 1.11410e-17
4796.93462 1.07667e-17
4798.40683 1.31900e-17
4799.87903 1.31268e-17
4801.35124 1.13840e-17
4802.81343 1.18066e-17
4804.28564 1.16499e-17
4805.75784 1.00906e-17
4807.23005 1.08095e-17
4808.70225 1.14997e-17
4810.16444 1.15009e-17
4811.63665 1.13731e-17
4813.10885 9.89805e-18
4814.58106 9.68188e-18
4816.04324 1.10868e-17
4817.51545 1.13953e-17
4818.98766 9.63195e-18
4820.45986 1.00706e-17
4821.93206 1.18757e-17
4823.39426 1.15875e-17
4824.86646 1.13072e-17
4826.33867 1.19224e-17
4827.81087 1.20594e-17
4829.27306 1.11744e-17
4830.74527 1.19509e-17
4832.21747 1.14091e-17
4833.68968 9.29599e-18
4835.16188 1.02865e-17
4836.62407 1.31009e-17
4838.09628 1.19913e-17
4839.56848 1.17346e-17
4841.04068 1.21228e-17
4842.50288 1.11459e-17
4843.97508 1.17925e-17
4845.44729 1.17694e-17
4846.91949 1.23348e-17
4848.38168 1.30056e-17
4849.85389 1.24452e-17
4851.32609 1.24486e-17
4852.79829 1.24521e-17
4854.27050 1.24555e-17
4855.73269 1.24589e-17
4857.20490 1.24624e-17
4858.67710 1.24658e-17
4860.14930 1.24692e-17
4861.61150 1.24727e-17
4863.08370 1.24761e-17
4864.55591 1.24795e-17
4866.02811 1.24830e-17
4867.50032 1.24864e-17
4868.96251 1.24898e-17
4870.43471 1.24933e-17
4871.90691 1.24967e-17
4873.37912 1.25001e-17
4874.84131 1.25036e-17
4876.31352 1.25070e-17
4877.78572 1.25104e-17
4879.25792 1.25138e-17
4880.73013 1.25173e-17
4882.19232 1.25207e-17
4883.66453 1.25241e-17
4885.13673 1.25276e-17
4886.60894 1.25310e-17
4888.07113 1.25344e-17
4889.54333 1.34200e-17
4891.01553 1.17352e-17
4892.48774 1.12445e-17
4893.94993 1.16854e-17
4895.42214 1.09456e-17
4896.89434 1.19292e-17
4898.36654 1.24250e-17
4899.83875 1.15257e-17
4901.30094 1.13739e-17
4902.77315 1.33584e-17
4904.24535 1.31024e-17
4905.71756 1.14345e-17
4907.17975 1.15474e-17
4908.65195 1.12314e-17
4910.12416 1.09261e-17
4911.59636 1.10398e-17
4913.06857 1.21594e-17
4914.53076 1.20940e-17
4916.00296 1.22926e-17
4917.47516 1.24905e-17
4918.94737 1.26123e-17
4920.40956 1.31566e-17
4921.88177 1.18554e-17
4923.35397 1.20529e-17
4924.82618 1.32692e-17
4926.29838 1.42171e-17
4927.76057 1.26973e-17
4929.23278 1.24372e-17
4930.70498 1.22999e-17
4932.17719 1.16703e-17
4933.63938 1.14199e-17
4935.11158 1.17279e-17
4936.58378 1.27022e-17
4938.05599 1.29948e-17
4939.51818 1.38520e-17
4940.99039 1.36484e-17
4942.46259 1.14938e-17
4943.93480 9.73055e-18
4945.40700 1.14763e-17
4946.86919 1.19375e-17
4948.34140 1.19785e-17
4949.81360 1.20196e-17
4951.28581 1.20606e-17
4952.74800 1.21017e-17
4954.22020 1.21427e-17
4955.69241 1.21837e-17
4957.16461 1.22247e-17
4958.63682 1.22657e-17
4960.09901 1.23067e-17
4961.57121 1.23478e-17
4963.04342 1.23888e-17
4964.51562 1.24298e-17
4965.97781 1.24708e-17
4967.45002 1.25118e-17
4968.92222 1.25527e-17
4970.39443 1.25937e-17
4971.86663 1.26347e-17
4973.32882 1.26757e-17
4974.80103 1.27167e-17
4976.27323 1.27577e-17
4977.74543 1.27986e-17
4979.20763 1.28396e-17
4980.67983 1.28805e-17
4982.15204 1.29215e-17
4983.62424 1.29625e-17
4985.08643 1.30034e-17
4986.55864 1.41519e-17
4988.03084 1.51045e-17
4989.50305 1.42646e-17
4990.97525 1.44534e-17
4992.43744 1.52177e-17
4993.90965 1.39180e-17
4995.38185 1.29117e-17
4996.85405 1.28461e-17
4998.31624 1.27805e-17
4999.78845 1.27150e-17
5001.26066 1.26494e-17
5002.73286 1.25839e-17
5004.20507 1.25183e-17
5005.66726 1.24528e-17
5007.13946 1.23873e-17
5008.61167 1.23218e-17
5010.08387 1.22562e-17
5011.54606 1.21907e-17
5013.01827 1.21252e-17
5014.49047 1.20597e-17
5015.96267 1.19942e-17
5017.43488 1.19287e-17
5018.89707 1.18633e-17
5020.36928 1.17978e-17
5021.84148 1.17323e-17
5023.31369 1.16669e-17
5024.77588 1.16014e-17
5026.24808 1.15360e-17
5027.72029 1.14705e-17
5029.19249 1.14051e-17
5030.65468 1.13397e-17
5032.12689 1.12742e-17
5033.59909 1.12088e-17
5035.07129 1.08743e-17
5036.54350 1.04330e-17
5038.00569 1.06110e-17
5039.47790 1.06140e-17
5040.95010 1.03346e-17
5042.42231 1.03432e-17
5043.88450 9.54947e-18
5045.35670 9.62474e-18
5046.82891 9.71623e-18
5048.30111 9.39628e-18
5049.77332 1.01349e-17
5051.23551 1.06965e-17
5052.70771 9.86270e-18
5054.17991 1.02874e-17
5055.65212 9.46545e-18
5057.11431 9.08006e-18
5058.58652 9.61563e-18
5060.05872 1.02936e-17
5061.53093 1.17281e-17
5063.00313 1.17994e-17
5064.46532 1.01862e-17
5065.93753 9.97856e-18
5067.40973 9.81737e-18
5068.88194 9.53218e-18
5070.34413 9.50190e-18
5071.81633 9.93905e-18
5073.28853 1.18518e-17
5074.76074 1.15445e-17
5076.22293 1.03172e-17
5077.69514 1.05077e-17
5079.16734 1.10499e-17
5080.63954 1.18202e-17
5082.11175 1.18239e-17
5083.57394 1.20960e-17
5085.04615 1.11273e-17
5086.51835 1.04706e-17
5087.99056 1.08399e-17
5089.45275 1.10203e-17
5090.92495 1.17138e-17
5092.39716 1.29315e-17
5093.86936 1.19364e-17
5095.34157 1.18192e-17
5096.80375 1.22673e-17
5098.27596 1.25342e-17
5099.74816 1.25354e-17
5101.22037 1.23612e-17
5102.68256 1.33972e-17
5104.15477 1.39910e-17
5105.62697 1.34910e-17
5107.09918 1.29864e-17
5108.57138 1.32833e-17
5110.03357 1.32740e-17
5111.50578 1.42763e-17
5112.97798 1.43191e-17
5114.45019 1.35510e-17
5115.91237 1.42132e-17
5117.38458 1.38955e-17
5118.85678 1.36663e-17
5120.32899 1.31554e-17
5121.79118 1.18664e-17
5123.26339 1.26703e-17
5124.73559 1.40908e-17
5126.20780 1.43160e-17
5127.68000 1.38074e-17
5129.14219 1.28328e-17
5130.61440 1.27991e-17
5132.08660 1.33462e-17
5133.55881 1.45941e-17
5135.02099 1.38251e-17
5136.49320 1.26053e-17
5137.96541 1.35937e-17
5139.43761 1.27764e-17
5140.90981 1.19871e-17
5142.37201 1.09205e-17
5143.84421 1.15394e-17
5145.31642 1.30400e-17
5146.78862 1.24405e-17
5148.25081 1.26898e-17
5149.72302 1.29484e-17
5151.19522 1.18119e-17
5152.66743 1.22380e-17
5154.12961 1.48196e-17
5155.60182 1.43813e-17
5157.07403 1.28694e-17
5158.54623 1.32015e-17
5160.01843 1.29007e-17
5161.48063 1.26079e-17
5162.95283 1.27298e-17
5164.42504 1.23022e-17
5165.89724 1.24944e-17
5167.35943 1.34577e-17
5168.83164 1.28327e-17
5170.30384 1.35656e-17
5171.77604 1.46003e-17
5173.24825 1.33808e-17
5174.71044 1.35135e-17
5176.18265 1.37237e-17
5177.65485 1.26482e-17
5179.12705 1.23570e-17
5180.58925 1.26898e-17
5182.06145 1.35895e-17
5183.53366 1.33978e-17
5185.00586 1.30365e-17
5186.47807 1.34189e-17
5187.94026 1.29511e-17
5189.41246 1.24268e-17
5190.88466 1.34218e-17
5192.35687 1.44733e-17
5193.81906 1.46332e-17
5195.29127 1.38419e-17
5196.76347 1.42294e-17
5198.23567 1.48165e-17
5199.70788 1.46339e-17
5201.17007 1.52646e-17
5202.64228 1.52440e-17
5204.11448 1.45812e-17
5205.58669 1.40788e-17
5207.04888 1.37839e-17
5208.52108 1.36613e-17
5209.99328 1.32004e-17
5211.46549 1.42151e-17
5212.92768 1.53903e-17
5214.39989 1.53272e-17
5215.87209 1.42776e-17
5217.34429 1.42368e-17
5218.81650 1.52683e-17
5220.27869 1.59285e-17
5221.75090 1.48762e-17
5223.22310 1.43844e-17
5224.69531 1.59949e-17
5226.15750 1.67790e-17
5227.62970 1.66020e-17
5229.10191 1.58242e-17
5230.57411 1.56299e-17
5232.04632 1.54757e-17
5233.50851 1.55260e-17
5234.98071 1.44798e-17
5236.45291 1.51625e-17
5237.92512 1.57975e-17
5239.38731 1.54498e-17
5240.85952 1.53037e-17
5242.33172 1.47621e-17
5243.80393 1.44470e-17
5245.26612 1.47067e-17
5246.73832 1.50139e-17
5248.21053 1.50955e-17
5249.68273 1.49504e-17
5251.15494 1.51485e-17
5252.61713 1.50151e-17
5254.08933 1.49630e-17
5255.56153 1.37902e-17
5257.03374 1.27422e-17
5258.49593 1.42900e-17
5259.96814 1.50707e-17
5261.44034 1.52865e-17
5262.91255 1.43261e-17
5264.38475 1.36753e-17
5265.84694 1.50641e-17
5267.31915 1.58584e-17
5268.79135 1.59536e-17
5270.26356 1.48377e-17
5271.72575 1.42094e-17
5273.19795 1.39502e-17
5274.67016 1.38204e-17
5276.14236 1.34128e-17
5277.60455 1.40411e-17
5279.07676 1.48409e-17
5280.54896 1.42670e-17
5282.02117 1.51622e-17
5283.49337 1.49894e-17
5284.95556 1.42865e-17
5286.42777 1.44551e-17
5287.89997 1.48807e-17
5289.37218 1.48461e-17
5290.83436 1.38666e-17
5292.30657 1.44533e-17
5293.77878 1.53295e-17
5295.25098 1.40800e-17
5296.72318 1.41585e-17
5298.18538 1.50979e-17
5299.65758 1.30922e-17
5301.12979 1.34531e-17
5302.60199 1.54375e-17
5304.06418 1.47753e-17
5305.53639 1.40976e-17
5307.00859 1.38916e-17
5308.48080 1.38048e-17
5309.95300 1.43968e-17
5311.41519 1.47415e-17
5312.88740 1.49329e-17
5314.35960 1.44540e-17
5315.83180 1.57042e-17
5317.29399 1.52484e-17
5318.76620 1.44073e-17
5320.23841 1.53530e-17
5321.71061 1.57666e-17
5323.18282 1.61011e-17
5324.64501 1.55200e-17
5326.11721 1.64213e-17
5327.58942 1.67405e-17
5329.06162 1.55837e-17
5330.52381 1.47378e-17
5331.99602 1.36859e-17
5333.46822 1.38542e-17
5334.94042 1.49466e-17
5336.40261 1.39838e-17
5337.87482 1.38621e-17
5339.34703 1.46487e-17
5340.81923 1.40036e-17
5342.29144 1.41518e-17
5343.75363 1.51186e-17
5345.22583 1.40384e-17
5346.69804 1.41425e-17
5348.17024 1.43612e-17
5349.63243 1.50290e-17
5351.10464 1.52827e-17
5352.57684 1.40399e-17
5354.04904 1.33359e-17
5355.52125 1.39522e-17
5356.98344 1.49182e-17
5358.45565 1.42169e-17
5359.92785 1.37111e-17
5361.40006 1.32679e-17
5362.86225 1.37602e-17
5364.33445 1.56575e-17
5365.80666 1.44464e-17
5367.27886 1.45113e-17
5368.74105 1.54906e-17
5370.21326 1.38599e-17
5371.68546 1.27140e-17
5373.15766 1.35361e-17
5374.62987 1.24753e-17
5376.09206 1.20966e-17
5377.56427 1.26008e-17
5379.03647 1.28204e-17
5380.50868 1.37296e-17
5381.97087 1.38298e-17
5383.44307 1.27563e-17
5384.91528 1.30560e-17
5386.38748 1.41938e-17
5387.85969 1.39071e-17
5389.32188 1.37136e-17
5390.79408 1.29058e-17
5392.26628 1.38936e-17
5393.73849 1.44422e-17
5395.20068 1.34540e-17
5396.67289 1.36467e-17
5398.14509 1.38942e-17
5399.61730 1.31259e-17
5401.08950 1.21209e-17
5402.55169 1.14991e-17
5404.02390 1.14569e-17
5405.49610 1.18260e-17
5406.96831 1.21067e-17
5408.43050 1.36555e-17
5409.90270 1.28290e-17
5411.37491 1.22330e-17
5412.84711 1.22761e-17
5414.30930 1.23830e-17
5415.78151 1.25717e-17
5417.25371 1.26508e-17
5418.72591 1.26242e-17
5420.19812 1.18727e-17
5421.66031 1.26567e-17
5423.13252 1.33491e-17
5424.60472 1.35142e-17
5426.07693 1.32619e-17
5427.53912 1.19302e-17
5429.01132 1.13956e-17
5430.48353 1.16750e-17
5431.95573 1.36899e-17
5433.42794 1.41904e-17
5434.89012 1.30983e-17
5436.36233 1.25767e-17
5437.83453 1.21704e-17
5439.30674 1.18919e-17
5440.76893 1.18080e-17
5442.24114 1.25143e-17
5443.71334 1.16099e-17
5445.18555 1.19200e-17
5446.65775 1.34493e-17
5448.11994 1.21921e-17
5449.59215 1.12978e-17
5451.06435 1.15927e-17
5452.53656 1.21403e-17
5453.99874 1.19321e-17
5455.47095 1.13368e-17
5456.94316 1.10053e-17
5458.41536 1.17839e-17
5459.87755 1.16194e-17
5461.34976 1.08751e-17
5462.82196 1.19382e-17
5464.29417 1.21572e-17
5465.76637 1.28217e-17
5467.22856 1.20854e-17
5468.70077 1.21366e-17
5470.17297 1.26479e-17
5471.64518 1.18254e-17
5473.10736 1.21380e-17
5474.57957 1.22877e-17
5476.05178 1.21790e-17
5477.52398 1.31800e-17
5478.99618 1.33247e-17
5480.45838 1.26029e-17
5481.93058 1.20187e-17
5483.40279 1.18646e-17
5484.87499 1.26197e-17
5486.33718 1.29539e-17
5487.80939 1.27734e-17
5489.28159 1.27221e-17
5490.75379 1.22418e-17
5492.22600 1.27421e-17
5493.68819 1.25447e-17
5495.16040 1.19650e-17
5496.63260 1.17539e-17
5498.10480 1.17163e-17
5499.56700 1.34646e-17
5501.03920 1.39782e-17
5502.51141 1.29213e-17
5503.98361 1.26115e-17
5505.44580 1.15964e-17
5506.91801 1.15266e-17
5508.39021 1.22415e-17
5509.86241 1.27269e-17
5511.33462 1.18839e-17
5512.79681 1.12780e-17
5514.26902 1.24273e-17
5515.74122 1.22309e-17
5517.21342 1.13147e-17
5518.67562 1.14503e-17
5520.14782 1.22276e-17
5521.62003 1.20539e-17
5523.09223 1.15447e-17
5524.56444 1.14053e-17
5526.02663 1.18041e-17
5527.49883 1.17978e-17
5528.97103 1.11883e-17
5530.44324 1.18173e-17
5531.90543 1.25798e-17
5533.37764 1.17205e-17
5534.84984 1.13262e-17
5536.32204 1.10613e-17
5537.78424 1.10274e-17
5539.25644 1.04598e-17
5540.72865 1.01183e-17
5542.20085 1.12111e-17
5543.67306 1.06343e-17
5545.13525 1.06660e-17
5546.60745 1.08420e-17
5548.07966 1.03518e-17
5549.55186 9.73813e-18
5551.01405 1.03317e-17
5552.48626 1.08278e-17
5553.95846 1.03328e-17
5555.43066 1.07449e-17
5556.90287 1.11205e-17
5558.36506 1.11150e-17
5559.83727 1.10107e-17
5561.30947 1.03068e-17
5562.78168 9.47082e-18
5564.24387 8.72928e-18
5565.71607 9.70396e-18
5567.18828 9.75953e-18
5568.66048 9.58777e-18
5570.13269 8.52405e-18
5571.59488 9.18803e-18
5573.06708 9.68483e-18
5574.53928 9.68670e-18
5576.01149 9.46420e-18
5577.47368 8.46791e-18
5578.94589 9.29638e-18
5580.41809 7.39460e-18
5581.89030 8.28529e-18
5583.36250 8.96097e-18
5584.82469 8.81370e-18
5586.29690 8.93829e-18
5587.76910 8.62909e-18
5589.24131 9.64746e-18
5590.70350 1.00535e-17
5592.17570 9.55550e-18
5593.64791 9.48878e-18
5595.12011 8.39496e-18
5596.58230 1.01444e-17
5598.05451 1.02620e-17
5599.52671 8.40392e-18
5600.99892 7.96711e-18
5602.47112 8.30258e-18
5603.93331 8.09189e-18
5605.40552 8.28590e-18
5606.87772 8.64257e-18
5608.34993 9.16988e-18
5609.81211 7.48700e-18
5611.28432 6.67768e-18
5612.75653 7.30140e-18
5614.22873 7.52157e-18
5615.70093 6.59252e-18
5617.16313 8.07044e-18
5618.63533 8.55122e-18
5620.10754 9.06140e-18
5621.57974 7.79116e-18
5623.04193 6.73159e-18
5624.51414 6.34984e-18
5625.98634 7.05987e-18
5627.45855 6.97951e-18
5628.92073 7.55513e-18
5630.39294 8.12793e-18
5631.86515 7.24042e-18
5633.33735 8.35593e-18
5634.80955 6.86404e-18
5636.27175 6.00761e-18
5637.74395 7.40512e-18
5639.21616 6.65905e-18
5640.68836 6.32139e-18
5642.15055 6.72697e-18
5643.62276 7.24832e-18
5645.09496 6.59511e-18
5646.56717 5.83481e-18
5648.03937 5.51273e-18
5649.50156 6.01231e-18
5650.97377 6.35223e-18
5652.44597 5.80012e-18
5653.91817 6.14374e-18
5655.38036 6.45316e-18
5656.85257 5.63617e-18
5658.32478 6.50808e-18
5659.79698 7.33869e-18
5661.26919 6.59340e-18
5662.73138 6.13211e-18
5664.20358 6.37284e-18
5665.67579 6.82171e-18
5667.14799 7.02066e-18
5668.61018 6.53159e-18
5670.08239 5.91587e-18
5671.55459 6.58500e-18
5673.02679 6.33162e-18
5674.49900 5.87127e-18
5675.96119 5.92110e-18
5677.43340 6.69862e-18
5678.90560 6.33299e-18
5680.37781 5.93049e-18
5681.84000 7.28634e-18
5683.31220 6.76328e-18
5684.78441 5.58823e-18
5686.25661 6.44714e-18
5687.71880 6.57143e-18
5689.19101 5.56542e-18
5690.66321 6.08902e-18
5692.13541 6.39760e-18
5693.60762 6.20712e-18
5695.06981 5.16168e-18
5696.54202 5.94499e-18
5698.01422 5.92489e-18
5699.48643 6.15893e-18
5700.94862 6.43525e-18
5702.42082 6.35408e-18
5703.89303 6.74615e-18
5705.36523 6.62495e-18
5706.83744 7.18702e-18
5708.29963 6.97992e-18
5709.77183 6.90729e-18
5711.24403 6.87013e-18
5712.71624 5.94514e-18
5714.17843 6.77327e-18
5715.65064 6.37761e-18
5717.12284 5.97721e-18
5718.59505 6.75516e-18
5720.05724 7.57292e-18
5721.52944 7.25794e-18
5723.00165 7.37502e-18
5724.47385 8.02170e-18
5725.94606 8.04079e-18
5727.40825 7.58698e-18
5728.88045 7.03577e-18
5730.35266 6.88379e-18
5731.82486 7.91211e-18
5733.28705 7.64789e-18
5734.75926 6.88918e-18
5736.23146 6.72077e-18
5737.70367 7.07170e-18
5739.17587 7.62137e-18
5740.63806 7.19671e-18
5742.11027 7.75739e-18
5743.58247 7.55933e-18
5745.05468 7.75194e-18
5746.51687 6.93812e-18
5747.98907 7.14985e-18
5749.46128 7.90494e-18
5750.93348 7.43377e-18
5752.39567 8.07684e-18
5753.86787 8.61074e-18
5755.34008 8.53820e-18
5756.81228 7.97946e-18
5758.28449 6.62799e-18
5759.74668 7.78716e-18
5761.21889 7.69837e-18
5762.69109 7.96692e-18
5764.16330 8.43094e-18
5765.62549 8.07462e-18
5767.09769 8.18564e-18
5768.56990 7.73264e-18
5770.04210 8.40747e-18
5771.51431 8.50131e-18
5772.97649 8.42541e-18
5774.44870 7.97904e-18
5775.92091 8.38615e-18
5777.39311 8.67082e-18
5778.85530 8.35621e-18
5780.32751 8.67347e-18
5781.79971 8.13082e-18
5783.27192 7.79401e-18
5784.74412 8.20288e-18
5786.20631 9.57109e-18
5787.67852 9.56611e-18
5789.15072 9.16355e-18
5790.62293 7.74147e-18
5792.08511 7.68333e-18
5793.55732 9.56057e-18
5795.02953 9.87360e-18
5796.50173 9.64633e-18
5797.97393 1.08763e-17
5799.43613 1.08975e-17
5800.90833 1.03908e-17
5802.38054 1.01764e-17
5803.85274 1.05019e-17
5805.31493 1.05481e-17
5806.78714 1.00439e-17
5808.25934 1.00949e-17
5809.73154 1.07051e-17
5811.19373 9.59501e-18
5812.66594 8.76376e-18
5814.13815 9.48988e-18
5815.61035 9.01510e-18
5817.08255 9.52674e-18
5818.54475 1.01216e-17
5820.01695 1.03096e-17
5821.48916 1.11389e-17
5822.96136 1.10581e-17
5824.42355 1.05395e-17
5825.89576 1.01072e-17
5827.36796 1.05058e-17
5828.84016 1.04484e-17
5830.31237 9.52865e-18
5831.77456 1.00149e-17
5833.24677 1.04962e-17
5834.71897 1.09417e-17
5836.19117 1.13322e-17
5837.65337 1.15082e-17
5839.12557 1.12878e-17
5840.59778 1.09537e-17
5842.06998 1.21929e-17
5843.53217 1.14428e-17
5845.00438 1.10626e-17
5846.47658 1.19072e-17
5847.94878 1.15528e-17
5849.42099 1.16341e-17
5850.88318 1.12505e-17
5852.35539 1.11873e-17
5853.82759 1.22281e-17
5855.29979 1.19514e-17
5856.76199 1.15240e-17
5858.23419 1.24015e-17
5859.70640 1.23896e-17
5861.17860 1.16233e-17
5862.65081 1.25183e-17
5864.11300 1.32338e-17
5865.58520 1.19386e-17
5867.05741 1.22784e-17
5868.52961 1.21683e-17
5869.99180 1.28683e-17
5871.46401 1.29953e-17
5872.93621 1.27156e-17
5874.40841 1.29388e-17
5875.87061 1.26884e-17
5877.34281 1.25031e-17
5878.81502 1.24369e-17
5880.28722 1.17677e-17
5881.75943 1.19854e-17
5883.22162 1.20332e-17
5884.69382 1.26221e-17
5886.16603 1.30459e-17
5887.63823 1.23135e-17
5889.10042 1.12745e-17
5890.57263 1.09308e-17
5892.04483 1.18620e-17
5893.51703 1.07694e-17
5894.98924 9.96674e-18
5896.45143 9.04696e-18
5897.92364 7.48283e-18
5899.39584 6.97986e-18
5900.86805 7.97202e-18
5902.33024 8.10675e-18
5903.80244 8.68252e-18
5905.27465 9.40872e-18
5906.74685 9.57503e-18
5908.21906 1.04394e-17
5909.68125 1.15403e-17
5911.15345 1.14773e-17
5912.62566 1.16817e-17
5914.09786 1.15385e-17
5915.56005 1.00059e-17
5917.03226 1.09905e-17
5918.50446 1.23040e-17
5919.97667 1.16348e-17
5921.44887 1.11542e-17
5922.91106 1.12246e-17
5924.38327 1.13263e-17
5925.85547 1.19200e-17
5927.32768 1.25766e-17
5928.78986 1.25526e-17
5930.26207 1.21279e-17
5931.73428 1.23101e-17
5933.20648 1.26671e-17
5934.66867 1.21968e-17
5936.14088 1.16209e-17
5937.61308 1.14897e-17
5939.08529 1.23799e-17
5940.55749 1.13586e-17
5942.01968 1.07476e-17
5943.49189 1.16347e-17
5944.96409 1.05420e-17
5946.43630 1.02684e-17
5947.89848 1.12296e-17
5949.37069 1.13802e-17
5950.84290 1.18193e-17
5952.31510 1.12506e-17
5953.78730 1.13665e-17
5955.24950 1.06063e-17
5956.72170 1.22052e-17
5958.19391 1.11784e-17
5959.66611 1.09517e-17
5961.12830 1.18849e-17
5962.60051 1.24182e-17
5964.07271 1.26195e-17
5965.54492 1.24780e-17
5967.00710 1.24048e-17
5968.47931 1.19268e-17
5969.95152 1.15060e-17
5971.42372 1.21064e-17
5972.89592 1.23821e-17
5974.35811 1.20326e-17
5975.83032 1.20256e-17
5977.30253 1.17360e-17
5978.77473 9.75453e-18
5980.23692 1.02409e-17
5981.70913 1.22511e-17
5983.18133 1.28932e-17
5984.65354 1.18562e-17
5986.12574 1.12927e-17
5987.58793 1.07953e-17
5989.06014 1.05605e-17
5990.53234 1.09758e-17
5992.00454 1.09839e-17
5993.46673 1.06997e-17
5994.93894 1.08678e-17
5996.41115 1.08790e-17
5997.88335 1.05886e-17
5999.35556 1.04972e-17
6000.81775 1.09771e-17
6002.28995 1.07010e-17
6003.76216 1.00413e-17
6005.23436 1.02460e-17
6006.69655 1.01794e-17
6008.16876 1.06720e-17
6009.64096 1.08158e-17
6011.11316 1.04101e-17
6012.57535 1.00220e-17
6014.04756 1.04014e-17
6015.51977 1.07574e-17
6016.99197 1.06426e-17
6018.46418 1.09575e-17
6019.92637 1.15060e-17
6021.39857 1.07491e-17
6022.87078 9.85326e-18
6024.34298 1.05929e-17
6025.80517 1.10735e-17
6027.27738 1.08793e-17
6028.74958 1.08042e-17
6030.22178 1.06044e-17
6031.69399 1.04011e-17
6033.15618 1.10210e-17
6034.62839 1.12353e-17
6036.10059 1.03402e-17
6037.57280 9.78326e-18
6039.03499 1.03796e-17
6040.50719 1.06840e-17
6041.97940 1.01682e-17
6043.45160 9.91108e-18
6044.92381 9.96849e-18
6046.38600 9.93894e-18
6047.85820 1.02255e-17
6049.33041 1.04619e-17
6050.80261 9.88516e-18
6052.26480 9.44335e-18
6053.73701 9.52573e-18
6055.20921 1.00779e-17
6056.68142 1.01521e-17
6058.14361 1.01366e-17
6059.61581 1.06853e-17
6061.08802 1.08050e-17
6062.56022 1.06743e-17
6064.03243 1.08291e-17
6065.49462 1.03030e-17
6066.96682 9.21583e-18
6068.43903 9.45848e-18
6069.91123 1.05645e-17
6071.37342 1.04556e-17
6072.84562 1.02731e-17
6074.31783 1.06696e-17
6075.79003 1.03497e-17
6077.26224 9.97086e-18
6078.72443 9.55969e-18
6080.19664 9.07140e-18
6081.66884 9.71480e-18
6083.14105 1.09837e-17
6084.60324 1.13419e-17
6086.07544 1.05664e-17
6087.54765 9.74846e-18
6089.01985 9.60553e-18
6090.49206 9.61226e-18
6091.95424 1.00672e-17
6093.42645 9.73006e-18
6094.89866 9.45498e-18
6096.37086 9.75893e-18
6097.83305 9.79818e-18
6099.30526 9.80978e-18
6100.77746 9.45302e-18
6102.24967 9.09398e-18
6103.71186 8.81207e-18
6105.18406 9.20569e-18
6106.65627 9.61244e-18
6108.12847 9.26597e-18
6109.60068 9.43085e-18
6111.06286 9.65275e-18
6112.53507 9.75016e-18
6114.00728 9.51685e-18
6115.47948 9.08500e-18
6116.94167 9.61934e-18
6118.41388 9.35131e-18
6119.88608 9.12234e-18
6121.35829 9.64517e-18
6122.83049 9.25060e-18
6124.29268 8.84147e-18
6125.76489 9.18946e-18
6127.23709 9.52478e-18
6128.70929 9.51020e-18
6130.17148 9.29453e-18
6131.64369 8.77814e-18
6133.11590 9.04045e-18
6134.58810 9.91370e-18
6136.05029 1.00234e-17
6137.52250 9.55227e-18
6138.99470 9.38269e-18
6140.46691 9.13783e-18
6141.93911 9.31957e-18
6143.40130 9.67020e-18
6144.87351 9.54159e-18
6146.34571 9.26550e-18
6147.81791 9.17269e-18
6149.28010 9.53439e-18
6150.75231 9.42995e-18
6152.22452 8.87284e-18
6153.69672 9.53883e-18
6155.16892 8.98957e-18
6156.63112 8.50178e-18
6158.10332 9.98461e-18
6159.57553 9.62495e-18
6161.04773 8.79896e-18
6162.50992 9.66402e-18
6163.98213 9.56628e-18
6165.45433 9.25998e-18
6166.92653 1.03943e-17
6168.39874 1.01414e-17
6169.86093 8.62426e-18
6171.33314 9.15521e-18
6172.80534 9.51331e-18
6174.27754 1.00105e-17
6175.73974 1.02287e-17
6177.21194 9.85436e-18
6178.68415 1.00291e-17
6180.15635 1.03911e-17
6181.62856 9.94934e-18
6183.09075 9.52593e-18
6184.56295 1.02042e-17
6186.03516 1.03927e-17
6187.50736 1.02267e-17
6188.96955 1.11719e-17
6190.44176 1.22077e-17
6191.91396 1.26815e-17
6193.38616 1.30919e-17
6194.84836 1.29946e-17
6196.32056 1.24916e-17
6197.79277 1.32547e-17
6199.26497 1.32829e-17
6200.73718 1.25689e-17
6202.19937 1.22471e-17
6203.67157 1.23130e-17
6205.14378 1.29190e-17
6206.61598 1.28062e-17
6208.07817 1.29454e-17
6209.55038 1.32878e-17
6211.02258 1.31330e-17
6212.49478 1.28691e-17
6213.96699 1.36581e-17
6215.42918 1.40990e-17
6216.90139 1.37180e-17
6218.37359 1.37172e-17
6219.84580 1.40943e-17
6221.30799 1.41517e-17
6222.78019 1.46494e-17
6224.25240 1.45899e-17
6225.72460 1.42186e-17
6227.18679 1.45050e-17
6228.65900 1.47199e-17
6230.13120 1.46486e-17
6231.60341 1.42148e-17
6233.07561 1.48004e-17
6234.53780 1.51663e-17
6236.01001 1.44557e-17
6237.48221 1.42192e-17
6238.95442 1.48450e-17
6240.41661 1.49694e-17
6241.88881 1.50707e-17
6243.36102 1.52732e-17
6244.83322 1.42780e-17
6246.30543 1.42637e-17
6247.76762 1.44597e-17
6249.23982 1.43820e-17
6250.71203 1.50585e-17
6252.18423 1.48498e-17
6253.64642 1.45365e-17
6255.11863 1.57531e-17
6256.59083 1.64893e-17
6258.06304 1.52094e-17
6259.52523 1.50718e-17
6260.99743 1.59971e-17
6262.46964 1.56622e-17
6263.94184 1.50532e-17
6265.41405 1.54014e-17
6266.87623 1.51551e-17
6268.34844 1.38781e-17
6269.82065 1.44340e-17
6271.29285 1.53927e-17
6272.75504 1.45464e-17
6274.22725 1.45517e-17
6275.69945 1.52413e-17
6277.17166 1.49305e-17
6278.64386 1.49503e-17
6280.10605 1.54883e-17
6281.57826 1.53648e-17
6283.05046 1.47978e-17
6284.52267 1.49349e-17
6285.98485 1.49132e-17
6287.45706 1.49081e-17
6288.92927 1.56525e-17
6290.40147 1.59961e-17
6291.87367 1.54872e-17
6293.33587 1.41586e-17
6294.80807 1.37823e-17
6296.28028 1.53477e-17
6297.75248 1.64573e-17
6299.21467 1.55718e-17
6300.68688 1.46317e-17
6302.15908 1.43385e-17
6303.63129 1.44798e-17
6305.10349 1.49569e-17
6306.56568 1.52100e-17
6308.03789 1.50199e-17
6309.51009 1.44404e-17
6310.98229 1.45936e-17
6312.44448 1.49376e-17
6313.91669 1.52614e-17
6315.38890 1.53450e-17
6316.86110 1.56474e-17
6318.32329 1.58748e-17
6319.79550 1.50423e-17
6321.26770 1.52473e-17
6322.73991 1.48570e-17
6324.21211 1.43921e-17
6325.67430 1.43629e-17
6327.14651 1.33909e-17
6328.61871 1.35180e-17
6330.09091 1.42321e-17
6331.55310 1.40296e-17
6333.02531 1.35668e-17
6334.49752 1.39998e-17
6335.96972 1.39778e-17
6337.44193 1.31599e-17
6338.90412 1.34054e-17
6340.37632 1.49339e-17
6341.84853 1.53236e-17
6343.32073 1.46084e-17
6344.78292 1.49629e-17
6346.25513 1.47465e-17
6347.72733 1.38510e-17
6349.19953 1.49215e-17
6350.66172 1.49173e-17
6352.13393 1.36499e-17
6353.60614 1.36549e-17
6355.07834 1.38828e-17
6356.55055 1.32193e-17
6358.01274 1.31201e-17
6359.48494 1.37479e-17
6360.95715 1.33899e-17
6362.42935 1.38899e-17
6363.89154 1.34482e-17
6365.36375 1.29907e-17
6366.83595 1.36903e-17
6368.30816 1.30592e-17
6369.78036 1.27738e-17
6371.24255 1.26775e-17
6372.71476 1.24219e-17
6374.18696 1.27076e-17
6375.65917 1.28060e-17
6377.12136 1.30587e-17
6378.59356 1.31326e-17
6380.06577 1.33426e-17
6381.53797 1.34482e-17
6383.00016 1.30378e-17
6384.47237 1.27831e-17
6385.94457 1.29567e-17
6387.41678 1.25076e-17
6388.88898 1.23108e-17
6390.35117 1.17956e-17
6391.82337 1.20200e-17
6393.29558 1.19302e-17
6394.76779 1.16765e-17
6396.23999 1.19230e-17
6397.70218 1.26196e-17
6399.17439 1.28586e-17
6400.64659 1.25886e-17
6402.11880 1.18545e-17
6403.58099 1.13178e-17
6405.05319 1.19689e-17
6406.52540 1.25341e-17
6407.99760 1.20898e-17
6409.45979 1.19452e-17
6410.93199 1.26807e-17
6412.40420 1.24987e-17
6413.87641 1.28006e-17
6415.34861 1.23747e-17
6416.81080 1.24493e-17
6418.28301 1.31118e-17
6419.75521 1.20146e-17
6421.22742 1.17617e-17
6422.68961 1.21582e-17
6424.16181 1.21172e-17
6425.63402 1.25952e-17
6427.10622 1.24006e-17
6428.57843 1.17161e-17
6430.04061 1.23944e-17
6431.51282 1.21045e-17
6432.98503 1.13196e-17
6434.45723 1.19587e-17
6435.91942 1.23156e-17
6437.39163 1.17539e-17
6438.86383 1.14556e-17
6440.33604 1.14162e-17
6441.79822 1.14868e-17
6443.27043 1.09821e-17
6444.74264 1.07842e-17
6446.21484 1.06089e-17
6447.68704 1.09927e-17
6449.14923 1.10064e-17
6450.62144 1.11874e-17
6452.09365 1.13171e-17
6453.56585 1.16842e-17
6455.02804 1.14632e-17
6456.50025 1.10895e-17
6457.97245 1.07305e-17
6459.44466 1.12313e-17
6460.91686 1.14288e-17
6462.37905 1.09883e-17
6463.85126 1.06293e-17
6465.32346 1.06309e-17
6466.79566 1.06155e-17
6468.25785 1.06052e-17
6469.73006 1.07482e-17
6471.20227 1.07241e-17
6472.67447 1.11796e-17
6474.13666 1.11073e-17
6475.60887 1.06850e-17
6477.08107 1.07226e-17
6478.55328 1.06637e-17
6480.02548 1.17220e-17
6481.48767 1.18183e-17
6482.95988 1.07289e-17
6484.43208 1.04253e-17
6485.90428 1.04664e-17
6487.36647 1.11510e-17
6488.83868 1.05356e-17
6490.31089 1.03181e-17
6491.78309 1.07216e-17
6493.25529 9.41065e-18
6494.71749 9.27772e-18
6496.18969 1.06941e-17
6497.66190 1.07844e-17
6499.13410 1.05225e-17
6500.59629 1.10048e-17
6502.06850 1.05765e-17
6503.54070 1.05050e-17
6505.01291 1.03964e-17
6506.48511 1.00224e-17
6507.94730 1.07274e-17
6509.41951 1.02291e-17
6510.89171 1.02382e-17
6512.36391 1.02436e-17
6513.82611 9.63614e-18
6515.29831 9.91183e-18
6516.77052 1.00393e-17
6518.24272 9.46126e-18
6519.71493 1.04379e-17
6521.17712 9.99487e-18
6522.64932 9.72027e-18
6524.12153 9.86762e-18
6525.59373 1.01816e-17
6527.05592 1.00270e-17
6528.52813 1.02080e-17
6530.00033 1.09759e-17
6531.47253 1.02276e-17
6532.93473 1.07649e-17
6534.40693 1.05729e-17
6535.87914 1.04405e-17
6537.35134 9.73370e-18
6538.82355 1.05080e-17
6540.28574 9.66484e-18
6541.75794 9.73472e-18
6543.23015 9.76607e-18
6544.70235 9.79741e-18
6546.16454 9.82876e-18
6547.63675 9.86009e-18
6549.10895 9.89143e-18
6550.58116 9.92277e-18
6552.05336 9.95411e-18
6553.51555 9.98544e-18
6554.98776 1.00168e-17
6556.45996 1.00481e-17
6557.93217 1.00795e-17
6559.39436 1.01108e-17
6560.86656 1.01421e-17
6562.33877 1.01734e-17
6563.81097 1.02048e-17
6565.27316 1.02361e-17
6566.74537 1.02674e-17
6568.21757 1.02987e-17
6569.68978 1.03301e-17
6571.16198 1.03614e-17
6572.62417 1.03927e-17
6574.09638 1.04240e-17
6575.56858 1.04554e-17
6577.04079 1.04867e-17
6578.50298 1.05180e-17
6579.97518 1.05493e-17
6581.44739 1.05806e-17
6582.91959 1.06119e-17
6584.39180 1.06432e-17
6585.85398 1.06746e-17
6587.32619 1.07059e-17
6588.79840 1.07372e-17
6590.27060 1.07685e-17
6591.73279 1.07998e-17
6593.20500 1.08311e-17
6594.67720 1.08624e-17
6596.14941 1.08937e-17
6597.62161 1.09250e-17
6599.08380 1.09563e-17
6600.55601 1.09876e-17
6602.02821 1.10189e-17
6603.50042 1.10502e-17
6604.96260 9.82174e-18
6606.43481 8.75955e-18
6607.90702 8.21822e-18
6609.37922 9.07371e-18
6610.84141 9.56448e-18
6612.31362 9.58617e-18
6613.78582 9.92812e-18
6615.25803 9.58767e-18
6616.73023 9.58597e-18
6618.19242 8.94706e-18
6619.66463 9.41409e-18
6621.13683 8.95423e-18
6622.60904 8.57472e-18
6624.07122 8.46964e-18
6625.54343 9.23562e-18
6627.01564 9.45799e-18
6628.48784 8.77475e-18
6629.96004 9.02942e-18
6631.42224 8.85410e-18
6632.89444 8.91571e-18
6634.36665 9.50628e-18
6635.83885 8.94162e-18
6637.30104 8.70351e-18
6638.77325 8.60604e-18
6640.24545 7.91443e-18
6641.71766 8.07202e-18
6643.18986 8.35866e-18
6644.65205 8.75496e-18
6646.12426 9.15647e-18
6647.59646 9.31691e-18
6649.06866 9.00937e-18
6650.53085 8.02093e-18
6652.00306 8.21667e-18
6653.47527 7.99504e-18
6654.94747 8.62058e-18
6656.40966 9.02055e-18
6657.88187 8.72075e-18
6659.35407 1.01788e-17
6660.82628 9.36350e-18
6662.29848 8.26606e-18
6663.76067 8.09389e-18
6665.23288 8.26808e-18
6666.70508 8.57745e-18
6668.17728 8.22779e-18
6669.63947 9.76516e-18
6671.11168 9.81635e-18
6672.58389 8.80869e-18
6674.05609 8.64810e-18
6675.52830 8.17525e-18
6676.99049 7.42332e-18
6678.46269 7.87848e-18
6679.93490 8.69174e-18
6681.40710 8.05773e-18
6682.86929 7.51845e-18
6684.34150 8.39676e-18
6685.81370 8.96454e-18
6687.28591 9.10999e-18
6688.75811 9.22501e-18
6690.22030 8.40110e-18
6691.69251 8.16111e-18
6693.16471 8.45739e-18
6694.63692 8.67322e-18
6696.09911 8.65246e-18
6697.57131 8.39533e-18
6699.04352 7.75032e-18
6700.51572 8.97652e-18
6701.97791 9.70590e-18
6703.45012 8.56814e-18
6704.92232 8.32465e-18
6706.39453 8.08362e-18
6707.86673 7.89693e-18
6709.32892 8.08537e-18
6710.80112 9.38651e-18
6712.27333 8.84291e-18
6713.74554 8.04857e-18
6715.20773 8.21114e-18
6716.67993 8.88363e-18
6718.15214 8.60814e-18
6719.62434 8.89693e-18
6721.09655 8.80488e-18
6722.55874 8.06251e-18
6724.03094 7.95951e-18
6725.50315 8.39628e-18
6726.97535 7.79195e-18
6728.43754 8.07013e-18
6729.90974 8.41901e-18
6731.38195 8.26992e-18
6732.85416 7.76098e-18
6734.31635 7.71725e-18
6735.78855 7.84986e-18
6737.26076 7.97861e-18
6738.73296 8.57451e-18
6740.20517 8.38356e-18
6741.66736 7.28521e-18
6743.13956 8.32456e-18
6744.61177 7.78365e-18
6746.08397 8.62127e-18
6747.54616 8.07823e-18
6749.01836 8.05676e-18
6750.49057 8.22189e-18
6751.96278 7.65705e-18
6753.43498 8.20241e-18
6754.89717 6.70732e-18
6756.36938 7.49132e-18
6757.84158 7.14031e-18
6759.31379 7.33869e-18
6760.77598 7.62087e-18
6762.24818 7.31248e-18
6763.72039 7.36447e-18
6765.19259 7.40737e-18
6766.66479 7.90173e-18
6768.12698 8.08735e-18
6769.59919 7.69243e-18
6771.07140 7.53481e-18
6772.54360 7.43683e-18
6774.00579 8.17020e-18
6775.47800 8.03480e-18
6776.95020 7.03744e-18
6778.42241 6.95602e-18
6779.89461 7.54453e-18
6781.35680 7.01527e-18
6782.82901 7.68009e-18
6784.30121 6.88303e-18
6785.77341 7.39949e-18
6787.23560 7.48903e-18
6788.70781 7.49032e-18
6790.18002 7.30242e-18
6791.65222 7.24589e-18
6793.11441 7.09406e-18
6794.58662 7.55955e-18
6796.05882 7.21858e-18
6797.53103 7.02884e-18
6799.00323 6.89274e-18
6800.46542 7.97429e-18
6801.93763 7.02660e-18
6803.40983 6.47591e-18
6804.88203 6.80507e-18
6806.34422 6.42514e-18
6807.81643 6.46192e-18
6809.28864 7.80294e-18
6810.76084 7.15481e-18
6812.23304 6.52485e-18
6813.69524 6.97234e-18
6815.16744 6.99958e-18
6816.63965 8.00503e-18
6818.11185 7.02833e-18
6819.57404 6.44379e-18
6821.04625 6.43253e-18
6822.51845 6.51559e-18
6823.99066 6.53962e-18
6825.45284 6.48522e-18
6826.92505 6.85752e-18
6828.39726 7.03605e-18
6829.86946 6.98332e-18
6831.34166 6.62454e-18
6832.80386 6.66926e-18
6834.27606 6.52876e-18
6835.74827 7.04238e-18
6837.22047 6.58713e-18
6838.68266 6.31015e-18
6840.15487 6.26975e-18
6841.62707 6.46754e-18
6843.09928 6.26432e-18
6844.57148 6.48639e-18
6846.03367 7.24918e-18
6847.50588 6.48325e-18
6848.97808 5.53898e-18
6850.45028 5.94732e-18
6851.91248 5.89228e-18
6853.38468 6.43033e-18
6854.85689 6.82938e-18
6856.32909 6.54167e-18
6857.79128 6.37846e-18
6859.26349 5.45064e-18
6860.73569 6.18521e-18
6862.20790 6.08540e-18
6863.68010 6.32541e-18
6865.14229 7.07405e-18
6866.61450 6.51971e-18
6868.08670 6.26426e-18
6869.55891 7.02384e-18
6871.02110 6.72551e-18
6872.49330 6.54591e-18
6873.96551 6.96473e-18
6875.43771 5.64440e-18
6876.90992 5.55429e-18
6878.37211 7.02256e-18
6879.84431 7.12665e-18
6881.31652 7.04609e-18
6882.78872 7.04542e-18
6884.25091 7.74649e-18
6885.72312 7.16430e-18
6887.19532 6.73834e-18
6888.66753 6.95485e-18
6890.13973 6.97156e-18
6891.60192 6.81300e-18
6893.07413 6.89692e-18
6894.54633 6.77473e-18
6896.01854 6.01934e-18
6897.48073 6.89307e-18
6898.95293 7.10667e-18
6900.42514 6.10389e-18
6901.89734 6.42354e-18
6903.36955 6.61954e-18
6904.83173 6.70779e-18
6906.30394 7.03211e-18
6907.77615 6.72194e-18
6909.24835 7.09199e-18
6910.71054 7.33468e-18
6912.18275 7.01875e-18
6913.65495 7.17042e-18
6915.12716 7.13421e-18
6916.58935 6.65357e-18
6918.06155 6.71749e-18
6919.53376 6.03844e-18
6921.00596 6.66664e-18
6922.47817 7.82071e-18
6923.94035 7.43086e-18
6925.41256 7.49034e-18
6926.88477 7.41412e-18
6928.35697 6.47696e-18
6929.81916 6.72401e-18
6931.29137 7.40420e-18
6932.76357 7.38234e-18
6934.23578 7.60075e-18
6935.70798 7.67859e-18
6937.17017 7.27330e-18
6938.64238 7.36495e-18
6940.11458 8.08740e-18
6941.58679 7.56550e-18
6943.04897 7.54034e-18
6944.52118 7.97322e-18
6945.99339 7.18252e-18
6947.46559 7.09042e-18
6948.92778 6.78923e-18
6950.39999 7.02684e-18
6951.87219 7.20408e-18
6953.34440 6.83610e-18
6954.81660 7.17590e-18
6956.27879 7.34415e-18
6957.75100 7.35038e-18
6959.22320 7.74806e-18
6960.69541 7.52607e-18
6962.15759 7.26363e-18
6963.62980 7.58786e-18
6965.10201 7.06202e-18
6966.57421 7.66371e-18
6968.04641 8.41529e-18
6969.50860 7.73183e-18
6970.98081 7.80201e-18
6972.45302 7.75820e-18
6973.92522 7.60866e-18
6975.38741 7.75299e-18
6976.85962 6.53526e-18
6978.33182 7.74387e-18
6979.80403 8.51132e-18
6981.26622 8.25973e-18
6982.73842 7.35577e-18
6984.21063 7.15669e-18
6985.68283 6.83985e-18
6987.15503 7.19968e-18
6988.61722 8.72589e-18
6990.08943 7.21528e-18
6991.56164 6.30374e-18
6993.03384 6.98629e-18
6994.49603 7.29820e-18
6995.96824 7.75715e-18
6997.44044 6.96500e-18
6998.91265 7.26398e-18
7000.38485 7.63779e-18
7001.84704 7.63169e-18
7003.31925 8.13559e-18
7004.79145 7.88597e-18
7006.26366 6.97557e-18
7007.72584 7.12905e-18
7009.19805 7.71724e-18
7010.67026 7.51147e-18
7012.14246 7.74968e-18
7013.61467 8.19586e-18
7015.07686 7.61897e-18
7016.54906 7.65266e-18
7018.02127 7.42458e-18
7019.49347 7.82027e-18
7020.95566 8.04769e-18
7022.42787 8.53818e-18
7023.90007 8.59855e-18
7025.37228 8.13959e-18
7026.84448 6.47911e-18
7028.30667 7.52522e-18
7029.77887 8.34391e-18
7031.25108 7.92253e-18
7032.72329 7.42603e-18
7034.18548 8.32600e-18
7035.65768 7.79249e-18
7037.12989 7.83739e-18
7038.60209 8.23251e-18
7040.06428 7.77484e-18
7041.53649 7.68629e-18
7043.00869 7.96899e-18
7044.48090 8.31620e-18
7045.95310 8.16909e-18
7047.41529 7.67095e-18
7048.88749 7.92083e-18
7050.35970 8.43159e-18
7051.83191 8.46621e-18
7053.29410 7.96847e-18
7054.76630 8.64239e-18
7056.23851 9.08683e-18
7057.71071 8.68453e-18
7059.18292 8.81300e-18
7060.64511 8.63830e-18
7062.11731 8.31213e-18
7063.58952 8.58921e-18
7065.06172 8.65398e-18
7066.52391 8.50092e-18
7067.99611 8.77471e-18
7069.46832 8.80289e-18
7070.94053 8.31726e-18
7072.40272 7.33720e-18
7073.87492 7.66677e-18
7075.34713 8.63935e-18
7076.81933 8.07944e-18
7078.29154 8.04132e-18
7079.75373 8.08866e-18
7081.22593 7.60501e-18
7082.69814 7.98408e-18
7084.17034 8.22629e-18
7085.63253 7.95928e-18
7087.10473 7.72812e-18
7088.57694 7.72468e-18
7090.04915 7.41379e-18
7091.52135 8.23734e-18
7092.98354 9.10169e-18
7094.45575 9.06042e-18
7095.92795 8.36712e-18
7097.40016 8.55065e-18
7098.86234 9.68527e-18
7100.33455 9.57562e-18
7101.80676 8.98296e-18
7103.27896 8.95588e-18
7104.75116 8.51808e-18
7106.21335 8.80261e-18
7107.68556 9.19537e-18
7109.15777 8.88151e-18
7110.62997 9.57157e-18
7112.09216 9.57147e-18
7113.56437 8.36539e-18
7115.03657 8.30943e-18
7116.50878 8.31932e-18
7117.97097 8.18677e-18
7119.44317 8.68624e-18
7120.91538 9.16650e-18
7122.38758 9.63917e-18
7123.85978 8.86149e-18
7125.32197 7.84892e-18
7126.79418 8.14857e-18
7128.26639 8.60187e-18
7129.73859 8.73422e-18
7131.20078 8.98938e-18
7132.67299 9.17376e-18
7134.14519 9.23494e-18
7135.61740 9.31426e-18
7137.08960 8.77344e-18
7138.55179 9.08725e-18
7140.02400 9.47657e-18
7141.49620 9.13568e-18
7142.96841 9.24983e-18
7144.43059 9.00271e-18
7145.90280 9.47329e-18
7147.37501 1.00844e-17
7148.84721 1.00567e-17
7150.31941 1.04211e-17
7151.78161 1.00164e-17
7153.25381 9.03966e-18
7154.72602 9.31570e-18
7156.19822 9.89728e-18
7157.66041 9.69724e-18
7159.13262 9.46197e-18
7160.60482 9.29759e-18
7162.07703 9.79537e-18
7163.53922 1.04455e-17
7165.01142 1.01956e-17
7166.48363 1.01920e-17
7167.95583 1.06819e-17
7169.42803 1.07854e-17
7170.89023 1.03668e-17
7172.36243 1.00572e-17
7173.83464 1.04353e-17
7175.30684 1.05865e-17
7176.76903 1.04709e-17
7178.24124 1.07986e-17
7179.71344 1.14311e-17
7181.18565 1.11815e-17
7182.65785 1.01551e-17
7184.12004 1.08201e-17
7185.59225 1.23349e-17
7187.06445 1.17171e-17
7188.53666 1.07574e-17
7189.99885 1.07421e-17
7191.47105 1.16303e-17
7192.94326 1.18243e-17
7194.41546 1.16004e-17
7195.88767 1.19057e-17
7197.34986 1.24755e-17
7198.82206 1.25938e-17
7200.29427 1.22213e-17
7201.76647 1.23618e-17
7203.22866 1.22299e-17
7204.70087 1.27657e-17
7206.17307 1.25655e-17
7207.64528 1.20586e-17
7209.10747 1.24904e-17
7210.57967 1.16833e-17
7212.05188 1.12349e-17
7213.52408 1.20293e-17
7214.99629 1.27898e-17
7216.45848 1.28744e-17
7217.93068 1.29014e-17
7219.40289 1.33394e-17
7220.87509 1.38359e-17
7222.33728 1.39570e-17
7223.80948 1.34023e-17
7225.28169 1.30750e-17
7226.75390 1.31920e-17
7228.22610 1.39382e-17
7229.68829 1.42344e-17
7231.16050 1.45231e-17
7232.63270 1.44125e-17
7234.10491 1.39837e-17
7235.56710 1.39614e-17
7237.03930 1.38047e-17
7238.51151 1.37928e-17
7239.98371 1.37316e-17
7241.45592 1.37382e-17
7242.91810 1.35945e-17
7244.39031 1.40543e-17
7245.86252 1.40793e-17
7247.33472 1.33942e-17
7248.79691 1.37745e-17
7250.26912 1.43225e-17
7251.74132 1.43559e-17
7253.21353 1.34137e-17
7254.67572 1.29151e-17
7256.14792 1.41659e-17
7257.62013 1.46157e-17
7259.09233 1.42498e-17
7260.56454 1.47466e-17
7262.02672 1.45671e-17
7263.49893 1.40939e-17
7264.97114 1.46352e-17
7266.44334 1.46667e-17
7267.90553 1.42009e-17
7269.37774 1.40845e-17
7270.84994 1.39041e-17
7272.32215 1.34721e-17
7273.79435 1.34322e-17
7275.25654 1.33924e-17
7276.72875 1.33525e-17
7278.20095 1.33126e-17
7279.67316 1.32727e-17
7281.13534 1.32328e-17
7282.60755 1.31929e-17
7284.07976 1.31927e-17
7285.55196 1.39866e-17
7287.02416 1.38499e-17
7288.48636 1.32319e-17
7289.95856 1.28048e-17
7291.43077 1.30860e-17
7292.90297 1.25686e-17
7294.36516 1.29416e-17
7295.83737 1.34674e-17
7297.30957 1.38802e-17
7298.78178 1.35584e-17
7300.24397 1.29129e-17
7301.71617 1.30519e-17
7303.18838 1.25501e-17
7304.66058 1.32394e-17
7306.13278 1.40078e-17
7307.59497 1.40384e-17
7309.06718 1.27141e-17
7310.53939 1.24582e-17
7312.01159 1.33422e-17
7313.47378 1.33939e-17
7314.94599 1.32428e-17
7316.41819 1.24927e-17
7317.89040 1.18594e-17
7319.36260 1.10449e-17
7320.82479 1.21119e-17
7322.29700 1.27578e-17
7323.76920 1.16873e-17
7325.24141 1.18933e-17
7326.70359 1.21170e-17
7328.17580 1.20319e-17
7329.64801 1.17438e-17
7331.12021 1.16521e-17
7332.58240 1.21897e-17
7334.05461 1.26146e-17
7335.52681 1.20174e-17
7336.99902 1.20094e-17
7338.47122 1.25861e-17
7339.93341 1.19114e-17
7341.40562 1.12073e-17
7342.87782 1.26439e-17
7344.35003 1.36778e-17
7345.81222 1.25262e-17
7347.28442 1.17068e-17
7348.75662 1.17732e-17
7350.22883 1.26814e-17
7351.70104 1.32711e-17
7353.16323 1.18200e-17
7354.63543 1.23887e-17
7356.10764 1.28953e-17
7357.57984 1.23235e-17
7359.04203 1.18897e-17
7360.51424 1.10137e-17
7361.98644 1.11058e-17
7363.45865 1.16348e-17
7364.93085 1.15779e-17
7366.39304 1.09004e-17
7367.86524 1.09392e-17
7369.33745 1.21476e-17
7370.80966 1.33214e-17
7372.27185 1.23160e-17
7373.74405 1.16150e-17
7375.21626 1.15604e-17
7376.68846 1.18520e-17
7378.16067 1.14318e-17
7379.62286 1.16079e-17
7381.09506 1.27586e-17
7382.56727 1.25775e-17
7384.03947 1.18235e-17
7385.50166 1.18165e-17
7386.97386 1.16852e-17
7388.44607 1.12390e-17
7389.91828 1.18992e-17
7391.38047 1.26264e-17
7392.85267 1.22415e-17
7394.32488 1.17346e-17
7395.79708 1.15177e-17
7397.26929 1.10833e-17
7398.73148 1.13134e-17
7400.20368 1.20247e-17
7401.67589 1.13445e-17
7403.14809 1.07379e-17
7404.61028 1.04108e-17
7406.08248 1.04984e-17
7407.55469 1.13677e-17
7409.02690 1.11560e-17
7410.49910 1.07307e-17
7411.96129 1.02810e-17
7413.43350 1.03646e-17
7414.90570 1.07232e-17
7416.37791 1.06492e-17
7417.84009 1.07920e-17
7419.31230 1.09112e-17
7420.78451 1.07951e-17
7422.25671 9.95509e-18
7423.71890 9.53104e-18
7425.19110 1.02504e-17
7426.66331 1.05088e-17
7428.13552 1.00685e-17
7429.60772 1.01938e-17
7431.06991 1.02753e-17
7432.54212 9.68355e-18
7434.01432 9.83015e-18
7435.48653 1.00980e-17
7436.94872 1.02163e-17
7438.42092 1.06270e-17
7439.89313 1.05456e-17
7441.36533 1.03825e-17
7442.83753 1.01694e-17
7444.29972 9.84838e-18
7445.77193 9.94035e-18
7447.24414 1.03433e-17
7448.71634 1.02688e-17
7450.17853 9.44223e-18
7451.65074 9.43045e-18
7453.12294 1.00305e-17
7454.59515 9.54194e-18
7456.06735 8.94435e-18
7457.52954 8.90321e-18
7459.00175 9.15296e-18
7460.47395 9.32629e-18
7461.94616 9.15908e-18
7463.40834 8.74856e-18
7464.88055 8.75861e-18
7466.35276 9.24161e-18
7467.82496 8.96910e-18
7469.28715 9.00695e-18
7470.75936 8.95722e-18
7472.23156 8.12484e-18
7473.70377 7.69250e-18
7475.17597 7.86591e-18
7476.63816 7.93146e-18
7478.11037 8.43512e-18
7479.58257 8.95434e-18
7481.05478 8.60749e-18
7482.51697 8.88255e-18
7483.98917 8.22681e-18
7485.46138 7.53120e-18
7486.93358 8.64750e-18
7488.40578 8.55523e-18
7489.86798 7.77563e-18
7491.34018 7.40577e-18
7492.81239 7.71368e-18
7494.28459 9.01668e-18
7495.74678 9.02423e-18
7497.21899 8.10329e-18
7498.69119 7.50174e-18
7500.16340 7.84993e-18
7501.63560 7.86290e-18
7503.09779 7.46456e-18
7504.57000 7.20579e-18
7506.04220 8.70579e-18
7507.51441 9.46928e-18
7508.97660 8.67324e-18
7510.44880 8.41570e-18
7511.92101 7.64331e-18
7513.39321 7.72210e-18
7514.85540 8.09817e-18
7516.32761 8.03427e-18
7517.79981 7.62135e-18
7519.27202 7.55974e-18
7520.74422 7.41339e-18
7522.20641 7.61010e-18
7523.67862 7.90958e-18
7525.15082 7.31598e-18
7526.62303 6.89359e-18
7528.08522 7.93644e-18
7529.55742 8.36619e-18
7531.02963 7.54043e-18
7532.50183 7.70451e-18
7533.97404 7.57146e-18
7535.43623 7.12122e-18
7536.90843 6.72516e-18
7538.38064 7.31039e-18
7539.85284 6.55002e-18
7541.31503 6.86893e-18
7542.78723 6.61701e-18
7544.25944 5.91793e-18
7545.73165 5.56156e-18
7547.20385 6.43921e-18
7548.66604 6.94396e-18
7550.13825 6.73835e-18
7551.61045 5.71565e-18
7553.08266 5.91379e-18
7554.54485 7.55864e-18
7556.01705 7.45012e-18
7557.48926 6.68413e-18
7558.96146 5.83668e-18
7560.42365 6.67283e-18
7561.89585 6.86035e-18
7563.36806 6.53620e-18
7564.84027 6.90981e-18
7566.31247 6.55288e-18
7567.77466 6.99897e-18
7569.24687 7.10976e-18
7570.71907 6.51302e-18
7572.19128 7.36334e-18
7573.65347 7.22936e-18
7575.12567 7.50851e-18
7576.59788 7.35623e-18
7578.07008 6.57826e-18
7579.54229 7.57908e-18
7581.00447 6.42495e-18
7582.47668 6.59793e-18
7583.94889 6.05749e-18
7585.42109 6.11327e-18
7586.88328 6.73195e-18
7588.35549 6.66601e-18
7589.82769 7.85574e-18
7591.29990 7.64594e-18
7592.77210 6.49722e-18
7594.23429 5.92262e-18
7595.70650 6.06845e-18
7597.17870 6.05149e-18
7598.65091 6.17151e-18
7600.11309 6.29152e-18
7601.58530 6.41152e-18
7603.05751 6.53153e-18
7604.52971 6.65152e-18
7605.99190 6.77151e-18
7607.46411 6.89150e-18
7608.93631 7.01148e-18
7610.40852 7.13146e-18
7611.88072 7.25143e-18
7613.34291 7.37139e-18
7614.81512 7.37123e-18
7616.28732 6.64855e-18
7617.75953 6.99769e-18
7619.22172 8.03245e-18
7620.69392 7.99357e-18
7622.16613 8.01756e-18
7623.63833 7.75262e-18
7625.11053 7.03154e-18
7626.57272 7.58614e-18
7628.04493 6.85190e-18
7629.51714 7.71932e-18
7630.98934 8.09850e-18
7632.45153 7.89472e-18
7633.92374 7.35267e-18
7635.39594 6.86461e-18
7636.86815 7.06728e-18
7638.34035 7.50444e-18
7639.80254 6.49171e-18
7641.27475 7.64344e-18
7642.74695 7.48989e-18
7644.21916 7.23943e-18
7645.68134 7.21340e-18
7647.15355 8.06458e-18
7648.62576 7.24888e-18
7650.09796 7.75725e-18
7651.56015 8.34769e-18
7653.03236 8.61197e-18
7654.50456 7.19902e-18
7655.97677 9.12789e-18
7657.44897 9.40071e-18
7658.91116 9.38088e-18
7660.38337 8.35484e-18
7661.85557 8.86916e-18
7663.32778 9.44740e-18
7664.78997 9.19950e-18
7666.26217 9.51264e-18
7667.73438 9.03475e-18
7669.20658 9.85365e-18
7670.67879 9.15815e-18
7672.14098 8.28420e-18
7673.61318 1.04467e-17
7675.08539 9.43815e-18
7676.55759 9.04261e-18
7678.01978 1.06285e-17
7679.49199 1.10161e-17
7680.96419 1.02744e-17
7682.43640 1.04971e-17
7683.90860 9.99564e-18
7685.37079 9.16123e-18
7686.84299 1.04916e-17
7688.31520 1.17493e-17
7689.78741 1.03192e-17
7691.24960 1.04982e-17
7692.72180 1.15870e-17
7694.19401 9.95083e-18
7695.66621 9.31821e-18
7697.12840 1.05475e-17
7698.60061 1.09374e-17
7700.07281 1.15229e-17
7701.54502 1.19180e-17
7703.01722 1.08419e-17
7704.47941 1.08132e-17
7705.95161 1.06899e-17
7707.42382 1.19422e-17
7708.89603 1.02348e-17
7710.35822 9.66755e-18
7711.83042 1.16204e-17
7713.30263 9.91119e-18
7714.77483 9.19255e-18
7716.24704 1.05960e-17
7717.70923 1.21092e-17
7719.18143 1.14479e-17
7720.65364 1.18308e-17
7722.12584 1.14625e-17
7723.58803 1.20490e-17
7723.64792 1.20490e-17
7724.50938 1.20338e-17
7725.37084 1.20278e-17
7726.23230 1.20218e-17
7727.09377 1.20296e-17
7727.95523 1.20376e-17
7728.81669 1.20546e-17
7729.67815 1.20717e-17
7730.54963 1.20969e-17
7731.41109 1.21223e-17
7732.27255 1.21610e-17
7733.13402 1.21997e-17
7733.99548 1.22457e-17
7734.85694 1.22917e-17
7735.71840 1.23201e-17
7736.57986 1.23485e-17
7737.44133 1.23452e-17
7738.30279 1.23419e-17
7739.17427 1.23170e-17
7740.03573 1.22921e-17
7740.89719 1.22590e-17
7741.75865 1.22258e-17
7742.62012 1.22040e-17
7743.48158 1.21823e-17
7744.34304 1.21881e-17
7745.20450 1.21938e-17
7746.06596 1.22162e-17
7746.92743 1.22386e-17
7747.78889 1.22626e-17
7748.65035 1.22866e-17
7749.52183 1.23070e-17
7750.38329 1.23272e-17
7751.24475 1.23399e-17
7752.10621 1.23525e-17
7752.96768 1.23576e-17
7753.82914 1.23627e-17
7754.69060 1.23629e-17
7755.55206 1.23631e-17
7756.41352 1.23552e-17
7757.27499 1.23471e-17
7758.13645 1.23243e-17
7759.00793 1.23015e-17
7759.86939 1.22704e-17
7760.73085 1.22392e-17
7761.59231 1.22155e-17
7762.45378 1.21917e-17
7763.31524 1.21792e-17
7764.17670 1.21665e-17
7765.03816 1.21569e-17
7765.89962 1.21472e-17
7766.76109 1.21342e-17
7767.62255 1.21211e-17
7768.49403 1.21000e-17
7769.35549 1.20787e-17
7770.21695 1.20490e-17
7771.07841 1.20192e-17
7771.93988 1.19911e-17
7772.80134 1.19630e-17
7773.66280 1.19439e-17
7774.52426 1.19248e-17
7775.38572 1.19108e-17
7776.24719 1.18969e-17
7777.10865 1.18850e-17
7777.98013 1.18732e-17
7778.84159 1.18651e-17
7779.70305 1.18571e-17
7780.56451 1.18546e-17
7781.42597 1.18520e-17
7782.28744 1.18545e-17
7783.14890 1.18569e-17
7784.01036 1.18633e-17
7784.87182 1.18698e-17
7785.73328 1.18793e-17
7786.59475 1.18889e-17
7787.46623 1.19004e-17
7788.32769 1.19120e-17
7789.18915 1.19223e-17
7790.05061 1.19325e-17
7790.91207 1.19377e-17
7791.77354 1.19428e-17
7792.63500 1.19410e-17
7793.49646 1.19391e-17
7794.35792 1.19295e-17
7795.21938 1.19199e-17
7796.08085 1.19071e-17
7796.94231 1.18943e-17
7797.81379 1.18865e-17
7798.67525 1.18788e-17
7799.53671 1.18821e-17
7800.39817 1.18855e-17
7801.25963 1.19040e-17
7802.12110 1.19226e-17
7802.98256 1.19532e-17
7803.84402 1.19840e-17
7804.70548 1.20112e-17
7805.56694 1.20385e-17
7806.42841 1.20512e-17
7807.29989 1.20638e-17
7808.16135 1.20632e-17
7809.02281 1.20625e-17
7809.88427 1.20507e-17
7810.74573 1.20388e-17
7811.60720 1.20182e-17
7812.46866 1.19975e-17
7813.33012 1.19718e-17
7814.19158 1.19461e-17
7815.05304 1.19200e-17
7815.91450 1.18939e-17
7816.78598 1.18718e-17
7817.64745 1.18496e-17
7818.50891 1.18368e-17
7819.37037 1.18239e-17
7820.23183 1.18245e-17
7821.09329 1.18252e-17
7821.95476 1.18296e-17
7822.81622 1.18341e-17
7823.67768 1.18281e-17
7824.53914 1.18220e-17
7825.40060 1.18037e-17
7826.27208 1.17853e-17
7827.13355 1.17590e-17
7827.99501 1.17328e-17
7828.85647 1.17023e-17
7829.71793 1.16718e-17
7830.57939 1.16408e-17
7831.44085 1.16098e-17
7832.30232 1.15807e-17
7833.16378 1.15516e-17
7834.02524 1.15244e-17
7834.88670 1.14971e-17
7835.75818 1.14744e-17
7836.61964 1.14516e-17
7837.48111 1.14403e-17
7838.34257 1.14291e-17
7839.20403 1.14312e-17
7840.06549 1.14333e-17
7840.92695 1.14409e-17
7841.78842 1.14485e-17
7842.64988 1.14545e-17
7843.51134 1.14605e-17
7844.37280 1.14619e-17
7845.23426 1.14633e-17
7846.10574 1.14581e-17
7846.96720 1.14530e-17
7847.82867 1.14439e-17
7848.69013 1.14348e-17
7849.55159 1.14251e-17
7850.41305 1.14154e-17
7851.27452 1.14070e-17
7852.13598 1.13986e-17
7852.99744 1.13931e-17
7853.85890 1.13875e-17
7854.72036 1.13858e-17
7855.59184 1.13841e-17
7856.45330 1.13868e-17
7857.31477 1.13897e-17
7858.17623 1.13926e-17
7859.03769 1.13955e-17
7859.89915 1.13917e-17
7860.76061 1.13880e-17
7861.62208 1.13779e-17
7862.48354 1.13679e-17
7863.34500 1.13572e-17
7864.20646 1.13465e-17
7865.07794 1.13323e-17
7865.93940 1.13181e-17
7866.80087 1.12909e-17
7867.66233 1.12637e-17
7868.52379 1.12226e-17
7869.38525 1.11816e-17
7870.24671 1.11344e-17
7871.10818 1.10872e-17
7871.96964 1.10448e-17
7872.83110 1.10024e-17
7873.69256 1.09825e-17
7874.56404 1.09628e-17
7875.42550 1.09726e-17
7876.28696 1.09824e-17
7877.14843 1.10017e-17
7878.00989 1.10210e-17
7878.87135 1.10313e-17
7879.73281 1.10417e-17
7880.59427 1.10374e-17
7881.45574 1.10332e-17
7882.31720 1.10113e-17
7883.17866 1.09894e-17
7884.05014 1.09576e-17
7884.91160 1.09259e-17
7885.77306 1.08938e-17
7886.63453 1.08619e-17
7887.49599 1.08289e-17
7888.35745 1.07958e-17
7889.21891 1.07595e-17
7890.08037 1.07232e-17
7890.94184 1.06856e-17
7891.80330 1.06481e-17
7892.66476 1.06115e-17
7893.52622 1.05750e-17
7894.39770 1.05490e-17
7895.25916 1.05230e-17
7896.12062 1.05207e-17
7896.98209 1.05184e-17
7897.84355 1.05323e-17
7898.70501 1.05461e-17
7899.56647 1.05542e-17
7900.42793 1.05623e-17
7901.28940 1.05551e-17
7902.15086 1.05480e-17
7903.01232 1.05278e-17
7903.88380 1.05076e-17
7904.74526 1.04807e-17
7905.60672 1.04538e-17
7906.46819 1.04341e-17
7907.32965 1.04146e-17
7908.19111 1.04078e-17
7909.05257 1.04010e-17
7909.91403 1.03912e-17
7910.77550 1.03815e-17
7911.63696 1.03595e-17
7912.49842 1.03374e-17
7913.36990 1.03144e-17
7914.23136 1.02912e-17
7915.09282 1.02765e-17
7915.95428 1.02617e-17
7916.81575 1.02560e-17
7917.67721 1.02502e-17
7918.53867 1.02522e-17
7919.40013 1.02542e-17
7920.26159 1.02500e-17
7921.12306 1.02459e-17
7921.98452 1.02217e-17
7922.85600 1.01974e-17
7923.71746 1.01617e-17
7924.57892 1.01260e-17
7925.44038 1.00937e-17
7926.30185 1.00614e-17
7927.16331 1.00414e-17
7928.02477 1.00213e-17
7928.88623 1.00193e-17
7929.74769 1.00175e-17
7930.60916 1.00299e-17
7931.47062 1.00424e-17
7932.34210 1.00590e-17
7933.20356 1.00758e-17
7934.06502 1.00878e-17
7934.92648 1.00998e-17
7935.78794 1.00998e-17
7936.64941 1.00999e-17
7937.51087 1.00842e-17
7938.37233 1.00684e-17
7939.23379 1.00378e-17
7940.09525 1.00071e-17
7940.95672 9.96593e-18
7941.81818 9.92481e-18
7942.68966 9.88350e-18
7943.55112 9.84219e-18
7944.41258 9.80873e-18
7945.27404 9.77527e-18
7946.13551 9.75107e-18
7946.99697 9.72687e-18
7947.85843 9.71184e-18
7948.71989 9.69671e-18
7949.58135 9.68802e-18
7950.44282 9.67932e-18
7951.30428 9.67308e-18
7952.17576 9.66684e-18
7953.03722 9.65474e-18
7953.89868 9.64264e-18
7954.76014 9.61750e-18
7955.62160 9.59235e-18
7956.48307 9.56465e-18
7957.34453 9.53686e-18
7958.20599 9.52022e-18
7959.06745 9.50368e-18
7959.92891 9.49914e-18
7960.79038 9.49461e-18
7961.66186 9.49924e-18
7962.52332 9.50378e-18
7963.38478 9.51030e-18
7964.24624 9.51682e-18
7965.10770 9.51484e-18
7965.96917 9.51276e-18
7966.83063 9.50822e-18
7967.69209 9.50359e-18
7968.55355 9.51370e-18
7969.41501 9.52391e-18
7970.27648 9.55274e-18
7971.14795 9.58167e-18
7972.00942 9.62052e-18
7972.87088 9.65937e-18
7973.73234 9.69652e-18
7974.59380 9.73377e-18
7975.45526 9.75230e-18
7976.31673 9.77082e-18
7977.17819 9.76345e-18
7978.03965 9.75608e-18
7978.90111 9.73670e-18
7979.76257 9.71732e-18
7980.63405 9.69804e-18
7981.49552 9.67885e-18
7982.35698 9.66268e-18
7983.21844 9.64652e-18
7984.07990 9.63536e-18
7984.94136 9.62421e-18
7985.80283 9.61400e-18
7986.66429 9.60388e-18
7987.52575 9.59037e-18
7988.38721 9.57675e-18
7989.24867 9.56163e-18
7990.11014 9.54650e-18
7990.98161 9.53204e-18
7991.84308 9.51758e-18
7992.70454 9.50822e-18
7993.56600 9.49886e-18
7994.42746 9.49971e-18
7995.28892 9.50066e-18
7996.15039 9.50160e-18
7997.01185 9.50255e-18
7997.87331 9.48742e-18
7998.73477 9.47230e-18
7999.59623 9.44306e-18
8000.46771 9.41382e-18
8001.32917 9.38270e-18
8002.19064 9.35157e-18
8003.05210 9.32779e-18
8003.91356 9.30402e-18
8004.77502 9.29545e-18
8005.63649 9.28692e-18
8006.49795 9.29155e-18
8007.35941 9.29620e-18
8008.22087 9.29792e-18
8009.08233 9.29963e-18
8009.95381 9.29318e-18
8010.81527 9.28673e-18
8011.67674 9.28752e-18
8012.53820 9.28832e-18
8013.39966 9.30384e-18
8014.26112 9.31939e-18
8015.12258 9.33879e-18
8015.98405 9.35820e-18
8016.84551 9.37115e-18
8017.70697 9.38408e-18
8018.56843 9.38007e-18
8019.43991 9.37604e-18
8020.30137 9.34862e-18
8021.16284 9.32117e-18
8022.02430 9.28774e-18
8022.88576 9.25428e-18
8023.74722 9.23402e-18
8024.60868 9.21379e-18
8025.47015 9.20612e-18
8026.33161 9.19849e-18
8027.19307 9.19832e-18
8028.05453 9.19816e-18
8028.92601 9.19916e-18
8029.78747 9.20016e-18
8030.64893 9.19501e-18
8031.51040 9.18984e-18
8032.37186 9.17926e-18
8033.23332 9.16868e-18
8034.09478 9.15779e-18
8034.95624 9.14691e-18
8035.81771 9.13899e-18
8036.67917 9.13109e-18
8037.54063 9.12812e-18
8038.41211 9.12516e-18
8039.27357 9.12786e-18
8040.13503 9.13055e-18
8040.99650 9.13804e-18
8041.85796 9.14553e-18
8042.71942 9.15531e-18
8043.58088 9.16509e-18
8044.44234 9.17279e-18
8045.30380 9.18047e-18
8046.16527 9.18275e-18
8047.02673 9.18501e-18
8047.88819 9.18033e-18
8048.75967 9.17563e-18
8049.62113 9.16481e-18
8050.48259 9.15398e-18
8051.34406 9.14502e-18
8052.20552 9.13605e-18
8053.06698 9.13493e-18
8053.92844 9.13382e-18
8054.78990 9.13599e-18
8055.65137 9.13816e-18
8056.51283 9.13792e-18
8057.37429 9.13766e-18
8058.24577 9.12818e-18
8059.10723 9.11867e-18
8059.96869 9.09415e-18
8060.83015 9.06960e-18
8061.69162 9.03476e-18
8062.55308 8.99990e-18
8063.41454 8.96278e-18
8064.27600 8.92566e-18
8065.13746 8.89538e-18
8065.99893 8.86511e-18
8066.86039 8.85060e-18
8067.73187 8.83613e-18
8068.59333 8.83791e-18
8069.45479 8.83971e-18
8070.31625 8.85298e-18
8071.17772 8.86628e-18
8072.03918 8.88154e-18
8072.90064 8.89680e-18
8073.76210 8.90045e-18
8074.62356 8.90406e-18
8075.48503 8.89108e-18
8076.34649 8.87806e-18
8077.21797 8.85494e-18
8078.07943 8.83180e-18
8078.94089 8.80259e-18
8079.80235 8.77336e-18
8080.66381 8.73730e-18
8081.52528 8.70122e-18
8082.38674 8.65887e-18
8083.24820 8.61649e-18
8084.10966 8.56963e-18
8084.97113 8.52276e-18
8085.83259 8.47351e-18
8086.70407 8.42424e-18
8087.56553 8.37571e-18
8088.42699 8.32719e-18
8089.28845 8.28231e-18
8090.14991 8.23745e-18
8091.01138 8.19888e-18
8091.87284 8.16033e-18
8092.73430 8.12948e-18
8093.59576 8.09864e-18
8094.45722 8.07491e-18
8095.31869 8.05120e-18
8096.18015 8.03268e-18
8097.05163 8.01419e-18
8097.91309 7.99058e-18
8098.77455 7.96696e-18
8099.63601 7.92604e-18
8100.49748 7.88507e-18
8101.35894 7.82296e-18
8102.22040 7.76080e-18
8103.08186 7.67830e-18
8103.94332 7.59575e-18
8104.80479 7.50285e-18
8105.67626 7.40992e-18
8106.53773 7.32282e-18
8107.39919 7.23574e-18
8108.26065 7.16455e-18
8109.12211 7.09340e-18
8109.98357 7.04155e-18
8110.84504 6.98974e-18
8111.70650 6.95268e-18
8112.56796 6.91565e-18
8113.42942 6.87749e-18
8114.29088 6.83934e-18
8115.15235 6.78725e-18
8116.02383 6.73515e-18
8116.88529 6.66367e-18
8117.74675 6.59216e-18
8118.60821 6.50028e-18
8119.46967 6.40835e-18
8120.33114 6.30930e-18
8121.19260 6.21025e-18
8122.05406 6.11464e-18
8122.91552 6.01906e-18
8123.77698 5.91507e-18
8124.63845 5.81107e-18
8125.49991 5.68774e-18
8126.37139 5.56436e-18
8127.23285 5.42755e-18
8128.09431 5.29072e-18
8128.95577 5.14908e-18
8129.81723 5.00745e-18
8130.67870 4.87758e-18
8131.54016 4.74773e-18
8132.40162 4.64744e-18
8133.26308 4.54724e-18
8134.12454 4.46696e-18
8134.99602 4.38675e-18
8135.85749 4.30503e-18
8136.71895 4.22332e-18
8137.58041 4.13204e-18
8138.44187 4.04073e-18
8139.30333 3.93956e-18
8140.16480 3.83837e-18
8141.02626 3.72990e-18
8141.88772 3.62142e-18
8142.74918 3.51170e-18
8143.61064 3.40197e-18
8144.47210 3.29697e-18
8145.34358 3.19198e-18
8146.20505 3.09649e-18
8147.06651 3.00102e-18
8147.92797 2.91839e-18
8148.78943 2.83581e-18
8149.65089 2.76711e-18
8150.51236 2.69847e-18
8151.37382 2.64200e-18
8152.23528 2.58558e-18
8153.09674 2.53391e-18
8153.95820 2.48226e-18
8154.82968 2.42936e-18
8155.69115 2.37647e-18
8156.55261 2.32292e-18
8157.41407 2.26937e-18
8158.27553 2.21699e-18
8159.13699 2.16462e-18
8159.99845 2.11787e-18
8160.85992 2.07114e-18
8161.72138 2.03440e-18
8162.58284 1.99769e-18
8163.44430 1.97229e-18
8164.31578 1.94691e-18
8165.17724 1.93262e-18
8166.03871 1.91835e-18
8166.90017 1.90836e-18
8167.76163 1.89837e-18
8168.62309 1.88442e-18
8169.48455 1.87047e-18
8170.34602 1.84567e-18
8171.20748 1.82086e-18
8172.06894 1.77869e-18
8172.93040 1.73647e-18
8173.80188 1.68806e-18
8174.66334 1.63964e-18
8175.52481 1.60906e-18
8176.38627 1.57853e-18
8177.24773 1.57113e-18
8178.10919 1.56378e-18
8178.97065 1.56562e-18
8179.83212 1.56747e-18
8180.69358 1.56791e-18
8181.55504 1.56836e-18
8182.41650 1.56073e-18
8183.28798 1.55309e-18
8184.14944 1.53496e-18
8185.01090 1.51681e-18
8185.87237 1.49718e-18
8186.73383 1.47753e-18
8187.59529 1.46283e-18
8188.45675 1.44814e-18
8189.31821 1.43340e-18
8190.17968 1.41865e-18
8191.04114 1.40040e-18
8191.90260 1.38213e-18
8192.77408 1.36459e-18
8193.63554 1.34705e-18
8194.49700 1.33454e-18
8195.35846 1.32203e-18
8196.21993 1.31837e-18
8197.08139 1.31473e-18
8197.94285 1.32284e-18
8198.80431 1.33096e-18
8199.66577 1.34387e-18
8200.52724 1.35679e-18
8201.38870 1.36481e-18
8202.25016 1.37281e-18
8203.12164 1.37404e-18
8203.98310 1.37526e-18
8204.84456 1.37128e-18
8205.70603 1.36729e-18
8206.56749 1.35891e-18
8207.42895 1.35050e-18
8208.29041 1.33839e-18
8209.15187 1.32626e-18
8210.01334 1.31237e-18
8210.87480 1.29848e-18
8211.73626 1.28539e-18
8212.60774 1.27231e-18
8213.46920 1.26110e-18
8214.33066 1.24990e-18
8215.19212 1.24038e-18
8216.05359 1.23087e-18
8216.91505 1.22002e-18
8217.77651 1.20918e-18
8218.63797 1.18864e-18
8219.49943 1.16807e-18
8220.36090 1.13462e-18
8221.22236 1.10113e-18
8222.08382 1.06334e-18
8222.95530 1.02554e-18
8223.81676 9.92973e-19
8224.67822 9.60417e-19
8225.53969 9.45066e-19
8226.40115 9.29760e-19
8227.26261 9.40281e-19
8228.12407 9.50860e-19
8228.98553 9.79190e-19
8229.84700 1.00756e-18
8230.70846 1.04250e-18
8231.57994 1.07745e-18
8232.44140 1.10812e-18
8233.30286 1.13879e-18
8234.16432 1.15507e-18
8235.02578 1.17133e-18
8235.88725 1.17660e-18
8236.74871 1.18183e-18
8237.61017 1.18449e-18
8238.47163 1.18716e-18
8239.33309 1.19310e-18
8240.19456 1.19906e-18
8241.06604 1.21318e-18
8241.92750 1.22732e-18
8242.78896 1.24676e-18
8243.65042 1.26620e-18
8244.51188 1.28212e-18
8245.37335 1.29804e-18
8246.23481 1.30611e-18
8247.09627 1.31417e-18
8247.95773 1.31488e-18
8248.81919 1.31557e-18
8249.68066 1.31068e-18
8250.54212 1.30578e-18
8251.41360 1.29922e-18
8252.27506 1.29265e-18
8253.13652 1.28808e-18
8253.99798 1.28351e-18
8254.85945 1.28314e-18
8255.72091 1.28279e-18
8256.58237 1.28789e-18
8257.44383 1.29300e-18
8258.30529 1.30269e-18
8259.16676 1.31239e-18
8260.02822 1.32481e-18
8260.89970 1.33724e-18
8261.76116 1.34895e-18
8262.62262 1.36068e-18
8263.48408 1.36830e-18
8264.34554 1.37592e-18
8265.20701 1.37642e-18
8266.06847 1.37691e-18
8266.92993 1.36828e-18
8267.79139 1.35963e-18
8268.65285 1.34646e-18
8269.52433 1.33327e-18
8270.38580 1.32194e-18
8271.24726 1.31061e-18
8272.10872 1.30539e-18
8272.97018 1.30020e-18
8273.83164 1.30441e-18
8274.69311 1.30865e-18
8275.55457 1.31899e-18
8276.41603 1.32933e-18
8277.27749 1.33833e-18
8278.13895 1.34732e-18
8279.01043 1.35193e-18
8279.87189 1.35654e-18
8280.73336 1.35748e-18
8281.59482 1.35842e-18
8282.45628 1.35795e-18
8283.31774 1.35748e-18
8284.17920 1.36032e-18
8285.04067 1.36316e-18
8285.90213 1.37109e-18
8286.76359 1.37903e-18
8287.62505 1.38780e-18
8288.48651 1.39656e-18
8289.34798 1.40389e-18
8290.21946 1.41120e-18
8291.08092 1.42049e-18
8291.94238 1.42979e-18
8292.80384 1.44299e-18
8293.66530 1.45620e-18
8294.52677 1.46988e-18
8295.38823 1.48355e-18
8296.24969 1.49449e-18
8297.11115 1.50544e-18
8297.97261 1.51160e-18
8298.83408 1.51776e-18
8299.70555 1.51792e-18
8300.56702 1.51806e-18
8301.42848 1.51947e-18
8302.28994 1.52088e-18
8303.15140 1.53212e-18
8304.01286 1.54337e-18
8304.87433 1.56115e-18
8305.73579 1.57892e-18
8306.59725 1.59607e-18
8307.45871 1.61321e-18
8308.32017 1.62541e-18
8309.18164 1.63758e-18
8310.05312 1.64165e-18
8310.91458 1.64569e-18
8311.77604 1.64501e-18
8312.63750 1.64431e-18
8313.49896 1.64708e-18
8314.36043 1.64985e-18
8315.22189 1.66068e-18
8316.08335 1.67153e-18
8316.94481 1.69133e-18
8317.80627 1.71117e-18
8318.67775 1.73762e-18
8319.53921 1.76408e-18
8320.40068 1.78981e-18
8321.26214 1.81555e-18
8322.12360 1.83529e-18
8322.98506 1.85502e-18
8323.84652 1.86871e-18
8324.70799 1.88239e-18
8325.56945 1.89071e-18
8326.43091 1.89903e-18
8327.29237 1.90403e-18
8328.16385 1.90903e-18
8329.02531 1.91327e-18
8329.88678 1.91751e-18
8330.74824 1.92244e-18
8331.60970 1.92738e-18
8332.47116 1.93446e-18
8333.33262 1.94155e-18
8334.19408 1.95433e-18
8335.05555 1.96713e-18
8335.91701 1.98857e-18
8336.77847 2.01003e-18
8337.64995 2.03782e-18
8338.51141 2.06562e-18
8339.37287 2.09579e-18
8340.23434 2.12597e-18
8341.09580 2.15309e-18
8341.95726 2.18021e-18
8342.81872 2.19838e-18
8343.68018 2.21654e-18
8344.54165 2.22591e-18
8345.40311 2.23525e-18
8346.26457 2.23993e-18
8347.12603 2.24459e-18
8347.99751 2.24794e-18
8348.85897 2.25129e-18
8349.72043 2.25582e-18
8350.58190 2.26035e-18
8351.44336 2.26898e-18
8352.30482 2.27762e-18
8353.16628 2.29342e-18
8354.02775 2.30925e-18
8354.88921 2.33260e-18
8355.75067 2.35597e-18
8356.62215 2.38304e-18
8357.48361 2.41013e-18
8358.34507 2.43713e-18
8359.20653 2.46413e-18
8360.06800 2.48774e-18
8360.92946 2.51133e-18
8361.79092 2.52956e-18
8362.65238 2.54778e-18
8363.51384 2.56406e-18
8364.37531 2.58034e-18
8365.23677 2.59806e-18
8366.10825 2.61578e-18
8366.96971 2.63272e-18
8367.83117 2.64966e-18
8368.69263 2.66350e-18
8369.55410 2.67734e-18
8370.41556 2.69033e-18
8371.27702 2.70333e-18
8372.13848 2.71858e-18
8372.99994 2.73384e-18
8373.86140 2.75305e-18
8374.72287 2.77228e-18
8375.59435 2.79653e-18
8376.45581 2.82081e-18
8377.31727 2.84989e-18
8378.17873 2.87897e-18
8379.04019 2.91175e-18
8379.90166 2.94453e-18
8380.76312 2.97921e-18
8381.62458 3.01389e-18
8382.48604 3.04837e-18
8383.34750 3.08285e-18
8384.20897 3.11537e-18
8385.07043 3.14788e-18
8385.94191 3.17685e-18
8386.80337 3.20581e-18
8387.66483 3.23217e-18
8388.52629 3.25854e-18
8389.38775 3.28743e-18
8390.24922 3.31633e-18
8391.11068 3.34917e-18
8391.97214 3.38202e-18
8392.83360 3.41223e-18
8393.69507 3.44243e-18
8394.55653 3.46525e-18
8395.41799 3.48806e-18
8396.28947 3.50337e-18
8397.15093 3.51867e-18
8398.01239 3.52838e-18
8398.87385 3.53808e-18
8399.73532 3.55294e-18
8400.59678 3.56781e-18
8401.45824 3.59761e-18
8402.31970 3.62744e-18
8403.18116 3.66902e-18
8404.04263 3.71061e-18
8404.90409 3.75797e-18
8405.77557 3.80533e-18
8406.63703 3.85184e-18
8407.49849 3.89834e-18
8408.35995 3.93714e-18
8409.22142 3.97593e-18
8410.08288 4.00707e-18
8410.94434 4.03819e-18
8411.80580 4.06515e-18
8412.66726 4.09210e-18
8413.52873 4.11730e-18
8414.39019 4.14249e-18
8415.26167 4.16788e-18
8416.12313 4.19328e-18
8416.98459 4.22094e-18
8417.84605 4.24861e-18
8418.70751 4.28025e-18
8419.56898 4.31189e-18
8420.43044 4.34816e-18
8421.29190 4.38444e-18
8422.15336 4.42519e-18
8423.01482 4.46596e-18
8423.87629 4.50903e-18
8424.74777 4.55212e-18
8425.60923 4.59156e-18
8426.47069 4.63099e-18
8427.33215 4.66437e-18
8428.19361 4.69774e-18
8429.05508 4.73179e-18
8429.91654 4.76584e-18
8430.77800 4.80604e-18
8431.63946 4.84626e-18
8432.50092 4.89320e-18
8433.36239 4.94015e-18
8434.23386 4.99297e-18
8435.09533 5.04578e-18
8435.95679 5.09568e-18
8436.81825 5.14559e-18
8437.67971 5.18395e-18
8438.54117 5.22229e-18
8439.40264 5.25416e-18
8440.26410 5.28600e-18
8441.12556 5.31958e-18
8441.98702 5.35315e-18
8442.84848 5.39085e-18
8443.70995 5.42856e-18
8444.58143 5.47095e-18
8445.44289 5.51335e-18
8446.30435 5.56088e-18
8447.16581 5.60842e-18
8448.02727 5.66095e-18
8448.88874 5.71348e-18
8449.75020 5.76938e-18
8450.61166 5.82529e-18
8451.47312 5.88218e-18
8452.33458 5.93907e-18
8453.20606 5.99424e-18
8454.06752 6.04939e-18
8454.92899 6.09951e-18
8455.79045 6.14961e-18
8456.65191 6.19540e-18
8457.51337 6.24118e-18
8458.37483 6.28975e-18
8459.23630 6.33833e-18
8460.09776 6.39268e-18
8460.95922 6.44704e-18
8461.82068 6.50106e-18
8462.69216 6.55509e-18
8463.55362 6.60446e-18
8464.41508 6.65383e-18
8465.27655 6.69889e-18
8466.13801 6.74393e-18
8466.99947 6.78648e-18
8467.86093 6.82902e-18
8468.72240 6.87809e-18
8469.58386 6.92717e-18
8470.44532 6.99075e-18
8471.30678 7.05436e-18
8472.16824 7.12751e-18
8473.03972 7.20068e-18
8473.90118 7.27622e-18
8474.76265 7.35176e-18
8475.62411 7.42425e-18
8476.48557 7.49672e-18
8477.34703 7.56092e-18
8478.20849 7.62509e-18
8479.06996 7.68719e-18
8479.93142 7.74928e-18
8480.79288 7.82057e-18
8481.65434 7.89189e-18
8482.51580 7.96985e-18
8483.38728 8.04781e-18
8484.24875 8.12193e-18
8485.11021 8.19602e-18
8485.97167 8.26158e-18
8486.83313 8.32713e-18
8487.69459 8.38403e-18
8488.55605 8.44091e-18
8489.41752 8.49214e-18
8490.27898 8.54337e-18
8491.14044 8.59652e-18
8492.00190 8.64969e-18
8492.87338 8.70970e-18
8493.73484 8.76974e-18
8494.59631 8.83528e-18
8495.45777 8.90082e-18
8496.31923 8.97259e-18
8497.18069 9.04439e-18
8498.04215 9.13042e-18
8498.90362 9.21649e-18
8499.76508 9.31980e-18
8500.62654 9.42316e-18
8501.48800 9.52996e-18
8502.35948 9.63678e-18
8503.22094 9.73358e-18
8504.08240 9.83038e-18
8504.94387 9.91442e-18
8505.80533 9.99836e-18
8506.66679 1.00691e-17
8507.52825 1.01397e-17
8508.38972 1.02020e-17
8509.25118 1.02643e-17
8510.11264 1.03249e-17
8510.98412 1.03856e-17
8511.84558 1.04471e-17
8512.70704 1.05086e-17
8513.56850 1.05724e-17
8514.42997 1.06362e-17
8515.29143 1.07019e-17
8516.15289 1.07677e-17
8517.01435 1.08348e-17
8517.87581 1.09018e-17
8518.73728 1.09700e-17
8519.59874 1.10382e-17
8520.46020 1.11079e-17
8521.33168 1.11774e-17
8522.19314 1.12515e-17
8523.05460 1.13256e-17
8523.91607 1.14098e-17
8524.77753 1.14941e-17
8525.63899 1.15904e-17
8526.50045 1.16868e-17
8527.36191 1.17917e-17
8528.22337 1.18965e-17
8529.08484 1.20045e-17
8529.94630 1.21124e-17
8530.80776 1.22144e-17
8531.67924 1.23164e-17
8532.54070 1.24052e-17
8533.40216 1.24939e-17
8534.26363 1.25666e-17
8535.12509 1.26392e-17
8535.98655 1.26966e-17
8536.84801 1.27541e-17
8537.70947 1.28073e-17
8538.57094 1.28605e-17
8539.43240 1.29213e-17
8540.30388 1.29822e-17
8541.16534 1.30584e-17
8542.02680 1.31346e-17
8542.88826 1.32308e-17
8543.74972 1.33271e-17
8544.61119 1.34371e-17
8545.47265 1.35470e-17
8546.33411 1.36605e-17
8547.19557 1.37740e-17
8548.05703 1.38736e-17
8548.91850 1.39732e-17
8549.78998 1.40396e-17
8550.65144 1.41061e-17
8551.51290 1.41411e-17
8552.37436 1.41761e-17
8553.23582 1.41943e-17
8554.09729 1.42124e-17
8554.95875 1.42333e-17
8555.82021 1.42543e-17
8556.68167 1.43012e-17
8557.54313 1.43482e-17
8558.40460 1.44316e-17
8559.27607 1.45151e-17
8560.13754 1.46286e-17
8560.99900 1.47422e-17
8561.86046 1.48734e-17
8562.72192 1.50046e-17
8563.58338 1.51331e-17
8564.44485 1.52618e-17
8565.30631 1.53692e-17
8566.16777 1.54765e-17
8567.02923 1.55503e-17
8567.89070 1.56240e-17
8568.75216 1.56584e-17
8569.62364 1.56929e-17
8570.48510 1.56976e-17
8571.34656 1.57023e-17
8572.20802 1.56914e-17
8573.06948 1.56805e-17
8573.93095 1.56694e-17
8574.79241 1.56583e-17
8575.65387 1.56620e-17
8576.51533 1.56658e-17
8577.37679 1.56999e-17
8578.23826 1.57342e-17
8579.09972 1.58105e-17
8579.97120 1.58870e-17
8580.83266 1.59908e-17
8581.69412 1.60947e-17
8582.55558 1.62012e-17
8583.41705 1.63078e-17
8584.27851 1.63971e-17
8585.13997 1.64865e-17
8586.00143 1.65425e-17
8586.86289 1.65985e-17
8587.72436 1.66188e-17
8588.58582 1.66391e-17
8589.45730 1.66329e-17
8590.31876 1.66264e-17
8591.18022 1.66075e-17
8592.04168 1.65886e-17
8592.90314 1.65760e-17
8593.76461 1.65633e-17
8594.62607 1.65674e-17
8595.48753 1.65715e-17
8596.34899 1.65882e-17
8597.21045 1.66049e-17
8598.07192 1.66315e-17
8598.94340 1.66583e-17
8599.80486 1.66976e-17
8600.66632 1.67370e-17
8601.52778 1.67879e-17
8602.38924 1.68387e-17
8603.25071 1.68930e-17
8604.11217 1.69474e-17
8604.97363 1.69961e-17
8605.83509 1.70450e-17
8606.69655 1.70764e-17
8607.56803 1.71078e-17
8608.42949 1.71121e-17
8609.29096 1.71164e-17
8610.15242 1.70963e-17
8611.01388 1.70761e-17
8611.87534 1.70385e-17
8612.73680 1.70008e-17
8613.59827 1.69533e-17
8614.45973 1.69058e-17
8615.32119 1.68566e-17
8616.18265 1.68075e-17
8617.04411 1.67720e-17
8617.91559 1.67366e-17
8618.77706 1.67316e-17
8619.63852 1.67267e-17
8620.49998 1.67533e-17
8621.36144 1.67799e-17
8622.22290 1.68287e-17
8623.08437 1.68778e-17
8623.94583 1.69360e-17
8624.80729 1.69943e-17
8625.66875 1.70455e-17
8626.53021 1.70966e-17
8627.40169 1.71308e-17
8628.26315 1.71648e-17
8629.12462 1.71816e-17
8629.98608 1.71984e-17
8630.84754 1.71976e-17
8631.70900 1.71967e-17
8632.57046 1.71759e-17
8633.43193 1.71550e-17
8634.29339 1.71171e-17
8635.15485 1.70792e-17
8636.01631 1.70361e-17
8636.88779 1.69929e-17
8637.74925 1.69570e-17
8638.61072 1.69212e-17
8639.47218 1.69068e-17
8640.33364 1.68925e-17
8641.19510 1.69096e-17
8642.05656 1.69268e-17
8642.91803 1.69669e-17
8643.77949 1.70073e-17
8644.64095 1.70581e-17
8645.50241 1.71088e-17
8646.37389 1.71569e-17
8647.23535 1.72051e-17
8648.09681 1.72374e-17
8648.95828 1.72696e-17
8649.81974 1.72812e-17
8650.68120 1.72929e-17
8651.54266 1.72840e-17
8652.40412 1.72750e-17
8653.26559 1.72442e-17
8654.12705 1.72134e-17
8654.98851 1.71597e-17
8655.85999 1.71060e-17
8656.72145 1.70388e-17
8657.58291 1.69716e-17
8658.44438 1.69070e-17
8659.30584 1.68424e-17
8660.16730 1.67916e-17
8661.02876 1.67408e-17
8661.89022 1.67086e-17
8662.75168 1.66765e-17
8663.61315 1.66656e-17
8664.47461 1.66547e-17
8665.33607 1.66642e-17
8666.20755 1.66738e-17
8667.06901 1.66993e-17
8667.93047 1.67249e-17
8668.79194 1.67585e-17
8669.65340 1.67921e-17
8670.51486 1.68230e-17
8671.37632 1.68538e-17
8672.23778 1.68633e-17
8673.09925 1.68728e-17
8673.96071 1.68473e-17
8674.82217 1.68216e-17
8675.68363 1.67652e-17
8676.55511 1.67087e-17
8677.41657 1.66304e-17
8678.27803 1.65519e-17
8679.13950 1.64671e-17
8680.00096 1.63823e-17
8680.86242 1.63077e-17
8681.72388 1.62332e-17
8682.58535 1.61756e-17
8683.44681 1.61181e-17
8684.30827 1.60800e-17
8685.16973 1.60418e-17
8686.04121 1.60252e-17
8686.90267 1.60088e-17
8687.76413 1.60142e-17
8688.62560 1.60196e-17
8689.48706 1.60428e-17
8690.34852 1.60660e-17
8691.20998 1.61000e-17
8692.07144 1.61341e-17
8692.93291 1.61676e-17
8693.79437 1.62010e-17
8694.66585 1.62190e-17
8695.52731 1.62371e-17
8696.38877 1.62308e-17
8697.25023 1.62245e-17
8698.11170 1.61924e-17
8698.97316 1.61601e-17
8699.83462 1.61056e-17
8700.69608 1.60510e-17
8701.55754 1.59859e-17
8702.41900 1.59208e-17
8703.28047 1.58551e-17
8704.15195 1.57893e-17
8705.01341 1.57232e-17
8705.87487 1.56572e-17
8706.73633 1.55936e-17
8707.59779 1.55301e-17
8708.45926 1.54822e-17
8709.32072 1.54345e-17
8710.18218 1.54129e-17
8711.04364 1.53912e-17
8711.90510 1.53961e-17
8712.76657 1.54012e-17
8713.62803 1.54290e-17
8714.49951 1.54568e-17
8715.36097 1.54872e-17
8716.22243 1.55175e-17
8717.08389 1.55273e-17
8717.94535 1.55372e-17
8718.80682 1.55171e-17
8719.66828 1.54969e-17
8720.52974 1.54435e-17
8721.39120 1.53900e-17
8722.25267 1.53162e-17
8723.11413 1.52425e-17
8723.98561 1.51714e-17
8724.84707 1.51002e-17
8725.70853 1.50402e-17
8726.56999 1.49801e-17
8727.43145 1.49287e-17
8728.29292 1.48773e-17
8729.15438 1.48348e-17
8730.01584 1.47923e-17
8730.87730 1.47597e-17
8731.73876 1.47271e-17
8732.61024 1.47077e-17
8733.47170 1.46881e-17
8734.33317 1.46906e-17
8735.19463 1.46933e-17
8736.05609 1.47152e-17
8736.91755 1.47372e-17
8737.77902 1.47526e-17
8738.64048 1.47680e-17
8739.50194 1.47549e-17
8740.36340 1.47419e-17
8741.22486 1.46884e-17
8742.08633 1.46348e-17
8742.95780 1.45377e-17
8743.81927 1.44405e-17
8744.68073 1.43278e-17
8745.54219 1.42151e-17
8746.40365 1.41172e-17
8747.26511 1.40194e-17
8748.12658 1.39506e-17
8748.98804 1.38819e-17
8749.84950 1.38507e-17
8750.71096 1.38196e-17
8751.57242 1.38173e-17
8752.44390 1.38150e-17
8753.30537 1.38247e-17
8754.16683 1.38344e-17
8755.02829 1.38469e-17
8755.88975 1.38593e-17
8756.75121 1.38686e-17
8757.61268 1.38779e-17
8758.47414 1.38704e-17
8759.33560 1.38628e-17
8760.19706 1.38222e-17
8761.05852 1.37815e-17
8761.91999 1.37050e-17
8762.79146 1.36284e-17
8763.65293 1.35249e-17
8764.51439 1.34213e-17
8765.37585 1.33051e-17
8766.23731 1.31890e-17
8767.09877 1.30809e-17
8767.96024 1.29729e-17
8768.82170 1.28862e-17
8769.68316 1.27996e-17
8770.54462 1.27325e-17
8771.40608 1.26656e-17
8772.26755 1.26154e-17
8773.13903 1.25653e-17
8774.00049 1.25297e-17
8774.86195 1.24940e-17
8775.72341 1.24681e-17
8776.58487 1.24421e-17
8777.44633 1.24216e-17
8778.30780 1.24013e-17
8779.16926 1.23805e-17
8780.03072 1.23597e-17
8780.89218 1.23205e-17
8781.76366 1.22812e-17
8782.62512 1.22072e-17
8783.48659 1.21331e-17
8784.34805 1.20323e-17
8785.20951 1.19314e-17
8786.07097 1.18181e-17
8786.93243 1.17047e-17
8787.79390 1.15898e-17
8788.65536 1.14748e-17
8789.51682 1.13689e-17
8790.37828 1.12629e-17
8791.24976 1.11656e-17
8792.11122 1.10683e-17
8792.97268 1.09722e-17
8793.83415 1.08760e-17
8794.69561 1.07858e-17
8795.55707 1.06957e-17
8796.41853 1.06254e-17
8797.28000 1.05552e-17
8798.14146 1.05020e-17
8799.00292 1.04489e-17
8799.86438 1.03942e-17
8800.72584 1.03396e-17
8801.59732 1.02684e-17
8802.45878 1.01972e-17
8803.32025 1.00993e-17
8804.18171 1.00014e-17
8805.04317 9.87537e-18
8805.90463 9.74937e-18
8806.76609 9.61343e-18
8807.62756 9.47740e-18
8808.48902 9.34806e-18
8809.35048 9.21878e-18
8810.21194 9.10405e-18
8811.08342 8.98935e-18
8811.94488 8.89456e-18
8812.80635 8.79982e-18
8813.66781 8.72287e-18
8814.52927 8.64598e-18
8815.39073 8.58184e-18
8816.25219 8.51773e-18
8817.11365 8.46012e-18
8817.97512 8.40252e-18
8818.83658 8.34439e-18
8819.70806 8.28628e-18
8820.56952 8.21914e-18
8821.43098 8.15198e-18
8822.29244 8.06842e-18
8823.15391 7.98483e-18
8824.01537 7.88394e-18
8824.87683 7.78301e-18
8825.73829 7.66744e-18
8826.59975 7.55184e-18
8827.46122 7.43225e-18
8828.32268 7.31265e-18
8829.19416 7.20437e-18
8830.05562 7.09612e-18
8830.91708 7.00696e-18
8831.77854 6.91786e-18
8832.64000 6.84838e-18
8833.50147 6.77895e-18
8834.36293 6.72667e-18
8835.22439 6.67443e-18
8836.08585 6.63323e-18
8836.94732 6.59205e-18
8837.80878 6.55475e-18
8838.67024 6.51746e-18
8839.54172 6.47670e-18
8840.40318 6.43595e-18
8841.26464 6.38633e-18
8842.12610 6.33670e-18
8842.98757 6.27749e-18
8843.84903 6.21826e-18
8844.71049 6.15060e-18
8845.57195 6.08293e-18
8846.43341 6.01078e-18
8847.29488 5.93863e-18
8848.15634 5.86707e-18
8849.02782 5.79551e-18
8849.88928 5.72725e-18
8850.75074 5.65901e-18
8851.61220 5.59663e-18
8852.47367 5.53428e-18
8853.33513 5.49104e-18
8854.19659 5.44784e-18
8855.05805 5.43692e-18
8855.91951 5.42609e-18
8856.78097 5.43702e-18
8857.64244 5.44802e-18
8858.50390 5.46233e-18
8859.36536 5.47664e-18
8860.23684 5.47908e-18
8861.09830 5.48148e-18
8861.95976 5.45827e-18
8862.82123 5.43499e-18
8863.68269 5.39132e-18
8864.54415 5.34759e-18
8865.40561 5.30354e-18
8866.26707 5.25949e-18
8867.12854 5.22440e-18
8867.99000 5.18934e-18
8868.86148 5.16085e-18
8869.72294 5.13238e-18
8870.58440 5.10948e-18
8871.44586 5.08658e-18
8872.30732 5.06837e-18
8873.16879 5.05017e-18
8874.03025 5.03764e-18
8874.89171 5.02513e-18
8875.75317 5.02602e-18
8876.61463 5.02694e-18
8877.47610 5.04436e-18
8878.34758 5.06183e-18
8879.20904 5.08616e-18
8880.07050 5.11050e-18
8880.93196 5.13162e-18
8881.79342 5.15272e-18
8882.65489 5.16124e-18
8883.51635 5.16972e-18
8884.37781 5.15879e-18
8885.23927 5.14782e-18
8886.10073 5.12376e-18
8886.96220 5.09967e-18
8887.83367 5.07239e-18
8888.69514 5.04510e-18
8889.55660 5.02374e-18
8890.41806 5.00238e-18
8891.27952 4.99523e-18
8892.14099 4.98812e-18
8893.00245 4.99986e-18
8893.86391 5.01166e-18
8894.72537 5.04416e-18
8895.58683 5.07670e-18
8896.44830 5.12230e-18
8897.30976 5.16794e-18
8898.18124 5.21360e-18
8899.04270 5.25925e-18
8899.90416 5.29380e-18
8900.76562 5.32831e-18
8901.62708 5.34246e-18
8902.48855 5.35654e-18
8903.35001 5.35171e-18
8904.21147 5.34683e-18
8905.07293 5.33849e-18
8905.93439 5.33013e-18
8906.80587 5.32842e-18
8907.66734 5.32672e-18
8908.52880 5.33062e-18
8909.39026 5.33454e-18
8910.25172 5.34409e-18
8911.11318 5.35365e-18
8911.97465 5.37073e-18
8912.83611 5.38782e-18
8913.69757 5.41320e-18
8914.55903 5.43861e-18
8915.42049 5.47411e-18
8916.29197 5.50962e-18
8917.15343 5.55480e-18
8918.01490 5.59999e-18
8918.87636 5.64323e-18
8919.73782 5.68646e-18
8920.59928 5.71612e-18
8921.46074 5.74575e-18
8922.32221 5.75854e-18
8923.18367 5.77129e-18
8924.04513 5.76687e-18
8924.90659 5.76240e-18
8925.76805 5.75446e-18
8926.63953 5.74651e-18
8927.50100 5.75375e-18
8928.36246 5.76103e-18
8929.22392 5.78417e-18
8930.08538 5.80735e-18
8930.94684 5.83793e-18
8931.80831 5.86853e-18
8932.66977 5.90043e-18
8933.53123 5.93232e-18
8934.39269 5.95961e-18
8935.25415 5.98689e-18
8936.12563 6.01236e-18
8936.98709 6.03783e-18
8937.84856 6.07485e-18
8938.71002 6.11190e-18
8939.57148 6.16108e-18
8940.43294 6.21028e-18
8941.29440 6.25348e-18
8942.15587 6.29667e-18
8943.01733 6.32060e-18
8943.87879 6.34447e-18
8944.74025 6.34315e-18
8945.61173 6.34176e-18
8946.47319 6.31735e-18
8947.33466 6.29288e-18
8948.19612 6.27336e-18
8949.05758 6.25385e-18
8949.91904 6.26192e-18
8950.78050 6.27007e-18
8951.64197 6.29868e-18
8952.50343 6.32735e-18
8953.36489 6.36507e-18
8954.22635 6.40283e-18
8955.08781 6.41992e-18
8955.95929 6.43695e-18
8956.82075 6.40415e-18
8957.68222 6.37123e-18
8958.54368 6.32493e-18
8959.40514 6.27860e-18
8960.26660 6.27242e-18
8961.12806 6.26636e-18
8961.98953 6.30798e-18
8962.85099 6.34972e-18
8963.71245 6.42897e-18
8964.57391 6.50831e-18
8965.44539 6.59951e-18
8966.30685 6.69073e-18
8967.16832 6.75500e-18
8968.02978 6.81921e-18
8968.89124 6.86083e-18
8969.75270 6.90239e-18
8970.61416 6.96384e-18
8971.47563 7.02534e-18
8972.33709 7.12133e-18
8973.19855 7.21742e-18
8974.06001 7.32977e-18
8974.93149 7.44215e-18
8975.79295 7.54450e-18
8976.65441 7.64681e-18
8977.51588 7.69885e-18
8978.37734 7.75075e-18
8979.23880 7.72111e-18
8980.10026 7.69124e-18
8980.96172 7.55970e-18
8981.82319 7.42789e-18
8982.68465 7.20744e-18
8983.54611 6.98675e-18
8984.41759 6.79595e-18
8985.27905 6.60524e-18
8986.14051 6.55348e-18
8987.00198 6.50209e-18
8987.86344 6.62689e-18
8988.72490 6.75216e-18
8989.58636 7.05916e-18
8990.44782 7.36664e-18
8991.30928 7.70932e-18
8992.17075 8.05209e-18
8993.03221 8.25407e-18
8993.89367 8.45566e-18
8994.76515 8.49050e-18
8995.62661 8.52489e-18
8996.48807 8.42482e-18
8997.34954 8.32439e-18
8998.21100 8.16831e-18
8999.07246 8.01209e-18
8999.93392 7.90765e-18
9000.79538 7.80335e-18
9001.65685 7.79748e-18
9002.51831 7.79188e-18
9003.38979 7.88169e-18
9004.25125 7.97174e-18
9005.11271 8.12590e-18
9005.97417 8.28023e-18
9006.83563 8.43738e-18
9007.69710 8.59453e-18
9008.55856 8.70680e-18
9009.42002 8.81895e-18
9010.28148 8.86416e-18
9011.14295 8.90917e-18
9012.00441 8.88831e-18
9012.87589 8.86726e-18
9013.73735 8.83305e-18
9014.59881 8.79881e-18
9015.46027 8.79039e-18
9016.32173 8.78203e-18
9017.18320 8.77550e-18
9018.04466 8.76897e-18
9018.90612 8.74654e-18
9019.76758 8.72407e-18
9020.62904 8.70631e-18
9021.49051 8.68855e-18
9022.35197 8.69680e-18
9023.22345 8.70512e-18
9024.08491 8.76625e-18
9024.94637 8.82753e-18
9025.80783 8.96300e-18
9026.66930 9.09868e-18
9027.53076 9.27592e-18
9028.39222 9.45330e-18
9029.25368 9.62307e-18
9030.11514 9.79275e-18
9030.97660 9.92084e-18
9031.83807 1.00487e-17
9032.70955 1.01097e-17
9033.57101 1.01705e-17
9034.43247 1.01621e-17
9035.29393 1.01535e-17
9036.15539 1.00886e-17
9037.01686 1.00236e-17
9037.87832 9.93559e-18
9038.73978 9.84749e-18
9039.60124 9.78746e-18
9040.46270 9.72762e-18
9041.32417 9.70928e-18
9042.18563 9.69104e-18
9043.05711 9.67696e-18
9043.91857 9.66278e-18
9044.78003 9.63319e-18
9045.64149 9.60351e-18
9046.50295 9.57023e-18
9047.36442 9.53696e-18
9048.22588 9.51030e-18
9049.08734 9.48364e-18
9049.94880 9.48005e-18
9050.81027 9.47636e-18
9051.67173 9.50018e-18
9052.54321 9.52410e-18
9053.40467 9.52665e-18
9054.26613 9.52902e-18
9055.12759 9.46757e-18
9055.98905 9.40598e-18
9056.85052 9.30333e-18
9057.71198 9.20057e-18
9058.57344 9.08764e-18
9059.43490 8.97468e-18
9060.29636 8.85530e-18
9061.16784 8.73590e-18
9062.02931 8.61160e-18
9062.89077 8.48728e-18
9063.75223 8.35354e-18
9064.61369 8.21977e-18
9065.47515 8.06663e-18
9066.33662 7.91342e-18
9067.19808 7.77987e-18
9068.05954 7.64637e-18
9068.92100 7.59717e-18
9069.78246 7.54819e-18
9070.64393 7.56902e-18
9071.51540 7.59004e-18
9072.37687 7.60840e-18
9073.23833 7.62676e-18
9074.09979 7.61591e-18
9074.96125 7.60498e-18
9075.82271 7.58515e-18
9076.68418 7.56528e-18
9077.54564 7.54915e-18
9078.40710 7.53302e-18
9079.26856 7.52789e-18
9080.13002 7.52278e-18
9080.99149 7.52837e-18
9081.86297 7.53398e-18
9082.72443 7.52515e-18
9083.58589 7.51627e-18
9084.44735 7.47898e-18
9085.30881 7.44162e-18
9086.17028 7.40357e-18
9087.03174 7.36551e-18
9087.89320 7.34803e-18
9088.75466 7.33059e-18
9089.61612 7.30644e-18
9090.48760 7.28227e-18
9091.34906 7.22537e-18
9092.21053 7.16871e-18
9093.07199 7.10599e-18
9093.93345 7.04326e-18
9094.79491 7.00765e-18
9095.65637 6.97213e-18
9096.51784 6.95430e-18
9097.37930 6.93653e-18
9098.24076 6.91684e-18
9099.10222 6.89713e-18
9099.97370 6.88065e-18
9100.83516 6.86418e-18
9101.69663 6.86144e-18
9102.55809 6.85874e-18
9103.41955 6.88988e-18
9104.28101 6.92111e-18
9105.14247 7.01497e-18
9106.00393 7.10901e-18
9106.86540 7.23139e-18
9107.72686 7.35384e-18
9108.58832 7.41701e-18
9109.45980 7.48002e-18
9110.32126 7.44659e-18
9111.18272 7.41290e-18
9112.04419 7.30465e-18
9112.90565 7.19618e-18
9113.76711 7.05782e-18
9114.62857 6.91939e-18
9115.49003 6.84274e-18
9116.35150 6.76627e-18
9117.21296 6.79917e-18
9118.07442 6.83238e-18
9118.93588 6.90401e-18
9119.80736 6.97575e-18
9120.66882 7.01693e-18
9121.53028 7.05804e-18
9122.39175 7.02449e-18
9123.25321 6.99073e-18
9124.11467 6.85585e-18
9124.97613 6.72069e-18
9125.83760 6.54685e-18
9126.69906 6.37291e-18
9127.56052 6.23606e-18
9128.43200 6.09931e-18
9129.29346 6.03867e-18
9130.15492 5.97825e-18
9131.01638 6.01909e-18
9131.87785 6.06022e-18
9132.73931 6.18552e-18
9133.60077 6.31106e-18
9134.46223 6.48229e-18
9135.32369 6.65364e-18
9136.18516 6.83069e-18
9137.04662 7.00776e-18
9137.90808 7.14927e-18
9138.76954 7.29066e-18
9139.64102 7.36999e-18
9140.50248 7.44913e-18
9141.36395 7.45726e-18
9142.22541 7.46521e-18
9143.08687 7.38869e-18
9143.94833 7.31194e-18
9144.80979 7.13136e-18
9145.67125 6.95051e-18
9146.53272 6.68927e-18
9147.39418 6.42782e-18
9148.26566 6.16484e-18
9149.12712 5.90186e-18
9149.98858 5.70872e-18
9150.85004 5.51578e-18
9151.71151 5.45041e-18
9152.57297 5.38540e-18
9153.43443 5.47040e-18
9154.29589 5.55581e-18
9155.15735 5.71689e-18
9156.01882 5.87817e-18
9156.88028 6.03683e-18
9157.75176 6.19548e-18
9158.61322 6.31502e-18
9159.47468 6.43445e-18
9160.33614 6.48653e-18
9161.19760 6.53840e-18
9162.05907 6.52490e-18
9162.92053 6.51120e-18
9163.78199 6.44751e-18
9164.64345 6.38370e-18
9165.50492 6.26771e-18
9166.36638 6.15157e-18
9167.22784 5.98052e-18
9168.09932 5.80934e-18
9168.96078 5.62569e-18
9169.82224 5.44201e-18
9170.68370 5.30319e-18
9171.54517 5.16450e-18
9172.40663 5.09923e-18
9173.26809 5.03416e-18
9174.12955 5.05492e-18
9174.99101 5.07593e-18
9175.85248 5.14743e-18
9176.71394 5.21907e-18
9177.58542 5.26106e-18
9178.44688 5.30296e-18
9179.30834 5.29209e-18
9180.16980 5.28108e-18
9181.03127 5.27001e-18
9181.89273 5.25895e-18
9182.75419 5.27666e-18
9183.61565 5.29446e-18
9184.47711 5.33063e-18
9185.33857 5.36684e-18
9186.20004 5.40899e-18
9187.07152 5.45114e-18
9187.93298 5.46903e-18
9188.79444 5.48686e-18
9189.65590 5.46373e-18
9190.51736 5.44047e-18
9191.37883 5.42303e-18
9192.24029 5.40560e-18
9193.10175 5.43544e-18
9193.96321 5.46539e-18
9194.82467 5.52401e-18
9195.68614 5.58269e-18
9196.55762 5.64371e-18
9197.41908 5.70473e-18
9198.28054 5.74430e-18
9199.14200 5.78382e-18
9200.00346 5.77902e-18
9200.86492 5.77412e-18
9201.72639 5.74185e-18
9202.58785 5.70951e-18
9203.44931 5.68298e-18
9204.31077 5.65648e-18
9205.17224 5.63665e-18
9206.04371 5.61684e-18
9206.90518 5.58913e-18
9207.76664 5.56140e-18
9208.62810 5.53044e-18
9209.48956 5.49947e-18
9210.35102 5.48087e-18
9211.21249 5.46229e-18
9212.07395 5.47171e-18
9212.93541 5.48121e-18
9213.79687 5.53660e-18
9214.65833 5.59212e-18
9215.52981 5.68990e-18
9216.39127 5.78781e-18
9217.25274 5.89082e-18
9218.11420 5.99385e-18
9218.97566 6.07799e-18
9219.83712 6.16205e-18
9220.69859 6.23498e-18
9221.56005 6.30788e-18
9222.42151 6.37395e-18
9223.28297 6.44000e-18
9224.14443 6.49185e-18
9225.00590 6.54366e-18
9225.87737 6.57614e-18
9226.73884 6.60857e-18
9227.60030 6.61630e-18
9228.46176 6.62395e-18
9229.32322 6.60484e-18
9230.18468 6.58567e-18
9231.04615 6.56151e-18
9231.90761 6.53734e-18
9232.76907 6.53329e-18
9233.63053 6.52929e-18
9234.49199 6.53983e-18
9235.35346 6.55040e-18
9236.22494 6.56136e-18
9237.08640 6.57231e-18
9237.94786 6.59014e-18
9238.80932 6.60799e-18
9239.67078 6.64600e-18
9240.53225 6.68406e-18
9241.39371 6.74862e-18
9242.25517 6.81326e-18
9243.11663 6.90698e-18
9243.97809 7.00078e-18
9244.84957 7.11549e-18
9245.71103 7.23025e-18
9246.57250 7.34734e-18
9247.43396 7.46442e-18
9248.29542 7.57323e-18
9249.15688 7.68202e-18
9250.01834 7.78476e-18
9250.87981 7.88748e-18
9251.74127 7.97896e-18
9252.60273 8.07040e-18
9253.46419 8.12868e-18
9254.32565 8.18688e-18
9255.19713 8.20839e-18
9256.05860 8.22979e-18
9256.92006 8.25715e-18
9257.78152 8.28453e-18
9258.64298 8.34980e-18
9259.50444 8.41517e-18
9260.36591 8.50866e-18
9261.22737 8.60222e-18
9262.08883 8.70670e-18
9262.95029 8.81119e-18
9263.81175 8.88893e-18
9264.68323 8.96659e-18
9265.54469 8.98150e-18
9266.40616 8.99623e-18
9267.26762 8.94933e-18
9268.12908 8.90225e-18
9268.99054 8.80839e-18
9269.85200 8.71441e-18
9270.71347 8.60855e-18
9271.57493 8.50265e-18
9272.43639 8.42644e-18
9273.29785 8.35030e-18
9274.16933 8.33660e-18
9275.03079 8.32308e-18
9275.89226 8.39596e-18
9276.75372 8.46909e-18
9277.61518 8.61629e-18
9278.47664 8.76370e-18
9279.33810 8.94469e-18
9280.19957 9.12576e-18
9281.06103 9.29677e-18
9281.92249 9.46776e-18
9282.79397 9.58658e-18
9283.65543 9.70531e-18
9284.51689 9.73840e-18
9285.37835 9.77120e-18
9286.23982 9.69860e-18
9287.10128 9.62572e-18
9287.96274 9.45623e-18
9288.82420 9.28637e-18
9289.68566 9.07368e-18
9290.54713 8.86089e-18
9291.40859 8.66752e-18
9292.27005 8.47422e-18
9293.14153 8.38246e-18
9294.00299 8.29097e-18
9294.86445 8.35453e-18
9295.72592 8.41851e-18
9296.58738 8.58204e-18
9297.44884 8.74585e-18
9298.31030 8.93591e-18
9299.17176 9.12603e-18
9300.03323 9.24251e-18
9300.89469 9.35878e-18
9301.75615 9.30566e-18
9302.62763 9.25205e-18
9303.48909 9.12154e-18
9304.35055 8.99083e-18
9305.21201 8.93375e-18
9306.07348 8.87688e-18
9306.93494 8.85809e-18
9307.79640 8.83939e-18
9308.65786 8.74946e-18
9309.51932 8.65933e-18
9310.38079 8.50334e-18
9311.24225 8.34717e-18
9312.11373 8.18968e-18
9312.97519 8.03221e-18
9313.83665 7.93654e-18
9314.69811 7.84105e-18
9315.55958 7.87917e-18
9316.42104 7.91768e-18
9317.28250 8.07560e-18
9318.14396 8.23385e-18
9319.00542 8.37313e-18
9319.86688 8.51234e-18
9320.72835 8.57866e-18
9321.58981 8.64477e-18
9322.46129 8.76568e-18
9323.32275 8.88676e-18
9324.18421 9.09019e-18
9325.04567 9.29384e-18
9325.90714 9.31893e-18
9326.76860 9.34351e-18
9327.63006 9.02943e-18
9328.49152 8.71439e-18
9329.35298 8.31364e-18
9330.21445 7.91264e-18
9331.07591 7.66967e-18
9331.94739 7.42717e-18
9332.80885 7.29483e-18
9333.67031 7.16283e-18
9334.53177 7.07053e-18
9335.39323 6.97835e-18
9336.25470 6.92767e-18
9337.11616 6.87711e-18
9337.97762 6.85595e-18
9338.83908 6.83488e-18
9339.70055 7.05849e-18
9340.56201 7.28279e-18
9341.43349 8.04272e-18
9342.29495 8.80416e-18
9343.15641 9.72696e-18
9344.01787 1.06501e-17
9344.87933 1.10488e-17
9345.74080 1.14458e-17
9346.60226 1.11153e-17
9347.46372 1.07827e-17
9348.32518 9.84002e-18
9349.18664 8.89567e-18
9350.04811 7.77438e-18
9350.90957 6.65260e-18
9351.78105 6.15213e-18
9352.64251 5.65345e-18
9353.50397 6.03612e-18
9354.36543 6.42129e-18
9355.22689 7.10874e-18
9356.08836 7.79703e-18
9356.94982 8.30300e-18
9357.81128 8.80842e-18
9358.67274 8.84284e-18
9359.53420 8.87592e-18
9360.39567 8.31339e-18
9361.26715 7.74916e-18
9362.12861 7.04531e-18
9362.99007 6.34108e-18
9363.85153 5.92594e-18
9364.71299 5.51165e-18
9365.57446 5.40999e-18
9366.43592 5.30924e-18
9367.29738 5.47963e-18
9368.15884 5.65078e-18
9369.02030 5.87959e-18
9369.89178 6.10854e-18
9370.75324 6.15107e-18
9371.61471 6.19306e-18
9372.47617 6.06432e-18
9373.33763 5.93509e-18
9374.19909 5.72651e-18
9375.06056 5.51771e-18
9375.92202 5.36908e-18
9376.78348 5.22062e-18
9377.64494 5.30271e-18
9378.50640 5.38545e-18
9379.37788 5.63350e-18
9380.23934 5.88201e-18
9381.10081 6.07615e-18
9381.96227 6.27012e-18
9382.82373 6.34029e-18
9383.68519 6.41010e-18
9384.54665 6.41952e-18
9385.40812 6.42877e-18
9386.26958 6.39494e-18
9387.13104 6.36099e-18
9387.99250 6.25430e-18
9388.85396 6.14740e-18
9389.72544 5.96617e-18
9390.58691 5.78473e-18
9391.44837 5.55632e-18
9392.30983 5.32778e-18
9393.17129 5.08963e-18
9394.03275 4.85148e-18
9394.89422 4.67012e-18
9395.75568 4.48893e-18
9396.61714 4.40938e-18
9397.47860 4.33011e-18
9398.34006 4.31899e-18
9399.21154 4.30806e-18
9400.07300 4.32343e-18
9400.93447 4.33888e-18
9401.79593 4.34044e-18
9402.65739 4.34195e-18
9403.51885 4.29442e-18
9404.38031 4.24675e-18
9405.24178 4.18976e-18
9406.10324 4.13276e-18
9406.96470 4.12201e-18
9407.82616 4.11137e-18
9408.69764 4.14743e-18
9409.55910 4.18364e-18
9410.42057 4.24717e-18
9411.28203 4.31078e-18
9412.14349 4.37173e-18
9413.00495 4.43266e-18
9413.86641 4.45536e-18
9414.72788 4.47793e-18
9415.58934 4.43862e-18
9416.45080 4.39911e-18
9417.31226 4.29044e-18
9418.17372 4.18156e-18
9419.04520 4.01113e-18
9419.90666 3.84052e-18
9420.76813 3.61972e-18
9421.62959 3.39877e-18
9422.49105 3.20662e-18
9423.35251 3.01456e-18
9424.21397 3.03965e-18
9425.07544 3.06539e-18
9425.93690 3.36829e-18
9426.79836 3.67199e-18
9427.65982 4.05496e-18
9428.53130 4.43815e-18
9429.39276 4.71057e-18
9430.25423 4.98266e-18
9431.11569 4.96803e-18
9431.97715 4.95258e-18
9432.83861 4.56153e-18
9433.70007 4.16940e-18
9434.56153 3.71199e-18
9435.42300 3.25441e-18
9436.28446 3.05498e-18
9437.14592 2.85631e-18
9438.01740 2.96597e-18
9438.87886 3.07652e-18
9439.74032 3.47426e-18
9440.60179 3.87281e-18
9441.46325 4.35663e-18
9442.32471 4.84068e-18
9443.18617 5.15058e-18
9444.04763 5.45997e-18
9444.90910 5.52158e-18
9445.77056 5.58247e-18
9446.63202 5.41203e-18
9447.49348 5.24092e-18
9448.36496 4.93044e-18
9449.22642 4.61956e-18
9450.08788 4.31707e-18
9450.94935 4.01460e-18
9451.81081 3.81654e-18
9452.67227 3.61879e-18
9453.53373 3.56277e-18
9454.39520 3.50715e-18
9455.25666 3.60254e-18
9456.11812 3.69838e-18
9456.98960 3.92205e-18
9457.85106 4.14607e-18
9458.71252 4.43105e-18
9459.57398 4.71619e-18
9460.43545 4.92735e-18
9461.29691 5.13827e-18
9462.15837 5.19417e-18
9463.01983 5.24962e-18
9463.88129 5.21388e-18
9464.74276 5.17788e-18
9465.60422 5.11701e-18
9466.47570 5.05608e-18
9467.33716 5.01094e-18
9468.19862 4.96585e-18
9469.06008 4.96926e-18
9469.92155 4.97281e-18
9470.78301 4.97445e-18
9471.64447 4.97608e-18
9472.50593 4.92232e-18
9473.36739 4.86841e-18
9474.22885 4.79282e-18
9475.09032 4.71718e-18
9475.96180 4.66542e-18
9476.82326 4.61373e-18
9477.68472 4.68046e-18
9478.54618 4.74753e-18
9479.40764 5.03946e-18
9480.26911 5.33203e-18
9481.13057 5.73326e-18
9481.99203 6.13481e-18
9482.85349 6.42116e-18
9483.71495 6.70716e-18
9484.57642 6.76046e-18
9485.43788 6.81308e-18
9486.30936 6.59196e-18
9487.17082 6.37005e-18
9488.03228 5.96454e-18
9488.89374 5.55851e-18
9489.75520 5.20577e-18
9490.61667 4.85318e-18
9491.47813 4.70481e-18
9492.33959 4.55705e-18
9493.20105 4.61029e-18
9494.06252 4.66413e-18
9494.92398 4.91822e-18
9495.79546 5.17290e-18
9496.65692 5.66021e-18
9497.51838 6.14819e-18
9498.37984 6.81735e-18
9499.24130 7.48703e-18
9500.10277 8.07619e-18
9500.96423 8.66510e-18
9501.82569 8.94778e-18
9502.68715 9.22955e-18
9503.54861 9.16993e-18
9504.41008 9.10931e-18
9505.28155 8.73052e-18
9506.14302 8.35080e-18
9507.00448 7.84959e-18
9507.86594 7.34804e-18
9508.72740 6.95845e-18
9509.58887 6.56919e-18
9510.45033 6.31415e-18
9511.31179 6.05950e-18
9512.17325 5.89276e-18
9513.03471 5.72628e-18
9513.89617 5.69337e-18
9514.75764 5.66085e-18
9515.62912 5.82695e-18
9516.49058 5.99363e-18
9517.35204 6.33972e-18
9518.21350 6.68633e-18
9519.07496 7.14852e-18
9519.93643 7.61105e-18
9520.79789 8.07682e-18
9521.65935 8.54259e-18
9522.52081 8.85698e-18
9523.38227 9.17093e-18
9524.24374 9.28173e-18
9525.11522 9.39195e-18
9525.97668 9.38060e-18
9526.83814 9.36891e-18
9527.69960 9.31050e-18
9528.56106 9.25196e-18
9529.42252 9.20580e-18
9530.28399 9.15969e-18
9531.14545 9.15904e-18
9532.00691 9.15854e-18
9532.86837 9.15073e-18
9533.72984 9.14291e-18
9534.60131 9.08345e-18
9535.46278 9.02383e-18
9536.32424 8.89924e-18
9537.18570 8.77446e-18
9538.04716 8.59189e-18
9538.90862 8.40915e-18
9539.77009 8.33522e-18
9540.63155 8.26161e-18
9541.49301 8.45357e-18
9542.35447 8.64631e-18
9543.21593 8.99151e-18
9544.08741 9.33714e-18
9544.94888 9.66788e-18
9545.81034 9.99855e-18
9546.67180 1.01512e-17
9547.53326 1.03033e-17
9548.39472 1.01101e-17
9549.25619 9.91593e-18
9550.11765 9.57146e-18
9550.97911 9.22657e-18
9551.84057 9.12265e-18
9552.70203 9.01944e-18
9553.57351 9.18270e-18
9554.43497 9.34672e-18
9555.29644 9.54556e-18
9556.15790 9.74445e-18
9557.01936 9.82282e-18
9557.88082 9.90080e-18
9558.74228 9.75475e-18
9559.60375 9.60814e-18
9560.46521 9.30215e-18
9561.32667 8.99576e-18
9562.18813 8.88358e-18
9563.05961 8.77199e-18
9563.92107 9.03609e-18
9564.78254 9.30129e-18
9565.64400 9.75381e-18
9566.50546 1.02069e-17
9567.36692 1.06457e-17
9568.22838 1.10844e-17
9569.08985 1.12683e-17
9569.95131 1.14515e-17
9570.81277 1.12144e-17
9571.67423 1.09761e-17
9572.53569 1.05270e-17
9573.40717 1.00773e-17
9574.26863 9.66438e-18
9575.13010 9.25166e-18
9575.99156 9.04094e-18
9576.85302 8.83083e-18
9577.71448 8.95334e-18
9578.57594 9.07683e-18
9579.43741 9.32659e-18
9580.29887 9.57666e-18
9581.16033 9.65276e-18
9582.02179 9.72838e-18
9582.89327 9.59103e-18
9583.75473 9.45311e-18
9584.61620 9.16135e-18
9585.47766 8.86910e-18
9586.33912 8.63332e-18
9587.20058 8.39771e-18
9588.06204 8.53827e-18
9588.92351 8.67996e-18
9589.78497 9.15677e-18
9590.64643 9.63461e-18
9591.51791 1.00801e-17
9592.37937 1.05256e-17
9593.24083 1.07417e-17
9594.10229 1.09573e-17
9594.96376 1.09629e-17
9595.82522 1.09680e-17
9596.68668 1.08032e-17
9597.54814 1.06379e-17
9598.40960 1.03954e-17
9599.27107 1.01528e-17
9600.13253 9.93540e-18
9600.99399 9.71798e-18
9601.86547 9.60672e-18
9602.72693 9.49574e-18
9603.58839 9.54357e-18
9604.44986 9.59197e-18
9605.31132 9.79011e-18
9606.17278 9.98872e-18
9607.03424 1.02925e-17
9607.89570 1.05965e-17
9608.75717 1.08128e-17
9609.61863 1.10288e-17
9610.48009 1.09714e-17
9611.35157 1.09130e-17
9612.21303 1.06607e-17
9613.07449 1.04080e-17
9613.93595 1.01098e-17
9614.79742 9.81147e-18
9615.65888 9.57099e-18
9616.52034 9.33063e-18
9617.38180 9.23411e-18
9618.24326 9.13804e-18
9619.10473 9.20770e-18
9619.96619 9.27785e-18
9620.82765 9.48969e-18
9621.69913 9.70201e-18
9622.56059 9.97964e-18
9623.42205 1.02575e-17
9624.28352 1.04945e-17
9625.14498 1.07315e-17
9626.00644 1.08267e-17
9626.86790 1.09214e-17
9627.72936 1.07797e-17
9628.59083 1.06374e-17
9629.45229 1.02867e-17
9630.31375 9.93540e-18
9631.17521 9.58328e-18
9632.04669 9.23109e-18
9632.90815 9.03861e-18
9633.76961 8.84660e-18
9634.63108 8.87647e-18
9635.49254 8.90702e-18
9636.35400 9.15263e-18
9637.21546 9.39887e-18
9638.07692 9.62723e-18
9638.93839 9.85552e-18
9639.79985 9.87405e-18
9640.67133 9.89192e-18
9641.53279 9.82083e-18
9642.39425 9.74946e-18
9643.25571 9.72923e-18
9644.11718 9.70919e-18
9644.97864 9.77375e-18
9645.84010 9.83870e-18
9646.70156 1.00019e-17
9647.56302 1.01653e-17
9648.42448 1.03181e-17
9649.28595 1.04707e-17
9650.15743 1.04711e-17
9651.01889 1.04709e-17
9651.88035 1.03183e-17
9652.74181 1.01653e-17
9653.60327 9.92349e-18
9654.46474 9.68130e-18
9655.32620 9.43766e-18
9656.18766 9.19398e-18
9657.04912 9.04945e-18
9657.91058 8.90523e-18
9658.77205 8.91621e-18
9659.64352 8.92766e-18
9660.50499 9.10796e-18
9661.36645 9.28877e-18
9662.22791 9.58129e-18
9663.08937 9.87415e-18
9663.95083 1.01298e-17
9664.81230 1.03855e-17
9665.67376 1.05181e-17
9666.53522 1.06504e-17
9667.39668 1.07056e-17
9668.25815 1.07606e-17
9669.11961 1.07646e-17
9669.99109 1.07684e-17
9670.85255 1.06770e-17
9671.71401 1.05852e-17
9672.57547 1.03863e-17
9673.43693 1.01870e-17
9674.29840 9.96196e-18
9675.15986 9.73670e-18
9676.02132 9.56654e-18
9676.88278 9.39659e-18
9677.74424 9.33802e-18
9678.61572 9.27978e-18
9679.47718 9.37030e-18
9680.33865 9.46124e-18
9681.20011 9.62629e-18
9682.06157 9.79143e-18
9682.92303 9.92708e-18
9683.78449 1.00626e-17
9684.64596 1.01382e-17
9685.50742 1.02134e-17
9686.36888 1.02246e-17
9687.23034 1.02355e-17
9688.10182 1.01931e-17
9688.96328 1.01506e-17
9689.82475 1.00808e-17
9690.68621 1.00109e-17
9691.54767 9.91857e-18
9692.40913 9.82612e-18
9693.27059 9.69728e-18
9694.13206 9.56825e-18
9694.99352 9.42188e-18
9695.85498 9.27547e-18
9696.71644 9.16360e-18
9697.57790 9.05184e-18
9698.44938 9.00030e-18
9699.31084 8.94895e-18
9700.17231 8.94794e-18
9701.03377 8.94709e-18
9701.89523 8.97533e-18
9702.75669 9.00367e-18
9703.61816 9.01389e-18
9704.47962 9.02405e-18
9705.34108 8.98570e-18
9706.20254 8.94721e-18
9707.06400 8.88975e-18
9707.93548 8.83222e-18
9708.79694 8.78618e-18
9709.65841 8.74018e-18
9710.51987 8.72221e-18
9711.38133 8.70433e-18
9712.24279 8.72529e-18
9713.10425 8.74637e-18
9713.96572 8.77728e-18
9714.82718 8.80821e-18
9715.68864 8.81417e-18
9716.55010 8.82006e-18
9717.41156 8.79107e-18
9718.28304 8.76198e-18
9719.14451 8.69403e-18
9720.00597 8.62596e-18
9720.86743 8.55540e-18
9721.72889 8.48484e-18
9722.59035 8.46757e-18
9723.45182 8.45046e-18
9724.31328 8.46193e-18
9725.17474 8.47350e-18
9726.03620 8.44078e-18
9726.89766 8.40793e-18
9727.76914 8.30518e-18
9728.63060 8.20223e-18
9729.49207 8.04302e-18
9730.35353 7.88364e-18
9731.21499 7.70194e-18
9732.07645 7.52017e-18
9732.93791 7.37843e-18
9733.79938 7.23682e-18
9734.66084 7.17398e-18
9735.52230 7.11137e-18
9736.38376 7.11985e-18
9737.25524 7.12854e-18
9738.11670 7.19082e-18
9738.97817 7.25327e-18
9739.83963 7.33489e-18
9740.70109 7.41657e-18
9741.56255 7.48344e-18
9742.42401 7.55027e-18
9743.28548 7.58433e-18
9744.14694 7.61830e-18
9745.00840 7.60883e-18
9745.86986 7.59925e-18
9746.74134 7.56079e-18
9747.60280 7.52226e-18
9748.46426 7.47475e-18
9749.32573 7.42721e-18
9750.18719 7.37538e-18
9751.04865 7.32353e-18
9751.91011 7.26988e-18
9752.77157 7.21621e-18
9753.63304 7.15897e-18
9754.49450 7.10171e-18
9755.35596 7.03716e-18
9756.22744 6.97259e-18
9757.08890 6.91418e-18
9757.95036 6.85578e-18
9758.81183 6.82335e-18
9759.67329 6.79099e-18
9760.53475 6.79988e-18
9761.39621 6.80890e-18
9762.25767 6.87229e-18
9763.11913 6.93586e-18
9763.98060 7.03379e-18
9764.84206 7.13182e-18
9765.71354 7.20808e-18
9766.57500 7.28428e-18
9767.43646 7.31132e-18
9768.29792 7.33820e-18
9769.15939 7.33408e-18
9770.02085 7.32986e-18
9770.88231 7.30997e-18
9771.74377 7.29003e-18
9772.60523 7.26207e-18
9773.46670 7.23409e-18
9774.32816 7.20782e-18
9775.19964 7.18154e-18
9776.06110 7.16468e-18
9776.92256 7.14783e-18
9777.78402 7.14551e-18
9778.64548 7.14325e-18
9779.50695 7.16206e-18
9780.36841 7.18093e-18
9781.22987 7.22269e-18
9782.09133 7.26452e-18
9782.95280 7.29308e-18
9783.81426 7.32159e-18
9784.68574 7.29765e-18
9785.54720 7.27355e-18
9786.40866 7.21616e-18
9787.27012 7.15867e-18
9788.13158 7.10363e-18
9788.99305 7.04859e-18
9789.85451 7.00850e-18
9790.71597 6.96845e-18
9791.57743 6.94856e-18
9792.43889 6.92872e-18
9793.30036 6.91560e-18
9794.16182 6.90250e-18
9795.03330 6.86793e-18
9795.89476 6.83329e-18
9796.75622 6.78551e-18
9797.61768 6.73769e-18
9798.47915 6.71793e-18
9799.34061 6.69824e-18
9800.20207 6.72027e-18
9801.06353 6.74243e-18
9801.92499 6.78671e-18
9802.78645 6.83105e-18
9803.64792 6.87785e-18
9804.51940 6.92465e-18
9805.38086 6.95084e-18
9806.24232 6.97696e-18
9807.10378 6.97130e-18
9807.96524 6.96554e-18
9808.82671 6.95024e-18
9809.68817 6.93491e-18
9810.54963 6.93111e-18
9811.41109 6.92734e-18
9812.27255 6.94839e-18
9813.13402 6.96952e-18
9813.99548 7.02162e-18
9814.86696 7.07383e-18
9815.72842 7.11992e-18
9816.58988 7.16598e-18
9817.45134 7.16665e-18
9818.31280 7.16719e-18
9819.17427 7.12769e-18
9820.03573 7.08807e-18
9820.89719 7.02497e-18
9821.75865 6.96179e-18
9822.62012 6.89941e-18
9823.48158 6.83704e-18
9824.35306 6.80372e-18
9825.21452 6.77049e-18
9826.07598 6.76210e-18
9826.93744 6.75379e-18
9827.79890 6.74739e-18
9828.66037 6.74100e-18
9829.52183 6.73092e-18
9830.38329 6.72084e-18
9831.24475 6.71388e-18
9832.10621 6.70693e-18
9832.97769 6.70152e-18
9833.83915 6.69612e-18
9834.70062 6.68335e-18
9835.56208 6.67056e-18
9836.42354 6.64632e-18
9837.28500 6.62204e-18
9838.14647 6.58874e-18
9839.00793 6.55541e-18
9839.86939 6.51575e-18
9840.73085 6.47608e-18
9841.59231 6.43148e-18
9842.45377 6.38686e-18
9843.32525 6.34240e-18
9844.18672 6.29794e-18
9845.04818 6.26938e-18
9845.90964 6.24086e-18
9846.77110 6.24061e-18
9847.63256 6.24043e-18
9848.49403 6.26463e-18
9849.35549 6.28891e-18
9850.21695 6.33053e-18
9851.07841 6.37221e-18
9851.93987 6.42450e-18
9852.81135 6.47684e-18
9853.67282 6.53185e-18
9854.53428 6.58687e-18
9855.39574 6.63958e-18
9856.25720 6.69227e-18
9857.11866 6.73896e-18
9857.98013 6.78563e-18
9858.84159 6.81631e-18
9859.70305 6.84694e-18
9860.56451 6.85017e-18
9861.42597 6.85333e-18
9862.29745 6.82757e-18
9863.15891 6.80173e-18
9864.02038 6.75188e-18
9864.88184 6.70196e-18
9865.74330 6.63712e-18
9866.60476 6.57223e-18
9867.46622 6.50540e-18
9868.32769 6.43858e-18
9869.18915 6.37723e-18
9870.05061 6.31590e-18
9870.92209 6.25916e-18
9871.78355 6.20244e-18
9872.64501 6.15129e-18
9873.50648 6.10016e-18
9874.36794 6.05898e-18
9875.22940 6.01784e-18
9876.09086 5.99009e-18
9876.95232 5.96239e-18
9877.81379 5.95128e-18
9878.67525 5.94022e-18
9879.53671 5.94718e-18
9880.39817 5.95421e-18
9881.26965 5.97705e-18
9882.13111 5.99993e-18
9882.99257 6.03454e-18
9883.85404 6.06917e-18
9884.71550 6.10806e-18
9885.57696 6.14696e-18
9886.43842 6.18203e-18
9887.29988 6.21710e-18
9888.16135 6.24076e-18
9889.02281 6.26439e-18
9889.88427 6.27030e-18
9890.74573 6.27614e-18
9891.61721 6.26412e-18
9892.47867 6.25206e-18
9893.34014 6.22534e-18
9894.20160 6.19857e-18
9895.06306 6.16058e-18
9895.92452 6.12254e-18
9896.78598 6.07689e-18
9897.64745 6.03122e-18
9898.50891 5.98385e-18
9899.37037 5.93647e-18
9900.23183 5.89523e-18
9901.09329 5.85401e-18
9901.96477 5.82018e-18
9902.82623 5.78638e-18
9903.68770 5.75331e-18
9904.54916 5.72025e-18
9905.41062 5.68948e-18
9906.27208 5.65871e-18
9907.13354 5.64473e-18
9907.99501 5.63080e-18
9908.85647 5.64052e-18
9909.71793 5.65031e-18
9910.57939 5.67712e-18
9911.45087 5.70398e-18
9912.31233 5.73709e-18
9913.17380 5.77022e-18
9914.03526 5.78687e-18
9914.89672 5.80347e-18
9915.75818 5.78556e-18
9916.61964 5.76755e-18
9917.48111 5.72141e-18
9918.34257 5.67518e-18
9919.20403 5.61187e-18
9920.07551 5.54850e-18
9920.93697 5.48057e-18
9921.79843 5.41263e-18
9922.65989 5.35286e-18
9923.52136 5.29313e-18
9924.38282 5.24713e-18
9925.24428 5.20118e-18
9926.10574 5.17114e-18
9926.96720 5.14115e-18
9927.82867 5.11876e-18
9928.69013 5.09638e-18
9929.56161 5.06841e-18
9930.42307 5.04042e-18
9931.28453 5.00256e-18
9932.14599 4.96468e-18
9933.00746 4.91882e-18
9933.86892 4.87293e-18
9934.73038 4.82297e-18
9935.59184 4.77299e-18
9936.45330 4.72453e-18
9937.31477 4.67607e-18
9938.17623 4.63656e-18
9939.03769 4.59708e-18
9939.90917 4.57584e-18
9940.77063 4.55465e-18
9941.63209 4.55424e-18
9942.49355 4.55390e-18
9943.35502 4.56467e-18
9944.21648 4.57547e-18
9945.07794 4.58907e-18
9945.93940 4.60267e-18
9946.80086 4.61699e-18
9947.66233 4.63132e-18
9948.52379 4.64394e-18
9949.39527 4.65656e-18
9950.25673 4.66286e-18
9951.11819 4.66914e-18
9951.97965 4.66612e-18
9952.84112 4.66309e-18
9953.70258 4.65675e-18
9954.56404 4.65041e-18
9955.42550 4.64734e-18
9956.28696 4.64427e-18
9957.14843 4.64007e-18
9958.00989 4.63585e-18
9958.88137 4.62443e-18
9959.74283 4.61298e-18
9960.60429 4.59124e-18
9961.46575 4.56947e-18
9962.32721 4.53541e-18
9963.18868 4.50132e-18
9964.05014 4.46513e-18
9964.91160 4.42894e-18
9965.77306 4.40767e-18
9966.63452 4.38643e-18
9967.49599 4.38405e-18
9968.36747 4.38173e-18
9969.22893 4.39168e-18
9970.09039 4.40166e-18
9970.95185 4.42292e-18
9971.81331 4.44422e-18
9972.67477 4.48167e-18
9973.53624 4.51917e-18
9974.39770 4.57079e-18
9975.25916 4.62244e-18
9976.12062 4.67716e-18
9976.98208 4.73189e-18
9977.85356 4.78093e-18
9978.71503 4.82995e-18
9979.57649 4.86911e-18
9980.43795 4.90823e-18
9981.29941 4.93602e-18
9982.16087 4.96379e-18
9983.02234 4.98612e-18
9983.88380 5.00845e-18
9984.74526 5.03130e-18
9985.60672 5.05416e-18
9986.46818 5.08048e-18
9987.32965 5.10681e-18
9988.20112 5.13815e-18
9989.06259 5.16949e-18
9989.92405 5.19480e-18
9990.78551 5.22009e-18
9991.64697 5.22685e-18
9992.50843 5.23355e-18
9993.36990 5.23116e-18
9994.23136 5.22874e-18
9995.09282 5.23324e-18
9995.95428 5.23778e-18
9996.81574 5.24646e-18
9997.67721 5.25516e-18
9998.54869 5.25778e-18
9999.41015 5.26037e-18
