# wavelength flux
3199.87262 3.85845e-18
3201.87562 4.35587e-18
3203.86861 4.87596e-18
3205.87161 4.09452e-18
3207.87461 3.99655e-18
3209.86759 4.44855e-18
3211.87059 3.93847e-18
3213.87359 4.03500e-18
3215.87659 4.37560e-18
3217.86958 4.76768e-18
3219.87258 4.11455e-18
3221.87558 4.51248e-18
3223.86856 4.30873e-18
3225.87156 3.87623e-18
3227.87456 5.00341e-18
3229.86755 4.30962e-18
3231.87055 4.34270e-18
3233.87355 4.56789e-18
3235.86653 3.25448e-18
3237.86953 3.83550e-18
3239.87253 4.04353e-18
3241.87553 3.38473e-18
3243.86852 3.11573e-18
3245.87152 3.30667e-18
3247.87452 4.37626e-18
3249.86750 4.17378e-18
3251.87050 3.58880e-18
3253.87350 3.29325e-18
3255.86649 4.00695e-18
3257.86949 3.74264e-18
3259.87248 4.26955e-18
3261.86547 4.49722e-18
3263.86847 4.73306e-18
3265.87147 4.25462e-18
3267.87447 4.27573e-18
3269.86746 4.03017e-18
3271.87045 4.47362e-18
3273.87345 4.53137e-18
3275.86644 3.64290e-18
3277.86944 4.04585e-18
3279.87244 4.48425e-18
3281.86542 3.69004e-18
3283.86843 3.25682e-18
3285.87142 3.81601e-18
3287.86441 3.96486e-18
3289.86741 3.48883e-18
3291.87041 3.27340e-18
3293.87341 3.17066e-18
3295.86640 3.39495e-18
3297.86940 3.61863e-18
3299.87239 3.61391e-18
3301.86538 3.52854e-18
3303.86838 3.98936e-18
3305.87138 3.54115e-18
3307.86436 3.30597e-18
3309.86737 3.13048e-18
3311.87037 3.49495e-18
3313.86335 3.12534e-18
3315.86635 3.70510e-18
3317.86935 3.38469e-18
3319.87235 3.70548e-18
3321.86533 3.20556e-18
3323.86834 3.15379e-18
3325.87134 3.26415e-18
3327.86432 3.48609e-18
3329.86732 2.92551e-18
3331.87032 3.02707e-18
3333.86330 2.90510e-18
3335.86631 3.45401e-18
3337.86931 3.59405e-18
3339.86229 3.71480e-18
3341.86529 3.20352e-18
3343.86829 2.69355e-18
3345.87129 2.69006e-18
3347.86427 3.19245e-18
3349.86728 3.69420e-18
3351.87028 3.19732e-18
3353.86326 3.41198e-18
3355.86626 3.20693e-18
3357.86926 3.32718e-18
3359.86225 3.18131e-18
3361.86524 2.32975e-18
3363.86825 3.33705e-18
3365.86123 3.13448e-18
3367.86423 3.83175e-18
3369.86723 3.76528e-18
3371.87023 3.65698e-18
3373.86322 2.88136e-18
3375.86622 3.06246e-18
3377.86922 3.34473e-18
3379.86220 3.55260e-18
3381.86520 3.59421e-18
3383.86820 3.70589e-18
3385.86119 3.12902e-18
3387.86419 3.07953e-18
3389.86719 3.17828e-18
3391.86017 3.66957e-18
3393.86317 4.07791e-18
3395.86617 3.55284e-18
3397.86917 3.56340e-18
3399.86216 3.58189e-18
3401.86515 3.49745e-18
3403.86816 3.77985e-18
3405.86114 4.08655e-18
3407.86414 3.63567e-18
3409.86714 3.61801e-18
3411.86013 3.91748e-18
3413.86313 3.63513e-18
3415.86613 3.93159e-18
3417.85911 3.80949e-18
3419.86211 4.19113e-18
3421.86511 4.30180e-18
3423.86811 4.62913e-18
3425.86110 4.64151e-18
3427.86410 4.47230e-18
3429.86710 4.48890e-18
3431.86008 4.64876e-18
3433.86308 4.42075e-18
3435.86608 4.49602e-18
3437.85907 4.23115e-18
3439.86207 4.45888e-18
3441.86507 4.46791e-18
3443.85805 4.44426e-18
3445.86105 3.58538e-18
3447.86405 3.46884e-18
3449.86705 4.23533e-18
3451.86004 4.52699e-18
3453.86304 4.69406e-18
3455.86604 4.71674e-18
3457.85902 4.74881e-18
3459.86202 4.31860e-18
3461.86502 4.38257e-18
3463.85801 4.59467e-18
3465.86101 4.40136e-18
3467.86401 4.72756e-18
3469.85699 4.75889e-18
3471.85999 4.89935e-18
3473.86299 4.26855e-18
3475.86599 4.39510e-18
3477.85898 4.58147e-18
3479.86198 4.73218e-18
3481.86498 4.40335e-18
3483.85796 4.68145e-18
3485.86096 4.62466e-18
3487.86396 4.47559e-18
3489.85695 4.60882e-18
3491.85995 4.77784e-18
3493.86295 4.71672e-18
3495.85593 4.62321e-18
3497.85893 4.21191e-18
3499.86193 4.45032e-18
3501.86493 4.41907e-18
3503.85792 4.79941e-18
3505.86092 4.91520e-18
3507.86392 4.70938e-18
3509.85690 4.60190e-18
3511.85990 4.40047e-18
3513.86290 4.58118e-18
3515.85589 4.62105e-18
3517.85889 4.62231e-18
3519.86189 4.51260e-18
3521.85487 4.55844e-18
3523.85787 4.76052e-18
3525.86087 4.69092e-18
3527.86387 4.37232e-18
3529.85686 4.55915e-18
3531.85986 4.65450e-18
3533.86286 4.55090e-18
3535.85584 4.94181e-18
3537.85884 4.95157e-18
3539.86184 4.76126e-18
3541.85483 5.13753e-18
3543.85783 4.96354e-18
3545.86083 4.78921e-18
3547.85381 5.25134e-18
3549.85681 5.10023e-18
3551.85981 4.99336e-18
3553.86281 4.90162e-18
3555.85580 5.06783e-18
3557.85880 4.85331e-18
3559.86180 5.09777e-18
3561.85478 4.60002e-18
3563.85778 4.50292e-18
3565.86078 4.88351e-18
3567.85377 4.65652e-18
3569.85677 5.06193e-18
3571.85977 4.72620e-18
3573.85275 4.88309e-18
3575.85575 4.76847e-18
3577.85875 4.86462e-18
3579.86175 4.89733e-18
3581.85473 4.53834e-18
3583.85774 4.56681e-18
3585.86074 4.93568e-18
3587.85372 5.00725e-18
3589.85672 4.96042e-18
3591.85972 4.63458e-18
3593.85270 4.85922e-18
3595.85570 4.76886e-18
3597.85871 4.56499e-18
3599.85169 4.85469e-18
3601.85469 5.21628e-18
3603.85769 5.32944e-18
3605.86069 4.72600e-18
3607.85367 5.02234e-18
3609.85667 5.01528e-18
3611.85968 4.74210e-18
3613.85266 4.86968e-18
3615.85566 4.86118e-18
3617.85866 4.78829e-18
3619.85165 4.80750e-18
3621.85464 4.69648e-18
3623.85765 4.61156e-18
3625.85063 4.66644e-18
3627.85363 4.91271e-18
3629.85663 4.98145e-18
3631.85963 4.91128e-18
3633.85262 4.82958e-18
3635.85561 4.61348e-18
3637.85862 4.47971e-18
3639.85160 4.61654e-18
3641.85460 4.80791e-18
3643.85760 4.71950e-18
3645.85059 4.99353e-18
3647.85359 4.80518e-18
3649.85658 4.54234e-18
3651.84957 4.62993e-18
3653.85257 4.53253e-18
3655.85557 4.61375e-18
3657.85857 4.55678e-18
3659.85156 5.14356e-18
3661.85455 4.67922e-18
3663.85756 5.10938e-18
3665.85054 4.95325e-18
3667.85354 4.63082e-18
3669.85654 4.89716e-18
3671.84953 4.96496e-18
3673.85253 5.20885e-18
3675.85552 5.33376e-18
3677.84851 5.34814e-18
3679.85151 5.28742e-18
3681.85451 5.38702e-18
3683.85751 5.09733e-18
3685.85050 4.90722e-18
3687.85350 5.12234e-18
3689.85649 5.16038e-18
3691.84948 5.15184e-18
3693.85248 5.10611e-18
3695.85548 5.15406e-18
3697.84847 5.27373e-18
3699.85147 5.15899e-18
3701.85447 4.94593e-18
3703.84745 4.98799e-18
3705.85045 5.18581e-18
3707.85345 4.92013e-18
3709.85645 4.25137e-18
3711.84944 4.33150e-18
3713.85244 4.30814e-18
3715.85544 4.28478e-18
3717.84842 4.23973e-18
3719.85142 4.19468e-18
3721.85442 4.14964e-18
3723.84740 4.10461e-18
3725.85041 4.05958e-18
3727.85341 4.01457e-18
3729.84639 3.96956e-18
3731.84939 3.92456e-18
3733.85239 3.87956e-18
3735.85539 3.83457e-18
3737.84838 3.78960e-18
3739.85138 3.74462e-18
3741.85438 3.69966e-18
3743.84736 3.65469e-18
3745.85036 3.60974e-18
3747.85336 3.56480e-18
3749.84635 3.51986e-18
3751.84935 3.47493e-18
3753.85235 3.43000e-18
3755.84533 3.29476e-18
3757.84833 3.67997e-18
3759.85133 4.06195e-18
3761.85433 4.00898e-18
3763.84732 3.95631e-18
3765.85032 3.85027e-18
3767.85332 3.84522e-18
3769.84630 3.86872e-18
3771.84930 3.56248e-18
3773.85230 3.45375e-18
3775.84529 3.40248e-18
3777.84829 3.37117e-18
3779.85129 3.41200e-18
3781.84427 3.83699e-18
3783.84727 4.35395e-18
3785.85027 4.54497e-18
3787.85327 4.61915e-18
3789.84626 4.28029e-18
3791.84926 3.97587e-18
3793.85226 4.05467e-18
3795.84524 3.89383e-18
3797.84824 3.88056e-18
3799.85124 3.54871e-18
3801.84423 2.97089e-18
3803.84723 2.99814e-18
3805.85023 3.36018e-18
3807.85323 3.71467e-18
3809.84621 4.05459e-18
3811.84921 4.21648e-18
3813.85221 4.29394e-18
3815.84520 4.43942e-18
3817.84820 4.30248e-18
3819.85120 4.17586e-18
3821.84418 4.31821e-18
3823.84718 4.45103e-18
3825.85018 4.46545e-18
3827.84317 4.50325e-18
3829.84617 4.48887e-18
3831.84917 4.31860e-18
3833.84215 4.31322e-18
3835.84515 4.11063e-18
3837.84815 3.98792e-18
3839.85115 3.79903e-18
3841.84414 3.91650e-18
3843.84714 4.08682e-18
3845.85014 4.55481e-18
3847.84312 5.09509e-18
3849.84612 5.50393e-18
3851.84912 5.77946e-18
3853.84211 5.88208e-18
3855.84511 6.21574e-18
3857.84811 6.31865e-18
3859.84109 6.37524e-18
3861.84409 6.61732e-18
3863.84709 6.73313e-18
3865.85009 7.07935e-18
3867.84308 7.27859e-18
3869.84608 7.39099e-18
3871.84908 7.64388e-18
3873.84206 7.53342e-18
3875.84506 7.82056e-18
3877.84806 7.62432e-18
3879.84105 7.70524e-18
3881.84405 8.02529e-18
3883.84705 8.02679e-18
3885.84003 7.74973e-18
3887.84303 7.85838e-18
3889.84603 7.89932e-18
3891.84903 7.65574e-18
3893.84202 7.47417e-18
3895.84502 7.67125e-18
3897.84802 8.09637e-18
3899.84100 8.28827e-18
3901.84400 8.64875e-18
3903.84700 8.80854e-18
3905.83999 9.02017e-18
3907.84299 8.96729e-18
3909.84598 9.08019e-18
3911.84899 9.40795e-18
3913.84197 9.52505e-18
3915.84497 9.74825e-18
3917.84797 9.67189e-18
3919.84096 9.85785e-18
3921.84395 9.76542e-18
3923.84695 9.33387e-18
3925.83994 9.41215e-18
3927.84294 9.41619e-18
3929.84594 9.38530e-18
3931.83893 9.06794e-18
3933.84193 8.67255e-18
3935.84492 8.18498e-18
3937.84793 7.52791e-18
3939.84091 7.53586e-18
3941.84391 8.33642e-18
3943.84691 8.94945e-18
3945.83990 9.48660e-18
3947.84290 9.57193e-18
3949.84589 9.65103e-18
3951.83888 9.81591e-18
3953.84188 1.00120e-17
3955.84488 9.93652e-18
3957.83786 9.90133e-18
3959.84087 9.82019e-18
3961.84387 9.92019e-18
3963.84686 9.70861e-18
3965.83985 9.48973e-18
3967.84285 9.35787e-18
3969.84585 9.10822e-18
3971.83884 7.87608e-18
3973.84184 7.40868e-18
3975.84483 7.82103e-18
3977.83782 8.44036e-18
3979.84082 8.80452e-18
3981.84382 9.45124e-18
3983.83680 9.81823e-18
3985.83981 1.01039e-17
3987.84281 1.03515e-17
3989.83579 1.04176e-17
3991.83879 1.06459e-17
3993.84179 1.05340e-17
3995.84479 1.07240e-17
3997.83777 1.08280e-17
3999.84078 1.10032e-17
4001.84378 1.07740e-17
4003.83676 1.10422e-17
4005.83976 1.13192e-17
4007.84276 1.10906e-17
4009.83575 1.12522e-17
4011.83875 1.15483e-17
4013.84175 1.15528e-17
4015.84475 1.16283e-17
4017.83773 1.16691e-17
4019.84073 1.17203e-17
4021.84373 1.13269e-17
4023.83672 1.17631e-17
4025.83972 1.19802e-17
4027.84272 1.18879e-17
4029.83570 1.15266e-17
4031.83870 1.15287e-17
4033.84170 1.15070e-17
4035.83469 1.15142e-17
4037.83769 1.12631e-17
4039.84069 1.13465e-17
4041.84369 1.14366e-17
4043.83667 1.14310e-17
4045.83967 1.13195e-17
4047.84267 1.18647e-17
4049.83566 1.16338e-17
4051.83866 1.10303e-17
4053.84166 1.09906e-17
4055.83464 1.09861e-17
4057.83764 1.10972e-17
4059.84064 1.10326e-17
4061.83363 1.06470e-17
4063.83663 1.05642e-17
4065.83963 1.08590e-17
4067.84263 1.06595e-17
4069.83561 1.03208e-17
4071.83861 1.03876e-17
4073.84161 1.04925e-17
4075.83460 1.03542e-17
4077.83760 1.01345e-17
4079.84060 1.01981e-17
4081.83358 1.01052e-17
4083.83658 9.99832e-18
4085.83958 1.03181e-17
4087.83257 1.01244e-17
4089.83557 1.02175e-17
4091.83857 1.00937e-17
4093.84157 1.00230e-17
4095.83455 9.94697e-18
4097.83755 9.97228e-18
4099.84055 9.58771e-18
4101.83354 9.48569e-18
4103.83653 8.85052e-18
4105.83954 8.41804e-18
4107.83252 8.24858e-18
4109.83552 8.39301e-18
4111.83852 8.64672e-18
4113.83151 8.69593e-18
4115.83451 8.94964e-18
4117.83751 8.88582e-18
4119.84051 9.09554e-18
4121.83349 9.07465e-18
4123.83649 9.48755e-18
4125.83949 9.17790e-18
4127.83248 9.05581e-18
4129.83547 9.11058e-18
4131.83847 9.21464e-18
4133.83146 9.19911e-18
4135.83446 8.77298e-18
4137.83746 8.98755e-18
4139.83045 8.88658e-18
4141.83345 9.04730e-18
4143.83644 9.09156e-18
4145.82943 9.28690e-18
4147.83243 9.23849e-18
4149.83543 9.00612e-18
4151.83843 8.98004e-18
4153.83141 9.06659e-18
4155.83442 9.30409e-18
4157.83741 8.89168e-18
4159.83040 9.02107e-18
4161.83340 8.79525e-18
4163.83640 8.82393e-18
4165.82939 9.02907e-18
4167.83239 8.92022e-18
4169.83539 8.83847e-18
4171.83839 8.76786e-18
4173.83137 8.85146e-18
4175.83437 8.95320e-18
4177.83737 8.72203e-18
4179.83036 8.45991e-18
4181.83335 8.47821e-18
4183.83636 8.97731e-18
4185.82934 8.86265e-18
4187.83234 8.74837e-18
4189.83534 8.73957e-18
4191.82833 8.57746e-18
4193.83133 8.58851e-18
4195.83433 8.75784e-18
4197.83733 8.75960e-18
4199.83031 8.81699e-18
4201.83331 8.63486e-18
4203.83631 8.45869e-18
4205.82929 8.51632e-18
4207.83230 8.64035e-18
4209.83529 8.84406e-18
4211.82828 9.04014e-18
4213.83128 9.09404e-18
4215.83428 9.21663e-18
4217.82727 9.08997e-18
4219.83027 8.80389e-18
4221.83327 9.21461e-18
4223.83627 9.27623e-18
4225.82925 9.45654e-18
4227.83225 9.47384e-18
4229.83525 9.26700e-18
4231.82823 9.06299e-18
4233.83123 8.89365e-18
4235.83424 9.19491e-18
4237.82722 9.51949e-18
4239.83022 9.40951e-18
4241.83322 9.37046e-18
4243.82621 9.41199e-18
4245.82921 9.47074e-18
4247.83221 9.39230e-18
4249.83521 9.73631e-18
4251.82819 9.74266e-18
4253.83119 9.77895e-18
4255.83419 9.53091e-18
4257.82718 9.47150e-18
4259.83018 9.42569e-18
4261.83317 9.50740e-18
4263.82616 9.46679e-18
4265.82916 9.43010e-18
4267.83216 9.40888e-18
4269.82515 9.69542e-18
4271.82815 9.97005e-18
4273.83115 9.82422e-18
4275.83415 9.31638e-18
4277.82713 9.32754e-18
4279.83013 9.33874e-18
4281.83313 9.34984e-18
4283.82611 9.36094e-18
4285.82912 9.37204e-18
4287.83212 9.38310e-18
4289.82510 9.39406e-18
4291.82810 9.38481e-18
4293.83110 9.39554e-18
4295.82409 9.35602e-18
4297.82709 9.34922e-18
4299.83009 9.61418e-18
4301.83309 9.30653e-18
4303.82607 9.39933e-18
4305.82907 9.13727e-18
4307.83207 9.17114e-18
4309.82506 9.15345e-18
4311.82805 9.05697e-18
4313.83106 9.03330e-18
4315.82404 9.15937e-18
4317.82704 9.09666e-18
4319.83004 9.44480e-18
4321.82303 9.79346e-18
4323.82603 9.94810e-18
4325.82903 9.84035e-18
4327.83203 9.61897e-18
4329.82501 9.29335e-18
4331.82801 9.07992e-18
4333.83101 9.26168e-18
4335.82399 9.22569e-18
4337.82700 9.24229e-18
4339.83000 9.16466e-18
4341.82298 8.82534e-18
4343.82598 8.59620e-18
4345.82898 8.47764e-18
4347.82197 8.46192e-18
4349.82497 8.49821e-18
4351.82797 8.54192e-18
4353.83097 8.58561e-18
4355.82395 8.62931e-18
4357.82695 8.67300e-18
4359.82995 8.71669e-18
4361.82294 8.76036e-18
4363.82593 8.80404e-18
4365.82894 8.84771e-18
4367.82192 8.89136e-18
4369.82492 8.93503e-18
4371.82792 8.97868e-18
4373.82091 9.02232e-18
4375.82391 9.06596e-18
4377.82691 9.10960e-18
4379.82991 9.15324e-18
4381.82289 9.19685e-18
4383.82589 9.24048e-18
4385.82889 9.28409e-18
4387.82188 9.32769e-18
4389.82488 8.94534e-18
4391.82787 8.77183e-18
4393.82086 8.89179e-18
4395.82386 8.93653e-18
4397.82686 8.96544e-18
4399.81984 9.08909e-18
4401.82284 8.94548e-18
4403.82584 8.87961e-18
4405.82885 9.04163e-18
4407.82183 9.13851e-18
4409.82483 9.03167e-18
4411.82783 8.75596e-18
4413.82082 8.92901e-18
4415.82382 8.93525e-18
4417.82682 8.96473e-18
4419.81980 9.02796e-18
4421.82280 8.92180e-18
4423.82580 8.94683e-18
4425.81878 8.95132e-18
4427.82179 9.00495e-18
4429.82478 9.06985e-18
4431.82778 9.15601e-18
4433.82077 9.13394e-18
4435.82377 9.06778e-18
4437.82677 9.06571e-18
4439.81976 8.91780e-18
4441.82276 8.75644e-18
4443.82576 8.89932e-18
4445.81874 9.10811e-18
4447.82174 9.03794e-18
4449.82474 9.12246e-18
4451.81772 9.20668e-18
4453.82072 9.42617e-18
4455.82373 9.45957e-18
4457.82672 9.56254e-18
4459.81971 9.51898e-18
4461.82271 9.31567e-18
4463.82571 9.14326e-18
4465.81869 9.36533e-18
4467.82170 9.62451e-18
4469.82470 9.67551e-18
4471.81768 1.00227e-17
4473.82068 1.01278e-17
4475.82368 1.00578e-17
4477.81667 1.00961e-17
4479.81966 1.03725e-17
4481.82266 1.07593e-17
4483.82567 1.07837e-17
4485.81865 1.08080e-17
4487.82165 1.07978e-17
4489.82465 1.10494e-17
4491.81764 1.11904e-17
4493.82064 1.12709e-17
4495.82364 1.12447e-17
4497.81662 1.14517e-17
4499.81962 1.14523e-17
4501.82262 1.17183e-17
4503.81560 1.21488e-17
4505.81861 1.22035e-17
4507.82161 1.23185e-17
4509.82460 1.25692e-17
4511.81759 1.28300e-17
4513.82059 1.28754e-17
4515.82359 1.28899e-17
4517.81658 1.30313e-17
4519.81958 1.30638e-17
4521.82258 1.32213e-17
4523.81556 1.33517e-17
4525.81856 1.33468e-17
4527.82156 1.33307e-17
4529.81455 1.33853e-17
4531.81754 1.33604e-17
4533.82054 1.31631e-17
4535.82355 1.31581e-17
4537.81653 1.32866e-17
4539.81953 1.34387e-17
4541.82253 1.33978e-17
4543.81552 1.36051e-17
4545.81852 1.39248e-17
4547.82152 1.40389e-17
4549.81450 1.41420e-17
4551.81750 1.41590e-17
4553.82050 1.41718e-17
4555.81348 1.41449e-17
4557.81649 1.41312e-17
4559.81948 1.41963e-17
4561.82248 1.44934e-17
4563.81547 1.47262e-17
4565.81847 1.50258e-17
4567.82147 1.49440e-17
4569.81446 1.51596e-17
4571.81746 1.49981e-17
4573.82046 1.47298e-17
4575.81344 1.50283e-17
4577.81644 1.51256e-17
4579.81944 1.51321e-17
4581.81243 1.52620e-17
4583.81542 1.51498e-17
4585.81843 1.49264e-17
4587.82143 1.47806e-17
4589.81441 1.48571e-17
4591.81741 1.49881e-17
4593.82041 1.49153e-17
4595.81340 1.49552e-17
4597.81640 1.49269e-17
4599.81940 1.49543e-17
4601.81238 1.50818e-17
4603.81538 1.48927e-17
4605.81838 1.51491e-17
4607.82138 1.51224e-17
4609.81437 1.50992e-17
4611.81736 1.52803e-17
4613.82037 1.54728e-17
4615.81335 1.54533e-17
4617.81635 1.54341e-17
4619.81935 1.53935e-17
4621.81234 1.53709e-17
4623.81534 1.53079e-17
4625.81834 1.52805e-17
4627.81132 1.51022e-17
4629.81432 1.50458e-17
4631.81732 1.51489e-17
4633.82032 1.52494e-17
4635.81331 1.49426e-17
4637.81631 1.49611e-17
4639.81930 1.50091e-17
4641.81229 1.47411e-17
4643.81529 1.48214e-17
4645.81829 1.46207e-17
4647.81128 1.45725e-17
4649.81428 1.45554e-17
4651.81728 1.43740e-17
4653.81026 1.41291e-17
4655.81326 1.41520e-17
4657.81626 1.40726e-17
4659.80925 1.40956e-17
4661.81225 1.41099e-17
4663.81524 1.43493e-17
4665.81825 1.42515e-17
4667.81123 1.41186e-17
4669.81423 1.39091e-17
4671.81723 1.36472e-17
4673.81022 1.34669e-17
4675.81322 1.34732e-17
4677.81622 1.34743e-17
4679.80920 1.35057e-17
4681.81220 1.36282e-17
4683.81520 1.35763e-17
4685.80818 1.34195e-17
4687.81119 1.33033e-17
4689.81419 1.33009e-17
4691.81718 1.32569e-17
4693.81017 1.32079e-17
4695.81317 1.30382e-17
4697.81617 1.30472e-17
4699.80916 1.28095e-17
4701.81216 1.26792e-17
4703.81516 1.27401e-17
4705.80814 1.26015e-17
4707.81114 1.23493e-17
4709.81414 1.22923e-17
4711.80713 1.23103e-17
4713.81012 1.22546e-17
4715.81313 1.21746e-17
4717.81613 1.21701e-17
4719.80911 1.21656e-17
4721.81211 1.22752e-17
4723.81511 1.22184e-17
4725.80809 1.20000e-17
4727.81110 1.21948e-17
4729.81409 1.23831e-17
4731.80708 1.22187e-17
4733.81008 1.19074e-17
4735.81308 1.18725e-17
4737.80607 1.16422e-17
4739.80907 1.16377e-17
4741.81207 1.17645e-17
4743.81507 1.17490e-17
4745.80805 1.17902e-17
4747.81105 1.18186e-17
4749.81405 1.18058e-17
4751.80703 1.18197e-17
4753.81003 1.17502e-17
4755.81304 1.16686e-17
4757.80602 1.15252e-17
4759.80902 1.12116e-17
4761.81202 1.10643e-17
4763.80501 1.10406e-17
4765.80801 1.08444e-17
4767.81101 1.07523e-17
4769.81401 1.06279e-17
4771.80699 1.04292e-17
4773.80999 1.02805e-17
4775.81299 1.03399e-17
4777.80598 1.03639e-17
4779.80897 1.04534e-17
4781.81197 1.03678e-17
4783.80496 1.04344e-17
4785.80796 1.03694e-17
4787.81096 1.02510e-17
4789.80395 1.01596e-17
4791.80695 1.00916e-17
4793.80994 1.01576e-17
4795.81295 1.01817e-17
4797.80593 1.02100e-17
4799.80893 1.02900e-17
4801.81193 1.01997e-17
4803.80491 1.02119e-17
4805.80792 1.02704e-17
4807.81092 1.03093e-17
4809.80390 1.02486e-17
4811.80690 1.02644e-17
4813.80990 1.02549e-17
4815.81290 1.03856e-17
4817.80589 1.04027e-17
4819.80889 1.05300e-17
4821.81189 1.05683e-17
4823.80487 1.05648e-17
4825.80787 1.06632e-17
4827.81087 1.07530e-17
4829.80386 1.08817e-17
4831.80685 1.07980e-17
4833.80986 1.08073e-17
4835.80284 1.08772e-17
4837.80584 1.08170e-17
4839.80884 1.07762e-17
4841.81184 1.08802e-17
4843.80483 1.07661e-17
4845.80783 1.06927e-17
4847.81083 1.07309e-17
4849.80381 1.06772e-17
4851.80681 1.06667e-17
4853.80981 1.06562e-17
4855.80279 1.06457e-17
4857.80580 1.06352e-17
4859.80879 1.06247e-17
4861.80178 1.06143e-17
4863.80478 1.06038e-17
4865.80778 1.05933e-17
4867.81078 1.05828e-17
4869.80377 1.05723e-17
4871.80677 1.05619e-17
4873.80977 1.05514e-17
4875.80275 1.05409e-17
4877.80575 1.05305e-17
4879.80875 1.05200e-17
4881.80174 1.05095e-17
4883.80473 1.04991e-17
4885.80774 1.04886e-17
4887.80072 1.04781e-17
4889.80372 1.03714e-17
4891.80672 1.04557e-17
4893.80972 1.06843e-17
4895.80271 1.05887e-17
4897.80571 1.05975e-17
4899.80871 1.07814e-17
4901.80169 1.09915e-17
4903.80469 1.12001e-17
4905.80769 1.12554e-17
4907.80068 1.11902e-17
4909.80368 1.12790e-17
4911.80667 1.13452e-17
4913.79966 1.15329e-17
4915.80266 1.16606e-17
4917.80566 1.17261e-17
4919.80866 1.18568e-17
4921.80165 1.18410e-17
4923.80465 1.19486e-17
4925.80765 1.20438e-17
4927.80063 1.20647e-17
4929.80363 1.20408e-17
4931.80663 1.22561e-17
4933.79961 1.26110e-17
4935.80262 1.27627e-17
4937.80562 1.29039e-17
4939.79860 1.28615e-17
4941.80160 1.30124e-17
4943.80460 1.30968e-17
4945.80760 1.31232e-17
4947.80059 1.31205e-17
4949.80359 1.31214e-17
4951.80659 1.31223e-17
4953.79957 1.31232e-17
4955.80257 1.31241e-17
4957.80557 1.31250e-17
4959.79856 1.31259e-17
4961.80156 1.31268e-17
4963.80456 1.31277e-17
4965.79754 1.31286e-17
4967.80054 1.31295e-17
4969.80354 1.31304e-17
4971.79653 1.31313e-17
4973.79953 1.31322e-17
4975.80253 1.31331e-17
4977.80553 1.31340e-17
4979.79851 1.31349e-17
4981.80151 1.31358e-17
4983.80451 1.31367e-17
4985.79749 1.31376e-17
4987.80050 1.28720e-17
4989.80350 1.25036e-17
4991.79648 1.23951e-17
4993.79948 1.23104e-17
4995.80248 1.22490e-17
4997.80548 1.21217e-17
4999.79847 1.19945e-17
5001.80147 1.18673e-17
5003.80447 1.17401e-17
5005.79745 1.16129e-17
5007.80045 1.14857e-17
5009.80345 1.13586e-17
5011.79644 1.12314e-17
5013.79943 1.11043e-17
5015.80244 1.09772e-17
5017.79542 1.08501e-17
5019.79842 1.07231e-17
5021.80142 1.05960e-17
5023.80442 1.04689e-17
5025.79741 1.03419e-17
5027.80041 1.02149e-17
5029.80341 1.00879e-17
5031.79639 9.96096e-18
5033.79939 9.83399e-18
5035.80239 9.91383e-18
5037.79538 1.00887e-17
5039.79838 1.01028e-17
5041.80138 9.95969e-18
5043.79436 9.85473e-18
5045.79736 9.70349e-18
5047.80036 9.60611e-18
5049.80336 9.62208e-18
5051.79634 9.92391e-18
5053.79934 1.00493e-17
5055.80235 1.00068e-17
5057.79533 1.00121e-17
5059.79833 9.92202e-18
5061.80133 1.00758e-17
5063.79432 1.02412e-17
5065.79732 1.03273e-17
5067.80032 1.02788e-17
5069.79330 1.04860e-17
5071.79630 1.05585e-17
5073.79930 1.05268e-17
5075.80230 1.06194e-17
5077.79529 1.08528e-17
5079.79828 1.07545e-17
5081.80128 1.07844e-17
5083.79427 1.09657e-17
5085.79727 1.10588e-17
5087.80027 1.09444e-17
5089.79326 1.10283e-17
5091.79626 1.12516e-17
5093.79926 1.14190e-17
5095.79224 1.13543e-17
5097.79524 1.14577e-17
5099.79824 1.15897e-17
5101.80124 1.17753e-17
5103.79422 1.18154e-17
5105.79723 1.18565e-17
5107.80022 1.19066e-17
5109.79321 1.17803e-17
5111.79621 1.19550e-17
5113.79921 1.21561e-17
5115.79219 1.20469e-17
5117.79520 1.21838e-17
5119.79820 1.23795e-17
5121.79118 1.22143e-17
5123.79418 1.24073e-17
5125.79718 1.25184e-17
5127.80018 1.24605e-17
5129.79317 1.24770e-17
5131.79616 1.24818e-17
5133.79917 1.23902e-17
5135.79215 1.23642e-17
5137.79515 1.24929e-17
5139.79815 1.24065e-17
5141.79114 1.24185e-17
5143.79414 1.23469e-17
5145.79714 1.24149e-17
5147.79012 1.25753e-17
5149.79312 1.26346e-17
5151.79612 1.25341e-17
5153.79912 1.25458e-17
5155.79211 1.25818e-17
5157.79511 1.27131e-17
5159.79810 1.26304e-17
5161.79109 1.27151e-17
5163.79409 1.26349e-17
5165.79709 1.26075e-17
5167.79008 1.26588e-17
5169.79308 1.26720e-17
5171.79608 1.27242e-17
5173.78906 1.25911e-17
5175.79206 1.22066e-17
5177.79506 1.22696e-17
5179.79806 1.24301e-17
5181.79104 1.24034e-17
5183.79404 1.24984e-17
5185.79705 1.25134e-17
5187.79003 1.26021e-17
5189.79303 1.26485e-17
5191.79603 1.25899e-17
5193.78902 1.27859e-17
5195.79202 1.30016e-17
5197.79502 1.30773e-17
5199.78800 1.28471e-17
5201.79100 1.28923e-17
5203.79400 1.30849e-17
5205.79700 1.31082e-17
5207.78999 1.31314e-17
5209.79299 1.31546e-17
5211.79598 1.31438e-17
5213.78897 1.33506e-17
5215.79197 1.32523e-17
5217.79497 1.33690e-17
5219.78796 1.35780e-17
5221.79096 1.36546e-17
5223.79396 1.37166e-17
5225.78694 1.37927e-17
5227.78994 1.38635e-17
5229.79294 1.38947e-17
5231.79594 1.37929e-17
5233.78892 1.39046e-17
5235.79193 1.40101e-17
5237.79493 1.38726e-17
5239.78791 1.40430e-17
5241.79091 1.41269e-17
5243.79391 1.43028e-17
5245.78690 1.44059e-17
5247.78990 1.45546e-17
5249.79290 1.45807e-17
5251.78588 1.45224e-17
5253.78888 1.45992e-17
5255.79188 1.48787e-17
5257.79488 1.48611e-17
5259.78787 1.47171e-17
5261.79086 1.49521e-17
5263.79387 1.48562e-17
5265.78685 1.48066e-17
5267.78985 1.50509e-17
5269.79285 1.48165e-17
5271.78584 1.48552e-17
5273.78884 1.46381e-17
5275.79184 1.45729e-17
5277.78482 1.47288e-17
5279.78782 1.48610e-17
5281.79082 1.49168e-17
5283.79382 1.50406e-17
5285.78681 1.51958e-17
5287.78981 1.48845e-17
5289.79281 1.50116e-17
5291.78579 1.51736e-17
5293.78879 1.52702e-17
5295.79179 1.54848e-17
5297.78478 1.54760e-17
5299.78778 1.54359e-17
5301.79078 1.51930e-17
5303.78376 1.53639e-17
5305.78676 1.50657e-17
5307.78976 1.51822e-17
5309.79276 1.51709e-17
5311.78575 1.52549e-17
5313.78874 1.51650e-17
5315.79175 1.56297e-17
5317.78473 1.54307e-17
5319.78773 1.57174e-17
5321.79073 1.57498e-17
5323.78372 1.56708e-17
5325.78672 1.57807e-17
5327.78972 1.57316e-17
5329.78270 1.56826e-17
5331.78570 1.56336e-17
5333.78870 1.56211e-17
5335.79170 1.53790e-17
5337.78469 1.54890e-17
5339.78769 1.55866e-17
5341.79068 1.57616e-17
5343.78367 1.58576e-17
5345.78667 1.59646e-17
5347.78967 1.61151e-17
5349.78266 1.59725e-17
5351.78566 1.65334e-17
5353.78866 1.66624e-17
5355.78164 1.64501e-17
5357.78464 1.65070e-17
5359.78764 1.67959e-17
5361.79064 1.69138e-17
5363.78363 1.67623e-17
5365.78663 1.70262e-17
5367.78963 1.68286e-17
5369.78261 1.69054e-17
5371.78561 1.68105e-17
5373.78861 1.65482e-17
5375.78159 1.63530e-17
5377.78460 1.64862e-17
5379.78759 1.63116e-17
5381.78058 1.64135e-17
5383.78358 1.66094e-17
5385.78658 1.63961e-17
5387.78958 1.67929e-17
5389.78257 1.62930e-17
5391.78557 1.64482e-17
5393.78857 1.61472e-17
5395.78155 1.63277e-17
5397.78455 1.64923e-17
5399.78755 1.62738e-17
5401.78053 1.62224e-17
5403.78353 1.64267e-17
5405.78654 1.62591e-17
5407.77952 1.65904e-17
5409.78252 1.64663e-17
5411.78552 1.60432e-17
5413.78852 1.63695e-17
5415.78151 1.59449e-17
5417.78451 1.60893e-17
5419.78751 1.63589e-17
5421.78049 1.64949e-17
5423.78349 1.65279e-17
5425.78649 1.63506e-17
5427.77948 1.64016e-17
5429.78247 1.66343e-17
5431.78547 1.63804e-17
5433.78848 1.62402e-17
5435.78146 1.65891e-17
5437.78446 1.63351e-17
5439.78746 1.62461e-17
5441.78045 1.63945e-17
5443.78345 1.68051e-17
5445.78645 1.68313e-17
5447.77943 1.65786e-17
5449.78243 1.67655e-17
5451.78543 1.70022e-17
5453.77841 1.68474e-17
5455.78142 1.64985e-17
5457.78442 1.70281e-17
5459.77740 1.68666e-17
5461.78040 1.63216e-17
5463.78340 1.63596e-17
5465.78640 1.68677e-17
5467.77939 1.69077e-17
5469.78239 1.67892e-17
5471.78539 1.65947e-17
5473.77837 1.66844e-17
5475.78137 1.64865e-17
5477.78437 1.62826e-17
5479.77736 1.64665e-17
5481.78035 1.64527e-17
5483.78335 1.62083e-17
5485.77634 1.59342e-17
5487.77934 1.63135e-17
5489.78234 1.58959e-17
5491.78534 1.57069e-17
5493.77833 1.60059e-17
5495.78133 1.56626e-17
5497.78433 1.56481e-17
5499.77731 1.57152e-17
5501.78031 1.53242e-17
5503.78331 1.49222e-17
5505.77629 1.50556e-17
5507.77930 1.51784e-17
5509.78229 1.49598e-17
5511.77528 1.46581e-17
5513.77828 1.48175e-17
5515.78128 1.45296e-17
5517.78428 1.44260e-17
5519.77727 1.41900e-17
5521.78027 1.40328e-17
5523.78327 1.40810e-17
5525.77625 1.41823e-17
5527.77925 1.43541e-17
5529.78225 1.42972e-17
5531.77524 1.41518e-17
5533.77823 1.36784e-17
5535.78124 1.38014e-17
5537.77422 1.36649e-17
5539.77722 1.35796e-17
5541.78022 1.33612e-17
5543.78322 1.32167e-17
5545.77621 1.30632e-17
5547.77921 1.30874e-17
5549.78221 1.29745e-17
5551.77519 1.27993e-17
5553.77819 1.27207e-17
5555.78119 1.25407e-17
5557.77418 1.24018e-17
5559.77718 1.24030e-17
5561.78017 1.23468e-17
5563.77316 1.21081e-17
5565.77616 1.17414e-17
5567.77916 1.18556e-17
5569.78216 1.19596e-17
5571.77515 1.13574e-17
5573.77815 1.16945e-17
5575.78115 1.18723e-17
5577.77413 1.08247e-17
5579.77713 1.09576e-17
5581.78013 1.11752e-17
5583.77311 1.07647e-17
5585.77612 1.09513e-17
5587.77912 1.07351e-17
5589.77210 1.06753e-17
5591.77510 1.06871e-17
5593.77810 1.05566e-17
5595.78110 1.02251e-17
5597.77409 1.00622e-17
5599.77709 1.00280e-17
5601.78009 9.95426e-18
5603.77307 1.00896e-17
5605.77607 9.79745e-18
5607.77907 9.54244e-18
5609.77206 9.28024e-18
5611.77506 9.29710e-18
5613.77805 9.54713e-18
5615.77104 9.23194e-18
5617.77404 8.85623e-18
5619.77704 9.22252e-18
5621.78004 9.23899e-18
5623.77303 8.81479e-18
5625.77603 8.53274e-18
5627.77903 8.49547e-18
5629.77201 8.35645e-18
5631.77501 8.20389e-18
5633.77801 8.29726e-18
5635.77099 8.03518e-18
5637.77400 8.31065e-18
5639.77700 8.13471e-18
5641.77999 8.03638e-18
5643.77298 8.17308e-18
5645.77598 8.00743e-18
5647.77898 7.76079e-18
5649.77197 7.54915e-18
5651.77497 7.67642e-18
5653.77797 7.85263e-18
5655.77095 7.79865e-18
5657.77395 7.75096e-18
5659.77695 7.91762e-18
5661.76994 8.24487e-18
5663.77293 8.12132e-18
5665.77594 7.90788e-18
5667.77894 7.73255e-18
5669.77192 7.58268e-18
5671.77492 7.60195e-18
5673.77792 7.81556e-18
5675.77091 7.72515e-18
5677.77391 7.65913e-18
5679.77691 7.74541e-18
5681.76989 7.94691e-18
5683.77289 8.39589e-18
5685.77589 8.11354e-18
5687.76888 8.13314e-18
5689.77188 8.03444e-18
5691.77488 8.04153e-18
5693.77788 8.16482e-18
5695.77086 8.03863e-18
5697.77386 8.08755e-18
5699.77686 8.13880e-18
5701.76984 8.39670e-18
5703.77284 8.42350e-18
5705.77585 8.42531e-18
5707.76883 8.39706e-18
5709.77183 8.24628e-18
5711.77483 8.27205e-18
5713.76782 8.49037e-18
5715.77082 8.35251e-18
5717.77382 8.35141e-18
5719.77682 8.42390e-18
5721.76980 8.29547e-18
5723.77280 8.67624e-18
5725.77580 8.75555e-18
5727.76879 9.07679e-18
5729.77178 9.27159e-18
5731.77478 9.27116e-18
5733.76777 9.34209e-18
5735.77077 9.28444e-18
5737.77377 9.11159e-18
5739.76676 9.18773e-18
5741.76976 9.54716e-18
5743.77275 9.74542e-18
5745.77576 9.63207e-18
5747.76874 1.00443e-17
5749.77174 9.85363e-18
5751.77474 1.00780e-17
5753.76772 1.01868e-17
5755.77073 1.03992e-17
5757.77373 1.04212e-17
5759.76671 1.03506e-17
5761.76971 1.03299e-17
5763.77271 1.03610e-17
5765.76570 1.07342e-17
5767.76870 1.06354e-17
5769.77170 1.08921e-17
5771.76468 1.10589e-17
5773.76768 1.12199e-17
5775.77068 1.11926e-17
5777.77368 1.12583e-17
5779.76667 1.15182e-17
5781.76966 1.17434e-17
5783.77267 1.19460e-17
5785.76565 1.19277e-17
5787.76865 1.20174e-17
5789.77165 1.22324e-17
5791.76464 1.22205e-17
5793.76764 1.22974e-17
5795.77064 1.27247e-17
5797.76362 1.27805e-17
5799.76662 1.27765e-17
5801.76962 1.29504e-17
5803.77262 1.29629e-17
5805.76560 1.30373e-17
5807.76861 1.34712e-17
5809.77160 1.35853e-17
5811.76459 1.35703e-17
5813.76759 1.39125e-17
5815.77059 1.36322e-17
5817.76358 1.38124e-17
5819.76658 1.41905e-17
5821.76958 1.44996e-17
5823.76256 1.45162e-17
5825.76556 1.44865e-17
5827.76856 1.47408e-17
5829.77156 1.51709e-17
5831.76454 1.50190e-17
5833.76754 1.49830e-17
5835.77055 1.51692e-17
5837.76353 1.54675e-17
5839.76653 1.53730e-17
5841.76953 1.55790e-17
5843.76252 1.56035e-17
5845.76552 1.58037e-17
5847.76852 1.58343e-17
5849.77152 1.58945e-17
5851.76450 1.58353e-17
5853.76750 1.61621e-17
5855.77050 1.59947e-17
5857.76349 1.60846e-17
5859.76649 1.59214e-17
5861.76948 1.60354e-17
5863.76247 1.60111e-17
5865.76547 1.59681e-17
5867.76847 1.59842e-17
5869.76146 1.59785e-17
5871.76446 1.57634e-17
5873.76746 1.60671e-17
5875.77046 1.60654e-17
5877.76344 1.60510e-17
5879.76644 1.63939e-17
5881.76944 1.65266e-17
5883.76242 1.63349e-17
5885.76543 1.63607e-17
5887.76843 1.65720e-17
5889.76141 1.59678e-17
5891.76441 1.57709e-17
5893.76741 1.52853e-17
5895.76040 1.21560e-17
5897.76340 8.35358e-18
5899.76640 9.79894e-18
5901.76940 1.20160e-17
5903.76238 1.06589e-17
5905.76538 1.19382e-17
5907.76838 1.50942e-17
5909.76137 1.63006e-17
5911.76436 1.64972e-17
5913.76737 1.63406e-17
5915.76035 1.63624e-17
5917.76335 1.64859e-17
5919.76635 1.66921e-17
5921.75934 1.66078e-17
5923.76234 1.67176e-17
5925.76534 1.69354e-17
5927.76834 1.70064e-17
5929.76132 1.69400e-17
5931.76432 1.72679e-17
5933.76732 1.73559e-17
5935.76030 1.72074e-17
5937.76331 1.70484e-17
5939.76631 1.64891e-17
5941.75929 1.65068e-17
5943.76229 1.68695e-17
5945.76529 1.69459e-17
5947.75828 1.72021e-17
5949.76128 1.74076e-17
5951.76428 1.72895e-17
5953.76728 1.70697e-17
5955.76026 1.73690e-17
5957.76326 1.71919e-17
5959.76626 1.73576e-17
5961.75925 1.74547e-17
5963.76224 1.73773e-17
5965.76525 1.72470e-17
5967.75823 1.70054e-17
5969.76123 1.69614e-17
5971.76423 1.71383e-17
5973.75722 1.69982e-17
5975.76022 1.70063e-17
5977.76322 1.72420e-17
5979.76622 1.73873e-17
5981.75920 1.73329e-17
5983.76220 1.70245e-17
5985.76520 1.66730e-17
5987.75819 1.67181e-17
5989.76119 1.65658e-17
5991.76418 1.63891e-17
5993.75717 1.63156e-17
5995.76017 1.64382e-17
5997.76317 1.65346e-17
5999.75616 1.63106e-17
6001.75916 1.61941e-17
6003.76216 1.61153e-17
6005.76516 1.60107e-17
6007.75814 1.59918e-17
6009.76114 1.58675e-17
6011.76414 1.56231e-17
6013.75713 1.56917e-17
6015.76013 1.56245e-17
6017.76313 1.54322e-17
6019.75611 1.55234e-17
6021.75911 1.53103e-17
6023.76211 1.52255e-17
6025.75509 1.53110e-17
6027.75810 1.53998e-17
6029.76109 1.52283e-17
6031.76409 1.51077e-17
6033.75708 1.50468e-17
6035.76008 1.49792e-17
6037.76308 1.50229e-17
6039.75607 1.49825e-17
6041.75907 1.48413e-17
6043.76207 1.49118e-17
6045.75505 1.48607e-17
6047.75805 1.47965e-17
6049.76105 1.46567e-17
6051.75403 1.48086e-17
6053.75703 1.48823e-17
6055.76004 1.45964e-17
6057.76303 1.44688e-17
6059.75602 1.45222e-17
6061.75902 1.46663e-17
6063.76202 1.45033e-17
6065.75500 1.44700e-17
6067.75801 1.45640e-17
6069.76101 1.45495e-17
6071.75399 1.43861e-17
6073.75699 1.43036e-17
6075.75999 1.42460e-17
6077.75298 1.44009e-17
6079.75598 1.43839e-17
6081.75897 1.43241e-17
6083.76198 1.43412e-17
6085.75496 1.41507e-17
6087.75796 1.38217e-17
6089.76096 1.39486e-17
6091.75395 1.41644e-17
6093.75695 1.40099e-17
6095.75995 1.40463e-17
6097.75293 1.40255e-17
6099.75593 1.39240e-17
6101.75893 1.39842e-17
6103.75191 1.40027e-17
6105.75492 1.37732e-17
6107.75792 1.37672e-17
6109.76091 1.39148e-17
6111.75390 1.38086e-17
6113.75690 1.35799e-17
6115.75990 1.38592e-17
6117.75289 1.36756e-17
6119.75589 1.35407e-17
6121.75889 1.34015e-17
6123.75187 1.32171e-17
6125.75487 1.30821e-17
6127.75787 1.29526e-17
6129.75086 1.28069e-17
6131.75385 1.27651e-17
6133.75685 1.29537e-17
6135.75986 1.29048e-17
6137.75284 1.31420e-17
6139.75584 1.32999e-17
6141.75884 1.34111e-17
6143.75183 1.33803e-17
6145.75483 1.33517e-17
6147.75783 1.35839e-17
6149.75081 1.37230e-17
6151.75381 1.39246e-17
6153.75681 1.40199e-17
6155.74979 1.40113e-17
6157.75280 1.41858e-17
6159.75580 1.41443e-17
6161.75879 1.42824e-17
6163.75178 1.42280e-17
6165.75478 1.42062e-17
6167.75778 1.43514e-17
6169.75077 1.40629e-17
6171.75377 1.40202e-17
6173.75677 1.42216e-17
6175.74975 1.43592e-17
6177.75275 1.43300e-17
6179.75575 1.43711e-17
6181.74874 1.47739e-17
6183.75173 1.47837e-17
6185.75474 1.47741e-17
6187.75774 1.49726e-17
6189.75072 1.50720e-17
6191.75372 1.55121e-17
6193.75672 1.56057e-17
6195.74971 1.56119e-17
6197.75271 1.54445e-17
6199.75571 1.55105e-17
6201.74869 1.54718e-17
6203.75169 1.56936e-17
6205.75469 1.59857e-17
6207.74768 1.61237e-17
6209.75068 1.60562e-17
6211.75367 1.59398e-17
6213.75668 1.60991e-17
6215.74966 1.64361e-17
6217.75266 1.62695e-17
6219.75566 1.60978e-17
6221.74865 1.63551e-17
6223.75165 1.60759e-17
6225.75465 1.63428e-17
6227.74763 1.65503e-17
6229.75063 1.64110e-17
6231.75363 1.62393e-17
6233.74662 1.64699e-17
6235.74962 1.64968e-17
6237.75262 1.61369e-17
6239.75562 1.58436e-17
6241.74860 1.56875e-17
6243.75160 1.59419e-17
6245.75460 1.57203e-17
6247.74759 1.55587e-17
6249.75059 1.56014e-17
6251.75359 1.55933e-17
6253.74657 1.57852e-17
6255.74957 1.58030e-17
6257.75257 1.59249e-17
6259.75557 1.56877e-17
6261.74856 1.57849e-17
6263.75155 1.60238e-17
6265.75456 1.57407e-17
6267.74754 1.56045e-17
6269.75054 1.55365e-17
6271.75354 1.59811e-17
6273.74653 1.60203e-17
6275.74953 1.59403e-17
6277.75253 1.58559e-17
6279.74551 1.60602e-17
6281.74851 1.61685e-17
6283.75151 1.61441e-17
6285.74449 1.61858e-17
6287.74750 1.58450e-17
6289.75050 1.58191e-17
6291.75349 1.56591e-17
6293.74648 1.57564e-17
6295.74948 1.57831e-17
6297.75248 1.57921e-17
6299.74547 1.57727e-17
6301.74847 1.51918e-17
6303.75147 1.51885e-17
6305.74445 1.53193e-17
6307.74745 1.51425e-17
6309.75045 1.52159e-17
6311.74344 1.54367e-17
6313.74644 1.54626e-17
6315.74944 1.52946e-17
6317.75244 1.51956e-17
6319.74542 1.50036e-17
6321.74842 1.49404e-17
6323.75142 1.51058e-17
6325.74441 1.50361e-17
6327.74741 1.48419e-17
6329.75041 1.48700e-17
6331.74339 1.52969e-17
6333.74639 1.50210e-17
6335.74939 1.53646e-17
6337.74238 1.53153e-17
6339.74538 1.51101e-17
6341.74838 1.51377e-17
6343.75138 1.49760e-17
6345.74436 1.48528e-17
6347.74736 1.49314e-17
6349.75036 1.49450e-17
6351.74334 1.48354e-17
6353.74634 1.48622e-17
6355.74935 1.49944e-17
6357.74233 1.50955e-17
6359.74533 1.52274e-17
6361.74833 1.52082e-17
6363.74132 1.51392e-17
6365.74432 1.52366e-17
6367.74732 1.49239e-17
6369.75032 1.50200e-17
6371.74330 1.50504e-17
6373.74630 1.48370e-17
6375.74930 1.49056e-17
6377.74229 1.52347e-17
6379.74528 1.50117e-17
6381.74828 1.49601e-17
6383.74127 1.49757e-17
6385.74427 1.49013e-17
6387.74727 1.48732e-17
6389.74026 1.50423e-17
6391.74326 1.49254e-17
6393.74626 1.49004e-17
6395.74926 1.49347e-17
6397.74224 1.49618e-17
6399.74524 1.49896e-17
6401.74824 1.50078e-17
6403.74122 1.49974e-17
6405.74423 1.50859e-17
6407.74723 1.51934e-17
6409.74021 1.51624e-17
6411.74321 1.51610e-17
6413.74621 1.53506e-17
6415.73920 1.53279e-17
6417.74220 1.51974e-17
6419.74520 1.51103e-17
6421.74820 1.51219e-17
6423.74118 1.50393e-17
6425.74418 1.50801e-17
6427.74718 1.52967e-17
6429.74017 1.52606e-17
6431.74316 1.55031e-17
6433.74617 1.54481e-17
6435.73915 1.54877e-17
6437.74215 1.54954e-17
6439.74515 1.52879e-17
6441.73814 1.53908e-17
6443.74114 1.54925e-17
6445.74414 1.55826e-17
6447.74714 1.54163e-17
6449.74012 1.53983e-17
6451.74312 1.54988e-17
6453.74612 1.56596e-17
6455.73910 1.54838e-17
6457.74211 1.53313e-17
6459.74510 1.50711e-17
6461.73809 1.51313e-17
6463.74109 1.53074e-17
6465.74409 1.52853e-17
6467.74709 1.53195e-17
6469.74008 1.49631e-17
6471.74308 1.50248e-17
6473.74608 1.47487e-17
6475.73906 1.47327e-17
6477.74206 1.48136e-17
6479.74506 1.50595e-17
6481.73805 1.50048e-17
6483.74104 1.48517e-17
6485.74405 1.45760e-17
6487.73703 1.48229e-17
6489.74003 1.48045e-17
6491.74303 1.46262e-17
6493.74603 1.47517e-17
6495.73902 1.48507e-17
6497.74202 1.49798e-17
6499.74502 1.48857e-17
6501.73800 1.46510e-17
6503.74100 1.43430e-17
6505.74400 1.42276e-17
6507.73699 1.41694e-17
6509.73999 1.42647e-17
6511.74298 1.47688e-17
6513.73597 1.45617e-17
6515.73897 1.40676e-17
6517.74197 1.40906e-17
6519.74497 1.41918e-17
6521.73796 1.43740e-17
6523.74096 1.45102e-17
6525.74396 1.44577e-17
6527.73694 1.44254e-17
6529.73994 1.44693e-17
6531.74294 1.44723e-17
6533.73592 1.43040e-17
6535.73893 1.44301e-17
6537.74193 1.45153e-17
6539.73491 1.42765e-17
6541.73791 1.42207e-17
6543.74091 1.41755e-17
6545.74391 1.41302e-17
6547.73690 1.40850e-17
6549.73990 1.40397e-17
6551.74290 1.39945e-17
6553.73588 1.39492e-17
6555.73888 1.39040e-17
6557.74188 1.38587e-17
6559.73487 1.38135e-17
6561.73787 1.37683e-17
6563.74087 1.37230e-17
6565.73385 1.36778e-17
6567.73685 1.36326e-17
6569.73985 1.35874e-17
6571.74285 1.35421e-17
6573.73584 1.34969e-17
6575.73884 1.34517e-17
6577.74184 1.34065e-17
6579.73482 1.33613e-17
6581.73782 1.33161e-17
6583.74082 1.32709e-17
6585.73380 1.32257e-17
6587.73681 1.31805e-17
6589.73981 1.31353e-17
6591.73279 1.30901e-17
6593.73579 1.30449e-17
6595.73879 1.29997e-17
6597.73178 1.29545e-17
6599.73478 1.29093e-17
6601.73778 1.28641e-17
6603.74078 1.28190e-17
6605.73376 1.28730e-17
6607.73676 1.28328e-17
6609.73976 1.27850e-17
6611.73275 1.27372e-17
6613.73574 1.26895e-17
6615.73875 1.26418e-17
6617.73173 1.26339e-17
6619.73473 1.26381e-17
6621.73773 1.27931e-17
6623.73072 1.25074e-17
6625.73372 1.23340e-17
6627.73672 1.24526e-17
6629.73972 1.26056e-17
6631.73270 1.23544e-17
6633.73570 1.24136e-17
6635.73870 1.22922e-17
6637.73169 1.23384e-17
6639.73469 1.23387e-17
6641.73769 1.21524e-17
6643.73067 1.20065e-17
6645.73367 1.21354e-17
6647.73667 1.22295e-17
6649.72966 1.19986e-17
6651.73266 1.19538e-17
6653.73566 1.19739e-17
6655.73866 1.19326e-17
6657.73164 1.22820e-17
6659.73464 1.21912e-17
6661.73764 1.18335e-17
6663.73063 1.16171e-17
6665.73363 1.15537e-17
6667.73663 1.15452e-17
6669.72961 1.18086e-17
6671.73261 1.16951e-17
6673.73561 1.13574e-17
6675.73861 1.13406e-17
6677.73160 1.14441e-17
6679.73459 1.14938e-17
6681.73759 1.15556e-17
6683.73058 1.15465e-17
6685.73358 1.14557e-17
6687.73658 1.11727e-17
6689.72957 1.11310e-17
6691.73257 1.11643e-17
6693.73557 1.10148e-17
6695.72855 1.08592e-17
6697.73155 1.08884e-17
6699.73455 1.08238e-17
6701.73755 1.07382e-17
6703.73053 1.06449e-17
6705.73354 1.04302e-17
6707.73654 1.06507e-17
6709.72952 1.09477e-17
6711.73252 1.11776e-17
6713.73552 1.07642e-17
6715.72851 1.06076e-17
6717.73151 1.06584e-17
6719.73451 1.06317e-17
6721.72749 1.04824e-17
6723.73049 1.02728e-17
6725.73349 1.02102e-17
6727.73649 1.01096e-17
6729.72948 1.03295e-17
6731.73247 1.05375e-17
6733.73548 1.04816e-17
6735.72846 1.06068e-17
6737.73146 1.07977e-17
6739.73446 1.09069e-17
6741.72745 1.06793e-17
6743.73045 1.04334e-17
6745.73345 1.04868e-17
6747.72643 1.03928e-17
6749.72943 1.04468e-17
6751.73243 1.01088e-17
6753.73543 1.01299e-17
6755.72842 1.02542e-17
6757.73142 1.02087e-17
6759.73441 1.03999e-17
6761.72740 1.03870e-17
6763.73040 1.02152e-17
6765.73340 1.01986e-17
6767.72639 1.03926e-17
6769.72939 1.03455e-17
6771.73239 1.01878e-17
6773.72537 1.00826e-17
6775.72837 1.00833e-17
6777.73137 9.89651e-18
6779.73437 9.84391e-18
6781.72735 9.95918e-18
6783.73035 1.01022e-17
6785.73336 1.01959e-17
6787.72634 1.00041e-17
6789.72934 9.91748e-18
6791.73234 1.01367e-17
6793.72533 1.03136e-17
6795.72833 1.02835e-17
6797.73133 9.76667e-18
6799.72431 9.67193e-18
6801.72731 9.69123e-18
6803.73031 9.70153e-18
6805.73331 9.68623e-18
6807.72630 9.73177e-18
6809.72930 9.78243e-18
6811.73229 9.91525e-18
6813.72528 9.85364e-18
6815.72828 9.87231e-18
6817.73128 9.87692e-18
6819.72427 9.71721e-18
6821.72727 9.57073e-18
6823.73027 9.28459e-18
6825.72325 9.02240e-18
6827.72625 9.28748e-18
6829.72925 9.41663e-18
6831.73225 9.69028e-18
6833.72523 9.74784e-18
6835.72824 9.68868e-18
6837.73124 9.66366e-18
6839.72422 9.63131e-18
6841.72722 9.72104e-18
6843.73022 9.64069e-18
6845.72321 9.44327e-18
6847.72621 9.24947e-18
6849.72921 8.90724e-18
6851.72219 8.78958e-18
6853.72519 9.12570e-18
6855.72819 9.32229e-18
6857.73119 9.40371e-18
6859.72418 9.58986e-18
6861.72717 9.61036e-18
6863.73018 9.53355e-18
6865.72316 9.45884e-18
6867.72616 9.11122e-18
6869.72916 9.04785e-18
6871.72215 8.85746e-18
6873.72515 8.82662e-18
6875.72815 8.82855e-18
6877.72113 9.21175e-18
6879.72413 9.23212e-18
6881.72713 9.00468e-18
6883.73013 9.10158e-18
6885.72312 9.20134e-18
6887.72612 9.27179e-18
6889.72912 9.72501e-18
6891.72210 9.92777e-18
6893.72510 1.00102e-17
6895.72810 9.89408e-18
6897.72109 9.82269e-18
6899.72409 9.58735e-18
6901.72709 9.48979e-18
6903.72007 9.49900e-18
6905.72307 9.56201e-18
6907.72607 9.58232e-18
6909.72907 9.51966e-18
6911.72206 9.45306e-18
6913.72505 9.38716e-18
6915.72806 9.68572e-18
6917.72104 9.94360e-18
6919.72404 9.94285e-18
6921.72704 9.80467e-18
6923.72003 9.81369e-18
6925.72303 9.96348e-18
6927.72603 1.02522e-17
6929.71901 1.04414e-17
6931.72201 1.05409e-17
6933.72501 1.05074e-17
6935.72801 1.04108e-17
6937.72100 1.02044e-17
6939.72400 9.92845e-18
6941.72699 9.87545e-18
6943.71998 9.83246e-18
6945.72298 1.00404e-17
6947.72598 1.03076e-17
6949.71897 1.05088e-17
6951.72197 1.07364e-17
6953.72497 1.08005e-17
6955.71795 1.07103e-17
6957.72095 1.05802e-17
6959.72395 1.02864e-17
6961.72695 1.01811e-17
6963.71994 1.01620e-17
6965.72294 1.03784e-17
6967.72594 1.07645e-17
6969.71892 1.09431e-17
6971.72192 1.10236e-17
6973.72492 1.11497e-17
6975.71791 1.11557e-17
6977.72091 1.11260e-17
6979.72391 1.11467e-17
6981.71689 1.10175e-17
6983.71989 1.09456e-17
6985.72289 1.07535e-17
6987.72589 1.07125e-17
6989.71888 1.07805e-17
6991.72188 1.08103e-17
6993.72488 1.08844e-17
6995.71786 1.08265e-17
6997.72086 1.07177e-17
6999.72386 1.08568e-17
7001.71684 1.08677e-17
7003.71984 1.08802e-17
7005.72285 1.10767e-17
7007.71583 1.10582e-17
7009.71883 1.11594e-17
7011.72183 1.10482e-17
7013.72483 1.07450e-17
7015.71782 1.06466e-17
7017.72082 1.07473e-17
7019.72382 1.05699e-17
7021.71680 1.02606e-17
7023.71980 1.02388e-17
7025.72280 1.03809e-17
7027.71579 1.05813e-17
7029.71879 1.08236e-17
7031.72178 1.10247e-17
7033.71477 1.08845e-17
7035.71777 1.05501e-17
7037.72077 1.05831e-17
7039.72377 1.03925e-17
7041.71676 1.02901e-17
7043.71976 1.04392e-17
7045.72276 1.03413e-17
7047.71574 1.04155e-17
7049.71874 1.03918e-17
7051.72174 1.05953e-17
7053.71472 1.06508e-17
7055.71773 1.05806e-17
7057.72073 1.04912e-17
7059.71371 1.04981e-17
7061.71671 1.05999e-17
7063.71971 1.04079e-17
7065.72271 1.04111e-17
7067.71570 1.04464e-17
7069.71870 1.01416e-17
7071.72170 1.02162e-17
7073.71468 1.02964e-17
7075.71768 1.03447e-17
7077.72068 1.06438e-17
7079.71367 1.12217e-17
7081.71666 1.13263e-17
7083.71966 1.12498e-17
7085.71265 1.12065e-17
7087.71565 1.10760e-17
7089.71865 1.10165e-17
7091.72165 1.10536e-17
7093.71464 1.08613e-17
7095.71764 1.05089e-17
7097.72064 1.03957e-17
7099.71362 1.05216e-17
7101.71662 1.02780e-17
7103.71962 1.04455e-17
7105.71260 1.09296e-17
7107.71561 1.09085e-17
7109.71861 1.09967e-17
7111.71159 1.12638e-17
7113.71459 1.13600e-17
7115.71759 1.15981e-17
7117.72059 1.15391e-17
7119.71358 1.14975e-17
7121.71658 1.14429e-17
7123.71958 1.10708e-17
7125.71256 1.09407e-17
7127.71556 1.10263e-17
7129.71856 1.11167e-17
7131.71155 1.10861e-17
7133.71454 1.08829e-17
7135.71755 1.10451e-17
7137.71053 1.13214e-17
7139.71353 1.15370e-17
7141.71653 1.19697e-17
7143.71953 1.19766e-17
7145.71252 1.19857e-17
7147.71552 1.20059e-17
7149.71852 1.24305e-17
7151.71150 1.23859e-17
7153.71450 1.22780e-17
7155.71750 1.23455e-17
7157.71049 1.23763e-17
7159.71349 1.23112e-17
7161.71648 1.23120e-17
7163.70947 1.23445e-17
7165.71247 1.26118e-17
7167.71547 1.30655e-17
7169.71847 1.31066e-17
7171.71146 1.29991e-17
7173.71446 1.27489e-17
7175.71746 1.26679e-17
7177.71044 1.28055e-17
7179.71344 1.25692e-17
7181.71644 1.27833e-17
7183.70943 1.27892e-17
7185.71243 1.29982e-17
7187.71543 1.31205e-17
7189.70841 1.29499e-17
7191.71141 1.30793e-17
7193.71441 1.33087e-17
7195.71741 1.33417e-17
7197.71040 1.32533e-17
7199.71340 1.32751e-17
7201.71640 1.34706e-17
7203.70938 1.34768e-17
7205.71238 1.35485e-17
7207.71538 1.38293e-17
7209.70837 1.36614e-17
7211.71137 1.38590e-17
7213.71436 1.41315e-17
7215.70735 1.42298e-17
7217.71035 1.43711e-17
7219.71335 1.44455e-17
7221.71635 1.45074e-17
7223.70934 1.47778e-17
7225.71234 1.48448e-17
7227.71534 1.52512e-17
7229.70832 1.51714e-17
7231.71132 1.49990e-17
7233.71432 1.50800e-17
7235.70730 1.48554e-17
7237.71031 1.48311e-17
7239.71331 1.46707e-17
7241.70629 1.46556e-17
7243.70929 1.48707e-17
7245.71229 1.45971e-17
7247.71529 1.46244e-17
7249.70828 1.48626e-17
7251.71128 1.49406e-17
7253.71428 1.48023e-17
7255.70726 1.48570e-17
7257.71026 1.49116e-17
7259.71326 1.49662e-17
7261.70625 1.49576e-17
7263.70925 1.47283e-17
7265.71225 1.49116e-17
7267.70523 1.50096e-17
7269.70823 1.48238e-17
7271.71123 1.48459e-17
7273.71423 1.50840e-17
7275.70722 1.49316e-17
7277.71022 1.46713e-17
7279.71322 1.48571e-17
7281.70620 1.50811e-17
7283.70920 1.49486e-17
7285.71220 1.49065e-17
7287.70519 1.52414e-17
7289.70819 1.53602e-17
7289.88177 1.53602e-17
7290.74323 1.56066e-17
7291.60469 1.58533e-17
7292.46615 1.60000e-17
7293.32762 1.61466e-17
7294.18908 1.60674e-17
7295.05054 1.59877e-17
7295.92202 1.57867e-17
7296.78348 1.55855e-17
7297.64494 1.53893e-17
7298.50640 1.51932e-17
7299.36787 1.50829e-17
7300.22933 1.49729e-17
7301.09079 1.50144e-17
7301.95225 1.50561e-17
7302.81371 1.51678e-17
7303.67518 1.52796e-17
7304.53664 1.53373e-17
7305.40812 1.53947e-17
7306.26958 1.53782e-17
7307.13104 1.53615e-17
7307.99250 1.52921e-17
7308.85397 1.52225e-17
7309.71543 1.51359e-17
7310.57689 1.50491e-17
7311.43835 1.49934e-17
7312.29981 1.49378e-17
7313.16128 1.49313e-17
7314.02274 1.49249e-17
7314.89422 1.49568e-17
7315.75568 1.49887e-17
7316.61714 1.50388e-17
7317.47860 1.50888e-17
7318.34006 1.51278e-17
7319.20153 1.51668e-17
7320.06299 1.51656e-17
7320.92445 1.51643e-17
7321.78591 1.50918e-17
7322.64737 1.50190e-17
7323.50884 1.48775e-17
7324.38032 1.47358e-17
7325.24178 1.46089e-17
7326.10324 1.44821e-17
7326.96470 1.44358e-17
7327.82616 1.43896e-17
7328.68763 1.44113e-17
7329.54909 1.44332e-17
7330.41055 1.45004e-17
7331.27201 1.45679e-17
7332.13347 1.46521e-17
7332.99494 1.47364e-17
7333.85640 1.48055e-17
7334.72788 1.48746e-17
7335.58934 1.49062e-17
7336.45080 1.49376e-17
7337.31226 1.49160e-17
7338.17372 1.48944e-17
7339.03519 1.48297e-17
7339.89665 1.47650e-17
7340.75811 1.46777e-17
7341.61957 1.45904e-17
7342.48103 1.45073e-17
7343.34250 1.44241e-17
7344.21398 1.43741e-17
7345.07544 1.43242e-17
7345.93690 1.43090e-17
7346.79836 1.42937e-17
7347.65982 1.42949e-17
7348.52129 1.42961e-17
7349.38275 1.42962e-17
7350.24421 1.42962e-17
7351.10567 1.42787e-17
7351.96713 1.42612e-17
7352.82860 1.42226e-17
7353.70007 1.41838e-17
7354.56154 1.41408e-17
7355.42300 1.40976e-17
7356.28446 1.40656e-17
7357.14592 1.40336e-17
7358.00738 1.40252e-17
7358.86885 1.40167e-17
7359.73031 1.40372e-17
7360.59177 1.40578e-17
7361.45323 1.40897e-17
7362.31469 1.41216e-17
7363.18617 1.41488e-17
7364.04764 1.41760e-17
7364.90910 1.42006e-17
7365.77056 1.42250e-17
7366.63202 1.42500e-17
7367.49348 1.42749e-17
7368.35495 1.43008e-17
7369.21641 1.43268e-17
7370.07787 1.43547e-17
7370.93933 1.43827e-17
7371.80079 1.44098e-17
7372.66226 1.44368e-17
7373.53373 1.44593e-17
7374.39520 1.44816e-17
7375.25666 1.45027e-17
7376.11812 1.45238e-17
7376.97958 1.45497e-17
7377.84104 1.45756e-17
7378.70251 1.46072e-17
7379.56397 1.46388e-17
7380.42543 1.46742e-17
7381.28689 1.47095e-17
7382.14835 1.47453e-17
7383.01983 1.47810e-17
7383.88130 1.48127e-17
7384.74276 1.48444e-17
7385.60422 1.48687e-17
7386.46568 1.48931e-17
7387.32714 1.49087e-17
7388.18861 1.49243e-17
7389.05007 1.49322e-17
7389.91153 1.49400e-17
7390.77299 1.49444e-17
7391.63445 1.49486e-17
7392.50593 1.49555e-17
7393.36739 1.49623e-17
7394.22886 1.49841e-17
7395.09032 1.50058e-17
7395.95178 1.50483e-17
7396.81324 1.50906e-17
7397.67470 1.51387e-17
7398.53617 1.51868e-17
7399.39763 1.52244e-17
7400.25909 1.52620e-17
7401.12055 1.52724e-17
7401.99203 1.52828e-17
7402.85349 1.52531e-17
7403.71495 1.52236e-17
7404.57642 1.51731e-17
7405.43788 1.51225e-17
7406.29934 1.50775e-17
7407.16080 1.50326e-17
7408.02227 1.50006e-17
7408.88373 1.49688e-17
7409.74519 1.49514e-17
7410.60665 1.49339e-17
7411.47813 1.49295e-17
7412.33959 1.49251e-17
7413.20105 1.49300e-17
7414.06252 1.49349e-17
7414.92398 1.49447e-17
7415.78544 1.49544e-17
7416.64690 1.49648e-17
7417.50836 1.49752e-17
7418.36983 1.49826e-17
7419.23129 1.49900e-17
7420.09275 1.49914e-17
7420.95421 1.49928e-17
7421.82569 1.49899e-17
7422.68715 1.49868e-17
7423.54861 1.49868e-17
7424.41008 1.49868e-17
7425.27154 1.49943e-17
7426.13300 1.50017e-17
7426.99446 1.50148e-17
7427.85592 1.50278e-17
7428.71739 1.50433e-17
7429.57885 1.50588e-17
7430.44031 1.50691e-17
7431.31179 1.50794e-17
7432.17325 1.50789e-17
7433.03471 1.50783e-17
7433.89618 1.50727e-17
7434.75764 1.50672e-17
7435.61910 1.50631e-17
7436.48056 1.50589e-17
7437.34202 1.50577e-17
7438.20349 1.50566e-17
7439.06495 1.50589e-17
7439.92641 1.50613e-17
7440.79789 1.50668e-17
7441.65935 1.50724e-17
7442.52081 1.50796e-17
7443.38227 1.50868e-17
7444.24374 1.50956e-17
7445.10520 1.51042e-17
7445.96666 1.51149e-17
7446.82812 1.51258e-17
7447.68959 1.51324e-17
7448.55105 1.51391e-17
7449.41251 1.51309e-17
7450.28399 1.51227e-17
7451.14545 1.51024e-17
7452.00691 1.50821e-17
7452.86837 1.50633e-17
7453.72984 1.50444e-17
7454.59130 1.50320e-17
7455.45276 1.50197e-17
7456.31422 1.50081e-17
7457.17568 1.49966e-17
7458.03715 1.49833e-17
7458.89861 1.49699e-17
7459.77009 1.49545e-17
7460.63155 1.49392e-17
7461.49301 1.49250e-17
7462.35447 1.49107e-17
7463.21594 1.49112e-17
7464.07740 1.49116e-17
7464.93886 1.49346e-17
7465.80032 1.49576e-17
7466.66178 1.49919e-17
7467.52325 1.50262e-17
7468.38471 1.50592e-17
7469.25619 1.50920e-17
7470.11765 1.51113e-17
7470.97911 1.51304e-17
7471.84057 1.51257e-17
7472.70203 1.51209e-17
7473.56350 1.51042e-17
7474.42496 1.50876e-17
7475.28642 1.50762e-17
7476.14788 1.50648e-17
7477.00934 1.50594e-17
7477.87081 1.50541e-17
7478.73227 1.50504e-17
7479.60375 1.50467e-17
7480.46521 1.50411e-17
7481.32667 1.50354e-17
7482.18813 1.50231e-17
7483.04960 1.50109e-17
7483.91106 1.49940e-17
7484.77252 1.49770e-17
7485.63398 1.49620e-17
7486.49544 1.49469e-17
7487.35690 1.49347e-17
7488.21837 1.49225e-17
7489.08985 1.49085e-17
7489.95131 1.48945e-17
7490.81277 1.48770e-17
7491.67423 1.48595e-17
7492.53569 1.48410e-17
7493.39716 1.48224e-17
7494.25862 1.48042e-17
7495.12008 1.47861e-17
7495.98154 1.47689e-17
7496.84300 1.47516e-17
7497.70447 1.47349e-17
7498.57595 1.47184e-17
7499.43741 1.46996e-17
7500.29887 1.46808e-17
7501.16033 1.46576e-17
7502.02179 1.46345e-17
7502.88325 1.46096e-17
7503.74472 1.45848e-17
7504.60618 1.45606e-17
7505.46764 1.45364e-17
7506.32910 1.45063e-17
7507.19056 1.44762e-17
7508.06204 1.44339e-17
7508.92351 1.43916e-17
7509.78497 1.43380e-17
7510.64643 1.42844e-17
7511.50789 1.42221e-17
7512.36935 1.41599e-17
7513.23082 1.41013e-17
7514.09228 1.40427e-17
7514.95374 1.40038e-17
7515.81520 1.39650e-17
7516.67666 1.39402e-17
7517.54814 1.39154e-17
7518.40960 1.38859e-17
7519.27107 1.38564e-17
7520.13253 1.38148e-17
7520.99399 1.37732e-17
7521.85545 1.37209e-17
7522.71691 1.36688e-17
7523.57838 1.36101e-17
7524.43984 1.35513e-17
7525.30130 1.34947e-17
7526.16276 1.34380e-17
7527.02423 1.33868e-17
7527.89570 1.33355e-17
7528.75717 1.32826e-17
7529.61863 1.32298e-17
7530.48009 1.31706e-17
7531.34155 1.31114e-17
7532.20301 1.30472e-17
7533.06448 1.29831e-17
7533.92594 1.29147e-17
7534.78740 1.28463e-17
7535.64886 1.27687e-17
7536.52034 1.26912e-17
7537.38180 1.26022e-17
7538.24327 1.25132e-17
7539.10473 1.24232e-17
7539.96619 1.23333e-17
7540.82765 1.22533e-17
7541.68911 1.21732e-17
7542.55058 1.21040e-17
7543.41204 1.20347e-17
7544.27350 1.19744e-17
7545.13496 1.19142e-17
7545.99642 1.18535e-17
7546.86790 1.17928e-17
7547.72936 1.17200e-17
7548.59083 1.16472e-17
7549.45229 1.15623e-17
7550.31375 1.14773e-17
7551.17521 1.13860e-17
7552.03667 1.12947e-17
7552.89814 1.12034e-17
7553.75960 1.11122e-17
7554.62106 1.10281e-17
7555.48252 1.09440e-17
7556.35400 1.08685e-17
7557.21546 1.07931e-17
7558.07693 1.07216e-17
7558.93839 1.06502e-17
7559.79985 1.05788e-17
7560.66131 1.05074e-17
7561.52277 1.04341e-17
7562.38424 1.03609e-17
7563.24570 1.02825e-17
7564.10716 1.02040e-17
7564.96862 1.01135e-17
7565.84010 1.00229e-17
7566.70156 9.92015e-18
7567.56302 9.81737e-18
7568.42449 9.72209e-18
7569.28595 9.62683e-18
7570.14741 9.55545e-18
7571.00887 9.48413e-18
7571.87033 9.43908e-18
7572.73180 9.39407e-18
7573.59326 9.37266e-18
7574.45472 9.35131e-18
7575.31618 9.32374e-18
7576.18766 9.29616e-18
7577.04912 9.22968e-18
7577.91059 9.16313e-18
7578.77205 9.07564e-18
7579.63351 8.98813e-18
7580.49497 8.90828e-18
7581.35643 8.82844e-18
7582.21790 8.75169e-18
7583.07936 8.67495e-18
7583.94082 8.58796e-18
7584.81230 8.50096e-18
7585.67376 8.35554e-18
7586.53522 8.20999e-18
7587.39668 7.93925e-18
7588.25815 7.66826e-18
7589.11961 7.28542e-18
7589.98107 6.90236e-18
7590.84253 6.48724e-18
7591.70399 6.07207e-18
7592.56546 5.70067e-18
7593.42692 5.32937e-18
7594.28838 5.07288e-18
7595.15986 4.81663e-18
7596.02132 4.71058e-18
7596.88278 4.60483e-18
7597.74425 4.61486e-18
7598.60571 4.62512e-18
7599.46717 4.72636e-18
7600.32863 4.82779e-18
7601.19009 5.03908e-18
7602.05156 5.25057e-18
7602.91302 5.57241e-18
7603.77448 5.89444e-18
7604.64596 6.28521e-18
7605.50742 6.67611e-18
7606.36888 7.08612e-18
7607.23034 7.49616e-18
7608.09181 7.87491e-18
7608.95327 8.25359e-18
7609.81473 8.55060e-18
7610.67619 8.84743e-18
7611.53765 8.99205e-18
7612.39912 9.13635e-18
7613.26058 9.07178e-18
7614.13206 9.00679e-18
7614.99352 8.73613e-18
7615.85498 8.46507e-18
7616.71644 8.02027e-18
7617.57791 7.57513e-18
7618.43937 7.08900e-18
7619.30083 6.60280e-18
7620.16229 6.25430e-18
7621.02375 5.90609e-18
7621.88522 5.76294e-18
7622.74668 5.62022e-18
7623.61816 5.66823e-18
7624.47962 5.71662e-18
7625.34108 5.89433e-18
7626.20254 6.07230e-18
7627.06400 6.26679e-18
7627.92547 6.46131e-18
7628.78693 6.60981e-18
7629.64839 6.75821e-18
7630.50985 6.88444e-18
7631.37131 7.01062e-18
7632.23278 7.12999e-18
7633.10426 7.24933e-18
7633.96572 7.36122e-18
7634.82718 7.47309e-18
7635.68864 7.57750e-18
7636.55010 7.68191e-18
7637.41157 7.75830e-18
7638.27303 7.83463e-18
7639.13449 7.87260e-18
7639.99595 7.91049e-18
7640.85741 7.94614e-18
7641.71888 7.98177e-18
7642.59035 8.05088e-18
7643.45182 8.12004e-18
7644.31328 8.23788e-18
7645.17474 8.35581e-18
7646.03620 8.52887e-18
7646.89766 8.70204e-18
7647.75913 8.88364e-18
7648.62059 9.06524e-18
7649.48205 9.19648e-18
7650.34351 9.32760e-18
7651.20497 9.39595e-18
7652.06644 9.46417e-18
7652.93792 9.47615e-18
7653.79938 9.48802e-18
7654.66084 9.48881e-18
7655.52230 9.48959e-18
7656.38376 9.54895e-18
7657.24523 9.60843e-18
7658.10669 9.73762e-18
7658.96815 9.86695e-18
7659.82961 1.00277e-17
7660.69107 1.01885e-17
7661.55254 1.03482e-17
7662.42401 1.05079e-17
7663.28548 1.06371e-17
7664.14694 1.07662e-17
7665.00840 1.08632e-17
7665.86986 1.09600e-17
7666.73132 1.10806e-17
7667.59279 1.12013e-17
7668.45425 1.13716e-17
7669.31571 1.15419e-17
7670.17717 1.17088e-17
7671.03863 1.18756e-17
7671.91011 1.19963e-17
7672.77158 1.21169e-17
7673.63304 1.21835e-17
7674.49450 1.22500e-17
7675.35596 1.22656e-17
7676.21742 1.22810e-17
7677.07889 1.23087e-17
7677.94035 1.23362e-17
7678.80181 1.24390e-17
7679.66327 1.25419e-17
7680.52473 1.26826e-17
7681.38620 1.28232e-17
7682.25767 1.29429e-17
7683.11914 1.30628e-17
7683.98060 1.31615e-17
7684.84206 1.32602e-17
7685.70352 1.33544e-17
7686.56498 1.34486e-17
7687.42645 1.35422e-17
7688.28791 1.36357e-17
7689.14937 1.37300e-17
7690.01083 1.38243e-17
7690.88231 1.39104e-17
7691.74377 1.39964e-17
7692.60524 1.40560e-17
7693.46670 1.41157e-17
7694.32816 1.41533e-17
7695.18962 1.41909e-17
7696.05108 1.42343e-17
7696.91255 1.42776e-17
7697.77401 1.43373e-17
7698.63547 1.43969e-17
7699.49693 1.44587e-17
7700.35839 1.45204e-17
7701.22987 1.45725e-17
7702.09133 1.46247e-17
7702.95280 1.46601e-17
7703.81426 1.46953e-17
7704.67572 1.47092e-17
7705.53718 1.47228e-17
7706.39864 1.47159e-17
7707.26011 1.47089e-17
7708.12157 1.46875e-17
7708.98303 1.46661e-17
7709.84449 1.46550e-17
7710.71597 1.46440e-17
7711.57743 1.46654e-17
7712.43890 1.46869e-17
7713.30036 1.47355e-17
7714.16182 1.47842e-17
7715.02328 1.48479e-17
7715.88474 1.49116e-17
7716.74620 1.49709e-17
7717.60767 1.50302e-17
7718.46913 1.50638e-17
7719.33059 1.50974e-17
7720.20207 1.51039e-17
7721.06353 1.51104e-17
7721.92499 1.50976e-17
7722.78646 1.50847e-17
7723.64792 1.50657e-17
7724.50938 1.50466e-17
7725.37084 1.50392e-17
7726.23230 1.50316e-17
7727.09377 1.50414e-17
7727.95523 1.50514e-17
7728.81669 1.50726e-17
7729.67815 1.50940e-17
7730.54963 1.51256e-17
7731.41109 1.51573e-17
7732.27255 1.52057e-17
7733.13402 1.52541e-17
7733.99548 1.53116e-17
7734.85694 1.53691e-17
7735.71840 1.54046e-17
7736.57986 1.54401e-17
7737.44133 1.54360e-17
7738.30279 1.54318e-17
7739.17427 1.54007e-17
7740.03573 1.53697e-17
7740.89719 1.53282e-17
7741.75865 1.52867e-17
7742.62012 1.52595e-17
7743.48158 1.52323e-17
7744.34304 1.52395e-17
7745.20450 1.52467e-17
7746.06596 1.52747e-17
7746.92743 1.53028e-17
7747.78889 1.53328e-17
7748.65035 1.53628e-17
7749.52183 1.53882e-17
7750.38329 1.54135e-17
7751.24475 1.54293e-17
7752.10621 1.54452e-17
7752.96768 1.54516e-17
7753.82914 1.54578e-17
7754.69060 1.54582e-17
7755.55206 1.54584e-17
7756.41352 1.54485e-17
7757.27499 1.54384e-17
7758.13645 1.54098e-17
7759.00793 1.53814e-17
7759.86939 1.53425e-17
7760.73085 1.53035e-17
7761.59231 1.52738e-17
7762.45378 1.52441e-17
7763.31524 1.52284e-17
7764.17670 1.52126e-17
7765.03816 1.52005e-17
7765.89962 1.51885e-17
7766.76109 1.51721e-17
7767.62255 1.51558e-17
7768.49403 1.51294e-17
7769.35549 1.51028e-17
7770.21695 1.50657e-17
7771.07841 1.50284e-17
7771.93988 1.49932e-17
7772.80134 1.49581e-17
7773.66280 1.49342e-17
7774.52426 1.49103e-17
7775.38572 1.48928e-17
7776.24719 1.48755e-17
7777.10865 1.48606e-17
7777.98013 1.48458e-17
7778.84159 1.48358e-17
7779.70305 1.48257e-17
7780.56451 1.48225e-17
7781.42597 1.48193e-17
7782.28744 1.48224e-17
7783.14890 1.48255e-17
7784.01036 1.48335e-17
7784.87182 1.48416e-17
7785.73328 1.48535e-17
7786.59475 1.48654e-17
7787.46623 1.48798e-17
7788.32769 1.48944e-17
7789.18915 1.49073e-17
7790.05061 1.49200e-17
7790.91207 1.49265e-17
7791.77354 1.49329e-17
7792.63500 1.49306e-17
7793.49646 1.49282e-17
7794.35792 1.49163e-17
7795.21938 1.49042e-17
7796.08085 1.48882e-17
7796.94231 1.48723e-17
7797.81379 1.48625e-17
7798.67525 1.48528e-17
7799.53671 1.48569e-17
7800.39817 1.48612e-17
7801.25963 1.48843e-17
7802.12110 1.49076e-17
7802.98256 1.49459e-17
7803.84402 1.49843e-17
7804.70548 1.50184e-17
7805.56694 1.50525e-17
7806.42841 1.50684e-17
7807.29989 1.50842e-17
7808.16135 1.50834e-17
7809.02281 1.50826e-17
7809.88427 1.50678e-17
7810.74573 1.50529e-17
7811.60720 1.50271e-17
7812.46866 1.50012e-17
7813.33012 1.49691e-17
7814.19158 1.49369e-17
7815.05304 1.49043e-17
7815.91450 1.48717e-17
7816.78598 1.48440e-17
7817.64745 1.48164e-17
7818.50891 1.48003e-17
7819.37037 1.47842e-17
7820.23183 1.47849e-17
7821.09329 1.47858e-17
7821.95476 1.47913e-17
7822.81622 1.47970e-17
7823.67768 1.47894e-17
7824.53914 1.47819e-17
7825.40060 1.47589e-17
7826.27208 1.47359e-17
7827.13355 1.47030e-17
7827.99501 1.46703e-17
7828.85647 1.46321e-17
7829.71793 1.45940e-17
7830.57939 1.45553e-17
7831.44085 1.45165e-17
7832.30232 1.44801e-17
7833.16378 1.44437e-17
7834.02524 1.44097e-17
7834.88670 1.43756e-17
7835.75818 1.43471e-17
7836.61964 1.43186e-17
7837.48111 1.43046e-17
7838.34257 1.42905e-17
7839.20403 1.42932e-17
7840.06549 1.42958e-17
7840.92695 1.43053e-17
7841.78842 1.43147e-17
7842.64988 1.43223e-17
7843.51134 1.43299e-17
7844.37280 1.43315e-17
7845.23426 1.43333e-17
7846.10574 1.43268e-17
7846.96720 1.43204e-17
7847.82867 1.43091e-17
7848.69013 1.42977e-17
7849.55159 1.42856e-17
7850.41305 1.42734e-17
7851.27452 1.42630e-17
7852.13598 1.42525e-17
7852.99744 1.42455e-17
7853.85890 1.42385e-17
7854.72036 1.42364e-17
7855.59184 1.42343e-17
7856.45330 1.42377e-17
7857.31477 1.42412e-17
7858.17623 1.42449e-17
7859.03769 1.42486e-17
7859.89915 1.42438e-17
7860.76061 1.42391e-17
7861.62208 1.42266e-17
7862.48354 1.42140e-17
7863.34500 1.42007e-17
7864.20646 1.41873e-17
7865.07794 1.41695e-17
7865.93940 1.41518e-17
7866.80087 1.41177e-17
7867.66233 1.40838e-17
7868.52379 1.40324e-17
7869.38525 1.39811e-17
7870.24671 1.39221e-17
7871.10818 1.38630e-17
7871.96964 1.38100e-17
7872.83110 1.37570e-17
7873.69256 1.37322e-17
7874.56404 1.37076e-17
7875.42550 1.37197e-17
7876.28696 1.37320e-17
7877.14843 1.37561e-17
7878.00989 1.37803e-17
7878.87135 1.37931e-17
7879.73281 1.38061e-17
7880.59427 1.38008e-17
7881.45574 1.37955e-17
7882.31720 1.37682e-17
7883.17866 1.37408e-17
7884.05014 1.37011e-17
7884.91160 1.36614e-17
7885.77306 1.36213e-17
7886.63453 1.35813e-17
7887.49599 1.35401e-17
7888.35745 1.34987e-17
7889.21891 1.34533e-17
7890.08037 1.34079e-17
7890.94184 1.33609e-17
7891.80330 1.33140e-17
7892.66476 1.32682e-17
7893.52622 1.32226e-17
7894.39770 1.31901e-17
7895.25916 1.31576e-17
7896.12062 1.31548e-17
7896.98209 1.31518e-17
7897.84355 1.31692e-17
7898.70501 1.31864e-17
7899.56647 1.31966e-17
7900.42793 1.32068e-17
7901.28940 1.31978e-17
7902.15086 1.31888e-17
7903.01232 1.31636e-17
7903.88380 1.31383e-17
7904.74526 1.31046e-17
7905.60672 1.30711e-17
7906.46819 1.30465e-17
7907.32965 1.30220e-17
7908.19111 1.30135e-17
7909.05257 1.30050e-17
7909.91403 1.29928e-17
7910.77550 1.29807e-17
7911.63696 1.29531e-17
7912.49842 1.29256e-17
7913.36990 1.28967e-17
7914.23136 1.28678e-17
7915.09282 1.28493e-17
7915.95428 1.28309e-17
7916.81575 1.28237e-17
7917.67721 1.28165e-17
7918.53867 1.28190e-17
7919.40013 1.28214e-17
7920.26159 1.28162e-17
7921.12306 1.28112e-17
7921.98452 1.27809e-17
7922.85600 1.27505e-17
7923.71746 1.27058e-17
7924.57892 1.26612e-17
7925.44038 1.26209e-17
7926.30185 1.25804e-17
7927.16331 1.25554e-17
7928.02477 1.25303e-17
7928.88623 1.25278e-17
7929.74769 1.25255e-17
7930.60916 1.25411e-17
7931.47062 1.25567e-17
7932.34210 1.25775e-17
7933.20356 1.25984e-17
7934.06502 1.26134e-17
7934.92648 1.26284e-17
7935.78794 1.26284e-17
7936.64941 1.26285e-17
7937.51087 1.26089e-17
7938.37233 1.25892e-17
7939.23379 1.25509e-17
7940.09525 1.25125e-17
7940.95672 1.24611e-17
7941.81818 1.24096e-17
7942.68966 1.23580e-17
7943.55112 1.23063e-17
7944.41258 1.22645e-17
7945.27404 1.22227e-17
7946.13551 1.21924e-17
7946.99697 1.21621e-17
7947.85843 1.21433e-17
7948.71989 1.21244e-17
7949.58135 1.21136e-17
7950.44282 1.21027e-17
7951.30428 1.20949e-17
7952.17576 1.20871e-17
7953.03722 1.20720e-17
7953.89868 1.20568e-17
7954.76014 1.20254e-17
7955.62160 1.19939e-17
7956.48307 1.19593e-17
7957.34453 1.19246e-17
7958.20599 1.19038e-17
7959.06745 1.18831e-17
7959.92891 1.18774e-17
7960.79038 1.18717e-17
7961.66186 1.18775e-17
7962.52332 1.18832e-17
7963.38478 1.18913e-17
7964.24624 1.18995e-17
7965.10770 1.18970e-17
7965.96917 1.18944e-17
7966.83063 1.18887e-17
7967.69209 1.18830e-17
7968.55355 1.18956e-17
7969.41501 1.19084e-17
7970.27648 1.19444e-17
7971.14795 1.19806e-17
7972.00942 1.20292e-17
7972.87088 1.20777e-17
7973.73234 1.21242e-17
7974.59380 1.21708e-17
7975.45526 1.21939e-17
7976.31673 1.22171e-17
7977.17819 1.22079e-17
7978.03965 1.21987e-17
7978.90111 1.21744e-17
7979.76257 1.21502e-17
7980.63405 1.21261e-17
7981.49552 1.21021e-17
7982.35698 1.20819e-17
7983.21844 1.20617e-17
7984.07990 1.20477e-17
7984.94136 1.20338e-17
7985.80283 1.20210e-17
7986.66429 1.20084e-17
7987.52575 1.19915e-17
7988.38721 1.19744e-17
7989.24867 1.19555e-17
7990.11014 1.19366e-17
7990.98161 1.19185e-17
7991.84308 1.19004e-17
7992.70454 1.18887e-17
7993.56600 1.18770e-17
7994.42746 1.18781e-17
7995.28892 1.18793e-17
7996.15039 1.18805e-17
7997.01185 1.18817e-17
7997.87331 1.18627e-17
7998.73477 1.18438e-17
7999.59623 1.18073e-17
8000.46771 1.17707e-17
8001.32917 1.17318e-17
8002.19064 1.16929e-17
8003.05210 1.16631e-17
8003.91356 1.16334e-17
8004.77502 1.16227e-17
8005.63649 1.16120e-17
8006.49795 1.16178e-17
8007.35941 1.16236e-17
8008.22087 1.16258e-17
8009.08233 1.16279e-17
8009.95381 1.16199e-17
8010.81527 1.16118e-17
8011.67674 1.16128e-17
8012.53820 1.16138e-17
8013.39966 1.16332e-17
8014.26112 1.16526e-17
8015.12258 1.16769e-17
8015.98405 1.17012e-17
8016.84551 1.17174e-17
8017.70697 1.17335e-17
8018.56843 1.17285e-17
8019.43991 1.17235e-17
8020.30137 1.16892e-17
8021.16284 1.16549e-17
8022.02430 1.16131e-17
8022.88576 1.15712e-17
8023.74722 1.15459e-17
8024.60868 1.15206e-17
8025.47015 1.15110e-17
8026.33161 1.15015e-17
8027.19307 1.15013e-17
8028.05453 1.15011e-17
8028.92601 1.15023e-17
8029.78747 1.15036e-17
8030.64893 1.14971e-17
8031.51040 1.14907e-17
8032.37186 1.14774e-17
8033.23332 1.14642e-17
8034.09478 1.14506e-17
8034.95624 1.14370e-17
8035.81771 1.14271e-17
8036.67917 1.14172e-17
8037.54063 1.14135e-17
8038.41211 1.14098e-17
8039.27357 1.14132e-17
8040.13503 1.14165e-17
8040.99650 1.14259e-17
8041.85796 1.14352e-17
8042.71942 1.14475e-17
8043.58088 1.14597e-17
8044.44234 1.14693e-17
8045.30380 1.14789e-17
8046.16527 1.14818e-17
8047.02673 1.14846e-17
8047.88819 1.14788e-17
8048.75967 1.14729e-17
8049.62113 1.14594e-17
8050.48259 1.14458e-17
8051.34406 1.14346e-17
8052.20552 1.14234e-17
8053.06698 1.14220e-17
8053.92844 1.14206e-17
8054.78990 1.14233e-17
8055.65137 1.14260e-17
8056.51283 1.14257e-17
8057.37429 1.14254e-17
8058.24577 1.14136e-17
8059.10723 1.14017e-17
8059.96869 1.13710e-17
8060.83015 1.13403e-17
8061.69162 1.12968e-17
8062.55308 1.12532e-17
8063.41454 1.12068e-17
8064.27600 1.11603e-17
8065.13746 1.11225e-17
8065.99893 1.10846e-17
8066.86039 1.10665e-17
8067.73187 1.10484e-17
8068.59333 1.10506e-17
8069.45479 1.10529e-17
8070.31625 1.10695e-17
8071.17772 1.10861e-17
8072.03918 1.11052e-17
8072.90064 1.11242e-17
8073.76210 1.11288e-17
8074.62356 1.11333e-17
8075.48503 1.11171e-17
8076.34649 1.11008e-17
8077.21797 1.10719e-17
8078.07943 1.10430e-17
8078.94089 1.10065e-17
8079.80235 1.09699e-17
8080.66381 1.09248e-17
8081.52528 1.08797e-17
8082.38674 1.08267e-17
8083.24820 1.07738e-17
8084.10966 1.07152e-17
8084.97113 1.06566e-17
8085.83259 1.05950e-17
8086.70407 1.05334e-17
8087.56553 1.04727e-17
8088.42699 1.04120e-17
8089.28845 1.03559e-17
8090.14991 1.02998e-17
8091.01138 1.02516e-17
8091.87284 1.02034e-17
8092.73430 1.01648e-17
8093.59576 1.01263e-17
8094.45722 1.00966e-17
8095.31869 1.00669e-17
8096.18015 1.00438e-17
8097.05163 1.00207e-17
8097.91309 9.99114e-18
8098.77455 9.96161e-18
8099.63601 9.91045e-18
8100.49748 9.85922e-18
8101.35894 9.78156e-18
8102.22040 9.70384e-18
8103.08186 9.60069e-18
8103.94332 9.49746e-18
8104.80479 9.38130e-18
8105.67626 9.26511e-18
8106.53773 9.15621e-18
8107.39919 9.04732e-18
8108.26065 8.95831e-18
8109.12211 8.86934e-18
8109.98357 8.80451e-18
8110.84504 8.73973e-18
8111.70650 8.69339e-18
8112.56796 8.64708e-18
8113.42942 8.59938e-18
8114.29088 8.55167e-18
8115.15235 8.48655e-18
8116.02383 8.42140e-18
8116.88529 8.33203e-18
8117.74675 8.24261e-18
8118.60821 8.12772e-18
8119.46967 8.01278e-18
8120.33114 7.88893e-18
8121.19260 7.76508e-18
8122.05406 7.64554e-18
8122.91552 7.52602e-18
8123.77698 7.39600e-18
8124.63845 7.26596e-18
8125.49991 7.11175e-18
8126.37139 6.95748e-18
8127.23285 6.78642e-18
8128.09431 6.61533e-18
8128.95577 6.43824e-18
8129.81723 6.26114e-18
8130.67870 6.09875e-18
8131.54016 5.93640e-18
8132.40162 5.81100e-18
8133.26308 5.68571e-18
8134.12454 5.58534e-18
8134.99602 5.48504e-18
8135.85749 5.38287e-18
8136.71895 5.28070e-18
8137.58041 5.16655e-18
8138.44187 5.05239e-18
8139.30333 4.92589e-18
8140.16480 4.79936e-18
8141.02626 4.66374e-18
8141.88772 4.52810e-18
8142.74918 4.39091e-18
8143.61064 4.25370e-18
8144.47210 4.12241e-18
8145.34358 3.99114e-18
8146.20505 3.87174e-18
8147.06651 3.75237e-18
8147.92797 3.64906e-18
8148.78943 3.54580e-18
8149.65089 3.45990e-18
8150.51236 3.37407e-18
8151.37382 3.30347e-18
8152.23528 3.23292e-18
8153.09674 3.16831e-18
8153.95820 3.10373e-18
8154.82968 3.03759e-18
8155.69115 2.97145e-18
8156.55261 2.90450e-18
8157.41407 2.83754e-18
8158.27553 2.77204e-18
8159.13699 2.70656e-18
8159.99845 2.64811e-18
8160.85992 2.58968e-18
8161.72138 2.54375e-18
8162.58284 2.49784e-18
8163.44430 2.46608e-18
8164.31578 2.43435e-18
8165.17724 2.41648e-18
8166.03871 2.39864e-18
8166.90017 2.38614e-18
8167.76163 2.37366e-18
8168.62309 2.35621e-18
8169.48455 2.33877e-18
8170.34602 2.30777e-18
8171.20748 2.27674e-18
8172.06894 2.22401e-18
8172.93040 2.17122e-18
8173.80188 2.11069e-18
8174.66334 2.05015e-18
8175.52481 2.01192e-18
8176.38627 1.97374e-18
8177.24773 1.96448e-18
8178.10919 1.95530e-18
8178.97065 1.95759e-18
8179.83212 1.95991e-18
8180.69358 1.96047e-18
8181.55504 1.96102e-18
8182.41650 1.95148e-18
8183.28798 1.94193e-18
8184.14944 1.91926e-18
8185.01090 1.89657e-18
8185.87237 1.87202e-18
8186.73383 1.84746e-18
8187.59529 1.82908e-18
8188.45675 1.81070e-18
8189.31821 1.79227e-18
8190.17968 1.77383e-18
8191.04114 1.75101e-18
8191.90260 1.72816e-18
8192.77408 1.70624e-18
8193.63554 1.68431e-18
8194.49700 1.66866e-18
8195.35846 1.65302e-18
8196.21993 1.64845e-18
8197.08139 1.64390e-18
8197.94285 1.65403e-18
8198.80431 1.66418e-18
8199.66577 1.68033e-18
8200.52724 1.69648e-18
8201.38870 1.70651e-18
8202.25016 1.71652e-18
8203.12164 1.71806e-18
8203.98310 1.71958e-18
8204.84456 1.71460e-18
8205.70603 1.70962e-18
8206.56749 1.69913e-18
8207.42895 1.68862e-18
8208.29041 1.67347e-18
8209.15187 1.65831e-18
8210.01334 1.64094e-18
8210.87480 1.62358e-18
8211.73626 1.60721e-18
8212.60774 1.59085e-18
8213.46920 1.57683e-18
8214.33066 1.56283e-18
8215.19212 1.55092e-18
8216.05359 1.53903e-18
8216.91505 1.52548e-18
8217.77651 1.51192e-18
8218.63797 1.48624e-18
8219.49943 1.46052e-18
8220.36090 1.41869e-18
8221.22236 1.37682e-18
8222.08382 1.32956e-18
8222.95530 1.28230e-18
8223.81676 1.24158e-18
8224.67822 1.20087e-18
8225.53969 1.18168e-18
8226.40115 1.16254e-18
8227.26261 1.17569e-18
8228.12407 1.18892e-18
8228.98553 1.22435e-18
8229.84700 1.25982e-18
8230.70846 1.30350e-18
8231.57994 1.34721e-18
8232.44140 1.38555e-18
8233.30286 1.42390e-18
8234.16432 1.44426e-18
8235.02578 1.46459e-18
8235.88725 1.47118e-18
8236.74871 1.47771e-18
8237.61017 1.48105e-18
8238.47163 1.48438e-18
8239.33309 1.49181e-18
8240.19456 1.49926e-18
8241.06604 1.51692e-18
8241.92750 1.53460e-18
8242.78896 1.55890e-18
8243.65042 1.58322e-18
8244.51188 1.60312e-18
8245.37335 1.62302e-18
8246.23481 1.63312e-18
8247.09627 1.64319e-18
8247.95773 1.64408e-18
8248.81919 1.64494e-18
8249.68066 1.63883e-18
8250.54212 1.63271e-18
8251.41360 1.62450e-18
8252.27506 1.61629e-18
8253.13652 1.61057e-18
8253.99798 1.60486e-18
8254.85945 1.60440e-18
8255.72091 1.60396e-18
8256.58237 1.61033e-18
8257.44383 1.61673e-18
8258.30529 1.62884e-18
8259.16676 1.64097e-18
8260.02822 1.65650e-18
8260.89970 1.67204e-18
8261.76116 1.68669e-18
8262.62262 1.70134e-18
8263.48408 1.71088e-18
8264.34554 1.72041e-18
8265.20701 1.72103e-18
8266.06847 1.72164e-18
8266.92993 1.71085e-18
8267.79139 1.70003e-18
8268.65285 1.68357e-18
8269.52433 1.66708e-18
8270.38580 1.65291e-18
8271.24726 1.63875e-18
8272.10872 1.63222e-18
8272.97018 1.62572e-18
8273.83164 1.63099e-18
8274.69311 1.63629e-18
8275.55457 1.64922e-18
8276.41603 1.66215e-18
8277.27749 1.67340e-18
8278.13895 1.68464e-18
8279.01043 1.69041e-18
8279.87189 1.69617e-18
8280.73336 1.69735e-18
8281.59482 1.69852e-18
8282.45628 1.69794e-18
8283.31774 1.69735e-18
8284.17920 1.70089e-18
8285.04067 1.70445e-18
8285.90213 1.71437e-18
8286.76359 1.72430e-18
8287.62505 1.73525e-18
8288.48651 1.74621e-18
8289.34798 1.75537e-18
8290.21946 1.76452e-18
8291.08092 1.77614e-18
8291.94238 1.78776e-18
8292.80384 1.80427e-18
8293.66530 1.82078e-18
8294.52677 1.83788e-18
8295.38823 1.85498e-18
8296.24969 1.86866e-18
8297.11115 1.88235e-18
8297.97261 1.89006e-18
8298.83408 1.89775e-18
8299.70555 1.89795e-18
8300.56702 1.89813e-18
8301.42848 1.89989e-18
8302.28994 1.90165e-18
8303.15140 1.91570e-18
8304.01286 1.92978e-18
8304.87433 1.95200e-18
8305.73579 1.97422e-18
8306.59725 1.99567e-18
8307.45871 2.01711e-18
8308.32017 2.03235e-18
8309.18164 2.04758e-18
8310.05312 2.05266e-18
8310.91458 2.05772e-18
8311.77604 2.05687e-18
8312.63750 2.05599e-18
8313.49896 2.05946e-18
8314.36043 2.06292e-18
8315.22189 2.07645e-18
8316.08335 2.09002e-18
8316.94481 2.11478e-18
8317.80627 2.13958e-18
8318.67775 2.17265e-18
8319.53921 2.20575e-18
8320.40068 2.23792e-18
8321.26214 2.27010e-18
8322.12360 2.29479e-18
8322.98506 2.31945e-18
8323.84652 2.33657e-18
8324.70799 2.35367e-18
8325.56945 2.36407e-18
8326.43091 2.37448e-18
8327.29237 2.38073e-18
8328.16385 2.38698e-18
8329.02531 2.39229e-18
8329.88678 2.39758e-18
8330.74824 2.40375e-18
8331.60970 2.40993e-18
8332.47116 2.41879e-18
8333.33262 2.42765e-18
8334.19408 2.44363e-18
8335.05555 2.45964e-18
8335.91701 2.48644e-18
8336.77847 2.51327e-18
8337.64995 2.54802e-18
8338.51141 2.58277e-18
8339.37287 2.62050e-18
8340.23434 2.65824e-18
8341.09580 2.69215e-18
8341.95726 2.72605e-18
8342.81872 2.74878e-18
8343.68018 2.77149e-18
8344.54165 2.78320e-18
8345.40311 2.79488e-18
8346.26457 2.80073e-18
8347.12603 2.80656e-18
8347.99751 2.81074e-18
8348.85897 2.81494e-18
8349.72043 2.82060e-18
8350.58190 2.82626e-18
8351.44336 2.83705e-18
8352.30482 2.84786e-18
8353.16628 2.86762e-18
8354.02775 2.88740e-18
8354.88921 2.91660e-18
8355.75067 2.94582e-18
8356.62215 2.97967e-18
8357.48361 3.01354e-18
8358.34507 3.04730e-18
8359.20653 3.08106e-18
8360.06800 3.11058e-18
8360.92946 3.14009e-18
8361.79092 3.16287e-18
8362.65238 3.18565e-18
8363.51384 3.20602e-18
8364.37531 3.22637e-18
8365.23677 3.24852e-18
8366.10825 3.27068e-18
8366.96971 3.29186e-18
8367.83117 3.31304e-18
8368.69263 3.33035e-18
8369.55410 3.34765e-18
8370.41556 3.36389e-18
8371.27702 3.38014e-18
8372.13848 3.39922e-18
8372.99994 3.41830e-18
8373.86140 3.44232e-18
8374.72287 3.46636e-18
8375.59435 3.49669e-18
8376.45581 3.52704e-18
8377.31727 3.56340e-18
8378.17873 3.59977e-18
8379.04019 3.64075e-18
8379.90166 3.68174e-18
8380.76312 3.72510e-18
8381.62458 3.76847e-18
8382.48604 3.81158e-18
8383.34750 3.85468e-18
8384.20897 3.89535e-18
8385.07043 3.93600e-18
8385.94191 3.97222e-18
8386.80337 4.00843e-18
8387.66483 4.04140e-18
8388.52629 4.07436e-18
8389.38775 4.11049e-18
8390.24922 4.14662e-18
8391.11068 4.18769e-18
8391.97214 4.22877e-18
8392.83360 4.26653e-18
8393.69507 4.30429e-18
8394.55653 4.33283e-18
8395.41799 4.36135e-18
8396.28947 4.38049e-18
8397.15093 4.39962e-18
8398.01239 4.41177e-18
8398.87385 4.42390e-18
8399.73532 4.44248e-18
8400.59678 4.46107e-18
8401.45824 4.49833e-18
8402.31970 4.53563e-18
8403.18116 4.58761e-18
8404.04263 4.63962e-18
8404.90409 4.69884e-18
8405.77557 4.75805e-18
8406.63703 4.81621e-18
8407.49849 4.87435e-18
8408.35995 4.92287e-18
8409.22142 4.97136e-18
8410.08288 5.01030e-18
8410.94434 5.04921e-18
8411.80580 5.08292e-18
8412.66726 5.11662e-18
8413.52873 5.14813e-18
8414.39019 5.17963e-18
8415.26167 5.21137e-18
8416.12313 5.24313e-18
8416.98459 5.27772e-18
8417.84605 5.31231e-18
8418.70751 5.35188e-18
8419.56898 5.39144e-18
8420.43044 5.43679e-18
8421.29190 5.48215e-18
8422.15336 5.53311e-18
8423.01482 5.58409e-18
8423.87629 5.63794e-18
8424.74777 5.69181e-18
8425.60923 5.74112e-18
8426.47069 5.79043e-18
8427.33215 5.83217e-18
8428.19361 5.87389e-18
8429.05508 5.91647e-18
8429.91654 5.95904e-18
8430.77800 6.00931e-18
8431.63946 6.05959e-18
8432.50092 6.11829e-18
8433.36239 6.17700e-18
8434.23386 6.24303e-18
8435.09533 6.30907e-18
8435.95679 6.37147e-18
8436.81825 6.43386e-18
8437.67971 6.48183e-18
8438.54117 6.52977e-18
8439.40264 6.56961e-18
8440.26410 6.60943e-18
8441.12556 6.65142e-18
8441.98702 6.69339e-18
8442.84848 6.74053e-18
8443.70995 6.78769e-18
8444.58143 6.84069e-18
8445.44289 6.89370e-18
8446.30435 6.95313e-18
8447.16581 7.01257e-18
8448.02727 7.07825e-18
8448.88874 7.14393e-18
8449.75020 7.21384e-18
8450.61166 7.28374e-18
8451.47312 7.35488e-18
8452.33458 7.42601e-18
8453.20606 7.49499e-18
8454.06752 7.56395e-18
8454.92899 7.62662e-18
8455.79045 7.68926e-18
8456.65191 7.74652e-18
8457.51337 7.80376e-18
8458.37483 7.86449e-18
8459.23630 7.92523e-18
8460.09776 7.99318e-18
8460.95922 8.06116e-18
8461.82068 8.12871e-18
8462.69216 8.19626e-18
8463.55362 8.25799e-18
8464.41508 8.31972e-18
8465.27655 8.37606e-18
8466.13801 8.43238e-18
8466.99947 8.48558e-18
8467.86093 8.53877e-18
8468.72240 8.60012e-18
8469.58386 8.66149e-18
8470.44532 8.74099e-18
8471.30678 8.82053e-18
8472.16824 8.91199e-18
8473.03972 9.00348e-18
8473.90118 9.09793e-18
8474.76265 9.19239e-18
8475.62411 9.28302e-18
8476.48557 9.37364e-18
8477.34703 9.45391e-18
8478.20849 9.53415e-18
8479.06996 9.61180e-18
8479.93142 9.68943e-18
8480.79288 9.77857e-18
8481.65434 9.86774e-18
8482.51580 9.96522e-18
8483.38728 1.00627e-17
8484.24875 1.01554e-17
8485.11021 1.02480e-17
8485.97167 1.03300e-17
8486.83313 1.04120e-17
8487.69459 1.04831e-17
8488.55605 1.05542e-17
8489.41752 1.06183e-17
8490.27898 1.06823e-17
8491.14044 1.07488e-17
8492.00190 1.08153e-17
8492.87338 1.08903e-17
8493.73484 1.09654e-17
8494.59631 1.10473e-17
8495.45777 1.11293e-17
8496.31923 1.12190e-17
8497.18069 1.13088e-17
8498.04215 1.14164e-17
8498.90362 1.15240e-17
8499.76508 1.16532e-17
8500.62654 1.17824e-17
8501.48800 1.19159e-17
8502.35948 1.20495e-17
8503.22094 1.21705e-17
8504.08240 1.22916e-17
8504.94387 1.23966e-17
8505.80533 1.25016e-17
8506.66679 1.25900e-17
8507.52825 1.26783e-17
8508.38972 1.27562e-17
8509.25118 1.28341e-17
8510.11264 1.29099e-17
8510.98412 1.29857e-17
8511.84558 1.30627e-17
8512.70704 1.31396e-17
8513.56850 1.32194e-17
8514.42997 1.32991e-17
8515.29143 1.33813e-17
8516.15289 1.34636e-17
8517.01435 1.35474e-17
8517.87581 1.36312e-17
8518.73728 1.37165e-17
8519.59874 1.38018e-17
8520.46020 1.38889e-17
8521.33168 1.39759e-17
8522.19314 1.40685e-17
8523.05460 1.41611e-17
8523.91607 1.42664e-17
8524.77753 1.43718e-17
8525.63899 1.44923e-17
8526.50045 1.46127e-17
8527.36191 1.47439e-17
8528.22337 1.48750e-17
8529.08484 1.50100e-17
8529.94630 1.51450e-17
8530.80776 1.52725e-17
8531.67924 1.54000e-17
8532.54070 1.55110e-17
8533.40216 1.56219e-17
8534.26363 1.57128e-17
8535.12509 1.58037e-17
8535.98655 1.58754e-17
8536.84801 1.59473e-17
8537.70947 1.60138e-17
8538.57094 1.60804e-17
8539.43240 1.61564e-17
8540.30388 1.62325e-17
8541.16534 1.63278e-17
8542.02680 1.64230e-17
8542.88826 1.65434e-17
8543.74972 1.66638e-17
8544.61119 1.68013e-17
8545.47265 1.69387e-17
8546.33411 1.70807e-17
8547.19557 1.72225e-17
8548.05703 1.73471e-17
8548.91850 1.74716e-17
8549.78998 1.75546e-17
8550.65144 1.76377e-17
8551.51290 1.76816e-17
8552.37436 1.77253e-17
8553.23582 1.77480e-17
8554.09729 1.77707e-17
8554.95875 1.77968e-17
8555.82021 1.78231e-17
8556.68167 1.78817e-17
8557.54313 1.79404e-17
8558.40460 1.80448e-17
8559.27607 1.81492e-17
8560.13754 1.82911e-17
8560.99900 1.84331e-17
8561.86046 1.85971e-17
8562.72192 1.87612e-17
8563.58338 1.89220e-17
8564.44485 1.90828e-17
8565.30631 1.92171e-17
8566.16777 1.93512e-17
8567.02923 1.94436e-17
8567.89070 1.95358e-17
8568.75216 1.95788e-17
8569.62364 1.96218e-17
8570.48510 1.96277e-17
8571.34656 1.96336e-17
8572.20802 1.96200e-17
8573.06948 1.96063e-17
8573.93095 1.95925e-17
8574.79241 1.95787e-17
8575.65387 1.95833e-17
8576.51533 1.95880e-17
8577.37679 1.96307e-17
8578.23826 1.96735e-17
8579.09972 1.97690e-17
8579.97120 1.98646e-17
8580.83266 1.99944e-17
8581.69412 2.01243e-17
8582.55558 2.02575e-17
8583.41705 2.03907e-17
8584.27851 2.05024e-17
8585.13997 2.06142e-17
8586.00143 2.06842e-17
8586.86289 2.07541e-17
8587.72436 2.07795e-17
8588.58582 2.08050e-17
8589.45730 2.07972e-17
8590.31876 2.07891e-17
8591.18022 2.07655e-17
8592.04168 2.07418e-17
8592.90314 2.07260e-17
8593.76461 2.07102e-17
8594.62607 2.07154e-17
8595.48753 2.07204e-17
8596.34899 2.07414e-17
8597.21045 2.07622e-17
8598.07192 2.07955e-17
8598.94340 2.08289e-17
8599.80486 2.08781e-17
8600.66632 2.09274e-17
8601.52778 2.09910e-17
8602.38924 2.10546e-17
8603.25071 2.11224e-17
8604.11217 2.11904e-17
8604.97363 2.12514e-17
8605.83509 2.13125e-17
8606.69655 2.13517e-17
8607.56803 2.13910e-17
8608.42949 2.13964e-17
8609.29096 2.14017e-17
8610.15242 2.13767e-17
8611.01388 2.13514e-17
8611.87534 2.13043e-17
8612.73680 2.12572e-17
8613.59827 2.11978e-17
8614.45973 2.11384e-17
8615.32119 2.10769e-17
8616.18265 2.10155e-17
8617.04411 2.09711e-17
8617.91559 2.09268e-17
8618.77706 2.09207e-17
8619.63852 2.09145e-17
8620.49998 2.09477e-17
8621.36144 2.09810e-17
8622.22290 2.10421e-17
8623.08437 2.11034e-17
8623.94583 2.11762e-17
8624.80729 2.12491e-17
8625.66875 2.13131e-17
8626.53021 2.13770e-17
8627.40169 2.14197e-17
8628.26315 2.14622e-17
8629.12462 2.14833e-17
8629.98608 2.15043e-17
8630.84754 2.15033e-17
8631.70900 2.15022e-17
8632.57046 2.14762e-17
8633.43193 2.14501e-17
8634.29339 2.14027e-17
8635.15485 2.13553e-17
8636.01631 2.13014e-17
8636.88779 2.12474e-17
8637.74925 2.12025e-17
8638.61072 2.11577e-17
8639.47218 2.11397e-17
8640.33364 2.11218e-17
8641.19510 2.11432e-17
8642.05656 2.11646e-17
8642.91803 2.12149e-17
8643.77949 2.12653e-17
8644.64095 2.13288e-17
8645.50241 2.13923e-17
8646.37389 2.14524e-17
8647.23535 2.15126e-17
8648.09681 2.15530e-17
8648.95828 2.15933e-17
8649.81974 2.16079e-17
8650.68120 2.16224e-17
8651.54266 2.16113e-17
8652.40412 2.16001e-17
8653.26559 2.15615e-17
8654.12705 2.15230e-17
8654.98851 2.14559e-17
8655.85999 2.13887e-17
8656.72145 2.13047e-17
8657.58291 2.12207e-17
8658.44438 2.11399e-17
8659.30584 2.10592e-17
8660.16730 2.09956e-17
8661.02876 2.09321e-17
8661.89022 2.08918e-17
8662.75168 2.08518e-17
8663.61315 2.08380e-17
8664.47461 2.08245e-17
8665.33607 2.08364e-17
8666.20755 2.08483e-17
8667.06901 2.08802e-17
8667.93047 2.09123e-17
8668.79194 2.09542e-17
8669.65340 2.09963e-17
8670.51486 2.10348e-17
8671.37632 2.10734e-17
8672.23778 2.10853e-17
8673.09925 2.10971e-17
8673.96071 2.10652e-17
8674.82217 2.10332e-17
8675.68363 2.09626e-17
8676.55511 2.08919e-17
8677.41657 2.07941e-17
8678.27803 2.06960e-17
8679.13950 2.05900e-17
8680.00096 2.04838e-17
8680.86242 2.03906e-17
8681.72388 2.02974e-17
8682.58535 2.02254e-17
8683.44681 2.01536e-17
8684.30827 2.01058e-17
8685.16973 2.00581e-17
8686.04121 2.00374e-17
8686.90267 2.00168e-17
8687.76413 2.00236e-17
8688.62560 2.00304e-17
8689.48706 2.00594e-17
8690.34852 2.00883e-17
8691.20998 2.01309e-17
8692.07144 2.01735e-17
8692.93291 2.02154e-17
8693.79437 2.02571e-17
8694.66585 2.02797e-17
8695.52731 2.03023e-17
8696.38877 2.02945e-17
8697.25023 2.02865e-17
8698.11170 2.02464e-17
8698.97316 2.02060e-17
8699.83462 2.01378e-17
8700.69608 2.00696e-17
8701.55754 1.99882e-17
8702.41900 1.99068e-17
8703.28047 1.98246e-17
8704.15195 1.97424e-17
8705.01341 1.96597e-17
8705.87487 1.95772e-17
8706.73633 1.94977e-17
8707.59779 1.94183e-17
8708.45926 1.93585e-17
8709.32072 1.92988e-17
8710.18218 1.92717e-17
8711.04364 1.92446e-17
8711.90510 1.92508e-17
8712.76657 1.92572e-17
8713.62803 1.92919e-17
8714.49951 1.93267e-17
8715.36097 1.93646e-17
8716.22243 1.94025e-17
8717.08389 1.94148e-17
8717.94535 1.94271e-17
8718.80682 1.94021e-17
8719.66828 1.93768e-17
8720.52974 1.93100e-17
8721.39120 1.92431e-17
8722.25267 1.91509e-17
8723.11413 1.90587e-17
8723.98561 1.89698e-17
8724.84707 1.88808e-17
8725.70853 1.88058e-17
8726.56999 1.87306e-17
8727.43145 1.86663e-17
8728.29292 1.86021e-17
8729.15438 1.85489e-17
8730.01584 1.84957e-17
8730.87730 1.84551e-17
8731.73876 1.84143e-17
8732.61024 1.83899e-17
8733.47170 1.83655e-17
8734.33317 1.83687e-17
8735.19463 1.83720e-17
8736.05609 1.83994e-17
8736.91755 1.84268e-17
8737.77902 1.84461e-17
8738.64048 1.84654e-17
8739.50194 1.84490e-17
8740.36340 1.84327e-17
8741.22486 1.83658e-17
8742.08633 1.82988e-17
8742.95780 1.81774e-17
8743.81927 1.80559e-17
8744.68073 1.79150e-17
8745.54219 1.77740e-17
8746.40365 1.76517e-17
8747.26511 1.75294e-17
8748.12658 1.74433e-17
8748.98804 1.73575e-17
8749.84950 1.73185e-17
8750.71096 1.72796e-17
8751.57242 1.72766e-17
8752.44390 1.72738e-17
8753.30537 1.72859e-17
8754.16683 1.72980e-17
8755.02829 1.73136e-17
8755.88975 1.73292e-17
8756.75121 1.73408e-17
8757.61268 1.73524e-17
8758.47414 1.73431e-17
8759.33560 1.73336e-17
8760.19706 1.72828e-17
8761.05852 1.72319e-17
8761.91999 1.71362e-17
8762.79146 1.70405e-17
8763.65293 1.69111e-17
8764.51439 1.67815e-17
8765.37585 1.66363e-17
8766.23731 1.64911e-17
8767.09877 1.63559e-17
8767.96024 1.62209e-17
8768.82170 1.61124e-17
8769.68316 1.60041e-17
8770.54462 1.59203e-17
8771.40608 1.58367e-17
8772.26755 1.57739e-17
8773.13903 1.57112e-17
8774.00049 1.56667e-17
8774.86195 1.56220e-17
8775.72341 1.55896e-17
8776.58487 1.55571e-17
8777.44633 1.55316e-17
8778.30780 1.55062e-17
8779.16926 1.54802e-17
8780.03072 1.54542e-17
8780.89218 1.54051e-17
8781.76366 1.53559e-17
8782.62512 1.52635e-17
8783.48659 1.51708e-17
8784.34805 1.50447e-17
8785.20951 1.49186e-17
8786.07097 1.47769e-17
8786.93243 1.46352e-17
8787.79390 1.44915e-17
8788.65536 1.43477e-17
8789.51682 1.42152e-17
8790.37828 1.40827e-17
8791.24976 1.39611e-17
8792.11122 1.38395e-17
8792.97268 1.37193e-17
8793.83415 1.35989e-17
8794.69561 1.34862e-17
8795.55707 1.33735e-17
8796.41853 1.32856e-17
8797.28000 1.31979e-17
8798.14146 1.31314e-17
8799.00292 1.30649e-17
8799.86438 1.29966e-17
8800.72584 1.29283e-17
8801.59732 1.28393e-17
8802.45878 1.27503e-17
8803.32025 1.26278e-17
8804.18171 1.25054e-17
8805.04317 1.23478e-17
8805.90463 1.21903e-17
8806.76609 1.20203e-17
8807.62756 1.18502e-17
8808.48902 1.16885e-17
8809.35048 1.15268e-17
8810.21194 1.13834e-17
8811.08342 1.12400e-17
8811.94488 1.11214e-17
8812.80635 1.10030e-17
8813.66781 1.09068e-17
8814.52927 1.08106e-17
8815.39073 1.07304e-17
8816.25219 1.06503e-17
8817.11365 1.05782e-17
8817.97512 1.05062e-17
8818.83658 1.04335e-17
8819.70806 1.03609e-17
8820.56952 1.02769e-17
8821.43098 1.01929e-17
8822.29244 1.00885e-17
8823.15391 9.98395e-18
8824.01537 9.85780e-18
8824.87683 9.73160e-18
8825.73829 9.58711e-18
8826.59975 9.44256e-18
8827.46122 9.29303e-18
8828.32268 9.14349e-18
8829.19416 9.00809e-18
8830.05562 8.87275e-18
8830.91708 8.76126e-18
8831.77854 8.64985e-18
8832.64000 8.56297e-18
8833.50147 8.47617e-18
8834.36293 8.41080e-18
8835.22439 8.34548e-18
8836.08585 8.29396e-18
8836.94732 8.24247e-18
8837.80878 8.19583e-18
8838.67024 8.14920e-18
8839.54172 8.09825e-18
8840.40318 8.04729e-18
8841.26464 7.98525e-18
8842.12610 7.92318e-18
8842.98757 7.84916e-18
8843.84903 7.77510e-18
8844.71049 7.69050e-18
8845.57195 7.60588e-18
8846.43341 7.51568e-18
8847.29488 7.42546e-18
8848.15634 7.33598e-18
8849.02782 7.24651e-18
8849.88928 7.16116e-18
8850.75074 7.07583e-18
8851.61220 6.99783e-18
8852.47367 6.91987e-18
8853.33513 6.86580e-18
8854.19659 6.81179e-18
8855.05805 6.79814e-18
8855.91951 6.78459e-18
8856.78097 6.79827e-18
8857.64244 6.81201e-18
8858.50390 6.82991e-18
8859.36536 6.84780e-18
8860.23684 6.85085e-18
8861.09830 6.85385e-18
8861.95976 6.82484e-18
8862.82123 6.79572e-18
8863.68269 6.74112e-18
8864.54415 6.68644e-18
8865.40561 6.63136e-18
8866.26707 6.57628e-18
8867.12854 6.53241e-18
8867.99000 6.48857e-18
8868.86148 6.45295e-18
8869.72294 6.41735e-18
8870.58440 6.38871e-18
8871.44586 6.36009e-18
8872.30732 6.33731e-18
8873.16879 6.31456e-18
8874.03025 6.29889e-18
8874.89171 6.28325e-18
8875.75317 6.28436e-18
8876.61463 6.28551e-18
8877.47610 6.30730e-18
8878.34758 6.32914e-18
8879.20904 6.35955e-18
8880.07050 6.38999e-18
8880.93196 6.41639e-18
8881.79342 6.44279e-18
8882.65489 6.45344e-18
8883.51635 6.46404e-18
8884.37781 6.45038e-18
8885.23927 6.43665e-18
8886.10073 6.40657e-18
8886.96220 6.37646e-18
8887.83367 6.34234e-18
8888.69514 6.30822e-18
8889.55660 6.28151e-18
8890.41806 6.25481e-18
8891.27952 6.24586e-18
8892.14099 6.23697e-18
8893.00245 6.25165e-18
8893.86391 6.26640e-18
8894.72537 6.30704e-18
8895.58683 6.34773e-18
8896.44830 6.40475e-18
8897.30976 6.46182e-18
8898.18124 6.51891e-18
8899.04270 6.57598e-18
8899.90416 6.61919e-18
8900.76562 6.66234e-18
8901.62708 6.68002e-18
8902.48855 6.69763e-18
8903.35001 6.69159e-18
8904.21147 6.68549e-18
8905.07293 6.67506e-18
8905.93439 6.66461e-18
8906.80587 6.66247e-18
8907.66734 6.66034e-18
8908.52880 6.66522e-18
8909.39026 6.67013e-18
8910.25172 6.68207e-18
8911.11318 6.69402e-18
8911.97465 6.71537e-18
8912.83611 6.73674e-18
8913.69757 6.76848e-18
8914.55903 6.80025e-18
8915.42049 6.84463e-18
8916.29197 6.88904e-18
8917.15343 6.94553e-18
8918.01490 7.00204e-18
8918.87636 7.05610e-18
8919.73782 7.11015e-18
8920.59928 7.14724e-18
8921.46074 7.18429e-18
8922.32221 7.20028e-18
8923.18367 7.21622e-18
8924.04513 7.21069e-18
8924.90659 7.20510e-18
8925.76805 7.19517e-18
8926.63953 7.18523e-18
8927.50100 7.19429e-18
8928.36246 7.20339e-18
8929.22392 7.23232e-18
8930.08538 7.26130e-18
8930.94684 7.29954e-18
8931.80831 7.33780e-18
8932.66977 7.37769e-18
8933.53123 7.41757e-18
8934.39269 7.45170e-18
8935.25415 7.48580e-18
8936.12563 7.51765e-18
8936.98709 7.54949e-18
8937.84856 7.59578e-18
8938.71002 7.64211e-18
8939.57148 7.70360e-18
8940.43294 7.76512e-18
8941.29440 7.81914e-18
8942.15587 7.87314e-18
8943.01733 7.90306e-18
8943.87879 7.93290e-18
8944.74025 7.93126e-18
8945.61173 7.92952e-18
8946.47319 7.89900e-18
8947.33466 7.86840e-18
8948.19612 7.84399e-18
8949.05758 7.81960e-18
8949.91904 7.82969e-18
8950.78050 7.83988e-18
8951.64197 7.87566e-18
8952.50343 7.91149e-18
8953.36489 7.95867e-18
8954.22635 8.00588e-18
8955.08781 8.02725e-18
8955.95929 8.04854e-18
8956.82075 8.00753e-18
8957.68222 7.96636e-18
8958.54368 7.90847e-18
8959.40514 7.85054e-18
8960.26660 7.84282e-18
8961.12806 7.83525e-18
8961.98953 7.88728e-18
8962.85099 7.93947e-18
8963.71245 8.03856e-18
8964.57391 8.13777e-18
8965.44539 8.25180e-18
8966.30685 8.36586e-18
8967.16832 8.44622e-18
8968.02978 8.52651e-18
8968.89124 8.57854e-18
8969.75270 8.63051e-18
8970.61416 8.70734e-18
8971.47563 8.78424e-18
8972.33709 8.90427e-18
8973.19855 9.02442e-18
8974.06001 9.16489e-18
8974.93149 9.30541e-18
8975.79295 9.43338e-18
8976.65441 9.56130e-18
8977.51588 9.62637e-18
8978.37734 9.69127e-18
8979.23880 9.65421e-18
8980.10026 9.61686e-18
8980.96172 9.45238e-18
8981.82319 9.28758e-18
8982.68465 9.01193e-18
8983.54611 8.73599e-18
8984.41759 8.49742e-18
8985.27905 8.25896e-18
8986.14051 8.19425e-18
8987.00198 8.12999e-18
8987.86344 8.28604e-18
8988.72490 8.44267e-18
8989.58636 8.82653e-18
8990.44782 9.21099e-18
8991.30928 9.63947e-18
8992.17075 1.00681e-17
8993.03221 1.03206e-17
8993.89367 1.05727e-17
8994.76515 1.06162e-17
8995.62661 1.06592e-17
8996.48807 1.05341e-17
8997.34954 1.04085e-17
8998.21100 1.02134e-17
8999.07246 1.00180e-17
8999.93392 9.88746e-18
9000.79538 9.75704e-18
9001.65685 9.74970e-18
9002.51831 9.74270e-18
9003.38979 9.85499e-18
9004.25125 9.96758e-18
9005.11271 1.01604e-17
9005.97417 1.03533e-17
9006.83563 1.05498e-17
9007.69710 1.07463e-17
9008.55856 1.08867e-17
9009.42002 1.10269e-17
9010.28148 1.10834e-17
9011.14295 1.11397e-17
9012.00441 1.11136e-17
9012.87589 1.10873e-17
9013.73735 1.10445e-17
9014.59881 1.10017e-17
9015.46027 1.09912e-17
9016.32173 1.09807e-17
9017.18320 1.09726e-17
9018.04466 1.09644e-17
9018.90612 1.09364e-17
9019.76758 1.09083e-17
9020.62904 1.08861e-17
9021.49051 1.08639e-17
9022.35197 1.08742e-17
9023.22345 1.08846e-17
9024.08491 1.09610e-17
9024.94637 1.10376e-17
9025.80783 1.12070e-17
9026.66930 1.13767e-17
9027.53076 1.15983e-17
9028.39222 1.18201e-17
9029.25368 1.20324e-17
9030.11514 1.22445e-17
9030.97660 1.24047e-17
9031.83807 1.25646e-17
9032.70955 1.26408e-17
9033.57101 1.27168e-17
9034.43247 1.27063e-17
9035.29393 1.26956e-17
9036.15539 1.26145e-17
9037.01686 1.25332e-17
9037.87832 1.24231e-17
9038.73978 1.23130e-17
9039.60124 1.22379e-17
9040.46270 1.21631e-17
9041.32417 1.21402e-17
9042.18563 1.21173e-17
9043.05711 1.20997e-17
9043.91857 1.20820e-17
9044.78003 1.20450e-17
9045.64149 1.20079e-17
9046.50295 1.19663e-17
9047.36442 1.19247e-17
9048.22588 1.18913e-17
9049.08734 1.18580e-17
9049.94880 1.18535e-17
9050.81027 1.18489e-17
9051.67173 1.18787e-17
9052.54321 1.19086e-17
9053.40467 1.19118e-17
9054.26613 1.19148e-17
9055.12759 1.18379e-17
9055.98905 1.17609e-17
9056.85052 1.16326e-17
9057.71198 1.15041e-17
9058.57344 1.13629e-17
9059.43490 1.12216e-17
9060.29636 1.10724e-17
9061.16784 1.09231e-17
9062.02931 1.07676e-17
9062.89077 1.06122e-17
9063.75223 1.04450e-17
9064.61369 1.02777e-17
9065.47515 1.00862e-17
9066.33662 9.89467e-18
9067.19808 9.72768e-18
9068.05954 9.56076e-18
9068.92100 9.49924e-18
9069.78246 9.43800e-18
9070.64393 9.46404e-18
9071.51540 9.49033e-18
9072.37687 9.51328e-18
9073.23833 9.53623e-18
9074.09979 9.52266e-18
9074.96125 9.50900e-18
9075.82271 9.48420e-18
9076.68418 9.45937e-18
9077.54564 9.43919e-18
9078.40710 9.41903e-18
9079.26856 9.41261e-18
9080.13002 9.40623e-18
9080.99149 9.41321e-18
9081.86297 9.42022e-18
9082.72443 9.40918e-18
9083.58589 9.39808e-18
9084.44735 9.35146e-18
9085.30881 9.30474e-18
9086.17028 9.25717e-18
9087.03174 9.20958e-18
9087.89320 9.18772e-18
9088.75466 9.16591e-18
9089.61612 9.13572e-18
9090.48760 9.10550e-18
9091.34906 9.03436e-18
9092.21053 8.96351e-18
9093.07199 8.88509e-18
9093.93345 8.80665e-18
9094.79491 8.76212e-18
9095.65637 8.71771e-18
9096.51784 8.69541e-18
9097.37930 8.67319e-18
9098.24076 8.64857e-18
9099.10222 8.62393e-18
9099.97370 8.60333e-18
9100.83516 8.58274e-18
9101.69663 8.57931e-18
9102.55809 8.57593e-18
9103.41955 8.61486e-18
9104.28101 8.65391e-18
9105.14247 8.77127e-18
9106.00393 8.88886e-18
9106.86540 9.04187e-18
9107.72686 9.19499e-18
9108.58832 9.27398e-18
9109.45980 9.35276e-18
9110.32126 9.31096e-18
9111.18272 9.26884e-18
9112.04419 9.13348e-18
9112.90565 8.99786e-18
9113.76711 8.82485e-18
9114.62857 8.65176e-18
9115.49003 8.55593e-18
9116.35150 8.46031e-18
9117.21296 8.50145e-18
9118.07442 8.54298e-18
9118.93588 8.63253e-18
9119.80736 8.72223e-18
9120.66882 8.77373e-18
9121.53028 8.82512e-18
9122.39175 8.78318e-18
9123.25321 8.74097e-18
9124.11467 8.57231e-18
9124.97613 8.40331e-18
9125.83760 8.18595e-18
9126.69906 7.96847e-18
9127.56052 7.79735e-18
9128.43200 7.62637e-18
9129.29346 7.55054e-18
9130.15492 7.47499e-18
9131.01638 7.52607e-18
9131.87785 7.57749e-18
9132.73931 7.73416e-18
9133.60077 7.89113e-18
9134.46223 8.10523e-18
9135.32369 8.31948e-18
9136.18516 8.54086e-18
9137.04662 8.76227e-18
9137.90808 8.93920e-18
9138.76954 9.11600e-18
9139.64102 9.21517e-18
9140.50248 9.31413e-18
9141.36395 9.32431e-18
9142.22541 9.33425e-18
9143.08687 9.23857e-18
9143.94833 9.14260e-18
9144.80979 8.91681e-18
9145.67125 8.69067e-18
9146.53272 8.36404e-18
9147.39418 8.03713e-18
9148.26566 7.70830e-18
9149.12712 7.37948e-18
9149.98858 7.13799e-18
9150.85004 6.89674e-18
9151.71151 6.81500e-18
9152.57297 6.73372e-18
9153.43443 6.84000e-18
9154.29589 6.94679e-18
9155.15735 7.14820e-18
9156.01882 7.34986e-18
9156.88028 7.54824e-18
9157.75176 7.74661e-18
9158.61322 7.89608e-18
9159.47468 8.04541e-18
9160.33614 8.11053e-18
9161.19760 8.17539e-18
9162.05907 8.15850e-18
9162.92053 8.14138e-18
9163.78199 8.06175e-18
9164.64345 7.98195e-18
9165.50492 7.83692e-18
9166.36638 7.69171e-18
9167.22784 7.47784e-18
9168.09932 7.26380e-18
9168.96078 7.03416e-18
9169.82224 6.80450e-18
9170.68370 6.63092e-18
9171.54517 6.45752e-18
9172.40663 6.37590e-18
9173.26809 6.29453e-18
9174.12955 6.32050e-18
9174.99101 6.34676e-18
9175.85248 6.43617e-18
9176.71394 6.52574e-18
9177.58542 6.57824e-18
9178.44688 6.63064e-18
9179.30834 6.61705e-18
9180.16980 6.60328e-18
9181.03127 6.58944e-18
9181.89273 6.57561e-18
9182.75419 6.59776e-18
9183.61565 6.62001e-18
9184.47711 6.66524e-18
9185.33857 6.71052e-18
9186.20004 6.76321e-18
9187.07152 6.81591e-18
9187.93298 6.83829e-18
9188.79444 6.86058e-18
9189.65590 6.83166e-18
9190.51736 6.80258e-18
9191.37883 6.78077e-18
9192.24029 6.75898e-18
9193.10175 6.79628e-18
9193.96321 6.83374e-18
9194.82467 6.90703e-18
9195.68614 6.98041e-18
9196.55762 7.05670e-18
9197.41908 7.13300e-18
9198.28054 7.18248e-18
9199.14200 7.23188e-18
9200.00346 7.22589e-18
9200.86492 7.21976e-18
9201.72639 7.17942e-18
9202.58785 7.13897e-18
9203.44931 7.10580e-18
9204.31077 7.07266e-18
9205.17224 7.04787e-18
9206.04371 7.02310e-18
9206.90518 6.98846e-18
9207.76664 6.95378e-18
9208.62810 6.91507e-18
9209.48956 6.87635e-18
9210.35102 6.85309e-18
9211.21249 6.82986e-18
9212.07395 6.84163e-18
9212.93541 6.85351e-18
9213.79687 6.92278e-18
9214.65833 6.99219e-18
9215.52981 7.11446e-18
9216.39127 7.23687e-18
9217.25274 7.36568e-18
9218.11420 7.49451e-18
9218.97566 7.59970e-18
9219.83712 7.70482e-18
9220.69859 7.79600e-18
9221.56005 7.88716e-18
9222.42151 7.96977e-18
9223.28297 8.05235e-18
9224.14443 8.11718e-18
9225.00590 8.18197e-18
9225.87737 8.22258e-18
9226.73884 8.26313e-18
9227.60030 8.27279e-18
9228.46176 8.28236e-18
9229.32322 8.25846e-18
9230.18468 8.23449e-18
9231.04615 8.20428e-18
9231.90761 8.17406e-18
9232.76907 8.16900e-18
9233.63053 8.16400e-18
9234.49199 8.17718e-18
9235.35346 8.19039e-18
9236.22494 8.20409e-18
9237.08640 8.21779e-18
9237.94786 8.24008e-18
9238.80932 8.26240e-18
9239.67078 8.30993e-18
9240.53225 8.35751e-18
9241.39371 8.43824e-18
9242.25517 8.51906e-18
9243.11663 8.63624e-18
9243.97809 8.75353e-18
9244.84957 8.89696e-18
9245.71103 9.04046e-18
9246.57250 9.18685e-18
9247.43396 9.33325e-18
9248.29542 9.46931e-18
9249.15688 9.60533e-18
9250.01834 9.73379e-18
9250.87981 9.86223e-18
9251.74127 9.97661e-18
9252.60273 1.00909e-17
9253.46419 1.01638e-17
9254.32565 1.02366e-17
9255.19713 1.02635e-17
9256.05860 1.02902e-17
9256.92006 1.03245e-17
9257.78152 1.03587e-17
9258.64298 1.04403e-17
9259.50444 1.05220e-17
9260.36591 1.06389e-17
9261.22737 1.07559e-17
9262.08883 1.08866e-17
9262.95029 1.10172e-17
9263.81175 1.11144e-17
9264.68323 1.12115e-17
9265.54469 1.12302e-17
9266.40616 1.12486e-17
9267.26762 1.11899e-17
9268.12908 1.11311e-17
9268.99054 1.10137e-17
9269.85200 1.08962e-17
9270.71347 1.07638e-17
9271.57493 1.06314e-17
9272.43639 1.05361e-17
9273.29785 1.04409e-17
9274.16933 1.04238e-17
9275.03079 1.04069e-17
9275.89226 1.04980e-17
9276.75372 1.05895e-17
9277.61518 1.07735e-17
9278.47664 1.09578e-17
9279.33810 1.11841e-17
9280.19957 1.14105e-17
9281.06103 1.16244e-17
9281.92249 1.18382e-17
9282.79397 1.19867e-17
9283.65543 1.21352e-17
9284.51689 1.21766e-17
9285.37835 1.22176e-17
9286.23982 1.21268e-17
9287.10128 1.20357e-17
9287.96274 1.18237e-17
9288.82420 1.16114e-17
9289.68566 1.13454e-17
9290.54713 1.10793e-17
9291.40859 1.08376e-17
9292.27005 1.05959e-17
9293.14153 1.04811e-17
9294.00299 1.03667e-17
9294.86445 1.04462e-17
9295.72592 1.05262e-17
9296.58738 1.07307e-17
9297.44884 1.09355e-17
9298.31030 1.11732e-17
9299.17176 1.14109e-17
9300.03323 1.15565e-17
9300.89469 1.17019e-17
9301.75615 1.16355e-17
9302.62763 1.15684e-17
9303.48909 1.14053e-17
9304.35055 1.12418e-17
9305.21201 1.11705e-17
9306.07348 1.10993e-17
9306.93494 1.10758e-17
9307.79640 1.10525e-17
9308.65786 1.09400e-17
9309.51932 1.08273e-17
9310.38079 1.06323e-17
9311.24225 1.04370e-17
9312.11373 1.02401e-17
9312.97519 1.00432e-17
9313.83665 9.92358e-18
9314.69811 9.80417e-18
9315.55958 9.85184e-18
9316.42104 9.90000e-18
9317.28250 1.00974e-17
9318.14396 1.02953e-17
9319.00542 1.04695e-17
9319.86688 1.06435e-17
9320.72835 1.07265e-17
9321.58981 1.08091e-17
9322.46129 1.09603e-17
9323.32275 1.11117e-17
9324.18421 1.13661e-17
9325.04567 1.16207e-17
9325.90714 1.16521e-17
9326.76860 1.16828e-17
9327.63006 1.12901e-17
9328.49152 1.08962e-17
9329.35298 1.03951e-17
9330.21445 9.89370e-18
9331.07591 9.58990e-18
9331.94739 9.28667e-18
9332.80885 9.12121e-18
9333.67031 8.95616e-18
9334.53177 8.84075e-18
9335.39323 8.72548e-18
9336.25470 8.66212e-18
9337.11616 8.59891e-18
9337.97762 8.57244e-18
9338.83908 8.54610e-18
9339.70055 8.82569e-18
9340.56201 9.10615e-18
9341.43349 1.00563e-17
9342.29495 1.10084e-17
9343.15641 1.21623e-17
9344.01787 1.33166e-17
9344.87933 1.38150e-17
9345.74080 1.43114e-17
9346.60226 1.38982e-17
9347.46372 1.34823e-17
9348.32518 1.23036e-17
9349.18664 1.11228e-17
9350.04811 9.72081e-18
9350.90957 8.31818e-18
9351.78105 7.69240e-18
9352.64251 7.06888e-18
9353.50397 7.54735e-18
9354.36543 8.02896e-18
9355.22689 8.88852e-18
9356.08836 9.74914e-18
9356.94982 1.03818e-17
9357.81128 1.10137e-17
9358.67274 1.10568e-17
9359.53420 1.10981e-17
9360.39567 1.03948e-17
9361.26715 9.68929e-18
9362.12861 8.80921e-18
9362.99007 7.92867e-18
9363.85153 7.40959e-18
9364.71299 6.89157e-18
9365.57446 6.76446e-18
9366.43592 6.63849e-18
9367.29738 6.85154e-18
9368.15884 7.06555e-18
9369.02030 7.35163e-18
9369.89178 7.63790e-18
9370.75324 7.69108e-18
9371.61471 7.74358e-18
9372.47617 7.58261e-18
9373.33763 7.42104e-18
9374.19909 7.16023e-18
9375.06056 6.89915e-18
9375.92202 6.71331e-18
9376.78348 6.52768e-18
9377.64494 6.63032e-18
9378.50640 6.73378e-18
9379.37788 7.04393e-18
9380.23934 7.35467e-18
9381.10081 7.59741e-18
9381.96227 7.83994e-18
9382.82373 7.92768e-18
9383.68519 8.01496e-18
9384.54665 8.02675e-18
9385.40812 8.03831e-18
9386.26958 7.99602e-18
9387.13104 7.95356e-18
9387.99250 7.82016e-18
9388.85396 7.68649e-18
9389.72544 7.45990e-18
9390.58691 7.23303e-18
9391.44837 6.94743e-18
9392.30983 6.66167e-18
9393.17129 6.36390e-18
9394.03275 6.06612e-18
9394.89422 5.83936e-18
9395.75568 5.61281e-18
9396.61714 5.51333e-18
9397.47860 5.41422e-18
9398.34006 5.40031e-18
9399.21154 5.38665e-18
9400.07300 5.40587e-18
9400.93447 5.42518e-18
9401.79593 5.42713e-18
9402.65739 5.42902e-18
9403.51885 5.36959e-18
9404.38031 5.30999e-18
9405.24178 5.23874e-18
9406.10324 5.16746e-18
9406.96470 5.15401e-18
9407.82616 5.14072e-18
9408.69764 5.18581e-18
9409.55910 5.23108e-18
9410.42057 5.31052e-18
9411.28203 5.39005e-18
9412.14349 5.46625e-18
9413.00495 5.54244e-18
9413.86641 5.57082e-18
9414.72788 5.59905e-18
9415.58934 5.54989e-18
9416.45080 5.50050e-18
9417.31226 5.36462e-18
9418.17372 5.22848e-18
9419.04520 5.01538e-18
9419.90666 4.80206e-18
9420.76813 4.52597e-18
9421.62959 4.24971e-18
9422.49105 4.00945e-18
9423.35251 3.76930e-18
9424.21397 3.80068e-18
9425.07544 3.83285e-18
9425.93690 4.21159e-18
9426.79836 4.59132e-18
9427.65982 5.07019e-18
9428.53130 5.54931e-18
9429.39276 5.88993e-18
9430.25423 6.23014e-18
9431.11569 6.21185e-18
9431.97715 6.19254e-18
9432.83861 5.70358e-18
9433.70007 5.21328e-18
9434.56153 4.64134e-18
9435.42300 4.06920e-18
9436.28446 3.81984e-18
9437.14592 3.57144e-18
9438.01740 3.70854e-18
9438.87886 3.84678e-18
9439.74032 4.34409e-18
9440.60179 4.84243e-18
9441.46325 5.44738e-18
9442.32471 6.05262e-18
9443.18617 6.44010e-18
9444.04763 6.82695e-18
9444.90910 6.90399e-18
9445.77056 6.98012e-18
9446.63202 6.76701e-18
9447.49348 6.55307e-18
9448.36496 6.16485e-18
9449.22642 5.77614e-18
9450.08788 5.39791e-18
9450.94935 5.01972e-18
9451.81081 4.77207e-18
9452.67227 4.52481e-18
9453.53373 4.45476e-18
9454.39520 4.38522e-18
9455.25666 4.50450e-18
9456.11812 4.62432e-18
9456.98960 4.90399e-18
9457.85106 5.18411e-18
9458.71252 5.54044e-18
9459.57398 5.89697e-18
9460.43545 6.16098e-18
9461.29691 6.42472e-18
9462.15837 6.49461e-18
9463.01983 6.56394e-18
9463.88129 6.51925e-18
9464.74276 6.47424e-18
9465.60422 6.39813e-18
9466.47570 6.32194e-18
9467.33716 6.26550e-18
9468.19862 6.20912e-18
9469.06008 6.21339e-18
9469.92155 6.21784e-18
9470.78301 6.21988e-18
9471.64447 6.22191e-18
9472.50593 6.15469e-18
9473.36739 6.08729e-18
9474.22885 5.99278e-18
9475.09032 5.89819e-18
9475.96180 5.83348e-18
9476.82326 5.76885e-18
9477.68472 5.85229e-18
9478.54618 5.93615e-18
9479.40764 6.30116e-18
9480.26911 6.66698e-18
9481.13057 7.16867e-18
9481.99203 7.67075e-18
9482.85349 8.02879e-18
9483.71495 8.38640e-18
9484.57642 8.45305e-18
9485.43788 8.51884e-18
9486.30936 8.24236e-18
9487.17082 7.96488e-18
9488.03228 7.45785e-18
9488.89374 6.95017e-18
9489.75520 6.50911e-18
9490.61667 6.06824e-18
9491.47813 5.88273e-18
9492.33959 5.69798e-18
9493.20105 5.76455e-18
9494.06252 5.83186e-18
9494.92398 6.14958e-18
9495.79546 6.46801e-18
9496.65692 7.07733e-18
9497.51838 7.68749e-18
9498.37984 8.52418e-18
9499.24130 9.36153e-18
9500.10277 1.00982e-17
9500.96423 1.08345e-17
9501.82569 1.11880e-17
9502.68715 1.15403e-17
9503.54861 1.14658e-17
9504.41008 1.13900e-17
9505.28155 1.09163e-17
9506.14302 1.04416e-17
9507.00448 9.81486e-18
9507.86594 9.18774e-18
9508.72740 8.70060e-18
9509.58887 8.21389e-18
9510.45033 7.89499e-18
9511.31179 7.57659e-18
9512.17325 7.36811e-18
9513.03471 7.15994e-18
9513.89617 7.11879e-18
9514.75764 7.07813e-18
9515.62912 7.28582e-18
9516.49058 7.49422e-18
9517.35204 7.92697e-18
9518.21350 8.36036e-18
9519.07496 8.93826e-18
9519.93643 9.51659e-18
9520.79789 1.00990e-17
9521.65935 1.06814e-17
9522.52081 1.10745e-17
9523.38227 1.14670e-17
9524.24374 1.16056e-17
9525.11522 1.17434e-17
9525.97668 1.17292e-17
9526.83814 1.17146e-17
9527.69960 1.16415e-17
9528.56106 1.15683e-17
9529.42252 1.15106e-17
9530.28399 1.14530e-17
9531.14545 1.14522e-17
9532.00691 1.14515e-17
9532.86837 1.14418e-17
9533.72984 1.14320e-17
9534.60131 1.13576e-17
9535.46278 1.12831e-17
9536.32424 1.11273e-17
9537.18570 1.09713e-17
9538.04716 1.07430e-17
9538.90862 1.05145e-17
9539.77009 1.04221e-17
9540.63155 1.03300e-17
9541.49301 1.05701e-17
9542.35447 1.08110e-17
9543.21593 1.12427e-17
9544.08741 1.16748e-17
9544.94888 1.20884e-17
9545.81034 1.25018e-17
9546.67180 1.26927e-17
9547.53326 1.28829e-17
9548.39472 1.26413e-17
9549.25619 1.23985e-17
9550.11765 1.19678e-17
9550.97911 1.15366e-17
9551.84057 1.14066e-17
9552.70203 1.12776e-17
9553.57351 1.14817e-17
9554.43497 1.16868e-17
9555.29644 1.19354e-17
9556.15790 1.21841e-17
9557.01936 1.22821e-17
9557.88082 1.23796e-17
9558.74228 1.21970e-17
9559.60375 1.20137e-17
9560.46521 1.16311e-17
9561.32667 1.12480e-17
9562.18813 1.11077e-17
9563.05961 1.09682e-17
9563.92107 1.12984e-17
9564.78254 1.16300e-17
9565.64400 1.21958e-17
9566.50546 1.27623e-17
9567.36692 1.33110e-17
9568.22838 1.38596e-17
9569.08985 1.40895e-17
9569.95131 1.43185e-17
9570.81277 1.40221e-17
9571.67423 1.37241e-17
9572.53569 1.31626e-17
9573.40717 1.26003e-17
9574.26863 1.20840e-17
9575.13010 1.15680e-17
9575.99156 1.13045e-17
9576.85302 1.10418e-17
9577.71448 1.11949e-17
9578.57594 1.13494e-17
9579.43741 1.16616e-17
9580.29887 1.19743e-17
9581.16033 1.20695e-17
9582.02179 1.21640e-17
9582.89327 1.19923e-17
9583.75473 1.18198e-17
9584.61620 1.14550e-17
9585.47766 1.10896e-17
9586.33912 1.07948e-17
9587.20058 1.05002e-17
9588.06204 1.06760e-17
9588.92351 1.08531e-17
9589.78497 1.14493e-17
9590.64643 1.20468e-17
9591.51791 1.26038e-17
9592.37937 1.31609e-17
9593.24083 1.34311e-17
9594.10229 1.37006e-17
9594.96376 1.37077e-17
9595.82522 1.37141e-17
9596.68668 1.35079e-17
9597.54814 1.33012e-17
9598.40960 1.29980e-17
9599.27107 1.26947e-17
9600.13253 1.24229e-17
9600.99399 1.21510e-17
9601.86547 1.20119e-17
9602.72693 1.18731e-17
9603.58839 1.19330e-17
9604.44986 1.19935e-17
9605.31132 1.22412e-17
9606.17278 1.24895e-17
9607.03424 1.28694e-17
9607.89570 1.32496e-17
9608.75717 1.35200e-17
9609.61863 1.37901e-17
9610.48009 1.37182e-17
9611.35157 1.36453e-17
9612.21303 1.33298e-17
9613.07449 1.30137e-17
9613.93595 1.26410e-17
9614.79742 1.22679e-17
9615.65888 1.19672e-17
9616.52034 1.16667e-17
9617.38180 1.15460e-17
9618.24326 1.14259e-17
9619.10473 1.15130e-17
9619.96619 1.16007e-17
9620.82765 1.18656e-17
9621.69913 1.21311e-17
9622.56059 1.24782e-17
9623.42205 1.28256e-17
9624.28352 1.31220e-17
9625.14498 1.34183e-17
9626.00644 1.35374e-17
9626.86790 1.36558e-17
9627.72936 1.34786e-17
9628.59083 1.33006e-17
9629.45229 1.28621e-17
9630.31375 1.24229e-17
9631.17521 1.19826e-17
9632.04669 1.15422e-17
9632.90815 1.13016e-17
9633.76961 1.10615e-17
9634.63108 1.10988e-17
9635.49254 1.11370e-17
9636.35400 1.14441e-17
9637.21546 1.17520e-17
9638.07692 1.20376e-17
9638.93839 1.23230e-17
9639.79985 1.23462e-17
9640.67133 1.23685e-17
9641.53279 1.22796e-17
9642.39425 1.21904e-17
9643.25571 1.21651e-17
9644.11718 1.21400e-17
9644.97864 1.22208e-17
9645.84010 1.23020e-17
9646.70156 1.25060e-17
9647.56302 1.27103e-17
9648.42448 1.29013e-17
9649.28595 1.30922e-17
9650.15743 1.30927e-17
9651.01889 1.30925e-17
9651.88035 1.29017e-17
9652.74181 1.27103e-17
9653.60327 1.24080e-17
9654.46474 1.21052e-17
9655.32620 1.18005e-17
9656.18766 1.14958e-17
9657.04912 1.13151e-17
9657.91058 1.11348e-17
9658.77205 1.11485e-17
9659.64352 1.11628e-17
9660.50499 1.13883e-17
9661.36645 1.16144e-17
9662.22791 1.19801e-17
9663.08937 1.23463e-17
9663.95083 1.26660e-17
9664.81230 1.29856e-17
9665.67376 1.31514e-17
9666.53522 1.33169e-17
9667.39668 1.33860e-17
9668.25815 1.34547e-17
9669.11961 1.34597e-17
9669.99109 1.34644e-17
9670.85255 1.33501e-17
9671.71401 1.32354e-17
9672.57547 1.29867e-17
9673.43693 1.27375e-17
9674.29840 1.24561e-17
9675.15986 1.21744e-17
9676.02132 1.19617e-17
9676.88278 1.17492e-17
9677.74424 1.16759e-17
9678.61572 1.16031e-17
9679.47718 1.17163e-17
9680.33865 1.18300e-17
9681.20011 1.20364e-17
9682.06157 1.22429e-17
9682.92303 1.24125e-17
9683.78449 1.25820e-17
9684.64596 1.26764e-17
9685.50742 1.27705e-17
9686.36888 1.27844e-17
9687.23034 1.27982e-17
9688.10182 1.27451e-17
9688.96328 1.26919e-17
9689.82475 1.26047e-17
9690.68621 1.25173e-17
9691.54767 1.24018e-17
9692.40913 1.22862e-17
9693.27059 1.21251e-17
9694.13206 1.19638e-17
9694.99352 1.17808e-17
9695.85498 1.15977e-17
9696.71644 1.14578e-17
9697.57790 1.13181e-17
9698.44938 1.12537e-17
9699.31084 1.11895e-17
9700.17231 1.11882e-17
9701.03377 1.11871e-17
9701.89523 1.12224e-17
9702.75669 1.12579e-17
9703.61816 1.12707e-17
9704.47962 1.12834e-17
9705.34108 1.12354e-17
9706.20254 1.11873e-17
9707.06400 1.11154e-17
9707.93548 1.10435e-17
9708.79694 1.09859e-17
9709.65841 1.09284e-17
9710.51987 1.09060e-17
9711.38133 1.08836e-17
9712.24279 1.09098e-17
9713.10425 1.09362e-17
9713.96572 1.09748e-17
9714.82718 1.10135e-17
9715.68864 1.10209e-17
9716.55010 1.10283e-17
9717.41156 1.09920e-17
9718.28304 1.09557e-17
9719.14451 1.08707e-17
9720.00597 1.07856e-17
9720.86743 1.06974e-17
9721.72889 1.06091e-17
9722.59035 1.05876e-17
9723.45182 1.05662e-17
9724.31328 1.05805e-17
9725.17474 1.05950e-17
9726.03620 1.05541e-17
9726.89766 1.05130e-17
9727.76914 1.03845e-17
9728.63060 1.02558e-17
9729.49207 1.00567e-17
9730.35353 9.85743e-18
9731.21499 9.63024e-18
9732.07645 9.40295e-18
9732.93791 9.22573e-18
9733.79938 9.04867e-18
9734.66084 8.97009e-18
9735.52230 8.89181e-18
9736.38376 8.90241e-18
9737.25524 8.91328e-18
9738.11670 8.99116e-18
9738.97817 9.06924e-18
9739.83963 9.17129e-18
9740.70109 9.27342e-18
9741.56255 9.35703e-18
9742.42401 9.44060e-18
9743.28548 9.48319e-18
9744.14694 9.52565e-18
9745.00840 9.51382e-18
9745.86986 9.50184e-18
9746.74134 9.45376e-18
9747.60280 9.40558e-18
9748.46426 9.34617e-18
9749.32573 9.28673e-18
9750.18719 9.22192e-18
9751.04865 9.15709e-18
9751.91011 9.09000e-18
9752.77157 9.02290e-18
9753.63304 8.95132e-18
9754.49450 8.87973e-18
9755.35596 8.79903e-18
9756.22744 8.71829e-18
9757.08890 8.64525e-18
9757.95036 8.57223e-18
9758.81183 8.53168e-18
9759.67329 8.49122e-18
9760.53475 8.50234e-18
9761.39621 8.51361e-18
9762.25767 8.59288e-18
9763.11913 8.67235e-18
9763.98060 8.79481e-18
9764.84206 8.91738e-18
9765.71354 9.01274e-18
9766.57500 9.10802e-18
9767.43646 9.14182e-18
9768.29792 9.17544e-18
9769.15939 9.17028e-18
9770.02085 9.16500e-18
9770.88231 9.14013e-18
9771.74377 9.11520e-18
9772.60523 9.08024e-18
9773.46670 9.04525e-18
9774.32816 9.01241e-18
9775.19964 8.97955e-18
9776.06110 8.95846e-18
9776.92256 8.93740e-18
9777.78402 8.93450e-18
9778.64548 8.93167e-18
9779.50695 8.95519e-18
9780.36841 8.97879e-18
9781.22987 9.03100e-18
9782.09133 9.08330e-18
9782.95280 9.11901e-18
9783.81426 9.15466e-18
9784.68574 9.12473e-18
9785.54720 9.09459e-18
9786.40866 9.02283e-18
9787.27012 8.95096e-18
9788.13158 8.88213e-18
9788.99305 8.81332e-18
9789.85451 8.76319e-18
9790.71597 8.71311e-18
9791.57743 8.68824e-18
9792.43889 8.66343e-18
9793.30036 8.64702e-18
9794.16182 8.63064e-18
9795.03330 8.58742e-18
9795.89476 8.54411e-18
9796.75622 8.48436e-18
9797.61768 8.42458e-18
9798.47915 8.39986e-18
9799.34061 8.37525e-18
9800.20207 8.40279e-18
9801.06353 8.43050e-18
9801.92499 8.48586e-18
9802.78645 8.54131e-18
9803.64792 8.59983e-18
9804.51940 8.65835e-18
9805.38086 8.69109e-18
9806.24232 8.72375e-18
9807.10378 8.71668e-18
9807.96524 8.70947e-18
9808.82671 8.69034e-18
9809.68817 8.67117e-18
9810.54963 8.66642e-18
9811.41109 8.66170e-18
9812.27255 8.68803e-18
9813.13402 8.71444e-18
9813.99548 8.77959e-18
9814.86696 8.84487e-18
9815.72842 8.90250e-18
9816.58988 8.96009e-18
9817.45134 8.96093e-18
9818.31280 8.96161e-18
9819.17427 8.91221e-18
9820.03573 8.86267e-18
9820.89719 8.78378e-18
9821.75865 8.70479e-18
9822.62012 8.62679e-18
9823.48158 8.54880e-18
9824.35306 8.50714e-18
9825.21452 8.46559e-18
9826.07598 8.45510e-18
9826.93744 8.44471e-18
9827.79890 8.43670e-18
9828.66037 8.42871e-18
9829.52183 8.41611e-18
9830.38329 8.40350e-18
9831.24475 8.39480e-18
9832.10621 8.38612e-18
9832.97769 8.37935e-18
9833.83915 8.37259e-18
9834.70062 8.35663e-18
9835.56208 8.34063e-18
9836.42354 8.31033e-18
9837.28500 8.27997e-18
9838.14647 8.23833e-18
9839.00793 8.19666e-18
9839.86939 8.14707e-18
9840.73085 8.09747e-18
9841.59231 8.04170e-18
9842.45377 7.98591e-18
9843.32525 7.93032e-18
9844.18672 7.87472e-18
9845.04818 7.83902e-18
9845.90964 7.80336e-18
9846.77110 7.80304e-18
9847.63256 7.80281e-18
9848.49403 7.83308e-18
9849.35549 7.86344e-18
9850.21695 7.91548e-18
9851.07841 7.96759e-18
9851.93987 8.03298e-18
9852.81135 8.09841e-18
9853.67282 8.16720e-18
9854.53428 8.23599e-18
9855.39574 8.30190e-18
9856.25720 8.36778e-18
9857.11866 8.42616e-18
9857.98013 8.48451e-18
9858.84159 8.52288e-18
9859.70305 8.56118e-18
9860.56451 8.56522e-18
9861.42597 8.56917e-18
9862.29745 8.53696e-18
9863.15891 8.50464e-18
9864.02038 8.44232e-18
9864.88184 8.37990e-18
9865.74330 8.29883e-18
9866.60476 8.21768e-18
9867.46622 8.13413e-18
9868.32769 8.05058e-18
9869.18915 7.97387e-18
9870.05061 7.89718e-18
9870.92209 7.82624e-18
9871.78355 7.75532e-18
9872.64501 7.69136e-18
9873.50648 7.62743e-18
9874.36794 7.57594e-18
9875.22940 7.52449e-18
9876.09086 7.48980e-18
9876.95232 7.45517e-18
9877.81379 7.44127e-18
9878.67525 7.42744e-18
9879.53671 7.43615e-18
9880.39817 7.44493e-18
9881.26965 7.47349e-18
9882.13111 7.50211e-18
9882.99257 7.54538e-18
9883.85404 7.58869e-18
9884.71550 7.63731e-18
9885.57696 7.68595e-18
9886.43842 7.72980e-18
9887.29988 7.77364e-18
9888.16135 7.80323e-18
9889.02281 7.83278e-18
9889.88427 7.84016e-18
9890.74573 7.84747e-18
9891.61721 7.83244e-18
9892.47867 7.81736e-18
9893.34014 7.78395e-18
9894.20160 7.75047e-18
9895.06306 7.70297e-18
9895.92452 7.65541e-18
9896.78598 7.59833e-18
9897.64745 7.54123e-18
9898.50891 7.48200e-18
9899.37037 7.42276e-18
9900.23183 7.37119e-18
9901.09329 7.31965e-18
9901.96477 7.27735e-18
9902.82623 7.23509e-18
9903.68770 7.19374e-18
9904.54916 7.15241e-18
9905.41062 7.11392e-18
9906.27208 7.07545e-18
9907.13354 7.05798e-18
9907.99501 7.04056e-18
9908.85647 7.05271e-18
9909.71793 7.06495e-18
9910.57939 7.09848e-18
9911.45087 7.13206e-18
9912.31233 7.17346e-18
9913.17380 7.21489e-18
9914.03526 7.23570e-18
9914.89672 7.25646e-18
9915.75818 7.23406e-18
9916.61964 7.21154e-18
9917.48111 7.15385e-18
9918.34257 7.09605e-18
9919.20403 7.01688e-18
9920.07551 6.93766e-18
9920.93697 6.85272e-18
9921.79843 6.76777e-18
9922.65989 6.69304e-18
9923.52136 6.61835e-18
9924.38282 6.56083e-18
9925.24428 6.50338e-18
9926.10574 6.46581e-18
9926.96720 6.42832e-18
9927.82867 6.40032e-18
9928.69013 6.37234e-18
9929.56161 6.33737e-18
9930.42307 6.30237e-18
9931.28453 6.25503e-18
9932.14599 6.20766e-18
9933.00746 6.15032e-18
9933.86892 6.09295e-18
9934.73038 6.03047e-18
9935.59184 5.96798e-18
9936.45330 5.90739e-18
9937.31477 5.84680e-18
9938.17623 5.79740e-18
9939.03769 5.74802e-18
9939.90917 5.72147e-18
9940.77063 5.69498e-18
9941.63209 5.69447e-18
9942.49355 5.69404e-18
9943.35502 5.70751e-18
9944.21648 5.72100e-18
9945.07794 5.73801e-18
9945.93940 5.75502e-18
9946.80086 5.77293e-18
9947.66233 5.79085e-18
9948.52379 5.80663e-18
9949.39527 5.82241e-18
9950.25673 5.83028e-18
9951.11819 5.83813e-18
9951.97965 5.83436e-18
9952.84112 5.83056e-18
9953.70258 5.82264e-18
9954.56404 5.81471e-18
9955.42550 5.81087e-18
9956.28696 5.80704e-18
9957.14843 5.80178e-18
9958.00989 5.79651e-18
9958.88137 5.78223e-18
9959.74283 5.76791e-18
9960.60429 5.74073e-18
9961.46575 5.71351e-18
9962.32721 5.67092e-18
9963.18868 5.62829e-18
9964.05014 5.58305e-18
9964.91160 5.53780e-18
9965.77306 5.51119e-18
9966.63452 5.48465e-18
9967.49599 5.48167e-18
9968.36747 5.47876e-18
9969.22893 5.49121e-18
9970.09039 5.50369e-18
9970.95185 5.53027e-18
9971.81331 5.55690e-18
9972.67477 5.60373e-18
9973.53624 5.65062e-18
9974.39770 5.71515e-18
9975.25916 5.77974e-18
9976.12062 5.84816e-18
9976.98208 5.91659e-18
9977.85356 5.97791e-18
9978.71503 6.03920e-18
9979.57649 6.08816e-18
9980.43795 6.13708e-18
9981.29941 6.17183e-18
9982.16087 6.20655e-18
9983.02234 6.23448e-18
9983.88380 6.26240e-18
9984.74526 6.29096e-18
9985.60672 6.31954e-18
9986.46818 6.35246e-18
9987.32965 6.38538e-18
9988.20112 6.42456e-18
9989.06259 6.46376e-18
9989.92405 6.49540e-18
9990.78551 6.52702e-18
9991.64697 6.53547e-18
9992.50843 6.54385e-18
9993.36990 6.54086e-18
9994.23136 6.53783e-18
9995.09282 6.54347e-18
9995.95428 6.54914e-18
9996.81574 6.55999e-18
9997.67721 6.57087e-18
9998.54869 6.57414e-18
9999.41015 6.57738e-18
