# wavelength flux
3699.99874 1.69419e-18
3701.47226 3.19157e-18
3702.93577 1.86471e-18
3704.40930 -1.42480e-20
3705.88282 7.76222e-19
3707.34633 1.88875e-18
3708.81986 1.69264e-18
3710.29338 1.45773e-18
3711.75689 1.36796e-18
3713.23042 6.56557e-19
3714.70394 1.21801e-18
3716.16745 1.89742e-18
3717.64098 1.92620e-18
3719.11450 1.95499e-18
3720.57801 1.96860e-18
3722.05154 1.98222e-18
3723.51504 1.99584e-18
3724.98857 2.00945e-18
3726.46210 2.02307e-18
3727.92560 2.03668e-18
3729.39913 2.05029e-18
3730.87266 2.06391e-18
3732.33616 2.07752e-18
3733.80969 2.09113e-18
3735.28322 2.10474e-18
3736.74672 2.11834e-18
3738.22025 2.13195e-18
3739.69378 2.14555e-18
3741.15728 2.15916e-18
3742.63081 2.17276e-18
3744.10434 2.18637e-18
3745.56784 2.19997e-18
3747.04137 2.21357e-18
3748.50487 2.22717e-18
3749.97840 2.24077e-18
3751.45193 2.25436e-18
3752.91543 2.26796e-18
3754.38896 2.28156e-18
3755.86249 2.29515e-18
3757.32599 2.11125e-18
3758.79952 2.83091e-18
3760.27305 2.71227e-18
3761.73655 2.87708e-18
3763.21008 3.42977e-18
3764.68361 2.96192e-18
3766.14711 2.74523e-18
3767.62064 4.50033e-18
3769.09417 4.53930e-18
3770.55767 4.27506e-18
3772.03120 3.00054e-18
3773.50473 1.42715e-18
3774.96823 3.23527e-18
3776.44176 2.78412e-18
3777.90526 1.70198e-18
3779.37879 2.36512e-18
3780.85232 2.34351e-18
3782.31582 1.72302e-18
3783.78935 1.40602e-18
3785.26288 1.50769e-18
3786.72638 1.59392e-18
3788.19991 1.77302e-18
3789.67344 1.75563e-18
3791.13694 1.82057e-18
3792.61047 1.45788e-18
3794.08400 1.09392e-18
3795.54750 1.93090e-18
3797.02103 2.66015e-18
3798.49456 2.51204e-18
3799.95806 8.41119e-19
3801.43159 3.19219e-19
3802.89510 -3.34150e-19
3804.36862 -5.96595e-19
3805.84215 1.56689e-18
3807.30566 1.56798e-18
3808.77918 1.27034e-18
3810.25271 1.72243e-18
3811.71622 1.75092e-18
3813.18974 1.63328e-18
3814.66327 2.03156e-18
3816.12678 2.30306e-18
3817.60030 2.19473e-18
3819.07383 1.78573e-18
3820.53734 1.40075e-18
3822.01086 1.48810e-18
3823.48439 1.72803e-18
3824.94790 1.47027e-18
3826.42142 8.53205e-19
3827.88493 4.12562e-19
3829.35846 1.59960e-18
3830.83198 2.47629e-18
3832.29549 1.78753e-18
3833.76902 1.53432e-18
3835.24254 1.66420e-18
3836.70605 1.97744e-18
3838.17958 1.97018e-18
3839.65310 1.59848e-18
3841.11661 1.14577e-18
3842.59014 1.94616e-18
3844.06366 1.56011e-18
3845.52717 3.31801e-19
3847.00070 -9.17898e-19
3848.47422 -6.81931e-19
3849.93773 1.38121e-18
3851.41126 2.02173e-18
3852.88478 1.34869e-18
3854.34829 1.70733e-18
3855.82182 2.20371e-18
3857.28532 1.86555e-18
3858.75885 1.90773e-18
3860.23238 1.46985e-18
3861.69588 1.20813e-18
3863.16941 1.92991e-18
3864.64294 1.68936e-18
3866.10644 1.78953e-18
3867.57997 2.05652e-18
3869.05350 2.30086e-18
3870.51700 2.22780e-18
3871.99053 1.87535e-18
3873.46406 2.04434e-18
3874.92756 1.88231e-18
3876.40109 2.28225e-18
3877.87462 2.35542e-18
3879.33812 2.42493e-18
3880.81165 2.54564e-18
3882.27515 2.65637e-18
3883.74868 2.48011e-18
3885.22221 2.22997e-18
3886.68571 2.30380e-18
3888.15924 2.35455e-18
3889.63277 2.37767e-18
3891.09627 2.56732e-18
3892.56980 2.46327e-18
3894.04333 2.62900e-18
3895.50683 2.82452e-18
3896.98036 2.80531e-18
3898.45389 2.67594e-18
3899.91739 2.77653e-18
3901.39092 2.97846e-18
3902.86445 2.89669e-18
3904.32795 3.20967e-18
3905.80148 3.26187e-18
3907.26498 3.28738e-18
3908.73851 3.43187e-18
3910.21204 3.37448e-18
3911.67554 3.31590e-18
3913.14907 3.51151e-18
3914.62260 4.00453e-18
3916.08610 4.01201e-18
3917.55963 3.89891e-18
3919.03316 3.87857e-18
3920.49666 4.04991e-18
3921.97019 3.66269e-18
3923.44372 3.15996e-18
3924.90722 3.36430e-18
3926.38075 4.00777e-18
3927.85428 3.92951e-18
3929.31778 3.43327e-18
3930.79131 3.35785e-18
3932.25482 3.54184e-18
3933.72834 3.67682e-18
3935.20187 3.73089e-18
3936.66538 3.91519e-18
3938.13890 4.15572e-18
3939.61243 3.51856e-18
3941.07594 3.67774e-18
3942.54946 3.77966e-18
3944.02299 3.30531e-18
3945.48650 4.07570e-18
3946.96002 4.57106e-18
3948.43355 4.14972e-18
3949.89706 4.29237e-18
3951.37058 4.33828e-18
3952.84411 4.41473e-18
3954.30762 4.39697e-18
3955.78114 4.69810e-18
3957.25467 4.94704e-18
3958.71818 4.89756e-18
3960.19170 4.51239e-18
3961.65521 4.53951e-18
3963.12874 4.66398e-18
3964.60226 4.90026e-18
3966.06577 4.58638e-18
3967.53930 4.02075e-18
3969.01282 4.22630e-18
3970.47633 4.64686e-18
3971.94986 4.46648e-18
3973.42338 4.38084e-18
3974.88689 4.85835e-18
3976.36042 4.95715e-18
3977.83394 4.75743e-18
3979.29745 4.95793e-18
3980.77098 4.98046e-18
3982.24450 4.56741e-18
3983.70801 5.26533e-18
3985.18154 5.46992e-18
3986.64504 4.67841e-18
3988.11857 5.09578e-18
3989.59210 5.54737e-18
3991.05560 5.57941e-18
3992.52913 5.68109e-18
3994.00266 5.77394e-18
3995.46616 5.93501e-18
3996.93969 5.99199e-18
3998.41322 5.93769e-18
3999.87672 6.10506e-18
4001.35025 6.52334e-18
4002.82378 6.57996e-18
4004.28728 6.66545e-18
4005.76081 6.80602e-18
4007.23434 6.89110e-18
4008.69784 6.86578e-18
4010.17137 6.59348e-18
4011.63487 6.84294e-18
4013.10840 6.84160e-18
4014.58193 6.67741e-18
4016.04543 6.93292e-18
4017.51896 6.96777e-18
4018.99249 6.94412e-18
4020.45599 6.98218e-18
4021.92952 7.16673e-18
4023.40305 7.10744e-18
4024.86655 7.03638e-18
4026.34008 7.06059e-18
4027.81361 6.97327e-18
4029.27711 7.13380e-18
4030.75064 7.04404e-18
4032.22417 7.03542e-18
4033.68767 7.10426e-18
4035.16120 6.85858e-18
4036.63473 6.99834e-18
4038.09823 6.96190e-18
4039.57176 6.95077e-18
4041.03526 7.05440e-18
4042.50879 7.30022e-18
4043.98232 6.76552e-18
4045.44582 6.99069e-18
4046.91935 7.44976e-18
4048.39288 7.43790e-18
4049.85638 7.05171e-18
4051.32991 6.95510e-18
4052.80344 7.03334e-18
4054.26694 7.68112e-18
4055.74047 7.89967e-18
4057.21400 7.20343e-18
4058.67750 6.76237e-18
4060.15103 6.77977e-18
4061.62456 6.63744e-18
4063.08806 6.64267e-18
4064.56159 6.98450e-18
4066.02510 7.39249e-18
4067.49862 7.25245e-18
4068.97215 6.77797e-18
4070.43566 6.90442e-18
4071.90918 7.36690e-18
4073.38271 6.91432e-18
4074.84622 7.35448e-18
4076.31974 7.51965e-18
4077.79327 6.95481e-18
4079.25678 7.08792e-18
4080.73030 7.36125e-18
4082.20383 7.03182e-18
4083.66734 7.31326e-18
4085.14086 7.52299e-18
4086.61439 7.37150e-18
4088.07790 7.17159e-18
4089.55142 7.16238e-18
4091.01493 7.27874e-18
4092.48846 7.08924e-18
4093.96198 7.07726e-18
4095.42549 6.63787e-18
4096.89902 7.13869e-18
4098.37254 7.31845e-18
4099.83605 7.23721e-18
4101.30958 7.42856e-18
4102.78310 7.30690e-18
4104.24661 6.94491e-18
4105.72014 6.76565e-18
4107.19366 6.56371e-18
4108.65717 6.66346e-18
4110.13070 7.03322e-18
4111.60422 6.76434e-18
4113.06773 6.92613e-18
4114.54126 6.91866e-18
4116.00476 6.64198e-18
4117.47829 6.50720e-18
4118.95182 6.82687e-18
4120.41532 7.04781e-18
4121.88885 7.27313e-18
4123.36238 7.13576e-18
4124.82588 7.09147e-18
4126.29941 7.14693e-18
4127.77294 6.89832e-18
4129.23644 6.80298e-18
4130.70997 6.77788e-18
4132.18350 6.73300e-18
4133.64700 6.54212e-18
4135.12053 6.78851e-18
4136.59406 7.12439e-18
4138.05756 6.86571e-18
4139.53109 6.75579e-18
4141.00462 7.24329e-18
4142.46812 7.35646e-18
4143.94165 7.13291e-18
4145.40515 6.77900e-18
4146.87868 7.09034e-18
4148.35221 7.24249e-18
4149.81571 6.72336e-18
4151.28924 6.84478e-18
4152.76277 7.26992e-18
4154.22627 7.44951e-18
4155.69980 7.43207e-18
4157.17333 6.74021e-18
4158.63683 6.54902e-18
4160.11036 6.66070e-18
4161.58389 6.83265e-18
4163.04739 6.52736e-18
4164.52092 6.45732e-18
4165.99445 6.77952e-18
4167.45795 6.71812e-18
4168.93148 6.74823e-18
4170.39498 6.69190e-18
4171.86851 6.34509e-18
4173.34204 6.29843e-18
4174.80554 6.56237e-18
4176.27907 6.40586e-18
4177.75260 6.46553e-18
4179.21610 6.33843e-18
4180.68963 6.47428e-18
4182.16316 6.49475e-18
4183.62666 5.93389e-18
4185.10019 5.67455e-18
4186.57372 5.58604e-18
4188.03722 5.40344e-18
4189.51075 5.77015e-18
4190.98428 5.55200e-18
4192.44778 5.42174e-18
4193.92131 5.26036e-18
4195.39484 5.15145e-18
4196.85834 5.37088e-18
4198.33187 5.31937e-18
4199.79538 5.16640e-18
4201.26890 5.10361e-18
4202.74243 5.03687e-18
4204.20594 5.01340e-18
4205.67946 4.95898e-18
4207.15299 4.93528e-18
4208.61650 4.98508e-18
4210.09002 4.96314e-18
4211.56355 4.64500e-18
4213.02706 4.64429e-18
4214.50058 4.65209e-18
4215.97411 4.68975e-18
4217.43762 4.85937e-18
4218.91114 5.22410e-18
4220.37465 5.35140e-18
4221.84818 5.51441e-18
4223.32170 5.26885e-18
4224.78521 5.26968e-18
4226.25874 5.69222e-18
4227.73226 5.96968e-18
4229.19577 6.11286e-18
4230.66930 5.97131e-18
4232.14282 6.32718e-18
4233.60633 6.44205e-18
4235.07986 6.53751e-18
4236.55338 6.60578e-18
4238.01689 6.93392e-18
4239.49042 7.14444e-18
4240.96394 7.04074e-18
4242.42745 6.90193e-18
4243.90098 7.24825e-18
4245.37450 7.16740e-18
4246.83801 7.37837e-18
4248.31154 7.38168e-18
4249.77504 7.37790e-18
4251.24857 7.67475e-18
4252.72210 8.09989e-18
4254.18560 8.15714e-18
4255.65913 7.97681e-18
4257.13266 7.95118e-18
4258.59616 8.23846e-18
4260.06969 8.05689e-18
4261.54322 8.18394e-18
4263.00672 8.24721e-18
4264.48025 8.31659e-18
4265.95378 8.23514e-18
4267.41728 8.08680e-18
4268.89081 8.29540e-18
4270.36434 8.36379e-18
4271.82784 8.39799e-18
4273.30137 8.60891e-18
4274.77490 8.65861e-18
4276.23840 8.85668e-18
4277.71193 8.60206e-18
4279.17543 8.44933e-18
4280.64896 8.49668e-18
4282.12249 8.37175e-18
4283.58599 8.30127e-18
4285.05952 8.66783e-18
4286.53305 8.90827e-18
4287.99655 8.77076e-18
4289.47008 8.38187e-18
4290.94361 8.21941e-18
4292.40711 8.05297e-18
4293.88064 7.93043e-18
4295.35417 7.99490e-18
4296.81767 7.75512e-18
4298.29120 7.80444e-18
4299.75470 8.08898e-18
4301.22823 8.15851e-18
4302.70176 8.01688e-18
4304.16526 8.06071e-18
4305.63879 7.89314e-18
4307.11232 8.00259e-18
4308.57582 7.90402e-18
4310.04935 8.13980e-18
4311.52288 8.79430e-18
4312.98638 8.23006e-18
4314.45991 8.37535e-18
4315.93344 8.37030e-18
4317.39694 8.29880e-18
4318.87047 8.50913e-18
4320.34400 8.58615e-18
4321.80750 8.49945e-18
4323.28103 8.75227e-18
4324.75456 8.80652e-18
4326.21806 8.77093e-18
4327.69159 8.91941e-18
4329.15510 8.58624e-18
4330.62862 8.83306e-18
4332.10215 8.67955e-18
4333.56566 9.12055e-18
4335.03918 9.17895e-18
4336.51271 9.13902e-18
4337.97622 8.82102e-18
4339.44974 8.81225e-18
4340.92327 8.74430e-18
4342.38678 8.83965e-18
4343.86030 8.79747e-18
4345.33383 9.10674e-18
4346.79734 9.13771e-18
4348.27086 9.31809e-18
4349.74439 8.98070e-18
4351.20790 8.77628e-18
4352.68142 8.77116e-18
4354.14493 8.28062e-18
4355.61846 8.08990e-18
4357.09198 8.06686e-18
4358.55549 8.04382e-18
4360.02902 8.02079e-18
4361.50254 7.99775e-18
4362.96605 7.97472e-18
4364.43958 7.95169e-18
4365.91310 7.92865e-18
4367.37661 7.90564e-18
4368.85014 7.88260e-18
4370.32366 7.85958e-18
4371.78717 7.83655e-18
4373.26070 7.81353e-18
4374.73422 7.79051e-18
4376.19773 7.76749e-18
4377.67126 7.74447e-18
4379.14478 7.72145e-18
4380.60829 7.69844e-18
4382.08182 7.67543e-18
4383.54532 7.65241e-18
4385.01885 7.62940e-18
4386.49238 7.60638e-18
4387.95588 7.58338e-18
4389.42941 7.56037e-18
4390.90294 7.53737e-18
4392.36644 7.51436e-18
4393.83997 7.74875e-18
4395.31350 8.36015e-18
4396.77700 8.18850e-18
4398.25053 8.04173e-18
4399.72406 8.08332e-18
4401.18756 8.51192e-18
4402.66109 8.31196e-18
4404.12459 8.68387e-18
4405.59812 9.08265e-18
4407.07165 8.76884e-18
4408.53515 8.94725e-18
4410.00868 8.45393e-18
4411.48221 8.90575e-18
4412.94571 9.19240e-18
4414.41924 9.08067e-18
4415.89277 9.07777e-18
4417.35627 9.08973e-18
4418.82980 9.40086e-18
4420.30333 9.56717e-18
4421.76683 9.57811e-18
4423.24036 9.50944e-18
4424.71389 9.34616e-18
4426.17739 9.49483e-18
4427.65092 9.66907e-18
4429.12445 9.47734e-18
4430.58795 9.57260e-18
4432.06148 9.52970e-18
4433.52498 9.34837e-18
4434.99851 9.42221e-18
4436.47204 9.42821e-18
4437.93554 9.40316e-18
4439.40907 9.60400e-18
4440.88260 9.43437e-18
4442.34610 9.19023e-18
4443.81963 9.08113e-18
4445.29316 9.07542e-18
4446.75666 9.33306e-18
4448.23019 9.26986e-18
4449.70372 9.10943e-18
4451.16722 9.03675e-18
4452.64075 9.04339e-18
4454.11428 9.16056e-18
4455.57778 8.99957e-18
4457.05131 9.17564e-18
4458.52484 9.13816e-18
4459.98834 9.07881e-18
4461.46187 9.05038e-18
4462.92538 9.01441e-18
4464.39890 9.09483e-18
4465.87243 8.81316e-18
4467.33594 8.91444e-18
4468.80946 9.02950e-18
4470.28299 9.00359e-18
4471.74650 9.02308e-18
4473.22002 9.25719e-18
4474.69355 9.10919e-18
4476.15706 8.68959e-18
4477.63058 8.72675e-18
4479.10411 8.92448e-18
4480.56762 8.98014e-18
4482.04114 8.97706e-18
4483.50465 9.04057e-18
4484.97818 8.86756e-18
4486.45170 8.76832e-18
4487.91521 8.99350e-18
4489.38874 9.23090e-18
4490.86226 9.11325e-18
4492.32577 8.98829e-18
4493.79930 9.20738e-18
4495.27282 9.08369e-18
4496.73633 9.02113e-18
4498.20986 9.34266e-18
4499.68338 9.28144e-18
4501.14689 9.27909e-18
4502.62042 9.36669e-18
4504.09394 9.19652e-18
4505.55745 9.26493e-18
4507.03098 9.23402e-18
4508.50450 9.59110e-18
4509.96801 9.74007e-18
4511.44154 9.65642e-18
4512.90504 9.84884e-18
4514.37857 9.42317e-18
4515.85210 9.64914e-18
4517.31560 1.00361e-17
4518.78913 9.98578e-18
4520.26266 9.61175e-18
4521.72616 9.85552e-18
4523.19969 9.91554e-18
4524.67322 1.02665e-17
4526.13672 1.04333e-17
4527.61025 1.01762e-17
4529.08378 1.03172e-17
4530.54728 1.04140e-17
4532.02081 1.05234e-17
4533.49434 1.04600e-17
4534.95784 1.03221e-17
4536.43137 1.04840e-17
4537.89487 1.08686e-17
4539.36840 1.09563e-17
4540.84193 1.11739e-17
4542.30543 1.11645e-17
4543.77896 1.13983e-17
4545.25249 1.11294e-17
4546.71599 1.18138e-17
4548.18952 1.14700e-17
4549.66305 1.11543e-17
4551.12655 1.13825e-17
4552.60008 1.16182e-17
4554.07361 1.17870e-17
4555.53711 1.17942e-17
4557.01064 1.20455e-17
4558.48417 1.21950e-17
4559.94767 1.19505e-17
4561.42120 1.24586e-17
4562.89473 1.27595e-17
4564.35823 1.26865e-17
4565.83176 1.24924e-17
4567.29526 1.27699e-17
4568.76879 1.29096e-17
4570.24232 1.26507e-17
4571.70582 1.28329e-17
4573.17935 1.26016e-17
4574.65288 1.27249e-17
4576.11638 1.30934e-17
4577.58991 1.38351e-17
4579.06344 1.34729e-17
4580.52694 1.27496e-17
4582.00047 1.29840e-17
4583.47400 1.31822e-17
4584.93750 1.30896e-17
4586.41103 1.32495e-17
4587.88456 1.29949e-17
4589.34806 1.34457e-17
4590.82159 1.35878e-17
4592.28510 1.31392e-17
4593.75862 1.28232e-17
4595.23215 1.31142e-17
4596.69566 1.31406e-17
4598.16918 1.28848e-17
4599.64271 1.29456e-17
4601.10622 1.24561e-17
4602.57974 1.25716e-17
4604.05327 1.26714e-17
4605.51678 1.27211e-17
4606.99030 1.24346e-17
4608.46383 1.27400e-17
4609.92734 1.25398e-17
4611.40086 1.26414e-17
4612.87439 1.24218e-17
4614.33790 1.26957e-17
4615.81142 1.25931e-17
4617.27493 1.24751e-17
4618.74846 1.26478e-17
4620.22198 1.30133e-17
4621.68549 1.27720e-17
4623.15902 1.25405e-17
4624.63254 1.25947e-17
4626.09605 1.30354e-17
4627.56958 1.30738e-17
4629.04310 1.33643e-17
4630.50661 1.28862e-17
4631.98014 1.27751e-17
4633.45366 1.31992e-17
4634.91717 1.35743e-17
4636.39070 1.31063e-17
4637.86422 1.29479e-17
4639.32773 1.31391e-17
4640.80126 1.32002e-17
4642.27478 1.34269e-17
4643.73829 1.32027e-17
4645.21182 1.34677e-17
4646.67532 1.34897e-17
4648.14885 1.31014e-17
4649.62238 1.32424e-17
4651.08588 1.32524e-17
4652.55941 1.29679e-17
4654.03294 1.33088e-17
4655.49644 1.27499e-17
4656.96997 1.26772e-17
4658.44350 1.26125e-17
4659.90700 1.25475e-17
4661.38053 1.22751e-17
4662.85406 1.21065e-17
4664.31756 1.23798e-17
4665.79109 1.20835e-17
4667.25459 1.19835e-17
4668.72812 1.16569e-17
4670.20165 1.16125e-17
4671.66515 1.13351e-17
4673.13868 1.11970e-17
4674.61221 1.10629e-17
4676.07571 1.03532e-17
4677.54924 9.96448e-18
4679.02277 9.96087e-18
4680.48627 9.27275e-18
4681.95980 9.21649e-18
4683.43333 9.21607e-18
4684.89683 8.66817e-18
4686.37036 8.18991e-18
4687.84389 8.24522e-18
4689.30739 7.64351e-18
4690.78092 7.60390e-18
4692.25445 7.24780e-18
4693.71795 6.98978e-18
4695.19148 6.57959e-18
4696.66501 6.56370e-18
4698.12851 6.47658e-18
4699.60204 6.06620e-18
4701.06554 5.74909e-18
4702.53907 5.85178e-18
4704.01260 5.48445e-18
4705.47610 5.38653e-18
4706.94963 5.00273e-18
4708.42316 4.92338e-18
4709.88666 4.68709e-18
4711.36019 4.89634e-18
4712.83372 4.83462e-18
4714.29722 4.56427e-18
4715.77075 4.43114e-18
4717.24428 4.34126e-18
4718.70778 4.65309e-18
4720.18131 4.71965e-18
4721.64482 4.99488e-18
4723.11834 5.22162e-18
4724.59187 5.44591e-18
4726.05538 5.72175e-18
4727.52890 6.15469e-18
4729.00243 6.40377e-18
4730.46594 6.79779e-18
4731.93946 7.26496e-18
4733.41299 7.53021e-18
4734.87650 7.77018e-18
4736.35002 8.61950e-18
4737.82355 8.84501e-18
4739.28706 9.02839e-18
4740.76058 9.45706e-18
4742.23411 9.72729e-18
4743.69762 9.83818e-18
4745.17114 1.01144e-17
4746.64467 1.04547e-17
4748.10818 1.04964e-17
4749.58170 1.08119e-17
4751.04521 1.12646e-17
4752.51874 1.15102e-17
4753.99226 1.19345e-17
4755.45577 1.18506e-17
4756.92930 1.15923e-17
4758.40282 1.15955e-17
4759.86633 1.19309e-17
4761.33986 1.18643e-17
4762.81338 1.20612e-17
4764.27689 1.21148e-17
4765.75042 1.21571e-17
4767.22394 1.24156e-17
4768.68745 1.24063e-17
4770.16098 1.21824e-17
4771.63450 1.23040e-17
4773.09801 1.22153e-17
4774.57154 1.22511e-17
4776.03504 1.26698e-17
4777.50857 1.25201e-17
4778.98210 1.21879e-17
4780.44560 1.20450e-17
4781.91913 1.24285e-17
4783.39266 1.23618e-17
4784.85616 1.21052e-17
4786.32969 1.22358e-17
4787.80322 1.19708e-17
4789.26672 1.17870e-17
4790.74025 1.18621e-17
4792.21378 1.17950e-17
4793.67728 1.17058e-17
4795.15081 1.16539e-17
4796.62434 1.14007e-17
4798.08784 1.10943e-17
4799.56137 1.12170e-17
4801.02487 1.09850e-17
4802.49840 1.09667e-17
4803.97193 1.09581e-17
4805.43543 1.04787e-17
4806.90896 1.05710e-17
4808.38249 1.05384e-17
4809.84599 1.00281e-17
4811.31952 9.97031e-18
4812.79305 1.01038e-17
4814.25655 1.00411e-17
4815.73008 9.74900e-18
4817.20361 9.87966e-18
4818.66711 9.94652e-18
4820.14064 9.71700e-18
4821.61417 9.64208e-18
4823.07767 9.66595e-18
4824.55120 9.59368e-18
4826.02473 9.70464e-18
4827.48823 9.64239e-18
4828.96176 9.57694e-18
4830.42526 9.46736e-18
4831.89879 9.65627e-18
4833.37232 9.84791e-18
4834.83582 9.61869e-18
4836.30935 9.29621e-18
4837.78288 9.45378e-18
4839.24638 9.82171e-18
4840.71991 9.71272e-18
4842.19344 9.66150e-18
4843.65694 9.82030e-18
4845.13047 9.67494e-18
4846.60400 9.61825e-18
4848.06750 9.77139e-18
4849.54103 9.81286e-18
4851.01456 9.92645e-18
4852.47806 1.00406e-17
4853.95159 9.96047e-18
4855.41510 9.93615e-18
4856.88862 9.91181e-18
4858.36215 9.88749e-18
4859.82566 9.86316e-18
4861.29918 9.83884e-18
4862.77271 9.81452e-18
4864.23622 9.79019e-18
4865.70974 9.76588e-18
4867.18327 9.74156e-18
4868.64678 9.71725e-18
4870.12030 9.69294e-18
4871.59383 9.66863e-18
4873.05734 9.64432e-18
4874.53086 9.62001e-18
4876.00439 9.59571e-18
4877.46790 9.57140e-18
4878.94142 9.54711e-18
4880.41495 9.52280e-18
4881.87846 9.49851e-18
4883.35198 9.47422e-18
4884.81549 9.44993e-18
4886.28902 9.42563e-18
4887.76254 9.40135e-18
4889.22605 9.37706e-18
4890.69958 9.35278e-18
4892.17310 9.32850e-18
4893.63661 9.39314e-18
4895.11014 9.47739e-18
4896.58366 9.36636e-18
4898.04717 9.32186e-18
4899.52070 9.38272e-18
4900.99422 9.29537e-18
4902.45773 9.39567e-18
4903.93126 9.49350e-18
4905.39476 9.43132e-18
4906.86829 9.51622e-18
4908.34182 9.34535e-18
4909.80532 9.40247e-18
4911.27885 9.55120e-18
4912.75238 9.59792e-18
4914.21588 9.52944e-18
4915.68941 9.42867e-18
4917.16294 9.40464e-18
4918.62644 9.59571e-18
4920.09997 9.59158e-18
4921.57350 9.52011e-18
4923.03700 9.64302e-18
4924.51053 9.56093e-18
4925.98406 9.79570e-18
4927.44756 9.77916e-18
4928.92109 9.69853e-18
4930.39462 9.90104e-18
4931.85812 9.95047e-18
4933.33165 9.95268e-18
4934.79515 1.00773e-17
4936.26868 1.00906e-17
4937.74221 9.95537e-18
4939.20571 1.01727e-17
4940.67924 1.04180e-17
4942.15277 1.05984e-17
4943.61627 1.07904e-17
4945.08980 1.06087e-17
4946.56333 1.05521e-17
4948.02683 1.10150e-17
4949.50036 1.13103e-17
4950.97389 1.12165e-17
4952.43739 1.10079e-17
4953.91092 1.11391e-17
4955.38445 1.12703e-17
4956.84795 1.14015e-17
4958.32148 1.15327e-17
4959.79501 1.16639e-17
4961.25851 1.17950e-17
4962.73204 1.19262e-17
4964.19554 1.20574e-17
4965.66907 1.21885e-17
4967.14260 1.23197e-17
4968.60610 1.24507e-17
4970.07963 1.25819e-17
4971.55316 1.27130e-17
4973.01666 1.28441e-17
4974.49019 1.29752e-17
4975.96372 1.31062e-17
4977.42722 1.32373e-17
4978.90075 1.33683e-17
4980.37428 1.34994e-17
4981.83778 1.36304e-17
4983.31131 1.37614e-17
4984.77482 1.38924e-17
4986.24834 1.40234e-17
4987.72187 1.41544e-17
4989.18538 1.42854e-17
4990.65890 1.45594e-17
4992.13243 1.47326e-17
4993.59594 1.45765e-17
4995.06946 1.45221e-17
4996.54299 1.46359e-17
4998.00650 1.49346e-17
4999.48002 1.51820e-17
5000.95355 1.51699e-17
5002.41706 1.51578e-17
5003.89058 1.51458e-17
5005.36411 1.51337e-17
5006.82762 1.51217e-17
5008.30114 1.51096e-17
5009.77467 1.50976e-17
5011.23818 1.50855e-17
5012.71170 1.50735e-17
5014.17521 1.50614e-17
5015.64874 1.50494e-17
5017.12226 1.50373e-17
5018.58577 1.50253e-17
5020.05930 1.50132e-17
5021.53282 1.50012e-17
5022.99633 1.49891e-17
5024.46986 1.49771e-17
5025.94338 1.49651e-17
5027.40689 1.49530e-17
5028.88042 1.49410e-17
5030.35394 1.49289e-17
5031.81745 1.49169e-17
5033.29098 1.49049e-17
5034.76450 1.48928e-17
5036.22801 1.48808e-17
5037.70154 1.48688e-17
5039.16504 1.47773e-17
5040.63857 1.49837e-17
5042.11210 1.47677e-17
5043.57560 1.45028e-17
5045.04913 1.44482e-17
5046.52266 1.47046e-17
5047.98616 1.45296e-17
5049.45969 1.40471e-17
5050.93322 1.41113e-17
5052.39672 1.41574e-17
5053.87025 1.38710e-17
5055.34378 1.38384e-17
5056.80728 1.36879e-17
5058.28081 1.35471e-17
5059.75434 1.32741e-17
5061.21784 1.29995e-17
5062.69137 1.30771e-17
5064.16490 1.24667e-17
5065.62840 1.21929e-17
5067.10193 1.24086e-17
5068.56543 1.21783e-17
5070.03896 1.19841e-17
5071.51249 1.17119e-17
5072.97599 1.13799e-17
5074.44952 1.10844e-17
5075.92305 1.09836e-17
5077.38655 1.08647e-17
5078.86008 1.08932e-17
5080.33361 1.08197e-17
5081.79711 1.05629e-17
5083.27064 1.03124e-17
5084.74417 1.01920e-17
5086.20767 1.02454e-17
5087.68120 1.02051e-17
5089.14470 1.00487e-17
5090.61823 9.78829e-18
5092.09176 9.72333e-18
5093.55526 1.01414e-17
5095.02879 1.00464e-17
5096.50232 9.69604e-18
5097.96582 9.48729e-18
5099.43935 9.52230e-18
5100.91288 9.66061e-18
5102.37638 9.95124e-18
5103.84991 1.02618e-17
5105.32344 1.01798e-17
5106.78694 1.02509e-17
5108.26047 1.01760e-17
5109.73400 1.01250e-17
5111.19750 1.01262e-17
5112.67103 1.00979e-17
5114.14456 1.03415e-17
5115.60806 1.04611e-17
5117.08159 1.02428e-17
5118.54510 1.04768e-17
5120.01862 1.09163e-17
5121.49215 1.08055e-17
5122.95566 1.07369e-17
5124.42918 1.10287e-17
5125.90271 1.11852e-17
5127.36622 1.13429e-17
5128.83974 1.10541e-17
5130.31327 1.11324e-17
5131.77678 1.14081e-17
5133.25030 1.12434e-17
5134.72383 1.12845e-17
5136.18734 1.14419e-17
5137.66086 1.15037e-17
5139.13439 1.13186e-17
5140.59790 1.16651e-17
5142.07142 1.17415e-17
5143.54495 1.15506e-17
5145.00846 1.16524e-17
5146.48198 1.17833e-17
5147.94549 1.18752e-17
5149.41902 1.18710e-17
5150.89254 1.20069e-17
5152.35605 1.24144e-17
5153.82958 1.21970e-17
5155.30310 1.19590e-17
5156.76661 1.19579e-17
5158.24014 1.21030e-17
5159.71366 1.25627e-17
5161.17717 1.23572e-17
5162.65070 1.21171e-17
5164.12422 1.19298e-17
5165.58773 1.22309e-17
5167.06126 1.25212e-17
5168.52476 1.24131e-17
5169.99829 1.24246e-17
5171.47182 1.23411e-17
5172.93532 1.24098e-17
5174.40885 1.26382e-17
5175.88238 1.27391e-17
5177.34588 1.30153e-17
5178.81941 1.27941e-17
5180.29294 1.24850e-17
5181.75644 1.25809e-17
5183.22997 1.26480e-17
5184.70350 1.29229e-17
5186.16700 1.31329e-17
5187.64053 1.25134e-17
5189.11406 1.24234e-17
5190.57756 1.25632e-17
5192.05109 1.28619e-17
5193.51459 1.30800e-17
5194.98812 1.24770e-17
5196.46165 1.24545e-17
5197.92515 1.27294e-17
5199.39868 1.28653e-17
5200.87221 1.27553e-17
5202.33571 1.25944e-17
5203.80924 1.26556e-17
5205.28277 1.27175e-17
5206.74627 1.27685e-17
5208.21980 1.25582e-17
5209.69333 1.24800e-17
5211.15683 1.23337e-17
5212.63036 1.23472e-17
5214.10389 1.22868e-17
5215.56739 1.21596e-17
5217.04092 1.22829e-17
5218.51445 1.22902e-17
5219.97795 1.20503e-17
5221.45148 1.20478e-17
5222.91498 1.21284e-17
5224.38851 1.21738e-17
5225.86204 1.20896e-17
5227.32554 1.20032e-17
5228.79907 1.20239e-17
5230.27260 1.21203e-17
5231.73610 1.21794e-17
5233.20963 1.20143e-17
5234.68316 1.20491e-17
5236.14666 1.18704e-17
5237.62019 1.18765e-17
5239.09372 1.18670e-17
5240.55722 1.19125e-17
5242.03075 1.17720e-17
5243.50428 1.17766e-17
5244.96778 1.18359e-17
5246.44131 1.18595e-17
5247.91484 1.17254e-17
5249.37834 1.14482e-17
5250.85187 1.16001e-17
5252.31538 1.18856e-17
5253.78890 1.19354e-17
5255.26243 1.18742e-17
5256.72594 1.20548e-17
5258.19946 1.18297e-17
5259.67299 1.17620e-17
5261.13650 1.18513e-17
5262.61002 1.19351e-17
5264.08355 1.22010e-17
5265.54706 1.22202e-17
5267.02058 1.19689e-17
5268.49411 1.23272e-17
5269.95762 1.19510e-17
5271.43114 1.20101e-17
5272.89465 1.22479e-17
5274.36818 1.24452e-17
5275.84170 1.25556e-17
5277.30521 1.27207e-17
5278.77874 1.25796e-17
5280.25226 1.23529e-17
5281.71577 1.24032e-17
5283.18930 1.24863e-17
5284.66282 1.23170e-17
5286.12633 1.24978e-17
5287.59986 1.28552e-17
5289.07338 1.30068e-17
5290.53689 1.28555e-17
5292.01042 1.28165e-17
5293.48394 1.29448e-17
5294.94745 1.32687e-17
5296.42098 1.36012e-17
5297.89450 1.34237e-17
5299.35801 1.36352e-17
5300.83154 1.35530e-17
5302.29504 1.33048e-17
5303.76857 1.33302e-17
5305.24210 1.33212e-17
5306.70560 1.35868e-17
5308.17913 1.36111e-17
5309.65266 1.35067e-17
5311.11616 1.35546e-17
5312.58969 1.39481e-17
5314.06322 1.38112e-17
5315.52672 1.35892e-17
5317.00025 1.37539e-17
5318.47378 1.38675e-17
5319.93728 1.35898e-17
5321.41081 1.36641e-17
5322.88434 1.39994e-17
5324.34784 1.38590e-17
5325.82137 1.36754e-17
5327.29490 1.37819e-17
5328.75840 1.38317e-17
5330.23193 1.39970e-17
5331.69543 1.41062e-17
5333.16896 1.39724e-17
5334.64249 1.38989e-17
5336.10599 1.40141e-17
5337.57952 1.43243e-17
5339.05305 1.42268e-17
5340.51655 1.42990e-17
5341.99008 1.42893e-17
5343.46361 1.41366e-17
5344.92711 1.43194e-17
5346.40064 1.43047e-17
5347.87417 1.41604e-17
5349.33767 1.38869e-17
5350.81120 1.38624e-17
5352.27470 1.39936e-17
5353.74823 1.41978e-17
5355.22176 1.43308e-17
5356.68526 1.42892e-17
5358.15879 1.42940e-17
5359.63232 1.43678e-17
5361.09582 1.44851e-17
5362.56935 1.44783e-17
5364.04288 1.43934e-17
5365.50638 1.43334e-17
5366.97991 1.42022e-17
5368.45344 1.39701e-17
5369.91694 1.45467e-17
5371.39047 1.45099e-17
5372.86400 1.44262e-17
5374.32750 1.42557e-17
5375.80103 1.43060e-17
5377.27456 1.42515e-17
5378.73806 1.41198e-17
5380.21159 1.42187e-17
5381.67510 1.42945e-17
5383.14862 1.40823e-17
5384.62215 1.40238e-17
5386.08566 1.37801e-17
5387.55918 1.35562e-17
5389.03271 1.37993e-17
5390.49622 1.38420e-17
5391.96974 1.39014e-17
5393.44327 1.38819e-17
5394.90678 1.39744e-17
5396.38030 1.39763e-17
5397.85383 1.38074e-17
5399.31734 1.36466e-17
5400.79086 1.35218e-17
5402.26439 1.35641e-17
5403.72790 1.33941e-17
5405.20142 1.35028e-17
5406.66493 1.35782e-17
5408.13846 1.33974e-17
5409.61198 1.33118e-17
5411.07549 1.31182e-17
5412.54902 1.30840e-17
5414.02254 1.31998e-17
5415.48605 1.30543e-17
5416.95958 1.30706e-17
5418.43310 1.32627e-17
5419.89661 1.33324e-17
5421.37014 1.33251e-17
5422.84366 1.30363e-17
5424.30717 1.29524e-17
5425.78070 1.29155e-17
5427.25422 1.31271e-17
5428.71773 1.30965e-17
5430.19126 1.29590e-17
5431.66478 1.30465e-17
5433.12829 1.28457e-17
5434.60182 1.27348e-17
5436.06532 1.26558e-17
5437.53885 1.27662e-17
5439.01238 1.29781e-17
5440.47588 1.29226e-17
5441.94941 1.28564e-17
5443.42294 1.28933e-17
5444.88644 1.29583e-17
5446.35997 1.30138e-17
5447.83350 1.27529e-17
5449.29700 1.26228e-17
5450.77053 1.29352e-17
5452.24406 1.29034e-17
5453.70756 1.26597e-17
5455.18109 1.27006e-17
5456.64459 1.27282e-17
5458.11812 1.26580e-17
5459.59165 1.28773e-17
5461.05515 1.29693e-17
5462.52868 1.28839e-17
5464.00221 1.28169e-17
5465.46571 1.26954e-17
5466.93924 1.26285e-17
5468.41277 1.29016e-17
5469.87627 1.31170e-17
5471.34980 1.31459e-17
5472.82333 1.29699e-17
5474.28683 1.29742e-17
5475.76036 1.28797e-17
5477.23389 1.27179e-17
5478.69739 1.30101e-17
5480.17092 1.31854e-17
5481.64445 1.29564e-17
5483.10795 1.30398e-17
5484.58148 1.31825e-17
5486.04498 1.32054e-17
5487.51851 1.31074e-17
5488.99204 1.30541e-17
5490.45554 1.32229e-17
5491.92907 1.30963e-17
5493.40260 1.28058e-17
5494.86610 1.28563e-17
5496.33963 1.30134e-17
5497.81316 1.29169e-17
5499.27666 1.28446e-17
5500.75019 1.31066e-17
5502.22372 1.31067e-17
5503.68722 1.31023e-17
5505.16075 1.31038e-17
5506.63428 1.30730e-17
5508.09778 1.31509e-17
5509.57131 1.31009e-17
5511.04484 1.29537e-17
5512.50834 1.28378e-17
5513.98187 1.31294e-17
5515.44538 1.32937e-17
5516.91890 1.32228e-17
5518.39243 1.32269e-17
5519.85594 1.29115e-17
5521.32946 1.29790e-17
5522.80299 1.33094e-17
5524.26650 1.32335e-17
5525.74002 1.31712e-17
5527.21355 1.31130e-17
5528.67706 1.30118e-17
5530.15058 1.29844e-17
5531.62411 1.30802e-17
5533.08762 1.31154e-17
5534.56114 1.29233e-17
5536.02465 1.27391e-17
5537.49818 1.27026e-17
5538.97170 1.26314e-17
5540.43521 1.25462e-17
5541.90874 1.26356e-17
5543.38226 1.26124e-17
5544.84577 1.24959e-17
5546.31930 1.26155e-17
5547.79282 1.26568e-17
5549.25633 1.25880e-17
5550.72986 1.25505e-17
5552.20338 1.24992e-17
5553.66689 1.23887e-17
5555.14042 1.24595e-17
5556.61394 1.24786e-17
5558.07745 1.23910e-17
5559.55098 1.22317e-17
5561.02450 1.23384e-17
5562.48801 1.25019e-17
5563.96154 1.24448e-17
5565.42504 1.24429e-17
5566.89857 1.23351e-17
5568.37210 1.21227e-17
5569.83560 1.22135e-17
5571.30913 1.23737e-17
5572.78266 1.23581e-17
5574.24616 1.23428e-17
5575.71969 1.24754e-17
5577.19322 1.24683e-17
5578.65672 1.24435e-17
5580.13025 1.23199e-17
5581.60378 1.22319e-17
5583.06728 1.19854e-17
5584.54081 1.20511e-17
5586.01434 1.20574e-17
5587.47784 1.19798e-17
5588.95137 1.19284e-17
5590.41487 1.19458e-17
5591.88840 1.19148e-17
5593.36193 1.21974e-17
5594.82543 1.24123e-17
5596.29896 1.23940e-17
5597.77249 1.21908e-17
5599.23599 1.20404e-17
5600.70952 1.19721e-17
5602.18305 1.20118e-17
5603.64655 1.19758e-17
5605.12008 1.19289e-17
5606.59361 1.19563e-17
5608.05711 1.20095e-17
5609.53064 1.19353e-17
5611.00417 1.17849e-17
5612.46767 1.21492e-17
5613.94120 1.21293e-17
5615.41473 1.19544e-17
5616.87823 1.23491e-17
5618.35176 1.24452e-17
5619.81526 1.22010e-17
5621.28879 1.21029e-17
5622.76232 1.21021e-17
5624.22582 1.21381e-17
5625.69935 1.22499e-17
5627.17288 1.21018e-17
5628.63638 1.19064e-17
5630.10991 1.20222e-17
5631.58344 1.18762e-17
5633.04694 1.18160e-17
5634.52047 1.19181e-17
5635.99400 1.18222e-17
5637.45750 1.18380e-17
5638.93103 1.17960e-17
5640.40456 1.17251e-17
5641.86806 1.18238e-17
5643.34159 1.18490e-17
5644.80510 1.18240e-17
5646.27862 1.18598e-17
5647.75215 1.17444e-17
5649.21566 1.18018e-17
5650.68918 1.20005e-17
5652.16271 1.17514e-17
5653.62622 1.16937e-17
5655.09974 1.17322e-17
5656.57327 1.17614e-17
5658.03678 1.17295e-17
5659.51030 1.15776e-17
5660.98383 1.14851e-17
5662.44734 1.14042e-17
5663.92086 1.15243e-17
5665.39439 1.17643e-17
5666.85790 1.14303e-17
5668.33142 1.13213e-17
5669.79493 1.14636e-17
5671.26846 1.12585e-17
5672.74198 1.12251e-17
5674.20549 1.14923e-17
5675.67902 1.14402e-17
5677.15254 1.13552e-17
5678.61605 1.12593e-17
5680.08958 1.11869e-17
5681.56310 1.12338e-17
5683.02661 1.10240e-17
5684.50014 1.09633e-17
5685.97366 1.08858e-17
5687.43717 1.08791e-17
5688.91070 1.07493e-17
5690.38422 1.06750e-17
5691.84773 1.06535e-17
5693.32126 1.06181e-17
5694.79478 1.04069e-17
5696.25829 1.02055e-17
5697.73182 1.01816e-17
5699.19532 1.02575e-17
5700.66885 9.94902e-18
5702.14238 9.66003e-18
5703.60588 9.63825e-18
5705.07941 9.41602e-18
5706.55294 9.05585e-18
5708.01644 8.83856e-18
5709.48997 8.70867e-18
5710.96350 8.54500e-18
5712.42700 8.41512e-18
5713.90053 8.24353e-18
5715.37406 7.67567e-18
5716.83756 7.51764e-18
5718.31109 7.59109e-18
5719.77459 7.29600e-18
5721.24812 7.09370e-18
5722.72165 6.91173e-18
5724.18515 6.74376e-18
5725.65868 6.57799e-18
5727.13221 6.41386e-18
5728.59571 6.18731e-18
5730.06924 6.21129e-18
5731.54277 6.47000e-18
5733.00627 6.51478e-18
5734.47980 6.49308e-18
5735.95333 6.52249e-18
5737.41683 6.50349e-18
5738.89036 6.69545e-18
5740.36389 6.73927e-18
5741.82739 6.73674e-18
5743.30092 6.64238e-18
5744.77445 6.68968e-18
5746.23795 6.99363e-18
5747.71148 6.94844e-18
5749.18501 6.92186e-18
5750.64851 7.07521e-18
5752.12204 7.28507e-18
5753.58554 7.37451e-18
5755.05907 7.41814e-18
5756.53260 7.56221e-18
5757.99610 7.69044e-18
5759.46963 7.82118e-18
5760.94316 7.88675e-18
5762.40666 8.00795e-18
5763.88019 8.22040e-18
5765.35372 8.21245e-18
5766.81722 8.24314e-18
5768.29075 8.53617e-18
5769.76428 8.69252e-18
5771.22778 8.66135e-18
5772.70131 8.87471e-18
5774.16482 9.14755e-18
5775.63834 9.12292e-18
5777.11187 9.12478e-18
5778.57538 9.30843e-18
5780.04890 9.43266e-18
5781.52243 9.65041e-18
5782.98594 9.79548e-18
5784.45946 9.79876e-18
5785.93299 9.85304e-18
5787.39650 1.00099e-17
5788.87002 1.01590e-17
5790.34355 1.03093e-17
5791.80706 1.05810e-17
5793.28058 1.06622e-17
5794.75411 1.05650e-17
5796.21762 1.07274e-17
5797.69114 1.09640e-17
5799.16467 1.09943e-17
5800.62818 1.12335e-17
5802.10170 1.15116e-17
5803.56521 1.15624e-17
5805.03874 1.15793e-17
5806.51226 1.16652e-17
5807.97577 1.18090e-17
5809.44930 1.18171e-17
5810.92282 1.19145e-17
5812.38633 1.20311e-17
5813.85986 1.20054e-17
5815.33338 1.21641e-17
5816.79689 1.24760e-17
5818.27042 1.25241e-17
5819.74394 1.23665e-17
5821.20745 1.23659e-17
5822.68098 1.25627e-17
5824.15450 1.27501e-17
5825.61801 1.26984e-17
5827.09154 1.24817e-17
5828.55504 1.24939e-17
5830.02857 1.27176e-17
5831.50210 1.27887e-17
5832.96560 1.29195e-17
5834.43913 1.30677e-17
5835.91266 1.31026e-17
5837.37616 1.31851e-17
5838.84969 1.33005e-17
5840.32322 1.33098e-17
5841.78672 1.35350e-17
5843.26025 1.38443e-17
5844.73378 1.38911e-17
5846.19728 1.39399e-17
5847.67081 1.39661e-17
5849.14434 1.41752e-17
5850.60784 1.42768e-17
5852.08137 1.42458e-17
5853.54487 1.44788e-17
5855.01840 1.45389e-17
5856.49193 1.46016e-17
5857.95543 1.44506e-17
5859.42896 1.44251e-17
5860.90249 1.46741e-17
5862.36599 1.47729e-17
5863.83952 1.49036e-17
5865.31305 1.48406e-17
5866.77655 1.48682e-17
5868.25008 1.50182e-17
5869.72361 1.49763e-17
5871.18711 1.52319e-17
5872.66064 1.54150e-17
5874.13417 1.52245e-17
5875.59767 1.52100e-17
5877.07120 1.54439e-17
5878.53470 1.53399e-17
5880.00823 1.53212e-17
5881.48176 1.54355e-17
5882.94526 1.52311e-17
5884.41879 1.51706e-17
5885.89232 1.49134e-17
5887.35582 1.44880e-17
5888.82935 1.46554e-17
5890.30288 1.49507e-17
5891.76638 1.50640e-17
5893.23991 1.51166e-17
5894.71344 1.50305e-17
5896.17694 1.49541e-17
5897.65047 1.52442e-17
5899.12400 1.54151e-17
5900.58750 1.53682e-17
5902.06103 1.55431e-17
5903.53456 1.54727e-17
5904.99806 1.51703e-17
5906.47159 1.52317e-17
5907.93510 1.53972e-17
5909.40862 1.53349e-17
5910.88215 1.53300e-17
5912.34566 1.51887e-17
5913.81918 1.50981e-17
5915.29271 1.52428e-17
5916.75622 1.52788e-17
5918.22974 1.51982e-17
5919.70327 1.50912e-17
5921.16678 1.52686e-17
5922.64030 1.51958e-17
5924.11383 1.50696e-17
5925.57734 1.51734e-17
5927.05086 1.51219e-17
5928.52439 1.49297e-17
5929.98790 1.48606e-17
5931.46142 1.49282e-17
5932.93495 1.50518e-17
5934.39846 1.48085e-17
5935.87198 1.46441e-17
5937.33549 1.49033e-17
5938.80902 1.49612e-17
5940.28254 1.46544e-17
5941.74605 1.45275e-17
5943.21958 1.46875e-17
5944.69310 1.47041e-17
5946.15661 1.45227e-17
5947.63014 1.44194e-17
5949.10366 1.43008e-17
5950.56717 1.44771e-17
5952.04070 1.45384e-17
5953.51422 1.44375e-17
5954.97773 1.44529e-17
5956.45126 1.42017e-17
5957.91476 1.39383e-17
5959.38829 1.39588e-17
5960.86182 1.38519e-17
5962.32532 1.38107e-17
5963.79885 1.38956e-17
5965.27238 1.36639e-17
5966.73588 1.34701e-17
5968.20941 1.35839e-17
5969.68294 1.36311e-17
5971.14644 1.34691e-17
5972.61997 1.33502e-17
5974.09350 1.32007e-17
5975.55700 1.30690e-17
5977.03053 1.31267e-17
5978.50406 1.31421e-17
5979.96756 1.29964e-17
5981.44109 1.28963e-17
5982.91462 1.27855e-17
5984.37812 1.27357e-17
5985.85165 1.27617e-17
5987.31515 1.27384e-17
5988.78868 1.27604e-17
5990.26221 1.27374e-17
5991.72571 1.26115e-17
5993.19924 1.24380e-17
5994.67277 1.24122e-17
5996.13627 1.25770e-17
5997.60980 1.23619e-17
5999.08333 1.20730e-17
6000.54683 1.21350e-17
6002.02036 1.22318e-17
6003.49389 1.21517e-17
6004.95739 1.20615e-17
6006.43092 1.20936e-17
6007.90445 1.20781e-17
6009.36795 1.21078e-17
6010.84148 1.20690e-17
6012.31501 1.19025e-17
6013.77851 1.18857e-17
6015.25204 1.19983e-17
6016.71554 1.19901e-17
6018.18907 1.19011e-17
6019.66260 1.19785e-17
6021.12610 1.19988e-17
6022.59963 1.18023e-17
6024.07316 1.16445e-17
6025.53666 1.15828e-17
6027.01019 1.15332e-17
6028.48372 1.15083e-17
6029.94722 1.15045e-17
6031.42075 1.14925e-17
6032.89428 1.14469e-17
6034.35778 1.14019e-17
6035.83131 1.13432e-17
6037.29482 1.12419e-17
6038.76834 1.12712e-17
6040.24187 1.12926e-17
6041.70538 1.12206e-17
6043.17890 1.11521e-17
6044.65243 1.09971e-17
6046.11594 1.09647e-17
6047.58946 1.08948e-17
6049.06299 1.06887e-17
6050.52650 1.08866e-17
6052.00002 1.11309e-17
6053.47355 1.09601e-17
6054.93706 1.07577e-17
6056.41058 1.09050e-17
6057.88411 1.09607e-17
6059.34762 1.07589e-17
6060.82114 1.06943e-17
6062.28465 1.06703e-17
6063.75818 1.08631e-17
6065.23170 1.09564e-17
6066.69521 1.07825e-17
6068.16874 1.07113e-17
6069.64226 1.07672e-17
6071.10577 1.07949e-17
6072.57930 1.08206e-17
6074.05282 1.08840e-17
6075.51633 1.07343e-17
6076.98986 1.05456e-17
6078.46338 1.06459e-17
6079.92689 1.08579e-17
6081.40042 1.09192e-17
6082.87394 1.08971e-17
6084.33745 1.08462e-17
6085.81098 1.08748e-17
6087.28450 1.08973e-17
6088.74801 1.05035e-17
6090.22154 1.04581e-17
6091.68504 1.07792e-17
6093.15857 1.08393e-17
6094.63210 1.08593e-17
6096.09560 1.08548e-17
6097.56913 1.08434e-17
6099.04266 1.08412e-17
6100.50616 1.08305e-17
6101.97969 1.07725e-17
6103.45322 1.06787e-17
6104.91672 1.07850e-17
6106.39025 1.08385e-17
6107.86378 1.07747e-17
6109.32728 1.08163e-17
6110.80081 1.07853e-17
6112.27434 1.07279e-17
6113.73784 1.07268e-17
6115.21137 1.06533e-17
6116.68490 1.06656e-17
6118.14840 1.06709e-17
6119.62193 1.07012e-17
6121.08543 1.06945e-17
6122.55896 1.06479e-17
6124.03249 1.05669e-17
6125.49599 1.05663e-17
6126.96952 1.04544e-17
6128.44305 1.03037e-17
6129.90655 1.05746e-17
6131.38008 1.06607e-17
6132.85361 1.05595e-17
6134.31711 1.05119e-17
6135.79064 1.03034e-17
6137.26417 1.03861e-17
6138.72767 1.05455e-17
6140.20120 1.04380e-17
6141.66470 1.03896e-17
6143.13823 1.03085e-17
6144.61176 1.02295e-17
6146.07526 1.02343e-17
6147.54879 1.02791e-17
6149.02232 1.03430e-17
6150.48582 1.03362e-17
6151.95935 1.04044e-17
6153.43288 1.05396e-17
6154.89638 1.02676e-17
6156.36991 1.01516e-17
6157.84344 1.03059e-17
6159.30694 1.04310e-17
6160.78047 1.02101e-17
6162.25400 1.00764e-17
6163.71750 1.02148e-17
6165.19103 1.02586e-17
6166.66456 1.02997e-17
6168.12806 1.02946e-17
6169.60159 1.02670e-17
6171.06510 1.03384e-17
6172.53862 1.04389e-17
6174.01215 1.04240e-17
6175.47566 1.03884e-17
6176.94918 1.04307e-17
6178.42271 1.05509e-17
6179.88622 1.05291e-17
6181.35974 1.04625e-17
6182.83327 1.05555e-17
6184.29678 1.06295e-17
6185.77030 1.05302e-17
6187.24383 1.04160e-17
6188.70734 1.04059e-17
6190.18086 1.03373e-17
6191.65439 1.03543e-17
6193.11790 1.05972e-17
6194.59142 1.06870e-17
6196.06495 1.05358e-17
6197.52846 1.04761e-17
6199.00198 1.06275e-17
6200.46549 1.06367e-17
6201.93902 1.05332e-17
6203.41254 1.03770e-17
6204.87605 1.02225e-17
6206.34958 1.02359e-17
6207.82310 1.02523e-17
6209.28661 1.03481e-17
6210.76014 1.04867e-17
6212.23366 1.03938e-17
6213.69717 1.02711e-17
6215.17070 1.03058e-17
6216.64422 1.03048e-17
6218.10773 1.01691e-17
6219.58126 1.01859e-17
6221.04476 1.03808e-17
6222.51829 1.03597e-17
6223.99182 1.01251e-17
6225.45532 1.00308e-17
6226.92885 9.98647e-18
6228.40238 9.86322e-18
6229.86588 9.65636e-18
6231.33941 9.48435e-18
6232.81294 9.43656e-18
6234.27644 9.40208e-18
6235.74997 9.30753e-18
6237.22350 9.23237e-18
6238.68700 9.29604e-18
6240.16053 9.18379e-18
6241.63406 9.10561e-18
6243.09756 9.04976e-18
6244.57109 8.91785e-18
6246.03459 8.98814e-18
6247.50812 8.85047e-18
6248.98165 8.74427e-18
6250.44515 8.85226e-18
6251.91868 8.77550e-18
6253.39221 8.52806e-18
6254.85571 8.34179e-18
6256.32924 8.27029e-18
6257.80277 8.24163e-18
6259.26627 8.06714e-18
6260.73980 7.89100e-18
6262.21333 7.89192e-18
6263.67683 7.64335e-18
6265.15036 7.36851e-18
6266.62389 7.41759e-18
6268.08739 7.40894e-18
6269.56092 7.24649e-18
6271.03445 7.07920e-18
6272.49795 6.95611e-18
6273.97148 6.74647e-18
6275.43498 6.53210e-18
6276.90851 6.24637e-18
6278.38204 6.26449e-18
6279.84554 6.30025e-18
6281.31907 6.02139e-18
6282.79260 5.87624e-18
6284.25610 5.94897e-18
6285.72963 5.78184e-18
6287.20316 5.48197e-18
6288.66666 5.29995e-18
6290.14019 5.04576e-18
6291.61372 4.89904e-18
6293.07722 4.80800e-18
6294.55075 4.65864e-18
6296.02428 4.61011e-18
6297.48778 4.39292e-18
6298.96131 4.21042e-18
6300.43484 4.16583e-18
6301.89834 4.03067e-18
6303.37187 3.83946e-18
6304.83538 3.76994e-18
6306.30890 3.66989e-18
6307.78243 3.60263e-18
6309.24594 3.46921e-18
6310.71946 3.32325e-18
6312.19299 3.24739e-18
6313.65650 3.09217e-18
6315.13002 3.02671e-18
6316.60355 3.07981e-18
6318.06706 3.12213e-18
6319.54058 2.96362e-18
6321.01411 2.88264e-18
6322.47762 2.96229e-18
6323.95114 2.93624e-18
6325.41465 2.87287e-18
6326.88818 2.89512e-18
6328.36170 2.85553e-18
6329.82521 2.72369e-18
6331.29874 2.73849e-18
6332.77226 2.78254e-18
6334.23577 2.82416e-18
6335.70930 2.87993e-18
6337.18282 2.90139e-18
6338.64633 2.91044e-18
6340.11986 2.98299e-18
6341.59338 3.00463e-18
6343.05689 2.87650e-18
6344.53042 2.91166e-18
6346.00394 3.09498e-18
6347.46745 3.19732e-18
6348.94098 3.18062e-18
6350.41450 3.15146e-18
6351.87801 3.25327e-18
6353.35154 3.21449e-18
6354.81504 3.18922e-18
6356.28857 3.28118e-18
6357.76210 3.38909e-18
6359.22560 3.43663e-18
6360.69913 3.50275e-18
6362.17266 3.72864e-18
6363.63616 3.79665e-18
6365.10969 3.82606e-18
6366.58322 3.93066e-18
6368.04672 3.96110e-18
6369.52025 3.92705e-18
6370.99378 3.96613e-18
6372.45728 4.11668e-18
6373.93081 4.27895e-18
6375.40434 4.47572e-18
6376.86784 4.63911e-18
6378.34137 4.75467e-18
6379.81490 4.85900e-18
6381.27840 5.03793e-18
6382.75193 5.30279e-18
6384.21543 5.47876e-18
6385.68896 5.82466e-18
6387.16249 6.09553e-18
6388.62599 6.47042e-18
6390.09952 6.96148e-18
6391.57305 7.14925e-18
6393.03655 7.40899e-18
6394.51008 7.62423e-18
6395.98361 7.83873e-18
6397.44711 8.24816e-18
6398.92064 8.47283e-18
6400.39417 8.56741e-18
6401.85767 9.03784e-18
6403.33120 9.48154e-18
6404.79470 9.51182e-18
6406.26823 9.58691e-18
6407.74176 9.74452e-18
6409.20526 9.99458e-18
6410.67879 1.01462e-17
6412.15232 1.03258e-17
6413.61582 1.05634e-17
6415.08935 1.06162e-17
6416.56288 1.09504e-17
6418.02638 1.10860e-17
6419.49991 1.10937e-17
6420.97344 1.12906e-17
6422.43694 1.14735e-17
6423.91047 1.16944e-17
6425.38400 1.18575e-17
6426.84750 1.19495e-17
6428.32103 1.20739e-17
6429.79456 1.22038e-17
6431.25806 1.21799e-17
6432.73159 1.22764e-17
6434.19510 1.26188e-17
6435.66862 1.28178e-17
6437.14215 1.26993e-17
6438.60566 1.27959e-17
6440.07918 1.29171e-17
6441.55271 1.30308e-17
6443.01622 1.30875e-17
6444.48974 1.27894e-17
6445.96327 1.28818e-17
6447.42678 1.31216e-17
6448.90030 1.30044e-17
6450.37383 1.31580e-17
6451.83734 1.33673e-17
6453.31086 1.32496e-17
6454.78439 1.31751e-17
6456.24790 1.33114e-17
6457.72142 1.35027e-17
6459.18493 1.33602e-17
6460.65846 1.33664e-17
6462.13198 1.35359e-17
6463.59549 1.33973e-17
6465.06902 1.33850e-17
6466.54254 1.35430e-17
6468.00605 1.36364e-17
6469.47958 1.36417e-17
6470.95310 1.37283e-17
6472.41661 1.39255e-17
6473.89014 1.37399e-17
6475.36366 1.36390e-17
6476.82717 1.37765e-17
6478.30070 1.38178e-17
6479.77422 1.38794e-17
6481.23773 1.37526e-17
6482.71126 1.35275e-17
6484.18478 1.35764e-17
6485.64829 1.34565e-17
6487.12182 1.33503e-17
6488.58532 1.34855e-17
6490.05885 1.33533e-17
6491.53238 1.31354e-17
6492.99588 1.30438e-17
6494.46941 1.27465e-17
6495.94294 1.24872e-17
6497.40644 1.25624e-17
6498.87997 1.25102e-17
6500.35350 1.22179e-17
6501.81700 1.20028e-17
6503.29053 1.19310e-17
6504.76406 1.19901e-17
6506.22756 1.18717e-17
6507.70109 1.16192e-17
6509.16459 1.12115e-17
6510.63812 1.11125e-17
6512.11165 1.11387e-17
6513.57515 1.10524e-17
6515.04868 1.11907e-17
6516.52221 1.09007e-17
6517.98571 1.07259e-17
6519.45924 1.09142e-17
6520.93277 1.10046e-17
6522.39627 1.11669e-17
6523.86980 1.11475e-17
6525.34333 1.12050e-17
6526.80683 1.14387e-17
6528.28036 1.14319e-17
6529.75389 1.15160e-17
6531.21739 1.13385e-17
6532.69092 1.13518e-17
6534.16445 1.15328e-17
6535.62795 1.17158e-17
6537.10148 1.15030e-17
6538.56498 1.13718e-17
6540.03851 1.15137e-17
6541.51204 1.15549e-17
6542.97554 1.16994e-17
6544.44907 1.20116e-17
6545.92260 1.19358e-17
6547.38610 1.18812e-17
6548.85963 1.19585e-17
6550.33316 1.20358e-17
6551.79666 1.21132e-17
6553.27019 1.21905e-17
6554.74372 1.22679e-17
6556.20722 1.23452e-17
6557.68075 1.24225e-17
6559.15428 1.24998e-17
6560.61778 1.25771e-17
6562.09131 1.26544e-17
6563.55482 1.27317e-17
6565.02834 1.28090e-17
6566.50187 1.28864e-17
6567.96538 1.29637e-17
6569.43890 1.30410e-17
6570.91243 1.31183e-17
6572.37594 1.31956e-17
6573.84946 1.32729e-17
6575.32299 1.33502e-17
6576.78650 1.34275e-17
6578.26002 1.35047e-17
6579.73355 1.35820e-17
6581.19706 1.36593e-17
6582.67058 1.37366e-17
6584.14411 1.38139e-17
6585.60762 1.38911e-17
6587.08114 1.39684e-17
6588.54465 1.40457e-17
6590.01818 1.41230e-17
6591.49170 1.42002e-17
6592.95521 1.42775e-17
6594.42874 1.43547e-17
6595.90226 1.44320e-17
6597.36577 1.45093e-17
6598.83930 1.45865e-17
6600.31282 1.46637e-17
6601.77633 1.47410e-17
6603.24986 1.48182e-17
6604.72338 1.48955e-17
6606.18689 1.49727e-17
6607.66042 1.50500e-17
6609.13394 1.51272e-17
6610.59745 1.52687e-17
6612.07098 1.51210e-17
6613.54450 1.50498e-17
6615.00801 1.51570e-17
6616.48154 1.53895e-17
6617.94504 1.54999e-17
6619.41857 1.54934e-17
6620.89210 1.53932e-17
6622.35560 1.53561e-17
6623.82913 1.52168e-17
6625.30266 1.53427e-17
6626.76616 1.53514e-17
6628.23969 1.54115e-17
6629.71322 1.55000e-17
6631.17672 1.53104e-17
6632.65025 1.52128e-17
6634.12378 1.52952e-17
6635.58728 1.53639e-17
6637.06081 1.54760e-17
6638.53434 1.55596e-17
6639.99784 1.57624e-17
6641.47137 1.56500e-17
6642.93487 1.55252e-17
6644.40840 1.57065e-17
6645.88193 1.56760e-17
6647.34543 1.57555e-17
6648.81896 1.59496e-17
6650.29249 1.59407e-17
6651.75599 1.59373e-17
6653.22952 1.59946e-17
6654.70305 1.60278e-17
6656.16655 1.60223e-17
6657.64008 1.58663e-17
6659.11361 1.58342e-17
6660.57711 1.59457e-17
6662.05064 1.58918e-17
6663.52417 1.58030e-17
6664.98767 1.58748e-17
6666.46120 1.59552e-17
6667.93473 1.58943e-17
6669.39823 1.60090e-17
6670.87176 1.61034e-17
6672.33526 1.60005e-17
6673.80879 1.60166e-17
6675.28232 1.61570e-17
6676.74582 1.63441e-17
6678.21935 1.63817e-17
6679.69288 1.62553e-17
6681.15638 1.60444e-17
6682.62991 1.59784e-17
6684.10344 1.59510e-17
6685.56694 1.59868e-17
6687.04047 1.61278e-17
6688.51400 1.60686e-17
6689.97750 1.60856e-17
6691.45103 1.58957e-17
6692.92456 1.57870e-17
6694.38806 1.58607e-17
6695.86159 1.60715e-17
6697.32510 1.59428e-17
6698.79862 1.55312e-17
6700.27215 1.56889e-17
6701.73566 1.59213e-17
6703.20918 1.56594e-17
6704.68271 1.55687e-17
6706.14622 1.57190e-17
6707.61974 1.59546e-17
6709.09327 1.58081e-17
6710.55678 1.59566e-17
6712.03030 1.58045e-17
6713.50383 1.57809e-17
6714.96734 1.59440e-17
6716.44086 1.58761e-17
6717.91439 1.57835e-17
6719.37790 1.56612e-17
6720.85142 1.58742e-17
6722.31493 1.57961e-17
6723.78846 1.56642e-17
6725.26198 1.58227e-17
6726.72549 1.56332e-17
6728.19902 1.53664e-17
6729.67254 1.52659e-17
6731.13605 1.55636e-17
6732.60958 1.54390e-17
6734.08310 1.54292e-17
6735.54661 1.55935e-17
6737.02014 1.50995e-17
6738.49366 1.50589e-17
6739.95717 1.52054e-17
6741.43070 1.49339e-17
6742.90422 1.49870e-17
6744.36773 1.48780e-17
6745.84126 1.49467e-17
6747.30476 1.51785e-17
6748.77829 1.48431e-17
6750.25182 1.47764e-17
6751.71532 1.49046e-17
6753.18885 1.47394e-17
6754.66238 1.47167e-17
6756.12588 1.46452e-17
6757.59941 1.43543e-17
6759.07294 1.46453e-17
6760.53644 1.47838e-17
6762.00997 1.45012e-17
6763.48350 1.43000e-17
6764.94700 1.41162e-17
6766.42053 1.41913e-17
6767.89406 1.41063e-17
6769.35756 1.41078e-17
6770.83109 1.38713e-17
6772.29459 1.37741e-17
6773.76812 1.40244e-17
6775.24165 1.39801e-17
6776.70515 1.38075e-17
6778.17868 1.35968e-17
6779.65221 1.34802e-17
6781.11571 1.35498e-17
6782.58924 1.36709e-17
6784.06277 1.35093e-17
6785.52627 1.32887e-17
6786.99980 1.34594e-17
6788.47333 1.32766e-17
6789.93683 1.33564e-17
6791.41036 1.33791e-17
6792.88389 1.30530e-17
6794.34739 1.29193e-17
6795.82092 1.28449e-17
6797.29445 1.30035e-17
6798.75795 1.29917e-17
6800.23148 1.27316e-17
6801.70501 1.29114e-17
6803.16851 1.26894e-17
6804.64204 1.26958e-17
6806.10554 1.26586e-17
6807.57907 1.23387e-17
6809.05260 1.23305e-17
6810.51610 1.24440e-17
6811.98963 1.21652e-17
6813.46316 1.22744e-17
6814.92666 1.22416e-17
6816.40019 1.21860e-17
6817.87372 1.19969e-17
6819.33722 1.19810e-17
6820.81075 1.18194e-17
6822.28428 1.19088e-17
6823.74778 1.18154e-17
6825.22131 1.18277e-17
6826.68482 1.19315e-17
6828.15834 1.20526e-17
6829.63187 1.19085e-17
6831.09538 1.18352e-17
6832.56890 1.17738e-17
6834.04243 1.16473e-17
6835.50594 1.19189e-17
6836.97946 1.15505e-17
6838.45299 1.15424e-17
6839.91650 1.16165e-17
6841.39002 1.14484e-17
6842.86355 1.13308e-17
6844.32706 1.14541e-17
6845.80058 1.13987e-17
6847.27411 1.13042e-17
6848.73762 1.15366e-17
6850.21114 1.17922e-17
6851.68467 1.15848e-17
6853.14818 1.13419e-17
6854.62170 1.12769e-17
6856.08521 1.11442e-17
6857.55874 1.10379e-17
6859.03226 1.07867e-17
6860.49577 1.08897e-17
6861.96930 1.08530e-17
6863.44282 1.06179e-17
6864.90633 1.04029e-17
6866.37986 9.87727e-18
6867.85338 9.74041e-18
6869.31689 9.58505e-18
6870.79042 9.84744e-18
6872.26394 1.01662e-17
6873.72745 1.03384e-17
6875.20098 9.80165e-18
6876.67450 9.42049e-18
6878.13801 9.32314e-18
6879.61154 9.20531e-18
6881.07504 9.02337e-18
6882.54857 9.21082e-18
6884.02210 9.14980e-18
6885.48560 8.54042e-18
6886.95913 8.30048e-18
6888.43266 8.40621e-18
6889.89616 8.33929e-18
6891.36969 8.46791e-18
6892.84322 8.41690e-18
6894.30672 8.20222e-18
6895.78025 8.19194e-18
6897.25378 8.06957e-18
6898.71728 8.26801e-18
6900.19081 8.24657e-18
6901.66434 8.11304e-18
6903.12784 8.23815e-18
6904.60137 8.18023e-18
6906.06487 8.43494e-18
6907.53840 8.50653e-18
6909.01193 8.28714e-18
6910.47543 8.29643e-18
6911.94896 8.53612e-18
6913.42249 8.71199e-18
6914.88599 8.66284e-18
6916.35952 8.66877e-18
6917.83305 8.77163e-18
6919.29655 8.80132e-18
6920.77008 8.75186e-18
6922.24361 8.83713e-18
6923.70711 8.79390e-18
6925.18064 8.76545e-18
6926.65417 8.90371e-18
6928.11767 8.95407e-18
6929.59120 8.83450e-18
6931.05470 9.05749e-18
6932.52823 9.37743e-18
6934.00176 9.34443e-18
6935.46526 9.41873e-18
6936.93879 9.65698e-18
6938.41232 9.68246e-18
6939.87582 9.67317e-18
6941.34935 9.92525e-18
6942.82288 9.95462e-18
6944.28638 9.80673e-18
6945.75991 1.00995e-17
6947.23344 1.04614e-17
6948.69694 1.05013e-17
6950.17047 1.03568e-17
6951.64400 1.04832e-17
6953.10750 1.06389e-17
6954.58103 1.06031e-17
6956.05456 1.07124e-17
6957.51806 1.07258e-17
6958.99159 1.07201e-17
6960.45510 1.10000e-17
6961.92862 1.11033e-17
6963.40215 1.11998e-17
6964.86566 1.10112e-17
6966.33918 1.09744e-17
6967.81271 1.11251e-17
6969.27622 1.12504e-17
6970.74974 1.11307e-17
6972.22327 1.10449e-17
6973.68678 1.11396e-17
6975.16030 1.14398e-17
6976.63383 1.16922e-17
6978.09734 1.18413e-17
6979.57086 1.19999e-17
6981.04439 1.16122e-17
6982.50790 1.17555e-17
6983.98142 1.20128e-17
6985.45495 1.22780e-17
6986.91846 1.22567e-17
6988.39198 1.21756e-17
6989.85549 1.23107e-17
6991.32902 1.23472e-17
6992.80254 1.23603e-17
6994.26605 1.25685e-17
6995.73958 1.24754e-17
6997.21310 1.23105e-17
6998.67661 1.24839e-17
7000.15014 1.23987e-17
7001.62366 1.22741e-17
7003.08717 1.25440e-17
7004.56070 1.26582e-17
7006.03422 1.23191e-17
7007.49773 1.24606e-17
7008.97126 1.29914e-17
7010.43476 1.28178e-17
7011.90829 1.27358e-17
7013.38182 1.25229e-17
7014.84532 1.23436e-17
7016.31885 1.26696e-17
7017.79238 1.24173e-17
7019.25588 1.24552e-17
7020.72941 1.22387e-17
7022.20294 1.26508e-17
7023.66644 1.25670e-17
7025.13997 1.22996e-17
7026.61350 1.26052e-17
7028.07700 1.28543e-17
7029.55053 1.29257e-17
7031.02406 1.27083e-17
7032.48756 1.27522e-17
7033.96109 1.28886e-17
7035.43462 1.27008e-17
7036.89812 1.25955e-17
7038.37165 1.25631e-17
7039.83515 1.27453e-17
7041.30868 1.33370e-17
7042.78221 1.30507e-17
7044.24571 1.29059e-17
7045.71924 1.29446e-17
7047.19277 1.28014e-17
7048.65627 1.29337e-17
7050.12980 1.26845e-17
7051.60333 1.26041e-17
7053.06683 1.28213e-17
7054.54036 1.28482e-17
7056.01389 1.29767e-17
7057.47739 1.29706e-17
7058.95092 1.30124e-17
7060.42445 1.30968e-17
7061.88795 1.32870e-17
7063.36148 1.30529e-17
7064.83501 1.31256e-17
7066.29851 1.32716e-17
7067.77204 1.36992e-17
7069.23554 1.35702e-17
7070.70907 1.31792e-17
7072.18260 1.29184e-17
7073.64610 1.27790e-17
7075.11963 1.25858e-17
7076.59316 1.25919e-17
7078.05666 1.30860e-17
7079.53019 1.28922e-17
7081.00372 1.28826e-17
7082.46722 1.27870e-17
7083.94075 1.25379e-17
7085.41428 1.26731e-17
7086.87778 1.26334e-17
7088.35131 1.28989e-17
7089.81482 1.24884e-17
7091.28834 1.22625e-17
7092.76187 1.22176e-17
7094.22538 1.20161e-17
7095.69890 1.22811e-17
7097.17243 1.21007e-17
7098.63594 1.20679e-17
7100.10946 1.18048e-17
7101.58299 1.16255e-17
7103.04650 1.17743e-17
7104.52002 1.18566e-17
7105.99355 1.16753e-17
7107.45706 1.15179e-17
7108.93058 1.14845e-17
7110.40411 1.12904e-17
7111.86762 1.13186e-17
7113.34114 1.12669e-17
7114.80465 1.11878e-17
7116.27818 1.10485e-17
7117.75170 1.10834e-17
7119.21521 1.12303e-17
7120.68874 1.14127e-17
7122.16226 1.11920e-17
7123.62577 1.11313e-17
7125.09930 1.11044e-17
7126.57282 1.10158e-17
7128.03633 1.08849e-17
7129.50986 1.08381e-17
7130.98338 1.09758e-17
7132.44689 1.12177e-17
7133.92042 1.10447e-17
7135.39394 1.06897e-17
7136.85745 1.04950e-17
7138.33098 1.06737e-17
7139.80450 1.07336e-17
7141.26801 1.09700e-17
7142.74154 1.10731e-17
7144.20504 1.08345e-17
7145.67857 1.08019e-17
7147.15210 1.09498e-17
7148.61560 1.07196e-17
7150.08913 1.06922e-17
7151.56266 1.06095e-17
7153.02616 1.08848e-17
7154.49969 1.08208e-17
7155.97322 1.06577e-17
7157.43672 1.09989e-17
7158.91025 1.11085e-17
7160.38378 1.10360e-17
7161.84728 1.10486e-17
7163.32081 1.10377e-17
7164.79434 1.10040e-17
7166.25784 1.10241e-17
7167.73137 1.11868e-17
7169.20490 1.10505e-17
7170.66840 1.09475e-17
7172.14193 1.11072e-17
7173.60543 1.11550e-17
7175.07896 1.10802e-17
7176.55249 1.10346e-17
7178.01599 1.08557e-17
7179.48952 1.08168e-17
7180.96305 1.10641e-17
7182.42655 1.11529e-17
7183.90008 1.11614e-17
7185.37361 1.07488e-17
7186.83711 1.09295e-17
7188.31064 1.11784e-17
7189.78417 1.09770e-17
7191.24767 1.07726e-17
7192.72120 1.10437e-17
7194.18470 1.11979e-17
7195.65823 1.07481e-17
7197.13176 1.05860e-17
7198.59526 1.09313e-17
7200.06879 1.08142e-17
7201.54232 1.09411e-17
7203.00582 1.11650e-17
7204.47935 1.08314e-17
7205.95288 1.08665e-17
7207.41638 1.08730e-17
7208.88991 1.10530e-17
7210.36344 1.06940e-17
7211.82694 1.03053e-17
7213.30047 1.06490e-17
7214.77400 1.06142e-17
7216.23750 1.07942e-17
7217.71103 1.09930e-17
7219.18456 1.07673e-17
7220.64806 1.08232e-17
7222.12159 1.08903e-17
7223.58510 1.07367e-17
7225.05862 1.06339e-17
7226.53215 1.08259e-17
7227.99566 1.08778e-17
7229.46918 1.06330e-17
7230.94271 1.05700e-17
7232.40622 1.03404e-17
7233.87974 1.05449e-17
7235.35327 1.11008e-17
7236.81678 1.11596e-17
7238.29030 1.09639e-17
7239.76383 1.09484e-17
7241.22734 1.09827e-17
7242.70086 1.08059e-17
7244.17439 1.08243e-17
7245.63790 1.08567e-17
7247.11142 1.11982e-17
7248.57493 1.11164e-17
7250.04846 1.05515e-17
7251.52198 1.06551e-17
7252.98549 1.08234e-17
7254.45902 1.08064e-17
7255.93254 1.08472e-17
7257.39605 1.07919e-17
7258.86958 1.09304e-17
7260.34310 1.08566e-17
7261.80661 1.08338e-17
7263.28014 1.10246e-17
7264.75366 1.09857e-17
7266.21717 1.09174e-17
7267.69070 1.09876e-17
7269.16422 1.09874e-17
7270.62773 1.07831e-17
7272.10126 1.04485e-17
7273.56476 1.05388e-17
7275.03829 1.09329e-17
7276.51182 1.09627e-17
7277.97532 1.09503e-17
7279.44885 1.12023e-17
7280.92238 1.13249e-17
7282.38588 1.11296e-17
7283.85941 1.11395e-17
7285.33294 1.10856e-17
7286.79644 1.10401e-17
7288.26997 1.08108e-17
7289.74350 1.06701e-17
7291.20700 1.07251e-17
7292.68053 1.07613e-17
7294.15406 1.06758e-17
7295.61756 1.08934e-17
7297.09109 1.09697e-17
7298.55459 1.06328e-17
7300.02812 1.04208e-17
7301.50165 1.05340e-17
7302.96515 1.04622e-17
7304.43868 1.07807e-17
7305.91221 1.11726e-17
7307.37571 1.05705e-17
7308.84924 1.03911e-17
7310.32277 1.07451e-17
7311.78627 1.05713e-17
7313.25980 1.07570e-17
7314.73333 1.05849e-17
7316.19683 1.04747e-17
7317.67036 1.06550e-17
7319.14389 1.05973e-17
7320.60739 1.04940e-17
7322.08092 1.04580e-17
7323.55445 1.03549e-17
7325.01795 1.03984e-17
7326.49148 1.02554e-17
7327.95498 1.02265e-17
7329.42851 1.03453e-17
7330.90204 1.04335e-17
7332.36554 1.02764e-17
7333.83907 9.93280e-18
7335.31260 1.01785e-17
7336.77610 1.05167e-17
7338.24963 1.05442e-17
7339.72316 1.05205e-17
7341.18666 1.03932e-17
7342.66019 9.93618e-18
7344.13372 1.00734e-17
7345.59722 1.01447e-17
7347.07075 9.93081e-18
7348.54428 9.78853e-18
7350.00778 9.97255e-18
7351.48131 1.03753e-17
7352.95484 1.03169e-17
7354.41834 9.98962e-18
7355.89187 1.01060e-17
7357.35538 9.99957e-18
7358.82890 9.98278e-18
7360.30243 9.90773e-18
7361.76594 9.95694e-18
7363.23946 9.91989e-18
7364.71299 9.84492e-18
7366.17650 1.00292e-17
7367.65002 9.99435e-18
7369.12355 9.97678e-18
7370.58706 9.91101e-18
7372.06058 9.61457e-18
7373.53411 9.87518e-18
7374.99762 9.94281e-18
7376.47114 9.69810e-18
7377.93465 9.63622e-18
7379.40818 9.75119e-18
7380.88170 9.66111e-18
7382.34521 9.41748e-18
7383.81874 9.44778e-18
7385.29226 9.55034e-18
7386.75577 9.45551e-18
7388.22930 9.57246e-18
7389.70282 9.78688e-18
7391.16633 9.77934e-18
7392.63986 9.61926e-18
7394.11338 9.77780e-18
7395.57689 9.61463e-18
7397.05042 9.47943e-18
7398.52394 9.41882e-18
7399.98745 9.43347e-18
7401.46098 9.59452e-18
7402.93450 9.67914e-18
7404.39801 9.51539e-18
7405.87154 9.37702e-18
7407.33504 9.29293e-18
7408.80857 9.48263e-18
7410.28210 9.21469e-18
7411.74560 9.17148e-18
7413.21913 9.31443e-18
7414.69266 9.20292e-18
7416.15616 9.11525e-18
7417.62969 9.08923e-18
7419.10322 8.87172e-18
7420.56672 8.99045e-18
7422.04025 9.22594e-18
7423.51378 8.95113e-18
7424.97728 9.13380e-18
7426.45081 9.13017e-18
7427.92434 9.31551e-18
7429.38784 9.22477e-18
7430.86137 9.18867e-18
7432.32487 9.16318e-18
7433.79840 9.02013e-18
7435.27193 8.92532e-18
7436.73543 9.11407e-18
7438.20896 9.21125e-18
7439.68249 8.93721e-18
7441.14599 8.93406e-18
7442.61952 8.91035e-18
7444.09305 8.92388e-18
7445.55655 9.13320e-18
7447.03008 8.93782e-18
7448.50361 8.85744e-18
7449.96711 8.88921e-18
7451.44064 8.94038e-18
7452.91417 8.85034e-18
7454.37767 8.80798e-18
7455.85120 8.91979e-18
7457.31470 8.93999e-18
7458.78823 8.88055e-18
7460.26176 8.81341e-18
7461.72526 8.87697e-18
7463.19879 8.98148e-18
7464.67232 9.05342e-18
7466.13582 9.20617e-18
7467.60935 9.03437e-18
7469.08288 9.02507e-18
7470.54638 9.10430e-18
7472.01991 8.83523e-18
7473.49344 8.83634e-18
7474.95694 8.71846e-18
7476.43047 8.72060e-18
7477.90400 9.04781e-18
7479.36750 8.84714e-18
7480.84103 8.79918e-18
7482.31456 8.74051e-18
7483.77806 8.78488e-18
7485.25159 8.66277e-18
7486.71510 8.90896e-18
7488.18862 8.98065e-18
7489.66215 8.64630e-18
7491.12566 8.66990e-18
7492.59918 8.77309e-18
7494.07271 8.59395e-18
7495.53622 8.58640e-18
7497.00974 8.55143e-18
7498.48327 8.59234e-18
7499.94678 8.43213e-18
7501.42030 8.48075e-18
7502.89383 8.50413e-18
7504.35734 8.60164e-18
7505.83086 8.55691e-18
7507.30439 8.16296e-18
7508.76790 8.37202e-18
7510.24142 8.36053e-18
7511.70493 8.14446e-18
7513.17846 8.29350e-18
7514.65198 8.34888e-18
7516.11549 8.39778e-18
7517.58902 8.06487e-18
7519.06254 7.91813e-18
7520.52605 8.00267e-18
7521.99958 8.27253e-18
7523.47310 8.28294e-18
7524.93661 8.22849e-18
7526.41014 8.04522e-18
7527.88366 7.71138e-18
7529.34717 7.52692e-18
7530.82070 7.56681e-18
7532.29422 7.51869e-18
7533.75773 7.42125e-18
7535.23126 7.44558e-18
7536.70478 7.50555e-18
7538.16829 7.47430e-18
7539.64182 7.78258e-18
7541.10532 7.40809e-18
7542.57885 7.29461e-18
7544.05238 7.34167e-18
7545.51588 7.64732e-18
7546.98941 7.24598e-18
7548.46294 7.16953e-18
7549.92644 7.08703e-18
7551.39997 7.22076e-18
7552.87350 7.17715e-18
7554.33700 7.34374e-18
7555.81053 7.30635e-18
7557.28406 7.15786e-18
7557.88110 7.15786e-18
7559.14404 7.14958e-18
7560.41716 7.14130e-18
7561.68010 7.13296e-18
7562.95323 7.12468e-18
7564.21617 7.11634e-18
7565.48929 7.10806e-18
7566.76242 7.09978e-18
7568.02536 7.09144e-18
7569.29849 7.08316e-18
7570.56142 7.07482e-18
7571.83455 7.06654e-18
7573.09749 7.05827e-18
7574.37061 7.04992e-18
7575.63355 7.04165e-18
7576.90668 7.03337e-18
7578.16962 7.02509e-18
7579.44275 7.01675e-18
7580.70568 7.00847e-18
7581.97881 7.00019e-18
7583.25194 6.99191e-18
7584.51487 6.98357e-18
7585.78800 6.97529e-18
7587.05094 6.96701e-18
7588.32406 6.95873e-18
7589.58700 6.95039e-18
7590.86013 6.94211e-18
7592.12307 6.93384e-18
7593.39620 6.92556e-18
7594.65913 6.91728e-18
7595.93226 6.90900e-18
7597.19520 6.90066e-18
7598.46832 6.89238e-18
7599.74145 6.88410e-18
7601.00439 6.87582e-18
7602.27751 6.86754e-18
7603.54046 6.85927e-18
7604.81358 6.85099e-18
7606.07652 6.84271e-18
7607.34965 6.83443e-18
7608.61258 6.82615e-18
7609.88571 6.81787e-18
7611.14865 6.80959e-18
7612.42177 6.80125e-18
7613.69490 6.79297e-18
7614.95784 6.78476e-18
7616.23096 6.77648e-18
7617.49391 6.76820e-18
7618.76703 6.75992e-18
7620.02997 6.75165e-18
7621.30309 6.74337e-18
7622.56603 6.73509e-18
7623.83916 6.72681e-18
7625.10210 6.71853e-18
7626.37522 6.71025e-18
7627.63817 6.70197e-18
7628.91129 6.69370e-18
7630.17423 6.68542e-18
7631.44735 6.67714e-18
7632.72048 6.66892e-18
7633.98342 6.66065e-18
7635.25654 6.65237e-18
7636.51948 6.64409e-18
7637.79261 6.63581e-18
7639.05555 6.62753e-18
7640.32867 6.61932e-18
7641.59161 6.61104e-18
7642.86474 6.60276e-18
7644.12768 6.59448e-18
7645.40080 6.58627e-18
7646.67393 6.57799e-18
7647.93687 6.56971e-18
7649.21000 6.56143e-18
7650.47293 6.55321e-18
7651.74606 6.54494e-18
7653.00900 6.53666e-18
7654.28212 6.52844e-18
7655.54506 6.52016e-18
7656.81819 6.51189e-18
7658.08113 6.50367e-18
7659.35425 6.49539e-18
7660.61719 6.48711e-18
7661.89032 6.47890e-18
7663.16345 6.47062e-18
7664.42638 6.46234e-18
7665.69951 6.45413e-18
7666.96245 6.44585e-18
7668.23557 6.43763e-18
7669.49851 6.42935e-18
7670.77164 6.42114e-18
7672.03458 6.41286e-18
7673.30771 6.40464e-18
7674.57064 6.39637e-18
7675.84377 6.38815e-18
7677.10671 6.37987e-18
7678.37983 6.37166e-18
7679.65296 6.36338e-18
7680.91590 6.35516e-18
7682.18902 6.27975e-18
7683.45197 6.27651e-18
7684.72509 6.34777e-18
7685.98803 6.95501e-18
7687.26116 7.29923e-18
7688.52409 7.02161e-18
7689.79722 6.86805e-18
7691.06016 6.93074e-18
7692.33328 7.01788e-18
7693.59623 7.01750e-18
7694.86935 7.35105e-18
7696.14247 7.65937e-18
7697.40542 7.20235e-18
7698.67854 7.38460e-18
7699.94148 7.56249e-18
7701.21460 6.58766e-18
7702.47754 5.97651e-18
7703.75067 6.69938e-18
7705.01361 7.23072e-18
7706.28673 6.97169e-18
7707.54968 6.50557e-18
7708.82280 6.79967e-18
7710.08574 7.31679e-18
7711.35886 7.37803e-18
7712.63199 7.19969e-18
7713.89493 7.06048e-18
7715.16805 7.43036e-18
7716.43099 7.23085e-18
7717.70412 6.41615e-18
7718.96706 6.23036e-18
7720.24018 6.28152e-18
7721.50312 6.56326e-18
7722.77625 6.11051e-18
7724.03919 5.57540e-18
7725.31231 5.98365e-18
7726.57525 6.56364e-18
7727.84838 6.02787e-18
7729.12150 5.94977e-18
7730.38444 6.35409e-18
7731.65757 6.58342e-18
7732.92051 6.44111e-18
7734.19363 5.98617e-18
7735.45657 5.72485e-18
7736.72970 5.80947e-18
7737.99264 6.50885e-18
7739.26576 7.18813e-18
7740.52870 6.69110e-18
7741.80183 6.03939e-18
7743.07496 6.28063e-18
7744.33789 6.76947e-18
7745.61102 6.34903e-18
7746.87396 5.25190e-18
7748.14708 5.62612e-18
7749.41002 6.03261e-18
7750.68315 5.17049e-18
7751.94609 5.77633e-18
7753.21922 6.97934e-18
7754.48215 7.23812e-18
7755.75528 6.56004e-18
7757.01822 5.69784e-18
7758.29134 5.34251e-18
7759.56447 5.49223e-18
7760.82741 5.76269e-18
7762.10053 6.02891e-18
7763.36348 6.11461e-18
7764.63660 5.95386e-18
7765.89954 5.67583e-18
7767.17267 5.43915e-18
7768.43560 5.40773e-18
7769.70873 5.42743e-18
7770.97167 5.54704e-18
7772.24479 5.29004e-18
7773.50774 4.64219e-18
7774.78086 4.59806e-18
7776.05399 5.06426e-18
7777.31693 5.39607e-18
7778.59005 5.82566e-18
7779.85299 6.41096e-18
7781.12612 6.49824e-18
7782.38905 6.02477e-18
7783.66218 5.57125e-18
7784.92512 5.25021e-18
7786.19825 4.95721e-18
7787.46119 4.90401e-18
7788.73431 5.35146e-18
7789.99725 5.67812e-18
7791.27038 5.50145e-18
7792.54350 5.63971e-18
7793.80644 5.44402e-18
7795.07956 5.18524e-18
7796.34250 5.58080e-18
7797.61563 5.39020e-18
7798.87857 5.48334e-18
7800.15169 5.79347e-18
7801.41464 5.93489e-18
7802.68776 6.24986e-18
7803.95070 6.76106e-18
7805.22382 7.11918e-18
7806.48676 7.01896e-18
7807.75989 6.63259e-18
7809.03301 6.54386e-18
7810.29595 6.64902e-18
7811.56908 5.96857e-18
7812.83202 5.17578e-18
7814.10514 5.14504e-18
7815.36808 5.08029e-18
7816.64121 5.46783e-18
7817.90415 5.65140e-18
7819.17727 5.06536e-18
7820.44021 5.36849e-18
7821.71334 6.38417e-18
7822.98646 6.91431e-18
7824.24940 7.69356e-18
7825.52253 8.42245e-18
7826.78547 8.13706e-18
7828.05859 6.80789e-18
7829.32153 5.48978e-18
7830.59466 5.36527e-18
7831.85760 5.95797e-18
7833.13072 5.91108e-18
7834.39366 5.81577e-18
7835.66679 6.09340e-18
7836.92973 6.23990e-18
7838.20285 6.80966e-18
7839.47598 6.80985e-18
7840.73892 6.19479e-18
7842.01204 6.11832e-18
7843.27499 7.05239e-18
7844.54811 7.51238e-18
7845.81105 7.11659e-18
7847.08417 7.35838e-18
7848.34711 8.23773e-18
7849.62024 8.14458e-18
7850.88318 7.52117e-18
7852.15630 7.62999e-18
7853.41925 8.62290e-18
7854.69237 8.76256e-18
7855.96550 7.84820e-18
7857.22843 7.65988e-18
7858.50156 7.72295e-18
7859.76450 7.91392e-18
7861.03762 7.11937e-18
7862.30056 6.41861e-18
7863.57369 6.16496e-18
7864.83663 6.17790e-18
7866.10975 7.11729e-18
7867.37270 8.00574e-18
7868.64582 8.34213e-18
7869.90876 7.46277e-18
7871.18188 5.88627e-18
7872.45501 5.83644e-18
7873.71795 6.85288e-18
7874.99107 7.20608e-18
7876.25401 7.21417e-18
7877.52714 7.25069e-18
7878.79008 7.08455e-18
7880.06321 7.36109e-18
7881.32614 8.23602e-18
7882.59927 8.16025e-18
7883.86221 7.32242e-18
7885.13533 7.25493e-18
7886.39827 8.02085e-18
7887.67140 8.82228e-18
7888.94452 9.56481e-18
7890.20747 9.82505e-18
7891.48059 8.81659e-18
7892.74353 8.17062e-18
7894.01665 8.55933e-18
7895.27959 8.33991e-18
7896.55272 7.52053e-18
7897.81566 7.16898e-18
7899.08878 7.25676e-18
7900.35173 7.14901e-18
7901.62485 7.68136e-18
7902.89797 8.20424e-18
7904.16091 8.03652e-18
7905.43404 7.93730e-18
7906.69698 7.87765e-18
7907.97010 7.22478e-18
7909.23304 7.35357e-18
7910.50617 7.55668e-18
7911.76911 7.34782e-18
7913.04223 7.61242e-18
7914.30517 7.89566e-18
7915.57830 7.82911e-18
7916.84124 7.63005e-18
7918.11436 7.68680e-18
7919.37730 8.23337e-18
7920.65043 8.44077e-18
7921.92355 7.33025e-18
7923.18649 7.10080e-18
7924.45962 7.66872e-18
7925.72256 7.69533e-18
7926.99568 7.57545e-18
7928.25862 7.99911e-18
7929.53175 8.35533e-18
7930.79469 7.81312e-18
7932.06781 6.79689e-18
7933.33075 6.27492e-18
7934.60388 6.77566e-18
7935.87700 7.31496e-18
7937.13994 7.42069e-18
7938.41307 7.89970e-18
7939.67601 7.67498e-18
7940.94913 6.95722e-18
7942.21207 6.89219e-18
7943.48520 7.77274e-18
7944.74814 8.11153e-18
7946.02126 7.29720e-18
7947.28420 7.10484e-18
7948.55733 7.38985e-18
7949.82027 7.56332e-18
7951.09339 8.06622e-18
7952.36652 8.11001e-18
7953.62946 7.41652e-18
7954.90258 6.93592e-18
7956.16552 6.93156e-18
7957.43865 7.06433e-18
7958.70159 7.62019e-18
7959.97472 8.63225e-18
7961.23765 8.98387e-18
7962.51078 8.40753e-18
7963.77372 7.93705e-18
7965.04684 7.97516e-18
7966.30978 8.52716e-18
7967.58291 9.16757e-18
7968.85603 8.57057e-18
7970.11898 7.62051e-18
7971.39210 7.98350e-18
7972.65504 8.28064e-18
7973.92817 8.01630e-18
7975.19110 8.00334e-18
7976.46423 7.80541e-18
7977.72717 7.10705e-18
7979.00029 6.76479e-18
7980.26324 8.06363e-18
7981.53636 8.66960e-18
7982.79930 7.50417e-18
7984.07243 6.92606e-18
7985.34555 7.30156e-18
7986.60849 7.77230e-18
7987.88161 8.02154e-18
7989.14455 7.24949e-18
7990.41768 6.52914e-18
7991.68062 7.51080e-18
7992.95374 8.38908e-18
7994.21669 7.61520e-18
7995.48981 6.67183e-18
7996.75275 6.32951e-18
7998.02587 6.50007e-18
7999.28881 7.08323e-18
8000.56194 7.56597e-18
8001.83506 7.20071e-18
8003.09800 6.92682e-18
8004.37113 7.23742e-18
8005.63407 7.24507e-18
8006.90719 7.06458e-18
8008.17013 7.23142e-18
8009.44326 7.51004e-18
8010.70620 7.35086e-18
8011.97932 6.77433e-18
8013.24226 6.58873e-18
8014.51539 7.14541e-18
8015.78851 7.45601e-18
8017.05145 7.06484e-18
8018.32458 6.64421e-18
8019.58752 6.78868e-18
8020.86064 7.15028e-18
8022.12358 7.41854e-18
8023.39671 7.54745e-18
8024.65965 7.81401e-18
8025.93277 8.73456e-18
8027.19571 9.15102e-18
8028.46884 8.48539e-18
8029.73178 7.84479e-18
8031.00490 7.09587e-18
8032.27803 6.60529e-18
8033.54097 6.64775e-18
8034.81409 7.02376e-18
8036.07703 7.43933e-18
8037.35016 7.09144e-18
8038.61310 6.83456e-18
8039.88623 6.76315e-18
8041.14916 6.54664e-18
8042.42229 6.60693e-18
8043.68523 6.50000e-18
8044.95835 6.91355e-18
8046.22129 7.24842e-18
8047.49442 7.30188e-18
8048.76754 7.23395e-18
8050.03049 6.84391e-18
8051.30361 6.47492e-18
8052.56655 6.57438e-18
8053.83968 6.98812e-18
8055.10261 7.20298e-18
8056.37574 7.73002e-18
8057.63868 8.60773e-18
8058.91180 8.32747e-18
8060.17475 7.29417e-18
8061.44787 7.05688e-18
8062.71081 7.51826e-18
8063.98394 7.70582e-18
8065.25706 7.11666e-18
8066.52000 6.84018e-18
8067.79312 7.22169e-18
8069.05606 7.55434e-18
8070.32919 7.68080e-18
8071.59213 7.27363e-18
8072.86525 6.83740e-18
8074.12820 7.05631e-18
8075.40132 7.02616e-18
8076.66426 6.76504e-18
8077.93739 6.72668e-18
8079.20032 6.70254e-18
8080.47345 6.51226e-18
8081.74657 6.20448e-18
8083.00951 6.52225e-18
8084.28264 6.84359e-18
8085.54558 7.03602e-18
8086.81870 7.22699e-18
8088.08165 6.48098e-18
8089.35477 5.69460e-18
8090.61771 6.20786e-18
8091.89083 6.81781e-18
8093.15377 6.66817e-18
8094.42690 6.47530e-18
8095.70002 6.35775e-18
8096.96296 5.88287e-18
8098.23609 6.13981e-18
8099.49903 7.42783e-18
8100.77215 8.50397e-18
8102.03509 8.19615e-18
8103.30822 7.12386e-18
8104.57116 6.35706e-18
8105.84428 5.89833e-18
8107.10722 6.37444e-18
8108.38035 6.99020e-18
8109.64329 5.95630e-18
8110.91641 5.26703e-18
8112.17935 5.79655e-18
8113.45248 6.19540e-18
8114.72560 6.34474e-18
8115.98854 6.01000e-18
8117.26167 5.63459e-18
8118.52461 6.03891e-18
8119.79774 6.37343e-18
8121.06067 6.17960e-18
8122.33380 6.31934e-18
8123.59674 6.10135e-18
8124.86986 5.65011e-18
8126.13280 5.78010e-18
8127.40593 5.46885e-18
8128.67905 5.18289e-18
8129.94200 5.30354e-18
8131.21512 5.86508e-18
8132.47806 6.04878e-18
8133.75119 6.42386e-18
8135.01412 6.75967e-18
8136.28725 6.20430e-18
8137.55019 5.51495e-18
8138.82331 5.20585e-18
8140.08625 5.93571e-18
8141.35938 7.02920e-18
8142.62232 6.89497e-18
8143.89545 6.11056e-18
8145.16857 6.09826e-18
8146.43151 6.48288e-18
8147.70464 6.38404e-18
8148.96757 6.25058e-18
8150.24070 6.25671e-18
8151.50364 6.33576e-18
8152.77676 6.60933e-18
8154.03971 6.44553e-18
8155.31283 6.05645e-18
8156.57577 6.07780e-18
8157.84890 6.49147e-18
8159.11183 6.53868e-18
8160.38496 5.91441e-18
8161.65808 6.02181e-18
8162.92102 6.00429e-18
8164.19415 5.55375e-18
8165.45709 5.87902e-18
8166.73021 6.45059e-18
8167.99316 6.33955e-18
8169.26628 6.28860e-18
8170.52922 6.79114e-18
8171.80234 6.72144e-18
8173.06528 6.57350e-18
8174.33841 6.68548e-18
8175.60135 6.25969e-18
8176.87447 5.78599e-18
8178.14760 5.94432e-18
8179.41054 6.43959e-18
8180.68366 6.37058e-18
8181.94660 5.92576e-18
8183.21973 6.20091e-18
8184.48267 6.42367e-18
8185.75579 6.02697e-18
8187.01873 6.09751e-18
8188.29186 6.39017e-18
8189.55480 6.18467e-18
8190.82792 5.78491e-18
8192.09087 5.47633e-18
8193.36399 5.85098e-18
8194.63711 6.11366e-18
8195.90006 5.92078e-18
8197.17318 6.04157e-18
8198.43612 6.26105e-18
8199.70925 6.25902e-18
8200.97219 6.03394e-18
8202.24531 6.63764e-18
8203.50825 6.65938e-18
8204.78138 5.80655e-18
8206.04431 5.70143e-18
8207.31744 6.30724e-18
8208.59056 7.03255e-18
8209.85350 6.98281e-18
8211.12663 5.77098e-18
8212.38957 5.07611e-18
8213.66269 5.47580e-18
8214.92563 6.21355e-18
8216.19876 6.38480e-18
8217.46170 6.01003e-18
8218.73482 5.95145e-18
8219.99777 5.86096e-18
8221.27089 5.72800e-18
8222.53383 6.11560e-18
8223.80696 6.22536e-18
8225.08008 5.63283e-18
8226.34302 5.22576e-18
8227.61614 5.04230e-18
8228.87908 4.91977e-18
8230.15221 5.33737e-18
8231.41515 5.95170e-18
8232.68827 5.98558e-18
8233.95121 5.58392e-18
8235.22434 5.63631e-18
8236.48728 6.60010e-18
8237.76040 6.94066e-18
8239.02334 6.57382e-18
8240.29647 6.57761e-18
8241.56959 6.37166e-18
8242.83253 6.10973e-18
8244.10566 5.87984e-18
8245.36860 6.06835e-18
8246.64172 6.35813e-18
8247.90467 6.77067e-18
8249.17779 6.20382e-18
8250.44073 5.16925e-18
8251.71385 5.30684e-18
8252.97679 5.41483e-18
8254.24992 5.15401e-18
8255.51286 5.13350e-18
8256.78599 4.97647e-18
8258.05911 5.37752e-18
8259.32205 5.91842e-18
8260.59518 5.91887e-18
8261.85811 5.54390e-18
8263.13124 5.33216e-18
8264.39418 5.81567e-18
8265.66730 6.35997e-18
8266.93024 6.17943e-18
8268.20337 6.31854e-18
8269.46631 6.49103e-18
8270.73943 5.69716e-18
8272.00238 5.37213e-18
8273.27550 5.98863e-18
8274.54862 6.47214e-18
8275.81156 5.99717e-18
8277.08469 5.64793e-18
8278.34763 5.78002e-18
8279.62075 5.74597e-18
8280.88370 5.91411e-18
8282.15682 6.74217e-18
8283.41976 7.70083e-18
8284.69289 7.75473e-18
8285.95582 6.74830e-18
8287.22895 4.89645e-18
8288.49189 4.59459e-18
8289.76501 5.70940e-18
8291.03814 6.56933e-18
8292.30108 6.46095e-18
8293.57421 5.74222e-18
8294.83714 5.78785e-18
8296.11027 5.33737e-18
8297.37321 4.77082e-18
8298.64633 5.37239e-18
8299.90927 5.95870e-18
8301.18240 6.77263e-18
8302.44534 6.61982e-18
8303.71846 5.80287e-18
8304.98141 5.89172e-18
8306.25453 6.38392e-18
8307.52765 6.95425e-18
8308.79060 7.14585e-18
8310.06372 7.03596e-18
8311.32666 6.14022e-18
8312.59978 4.89637e-18
8313.86273 5.38760e-18
8315.13585 6.57786e-18
8316.39879 6.43258e-18
8317.67191 5.62185e-18
8318.93485 5.19904e-18
8320.20798 5.22990e-18
8321.48110 5.58902e-18
8322.74404 5.90928e-18
8324.01717 5.76402e-18
8325.28011 5.72640e-18
8326.55323 5.82661e-18
8327.81617 5.31430e-18
8329.08930 5.51758e-18
8330.35224 6.16974e-18
8331.62536 6.00489e-18
8332.88830 5.67373e-18
8334.16143 4.96719e-18
8335.42437 4.58673e-18
8336.69750 5.51881e-18
8337.97062 7.77401e-18
8339.23356 9.68533e-18
8340.50669 9.09503e-18
8341.76962 7.43472e-18
8343.04275 5.93096e-18
8344.30569 5.10097e-18
8345.57881 6.05225e-18
8346.84175 7.93414e-18
8348.11488 8.90032e-18
8349.37782 7.67523e-18
8350.65094 6.66121e-18
8351.91388 6.91715e-18
8353.18701 7.15356e-18
8354.46013 6.40648e-18
8355.72307 5.94971e-18
8356.99620 6.44623e-18
8358.25914 6.49526e-18
8359.53226 5.96080e-18
8360.79521 5.75727e-18
8362.06833 5.80714e-18
8363.33127 5.94730e-18
8364.60440 7.10686e-18
8365.86733 7.55883e-18
8367.14046 6.13844e-18
8368.41359 5.25000e-18
8369.67652 5.98453e-18
8370.94965 6.78994e-18
8372.21259 6.37380e-18
8373.48571 5.73297e-18
8374.74865 5.78802e-18
8376.02178 5.36427e-18
8377.28472 5.47608e-18
8378.55785 6.21722e-18
8379.82078 6.08111e-18
8381.09391 5.43982e-18
8382.35685 5.60028e-18
8383.62997 6.19076e-18
8384.89292 5.48577e-18
8386.16604 4.18609e-18
8387.43916 4.24331e-18
8388.70211 4.82870e-18
8389.97523 4.97425e-18
8391.23817 4.79786e-18
8392.51130 4.38692e-18
8393.77423 4.69225e-18
8395.04736 4.67929e-18
8396.31030 3.34299e-18
8397.58342 3.78041e-18
8398.84637 4.16102e-18
8400.11949 2.68248e-18
8401.39262 4.32266e-18
8402.65556 7.13397e-18
8403.92868 6.07793e-18
8405.19162 4.29423e-18
8406.46474 4.01462e-18
8407.72768 3.92024e-18
8409.00081 4.50646e-18
8410.26375 5.38884e-18
8411.53687 5.71561e-18
8412.79982 5.73507e-18
8414.07294 6.50866e-18
8415.33588 6.07439e-18
8416.60900 4.27399e-18
8417.87194 3.64986e-18
8419.14507 4.17692e-18
8420.41819 4.54421e-18
8421.68113 4.07937e-18
8422.95426 3.99157e-18
8424.21720 5.14471e-18
8425.49033 6.00643e-18
8426.75326 5.14736e-18
8428.02639 4.90346e-18
8429.28933 5.37343e-18
8430.56245 4.63274e-18
8431.82539 4.35965e-18
8433.09852 4.32140e-18
8434.37164 3.52419e-18
8435.63458 3.36622e-18
8436.90771 3.64188e-18
8438.17065 3.16918e-18
8439.44377 3.40533e-18
8440.70671 4.65820e-18
8441.97984 5.02525e-18
8443.24278 4.31470e-18
8444.51590 3.64370e-18
8445.77885 3.79825e-18
8447.05197 4.71669e-18
8448.31491 5.62211e-18
8449.58804 4.85013e-18
8450.86116 3.26449e-18
8452.12410 2.63150e-18
8453.39723 2.73521e-18
8454.66016 2.52249e-18
8455.93329 2.25347e-18
8457.19623 2.75990e-18
8458.46935 3.19227e-18
8459.73229 4.16453e-18
8461.00542 4.68018e-18
8462.26836 3.04427e-18
8463.54148 2.28132e-18
8464.80442 3.95274e-18
8466.07755 5.09434e-18
8467.35067 5.48382e-18
8468.61362 5.28294e-18
8469.88674 3.78549e-18
8471.14968 2.37483e-18
8472.42281 2.29471e-18
8473.68575 2.97693e-18
8474.95887 3.03898e-18
8476.22181 2.62785e-18
8477.49494 3.18698e-18
8478.75787 4.30954e-18
8480.03100 4.43263e-18
8481.30413 3.51049e-18
8482.56706 3.20978e-18
8483.84019 3.62118e-18
8485.10313 3.10249e-18
8486.37625 2.64085e-18
8487.63919 3.17670e-18
8488.91232 3.28277e-18
8490.17526 3.17059e-18
8491.44838 3.27476e-18
8492.71133 3.21277e-18
8493.98445 3.57954e-18
8495.24739 4.77060e-18
8496.52052 4.67058e-18
8497.79364 3.56249e-18
8499.05658 3.67862e-18
8500.32971 4.18134e-18
8501.59265 4.07032e-18
8502.86577 2.90289e-18
8504.12871 2.08112e-18
8505.40183 3.30376e-18
8506.66477 4.12111e-18
8507.93790 3.93347e-18
8509.20084 3.71367e-18
8510.47396 3.17095e-18
8511.73690 3.02309e-18
8513.01003 2.99532e-18
8514.27297 3.20432e-18
8515.54609 3.70620e-18
8516.81922 3.82139e-18
8518.08216 3.66700e-18
8519.35528 3.86521e-18
8520.61823 3.96286e-18
8521.89135 3.39108e-18
8523.15429 3.30013e-18
8524.42742 3.84041e-18
8525.69035 3.41100e-18
8526.96348 2.59672e-18
8528.23661 2.26425e-18
8529.49954 2.15419e-18
8530.77267 2.10403e-18
8532.03561 2.42146e-18
8533.30873 3.00903e-18
8534.57167 3.20736e-18
8535.84480 3.36667e-18
8537.10774 3.80632e-18
8538.38087 3.66281e-18
8539.64380 2.99123e-18
8540.91693 2.63887e-18
8542.17987 3.27010e-18
8543.45299 4.25603e-18
8544.71594 4.21183e-18
8545.98906 3.52679e-18
8547.26218 3.27321e-18
8548.52513 3.68920e-18
8549.79825 4.32735e-18
8551.06119 4.84194e-18
8552.33432 4.66685e-18
8553.59725 4.04783e-18
8554.87038 3.84593e-18
8556.13332 3.98738e-18
8557.40644 4.14430e-18
8558.66938 4.11808e-18
8559.94251 4.14802e-18
8561.21563 4.11055e-18
8562.47858 3.82316e-18
8563.75170 3.42906e-18
8565.01464 3.23485e-18
8566.28777 3.53727e-18
8567.55070 4.20384e-18
8568.82383 4.68820e-18
8570.08677 4.28828e-18
8571.35989 3.74056e-18
8572.62284 4.32329e-18
8573.89596 4.67705e-18
8575.15890 4.05228e-18
8576.43203 3.76937e-18
8577.69496 3.78970e-18
8578.96809 3.53591e-18
8580.24121 2.77458e-18
8581.50415 2.74261e-18
8582.77728 3.54309e-18
8584.04022 3.77986e-18
8585.31335 3.47346e-18
8586.57629 3.67475e-18
8587.84941 4.07542e-18
8589.11235 3.76997e-18
8590.38547 3.25005e-18
8591.64841 3.23861e-18
8592.92154 3.27505e-18
8594.19466 3.40269e-18
8595.45760 4.10881e-18
8596.73073 4.65505e-18
8597.99367 5.21443e-18
8599.26679 5.67310e-18
8600.52973 4.90684e-18
8601.80286 4.66278e-18
8603.06580 5.21545e-18
8604.33892 4.90242e-18
8605.60187 4.67994e-18
8606.87499 5.44172e-18
8608.13793 5.51505e-18
8609.41106 5.09672e-18
8610.68418 5.42867e-18
8611.94712 5.52108e-18
8613.22025 4.58724e-18
8614.48318 3.47063e-18
8615.75631 3.54381e-18
8617.01925 4.65138e-18
8618.29237 4.30888e-18
8619.55531 3.53760e-18
8620.82844 4.53044e-18
8622.09138 3.96393e-18
8623.36450 2.51756e-18
8624.62744 3.79171e-18
8625.90057 5.12224e-18
8627.17369 4.34992e-18
8628.43663 2.83242e-18
8629.70976 1.70710e-18
8630.97270 3.53363e-18
8632.24582 5.21542e-18
8633.50877 3.57308e-18
8634.78189 3.10012e-18
8636.04483 5.04409e-18
8637.31796 5.59647e-18
8638.58089 4.97920e-18
8639.85402 4.48398e-18
8641.12715 4.31390e-18
8642.39008 4.21378e-18
8643.66321 4.42686e-18
8644.92615 4.65133e-18
8646.19927 4.22578e-18
8647.46221 4.26498e-18
8648.73534 5.30871e-18
8649.99828 5.90316e-18
8651.27140 6.18309e-18
8652.53435 6.27810e-18
8653.80747 5.81583e-18
8655.07041 5.71558e-18
8656.34353 5.65997e-18
8657.61666 5.84407e-18
8658.87960 5.76630e-18
8660.15272 5.00340e-18
8661.41567 5.78425e-18
8662.68879 6.15147e-18
8663.95173 6.61432e-18
8665.22486 8.14275e-18
8666.48779 8.45006e-18
8667.76092 7.04967e-18
8669.02386 5.46218e-18
8670.29698 4.70374e-18
8671.55992 5.30070e-18
8672.83305 6.13259e-18
8674.09599 5.60595e-18
8675.36912 4.94951e-18
8676.64224 5.08290e-18
8677.90518 5.75595e-18
8679.17830 6.64700e-18
8680.44124 6.27752e-18
8681.71437 5.17815e-18
8682.97731 4.77027e-18
8684.25043 5.36502e-18
8685.51338 5.86389e-18
8686.78650 6.55378e-18
8688.05962 7.03874e-18
8689.32256 6.18992e-18
8690.59569 5.78810e-18
8691.85863 6.15417e-18
8693.13175 6.46506e-18
8694.39469 5.79523e-18
8695.66782 4.28129e-18
8696.93076 4.29383e-18
8698.20388 5.75867e-18
8699.46682 6.21635e-18
8700.73995 6.16599e-18
8702.00289 6.38796e-18
8703.27601 6.29026e-18
8704.53895 5.68505e-18
8705.81208 6.21014e-18
8707.07502 7.02509e-18
8708.34814 6.27075e-18
8709.62127 6.01133e-18
8710.88421 6.75841e-18
8712.15733 6.96922e-18
8713.42027 6.60876e-18
8714.69340 6.73458e-18
8715.95634 6.95279e-18
8717.22946 7.11571e-18
8718.49240 7.70968e-18
8719.76553 8.02691e-18
8721.02847 7.73419e-18
8722.30160 7.11836e-18
8723.57472 7.14547e-18
8724.83766 7.78064e-18
8726.11079 8.13700e-18
8727.37372 8.66372e-18
8728.64685 9.22559e-18
8729.90979 8.63990e-18
8731.18291 7.45747e-18
8732.44585 7.15325e-18
8733.71898 8.01472e-18
8734.98192 9.01995e-18
8736.25504 9.02507e-18
8737.51798 8.09832e-18
8738.79111 7.55826e-18
8740.06423 8.00359e-18
8741.32717 8.32323e-18
8742.60030 8.10230e-18
8743.86324 8.40374e-18
8745.13637 8.97812e-18
8746.39931 9.52519e-18
8747.67243 1.04276e-17
8748.93537 1.00355e-17
8750.20850 8.70613e-18
8751.47143 8.87290e-18
8752.74456 9.39533e-18
8754.00750 8.67889e-18
8755.28062 7.93711e-18
8756.55375 7.58632e-18
8757.81669 7.63915e-18
8759.08981 8.44994e-18
8760.35275 9.17857e-18
8761.62588 8.26813e-18
8762.88882 8.72016e-18
8764.16194 1.19378e-17
8765.42488 1.37073e-17
8766.69801 1.34214e-17
8767.96095 1.31194e-17
8769.23408 1.29443e-17
8770.50720 1.13182e-17
8771.77014 1.06332e-17
8773.04327 1.37190e-17
8774.30621 1.58529e-17
8775.57933 1.42566e-17
8776.84227 1.36577e-17
8778.11539 1.44261e-17
8779.37833 1.30664e-17
8780.65146 1.04940e-17
8781.91440 9.05231e-18
8783.18752 9.13876e-18
8784.45046 1.01236e-17
8785.72359 1.05151e-17
8786.99671 1.07141e-17
8788.25965 1.11470e-17
8789.53278 1.15652e-17
8790.79572 1.16929e-17
8792.06884 1.12102e-17
8793.33179 9.63559e-18
8794.60491 8.66669e-18
8795.86785 9.94702e-18
8797.14098 1.03355e-17
8798.40391 9.21895e-18
8799.67704 9.09610e-18
8800.93998 1.02359e-17
8802.21310 1.06240e-17
8803.48623 9.57834e-18
8804.74917 9.82120e-18
8806.02229 1.06639e-17
8807.28523 9.33555e-18
8808.55836 7.88706e-18
8809.82130 8.10862e-18
8811.09442 8.77823e-18
8812.35736 9.50623e-18
8813.63049 9.45922e-18
8814.89343 9.27829e-18
8816.16655 9.37144e-18
8817.43968 9.50282e-18
8818.70262 9.83327e-18
8819.96556 1.03525e-17
8821.23869 1.17955e-17
8822.51181 1.42648e-17
8823.77475 1.49274e-17
8825.04788 1.33265e-17
8826.31081 1.35685e-17
8827.58394 1.52566e-17
8828.84688 1.57162e-17
8830.12000 1.49899e-17
8831.38294 1.24314e-17
8832.65607 1.08522e-17
8833.91901 1.16450e-17
8835.19213 1.22360e-17
8836.46526 1.16281e-17
8837.72820 1.15615e-17
8839.00133 1.18959e-17
8840.26426 1.14502e-17
8841.53739 1.05908e-17
8842.80033 9.42427e-18
8844.07345 9.36582e-18
8845.33640 1.09949e-17
8846.60952 1.14261e-17
8847.87246 1.02184e-17
8849.14559 9.66359e-18
8850.41871 9.88957e-18
8851.68165 1.02613e-17
8852.95478 1.05564e-17
8854.21771 1.02581e-17
8855.49084 9.48431e-18
8856.75378 9.22142e-18
8858.02690 9.58011e-18
8859.28985 9.70587e-18
8860.56297 9.28619e-18
8861.82591 8.19463e-18
8863.09904 7.20785e-18
8864.36197 7.73843e-18
8865.63510 8.26617e-18
8866.89804 7.91613e-18
8868.17116 8.52969e-18
8869.44429 8.48716e-18
8870.70723 7.11900e-18
8871.98035 7.41127e-18
8873.24330 9.26060e-18
8874.51642 1.00342e-17
8875.77936 9.39868e-18
8877.05248 9.06406e-18
8878.31542 9.41100e-18
8879.58855 9.78126e-18
8880.85149 1.10498e-17
8882.12462 1.24328e-17
8883.39774 1.22436e-17
8884.66068 1.18076e-17
8885.93381 1.21827e-17
8887.19674 1.34205e-17
8888.46987 1.27489e-17
8889.73281 9.92907e-18
8891.00593 8.41019e-18
8892.26887 7.65078e-18
8893.54200 7.05214e-18
8894.80494 7.87158e-18
8896.07806 9.16764e-18
8897.34100 8.08259e-18
8898.61413 5.74144e-18
8899.88725 5.95500e-18
8901.15019 9.03354e-18
8902.42332 1.13750e-17
8903.68626 1.03594e-17
8904.95938 9.30711e-18
8906.22233 1.01295e-17
8907.49545 1.05108e-17
8908.75839 9.80040e-18
8910.03152 8.96908e-18
8911.29445 8.55471e-18
8912.56758 7.26061e-18
8913.83052 6.78463e-18
8915.10364 8.20537e-18
8916.37677 9.12915e-18
8917.63971 9.09825e-18
8918.91283 9.34465e-18
8920.17577 1.00252e-17
8921.44890 9.95580e-18
8922.71184 1.16707e-17
8923.98496 1.32667e-17
8925.24790 1.02140e-17
8926.52103 7.43143e-18
8927.78397 7.60205e-18
8929.05710 8.00669e-18
8930.33022 8.20910e-18
8931.59316 8.90487e-18
8932.86629 8.73943e-18
8934.12923 8.10628e-18
8935.40235 8.41246e-18
8936.66529 8.65728e-18
8937.93842 7.97490e-18
8939.20135 7.53564e-18
8940.47448 7.66613e-18
8941.73742 8.30857e-18
8943.01054 9.44626e-18
8944.27348 9.05028e-18
8945.54661 7.82387e-18
8946.80955 8.56830e-18
8948.08267 8.95429e-18
8949.35580 8.03645e-18
8950.61874 1.00357e-17
8951.89187 1.27685e-17
8953.15481 1.22630e-17
8954.42793 1.10098e-17
8955.69087 1.11514e-17
8956.96400 1.19769e-17
8958.22694 1.16826e-17
8959.50006 1.11622e-17
8960.76300 1.15033e-17
8962.03613 9.13642e-18
8963.30925 7.22978e-18
8964.57219 8.17137e-18
8965.84531 9.07076e-18
8967.10825 8.84275e-18
8968.38138 8.88244e-18
8969.64432 1.06252e-17
8970.91744 1.06732e-17
8972.18038 9.32133e-18
8973.45351 9.15512e-18
8974.71645 9.27033e-18
8975.98957 9.60450e-18
8977.26270 1.04132e-17
8978.52564 1.03945e-17
8979.78858 9.30319e-18
8981.06171 9.33883e-18
8982.33483 9.52715e-18
8983.59777 8.82354e-18
8984.87090 9.31450e-18
8986.13383 1.06039e-17
8987.40696 1.12889e-17
8988.66990 9.72381e-18
8989.94302 8.99745e-18
8991.20596 9.91156e-18
8992.47909 9.67225e-18
8993.74203 9.32050e-18
8995.01515 7.92334e-18
8996.28828 7.73540e-18
8997.55122 9.38123e-18
8998.82435 1.04748e-17
9000.08728 9.35867e-18
