# wavelength flux
3354.88618 9.24303e-18
3358.96052 1.06181e-17
3363.02478 1.11947e-17
3367.09912 1.12354e-17
3371.16337 1.18070e-17
3375.23771 1.21857e-17
3379.30197 1.26079e-17
3383.37631 1.29569e-17
3387.45065 1.33731e-17
3391.51490 1.38407e-17
3395.58924 1.40789e-17
3399.65350 1.42524e-17
3403.72784 1.46964e-17
3407.79209 1.48559e-17
3411.86643 1.51336e-17
3415.93069 1.56577e-17
3420.00503 1.56152e-17
3424.06929 1.59503e-17
3428.14362 1.62832e-17
3432.20788 1.66632e-17
3436.28222 1.66504e-17
3440.35656 1.66821e-17
3444.42081 1.70164e-17
3448.49515 1.69266e-17
3452.55941 1.74106e-17
3456.63375 1.74703e-17
3460.69801 1.77956e-17
3464.77234 1.79183e-17
3468.83660 1.82737e-17
3472.91094 1.81185e-17
3476.97519 1.83718e-17
3481.04953 1.87214e-17
3485.11379 1.85391e-17
3489.18813 1.84372e-17
3493.26247 1.86847e-17
3497.32672 1.87854e-17
3501.40106 1.90445e-17
3505.46532 1.89839e-17
3509.53966 1.88545e-17
3513.60391 1.90348e-17
3517.67825 1.91471e-17
3521.74251 1.94234e-17
3525.81685 1.94563e-17
3529.88110 1.93423e-17
3533.95545 1.93625e-17
3538.01970 1.92144e-17
3542.09404 1.94405e-17
3546.16838 1.90210e-17
3550.23263 1.93574e-17
3554.30697 1.93958e-17
3558.37123 1.92333e-17
3562.44557 1.90104e-17
3566.50982 1.91872e-17
3570.58416 1.94091e-17
3574.64842 1.93569e-17
3578.72276 1.91782e-17
3582.78701 1.92144e-17
3586.86136 1.90790e-17
3590.92561 1.89853e-17
3594.99995 1.91332e-17
3599.07429 1.90405e-17
3603.13854 1.91623e-17
3607.21288 1.97897e-17
3611.27714 1.96002e-17
3615.35148 1.95385e-17
3619.41573 1.94465e-17
3623.49007 1.96182e-17
3627.55433 1.96289e-17
3631.62867 1.95773e-17
3635.69292 1.97675e-17
3639.76726 1.98751e-17
3643.83152 1.98114e-17
3647.90586 2.00743e-17
3651.98020 2.00762e-17
3656.04445 2.00554e-17
3660.11879 1.99878e-17
3664.18305 1.99369e-17
3668.25739 1.99846e-17
3672.32164 1.98861e-17
3676.39598 1.99793e-17
3680.46024 2.00686e-17
3684.53458 2.00948e-17
3688.59884 2.04079e-17
3692.67317 2.06758e-17
3696.73743 2.06059e-17
3700.81177 2.05697e-17
3704.88611 2.08023e-17
3708.95036 2.10907e-17
3713.02470 2.11728e-17
3717.08896 2.10316e-17
3721.16330 2.12436e-17
3725.22755 2.12231e-17
3729.30189 2.12127e-17
3733.36615 2.12273e-17
3737.44049 2.12650e-17
3741.50474 2.12832e-17
3745.57908 2.12882e-17
3749.64334 2.12932e-17
3753.71768 2.12982e-17
3757.79202 2.13032e-17
3761.85628 2.13083e-17
3765.93061 2.13134e-17
3769.99487 2.13185e-17
3774.06921 2.13237e-17
3778.13346 2.13289e-17
3782.20780 2.13341e-17
3786.27206 2.15792e-17
3790.34640 2.17822e-17
3794.41065 2.17188e-17
3798.48499 2.20112e-17
3802.54925 2.20963e-17
3806.62359 2.20916e-17
3810.69793 2.22305e-17
3814.76219 2.22453e-17
3818.83652 2.23197e-17
3822.90078 2.22824e-17
3826.97512 2.26050e-17
3831.03937 2.26979e-17
3835.11371 2.25662e-17
3839.17797 2.27042e-17
3843.25231 2.29156e-17
3847.31656 2.31154e-17
3851.39090 2.36097e-17
3855.45516 2.34674e-17
3859.52950 2.36427e-17
3863.60384 2.38344e-17
3867.66809 2.40614e-17
3871.74244 2.40097e-17
3875.80669 2.42907e-17
3879.88103 2.44174e-17
3883.94528 2.45987e-17
3888.01962 2.47401e-17
3892.08388 2.47877e-17
3896.15822 2.49667e-17
3900.22247 2.51415e-17
3904.29681 2.54210e-17
3908.37115 2.51132e-17
3912.43541 2.54989e-17
3916.50975 2.54756e-17
3920.57400 2.57541e-17
3924.64835 2.61578e-17
3928.71260 2.59952e-17
3932.78694 2.62809e-17
3936.85119 2.60342e-17
3940.92553 2.59804e-17
3944.98979 2.63695e-17
3949.06413 2.66026e-17
3953.12838 2.66294e-17
3957.20272 2.64127e-17
3961.26698 2.65505e-17
3965.34132 2.66239e-17
3969.41566 2.64454e-17
3973.47991 2.62841e-17
3977.55426 2.66232e-17
3981.61851 2.69081e-17
3985.69285 2.71459e-17
3989.75711 2.70165e-17
3993.83144 2.70779e-17
3997.89570 2.69553e-17
4001.97004 2.72233e-17
4006.03429 2.71854e-17
4010.10863 2.72095e-17
4014.17289 2.74686e-17
4018.24723 2.75007e-17
4022.32157 2.73323e-17
4026.38582 2.76406e-17
4030.46016 2.79014e-17
4034.52442 2.78529e-17
4038.59876 2.77247e-17
4042.66302 2.77004e-17
4046.73735 2.78197e-17
4050.80161 2.76976e-17
4054.87595 2.78052e-17
4058.94020 2.78885e-17
4063.01454 2.80483e-17
4067.07880 2.79945e-17
4071.15314 2.78949e-17
4075.22748 2.78302e-17
4079.29173 2.78456e-17
4083.36607 2.79474e-17
4087.43033 2.79250e-17
4091.50467 2.79898e-17
4095.56893 2.79708e-17
4099.64326 2.81979e-17
4103.70752 2.81196e-17
4107.78186 2.79886e-17
4111.84612 2.80361e-17
4115.92045 2.81011e-17
4119.99479 2.79450e-17
4124.05905 2.79248e-17
4128.13339 2.80143e-17
4132.19764 2.80491e-17
4136.27198 2.80370e-17
4140.33624 2.82361e-17
4144.41058 2.81523e-17
4148.47483 2.79805e-17
4152.54918 2.81379e-17
4156.61343 2.82413e-17
4160.68777 2.82953e-17
4164.75202 2.83189e-17
4168.82636 2.83196e-17
4172.90070 2.83263e-17
4176.96496 2.83789e-17
4181.03930 2.84903e-17
4185.10355 2.88098e-17
4189.17789 2.90548e-17
4193.24215 2.88751e-17
4197.31649 2.87050e-17
4201.38075 2.88957e-17
4205.45508 2.89272e-17
4209.51934 2.86552e-17
4213.59368 2.85355e-17
4217.65793 2.86573e-17
4221.73227 2.85570e-17
4225.80661 2.85515e-17
4229.87087 2.84366e-17
4233.94521 2.85054e-17
4238.00947 2.86048e-17
4242.08380 2.84185e-17
4246.14806 2.83628e-17
4250.22240 2.82071e-17
4254.28665 2.79622e-17
4258.36100 2.79308e-17
4262.42525 2.80131e-17
4266.49959 2.78135e-17
4270.56384 2.78418e-17
4274.63818 2.77556e-17
4278.71252 2.80589e-17
4282.77678 2.78557e-17
4286.85112 2.77414e-17
4290.91537 2.78144e-17
4294.98971 2.78175e-17
4299.05397 2.78115e-17
4303.12831 2.77183e-17
4307.19257 2.76627e-17
4311.26691 2.78078e-17
4315.33116 2.77631e-17
4319.40550 2.78526e-17
4323.46975 2.75141e-17
4327.54409 2.75206e-17
4331.60835 2.75664e-17
4335.68269 2.74617e-17
4339.75703 2.74502e-17
4343.82128 2.74625e-17
4347.89563 2.72484e-17
4351.95988 2.73430e-17
4356.03422 2.74090e-17
4360.09847 2.73897e-17
4364.17281 2.74598e-17
4368.23707 2.73089e-17
4372.31141 2.73600e-17
4376.37566 2.73593e-17
4380.45000 2.71513e-17
4384.52434 2.71468e-17
4388.58860 2.71423e-17
4392.66294 2.71379e-17
4396.72719 2.71334e-17
4400.80153 2.71289e-17
4404.86579 2.71243e-17
4408.94013 2.71198e-17
4413.00439 2.71153e-17
4417.07873 2.71107e-17
4421.14298 2.71062e-17
4425.21732 2.69580e-17
4429.28157 2.72415e-17
4433.35591 2.68789e-17
4437.43025 2.71635e-17
4441.49451 2.73766e-17
4445.56885 2.71331e-17
4449.63310 2.70934e-17
4453.70745 2.72898e-17
4457.77170 2.71742e-17
4461.84604 2.70882e-17
4465.91030 2.71863e-17
4469.98463 2.73180e-17
4474.04889 2.73572e-17
4478.12323 2.73017e-17
4482.18748 2.74468e-17
4486.26182 2.75520e-17
4490.33616 2.75032e-17
4494.40042 2.75186e-17
4498.47476 2.75482e-17
4502.53902 2.73737e-17
4506.61335 2.73288e-17
4510.67761 2.74185e-17
4514.75195 2.74598e-17
4518.81620 2.75555e-17
4522.89055 2.73984e-17
4526.95480 2.71066e-17
4531.02914 2.71064e-17
4535.10348 2.69069e-17
4539.16773 2.67401e-17
4543.24207 2.67890e-17
4547.30633 2.68370e-17
4551.38067 2.67133e-17
4555.44492 2.68304e-17
4559.51926 2.68102e-17
4563.58352 2.68030e-17
4567.65786 2.65528e-17
4571.72211 2.68733e-17
4575.79645 2.67785e-17
4579.86071 2.65182e-17
4583.93505 2.66673e-17
4587.99930 2.67070e-17
4592.07364 2.67392e-17
4596.14798 2.66665e-17
4600.21224 2.67371e-17
4604.28658 2.67155e-17
4608.35084 2.67844e-17
4612.42518 2.67701e-17
4616.48943 2.66496e-17
4620.56377 2.67340e-17
4624.62802 2.68118e-17
4628.70236 2.67288e-17
4632.76662 2.67497e-17
4636.84096 2.69454e-17
4640.90521 2.69014e-17
4644.97955 2.67878e-17
4649.05390 2.70283e-17
4653.11815 2.69706e-17
4657.19249 2.69064e-17
4661.25674 2.71163e-17
4665.33108 2.70340e-17
4669.39534 2.68984e-17
4673.46968 2.70200e-17
4677.53393 2.69690e-17
4681.60827 2.71010e-17
4685.67253 2.69810e-17
4689.74687 2.70745e-17
4693.81113 2.71606e-17
4697.88546 2.71683e-17
4701.95980 2.71614e-17
4706.02406 2.68594e-17
4710.09840 2.70450e-17
4714.16266 2.71105e-17
4718.23700 2.71049e-17
4722.30125 2.70986e-17
4726.37559 2.70043e-17
4730.43984 2.70295e-17
4734.51418 2.70269e-17
4738.57844 2.71186e-17
4742.65278 2.72892e-17
4746.71703 2.73043e-17
4750.79137 2.72147e-17
4754.86571 2.73457e-17
4758.92997 2.73359e-17
4763.00431 2.73116e-17
4767.06857 2.76682e-17
4771.14290 2.75823e-17
4775.20716 2.74597e-17
4779.28150 2.75593e-17
4783.34575 2.75911e-17
4787.42009 2.75796e-17
4791.48435 2.75143e-17
4795.55869 2.76079e-17
4799.62295 2.76401e-17
4803.69729 2.76544e-17
4807.77162 2.76900e-17
4811.83588 2.77661e-17
4815.91022 2.77446e-17
4819.97447 2.77145e-17
4824.04882 2.79461e-17
4828.11307 2.78810e-17
4832.18741 2.78354e-17
4836.25166 2.81637e-17
4840.32600 2.83151e-17
4844.39026 2.82189e-17
4848.46460 2.83560e-17
4852.52885 2.84689e-17
4856.60319 2.86829e-17
4860.67753 2.86576e-17
4864.74179 2.86682e-17
4868.81613 2.89785e-17
4872.88039 2.89462e-17
4876.95473 2.88749e-17
4881.01898 2.88739e-17
4885.09332 2.89481e-17
4889.15757 2.90223e-17
4893.23191 2.90964e-17
4897.29617 2.91705e-17
4901.37051 2.92446e-17
4905.43476 2.93187e-17
4909.50911 2.93927e-17
4913.58345 2.94667e-17
4917.64770 2.95407e-17
4921.72204 2.96146e-17
4925.78629 2.98361e-17
4929.86064 2.97143e-17
4933.92489 2.96337e-17
4937.99923 2.98019e-17
4942.06348 2.99453e-17
4946.13782 2.99134e-17
4950.20208 3.00204e-17
4954.27642 3.01927e-17
4958.35076 3.01634e-17
4962.41501 3.00564e-17
4966.48935 3.04318e-17
4970.55361 3.04724e-17
4974.62795 3.03133e-17
4978.69220 3.03633e-17
4982.76655 3.04363e-17
4986.83080 3.04486e-17
4990.90514 3.04608e-17
4994.96940 3.04731e-17
4999.04373 3.04854e-17
5003.10799 3.04977e-17
5007.18233 3.05099e-17
5011.25667 3.05222e-17
5015.32092 3.05345e-17
5019.39527 3.05468e-17
5023.45952 3.04600e-17
5027.53386 3.04766e-17
5031.59811 3.04704e-17
5035.67245 3.04641e-17
5039.73671 3.04579e-17
5043.81105 3.04517e-17
5047.87530 3.04455e-17
5051.94964 3.04393e-17
5056.01390 3.04331e-17
5060.08824 3.04269e-17
5064.16258 3.04207e-17
5068.22684 3.04145e-17
5072.30117 3.04387e-17
5076.36543 3.03570e-17
5080.43977 3.02210e-17
5084.50402 3.00524e-17
5088.57836 3.00733e-17
5092.64262 3.00116e-17
5096.71696 2.99670e-17
5100.78121 2.97076e-17
5104.85556 2.96080e-17
5108.91981 2.94453e-17
5112.99415 2.93716e-17
5117.06849 2.91460e-17
5121.13274 2.90126e-17
5125.20709 2.92157e-17
5129.27134 2.89767e-17
5133.34568 2.89309e-17
5137.40993 2.90146e-17
5141.48427 2.87902e-17
5145.54853 2.87123e-17
5149.62287 2.86894e-17
5153.68712 2.85138e-17
5157.76146 2.86447e-17
5161.82572 2.84410e-17
5165.90006 2.84106e-17
5169.97440 2.84293e-17
5174.03866 2.82352e-17
5178.11300 2.81611e-17
5182.17725 2.81783e-17
5186.25159 2.79540e-17
5190.31584 2.79164e-17
5194.39018 2.77785e-17
5198.45444 2.77651e-17
5202.52878 2.77621e-17
5206.59303 2.76013e-17
5210.66737 2.74398e-17
5214.73163 2.74690e-17
5218.80597 2.74116e-17
5222.88031 2.73430e-17
5226.94456 2.69243e-17
5231.01890 2.69919e-17
5235.08316 2.69718e-17
5239.15750 2.67077e-17
5243.22175 2.67057e-17
5247.29609 2.66696e-17
5251.36035 2.65329e-17
5255.43469 2.64116e-17
5259.49895 2.63916e-17
5263.57328 2.62603e-17
5267.63754 2.59945e-17
5271.71188 2.60046e-17
5275.77614 2.59522e-17
5279.85048 2.57847e-17
5283.92482 2.56580e-17
5287.98907 2.56393e-17
5292.06341 2.54413e-17
5296.12766 2.54211e-17
5300.20200 2.52372e-17
5304.26626 2.51683e-17
5308.34060 2.52344e-17
5312.40485 2.52896e-17
5316.47919 2.50744e-17
5320.54345 2.52087e-17
5324.61779 2.51053e-17
5328.68205 2.50787e-17
5332.75639 2.50868e-17
5336.83072 2.49840e-17
5340.89498 2.47657e-17
5344.96932 2.47332e-17
5349.03357 2.48119e-17
5353.10791 2.48104e-17
5357.17217 2.47116e-17
5361.24651 2.45806e-17
5365.31077 2.44086e-17
5369.38511 2.42502e-17
5373.44936 2.43681e-17
5377.52370 2.43834e-17
5381.59804 2.42738e-17
5385.66230 2.40494e-17
5389.73664 2.40845e-17
5393.80089 2.39082e-17
5397.87523 2.38772e-17
5401.93948 2.38422e-17
5406.01382 2.37925e-17
5410.07808 2.36735e-17
5414.15242 2.36579e-17
5418.21667 2.36026e-17
5422.29101 2.34980e-17
5426.35527 2.35322e-17
5430.42961 2.35799e-17
5434.50395 2.33824e-17
5438.56820 2.32362e-17
5442.64255 2.32386e-17
5446.70680 2.32726e-17
5450.78114 2.32107e-17
5454.84539 2.29719e-17
5458.91973 2.28380e-17
5462.98399 2.26890e-17
5467.05833 2.25797e-17
5471.12259 2.28868e-17
5475.19693 2.29126e-17
5479.26118 2.29655e-17
5483.33552 2.29367e-17
5487.40986 2.27915e-17
5491.47411 2.27634e-17
5495.54845 2.26438e-17
5499.61271 2.25385e-17
5503.68705 2.26532e-17
5507.75130 2.26093e-17
5511.82564 2.22519e-17
5515.88990 2.21901e-17
5519.96424 2.22326e-17
5524.02849 2.19970e-17
5528.10283 2.18456e-17
5532.16709 2.17383e-17
5536.24143 2.15792e-17
5540.31577 2.15248e-17
5544.38002 2.14134e-17
5548.45436 2.13372e-17
5552.51862 2.12260e-17
5556.59296 2.11090e-17
5560.65721 2.09636e-17
5564.73155 2.06084e-17
5568.79581 2.06428e-17
5572.87015 2.08225e-17
5576.93440 2.07833e-17
5581.00875 2.06733e-17
5585.07300 2.03120e-17
5589.14734 2.03107e-17
5593.22168 2.03323e-17
5597.28593 2.02200e-17
5601.36027 2.01511e-17
5605.42453 2.00169e-17
5609.49887 2.00727e-17
5613.56312 2.01329e-17
5617.63746 1.98350e-17
5621.70172 1.97533e-17
5625.77606 1.97681e-17
5629.84032 1.96054e-17
5633.91465 1.96417e-17
5637.97891 1.96062e-17
5642.05325 1.95526e-17
5646.12759 1.95324e-17
5650.19184 1.93836e-17
5654.26618 1.94020e-17
5658.33044 1.92119e-17
5662.40478 1.91132e-17
5666.46904 1.91175e-17
5670.54337 1.91788e-17
5674.60763 1.91324e-17
5678.68197 1.91078e-17
5682.74622 1.91608e-17
5686.82056 1.91743e-17
5690.88482 1.91560e-17
5694.95916 1.90545e-17
5699.03350 1.90983e-17
5703.09775 1.91219e-17
5707.17209 1.91270e-17
5711.23635 1.91247e-17
5715.31069 1.91451e-17
5719.37494 1.90937e-17
5723.44928 1.91728e-17
5727.51354 1.90845e-17
5731.58788 1.90401e-17
5735.65214 1.89649e-17
5739.72648 1.90300e-17
5743.79073 1.89875e-17
5747.86507 1.88917e-17
5751.93941 1.88683e-17
5756.00366 1.87445e-17
5760.07800 1.86654e-17
5764.14226 1.86762e-17
5768.21660 1.86517e-17
5772.28085 1.85824e-17
5776.35520 1.85823e-17
5780.41945 1.86363e-17
5784.49379 1.83819e-17
5788.55804 1.86293e-17
5792.63238 1.85785e-17
5796.70673 1.85454e-17
5800.77098 1.86301e-17
5804.84532 1.86693e-17
5808.90957 1.85718e-17
5812.98391 1.84000e-17
5817.04817 1.84439e-17
5821.12251 1.84350e-17
5825.18676 1.83076e-17
5829.26110 1.84977e-17
5833.32536 1.86513e-17
5837.39970 1.86054e-17
5841.46395 1.86087e-17
5845.53830 1.85691e-17
5849.61264 1.85254e-17
5853.67689 1.85475e-17
5857.75123 1.84996e-17
5861.81548 1.85227e-17
5865.88982 1.85136e-17
5869.95408 1.84927e-17
5874.02842 1.85934e-17
5878.09267 1.86099e-17
5882.16701 1.84340e-17
5886.23127 1.83378e-17
5890.30561 1.83326e-17
5894.36986 1.83361e-17
5898.44420 1.84620e-17
5902.50846 1.85853e-17
5906.58280 1.87349e-17
5910.65714 1.87553e-17
5914.72139 1.87318e-17
5918.79573 1.87272e-17
5922.85999 1.89001e-17
5926.93433 1.89991e-17
5930.99859 1.91014e-17
5935.07292 1.89668e-17
5939.13718 1.89911e-17
5943.21152 1.91275e-17
5947.27577 1.89946e-17
5951.35011 1.89656e-17
5955.42445 1.90643e-17
5959.48871 1.89810e-17
5963.56305 1.89966e-17
5967.62730 1.89188e-17
5971.70164 1.88784e-17
5975.76590 1.88042e-17
5979.84024 1.88710e-17
5983.90449 1.91863e-17
5987.97883 1.91147e-17
5992.04309 1.89270e-17
5996.11743 1.91374e-17
6000.18168 1.91504e-17
6004.25602 1.89830e-17
6008.33036 1.89764e-17
6012.39462 1.89329e-17
6016.46896 1.89258e-17
6020.53321 1.90465e-17
6024.60755 1.91686e-17
6028.67181 1.90194e-17
6032.74615 1.87803e-17
6036.81041 1.89503e-17
6040.88475 1.90626e-17
6044.94900 1.88818e-17
6049.02334 1.86723e-17
6053.08759 1.89540e-17
6057.16193 1.90679e-17
6061.23627 1.88550e-17
6065.30053 1.88676e-17
6069.37487 1.88688e-17
6073.43912 1.88446e-17
6077.51346 1.90179e-17
6081.57772 1.89527e-17
6085.65206 1.89357e-17
6089.71631 1.88872e-17
6093.79065 1.89502e-17
6097.85491 1.88479e-17
6101.92925 1.89322e-17
6105.99350 1.88582e-17
6110.06784 1.89819e-17
6114.13210 1.88702e-17
6118.20644 1.86885e-17
6122.28078 1.88138e-17
6126.34503 1.89001e-17
6130.41937 1.88019e-17
6134.48363 1.87301e-17
6138.55797 1.86423e-17
6142.62223 1.85356e-17
6146.69657 1.85201e-17
6150.76082 1.85844e-17
6154.83516 1.86112e-17
6158.89941 1.83888e-17
6162.97375 1.84837e-17
6167.03801 1.84337e-17
6171.11235 1.84614e-17
6175.18669 1.84279e-17
6179.25094 1.83772e-17
6183.32528 1.83575e-17
6187.38954 1.83072e-17
6191.46388 1.82995e-17
6195.52814 1.81439e-17
6199.60247 1.80586e-17
6203.66673 1.80510e-17
6207.74107 1.80382e-17
6211.80532 1.80063e-17
6215.87966 1.78758e-17
6219.95400 1.79219e-17
6224.01826 1.79446e-17
6228.09260 1.76943e-17
6232.15686 1.76364e-17
6236.23119 1.76498e-17
6240.29545 1.76145e-17
6244.36979 1.75648e-17
6248.43404 1.75310e-17
6252.50839 1.75681e-17
6256.57264 1.72404e-17
6260.64698 1.72875e-17
6264.71123 1.70656e-17
6268.78557 1.70108e-17
6272.85991 1.70099e-17
6276.92417 1.66080e-17
6280.99851 1.66183e-17
6285.06276 1.67251e-17
6289.13710 1.66801e-17
6293.20136 1.66425e-17
6297.27570 1.66274e-17
6301.33995 1.66097e-17
6305.41430 1.65498e-17
6309.47855 1.65229e-17
6313.55289 1.65984e-17
6317.61714 1.66827e-17
6321.69148 1.64933e-17
6325.76582 1.65186e-17
6329.83008 1.64011e-17
6333.90442 1.63601e-17
6337.96868 1.64105e-17
6342.04302 1.62373e-17
6346.10727 1.62291e-17
6350.18161 1.61618e-17
6354.24586 1.60125e-17
6358.32020 1.60936e-17
6362.38446 1.60606e-17
6366.45880 1.60429e-17
6370.52305 1.59670e-17
6374.59739 1.58329e-17
6378.67173 1.58728e-17
6382.73599 1.59963e-17
6386.81033 1.58775e-17
6390.87458 1.57887e-17
6394.94892 1.56776e-17
6399.01318 1.57525e-17
6403.08752 1.57831e-17
6407.15177 1.55730e-17
6411.22611 1.55016e-17
6415.29037 1.56020e-17
6419.36471 1.55829e-17
6423.42897 1.54383e-17
6427.50330 1.52878e-17
6431.57764 1.52579e-17
6435.64190 1.52421e-17
6439.71624 1.50587e-17
6443.78049 1.49796e-17
6447.85484 1.49653e-17
6451.91909 1.49120e-17
6455.99343 1.49619e-17
6460.05768 1.49001e-17
6464.13202 1.47137e-17
6468.19628 1.46040e-17
6472.27062 1.45194e-17
6476.33487 1.45461e-17
6480.40921 1.44656e-17
6484.48355 1.42477e-17
6488.54781 1.42807e-17
6492.62215 1.42150e-17
6496.68641 1.42433e-17
6500.76074 1.41505e-17
6504.82500 1.41113e-17
6508.89934 1.40831e-17
6512.96359 1.40402e-17
6517.03793 1.39605e-17
6521.10219 1.38374e-17
6525.17653 1.37717e-17
6529.24078 1.36652e-17
6533.31513 1.35638e-17
6537.38946 1.35320e-17
6541.45372 1.34684e-17
6545.52806 1.36434e-17
6549.59231 1.35408e-17
6553.66665 1.33281e-17
6557.73091 1.33024e-17
6561.80525 1.32965e-17
6565.86950 1.31911e-17
6569.94384 1.31380e-17
6574.00810 1.31393e-17
6578.08244 1.30436e-17
6582.14669 1.28808e-17
6586.22103 1.27561e-17
6590.29537 1.27120e-17
6594.35963 1.26678e-17
6598.43397 1.26236e-17
6602.49823 1.25795e-17
6606.57257 1.25353e-17
6610.63682 1.24912e-17
6614.71116 1.24471e-17
6618.77541 1.24030e-17
6622.84975 1.23589e-17
6626.91401 1.23147e-17
6630.98835 1.22707e-17
6635.05260 1.22266e-17
6639.12694 1.21825e-17
6643.20129 1.21384e-17
6647.26554 1.20944e-17
6651.33988 1.20503e-17
6655.40413 1.21473e-17
6659.47847 1.21248e-17
6663.54273 1.20343e-17
6667.61707 1.19065e-17
6671.68132 1.19033e-17
6675.75566 1.17777e-17
6679.81992 1.16886e-17
6683.89426 1.17570e-17
6687.95852 1.16586e-17
6692.03285 1.15625e-17
6696.10719 1.15362e-17
6700.17145 1.14493e-17
6704.24579 1.14344e-17
6708.31005 1.14168e-17
6712.38439 1.13208e-17
6716.44864 1.11492e-17
6720.52298 1.11916e-17
6724.58723 1.12666e-17
6728.66157 1.11712e-17
6732.72583 1.10503e-17
6736.80017 1.10431e-17
6740.86442 1.10683e-17
6744.93876 1.09995e-17
6749.01310 1.09440e-17
6753.07736 1.09820e-17
6757.15170 1.08809e-17
6761.21595 1.07679e-17
6765.29029 1.07943e-17
6769.35455 1.06588e-17
6773.42889 1.05553e-17
6777.49314 1.04071e-17
6781.56748 1.02653e-17
6785.63174 1.02595e-17
6789.70608 1.02621e-17
6793.78042 1.01335e-17
6797.84468 1.00140e-17
6801.91901 9.97600e-18
6805.98327 9.82044e-18
6810.05761 9.72958e-18
6814.12186 9.66310e-18
6818.19620 9.55116e-18
6822.26046 9.51588e-18
6826.33480 9.37491e-18
6830.39905 9.34902e-18
6834.47339 9.38391e-18
6838.53765 9.30408e-18
6842.61199 9.22371e-18
6846.68633 9.13907e-18
6850.75058 9.05444e-18
6854.82492 8.96985e-18
6858.88918 8.88525e-18
6862.96352 8.80067e-18
6867.02777 8.71611e-18
6871.10211 8.63157e-18
6875.16637 8.54704e-18
6879.24071 8.46252e-18
6883.30496 8.37802e-18
6887.37930 8.29354e-18
6891.44356 8.20907e-18
6895.51790 8.12461e-18
6899.59224 8.04018e-18
6903.65650 7.95575e-18
6907.73084 7.87134e-18
6911.79509 7.78694e-18
6915.86943 7.70257e-18
6919.93368 7.61820e-18
6924.00802 7.53385e-18
6928.07228 7.44952e-18
6932.14662 7.36520e-18
6936.21087 7.28089e-18
6940.28521 7.25793e-18
6944.34947 7.18519e-18
6948.42381 7.13165e-18
6952.49815 7.10120e-18
6956.56240 7.03188e-18
6960.63674 6.96134e-18
6964.70100 6.93394e-18
6968.77534 6.88497e-18
6972.83959 6.77447e-18
6976.91393 6.72154e-18
6980.97819 6.72540e-18
6985.05253 6.67568e-18
6989.11678 6.60282e-18
6993.19112 6.50746e-18
6997.25538 6.37109e-18
7001.32972 6.31491e-18
7005.39397 6.29729e-18
7009.46832 6.29693e-18
7013.54266 6.22292e-18
7017.60691 6.20367e-18
7021.68125 6.25694e-18
7025.74550 6.17840e-18
7029.81984 6.23560e-18
7033.88410 6.23902e-18
7037.95844 6.19254e-18
7042.02269 6.18914e-18
7046.09703 6.22196e-18
7050.16129 6.22170e-18
7054.23563 6.19544e-18
7058.30997 6.18319e-18
7062.37423 6.16805e-18
7066.44856 6.16837e-18
7070.51282 6.18038e-18
7074.58716 6.19413e-18
7078.65141 6.19469e-18
7082.72575 6.17325e-18
7086.79001 6.13816e-18
7090.86435 6.04338e-18
7094.92861 5.97218e-18
7099.00295 6.00159e-18
7103.06720 5.95018e-18
7107.14154 5.93371e-18
7111.21588 5.96518e-18
7115.28013 5.97302e-18
7119.35448 5.97923e-18
7123.41873 6.01090e-18
7127.49307 5.98118e-18
7131.55732 5.90604e-18
7135.63166 5.87418e-18
7139.69592 5.91535e-18
7143.77026 5.96148e-18
7147.83451 5.88729e-18
7151.90885 5.84543e-18
7155.97311 5.84673e-18
7160.04745 5.81661e-18
7164.11170 5.73833e-18
7168.18605 5.64458e-18
7172.26039 5.65068e-18
7176.32464 5.60719e-18
7180.39898 5.56246e-18
7184.46323 5.55121e-18
7188.53757 5.58133e-18
7192.60183 5.63646e-18
7196.67617 5.66211e-18
7200.74042 5.72599e-18
7204.81477 5.80808e-18
7208.87902 5.86919e-18
7212.95336 5.85281e-18
7217.02770 5.84343e-18
7221.09195 5.85460e-18
7225.16629 5.82340e-18
7229.23055 5.81843e-18
7233.30489 5.82804e-18
7237.36914 5.79591e-18
7241.44348 5.73830e-18
7245.50774 5.76740e-18
7249.58208 5.82754e-18
7253.64633 5.87896e-18
7257.72067 5.87967e-18
7261.78493 5.81638e-18
7265.85927 5.86267e-18
7269.93361 5.90139e-18
7273.99786 5.88696e-18
7278.07220 5.88725e-18
7282.13646 5.92050e-18
7286.21080 5.92624e-18
7290.27505 5.97811e-18
7294.34939 5.88247e-18
7298.41365 5.86443e-18
7302.48799 5.97749e-18
7306.55224 6.02038e-18
7310.62658 6.09795e-18
7314.69084 6.12842e-18
7318.76518 6.05485e-18
7322.83952 6.08470e-18
7326.90377 6.12132e-18
7330.97811 6.16416e-18
7335.04237 6.16780e-18
7339.11671 6.22078e-18
7343.18096 6.21908e-18
7347.25530 6.21215e-18
7351.31956 6.21219e-18
7355.39390 6.14943e-18
7359.45816 6.27389e-18
7363.53249 6.37602e-18
7367.59675 6.33331e-18
7371.67109 6.32312e-18
7375.74543 6.34165e-18
7379.80968 6.34265e-18
7383.88402 6.40577e-18
7387.94828 6.41991e-18
7392.02262 6.35971e-18
7396.08687 6.37384e-18
7400.16121 6.42307e-18
7404.22547 6.45377e-18
7408.29981 6.37777e-18
7412.36406 6.39297e-18
7416.43840 6.40966e-18
7420.50266 6.48207e-18
7424.57700 6.40624e-18
7428.65134 6.42995e-18
7432.71559 6.47076e-18
7436.78993 6.42808e-18
7440.85419 6.43229e-18
7444.92853 6.43988e-18
7448.99278 6.38159e-18
7453.06712 6.39034e-18
7457.13138 6.48433e-18
7461.20572 6.50486e-18
7465.26998 6.45181e-18
7469.34432 6.42031e-18
7473.40857 6.46433e-18
7477.48291 6.32279e-18
7481.55725 6.34014e-18
7485.62150 6.29681e-18
7489.69584 6.34069e-18
7493.76010 6.39912e-18
7497.83444 6.44243e-18
7501.89869 6.48016e-18
7505.97303 6.44949e-18
7510.03729 6.42220e-18
7514.11163 6.41761e-18
7518.17588 6.41077e-18
7522.25022 6.40311e-18
7526.31448 6.42490e-18
7530.38882 6.44861e-18
7534.46316 6.48374e-18
7538.52741 6.51004e-18
7542.60175 6.48740e-18
7546.66601 6.43161e-18
7550.74035 6.43282e-18
7554.80460 6.43403e-18
7558.87894 6.43524e-18
7562.94320 6.43644e-18
7567.01754 6.43765e-18
7571.08180 6.43886e-18
7575.15614 6.44006e-18
7579.22039 6.44127e-18
7583.29473 6.44247e-18
7587.36907 6.44367e-18
7591.43332 6.44488e-18
7595.50766 6.44608e-18
7599.57192 6.44728e-18
7603.64626 6.44848e-18
7607.71051 6.44968e-18
7611.78485 6.45088e-18
7615.84911 6.45208e-18
7619.92345 6.45328e-18
7623.98770 6.45447e-18
7628.06204 6.45567e-18
7632.13638 6.45687e-18
7636.20064 6.45806e-18
7640.27498 6.45926e-18
7644.33923 6.46045e-18
7648.41357 6.46165e-18
7652.47783 6.46284e-18
7656.55217 6.46403e-18
7660.61643 6.46523e-18
7664.69076 6.46642e-18
7668.75502 6.46761e-18
7672.82936 6.46880e-18
7676.89361 6.46999e-18
7680.96795 6.47118e-18
7685.04230 6.49946e-18
7689.10655 6.48821e-18
7693.18089 6.47537e-18
7697.24514 6.48495e-18
7701.31948 6.54688e-18
7705.38374 6.61305e-18
7709.45808 6.63610e-18
7713.52233 6.62747e-18
7717.59667 6.63295e-18
7721.66093 6.59264e-18
7725.73527 6.57655e-18
7729.79952 6.57490e-18
7733.87386 6.58800e-18
7737.94820 6.64770e-18
7742.01246 6.68963e-18
7746.08680 6.66727e-18
7750.15105 6.63659e-18
7754.22539 6.63223e-18
7758.28965 6.63099e-18
7762.36399 6.62625e-18
7766.42825 6.64454e-18
7770.50259 6.66798e-18
7774.56684 6.69719e-18
7778.64118 6.74911e-18
7782.70543 6.76179e-18
7786.77977 6.73259e-18
7790.85411 6.70242e-18
7794.91837 6.69451e-18
7798.99271 6.72209e-18
7803.05696 6.76651e-18
7807.13130 6.78300e-18
7811.19556 6.80053e-18
7815.26990 6.80061e-18
7819.33415 6.81126e-18
7823.40849 6.82705e-18
7827.47275 6.83162e-18
7831.54709 6.80009e-18
7835.61134 6.76544e-18
7839.68568 6.79031e-18
7843.76002 6.81324e-18
7847.82428 6.84244e-18
7851.89862 6.87861e-18
7855.96287 6.90108e-18
7860.03721 6.91409e-18
7864.10147 6.91933e-18
7868.17581 6.89383e-18
7872.24006 6.87220e-18
7876.31441 6.90585e-18
7880.37866 6.94331e-18
7884.45300 6.96172e-18
7888.51725 6.99028e-18
7892.59159 6.99731e-18
7896.65585 6.97925e-18
7900.73019 6.96475e-18
7904.80453 6.99760e-18
7908.86878 7.06310e-18
7912.94312 7.08377e-18
7917.00738 7.10422e-18
7921.08172 7.08620e-18
7925.14598 6.97835e-18
7929.22031 6.99953e-18
7933.28457 7.11593e-18
7937.35891 7.10648e-18
7941.42316 7.09218e-18
7945.49750 7.15166e-18
7949.57184 7.18050e-18
7953.63610 7.13610e-18
7957.71044 7.13785e-18
7961.77470 7.14505e-18
7965.84903 7.12537e-18
7969.91329 7.10486e-18
7973.98763 7.08964e-18
7978.05188 7.10225e-18
7982.12622 7.15651e-18
7986.19048 7.20212e-18
7990.26482 7.19306e-18
7994.32907 7.14613e-18
7998.40341 7.09856e-18
8002.46767 7.07999e-18
8006.54201 7.09535e-18
8010.61635 7.14243e-18
8014.68060 7.19892e-18
8018.75494 7.19825e-18
8022.81920 7.16663e-18
8026.89354 7.16459e-18
8030.95780 7.18594e-18
8035.03214 7.14177e-18
8039.09639 7.13807e-18
8043.17073 7.16347e-18
8047.23498 7.18685e-18
8051.30932 7.22676e-18
8055.38366 7.24719e-18
8059.44792 7.25489e-18
8063.52226 7.25127e-18
8067.58651 7.22308e-18
8071.66086 7.19239e-18
8075.72511 7.16796e-18
8079.79945 7.15834e-18
8083.86370 7.17538e-18
8087.93804 7.21120e-18
8092.00230 7.22582e-18
8096.07664 7.22139e-18
8100.14089 7.21879e-18
8104.21523 7.20068e-18
8108.28957 7.16088e-18
8112.35383 7.11625e-18
8116.42817 7.08783e-18
8120.49242 7.07807e-18
8124.56676 7.07893e-18
8128.63102 7.07843e-18
8132.70536 7.04598e-18
8136.76961 7.00217e-18
8140.84395 6.97194e-18
8144.90821 6.92868e-18
8148.98255 6.89025e-18
8153.04680 6.84517e-18
8157.12114 6.79131e-18
8161.19548 6.77450e-18
8165.25974 6.78954e-18
8169.33408 6.83797e-18
8173.39833 6.86044e-18
8177.47267 6.82838e-18
8181.53693 6.78762e-18
8185.61127 6.76911e-18
8189.67552 6.75941e-18
8193.74986 6.77979e-18
8197.81412 6.81582e-18
8201.88846 6.85131e-18
8205.95271 6.88023e-18
8210.02705 6.90328e-18
8214.10139 6.90915e-18
8218.16565 6.81740e-18
8222.23999 6.66415e-18
8226.30424 6.56361e-18
8230.37859 6.51397e-18
8234.44284 6.55516e-18
8238.51718 6.66900e-18
8242.58144 6.76353e-18
8246.65577 6.78054e-18
8250.72003 6.75193e-18
8254.79437 6.72973e-18
8258.85862 6.71448e-18
8262.93296 6.69556e-18
8267.00730 6.67497e-18
8271.07156 6.60704e-18
8275.14590 6.52503e-18
8279.21016 6.50402e-18
8283.28449 6.56310e-18
8287.34875 6.57974e-18
8291.42309 6.60499e-18
8295.48734 6.60837e-18
8299.56169 6.56145e-18
8303.62594 6.52065e-18
8307.70028 6.48848e-18
8311.76453 6.46593e-18
8315.83887 6.47072e-18
8319.91322 6.45057e-18
8323.97747 6.42019e-18
8328.05181 6.46106e-18
8332.11606 6.49786e-18
8336.19040 6.46280e-18
8340.25466 6.45677e-18
8344.32900 6.49358e-18
8348.39326 6.46684e-18
8352.46760 6.36405e-18
8356.53185 6.30066e-18
8360.60619 6.32945e-18
8364.67044 6.37712e-18
8368.74478 6.39165e-18
8372.81912 6.38377e-18
8376.88338 6.34319e-18
8380.95772 6.32758e-18
8385.02197 6.36378e-18
8389.09631 6.39633e-18
8393.16057 6.38410e-18
8397.23491 6.35163e-18
8401.29916 6.28133e-18
8405.37350 6.22369e-18
8409.43776 6.19115e-18
8413.51210 6.19506e-18
8417.57635 6.23298e-18
8421.65070 6.26648e-18
8425.72503 6.27669e-18
8429.78929 6.26101e-18
8433.86363 6.28458e-18
8437.92788 6.31248e-18
8442.00223 6.28494e-18
8446.06648 6.28630e-18
8450.14082 6.24883e-18
8454.20507 6.13549e-18
8458.27941 6.06046e-18
8462.34367 6.03895e-18
8466.41801 6.09492e-18
8470.48227 6.16628e-18
8474.55660 6.18063e-18
8478.63094 6.17532e-18
8482.69520 6.15898e-18
8486.76954 6.16040e-18
8490.83380 6.13695e-18
8494.90813 6.09148e-18
8498.97239 6.07579e-18
8503.04673 6.06349e-18
8507.11098 6.03271e-18
8511.18533 5.99239e-18
8515.24958 5.98674e-18
8519.32392 6.02233e-18
8523.38817 6.07971e-18
8527.46251 6.13193e-18
8531.53685 6.13562e-18
8535.60111 6.09398e-18
8539.67545 6.04985e-18
8543.73970 5.99499e-18
8547.81404 5.94696e-18
8551.87830 5.94546e-18
8555.95264 5.95397e-18
8560.01690 5.95705e-18
8564.09123 5.94751e-18
8568.15549 5.91868e-18
8572.22983 5.92612e-18
8576.29408 5.96868e-18
8580.36842 6.02370e-18
8584.44276 6.00966e-18
8588.50702 6.00378e-18
8592.58136 5.98581e-18
8596.64561 5.88871e-18
8600.71995 5.80758e-18
8604.78421 5.77458e-18
8608.85855 5.78087e-18
8612.92281 5.79223e-18
8616.99715 5.79119e-18
8621.06140 5.78691e-18
8625.13574 5.79529e-18
8629.21008 5.81832e-18
8633.27434 5.82062e-18
8637.34867 5.80387e-18
8641.41293 5.78140e-18
8645.48727 5.75939e-18
8649.55152 5.74048e-18
8653.62586 5.69151e-18
8657.69012 5.60385e-18
8661.76446 5.54157e-18
8665.82871 5.55508e-18
8669.90305 5.61004e-18
8673.96731 5.65541e-18
8678.04165 5.70262e-18
8682.10591 5.75008e-18
8686.18024 5.75203e-18
8690.25459 5.69753e-18
8694.31884 5.60408e-18
8698.39318 5.53640e-18
8702.45744 5.51025e-18
8706.53177 5.48834e-18
8710.59603 5.53119e-18
8714.67037 5.58611e-18
8718.73462 5.62676e-18
8722.80897 5.63541e-18
8726.87322 5.63086e-18
8730.94756 5.64358e-18
8735.01181 5.62574e-18
8739.08615 5.57775e-18
8743.16049 5.52292e-18
8747.22475 5.50912e-18
8751.29909 5.50419e-18
8755.36334 5.47221e-18
8759.43769 5.44783e-18
8763.50194 5.45710e-18
8767.57628 5.49311e-18
8771.64053 5.53641e-18
8775.71487 5.59042e-18
8779.77913 5.62362e-18
8783.85347 5.57750e-18
8787.92781 5.47494e-18
8791.99206 5.35175e-18
8796.06640 5.28133e-18
8800.13066 5.30015e-18
8804.20500 5.36248e-18
8808.26926 5.41568e-18
8812.34359 5.46695e-18
8816.40785 5.52199e-18
8820.48219 5.57422e-18
8824.54644 5.54731e-18
8828.62078 5.40761e-18
8832.68504 5.29454e-18
8836.75938 5.23932e-18
8840.83372 5.23225e-18
8844.89797 5.28226e-18
8848.97231 5.36719e-18
8853.03657 5.43153e-18
8857.11091 5.45387e-18
8861.17516 5.45385e-18
8865.24950 5.46895e-18
8869.31376 5.43009e-18
8873.38810 5.35377e-18
8877.45235 5.32430e-18
8881.52670 5.29259e-18
8885.60103 5.27932e-18
8889.66529 5.30376e-18
8893.73963 5.28020e-18
8897.80388 5.24501e-18
8901.87823 5.23160e-18
8905.94248 5.24913e-18
8910.01682 5.31835e-18
8914.08108 5.39276e-18
8918.15541 5.40443e-18
8922.21967 5.36313e-18
8926.29401 5.29797e-18
8930.35826 5.21038e-18
8934.43260 5.14314e-18
8938.49686 5.10864e-18
8942.57120 5.08136e-18
8946.64554 5.07577e-18
8950.70980 5.10690e-18
8954.78413 5.18371e-18
8958.84839 5.23565e-18
8962.92273 5.24086e-18
8966.98698 5.23929e-18
8971.06133 5.20717e-18
8975.12558 5.13590e-18
8979.19992 5.03823e-18
8983.26417 4.92860e-18
8987.33851 4.83787e-18
8991.40277 4.86752e-18
8995.47711 5.00151e-18
8999.55145 5.08853e-18
9003.61570 5.15890e-18
9007.69004 5.23407e-18
9011.75430 5.24482e-18
9015.82864 5.21068e-18
9019.89290 5.16025e-18
9023.96724 5.08749e-18
9028.03149 5.01877e-18
9032.10583 4.98699e-18
9036.17008 5.02412e-18
9040.24442 5.07186e-18
9044.30868 5.15445e-18
9048.38302 5.23586e-18
9052.45736 5.28681e-18
9056.52161 5.27521e-18
9060.59595 5.24898e-18
9064.66021 5.17585e-18
9068.73455 5.09100e-18
9072.79881 5.04588e-18
9076.87314 4.99522e-18
9080.93740 4.96397e-18
9085.01174 4.98043e-18
9089.07599 5.02277e-18
9093.15034 5.06422e-18
9097.21459 5.08563e-18
9101.28893 5.11537e-18
9105.36327 5.16150e-18
9109.42752 5.17473e-18
9113.50187 5.15452e-18
9117.56612 5.13265e-18
9121.64046 5.09656e-18
9125.70471 5.02414e-18
9129.77905 4.95545e-18
9133.84331 4.94188e-18
9137.91765 4.95941e-18
9141.98191 5.00003e-18
9146.05624 5.03620e-18
9150.12050 5.04352e-18
9154.19484 5.04078e-18
9158.26918 5.08840e-18
9162.33344 5.11770e-18
9166.40777 5.13606e-18
9170.47203 5.10374e-18
9174.54637 5.07021e-18
9178.61062 5.03299e-18
9182.68497 5.02240e-18
9186.74922 5.05651e-18
9190.82356 5.07862e-18
9194.88781 5.07740e-18
9198.96215 5.08109e-18
9203.02641 5.11326e-18
9207.10075 5.16663e-18
9211.17509 5.19409e-18
9215.23934 5.18857e-18
9219.31369 5.19367e-18
9223.37794 5.19938e-18
9227.45228 5.16235e-18
9231.51653 5.12151e-18
9235.59087 5.11663e-18
9239.65513 5.09120e-18
9243.72947 5.02981e-18
9247.79372 5.00890e-18
9251.86806 5.06111e-18
9255.93232 5.11837e-18
9260.00666 5.16000e-18
9264.08100 5.19231e-18
9268.14525 5.18282e-18
9272.21959 5.16293e-18
9276.28385 5.11853e-18
9280.35819 5.04586e-18
9284.42245 4.99335e-18
9288.49678 4.97519e-18
9292.56104 4.95062e-18
9296.63538 4.91736e-18
9300.69963 4.92643e-18
9304.77398 4.94023e-18
9308.83823 4.93927e-18
9312.91257 4.89833e-18
9316.98691 4.82692e-18
9321.05116 4.76013e-18
9325.12550 4.71046e-18
9329.18976 4.66041e-18
9333.26410 4.59449e-18
9337.32835 4.56618e-18
9341.40269 4.59965e-18
9345.46695 4.69734e-18
9349.54129 4.76180e-18
9353.60555 4.78438e-18
9357.67988 4.80947e-18
9361.74414 4.85565e-18
9365.81848 4.85099e-18
9369.89282 4.80503e-18
9373.95708 4.71833e-18
9378.03141 4.65888e-18
9382.09567 4.68342e-18
9386.17001 4.74072e-18
9390.23426 4.78153e-18
9394.30860 4.84355e-18
9398.37286 4.94725e-18
9402.44720 5.05616e-18
9406.51145 5.13983e-18
9410.58580 5.17586e-18
9414.66013 5.11353e-18
9418.72439 4.96262e-18
9422.79873 4.83031e-18
9426.86298 4.73435e-18
9430.93733 4.64598e-18
9435.00158 4.57458e-18
9439.07592 4.57591e-18
9443.14017 4.70281e-18
9447.21451 4.85991e-18
9451.27877 4.94582e-18
9455.35311 5.00741e-18
9459.41736 5.10471e-18
9463.49170 5.14629e-18
9467.55596 5.12789e-18
9471.63030 5.05141e-18
9475.70464 4.93077e-18
9479.76890 4.82658e-18
9483.84324 4.78178e-18
9487.90749 4.73356e-18
9491.98183 4.70564e-18
9496.04608 4.75788e-18
9500.12042 4.88727e-18
9504.18468 5.06415e-18
9508.25902 5.11966e-18
9512.32327 5.08680e-18
9516.39761 5.03961e-18
9520.46187 5.01879e-18
9524.53621 5.01066e-18
9528.61055 4.99328e-18
9532.67480 4.99731e-18
9536.74914 4.99138e-18
9540.81340 4.94679e-18
9544.88774 4.94333e-18
9548.95199 5.01178e-18
9553.02634 5.07695e-18
9557.09059 5.11712e-18
9561.16493 5.16263e-18
9565.22919 5.16981e-18
9569.30352 5.10006e-18
9573.37787 5.01786e-18
9577.44212 4.97270e-18
9581.51646 4.93775e-18
9585.58072 4.90850e-18
9589.65505 4.93662e-18
9593.71931 5.03373e-18
9597.79365 5.13047e-18
9601.85790 5.24398e-18
9605.93224 5.37977e-18
9609.99650 5.42437e-18
9614.07084 5.36672e-18
9618.13509 5.28838e-18
9622.20944 5.18753e-18
9626.27369 5.07955e-18
9630.34803 5.00198e-18
9634.42237 4.94099e-18
9638.48662 4.95047e-18
9642.56097 5.04021e-18
9646.62522 5.14820e-18
9650.69956 5.24193e-18
9654.76381 5.28278e-18
9658.83815 5.29830e-18
9662.90241 5.31753e-18
9666.97675 5.30434e-18
9671.04101 5.25380e-18
9675.11534 5.18727e-18
9679.18968 5.17892e-18
9683.25394 5.18630e-18
9687.32828 5.23080e-18
9691.39253 5.29964e-18
9695.46688 5.33901e-18
9699.53113 5.34690e-18
9703.60547 5.39361e-18
9707.66972 5.39160e-18
9711.74406 5.29967e-18
9715.80832 5.19761e-18
9719.88266 5.08711e-18
9723.94691 5.01729e-18
9728.02125 5.00797e-18
9732.09559 5.02924e-18
9736.15985 5.10011e-18
9740.23419 5.18193e-18
9744.29845 5.26279e-18
9748.37278 5.35014e-18
9752.43704 5.40334e-18
9756.51138 5.43759e-18
9760.57563 5.42045e-18
9764.64998 5.30049e-18
9768.71423 5.20067e-18
9772.78857 5.19973e-18
9776.86291 5.21817e-18
9780.92716 5.21303e-18
9784.99142 5.21195e-18
9789.06576 5.28033e-18
9793.14010 5.38121e-18
9797.20435 5.42675e-18
9801.27869 5.37624e-18
9805.34295 5.29026e-18
9809.41729 5.21302e-18
9813.48155 5.09191e-18
9817.55588 5.03481e-18
9821.62014 5.05063e-18
9825.69448 5.09120e-18
9829.75873 5.14675e-18
9833.83308 5.22270e-18
9837.90741 5.29959e-18
9841.97167 5.35454e-18
9846.04601 5.34699e-18
9850.11026 5.33200e-18
9854.18460 5.28188e-18
9858.24886 5.23964e-18
9862.32320 5.24740e-18
9866.38745 5.26586e-18
9870.46179 5.26941e-18
9874.52605 5.25227e-18
9878.60039 5.27618e-18
9882.66465 5.34586e-18
9886.73898 5.36788e-18
9890.81333 5.34037e-18
9894.87758 5.30264e-18
9898.95192 5.26405e-18
9903.01617 5.18710e-18
9907.09051 5.07349e-18
9911.15477 5.02424e-18
9915.22911 5.05216e-18
9919.29336 5.09204e-18
9923.36770 5.17423e-18
9927.43196 5.26696e-18
9931.50630 5.28151e-18
9935.57056 5.27734e-18
9939.64489 5.22557e-18
9943.71923 5.13499e-18
9947.78349 5.11863e-18
9951.85783 5.14020e-18
9955.92209 5.16630e-18
9959.99642 5.19219e-18
9964.06068 5.22649e-18
9968.13502 5.28720e-18
9972.19927 5.34959e-18
9976.27362 5.37397e-18
9980.33787 5.40512e-18
9984.41221 5.40367e-18
9988.47646 5.31648e-18
9992.55080 5.24192e-18
9996.62514 5.23131e-18
