# wavelength flux
3311.92711 2.96920e-17
3316.97361 3.55370e-17
3322.02011 3.54029e-17
3327.07671 2.86606e-17
3332.12321 2.31728e-17
3337.16971 1.78553e-17
3342.22630 1.33749e-17
3347.27280 1.14650e-17
3352.31930 1.63849e-17
3357.36580 1.98959e-17
3362.42239 1.74614e-17
3367.46889 2.09108e-17
3372.51539 2.70917e-17
3377.57199 3.04518e-17
3382.61848 2.44617e-17
3387.66498 2.02899e-17
3392.71149 1.58540e-17
3397.76808 1.05870e-17
3402.81458 2.12208e-18
3407.86108 1.12494e-17
3412.91767 2.22285e-17
3417.96417 2.19730e-17
3423.01067 2.09884e-17
3428.06726 1.99135e-17
3433.11376 1.88563e-17
3438.16026 1.79216e-17
3443.20676 1.72052e-17
3448.26336 1.80288e-17
3453.30986 2.23588e-17
3458.35636 1.69346e-17
3463.41295 1.41899e-17
3468.45945 1.59873e-17
3473.50595 1.84571e-17
3478.56254 2.33448e-17
3483.60904 2.40592e-17
3488.65554 1.49903e-17
3493.70204 1.70458e-17
3498.75864 2.24593e-17
3503.80514 5.36264e-18
3508.85164 3.19531e-18
3513.90823 4.40579e-18
3518.95473 1.42826e-17
3524.00123 2.17072e-17
3529.05782 1.17633e-17
3534.10432 5.26150e-18
3539.15082 5.25454e-18
3544.19732 6.68714e-18
3549.25392 9.18389e-18
3554.30042 7.47464e-18
3559.34692 3.45883e-18
3564.40351 1.43850e-18
3569.45001 2.60209e-18
3574.49651 4.77121e-18
3579.54301 7.10371e-18
3584.59960 1.67112e-17
3589.64610 1.91627e-17
3594.69260 1.63577e-17
3599.74919 1.30866e-17
3604.79569 4.43471e-18
3609.84219 6.17182e-18
3614.89879 7.28435e-18
3619.94529 6.17749e-18
3624.99179 1.43696e-17
3630.03829 6.99451e-18
3635.09488 2.89552e-18
3640.14138 7.78579e-18
3645.18788 1.97419e-17
3650.24447 1.37195e-17
3655.29097 6.10872e-18
3660.33747 5.04179e-18
3665.39407 1.09243e-17
3670.44057 9.93011e-18
3675.48707 6.87570e-18
3680.53357 6.39605e-18
3685.59016 9.22087e-18
3690.63666 1.20490e-17
3695.68316 1.01940e-17
3700.73975 8.87001e-18
3705.78625 9.18887e-18
3710.83275 1.07016e-17
3715.88935 1.48194e-17
3720.93585 7.54938e-18
3725.98235 9.55066e-18
3731.02885 5.78540e-18
3736.08544 6.01254e-18
3741.13194 9.32783e-18
3746.17844 9.27471e-18
3751.23503 8.44827e-18
3756.28153 8.71229e-18
3761.32803 1.13877e-17
3766.38462 7.72985e-18
3771.43112 1.66078e-18
3776.47762 6.02708e-18
3781.52412 4.03483e-18
3786.58072 7.22950e-19
3791.62722 3.71923e-18
3796.67372 5.66116e-18
3801.73031 4.51435e-18
3806.77681 4.79607e-18
3811.82331 3.92986e-18
3816.86981 2.36018e-18
3821.92640 7.84344e-19
3826.97290 5.78890e-19
3832.01940 5.61914e-19
3837.07600 5.12861e-18
3842.12250 6.56422e-18
3847.16900 6.07072e-18
3852.22559 4.50557e-18
3857.27209 4.97518e-18
3862.31859 6.14488e-18
3867.36509 6.87635e-18
3872.42168 4.26113e-18
3877.46818 1.58720e-18
3882.51468 7.99339e-18
3887.57128 9.23595e-18
3892.61778 8.60677e-18
3897.66428 9.37446e-18
3902.72087 9.34304e-18
3907.76737 1.10821e-17
3912.81387 1.29025e-17
3917.86037 9.25025e-18
3922.91696 7.76427e-18
3927.96346 1.49792e-17
3933.00996 1.62906e-17
3938.06655 1.47998e-17
3943.11305 1.41638e-17
3948.15955 1.52928e-17
3953.21615 1.69918e-17
3958.26265 1.75981e-17
3963.30915 1.91921e-17
3968.35565 2.04336e-17
3973.41224 2.19602e-17
3978.45874 1.88453e-17
3983.50524 1.53927e-17
3988.56183 1.98678e-17
3993.60833 1.82867e-17
3998.65483 2.05383e-17
4003.70133 1.88062e-17
4008.75793 1.18611e-17
4013.80443 9.79298e-18
4018.85093 1.81444e-17
4023.90752 1.49166e-17
4028.95402 1.40777e-17
4034.00052 1.61424e-17
4039.05711 1.94564e-17
4044.10361 2.18225e-17
4049.15011 2.34429e-17
4054.19661 2.04849e-17
4059.25321 1.23505e-17
4064.29971 8.27882e-18
4069.34621 1.72194e-18
4074.40280 3.03705e-18
4079.44930 6.07737e-18
4084.49580 1.14331e-17
4089.55239 1.63861e-17
4094.59889 1.44685e-17
4099.64539 1.14805e-17
4104.69189 1.56916e-17
4109.74848 1.46541e-17
4114.79498 1.18291e-17
4119.84148 1.07638e-17
4124.89808 7.40674e-18
4129.94458 1.14166e-17
4134.99108 1.22820e-17
4140.04767 1.18440e-17
4145.09417 1.41707e-17
4150.14067 1.35158e-17
4155.18717 7.84513e-18
4160.24376 1.00568e-17
4165.29026 1.12450e-17
4170.33676 1.22454e-17
4175.39336 1.58094e-17
4180.43986 9.07558e-18
4185.48636 5.70469e-18
4190.53286 9.62119e-18
4195.58945 1.41092e-17
4200.63595 1.41909e-17
4205.68245 1.04025e-17
4210.73904 1.03495e-17
4215.78554 1.09364e-17
4220.83204 1.01256e-17
4225.88864 1.03502e-17
4230.93514 1.38881e-17
4235.98164 1.58287e-17
4241.03823 1.39672e-17
4246.08473 1.72877e-17
4251.13123 1.86889e-17
4256.17773 1.50262e-17
4261.23432 1.49404e-17
4266.28082 1.30075e-17
4271.32732 1.09587e-17
4276.38391 8.26518e-18
4281.43041 1.11566e-17
4286.47691 1.18251e-17
4291.52341 9.96259e-18
4296.58001 9.71253e-18
4301.62651 1.04943e-17
4306.67301 1.24593e-17
4311.72960 1.08918e-17
4316.77610 1.33429e-17
4321.82260 1.10952e-17
4326.87919 9.95773e-18
4331.92569 1.17270e-17
4336.97219 1.15222e-17
4342.01869 9.57562e-18
4347.07529 1.11671e-17
4352.12179 1.30972e-17
4357.16829 1.31798e-17
4362.22488 1.30928e-17
4367.27138 1.03156e-17
4372.31788 1.20217e-17
4377.37447 1.36362e-17
4382.42097 9.20689e-18
4387.46747 1.03190e-17
4392.51397 1.63837e-17
4397.57057 1.73444e-17
4402.61707 1.24964e-17
4407.66357 8.59251e-18
4412.72016 7.69240e-18
4417.76666 1.07174e-17
4422.81316 1.12269e-17
4427.85966 9.62274e-18
4432.91625 1.07547e-17
4437.96275 9.14836e-18
4443.00925 1.09464e-17
4448.06584 1.05351e-17
4453.11234 1.12658e-17
4458.15884 1.32415e-17
4463.21544 1.20399e-17
4468.26194 1.34374e-17
4473.30844 1.35905e-17
4478.35494 1.42816e-17
4483.41153 1.31853e-17
4488.45803 1.18944e-17
4493.50453 1.47671e-17
4498.56112 1.72954e-17
4503.60762 1.43998e-17
4508.65412 1.26860e-17
4513.71072 1.24215e-17
4518.75722 1.44333e-17
4523.80372 1.63996e-17
4528.85022 1.67342e-17
4533.90681 1.62612e-17
4538.95331 1.36927e-17
4543.99981 1.47034e-17
4549.05640 1.62587e-17
4554.10290 1.63000e-17
4559.14940 1.71739e-17
4564.20600 1.85146e-17
4569.25249 1.77509e-17
4574.29900 1.81909e-17
4579.34549 1.58068e-17
4584.40209 1.52715e-17
4589.44859 1.36681e-17
4594.49509 1.63211e-17
4599.55168 1.75038e-17
4604.59818 1.66221e-17
4609.64468 1.67064e-17
4614.70127 1.57133e-17
4619.74777 1.66690e-17
4624.79427 1.98456e-17
4629.84077 1.79354e-17
4634.89737 1.74923e-17
4639.94387 1.85861e-17
4644.99037 1.73915e-17
4650.04696 1.67805e-17
4655.09346 1.83713e-17
4660.13996 1.82729e-17
4665.19655 1.77027e-17
4670.24305 1.74708e-17
4675.28955 1.64229e-17
4680.33605 1.72872e-17
4685.39265 1.68064e-17
4690.43915 1.82695e-17
4695.48565 2.01207e-17
4700.54224 1.90296e-17
4705.58874 1.48611e-17
4710.63524 1.49128e-17
4715.68174 1.93542e-17
4720.73833 1.72109e-17
4725.78483 1.50312e-17
4730.83133 1.45118e-17
4735.88792 1.59946e-17
4740.93443 1.55837e-17
4745.98093 1.33134e-17
4751.03752 1.14267e-17
4756.08402 1.15485e-17
4761.13052 1.22310e-17
4766.17702 1.47151e-17
4771.23361 1.53019e-17
4776.28011 1.47440e-17
4781.32661 1.46619e-17
4786.38320 1.51101e-17
4791.42970 1.33011e-17
4796.47620 1.28830e-17
4801.53280 1.41928e-17
4806.57930 1.28292e-17
4811.62580 1.30377e-17
4816.67230 1.22944e-17
4821.72889 1.19524e-17
4826.77539 1.16964e-17
4831.82189 1.08627e-17
4836.87848 1.09485e-17
4841.92498 1.18356e-17
4846.97148 1.10400e-17
4852.01798 1.19334e-17
4857.07458 1.08088e-17
4862.12108 1.01401e-17
4867.16758 1.02842e-17
4872.22417 9.00438e-18
4877.27067 1.07928e-17
4882.31717 1.04220e-17
4887.37376 8.41266e-18
4892.42026 8.87883e-18
4897.46676 1.14377e-17
4902.51326 1.05530e-17
4907.56986 1.56855e-17
4912.61636 2.04471e-17
4917.66286 1.06831e-17
4922.71945 1.10789e-17
4927.76595 1.11336e-17
4932.81245 1.24494e-17
4937.86904 1.63167e-17
4942.91554 1.50858e-17
4947.96204 1.53934e-17
4953.00854 1.54205e-17
4958.06513 1.46228e-17
4963.11163 1.49302e-17
4968.15813 1.58907e-17
4973.21473 1.64912e-17
4978.26123 1.44938e-17
4983.30773 1.61379e-17
4988.36432 1.69438e-17
4993.41082 1.68271e-17
4998.45732 1.46519e-17
5003.50382 1.47281e-17
5008.56041 1.60369e-17
5013.60691 1.39115e-17
5018.65341 1.55276e-17
5023.71001 1.41563e-17
5028.75651 1.77927e-17
5033.80301 2.31145e-17
5038.85960 1.37987e-17
5043.90610 1.08237e-17
5048.95260 1.35457e-17
5053.99910 1.40754e-17
5059.05569 1.17167e-17
5064.10219 1.20881e-17
5069.14869 1.42301e-17
5074.20529 1.34320e-17
5079.25179 1.34238e-17
5084.29828 1.45281e-17
5089.35488 1.21264e-17
5094.40138 1.08278e-17
5099.44788 1.16302e-17
5104.49438 1.33373e-17
5109.55097 1.69141e-17
5114.59747 1.56295e-17
5119.64397 1.13798e-17
5124.70056 1.29498e-17
5129.74706 1.44465e-17
5134.79356 1.48157e-17
5139.84006 1.47371e-17
5144.89666 1.42605e-17
5149.94316 1.40491e-17
5154.98966 1.39379e-17
5160.04625 1.28935e-17
5165.09275 1.38443e-17
5170.13925 1.67716e-17
5175.19584 1.68160e-17
5180.24234 1.45201e-17
5185.28884 1.47006e-17
5190.33534 1.56647e-17
5195.39194 1.57863e-17
5200.43844 1.62096e-17
5205.48494 1.49888e-17
5210.54153 1.42935e-17
5215.58803 1.60218e-17
5220.63453 1.62597e-17
5225.69112 1.64722e-17
5230.73762 1.65235e-17
5235.78412 1.61634e-17
5240.83062 1.53468e-17
5245.88722 1.59383e-17
5250.93372 1.69538e-17
5255.98022 1.75647e-17
5261.03681 1.65544e-17
5266.08331 1.69613e-17
5271.12981 1.87215e-17
5276.17631 1.75119e-17
5281.23290 1.64836e-17
5286.27940 1.67602e-17
5291.32590 1.78568e-17
5296.38249 1.83703e-17
5301.42899 1.66479e-17
5306.47549 1.64151e-17
5311.53209 1.80014e-17
5316.57859 1.77614e-17
5321.62509 1.67414e-17
5326.67159 1.67110e-17
5331.72818 1.79629e-17
5336.77468 1.95755e-17
5341.82118 1.87982e-17
5346.87777 1.82788e-17
5351.92427 1.75605e-17
5356.97077 1.73622e-17
5362.02737 1.71390e-17
5367.07387 1.72878e-17
5372.12037 1.95935e-17
5377.16687 1.87218e-17
5382.22346 1.77593e-17
5387.26996 1.87284e-17
5392.31646 1.83708e-17
5397.37305 1.72018e-17
5402.41955 1.75427e-17
5407.46605 1.88488e-17
5412.52265 1.81188e-17
5417.56915 1.61934e-17
5422.61564 1.65395e-17
5427.66215 1.76752e-17
5432.71874 1.81733e-17
5437.76524 1.66967e-17
5442.81174 1.88098e-17
5447.86833 1.82598e-17
5452.91483 1.77758e-17
5457.96133 1.89636e-17
5463.01792 1.81558e-17
5468.06442 1.66454e-17
5473.11092 1.71352e-17
5478.15742 1.81727e-17
5483.21402 1.92133e-17
5488.26052 2.01462e-17
5493.30702 1.91985e-17
5498.36361 1.73575e-17
5503.41011 1.85499e-17
5508.45661 1.89614e-17
5513.51320 1.75443e-17
5518.55970 1.76706e-17
5523.60620 2.08176e-17
5528.65270 2.05627e-17
5533.70930 1.75523e-17
5538.75580 1.70652e-17
5543.80230 1.79715e-17
5548.85889 1.85391e-17
5553.90539 1.81303e-17
5558.95189 1.74173e-17
5563.99839 1.63012e-17
5569.05498 1.57597e-17
5574.10148 1.97598e-17
5579.14798 2.09155e-17
5584.20458 1.63499e-17
5589.25108 1.69740e-17
5594.29758 1.83172e-17
5599.35417 1.56514e-17
5604.40067 1.49301e-17
5609.44717 1.76605e-17
5614.49367 1.72613e-17
5619.55026 1.65484e-17
5624.59676 1.48472e-17
5629.64326 1.75292e-17
5634.69985 1.65636e-17
5639.74635 1.22492e-17
5644.79285 1.19944e-17
5649.84945 1.17844e-17
5654.89595 1.15009e-17
5659.94245 1.12524e-17
5664.98895 1.19772e-17
5670.04554 1.20738e-17
5675.09204 9.94600e-18
5680.13854 9.01026e-18
5685.19513 1.03099e-17
5690.24163 9.91158e-18
5695.28813 1.05033e-17
5700.33463 1.13707e-17
5705.39123 1.02774e-17
5710.43773 8.48172e-18
5715.48423 9.40897e-18
5720.54082 9.67259e-18
5725.58732 9.46016e-18
5730.63382 1.06758e-17
5735.69041 8.51520e-18
5740.73691 8.63762e-18
5745.78341 1.16885e-17
5750.82991 1.05461e-17
5755.88651 1.01539e-17
5760.93301 1.15018e-17
5765.97951 1.04983e-17
5771.03610 1.10041e-17
5776.08260 1.09449e-17
5781.12910 1.29150e-17
5786.18569 1.25275e-17
5791.23219 1.20806e-17
5796.27869 1.31098e-17
5801.32519 1.37528e-17
5806.38178 1.33434e-17
5811.42828 1.45641e-17
5816.47478 1.59974e-17
5821.53138 1.68246e-17
5826.57788 1.72443e-17
5831.62438 1.58007e-17
5836.68097 1.69290e-17
5841.72747 1.86345e-17
5846.77397 1.72679e-17
5851.82047 1.73067e-17
5856.87706 1.69028e-17
5861.92356 1.81485e-17
5866.97006 1.67159e-17
5872.02666 1.55741e-17
5877.07316 1.74130e-17
5882.11966 1.70434e-17
5887.17625 1.48791e-17
5892.22275 1.47259e-17
5897.26925 1.52784e-17
5902.31575 1.62116e-17
5907.37234 1.67355e-17
5912.41884 1.62030e-17
5917.46534 1.61321e-17
5922.52194 1.52297e-17
5927.56844 1.46588e-17
5932.61494 1.67311e-17
5937.67153 1.75588e-17
5942.71803 1.62757e-17
5947.76453 1.59955e-17
5952.81103 1.64433e-17
5957.86762 1.51647e-17
5962.91412 1.64997e-17
5967.96062 1.78283e-17
5973.01721 1.61741e-17
5978.06371 1.69869e-17
5983.11021 1.54957e-17
5988.15671 1.43809e-17
5993.21331 1.58848e-17
5998.25981 1.56385e-17
6003.30631 1.59970e-17
6008.36290 1.51535e-17
6013.40940 1.54642e-17
6018.45590 1.52174e-17
6023.51249 1.44087e-17
6028.55899 1.52862e-17
6033.60549 1.63219e-17
6038.65199 1.63403e-17
6043.70859 1.55578e-17
6048.75509 1.39021e-17
6053.80159 1.44947e-17
6058.85818 1.49115e-17
6063.90468 1.54706e-17
6068.95118 1.60911e-17
6074.00777 1.45769e-17
6079.05427 1.38671e-17
6084.10077 1.40629e-17
6089.14727 1.37622e-17
6094.20387 1.36148e-17
6099.25037 1.32624e-17
6104.29687 1.26491e-17
6109.35346 1.31854e-17
6114.39996 1.40438e-17
6119.44646 1.40044e-17
6124.49296 1.50143e-17
6129.54955 1.44737e-17
6134.59605 1.32879e-17
6139.64255 1.23215e-17
6144.69914 1.47190e-17
6149.74564 1.45948e-17
6154.79214 1.30839e-17
6159.84874 1.43747e-17
6164.89524 1.37753e-17
6169.94174 1.33528e-17
6174.98824 1.33085e-17
6180.04483 1.41075e-17
6185.09133 1.44272e-17
6190.13783 1.19422e-17
6195.19442 1.17196e-17
6200.24092 1.26691e-17
6205.28742 1.13818e-17
6210.34402 1.08942e-17
6215.39052 1.13710e-17
6220.43702 1.11977e-17
6225.48352 1.11548e-17
6230.54011 1.14477e-17
6235.58661 1.00305e-17
6240.63311 1.03682e-17
6245.68970 1.04267e-17
6250.73620 1.03138e-17
6255.78270 1.12663e-17
6260.83929 1.06289e-17
6265.88580 1.11643e-17
6270.93230 1.04141e-17
6275.97879 9.27902e-18
6281.03539 9.67505e-18
6286.08189 9.94472e-18
6291.12839 1.05660e-17
6296.18498 1.03976e-17
6301.23148 1.17343e-17
6306.27798 1.08990e-17
6311.33457 1.01243e-17
6316.38107 9.97933e-18
6321.42757 1.01741e-17
6326.47407 9.88803e-18
6331.53067 9.44414e-18
6336.57717 1.01341e-17
6341.62367 1.15825e-17
6346.68026 1.18726e-17
6351.72676 1.12816e-17
6356.77326 1.10372e-17
6361.82985 9.94083e-18
6366.87635 9.47926e-18
6371.92285 1.07423e-17
6376.96935 1.24387e-17
6382.02595 1.23849e-17
6387.07245 1.19682e-17
6392.11895 1.05376e-17
6397.17554 9.97690e-18
6402.22204 1.14389e-17
6407.26854 1.17074e-17
6412.31504 1.10511e-17
6417.37163 1.17642e-17
6422.41813 1.34155e-17
6427.46463 1.23949e-17
6432.52123 1.04487e-17
6437.56773 1.04011e-17
6442.61423 1.17802e-17
6447.67082 1.22854e-17
6452.71732 1.14332e-17
6457.76382 1.05329e-17
6462.81032 1.08022e-17
6467.86691 1.07288e-17
6472.91341 1.06826e-17
6477.95991 1.06713e-17
6483.01650 1.07442e-17
6488.06300 1.03035e-17
6493.10950 9.66662e-18
6498.16610 9.96374e-18
6503.21260 1.04549e-17
6508.25910 9.84855e-18
6513.30560 9.64434e-18
6518.36219 1.05036e-17
6523.40869 1.19136e-17
6528.45519 1.03338e-17
6533.51178 8.81606e-18
6538.55828 1.02387e-17
6543.60478 1.05301e-17
6548.65128 1.09430e-17
6553.70788 1.06347e-17
6558.75438 1.12178e-17
6563.80088 1.11426e-17
6568.85747 1.13044e-17
6573.90397 1.15526e-17
6578.95047 1.16048e-17
6584.00706 1.20212e-17
6589.05356 1.24942e-17
6594.10006 1.31839e-17
6599.15666 1.31762e-17
6604.20316 1.41173e-17
6609.24966 1.31488e-17
6614.29616 1.40556e-17
6619.35275 1.47430e-17
6624.39925 1.44421e-17
6629.44575 1.45868e-17
6634.50234 1.51993e-17
6639.54884 1.44354e-17
6644.59534 1.47618e-17
6649.65193 1.55876e-17
6654.69843 1.40460e-17
6659.74493 1.31016e-17
6664.79143 1.38703e-17
6669.84803 1.37072e-17
6674.89453 1.32375e-17
6679.94103 1.24423e-17
6684.99762 1.24319e-17
6690.04412 1.34647e-17
6695.09062 1.41992e-17
6700.13712 1.38129e-17
6705.19371 1.43453e-17
6710.24021 1.38868e-17
6715.28671 1.29124e-17
6720.34331 1.30834e-17
6725.38981 1.17970e-17
6730.43631 1.25427e-17
6735.49290 1.38758e-17
6740.53940 1.26167e-17
6745.58590 1.21245e-17
6750.63240 1.26438e-17
6755.68899 1.34615e-17
6760.73549 1.26168e-17
6765.78199 1.17485e-17
6770.83859 1.13722e-17
6775.88509 1.18681e-17
6780.93159 1.26993e-17
6785.98818 1.29909e-17
6791.03468 1.22383e-17
6796.08118 1.15876e-17
6801.12768 1.10775e-17
6806.18427 1.09358e-17
6811.23077 1.09617e-17
6816.27727 1.11011e-17
6821.33386 1.07909e-17
6826.38036 1.01661e-17
6831.42686 9.25492e-18
6836.47336 9.37495e-18
6841.52996 1.04163e-17
6846.57646 1.01500e-17
6851.62296 1.05165e-17
6856.67955 9.46844e-18
6861.72605 7.57544e-18
6866.77255 6.64624e-18
6871.82914 7.40829e-18
6876.87564 8.75596e-18
6881.92214 9.52408e-18
6886.96864 9.04412e-18
6892.02524 7.76926e-18
6897.07174 8.50496e-18
6902.11824 9.28187e-18
6907.17483 8.52723e-18
6912.22133 8.23427e-18
6917.26783 9.56505e-18
6922.32442 8.66981e-18
6927.37092 8.58890e-18
6932.41742 1.02277e-17
6937.46392 9.29719e-18
6942.52052 8.22536e-18
6947.56702 8.53086e-18
6952.61352 1.03316e-17
6957.67011 1.07975e-17
6962.71661 1.00661e-17
6967.76311 1.15574e-17
6972.80961 1.18435e-17
6977.86620 1.03114e-17
6982.91270 1.17767e-17
6987.95920 1.27338e-17
6993.01579 1.09951e-17
6998.06229 1.06763e-17
7003.10879 1.27406e-17
7008.16539 1.20426e-17
7013.21189 1.21034e-17
7018.25839 1.23195e-17
7023.31498 1.17393e-17
7028.36148 1.16600e-17
7033.40798 1.17793e-17
7038.45448 1.19725e-17
7043.51107 1.13059e-17
7048.55757 1.16302e-17
7053.60407 1.18584e-17
7058.66067 1.14908e-17
7063.70717 1.21952e-17
7068.75367 1.21600e-17
7073.80017 1.22785e-17
7078.85676 1.28932e-17
7083.90326 1.10162e-17
7088.94976 1.06568e-17
7094.00635 1.10910e-17
7099.05285 1.09144e-17
7104.09935 1.09432e-17
7109.15595 1.18994e-17
7114.20244 1.14108e-17
7119.24895 1.11665e-17
7124.29545 1.18444e-17
7129.35204 1.04896e-17
7134.39854 9.77626e-18
7139.44504 1.13543e-17
7144.50163 9.75216e-18
7149.54813 9.18466e-18
7154.59463 1.01055e-17
7159.65122 1.04084e-17
7164.69772 9.63105e-18
7169.74422 8.34589e-18
7174.79072 8.77235e-18
7179.84732 8.74435e-18
7184.89382 9.48653e-18
7189.94032 9.29605e-18
7194.99691 8.58834e-18
7200.04341 7.98165e-18
7205.08991 8.07950e-18
7210.14650 8.26365e-18
7215.19300 9.91329e-18
7220.23950 1.16282e-17
7225.28600 1.07521e-17
7230.34260 8.96220e-18
7235.38910 8.21929e-18
7240.43560 7.73879e-18
7245.49219 7.85750e-18
7250.53869 8.68289e-18
7255.58519 9.46993e-18
7260.63169 9.13699e-18
7265.68828 1.01293e-17
7270.73478 9.16812e-18
7275.78128 8.37101e-18
7280.83788 8.61647e-18
7285.88438 7.72491e-18
7290.93088 8.54275e-18
7295.98747 1.12041e-17
7301.03397 1.45851e-17
7306.08047 1.41260e-17
7311.12697 1.01785e-17
7316.18356 9.21215e-18
7321.23006 7.73348e-18
7326.27656 9.31389e-18
7331.33315 1.15338e-17
7336.37965 1.00029e-17
7341.42615 9.43539e-18
7346.48275 1.02920e-17
7351.52925 1.13034e-17
7356.57575 1.09269e-17
7361.62225 9.24840e-18
7366.67884 9.52027e-18
7371.72534 9.92907e-18
7376.77184 1.02619e-17
7381.82843 1.13286e-17
7386.87493 1.10790e-17
7391.92143 1.00749e-17
7396.97803 1.15900e-17
7402.02453 1.16380e-17
7407.07103 1.08572e-17
7412.11753 1.10094e-17
7417.17412 8.70233e-18
7422.22062 9.32812e-18
7427.26712 9.66978e-18
7432.32371 9.71505e-18
7437.37021 1.04367e-17
7442.41671 8.67640e-18
7447.47331 9.05863e-18
7452.51981 1.10451e-17
7457.56631 1.10726e-17
7462.61281 1.04072e-17
7467.66940 1.02991e-17
7472.71590 1.06469e-17
7477.76240 1.05117e-17
7482.81899 1.08184e-17
7487.86549 1.17590e-17
7492.91199 1.10206e-17
7497.96858 1.14994e-17
7503.01508 1.04836e-17
7508.06158 8.25730e-18
7513.10808 8.67971e-18
7518.16468 1.03028e-17
7523.21118 9.80364e-18
7528.25768 9.23986e-18
7533.31427 9.27125e-18
7538.36077 1.01634e-17
7543.40727 9.77274e-18
7548.45377 9.68717e-18
7553.51036 9.21339e-18
7558.55686 8.88379e-18
7563.60336 8.55411e-18
7568.65996 7.96593e-18
7573.70646 8.61889e-18
7578.75296 7.63744e-18
7583.80955 6.68646e-18
7588.85605 5.88820e-18
7593.90255 5.02294e-18
7598.94905 3.12157e-18
7604.00564 1.52541e-18
7609.05214 2.94725e-18
7614.09864 4.13984e-18
7619.15524 3.57850e-18
7624.20174 4.05125e-18
7629.24824 4.00060e-18
7634.30483 3.92316e-18
7639.35133 4.23700e-18
7644.39783 4.95982e-18
7649.44433 5.83264e-18
7654.50092 6.30213e-18
7659.54742 6.19251e-18
7664.59392 4.74352e-18
7669.65051 5.30047e-18
7674.69701 5.94451e-18
7679.74351 5.80641e-18
7684.79001 7.76095e-18
7689.84661 7.60348e-18
7694.89311 6.47173e-18
7699.93961 7.51322e-18
7704.99620 8.54318e-18
7710.04270 8.76189e-18
7715.08920 6.37993e-18
7720.14579 7.31337e-18
7725.19229 9.03305e-18
7730.23879 8.34018e-18
7735.28529 7.19886e-18
7740.34189 9.59938e-18
7745.38839 8.92747e-18
7750.43489 8.51805e-18
7755.49148 7.25430e-18
7760.53798 7.00629e-18
7765.58448 6.77062e-18
7770.64107 7.33442e-18
7775.68757 6.85321e-18
7780.73407 8.89280e-18
7785.78057 9.12206e-18
7790.83717 8.01694e-18
7795.88367 7.39564e-18
7800.93017 6.66641e-18
7805.98676 7.30093e-18
7811.03326 8.03767e-18
7816.07976 7.69117e-18
7821.13635 8.58260e-18
7826.18285 7.56181e-18
7831.22935 7.47644e-18
7836.27585 8.28318e-18
7841.33244 9.36439e-18
7846.37894 1.07321e-17
7851.42544 8.82611e-18
7856.48204 8.17037e-18
7861.52854 9.34481e-18
7866.57504 9.67161e-18
7871.63163 8.48631e-18
7876.67813 6.96143e-18
7881.72463 8.35759e-18
7886.77113 8.96091e-18
7891.82772 8.84737e-18
7896.87422 9.93472e-18
7901.92072 8.04893e-18
7906.97732 7.48884e-18
7912.02382 8.71146e-18
7917.07032 1.01757e-17
7922.11682 1.11135e-17
7927.17341 8.99786e-18
7932.21991 9.66489e-18
7937.26641 1.23052e-17
7942.32300 1.09999e-17
7947.36950 9.34352e-18
7952.41600 9.57431e-18
7957.47260 8.55945e-18
7962.51910 7.08195e-18
7967.56560 7.82424e-18
7972.61210 7.65431e-18
7977.66869 8.40726e-18
7982.71519 8.32580e-18
7987.76169 7.66041e-18
7992.81828 8.81888e-18
7997.86478 8.97933e-18
8002.91128 8.64116e-18
8007.96787 7.28811e-18
8013.01437 7.08296e-18
8018.06087 8.73837e-18
8023.10737 9.05651e-18
8028.16397 9.08725e-18
8033.21047 8.87154e-18
8038.25697 9.58469e-18
8043.31356 6.30452e-18
8048.36006 1.60401e-18
8053.40656 3.19975e-18
8058.46315 7.33633e-18
8063.50965 8.05793e-18
8068.55615 8.48898e-18
8073.60265 8.69741e-18
8078.65925 7.15379e-18
8083.70575 6.22318e-18
8088.75225 7.71560e-18
8093.80884 6.88897e-18
8098.85534 6.92372e-18
8103.90184 7.40391e-18
8108.94834 7.64867e-18
8114.00493 7.25438e-18
8119.05143 6.06582e-18
8124.09793 6.82976e-18
8129.15453 6.76330e-18
8134.20103 8.96863e-18
8139.24753 8.01843e-18
8144.30412 5.43976e-18
8149.35062 6.83157e-18
8154.39712 8.61119e-18
8159.44362 7.01249e-18
8164.50021 3.76031e-18
8169.54671 6.74605e-18
8174.59321 8.42472e-18
8179.64980 8.53591e-18
8184.69630 8.59705e-18
8189.74280 9.30343e-18
8194.79940 7.07800e-18
8199.84590 5.74063e-18
8204.89240 6.19561e-18
8209.93890 8.56837e-18
8214.99549 6.41965e-18
8220.04199 4.48741e-18
8225.08849 3.91622e-18
8230.14508 4.46069e-18
8235.19158 7.25099e-18
8240.23808 9.79051e-18
8245.29468 1.14717e-17
8250.34118 7.68435e-18
8255.38768 5.27887e-18
8260.43418 4.95346e-18
8265.49077 6.89206e-18
8270.53727 7.47105e-18
8275.58377 5.93555e-18
8280.64036 5.60238e-18
8285.68686 5.09934e-18
8290.73336 1.02375e-17
8295.77986 1.42499e-17
8296.83066 1.42499e-17
8298.48825 1.41284e-17
8300.15589 1.40068e-17
8301.81348 1.33385e-17
8303.47107 1.26706e-17
8305.12866 1.28449e-17
8306.79630 1.30191e-17
8308.45389 1.29044e-17
8310.11148 1.27896e-17
8311.77911 1.25446e-17
8313.43670 1.22997e-17
8315.09429 1.25406e-17
8316.75188 1.27816e-17
8318.41952 1.31678e-17
8320.07711 1.35538e-17
8321.73470 1.32957e-17
8323.40233 1.30375e-17
8325.05992 1.22956e-17
8326.71751 1.15541e-17
8328.37510 1.18405e-17
8330.04274 1.21269e-17
8331.70033 1.23919e-17
8333.35792 1.26568e-17
8335.01551 1.27025e-17
8336.68315 1.27482e-17
8338.34074 1.28446e-17
8339.99833 1.29411e-17
8341.65592 1.31491e-17
8343.32355 1.33573e-17
8344.98114 1.39441e-17
8346.63873 1.45307e-17
8348.30637 1.41658e-17
8349.96396 1.38008e-17
8351.62155 1.30447e-17
8353.27914 1.22890e-17
8354.94677 1.24634e-17
8356.60436 1.26378e-17
8358.26195 1.30295e-17
8359.92959 1.34210e-17
8361.58718 1.33504e-17
8363.24477 1.32797e-17
8364.90236 1.28912e-17
8366.57000 1.25027e-17
8368.22759 1.22247e-17
8369.88518 1.19471e-17
8371.54277 1.24969e-17
8373.21040 1.30462e-17
8374.86799 1.22158e-17
8376.52558 1.13859e-17
8378.19322 1.21674e-17
8379.85081 1.29485e-17
8381.50840 1.25449e-17
8383.16599 1.21415e-17
8384.83362 1.23680e-17
8386.49121 1.25943e-17
8388.14880 1.20646e-17
8389.81644 1.15353e-17
8391.47403 1.20765e-17
8393.13162 1.26176e-17
8394.78921 1.30982e-17
8396.45685 1.35786e-17
8398.11444 1.33046e-17
8399.77203 1.30307e-17
8401.42962 1.28028e-17
8403.09725 1.25751e-17
8404.75484 1.27990e-17
8406.41243 1.30231e-17
8408.08007 1.36670e-17
8409.73766 1.43105e-17
8411.39525 1.37377e-17
8413.05284 1.31651e-17
8414.72047 1.32046e-17
8416.37806 1.32440e-17
8418.03565 1.28781e-17
8419.69324 1.25123e-17
8421.36088 1.24297e-17
8423.01847 1.23471e-17
8424.67606 1.25069e-17
8426.34370 1.26665e-17
8428.00129 1.19025e-17
8429.65888 1.11391e-17
8431.31647 1.17641e-17
8432.98410 1.23890e-17
8434.64169 1.28587e-17
8436.29928 1.33282e-17
8437.95687 1.32245e-17
8439.62451 1.31209e-17
8441.28210 1.29387e-17
8442.93969 1.27564e-17
8444.60732 1.19617e-17
8446.26491 1.11673e-17
8447.92250 1.14696e-17
8449.58009 1.17720e-17
8451.24773 1.24624e-17
8452.90532 1.31525e-17
8454.56291 1.33681e-17
8456.22050 1.35835e-17
8457.88814 1.30767e-17
8459.54573 1.25699e-17
8461.20332 1.23265e-17
8462.87095 1.20832e-17
8464.52854 1.22874e-17
8466.18613 1.24914e-17
8467.84372 1.25376e-17
8469.51136 1.25838e-17
8471.16895 1.25459e-17
8472.82654 1.25080e-17
8474.48413 1.24070e-17
8476.15176 1.23061e-17
8477.80935 1.25730e-17
8479.46694 1.28401e-17
8481.13458 1.36133e-17
8482.79217 1.43860e-17
8484.44976 1.37598e-17
8486.10735 1.31339e-17
8487.77499 1.31000e-17
8489.43258 1.30664e-17
8491.09017 1.38629e-17
8492.75780 1.46588e-17
8494.41539 1.40153e-17
8496.07298 1.33721e-17
8497.73057 1.35173e-17
8499.39821 1.36624e-17
8501.05580 1.37002e-17
8502.71339 1.37379e-17
8504.37098 1.37227e-17
8506.03861 1.37075e-17
8507.69620 1.36358e-17
8509.35379 1.35642e-17
8511.01138 1.37297e-17
8512.67902 1.38951e-17
8514.33661 1.37318e-17
8515.99420 1.35687e-17
8517.66184 1.39718e-17
8519.31943 1.43747e-17
8520.97702 1.39951e-17
8522.63461 1.36155e-17
8524.30224 1.33190e-17
8525.95983 1.30229e-17
8527.61742 1.37430e-17
8529.28506 1.44630e-17
8530.94265 1.49615e-17
8532.60024 1.54596e-17
8534.25783 1.46904e-17
8535.92546 1.39216e-17
8537.58305 1.46447e-17
8539.24064 1.53674e-17
8540.89823 1.49271e-17
8542.56587 1.44870e-17
8544.22346 1.44499e-17
8545.88105 1.44129e-17
8547.54869 1.44556e-17
8549.20628 1.44986e-17
8550.86387 1.51976e-17
8552.52146 1.58963e-17
8554.18909 1.58867e-17
8555.84668 1.58773e-17
8557.50427 1.62623e-17
8559.17191 1.66470e-17
8560.82950 1.62849e-17
8562.48709 1.59229e-17
8564.14468 1.56395e-17
8565.81231 1.53565e-17
8567.46990 1.58383e-17
8569.12749 1.63200e-17
8570.78508 1.62777e-17
8572.45272 1.62352e-17
8574.11031 1.57317e-17
8575.76790 1.52282e-17
8577.43554 1.49139e-17
8579.09313 1.45999e-17
8580.75072 1.49947e-17
8582.40831 1.53892e-17
8584.07594 1.52202e-17
8585.73353 1.50514e-17
8587.39112 1.54265e-17
8589.04871 1.58017e-17
8590.71635 1.62370e-17
8592.37394 1.66721e-17
8594.03153 1.62170e-17
8595.69916 1.57621e-17
8597.35675 1.55061e-17
8599.01434 1.52501e-17
8600.67193 1.53740e-17
8602.33957 1.54980e-17
8603.99716 1.62443e-17
8605.65475 1.69902e-17
8607.32239 1.66969e-17
8608.97998 1.64034e-17
8610.63757 1.59675e-17
8612.29516 1.55318e-17
8613.96279 1.55660e-17
8615.62038 1.56003e-17
8617.27797 1.56664e-17
8618.93556 1.57325e-17
8620.60320 1.56742e-17
8622.26079 1.56162e-17
8623.91838 1.63013e-17
8625.58601 1.69864e-17
8627.24360 1.72974e-17
8628.90119 1.76081e-17
8630.55878 1.71010e-17
8632.22642 1.65940e-17
8633.88401 1.62678e-17
8635.54160 1.59419e-17
8637.20924 1.65256e-17
8638.86683 1.71092e-17
8640.52442 1.73744e-17
8642.18201 1.76391e-17
8643.84964 1.64858e-17
8645.50723 1.53330e-17
8647.16482 1.55253e-17
8648.82241 1.57179e-17
8650.49005 1.64664e-17
8652.14764 1.72147e-17
8653.80523 1.72139e-17
8655.46282 1.72130e-17
8657.13045 1.69265e-17
8658.78804 1.66402e-17
8660.44563 1.69252e-17
8662.11327 1.72098e-17
8663.77086 1.65858e-17
8665.42845 1.59620e-17
8667.08604 1.61075e-17
8668.75368 1.62529e-17
8670.41127 1.62038e-17
8672.06886 1.61548e-17
8673.73649 1.63274e-17
8675.39408 1.64997e-17
8677.05167 1.60980e-17
8678.70926 1.56967e-17
8680.37690 1.59898e-17
8682.03449 1.62827e-17
8683.69208 1.64133e-17
8685.34967 1.65435e-17
8687.01730 1.59830e-17
8688.67489 1.54230e-17
8690.33248 1.59508e-17
8691.99007 1.64785e-17
8693.65771 1.66792e-17
8695.31530 1.68797e-17
8696.97289 1.64677e-17
8698.64053 1.60558e-17
8700.29812 1.61640e-17
8701.95571 1.62723e-17
8703.61330 1.65773e-17
8705.28093 1.68821e-17
8706.93852 1.65960e-17
8708.59611 1.63099e-17
8710.26375 1.60236e-17
8711.92134 1.57376e-17
8713.57893 1.61058e-17
8715.23652 1.64738e-17
8716.90415 1.62714e-17
8718.56174 1.60689e-17
8720.21933 1.58005e-17
8721.87692 1.55321e-17
8723.54456 1.56317e-17
8725.20215 1.57314e-17
8726.85974 1.60252e-17
8728.52738 1.63190e-17
8730.18497 1.67195e-17
8731.84256 1.71196e-17
8733.50015 1.66391e-17
8735.16778 1.61590e-17
8736.82537 1.64727e-17
8738.48296 1.67862e-17
8740.14055 1.64190e-17
8741.80819 1.60521e-17
8743.46578 1.64099e-17
8745.12337 1.67672e-17
8746.79100 1.59647e-17
8748.44859 1.51626e-17
8750.10618 1.54548e-17
8751.76377 1.57473e-17
8753.43141 1.68972e-17
8755.08900 1.80466e-17
8756.74659 1.81545e-17
8758.40418 1.82619e-17
8760.07182 1.70111e-17
8761.72941 1.57608e-17
8763.38700 1.55895e-17
8765.05463 1.54183e-17
8766.71222 1.56319e-17
8768.36981 1.58453e-17
8770.02740 1.56025e-17
8771.69504 1.53599e-17
8773.35263 1.53897e-17
8775.01022 1.54195e-17
8776.67785 1.53624e-17
8778.33544 1.53053e-17
8779.99303 1.52952e-17
8781.65062 1.52852e-17
8783.31826 1.54578e-17
8784.97585 1.56301e-17
8786.63344 1.49295e-17
8788.29103 1.42290e-17
8789.95867 1.39460e-17
8791.61626 1.36635e-17
8793.27385 1.45958e-17
8794.94148 1.55276e-17
8796.59907 1.50819e-17
8798.25666 1.46364e-17
8799.91425 1.45471e-17
8801.58189 1.44577e-17
8803.23948 1.43806e-17
8804.89707 1.43034e-17
8806.56470 1.43540e-17
8808.22229 1.44047e-17
8809.87988 1.46422e-17
8811.53747 1.48796e-17
8813.20511 1.49149e-17
8814.86270 1.49502e-17
8816.52029 1.51334e-17
8818.17788 1.53166e-17
8819.84552 1.53960e-17
8821.50311 1.54754e-17
8823.16070 1.54503e-17
8824.82833 1.54253e-17
8826.48592 1.54127e-17
8828.14351 1.53995e-17
8829.80110 1.40525e-17
8831.46874 1.27065e-17
8833.12633 1.39109e-17
8834.78392 1.51148e-17
8836.44151 1.48283e-17
8838.10914 1.45418e-17
8839.76673 1.45188e-17
8841.42432 1.44957e-17
8843.09196 1.42278e-17
8844.74955 1.39599e-17
8846.40714 1.39425e-17
8848.06473 1.39252e-17
8849.73237 1.39306e-17
8851.38996 1.39362e-17
8853.04755 1.42686e-17
8854.71518 1.46006e-17
8856.37277 1.41938e-17
8858.03036 1.37871e-17
8859.68795 1.35063e-17
8861.35559 1.32257e-17
8863.01318 1.32000e-17
8864.67077 1.31743e-17
8866.32836 1.33851e-17
8867.99599 1.35959e-17
8869.65358 1.39093e-17
8871.31117 1.42227e-17
8872.97881 1.42077e-17
8874.63640 1.41925e-17
8876.29399 1.36808e-17
8877.95158 1.31695e-17
8879.61922 1.35864e-17
8881.27681 1.40030e-17
8882.93440 1.38589e-17
8884.60203 1.37150e-17
8886.25962 1.40979e-17
8887.91721 1.44807e-17
8889.57480 1.45508e-17
8891.24244 1.46207e-17
8892.90003 1.38392e-17
8894.55762 1.30580e-17
8896.21521 1.33433e-17
8897.88284 1.36286e-17
8899.54043 1.36327e-17
8901.19802 1.36367e-17
8902.85561 1.35567e-17
8904.52325 1.34767e-17
8906.18084 1.34243e-17
8907.83843 1.33717e-17
8909.50607 1.28188e-17
8911.16366 1.22663e-17
8912.82125 1.24057e-17
8914.47884 1.25449e-17
8916.14647 1.21471e-17
8917.80406 1.17497e-17
8919.46165 1.23085e-17
8921.11924 1.28670e-17
8922.78688 1.26986e-17
8924.44447 1.25307e-17
8926.10206 1.34841e-17
8927.76969 1.44370e-17
8929.42728 1.42865e-17
8931.08487 1.41356e-17
8932.74246 1.28873e-17
8934.41010 1.16394e-17
8936.06769 1.15724e-17
8937.72528 1.15058e-17
8939.38287 1.22118e-17
8941.05051 1.29173e-17
8942.70810 1.20892e-17
8944.36569 1.12615e-17
8946.03332 1.14855e-17
8947.69091 1.17092e-17
8949.34850 1.14202e-17
8951.00609 1.11316e-17
8952.67373 1.16412e-17
8954.33132 1.21502e-17
8955.98891 1.13006e-17
8957.64650 1.04514e-17
8959.31413 1.09212e-17
8960.97172 1.13909e-17
8962.62931 1.17281e-17
8964.29695 1.20653e-17
8965.95454 1.25641e-17
8967.61213 1.30626e-17
8969.26972 1.27112e-17
8970.93736 1.23598e-17
8972.59495 1.23006e-17
8974.25254 1.22413e-17
8975.92017 1.21375e-17
8977.57776 1.20336e-17
8979.23535 1.17322e-17
8980.89294 1.14311e-17
8982.56058 1.17000e-17
8984.21817 1.19689e-17
8985.87576 1.23102e-17
8987.53335 1.26511e-17
8989.20098 1.20960e-17
8990.85857 1.15412e-17
8992.51616 1.13567e-17
8994.18380 1.11724e-17
8995.84139 1.14041e-17
8997.49898 1.16357e-17
8999.15657 1.18514e-17
9000.82421 1.20671e-17
9002.48180 1.24496e-17
9004.13939 1.28319e-17
9005.79698 1.26749e-17
9007.46461 1.25179e-17
9009.12220 1.24382e-17
9010.77979 1.23586e-17
9012.44743 1.27122e-17
9014.10502 1.30655e-17
9015.76261 1.24114e-17
9017.42020 1.17576e-17
9019.08783 1.18787e-17
9020.74542 1.19996e-17
9022.40301 1.16619e-17
9024.07065 1.13243e-17
9025.72824 1.14235e-17
9027.38583 1.15228e-17
9029.04342 1.17644e-17
9030.71106 1.20060e-17
9032.36865 1.25268e-17
9034.02624 1.30471e-17
9035.68383 1.23601e-17
9037.35146 1.16732e-17
9039.00905 1.14610e-17
9040.66664 1.12490e-17
9042.33428 1.16439e-17
9043.99187 1.20385e-17
9045.64946 1.15038e-17
9047.30705 1.09691e-17
9048.97468 1.04055e-17
9050.63227 9.84240e-18
9052.28986 1.07097e-17
9053.95750 1.15767e-17
9055.61509 1.17040e-17
9057.27268 1.18310e-17
9058.93027 1.11970e-17
9060.59791 1.05632e-17
9062.25550 1.04272e-17
9063.91309 1.02914e-17
9065.57068 1.04269e-17
9067.23831 1.05622e-17
9068.89590 1.01120e-17
9070.55349 9.66219e-18
9072.21108 1.01636e-17
9073.87872 1.06649e-17
9075.53631 1.06729e-17
9077.19390 1.06810e-17
9078.86153 1.07819e-17
9080.51912 1.08824e-17
9082.17671 1.00205e-17
9083.83430 9.15934e-18
9085.50194 9.79449e-18
9087.15953 1.04295e-17
9088.81712 1.08361e-17
9090.48476 1.12423e-17
9092.14235 1.08596e-17
9093.79994 1.04775e-17
9095.45753 1.12290e-17
9097.12516 1.19798e-17
9098.78275 1.11566e-17
9100.44034 1.03340e-17
9102.09793 1.08465e-17
9103.76557 1.13592e-17
9105.42316 1.23672e-17
9107.08075 1.33745e-17
9108.74838 1.28394e-17
9110.40597 1.23042e-17
9112.06356 1.15819e-17
9113.72115 1.08598e-17
9115.38879 1.06464e-17
9117.04638 1.04332e-17
9118.70397 1.06814e-17
9120.36156 1.09294e-17
9122.02920 1.08018e-17
9123.68679 1.06743e-17
9125.34438 1.09200e-17
9127.01201 1.11657e-17
9128.66960 1.14868e-17
9130.32719 1.18079e-17
9131.98478 1.19720e-17
9133.65242 1.21361e-17
9135.31001 1.21142e-17
9136.96760 1.20923e-17
9138.63523 1.23011e-17
9140.29282 1.25097e-17
9141.95041 1.21093e-17
9143.60800 1.17091e-17
9145.27564 1.17988e-17
9146.93323 1.18883e-17
9148.59082 1.17174e-17
9150.24841 1.15465e-17
9151.91605 1.10703e-17
9153.57364 1.05946e-17
9155.23123 1.14455e-17
9156.89886 1.22960e-17
9158.55645 1.23884e-17
9160.21404 1.24807e-17
9161.87163 1.22596e-17
9163.53927 1.20384e-17
9165.19686 1.13627e-17
9166.85445 1.06874e-17
9168.51204 1.11691e-17
9170.17967 1.16505e-17
9171.83726 1.16697e-17
9173.49485 1.16889e-17
9175.15244 1.15584e-17
9176.82008 1.14283e-17
9178.47767 1.20333e-17
9180.13526 1.26381e-17
9181.80290 1.28154e-17
9183.46049 1.29925e-17
9185.11808 1.27606e-17
9186.77567 1.25289e-17
9188.44330 1.26770e-17
9190.10089 1.28250e-17
9191.75848 1.26465e-17
9193.42612 1.24680e-17
9195.08371 1.19567e-17
9196.74130 1.14460e-17
9198.39889 1.21831e-17
9200.06652 1.29200e-17
9201.72411 1.29473e-17
9203.38170 1.29743e-17
9205.03929 1.23673e-17
9206.70693 1.17606e-17
9208.36452 1.17446e-17
9210.02211 1.17288e-17
9211.68975 1.22413e-17
9213.34734 1.27535e-17
9215.00493 1.26125e-17
9216.66252 1.24715e-17
9218.33015 1.22409e-17
9219.98774 1.20103e-17
9221.64533 1.17661e-17
9223.31297 1.15220e-17
9224.97056 1.17082e-17
9226.62815 1.18941e-17
9228.28574 1.12269e-17
9229.95337 1.05605e-17
9231.61096 1.16395e-17
9233.26855 1.27182e-17
9234.92614 1.32401e-17
9236.59378 1.37615e-17
9238.25137 1.29744e-17
9239.90896 1.21875e-17
9241.56655 1.17819e-17
9243.23419 1.13768e-17
9244.89178 1.21747e-17
9246.54937 1.29721e-17
9248.21700 1.23770e-17
9249.87459 1.17822e-17
9251.53218 1.18247e-17
9253.18977 1.18672e-17
9254.85741 1.17324e-17
9256.51500 1.15978e-17
9258.17259 1.17597e-17
9259.84022 1.19217e-17
9261.49781 1.22178e-17
9263.15540 1.25137e-17
9264.81299 1.22961e-17
9266.48063 1.20782e-17
9268.13822 1.13133e-17
9269.79581 1.05491e-17
9271.45340 1.14261e-17
9273.12104 1.23025e-17
9274.77863 1.18856e-17
9276.43622 1.14692e-17
9278.10385 1.21003e-17
9279.76144 1.27308e-17
9281.41903 1.21124e-17
9283.07662 1.14944e-17
9284.74426 1.15108e-17
9286.40185 1.15272e-17
9288.05944 1.18183e-17
9289.71703 1.21089e-17
9291.38466 1.11503e-17
9293.04225 1.01921e-17
9294.69984 1.04777e-17
9296.36748 1.07633e-17
9298.02507 1.11795e-17
9299.68266 1.15955e-17
9301.34025 1.16174e-17
9303.00789 1.16393e-17
9304.66548 1.15718e-17
9306.32307 1.15041e-17
9307.99070 1.10451e-17
9309.64829 1.05862e-17
9311.30588 1.03706e-17
9312.96347 1.01552e-17
9314.63111 1.03597e-17
9316.28870 1.05638e-17
9317.94629 9.91192e-18
9319.60388 9.26000e-18
9321.27151 8.38616e-18
9322.92910 7.51311e-18
9324.58669 8.44511e-18
9326.25433 9.37674e-18
9327.91192 9.50527e-18
9329.56951 9.63387e-18
9331.22710 9.93634e-18
9332.89474 1.02385e-17
9334.55233 9.72795e-18
9336.20992 9.21769e-18
9337.87755 9.39668e-18
9339.53514 9.57564e-18
9341.19273 9.67709e-18
9342.85032 9.77877e-18
9344.51796 1.03212e-17
9346.17555 1.08636e-17
9347.83314 1.09933e-17
9349.49073 1.11225e-17
9351.15836 9.75172e-18
9352.81595 8.38148e-18
9354.47354 8.14024e-18
9356.13113 7.89965e-18
9357.79877 9.19100e-18
9359.45636 1.04818e-17
9361.11395 1.03609e-17
9362.78159 1.02403e-17
9364.43918 1.08128e-17
9366.09677 1.13850e-17
9367.75436 1.13845e-17
9369.42199 1.13839e-17
9371.07958 1.12979e-17
9372.73717 1.12113e-17
9374.40481 9.56258e-18
9376.06240 7.91458e-18
9377.71999 7.95712e-18
9379.37758 7.99992e-18
9381.04521 8.68727e-18
9382.70280 9.37432e-18
9384.36039 9.40801e-18
9386.01798 9.44168e-18
9387.68562 9.44741e-18
9389.34321 9.45307e-18
9391.00080 9.41587e-18
9392.66844 9.37890e-18
9394.32603 9.81224e-18
9395.98362 1.02452e-17
9397.64121 9.80127e-18
9399.30884 9.35752e-18
9400.96643 9.38431e-18
9402.62402 9.41113e-18
9404.28161 9.53599e-18
9405.94925 9.66069e-18
9407.60684 9.41050e-18
9409.26443 9.16065e-18
9410.93206 9.65702e-18
9412.58965 1.01532e-17
9414.24724 1.02466e-17
9415.90483 1.03398e-17
9417.57247 9.94699e-18
9419.23006 9.55429e-18
9420.88765 9.44132e-18
9422.54524 9.32821e-18
9424.21288 8.92206e-18
9425.87047 8.51656e-18
9427.52806 9.61959e-18
9429.19569 1.07218e-17
9430.85328 1.00530e-17
9432.51087 9.38437e-18
9434.16846 9.17119e-18
9435.83610 8.95759e-18
9437.49369 7.78232e-18
9439.15128 6.60734e-18
9440.80887 6.17280e-18
9442.47650 5.73927e-18
9444.13409 7.66744e-18
9445.79168 9.59477e-18
9447.45932 9.55956e-18
9449.11691 9.52446e-18
9450.77450 9.76269e-18
9452.43209 1.00006e-17
9454.09973 9.42455e-18
9455.75732 8.84854e-18
9457.41491 8.14171e-18
9459.07250 7.43530e-18
9460.74013 7.62599e-18
9462.39772 7.81687e-18
9464.05531 8.49305e-18
9465.72295 9.16854e-18
9467.38054 8.26464e-18
9469.03813 7.36143e-18
9470.69572 8.01943e-18
9472.36335 8.67747e-18
9474.02094 9.41921e-18
9475.67853 1.01608e-17
9477.34617 1.05416e-17
9479.00376 1.09221e-17
9480.66135 1.05099e-17
9482.31894 1.00979e-17
9483.98658 1.01075e-17
9485.64417 1.01169e-17
9487.30176 9.43352e-18
9488.95935 8.75040e-18
9490.62698 8.67888e-18
9492.28457 8.60733e-18
9493.94216 8.38456e-18
9495.60980 8.16237e-18
9497.26739 9.24923e-18
9498.92498 1.03354e-17
9500.58257 9.85543e-18
9502.25020 9.37569e-18
9503.90779 9.51817e-18
9505.56538 9.66072e-18
9507.23302 9.88549e-18
9508.89061 1.01098e-17
9510.54820 9.38896e-18
9512.20579 8.66824e-18
9513.87343 8.35793e-18
9515.53102 8.04766e-18
9517.18861 7.89182e-18
9518.84620 7.73647e-18
9520.51383 8.72424e-18
9522.17142 9.71128e-18
9523.82901 9.11114e-18
9525.49665 8.51138e-18
9527.15424 8.73760e-18
9528.81183 8.96358e-18
9530.46942 8.62449e-18
9532.13705 8.28573e-18
9533.79464 8.68203e-18
9535.45223 9.07816e-18
9537.10982 9.17080e-18
9538.77746 9.26347e-18
9540.43505 9.48359e-18
9542.09264 9.70358e-18
9543.76028 9.59984e-18
9545.41787 9.49581e-18
9547.07546 8.73449e-18
9548.73305 7.97333e-18
9550.40068 7.58482e-18
9552.05827 7.19730e-18
9553.71586 9.07619e-18
9555.37345 1.09539e-17
9557.04109 1.00966e-17
9558.69868 9.23970e-18
9560.35627 9.11700e-18
9562.02390 8.99453e-18
9563.68149 9.36047e-18
9565.33908 9.72601e-18
9566.99667 9.22106e-18
9568.66431 8.71638e-18
9570.32190 8.78921e-18
9571.97949 8.86213e-18
9573.64713 9.08667e-18
9575.30472 9.31079e-18
9576.96231 8.60501e-18
9578.61990 7.89955e-18
9580.28753 7.89844e-18
9581.94512 7.89745e-18
9583.60271 8.14832e-18
9585.27035 8.39897e-18
9586.92794 8.08493e-18
9588.58553 7.77099e-18
9590.24312 7.65772e-18
9591.91075 7.54481e-18
9593.56834 8.25609e-18
9595.22593 8.96692e-18
9596.88352 8.63680e-18
9598.55116 8.30708e-18
9600.20875 8.89121e-18
9601.86634 9.47508e-18
9603.52393 9.45972e-18
9605.19157 9.44453e-18
9606.84916 9.84878e-18
9608.50675 1.02524e-17
9610.17438 9.18858e-18
9611.83197 8.12524e-18
9613.48956 8.08548e-18
9615.14715 8.04570e-18
9616.81479 7.95840e-18
9618.47238 7.87119e-18
9620.12997 8.01711e-18
9621.79760 8.16306e-18
9623.45519 8.34929e-18
9625.11278 8.53552e-18
9626.77037 8.71317e-18
9628.43801 8.89082e-18
9630.09560 9.12476e-18
9631.75319 9.35857e-18
9633.41078 9.33522e-18
9635.07842 9.31207e-18
9636.73601 9.80903e-18
9638.39360 1.03055e-17
9640.06123 9.70437e-18
9641.71882 9.10364e-18
9643.37641 9.31164e-18
9645.03400 9.51916e-18
9646.70164 8.68664e-18
9648.35923 7.85475e-18
9650.01682 8.39749e-18
9651.67441 8.93994e-18
9653.34204 8.86639e-18
9654.99963 8.79261e-18
9656.65722 8.18120e-18
9658.31481 7.57022e-18
9659.98245 7.82394e-18
9661.64004 8.07795e-18
9663.29763 8.94148e-18
9664.96527 9.80411e-18
9666.62286 8.63422e-18
9668.28045 7.46514e-18
9669.93804 8.07903e-18
9671.60567 8.69293e-18
9673.26326 9.32081e-18
9674.92085 9.94846e-18
9676.58849 1.01119e-17
9678.24608 1.02751e-17
9679.90367 9.82016e-18
9681.56126 9.36590e-18
9683.22889 1.03431e-17
9684.88648 1.13195e-17
9686.54407 1.05552e-17
9688.20166 9.79075e-18
9689.86930 8.71854e-18
9691.52689 7.64730e-18
9693.18448 8.66955e-18
9694.85212 9.69140e-18
9696.50971 9.82409e-18
9698.16730 9.95704e-18
9699.82489 1.06788e-17
9701.49252 1.13994e-17
9703.15011 9.33689e-18
9704.80770 7.27557e-18
9706.46529 7.72642e-18
9708.13293 8.17717e-18
9709.79052 8.36638e-18
9711.44811 8.55513e-18
9713.11574 7.65228e-18
9714.77333 6.75025e-18
9716.43092 7.66836e-18
9718.08851 8.58644e-18
9719.75615 9.42200e-18
9721.41374 1.02568e-17
9723.07133 9.44970e-18
9724.73897 8.64309e-18
9726.39656 8.81494e-18
9728.05415 8.98683e-18
9729.71174 9.25339e-18
9731.37937 9.51955e-18
9733.03696 8.98532e-18
9734.69455 8.45143e-18
9736.35214 8.68389e-18
9738.01978 8.91639e-18
9739.67737 9.30244e-18
9741.33496 9.68829e-18
9743.00259 9.68184e-18
9744.66018 9.67519e-18
9746.31777 9.17813e-18
9747.97536 8.68111e-18
9749.64300 8.25763e-18
9751.30059 7.83475e-18
9752.95818 8.69932e-18
9754.62582 9.56313e-18
9756.28341 8.87071e-18
9757.94100 8.17875e-18
9759.59859 8.50441e-18
9761.26622 8.83001e-18
9762.92381 9.07096e-18
9764.58140 9.31174e-18
9766.23899 9.15786e-18
9767.90663 9.00428e-18
9769.56422 9.41636e-18
9771.22181 9.82812e-18
9772.87940 9.50137e-18
9774.54703 9.17460e-18
9776.20462 8.66886e-18
9777.86221 8.16316e-18
9779.52985 7.73667e-18
9781.18744 7.31074e-18
9782.84503 8.07550e-18
9784.50262 8.83986e-18
9786.17026 8.66215e-18
9787.82785 8.48551e-18
9789.48544 1.05864e-17
9791.15307 1.26857e-17
9792.81066 1.16253e-17
9794.46825 1.05652e-17
9796.12584 1.00266e-17
9797.79348 9.48847e-18
9799.45107 9.81040e-18
9801.10866 1.01313e-17
9802.76625 8.31536e-18
9804.43388 6.50000e-18
9806.09147 5.90418e-18
9807.74906 5.30931e-18
9809.41670 6.69756e-18
9811.07429 8.08529e-18
9812.73188 8.37391e-18
9814.38947 8.66251e-18
9816.05711 8.95811e-18
9817.71470 9.25345e-18
9819.37229 9.02580e-18
9821.03992 8.79795e-18
9822.69751 8.10245e-18
9824.35510 7.40776e-18
9826.01269 8.43662e-18
9827.68033 9.46476e-18
9829.33792 8.89782e-18
9830.99551 8.33131e-18
9832.65310 8.64597e-18
9834.32073 8.96034e-18
9835.97832 8.70590e-18
9837.63591 8.45133e-18
9839.30355 7.91219e-18
9840.96114 7.37381e-18
9842.61873 8.39697e-18
9844.27632 9.42016e-18
9845.94396 1.04957e-17
9847.60155 1.15705e-17
9849.25914 1.10761e-17
9850.91673 1.05817e-17
9852.58436 1.00803e-17
9854.24195 9.57892e-18
9855.89954 9.13471e-18
9857.56718 8.69070e-18
9859.22477 8.61732e-18
9860.88236 8.54397e-18
9862.53995 8.52226e-18
9864.20758 8.50133e-18
9865.86517 1.01689e-17
9867.52276 1.18356e-17
9869.18035 1.14057e-17
9870.84799 1.09761e-17
9872.50558 1.13678e-17
9874.16317 1.17597e-17
9875.83081 1.28288e-17
9877.48840 1.38965e-17
9879.14599 1.20819e-17
9880.80358 1.02673e-17
9882.47121 8.52553e-18
9884.12880 6.78522e-18
9885.78639 8.19532e-18
9887.44398 9.60511e-18
9889.11162 1.03564e-17
9890.76921 1.11073e-17
9892.42680 1.13363e-17
9894.09443 1.15653e-17
9895.75202 1.19138e-17
9897.40961 1.22621e-17
9899.06720 1.24478e-17
9900.73484 1.26324e-17
9902.39243 1.04346e-17
9904.05002 8.23776e-18
9905.70761 8.02530e-18
9907.37525 7.81277e-18
9909.03284 7.48020e-18
9910.69043 7.14779e-18
9912.35806 7.23382e-18
9914.01565 7.32040e-18
9915.67324 8.55405e-18
9917.33083 9.78689e-18
9918.99847 9.36034e-18
9920.65606 8.93411e-18
9922.31365 9.12692e-18
9923.98128 9.31980e-18
9925.63887 9.56510e-18
9927.29646 9.81053e-18
9928.95405 1.02769e-17
9930.62169 1.07420e-17
9932.27928 8.59440e-18
9933.93687 6.44751e-18
9935.59446 5.84376e-18
9937.26210 5.24129e-18
9938.91969 7.26790e-18
9940.57728 9.29393e-18
9942.23487 1.01243e-17
9943.90250 1.09542e-17
9945.56009 1.09602e-17
9947.21768 1.09655e-17
9948.88532 9.44950e-18
9950.54291 7.93508e-18
9952.20050 9.68387e-18
9953.85809 1.14318e-17
9955.52572 1.14048e-17
9957.18331 1.13772e-17
9958.84090 1.01544e-17
9960.50854 8.93191e-18
9962.16613 8.39874e-18
9963.82372 7.86572e-18
9965.48131 7.56069e-18
9967.14895 7.25549e-18
9968.80654 6.51942e-18
9970.46413 5.78357e-18
9972.12172 5.43198e-18
9973.78935 5.08057e-18
9975.44694 5.12793e-18
9977.10453 5.17596e-18
9978.77217 6.62015e-18
9980.42976 8.06358e-18
9982.08735 7.98954e-18
9983.74494 7.91579e-18
9985.41257 8.46089e-18
9987.07016 9.00608e-18
9988.72775 9.85730e-18
9990.39539 1.07079e-17
9992.05298 1.04255e-17
9993.71057 1.01427e-17
9995.36816 9.12951e-18
9997.03580 8.11591e-18
9998.69339 6.27837e-18
