# wavelength flux
3719.99603 4.03635e-18
3721.49933 3.70979e-18
3723.00263 4.11618e-18
3724.49590 4.12512e-18
3725.99920 3.99281e-18
3727.50250 3.81271e-18
3728.99578 3.88306e-18
3730.49908 3.78769e-18
3732.00238 3.67620e-18
3733.49566 3.76590e-18
3734.99896 3.70965e-18
3736.50226 3.65722e-18
3737.99554 3.91463e-18
3739.49884 3.78734e-18
3741.00214 3.55369e-18
3742.49542 3.50939e-18
3743.99872 3.57354e-18
3745.50202 3.90171e-18
3746.99529 3.94776e-18
3748.49859 3.78637e-18
3750.00189 3.83676e-18
3751.49517 3.87271e-18
3752.99847 4.06233e-18
3754.50177 4.05678e-18
3755.99505 3.85893e-18
3757.49835 3.87747e-18
3759.00165 3.69309e-18
3760.50495 3.71167e-18
3761.99823 3.64213e-18
3763.50153 3.22732e-18
3765.00483 3.38206e-18
3766.49811 3.51378e-18
3768.00141 3.98153e-18
3769.50471 3.81452e-18
3770.99798 3.71281e-18
3772.50128 3.56165e-18
3774.00458 3.37749e-18
3775.49786 3.70084e-18
3777.00116 3.63675e-18
3778.50446 3.52747e-18
3779.99774 3.41252e-18
3781.50104 3.40867e-18
3783.00434 3.49413e-18
3784.49762 3.23509e-18
3786.00092 3.60877e-18
3787.50422 3.38000e-18
3788.99750 3.32461e-18
3790.50080 3.39565e-18
3792.00410 3.61931e-18
3793.49737 3.64646e-18
3795.00067 3.53993e-18
3796.50397 3.57255e-18
3797.99725 3.55750e-18
3799.50055 3.66676e-18
3801.00385 3.71286e-18
3802.49713 3.58359e-18
3804.00043 3.47930e-18
3805.50373 3.81186e-18
3806.99701 3.75077e-18
3808.50031 3.48257e-18
3810.00361 3.51799e-18
3811.49689 3.54312e-18
3813.00019 3.49910e-18
3814.50349 3.41026e-18
3815.99676 3.47533e-18
3817.50006 3.65769e-18
3819.00336 3.83857e-18
3820.49664 3.91010e-18
3821.99994 3.79395e-18
3823.50324 3.87465e-18
3824.99652 4.01880e-18
3826.49982 3.81228e-18
3828.00312 3.78720e-18
3829.49640 3.82647e-18
3830.99970 3.79730e-18
3832.50300 3.93502e-18
3833.99628 3.83743e-18
3835.49958 3.91799e-18
3837.00288 4.11517e-18
3838.49615 4.30995e-18
3839.99945 4.13882e-18
3841.50275 4.07681e-18
3842.99603 4.22145e-18
3844.49933 4.43886e-18
3846.00263 4.31964e-18
3847.49591 4.18964e-18
3848.99921 4.22674e-18
3850.50251 4.67002e-18
3851.99579 4.62916e-18
3853.49909 4.75711e-18
3855.00239 4.43881e-18
3856.49567 4.54301e-18
3857.99897 4.62807e-18
3859.50227 4.78603e-18
3860.99554 4.85480e-18
3862.49884 4.91551e-18
3864.00214 4.77198e-18
3865.49542 4.65127e-18
3866.99872 4.80542e-18
3868.50202 5.04930e-18
3869.99530 5.38007e-18
3871.49860 5.41772e-18
3873.00190 5.34942e-18
3874.49518 5.57723e-18
3875.99848 5.57960e-18
3877.50178 5.52334e-18
3878.99506 5.65957e-18
3880.49836 5.69415e-18
3882.00166 5.66765e-18
3883.50496 5.58943e-18
3884.99823 5.69916e-18
3886.50153 5.92076e-18
3888.00483 5.88092e-18
3889.49811 5.81572e-18
3891.00141 5.99701e-18
3892.50471 6.07558e-18
3893.99799 5.90814e-18
3895.50129 5.89205e-18
3897.00459 5.90237e-18
3898.49787 5.90443e-18
3900.00117 5.91917e-18
3901.50447 6.11422e-18
3902.99775 6.26944e-18
3904.50105 6.14905e-18
3906.00435 6.23599e-18
3907.49762 6.37244e-18
3909.00092 6.40475e-18
3910.50422 6.49186e-18
3911.99750 6.40554e-18
3913.50080 6.39500e-18
3915.00410 6.80785e-18
3916.49738 6.39747e-18
3918.00068 6.47619e-18
3919.50398 6.71391e-18
3920.99726 6.74255e-18
3922.50056 6.18082e-18
3924.00386 6.42582e-18
3925.49714 6.45915e-18
3927.00044 6.49002e-18
3928.50374 6.56361e-18
3929.99701 6.39777e-18
3931.50031 6.28731e-18
3933.00361 6.40192e-18
3934.49689 6.48032e-18
3936.00019 6.74934e-18
3937.50349 6.70869e-18
3938.99677 6.72028e-18
3940.50007 6.66155e-18
3942.00337 6.71837e-18
3943.49665 6.67193e-18
3944.99995 6.80959e-18
3946.50325 6.98179e-18
3947.99653 7.00391e-18
3949.49983 6.94543e-18
3951.00313 6.84311e-18
3952.49640 7.00288e-18
3953.99970 7.18545e-18
3955.50300 7.18113e-18
3956.99628 7.17521e-18
3958.49958 7.21241e-18
3960.00288 7.15655e-18
3961.49616 7.24378e-18
3962.99946 7.33765e-18
3964.50276 7.36933e-18
3965.99604 7.36171e-18
3967.49934 7.18472e-18
3969.00264 7.09122e-18
3970.49592 7.17005e-18
3971.99922 7.15149e-18
3973.50252 7.11546e-18
3974.99579 7.18694e-18
3976.49909 7.29789e-18
3978.00239 7.03403e-18
3979.49567 7.16111e-18
3980.99897 7.34720e-18
3982.50227 7.02117e-18
3983.99555 7.18771e-18
3985.49885 7.49898e-18
3987.00215 7.42319e-18
3988.49543 7.35499e-18
3989.99873 7.43521e-18
3991.50203 7.64264e-18
3992.99531 7.55575e-18
3994.49861 7.41094e-18
3996.00191 7.58072e-18
3997.49518 7.52776e-18
3998.99848 7.11116e-18
4000.50178 7.20926e-18
4001.99506 7.31755e-18
4003.49836 7.45359e-18
4005.00166 7.37683e-18
4006.50496 7.51890e-18
4007.99824 7.59272e-18
4009.50154 7.48844e-18
4011.00484 7.37993e-18
4012.49812 7.48207e-18
4014.00142 7.41923e-18
4015.50472 7.50464e-18
4016.99800 7.62318e-18
4018.50130 7.53801e-18
4020.00460 7.54104e-18
4021.49787 7.57473e-18
4023.00117 7.37572e-18
4024.50447 7.30057e-18
4025.99775 7.28791e-18
4027.50105 7.29407e-18
4029.00435 7.12472e-18
4030.49763 7.07708e-18
4032.00093 7.16775e-18
4033.50423 7.08672e-18
4034.99751 7.07524e-18
4036.50081 6.97738e-18
4038.00411 6.99274e-18
4039.49739 7.17914e-18
4041.00069 7.22274e-18
4042.50399 7.15655e-18
4043.99726 7.15015e-18
4045.50056 6.93481e-18
4047.00386 6.81971e-18
4048.49714 6.70831e-18
4050.00044 7.01107e-18
4051.50374 7.07544e-18
4052.99702 7.05475e-18
4054.50032 7.06213e-18
4056.00362 7.05275e-18
4057.49690 6.93152e-18
4059.00020 6.76474e-18
4060.50350 6.85289e-18
4061.99678 6.91602e-18
4063.50008 6.83724e-18
4065.00338 6.73966e-18
4066.49665 6.63621e-18
4067.99995 7.00928e-18
4069.50325 6.91574e-18
4070.99653 6.73085e-18
4072.49983 6.68636e-18
4074.00313 6.81089e-18
4075.49641 6.78278e-18
4076.99971 6.69565e-18
4078.50301 6.96763e-18
4079.99629 7.07198e-18
4081.49959 6.73765e-18
4083.00289 6.57611e-18
4084.49617 6.61046e-18
4085.99947 6.50726e-18
4087.50277 6.58037e-18
4088.99604 6.50720e-18
4090.49934 6.49980e-18
4092.00264 6.75350e-18
4093.49592 6.75225e-18
4094.99922 6.75375e-18
4096.50252 6.86386e-18
4097.99580 6.78785e-18
4099.49910 6.67166e-18
4101.00240 6.65923e-18
4102.49568 6.74849e-18
4103.99898 6.68137e-18
4105.50228 6.70543e-18
4106.99556 6.73007e-18
4108.49886 6.68223e-18
4110.00216 6.73930e-18
4111.49543 6.74448e-18
4112.99873 6.83431e-18
4114.50203 6.96492e-18
4115.99531 6.77323e-18
4117.49861 6.58809e-18
4119.00191 6.63517e-18
4120.49519 6.49055e-18
4121.99849 6.35972e-18
4123.50179 6.54091e-18
4124.99507 6.78101e-18
4126.49837 6.95584e-18
4128.00167 6.85019e-18
4129.50497 6.99394e-18
4130.99825 6.68100e-18
4132.50155 6.71394e-18
4134.00485 6.87465e-18
4135.49812 6.75352e-18
4137.00142 6.69917e-18
4138.50472 6.88449e-18
4139.99800 6.82380e-18
4141.50130 6.80990e-18
4143.00460 6.74217e-18
4144.49788 6.68239e-18
4146.00118 6.89616e-18
4147.50448 6.94707e-18
4148.99776 6.74135e-18
4150.50106 6.82921e-18
4152.00436 6.73557e-18
4153.49764 6.81737e-18
4155.00094 6.78181e-18
4156.50424 6.87781e-18
4157.99751 6.84322e-18
4159.50081 6.87786e-18
4161.00411 6.99595e-18
4162.49739 7.00762e-18
4164.00069 6.87270e-18
4165.50399 6.86415e-18
4166.99727 6.89775e-18
4168.50057 6.94138e-18
4170.00387 6.98205e-18
4171.49715 6.89494e-18
4173.00045 6.94613e-18
4174.50375 6.95145e-18
4175.99703 7.05580e-18
4177.50033 7.04972e-18
4179.00363 6.92091e-18
4180.49690 7.00828e-18
4182.00020 7.10843e-18
4183.50350 7.13618e-18
4184.99678 7.19589e-18
4186.50008 7.30384e-18
4188.00338 7.19747e-18
4189.49666 7.17368e-18
4190.99996 7.14892e-18
4192.50326 7.15201e-18
4193.99654 7.11123e-18
4195.49984 7.26893e-18
4197.00314 7.26372e-18
4198.49642 7.43448e-18
4199.99972 7.48899e-18
4201.50302 7.63695e-18
4202.99629 7.66714e-18
4204.49959 7.32359e-18
4206.00289 7.46866e-18
4207.49617 7.40050e-18
4208.99947 7.31246e-18
4210.50277 7.37447e-18
4211.99605 7.50611e-18
4213.49935 7.64497e-18
4215.00265 7.44720e-18
4216.49593 7.37860e-18
4217.99923 7.69954e-18
4219.50253 7.77844e-18
4220.99581 7.52483e-18
4222.49911 7.50883e-18
4224.00241 7.70399e-18
4225.49568 7.76992e-18
4226.99898 7.83847e-18
4228.50228 7.67282e-18
4229.99556 7.74112e-18
4231.49886 7.90532e-18
4233.00216 7.81955e-18
4234.49544 7.58014e-18
4235.99874 7.62084e-18
4237.50204 7.93102e-18
4238.99532 8.03251e-18
4240.49862 7.91741e-18
4242.00192 7.73759e-18
4243.49520 7.83581e-18
4244.99850 8.01055e-18
4246.50180 8.02735e-18
4247.99507 8.05978e-18
4249.49837 7.99382e-18
4251.00167 7.80547e-18
4252.50497 7.90760e-18
4253.99825 8.06742e-18
4255.50155 8.12419e-18
4257.00485 7.92329e-18
4258.49813 7.82514e-18
4260.00143 7.95629e-18
4261.50473 8.06077e-18
4262.99801 8.03473e-18
4264.50131 8.05588e-18
4266.00461 8.13201e-18
4267.49789 8.04648e-18
4269.00119 8.05885e-18
4270.50449 7.98246e-18
4271.99776 7.86810e-18
4273.50106 8.09135e-18
4275.00436 8.01047e-18
4276.49764 8.04246e-18
4278.00094 8.30201e-18
4279.50424 8.00246e-18
4280.99752 7.90759e-18
4282.50082 8.38290e-18
4284.00412 8.47279e-18
4285.49740 8.38018e-18
4287.00070 8.14146e-18
4288.50400 8.20099e-18
4289.99728 8.48243e-18
4291.50058 8.41396e-18
4293.00388 8.43994e-18
4294.49715 8.39705e-18
4296.00045 8.44100e-18
4297.50375 8.47581e-18
4298.99703 8.38784e-18
4300.50033 8.52181e-18
4302.00363 8.44622e-18
4303.49691 8.16434e-18
4305.00021 8.15523e-18
4306.50351 8.26083e-18
4307.99679 8.44421e-18
4309.50009 8.46190e-18
4311.00339 8.36868e-18
4312.49667 8.35170e-18
4313.99997 8.38586e-18
4315.50327 8.54622e-18
4316.99654 8.60336e-18
4318.49984 8.69405e-18
4320.00314 8.63471e-18
4321.49642 8.65601e-18
4322.99972 8.83845e-18
4324.50302 8.82164e-18
4325.99630 8.72779e-18
4327.49960 8.61190e-18
4329.00290 8.61025e-18
4330.49618 8.58972e-18
4331.99948 8.50517e-18
4333.50278 8.57614e-18
4334.99606 8.64986e-18
4336.49936 8.80446e-18
4338.00266 8.81892e-18
4339.49593 8.68250e-18
4340.99923 8.65411e-18
4342.50253 8.82225e-18
4343.99581 8.74193e-18
4345.49911 8.55554e-18
4347.00241 8.76085e-18
4348.49569 8.85580e-18
4349.99899 8.73143e-18
4351.50229 8.82169e-18
4352.99557 8.81245e-18
4354.49887 8.69774e-18
4356.00217 8.59367e-18
4357.49545 8.78844e-18
4358.99875 8.69232e-18
4360.50205 8.61073e-18
4361.99532 8.75664e-18
4363.49862 8.81389e-18
4365.00192 8.89878e-18
4366.49520 8.84264e-18
4367.99850 8.96469e-18
4369.50180 8.93178e-18
4370.99508 8.96923e-18
4372.49838 8.89568e-18
4374.00168 8.93252e-18
4375.50498 9.23339e-18
4376.99826 9.36253e-18
4378.50156 9.33289e-18
4380.00486 9.16260e-18
4381.49814 9.06110e-18
4383.00144 9.16060e-18
4384.50474 9.27851e-18
4385.99801 9.33555e-18
4387.50131 9.43066e-18
4389.00461 9.49537e-18
4390.49789 9.62681e-18
4392.00119 9.64580e-18
4393.50449 9.53965e-18
4394.99777 9.61549e-18
4396.50107 9.67791e-18
4398.00437 9.70769e-18
4399.49765 9.70988e-18
4401.00095 9.76034e-18
4402.50425 9.89450e-18
4403.99753 1.00407e-17
4405.50083 1.00454e-17
4407.00413 1.00683e-17
4408.49740 1.02430e-17
4410.00070 1.02972e-17
4411.50400 1.01087e-17
4412.99728 1.00977e-17
4414.50058 1.02304e-17
4416.00388 1.00967e-17
4417.49716 1.02671e-17
4419.00046 1.03627e-17
4420.50376 1.04610e-17
4421.99704 1.03206e-17
4423.50034 1.04837e-17
4425.00364 1.04646e-17
4426.49692 1.04178e-17
4428.00022 1.05504e-17
4429.50352 1.07772e-17
4430.99679 1.08480e-17
4432.50009 1.06599e-17
4434.00339 1.07318e-17
4435.49667 1.09068e-17
4436.99997 1.09358e-17
4438.50327 1.10801e-17
4439.99655 1.10818e-17
4441.49985 1.11707e-17
4443.00315 1.12233e-17
4444.49643 1.11885e-17
4445.99973 1.14105e-17
4447.50303 1.14835e-17
4448.99631 1.16196e-17
4450.49961 1.17298e-17
4452.00291 1.16607e-17
4453.49618 1.17723e-17
4454.99948 1.18347e-17
4456.50278 1.17272e-17
4457.99606 1.18875e-17
4459.49936 1.20212e-17
4461.00266 1.20414e-17
4462.49594 1.22077e-17
4463.99924 1.24224e-17
4465.50254 1.25919e-17
4466.99582 1.25634e-17
4468.49912 1.24192e-17
4470.00242 1.23964e-17
4471.49570 1.25486e-17
4472.99900 1.27575e-17
4474.50230 1.27706e-17
4475.99557 1.27510e-17
4477.49887 1.27949e-17
4479.00217 1.28369e-17
4480.49545 1.30011e-17
4481.99875 1.30485e-17
4483.50205 1.31494e-17
4484.99533 1.31767e-17
4486.49863 1.32600e-17
4488.00193 1.33535e-17
4489.49521 1.35557e-17
4490.99851 1.35283e-17
4492.50181 1.40194e-17
4493.99509 1.38015e-17
4495.49839 1.36508e-17
4497.00169 1.41098e-17
4498.49496 1.40395e-17
4499.99826 1.38399e-17
4501.50156 1.40219e-17
4503.00486 1.39933e-17
4504.49814 1.41275e-17
4506.00144 1.42529e-17
4507.50474 1.42999e-17
4508.99802 1.44892e-17
4510.50132 1.46518e-17
4512.00462 1.45485e-17
4513.49790 1.45273e-17
4515.00120 1.47054e-17
4516.50450 1.46604e-17
4517.99778 1.47857e-17
4519.50108 1.47515e-17
4521.00438 1.48605e-17
4522.49765 1.49291e-17
4524.00095 1.48970e-17
4525.50425 1.49205e-17
4526.99753 1.50444e-17
4528.50083 1.52152e-17
4530.00413 1.53318e-17
4531.49741 1.53697e-17
4533.00071 1.54348e-17
4534.50401 1.54296e-17
4535.99729 1.54085e-17
4537.50059 1.53620e-17
4539.00389 1.51998e-17
4540.49717 1.53190e-17
4542.00047 1.55897e-17
4543.50377 1.56812e-17
4544.99704 1.56571e-17
4546.50034 1.55902e-17
4548.00364 1.55197e-17
4549.49692 1.55720e-17
4551.00022 1.57746e-17
4552.50352 1.59715e-17
4553.99680 1.59367e-17
4555.50010 1.58481e-17
4557.00340 1.58880e-17
4558.49668 1.58814e-17
4559.99998 1.59822e-17
4561.50328 1.58052e-17
4562.99656 1.58107e-17
4564.49986 1.60483e-17
4566.00316 1.58701e-17
4567.49643 1.59365e-17
4568.99973 1.58789e-17
4570.50303 1.58250e-17
4571.99631 1.59007e-17
4573.49961 1.59473e-17
4575.00291 1.58974e-17
4576.49619 1.58973e-17
4577.99949 1.60389e-17
4579.50279 1.59758e-17
4580.99607 1.60465e-17
4582.49937 1.59621e-17
4584.00267 1.59035e-17
4585.49595 1.60327e-17
4586.99925 1.60992e-17
4588.50255 1.62035e-17
4589.99582 1.60547e-17
4591.49912 1.59077e-17
4593.00242 1.60390e-17
4594.49570 1.63618e-17
4595.99900 1.63882e-17
4597.50230 1.61811e-17
4598.99558 1.59772e-17
4600.49888 1.60330e-17
4602.00218 1.61161e-17
4603.49546 1.61508e-17
4604.99876 1.60605e-17
4606.50206 1.60275e-17
4607.99534 1.60099e-17
4609.49864 1.59386e-17
4611.00194 1.61552e-17
4612.49521 1.61499e-17
4613.99851 1.58643e-17
4615.50181 1.57160e-17
4616.99509 1.57327e-17
4618.49839 1.56940e-17
4620.00169 1.55931e-17
4621.49497 1.55474e-17
4622.99827 1.55372e-17
4624.50157 1.55739e-17
4626.00487 1.53983e-17
4627.49815 1.52693e-17
4629.00145 1.53265e-17
4630.50475 1.53186e-17
4631.99803 1.50882e-17
4633.50133 1.51438e-17
4635.00463 1.52273e-17
4636.49790 1.52204e-17
4638.00120 1.49853e-17
4639.50450 1.48406e-17
4640.99778 1.49512e-17
4642.50108 1.49396e-17
4644.00438 1.47941e-17
4645.49766 1.47461e-17
4647.00096 1.47730e-17
4648.50426 1.47354e-17
4649.99754 1.46527e-17
4651.50084 1.46002e-17
4653.00414 1.46125e-17
4654.49742 1.47383e-17
4656.00072 1.46807e-17
4657.50402 1.44086e-17
4658.99729 1.42179e-17
4660.50059 1.41246e-17
4662.00389 1.40678e-17
4663.49717 1.41632e-17
4665.00047 1.40780e-17
4666.50377 1.38683e-17
4667.99705 1.38637e-17
4669.50035 1.38815e-17
4671.00365 1.38129e-17
4672.49693 1.38081e-17
4674.00023 1.37670e-17
4675.50353 1.36230e-17
4676.99681 1.35108e-17
4678.50011 1.35648e-17
4680.00341 1.35057e-17
4681.49668 1.33857e-17
4682.99998 1.32563e-17
4684.50328 1.32247e-17
4685.99656 1.32595e-17
4687.49986 1.33069e-17
4689.00316 1.32853e-17
4690.49644 1.32778e-17
4691.99974 1.32333e-17
4693.50304 1.30947e-17
4694.99632 1.31129e-17
4696.49962 1.30041e-17
4698.00292 1.28668e-17
4699.49620 1.26626e-17
4700.99950 1.26011e-17
4702.50280 1.28135e-17
4703.99607 1.28326e-17
4705.49937 1.24840e-17
4707.00267 1.24083e-17
4708.49595 1.26025e-17
4709.99925 1.27083e-17
4711.50255 1.24593e-17
4712.99583 1.22508e-17
4714.49913 1.24730e-17
4716.00243 1.25152e-17
4717.49571 1.22568e-17
4718.99901 1.22841e-17
4720.50231 1.22784e-17
4721.99559 1.21989e-17
4723.49889 1.23932e-17
4725.00219 1.21529e-17
4726.49546 1.21633e-17
4727.99876 1.21482e-17
4729.50206 1.22586e-17
4730.99534 1.22522e-17
4732.49864 1.21927e-17
4734.00194 1.22999e-17
4735.49522 1.23703e-17
4736.99852 1.22883e-17
4738.50182 1.22701e-17
4739.99510 1.22299e-17
4741.49840 1.22943e-17
4743.00170 1.21770e-17
4744.49498 1.20202e-17
4745.99828 1.20591e-17
4747.50158 1.21459e-17
4749.00488 1.21754e-17
4750.49815 1.20906e-17
4752.00145 1.20755e-17
4753.50475 1.21057e-17
4754.99803 1.19673e-17
4756.50133 1.19154e-17
4758.00463 1.18383e-17
4759.49791 1.17126e-17
4761.00121 1.16316e-17
4762.50451 1.15976e-17
4763.99779 1.16391e-17
4765.50109 1.16516e-17
4767.00439 1.15525e-17
4768.49767 1.16305e-17
4770.00097 1.17621e-17
4771.50427 1.16656e-17
4772.99754 1.16789e-17
4774.50084 1.15686e-17
4776.00414 1.14857e-17
4777.49742 1.15581e-17
4779.00072 1.18782e-17
4780.50402 1.16182e-17
4781.99730 1.15886e-17
4783.50060 1.18398e-17
4785.00390 1.16296e-17
4786.49718 1.15768e-17
4788.00048 1.18053e-17
4789.50378 1.17810e-17
4790.99706 1.18226e-17
4792.50036 1.17230e-17
4794.00366 1.20123e-17
4795.49693 1.19896e-17
4797.00023 1.18865e-17
4798.50353 1.17977e-17
4799.99681 1.20786e-17
4801.50011 1.21489e-17
4803.00341 1.20011e-17
4804.49669 1.21349e-17
4805.99999 1.23057e-17
4807.50329 1.23402e-17
4808.99657 1.22237e-17
4810.49987 1.22940e-17
4812.00317 1.23352e-17
4813.49645 1.23201e-17
4814.99975 1.24152e-17
4816.50305 1.23091e-17
4817.99632 1.24425e-17
4819.49962 1.24764e-17
4821.00292 1.23928e-17
4822.49620 1.23686e-17
4823.99950 1.22921e-17
4825.50280 1.24561e-17
4826.99608 1.26984e-17
4828.49938 1.25588e-17
4830.00268 1.23780e-17
4831.49596 1.24907e-17
4832.99926 1.24795e-17
4834.50256 1.24594e-17
4835.99584 1.23638e-17
4837.49914 1.23085e-17
4839.00244 1.23970e-17
4840.49571 1.24706e-17
4841.99901 1.25123e-17
4843.50231 1.24854e-17
4844.99559 1.24875e-17
4846.49889 1.24915e-17
4848.00219 1.24802e-17
4849.49547 1.24516e-17
4850.99877 1.21851e-17
4852.50207 1.22065e-17
4853.99535 1.21196e-17
4855.49865 1.20758e-17
4857.00195 1.21965e-17
4858.49523 1.22360e-17
4859.99853 1.22304e-17
4861.50183 1.21782e-17
4862.99510 1.22079e-17
4864.49840 1.23212e-17
4866.00170 1.22834e-17
4867.49498 1.23745e-17
4868.99828 1.24514e-17
4870.50158 1.24163e-17
4872.00488 1.24552e-17
4873.49816 1.25112e-17
4875.00146 1.25987e-17
4876.50476 1.24667e-17
4877.99804 1.24594e-17
4879.50134 1.25210e-17
4881.00464 1.26216e-17
4882.49792 1.25988e-17
4884.00122 1.25971e-17
4885.50452 1.25732e-17
4886.99779 1.26288e-17
4888.50109 1.26017e-17
4890.00439 1.26155e-17
4891.49767 1.27665e-17
4893.00097 1.28415e-17
4894.50427 1.28596e-17
4895.99755 1.28592e-17
4897.50085 1.27517e-17
4899.00415 1.27582e-17
4900.49743 1.28641e-17
4902.00073 1.30258e-17
4903.50403 1.30119e-17
4904.99731 1.26521e-17
4906.50061 1.27328e-17
4908.00391 1.29621e-17
4909.49718 1.28812e-17
4911.00048 1.27651e-17
4912.50378 1.28271e-17
4913.99706 1.27754e-17
4915.50036 1.26982e-17
4917.00366 1.27502e-17
4918.49694 1.27392e-17
4920.00024 1.26028e-17
4921.50354 1.24805e-17
4922.99682 1.26425e-17
4924.50012 1.26732e-17
4926.00342 1.27690e-17
4927.49670 1.25658e-17
4929.00000 1.27088e-17
4930.50330 1.28839e-17
4931.99657 1.27072e-17
4933.49987 1.26801e-17
4935.00317 1.26637e-17
4936.49645 1.28384e-17
4937.99975 1.29216e-17
4939.50305 1.29981e-17
4940.99633 1.29535e-17
4942.49963 1.28163e-17
4944.00293 1.28811e-17
4945.49621 1.29574e-17
4946.99951 1.29800e-17
4948.50281 1.30643e-17
4949.99609 1.31709e-17
4951.49939 1.29909e-17
4953.00269 1.28946e-17
4954.49596 1.30692e-17
4955.99926 1.30333e-17
4957.50256 1.28865e-17
4958.99584 1.29755e-17
4960.49914 1.29522e-17
4962.00244 1.27453e-17
4963.49572 1.26857e-17
4964.99902 1.26992e-17
4966.50232 1.26959e-17
4967.99560 1.27586e-17
4969.49890 1.28225e-17
4971.00220 1.28474e-17
4972.49548 1.27685e-17
4973.99878 1.25896e-17
4975.50208 1.24915e-17
4976.99535 1.25830e-17
4978.49865 1.26371e-17
4980.00195 1.24880e-17
4981.49523 1.24228e-17
4982.99853 1.25623e-17
4984.50183 1.25139e-17
4985.99511 1.25626e-17
4987.49841 1.25969e-17
4989.00171 1.25750e-17
4990.49499 1.24689e-17
4991.99829 1.24290e-17
4993.50159 1.25358e-17
4995.00489 1.24853e-17
4996.49817 1.24092e-17
4998.00147 1.25122e-17
4999.50477 1.23556e-17
5000.99804 1.22202e-17
5002.50134 1.22545e-17
5004.00464 1.21415e-17
5005.49792 1.20134e-17
5007.00122 1.22743e-17
5008.50452 1.23881e-17
5009.99780 1.23503e-17
5011.50110 1.22448e-17
5013.00440 1.22040e-17
5014.49768 1.20091e-17
5016.00098 1.21773e-17
5017.50428 1.24136e-17
5018.99756 1.23198e-17
5020.50086 1.22757e-17
5022.00416 1.23987e-17
5023.49743 1.23530e-17
5025.00073 1.23351e-17
5026.50403 1.23744e-17
5027.99731 1.24677e-17
5029.50061 1.24246e-17
5031.00391 1.23555e-17
5032.49719 1.23024e-17
5034.00049 1.23516e-17
5035.50379 1.24185e-17
5036.99707 1.23360e-17
5038.50037 1.23153e-17
5040.00367 1.25250e-17
5041.49695 1.27166e-17
5043.00025 1.26889e-17
5044.50355 1.27180e-17
5045.99682 1.28103e-17
5047.50012 1.27625e-17
5049.00342 1.27131e-17
5050.49670 1.28040e-17
5052.00000 1.28197e-17
5053.50330 1.26207e-17
5054.99658 1.27528e-17
5056.49988 1.27602e-17
5058.00318 1.27168e-17
5059.49646 1.27120e-17
5060.99976 1.28855e-17
5062.50306 1.27766e-17
5063.99634 1.28536e-17
5065.49964 1.29200e-17
5067.00294 1.28944e-17
5068.49621 1.30490e-17
5069.99951 1.32169e-17
5071.50281 1.31780e-17
5072.99609 1.33251e-17
5074.49939 1.32166e-17
5076.00269 1.33782e-17
5077.49597 1.33745e-17
5078.99927 1.32036e-17
5080.50257 1.32677e-17
5081.99585 1.34561e-17
5083.49915 1.32974e-17
5085.00245 1.34352e-17
5086.49573 1.35215e-17
5087.99903 1.34956e-17
5089.50233 1.34249e-17
5090.99560 1.35093e-17
5092.49890 1.34387e-17
5094.00220 1.34780e-17
5095.49548 1.36420e-17
5096.99878 1.36834e-17
5098.50208 1.36582e-17
5099.99536 1.36609e-17
5101.49866 1.37094e-17
5103.00196 1.38804e-17
5104.49524 1.38173e-17
5105.99854 1.37484e-17
5107.50184 1.37424e-17
5108.99512 1.38175e-17
5110.49842 1.38577e-17
5112.00172 1.38788e-17
5113.49499 1.38473e-17
5114.99829 1.39280e-17
5116.50159 1.40253e-17
5118.00489 1.38293e-17
5119.49817 1.37161e-17
5121.00147 1.38972e-17
5122.50477 1.38540e-17
5123.99805 1.40342e-17
5125.50135 1.39963e-17
5127.00465 1.40061e-17
5128.49793 1.41276e-17
5130.00123 1.41198e-17
5131.50453 1.41287e-17
5132.99781 1.42019e-17
5134.50111 1.42162e-17
5136.00441 1.41532e-17
5137.49768 1.42109e-17
5139.00098 1.42981e-17
5140.50428 1.44290e-17
5141.99756 1.44669e-17
5143.50086 1.42126e-17
5145.00416 1.42882e-17
5146.49744 1.44079e-17
5148.00074 1.43991e-17
5149.50404 1.44557e-17
5150.99732 1.43903e-17
5152.50062 1.44219e-17
5154.00392 1.45767e-17
5155.49720 1.45400e-17
5157.00050 1.45169e-17
5158.50380 1.43844e-17
5159.99707 1.43586e-17
5161.50037 1.45052e-17
5163.00367 1.44512e-17
5164.49695 1.43079e-17
5166.00025 1.43339e-17
5167.50355 1.44605e-17
5168.99683 1.46462e-17
5170.50013 1.47147e-17
5172.00343 1.47486e-17
5173.49671 1.48604e-17
5175.00001 1.48901e-17
5176.50331 1.49581e-17
5177.99659 1.51301e-17
5179.49989 1.51096e-17
5181.00319 1.50626e-17
5182.49646 1.51037e-17
5183.99976 1.51465e-17
5185.50306 1.52130e-17
5186.99634 1.53174e-17
5188.49964 1.53186e-17
5190.00294 1.53436e-17
5191.49622 1.54908e-17
5192.99952 1.54534e-17
5194.50282 1.54583e-17
5195.99610 1.56374e-17
5197.49940 1.56880e-17
5199.00270 1.57465e-17
5200.49598 1.59398e-17
5201.99928 1.59044e-17
5203.50258 1.57222e-17
5204.99585 1.58751e-17
5206.49915 1.58848e-17
5208.00245 1.60082e-17
5209.49573 1.60223e-17
5210.99903 1.60033e-17
5212.50233 1.61039e-17
5213.99561 1.60690e-17
5215.49891 1.60747e-17
5217.00221 1.61189e-17
5218.49549 1.61074e-17
5219.99879 1.62126e-17
5221.50209 1.61500e-17
5222.99537 1.60792e-17
5224.49867 1.63381e-17
5226.00197 1.64579e-17
5227.49524 1.63476e-17
5228.99854 1.63699e-17
5230.50184 1.66437e-17
5231.99512 1.67964e-17
5233.49842 1.67224e-17
5235.00172 1.66300e-17
5236.49500 1.67130e-17
5237.99830 1.67952e-17
5239.50160 1.67207e-17
5241.00490 1.66847e-17
5242.49818 1.68285e-17
5244.00148 1.69590e-17
5245.50478 1.69344e-17
5246.99806 1.69646e-17
5248.50136 1.70380e-17
5250.00466 1.69783e-17
5251.49793 1.69515e-17
5253.00123 1.70211e-17
5254.50453 1.70269e-17
5255.99781 1.69942e-17
5257.50111 1.70487e-17
5259.00441 1.71269e-17
5260.49769 1.71108e-17
5262.00099 1.71491e-17
5263.50429 1.72846e-17
5264.99757 1.73720e-17
5266.50087 1.73375e-17
5268.00417 1.73328e-17
5269.49745 1.74256e-17
5271.00075 1.75313e-17
5272.50405 1.74764e-17
5273.99732 1.74231e-17
5275.50062 1.74494e-17
5277.00392 1.74056e-17
5278.49720 1.75898e-17
5280.00050 1.77100e-17
5281.50380 1.77347e-17
5282.99708 1.76899e-17
5284.50038 1.77179e-17
5286.00368 1.79106e-17
5287.49696 1.79875e-17
5289.00026 1.79036e-17
5290.50356 1.78317e-17
5291.99684 1.79357e-17
5293.50014 1.79120e-17
5295.00344 1.78682e-17
5296.49671 1.78872e-17
5298.00001 1.79797e-17
5299.50331 1.80833e-17
5300.99659 1.80709e-17
5302.49989 1.79833e-17
5304.00319 1.80044e-17
5305.49647 1.80677e-17
5306.99977 1.80770e-17
5308.50307 1.80529e-17
5309.99635 1.81914e-17
5311.49965 1.82485e-17
5313.00295 1.81244e-17
5314.49623 1.81085e-17
5315.99953 1.81951e-17
5317.50283 1.81916e-17
5318.99610 1.81077e-17
5320.49940 1.81243e-17
5322.00270 1.81078e-17
5323.49598 1.80098e-17
5324.99928 1.81056e-17
5326.50258 1.81702e-17
5327.99586 1.80490e-17
5329.49916 1.81774e-17
5331.00246 1.81877e-17
5332.49574 1.79349e-17
5333.99904 1.80221e-17
5335.50234 1.80742e-17
5336.99562 1.80541e-17
5338.49892 1.81891e-17
5340.00222 1.81730e-17
5341.49549 1.81449e-17
5342.99879 1.82899e-17
5344.50209 1.82135e-17
5345.99537 1.82031e-17
5347.49867 1.82168e-17
5349.00197 1.82528e-17
5350.49525 1.83736e-17
5351.99855 1.84335e-17
5353.50185 1.83826e-17
5354.99513 1.84964e-17
5356.49843 1.85619e-17
5358.00173 1.83791e-17
5359.49501 1.83759e-17
5360.99831 1.84334e-17
5362.50161 1.84837e-17
5364.00491 1.85413e-17
5365.49818 1.85403e-17
5367.00148 1.86785e-17
5368.50478 1.87099e-17
5369.99806 1.87555e-17
5371.50136 1.87986e-17
5373.00466 1.86666e-17
5374.49794 1.87676e-17
5376.00124 1.87689e-17
5377.50454 1.88724e-17
5378.99782 1.89899e-17
5380.50112 1.89945e-17
5382.00442 1.89977e-17
5383.49770 1.90035e-17
5385.00100 1.89503e-17
5386.50430 1.90628e-17
5387.99757 1.91716e-17
5389.50087 1.92196e-17
5391.00417 1.93076e-17
5392.49745 1.92625e-17
5394.00075 1.91379e-17
5395.50405 1.91104e-17
5396.99733 1.92847e-17
5398.50063 1.94083e-17
5400.00393 1.92625e-17
5401.49721 1.92082e-17
5403.00051 1.93234e-17
5404.50381 1.93998e-17
5405.99709 1.93681e-17
5407.50039 1.93905e-17
5409.00369 1.94884e-17
5410.49696 1.94892e-17
5412.00026 1.93612e-17
5413.50356 1.94822e-17
5414.99684 1.95662e-17
5416.50014 1.97115e-17
5418.00344 1.97382e-17
5419.49672 1.97300e-17
5421.00002 1.96765e-17
5422.50332 1.95487e-17
5423.99660 1.96421e-17
5425.49990 1.97697e-17
5427.00320 1.98671e-17
5428.49648 1.97433e-17
5429.99978 1.98307e-17
5431.50308 1.99919e-17
5432.99635 1.97848e-17
5434.49965 2.00290e-17
5436.00295 1.97768e-17
5437.49623 2.00906e-17
5438.99953 1.98548e-17
5440.50283 1.96283e-17
5441.99611 1.95507e-17
5443.49941 1.99686e-17
5445.00271 1.99523e-17
5446.49599 1.99655e-17
5447.99929 2.01327e-17
5449.50259 2.00443e-17
5450.99587 1.99970e-17
5452.49917 2.00757e-17
5454.00247 1.99859e-17
5455.49574 1.98571e-17
5456.99904 1.97541e-17
5458.50234 1.99850e-17
5459.99562 2.00048e-17
5461.49892 1.99466e-17
5463.00222 1.98897e-17
5464.49550 1.98441e-17
5465.99880 1.97314e-17
5467.50210 1.97019e-17
5468.99538 1.96939e-17
5470.49868 1.96693e-17
5472.00198 1.95697e-17
5473.49526 1.95180e-17
5474.99856 1.95589e-17
5476.50186 1.95970e-17
5477.99513 1.95055e-17
5479.49843 1.95311e-17
5481.00173 1.95096e-17
5482.49501 1.94155e-17
5483.99831 1.92949e-17
5485.50161 1.94160e-17
5487.00491 1.93425e-17
5488.49819 1.93753e-17
5490.00149 1.93344e-17
5491.50479 1.92545e-17
5492.99807 1.93934e-17
5494.50137 1.90973e-17
5496.00467 1.90672e-17
5497.49795 1.92026e-17
5499.00125 1.92158e-17
5500.50455 1.92504e-17
5501.99782 1.91769e-17
5503.50112 1.93251e-17
5505.00442 1.94368e-17
5506.49770 1.92355e-17
5508.00100 1.92014e-17
5509.50430 1.91560e-17
5510.99758 1.89488e-17
5512.50088 1.89452e-17
5514.00418 1.91997e-17
5515.49746 1.91028e-17
5517.00076 1.91838e-17
5518.50406 1.90957e-17
5519.99734 1.90145e-17
5521.50064 1.92145e-17
5523.00394 1.90709e-17
5524.49721 1.89887e-17
5526.00051 1.90556e-17
5527.50381 1.89088e-17
5528.99709 1.88786e-17
5530.50039 1.90612e-17
5532.00369 1.90156e-17
5533.49697 1.88068e-17
5535.00027 1.87643e-17
5536.50357 1.86695e-17
5537.99685 1.86534e-17
5539.50015 1.87712e-17
5541.00345 1.88718e-17
5542.49673 1.89084e-17
5544.00003 1.88257e-17
5545.50333 1.87023e-17
5546.99660 1.86076e-17
5548.49990 1.86617e-17
5550.00320 1.86916e-17
5551.49648 1.85880e-17
5552.99978 1.86813e-17
5554.50308 1.86458e-17
5555.99636 1.85878e-17
5557.49966 1.86826e-17
5559.00296 1.85258e-17
5560.49624 1.83397e-17
5561.99954 1.84468e-17
5563.50284 1.85269e-17
5564.99612 1.85190e-17
5566.49942 1.84470e-17
5568.00272 1.84100e-17
5569.49599 1.83499e-17
5570.99929 1.83743e-17
5572.50259 1.83121e-17
5573.99587 1.83313e-17
5575.49917 1.85787e-17
5577.00247 1.82116e-17
5578.49575 1.80714e-17
5579.99905 1.80232e-17
5581.50235 1.81258e-17
5582.99563 1.81317e-17
5584.49893 1.81225e-17
5586.00223 1.80676e-17
5587.49551 1.79432e-17
5588.99881 1.78004e-17
5590.50211 1.77419e-17
5591.99538 1.76385e-17
5593.49868 1.76004e-17
5595.00198 1.78298e-17
5596.49526 1.78637e-17
5597.99856 1.77766e-17
5599.50186 1.77376e-17
5600.99514 1.76353e-17
5602.49844 1.75445e-17
5604.00174 1.74779e-17
5605.49502 1.72767e-17
5606.99832 1.72305e-17
5608.50162 1.73524e-17
5610.00492 1.73692e-17
5611.49820 1.73409e-17
5613.00150 1.71785e-17
5614.50480 1.70703e-17
5615.99807 1.70083e-17
5617.50137 1.69577e-17
5619.00467 1.68592e-17
5620.49795 1.67114e-17
5622.00125 1.65864e-17
5623.50455 1.66469e-17
5624.99783 1.66955e-17
5626.50113 1.66918e-17
5628.00443 1.66111e-17
5629.49771 1.62741e-17
5631.00101 1.62951e-17
5632.50431 1.64653e-17
5633.99759 1.64210e-17
5635.50089 1.62502e-17
5637.00419 1.62123e-17
5638.49746 1.61686e-17
5640.00076 1.60489e-17
5641.50406 1.61148e-17
5642.99734 1.60897e-17
5644.50064 1.60669e-17
5646.00394 1.60726e-17
5647.49722 1.59140e-17
5649.00052 1.58199e-17
5650.50382 1.56033e-17
5651.99710 1.54813e-17
5653.50040 1.56788e-17
5655.00370 1.56076e-17
5656.49698 1.53372e-17
5658.00028 1.52773e-17
5659.50358 1.52774e-17
5660.99685 1.52981e-17
5662.50015 1.51833e-17
5664.00345 1.50369e-17
5665.49673 1.50796e-17
5667.00003 1.50734e-17
5668.50333 1.51556e-17
5669.99661 1.50127e-17
5671.49991 1.49118e-17
5673.00321 1.49215e-17
5674.49649 1.48758e-17
5675.99979 1.49146e-17
5677.50309 1.49423e-17
5678.99637 1.48058e-17
5680.49967 1.46785e-17
5682.00297 1.46657e-17
5683.49624 1.46353e-17
5684.99954 1.45619e-17
5686.50284 1.44718e-17
5687.99612 1.45220e-17
5689.49942 1.44893e-17
5691.00272 1.43888e-17
5692.49600 1.44557e-17
5693.99930 1.45009e-17
5695.50260 1.43961e-17
5696.99588 1.43705e-17
5698.49918 1.43471e-17
5700.00248 1.42255e-17
5701.49576 1.41757e-17
5702.99906 1.42607e-17
5704.50236 1.41565e-17
5705.99563 1.40472e-17
5707.49893 1.40602e-17
5709.00223 1.40179e-17
5710.49551 1.40847e-17
5711.99881 1.41528e-17
5713.50211 1.42201e-17
5714.99539 1.42143e-17
5716.49869 1.42166e-17
5718.00199 1.42109e-17
5719.49527 1.42926e-17
5720.99857 1.43851e-17
5722.50187 1.43079e-17
5723.99515 1.42182e-17
5725.49845 1.44153e-17
5727.00175 1.43222e-17
5728.49502 1.42763e-17
5729.99832 1.42702e-17
5731.50162 1.44079e-17
5733.00492 1.42585e-17
5734.49820 1.43163e-17
5736.00150 1.43458e-17
5737.50480 1.44033e-17
5738.99808 1.43982e-17
5740.50138 1.44557e-17
5742.00468 1.45443e-17
5743.49796 1.45284e-17
5745.00126 1.44368e-17
5746.50456 1.44096e-17
5747.99784 1.45246e-17
5749.50114 1.45544e-17
5751.00444 1.45319e-17
5752.49771 1.45294e-17
5754.00101 1.44644e-17
5755.50431 1.45065e-17
5756.99759 1.46143e-17
5758.50089 1.46409e-17
5760.00419 1.46367e-17
5761.49747 1.46536e-17
5763.00077 1.47241e-17
5764.50407 1.47834e-17
5765.99735 1.47449e-17
5767.50065 1.47064e-17
5769.00395 1.46054e-17
5770.49723 1.45331e-17
5772.00053 1.46210e-17
5773.50383 1.47756e-17
5774.99710 1.46878e-17
5776.50040 1.46644e-17
5778.00370 1.46565e-17
5779.49698 1.46257e-17
5781.00028 1.46292e-17
5782.50358 1.48493e-17
5783.99686 1.50057e-17
5785.50016 1.48934e-17
5787.00346 1.47164e-17
5788.49674 1.49165e-17
5790.00004 1.48666e-17
5791.50334 1.48622e-17
5792.99662 1.50684e-17
5794.49992 1.50226e-17
5796.00322 1.50248e-17
5797.49649 1.49764e-17
5798.99979 1.50926e-17
5800.50309 1.49514e-17
5801.99637 1.49049e-17
5803.49967 1.51426e-17
5805.00297 1.50791e-17
5806.49625 1.50478e-17
5807.99955 1.50709e-17
5809.50285 1.50559e-17
5810.99613 1.49806e-17
5812.49943 1.50794e-17
5814.00273 1.49326e-17
5815.49601 1.50018e-17
5816.99931 1.52026e-17
5818.50261 1.50993e-17
5819.99588 1.49415e-17
5821.49918 1.48845e-17
5823.00248 1.50201e-17
5824.49576 1.51447e-17
5825.99906 1.51073e-17
5827.50236 1.48558e-17
5828.99564 1.47797e-17
5830.49894 1.48613e-17
5832.00224 1.48671e-17
5833.49552 1.49278e-17
5834.99882 1.50904e-17
5836.50212 1.50742e-17
5837.99540 1.49825e-17
5839.49870 1.49608e-17
5841.00200 1.48526e-17
5842.49527 1.48714e-17
5843.99857 1.48411e-17
5845.50187 1.47565e-17
5846.99515 1.47493e-17
5848.49845 1.47937e-17
5850.00175 1.47816e-17
5851.49503 1.48101e-17
5852.99833 1.47033e-17
5854.50163 1.46594e-17
5856.00493 1.47658e-17
5857.49821 1.46934e-17
5859.00151 1.46904e-17
5860.50481 1.47278e-17
5861.99809 1.46902e-17
5863.50139 1.46889e-17
5865.00469 1.46673e-17
5866.49796 1.47027e-17
5868.00126 1.47541e-17
5869.50456 1.47487e-17
5870.99784 1.46507e-17
5872.50114 1.47048e-17
5874.00444 1.47698e-17
5875.49772 1.47766e-17
5877.00102 1.48135e-17
5878.50432 1.47357e-17
5879.99760 1.47189e-17
5881.50090 1.47826e-17
5883.00420 1.47990e-17
5884.49748 1.47618e-17
5886.00078 1.45134e-17
5887.50408 1.41745e-17
5888.99735 1.40514e-17
5890.50065 1.40626e-17
5892.00395 1.40617e-17
5893.49723 1.40489e-17
5895.00053 1.40564e-17
5896.50383 1.40858e-17
5897.99711 1.42361e-17
5899.50041 1.43682e-17
5901.00371 1.44006e-17
5902.49699 1.45355e-17
5904.00029 1.46614e-17
5905.50359 1.45081e-17
5906.99687 1.43644e-17
5908.50017 1.44167e-17
5910.00347 1.44251e-17
5911.49674 1.44802e-17
5913.00004 1.44498e-17
5914.50334 1.43986e-17
5915.99662 1.43389e-17
5917.49992 1.43734e-17
5919.00322 1.44333e-17
5920.49650 1.43192e-17
5921.99980 1.43402e-17
5923.50310 1.44222e-17
5924.99638 1.43247e-17
5926.49968 1.43070e-17
5928.00298 1.43578e-17
5929.49626 1.44540e-17
5930.99956 1.43681e-17
5932.50286 1.42851e-17
5933.99613 1.43587e-17
5935.49943 1.43574e-17
5937.00273 1.43042e-17
5938.49601 1.43360e-17
5939.99931 1.43781e-17
5941.50261 1.42839e-17
5942.99589 1.40381e-17
5944.49919 1.39979e-17
5946.00249 1.40890e-17
5947.49577 1.40479e-17
5948.99907 1.42525e-17
5950.50237 1.43784e-17
5951.99565 1.42216e-17
5953.49895 1.41503e-17
5955.00225 1.41110e-17
5956.49552 1.40888e-17
5957.99882 1.41045e-17
5959.50212 1.39901e-17
5960.99540 1.39848e-17
5962.49870 1.40145e-17
5964.00200 1.39203e-17
5965.49528 1.37703e-17
5966.99858 1.37408e-17
5968.50188 1.37211e-17
5970.00518 1.37179e-17
5971.49846 1.37837e-17
5973.00176 1.38511e-17
5974.49504 1.37881e-17
5975.99834 1.37428e-17
5977.50164 1.37284e-17
5979.00494 1.38604e-17
5980.49821 1.39504e-17
5982.00151 1.38212e-17
5983.50481 1.36962e-17
5984.99809 1.37846e-17
5986.50139 1.37189e-17
5988.00469 1.37890e-17
5989.49797 1.39038e-17
5991.00127 1.38994e-17
5992.50457 1.39503e-17
5993.99785 1.39107e-17
5995.50115 1.38691e-17
5997.00445 1.37823e-17
5998.49773 1.37840e-17
6000.00103 1.38218e-17
6001.50433 1.37057e-17
6002.99760 1.36319e-17
6004.50090 1.37839e-17
6006.00420 1.38877e-17
6007.49748 1.39341e-17
6009.00078 1.36777e-17
6010.50408 1.37706e-17
6011.99736 1.38356e-17
6013.50066 1.37560e-17
6015.00396 1.38677e-17
6016.49724 1.38890e-17
6018.00054 1.38517e-17
6019.50384 1.38007e-17
6020.99712 1.37542e-17
6022.50042 1.37877e-17
6024.00372 1.38134e-17
6025.49699 1.36635e-17
6027.00029 1.35525e-17
6028.50359 1.35979e-17
6029.99687 1.37288e-17
6031.50017 1.36301e-17
6033.00347 1.35232e-17
6034.49675 1.36055e-17
6036.00005 1.37028e-17
6037.50335 1.37054e-17
6038.99663 1.36611e-17
6040.49993 1.35810e-17
6042.00323 1.35918e-17
6043.49651 1.34795e-17
6044.99981 1.33152e-17
6046.50311 1.33708e-17
6047.99638 1.34726e-17
6049.49968 1.35334e-17
6051.00298 1.35151e-17
6052.49626 1.35483e-17
6053.99956 1.34930e-17
6055.50286 1.34376e-17
6056.99614 1.33823e-17
6058.49944 1.33270e-17
6060.00274 1.33263e-17
6061.49602 1.34288e-17
6062.99932 1.33131e-17
6064.50262 1.34340e-17
6065.99590 1.35294e-17
6067.49920 1.34657e-17
6069.00250 1.33784e-17
6070.49577 1.33816e-17
6071.99907 1.34709e-17
6073.50237 1.34604e-17
6074.99565 1.34199e-17
6076.49895 1.35136e-17
6078.00225 1.33255e-17
6079.49553 1.33057e-17
6080.99883 1.34773e-17
6082.50213 1.35028e-17
6083.99541 1.33932e-17
6085.49871 1.33826e-17
6087.00201 1.34874e-17
6088.49529 1.34484e-17
6089.99859 1.32775e-17
6091.50189 1.33631e-17
6092.99516 1.33909e-17
6094.49846 1.33731e-17
6096.00176 1.34178e-17
6097.49504 1.33508e-17
6098.99834 1.32386e-17
6100.50164 1.32509e-17
6101.99492 1.33239e-17
6103.49822 1.32146e-17
6105.00152 1.31809e-17
6106.50482 1.32947e-17
6107.99810 1.32714e-17
6109.50140 1.32069e-17
6111.00470 1.32071e-17
6112.49798 1.31390e-17
6114.00128 1.30713e-17
6115.50458 1.31229e-17
6116.99785 1.30754e-17
6118.50115 1.30573e-17
6120.00445 1.31209e-17
6121.49773 1.31233e-17
6123.00103 1.30478e-17
6124.50433 1.29173e-17
6125.99761 1.28916e-17
6127.50091 1.29338e-17
6129.00421 1.29867e-17
6130.49749 1.30053e-17
6132.00079 1.29190e-17
6133.50409 1.29336e-17
6134.99737 1.30115e-17
6136.50067 1.28699e-17
6138.00397 1.28597e-17
6139.49724 1.29081e-17
6141.00054 1.27437e-17
6142.50384 1.26778e-17
6143.99712 1.28179e-17
6145.50042 1.27922e-17
6147.00372 1.26451e-17
6148.49700 1.27423e-17
6150.00030 1.27543e-17
6151.50360 1.26194e-17
6152.99688 1.24660e-17
6154.50018 1.24566e-17
6156.00348 1.24541e-17
6157.49676 1.24700e-17
6159.00006 1.24256e-17
6160.50336 1.25215e-17
6161.99663 1.24154e-17
6163.49993 1.22730e-17
6165.00323 1.22725e-17
6166.49651 1.21870e-17
6167.99981 1.21280e-17
6169.50311 1.21182e-17
6170.99639 1.21034e-17
6172.49969 1.20774e-17
6174.00299 1.19971e-17
6175.49627 1.20085e-17
6176.99957 1.19153e-17
6178.50287 1.19084e-17
6179.99615 1.18530e-17
6181.49945 1.18267e-17
6183.00275 1.18177e-17
6184.49602 1.18897e-17
6185.99932 1.19088e-17
6187.50262 1.18658e-17
6188.99590 1.17816e-17
6190.49920 1.18569e-17
6192.00250 1.19590e-17
6193.49578 1.19759e-17
6194.99908 1.19150e-17
6196.50238 1.18694e-17
6197.99566 1.18197e-17
6199.49896 1.18221e-17
6201.00226 1.17676e-17
6202.49554 1.16211e-17
6203.99884 1.17034e-17
6205.50214 1.18229e-17
6206.99541 1.18456e-17
6208.49871 1.17458e-17
6210.00201 1.17393e-17
6211.49529 1.16375e-17
6212.99859 1.16837e-17
6214.50189 1.17075e-17
6215.99517 1.17133e-17
6217.49847 1.17507e-17
6219.00177 1.16455e-17
6220.49505 1.17968e-17
6221.99835 1.18963e-17
6223.50165 1.18191e-17
6224.99493 1.17105e-17
6226.49823 1.17315e-17
6228.00153 1.16906e-17
6229.50483 1.19273e-17
6230.99810 1.18980e-17
6232.50140 1.19088e-17
6234.00470 1.18429e-17
6235.49798 1.18617e-17
6237.00128 1.19593e-17
6238.50458 1.19302e-17
6239.99786 1.18199e-17
6241.50116 1.18521e-17
6243.00446 1.18424e-17
6244.49774 1.19843e-17
6246.00104 1.21260e-17
6247.50434 1.20559e-17
6248.99762 1.20558e-17
6250.50092 1.20367e-17
6252.00422 1.20523e-17
6253.49749 1.20907e-17
6255.00079 1.20940e-17
6256.50409 1.20474e-17
6257.99737 1.20582e-17
6259.50067 1.20372e-17
6261.00397 1.21819e-17
6262.49725 1.23678e-17
6264.00055 1.24152e-17
6265.50385 1.24722e-17
6266.99713 1.24296e-17
6268.50043 1.23624e-17
6270.00373 1.24114e-17
6271.49701 1.23781e-17
6273.00031 1.23172e-17
6274.50361 1.23707e-17
6275.99688 1.24750e-17
6277.50018 1.25063e-17
6279.00348 1.24849e-17
6280.49676 1.25552e-17
6282.00006 1.24284e-17
6283.50336 1.22471e-17
6284.99664 1.24265e-17
6286.49994 1.25558e-17
6288.00324 1.25040e-17
6289.49652 1.24387e-17
6290.99982 1.25237e-17
6292.50312 1.25864e-17
6293.99640 1.25828e-17
6295.49970 1.26172e-17
6297.00300 1.26752e-17
6298.49627 1.27635e-17
6299.99957 1.28440e-17
6301.50287 1.28683e-17
6302.99615 1.27910e-17
6304.49945 1.28984e-17
6306.00275 1.29053e-17
6307.49603 1.29123e-17
6308.99933 1.30250e-17
6310.50263 1.30133e-17
6311.99591 1.28834e-17
6313.49921 1.28510e-17
6315.00251 1.30354e-17
6316.49579 1.31488e-17
6317.99909 1.29958e-17
6319.50239 1.29564e-17
6320.99566 1.30388e-17
6322.49896 1.31093e-17
6324.00226 1.31745e-17
6325.49554 1.31744e-17
6326.99884 1.31422e-17
6328.50214 1.30823e-17
6329.99542 1.30481e-17
6331.49872 1.30708e-17
6333.00202 1.30895e-17
6334.49530 1.31837e-17
6335.99860 1.32123e-17
6337.50190 1.31318e-17
6338.99518 1.32877e-17
6340.49848 1.33352e-17
6342.00178 1.32631e-17
6343.49505 1.33273e-17
6344.99835 1.34360e-17
6346.50165 1.34792e-17
6347.99493 1.33985e-17
6349.49823 1.32707e-17
6351.00153 1.33186e-17
6352.50483 1.34089e-17
6353.99811 1.34589e-17
6355.50141 1.34030e-17
6357.00471 1.34131e-17
6358.49799 1.34203e-17
6360.00129 1.34452e-17
6361.50459 1.35153e-17
6362.99787 1.35716e-17
6364.50117 1.34646e-17
6366.00447 1.32178e-17
6367.49774 1.32714e-17
6369.00104 1.33494e-17
6370.50434 1.33117e-17
6371.99762 1.33773e-17
6373.50092 1.35833e-17
6375.00422 1.35840e-17
6376.49750 1.34519e-17
6378.00080 1.34206e-17
6379.50410 1.35890e-17
6380.99738 1.34315e-17
6382.50068 1.34670e-17
6384.00398 1.36042e-17
6385.49726 1.35959e-17
6387.00056 1.35513e-17
6388.50386 1.34687e-17
6389.99713 1.35858e-17
6391.50043 1.36261e-17
6393.00373 1.37288e-17
6394.49701 1.36518e-17
6396.00031 1.35373e-17
6397.50361 1.35678e-17
6398.99689 1.35882e-17
6400.50019 1.35768e-17
6402.00349 1.35550e-17
6403.49677 1.36034e-17
6405.00007 1.35917e-17
6406.50337 1.36772e-17
6407.99665 1.37212e-17
6409.49995 1.35417e-17
6411.00325 1.34404e-17
6412.49652 1.35235e-17
6413.99982 1.36585e-17
6415.50312 1.36712e-17
6416.99640 1.36497e-17
6418.49970 1.36330e-17
6420.00300 1.35467e-17
6421.49628 1.34599e-17
6422.99958 1.35879e-17
6424.50288 1.36414e-17
6425.99616 1.36261e-17
6427.49946 1.36304e-17
6429.00276 1.36783e-17
6430.49604 1.37302e-17
6431.99934 1.37642e-17
6433.50264 1.37427e-17
6434.99591 1.36871e-17
6436.49921 1.37735e-17
6438.00251 1.39017e-17
6439.49579 1.37642e-17
6440.99909 1.36884e-17
6442.50239 1.37830e-17
6443.99567 1.39308e-17
6445.49897 1.38580e-17
6447.00227 1.38029e-17
6448.49555 1.36960e-17
6449.99885 1.36855e-17
6451.50215 1.37916e-17
6452.99543 1.37089e-17
6454.49873 1.37505e-17
6456.00203 1.37242e-17
6457.49530 1.36952e-17
6458.99860 1.36057e-17
6460.50190 1.34790e-17
6461.99518 1.36055e-17
6463.49848 1.36804e-17
6465.00178 1.36310e-17
6466.49506 1.36528e-17
6467.99836 1.36682e-17
6469.50166 1.37200e-17
6470.99494 1.36229e-17
6472.49824 1.35333e-17
6474.00154 1.34733e-17
6475.50484 1.33855e-17
6476.99812 1.33498e-17
6478.50142 1.33292e-17
6480.00472 1.33091e-17
6481.49799 1.34072e-17
6483.00129 1.35151e-17
6484.50459 1.34776e-17
6485.99787 1.34388e-17
6487.50117 1.34006e-17
6489.00447 1.34570e-17
6490.49775 1.34691e-17
6492.00105 1.34008e-17
6493.50435 1.33709e-17
6494.99763 1.34429e-17
6496.50093 1.36486e-17
6498.00423 1.37319e-17
6499.49751 1.37414e-17
6501.00081 1.37078e-17
6502.50411 1.36789e-17
6503.99738 1.36185e-17
6505.50068 1.36300e-17
6507.00398 1.37315e-17
6508.49726 1.36523e-17
6510.00056 1.36683e-17
6511.50386 1.35770e-17
6512.99714 1.34371e-17
6514.50044 1.33130e-17
6516.00374 1.32186e-17
6517.49702 1.34894e-17
6519.00032 1.36060e-17
6520.50362 1.35174e-17
6521.99690 1.35050e-17
6523.50020 1.35155e-17
6525.00350 1.34730e-17
6526.49677 1.35844e-17
6528.00007 1.37236e-17
6529.50337 1.37148e-17
6530.99665 1.36796e-17
6532.49995 1.36328e-17
6534.00325 1.35798e-17
6535.49653 1.35063e-17
6536.99983 1.35082e-17
6538.50313 1.36128e-17
6539.99641 1.37091e-17
6541.49971 1.35823e-17
6543.00301 1.34181e-17
6544.49629 1.34541e-17
6545.99959 1.35063e-17
6547.50289 1.35741e-17
6548.99616 1.36729e-17
6550.49946 1.36120e-17
6552.00276 1.35286e-17
6553.49604 1.35111e-17
6554.99934 1.34609e-17
6556.50264 1.34556e-17
6557.99592 1.34954e-17
6559.49922 1.34617e-17
6561.00252 1.34285e-17
6562.49580 1.34300e-17
6563.99910 1.34405e-17
6565.50240 1.34424e-17
6566.99568 1.33583e-17
6568.49898 1.33374e-17
6570.00228 1.33521e-17
6571.49555 1.33465e-17
6572.99885 1.33868e-17
6574.50215 1.34427e-17
6575.99543 1.34182e-17
6577.49873 1.34059e-17
6579.00203 1.34062e-17
6580.49531 1.32922e-17
6581.99861 1.32969e-17
6583.50191 1.32507e-17
6584.99519 1.33767e-17
6586.49849 1.32433e-17
6588.00179 1.31695e-17
6589.49507 1.30713e-17
6590.99837 1.31457e-17
6592.50167 1.30262e-17
6593.99494 1.30330e-17
6595.49824 1.32402e-17
6597.00154 1.31497e-17
6598.50484 1.30887e-17
6599.99812 1.31664e-17
6601.50142 1.30922e-17
6603.00472 1.30476e-17
6604.49800 1.30002e-17
6606.00130 1.29966e-17
6607.50460 1.30242e-17
6608.99788 1.30170e-17
6610.50118 1.30240e-17
6612.00448 1.30647e-17
6613.49776 1.29495e-17
6615.00106 1.28923e-17
6616.50436 1.29102e-17
6617.99763 1.29575e-17
6619.50093 1.29641e-17
6621.00423 1.28137e-17
6622.49751 1.27365e-17
6624.00081 1.26669e-17
6625.50411 1.25710e-17
6626.99739 1.25514e-17
6628.50069 1.26222e-17
6630.00399 1.27715e-17
6631.49727 1.28147e-17
6633.00057 1.27506e-17
6634.50387 1.26583e-17
6635.99715 1.25965e-17
6637.50045 1.25576e-17
6639.00375 1.25216e-17
6640.49702 1.25267e-17
6642.00032 1.25115e-17
6643.50362 1.23651e-17
6644.99690 1.24848e-17
6646.50020 1.24033e-17
6648.00350 1.23878e-17
6649.49678 1.24583e-17
6651.00008 1.24552e-17
6652.50338 1.23155e-17
6653.99666 1.24493e-17
6655.49996 1.24701e-17
6657.00326 1.23369e-17
6658.49654 1.23487e-17
6659.99984 1.22573e-17
6661.50314 1.22260e-17
6662.99641 1.22825e-17
6664.49971 1.22894e-17
6666.00301 1.21416e-17
6667.49629 1.21440e-17
6668.99959 1.22654e-17
6670.50289 1.22025e-17
6671.99617 1.22670e-17
6673.49947 1.22035e-17
6675.00277 1.21653e-17
6676.49605 1.22100e-17
6677.99935 1.21587e-17
6679.50265 1.21303e-17
6680.99593 1.20930e-17
6682.49923 1.20227e-17
6684.00253 1.20624e-17
6685.49580 1.21198e-17
6686.99910 1.21188e-17
6688.50240 1.21033e-17
6689.99568 1.20470e-17
6691.49898 1.20169e-17
6693.00228 1.19454e-17
6694.49556 1.19730e-17
6695.99886 1.20491e-17
6697.50216 1.20540e-17
6698.99544 1.20770e-17
6700.49874 1.21179e-17
6702.00204 1.20833e-17
6703.49532 1.20194e-17
6704.99862 1.18986e-17
6706.50192 1.18517e-17
6707.99519 1.19813e-17
6709.49849 1.19274e-17
6711.00179 1.18278e-17
6712.49507 1.17766e-17
6713.99837 1.18194e-17
6715.50167 1.18558e-17
6716.99495 1.18042e-17
6718.49825 1.18128e-17
6720.00155 1.17990e-17
6721.50485 1.17627e-17
6722.99813 1.18239e-17
6724.50143 1.18654e-17
6726.00473 1.18336e-17
6727.49801 1.18603e-17
6729.00131 1.18165e-17
6730.50461 1.17941e-17
6731.99788 1.16991e-17
6733.50118 1.16093e-17
6735.00448 1.17015e-17
6736.49776 1.16281e-17
6738.00106 1.15963e-17
6739.50436 1.16545e-17
6740.99764 1.16304e-17
6742.50094 1.16326e-17
6744.00424 1.16523e-17
6745.49752 1.16289e-17
6747.00082 1.16379e-17
6748.50412 1.16900e-17
6749.99740 1.16115e-17
6751.50070 1.14741e-17
6753.00400 1.14275e-17
6754.49727 1.14480e-17
6756.00057 1.14474e-17
6757.50387 1.14432e-17
6758.99715 1.15024e-17
6760.50045 1.15411e-17
6762.00375 1.14453e-17
6763.49703 1.12687e-17
6765.00033 1.11952e-17
6766.50363 1.12451e-17
6767.99691 1.12875e-17
6769.50021 1.13510e-17
6771.00351 1.13786e-17
6772.49679 1.12841e-17
6774.00009 1.13229e-17
6775.50339 1.12396e-17
6776.99666 1.10480e-17
6778.49996 1.10472e-17
6780.00326 1.10912e-17
6781.49654 1.10692e-17
6782.99984 1.10439e-17
6784.50314 1.10648e-17
6785.99642 1.10000e-17
6787.49972 1.09833e-17
6789.00302 1.09293e-17
6790.49630 1.09993e-17
6791.99960 1.10297e-17
6793.50290 1.09062e-17
6794.99618 1.07860e-17
6796.49948 1.08074e-17
6798.00278 1.08035e-17
6799.49605 1.07814e-17
6800.99935 1.07109e-17
6802.50265 1.06848e-17
6803.99593 1.07729e-17
6805.49923 1.08020e-17
6807.00253 1.07249e-17
6808.49581 1.08506e-17
6809.99911 1.08439e-17
6811.50241 1.08184e-17
6812.99569 1.07832e-17
6814.49899 1.08381e-17
6816.00229 1.07492e-17
6817.49557 1.06921e-17
6818.99887 1.07519e-17
6820.50217 1.07660e-17
6821.99544 1.07411e-17
6823.49874 1.07477e-17
6825.00204 1.06961e-17
6826.49532 1.06593e-17
6827.99862 1.06725e-17
6829.50192 1.06467e-17
6830.99520 1.06915e-17
6832.49850 1.06966e-17
6834.00180 1.06696e-17
6835.49508 1.06347e-17
6836.99838 1.05250e-17
6838.50168 1.05720e-17
6839.99496 1.06693e-17
6841.49826 1.06627e-17
6843.00156 1.06666e-17
6844.50486 1.06323e-17
6845.99813 1.06279e-17
6847.50143 1.06235e-17
6849.00473 1.06192e-17
6850.49801 1.06148e-17
6852.00131 1.06104e-17
6853.50461 1.06060e-17
6854.99789 1.06016e-17
6856.50119 1.05972e-17
6858.00449 1.05928e-17
6859.49777 1.05885e-17
6861.00107 1.05841e-17
6862.50437 1.05797e-17
6863.99765 1.05753e-17
6865.50095 1.05709e-17
6867.00425 1.05665e-17
6868.49752 1.05622e-17
6870.00082 1.05578e-17
6871.50412 1.05534e-17
6872.99740 1.05490e-17
6874.50070 1.05446e-17
6876.00400 1.05402e-17
6877.49728 1.05359e-17
6879.00058 1.05315e-17
6880.50388 1.05271e-17
6881.99716 1.05227e-17
6883.50046 1.05183e-17
6885.00376 1.05140e-17
6886.49704 1.05096e-17
6888.00034 1.05052e-17
6889.50364 1.05008e-17
6890.99691 1.04965e-17
6892.50021 1.04921e-17
6894.00351 1.04877e-17
6895.49679 1.04833e-17
6897.00009 1.04789e-17
6898.50339 1.04746e-17
6899.99667 1.04702e-17
6901.49997 1.04658e-17
6903.00327 1.04614e-17
6904.49655 1.04571e-17
6905.99985 1.04527e-17
6907.50315 1.04483e-17
6908.99643 1.04439e-17
6910.49973 1.04396e-17
6912.00303 1.04352e-17
6913.49630 1.04308e-17
6914.99960 1.04264e-17
6916.50290 1.04221e-17
6917.99618 1.04177e-17
6919.49948 1.04133e-17
6921.00278 1.04090e-17
6922.49606 1.04046e-17
6923.99936 1.04002e-17
6925.50266 1.03958e-17
6926.99594 1.03915e-17
6928.49924 1.03871e-17
6930.00254 1.03827e-17
6931.49582 1.03784e-17
6932.99912 1.03740e-17
6934.50242 1.03696e-17
6935.99569 1.03652e-17
6937.49899 1.04783e-17
6939.00229 1.04986e-17
6940.49557 1.05073e-17
6941.99887 1.05255e-17
6943.50217 1.05192e-17
6944.99545 1.04926e-17
6946.49875 1.03594e-17
6948.00205 1.03507e-17
6949.49533 1.04474e-17
6950.99863 1.04224e-17
6952.50193 1.01949e-17
6953.99521 1.02262e-17
6955.49851 1.03838e-17
6957.00181 1.03656e-17
6958.50511 1.02923e-17
6959.99838 1.03408e-17
6961.50168 1.03675e-17
6962.99496 1.03968e-17
6964.49826 1.05112e-17
6966.00156 1.06481e-17
6967.50486 1.05825e-17
6968.99814 1.05315e-17
6970.50144 1.05582e-17
6972.00474 1.05144e-17
6973.49802 1.04715e-17
6975.00132 1.04373e-17
6976.50462 1.04637e-17
6977.99790 1.04573e-17
6979.50120 1.03904e-17
6981.00450 1.03335e-17
6982.49777 1.02681e-17
6984.00107 1.02609e-17
6985.50437 1.03222e-17
6986.99765 1.04813e-17
6988.50095 1.04775e-17
6990.00425 1.03458e-17
6991.49753 1.03026e-17
6993.00083 1.03181e-17
6994.50413 1.03576e-17
6995.99741 1.03523e-17
6997.50071 1.02677e-17
6999.00401 1.01520e-17
7000.49729 1.00047e-17
7002.00059 9.97528e-18
7003.50389 1.01482e-17
7004.99716 1.01177e-17
7006.50046 9.96903e-18
7008.00376 9.95029e-18
7009.49704 9.96257e-18
7011.00034 1.00712e-17
7012.50364 1.01015e-17
7013.99692 1.00351e-17
7015.50022 1.00840e-17
7017.00352 1.03430e-17
7018.49680 1.02374e-17
7020.00010 1.00218e-17
7021.50340 1.00228e-17
7022.99668 9.98196e-18
7024.49998 9.97046e-18
7026.00328 9.99511e-18
7027.49655 1.00161e-17
7028.99985 1.00435e-17
7030.50315 1.00303e-17
7031.99643 1.00207e-17
7033.49973 1.00962e-17
7035.00303 1.00788e-17
7036.49631 1.01282e-17
7037.99961 1.02361e-17
7039.50291 1.00798e-17
7040.99619 9.98975e-18
7042.49949 1.00069e-17
7044.00279 1.00080e-17
7045.49607 9.98895e-18
7046.99937 9.96301e-18
7048.50267 9.89926e-18
7049.99594 9.82168e-18
7051.49924 9.80382e-18
7053.00254 9.77636e-18
7054.49582 9.74259e-18
7055.99912 9.75294e-18
7057.50242 9.79848e-18
7058.99570 9.83886e-18
7060.49900 9.90998e-18
7062.00230 9.94982e-18
7063.49558 9.96284e-18
7064.99888 1.00100e-17
7066.50218 1.00074e-17
7067.99546 9.90565e-18
7069.49876 9.99672e-18
7071.00206 9.93777e-18
7072.49533 9.84656e-18
7073.99863 9.76773e-18
7075.50193 9.73406e-18
7076.99521 9.76629e-18
7078.49851 9.79567e-18
7080.00181 9.79695e-18
7081.50511 9.79699e-18
7082.99839 9.71265e-18
7084.50169 9.86610e-18
7085.99497 9.89363e-18
7087.49827 9.83763e-18
7089.00157 9.95467e-18
7090.50487 9.89145e-18
7091.99815 9.74265e-18
7093.50145 9.80763e-18
7095.00475 9.92297e-18
7096.49802 9.67110e-18
7098.00132 9.69103e-18
7099.50462 9.78141e-18
7100.99790 9.66603e-18
7102.50120 9.69677e-18
7104.00450 9.67073e-18
7105.49778 9.76048e-18
7107.00108 9.89120e-18
7108.50438 9.79694e-18
7109.99766 9.62812e-18
7111.50096 9.62172e-18
7113.00426 9.65346e-18
7114.49754 9.63341e-18
7116.00084 9.56948e-18
7117.50414 9.52059e-18
7118.99741 9.72675e-18
7120.50071 9.71207e-18
7122.00401 9.70652e-18
7123.49729 9.85059e-18
7125.00059 9.79956e-18
7126.50389 9.63311e-18
7127.99717 9.61560e-18
7129.50047 9.73910e-18
7131.00377 9.72404e-18
7132.49705 9.60900e-18
7134.00035 9.57685e-18
7135.50365 9.64973e-18
7136.99693 9.56506e-18
7138.50023 9.45303e-18
7140.00353 9.49686e-18
7141.49680 9.51271e-18
7143.00010 9.41840e-18
7144.50340 9.51856e-18
7145.99668 9.66500e-18
7147.49998 9.54817e-18
7149.00328 9.53895e-18
7150.49656 9.74247e-18
7151.99986 9.70841e-18
7153.50316 9.72286e-18
7154.99644 9.63187e-18
7156.49974 9.70110e-18
7158.00304 9.68498e-18
7159.49632 9.61431e-18
7160.99962 9.55521e-18
7162.50292 9.63968e-18
7163.99619 9.37176e-18
7165.49949 9.36140e-18
7167.00279 9.28371e-18
7168.49607 9.27458e-18
7169.99937 9.17997e-18
7171.50267 9.31905e-18
7172.99595 9.38053e-18
7174.49925 9.29022e-18
7176.00255 9.23131e-18
7177.49583 9.13343e-18
7178.99913 9.32317e-18
7180.50243 9.51044e-18
7181.99571 9.46730e-18
7183.49901 9.26913e-18
7185.00231 9.11753e-18
7186.49558 9.18098e-18
7187.99888 9.31678e-18
7189.50218 9.39415e-18
7190.99546 9.29125e-18
7192.49876 9.20121e-18
7194.00206 9.28616e-18
7195.49534 9.25912e-18
7196.99864 9.23500e-18
7198.50194 9.19901e-18
7199.99522 9.13915e-18
7201.49852 9.34284e-18
7203.00182 9.55463e-18
7204.50512 9.49782e-18
7205.99840 9.46413e-18
7207.50170 9.49861e-18
7208.99497 9.36645e-18
7210.49827 9.25152e-18
7212.00157 9.27530e-18
7213.50487 9.24345e-18
7214.99815 9.17658e-18
7216.50145 9.08531e-18
7218.00475 9.11199e-18
7219.49803 9.08460e-18
7221.00133 9.11618e-18
7222.50463 9.13176e-18
7223.99791 8.94370e-18
7225.50121 8.99011e-18
7227.00451 9.11184e-18
7228.49779 9.29863e-18
7230.00109 9.15945e-18
7231.50439 9.05843e-18
7232.99766 8.86354e-18
7234.50096 8.86797e-18
7236.00426 8.88265e-18
7237.49754 8.70086e-18
7239.00084 8.75552e-18
7240.50414 8.72877e-18
7241.99742 8.68260e-18
7243.50072 8.79305e-18
7245.00402 8.80123e-18
7246.49730 8.75529e-18
7248.00060 8.73191e-18
7249.50390 8.74765e-18
7250.99718 8.76294e-18
7252.50048 8.63327e-18
7254.00378 8.59156e-18
7255.49705 8.63351e-18
7257.00035 8.68126e-18
7258.50365 8.69777e-18
7259.99693 8.58662e-18
7261.50023 8.52383e-18
7263.00353 8.55707e-18
7264.49681 8.46045e-18
7266.00011 8.44901e-18
7267.50341 8.60613e-18
7268.99669 8.62492e-18
7270.49999 8.54275e-18
7272.00329 8.45272e-18
7273.49657 8.23983e-18
7274.99987 8.15326e-18
7276.50317 8.31180e-18
7277.99644 8.44865e-18
7279.49974 8.39430e-18
7281.00304 8.31766e-18
7282.49632 8.25568e-18
7283.99962 8.22044e-18
7285.50292 8.28008e-18
7286.99620 8.18002e-18
7288.49950 8.01059e-18
7290.00280 7.86934e-18
7291.49608 8.01523e-18
7292.99938 8.13325e-18
7294.50268 8.15388e-18
7295.99596 8.25418e-18
7297.49926 8.17529e-18
7299.00256 8.15319e-18
7300.49583 8.19663e-18
7301.99913 8.22556e-18
7303.50243 8.17881e-18
7304.99571 8.07149e-18
7306.49901 7.98127e-18
7308.00231 7.86603e-18
7309.49559 7.82342e-18
7310.99889 7.78189e-18
7312.50219 7.70565e-18
7313.99547 7.76717e-18
7315.49877 7.71710e-18
7317.00207 7.70051e-18
7318.49535 7.68499e-18
7319.99865 7.74627e-18
7321.50195 7.78360e-18
7322.99522 7.71936e-18
7324.49852 7.69713e-18
7326.00182 7.70274e-18
7327.50512 7.70873e-18
7328.99840 7.68811e-18
7330.50170 7.59511e-18
7331.99498 7.57747e-18
7333.49828 7.58419e-18
7335.00158 7.48095e-18
7336.50488 7.42443e-18
7337.99816 7.44068e-18
7339.50146 7.45298e-18
7341.00476 7.39943e-18
7342.49804 7.39544e-18
7344.00134 7.39916e-18
7345.50464 7.40855e-18
7346.99791 7.42514e-18
7348.50121 7.30555e-18
7350.00451 7.30002e-18
7351.49779 7.36928e-18
7353.00109 7.33022e-18
7354.50439 7.30951e-18
7355.99767 7.19555e-18
7357.50097 7.05682e-18
7359.00427 6.95162e-18
7360.49755 6.93939e-18
7362.00085 6.97196e-18
7363.50415 6.93587e-18
7364.99743 6.82226e-18
7366.50073 6.91386e-18
7368.00403 6.85178e-18
7369.49730 6.88329e-18
7371.00060 6.86451e-18
7372.50390 6.85883e-18
7373.99718 6.96357e-18
7375.50048 6.91570e-18
7377.00378 6.77800e-18
7378.49706 6.66910e-18
7380.00036 6.60508e-18
7381.50366 6.62422e-18
7382.99694 6.54044e-18
7384.50024 6.47142e-18
7386.00354 6.42512e-18
7387.49682 6.49085e-18
7389.00012 6.43843e-18
7390.50342 6.36631e-18
7391.99669 6.40302e-18
7393.49999 6.49395e-18
7395.00329 6.41258e-18
7396.49657 6.42778e-18
7397.99987 6.38367e-18
7399.50317 6.24855e-18
7400.99645 6.15997e-18
7402.49975 6.19433e-18
7404.00305 6.14376e-18
7405.49633 6.06339e-18
7406.99963 6.10211e-18
7408.50293 6.06188e-18
7409.99621 5.87330e-18
7411.49951 5.84683e-18
7413.00281 5.88141e-18
7414.49608 5.87161e-18
7415.99938 5.86094e-18
7417.50268 5.84092e-18
7418.99596 5.79723e-18
7420.49926 5.70642e-18
7422.00256 5.67058e-18
7423.49584 5.58032e-18
7424.99914 5.47180e-18
7426.50244 5.47279e-18
7427.99572 5.50397e-18
7429.49902 5.43546e-18
7431.00232 5.45119e-18
7432.49560 5.41918e-18
7433.99890 5.44655e-18
7435.50220 5.56691e-18
7436.99547 5.45335e-18
7438.49877 5.38353e-18
7440.00207 5.33051e-18
7441.49535 5.19463e-18
7442.99865 5.14005e-18
7444.50195 5.06259e-18
7445.99523 5.03861e-18
7447.49853 5.10495e-18
7449.00183 5.10291e-18
7450.50513 5.09330e-18
7451.99841 5.10566e-18
7453.50171 5.05581e-18
7454.99499 4.95720e-18
7456.49829 4.91431e-18
7458.00159 4.94646e-18
7459.49486 4.93438e-18
7460.99816 4.82531e-18
7462.50146 4.75403e-18
7464.00476 4.79211e-18
7465.49804 4.79500e-18
7467.00134 4.79345e-18
7468.50464 4.87081e-18
7469.99792 4.86111e-18
7471.50122 4.75912e-18
7473.00452 4.70050e-18
7474.49780 4.66679e-18
7476.00110 4.63767e-18
7477.50440 4.66919e-18
7478.99768 4.61349e-18
7480.50098 4.56950e-18
7482.00428 4.54593e-18
7483.49755 4.51797e-18
7485.00085 4.52281e-18
7486.50415 4.52888e-18
7487.99743 4.55102e-18
7489.50073 4.48926e-18
7491.00403 4.31282e-18
7492.49731 4.23156e-18
7494.00061 4.23154e-18
7495.50391 4.20383e-18
7496.99719 4.24435e-18
7498.50049 4.23464e-18
7500.00379 4.18158e-18
7501.49707 4.20940e-18
7503.00037 4.11968e-18
7504.50367 4.03589e-18
7505.99694 3.91526e-18
7507.50024 3.95619e-18
7509.00354 4.00202e-18
7510.49682 3.96693e-18
7512.00012 3.84450e-18
7513.50342 3.79226e-18
7514.99670 3.78419e-18
7516.50000 3.75477e-18
7518.00330 3.76951e-18
7519.49658 3.83310e-18
7520.99988 3.79160e-18
7522.50318 3.81033e-18
7523.99646 3.78620e-18
7525.49976 3.70688e-18
7527.00306 3.66553e-18
7528.49633 3.63555e-18
7529.99963 3.63928e-18
7531.50293 3.62983e-18
7532.99621 3.57881e-18
7534.49951 3.53965e-18
7536.00281 3.61460e-18
7537.49609 3.58839e-18
7538.99939 3.53786e-18
7540.50269 3.78124e-18
7540.82765 3.78124e-18
7541.68911 3.75655e-18
7542.55058 3.73517e-18
7543.41204 3.71380e-18
7544.27350 3.69520e-18
7545.13496 3.67659e-18
7545.99642 3.65788e-18
7546.86790 3.63915e-18
7547.72936 3.61669e-18
7548.59083 3.59422e-18
7549.45229 3.56800e-18
7550.31375 3.54177e-18
7551.17521 3.51360e-18
7552.03667 3.48542e-18
7552.89814 3.45727e-18
7553.75960 3.42912e-18
7554.62106 3.40316e-18
7555.48252 3.37721e-18
7556.35400 3.35392e-18
7557.21546 3.33064e-18
7558.07693 3.30859e-18
7558.93839 3.28654e-18
7559.79985 3.26452e-18
7560.66131 3.24249e-18
7561.52277 3.21988e-18
7562.38424 3.19726e-18
7563.24570 3.17307e-18
7564.10716 3.14887e-18
7564.96862 3.12093e-18
7565.84010 3.09298e-18
7566.70156 3.06126e-18
7567.56302 3.02954e-18
7568.42449 3.00014e-18
7569.28595 2.97075e-18
7570.14741 2.94872e-18
7571.00887 2.92671e-18
7571.87033 2.91281e-18
7572.73180 2.89892e-18
7573.59326 2.89231e-18
7574.45472 2.88573e-18
7575.31618 2.87722e-18
7576.18766 2.86871e-18
7577.04912 2.84819e-18
7577.91059 2.82765e-18
7578.77205 2.80066e-18
7579.63351 2.77365e-18
7580.49497 2.74901e-18
7581.35643 2.72437e-18
7582.21790 2.70069e-18
7583.07936 2.67701e-18
7583.94082 2.65016e-18
7584.81230 2.62331e-18
7585.67376 2.57844e-18
7586.53522 2.53352e-18
7587.39668 2.44997e-18
7588.25815 2.36635e-18
7589.11961 2.24821e-18
7589.98107 2.13000e-18
7590.84253 2.00190e-18
7591.70399 1.87378e-18
7592.56546 1.75917e-18
7593.42692 1.64459e-18
7594.28838 1.56544e-18
7595.15986 1.48637e-18
7596.02132 1.45364e-18
7596.88278 1.42101e-18
7597.74425 1.42410e-18
7598.60571 1.42727e-18
7599.46717 1.45851e-18
7600.32863 1.48981e-18
7601.19009 1.55501e-18
7602.05156 1.62027e-18
7602.91302 1.71959e-18
7603.77448 1.81897e-18
7604.64596 1.93955e-18
7605.50742 2.06018e-18
7606.36888 2.18671e-18
7607.23034 2.31324e-18
7608.09181 2.43012e-18
7608.95327 2.54698e-18
7609.81473 2.63863e-18
7610.67619 2.73023e-18
7611.53765 2.77486e-18
7612.39912 2.81939e-18
7613.26058 2.79946e-18
7614.13206 2.77941e-18
7614.99352 2.69589e-18
7615.85498 2.61224e-18
7616.71644 2.47498e-18
7617.57791 2.33761e-18
7618.43937 2.18760e-18
7619.30083 2.03756e-18
7620.16229 1.93002e-18
7621.02375 1.82256e-18
7621.88522 1.77839e-18
7622.74668 1.73434e-18
7623.61816 1.74916e-18
7624.47962 1.76409e-18
7625.34108 1.81893e-18
7626.20254 1.87385e-18
7627.06400 1.93387e-18
7627.92547 1.99390e-18
7628.78693 2.03972e-18
7629.64839 2.08552e-18
7630.50985 2.12447e-18
7631.37131 2.16341e-18
7632.23278 2.20024e-18
7633.10426 2.23707e-18
7633.96572 2.27160e-18
7634.82718 2.30612e-18
7635.68864 2.33834e-18
7636.55010 2.37056e-18
7637.41157 2.39414e-18
7638.27303 2.41769e-18
7639.13449 2.42941e-18
7639.99595 2.44110e-18
7640.85741 2.45210e-18
7641.71888 2.46310e-18
7642.59035 2.48443e-18
7643.45182 2.50577e-18
7644.31328 2.54213e-18
7645.17474 2.57852e-18
7646.03620 2.63193e-18
7646.89766 2.68537e-18
7647.75913 2.74141e-18
7648.62059 2.79745e-18
7649.48205 2.83794e-18
7650.34351 2.87841e-18
7651.20497 2.89950e-18
7652.06644 2.92055e-18
7652.93792 2.92425e-18
7653.79938 2.92791e-18
7654.66084 2.92816e-18
7655.52230 2.92840e-18
7656.38376 2.94671e-18
7657.24523 2.96507e-18
7658.10669 3.00493e-18
7658.96815 3.04485e-18
7659.82961 3.09444e-18
7660.69107 3.14406e-18
7661.55254 3.19335e-18
7662.42401 3.24263e-18
7663.28548 3.28250e-18
7664.14694 3.32235e-18
7665.00840 3.35226e-18
7665.86986 3.38215e-18
7666.73132 3.41937e-18
7667.59279 3.45661e-18
7668.45425 3.50915e-18
7669.31571 3.56172e-18
7670.17717 3.61322e-18
7671.03863 3.66470e-18
7671.91011 3.70194e-18
7672.77158 3.73915e-18
7673.63304 3.75972e-18
7674.49450 3.78022e-18
7675.35596 3.78503e-18
7676.21742 3.78981e-18
7677.07889 3.79835e-18
7677.94035 3.80685e-18
7678.80181 3.83854e-18
7679.66327 3.87031e-18
7680.52473 3.91372e-18
7681.38620 3.95712e-18
7682.25767 3.99407e-18
7683.11914 4.03105e-18
7683.98060 4.06151e-18
7684.84206 4.09197e-18
7685.70352 4.12104e-18
7686.56498 4.15011e-18
7687.42645 4.17899e-18
7688.28791 4.20785e-18
7689.14937 4.23695e-18
7690.01083 4.26606e-18
7690.88231 4.29261e-18
7691.74377 4.31917e-18
7692.60524 4.33755e-18
7693.46670 4.35597e-18
7694.32816 4.36757e-18
7695.18962 4.37917e-18
7696.05108 4.39255e-18
7696.91255 4.40594e-18
7697.77401 4.42436e-18
7698.63547 4.44274e-18
7699.49693 4.46182e-18
7700.35839 4.48086e-18
7701.22987 4.49694e-18
7702.09133 4.51303e-18
7702.95280 4.52397e-18
7703.81426 4.53484e-18
7704.67572 4.53911e-18
7705.53718 4.54330e-18
7706.39864 4.54119e-18
7707.26011 4.53903e-18
7708.12157 4.53243e-18
7708.98303 4.52583e-18
7709.84449 4.52240e-18
7710.71597 4.51901e-18
7711.57743 4.52561e-18
7712.43890 4.53225e-18
7713.30036 4.54724e-18
7714.16182 4.56227e-18
7715.02328 4.58193e-18
7715.88474 4.60159e-18
7716.74620 4.61986e-18
7717.60767 4.63817e-18
7718.46913 4.64853e-18
7719.33059 4.65893e-18
7720.20207 4.66093e-18
7721.06353 4.66294e-18
7721.92499 4.65896e-18
7722.78646 4.65499e-18
7723.64792 4.64911e-18
7724.50938 4.64324e-18
7725.37084 4.64094e-18
7726.23230 4.63861e-18
7727.09377 4.64164e-18
7727.95523 4.64470e-18
7728.81669 4.65127e-18
7729.67815 4.65787e-18
7730.54963 4.66761e-18
7731.41109 4.67738e-18
7732.27255 4.69234e-18
7733.13402 4.70725e-18
7733.99548 4.72502e-18
7734.85694 4.74274e-18
7735.71840 4.75372e-18
7736.57986 4.76467e-18
7737.44133 4.76339e-18
7738.30279 4.76211e-18
7739.17427 4.75252e-18
7740.03573 4.74293e-18
7740.89719 4.73012e-18
7741.75865 4.71732e-18
7742.62012 4.70893e-18
7743.48158 4.70054e-18
7744.34304 4.70277e-18
7745.20450 4.70499e-18
7746.06596 4.71364e-18
7746.92743 4.72228e-18
7747.78889 4.73155e-18
7748.65035 4.74081e-18
7749.52183 4.74865e-18
7750.38329 4.75646e-18
7751.24475 4.76135e-18
7752.10621 4.76623e-18
7752.96768 4.76820e-18
7753.82914 4.77014e-18
7754.69060 4.77025e-18
7755.55206 4.77032e-18
7756.41352 4.76726e-18
7757.27499 4.76416e-18
7758.13645 4.75533e-18
7759.00793 4.74654e-18
7759.86939 4.73454e-18
7760.73085 4.72250e-18
7761.59231 4.71335e-18
7762.45378 4.70419e-18
7763.31524 4.69934e-18
7764.17670 4.69445e-18
7765.03816 4.69073e-18
7765.89962 4.68701e-18
7766.76109 4.68198e-18
7767.62255 4.67694e-18
7768.49403 4.66877e-18
7769.35549 4.66057e-18
7770.21695 4.64911e-18
7771.07841 4.63763e-18
7771.93988 4.62676e-18
7772.80134 4.61592e-18
7773.66280 4.60855e-18
7774.52426 4.60119e-18
7775.38572 4.59579e-18
7776.24719 4.59043e-18
7777.10865 4.58583e-18
7777.98013 4.58127e-18
7778.84159 4.57817e-18
7779.70305 4.57507e-18
7780.56451 4.57409e-18
7781.42597 4.57310e-18
7782.28744 4.57405e-18
7783.14890 4.57500e-18
7784.01036 4.57748e-18
7784.87182 4.57996e-18
7785.73328 4.58364e-18
7786.59475 4.58733e-18
7787.46623 4.59178e-18
7788.32769 4.59626e-18
7789.18915 4.60024e-18
7790.05061 4.60418e-18
7790.91207 4.60618e-18
7791.77354 4.60815e-18
7792.63500 4.60742e-18
7793.49646 4.60669e-18
7794.35792 4.60301e-18
7795.21938 4.59929e-18
7796.08085 4.59437e-18
7796.94231 4.58944e-18
7797.81379 4.58641e-18
7798.67525 4.58342e-18
7799.53671 4.58470e-18
7800.39817 4.58601e-18
7801.25963 4.59316e-18
7802.12110 4.60035e-18
7802.98256 4.61217e-18
7803.84402 4.62402e-18
7804.70548 4.63452e-18
7805.56694 4.64507e-18
7806.42841 4.64995e-18
7807.29989 4.65484e-18
7808.16135 4.65459e-18
7809.02281 4.65433e-18
7809.88427 4.64977e-18
7810.74573 4.64518e-18
7811.60720 4.63722e-18
7812.46866 4.62924e-18
7813.33012 4.61931e-18
7814.19158 4.60939e-18
7815.05304 4.59933e-18
7815.91450 4.58926e-18
7816.78598 4.58072e-18
7817.64745 4.57219e-18
7818.50891 4.56723e-18
7819.37037 4.56227e-18
7820.23183 4.56249e-18
7821.09329 4.56274e-18
7821.95476 4.56446e-18
7822.81622 4.56621e-18
7823.67768 4.56387e-18
7824.53914 4.56154e-18
7825.40060 4.55446e-18
7826.27208 4.54735e-18
7827.13355 4.53721e-18
7827.99501 4.52711e-18
7828.85647 4.51533e-18
7829.71793 4.50358e-18
7830.57939 4.49162e-18
7831.44085 4.47965e-18
7832.30232 4.46842e-18
7833.16378 4.45719e-18
7834.02524 4.44668e-18
7834.88670 4.43618e-18
7835.75818 4.42739e-18
7836.61964 4.41860e-18
7837.48111 4.41426e-18
7838.34257 4.40991e-18
7839.20403 4.41075e-18
7840.06549 4.41156e-18
7840.92695 4.41447e-18
7841.78842 4.41739e-18
7842.64988 4.41973e-18
7843.51134 4.42206e-18
7844.37280 4.42257e-18
7845.23426 4.42312e-18
7846.10574 4.42111e-18
7846.96720 4.41914e-18
7847.82867 4.41564e-18
7848.69013 4.41214e-18
7849.55159 4.40838e-18
7850.41305 4.40463e-18
7851.27452 4.40142e-18
7852.13598 4.39817e-18
7852.99744 4.39602e-18
7853.85890 4.39387e-18
7854.72036 4.39321e-18
7855.59184 4.39255e-18
7856.45330 4.39361e-18
7857.31477 4.39470e-18
7858.17623 4.39584e-18
7859.03769 4.39697e-18
7859.89915 4.39551e-18
7860.76061 4.39405e-18
7861.62208 4.39018e-18
7862.48354 4.38632e-18
7863.34500 4.38219e-18
7864.20646 4.37807e-18
7865.07794 4.37256e-18
7865.93940 4.36709e-18
7866.80087 4.35659e-18
7867.66233 4.34612e-18
7868.52379 4.33025e-18
7869.38525 4.31442e-18
7870.24671 4.29622e-18
7871.10818 4.27799e-18
7871.96964 4.26165e-18
7872.83110 4.24527e-18
7873.69256 4.23761e-18
7874.56404 4.23002e-18
7875.42550 4.23378e-18
7876.28696 4.23757e-18
7877.14843 4.24501e-18
7878.00989 4.25245e-18
7878.87135 4.25643e-18
7879.73281 4.26044e-18
7880.59427 4.25880e-18
7881.45574 4.25716e-18
7882.31720 4.24873e-18
7883.17866 4.24027e-18
7884.05014 4.22802e-18
7884.91160 4.21576e-18
7885.77306 4.20340e-18
7886.63453 4.19107e-18
7887.49599 4.17834e-18
7888.35745 4.16557e-18
7889.21891 4.15157e-18
7890.08037 4.13756e-18
7890.94184 4.12304e-18
7891.80330 4.10856e-18
7892.66476 4.09445e-18
7893.52622 4.08037e-18
7894.39770 4.07034e-18
7895.25916 4.06031e-18
7896.12062 4.05943e-18
7896.98209 4.05852e-18
7897.84355 4.06388e-18
7898.70501 4.06921e-18
7899.56647 4.07234e-18
7900.42793 4.07548e-18
7901.28940 4.07271e-18
7902.15086 4.06994e-18
7903.01232 4.06217e-18
7903.88380 4.05436e-18
7904.74526 4.04397e-18
7905.60672 4.03361e-18
7906.46819 4.02602e-18
7907.32965 4.01847e-18
7908.19111 4.01584e-18
7909.05257 4.01322e-18
7909.91403 4.00946e-18
7910.77550 4.00570e-18
7911.63696 3.99721e-18
7912.49842 3.98871e-18
7913.36990 3.97981e-18
7914.23136 3.97087e-18
7915.09282 3.96518e-18
7915.95428 3.95949e-18
7916.81575 3.95727e-18
7917.67721 3.95504e-18
7918.53867 3.95581e-18
7919.40013 3.95657e-18
7920.26159 3.95497e-18
7921.12306 3.95340e-18
7921.98452 3.94406e-18
7922.85600 3.93469e-18
7923.71746 3.92090e-18
7924.57892 3.90711e-18
7925.44038 3.89468e-18
7926.30185 3.88220e-18
7927.16331 3.87447e-18
7928.02477 3.86674e-18
7928.88623 3.86597e-18
7929.74769 3.86524e-18
7930.60916 3.87006e-18
7931.47062 3.87487e-18
7932.34210 3.88129e-18
7933.20356 3.88775e-18
7934.06502 3.89238e-18
7934.92648 3.89701e-18
7935.78794 3.89701e-18
7936.64941 3.89705e-18
7937.51087 3.89099e-18
7938.37233 3.88490e-18
7939.23379 3.87308e-18
7940.09525 3.86123e-18
7940.95672 3.84536e-18
7941.81818 3.82950e-18
7942.68966 3.81356e-18
7943.55112 3.79762e-18
7944.41258 3.78471e-18
7945.27404 3.77179e-18
7946.13551 3.76246e-18
7946.99697 3.75312e-18
7947.85843 3.74732e-18
7948.71989 3.74148e-18
7949.58135 3.73813e-18
7950.44282 3.73477e-18
7951.30428 3.73236e-18
7952.17576 3.72996e-18
7953.03722 3.72529e-18
7953.89868 3.72062e-18
7954.76014 3.71092e-18
7955.62160 3.70121e-18
7956.48307 3.69053e-18
7957.34453 3.67980e-18
7958.20599 3.67338e-18
7959.06745 3.66700e-18
7959.92891 3.66525e-18
7960.79038 3.66350e-18
7961.66186 3.66529e-18
7962.52332 3.66704e-18
7963.38478 3.66956e-18
7964.24624 3.67207e-18
7965.10770 3.67131e-18
7965.96917 3.67050e-18
7966.83063 3.66875e-18
7967.69209 3.66697e-18
7968.55355 3.67087e-18
7969.41501 3.67481e-18
7970.27648 3.68593e-18
7971.14795 3.69709e-18
7972.00942 3.71208e-18
7972.87088 3.72708e-18
7973.73234 3.74141e-18
7974.59380 3.75578e-18
7975.45526 3.76293e-18
7976.31673 3.77008e-18
7977.17819 3.76723e-18
7978.03965 3.76439e-18
7978.90111 3.75691e-18
7979.76257 3.74943e-18
7980.63405 3.74199e-18
7981.49552 3.73459e-18
7982.35698 3.72835e-18
7983.21844 3.72211e-18
7984.07990 3.71781e-18
7984.94136 3.71351e-18
7985.80283 3.70957e-18
7986.66429 3.70566e-18
7987.52575 3.70045e-18
7988.38721 3.69520e-18
7989.24867 3.68936e-18
7990.11014 3.68352e-18
7990.98161 3.67794e-18
7991.84308 3.67236e-18
7992.70454 3.66875e-18
7993.56600 3.66514e-18
7994.42746 3.66547e-18
7995.28892 3.66583e-18
7996.15039 3.66620e-18
7997.01185 3.66656e-18
7997.87331 3.66073e-18
7998.73477 3.65489e-18
7999.59623 3.64361e-18
8000.46771 3.63233e-18
8001.32917 3.62032e-18
8002.19064 3.60831e-18
8003.05210 3.59913e-18
8003.91356 3.58996e-18
8004.77502 3.58666e-18
8005.63649 3.58337e-18
8006.49795 3.58515e-18
8007.35941 3.58694e-18
8008.22087 3.58761e-18
8009.08233 3.58827e-18
8009.95381 3.58578e-18
8010.81527 3.58329e-18
8011.67674 3.58360e-18
8012.53820 3.58391e-18
8013.39966 3.58989e-18
8014.26112 3.59589e-18
8015.12258 3.60338e-18
8015.98405 3.61087e-18
8016.84551 3.61586e-18
8017.70697 3.62085e-18
8018.56843 3.61931e-18
8019.43991 3.61775e-18
8020.30137 3.60717e-18
8021.16284 3.59658e-18
8022.02430 3.58368e-18
8022.88576 3.57077e-18
8023.74722 3.56295e-18
8024.60868 3.55515e-18
8025.47015 3.55219e-18
8026.33161 3.54924e-18
8027.19307 3.54918e-18
8028.05453 3.54912e-18
8028.92601 3.54950e-18
8029.78747 3.54989e-18
8030.64893 3.54790e-18
8031.51040 3.54591e-18
8032.37186 3.54182e-18
8033.23332 3.53774e-18
8034.09478 3.53354e-18
8034.95624 3.52934e-18
8035.81771 3.52629e-18
8036.67917 3.52324e-18
8037.54063 3.52209e-18
8038.41211 3.52095e-18
8039.27357 3.52199e-18
8040.13503 3.52303e-18
8040.99650 3.52592e-18
8041.85796 3.52881e-18
8042.71942 3.53258e-18
8043.58088 3.53636e-18
8044.44234 3.53933e-18
8045.30380 3.54229e-18
8046.16527 3.54317e-18
8047.02673 3.54404e-18
8047.88819 3.54224e-18
8048.75967 3.54042e-18
8049.62113 3.53625e-18
8050.48259 3.53207e-18
8051.34406 3.52861e-18
8052.20552 3.52515e-18
8053.06698 3.52472e-18
8053.92844 3.52429e-18
8054.78990 3.52513e-18
8055.65137 3.52597e-18
8056.51283 3.52587e-18
8057.37429 3.52577e-18
8058.24577 3.52211e-18
8059.10723 3.51844e-18
8059.96869 3.50898e-18
8060.83015 3.49951e-18
8061.69162 3.48607e-18
8062.55308 3.47262e-18
8063.41454 3.45829e-18
8064.27600 3.44397e-18
8065.13746 3.43229e-18
8065.99893 3.42061e-18
8066.86039 3.41501e-18
8067.73187 3.40943e-18
8068.59333 3.41011e-18
8069.45479 3.41081e-18
8070.31625 3.41593e-18
8071.17772 3.42106e-18
8072.03918 3.42695e-18
8072.90064 3.43284e-18
8073.76210 3.43424e-18
8074.62356 3.43564e-18
8075.48503 3.43063e-18
8076.34649 3.42561e-18
8077.21797 3.41668e-18
8078.07943 3.40776e-18
8078.94089 3.39648e-18
8079.80235 3.38521e-18
8080.66381 3.37129e-18
8081.52528 3.35737e-18
8082.38674 3.34103e-18
8083.24820 3.32468e-18
8084.10966 3.30660e-18
8084.97113 3.28851e-18
8085.83259 3.26951e-18
8086.70407 3.25050e-18
8087.56553 3.23177e-18
8088.42699 3.21305e-18
8089.28845 3.19574e-18
8090.14991 3.17843e-18
8091.01138 3.16354e-18
8091.87284 3.14867e-18
8092.73430 3.13676e-18
8093.59576 3.12487e-18
8094.45722 3.11571e-18
8095.31869 3.10656e-18
8096.18015 3.09941e-18
8097.05163 3.09228e-18
8097.91309 3.08317e-18
8098.77455 3.07406e-18
8099.63601 3.05827e-18
8100.49748 3.04246e-18
8101.35894 3.01850e-18
8102.22040 2.99451e-18
8103.08186 2.96268e-18
8103.94332 2.93083e-18
8104.80479 2.89498e-18
8105.67626 2.85912e-18
8106.53773 2.82552e-18
8107.39919 2.79192e-18
8108.26065 2.76445e-18
8109.12211 2.73699e-18
8109.98357 2.71699e-18
8110.84504 2.69699e-18
8111.70650 2.68270e-18
8112.56796 2.66841e-18
8113.42942 2.65369e-18
8114.29088 2.63896e-18
8115.15235 2.61887e-18
8116.02383 2.59876e-18
8116.88529 2.57118e-18
8117.74675 2.54359e-18
8118.60821 2.50814e-18
8119.46967 2.47267e-18
8120.33114 2.43445e-18
8121.19260 2.39623e-18
8122.05406 2.35934e-18
8122.91552 2.32246e-18
8123.77698 2.28233e-18
8124.63845 2.24221e-18
8125.49991 2.19462e-18
8126.37139 2.14701e-18
8127.23285 2.09422e-18
8128.09431 2.04143e-18
8128.95577 1.98678e-18
8129.81723 1.93213e-18
8130.67870 1.88202e-18
8131.54016 1.83191e-18
8132.40162 1.79322e-18
8133.26308 1.75456e-18
8134.12454 1.72358e-18
8134.99602 1.69263e-18
8135.85749 1.66110e-18
8136.71895 1.62957e-18
8137.58041 1.59435e-18
8138.44187 1.55912e-18
8139.30333 1.52008e-18
8140.16480 1.48104e-18
8141.02626 1.43919e-18
8141.88772 1.39733e-18
8142.74918 1.35499e-18
8143.61064 1.31265e-18
8144.47210 1.27214e-18
8145.34358 1.23163e-18
8146.20505 1.19478e-18
8147.06651 1.15795e-18
8147.92797 1.12606e-18
8148.78943 1.09420e-18
8149.65089 1.06769e-18
8150.51236 1.04121e-18
8151.37382 1.01942e-18
8152.23528 9.97647e-19
8153.09674 9.77710e-19
8153.95820 9.57781e-19
8154.82968 9.37369e-19
8155.69115 9.16962e-19
8156.55261 8.96299e-19
8157.41407 8.75636e-19
8158.27553 8.55426e-19
8159.13699 8.35219e-19
8159.99845 8.17182e-19
8160.85992 7.99149e-19
8161.72138 7.84975e-19
8162.58284 7.70809e-19
8163.44430 7.61008e-19
8164.31578 7.51218e-19
8165.17724 7.45703e-19
8166.03871 7.40196e-19
8166.90017 7.36340e-19
8167.76163 7.32489e-19
8168.62309 7.27105e-19
8169.48455 7.21721e-19
8170.34602 7.12154e-19
8171.20748 7.02579e-19
8172.06894 6.86308e-19
8172.93040 6.70019e-19
8173.80188 6.51340e-19
8174.66334 6.32658e-19
8175.52481 6.20858e-19
8176.38627 6.09077e-19
8177.24773 6.06221e-19
8178.10919 6.03387e-19
8178.97065 6.04095e-19
8179.83212 6.04809e-19
8180.69358 6.04981e-19
8181.55504 6.05152e-19
8182.41650 6.02209e-19
8183.28798 5.99262e-19
8184.14944 5.92266e-19
8185.01090 5.85263e-19
8185.87237 5.77687e-19
8186.73383 5.70108e-19
8187.59529 5.64436e-19
8188.45675 5.58764e-19
8189.31821 5.53078e-19
8190.17968 5.47388e-19
8191.04114 5.40344e-19
8191.90260 5.33294e-19
8192.77408 5.26528e-19
8193.63554 5.19762e-19
8194.49700 5.14933e-19
8195.35846 5.10107e-19
8196.21993 5.08695e-19
8197.08139 5.07291e-19
8197.94285 5.10417e-19
8198.80431 5.13550e-19
8199.66577 5.18533e-19
8200.52724 5.23519e-19
8201.38870 5.26612e-19
8202.25016 5.29701e-19
8203.12164 5.30175e-19
8203.98310 5.30646e-19
8204.84456 5.29110e-19
8205.70603 5.27571e-19
8206.56749 5.24336e-19
8207.42895 5.21093e-19
8208.29041 5.16417e-19
8209.15187 5.11737e-19
8210.01334 5.06379e-19
8210.87480 5.01021e-19
8211.73626 4.95970e-19
8212.60774 4.90921e-19
8213.46920 4.86596e-19
8214.33066 4.82273e-19
8215.19212 4.78600e-19
8216.05359 4.74931e-19
8216.91505 4.70747e-19
8217.77651 4.66564e-19
8218.63797 4.58638e-19
8219.49943 4.50701e-19
8220.36090 4.37793e-19
8221.22236 4.24873e-19
8222.08382 4.10291e-19
8222.95530 3.95705e-19
8223.81676 3.83139e-19
8224.67822 3.70577e-19
8225.53969 3.64654e-19
8226.40115 3.58748e-19
8227.26261 3.62808e-19
8228.12407 3.66890e-19
8228.98553 3.77821e-19
8229.84700 3.88767e-19
8230.70846 4.02248e-19
8231.57994 4.15737e-19
8232.44140 4.27569e-19
8233.30286 4.39401e-19
8234.16432 4.45686e-19
8235.02578 4.51959e-19
8235.88725 4.53991e-19
8236.74871 4.56008e-19
8237.61017 4.57037e-19
8238.47163 4.58065e-19
8239.33309 4.60359e-19
8240.19456 4.62657e-19
8241.06604 4.68107e-19
8241.92750 4.73563e-19
8242.78896 4.81062e-19
8243.65042 4.88565e-19
8244.51188 4.94707e-19
8245.37335 5.00850e-19
8246.23481 5.03965e-19
8247.09627 5.07072e-19
8247.95773 5.07346e-19
8248.81919 5.07612e-19
8249.68066 5.05726e-19
8250.54212 5.03837e-19
8251.41360 5.01306e-19
8252.27506 4.98771e-19
8253.13652 4.97005e-19
8253.99798 4.95244e-19
8254.85945 4.95101e-19
8255.72091 4.94966e-19
8256.58237 4.96932e-19
8257.44383 4.98906e-19
8258.30529 5.02644e-19
8259.16676 5.06387e-19
8260.02822 5.11179e-19
8260.89970 5.15976e-19
8261.76116 5.20495e-19
8262.62262 5.25018e-19
8263.48408 5.27961e-19
8264.34554 5.30901e-19
8265.20701 5.31094e-19
8266.06847 5.31280e-19
8266.92993 5.27950e-19
8267.79139 5.24613e-19
8268.65285 5.19532e-19
8269.52433 5.14444e-19
8270.38580 5.10071e-19
8271.24726 5.05701e-19
8272.10872 5.03688e-19
8272.97018 5.01681e-19
8273.83164 5.03308e-19
8274.69311 5.04942e-19
8275.55457 5.08933e-19
8276.41603 5.12923e-19
8277.27749 5.16395e-19
8278.13895 5.19864e-19
8279.01043 5.21644e-19
8279.87189 5.23420e-19
8280.73336 5.23785e-19
8281.59482 5.24146e-19
8282.45628 5.23967e-19
8283.31774 5.23785e-19
8284.17920 5.24879e-19
8285.04067 5.25977e-19
8285.90213 5.29037e-19
8286.76359 5.32101e-19
8287.62505 5.35482e-19
8288.48651 5.38864e-19
8289.34798 5.41690e-19
8290.21946 5.44513e-19
8291.08092 5.48099e-19
8291.94238 5.51684e-19
8292.80384 5.56780e-19
8293.66530 5.61875e-19
8294.52677 5.67153e-19
8295.38823 5.72427e-19
8296.24969 5.76651e-19
8297.11115 5.80875e-19
8297.97261 5.83253e-19
8298.83408 5.85628e-19
8299.70555 5.85690e-19
8300.56702 5.85744e-19
8301.42848 5.86288e-19
8302.28994 5.86831e-19
8303.15140 5.91168e-19
8304.01286 5.95512e-19
8304.87433 6.02369e-19
8305.73579 6.09227e-19
8306.59725 6.15843e-19
8307.45871 6.22459e-19
8308.32017 6.27165e-19
8309.18164 6.31863e-19
8310.05312 6.33431e-19
8310.91458 6.34992e-19
8311.77604 6.34730e-19
8312.63750 6.34460e-19
8313.49896 6.35528e-19
8314.36043 6.36597e-19
8315.22189 6.40773e-19
8316.08335 6.44961e-19
8316.94481 6.52602e-19
8317.80627 6.60254e-19
8318.67775 6.70460e-19
8319.53921 6.80673e-19
8320.40068 6.90601e-19
8321.26214 7.00530e-19
8322.12360 7.08149e-19
8322.98506 7.15761e-19
8323.84652 7.21043e-19
8324.70799 7.26321e-19
8325.56945 7.29530e-19
8326.43091 7.32740e-19
8327.29237 7.34670e-19
8328.16385 7.36599e-19
8329.02531 7.38237e-19
8329.88678 7.39871e-19
8330.74824 7.41775e-19
8331.60970 7.43683e-19
8332.47116 7.46414e-19
8333.33262 7.49150e-19
8334.19408 7.54081e-19
8335.05555 7.59020e-19
8335.91701 7.67292e-19
8336.77847 7.75572e-19
8337.64995 7.86296e-19
8338.51141 7.97019e-19
8339.37287 8.08662e-19
8340.23434 8.20308e-19
8341.09580 8.30773e-19
8341.95726 8.41234e-19
8342.81872 8.48248e-19
8343.68018 8.55254e-19
8344.54165 8.58869e-19
8345.40311 8.62473e-19
8346.26457 8.64278e-19
8347.12603 8.66076e-19
8347.99751 8.67368e-19
8348.85897 8.68662e-19
8349.72043 8.70410e-19
8350.58190 8.72157e-19
8351.44336 8.75487e-19
8352.30482 8.78821e-19
8353.16628 8.84919e-19
8354.02775 8.91025e-19
8354.88921 9.00034e-19
8355.75067 9.09051e-19
8356.62215 9.19497e-19
8357.48361 9.29951e-19
8358.34507 9.40368e-19
8359.20653 9.50785e-19
8360.06800 9.59896e-19
8360.92946 9.69000e-19
8361.79092 9.76032e-19
8362.65238 9.83061e-19
8363.51384 9.89346e-19
8364.37531 9.95627e-19
8365.23677 1.00246e-18
8366.10825 1.00930e-18
8366.96971 1.01584e-18
8367.83117 1.02237e-18
8368.69263 1.02771e-18
8369.55410 1.03305e-18
8370.41556 1.03806e-18
8371.27702 1.04308e-18
8372.13848 1.04897e-18
8372.99994 1.05485e-18
8373.86140 1.06227e-18
8374.72287 1.06968e-18
8375.59435 1.07904e-18
8376.45581 1.08841e-18
8377.31727 1.09963e-18
8378.17873 1.11085e-18
8379.04019 1.12350e-18
8379.90166 1.13615e-18
8380.76312 1.14953e-18
8381.62458 1.16291e-18
8382.48604 1.17622e-18
8383.34750 1.18952e-18
8384.20897 1.20207e-18
8385.07043 1.21461e-18
8385.94191 1.22579e-18
8386.80337 1.23696e-18
8387.66483 1.24714e-18
8388.52629 1.25731e-18
8389.38775 1.26846e-18
8390.24922 1.27961e-18
8391.11068 1.29228e-18
8391.97214 1.30496e-18
8392.83360 1.31661e-18
8393.69507 1.32826e-18
8394.55653 1.33707e-18
8395.41799 1.34587e-18
8396.28947 1.35178e-18
8397.15093 1.35768e-18
8398.01239 1.36143e-18
8398.87385 1.36517e-18
8399.73532 1.37091e-18
8400.59678 1.37664e-18
8401.45824 1.38814e-18
8402.31970 1.39965e-18
8403.18116 1.41569e-18
8404.04263 1.43174e-18
8404.90409 1.45002e-18
8405.77557 1.46829e-18
8406.63703 1.48623e-18
8407.49849 1.50418e-18
8408.35995 1.51915e-18
8409.22142 1.53411e-18
8410.08288 1.54613e-18
8410.94434 1.55814e-18
8411.80580 1.56854e-18
8412.66726 1.57894e-18
8413.52873 1.58866e-18
8414.39019 1.59838e-18
8415.26167 1.60818e-18
8416.12313 1.61798e-18
8416.98459 1.62865e-18
8417.84605 1.63933e-18
8418.70751 1.65154e-18
8419.56898 1.66374e-18
8420.43044 1.67774e-18
8421.29190 1.69174e-18
8422.15336 1.70746e-18
8423.01482 1.72319e-18
8423.87629 1.73981e-18
8424.74777 1.75644e-18
8425.60923 1.77165e-18
8426.47069 1.78687e-18
8427.33215 1.79975e-18
8428.19361 1.81263e-18
8429.05508 1.82576e-18
8429.91654 1.83890e-18
8430.77800 1.85442e-18
8431.63946 1.86993e-18
8432.50092 1.88804e-18
8433.36239 1.90616e-18
8434.23386 1.92654e-18
8435.09533 1.94692e-18
8435.95679 1.96617e-18
8436.81825 1.98543e-18
8437.67971 2.00023e-18
8438.54117 2.01502e-18
8439.40264 2.02732e-18
8440.26410 2.03961e-18
8441.12556 2.05256e-18
8441.98702 2.06552e-18
8442.84848 2.08006e-18
8443.70995 2.09461e-18
8444.58143 2.11097e-18
8445.44289 2.12733e-18
8446.30435 2.14567e-18
8447.16581 2.16401e-18
8448.02727 2.18428e-18
8448.88874 2.20455e-18
8449.75020 2.22612e-18
8450.61166 2.24769e-18
8451.47312 2.26964e-18
8452.33458 2.29160e-18
8453.20606 2.31288e-18
8454.06752 2.33416e-18
8454.92899 2.35350e-18
8455.79045 2.37283e-18
8456.65191 2.39050e-18
8457.51337 2.40816e-18
8458.37483 2.42690e-18
8459.23630 2.44565e-18
8460.09776 2.46662e-18
8460.95922 2.48759e-18
8461.82068 2.50844e-18
8462.69216 2.52929e-18
8463.55362 2.54834e-18
8464.41508 2.56739e-18
8465.27655 2.58477e-18
8466.13801 2.60215e-18
8466.99947 2.61857e-18
8467.86093 2.63498e-18
8468.72240 2.65391e-18
8469.58386 2.67285e-18
8470.44532 2.69739e-18
8471.30678 2.72193e-18
8472.16824 2.75015e-18
8473.03972 2.77839e-18
8473.90118 2.80753e-18
8474.76265 2.83668e-18
8475.62411 2.86465e-18
8476.48557 2.89262e-18
8477.34703 2.91738e-18
8478.20849 2.94215e-18
8479.06996 2.96611e-18
8479.93142 2.99006e-18
8480.79288 3.01757e-18
8481.65434 3.04509e-18
8482.51580 3.07517e-18
8483.38728 3.10525e-18
8484.24875 3.13385e-18
8485.11021 3.16244e-18
8485.97167 3.18774e-18
8486.83313 3.21303e-18
8487.69459 3.23498e-18
8488.55605 3.25693e-18
8489.41752 3.27670e-18
8490.27898 3.29646e-18
8491.14044 3.31697e-18
8492.00190 3.33749e-18
8492.87338 3.36065e-18
8493.73484 3.38381e-18
8494.59631 3.40910e-18
8495.45777 3.43439e-18
8496.31923 3.46208e-18
8497.18069 3.48978e-18
8498.04215 3.52298e-18
8498.90362 3.55619e-18
8499.76508 3.59605e-18
8500.62654 3.63593e-18
8501.48800 3.67714e-18
8502.35948 3.71836e-18
8503.22094 3.75571e-18
8504.08240 3.79306e-18
8504.94387 3.82548e-18
8505.80533 3.85787e-18
8506.66679 3.88516e-18
8507.52825 3.91240e-18
8508.38972 3.93644e-18
8509.25118 3.96048e-18
8510.11264 3.98386e-18
8510.98412 4.00727e-18
8511.84558 4.03102e-18
8512.70704 4.05476e-18
8513.56850 4.07938e-18
8514.42997 4.10397e-18
8515.29143 4.12935e-18
8516.15289 4.15474e-18
8517.01435 4.18060e-18
8517.87581 4.20646e-18
8518.73728 4.23279e-18
8519.59874 4.25909e-18
8520.46020 4.28597e-18
8521.33168 4.31282e-18
8522.19314 4.34142e-18
8523.05460 4.36998e-18
8523.91607 4.40247e-18
8524.77753 4.43501e-18
8525.63899 4.47218e-18
8526.50045 4.50934e-18
8527.36191 4.54983e-18
8528.22337 4.59028e-18
8529.08484 4.63194e-18
8529.94630 4.67359e-18
8530.80776 4.71295e-18
8531.67924 4.75230e-18
8532.54070 4.78655e-18
8533.40216 4.82076e-18
8534.26363 4.84881e-18
8535.12509 4.87686e-18
8535.98655 4.89900e-18
8536.84801 4.92118e-18
8537.70947 4.94171e-18
8538.57094 4.96225e-18
8539.43240 4.98570e-18
8540.30388 5.00919e-18
8541.16534 5.03859e-18
8542.02680 5.06799e-18
8542.88826 5.10512e-18
8543.74972 5.14229e-18
8544.61119 5.18471e-18
8545.47265 5.22713e-18
8546.33411 5.27093e-18
8547.19557 5.31470e-18
8548.05703 5.35315e-18
8548.91850 5.39155e-18
8549.78998 5.41719e-18
8550.65144 5.44284e-18
8551.51290 5.45637e-18
8552.37436 5.46986e-18
8553.23582 5.47687e-18
8554.09729 5.48387e-18
8554.95875 5.49193e-18
8555.82021 5.50003e-18
8556.68167 5.51812e-18
8557.54313 5.53625e-18
8558.40460 5.56845e-18
8559.27607 5.60066e-18
8560.13754 5.64447e-18
8560.99900 5.68827e-18
8561.86046 5.73890e-18
8562.72192 5.78953e-18
8563.58338 5.83913e-18
8564.44485 5.88877e-18
8565.30631 5.93021e-18
8566.16777 5.97161e-18
8567.02923 6.00009e-18
8567.89070 6.02854e-18
8568.75216 6.04182e-18
8569.62364 6.05510e-18
8570.48510 6.05692e-18
8571.34656 6.05875e-18
8572.20802 6.05455e-18
8573.06948 6.05032e-18
8573.93095 6.04605e-18
8574.79241 6.04178e-18
8575.65387 6.04321e-18
8576.51533 6.04467e-18
8577.37679 6.05783e-18
8578.23826 6.07104e-18
8579.09972 6.10051e-18
8579.97120 6.13002e-18
8580.83266 6.17007e-18
8581.69412 6.21015e-18
8582.55558 6.25126e-18
8583.41705 6.29236e-18
8584.27851 6.32683e-18
8585.13997 6.36134e-18
8586.00143 6.38293e-18
8586.86289 6.40452e-18
8587.72436 6.41237e-18
8588.58582 6.42021e-18
8589.45730 6.41780e-18
8590.31876 6.41532e-18
8591.18022 6.40803e-18
8592.04168 6.40073e-18
8592.90314 6.39584e-18
8593.76461 6.39096e-18
8594.62607 6.39256e-18
8595.48753 6.39413e-18
8596.34899 6.40058e-18
8597.21045 6.40700e-18
8598.07192 6.41729e-18
8598.94340 6.42761e-18
8599.80486 6.44279e-18
8600.66632 6.45800e-18
8601.52778 6.47762e-18
8602.38924 6.49724e-18
8603.25071 6.51818e-18
8604.11217 6.53915e-18
8604.97363 6.55797e-18
8605.83509 6.57683e-18
8606.69655 6.58894e-18
8607.56803 6.60105e-18
8608.42949 6.60273e-18
8609.29096 6.60437e-18
8610.15242 6.59663e-18
8611.01388 6.58883e-18
8611.87534 6.57431e-18
8612.73680 6.55976e-18
8613.59827 6.54145e-18
8614.45973 6.52310e-18
8615.32119 6.50414e-18
8616.18265 6.48517e-18
8617.04411 6.47149e-18
8617.91559 6.45781e-18
8618.77706 6.45592e-18
8619.63852 6.45402e-18
8620.49998 6.46427e-18
8621.36144 6.47452e-18
8622.22290 6.49338e-18
8623.08437 6.51231e-18
8623.94583 6.53477e-18
8624.80729 6.55728e-18
8625.66875 6.57701e-18
8626.53021 6.59674e-18
8627.40169 6.60991e-18
8628.26315 6.62304e-18
8629.12462 6.62953e-18
8629.98608 6.63603e-18
8630.84754 6.63570e-18
8631.70900 6.63537e-18
8632.57046 6.62735e-18
8633.43193 6.61929e-18
8634.29339 6.60466e-18
8635.15485 6.59003e-18
8636.01631 6.57340e-18
8636.88779 6.55673e-18
8637.74925 6.54287e-18
8638.61072 6.52905e-18
8639.47218 6.52350e-18
8640.33364 6.51800e-18
8641.19510 6.52460e-18
8642.05656 6.53120e-18
8642.91803 6.54670e-18
8643.77949 6.56228e-18
8644.64095 6.58186e-18
8645.50241 6.60145e-18
8646.37389 6.62002e-18
8647.23535 6.63858e-18
8648.09681 6.65105e-18
8648.95828 6.66349e-18
8649.81974 6.66798e-18
8650.68120 6.67247e-18
8651.54266 6.66904e-18
8652.40412 6.66557e-18
8653.26559 6.65368e-18
8654.12705 6.64179e-18
8654.98851 6.62107e-18
8655.85999 6.60036e-18
8656.72145 6.57442e-18
8657.58291 6.54849e-18
8658.44438 6.52358e-18
8659.30584 6.49866e-18
8660.16730 6.47904e-18
8661.02876 6.45945e-18
8661.89022 6.44702e-18
8662.75168 6.43465e-18
8663.61315 6.43042e-18
8664.47461 6.42623e-18
8665.33607 6.42991e-18
8666.20755 6.43359e-18
8667.06901 6.44344e-18
8667.93047 6.45333e-18
8668.79194 6.46627e-18
8669.65340 6.47926e-18
8670.51486 6.49115e-18
8671.37632 6.50304e-18
8672.23778 6.50673e-18
8673.09925 6.51037e-18
8673.96071 6.50052e-18
8674.82217 6.49064e-18
8675.68363 6.46886e-18
8676.55511 6.44705e-18
8677.41657 6.41685e-18
8678.27803 6.38658e-18
8679.13950 6.35386e-18
8680.00096 6.32111e-18
8680.86242 6.29233e-18
8681.72388 6.26359e-18
8682.58535 6.24137e-18
8683.44681 6.21920e-18
8684.30827 6.20446e-18
8685.16973 6.18973e-18
8686.04121 6.18334e-18
8686.90267 6.17700e-18
8687.76413 6.17907e-18
8688.62560 6.18119e-18
8689.48706 6.19013e-18
8690.34852 6.19906e-18
8691.20998 6.21219e-18
8692.07144 6.22536e-18
8692.93291 6.23827e-18
8693.79437 6.25115e-18
8694.66585 6.25811e-18
8695.52731 6.26508e-18
8696.38877 6.26267e-18
8697.25023 6.26023e-18
8698.11170 6.24783e-18
8698.97316 6.23539e-18
8699.83462 6.21435e-18
8700.69608 6.19330e-18
8701.55754 6.16817e-18
8702.41900 6.14304e-18
8703.28047 6.11769e-18
8704.15195 6.09230e-18
8705.01341 6.06681e-18
8705.87487 6.04135e-18
8706.73633 6.01680e-18
8707.59779 5.99229e-18
8708.45926 5.97383e-18
8709.32072 5.95541e-18
8710.18218 5.94706e-18
8711.04364 5.93871e-18
8711.90510 5.94060e-18
8712.76657 5.94257e-18
8713.62803 5.95330e-18
8714.49951 5.96402e-18
8715.36097 5.97573e-18
8716.22243 5.98744e-18
8717.08389 5.99123e-18
8717.94535 5.99502e-18
8718.80682 5.98729e-18
8719.66828 5.97949e-18
8720.52974 5.95888e-18
8721.39120 5.93823e-18
8722.25267 5.90978e-18
8723.11413 5.88133e-18
8723.98561 5.85390e-18
8724.84707 5.82644e-18
8725.70853 5.80328e-18
8726.56999 5.78008e-18
8727.43145 5.76024e-18
8728.29292 5.74043e-18
8729.15438 5.72402e-18
8730.01584 5.70761e-18
8730.87730 5.69506e-18
8731.73876 5.68247e-18
8732.61024 5.67496e-18
8733.47170 5.66741e-18
8734.33317 5.66839e-18
8735.19463 5.66942e-18
8736.05609 5.67788e-18
8736.91755 5.68634e-18
8737.77902 5.69229e-18
8738.64048 5.69823e-18
8739.50194 5.69320e-18
8740.36340 5.68816e-18
8741.22486 5.66752e-18
8742.08633 5.64684e-18
8742.95780 5.60938e-18
8743.81927 5.57188e-18
8744.68073 5.52841e-18
8745.54219 5.48489e-18
8746.40365 5.44714e-18
8747.26511 5.40939e-18
8748.12658 5.38284e-18
8748.98804 5.35636e-18
8749.84950 5.34432e-18
8750.71096 5.33232e-18
8751.57242 5.33141e-18
8752.44390 5.33053e-18
8753.30537 5.33425e-18
8754.16683 5.33801e-18
8755.02829 5.34282e-18
8755.88975 5.34764e-18
8756.75121 5.35121e-18
8757.61268 5.35479e-18
8758.47414 5.35191e-18
8759.33560 5.34899e-18
8760.19706 5.33330e-18
8761.05852 5.31758e-18
8761.91999 5.28808e-18
8762.79146 5.25853e-18
8763.65293 5.21859e-18
8764.51439 5.17862e-18
8765.37585 5.13379e-18
8766.23731 5.08900e-18
8767.09877 5.04727e-18
8767.96024 5.00562e-18
8768.82170 4.97213e-18
8769.68316 4.93872e-18
8770.54462 4.91286e-18
8771.40608 4.88704e-18
8772.26755 4.86767e-18
8773.13903 4.84834e-18
8774.00049 4.83459e-18
8774.86195 4.82080e-18
8775.72341 4.81081e-18
8776.58487 4.80078e-18
8777.44633 4.79290e-18
8778.30780 4.78506e-18
8779.16926 4.77703e-18
8780.03072 4.76901e-18
8780.89218 4.75387e-18
8781.76366 4.73870e-18
8782.62512 4.71017e-18
8783.48659 4.68158e-18
8784.34805 4.64266e-18
8785.20951 4.60374e-18
8786.07097 4.56001e-18
8786.93243 4.51627e-18
8787.79390 4.47192e-18
8788.65536 4.42757e-18
8789.51682 4.38668e-18
8790.37828 4.34579e-18
8791.24976 4.30826e-18
8792.11122 4.27073e-18
8792.97268 4.23363e-18
8793.83415 4.19650e-18
8794.69561 4.16171e-18
8795.55707 4.12695e-18
8796.41853 4.09981e-18
8797.28000 4.07274e-18
8798.14146 4.05221e-18
8799.00292 4.03171e-18
8799.86438 4.01063e-18
8800.72584 3.98955e-18
8801.59732 3.96208e-18
8802.45878 3.93462e-18
8803.32025 3.89683e-18
8804.18171 3.85904e-18
8805.04317 3.81042e-18
8805.90463 3.76180e-18
8806.76609 3.70935e-18
8807.62756 3.65686e-18
8808.48902 3.60695e-18
8809.35048 3.55707e-18
8810.21194 3.51280e-18
8811.08342 3.46855e-18
8811.94488 3.43197e-18
8812.80635 3.39542e-18
8813.66781 3.36573e-18
8814.52927 3.33606e-18
8815.39073 3.31131e-18
8816.25219 3.28657e-18
8817.11365 3.26434e-18
8817.97512 3.24212e-18
8818.83658 3.21969e-18
8819.70806 3.19726e-18
8820.56952 3.17136e-18
8821.43098 3.14545e-18
8822.29244 3.11321e-18
8823.15391 3.08095e-18
8824.01537 3.04202e-18
8824.87683 3.00308e-18
8825.73829 2.95849e-18
8826.59975 2.91388e-18
8827.46122 2.86774e-18
8828.32268 2.82159e-18
8829.19416 2.77981e-18
8830.05562 2.73804e-18
8830.91708 2.70364e-18
8831.77854 2.66926e-18
8832.64000 2.64245e-18
8833.50147 2.61566e-18
8834.36293 2.59549e-18
8835.22439 2.57533e-18
8836.08585 2.55943e-18
8836.94732 2.54355e-18
8837.80878 2.52915e-18
8838.67024 2.51476e-18
8839.54172 2.49904e-18
8840.40318 2.48332e-18
8841.26464 2.46417e-18
8842.12610 2.44502e-18
8842.98757 2.42217e-18
8843.84903 2.39932e-18
8844.71049 2.37321e-18
8845.57195 2.34710e-18
8846.43341 2.31926e-18
8847.29488 2.29142e-18
8848.15634 2.26381e-18
8849.02782 2.23620e-18
8849.88928 2.20986e-18
8850.75074 2.18353e-18
8851.61220 2.15946e-18
8852.47367 2.13540e-18
8853.33513 2.11872e-18
8854.19659 2.10205e-18
8855.05805 2.09784e-18
8855.91951 2.09366e-18
8856.78097 2.09788e-18
8857.64244 2.10212e-18
8858.50390 2.10764e-18
8859.36536 2.11317e-18
8860.23684 2.11411e-18
8861.09830 2.11503e-18
8861.95976 2.10608e-18
8862.82123 2.09709e-18
8863.68269 2.08024e-18
8864.54415 2.06337e-18
8865.40561 2.04637e-18
8866.26707 2.02938e-18
8867.12854 2.01584e-18
8867.99000 2.00231e-18
8868.86148 1.99132e-18
8869.72294 1.98033e-18
8870.58440 1.97149e-18
8871.44586 1.96266e-18
8872.30732 1.95563e-18
8873.16879 1.94861e-18
8874.03025 1.94378e-18
8874.89171 1.93895e-18
8875.75317 1.93929e-18
8876.61463 1.93965e-18
8877.47610 1.94637e-18
8878.34758 1.95311e-18
8879.20904 1.96250e-18
8880.07050 1.97189e-18
8880.93196 1.98004e-18
8881.79342 1.98818e-18
8882.65489 1.99147e-18
8883.51635 1.99474e-18
8884.37781 1.99052e-18
8885.23927 1.98629e-18
8886.10073 1.97701e-18
8886.96220 1.96771e-18
8887.83367 1.95719e-18
8888.69514 1.94666e-18
8889.55660 1.93841e-18
8890.41806 1.93017e-18
8891.27952 1.92741e-18
8892.14099 1.92467e-18
8893.00245 1.92920e-18
8893.86391 1.93375e-18
8894.72537 1.94629e-18
8895.58683 1.95885e-18
8896.44830 1.97644e-18
8897.30976 1.99405e-18
8898.18124 2.01167e-18
8899.04270 2.02929e-18
8899.90416 2.04262e-18
8900.76562 2.05593e-18
8901.62708 2.06139e-18
8902.48855 2.06682e-18
8903.35001 2.06496e-18
8904.21147 2.06308e-18
8905.07293 2.05986e-18
8905.93439 2.05663e-18
8906.80587 2.05597e-18
8907.66734 2.05532e-18
8908.52880 2.05682e-18
8909.39026 2.05834e-18
8910.25172 2.06202e-18
8911.11318 2.06571e-18
8911.97465 2.07230e-18
8912.83611 2.07889e-18
8913.69757 2.08869e-18
8914.55903 2.09849e-18
8915.42049 2.11219e-18
8916.29197 2.12589e-18
8917.15343 2.14332e-18
8918.01490 2.16076e-18
8918.87636 2.17744e-18
8919.73782 2.19412e-18
8920.59928 2.20557e-18
8921.46074 2.21700e-18
8922.32221 2.22194e-18
8923.18367 2.22686e-18
8924.04513 2.22515e-18
8924.90659 2.22342e-18
8925.76805 2.22036e-18
8926.63953 2.21729e-18
8927.50100 2.22009e-18
8928.36246 2.22290e-18
8929.22392 2.23182e-18
8930.08538 2.24077e-18
8930.94684 2.25257e-18
8931.80831 2.26437e-18
8932.66977 2.27668e-18
8933.53123 2.28899e-18
8934.39269 2.29952e-18
8935.25415 2.31004e-18
8936.12563 2.31987e-18
8936.98709 2.32970e-18
8937.84856 2.34398e-18
8938.71002 2.35828e-18
8939.57148 2.37726e-18
8940.43294 2.39624e-18
8941.29440 2.41291e-18
8942.15587 2.42957e-18
8943.01733 2.43881e-18
8943.87879 2.44802e-18
8944.74025 2.44751e-18
8945.61173 2.44697e-18
8946.47319 2.43756e-18
8947.33466 2.42811e-18
8948.19612 2.42058e-18
8949.05758 2.41305e-18
8949.91904 2.41617e-18
8950.78050 2.41931e-18
8951.64197 2.43035e-18
8952.50343 2.44141e-18
8953.36489 2.45597e-18
8954.22635 2.47054e-18
8955.08781 2.47713e-18
8955.95929 2.48370e-18
8956.82075 2.47105e-18
8957.68222 2.45834e-18
8958.54368 2.44048e-18
8959.40514 2.42260e-18
8960.26660 2.42022e-18
8961.12806 2.41788e-18
8961.98953 2.43394e-18
8962.85099 2.45004e-18
8963.71245 2.48062e-18
8964.57391 2.51124e-18
8965.44539 2.54642e-18
8966.30685 2.58162e-18
8967.16832 2.60642e-18
8968.02978 2.63120e-18
8968.89124 2.64725e-18
8969.75270 2.66329e-18
8970.61416 2.68700e-18
8971.47563 2.71073e-18
8972.33709 2.74777e-18
8973.19855 2.78485e-18
8974.06001 2.82820e-18
8974.93149 2.87156e-18
8975.79295 2.91105e-18
8976.65441 2.95053e-18
8977.51588 2.97060e-18
8978.37734 2.99063e-18
8979.23880 2.97919e-18
8980.10026 2.96767e-18
8980.96172 2.91691e-18
8981.82319 2.86606e-18
8982.68465 2.78100e-18
8983.54611 2.69584e-18
8984.41759 2.62222e-18
8985.27905 2.54863e-18
8986.14051 2.52867e-18
8987.00198 2.50884e-18
8987.86344 2.55699e-18
8988.72490 2.60533e-18
8989.58636 2.72378e-18
8990.44782 2.84242e-18
8991.30928 2.97465e-18
8992.17075 3.10690e-18
8993.03221 3.18484e-18
8993.89367 3.26262e-18
8994.76515 3.27606e-18
8995.62661 3.28933e-18
8996.48807 3.25072e-18
8997.34954 3.21197e-18
8998.21100 3.15175e-18
8999.07246 3.09147e-18
8999.93392 3.05117e-18
9000.79538 3.01093e-18
9001.65685 3.00866e-18
9002.51831 3.00650e-18
9003.38979 3.04115e-18
9004.25125 3.07590e-18
9005.11271 3.13539e-18
9005.97417 3.19493e-18
9006.83563 3.25557e-18
9007.69710 3.31620e-18
9008.55856 3.35953e-18
9009.42002 3.40280e-18
9010.28148 3.42024e-18
9011.14295 3.43761e-18
9012.00441 3.42956e-18
9012.87589 3.42144e-18
9013.73735 3.40824e-18
9014.59881 3.39503e-18
9015.46027 3.39178e-18
9016.32173 3.38855e-18
9017.18320 3.38603e-18
9018.04466 3.38351e-18
9018.90612 3.37486e-18
9019.76758 3.36619e-18
9020.62904 3.35934e-18
9021.49051 3.35248e-18
9022.35197 3.35567e-18
9023.22345 3.35888e-18
9024.08491 3.38246e-18
9024.94637 3.40611e-18
9025.80783 3.45838e-18
9026.66930 3.51073e-18
9027.53076 3.57912e-18
9028.39222 3.64756e-18
9029.25368 3.71307e-18
9030.11514 3.77854e-18
9030.97660 3.82796e-18
9031.83807 3.87731e-18
9032.70955 3.90084e-18
9033.57101 3.92429e-18
9034.43247 3.92105e-18
9035.29393 3.91773e-18
9036.15539 3.89271e-18
9037.01686 3.86761e-18
9037.87832 3.83365e-18
9038.73978 3.79966e-18
9039.60124 3.77650e-18
9040.46270 3.75341e-18
9041.32417 3.74633e-18
9042.18563 3.73929e-18
9043.05711 3.73386e-18
9043.91857 3.72839e-18
9044.78003 3.71697e-18
9045.64149 3.70552e-18
9046.50295 3.69268e-18
9047.36442 3.67984e-18
9048.22588 3.66956e-18
9049.08734 3.65927e-18
9049.94880 3.65788e-18
9050.81027 3.65646e-18
9051.67173 3.66565e-18
9052.54321 3.67488e-18
9053.40467 3.67587e-18
9054.26613 3.67678e-18
9055.12759 3.65307e-18
9055.98905 3.62931e-18
9056.85052 3.58970e-18
9057.71198 3.55005e-18
9058.57344 3.50647e-18
9059.43490 3.46289e-18
9060.29636 3.41682e-18
9061.16784 3.37075e-18
9062.02931 3.32279e-18
9062.89077 3.27482e-18
9063.75223 3.22322e-18
9064.61369 3.17160e-18
9065.47515 3.11251e-18
9066.33662 3.05340e-18
9067.19808 3.00187e-18
9068.05954 2.95036e-18
9068.92100 2.93137e-18
9069.78246 2.91248e-18
9070.64393 2.92051e-18
9071.51540 2.92862e-18
9072.37687 2.93571e-18
9073.23833 2.94279e-18
9074.09979 2.93860e-18
9074.96125 2.93439e-18
9075.82271 2.92673e-18
9076.68418 2.91907e-18
9077.54564 2.91284e-18
9078.40710 2.90662e-18
9079.26856 2.90464e-18
9080.13002 2.90267e-18
9080.99149 2.90483e-18
9081.86297 2.90699e-18
9082.72443 2.90358e-18
9083.58589 2.90016e-18
9084.44735 2.88577e-18
9085.30881 2.87135e-18
9086.17028 2.85667e-18
9087.03174 2.84199e-18
9087.89320 2.83524e-18
9088.75466 2.82851e-18
9089.61612 2.81920e-18
9090.48760 2.80987e-18
9091.34906 2.78791e-18
9092.21053 2.76605e-18
9093.07199 2.74185e-18
9093.93345 2.71765e-18
9094.79491 2.70391e-18
9095.65637 2.69020e-18
9096.51784 2.68332e-18
9097.37930 2.67646e-18
9098.24076 2.66887e-18
9099.10222 2.66126e-18
9099.97370 2.65490e-18
9100.83516 2.64855e-18
9101.69663 2.64749e-18
9102.55809 2.64645e-18
9103.41955 2.65846e-18
9104.28101 2.67051e-18
9105.14247 2.70673e-18
9106.00393 2.74301e-18
9106.86540 2.79023e-18
9107.72686 2.83748e-18
9108.58832 2.86186e-18
9109.45980 2.88617e-18
9110.32126 2.87327e-18
9111.18272 2.86027e-18
9112.04419 2.81850e-18
9112.90565 2.77665e-18
9113.76711 2.72326e-18
9114.62857 2.66985e-18
9115.49003 2.64028e-18
9116.35150 2.61077e-18
9117.21296 2.62347e-18
9118.07442 2.63628e-18
9118.93588 2.66392e-18
9119.80736 2.69160e-18
9120.66882 2.70749e-18
9121.53028 2.72335e-18
9122.39175 2.71040e-18
9123.25321 2.69738e-18
9124.11467 2.64533e-18
9124.97613 2.59318e-18
9125.83760 2.52610e-18
9126.69906 2.45899e-18
9127.56052 2.40619e-18
9128.43200 2.35342e-18
9129.29346 2.33002e-18
9130.15492 2.30671e-18
9131.01638 2.32247e-18
9131.87785 2.33834e-18
9132.73931 2.38669e-18
9133.60077 2.43513e-18
9134.46223 2.50120e-18
9135.32369 2.56731e-18
9136.18516 2.63563e-18
9137.04662 2.70395e-18
9137.90808 2.75855e-18
9138.76954 2.81311e-18
9139.64102 2.84371e-18
9140.50248 2.87425e-18
9141.36395 2.87739e-18
9142.22541 2.88046e-18
9143.08687 2.85093e-18
9143.94833 2.82132e-18
9144.80979 2.75164e-18
9145.67125 2.68186e-18
9146.53272 2.58106e-18
9147.39418 2.48018e-18
9148.26566 2.37871e-18
9149.12712 2.27724e-18
9149.98858 2.20271e-18
9150.85004 2.12827e-18
9151.71151 2.10304e-18
9152.57297 2.07796e-18
9153.43443 2.11076e-18
9154.29589 2.14371e-18
9155.15735 2.20587e-18
9156.01882 2.26809e-18
9156.88028 2.32931e-18
9157.75176 2.39053e-18
9158.61322 2.43665e-18
9159.47468 2.48274e-18
9160.33614 2.50283e-18
9161.19760 2.52285e-18
9162.05907 2.51764e-18
9162.92053 2.51235e-18
9163.78199 2.48778e-18
9164.64345 2.46315e-18
9165.50492 2.41840e-18
9166.36638 2.37359e-18
9167.22784 2.30759e-18
9168.09932 2.24154e-18
9168.96078 2.17067e-18
9169.82224 2.09980e-18
9170.68370 2.04624e-18
9171.54517 1.99273e-18
9172.40663 1.96754e-18
9173.26809 1.94243e-18
9174.12955 1.95045e-18
9174.99101 1.95855e-18
9175.85248 1.98614e-18
9176.71394 2.01378e-18
9177.58542 2.02998e-18
9178.44688 2.04615e-18
9179.30834 2.04196e-18
9180.16980 2.03771e-18
9181.03127 2.03344e-18
9181.89273 2.02917e-18
9182.75419 2.03600e-18
9183.61565 2.04287e-18
9184.47711 2.05683e-18
9185.33857 2.07080e-18
9186.20004 2.08706e-18
9187.07152 2.10332e-18
9187.93298 2.11023e-18
9188.79444 2.11711e-18
9189.65590 2.10818e-18
9190.51736 2.09921e-18
9191.37883 2.09248e-18
9192.24029 2.08576e-18
9193.10175 2.09727e-18
9193.96321 2.10883e-18
9194.82467 2.13144e-18
9195.68614 2.15409e-18
9196.55762 2.17763e-18
9197.41908 2.20117e-18
9198.28054 2.21644e-18
9199.14200 2.23169e-18
9200.00346 2.22984e-18
9200.86492 2.22795e-18
9201.72639 2.21550e-18
9202.58785 2.20302e-18
9203.44931 2.19278e-18
9204.31077 2.18255e-18
9205.17224 2.17491e-18
9206.04371 2.16726e-18
9206.90518 2.15657e-18
9207.76664 2.14587e-18
9208.62810 2.13392e-18
9209.48956 2.12197e-18
9210.35102 2.11480e-18
9211.21249 2.10763e-18
9212.07395 2.11126e-18
9212.93541 2.11493e-18
9213.79687 2.13630e-18
9214.65833 2.15772e-18
9215.52981 2.19545e-18
9216.39127 2.23323e-18
9217.25274 2.27298e-18
9218.11420 2.31273e-18
9218.97566 2.34519e-18
9219.83712 2.37763e-18
9220.69859 2.40577e-18
9221.56005 2.43390e-18
9222.42151 2.45939e-18
9223.28297 2.48488e-18
9224.14443 2.50488e-18
9225.00590 2.52488e-18
9225.87737 2.53741e-18
9226.73884 2.54992e-18
9227.60030 2.55290e-18
9228.46176 2.55586e-18
9229.32322 2.54848e-18
9230.18468 2.54108e-18
9231.04615 2.53176e-18
9231.90761 2.52244e-18
9232.76907 2.52087e-18
9233.63053 2.51933e-18
9234.49199 2.52340e-18
9235.35346 2.52748e-18
9236.22494 2.53170e-18
9237.08640 2.53593e-18
9237.94786 2.54281e-18
9238.80932 2.54970e-18
9239.67078 2.56436e-18
9240.53225 2.57905e-18
9241.39371 2.60396e-18
9242.25517 2.62890e-18
9243.11663 2.66506e-18
9243.97809 2.70126e-18
9244.84957 2.74552e-18
9245.71103 2.78980e-18
9246.57250 2.83497e-18
9247.43396 2.88015e-18
9248.29542 2.92214e-18
9249.15688 2.96411e-18
9250.01834 3.00375e-18
9250.87981 3.04339e-18
9251.74127 3.07869e-18
9252.60273 3.11397e-18
9253.46419 3.13646e-18
9254.32565 3.15891e-18
9255.19713 3.16721e-18
9256.05860 3.17547e-18
9256.92006 3.18603e-18
9257.78152 3.19659e-18
9258.64298 3.22178e-18
9259.50444 3.24700e-18
9260.36591 3.28307e-18
9261.22737 3.31917e-18
9262.08883 3.35949e-18
9262.95029 3.39980e-18
9263.81175 3.42980e-18
9264.68323 3.45976e-18
9265.54469 3.46552e-18
9266.40616 3.47120e-18
9267.26762 3.45310e-18
9268.12908 3.43494e-18
9268.99054 3.39872e-18
9269.85200 3.36246e-18
9270.71347 3.32161e-18
9271.57493 3.28075e-18
9272.43639 3.25135e-18
9273.29785 3.22197e-18
9274.16933 3.21668e-18
9275.03079 3.21146e-18
9275.89226 3.23959e-18
9276.75372 3.26780e-18
9277.61518 3.32460e-18
9278.47664 3.38148e-18
9279.33810 3.45131e-18
9280.19957 3.52118e-18
9281.06103 3.58717e-18
9281.92249 3.65314e-18
9282.79397 3.69899e-18
9283.65543 3.74480e-18
9284.51689 3.75757e-18
9285.37835 3.77022e-18
9286.23982 3.74221e-18
9287.10128 3.71409e-18
9287.96274 3.64869e-18
9288.82420 3.58315e-18
9289.68566 3.50109e-18
9290.54713 3.41898e-18
9291.40859 3.34437e-18
9292.27005 3.26978e-18
9293.14153 3.23438e-18
9294.00299 3.19908e-18
9294.86445 3.22360e-18
9295.72592 3.24829e-18
9296.58738 3.31139e-18
9297.44884 3.37459e-18
9298.31030 3.44793e-18
9299.17176 3.52129e-18
9300.03323 3.56623e-18
9300.89469 3.61109e-18
9301.75615 3.59060e-18
9302.62763 3.56991e-18
9303.48909 3.51955e-18
9304.35055 3.46912e-18
9305.21201 3.44709e-18
9306.07348 3.42515e-18
9306.93494 3.41790e-18
9307.79640 3.41068e-18
9308.65786 3.37599e-18
9309.51932 3.34121e-18
9310.38079 3.28102e-18
9311.24225 3.22076e-18
9312.11373 3.16000e-18
9312.97519 3.09923e-18
9313.83665 3.06232e-18
9314.69811 3.02547e-18
9315.55958 3.04018e-18
9316.42104 3.05504e-18
9317.28250 3.11597e-18
9318.14396 3.17704e-18
9319.00542 3.23078e-18
9319.86688 3.28449e-18
9320.72835 3.31008e-18
9321.58981 3.33559e-18
9322.46129 3.38225e-18
9323.32275 3.42896e-18
9324.18421 3.50745e-18
9325.04567 3.58604e-18
9325.90714 3.59572e-18
9326.76860 3.60520e-18
9327.63006 3.48401e-18
9328.49152 3.36245e-18
9329.35298 3.20782e-18
9330.21445 3.05310e-18
9331.07591 2.95935e-18
9331.94739 2.86578e-18
9332.80885 2.81472e-18
9333.67031 2.76378e-18
9334.53177 2.72817e-18
9335.39323 2.69260e-18
9336.25470 2.67305e-18
9337.11616 2.65354e-18
9337.97762 2.64537e-18
9338.83908 2.63724e-18
9339.70055 2.72352e-18
9340.56201 2.81007e-18
9341.43349 3.10329e-18
9342.29495 3.39709e-18
9343.15641 3.75315e-18
9344.01787 4.10936e-18
9344.87933 4.26318e-18
9345.74080 4.41637e-18
9346.60226 4.28886e-18
9347.46372 4.16050e-18
9348.32518 3.79678e-18
9349.18664 3.43240e-18
9350.04811 2.99975e-18
9350.90957 2.56691e-18
9351.78105 2.37380e-18
9352.64251 2.18139e-18
9353.50397 2.32904e-18
9354.36543 2.47766e-18
9355.22689 2.74291e-18
9356.08836 3.00849e-18
9356.94982 3.20372e-18
9357.81128 3.39874e-18
9358.67274 3.41202e-18
9359.53420 3.42478e-18
9360.39567 3.20773e-18
9361.26715 2.99002e-18
9362.12861 2.71844e-18
9362.99007 2.44671e-18
9363.85153 2.28653e-18
9364.71299 2.12667e-18
9365.57446 2.08745e-18
9366.43592 2.04857e-18
9367.29738 2.11432e-18
9368.15884 2.18036e-18
9369.02030 2.26864e-18
9369.89178 2.35698e-18
9370.75324 2.37339e-18
9371.61471 2.38960e-18
9372.47617 2.33992e-18
9373.33763 2.29006e-18
9374.19909 2.20958e-18
9375.06056 2.12901e-18
9375.92202 2.07166e-18
9376.78348 2.01438e-18
9377.64494 2.04605e-18
9378.50640 2.07798e-18
9379.37788 2.17369e-18
9380.23934 2.26958e-18
9381.10081 2.34449e-18
9381.96227 2.41933e-18
9382.82373 2.44640e-18
9383.68519 2.47334e-18
9384.54665 2.47698e-18
9385.40812 2.48054e-18
9386.26958 2.46749e-18
9387.13104 2.45439e-18
9387.99250 2.41323e-18
9388.85396 2.37198e-18
9389.72544 2.30205e-18
9390.58691 2.23204e-18
9391.44837 2.14391e-18
9392.30983 2.05573e-18
9393.17129 1.96384e-18
9394.03275 1.87195e-18
9394.89422 1.80197e-18
9395.75568 1.73206e-18
9396.61714 1.70136e-18
9397.47860 1.67078e-18
9398.34006 1.66648e-18
9399.21154 1.66227e-18
9400.07300 1.66820e-18
9400.93447 1.67416e-18
9401.79593 1.67476e-18
9402.65739 1.67534e-18
9403.51885 1.65700e-18
9404.38031 1.63861e-18
9405.24178 1.61662e-18
9406.10324 1.59463e-18
9406.96470 1.59048e-18
9407.82616 1.58638e-18
9408.69764 1.60029e-18
9409.55910 1.61426e-18
9410.42057 1.63877e-18
9411.28203 1.66332e-18
9412.14349 1.68683e-18
9413.00495 1.71034e-18
9413.86641 1.71910e-18
9414.72788 1.72781e-18
9415.58934 1.71264e-18
9416.45080 1.69740e-18
9417.31226 1.65547e-18
9418.17372 1.61346e-18
9419.04520 1.54770e-18
9419.90666 1.48187e-18
9420.76813 1.39667e-18
9421.62959 1.31142e-18
9422.49105 1.23728e-18
9423.35251 1.16317e-18
9424.21397 1.17285e-18
9425.07544 1.18278e-18
9425.93690 1.29966e-18
9426.79836 1.41684e-18
9427.65982 1.56461e-18
9428.53130 1.71246e-18
9429.39276 1.81758e-18
9430.25423 1.92256e-18
9431.11569 1.91692e-18
9431.97715 1.91096e-18
9432.83861 1.76007e-18
9433.70007 1.60877e-18
9434.56153 1.43227e-18
9435.42300 1.25572e-18
9436.28446 1.17877e-18
9437.14592 1.10211e-18
9438.01740 1.14442e-18
9438.87886 1.18708e-18
9439.74032 1.34054e-18
9440.60179 1.49433e-18
9441.46325 1.68101e-18
9442.32471 1.86778e-18
9443.18617 1.98735e-18
9444.04763 2.10673e-18
9444.90910 2.13051e-18
9445.77056 2.15400e-18
9446.63202 2.08824e-18
9447.49348 2.02221e-18
9448.36496 1.90241e-18
9449.22642 1.78246e-18
9450.08788 1.66574e-18
9450.94935 1.54904e-18
9451.81081 1.47261e-18
9452.67227 1.39631e-18
9453.53373 1.37470e-18
9454.39520 1.35324e-18
9455.25666 1.39004e-18
9456.11812 1.42702e-18
9456.98960 1.51332e-18
9457.85106 1.59976e-18
9458.71252 1.70972e-18
9459.57398 1.81975e-18
9460.43545 1.90122e-18
9461.29691 1.98261e-18
9462.15837 2.00417e-18
9463.01983 2.02557e-18
9463.88129 2.01178e-18
9464.74276 1.99789e-18
9465.60422 1.97440e-18
9466.47570 1.95089e-18
9467.33716 1.93347e-18
9468.19862 1.91608e-18
9469.06008 1.91739e-18
9469.92155 1.91876e-18
9470.78301 1.91939e-18
9471.64447 1.92002e-18
9472.50593 1.89928e-18
9473.36739 1.87848e-18
9474.22885 1.84931e-18
9475.09032 1.82013e-18
9475.96180 1.80016e-18
9476.82326 1.78021e-18
9477.68472 1.80596e-18
9478.54618 1.83184e-18
9479.40764 1.94448e-18
9480.26911 2.05737e-18
9481.13057 2.21218e-18
9481.99203 2.36712e-18
9482.85349 2.47761e-18
9483.71495 2.58796e-18
9484.57642 2.60853e-18
9485.43788 2.62883e-18
9486.30936 2.54351e-18
9487.17082 2.45789e-18
9488.03228 2.30142e-18
9488.89374 2.14476e-18
9489.75520 2.00865e-18
9490.61667 1.87260e-18
9491.47813 1.81535e-18
9492.33959 1.75834e-18
9493.20105 1.77888e-18
9494.06252 1.79966e-18
9494.92398 1.89770e-18
9495.79546 1.99597e-18
9496.65692 2.18400e-18
9497.51838 2.37228e-18
9498.37984 2.63048e-18
9499.24130 2.88888e-18
9500.10277 3.11620e-18
9500.96423 3.34344e-18
9501.82569 3.45251e-18
9502.68715 3.56123e-18
9503.54861 3.53822e-18
9504.41008 3.51483e-18
9505.28155 3.36868e-18
9506.14302 3.22216e-18
9507.00448 3.02877e-18
9507.86594 2.83525e-18
9508.72740 2.68492e-18
9509.58887 2.53473e-18
9510.45033 2.43632e-18
9511.31179 2.33806e-18
9512.17325 2.27373e-18
9513.03471 2.20949e-18
9513.89617 2.19679e-18
9514.75764 2.18424e-18
9515.62912 2.24833e-18
9516.49058 2.31264e-18
9517.35204 2.44619e-18
9518.21350 2.57993e-18
9519.07496 2.75826e-18
9519.93643 2.93673e-18
9520.79789 3.11644e-18
9521.65935 3.29617e-18
9522.52081 3.41747e-18
9523.38227 3.53861e-18
9524.24374 3.58136e-18
9525.11522 3.62389e-18
9525.97668 3.61951e-18
9526.83814 3.61500e-18
9527.69960 3.59246e-18
9528.56106 3.56987e-18
9529.42252 3.55206e-18
9530.28399 3.53427e-18
9531.14545 3.53402e-18
9532.00691 3.53383e-18
9532.86837 3.53082e-18
9533.72984 3.52780e-18
9534.60131 3.50485e-18
9535.46278 3.48185e-18
9536.32424 3.43378e-18
9537.18570 3.38563e-18
9538.04716 3.31519e-18
9538.90862 3.24468e-18
9539.77009 3.21615e-18
9540.63155 3.18775e-18
9541.49301 3.26182e-18
9542.35447 3.33619e-18
9543.21593 3.46938e-18
9544.08741 3.60274e-18
9544.94888 3.73036e-18
9545.81034 3.85795e-18
9546.67180 3.91685e-18
9547.53326 3.97554e-18
9548.39472 3.90099e-18
9549.25619 3.82607e-18
9550.11765 3.69315e-18
9550.97911 3.56008e-18
9551.84057 3.51998e-18
9552.70203 3.48016e-18
9553.57351 3.54315e-18
9554.43497 3.60644e-18
9555.29644 3.68316e-18
9556.15790 3.75990e-18
9557.01936 3.79014e-18
9557.88082 3.82023e-18
9558.74228 3.76388e-18
9559.60375 3.70731e-18
9560.46521 3.58924e-18
9561.32667 3.47102e-18
9562.18813 3.42774e-18
9563.05961 3.38468e-18
9563.92107 3.48658e-18
9564.78254 3.58891e-18
9565.64400 3.76351e-18
9566.50546 3.93834e-18
9567.36692 4.10765e-18
9568.22838 4.27693e-18
9569.08985 4.34787e-18
9569.95131 4.41856e-18
9570.81277 4.32708e-18
9571.67423 4.23513e-18
9572.53569 4.06184e-18
9573.40717 3.88833e-18
9574.26863 3.72901e-18
9575.13010 3.56976e-18
9575.99156 3.48845e-18
9576.85302 3.40738e-18
9577.71448 3.45465e-18
9578.57594 3.50230e-18
9579.43741 3.59867e-18
9580.29887 3.69516e-18
9581.16033 3.72452e-18
9582.02179 3.75370e-18
9582.89327 3.70070e-18
9583.75473 3.64749e-18
9584.61620 3.53491e-18
9585.47766 3.42215e-18
9586.33912 3.33117e-18
9587.20058 3.24026e-18
9588.06204 3.29450e-18
9588.92351 3.34917e-18
9589.78497 3.53315e-18
9590.64643 3.71752e-18
9591.51791 3.88942e-18
9592.37937 4.06133e-18
9593.24083 4.14471e-18
9594.10229 4.22787e-18
9594.96376 4.23006e-18
9595.82522 4.23203e-18
9596.68668 4.16842e-18
9597.54814 4.10462e-18
9598.40960 4.01107e-18
9599.27107 3.91747e-18
9600.13253 3.83358e-18
9600.99399 3.74969e-18
9601.86547 3.70676e-18
9602.72693 3.66394e-18
9603.58839 3.68239e-18
9604.44986 3.70107e-18
9605.31132 3.77752e-18
9606.17278 3.85415e-18
9607.03424 3.97138e-18
9607.89570 4.08868e-18
9608.75717 4.17214e-18
9609.61863 4.25548e-18
9610.48009 4.23331e-18
9611.35157 4.21080e-18
9612.21303 4.11345e-18
9613.07449 4.01592e-18
9613.93595 3.90088e-18
9614.79742 3.78576e-18
9615.65888 3.69297e-18
9616.52034 3.60023e-18
9617.38180 3.56299e-18
9618.24326 3.52592e-18
9619.10473 3.55280e-18
9619.96619 3.57986e-18
9620.82765 3.66160e-18
9621.69913 3.74353e-18
9622.56059 3.85065e-18
9623.42205 3.95785e-18
9624.28352 4.04933e-18
9625.14498 4.14077e-18
9626.00644 4.17750e-18
9626.86790 4.21405e-18
9627.72936 4.15937e-18
9628.59083 4.10444e-18
9629.45229 3.96912e-18
9630.31375 3.83358e-18
9631.17521 3.69771e-18
9632.04669 3.56182e-18
9632.90815 3.48755e-18
9633.76961 3.41347e-18
9634.63108 3.42499e-18
9635.49254 3.43678e-18
9636.35400 3.53155e-18
9637.21546 3.62656e-18
9638.07692 3.71467e-18
9638.93839 3.80276e-18
9639.79985 3.80991e-18
9640.67133 3.81680e-18
9641.53279 3.78937e-18
9642.39425 3.76184e-18
9643.25571 3.75403e-18
9644.11718 3.74630e-18
9644.97864 3.77121e-18
9645.84010 3.79627e-18
9646.70156 3.85922e-18
9647.56302 3.92229e-18
9648.42448 3.98123e-18
9649.28595 4.04014e-18
9650.15743 4.04028e-18
9651.01889 4.04021e-18
9651.88035 3.98134e-18
9652.74181 3.92229e-18
9653.60327 3.82899e-18
9654.46474 3.73554e-18
9655.32620 3.64153e-18
9656.18766 3.54750e-18
9657.04912 3.49174e-18
9657.91058 3.43609e-18
9658.77205 3.44032e-18
9659.64352 3.44474e-18
9660.50499 3.51431e-18
9661.36645 3.58408e-18
9662.22791 3.69695e-18
9663.08937 3.80995e-18
9663.95083 3.90861e-18
9664.81230 4.00724e-18
9665.67376 4.05841e-18
9666.53522 4.10947e-18
9667.39668 4.13078e-18
9668.25815 4.15200e-18
9669.11961 4.15354e-18
9669.99109 4.15499e-18
9670.85255 4.11972e-18
9671.71401 4.08431e-18
9672.57547 4.00756e-18
9673.43693 3.93068e-18
9674.29840 3.84383e-18
9675.15986 3.75691e-18
9676.02132 3.69126e-18
9676.88278 3.62568e-18
9677.74424 3.60308e-18
9678.61572 3.58061e-18
9679.47718 3.61554e-18
9680.33865 3.65062e-18
9681.20011 3.71431e-18
9682.06157 3.77803e-18
9682.92303 3.83037e-18
9683.78449 3.88268e-18
9684.64596 3.91182e-18
9685.50742 3.94085e-18
9686.36888 3.94516e-18
9687.23034 3.94939e-18
9688.10182 3.93301e-18
9688.96328 3.91660e-18
9689.82475 3.88968e-18
9690.68621 3.86272e-18
9691.54767 3.82709e-18
9692.40913 3.79142e-18
9693.27059 3.74170e-18
9694.13206 3.69191e-18
9694.99352 3.63544e-18
9695.85498 3.57895e-18
9696.71644 3.53578e-18
9697.57790 3.49266e-18
9698.44938 3.47277e-18
9699.31084 3.45296e-18
9700.17231 3.45257e-18
9701.03377 3.45224e-18
9701.89523 3.46314e-18
9702.75669 3.47407e-18
9703.61816 3.47802e-18
9704.47962 3.48194e-18
9705.34108 3.46714e-18
9706.20254 3.45229e-18
9707.06400 3.43011e-18
9707.93548 3.40792e-18
9708.79694 3.39015e-18
9709.65841 3.37240e-18
9710.51987 3.36547e-18
9711.38133 3.35857e-18
9712.24279 3.36666e-18
9713.10425 3.37479e-18
9713.96572 3.38672e-18
9714.82718 3.39866e-18
9715.68864 3.40095e-18
9716.55010 3.40323e-18
9717.41156 3.39204e-18
9718.28304 3.38082e-18
9719.14451 3.35460e-18
9720.00597 3.32833e-18
9720.86743 3.30111e-18
9721.72889 3.27388e-18
9722.59035 3.26722e-18
9723.45182 3.26061e-18
9724.31328 3.26504e-18
9725.17474 3.26951e-18
9726.03620 3.25688e-18
9726.89766 3.24420e-18
9727.76914 3.20456e-18
9728.63060 3.16484e-18
9729.49207 3.10340e-18
9730.35353 3.04191e-18
9731.21499 2.97180e-18
9732.07645 2.90166e-18
9732.93791 2.84697e-18
9733.79938 2.79233e-18
9734.66084 2.76808e-18
9735.52230 2.74393e-18
9736.38376 2.74720e-18
9737.25524 2.75055e-18
9738.11670 2.77458e-18
9738.97817 2.79868e-18
9739.83963 2.83017e-18
9740.70109 2.86169e-18
9741.56255 2.88749e-18
9742.42401 2.91328e-18
9743.28548 2.92642e-18
9744.14694 2.93952e-18
9745.00840 2.93587e-18
9745.86986 2.93218e-18
9746.74134 2.91734e-18
9747.60280 2.90247e-18
9748.46426 2.88414e-18
9749.32573 2.86580e-18
9750.18719 2.84580e-18
9751.04865 2.82579e-18
9751.91011 2.80509e-18
9752.77157 2.78438e-18
9753.63304 2.76229e-18
9754.49450 2.74020e-18
9755.35596 2.71529e-18
9756.22744 2.69038e-18
9757.08890 2.66784e-18
9757.95036 2.64531e-18
9758.81183 2.63279e-18
9759.67329 2.62031e-18
9760.53475 2.62374e-18
9761.39621 2.62722e-18
9762.25767 2.65168e-18
9763.11913 2.67620e-18
9763.98060 2.71399e-18
9764.84206 2.75182e-18
9765.71354 2.78124e-18
9766.57500 2.81065e-18
9767.43646 2.82108e-18
9768.29792 2.83145e-18
9769.15939 2.82986e-18
9770.02085 2.82823e-18
9770.88231 2.82056e-18
9771.74377 2.81286e-18
9772.60523 2.80207e-18
9773.46670 2.79128e-18
9774.32816 2.78114e-18
9775.19964 2.77100e-18
9776.06110 2.76449e-18
9776.92256 2.75799e-18
9777.78402 2.75710e-18
9778.64548 2.75623e-18
9779.50695 2.76348e-18
9780.36841 2.77077e-18
9781.22987 2.78688e-18
9782.09133 2.80302e-18
9782.95280 2.81404e-18
9783.81426 2.82504e-18
9784.68574 2.81580e-18
9785.54720 2.80650e-18
9786.40866 2.78436e-18
9787.27012 2.76218e-18
9788.13158 2.74094e-18
9788.99305 2.71970e-18
9789.85451 2.70424e-18
9790.71597 2.68878e-18
9791.57743 2.68111e-18
9792.43889 2.67345e-18
9793.30036 2.66839e-18
9794.16182 2.66333e-18
9795.03330 2.64999e-18
9795.89476 2.63663e-18
9796.75622 2.61819e-18
9797.61768 2.59974e-18
9798.47915 2.59212e-18
9799.34061 2.58452e-18
9800.20207 2.59302e-18
9801.06353 2.60157e-18
9801.92499 2.61865e-18
9802.78645 2.63577e-18
9803.64792 2.65382e-18
9804.51940 2.67188e-18
9805.38086 2.68199e-18
9806.24232 2.69206e-18
9807.10378 2.68988e-18
9807.96524 2.68766e-18
9808.82671 2.68176e-18
9809.68817 2.67584e-18
9810.54963 2.67437e-18
9811.41109 2.67292e-18
9812.27255 2.68104e-18
9813.13402 2.68919e-18
9813.99548 2.70930e-18
9814.86696 2.72944e-18
9815.72842 2.74722e-18
9816.58988 2.76500e-18
9817.45134 2.76526e-18
9818.31280 2.76546e-18
9819.17427 2.75022e-18
9820.03573 2.73494e-18
9820.89719 2.71059e-18
9821.75865 2.68621e-18
9822.62012 2.66214e-18
9823.48158 2.63808e-18
9824.35306 2.62522e-18
9825.21452 2.61240e-18
9826.07598 2.60916e-18
9826.93744 2.60595e-18
9827.79890 2.60349e-18
9828.66037 2.60102e-18
9829.52183 2.59713e-18
9830.38329 2.59324e-18
9831.24475 2.59055e-18
9832.10621 2.58787e-18
9832.97769 2.58579e-18
9833.83915 2.58370e-18
9834.70062 2.57877e-18
9835.56208 2.57384e-18
9836.42354 2.56449e-18
9837.28500 2.55512e-18
9838.14647 2.54227e-18
9839.00793 2.52941e-18
9839.86939 2.51411e-18
9840.73085 2.49880e-18
9841.59231 2.48159e-18
9842.45377 2.46438e-18
9843.32525 2.44722e-18
9844.18672 2.43006e-18
9845.04818 2.41904e-18
9845.90964 2.40804e-18
9846.77110 2.40794e-18
9847.63256 2.40787e-18
9848.49403 2.41721e-18
9849.35549 2.42658e-18
9850.21695 2.44264e-18
9851.07841 2.45872e-18
9851.93987 2.47890e-18
9852.81135 2.49909e-18
9853.67282 2.52032e-18
9854.53428 2.54155e-18
9855.39574 2.56189e-18
9856.25720 2.58222e-18
9857.11866 2.60023e-18
9857.98013 2.61824e-18
9858.84159 2.63008e-18
9859.70305 2.64190e-18
9860.56451 2.64314e-18
9861.42597 2.64436e-18
9862.29745 2.63442e-18
9863.15891 2.62445e-18
9864.02038 2.60522e-18
9864.88184 2.58596e-18
9865.74330 2.56094e-18
9866.60476 2.53590e-18
9867.46622 2.51011e-18
9868.32769 2.48433e-18
9869.18915 2.46066e-18
9870.05061 2.43699e-18
9870.92209 2.41510e-18
9871.78355 2.39322e-18
9872.64501 2.37348e-18
9873.50648 2.35375e-18
9874.36794 2.33786e-18
9875.22940 2.32199e-18
9876.09086 2.31128e-18
9876.95232 2.30059e-18
9877.81379 2.29630e-18
9878.67525 2.29204e-18
9879.53671 2.29472e-18
9880.39817 2.29743e-18
9881.26965 2.30625e-18
9882.13111 2.31508e-18
9882.99257 2.32843e-18
9883.85404 2.34180e-18
9884.71550 2.35680e-18
9885.57696 2.37181e-18
9886.43842 2.38534e-18
9887.29988 2.39887e-18
9888.16135 2.40800e-18
9889.02281 2.41712e-18
9889.88427 2.41940e-18
9890.74573 2.42165e-18
9891.61721 2.41702e-18
9892.47867 2.41236e-18
9893.34014 2.40205e-18
9894.20160 2.39172e-18
9895.06306 2.37706e-18
9895.92452 2.36239e-18
9896.78598 2.34477e-18
9897.64745 2.32715e-18
9898.50891 2.30887e-18
9899.37037 2.29059e-18
9900.23183 2.27468e-18
9901.09329 2.25877e-18
9901.96477 2.24572e-18
9902.82623 2.23268e-18
9903.68770 2.21992e-18
9904.54916 2.20716e-18
9905.41062 2.19529e-18
9906.27208 2.18342e-18
9907.13354 2.17802e-18
9907.99501 2.17265e-18
9908.85647 2.17640e-18
9909.71793 2.18018e-18
9910.57939 2.19052e-18
9911.45087 2.20088e-18
9912.31233 2.21366e-18
9913.17380 2.22644e-18
9914.03526 2.23287e-18
9914.89672 2.23927e-18
9915.75818 2.23236e-18
9916.61964 2.22541e-18
9917.48111 2.20761e-18
9918.34257 2.18977e-18
9919.20403 2.16534e-18
9920.07551 2.14089e-18
9920.93697 2.11468e-18
9921.79843 2.08847e-18
9922.65989 2.06541e-18
9923.52136 2.04236e-18
9924.38282 2.02461e-18
9925.24428 2.00688e-18
9926.10574 1.99529e-18
9926.96720 1.98372e-18
9927.82867 1.97508e-18
9928.69013 1.96644e-18
9929.56161 1.95565e-18
9930.42307 1.94485e-18
9931.28453 1.93024e-18
9932.14599 1.91562e-18
9933.00746 1.89793e-18
9933.86892 1.88022e-18
9934.73038 1.86094e-18
9935.59184 1.84166e-18
9936.45330 1.82296e-18
9937.31477 1.80427e-18
9938.17623 1.78902e-18
9939.03769 1.77378e-18
9939.90917 1.76559e-18
9940.77063 1.75742e-18
9941.63209 1.75726e-18
9942.49355 1.75713e-18
9943.35502 1.76128e-18
9944.21648 1.76545e-18
9945.07794 1.77070e-18
9945.93940 1.77594e-18
9946.80086 1.78147e-18
9947.66233 1.78700e-18
9948.52379 1.79187e-18
9949.39527 1.79674e-18
9950.25673 1.79917e-18
9951.11819 1.80159e-18
9951.97965 1.80043e-18
9952.84112 1.79925e-18
9953.70258 1.79681e-18
9954.56404 1.79436e-18
9955.42550 1.79318e-18
9956.28696 1.79200e-18
9957.14843 1.79037e-18
9958.00989 1.78875e-18
9958.88137 1.78434e-18
9959.74283 1.77992e-18
9960.60429 1.77153e-18
9961.46575 1.76313e-18
9962.32721 1.74999e-18
9963.18868 1.73684e-18
9964.05014 1.72287e-18
9964.91160 1.70891e-18
9965.77306 1.70070e-18
9966.63452 1.69251e-18
9967.49599 1.69159e-18
9968.36747 1.69069e-18
9969.22893 1.69453e-18
9970.09039 1.69838e-18
9970.95185 1.70659e-18
9971.81331 1.71481e-18
9972.67477 1.72926e-18
9973.53624 1.74373e-18
9974.39770 1.76364e-18
9975.25916 1.78357e-18
9976.12062 1.80469e-18
9976.98208 1.82580e-18
9977.85356 1.84472e-18
9978.71503 1.86364e-18
9979.57649 1.87875e-18
9980.43795 1.89384e-18
9981.29941 1.90457e-18
9982.16087 1.91528e-18
9983.02234 1.92390e-18
9983.88380 1.93251e-18
9984.74526 1.94133e-18
9985.60672 1.95015e-18
9986.46818 1.96031e-18
9987.32965 1.97047e-18
9988.20112 1.98256e-18
9989.06259 1.99465e-18
9989.92405 2.00442e-18
9990.78551 2.01417e-18
9991.64697 2.01678e-18
9992.50843 2.01937e-18
9993.36990 2.01844e-18
9994.23136 2.01751e-18
9995.09282 2.01925e-18
9995.95428 2.02100e-18
9996.81574 2.02435e-18
9997.67721 2.02771e-18
9998.54869 2.02872e-18
9999.41015 2.02972e-18
