# wavelength flux
4051.11288 1.38179e-17
4054.71078 8.46087e-18
4058.31870 4.06534e-18
4061.91660 6.83813e-18
4065.52452 1.05041e-17
4069.12242 2.00032e-18
4072.73034 -4.44436e-18
4076.33826 -2.27790e-18
4079.93616 6.63497e-18
4083.54408 8.88623e-18
4087.14197 6.23760e-18
4090.74989 9.08237e-18
4094.34779 7.82173e-18
4097.95571 -9.59160e-19
4101.56363 -1.99993e-18
4105.16153 2.34185e-18
4108.76945 5.43761e-18
4112.36735 4.92802e-18
4115.97527 3.49586e-18
4119.58319 -1.56221e-18
4123.18109 -2.49989e-18
4126.78901 4.78993e-18
4130.38690 6.21966e-18
4133.99482 2.65838e-18
4137.60274 9.20299e-19
4141.20064 -8.29315e-20
4144.80856 -1.34321e-18
4148.40646 4.17781e-18
4152.01438 6.53198e-19
4155.61228 -1.50364e-18
4159.22020 4.73897e-18
4162.82812 4.02864e-18
4166.42602 5.82444e-18
4170.03394 9.47869e-18
4173.63183 6.93835e-18
4177.23975 6.26981e-18
4180.84767 5.01163e-18
4184.44557 1.64063e-18
4188.05349 3.10147e-18
4191.65139 3.14200e-18
4195.25931 2.87014e-18
4198.85721 3.62105e-18
4202.46513 4.84162e-18
4206.07305 5.39253e-18
4209.67095 8.13767e-19
4213.27887 2.91584e-18
4216.87676 5.35125e-18
4220.48468 1.34102e-18
4224.09260 -1.17967e-18
4227.69050 3.38613e-18
4231.29842 2.82833e-18
4234.89632 3.02118e-18
4238.50424 7.46475e-18
4242.10214 1.12388e-17
4245.71006 7.60148e-18
4249.31798 3.15379e-18
4252.91588 7.30546e-18
4256.52380 6.72664e-18
4260.12169 4.90747e-18
4263.72961 1.05183e-18
4267.32751 -1.75474e-19
4270.93543 2.43146e-18
4274.54335 4.32405e-18
4278.14125 4.34416e-18
4281.74917 3.27685e-18
4285.34707 3.43193e-19
4288.95499 4.09908e-18
4292.56291 6.17760e-18
4296.16081 6.30401e-18
4299.76873 6.15769e-18
4303.36662 3.06018e-18
4306.97454 5.37473e-18
4310.58246 7.02884e-18
4314.18036 4.86262e-18
4317.78828 2.47166e-18
4321.38618 5.13935e-19
4324.99410 2.33301e-18
4328.59200 2.50882e-18
4332.19992 3.10208e-18
4335.80784 3.91461e-18
4339.40574 1.20154e-18
4343.01366 3.72383e-18
4346.61155 5.99412e-18
4350.21947 1.52135e-18
4353.82739 -2.00671e-18
4357.42529 -2.04955e-19
4361.03321 5.69056e-18
4364.63111 1.38109e-17
4368.23903 9.53977e-18
4371.83693 1.18558e-18
4375.44485 5.06037e-18
4379.05277 6.76034e-18
4382.65067 4.29301e-18
4386.25859 2.98565e-18
4389.85648 3.89592e-18
4393.46440 5.68789e-18
4397.07232 4.76994e-18
4400.67022 5.78516e-18
4404.27814 4.13486e-18
4407.87604 5.18689e-18
4411.48396 7.61341e-18
4415.08186 7.65248e-18
4418.68978 5.82765e-18
4422.29770 3.12740e-18
4425.89560 6.32781e-18
4429.50352 8.87587e-18
4433.10141 6.16608e-18
4436.70933 7.36037e-18
4440.31725 7.26819e-18
4443.91515 3.65618e-18
4447.52307 4.52189e-18
4451.12097 4.40038e-18
4454.72889 5.95373e-18
4458.32679 7.98918e-18
4461.93471 7.41557e-18
4465.54263 8.33233e-18
4469.14053 6.69450e-18
4472.74845 6.31425e-18
4476.34634 7.34927e-18
4479.95426 8.44868e-18
4483.56218 7.47232e-18
4487.16008 5.69852e-18
4490.76800 6.56372e-18
4494.36590 6.51695e-18
4497.97382 6.39189e-18
4501.57172 8.60176e-18
4505.17964 8.35215e-18
4508.78756 8.15698e-18
4512.38546 9.07488e-18
4515.99338 7.48283e-18
4519.59127 8.36970e-18
4523.19919 1.22195e-17
4526.80711 1.03785e-17
4530.40501 5.88364e-18
4534.01293 4.19582e-18
4537.61083 7.43469e-18
4541.21875 9.99433e-18
4544.81665 1.02506e-17
4548.42457 9.91010e-18
4552.03249 9.64821e-18
4555.63039 1.03769e-17
4559.23831 1.03311e-17
4562.83620 9.32398e-18
4566.44412 9.09998e-18
4570.05204 8.99328e-18
4573.64994 1.00301e-17
4577.25786 8.97652e-18
4580.85576 8.78288e-18
4584.46368 7.60215e-18
4588.06158 7.30067e-18
4591.66950 8.26375e-18
4595.27742 8.40742e-18
4598.87532 9.08135e-18
4602.48324 8.88194e-18
4606.08113 7.67017e-18
4609.68905 7.90062e-18
4613.29697 9.77292e-18
4616.89487 9.80887e-18
4620.50279 9.62554e-18
4624.10069 1.17554e-17
4627.70861 1.24889e-17
4631.30651 1.02033e-17
4634.91443 1.07367e-17
4638.52235 1.42331e-17
4642.12025 1.38470e-17
4645.72817 9.44813e-18
4649.32606 8.88513e-18
4652.93398 1.06342e-17
4656.53188 1.09738e-17
4660.13980 1.05550e-17
4663.74772 8.42477e-18
4667.34562 9.76124e-18
4670.95354 1.29629e-17
4674.55144 9.71245e-18
4678.15936 6.33225e-18
4681.76728 7.83709e-18
4685.36518 7.21317e-18
4688.97310 8.19555e-18
4692.57099 8.30158e-18
4696.17891 8.63073e-18
4699.78683 9.58288e-18
4703.38473 6.99375e-18
4706.99265 6.44695e-18
4710.59055 9.66818e-18
4714.19847 9.51029e-18
4717.79637 6.95601e-18
4721.40429 8.50197e-18
4725.01221 8.58530e-18
4728.61011 7.67571e-18
4732.21803 8.68728e-18
4735.81592 8.68172e-18
4739.42384 8.40760e-18
4743.03176 9.17519e-18
4746.62966 9.97742e-18
4750.23758 1.01048e-17
4753.83548 1.03506e-17
4757.44340 9.09515e-18
4761.04130 9.15668e-18
4764.64922 8.95285e-18
4768.25714 7.52067e-18
4771.85504 7.47537e-18
4775.46296 7.66898e-18
4779.06085 7.29074e-18
4782.66877 7.51779e-18
4786.27669 6.82877e-18
4789.87459 8.48458e-18
4793.48251 9.10786e-18
4797.08041 6.81442e-18
4800.68833 6.92558e-18
4804.28623 9.10232e-18
4807.89415 9.93595e-18
4811.50207 8.57855e-18
4815.09997 7.67714e-18
4818.70789 8.00177e-18
4822.30578 7.84210e-18
4825.91370 8.03273e-18
4829.52162 9.32147e-18
4833.11952 8.02526e-18
4836.72744 7.61229e-18
4840.32534 7.55057e-18
4843.93326 8.83212e-18
4847.53116 1.02085e-17
4851.13908 9.11858e-18
4854.74700 8.20994e-18
4858.34490 8.84983e-18
4861.95282 9.07262e-18
4865.55071 7.77675e-18
4869.15863 8.03665e-18
4872.76655 9.62323e-18
4876.36445 9.33244e-18
4879.97237 8.11254e-18
4883.57027 7.65461e-18
4887.17819 7.48567e-18
4890.77609 8.97053e-18
4894.38401 9.34028e-18
4897.99193 9.14880e-18
4901.58983 9.09591e-18
4905.19775 8.40530e-18
4908.79564 8.85340e-18
4912.40356 1.00991e-17
4916.01148 9.96030e-18
4919.60938 9.68515e-18
4923.21730 8.67185e-18
4926.81520 9.00583e-18
4930.42312 9.31743e-18
4934.02102 1.00379e-17
4937.62894 1.03711e-17
4941.23686 9.15557e-18
4944.83476 7.56844e-18
4948.44268 7.53282e-18
4952.04057 8.41579e-18
4955.64849 8.50718e-18
4959.25641 8.40562e-18
4962.85431 7.65566e-18
4966.46223 8.78310e-18
4970.06013 9.55074e-18
4973.66805 8.45522e-18
4977.26595 8.53301e-18
4980.87387 8.86158e-18
4984.48179 8.94831e-18
4988.07969 1.04224e-17
4991.68761 1.03802e-17
4995.28550 9.00329e-18
4998.89342 8.60853e-18
5002.50134 8.21117e-18
5006.09924 8.09298e-18
5009.70716 8.54447e-18
5013.30506 8.77672e-18
5016.91298 7.84898e-18
5020.51088 7.98778e-18
5024.11880 8.45082e-18
5027.72672 8.00845e-18
5031.32462 7.53479e-18
5034.93254 7.98111e-18
5038.53043 7.98071e-18
5042.13835 7.04805e-18
5045.74627 7.90414e-18
5049.34417 8.81628e-18
5052.95209 8.85799e-18
5056.54999 8.91349e-18
5060.15791 8.78597e-18
5063.76583 8.51912e-18
5067.36373 9.06253e-18
5070.97165 9.86523e-18
5074.56955 8.79501e-18
5078.17747 8.10574e-18
5081.77536 9.57766e-18
5085.38328 1.00649e-17
5088.99120 9.54354e-18
5092.58910 1.01714e-17
5096.19702 1.03749e-17
5099.79492 9.65179e-18
5103.40284 9.85250e-18
5107.00074 9.28902e-18
5110.60866 9.58012e-18
5114.21658 9.78982e-18
5117.81448 9.21717e-18
5121.42240 1.00089e-17
5125.02029 1.02389e-17
5128.62821 9.96257e-18
5132.23613 1.01773e-17
5135.83403 1.05337e-17
5139.44195 9.40618e-18
5143.03985 9.12430e-18
5146.64777 1.04619e-17
5150.24567 1.10908e-17
5153.85359 1.09806e-17
5157.46151 1.04530e-17
5161.05941 1.10047e-17
5164.66733 1.22660e-17
5168.26522 1.17106e-17
5171.87314 1.08095e-17
5175.48106 1.06901e-17
5179.07896 1.02780e-17
5182.68688 1.03867e-17
5186.28478 1.06095e-17
5189.89270 1.05810e-17
5193.49060 1.13846e-17
5197.09852 1.22402e-17
5200.70644 1.18902e-17
5204.30434 1.11779e-17
5207.91226 1.09598e-17
5211.51015 1.12046e-17
5215.11807 1.22238e-17
5218.72599 1.20749e-17
5222.32389 1.07454e-17
5225.93181 1.10552e-17
5229.52971 1.20026e-17
5233.13763 1.16048e-17
5236.73553 1.16091e-17
5240.34345 1.23008e-17
5243.95137 1.21900e-17
5247.54927 1.21415e-17
5251.15719 1.28794e-17
5254.75508 1.27984e-17
5258.36300 1.22627e-17
5261.97092 1.22482e-17
5265.56882 1.22538e-17
5269.17674 1.22045e-17
5272.77464 1.20908e-17
5276.38256 1.29394e-17
5279.99048 1.33067e-17
5283.58838 1.33105e-17
5287.19630 1.27634e-17
5290.79420 1.26442e-17
5294.40212 1.29559e-17
5298.00001 1.30762e-17
5301.60793 1.24095e-17
5305.21585 1.25016e-17
5308.81375 1.23098e-17
5312.42167 1.19769e-17
5316.01957 1.22651e-17
5319.62749 1.29127e-17
5323.22539 1.30062e-17
5326.83331 1.33116e-17
5330.44123 1.35621e-17
5334.03913 1.30895e-17
5337.64705 1.36012e-17
5341.24494 1.42087e-17
5344.85286 1.45456e-17
5348.46078 1.46773e-17
5352.05868 1.36476e-17
5355.66660 1.40380e-17
5359.26450 1.46093e-17
5362.87242 1.47341e-17
5366.47032 1.43110e-17
5370.07824 1.34701e-17
5373.68616 1.39700e-17
5377.28406 1.44142e-17
5380.89198 1.43013e-17
5384.48987 1.41141e-17
5388.09779 1.38119e-17
5391.70571 1.35643e-17
5395.30361 1.37886e-17
5398.91153 1.36543e-17
5402.50943 1.39269e-17
5406.11735 1.44091e-17
5409.71525 1.40705e-17
5413.32317 1.43120e-17
5416.93109 1.37499e-17
5420.52899 1.40665e-17
5424.13691 1.38418e-17
5427.73480 1.39609e-17
5431.34272 1.47104e-17
5434.95064 1.40523e-17
5438.54854 1.38062e-17
5442.15646 1.44129e-17
5445.75436 1.61025e-17
5449.36228 1.59651e-17
5452.97020 1.35330e-17
5456.56810 1.55128e-17
5460.17602 1.77307e-17
5463.77392 1.72836e-17
5467.38184 1.64440e-17
5470.97973 1.52681e-17
5474.58765 1.60280e-17
5478.19557 1.61499e-17
5481.79347 1.61295e-17
5485.40139 1.61560e-17
5488.99929 1.59411e-17
5492.60721 1.59038e-17
5496.21513 1.53949e-17
5499.81303 1.56688e-17
5503.42095 1.51083e-17
5507.01885 1.53561e-17
5510.62677 1.57377e-17
5514.22466 1.49371e-17
5517.83258 1.44024e-17
5521.44050 1.49742e-17
5525.03840 1.57136e-17
5528.64632 1.49139e-17
5532.24422 1.44843e-17
5535.85214 1.44303e-17
5539.45004 1.39002e-17
5543.05796 1.35449e-17
5546.66588 1.35960e-17
5550.26378 1.37327e-17
5553.87170 1.46824e-17
5557.46959 1.42097e-17
5561.07751 1.35989e-17
5564.68543 1.29499e-17
5568.28333 1.26376e-17
5571.89125 1.26709e-17
5575.48915 1.34170e-17
5579.09707 1.33690e-17
5582.70499 1.34343e-17
5586.30289 1.37843e-17
5589.91081 1.33330e-17
5593.50871 1.35684e-17
5597.11663 1.40596e-17
5600.71452 1.38626e-17
5604.32244 1.35713e-17
5607.93036 1.35971e-17
5611.52826 1.38183e-17
5615.13618 1.33766e-17
5618.73408 1.32991e-17
5622.34200 1.29547e-17
5625.93990 1.31517e-17
5629.54782 1.34626e-17
5633.15574 1.31175e-17
5636.75364 1.26338e-17
5640.36156 1.32022e-17
5643.95945 1.37397e-17
5647.56737 1.38216e-17
5651.17529 1.31352e-17
5654.77319 1.24335e-17
5658.38111 1.25524e-17
5661.97901 1.19454e-17
5665.58693 1.21942e-17
5669.19485 1.28973e-17
5672.79275 1.25964e-17
5676.40067 1.08819e-17
5679.99857 1.02935e-17
5683.60649 1.14901e-17
5687.20438 1.21738e-17
5690.81230 1.17148e-17
5694.42022 1.32645e-17
5698.01812 1.37582e-17
5701.62604 1.21354e-17
5705.22394 1.09385e-17
5708.83186 1.19001e-17
5712.43978 1.24267e-17
5716.03768 1.13387e-17
5719.64560 1.09797e-17
5723.24350 1.19462e-17
5726.85142 1.28892e-17
5730.44931 1.29265e-17
5734.05723 1.19266e-17
5737.66515 1.21820e-17
5741.26305 1.23792e-17
5744.87097 1.22103e-17
5748.46887 1.19917e-17
5752.07679 1.18657e-17
5755.67469 1.12894e-17
5759.28261 1.01868e-17
5762.89053 1.12017e-17
5766.48843 1.12716e-17
5770.09635 1.19895e-17
5773.69424 1.23494e-17
5777.30216 1.20618e-17
5780.91008 1.17658e-17
5784.50798 1.18871e-17
5788.11590 1.24164e-17
5791.71380 1.35435e-17
5795.32172 1.26050e-17
5798.92964 1.17527e-17
5802.52754 1.23349e-17
5806.13546 1.32916e-17
5809.73336 1.44960e-17
5813.34128 1.47872e-17
5816.93917 1.45056e-17
5820.54709 1.64892e-17
5824.15501 1.50097e-17
5827.75291 1.36643e-17
5831.36083 1.46723e-17
5834.95873 1.50170e-17
5838.56665 1.36033e-17
5842.17457 1.40812e-17
5845.77247 1.40160e-17
5849.38039 1.40200e-17
5852.97829 1.55894e-17
5856.58621 1.39338e-17
5860.18410 1.38433e-17
5863.79202 1.57701e-17
5867.39994 1.58016e-17
5870.99784 1.51237e-17
5874.60576 1.48983e-17
5878.20366 1.51062e-17
5881.81158 1.45221e-17
5885.41950 1.42008e-17
5889.01740 1.41707e-17
5892.62532 1.38009e-17
5896.22322 1.32311e-17
5899.83114 1.35431e-17
5903.42903 1.42156e-17
5907.03695 1.38117e-17
5910.64487 1.41939e-17
5914.24277 1.39589e-17
5917.85069 1.36488e-17
5921.44859 1.41437e-17
5925.05651 1.46179e-17
5928.66443 1.36082e-17
5932.26233 1.32269e-17
5935.87025 1.31888e-17
5939.46815 1.33490e-17
5943.07607 1.34621e-17
5946.67396 1.36189e-17
5950.28188 1.42628e-17
5953.88980 1.41971e-17
5957.48770 1.37634e-17
5961.09562 1.41514e-17
5964.69352 1.43885e-17
5968.30144 1.36027e-17
5971.90936 1.33889e-17
5975.50726 1.30071e-17
5979.11518 1.30676e-17
5982.71308 1.32391e-17
5986.32100 1.32881e-17
5989.91889 1.42039e-17
5993.52681 1.39803e-17
5997.13473 1.38039e-17
6000.73263 1.35640e-17
6004.34055 1.37753e-17
6007.93845 1.45508e-17
6011.54637 1.41174e-17
6015.15429 1.31371e-17
6018.75219 1.36457e-17
6022.36011 1.46707e-17
6025.95801 1.40234e-17
6029.56593 1.39611e-17
6033.16382 1.47568e-17
6036.77174 1.38895e-17
6040.37966 1.26200e-17
6043.97756 1.32683e-17
6047.58548 1.35875e-17
6051.18338 1.28344e-17
6054.79130 1.21236e-17
6058.39922 1.28040e-17
6061.99712 1.37143e-17
6065.60504 1.36314e-17
6069.20294 1.30537e-17
6072.81086 1.28519e-17
6076.40875 1.35095e-17
6080.01667 1.40311e-17
6083.62459 1.38505e-17
6087.22249 1.37117e-17
6090.83041 1.39260e-17
6094.42831 1.40151e-17
6098.03623 1.40705e-17
6101.64415 1.39602e-17
6105.24205 1.37778e-17
6108.84997 1.41589e-17
6112.44787 1.43082e-17
6116.05579 1.44484e-17
6119.65368 1.41855e-17
6123.26160 1.37355e-17
6126.86952 1.42045e-17
6130.46742 1.44552e-17
6134.07534 1.47890e-17
6137.67324 1.41775e-17
6141.28116 1.40929e-17
6144.88908 1.43474e-17
6148.48698 1.32675e-17
6152.09490 1.35117e-17
6155.69280 1.49026e-17
6159.30072 1.46456e-17
6162.89861 1.42003e-17
6166.50653 1.41212e-17
6170.11445 1.38901e-17
6173.71235 1.42240e-17
6177.32027 1.49847e-17
6180.91817 1.48147e-17
6184.52609 1.44928e-17
6188.13401 1.41102e-17
6191.73191 1.39572e-17
6195.33983 1.38764e-17
6198.93773 1.40216e-17
6202.54565 1.37415e-17
6206.14354 1.42539e-17
6209.75146 1.47781e-17
6213.35938 1.45508e-17
6216.95728 1.47440e-17
6220.56520 1.71907e-17
6224.16310 1.65086e-17
6227.77102 1.39098e-17
6231.37894 1.35296e-17
6234.97684 1.40868e-17
6238.58476 1.39591e-17
6242.18266 1.34144e-17
6245.79058 1.29689e-17
6249.38847 1.33569e-17
6252.99639 1.29105e-17
6256.60431 1.26964e-17
6260.20221 1.34373e-17
6263.81013 1.37450e-17
6267.40803 1.32120e-17
6271.01595 1.24533e-17
6274.62387 1.25817e-17
6278.22177 1.24594e-17
6281.82969 1.25352e-17
6285.42759 1.23964e-17
6289.03551 1.23975e-17
6292.63340 1.23200e-17
6296.24132 1.17043e-17
6299.84924 1.23249e-17
6303.44714 1.32494e-17
6307.05506 1.28342e-17
6310.65296 1.23038e-17
6314.26088 1.24855e-17
6317.86880 1.33283e-17
6321.46670 1.32000e-17
6325.07462 1.29032e-17
6328.67252 1.28959e-17
6332.28044 1.31162e-17
6335.87833 1.33817e-17
6339.48625 1.31988e-17
6343.09417 1.28038e-17
6346.69207 1.30462e-17
6350.29999 1.32109e-17
6353.89789 1.29066e-17
6357.50581 1.31622e-17
6361.11373 1.34826e-17
6364.71163 1.35504e-17
6368.31955 1.38593e-17
6371.91745 1.36879e-17
6375.52537 1.32903e-17
6379.12326 1.33793e-17
6382.73118 1.32535e-17
6386.33910 1.29991e-17
6389.93700 1.39347e-17
6393.54492 1.40800e-17
6397.14282 1.42654e-17
6400.75074 1.48310e-17
6404.35866 1.47552e-17
6407.95656 1.43043e-17
6411.56448 1.49187e-17
6415.16238 1.50503e-17
6418.77030 1.47962e-17
6422.36819 1.46182e-17
6425.97611 1.46688e-17
6429.58403 1.50424e-17
6433.18193 1.47455e-17
6436.78985 1.44044e-17
6440.38775 1.43717e-17
6443.99567 1.42944e-17
6447.60359 1.44152e-17
6451.20149 1.45046e-17
6454.80941 1.49243e-17
6458.40731 1.51832e-17
6462.01523 1.46870e-17
6465.61312 1.47386e-17
6469.22104 1.43978e-17
6472.82896 1.42546e-17
6476.42686 1.42639e-17
6480.03478 1.35517e-17
6483.63268 1.35171e-17
6487.24060 1.41927e-17
6490.84852 1.40955e-17
6494.44642 1.39146e-17
6498.05434 1.41655e-17
6501.65224 1.47162e-17
6505.26016 1.47649e-17
6508.85805 1.44850e-17
6512.46597 1.48811e-17
6516.07389 1.44829e-17
6519.67179 1.40591e-17
6523.27971 1.50895e-17
6526.87761 1.50733e-17
6530.48553 1.53838e-17
6534.09345 1.54155e-17
6537.69135 1.49607e-17
6541.29927 1.47280e-17
6544.89717 1.42583e-17
6548.50509 1.41634e-17
6552.11301 1.45106e-17
6555.71090 1.43401e-17
6559.31882 1.35023e-17
6562.91672 1.39167e-17
6566.52464 1.47959e-17
6570.12254 1.42322e-17
6573.73046 1.38678e-17
6577.33838 1.44231e-17
6580.93628 1.49867e-17
6584.54420 1.48041e-17
6588.14210 1.44003e-17
6591.75002 1.48265e-17
6595.34791 1.50013e-17
6598.95583 1.48781e-17
6602.56375 1.47988e-17
6606.16165 1.49320e-17
6609.76957 1.50446e-17
6613.36747 1.46253e-17
6616.97539 1.48371e-17
6620.58331 1.49023e-17
6624.18121 1.45022e-17
6627.78913 1.44161e-17
6631.38703 1.44431e-17
6634.99495 1.43518e-17
6638.59284 1.44278e-17
6642.20076 1.44249e-17
6645.80868 1.44781e-17
6649.40658 1.45268e-17
6653.01450 1.41822e-17
6656.61240 1.41892e-17
6660.22032 1.44630e-17
6663.82824 1.44156e-17
6667.42614 1.43968e-17
6671.03406 1.39289e-17
6674.63196 1.38718e-17
6678.23988 1.45131e-17
6681.83777 1.43236e-17
6685.44569 1.35078e-17
6689.05361 1.37898e-17
6692.65151 1.41306e-17
6696.25943 1.37133e-17
6699.85733 1.37471e-17
6703.46525 1.37951e-17
6707.07317 1.34385e-17
6710.67107 1.34626e-17
6714.27899 1.39049e-17
6717.87689 1.44287e-17
6721.48481 1.41470e-17
6725.08270 1.41202e-17
6728.69062 1.39032e-17
6732.29854 1.32370e-17
6735.89644 1.34887e-17
6739.50436 1.41320e-17
6743.10226 1.40584e-17
6746.71018 1.31669e-17
6750.31810 1.26068e-17
6753.91600 1.34974e-17
6757.52392 1.40922e-17
6761.12182 1.33700e-17
6764.72974 1.30968e-17
6768.32763 1.35714e-17
6771.93555 1.33854e-17
6775.54347 1.29929e-17
6779.14137 1.29961e-17
6782.74929 1.26790e-17
6786.34719 1.27171e-17
6789.95511 1.30514e-17
6793.56303 1.31865e-17
6797.16093 1.30117e-17
6800.76885 1.25353e-17
6804.36675 1.24834e-17
6807.97467 1.28134e-17
6811.57256 1.27394e-17
6815.18048 1.26807e-17
6818.78840 1.25460e-17
6822.38630 1.22494e-17
6825.99422 1.21119e-17
6829.59212 1.23830e-17
6833.20004 1.28308e-17
6836.80796 1.23323e-17
6840.40586 1.20371e-17
6844.01378 1.23951e-17
6847.61168 1.23664e-17
6851.21960 1.23378e-17
6854.81749 1.23091e-17
6858.42541 1.22805e-17
6862.03333 1.22519e-17
6865.63123 1.22233e-17
6869.23915 1.21946e-17
6872.83705 1.21660e-17
6876.44497 1.21374e-17
6880.05289 1.21088e-17
6883.65079 1.20802e-17
6887.25871 1.20517e-17
6890.85661 1.20231e-17
6894.46453 1.19945e-17
6898.06242 1.19659e-17
6901.67034 1.19374e-17
6905.27826 1.19088e-17
6908.87616 1.18802e-17
6912.48408 1.18517e-17
6916.08198 1.18231e-17
6919.68990 1.17946e-17
6923.29782 1.17661e-17
6926.89572 1.17375e-17
6930.50364 1.17090e-17
6934.10154 1.16805e-17
6937.70946 1.16520e-17
6941.31738 1.17576e-17
6944.91527 1.18608e-17
6948.52319 1.20065e-17
6952.12109 1.24099e-17
6955.72901 1.25536e-17
6959.32691 1.25472e-17
6962.93483 1.25070e-17
6966.54275 1.31463e-17
6970.14065 1.32141e-17
6973.74857 1.29862e-17
6977.34647 1.30944e-17
6980.95439 1.32546e-17
6984.55228 1.27088e-17
6988.16020 1.25774e-17
6991.76812 1.22761e-17
6995.36602 1.24026e-17
6998.97394 1.23470e-17
7002.57184 1.25323e-17
7006.17976 1.28510e-17
7009.78768 1.25941e-17
7013.38558 1.21384e-17
7016.99350 1.17122e-17
7020.59140 1.23272e-17
7024.19932 1.28933e-17
7027.80724 1.29865e-17
7031.40513 1.31162e-17
7035.01305 1.33780e-17
7038.61095 1.27605e-17
7042.21887 1.27157e-17
7045.81677 1.37165e-17
7049.42469 1.36584e-17
7053.03261 1.33817e-17
7056.63051 1.34050e-17
7060.23843 1.31155e-17
7063.83633 1.31430e-17
7067.44425 1.37545e-17
7071.05217 1.34843e-17
7074.65006 1.30253e-17
7078.25798 1.36633e-17
7081.85588 1.32508e-17
7085.46380 1.32773e-17
7089.06170 1.36449e-17
7092.66962 1.31297e-17
7096.27754 1.32237e-17
7099.87544 1.36409e-17
7103.48336 1.28666e-17
7107.08126 1.26959e-17
7110.68918 1.36966e-17
7114.28707 1.40321e-17
7117.89499 1.40462e-17
7121.50291 1.34004e-17
7125.10081 1.28624e-17
7128.70873 1.30881e-17
7132.30663 1.33854e-17
7135.91455 1.32807e-17
7139.52247 1.33607e-17
7143.12037 1.37844e-17
7146.72829 1.35871e-17
7150.32619 1.30060e-17
7153.93411 1.32511e-17
7157.54203 1.35438e-17
7161.13992 1.28726e-17
7164.74784 1.21667e-17
7168.34574 1.10396e-17
7171.95366 1.04192e-17
7175.55156 1.02351e-17
7179.15948 1.01628e-17
7182.76740 1.03424e-17
7186.36530 1.01367e-17
7189.97322 9.65807e-18
7193.57112 9.80375e-18
7197.17904 9.67466e-18
7200.78696 1.00317e-17
7204.38485 1.02448e-17
7207.99277 1.07444e-17
7211.59067 1.23459e-17
7215.19859 1.26773e-17
7218.79649 1.22140e-17
7222.40441 1.24589e-17
7226.01233 1.27074e-17
7229.61023 1.18913e-17
7233.21815 1.11816e-17
7236.81605 1.13978e-17
7240.42397 1.12762e-17
7244.02186 1.09857e-17
7247.62978 1.12186e-17
7251.23770 1.16032e-17
7254.83560 1.13910e-17
7258.44352 1.08310e-17
7262.04142 1.09277e-17
7265.64934 1.15041e-17
7269.25726 1.14112e-17
7272.85516 1.09191e-17
7276.46308 1.10266e-17
7280.06098 1.14407e-17
7283.66890 1.14290e-17
7287.26679 1.09197e-17
7290.87471 1.11967e-17
7294.48263 1.14805e-17
7298.08053 1.13443e-17
7301.68845 1.15196e-17
7305.28635 1.14611e-17
7308.89427 1.13410e-17
7312.50219 1.16643e-17
7316.10009 1.15468e-17
7319.70801 1.17773e-17
7323.30591 1.18272e-17
7326.91383 1.16537e-17
7330.52175 1.19056e-17
7334.11964 1.19730e-17
7337.72756 1.19180e-17
7341.32546 1.23677e-17
7344.93338 1.23572e-17
7348.53128 1.17459e-17
7352.13920 1.13250e-17
7355.74712 1.16293e-17
7359.34502 1.17914e-17
7362.95294 1.15399e-17
7366.55084 1.16529e-17
7370.15876 1.14436e-17
7373.76668 1.11697e-17
7377.36457 1.13876e-17
7380.97249 1.11481e-17
7384.57039 1.12509e-17
7388.17831 1.15776e-17
7391.77621 1.03510e-17
7395.38413 9.20784e-18
7398.99205 9.71071e-18
7402.58995 1.06902e-17
7406.19787 1.09574e-17
7409.79577 1.03986e-17
7413.40369 1.01957e-17
7417.01161 1.04118e-17
7420.60950 9.76443e-18
7424.21742 9.79779e-18
7427.81532 1.31395e-17
7431.42324 1.61654e-17
7435.02114 1.42052e-17
7438.62906 1.08845e-17
7442.23698 9.79824e-18
7445.83488 9.49745e-18
7449.44280 9.21059e-18
7453.04070 8.72404e-18
7456.64862 8.32378e-18
7460.25654 8.44675e-18
7463.85443 8.21893e-18
7467.46235 8.07776e-18
7471.06025 8.36758e-18
7474.66817 8.49519e-18
7478.26607 8.64996e-18
7481.87399 7.88535e-18
7485.48191 6.93700e-18
7489.07981 6.90738e-18
7492.68773 7.46057e-18
7496.28563 7.76717e-18
7499.89355 7.90273e-18
7503.49144 7.76453e-18
7507.09936 6.83138e-18
7510.70728 7.37574e-18
7514.30518 7.45245e-18
7517.91310 6.69709e-18
7521.51100 6.89669e-18
7525.11892 7.07121e-18
7528.72684 7.17102e-18
7532.32474 6.98026e-18
7535.93266 6.71098e-18
7539.53056 6.76594e-18
7543.13848 6.81628e-18
7546.74640 6.46163e-18
7550.34429 6.47988e-18
7553.95221 6.49812e-18
7557.55011 6.51636e-18
7561.15803 6.53460e-18
7564.75593 6.55283e-18
7568.36385 6.57106e-18
7571.97177 6.58928e-18
7575.56967 6.60750e-18
7579.17759 6.62572e-18
7582.77549 6.64393e-18
7586.38341 6.66213e-18
7589.99133 6.68033e-18
7593.58922 6.69853e-18
7597.19714 6.71672e-18
7600.79504 6.73491e-18
7604.40296 6.75309e-18
7608.00086 6.77127e-18
7611.60878 6.78945e-18
7615.21670 6.80761e-18
7618.81460 6.82578e-18
7622.42252 6.84394e-18
7626.02042 6.86210e-18
7629.62834 6.88025e-18
7633.23626 6.89840e-18
7636.83415 6.91654e-18
7640.44207 6.93468e-18
7644.03997 6.95282e-18
7647.64789 6.97095e-18
7651.24579 6.98908e-18
7654.85371 7.00720e-18
7658.46163 7.02532e-18
7662.05953 7.04343e-18
7665.66745 7.06154e-18
7669.26535 7.07964e-18
7672.87327 7.09774e-18
7676.48119 7.11584e-18
7680.07908 7.13393e-18
7683.68700 7.39946e-18
7687.28490 7.37477e-18
7690.89282 7.26241e-18
7694.49072 7.39285e-18
7698.09864 8.05577e-18
7701.70656 8.19006e-18
7702.09133 8.19006e-18
7702.95280 8.20992e-18
7703.81426 8.22964e-18
7704.67572 8.23739e-18
7705.53718 8.24500e-18
7706.39864 8.24116e-18
7707.26011 8.23726e-18
7708.12157 8.22527e-18
7708.98303 8.21329e-18
7709.84449 8.20707e-18
7710.71597 8.20092e-18
7711.57743 8.21290e-18
7712.43890 8.22494e-18
7713.30036 8.25215e-18
7714.16182 8.27942e-18
7715.02328 8.31510e-18
7715.88474 8.35078e-18
7716.74620 8.38394e-18
7717.60767 8.41717e-18
7718.46913 8.43597e-18
7719.33059 8.45483e-18
7720.20207 8.45847e-18
7721.06353 8.46211e-18
7721.92499 8.45490e-18
7722.78646 8.44768e-18
7723.64792 8.43702e-18
7724.50938 8.42637e-18
7725.37084 8.42220e-18
7726.23230 8.41796e-18
7727.09377 8.42345e-18
7727.95523 8.42901e-18
7728.81669 8.44093e-18
7729.67815 8.45291e-18
7730.54963 8.47058e-18
7731.41109 8.48832e-18
7732.27255 8.51546e-18
7733.13402 8.54253e-18
7733.99548 8.57477e-18
7734.85694 8.60694e-18
7735.71840 8.62686e-18
7736.57986 8.64672e-18
7737.44133 8.64441e-18
7738.30279 8.64209e-18
7739.17427 8.62468e-18
7740.03573 8.60727e-18
7740.89719 8.58404e-18
7741.75865 8.56080e-18
7742.62012 8.54558e-18
7743.48158 8.53036e-18
7744.34304 8.53439e-18
7745.20450 8.53843e-18
7746.06596 8.55412e-18
7746.92743 8.56981e-18
7747.78889 8.58662e-18
7748.65035 8.60343e-18
7749.52183 8.61766e-18
7750.38329 8.63183e-18
7751.24475 8.64070e-18
7752.10621 8.64957e-18
7752.96768 8.65314e-18
7753.82914 8.65665e-18
7754.69060 8.65685e-18
7755.55206 8.65698e-18
7756.41352 8.65142e-18
7757.27499 8.64580e-18
7758.13645 8.62978e-18
7759.00793 8.61382e-18
7759.86939 8.59205e-18
7760.73085 8.57020e-18
7761.59231 8.55359e-18
7762.45378 8.53697e-18
7763.31524 8.52817e-18
7764.17670 8.51930e-18
7765.03816 8.51255e-18
7765.89962 8.50580e-18
7766.76109 8.49666e-18
7767.62255 8.48753e-18
7768.49403 8.47270e-18
7769.35549 8.45781e-18
7770.21695 8.43702e-18
7771.07841 8.41617e-18
7771.93988 8.39645e-18
7772.80134 8.37679e-18
7773.66280 8.36342e-18
7774.52426 8.35005e-18
7775.38572 8.34025e-18
7776.24719 8.33052e-18
7777.10865 8.32218e-18
7777.98013 8.31391e-18
7778.84159 8.30828e-18
7779.70305 8.30265e-18
7780.56451 8.30087e-18
7781.42597 8.29908e-18
7782.28744 8.30080e-18
7783.14890 8.30252e-18
7784.01036 8.30702e-18
7784.87182 8.31152e-18
7785.73328 8.31821e-18
7786.59475 8.32489e-18
7787.46623 8.33297e-18
7788.32769 8.34111e-18
7789.18915 8.34833e-18
7790.05061 8.35547e-18
7790.91207 8.35912e-18
7791.77354 8.36269e-18
7792.63500 8.36137e-18
7793.49646 8.36004e-18
7794.35792 8.35336e-18
7795.21938 8.34661e-18
7796.08085 8.33767e-18
7796.94231 8.32873e-18
7797.81379 8.32324e-18
7798.67525 8.31781e-18
7799.53671 8.32013e-18
7800.39817 8.32251e-18
7801.25963 8.33548e-18
7802.12110 8.34852e-18
7802.98256 8.36997e-18
7803.84402 8.39148e-18
7804.70548 8.41055e-18
7805.56694 8.42968e-18
7806.42841 8.43855e-18
7807.29989 8.44742e-18
7808.16135 8.44695e-18
7809.02281 8.44649e-18
7809.88427 8.43822e-18
7810.74573 8.42988e-18
7811.60720 8.41545e-18
7812.46866 8.40095e-18
7813.33012 8.38294e-18
7814.19158 8.36494e-18
7815.05304 8.34667e-18
7815.91450 8.32840e-18
7816.78598 8.31291e-18
7817.64745 8.29742e-18
7818.50891 8.28842e-18
7819.37037 8.27942e-18
7820.23183 8.27982e-18
7821.09329 8.28028e-18
7821.95476 8.28339e-18
7822.81622 8.28657e-18
7823.67768 8.28233e-18
7824.53914 8.27810e-18
7825.40060 8.26525e-18
7826.27208 8.25235e-18
7827.13355 8.23395e-18
7827.99501 8.21561e-18
7828.85647 8.19423e-18
7829.71793 8.17292e-18
7830.57939 8.15121e-18
7831.44085 8.12949e-18
7832.30232 8.10911e-18
7833.16378 8.08872e-18
7834.02524 8.06966e-18
7834.88670 8.05059e-18
7835.75818 8.03464e-18
7836.61964 8.01869e-18
7837.48111 8.01081e-18
7838.34257 8.00293e-18
7839.20403 8.00446e-18
7840.06549 8.00591e-18
7840.92695 8.01121e-18
7841.78842 8.01650e-18
7842.64988 8.02074e-18
7843.51134 8.02498e-18
7844.37280 8.02590e-18
7845.23426 8.02690e-18
7846.10574 8.02325e-18
7846.96720 8.01968e-18
7847.82867 8.01333e-18
7848.69013 8.00697e-18
7849.55159 8.00015e-18
7850.41305 7.99334e-18
7851.27452 7.98751e-18
7852.13598 7.98162e-18
7852.99744 7.97771e-18
7853.85890 7.97381e-18
7854.72036 7.97262e-18
7855.59184 7.97143e-18
7856.45330 7.97335e-18
7857.31477 7.97533e-18
7858.17623 7.97738e-18
7859.03769 7.97944e-18
7859.89915 7.97679e-18
7860.76061 7.97414e-18
7861.62208 7.96712e-18
7862.48354 7.96011e-18
7863.34500 7.95263e-18
7864.20646 7.94515e-18
7865.07794 7.93515e-18
7865.93940 7.92522e-18
7866.80087 7.90616e-18
7867.66233 7.88716e-18
7868.52379 7.85837e-18
7869.38525 7.82964e-18
7870.24671 7.79661e-18
7871.10818 7.76352e-18
7871.96964 7.73386e-18
7872.83110 7.70414e-18
7873.69256 7.69024e-18
7874.56404 7.67647e-18
7875.42550 7.68329e-18
7876.28696 7.69017e-18
7877.14843 7.70368e-18
7878.00989 7.71718e-18
7878.87135 7.72440e-18
7879.73281 7.73168e-18
7880.59427 7.72870e-18
7881.45574 7.72572e-18
7882.31720 7.71043e-18
7883.17866 7.69507e-18
7884.05014 7.67283e-18
7884.91160 7.65059e-18
7885.77306 7.62815e-18
7886.63453 7.60578e-18
7887.49599 7.58268e-18
7888.35745 7.55951e-18
7889.21891 7.53409e-18
7890.08037 7.50867e-18
7890.94184 7.48233e-18
7891.80330 7.45605e-18
7892.66476 7.43044e-18
7893.52622 7.40488e-18
7894.39770 7.38668e-18
7895.25916 7.36848e-18
7896.12062 7.36689e-18
7896.98209 7.36524e-18
7897.84355 7.37497e-18
7898.70501 7.38463e-18
7899.56647 7.39032e-18
7900.42793 7.39602e-18
7901.28940 7.39098e-18
7902.15086 7.38595e-18
7903.01232 7.37185e-18
7903.88380 7.35769e-18
7904.74526 7.33882e-18
7905.60672 7.32003e-18
7906.46819 7.30626e-18
7907.32965 7.29256e-18
7908.19111 7.28779e-18
7909.05257 7.28302e-18
7909.91403 7.27621e-18
7910.77550 7.26939e-18
7911.63696 7.25397e-18
7912.49842 7.23854e-18
7913.36990 7.22239e-18
7914.23136 7.20618e-18
7915.09282 7.19585e-18
7915.95428 7.18552e-18
7916.81575 7.18149e-18
7917.67721 7.17745e-18
7918.53867 7.17884e-18
7919.40013 7.18023e-18
7920.26159 7.17732e-18
7921.12306 7.17447e-18
7921.98452 7.15752e-18
7922.85600 7.14051e-18
7923.71746 7.11549e-18
7924.57892 7.09047e-18
7925.44038 7.06790e-18
7926.30185 7.04526e-18
7927.16331 7.03123e-18
7928.02477 7.01720e-18
7928.88623 7.01581e-18
7929.74769 7.01448e-18
7930.60916 7.02322e-18
7931.47062 7.03196e-18
7932.34210 7.04361e-18
7933.20356 7.05532e-18
7934.06502 7.06373e-18
7934.92648 7.07214e-18
7935.78794 7.07214e-18
7936.64941 7.07220e-18
7937.51087 7.06121e-18
7938.37233 7.05016e-18
7939.23379 7.02871e-18
7940.09525 7.00720e-18
7940.95672 6.97841e-18
7941.81818 6.94961e-18
7942.68966 6.92069e-18
7943.55112 6.89176e-18
7944.41258 6.86833e-18
7945.27404 6.84490e-18
7946.13551 6.82795e-18
7946.99697 6.81101e-18
7947.85843 6.80048e-18
7948.71989 6.78989e-18
7949.58135 6.78380e-18
7950.44282 6.77771e-18
7951.30428 6.77334e-18
7952.17576 6.76897e-18
7953.03722 6.76050e-18
7953.89868 6.75203e-18
7954.76014 6.73442e-18
7955.62160 6.71681e-18
7956.48307 6.69742e-18
7957.34453 6.67796e-18
7958.20599 6.66631e-18
7959.06745 6.65473e-18
7959.92891 6.65155e-18
7960.79038 6.64837e-18
7961.66186 6.65161e-18
7962.52332 6.65479e-18
7963.38478 6.65936e-18
7964.24624 6.66393e-18
7965.10770 6.66254e-18
7965.96917 6.66108e-18
7966.83063 6.65790e-18
7967.69209 6.65466e-18
7968.55355 6.66174e-18
7969.41501 6.66889e-18
7970.27648 6.68908e-18
7971.14795 6.70933e-18
7972.00942 6.73654e-18
7972.87088 6.76374e-18
7973.73234 6.78976e-18
7974.59380 6.81584e-18
7975.45526 6.82881e-18
7976.31673 6.84179e-18
7977.17819 6.83662e-18
7978.03965 6.83146e-18
7978.90111 6.81789e-18
7979.76257 6.80432e-18
7980.63405 6.79082e-18
7981.49552 6.77738e-18
7982.35698 6.76606e-18
7983.21844 6.75474e-18
7984.07990 6.74693e-18
7984.94136 6.73912e-18
7985.80283 6.73197e-18
7986.66429 6.72489e-18
7987.52575 6.71542e-18
7988.38721 6.70589e-18
7989.24867 6.69530e-18
7990.11014 6.68471e-18
7990.98161 6.67458e-18
7991.84308 6.66446e-18
7992.70454 6.65790e-18
7993.56600 6.65135e-18
7994.42746 6.65195e-18
7995.28892 6.65261e-18
7996.15039 6.65327e-18
7997.01185 6.65393e-18
7997.87331 6.64334e-18
7998.73477 6.63275e-18
7999.59623 6.61228e-18
8000.46771 6.59180e-18
8001.32917 6.57001e-18
8002.19064 6.54822e-18
8003.05210 6.53156e-18
8003.91356 6.51492e-18
8004.77502 6.50892e-18
8005.63649 6.50295e-18
8006.49795 6.50618e-18
8007.35941 6.50944e-18
8008.22087 6.51064e-18
8009.08233 6.51184e-18
8009.95381 6.50733e-18
8010.81527 6.50281e-18
8011.67674 6.50336e-18
8012.53820 6.50393e-18
8013.39966 6.51479e-18
8014.26112 6.52568e-18
8015.12258 6.53927e-18
8015.98405 6.55286e-18
8016.84551 6.56192e-18
8017.70697 6.57098e-18
8018.56843 6.56817e-18
8019.43991 6.56535e-18
8020.30137 6.54615e-18
8021.16284 6.52693e-18
8022.02430 6.50352e-18
8022.88576 6.48009e-18
8023.74722 6.46590e-18
8024.60868 6.45173e-18
8025.47015 6.44637e-18
8026.33161 6.44102e-18
8027.19307 6.44090e-18
8028.05453 6.44079e-18
8028.92601 6.44149e-18
8029.78747 6.44219e-18
8030.64893 6.43859e-18
8031.51040 6.43497e-18
8032.37186 6.42756e-18
8033.23332 6.42015e-18
8034.09478 6.41252e-18
8034.95624 6.40490e-18
8035.81771 6.39936e-18
8036.67917 6.39383e-18
8037.54063 6.39175e-18
8038.41211 6.38968e-18
8039.27357 6.39156e-18
8040.13503 6.39345e-18
8040.99650 6.39869e-18
8041.85796 6.40394e-18
8042.71942 6.41079e-18
8043.58088 6.41764e-18
8044.44234 6.42303e-18
8045.30380 6.42841e-18
8046.16527 6.43000e-18
8047.02673 6.43158e-18
8047.88819 6.42831e-18
8048.75967 6.42502e-18
8049.62113 6.41744e-18
8050.48259 6.40985e-18
8051.34406 6.40358e-18
8052.20552 6.39730e-18
8053.06698 6.39652e-18
8053.92844 6.39574e-18
8054.78990 6.39726e-18
8055.65137 6.39878e-18
8056.51283 6.39861e-18
8057.37429 6.39843e-18
8058.24577 6.39179e-18
8059.10723 6.38513e-18
8059.96869 6.36796e-18
8060.83015 6.35077e-18
8061.69162 6.32638e-18
8062.55308 6.30197e-18
8063.41454 6.27597e-18
8064.27600 6.24998e-18
8065.13746 6.22878e-18
8065.99893 6.20758e-18
8066.86039 6.19742e-18
8067.73187 6.18729e-18
8068.59333 6.18853e-18
8069.45479 6.18980e-18
8070.31625 6.19909e-18
8071.17772 6.20840e-18
8072.03918 6.21909e-18
8072.90064 6.22977e-18
8073.76210 6.23233e-18
8074.62356 6.23485e-18
8075.48503 6.22577e-18
8076.34649 6.21665e-18
8077.21797 6.20046e-18
8078.07943 6.18426e-18
8078.94089 6.16380e-18
8079.80235 6.14334e-18
8080.66381 6.11808e-18
8081.52528 6.09282e-18
8082.38674 6.06316e-18
8083.24820 6.03349e-18
8084.10966 6.00068e-18
8084.97113 5.96786e-18
8085.83259 5.93337e-18
8086.70407 5.89887e-18
8087.56553 5.86489e-18
8088.42699 5.83091e-18
8089.28845 5.79949e-18
8090.14991 5.76808e-18
8091.01138 5.74107e-18
8091.87284 5.71408e-18
8092.73430 5.69247e-18
8093.59576 5.67088e-18
8094.45722 5.65426e-18
8095.31869 5.63766e-18
8096.18015 5.62469e-18
8097.05163 5.61174e-18
8097.91309 5.59521e-18
8098.77455 5.57867e-18
8099.63601 5.55002e-18
8100.49748 5.52133e-18
8101.35894 5.47784e-18
8102.22040 5.43432e-18
8103.08186 5.37655e-18
8103.94332 5.31874e-18
8104.80479 5.25369e-18
8105.67626 5.18862e-18
8106.53773 5.12763e-18
8107.39919 5.06666e-18
8108.26065 5.01681e-18
8109.12211 4.96698e-18
8109.98357 4.93068e-18
8110.84504 4.89440e-18
8111.70650 4.86845e-18
8112.56796 4.84252e-18
8113.42942 4.81580e-18
8114.29088 4.78908e-18
8115.15235 4.75261e-18
8116.02383 4.71613e-18
8116.88529 4.66608e-18
8117.74675 4.61600e-18
8118.60821 4.55167e-18
8119.46967 4.48729e-18
8120.33114 4.41794e-18
8121.19260 4.34858e-18
8122.05406 4.28163e-18
8122.91552 4.21470e-18
8123.77698 4.14189e-18
8124.63845 4.06906e-18
8125.49991 3.98270e-18
8126.37139 3.89631e-18
8127.23285 3.80051e-18
8128.09431 3.70470e-18
8128.95577 3.60552e-18
8129.81723 3.50635e-18
8130.67870 3.41541e-18
8131.54016 3.32448e-18
8132.40162 3.25426e-18
8133.26308 3.18410e-18
8134.12454 3.12789e-18
8134.99602 3.07171e-18
8135.85749 3.01450e-18
8136.71895 2.95728e-18
8137.58041 2.89336e-18
8138.44187 2.82942e-18
8139.30333 2.75858e-18
8140.16480 2.68773e-18
8141.02626 2.61178e-18
8141.88772 2.53581e-18
8142.74918 2.45898e-18
8143.61064 2.38215e-18
8144.47210 2.30862e-18
8145.34358 2.23511e-18
8146.20505 2.16824e-18
8147.06651 2.10139e-18
8147.92797 2.04353e-18
8148.78943 1.98571e-18
8149.65089 1.93761e-18
8150.51236 1.88954e-18
8151.37382 1.85000e-18
8152.23528 1.81049e-18
8153.09674 1.77431e-18
8153.95820 1.73814e-18
8154.82968 1.70110e-18
8155.69115 1.66407e-18
8156.55261 1.62657e-18
8157.41407 1.58907e-18
8158.27553 1.55239e-18
8159.13699 1.51572e-18
8159.99845 1.48299e-18
8160.85992 1.45026e-18
8161.72138 1.42454e-18
8162.58284 1.39883e-18
8163.44430 1.38105e-18
8164.31578 1.36328e-18
8165.17724 1.35327e-18
8166.03871 1.34328e-18
8166.90017 1.33628e-18
8167.76163 1.32929e-18
8168.62309 1.31952e-18
8169.48455 1.30975e-18
8170.34602 1.29239e-18
8171.20748 1.27501e-18
8172.06894 1.24548e-18
8172.93040 1.21592e-18
8173.80188 1.18203e-18
8174.66334 1.14812e-18
8175.52481 1.12671e-18
8176.38627 1.10533e-18
8177.24773 1.10015e-18
8178.10919 1.09500e-18
8178.97065 1.09629e-18
8179.83212 1.09758e-18
8180.69358 1.09789e-18
8181.55504 1.09821e-18
8182.41650 1.09286e-18
8183.28798 1.08752e-18
8184.14944 1.07482e-18
8185.01090 1.06211e-18
8185.87237 1.04836e-18
8186.73383 1.03461e-18
8187.59529 1.02432e-18
8188.45675 1.01402e-18
8189.31821 1.00370e-18
8190.17968 9.93377e-19
8191.04114 9.80595e-19
8191.90260 9.67800e-19
8192.77408 9.55521e-19
8193.63554 9.43243e-19
8194.49700 9.34479e-19
8195.35846 9.25721e-19
8196.21993 9.23160e-19
8197.08139 9.20611e-19
8197.94285 9.26284e-19
8198.80431 9.31970e-19
8199.66577 9.41012e-19
8200.52724 9.50060e-19
8201.38870 9.55674e-19
8202.25016 9.61280e-19
8203.12164 9.62141e-19
8203.98310 9.62994e-19
8204.84456 9.60208e-19
8205.70603 9.57414e-19
8206.56749 9.51543e-19
8207.42895 9.45659e-19
8208.29041 9.37173e-19
8209.15187 9.28680e-19
8210.01334 9.18957e-19
8210.87480 9.09233e-19
8211.73626 9.00065e-19
8212.60774 8.90904e-19
8213.46920 8.83054e-19
8214.33066 8.75210e-19
8215.19212 8.68544e-19
8216.05359 8.61885e-19
8216.91505 8.54293e-19
8217.77651 8.46701e-19
8218.63797 8.32317e-19
8219.49943 8.17914e-19
8220.36090 7.94488e-19
8221.22236 7.71043e-19
8222.08382 7.44579e-19
8222.95530 7.18109e-19
8223.81676 6.95306e-19
8224.67822 6.72509e-19
8225.53969 6.61760e-19
8226.40115 6.51042e-19
8227.26261 6.58409e-19
8228.12407 6.65817e-19
8228.98553 6.85655e-19
8229.84700 7.05519e-19
8230.70846 7.29984e-19
8231.57994 7.54462e-19
8232.44140 7.75935e-19
8233.30286 7.97407e-19
8234.16432 8.08812e-19
8235.02578 8.20197e-19
8235.88725 8.23884e-19
8236.74871 8.27545e-19
8237.61017 8.29411e-19
8238.47163 8.31278e-19
8239.33309 8.35442e-19
8240.19456 8.39612e-19
8241.06604 8.49501e-19
8241.92750 8.59403e-19
8242.78896 8.73012e-19
8243.65042 8.86628e-19
8244.51188 8.97775e-19
8245.37335 9.08922e-19
8246.23481 9.14575e-19
8247.09627 9.20214e-19
8247.95773 9.20711e-19
8248.81919 9.21194e-19
8249.68066 9.17772e-19
8250.54212 9.14343e-19
8251.41360 9.09749e-19
8252.27506 9.05149e-19
8253.13652 9.01945e-19
8253.99798 8.98748e-19
8254.85945 8.98490e-19
8255.72091 8.98245e-19
8256.58237 9.01813e-19
8257.44383 9.05394e-19
8258.30529 9.12179e-19
8259.16676 9.18970e-19
8260.02822 9.27668e-19
8260.89970 9.36372e-19
8261.76116 9.44573e-19
8262.62262 9.52781e-19
8263.48408 9.58123e-19
8264.34554 9.63458e-19
8265.20701 9.63809e-19
8266.06847 9.64146e-19
8266.92993 9.58103e-19
8267.79139 9.52046e-19
8268.65285 9.42826e-19
8269.52433 9.33592e-19
8270.38580 9.25655e-19
8271.24726 9.17725e-19
8272.10872 9.14072e-19
8272.97018 9.10431e-19
8273.83164 9.13383e-19
8274.69311 9.16349e-19
8275.55457 9.23590e-19
8276.41603 9.30832e-19
8277.27749 9.37133e-19
8278.13895 9.43428e-19
8279.01043 9.46658e-19
8279.87189 9.49882e-19
8280.73336 9.50544e-19
8281.59482 9.51199e-19
8282.45628 9.50875e-19
8283.31774 9.50544e-19
8284.17920 9.52529e-19
8285.04067 9.54522e-19
8285.90213 9.60075e-19
8286.76359 9.65636e-19
8287.62505 9.71772e-19
8288.48651 9.77908e-19
8289.34798 9.83038e-19
8290.21946 9.88161e-19
8291.08092 9.94668e-19
8291.94238 1.00117e-18
8292.80384 1.01042e-18
8293.66530 1.01967e-18
8294.52677 1.02925e-18
8295.38823 1.03882e-18
8296.24969 1.04648e-18
8297.11115 1.05415e-18
8297.97261 1.05846e-18
8298.83408 1.06277e-18
8299.70555 1.06289e-18
8300.56702 1.06298e-18
8301.42848 1.06397e-18
8302.28994 1.06496e-18
8303.15140 1.07283e-18
8304.01286 1.08071e-18
8304.87433 1.09316e-18
8305.73579 1.10560e-18
8306.59725 1.11761e-18
8307.45871 1.12961e-18
8308.32017 1.13815e-18
8309.18164 1.14668e-18
8310.05312 1.14952e-18
8310.91458 1.15236e-18
8311.77604 1.15188e-18
8312.63750 1.15139e-18
8313.49896 1.15333e-18
8314.36043 1.15527e-18
8315.22189 1.16285e-18
8316.08335 1.17045e-18
8316.94481 1.18432e-18
8317.80627 1.19820e-18
8318.67775 1.21672e-18
8319.53921 1.23526e-18
8320.40068 1.25327e-18
8321.26214 1.27129e-18
8322.12360 1.28512e-18
8322.98506 1.29893e-18
8323.84652 1.30852e-18
8324.70799 1.31810e-18
8325.56945 1.32392e-18
8326.43091 1.32975e-18
8327.29237 1.33325e-18
8328.16385 1.33675e-18
8329.02531 1.33972e-18
8329.88678 1.34269e-18
8330.74824 1.34614e-18
8331.60970 1.34960e-18
8332.47116 1.35456e-18
8333.33262 1.35953e-18
8334.19408 1.36848e-18
8335.05555 1.37744e-18
8335.91701 1.39245e-18
8336.77847 1.40748e-18
8337.64995 1.42694e-18
8338.51141 1.44640e-18
8339.37287 1.46753e-18
8340.23434 1.48866e-18
8341.09580 1.50765e-18
8341.95726 1.52664e-18
8342.81872 1.53937e-18
8343.68018 1.55208e-18
8344.54165 1.55864e-18
8345.40311 1.56518e-18
8346.26457 1.56846e-18
8347.12603 1.57172e-18
8347.99751 1.57406e-18
8348.85897 1.57641e-18
8349.72043 1.57958e-18
8350.58190 1.58275e-18
8351.44336 1.58880e-18
8352.30482 1.59485e-18
8353.16628 1.60592e-18
8354.02775 1.61700e-18
8354.88921 1.63335e-18
8355.75067 1.64971e-18
8356.62215 1.66867e-18
8357.48361 1.68764e-18
8358.34507 1.70654e-18
8359.20653 1.72545e-18
8360.06800 1.74198e-18
8360.92946 1.75850e-18
8361.79092 1.77126e-18
8362.65238 1.78402e-18
8363.51384 1.79542e-18
8364.37531 1.80682e-18
8365.23677 1.81923e-18
8366.10825 1.83164e-18
8366.96971 1.84350e-18
8367.83117 1.85536e-18
8368.69263 1.86505e-18
8369.55410 1.87474e-18
8370.41556 1.88384e-18
8371.27702 1.89294e-18
8372.13848 1.90362e-18
8372.99994 1.91431e-18
8373.86140 1.92776e-18
8374.72287 1.94122e-18
8375.59435 1.95820e-18
8376.45581 1.97520e-18
8377.31727 1.99556e-18
8378.17873 2.01593e-18
8379.04019 2.03888e-18
8379.90166 2.06184e-18
8380.76312 2.08612e-18
8381.62458 2.11041e-18
8382.48604 2.13455e-18
8383.34750 2.15869e-18
8384.20897 2.18147e-18
8385.07043 2.20423e-18
8385.94191 2.22451e-18
8386.80337 2.24479e-18
8387.66483 2.26325e-18
8388.52629 2.28171e-18
8389.38775 2.30194e-18
8390.24922 2.32218e-18
8391.11068 2.34518e-18
8391.97214 2.36818e-18
8392.83360 2.38933e-18
8393.69507 2.41048e-18
8394.55653 2.42646e-18
8395.41799 2.44243e-18
8396.28947 2.45315e-18
8397.15093 2.46386e-18
8398.01239 2.47067e-18
8398.87385 2.47746e-18
8399.73532 2.48786e-18
8400.59678 2.49828e-18
8401.45824 2.51914e-18
8402.31970 2.54003e-18
8403.18116 2.56914e-18
8404.04263 2.59827e-18
8404.90409 2.63143e-18
8405.77557 2.66459e-18
8406.63703 2.69716e-18
8407.49849 2.72972e-18
8408.35995 2.75689e-18
8409.22142 2.78405e-18
8410.08288 2.80585e-18
8410.94434 2.82764e-18
8411.80580 2.84652e-18
8412.66726 2.86539e-18
8413.52873 2.88304e-18
8414.39019 2.90068e-18
8415.26167 2.91846e-18
8416.12313 2.93624e-18
8416.98459 2.95561e-18
8417.84605 2.97499e-18
8418.70751 2.99714e-18
8419.56898 3.01930e-18
8420.43044 3.04469e-18
8421.29190 3.07010e-18
8422.15336 3.09863e-18
8423.01482 3.12718e-18
8423.87629 3.15734e-18
8424.74777 3.18751e-18
8425.60923 3.21513e-18
8426.47069 3.24274e-18
8427.33215 3.26611e-18
8428.19361 3.28948e-18
8429.05508 3.31332e-18
8429.91654 3.33717e-18
8430.77800 3.36532e-18
8431.63946 3.39348e-18
8432.50092 3.42635e-18
8433.36239 3.45922e-18
8434.23386 3.49621e-18
8435.09533 3.53319e-18
8435.95679 3.56813e-18
8436.81825 3.60307e-18
8437.67971 3.62994e-18
8438.54117 3.65678e-18
8439.40264 3.67910e-18
8440.26410 3.70140e-18
8441.12556 3.72491e-18
8441.98702 3.74841e-18
8442.84848 3.77481e-18
8443.70995 3.80122e-18
8444.58143 3.83090e-18
8445.44289 3.86059e-18
8446.30435 3.89387e-18
8447.16581 3.92716e-18
8448.02727 3.96394e-18
8448.88874 4.00073e-18
8449.75020 4.03987e-18
8450.61166 4.07902e-18
8451.47312 4.11886e-18
8452.33458 4.15869e-18
8453.20606 4.19732e-18
8454.06752 4.23594e-18
8454.92899 4.27104e-18
8455.79045 4.30612e-18
8456.65191 4.33818e-18
8457.51337 4.37024e-18
8458.37483 4.40425e-18
8459.23630 4.43826e-18
8460.09776 4.47632e-18
8460.95922 4.51439e-18
8461.82068 4.55221e-18
8462.69216 4.59004e-18
8463.55362 4.62462e-18
8464.41508 4.65919e-18
8465.27655 4.69074e-18
8466.13801 4.72228e-18
8466.99947 4.75207e-18
8467.86093 4.78186e-18
8468.72240 4.81622e-18
8469.58386 4.85058e-18
8470.44532 4.89510e-18
8471.30678 4.93965e-18
8472.16824 4.99087e-18
8473.03972 5.04211e-18
8473.90118 5.09500e-18
8474.76265 5.14789e-18
8475.62411 5.19865e-18
8476.48557 5.24940e-18
8477.34703 5.29435e-18
8478.20849 5.33929e-18
8479.06996 5.38277e-18
8479.93142 5.42625e-18
8480.79288 5.47617e-18
8481.65434 5.52610e-18
8482.51580 5.58069e-18
8483.38728 5.63529e-18
8484.24875 5.68718e-18
8485.11021 5.73907e-18
8485.97167 5.78498e-18
8486.83313 5.83087e-18
8487.69459 5.87072e-18
8488.55605 5.91054e-18
8489.41752 5.94642e-18
8490.27898 5.98229e-18
8491.14044 6.01951e-18
8492.00190 6.05674e-18
8492.87338 6.09876e-18
8493.73484 6.14080e-18
8494.59631 6.18669e-18
8495.45777 6.23258e-18
8496.31923 6.28284e-18
8497.18069 6.33312e-18
8498.04215 6.39336e-18
8498.90362 6.45363e-18
8499.76508 6.52597e-18
8500.62654 6.59834e-18
8501.48800 6.67313e-18
8502.35948 6.74792e-18
8503.22094 6.81571e-18
8504.08240 6.88349e-18
8504.94387 6.94233e-18
8505.80533 7.00111e-18
8506.66679 7.05062e-18
8507.52825 7.10007e-18
8508.38972 7.14369e-18
8509.25118 7.18731e-18
8510.11264 7.22974e-18
8510.98412 7.27224e-18
8511.84558 7.31533e-18
8512.70704 7.35842e-18
8513.56850 7.40310e-18
8514.42997 7.44771e-18
8515.29143 7.49378e-18
8516.15289 7.53985e-18
8517.01435 7.58678e-18
8517.87581 7.63371e-18
8518.73728 7.68150e-18
8519.59874 7.72923e-18
8520.46020 7.77801e-18
8521.33168 7.82673e-18
8522.19314 7.87862e-18
8523.05460 7.93045e-18
8523.91607 7.98943e-18
8524.77753 8.04847e-18
8525.63899 8.11592e-18
8526.50045 8.18337e-18
8527.36191 8.25685e-18
8528.22337 8.33026e-18
8529.08484 8.40585e-18
8529.94630 8.48144e-18
8530.80776 8.55286e-18
8531.67924 8.62428e-18
8532.54070 8.68644e-18
8533.40216 8.74853e-18
8534.26363 8.79943e-18
8535.12509 8.85033e-18
8535.98655 8.89051e-18
8536.84801 8.93075e-18
8537.70947 8.96802e-18
8538.57094 9.00529e-18
8539.43240 9.04785e-18
8540.30388 9.09048e-18
8541.16534 9.14383e-18
8542.02680 9.19718e-18
8542.88826 9.26456e-18
8543.74972 9.33201e-18
8544.61119 9.40899e-18
8545.47265 9.48598e-18
8546.33411 9.56547e-18
8547.19557 9.64490e-18
8548.05703 9.71467e-18
8548.91850 9.78437e-18
8549.78998 9.83091e-18
8550.65144 9.87744e-18
8551.51290 9.90200e-18
8552.37436 9.92649e-18
8553.23582 9.93920e-18
8554.09729 9.95190e-18
8554.95875 9.96653e-18
8555.82021 9.98123e-18
8556.68167 1.00141e-17
8557.54313 1.00470e-17
8558.40460 1.01054e-17
8559.27607 1.01639e-17
8560.13754 1.02434e-17
8560.99900 1.03228e-17
8561.86046 1.04147e-17
8562.72192 1.05066e-17
8563.58338 1.05966e-17
8564.44485 1.06867e-17
8565.30631 1.07619e-17
8566.16777 1.08370e-17
8567.02923 1.08887e-17
8567.89070 1.09404e-17
8568.75216 1.09645e-17
8569.62364 1.09885e-17
8570.48510 1.09919e-17
8571.34656 1.09952e-17
8572.20802 1.09876e-17
8573.06948 1.09799e-17
8573.93095 1.09721e-17
8574.79241 1.09644e-17
8575.65387 1.09670e-17
8576.51533 1.09696e-17
8577.37679 1.09935e-17
8578.23826 1.10175e-17
8579.09972 1.10710e-17
8579.97120 1.11245e-17
8580.83266 1.11972e-17
8581.69412 1.12699e-17
8582.55558 1.13445e-17
8583.41705 1.14191e-17
8584.27851 1.14817e-17
8585.13997 1.15443e-17
8586.00143 1.15835e-17
8586.86289 1.16227e-17
8587.72436 1.16369e-17
8588.58582 1.16511e-17
8589.45730 1.16468e-17
8590.31876 1.16423e-17
8591.18022 1.16290e-17
8592.04168 1.16158e-17
8592.90314 1.16069e-17
8593.76461 1.15980e-17
8594.62607 1.16010e-17
8595.48753 1.16038e-17
8596.34899 1.16155e-17
8597.21045 1.16272e-17
8598.07192 1.16458e-17
8598.94340 1.16646e-17
8599.80486 1.16921e-17
8600.66632 1.17197e-17
8601.52778 1.17553e-17
8602.38924 1.17909e-17
8603.25071 1.18289e-17
8604.11217 1.18670e-17
8604.97363 1.19011e-17
8605.83509 1.19354e-17
8606.69655 1.19573e-17
8607.56803 1.19793e-17
8608.42949 1.19824e-17
8609.29096 1.19853e-17
8610.15242 1.19713e-17
8611.01388 1.19571e-17
8611.87534 1.19308e-17
8612.73680 1.19044e-17
8613.59827 1.18712e-17
8614.45973 1.18379e-17
8615.32119 1.18034e-17
8616.18265 1.17690e-17
8617.04411 1.17442e-17
8617.91559 1.17194e-17
8618.77706 1.17159e-17
8619.63852 1.17125e-17
8620.49998 1.17311e-17
8621.36144 1.17497e-17
8622.22290 1.17839e-17
8623.08437 1.18183e-17
8623.94583 1.18590e-17
8624.80729 1.18999e-17
8625.66875 1.19357e-17
8626.53021 1.19715e-17
8627.40169 1.19954e-17
8628.26315 1.20192e-17
8629.12462 1.20310e-17
8629.98608 1.20428e-17
8630.84754 1.20422e-17
8631.70900 1.20416e-17
8632.57046 1.20270e-17
8633.43193 1.20124e-17
8634.29339 1.19859e-17
8635.15485 1.19593e-17
8636.01631 1.19291e-17
8636.88779 1.18989e-17
8637.74925 1.18737e-17
8638.61072 1.18486e-17
8639.47218 1.18386e-17
8640.33364 1.18286e-17
8641.19510 1.18406e-17
8642.05656 1.18526e-17
8642.91803 1.18807e-17
8643.77949 1.19090e-17
8644.64095 1.19445e-17
8645.50241 1.19800e-17
8646.37389 1.20137e-17
8647.23535 1.20474e-17
8648.09681 1.20701e-17
8648.95828 1.20926e-17
8649.81974 1.21008e-17
8650.68120 1.21089e-17
8651.54266 1.21027e-17
8652.40412 1.20964e-17
8653.26559 1.20748e-17
8654.12705 1.20533e-17
8654.98851 1.20157e-17
8655.85999 1.19781e-17
8656.72145 1.19310e-17
8657.58291 1.18839e-17
8658.44438 1.18387e-17
8659.30584 1.17935e-17
8660.16730 1.17579e-17
8661.02876 1.17224e-17
8661.89022 1.16998e-17
8662.75168 1.16773e-17
8663.61315 1.16697e-17
8664.47461 1.16621e-17
8665.33607 1.16687e-17
8666.20755 1.16754e-17
8667.06901 1.16933e-17
8667.93047 1.17112e-17
8668.79194 1.17347e-17
8669.65340 1.17583e-17
8670.51486 1.17799e-17
8671.37632 1.18015e-17
8672.23778 1.18081e-17
8673.09925 1.18148e-17
8673.96071 1.17969e-17
8674.82217 1.17789e-17
8675.68363 1.17394e-17
8676.55511 1.16998e-17
8677.41657 1.16450e-17
8678.27803 1.15901e-17
8679.13950 1.15307e-17
8680.00096 1.14713e-17
8680.86242 1.14191e-17
8681.72388 1.13669e-17
8682.58535 1.13266e-17
8683.44681 1.12863e-17
8684.30827 1.12596e-17
8685.16973 1.12329e-17
8686.04121 1.12213e-17
8686.90267 1.12098e-17
8687.76413 1.12135e-17
8688.62560 1.12174e-17
8689.48706 1.12336e-17
8690.34852 1.12498e-17
8691.20998 1.12736e-17
8692.07144 1.12975e-17
8692.93291 1.13210e-17
8693.79437 1.13443e-17
8694.66585 1.13570e-17
8695.52731 1.13696e-17
8696.38877 1.13652e-17
8697.25023 1.13608e-17
8698.11170 1.13383e-17
8698.97316 1.13157e-17
8699.83462 1.12775e-17
8700.69608 1.12393e-17
8701.55754 1.11937e-17
8702.41900 1.11481e-17
8703.28047 1.11021e-17
8704.15195 1.10561e-17
8705.01341 1.10098e-17
8705.87487 1.09636e-17
8706.73633 1.09190e-17
8707.59779 1.08746e-17
8708.45926 1.08411e-17
8709.32072 1.08076e-17
8710.18218 1.07925e-17
8711.04364 1.07773e-17
8711.90510 1.07808e-17
8712.76657 1.07843e-17
8713.62803 1.08038e-17
8714.49951 1.08233e-17
8715.36097 1.08445e-17
8716.22243 1.08658e-17
8717.08389 1.08726e-17
8717.94535 1.08795e-17
8718.80682 1.08655e-17
8719.66828 1.08513e-17
8720.52974 1.08139e-17
8721.39120 1.07765e-17
8722.25267 1.07248e-17
8723.11413 1.06732e-17
8723.98561 1.06234e-17
8724.84707 1.05736e-17
8725.70853 1.05316e-17
8726.56999 1.04895e-17
8727.43145 1.04534e-17
8728.29292 1.04175e-17
8729.15438 1.03877e-17
8730.01584 1.03579e-17
8730.87730 1.03352e-17
8731.73876 1.03123e-17
8732.61024 1.02987e-17
8733.47170 1.02850e-17
8734.33317 1.02868e-17
8735.19463 1.02886e-17
8736.05609 1.03040e-17
8736.91755 1.03193e-17
8737.77902 1.03301e-17
8738.64048 1.03409e-17
8739.50194 1.03318e-17
8740.36340 1.03226e-17
8741.22486 1.02852e-17
8742.08633 1.02477e-17
8742.95780 1.01797e-17
8743.81927 1.01116e-17
8744.68073 1.00327e-17
8745.54219 9.95376e-18
8746.40365 9.88525e-18
8747.26511 9.81674e-18
8748.12658 9.76855e-18
8748.98804 9.72050e-18
8749.84950 9.69865e-18
8750.71096 9.67688e-18
8751.57242 9.67522e-18
8752.44390 9.67363e-18
8753.30537 9.68038e-18
8754.16683 9.68720e-18
8755.02829 9.69594e-18
8755.88975 9.70468e-18
8756.75121 9.71116e-18
8757.61268 9.71765e-18
8758.47414 9.71242e-18
8759.33560 9.70713e-18
8760.19706 9.67866e-18
8761.05852 9.65013e-18
8761.91999 9.59658e-18
8762.79146 9.54297e-18
8763.65293 9.47049e-18
8764.51439 9.39794e-18
8765.37585 9.31659e-18
8766.23731 9.23531e-18
8767.09877 9.15958e-18
8767.96024 9.08399e-18
8768.82170 9.02322e-18
8769.68316 8.96259e-18
8770.54462 8.91566e-18
8771.40608 8.86880e-18
8772.26755 8.83365e-18
8773.13903 8.79857e-18
8774.00049 8.77361e-18
8774.86195 8.74859e-18
8775.72341 8.73046e-18
8776.58487 8.71225e-18
8777.44633 8.69795e-18
8778.30780 8.68372e-18
8779.16926 8.66916e-18
8780.03072 8.65460e-18
8780.89218 8.62713e-18
8781.76366 8.59959e-18
8782.62512 8.54783e-18
8783.48659 8.49594e-18
8784.34805 8.42531e-18
8785.20951 8.35468e-18
8786.07097 8.27532e-18
8786.93243 8.19595e-18
8787.79390 8.11546e-18
8788.65536 8.03497e-18
8789.51682 7.96077e-18
8790.37828 7.88657e-18
8791.24976 7.81846e-18
8792.11122 7.75034e-18
8792.97268 7.68303e-18
8793.83415 7.61564e-18
8794.69561 7.55249e-18
8795.55707 7.48941e-18
8796.41853 7.44017e-18
8797.28000 7.39105e-18
8798.14146 7.35378e-18
8799.00292 7.31658e-18
8799.86438 7.27832e-18
8800.72584 7.24007e-18
8801.59732 7.19022e-18
8802.45878 7.14038e-18
8803.32025 7.07180e-18
8804.18171 7.00323e-18
8805.04317 6.91499e-18
8805.90463 6.82676e-18
8806.76609 6.73158e-18
8807.62756 6.63632e-18
8808.48902 6.54575e-18
8809.35048 6.45523e-18
8810.21194 6.37489e-18
8811.08342 6.29458e-18
8811.94488 6.22820e-18
8812.80635 6.16186e-18
8813.66781 6.10798e-18
8814.52927 6.05414e-18
8815.39073 6.00923e-18
8816.25219 5.96434e-18
8817.11365 5.92399e-18
8817.97512 5.88366e-18
8818.83658 5.84296e-18
8819.70806 5.80227e-18
8820.56952 5.75526e-18
8821.43098 5.70823e-18
8822.29244 5.64972e-18
8823.15391 5.59118e-18
8824.01537 5.52054e-18
8824.87683 5.44986e-18
8825.73829 5.36894e-18
8826.59975 5.28800e-18
8827.46122 5.20426e-18
8828.32268 5.12051e-18
8829.19416 5.04469e-18
8830.05562 4.96889e-18
8830.91708 4.90646e-18
8831.77854 4.84406e-18
8832.64000 4.79541e-18
8833.50147 4.74680e-18
8834.36293 4.71019e-18
8835.22439 4.67361e-18
8836.08585 4.64476e-18
8836.94732 4.61592e-18
8837.80878 4.58981e-18
8838.67024 4.56369e-18
8839.54172 4.53516e-18
8840.40318 4.50662e-18
8841.26464 4.47188e-18
8842.12610 4.43712e-18
8842.98757 4.39566e-18
8843.84903 4.35419e-18
8844.71049 4.30681e-18
8845.57195 4.25943e-18
8846.43341 4.20891e-18
8847.29488 4.15838e-18
8848.15634 4.10828e-18
8849.02782 4.05817e-18
8849.88928 4.01037e-18
8850.75074 3.96259e-18
8851.61220 3.91891e-18
8852.47367 3.87524e-18
8853.33513 3.84497e-18
8854.19659 3.81472e-18
8855.05805 3.80707e-18
8855.91951 3.79949e-18
8856.78097 3.80715e-18
8857.64244 3.81484e-18
8858.50390 3.82487e-18
8859.36536 3.83489e-18
8860.23684 3.83659e-18
8861.09830 3.83828e-18
8861.95976 3.82203e-18
8862.82123 3.80572e-18
8863.68269 3.77514e-18
8864.54415 3.74452e-18
8865.40561 3.71368e-18
8866.26707 3.68283e-18
8867.12854 3.65826e-18
8867.99000 3.63371e-18
8868.86148 3.61376e-18
8869.72294 3.59383e-18
8870.58440 3.57779e-18
8871.44586 3.56176e-18
8872.30732 3.54900e-18
8873.16879 3.53626e-18
8874.03025 3.52749e-18
8874.89171 3.51873e-18
8875.75317 3.51935e-18
8876.61463 3.52000e-18
8877.47610 3.53220e-18
8878.34758 3.54443e-18
8879.20904 3.56146e-18
8880.07050 3.57850e-18
8880.93196 3.59329e-18
8881.79342 3.60807e-18
8882.65489 3.61404e-18
8883.51635 3.61997e-18
8884.37781 3.61232e-18
8885.23927 3.60464e-18
8886.10073 3.58779e-18
8886.96220 3.57092e-18
8887.83367 3.55182e-18
8888.69514 3.53271e-18
8889.55660 3.51775e-18
8890.41806 3.50280e-18
8891.27952 3.49779e-18
8892.14099 3.49281e-18
8893.00245 3.50103e-18
8893.86391 3.50929e-18
8894.72537 3.53205e-18
8895.58683 3.55484e-18
8896.44830 3.58677e-18
8897.30976 3.61873e-18
8898.18124 3.65070e-18
8899.04270 3.68266e-18
8899.90416 3.70686e-18
8900.76562 3.73102e-18
8901.62708 3.74093e-18
8902.48855 3.75079e-18
8903.35001 3.74741e-18
8904.21147 3.74399e-18
8905.07293 3.73815e-18
8905.93439 3.73230e-18
8906.80587 3.73110e-18
8907.66734 3.72991e-18
8908.52880 3.73264e-18
8909.39026 3.73539e-18
8910.25172 3.74207e-18
8911.11318 3.74876e-18
8911.97465 3.76072e-18
8912.83611 3.77269e-18
8913.69757 3.79047e-18
8914.55903 3.80826e-18
8915.42049 3.83311e-18
8916.29197 3.85798e-18
8917.15343 3.88961e-18
8918.01490 3.92126e-18
8918.87636 3.95154e-18
8919.73782 3.98181e-18
8920.59928 4.00258e-18
8921.46074 4.02332e-18
8922.32221 4.03228e-18
8923.18367 4.04121e-18
8924.04513 4.03811e-18
8924.90659 4.03498e-18
8925.76805 4.02942e-18
8926.63953 4.02385e-18
8927.50100 4.02892e-18
8928.36246 4.03402e-18
8929.22392 4.05022e-18
8930.08538 4.06645e-18
8930.94684 4.08787e-18
8931.80831 4.10929e-18
8932.66977 4.13163e-18
8933.53123 4.15397e-18
8934.39269 4.17308e-18
8935.25415 4.19217e-18
8936.12563 4.21001e-18
8936.98709 4.22785e-18
8937.84856 4.25377e-18
8938.71002 4.27971e-18
8939.57148 4.31415e-18
8940.43294 4.34860e-18
8941.29440 4.37885e-18
8942.15587 4.40909e-18
8943.01733 4.42585e-18
8943.87879 4.44256e-18
8944.74025 4.44164e-18
8945.61173 4.44067e-18
8946.47319 4.42358e-18
8947.33466 4.40644e-18
8948.19612 4.39277e-18
8949.05758 4.37911e-18
8949.91904 4.38476e-18
8950.78050 4.39047e-18
8951.64197 4.41050e-18
8952.50343 4.43057e-18
8953.36489 4.45699e-18
8954.22635 4.48343e-18
8955.08781 4.49540e-18
8955.95929 4.50732e-18
8956.82075 4.48435e-18
8957.68222 4.46130e-18
8958.54368 4.42888e-18
8959.40514 4.39644e-18
8960.26660 4.39212e-18
8961.12806 4.38787e-18
8961.98953 4.41701e-18
8962.85099 4.44624e-18
8963.71245 4.50173e-18
8964.57391 4.55729e-18
8965.44539 4.62115e-18
8966.30685 4.68502e-18
8967.16832 4.73003e-18
8968.02978 4.77499e-18
8968.89124 4.80413e-18
8969.75270 4.83323e-18
8970.61416 4.87626e-18
8971.47563 4.91932e-18
8972.33709 4.98654e-18
8973.19855 5.05383e-18
8974.06001 5.13250e-18
8974.93149 5.21119e-18
8975.79295 5.28285e-18
8976.65441 5.35449e-18
8977.51588 5.39093e-18
8978.37734 5.42728e-18
8979.23880 5.40652e-18
8980.10026 5.38560e-18
8980.96172 5.29350e-18
8981.82319 5.20121e-18
8982.68465 5.04684e-18
8983.54611 4.89231e-18
8984.41759 4.75870e-18
8985.27905 4.62516e-18
8986.14051 4.58892e-18
8987.00198 4.55294e-18
8987.86344 4.64032e-18
8988.72490 4.72804e-18
8989.58636 4.94301e-18
8990.44782 5.15831e-18
8991.30928 5.39827e-18
8992.17075 5.63828e-18
8993.03221 5.77971e-18
8993.89367 5.92088e-18
8994.76515 5.94527e-18
8995.62661 5.96935e-18
8996.48807 5.89928e-18
8997.34954 5.82895e-18
8998.21100 5.71966e-18
8999.07246 5.61027e-18
8999.93392 5.53715e-18
9000.79538 5.46411e-18
9001.65685 5.46000e-18
9002.51831 5.45608e-18
9003.38979 5.51896e-18
9004.25125 5.58202e-18
9005.11271 5.68997e-18
9005.97417 5.79804e-18
9006.83563 5.90807e-18
9007.69710 6.01811e-18
9008.55856 6.09673e-18
9009.42002 6.17526e-18
9010.28148 6.20691e-18
9011.14295 6.23843e-18
9012.00441 6.22383e-18
9012.87589 6.20908e-18
9013.73735 6.18513e-18
9014.59881 6.16116e-18
9015.46027 6.15526e-18
9016.32173 6.14941e-18
9017.18320 6.14483e-18
9018.04466 6.14026e-18
9018.90612 6.12456e-18
9019.76758 6.10882e-18
9020.62904 6.09639e-18
9021.49051 6.08395e-18
9022.35197 6.08973e-18
9023.22345 6.09555e-18
9024.08491 6.13836e-18
9024.94637 6.18126e-18
9025.80783 6.27612e-18
9026.66930 6.37113e-18
9027.53076 6.49524e-18
9028.39222 6.61945e-18
9029.25368 6.73833e-18
9030.11514 6.85714e-18
9030.97660 6.94683e-18
9031.83807 7.03639e-18
9032.70955 7.07909e-18
9033.57101 7.12165e-18
9034.43247 7.11576e-18
9035.29393 7.10973e-18
9036.15539 7.06432e-18
9037.01686 7.01878e-18
9037.87832 6.95716e-18
9038.73978 6.89547e-18
9039.60124 6.85344e-18
9040.46270 6.81154e-18
9041.32417 6.79869e-18
9042.18563 6.78592e-18
9043.05711 6.77606e-18
9043.91857 6.76613e-18
9044.78003 6.74541e-18
9045.64149 6.72462e-18
9046.50295 6.70133e-18
9047.36442 6.67803e-18
9048.22588 6.65936e-18
9049.08734 6.64069e-18
9049.94880 6.63818e-18
9050.81027 6.63560e-18
9051.67173 6.65228e-18
9052.54321 6.66902e-18
9053.40467 6.67081e-18
9054.26613 6.67247e-18
9055.12759 6.62944e-18
9055.98905 6.58632e-18
9056.85052 6.51444e-18
9057.71198 6.44248e-18
9058.57344 6.36340e-18
9059.43490 6.28431e-18
9060.29636 6.20071e-18
9061.16784 6.11710e-18
9062.02931 6.03007e-18
9062.89077 5.94302e-18
9063.75223 5.84937e-18
9064.61369 5.75570e-18
9065.47515 5.64846e-18
9066.33662 5.54118e-18
9067.19808 5.44767e-18
9068.05954 5.35419e-18
9068.92100 5.31974e-18
9069.78246 5.28544e-18
9070.64393 5.30002e-18
9071.51540 5.31475e-18
9072.37687 5.32760e-18
9073.23833 5.34045e-18
9074.09979 5.33286e-18
9074.96125 5.32520e-18
9075.82271 5.31132e-18
9076.68418 5.29741e-18
9077.54564 5.28611e-18
9078.40710 5.27482e-18
9079.26856 5.27122e-18
9080.13002 5.26765e-18
9080.99149 5.27156e-18
9081.86297 5.27549e-18
9082.72443 5.26930e-18
9083.58589 5.26309e-18
9084.44735 5.23698e-18
9085.30881 5.21082e-18
9086.17028 5.18417e-18
9087.03174 5.15752e-18
9087.89320 5.14528e-18
9088.75466 5.13307e-18
9089.61612 5.11616e-18
9090.48760 5.09924e-18
9091.34906 5.05939e-18
9092.21053 5.01972e-18
9093.07199 4.97580e-18
9093.93345 4.93187e-18
9094.79491 4.90694e-18
9095.65637 4.88207e-18
9096.51784 4.86958e-18
9097.37930 4.85714e-18
9098.24076 4.84335e-18
9099.10222 4.82955e-18
9099.97370 4.81801e-18
9100.83516 4.80648e-18
9101.69663 4.80456e-18
9102.55809 4.80267e-18
9103.41955 4.82447e-18
9104.28101 4.84634e-18
9105.14247 4.91206e-18
9106.00393 4.97791e-18
9106.86540 5.06360e-18
9107.72686 5.14935e-18
9108.58832 5.19359e-18
9109.45980 5.23770e-18
9110.32126 5.21430e-18
9111.18272 5.19071e-18
9112.04419 5.11490e-18
9112.90565 5.03895e-18
9113.76711 4.94207e-18
9114.62857 4.84514e-18
9115.49003 4.79147e-18
9116.35150 4.73792e-18
9117.21296 4.76096e-18
9118.07442 4.78421e-18
9118.93588 4.83437e-18
9119.80736 4.88460e-18
9120.66882 4.91344e-18
9121.53028 4.94222e-18
9122.39175 4.91873e-18
9123.25321 4.89509e-18
9124.11467 4.80064e-18
9124.97613 4.70600e-18
9125.83760 4.58427e-18
9126.69906 4.46248e-18
9127.56052 4.36665e-18
9128.43200 4.27090e-18
9129.29346 4.22843e-18
9130.15492 4.18612e-18
9131.01638 4.21473e-18
9131.87785 4.24353e-18
9132.73931 4.33126e-18
9133.60077 4.41917e-18
9134.46223 4.53907e-18
9135.32369 4.65905e-18
9136.18516 4.78303e-18
9137.04662 4.90702e-18
9137.90808 5.00610e-18
9138.76954 5.10511e-18
9139.64102 5.16066e-18
9140.50248 5.21607e-18
9141.36395 5.22177e-18
9142.22541 5.22734e-18
9143.08687 5.17376e-18
9143.94833 5.12001e-18
9144.80979 4.99357e-18
9145.67125 4.86693e-18
9146.53272 4.68400e-18
9147.39418 4.50093e-18
9148.26566 4.31678e-18
9149.12712 4.13263e-18
9149.98858 3.99740e-18
9150.85004 3.86229e-18
9151.71151 3.81652e-18
9152.57297 3.77100e-18
9153.43443 3.83052e-18
9154.29589 3.89032e-18
9155.15735 4.00312e-18
9156.01882 4.11605e-18
9156.88028 4.22714e-18
9157.75176 4.33823e-18
9158.61322 4.42194e-18
9159.47468 4.50557e-18
9160.33614 4.54203e-18
9161.19760 4.57836e-18
9162.05907 4.56890e-18
9162.92053 4.55931e-18
9163.78199 4.51472e-18
9164.64345 4.47003e-18
9165.50492 4.38881e-18
9166.36638 4.30749e-18
9167.22784 4.18772e-18
9168.09932 4.06785e-18
9168.96078 3.93925e-18
9169.82224 3.81063e-18
9170.68370 3.71343e-18
9171.54517 3.61632e-18
9172.40663 3.57061e-18
9173.26809 3.52505e-18
9174.12955 3.53959e-18
9174.99101 3.55430e-18
9175.85248 3.60437e-18
9176.71394 3.65453e-18
9177.58542 3.68393e-18
9178.44688 3.71327e-18
9179.30834 3.70566e-18
9180.16980 3.69795e-18
9181.03127 3.69020e-18
9181.89273 3.68245e-18
9182.75419 3.69486e-18
9183.61565 3.70732e-18
9184.47711 3.73265e-18
9185.33857 3.75800e-18
9186.20004 3.78751e-18
9187.07152 3.81703e-18
9187.93298 3.82956e-18
9188.79444 3.84204e-18
9189.65590 3.82585e-18
9190.51736 3.80956e-18
9191.37883 3.79735e-18
9192.24029 3.78514e-18
9193.10175 3.80603e-18
9193.96321 3.82701e-18
9194.82467 3.86806e-18
9195.68614 3.90915e-18
9196.55762 3.95188e-18
9197.41908 3.99460e-18
9198.28054 4.02231e-18
9199.14200 4.04998e-18
9200.00346 4.04662e-18
9200.86492 4.04319e-18
9201.72639 4.02060e-18
9202.58785 3.99795e-18
9203.44931 3.97937e-18
9204.31077 3.96081e-18
9205.17224 3.94693e-18
9206.04371 3.93306e-18
9206.90518 3.91366e-18
9207.76664 3.89424e-18
9208.62810 3.87256e-18
9209.48956 3.85087e-18
9210.35102 3.83785e-18
9211.21249 3.82484e-18
9212.07395 3.83143e-18
9212.93541 3.83808e-18
9213.79687 3.87687e-18
9214.65833 3.91575e-18
9215.52981 3.98422e-18
9216.39127 4.05277e-18
9217.25274 4.12491e-18
9218.11420 4.19705e-18
9218.97566 4.25596e-18
9219.83712 4.31483e-18
9220.69859 4.36590e-18
9221.56005 4.41694e-18
9222.42151 4.46321e-18
9223.28297 4.50945e-18
9224.14443 4.54576e-18
9225.00590 4.58204e-18
9225.87737 4.60478e-18
9226.73884 4.62750e-18
9227.60030 4.63290e-18
9228.46176 4.63826e-18
9229.32322 4.62488e-18
9230.18468 4.61146e-18
9231.04615 4.59454e-18
9231.90761 4.57761e-18
9232.76907 4.57478e-18
9233.63053 4.57198e-18
9234.49199 4.57936e-18
9235.35346 4.58676e-18
9236.22494 4.59443e-18
9237.08640 4.60210e-18
9237.94786 4.61459e-18
9238.80932 4.62709e-18
9239.67078 4.65370e-18
9240.53225 4.68035e-18
9241.39371 4.72556e-18
9242.25517 4.77082e-18
9243.11663 4.83645e-18
9243.97809 4.90213e-18
9244.84957 4.98245e-18
9245.71103 5.06281e-18
9246.57250 5.14480e-18
9247.43396 5.22678e-18
9248.29542 5.30298e-18
9249.15688 5.37915e-18
9250.01834 5.45109e-18
9250.87981 5.52302e-18
9251.74127 5.58707e-18
9252.60273 5.65110e-18
9253.46419 5.69192e-18
9254.32565 5.73266e-18
9255.19713 5.74773e-18
9256.05860 5.76272e-18
9256.92006 5.78187e-18
9257.78152 5.80104e-18
9258.64298 5.84675e-18
9259.50444 5.89252e-18
9260.36591 5.95798e-18
9261.22737 6.02350e-18
9262.08883 6.09666e-18
9262.95029 6.16983e-18
9263.81175 6.22426e-18
9264.68323 6.27864e-18
9265.54469 6.28908e-18
9266.40616 6.29940e-18
9267.26762 6.26655e-18
9268.12908 6.23359e-18
9268.99054 6.16787e-18
9269.85200 6.10206e-18
9270.71347 6.02793e-18
9271.57493 5.95378e-18
9272.43639 5.90041e-18
9273.29785 5.84710e-18
9274.16933 5.83751e-18
9275.03079 5.82803e-18
9275.89226 5.87907e-18
9276.75372 5.93028e-18
9277.61518 6.03335e-18
9278.47664 6.13657e-18
9279.33810 6.26330e-18
9280.19957 6.39009e-18
9281.06103 6.50984e-18
9281.92249 6.62957e-18
9282.79397 6.71278e-18
9283.65543 6.79591e-18
9284.51689 6.81908e-18
9285.37835 6.84205e-18
9286.23982 6.79121e-18
9287.10128 6.74018e-18
9287.96274 6.62150e-18
9288.82420 6.50256e-18
9289.68566 6.35363e-18
9290.54713 6.20462e-18
9291.40859 6.06923e-18
9292.27005 5.93387e-18
9293.14153 5.86962e-18
9294.00299 5.80556e-18
9294.86445 5.85006e-18
9295.72592 5.89486e-18
9296.58738 6.00937e-18
9297.44884 6.12407e-18
9298.31030 6.25716e-18
9299.17176 6.39029e-18
9300.03323 6.47185e-18
9300.89469 6.55326e-18
9301.75615 6.51607e-18
9302.62763 6.47853e-18
9303.48909 6.38714e-18
9304.35055 6.29561e-18
9305.21201 6.25564e-18
9306.07348 6.21582e-18
9306.93494 6.20266e-18
9307.79640 6.18957e-18
9308.65786 6.12660e-18
9309.51932 6.06349e-18
9310.38079 5.95426e-18
9311.24225 5.84491e-18
9312.11373 5.73463e-18
9312.97519 5.62436e-18
9313.83665 5.55737e-18
9314.69811 5.49051e-18
9315.55958 5.51720e-18
9316.42104 5.54417e-18
9317.28250 5.65474e-18
9318.14396 5.76556e-18
9319.00542 5.86308e-18
9319.86688 5.96057e-18
9320.72835 6.00700e-18
9321.58981 6.05329e-18
9322.46129 6.13796e-18
9323.32275 6.22274e-18
9324.18421 6.36519e-18
9325.04567 6.50779e-18
9325.90714 6.52536e-18
9326.76860 6.54257e-18
9327.63006 6.32264e-18
9328.49152 6.10205e-18
9329.35298 5.82143e-18
9330.21445 5.54064e-18
9331.07591 5.37051e-18
9331.94739 5.20070e-18
9332.80885 5.10803e-18
9333.67031 5.01560e-18
9334.53177 4.95097e-18
9335.39323 4.88642e-18
9336.25470 4.85093e-18
9337.11616 4.81553e-18
9337.97762 4.80071e-18
9338.83908 4.78596e-18
9339.70055 4.94254e-18
9340.56201 5.09960e-18
9341.43349 5.63172e-18
9342.29495 6.16490e-18
9343.15641 6.81107e-18
9344.01787 7.45751e-18
9344.87933 7.73664e-18
9345.74080 8.01465e-18
9346.60226 7.78324e-18
9347.46372 7.55031e-18
9348.32518 6.89024e-18
9349.18664 6.22898e-18
9350.04811 5.44382e-18
9350.90957 4.65832e-18
9351.78105 4.30788e-18
9352.64251 3.95869e-18
9353.50397 4.22665e-18
9354.36543 4.49635e-18
9355.22689 4.97773e-18
9356.08836 5.45969e-18
9356.94982 5.81398e-18
9357.81128 6.16789e-18
9358.67274 6.19199e-18
9359.53420 6.21515e-18
9360.39567 5.82125e-18
9361.26715 5.42617e-18
9362.12861 4.93331e-18
9362.99007 4.44019e-18
9363.85153 4.14950e-18
9364.71299 3.85940e-18
9365.57446 3.78821e-18
9366.43592 3.71767e-18
9367.29738 3.83698e-18
9368.15884 3.95683e-18
9369.02030 4.11704e-18
9369.89178 4.27736e-18
9370.75324 4.30714e-18
9371.61471 4.33654e-18
9372.47617 4.24639e-18
9373.33763 4.15591e-18
9374.19909 4.00985e-18
9375.06056 3.86364e-18
9375.92202 3.75957e-18
9376.78348 3.65561e-18
9377.64494 3.71309e-18
9378.50640 3.77103e-18
9379.37788 3.94472e-18
9380.23934 4.11874e-18
9381.10081 4.25468e-18
9381.96227 4.39050e-18
9382.82373 4.43963e-18
9383.68519 4.48852e-18
9384.54665 4.49512e-18
9385.40812 4.50159e-18
9386.26958 4.47791e-18
9387.13104 4.45413e-18
9387.99250 4.37943e-18
9388.85396 4.30457e-18
9389.72544 4.17767e-18
9390.58691 4.05062e-18
9391.44837 3.89068e-18
9392.30983 3.73065e-18
9393.17129 3.56390e-18
9394.03275 3.39713e-18
9394.89422 3.27014e-18
9395.75568 3.14327e-18
9396.61714 3.08756e-18
9397.47860 3.03206e-18
9398.34006 3.02427e-18
9399.21154 3.01662e-18
9400.07300 3.02738e-18
9400.93447 3.03819e-18
9401.79593 3.03929e-18
9402.65739 3.04035e-18
9403.51885 3.00706e-18
9404.38031 2.97368e-18
9405.24178 2.93378e-18
9406.10324 2.89387e-18
9406.96470 2.88634e-18
9407.82616 2.87889e-18
9408.69764 2.90414e-18
9409.55910 2.92949e-18
9410.42057 2.97398e-18
9411.28203 3.01852e-18
9412.14349 3.06120e-18
9413.00495 3.10386e-18
9413.86641 3.11976e-18
9414.72788 3.13556e-18
9415.58934 3.10803e-18
9416.45080 3.08037e-18
9417.31226 3.00428e-18
9418.17372 2.92804e-18
9419.04520 2.80870e-18
9419.90666 2.68923e-18
9420.76813 2.53462e-18
9421.62959 2.37991e-18
9422.49105 2.24536e-18
9423.35251 2.11087e-18
9424.21397 2.12845e-18
9425.07544 2.14646e-18
9425.93690 2.35856e-18
9426.79836 2.57122e-18
9427.65982 2.83939e-18
9428.53130 3.10771e-18
9429.39276 3.29846e-18
9430.25423 3.48899e-18
9431.11569 3.47875e-18
9431.97715 3.46793e-18
9432.83861 3.19410e-18
9433.70007 2.91952e-18
9434.56153 2.59923e-18
9435.42300 2.27882e-18
9436.28446 2.13918e-18
9437.14592 2.00006e-18
9438.01740 2.07685e-18
9438.87886 2.15426e-18
9439.74032 2.43277e-18
9440.60179 2.71185e-18
9441.46325 3.05063e-18
9442.32471 3.38957e-18
9443.18617 3.60657e-18
9444.04763 3.82321e-18
9444.90910 3.86635e-18
9445.77056 3.90899e-18
9446.63202 3.78964e-18
9447.49348 3.66983e-18
9448.36496 3.45242e-18
9449.22642 3.23474e-18
9450.08788 3.02292e-18
9450.94935 2.81113e-18
9451.81081 2.67244e-18
9452.67227 2.53397e-18
9453.53373 2.49474e-18
9454.39520 2.45580e-18
9455.25666 2.52259e-18
9456.11812 2.58970e-18
9456.98960 2.74632e-18
9457.85106 2.90319e-18
9458.71252 3.10274e-18
9459.57398 3.30240e-18
9460.43545 3.45026e-18
9461.29691 3.59795e-18
9462.15837 3.63709e-18
9463.01983 3.67592e-18
9463.88129 3.65089e-18
9464.74276 3.62569e-18
9465.60422 3.58306e-18
9466.47570 3.54040e-18
9467.33716 3.50879e-18
9468.19862 3.47722e-18
9469.06008 3.47961e-18
9469.92155 3.48209e-18
9470.78301 3.48324e-18
9471.64447 3.48438e-18
9472.50593 3.44673e-18
9473.36739 3.40898e-18
9474.22885 3.35606e-18
9475.09032 3.30309e-18
9475.96180 3.26685e-18
9476.82326 3.23066e-18
9477.68472 3.27738e-18
9478.54618 3.32434e-18
9479.40764 3.52876e-18
9480.26911 3.73363e-18
9481.13057 4.01458e-18
9481.99203 4.29575e-18
9482.85349 4.49626e-18
9483.71495 4.69653e-18
9484.57642 4.73385e-18
9485.43788 4.77070e-18
9486.30936 4.61587e-18
9487.17082 4.46047e-18
9488.03228 4.17653e-18
9488.89374 3.89222e-18
9489.75520 3.64521e-18
9490.61667 3.39832e-18
9491.47813 3.29443e-18
9492.33959 3.19097e-18
9493.20105 3.22825e-18
9494.06252 3.26594e-18
9494.92398 3.44387e-18
9495.79546 3.62220e-18
9496.65692 3.96343e-18
9497.51838 4.30512e-18
9498.37984 4.77369e-18
9499.24130 5.24262e-18
9500.10277 5.65516e-18
9500.96423 6.06753e-18
9501.82569 6.26547e-18
9502.68715 6.46277e-18
9503.54861 6.42103e-18
9504.41008 6.37858e-18
9505.28155 6.11334e-18
9506.14302 5.84745e-18
9507.00448 5.49649e-18
9507.86594 5.14529e-18
9508.72740 4.87249e-18
9509.58887 4.59992e-18
9510.45033 4.42133e-18
9511.31179 4.24302e-18
9512.17325 4.12627e-18
9513.03471 4.00969e-18
9513.89617 3.98665e-18
9514.75764 3.96388e-18
9515.62912 4.08018e-18
9516.49058 4.19689e-18
9517.35204 4.43924e-18
9518.21350 4.68195e-18
9519.07496 5.00558e-18
9519.93643 5.32945e-18
9520.79789 5.65560e-18
9521.65935 5.98175e-18
9522.52081 6.20189e-18
9523.38227 6.42172e-18
9524.24374 6.49931e-18
9525.11522 6.57649e-18
9525.97668 6.56854e-18
9526.83814 6.56036e-18
9527.69960 6.51945e-18
9528.56106 6.47846e-18
9529.42252 6.44614e-18
9530.28399 6.41385e-18
9531.14545 6.41340e-18
9532.00691 6.41305e-18
9532.86837 6.40758e-18
9533.72984 6.40210e-18
9534.60131 6.36047e-18
9535.46278 6.31872e-18
9536.32424 6.23148e-18
9537.18570 6.14410e-18
9538.04716 6.01627e-18
9538.90862 5.88831e-18
9539.77009 5.83654e-18
9540.63155 5.78500e-18
9541.49301 5.91941e-18
9542.35447 6.05437e-18
9543.21593 6.29609e-18
9544.08741 6.53811e-18
9544.94888 6.76970e-18
9545.81034 7.00124e-18
9546.67180 7.10814e-18
9547.53326 7.21465e-18
9548.39472 7.07935e-18
9549.25619 6.94339e-18
9550.11765 6.70219e-18
9550.97911 6.46068e-18
9551.84057 6.38792e-18
9552.70203 6.31565e-18
9553.57351 6.42996e-18
9554.43497 6.54482e-18
9555.29644 6.68405e-18
9556.15790 6.82332e-18
9557.01936 6.87819e-18
9557.88082 6.93280e-18
9558.74228 6.83053e-18
9559.60375 6.72787e-18
9560.46521 6.51361e-18
9561.32667 6.29907e-18
9562.18813 6.22052e-18
9563.05961 6.14238e-18
9563.92107 6.32730e-18
9564.78254 6.51301e-18
9565.64400 6.82987e-18
9566.50546 7.14713e-18
9567.36692 7.45440e-18
9568.22838 7.76160e-18
9569.08985 7.89034e-18
9569.95131 8.01862e-18
9570.81277 7.85261e-18
9571.67423 7.68574e-18
9572.53569 7.37126e-18
9573.40717 7.05638e-18
9574.26863 6.76725e-18
9575.13010 6.47826e-18
9575.99156 6.33070e-18
9576.85302 6.18357e-18
9577.71448 6.26936e-18
9578.57594 6.35583e-18
9579.43741 6.53072e-18
9580.29887 6.70583e-18
9581.16033 6.75911e-18
9582.02179 6.81207e-18
9582.89327 6.71589e-18
9583.75473 6.61931e-18
9584.61620 6.41502e-18
9585.47766 6.21038e-18
9586.33912 6.04528e-18
9587.20058 5.88029e-18
9588.06204 5.97872e-18
9588.92351 6.07793e-18
9589.78497 6.41181e-18
9590.64643 6.74640e-18
9591.51791 7.05837e-18
9592.37937 7.37033e-18
9593.24083 7.52165e-18
9594.10229 7.67257e-18
9594.96376 7.67654e-18
9595.82522 7.68011e-18
9596.68668 7.56467e-18
9597.54814 7.44890e-18
9598.40960 7.27912e-18
9599.27107 7.10927e-18
9600.13253 6.95703e-18
9600.99399 6.80478e-18
9601.86547 6.72688e-18
9602.72693 6.64917e-18
9603.58839 6.68266e-18
9604.44986 6.71655e-18
9605.31132 6.85529e-18
9606.17278 6.99436e-18
9607.03424 7.20710e-18
9607.89570 7.41998e-18
9608.75717 7.57143e-18
9609.61863 7.72267e-18
9610.48009 7.68243e-18
9611.35157 7.64159e-18
9612.21303 7.46492e-18
9613.07449 7.28792e-18
9613.93595 7.07915e-18
9614.79742 6.87025e-18
9615.65888 6.70185e-18
9616.52034 6.53355e-18
9617.38180 6.46596e-18
9618.24326 6.39869e-18
9619.10473 6.44747e-18
9619.96619 6.49659e-18
9620.82765 6.64493e-18
9621.69913 6.79360e-18
9622.56059 6.98800e-18
9623.42205 7.18254e-18
9624.28352 7.34856e-18
9625.14498 7.51450e-18
9626.00644 7.58116e-18
9626.86790 7.64748e-18
9627.72936 7.54826e-18
9628.59083 7.44857e-18
9629.45229 7.20300e-18
9630.31375 6.95703e-18
9631.17521 6.71046e-18
9632.04669 6.46385e-18
9632.90815 6.32907e-18
9633.76961 6.19462e-18
9634.63108 6.21554e-18
9635.49254 6.23693e-18
9636.35400 6.40891e-18
9637.21546 6.58133e-18
9638.07692 6.74124e-18
9638.93839 6.90109e-18
9639.79985 6.91407e-18
9640.67133 6.92658e-18
9641.53279 6.87680e-18
9642.39425 6.82683e-18
9643.25571 6.81266e-18
9644.11718 6.79863e-18
9644.97864 6.84384e-18
9645.84010 6.88931e-18
9646.70156 7.00356e-18
9647.56302 7.11801e-18
9648.42448 7.22497e-18
9649.28595 7.33187e-18
9650.15743 7.33214e-18
9651.01889 7.33201e-18
9651.88035 7.22517e-18
9652.74181 7.11801e-18
9653.60327 6.94869e-18
9654.46474 6.77910e-18
9655.32620 6.60850e-18
9656.18766 6.43787e-18
9657.04912 6.33666e-18
9657.91058 6.23567e-18
9658.77205 6.24336e-18
9659.64352 6.25138e-18
9660.50499 6.37763e-18
9661.36645 6.50424e-18
9662.22791 6.70907e-18
9663.08937 6.91413e-18
9663.95083 7.09318e-18
9664.81230 7.27217e-18
9665.67376 7.36504e-18
9666.53522 7.45771e-18
9667.39668 7.49636e-18
9668.25815 7.53489e-18
9669.11961 7.53767e-18
9669.99109 7.54031e-18
9670.85255 7.47631e-18
9671.71401 7.41203e-18
9672.57547 7.27276e-18
9673.43693 7.13323e-18
9674.29840 6.97563e-18
9675.15986 6.81789e-18
9676.02132 6.69874e-18
9676.88278 6.57974e-18
9677.74424 6.53872e-18
9678.61572 6.49794e-18
9679.47718 6.56133e-18
9680.33865 6.62501e-18
9681.20011 6.74058e-18
9682.06157 6.85622e-18
9682.92303 6.95120e-18
9683.78449 7.04612e-18
9684.64596 7.09901e-18
9685.50742 7.15170e-18
9686.36888 7.15951e-18
9687.23034 7.16719e-18
9688.10182 7.13747e-18
9688.96328 7.10768e-18
9689.82475 7.05883e-18
9690.68621 7.00991e-18
9691.54767 6.94524e-18
9692.40913 6.88051e-18
9693.27059 6.79029e-18
9694.13206 6.69994e-18
9694.99352 6.59745e-18
9695.85498 6.49492e-18
9696.71644 6.41659e-18
9697.57790 6.33833e-18
9698.44938 6.30224e-18
9699.31084 6.26629e-18
9700.17231 6.26558e-18
9701.03377 6.26498e-18
9701.89523 6.28476e-18
9702.75669 6.30461e-18
9703.61816 6.31176e-18
9704.47962 6.31888e-18
9705.34108 6.29202e-18
9706.20254 6.26507e-18
9707.06400 6.22483e-18
9707.93548 6.18455e-18
9708.79694 6.15231e-18
9709.65841 6.12010e-18
9710.51987 6.10752e-18
9711.38133 6.09500e-18
9712.24279 6.10968e-18
9713.10425 6.12444e-18
9713.96572 6.14608e-18
9714.82718 6.16774e-18
9715.68864 6.17191e-18
9716.55010 6.17604e-18
9717.41156 6.15573e-18
9718.28304 6.13537e-18
9719.14451 6.08779e-18
9720.00597 6.04012e-18
9720.86743 5.99072e-18
9721.72889 5.94130e-18
9722.59035 5.92921e-18
9723.45182 5.91723e-18
9724.31328 5.92526e-18
9725.17474 5.93337e-18
9726.03620 5.91046e-18
9726.89766 5.88745e-18
9727.76914 5.81550e-18
9728.63060 5.74341e-18
9729.49207 5.63193e-18
9730.35353 5.52033e-18
9731.21499 5.39310e-18
9732.07645 5.26582e-18
9732.93791 5.16657e-18
9733.79938 5.06741e-18
9734.66084 5.02341e-18
9735.52230 4.97957e-18
9736.38376 4.98550e-18
9737.25524 4.99159e-18
9738.11670 5.03520e-18
9738.97817 5.07893e-18
9739.83963 5.13608e-18
9740.70109 5.19328e-18
9741.56255 5.24010e-18
9742.42401 5.28690e-18
9743.28548 5.31075e-18
9744.14694 5.33453e-18
9745.00840 5.32790e-18
9745.86986 5.32119e-18
9746.74134 5.29427e-18
9747.60280 5.26729e-18
9748.46426 5.23402e-18
9749.32573 5.20073e-18
9750.18719 5.16444e-18
9751.04865 5.12813e-18
9751.91011 5.09056e-18
9752.77157 5.05298e-18
9753.63304 5.01289e-18
9754.49450 4.97280e-18
9755.35596 4.92761e-18
9756.22744 4.88239e-18
9757.08890 4.84149e-18
9757.95036 4.80060e-18
9758.81183 4.77788e-18
9759.67329 4.75523e-18
9760.53475 4.76146e-18
9761.39621 4.76777e-18
9762.25767 4.81216e-18
9763.11913 4.85667e-18
9763.98060 4.92524e-18
9764.84206 4.99388e-18
9765.71354 5.04729e-18
9766.57500 5.10065e-18
9767.43646 5.11958e-18
9768.29792 5.13840e-18
9769.15939 5.13552e-18
9770.02085 5.13256e-18
9770.88231 5.11863e-18
9771.74377 5.10467e-18
9772.60523 5.08509e-18
9773.46670 5.06550e-18
9774.32816 5.04710e-18
9775.19964 5.02870e-18
9776.06110 5.01689e-18
9776.92256 5.00510e-18
9777.78402 5.00348e-18
9778.64548 5.00189e-18
9779.50695 5.01506e-18
9780.36841 5.02828e-18
9781.22987 5.05751e-18
9782.09133 5.08680e-18
9782.95280 5.10680e-18
9783.81426 5.12677e-18
9784.68574 5.11001e-18
9785.54720 5.09313e-18
9786.40866 5.05294e-18
9787.27012 5.01269e-18
9788.13158 4.97415e-18
9788.99305 4.93561e-18
9789.85451 4.90754e-18
9790.71597 4.87949e-18
9791.57743 4.86556e-18
9792.43889 4.85167e-18
9793.30036 4.84248e-18
9794.16182 4.83331e-18
9795.03330 4.80910e-18
9795.89476 4.78485e-18
9796.75622 4.75139e-18
9797.61768 4.71791e-18
9798.47915 4.70407e-18
9799.34061 4.69029e-18
9800.20207 4.70571e-18
9801.06353 4.72122e-18
9801.92499 4.75223e-18
9802.78645 4.78328e-18
9803.64792 4.81605e-18
9804.51940 4.84882e-18
9805.38086 4.86716e-18
9806.24232 4.88545e-18
9807.10378 4.88149e-18
9807.96524 4.87745e-18
9808.82671 4.86674e-18
9809.68817 4.85601e-18
9810.54963 4.85334e-18
9811.41109 4.85070e-18
9812.27255 4.86544e-18
9813.13402 4.88024e-18
9813.99548 4.91672e-18
9814.86696 4.95328e-18
9815.72842 4.98555e-18
9816.58988 5.01781e-18
9817.45134 5.01828e-18
9818.31280 5.01865e-18
9819.17427 4.99099e-18
9820.03573 4.96325e-18
9820.89719 4.91907e-18
9821.75865 4.87483e-18
9822.62012 4.83115e-18
9823.48158 4.78748e-18
9824.35306 4.76414e-18
9825.21452 4.74088e-18
9826.07598 4.73500e-18
9826.93744 4.72918e-18
9827.79890 4.72470e-18
9828.66037 4.72022e-18
9829.52183 4.71317e-18
9830.38329 4.70611e-18
9831.24475 4.70123e-18
9832.10621 4.69637e-18
9832.97769 4.69258e-18
9833.83915 4.68880e-18
9834.70062 4.67985e-18
9835.56208 4.67090e-18
9836.42354 4.65393e-18
9837.28500 4.63693e-18
9838.14647 4.61361e-18
9839.00793 4.59027e-18
9839.86939 4.56250e-18
9840.73085 4.53472e-18
9841.59231 4.50349e-18
9842.45377 4.47225e-18
9843.32525 4.44112e-18
9844.18672 4.40998e-18
9845.04818 4.38998e-18
9845.90964 4.37001e-18
9846.77110 4.36983e-18
9847.63256 4.36971e-18
9848.49403 4.38666e-18
9849.35549 4.40366e-18
9850.21695 4.43280e-18
9851.07841 4.46199e-18
9851.93987 4.49861e-18
9852.81135 4.53525e-18
9853.67282 4.57377e-18
9854.53428 4.61230e-18
9855.39574 4.64921e-18
9856.25720 4.68610e-18
9857.11866 4.71879e-18
9857.98013 4.75147e-18
9858.84159 4.77296e-18
9859.70305 4.79441e-18
9860.56451 4.79667e-18
9861.42597 4.79888e-18
9862.29745 4.78084e-18
9863.15891 4.76275e-18
9864.02038 4.72784e-18
9864.88184 4.69289e-18
9865.74330 4.64749e-18
9866.60476 4.60204e-18
9867.46622 4.55525e-18
9868.32769 4.50846e-18
9869.18915 4.46550e-18
9870.05061 4.42256e-18
9870.92209 4.38283e-18
9871.78355 4.34311e-18
9872.64501 4.30730e-18
9873.50648 4.27149e-18
9874.36794 4.24266e-18
9875.22940 4.21385e-18
9876.09086 4.19442e-18
9876.95232 4.17502e-18
9877.81379 4.16724e-18
9878.67525 4.15949e-18
9879.53671 4.16437e-18
9880.39817 4.16929e-18
9881.26965 4.18528e-18
9882.13111 4.20131e-18
9882.99257 4.22554e-18
9883.85404 4.24979e-18
9884.71550 4.27703e-18
9885.57696 4.30426e-18
9886.43842 4.32882e-18
9887.29988 4.35337e-18
9888.16135 4.36994e-18
9889.02281 4.38649e-18
9889.88427 4.39063e-18
9890.74573 4.39472e-18
9891.61721 4.38630e-18
9892.47867 4.37786e-18
9893.34014 4.35914e-18
9894.20160 4.34040e-18
9895.06306 4.31380e-18
9895.92452 4.28716e-18
9896.78598 4.25520e-18
9897.64745 4.22322e-18
9898.50891 4.19005e-18
9899.37037 4.15687e-18
9900.23183 4.12799e-18
9901.09329 4.09913e-18
9901.96477 4.07544e-18
9902.82623 4.05177e-18
9903.68770 4.02862e-18
9904.54916 4.00547e-18
9905.41062 3.98392e-18
9906.27208 3.96237e-18
9907.13354 3.95259e-18
9907.99501 3.94283e-18
9908.85647 3.94964e-18
9909.71793 3.95650e-18
9910.57939 3.97527e-18
9911.45087 3.99407e-18
9912.31233 4.01726e-18
9913.17380 4.04046e-18
9914.03526 4.05212e-18
9914.89672 4.06374e-18
9915.75818 4.05120e-18
9916.61964 4.03859e-18
9917.48111 4.00628e-18
9918.34257 3.97391e-18
9919.20403 3.92958e-18
9920.07551 3.88521e-18
9920.93697 3.83764e-18
9921.79843 3.79007e-18
9922.65989 3.74821e-18
9923.52136 3.70639e-18
9924.38282 3.67418e-18
9925.24428 3.64200e-18
9926.10574 3.62097e-18
9926.96720 3.59997e-18
9927.82867 3.58429e-18
9928.69013 3.56862e-18
9929.56161 3.54903e-18
9930.42307 3.52944e-18
9931.28453 3.50293e-18
9932.14599 3.47640e-18
9933.00746 3.44429e-18
9933.86892 3.41216e-18
9934.73038 3.37717e-18
9935.59184 3.34217e-18
9936.45330 3.30824e-18
9937.31477 3.27431e-18
9938.17623 3.24664e-18
9939.03769 3.21899e-18
9939.90917 3.20412e-18
9940.77063 3.18929e-18
9941.63209 3.18900e-18
9942.49355 3.18876e-18
9943.35502 3.19630e-18
9944.21648 3.20386e-18
9945.07794 3.21339e-18
9945.93940 3.22291e-18
9946.80086 3.23294e-18
9947.66233 3.24297e-18
9948.52379 3.25181e-18
9949.39527 3.26065e-18
9950.25673 3.26506e-18
9951.11819 3.26945e-18
9951.97965 3.26734e-18
9952.84112 3.26521e-18
9953.70258 3.26078e-18
9954.56404 3.25634e-18
9955.42550 3.25419e-18
9956.28696 3.25204e-18
9957.14843 3.24910e-18
9958.00989 3.24614e-18
9958.88137 3.23815e-18
9959.74283 3.23013e-18
9960.60429 3.21491e-18
9961.46575 3.19966e-18
9962.32721 3.17582e-18
9963.18868 3.15194e-18
9964.05014 3.12660e-18
9964.91160 3.10126e-18
9965.77306 3.08636e-18
9966.63452 3.07150e-18
9967.49599 3.06983e-18
9968.36747 3.06820e-18
9969.22893 3.07517e-18
9970.09039 3.08216e-18
9970.95185 3.09705e-18
9971.81331 3.11196e-18
9972.67477 3.13818e-18
9973.53624 3.16444e-18
9974.39770 3.20058e-18
9975.25916 3.23675e-18
9976.12062 3.27507e-18
9976.98208 3.31339e-18
9977.85356 3.34773e-18
9978.71503 3.38206e-18
9979.57649 3.40947e-18
9980.43795 3.43687e-18
9981.29941 3.45633e-18
9982.16087 3.47577e-18
9983.02234 3.49141e-18
9983.88380 3.50705e-18
9984.74526 3.52305e-18
9985.60672 3.53905e-18
9986.46818 3.55749e-18
9987.32965 3.57592e-18
9988.20112 3.59787e-18
9989.06259 3.61981e-18
9989.92405 3.63753e-18
9990.78551 3.65524e-18
9991.64697 3.65997e-18
9992.50843 3.66467e-18
9993.36990 3.66299e-18
9994.23136 3.66130e-18
9995.09282 3.66445e-18
9995.95428 3.66763e-18
9996.81574 3.67371e-18
9997.67721 3.67980e-18
9998.54869 3.68163e-18
9999.41015 3.68345e-18
