# wavelength flux
4034.21579 5.86265e-18
4037.81369 5.60297e-18
4041.42161 5.10057e-18
4045.02953 6.64773e-18
4048.62743 6.10624e-18
4052.23535 4.80245e-18
4055.84327 4.92533e-18
4059.45119 5.05315e-18
4063.04909 5.94529e-18
4066.65701 7.45349e-18
4070.26493 6.17255e-18
4073.86282 6.30639e-18
4077.47074 5.60696e-18
4081.07866 4.79029e-18
4084.68658 5.83277e-18
4088.28448 5.14399e-18
4091.89240 5.80874e-18
4095.50032 5.62254e-18
4099.10824 5.42495e-18
4102.70614 5.85265e-18
4106.31406 5.29590e-18
4109.92198 6.18096e-18
4113.51988 5.28919e-18
4117.12780 4.99361e-18
4120.73572 4.47814e-18
4124.34364 4.64121e-18
4127.94154 5.62431e-18
4131.54946 5.34525e-18
4135.15738 4.94675e-18
4138.75527 5.32504e-18
4142.36319 5.39855e-18
4145.97111 5.35234e-18
4149.57903 5.46210e-18
4153.17693 5.76856e-18
4156.78485 5.59237e-18
4160.39277 5.12554e-18
4164.00069 5.23010e-18
4167.59859 5.96442e-18
4171.20651 5.30310e-18
4174.81443 5.88993e-18
4178.41233 6.07059e-18
4182.02025 5.45035e-18
4185.62817 5.51799e-18
4189.23609 6.09041e-18
4192.83399 6.06221e-18
4196.44191 5.85826e-18
4200.04983 6.21683e-18
4203.64772 5.38105e-18
4207.25564 4.85356e-18
4210.86356 6.46302e-18
4214.47148 6.56580e-18
4218.06938 6.27994e-18
4221.67730 6.51139e-18
4225.28522 6.40953e-18
4228.88312 6.55815e-18
4232.49104 6.84938e-18
4236.09896 6.03929e-18
4239.70688 5.87301e-18
4243.30478 6.06664e-18
4246.91270 5.90467e-18
4250.52062 5.94653e-18
4254.12854 6.71568e-18
4257.72644 7.18344e-18
4261.33436 6.51810e-18
4264.94228 6.35667e-18
4268.54017 6.52843e-18
4272.14809 6.92582e-18
4275.75601 6.09246e-18
4279.36393 6.34076e-18
4282.96183 7.09403e-18
4286.56975 7.33898e-18
4290.17767 7.60220e-18
4293.77557 7.09040e-18
4297.38349 7.05169e-18
4300.99141 7.51887e-18
4304.59933 7.49093e-18
4308.19723 7.04919e-18
4311.80515 6.74190e-18
4315.41307 6.93944e-18
4319.02099 7.42136e-18
4322.61889 6.92098e-18
4326.22681 6.24564e-18
4329.83473 6.91554e-18
4333.43262 7.65055e-18
4337.04054 6.96689e-18
4340.64846 6.45515e-18
4344.25638 6.98230e-18
4347.85428 7.03965e-18
4351.46220 6.92863e-18
4355.07012 7.19667e-18
4358.66802 6.96534e-18
4362.27594 6.35158e-18
4365.88386 5.88851e-18
4369.49178 7.09154e-18
4373.08968 7.42934e-18
4376.69760 6.75659e-18
4380.30552 7.01603e-18
4383.91344 7.24842e-18
4387.51134 7.50221e-18
4391.11926 7.34075e-18
4394.72718 7.25155e-18
4398.32507 7.53340e-18
4401.93299 8.15470e-18
4405.54091 7.82253e-18
4409.14883 7.95518e-18
4412.74673 8.46910e-18
4416.35465 8.16555e-18
4419.96257 7.96409e-18
4423.56047 8.44914e-18
4427.16839 9.04703e-18
4430.77631 8.70281e-18
4434.38423 8.59208e-18
4437.98213 8.90520e-18
4441.59005 8.95667e-18
4445.19797 9.03585e-18
4448.80589 9.41677e-18
4452.40379 9.49207e-18
4456.01171 9.37722e-18
4459.61963 1.00062e-17
4463.21752 1.00939e-17
4466.82544 1.00065e-17
4470.43336 1.02484e-17
4474.04128 1.04181e-17
4477.63918 1.03837e-17
4481.24710 1.10369e-17
4484.85502 1.08509e-17
4488.45292 1.06053e-17
4492.06084 1.07229e-17
4495.66876 1.15592e-17
4499.27668 1.19140e-17
4502.87458 1.15824e-17
4506.48250 1.15446e-17
4510.09042 1.16394e-17
4513.69834 1.17820e-17
4517.29624 1.14717e-17
4520.90416 1.22719e-17
4524.51208 1.27983e-17
4528.10997 1.24079e-17
4531.71789 1.26683e-17
4535.32581 1.26180e-17
4538.93373 1.31573e-17
4542.53163 1.34252e-17
4546.13955 1.40798e-17
4549.74747 1.31408e-17
4553.34537 1.28630e-17
4556.95329 1.26514e-17
4560.56121 1.33412e-17
4564.16913 1.35424e-17
4567.76703 1.38977e-17
4571.37495 1.37395e-17
4574.98287 1.39857e-17
4578.59079 1.43016e-17
4582.18869 1.39377e-17
4585.79661 1.37996e-17
4589.40453 1.41472e-17
4593.00242 1.41490e-17
4596.61034 1.41363e-17
4600.21826 1.40561e-17
4603.82618 1.43244e-17
4607.42408 1.40849e-17
4611.03200 1.36360e-17
4614.63992 1.39217e-17
4618.23782 1.36544e-17
4621.84574 1.34563e-17
4625.45366 1.35604e-17
4629.06158 1.34157e-17
4632.65948 1.33251e-17
4636.26740 1.34973e-17
4639.87532 1.34353e-17
4643.47322 1.28613e-17
4647.08114 1.32105e-17
4650.68906 1.29426e-17
4654.29698 1.21989e-17
4657.89487 1.18530e-17
4661.50279 1.19839e-17
4665.11071 1.21679e-17
4668.71863 1.20998e-17
4672.31653 1.16901e-17
4675.92445 1.17260e-17
4679.53237 1.14582e-17
4683.13027 1.17716e-17
4686.73819 1.18081e-17
4690.34611 1.16435e-17
4693.95403 1.15124e-17
4697.55193 1.13008e-17
4701.15985 1.08153e-17
4704.76777 1.06782e-17
4708.36567 1.12982e-17
4711.97359 1.16951e-17
4715.58151 1.13472e-17
4719.18943 1.03089e-17
4722.78732 1.06981e-17
4726.39524 1.07802e-17
4730.00316 1.04564e-17
4733.61108 1.03885e-17
4737.20898 1.07095e-17
4740.81690 1.10913e-17
4744.42482 1.09540e-17
4748.02272 1.05868e-17
4751.63064 1.08298e-17
4755.23856 1.05349e-17
4758.84648 1.10580e-17
4762.44438 1.08313e-17
4766.05230 1.05615e-17
4769.66022 1.02767e-17
4773.25812 1.01440e-17
4776.86604 1.03221e-17
4780.47396 1.07559e-17
4784.08188 1.05649e-17
4787.67977 1.04340e-17
4791.28769 1.03990e-17
4794.89561 1.06678e-17
4798.49351 1.05614e-17
4802.10143 1.06136e-17
4805.70935 1.11547e-17
4809.31727 1.12598e-17
4812.91517 1.11335e-17
4816.52309 1.09682e-17
4820.13101 1.10906e-17
4823.73893 1.11453e-17
4827.33683 1.11223e-17
4830.94475 1.11877e-17
4834.55267 1.12674e-17
4838.15057 1.11666e-17
4841.75849 1.10214e-17
4845.36641 1.10184e-17
4848.97433 1.11975e-17
4852.57222 1.12368e-17
4856.18014 1.13496e-17
4859.78806 1.12103e-17
4863.39598 1.13697e-17
4866.99388 1.13318e-17
4870.60180 1.13842e-17
4874.20972 1.10421e-17
4877.80762 1.06641e-17
4881.41554 1.09028e-17
4885.02346 1.11962e-17
4888.63138 1.13902e-17
4892.22928 1.14579e-17
4895.83720 1.16411e-17
4899.44512 1.17748e-17
4903.04302 1.15161e-17
4906.65094 1.16062e-17
4910.25886 1.17829e-17
4913.86678 1.13799e-17
4917.46467 1.11407e-17
4921.07259 1.12564e-17
4924.68051 1.11166e-17
4928.27841 1.11957e-17
4931.88633 1.11228e-17
4935.49425 1.11133e-17
4939.10217 1.12519e-17
4942.70007 1.13606e-17
4946.30799 1.13594e-17
4949.91591 1.15290e-17
4953.52383 1.16131e-17
4957.12173 1.18240e-17
4960.72965 1.18095e-17
4964.33757 1.11897e-17
4967.93547 1.10126e-17
4971.54339 1.13360e-17
4975.15131 1.13208e-17
4978.75923 1.03366e-17
4982.35712 1.05348e-17
4985.96504 1.14696e-17
4989.57296 1.11147e-17
4993.17086 1.08947e-17
4996.77878 1.07063e-17
5000.38670 1.06859e-17
5003.99462 1.07289e-17
5007.59252 1.06180e-17
5011.20044 1.11028e-17
5014.80836 1.11203e-17
5018.41628 1.08109e-17
5022.01418 1.08505e-17
5025.62210 1.09372e-17
5029.23002 1.09299e-17
5032.82792 1.08368e-17
5036.43584 1.08220e-17
5040.04376 1.07771e-17
5043.65168 1.09799e-17
5047.24957 1.12707e-17
5050.85749 1.11439e-17
5054.46541 1.10981e-17
5058.06331 1.12810e-17
5061.67123 1.13782e-17
5065.27915 1.13755e-17
5068.88707 1.13903e-17
5072.48497 1.13856e-17
5076.09289 1.14979e-17
5079.70081 1.17116e-17
5083.30873 1.17567e-17
5086.90663 1.17956e-17
5090.51455 1.19683e-17
5094.12247 1.19708e-17
5097.72037 1.20827e-17
5101.32829 1.21535e-17
5104.93621 1.25167e-17
5108.54413 1.26934e-17
5112.14202 1.25220e-17
5115.74994 1.25883e-17
5119.35786 1.27235e-17
5122.95576 1.27982e-17
5126.56368 1.26404e-17
5130.17160 1.30674e-17
5133.77952 1.32531e-17
5137.37742 1.31799e-17
5140.98534 1.31708e-17
5144.59326 1.30074e-17
5148.20118 1.31269e-17
5151.79908 1.32070e-17
5155.40700 1.35015e-17
5159.01492 1.33331e-17
5162.61282 1.33191e-17
5166.22074 1.36906e-17
5169.82866 1.38218e-17
5173.43658 1.38596e-17
5177.03447 1.38450e-17
5180.64239 1.39626e-17
5184.25031 1.41218e-17
5187.84821 1.39396e-17
5191.45613 1.36846e-17
5195.06405 1.40701e-17
5198.67197 1.44013e-17
5202.26987 1.44159e-17
5205.87779 1.44127e-17
5209.48571 1.44666e-17
5213.09363 1.46315e-17
5216.69153 1.47668e-17
5220.29945 1.47540e-17
5223.90737 1.47897e-17
5227.50527 1.49555e-17
5231.11319 1.52041e-17
5234.72111 1.52806e-17
5238.32903 1.54006e-17
5241.92692 1.56286e-17
5245.53484 1.55228e-17
5249.14276 1.57728e-17
5252.74066 1.61405e-17
5256.34858 1.59389e-17
5259.95650 1.58742e-17
5263.56442 1.62396e-17
5267.16232 1.63093e-17
5270.77024 1.62110e-17
5274.37816 1.65040e-17
5277.98608 1.66385e-17
5281.58398 1.65291e-17
5285.19190 1.65936e-17
5288.79982 1.67777e-17
5292.39772 1.68718e-17
5296.00564 1.69733e-17
5299.61356 1.71134e-17
5303.22148 1.69917e-17
5306.81937 1.69549e-17
5310.42729 1.70592e-17
5314.03521 1.71385e-17
5317.63311 1.71084e-17
5321.24103 1.69648e-17
5324.84895 1.69155e-17
5328.45687 1.70666e-17
5332.05477 1.71586e-17
5335.66269 1.73155e-17
5339.27061 1.73744e-17
5342.87853 1.73213e-17
5346.47643 1.73441e-17
5350.08435 1.74581e-17
5353.69227 1.76471e-17
5357.29017 1.77290e-17
5360.89809 1.79310e-17
5364.50601 1.78283e-17
5368.11393 1.77051e-17
5371.71182 1.79267e-17
5375.31974 1.79133e-17
5378.92766 1.78075e-17
5382.52556 1.80272e-17
5386.13348 1.83195e-17
5389.74140 1.82843e-17
5393.34932 1.81860e-17
5396.94722 1.83265e-17
5400.55514 1.85268e-17
5404.16306 1.84967e-17
5407.76096 1.84241e-17
5411.36888 1.86792e-17
5414.97680 1.87676e-17
5418.58472 1.87163e-17
5422.18262 1.88178e-17
5425.79054 1.91225e-17
5429.39846 1.93349e-17
5433.00638 1.91592e-17
5436.60427 1.90427e-17
5440.21219 1.93279e-17
5443.82011 1.93046e-17
5447.41801 1.94611e-17
5451.02593 1.95556e-17
5454.63385 1.90164e-17
5458.24177 1.93577e-17
5461.83967 1.90252e-17
5465.44759 1.92934e-17
5469.05551 1.98701e-17
5472.65341 1.97878e-17
5476.26133 1.96109e-17
5479.86925 1.95116e-17
5483.47717 1.93407e-17
5487.07507 1.92739e-17
5490.68299 1.91340e-17
5494.29091 1.90837e-17
5497.89883 1.90000e-17
5501.49672 1.89786e-17
5505.10464 1.89077e-17
5508.71256 1.87726e-17
5512.31046 1.89535e-17
5515.91838 1.87349e-17
5519.52630 1.88565e-17
5523.13422 1.88969e-17
5526.73212 1.86896e-17
5530.34004 1.86490e-17
5533.94796 1.85463e-17
5537.54586 1.84404e-17
5541.15378 1.83519e-17
5544.76170 1.84599e-17
5548.36962 1.86140e-17
5551.96752 1.87015e-17
5555.57544 1.84399e-17
5559.18336 1.81567e-17
5562.78125 1.84910e-17
5566.38917 1.86835e-17
5569.99709 1.85613e-17
5573.60501 1.83622e-17
5577.20291 1.84987e-17
5580.81083 1.86219e-17
5584.41875 1.84228e-17
5588.02667 1.83792e-17
5591.62457 1.82119e-17
5595.23249 1.82671e-17
5598.84041 1.81341e-17
5602.43831 1.78149e-17
5606.04623 1.78500e-17
5609.65415 1.77782e-17
5613.26207 1.76246e-17
5616.85997 1.74671e-17
5620.46789 1.73896e-17
5624.07581 1.70711e-17
5627.68373 1.71619e-17
5631.28162 1.69461e-17
5634.88954 1.67120e-17
5638.49746 1.65319e-17
5642.09536 1.63671e-17
5645.70328 1.61945e-17
5649.31120 1.61935e-17
5652.91912 1.57031e-17
5656.51702 1.56336e-17
5660.12494 1.57497e-17
5663.73286 1.55708e-17
5667.33076 1.51232e-17
5670.93868 1.48806e-17
5674.54660 1.52695e-17
5678.15452 1.47716e-17
5681.75242 1.42953e-17
5685.36034 1.41862e-17
5688.96826 1.40958e-17
5692.56615 1.40959e-17
5696.17407 1.40708e-17
5699.78199 1.37874e-17
5703.38991 1.39743e-17
5706.98781 1.43804e-17
5710.59573 1.44600e-17
5714.20365 1.42831e-17
5717.80155 1.38846e-17
5721.40947 1.42810e-17
5725.01739 1.41783e-17
5728.62531 1.39640e-17
5732.22321 1.42752e-17
5735.83113 1.42600e-17
5739.43905 1.39677e-17
5743.04697 1.38068e-17
5746.64487 1.39601e-17
5750.25279 1.41182e-17
5753.86071 1.41716e-17
5757.45860 1.41409e-17
5761.06652 1.44400e-17
5764.67444 1.44520e-17
5768.28236 1.41936e-17
5771.88026 1.43548e-17
5775.48818 1.42827e-17
5779.09610 1.43023e-17
5782.70402 1.42087e-17
5786.30192 1.43175e-17
5789.90984 1.44596e-17
5793.51776 1.45669e-17
5797.11566 1.44570e-17
5800.72358 1.46678e-17
5804.33150 1.49208e-17
5807.93942 1.50588e-17
5811.53732 1.51572e-17
5815.14524 1.51561e-17
5818.75316 1.50396e-17
5822.35105 1.51238e-17
5825.95897 1.48822e-17
5829.56689 1.48193e-17
5833.17481 1.49018e-17
5836.77271 1.49870e-17
5840.38063 1.51341e-17
5843.98855 1.49629e-17
5847.58645 1.49110e-17
5851.19437 1.47118e-17
5854.80229 1.47226e-17
5858.41021 1.43944e-17
5862.00811 1.47963e-17
5865.61603 1.47827e-17
5869.22395 1.46277e-17
5872.83187 1.45670e-17
5876.42977 1.46803e-17
5880.03769 1.47052e-17
5883.64561 1.45346e-17
5887.24350 1.39801e-17
5890.85142 1.41734e-17
5894.45934 1.41691e-17
5898.06726 1.40396e-17
5901.66516 1.43958e-17
5905.27308 1.43222e-17
5908.88100 1.43382e-17
5912.47890 1.42811e-17
5916.08682 1.41720e-17
5919.69474 1.40260e-17
5923.30266 1.39379e-17
5926.90056 1.39058e-17
5930.50848 1.38982e-17
5934.11640 1.37239e-17
5937.72432 1.36604e-17
5941.32222 1.34955e-17
5944.93014 1.37184e-17
5948.53806 1.38473e-17
5952.13595 1.36911e-17
5955.74387 1.37168e-17
5959.35179 1.33415e-17
5962.95971 1.36604e-17
5966.55761 1.38636e-17
5970.16553 1.36603e-17
5973.77345 1.35802e-17
5977.37135 1.34803e-17
5980.97927 1.36611e-17
5984.58719 1.38542e-17
5988.19511 1.34972e-17
5991.79301 1.34764e-17
5995.40093 1.35444e-17
5999.00885 1.36862e-17
6002.61677 1.36254e-17
6006.21467 1.33395e-17
6009.82259 1.32557e-17
6013.43051 1.32941e-17
6017.02840 1.34718e-17
6020.63632 1.36204e-17
6024.24424 1.36463e-17
6027.85216 1.35655e-17
6031.45006 1.32409e-17
6035.05798 1.32193e-17
6038.66590 1.31177e-17
6042.26380 1.36772e-17
6045.87172 1.37983e-17
6049.47964 1.34738e-17
6053.08756 1.33115e-17
6056.68546 1.33688e-17
6060.29338 1.32362e-17
6063.90130 1.32090e-17
6067.50922 1.35256e-17
6071.10712 1.39321e-17
6074.71504 1.38622e-17
6078.32296 1.36782e-17
6081.92085 1.35305e-17
6085.52877 1.34744e-17
6089.13669 1.35163e-17
6092.74461 1.34118e-17
6096.34251 1.36008e-17
6099.95043 1.34696e-17
6103.55835 1.35102e-17
6107.15625 1.37035e-17
6110.76417 1.36205e-17
6114.37209 1.32853e-17
6117.98001 1.32661e-17
6121.57791 1.35814e-17
6125.18583 1.36854e-17
6128.79375 1.32715e-17
6132.40167 1.31323e-17
6135.99957 1.34510e-17
6139.60749 1.34309e-17
6143.21541 1.33868e-17
6146.81330 1.34101e-17
6150.42122 1.32612e-17
6154.02914 1.30835e-17
6157.63706 1.27862e-17
6161.23496 1.29256e-17
6164.84288 1.29131e-17
6168.45080 1.28192e-17
6172.04870 1.29148e-17
6175.65662 1.27596e-17
6179.26454 1.25983e-17
6182.87246 1.24681e-17
6186.47036 1.24473e-17
6190.07828 1.24529e-17
6193.68620 1.23289e-17
6197.29412 1.23146e-17
6200.89202 1.22494e-17
6204.49994 1.23098e-17
6208.10786 1.19581e-17
6211.70575 1.19952e-17
6215.31367 1.19873e-17
6218.92159 1.20238e-17
6222.52951 1.20878e-17
6226.12741 1.18380e-17
6229.73533 1.16110e-17
6233.34325 1.15915e-17
6236.94115 1.15426e-17
6240.54907 1.14754e-17
6244.15699 1.16302e-17
6247.76491 1.18174e-17
6251.36281 1.19818e-17
6254.97073 1.20851e-17
6258.57865 1.19711e-17
6262.18657 1.17615e-17
6265.78447 1.18350e-17
6269.39239 1.19105e-17
6273.00031 1.17277e-17
6276.59820 1.16953e-17
6280.20612 1.16037e-17
6283.81404 1.15963e-17
6287.42196 1.16830e-17
6291.01986 1.16582e-17
6294.62778 1.17739e-17
6298.23570 1.18522e-17
6301.83360 1.17892e-17
6305.44152 1.19060e-17
6309.04944 1.21416e-17
6312.65736 1.22186e-17
6316.25526 1.23082e-17
6319.86318 1.23737e-17
6323.47110 1.23284e-17
6327.06900 1.24756e-17
6330.67692 1.27107e-17
6334.28484 1.28898e-17
6337.89276 1.29856e-17
6341.49065 1.28717e-17
6345.09857 1.29723e-17
6348.70649 1.32117e-17
6352.31441 1.32277e-17
6355.91231 1.33828e-17
6359.52023 1.34403e-17
6363.12815 1.32303e-17
6366.72605 1.32941e-17
6370.33397 1.34531e-17
6373.94189 1.35317e-17
6377.54981 1.35781e-17
6381.14771 1.35762e-17
6384.75563 1.35564e-17
6388.36355 1.37853e-17
6391.96145 1.38940e-17
6395.56937 1.40170e-17
6399.17729 1.38544e-17
6402.78521 1.36251e-17
6406.38310 1.38654e-17
6409.99102 1.39622e-17
6413.59894 1.39390e-17
6417.20686 1.40028e-17
6420.80476 1.40132e-17
6424.41268 1.40616e-17
6428.02060 1.41981e-17
6431.61850 1.41954e-17
6435.22642 1.41676e-17
6438.83434 1.40917e-17
6442.44226 1.40505e-17
6446.04016 1.43062e-17
6449.64808 1.43008e-17
6453.25600 1.41860e-17
6456.85390 1.41297e-17
6460.46182 1.41457e-17
6464.06974 1.42707e-17
6467.67766 1.43484e-17
6471.27555 1.43475e-17
6474.88347 1.42308e-17
6478.49139 1.42469e-17
6482.08929 1.41929e-17
6485.69721 1.41574e-17
6489.30513 1.42681e-17
6492.91305 1.43061e-17
6496.51095 1.43606e-17
6500.11887 1.45810e-17
6503.72679 1.46185e-17
6507.33471 1.45090e-17
6510.93261 1.44250e-17
6514.54053 1.44174e-17
6518.14845 1.43817e-17
6521.74635 1.44302e-17
6525.35427 1.44304e-17
6528.96219 1.44497e-17
6532.57011 1.44885e-17
6536.16800 1.44597e-17
6539.77592 1.44198e-17
6543.38384 1.43114e-17
6546.99176 1.43487e-17
6550.58966 1.44193e-17
6554.19758 1.43196e-17
6557.80550 1.42584e-17
6561.40340 1.40373e-17
6565.01132 1.40317e-17
6568.61924 1.42282e-17
6572.22716 1.42892e-17
6575.82506 1.43163e-17
6579.43298 1.42505e-17
6583.04090 1.43075e-17
6586.63880 1.41776e-17
6590.24672 1.40077e-17
6593.85464 1.41225e-17
6597.46256 1.42276e-17
6601.06045 1.41194e-17
6604.66837 1.39681e-17
6608.27629 1.38028e-17
6611.87419 1.38041e-17
6615.48211 1.37426e-17
6619.09003 1.37226e-17
6622.69795 1.39493e-17
6626.29585 1.37384e-17
6629.90377 1.34724e-17
6633.51169 1.36616e-17
6637.11961 1.36483e-17
6640.71751 1.35212e-17
6644.32543 1.35520e-17
6647.93335 1.35080e-17
6651.53125 1.34332e-17
6655.13917 1.34583e-17
6658.74709 1.35889e-17
6662.35501 1.34976e-17
6665.95290 1.32122e-17
6669.56082 1.31586e-17
6673.16874 1.30754e-17
6676.76664 1.29338e-17
6680.37456 1.29080e-17
6683.98248 1.30689e-17
6687.59040 1.29893e-17
6691.18830 1.29871e-17
6694.79622 1.31073e-17
6698.40414 1.30692e-17
6702.01206 1.28580e-17
6705.60996 1.28009e-17
6709.21788 1.27593e-17
6712.82580 1.27662e-17
6716.42370 1.27208e-17
6720.03162 1.25899e-17
6723.63954 1.27370e-17
6727.24746 1.26517e-17
6730.84535 1.27254e-17
6734.45327 1.26190e-17
6738.06119 1.25172e-17
6741.65909 1.24788e-17
6745.26701 1.25992e-17
6748.87493 1.25476e-17
6752.48285 1.25588e-17
6756.08075 1.24296e-17
6759.68867 1.21858e-17
6763.29659 1.22708e-17
6766.90451 1.25486e-17
6770.50241 1.24887e-17
6774.11033 1.23154e-17
6777.71825 1.20523e-17
6781.31615 1.20579e-17
6784.92407 1.21786e-17
6788.53199 1.20420e-17
6792.13991 1.17582e-17
6795.73780 1.15998e-17
6799.34572 1.16422e-17
6802.95364 1.16922e-17
6806.55154 1.15910e-17
6810.15946 1.15277e-17
6813.76738 1.15292e-17
6817.37530 1.15845e-17
6820.97320 1.15284e-17
6824.58112 1.15003e-17
6828.18904 1.14637e-17
6831.78694 1.13303e-17
6835.39486 1.14186e-17
6839.00278 1.14481e-17
6842.61070 1.15579e-17
6846.20860 1.15478e-17
6849.81652 1.15377e-17
6853.42444 1.15275e-17
6857.03236 1.15174e-17
6860.63025 1.15073e-17
6864.23817 1.14972e-17
6867.84609 1.14871e-17
6871.44399 1.14770e-17
6875.05191 1.14669e-17
6878.65983 1.14568e-17
6882.26775 1.14466e-17
6885.86565 1.14365e-17
6889.47357 1.14264e-17
6893.08149 1.14163e-17
6896.67939 1.14062e-17
6900.28731 1.13961e-17
6903.89523 1.13860e-17
6907.50315 1.13760e-17
6911.10105 1.13659e-17
6914.70897 1.13558e-17
6918.31689 1.13457e-17
6921.92481 1.13356e-17
6925.52270 1.13255e-17
6929.13062 1.13154e-17
6932.73854 1.13053e-17
6936.33644 1.12953e-17
6939.94436 1.15686e-17
6943.55228 1.16056e-17
6947.16020 1.16162e-17
6950.75810 1.17460e-17
6954.36602 1.18241e-17
6957.97394 1.19584e-17
6961.57184 1.19821e-17
6965.17976 1.20445e-17
6968.78768 1.21176e-17
6972.39560 1.20996e-17
6975.99350 1.19401e-17
6979.60142 1.18963e-17
6983.20934 1.17734e-17
6986.81726 1.15965e-17
6990.41515 1.17129e-17
6994.02307 1.18932e-17
6997.63099 1.17271e-17
7001.22889 1.17353e-17
7004.83681 1.16654e-17
7008.44473 1.15842e-17
7012.05265 1.16160e-17
7015.65055 1.17247e-17
7019.25847 1.17834e-17
7022.86639 1.15027e-17
7026.46429 1.17583e-17
7030.07221 1.18702e-17
7033.68013 1.18987e-17
7037.28805 1.18749e-17
7040.88595 1.17844e-17
7044.49387 1.16151e-17
7048.10179 1.15378e-17
7051.70971 1.16142e-17
7055.30760 1.15056e-17
7058.91552 1.15603e-17
7062.52344 1.17176e-17
7066.12134 1.17619e-17
7069.72926 1.16988e-17
7073.33718 1.15578e-17
7076.94510 1.15953e-17
7080.54300 1.16524e-17
7084.15092 1.17990e-17
7087.75884 1.16818e-17
7091.35674 1.17392e-17
7094.96466 1.15873e-17
7098.57258 1.15605e-17
7102.18050 1.15158e-17
7105.77840 1.14684e-17
7109.38632 1.15732e-17
7112.99424 1.16527e-17
7116.60216 1.15167e-17
7120.20005 1.15079e-17
7123.80797 1.17282e-17
7127.41589 1.17626e-17
7131.01379 1.16036e-17
7134.62171 1.18144e-17
7138.22963 1.17484e-17
7141.83755 1.15784e-17
7145.43545 1.14421e-17
7149.04337 1.14255e-17
7152.65129 1.16823e-17
7156.24919 1.15976e-17
7159.85711 1.15931e-17
7163.46503 1.14964e-17
7167.07295 1.13501e-17
7170.67085 1.10551e-17
7174.27877 1.09676e-17
7177.88669 1.10089e-17
7181.49461 1.06800e-17
7185.09250 1.04793e-17
7188.70042 1.06015e-17
7192.30834 1.15083e-17
7195.90624 1.14077e-17
7199.51416 1.10075e-17
7203.12208 1.09656e-17
7206.73000 1.11289e-17
7210.32790 1.13281e-17
7213.93582 1.12722e-17
7217.54374 1.13796e-17
7221.14164 1.14494e-17
7224.74956 1.14507e-17
7228.35748 1.13547e-17
7231.96540 1.11680e-17
7235.56330 1.09031e-17
7239.17122 1.10173e-17
7242.77914 1.09751e-17
7246.37703 1.06722e-17
7249.98495 1.06950e-17
7253.59287 1.08609e-17
7257.20079 1.07557e-17
7260.79869 1.08625e-17
7264.40661 1.08655e-17
7268.01453 1.06409e-17
7271.62245 1.05904e-17
7275.22035 1.05137e-17
7278.82827 1.05139e-17
7282.43619 1.05865e-17
7286.03409 1.05580e-17
7289.64201 1.05658e-17
7293.24993 1.05885e-17
7296.85785 1.05026e-17
7300.45575 1.04513e-17
7304.06367 1.04280e-17
7307.67159 1.05066e-17
7311.27951 1.03600e-17
7314.87740 1.02746e-17
7318.48532 1.04057e-17
7322.09324 1.01912e-17
7325.69114 1.00798e-17
7329.29906 1.01914e-17
7332.90698 1.01436e-17
7336.51490 1.01200e-17
7340.11280 9.95764e-18
7343.72072 9.62946e-18
7347.32864 9.64598e-18
7350.92654 9.76841e-18
7354.53446 9.56031e-18
7358.14238 9.34821e-18
7361.75030 9.52496e-18
7365.34820 9.46254e-18
7368.95612 9.30818e-18
7372.56404 9.23135e-18
7376.16193 9.01198e-18
7379.76985 9.03476e-18
7383.37777 8.94965e-18
7386.98569 8.67121e-18
7390.58359 8.59836e-18
7394.19151 8.46808e-18
7397.79943 8.43838e-18
7401.39733 8.38811e-18
7405.00525 8.24025e-18
7408.61317 8.20286e-18
7412.22109 8.24106e-18
7415.81899 7.99394e-18
7419.42691 7.86415e-18
7423.03483 7.86730e-18
7426.64275 7.68508e-18
7430.24065 7.63196e-18
7433.84857 7.52829e-18
7437.45649 7.35398e-18
7441.05438 7.42212e-18
7444.66230 7.56419e-18
7448.27022 7.26794e-18
7451.87814 6.95466e-18
7455.47604 6.74509e-18
7459.08396 6.73133e-18
7462.69188 6.71480e-18
7466.29980 6.44847e-18
7469.89770 6.41343e-18
7473.50562 6.34733e-18
7477.11354 6.32247e-18
7480.71144 6.38353e-18
7484.31936 6.25542e-18
7487.92728 6.21065e-18
7491.53520 6.13391e-18
7495.13310 5.88751e-18
7498.74102 5.89432e-18
7502.34894 5.64143e-18
7505.94683 5.38006e-18
7509.55475 5.46187e-18
7513.16267 5.34772e-18
7516.77059 5.19993e-18
7520.36849 5.21855e-18
7523.97641 5.24652e-18
7527.58433 5.08432e-18
7531.18223 4.78770e-18
7534.79015 4.80499e-18
7538.39807 4.94186e-18
7542.00599 4.98749e-18
7545.60389 4.84428e-18
7549.21181 4.71247e-18
7552.81973 4.73452e-18
7556.42765 4.75657e-18
7560.02555 4.77861e-18
7563.63347 4.80064e-18
7567.24139 4.82267e-18
7570.83928 4.84470e-18
7574.44720 4.86672e-18
7578.05512 4.88873e-18
7581.66304 4.91074e-18
7585.26094 4.93274e-18
7588.86886 4.95474e-18
7592.47678 4.97674e-18
7596.07468 4.99873e-18
7599.68260 5.02071e-18
7603.29052 5.04269e-18
7606.89844 5.06466e-18
7610.49634 5.08663e-18
7614.10426 5.10859e-18
7617.71218 5.13055e-18
7621.32010 5.15250e-18
7624.91800 5.17445e-18
7628.52592 5.19639e-18
7632.13384 5.21833e-18
7635.73173 5.24026e-18
7639.33965 5.26219e-18
7642.94757 5.28411e-18
7646.55549 5.30603e-18
7650.15339 5.32794e-18
7653.76131 5.34985e-18
7657.36923 5.37175e-18
7660.96713 5.39364e-18
7664.57505 5.41554e-18
7668.18297 5.43742e-18
7671.79089 5.45930e-18
7675.38879 5.48118e-18
7678.99671 5.50305e-18
7682.60463 5.52492e-18
7686.21255 5.97064e-18
7689.81045 6.06288e-18
7693.41837 6.00476e-18
7697.02629 5.82753e-18
7700.62418 5.84531e-18
7701.22987 5.84531e-18
7702.09133 5.86622e-18
7702.95280 5.88044e-18
7703.81426 5.89457e-18
7704.67572 5.90012e-18
7705.53718 5.90557e-18
7706.39864 5.90282e-18
7707.26011 5.90002e-18
7708.12157 5.89144e-18
7708.98303 5.88286e-18
7709.84449 5.87840e-18
7710.71597 5.87399e-18
7711.57743 5.88258e-18
7712.43890 5.89120e-18
7713.30036 5.91069e-18
7714.16182 5.93022e-18
7715.02328 5.95578e-18
7715.88474 5.98133e-18
7716.74620 6.00509e-18
7717.60767 6.02889e-18
7718.46913 6.04235e-18
7719.33059 6.05586e-18
7720.20207 6.05847e-18
7721.06353 6.06108e-18
7721.92499 6.05591e-18
7722.78646 6.05074e-18
7723.64792 6.04311e-18
7724.50938 6.03548e-18
7725.37084 6.03249e-18
7726.23230 6.02945e-18
7727.09377 6.03339e-18
7727.95523 6.03737e-18
7728.81669 6.04591e-18
7729.67815 6.05449e-18
7730.54963 6.06715e-18
7731.41109 6.07985e-18
7732.27255 6.09929e-18
7733.13402 6.11868e-18
7733.99548 6.14177e-18
7734.85694 6.16481e-18
7735.71840 6.17908e-18
7736.57986 6.19331e-18
7737.44133 6.19165e-18
7738.30279 6.18999e-18
7739.17427 6.17752e-18
7740.03573 6.16505e-18
7740.89719 6.14841e-18
7741.75865 6.13177e-18
7742.62012 6.12086e-18
7743.48158 6.10996e-18
7744.34304 6.11285e-18
7745.20450 6.11574e-18
7746.06596 6.12698e-18
7746.92743 6.13822e-18
7747.78889 6.15026e-18
7748.65035 6.16230e-18
7749.52183 6.17249e-18
7750.38329 6.18264e-18
7751.24475 6.18899e-18
7752.10621 6.19535e-18
7752.96768 6.19791e-18
7753.82914 6.20042e-18
7754.69060 6.20056e-18
7755.55206 6.20066e-18
7756.41352 6.19667e-18
7757.27499 6.19264e-18
7758.13645 6.18117e-18
7759.00793 6.16974e-18
7759.86939 6.15415e-18
7760.73085 6.13850e-18
7761.59231 6.12660e-18
7762.45378 6.11470e-18
7763.31524 6.10839e-18
7764.17670 6.10204e-18
7765.03816 6.09720e-18
7765.89962 6.09237e-18
7766.76109 6.08583e-18
7767.62255 6.07928e-18
7768.49403 6.06866e-18
7769.35549 6.05800e-18
7770.21695 6.04311e-18
7771.07841 6.02817e-18
7771.93988 6.01405e-18
7772.80134 5.99996e-18
7773.66280 5.99039e-18
7774.52426 5.98081e-18
7775.38572 5.97379e-18
7776.24719 5.96682e-18
7777.10865 5.96085e-18
7777.98013 5.95492e-18
7778.84159 5.95089e-18
7779.70305 5.94686e-18
7780.56451 5.94558e-18
7781.42597 5.94430e-18
7782.28744 5.94554e-18
7783.14890 5.94677e-18
7784.01036 5.94999e-18
7784.87182 5.95322e-18
7785.73328 5.95801e-18
7786.59475 5.96279e-18
7787.46623 5.96858e-18
7788.32769 5.97441e-18
7789.18915 5.97958e-18
7790.05061 5.98470e-18
7790.91207 5.98731e-18
7791.77354 5.98987e-18
7792.63500 5.98892e-18
7793.49646 5.98797e-18
7794.35792 5.98318e-18
7795.21938 5.97835e-18
7796.08085 5.97194e-18
7796.94231 5.96554e-18
7797.81379 5.96161e-18
7798.67525 5.95772e-18
7799.53671 5.95938e-18
7800.39817 5.96109e-18
7801.25963 5.97038e-18
7802.12110 5.97972e-18
7802.98256 5.99508e-18
7803.84402 6.01049e-18
7804.70548 6.02414e-18
7805.56694 6.03785e-18
7806.42841 6.04420e-18
7807.29989 6.05055e-18
7808.16135 6.05022e-18
7809.02281 6.04989e-18
7809.88427 6.04396e-18
7810.74573 6.03799e-18
7811.60720 6.02765e-18
7812.46866 6.01727e-18
7813.33012 6.00437e-18
7814.19158 5.99148e-18
7815.05304 5.97839e-18
7815.91450 5.96531e-18
7816.78598 5.95421e-18
7817.64745 5.94312e-18
7818.50891 5.93667e-18
7819.37037 5.93022e-18
7820.23183 5.93051e-18
7821.09329 5.93084e-18
7821.95476 5.93307e-18
7822.81622 5.93534e-18
7823.67768 5.93231e-18
7824.53914 5.92927e-18
7825.40060 5.92008e-18
7826.27208 5.91083e-18
7827.13355 5.89765e-18
7827.99501 5.88452e-18
7828.85647 5.86921e-18
7829.71793 5.85394e-18
7830.57939 5.83839e-18
7831.44085 5.82284e-18
7832.30232 5.80823e-18
7833.16378 5.79363e-18
7834.02524 5.77998e-18
7834.88670 5.76632e-18
7835.75818 5.75490e-18
7836.61964 5.74347e-18
7837.48111 5.73783e-18
7838.34257 5.73219e-18
7839.20403 5.73328e-18
7840.06549 5.73432e-18
7840.92695 5.73811e-18
7841.78842 5.74191e-18
7842.64988 5.74494e-18
7843.51134 5.74798e-18
7844.37280 5.74864e-18
7845.23426 5.74935e-18
7846.10574 5.74674e-18
7846.96720 5.74418e-18
7847.82867 5.73963e-18
7848.69013 5.73508e-18
7849.55159 5.73020e-18
7850.41305 5.72531e-18
7851.27452 5.72114e-18
7852.13598 5.71692e-18
7852.99744 5.71412e-18
7853.85890 5.71133e-18
7854.72036 5.71047e-18
7855.59184 5.70962e-18
7856.45330 5.71099e-18
7857.31477 5.71242e-18
7858.17623 5.71389e-18
7859.03769 5.71536e-18
7859.89915 5.71346e-18
7860.76061 5.71156e-18
7861.62208 5.70654e-18
7862.48354 5.70151e-18
7863.34500 5.69615e-18
7864.20646 5.69080e-18
7865.07794 5.68364e-18
7865.93940 5.67653e-18
7866.80087 5.66287e-18
7867.66233 5.64927e-18
7868.52379 5.62864e-18
7869.38525 5.60807e-18
7870.24671 5.58441e-18
7871.10818 5.56070e-18
7871.96964 5.53946e-18
7872.83110 5.51817e-18
7873.69256 5.50822e-18
7874.56404 5.49836e-18
7875.42550 5.50324e-18
7876.28696 5.50817e-18
7877.14843 5.51784e-18
7878.00989 5.52751e-18
7878.87135 5.53268e-18
7879.73281 5.53790e-18
7880.59427 5.53576e-18
7881.45574 5.53363e-18
7882.31720 5.52268e-18
7883.17866 5.51168e-18
7884.05014 5.49575e-18
7884.91160 5.47982e-18
7885.77306 5.46375e-18
7886.63453 5.44772e-18
7887.49599 5.43117e-18
7888.35745 5.41458e-18
7889.21891 5.39637e-18
7890.08037 5.37817e-18
7890.94184 5.35930e-18
7891.80330 5.34048e-18
7892.66476 5.32213e-18
7893.52622 5.30383e-18
7894.39770 5.29079e-18
7895.25916 5.27775e-18
7896.12062 5.27661e-18
7896.98209 5.27543e-18
7897.84355 5.28240e-18
7898.70501 5.28932e-18
7899.56647 5.29340e-18
7900.42793 5.29748e-18
7901.28940 5.29387e-18
7902.15086 5.29027e-18
7903.01232 5.28017e-18
7903.88380 5.27002e-18
7904.74526 5.25651e-18
7905.60672 5.24305e-18
7906.46819 5.23319e-18
7907.32965 5.22337e-18
7908.19111 5.21996e-18
7909.05257 5.21654e-18
7909.91403 5.21166e-18
7910.77550 5.20678e-18
7911.63696 5.19573e-18
7912.49842 5.18468e-18
7913.36990 5.17312e-18
7914.23136 5.16150e-18
7915.09282 5.15410e-18
7915.95428 5.14671e-18
7916.81575 5.14382e-18
7917.67721 5.14092e-18
7918.53867 5.14192e-18
7919.40013 5.14292e-18
7920.26159 5.14083e-18
7921.12306 5.13879e-18
7921.98452 5.12665e-18
7922.85600 5.11447e-18
7923.71746 5.09655e-18
7924.57892 5.07863e-18
7925.44038 5.06246e-18
7926.30185 5.04624e-18
7927.16331 5.03619e-18
7928.02477 5.02614e-18
7928.88623 5.02515e-18
7929.74769 5.02420e-18
7930.60916 5.03046e-18
7931.47062 5.03671e-18
7932.34210 5.04506e-18
7933.20356 5.05345e-18
7934.06502 5.05947e-18
7934.92648 5.06549e-18
7935.78794 5.06549e-18
7936.64941 5.06554e-18
7937.51087 5.05767e-18
7938.37233 5.04975e-18
7939.23379 5.03439e-18
7940.09525 5.01898e-18
7940.95672 4.99836e-18
7941.81818 4.97773e-18
7942.68966 4.95702e-18
7943.55112 4.93630e-18
7944.41258 4.91951e-18
7945.27404 4.90273e-18
7946.13551 4.89059e-18
7946.99697 4.87846e-18
7947.85843 4.87092e-18
7948.71989 4.86333e-18
7949.58135 4.85897e-18
7950.44282 4.85461e-18
7951.30428 4.85148e-18
7952.17576 4.84835e-18
7953.03722 4.84228e-18
7953.89868 4.83621e-18
7954.76014 4.82360e-18
7955.62160 4.81099e-18
7956.48307 4.79710e-18
7957.34453 4.78316e-18
7958.20599 4.77482e-18
7959.06745 4.76652e-18
7959.92891 4.76424e-18
7960.79038 4.76197e-18
7961.66186 4.76429e-18
7962.52332 4.76657e-18
7963.38478 4.76984e-18
7964.24624 4.77311e-18
7965.10770 4.77211e-18
7965.96917 4.77107e-18
7966.83063 4.76879e-18
7967.69209 4.76647e-18
7968.55355 4.77154e-18
7969.41501 4.77666e-18
7970.27648 4.79113e-18
7971.14795 4.80563e-18
7972.00942 4.82512e-18
7972.87088 4.84460e-18
7973.73234 4.86324e-18
7974.59380 4.88192e-18
7975.45526 4.89121e-18
7976.31673 4.90050e-18
7977.17819 4.89680e-18
7978.03965 4.89311e-18
7978.90111 4.88339e-18
7979.76257 4.87367e-18
7980.63405 4.86400e-18
7981.49552 4.85437e-18
7982.35698 4.84626e-18
7983.21844 4.83816e-18
7984.07990 4.83256e-18
7984.94136 4.82697e-18
7985.80283 4.82185e-18
7986.66429 4.81677e-18
7987.52575 4.80999e-18
7988.38721 4.80317e-18
7989.24867 4.79558e-18
7990.11014 4.78800e-18
7990.98161 4.78074e-18
7991.84308 4.77349e-18
7992.70454 4.76879e-18
7993.56600 4.76410e-18
7994.42746 4.76453e-18
7995.28892 4.76500e-18
7996.15039 4.76548e-18
7997.01185 4.76595e-18
7997.87331 4.75836e-18
7998.73477 4.75078e-18
7999.59623 4.73611e-18
8000.46771 4.72145e-18
8001.32917 4.70584e-18
8002.19064 4.69023e-18
8003.05210 4.67830e-18
8003.91356 4.66638e-18
8004.77502 4.66208e-18
8005.63649 4.65781e-18
8006.49795 4.66012e-18
8007.35941 4.66246e-18
8008.22087 4.66332e-18
8009.08233 4.66418e-18
8009.95381 4.66094e-18
8010.81527 4.65771e-18
8011.67674 4.65810e-18
8012.53820 4.65851e-18
8013.39966 4.66629e-18
8014.26112 4.67409e-18
8015.12258 4.68382e-18
8015.98405 4.69355e-18
8016.84551 4.70005e-18
8017.70697 4.70653e-18
8018.56843 4.70452e-18
8019.43991 4.70250e-18
8020.30137 4.68875e-18
8021.16284 4.67498e-18
8022.02430 4.65821e-18
8022.88576 4.64143e-18
8023.74722 4.63127e-18
8024.60868 4.62112e-18
8025.47015 4.61728e-18
8026.33161 4.61345e-18
8027.19307 4.61337e-18
8028.05453 4.61329e-18
8028.92601 4.61379e-18
8029.78747 4.61429e-18
8030.64893 4.61171e-18
8031.51040 4.60911e-18
8032.37186 4.60381e-18
8033.23332 4.59850e-18
8034.09478 4.59304e-18
8034.95624 4.58758e-18
8035.81771 4.58361e-18
8036.67917 4.57965e-18
8037.54063 4.57816e-18
8038.41211 4.57668e-18
8039.27357 4.57803e-18
8040.13503 4.57938e-18
8040.99650 4.58313e-18
8041.85796 4.58689e-18
8042.71942 4.59179e-18
8043.58088 4.59670e-18
8044.44234 4.60056e-18
8045.30380 4.60442e-18
8046.16527 4.60556e-18
8047.02673 4.60669e-18
8047.88819 4.60434e-18
8048.75967 4.60199e-18
8049.62113 4.59656e-18
8050.48259 4.59113e-18
8051.34406 4.58663e-18
8052.20552 4.58214e-18
8053.06698 4.58157e-18
8053.92844 4.58102e-18
8054.78990 4.58210e-18
8055.65137 4.58319e-18
8056.51283 4.58307e-18
8057.37429 4.58294e-18
8058.24577 4.57819e-18
8059.10723 4.57342e-18
8059.96869 4.56112e-18
8060.83015 4.54881e-18
8061.69162 4.53134e-18
8062.55308 4.51385e-18
8063.41454 4.49523e-18
8064.27600 4.47661e-18
8065.13746 4.46143e-18
8065.99893 4.44625e-18
8066.86039 4.43897e-18
8067.73187 4.43171e-18
8068.59333 4.43260e-18
8069.45479 4.43351e-18
8070.31625 4.44016e-18
8071.17772 4.44684e-18
8072.03918 4.45449e-18
8072.90064 4.46214e-18
8073.76210 4.46397e-18
8074.62356 4.46578e-18
8075.48503 4.45927e-18
8076.34649 4.45274e-18
8077.21797 4.44115e-18
8078.07943 4.42954e-18
8078.94089 4.41489e-18
8079.80235 4.40023e-18
8080.66381 4.38214e-18
8081.52528 4.36405e-18
8082.38674 4.34281e-18
8083.24820 4.32155e-18
8084.10966 4.29805e-18
8084.97113 4.27454e-18
8085.83259 4.24984e-18
8086.70407 4.22513e-18
8087.56553 4.20079e-18
8088.42699 4.17645e-18
8089.28845 4.15395e-18
8090.14991 4.13145e-18
8091.01138 4.11210e-18
8091.87284 4.09277e-18
8092.73430 4.07729e-18
8093.59576 4.06183e-18
8094.45722 4.04992e-18
8095.31869 4.03803e-18
8096.18015 4.02875e-18
8097.05163 4.01947e-18
8097.91309 4.00763e-18
8098.77455 3.99579e-18
8099.63601 3.97526e-18
8100.49748 3.95471e-18
8101.35894 3.92356e-18
8102.22040 3.89239e-18
8103.08186 3.85101e-18
8103.94332 3.80961e-18
8104.80479 3.76301e-18
8105.67626 3.71641e-18
8106.53773 3.67272e-18
8107.39919 3.62905e-18
8108.26065 3.59334e-18
8109.12211 3.55766e-18
8109.98357 3.53165e-18
8110.84504 3.50566e-18
8111.70650 3.48708e-18
8112.56796 3.46850e-18
8113.42942 3.44937e-18
8114.29088 3.43023e-18
8115.15235 3.40411e-18
8116.02383 3.37798e-18
8116.88529 3.34213e-18
8117.74675 3.30626e-18
8118.60821 3.26018e-18
8119.46967 3.21407e-18
8120.33114 3.16439e-18
8121.19260 3.11472e-18
8122.05406 3.06677e-18
8122.91552 3.01882e-18
8123.77698 2.96667e-18
8124.63845 2.91451e-18
8125.49991 2.85265e-18
8126.37139 2.79077e-18
8127.23285 2.72216e-18
8128.09431 2.65353e-18
8128.95577 2.58249e-18
8129.81723 2.51146e-18
8130.67870 2.44632e-18
8131.54016 2.38120e-18
8132.40162 2.33090e-18
8133.26308 2.28064e-18
8134.12454 2.24038e-18
8134.99602 2.20015e-18
8135.85749 2.15917e-18
8136.71895 2.11818e-18
8137.58041 2.07240e-18
8138.44187 2.02660e-18
8139.30333 1.97587e-18
8140.16480 1.92511e-18
8141.02626 1.87071e-18
8141.88772 1.81630e-18
8142.74918 1.76127e-18
8143.61064 1.70624e-18
8144.47210 1.65357e-18
8145.34358 1.60092e-18
8146.20505 1.55303e-18
8147.06651 1.50514e-18
8147.92797 1.46370e-18
8148.78943 1.42228e-18
8149.65089 1.38783e-18
8150.51236 1.35340e-18
8151.37382 1.32508e-18
8152.23528 1.29678e-18
8153.09674 1.27087e-18
8153.95820 1.24496e-18
8154.82968 1.21843e-18
8155.69115 1.19190e-18
8156.55261 1.16505e-18
8157.41407 1.13819e-18
8158.27553 1.11192e-18
8159.13699 1.08565e-18
8159.99845 1.06221e-18
8160.85992 1.03877e-18
8161.72138 1.02034e-18
8162.58284 1.00193e-18
8163.44430 9.89189e-19
8164.31578 9.76464e-19
8165.17724 9.69295e-19
8166.03871 9.62136e-19
8166.90017 9.57125e-19
8167.76163 9.52118e-19
8168.62309 9.45121e-19
8169.48455 9.38123e-19
8170.34602 9.25687e-19
8171.20748 9.13241e-19
8172.06894 8.92091e-19
8172.93040 8.70918e-19
8173.80188 8.46638e-19
8174.66334 8.22354e-19
8175.52481 8.07017e-19
8176.38627 7.91703e-19
8177.24773 7.87991e-19
8178.10919 7.84307e-19
8178.97065 7.85227e-19
8179.83212 7.86156e-19
8180.69358 7.86379e-19
8181.55504 7.86602e-19
8182.41650 7.82776e-19
8183.28798 7.78945e-19
8184.14944 7.69851e-19
8185.01090 7.60748e-19
8185.87237 7.50901e-19
8186.73383 7.41049e-19
8187.59529 7.33677e-19
8188.45675 7.26304e-19
8189.31821 7.18913e-19
8190.17968 7.11517e-19
8191.04114 7.02362e-19
8191.90260 6.93197e-19
8192.77408 6.84402e-19
8193.63554 6.75608e-19
8194.49700 6.69330e-19
8195.35846 6.63058e-19
8196.21993 6.61223e-19
8197.08139 6.59398e-19
8197.94285 6.63461e-19
8198.80431 6.67534e-19
8199.66577 6.74010e-19
8200.52724 6.80491e-19
8201.38870 6.84511e-19
8202.25016 6.88527e-19
8203.12164 6.89144e-19
8203.98310 6.89755e-19
8204.84456 6.87759e-19
8205.70603 6.85758e-19
8206.56749 6.81553e-19
8207.42895 6.77338e-19
8208.29041 6.71260e-19
8209.15187 6.65177e-19
8210.01334 6.58213e-19
8210.87480 6.51248e-19
8211.73626 6.44681e-19
8212.60774 6.38120e-19
8213.46920 6.32497e-19
8214.33066 6.26879e-19
8215.19212 6.22104e-19
8216.05359 6.17335e-19
8216.91505 6.11897e-19
8217.77651 6.06459e-19
8218.63797 5.96156e-19
8219.49943 5.85840e-19
8220.36090 5.69061e-19
8221.22236 5.52268e-19
8222.08382 5.33313e-19
8222.95530 5.14353e-19
8223.81676 4.98020e-19
8224.67822 4.81692e-19
8225.53969 4.73993e-19
8226.40115 4.66316e-19
8227.26261 4.71593e-19
8228.12407 4.76898e-19
8228.98553 4.91107e-19
8229.84700 5.05336e-19
8230.70846 5.22859e-19
8231.57994 5.40391e-19
8232.44140 5.55771e-19
8233.30286 5.71152e-19
8234.16432 5.79321e-19
8235.02578 5.87475e-19
8235.88725 5.90116e-19
8236.74871 5.92738e-19
8237.61017 5.94075e-19
8238.47163 5.95412e-19
8239.33309 5.98394e-19
8240.19456 6.01381e-19
8241.06604 6.08464e-19
8241.92750 6.15557e-19
8242.78896 6.25305e-19
8243.65042 6.35057e-19
8244.51188 6.43041e-19
8245.37335 6.51025e-19
8246.23481 6.55074e-19
8247.09627 6.59113e-19
8247.95773 6.59469e-19
8248.81919 6.59815e-19
8249.68066 6.57364e-19
8250.54212 6.54908e-19
8251.41360 6.51618e-19
8252.27506 6.48323e-19
8253.13652 6.46028e-19
8253.99798 6.43738e-19
8254.85945 6.43553e-19
8255.72091 6.43378e-19
8256.58237 6.45933e-19
8257.44383 6.48498e-19
8258.30529 6.53358e-19
8259.16676 6.58222e-19
8260.02822 6.64452e-19
8260.89970 6.70686e-19
8261.76116 6.76561e-19
8262.62262 6.82440e-19
8263.48408 6.86266e-19
8264.34554 6.90087e-19
8265.20701 6.90338e-19
8266.06847 6.90580e-19
8266.92993 6.86251e-19
8267.79139 6.81913e-19
8268.65285 6.75309e-19
8269.52433 6.68695e-19
8270.38580 6.63011e-19
8271.24726 6.57331e-19
8272.10872 6.54714e-19
8272.97018 6.52106e-19
8273.83164 6.54221e-19
8274.69311 6.56345e-19
8275.55457 6.61531e-19
8276.41603 6.66718e-19
8277.27749 6.71232e-19
8278.13895 6.75740e-19
8279.01043 6.78054e-19
8279.87189 6.80363e-19
8280.73336 6.80837e-19
8281.59482 6.81306e-19
8282.45628 6.81074e-19
8283.31774 6.80837e-19
8284.17920 6.82259e-19
8285.04067 6.83686e-19
8285.90213 6.87664e-19
8286.76359 6.91647e-19
8287.62505 6.96042e-19
8288.48651 7.00437e-19
8289.34798 7.04111e-19
8290.21946 7.07781e-19
8291.08092 7.12441e-19
8291.94238 7.17102e-19
8292.80384 7.23725e-19
8293.66530 7.30348e-19
8294.52677 7.37209e-19
8295.38823 7.44064e-19
8296.24969 7.49555e-19
8297.11115 7.55045e-19
8297.97261 7.58136e-19
8298.83408 7.61223e-19
8299.70555 7.61303e-19
8300.56702 7.61374e-19
8301.42848 7.62081e-19
8302.28994 7.62787e-19
8303.15140 7.68424e-19
8304.01286 7.74071e-19
8304.87433 7.82984e-19
8305.73579 7.91898e-19
8306.59725 8.00498e-19
8307.45871 8.09098e-19
8308.32017 8.15214e-19
8309.18164 8.21321e-19
8310.05312 8.23359e-19
8310.91458 8.25389e-19
8311.77604 8.25047e-19
8312.63750 8.24696e-19
8313.49896 8.26086e-19
8314.36043 8.27475e-19
8315.22189 8.32903e-19
8316.08335 8.38346e-19
8316.94481 8.48279e-19
8317.80627 8.58226e-19
8318.67775 8.71491e-19
8319.53921 8.84766e-19
8320.40068 8.97672e-19
8321.26214 9.10577e-19
8322.12360 9.20481e-19
8322.98506 9.30376e-19
8323.84652 9.37241e-19
8324.70799 9.44101e-19
8325.56945 9.48273e-19
8326.43091 9.52446e-19
8327.29237 9.54954e-19
8328.16385 9.57462e-19
8329.02531 9.59590e-19
8329.88678 9.61714e-19
8330.74824 9.64189e-19
8331.60970 9.66669e-19
8332.47116 9.70220e-19
8333.33262 9.73776e-19
8334.19408 9.80186e-19
8335.05555 9.86605e-19
8335.91701 9.97358e-19
8336.77847 1.00812e-18
8337.64995 1.02206e-18
8338.51141 1.03600e-18
8339.37287 1.05113e-18
8340.23434 1.06627e-18
8341.09580 1.07987e-18
8341.95726 1.09347e-18
8342.81872 1.10259e-18
8343.68018 1.11169e-18
8344.54165 1.11639e-18
8345.40311 1.12108e-18
8346.26457 1.12342e-18
8347.12603 1.12576e-18
8347.99751 1.12744e-18
8348.85897 1.12912e-18
8349.72043 1.13139e-18
8350.58190 1.13366e-18
8351.44336 1.13799e-18
8352.30482 1.14233e-18
8353.16628 1.15025e-18
8354.02775 1.15819e-18
8354.88921 1.16990e-18
8355.75067 1.18162e-18
8356.62215 1.19520e-18
8357.48361 1.20879e-18
8358.34507 1.22233e-18
8359.20653 1.23587e-18
8360.06800 1.24771e-18
8360.92946 1.25955e-18
8361.79092 1.26869e-18
8362.65238 1.27782e-18
8363.51384 1.28599e-18
8364.37531 1.29416e-18
8365.23677 1.30304e-18
8366.10825 1.31193e-18
8366.96971 1.32043e-18
8367.83117 1.32892e-18
8368.69263 1.33586e-18
8369.55410 1.34280e-18
8370.41556 1.34932e-18
8371.27702 1.35584e-18
8372.13848 1.36349e-18
8372.99994 1.37114e-18
8373.86140 1.38078e-18
8374.72287 1.39042e-18
8375.59435 1.40259e-18
8376.45581 1.41476e-18
8377.31727 1.42934e-18
8378.17873 1.44393e-18
8379.04019 1.46037e-18
8379.90166 1.47681e-18
8380.76312 1.49421e-18
8381.62458 1.51160e-18
8382.48604 1.52889e-18
8383.34750 1.54618e-18
8384.20897 1.56250e-18
8385.07043 1.57880e-18
8385.94191 1.59333e-18
8386.80337 1.60786e-18
8387.66483 1.62108e-18
8388.52629 1.63430e-18
8389.38775 1.64879e-18
8390.24922 1.66328e-18
8391.11068 1.67976e-18
8391.97214 1.69624e-18
8392.83360 1.71138e-18
8393.69507 1.72653e-18
8394.55653 1.73798e-18
8395.41799 1.74942e-18
8396.28947 1.75710e-18
8397.15093 1.76477e-18
8398.01239 1.76964e-18
8398.87385 1.77451e-18
8399.73532 1.78196e-18
8400.59678 1.78942e-18
8401.45824 1.80436e-18
8402.31970 1.81932e-18
8403.18116 1.84018e-18
8404.04263 1.86104e-18
8404.90409 1.88479e-18
8405.77557 1.90854e-18
8406.63703 1.93187e-18
8407.49849 1.95519e-18
8408.35995 1.97465e-18
8409.22142 1.99410e-18
8410.08288 2.00972e-18
8410.94434 2.02533e-18
8411.80580 2.03885e-18
8412.66726 2.05237e-18
8413.52873 2.06501e-18
8414.39019 2.07764e-18
8415.26167 2.09038e-18
8416.12313 2.10312e-18
8416.98459 2.11699e-18
8417.84605 2.13087e-18
8418.70751 2.14674e-18
8419.56898 2.16260e-18
8420.43044 2.18080e-18
8421.29190 2.19899e-18
8422.15336 2.21943e-18
8423.01482 2.23988e-18
8423.87629 2.26148e-18
8424.74777 2.28309e-18
8425.60923 2.30287e-18
8426.47069 2.32265e-18
8427.33215 2.33939e-18
8428.19361 2.35613e-18
8429.05508 2.37320e-18
8429.91654 2.39028e-18
8430.77800 2.41044e-18
8431.63946 2.43061e-18
8432.50092 2.45416e-18
8433.36239 2.47771e-18
8434.23386 2.50420e-18
8435.09533 2.53068e-18
8435.95679 2.55571e-18
8436.81825 2.58074e-18
8437.67971 2.59998e-18
8438.54117 2.61921e-18
8439.40264 2.63519e-18
8440.26410 2.65117e-18
8441.12556 2.66801e-18
8441.98702 2.68484e-18
8442.84848 2.70375e-18
8443.70995 2.72267e-18
8444.58143 2.74392e-18
8445.44289 2.76519e-18
8446.30435 2.78903e-18
8447.16581 2.81287e-18
8448.02727 2.83922e-18
8448.88874 2.86556e-18
8449.75020 2.89360e-18
8450.61166 2.92164e-18
8451.47312 2.95018e-18
8452.33458 2.97871e-18
8453.20606 3.00638e-18
8454.06752 3.03404e-18
8454.92899 3.05918e-18
8455.79045 3.08430e-18
8456.65191 3.10727e-18
8457.51337 3.13023e-18
8458.37483 3.15459e-18
8459.23630 3.17895e-18
8460.09776 3.20621e-18
8460.95922 3.23348e-18
8461.82068 3.26057e-18
8462.69216 3.28767e-18
8463.55362 3.31243e-18
8464.41508 3.33719e-18
8465.27655 3.35979e-18
8466.13801 3.38238e-18
8466.99947 3.40372e-18
8467.86093 3.42506e-18
8468.72240 3.44967e-18
8469.58386 3.47428e-18
8470.44532 3.50617e-18
8471.30678 3.53807e-18
8472.16824 3.57476e-18
8473.03972 3.61146e-18
8473.90118 3.64935e-18
8474.76265 3.68723e-18
8475.62411 3.72359e-18
8476.48557 3.75994e-18
8477.34703 3.79214e-18
8478.20849 3.82432e-18
8479.06996 3.85547e-18
8479.93142 3.88661e-18
8480.79288 3.92236e-18
8481.65434 3.95813e-18
8482.51580 3.99723e-18
8483.38728 4.03634e-18
8484.24875 4.07351e-18
8485.11021 4.11067e-18
8485.97167 4.14355e-18
8486.83313 4.17643e-18
8487.69459 4.20496e-18
8488.55605 4.23349e-18
8489.41752 4.25919e-18
8490.27898 4.28488e-18
8491.14044 4.31154e-18
8492.00190 4.33820e-18
8492.87338 4.36830e-18
8493.73484 4.39841e-18
8494.59631 4.43128e-18
8495.45777 4.46415e-18
8496.31923 4.50015e-18
8497.18069 4.53616e-18
8498.04215 4.57931e-18
8498.90362 4.62248e-18
8499.76508 4.67429e-18
8500.62654 4.72613e-18
8501.48800 4.77970e-18
8502.35948 4.83327e-18
8503.22094 4.88182e-18
8504.08240 4.93037e-18
8504.94387 4.97252e-18
8505.80533 5.01462e-18
8506.66679 5.05008e-18
8507.52825 5.08550e-18
8508.38972 5.11674e-18
8509.25118 5.14799e-18
8510.11264 5.17838e-18
8510.98412 5.20882e-18
8511.84558 5.23968e-18
8512.70704 5.27055e-18
8513.56850 5.30255e-18
8514.42997 5.33450e-18
8515.29143 5.36750e-18
8516.15289 5.40050e-18
8517.01435 5.43411e-18
8517.87581 5.46773e-18
8518.73728 5.50196e-18
8519.59874 5.53614e-18
8520.46020 5.57108e-18
8521.33168 5.60598e-18
8522.19314 5.64315e-18
8523.05460 5.68027e-18
8523.91607 5.72252e-18
8524.77753 5.76481e-18
8525.63899 5.81312e-18
8526.50045 5.86143e-18
8527.36191 5.91406e-18
8528.22337 5.96663e-18
8529.08484 6.02078e-18
8529.94630 6.07492e-18
8530.80776 6.12608e-18
8531.67924 6.17723e-18
8532.54070 6.22175e-18
8533.40216 6.26623e-18
8534.26363 6.30268e-18
8535.12509 6.33914e-18
8535.98655 6.36792e-18
8536.84801 6.39675e-18
8537.70947 6.42344e-18
8538.57094 6.45013e-18
8539.43240 6.48062e-18
8540.30388 6.51115e-18
8541.16534 6.54936e-18
8542.02680 6.58758e-18
8542.88826 6.63584e-18
8543.74972 6.68415e-18
8544.61119 6.73929e-18
8545.47265 6.79443e-18
8546.33411 6.85137e-18
8547.19557 6.90827e-18
8548.05703 6.95824e-18
8548.91850 7.00816e-18
8549.78998 7.04149e-18
8550.65144 7.07482e-18
8551.51290 7.09241e-18
8552.37436 7.10995e-18
8553.23582 7.11906e-18
8554.09729 7.12816e-18
8554.95875 7.13864e-18
8555.82021 7.14916e-18
8556.68167 7.17268e-18
8557.54313 7.19624e-18
8558.40460 7.23810e-18
8559.27607 7.27997e-18
8560.13754 7.33691e-18
8560.99900 7.39385e-18
8561.86046 7.45966e-18
8562.72192 7.52546e-18
8563.58338 7.58994e-18
8564.44485 7.65447e-18
8565.30631 7.70833e-18
8566.16777 7.76214e-18
8567.02923 7.79917e-18
8567.89070 7.83615e-18
8568.75216 7.85341e-18
8569.62364 7.87066e-18
8570.48510 7.87303e-18
8571.34656 7.87540e-18
8572.20802 7.86995e-18
8573.06948 7.86445e-18
8573.93095 7.85891e-18
8574.79241 7.85336e-18
8575.65387 7.85521e-18
8576.51533 7.85710e-18
8577.37679 7.87422e-18
8578.23826 7.89138e-18
8579.09972 7.92969e-18
8579.97120 7.96805e-18
8580.83266 8.02010e-18
8581.69412 8.07221e-18
8582.55558 8.12564e-18
8583.41705 8.17907e-18
8584.27851 8.22388e-18
8585.13997 8.26873e-18
8586.00143 8.29679e-18
8586.86289 8.32486e-18
8587.72436 8.33505e-18
8588.58582 8.34525e-18
8589.45730 8.34212e-18
8590.31876 8.33889e-18
8591.18022 8.32941e-18
8592.04168 8.31993e-18
8592.90314 8.31358e-18
8593.76461 8.30722e-18
8594.62607 8.30931e-18
8595.48753 8.31135e-18
8596.34899 8.31974e-18
8597.21045 8.32809e-18
8598.07192 8.34146e-18
8598.94340 8.35487e-18
8599.80486 8.37460e-18
8600.66632 8.39437e-18
8601.52778 8.41987e-18
8602.38924 8.44538e-18
8603.25071 8.47259e-18
8604.11217 8.49986e-18
8604.97363 8.52432e-18
8605.83509 8.54883e-18
8606.69655 8.56457e-18
8607.56803 8.58031e-18
8608.42949 8.58249e-18
8609.29096 8.58463e-18
8610.15242 8.57458e-18
8611.01388 8.56443e-18
8611.87534 8.54556e-18
8612.73680 8.52664e-18
8613.59827 8.50284e-18
8614.45973 8.47899e-18
8615.32119 8.45434e-18
8616.18265 8.42969e-18
8617.04411 8.41191e-18
8617.91559 8.39413e-18
8618.77706 8.39166e-18
8619.63852 8.38920e-18
8620.49998 8.40252e-18
8621.36144 8.41584e-18
8622.22290 8.44035e-18
8623.08437 8.46496e-18
8623.94583 8.49417e-18
8624.80729 8.52342e-18
8625.66875 8.54907e-18
8626.53021 8.57472e-18
8627.40169 8.59183e-18
8628.26315 8.60890e-18
8629.12462 8.61734e-18
8629.98608 8.62578e-18
8630.84754 8.62535e-18
8631.70900 8.62493e-18
8632.57046 8.61450e-18
8633.43193 8.60402e-18
8634.29339 8.58501e-18
8635.15485 8.56599e-18
8636.01631 8.54437e-18
8636.88779 8.52271e-18
8637.74925 8.50469e-18
8638.61072 8.48672e-18
8639.47218 8.47952e-18
8640.33364 8.47236e-18
8641.19510 8.48094e-18
8642.05656 8.48952e-18
8642.91803 8.50967e-18
8643.77949 8.52991e-18
8644.64095 8.55537e-18
8645.50241 8.58083e-18
8646.37389 8.60497e-18
8647.23535 8.62910e-18
8648.09681 8.64531e-18
8648.95828 8.66148e-18
8649.81974 8.66731e-18
8650.68120 8.67314e-18
8651.54266 8.66869e-18
8652.40412 8.66418e-18
8653.26559 8.64873e-18
8654.12705 8.63327e-18
8654.98851 8.60634e-18
8655.85999 8.57941e-18
8656.72145 8.54570e-18
8657.58291 8.51199e-18
8658.44438 8.47961e-18
8659.30584 8.44723e-18
8660.16730 8.42172e-18
8661.02876 8.39626e-18
8661.89022 8.38010e-18
8662.75168 8.36402e-18
8663.61315 8.35852e-18
8664.47461 8.35307e-18
8665.33607 8.35786e-18
8666.20755 8.36265e-18
8667.06901 8.37545e-18
8667.93047 8.38830e-18
8668.79194 8.40513e-18
8669.65340 8.42201e-18
8670.51486 8.43746e-18
8671.37632 8.45292e-18
8672.23778 8.45771e-18
8673.09925 8.46245e-18
8673.96071 8.44965e-18
8674.82217 8.43680e-18
8675.68363 8.40849e-18
8676.55511 8.38014e-18
8677.41657 8.34089e-18
8678.27803 8.30153e-18
8679.13950 8.25901e-18
8680.00096 8.21643e-18
8680.86242 8.17902e-18
8681.72388 8.14166e-18
8682.58535 8.11279e-18
8683.44681 8.08397e-18
8684.30827 8.06481e-18
8685.16973 8.04566e-18
8686.04121 8.03736e-18
8686.90267 8.02911e-18
8687.76413 8.03181e-18
8688.62560 8.03456e-18
8689.48706 8.04618e-18
8690.34852 8.05779e-18
8691.20998 8.07486e-18
8692.07144 8.09198e-18
8692.93291 8.10876e-18
8693.79437 8.12550e-18
8694.66585 8.13455e-18
8695.52731 8.14361e-18
8696.38877 8.14048e-18
8697.25023 8.13730e-18
8698.11170 8.12118e-18
8698.97316 8.10502e-18
8699.83462 8.07766e-18
8700.69608 8.05030e-18
8701.55754 8.01764e-18
8702.41900 7.98497e-18
8703.28047 7.95202e-18
8704.15195 7.91902e-18
8705.01341 7.88588e-18
8705.87487 7.85279e-18
8706.73633 7.82088e-18
8707.59779 7.78902e-18
8708.45926 7.76503e-18
8709.32072 7.74109e-18
8710.18218 7.73023e-18
8711.04364 7.71937e-18
8711.90510 7.72184e-18
8712.76657 7.72440e-18
8713.62803 7.73834e-18
8714.49951 7.75228e-18
8715.36097 7.76750e-18
8716.22243 7.78272e-18
8717.08389 7.78765e-18
8717.94535 7.79258e-18
8718.80682 7.78253e-18
8719.66828 7.77238e-18
8720.52974 7.74559e-18
8721.39120 7.71876e-18
8722.25267 7.68178e-18
8723.11413 7.64480e-18
8723.98561 7.60914e-18
8724.84707 7.57344e-18
8725.70853 7.54334e-18
8726.56999 7.51318e-18
8727.43145 7.48739e-18
8728.29292 7.46165e-18
8729.15438 7.44031e-18
8730.01584 7.41898e-18
8730.87730 7.40267e-18
8731.73876 7.38631e-18
8732.61024 7.37655e-18
8733.47170 7.36673e-18
8734.33317 7.36801e-18
8735.19463 7.36934e-18
8736.05609 7.38034e-18
8736.91755 7.39134e-18
8737.77902 7.39907e-18
8738.64048 7.40679e-18
8739.50194 7.40025e-18
8740.36340 7.39371e-18
8741.22486 7.36687e-18
8742.08633 7.33999e-18
8742.95780 7.29130e-18
8743.81927 7.24256e-18
8744.68073 7.18605e-18
8745.54219 7.12949e-18
8746.40365 7.08042e-18
8747.26511 7.03135e-18
8748.12658 6.99683e-18
8748.98804 6.96241e-18
8749.84950 6.94676e-18
8750.71096 6.93117e-18
8751.57242 6.92998e-18
8752.44390 6.92884e-18
8753.30537 6.93368e-18
8754.16683 6.93856e-18
8755.02829 6.94482e-18
8755.88975 6.95108e-18
8756.75121 6.95572e-18
8757.61268 6.96037e-18
8758.47414 6.95663e-18
8759.33560 6.95283e-18
8760.19706 6.93245e-18
8761.05852 6.91201e-18
8761.91999 6.87366e-18
8762.79146 6.83525e-18
8763.65293 6.78334e-18
8764.51439 6.73138e-18
8765.37585 6.67311e-18
8766.23731 6.61489e-18
8767.09877 6.56065e-18
8767.96024 6.50650e-18
8768.82170 6.46298e-18
8769.68316 6.41955e-18
8770.54462 6.38594e-18
8771.40608 6.35237e-18
8772.26755 6.32720e-18
8773.13903 6.30207e-18
8774.00049 6.28419e-18
8774.86195 6.26627e-18
8775.72341 6.25328e-18
8776.58487 6.24024e-18
8777.44633 6.23000e-18
8778.30780 6.21981e-18
8779.16926 6.20938e-18
8780.03072 6.19895e-18
8780.89218 6.17927e-18
8781.76366 6.15955e-18
8782.62512 6.12248e-18
8783.48659 6.08530e-18
8784.34805 6.03472e-18
8785.20951 5.98413e-18
8786.07097 5.92728e-18
8786.93243 5.87044e-18
8787.79390 5.81279e-18
8788.65536 5.75513e-18
8789.51682 5.70199e-18
8790.37828 5.64884e-18
8791.24976 5.60005e-18
8792.11122 5.55127e-18
8792.97268 5.50305e-18
8793.83415 5.45479e-18
8794.69561 5.40955e-18
8795.55707 5.36437e-18
8796.41853 5.32910e-18
8797.28000 5.29392e-18
8798.14146 5.26723e-18
8799.00292 5.24058e-18
8799.86438 5.21318e-18
8800.72584 5.18577e-18
8801.59732 5.15007e-18
8802.45878 5.11437e-18
8803.32025 5.06526e-18
8804.18171 5.01614e-18
8805.04317 4.95294e-18
8805.90463 4.88974e-18
8806.76609 4.82156e-18
8807.62756 4.75334e-18
8808.48902 4.68847e-18
8809.35048 4.62363e-18
8810.21194 4.56608e-18
8811.08342 4.50856e-18
8811.94488 4.46102e-18
8812.80635 4.41350e-18
8813.66781 4.37491e-18
8814.52927 4.33634e-18
8815.39073 4.30418e-18
8816.25219 4.27202e-18
8817.11365 4.24312e-18
8817.97512 4.21424e-18
8818.83658 4.18508e-18
8819.70806 4.15594e-18
8820.56952 4.12226e-18
8821.43098 4.08858e-18
8822.29244 4.04667e-18
8823.15391 4.00475e-18
8824.01537 3.95414e-18
8824.87683 3.90352e-18
8825.73829 3.84556e-18
8826.59975 3.78758e-18
8827.46122 3.72760e-18
8828.32268 3.66762e-18
8829.19416 3.61331e-18
8830.05562 3.55902e-18
8830.91708 3.51430e-18
8831.77854 3.46961e-18
8832.64000 3.43477e-18
8833.50147 3.39995e-18
8834.36293 3.37372e-18
8835.22439 3.34752e-18
8836.08585 3.32686e-18
8836.94732 3.30621e-18
8837.80878 3.28750e-18
8838.67024 3.26879e-18
8839.54172 3.24835e-18
8840.40318 3.22792e-18
8841.26464 3.20303e-18
8842.12610 3.17813e-18
8842.98757 3.14844e-18
8843.84903 3.11873e-18
8844.71049 3.08480e-18
8845.57195 3.05086e-18
8846.43341 3.01468e-18
8847.29488 2.97849e-18
8848.15634 2.94260e-18
8849.02782 2.90671e-18
8849.88928 2.87247e-18
8850.75074 2.83824e-18
8851.61220 2.80696e-18
8852.47367 2.77569e-18
8853.33513 2.75400e-18
8854.19659 2.73233e-18
8855.05805 2.72686e-18
8855.91951 2.72142e-18
8856.78097 2.72691e-18
8857.64244 2.73242e-18
8858.50390 2.73960e-18
8859.36536 2.74678e-18
8860.23684 2.74800e-18
8861.09830 2.74921e-18
8861.95976 2.73757e-18
8862.82123 2.72589e-18
8863.68269 2.70399e-18
8864.54415 2.68205e-18
8865.40561 2.65996e-18
8866.26707 2.63787e-18
8867.12854 2.62027e-18
8867.99000 2.60268e-18
8868.86148 2.58840e-18
8869.72294 2.57412e-18
8870.58440 2.56263e-18
8871.44586 2.55115e-18
8872.30732 2.54201e-18
8873.16879 2.53288e-18
8874.03025 2.52660e-18
8874.89171 2.52032e-18
8875.75317 2.52077e-18
8876.61463 2.52124e-18
8877.47610 2.52997e-18
8878.34758 2.53873e-18
8879.20904 2.55093e-18
8880.07050 2.56314e-18
8880.93196 2.57373e-18
8881.79342 2.58432e-18
8882.65489 2.58859e-18
8883.51635 2.59284e-18
8884.37781 2.58736e-18
8885.23927 2.58186e-18
8886.10073 2.56979e-18
8886.96220 2.55771e-18
8887.83367 2.54403e-18
8888.69514 2.53034e-18
8889.55660 2.51963e-18
8890.41806 2.50892e-18
8891.27952 2.50533e-18
8892.14099 2.50176e-18
8893.00245 2.50765e-18
8893.86391 2.51357e-18
8894.72537 2.52987e-18
8895.58683 2.54619e-18
8896.44830 2.56906e-18
8897.30976 2.59195e-18
8898.18124 2.61485e-18
8899.04270 2.63775e-18
8899.90416 2.65508e-18
8900.76562 2.67239e-18
8901.62708 2.67948e-18
8902.48855 2.68654e-18
8903.35001 2.68412e-18
8904.21147 2.68167e-18
8905.07293 2.67749e-18
8905.93439 2.67330e-18
8906.80587 2.67244e-18
8907.66734 2.67158e-18
8908.52880 2.67354e-18
8909.39026 2.67551e-18
8910.25172 2.68030e-18
8911.11318 2.68509e-18
8911.97465 2.69366e-18
8912.83611 2.70223e-18
8913.69757 2.71496e-18
8914.55903 2.72771e-18
8915.42049 2.74551e-18
8916.29197 2.76332e-18
8917.15343 2.78598e-18
8918.01490 2.80865e-18
8918.87636 2.83033e-18
8919.73782 2.85201e-18
8920.59928 2.86689e-18
8921.46074 2.88175e-18
8922.32221 2.88816e-18
8923.18367 2.89456e-18
8924.04513 2.89234e-18
8924.90659 2.89010e-18
8925.76805 2.88612e-18
8926.63953 2.88213e-18
8927.50100 2.88576e-18
8928.36246 2.88941e-18
8929.22392 2.90102e-18
8930.08538 2.91264e-18
8930.94684 2.92798e-18
8931.80831 2.94333e-18
8932.66977 2.95933e-18
8933.53123 2.97532e-18
8934.39269 2.98901e-18
8935.25415 3.00269e-18
8936.12563 3.01547e-18
8936.98709 3.02824e-18
8937.84856 3.04681e-18
8938.71002 3.06539e-18
8939.57148 3.09005e-18
8940.43294 3.11473e-18
8941.29440 3.13640e-18
8942.15587 3.15806e-18
8943.01733 3.17006e-18
8943.87879 3.18203e-18
8944.74025 3.18137e-18
8945.61173 3.18068e-18
8946.47319 3.16843e-18
8947.33466 3.15616e-18
8948.19612 3.14637e-18
8949.05758 3.13658e-18
8949.91904 3.14063e-18
8950.78050 3.14472e-18
8951.64197 3.15907e-18
8952.50343 3.17345e-18
8953.36489 3.19237e-18
8954.22635 3.21130e-18
8955.08781 3.21987e-18
8955.95929 3.22842e-18
8956.82075 3.21197e-18
8957.68222 3.19545e-18
8958.54368 3.17223e-18
8959.40514 3.14900e-18
8960.26660 3.14590e-18
8961.12806 3.14286e-18
8961.98953 3.16373e-18
8962.85099 3.18467e-18
8963.71245 3.22441e-18
8964.57391 3.26421e-18
8965.44539 3.30995e-18
8966.30685 3.35570e-18
8967.16832 3.38793e-18
8968.02978 3.42014e-18
8968.89124 3.44101e-18
8969.75270 3.46186e-18
8970.61416 3.49267e-18
8971.47563 3.52352e-18
8972.33709 3.57167e-18
8973.19855 3.61986e-18
8974.06001 3.67621e-18
8974.93149 3.73257e-18
8975.79295 3.78390e-18
8976.65441 3.83521e-18
8977.51588 3.86131e-18
8978.37734 3.88735e-18
8979.23880 3.87248e-18
8980.10026 3.85750e-18
8980.96172 3.79152e-18
8981.82319 3.72542e-18
8982.68465 3.61485e-18
8983.54611 3.50417e-18
8984.41759 3.40847e-18
8985.27905 3.31282e-18
8986.14051 3.28686e-18
8987.00198 3.26109e-18
8987.86344 3.32368e-18
8988.72490 3.38651e-18
8989.58636 3.54048e-18
8990.44782 3.69470e-18
8991.30928 3.86657e-18
8992.17075 4.03848e-18
8993.03221 4.13978e-18
8993.89367 4.24089e-18
8994.76515 4.25836e-18
8995.62661 4.27561e-18
8996.48807 4.22542e-18
8997.34954 4.17505e-18
8998.21100 4.09677e-18
8999.07246 4.01842e-18
8999.93392 3.96604e-18
9000.79538 3.91373e-18
9001.65685 3.91078e-18
9002.51831 3.90798e-18
9003.38979 3.95302e-18
9004.25125 3.99818e-18
9005.11271 4.07550e-18
9005.97417 4.15291e-18
9006.83563 4.23172e-18
9007.69710 4.31054e-18
9008.55856 4.36685e-18
9009.42002 4.42310e-18
9010.28148 4.44577e-18
9011.14295 4.46835e-18
9012.00441 4.45788e-18
9012.87589 4.44732e-18
9013.73735 4.43017e-18
9014.59881 4.41299e-18
9015.46027 4.40877e-18
9016.32173 4.40458e-18
9017.18320 4.40130e-18
9018.04466 4.39803e-18
9018.90612 4.38678e-18
9019.76758 4.37551e-18
9020.62904 4.36660e-18
9021.49051 4.35769e-18
9022.35197 4.36183e-18
9023.22345 4.36600e-18
9024.08491 4.39666e-18
9024.94637 4.42740e-18
9025.80783 4.49534e-18
9026.66930 4.56339e-18
9027.53076 4.65229e-18
9028.39222 4.74125e-18
9029.25368 4.82640e-18
9030.11514 4.91150e-18
9030.97660 4.97574e-18
9031.83807 5.03989e-18
9032.70955 5.07047e-18
9033.57101 5.10096e-18
9034.43247 5.09674e-18
9035.29393 5.09242e-18
9036.15539 5.05990e-18
9037.01686 5.02728e-18
9037.87832 4.98314e-18
9038.73978 4.93895e-18
9039.60124 4.90885e-18
9040.46270 4.87884e-18
9041.32417 4.86964e-18
9042.18563 4.86049e-18
9043.05711 4.85342e-18
9043.91857 4.84631e-18
9044.78003 4.83147e-18
9045.64149 4.81658e-18
9046.50295 4.79990e-18
9047.36442 4.78321e-18
9048.22588 4.76984e-18
9049.08734 4.75647e-18
9049.94880 4.75467e-18
9050.81027 4.75282e-18
9051.67173 4.76476e-18
9052.54321 4.77676e-18
9053.40467 4.77804e-18
9054.26613 4.77922e-18
9055.12759 4.74841e-18
9055.98905 4.71752e-18
9056.85052 4.66604e-18
9057.71198 4.61450e-18
9058.57344 4.55785e-18
9059.43490 4.50120e-18
9060.29636 4.44133e-18
9061.16784 4.38144e-18
9062.02931 4.31910e-18
9062.89077 4.25675e-18
9063.75223 4.18967e-18
9064.61369 4.12258e-18
9065.47515 4.04577e-18
9066.33662 3.96893e-18
9067.19808 3.90195e-18
9068.05954 3.83500e-18
9068.92100 3.81032e-18
9069.78246 3.78575e-18
9070.64393 3.79620e-18
9071.51540 3.80674e-18
9072.37687 3.81595e-18
9073.23833 3.82516e-18
9074.09979 3.81971e-18
9074.96125 3.81423e-18
9075.82271 3.80429e-18
9076.68418 3.79433e-18
9077.54564 3.78623e-18
9078.40710 3.77814e-18
9079.26856 3.77557e-18
9080.13002 3.77301e-18
9080.99149 3.77581e-18
9081.86297 3.77862e-18
9082.72443 3.77420e-18
9083.58589 3.76974e-18
9084.44735 3.75104e-18
9085.30881 3.73230e-18
9086.17028 3.71322e-18
9087.03174 3.69413e-18
9087.89320 3.68536e-18
9088.75466 3.67661e-18
9089.61612 3.66451e-18
9090.48760 3.65238e-18
9091.34906 3.62385e-18
9092.21053 3.59543e-18
9093.07199 3.56397e-18
9093.93345 3.53251e-18
9094.79491 3.51465e-18
9095.65637 3.49683e-18
9096.51784 3.48789e-18
9097.37930 3.47898e-18
9098.24076 3.46910e-18
9099.10222 3.45922e-18
9099.97370 3.45095e-18
9100.83516 3.44269e-18
9101.69663 3.44132e-18
9102.55809 3.43996e-18
9103.41955 3.45558e-18
9104.28101 3.47124e-18
9105.14247 3.51832e-18
9106.00393 3.56548e-18
9106.86540 3.62686e-18
9107.72686 3.68828e-18
9108.58832 3.71996e-18
9109.45980 3.75156e-18
9110.32126 3.73480e-18
9111.18272 3.71790e-18
9112.04419 3.66360e-18
9112.90565 3.60921e-18
9113.76711 3.53981e-18
9114.62857 3.47038e-18
9115.49003 3.43194e-18
9116.35150 3.39358e-18
9117.21296 3.41009e-18
9118.07442 3.42674e-18
9118.93588 3.46267e-18
9119.80736 3.49865e-18
9120.66882 3.51930e-18
9121.53028 3.53992e-18
9122.39175 3.52309e-18
9123.25321 3.50616e-18
9124.11467 3.43851e-18
9124.97613 3.37072e-18
9125.83760 3.28353e-18
9126.69906 3.19630e-18
9127.56052 3.12766e-18
9128.43200 3.05908e-18
9129.29346 3.02866e-18
9130.15492 2.99836e-18
9131.01638 3.01884e-18
9131.87785 3.03947e-18
9132.73931 3.10231e-18
9133.60077 3.16528e-18
9134.46223 3.25116e-18
9135.32369 3.33709e-18
9136.18516 3.42589e-18
9137.04662 3.51471e-18
9137.90808 3.58568e-18
9138.76954 3.65659e-18
9139.64102 3.69638e-18
9140.50248 3.73607e-18
9141.36395 3.74015e-18
9142.22541 3.74414e-18
9143.08687 3.70576e-18
9143.94833 3.66726e-18
9144.80979 3.57670e-18
9145.67125 3.48599e-18
9146.53272 3.35497e-18
9147.39418 3.22384e-18
9148.26566 3.09194e-18
9149.12712 2.96004e-18
9149.98858 2.86318e-18
9150.85004 2.76641e-18
9151.71151 2.73362e-18
9152.57297 2.70102e-18
9153.43443 2.74365e-18
9154.29589 2.78649e-18
9155.15735 2.86727e-18
9156.01882 2.94816e-18
9156.88028 3.02774e-18
9157.75176 3.10731e-18
9158.61322 3.16726e-18
9159.47468 3.22716e-18
9160.33614 3.25328e-18
9161.19760 3.27930e-18
9162.05907 3.27252e-18
9162.92053 3.26566e-18
9163.78199 3.23371e-18
9164.64345 3.20171e-18
9165.50492 3.14353e-18
9166.36638 3.08528e-18
9167.22784 2.99950e-18
9168.09932 2.91364e-18
9168.96078 2.82153e-18
9169.82224 2.72941e-18
9170.68370 2.65978e-18
9171.54517 2.59023e-18
9172.40663 2.55749e-18
9173.26809 2.52485e-18
9174.12955 2.53527e-18
9174.99101 2.54580e-18
9175.85248 2.58167e-18
9176.71394 2.61759e-18
9177.58542 2.63865e-18
9178.44688 2.65967e-18
9179.30834 2.65422e-18
9180.16980 2.64869e-18
9181.03127 2.64314e-18
9181.89273 2.63760e-18
9182.75419 2.64648e-18
9183.61565 2.65541e-18
9184.47711 2.67355e-18
9185.33857 2.69171e-18
9186.20004 2.71285e-18
9187.07152 2.73399e-18
9187.93298 2.74296e-18
9188.79444 2.75190e-18
9189.65590 2.74030e-18
9190.51736 2.72864e-18
9191.37883 2.71989e-18
9192.24029 2.71115e-18
9193.10175 2.72611e-18
9193.96321 2.74114e-18
9194.82467 2.77054e-18
9195.68614 2.79997e-18
9196.55762 2.83057e-18
9197.41908 2.86118e-18
9198.28054 2.88102e-18
9199.14200 2.90084e-18
9200.00346 2.89844e-18
9200.86492 2.89598e-18
9201.72639 2.87980e-18
9202.58785 2.86357e-18
9203.44931 2.85027e-18
9204.31077 2.83697e-18
9205.17224 2.82703e-18
9206.04371 2.81709e-18
9206.90518 2.80320e-18
9207.76664 2.78929e-18
9208.62810 2.77376e-18
9209.48956 2.75823e-18
9210.35102 2.74890e-18
9211.21249 2.73958e-18
9212.07395 2.74430e-18
9212.93541 2.74907e-18
9213.79687 2.77685e-18
9214.65833 2.80470e-18
9215.52981 2.85374e-18
9216.39127 2.90284e-18
9217.25274 2.95451e-18
9218.11420 3.00618e-18
9218.97566 3.04838e-18
9219.83712 3.09054e-18
9220.69859 3.12712e-18
9221.56005 3.16368e-18
9222.42151 3.19682e-18
9223.28297 3.22995e-18
9224.14443 3.25595e-18
9225.00590 3.28194e-18
9225.87737 3.29823e-18
9226.73884 3.31449e-18
9227.60030 3.31837e-18
9228.46176 3.32221e-18
9229.32322 3.31262e-18
9230.18468 3.30301e-18
9231.04615 3.29089e-18
9231.90761 3.27876e-18
9232.76907 3.27674e-18
9233.63053 3.27473e-18
9234.49199 3.28002e-18
9235.35346 3.28532e-18
9236.22494 3.29081e-18
9237.08640 3.29631e-18
9237.94786 3.30525e-18
9238.80932 3.31420e-18
9239.67078 3.33326e-18
9240.53225 3.35235e-18
9241.39371 3.38473e-18
9242.25517 3.41715e-18
9243.11663 3.46416e-18
9243.97809 3.51120e-18
9244.84957 3.56874e-18
9245.71103 3.62629e-18
9246.57250 3.68502e-18
9247.43396 3.74374e-18
9248.29542 3.79831e-18
9249.15688 3.85287e-18
9250.01834 3.90440e-18
9250.87981 3.95592e-18
9251.74127 4.00180e-18
9252.60273 4.04766e-18
9253.46419 4.07690e-18
9254.32565 4.10608e-18
9255.19713 4.11687e-18
9256.05860 4.12761e-18
9256.92006 4.14133e-18
9257.78152 4.15506e-18
9258.64298 4.18780e-18
9259.50444 4.22058e-18
9260.36591 4.26747e-18
9261.22737 4.31440e-18
9262.08883 4.36680e-18
9262.95029 4.41920e-18
9263.81175 4.45820e-18
9264.68323 4.49714e-18
9265.54469 4.50462e-18
9266.40616 4.51201e-18
9267.26762 4.48849e-18
9268.12908 4.46488e-18
9268.99054 4.41780e-18
9269.85200 4.37066e-18
9270.71347 4.31757e-18
9271.57493 4.26446e-18
9272.43639 4.22623e-18
9273.29785 4.18805e-18
9274.16933 4.18118e-18
9275.03079 4.17439e-18
9275.89226 4.21095e-18
9276.75372 4.24762e-18
9277.61518 4.32145e-18
9278.47664 4.39538e-18
9279.33810 4.48616e-18
9280.19957 4.57697e-18
9281.06103 4.66275e-18
9281.92249 4.74850e-18
9282.79397 4.80810e-18
9283.65543 4.86765e-18
9284.51689 4.88424e-18
9285.37835 4.90069e-18
9286.23982 4.86428e-18
9287.10128 4.82773e-18
9287.96274 4.74272e-18
9288.82420 4.65753e-18
9289.68566 4.55086e-18
9290.54713 4.44413e-18
9291.40859 4.34715e-18
9292.27005 4.25020e-18
9293.14153 4.20418e-18
9294.00299 4.15829e-18
9294.86445 4.19017e-18
9295.72592 4.22226e-18
9296.58738 4.30428e-18
9297.44884 4.38643e-18
9298.31030 4.48176e-18
9299.17176 4.57711e-18
9300.03323 4.63553e-18
9300.89469 4.69384e-18
9301.75615 4.66720e-18
9302.62763 4.64032e-18
9303.48909 4.57486e-18
9304.35055 4.50930e-18
9305.21201 4.48067e-18
9306.07348 4.45215e-18
9306.93494 4.44272e-18
9307.79640 4.43335e-18
9308.65786 4.38824e-18
9309.51932 4.34304e-18
9310.38079 4.26480e-18
9311.24225 4.18648e-18
9312.11373 4.10749e-18
9312.97519 4.02851e-18
9313.83665 3.98053e-18
9314.69811 3.93263e-18
9315.55958 3.95175e-18
9316.42104 3.97107e-18
9317.28250 4.05027e-18
9318.14396 4.12964e-18
9319.00542 4.19950e-18
9319.86688 4.26932e-18
9320.72835 4.30258e-18
9321.58981 4.33574e-18
9322.46129 4.39638e-18
9323.32275 4.45710e-18
9324.18421 4.55913e-18
9325.04567 4.66128e-18
9325.90714 4.67386e-18
9326.76860 4.68619e-18
9327.63006 4.52866e-18
9328.49152 4.37066e-18
9329.35298 4.16966e-18
9330.21445 3.96854e-18
9331.07591 3.84668e-18
9331.94739 3.72505e-18
9332.80885 3.65868e-18
9333.67031 3.59248e-18
9334.53177 3.54619e-18
9335.39323 3.49995e-18
9336.25470 3.47453e-18
9337.11616 3.44918e-18
9337.97762 3.43856e-18
9338.83908 3.42800e-18
9339.70055 3.54015e-18
9340.56201 3.65264e-18
9341.43349 4.03378e-18
9342.29495 4.41568e-18
9343.15641 4.87850e-18
9344.01787 5.34152e-18
9344.87933 5.54145e-18
9345.74080 5.74058e-18
9346.60226 5.57483e-18
9347.46372 5.40799e-18
9348.32518 4.93521e-18
9349.18664 4.46158e-18
9350.04811 3.89919e-18
9350.90957 3.33657e-18
9351.78105 3.08556e-18
9352.64251 2.83546e-18
9353.50397 3.02738e-18
9354.36543 3.22056e-18
9355.22689 3.56535e-18
9356.08836 3.91056e-18
9356.94982 4.16432e-18
9357.81128 4.41782e-18
9358.67274 4.43508e-18
9359.53420 4.45167e-18
9360.39567 4.16953e-18
9361.26715 3.88655e-18
9362.12861 3.53354e-18
9362.99007 3.18033e-18
9363.85153 2.97212e-18
9364.71299 2.76434e-18
9365.57446 2.71335e-18
9366.43592 2.66282e-18
9367.29738 2.74828e-18
9368.15884 2.83412e-18
9369.02030 2.94887e-18
9369.89178 3.06370e-18
9370.75324 3.08503e-18
9371.61471 3.10609e-18
9372.47617 3.04152e-18
9373.33763 2.97671e-18
9374.19909 2.87210e-18
9375.06056 2.76737e-18
9375.92202 2.69283e-18
9376.78348 2.61837e-18
9377.64494 2.65954e-18
9378.50640 2.70104e-18
9379.37788 2.82545e-18
9380.23934 2.95009e-18
9381.10081 3.04746e-18
9381.96227 3.14474e-18
9382.82373 3.17994e-18
9383.68519 3.21495e-18
9384.54665 3.21968e-18
9385.40812 3.22431e-18
9386.26958 3.20735e-18
9387.13104 3.19032e-18
9387.99250 3.13681e-18
9388.85396 3.08319e-18
9389.72544 2.99230e-18
9390.58691 2.90130e-18
9391.44837 2.78674e-18
9392.30983 2.67212e-18
9393.17129 2.55268e-18
9394.03275 2.43323e-18
9394.89422 2.34227e-18
9395.75568 2.25140e-18
9396.61714 2.21150e-18
9397.47860 2.17174e-18
9398.34006 2.16616e-18
9399.21154 2.16068e-18
9400.07300 2.16839e-18
9400.93447 2.17614e-18
9401.79593 2.17692e-18
9402.65739 2.17768e-18
9403.51885 2.15384e-18
9404.38031 2.12993e-18
9405.24178 2.10135e-18
9406.10324 2.07276e-18
9406.96470 2.06737e-18
9407.82616 2.06204e-18
9408.69764 2.08012e-18
9409.55910 2.09828e-18
9410.42057 2.13015e-18
9411.28203 2.16205e-18
9412.14349 2.19261e-18
9413.00495 2.22318e-18
9413.86641 2.23456e-18
9414.72788 2.24588e-18
9415.58934 2.22616e-18
9416.45080 2.20635e-18
9417.31226 2.15185e-18
9418.17372 2.09724e-18
9419.04520 2.01176e-18
9419.90666 1.92619e-18
9420.76813 1.81545e-18
9421.62959 1.70464e-18
9422.49105 1.60826e-18
9423.35251 1.51193e-18
9424.21397 1.52452e-18
9425.07544 1.53743e-18
9425.93690 1.68935e-18
9426.79836 1.84166e-18
9427.65982 2.03374e-18
9428.53130 2.22593e-18
9429.39276 2.36256e-18
9430.25423 2.49902e-18
9431.11569 2.49169e-18
9431.97715 2.48394e-18
9432.83861 2.28781e-18
9433.70007 2.09114e-18
9434.56153 1.86173e-18
9435.42300 1.63223e-18
9436.28446 1.53221e-18
9437.14592 1.43257e-18
9438.01740 1.48756e-18
9438.87886 1.54301e-18
9439.74032 1.74249e-18
9440.60179 1.94239e-18
9441.46325 2.18504e-18
9442.32471 2.42782e-18
9443.18617 2.58324e-18
9444.04763 2.73842e-18
9444.90910 2.76932e-18
9445.77056 2.79986e-18
9446.63202 2.71437e-18
9447.49348 2.62855e-18
9448.36496 2.47283e-18
9449.22642 2.31692e-18
9450.08788 2.16520e-18
9450.94935 2.01350e-18
9451.81081 1.91416e-18
9452.67227 1.81499e-18
9453.53373 1.78689e-18
9454.39520 1.75899e-18
9455.25666 1.80684e-18
9456.11812 1.85490e-18
9456.98960 1.96708e-18
9457.85106 2.07944e-18
9458.71252 2.22237e-18
9459.57398 2.36538e-18
9460.43545 2.47128e-18
9461.29691 2.57707e-18
9462.15837 2.60511e-18
9463.01983 2.63292e-18
9463.88129 2.61499e-18
9464.74276 2.59694e-18
9465.60422 2.56641e-18
9466.47570 2.53585e-18
9467.33716 2.51321e-18
9468.19862 2.49059e-18
9469.06008 2.49230e-18
9469.92155 2.49409e-18
9470.78301 2.49491e-18
9471.64447 2.49572e-18
9472.50593 2.46876e-18
9473.36739 2.44172e-18
9474.22885 2.40381e-18
9475.09032 2.36587e-18
9475.96180 2.33992e-18
9476.82326 2.31399e-18
9477.68472 2.34746e-18
9478.54618 2.38110e-18
9479.40764 2.52751e-18
9480.26911 2.67425e-18
9481.13057 2.87549e-18
9481.99203 3.07688e-18
9482.85349 3.22050e-18
9483.71495 3.36394e-18
9484.57642 3.39067e-18
9485.43788 3.41706e-18
9486.30936 3.30616e-18
9487.17082 3.19486e-18
9488.03228 2.99148e-18
9488.89374 2.78784e-18
9489.75520 2.61092e-18
9490.61667 2.43408e-18
9491.47813 2.35967e-18
9492.33959 2.28556e-18
9493.20105 2.31227e-18
9494.06252 2.33927e-18
9494.92398 2.46671e-18
9495.79546 2.59444e-18
9496.65692 2.83885e-18
9497.51838 3.08359e-18
9498.37984 3.41921e-18
9499.24130 3.75508e-18
9500.10277 4.05057e-18
9500.96423 4.34594e-18
9501.82569 4.48771e-18
9502.68715 4.62903e-18
9503.54861 4.59913e-18
9504.41008 4.56872e-18
9505.28155 4.37874e-18
9506.14302 4.18830e-18
9507.00448 3.93692e-18
9507.86594 3.68537e-18
9508.72740 3.48997e-18
9509.58887 3.29474e-18
9510.45033 3.16683e-18
9511.31179 3.03911e-18
9512.17325 2.95548e-18
9513.03471 2.87198e-18
9513.89617 2.85548e-18
9514.75764 2.83917e-18
9515.62912 2.92247e-18
9516.49058 3.00607e-18
9517.35204 3.17965e-18
9518.21350 3.35349e-18
9519.07496 3.58530e-18
9519.93643 3.81728e-18
9520.79789 4.05088e-18
9521.65935 4.28449e-18
9522.52081 4.44217e-18
9523.38227 4.59963e-18
9524.24374 4.65520e-18
9525.11522 4.71048e-18
9525.97668 4.70479e-18
9526.83814 4.69892e-18
9527.69960 4.66963e-18
9528.56106 4.64027e-18
9529.42252 4.61712e-18
9530.28399 4.59399e-18
9531.14545 4.59367e-18
9532.00691 4.59342e-18
9532.86837 4.58950e-18
9533.72984 4.58557e-18
9534.60131 4.55575e-18
9535.46278 4.52585e-18
9536.32424 4.46336e-18
9537.18570 4.40078e-18
9538.04716 4.30922e-18
9538.90862 4.21756e-18
9539.77009 4.18048e-18
9540.63155 4.14357e-18
9541.49301 4.23984e-18
9542.35447 4.33651e-18
9543.21593 4.50964e-18
9544.08741 4.68299e-18
9544.94888 4.84887e-18
9545.81034 5.01472e-18
9546.67180 5.09128e-18
9547.53326 5.16757e-18
9548.39472 5.07066e-18
9549.25619 4.97328e-18
9550.11765 4.80051e-18
9550.97911 4.62753e-18
9551.84057 4.57541e-18
9552.70203 4.52365e-18
9553.57351 4.60553e-18
9554.43497 4.68780e-18
9555.29644 4.78752e-18
9556.15790 4.88727e-18
9557.01936 4.92658e-18
9557.88082 4.96569e-18
9558.74228 4.89244e-18
9559.60375 4.81891e-18
9560.46521 4.66544e-18
9561.32667 4.51177e-18
9562.18813 4.45551e-18
9563.05961 4.39954e-18
9563.92107 4.53200e-18
9564.78254 4.66501e-18
9565.64400 4.89197e-18
9566.50546 5.11921e-18
9567.36692 5.33929e-18
9568.22838 5.55933e-18
9569.08985 5.65154e-18
9569.95131 5.74342e-18
9570.81277 5.62452e-18
9571.67423 5.50499e-18
9572.53569 5.27974e-18
9573.40717 5.05421e-18
9574.26863 4.84712e-18
9575.13010 4.64012e-18
9575.99156 4.53443e-18
9576.85302 4.42905e-18
9577.71448 4.49050e-18
9578.57594 4.55243e-18
9579.43741 4.67770e-18
9580.29887 4.80312e-18
9581.16033 4.84129e-18
9582.02179 4.87921e-18
9582.89327 4.81033e-18
9583.75473 4.74115e-18
9584.61620 4.59482e-18
9585.47766 4.44825e-18
9586.33912 4.33000e-18
9587.20058 4.21182e-18
9588.06204 4.28232e-18
9588.92351 4.35338e-18
9589.78497 4.59253e-18
9590.64643 4.83218e-18
9591.51791 5.05563e-18
9592.37937 5.27908e-18
9593.24083 5.38746e-18
9594.10229 5.49556e-18
9594.96376 5.49840e-18
9595.82522 5.50096e-18
9596.68668 5.41828e-18
9597.54814 5.33536e-18
9598.40960 5.21375e-18
9599.27107 5.09209e-18
9600.13253 4.98304e-18
9600.99399 4.87400e-18
9601.86547 4.81820e-18
9602.72693 4.76254e-18
9603.58839 4.78653e-18
9604.44986 4.81080e-18
9605.31132 4.91017e-18
9606.17278 5.00978e-18
9607.03424 5.16216e-18
9607.89570 5.31464e-18
9608.75717 5.42311e-18
9609.61863 5.53145e-18
9610.48009 5.50262e-18
9611.35157 5.47337e-18
9612.21303 5.34683e-18
9613.07449 5.22005e-18
9613.93595 5.07052e-18
9614.79742 4.92089e-18
9615.65888 4.80028e-18
9616.52034 4.67972e-18
9617.38180 4.63132e-18
9618.24326 4.58313e-18
9619.10473 4.61807e-18
9619.96619 4.65325e-18
9620.82765 4.75950e-18
9621.69913 4.86599e-18
9622.56059 5.00523e-18
9623.42205 5.14457e-18
9624.28352 5.26348e-18
9625.14498 5.38234e-18
9626.00644 5.43008e-18
9626.86790 5.47759e-18
9627.72936 5.40652e-18
9628.59083 5.33512e-18
9629.45229 5.15922e-18
9630.31375 4.98304e-18
9631.17521 4.80644e-18
9632.04669 4.62980e-18
9632.90815 4.53327e-18
9633.76961 4.43696e-18
9634.63108 4.45195e-18
9635.49254 4.46726e-18
9636.35400 4.59045e-18
9637.21546 4.71395e-18
9638.07692 4.82848e-18
9638.93839 4.94298e-18
9639.79985 4.95228e-18
9640.67133 4.96124e-18
9641.53279 4.92558e-18
9642.39425 4.88979e-18
9643.25571 4.87964e-18
9644.11718 4.86959e-18
9644.97864 4.90197e-18
9645.84010 4.93454e-18
9646.70156 5.01637e-18
9647.56302 5.09835e-18
9648.42448 5.17496e-18
9649.28595 5.25153e-18
9650.15743 5.25172e-18
9651.01889 5.25163e-18
9651.88035 5.17511e-18
9652.74181 5.09835e-18
9653.60327 4.97707e-18
9654.46474 4.85560e-18
9655.32620 4.73341e-18
9656.18766 4.61119e-18
9657.04912 4.53870e-18
9657.91058 4.46637e-18
9658.77205 4.47187e-18
9659.64352 4.47762e-18
9660.50499 4.56805e-18
9661.36645 4.65873e-18
9662.22791 4.80544e-18
9663.08937 4.95232e-18
9663.95083 5.08057e-18
9664.81230 5.20877e-18
9665.67376 5.27529e-18
9666.53522 5.34166e-18
9667.39668 5.36935e-18
9668.25815 5.39694e-18
9669.11961 5.39893e-18
9669.99109 5.40083e-18
9670.85255 5.35498e-18
9671.71401 5.30895e-18
9672.57547 5.20920e-18
9673.43693 5.10925e-18
9674.29840 4.99637e-18
9675.15986 4.88339e-18
9676.02132 4.79805e-18
9676.88278 4.71281e-18
9677.74424 4.68343e-18
9678.61572 4.65422e-18
9679.47718 4.69962e-18
9680.33865 4.74523e-18
9681.20011 4.82801e-18
9682.06157 4.91084e-18
9682.92303 4.97887e-18
9683.78449 5.04686e-18
9684.64596 5.08474e-18
9685.50742 5.12248e-18
9686.36888 5.12808e-18
9687.23034 5.13358e-18
9688.10182 5.11229e-18
9688.96328 5.09095e-18
9689.82475 5.05596e-18
9690.68621 5.02093e-18
9691.54767 4.97461e-18
9692.40913 4.92824e-18
9693.27059 4.86362e-18
9694.13206 4.79890e-18
9694.99352 4.72549e-18
9695.85498 4.65206e-18
9696.71644 4.59595e-18
9697.57790 4.53990e-18
9698.44938 4.51405e-18
9699.31084 4.48830e-18
9700.17231 4.48779e-18
9701.03377 4.48736e-18
9701.89523 4.50153e-18
9702.75669 4.51574e-18
9703.61816 4.52087e-18
9704.47962 4.52596e-18
9705.34108 4.50673e-18
9706.20254 4.48742e-18
9707.06400 4.45860e-18
9707.93548 4.42975e-18
9708.79694 4.40666e-18
9709.65841 4.38359e-18
9710.51987 4.37458e-18
9711.38133 4.36561e-18
9712.24279 4.37612e-18
9713.10425 4.38669e-18
9713.96572 4.40220e-18
9714.82718 4.41771e-18
9715.68864 4.42070e-18
9716.55010 4.42365e-18
9717.41156 4.40911e-18
9718.28304 4.39452e-18
9719.14451 4.36044e-18
9720.00597 4.32630e-18
9720.86743 4.29091e-18
9721.72889 4.25552e-18
9722.59035 4.24686e-18
9723.45182 4.23828e-18
9724.31328 4.24403e-18
9725.17474 4.24984e-18
9726.03620 4.23343e-18
9726.89766 4.21695e-18
9727.76914 4.16542e-18
9728.63060 4.11378e-18
9729.49207 4.03393e-18
9730.35353 3.95400e-18
9731.21499 3.86286e-18
9732.07645 3.77170e-18
9732.93791 3.70061e-18
9733.79938 3.62959e-18
9734.66084 3.59807e-18
9735.52230 3.56667e-18
9736.38376 3.57092e-18
9737.25524 3.57528e-18
9738.11670 3.60652e-18
9738.97817 3.63784e-18
9739.83963 3.67877e-18
9740.70109 3.71974e-18
9741.56255 3.75328e-18
9742.42401 3.78680e-18
9743.28548 3.80388e-18
9744.14694 3.82091e-18
9745.00840 3.81617e-18
9745.86986 3.81136e-18
9746.74134 3.79207e-18
9747.60280 3.77275e-18
9748.46426 3.74892e-18
9749.32573 3.72508e-18
9750.18719 3.69908e-18
9751.04865 3.67308e-18
9751.91011 3.64617e-18
9752.77157 3.61925e-18
9753.63304 3.59054e-18
9754.49450 3.56182e-18
9755.35596 3.52945e-18
9756.22744 3.49706e-18
9757.08890 3.46777e-18
9757.95036 3.43848e-18
9758.81183 3.42221e-18
9759.67329 3.40598e-18
9760.53475 3.41044e-18
9761.39621 3.41497e-18
9762.25767 3.44676e-18
9763.11913 3.47864e-18
9763.98060 3.52776e-18
9764.84206 3.57692e-18
9765.71354 3.61517e-18
9766.57500 3.65339e-18
9767.43646 3.66695e-18
9768.29792 3.68044e-18
9769.15939 3.67837e-18
9770.02085 3.67625e-18
9770.88231 3.66627e-18
9771.74377 3.65627e-18
9772.60523 3.64225e-18
9773.46670 3.62822e-18
9774.32816 3.61504e-18
9775.19964 3.60186e-18
9776.06110 3.59340e-18
9776.92256 3.58495e-18
9777.78402 3.58379e-18
9778.64548 3.58265e-18
9779.50695 3.59209e-18
9780.36841 3.60156e-18
9781.22987 3.62250e-18
9782.09133 3.64348e-18
9782.95280 3.65780e-18
9783.81426 3.67210e-18
9784.68574 3.66010e-18
9785.54720 3.64801e-18
9786.40866 3.61922e-18
9787.27012 3.59039e-18
9788.13158 3.56278e-18
9788.99305 3.53518e-18
9789.85451 3.51508e-18
9790.71597 3.49499e-18
9791.57743 3.48501e-18
9792.43889 3.47506e-18
9793.30036 3.46848e-18
9794.16182 3.46191e-18
9795.03330 3.44457e-18
9795.89476 3.42720e-18
9796.75622 3.40323e-18
9797.61768 3.37925e-18
9798.47915 3.36934e-18
9799.34061 3.35947e-18
9800.20207 3.37051e-18
9801.06353 3.38163e-18
9801.92499 3.40383e-18
9802.78645 3.42608e-18
9803.64792 3.44955e-18
9804.51940 3.47302e-18
9805.38086 3.48615e-18
9806.24232 3.49925e-18
9807.10378 3.49642e-18
9807.96524 3.49353e-18
9808.82671 3.48586e-18
9809.68817 3.47817e-18
9810.54963 3.47626e-18
9811.41109 3.47437e-18
9812.27255 3.48493e-18
9813.13402 3.49552e-18
9813.99548 3.52166e-18
9814.86696 3.54784e-18
9815.72842 3.57095e-18
9816.58988 3.59406e-18
9817.45134 3.59439e-18
9818.31280 3.59466e-18
9819.17427 3.57485e-18
9820.03573 3.55498e-18
9820.89719 3.52333e-18
9821.75865 3.49165e-18
9822.62012 3.46036e-18
9823.48158 3.42908e-18
9824.35306 3.41237e-18
9825.21452 3.39570e-18
9826.07598 3.39149e-18
9826.93744 3.38733e-18
9827.79890 3.38412e-18
9828.66037 3.38091e-18
9829.52183 3.37586e-18
9830.38329 3.37080e-18
9831.24475 3.36731e-18
9832.10621 3.36382e-18
9832.97769 3.36111e-18
9833.83915 3.35840e-18
9834.70062 3.35200e-18
9835.56208 3.34558e-18
9836.42354 3.33342e-18
9837.28500 3.32125e-18
9838.14647 3.30455e-18
9839.00793 3.28783e-18
9839.86939 3.26794e-18
9840.73085 3.24804e-18
9841.59231 3.22567e-18
9842.45377 3.20330e-18
9843.32525 3.18100e-18
9844.18672 3.15870e-18
9845.04818 3.14437e-18
9845.90964 3.13007e-18
9846.77110 3.12994e-18
9847.63256 3.12985e-18
9848.49403 3.14199e-18
9849.35549 3.15417e-18
9850.21695 3.17504e-18
9851.07841 3.19595e-18
9851.93987 3.22217e-18
9852.81135 3.24842e-18
9853.67282 3.27601e-18
9854.53428 3.30361e-18
9855.39574 3.33004e-18
9856.25720 3.35647e-18
9857.11866 3.37989e-18
9857.98013 3.40329e-18
9858.84159 3.41868e-18
9859.70305 3.43404e-18
9860.56451 3.43567e-18
9861.42597 3.43725e-18
9862.29745 3.42433e-18
9863.15891 3.41137e-18
9864.02038 3.38637e-18
9864.88184 3.36133e-18
9865.74330 3.32881e-18
9866.60476 3.29626e-18
9867.46622 3.26275e-18
9868.32769 3.22923e-18
9869.18915 3.19846e-18
9870.05061 3.16770e-18
9870.92209 3.13925e-18
9871.78355 3.11080e-18
9872.64501 3.08515e-18
9873.50648 3.05950e-18
9874.36794 3.03885e-18
9875.22940 3.01821e-18
9876.09086 3.00430e-18
9876.95232 2.99041e-18
9877.81379 2.98483e-18
9878.67525 2.97928e-18
9879.53671 2.98278e-18
9880.39817 2.98630e-18
9881.26965 2.99775e-18
9882.13111 3.00923e-18
9882.99257 3.02659e-18
9883.85404 3.04396e-18
9884.71550 3.06347e-18
9885.57696 3.08298e-18
9886.43842 3.10057e-18
9887.29988 3.11815e-18
9888.16135 3.13002e-18
9889.02281 3.14187e-18
9889.88427 3.14483e-18
9890.74573 3.14776e-18
9891.61721 3.14174e-18
9892.47867 3.13569e-18
9893.34014 3.12228e-18
9894.20160 3.10886e-18
9895.06306 3.08980e-18
9895.92452 3.07072e-18
9896.78598 3.04783e-18
9897.64745 3.02493e-18
9898.50891 3.00117e-18
9899.37037 2.97741e-18
9900.23183 2.95672e-18
9901.09329 2.93604e-18
9901.96477 2.91908e-18
9902.82623 2.90213e-18
9903.68770 2.88554e-18
9904.54916 2.86896e-18
9905.41062 2.85352e-18
9906.27208 2.83809e-18
9907.13354 2.83109e-18
9907.99501 2.82410e-18
9908.85647 2.82897e-18
9909.71793 2.83388e-18
9910.57939 2.84733e-18
9911.45087 2.86080e-18
9912.31233 2.87741e-18
9913.17380 2.89402e-18
9914.03526 2.90237e-18
9914.89672 2.91070e-18
9915.75818 2.90171e-18
9916.61964 2.89268e-18
9917.48111 2.86954e-18
9918.34257 2.84636e-18
9919.20403 2.81460e-18
9920.07551 2.78282e-18
9920.93697 2.74875e-18
9921.79843 2.71468e-18
9922.65989 2.68470e-18
9923.52136 2.65474e-18
9924.38282 2.63167e-18
9925.24428 2.60862e-18
9926.10574 2.59356e-18
9926.96720 2.57852e-18
9927.82867 2.56729e-18
9928.69013 2.55606e-18
9929.56161 2.54203e-18
9930.42307 2.52800e-18
9931.28453 2.50901e-18
9932.14599 2.49001e-18
9933.00746 2.46701e-18
9933.86892 2.44399e-18
9934.73038 2.41893e-18
9935.59184 2.39387e-18
9936.45330 2.36956e-18
9937.31477 2.34526e-18
9938.17623 2.32544e-18
9939.03769 2.30564e-18
9939.90917 2.29498e-18
9940.77063 2.28436e-18
9941.63209 2.28416e-18
9942.49355 2.28399e-18
9943.35502 2.28939e-18
9944.21648 2.29480e-18
9945.07794 2.30162e-18
9945.93940 2.30844e-18
9946.80086 2.31563e-18
9947.66233 2.32281e-18
9948.52379 2.32914e-18
9949.39527 2.33547e-18
9950.25673 2.33863e-18
9951.11819 2.34178e-18
9951.97965 2.34027e-18
9952.84112 2.33875e-18
9953.70258 2.33557e-18
9954.56404 2.33239e-18
9955.42550 2.33085e-18
9956.28696 2.32931e-18
9957.14843 2.32720e-18
9958.00989 2.32509e-18
9958.88137 2.31936e-18
9959.74283 2.31361e-18
9960.60429 2.30271e-18
9961.46575 2.29179e-18
9962.32721 2.27471e-18
9963.18868 2.25761e-18
9964.05014 2.23946e-18
9964.91160 2.22131e-18
9965.77306 2.21064e-18
9966.63452 2.19999e-18
9967.49599 2.19880e-18
9968.36747 2.19763e-18
9969.22893 2.20262e-18
9970.09039 2.20763e-18
9970.95185 2.21829e-18
9971.81331 2.22897e-18
9972.67477 2.24776e-18
9973.53624 2.26657e-18
9974.39770 2.29245e-18
9975.25916 2.31836e-18
9976.12062 2.34580e-18
9976.98208 2.37325e-18
9977.85356 2.39785e-18
9978.71503 2.42244e-18
9979.57649 2.44207e-18
9980.43795 2.46170e-18
9981.29941 2.47564e-18
9982.16087 2.48956e-18
9983.02234 2.50076e-18
9983.88380 2.51196e-18
9984.74526 2.52342e-18
9985.60672 2.53488e-18
9986.46818 2.54809e-18
9987.32965 2.56129e-18
9988.20112 2.57701e-18
9989.06259 2.59273e-18
9989.92405 2.60542e-18
9990.78551 2.61811e-18
9991.64697 2.62150e-18
9992.50843 2.62486e-18
9993.36990 2.62366e-18
9994.23136 2.62244e-18
9995.09282 2.62470e-18
9995.95428 2.62698e-18
9996.81574 2.63133e-18
9997.67721 2.63569e-18
9998.54869 2.63701e-18
9999.41015 2.63831e-18
