# wavelength flux
3719.99603 3.27833e-18
3721.49933 4.06464e-18
3723.00263 3.51637e-18
3724.49590 2.76656e-18
3725.99920 2.50998e-18
3727.50250 3.40935e-18
3728.99578 4.57665e-18
3730.49908 4.62580e-18
3732.00238 4.62174e-18
3733.49566 4.26827e-18
3734.99896 4.18062e-18
3736.50226 4.23733e-18
3737.99554 3.83968e-18
3739.49884 3.37733e-18
3741.00214 3.03078e-18
3742.49542 3.53648e-18
3743.99872 4.05398e-18
3745.50202 3.16789e-18
3746.99529 2.97570e-18
3748.49859 3.39760e-18
3750.00189 3.38139e-18
3751.49517 3.68668e-18
3752.99847 4.71134e-18
3754.50177 5.02212e-18
3755.99505 3.61643e-18
3757.49835 3.88291e-18
3759.00165 4.00748e-18
3760.50495 3.50867e-18
3761.99823 3.40560e-18
3763.50153 2.81439e-18
3765.00483 3.87092e-18
3766.49811 4.05734e-18
3768.00141 3.54133e-18
3769.50471 3.98540e-18
3770.99798 4.71530e-18
3772.50128 4.00345e-18
3774.00458 3.95348e-18
3775.49786 5.25657e-18
3777.00116 3.64658e-18
3778.50446 4.04408e-18
3779.99774 4.47754e-18
3781.50104 3.95561e-18
3783.00434 4.00847e-18
3784.49762 3.45242e-18
3786.00092 4.31303e-18
3787.50422 4.68471e-18
3788.99750 3.11267e-18
3790.50080 2.32673e-18
3792.00410 3.31914e-18
3793.49737 3.34050e-18
3795.00067 2.82537e-18
3796.50397 3.19452e-18
3797.99725 3.93939e-18
3799.50055 4.46567e-18
3801.00385 4.31635e-18
3802.49713 3.75430e-18
3804.00043 3.86393e-18
3805.50373 4.32247e-18
3806.99701 4.41679e-18
3808.50031 3.68431e-18
3810.00361 3.50129e-18
3811.49689 3.89199e-18
3813.00019 4.08458e-18
3814.50349 3.71255e-18
3815.99676 3.53715e-18
3817.50006 3.01554e-18
3819.00336 3.24485e-18
3820.49664 3.64179e-18
3821.99994 3.75011e-18
3823.50324 3.83803e-18
3824.99652 3.24465e-18
3826.49982 3.62989e-18
3828.00312 3.70519e-18
3829.49640 3.45818e-18
3830.99970 4.27577e-18
3832.50300 3.70493e-18
3833.99628 4.85491e-18
3835.49958 4.66756e-18
3837.00288 4.03728e-18
3838.49615 3.86258e-18
3839.99945 4.16774e-18
3841.50275 4.37160e-18
3842.99603 4.53072e-18
3844.49933 3.32973e-18
3846.00263 3.81287e-18
3847.49591 3.06166e-18
3848.99921 3.63385e-18
3850.50251 4.35573e-18
3851.99579 4.83656e-18
3853.49909 4.60012e-18
3855.00239 5.21753e-18
3856.49567 5.41698e-18
3857.99897 4.78707e-18
3859.50227 4.28381e-18
3860.99554 5.01809e-18
3862.49884 4.91483e-18
3864.00214 4.75135e-18
3865.49542 5.02208e-18
3866.99872 5.18041e-18
3868.50202 5.57727e-18
3869.99530 5.37305e-18
3871.49860 5.08397e-18
3873.00190 5.36346e-18
3874.49518 5.31894e-18
3875.99848 5.28269e-18
3877.50178 6.03548e-18
3878.99506 5.98863e-18
3880.49836 5.74281e-18
3882.00166 6.34268e-18
3883.50496 6.56369e-18
3884.99823 6.40756e-18
3886.50153 6.50197e-18
3888.00483 6.74390e-18
3889.49811 6.68178e-18
3891.00141 6.52882e-18
3892.50471 6.24499e-18
3893.99799 6.75332e-18
3895.50129 6.63631e-18
3897.00459 6.49386e-18
3898.49787 6.83536e-18
3900.00117 6.25732e-18
3901.50447 5.50660e-18
3902.99775 6.69235e-18
3904.50105 7.15433e-18
3906.00435 6.93637e-18
3907.49762 7.74042e-18
3909.00092 7.54010e-18
3910.50422 8.18368e-18
3911.99750 8.14417e-18
3913.50080 7.35517e-18
3915.00410 7.25740e-18
3916.49738 6.94963e-18
3918.00068 6.66848e-18
3919.50398 7.66861e-18
3920.99726 8.03371e-18
3922.50056 7.94120e-18
3924.00386 8.28569e-18
3925.49714 7.96284e-18
3927.00044 7.28798e-18
3928.50374 7.33311e-18
3929.99701 7.73081e-18
3931.50031 7.75247e-18
3933.00361 7.33861e-18
3934.49689 6.41454e-18
3936.00019 6.34650e-18
3937.50349 7.11883e-18
3938.99677 7.65759e-18
3940.50007 7.62366e-18
3942.00337 7.76109e-18
3943.49665 7.72603e-18
3944.99995 7.84204e-18
3946.50325 7.92333e-18
3947.99653 7.70852e-18
3949.49983 7.53280e-18
3951.00313 8.18869e-18
3952.49640 8.24189e-18
3953.99970 7.70239e-18
3955.50300 7.77168e-18
3956.99628 8.13139e-18
3958.49958 7.45789e-18
3960.00288 7.30625e-18
3961.49616 7.92073e-18
3962.99946 8.86537e-18
3964.50276 8.34315e-18
3965.99604 8.12046e-18
3967.49934 8.08223e-18
3969.00264 8.13933e-18
3970.49592 8.11745e-18
3971.99922 8.07959e-18
3973.50252 8.65166e-18
3974.99579 8.43220e-18
3976.49909 9.22048e-18
3978.00239 8.38145e-18
3979.49567 7.75829e-18
3980.99897 8.11125e-18
3982.50227 7.80431e-18
3983.99555 7.82044e-18
3985.49885 8.25812e-18
3987.00215 9.08316e-18
3988.49543 9.30286e-18
3989.99873 8.70361e-18
3991.50203 8.35834e-18
3992.99531 8.75231e-18
3994.49861 8.34469e-18
3996.00191 7.80713e-18
3997.49518 8.20067e-18
3998.99848 8.11423e-18
4000.50178 8.03559e-18
4001.99506 8.56191e-18
4003.49836 8.76086e-18
4005.00166 9.46068e-18
4006.50496 9.88299e-18
4007.99824 9.00158e-18
4009.50154 8.45019e-18
4011.00484 8.94651e-18
4012.49812 9.12227e-18
4014.00142 8.68302e-18
4015.50472 8.64498e-18
4016.99800 8.64157e-18
4018.50130 8.29696e-18
4020.00460 8.51728e-18
4021.49787 8.98978e-18
4023.00117 9.01891e-18
4024.50447 8.73923e-18
4025.99775 8.26011e-18
4027.50105 8.41972e-18
4029.00435 8.93222e-18
4030.49763 9.25808e-18
4032.00093 9.20741e-18
4033.50423 9.00865e-18
4034.99751 8.55178e-18
4036.50081 8.30348e-18
4038.00411 7.76139e-18
4039.49739 8.11902e-18
4041.00069 8.63088e-18
4042.50399 8.91274e-18
4043.99726 8.74849e-18
4045.50056 8.93417e-18
4047.00386 8.36416e-18
4048.49714 7.94973e-18
4050.00044 8.08002e-18
4051.50374 8.54881e-18
4052.99702 8.45677e-18
4054.50032 8.62472e-18
4056.00362 8.64271e-18
4057.49690 8.61965e-18
4059.00020 8.73095e-18
4060.50350 7.71412e-18
4061.99678 8.28227e-18
4063.50008 8.71293e-18
4065.00338 7.81430e-18
4066.49665 7.62506e-18
4067.99995 8.29995e-18
4069.50325 7.81846e-18
4070.99653 7.64708e-18
4072.49983 8.51608e-18
4074.00313 8.97947e-18
4075.49641 8.14827e-18
4076.99971 7.12988e-18
4078.50301 7.18725e-18
4079.99629 7.36022e-18
4081.49959 7.76156e-18
4083.00289 7.71991e-18
4084.49617 7.89556e-18
4085.99947 8.14871e-18
4087.50277 8.35903e-18
4088.99604 7.61648e-18
4090.49934 7.25756e-18
4092.00264 7.94804e-18
4093.49592 8.36145e-18
4094.99922 8.05100e-18
4096.50252 7.89268e-18
4097.99580 7.88823e-18
4099.49910 7.56965e-18
4101.00240 7.58612e-18
4102.49568 7.94568e-18
4103.99898 7.88206e-18
4105.50228 7.70994e-18
4106.99556 7.43053e-18
4108.49886 7.22847e-18
4110.00216 7.43842e-18
4111.49543 7.07939e-18
4112.99873 7.10882e-18
4114.50203 7.19429e-18
4115.99531 7.91366e-18
4117.49861 8.01408e-18
4119.00191 7.53796e-18
4120.49519 7.83523e-18
4121.99849 7.92825e-18
4123.50179 7.15572e-18
4124.99507 7.19553e-18
4126.49837 7.96448e-18
4128.00167 7.40524e-18
4129.50497 7.18682e-18
4130.99825 7.10199e-18
4132.50155 7.11040e-18
4134.00485 7.80880e-18
4135.49812 7.87446e-18
4137.00142 8.05698e-18
4138.50472 7.70597e-18
4139.99800 8.02746e-18
4141.50130 7.90332e-18
4143.00460 7.62982e-18
4144.49788 8.03576e-18
4146.00118 7.48338e-18
4147.50448 6.78969e-18
4148.99776 7.67086e-18
4150.50106 7.91792e-18
4152.00436 7.30055e-18
4153.49764 7.47157e-18
4155.00094 7.66876e-18
4156.50424 7.45737e-18
4157.99751 7.30846e-18
4159.50081 7.19435e-18
4161.00411 7.16121e-18
4162.49739 7.60601e-18
4164.00069 7.35937e-18
4165.50399 6.92535e-18
4166.99727 7.06028e-18
4168.50057 7.12277e-18
4170.00387 7.36934e-18
4171.49715 7.74637e-18
4173.00045 7.75520e-18
4174.50375 7.45402e-18
4175.99703 7.45984e-18
4177.50033 7.15307e-18
4179.00363 7.47986e-18
4180.49690 6.95808e-18
4182.00020 7.02771e-18
4183.50350 7.05793e-18
4184.99678 6.89990e-18
4186.50008 6.45047e-18
4188.00338 6.70044e-18
4189.49666 6.77195e-18
4190.99996 7.19377e-18
4192.50326 7.14030e-18
4193.99654 7.42790e-18
4195.49984 7.48084e-18
4197.00314 7.14526e-18
4198.49642 7.41040e-18
4199.99972 6.92706e-18
4201.50302 6.86457e-18
4202.99629 6.96551e-18
4204.49959 7.15302e-18
4206.00289 7.48740e-18
4207.49617 7.17188e-18
4208.99947 7.46595e-18
4210.50277 7.15920e-18
4211.99605 6.99455e-18
4213.49935 6.70659e-18
4215.00265 7.07610e-18
4216.49593 7.44200e-18
4217.99923 7.57312e-18
4219.50253 7.86875e-18
4220.99581 7.45838e-18
4222.49911 7.33573e-18
4224.00241 7.51044e-18
4225.49568 7.31565e-18
4226.99898 6.98982e-18
4228.50228 7.20747e-18
4229.99556 7.49724e-18
4231.49886 7.46014e-18
4233.00216 7.42813e-18
4234.49544 7.62164e-18
4235.99874 7.40842e-18
4237.50204 7.26596e-18
4238.99532 7.51684e-18
4240.49862 7.66621e-18
4242.00192 7.69422e-18
4243.49520 7.50193e-18
4244.99850 7.58911e-18
4246.50180 7.81856e-18
4247.99507 7.60446e-18
4249.49837 7.28778e-18
4251.00167 7.69950e-18
4252.50497 7.54723e-18
4253.99825 7.42475e-18
4255.50155 7.32681e-18
4257.00485 7.51944e-18
4258.49813 7.35740e-18
4260.00143 8.04300e-18
4261.50473 8.00812e-18
4262.99801 7.59322e-18
4264.50131 7.77472e-18
4266.00461 7.47510e-18
4267.49789 7.21954e-18
4269.00119 7.69888e-18
4270.50449 7.93564e-18
4271.99776 7.24893e-18
4273.50106 7.09818e-18
4275.00436 7.64326e-18
4276.49764 7.33295e-18
4278.00094 7.74579e-18
4279.50424 7.72727e-18
4280.99752 7.19250e-18
4282.50082 7.65732e-18
4284.00412 7.88449e-18
4285.49740 7.44669e-18
4287.00070 7.49834e-18
4288.50400 7.71369e-18
4289.99728 7.66925e-18
4291.50058 7.86470e-18
4293.00388 7.91824e-18
4294.49715 7.73521e-18
4296.00045 7.92479e-18
4297.50375 7.66065e-18
4298.99703 7.33556e-18
4300.50033 7.68862e-18
4302.00363 7.89451e-18
4303.49691 7.89451e-18
4305.00021 8.20023e-18
4306.50351 7.97013e-18
4307.99679 7.98107e-18
4309.50009 7.99503e-18
4311.00339 7.82895e-18
4312.49667 7.84016e-18
4313.99997 7.64915e-18
4315.50327 7.62469e-18
4316.99654 7.73971e-18
4318.49984 7.60224e-18
4320.00314 7.89459e-18
4321.49642 7.62870e-18
4322.99972 7.51627e-18
4324.50302 8.09048e-18
4325.99630 7.76938e-18
4327.49960 7.84841e-18
4329.00290 7.83674e-18
4330.49618 7.84694e-18
4331.99948 7.94498e-18
4333.50278 8.08150e-18
4334.99606 8.14816e-18
4336.49936 8.25854e-18
4338.00266 8.20691e-18
4339.49593 8.21312e-18
4340.99923 8.18751e-18
4342.50253 8.13094e-18
4343.99581 7.66222e-18
4345.49911 7.91716e-18
4347.00241 8.55829e-18
4348.49569 8.43194e-18
4349.99899 8.26369e-18
4351.50229 7.96829e-18
4352.99557 8.66938e-18
4354.49887 8.90752e-18
4356.00217 8.35605e-18
4357.49545 8.00857e-18
4358.99875 7.86464e-18
4360.50205 8.07352e-18
4361.99532 8.45529e-18
4363.49862 8.18667e-18
4365.00192 8.32277e-18
4366.49520 8.85987e-18
4367.99850 8.54067e-18
4369.50180 8.06033e-18
4370.99508 8.53596e-18
4372.49838 8.83958e-18
4374.00168 8.95041e-18
4375.50498 9.00193e-18
4376.99826 8.85917e-18
4378.50156 8.50032e-18
4380.00486 8.33799e-18
4381.49814 8.34484e-18
4383.00144 8.56065e-18
4384.50474 9.03737e-18
4385.99801 9.06187e-18
4387.50131 8.75606e-18
4389.00461 8.67278e-18
4390.49789 8.51817e-18
4392.00119 8.50142e-18
4393.50449 8.55370e-18
4394.99777 8.57951e-18
4396.50107 8.44205e-18
4398.00437 8.73660e-18
4399.49765 8.83413e-18
4401.00095 8.52493e-18
4402.50425 8.75391e-18
4403.99753 9.07731e-18
4405.50083 9.09078e-18
4407.00413 9.05469e-18
4408.49740 8.99920e-18
4410.00070 9.13124e-18
4411.50400 8.93362e-18
4412.99728 8.78675e-18
4414.50058 8.90439e-18
4416.00388 9.11710e-18
4417.49716 9.19746e-18
4419.00046 9.24291e-18
4420.50376 9.36082e-18
4421.99704 9.14662e-18
4423.50034 8.81153e-18
4425.00364 9.14449e-18
4426.49692 9.36762e-18
4428.00022 9.45108e-18
4429.50352 9.89005e-18
4430.99679 9.95015e-18
4432.50009 9.58309e-18
4434.00339 9.40478e-18
4435.49667 9.36716e-18
4436.99997 9.09326e-18
4438.50327 9.39490e-18
4439.99655 9.50428e-18
4441.49985 9.37426e-18
4443.00315 9.64345e-18
4444.49643 1.01215e-17
4445.99973 1.04082e-17
4447.50303 1.01974e-17
4448.99631 9.96855e-18
4450.49961 1.05643e-17
4452.00291 1.06217e-17
4453.49618 1.03440e-17
4454.99948 1.05071e-17
4456.50278 1.05579e-17
4457.99606 1.05568e-17
4459.49936 1.09441e-17
4461.00266 1.10420e-17
4462.49594 1.10910e-17
4463.99924 1.06576e-17
4465.50254 1.06474e-17
4466.99582 1.09410e-17
4468.49912 1.12769e-17
4470.00242 1.14683e-17
4471.49570 1.11067e-17
4472.99900 1.10039e-17
4474.50230 1.13648e-17
4475.99557 1.13039e-17
4477.49887 1.12170e-17
4479.00217 1.11871e-17
4480.49545 1.14736e-17
4481.99875 1.18827e-17
4483.50205 1.17635e-17
4484.99533 1.23603e-17
4486.49863 1.28690e-17
4488.00193 1.25069e-17
4489.49521 1.22875e-17
4490.99851 1.24925e-17
4492.50181 1.28434e-17
4493.99509 1.27632e-17
4495.49839 1.28295e-17
4497.00169 1.25958e-17
4498.49496 1.26534e-17
4499.99826 1.28720e-17
4501.50156 1.33066e-17
4503.00486 1.35881e-17
4504.49814 1.31699e-17
4506.00144 1.32760e-17
4507.50474 1.33992e-17
4508.99802 1.41035e-17
4510.50132 1.35424e-17
4512.00462 1.31570e-17
4513.49790 1.36024e-17
4515.00120 1.42412e-17
4516.50450 1.46288e-17
4517.99778 1.45912e-17
4519.50108 1.43516e-17
4521.00438 1.43195e-17
4522.49765 1.45776e-17
4524.00095 1.49193e-17
4525.50425 1.43126e-17
4526.99753 1.41163e-17
4528.50083 1.42070e-17
4530.00413 1.44623e-17
4531.49741 1.49955e-17
4533.00071 1.54862e-17
4534.50401 1.52264e-17
4535.99729 1.51372e-17
4537.50059 1.50869e-17
4539.00389 1.48771e-17
4540.49717 1.48654e-17
4542.00047 1.49508e-17
4543.50377 1.49709e-17
4544.99704 1.52001e-17
4546.50034 1.45962e-17
4548.00364 1.55154e-17
4549.49692 1.55074e-17
4551.00022 1.53585e-17
4552.50352 1.57164e-17
4553.99680 1.54676e-17
4555.50010 1.49401e-17
4557.00340 1.49840e-17
4558.49668 1.55502e-17
4559.99998 1.60319e-17
4561.50328 1.58714e-17
4562.99656 1.57081e-17
4564.49986 1.51991e-17
4566.00316 1.53887e-17
4567.49643 1.61491e-17
4568.99973 1.58932e-17
4570.50303 1.54737e-17
4571.99631 1.59121e-17
4573.49961 1.58350e-17
4575.00291 1.55630e-17
4576.49619 1.54876e-17
4577.99949 1.50831e-17
4579.50279 1.53264e-17
4580.99607 1.55880e-17
4582.49937 1.55059e-17
4584.00267 1.61903e-17
4585.49595 1.60740e-17
4586.99925 1.59972e-17
4588.50255 1.59043e-17
4589.99582 1.58707e-17
4591.49912 1.63336e-17
4593.00242 1.66927e-17
4594.49570 1.63992e-17
4595.99900 1.62840e-17
4597.50230 1.63297e-17
4598.99558 1.62141e-17
4600.49888 1.59079e-17
4602.00218 1.60597e-17
4603.49546 1.63148e-17
4604.99876 1.62093e-17
4606.50206 1.60782e-17
4607.99534 1.56242e-17
4609.49864 1.57796e-17
4611.00194 1.59143e-17
4612.49521 1.58305e-17
4613.99851 1.63678e-17
4615.50181 1.62516e-17
4616.99509 1.59972e-17
4618.49839 1.65148e-17
4620.00169 1.57371e-17
4621.49497 1.51628e-17
4622.99827 1.56179e-17
4624.50157 1.63277e-17
4626.00487 1.61501e-17
4627.49815 1.56654e-17
4629.00145 1.56785e-17
4630.50475 1.55264e-17
4631.99803 1.53965e-17
4633.50133 1.57884e-17
4635.00463 1.55131e-17
4636.49790 1.54272e-17
4638.00120 1.55428e-17
4639.50450 1.57335e-17
4640.99778 1.57419e-17
4642.50108 1.58111e-17
4644.00438 1.55716e-17
4645.49766 1.52410e-17
4647.00096 1.54256e-17
4648.50426 1.54475e-17
4649.99754 1.52457e-17
4651.50084 1.54188e-17
4653.00414 1.55842e-17
4654.49742 1.51254e-17
4656.00072 1.48342e-17
4657.50402 1.47625e-17
4658.99729 1.49366e-17
4660.50059 1.50235e-17
4662.00389 1.47915e-17
4663.49717 1.48467e-17
4665.00047 1.48077e-17
4666.50377 1.45957e-17
4667.99705 1.42715e-17
4669.50035 1.40899e-17
4671.00365 1.42674e-17
4672.49693 1.43319e-17
4674.00023 1.39516e-17
4675.50353 1.38917e-17
4676.99681 1.43072e-17
4678.50011 1.40282e-17
4680.00341 1.35934e-17
4681.49668 1.35416e-17
4682.99998 1.34055e-17
4684.50328 1.32646e-17
4685.99656 1.32904e-17
4687.49986 1.35141e-17
4689.00316 1.33497e-17
4690.49644 1.34060e-17
4691.99974 1.35670e-17
4693.50304 1.33262e-17
4694.99632 1.34703e-17
4696.49962 1.32091e-17
4698.00292 1.30470e-17
4699.49620 1.33288e-17
4700.99950 1.32811e-17
4702.50280 1.29944e-17
4703.99607 1.33045e-17
4705.49937 1.33625e-17
4707.00267 1.31621e-17
4708.49595 1.31270e-17
4709.99925 1.29259e-17
4711.50255 1.24627e-17
4712.99583 1.22480e-17
4714.49913 1.23981e-17
4716.00243 1.25050e-17
4717.49571 1.24459e-17
4718.99901 1.23997e-17
4720.50231 1.22004e-17
4721.99559 1.21134e-17
4723.49889 1.23658e-17
4725.00219 1.25668e-17
4726.49546 1.25290e-17
4727.99876 1.22431e-17
4729.50206 1.22605e-17
4730.99534 1.25265e-17
4732.49864 1.25977e-17
4734.00194 1.24988e-17
4735.49522 1.25326e-17
4736.99852 1.24717e-17
4738.50182 1.24583e-17
4739.99510 1.24007e-17
4741.49840 1.22438e-17
4743.00170 1.24310e-17
4744.49498 1.26245e-17
4745.99828 1.25353e-17
4747.50158 1.24096e-17
4749.00488 1.24998e-17
4750.49815 1.25788e-17
4752.00145 1.24081e-17
4753.50475 1.23485e-17
4754.99803 1.24022e-17
4756.50133 1.23791e-17
4758.00463 1.24444e-17
4759.49791 1.24006e-17
4761.00121 1.20312e-17
4762.50451 1.22859e-17
4763.99779 1.20697e-17
4765.50109 1.17129e-17
4767.00439 1.22365e-17
4768.49767 1.25536e-17
4770.00097 1.18917e-17
4771.50427 1.19527e-17
4772.99754 1.16613e-17
4774.50084 1.15085e-17
4776.00414 1.19646e-17
4777.49742 1.21920e-17
4779.00072 1.22792e-17
4780.50402 1.17039e-17
4781.99730 1.20286e-17
4783.50060 1.25071e-17
4785.00390 1.20883e-17
4786.49718 1.18642e-17
4788.00048 1.18625e-17
4789.50378 1.20417e-17
4790.99706 1.22087e-17
4792.50036 1.23288e-17
4794.00366 1.25204e-17
4795.49693 1.23879e-17
4797.00023 1.20576e-17
4798.50353 1.17270e-17
4799.99681 1.18493e-17
4801.50011 1.22588e-17
4803.00341 1.27340e-17
4804.49669 1.29790e-17
4805.99999 1.25032e-17
4807.50329 1.22265e-17
4808.99657 1.24964e-17
4810.49987 1.25075e-17
4812.00317 1.22675e-17
4813.49645 1.24146e-17
4814.99975 1.20823e-17
4816.50305 1.21751e-17
4817.99632 1.24082e-17
4819.49962 1.22199e-17
4821.00292 1.22139e-17
4822.49620 1.23524e-17
4823.99950 1.23803e-17
4825.50280 1.25710e-17
4826.99608 1.21067e-17
4828.49938 1.22039e-17
4830.00268 1.20406e-17
4831.49596 1.22808e-17
4832.99926 1.22353e-17
4834.50256 1.22904e-17
4835.99584 1.24301e-17
4837.49914 1.21173e-17
4839.00244 1.23524e-17
4840.49571 1.26095e-17
4841.99901 1.29252e-17
4843.50231 1.23682e-17
4844.99559 1.23766e-17
4846.49889 1.31484e-17
4848.00219 1.32161e-17
4849.49547 1.29578e-17
4850.99877 1.30695e-17
4852.50207 1.29648e-17
4853.99535 1.26970e-17
4855.49865 1.25703e-17
4857.00195 1.29118e-17
4858.49523 1.25515e-17
4859.99853 1.24374e-17
4861.50183 1.26507e-17
4862.99510 1.25852e-17
4864.49840 1.25565e-17
4866.00170 1.27399e-17
4867.49498 1.27133e-17
4868.99828 1.26397e-17
4870.50158 1.25972e-17
4872.00488 1.24169e-17
4873.49816 1.22310e-17
4875.00146 1.24711e-17
4876.50476 1.25635e-17
4877.99804 1.27470e-17
4879.50134 1.29576e-17
4881.00464 1.30411e-17
4882.49792 1.30087e-17
4884.00122 1.28468e-17
4885.50452 1.27302e-17
4886.99779 1.27041e-17
4888.50109 1.27444e-17
4890.00439 1.29480e-17
4891.49767 1.26457e-17
4893.00097 1.27670e-17
4894.50427 1.29148e-17
4895.99755 1.28753e-17
4897.50085 1.24235e-17
4899.00415 1.26164e-17
4900.49743 1.25490e-17
4902.00073 1.27544e-17
4903.50403 1.29646e-17
4904.99731 1.25418e-17
4906.50061 1.19260e-17
4908.00391 1.21605e-17
4909.49718 1.23863e-17
4911.00048 1.24182e-17
4912.50378 1.23383e-17
4913.99706 1.22886e-17
4915.50036 1.20658e-17
4917.00366 1.19049e-17
4918.49694 1.19401e-17
4920.00024 1.22189e-17
4921.50354 1.23726e-17
4922.99682 1.20479e-17
4924.50012 1.22315e-17
4926.00342 1.20206e-17
4927.49670 1.14739e-17
4929.00000 1.17365e-17
4930.50330 1.15670e-17
4931.99657 1.13944e-17
4933.49987 1.18415e-17
4935.00317 1.21163e-17
4936.49645 1.15819e-17
4937.99975 1.16576e-17
4939.50305 1.17784e-17
4940.99633 1.14447e-17
4942.49963 1.12810e-17
4944.00293 1.18579e-17
4945.49621 1.19871e-17
4946.99951 1.17405e-17
4948.50281 1.18059e-17
4949.99609 1.19503e-17
4951.49939 1.20740e-17
4953.00269 1.18528e-17
4954.49596 1.17808e-17
4955.99926 1.20686e-17
4957.50256 1.19921e-17
4958.99584 1.20043e-17
4960.49914 1.19551e-17
4962.00244 1.20156e-17
4963.49572 1.21767e-17
4964.99902 1.22508e-17
4966.50232 1.21906e-17
4967.99560 1.25327e-17
4969.49890 1.24321e-17
4971.00220 1.21411e-17
4972.49548 1.18230e-17
4973.99878 1.20872e-17
4975.50208 1.18694e-17
4976.99535 1.22375e-17
4978.49865 1.23231e-17
4980.00195 1.19069e-17
4981.49523 1.16655e-17
4982.99853 1.19615e-17
4984.50183 1.18554e-17
4985.99511 1.21874e-17
4987.49841 1.19855e-17
4989.00171 1.20117e-17
4990.49499 1.18169e-17
4991.99829 1.17127e-17
4993.50159 1.19744e-17
4995.00489 1.17281e-17
4996.49817 1.13953e-17
4998.00147 1.12286e-17
4999.50477 1.15767e-17
5000.99804 1.15867e-17
5002.50134 1.12984e-17
5004.00464 1.10397e-17
5005.49792 1.11752e-17
5007.00122 1.12985e-17
5008.50452 1.14719e-17
5009.99780 1.12400e-17
5011.50110 1.10520e-17
5013.00440 1.10360e-17
5014.49768 1.10868e-17
5016.00098 1.11239e-17
5017.50428 1.12666e-17
5018.99756 1.11255e-17
5020.50086 1.09184e-17
5022.00416 1.06424e-17
5023.49743 1.06869e-17
5025.00073 1.09838e-17
5026.50403 1.08724e-17
5027.99731 1.05684e-17
5029.50061 1.07134e-17
5031.00391 1.09789e-17
5032.49719 1.09166e-17
5034.00049 1.07836e-17
5035.50379 1.07034e-17
5036.99707 1.06699e-17
5038.50037 1.08899e-17
5040.00367 1.10961e-17
5041.49695 1.09266e-17
5043.00025 1.05519e-17
5044.50355 1.05752e-17
5045.99682 1.11676e-17
5047.50012 1.10105e-17
5049.00342 1.10958e-17
5050.49670 1.10777e-17
5052.00000 1.12137e-17
5053.50330 1.11738e-17
5054.99658 1.07710e-17
5056.49988 1.04632e-17
5058.00318 1.12840e-17
5059.49646 1.15566e-17
5060.99976 1.13528e-17
5062.50306 1.12887e-17
5063.99634 1.11879e-17
5065.49964 1.11402e-17
5067.00294 1.12094e-17
5068.49621 1.15926e-17
5069.99951 1.16942e-17
5071.50281 1.17505e-17
5072.99609 1.14776e-17
5074.49939 1.14885e-17
5076.00269 1.14958e-17
5077.49597 1.16110e-17
5078.99927 1.19468e-17
5080.50257 1.19799e-17
5081.99585 1.21089e-17
5083.49915 1.21128e-17
5085.00245 1.19822e-17
5086.49573 1.22430e-17
5087.99903 1.22350e-17
5089.50233 1.22178e-17
5090.99560 1.24257e-17
5092.49890 1.25055e-17
5094.00220 1.25642e-17
5095.49548 1.25360e-17
5096.99878 1.23631e-17
5098.50208 1.24844e-17
5099.99536 1.26663e-17
5101.49866 1.28349e-17
5103.00196 1.29246e-17
5104.49524 1.28295e-17
5105.99854 1.27336e-17
5107.50184 1.29001e-17
5108.99512 1.29182e-17
5110.49842 1.31618e-17
5112.00172 1.32837e-17
5113.49499 1.31280e-17
5114.99829 1.33778e-17
5116.50159 1.34207e-17
5118.00489 1.30626e-17
5119.49817 1.34549e-17
5121.00147 1.35104e-17
5122.50477 1.34321e-17
5123.99805 1.35551e-17
5125.50135 1.34081e-17
5127.00465 1.32853e-17
5128.49793 1.34346e-17
5130.00123 1.35187e-17
5131.50453 1.38404e-17
5132.99781 1.36637e-17
5134.50111 1.35663e-17
5136.00441 1.38765e-17
5137.49768 1.37418e-17
5139.00098 1.37979e-17
5140.50428 1.39267e-17
5141.99756 1.41131e-17
5143.50086 1.38049e-17
5145.00416 1.40410e-17
5146.49744 1.43057e-17
5148.00074 1.41251e-17
5149.50404 1.38671e-17
5150.99732 1.41854e-17
5152.50062 1.45422e-17
5154.00392 1.41682e-17
5155.49720 1.40052e-17
5157.00050 1.43711e-17
5158.50380 1.45266e-17
5159.99707 1.44773e-17
5161.50037 1.40290e-17
5163.00367 1.40090e-17
5164.49695 1.43268e-17
5166.00025 1.43652e-17
5167.50355 1.42891e-17
5168.99683 1.43523e-17
5170.50013 1.46306e-17
5172.00343 1.48746e-17
5173.49671 1.47679e-17
5175.00001 1.43444e-17
5176.50331 1.44853e-17
5177.99659 1.46914e-17
5179.49989 1.48085e-17
5181.00319 1.50661e-17
5182.49646 1.52526e-17
5183.99976 1.51993e-17
5185.50306 1.50611e-17
5186.99634 1.53851e-17
5188.49964 1.57336e-17
5190.00294 1.55973e-17
5191.49622 1.54931e-17
5192.99952 1.54949e-17
5194.50282 1.55515e-17
5195.99610 1.56377e-17
5197.49940 1.60612e-17
5199.00270 1.61060e-17
5200.49598 1.63162e-17
5201.99928 1.63215e-17
5203.50258 1.61046e-17
5204.99585 1.61475e-17
5206.49915 1.62150e-17
5208.00245 1.63535e-17
5209.49573 1.64547e-17
5210.99903 1.64935e-17
5212.50233 1.59925e-17
5213.99561 1.60860e-17
5215.49891 1.62957e-17
5217.00221 1.63663e-17
5218.49549 1.64334e-17
5219.99879 1.63894e-17
5221.50209 1.62635e-17
5222.99537 1.60475e-17
5224.49867 1.57816e-17
5226.00197 1.63011e-17
5227.49524 1.64790e-17
5228.99854 1.62765e-17
5230.50184 1.61379e-17
5231.99512 1.59288e-17
5233.49842 1.58617e-17
5235.00172 1.60749e-17
5236.49500 1.62086e-17
5237.99830 1.62593e-17
5239.50160 1.62648e-17
5241.00490 1.62670e-17
5242.49818 1.62725e-17
5244.00148 1.62532e-17
5245.50478 1.64070e-17
5246.99806 1.62923e-17
5248.50136 1.60027e-17
5250.00466 1.62872e-17
5251.49793 1.64604e-17
5253.00123 1.61708e-17
5254.50453 1.62072e-17
5255.99781 1.62079e-17
5257.50111 1.63170e-17
5259.00441 1.64733e-17
5260.49769 1.63740e-17
5262.00099 1.66674e-17
5263.50429 1.67094e-17
5264.99757 1.66970e-17
5266.50087 1.66887e-17
5268.00417 1.67935e-17
5269.49745 1.67293e-17
5271.00075 1.67351e-17
5272.50405 1.67869e-17
5273.99732 1.67346e-17
5275.50062 1.66438e-17
5277.00392 1.65338e-17
5278.49720 1.65194e-17
5280.00050 1.67675e-17
5281.50380 1.70092e-17
5282.99708 1.67550e-17
5284.50038 1.68007e-17
5286.00368 1.73149e-17
5287.49696 1.71188e-17
5289.00026 1.66182e-17
5290.50356 1.69115e-17
5291.99684 1.71280e-17
5293.50014 1.70468e-17
5295.00344 1.72736e-17
5296.49671 1.74410e-17
5298.00001 1.73573e-17
5299.50331 1.72526e-17
5300.99659 1.71182e-17
5302.49989 1.72812e-17
5304.00319 1.75283e-17
5305.49647 1.76161e-17
5306.99977 1.75417e-17
5308.50307 1.75283e-17
5309.99635 1.76671e-17
5311.49965 1.78090e-17
5313.00295 1.79985e-17
5314.49623 1.77880e-17
5315.99953 1.76810e-17
5317.50283 1.77599e-17
5318.99610 1.76313e-17
5320.49940 1.76596e-17
5322.00270 1.76076e-17
5323.49598 1.78338e-17
5324.99928 1.79439e-17
5326.50258 1.75470e-17
5327.99586 1.72173e-17
5329.49916 1.72808e-17
5331.00246 1.75811e-17
5332.49574 1.76935e-17
5333.99904 1.78101e-17
5335.50234 1.79660e-17
5336.99562 1.77044e-17
5338.49892 1.78189e-17
5340.00222 1.77893e-17
5341.49549 1.77009e-17
5342.99879 1.76778e-17
5344.50209 1.76689e-17
5345.99537 1.74738e-17
5347.49867 1.77354e-17
5349.00197 1.77813e-17
5350.49525 1.76426e-17
5351.99855 1.78128e-17
5353.50185 1.77255e-17
5354.99513 1.74960e-17
5356.49843 1.76274e-17
5358.00173 1.81292e-17
5359.49501 1.81512e-17
5360.99831 1.74531e-17
5362.50161 1.75466e-17
5364.00491 1.76148e-17
5365.49818 1.74075e-17
5367.00148 1.75681e-17
5368.50478 1.77797e-17
5369.99806 1.78202e-17
5371.50136 1.76935e-17
5373.00466 1.75202e-17
5374.49794 1.79436e-17
5376.00124 1.82404e-17
5377.50454 1.80520e-17
5378.99782 1.81172e-17
5380.50112 1.80018e-17
5382.00442 1.77523e-17
5383.49770 1.76486e-17
5385.00100 1.77979e-17
5386.50430 1.79466e-17
5387.99757 1.77834e-17
5389.50087 1.78910e-17
5391.00417 1.81320e-17
5392.49745 1.77391e-17
5394.00075 1.75116e-17
5395.50405 1.74857e-17
5396.99733 1.75090e-17
5398.50063 1.76187e-17
5400.00393 1.77802e-17
5401.49721 1.73653e-17
5403.00051 1.73424e-17
5404.50381 1.75867e-17
5405.99709 1.76546e-17
5407.50039 1.75119e-17
5409.00369 1.75568e-17
5410.49696 1.74330e-17
5412.00026 1.72257e-17
5413.50356 1.75179e-17
5414.99684 1.73079e-17
5416.50014 1.75294e-17
5418.00344 1.72540e-17
5419.49672 1.73285e-17
5421.00002 1.76248e-17
5422.50332 1.70056e-17
5423.99660 1.69040e-17
5425.49990 1.74247e-17
5427.00320 1.71558e-17
5428.49648 1.72287e-17
5429.99978 1.74918e-17
5431.50308 1.74450e-17
5432.99635 1.75821e-17
5434.49965 1.74877e-17
5436.00295 1.74593e-17
5437.49623 1.73704e-17
5438.99953 1.73189e-17
5440.50283 1.73142e-17
5441.99611 1.73539e-17
5443.49941 1.75399e-17
5445.00271 1.78796e-17
5446.49599 1.77991e-17
5447.99929 1.76704e-17
5449.50259 1.76336e-17
5450.99587 1.76630e-17
5452.49917 1.78894e-17
5454.00247 1.79539e-17
5455.49574 1.79614e-17
5456.99904 1.80494e-17
5458.50234 1.81042e-17
5459.99562 1.81513e-17
5461.49892 1.82051e-17
5463.00222 1.83975e-17
5464.49550 1.83897e-17
5465.99880 1.86431e-17
5467.50210 1.86413e-17
5468.99538 1.86690e-17
5470.49868 1.90081e-17
5472.00198 1.88110e-17
5473.49526 1.83869e-17
5474.99856 1.85453e-17
5476.50186 1.88324e-17
5477.99513 1.86340e-17
5479.49843 1.86367e-17
5481.00173 1.87944e-17
5482.49501 1.88922e-17
5483.99831 1.88879e-17
5485.50161 1.87219e-17
5487.00491 1.91377e-17
5488.49819 1.87372e-17
5490.00149 1.84002e-17
5491.50479 1.85512e-17
5492.99807 1.88243e-17
5494.50137 1.86601e-17
5496.00467 1.86181e-17
5497.49795 1.84348e-17
5499.00125 1.84433e-17
5500.50455 1.89028e-17
5501.99782 1.85439e-17
5503.50112 1.83685e-17
5505.00442 1.83795e-17
5506.49770 1.82671e-17
5508.00100 1.82099e-17
5509.50430 1.84314e-17
5510.99758 1.85817e-17
5512.50088 1.81644e-17
5514.00418 1.81560e-17
5515.49746 1.79422e-17
5517.00076 1.75131e-17
5518.50406 1.75371e-17
5519.99734 1.77033e-17
5521.50064 1.75877e-17
5523.00394 1.75135e-17
5524.49721 1.75135e-17
5526.00051 1.74424e-17
5527.50381 1.71976e-17
5528.99709 1.71715e-17
5530.50039 1.68609e-17
5532.00369 1.66431e-17
5533.49697 1.66380e-17
5535.00027 1.65685e-17
5536.50357 1.64539e-17
5537.99685 1.62050e-17
5539.50015 1.60272e-17
5541.00345 1.62077e-17
5542.49673 1.62409e-17
5544.00003 1.58280e-17
5545.50333 1.56572e-17
5546.99660 1.51671e-17
5548.49990 1.53122e-17
5550.00320 1.54978e-17
5551.49648 1.54006e-17
5552.99978 1.52124e-17
5554.50308 1.51538e-17
5555.99636 1.52502e-17
5557.49966 1.52724e-17
5559.00296 1.48242e-17
5560.49624 1.47574e-17
5561.99954 1.48414e-17
5563.50284 1.49783e-17
5564.99612 1.48686e-17
5566.49942 1.49059e-17
5568.00272 1.46302e-17
5569.49599 1.47912e-17
5570.99929 1.48014e-17
5572.50259 1.43620e-17
5573.99587 1.44514e-17
5575.49917 1.47985e-17
5577.00247 1.50127e-17
5578.49575 1.46685e-17
5579.99905 1.43119e-17
5581.50235 1.43324e-17
5582.99563 1.45350e-17
5584.49893 1.41669e-17
5586.00223 1.41830e-17
5587.49551 1.45246e-17
5588.99881 1.46707e-17
5590.50211 1.43784e-17
5591.99538 1.42132e-17
5593.49868 1.42615e-17
5595.00198 1.41529e-17
5596.49526 1.40735e-17
5597.99856 1.39554e-17
5599.50186 1.37996e-17
5600.99514 1.37193e-17
5602.49844 1.38675e-17
5604.00174 1.40611e-17
5605.49502 1.42137e-17
5606.99832 1.44655e-17
5608.50162 1.44746e-17
5610.00492 1.43393e-17
5611.49820 1.41872e-17
5613.00150 1.38455e-17
5614.50480 1.36356e-17
5615.99807 1.37105e-17
5617.50137 1.38022e-17
5619.00467 1.35521e-17
5620.49795 1.34459e-17
5622.00125 1.33763e-17
5623.50455 1.31641e-17
5624.99783 1.31909e-17
5626.50113 1.32011e-17
5628.00443 1.31330e-17
5629.49771 1.31006e-17
5631.00101 1.34878e-17
5632.50431 1.35532e-17
5633.99759 1.27910e-17
5635.50089 1.25729e-17
5637.00419 1.27279e-17
5638.49746 1.27699e-17
5640.00076 1.25036e-17
5641.50406 1.24967e-17
5642.99734 1.27710e-17
5644.50064 1.25404e-17
5646.00394 1.25035e-17
5647.49722 1.25777e-17
5649.00052 1.23324e-17
5650.50382 1.21630e-17
5651.99710 1.21016e-17
5653.50040 1.19225e-17
5655.00370 1.18658e-17
5656.49698 1.19404e-17
5658.00028 1.17751e-17
5659.50358 1.15830e-17
5660.99685 1.16019e-17
5662.50015 1.16164e-17
5664.00345 1.15762e-17
5665.49673 1.15187e-17
5667.00003 1.12894e-17
5668.50333 1.11743e-17
5669.99661 1.12962e-17
5671.49991 1.11820e-17
5673.00321 1.10027e-17
5674.49649 1.09812e-17
5675.99979 1.10746e-17
5677.50309 1.12306e-17
5678.99637 1.09806e-17
5680.49967 1.06975e-17
5682.00297 1.06805e-17
5683.49624 1.07899e-17
5684.99954 1.08239e-17
5686.50284 1.08403e-17
5687.99612 1.08785e-17
5689.49942 1.04778e-17
5691.00272 1.05074e-17
5692.49600 1.07772e-17
5693.99930 1.04101e-17
5695.50260 1.03461e-17
5696.99588 1.02730e-17
5698.49918 1.01940e-17
5700.00248 1.03808e-17
5701.49576 1.02000e-17
5702.99906 1.01691e-17
5704.50236 9.92148e-18
5705.99563 1.01721e-17
5707.49893 1.01278e-17
5709.00223 1.00534e-17
5710.49551 1.01584e-17
5711.99881 1.02503e-17
5713.50211 1.03042e-17
5714.99539 1.01678e-17
5716.49869 1.01541e-17
5718.00199 1.00715e-17
5719.49527 1.00471e-17
5720.99857 9.99948e-18
5722.50187 1.01602e-17
5723.99515 1.00342e-17
5725.49845 1.00705e-17
5727.00175 1.03102e-17
5728.49502 1.03087e-17
5729.99832 1.02942e-17
5731.50162 1.04428e-17
5733.00492 1.04546e-17
5734.49820 1.03820e-17
5736.00150 1.03146e-17
5737.50480 1.01268e-17
5738.99808 1.04493e-17
5740.50138 1.07642e-17
5742.00468 1.06129e-17
5743.49796 1.07731e-17
5745.00126 1.06881e-17
5746.50456 1.07843e-17
5747.99784 1.08961e-17
5749.50114 1.09203e-17
5751.00444 1.08792e-17
5752.49771 1.07029e-17
5754.00101 1.08333e-17
5755.50431 1.06128e-17
5756.99759 1.07796e-17
5758.50089 1.09038e-17
5760.00419 1.09268e-17
5761.49747 1.07688e-17
5763.00077 1.01896e-17
5764.50407 1.03116e-17
5765.99735 1.07602e-17
5767.50065 1.06953e-17
5769.00395 1.05598e-17
5770.49723 1.08534e-17
5772.00053 1.06316e-17
5773.50383 1.04110e-17
5774.99710 1.06321e-17
5776.50040 1.04480e-17
5778.00370 1.04443e-17
5779.49698 1.03805e-17
5781.00028 1.05200e-17
5782.50358 1.05569e-17
5783.99686 1.06347e-17
5785.50016 1.07229e-17
5787.00346 1.05492e-17
5788.49674 1.06329e-17
5790.00004 1.04112e-17
5791.50334 1.04458e-17
5792.99662 1.06744e-17
5794.49992 1.08972e-17
5796.00322 1.06848e-17
5797.49649 1.05548e-17
5798.99979 1.11214e-17
5800.50309 1.11690e-17
5801.99637 1.11434e-17
5803.49967 1.12745e-17
5805.00297 1.15978e-17
5806.49625 1.18647e-17
5807.99955 1.18480e-17
5809.50285 1.15952e-17
5810.99613 1.16505e-17
5812.49943 1.17939e-17
5814.00273 1.20164e-17
5815.49601 1.22157e-17
5816.99931 1.22108e-17
5818.50261 1.22057e-17
5819.99588 1.21778e-17
5821.49918 1.21933e-17
5823.00248 1.22555e-17
5824.49576 1.27329e-17
5825.99906 1.28417e-17
5827.50236 1.27603e-17
5828.99564 1.28404e-17
5830.49894 1.31962e-17
5832.00224 1.32468e-17
5833.49552 1.33807e-17
5834.99882 1.35921e-17
5836.50212 1.34036e-17
5837.99540 1.36574e-17
5839.49870 1.36708e-17
5841.00200 1.39673e-17
5842.49527 1.38457e-17
5843.99857 1.38871e-17
5845.50187 1.39475e-17
5846.99515 1.39521e-17
5848.49845 1.40858e-17
5850.00175 1.41288e-17
5851.49503 1.39755e-17
5852.99833 1.42148e-17
5854.50163 1.43824e-17
5856.00493 1.44753e-17
5857.49821 1.44069e-17
5859.00151 1.47163e-17
5860.50481 1.46148e-17
5861.99809 1.45636e-17
5863.50139 1.44827e-17
5865.00469 1.42785e-17
5866.49796 1.45813e-17
5868.00126 1.48151e-17
5869.50456 1.47623e-17
5870.99784 1.47359e-17
5872.50114 1.47550e-17
5874.00444 1.49633e-17
5875.49772 1.49552e-17
5877.00102 1.46981e-17
5878.50432 1.48314e-17
5879.99760 1.48472e-17
5881.50090 1.47824e-17
5883.00420 1.47075e-17
5884.49748 1.47252e-17
5886.00078 1.47858e-17
5887.50408 1.45038e-17
5888.99735 1.41302e-17
5890.50065 1.39446e-17
5892.00395 1.41579e-17
5893.49723 1.42705e-17
5895.00053 1.40935e-17
5896.50383 1.38625e-17
5897.99711 1.37889e-17
5899.50041 1.40161e-17
5901.00371 1.42214e-17
5902.49699 1.44185e-17
5904.00029 1.43711e-17
5905.50359 1.42187e-17
5906.99687 1.47007e-17
5908.50017 1.48340e-17
5910.00347 1.45672e-17
5911.49674 1.47215e-17
5913.00004 1.47635e-17
5914.50334 1.48463e-17
5915.99662 1.49545e-17
5917.49992 1.50054e-17
5919.00322 1.49145e-17
5920.49650 1.49193e-17
5921.99980 1.50878e-17
5923.50310 1.50205e-17
5924.99638 1.46753e-17
5926.49968 1.45468e-17
5928.00298 1.50453e-17
5929.49626 1.52571e-17
5930.99956 1.53263e-17
5932.50286 1.51237e-17
5933.99613 1.48426e-17
5935.49943 1.53516e-17
5937.00273 1.52539e-17
5938.49601 1.49251e-17
5939.99931 1.48982e-17
5941.50261 1.49775e-17
5942.99589 1.51954e-17
5944.49919 1.49288e-17
5946.00249 1.49237e-17
5947.49577 1.50121e-17
5948.99907 1.51214e-17
5950.50237 1.50818e-17
5951.99565 1.50045e-17
5953.49895 1.51338e-17
5955.00225 1.52009e-17
5956.49552 1.51891e-17
5957.99882 1.49724e-17
5959.50212 1.48477e-17
5960.99540 1.48061e-17
5962.49870 1.47933e-17
5964.00200 1.49151e-17
5965.49528 1.51067e-17
5966.99858 1.50663e-17
5968.50188 1.48086e-17
5970.00518 1.49687e-17
5971.49846 1.50489e-17
5973.00176 1.50967e-17
5974.49504 1.50720e-17
5975.99834 1.52291e-17
5977.50164 1.48396e-17
5979.00494 1.49630e-17
5980.49821 1.51518e-17
5982.00151 1.52140e-17
5983.50481 1.48759e-17
5984.99809 1.50085e-17
5986.50139 1.51924e-17
5988.00469 1.48013e-17
5989.49797 1.50645e-17
5991.00127 1.45669e-17
5992.50457 1.48519e-17
5993.99785 1.47832e-17
5995.50115 1.45965e-17
5997.00445 1.46558e-17
5998.49773 1.45985e-17
6000.00103 1.45051e-17
6001.50433 1.47054e-17
6002.99760 1.47439e-17
6004.50090 1.49456e-17
6006.00420 1.48404e-17
6007.49748 1.46646e-17
6009.00078 1.43922e-17
6010.50408 1.43114e-17
6011.99736 1.42717e-17
6013.50066 1.42535e-17
6015.00396 1.43254e-17
6016.49724 1.43447e-17
6018.00054 1.40772e-17
6019.50384 1.38678e-17
6020.99712 1.39761e-17
6022.50042 1.40122e-17
6024.00372 1.40702e-17
6025.49699 1.40243e-17
6027.00029 1.40785e-17
6028.50359 1.40913e-17
6029.99687 1.40663e-17
6031.50017 1.40952e-17
6033.00347 1.38243e-17
6034.49675 1.36230e-17
6036.00005 1.35109e-17
6037.50335 1.36028e-17
6038.99663 1.35317e-17
6040.49993 1.33386e-17
6042.00323 1.32801e-17
6043.49651 1.31904e-17
6044.99981 1.30750e-17
6046.50311 1.30108e-17
6047.99638 1.29432e-17
6049.49968 1.28755e-17
6051.00298 1.28079e-17
6052.49626 1.28073e-17
6053.99956 1.29452e-17
6055.50286 1.28228e-17
6056.99614 1.27212e-17
6058.49944 1.25649e-17
6060.00274 1.27038e-17
6061.49602 1.27220e-17
6062.99932 1.30612e-17
6064.50262 1.32285e-17
6065.99590 1.31291e-17
6067.49920 1.33014e-17
6069.00250 1.32790e-17
6070.49577 1.31119e-17
6071.99907 1.32065e-17
6073.50237 1.30405e-17
6074.99565 1.30460e-17
6076.49895 1.32079e-17
6078.00225 1.33378e-17
6079.49553 1.34585e-17
6080.99883 1.35576e-17
6082.50213 1.34953e-17
6083.99541 1.33021e-17
6085.49871 1.31562e-17
6087.00201 1.31604e-17
6088.49529 1.31731e-17
6089.99859 1.33575e-17
6091.50189 1.34656e-17
6092.99516 1.35035e-17
6094.49846 1.37049e-17
6096.00176 1.37202e-17
6097.49504 1.36197e-17
6098.99834 1.35050e-17
6100.50164 1.35118e-17
6101.99492 1.35123e-17
6103.49822 1.35204e-17
6105.00152 1.37458e-17
6106.50482 1.39918e-17
6107.99810 1.39824e-17
6109.50140 1.38794e-17
6111.00470 1.39785e-17
6112.49798 1.40623e-17
6114.00128 1.40362e-17
6115.50458 1.40140e-17
6116.99785 1.39551e-17
6118.50115 1.40133e-17
6120.00445 1.42442e-17
6121.49773 1.41207e-17
6123.00103 1.40631e-17
6124.50433 1.44827e-17
6125.99761 1.45672e-17
6127.50091 1.40872e-17
6129.00421 1.41738e-17
6130.49749 1.43919e-17
6132.00079 1.44248e-17
6133.50409 1.44424e-17
6134.99737 1.44895e-17
6136.50067 1.47614e-17
6138.00397 1.45151e-17
6139.49724 1.40915e-17
6141.00054 1.43671e-17
6142.50384 1.46315e-17
6143.99712 1.46968e-17
6145.50042 1.48491e-17
6147.00372 1.48455e-17
6148.49700 1.46709e-17
6150.00030 1.45729e-17
6151.50360 1.51648e-17
6152.99688 1.51456e-17
6154.50018 1.49384e-17
6156.00348 1.51232e-17
6157.49676 1.53712e-17
6159.00006 1.53318e-17
6160.50336 1.53501e-17
6161.99663 1.54733e-17
6163.49993 1.53503e-17
6165.00323 1.53124e-17
6166.49651 1.55620e-17
6167.99981 1.57349e-17
6169.50311 1.57679e-17
6170.99639 1.59405e-17
6172.49969 1.60762e-17
6174.00299 1.60262e-17
6175.49627 1.59422e-17
6176.99957 1.62690e-17
6178.50287 1.62725e-17
6179.99615 1.62950e-17
6181.49945 1.67102e-17
6183.00275 1.67560e-17
6184.49602 1.68000e-17
6185.99932 1.69639e-17
6187.50262 1.73776e-17
6188.99590 1.74578e-17
6190.49920 1.72454e-17
6192.00250 1.74461e-17
6193.49578 1.77833e-17
6194.99908 1.77028e-17
6196.50238 1.78137e-17
6197.99566 1.78150e-17
6199.49896 1.76808e-17
6201.00226 1.77957e-17
6202.49554 1.78988e-17
6203.99884 1.78361e-17
6205.50214 1.77056e-17
6206.99541 1.80342e-17
6208.49871 1.80330e-17
6210.00201 1.81527e-17
6211.49529 1.81272e-17
6212.99859 1.85822e-17
6214.50189 1.82091e-17
6215.99517 1.81579e-17
6217.49847 1.81741e-17
6219.00177 1.78534e-17
6220.49505 1.79546e-17
6221.99835 1.82489e-17
6223.50165 1.78564e-17
6224.99493 1.80384e-17
6226.49823 1.82222e-17
6228.00153 1.84853e-17
6229.50483 1.82693e-17
6230.99810 1.82023e-17
6232.50140 1.81240e-17
6234.00470 1.81705e-17
6235.49798 1.83753e-17
6237.00128 1.83286e-17
6238.50458 1.82758e-17
6239.99786 1.82964e-17
6241.50116 1.81272e-17
6243.00446 1.81587e-17
6244.49774 1.83056e-17
6246.00104 1.82946e-17
6247.50434 1.82599e-17
6248.99762 1.83859e-17
6250.50092 1.85935e-17
6252.00422 1.83107e-17
6253.49749 1.83124e-17
6255.00079 1.84992e-17
6256.50409 1.84061e-17
6257.99737 1.83889e-17
6259.50067 1.82929e-17
6261.00397 1.79794e-17
6262.49725 1.80149e-17
6264.00055 1.82531e-17
6265.50385 1.81029e-17
6266.99713 1.78102e-17
6268.50043 1.75950e-17
6270.00373 1.75232e-17
6271.49701 1.77785e-17
6273.00031 1.76606e-17
6274.50361 1.76355e-17
6275.99688 1.74068e-17
6277.50018 1.68729e-17
6279.00348 1.69004e-17
6280.49676 1.71568e-17
6282.00006 1.74136e-17
6283.50336 1.71392e-17
6284.99664 1.69660e-17
6286.49994 1.74107e-17
6288.00324 1.80950e-17
6289.49652 1.79085e-17
6290.99982 1.74659e-17
6292.50312 1.71620e-17
6293.99640 1.70859e-17
6295.49970 1.71359e-17
6297.00300 1.69116e-17
6298.49627 1.71575e-17
6299.99957 1.73359e-17
6301.50287 1.71235e-17
6302.99615 1.74270e-17
6304.49945 1.74169e-17
6306.00275 1.72300e-17
6307.49603 1.71271e-17
6308.99933 1.71771e-17
6310.50263 1.75035e-17
6311.99591 1.74182e-17
6313.49921 1.70773e-17
6315.00251 1.70090e-17
6316.49579 1.69811e-17
6317.99909 1.69051e-17
6319.50239 1.70002e-17
6320.99566 1.72494e-17
6322.49896 1.74067e-17
6324.00226 1.73381e-17
6325.49554 1.72471e-17
6326.99884 1.70643e-17
6328.50214 1.70689e-17
6329.99542 1.74018e-17
6331.49872 1.74091e-17
6333.00202 1.73099e-17
6334.49530 1.72104e-17
6335.99860 1.68774e-17
6337.50190 1.67059e-17
6338.99518 1.68518e-17
6340.49848 1.66996e-17
6342.00178 1.68372e-17
6343.49505 1.70280e-17
6344.99835 1.70744e-17
6346.50165 1.62886e-17
6347.99493 1.62135e-17
6349.49823 1.62054e-17
6351.00153 1.61587e-17
6352.50483 1.61200e-17
6353.99811 1.64136e-17
6355.50141 1.64737e-17
6357.00471 1.62635e-17
6358.49799 1.61218e-17
6360.00129 1.60806e-17
6361.50459 1.62934e-17
6362.99787 1.62683e-17
6364.50117 1.59797e-17
6366.00447 1.60284e-17
6367.49774 1.59879e-17
6369.00104 1.57783e-17
6370.50434 1.55290e-17
6371.99762 1.54347e-17
6373.50092 1.57378e-17
6375.00422 1.57906e-17
6376.49750 1.54974e-17
6378.00080 1.57398e-17
6379.50410 1.60824e-17
6380.99738 1.60405e-17
6382.50068 1.58419e-17
6384.00398 1.59663e-17
6385.49726 1.60928e-17
6387.00056 1.60080e-17
6388.50386 1.60431e-17
6389.99713 1.58672e-17
6391.50043 1.57309e-17
6393.00373 1.59248e-17
6394.49701 1.59748e-17
6396.00031 1.61190e-17
6397.50361 1.60490e-17
6398.99689 1.61713e-17
6400.50019 1.62238e-17
6402.00349 1.60242e-17
6403.49677 1.60883e-17
6405.00007 1.63810e-17
6406.50337 1.61047e-17
6407.99665 1.61045e-17
6409.49995 1.60656e-17
6411.00325 1.61575e-17
6412.49652 1.60767e-17
6413.99982 1.59665e-17
6415.50312 1.59282e-17
6416.99640 1.59909e-17
6418.49970 1.63537e-17
6420.00300 1.61699e-17
6421.49628 1.60424e-17
6422.99958 1.61055e-17
6424.50288 1.62258e-17
6425.99616 1.62565e-17
6427.49946 1.64460e-17
6429.00276 1.62217e-17
6430.49604 1.60764e-17
6431.99934 1.63397e-17
6433.50264 1.62322e-17
6434.99591 1.60682e-17
6436.49921 1.57859e-17
6438.00251 1.61690e-17
6439.49579 1.62812e-17
6440.99909 1.62545e-17
6442.50239 1.58236e-17
6443.99567 1.56194e-17
6445.49897 1.57076e-17
6447.00227 1.60560e-17
6448.49555 1.59993e-17
6449.99885 1.57651e-17
6451.50215 1.57909e-17
6452.99543 1.57453e-17
6454.49873 1.58388e-17
6456.00203 1.57687e-17
6457.49530 1.55874e-17
6458.99860 1.55760e-17
6460.50190 1.57813e-17
6461.99518 1.59133e-17
6463.49848 1.59913e-17
6465.00178 1.58090e-17
6466.49506 1.57083e-17
6467.99836 1.57719e-17
6469.50166 1.56278e-17
6470.99494 1.55083e-17
6472.49824 1.56164e-17
6474.00154 1.55875e-17
6475.50484 1.53457e-17
6476.99812 1.52860e-17
6478.50142 1.52763e-17
6480.00472 1.53930e-17
6481.49799 1.54928e-17
6483.00129 1.55986e-17
6484.50459 1.53004e-17
6485.99787 1.52441e-17
6487.50117 1.55422e-17
6489.00447 1.53514e-17
6490.49775 1.52581e-17
6492.00105 1.52200e-17
6493.50435 1.51288e-17
6494.99763 1.52299e-17
6496.50093 1.51022e-17
6498.00423 1.50613e-17
6499.49751 1.54032e-17
6501.00081 1.54529e-17
6502.50411 1.54828e-17
6503.99738 1.53226e-17
6505.50068 1.51499e-17
6507.00398 1.50844e-17
6508.49726 1.50448e-17
6510.00056 1.52060e-17
6511.50386 1.52500e-17
6512.99714 1.51215e-17
6514.50044 1.50004e-17
6516.00374 1.47523e-17
6517.49702 1.45217e-17
6519.00032 1.46350e-17
6520.50362 1.49275e-17
6521.99690 1.50380e-17
6523.50020 1.48785e-17
6525.00350 1.49350e-17
6526.49677 1.48989e-17
6528.00007 1.47364e-17
6529.50337 1.50978e-17
6530.99665 1.52510e-17
6532.49995 1.49934e-17
6534.00325 1.50188e-17
6535.49653 1.50417e-17
6536.99983 1.52037e-17
6538.50313 1.53847e-17
6539.99641 1.53325e-17
6541.49971 1.52086e-17
6543.00301 1.50641e-17
6544.49629 1.51250e-17
6545.99959 1.52218e-17
6547.50289 1.51396e-17
6548.99616 1.50883e-17
6550.49946 1.51333e-17
6552.00276 1.52880e-17
6553.49604 1.53429e-17
6554.99934 1.51489e-17
6556.50264 1.49482e-17
6557.99592 1.49652e-17
6559.49922 1.52304e-17
6561.00252 1.50666e-17
6562.49580 1.47198e-17
6563.99910 1.45777e-17
6565.50240 1.48087e-17
6566.99568 1.48006e-17
6568.49898 1.47364e-17
6570.00228 1.46448e-17
6571.49555 1.46418e-17
6572.99885 1.44021e-17
6574.50215 1.46158e-17
6575.99543 1.47313e-17
6577.49873 1.44837e-17
6579.00203 1.46586e-17
6580.49531 1.44124e-17
6581.99861 1.42496e-17
6583.50191 1.44010e-17
6584.99519 1.44021e-17
6586.49849 1.41593e-17
6588.00179 1.40599e-17
6589.49507 1.41960e-17
6590.99837 1.41159e-17
6592.50167 1.42740e-17
6593.99494 1.43118e-17
6595.49824 1.42058e-17
6597.00154 1.43222e-17
6598.50484 1.41856e-17
6599.99812 1.40571e-17
6601.50142 1.40208e-17
6603.00472 1.39515e-17
6604.49800 1.40132e-17
6606.00130 1.39411e-17
6607.50460 1.37863e-17
6608.99788 1.38244e-17
6610.50118 1.39173e-17
6612.00448 1.38849e-17
6613.49776 1.37198e-17
6615.00106 1.35320e-17
6616.50436 1.35339e-17
6617.99763 1.33347e-17
6619.50093 1.34564e-17
6621.00423 1.35378e-17
6622.49751 1.34866e-17
6624.00081 1.34825e-17
6625.50411 1.31213e-17
6626.99739 1.34440e-17
6628.50069 1.35673e-17
6630.00399 1.33982e-17
6631.49727 1.31029e-17
6633.00057 1.30256e-17
6634.50387 1.35171e-17
6635.99715 1.33456e-17
6637.50045 1.35384e-17
6639.00375 1.33170e-17
6640.49702 1.33222e-17
6642.00032 1.34593e-17
6643.50362 1.34866e-17
6644.99690 1.34124e-17
6646.50020 1.33583e-17
6648.00350 1.31784e-17
6649.49678 1.29308e-17
6651.00008 1.30709e-17
6652.50338 1.31899e-17
6653.99666 1.31004e-17
6655.49996 1.30524e-17
6657.00326 1.30532e-17
6658.49654 1.32487e-17
6659.99984 1.33363e-17
6661.50314 1.32019e-17
6662.99641 1.31959e-17
6664.49971 1.32332e-17
6666.00301 1.30873e-17
6667.49629 1.29100e-17
6668.99959 1.28316e-17
6670.50289 1.27039e-17
6671.99617 1.27776e-17
6673.49947 1.28546e-17
6675.00277 1.28252e-17
6676.49605 1.27769e-17
6677.99935 1.27150e-17
6679.50265 1.26894e-17
6680.99593 1.25831e-17
6682.49923 1.25635e-17
6684.00253 1.24992e-17
6685.49580 1.24339e-17
6686.99910 1.25340e-17
6688.50240 1.26011e-17
6689.99568 1.25182e-17
6691.49898 1.24642e-17
6693.00228 1.24623e-17
6694.49556 1.25486e-17
6695.99886 1.23697e-17
6697.50216 1.21369e-17
6698.99544 1.19713e-17
6700.49874 1.20313e-17
6702.00204 1.22686e-17
6703.49532 1.22596e-17
6704.99862 1.20714e-17
6706.50192 1.21182e-17
6707.99519 1.21502e-17
6709.49849 1.17515e-17
6711.00179 1.18144e-17
6712.49507 1.19063e-17
6713.99837 1.18308e-17
6715.50167 1.14239e-17
6716.99495 1.14047e-17
6718.49825 1.18091e-17
6720.00155 1.19403e-17
6721.50485 1.19117e-17
6722.99813 1.17050e-17
6724.50143 1.17611e-17
6726.00473 1.18053e-17
6727.49801 1.17042e-17
6729.00131 1.16995e-17
6730.50461 1.17445e-17
6731.99788 1.16988e-17
6733.50118 1.16675e-17
6735.00448 1.16433e-17
6736.49776 1.16543e-17
6738.00106 1.16669e-17
6739.50436 1.13722e-17
6740.99764 1.12680e-17
6742.50094 1.13691e-17
6744.00424 1.14033e-17
6745.49752 1.14285e-17
6747.00082 1.12140e-17
6748.50412 1.10113e-17
6749.99740 1.10914e-17
6751.50070 1.11320e-17
6753.00400 1.11748e-17
6754.49727 1.13082e-17
6756.00057 1.13079e-17
6757.50387 1.11585e-17
6758.99715 1.10388e-17
6760.50045 1.10180e-17
6762.00375 1.10095e-17
6763.49703 1.09918e-17
6765.00033 1.09937e-17
6766.50363 1.08629e-17
6767.99691 1.09684e-17
6769.50021 1.11082e-17
6771.00351 1.12635e-17
6772.49679 1.10175e-17
6774.00009 1.07375e-17
6775.50339 1.10203e-17
6776.99666 1.07211e-17
6778.49996 1.08920e-17
6780.00326 1.10074e-17
6781.49654 1.06850e-17
6782.99984 1.06513e-17
6784.50314 1.09269e-17
6785.99642 1.09384e-17
6787.49972 1.08669e-17
6789.00302 1.05489e-17
6790.49630 1.05616e-17
6791.99960 1.05478e-17
6793.50290 1.04920e-17
6794.99618 1.05700e-17
6796.49948 1.06867e-17
6798.00278 1.05625e-17
6799.49605 1.06366e-17
6800.99935 1.04223e-17
6802.50265 1.03325e-17
6803.99593 1.05314e-17
6805.49923 1.08032e-17
6807.00253 1.07543e-17
6808.49581 1.05197e-17
6809.99911 1.03493e-17
6811.50241 1.04623e-17
6812.99569 1.04693e-17
6814.49899 1.03239e-17
6816.00229 1.03294e-17
6817.49557 1.02926e-17
6818.99887 1.02082e-17
6820.50217 1.03338e-17
6821.99544 1.02948e-17
6823.49874 1.01439e-17
6825.00204 1.01869e-17
6826.49532 1.01929e-17
6827.99862 1.01639e-17
6829.50192 1.01309e-17
6830.99520 1.00326e-17
6832.49850 1.01730e-17
6834.00180 1.01890e-17
6835.49508 9.94586e-18
6836.99838 9.82420e-18
6838.50168 9.82439e-18
6839.99496 1.02355e-17
6841.49826 1.01495e-17
6843.00156 1.00849e-17
6844.50486 9.84271e-18
6845.99813 9.86285e-18
6847.50143 9.88299e-18
6849.00473 9.90312e-18
6850.49801 9.92326e-18
6852.00131 9.94339e-18
6853.50461 9.96352e-18
6854.99789 9.98365e-18
6856.50119 1.00038e-17
6858.00449 1.00239e-17
6859.49777 1.00440e-17
6861.00107 1.00641e-17
6862.50437 1.00843e-17
6863.99765 1.01044e-17
6865.50095 1.01245e-17
6867.00425 1.01446e-17
6868.49752 1.01647e-17
6870.00082 1.01848e-17
6871.50412 1.02050e-17
6872.99740 1.02251e-17
6874.50070 1.02452e-17
6876.00400 1.02653e-17
6877.49728 1.02854e-17
6879.00058 1.03055e-17
6880.50388 1.03256e-17
6881.99716 1.03457e-17
6883.50046 1.03658e-17
6885.00376 1.03859e-17
6886.49704 1.04060e-17
6888.00034 1.04260e-17
6889.50364 1.04461e-17
6890.99691 1.04662e-17
6892.50021 1.04863e-17
6894.00351 1.05064e-17
6895.49679 1.05265e-17
6897.00009 1.05466e-17
6898.50339 1.05666e-17
6899.99667 1.05867e-17
6901.49997 1.06068e-17
6903.00327 1.06269e-17
6904.49655 1.06469e-17
6905.99985 1.06670e-17
6907.50315 1.06871e-17
6908.99643 1.07071e-17
6910.49973 1.07272e-17
6912.00303 1.07473e-17
6913.49630 1.07673e-17
6914.99960 1.07874e-17
6916.50290 1.08074e-17
6917.99618 1.08275e-17
6919.49948 1.08476e-17
6921.00278 1.08676e-17
6922.49606 1.08877e-17
6923.99936 1.09077e-17
6925.50266 1.09278e-17
6926.99594 1.09478e-17
6928.49924 1.09678e-17
6930.00254 1.09879e-17
6931.49582 1.10079e-17
6932.99912 1.10280e-17
6934.50242 1.10480e-17
6935.99569 1.10680e-17
6937.49899 1.13916e-17
6939.00229 1.15511e-17
6940.49557 1.13834e-17
6941.99887 1.10650e-17
6943.50217 1.09879e-17
6944.99545 1.09468e-17
6946.49875 1.08346e-17
6948.00205 1.06614e-17
6949.49533 1.08649e-17
6950.99863 1.09536e-17
6952.50193 1.10205e-17
6953.99521 1.11902e-17
6955.49851 1.12899e-17
6957.00181 1.11405e-17
6958.50511 1.09793e-17
6959.99838 1.09224e-17
6961.50168 1.10347e-17
6962.99496 1.08834e-17
6964.49826 1.07850e-17
6966.00156 1.08341e-17
6967.50486 1.06015e-17
6968.99814 1.06606e-17
6970.50144 1.09649e-17
6972.00474 1.08315e-17
6973.49802 1.07341e-17
6975.00132 1.08187e-17
6976.50462 1.07619e-17
6977.99790 1.05964e-17
6979.50120 1.05101e-17
6981.00450 1.06032e-17
6982.49777 1.09135e-17
6984.00107 1.12011e-17
6985.50437 1.11373e-17
6986.99765 1.10878e-17
6988.50095 1.09349e-17
6990.00425 1.08187e-17
6991.49753 1.07989e-17
6993.00083 1.05848e-17
6994.50413 1.05782e-17
6995.99741 1.08687e-17
6997.50071 1.11001e-17
6999.00401 1.08752e-17
7000.49729 1.07591e-17
7002.00059 1.08633e-17
7003.50389 1.09425e-17
7004.99716 1.06246e-17
7006.50046 1.05210e-17
7008.00376 1.06235e-17
7009.49704 1.06984e-17
7011.00034 1.07392e-17
7012.50364 1.06945e-17
7013.99692 1.07073e-17
7015.50022 1.09263e-17
7017.00352 1.08940e-17
7018.49680 1.04379e-17
7020.00010 1.07083e-17
7021.50340 1.08051e-17
7022.99668 1.06372e-17
7024.49998 1.06486e-17
7026.00328 1.08341e-17
7027.49655 1.06971e-17
7028.99985 1.06702e-17
7030.50315 1.09376e-17
7031.99643 1.08522e-17
7033.49973 1.09897e-17
7035.00303 1.12817e-17
7036.49631 1.10360e-17
7037.99961 1.07700e-17
7039.50291 1.08831e-17
7040.99619 1.09047e-17
7042.49949 1.07858e-17
7044.00279 1.08428e-17
7045.49607 1.09120e-17
7046.99937 1.09848e-17
7048.50267 1.10225e-17
7049.99594 1.10798e-17
7051.49924 1.13503e-17
7053.00254 1.14951e-17
7054.49582 1.11284e-17
7055.99912 1.10447e-17
7057.50242 1.11105e-17
7058.99570 1.12057e-17
7060.49900 1.11446e-17
7062.00230 1.13043e-17
7063.49558 1.13437e-17
7064.99888 1.11482e-17
7066.50218 1.11027e-17
7067.99546 1.09524e-17
7069.49876 1.12840e-17
7071.00206 1.12928e-17
7072.49533 1.12521e-17
7073.99863 1.10560e-17
7075.50193 1.12790e-17
7076.99521 1.12840e-17
7078.49851 1.12889e-17
7080.00181 1.12939e-17
7081.50511 1.12988e-17
7082.99839 1.13038e-17
7084.50169 1.13087e-17
7085.99497 1.13083e-17
7087.49827 1.12993e-17
7089.00157 1.12338e-17
7090.50487 1.13818e-17
7091.99815 1.13686e-17
7093.50145 1.12824e-17
7095.00475 1.13444e-17
7096.49802 1.13096e-17
7098.00132 1.13649e-17
7099.50462 1.16300e-17
7100.99790 1.15907e-17
7102.50120 1.14138e-17
7104.00450 1.12962e-17
7105.49778 1.14724e-17
7107.00108 1.13782e-17
7108.50438 1.11645e-17
7109.99766 1.11044e-17
7111.50096 1.12693e-17
7113.00426 1.15138e-17
7114.49754 1.14302e-17
7116.00084 1.12976e-17
7117.50414 1.16393e-17
7118.99741 1.18497e-17
7120.50071 1.15933e-17
7122.00401 1.15386e-17
7123.49729 1.15771e-17
7125.00059 1.17892e-17
7126.50389 1.17127e-17
7127.99717 1.15528e-17
7129.50047 1.16020e-17
7131.00377 1.17109e-17
7132.49705 1.16260e-17
7134.00035 1.19573e-17
7135.50365 1.15918e-17
7136.99693 1.12574e-17
7138.50023 1.14458e-17
7140.00353 1.16754e-17
7141.49680 1.13650e-17
7143.00010 1.13679e-17
7144.50340 1.20764e-17
7145.99668 1.20279e-17
7147.49998 1.17707e-17
7149.00328 1.15872e-17
7150.49656 1.15655e-17
7151.99986 1.15678e-17
7153.50316 1.19510e-17
7154.99644 1.22707e-17
7156.49974 1.19971e-17
7158.00304 1.21225e-17
7159.49632 1.24149e-17
7160.99962 1.23193e-17
7162.50292 1.21379e-17
7163.99619 1.21763e-17
7165.49949 1.19731e-17
7167.00279 1.20447e-17
7168.49607 1.23901e-17
7169.99937 1.19571e-17
7171.50267 1.18918e-17
7172.99595 1.18254e-17
7174.49925 1.15293e-17
7176.00255 1.15160e-17
7177.49583 1.15028e-17
7178.99913 1.14895e-17
7180.50243 1.14763e-17
7181.99571 1.14631e-17
7183.49901 1.14626e-17
7185.00231 1.16369e-17
7186.49558 1.17972e-17
7187.99888 1.17703e-17
7189.50218 1.21006e-17
7190.99546 1.21005e-17
7192.49876 1.16093e-17
7194.00206 1.18268e-17
7195.49534 1.20520e-17
7196.99864 1.17664e-17
7198.50194 1.17574e-17
7199.99522 1.20935e-17
7201.49852 1.24884e-17
7203.00182 1.20923e-17
7204.50512 1.18828e-17
7205.99840 1.27900e-17
7207.50170 1.29819e-17
7208.99497 1.30011e-17
7210.49827 1.28957e-17
7212.00157 1.36374e-17
7213.50487 1.40063e-17
7214.99815 1.32782e-17
7216.50145 1.27980e-17
7218.00475 1.33327e-17
7219.49803 1.33591e-17
7221.00133 1.32096e-17
7222.50463 1.28935e-17
7223.99791 1.29451e-17
7225.50121 1.32216e-17
7227.00451 1.29010e-17
7228.49779 1.26671e-17
7230.00109 1.26978e-17
7231.50439 1.26080e-17
7232.99766 1.26771e-17
7234.50096 1.26660e-17
7236.00426 1.27368e-17
7237.49754 1.32183e-17
7239.00084 1.32923e-17
7240.50414 1.29732e-17
7241.99742 1.28780e-17
7243.50072 1.29401e-17
7245.00402 1.27043e-17
7246.49730 1.26396e-17
7248.00060 1.29629e-17
7249.50390 1.29373e-17
7250.99718 1.26601e-17
7252.50048 1.24861e-17
7254.00378 1.23548e-17
7255.49705 1.28365e-17
7257.00035 1.33079e-17
7258.50365 1.32378e-17
7259.99693 1.35873e-17
7261.50023 1.39521e-17
7263.00353 1.35130e-17
7264.49681 1.31587e-17
7266.00011 1.31078e-17
7267.50341 1.32933e-17
7268.99669 1.35703e-17
7270.49999 1.34064e-17
7272.00329 1.30376e-17
7273.49657 1.23183e-17
7274.99987 1.21970e-17
7276.50317 1.28273e-17
7277.99644 1.26077e-17
7279.49974 1.26683e-17
7281.00304 1.35124e-17
7282.49632 1.30009e-17
7283.99962 1.30570e-17
7285.50292 1.31231e-17
7286.99620 1.28763e-17
7288.49950 1.26942e-17
7290.00280 1.26292e-17
7291.49608 1.26465e-17
7292.99938 1.29149e-17
7294.50268 1.29617e-17
7295.99596 1.27817e-17
7297.49926 1.26843e-17
7299.00256 1.27225e-17
7300.49583 1.26507e-17
7301.99913 1.24871e-17
7303.50243 1.23587e-17
7304.99571 1.23454e-17
7306.49901 1.26326e-17
7308.00231 1.30349e-17
7309.49559 1.29011e-17
7310.99889 1.26165e-17
7312.50219 1.24595e-17
7313.99547 1.24010e-17
7315.49877 1.25544e-17
7317.00207 1.27420e-17
7318.49535 1.26858e-17
7319.99865 1.24360e-17
7321.50195 1.23006e-17
7322.99522 1.25447e-17
7324.49852 1.28008e-17
7326.00182 1.27801e-17
7327.50512 1.27972e-17
7328.99840 1.30331e-17
7330.50170 1.27017e-17
7331.99498 1.23837e-17
7333.49828 1.23524e-17
7335.00158 1.21877e-17
7336.50488 1.24221e-17
7337.99816 1.25402e-17
7339.50146 1.20277e-17
7341.00476 1.16522e-17
7342.49804 1.18666e-17
7344.00134 1.24380e-17
7345.50464 1.21361e-17
7346.99791 1.19294e-17
7348.50121 1.21458e-17
7350.00451 1.19621e-17
7351.49779 1.18815e-17
7353.00109 1.17522e-17
7354.50439 1.19123e-17
7355.99767 1.19495e-17
7357.50097 1.17526e-17
7359.00427 1.17789e-17
7360.49755 1.16131e-17
7362.00085 1.13365e-17
7363.50415 1.14606e-17
7364.99743 1.11802e-17
7366.50073 1.13707e-17
7368.00403 1.17809e-17
7369.49730 1.14225e-17
7371.00060 1.13027e-17
7372.50390 1.15087e-17
7373.99718 1.11867e-17
7375.50048 1.10832e-17
7377.00378 1.11773e-17
7378.49706 1.10201e-17
7380.00036 1.09742e-17
7381.50366 1.09746e-17
7382.99694 1.07829e-17
7384.50024 1.07057e-17
7386.00354 1.08145e-17
7387.49682 1.08110e-17
7389.00012 1.04508e-17
7390.50342 1.02866e-17
7391.99669 1.04971e-17
7393.49999 1.05024e-17
7395.00329 1.02140e-17
7396.49657 1.02294e-17
7397.99987 1.02760e-17
7399.50317 1.00925e-17
7400.99645 1.00685e-17
7402.49975 1.01801e-17
7404.00305 1.05749e-17
7405.49633 1.06674e-17
7406.99963 1.01679e-17
7408.50293 9.93337e-18
7409.99621 9.70757e-18
7411.49951 9.68047e-18
7413.00281 9.66335e-18
7414.49608 9.47323e-18
7415.99938 9.41663e-18
7417.50268 9.25820e-18
7418.99596 9.25493e-18
7420.49926 9.61954e-18
7422.00256 9.29158e-18
7423.49584 9.29565e-18
7424.99914 9.00920e-18
7426.50244 8.85709e-18
7427.99572 8.84848e-18
7429.49902 8.89470e-18
7431.00232 9.05905e-18
7432.49560 8.79334e-18
7433.99890 8.71293e-18
7435.50220 8.63673e-18
7436.99547 8.64872e-18
7438.49877 8.72359e-18
7440.00207 8.59380e-18
7441.49535 8.46138e-18
7442.99865 8.32809e-18
7444.50195 8.26722e-18
7445.99523 8.33375e-18
7447.49853 8.18360e-18
7449.00183 8.25958e-18
7450.50513 8.12129e-18
7451.99841 8.01568e-18
7453.50171 7.98665e-18
7454.99499 7.91240e-18
7456.49829 7.81688e-18
7458.00159 7.80051e-18
7459.49486 7.87378e-18
7460.99816 7.82905e-18
7462.50146 7.53090e-18
7464.00476 7.35430e-18
7465.49804 7.35021e-18
7467.00134 7.42326e-18
7468.50464 7.39093e-18
7469.99792 7.25760e-18
7471.50122 7.22255e-18
7473.00452 7.33081e-18
7474.49780 7.33282e-18
7476.00110 7.36279e-18
7477.50440 7.15256e-18
7478.99768 6.87623e-18
7480.50098 6.84640e-18
7482.00428 6.80297e-18
7483.49755 6.93973e-18
7485.00085 6.86812e-18
7486.50415 6.98235e-18
7487.99743 6.93944e-18
7489.50073 6.78935e-18
7491.00403 6.61922e-18
7492.49731 6.45419e-18
7494.00061 6.24335e-18
7495.50391 6.49441e-18
7496.99719 6.55943e-18
7498.50049 6.38868e-18
7500.00379 6.30694e-18
7501.49707 6.48076e-18
7503.00037 6.29461e-18
7504.50367 6.12218e-18
7505.99694 6.29624e-18
7507.50024 6.37531e-18
7509.00354 6.37257e-18
7510.49682 6.10238e-18
7512.00012 6.27268e-18
7513.50342 6.13962e-18
7514.99670 6.13205e-18
7516.50000 5.86781e-18
7518.00330 5.80164e-18
7519.49658 5.88691e-18
7520.99988 5.80533e-18
7522.50318 5.75855e-18
7523.99646 5.73696e-18
7525.49976 5.69495e-18
7527.00306 5.60165e-18
7528.49633 5.61205e-18
7529.99963 5.60304e-18
7531.50293 5.42364e-18
7532.99621 5.43355e-18
7534.49951 5.48777e-18
7536.00281 5.44454e-18
7537.49609 5.38656e-18
7538.99939 5.26755e-18
7540.50269 5.00884e-18
7540.82765 5.00884e-18
7541.68911 4.97613e-18
7542.55058 4.94782e-18
7543.41204 4.91950e-18
7544.27350 4.89486e-18
7545.13496 4.87022e-18
7545.99642 4.84543e-18
7546.86790 4.82062e-18
7547.72936 4.79087e-18
7548.59083 4.76111e-18
7549.45229 4.72637e-18
7550.31375 4.69163e-18
7551.17521 4.65431e-18
7552.03667 4.61698e-18
7552.89814 4.57969e-18
7553.75960 4.54241e-18
7554.62106 4.50802e-18
7555.48252 4.47364e-18
7556.35400 4.44279e-18
7557.21546 4.41195e-18
7558.07693 4.38274e-18
7558.93839 4.35354e-18
7559.79985 4.32436e-18
7560.66131 4.29518e-18
7561.52277 4.26523e-18
7562.38424 4.23527e-18
7563.24570 4.20322e-18
7564.10716 4.17117e-18
7564.96862 4.13415e-18
7565.84010 4.09713e-18
7566.70156 4.05512e-18
7567.56302 4.01310e-18
7568.42449 3.97415e-18
7569.28595 3.93522e-18
7570.14741 3.90604e-18
7571.00887 3.87688e-18
7571.87033 3.85847e-18
7572.73180 3.84007e-18
7573.59326 3.83132e-18
7574.45472 3.82259e-18
7575.31618 3.81132e-18
7576.18766 3.80005e-18
7577.04912 3.77287e-18
7577.91059 3.74567e-18
7578.77205 3.70990e-18
7579.63351 3.67413e-18
7580.49497 3.64149e-18
7581.35643 3.60886e-18
7582.21790 3.57748e-18
7583.07936 3.54611e-18
7583.94082 3.51055e-18
7584.81230 3.47499e-18
7585.67376 3.41554e-18
7586.53522 3.35605e-18
7587.39668 3.24537e-18
7588.25815 3.13460e-18
7589.11961 2.97810e-18
7589.98107 2.82152e-18
7590.84253 2.65183e-18
7591.70399 2.48212e-18
7592.56546 2.33030e-18
7593.42692 2.17852e-18
7594.28838 2.07367e-18
7595.15986 1.96892e-18
7596.02132 1.92557e-18
7596.88278 1.88234e-18
7597.74425 1.88644e-18
7598.60571 1.89064e-18
7599.46717 1.93202e-18
7600.32863 1.97348e-18
7601.19009 2.05985e-18
7602.05156 2.14631e-18
7602.91302 2.27787e-18
7603.77448 2.40950e-18
7604.64596 2.56924e-18
7605.50742 2.72903e-18
7606.36888 2.89664e-18
7607.23034 3.06425e-18
7608.09181 3.21907e-18
7608.95327 3.37387e-18
7609.81473 3.49528e-18
7610.67619 3.61661e-18
7611.53765 3.67573e-18
7612.39912 3.73472e-18
7613.26058 3.70832e-18
7614.13206 3.68176e-18
7614.99352 3.57112e-18
7615.85498 3.46032e-18
7616.71644 3.27849e-18
7617.57791 3.09653e-18
7618.43937 2.89781e-18
7619.30083 2.69907e-18
7620.16229 2.55661e-18
7621.02375 2.41427e-18
7621.88522 2.35575e-18
7622.74668 2.29741e-18
7623.61816 2.31704e-18
7624.47962 2.33682e-18
7625.34108 2.40946e-18
7626.20254 2.48221e-18
7627.06400 2.56171e-18
7627.92547 2.64123e-18
7628.78693 2.70193e-18
7629.64839 2.76259e-18
7630.50985 2.81419e-18
7631.37131 2.86577e-18
7632.23278 2.91457e-18
7633.10426 2.96335e-18
7633.96572 3.00909e-18
7634.82718 3.05482e-18
7635.68864 3.09750e-18
7636.55010 3.14018e-18
7637.41157 3.17141e-18
7638.27303 3.20261e-18
7639.13449 3.21813e-18
7639.99595 3.23362e-18
7640.85741 3.24819e-18
7641.71888 3.26276e-18
7642.59035 3.29101e-18
7643.45182 3.31928e-18
7644.31328 3.36745e-18
7645.17474 3.41565e-18
7646.03620 3.48640e-18
7646.89766 3.55719e-18
7647.75913 3.63142e-18
7648.62059 3.70565e-18
7649.48205 3.75930e-18
7650.34351 3.81290e-18
7651.20497 3.84084e-18
7652.06644 3.86872e-18
7652.93792 3.87362e-18
7653.79938 3.87847e-18
7654.66084 3.87880e-18
7655.52230 3.87912e-18
7656.38376 3.90338e-18
7657.24523 3.92769e-18
7658.10669 3.98050e-18
7658.96815 4.03337e-18
7659.82961 4.09907e-18
7660.69107 4.16480e-18
7661.55254 4.23008e-18
7662.42401 4.29537e-18
7663.28548 4.34818e-18
7664.14694 4.40097e-18
7665.00840 4.44059e-18
7665.86986 4.48019e-18
7666.73132 4.52949e-18
7667.59279 4.57881e-18
7668.45425 4.64842e-18
7669.31571 4.71805e-18
7670.17717 4.78627e-18
7671.03863 4.85447e-18
7671.91011 4.90380e-18
7672.77158 4.95308e-18
7673.63304 4.98033e-18
7674.49450 5.00749e-18
7675.35596 5.01386e-18
7676.21742 5.02019e-18
7677.07889 5.03150e-18
7677.94035 5.04276e-18
7678.80181 5.08474e-18
7679.66327 5.12683e-18
7680.52473 5.18432e-18
7681.38620 5.24182e-18
7682.25767 5.29076e-18
7683.11914 5.33976e-18
7683.98060 5.38010e-18
7684.84206 5.42045e-18
7685.70352 5.45895e-18
7686.56498 5.49746e-18
7687.42645 5.53573e-18
7688.28791 5.57395e-18
7689.14937 5.61250e-18
7690.01083 5.65106e-18
7690.88231 5.68623e-18
7691.74377 5.72141e-18
7692.60524 5.74576e-18
7693.46670 5.77016e-18
7694.32816 5.78552e-18
7695.18962 5.80089e-18
7696.05108 5.81862e-18
7696.91255 5.83635e-18
7697.77401 5.86075e-18
7698.63547 5.88510e-18
7699.49693 5.91037e-18
7700.35839 5.93559e-18
7701.22987 5.95690e-18
7702.09133 5.97821e-18
7702.95280 5.99270e-18
7703.81426 6.00710e-18
7704.67572 6.01275e-18
7705.53718 6.01831e-18
7706.39864 6.01551e-18
7707.26011 6.01266e-18
7708.12157 6.00391e-18
7708.98303 5.99517e-18
7709.84449 5.99062e-18
7710.71597 5.98613e-18
7711.57743 5.99488e-18
7712.43890 6.00367e-18
7713.30036 6.02353e-18
7714.16182 6.04343e-18
7715.02328 6.06948e-18
7715.88474 6.09552e-18
7716.74620 6.11973e-18
7717.60767 6.14398e-18
7718.46913 6.15770e-18
7719.33059 6.17147e-18
7720.20207 6.17413e-18
7721.06353 6.17679e-18
7721.92499 6.17152e-18
7722.78646 6.16625e-18
7723.64792 6.15847e-18
7724.50938 6.15070e-18
7725.37084 6.14765e-18
7726.23230 6.14456e-18
7727.09377 6.14857e-18
7727.95523 6.15263e-18
7728.81669 6.16133e-18
7729.67815 6.17007e-18
7730.54963 6.18297e-18
7731.41109 6.19592e-18
7732.27255 6.21573e-18
7733.13402 6.23549e-18
7733.99548 6.25902e-18
7734.85694 6.28250e-18
7735.71840 6.29705e-18
7736.57986 6.31154e-18
7737.44133 6.30985e-18
7738.30279 6.30816e-18
7739.17427 6.29545e-18
7740.03573 6.28274e-18
7740.89719 6.26578e-18
7741.75865 6.24883e-18
7742.62012 6.23771e-18
7743.48158 6.22660e-18
7744.34304 6.22955e-18
7745.20450 6.23250e-18
7746.06596 6.24395e-18
7746.92743 6.25540e-18
7747.78889 6.26767e-18
7748.65035 6.27994e-18
7749.52183 6.29033e-18
7750.38329 6.30067e-18
7751.24475 6.30714e-18
7752.10621 6.31362e-18
7752.96768 6.31623e-18
7753.82914 6.31879e-18
7754.69060 6.31893e-18
7755.55206 6.31903e-18
7756.41352 6.31497e-18
7757.27499 6.31086e-18
7758.13645 6.29917e-18
7759.00793 6.28753e-18
7759.86939 6.27163e-18
7760.73085 6.25569e-18
7761.59231 6.24356e-18
7762.45378 6.23143e-18
7763.31524 6.22501e-18
7764.17670 6.21853e-18
7765.03816 6.21360e-18
7765.89962 6.20868e-18
7766.76109 6.20201e-18
7767.62255 6.19534e-18
7768.49403 6.18452e-18
7769.35549 6.17365e-18
7770.21695 6.15847e-18
7771.07841 6.14326e-18
7771.93988 6.12886e-18
7772.80134 6.11451e-18
7773.66280 6.10475e-18
7774.52426 6.09499e-18
7775.38572 6.08784e-18
7776.24719 6.08073e-18
7777.10865 6.07465e-18
7777.98013 6.06861e-18
7778.84159 6.06450e-18
7779.70305 6.06039e-18
7780.56451 6.05909e-18
7781.42597 6.05778e-18
7782.28744 6.05904e-18
7783.14890 6.06030e-18
7784.01036 6.06358e-18
7784.87182 6.06687e-18
7785.73328 6.07175e-18
7786.59475 6.07663e-18
7787.46623 6.08252e-18
7788.32769 6.08846e-18
7789.18915 6.09373e-18
7790.05061 6.09895e-18
7790.91207 6.10161e-18
7791.77354 6.10422e-18
7792.63500 6.10325e-18
7793.49646 6.10228e-18
7794.35792 6.09740e-18
7795.21938 6.09247e-18
7796.08085 6.08595e-18
7796.94231 6.07943e-18
7797.81379 6.07542e-18
7798.67525 6.07146e-18
7799.53671 6.07315e-18
7800.39817 6.07489e-18
7801.25963 6.08436e-18
7802.12110 6.09388e-18
7802.98256 6.10953e-18
7803.84402 6.12523e-18
7804.70548 6.13915e-18
7805.56694 6.15311e-18
7806.42841 6.15959e-18
7807.29989 6.16606e-18
7808.16135 6.16572e-18
7809.02281 6.16538e-18
7809.88427 6.15934e-18
7810.74573 6.15326e-18
7811.60720 6.14272e-18
7812.46866 6.13214e-18
7813.33012 6.11900e-18
7814.19158 6.10586e-18
7815.05304 6.09252e-18
7815.91450 6.07919e-18
7816.78598 6.06788e-18
7817.64745 6.05658e-18
7818.50891 6.05000e-18
7819.37037 6.04343e-18
7820.23183 6.04372e-18
7821.09329 6.04406e-18
7821.95476 6.04633e-18
7822.81622 6.04865e-18
7823.67768 6.04556e-18
7824.53914 6.04247e-18
7825.40060 6.03309e-18
7826.27208 6.02367e-18
7827.13355 6.01024e-18
7827.99501 5.99686e-18
7828.85647 5.98125e-18
7829.71793 5.96569e-18
7830.57939 5.94985e-18
7831.44085 5.93400e-18
7832.30232 5.91912e-18
7833.16378 5.90424e-18
7834.02524 5.89032e-18
7834.88670 5.87641e-18
7835.75818 5.86476e-18
7836.61964 5.85312e-18
7837.48111 5.84737e-18
7838.34257 5.84162e-18
7839.20403 5.84273e-18
7840.06549 5.84379e-18
7840.92695 5.84766e-18
7841.78842 5.85152e-18
7842.64988 5.85461e-18
7843.51134 5.85771e-18
7844.37280 5.85838e-18
7845.23426 5.85911e-18
7846.10574 5.85645e-18
7846.96720 5.85384e-18
7847.82867 5.84920e-18
7848.69013 5.84456e-18
7849.55159 5.83959e-18
7850.41305 5.83461e-18
7851.27452 5.83036e-18
7852.13598 5.82606e-18
7852.99744 5.82321e-18
7853.85890 5.82036e-18
7854.72036 5.81949e-18
7855.59184 5.81862e-18
7856.45330 5.82002e-18
7857.31477 5.82147e-18
7858.17623 5.82297e-18
7859.03769 5.82447e-18
7859.89915 5.82253e-18
7860.76061 5.82060e-18
7861.62208 5.81548e-18
7862.48354 5.81036e-18
7863.34500 5.80490e-18
7864.20646 5.79944e-18
7865.07794 5.79214e-18
7865.93940 5.78489e-18
7866.80087 5.77098e-18
7867.66233 5.75711e-18
7868.52379 5.73609e-18
7869.38525 5.71513e-18
7870.24671 5.69102e-18
7871.10818 5.66686e-18
7871.96964 5.64521e-18
7872.83110 5.62352e-18
7873.69256 5.61337e-18
7874.56404 5.60332e-18
7875.42550 5.60830e-18
7876.28696 5.61332e-18
7877.14843 5.62318e-18
7878.00989 5.63304e-18
7878.87135 5.63830e-18
7879.73281 5.64362e-18
7880.59427 5.64144e-18
7881.45574 5.63927e-18
7882.31720 5.62811e-18
7883.17866 5.61690e-18
7884.05014 5.60066e-18
7884.91160 5.58443e-18
7885.77306 5.56805e-18
7886.63453 5.55172e-18
7887.49599 5.53486e-18
7888.35745 5.51795e-18
7889.21891 5.49939e-18
7890.08037 5.48084e-18
7890.94184 5.46161e-18
7891.80330 5.44243e-18
7892.66476 5.42373e-18
7893.52622 5.40508e-18
7894.39770 5.39179e-18
7895.25916 5.37851e-18
7896.12062 5.37735e-18
7896.98209 5.37614e-18
7897.84355 5.38324e-18
7898.70501 5.39030e-18
7899.56647 5.39445e-18
7900.42793 5.39861e-18
7901.28940 5.39493e-18
7902.15086 5.39126e-18
7903.01232 5.38097e-18
7903.88380 5.37063e-18
7904.74526 5.35686e-18
7905.60672 5.34314e-18
7906.46819 5.33309e-18
7907.32965 5.32309e-18
7908.19111 5.31961e-18
7909.05257 5.31613e-18
7909.91403 5.31115e-18
7910.77550 5.30618e-18
7911.63696 5.29492e-18
7912.49842 5.28366e-18
7913.36990 5.27187e-18
7914.23136 5.26004e-18
7915.09282 5.25250e-18
7915.95428 5.24496e-18
7916.81575 5.24201e-18
7917.67721 5.23907e-18
7918.53867 5.24008e-18
7919.40013 5.24110e-18
7920.26159 5.23897e-18
7921.12306 5.23689e-18
7921.98452 5.22452e-18
7922.85600 5.21211e-18
7923.71746 5.19384e-18
7924.57892 5.17558e-18
7925.44038 5.15910e-18
7926.30185 5.14258e-18
7927.16331 5.13234e-18
7928.02477 5.12209e-18
7928.88623 5.12108e-18
7929.74769 5.12011e-18
7930.60916 5.12649e-18
7931.47062 5.13287e-18
7932.34210 5.14137e-18
7933.20356 5.14992e-18
7934.06502 5.15606e-18
7934.92648 5.16220e-18
7935.78794 5.16220e-18
7936.64941 5.16224e-18
7937.51087 5.15422e-18
7938.37233 5.14615e-18
7939.23379 5.13050e-18
7940.09525 5.11480e-18
7940.95672 5.09378e-18
7941.81818 5.07276e-18
7942.68966 5.05165e-18
7943.55112 5.03053e-18
7944.41258 5.01343e-18
7945.27404 4.99633e-18
7946.13551 4.98396e-18
7946.99697 4.97159e-18
7947.85843 4.96391e-18
7948.71989 4.95618e-18
7949.58135 4.95173e-18
7950.44282 4.94729e-18
7951.30428 4.94410e-18
7952.17576 4.94091e-18
7953.03722 4.93472e-18
7953.89868 4.92854e-18
7954.76014 4.91569e-18
7955.62160 4.90283e-18
7956.48307 4.88868e-18
7957.34453 4.87447e-18
7958.20599 4.86597e-18
7959.06745 4.85751e-18
7959.92891 4.85519e-18
7960.79038 4.85288e-18
7961.66186 4.85524e-18
7962.52332 4.85756e-18
7963.38478 4.86090e-18
7964.24624 4.86423e-18
7965.10770 4.86322e-18
7965.96917 4.86215e-18
7966.83063 4.85983e-18
7967.69209 4.85747e-18
7968.55355 4.86264e-18
7969.41501 4.86785e-18
7970.27648 4.88259e-18
7971.14795 4.89737e-18
7972.00942 4.91723e-18
7972.87088 4.93709e-18
7973.73234 4.95608e-18
7974.59380 4.97512e-18
7975.45526 4.98459e-18
7976.31673 4.99406e-18
7977.17819 4.99029e-18
7978.03965 4.98652e-18
7978.90111 4.97661e-18
7979.76257 4.96671e-18
7980.63405 4.95685e-18
7981.49552 4.94704e-18
7982.35698 4.93878e-18
7983.21844 4.93052e-18
7984.07990 4.92482e-18
7984.94136 4.91912e-18
7985.80283 4.91390e-18
7986.66429 4.90873e-18
7987.52575 4.90182e-18
7988.38721 4.89486e-18
7989.24867 4.88713e-18
7990.11014 4.87940e-18
7990.98161 4.87201e-18
7991.84308 4.86462e-18
7992.70454 4.85983e-18
7993.56600 4.85505e-18
7994.42746 4.85548e-18
7995.28892 4.85597e-18
7996.15039 4.85645e-18
7997.01185 4.85693e-18
7997.87331 4.84920e-18
7998.73477 4.84147e-18
7999.59623 4.82653e-18
8000.46771 4.81158e-18
8001.32917 4.79568e-18
8002.19064 4.77977e-18
8003.05210 4.76761e-18
8003.91356 4.75547e-18
8004.77502 4.75108e-18
8005.63649 4.74672e-18
8006.49795 4.74909e-18
8007.35941 4.75146e-18
8008.22087 4.75234e-18
8009.08233 4.75322e-18
8009.95381 4.74992e-18
8010.81527 4.74662e-18
8011.67674 4.74703e-18
8012.53820 4.74744e-18
8013.39966 4.75537e-18
8014.26112 4.76332e-18
8015.12258 4.77324e-18
8015.98405 4.78316e-18
8016.84551 4.78977e-18
8017.70697 4.79638e-18
8018.56843 4.79434e-18
8019.43991 4.79227e-18
8020.30137 4.77826e-18
8021.16284 4.76423e-18
8022.02430 4.74714e-18
8022.88576 4.73004e-18
8023.74722 4.71968e-18
8024.60868 4.70934e-18
8025.47015 4.70542e-18
8026.33161 4.70153e-18
8027.19307 4.70144e-18
8028.05453 4.70136e-18
8028.92601 4.70187e-18
8029.78747 4.70238e-18
8030.64893 4.69975e-18
8031.51040 4.69710e-18
8032.37186 4.69170e-18
8033.23332 4.68629e-18
8034.09478 4.68072e-18
8034.95624 4.67516e-18
8035.81771 4.67111e-18
8036.67917 4.66708e-18
8037.54063 4.66556e-18
8038.41211 4.66405e-18
8039.27357 4.66542e-18
8040.13503 4.66680e-18
8040.99650 4.67063e-18
8041.85796 4.67445e-18
8042.71942 4.67945e-18
8043.58088 4.68445e-18
8044.44234 4.68839e-18
8045.30380 4.69232e-18
8046.16527 4.69348e-18
8047.02673 4.69464e-18
8047.88819 4.69224e-18
8048.75967 4.68984e-18
8049.62113 4.68431e-18
8050.48259 4.67877e-18
8051.34406 4.67419e-18
8052.20552 4.66961e-18
8053.06698 4.66904e-18
8053.92844 4.66847e-18
8054.78990 4.66958e-18
8055.65137 4.67069e-18
8056.51283 4.67056e-18
8057.37429 4.67043e-18
8058.24577 4.66559e-18
8059.10723 4.66073e-18
8059.96869 4.64819e-18
8060.83015 4.63565e-18
8061.69162 4.61784e-18
8062.55308 4.60002e-18
8063.41454 4.58105e-18
8064.27600 4.56207e-18
8065.13746 4.54660e-18
8065.99893 4.53113e-18
8066.86039 4.52371e-18
8067.73187 4.51631e-18
8068.59333 4.51722e-18
8069.45479 4.51815e-18
8070.31625 4.52493e-18
8071.17772 4.53173e-18
8072.03918 4.53953e-18
8072.90064 4.54732e-18
8073.76210 4.54919e-18
8074.62356 4.55103e-18
8075.48503 4.54440e-18
8076.34649 4.53775e-18
8077.21797 4.52593e-18
8078.07943 4.51410e-18
8078.94089 4.49917e-18
8079.80235 4.48423e-18
8080.66381 4.46580e-18
8081.52528 4.44736e-18
8082.38674 4.42571e-18
8083.24820 4.40405e-18
8084.10966 4.38010e-18
8084.97113 4.35615e-18
8085.83259 4.33097e-18
8086.70407 4.30579e-18
8087.56553 4.28099e-18
8088.42699 4.25619e-18
8089.28845 4.23325e-18
8090.14991 4.21032e-18
8091.01138 4.19061e-18
8091.87284 4.17090e-18
8092.73430 4.15513e-18
8093.59576 4.13937e-18
8094.45722 4.12724e-18
8095.31869 4.11512e-18
8096.18015 4.10566e-18
8097.05163 4.09621e-18
8097.91309 4.08414e-18
8098.77455 4.07207e-18
8099.63601 4.05115e-18
8100.49748 4.03021e-18
8101.35894 3.99847e-18
8102.22040 3.96669e-18
8103.08186 3.92453e-18
8103.94332 3.88233e-18
8104.80479 3.83485e-18
8105.67626 3.78735e-18
8106.53773 3.74284e-18
8107.39919 3.69833e-18
8108.26065 3.66194e-18
8109.12211 3.62557e-18
8109.98357 3.59907e-18
8110.84504 3.57259e-18
8111.70650 3.55365e-18
8112.56796 3.53472e-18
8113.42942 3.51522e-18
8114.29088 3.49572e-18
8115.15235 3.46910e-18
8116.02383 3.44246e-18
8116.88529 3.40593e-18
8117.74675 3.36938e-18
8118.60821 3.32242e-18
8119.46967 3.27543e-18
8120.33114 3.22480e-18
8121.19260 3.17418e-18
8122.05406 3.12531e-18
8122.91552 3.07645e-18
8123.77698 3.02331e-18
8124.63845 2.97015e-18
8125.49991 2.90711e-18
8126.37139 2.84405e-18
8127.23285 2.77413e-18
8128.09431 2.70419e-18
8128.95577 2.63180e-18
8129.81723 2.55940e-18
8130.67870 2.49302e-18
8131.54016 2.42666e-18
8132.40162 2.37540e-18
8133.26308 2.32418e-18
8134.12454 2.28315e-18
8134.99602 2.24215e-18
8135.85749 2.20039e-18
8136.71895 2.15862e-18
8137.58041 2.11196e-18
8138.44187 2.06529e-18
8139.30333 2.01359e-18
8140.16480 1.96186e-18
8141.02626 1.90643e-18
8141.88772 1.85098e-18
8142.74918 1.79490e-18
8143.61064 1.73881e-18
8144.47210 1.68514e-18
8145.34358 1.63148e-18
8146.20505 1.58267e-18
8147.06651 1.53388e-18
8147.92797 1.49165e-18
8148.78943 1.44944e-18
8149.65089 1.41433e-18
8150.51236 1.37924e-18
8151.37382 1.35038e-18
8152.23528 1.32154e-18
8153.09674 1.29513e-18
8153.95820 1.26873e-18
8154.82968 1.24169e-18
8155.69115 1.21466e-18
8156.55261 1.18729e-18
8157.41407 1.15992e-18
8158.27553 1.13314e-18
8159.13699 1.10638e-18
8159.99845 1.08248e-18
8160.85992 1.05860e-18
8161.72138 1.03982e-18
8162.58284 1.02106e-18
8163.44430 1.00807e-18
8164.31578 9.95105e-19
8165.17724 9.87800e-19
8166.03871 9.80504e-19
8166.90017 9.75397e-19
8167.76163 9.70295e-19
8168.62309 9.63163e-19
8169.48455 9.56032e-19
8170.34602 9.43359e-19
8171.20748 9.30676e-19
8172.06894 9.09122e-19
8172.93040 8.87544e-19
8173.80188 8.62801e-19
8174.66334 8.38054e-19
8175.52481 8.22423e-19
8176.38627 8.06817e-19
8177.24773 8.03034e-19
8178.10919 7.99280e-19
8178.97065 8.00217e-19
8179.83212 8.01164e-19
8180.69358 8.01391e-19
8181.55504 8.01618e-19
8182.41650 7.97719e-19
8183.28798 7.93815e-19
8184.14944 7.84548e-19
8185.01090 7.75271e-19
8185.87237 7.65236e-19
8186.73383 7.55196e-19
8187.59529 7.47683e-19
8188.45675 7.40170e-19
8189.31821 7.32637e-19
8190.17968 7.25100e-19
8191.04114 7.15770e-19
8191.90260 7.06431e-19
8192.77408 6.97468e-19
8193.63554 6.88505e-19
8194.49700 6.82108e-19
8195.35846 6.75716e-19
8196.21993 6.73846e-19
8197.08139 6.71986e-19
8197.94285 6.76127e-19
8198.80431 6.80277e-19
8199.66577 6.86877e-19
8200.52724 6.93482e-19
8201.38870 6.97579e-19
8202.25016 7.01671e-19
8203.12164 7.02300e-19
8203.98310 7.02923e-19
8204.84456 7.00889e-19
8205.70603 6.98850e-19
8206.56749 6.94564e-19
8207.42895 6.90269e-19
8208.29041 6.84075e-19
8209.15187 6.77876e-19
8210.01334 6.70778e-19
8210.87480 6.63680e-19
8211.73626 6.56989e-19
8212.60774 6.50302e-19
8213.46920 6.44571e-19
8214.33066 6.38846e-19
8215.19212 6.33981e-19
8216.05359 6.29120e-19
8216.91505 6.23578e-19
8217.77651 6.18036e-19
8218.63797 6.07537e-19
8219.49943 5.97024e-19
8220.36090 5.79924e-19
8221.22236 5.62811e-19
8222.08382 5.43494e-19
8222.95530 5.24172e-19
8223.81676 5.07527e-19
8224.67822 4.90887e-19
8225.53969 4.83041e-19
8226.40115 4.75218e-19
8227.26261 4.80596e-19
8228.12407 4.86003e-19
8228.98553 5.00483e-19
8229.84700 5.14983e-19
8230.70846 5.32840e-19
8231.57994 5.50708e-19
8232.44140 5.66381e-19
8233.30286 5.82055e-19
8234.16432 5.90380e-19
8235.02578 5.98690e-19
8235.88725 6.01382e-19
8236.74871 6.04054e-19
8237.61017 6.05416e-19
8238.47163 6.06779e-19
8239.33309 6.09818e-19
8240.19456 6.12862e-19
8241.06604 6.20080e-19
8241.92750 6.27308e-19
8242.78896 6.37242e-19
8243.65042 6.47181e-19
8244.51188 6.55317e-19
8245.37335 6.63453e-19
8246.23481 6.67580e-19
8247.09627 6.71696e-19
8247.95773 6.72059e-19
8248.81919 6.72411e-19
8249.68066 6.69913e-19
8250.54212 6.67410e-19
8251.41360 6.64057e-19
8252.27506 6.60699e-19
8253.13652 6.58361e-19
8253.99798 6.56027e-19
8254.85945 6.55839e-19
8255.72091 6.55660e-19
8256.58237 6.58264e-19
8257.44383 6.60878e-19
8258.30529 6.65831e-19
8259.16676 6.70788e-19
8260.02822 6.77137e-19
8260.89970 6.83490e-19
8261.76116 6.89476e-19
8262.62262 6.95468e-19
8263.48408 6.99367e-19
8264.34554 7.03261e-19
8265.20701 7.03517e-19
8266.06847 7.03764e-19
8266.92993 6.99352e-19
8267.79139 6.94931e-19
8268.65285 6.88201e-19
8269.52433 6.81461e-19
8270.38580 6.75668e-19
8271.24726 6.69879e-19
8272.10872 6.67212e-19
8272.97018 6.64555e-19
8273.83164 6.66710e-19
8274.69311 6.68874e-19
8275.55457 6.74160e-19
8276.41603 6.79446e-19
8277.27749 6.84046e-19
8278.13895 6.88641e-19
8279.01043 6.90998e-19
8279.87189 6.93351e-19
8280.73336 6.93835e-19
8281.59482 6.94313e-19
8282.45628 6.94076e-19
8283.31774 6.93835e-19
8284.17920 6.95284e-19
8285.04067 6.96738e-19
8285.90213 7.00792e-19
8286.76359 7.04851e-19
8287.62505 7.09330e-19
8288.48651 7.13808e-19
8289.34798 7.17553e-19
8290.21946 7.21293e-19
8291.08092 7.26042e-19
8291.94238 7.30792e-19
8292.80384 7.37541e-19
8293.66530 7.44291e-19
8294.52677 7.51283e-19
8295.38823 7.58269e-19
8296.24969 7.63864e-19
8297.11115 7.69459e-19
8297.97261 7.72609e-19
8298.83408 7.75755e-19
8299.70555 7.75837e-19
8300.56702 7.75909e-19
8301.42848 7.76629e-19
8302.28994 7.77349e-19
8303.15140 7.83094e-19
8304.01286 7.88848e-19
8304.87433 7.97932e-19
8305.73579 8.07015e-19
8306.59725 8.15780e-19
8307.45871 8.24544e-19
8308.32017 8.30777e-19
8309.18164 8.37000e-19
8310.05312 8.39078e-19
8310.91458 8.41146e-19
8311.77604 8.40798e-19
8312.63750 8.40440e-19
8313.49896 8.41856e-19
8314.36043 8.43272e-19
8315.22189 8.48804e-19
8316.08335 8.54351e-19
8316.94481 8.64473e-19
8317.80627 8.74610e-19
8318.67775 8.88128e-19
8319.53921 9.01657e-19
8320.40068 9.14809e-19
8321.26214 9.27960e-19
8322.12360 9.38053e-19
8322.98506 9.48137e-19
8323.84652 9.55133e-19
8324.70799 9.62125e-19
8325.56945 9.66376e-19
8326.43091 9.70628e-19
8327.29237 9.73184e-19
8328.16385 9.75740e-19
8329.02531 9.77909e-19
8329.88678 9.80074e-19
8330.74824 9.82596e-19
8331.60970 9.85123e-19
8332.47116 9.88742e-19
8333.33262 9.92366e-19
8334.19408 9.98898e-19
8335.05555 1.00544e-18
8335.91701 1.01640e-18
8336.77847 1.02737e-18
8337.64995 1.04157e-18
8338.51141 1.05578e-18
8339.37287 1.07120e-18
8340.23434 1.08663e-18
8341.09580 1.10049e-18
8341.95726 1.11434e-18
8342.81872 1.12364e-18
8343.68018 1.13292e-18
8344.54165 1.13771e-18
8345.40311 1.14248e-18
8346.26457 1.14487e-18
8347.12603 1.14725e-18
8347.99751 1.14896e-18
8348.85897 1.15068e-18
8349.72043 1.15299e-18
8350.58190 1.15531e-18
8351.44336 1.15972e-18
8352.30482 1.16413e-18
8353.16628 1.17221e-18
8354.02775 1.18030e-18
8354.88921 1.19224e-18
8355.75067 1.20418e-18
8356.62215 1.21802e-18
8357.48361 1.23186e-18
8358.34507 1.24566e-18
8359.20653 1.25946e-18
8360.06800 1.27153e-18
8360.92946 1.28359e-18
8361.79092 1.29291e-18
8362.65238 1.30222e-18
8363.51384 1.31054e-18
8364.37531 1.31886e-18
8365.23677 1.32792e-18
8366.10825 1.33698e-18
8366.96971 1.34563e-18
8367.83117 1.35429e-18
8368.69263 1.36137e-18
8369.55410 1.36844e-18
8370.41556 1.37508e-18
8371.27702 1.38172e-18
8372.13848 1.38952e-18
8372.99994 1.39732e-18
8373.86140 1.40714e-18
8374.72287 1.41696e-18
8375.59435 1.42936e-18
8376.45581 1.44177e-18
8377.31727 1.45663e-18
8378.17873 1.47150e-18
8379.04019 1.48825e-18
8379.90166 1.50500e-18
8380.76312 1.52273e-18
8381.62458 1.54046e-18
8382.48604 1.55808e-18
8383.34750 1.57570e-18
8384.20897 1.59233e-18
8385.07043 1.60894e-18
8385.94191 1.62375e-18
8386.80337 1.63855e-18
8387.66483 1.65203e-18
8388.52629 1.66550e-18
8389.38775 1.68027e-18
8390.24922 1.69504e-18
8391.11068 1.71183e-18
8391.97214 1.72862e-18
8392.83360 1.74405e-18
8393.69507 1.75949e-18
8394.55653 1.77115e-18
8395.41799 1.78281e-18
8396.28947 1.79064e-18
8397.15093 1.79846e-18
8398.01239 1.80342e-18
8398.87385 1.80838e-18
8399.73532 1.81598e-18
8400.59678 1.82358e-18
8401.45824 1.83881e-18
8402.31970 1.85406e-18
8403.18116 1.87530e-18
8404.04263 1.89656e-18
8404.90409 1.92077e-18
8405.77557 1.94498e-18
8406.63703 1.96875e-18
8407.49849 1.99252e-18
8408.35995 2.01235e-18
8409.22142 2.03217e-18
8410.08288 2.04809e-18
8410.94434 2.06399e-18
8411.80580 2.07777e-18
8412.66726 2.09155e-18
8413.52873 2.10443e-18
8414.39019 2.11731e-18
8415.26167 2.13028e-18
8416.12313 2.14327e-18
8416.98459 2.15740e-18
8417.84605 2.17155e-18
8418.70751 2.18772e-18
8419.56898 2.20389e-18
8420.43044 2.22243e-18
8421.29190 2.24097e-18
8422.15336 2.26180e-18
8423.01482 2.28264e-18
8423.87629 2.30465e-18
8424.74777 2.32667e-18
8425.60923 2.34683e-18
8426.47069 2.36699e-18
8427.33215 2.38405e-18
8428.19361 2.40111e-18
8429.05508 2.41851e-18
8429.91654 2.43591e-18
8430.77800 2.45646e-18
8431.63946 2.47702e-18
8432.50092 2.50101e-18
8433.36239 2.52501e-18
8434.23386 2.55200e-18
8435.09533 2.57900e-18
8435.95679 2.60450e-18
8436.81825 2.63001e-18
8437.67971 2.64961e-18
8438.54117 2.66921e-18
8439.40264 2.68550e-18
8440.26410 2.70178e-18
8441.12556 2.71894e-18
8441.98702 2.73610e-18
8442.84848 2.75536e-18
8443.70995 2.77464e-18
8444.58143 2.79631e-18
8445.44289 2.81798e-18
8446.30435 2.84227e-18
8447.16581 2.86657e-18
8448.02727 2.89342e-18
8448.88874 2.92027e-18
8449.75020 2.94884e-18
8450.61166 2.97742e-18
8451.47312 3.00650e-18
8452.33458 3.03557e-18
8453.20606 3.06377e-18
8454.06752 3.09196e-18
8454.92899 3.11758e-18
8455.79045 3.14318e-18
8456.65191 3.16659e-18
8457.51337 3.18999e-18
8458.37483 3.21481e-18
8459.23630 3.23964e-18
8460.09776 3.26742e-18
8460.95922 3.29521e-18
8461.82068 3.32282e-18
8462.69216 3.35043e-18
8463.55362 3.37567e-18
8464.41508 3.40090e-18
8465.27655 3.42393e-18
8466.13801 3.44695e-18
8466.99947 3.46870e-18
8467.86093 3.49044e-18
8468.72240 3.51552e-18
8469.58386 3.54061e-18
8470.44532 3.57311e-18
8471.30678 3.60562e-18
8472.16824 3.64300e-18
8473.03972 3.68041e-18
8473.90118 3.71902e-18
8474.76265 3.75763e-18
8475.62411 3.79467e-18
8476.48557 3.83172e-18
8477.34703 3.86453e-18
8478.20849 3.89733e-18
8479.06996 3.92907e-18
8479.93142 3.96080e-18
8480.79288 3.99724e-18
8481.65434 4.03369e-18
8482.51580 4.07354e-18
8483.38728 4.11339e-18
8484.24875 4.15127e-18
8485.11021 4.18914e-18
8485.97167 4.22265e-18
8486.83313 4.25616e-18
8487.69459 4.28524e-18
8488.55605 4.31431e-18
8489.41752 4.34050e-18
8490.27898 4.36668e-18
8491.14044 4.39385e-18
8492.00190 4.42102e-18
8492.87338 4.45170e-18
8493.73484 4.48238e-18
8494.59631 4.51588e-18
8495.45777 4.54938e-18
8496.31923 4.58606e-18
8497.18069 4.62276e-18
8498.04215 4.66673e-18
8498.90362 4.71072e-18
8499.76508 4.76353e-18
8500.62654 4.81636e-18
8501.48800 4.87095e-18
8502.35948 4.92554e-18
8503.22094 4.97502e-18
8504.08240 5.02449e-18
8504.94387 5.06745e-18
8505.80533 5.11035e-18
8506.66679 5.14649e-18
8507.52825 5.18258e-18
8508.38972 5.21443e-18
8509.25118 5.24627e-18
8510.11264 5.27724e-18
8510.98412 5.30826e-18
8511.84558 5.33971e-18
8512.70704 5.37116e-18
8513.56850 5.40378e-18
8514.42997 5.43634e-18
8515.29143 5.46997e-18
8516.15289 5.50360e-18
8517.01435 5.53785e-18
8517.87581 5.57211e-18
8518.73728 5.60699e-18
8519.59874 5.64183e-18
8520.46020 5.67744e-18
8521.33168 5.71300e-18
8522.19314 5.75088e-18
8523.05460 5.78871e-18
8523.91607 5.83176e-18
8524.77753 5.87486e-18
8525.63899 5.92409e-18
8526.50045 5.97333e-18
8527.36191 6.02696e-18
8528.22337 6.08054e-18
8529.08484 6.13572e-18
8529.94630 6.19089e-18
8530.80776 6.24303e-18
8531.67924 6.29516e-18
8532.54070 6.34053e-18
8533.40216 6.38585e-18
8534.26363 6.42301e-18
8535.12509 6.46016e-18
8535.98655 6.48949e-18
8536.84801 6.51887e-18
8537.70947 6.54607e-18
8538.57094 6.57327e-18
8539.43240 6.60434e-18
8540.30388 6.63545e-18
8541.16534 6.67439e-18
8542.02680 6.71334e-18
8542.88826 6.76252e-18
8543.74972 6.81176e-18
8544.61119 6.86795e-18
8545.47265 6.92414e-18
8546.33411 6.98217e-18
8547.19557 7.04015e-18
8548.05703 7.09107e-18
8548.91850 7.14195e-18
8549.78998 7.17592e-18
8550.65144 7.20988e-18
8551.51290 7.22781e-18
8552.37436 7.24569e-18
8553.23582 7.25496e-18
8554.09729 7.26424e-18
8554.95875 7.27492e-18
8555.82021 7.28564e-18
8556.68167 7.30961e-18
8557.54313 7.33362e-18
8558.40460 7.37628e-18
8559.27607 7.41895e-18
8560.13754 7.47697e-18
8560.99900 7.53500e-18
8561.86046 7.60207e-18
8562.72192 7.66913e-18
8563.58338 7.73484e-18
8564.44485 7.80060e-18
8565.30631 7.85548e-18
8566.16777 7.91032e-18
8567.02923 7.94806e-18
8567.89070 7.98574e-18
8568.75216 8.00333e-18
8569.62364 8.02092e-18
8570.48510 8.02333e-18
8571.34656 8.02575e-18
8572.20802 8.02019e-18
8573.06948 8.01459e-18
8573.93095 8.00894e-18
8574.79241 8.00328e-18
8575.65387 8.00517e-18
8576.51533 8.00710e-18
8577.37679 8.02454e-18
8578.23826 8.04203e-18
8579.09972 8.08107e-18
8579.97120 8.12016e-18
8580.83266 8.17321e-18
8581.69412 8.22631e-18
8582.55558 8.28076e-18
8583.41705 8.33521e-18
8584.27851 8.38087e-18
8585.13997 8.42658e-18
8586.00143 8.45518e-18
8586.86289 8.48379e-18
8587.72436 8.49417e-18
8588.58582 8.50456e-18
8589.45730 8.50137e-18
8590.31876 8.49809e-18
8591.18022 8.48843e-18
8592.04168 8.47876e-18
8592.90314 8.47229e-18
8593.76461 8.46581e-18
8594.62607 8.46794e-18
8595.48753 8.47002e-18
8596.34899 8.47857e-18
8597.21045 8.48707e-18
8598.07192 8.50070e-18
8598.94340 8.51437e-18
8599.80486 8.53447e-18
8600.66632 8.55462e-18
8601.52778 8.58061e-18
8602.38924 8.60661e-18
8603.25071 8.63434e-18
8604.11217 8.66212e-18
8604.97363 8.68705e-18
8605.83509 8.71203e-18
8606.69655 8.72807e-18
8607.56803 8.74411e-18
8608.42949 8.74634e-18
8609.29096 8.74851e-18
8610.15242 8.73827e-18
8611.01388 8.72793e-18
8611.87534 8.70870e-18
8612.73680 8.68942e-18
8613.59827 8.66517e-18
8614.45973 8.64086e-18
8615.32119 8.61574e-18
8616.18265 8.59061e-18
8617.04411 8.57250e-18
8617.91559 8.55438e-18
8618.77706 8.55186e-18
8619.63852 8.54935e-18
8620.49998 8.56293e-18
8621.36144 8.57651e-18
8622.22290 8.60148e-18
8623.08437 8.62656e-18
8623.94583 8.65632e-18
8624.80729 8.68613e-18
8625.66875 8.71227e-18
8626.53021 8.73841e-18
8627.40169 8.75586e-18
8628.26315 8.77325e-18
8629.12462 8.78185e-18
8629.98608 8.79045e-18
8630.84754 8.79001e-18
8631.70900 8.78958e-18
8632.57046 8.77895e-18
8633.43193 8.76827e-18
8634.29339 8.74890e-18
8635.15485 8.72952e-18
8636.01631 8.70749e-18
8636.88779 8.68541e-18
8637.74925 8.66705e-18
8638.61072 8.64874e-18
8639.47218 8.64139e-18
8640.33364 8.63410e-18
8641.19510 8.64284e-18
8642.05656 8.65159e-18
8642.91803 8.67212e-18
8643.77949 8.69275e-18
8644.64095 8.71870e-18
8645.50241 8.74465e-18
8646.37389 8.76924e-18
8647.23535 8.79383e-18
8648.09681 8.81036e-18
8648.95828 8.82683e-18
8649.81974 8.83277e-18
8650.68120 8.83872e-18
8651.54266 8.83418e-18
8652.40412 8.82959e-18
8653.26559 8.81383e-18
8654.12705 8.79808e-18
8654.98851 8.77064e-18
8655.85999 8.74320e-18
8656.72145 8.70884e-18
8657.58291 8.67449e-18
8658.44438 8.64149e-18
8659.30584 8.60849e-18
8660.16730 8.58250e-18
8661.02876 8.55655e-18
8661.89022 8.54008e-18
8662.75168 8.52370e-18
8663.61315 8.51809e-18
8664.47461 8.51253e-18
8665.33607 8.51741e-18
8666.20755 8.52229e-18
8667.06901 8.53534e-18
8667.93047 8.54843e-18
8668.79194 8.56559e-18
8669.65340 8.58279e-18
8670.51486 8.59854e-18
8671.37632 8.61429e-18
8672.23778 8.61917e-18
8673.09925 8.62400e-18
8673.96071 8.61095e-18
8674.82217 8.59786e-18
8675.68363 8.56902e-18
8676.55511 8.54012e-18
8677.41657 8.50012e-18
8678.27803 8.46002e-18
8679.13950 8.41668e-18
8680.00096 8.37329e-18
8680.86242 8.33517e-18
8681.72388 8.29709e-18
8682.58535 8.26767e-18
8683.44681 8.23829e-18
8684.30827 8.21877e-18
8685.16973 8.19925e-18
8686.04121 8.19080e-18
8686.90267 8.18239e-18
8687.76413 8.18514e-18
8688.62560 8.18795e-18
8689.48706 8.19978e-18
8690.34852 8.21162e-18
8691.20998 8.22902e-18
8692.07144 8.24646e-18
8692.93291 8.26356e-18
8693.79437 8.28062e-18
8694.66585 8.28985e-18
8695.52731 8.29907e-18
8696.38877 8.29589e-18
8697.25023 8.29265e-18
8698.11170 8.27622e-18
8698.97316 8.25974e-18
8699.83462 8.23187e-18
8700.69608 8.20399e-18
8701.55754 8.17070e-18
8702.41900 8.13741e-18
8703.28047 8.10383e-18
8704.15195 8.07020e-18
8705.01341 8.03643e-18
8705.87487 8.00270e-18
8706.73633 7.97019e-18
8707.59779 7.93772e-18
8708.45926 7.91327e-18
8709.32072 7.88887e-18
8710.18218 7.87781e-18
8711.04364 7.86674e-18
8711.90510 7.86925e-18
8712.76657 7.87186e-18
8713.62803 7.88607e-18
8714.49951 7.90027e-18
8715.36097 7.91578e-18
8716.22243 7.93129e-18
8717.08389 7.93632e-18
8717.94535 7.94134e-18
8718.80682 7.93110e-18
8719.66828 7.92076e-18
8720.52974 7.89346e-18
8721.39120 7.86611e-18
8722.25267 7.82843e-18
8723.11413 7.79074e-18
8723.98561 7.75441e-18
8724.84707 7.71802e-18
8725.70853 7.68734e-18
8726.56999 7.65661e-18
8727.43145 7.63033e-18
8728.29292 7.60409e-18
8729.15438 7.58235e-18
8730.01584 7.56061e-18
8730.87730 7.54399e-18
8731.73876 7.52732e-18
8732.61024 7.51737e-18
8733.47170 7.50737e-18
8734.33317 7.50867e-18
8735.19463 7.51002e-18
8736.05609 7.52123e-18
8736.91755 7.53244e-18
8737.77902 7.54032e-18
8738.64048 7.54819e-18
8739.50194 7.54152e-18
8740.36340 7.53486e-18
8741.22486 7.50751e-18
8742.08633 7.48012e-18
8742.95780 7.43049e-18
8743.81927 7.38083e-18
8744.68073 7.32323e-18
8745.54219 7.26559e-18
8746.40365 7.21558e-18
8747.26511 7.16558e-18
8748.12658 7.13040e-18
8748.98804 7.09533e-18
8749.84950 7.07938e-18
8750.71096 7.06348e-18
8751.57242 7.06228e-18
8752.44390 7.06112e-18
8753.30537 7.06605e-18
8754.16683 7.07102e-18
8755.02829 7.07740e-18
8755.88975 7.08378e-18
8756.75121 7.08851e-18
8757.61268 7.09325e-18
8758.47414 7.08943e-18
8759.33560 7.08557e-18
8760.19706 7.06479e-18
8761.05852 7.04397e-18
8761.91999 7.00488e-18
8762.79146 6.96574e-18
8763.65293 6.91284e-18
8764.51439 6.85988e-18
8765.37585 6.80050e-18
8766.23731 6.74117e-18
8767.09877 6.68589e-18
8767.96024 6.63072e-18
8768.82170 6.58636e-18
8769.68316 6.54211e-18
8770.54462 6.50785e-18
8771.40608 6.47364e-18
8772.26755 6.44799e-18
8773.13903 6.42238e-18
8774.00049 6.40416e-18
8774.86195 6.38590e-18
8775.72341 6.37266e-18
8776.58487 6.35937e-18
8777.44633 6.34894e-18
8778.30780 6.33855e-18
8779.16926 6.32792e-18
8780.03072 6.31729e-18
8780.89218 6.29724e-18
8781.76366 6.27714e-18
8782.62512 6.23936e-18
8783.48659 6.20148e-18
8784.34805 6.14992e-18
8785.20951 6.09837e-18
8786.07097 6.04044e-18
8786.93243 5.98251e-18
8787.79390 5.92375e-18
8788.65536 5.86500e-18
8789.51682 5.81084e-18
8790.37828 5.75668e-18
8791.24976 5.70696e-18
8792.11122 5.65724e-18
8792.97268 5.60811e-18
8793.83415 5.55892e-18
8794.69561 5.51283e-18
8795.55707 5.46678e-18
8796.41853 5.43083e-18
8797.28000 5.39498e-18
8798.14146 5.36778e-18
8799.00292 5.34063e-18
8799.86438 5.31270e-18
8800.72584 5.28477e-18
8801.59732 5.24839e-18
8802.45878 5.21201e-18
8803.32025 5.16195e-18
8804.18171 5.11190e-18
8805.04317 5.04749e-18
8805.90463 4.98309e-18
8806.76609 4.91361e-18
8807.62756 4.84408e-18
8808.48902 4.77797e-18
8809.35048 4.71189e-18
8810.21194 4.65325e-18
8811.08342 4.59463e-18
8811.94488 4.54618e-18
8812.80635 4.49776e-18
8813.66781 4.45843e-18
8814.52927 4.41913e-18
8815.39073 4.38634e-18
8816.25219 4.35358e-18
8817.11365 4.32413e-18
8817.97512 4.29469e-18
8818.83658 4.26498e-18
8819.70806 4.23527e-18
8820.56952 4.20096e-18
8821.43098 4.16663e-18
8822.29244 4.12392e-18
8823.15391 4.08120e-18
8824.01537 4.02963e-18
8824.87683 3.97804e-18
8825.73829 3.91898e-18
8826.59975 3.85989e-18
8827.46122 3.79877e-18
8828.32268 3.73764e-18
8829.19416 3.68229e-18
8830.05562 3.62696e-18
8830.91708 3.58139e-18
8831.77854 3.53585e-18
8832.64000 3.50034e-18
8833.50147 3.46485e-18
8834.36293 3.43813e-18
8835.22439 3.41143e-18
8836.08585 3.39037e-18
8836.94732 3.36932e-18
8837.80878 3.35026e-18
8838.67024 3.33120e-18
8839.54172 3.31037e-18
8840.40318 3.28954e-18
8841.26464 3.26418e-18
8842.12610 3.23881e-18
8842.98757 3.20855e-18
8843.84903 3.17827e-18
8844.71049 3.14369e-18
8845.57195 3.10910e-18
8846.43341 3.07223e-18
8847.29488 3.03535e-18
8848.15634 2.99877e-18
8849.02782 2.96220e-18
8849.88928 2.92731e-18
8850.75074 2.89243e-18
8851.61220 2.86054e-18
8852.47367 2.82867e-18
8853.33513 2.80657e-18
8854.19659 2.78449e-18
8855.05805 2.77891e-18
8855.91951 2.77338e-18
8856.78097 2.77897e-18
8857.64244 2.78459e-18
8858.50390 2.79190e-18
8859.36536 2.79922e-18
8860.23684 2.80046e-18
8861.09830 2.80169e-18
8861.95976 2.78983e-18
8862.82123 2.77793e-18
8863.68269 2.75561e-18
8864.54415 2.73326e-18
8865.40561 2.71074e-18
8866.26707 2.68822e-18
8867.12854 2.67029e-18
8867.99000 2.65237e-18
8868.86148 2.63781e-18
8869.72294 2.62326e-18
8870.58440 2.61155e-18
8871.44586 2.59985e-18
8872.30732 2.59054e-18
8873.16879 2.58124e-18
8874.03025 2.57484e-18
8874.89171 2.56844e-18
8875.75317 2.56889e-18
8876.61463 2.56937e-18
8877.47610 2.57827e-18
8878.34758 2.58720e-18
8879.20904 2.59963e-18
8880.07050 2.61207e-18
8880.93196 2.62287e-18
8881.79342 2.63366e-18
8882.65489 2.63801e-18
8883.51635 2.64234e-18
8884.37781 2.63676e-18
8885.23927 2.63115e-18
8886.10073 2.61885e-18
8886.96220 2.60654e-18
8887.83367 2.59260e-18
8888.69514 2.57865e-18
8889.55660 2.56773e-18
8890.41806 2.55681e-18
8891.27952 2.55316e-18
8892.14099 2.54952e-18
8893.00245 2.55552e-18
8893.86391 2.56155e-18
8894.72537 2.57816e-18
8895.58683 2.59480e-18
8896.44830 2.61811e-18
8897.30976 2.64143e-18
8898.18124 2.66477e-18
8899.04270 2.68810e-18
8899.90416 2.70576e-18
8900.76562 2.72340e-18
8901.62708 2.73063e-18
8902.48855 2.73783e-18
8903.35001 2.73536e-18
8904.21147 2.73287e-18
8905.07293 2.72860e-18
8905.93439 2.72433e-18
8906.80587 2.72346e-18
8907.66734 2.72259e-18
8908.52880 2.72458e-18
8909.39026 2.72659e-18
8910.25172 2.73147e-18
8911.11318 2.73635e-18
8911.97465 2.74508e-18
8912.83611 2.75382e-18
8913.69757 2.76679e-18
8914.55903 2.77978e-18
8915.42049 2.79792e-18
8916.29197 2.81607e-18
8917.15343 2.83916e-18
8918.01490 2.86226e-18
8918.87636 2.88436e-18
8919.73782 2.90646e-18
8920.59928 2.92162e-18
8921.46074 2.93676e-18
8922.32221 2.94330e-18
8923.18367 2.94982e-18
8924.04513 2.94756e-18
8924.90659 2.94527e-18
8925.76805 2.94121e-18
8926.63953 2.93715e-18
8927.50100 2.94085e-18
8928.36246 2.94457e-18
8929.22392 2.95640e-18
8930.08538 2.96825e-18
8930.94684 2.98388e-18
8931.80831 2.99952e-18
8932.66977 3.01582e-18
8933.53123 3.03212e-18
8934.39269 3.04607e-18
8935.25415 3.06001e-18
8936.12563 3.07303e-18
8936.98709 3.08605e-18
8937.84856 3.10497e-18
8938.71002 3.12391e-18
8939.57148 3.14904e-18
8940.43294 3.17419e-18
8941.29440 3.19627e-18
8942.15587 3.21835e-18
8943.01733 3.23058e-18
8943.87879 3.24278e-18
8944.74025 3.24211e-18
8945.61173 3.24140e-18
8946.47319 3.22892e-18
8947.33466 3.21641e-18
8948.19612 3.20643e-18
8949.05758 3.19646e-18
8949.91904 3.20059e-18
8950.78050 3.20475e-18
8951.64197 3.21938e-18
8952.50343 3.23403e-18
8953.36489 3.25331e-18
8954.22635 3.27261e-18
8955.08781 3.28134e-18
8955.95929 3.29005e-18
8956.82075 3.27328e-18
8957.68222 3.25646e-18
8958.54368 3.23279e-18
8959.40514 3.20911e-18
8960.26660 3.20596e-18
8961.12806 3.20286e-18
8961.98953 3.22413e-18
8962.85099 3.24546e-18
8963.71245 3.28597e-18
8964.57391 3.32652e-18
8965.44539 3.37313e-18
8966.30685 3.41976e-18
8967.16832 3.45261e-18
8968.02978 3.48543e-18
8968.89124 3.50670e-18
8969.75270 3.52794e-18
8970.61416 3.55935e-18
8971.47563 3.59078e-18
8972.33709 3.63985e-18
8973.19855 3.68896e-18
8974.06001 3.74639e-18
8974.93149 3.80383e-18
8975.79295 3.85614e-18
8976.65441 3.90843e-18
8977.51588 3.93503e-18
8978.37734 3.96156e-18
8979.23880 3.94641e-18
8980.10026 3.93114e-18
8980.96172 3.86391e-18
8981.82319 3.79654e-18
8982.68465 3.68386e-18
8983.54611 3.57106e-18
8984.41759 3.47354e-18
8985.27905 3.37606e-18
8986.14051 3.34961e-18
8987.00198 3.32335e-18
8987.86344 3.38713e-18
8988.72490 3.45116e-18
8989.58636 3.60807e-18
8990.44782 3.76523e-18
8991.30928 3.94038e-18
8992.17075 4.11558e-18
8993.03221 4.21881e-18
8993.89367 4.32185e-18
8994.76515 4.33966e-18
8995.62661 4.35723e-18
8996.48807 4.30609e-18
8997.34954 4.25476e-18
8998.21100 4.17498e-18
8999.07246 4.09513e-18
8999.93392 4.04175e-18
9000.79538 3.98844e-18
9001.65685 3.98544e-18
9002.51831 3.98258e-18
9003.38979 4.02848e-18
9004.25125 4.07451e-18
9005.11271 4.15331e-18
9005.97417 4.23219e-18
9006.83563 4.31251e-18
9007.69710 4.39283e-18
9008.55856 4.45021e-18
9009.42002 4.50754e-18
9010.28148 4.53064e-18
9011.14295 4.55365e-18
9012.00441 4.54299e-18
9012.87589 4.53223e-18
9013.73735 4.51474e-18
9014.59881 4.49724e-18
9015.46027 4.49293e-18
9016.32173 4.48866e-18
9017.18320 4.48532e-18
9018.04466 4.48199e-18
9018.90612 4.47053e-18
9019.76758 4.45904e-18
9020.62904 4.44996e-18
9021.49051 4.44088e-18
9022.35197 4.44510e-18
9023.22345 4.44935e-18
9024.08491 4.48060e-18
9024.94637 4.51192e-18
9025.80783 4.58116e-18
9026.66930 4.65051e-18
9027.53076 4.74110e-18
9028.39222 4.83176e-18
9029.25368 4.91854e-18
9030.11514 5.00526e-18
9030.97660 5.07073e-18
9031.83807 5.13610e-18
9032.70955 5.16727e-18
9033.57101 5.19834e-18
9034.43247 5.19404e-18
9035.29393 5.18964e-18
9036.15539 5.15649e-18
9037.01686 5.12325e-18
9037.87832 5.07827e-18
9038.73978 5.03324e-18
9039.60124 5.00256e-18
9040.46270 4.97197e-18
9041.32417 4.96260e-18
9042.18563 4.95328e-18
9043.05711 4.94608e-18
9043.91857 4.93883e-18
9044.78003 4.92371e-18
9045.64149 4.90854e-18
9046.50295 4.89153e-18
9047.36442 4.87452e-18
9048.22588 4.86090e-18
9049.08734 4.84727e-18
9049.94880 4.84543e-18
9050.81027 4.84355e-18
9051.67173 4.85573e-18
9052.54321 4.86795e-18
9053.40467 4.86925e-18
9054.26613 4.87046e-18
9055.12759 4.83906e-18
9055.98905 4.80758e-18
9056.85052 4.75511e-18
9057.71198 4.70259e-18
9058.57344 4.64486e-18
9059.43490 4.58713e-18
9060.29636 4.52611e-18
9061.16784 4.46509e-18
9062.02931 4.40155e-18
9062.89077 4.33801e-18
9063.75223 4.26966e-18
9064.61369 4.20128e-18
9065.47515 4.12301e-18
9066.33662 4.04470e-18
9067.19808 3.97644e-18
9068.05954 3.90821e-18
9068.92100 3.88306e-18
9069.78246 3.85803e-18
9070.64393 3.86867e-18
9071.51540 3.87942e-18
9072.37687 3.88880e-18
9073.23833 3.89818e-18
9074.09979 3.89264e-18
9074.96125 3.88705e-18
9075.82271 3.87691e-18
9076.68418 3.86676e-18
9077.54564 3.85851e-18
9078.40710 3.85027e-18
9079.26856 3.84765e-18
9080.13002 3.84504e-18
9080.99149 3.84789e-18
9081.86297 3.85076e-18
9082.72443 3.84625e-18
9083.58589 3.84171e-18
9084.44735 3.82265e-18
9085.30881 3.80355e-18
9086.17028 3.78411e-18
9087.03174 3.76466e-18
9087.89320 3.75572e-18
9088.75466 3.74680e-18
9089.61612 3.73446e-18
9090.48760 3.72211e-18
9091.34906 3.69303e-18
9092.21053 3.66407e-18
9093.07199 3.63201e-18
9093.93345 3.59995e-18
9094.79491 3.58174e-18
9095.65637 3.56359e-18
9096.51784 3.55448e-18
9097.37930 3.54539e-18
9098.24076 3.53533e-18
9099.10222 3.52525e-18
9099.97370 3.51683e-18
9100.83516 3.50842e-18
9101.69663 3.50701e-18
9102.55809 3.50563e-18
9103.41955 3.52155e-18
9104.28101 3.53751e-18
9105.14247 3.58548e-18
9106.00393 3.63355e-18
9106.86540 3.69610e-18
9107.72686 3.75869e-18
9108.58832 3.79098e-18
9109.45980 3.82318e-18
9110.32126 3.80610e-18
9111.18272 3.78888e-18
9112.04419 3.73354e-18
9112.90565 3.67811e-18
9113.76711 3.60739e-18
9114.62857 3.53663e-18
9115.49003 3.49746e-18
9116.35150 3.45837e-18
9117.21296 3.47519e-18
9118.07442 3.49216e-18
9118.93588 3.52877e-18
9119.80736 3.56544e-18
9120.66882 3.58649e-18
9121.53028 3.60750e-18
9122.39175 3.59035e-18
9123.25321 3.57310e-18
9124.11467 3.50415e-18
9124.97613 3.43507e-18
9125.83760 3.34622e-18
9126.69906 3.25732e-18
9127.56052 3.18737e-18
9128.43200 3.11747e-18
9129.29346 3.08648e-18
9130.15492 3.05560e-18
9131.01638 3.07647e-18
9131.87785 3.09750e-18
9132.73931 3.16154e-18
9133.60077 3.22570e-18
9134.46223 3.31322e-18
9135.32369 3.40080e-18
9136.18516 3.49130e-18
9137.04662 3.58180e-18
9137.90808 3.65413e-18
9138.76954 3.72640e-18
9139.64102 3.76694e-18
9140.50248 3.80739e-18
9141.36395 3.81155e-18
9142.22541 3.81561e-18
9143.08687 3.77650e-18
9143.94833 3.73727e-18
9144.80979 3.64498e-18
9145.67125 3.55254e-18
9146.53272 3.41902e-18
9147.39418 3.28538e-18
9148.26566 3.15097e-18
9149.12712 3.01655e-18
9149.98858 2.91784e-18
9150.85004 2.81922e-18
9151.71151 2.78581e-18
9152.57297 2.75258e-18
9153.43443 2.79603e-18
9154.29589 2.83968e-18
9155.15735 2.92201e-18
9156.01882 3.00444e-18
9156.88028 3.08554e-18
9157.75176 3.16663e-18
9158.61322 3.22773e-18
9159.47468 3.28877e-18
9160.33614 3.31539e-18
9161.19760 3.34190e-18
9162.05907 3.33500e-18
9162.92053 3.32800e-18
9163.78199 3.29545e-18
9164.64345 3.26283e-18
9165.50492 3.20355e-18
9166.36638 3.14418e-18
9167.22784 3.05676e-18
9168.09932 2.96926e-18
9168.96078 2.87540e-18
9169.82224 2.78151e-18
9170.68370 2.71056e-18
9171.54517 2.63968e-18
9172.40663 2.60631e-18
9173.26809 2.57305e-18
9174.12955 2.58367e-18
9174.99101 2.59440e-18
9175.85248 2.63095e-18
9176.71394 2.66756e-18
9177.58542 2.68903e-18
9178.44688 2.71044e-18
9179.30834 2.70489e-18
9180.16980 2.69926e-18
9181.03127 2.69360e-18
9181.89273 2.68795e-18
9182.75419 2.69700e-18
9183.61565 2.70610e-18
9184.47711 2.72459e-18
9185.33857 2.74310e-18
9186.20004 2.76464e-18
9187.07152 2.78618e-18
9187.93298 2.79533e-18
9188.79444 2.80444e-18
9189.65590 2.79262e-18
9190.51736 2.78073e-18
9191.37883 2.77182e-18
9192.24029 2.76291e-18
9193.10175 2.77816e-18
9193.96321 2.79347e-18
9194.82467 2.82343e-18
9195.68614 2.85342e-18
9196.55762 2.88461e-18
9197.41908 2.91580e-18
9198.28054 2.93602e-18
9199.14200 2.95622e-18
9200.00346 2.95377e-18
9200.86492 2.95126e-18
9201.72639 2.93477e-18
9202.58785 2.91824e-18
9203.44931 2.90468e-18
9204.31077 2.89113e-18
9205.17224 2.88100e-18
9206.04371 2.87087e-18
9206.90518 2.85671e-18
9207.76664 2.84254e-18
9208.62810 2.82671e-18
9209.48956 2.81088e-18
9210.35102 2.80138e-18
9211.21249 2.79188e-18
9212.07395 2.79669e-18
9212.93541 2.80155e-18
9213.79687 2.82986e-18
9214.65833 2.85824e-18
9215.52981 2.90822e-18
9216.39127 2.95826e-18
9217.25274 3.01091e-18
9218.11420 3.06357e-18
9218.97566 3.10657e-18
9219.83712 3.14954e-18
9220.69859 3.18682e-18
9221.56005 3.22408e-18
9222.42151 3.25785e-18
9223.28297 3.29161e-18
9224.14443 3.31811e-18
9225.00590 3.34459e-18
9225.87737 3.36119e-18
9226.73884 3.37777e-18
9227.60030 3.38172e-18
9228.46176 3.38563e-18
9229.32322 3.37586e-18
9230.18468 3.36606e-18
9231.04615 3.35371e-18
9231.90761 3.34136e-18
9232.76907 3.33929e-18
9233.63053 3.33725e-18
9234.49199 3.34263e-18
9235.35346 3.34803e-18
9236.22494 3.35363e-18
9237.08640 3.35923e-18
9237.94786 3.36835e-18
9238.80932 3.37747e-18
9239.67078 3.39690e-18
9240.53225 3.41635e-18
9241.39371 3.44935e-18
9242.25517 3.48239e-18
9243.11663 3.53029e-18
9243.97809 3.57823e-18
9244.84957 3.63686e-18
9245.71103 3.69552e-18
9246.57250 3.75536e-18
9247.43396 3.81521e-18
9248.29542 3.87083e-18
9249.15688 3.92643e-18
9250.01834 3.97894e-18
9250.87981 4.03144e-18
9251.74127 4.07820e-18
9252.60273 4.12493e-18
9253.46419 4.15473e-18
9254.32565 4.18447e-18
9255.19713 4.19547e-18
9256.05860 4.20641e-18
9256.92006 4.22039e-18
9257.78152 4.23438e-18
9258.64298 4.26774e-18
9259.50444 4.30115e-18
9260.36591 4.34894e-18
9261.22737 4.39676e-18
9262.08883 4.45016e-18
9262.95029 4.50357e-18
9263.81175 4.54330e-18
9264.68323 4.58300e-18
9265.54469 4.59062e-18
9266.40616 4.59815e-18
9267.26762 4.57417e-18
9268.12908 4.55011e-18
9268.99054 4.50214e-18
9269.85200 4.45410e-18
9270.71347 4.39999e-18
9271.57493 4.34587e-18
9272.43639 4.30691e-18
9273.29785 4.26800e-18
9274.16933 4.26100e-18
9275.03079 4.25408e-18
9275.89226 4.29134e-18
9276.75372 4.32871e-18
9277.61518 4.40395e-18
9278.47664 4.47929e-18
9279.33810 4.57180e-18
9280.19957 4.66435e-18
9281.06103 4.75176e-18
9281.92249 4.83915e-18
9282.79397 4.89989e-18
9283.65543 4.96057e-18
9284.51689 4.97748e-18
9285.37835 4.99425e-18
9286.23982 4.95714e-18
9287.10128 4.91989e-18
9287.96274 4.83326e-18
9288.82420 4.74644e-18
9289.68566 4.63773e-18
9290.54713 4.52897e-18
9291.40859 4.43014e-18
9292.27005 4.33134e-18
9293.14153 4.28444e-18
9294.00299 4.23768e-18
9294.86445 4.27016e-18
9295.72592 4.30286e-18
9296.58738 4.38645e-18
9297.44884 4.47017e-18
9298.31030 4.56732e-18
9299.17176 4.66449e-18
9300.03323 4.72403e-18
9300.89469 4.78345e-18
9301.75615 4.75630e-18
9302.62763 4.72890e-18
9303.48909 4.66220e-18
9304.35055 4.59538e-18
9305.21201 4.56621e-18
9306.07348 4.53714e-18
9306.93494 4.52754e-18
9307.79640 4.51798e-18
9308.65786 4.47202e-18
9309.51932 4.42595e-18
9310.38079 4.34622e-18
9311.24225 4.26640e-18
9312.11373 4.18590e-18
9312.97519 4.10541e-18
9313.83665 4.05652e-18
9314.69811 4.00771e-18
9315.55958 4.02720e-18
9316.42104 4.04688e-18
9317.28250 4.12759e-18
9318.14396 4.20848e-18
9319.00542 4.27967e-18
9319.86688 4.35082e-18
9320.72835 4.38472e-18
9321.58981 4.41851e-18
9322.46129 4.48031e-18
9323.32275 4.54219e-18
9324.18421 4.64617e-18
9325.04567 4.75026e-18
9325.90714 4.76308e-18
9326.76860 4.77565e-18
9327.63006 4.61512e-18
9328.49152 4.45409e-18
9329.35298 4.24926e-18
9330.21445 4.04430e-18
9331.07591 3.92012e-18
9331.94739 3.79617e-18
9332.80885 3.72853e-18
9333.67031 3.66106e-18
9334.53177 3.61388e-18
9335.39323 3.56677e-18
9336.25470 3.54086e-18
9337.11616 3.51503e-18
9337.97762 3.50421e-18
9338.83908 3.49344e-18
9339.70055 3.60773e-18
9340.56201 3.72237e-18
9341.43349 4.11079e-18
9342.29495 4.49997e-18
9343.15641 4.97164e-18
9344.01787 5.44349e-18
9344.87933 5.64724e-18
9345.74080 5.85017e-18
9346.60226 5.68126e-18
9347.46372 5.51123e-18
9348.32518 5.02942e-18
9349.18664 4.54675e-18
9350.04811 3.97363e-18
9350.90957 3.40027e-18
9351.78105 3.14447e-18
9352.64251 2.88959e-18
9353.50397 3.08518e-18
9354.36543 3.28204e-18
9355.22689 3.63341e-18
9356.08836 3.98521e-18
9356.94982 4.24382e-18
9357.81128 4.50215e-18
9358.67274 4.51975e-18
9359.53420 4.53665e-18
9360.39567 4.24913e-18
9361.26715 3.96075e-18
9362.12861 3.60099e-18
9362.99007 3.24105e-18
9363.85153 3.02886e-18
9364.71299 2.81711e-18
9365.57446 2.76515e-18
9366.43592 2.71365e-18
9367.29738 2.80074e-18
9368.15884 2.88822e-18
9369.02030 3.00517e-18
9369.89178 3.12219e-18
9370.75324 3.14393e-18
9371.61471 3.16539e-18
9372.47617 3.09959e-18
9373.33763 3.03354e-18
9374.19909 2.92693e-18
9375.06056 2.82020e-18
9375.92202 2.74424e-18
9376.78348 2.66836e-18
9377.64494 2.71031e-18
9378.50640 2.75261e-18
9379.37788 2.87939e-18
9380.23934 3.00641e-18
9381.10081 3.10564e-18
9381.96227 3.20478e-18
9382.82373 3.24064e-18
9383.68519 3.27632e-18
9384.54665 3.28114e-18
9385.40812 3.28587e-18
9386.26958 3.26858e-18
9387.13104 3.25122e-18
9387.99250 3.19669e-18
9388.85396 3.14205e-18
9389.72544 3.04943e-18
9390.58691 2.95669e-18
9391.44837 2.83994e-18
9392.30983 2.72313e-18
9393.17129 2.60141e-18
9394.03275 2.47968e-18
9394.89422 2.38699e-18
9395.75568 2.29438e-18
9396.61714 2.25372e-18
9397.47860 2.21320e-18
9398.34006 2.20752e-18
9399.21154 2.20193e-18
9400.07300 2.20979e-18
9400.93447 2.21768e-18
9401.79593 2.21848e-18
9402.65739 2.21925e-18
9403.51885 2.19496e-18
9404.38031 2.17059e-18
9405.24178 2.14147e-18
9406.10324 2.11233e-18
9406.96470 2.10684e-18
9407.82616 2.10140e-18
9408.69764 2.11983e-18
9409.55910 2.13834e-18
9410.42057 2.17081e-18
9411.28203 2.20332e-18
9412.14349 2.23447e-18
9413.00495 2.26562e-18
9413.86641 2.27722e-18
9414.72788 2.28876e-18
9415.58934 2.26866e-18
9416.45080 2.24847e-18
9417.31226 2.19293e-18
9418.17372 2.13728e-18
9419.04520 2.05017e-18
9419.90666 1.96296e-18
9420.76813 1.85011e-18
9421.62959 1.73718e-18
9422.49105 1.63897e-18
9423.35251 1.54080e-18
9424.21397 1.55363e-18
9425.07544 1.56678e-18
9425.93690 1.72160e-18
9426.79836 1.87682e-18
9427.65982 2.07257e-18
9428.53130 2.26842e-18
9429.39276 2.40766e-18
9430.25423 2.54673e-18
9431.11569 2.53926e-18
9431.97715 2.53136e-18
9432.83861 2.33149e-18
9433.70007 2.13106e-18
9434.56153 1.89727e-18
9435.42300 1.66339e-18
9436.28446 1.56146e-18
9437.14592 1.45992e-18
9438.01740 1.51596e-18
9438.87886 1.57247e-18
9439.74032 1.77576e-18
9440.60179 1.97947e-18
9441.46325 2.22676e-18
9442.32471 2.47416e-18
9443.18617 2.63256e-18
9444.04763 2.79069e-18
9444.90910 2.82219e-18
9445.77056 2.85331e-18
9446.63202 2.76619e-18
9447.49348 2.67874e-18
9448.36496 2.52004e-18
9449.22642 2.36115e-18
9450.08788 2.20654e-18
9450.94935 2.05194e-18
9451.81081 1.95071e-18
9452.67227 1.84963e-18
9453.53373 1.82100e-18
9454.39520 1.79257e-18
9455.25666 1.84133e-18
9456.11812 1.89031e-18
9456.98960 2.00463e-18
9457.85106 2.11914e-18
9458.71252 2.26480e-18
9459.57398 2.41054e-18
9460.43545 2.51846e-18
9461.29691 2.62627e-18
9462.15837 2.65484e-18
9463.01983 2.68318e-18
9463.88129 2.66491e-18
9464.74276 2.64651e-18
9465.60422 2.61540e-18
9466.47570 2.58426e-18
9467.33716 2.56119e-18
9468.19862 2.53814e-18
9469.06008 2.53988e-18
9469.92155 2.54170e-18
9470.78301 2.54254e-18
9471.64447 2.54337e-18
9472.50593 2.51589e-18
9473.36739 2.48834e-18
9474.22885 2.44970e-18
9475.09032 2.41104e-18
9475.96180 2.38459e-18
9476.82326 2.35817e-18
9477.68472 2.39227e-18
9478.54618 2.42655e-18
9479.40764 2.57576e-18
9480.26911 2.72530e-18
9481.13057 2.93038e-18
9481.99203 3.13562e-18
9482.85349 3.28198e-18
9483.71495 3.42816e-18
9484.57642 3.45540e-18
9485.43788 3.48230e-18
9486.30936 3.36928e-18
9487.17082 3.25585e-18
9488.03228 3.04859e-18
9488.89374 2.84106e-18
9489.75520 2.66077e-18
9490.61667 2.48055e-18
9491.47813 2.40472e-18
9492.33959 2.32920e-18
9493.20105 2.35641e-18
9494.06252 2.38392e-18
9494.92398 2.51380e-18
9495.79546 2.64397e-18
9496.65692 2.89304e-18
9497.51838 3.14246e-18
9498.37984 3.48448e-18
9499.24130 3.82677e-18
9500.10277 4.12790e-18
9500.96423 4.42890e-18
9501.82569 4.57338e-18
9502.68715 4.71740e-18
9503.54861 4.68693e-18
9504.41008 4.65594e-18
9505.28155 4.46234e-18
9506.14302 4.26825e-18
9507.00448 4.01208e-18
9507.86594 3.75573e-18
9508.72740 3.55660e-18
9509.58887 3.35764e-18
9510.45033 3.22728e-18
9511.31179 3.09713e-18
9512.17325 3.01190e-18
9513.03471 2.92681e-18
9513.89617 2.90999e-18
9514.75764 2.89337e-18
9515.62912 2.97827e-18
9516.49058 3.06346e-18
9517.35204 3.24035e-18
9518.21350 3.41751e-18
9519.07496 3.65375e-18
9519.93643 3.89015e-18
9520.79789 4.12822e-18
9521.65935 4.36628e-18
9522.52081 4.52697e-18
9523.38227 4.68744e-18
9524.24374 4.74407e-18
9525.11522 4.80040e-18
9525.97668 4.79461e-18
9526.83814 4.78863e-18
9527.69960 4.75877e-18
9528.56106 4.72885e-18
9529.42252 4.70526e-18
9530.28399 4.68169e-18
9531.14545 4.68136e-18
9532.00691 4.68111e-18
9532.86837 4.67712e-18
9533.72984 4.67312e-18
9534.60131 4.64272e-18
9535.46278 4.61225e-18
9536.32424 4.54857e-18
9537.18570 4.48479e-18
9538.04716 4.39148e-18
9538.90862 4.29808e-18
9539.77009 4.26029e-18
9540.63155 4.22267e-18
9541.49301 4.32078e-18
9542.35447 4.41930e-18
9543.21593 4.59573e-18
9544.08741 4.77239e-18
9544.94888 4.94144e-18
9545.81034 5.11045e-18
9546.67180 5.18848e-18
9547.53326 5.26622e-18
9548.39472 5.16746e-18
9549.25619 5.06822e-18
9550.11765 4.89216e-18
9550.97911 4.71587e-18
9551.84057 4.66276e-18
9552.70203 4.61001e-18
9553.57351 4.69345e-18
9554.43497 4.77729e-18
9555.29644 4.87892e-18
9556.15790 4.98058e-18
9557.01936 5.02063e-18
9557.88082 5.06049e-18
9558.74228 4.98584e-18
9559.60375 4.91090e-18
9560.46521 4.75451e-18
9561.32667 4.59791e-18
9562.18813 4.54057e-18
9563.05961 4.48353e-18
9563.92107 4.61852e-18
9564.78254 4.75407e-18
9565.64400 4.98536e-18
9566.50546 5.21694e-18
9567.36692 5.44122e-18
9568.22838 5.66546e-18
9569.08985 5.75943e-18
9569.95131 5.85307e-18
9570.81277 5.73189e-18
9571.67423 5.61009e-18
9572.53569 5.38054e-18
9573.40717 5.15070e-18
9574.26863 4.93965e-18
9575.13010 4.72870e-18
9575.99156 4.62100e-18
9576.85302 4.51360e-18
9577.71448 4.57622e-18
9578.57594 4.63934e-18
9579.43741 4.76700e-18
9580.29887 4.89481e-18
9581.16033 4.93371e-18
9582.02179 4.97236e-18
9582.89327 4.90216e-18
9583.75473 4.83166e-18
9584.61620 4.68254e-18
9585.47766 4.53317e-18
9586.33912 4.41266e-18
9587.20058 4.29223e-18
9588.06204 4.36408e-18
9588.92351 4.43649e-18
9589.78497 4.68020e-18
9590.64643 4.92443e-18
9591.51791 5.15215e-18
9592.37937 5.37986e-18
9593.24083 5.49031e-18
9594.10229 5.60047e-18
9594.96376 5.60337e-18
9595.82522 5.60598e-18
9596.68668 5.52172e-18
9597.54814 5.43721e-18
9598.40960 5.31328e-18
9599.27107 5.18930e-18
9600.13253 5.07817e-18
9600.99399 4.96705e-18
9601.86547 4.91018e-18
9602.72693 4.85346e-18
9603.58839 4.87790e-18
9604.44986 4.90264e-18
9605.31132 5.00391e-18
9606.17278 5.10542e-18
9607.03424 5.26071e-18
9607.89570 5.41610e-18
9608.75717 5.52664e-18
9609.61863 5.63705e-18
9610.48009 5.60767e-18
9611.35157 5.57786e-18
9612.21303 5.44890e-18
9613.07449 5.31971e-18
9613.93595 5.16732e-18
9614.79742 5.01483e-18
9615.65888 4.89191e-18
9616.52034 4.76906e-18
9617.38180 4.71973e-18
9618.24326 4.67063e-18
9619.10473 4.70623e-18
9619.96619 4.74209e-18
9620.82765 4.85036e-18
9621.69913 4.95888e-18
9622.56059 5.10079e-18
9623.42205 5.24279e-18
9624.28352 5.36396e-18
9625.14498 5.48509e-18
9626.00644 5.53375e-18
9626.86790 5.58216e-18
9627.72936 5.50973e-18
9628.59083 5.43697e-18
9629.45229 5.25772e-18
9630.31375 5.07817e-18
9631.17521 4.89820e-18
9632.04669 4.71819e-18
9632.90815 4.61981e-18
9633.76961 4.52167e-18
9634.63108 4.53694e-18
9635.49254 4.55255e-18
9636.35400 4.67808e-18
9637.21546 4.80394e-18
9638.07692 4.92066e-18
9638.93839 5.03735e-18
9639.79985 5.04682e-18
9640.67133 5.05595e-18
9641.53279 5.01961e-18
9642.39425 4.98314e-18
9643.25571 4.97280e-18
9644.11718 4.96255e-18
9644.97864 4.99555e-18
9645.84010 5.02875e-18
9646.70156 5.11214e-18
9647.56302 5.19568e-18
9648.42448 5.27376e-18
9649.28595 5.35179e-18
9650.15743 5.35198e-18
9651.01889 5.35188e-18
9651.88035 5.27390e-18
9652.74181 5.19568e-18
9653.60327 5.07209e-18
9654.46474 4.94830e-18
9655.32620 4.82377e-18
9656.18766 4.69922e-18
9657.04912 4.62535e-18
9657.91058 4.55163e-18
9658.77205 4.55724e-18
9659.64352 4.56310e-18
9660.50499 4.65525e-18
9661.36645 4.74767e-18
9662.22791 4.89718e-18
9663.08937 5.04686e-18
9663.95083 5.17756e-18
9664.81230 5.30821e-18
9665.67376 5.37599e-18
9666.53522 5.44364e-18
9667.39668 5.47185e-18
9668.25815 5.49997e-18
9669.11961 5.50200e-18
9669.99109 5.50394e-18
9670.85255 5.45721e-18
9671.71401 5.41030e-18
9672.57547 5.30864e-18
9673.43693 5.20679e-18
9674.29840 5.09175e-18
9675.15986 4.97661e-18
9676.02132 4.88964e-18
9676.88278 4.80278e-18
9677.74424 4.77284e-18
9678.61572 4.74307e-18
9679.47718 4.78934e-18
9680.33865 4.83582e-18
9681.20011 4.92018e-18
9682.06157 5.00459e-18
9682.92303 5.07392e-18
9683.78449 5.14321e-18
9684.64596 5.18181e-18
9685.50742 5.22027e-18
9686.36888 5.22597e-18
9687.23034 5.23158e-18
9688.10182 5.20988e-18
9688.96328 5.18814e-18
9689.82475 5.15248e-18
9690.68621 5.11678e-18
9691.54767 5.06957e-18
9692.40913 5.02232e-18
9693.27059 4.95647e-18
9694.13206 4.89051e-18
9694.99352 4.81571e-18
9695.85498 4.74087e-18
9696.71644 4.68369e-18
9697.57790 4.62657e-18
9698.44938 4.60023e-18
9699.31084 4.57398e-18
9700.17231 4.57346e-18
9701.03377 4.57303e-18
9701.89523 4.58747e-18
9702.75669 4.60195e-18
9703.61816 4.60717e-18
9704.47962 4.61237e-18
9705.34108 4.59277e-18
9706.20254 4.57309e-18
9707.06400 4.54372e-18
9707.93548 4.51432e-18
9708.79694 4.49078e-18
9709.65841 4.46727e-18
9710.51987 4.45809e-18
9711.38133 4.44895e-18
9712.24279 4.45966e-18
9713.10425 4.47044e-18
9713.96572 4.48624e-18
9714.82718 4.50205e-18
9715.68864 4.50509e-18
9716.55010 4.50810e-18
9717.41156 4.49328e-18
9718.28304 4.47842e-18
9719.14451 4.44369e-18
9720.00597 4.40889e-18
9720.86743 4.37283e-18
9721.72889 4.33676e-18
9722.59035 4.32793e-18
9723.45182 4.31919e-18
9724.31328 4.32506e-18
9725.17474 4.33097e-18
9726.03620 4.31425e-18
9726.89766 4.29745e-18
9727.76914 4.24494e-18
9728.63060 4.19232e-18
9729.49207 4.11094e-18
9730.35353 4.02948e-18
9731.21499 3.93661e-18
9732.07645 3.84370e-18
9732.93791 3.77126e-18
9733.79938 3.69888e-18
9734.66084 3.66676e-18
9735.52230 3.63476e-18
9736.38376 3.63909e-18
9737.25524 3.64353e-18
9738.11670 3.67537e-18
9738.97817 3.70728e-18
9739.83963 3.74900e-18
9740.70109 3.79075e-18
9741.56255 3.82493e-18
9742.42401 3.85909e-18
9743.28548 3.87650e-18
9744.14694 3.89386e-18
9745.00840 3.88902e-18
9745.86986 3.88412e-18
9746.74134 3.86447e-18
9747.60280 3.84477e-18
9748.46426 3.82049e-18
9749.32573 3.79619e-18
9750.18719 3.76970e-18
9751.04865 3.74320e-18
9751.91011 3.71577e-18
9752.77157 3.68834e-18
9753.63304 3.65908e-18
9754.49450 3.62982e-18
9755.35596 3.59683e-18
9756.22744 3.56382e-18
9757.08890 3.53397e-18
9757.95036 3.50412e-18
9758.81183 3.48754e-18
9759.67329 3.47100e-18
9760.53475 3.47555e-18
9761.39621 3.48016e-18
9762.25767 3.51256e-18
9763.11913 3.54505e-18
9763.98060 3.59510e-18
9764.84206 3.64521e-18
9765.71354 3.68419e-18
9766.57500 3.72314e-18
9767.43646 3.73696e-18
9768.29792 3.75070e-18
9769.15939 3.74859e-18
9770.02085 3.74643e-18
9770.88231 3.73626e-18
9771.74377 3.72607e-18
9772.60523 3.71178e-18
9773.46670 3.69748e-18
9774.32816 3.68405e-18
9775.19964 3.67062e-18
9776.06110 3.66200e-18
9776.92256 3.65339e-18
9777.78402 3.65221e-18
9778.64548 3.65105e-18
9779.50695 3.66066e-18
9780.36841 3.67031e-18
9781.22987 3.69165e-18
9782.09133 3.71303e-18
9782.95280 3.72763e-18
9783.81426 3.74220e-18
9784.68574 3.72997e-18
9785.54720 3.71765e-18
9786.40866 3.68832e-18
9787.27012 3.65893e-18
9788.13158 3.63080e-18
9788.99305 3.60267e-18
9789.85451 3.58218e-18
9790.71597 3.56171e-18
9791.57743 3.55154e-18
9792.43889 3.54140e-18
9793.30036 3.53469e-18
9794.16182 3.52800e-18
9795.03330 3.51033e-18
9795.89476 3.49263e-18
9796.75622 3.46820e-18
9797.61768 3.44376e-18
9798.47915 3.43366e-18
9799.34061 3.42360e-18
9800.20207 3.43486e-18
9801.06353 3.44618e-18
9801.92499 3.46882e-18
9802.78645 3.49148e-18
9803.64792 3.51540e-18
9804.51940 3.53932e-18
9805.38086 3.55271e-18
9806.24232 3.56606e-18
9807.10378 3.56317e-18
9807.96524 3.56022e-18
9808.82671 3.55240e-18
9809.68817 3.54457e-18
9810.54963 3.54262e-18
9811.41109 3.54070e-18
9812.27255 3.55146e-18
9813.13402 3.56225e-18
9813.99548 3.58889e-18
9814.86696 3.61557e-18
9815.72842 3.63913e-18
9816.58988 3.66267e-18
9817.45134 3.66301e-18
9818.31280 3.66329e-18
9819.17427 3.64310e-18
9820.03573 3.62285e-18
9820.89719 3.59060e-18
9821.75865 3.55831e-18
9822.62012 3.52642e-18
9823.48158 3.49454e-18
9824.35306 3.47751e-18
9825.21452 3.46053e-18
9826.07598 3.45624e-18
9826.93744 3.45199e-18
9827.79890 3.44872e-18
9828.66037 3.44545e-18
9829.52183 3.44030e-18
9830.38329 3.43515e-18
9831.24475 3.43159e-18
9832.10621 3.42804e-18
9832.97769 3.42528e-18
9833.83915 3.42251e-18
9834.70062 3.41599e-18
9835.56208 3.40945e-18
9836.42354 3.39706e-18
9837.28500 3.38465e-18
9838.14647 3.36763e-18
9839.00793 3.35060e-18
9839.86939 3.33033e-18
9840.73085 3.31005e-18
9841.59231 3.28725e-18
9842.45377 3.26445e-18
9843.32525 3.24172e-18
9844.18672 3.21900e-18
9845.04818 3.20440e-18
9845.90964 3.18982e-18
9846.77110 3.18969e-18
9847.63256 3.18960e-18
9848.49403 3.20197e-18
9849.35549 3.21438e-18
9850.21695 3.23566e-18
9851.07841 3.25696e-18
9851.93987 3.28369e-18
9852.81135 3.31044e-18
9853.67282 3.33856e-18
9854.53428 3.36668e-18
9855.39574 3.39362e-18
9856.25720 3.42055e-18
9857.11866 3.44441e-18
9857.98013 3.46826e-18
9858.84159 3.48395e-18
9859.70305 3.49960e-18
9860.56451 3.50125e-18
9861.42597 3.50287e-18
9862.29745 3.48970e-18
9863.15891 3.47649e-18
9864.02038 3.45102e-18
9864.88184 3.42550e-18
9865.74330 3.39236e-18
9866.60476 3.35919e-18
9867.46622 3.32504e-18
9868.32769 3.29088e-18
9869.18915 3.25952e-18
9870.05061 3.22818e-18
9870.92209 3.19918e-18
9871.78355 3.17019e-18
9872.64501 3.14404e-18
9873.50648 3.11791e-18
9874.36794 3.09686e-18
9875.22940 3.07583e-18
9876.09086 3.06165e-18
9876.95232 3.04749e-18
9877.81379 3.04181e-18
9878.67525 3.03616e-18
9879.53671 3.03972e-18
9880.39817 3.04331e-18
9881.26965 3.05498e-18
9882.13111 3.06668e-18
9882.99257 3.08437e-18
9883.85404 3.10207e-18
9884.71550 3.12195e-18
9885.57696 3.14183e-18
9886.43842 3.15976e-18
9887.29988 3.17768e-18
9888.16135 3.18977e-18
9889.02281 3.20185e-18
9889.88427 3.20487e-18
9890.74573 3.20786e-18
9891.61721 3.20171e-18
9892.47867 3.19555e-18
9893.34014 3.18189e-18
9894.20160 3.16821e-18
9895.06306 3.14879e-18
9895.92452 3.12935e-18
9896.78598 3.10601e-18
9897.64745 3.08267e-18
9898.50891 3.05846e-18
9899.37037 3.03425e-18
9900.23183 3.01317e-18
9901.09329 2.99209e-18
9901.96477 2.97481e-18
9902.82623 2.95753e-18
9903.68770 2.94063e-18
9904.54916 2.92373e-18
9905.41062 2.90800e-18
9906.27208 2.89227e-18
9907.13354 2.88513e-18
9907.99501 2.87801e-18
9908.85647 2.88298e-18
9909.71793 2.88798e-18
9910.57939 2.90169e-18
9911.45087 2.91541e-18
9912.31233 2.93234e-18
9913.17380 2.94927e-18
9914.03526 2.95778e-18
9914.89672 2.96626e-18
9915.75818 2.95711e-18
9916.61964 2.94790e-18
9917.48111 2.92432e-18
9918.34257 2.90069e-18
9919.20403 2.86833e-18
9920.07551 2.83595e-18
9920.93697 2.80123e-18
9921.79843 2.76650e-18
9922.65989 2.73595e-18
9923.52136 2.70542e-18
9924.38282 2.68191e-18
9925.24428 2.65842e-18
9926.10574 2.64307e-18
9926.96720 2.62774e-18
9927.82867 2.61630e-18
9928.69013 2.60486e-18
9929.56161 2.59056e-18
9930.42307 2.57626e-18
9931.28453 2.55691e-18
9932.14599 2.53754e-18
9933.00746 2.51410e-18
9933.86892 2.49065e-18
9934.73038 2.46511e-18
9935.59184 2.43957e-18
9936.45330 2.41480e-18
9937.31477 2.39003e-18
9938.17623 2.36984e-18
9939.03769 2.34965e-18
9939.90917 2.33880e-18
9940.77063 2.32797e-18
9941.63209 2.32776e-18
9942.49355 2.32759e-18
9943.35502 2.33309e-18
9944.21648 2.33861e-18
9945.07794 2.34556e-18
9945.93940 2.35251e-18
9946.80086 2.35983e-18
9947.66233 2.36716e-18
9948.52379 2.37361e-18
9949.39527 2.38006e-18
9950.25673 2.38328e-18
9951.11819 2.38649e-18
9951.97965 2.38494e-18
9952.84112 2.38339e-18
9953.70258 2.38016e-18
9954.56404 2.37691e-18
9955.42550 2.37534e-18
9956.28696 2.37378e-18
9957.14843 2.37163e-18
9958.00989 2.36947e-18
9958.88137 2.36364e-18
9959.74283 2.35778e-18
9960.60429 2.34667e-18
9961.46575 2.33555e-18
9962.32721 2.31814e-18
9963.18868 2.30071e-18
9964.05014 2.28221e-18
9964.91160 2.26372e-18
9965.77306 2.25284e-18
9966.63452 2.24199e-18
9967.49599 2.24077e-18
9968.36747 2.23958e-18
9969.22893 2.24467e-18
9970.09039 2.24977e-18
9970.95185 2.26064e-18
9971.81331 2.27153e-18
9972.67477 2.29067e-18
9973.53624 2.30984e-18
9974.39770 2.33622e-18
9975.25916 2.36262e-18
9976.12062 2.39059e-18
9976.98208 2.41856e-18
9977.85356 2.44362e-18
9978.71503 2.46868e-18
9979.57649 2.48869e-18
9980.43795 2.50869e-18
9981.29941 2.52290e-18
9982.16087 2.53709e-18
9983.02234 2.54850e-18
9983.88380 2.55992e-18
9984.74526 2.57159e-18
9985.60672 2.58328e-18
9986.46818 2.59673e-18
9987.32965 2.61019e-18
9988.20112 2.62621e-18
9989.06259 2.64223e-18
9989.92405 2.65516e-18
9990.78551 2.66809e-18
9991.64697 2.67154e-18
9992.50843 2.67497e-18
9993.36990 2.67374e-18
9994.23136 2.67251e-18
9995.09282 2.67481e-18
9995.95428 2.67713e-18
9996.81574 2.68157e-18
9997.67721 2.68601e-18
9998.54869 2.68735e-18
9999.41015 2.68867e-18
