# wavelength flux
4000.00068 8.43601e-18
4003.60860 8.59710e-18
4007.20650 8.45484e-18
4010.81442 8.30729e-18
4014.41232 7.74103e-18
4018.02024 8.20881e-18
4021.62816 8.94349e-18
4025.22606 8.65640e-18
4028.83398 9.66908e-18
4032.44190 9.30835e-18
4036.03980 8.93205e-18
4039.64772 9.63391e-18
4043.25564 8.90059e-18
4046.85353 7.17574e-18
4050.46145 7.61922e-18
4054.05935 8.13234e-18
4057.66727 9.46704e-18
4061.27519 1.07294e-17
4064.87309 1.10325e-17
4068.48101 1.01242e-17
4072.08893 9.39927e-18
4075.68683 9.91558e-18
4079.29475 1.00362e-17
4082.89265 8.93534e-18
4086.50057 8.36262e-18
4090.10849 9.74941e-18
4093.70638 1.04282e-17
4097.31430 1.07651e-17
4100.92222 1.05411e-17
4104.52012 9.99517e-18
4108.12804 1.03353e-17
4111.73596 1.01698e-17
4115.33386 9.89644e-18
4118.94178 9.53875e-18
4122.53968 1.01485e-17
4126.14760 1.11390e-17
4129.75552 1.06101e-17
4133.35342 9.44728e-18
4136.96134 9.43309e-18
4140.56926 1.13275e-17
4144.16715 1.16235e-17
4147.77507 1.04337e-17
4151.37297 1.11841e-17
4154.98089 1.18327e-17
4158.58881 1.05991e-17
4162.18671 1.08649e-17
4165.79463 1.13482e-17
4169.40255 1.12072e-17
4173.00045 1.10044e-17
4176.60837 1.10506e-17
4180.21629 1.09404e-17
4183.81419 1.10011e-17
4187.42211 1.14791e-17
4191.02000 1.19800e-17
4194.62792 1.19433e-17
4198.23584 1.17572e-17
4201.83374 1.18787e-17
4205.44166 1.20276e-17
4209.04958 1.12613e-17
4212.64748 1.10960e-17
4216.25540 1.16040e-17
4219.85330 1.17105e-17
4223.46122 1.19828e-17
4227.06914 1.22131e-17
4230.66704 1.21854e-17
4234.27496 1.20194e-17
4237.88288 1.11468e-17
4241.48077 1.14273e-17
4245.08869 1.19942e-17
4248.69661 1.31770e-17
4252.29451 1.30163e-17
4255.90243 1.14123e-17
4259.50033 1.15532e-17
4263.10825 1.24043e-17
4266.71617 1.28005e-17
4270.31407 1.20922e-17
4273.92199 1.17983e-17
4277.52991 1.12621e-17
4281.12781 1.14032e-17
4284.73573 1.23511e-17
4288.33362 1.26105e-17
4291.94154 1.20093e-17
4295.54946 1.18391e-17
4299.14736 1.20848e-17
4302.75528 1.24733e-17
4306.36320 1.27536e-17
4309.96110 1.17803e-17
4313.56902 1.17756e-17
4317.16692 1.26878e-17
4320.77484 1.26269e-17
4324.38276 1.36557e-17
4327.98066 1.43317e-17
4331.58858 1.29429e-17
4335.19650 1.18757e-17
4338.79439 1.27209e-17
4342.40231 1.41347e-17
4346.01023 1.32817e-17
4349.60813 1.13209e-17
4353.21605 1.14091e-17
4356.81395 1.23146e-17
4360.42187 1.29353e-17
4364.02979 1.32722e-17
4367.62769 1.31042e-17
4371.23561 1.29721e-17
4374.84353 1.32832e-17
4378.44143 1.35994e-17
4382.04935 1.35734e-17
4385.64724 1.35751e-17
4389.25516 1.31669e-17
4392.86308 1.32986e-17
4396.46098 1.27325e-17
4400.06890 1.30554e-17
4403.67682 1.41202e-17
4407.27472 1.36538e-17
4410.88264 1.35839e-17
4414.49056 1.36525e-17
4418.08846 1.34166e-17
4421.69638 1.37885e-17
4425.29428 1.34058e-17
4428.90220 1.34341e-17
4432.51012 1.37997e-17
4436.10801 1.41269e-17
4439.71593 1.51236e-17
4443.32385 1.54920e-17
4446.92175 1.46279e-17
4450.52967 1.39525e-17
4454.12757 1.34932e-17
4457.73549 1.37216e-17
4461.34341 1.40350e-17
4464.94131 1.37387e-17
4468.54923 1.39441e-17
4472.15715 1.41239e-17
4475.75505 1.40405e-17
4479.36297 1.46023e-17
4482.97089 1.42234e-17
4486.56878 1.34211e-17
4490.17670 1.47667e-17
4493.77460 1.44680e-17
4497.38252 1.42684e-17
4500.99044 1.40681e-17
4504.58834 1.50444e-17
4508.19626 1.42211e-17
4511.80418 1.38853e-17
4515.40208 1.35997e-17
4519.01000 1.35236e-17
4522.61792 1.38233e-17
4526.21582 1.39145e-17
4529.82374 1.41735e-17
4533.42163 1.43272e-17
4537.02955 1.37634e-17
4540.63747 1.34255e-17
4544.23537 1.36765e-17
4547.84329 1.41864e-17
4551.45121 1.48667e-17
4555.04911 1.49639e-17
4558.65703 1.42074e-17
4562.25493 1.40582e-17
4565.86285 1.45854e-17
4569.47077 1.39928e-17
4573.06867 1.36524e-17
4576.67659 1.39746e-17
4580.28451 1.36871e-17
4583.88240 1.41297e-17
4587.49032 1.36319e-17
4591.09824 1.27927e-17
4594.69614 1.34180e-17
4598.30406 1.36624e-17
4601.90196 1.44005e-17
4605.50988 1.42016e-17
4609.11780 1.34705e-17
4612.71570 1.41476e-17
4616.32362 1.43549e-17
4619.93154 1.41596e-17
4623.52944 1.41278e-17
4627.13736 1.37485e-17
4630.73525 1.37013e-17
4634.34317 1.36728e-17
4637.95109 1.39973e-17
4641.54899 1.39394e-17
4645.15691 1.40748e-17
4648.76483 1.38271e-17
4652.36273 1.36314e-17
4655.97065 1.34872e-17
4659.57857 1.32822e-17
4663.17647 1.33533e-17
4666.78439 1.24543e-17
4670.38229 1.24783e-17
4673.99021 1.28917e-17
4677.59813 1.32306e-17
4681.19602 1.34847e-17
4684.80394 1.34716e-17
4688.41186 1.29167e-17
4692.00976 1.29500e-17
4695.61768 1.35340e-17
4699.21558 1.35702e-17
4702.82350 1.34090e-17
4706.43142 1.34302e-17
4710.02932 1.36482e-17
4713.63724 1.35188e-17
4717.24516 1.30434e-17
4720.84306 1.34208e-17
4724.45098 1.35277e-17
4728.05890 1.30308e-17
4731.65679 1.29673e-17
4735.26471 1.33893e-17
4738.86261 1.33454e-17
4742.47053 1.22081e-17
4746.07845 1.22967e-17
4749.67635 1.30234e-17
4753.28427 1.33318e-17
4756.89219 1.33139e-17
4760.49009 1.26545e-17
4764.09801 1.29927e-17
4767.69591 1.29152e-17
4771.30383 1.26812e-17
4774.91175 1.25858e-17
4778.50964 1.27331e-17
4782.11756 1.26084e-17
4785.72548 1.26559e-17
4789.32338 1.27950e-17
4792.93130 1.27226e-17
4796.52920 1.31125e-17
4800.13712 1.34262e-17
4803.74504 1.28556e-17
4807.34294 1.29522e-17
4810.95086 1.30718e-17
4814.55878 1.30353e-17
4818.15668 1.32956e-17
4821.76460 1.33745e-17
4825.37252 1.36658e-17
4828.97041 1.38158e-17
4832.57833 1.35807e-17
4836.17623 1.35609e-17
4839.78415 1.31758e-17
4843.39207 1.30318e-17
4846.98997 1.32126e-17
4850.59789 1.35656e-17
4854.20581 1.35200e-17
4857.80371 1.33988e-17
4861.41163 1.33336e-17
4865.00953 1.32852e-17
4868.61745 1.35543e-17
4872.22537 1.35788e-17
4875.82326 1.35067e-17
4879.43118 1.33443e-17
4883.03910 1.35260e-17
4886.63700 1.41643e-17
4890.24492 1.39330e-17
4893.85284 1.33484e-17
4897.45074 1.36900e-17
4901.05866 1.35083e-17
4904.65656 1.33279e-17
4908.26448 1.41892e-17
4911.87240 1.43431e-17
4915.47030 1.39631e-17
4919.07822 1.40717e-17
4922.68614 1.43170e-17
4926.28403 1.42027e-17
4929.89195 1.39582e-17
4933.49987 1.40301e-17
4937.09777 1.44710e-17
4940.70569 1.49783e-17
4944.30359 1.45604e-17
4947.91151 1.42391e-17
4951.51943 1.45685e-17
4955.11733 1.44937e-17
4958.72525 1.45368e-17
4962.33317 1.47045e-17
4965.93107 1.43886e-17
4969.53899 1.44024e-17
4973.13688 1.53825e-17
4976.74480 1.58850e-17
4980.35272 1.56802e-17
4983.95062 1.49576e-17
4987.55854 1.51078e-17
4991.16646 1.59536e-17
4994.76436 1.56579e-17
4998.37228 1.53024e-17
5001.98020 1.55298e-17
5005.57810 1.58183e-17
5009.18602 1.57162e-17
5012.78392 1.56737e-17
5016.39184 1.57713e-17
5019.99976 1.59950e-17
5023.59765 1.61654e-17
5027.20557 1.62271e-17
5030.81349 1.63796e-17
5034.41139 1.62641e-17
5038.01931 1.61883e-17
5041.61721 1.64864e-17
5045.22513 1.64362e-17
5048.83305 1.65241e-17
5052.43095 1.67379e-17
5056.03887 1.68341e-17
5059.64679 1.69576e-17
5063.24469 1.70227e-17
5066.85261 1.70251e-17
5070.46053 1.68033e-17
5074.05842 1.64669e-17
5077.66634 1.68152e-17
5081.26424 1.74638e-17
5084.87216 1.73986e-17
5088.48008 1.70546e-17
5092.07798 1.74037e-17
5095.68590 1.76020e-17
5099.29382 1.71418e-17
5102.89172 1.71172e-17
5106.49964 1.75204e-17
5110.09754 1.77013e-17
5113.70546 1.76815e-17
5117.31338 1.77326e-17
5120.91127 1.78908e-17
5124.51919 1.78511e-17
5128.12711 1.76705e-17
5131.72501 1.75655e-17
5135.33293 1.73745e-17
5138.94085 1.73319e-17
5142.53875 1.77568e-17
5146.14667 1.76780e-17
5149.74457 1.73613e-17
5153.35249 1.74487e-17
5156.96041 1.78470e-17
5160.55831 1.79647e-17
5164.16623 1.77309e-17
5167.77415 1.80024e-17
5171.37204 1.83979e-17
5174.97996 1.80881e-17
5178.57786 1.76695e-17
5182.18578 1.77580e-17
5185.79370 1.78658e-17
5189.39160 1.77938e-17
5192.99952 1.76193e-17
5196.60744 1.78859e-17
5200.20534 1.80347e-17
5203.81326 1.77034e-17
5207.42118 1.76960e-17
5211.01908 1.76759e-17
5214.62700 1.78775e-17
5218.22489 1.81058e-17
5221.83281 1.79520e-17
5225.44073 1.80686e-17
5229.03863 1.81684e-17
5232.64655 1.83193e-17
5236.25447 1.78684e-17
5239.85237 1.77947e-17
5243.46029 1.82278e-17
5247.05819 1.78767e-17
5250.66611 1.77117e-17
5254.27403 1.79164e-17
5257.87193 1.79073e-17
5261.47985 1.78356e-17
5265.08777 1.78578e-17
5268.68566 1.76416e-17
5272.29358 1.74735e-17
5275.89148 1.73951e-17
5279.49940 1.74728e-17
5283.10732 1.76303e-17
5286.70522 1.73685e-17
5290.31314 1.71860e-17
5293.92106 1.71156e-17
5297.51896 1.74667e-17
5301.12688 1.74305e-17
5304.73480 1.71114e-17
5308.33270 1.72567e-17
5311.94062 1.71012e-17
5315.54854 1.71294e-17
5319.14643 1.84959e-17
5322.75435 1.85903e-17
5326.35225 1.73728e-17
5329.96017 1.69264e-17
5333.56809 1.69235e-17
5337.16599 1.67640e-17
5340.77391 1.66850e-17
5344.38183 1.66665e-17
5347.97973 1.68345e-17
5351.58765 1.69518e-17
5355.18555 1.69339e-17
5358.79347 1.69851e-17
5362.40139 1.71224e-17
5365.99928 1.69048e-17
5369.60720 1.66929e-17
5373.21512 1.68152e-17
5376.81302 1.68901e-17
5380.42094 1.66969e-17
5384.01884 1.66979e-17
5387.62676 1.65661e-17
5391.23468 1.65334e-17
5394.83258 1.68090e-17
5398.44050 1.68546e-17
5402.04842 1.62698e-17
5405.64632 1.63755e-17
5409.25424 1.64904e-17
5412.86216 1.62080e-17
5416.46005 1.59936e-17
5420.06797 1.61832e-17
5423.66587 1.64624e-17
5427.27379 1.64204e-17
5430.88171 1.61698e-17
5434.47961 1.57714e-17
5438.08753 1.55140e-17
5441.69545 1.59590e-17
5445.29335 1.62987e-17
5448.90127 1.62986e-17
5452.49917 1.49462e-17
5456.10709 1.49708e-17
5459.71501 1.59792e-17
5463.31290 1.57107e-17
5466.92082 1.54493e-17
5470.52874 1.56158e-17
5474.12664 1.53481e-17
5477.73456 1.51251e-17
5481.34248 1.50758e-17
5484.94038 1.51868e-17
5488.54830 1.47604e-17
5492.14620 1.46459e-17
5495.75412 1.47772e-17
5499.36204 1.48894e-17
5502.95994 1.48316e-17
5506.56786 1.51073e-17
5510.17578 1.52812e-17
5513.77367 1.51680e-17
5517.38159 1.47113e-17
5520.97949 1.45908e-17
5524.58741 1.50344e-17
5528.19533 1.51730e-17
5531.79323 1.48302e-17
5535.40115 1.45315e-17
5539.00907 1.45289e-17
5542.60697 1.44281e-17
5546.21489 1.45879e-17
5549.82281 1.43339e-17
5553.42071 1.41928e-17
5557.02863 1.42652e-17
5560.62652 1.43293e-17
5564.23444 1.45479e-17
5567.84236 1.43922e-17
5571.44026 1.41795e-17
5575.04818 1.45170e-17
5578.65610 1.45520e-17
5582.25400 1.40149e-17
5585.86192 1.38031e-17
5589.45982 1.40979e-17
5593.06774 1.43171e-17
5596.67566 1.40966e-17
5600.27356 1.42207e-17
5603.88148 1.40551e-17
5607.48940 1.37029e-17
5611.08729 1.39311e-17
5614.69521 1.41672e-17
5618.30313 1.39522e-17
5621.90103 1.38491e-17
5625.50895 1.40043e-17
5629.10685 1.40349e-17
5632.71477 1.39214e-17
5636.32269 1.41939e-17
5639.92059 1.39720e-17
5643.52851 1.37115e-17
5647.13643 1.37514e-17
5650.73433 1.35781e-17
5654.34225 1.39291e-17
5657.94014 1.40471e-17
5661.54806 1.34868e-17
5665.15598 1.34186e-17
5668.75388 1.36765e-17
5672.36180 1.35502e-17
5675.96972 1.32956e-17
5679.56762 1.29280e-17
5683.17554 1.26760e-17
5686.78346 1.32847e-17
5690.38136 1.37916e-17
5693.98928 1.37145e-17
5697.58718 1.41022e-17
5701.19510 1.42830e-17
5704.80302 1.37658e-17
5708.40091 1.31956e-17
5712.00883 1.33664e-17
5715.61675 1.36321e-17
5719.21465 1.38253e-17
5722.82257 1.33750e-17
5726.42047 1.32221e-17
5730.02839 1.37143e-17
5733.63631 1.34171e-17
5737.23421 1.30400e-17
5740.84213 1.30764e-17
5744.45005 1.34357e-17
5748.04795 1.35007e-17
5751.65587 1.31706e-17
5755.26379 1.27727e-17
5758.86168 1.27635e-17
5762.46960 1.28707e-17
5766.06750 1.40973e-17
5769.67542 1.39664e-17
5773.28334 1.28897e-17
5776.88124 1.22704e-17
5780.48916 1.22613e-17
5784.09708 1.27131e-17
5787.69498 1.31927e-17
5791.30290 1.33090e-17
5794.91082 1.31717e-17
5798.50872 1.25658e-17
5802.11664 1.25174e-17
5805.71453 1.25777e-17
5809.32245 1.24982e-17
5812.93037 1.22849e-17
5816.52827 1.22457e-17
5820.13619 1.24897e-17
5823.74411 1.22030e-17
5827.34201 1.19976e-17
5830.94993 1.23829e-17
5834.54783 1.20531e-17
5838.15575 1.15831e-17
5841.76367 1.22658e-17
5845.36157 1.25915e-17
5848.96949 1.24298e-17
5852.57741 1.24604e-17
5856.17530 1.18407e-17
5859.78322 1.18294e-17
5863.38112 1.23249e-17
5866.98904 1.18640e-17
5870.59696 1.17992e-17
5874.19486 1.20775e-17
5877.80278 1.18710e-17
5881.41070 1.18790e-17
5885.00860 1.16566e-17
5888.61652 1.14664e-17
5892.22444 1.13651e-17
5895.82234 1.14460e-17
5899.43026 1.17943e-17
5903.02815 1.16513e-17
5906.63607 1.12932e-17
5910.24399 1.09757e-17
5913.84189 1.08892e-17
5917.44981 1.09292e-17
5921.05773 1.07952e-17
5924.65563 1.13494e-17
5928.26355 1.16700e-17
5931.86145 1.10217e-17
5935.46937 1.10179e-17
5939.07729 1.15737e-17
5942.67519 1.13642e-17
5946.28311 1.12537e-17
5949.89103 1.16269e-17
5953.48892 1.17525e-17
5957.09684 1.12860e-17
5960.70476 1.11390e-17
5964.30266 1.08976e-17
5967.91058 1.08682e-17
5971.50848 1.14157e-17
5975.11640 1.16648e-17
5978.72432 1.12824e-17
5982.32222 1.07387e-17
5985.93014 1.08928e-17
5989.53806 1.12068e-17
5993.13596 1.13299e-17
5996.74388 1.09758e-17
6000.34177 1.09276e-17
6003.94969 1.14522e-17
6007.55761 1.14076e-17
6011.15551 1.14704e-17
6014.76343 1.18792e-17
6018.37135 1.15491e-17
6021.96925 1.10985e-17
6025.57717 1.12851e-17
6029.17507 1.16535e-17
6032.78299 1.13337e-17
6036.39091 1.10838e-17
6039.98881 1.14230e-17
6043.59673 1.17448e-17
6047.20465 1.19689e-17
6050.80254 1.19923e-17
6054.41046 1.15825e-17
6058.01838 1.09785e-17
6061.61628 1.10387e-17
6065.22420 1.15834e-17
6068.82210 1.18849e-17
6072.43002 1.18289e-17
6076.03794 1.14758e-17
6079.63584 1.16105e-17
6083.24376 1.19611e-17
6086.85168 1.19074e-17
6090.44958 1.22655e-17
6094.05750 1.24448e-17
6097.66542 1.21038e-17
6101.26331 1.19826e-17
6104.87123 1.19526e-17
6108.46913 1.18493e-17
6112.07705 1.18126e-17
6115.68497 1.17238e-17
6119.28287 1.15301e-17
6122.89079 1.16864e-17
6126.49871 1.23750e-17
6130.09661 1.24981e-17
6133.70453 1.19790e-17
6137.30243 1.19362e-17
6140.91035 1.22128e-17
6144.51827 1.24104e-17
6148.11616 1.18432e-17
6151.72408 1.15601e-17
6155.33200 1.17587e-17
6158.92990 1.18876e-17
6162.53782 1.22664e-17
6166.14574 1.20902e-17
6169.74364 1.20605e-17
6173.35156 1.21147e-17
6176.94946 1.19655e-17
6180.55738 1.18753e-17
6184.16530 1.21924e-17
6187.76320 1.22470e-17
6191.37112 1.19604e-17
6194.97904 1.22956e-17
6198.57693 1.23628e-17
6202.18485 1.20891e-17
6205.78275 1.19520e-17
6209.39067 1.22449e-17
6212.99859 1.23362e-17
6216.59649 1.24288e-17
6220.20441 1.25818e-17
6223.81233 1.26026e-17
6227.41023 1.26350e-17
6231.01815 1.25497e-17
6234.62607 1.24756e-17
6238.22397 1.26340e-17
6241.83189 1.27461e-17
6245.42978 1.22677e-17
6249.03770 1.20865e-17
6252.64562 1.25352e-17
6256.24352 1.23697e-17
6259.85144 1.19158e-17
6263.45936 1.20525e-17
6267.05726 1.20357e-17
6270.66518 1.19288e-17
6274.27310 1.18836e-17
6277.87100 1.16507e-17
6281.47892 1.16766e-17
6285.07682 1.16660e-17
6288.68474 1.15534e-17
6292.29266 1.18486e-17
6295.89055 1.20423e-17
6299.49847 1.19313e-17
6303.10639 1.16972e-17
6306.70429 1.15806e-17
6310.31221 1.15386e-17
6313.91011 1.17381e-17
6317.51803 1.18485e-17
6321.12595 1.17725e-17
6324.72385 1.16802e-17
6328.33177 1.15761e-17
6331.93969 1.17214e-17
6335.53759 1.17468e-17
6339.14551 1.17669e-17
6342.74340 1.19477e-17
6346.35132 1.17073e-17
6349.95924 1.15790e-17
6353.55714 1.15768e-17
6357.16506 1.15110e-17
6360.77298 1.16347e-17
6364.37088 1.17379e-17
6367.97880 1.17193e-17
6371.58672 1.18500e-17
6375.18462 1.19022e-17
6378.79254 1.21406e-17
6382.39044 1.20041e-17
6385.99836 1.16174e-17
6389.60628 1.20756e-17
6393.20417 1.23707e-17
6396.81209 1.21619e-17
6400.42001 1.22630e-17
6404.01791 1.27272e-17
6407.62583 1.28247e-17
6411.22373 1.22710e-17
6414.83165 1.23958e-17
6418.43957 1.25958e-17
6422.03747 1.24509e-17
6425.64539 1.25556e-17
6429.25331 1.25047e-17
6432.85121 1.24052e-17
6436.45913 1.24266e-17
6440.06705 1.22698e-17
6443.66494 1.23085e-17
6447.27286 1.24740e-17
6450.87076 1.27233e-17
6454.47868 1.28530e-17
6458.08660 1.27490e-17
6461.68450 1.24300e-17
6465.29242 1.21878e-17
6468.90034 1.24925e-17
6472.49824 1.27200e-17
6476.10616 1.22388e-17
6479.70406 1.18342e-17
6483.31198 1.20443e-17
6486.91990 1.24089e-17
6490.51779 1.27196e-17
6494.12571 1.25986e-17
6497.73363 1.20703e-17
6501.33153 1.20369e-17
6504.93945 1.22035e-17
6508.53735 1.19967e-17
6512.14527 1.19366e-17
6515.75319 1.20099e-17
6519.35109 1.19600e-17
6522.95901 1.20858e-17
6526.56693 1.22793e-17
6530.16483 1.21453e-17
6533.77275 1.21356e-17
6537.38067 1.19339e-17
6540.97856 1.16899e-17
6544.58648 1.19575e-17
6548.18438 1.21884e-17
6551.79230 1.19146e-17
6555.40022 1.17189e-17
6558.99812 1.17348e-17
6562.60604 1.16491e-17
6566.21396 1.16155e-17
6569.81186 1.17013e-17
6573.41978 1.16386e-17
6577.02770 1.16550e-17
6580.62560 1.16981e-17
6584.23352 1.15337e-17
6587.83141 1.14458e-17
6591.43933 1.14142e-17
6595.04725 1.15090e-17
6598.64515 1.14618e-17
6602.25307 1.13976e-17
6605.86099 1.14540e-17
6609.45889 1.13280e-17
6613.06681 1.13517e-17
6616.66471 1.14773e-17
6620.27263 1.12822e-17
6623.88055 1.12067e-17
6627.47845 1.12015e-17
6631.08637 1.09719e-17
6634.69429 1.12130e-17
6638.29218 1.13490e-17
6641.90010 1.10869e-17
6645.50802 1.09400e-17
6649.10592 1.10480e-17
6652.71384 1.11215e-17
6656.31174 1.08438e-17
6659.91966 1.07934e-17
6663.52758 1.08541e-17
6667.12548 1.05835e-17
6670.73340 1.04770e-17
6674.34132 1.06369e-17
6677.93922 1.05905e-17
6681.54714 1.03714e-17
6685.14503 1.02469e-17
6688.75295 1.03476e-17
6692.36087 1.04632e-17
6695.95877 1.04625e-17
6699.56669 1.04857e-17
6703.17461 1.03590e-17
6706.77251 1.00590e-17
6710.38043 9.98359e-18
6713.98835 1.01312e-17
6717.58625 1.01455e-17
6721.19417 1.00395e-17
6724.79207 9.62757e-18
6728.39999 9.40665e-18
6732.00791 9.48772e-18
6735.60580 9.29967e-18
6739.21372 9.30454e-18
6742.82164 9.42615e-18
6746.41954 9.36281e-18
6750.02746 9.35709e-18
6753.63538 9.41085e-18
6757.23328 9.23338e-18
6760.84120 9.18568e-18
6764.43910 9.02824e-18
6768.04702 8.79146e-18
6771.65494 9.11912e-18
6775.25284 9.22222e-18
6778.86076 9.01862e-18
6782.46868 8.87585e-18
6786.06657 8.84850e-18
6789.67449 8.88602e-18
6793.27239 8.74444e-18
6796.88031 8.51875e-18
6800.48823 8.34955e-18
6804.08613 8.35562e-18
6807.69405 8.41429e-18
6811.30197 8.30825e-18
6814.89987 8.14548e-18
6818.50779 7.81972e-18
6822.10569 7.59960e-18
6825.71361 7.56226e-18
6829.32153 7.44118e-18
6832.91942 7.53983e-18
6836.52734 7.53531e-18
6840.13526 7.48445e-18
6843.73316 7.71747e-18
6847.34108 7.65092e-18
6850.94900 7.58440e-18
6854.54690 7.51788e-18
6858.15482 7.45138e-18
6861.75272 7.38489e-18
6865.36064 7.31841e-18
6868.96856 7.25195e-18
6872.56646 7.18550e-18
6876.17438 7.11906e-18
6879.78230 7.05263e-18
6883.38019 6.98622e-18
6886.98811 6.91982e-18
6890.58601 6.85344e-18
6894.19393 6.78706e-18
6897.80185 6.72070e-18
6901.39975 6.65436e-18
6905.00767 6.58802e-18
6908.61559 6.52170e-18
6912.21349 6.45539e-18
6915.82141 6.38910e-18
6919.42933 6.32281e-18
6923.02723 6.25655e-18
6926.63515 6.19029e-18
6930.23304 6.12405e-18
6933.84096 6.05781e-18
6937.44888 5.99160e-18
6941.04678 5.76982e-18
6944.65470 5.52163e-18
6948.26262 5.50212e-18
6951.86052 5.69512e-18
6955.46844 5.67240e-18
6959.06634 5.26948e-18
6962.67426 5.22066e-18
6966.28218 5.21879e-18
6969.88008 5.10578e-18
6973.48800 5.31929e-18
6977.09592 5.25339e-18
6980.69381 5.11485e-18
6984.30173 5.18375e-18
6987.89963 5.25125e-18
6991.50755 5.11645e-18
6995.11547 4.85868e-18
6998.71337 4.85493e-18
7002.32129 4.91996e-18
7005.92921 4.86744e-18
7009.52711 4.89413e-18
7013.13503 4.89915e-18
7016.74295 4.93029e-18
7020.34085 4.82577e-18
7023.94877 4.79969e-18
7027.54666 4.94033e-18
7031.15458 5.16225e-18
7034.76250 4.98770e-18
7038.36040 4.82770e-18
7041.96832 4.83991e-18
7045.57624 4.63313e-18
7049.17414 4.82230e-18
7052.78206 4.87577e-18
7056.38998 4.61265e-18
7059.98788 4.51653e-18
7063.59580 4.53471e-18
7067.19370 4.41981e-18
7070.80162 4.46899e-18
7074.40954 4.41057e-18
7078.00743 4.45365e-18
7081.61535 4.51914e-18
7085.22327 4.35253e-18
7088.82117 4.48459e-18
7092.42909 4.56332e-18
7096.02699 4.51034e-18
7099.63491 4.44723e-18
7103.24283 4.49857e-18
7106.84073 4.27780e-18
7110.44865 4.13090e-18
7114.05657 4.36363e-18
7117.65447 4.40334e-18
7121.26239 4.49429e-18
7124.87031 4.49138e-18
7128.46820 4.61701e-18
7132.07612 4.61057e-18
7135.67402 4.21577e-18
7139.28194 4.09414e-18
7142.88986 4.16339e-18
7146.48776 4.31715e-18
7150.09568 4.33995e-18
7153.70360 4.16919e-18
7157.30150 4.16757e-18
7160.90942 4.51822e-18
7164.50732 4.45442e-18
7168.11524 4.02468e-18
7171.72316 3.77544e-18
7175.32105 3.62793e-18
7178.92897 3.43623e-18
7182.53689 3.30103e-18
7186.13479 3.24699e-18
7189.74271 3.15388e-18
7193.35063 3.14011e-18
7196.94853 3.36232e-18
7200.55645 3.49959e-18
7204.15435 3.40708e-18
7207.76227 3.23580e-18
7211.37019 3.34529e-18
7214.96809 3.78375e-18
7218.57601 3.79423e-18
7222.18393 3.54500e-18
7225.78182 3.51497e-18
7229.38974 3.57855e-18
7232.98764 3.36760e-18
7236.59556 3.25115e-18
7240.20348 3.27950e-18
7243.80138 3.16252e-18
7247.40930 3.05113e-18
7251.01722 2.99277e-18
7254.61512 3.14289e-18
7258.22304 3.29581e-18
7261.83096 3.34408e-18
7265.42886 3.16956e-18
7269.03678 2.87831e-18
7272.63467 2.84938e-18
7276.24259 2.90994e-18
7279.85051 2.99204e-18
7283.44841 3.02101e-18
7287.05633 2.79202e-18
7290.66425 2.80270e-18
7294.26215 2.85860e-18
7297.87007 2.80188e-18
7301.46797 2.86559e-18
7305.07589 2.86111e-18
7308.68381 3.01885e-18
7312.28171 3.01193e-18
7315.88963 2.91716e-18
7319.49755 3.00631e-18
7323.09544 3.11722e-18
7326.70336 3.28435e-18
7330.31128 2.97073e-18
7333.90918 2.51385e-18
7337.51710 2.72132e-18
7341.11500 2.87931e-18
7344.72292 2.92863e-18
7348.33084 3.73590e-18
7351.92874 4.15417e-18
7355.53666 3.38476e-18
7359.14458 2.88546e-18
7362.74248 2.92814e-18
7366.35040 2.77522e-18
7369.94829 2.56098e-18
7373.55621 2.53961e-18
7377.16413 2.48437e-18
7380.76203 2.57024e-18
7384.36995 2.75866e-18
7387.97787 2.56218e-18
7391.57577 2.46677e-18
7395.18369 2.74206e-18
7398.79161 2.73994e-18
7402.38951 2.63269e-18
7405.99743 2.65411e-18
7409.59533 2.49722e-18
7413.20325 2.51700e-18
7416.81117 2.53497e-18
7420.40906 2.46437e-18
7424.01698 2.70272e-18
7427.62490 2.86521e-18
7431.22280 2.84245e-18
7434.83072 2.82917e-18
7438.42862 2.62750e-18
7442.03654 2.51502e-18
7445.64446 2.92092e-18
7449.24236 3.05106e-18
7452.85028 2.76451e-18
7456.45820 2.56923e-18
7460.05610 2.59825e-18
7463.66402 2.69811e-18
7467.27194 2.59705e-18
7470.86983 2.53274e-18
7474.47775 2.57296e-18
7478.07565 2.72896e-18
7481.68357 2.64353e-18
7485.29149 2.69070e-18
7488.88939 2.89148e-18
7492.49731 2.67326e-18
7496.10523 2.61782e-18
7499.70313 2.80093e-18
7501.77137 2.80093e-18
7503.88495 2.79380e-18
7506.00856 2.78666e-18
7508.13216 2.77673e-18
7510.24575 2.76681e-18
7512.36935 2.76235e-18
7514.48294 2.75791e-18
7516.60655 2.77260e-18
7518.72013 2.78728e-18
7520.84374 2.79664e-18
7522.96734 2.80600e-18
7525.08093 2.79999e-18
7527.20453 2.79398e-18
7529.31812 2.79769e-18
7531.44172 2.80141e-18
7533.55531 2.82055e-18
7535.67891 2.83969e-18
7537.80252 2.85662e-18
7539.91610 2.87355e-18
7542.03971 2.89357e-18
7544.15330 2.91359e-18
7546.27690 2.94748e-18
7548.39049 2.98137e-18
7550.51409 2.99649e-18
7552.63769 3.01162e-18
7554.75128 3.02674e-18
7556.87489 3.04186e-18
7558.98847 3.05698e-18
7561.11208 3.07210e-18
7563.22566 3.08721e-18
7565.34927 3.10233e-18
7567.47287 3.11744e-18
7569.58646 3.13255e-18
7571.71006 3.14766e-18
7573.82365 3.16277e-18
7575.94725 3.17787e-18
7578.06084 3.19298e-18
7580.18444 3.20808e-18
7582.30805 3.22318e-18
7584.42164 3.23828e-18
7586.54524 3.25337e-18
7588.65883 3.26847e-18
7590.78243 3.28356e-18
7592.89602 3.29865e-18
7595.01962 3.31375e-18
7597.14323 3.32883e-18
7599.25681 3.34392e-18
7601.38042 3.35900e-18
7603.49400 3.37409e-18
7605.61761 3.38917e-18
7607.73119 3.40425e-18
7609.85480 3.41933e-18
7611.97840 3.43441e-18
7614.09199 3.44948e-18
7616.21559 3.46455e-18
7618.32918 3.47962e-18
7620.45278 3.49469e-18
7622.56637 3.50976e-18
7624.68998 3.52482e-18
7626.81358 3.53989e-18
7628.92717 3.55495e-18
7631.05077 3.57001e-18
7633.16436 3.58507e-18
7635.28796 3.60012e-18
7637.40155 3.61518e-18
7639.52515 3.63023e-18
7641.64876 3.64528e-18
7643.76234 3.66033e-18
7645.88595 3.67538e-18
7647.99953 3.69043e-18
7650.12314 3.70547e-18
7652.23673 3.72052e-18
7654.36033 3.73556e-18
7656.48393 3.75060e-18
7658.59752 3.76564e-18
7660.72112 3.78067e-18
7662.83471 3.79570e-18
7664.95831 3.81074e-18
7667.07190 3.82577e-18
7669.19551 3.84080e-18
7671.31911 3.85582e-18
7673.43270 3.87085e-18
7675.55630 3.88587e-18
7677.66989 3.90090e-18
7679.79349 3.91591e-18
7681.90708 3.95078e-18
7684.03068 3.98564e-18
7686.15429 4.01280e-18
7688.26787 4.03996e-18
7690.39148 4.04040e-18
7692.50507 4.04084e-18
7694.62867 4.03085e-18
7696.74226 4.02084e-18
7698.86586 4.03422e-18
7700.98946 4.04759e-18
7703.10305 4.05559e-18
7705.22665 4.06359e-18
7707.34024 4.06385e-18
7709.46385 4.06412e-18
7711.57743 4.09288e-18
7713.70104 4.12165e-18
7715.82464 4.16737e-18
7717.93823 4.21309e-18
7720.06183 4.21592e-18
7722.17542 4.21875e-18
7724.29902 4.20530e-18
7726.41261 4.19186e-18
7728.53621 4.20153e-18
7730.65982 4.21120e-18
7732.77340 4.22232e-18
7734.89701 4.23344e-18
7737.01060 4.23627e-18
7739.13420 4.23909e-18
7741.24779 4.24419e-18
7743.37139 4.24929e-18
7745.49500 4.25471e-18
7747.60858 4.26013e-18
7749.73219 4.26684e-18
7751.84577 4.27355e-18
7753.96938 4.29152e-18
7756.08296 4.30948e-18
7758.20657 4.31600e-18
7760.33017 4.32253e-18
7762.44376 4.31415e-18
7764.56736 4.30579e-18
7766.68095 4.32935e-18
7768.80455 4.35291e-18
7770.91814 4.35658e-18
7773.04175 4.36025e-18
7775.16535 4.34153e-18
7777.27894 4.32281e-18
7779.40254 4.31781e-18
7781.51613 4.31281e-18
7783.63973 4.31823e-18
7785.75332 4.32366e-18
7787.87692 4.32398e-18
7790.00053 4.32430e-18
7792.11411 4.32025e-18
7794.23772 4.31620e-18
7796.35130 4.31337e-18
7798.47491 4.31055e-18
7800.58850 4.31596e-18
7802.71210 4.32137e-18
7804.83570 4.33003e-18
7806.94929 4.33868e-18
7809.07289 4.32858e-18
7811.18648 4.31848e-18
7813.31009 4.31384e-18
7815.42367 4.30919e-18
7817.54728 4.30902e-18
7819.67088 4.30886e-18
7821.78447 4.32123e-18
7823.90807 4.33358e-18
7826.02166 4.33342e-18
7828.14526 4.33325e-18
7830.25885 4.34248e-18
7832.38245 4.35171e-18
7834.50606 4.36094e-18
7836.61964 4.37017e-18
7838.74325 4.37000e-18
7840.85684 4.36984e-18
7842.98044 4.37291e-18
7845.09403 4.37598e-18
7847.21763 4.36319e-18
7849.34123 4.35039e-18
7851.45482 4.34084e-18
7853.57843 4.33129e-18
7855.69201 4.31860e-18
7857.81562 4.30593e-18
7859.92920 4.31327e-18
7862.05281 4.32061e-18
7864.17641 4.30675e-18
7866.29000 4.29289e-18
7868.41360 4.27751e-18
7870.52719 4.26214e-18
7872.65079 4.24622e-18
7874.76438 4.23029e-18
7876.88798 4.21473e-18
7879.01159 4.19917e-18
7881.12518 4.18478e-18
7883.24878 4.17039e-18
7885.36237 4.15830e-18
7887.48597 4.14621e-18
7889.59956 4.13629e-18
7891.72316 4.12637e-18
7893.84677 4.11749e-18
7895.96035 4.10861e-18
7898.08396 4.09978e-18
7900.19754 4.09096e-18
7902.32115 4.08115e-18
7904.43473 4.07136e-18
7906.55834 4.06066e-18
7908.68194 4.04997e-18
7910.79553 4.03818e-18
7912.91913 4.02640e-18
7915.03272 4.01346e-18
7917.15632 4.00052e-18
7919.26991 3.98597e-18
7921.39351 3.97142e-18
7923.51712 3.95490e-18
7925.63071 3.93838e-18
7927.75431 3.91947e-18
7929.86790 3.90055e-18
7931.99150 3.87936e-18
7934.10509 3.85818e-18
7936.22869 3.83525e-18
7938.35230 3.81232e-18
7940.46588 3.78811e-18
7942.58949 3.76389e-18
7944.70307 3.73886e-18
7946.82668 3.71383e-18
7948.94027 3.68802e-18
7951.06387 3.66221e-18
7953.18747 3.63578e-18
7955.30106 3.60934e-18
7957.42466 3.58244e-18
7959.53825 3.55555e-18
7961.66186 3.52811e-18
7963.77544 3.50067e-18
7965.89905 3.47261e-18
7968.02265 3.44455e-18
7970.13624 3.41581e-18
7972.25984 3.38707e-18
7974.37343 3.35765e-18
7976.49703 3.32824e-18
7978.61062 3.29825e-18
7980.73422 3.26825e-18
7982.85783 3.23773e-18
7984.97141 3.20721e-18
7987.09502 3.17636e-18
7989.20860 3.14550e-18
7991.33221 3.11517e-18
7993.44580 3.08484e-18
7995.56940 3.05571e-18
7997.69300 3.02659e-18
7999.80659 2.99941e-18
8001.93020 2.97222e-18
8004.04378 2.94719e-18
8006.16739 2.92216e-18
8008.28097 2.89942e-18
8010.40458 2.87668e-18
8012.52818 2.85652e-18
8014.64177 2.83636e-18
8016.76537 2.81838e-18
8018.87896 2.80039e-18
8021.00256 2.78384e-18
8023.11615 2.76730e-18
8025.23975 2.75142e-18
8027.36336 2.73554e-18
8029.47695 2.71973e-18
8031.60055 2.70393e-18
8033.71414 2.68874e-18
8035.83774 2.67356e-18
8037.95133 2.65923e-18
8040.07493 2.64491e-18
8042.19854 2.63182e-18
8044.31212 2.61874e-18
8046.43573 2.60649e-18
8048.54931 2.59424e-18
8050.67292 2.58246e-18
8052.78650 2.57069e-18
8054.91011 2.55909e-18
8057.03371 2.54749e-18
8059.14730 2.53568e-18
8061.27090 2.52387e-18
8063.38449 2.51148e-18
8065.50809 2.49908e-18
8067.62168 2.48573e-18
8069.74529 2.47238e-18
8071.86889 2.45787e-18
8073.98248 2.44334e-18
8076.10608 2.42786e-18
8078.21967 2.41238e-18
8080.34327 2.39610e-18
8082.46688 2.37981e-18
8084.58046 2.36282e-18
8086.70407 2.34583e-18
8088.81765 2.32896e-18
8090.94126 2.31209e-18
8093.05484 2.29601e-18
8095.17845 2.27993e-18
8097.29204 2.26578e-18
8099.41564 2.25163e-18
8101.53924 2.23897e-18
8103.65283 2.22631e-18
8105.77643 2.21415e-18
8107.89002 2.20201e-18
8110.01363 2.18937e-18
8112.12721 2.17673e-18
8114.25082 2.16309e-18
8116.37442 2.14945e-18
8118.48801 2.13610e-18
8120.61161 2.12276e-18
8122.72520 2.11047e-18
8124.84880 2.09818e-18
8126.96239 2.08795e-18
8129.08599 2.07773e-18
8131.20960 2.06904e-18
8133.32318 2.06036e-18
8135.44679 2.05286e-18
8137.56038 2.04535e-18
8139.68398 2.03865e-18
8141.79757 2.03194e-18
8143.92117 2.02570e-18
8146.04477 2.01945e-18
8148.15836 2.01338e-18
8150.28197 2.00731e-18
8152.39555 2.00097e-18
8154.51916 1.99464e-18
8156.63274 1.98792e-18
8158.75635 1.98119e-18
8160.87995 1.97467e-18
8162.99354 1.96815e-18
8165.11714 1.96228e-18
8167.23073 1.95641e-18
8169.35433 1.95179e-18
8171.46792 1.94716e-18
8173.59152 1.94327e-18
8175.71513 1.93937e-18
8177.82872 1.93588e-18
8179.95232 1.93239e-18
8182.06591 1.92885e-18
8184.18951 1.92531e-18
8186.30310 1.92187e-18
8188.42670 1.91842e-18
8190.55030 1.91537e-18
8192.66389 1.91232e-18
8194.78750 1.90986e-18
8196.90108 1.90741e-18
8199.02469 1.90590e-18
8201.14829 1.90439e-18
8203.26188 1.90447e-18
8205.38548 1.90455e-18
8207.49907 1.90671e-18
8209.62267 1.90886e-18
8211.73626 1.91352e-18
8213.85986 1.91818e-18
8215.97345 1.92531e-18
8218.09706 1.93243e-18
8220.22066 1.94187e-18
8222.33425 1.95130e-18
8224.45785 1.96334e-18
8226.57144 1.97536e-18
8228.69504 1.98833e-18
8230.80863 2.00130e-18
8232.93223 2.01323e-18
8235.05584 2.02516e-18
8237.16942 2.03394e-18
8239.29303 2.04272e-18
8241.40661 2.04745e-18
8243.53022 2.05217e-18
8245.65382 2.05437e-18
8247.76741 2.05657e-18
8249.89101 2.05722e-18
8252.00460 2.05786e-18
8254.12820 2.05812e-18
8256.24179 2.05837e-18
8258.36540 2.05936e-18
8260.48900 2.06036e-18
8262.60259 2.06318e-18
8264.72619 2.06601e-18
8266.83978 2.07218e-18
8268.96338 2.07835e-18
8271.07697 2.08727e-18
8273.20057 2.09619e-18
8275.31416 2.10678e-18
8277.43776 2.11737e-18
8279.56137 2.12862e-18
8281.67495 2.13985e-18
8283.79856 2.15085e-18
8285.91215 2.16186e-18
8288.03575 2.17217e-18
8290.14934 2.18249e-18
8292.27294 2.19153e-18
8294.39654 2.20056e-18
8296.51013 2.20773e-18
8298.63373 2.21489e-18
8300.74732 2.22145e-18
8302.87093 2.22800e-18
8304.99453 2.23491e-18
8307.10812 2.24183e-18
8309.23172 2.25039e-18
8311.34531 2.25895e-18
8313.46891 2.26923e-18
8315.58250 2.27950e-18
8317.70610 2.29130e-18
8319.82971 2.30310e-18
8321.94329 2.31645e-18
8324.06690 2.32980e-18
8326.18048 2.34427e-18
8328.30409 2.35875e-18
8330.41768 2.37340e-18
8332.54128 2.38806e-18
8334.65487 2.40201e-18
8336.77847 2.41596e-18
8338.90207 2.42828e-18
8341.01566 2.44059e-18
8343.13927 2.45221e-18
8345.25285 2.46383e-18
8347.37646 2.47534e-18
8349.50006 2.48685e-18
8351.61365 2.49927e-18
8353.73725 2.51169e-18
8355.85084 2.52462e-18
8357.97444 2.53753e-18
8360.08803 2.55044e-18
8362.21163 2.56334e-18
8364.32522 2.57571e-18
8366.44882 2.58806e-18
8368.57243 2.59989e-18
8370.68602 2.61171e-18
8372.80962 2.62376e-18
8374.92321 2.63580e-18
8377.04681 2.64854e-18
8379.17042 2.66129e-18
8381.28400 2.67523e-18
8383.40761 2.68916e-18
8385.52119 2.70487e-18
8387.64480 2.72057e-18
8389.75838 2.73849e-18
8391.88199 2.75641e-18
8393.99558 2.77743e-18
8396.11918 2.79846e-18
8398.24278 2.82136e-18
8400.35637 2.84426e-18
8402.47997 2.86771e-18
8404.59356 2.89115e-18
8406.71717 2.91341e-18
8408.83075 2.93566e-18
8410.95436 2.95650e-18
8413.07796 2.97735e-18
8415.19155 2.99835e-18
8417.31515 3.01935e-18
8419.42874 3.04153e-18
8421.55234 3.06371e-18
8423.67595 3.08809e-18
8425.78953 3.11246e-18
8427.91314 3.13834e-18
8430.02672 3.16423e-18
8432.15033 3.19120e-18
8434.26392 3.21818e-18
8436.38752 3.24600e-18
8438.51112 3.27382e-18
8440.62471 3.30111e-18
8442.74831 3.32839e-18
8444.86190 3.35377e-18
8446.98551 3.37914e-18
8449.09909 3.40096e-18
8451.22270 3.42277e-18
8453.33628 3.44066e-18
8455.45989 3.45854e-18
8457.58349 3.47345e-18
8459.69708 3.48835e-18
8461.82068 3.50093e-18
8463.93427 3.51350e-18
8466.05787 3.52455e-18
8468.17146 3.53560e-18
8470.29506 3.54569e-18
8472.41867 3.55578e-18
8474.53226 3.56555e-18
8476.65586 3.57532e-18
8478.76945 3.58555e-18
8480.89305 3.59577e-18
8483.01665 3.60636e-18
8485.13024 3.61696e-18
8487.25385 3.62773e-18
8489.36743 3.63850e-18
8491.49104 3.64919e-18
8493.60462 3.65988e-18
8495.72823 3.67028e-18
8497.85183 3.68067e-18
8499.96542 3.69062e-18
8502.08902 3.70056e-18
8504.20261 3.70983e-18
8506.32621 3.71910e-18
8508.43980 3.72748e-18
8510.56340 3.73586e-18
8512.68701 3.74293e-18
8514.80060 3.75000e-18
8516.92420 3.75547e-18
8519.03779 3.76094e-18
8521.16139 3.76450e-18
8523.27498 3.76805e-18
8525.39858 3.76983e-18
8527.51217 3.77161e-18
8529.63577 3.77184e-18
8531.75938 3.77207e-18
8533.87296 3.77081e-18
8535.99657 3.76955e-18
8538.11015 3.76749e-18
8540.23376 3.76543e-18
8542.35736 3.76362e-18
8544.47095 3.76182e-18
8546.59455 3.76126e-18
8548.70814 3.76070e-18
8550.83174 3.76214e-18
8552.94533 3.76357e-18
8555.06893 3.76622e-18
8557.19254 3.76888e-18
8559.30613 3.77227e-18
8561.42973 3.77566e-18
8563.54332 3.77929e-18
8565.66692 3.78292e-18
8567.78051 3.78585e-18
8569.90411 3.78876e-18
8572.02772 3.79012e-18
8574.14130 3.79148e-18
8576.26491 3.78996e-18
8578.37849 3.78845e-18
8580.50210 3.78449e-18
8582.61568 3.78053e-18
8584.73929 3.77563e-18
8586.86289 3.77073e-18
8588.97648 3.76611e-18
8591.10008 3.76150e-18
8593.21367 3.75825e-18
8595.33727 3.75501e-18
8597.45086 3.75298e-18
8599.57447 3.75095e-18
8601.68805 3.75019e-18
8603.81166 3.74943e-18
8605.93526 3.75016e-18
8608.04885 3.75088e-18
8610.17245 3.75152e-18
8612.28604 3.75216e-18
8614.40964 3.75125e-18
8616.53325 3.75034e-18
8618.64683 3.74616e-18
8620.77044 3.74199e-18
8622.88403 3.73408e-18
8625.00763 3.72617e-18
8627.12122 3.71485e-18
8629.24482 3.70354e-18
8631.36842 3.68892e-18
8633.48201 3.67430e-18
8635.60562 3.65690e-18
8637.71920 3.63949e-18
8639.84281 3.62112e-18
8641.95639 3.60275e-18
8644.08000 3.58495e-18
8646.19358 3.56715e-18
8648.31719 3.55169e-18
8650.44079 3.53623e-18
8652.55438 3.52307e-18
8654.67798 3.50990e-18
8656.79157 3.49892e-18
8658.91517 3.48794e-18
8661.02876 3.47921e-18
8663.15237 3.47049e-18
8665.27597 3.46307e-18
8667.38956 3.45566e-18
8669.51316 3.44820e-18
8671.62675 3.44073e-18
8673.75035 3.43183e-18
8675.87395 3.42293e-18
8677.98754 3.41156e-18
8680.11115 3.40020e-18
8682.22473 3.38681e-18
8684.34834 3.37342e-18
8686.46192 3.35819e-18
8688.58553 3.34297e-18
8690.70913 3.32613e-18
8692.82272 3.30930e-18
8694.94632 3.29192e-18
8697.05991 3.27454e-18
8699.18351 3.25761e-18
8701.29710 3.24069e-18
8703.42071 3.22549e-18
8705.53429 3.21028e-18
8707.65790 3.19704e-18
8709.78150 3.18379e-18
8711.89509 3.17227e-18
8714.01869 3.16074e-18
8716.13228 3.15079e-18
8718.25588 3.14084e-18
8720.37949 3.13212e-18
8722.49307 3.12341e-18
8724.61668 3.11530e-18
8726.73026 3.10720e-18
8728.85387 3.09910e-18
8730.96745 3.09099e-18
8733.09106 3.08223e-18
8735.21466 3.07346e-18
8737.32825 3.06379e-18
8739.45185 3.05410e-18
8741.56544 3.04329e-18
8743.68905 3.03248e-18
8745.80263 3.02028e-18
8747.92624 3.00809e-18
8750.04984 2.99474e-18
8752.16343 2.98139e-18
8754.28703 2.96732e-18
8756.40062 2.95326e-18
8758.52422 2.93892e-18
8760.63781 2.92459e-18
8762.76141 2.91048e-18
8764.88502 2.89637e-18
8766.99860 2.88299e-18
8769.12221 2.86960e-18
8771.23580 2.85747e-18
8773.35940 2.84534e-18
8775.47299 2.83501e-18
8777.59659 2.82469e-18
8779.72019 2.81609e-18
8781.83378 2.80749e-18
8783.95738 2.80057e-18
8786.07097 2.79366e-18
8788.19458 2.78817e-18
8790.30816 2.78268e-18
8792.43177 2.77892e-18
8794.54535 2.77516e-18
8796.66896 2.77351e-18
8798.79256 2.77186e-18
8800.90615 2.77259e-18
8803.02975 2.77332e-18
8805.14334 2.77649e-18
8807.26694 2.77965e-18
8809.39055 2.78487e-18
8811.50413 2.79010e-18
8813.62774 2.79707e-18
8815.74133 2.80404e-18
8817.86493 2.81253e-18
8819.97852 2.82101e-18
8822.10212 2.82937e-18
8824.22573 2.83774e-18
8826.33931 2.84468e-18
8828.46292 2.85163e-18
8830.57650 2.85550e-18
8832.70011 2.85938e-18
8834.81369 2.86034e-18
8836.93730 2.86130e-18
8839.05088 2.86006e-18
8841.17449 2.85882e-18
8843.29809 2.85583e-18
8845.41168 2.85284e-18
8847.53528 2.84905e-18
8849.64887 2.84527e-18
8851.77247 2.84247e-18
8853.89608 2.83968e-18
8856.00967 2.83944e-18
8858.13327 2.83920e-18
8860.24686 2.84319e-18
8862.37046 2.84718e-18
8864.48405 2.85349e-18
8866.60765 2.85981e-18
8868.73126 2.86694e-18
8870.84484 2.87408e-18
8872.96845 2.88017e-18
8875.08203 2.88628e-18
8877.20564 2.89040e-18
8879.31923 2.89453e-18
8881.44283 2.89596e-18
8883.56643 2.89740e-18
8885.68002 2.89539e-18
8887.80362 2.89338e-18
8889.91721 2.88754e-18
8892.04082 2.88171e-18
8894.15440 2.87220e-18
8896.27801 2.86269e-18
8898.39159 2.84966e-18
8900.51520 2.83664e-18
8902.63880 2.82026e-18
8904.75239 2.80388e-18
8906.87599 2.78686e-18
8908.98958 2.76984e-18
8911.11318 2.75435e-18
8913.23679 2.73885e-18
8915.35037 2.72780e-18
8917.47398 2.71675e-18
8919.58757 2.70943e-18
8921.71117 2.70210e-18
8923.82476 2.69708e-18
8925.94836 2.69206e-18
8928.07196 2.68819e-18
8930.18555 2.68433e-18
8932.30916 2.68020e-18
8934.42274 2.67608e-18
8936.54635 2.67012e-18
8938.65993 2.66417e-18
8940.78354 2.65482e-18
8942.90714 2.64548e-18
8945.02073 2.63126e-18
8947.14433 2.61704e-18
8949.25792 2.60063e-18
8951.38152 2.58422e-18
8953.49511 2.56770e-18
8955.61871 2.55118e-18
8957.74232 2.53694e-18
8959.85591 2.52269e-18
8961.97951 2.51210e-18
8964.09310 2.50150e-18
8966.21670 2.49556e-18
8968.33029 2.48962e-18
8970.45389 2.48980e-18
8972.57750 2.48998e-18
8974.69108 2.49598e-18
8976.81469 2.50197e-18
8978.92827 2.51124e-18
8981.05188 2.52052e-18
8983.16546 2.53092e-18
8985.28907 2.54134e-18
8987.41267 2.55056e-18
8989.52626 2.55978e-18
8991.64986 2.56746e-18
8993.76345 2.57514e-18
8995.88705 2.58062e-18
8998.00064 2.58609e-18
9000.12425 2.58876e-18
9002.24785 2.59143e-18
9004.36144 2.59140e-18
9006.48504 2.59137e-18
9008.59863 2.58901e-18
9010.72223 2.58664e-18
9012.83582 2.58250e-18
9014.95942 2.57835e-18
9017.08303 2.57303e-18
9019.19661 2.56771e-18
9021.32022 2.56184e-18
9023.43380 2.55597e-18
9025.55741 2.55017e-18
9027.67100 2.54436e-18
9029.79460 2.53921e-18
9031.90819 2.53406e-18
9034.03179 2.53123e-18
9036.15539 2.52840e-18
9038.26898 2.52909e-18
9040.39258 2.52977e-18
9042.50617 2.53559e-18
9044.62978 2.54140e-18
9046.75338 2.55099e-18
9048.86697 2.56056e-18
9050.99057 2.57221e-18
9053.10416 2.58385e-18
9055.22776 2.59609e-18
9057.34135 2.60833e-18
9059.46495 2.61933e-18
9061.58856 2.63034e-18
9063.70214 2.63816e-18
9065.82575 2.64598e-18
9067.93933 2.64858e-18
9070.06294 2.65118e-18
9072.17653 2.64697e-18
9074.30013 2.64277e-18
9076.42373 2.63553e-18
9078.53732 2.62829e-18
9080.66093 2.62073e-18
9082.77451 2.61317e-18
9084.89812 2.60907e-18
9087.01170 2.60497e-18
9089.13531 2.60379e-18
9091.25891 2.60250e-18
9093.37250 2.60354e-18
9095.49610 2.60458e-18
9097.60969 2.60724e-18
9099.73329 2.60990e-18
9101.84688 2.61354e-18
9103.97048 2.61719e-18
9106.09409 2.62127e-18
9108.20767 2.62534e-18
9110.33128 2.62902e-18
9112.44487 2.63270e-18
9114.56847 2.63527e-18
9116.68206 2.63784e-18
9118.80566 2.64034e-18
9120.92927 2.64284e-18
9123.04285 2.64590e-18
9125.16646 2.64896e-18
9127.28004 2.65366e-18
9129.40365 2.65836e-18
9131.51723 2.66371e-18
9133.64084 2.66905e-18
9135.76444 2.67410e-18
9137.87803 2.67914e-18
9140.00163 2.68279e-18
9142.11522 2.68644e-18
9144.23882 2.68844e-18
9146.35241 2.69044e-18
9148.47602 2.69119e-18
9150.59962 2.69193e-18
9152.71321 2.69167e-18
9154.83681 2.69141e-18
9156.95040 2.69047e-18
9159.07400 2.68953e-18
9161.18759 2.68820e-18
9163.31119 2.68688e-18
9165.43480 2.68551e-18
9167.54838 2.68414e-18
9169.67199 2.68304e-18
9171.78557 2.68194e-18
9173.90918 2.68159e-18
9176.02277 2.68124e-18
9178.14637 2.68202e-18
9180.26997 2.68281e-18
9182.38356 2.68526e-18
9184.50716 2.68771e-18
9186.62075 2.69163e-18
9188.74436 2.69555e-18
9190.85794 2.70025e-18
9192.98155 2.70496e-18
9195.10515 2.70981e-18
9197.21874 2.71466e-18
9199.34234 2.71902e-18
9201.45593 2.72340e-18
9203.57953 2.72728e-18
9205.69312 2.73116e-18
9207.81672 2.73437e-18
9209.94033 2.73757e-18
9212.05391 2.73989e-18
9214.17752 2.74221e-18
9216.29111 2.74341e-18
9218.41471 2.74461e-18
9220.52830 2.74444e-18
9222.65190 2.74427e-18
9224.77550 2.74267e-18
9226.88909 2.74107e-18
9229.01270 2.73743e-18
9231.12628 2.73380e-18
9233.24989 2.72730e-18
9235.36347 2.72079e-18
9237.48708 2.71078e-18
9239.61068 2.70076e-18
9241.72427 2.68680e-18
9243.84787 2.67284e-18
9245.96146 2.65514e-18
9248.08506 2.63743e-18
9250.19865 2.61621e-18
9252.32225 2.59499e-18
9254.44586 2.57029e-18
9256.55945 2.54560e-18
9258.68305 2.51977e-18
9260.79664 2.49394e-18
9262.92024 2.46912e-18
9265.03383 2.44431e-18
9267.15743 2.42323e-18
9269.27102 2.40215e-18
9271.39462 2.38530e-18
9273.51823 2.36845e-18
9275.63181 2.35518e-18
9277.75542 2.34192e-18
9279.86900 2.33156e-18
9281.99261 2.32120e-18
9284.11621 2.31319e-18
9286.22980 2.30517e-18
9288.35340 2.30058e-18
9290.46699 2.29599e-18
9292.59059 2.29526e-18
9294.70418 2.29452e-18
9296.82778 2.29882e-18
9298.95139 2.30312e-18
9301.06498 2.30846e-18
9303.18858 2.31380e-18
9305.30217 2.31698e-18
9307.42577 2.32017e-18
9309.53936 2.31661e-18
9311.66296 2.31306e-18
9313.78657 2.30391e-18
9315.90015 2.29476e-18
9318.02376 2.28359e-18
9320.13734 2.27241e-18
9322.26095 2.26215e-18
9324.37453 2.25189e-18
9326.49814 2.24514e-18
9328.62174 2.23838e-18
9330.73533 2.23560e-18
9332.85893 2.23282e-18
9334.97252 2.23505e-18
9337.09613 2.23728e-18
9339.20971 2.24616e-18
9341.33332 2.25503e-18
9343.45692 2.26629e-18
9345.57051 2.27756e-18
9347.69411 2.28780e-18
9349.80770 2.29804e-18
9351.93130 2.30134e-18
9354.04489 2.30463e-18
9356.16849 2.30371e-18
9358.29210 2.30280e-18
9360.40568 2.30316e-18
9362.52929 2.30352e-18
9364.64287 2.31035e-18
9366.76648 2.31719e-18
9368.88007 2.33313e-18
9371.00367 2.34907e-18
9373.12727 2.36839e-18
9375.24086 2.38771e-18
9377.36447 2.40709e-18
9379.47805 2.42646e-18
9381.60166 2.44243e-18
9383.71524 2.45841e-18
9385.83885 2.46733e-18
9387.96245 2.47625e-18
9390.07604 2.47526e-18
9392.19964 2.47428e-18
9394.31323 2.45786e-18
9396.43683 2.44144e-18
9398.55042 2.41547e-18
9400.67402 2.38949e-18
9402.78761 2.36309e-18
9404.91122 2.33670e-18
9407.03482 2.31871e-18
9409.14841 2.30072e-18
9411.27201 2.29695e-18
9413.39561 2.29318e-18
9415.50920 2.30107e-18
9417.63280 2.30895e-18
9419.74639 2.32790e-18
9421.87000 2.34686e-18
9423.98358 2.37637e-18
9426.10719 2.40588e-18
9428.22077 2.43655e-18
9430.34438 2.46722e-18
9432.46798 2.49125e-18
9434.58157 2.51528e-18
9436.70517 2.52104e-18
9438.81876 2.52680e-18
9440.94236 2.51798e-18
9443.05595 2.50916e-18
9445.17956 2.49341e-18
9447.30316 2.47764e-18
9449.41675 2.46223e-18
9451.54035 2.44682e-18
9453.65394 2.43692e-18
9455.77754 2.42702e-18
9457.89113 2.42166e-18
9460.01473 2.41630e-18
9462.13834 2.41647e-18
9464.25192 2.41664e-18
9466.37553 2.42317e-18
9468.48911 2.42970e-18
9470.61272 2.43936e-18
9472.72631 2.44901e-18
9474.84991 2.45909e-18
9476.97351 2.46916e-18
9479.08710 2.47470e-18
9481.21070 2.48025e-18
9483.32429 2.48373e-18
9485.44790 2.48721e-18
9487.56148 2.49227e-18
9489.68509 2.49732e-18
9491.80869 2.50808e-18
9493.92228 2.51884e-18
9496.04588 2.53602e-18
9498.15947 2.55320e-18
9500.28307 2.57079e-18
9502.39666 2.58837e-18
9504.52026 2.60230e-18
9506.64387 2.61623e-18
9508.75745 2.62180e-18
9510.88106 2.62737e-18
9512.99465 2.62682e-18
9515.11825 2.62627e-18
9517.23184 2.62081e-18
9519.35544 2.61535e-18
9521.47904 2.60717e-18
9523.59263 2.59898e-18
9525.71623 2.58794e-18
9527.82982 2.57689e-18
9529.95343 2.56281e-18
9532.06701 2.54874e-18
9534.19062 2.53115e-18
9536.31422 2.51357e-18
9538.42781 2.49378e-18
9540.55141 2.47399e-18
9542.66500 2.45616e-18
9544.78860 2.43834e-18
9546.91221 2.42568e-18
9549.02579 2.41303e-18
9551.14940 2.40884e-18
9553.26298 2.40464e-18
9555.38659 2.40572e-18
9557.50018 2.40680e-18
9559.62378 2.41087e-18
9561.73737 2.41494e-18
9563.86097 2.41962e-18
9565.98458 2.42430e-18
9568.09816 2.42719e-18
9570.22177 2.43007e-18
9572.33535 2.42908e-18
9574.45896 2.42810e-18
9576.57254 2.41994e-18
9578.69615 2.41179e-18
9580.81975 2.39706e-18
9582.93334 2.38234e-18
9585.05694 2.36697e-18
9587.17053 2.35161e-18
9589.29413 2.34023e-18
9591.40772 2.32885e-18
9593.53132 2.32635e-18
9595.65493 2.32386e-18
9597.76852 2.32655e-18
9599.89212 2.32925e-18
9602.00571 2.33495e-18
9604.12931 2.34065e-18
9606.25292 2.34684e-18
9608.36650 2.35302e-18
9610.49011 2.35783e-18
9612.60369 2.36264e-18
9614.72730 2.36450e-18
9616.84088 2.36636e-18
9618.96449 2.36272e-18
9621.07807 2.35908e-18
9623.20168 2.35046e-18
9625.32528 2.34183e-18
9627.43887 2.33237e-18
9629.56247 2.32290e-18
9631.67606 2.31580e-18
9633.79967 2.30871e-18
9635.91325 2.30726e-18
9638.03686 2.30582e-18
9640.16046 2.30937e-18
9642.27405 2.31292e-18
9644.39765 2.32133e-18
9646.51124 2.32974e-18
9648.63484 2.34332e-18
9650.75845 2.35690e-18
9652.87203 2.37255e-18
9654.99564 2.38821e-18
9657.10922 2.40267e-18
9659.23283 2.41714e-18
9661.34642 2.42640e-18
9663.47002 2.43564e-18
9665.58361 2.43863e-18
9667.70721 2.44162e-18
9669.83081 2.44056e-18
9671.94440 2.43950e-18
9674.06800 2.43571e-18
9676.18159 2.43191e-18
9678.30520 2.42695e-18
9680.41878 2.42200e-18
9682.54239 2.41690e-18
9684.66599 2.41180e-18
9686.77958 2.40767e-18
9688.90318 2.40354e-18
9691.01677 2.40247e-18
9693.14037 2.40139e-18
9695.25396 2.40073e-18
9697.37756 2.40005e-18
9699.50117 2.39714e-18
9701.61476 2.39423e-18
9703.73836 2.38553e-18
9705.85195 2.37682e-18
9707.97555 2.36232e-18
9710.08914 2.34781e-18
9712.21274 2.33074e-18
9714.33635 2.31367e-18
9716.44993 2.29645e-18
9718.57354 2.27923e-18
9720.68712 2.26430e-18
9722.81073 2.24936e-18
9724.92431 2.23580e-18
9727.04792 2.22225e-18
9729.17152 2.20995e-18
9731.28511 2.19765e-18
9733.40871 2.18612e-18
9735.52230 2.17460e-18
9737.64590 2.16419e-18
9739.75949 2.15378e-18
9741.88310 2.14469e-18
9744.00670 2.13559e-18
9746.12029 2.12814e-18
9748.24389 2.12069e-18
9750.35748 2.11448e-18
9752.48108 2.10826e-18
9754.59467 2.10236e-18
9756.71827 2.09646e-18
9758.84188 2.09004e-18
9760.95546 2.08363e-18
9763.07907 2.07608e-18
9765.19265 2.06853e-18
9767.31626 2.06103e-18
9769.42985 2.05353e-18
9771.55345 2.04684e-18
9773.67705 2.04013e-18
9775.79064 2.03489e-18
9777.91424 2.02964e-18
9780.02783 2.02671e-18
9782.15143 2.02377e-18
9784.27504 2.02374e-18
9786.38863 2.02371e-18
9788.51223 2.02787e-18
9790.62582 2.03204e-18
9792.74942 2.03891e-18
9794.86301 2.04577e-18
9796.98661 2.05203e-18
9799.10020 2.05829e-18
9801.22380 2.06117e-18
9803.34741 2.06405e-18
9805.46099 2.06115e-18
9807.58460 2.05826e-18
9809.69818 2.04988e-18
9811.82179 2.04149e-18
9813.93538 2.02760e-18
9816.05898 2.01371e-18
9818.18258 1.99401e-18
9820.29617 1.97431e-18
9822.41978 1.95250e-18
9824.53336 1.93067e-18
9826.65697 1.91029e-18
9828.77055 1.88990e-18
9830.89416 1.87539e-18
9833.01776 1.86089e-18
9835.13135 1.85344e-18
9837.25495 1.84598e-18
9839.36854 1.84470e-18
9841.49214 1.84341e-18
9843.61575 1.84772e-18
9845.72933 1.85202e-18
9847.85294 1.86109e-18
9849.96652 1.87016e-18
9852.09013 1.88403e-18
9854.20372 1.89790e-18
9856.32732 1.91593e-18
9858.44091 1.93396e-18
9860.56451 1.95526e-18
9862.68812 1.97655e-18
9864.80170 1.99996e-18
9866.92531 2.02338e-18
9869.03889 2.04749e-18
9871.16250 2.07161e-18
9873.27608 2.09612e-18
9875.39969 2.12063e-18
9877.52329 2.14206e-18
9879.63688 2.16348e-18
9881.76048 2.17722e-18
9883.87407 2.19095e-18
9885.99767 2.19253e-18
9888.11126 2.19410e-18
9890.23487 2.18112e-18
9892.35847 2.16814e-18
9894.47206 2.14671e-18
9896.59566 2.12527e-18
9898.70925 2.09966e-18
9900.83285 2.07404e-18
9902.94644 2.04939e-18
9905.07004 2.02473e-18
9907.19365 2.00303e-18
9909.30723 1.98134e-18
9911.43084 1.96454e-18
9913.54442 1.94775e-18
9915.66803 1.93885e-18
9917.79163 1.92994e-18
9919.90522 1.92729e-18
9922.02882 1.92464e-18
9924.14241 1.92453e-18
9926.26601 1.92442e-18
9928.37960 1.92327e-18
9930.50321 1.92213e-18
9932.61679 1.91705e-18
9934.74040 1.91197e-18
9936.86400 1.90346e-18
9938.97759 1.89495e-18
9941.10119 1.88274e-18
9943.21478 1.87052e-18
9945.33838 1.85437e-18
9947.45197 1.83821e-18
9949.57557 1.82051e-18
9951.69918 1.80281e-18
9953.81276 1.78581e-18
9955.93637 1.76881e-18
9958.04996 1.75523e-18
9960.17356 1.74166e-18
9962.28715 1.73241e-18
9964.41075 1.72317e-18
9966.53435 1.71832e-18
9968.64794 1.71346e-18
9970.77155 1.71345e-18
9972.88513 1.71343e-18
9975.00874 1.71779e-18
9977.13234 1.72216e-18
9979.24593 1.72817e-18
9981.36953 1.73418e-18
9983.48312 1.73955e-18
