# wavelength flux
3719.99603 2.93288e-18
3721.49933 2.86404e-18
3723.00263 2.39586e-18
3724.49590 4.09410e-18
3725.99920 4.58672e-18
3727.50250 3.27528e-18
3728.99578 2.98615e-18
3730.49908 3.35207e-18
3732.00238 4.28220e-18
3733.49566 4.71084e-18
3734.99896 4.29116e-18
3736.50226 3.90852e-18
3737.99554 3.41110e-18
3739.49884 2.16027e-18
3741.00214 2.69585e-18
3742.49542 3.29769e-18
3743.99872 3.34456e-18
3745.50202 3.03071e-18
3746.99529 2.50581e-18
3748.49859 2.82977e-18
3750.00189 3.34524e-18
3751.49517 2.87036e-18
3752.99847 2.96744e-18
3754.50177 3.77214e-18
3755.99505 3.08969e-18
3757.49835 2.92999e-18
3759.00165 2.86370e-18
3760.50495 2.66960e-18
3761.99823 2.64352e-18
3763.50153 2.24153e-18
3765.00483 2.92672e-18
3766.49811 3.60570e-18
3768.00141 2.84814e-18
3769.50471 3.21215e-18
3770.99798 3.27390e-18
3772.50128 4.14787e-18
3774.00458 3.75729e-18
3775.49786 3.88294e-18
3777.00116 3.58148e-18
3778.50446 3.76946e-18
3779.99774 3.37307e-18
3781.50104 2.64242e-18
3783.00434 2.69040e-18
3784.49762 3.35659e-18
3786.00092 3.36976e-18
3787.50422 3.39614e-18
3788.99750 3.11392e-18
3790.50080 3.79051e-18
3792.00410 4.17631e-18
3793.49737 3.52677e-18
3795.00067 3.11389e-18
3796.50397 3.10445e-18
3797.99725 3.81649e-18
3799.50055 3.80643e-18
3801.00385 3.43893e-18
3802.49713 3.22634e-18
3804.00043 3.41906e-18
3805.50373 3.37936e-18
3806.99701 2.90261e-18
3808.50031 3.11684e-18
3810.00361 3.39689e-18
3811.49689 3.80073e-18
3813.00019 3.77689e-18
3814.50349 3.11020e-18
3815.99676 3.54769e-18
3817.50006 3.18280e-18
3819.00336 2.87543e-18
3820.49664 3.71077e-18
3821.99994 3.34444e-18
3823.50324 3.51881e-18
3824.99652 3.93810e-18
3826.49982 3.27496e-18
3828.00312 3.18315e-18
3829.49640 4.09764e-18
3830.99970 4.20087e-18
3832.50300 3.88232e-18
3833.99628 3.75893e-18
3835.49958 2.60584e-18
3837.00288 3.36485e-18
3838.49615 3.14350e-18
3839.99945 3.19440e-18
3841.50275 3.63614e-18
3842.99603 2.91588e-18
3844.49933 3.63943e-18
3846.00263 3.88673e-18
3847.49591 3.83725e-18
3848.99921 3.77714e-18
3850.50251 3.17794e-18
3851.99579 3.78003e-18
3853.49909 3.82293e-18
3855.00239 3.44576e-18
3856.49567 4.41408e-18
3857.99897 4.25090e-18
3859.50227 4.30687e-18
3860.99554 3.80358e-18
3862.49884 3.93441e-18
3864.00214 4.40636e-18
3865.49542 4.34475e-18
3866.99872 4.43730e-18
3868.50202 4.46283e-18
3869.99530 5.05374e-18
3871.49860 5.84419e-18
3873.00190 5.55576e-18
3874.49518 4.85600e-18
3875.99848 4.60243e-18
3877.50178 5.45289e-18
3878.99506 5.57468e-18
3880.49836 5.29190e-18
3882.00166 5.49754e-18
3883.50496 5.73002e-18
3884.99823 5.82128e-18
3886.50153 5.93807e-18
3888.00483 5.91754e-18
3889.49811 5.91086e-18
3891.00141 6.42448e-18
3892.50471 5.62343e-18
3893.99799 6.08682e-18
3895.50129 6.65340e-18
3897.00459 5.93811e-18
3898.49787 6.36555e-18
3900.00117 6.31619e-18
3901.50447 6.35449e-18
3902.99775 6.38949e-18
3904.50105 5.94394e-18
3906.00435 6.02131e-18
3907.49762 6.06656e-18
3909.00092 6.57214e-18
3910.50422 6.39885e-18
3911.99750 5.83990e-18
3913.50080 6.38720e-18
3915.00410 6.25306e-18
3916.49738 6.46116e-18
3918.00068 6.47010e-18
3919.50398 6.63869e-18
3920.99726 6.85590e-18
3922.50056 6.37800e-18
3924.00386 5.75186e-18
3925.49714 5.64012e-18
3927.00044 6.52512e-18
3928.50374 6.93434e-18
3929.99701 6.27767e-18
3931.50031 6.18246e-18
3933.00361 6.46099e-18
3934.49689 6.13837e-18
3936.00019 5.87026e-18
3937.50349 5.91656e-18
3938.99677 6.10242e-18
3940.50007 6.10796e-18
3942.00337 6.40163e-18
3943.49665 6.63671e-18
3944.99995 6.58186e-18
3946.50325 7.03473e-18
3947.99653 7.32572e-18
3949.49983 7.51438e-18
3951.00313 6.93959e-18
3952.49640 7.57556e-18
3953.99970 7.26399e-18
3955.50300 7.17362e-18
3956.99628 6.90795e-18
3958.49958 6.81297e-18
3960.00288 6.42524e-18
3961.49616 6.41361e-18
3962.99946 7.19336e-18
3964.50276 7.09059e-18
3965.99604 6.77037e-18
3967.49934 6.51263e-18
3969.00264 6.79163e-18
3970.49592 7.15133e-18
3971.99922 6.58147e-18
3973.50252 7.25810e-18
3974.99579 7.31585e-18
3976.49909 7.22433e-18
3978.00239 7.46240e-18
3979.49567 7.41266e-18
3980.99897 7.28214e-18
3982.50227 6.89592e-18
3983.99555 6.83271e-18
3985.49885 7.00450e-18
3987.00215 7.50886e-18
3988.49543 7.79313e-18
3989.99873 7.49947e-18
3991.50203 7.54036e-18
3992.99531 7.62813e-18
3994.49861 7.36394e-18
3996.00191 7.48179e-18
3997.49518 8.20355e-18
3998.99848 7.84165e-18
4000.50178 7.34651e-18
4001.99506 7.39284e-18
4003.49836 7.29700e-18
4005.00166 7.02684e-18
4006.50496 7.62861e-18
4007.99824 8.44355e-18
4009.50154 7.87615e-18
4011.00484 7.26929e-18
4012.49812 7.77521e-18
4014.00142 8.01439e-18
4015.50472 7.75852e-18
4016.99800 7.66730e-18
4018.50130 7.83367e-18
4020.00460 7.67312e-18
4021.49787 7.67501e-18
4023.00117 7.52571e-18
4024.50447 7.73767e-18
4025.99775 7.97449e-18
4027.50105 7.46119e-18
4029.00435 7.15119e-18
4030.49763 7.36999e-18
4032.00093 7.84124e-18
4033.50423 7.62575e-18
4034.99751 7.34716e-18
4036.50081 6.96854e-18
4038.00411 7.20383e-18
4039.49739 7.88562e-18
4041.00069 7.34977e-18
4042.50399 8.04856e-18
4043.99726 8.12061e-18
4045.50056 7.72542e-18
4047.00386 7.81085e-18
4048.49714 7.04444e-18
4050.00044 7.09648e-18
4051.50374 7.39662e-18
4052.99702 7.74739e-18
4054.50032 7.48614e-18
4056.00362 7.23350e-18
4057.49690 7.51416e-18
4059.00020 7.79869e-18
4060.50350 7.41988e-18
4061.99678 6.73591e-18
4063.50008 7.36836e-18
4065.00338 7.31519e-18
4066.49665 6.93841e-18
4067.99995 7.84429e-18
4069.50325 7.92576e-18
4070.99653 7.69146e-18
4072.49983 7.20748e-18
4074.00313 7.20562e-18
4075.49641 7.06738e-18
4076.99971 6.84329e-18
4078.50301 6.52494e-18
4079.99629 6.72530e-18
4081.49959 6.57990e-18
4083.00289 6.48803e-18
4084.49617 6.86207e-18
4085.99947 6.89922e-18
4087.50277 6.77233e-18
4088.99604 6.46350e-18
4090.49934 6.77939e-18
4092.00264 6.63707e-18
4093.49592 6.12063e-18
4094.99922 6.45275e-18
4096.50252 6.66384e-18
4097.99580 6.55003e-18
4099.49910 6.53177e-18
4101.00240 6.55912e-18
4102.49568 7.12122e-18
4103.99898 7.17721e-18
4105.50228 6.76722e-18
4106.99556 6.69543e-18
4108.49886 6.55552e-18
4110.00216 6.41423e-18
4111.49543 6.92802e-18
4112.99873 7.04187e-18
4114.50203 6.66980e-18
4115.99531 6.21781e-18
4117.49861 6.14448e-18
4119.00191 6.73200e-18
4120.49519 6.72622e-18
4121.99849 6.82156e-18
4123.50179 6.76865e-18
4124.99507 6.64483e-18
4126.49837 6.75169e-18
4128.00167 6.85560e-18
4129.50497 6.57772e-18
4130.99825 6.66160e-18
4132.50155 6.81924e-18
4134.00485 6.68284e-18
4135.49812 6.59545e-18
4137.00142 6.67586e-18
4138.50472 6.85423e-18
4139.99800 6.96888e-18
4141.50130 6.67543e-18
4143.00460 6.54819e-18
4144.49788 6.78244e-18
4146.00118 6.62027e-18
4147.50448 6.36727e-18
4148.99776 6.34369e-18
4150.50106 6.54398e-18
4152.00436 6.58859e-18
4153.49764 6.44146e-18
4155.00094 6.34860e-18
4156.50424 6.61516e-18
4157.99751 6.89146e-18
4159.50081 6.78877e-18
4161.00411 6.56856e-18
4162.49739 6.51292e-18
4164.00069 6.86964e-18
4165.50399 6.67071e-18
4166.99727 6.28103e-18
4168.50057 6.49079e-18
4170.00387 6.54129e-18
4171.49715 6.14946e-18
4173.00045 6.02181e-18
4174.50375 5.82535e-18
4175.99703 6.32259e-18
4177.50033 6.48723e-18
4179.00363 6.35359e-18
4180.49690 6.25363e-18
4182.00020 6.25208e-18
4183.50350 6.76898e-18
4184.99678 6.43850e-18
4186.50008 6.06949e-18
4188.00338 6.77306e-18
4189.49666 5.96488e-18
4190.99996 6.76366e-18
4192.50326 6.20172e-18
4193.99654 5.63954e-18
4195.49984 6.12127e-18
4197.00314 6.55844e-18
4198.49642 6.13894e-18
4199.99972 6.14008e-18
4201.50302 6.49552e-18
4202.99629 6.38995e-18
4204.49959 6.23387e-18
4206.00289 6.47848e-18
4207.49617 6.93879e-18
4208.99947 6.71002e-18
4210.50277 6.52942e-18
4211.99605 6.66110e-18
4213.49935 6.19317e-18
4215.00265 5.83470e-18
4216.49593 5.77188e-18
4217.99923 6.51071e-18
4219.50253 6.93156e-18
4220.99581 6.72277e-18
4222.49911 6.75710e-18
4224.00241 6.62396e-18
4225.49568 6.49254e-18
4226.99898 6.57886e-18
4228.50228 6.82485e-18
4229.99556 6.64492e-18
4231.49886 6.25107e-18
4233.00216 6.32691e-18
4234.49544 6.65501e-18
4235.99874 6.78385e-18
4237.50204 6.96278e-18
4238.99532 6.97089e-18
4240.49862 6.65299e-18
4242.00192 6.38404e-18
4243.49520 6.19921e-18
4244.99850 6.67477e-18
4246.50180 6.86830e-18
4247.99507 7.03867e-18
4249.49837 7.19001e-18
4251.00167 7.15470e-18
4252.50497 6.83990e-18
4253.99825 6.48985e-18
4255.50155 6.81251e-18
4257.00485 7.10591e-18
4258.49813 6.40615e-18
4260.00143 6.39128e-18
4261.50473 6.77335e-18
4262.99801 6.70734e-18
4264.50131 6.86649e-18
4266.00461 6.94476e-18
4267.49789 6.60134e-18
4269.00119 6.28217e-18
4270.50449 6.57773e-18
4271.99776 6.52558e-18
4273.50106 7.01833e-18
4275.00436 7.25396e-18
4276.49764 7.12304e-18
4278.00094 7.15162e-18
4279.50424 6.94790e-18
4280.99752 7.02994e-18
4282.50082 6.94017e-18
4284.00412 7.35572e-18
4285.49740 6.86323e-18
4287.00070 6.78902e-18
4288.50400 6.94615e-18
4289.99728 7.25021e-18
4291.50058 7.22065e-18
4293.00388 7.23718e-18
4294.49715 7.31512e-18
4296.00045 7.26714e-18
4297.50375 7.02043e-18
4298.99703 6.90864e-18
4300.50033 7.01080e-18
4302.00363 7.05908e-18
4303.49691 7.08061e-18
4305.00021 7.23120e-18
4306.50351 7.52393e-18
4307.99679 7.42237e-18
4309.50009 7.03328e-18
4311.00339 7.13535e-18
4312.49667 7.27982e-18
4313.99997 6.80828e-18
4315.50327 6.91249e-18
4316.99654 7.29914e-18
4318.49984 7.35134e-18
4320.00314 7.27280e-18
4321.49642 7.71551e-18
4322.99972 7.45263e-18
4324.50302 7.35206e-18
4325.99630 7.54048e-18
4327.49960 7.76717e-18
4329.00290 7.37766e-18
4330.49618 7.44759e-18
4331.99948 6.91849e-18
4333.50278 7.31013e-18
4334.99606 7.04242e-18
4336.49936 7.44272e-18
4338.00266 7.61141e-18
4339.49593 8.02717e-18
4340.99923 8.01035e-18
4342.50253 7.77314e-18
4343.99581 7.53387e-18
4345.49911 7.25787e-18
4347.00241 7.41911e-18
4348.49569 7.92406e-18
4349.99899 7.73368e-18
4351.50229 7.63982e-18
4352.99557 7.29629e-18
4354.49887 7.10862e-18
4356.00217 7.64254e-18
4357.49545 7.80223e-18
4358.99875 7.61549e-18
4360.50205 7.37268e-18
4361.99532 7.59795e-18
4363.49862 7.76696e-18
4365.00192 7.85031e-18
4366.49520 7.75752e-18
4367.99850 7.73483e-18
4369.50180 7.63357e-18
4370.99508 7.66970e-18
4372.49838 7.56864e-18
4374.00168 7.72207e-18
4375.50498 7.94515e-18
4376.99826 8.01993e-18
4378.50156 8.02282e-18
4380.00486 7.86094e-18
4381.49814 8.03834e-18
4383.00144 7.98201e-18
4384.50474 7.88975e-18
4385.99801 8.09240e-18
4387.50131 7.79718e-18
4389.00461 7.68081e-18
4390.49789 8.26772e-18
4392.00119 8.33101e-18
4393.50449 8.26025e-18
4394.99777 8.56830e-18
4396.50107 8.64624e-18
4398.00437 8.52388e-18
4399.49765 8.14095e-18
4401.00095 8.23352e-18
4402.50425 8.49403e-18
4403.99753 8.09153e-18
4405.50083 8.09917e-18
4407.00413 8.54940e-18
4408.49740 8.74688e-18
4410.00070 8.31522e-18
4411.50400 8.17080e-18
4412.99728 8.52897e-18
4414.50058 8.11515e-18
4416.00388 8.20550e-18
4417.49716 8.58627e-18
4419.00046 8.44088e-18
4420.50376 8.98204e-18
4421.99704 8.67416e-18
4423.50034 8.34481e-18
4425.00364 8.61098e-18
4426.49692 8.50873e-18
4428.00022 8.35977e-18
4429.50352 8.37196e-18
4430.99679 8.57339e-18
4432.50009 8.79461e-18
4434.00339 9.11007e-18
4435.49667 9.15346e-18
4436.99997 8.94480e-18
4438.50327 9.18235e-18
4439.99655 9.21054e-18
4441.49985 9.22215e-18
4443.00315 9.44781e-18
4444.49643 9.50357e-18
4445.99973 9.38903e-18
4447.50303 9.40644e-18
4448.99631 9.53434e-18
4450.49961 9.64268e-18
4452.00291 9.69203e-18
4453.49618 9.77455e-18
4454.99948 1.00964e-17
4456.50278 1.03051e-17
4457.99606 9.83029e-18
4459.49936 9.40600e-18
4461.00266 1.01182e-17
4462.49594 1.03540e-17
4463.99924 1.02053e-17
4465.50254 1.04868e-17
4466.99582 1.06049e-17
4468.49912 1.05536e-17
4470.00242 1.04824e-17
4471.49570 1.07354e-17
4472.99900 1.06845e-17
4474.50230 1.05544e-17
4475.99557 1.08781e-17
4477.49887 1.16847e-17
4479.00217 1.13377e-17
4480.49545 1.11328e-17
4481.99875 1.11670e-17
4483.50205 1.13769e-17
4484.99533 1.15650e-17
4486.49863 1.15024e-17
4488.00193 1.16408e-17
4489.49521 1.12693e-17
4490.99851 1.16750e-17
4492.50181 1.19164e-17
4493.99509 1.17595e-17
4495.49839 1.16941e-17
4497.00169 1.18142e-17
4498.49496 1.19939e-17
4499.99826 1.19559e-17
4501.50156 1.21487e-17
4503.00486 1.20687e-17
4504.49814 1.23211e-17
4506.00144 1.26978e-17
4507.50474 1.24720e-17
4508.99802 1.26742e-17
4510.50132 1.30956e-17
4512.00462 1.30374e-17
4513.49790 1.27649e-17
4515.00120 1.26405e-17
4516.50450 1.28424e-17
4517.99778 1.29820e-17
4519.50108 1.30210e-17
4521.00438 1.31076e-17
4522.49765 1.32526e-17
4524.00095 1.33241e-17
4525.50425 1.32602e-17
4526.99753 1.34802e-17
4528.50083 1.34955e-17
4530.00413 1.34453e-17
4531.49741 1.34965e-17
4533.00071 1.37099e-17
4534.50401 1.40769e-17
4535.99729 1.36506e-17
4537.50059 1.36210e-17
4539.00389 1.39462e-17
4540.49717 1.38290e-17
4542.00047 1.37936e-17
4543.50377 1.42610e-17
4544.99704 1.44250e-17
4546.50034 1.44358e-17
4548.00364 1.48967e-17
4549.49692 1.44321e-17
4551.00022 1.47882e-17
4552.50352 1.44267e-17
4553.99680 1.44223e-17
4555.50010 1.43948e-17
4557.00340 1.43714e-17
4558.49668 1.42765e-17
4559.99998 1.45596e-17
4561.50328 1.47318e-17
4562.99656 1.46250e-17
4564.49986 1.44577e-17
4566.00316 1.41995e-17
4567.49643 1.45146e-17
4568.99973 1.48669e-17
4570.50303 1.47754e-17
4571.99631 1.47337e-17
4573.49961 1.44274e-17
4575.00291 1.41884e-17
4576.49619 1.44698e-17
4577.99949 1.47920e-17
4579.50279 1.50974e-17
4580.99607 1.51834e-17
4582.49937 1.47841e-17
4584.00267 1.47644e-17
4585.49595 1.45338e-17
4586.99925 1.45485e-17
4588.50255 1.48638e-17
4589.99582 1.48742e-17
4591.49912 1.49092e-17
4593.00242 1.49674e-17
4594.49570 1.52183e-17
4595.99900 1.51000e-17
4597.50230 1.50456e-17
4598.99558 1.53222e-17
4600.49888 1.51942e-17
4602.00218 1.51006e-17
4603.49546 1.51919e-17
4604.99876 1.54009e-17
4606.50206 1.56028e-17
4607.99534 1.55430e-17
4609.49864 1.53921e-17
4611.00194 1.54564e-17
4612.49521 1.53351e-17
4613.99851 1.53982e-17
4615.50181 1.54889e-17
4616.99509 1.52911e-17
4618.49839 1.49496e-17
4620.00169 1.49577e-17
4621.49497 1.51008e-17
4622.99827 1.50654e-17
4624.50157 1.52312e-17
4626.00487 1.48365e-17
4627.49815 1.51795e-17
4629.00145 1.55048e-17
4630.50475 1.50379e-17
4631.99803 1.50642e-17
4633.50133 1.50973e-17
4635.00463 1.46777e-17
4636.49790 1.48162e-17
4638.00120 1.47992e-17
4639.50450 1.42845e-17
4640.99778 1.41131e-17
4642.50108 1.43900e-17
4644.00438 1.45735e-17
4645.49766 1.42468e-17
4647.00096 1.43015e-17
4648.50426 1.41694e-17
4649.99754 1.39582e-17
4651.50084 1.43102e-17
4653.00414 1.40866e-17
4654.49742 1.36891e-17
4656.00072 1.38766e-17
4657.50402 1.38925e-17
4658.99729 1.36229e-17
4660.50059 1.36349e-17
4662.00389 1.39786e-17
4663.49717 1.38837e-17
4665.00047 1.37860e-17
4666.50377 1.37686e-17
4667.99705 1.32027e-17
4669.50035 1.30010e-17
4671.00365 1.34101e-17
4672.49693 1.35059e-17
4674.00023 1.32411e-17
4675.50353 1.30180e-17
4676.99681 1.28080e-17
4678.50011 1.26768e-17
4680.00341 1.28868e-17
4681.49668 1.29626e-17
4682.99998 1.26708e-17
4684.50328 1.24715e-17
4685.99656 1.26229e-17
4687.49986 1.28487e-17
4689.00316 1.24734e-17
4690.49644 1.23763e-17
4691.99974 1.25547e-17
4693.50304 1.24682e-17
4694.99632 1.25807e-17
4696.49962 1.26582e-17
4698.00292 1.25290e-17
4699.49620 1.24186e-17
4700.99950 1.20913e-17
4702.50280 1.19241e-17
4703.99607 1.19866e-17
4705.49937 1.21675e-17
4707.00267 1.19656e-17
4708.49595 1.23611e-17
4709.99925 1.25362e-17
4711.50255 1.19841e-17
4712.99583 1.17465e-17
4714.49913 1.19085e-17
4716.00243 1.19547e-17
4717.49571 1.16427e-17
4718.99901 1.14696e-17
4720.50231 1.17898e-17
4721.99559 1.19129e-17
4723.49889 1.16716e-17
4725.00219 1.16368e-17
4726.49546 1.15252e-17
4727.99876 1.14401e-17
4729.50206 1.17169e-17
4730.99534 1.20176e-17
4732.49864 1.19731e-17
4734.00194 1.18832e-17
4735.49522 1.19432e-17
4736.99852 1.18810e-17
4738.50182 1.18040e-17
4739.99510 1.18055e-17
4741.49840 1.16493e-17
4743.00170 1.16929e-17
4744.49498 1.20508e-17
4745.99828 1.23652e-17
4747.50158 1.22841e-17
4749.00488 1.21758e-17
4750.49815 1.20746e-17
4752.00145 1.19079e-17
4753.50475 1.19281e-17
4754.99803 1.19739e-17
4756.50133 1.20521e-17
4758.00463 1.18360e-17
4759.49791 1.19870e-17
4761.00121 1.18302e-17
4762.50451 1.14796e-17
4763.99779 1.16587e-17
4765.50109 1.19688e-17
4767.00439 1.17155e-17
4768.49767 1.13750e-17
4770.00097 1.13260e-17
4771.50427 1.14378e-17
4772.99754 1.08551e-17
4774.50084 1.09076e-17
4776.00414 1.13424e-17
4777.49742 1.16808e-17
4779.00072 1.12860e-17
4780.50402 1.12184e-17
4781.99730 1.13266e-17
4783.50060 1.15072e-17
4785.00390 1.14767e-17
4786.49718 1.11545e-17
4788.00048 1.15165e-17
4789.50378 1.15004e-17
4790.99706 1.13768e-17
4792.50036 1.14855e-17
4794.00366 1.16707e-17
4795.49693 1.18329e-17
4797.00023 1.17099e-17
4798.50353 1.15416e-17
4799.99681 1.16081e-17
4801.50011 1.16269e-17
4803.00341 1.18308e-17
4804.49669 1.20355e-17
4805.99999 1.19207e-17
4807.50329 1.18284e-17
4808.99657 1.18915e-17
4810.49987 1.19202e-17
4812.00317 1.17925e-17
4813.49645 1.15933e-17
4814.99975 1.15974e-17
4816.50305 1.16649e-17
4817.99632 1.18927e-17
4819.49962 1.19179e-17
4821.00292 1.16475e-17
4822.49620 1.19136e-17
4823.99950 1.20612e-17
4825.50280 1.20544e-17
4826.99608 1.19025e-17
4828.49938 1.16635e-17
4830.00268 1.16824e-17
4831.49596 1.20228e-17
4832.99926 1.20046e-17
4834.50256 1.19945e-17
4835.99584 1.21728e-17
4837.49914 1.22790e-17
4839.00244 1.24243e-17
4840.49571 1.25142e-17
4841.99901 1.20510e-17
4843.50231 1.17832e-17
4844.99559 1.22877e-17
4846.49889 1.24505e-17
4848.00219 1.20260e-17
4849.49547 1.19701e-17
4850.99877 1.21183e-17
4852.50207 1.25405e-17
4853.99535 1.26910e-17
4855.49865 1.21776e-17
4857.00195 1.22245e-17
4858.49523 1.21797e-17
4859.99853 1.23227e-17
4861.50183 1.23086e-17
4862.99510 1.22224e-17
4864.49840 1.22252e-17
4866.00170 1.19231e-17
4867.49498 1.18658e-17
4868.99828 1.20754e-17
4870.50158 1.21935e-17
4872.00488 1.22108e-17
4873.49816 1.22460e-17
4875.00146 1.21758e-17
4876.50476 1.20405e-17
4877.99804 1.20827e-17
4879.50134 1.21928e-17
4881.00464 1.22954e-17
4882.49792 1.24282e-17
4884.00122 1.22426e-17
4885.50452 1.23078e-17
4886.99779 1.25036e-17
4888.50109 1.25268e-17
4890.00439 1.23579e-17
4891.49767 1.23007e-17
4893.00097 1.25814e-17
4894.50427 1.22637e-17
4895.99755 1.19880e-17
4897.50085 1.19945e-17
4899.00415 1.22244e-17
4900.49743 1.22120e-17
4902.00073 1.20551e-17
4903.50403 1.18821e-17
4904.99731 1.17499e-17
4906.50061 1.18962e-17
4908.00391 1.17912e-17
4909.49718 1.17198e-17
4911.00048 1.19503e-17
4912.50378 1.19469e-17
4913.99706 1.17338e-17
4915.50036 1.17004e-17
4917.00366 1.14720e-17
4918.49694 1.11600e-17
4920.00024 1.13227e-17
4921.50354 1.10639e-17
4922.99682 1.11758e-17
4924.50012 1.13092e-17
4926.00342 1.12336e-17
4927.49670 1.12500e-17
4929.00000 1.13820e-17
4930.50330 1.13004e-17
4931.99657 1.13814e-17
4933.49987 1.12894e-17
4935.00317 1.11868e-17
4936.49645 1.11543e-17
4937.99975 1.14169e-17
4939.50305 1.14521e-17
4940.99633 1.11585e-17
4942.49963 1.11324e-17
4944.00293 1.13152e-17
4945.49621 1.12242e-17
4946.99951 1.13815e-17
4948.50281 1.14902e-17
4949.99609 1.13038e-17
4951.49939 1.12701e-17
4953.00269 1.14487e-17
4954.49596 1.16540e-17
4955.99926 1.14755e-17
4957.50256 1.14672e-17
4958.99584 1.14569e-17
4960.49914 1.15267e-17
4962.00244 1.15508e-17
4963.49572 1.15382e-17
4964.99902 1.16904e-17
4966.50232 1.16772e-17
4967.99560 1.19083e-17
4969.49890 1.18494e-17
4971.00220 1.17320e-17
4972.49548 1.15664e-17
4973.99878 1.15658e-17
4975.50208 1.15544e-17
4976.99535 1.12179e-17
4978.49865 1.10914e-17
4980.00195 1.16698e-17
4981.49523 1.14256e-17
4982.99853 1.09503e-17
4984.50183 1.09772e-17
4985.99511 1.15270e-17
4987.49841 1.13739e-17
4989.00171 1.14892e-17
4990.49499 1.13342e-17
4991.99829 1.11196e-17
4993.50159 1.10818e-17
4995.00489 1.09763e-17
4996.49817 1.10557e-17
4998.00147 1.10080e-17
4999.50477 1.10701e-17
5000.99804 1.07980e-17
5002.50134 1.09404e-17
5004.00464 1.10217e-17
5005.49792 1.11049e-17
5007.00122 1.10610e-17
5008.50452 1.06066e-17
5009.99780 1.06567e-17
5011.50110 1.08641e-17
5013.00440 1.08192e-17
5014.49768 1.07762e-17
5016.00098 1.09184e-17
5017.50428 1.08602e-17
5018.99756 1.06780e-17
5020.50086 1.06671e-17
5022.00416 1.06820e-17
5023.49743 1.06733e-17
5025.00073 1.06438e-17
5026.50403 1.06032e-17
5027.99731 1.05463e-17
5029.50061 1.05025e-17
5031.00391 1.05129e-17
5032.49719 1.06314e-17
5034.00049 1.05019e-17
5035.50379 1.05900e-17
5036.99707 1.06205e-17
5038.50037 1.02667e-17
5040.00367 1.01700e-17
5041.49695 1.03904e-17
5043.00025 1.03175e-17
5044.50355 1.02472e-17
5045.99682 1.05262e-17
5047.50012 1.06363e-17
5049.00342 1.06829e-17
5050.49670 1.07244e-17
5052.00000 1.08710e-17
5053.50330 1.04197e-17
5054.99658 1.07228e-17
5056.49988 1.06858e-17
5058.00318 1.08646e-17
5059.49646 1.13138e-17
5060.99976 1.10732e-17
5062.50306 1.09398e-17
5063.99634 1.07827e-17
5065.49964 1.07909e-17
5067.00294 1.12082e-17
5068.49621 1.12607e-17
5069.99951 1.11962e-17
5071.50281 1.11961e-17
5072.99609 1.13692e-17
5074.49939 1.13972e-17
5076.00269 1.12125e-17
5077.49597 1.11665e-17
5078.99927 1.14624e-17
5080.50257 1.17060e-17
5081.99585 1.16362e-17
5083.49915 1.14472e-17
5085.00245 1.15050e-17
5086.49573 1.15651e-17
5087.99903 1.16117e-17
5089.50233 1.17054e-17
5090.99560 1.19165e-17
5092.49890 1.18238e-17
5094.00220 1.18216e-17
5095.49548 1.20361e-17
5096.99878 1.21523e-17
5098.50208 1.22980e-17
5099.99536 1.21236e-17
5101.49866 1.21613e-17
5103.00196 1.21328e-17
5104.49524 1.21166e-17
5105.99854 1.22574e-17
5107.50184 1.24093e-17
5108.99512 1.25769e-17
5110.49842 1.24734e-17
5112.00172 1.25296e-17
5113.49499 1.25332e-17
5114.99829 1.27214e-17
5116.50159 1.26799e-17
5118.00489 1.25404e-17
5119.49817 1.27765e-17
5121.00147 1.28647e-17
5122.50477 1.26250e-17
5123.99805 1.28342e-17
5125.50135 1.29059e-17
5127.00465 1.28606e-17
5128.49793 1.28186e-17
5130.00123 1.29144e-17
5131.50453 1.30288e-17
5132.99781 1.35418e-17
5134.50111 1.33875e-17
5136.00441 1.33207e-17
5137.49768 1.32340e-17
5139.00098 1.32834e-17
5140.50428 1.32801e-17
5141.99756 1.34002e-17
5143.50086 1.32409e-17
5145.00416 1.30985e-17
5146.49744 1.30520e-17
5148.00074 1.32918e-17
5149.50404 1.36083e-17
5150.99732 1.35238e-17
5152.50062 1.35389e-17
5154.00392 1.33865e-17
5155.49720 1.34462e-17
5157.00050 1.36919e-17
5158.50380 1.35650e-17
5159.99707 1.34677e-17
5161.50037 1.36794e-17
5163.00367 1.38639e-17
5164.49695 1.40535e-17
5166.00025 1.40467e-17
5167.50355 1.39249e-17
5168.99683 1.37341e-17
5170.50013 1.38102e-17
5172.00343 1.39973e-17
5173.49671 1.40368e-17
5175.00001 1.39704e-17
5176.50331 1.39131e-17
5177.99659 1.39486e-17
5179.49989 1.42678e-17
5181.00319 1.42279e-17
5182.49646 1.41663e-17
5183.99976 1.44677e-17
5185.50306 1.45127e-17
5186.99634 1.44017e-17
5188.49964 1.45358e-17
5190.00294 1.47195e-17
5191.49622 1.45760e-17
5192.99952 1.48909e-17
5194.50282 1.51355e-17
5195.99610 1.50997e-17
5197.49940 1.51583e-17
5199.00270 1.46903e-17
5200.49598 1.46093e-17
5201.99928 1.51166e-17
5203.50258 1.54877e-17
5204.99585 1.54760e-17
5206.49915 1.52778e-17
5208.00245 1.53258e-17
5209.49573 1.53146e-17
5210.99903 1.53028e-17
5212.50233 1.53908e-17
5213.99561 1.53625e-17
5215.49891 1.53549e-17
5217.00221 1.53146e-17
5218.49549 1.51724e-17
5219.99879 1.50153e-17
5221.50209 1.49335e-17
5222.99537 1.50905e-17
5224.49867 1.52606e-17
5226.00197 1.52835e-17
5227.49524 1.51193e-17
5228.99854 1.52527e-17
5230.50184 1.55277e-17
5231.99512 1.54256e-17
5233.49842 1.53007e-17
5235.00172 1.54734e-17
5236.49500 1.55130e-17
5237.99830 1.54841e-17
5239.50160 1.54323e-17
5241.00490 1.52261e-17
5242.49818 1.55233e-17
5244.00148 1.55417e-17
5245.50478 1.53422e-17
5246.99806 1.56872e-17
5248.50136 1.57129e-17
5250.00466 1.53880e-17
5251.49793 1.54604e-17
5253.00123 1.53034e-17
5254.50453 1.53070e-17
5255.99781 1.55211e-17
5257.50111 1.55927e-17
5259.00441 1.57965e-17
5260.49769 1.59604e-17
5262.00099 1.58484e-17
5263.50429 1.57676e-17
5264.99757 1.59406e-17
5266.50087 1.59526e-17
5268.00417 1.58821e-17
5269.49745 1.57053e-17
5271.00075 1.60741e-17
5272.50405 1.63103e-17
5273.99732 1.61978e-17
5275.50062 1.62342e-17
5277.00392 1.62792e-17
5278.49720 1.62852e-17
5280.00050 1.61970e-17
5281.50380 1.61998e-17
5282.99708 1.61467e-17
5284.50038 1.60024e-17
5286.00368 1.59574e-17
5287.49696 1.60072e-17
5289.00026 1.61229e-17
5290.50356 1.62042e-17
5291.99684 1.60690e-17
5293.50014 1.60892e-17
5295.00344 1.63825e-17
5296.49671 1.66220e-17
5298.00001 1.67411e-17
5299.50331 1.67656e-17
5300.99659 1.65959e-17
5302.49989 1.65252e-17
5304.00319 1.66348e-17
5305.49647 1.67026e-17
5306.99977 1.68353e-17
5308.50307 1.69490e-17
5309.99635 1.69438e-17
5311.49965 1.69389e-17
5313.00295 1.69055e-17
5314.49623 1.68417e-17
5315.99953 1.69020e-17
5317.50283 1.70252e-17
5318.99610 1.70248e-17
5320.49940 1.68963e-17
5322.00270 1.67445e-17
5323.49598 1.68954e-17
5324.99928 1.68720e-17
5326.50258 1.66944e-17
5327.99586 1.67884e-17
5329.49916 1.70591e-17
5331.00246 1.70176e-17
5332.49574 1.70204e-17
5333.99904 1.70602e-17
5335.50234 1.69156e-17
5336.99562 1.70137e-17
5338.49892 1.69562e-17
5340.00222 1.70597e-17
5341.49549 1.68514e-17
5342.99879 1.67332e-17
5344.50209 1.69769e-17
5345.99537 1.68424e-17
5347.49867 1.70416e-17
5349.00197 1.70254e-17
5350.49525 1.68856e-17
5351.99855 1.69547e-17
5353.50185 1.71615e-17
5354.99513 1.67229e-17
5356.49843 1.69011e-17
5358.00173 1.71735e-17
5359.49501 1.68519e-17
5360.99831 1.68054e-17
5362.50161 1.69903e-17
5364.00491 1.73588e-17
5365.49818 1.72020e-17
5367.00148 1.69944e-17
5368.50478 1.70720e-17
5369.99806 1.70954e-17
5371.50136 1.70957e-17
5373.00466 1.72655e-17
5374.49794 1.74249e-17
5376.00124 1.73248e-17
5377.50454 1.70918e-17
5378.99782 1.70228e-17
5380.50112 1.72262e-17
5382.00442 1.71489e-17
5383.49770 1.73329e-17
5385.00100 1.73895e-17
5386.50430 1.72334e-17
5387.99757 1.71686e-17
5389.50087 1.72022e-17
5391.00417 1.74603e-17
5392.49745 1.75620e-17
5394.00075 1.75909e-17
5395.50405 1.75502e-17
5396.99733 1.74158e-17
5398.50063 1.70142e-17
5400.00393 1.70629e-17
5401.49721 1.71891e-17
5403.00051 1.70637e-17
5404.50381 1.73818e-17
5405.99709 1.75233e-17
5407.50039 1.70972e-17
5409.00369 1.71222e-17
5410.49696 1.71632e-17
5412.00026 1.70492e-17
5413.50356 1.70325e-17
5414.99684 1.68658e-17
5416.50014 1.72173e-17
5418.00344 1.69087e-17
5419.49672 1.67471e-17
5421.00002 1.70650e-17
5422.50332 1.68760e-17
5423.99660 1.71055e-17
5425.49990 1.68957e-17
5427.00320 1.67069e-17
5428.49648 1.68646e-17
5429.99978 1.70518e-17
5431.50308 1.71582e-17
5432.99635 1.70104e-17
5434.49965 1.69712e-17
5436.00295 1.69542e-17
5437.49623 1.69709e-17
5438.99953 1.68509e-17
5440.50283 1.70883e-17
5441.99611 1.73456e-17
5443.49941 1.72407e-17
5445.00271 1.71691e-17
5446.49599 1.72962e-17
5447.99929 1.77230e-17
5449.50259 1.78342e-17
5450.99587 1.77947e-17
5452.49917 1.76959e-17
5454.00247 1.77230e-17
5455.49574 1.78342e-17
5456.99904 1.77293e-17
5458.50234 1.78227e-17
5459.99562 1.81894e-17
5461.49892 1.82830e-17
5463.00222 1.82155e-17
5464.49550 1.83697e-17
5465.99880 1.82927e-17
5467.50210 1.81076e-17
5468.99538 1.82028e-17
5470.49868 1.83553e-17
5472.00198 1.83732e-17
5473.49526 1.85417e-17
5474.99856 1.87125e-17
5476.50186 1.86944e-17
5477.99513 1.88814e-17
5479.49843 1.84932e-17
5481.00173 1.85354e-17
5482.49501 1.87292e-17
5483.99831 1.87671e-17
5485.50161 1.83064e-17
5487.00491 1.85542e-17
5488.49819 1.84914e-17
5490.00149 1.83554e-17
5491.50479 1.87720e-17
5492.99807 1.84114e-17
5494.50137 1.84250e-17
5496.00467 1.83899e-17
5497.49795 1.80510e-17
5499.00125 1.81009e-17
5500.50455 1.80772e-17
5501.99782 1.84141e-17
5503.50112 1.81151e-17
5505.00442 1.78707e-17
5506.49770 1.81168e-17
5508.00100 1.80479e-17
5509.50430 1.78902e-17
5510.99758 1.79124e-17
5512.50088 1.76593e-17
5514.00418 1.74810e-17
5515.49746 1.73481e-17
5517.00076 1.74133e-17
5518.50406 1.72711e-17
5519.99734 1.70042e-17
5521.50064 1.70524e-17
5523.00394 1.72339e-17
5524.49721 1.70949e-17
5526.00051 1.66949e-17
5527.50381 1.65343e-17
5528.99709 1.65734e-17
5530.50039 1.64155e-17
5532.00369 1.63248e-17
5533.49697 1.62492e-17
5535.00027 1.62310e-17
5536.50357 1.60612e-17
5537.99685 1.56076e-17
5539.50015 1.55787e-17
5541.00345 1.57577e-17
5542.49673 1.56230e-17
5544.00003 1.53928e-17
5545.50333 1.51983e-17
5546.99660 1.51152e-17
5548.49990 1.51614e-17
5550.00320 1.51812e-17
5551.49648 1.50075e-17
5552.99978 1.47092e-17
5554.50308 1.47833e-17
5555.99636 1.49276e-17
5557.49966 1.47575e-17
5559.00296 1.48750e-17
5560.49624 1.50343e-17
5561.99954 1.46287e-17
5563.50284 1.47337e-17
5564.99612 1.47552e-17
5566.49942 1.47209e-17
5568.00272 1.48338e-17
5569.49599 1.49402e-17
5570.99929 1.46426e-17
5572.50259 1.43678e-17
5573.99587 1.44678e-17
5575.49917 1.44076e-17
5577.00247 1.42753e-17
5578.49575 1.47244e-17
5579.99905 1.48052e-17
5581.50235 1.45551e-17
5582.99563 1.45605e-17
5584.49893 1.45787e-17
5586.00223 1.44637e-17
5587.49551 1.42248e-17
5588.99881 1.42262e-17
5590.50211 1.44555e-17
5591.99538 1.44067e-17
5593.49868 1.42341e-17
5595.00198 1.40875e-17
5596.49526 1.42698e-17
5597.99856 1.44281e-17
5599.50186 1.43192e-17
5600.99514 1.41833e-17
5602.49844 1.41973e-17
5604.00174 1.43314e-17
5605.49502 1.41129e-17
5606.99832 1.39941e-17
5608.50162 1.41319e-17
5610.00492 1.40967e-17
5611.49820 1.40703e-17
5613.00150 1.41057e-17
5614.50480 1.40768e-17
5615.99807 1.40275e-17
5617.50137 1.40148e-17
5619.00467 1.39158e-17
5620.49795 1.38808e-17
5622.00125 1.37541e-17
5623.50455 1.36777e-17
5624.99783 1.35382e-17
5626.50113 1.34186e-17
5628.00443 1.35204e-17
5629.49771 1.34944e-17
5631.00101 1.34587e-17
5632.50431 1.34569e-17
5633.99759 1.34391e-17
5635.50089 1.34535e-17
5637.00419 1.34689e-17
5638.49746 1.34368e-17
5640.00076 1.33821e-17
5641.50406 1.32375e-17
5642.99734 1.29588e-17
5644.50064 1.29783e-17
5646.00394 1.31638e-17
5647.49722 1.28881e-17
5649.00052 1.26937e-17
5650.50382 1.26658e-17
5651.99710 1.26030e-17
5653.50040 1.25405e-17
5655.00370 1.22325e-17
5656.49698 1.19711e-17
5658.00028 1.20890e-17
5659.50358 1.22036e-17
5660.99685 1.21107e-17
5662.50015 1.20515e-17
5664.00345 1.21835e-17
5665.49673 1.22482e-17
5667.00003 1.21307e-17
5668.50333 1.18943e-17
5669.99661 1.16499e-17
5671.49991 1.16817e-17
5673.00321 1.18838e-17
5674.49649 1.17994e-17
5675.99979 1.16953e-17
5677.50309 1.16391e-17
5678.99637 1.15802e-17
5680.49967 1.14671e-17
5682.00297 1.15119e-17
5683.49624 1.15126e-17
5684.99954 1.13947e-17
5686.50284 1.11938e-17
5687.99612 1.09778e-17
5689.49942 1.13033e-17
5691.00272 1.11856e-17
5692.49600 1.12655e-17
5693.99930 1.14702e-17
5695.50260 1.12496e-17
5696.99588 1.10510e-17
5698.49918 1.10769e-17
5700.00248 1.11721e-17
5701.49576 1.12178e-17
5702.99906 1.10120e-17
5704.50236 1.09337e-17
5705.99563 1.09043e-17
5707.49893 1.10126e-17
5709.00223 1.09291e-17
5710.49551 1.08534e-17
5711.99881 1.07338e-17
5713.50211 1.06748e-17
5714.99539 1.09704e-17
5716.49869 1.08392e-17
5718.00199 1.07527e-17
5719.49527 1.07976e-17
5720.99857 1.09742e-17
5722.50187 1.08339e-17
5723.99515 1.06506e-17
5725.49845 1.08335e-17
5727.00175 1.09769e-17
5728.49502 1.10289e-17
5729.99832 1.12027e-17
5731.50162 1.12000e-17
5733.00492 1.09973e-17
5734.49820 1.11236e-17
5736.00150 1.13682e-17
5737.50480 1.14599e-17
5738.99808 1.12566e-17
5740.50138 1.12170e-17
5742.00468 1.13905e-17
5743.49796 1.12993e-17
5745.00126 1.12148e-17
5746.50456 1.12786e-17
5747.99784 1.14850e-17
5749.50114 1.15690e-17
5751.00444 1.16206e-17
5752.49771 1.17633e-17
5754.00101 1.18765e-17
5755.50431 1.16190e-17
5756.99759 1.14551e-17
5758.50089 1.15658e-17
5760.00419 1.13569e-17
5761.49747 1.14142e-17
5763.00077 1.12764e-17
5764.50407 1.13038e-17
5765.99735 1.13251e-17
5767.50065 1.13363e-17
5769.00395 1.13533e-17
5770.49723 1.11883e-17
5772.00053 1.13941e-17
5773.50383 1.15116e-17
5774.99710 1.13227e-17
5776.50040 1.11648e-17
5778.00370 1.14112e-17
5779.49698 1.13356e-17
5781.00028 1.14129e-17
5782.50358 1.13523e-17
5783.99686 1.11004e-17
5785.50016 1.12563e-17
5787.00346 1.15740e-17
5788.49674 1.14343e-17
5790.00004 1.14770e-17
5791.50334 1.14957e-17
5792.99662 1.17486e-17
5794.49992 1.17839e-17
5796.00322 1.18499e-17
5797.49649 1.18115e-17
5798.99979 1.18179e-17
5800.50309 1.19938e-17
5801.99637 1.21378e-17
5803.49967 1.22562e-17
5805.00297 1.24449e-17
5806.49625 1.25343e-17
5807.99955 1.25485e-17
5809.50285 1.27607e-17
5810.99613 1.27691e-17
5812.49943 1.27476e-17
5814.00273 1.27649e-17
5815.49601 1.28120e-17
5816.99931 1.28023e-17
5818.50261 1.28724e-17
5819.99588 1.29607e-17
5821.49918 1.33960e-17
5823.00248 1.34736e-17
5824.49576 1.34250e-17
5825.99906 1.35914e-17
5827.50236 1.38046e-17
5828.99564 1.36423e-17
5830.49894 1.36889e-17
5832.00224 1.39767e-17
5833.49552 1.41147e-17
5834.99882 1.41799e-17
5836.50212 1.42508e-17
5837.99540 1.42299e-17
5839.49870 1.42562e-17
5841.00200 1.43139e-17
5842.49527 1.42838e-17
5843.99857 1.44298e-17
5845.50187 1.44327e-17
5846.99515 1.44268e-17
5848.49845 1.47766e-17
5850.00175 1.51181e-17
5851.49503 1.48053e-17
5852.99833 1.46928e-17
5854.50163 1.50370e-17
5856.00493 1.49052e-17
5857.49821 1.48386e-17
5859.00151 1.51026e-17
5860.50481 1.52229e-17
5861.99809 1.53082e-17
5863.50139 1.53736e-17
5865.00469 1.52783e-17
5866.49796 1.52003e-17
5868.00126 1.52751e-17
5869.50456 1.55500e-17
5870.99784 1.56241e-17
5872.50114 1.53176e-17
5874.00444 1.51095e-17
5875.49772 1.53631e-17
5877.00102 1.54666e-17
5878.50432 1.53454e-17
5879.99760 1.54262e-17
5881.50090 1.54456e-17
5883.00420 1.54867e-17
5884.49748 1.54433e-17
5886.00078 1.52357e-17
5887.50408 1.48244e-17
5888.99735 1.46126e-17
5890.50065 1.46644e-17
5892.00395 1.47776e-17
5893.49723 1.49200e-17
5895.00053 1.47341e-17
5896.50383 1.44880e-17
5897.99711 1.44216e-17
5899.50041 1.47080e-17
5901.00371 1.49803e-17
5902.49699 1.48773e-17
5904.00029 1.49271e-17
5905.50359 1.50896e-17
5906.99687 1.49949e-17
5908.50017 1.47996e-17
5910.00347 1.51888e-17
5911.49674 1.51487e-17
5913.00004 1.49960e-17
5914.50334 1.53169e-17
5915.99662 1.51427e-17
5917.49992 1.47630e-17
5919.00322 1.49984e-17
5920.49650 1.56203e-17
5921.99980 1.53759e-17
5923.50310 1.57059e-17
5924.99638 1.55588e-17
5926.49968 1.53432e-17
5928.00298 1.53163e-17
5929.49626 1.55812e-17
5930.99956 1.55258e-17
5932.50286 1.56075e-17
5933.99613 1.55690e-17
5935.49943 1.54565e-17
5937.00273 1.53391e-17
5938.49601 1.52852e-17
5939.99931 1.54631e-17
5941.50261 1.55536e-17
5942.99589 1.55400e-17
5944.49919 1.56232e-17
5946.00249 1.54054e-17
5947.49577 1.51420e-17
5948.99907 1.52075e-17
5950.50237 1.54687e-17
5951.99565 1.55643e-17
5953.49895 1.53574e-17
5955.00225 1.52513e-17
5956.49552 1.53107e-17
5957.99882 1.53842e-17
5959.50212 1.54767e-17
5960.99540 1.53798e-17
5962.49870 1.52193e-17
5964.00200 1.53241e-17
5965.49528 1.53186e-17
5966.99858 1.51507e-17
5968.50188 1.50305e-17
5970.00518 1.51306e-17
5971.49846 1.52130e-17
5973.00176 1.53152e-17
5974.49504 1.50907e-17
5975.99834 1.52604e-17
5977.50164 1.53599e-17
5979.00494 1.52907e-17
5980.49821 1.50600e-17
5982.00151 1.49698e-17
5983.50481 1.51190e-17
5984.99809 1.49644e-17
5986.50139 1.50051e-17
5988.00469 1.52339e-17
5989.49797 1.50625e-17
5991.00127 1.50079e-17
5992.50457 1.49314e-17
5993.99785 1.49719e-17
5995.50115 1.47626e-17
5997.00445 1.49257e-17
5998.49773 1.49861e-17
6000.00103 1.47313e-17
6001.50433 1.47757e-17
6002.99760 1.48392e-17
6004.50090 1.47387e-17
6006.00420 1.47946e-17
6007.49748 1.45227e-17
6009.00078 1.46009e-17
6010.50408 1.48259e-17
6011.99736 1.46615e-17
6013.50066 1.45591e-17
6015.00396 1.45681e-17
6016.49724 1.45763e-17
6018.00054 1.46374e-17
6019.50384 1.44937e-17
6020.99712 1.42685e-17
6022.50042 1.43068e-17
6024.00372 1.42033e-17
6025.49699 1.39612e-17
6027.00029 1.40326e-17
6028.50359 1.39885e-17
6029.99687 1.39552e-17
6031.50017 1.39999e-17
6033.00347 1.39870e-17
6034.49675 1.38532e-17
6036.00005 1.37425e-17
6037.50335 1.36102e-17
6038.99663 1.33875e-17
6040.49993 1.33533e-17
6042.00323 1.35674e-17
6043.49651 1.33449e-17
6044.99981 1.32321e-17
6046.50311 1.33414e-17
6047.99638 1.32737e-17
6049.49968 1.32847e-17
6051.00298 1.32958e-17
6052.49626 1.33069e-17
6053.99956 1.33179e-17
6055.50286 1.33172e-17
6056.99614 1.34112e-17
6058.49944 1.33997e-17
6060.00274 1.30421e-17
6061.49602 1.31716e-17
6062.99932 1.33896e-17
6064.50262 1.33725e-17
6065.99590 1.33001e-17
6067.49920 1.31403e-17
6069.00250 1.32447e-17
6070.49577 1.33468e-17
6071.99907 1.35327e-17
6073.50237 1.33779e-17
6074.99565 1.33245e-17
6076.49895 1.36139e-17
6078.00225 1.35028e-17
6079.49553 1.34481e-17
6080.99883 1.35891e-17
6082.50213 1.37284e-17
6083.99541 1.38761e-17
6085.49871 1.38285e-17
6087.00201 1.37700e-17
6088.49529 1.37913e-17
6089.99859 1.37971e-17
6091.50189 1.39599e-17
6092.99516 1.39575e-17
6094.49846 1.39325e-17
6096.00176 1.40782e-17
6097.49504 1.41574e-17
6098.99834 1.40844e-17
6100.50164 1.40296e-17
6101.99492 1.42276e-17
6103.49822 1.43328e-17
6105.00152 1.43500e-17
6106.50482 1.43346e-17
6107.99810 1.42947e-17
6109.50140 1.43361e-17
6111.00470 1.44621e-17
6112.49798 1.45047e-17
6114.00128 1.45582e-17
6115.50458 1.47681e-17
6116.99785 1.47043e-17
6118.50115 1.44241e-17
6120.00445 1.42095e-17
6121.49773 1.42183e-17
6123.00103 1.43623e-17
6124.50433 1.46601e-17
6125.99761 1.48630e-17
6127.50091 1.45899e-17
6129.00421 1.45836e-17
6130.49749 1.47678e-17
6132.00079 1.47438e-17
6133.50409 1.46770e-17
6134.99737 1.47987e-17
6136.50067 1.48121e-17
6138.00397 1.49341e-17
6139.49724 1.48952e-17
6141.00054 1.46034e-17
6142.50384 1.48180e-17
6143.99712 1.51642e-17
6145.50042 1.48425e-17
6147.00372 1.45617e-17
6148.49700 1.47542e-17
6150.00030 1.48783e-17
6151.50360 1.52888e-17
6152.99688 1.51478e-17
6154.50018 1.49952e-17
6156.00348 1.51385e-17
6157.49676 1.52963e-17
6159.00006 1.54094e-17
6160.50336 1.53071e-17
6161.99663 1.53994e-17
6163.49993 1.55984e-17
6165.00323 1.56839e-17
6166.49651 1.56133e-17
6167.99981 1.54575e-17
6169.50311 1.55754e-17
6170.99639 1.56645e-17
6172.49969 1.57723e-17
6174.00299 1.57833e-17
6175.49627 1.58112e-17
6176.99957 1.59783e-17
6178.50287 1.60680e-17
6179.99615 1.61046e-17
6181.49945 1.61387e-17
6183.00275 1.62670e-17
6184.49602 1.65542e-17
6185.99932 1.67571e-17
6187.50262 1.66896e-17
6188.99590 1.65707e-17
6190.49920 1.64498e-17
6192.00250 1.66601e-17
6193.49578 1.69377e-17
6194.99908 1.67601e-17
6196.50238 1.68917e-17
6197.99566 1.70614e-17
6199.49896 1.68778e-17
6201.00226 1.67727e-17
6202.49554 1.68234e-17
6203.99884 1.68105e-17
6205.50214 1.68609e-17
6206.99541 1.71973e-17
6208.49871 1.73487e-17
6210.00201 1.72491e-17
6211.49529 1.71201e-17
6212.99859 1.69451e-17
6214.50189 1.68479e-17
6215.99517 1.70654e-17
6217.49847 1.70346e-17
6219.00177 1.72557e-17
6220.49505 1.73292e-17
6221.99835 1.71039e-17
6223.50165 1.70558e-17
6224.99493 1.69944e-17
6226.49823 1.71873e-17
6228.00153 1.74249e-17
6229.50483 1.68880e-17
6230.99810 1.69087e-17
6232.50140 1.70920e-17
6234.00470 1.68803e-17
6235.49798 1.69504e-17
6237.00128 1.67307e-17
6238.50458 1.66151e-17
6239.99786 1.67246e-17
6241.50116 1.65399e-17
6243.00446 1.63259e-17
6244.49774 1.63171e-17
6246.00104 1.65186e-17
6247.50434 1.65355e-17
6248.99762 1.65875e-17
6250.50092 1.67925e-17
6252.00422 1.67979e-17
6253.49749 1.68174e-17
6255.00079 1.66665e-17
6256.50409 1.64518e-17
6257.99737 1.64268e-17
6259.50067 1.64612e-17
6261.00397 1.64831e-17
6262.49725 1.65984e-17
6264.00055 1.64431e-17
6265.50385 1.63237e-17
6266.99713 1.62707e-17
6268.50043 1.59993e-17
6270.00373 1.60463e-17
6271.49701 1.61649e-17
6273.00031 1.59404e-17
6274.50361 1.60636e-17
6275.99688 1.63565e-17
6277.50018 1.60182e-17
6279.00348 1.60758e-17
6280.49676 1.60107e-17
6282.00006 1.57845e-17
6283.50336 1.56198e-17
6284.99664 1.56723e-17
6286.49994 1.57755e-17
6288.00324 1.58037e-17
6289.49652 1.60424e-17
6290.99982 1.60914e-17
6292.50312 1.59707e-17
6293.99640 1.57127e-17
6295.49970 1.57693e-17
6297.00300 1.56926e-17
6298.49627 1.55566e-17
6299.99957 1.56886e-17
6301.50287 1.57941e-17
6302.99615 1.58335e-17
6304.49945 1.54822e-17
6306.00275 1.53082e-17
6307.49603 1.54964e-17
6308.99933 1.55188e-17
6310.50263 1.55119e-17
6311.99591 1.56109e-17
6313.49921 1.56870e-17
6315.00251 1.57875e-17
6316.49579 1.58331e-17
6317.99909 1.56311e-17
6319.50239 1.54933e-17
6320.99566 1.55885e-17
6322.49896 1.57488e-17
6324.00226 1.58787e-17
6325.49554 1.58209e-17
6326.99884 1.57572e-17
6328.50214 1.55411e-17
6329.99542 1.54950e-17
6331.49872 1.57379e-17
6333.00202 1.59707e-17
6334.49530 1.59343e-17
6335.99860 1.56680e-17
6337.50190 1.56075e-17
6338.99518 1.57236e-17
6340.49848 1.54495e-17
6342.00178 1.51544e-17
6343.49505 1.51071e-17
6344.99835 1.51571e-17
6346.50165 1.53932e-17
6347.99493 1.53660e-17
6349.49823 1.54323e-17
6351.00153 1.51993e-17
6352.50483 1.51768e-17
6353.99811 1.50359e-17
6355.50141 1.50793e-17
6357.00471 1.51882e-17
6358.49799 1.53142e-17
6360.00129 1.52805e-17
6361.50459 1.51313e-17
6362.99787 1.47150e-17
6364.50117 1.46542e-17
6366.00447 1.47591e-17
6367.49774 1.48016e-17
6369.00104 1.46267e-17
6370.50434 1.46298e-17
6371.99762 1.46910e-17
6373.50092 1.46441e-17
6375.00422 1.47492e-17
6376.49750 1.47874e-17
6378.00080 1.47604e-17
6379.50410 1.48790e-17
6380.99738 1.52190e-17
6382.50068 1.49934e-17
6384.00398 1.48831e-17
6385.49726 1.50112e-17
6387.00056 1.50717e-17
6388.50386 1.53710e-17
6389.99713 1.53952e-17
6391.50043 1.50679e-17
6393.00373 1.50211e-17
6394.49701 1.51507e-17
6396.00031 1.52528e-17
6397.50361 1.54569e-17
6398.99689 1.54627e-17
6400.50019 1.51412e-17
6402.00349 1.51918e-17
6403.49677 1.51303e-17
6405.00007 1.51017e-17
6406.50337 1.53015e-17
6407.99665 1.52225e-17
6409.49995 1.51560e-17
6411.00325 1.52793e-17
6412.49652 1.54749e-17
6413.99982 1.54361e-17
6415.50312 1.54795e-17
6416.99640 1.55051e-17
6418.49970 1.54325e-17
6420.00300 1.56594e-17
6421.49628 1.55271e-17
6422.99958 1.57135e-17
6424.50288 1.59914e-17
6425.99616 1.58902e-17
6427.49946 1.56922e-17
6429.00276 1.58524e-17
6430.49604 1.56685e-17
6431.99934 1.55853e-17
6433.50264 1.55753e-17
6434.99591 1.55421e-17
6436.49921 1.55219e-17
6438.00251 1.54820e-17
6439.49579 1.54832e-17
6440.99909 1.53756e-17
6442.50239 1.53378e-17
6443.99567 1.52783e-17
6445.49897 1.52149e-17
6447.00227 1.52859e-17
6448.49555 1.52979e-17
6449.99885 1.54627e-17
6451.50215 1.55173e-17
6452.99543 1.54871e-17
6454.49873 1.54679e-17
6456.00203 1.54225e-17
6457.49530 1.54134e-17
6458.99860 1.53279e-17
6460.50190 1.52306e-17
6461.99518 1.52595e-17
6463.49848 1.54263e-17
6465.00178 1.55733e-17
6466.49506 1.53751e-17
6467.99836 1.52097e-17
6469.50166 1.54348e-17
6470.99494 1.54518e-17
6472.49824 1.53333e-17
6474.00154 1.51994e-17
6475.50484 1.51733e-17
6476.99812 1.50789e-17
6478.50142 1.50020e-17
6480.00472 1.49873e-17
6481.49799 1.50108e-17
6483.00129 1.51339e-17
6484.50459 1.50894e-17
6485.99787 1.49058e-17
6487.50117 1.48006e-17
6489.00447 1.49197e-17
6490.49775 1.48762e-17
6492.00105 1.47790e-17
6493.50435 1.49631e-17
6494.99763 1.47780e-17
6496.50093 1.47479e-17
6498.00423 1.51396e-17
6499.49751 1.51997e-17
6501.00081 1.51252e-17
6502.50411 1.50001e-17
6503.99738 1.49617e-17
6505.50068 1.51182e-17
6507.00398 1.50326e-17
6508.49726 1.46594e-17
6510.00056 1.46843e-17
6511.50386 1.47940e-17
6512.99714 1.45989e-17
6514.50044 1.46126e-17
6516.00374 1.46399e-17
6517.49702 1.45891e-17
6519.00032 1.46806e-17
6520.50362 1.47702e-17
6521.99690 1.50043e-17
6523.50020 1.52927e-17
6525.00350 1.51806e-17
6526.49677 1.49521e-17
6528.00007 1.48220e-17
6529.50337 1.49363e-17
6530.99665 1.51059e-17
6532.49995 1.50690e-17
6534.00325 1.49990e-17
6535.49653 1.52048e-17
6536.99983 1.52399e-17
6538.50313 1.50798e-17
6539.99641 1.50148e-17
6541.49971 1.51045e-17
6543.00301 1.52492e-17
6544.49629 1.51490e-17
6545.99959 1.50164e-17
6547.50289 1.49920e-17
6548.99616 1.48058e-17
6550.49946 1.51709e-17
6552.00276 1.50197e-17
6553.49604 1.50405e-17
6554.99934 1.52100e-17
6556.50264 1.48137e-17
6557.99592 1.46720e-17
6559.49922 1.50379e-17
6561.00252 1.53264e-17
6562.49580 1.49692e-17
6563.99910 1.52676e-17
6565.50240 1.46196e-17
6566.99568 1.48308e-17
6568.49898 1.46916e-17
6570.00228 1.43156e-17
6571.49555 1.45889e-17
6572.99885 1.45248e-17
6574.50215 1.49027e-17
6575.99543 1.49120e-17
6577.49873 1.47738e-17
6579.00203 1.46986e-17
6580.49531 1.46118e-17
6581.99861 1.43786e-17
6583.50191 1.43330e-17
6584.99519 1.42944e-17
6586.49849 1.43261e-17
6588.00179 1.43607e-17
6589.49507 1.41777e-17
6590.99837 1.40433e-17
6592.50167 1.41672e-17
6593.99494 1.42980e-17
6595.49824 1.43133e-17
6597.00154 1.43286e-17
6598.50484 1.42039e-17
6599.99812 1.42619e-17
6601.50142 1.43220e-17
6603.00472 1.44666e-17
6604.49800 1.43313e-17
6606.00130 1.40159e-17
6607.50460 1.39312e-17
6608.99788 1.41382e-17
6610.50118 1.42397e-17
6612.00448 1.41247e-17
6613.49776 1.39777e-17
6615.00106 1.41220e-17
6616.50436 1.39081e-17
6617.99763 1.37160e-17
6619.50093 1.38087e-17
6621.00423 1.37893e-17
6622.49751 1.35826e-17
6624.00081 1.36257e-17
6625.50411 1.37609e-17
6626.99739 1.34164e-17
6628.50069 1.35253e-17
6630.00399 1.36126e-17
6631.49727 1.36639e-17
6633.00057 1.37017e-17
6634.50387 1.37018e-17
6635.99715 1.36533e-17
6637.50045 1.37091e-17
6639.00375 1.38415e-17
6640.49702 1.36106e-17
6642.00032 1.35899e-17
6643.50362 1.37350e-17
6644.99690 1.35623e-17
6646.50020 1.33847e-17
6648.00350 1.34549e-17
6649.49678 1.35278e-17
6651.00008 1.35485e-17
6652.50338 1.36859e-17
6653.99666 1.37932e-17
6655.49996 1.34722e-17
6657.00326 1.36750e-17
6658.49654 1.35874e-17
6659.99984 1.33188e-17
6661.50314 1.33272e-17
6662.99641 1.33017e-17
6664.49971 1.33653e-17
6666.00301 1.33416e-17
6667.49629 1.31319e-17
6668.99959 1.30666e-17
6670.50289 1.31761e-17
6671.99617 1.30807e-17
6673.49947 1.31600e-17
6675.00277 1.31460e-17
6676.49605 1.32243e-17
6677.99935 1.33531e-17
6679.50265 1.32202e-17
6680.99593 1.31779e-17
6682.49923 1.32288e-17
6684.00253 1.32524e-17
6685.49580 1.29875e-17
6686.99910 1.27668e-17
6688.50240 1.28394e-17
6689.99568 1.28924e-17
6691.49898 1.28067e-17
6693.00228 1.25685e-17
6694.49556 1.24500e-17
6695.99886 1.26053e-17
6697.50216 1.27774e-17
6698.99544 1.29022e-17
6700.49874 1.27826e-17
6702.00204 1.25912e-17
6703.49532 1.26321e-17
6704.99862 1.25123e-17
6706.50192 1.24662e-17
6707.99519 1.25459e-17
6709.49849 1.24125e-17
6711.00179 1.22489e-17
6712.49507 1.23133e-17
6713.99837 1.24042e-17
6715.50167 1.24167e-17
6716.99495 1.23188e-17
6718.49825 1.21265e-17
6720.00155 1.19715e-17
6721.50485 1.21210e-17
6722.99813 1.23547e-17
6724.50143 1.23036e-17
6726.00473 1.22303e-17
6727.49801 1.21417e-17
6729.00131 1.23703e-17
6730.50461 1.24909e-17
6731.99788 1.21435e-17
6733.50118 1.19624e-17
6735.00448 1.20555e-17
6736.49776 1.20744e-17
6738.00106 1.19919e-17
6739.50436 1.20002e-17
6740.99764 1.20054e-17
6742.50094 1.19696e-17
6744.00424 1.18390e-17
6745.49752 1.17596e-17
6747.00082 1.19592e-17
6748.50412 1.20874e-17
6749.99740 1.19317e-17
6751.50070 1.19901e-17
6753.00400 1.19820e-17
6754.49727 1.18606e-17
6756.00057 1.18811e-17
6757.50387 1.18160e-17
6758.99715 1.18568e-17
6760.50045 1.19129e-17
6762.00375 1.18979e-17
6763.49703 1.18101e-17
6765.00033 1.16445e-17
6766.50363 1.18044e-17
6767.99691 1.20597e-17
6769.50021 1.18372e-17
6771.00351 1.17098e-17
6772.49679 1.18701e-17
6774.00009 1.19429e-17
6775.50339 1.15744e-17
6776.99666 1.15359e-17
6778.49996 1.16586e-17
6780.00326 1.13668e-17
6781.49654 1.17395e-17
6782.99984 1.16450e-17
6784.50314 1.14381e-17
6785.99642 1.13977e-17
6787.49972 1.15394e-17
6789.00302 1.15313e-17
6790.49630 1.13948e-17
6791.99960 1.12734e-17
6793.50290 1.13523e-17
6794.99618 1.13885e-17
6796.49948 1.12651e-17
6798.00278 1.12211e-17
6799.49605 1.14593e-17
6800.99935 1.12033e-17
6802.50265 1.11790e-17
6803.99593 1.12537e-17
6805.49923 1.10691e-17
6807.00253 1.10147e-17
6808.49581 1.09694e-17
6809.99911 1.10358e-17
6811.50241 1.11749e-17
6812.99569 1.11799e-17
6814.49899 1.12241e-17
6816.00229 1.12680e-17
6817.49557 1.11325e-17
6818.99887 1.10901e-17
6820.50217 1.10003e-17
6821.99544 1.05808e-17
6823.49874 1.08776e-17
6825.00204 1.11533e-17
6826.49532 1.06802e-17
6827.99862 1.05552e-17
6829.50192 1.06095e-17
6830.99520 1.05607e-17
6832.49850 1.07004e-17
6834.00180 1.08896e-17
6835.49508 1.10130e-17
6836.99838 1.08592e-17
6838.50168 1.06899e-17
6839.99496 1.07928e-17
6841.49826 1.08184e-17
6843.00156 1.06362e-17
6844.50486 1.07753e-17
6845.99813 1.07934e-17
6847.50143 1.08115e-17
6849.00473 1.08296e-17
6850.49801 1.08478e-17
6852.00131 1.08659e-17
6853.50461 1.08840e-17
6854.99789 1.09021e-17
6856.50119 1.09202e-17
6858.00449 1.09383e-17
6859.49777 1.09564e-17
6861.00107 1.09745e-17
6862.50437 1.09926e-17
6863.99765 1.10107e-17
6865.50095 1.10288e-17
6867.00425 1.10469e-17
6868.49752 1.10650e-17
6870.00082 1.10831e-17
6871.50412 1.11012e-17
6872.99740 1.11192e-17
6874.50070 1.11373e-17
6876.00400 1.11554e-17
6877.49728 1.11735e-17
6879.00058 1.11916e-17
6880.50388 1.12097e-17
6881.99716 1.12277e-17
6883.50046 1.12458e-17
6885.00376 1.12639e-17
6886.49704 1.12820e-17
6888.00034 1.13000e-17
6889.50364 1.13181e-17
6890.99691 1.13362e-17
6892.50021 1.13542e-17
6894.00351 1.13723e-17
6895.49679 1.13904e-17
6897.00009 1.14084e-17
6898.50339 1.14265e-17
6899.99667 1.14446e-17
6901.49997 1.14626e-17
6903.00327 1.14807e-17
6904.49655 1.14987e-17
6905.99985 1.15168e-17
6907.50315 1.15348e-17
6908.99643 1.15529e-17
6910.49973 1.15709e-17
6912.00303 1.15890e-17
6913.49630 1.16070e-17
6914.99960 1.16251e-17
6916.50290 1.16431e-17
6917.99618 1.16611e-17
6919.49948 1.16792e-17
6921.00278 1.16972e-17
6922.49606 1.17153e-17
6923.99936 1.17333e-17
6925.50266 1.17513e-17
6926.99594 1.17694e-17
6928.49924 1.17874e-17
6930.00254 1.18054e-17
6931.49582 1.18234e-17
6932.99912 1.18415e-17
6934.50242 1.18595e-17
6935.99569 1.18775e-17
6937.49899 1.16187e-17
6939.00229 1.15936e-17
6940.49557 1.16862e-17
6941.99887 1.14027e-17
6943.50217 1.12354e-17
6944.99545 1.13650e-17
6946.49875 1.13720e-17
6948.00205 1.13897e-17
6949.49533 1.14927e-17
6950.99863 1.12297e-17
6952.50193 1.10376e-17
6953.99521 1.10245e-17
6955.49851 1.10053e-17
6957.00181 1.12794e-17
6958.50511 1.14029e-17
6959.99838 1.12435e-17
6961.50168 1.13022e-17
6962.99496 1.13112e-17
6964.49826 1.14115e-17
6966.00156 1.15289e-17
6967.50486 1.14199e-17
6968.99814 1.13991e-17
6970.50144 1.13967e-17
6972.00474 1.13500e-17
6973.49802 1.13323e-17
6975.00132 1.14044e-17
6976.50462 1.13242e-17
6977.99790 1.12172e-17
6979.50120 1.12581e-17
6981.00450 1.12368e-17
6982.49777 1.12288e-17
6984.00107 1.12997e-17
6985.50437 1.15124e-17
6986.99765 1.13460e-17
6988.50095 1.13136e-17
6990.00425 1.12992e-17
6991.49753 1.11052e-17
6993.00083 1.10331e-17
6994.50413 1.14544e-17
6995.99741 1.13678e-17
6997.50071 1.12117e-17
6999.00401 1.14456e-17
7000.49729 1.11207e-17
7002.00059 1.11025e-17
7003.50389 1.11814e-17
7004.99716 1.10145e-17
7006.50046 1.11237e-17
7008.00376 1.12199e-17
7009.49704 1.13777e-17
7011.00034 1.11607e-17
7012.50364 1.11108e-17
7013.99692 1.12215e-17
7015.50022 1.12721e-17
7017.00352 1.11531e-17
7018.49680 1.12049e-17
7020.00010 1.14057e-17
7021.50340 1.13959e-17
7022.99668 1.13900e-17
7024.49998 1.12507e-17
7026.00328 1.13855e-17
7027.49655 1.12584e-17
7028.99985 1.10108e-17
7030.50315 1.10024e-17
7031.99643 1.10128e-17
7033.49973 1.10735e-17
7035.00303 1.10870e-17
7036.49631 1.10541e-17
7037.99961 1.11542e-17
7039.50291 1.12575e-17
7040.99619 1.12840e-17
7042.49949 1.14109e-17
7044.00279 1.15348e-17
7045.49607 1.15499e-17
7046.99937 1.14063e-17
7048.50267 1.13081e-17
7049.99594 1.14565e-17
7051.49924 1.16387e-17
7053.00254 1.14167e-17
7054.49582 1.13746e-17
7055.99912 1.13711e-17
7057.50242 1.14185e-17
7058.99570 1.15022e-17
7060.49900 1.10987e-17
7062.00230 1.11603e-17
7063.49558 1.14383e-17
7064.99888 1.13173e-17
7066.50218 1.16137e-17
7067.99546 1.17278e-17
7069.49876 1.15890e-17
7071.00206 1.15878e-17
7072.49533 1.13997e-17
7073.99863 1.15089e-17
7075.50193 1.13577e-17
7076.99521 1.15259e-17
7078.49851 1.12738e-17
7080.00181 1.12263e-17
7081.50511 1.14145e-17
7082.99839 1.14292e-17
7084.50169 1.15535e-17
7085.99497 1.16639e-17
7087.49827 1.16796e-17
7089.00157 1.17205e-17
7090.50487 1.15860e-17
7091.99815 1.13399e-17
7093.50145 1.12554e-17
7095.00475 1.12084e-17
7096.49802 1.14514e-17
7098.00132 1.15097e-17
7099.50462 1.13162e-17
7100.99790 1.15149e-17
7102.50120 1.17169e-17
7104.00450 1.17283e-17
7105.49778 1.15958e-17
7107.00108 1.17817e-17
7108.50438 1.17328e-17
7109.99766 1.15523e-17
7111.50096 1.15144e-17
7113.00426 1.14482e-17
7114.49754 1.14683e-17
7116.00084 1.15181e-17
7117.50414 1.15270e-17
7118.99741 1.17212e-17
7120.50071 1.17733e-17
7122.00401 1.19186e-17
7123.49729 1.19024e-17
7125.00059 1.17376e-17
7126.50389 1.17429e-17
7127.99717 1.18310e-17
7129.50047 1.17691e-17
7131.00377 1.15516e-17
7132.49705 1.16210e-17
7134.00035 1.22341e-17
7135.50365 1.20408e-17
7136.99693 1.17075e-17
7138.50023 1.22413e-17
7140.00353 1.17716e-17
7141.49680 1.17908e-17
7143.00010 1.15485e-17
7144.50340 1.20797e-17
7145.99668 1.21117e-17
7147.49998 1.18776e-17
7149.00328 1.17482e-17
7150.49656 1.16909e-17
7151.99986 1.17930e-17
7153.50316 1.19467e-17
7154.99644 1.21022e-17
7156.49974 1.20960e-17
7158.00304 1.22070e-17
7159.49632 1.22516e-17
7160.99962 1.21440e-17
7162.50292 1.23658e-17
7163.99619 1.22461e-17
7165.49949 1.20646e-17
7167.00279 1.17814e-17
7168.49607 1.17276e-17
7169.99937 1.18819e-17
7171.50267 1.18931e-17
7172.99595 1.17783e-17
7174.49925 1.18694e-17
7176.00255 1.18629e-17
7177.49583 1.19069e-17
7178.99913 1.19509e-17
7180.50243 1.19949e-17
7181.99571 1.20389e-17
7183.49901 1.20383e-17
7185.00231 1.20300e-17
7186.49558 1.20445e-17
7187.99888 1.20875e-17
7189.50218 1.25649e-17
7190.99546 1.24945e-17
7192.49876 1.20192e-17
7194.00206 1.18675e-17
7195.49534 1.21504e-17
7196.99864 1.20901e-17
7198.50194 1.21120e-17
7199.99522 1.26440e-17
7201.49852 1.27759e-17
7203.00182 1.24566e-17
7204.50512 1.24658e-17
7205.99840 1.27582e-17
7207.50170 1.30538e-17
7208.99497 1.31575e-17
7210.49827 1.27606e-17
7212.00157 1.28897e-17
7213.50487 1.29134e-17
7214.99815 1.29238e-17
7216.50145 1.29210e-17
7218.00475 1.30311e-17
7219.49803 1.29383e-17
7221.00133 1.31854e-17
7222.50463 1.29196e-17
7223.99791 1.26369e-17
7225.50121 1.27639e-17
7227.00451 1.31113e-17
7228.49779 1.31450e-17
7230.00109 1.26543e-17
7231.50439 1.26285e-17
7232.99766 1.28237e-17
7234.50096 1.29159e-17
7236.00426 1.28420e-17
7237.49754 1.27959e-17
7239.00084 1.30079e-17
7240.50414 1.28032e-17
7241.99742 1.23799e-17
7243.50072 1.23712e-17
7245.00402 1.26574e-17
7246.49730 1.26968e-17
7248.00060 1.25193e-17
7249.50390 1.25159e-17
7250.99718 1.28180e-17
7252.50048 1.28077e-17
7254.00378 1.24328e-17
7255.49705 1.25500e-17
7257.00035 1.28867e-17
7258.50365 1.27150e-17
7259.99693 1.24892e-17
7261.50023 1.29441e-17
7263.00353 1.33829e-17
7264.49681 1.32354e-17
7266.00011 1.31804e-17
7267.50341 1.32721e-17
7268.99669 1.29470e-17
7270.49999 1.26256e-17
7272.00329 1.27688e-17
7273.49657 1.29551e-17
7274.99987 1.27979e-17
7276.50317 1.25881e-17
7277.99644 1.26848e-17
7279.49974 1.29527e-17
7281.00304 1.26952e-17
7282.49632 1.24330e-17
7283.99962 1.23979e-17
7285.50292 1.26454e-17
7286.99620 1.24376e-17
7288.49950 1.23353e-17
7290.00280 1.25327e-17
7291.49608 1.24805e-17
7292.99938 1.26929e-17
7294.50268 1.28591e-17
7295.99596 1.27964e-17
7297.49926 1.26472e-17
7299.00256 1.25489e-17
7300.49583 1.25055e-17
7301.99913 1.23871e-17
7303.50243 1.21895e-17
7304.99571 1.21394e-17
7306.49901 1.21747e-17
7308.00231 1.20533e-17
7309.49559 1.20940e-17
7310.99889 1.25434e-17
7312.50219 1.23955e-17
7313.99547 1.20624e-17
7315.49877 1.19160e-17
7317.00207 1.19786e-17
7318.49535 1.22440e-17
7319.99865 1.25118e-17
7321.50195 1.24354e-17
7322.99522 1.21380e-17
7324.49852 1.19931e-17
7326.00182 1.21221e-17
7327.50512 1.21941e-17
7328.99840 1.20767e-17
7330.50170 1.21150e-17
7331.99498 1.18954e-17
7333.49828 1.16717e-17
7335.00158 1.19495e-17
7336.50488 1.18580e-17
7337.99816 1.18000e-17
7339.50146 1.15858e-17
7341.00476 1.15213e-17
7342.49804 1.15507e-17
7344.00134 1.13524e-17
7345.50464 1.12317e-17
7346.99791 1.14312e-17
7348.50121 1.16309e-17
7350.00451 1.14749e-17
7351.49779 1.12939e-17
7353.00109 1.11459e-17
7354.50439 1.12687e-17
7355.99767 1.17861e-17
7357.50097 1.11039e-17
7359.00427 1.09457e-17
7360.49755 1.11820e-17
7362.00085 1.11793e-17
7363.50415 1.11925e-17
7364.99743 1.09363e-17
7366.50073 1.07975e-17
7368.00403 1.07677e-17
7369.49730 1.10108e-17
7371.00060 1.08080e-17
7372.50390 1.07505e-17
7373.99718 1.09210e-17
7375.50048 1.08564e-17
7377.00378 1.05212e-17
7378.49706 1.04003e-17
7380.00036 1.04787e-17
7381.50366 1.03794e-17
7382.99694 1.03978e-17
7384.50024 1.05119e-17
7386.00354 1.05147e-17
7387.49682 1.04058e-17
7389.00012 1.02607e-17
7390.50342 1.02422e-17
7391.99669 1.01364e-17
7393.49999 1.01260e-17
7395.00329 1.01305e-17
7396.49657 1.00146e-17
7397.99987 1.00016e-17
7399.50317 1.01328e-17
7400.99645 1.01048e-17
7402.49975 9.97544e-18
7404.00305 9.82714e-18
7405.49633 9.67274e-18
7406.99963 9.52886e-18
7408.50293 9.42253e-18
7409.99621 9.07385e-18
7411.49951 9.01510e-18
7413.00281 9.25459e-18
7414.49608 9.19203e-18
7415.99938 9.08677e-18
7417.50268 9.04385e-18
7418.99596 8.92383e-18
7420.49926 8.89050e-18
7422.00256 8.75483e-18
7423.49584 8.59790e-18
7424.99914 8.58231e-18
7426.50244 8.49567e-18
7427.99572 8.31766e-18
7429.49902 8.39437e-18
7431.00232 8.30301e-18
7432.49560 8.32755e-18
7433.99890 8.48497e-18
7435.50220 8.28807e-18
7436.99547 8.28212e-18
7438.49877 8.14971e-18
7440.00207 7.96613e-18
7441.49535 7.97234e-18
7442.99865 7.89035e-18
7444.50195 7.78518e-18
7445.99523 7.85369e-18
7447.49853 7.73232e-18
7449.00183 7.63867e-18
7450.50513 7.66066e-18
7451.99841 7.72012e-18
7453.50171 7.59824e-18
7454.99499 7.55663e-18
7456.49829 7.59198e-18
7458.00159 7.39271e-18
7459.49486 7.15978e-18
7460.99816 7.12888e-18
7462.50146 7.19473e-18
7464.00476 7.31861e-18
7465.49804 7.30816e-18
7467.00134 7.19316e-18
7468.50464 7.37088e-18
7469.99792 7.44646e-18
7471.50122 7.06356e-18
7473.00452 6.77760e-18
7474.49780 6.66345e-18
7476.00110 6.65711e-18
7477.50440 6.49089e-18
7478.99768 6.52524e-18
7480.50098 6.76549e-18
7482.00428 6.93024e-18
7483.49755 6.94363e-18
7485.00085 6.68508e-18
7486.50415 6.51951e-18
7487.99743 6.49862e-18
7489.50073 6.54927e-18
7491.00403 6.44113e-18
7492.49731 6.58242e-18
7494.00061 6.48701e-18
7495.50391 6.52042e-18
7496.99719 6.58668e-18
7498.50049 6.26049e-18
7500.00379 6.10015e-18
7501.49707 6.17028e-18
7503.00037 6.15929e-18
7504.50367 6.14080e-18
7505.99694 6.24993e-18
7507.50024 5.98732e-18
7509.00354 6.11987e-18
7510.49682 6.24652e-18
7512.00012 6.13695e-18
7513.50342 6.07163e-18
7514.99670 5.85912e-18
7516.50000 5.68939e-18
7518.00330 5.86678e-18
7519.49658 6.02091e-18
7520.99988 5.80678e-18
7522.50318 5.71086e-18
7523.99646 5.55148e-18
7525.49976 5.69570e-18
7527.00306 5.82377e-18
7528.49633 5.62608e-18
7529.99963 5.39792e-18
7531.50293 5.27371e-18
7532.99621 5.27547e-18
7534.49951 5.37157e-18
7536.00281 5.39245e-18
7537.49609 5.14320e-18
7538.99939 5.04590e-18
7540.50269 5.16041e-18
7540.82765 5.16041e-18
7541.68911 5.12671e-18
7542.55058 5.09754e-18
7543.41204 5.06837e-18
7544.27350 5.04298e-18
7545.13496 5.01760e-18
7545.99642 4.99206e-18
7546.86790 4.96650e-18
7547.72936 4.93585e-18
7548.59083 4.90518e-18
7549.45229 4.86940e-18
7550.31375 4.83360e-18
7551.17521 4.79515e-18
7552.03667 4.75669e-18
7552.89814 4.71827e-18
7553.75960 4.67986e-18
7554.62106 4.64443e-18
7555.48252 4.60902e-18
7556.35400 4.57723e-18
7557.21546 4.54545e-18
7558.07693 4.51536e-18
7558.93839 4.48528e-18
7559.79985 4.45522e-18
7560.66131 4.42516e-18
7561.52277 4.39429e-18
7562.38424 4.36343e-18
7563.24570 4.33041e-18
7564.10716 4.29739e-18
7564.96862 4.25925e-18
7565.84010 4.22111e-18
7566.70156 4.17783e-18
7567.56302 4.13454e-18
7568.42449 4.09441e-18
7569.28595 4.05430e-18
7570.14741 4.02424e-18
7571.00887 3.99420e-18
7571.87033 3.97523e-18
7572.73180 3.95627e-18
7573.59326 3.94725e-18
7574.45472 3.93826e-18
7575.31618 3.92665e-18
7576.18766 3.91504e-18
7577.04912 3.88704e-18
7577.91059 3.85901e-18
7578.77205 3.82217e-18
7579.63351 3.78531e-18
7580.49497 3.75168e-18
7581.35643 3.71806e-18
7582.21790 3.68573e-18
7583.07936 3.65342e-18
7583.94082 3.61678e-18
7584.81230 3.58014e-18
7585.67376 3.51890e-18
7586.53522 3.45760e-18
7587.39668 3.34358e-18
7588.25815 3.22945e-18
7589.11961 3.06822e-18
7589.98107 2.90690e-18
7590.84253 2.73207e-18
7591.70399 2.55723e-18
7592.56546 2.40081e-18
7593.42692 2.24444e-18
7594.28838 2.13642e-18
7595.15986 2.02850e-18
7596.02132 1.98384e-18
7596.88278 1.93931e-18
7597.74425 1.94353e-18
7598.60571 1.94785e-18
7599.46717 1.99049e-18
7600.32863 2.03320e-18
7601.19009 2.12219e-18
7602.05156 2.21125e-18
7602.91302 2.34679e-18
7603.77448 2.48242e-18
7604.64596 2.64699e-18
7605.50742 2.81161e-18
7606.36888 2.98429e-18
7607.23034 3.15698e-18
7608.09181 3.31648e-18
7608.95327 3.47596e-18
7609.81473 3.60105e-18
7610.67619 3.72606e-18
7611.53765 3.78696e-18
7612.39912 3.84773e-18
7613.26058 3.82054e-18
7614.13206 3.79317e-18
7614.99352 3.67918e-18
7615.85498 3.56503e-18
7616.71644 3.37770e-18
7617.57791 3.19023e-18
7618.43937 2.98550e-18
7619.30083 2.78074e-18
7620.16229 2.63397e-18
7621.02375 2.48732e-18
7621.88522 2.42704e-18
7622.74668 2.36693e-18
7623.61816 2.38715e-18
7624.47962 2.40753e-18
7625.34108 2.48237e-18
7626.20254 2.55732e-18
7627.06400 2.63923e-18
7627.92547 2.72115e-18
7628.78693 2.78369e-18
7629.64839 2.84619e-18
7630.50985 2.89935e-18
7631.37131 2.95249e-18
7632.23278 3.00276e-18
7633.10426 3.05302e-18
7633.96572 3.10014e-18
7634.82718 3.14726e-18
7635.68864 3.19123e-18
7636.55010 3.23520e-18
7637.41157 3.26737e-18
7638.27303 3.29952e-18
7639.13449 3.31551e-18
7639.99595 3.33147e-18
7640.85741 3.34648e-18
7641.71888 3.36149e-18
7642.59035 3.39059e-18
7643.45182 3.41972e-18
7644.31328 3.46935e-18
7645.17474 3.51901e-18
7646.03620 3.59190e-18
7646.89766 3.66483e-18
7647.75913 3.74131e-18
7648.62059 3.81779e-18
7649.48205 3.87306e-18
7650.34351 3.92828e-18
7651.20497 3.95706e-18
7652.06644 3.98579e-18
7652.93792 3.99084e-18
7653.79938 3.99584e-18
7654.66084 3.99617e-18
7655.52230 3.99650e-18
7656.38376 4.02150e-18
7657.24523 4.04655e-18
7658.10669 4.10095e-18
7658.96815 4.15542e-18
7659.82961 4.22311e-18
7660.69107 4.29082e-18
7661.55254 4.35809e-18
7662.42401 4.42535e-18
7663.28548 4.47976e-18
7664.14694 4.53415e-18
7665.00840 4.57497e-18
7665.86986 4.61576e-18
7666.73132 4.66656e-18
7667.59279 4.71737e-18
7668.45425 4.78908e-18
7669.31571 4.86082e-18
7670.17717 4.93110e-18
7671.03863 5.00137e-18
7671.91011 5.05219e-18
7672.77158 5.10297e-18
7673.63304 5.13104e-18
7674.49450 5.15902e-18
7675.35596 5.16559e-18
7676.21742 5.17211e-18
7677.07889 5.18376e-18
7677.94035 5.19535e-18
7678.80181 5.23861e-18
7679.66327 5.28197e-18
7680.52473 5.34120e-18
7681.38620 5.40044e-18
7682.25767 5.45087e-18
7683.11914 5.50134e-18
7683.98060 5.54291e-18
7684.84206 5.58447e-18
7685.70352 5.62414e-18
7686.56498 5.66382e-18
7687.42645 5.70324e-18
7688.28791 5.74262e-18
7689.14937 5.78234e-18
7690.01083 5.82206e-18
7690.88231 5.85830e-18
7691.74377 5.89454e-18
7692.60524 5.91963e-18
7693.46670 5.94477e-18
7694.32816 5.96060e-18
7695.18962 5.97642e-18
7696.05108 5.99469e-18
7696.91255 6.01296e-18
7697.77401 6.03810e-18
7698.63547 6.06319e-18
7699.49693 6.08922e-18
7700.35839 6.11521e-18
7701.22987 6.13716e-18
7702.09133 6.15911e-18
7702.95280 6.17404e-18
7703.81426 6.18888e-18
7704.67572 6.19470e-18
7705.53718 6.20043e-18
7706.39864 6.19754e-18
7707.26011 6.19460e-18
7708.12157 6.18559e-18
7708.98303 6.17658e-18
7709.84449 6.17190e-18
7710.71597 6.16727e-18
7711.57743 6.17628e-18
7712.43890 6.18534e-18
7713.30036 6.20580e-18
7714.16182 6.22631e-18
7715.02328 6.25314e-18
7715.88474 6.27997e-18
7716.74620 6.30491e-18
7717.60767 6.32990e-18
7718.46913 6.34404e-18
7719.33059 6.35822e-18
7720.20207 6.36096e-18
7721.06353 6.36370e-18
7721.92499 6.35827e-18
7722.78646 6.35285e-18
7723.64792 6.34483e-18
7724.50938 6.33682e-18
7725.37084 6.33368e-18
7726.23230 6.33050e-18
7727.09377 6.33463e-18
7727.95523 6.33881e-18
7728.81669 6.34777e-18
7729.67815 6.35678e-18
7730.54963 6.37007e-18
7731.41109 6.38341e-18
7732.27255 6.40382e-18
7733.13402 6.42418e-18
7733.99548 6.44842e-18
7734.85694 6.47261e-18
7735.71840 6.48760e-18
7736.57986 6.50253e-18
7737.44133 6.50079e-18
7738.30279 6.49905e-18
7739.17427 6.48595e-18
7740.03573 6.47286e-18
7740.89719 6.45539e-18
7741.75865 6.43792e-18
7742.62012 6.42647e-18
7743.48158 6.41502e-18
7744.34304 6.41806e-18
7745.20450 6.42109e-18
7746.06596 6.43289e-18
7746.92743 6.44469e-18
7747.78889 6.45733e-18
7748.65035 6.46998e-18
7749.52183 6.48068e-18
7750.38329 6.49133e-18
7751.24475 6.49800e-18
7752.10621 6.50467e-18
7752.96768 6.50736e-18
7753.82914 6.51000e-18
7754.69060 6.51015e-18
7755.55206 6.51025e-18
7756.41352 6.50607e-18
7757.27499 6.50183e-18
7758.13645 6.48979e-18
7759.00793 6.47779e-18
7759.86939 6.46141e-18
7760.73085 6.44499e-18
7761.59231 6.43249e-18
7762.45378 6.42000e-18
7763.31524 6.41338e-18
7764.17670 6.40671e-18
7765.03816 6.40163e-18
7765.89962 6.39655e-18
7766.76109 6.38968e-18
7767.62255 6.38281e-18
7768.49403 6.37166e-18
7769.35549 6.36046e-18
7770.21695 6.34483e-18
7771.07841 6.32915e-18
7771.93988 6.31432e-18
7772.80134 6.29954e-18
7773.66280 6.28948e-18
7774.52426 6.27942e-18
7775.38572 6.27206e-18
7776.24719 6.26474e-18
7777.10865 6.25847e-18
7777.98013 6.25225e-18
7778.84159 6.24801e-18
7779.70305 6.24378e-18
7780.56451 6.24244e-18
7781.42597 6.24110e-18
7782.28744 6.24239e-18
7783.14890 6.24368e-18
7784.01036 6.24707e-18
7784.87182 6.25045e-18
7785.73328 6.25548e-18
7786.59475 6.26051e-18
7787.46623 6.26658e-18
7788.32769 6.27270e-18
7789.18915 6.27813e-18
7790.05061 6.28351e-18
7790.91207 6.28624e-18
7791.77354 6.28893e-18
7792.63500 6.28794e-18
7793.49646 6.28694e-18
7794.35792 6.28191e-18
7795.21938 6.27684e-18
7796.08085 6.27012e-18
7796.94231 6.26340e-18
7797.81379 6.25926e-18
7798.67525 6.25518e-18
7799.53671 6.25692e-18
7800.39817 6.25872e-18
7801.25963 6.26847e-18
7802.12110 6.27828e-18
7802.98256 6.29441e-18
7803.84402 6.31059e-18
7804.70548 6.32492e-18
7805.56694 6.33931e-18
7806.42841 6.34598e-18
7807.29989 6.35265e-18
7808.16135 6.35230e-18
7809.02281 6.35195e-18
7809.88427 6.34573e-18
7810.74573 6.33946e-18
7811.60720 6.32861e-18
7812.46866 6.31770e-18
7813.33012 6.30416e-18
7814.19158 6.29062e-18
7815.05304 6.27689e-18
7815.91450 6.26315e-18
7816.78598 6.25150e-18
7817.64745 6.23985e-18
7818.50891 6.23308e-18
7819.37037 6.22631e-18
7820.23183 6.22661e-18
7821.09329 6.22696e-18
7821.95476 6.22930e-18
7822.81622 6.23169e-18
7823.67768 6.22850e-18
7824.53914 6.22532e-18
7825.40060 6.21566e-18
7826.27208 6.20595e-18
7827.13355 6.19211e-18
7827.99501 6.17833e-18
7828.85647 6.16225e-18
7829.71793 6.14622e-18
7830.57939 6.12989e-18
7831.44085 6.11356e-18
7832.30232 6.09823e-18
7833.16378 6.08290e-18
7834.02524 6.06856e-18
7834.88670 6.05423e-18
7835.75818 6.04223e-18
7836.61964 6.03023e-18
7837.48111 6.02431e-18
7838.34257 6.01839e-18
7839.20403 6.01953e-18
7840.06549 6.02063e-18
7840.92695 6.02461e-18
7841.78842 6.02859e-18
7842.64988 6.03178e-18
7843.51134 6.03496e-18
7844.37280 6.03566e-18
7845.23426 6.03641e-18
7846.10574 6.03367e-18
7846.96720 6.03098e-18
7847.82867 6.02620e-18
7848.69013 6.02142e-18
7849.55159 6.01630e-18
7850.41305 6.01117e-18
7851.27452 6.00679e-18
7852.13598 6.00236e-18
7852.99744 5.99942e-18
7853.85890 5.99649e-18
7854.72036 5.99559e-18
7855.59184 5.99469e-18
7856.45330 5.99614e-18
7857.31477 5.99763e-18
7858.17623 5.99917e-18
7859.03769 6.00072e-18
7859.89915 5.99873e-18
7860.76061 5.99673e-18
7861.62208 5.99146e-18
7862.48354 5.98618e-18
7863.34500 5.98056e-18
7864.20646 5.97493e-18
7865.07794 5.96741e-18
7865.93940 5.95995e-18
7866.80087 5.94561e-18
7867.66233 5.93133e-18
7868.52379 5.90967e-18
7869.38525 5.88807e-18
7870.24671 5.86323e-18
7871.10818 5.83834e-18
7871.96964 5.81604e-18
7872.83110 5.79369e-18
7873.69256 5.78324e-18
7874.56404 5.77288e-18
7875.42550 5.77801e-18
7876.28696 5.78319e-18
7877.14843 5.79334e-18
7878.00989 5.80350e-18
7878.87135 5.80892e-18
7879.73281 5.81440e-18
7880.59427 5.81216e-18
7881.45574 5.80992e-18
7882.31720 5.79842e-18
7883.17866 5.78687e-18
7884.05014 5.77014e-18
7884.91160 5.75342e-18
7885.77306 5.73654e-18
7886.63453 5.71972e-18
7887.49599 5.70235e-18
7888.35745 5.68492e-18
7889.21891 5.66581e-18
7890.08037 5.64669e-18
7890.94184 5.62688e-18
7891.80330 5.60712e-18
7892.66476 5.58786e-18
7893.52622 5.56864e-18
7894.39770 5.55495e-18
7895.25916 5.54126e-18
7896.12062 5.54007e-18
7896.98209 5.53882e-18
7897.84355 5.54614e-18
7898.70501 5.55341e-18
7899.56647 5.55769e-18
7900.42793 5.56197e-18
7901.28940 5.55819e-18
7902.15086 5.55440e-18
7903.01232 5.54380e-18
7903.88380 5.53315e-18
7904.74526 5.51896e-18
7905.60672 5.50483e-18
7906.46819 5.49447e-18
7907.32965 5.48417e-18
7908.19111 5.48058e-18
7909.05257 5.47700e-18
7909.91403 5.47187e-18
7910.77550 5.46675e-18
7911.63696 5.45515e-18
7912.49842 5.44355e-18
7913.36990 5.43140e-18
7914.23136 5.41921e-18
7915.09282 5.41144e-18
7915.95428 5.40368e-18
7916.81575 5.40064e-18
7917.67721 5.39760e-18
7918.53867 5.39865e-18
7919.40013 5.39969e-18
7920.26159 5.39750e-18
7921.12306 5.39536e-18
7921.98452 5.38262e-18
7922.85600 5.36983e-18
7923.71746 5.35101e-18
7924.57892 5.33219e-18
7925.44038 5.31522e-18
7926.30185 5.29820e-18
7927.16331 5.28764e-18
7928.02477 5.27709e-18
7928.88623 5.27604e-18
7929.74769 5.27505e-18
7930.60916 5.28162e-18
7931.47062 5.28819e-18
7932.34210 5.29695e-18
7933.20356 5.30576e-18
7934.06502 5.31208e-18
7934.92648 5.31841e-18
7935.78794 5.31841e-18
7936.64941 5.31846e-18
7937.51087 5.31019e-18
7938.37233 5.30188e-18
7939.23379 5.28575e-18
7940.09525 5.26957e-18
7940.95672 5.24792e-18
7941.81818 5.22627e-18
7942.68966 5.20451e-18
7943.55112 5.18276e-18
7944.41258 5.16514e-18
7945.27404 5.14752e-18
7946.13551 5.13477e-18
7946.99697 5.12203e-18
7947.85843 5.11412e-18
7948.71989 5.10615e-18
7949.58135 5.10157e-18
7950.44282 5.09699e-18
7951.30428 5.09371e-18
7952.17576 5.09042e-18
7953.03722 5.08405e-18
7953.89868 5.07768e-18
7954.76014 5.06444e-18
7955.62160 5.05120e-18
7956.48307 5.03661e-18
7957.34453 5.02198e-18
7958.20599 5.01322e-18
7959.06745 5.00450e-18
7959.92891 5.00212e-18
7960.79038 4.99973e-18
7961.66186 5.00216e-18
7962.52332 5.00455e-18
7963.38478 5.00799e-18
7964.24624 5.01142e-18
7965.10770 5.01038e-18
7965.96917 5.00928e-18
7966.83063 5.00689e-18
7967.69209 5.00445e-18
7968.55355 5.00978e-18
7969.41501 5.01516e-18
7970.27648 5.03034e-18
7971.14795 5.04557e-18
7972.00942 5.06603e-18
7972.87088 5.08649e-18
7973.73234 5.10605e-18
7974.59380 5.12566e-18
7975.45526 5.13542e-18
7976.31673 5.14518e-18
7977.17819 5.14130e-18
7978.03965 5.13741e-18
7978.90111 5.12721e-18
7979.76257 5.11700e-18
7980.63405 5.10685e-18
7981.49552 5.09674e-18
7982.35698 5.08823e-18
7983.21844 5.07972e-18
7984.07990 5.07385e-18
7984.94136 5.06797e-18
7985.80283 5.06260e-18
7986.66429 5.05727e-18
7987.52575 5.05015e-18
7988.38721 5.04298e-18
7989.24867 5.03502e-18
7990.11014 5.02705e-18
7990.98161 5.01944e-18
7991.84308 5.01182e-18
7992.70454 5.00689e-18
7993.56600 5.00197e-18
7994.42746 5.00241e-18
7995.28892 5.00291e-18
7996.15039 5.00341e-18
7997.01185 5.00391e-18
7997.87331 4.99594e-18
7998.73477 4.98798e-18
7999.59623 4.97258e-18
8000.46771 4.95719e-18
8001.32917 4.94080e-18
8002.19064 4.92441e-18
8003.05210 4.91188e-18
8003.91356 4.89937e-18
8004.77502 4.89485e-18
8005.63649 4.89036e-18
8006.49795 4.89280e-18
8007.35941 4.89525e-18
8008.22087 4.89615e-18
8009.08233 4.89705e-18
8009.95381 4.89366e-18
8010.81527 4.89026e-18
8011.67674 4.89068e-18
8012.53820 4.89110e-18
8013.39966 4.89927e-18
8014.26112 4.90746e-18
8015.12258 4.91768e-18
8015.98405 4.92790e-18
8016.84551 4.93472e-18
8017.70697 4.94153e-18
8018.56843 4.93941e-18
8019.43991 4.93729e-18
8020.30137 4.92285e-18
8021.16284 4.90840e-18
8022.02430 4.89079e-18
8022.88576 4.87317e-18
8023.74722 4.86250e-18
8024.60868 4.85185e-18
8025.47015 4.84781e-18
8026.33161 4.84380e-18
8027.19307 4.84371e-18
8028.05453 4.84362e-18
8028.92601 4.84415e-18
8029.78747 4.84468e-18
8030.64893 4.84196e-18
8031.51040 4.83924e-18
8032.37186 4.83367e-18
8033.23332 4.82810e-18
8034.09478 4.82236e-18
8034.95624 4.81663e-18
8035.81771 4.81247e-18
8036.67917 4.80830e-18
8037.54063 4.80674e-18
8038.41211 4.80518e-18
8039.27357 4.80660e-18
8040.13503 4.80802e-18
8040.99650 4.81196e-18
8041.85796 4.81590e-18
8042.71942 4.82106e-18
8043.58088 4.82621e-18
8044.44234 4.83026e-18
8045.30380 4.83431e-18
8046.16527 4.83551e-18
8047.02673 4.83670e-18
8047.88819 4.83423e-18
8048.75967 4.83176e-18
8049.62113 4.82606e-18
8050.48259 4.82035e-18
8051.34406 4.81564e-18
8052.20552 4.81092e-18
8053.06698 4.81032e-18
8053.92844 4.80974e-18
8054.78990 4.81088e-18
8055.65137 4.81203e-18
8056.51283 4.81190e-18
8057.37429 4.81176e-18
8058.24577 4.80677e-18
8059.10723 4.80176e-18
8059.96869 4.78885e-18
8060.83015 4.77592e-18
8061.69162 4.75758e-18
8062.55308 4.73922e-18
8063.41454 4.71967e-18
8064.27600 4.70013e-18
8065.13746 4.68418e-18
8065.99893 4.66824e-18
8066.86039 4.66060e-18
8067.73187 4.65298e-18
8068.59333 4.65392e-18
8069.45479 4.65487e-18
8070.31625 4.66186e-18
8071.17772 4.66886e-18
8072.03918 4.67689e-18
8072.90064 4.68493e-18
8073.76210 4.68685e-18
8074.62356 4.68875e-18
8075.48503 4.68192e-18
8076.34649 4.67506e-18
8077.21797 4.66289e-18
8078.07943 4.65070e-18
8078.94089 4.63532e-18
8079.80235 4.61993e-18
8080.66381 4.60094e-18
8081.52528 4.58194e-18
8082.38674 4.55964e-18
8083.24820 4.53732e-18
8084.10966 4.51265e-18
8084.97113 4.48797e-18
8085.83259 4.46203e-18
8086.70407 4.43609e-18
8087.56553 4.41053e-18
8088.42699 4.38498e-18
8089.28845 4.36135e-18
8090.14991 4.33773e-18
8091.01138 4.31742e-18
8091.87284 4.29712e-18
8092.73430 4.28087e-18
8093.59576 4.26463e-18
8094.45722 4.25213e-18
8095.31869 4.23965e-18
8096.18015 4.22990e-18
8097.05163 4.22016e-18
8097.91309 4.20772e-18
8098.77455 4.19529e-18
8099.63601 4.17374e-18
8100.49748 4.15217e-18
8101.35894 4.11946e-18
8102.22040 4.08673e-18
8103.08186 4.04329e-18
8103.94332 3.99982e-18
8104.80479 3.95089e-18
8105.67626 3.90196e-18
8106.53773 3.85610e-18
8107.39919 3.81024e-18
8108.26065 3.77275e-18
8109.12211 3.73528e-18
8109.98357 3.70798e-18
8110.84504 3.68070e-18
8111.70650 3.66118e-18
8112.56796 3.64168e-18
8113.42942 3.62159e-18
8114.29088 3.60150e-18
8115.15235 3.57407e-18
8116.02383 3.54663e-18
8116.88529 3.50900e-18
8117.74675 3.47134e-18
8118.60821 3.42296e-18
8119.46967 3.37455e-18
8120.33114 3.32239e-18
8121.19260 3.27023e-18
8122.05406 3.21989e-18
8122.91552 3.16955e-18
8123.77698 3.11479e-18
8124.63845 3.06003e-18
8125.49991 2.99508e-18
8126.37139 2.93011e-18
8127.23285 2.85807e-18
8128.09431 2.78602e-18
8128.95577 2.71144e-18
8129.81723 2.63685e-18
8130.67870 2.56846e-18
8131.54016 2.50009e-18
8132.40162 2.44728e-18
8133.26308 2.39451e-18
8134.12454 2.35224e-18
8134.99602 2.31000e-18
8135.85749 2.26697e-18
8136.71895 2.22394e-18
8137.58041 2.17587e-18
8138.44187 2.12779e-18
8139.30333 2.07452e-18
8140.16480 2.02123e-18
8141.02626 1.96411e-18
8141.88772 1.90699e-18
8142.74918 1.84921e-18
8143.61064 1.79143e-18
8144.47210 1.73614e-18
8145.34358 1.68085e-18
8146.20505 1.63057e-18
8147.06651 1.58029e-18
8147.92797 1.53678e-18
8148.78943 1.49330e-18
8149.65089 1.45712e-18
8150.51236 1.42097e-18
8151.37382 1.39124e-18
8152.23528 1.36153e-18
8153.09674 1.33432e-18
8153.95820 1.30712e-18
8154.82968 1.27927e-18
8155.69115 1.25141e-18
8156.55261 1.22322e-18
8157.41407 1.19502e-18
8158.27553 1.16743e-18
8159.13699 1.13986e-18
8159.99845 1.11524e-18
8160.85992 1.09063e-18
8161.72138 1.07129e-18
8162.58284 1.05195e-18
8163.44430 1.03858e-18
8164.31578 1.02522e-18
8165.17724 1.01769e-18
8166.03871 1.01017e-18
8166.90017 1.00491e-18
8167.76163 9.99656e-19
8168.62309 9.92309e-19
8169.48455 9.84962e-19
8170.34602 9.71905e-19
8171.20748 9.58838e-19
8172.06894 9.36632e-19
8172.93040 9.14401e-19
8173.80188 8.88910e-19
8174.66334 8.63413e-19
8175.52481 8.47310e-19
8176.38627 8.31232e-19
8177.24773 8.27334e-19
8178.10919 8.23466e-19
8178.97065 8.24432e-19
8179.83212 8.25408e-19
8180.69358 8.25642e-19
8181.55504 8.25876e-19
8182.41650 8.21859e-19
8183.28798 8.17836e-19
8184.14944 8.08289e-19
8185.01090 7.98732e-19
8185.87237 7.88393e-19
8186.73383 7.78049e-19
8187.59529 7.70308e-19
8188.45675 7.62568e-19
8189.31821 7.54807e-19
8190.17968 7.47042e-19
8191.04114 7.37430e-19
8191.90260 7.27808e-19
8192.77408 7.18574e-19
8193.63554 7.09340e-19
8194.49700 7.02749e-19
8195.35846 6.96164e-19
8196.21993 6.94237e-19
8197.08139 6.92321e-19
8197.94285 6.96587e-19
8198.80431 7.00863e-19
8199.66577 7.07662e-19
8200.52724 7.14467e-19
8201.38870 7.18688e-19
8202.25016 7.22904e-19
8203.12164 7.23552e-19
8203.98310 7.24194e-19
8204.84456 7.22098e-19
8205.70603 7.19997e-19
8206.56749 7.15582e-19
8207.42895 7.11157e-19
8208.29041 7.04775e-19
8209.15187 6.98389e-19
8210.01334 6.91076e-19
8210.87480 6.83764e-19
8211.73626 6.76869e-19
8212.60774 6.69980e-19
8213.46920 6.64076e-19
8214.33066 6.58178e-19
8215.19212 6.53165e-19
8216.05359 6.48157e-19
8216.91505 6.42448e-19
8217.77651 6.36738e-19
8218.63797 6.25921e-19
8219.49943 6.15090e-19
8220.36090 5.97473e-19
8221.22236 5.79842e-19
8222.08382 5.59940e-19
8222.95530 5.40034e-19
8223.81676 5.22886e-19
8224.67822 5.05742e-19
8225.53969 4.97658e-19
8226.40115 4.89598e-19
8227.26261 4.95139e-19
8228.12407 5.00709e-19
8228.98553 5.15628e-19
8229.84700 5.30566e-19
8230.70846 5.48964e-19
8231.57994 5.67372e-19
8232.44140 5.83520e-19
8233.30286 5.99668e-19
8234.16432 6.08245e-19
8235.02578 6.16807e-19
8235.88725 6.19580e-19
8236.74871 6.22332e-19
8237.61017 6.23736e-19
8238.47163 6.25140e-19
8239.33309 6.28271e-19
8240.19456 6.31407e-19
8241.06604 6.38844e-19
8241.92750 6.46291e-19
8242.78896 6.56525e-19
8243.65042 6.66765e-19
8244.51188 6.75147e-19
8245.37335 6.83530e-19
8246.23481 6.87781e-19
8247.09627 6.92022e-19
8247.95773 6.92395e-19
8248.81919 6.92759e-19
8249.68066 6.90185e-19
8250.54212 6.87607e-19
8251.41360 6.84152e-19
8252.27506 6.80692e-19
8253.13652 6.78283e-19
8253.99798 6.75879e-19
8254.85945 6.75685e-19
8255.72091 6.75501e-19
8256.58237 6.78184e-19
8257.44383 6.80877e-19
8258.30529 6.85979e-19
8259.16676 6.91086e-19
8260.02822 6.97627e-19
8260.89970 7.04173e-19
8261.76116 7.10340e-19
8262.62262 7.16513e-19
8263.48408 7.20530e-19
8264.34554 7.24542e-19
8265.20701 7.24806e-19
8266.06847 7.25060e-19
8266.92993 7.20515e-19
8267.79139 7.15960e-19
8268.65285 7.09026e-19
8269.52433 7.02082e-19
8270.38580 6.96114e-19
8271.24726 6.90150e-19
8272.10872 6.87403e-19
8272.97018 6.84665e-19
8273.83164 6.86885e-19
8274.69311 6.89115e-19
8275.55457 6.94561e-19
8276.41603 7.00006e-19
8277.27749 7.04745e-19
8278.13895 7.09479e-19
8279.01043 7.11908e-19
8279.87189 7.14333e-19
8280.73336 7.14830e-19
8281.59482 7.15323e-19
8282.45628 7.15079e-19
8283.31774 7.14830e-19
8284.17920 7.16324e-19
8285.04067 7.17822e-19
8285.90213 7.21998e-19
8286.76359 7.26180e-19
8287.62505 7.30794e-19
8288.48651 7.35409e-19
8289.34798 7.39267e-19
8290.21946 7.43119e-19
8291.08092 7.48013e-19
8291.94238 7.52906e-19
8292.80384 7.59860e-19
8293.66530 7.66814e-19
8294.52677 7.74017e-19
8295.38823 7.81215e-19
8296.24969 7.86979e-19
8297.11115 7.92743e-19
8297.97261 7.95989e-19
8298.83408 7.99229e-19
8299.70555 7.99314e-19
8300.56702 7.99389e-19
8301.42848 8.00130e-19
8302.28994 8.00872e-19
8303.15140 8.06791e-19
8304.01286 8.12719e-19
8304.87433 8.22078e-19
8305.73579 8.31436e-19
8306.59725 8.40466e-19
8307.45871 8.49495e-19
8308.32017 8.55917e-19
8309.18164 8.62328e-19
8310.05312 8.64469e-19
8310.91458 8.66599e-19
8311.77604 8.66241e-19
8312.63750 8.65872e-19
8313.49896 8.67331e-19
8314.36043 8.68789e-19
8315.22189 8.74489e-19
8316.08335 8.80204e-19
8316.94481 8.90632e-19
8317.80627 9.01076e-19
8318.67775 9.15004e-19
8319.53921 9.28941e-19
8320.40068 9.42491e-19
8321.26214 9.56041e-19
8322.12360 9.66439e-19
8322.98506 9.76828e-19
8323.84652 9.84036e-19
8324.70799 9.91239e-19
8325.56945 9.95619e-19
8326.43091 1.00000e-18
8327.29237 1.00263e-18
8328.16385 1.00527e-18
8329.02531 1.00750e-18
8329.88678 1.00973e-18
8330.74824 1.01233e-18
8331.60970 1.01493e-18
8332.47116 1.01866e-18
8333.33262 1.02240e-18
8334.19408 1.02913e-18
8335.05555 1.03587e-18
8335.91701 1.04715e-18
8336.77847 1.05845e-18
8337.64995 1.07309e-18
8338.51141 1.08772e-18
8339.37287 1.10361e-18
8340.23434 1.11951e-18
8341.09580 1.13379e-18
8341.95726 1.14807e-18
8342.81872 1.15764e-18
8343.68018 1.16720e-18
8344.54165 1.17213e-18
8345.40311 1.17705e-18
8346.26457 1.17952e-18
8347.12603 1.18197e-18
8347.99751 1.18373e-18
8348.85897 1.18550e-18
8349.72043 1.18788e-18
8350.58190 1.19027e-18
8351.44336 1.19481e-18
8352.30482 1.19936e-18
8353.16628 1.20768e-18
8354.02775 1.21602e-18
8354.88921 1.22831e-18
8355.75067 1.24062e-18
8356.62215 1.25487e-18
8357.48361 1.26914e-18
8358.34507 1.28336e-18
8359.20653 1.29757e-18
8360.06800 1.31001e-18
8360.92946 1.32243e-18
8361.79092 1.33203e-18
8362.65238 1.34162e-18
8363.51384 1.35020e-18
8364.37531 1.35877e-18
8365.23677 1.36810e-18
8366.10825 1.37743e-18
8366.96971 1.38635e-18
8367.83117 1.39527e-18
8368.69263 1.40256e-18
8369.55410 1.40985e-18
8370.41556 1.41669e-18
8371.27702 1.42353e-18
8372.13848 1.43157e-18
8372.99994 1.43960e-18
8373.86140 1.44972e-18
8374.72287 1.45984e-18
8375.59435 1.47261e-18
8376.45581 1.48540e-18
8377.31727 1.50071e-18
8378.17873 1.51603e-18
8379.04019 1.53328e-18
8379.90166 1.55055e-18
8380.76312 1.56881e-18
8381.62458 1.58707e-18
8382.48604 1.60523e-18
8383.34750 1.62338e-18
8384.20897 1.64051e-18
8385.07043 1.65763e-18
8385.94191 1.67288e-18
8386.80337 1.68813e-18
8387.66483 1.70202e-18
8388.52629 1.71590e-18
8389.38775 1.73111e-18
8390.24922 1.74633e-18
8391.11068 1.76363e-18
8391.97214 1.78093e-18
8392.83360 1.79683e-18
8393.69507 1.81273e-18
8394.55653 1.82475e-18
8395.41799 1.83676e-18
8396.28947 1.84483e-18
8397.15093 1.85288e-18
8398.01239 1.85800e-18
8398.87385 1.86310e-18
8399.73532 1.87093e-18
8400.59678 1.87876e-18
8401.45824 1.89445e-18
8402.31970 1.91016e-18
8403.18116 1.93205e-18
8404.04263 1.95395e-18
8404.90409 1.97889e-18
8405.77557 2.00383e-18
8406.63703 2.02832e-18
8407.49849 2.05281e-18
8408.35995 2.07324e-18
8409.22142 2.09367e-18
8410.08288 2.11006e-18
8410.94434 2.12645e-18
8411.80580 2.14065e-18
8412.66726 2.15484e-18
8413.52873 2.16811e-18
8414.39019 2.18138e-18
8415.26167 2.19475e-18
8416.12313 2.20812e-18
8416.98459 2.22269e-18
8417.84605 2.23726e-18
8418.70751 2.25392e-18
8419.56898 2.27058e-18
8420.43044 2.28968e-18
8421.29190 2.30878e-18
8422.15336 2.33024e-18
8423.01482 2.35171e-18
8423.87629 2.37439e-18
8424.74777 2.39708e-18
8425.60923 2.41785e-18
8426.47069 2.43862e-18
8427.33215 2.45619e-18
8428.19361 2.47376e-18
8429.05508 2.49169e-18
8429.91654 2.50962e-18
8430.77800 2.53080e-18
8431.63946 2.55197e-18
8432.50092 2.57669e-18
8433.36239 2.60142e-18
8434.23386 2.62923e-18
8435.09533 2.65704e-18
8435.95679 2.68332e-18
8436.81825 2.70959e-18
8437.67971 2.72979e-18
8438.54117 2.74998e-18
8439.40264 2.76676e-18
8440.26410 2.78353e-18
8441.12556 2.80122e-18
8441.98702 2.81889e-18
8442.84848 2.83874e-18
8443.70995 2.85860e-18
8444.58143 2.88093e-18
8445.44289 2.90325e-18
8446.30435 2.92828e-18
8447.16581 2.95331e-18
8448.02727 2.98097e-18
8448.88874 3.00864e-18
8449.75020 3.03808e-18
8450.61166 3.06751e-18
8451.47312 3.09748e-18
8452.33458 3.12743e-18
8453.20606 3.15648e-18
8454.06752 3.18552e-18
8454.92899 3.21192e-18
8455.79045 3.23830e-18
8456.65191 3.26241e-18
8457.51337 3.28652e-18
8458.37483 3.31209e-18
8459.23630 3.33768e-18
8460.09776 3.36629e-18
8460.95922 3.39492e-18
8461.82068 3.42337e-18
8462.69216 3.45182e-18
8463.55362 3.47782e-18
8464.41508 3.50382e-18
8465.27655 3.52754e-18
8466.13801 3.55126e-18
8466.99947 3.57366e-18
8467.86093 3.59606e-18
8468.72240 3.62190e-18
8469.58386 3.64775e-18
8470.44532 3.68123e-18
8471.30678 3.71473e-18
8472.16824 3.75324e-18
8473.03972 3.79178e-18
8473.90118 3.83156e-18
8474.76265 3.87133e-18
8475.62411 3.90950e-18
8476.48557 3.94767e-18
8477.34703 3.98147e-18
8478.20849 4.01527e-18
8479.06996 4.04797e-18
8479.93142 4.08066e-18
8480.79288 4.11820e-18
8481.65434 4.15576e-18
8482.51580 4.19681e-18
8483.38728 4.23787e-18
8484.24875 4.27689e-18
8485.11021 4.31591e-18
8485.97167 4.35043e-18
8486.83313 4.38495e-18
8487.69459 4.41491e-18
8488.55605 4.44486e-18
8489.41752 4.47184e-18
8490.27898 4.49882e-18
8491.14044 4.52681e-18
8492.00190 4.55480e-18
8492.87338 4.58641e-18
8493.73484 4.61802e-18
8494.59631 4.65253e-18
8495.45777 4.68704e-18
8496.31923 4.72484e-18
8497.18069 4.76265e-18
8498.04215 4.80795e-18
8498.90362 4.85327e-18
8499.76508 4.90768e-18
8500.62654 4.96210e-18
8501.48800 5.01834e-18
8502.35948 5.07459e-18
8503.22094 5.12557e-18
8504.08240 5.17654e-18
8504.94387 5.22079e-18
8505.80533 5.26499e-18
8506.66679 5.30223e-18
8507.52825 5.33941e-18
8508.38972 5.37222e-18
8509.25118 5.40502e-18
8510.11264 5.43693e-18
8510.98412 5.46889e-18
8511.84558 5.50129e-18
8512.70704 5.53370e-18
8513.56850 5.56730e-18
8514.42997 5.60085e-18
8515.29143 5.63549e-18
8516.15289 5.67014e-18
8517.01435 5.70543e-18
8517.87581 5.74072e-18
8518.73728 5.77666e-18
8519.59874 5.81255e-18
8520.46020 5.84924e-18
8521.33168 5.88588e-18
8522.19314 5.92490e-18
8523.05460 5.96388e-18
8523.91607 6.00823e-18
8524.77753 6.05264e-18
8525.63899 6.10336e-18
8526.50045 6.15408e-18
8527.36191 6.20934e-18
8528.22337 6.26454e-18
8529.08484 6.32139e-18
8529.94630 6.37823e-18
8530.80776 6.43195e-18
8531.67924 6.48566e-18
8532.54070 6.53240e-18
8533.40216 6.57909e-18
8534.26363 6.61737e-18
8535.12509 6.65565e-18
8535.98655 6.68586e-18
8536.84801 6.71613e-18
8537.70947 6.74415e-18
8538.57094 6.77218e-18
8539.43240 6.80419e-18
8540.30388 6.83624e-18
8541.16534 6.87637e-18
8542.02680 6.91649e-18
8542.88826 6.96716e-18
8543.74972 7.01788e-18
8544.61119 7.07578e-18
8545.47265 7.13367e-18
8546.33411 7.19345e-18
8547.19557 7.25319e-18
8548.05703 7.30565e-18
8548.91850 7.35807e-18
8549.78998 7.39306e-18
8550.65144 7.42806e-18
8551.51290 7.44653e-18
8552.37436 7.46494e-18
8553.23582 7.47450e-18
8554.09729 7.48406e-18
8554.95875 7.49506e-18
8555.82021 7.50611e-18
8556.68167 7.53080e-18
8557.54313 7.55554e-18
8558.40460 7.59949e-18
8559.27607 7.64345e-18
8560.13754 7.70323e-18
8560.99900 7.76302e-18
8561.86046 7.83211e-18
8562.72192 7.90120e-18
8563.58338 7.96890e-18
8564.44485 8.03665e-18
8565.30631 8.09319e-18
8566.16777 8.14969e-18
8567.02923 8.18857e-18
8567.89070 8.22740e-18
8568.75216 8.24552e-18
8569.62364 8.26363e-18
8570.48510 8.26612e-18
8571.34656 8.26861e-18
8572.20802 8.26289e-18
8573.06948 8.25711e-18
8573.93095 8.25129e-18
8574.79241 8.24547e-18
8575.65387 8.24741e-18
8576.51533 8.24940e-18
8577.37679 8.26737e-18
8578.23826 8.28539e-18
8579.09972 8.32561e-18
8579.97120 8.36588e-18
8580.83266 8.42054e-18
8581.69412 8.47524e-18
8582.55558 8.53134e-18
8583.41705 8.58744e-18
8584.27851 8.63448e-18
8585.13997 8.68157e-18
8586.00143 8.71104e-18
8586.86289 8.74051e-18
8587.72436 8.75121e-18
8588.58582 8.76192e-18
8589.45730 8.75863e-18
8590.31876 8.75524e-18
8591.18022 8.74529e-18
8592.04168 8.73533e-18
8592.90314 8.72866e-18
8593.76461 8.72199e-18
8594.62607 8.72418e-18
8595.48753 8.72632e-18
8596.34899 8.73513e-18
8597.21045 8.74390e-18
8598.07192 8.75793e-18
8598.94340 8.77202e-18
8599.80486 8.79273e-18
8600.66632 8.81349e-18
8601.52778 8.84027e-18
8602.38924 8.86705e-18
8603.25071 8.89562e-18
8604.11217 8.92424e-18
8604.97363 8.94993e-18
8605.83509 8.97566e-18
8606.69655 8.99219e-18
8607.56803 9.00872e-18
8608.42949 9.01101e-18
8609.29096 9.01325e-18
8610.15242 9.00269e-18
8611.01388 8.99204e-18
8611.87534 8.97223e-18
8612.73680 8.95237e-18
8613.59827 8.92738e-18
8614.45973 8.90234e-18
8615.32119 8.87645e-18
8616.18265 8.85057e-18
8617.04411 8.83190e-18
8617.91559 8.81324e-18
8618.77706 8.81065e-18
8619.63852 8.80806e-18
8620.49998 8.82205e-18
8621.36144 8.83603e-18
8622.22290 8.86177e-18
8623.08437 8.88761e-18
8623.94583 8.91827e-18
8624.80729 8.94898e-18
8625.66875 8.97591e-18
8626.53021 9.00284e-18
8627.40169 9.02081e-18
8628.26315 9.03873e-18
8629.12462 9.04759e-18
8629.98608 9.05645e-18
8630.84754 9.05600e-18
8631.70900 9.05556e-18
8632.57046 9.04461e-18
8633.43193 9.03360e-18
8634.29339 9.01364e-18
8635.15485 8.99368e-18
8636.01631 8.97098e-18
8636.88779 8.94823e-18
8637.74925 8.92932e-18
8638.61072 8.91045e-18
8639.47218 8.90289e-18
8640.33364 8.89537e-18
8641.19510 8.90438e-18
8642.05656 8.91339e-18
8642.91803 8.93455e-18
8643.77949 8.95580e-18
8644.64095 8.98253e-18
8645.50241 9.00926e-18
8646.37389 9.03460e-18
8647.23535 9.05994e-18
8648.09681 9.07696e-18
8648.95828 9.09394e-18
8649.81974 9.10006e-18
8650.68120 9.10618e-18
8651.54266 9.10150e-18
8652.40412 9.09677e-18
8653.26559 9.08055e-18
8654.12705 9.06432e-18
8654.98851 9.03604e-18
8655.85999 9.00777e-18
8656.72145 8.97238e-18
8657.58291 8.93699e-18
8658.44438 8.90299e-18
8659.30584 8.86899e-18
8660.16730 8.84221e-18
8661.02876 8.81548e-18
8661.89022 8.79850e-18
8662.75168 8.78163e-18
8663.61315 8.77585e-18
8664.47461 8.77013e-18
8665.33607 8.77516e-18
8666.20755 8.78018e-18
8667.06901 8.79362e-18
8667.93047 8.80711e-18
8668.79194 8.82478e-18
8669.65340 8.84251e-18
8670.51486 8.85873e-18
8671.37632 8.87496e-18
8672.23778 8.87999e-18
8673.09925 8.88497e-18
8673.96071 8.87153e-18
8674.82217 8.85804e-18
8675.68363 8.82832e-18
8676.55511 8.79855e-18
8677.41657 8.75734e-18
8678.27803 8.71602e-18
8679.13950 8.67137e-18
8680.00096 8.62667e-18
8680.86242 8.58739e-18
8681.72388 8.54817e-18
8682.58535 8.51785e-18
8683.44681 8.48759e-18
8684.30827 8.46748e-18
8685.16973 8.44737e-18
8686.04121 8.43866e-18
8686.90267 8.42999e-18
8687.76413 8.43283e-18
8688.62560 8.43572e-18
8689.48706 8.44791e-18
8690.34852 8.46011e-18
8691.20998 8.47803e-18
8692.07144 8.49600e-18
8692.93291 8.51362e-18
8693.79437 8.53119e-18
8694.66585 8.54070e-18
8695.52731 8.55021e-18
8696.38877 8.54692e-18
8697.25023 8.54359e-18
8698.11170 8.52666e-18
8698.97316 8.50969e-18
8699.83462 8.48097e-18
8700.69608 8.45224e-18
8701.55754 8.41795e-18
8702.41900 8.38365e-18
8703.28047 8.34905e-18
8704.15195 8.31441e-18
8705.01341 8.27961e-18
8705.87487 8.24487e-18
8706.73633 8.21137e-18
8707.59779 8.17792e-18
8708.45926 8.15273e-18
8709.32072 8.12759e-18
8710.18218 8.11619e-18
8711.04364 8.10479e-18
8711.90510 8.10738e-18
8712.76657 8.11007e-18
8713.62803 8.12470e-18
8714.49951 8.13934e-18
8715.36097 8.15532e-18
8716.22243 8.17130e-18
8717.08389 8.17647e-18
8717.94535 8.18165e-18
8718.80682 8.17110e-18
8719.66828 8.16044e-18
8720.52974 8.13232e-18
8721.39120 8.10415e-18
8722.25267 8.06532e-18
8723.11413 8.02649e-18
8723.98561 7.98906e-18
8724.84707 7.95158e-18
8725.70853 7.91997e-18
8726.56999 7.88831e-18
8727.43145 7.86123e-18
8728.29292 7.83420e-18
8729.15438 7.81180e-18
8730.01584 7.78940e-18
8730.87730 7.77227e-18
8731.73876 7.75510e-18
8732.61024 7.74485e-18
8733.47170 7.73454e-18
8734.33317 7.73589e-18
8735.19463 7.73728e-18
8736.05609 7.74883e-18
8736.91755 7.76038e-18
8737.77902 7.76849e-18
8738.64048 7.77660e-18
8739.50194 7.76974e-18
8740.36340 7.76287e-18
8741.22486 7.73469e-18
8742.08633 7.70647e-18
8742.95780 7.65534e-18
8743.81927 7.60417e-18
8744.68073 7.54484e-18
8745.54219 7.48545e-18
8746.40365 7.43393e-18
8747.26511 7.38241e-18
8748.12658 7.34617e-18
8748.98804 7.31003e-18
8749.84950 7.29361e-18
8750.71096 7.27723e-18
8751.57242 7.27598e-18
8752.44390 7.27479e-18
8753.30537 7.27987e-18
8754.16683 7.28499e-18
8755.02829 7.29157e-18
8755.88975 7.29814e-18
8756.75121 7.30301e-18
8757.61268 7.30789e-18
8758.47414 7.30396e-18
8759.33560 7.29998e-18
8760.19706 7.27857e-18
8761.05852 7.25712e-18
8761.91999 7.21685e-18
8762.79146 7.17653e-18
8763.65293 7.12202e-18
8764.51439 7.06746e-18
8765.37585 7.00629e-18
8766.23731 6.94516e-18
8767.09877 6.88821e-18
8767.96024 6.83137e-18
8768.82170 6.78567e-18
8769.68316 6.74007e-18
8770.54462 6.70478e-18
8771.40608 6.66954e-18
8772.26755 6.64310e-18
8773.13903 6.61672e-18
8774.00049 6.59796e-18
8774.86195 6.57914e-18
8775.72341 6.56550e-18
8776.58487 6.55181e-18
8777.44633 6.54106e-18
8778.30780 6.53036e-18
8779.16926 6.51941e-18
8780.03072 6.50845e-18
8780.89218 6.48780e-18
8781.76366 6.46709e-18
8782.62512 6.42816e-18
8783.48659 6.38914e-18
8784.34805 6.33602e-18
8785.20951 6.28291e-18
8786.07097 6.22323e-18
8786.93243 6.16354e-18
8787.79390 6.10301e-18
8788.65536 6.04248e-18
8789.51682 5.98668e-18
8790.37828 5.93088e-18
8791.24976 5.87966e-18
8792.11122 5.82843e-18
8792.97268 5.77781e-18
8793.83415 5.72714e-18
8794.69561 5.67965e-18
8795.55707 5.63221e-18
8796.41853 5.59517e-18
8797.28000 5.55824e-18
8798.14146 5.53021e-18
8799.00292 5.50224e-18
8799.86438 5.47347e-18
8800.72584 5.44469e-18
8801.59732 5.40721e-18
8802.45878 5.36973e-18
8803.32025 5.31816e-18
8804.18171 5.26659e-18
8805.04317 5.20023e-18
8805.90463 5.13388e-18
8806.76609 5.06230e-18
8807.62756 4.99067e-18
8808.48902 4.92255e-18
8809.35048 4.85448e-18
8810.21194 4.79406e-18
8811.08342 4.73367e-18
8811.94488 4.68375e-18
8812.80635 4.63386e-18
8813.66781 4.59334e-18
8814.52927 4.55285e-18
8815.39073 4.51908e-18
8816.25219 4.48532e-18
8817.11365 4.45498e-18
8817.97512 4.42465e-18
8818.83658 4.39404e-18
8819.70806 4.36344e-18
8820.56952 4.32808e-18
8821.43098 4.29272e-18
8822.29244 4.24872e-18
8823.15391 4.20470e-18
8824.01537 4.15157e-18
8824.87683 4.09842e-18
8825.73829 4.03757e-18
8826.59975 3.97669e-18
8827.46122 3.91372e-18
8828.32268 3.85074e-18
8829.19416 3.79372e-18
8830.05562 3.73672e-18
8830.91708 3.68977e-18
8831.77854 3.64285e-18
8832.64000 3.60626e-18
8833.50147 3.56970e-18
8834.36293 3.54217e-18
8835.22439 3.51466e-18
8836.08585 3.49296e-18
8836.94732 3.47128e-18
8837.80878 3.45164e-18
8838.67024 3.43200e-18
8839.54172 3.41054e-18
8840.40318 3.38908e-18
8841.26464 3.36295e-18
8842.12610 3.33681e-18
8842.98757 3.30564e-18
8843.84903 3.27445e-18
8844.71049 3.23882e-18
8845.57195 3.20318e-18
8846.43341 3.16519e-18
8847.29488 3.12720e-18
8848.15634 3.08952e-18
8849.02782 3.05183e-18
8849.88928 3.01589e-18
8850.75074 2.97995e-18
8851.61220 2.94711e-18
8852.47367 2.91427e-18
8853.33513 2.89150e-18
8854.19659 2.86875e-18
8855.05805 2.86301e-18
8855.91951 2.85730e-18
8856.78097 2.86306e-18
8857.64244 2.86885e-18
8858.50390 2.87639e-18
8859.36536 2.88392e-18
8860.23684 2.88521e-18
8861.09830 2.88647e-18
8861.95976 2.87425e-18
8862.82123 2.86199e-18
8863.68269 2.83899e-18
8864.54415 2.81596e-18
8865.40561 2.79277e-18
8866.26707 2.76957e-18
8867.12854 2.75109e-18
8867.99000 2.73263e-18
8868.86148 2.71763e-18
8869.72294 2.70264e-18
8870.58440 2.69058e-18
8871.44586 2.67852e-18
8872.30732 2.66893e-18
8873.16879 2.65935e-18
8874.03025 2.65275e-18
8874.89171 2.64616e-18
8875.75317 2.64663e-18
8876.61463 2.64712e-18
8877.47610 2.65629e-18
8878.34758 2.66549e-18
8879.20904 2.67830e-18
8880.07050 2.69112e-18
8880.93196 2.70224e-18
8881.79342 2.71335e-18
8882.65489 2.71784e-18
8883.51635 2.72230e-18
8884.37781 2.71655e-18
8885.23927 2.71077e-18
8886.10073 2.69810e-18
8886.96220 2.68542e-18
8887.83367 2.67105e-18
8888.69514 2.65668e-18
8889.55660 2.64543e-18
8890.41806 2.63418e-18
8891.27952 2.63042e-18
8892.14099 2.62667e-18
8893.00245 2.63286e-18
8893.86391 2.63907e-18
8894.72537 2.65618e-18
8895.58683 2.67332e-18
8896.44830 2.69733e-18
8897.30976 2.72137e-18
8898.18124 2.74541e-18
8899.04270 2.76945e-18
8899.90416 2.78764e-18
8900.76562 2.80581e-18
8901.62708 2.81326e-18
8902.48855 2.82068e-18
8903.35001 2.81814e-18
8904.21147 2.81557e-18
8905.07293 2.81117e-18
8905.93439 2.80677e-18
8906.80587 2.80587e-18
8907.66734 2.80497e-18
8908.52880 2.80703e-18
8909.39026 2.80910e-18
8910.25172 2.81412e-18
8911.11318 2.81916e-18
8911.97465 2.82815e-18
8912.83611 2.83715e-18
8913.69757 2.85052e-18
8914.55903 2.86390e-18
8915.42049 2.88259e-18
8916.29197 2.90129e-18
8917.15343 2.92508e-18
8918.01490 2.94888e-18
8918.87636 2.97165e-18
8919.73782 2.99441e-18
8920.59928 3.01003e-18
8921.46074 3.02563e-18
8922.32221 3.03237e-18
8923.18367 3.03908e-18
8924.04513 3.03675e-18
8924.90659 3.03440e-18
8925.76805 3.03022e-18
8926.63953 3.02603e-18
8927.50100 3.02984e-18
8928.36246 3.03367e-18
8929.22392 3.04586e-18
8930.08538 3.05807e-18
8930.94684 3.07417e-18
8931.80831 3.09028e-18
8932.66977 3.10708e-18
8933.53123 3.12388e-18
8934.39269 3.13825e-18
8935.25415 3.15261e-18
8936.12563 3.16603e-18
8936.98709 3.17944e-18
8937.84856 3.19893e-18
8938.71002 3.21844e-18
8939.57148 3.24434e-18
8940.43294 3.27025e-18
8941.29440 3.29299e-18
8942.15587 3.31574e-18
8943.01733 3.32834e-18
8943.87879 3.34091e-18
8944.74025 3.34021e-18
8945.61173 3.33948e-18
8946.47319 3.32663e-18
8947.33466 3.31374e-18
8948.19612 3.30346e-18
8949.05758 3.29319e-18
8949.91904 3.29744e-18
8950.78050 3.30173e-18
8951.64197 3.31680e-18
8952.50343 3.33189e-18
8953.36489 3.35176e-18
8954.22635 3.37164e-18
8955.08781 3.38064e-18
8955.95929 3.38961e-18
8956.82075 3.37234e-18
8957.68222 3.35500e-18
8958.54368 3.33062e-18
8959.40514 3.30622e-18
8960.26660 3.30297e-18
8961.12806 3.29978e-18
8961.98953 3.32169e-18
8962.85099 3.34367e-18
8963.71245 3.38540e-18
8964.57391 3.42719e-18
8965.44539 3.47521e-18
8966.30685 3.52324e-18
8967.16832 3.55709e-18
8968.02978 3.59090e-18
8968.89124 3.61281e-18
8969.75270 3.63470e-18
8970.61416 3.66706e-18
8971.47563 3.69944e-18
8972.33709 3.74999e-18
8973.19855 3.80059e-18
8974.06001 3.85975e-18
8974.93149 3.91893e-18
8975.79295 3.97283e-18
8976.65441 4.02670e-18
8977.51588 4.05410e-18
8978.37734 4.08144e-18
8979.23880 4.06583e-18
8980.10026 4.05010e-18
8980.96172 3.98083e-18
8981.82319 3.91142e-18
8982.68465 3.79534e-18
8983.54611 3.67912e-18
8984.41759 3.57865e-18
8985.27905 3.47822e-18
8986.14051 3.45097e-18
8987.00198 3.42391e-18
8987.86344 3.48963e-18
8988.72490 3.55559e-18
8989.58636 3.71725e-18
8990.44782 3.87917e-18
8991.30928 4.05962e-18
8992.17075 4.24011e-18
8993.03221 4.34648e-18
8993.89367 4.45263e-18
8994.76515 4.47098e-18
8995.62661 4.48909e-18
8996.48807 4.43639e-18
8997.34954 4.38351e-18
8998.21100 4.30132e-18
8999.07246 4.21905e-18
8999.93392 4.16406e-18
9000.79538 4.10913e-18
9001.65685 4.10604e-18
9002.51831 4.10310e-18
9003.38979 4.15038e-18
9004.25125 4.19780e-18
9005.11271 4.27899e-18
9005.97417 4.36025e-18
9006.83563 4.44301e-18
9007.69710 4.52576e-18
9008.55856 4.58488e-18
9009.42002 4.64394e-18
9010.28148 4.66774e-18
9011.14295 4.69144e-18
9012.00441 4.68046e-18
9012.87589 4.66937e-18
9013.73735 4.65136e-18
9014.59881 4.63333e-18
9015.46027 4.62889e-18
9016.32173 4.62449e-18
9017.18320 4.62105e-18
9018.04466 4.61762e-18
9018.90612 4.60581e-18
9019.76758 4.59397e-18
9020.62904 4.58462e-18
9021.49051 4.57527e-18
9022.35197 4.57961e-18
9023.22345 4.58399e-18
9024.08491 4.61618e-18
9024.94637 4.64845e-18
9025.80783 4.71979e-18
9026.66930 4.79123e-18
9027.53076 4.88457e-18
9028.39222 4.97797e-18
9029.25368 5.06737e-18
9030.11514 5.15673e-18
9030.97660 5.22418e-18
9031.83807 5.29153e-18
9032.70955 5.32363e-18
9033.57101 5.35564e-18
9034.43247 5.35121e-18
9035.29393 5.34668e-18
9036.15539 5.31253e-18
9037.01686 5.27828e-18
9037.87832 5.23194e-18
9038.73978 5.18555e-18
9039.60124 5.15394e-18
9040.46270 5.12243e-18
9041.32417 5.11277e-18
9042.18563 5.10317e-18
9043.05711 5.09575e-18
9043.91857 5.08828e-18
9044.78003 5.07270e-18
9045.64149 5.05707e-18
9046.50295 5.03955e-18
9047.36442 5.02203e-18
9048.22588 5.00799e-18
9049.08734 4.99395e-18
9049.94880 4.99206e-18
9050.81027 4.99012e-18
9051.67173 5.00266e-18
9052.54321 5.01526e-18
9053.40467 5.01660e-18
9054.26613 5.01785e-18
9055.12759 4.98549e-18
9055.98905 4.95306e-18
9056.85052 4.89900e-18
9057.71198 4.84489e-18
9058.57344 4.78542e-18
9059.43490 4.72594e-18
9060.29636 4.66308e-18
9061.16784 4.60020e-18
9062.02931 4.53475e-18
9062.89077 4.46928e-18
9063.75223 4.39886e-18
9064.61369 4.32842e-18
9065.47515 4.24777e-18
9066.33662 4.16710e-18
9067.19808 4.09677e-18
9068.05954 4.02647e-18
9068.92100 4.00056e-18
9069.78246 3.97477e-18
9070.64393 3.98574e-18
9071.51540 3.99681e-18
9072.37687 4.00648e-18
9073.23833 4.01614e-18
9074.09979 4.01043e-18
9074.96125 4.00467e-18
9075.82271 3.99423e-18
9076.68418 3.98377e-18
9077.54564 3.97527e-18
9078.40710 3.96678e-18
9079.26856 3.96408e-18
9080.13002 3.96139e-18
9080.99149 3.96433e-18
9081.86297 3.96729e-18
9082.72443 3.96264e-18
9083.58589 3.95796e-18
9084.44735 3.93832e-18
9085.30881 3.91865e-18
9086.17028 3.89862e-18
9087.03174 3.87858e-18
9087.89320 3.86937e-18
9088.75466 3.86018e-18
9089.61612 3.84747e-18
9090.48760 3.83474e-18
9091.34906 3.80478e-18
9092.21053 3.77494e-18
9093.07199 3.74191e-18
9093.93345 3.70888e-18
9094.79491 3.69013e-18
9095.65637 3.67142e-18
9096.51784 3.66204e-18
9097.37930 3.65268e-18
9098.24076 3.64231e-18
9099.10222 3.63193e-18
9099.97370 3.62325e-18
9100.83516 3.61458e-18
9101.69663 3.61314e-18
9102.55809 3.61171e-18
9103.41955 3.62811e-18
9104.28101 3.64456e-18
9105.14247 3.69398e-18
9106.00393 3.74350e-18
9106.86540 3.80795e-18
9107.72686 3.87243e-18
9108.58832 3.90569e-18
9109.45980 3.93887e-18
9110.32126 3.92127e-18
9111.18272 3.90353e-18
9112.04419 3.84652e-18
9112.90565 3.78941e-18
9113.76711 3.71655e-18
9114.62857 3.64365e-18
9115.49003 3.60329e-18
9116.35150 3.56302e-18
9117.21296 3.58035e-18
9118.07442 3.59784e-18
9118.93588 3.63555e-18
9119.80736 3.67333e-18
9120.66882 3.69502e-18
9121.53028 3.71666e-18
9122.39175 3.69900e-18
9123.25321 3.68122e-18
9124.11467 3.61019e-18
9124.97613 3.53902e-18
9125.83760 3.44748e-18
9126.69906 3.35588e-18
9127.56052 3.28382e-18
9128.43200 3.21181e-18
9129.29346 3.17988e-18
9130.15492 3.14806e-18
9131.01638 3.16957e-18
9131.87785 3.19123e-18
9132.73931 3.25721e-18
9133.60077 3.32331e-18
9134.46223 3.41348e-18
9135.32369 3.50371e-18
9136.18516 3.59695e-18
9137.04662 3.69019e-18
9137.90808 3.76470e-18
9138.76954 3.83916e-18
9139.64102 3.88093e-18
9140.50248 3.92260e-18
9141.36395 3.92689e-18
9142.22541 3.93108e-18
9143.08687 3.89078e-18
9143.94833 3.85037e-18
9144.80979 3.75527e-18
9145.67125 3.66004e-18
9146.53272 3.52248e-18
9147.39418 3.38480e-18
9148.26566 3.24632e-18
9149.12712 3.10783e-18
9149.98858 3.00613e-18
9150.85004 2.90453e-18
9151.71151 2.87011e-18
9152.57297 2.83588e-18
9153.43443 2.88064e-18
9154.29589 2.92561e-18
9155.15735 3.01043e-18
9156.01882 3.09536e-18
9156.88028 3.17891e-18
9157.75176 3.26245e-18
9158.61322 3.32540e-18
9159.47468 3.38829e-18
9160.33614 3.41571e-18
9161.19760 3.44303e-18
9162.05907 3.43592e-18
9162.92053 3.42870e-18
9163.78199 3.39517e-18
9164.64345 3.36156e-18
9165.50492 3.30049e-18
9166.36638 3.23933e-18
9167.22784 3.14926e-18
9168.09932 3.05912e-18
9168.96078 2.96241e-18
9169.82224 2.86568e-18
9170.68370 2.79258e-18
9171.54517 2.71955e-18
9172.40663 2.68518e-18
9173.26809 2.65091e-18
9174.12955 2.66185e-18
9174.99101 2.67291e-18
9175.85248 2.71056e-18
9176.71394 2.74829e-18
9177.58542 2.77040e-18
9178.44688 2.79246e-18
9179.30834 2.78674e-18
9180.16980 2.78094e-18
9181.03127 2.77511e-18
9181.89273 2.76929e-18
9182.75419 2.77862e-18
9183.61565 2.78799e-18
9184.47711 2.80703e-18
9185.33857 2.82610e-18
9186.20004 2.84830e-18
9187.07152 2.87049e-18
9187.93298 2.87991e-18
9188.79444 2.88930e-18
9189.65590 2.87712e-18
9190.51736 2.86488e-18
9191.37883 2.85569e-18
9192.24029 2.84651e-18
9193.10175 2.86222e-18
9193.96321 2.87800e-18
9194.82467 2.90887e-18
9195.68614 2.93977e-18
9196.55762 2.97190e-18
9197.41908 3.00403e-18
9198.28054 3.02487e-18
9199.14200 3.04568e-18
9200.00346 3.04315e-18
9200.86492 3.04057e-18
9201.72639 3.02358e-18
9202.58785 3.00655e-18
9203.44931 2.99258e-18
9204.31077 2.97862e-18
9205.17224 2.96818e-18
9206.04371 2.95775e-18
9206.90518 2.94316e-18
9207.76664 2.92855e-18
9208.62810 2.91225e-18
9209.48956 2.89594e-18
9210.35102 2.88615e-18
9211.21249 2.87637e-18
9212.07395 2.88132e-18
9212.93541 2.88633e-18
9213.79687 2.91550e-18
9214.65833 2.94473e-18
9215.52981 2.99622e-18
9216.39127 3.04778e-18
9217.25274 3.10203e-18
9218.11420 3.15628e-18
9218.97566 3.20058e-18
9219.83712 3.24485e-18
9220.69859 3.28325e-18
9221.56005 3.32164e-18
9222.42151 3.35643e-18
9223.28297 3.39121e-18
9224.14443 3.41852e-18
9225.00590 3.44580e-18
9225.87737 3.46290e-18
9226.73884 3.47998e-18
9227.60030 3.48405e-18
9228.46176 3.48808e-18
9229.32322 3.47802e-18
9230.18468 3.46792e-18
9231.04615 3.45520e-18
9231.90761 3.44247e-18
9232.76907 3.44034e-18
9233.63053 3.43823e-18
9234.49199 3.44378e-18
9235.35346 3.44935e-18
9236.22494 3.45512e-18
9237.08640 3.46089e-18
9237.94786 3.47027e-18
9238.80932 3.47967e-18
9239.67078 3.49969e-18
9240.53225 3.51973e-18
9241.39371 3.55373e-18
9242.25517 3.58777e-18
9243.11663 3.63712e-18
9243.97809 3.68651e-18
9244.84957 3.74692e-18
9245.71103 3.80735e-18
9246.57250 3.86900e-18
9247.43396 3.93066e-18
9248.29542 3.98796e-18
9249.15688 4.04524e-18
9250.01834 4.09934e-18
9250.87981 4.15344e-18
9251.74127 4.20161e-18
9252.60273 4.24976e-18
9253.46419 4.28045e-18
9254.32565 4.31109e-18
9255.19713 4.32242e-18
9256.05860 4.33369e-18
9256.92006 4.34810e-18
9257.78152 4.36251e-18
9258.64298 4.39689e-18
9259.50444 4.43131e-18
9260.36591 4.48054e-18
9261.22737 4.52981e-18
9262.08883 4.58482e-18
9262.95029 4.63985e-18
9263.81175 4.68079e-18
9264.68323 4.72168e-18
9265.54469 4.72953e-18
9266.40616 4.73729e-18
9267.26762 4.71259e-18
9268.12908 4.68780e-18
9268.99054 4.63838e-18
9269.85200 4.58889e-18
9270.71347 4.53314e-18
9271.57493 4.47738e-18
9272.43639 4.43724e-18
9273.29785 4.39715e-18
9274.16933 4.38994e-18
9275.03079 4.38281e-18
9275.89226 4.42119e-18
9276.75372 4.45970e-18
9277.61518 4.53722e-18
9278.47664 4.61484e-18
9279.33810 4.71015e-18
9280.19957 4.80550e-18
9281.06103 4.89555e-18
9281.92249 4.98559e-18
9282.79397 5.04816e-18
9283.65543 5.11068e-18
9284.51689 5.12810e-18
9285.37835 5.14538e-18
9286.23982 5.10715e-18
9287.10128 5.06877e-18
9287.96274 4.97952e-18
9288.82420 4.89007e-18
9289.68566 4.77807e-18
9290.54713 4.66602e-18
9291.40859 4.56420e-18
9292.27005 4.46240e-18
9293.14153 4.41408e-18
9294.00299 4.36591e-18
9294.86445 4.39938e-18
9295.72592 4.43307e-18
9296.58738 4.51918e-18
9297.44884 4.60544e-18
9298.31030 4.70553e-18
9299.17176 4.80564e-18
9300.03323 4.86698e-18
9300.89469 4.92820e-18
9301.75615 4.90023e-18
9302.62763 4.87200e-18
9303.48909 4.80328e-18
9304.35055 4.73444e-18
9305.21201 4.70439e-18
9306.07348 4.67444e-18
9306.93494 4.66454e-18
9307.79640 4.65470e-18
9308.65786 4.60734e-18
9309.51932 4.55988e-18
9310.38079 4.47774e-18
9311.24225 4.39550e-18
9312.11373 4.31257e-18
9312.97519 4.22965e-18
9313.83665 4.17927e-18
9314.69811 4.12899e-18
9315.55958 4.14906e-18
9316.42104 4.16934e-18
9317.28250 4.25249e-18
9318.14396 4.33583e-18
9319.00542 4.40917e-18
9319.86688 4.48248e-18
9320.72835 4.51740e-18
9321.58981 4.55221e-18
9322.46129 4.61589e-18
9323.32275 4.67964e-18
9324.18421 4.78676e-18
9325.04567 4.89401e-18
9325.90714 4.90722e-18
9326.76860 4.92016e-18
9327.63006 4.75477e-18
9328.49152 4.58888e-18
9329.35298 4.37785e-18
9330.21445 4.16669e-18
9331.07591 4.03874e-18
9331.94739 3.91104e-18
9332.80885 3.84136e-18
9333.67031 3.77185e-18
9334.53177 3.72324e-18
9335.39323 3.67470e-18
9336.25470 3.64801e-18
9337.11616 3.62139e-18
9337.97762 3.61025e-18
9338.83908 3.59915e-18
9339.70055 3.71690e-18
9340.56201 3.83501e-18
9341.43349 4.23518e-18
9342.29495 4.63615e-18
9343.15641 5.12208e-18
9344.01787 5.60821e-18
9344.87933 5.81813e-18
9345.74080 6.02720e-18
9346.60226 5.85317e-18
9347.46372 5.67800e-18
9348.32518 5.18162e-18
9349.18664 4.68434e-18
9350.04811 4.09388e-18
9350.90957 3.50316e-18
9351.78105 3.23962e-18
9352.64251 2.97703e-18
9353.50397 3.17853e-18
9354.36543 3.38136e-18
9355.22689 3.74336e-18
9356.08836 4.10581e-18
9356.94982 4.37224e-18
9357.81128 4.63839e-18
9358.67274 4.65651e-18
9359.53420 4.67393e-18
9360.39567 4.37771e-18
9361.26715 4.08060e-18
9362.12861 3.70996e-18
9362.99007 3.33912e-18
9363.85153 3.12052e-18
9364.71299 2.90235e-18
9365.57446 2.84882e-18
9366.43592 2.79577e-18
9367.29738 2.88549e-18
9368.15884 2.97562e-18
9369.02030 3.09611e-18
9369.89178 3.21667e-18
9370.75324 3.23906e-18
9371.61471 3.26118e-18
9372.47617 3.19338e-18
9373.33763 3.12534e-18
9374.19909 3.01550e-18
9375.06056 2.90555e-18
9375.92202 2.82728e-18
9376.78348 2.74910e-18
9377.64494 2.79233e-18
9378.50640 2.83590e-18
9379.37788 2.96652e-18
9380.23934 3.09739e-18
9381.10081 3.19962e-18
9381.96227 3.30176e-18
9382.82373 3.33871e-18
9383.68519 3.37547e-18
9384.54665 3.38043e-18
9385.40812 3.38530e-18
9386.26958 3.36749e-18
9387.13104 3.34961e-18
9387.99250 3.29343e-18
9388.85396 3.23713e-18
9389.72544 3.14170e-18
9390.58691 3.04616e-18
9391.44837 2.92588e-18
9392.30983 2.80553e-18
9393.17129 2.68013e-18
9394.03275 2.55472e-18
9394.89422 2.45922e-18
9395.75568 2.36381e-18
9396.61714 2.32192e-18
9397.47860 2.28018e-18
9398.34006 2.27432e-18
9399.21154 2.26856e-18
9400.07300 2.27666e-18
9400.93447 2.28479e-18
9401.79593 2.28561e-18
9402.65739 2.28641e-18
9403.51885 2.26138e-18
9404.38031 2.23628e-18
9405.24178 2.20627e-18
9406.10324 2.17625e-18
9406.96470 2.17059e-18
9407.82616 2.16499e-18
9408.69764 2.18398e-18
9409.55910 2.20305e-18
9410.42057 2.23650e-18
9411.28203 2.27000e-18
9412.14349 2.30209e-18
9413.00495 2.33418e-18
9413.86641 2.34613e-18
9414.72788 2.35801e-18
9415.58934 2.33731e-18
9416.45080 2.31651e-18
9417.31226 2.25928e-18
9418.17372 2.20195e-18
9419.04520 2.11220e-18
9419.90666 2.02237e-18
9420.76813 1.90609e-18
9421.62959 1.78975e-18
9422.49105 1.68856e-18
9423.35251 1.58742e-18
9424.21397 1.60064e-18
9425.07544 1.61419e-18
9425.93690 1.77369e-18
9426.79836 1.93362e-18
9427.65982 2.13529e-18
9428.53130 2.33707e-18
9429.39276 2.48052e-18
9430.25423 2.62380e-18
9431.11569 2.61610e-18
9431.97715 2.60796e-18
9432.83861 2.40204e-18
9433.70007 2.19555e-18
9434.56153 1.95468e-18
9435.42300 1.71373e-18
9436.28446 1.60871e-18
9437.14592 1.50409e-18
9438.01740 1.56184e-18
9438.87886 1.62005e-18
9439.74032 1.82949e-18
9440.60179 2.03937e-18
9441.46325 2.29414e-18
9442.32471 2.54903e-18
9443.18617 2.71222e-18
9444.04763 2.87514e-18
9444.90910 2.90759e-18
9445.77056 2.93965e-18
9446.63202 2.84990e-18
9447.49348 2.75979e-18
9448.36496 2.59630e-18
9449.22642 2.43260e-18
9450.08788 2.27331e-18
9450.94935 2.11403e-18
9451.81081 2.00974e-18
9452.67227 1.90561e-18
9453.53373 1.87610e-18
9454.39520 1.84682e-18
9455.25666 1.89705e-18
9456.11812 1.94751e-18
9456.98960 2.06529e-18
9457.85106 2.18326e-18
9458.71252 2.33333e-18
9459.57398 2.48348e-18
9460.43545 2.59467e-18
9461.29691 2.70574e-18
9462.15837 2.73517e-18
9463.01983 2.76437e-18
9463.88129 2.74555e-18
9464.74276 2.72660e-18
9465.60422 2.69455e-18
9466.47570 2.66246e-18
9467.33716 2.63869e-18
9468.19862 2.61495e-18
9469.06008 2.61674e-18
9469.92155 2.61861e-18
9470.78301 2.61948e-18
9471.64447 2.62033e-18
9472.50593 2.59202e-18
9473.36739 2.56363e-18
9474.22885 2.52383e-18
9475.09032 2.48400e-18
9475.96180 2.45675e-18
9476.82326 2.42953e-18
9477.68472 2.46466e-18
9478.54618 2.49998e-18
9479.40764 2.65371e-18
9480.26911 2.80777e-18
9481.13057 3.01905e-18
9481.99203 3.23050e-18
9482.85349 3.38129e-18
9483.71495 3.53190e-18
9484.57642 3.55997e-18
9485.43788 3.58767e-18
9486.30936 3.47124e-18
9487.17082 3.35438e-18
9488.03228 3.14084e-18
9488.89374 2.92703e-18
9489.75520 2.74128e-18
9490.61667 2.55561e-18
9491.47813 2.47749e-18
9492.33959 2.39968e-18
9493.20105 2.42771e-18
9494.06252 2.45606e-18
9494.92398 2.58987e-18
9495.79546 2.72397e-18
9496.65692 2.98059e-18
9497.51838 3.23755e-18
9498.37984 3.58992e-18
9499.24130 3.94257e-18
9500.10277 4.25281e-18
9500.96423 4.56292e-18
9501.82569 4.71177e-18
9502.68715 4.86015e-18
9503.54861 4.82876e-18
9504.41008 4.79683e-18
9505.28155 4.59737e-18
9506.14302 4.39741e-18
9507.00448 4.13349e-18
9507.86594 3.86938e-18
9508.72740 3.66422e-18
9509.58887 3.45924e-18
9510.45033 3.32494e-18
9511.31179 3.19085e-18
9512.17325 3.10305e-18
9513.03471 3.01538e-18
9513.89617 2.99805e-18
9514.75764 2.98092e-18
9515.62912 3.06839e-18
9516.49058 3.15616e-18
9517.35204 3.33841e-18
9518.21350 3.52093e-18
9519.07496 3.76431e-18
9519.93643 4.00787e-18
9520.79789 4.25314e-18
9521.65935 4.49841e-18
9522.52081 4.66396e-18
9523.38227 4.82928e-18
9524.24374 4.88763e-18
9525.11522 4.94567e-18
9525.97668 4.93969e-18
9526.83814 4.93354e-18
9527.69960 4.90278e-18
9528.56106 4.87195e-18
9529.42252 4.84764e-18
9530.28399 4.82336e-18
9531.14545 4.82302e-18
9532.00691 4.82276e-18
9532.86837 4.81865e-18
9533.72984 4.81453e-18
9534.60131 4.78322e-18
9535.46278 4.75182e-18
9536.32424 4.68621e-18
9537.18570 4.62051e-18
9538.04716 4.52437e-18
9538.90862 4.42814e-18
9539.77009 4.38921e-18
9540.63155 4.35045e-18
9541.49301 4.45153e-18
9542.35447 4.55303e-18
9543.21593 4.73480e-18
9544.08741 4.91681e-18
9544.94888 5.09097e-18
9545.81034 5.26509e-18
9546.67180 5.34549e-18
9547.53326 5.42558e-18
9548.39472 5.32383e-18
9549.25619 5.22159e-18
9550.11765 5.04020e-18
9550.97911 4.85858e-18
9551.84057 4.80386e-18
9552.70203 4.74951e-18
9553.57351 4.83548e-18
9554.43497 4.92185e-18
9555.29644 5.02656e-18
9556.15790 5.13129e-18
9557.01936 5.17256e-18
9557.88082 5.21362e-18
9558.74228 5.13672e-18
9559.60375 5.05951e-18
9560.46521 4.89838e-18
9561.32667 4.73704e-18
9562.18813 4.67797e-18
9563.05961 4.61921e-18
9563.92107 4.75828e-18
9564.78254 4.89793e-18
9565.64400 5.13622e-18
9566.50546 5.37480e-18
9567.36692 5.60588e-18
9568.22838 5.83690e-18
9569.08985 5.93371e-18
9569.95131 6.03019e-18
9570.81277 5.90534e-18
9571.67423 5.77985e-18
9572.53569 5.54335e-18
9573.40717 5.30656e-18
9574.26863 5.08913e-18
9575.13010 4.87180e-18
9575.99156 4.76083e-18
9576.85302 4.65019e-18
9577.71448 4.71470e-18
9578.57594 4.77973e-18
9579.43741 4.91125e-18
9580.29887 5.04293e-18
9581.16033 5.08300e-18
9582.02179 5.12283e-18
9582.89327 5.05050e-18
9583.75473 4.97787e-18
9584.61620 4.82424e-18
9585.47766 4.67034e-18
9586.33912 4.54619e-18
9587.20058 4.42211e-18
9588.06204 4.49613e-18
9588.92351 4.57074e-18
9589.78497 4.82183e-18
9590.64643 5.07345e-18
9591.51791 5.30805e-18
9592.37937 5.54266e-18
9593.24083 5.65645e-18
9594.10229 5.76994e-18
9594.96376 5.77293e-18
9595.82522 5.77562e-18
9596.68668 5.68881e-18
9597.54814 5.60174e-18
9598.40960 5.47406e-18
9599.27107 5.34633e-18
9600.13253 5.23184e-18
9600.99399 5.11735e-18
9601.86547 5.05876e-18
9602.72693 5.00032e-18
9603.58839 5.02551e-18
9604.44986 5.05100e-18
9605.31132 5.15533e-18
9606.17278 5.25992e-18
9607.03424 5.41990e-18
9607.89570 5.57999e-18
9608.75717 5.69388e-18
9609.61863 5.80763e-18
9610.48009 5.77736e-18
9611.35157 5.74665e-18
9612.21303 5.61379e-18
9613.07449 5.48068e-18
9613.93595 5.32368e-18
9614.79742 5.16658e-18
9615.65888 5.03995e-18
9616.52034 4.91338e-18
9617.38180 4.86255e-18
9618.24326 4.81196e-18
9619.10473 4.84864e-18
9619.96619 4.88558e-18
9620.82765 4.99714e-18
9621.69913 5.10894e-18
9622.56059 5.25514e-18
9623.42205 5.40144e-18
9624.28352 5.52628e-18
9625.14498 5.65107e-18
9626.00644 5.70120e-18
9626.86790 5.75108e-18
9627.72936 5.67646e-18
9628.59083 5.60149e-18
9629.45229 5.41682e-18
9630.31375 5.23184e-18
9631.17521 5.04642e-18
9632.04669 4.86096e-18
9632.90815 4.75961e-18
9633.76961 4.65850e-18
9634.63108 4.67423e-18
9635.49254 4.69031e-18
9636.35400 4.81964e-18
9637.21546 4.94931e-18
9638.07692 5.06956e-18
9638.93839 5.18978e-18
9639.79985 5.19954e-18
9640.67133 5.20894e-18
9641.53279 5.17151e-18
9642.39425 5.13393e-18
9643.25571 5.12328e-18
9644.11718 5.11272e-18
9644.97864 5.14672e-18
9645.84010 5.18092e-18
9646.70156 5.26684e-18
9647.56302 5.35290e-18
9648.42448 5.43334e-18
9649.28595 5.51374e-18
9650.15743 5.51394e-18
9651.01889 5.51384e-18
9651.88035 5.43349e-18
9652.74181 5.35290e-18
9653.60327 5.22557e-18
9654.46474 5.09804e-18
9655.32620 4.96974e-18
9656.18766 4.84142e-18
9657.04912 4.76532e-18
9657.91058 4.68937e-18
9658.77205 4.69515e-18
9659.64352 4.70118e-18
9660.50499 4.79612e-18
9661.36645 4.89133e-18
9662.22791 5.04537e-18
9663.08937 5.19959e-18
9663.95083 5.33424e-18
9664.81230 5.46884e-18
9665.67376 5.53867e-18
9666.53522 5.60836e-18
9667.39668 5.63743e-18
9668.25815 5.66641e-18
9669.11961 5.66850e-18
9669.99109 5.67049e-18
9670.85255 5.62235e-18
9671.71401 5.57402e-18
9672.57547 5.46928e-18
9673.43693 5.36435e-18
9674.29840 5.24583e-18
9675.15986 5.12721e-18
9676.02132 5.03761e-18
9676.88278 4.94811e-18
9677.74424 4.91727e-18
9678.61572 4.88660e-18
9679.47718 4.93427e-18
9680.33865 4.98215e-18
9681.20011 5.06907e-18
9682.06157 5.15603e-18
9682.92303 5.22746e-18
9683.78449 5.29884e-18
9684.64596 5.33862e-18
9685.50742 5.37824e-18
9686.36888 5.38411e-18
9687.23034 5.38989e-18
9688.10182 5.36754e-18
9688.96328 5.34514e-18
9689.82475 5.30840e-18
9690.68621 5.27161e-18
9691.54767 5.22298e-18
9692.40913 5.17430e-18
9693.27059 5.10645e-18
9694.13206 5.03850e-18
9694.99352 4.96143e-18
9695.85498 4.88433e-18
9696.71644 4.82542e-18
9697.57790 4.76657e-18
9698.44938 4.73943e-18
9699.31084 4.71239e-18
9700.17231 4.71186e-18
9701.03377 4.71141e-18
9701.89523 4.72628e-18
9702.75669 4.74121e-18
9703.61816 4.74659e-18
9704.47962 4.75194e-18
9705.34108 4.73174e-18
9706.20254 4.71148e-18
9707.06400 4.68121e-18
9707.93548 4.65092e-18
9708.79694 4.62668e-18
9709.65841 4.60246e-18
9710.51987 4.59299e-18
9711.38133 4.58357e-18
9712.24279 4.59462e-18
9713.10425 4.60572e-18
9713.96572 4.62199e-18
9714.82718 4.63828e-18
9715.68864 4.64142e-18
9716.55010 4.64452e-18
9717.41156 4.62925e-18
9718.28304 4.61393e-18
9719.14451 4.57815e-18
9720.00597 4.54231e-18
9720.86743 4.50515e-18
9721.72889 4.46799e-18
9722.59035 4.45890e-18
9723.45182 4.44989e-18
9724.31328 4.45593e-18
9725.17474 4.46203e-18
9726.03620 4.44480e-18
9726.89766 4.42750e-18
9727.76914 4.37339e-18
9728.63060 4.31918e-18
9729.49207 4.23534e-18
9730.35353 4.15142e-18
9731.21499 4.05573e-18
9732.07645 3.96001e-18
9732.93791 3.88538e-18
9733.79938 3.81081e-18
9734.66084 3.77772e-18
9735.52230 3.74475e-18
9736.38376 3.74921e-18
9737.25524 3.75379e-18
9738.11670 3.78659e-18
9738.97817 3.81947e-18
9739.83963 3.86245e-18
9740.70109 3.90546e-18
9741.56255 3.94067e-18
9742.42401 3.97587e-18
9743.28548 3.99380e-18
9744.14694 4.01169e-18
9745.00840 4.00670e-18
9745.86986 4.00166e-18
9746.74134 3.98141e-18
9747.60280 3.96112e-18
9748.46426 3.93610e-18
9749.32573 3.91107e-18
9750.18719 3.88377e-18
9751.04865 3.85647e-18
9751.91011 3.82822e-18
9752.77157 3.79996e-18
9753.63304 3.76981e-18
9754.49450 3.73966e-18
9755.35596 3.70567e-18
9756.22744 3.67167e-18
9757.08890 3.64091e-18
9757.95036 3.61016e-18
9758.81183 3.59308e-18
9759.67329 3.57604e-18
9760.53475 3.58072e-18
9761.39621 3.58547e-18
9762.25767 3.61885e-18
9763.11913 3.65232e-18
9763.98060 3.70389e-18
9764.84206 3.75551e-18
9765.71354 3.79567e-18
9766.57500 3.83580e-18
9767.43646 3.85004e-18
9768.29792 3.86419e-18
9769.15939 3.86202e-18
9770.02085 3.85980e-18
9770.88231 3.84933e-18
9771.74377 3.83883e-18
9772.60523 3.82410e-18
9773.46670 3.80937e-18
9774.32816 3.79554e-18
9775.19964 3.78170e-18
9776.06110 3.77282e-18
9776.92256 3.76395e-18
9777.78402 3.76273e-18
9778.64548 3.76153e-18
9779.50695 3.77144e-18
9780.36841 3.78138e-18
9781.22987 3.80337e-18
9782.09133 3.82539e-18
9782.95280 3.84043e-18
9783.81426 3.85544e-18
9784.68574 3.84284e-18
9785.54720 3.83015e-18
9786.40866 3.79993e-18
9787.27012 3.76966e-18
9788.13158 3.74067e-18
9788.99305 3.71169e-18
9789.85451 3.69058e-18
9790.71597 3.66949e-18
9791.57743 3.65901e-18
9792.43889 3.64857e-18
9793.30036 3.64166e-18
9794.16182 3.63476e-18
9795.03330 3.61655e-18
9795.89476 3.59831e-18
9796.75622 3.57315e-18
9797.61768 3.54797e-18
9798.47915 3.53756e-18
9799.34061 3.52720e-18
9800.20207 3.53880e-18
9801.06353 3.55047e-18
9801.92499 3.57378e-18
9802.78645 3.59713e-18
9803.64792 3.62178e-18
9804.51940 3.64642e-18
9805.38086 3.66021e-18
9806.24232 3.67397e-18
9807.10378 3.67099e-18
9807.96524 3.66795e-18
9808.82671 3.65990e-18
9809.68817 3.65183e-18
9810.54963 3.64982e-18
9811.41109 3.64784e-18
9812.27255 3.65892e-18
9813.13402 3.67005e-18
9813.99548 3.69749e-18
9814.86696 3.72498e-18
9815.72842 3.74925e-18
9816.58988 3.77350e-18
9817.45134 3.77386e-18
9818.31280 3.77414e-18
9819.17427 3.75334e-18
9820.03573 3.73248e-18
9820.89719 3.69925e-18
9821.75865 3.66598e-18
9822.62012 3.63313e-18
9823.48158 3.60029e-18
9824.35306 3.58274e-18
9825.21452 3.56525e-18
9826.07598 3.56083e-18
9826.93744 3.55645e-18
9827.79890 3.55308e-18
9828.66037 3.54972e-18
9829.52183 3.54441e-18
9830.38329 3.53910e-18
9831.24475 3.53543e-18
9832.10621 3.53178e-18
9832.97769 3.52893e-18
9833.83915 3.52608e-18
9834.70062 3.51936e-18
9835.56208 3.51262e-18
9836.42354 3.49986e-18
9837.28500 3.48707e-18
9838.14647 3.46954e-18
9839.00793 3.45199e-18
9839.86939 3.43110e-18
9840.73085 3.41021e-18
9841.59231 3.38673e-18
9842.45377 3.36323e-18
9843.32525 3.33982e-18
9844.18672 3.31641e-18
9845.04818 3.30137e-18
9845.90964 3.28635e-18
9846.77110 3.28621e-18
9847.63256 3.28612e-18
9848.49403 3.29887e-18
9849.35549 3.31165e-18
9850.21695 3.33357e-18
9851.07841 3.35552e-18
9851.93987 3.38305e-18
9852.81135 3.41061e-18
9853.67282 3.43958e-18
9854.53428 3.46855e-18
9855.39574 3.49631e-18
9856.25720 3.52406e-18
9857.11866 3.54864e-18
9857.98013 3.57322e-18
9858.84159 3.58937e-18
9859.70305 3.60550e-18
9860.56451 3.60720e-18
9861.42597 3.60887e-18
9862.29745 3.59530e-18
9863.15891 3.58169e-18
9864.02038 3.55545e-18
9864.88184 3.52916e-18
9865.74330 3.49501e-18
9866.60476 3.46084e-18
9867.46622 3.42565e-18
9868.32769 3.39047e-18
9869.18915 3.35816e-18
9870.05061 3.32586e-18
9870.92209 3.29599e-18
9871.78355 3.26612e-18
9872.64501 3.23918e-18
9873.50648 3.21226e-18
9874.36794 3.19058e-18
9875.22940 3.16891e-18
9876.09086 3.15430e-18
9876.95232 3.13971e-18
9877.81379 3.13386e-18
9878.67525 3.12803e-18
9879.53671 3.13170e-18
9880.39817 3.13540e-18
9881.26965 3.14743e-18
9882.13111 3.15948e-18
9882.99257 3.17770e-18
9883.85404 3.19594e-18
9884.71550 3.21642e-18
9885.57696 3.23690e-18
9886.43842 3.25537e-18
9887.29988 3.27383e-18
9888.16135 3.28629e-18
9889.02281 3.29874e-18
9889.88427 3.30185e-18
9890.74573 3.30493e-18
9891.61721 3.29860e-18
9892.47867 3.29225e-18
9893.34014 3.27818e-18
9894.20160 3.26408e-18
9895.06306 3.24407e-18
9895.92452 3.22404e-18
9896.78598 3.20000e-18
9897.64745 3.17596e-18
9898.50891 3.15101e-18
9899.37037 3.12606e-18
9900.23183 3.10434e-18
9901.09329 3.08264e-18
9901.96477 3.06483e-18
9902.82623 3.04703e-18
9903.68770 3.02961e-18
9904.54916 3.01221e-18
9905.41062 2.99600e-18
9906.27208 2.97979e-18
9907.13354 2.97244e-18
9907.99501 2.96510e-18
9908.85647 2.97022e-18
9909.71793 2.97537e-18
9910.57939 2.98949e-18
9911.45087 3.00363e-18
9912.31233 3.02107e-18
9913.17380 3.03852e-18
9914.03526 3.04728e-18
9914.89672 3.05603e-18
9915.75818 3.04659e-18
9916.61964 3.03711e-18
9917.48111 3.01281e-18
9918.34257 2.98847e-18
9919.20403 2.95513e-18
9920.07551 2.92176e-18
9920.93697 2.88599e-18
9921.79843 2.85022e-18
9922.65989 2.81874e-18
9923.52136 2.78729e-18
9924.38282 2.76307e-18
9925.24428 2.73887e-18
9926.10574 2.72305e-18
9926.96720 2.70726e-18
9927.82867 2.69547e-18
9928.69013 2.68368e-18
9929.56161 2.66895e-18
9930.42307 2.65422e-18
9931.28453 2.63428e-18
9932.14599 2.61433e-18
9933.00746 2.59018e-18
9933.86892 2.56602e-18
9934.73038 2.53971e-18
9935.59184 2.51339e-18
9936.45330 2.48787e-18
9937.31477 2.46236e-18
9938.17623 2.44155e-18
9939.03769 2.42076e-18
9939.90917 2.40957e-18
9940.77063 2.39841e-18
9941.63209 2.39820e-18
9942.49355 2.39802e-18
9943.35502 2.40369e-18
9944.21648 2.40938e-18
9945.07794 2.41654e-18
9945.93940 2.42370e-18
9946.80086 2.43124e-18
9947.66233 2.43879e-18
9948.52379 2.44544e-18
9949.39527 2.45208e-18
9950.25673 2.45540e-18
9951.11819 2.45870e-18
9951.97965 2.45711e-18
9952.84112 2.45552e-18
9953.70258 2.45218e-18
9954.56404 2.44884e-18
9955.42550 2.44722e-18
9956.28696 2.44561e-18
9957.14843 2.44339e-18
9958.00989 2.44117e-18
9958.88137 2.43516e-18
9959.74283 2.42913e-18
9960.60429 2.41768e-18
9961.46575 2.40622e-18
9962.32721 2.38829e-18
9963.18868 2.37033e-18
9964.05014 2.35127e-18
9964.91160 2.33222e-18
9965.77306 2.32101e-18
9966.63452 2.30983e-18
9967.49599 2.30858e-18
9968.36747 2.30736e-18
9969.22893 2.31260e-18
9970.09039 2.31785e-18
9970.95185 2.32905e-18
9971.81331 2.34026e-18
9972.67477 2.35999e-18
9973.53624 2.37973e-18
9974.39770 2.40691e-18
9975.25916 2.43411e-18
9976.12062 2.46293e-18
9976.98208 2.49174e-18
9977.85356 2.51757e-18
9978.71503 2.54338e-18
9979.57649 2.56400e-18
9980.43795 2.58461e-18
9981.29941 2.59924e-18
9982.16087 2.61386e-18
9983.02234 2.62562e-18
9983.88380 2.63738e-18
9984.74526 2.64941e-18
9985.60672 2.66145e-18
9986.46818 2.67531e-18
9987.32965 2.68917e-18
9988.20112 2.70568e-18
9989.06259 2.72218e-18
9989.92405 2.73551e-18
9990.78551 2.74882e-18
9991.64697 2.75238e-18
9992.50843 2.75591e-18
9993.36990 2.75465e-18
9994.23136 2.75338e-18
9995.09282 2.75575e-18
9995.95428 2.75814e-18
9996.81574 2.76271e-18
9997.67721 2.76729e-18
9998.54869 2.76867e-18
9999.41015 2.77003e-18
