# wavelength flux
4058.95009 6.22596e-18
4062.55801 6.23470e-18
4066.15591 6.46241e-18
4069.76383 5.45134e-18
4073.37175 5.71102e-18
4076.96964 6.05337e-18
4080.57756 5.46316e-18
4084.18548 3.94442e-18
4087.78338 1.04370e-19
4091.39130 2.39944e-18
4094.99922 3.31809e-18
4098.60714 3.53045e-18
4102.20504 3.07042e-18
4105.81296 1.03611e-17
4109.42088 9.19510e-18
4113.01878 4.93245e-18
4116.62670 1.52282e-18
4120.23462 3.29181e-18
4123.83252 5.83287e-18
4127.44044 5.15789e-18
4131.04836 3.85998e-18
4134.65628 2.46082e-18
4138.25417 3.54305e-18
4141.86209 3.11939e-18
4145.47001 4.02282e-18
4149.06791 4.13029e-18
4152.67583 2.74334e-18
4156.28375 4.56538e-18
4159.89167 6.92741e-18
4163.48957 9.08780e-18
4167.09749 9.48068e-18
4170.70541 7.75637e-18
4174.30331 6.09114e-18
4177.91123 2.24645e-18
4181.51915 2.79662e-18
4185.12707 8.18989e-19
4188.72497 3.15056e-18
4192.33289 3.15640e-18
4195.94081 1.80613e-18
4199.53870 2.60843e-18
4203.14662 8.87157e-18
4206.75454 1.25850e-17
4210.35244 1.06941e-17
4213.96036 7.07777e-18
4217.56828 4.98423e-18
4221.17620 6.36192e-18
4224.77410 3.99183e-18
4228.38202 2.18322e-18
4231.98994 5.70096e-19
4235.58784 9.36731e-19
4239.19576 4.69040e-18
4242.80368 7.78900e-18
4246.40158 1.06108e-17
4250.00950 1.02184e-17
4253.61742 9.63344e-18
4257.22534 8.79062e-18
4260.82323 6.96224e-18
4264.43115 5.22919e-18
4268.03907 4.65713e-18
4271.63697 6.01093e-18
4275.24489 7.63326e-18
4278.85281 9.42070e-18
4282.46073 8.83414e-18
4286.05863 5.04061e-18
4289.66655 3.78661e-18
4293.27447 6.17073e-18
4296.87237 7.97622e-18
4300.48029 6.26319e-18
4304.08821 6.02221e-18
4307.69613 7.12242e-18
4311.29403 5.78963e-18
4314.90195 1.83746e-18
4318.50987 8.19296e-19
4322.10776 -6.56281e-21
4325.71568 1.75698e-19
4329.32360 1.38288e-18
4332.92150 2.08790e-18
4336.52942 3.15552e-18
4340.13734 4.75692e-18
4343.74526 5.50384e-18
4347.34316 5.56627e-18
4350.95108 3.95034e-18
4354.55900 5.48113e-18
4358.15690 6.06343e-18
4361.76482 7.21793e-18
4365.37274 4.72875e-18
4368.98066 2.96408e-18
4372.57856 3.41846e-18
4376.18648 6.55269e-18
4379.79440 9.24054e-18
4383.39229 8.14875e-18
4387.00021 6.06125e-18
4390.60813 2.69803e-18
4394.20603 3.10792e-18
4397.81395 4.34725e-18
4401.42187 5.96310e-18
4405.02979 6.75415e-18
4408.62769 3.79473e-18
4412.23561 3.34079e-18
4415.84353 1.63696e-18
4419.44143 1.77676e-18
4423.04935 2.33815e-18
4426.65727 1.71454e-18
4430.26519 1.06235e-18
4433.86309 1.37584e-18
4437.47101 2.71533e-18
4441.07893 6.12498e-18
4444.67682 7.03173e-18
4448.28474 7.82679e-18
4451.89266 4.90709e-18
4455.49056 3.15650e-18
4459.09848 3.31881e-18
4462.70640 3.60739e-18
4466.31432 4.08965e-18
4469.91222 2.78930e-18
4473.52014 4.49848e-18
4477.12806 4.96863e-18
4480.72596 7.68443e-18
4484.33388 8.79785e-18
4487.94180 7.76555e-18
4491.54972 7.14578e-18
4495.14762 8.70246e-18
4498.75554 1.24217e-17
4502.36346 1.30062e-17
4505.96135 9.86235e-18
4509.56927 8.07187e-18
4513.17719 8.03179e-18
4516.78511 1.01584e-17
4520.38301 1.16406e-17
4523.99093 1.15851e-17
4527.59885 7.79251e-18
4531.19675 5.91786e-18
4534.80467 8.19134e-18
4538.41259 1.03820e-17
4542.01049 1.13249e-17
4545.61841 1.01812e-17
4549.22633 1.24671e-17
4552.83425 1.18751e-17
4556.43215 1.02057e-17
4560.04007 1.08503e-17
4563.64799 1.20171e-17
4567.24588 1.49362e-17
4570.85380 1.44162e-17
4574.46172 1.28277e-17
4578.06964 1.17129e-17
4581.66754 8.84965e-18
4585.27546 9.44982e-18
4588.88338 1.01442e-17
4592.48128 1.42347e-17
4596.08920 1.60794e-17
4599.69712 1.50889e-17
4603.29502 1.29313e-17
4606.90294 1.07131e-17
4610.51086 1.02568e-17
4614.11878 8.87697e-18
4617.71668 8.11431e-18
4621.32460 9.38735e-18
4624.93252 1.07714e-17
4628.53041 1.35209e-17
4632.13833 1.26476e-17
4635.74625 1.15591e-17
4639.35417 9.29989e-18
4642.95207 9.59276e-18
4646.55999 1.08137e-17
4650.16791 1.22066e-17
4653.76581 1.25685e-17
4657.37373 1.37978e-17
4660.98165 1.34466e-17
4664.57955 1.28066e-17
4668.18747 1.19396e-17
4671.79539 1.26791e-17
4675.40331 1.23951e-17
4679.00121 7.91040e-18
4682.60913 5.87537e-18
4686.21705 3.96440e-18
4689.81494 8.20101e-18
4693.42286 1.07341e-17
4697.03078 1.22152e-17
4700.63870 9.87900e-18
4704.23660 8.09352e-18
4707.84452 7.76854e-18
4711.45244 1.05147e-17
4715.05034 1.13631e-17
4718.65826 1.22414e-17
4722.26618 1.13319e-17
4725.87410 1.10202e-17
4729.47200 1.00716e-17
4733.07992 9.28119e-18
4736.68784 9.26960e-18
4740.28574 1.03387e-17
4743.89366 1.07589e-17
4747.50158 1.09506e-17
4751.09947 9.58910e-18
4754.70739 9.09206e-18
4758.31531 8.94477e-18
4761.92323 1.00832e-17
4765.52113 1.07576e-17
4769.12905 1.07980e-17
4772.73697 1.04881e-17
4776.33487 1.03456e-17
4779.94279 9.41458e-18
4783.55071 7.68599e-18
4787.14861 7.22303e-18
4790.75653 8.51420e-18
4794.36445 1.07642e-17
4797.97237 1.16648e-17
4801.57027 1.08043e-17
4805.17819 1.05492e-17
4808.78611 1.08665e-17
4812.38400 1.16727e-17
4815.99192 1.13367e-17
4819.59984 1.01935e-17
4823.20776 9.21632e-18
4826.80566 9.17291e-18
4830.41358 1.01470e-17
4834.02150 1.15852e-17
4837.61940 1.08814e-17
4841.22732 9.85823e-18
4844.83524 9.66510e-18
4848.43314 1.04940e-17
4852.04106 1.19505e-17
4855.64898 1.14245e-17
4859.25690 1.07033e-17
4862.85480 9.20868e-18
4866.46272 9.02099e-18
4870.07064 9.30710e-18
4873.66853 9.21916e-18
4877.27645 9.14382e-18
4880.88437 1.00405e-17
4884.49229 1.07148e-17
4888.09019 1.03466e-17
4891.69811 9.63165e-18
4895.30603 9.25065e-18
4898.90393 9.10435e-18
4902.51185 8.92519e-18
4906.11977 8.70319e-18
4909.71767 9.58541e-18
4913.32559 1.10624e-17
4916.93351 1.23359e-17
4920.54143 1.20605e-17
4924.13933 1.15314e-17
4927.74725 1.10062e-17
4931.35517 1.10631e-17
4934.95306 1.06566e-17
4938.56098 9.22625e-18
4942.16890 9.04393e-18
4945.77682 8.83398e-18
4949.37472 8.93602e-18
4952.98264 7.76237e-18
4956.59056 5.81544e-18
4960.18846 5.90133e-18
4963.79638 7.16988e-18
4967.40430 8.92906e-18
4971.01222 9.52702e-18
4974.61012 9.37034e-18
4978.21804 8.40232e-18
4981.82596 8.07762e-18
4985.42386 9.06101e-18
4989.03178 1.08468e-17
4992.63970 1.13235e-17
4996.23759 1.03149e-17
4999.84551 9.99945e-18
5003.45343 1.06130e-17
5007.06135 1.04619e-17
5010.65925 1.01242e-17
5014.26717 9.67001e-18
5017.87509 1.04917e-17
5021.47299 1.01762e-17
5025.08091 9.85385e-18
5028.68883 9.18148e-18
5032.29675 9.52702e-18
5035.89465 1.05881e-17
5039.50257 1.07344e-17
5043.11049 1.00041e-17
5046.70839 8.80787e-18
5050.31631 9.36564e-18
5053.92423 1.02357e-17
5057.52212 1.08675e-17
5061.13004 9.85031e-18
5064.73796 9.44640e-18
5068.34588 8.09390e-18
5071.94378 8.03662e-18
5075.55170 7.99752e-18
5079.15962 9.20300e-18
5082.75752 1.00725e-17
5086.36544 9.87341e-18
5089.97336 1.01852e-17
5093.58128 9.96033e-18
5097.17918 1.05918e-17
5100.78710 1.03691e-17
5104.39502 1.00137e-17
5107.99292 1.01888e-17
5111.60084 1.09089e-17
5115.20876 1.12433e-17
5118.80665 1.05717e-17
5122.41457 9.18134e-18
5126.02249 8.33862e-18
5129.63041 7.98564e-18
5133.22831 8.65866e-18
5136.83623 1.01714e-17
5140.44415 1.13971e-17
5144.04205 1.11284e-17
5147.64997 9.29553e-18
5151.25789 9.49213e-18
5154.86581 9.32885e-18
5158.46371 1.00341e-17
5162.07163 9.73442e-18
5165.67955 1.01569e-17
5169.27745 1.06517e-17
5172.88537 1.06048e-17
5176.49329 1.16675e-17
5180.10121 1.19307e-17
5183.69910 1.19225e-17
5187.30702 1.11828e-17
5190.91494 1.15536e-17
5194.51284 1.17943e-17
5198.12076 1.18435e-17
5201.72868 1.13612e-17
5205.32658 1.15312e-17
5208.93450 1.14359e-17
5212.54242 1.18914e-17
5216.15034 1.23695e-17
5219.74824 1.28447e-17
5223.35616 1.29610e-17
5226.96408 1.23563e-17
5230.56198 1.23204e-17
5234.16990 1.22857e-17
5237.77782 1.24996e-17
5241.38574 1.20296e-17
5244.98363 1.14808e-17
5248.59155 1.15002e-17
5252.19947 1.24271e-17
5255.79737 1.33387e-17
5259.40529 1.32870e-17
5263.01321 1.32547e-17
5266.61111 1.37270e-17
5270.21903 1.34490e-17
5273.82695 1.33621e-17
5277.43487 1.32928e-17
5281.03277 1.35728e-17
5284.64069 1.35666e-17
5288.24861 1.34010e-17
5291.84651 1.31965e-17
5295.45443 1.26425e-17
5299.06235 1.29717e-17
5302.67027 1.38224e-17
5306.26816 1.49971e-17
5309.87608 1.64793e-17
5313.48400 1.67520e-17
5317.08190 1.64299e-17
5320.68982 1.51731e-17
5324.29774 1.48418e-17
5327.89564 1.46875e-17
5331.50356 1.43843e-17
5335.11148 1.43849e-17
5338.71940 1.49299e-17
5342.31730 1.49988e-17
5345.92522 1.51590e-17
5349.53314 1.49509e-17
5353.13104 1.52453e-17
5356.73896 1.55004e-17
5360.34688 1.57000e-17
5363.95480 1.51308e-17
5367.55269 1.53386e-17
5371.16061 1.58261e-17
5374.76853 1.67503e-17
5378.36643 1.65906e-17
5381.97435 1.59290e-17
5385.58227 1.56064e-17
5389.18017 1.58024e-17
5392.78809 1.60248e-17
5396.39601 1.58531e-17
5400.00393 1.58697e-17
5403.60183 1.60797e-17
5407.20975 1.62727e-17
5410.81767 1.54166e-17
5414.41557 1.47358e-17
5418.02349 1.42185e-17
5421.63141 1.44055e-17
5425.23933 1.47356e-17
5428.83722 1.49600e-17
5432.44514 1.50152e-17
5436.05306 1.45861e-17
5439.65096 1.46741e-17
5443.25888 1.56956e-17
5446.86680 1.67491e-17
5450.46470 1.71187e-17
5454.07262 1.67387e-17
5457.68054 1.56412e-17
5461.28846 1.59129e-17
5464.88636 1.62245e-17
5468.49428 1.73609e-17
5472.10220 1.66421e-17
5475.70010 1.59892e-17
5479.30802 1.60501e-17
5482.91594 1.70071e-17
5486.52386 1.65007e-17
5490.12175 1.58451e-17
5493.72967 1.55827e-17
5497.33759 1.69358e-17
5500.93549 1.69215e-17
5504.54341 1.64463e-17
5508.15133 1.56462e-17
5511.74923 1.60005e-17
5515.35715 1.62308e-17
5518.96507 1.55976e-17
5522.57299 1.44451e-17
5526.17089 1.41190e-17
5529.77881 1.49918e-17
5533.38673 1.56606e-17
5536.98463 1.58994e-17
5540.59255 1.60394e-17
5544.20047 1.60730e-17
5547.80839 1.60462e-17
5551.40628 1.51790e-17
5555.01420 1.47874e-17
5558.62212 1.37986e-17
5562.22002 1.41604e-17
5565.82794 1.48453e-17
5569.43586 1.48112e-17
5573.03376 1.49103e-17
5576.64168 1.49765e-17
5580.24960 1.55153e-17
5583.85752 1.50930e-17
5587.45542 1.53243e-17
5591.06334 1.51940e-17
5594.67126 1.48713e-17
5598.26916 1.41063e-17
5601.87708 1.46436e-17
5605.48500 1.49390e-17
5609.09292 1.49828e-17
5612.69081 1.47030e-17
5616.29873 1.46886e-17
5619.90665 1.45122e-17
5623.50455 1.40503e-17
5627.11247 1.38636e-17
5630.72039 1.38958e-17
5634.32831 1.42031e-17
5637.92621 1.42543e-17
5641.53413 1.39883e-17
5645.14205 1.43085e-17
5648.73995 1.48641e-17
5652.34787 1.44255e-17
5655.95579 1.40851e-17
5659.55369 1.32525e-17
5663.16161 1.32240e-17
5666.76953 1.28662e-17
5670.37745 1.27186e-17
5673.97534 1.20730e-17
5677.58326 1.06946e-17
5681.19118 1.04722e-17
5684.78908 1.09337e-17
5688.39700 1.21091e-17
5692.00492 1.17227e-17
5695.60282 1.09464e-17
5699.21074 1.05483e-17
5702.81866 1.07652e-17
5706.42658 1.15992e-17
5710.02448 1.21121e-17
5713.63240 1.22697e-17
5717.24032 1.19540e-17
5720.83822 1.14116e-17
5724.44614 1.13005e-17
5728.05406 1.13758e-17
5731.66198 1.08180e-17
5735.25987 1.08530e-17
5738.86779 1.13981e-17
5742.47571 1.23758e-17
5746.07361 1.32082e-17
5749.68153 1.33377e-17
5753.28945 1.23672e-17
5756.89737 1.08479e-17
5760.49527 1.00525e-17
5764.10319 1.00494e-17
5767.71111 1.08984e-17
5771.30901 1.19766e-17
5774.91693 1.22821e-17
5778.52485 1.22665e-17
5782.12275 1.21712e-17
5785.73067 1.32340e-17
5789.33859 1.37282e-17
5792.94651 1.35997e-17
5796.54440 1.34004e-17
5800.15232 1.37365e-17
5803.76024 1.38646e-17
5807.35814 1.36403e-17
5810.96606 1.39109e-17
5814.57398 1.46443e-17
5818.18190 1.38375e-17
5821.77980 1.25335e-17
5825.38772 1.25164e-17
5828.99564 1.41927e-17
5832.59354 1.50105e-17
5836.20146 1.48890e-17
5839.80938 1.51347e-17
5843.40728 1.51737e-17
5847.01520 1.46167e-17
5850.62312 1.41010e-17
5854.23104 1.42545e-17
5857.82893 1.44851e-17
5861.43685 1.47837e-17
5865.04477 1.51707e-17
5868.64267 1.48479e-17
5872.25059 1.42243e-17
5875.85851 1.38371e-17
5879.46643 1.34789e-17
5883.06433 1.27586e-17
5886.67225 1.21964e-17
5890.28017 1.22940e-17
5893.87807 1.22789e-17
5897.48599 1.21785e-17
5901.09391 1.26279e-17
5904.69181 1.34632e-17
5908.29973 1.23870e-17
5911.90765 1.18004e-17
5915.51557 1.13838e-17
5919.11346 1.31159e-17
5922.72138 1.27152e-17
5926.32930 1.39222e-17
5929.92720 1.43193e-17
5933.53512 1.66789e-17
5937.14304 1.74047e-17
5940.75096 1.79222e-17
5944.34886 1.69342e-17
5947.95678 1.48646e-17
5951.56470 1.36608e-17
5955.16260 1.35230e-17
5958.77052 1.36697e-17
5962.37844 1.29187e-17
5965.98636 1.23962e-17
5969.58426 1.24036e-17
5973.19218 1.27659e-17
5976.80010 1.30077e-17
5980.39799 1.29740e-17
5984.00591 1.36522e-17
5987.61383 1.41342e-17
5991.21173 1.47290e-17
5994.81965 1.40705e-17
5998.42757 1.35559e-17
6002.03549 1.32680e-17
6005.63339 1.36457e-17
6009.24131 1.26342e-17
6012.84923 1.20663e-17
6016.44713 1.25130e-17
6020.05505 1.40328e-17
6023.66297 1.42555e-17
6027.27089 1.33573e-17
6030.86879 1.35327e-17
6034.47671 1.40263e-17
6038.08463 1.45177e-17
6041.68252 1.45625e-17
6045.29044 1.49139e-17
6048.89836 1.53450e-17
6052.49626 1.48038e-17
6056.10418 1.39866e-17
6059.71210 1.28233e-17
6063.32002 1.18009e-17
6066.91792 1.19655e-17
6070.52584 1.19886e-17
6074.13376 1.18495e-17
6077.73166 1.26569e-17
6081.33958 1.29904e-17
6084.94750 1.33362e-17
6088.55542 1.31601e-17
6092.15332 1.41445e-17
6095.76124 1.45371e-17
6099.36916 1.38285e-17
6102.96705 1.34284e-17
6106.57497 1.39021e-17
6110.18289 1.43058e-17
6113.78079 1.41718e-17
6117.38871 1.39360e-17
6120.99663 1.38557e-17
6124.60455 1.42270e-17
6128.20245 1.37490e-17
6131.81037 1.38447e-17
6135.41829 1.29626e-17
6139.01619 1.39416e-17
6142.62411 1.38254e-17
6146.23203 1.36945e-17
6149.82993 1.32567e-17
6153.43785 1.28489e-17
6157.04577 1.34472e-17
6160.65369 1.31695e-17
6164.25158 1.38512e-17
6167.85950 1.42586e-17
6171.46742 1.43633e-17
6175.06532 1.41239e-17
6178.67324 1.41688e-17
6182.28116 1.46682e-17
6185.88908 1.53541e-17
6189.48698 1.48536e-17
6193.09490 1.41572e-17
6196.70282 1.44330e-17
6200.30072 1.53090e-17
6203.90864 1.54929e-17
6207.51656 1.46389e-17
6211.12448 1.39111e-17
6214.72238 1.41209e-17
6218.33030 1.36412e-17
6221.93822 1.30676e-17
6225.53611 1.26724e-17
6229.14403 1.28966e-17
6232.75195 1.38099e-17
6236.34985 1.40042e-17
6239.95777 1.33969e-17
6243.56569 1.22427e-17
6247.17361 1.18928e-17
6250.77151 1.24570e-17
6254.37943 1.29841e-17
6257.98735 1.29229e-17
6261.58525 1.23777e-17
6265.19317 1.23991e-17
6268.80109 1.25289e-17
6272.40901 1.25516e-17
6276.00691 1.24333e-17
6279.61483 1.21376e-17
6283.22275 1.22467e-17
6286.82064 1.21120e-17
6290.42856 1.18776e-17
6294.03648 1.20406e-17
6297.63438 1.23409e-17
6301.24230 1.32468e-17
6304.85022 1.28216e-17
6308.45814 1.24907e-17
6312.05604 1.19032e-17
6315.66396 1.24996e-17
6319.27188 1.26585e-17
6322.86978 1.24071e-17
6326.47770 1.22560e-17
6330.08562 1.17840e-17
6333.69354 1.22464e-17
6337.29144 1.22046e-17
6340.89936 1.23660e-17
6344.50728 1.24896e-17
6348.10517 1.25246e-17
6351.71309 1.25105e-17
6355.32101 1.24150e-17
6358.91891 1.21947e-17
6362.52683 1.25745e-17
6366.13475 1.28593e-17
6369.74267 1.37088e-17
6373.34057 1.44332e-17
6376.94849 1.50246e-17
6380.55641 1.45221e-17
6384.15431 1.36446e-17
6387.76223 1.27802e-17
6391.37015 1.26413e-17
6394.97807 1.37750e-17
6398.57597 1.43300e-17
6402.18389 1.53711e-17
6405.79181 1.51854e-17
6409.38970 1.53989e-17
6412.99762 1.55179e-17
6416.60554 1.54433e-17
6420.21346 1.54488e-17
6423.81136 1.51516e-17
6427.41928 1.47890e-17
6431.02720 1.44847e-17
6434.62510 1.37888e-17
6438.23302 1.38806e-17
6441.84094 1.34188e-17
6445.43884 1.39359e-17
6449.04676 1.39844e-17
6452.65468 1.45917e-17
6456.26260 1.47652e-17
6459.86050 1.42402e-17
6463.46842 1.33267e-17
6467.07634 1.24597e-17
6470.67423 1.32909e-17
6474.28215 1.41132e-17
6477.89007 1.50022e-17
6481.49799 1.48671e-17
6485.09589 1.49086e-17
6488.70381 1.40839e-17
6492.31173 1.37734e-17
6495.90963 1.37252e-17
6499.51755 1.43018e-17
6503.12547 1.45179e-17
6506.72337 1.47339e-17
6510.33129 1.47306e-17
6513.93921 1.46168e-17
6517.54713 1.37864e-17
6521.14503 1.32239e-17
6524.75295 1.28455e-17
6528.36087 1.30261e-17
6531.95876 1.32034e-17
6535.56668 1.30248e-17
6539.17460 1.30915e-17
6542.78252 1.34573e-17
6546.38042 1.46197e-17
6549.98834 1.43986e-17
6553.59626 1.48967e-17
6557.19416 1.46922e-17
6560.80208 1.52544e-17
6564.41000 1.45727e-17
6568.00790 1.37846e-17
6571.61582 1.39979e-17
6575.22374 1.37734e-17
6578.83166 1.34081e-17
6582.42956 1.26896e-17
6586.03748 1.27221e-17
6589.64540 1.30045e-17
6593.24329 1.30442e-17
6596.85121 1.31886e-17
6600.45913 1.30646e-17
6604.06705 1.31065e-17
6607.66495 1.31771e-17
6611.27287 1.34002e-17
6614.88079 1.38490e-17
6618.47869 1.40363e-17
6622.08661 1.46656e-17
6625.69453 1.47547e-17
6629.30245 1.42993e-17
6632.90035 1.36038e-17
6636.50827 1.30763e-17
6640.11619 1.27680e-17
6643.71409 1.26284e-17
6647.32201 1.25222e-17
6650.92993 1.32078e-17
6654.52782 1.33438e-17
6658.13574 1.31483e-17
6661.74366 1.24056e-17
6665.35158 1.23099e-17
6668.94948 1.27633e-17
6672.55740 1.31661e-17
6676.16532 1.31175e-17
6679.76322 1.36307e-17
6683.37114 1.39804e-17
6686.97906 1.45445e-17
6690.58698 1.40844e-17
6694.18488 1.31919e-17
6697.79280 1.24283e-17
6701.40072 1.25436e-17
6704.99862 1.32922e-17
6708.60654 1.33516e-17
6712.21446 1.27338e-17
6715.81235 1.21890e-17
6719.42027 1.22010e-17
6723.02819 1.25279e-17
6726.63611 1.29674e-17
6730.23401 1.35569e-17
6733.84193 1.32303e-17
6737.44985 1.31548e-17
6741.04775 1.29791e-17
6744.65567 1.32322e-17
6748.26359 1.31896e-17
6751.86149 1.29992e-17
6755.46941 1.29381e-17
6759.07733 1.27414e-17
6762.68525 1.25632e-17
6766.28315 1.23989e-17
6769.89107 1.21766e-17
6773.49899 1.20442e-17
6777.09688 1.24028e-17
6780.70480 1.24433e-17
6784.31272 1.23635e-17
6787.92064 1.18299e-17
6791.51854 1.15821e-17
6795.12646 1.18197e-17
6798.73438 1.22899e-17
6802.33228 1.23403e-17
6805.94020 1.21200e-17
6809.54812 1.22416e-17
6813.15604 1.21969e-17
6816.75394 1.23358e-17
6820.36186 1.22840e-17
6823.96978 1.24074e-17
6827.56768 1.23291e-17
6831.17560 1.19368e-17
6834.78352 1.21078e-17
6838.38141 1.21363e-17
6841.98933 1.17655e-17
6845.59725 1.18000e-17
6849.20517 1.18345e-17
6852.80307 1.18690e-17
6856.41099 1.19034e-17
6860.01891 1.19379e-17
6863.61681 1.19723e-17
6867.22473 1.20068e-17
6870.83265 1.20412e-17
6874.43055 1.20756e-17
6878.03847 1.21100e-17
6881.64639 1.21444e-17
6885.25431 1.21788e-17
6888.85221 1.22132e-17
6892.46013 1.22476e-17
6896.06805 1.22820e-17
6899.66594 1.23164e-17
6903.27386 1.23508e-17
6906.88178 1.23851e-17
6910.48970 1.24195e-17
6914.08760 1.24538e-17
6917.69552 1.24881e-17
6921.30344 1.25225e-17
6924.90134 1.25568e-17
6928.50926 1.25911e-17
6932.11718 1.26254e-17
6935.72510 1.26597e-17
6939.32300 1.23723e-17
6942.93092 1.24269e-17
6946.53884 1.30305e-17
6950.13674 1.31304e-17
6953.74466 1.25232e-17
6957.35258 1.20410e-17
6960.95047 1.23935e-17
6964.55839 1.29588e-17
6968.16631 1.28433e-17
6971.77423 1.19024e-17
6975.37213 1.16925e-17
6978.98005 1.21164e-17
6982.58797 1.25547e-17
6986.18587 1.27460e-17
6989.79379 1.27262e-17
6993.40171 1.23472e-17
6997.00963 1.23972e-17
7000.60753 1.24710e-17
7004.21545 1.24102e-17
7007.82337 1.19831e-17
7011.42127 1.17959e-17
7015.02919 1.20117e-17
7018.63711 1.20474e-17
7022.23500 1.19973e-17
7025.84292 1.19045e-17
7029.45084 1.17818e-17
7033.05876 1.15642e-17
7036.65666 1.17655e-17
7040.26458 1.23027e-17
7043.87250 1.27544e-17
7047.47040 1.23844e-17
7051.07832 1.16213e-17
7054.68624 1.14149e-17
7058.29416 1.15470e-17
7061.89206 1.20205e-17
7065.49998 1.20578e-17
7069.10790 1.18042e-17
7072.70580 1.13489e-17
7076.31372 1.17464e-17
7079.92164 1.22240e-17
7083.51953 1.20001e-17
7087.12745 1.16427e-17
7090.73537 1.15565e-17
7094.34329 1.21610e-17
7097.94119 1.21748e-17
7101.54911 1.19005e-17
7105.15703 1.16544e-17
7108.75493 1.21913e-17
7112.36285 1.30532e-17
7115.97077 1.37393e-17
7119.57869 1.31602e-17
7123.17659 1.24256e-17
7126.78451 1.24683e-17
7130.39243 1.23936e-17
7133.99033 1.26134e-17
7137.59825 1.20968e-17
7141.20617 1.25039e-17
7144.80406 1.28921e-17
7148.41198 1.30528e-17
7152.01990 1.34530e-17
7155.62782 1.29478e-17
7159.22572 1.34526e-17
7162.83364 1.27123e-17
7166.44156 1.26104e-17
7170.03946 1.16205e-17
7173.64738 1.09783e-17
7177.25530 1.08776e-17
7180.86322 1.12279e-17
7184.46112 1.17727e-17
7188.06904 1.13695e-17
7191.67696 1.09463e-17
7195.27486 9.90626e-18
7198.88278 9.69651e-18
7202.49070 9.98364e-18
7206.08859 1.08909e-17
7209.69651 1.19531e-17
7213.30443 1.23487e-17
7216.91235 1.29096e-17
7220.51025 1.30424e-17
7224.11817 1.27136e-17
7227.72609 1.18480e-17
7231.32399 1.11537e-17
7234.93191 1.05217e-17
7238.53983 1.04986e-17
7242.14775 1.06293e-17
7245.74565 1.13036e-17
7249.35357 1.13502e-17
7252.96149 1.15160e-17
7256.55939 1.17110e-17
7260.16731 1.24504e-17
7263.77523 1.21274e-17
7267.38315 1.12136e-17
7270.98104 1.05151e-17
7274.58896 1.04599e-17
7278.19688 1.13983e-17
7281.79478 1.23543e-17
7285.40270 1.25282e-17
7289.01062 1.18821e-17
7292.60852 1.12087e-17
7296.21644 1.18437e-17
7299.82436 1.21487e-17
7303.43228 1.23666e-17
7307.03018 1.17539e-17
7310.63810 1.16999e-17
7314.24602 1.17065e-17
7317.84392 1.19985e-17
7321.45184 1.23606e-17
7325.05976 1.17926e-17
7328.66768 1.15460e-17
7332.26557 1.13134e-17
7335.87349 1.12171e-17
7339.48141 1.06392e-17
7343.07931 1.07698e-17
7346.68723 1.12055e-17
7350.29515 1.21600e-17
7353.89305 1.25044e-17
7357.50097 1.21384e-17
7361.10889 1.14887e-17
7364.71681 1.06383e-17
7368.31471 1.09207e-17
7371.92263 1.10676e-17
7375.53055 1.11470e-17
7379.12845 1.14247e-17
7382.73637 1.20180e-17
7386.34429 1.22193e-17
7389.95221 1.20169e-17
7393.55010 1.15734e-17
7397.15802 1.11522e-17
7400.76594 1.05149e-17
7404.36384 1.00954e-17
7407.97176 9.37284e-18
7411.57968 8.48681e-18
7415.17758 8.13761e-18
7418.78550 8.66265e-18
7422.39342 8.86281e-18
7426.00134 7.97466e-18
7429.59924 7.35811e-18
7433.20716 7.48480e-18
7436.81508 8.49655e-18
7440.41298 9.12529e-18
7444.02090 9.36308e-18
7447.62882 9.34070e-18
7451.23674 8.94499e-18
7454.83463 8.62201e-18
7458.44255 8.13879e-18
7462.05047 8.43650e-18
7465.64837 8.45482e-18
7469.25629 8.42612e-18
7472.86421 8.62683e-18
7476.47213 9.02169e-18
7480.07003 9.24612e-18
7483.67795 8.02668e-18
7487.28587 6.72172e-18
7490.88377 6.58064e-18
7494.49169 7.27667e-18
7498.09961 8.21667e-18
7501.69751 8.02299e-18
7505.30543 7.39399e-18
7508.91335 7.08268e-18
7512.52127 6.85794e-18
7516.11916 7.42521e-18
7519.72708 7.89516e-18
7523.33500 8.26967e-18
7526.93290 8.15470e-18
7530.54082 7.01037e-18
7534.14874 6.40465e-18
7537.75666 6.02296e-18
7541.35456 5.81459e-18
7544.96248 5.39079e-18
7548.57040 4.90376e-18
7552.16830 4.98165e-18
7555.77622 5.05953e-18
7559.38414 5.13738e-18
7562.98204 5.21522e-18
7566.58996 5.29304e-18
7570.19788 5.37085e-18
7573.80580 5.44864e-18
7577.40369 5.52641e-18
7581.01161 5.60416e-18
7584.61953 5.68189e-18
7588.21743 5.75961e-18
7591.82535 5.83731e-18
7595.43327 5.91499e-18
7599.03117 5.99266e-18
7602.63909 6.07030e-18
7606.24701 6.14793e-18
7609.85493 6.22555e-18
7613.45283 6.30314e-18
7617.06075 6.38072e-18
7620.66867 6.45828e-18
7624.26657 6.53582e-18
7627.87449 6.61334e-18
7631.48241 6.69085e-18
7635.09033 6.76834e-18
7638.68822 6.84581e-18
7642.29614 6.92327e-18
7645.90406 7.00070e-18
7649.50196 7.07812e-18
7653.10988 7.15553e-18
7656.71780 7.23291e-18
7660.31570 7.31028e-18
7663.92362 7.38763e-18
7667.53154 7.46496e-18
7671.13946 7.54227e-18
7674.73736 7.61957e-18
7678.34528 7.69685e-18
7681.95320 7.77411e-18
7685.55110 7.60529e-18
7689.15902 7.31662e-18
7692.76694 7.17447e-18
7696.37486 7.25075e-18
7699.97275 8.83039e-18
7700.35839 8.83039e-18
7701.22987 8.86209e-18
7702.09133 8.89379e-18
7702.95280 8.91535e-18
7703.81426 8.93677e-18
7704.67572 8.94518e-18
7705.53718 8.95345e-18
7706.39864 8.94928e-18
7707.26011 8.94504e-18
7708.12157 8.93203e-18
7708.98303 8.91902e-18
7709.84449 8.91226e-18
7710.71597 8.90558e-18
7711.57743 8.91859e-18
7712.43890 8.93167e-18
7713.30036 8.96121e-18
7714.16182 8.99083e-18
7715.02328 9.02957e-18
7715.88474 9.06831e-18
7716.74620 9.10432e-18
7717.60767 9.14041e-18
7718.46913 9.16082e-18
7719.33059 9.18131e-18
7720.20207 9.18526e-18
7721.06353 9.18922e-18
7721.92499 9.18138e-18
7722.78646 9.17355e-18
7723.64792 9.16197e-18
7724.50938 9.15040e-18
7725.37084 9.14587e-18
7726.23230 9.14127e-18
7727.09377 9.14724e-18
7727.95523 9.15328e-18
7728.81669 9.16621e-18
7729.67815 9.17922e-18
7730.54963 9.19842e-18
7731.41109 9.21768e-18
7732.27255 9.24715e-18
7733.13402 9.27655e-18
7733.99548 9.31155e-18
7734.85694 9.34649e-18
7735.71840 9.36812e-18
7736.57986 9.38969e-18
7737.44133 9.38717e-18
7738.30279 9.38466e-18
7739.17427 9.36575e-18
7740.03573 9.34685e-18
7740.89719 9.32162e-18
7741.75865 9.29639e-18
7742.62012 9.27986e-18
7743.48158 9.26332e-18
7744.34304 9.26771e-18
7745.20450 9.27209e-18
7746.06596 9.28913e-18
7746.92743 9.30616e-18
7747.78889 9.32442e-18
7748.65035 9.34268e-18
7749.52183 9.35813e-18
7750.38329 9.37352e-18
7751.24475 9.38315e-18
7752.10621 9.39278e-18
7752.96768 9.39666e-18
7753.82914 9.40047e-18
7754.69060 9.40069e-18
7755.55206 9.40083e-18
7756.41352 9.39479e-18
7757.27499 9.38868e-18
7758.13645 9.37129e-18
7759.00793 9.35396e-18
7759.86939 9.33032e-18
7760.73085 9.30660e-18
7761.59231 9.28855e-18
7762.45378 9.27051e-18
7763.31524 9.26095e-18
7764.17670 9.25132e-18
7765.03816 9.24399e-18
7765.89962 9.23666e-18
7766.76109 9.22674e-18
7767.62255 9.21682e-18
7768.49403 9.20072e-18
7769.35549 9.18454e-18
7770.21695 9.16197e-18
7771.07841 9.13933e-18
7771.93988 9.11791e-18
7772.80134 9.09656e-18
7773.66280 9.08204e-18
7774.52426 9.06752e-18
7775.38572 9.05688e-18
7776.24719 9.04632e-18
7777.10865 9.03726e-18
7777.98013 9.02828e-18
7778.84159 9.02217e-18
7779.70305 9.01606e-18
7780.56451 9.01412e-18
7781.42597 9.01217e-18
7782.28744 9.01404e-18
7783.14890 9.01591e-18
7784.01036 9.02080e-18
7784.87182 9.02569e-18
7785.73328 9.03295e-18
7786.59475 9.04021e-18
7787.46623 9.04898e-18
7788.32769 9.05782e-18
7789.18915 9.06565e-18
7790.05061 9.07342e-18
7790.91207 9.07737e-18
7791.77354 9.08125e-18
7792.63500 9.07981e-18
7793.49646 9.07838e-18
7794.35792 9.07112e-18
7795.21938 9.06378e-18
7796.08085 9.05408e-18
7796.94231 9.04438e-18
7797.81379 9.03841e-18
7798.67525 9.03252e-18
7799.53671 9.03503e-18
7800.39817 9.03762e-18
7801.25963 9.05171e-18
7802.12110 9.06587e-18
7802.98256 9.08916e-18
7803.84402 9.11252e-18
7804.70548 9.13322e-18
7805.56694 9.15399e-18
7806.42841 9.16363e-18
7807.29989 9.17326e-18
7808.16135 9.17275e-18
7809.02281 9.17225e-18
7809.88427 9.16327e-18
7810.74573 9.15421e-18
7811.60720 9.13854e-18
7812.46866 9.12280e-18
7813.33012 9.10325e-18
7814.19158 9.08370e-18
7815.05304 9.06386e-18
7815.91450 9.04402e-18
7816.78598 9.02720e-18
7817.64745 9.01038e-18
7818.50891 9.00060e-18
7819.37037 8.99083e-18
7820.23183 8.99126e-18
7821.09329 8.99176e-18
7821.95476 8.99514e-18
7822.81622 8.99859e-18
7823.67768 8.99399e-18
7824.53914 8.98939e-18
7825.40060 8.97544e-18
7826.27208 8.96143e-18
7827.13355 8.94144e-18
7827.99501 8.92153e-18
7828.85647 8.89832e-18
7829.71793 8.87517e-18
7830.57939 8.85159e-18
7831.44085 8.82802e-18
7832.30232 8.80588e-18
7833.16378 8.78374e-18
7834.02524 8.76304e-18
7834.88670 8.74234e-18
7835.75818 8.72501e-18
7836.61964 8.70769e-18
7837.48111 8.69914e-18
7838.34257 8.69058e-18
7839.20403 8.69224e-18
7840.06549 8.69382e-18
7840.92695 8.69957e-18
7841.78842 8.70532e-18
7842.64988 8.70992e-18
7843.51134 8.71452e-18
7844.37280 8.71553e-18
7845.23426 8.71660e-18
7846.10574 8.71265e-18
7846.96720 8.70877e-18
7847.82867 8.70187e-18
7848.69013 8.69497e-18
7849.55159 8.68756e-18
7850.41305 8.68016e-18
7851.27452 8.67384e-18
7852.13598 8.66744e-18
7852.99744 8.66320e-18
7853.85890 8.65896e-18
7854.72036 8.65766e-18
7855.59184 8.65637e-18
7856.45330 8.65845e-18
7857.31477 8.66061e-18
7858.17623 8.66284e-18
7859.03769 8.66507e-18
7859.89915 8.66219e-18
7860.76061 8.65932e-18
7861.62208 8.65170e-18
7862.48354 8.64408e-18
7863.34500 8.63595e-18
7864.20646 8.62783e-18
7865.07794 8.61698e-18
7865.93940 8.60620e-18
7866.80087 8.58549e-18
7867.66233 8.56487e-18
7868.52379 8.53360e-18
7869.38525 8.50240e-18
7870.24671 8.46653e-18
7871.10818 8.43059e-18
7871.96964 8.39839e-18
7872.83110 8.36612e-18
7873.69256 8.35102e-18
7874.56404 8.33607e-18
7875.42550 8.34347e-18
7876.28696 8.35095e-18
7877.14843 8.36561e-18
7878.00989 8.38028e-18
7878.87135 8.38811e-18
7879.73281 8.39602e-18
7880.59427 8.39278e-18
7881.45574 8.38955e-18
7882.31720 8.37295e-18
7883.17866 8.35627e-18
7884.05014 8.33212e-18
7884.91160 8.30797e-18
7885.77306 8.28360e-18
7886.63453 8.25930e-18
7887.49599 8.23422e-18
7888.35745 8.20906e-18
7889.21891 8.18146e-18
7890.08037 8.15386e-18
7890.94184 8.12525e-18
7891.80330 8.09671e-18
7892.66476 8.06889e-18
7893.52622 8.04115e-18
7894.39770 8.02138e-18
7895.25916 8.00161e-18
7896.12062 7.99989e-18
7896.98209 7.99809e-18
7897.84355 8.00866e-18
7898.70501 8.01915e-18
7899.56647 8.02533e-18
7900.42793 8.03152e-18
7901.28940 8.02605e-18
7902.15086 8.02059e-18
7903.01232 8.00528e-18
7903.88380 7.98990e-18
7904.74526 7.96941e-18
7905.60672 7.94900e-18
7906.46819 7.93405e-18
7907.32965 7.91917e-18
7908.19111 7.91399e-18
7909.05257 7.90882e-18
7909.91403 7.90141e-18
7910.77550 7.89401e-18
7911.63696 7.87726e-18
7912.49842 7.86051e-18
7913.36990 7.84297e-18
7914.23136 7.82536e-18
7915.09282 7.81415e-18
7915.95428 7.80294e-18
7916.81575 7.79855e-18
7917.67721 7.79417e-18
7918.53867 7.79568e-18
7919.40013 7.79719e-18
7920.26159 7.79402e-18
7921.12306 7.79093e-18
7921.98452 7.77253e-18
7922.85600 7.75406e-18
7923.71746 7.72689e-18
7924.57892 7.69972e-18
7925.44038 7.67521e-18
7926.30185 7.65062e-18
7927.16331 7.63538e-18
7928.02477 7.62015e-18
7928.88623 7.61864e-18
7929.74769 7.61720e-18
7930.60916 7.62669e-18
7931.47062 7.63618e-18
7932.34210 7.64883e-18
7933.20356 7.66155e-18
7934.06502 7.67068e-18
7934.92648 7.67981e-18
7935.78794 7.67981e-18
7936.64941 7.67988e-18
7937.51087 7.66795e-18
7938.37233 7.65594e-18
7939.23379 7.63265e-18
7940.09525 7.60929e-18
7940.95672 7.57802e-18
7941.81818 7.54676e-18
7942.68966 7.51534e-18
7943.55112 7.48393e-18
7944.41258 7.45849e-18
7945.27404 7.43304e-18
7946.13551 7.41464e-18
7946.99697 7.39624e-18
7947.85843 7.38481e-18
7948.71989 7.37331e-18
7949.58135 7.36670e-18
7950.44282 7.36008e-18
7951.30428 7.35534e-18
7952.17576 7.35060e-18
7953.03722 7.34140e-18
7953.89868 7.33219e-18
7954.76014 7.31307e-18
7955.62160 7.29395e-18
7956.48307 7.27289e-18
7957.34453 7.25176e-18
7958.20599 7.23911e-18
7959.06745 7.22653e-18
7959.92891 7.22308e-18
7960.79038 7.21963e-18
7961.66186 7.22315e-18
7962.52332 7.22660e-18
7963.38478 7.23156e-18
7964.24624 7.23652e-18
7965.10770 7.23501e-18
7965.96917 7.23343e-18
7966.83063 7.22998e-18
7967.69209 7.22646e-18
7968.55355 7.23415e-18
7969.41501 7.24191e-18
7970.27648 7.26384e-18
7971.14795 7.28583e-18
7972.00942 7.31537e-18
7972.87088 7.34492e-18
7973.73234 7.37317e-18
7974.59380 7.40149e-18
7975.45526 7.41558e-18
7976.31673 7.42966e-18
7977.17819 7.42406e-18
7978.03965 7.41845e-18
7978.90111 7.40372e-18
7979.76257 7.38898e-18
7980.63405 7.37432e-18
7981.49552 7.35972e-18
7982.35698 7.34743e-18
7983.21844 7.33514e-18
7984.07990 7.32666e-18
7984.94136 7.31818e-18
7985.80283 7.31041e-18
7986.66429 7.30272e-18
7987.52575 7.29244e-18
7988.38721 7.28209e-18
7989.24867 7.27059e-18
7990.11014 7.25909e-18
7990.98161 7.24809e-18
7991.84308 7.23710e-18
7992.70454 7.22998e-18
7993.56600 7.22286e-18
7994.42746 7.22351e-18
7995.28892 7.22423e-18
7996.15039 7.22495e-18
7997.01185 7.22567e-18
7997.87331 7.21417e-18
7998.73477 7.20267e-18
7999.59623 7.18043e-18
8000.46771 7.15820e-18
8001.32917 7.13454e-18
8002.19064 7.11087e-18
8003.05210 7.09278e-18
8003.91356 7.07471e-18
8004.77502 7.06819e-18
8005.63649 7.06171e-18
8006.49795 7.06522e-18
8007.35941 7.06876e-18
8008.22087 7.07007e-18
8009.08233 7.07137e-18
8009.95381 7.06647e-18
8010.81527 7.06156e-18
8011.67674 7.06216e-18
8012.53820 7.06277e-18
8013.39966 7.07458e-18
8014.26112 7.08639e-18
8015.12258 7.10115e-18
8015.98405 7.11591e-18
8016.84551 7.12576e-18
8017.70697 7.13559e-18
8018.56843 7.13254e-18
8019.43991 7.12947e-18
8020.30137 7.10863e-18
8021.16284 7.08775e-18
8022.02430 7.06233e-18
8022.88576 7.03689e-18
8023.74722 7.02148e-18
8024.60868 7.00610e-18
8025.47015 7.00027e-18
8026.33161 6.99447e-18
8027.19307 6.99434e-18
8028.05453 6.99421e-18
8028.92601 6.99498e-18
8029.78747 6.99574e-18
8030.64893 6.99182e-18
8031.51040 6.98789e-18
8032.37186 6.97985e-18
8033.23332 6.97180e-18
8034.09478 6.96351e-18
8034.95624 6.95524e-18
8035.81771 6.94922e-18
8036.67917 6.94322e-18
8037.54063 6.94096e-18
8038.41211 6.93871e-18
8039.27357 6.94076e-18
8040.13503 6.94281e-18
8040.99650 6.94850e-18
8041.85796 6.95419e-18
8042.71942 6.96163e-18
8043.58088 6.96907e-18
8044.44234 6.97492e-18
8045.30380 6.98077e-18
8046.16527 6.98250e-18
8047.02673 6.98422e-18
8047.88819 6.98066e-18
8048.75967 6.97709e-18
8049.62113 6.96886e-18
8050.48259 6.96062e-18
8051.34406 6.95380e-18
8052.20552 6.94699e-18
8053.06698 6.94613e-18
8053.92844 6.94529e-18
8054.78990 6.94694e-18
8055.65137 6.94859e-18
8056.51283 6.94841e-18
8057.37429 6.94821e-18
8058.24577 6.94100e-18
8059.10723 6.93377e-18
8059.96869 6.91512e-18
8060.83015 6.89646e-18
8061.69162 6.86997e-18
8062.55308 6.84346e-18
8063.41454 6.81523e-18
8064.27600 6.78701e-18
8065.13746 6.76398e-18
8065.99893 6.74097e-18
8066.86039 6.72993e-18
8067.73187 6.71893e-18
8068.59333 6.72028e-18
8069.45479 6.72165e-18
8070.31625 6.73174e-18
8071.17772 6.74186e-18
8072.03918 6.75346e-18
8072.90064 6.76506e-18
8073.76210 6.76784e-18
8074.62356 6.77058e-18
8075.48503 6.76071e-18
8076.34649 6.75081e-18
8077.21797 6.73323e-18
8078.07943 6.71564e-18
8078.94089 6.69343e-18
8079.80235 6.67120e-18
8080.66381 6.64378e-18
8081.52528 6.61634e-18
8082.38674 6.58414e-18
8083.24820 6.55192e-18
8084.10966 6.51628e-18
8084.97113 6.48065e-18
8085.83259 6.44320e-18
8086.70407 6.40573e-18
8087.56553 6.36883e-18
8088.42699 6.33193e-18
8089.28845 6.29781e-18
8090.14991 6.26370e-18
8091.01138 6.23437e-18
8091.87284 6.20506e-18
8092.73430 6.18160e-18
8093.59576 6.15815e-18
8094.45722 6.14010e-18
8095.31869 6.12207e-18
8096.18015 6.10799e-18
8097.05163 6.09393e-18
8097.91309 6.07598e-18
8098.77455 6.05802e-18
8099.63601 6.02690e-18
8100.49748 5.99575e-18
8101.35894 5.94853e-18
8102.22040 5.90126e-18
8103.08186 5.83853e-18
8103.94332 5.77575e-18
8104.80479 5.70511e-18
8105.67626 5.63445e-18
8106.53773 5.56822e-18
8107.39919 5.50201e-18
8108.26065 5.44787e-18
8109.12211 5.39377e-18
8109.98357 5.35434e-18
8110.84504 5.31495e-18
8111.70650 5.28677e-18
8112.56796 5.25861e-18
8113.42942 5.22960e-18
8114.29088 5.20058e-18
8115.15235 5.16098e-18
8116.02383 5.12136e-18
8116.88529 5.06701e-18
8117.74675 5.01263e-18
8118.60821 4.94277e-18
8119.46967 4.87286e-18
8120.33114 4.79755e-18
8121.19260 4.72223e-18
8122.05406 4.64953e-18
8122.91552 4.57685e-18
8123.77698 4.49778e-18
8124.63845 4.41870e-18
8125.49991 4.32491e-18
8126.37139 4.23110e-18
8127.23285 4.12707e-18
8128.09431 4.02302e-18
8128.95577 3.91533e-18
8129.81723 3.80763e-18
8130.67870 3.70887e-18
8131.54016 3.61014e-18
8132.40162 3.53388e-18
8133.26308 3.45769e-18
8134.12454 3.39665e-18
8134.99602 3.33565e-18
8135.85749 3.27352e-18
8136.71895 3.21138e-18
8137.58041 3.14197e-18
8138.44187 3.07254e-18
8139.30333 2.99561e-18
8140.16480 2.91867e-18
8141.02626 2.83619e-18
8141.88772 2.75370e-18
8142.74918 2.67027e-18
8143.61064 2.58683e-18
8144.47210 2.50699e-18
8145.34358 2.42716e-18
8146.20505 2.35455e-18
8147.06651 2.28195e-18
8147.92797 2.21912e-18
8148.78943 2.15633e-18
8149.65089 2.10409e-18
8150.51236 2.05189e-18
8151.37382 2.00896e-18
8152.23528 1.96606e-18
8153.09674 1.92677e-18
8153.95820 1.88749e-18
8154.82968 1.84727e-18
8155.69115 1.80705e-18
8156.55261 1.76633e-18
8157.41407 1.72561e-18
8158.27553 1.68578e-18
8159.13699 1.64596e-18
8159.99845 1.61041e-18
8160.85992 1.57488e-18
8161.72138 1.54694e-18
8162.58284 1.51903e-18
8163.44430 1.49971e-18
8164.31578 1.48042e-18
8165.17724 1.46955e-18
8166.03871 1.45870e-18
8166.90017 1.45110e-18
8167.76163 1.44351e-18
8168.62309 1.43290e-18
8169.48455 1.42229e-18
8170.34602 1.40344e-18
8171.20748 1.38457e-18
8172.06894 1.35250e-18
8172.93040 1.32040e-18
8173.80188 1.28359e-18
8174.66334 1.24677e-18
8175.52481 1.22352e-18
8176.38627 1.20030e-18
8177.24773 1.19467e-18
8178.10919 1.18909e-18
8178.97065 1.19048e-18
8179.83212 1.19189e-18
8180.69358 1.19223e-18
8181.55504 1.19257e-18
8182.41650 1.18677e-18
8183.28798 1.18096e-18
8184.14944 1.16717e-18
8185.01090 1.15337e-18
8185.87237 1.13844e-18
8186.73383 1.12351e-18
8187.59529 1.11233e-18
8188.45675 1.10115e-18
8189.31821 1.08995e-18
8190.17968 1.07873e-18
8191.04114 1.06485e-18
8191.90260 1.05096e-18
8192.77408 1.03762e-18
8193.63554 1.02429e-18
8194.49700 1.01477e-18
8195.35846 1.00526e-18
8196.21993 1.00248e-18
8197.08139 9.99715e-19
8197.94285 1.00587e-18
8198.80431 1.01205e-18
8199.66577 1.02187e-18
8200.52724 1.03169e-18
8201.38870 1.03779e-18
8202.25016 1.04388e-18
8203.12164 1.04481e-18
8203.98310 1.04574e-18
8204.84456 1.04271e-18
8205.70603 1.03968e-18
8206.56749 1.03330e-18
8207.42895 1.02691e-18
8208.29041 1.01770e-18
8209.15187 1.00848e-18
8210.01334 9.97918e-19
8210.87480 9.87358e-19
8211.73626 9.77403e-19
8212.60774 9.67455e-19
8213.46920 9.58930e-19
8214.33066 9.50412e-19
8215.19212 9.43174e-19
8216.05359 9.35943e-19
8216.91505 9.27698e-19
8217.77651 9.19453e-19
8218.63797 9.03834e-19
8219.49943 8.88193e-19
8220.36090 8.62754e-19
8221.22236 8.37295e-19
8222.08382 8.08557e-19
8222.95530 7.79812e-19
8223.81676 7.55049e-19
8224.67822 7.30294e-19
8225.53969 7.18621e-19
8226.40115 7.06983e-19
8227.26261 7.14983e-19
8228.12407 7.23027e-19
8228.98553 7.44569e-19
8229.84700 7.66141e-19
8230.70846 7.92707e-19
8231.57994 8.19289e-19
8232.44140 8.42606e-19
8233.30286 8.65924e-19
8234.16432 8.78309e-19
8235.02578 8.90673e-19
8235.88725 8.94676e-19
8236.74871 8.98651e-19
8237.61017 9.00678e-19
8238.47163 9.02705e-19
8239.33309 9.07227e-19
8240.19456 9.11755e-19
8241.06604 9.22494e-19
8241.92750 9.33247e-19
8242.78896 9.48026e-19
8243.65042 9.62811e-19
8244.51188 9.74916e-19
8245.37335 9.87021e-19
8246.23481 9.93159e-19
8247.09627 9.99283e-19
8247.95773 9.99822e-19
8248.81919 1.00035e-18
8249.68066 9.96631e-19
8250.54212 9.92908e-19
8251.41360 9.87919e-19
8252.27506 9.82923e-19
8253.13652 9.79444e-19
8253.99798 9.75973e-19
8254.85945 9.75692e-19
8255.72091 9.75426e-19
8256.58237 9.79301e-19
8257.44383 9.83189e-19
8258.30529 9.90557e-19
8259.16676 9.97932e-19
8260.02822 1.00738e-18
8260.89970 1.01683e-18
8261.76116 1.02574e-18
8262.62262 1.03465e-18
8263.48408 1.04045e-18
8264.34554 1.04624e-18
8265.20701 1.04662e-18
8266.06847 1.04699e-18
8266.92993 1.04043e-18
8267.79139 1.03385e-18
8268.65285 1.02384e-18
8269.52433 1.01381e-18
8270.38580 1.00519e-18
8271.24726 9.96581e-19
8272.10872 9.92613e-19
8272.97018 9.88660e-19
8273.83164 9.91865e-19
8274.69311 9.95086e-19
8275.55457 1.00295e-18
8276.41603 1.01081e-18
8277.27749 1.01766e-18
8278.13895 1.02449e-18
8279.01043 1.02800e-18
8279.87189 1.03150e-18
8280.73336 1.03222e-18
8281.59482 1.03293e-18
8282.45628 1.03258e-18
8283.31774 1.03222e-18
8284.17920 1.03438e-18
8285.04067 1.03654e-18
8285.90213 1.04257e-18
8286.76359 1.04861e-18
8287.62505 1.05527e-18
8288.48651 1.06193e-18
8289.34798 1.06750e-18
8290.21946 1.07307e-18
8291.08092 1.08013e-18
8291.94238 1.08720e-18
8292.80384 1.09724e-18
8293.66530 1.10728e-18
8294.52677 1.11768e-18
8295.38823 1.12808e-18
8296.24969 1.13640e-18
8297.11115 1.14473e-18
8297.97261 1.14941e-18
8298.83408 1.15409e-18
8299.70555 1.15421e-18
8300.56702 1.15432e-18
8301.42848 1.15539e-18
8302.28994 1.15646e-18
8303.15140 1.16501e-18
8304.01286 1.17357e-18
8304.87433 1.18708e-18
8305.73579 1.20060e-18
8306.59725 1.21364e-18
8307.45871 1.22668e-18
8308.32017 1.23595e-18
8309.18164 1.24521e-18
8310.05312 1.24830e-18
8310.91458 1.25137e-18
8311.77604 1.25086e-18
8312.63750 1.25032e-18
8313.49896 1.25243e-18
8314.36043 1.25454e-18
8315.22189 1.26277e-18
8316.08335 1.27102e-18
8316.94481 1.28608e-18
8317.80627 1.30116e-18
8318.67775 1.32127e-18
8319.53921 1.34140e-18
8320.40068 1.36096e-18
8321.26214 1.38053e-18
8322.12360 1.39554e-18
8322.98506 1.41054e-18
8323.84652 1.42095e-18
8324.70799 1.43135e-18
8325.56945 1.43768e-18
8326.43091 1.44401e-18
8327.29237 1.44781e-18
8328.16385 1.45161e-18
8329.02531 1.45484e-18
8329.88678 1.45806e-18
8330.74824 1.46181e-18
8331.60970 1.46557e-18
8332.47116 1.47095e-18
8333.33262 1.47634e-18
8334.19408 1.48606e-18
8335.05555 1.49579e-18
8335.91701 1.51210e-18
8336.77847 1.52841e-18
8337.64995 1.54955e-18
8338.51141 1.57068e-18
8339.37287 1.59362e-18
8340.23434 1.61657e-18
8341.09580 1.63720e-18
8341.95726 1.65781e-18
8342.81872 1.67163e-18
8343.68018 1.68544e-18
8344.54165 1.69257e-18
8345.40311 1.69967e-18
8346.26457 1.70323e-18
8347.12603 1.70677e-18
8347.99751 1.70931e-18
8348.85897 1.71187e-18
8349.72043 1.71531e-18
8350.58190 1.71875e-18
8351.44336 1.72531e-18
8352.30482 1.73188e-18
8353.16628 1.74390e-18
8354.02775 1.75594e-18
8354.88921 1.77369e-18
8355.75067 1.79146e-18
8356.62215 1.81205e-18
8357.48361 1.83265e-18
8358.34507 1.85318e-18
8359.20653 1.87370e-18
8360.06800 1.89166e-18
8360.92946 1.90960e-18
8361.79092 1.92346e-18
8362.65238 1.93731e-18
8363.51384 1.94970e-18
8364.37531 1.96207e-18
8365.23677 1.97554e-18
8366.10825 1.98902e-18
8366.96971 2.00190e-18
8367.83117 2.01478e-18
8368.69263 2.02531e-18
8369.55410 2.03583e-18
8370.41556 2.04571e-18
8371.27702 2.05559e-18
8372.13848 2.06719e-18
8372.99994 2.07879e-18
8373.86140 2.09340e-18
8374.72287 2.10802e-18
8375.59435 2.12646e-18
8376.45581 2.14492e-18
8377.31727 2.16703e-18
8378.17873 2.18915e-18
8379.04019 2.21407e-18
8379.90166 2.23900e-18
8380.76312 2.26537e-18
8381.62458 2.29174e-18
8382.48604 2.31796e-18
8383.34750 2.34417e-18
8384.20897 2.36891e-18
8385.07043 2.39363e-18
8385.94191 2.41565e-18
8386.80337 2.43767e-18
8387.66483 2.45772e-18
8388.52629 2.47777e-18
8389.38775 2.49974e-18
8390.24922 2.52171e-18
8391.11068 2.54669e-18
8391.97214 2.57167e-18
8392.83360 2.59463e-18
8393.69507 2.61760e-18
8394.55653 2.63495e-18
8395.41799 2.65229e-18
8396.28947 2.66394e-18
8397.15093 2.67557e-18
8398.01239 2.68296e-18
8398.87385 2.69033e-18
8399.73532 2.70163e-18
8400.59678 2.71294e-18
8401.45824 2.73560e-18
8402.31970 2.75828e-18
8403.18116 2.78989e-18
8404.04263 2.82152e-18
8404.90409 2.85753e-18
8405.77557 2.89355e-18
8406.63703 2.92891e-18
8407.49849 2.96427e-18
8408.35995 2.99377e-18
8409.22142 3.02327e-18
8410.08288 3.04694e-18
8410.94434 3.07061e-18
8411.80580 3.09111e-18
8412.66726 3.11160e-18
8413.52873 3.13076e-18
8414.39019 3.14992e-18
8415.26167 3.16923e-18
8416.12313 3.18854e-18
8416.98459 3.20957e-18
8417.84605 3.23061e-18
8418.70751 3.25467e-18
8419.56898 3.27873e-18
8420.43044 3.30631e-18
8421.29190 3.33390e-18
8422.15336 3.36488e-18
8423.01482 3.39589e-18
8423.87629 3.42863e-18
8424.74777 3.46140e-18
8425.60923 3.49139e-18
8426.47069 3.52137e-18
8427.33215 3.54675e-18
8428.19361 3.57213e-18
8429.05508 3.59802e-18
8429.91654 3.62391e-18
8430.77800 3.65448e-18
8431.63946 3.68506e-18
8432.50092 3.72075e-18
8433.36239 3.75646e-18
8434.23386 3.79662e-18
8435.09533 3.83678e-18
8435.95679 3.87472e-18
8436.81825 3.91267e-18
8437.67971 3.94184e-18
8438.54117 3.97099e-18
8439.40264 3.99522e-18
8440.26410 4.01944e-18
8441.12556 4.04497e-18
8441.98702 4.07049e-18
8442.84848 4.09916e-18
8443.70995 4.12784e-18
8444.58143 4.16007e-18
8445.44289 4.19231e-18
8446.30435 4.22845e-18
8447.16581 4.26460e-18
8448.02727 4.30454e-18
8448.88874 4.34449e-18
8449.75020 4.38700e-18
8450.61166 4.42951e-18
8451.47312 4.47277e-18
8452.33458 4.51603e-18
8453.20606 4.55798e-18
8454.06752 4.59991e-18
8454.92899 4.63802e-18
8455.79045 4.67612e-18
8456.65191 4.71094e-18
8457.51337 4.74575e-18
8458.37483 4.78268e-18
8459.23630 4.81962e-18
8460.09776 4.86094e-18
8460.95922 4.90228e-18
8461.82068 4.94336e-18
8462.69216 4.98444e-18
8463.55362 5.02198e-18
8464.41508 5.05953e-18
8465.27655 5.09379e-18
8466.13801 5.12804e-18
8466.99947 5.16039e-18
8467.86093 5.19274e-18
8468.72240 5.23005e-18
8469.58386 5.26737e-18
8470.44532 5.31572e-18
8471.30678 5.36408e-18
8472.16824 5.41970e-18
8473.03972 5.47535e-18
8473.90118 5.53279e-18
8474.76265 5.59023e-18
8475.62411 5.64534e-18
8476.48557 5.70045e-18
8477.34703 5.74927e-18
8478.20849 5.79807e-18
8479.06996 5.84528e-18
8479.93142 5.89249e-18
8480.79288 5.94671e-18
8481.65434 6.00093e-18
8482.51580 6.06021e-18
8483.38728 6.11950e-18
8484.24875 6.17585e-18
8485.11021 6.23219e-18
8485.97167 6.28205e-18
8486.83313 6.33189e-18
8487.69459 6.37516e-18
8488.55605 6.41841e-18
8489.41752 6.45736e-18
8490.27898 6.49632e-18
8491.14044 6.53673e-18
8492.00190 6.57716e-18
8492.87338 6.62280e-18
8493.73484 6.66845e-18
8494.59631 6.71828e-18
8495.45777 6.76812e-18
8496.31923 6.82269e-18
8497.18069 6.87729e-18
8498.04215 6.94271e-18
8498.90362 7.00815e-18
8499.76508 7.08671e-18
8500.62654 7.16530e-18
8501.48800 7.24651e-18
8502.35948 7.32774e-18
8503.22094 7.40134e-18
8504.08240 7.47495e-18
8504.94387 7.53885e-18
8505.80533 7.60268e-18
8506.66679 7.65645e-18
8507.52825 7.71014e-18
8508.38972 7.75751e-18
8509.25118 7.80488e-18
8510.11264 7.85095e-18
8510.98412 7.89710e-18
8511.84558 7.94389e-18
8512.70704 7.99069e-18
8513.56850 8.03921e-18
8514.42997 8.08765e-18
8515.29143 8.13768e-18
8516.15289 8.18771e-18
8517.01435 8.23867e-18
8517.87581 8.28964e-18
8518.73728 8.34153e-18
8519.59874 8.39336e-18
8520.46020 8.44633e-18
8521.33168 8.49924e-18
8522.19314 8.55559e-18
8523.05460 8.61187e-18
8523.91607 8.67592e-18
8524.77753 8.74004e-18
8525.63899 8.81328e-18
8526.50045 8.88653e-18
8527.36191 8.96632e-18
8528.22337 9.04603e-18
8529.08484 9.12812e-18
8529.94630 9.21020e-18
8530.80776 9.28776e-18
8531.67924 9.36532e-18
8532.54070 9.43282e-18
8533.40216 9.50024e-18
8534.26363 9.55552e-18
8535.12509 9.61079e-18
8535.98655 9.65442e-18
8536.84801 9.69813e-18
8537.70947 9.73859e-18
8538.57094 9.77906e-18
8539.43240 9.82528e-18
8540.30388 9.87157e-18
8541.16534 9.92951e-18
8542.02680 9.98744e-18
8542.88826 1.00606e-17
8543.74972 1.01339e-17
8544.61119 1.02175e-17
8545.47265 1.03011e-17
8546.33411 1.03874e-17
8547.19557 1.04736e-17
8548.05703 1.05494e-17
8548.91850 1.06251e-17
8549.78998 1.06756e-17
8550.65144 1.07262e-17
8551.51290 1.07528e-17
8552.37436 1.07794e-17
8553.23582 1.07932e-17
8554.09729 1.08070e-17
8554.95875 1.08229e-17
8555.82021 1.08389e-17
8556.68167 1.08745e-17
8557.54313 1.09102e-17
8558.40460 1.09737e-17
8559.27607 1.10372e-17
8560.13754 1.11235e-17
8560.99900 1.12098e-17
8561.86046 1.13096e-17
8562.72192 1.14094e-17
8563.58338 1.15071e-17
8564.44485 1.16050e-17
8565.30631 1.16866e-17
8566.16777 1.17682e-17
8567.02923 1.18243e-17
8567.89070 1.18804e-17
8568.75216 1.19066e-17
8569.62364 1.19327e-17
8570.48510 1.19363e-17
8571.34656 1.19399e-17
8572.20802 1.19317e-17
8573.06948 1.19233e-17
8573.93095 1.19149e-17
8574.79241 1.19065e-17
8575.65387 1.19093e-17
8576.51533 1.19122e-17
8577.37679 1.19381e-17
8578.23826 1.19641e-17
8579.09972 1.20222e-17
8579.97120 1.20804e-17
8580.83266 1.21593e-17
8581.69412 1.22383e-17
8582.55558 1.23193e-17
8583.41705 1.24003e-17
8584.27851 1.24682e-17
8585.13997 1.25362e-17
8586.00143 1.25788e-17
8586.86289 1.26213e-17
8587.72436 1.26368e-17
8588.58582 1.26523e-17
8589.45730 1.26475e-17
8590.31876 1.26426e-17
8591.18022 1.26282e-17
8592.04168 1.26139e-17
8592.90314 1.26042e-17
8593.76461 1.25946e-17
8594.62607 1.25978e-17
8595.48753 1.26009e-17
8596.34899 1.26136e-17
8597.21045 1.26262e-17
8598.07192 1.26465e-17
8598.94340 1.26668e-17
8599.80486 1.26967e-17
8600.66632 1.27267e-17
8601.52778 1.27654e-17
8602.38924 1.28041e-17
8603.25071 1.28453e-17
8604.11217 1.28867e-17
8604.97363 1.29237e-17
8605.83509 1.29609e-17
8606.69655 1.29848e-17
8607.56803 1.30086e-17
8608.42949 1.30119e-17
8609.29096 1.30152e-17
8610.15242 1.29999e-17
8611.01388 1.29846e-17
8611.87534 1.29559e-17
8612.73680 1.29273e-17
8613.59827 1.28912e-17
8614.45973 1.28550e-17
8615.32119 1.28176e-17
8616.18265 1.27803e-17
8617.04411 1.27533e-17
8617.91559 1.27264e-17
8618.77706 1.27226e-17
8619.63852 1.27189e-17
8620.49998 1.27391e-17
8621.36144 1.27593e-17
8622.22290 1.27964e-17
8623.08437 1.28337e-17
8623.94583 1.28780e-17
8624.80729 1.29224e-17
8625.66875 1.29613e-17
8626.53021 1.30002e-17
8627.40169 1.30261e-17
8628.26315 1.30520e-17
8629.12462 1.30648e-17
8629.98608 1.30776e-17
8630.84754 1.30769e-17
8631.70900 1.30763e-17
8632.57046 1.30605e-17
8633.43193 1.30446e-17
8634.29339 1.30157e-17
8635.15485 1.29869e-17
8636.01631 1.29541e-17
8636.88779 1.29213e-17
8637.74925 1.28940e-17
8638.61072 1.28667e-17
8639.47218 1.28558e-17
8640.33364 1.28450e-17
8641.19510 1.28580e-17
8642.05656 1.28710e-17
8642.91803 1.29015e-17
8643.77949 1.29322e-17
8644.64095 1.29708e-17
8645.50241 1.30094e-17
8646.37389 1.30460e-17
8647.23535 1.30826e-17
8648.09681 1.31072e-17
8648.95828 1.31317e-17
8649.81974 1.31405e-17
8650.68120 1.31494e-17
8651.54266 1.31426e-17
8652.40412 1.31358e-17
8653.26559 1.31124e-17
8654.12705 1.30889e-17
8654.98851 1.30481e-17
8655.85999 1.30073e-17
8656.72145 1.29562e-17
8657.58291 1.29051e-17
8658.44438 1.28560e-17
8659.30584 1.28069e-17
8660.16730 1.27682e-17
8661.02876 1.27296e-17
8661.89022 1.27051e-17
8662.75168 1.26807e-17
8663.61315 1.26724e-17
8664.47461 1.26641e-17
8665.33607 1.26714e-17
8666.20755 1.26786e-17
8667.06901 1.26980e-17
8667.93047 1.27175e-17
8668.79194 1.27430e-17
8669.65340 1.27686e-17
8670.51486 1.27921e-17
8671.37632 1.28155e-17
8672.23778 1.28228e-17
8673.09925 1.28299e-17
8673.96071 1.28105e-17
8674.82217 1.27911e-17
8675.68363 1.27481e-17
8676.55511 1.27052e-17
8677.41657 1.26456e-17
8678.27803 1.25860e-17
8679.13950 1.25215e-17
8680.00096 1.24570e-17
8680.86242 1.24002e-17
8681.72388 1.23436e-17
8682.58535 1.22998e-17
8683.44681 1.22561e-17
8684.30827 1.22271e-17
8685.16973 1.21980e-17
8686.04121 1.21855e-17
8686.90267 1.21730e-17
8687.76413 1.21771e-17
8688.62560 1.21812e-17
8689.48706 1.21988e-17
8690.34852 1.22164e-17
8691.20998 1.22423e-17
8692.07144 1.22683e-17
8692.93291 1.22937e-17
8693.79437 1.23191e-17
8694.66585 1.23328e-17
8695.52731 1.23465e-17
8696.38877 1.23418e-17
8697.25023 1.23370e-17
8698.11170 1.23125e-17
8698.97316 1.22880e-17
8699.83462 1.22466e-17
8700.69608 1.22051e-17
8701.55754 1.21556e-17
8702.41900 1.21060e-17
8703.28047 1.20561e-17
8704.15195 1.20060e-17
8705.01341 1.19558e-17
8705.87487 1.19056e-17
8706.73633 1.18573e-17
8707.59779 1.18090e-17
8708.45926 1.17726e-17
8709.32072 1.17363e-17
8710.18218 1.17198e-17
8711.04364 1.17034e-17
8711.90510 1.17071e-17
8712.76657 1.17110e-17
8713.62803 1.17321e-17
8714.49951 1.17532e-17
8715.36097 1.17763e-17
8716.22243 1.17994e-17
8717.08389 1.18069e-17
8717.94535 1.18143e-17
8718.80682 1.17991e-17
8719.66828 1.17837e-17
8720.52974 1.17431e-17
8721.39120 1.17024e-17
8722.25267 1.16464e-17
8723.11413 1.15903e-17
8723.98561 1.15362e-17
8724.84707 1.14821e-17
8725.70853 1.14365e-17
8726.56999 1.13908e-17
8727.43145 1.13517e-17
8728.29292 1.13126e-17
8729.15438 1.12803e-17
8730.01584 1.12479e-17
8730.87730 1.12232e-17
8731.73876 1.11984e-17
8732.61024 1.11836e-17
8733.47170 1.11687e-17
8734.33317 1.11707e-17
8735.19463 1.11727e-17
8736.05609 1.11893e-17
8736.91755 1.12060e-17
8737.77902 1.12177e-17
8738.64048 1.12295e-17
8739.50194 1.12195e-17
8740.36340 1.12096e-17
8741.22486 1.11689e-17
8742.08633 1.11282e-17
8742.95780 1.10544e-17
8743.81927 1.09805e-17
8744.68073 1.08948e-17
8745.54219 1.08090e-17
8746.40365 1.07346e-17
8747.26511 1.06602e-17
8748.12658 1.06079e-17
8748.98804 1.05557e-17
8749.84950 1.05320e-17
8750.71096 1.05084e-17
8751.57242 1.05066e-17
8752.44390 1.05048e-17
8753.30537 1.05122e-17
8754.16683 1.05196e-17
8755.02829 1.05291e-17
8755.88975 1.05385e-17
8756.75121 1.05456e-17
8757.61268 1.05526e-17
8758.47414 1.05470e-17
8759.33560 1.05412e-17
8760.19706 1.05103e-17
8761.05852 1.04793e-17
8761.91999 1.04212e-17
8762.79146 1.03629e-17
8763.65293 1.02842e-17
8764.51439 1.02055e-17
8765.37585 1.01171e-17
8766.23731 1.00288e-17
8767.09877 9.94662e-18
8767.96024 9.86453e-18
8768.82170 9.79854e-18
8769.68316 9.73270e-18
8770.54462 9.68174e-18
8771.40608 9.63085e-18
8772.26755 9.59268e-18
8773.13903 9.55458e-18
8774.00049 9.52748e-18
8774.86195 9.50031e-18
8775.72341 9.48062e-18
8776.58487 9.46085e-18
8777.44633 9.44532e-18
8778.30780 9.42987e-18
8779.16926 9.41406e-18
8780.03072 9.39824e-18
8780.89218 9.36841e-18
8781.76366 9.33851e-18
8782.62512 9.28230e-18
8783.48659 9.22595e-18
8784.34805 9.14925e-18
8785.20951 9.07255e-18
8786.07097 8.98637e-18
8786.93243 8.90019e-18
8787.79390 8.81278e-18
8788.65536 8.72537e-18
8789.51682 8.64480e-18
8790.37828 8.56422e-18
8791.24976 8.49025e-18
8792.11122 8.41629e-18
8792.97268 8.34319e-18
8793.83415 8.27001e-18
8794.69561 8.20144e-18
8795.55707 8.13294e-18
8796.41853 8.07946e-18
8797.28000 8.02612e-18
8798.14146 7.98566e-18
8799.00292 7.94526e-18
8799.86438 7.90371e-18
8800.72584 7.86217e-18
8801.59732 7.80804e-18
8802.45878 7.75391e-18
8803.32025 7.67945e-18
8804.18171 7.60498e-18
8805.04317 7.50916e-18
8805.90463 7.41335e-18
8806.76609 7.30998e-18
8807.62756 7.20655e-18
8808.48902 7.10819e-18
8809.35048 7.00989e-18
8810.21194 6.92265e-18
8811.08342 6.83544e-18
8811.94488 6.76336e-18
8812.80635 6.69132e-18
8813.66781 6.63281e-18
8814.52927 6.57434e-18
8815.39073 6.52557e-18
8816.25219 6.47682e-18
8817.11365 6.43301e-18
8817.97512 6.38921e-18
8818.83658 6.34502e-18
8819.70806 6.30082e-18
8820.56952 6.24977e-18
8821.43098 6.19870e-18
8822.29244 6.13517e-18
8823.15391 6.07161e-18
8824.01537 5.99489e-18
8824.87683 5.91814e-18
8825.73829 5.83027e-18
8826.59975 5.74237e-18
8827.46122 5.65143e-18
8828.32268 5.56049e-18
8829.19416 5.47815e-18
8830.05562 5.39584e-18
8830.91708 5.32804e-18
8831.77854 5.26029e-18
8832.64000 5.20746e-18
8833.50147 5.15467e-18
8834.36293 5.11491e-18
8835.22439 5.07519e-18
8836.08585 5.04386e-18
8836.94732 5.01255e-18
8837.80878 4.98418e-18
8838.67024 4.95583e-18
8839.54172 4.92484e-18
8840.40318 4.89385e-18
8841.26464 4.85612e-18
8842.12610 4.81838e-18
8842.98757 4.77336e-18
8843.84903 4.72832e-18
8844.71049 4.67687e-18
8845.57195 4.62542e-18
8846.43341 4.57056e-18
8847.29488 4.51569e-18
8848.15634 4.46128e-18
8849.02782 4.40686e-18
8849.88928 4.35496e-18
8850.75074 4.30307e-18
8851.61220 4.25564e-18
8852.47367 4.20822e-18
8853.33513 4.17535e-18
8854.19659 4.14250e-18
8855.05805 4.13419e-18
8855.91951 4.12596e-18
8856.78097 4.13427e-18
8857.64244 4.14263e-18
8858.50390 4.15352e-18
8859.36536 4.16440e-18
8860.23684 4.16625e-18
8861.09830 4.16808e-18
8861.95976 4.15043e-18
8862.82123 4.13273e-18
8863.68269 4.09952e-18
8864.54415 4.06627e-18
8865.40561 4.03277e-18
8866.26707 3.99928e-18
8867.12854 3.97259e-18
8867.99000 3.94593e-18
8868.86148 3.92428e-18
8869.72294 3.90263e-18
8870.58440 3.88521e-18
8871.44586 3.86780e-18
8872.30732 3.85395e-18
8873.16879 3.84011e-18
8874.03025 3.83059e-18
8874.89171 3.82107e-18
8875.75317 3.82175e-18
8876.61463 3.82245e-18
8877.47610 3.83570e-18
8878.34758 3.84898e-18
8879.20904 3.86748e-18
8880.07050 3.88599e-18
8880.93196 3.90204e-18
8881.79342 3.91809e-18
8882.65489 3.92457e-18
8883.51635 3.93102e-18
8884.37781 3.92271e-18
8885.23927 3.91436e-18
8886.10073 3.89607e-18
8886.96220 3.87776e-18
8887.83367 3.85701e-18
8888.69514 3.83626e-18
8889.55660 3.82001e-18
8890.41806 3.80378e-18
8891.27952 3.79833e-18
8892.14099 3.79293e-18
8893.00245 3.80186e-18
8893.86391 3.81083e-18
8894.72537 3.83554e-18
8895.58683 3.86029e-18
8896.44830 3.89496e-18
8897.30976 3.92967e-18
8898.18124 3.96439e-18
8899.04270 3.99910e-18
8899.90416 4.02537e-18
8900.76562 4.05161e-18
8901.62708 4.06236e-18
8902.48855 4.07307e-18
8903.35001 4.06940e-18
8904.21147 4.06569e-18
8905.07293 4.05935e-18
8905.93439 4.05299e-18
8906.80587 4.05169e-18
8907.66734 4.05040e-18
8908.52880 4.05337e-18
8909.39026 4.05635e-18
8910.25172 4.06361e-18
8911.11318 4.07088e-18
8911.97465 4.08386e-18
8912.83611 4.09686e-18
8913.69757 4.11616e-18
8914.55903 4.13548e-18
8915.42049 4.16247e-18
8916.29197 4.18948e-18
8917.15343 4.22383e-18
8918.01490 4.25819e-18
8918.87636 4.29107e-18
8919.73782 4.32394e-18
8920.59928 4.34650e-18
8921.46074 4.36903e-18
8922.32221 4.37875e-18
8923.18367 4.38845e-18
8924.04513 4.38508e-18
8924.90659 4.38168e-18
8925.76805 4.37565e-18
8926.63953 4.36960e-18
8927.50100 4.37511e-18
8928.36246 4.38064e-18
8929.22392 4.39824e-18
8930.08538 4.41586e-18
8930.94684 4.43912e-18
8931.80831 4.46238e-18
8932.66977 4.48664e-18
8933.53123 4.51090e-18
8934.39269 4.53165e-18
8935.25415 4.55239e-18
8936.12563 4.57176e-18
8936.98709 4.59112e-18
8937.84856 4.61927e-18
8938.71002 4.64745e-18
8939.57148 4.68484e-18
8940.43294 4.72225e-18
8941.29440 4.75510e-18
8942.15587 4.78794e-18
8943.01733 4.80614e-18
8943.87879 4.82429e-18
8944.74025 4.82329e-18
8945.61173 4.82223e-18
8946.47319 4.80367e-18
8947.33466 4.78506e-18
8948.19612 4.77022e-18
8949.05758 4.75538e-18
8949.91904 4.76152e-18
8950.78050 4.76772e-18
8951.64197 4.78947e-18
8952.50343 4.81127e-18
8953.36489 4.83996e-18
8954.22635 4.86866e-18
8955.08781 4.88166e-18
8955.95929 4.89461e-18
8956.82075 4.86967e-18
8957.68222 4.84464e-18
8958.54368 4.80943e-18
8959.40514 4.77420e-18
8960.26660 4.76951e-18
8961.12806 4.76490e-18
8961.98953 4.79654e-18
8962.85099 4.82828e-18
8963.71245 4.88854e-18
8964.57391 4.94888e-18
8965.44539 5.01822e-18
8966.30685 5.08758e-18
8967.16832 5.13645e-18
8968.02978 5.18528e-18
8968.89124 5.21692e-18
8969.75270 5.24853e-18
8970.61416 5.29525e-18
8971.47563 5.34202e-18
8972.33709 5.41501e-18
8973.19855 5.48808e-18
8974.06001 5.57351e-18
8974.93149 5.65896e-18
8975.79295 5.73678e-18
8976.65441 5.81458e-18
8977.51588 5.85415e-18
8978.37734 5.89362e-18
8979.23880 5.87107e-18
8980.10026 5.84836e-18
8980.96172 5.74834e-18
8981.82319 5.64812e-18
8982.68465 5.48049e-18
8983.54611 5.31267e-18
8984.41759 5.16759e-18
8985.27905 5.02257e-18
8986.14051 4.98322e-18
8987.00198 4.94415e-18
8987.86344 5.03904e-18
8988.72490 5.13430e-18
8989.58636 5.36773e-18
8990.44782 5.60154e-18
8991.30928 5.86211e-18
8992.17075 6.12275e-18
8993.03221 6.27633e-18
8993.89367 6.42963e-18
8994.76515 6.45611e-18
8995.62661 6.48226e-18
8996.48807 6.40617e-18
8997.34954 6.32981e-18
8998.21100 6.21112e-18
8999.07246 6.09234e-18
8999.93392 6.01292e-18
9000.79538 5.93361e-18
9001.65685 5.92915e-18
9002.51831 5.92489e-18
9003.38979 5.99318e-18
9004.25125 6.06165e-18
9005.11271 6.17888e-18
9005.97417 6.29623e-18
9006.83563 6.41572e-18
9007.69710 6.53522e-18
9008.55856 6.62059e-18
9009.42002 6.70587e-18
9010.28148 6.74024e-18
9011.14295 6.77447e-18
9012.00441 6.75861e-18
9012.87589 6.74260e-18
9013.73735 6.71659e-18
9014.59881 6.69055e-18
9015.46027 6.68415e-18
9016.32173 6.67779e-18
9017.18320 6.67282e-18
9018.04466 6.66786e-18
9018.90612 6.65081e-18
9019.76758 6.63372e-18
9020.62904 6.62022e-18
9021.49051 6.60671e-18
9022.35197 6.61298e-18
9023.22345 6.61931e-18
9024.08491 6.66579e-18
9024.94637 6.71239e-18
9025.80783 6.81540e-18
9026.66930 6.91857e-18
9027.53076 7.05334e-18
9028.39222 7.18822e-18
9029.25368 7.31732e-18
9030.11514 7.44634e-18
9030.97660 7.54374e-18
9031.83807 7.64099e-18
9032.70955 7.68735e-18
9033.57101 7.73357e-18
9034.43247 7.72718e-18
9035.29393 7.72063e-18
9036.15539 7.67132e-18
9037.01686 7.62187e-18
9037.87832 7.55495e-18
9038.73978 7.48796e-18
9039.60124 7.44231e-18
9040.46270 7.39681e-18
9041.32417 7.38287e-18
9042.18563 7.36900e-18
9043.05711 7.35829e-18
9043.91857 7.34750e-18
9044.78003 7.32501e-18
9045.64149 7.30244e-18
9046.50295 7.27713e-18
9047.36442 7.25183e-18
9048.22588 7.23156e-18
9049.08734 7.21129e-18
9049.94880 7.20856e-18
9050.81027 7.20576e-18
9051.67173 7.22387e-18
9052.54321 7.24206e-18
9053.40467 7.24400e-18
9054.26613 7.24579e-18
9055.12759 7.19907e-18
9055.98905 7.15224e-18
9056.85052 7.07419e-18
9057.71198 6.99605e-18
9058.57344 6.91017e-18
9059.43490 6.82428e-18
9060.29636 6.73351e-18
9061.16784 6.64271e-18
9062.02931 6.54820e-18
9062.89077 6.45367e-18
9063.75223 6.35197e-18
9064.61369 6.25026e-18
9065.47515 6.13380e-18
9066.33662 6.01731e-18
9067.19808 5.91576e-18
9068.05954 5.81425e-18
9068.92100 5.77683e-18
9069.78246 5.73959e-18
9070.64393 5.75543e-18
9071.51540 5.77141e-18
9072.37687 5.78537e-18
9073.23833 5.79933e-18
9074.09979 5.79108e-18
9074.96125 5.78277e-18
9075.82271 5.76769e-18
9076.68418 5.75259e-18
9077.54564 5.74032e-18
9078.40710 5.72806e-18
9079.26856 5.72415e-18
9080.13002 5.72027e-18
9080.99149 5.72452e-18
9081.86297 5.72878e-18
9082.72443 5.72207e-18
9083.58589 5.71532e-18
9084.44735 5.68696e-18
9085.30881 5.65855e-18
9086.17028 5.62962e-18
9087.03174 5.60068e-18
9087.89320 5.58739e-18
9088.75466 5.57412e-18
9089.61612 5.55577e-18
9090.48760 5.53739e-18
9091.34906 5.49412e-18
9092.21053 5.45104e-18
9093.07199 5.40334e-18
9093.93345 5.35564e-18
9094.79491 5.32857e-18
9095.65637 5.30155e-18
9096.51784 5.28800e-18
9097.37930 5.27448e-18
9098.24076 5.25951e-18
9099.10222 5.24453e-18
9099.97370 5.23200e-18
9100.83516 5.21948e-18
9101.69663 5.21739e-18
9102.55809 5.21533e-18
9103.41955 5.23901e-18
9104.28101 5.26276e-18
9105.14247 5.33413e-18
9106.00393 5.40564e-18
9106.86540 5.49869e-18
9107.72686 5.59181e-18
9108.58832 5.63984e-18
9109.45980 5.68775e-18
9110.32126 5.66234e-18
9111.18272 5.63672e-18
9112.04419 5.55440e-18
9112.90565 5.47192e-18
9113.76711 5.36671e-18
9114.62857 5.26145e-18
9115.49003 5.20317e-18
9116.35150 5.14502e-18
9117.21296 5.17004e-18
9118.07442 5.19529e-18
9118.93588 5.24976e-18
9119.80736 5.30431e-18
9120.66882 5.33563e-18
9121.53028 5.36688e-18
9122.39175 5.34137e-18
9123.25321 5.31570e-18
9124.11467 5.21314e-18
9124.97613 5.11036e-18
9125.83760 4.97817e-18
9126.69906 4.84591e-18
9127.56052 4.74185e-18
9128.43200 4.63787e-18
9129.29346 4.59176e-18
9130.15492 4.54582e-18
9131.01638 4.57687e-18
9131.87785 4.60815e-18
9132.73931 4.70343e-18
9133.60077 4.79888e-18
9134.46223 4.92909e-18
9135.32369 5.05938e-18
9136.18516 5.19401e-18
9137.04662 5.32865e-18
9137.90808 5.43625e-18
9138.76954 5.54377e-18
9139.64102 5.60408e-18
9140.50248 5.66426e-18
9141.36395 5.67045e-18
9142.22541 5.67650e-18
9143.08687 5.61831e-18
9143.94833 5.55995e-18
9144.80979 5.42264e-18
9145.67125 5.28512e-18
9146.53272 5.08648e-18
9147.39418 4.88767e-18
9148.26566 4.68770e-18
9149.12712 4.48773e-18
9149.98858 4.34087e-18
9150.85004 4.19416e-18
9151.71151 4.14445e-18
9152.57297 4.09502e-18
9153.43443 4.15965e-18
9154.29589 4.22460e-18
9155.15735 4.34708e-18
9156.01882 4.46972e-18
9156.88028 4.59036e-18
9157.75176 4.71100e-18
9158.61322 4.80190e-18
9159.47468 4.89271e-18
9160.33614 4.93231e-18
9161.19760 4.97175e-18
9162.05907 4.96148e-18
9162.92053 4.95107e-18
9163.78199 4.90264e-18
9164.64345 4.85412e-18
9165.50492 4.76592e-18
9166.36638 4.67761e-18
9167.22784 4.54755e-18
9168.09932 4.41738e-18
9168.96078 4.27773e-18
9169.82224 4.13806e-18
9170.68370 4.03251e-18
9171.54517 3.92705e-18
9172.40663 3.87742e-18
9173.26809 3.82794e-18
9174.12955 3.84373e-18
9174.99101 3.85970e-18
9175.85248 3.91407e-18
9176.71394 3.96854e-18
9177.58542 4.00047e-18
9178.44688 4.03233e-18
9179.30834 4.02407e-18
9180.16980 4.01569e-18
9181.03127 4.00728e-18
9181.89273 3.99887e-18
9182.75419 4.01234e-18
9183.61565 4.02587e-18
9184.47711 4.05337e-18
9185.33857 4.08091e-18
9186.20004 4.11295e-18
9187.07152 4.14501e-18
9187.93298 4.15861e-18
9188.79444 4.17217e-18
9189.65590 4.15458e-18
9190.51736 4.13690e-18
9191.37883 4.12364e-18
9192.24029 4.11038e-18
9193.10175 4.13307e-18
9193.96321 4.15584e-18
9194.82467 4.20042e-18
9195.68614 4.24504e-18
9196.55762 4.29144e-18
9197.41908 4.33784e-18
9198.28054 4.36793e-18
9199.14200 4.39797e-18
9200.00346 4.39433e-18
9200.86492 4.39060e-18
9201.72639 4.36606e-18
9202.58785 4.34147e-18
9203.44931 4.32130e-18
9204.31077 4.30114e-18
9205.17224 4.28607e-18
9206.04371 4.27100e-18
9206.90518 4.24994e-18
9207.76664 4.22885e-18
9208.62810 4.20531e-18
9209.48956 4.18176e-18
9210.35102 4.16761e-18
9211.21249 4.15349e-18
9212.07395 4.16065e-18
9212.93541 4.16787e-18
9213.79687 4.20999e-18
9214.65833 4.25221e-18
9215.52981 4.32656e-18
9216.39127 4.40101e-18
9217.25274 4.47934e-18
9218.11420 4.55768e-18
9218.97566 4.62166e-18
9219.83712 4.68558e-18
9220.69859 4.74103e-18
9221.56005 4.79647e-18
9222.42151 4.84671e-18
9223.28297 4.89693e-18
9224.14443 4.93635e-18
9225.00590 4.97575e-18
9225.87737 5.00045e-18
9226.73884 5.02511e-18
9227.60030 5.03098e-18
9228.46176 5.03681e-18
9229.32322 5.02227e-18
9230.18468 5.00769e-18
9231.04615 4.98932e-18
9231.90761 4.97094e-18
9232.76907 4.96787e-18
9233.63053 4.96483e-18
9234.49199 4.97284e-18
9235.35346 4.98088e-18
9236.22494 4.98921e-18
9237.08640 4.99754e-18
9237.94786 5.01109e-18
9238.80932 5.02467e-18
9239.67078 5.05357e-18
9240.53225 5.08251e-18
9241.39371 5.13160e-18
9242.25517 5.18075e-18
9243.11663 5.25202e-18
9243.97809 5.32334e-18
9244.84957 5.41057e-18
9245.71103 5.49783e-18
9246.57250 5.58686e-18
9247.43396 5.67589e-18
9248.29542 5.75863e-18
9249.15688 5.84135e-18
9250.01834 5.91947e-18
9250.87981 5.99758e-18
9251.74127 6.06714e-18
9252.60273 6.13667e-18
9253.46419 6.18099e-18
9254.32565 6.22524e-18
9255.19713 6.24160e-18
9256.05860 6.25788e-18
9256.92006 6.27868e-18
9257.78152 6.29949e-18
9258.64298 6.34913e-18
9259.50444 6.39883e-18
9260.36591 6.46992e-18
9261.22737 6.54107e-18
9262.08883 6.62051e-18
9262.95029 6.69997e-18
9263.81175 6.75908e-18
9264.68323 6.81813e-18
9265.54469 6.82947e-18
9266.40616 6.84067e-18
9267.26762 6.80500e-18
9268.12908 6.76921e-18
9268.99054 6.69784e-18
9269.85200 6.62638e-18
9270.71347 6.54588e-18
9271.57493 6.46536e-18
9272.43639 6.40740e-18
9273.29785 6.34951e-18
9274.16933 6.33909e-18
9275.03079 6.32881e-18
9275.89226 6.38423e-18
9276.75372 6.43983e-18
9277.61518 6.55176e-18
9278.47664 6.66385e-18
9279.33810 6.80148e-18
9280.19957 6.93916e-18
9281.06103 7.06920e-18
9281.92249 7.19922e-18
9282.79397 7.28957e-18
9283.65543 7.37985e-18
9284.51689 7.40501e-18
9285.37835 7.42995e-18
9286.23982 7.37475e-18
9287.10128 7.31933e-18
9287.96274 7.19045e-18
9288.82420 7.06129e-18
9289.68566 6.89956e-18
9290.54713 6.73775e-18
9291.40859 6.59072e-18
9292.27005 6.44374e-18
9293.14153 6.37396e-18
9294.00299 6.30440e-18
9294.86445 6.35272e-18
9295.72592 6.40138e-18
9296.58738 6.52572e-18
9297.44884 6.65028e-18
9298.31030 6.79481e-18
9299.17176 6.93937e-18
9300.03323 7.02794e-18
9300.89469 7.11635e-18
9301.75615 7.07596e-18
9302.62763 7.03519e-18
9303.48909 6.93596e-18
9304.35055 6.83656e-18
9305.21201 6.79316e-18
9306.07348 6.74992e-18
9306.93494 6.73563e-18
9307.79640 6.72141e-18
9308.65786 6.65303e-18
9309.51932 6.58449e-18
9310.38079 6.46587e-18
9311.24225 6.34713e-18
9312.11373 6.22738e-18
9312.97519 6.10763e-18
9313.83665 6.03489e-18
9314.69811 5.96228e-18
9315.55958 5.99127e-18
9316.42104 6.02055e-18
9317.28250 6.14062e-18
9318.14396 6.26096e-18
9319.00542 6.36687e-18
9319.86688 6.47272e-18
9320.72835 6.52315e-18
9321.58981 6.57342e-18
9322.46129 6.66536e-18
9323.32275 6.75743e-18
9324.18421 6.91211e-18
9325.04567 7.06697e-18
9325.90714 7.08605e-18
9326.76860 7.10474e-18
9327.63006 6.86592e-18
9328.49152 6.62636e-18
9329.35298 6.32163e-18
9330.21445 6.01672e-18
9331.07591 5.83196e-18
9331.94739 5.64756e-18
9332.80885 5.54694e-18
9333.67031 5.44657e-18
9334.53177 5.37638e-18
9335.39323 5.30628e-18
9336.25470 5.26775e-18
9337.11616 5.22931e-18
9337.97762 5.21321e-18
9338.83908 5.19719e-18
9339.70055 5.36722e-18
9340.56201 5.53778e-18
9341.43349 6.11562e-18
9342.29495 6.69462e-18
9343.15641 7.39631e-18
9344.01787 8.09829e-18
9344.87933 8.40141e-18
9345.74080 8.70331e-18
9346.60226 8.45201e-18
9347.46372 8.19907e-18
9348.32518 7.48228e-18
9349.18664 6.76421e-18
9350.04811 5.91158e-18
9350.90957 5.05859e-18
9351.78105 4.67803e-18
9352.64251 4.29884e-18
9353.50397 4.58982e-18
9354.36543 4.88270e-18
9355.22689 5.40544e-18
9356.08836 5.92881e-18
9356.94982 6.31354e-18
9357.81128 6.69786e-18
9358.67274 6.72403e-18
9359.53420 6.74918e-18
9360.39567 6.32144e-18
9361.26715 5.89241e-18
9362.12861 5.35720e-18
9362.99007 4.82171e-18
9363.85153 4.50604e-18
9364.71299 4.19102e-18
9365.57446 4.11372e-18
9366.43592 4.03711e-18
9367.29738 4.16667e-18
9368.15884 4.29682e-18
9369.02030 4.47079e-18
9369.89178 4.64489e-18
9370.75324 4.67723e-18
9371.61471 4.70916e-18
9372.47617 4.61126e-18
9373.33763 4.51300e-18
9374.19909 4.35440e-18
9375.06056 4.19562e-18
9375.92202 4.08261e-18
9376.78348 3.96972e-18
9377.64494 4.03214e-18
9378.50640 4.09506e-18
9379.37788 4.28367e-18
9380.23934 4.47264e-18
9381.10081 4.62026e-18
9381.96227 4.76775e-18
9382.82373 4.82111e-18
9383.68519 4.87419e-18
9384.54665 4.88136e-18
9385.40812 4.88839e-18
9386.26958 4.86267e-18
9387.13104 4.83685e-18
9387.99250 4.75573e-18
9388.85396 4.67444e-18
9389.72544 4.53664e-18
9390.58691 4.39867e-18
9391.44837 4.22499e-18
9392.30983 4.05120e-18
9393.17129 3.87012e-18
9394.03275 3.68903e-18
9394.89422 3.55113e-18
9395.75568 3.41335e-18
9396.61714 3.35286e-18
9397.47860 3.29259e-18
9398.34006 3.28413e-18
9399.21154 3.27582e-18
9400.07300 3.28751e-18
9400.93447 3.29925e-18
9401.79593 3.30044e-18
9402.65739 3.30159e-18
9403.51885 3.26545e-18
9404.38031 3.22920e-18
9405.24178 3.18587e-18
9406.10324 3.14252e-18
9406.96470 3.13434e-18
9407.82616 3.12626e-18
9408.69764 3.15368e-18
9409.55910 3.18121e-18
9410.42057 3.22952e-18
9411.28203 3.27789e-18
9412.14349 3.32423e-18
9413.00495 3.37056e-18
9413.86641 3.38782e-18
9414.72788 3.40499e-18
9415.58934 3.37509e-18
9416.45080 3.34505e-18
9417.31226 3.26242e-18
9418.17372 3.17963e-18
9419.04520 3.05004e-18
9419.90666 2.92031e-18
9420.76813 2.75241e-18
9421.62959 2.58440e-18
9422.49105 2.43829e-18
9423.35251 2.29225e-18
9424.21397 2.31133e-18
9425.07544 2.33090e-18
9425.93690 2.56122e-18
9426.79836 2.79215e-18
9427.65982 3.08337e-18
9428.53130 3.37474e-18
9429.39276 3.58188e-18
9430.25423 3.78877e-18
9431.11569 3.77766e-18
9431.97715 3.76591e-18
9432.83861 3.46856e-18
9433.70007 3.17038e-18
9434.56153 2.82257e-18
9435.42300 2.47463e-18
9436.28446 2.32298e-18
9437.14592 2.17192e-18
9438.01740 2.25530e-18
9438.87886 2.33936e-18
9439.74032 2.64180e-18
9440.60179 2.94486e-18
9441.46325 3.31275e-18
9442.32471 3.68082e-18
9443.18617 3.91646e-18
9444.04763 4.15172e-18
9444.90910 4.19857e-18
9445.77056 4.24487e-18
9446.63202 4.11527e-18
9447.49348 3.98516e-18
9448.36496 3.74907e-18
9449.22642 3.51268e-18
9450.08788 3.28267e-18
9450.94935 3.05267e-18
9451.81081 2.90207e-18
9452.67227 2.75170e-18
9453.53373 2.70910e-18
9454.39520 2.66681e-18
9455.25666 2.73935e-18
9456.11812 2.81222e-18
9456.98960 2.98230e-18
9457.85106 3.15264e-18
9458.71252 3.36934e-18
9459.57398 3.58616e-18
9460.43545 3.74672e-18
9461.29691 3.90710e-18
9462.15837 3.94961e-18
9463.01983 3.99177e-18
9463.88129 3.96459e-18
9464.74276 3.93722e-18
9465.60422 3.89094e-18
9466.47570 3.84460e-18
9467.33716 3.81028e-18
9468.19862 3.77599e-18
9469.06008 3.77859e-18
9469.92155 3.78129e-18
9470.78301 3.78254e-18
9471.64447 3.78377e-18
9472.50593 3.74289e-18
9473.36739 3.70190e-18
9474.22885 3.64443e-18
9475.09032 3.58691e-18
9475.96180 3.54755e-18
9476.82326 3.50825e-18
9477.68472 3.55899e-18
9478.54618 3.60999e-18
9479.40764 3.83197e-18
9480.26911 4.05444e-18
9481.13057 4.35953e-18
9481.99203 4.66486e-18
9482.85349 4.88260e-18
9483.71495 5.10008e-18
9484.57642 5.14061e-18
9485.43788 5.18062e-18
9486.30936 5.01248e-18
9487.17082 4.84374e-18
9488.03228 4.53539e-18
9488.89374 4.22665e-18
9489.75520 3.95843e-18
9490.61667 3.69032e-18
9491.47813 3.57751e-18
9492.33959 3.46515e-18
9493.20105 3.50563e-18
9494.06252 3.54657e-18
9494.92398 3.73978e-18
9495.79546 3.93343e-18
9496.65692 4.30398e-18
9497.51838 4.67504e-18
9498.37984 5.18387e-18
9499.24130 5.69309e-18
9500.10277 6.14108e-18
9500.96423 6.58888e-18
9501.82569 6.80383e-18
9502.68715 7.01809e-18
9503.54861 6.97275e-18
9504.41008 6.92665e-18
9505.28155 6.63862e-18
9506.14302 6.34989e-18
9507.00448 5.96877e-18
9507.86594 5.58740e-18
9508.72740 5.29115e-18
9509.58887 4.99517e-18
9510.45033 4.80123e-18
9511.31179 4.60760e-18
9512.17325 4.48081e-18
9513.03471 4.35422e-18
9513.89617 4.32920e-18
9514.75764 4.30447e-18
9515.62912 4.43077e-18
9516.49058 4.55751e-18
9517.35204 4.82068e-18
9518.21350 5.08424e-18
9519.07496 5.43568e-18
9519.93643 5.78738e-18
9520.79789 6.14155e-18
9521.65935 6.49573e-18
9522.52081 6.73479e-18
9523.38227 6.97351e-18
9524.24374 7.05776e-18
9525.11522 7.14157e-18
9525.97668 7.13294e-18
9526.83814 7.12405e-18
9527.69960 7.07964e-18
9528.56106 7.03512e-18
9529.42252 7.00002e-18
9530.28399 6.96496e-18
9531.14545 6.96447e-18
9532.00691 6.96409e-18
9532.86837 6.95815e-18
9533.72984 6.95220e-18
9534.60131 6.90699e-18
9535.46278 6.86165e-18
9536.32424 6.76692e-18
9537.18570 6.67203e-18
9538.04716 6.53321e-18
9538.90862 6.39426e-18
9539.77009 6.33804e-18
9540.63155 6.28207e-18
9541.49301 6.42804e-18
9542.35447 6.57459e-18
9543.21593 6.83708e-18
9544.08741 7.09989e-18
9544.94888 7.35139e-18
9545.81034 7.60282e-18
9546.67180 7.71891e-18
9547.53326 7.83456e-18
9548.39472 7.68764e-18
9549.25619 7.54000e-18
9550.11765 7.27807e-18
9550.97911 7.01581e-18
9551.84057 6.93680e-18
9552.70203 6.85832e-18
9553.57351 6.98246e-18
9554.43497 7.10718e-18
9555.29644 7.25837e-18
9556.15790 7.40961e-18
9557.01936 7.46920e-18
9557.88082 7.52850e-18
9558.74228 7.41744e-18
9559.60375 7.30596e-18
9560.46521 7.07329e-18
9561.32667 6.84031e-18
9562.18813 6.75501e-18
9563.05961 6.67016e-18
9563.92107 6.87098e-18
9564.78254 7.07264e-18
9565.64400 7.41673e-18
9566.50546 7.76125e-18
9567.36692 8.09491e-18
9568.22838 8.42851e-18
9569.08985 8.56832e-18
9569.95131 8.70762e-18
9570.81277 8.52734e-18
9571.67423 8.34613e-18
9572.53569 8.00463e-18
9573.40717 7.66270e-18
9574.26863 7.34873e-18
9575.13010 7.03490e-18
9575.99156 6.87466e-18
9576.85302 6.71490e-18
9577.71448 6.80805e-18
9578.57594 6.90196e-18
9579.43741 7.09187e-18
9580.29887 7.28202e-18
9581.16033 7.33989e-18
9582.02179 7.39739e-18
9582.89327 7.29295e-18
9583.75473 7.18808e-18
9584.61620 6.96622e-18
9585.47766 6.74400e-18
9586.33912 6.56472e-18
9587.20058 6.38556e-18
9588.06204 6.49244e-18
9588.92351 6.60018e-18
9589.78497 6.96275e-18
9590.64643 7.32608e-18
9591.51791 7.66486e-18
9592.37937 8.00363e-18
9593.24083 8.16794e-18
9594.10229 8.33183e-18
9594.96376 8.33614e-18
9595.82522 8.34002e-18
9596.68668 8.21467e-18
9597.54814 8.08895e-18
9598.40960 7.90458e-18
9599.27107 7.72013e-18
9600.13253 7.55481e-18
9600.99399 7.38948e-18
9601.86547 7.30488e-18
9602.72693 7.22049e-18
9603.58839 7.25686e-18
9604.44986 7.29367e-18
9605.31132 7.44433e-18
9606.17278 7.59535e-18
9607.03424 7.82637e-18
9607.89570 8.05754e-18
9608.75717 8.22200e-18
9609.61863 8.38624e-18
9610.48009 8.34254e-18
9611.35157 8.29819e-18
9612.21303 8.10634e-18
9613.07449 7.91414e-18
9613.93595 7.68743e-18
9614.79742 7.46057e-18
9615.65888 7.27771e-18
9616.52034 7.09494e-18
9617.38180 7.02155e-18
9618.24326 6.94850e-18
9619.10473 7.00147e-18
9619.96619 7.05481e-18
9620.82765 7.21589e-18
9621.69913 7.37734e-18
9622.56059 7.58845e-18
9623.42205 7.79970e-18
9624.28352 7.97998e-18
9625.14498 8.16018e-18
9626.00644 8.23256e-18
9626.86790 8.30459e-18
9627.72936 8.19684e-18
9628.59083 8.08859e-18
9629.45229 7.82191e-18
9630.31375 7.55481e-18
9631.17521 7.28705e-18
9632.04669 7.01926e-18
9632.90815 6.87290e-18
9633.76961 6.72689e-18
9634.63108 6.74961e-18
9635.49254 6.77283e-18
9636.35400 6.95959e-18
9637.21546 7.14683e-18
9638.07692 7.32048e-18
9638.93839 7.49407e-18
9639.79985 7.50816e-18
9640.67133 7.52174e-18
9641.53279 7.46769e-18
9642.39425 7.41342e-18
9643.25571 7.39804e-18
9644.11718 7.38280e-18
9644.97864 7.43189e-18
9645.84010 7.48127e-18
9646.70156 7.60534e-18
9647.56302 7.72962e-18
9648.42448 7.84578e-18
9649.28595 7.96186e-18
9650.15743 7.96215e-18
9651.01889 7.96201e-18
9651.88035 7.84599e-18
9652.74181 7.72962e-18
9653.60327 7.54575e-18
9654.46474 7.36159e-18
9655.32620 7.17633e-18
9656.18766 6.99104e-18
9657.04912 6.88114e-18
9657.91058 6.77147e-18
9658.77205 6.77982e-18
9659.64352 6.78853e-18
9660.50499 6.92563e-18
9661.36645 7.06311e-18
9662.22791 7.28554e-18
9663.08937 7.50823e-18
9663.95083 7.70266e-18
9664.81230 7.89703e-18
9665.67376 7.99788e-18
9666.53522 8.09851e-18
9667.39668 8.14049e-18
9668.25815 8.18232e-18
9669.11961 8.18534e-18
9669.99109 8.18821e-18
9670.85255 8.11871e-18
9671.71401 8.04891e-18
9672.57547 7.89767e-18
9673.43693 7.74615e-18
9674.29840 7.57501e-18
9675.15986 7.40372e-18
9676.02132 7.27433e-18
9676.88278 7.14510e-18
9677.74424 7.10056e-18
9678.61572 7.05628e-18
9679.47718 7.12511e-18
9680.33865 7.19426e-18
9681.20011 7.31976e-18
9682.06157 7.44533e-18
9682.92303 7.54848e-18
9683.78449 7.65156e-18
9684.64596 7.70899e-18
9685.50742 7.76621e-18
9686.36888 7.77469e-18
9687.23034 7.78303e-18
9688.10182 7.75075e-18
9688.96328 7.71841e-18
9689.82475 7.66536e-18
9690.68621 7.61224e-18
9691.54767 7.54201e-18
9692.40913 7.47171e-18
9693.27059 7.37374e-18
9694.13206 7.27562e-18
9694.99352 7.16433e-18
9695.85498 7.05300e-18
9696.71644 6.96794e-18
9697.57790 6.88295e-18
9698.44938 6.84376e-18
9699.31084 6.80472e-18
9700.17231 6.80395e-18
9701.03377 6.80330e-18
9701.89523 6.82478e-18
9702.75669 6.84633e-18
9703.61816 6.85410e-18
9704.47962 6.86183e-18
9705.34108 6.83266e-18
9706.20254 6.80339e-18
9707.06400 6.75970e-18
9707.93548 6.71596e-18
9708.79694 6.68095e-18
9709.65841 6.64597e-18
9710.51987 6.63231e-18
9711.38133 6.61871e-18
9712.24279 6.63465e-18
9713.10425 6.65068e-18
9713.96572 6.67418e-18
9714.82718 6.69770e-18
9715.68864 6.70223e-18
9716.55010 6.70671e-18
9717.41156 6.68466e-18
9718.28304 6.66255e-18
9719.14451 6.61088e-18
9720.00597 6.55912e-18
9720.86743 6.50547e-18
9721.72889 6.45181e-18
9722.59035 6.43868e-18
9723.45182 6.42567e-18
9724.31328 6.43439e-18
9725.17474 6.44319e-18
9726.03620 6.41831e-18
9726.89766 6.39333e-18
9727.76914 6.31520e-18
9728.63060 6.23692e-18
9729.49207 6.11585e-18
9730.35353 5.99467e-18
9731.21499 5.85650e-18
9732.07645 5.71828e-18
9732.93791 5.61050e-18
9733.79938 5.50283e-18
9734.66084 5.45504e-18
9735.52230 5.40743e-18
9736.38376 5.41388e-18
9737.25524 5.42049e-18
9738.11670 5.46785e-18
9738.97817 5.51533e-18
9739.83963 5.57739e-18
9740.70109 5.63951e-18
9741.56255 5.69035e-18
9742.42401 5.74117e-18
9743.28548 5.76707e-18
9744.14694 5.79290e-18
9745.00840 5.78570e-18
9745.86986 5.77841e-18
9746.74134 5.74917e-18
9747.60280 5.71988e-18
9748.46426 5.68375e-18
9749.32573 5.64760e-18
9750.18719 5.60819e-18
9751.04865 5.56876e-18
9751.91011 5.52796e-18
9752.77157 5.48716e-18
9753.63304 5.44363e-18
9754.49450 5.40009e-18
9755.35596 5.35101e-18
9756.22744 5.30191e-18
9757.08890 5.25749e-18
9757.95036 5.21308e-18
9758.81183 5.18842e-18
9759.67329 5.16382e-18
9760.53475 5.17058e-18
9761.39621 5.17744e-18
9762.25767 5.22564e-18
9763.11913 5.27397e-18
9763.98060 5.34844e-18
9764.84206 5.42298e-18
9765.71354 5.48097e-18
9766.57500 5.53892e-18
9767.43646 5.55947e-18
9768.29792 5.57992e-18
9769.15939 5.57678e-18
9770.02085 5.57357e-18
9770.88231 5.55845e-18
9771.74377 5.54329e-18
9772.60523 5.52203e-18
9773.46670 5.50075e-18
9774.32816 5.48077e-18
9775.19964 5.46079e-18
9776.06110 5.44797e-18
9776.92256 5.43516e-18
9777.78402 5.43340e-18
9778.64548 5.43167e-18
9779.50695 5.44598e-18
9780.36841 5.46033e-18
9781.22987 5.49208e-18
9782.09133 5.52389e-18
9782.95280 5.54560e-18
9783.81426 5.56728e-18
9784.68574 5.54908e-18
9785.54720 5.53075e-18
9786.40866 5.48711e-18
9787.27012 5.44340e-18
9788.13158 5.40155e-18
9788.99305 5.35970e-18
9789.85451 5.32921e-18
9790.71597 5.29876e-18
9791.57743 5.28364e-18
9792.43889 5.26855e-18
9793.30036 5.25857e-18
9794.16182 5.24861e-18
9795.03330 5.22232e-18
9795.89476 5.19598e-18
9796.75622 5.15965e-18
9797.61768 5.12329e-18
9798.47915 5.10826e-18
9799.34061 5.09330e-18
9800.20207 5.11004e-18
9801.06353 5.12689e-18
9801.92499 5.16056e-18
9802.78645 5.19428e-18
9803.64792 5.22987e-18
9804.51940 5.26546e-18
9805.38086 5.28537e-18
9806.24232 5.30523e-18
9807.10378 5.30093e-18
9807.96524 5.29654e-18
9808.82671 5.28491e-18
9809.68817 5.27326e-18
9810.54963 5.27037e-18
9811.41109 5.26750e-18
9812.27255 5.28351e-18
9813.13402 5.29957e-18
9813.99548 5.33919e-18
9814.86696 5.37889e-18
9815.72842 5.41393e-18
9816.58988 5.44896e-18
9817.45134 5.44947e-18
9818.31280 5.44988e-18
9819.17427 5.41984e-18
9820.03573 5.38972e-18
9820.89719 5.34174e-18
9821.75865 5.29370e-18
9822.62012 5.24626e-18
9823.48158 5.19884e-18
9824.35306 5.17350e-18
9825.21452 5.14823e-18
9826.07598 5.14185e-18
9826.93744 5.13553e-18
9827.79890 5.13067e-18
9828.66037 5.12581e-18
9829.52183 5.11815e-18
9830.38329 5.11048e-18
9831.24475 5.10519e-18
9832.10621 5.09990e-18
9832.97769 5.09579e-18
9833.83915 5.09168e-18
9834.70062 5.08197e-18
9835.56208 5.07224e-18
9836.42354 5.05381e-18
9837.28500 5.03535e-18
9838.14647 5.01003e-18
9839.00793 4.98469e-18
9839.86939 4.95453e-18
9840.73085 4.92436e-18
9841.59231 4.89045e-18
9842.45377 4.85652e-18
9843.32525 4.82272e-18
9844.18672 4.78891e-18
9845.04818 4.76719e-18
9845.90964 4.74551e-18
9846.77110 4.74531e-18
9847.63256 4.74517e-18
9848.49403 4.76358e-18
9849.35549 4.78204e-18
9850.21695 4.81369e-18
9851.07841 4.84538e-18
9851.93987 4.88515e-18
9852.81135 4.92494e-18
9853.67282 4.96677e-18
9854.53428 5.00861e-18
9855.39574 5.04869e-18
9856.25720 5.08875e-18
9857.11866 5.12426e-18
9857.98013 5.15974e-18
9858.84159 5.18308e-18
9859.70305 5.20636e-18
9860.56451 5.20882e-18
9861.42597 5.21122e-18
9862.29745 5.19164e-18
9863.15891 5.17198e-18
9864.02038 5.13408e-18
9864.88184 5.09612e-18
9865.74330 5.04682e-18
9866.60476 4.99747e-18
9867.46622 4.94666e-18
9868.32769 4.89585e-18
9869.18915 4.84920e-18
9870.05061 4.80256e-18
9870.92209 4.75942e-18
9871.78355 4.71629e-18
9872.64501 4.67740e-18
9873.50648 4.63852e-18
9874.36794 4.60721e-18
9875.22940 4.57592e-18
9876.09086 4.55482e-18
9876.95232 4.53376e-18
9877.81379 4.52531e-18
9878.67525 4.51690e-18
9879.53671 4.52220e-18
9880.39817 4.52754e-18
9881.26965 4.54490e-18
9882.13111 4.56230e-18
9882.99257 4.58862e-18
9883.85404 4.61496e-18
9884.71550 4.64453e-18
9885.57696 4.67411e-18
9886.43842 4.70077e-18
9887.29988 4.72743e-18
9888.16135 4.74543e-18
9889.02281 4.76340e-18
9889.88427 4.76789e-18
9890.74573 4.77233e-18
9891.61721 4.76319e-18
9892.47867 4.75402e-18
9893.34014 4.73370e-18
9894.20160 4.71335e-18
9895.06306 4.68446e-18
9895.92452 4.65553e-18
9896.78598 4.62082e-18
9897.64745 4.58610e-18
9898.50891 4.55008e-18
9899.37037 4.51405e-18
9900.23183 4.48269e-18
9901.09329 4.45134e-18
9901.96477 4.42562e-18
9902.82623 4.39992e-18
9903.68770 4.37478e-18
9904.54916 4.34964e-18
9905.41062 4.32624e-18
9906.27208 4.30284e-18
9907.13354 4.29222e-18
9907.99501 4.28162e-18
9908.85647 4.28901e-18
9909.71793 4.29646e-18
9910.57939 4.31684e-18
9911.45087 4.33726e-18
9912.31233 4.36244e-18
9913.17380 4.38764e-18
9914.03526 4.40029e-18
9914.89672 4.41292e-18
9915.75818 4.39930e-18
9916.61964 4.38560e-18
9917.48111 4.35052e-18
9918.34257 4.31537e-18
9919.20403 4.26722e-18
9920.07551 4.21904e-18
9920.93697 4.16739e-18
9921.79843 4.11573e-18
9922.65989 4.07028e-18
9923.52136 4.02486e-18
9924.38282 3.98988e-18
9925.24428 3.95494e-18
9926.10574 3.93210e-18
9926.96720 3.90930e-18
9927.82867 3.89227e-18
9928.69013 3.87525e-18
9929.56161 3.85398e-18
9930.42307 3.83270e-18
9931.28453 3.80391e-18
9932.14599 3.77510e-18
9933.00746 3.74023e-18
9933.86892 3.70534e-18
9934.73038 3.66735e-18
9935.59184 3.62934e-18
9936.45330 3.59250e-18
9937.31477 3.55565e-18
9938.17623 3.52561e-18
9939.03769 3.49558e-18
9939.90917 3.47943e-18
9940.77063 3.46332e-18
9941.63209 3.46301e-18
9942.49355 3.46276e-18
9943.35502 3.47094e-18
9944.21648 3.47915e-18
9945.07794 3.48950e-18
9945.93940 3.49984e-18
9946.80086 3.51073e-18
9947.66233 3.52163e-18
9948.52379 3.53122e-18
9949.39527 3.54082e-18
9950.25673 3.54560e-18
9951.11819 3.55038e-18
9951.97965 3.54808e-18
9952.84112 3.54578e-18
9953.70258 3.54096e-18
9954.56404 3.53614e-18
9955.42550 3.53380e-18
9956.28696 3.53147e-18
9957.14843 3.52827e-18
9958.00989 3.52507e-18
9958.88137 3.51639e-18
9959.74283 3.50767e-18
9960.60429 3.49115e-18
9961.46575 3.47459e-18
9962.32721 3.44870e-18
9963.18868 3.42277e-18
9964.05014 3.39525e-18
9964.91160 3.36774e-18
9965.77306 3.35156e-18
9966.63452 3.33541e-18
9967.49599 3.33360e-18
9968.36747 3.33183e-18
9969.22893 3.33940e-18
9970.09039 3.34699e-18
9970.95185 3.36316e-18
9971.81331 3.37935e-18
9972.67477 3.40783e-18
9973.53624 3.43635e-18
9974.39770 3.47559e-18
9975.25916 3.51487e-18
9976.12062 3.55648e-18
9976.98208 3.59809e-18
9977.85356 3.63538e-18
9978.71503 3.67266e-18
9979.57649 3.70243e-18
9980.43795 3.73218e-18
9981.29941 3.75332e-18
9982.16087 3.77443e-18
9983.02234 3.79141e-18
9983.88380 3.80839e-18
9984.74526 3.82576e-18
9985.60672 3.84314e-18
9986.46818 3.86316e-18
9987.32965 3.88318e-18
9988.20112 3.90701e-18
9989.06259 3.93085e-18
9989.92405 3.95009e-18
9990.78551 3.96932e-18
9991.64697 3.97446e-18
9992.50843 3.97955e-18
9993.36990 3.97773e-18
9994.23136 3.97589e-18
9995.09282 3.97932e-18
9995.95428 3.98277e-18
9996.81574 3.98937e-18
9997.67721 3.99598e-18
9998.54869 3.99797e-18
9999.41015 3.99994e-18
