# wavelength flux
3719.99603 3.85872e-18
3721.49933 3.65411e-18
3723.00263 3.56971e-18
3724.49590 3.17159e-18
3725.99920 3.13304e-18
3727.50250 3.33025e-18
3728.99578 3.23374e-18
3730.49908 3.01023e-18
3732.00238 3.30425e-18
3733.49566 3.00180e-18
3734.99896 2.93196e-18
3736.50226 3.30310e-18
3737.99554 2.95673e-18
3739.49884 2.78894e-18
3741.00214 3.03034e-18
3742.49542 3.19842e-18
3743.99872 3.03932e-18
3745.50202 2.99812e-18
3746.99529 3.35134e-18
3748.49859 3.12704e-18
3750.00189 2.84317e-18
3751.49517 3.23958e-18
3752.99847 2.92703e-18
3754.50177 2.86906e-18
3755.99505 2.86915e-18
3757.49835 3.24350e-18
3759.00165 3.52121e-18
3760.50495 3.19904e-18
3761.99823 3.09289e-18
3763.50153 3.22612e-18
3765.00483 2.89334e-18
3766.49811 3.01023e-18
3768.00141 3.30726e-18
3769.50471 2.69344e-18
3770.99798 2.84476e-18
3772.50128 3.13498e-18
3774.00458 2.77916e-18
3775.49786 2.74167e-18
3777.00116 2.70198e-18
3778.50446 2.75456e-18
3779.99774 2.80037e-18
3781.50104 3.00102e-18
3783.00434 2.86416e-18
3784.49762 2.74891e-18
3786.00092 2.63670e-18
3787.50422 2.96030e-18
3788.99750 2.72387e-18
3790.50080 2.69379e-18
3792.00410 2.62681e-18
3793.49737 2.68189e-18
3795.00067 2.90560e-18
3796.50397 2.98362e-18
3797.99725 2.99585e-18
3799.50055 2.83304e-18
3801.00385 2.76783e-18
3802.49713 2.67987e-18
3804.00043 2.72500e-18
3805.50373 2.71580e-18
3806.99701 2.55967e-18
3808.50031 2.54031e-18
3810.00361 2.88102e-18
3811.49689 2.99474e-18
3813.00019 2.80006e-18
3814.50349 2.92733e-18
3815.99676 2.91571e-18
3817.50006 2.79648e-18
3819.00336 2.64568e-18
3820.49664 2.44335e-18
3821.99994 2.66969e-18
3823.50324 2.56537e-18
3824.99652 2.92271e-18
3826.49982 3.30484e-18
3828.00312 3.24162e-18
3829.49640 3.59249e-18
3830.99970 3.49636e-18
3832.50300 3.14874e-18
3833.99628 3.28114e-18
3835.49958 3.03871e-18
3837.00288 3.01843e-18
3838.49615 2.75202e-18
3839.99945 3.55882e-18
3841.50275 3.18406e-18
3842.99603 3.63102e-18
3844.49933 3.15727e-18
3846.00263 3.21094e-18
3847.49591 3.31756e-18
3848.99921 3.69023e-18
3850.50251 3.84663e-18
3851.99579 4.06256e-18
3853.49909 4.20095e-18
3855.00239 4.13915e-18
3856.49567 3.87679e-18
3857.99897 3.93572e-18
3859.50227 3.97539e-18
3860.99554 3.70782e-18
3862.49884 3.90086e-18
3864.00214 3.94672e-18
3865.49542 4.05402e-18
3866.99872 4.19129e-18
3868.50202 4.36649e-18
3869.99530 4.47464e-18
3871.49860 4.36294e-18
3873.00190 4.24469e-18
3874.49518 4.62790e-18
3875.99848 4.63594e-18
3877.50178 4.35972e-18
3878.99506 4.83884e-18
3880.49836 4.88063e-18
3882.00166 4.83648e-18
3883.50496 4.79923e-18
3884.99823 4.75645e-18
3886.50153 4.95004e-18
3888.00483 5.23265e-18
3889.49811 4.99184e-18
3891.00141 4.60083e-18
3892.50471 4.52336e-18
3893.99799 4.63338e-18
3895.50129 4.83947e-18
3897.00459 5.30571e-18
3898.49787 5.50131e-18
3900.00117 5.30409e-18
3901.50447 5.20610e-18
3902.99775 5.21863e-18
3904.50105 5.11720e-18
3906.00435 5.49739e-18
3907.49762 5.50301e-18
3909.00092 5.48682e-18
3910.50422 5.92106e-18
3911.99750 5.38272e-18
3913.50080 4.86126e-18
3915.00410 5.43527e-18
3916.49738 5.48138e-18
3918.00068 5.56603e-18
3919.50398 5.70633e-18
3920.99726 5.50883e-18
3922.50056 5.27284e-18
3924.00386 5.58399e-18
3925.49714 5.92248e-18
3927.00044 5.56181e-18
3928.50374 5.96923e-18
3929.99701 6.09713e-18
3931.50031 6.00079e-18
3933.00361 5.78059e-18
3934.49689 5.41388e-18
3936.00019 5.56830e-18
3937.50349 6.17181e-18
3938.99677 5.77181e-18
3940.50007 5.97513e-18
3942.00337 6.25072e-18
3943.49665 6.33573e-18
3944.99995 6.07374e-18
3946.50325 5.94140e-18
3947.99653 6.00985e-18
3949.49983 5.90865e-18
3951.00313 6.01064e-18
3952.49640 6.28644e-18
3953.99970 6.29075e-18
3955.50300 6.50011e-18
3956.99628 6.55708e-18
3958.49958 6.66154e-18
3960.00288 6.71497e-18
3961.49616 6.60748e-18
3962.99946 6.44850e-18
3964.50276 6.59602e-18
3965.99604 6.60776e-18
3967.49934 6.04854e-18
3969.00264 6.18041e-18
3970.49592 6.72543e-18
3971.99922 6.75210e-18
3973.50252 6.77369e-18
3974.99579 6.57794e-18
3976.49909 6.64655e-18
3978.00239 6.73087e-18
3979.49567 6.39217e-18
3980.99897 6.33990e-18
3982.50227 6.49673e-18
3983.99555 6.69014e-18
3985.49885 6.90784e-18
3987.00215 6.98475e-18
3988.49543 7.03700e-18
3989.99873 7.13151e-18
3991.50203 7.06228e-18
3992.99531 6.71960e-18
3994.49861 6.30999e-18
3996.00191 6.47922e-18
3997.49518 6.83268e-18
3998.99848 6.92210e-18
4000.50178 6.68522e-18
4001.99506 7.06885e-18
4003.49836 7.09382e-18
4005.00166 6.50934e-18
4006.50496 6.64961e-18
4007.99824 6.91331e-18
4009.50154 7.13513e-18
4011.00484 6.89610e-18
4012.49812 7.04302e-18
4014.00142 6.92838e-18
4015.50472 6.96019e-18
4016.99800 7.29286e-18
4018.50130 7.14788e-18
4020.00460 7.00145e-18
4021.49787 6.87792e-18
4023.00117 7.12399e-18
4024.50447 7.23004e-18
4025.99775 6.75135e-18
4027.50105 6.83809e-18
4029.00435 7.23824e-18
4030.49763 7.29912e-18
4032.00093 7.12676e-18
4033.50423 6.66564e-18
4034.99751 6.67289e-18
4036.50081 6.67628e-18
4038.00411 6.69597e-18
4039.49739 6.86235e-18
4041.00069 6.75918e-18
4042.50399 6.74112e-18
4043.99726 6.41184e-18
4045.50056 6.38209e-18
4047.00386 6.69611e-18
4048.49714 6.96781e-18
4050.00044 6.34098e-18
4051.50374 6.42435e-18
4052.99702 6.50782e-18
4054.50032 6.41027e-18
4056.00362 6.82574e-18
4057.49690 6.40536e-18
4059.00020 6.58680e-18
4060.50350 6.95930e-18
4061.99678 6.41483e-18
4063.50008 6.56471e-18
4065.00338 6.28801e-18
4066.49665 6.12937e-18
4067.99995 6.42578e-18
4069.50325 6.50173e-18
4070.99653 6.14921e-18
4072.49983 6.19118e-18
4074.00313 6.47228e-18
4075.49641 6.58168e-18
4076.99971 6.46329e-18
4078.50301 6.63534e-18
4079.99629 6.55604e-18
4081.49959 6.44764e-18
4083.00289 6.27044e-18
4084.49617 6.34894e-18
4085.99947 6.40627e-18
4087.50277 6.36205e-18
4088.99604 6.36140e-18
4090.49934 6.24871e-18
4092.00264 6.10627e-18
4093.49592 6.00511e-18
4094.99922 6.04134e-18
4096.50252 6.12103e-18
4097.99580 6.09070e-18
4099.49910 6.05263e-18
4101.00240 6.08218e-18
4102.49568 6.22226e-18
4103.99898 6.25974e-18
4105.50228 6.19048e-18
4106.99556 6.07622e-18
4108.49886 6.08094e-18
4110.00216 6.07479e-18
4111.49543 5.93784e-18
4112.99873 5.93108e-18
4114.50203 6.04587e-18
4115.99531 6.23007e-18
4117.49861 6.06426e-18
4119.00191 6.15837e-18
4120.49519 6.29731e-18
4121.99849 6.39004e-18
4123.50179 6.44149e-18
4124.99507 6.09737e-18
4126.49837 6.06387e-18
4128.00167 6.30952e-18
4129.50497 5.80678e-18
4130.99825 5.63351e-18
4132.50155 5.95317e-18
4134.00485 5.92013e-18
4135.49812 5.86660e-18
4137.00142 5.75234e-18
4138.50472 5.94016e-18
4139.99800 6.13687e-18
4141.50130 5.98142e-18
4143.00460 6.23158e-18
4144.49788 6.32295e-18
4146.00118 5.90261e-18
4147.50448 6.00812e-18
4148.99776 6.37544e-18
4150.50106 6.19971e-18
4152.00436 5.80313e-18
4153.49764 5.74846e-18
4155.00094 6.07156e-18
4156.50424 6.09842e-18
4157.99751 5.82311e-18
4159.50081 6.02957e-18
4161.00411 6.13202e-18
4162.49739 5.95218e-18
4164.00069 5.87102e-18
4165.50399 6.10546e-18
4166.99727 6.19405e-18
4168.50057 6.21067e-18
4170.00387 6.44048e-18
4171.49715 6.27586e-18
4173.00045 6.03478e-18
4174.50375 5.98542e-18
4175.99703 6.04999e-18
4177.50033 6.25529e-18
4179.00363 6.26933e-18
4180.49690 6.00144e-18
4182.00020 5.95328e-18
4183.50350 6.14598e-18
4184.99678 6.06313e-18
4186.50008 5.89531e-18
4188.00338 6.11223e-18
4189.49666 6.18556e-18
4190.99996 6.24027e-18
4192.50326 6.53346e-18
4193.99654 6.30702e-18
4195.49984 6.02127e-18
4197.00314 5.88428e-18
4198.49642 6.08340e-18
4199.99972 6.22439e-18
4201.50302 6.06093e-18
4202.99629 6.10020e-18
4204.49959 6.34139e-18
4206.00289 6.31944e-18
4207.49617 6.00042e-18
4208.99947 6.12132e-18
4210.50277 6.04509e-18
4211.99605 5.96497e-18
4213.49935 6.21890e-18
4215.00265 6.36896e-18
4216.49593 6.36158e-18
4217.99923 6.50721e-18
4219.50253 6.69138e-18
4220.99581 6.66824e-18
4222.49911 6.53774e-18
4224.00241 6.54125e-18
4225.49568 6.58646e-18
4226.99898 6.54357e-18
4228.50228 6.62484e-18
4229.99556 6.75036e-18
4231.49886 6.63397e-18
4233.00216 6.47367e-18
4234.49544 6.54857e-18
4235.99874 6.53758e-18
4237.50204 6.52154e-18
4238.99532 6.51389e-18
4240.49862 6.76482e-18
4242.00192 7.02585e-18
4243.49520 6.93627e-18
4244.99850 6.78097e-18
4246.50180 6.90412e-18
4247.99507 6.97896e-18
4249.49837 6.85280e-18
4251.00167 6.70950e-18
4252.50497 6.62038e-18
4253.99825 6.67689e-18
4255.50155 6.59186e-18
4257.00485 6.76707e-18
4258.49813 6.75926e-18
4260.00143 6.85115e-18
4261.50473 6.93336e-18
4262.99801 6.56376e-18
4264.50131 6.77914e-18
4266.00461 6.89443e-18
4267.49789 6.94680e-18
4269.00119 7.14172e-18
4270.50449 7.23472e-18
4271.99776 7.09708e-18
4273.50106 6.73125e-18
4275.00436 7.11106e-18
4276.49764 7.29151e-18
4278.00094 7.31875e-18
4279.50424 7.14022e-18
4280.99752 7.25111e-18
4282.50082 7.17554e-18
4284.00412 7.61773e-18
4285.49740 7.25627e-18
4287.00070 7.10158e-18
4288.50400 7.19379e-18
4289.99728 7.39730e-18
4291.50058 7.17330e-18
4293.00388 7.35801e-18
4294.49715 7.54340e-18
4296.00045 7.45963e-18
4297.50375 7.30091e-18
4298.99703 7.20506e-18
4300.50033 7.50006e-18
4302.00363 7.32229e-18
4303.49691 7.30126e-18
4305.00021 7.53644e-18
4306.50351 7.60947e-18
4307.99679 7.37388e-18
4309.50009 7.25710e-18
4311.00339 7.35609e-18
4312.49667 7.41053e-18
4313.99997 7.29761e-18
4315.50327 7.33977e-18
4316.99654 7.54465e-18
4318.49984 7.60834e-18
4320.00314 7.52714e-18
4321.49642 7.47125e-18
4322.99972 7.84129e-18
4324.50302 7.81685e-18
4325.99630 7.60774e-18
4327.49960 7.56377e-18
4329.00290 7.66913e-18
4330.49618 7.45788e-18
4331.99948 7.45775e-18
4333.50278 7.77080e-18
4334.99606 7.71421e-18
4336.49936 7.70549e-18
4338.00266 7.75067e-18
4339.49593 7.80545e-18
4340.99923 7.70697e-18
4342.50253 7.53694e-18
4343.99581 7.80017e-18
4345.49911 7.83212e-18
4347.00241 7.89957e-18
4348.49569 8.04458e-18
4349.99899 7.82403e-18
4351.50229 7.58497e-18
4352.99557 7.77676e-18
4354.49887 7.95993e-18
4356.00217 7.71955e-18
4357.49545 7.74490e-18
4358.99875 7.71937e-18
4360.50205 7.93781e-18
4361.99532 8.03906e-18
4363.49862 7.90916e-18
4365.00192 7.96614e-18
4366.49520 7.94034e-18
4367.99850 7.92158e-18
4369.50180 7.98745e-18
4370.99508 7.85742e-18
4372.49838 7.80088e-18
4374.00168 7.91955e-18
4375.50498 8.00933e-18
4376.99826 7.87920e-18
4378.50156 7.76771e-18
4380.00486 7.92198e-18
4381.49814 8.09010e-18
4383.00144 8.26204e-18
4384.50474 8.22377e-18
4385.99801 8.15232e-18
4387.50131 8.09378e-18
4389.00461 8.03558e-18
4390.49789 8.08402e-18
4392.00119 8.17398e-18
4393.50449 8.41821e-18
4394.99777 8.46193e-18
4396.50107 8.32640e-18
4398.00437 8.31476e-18
4399.49765 8.55002e-18
4401.00095 8.63601e-18
4402.50425 8.41502e-18
4403.99753 8.44309e-18
4405.50083 8.42075e-18
4407.00413 8.62901e-18
4408.49740 8.83143e-18
4410.00070 8.80808e-18
4411.50400 8.71147e-18
4412.99728 8.84038e-18
4414.50058 8.86281e-18
4416.00388 8.84412e-18
4417.49716 8.72585e-18
4419.00046 8.74088e-18
4420.50376 8.77787e-18
4421.99704 8.62453e-18
4423.50034 8.82221e-18
4425.00364 8.99715e-18
4426.49692 9.13221e-18
4428.00022 9.01905e-18
4429.50352 8.85766e-18
4430.99679 8.99171e-18
4432.50009 9.24779e-18
4434.00339 9.31377e-18
4435.49667 9.51683e-18
4436.99997 9.58232e-18
4438.50327 9.57025e-18
4439.99655 9.64714e-18
4441.49985 9.62208e-18
4443.00315 9.49883e-18
4444.49643 9.68934e-18
4445.99973 9.73172e-18
4447.50303 9.85819e-18
4448.99631 9.95955e-18
4450.49961 1.00645e-17
4452.00291 1.00143e-17
4453.49618 1.01306e-17
4454.99948 1.01426e-17
4456.50278 1.00718e-17
4457.99606 1.02399e-17
4459.49936 1.05400e-17
4461.00266 1.06678e-17
4462.49594 1.06521e-17
4463.99924 1.07548e-17
4465.50254 1.08209e-17
4466.99582 1.09404e-17
4468.49912 1.10850e-17
4470.00242 1.12221e-17
4471.49570 1.14440e-17
4472.99900 1.10659e-17
4474.50230 1.12359e-17
4475.99557 1.12792e-17
4477.49887 1.11987e-17
4479.00217 1.13317e-17
4480.49545 1.13011e-17
4481.99875 1.18713e-17
4483.50205 1.18766e-17
4484.99533 1.16702e-17
4486.49863 1.18049e-17
4488.00193 1.15971e-17
4489.49521 1.16141e-17
4490.99851 1.20762e-17
4492.50181 1.20401e-17
4493.99509 1.24911e-17
4495.49839 1.25928e-17
4497.00169 1.21380e-17
4498.49496 1.22534e-17
4499.99826 1.26229e-17
4501.50156 1.26034e-17
4503.00486 1.28529e-17
4504.49814 1.30286e-17
4506.00144 1.30252e-17
4507.50474 1.33041e-17
4508.99802 1.31651e-17
4510.50132 1.32398e-17
4512.00462 1.35967e-17
4513.49790 1.33182e-17
4515.00120 1.33005e-17
4516.50450 1.33032e-17
4517.99778 1.35869e-17
4519.50108 1.37301e-17
4521.00438 1.36408e-17
4522.49765 1.36751e-17
4524.00095 1.37213e-17
4525.50425 1.36897e-17
4526.99753 1.37056e-17
4528.50083 1.38637e-17
4530.00413 1.42321e-17
4531.49741 1.41834e-17
4533.00071 1.39288e-17
4534.50401 1.40863e-17
4535.99729 1.42791e-17
4537.50059 1.44003e-17
4539.00389 1.46932e-17
4540.49717 1.46270e-17
4542.00047 1.45589e-17
4543.50377 1.45685e-17
4544.99704 1.45617e-17
4546.50034 1.46502e-17
4548.00364 1.45809e-17
4549.49692 1.48386e-17
4551.00022 1.50384e-17
4552.50352 1.50374e-17
4553.99680 1.51228e-17
4555.50010 1.49544e-17
4557.00340 1.49360e-17
4558.49668 1.51525e-17
4559.99998 1.50134e-17
4561.50328 1.49446e-17
4562.99656 1.54462e-17
4564.49986 1.52846e-17
4566.00316 1.51968e-17
4567.49643 1.51209e-17
4568.99973 1.49643e-17
4570.50303 1.52641e-17
4571.99631 1.53380e-17
4573.49961 1.51256e-17
4575.00291 1.50986e-17
4576.49619 1.53574e-17
4577.99949 1.51921e-17
4579.50279 1.52138e-17
4580.99607 1.54639e-17
4582.49937 1.53130e-17
4584.00267 1.51650e-17
4585.49595 1.53185e-17
4586.99925 1.54928e-17
4588.50255 1.56273e-17
4589.99582 1.54583e-17
4591.49912 1.53742e-17
4593.00242 1.54690e-17
4594.49570 1.55843e-17
4595.99900 1.55956e-17
4597.50230 1.56866e-17
4598.99558 1.56908e-17
4600.49888 1.57480e-17
4602.00218 1.59084e-17
4603.49546 1.58346e-17
4604.99876 1.58369e-17
4606.50206 1.56622e-17
4607.99534 1.53634e-17
4609.49864 1.57382e-17
4611.00194 1.58589e-17
4612.49521 1.53245e-17
4613.99851 1.52081e-17
4615.50181 1.55658e-17
4616.99509 1.54749e-17
4618.49839 1.53122e-17
4620.00169 1.54634e-17
4621.49497 1.54678e-17
4622.99827 1.52521e-17
4624.50157 1.50779e-17
4626.00487 1.47393e-17
4627.49815 1.45998e-17
4629.00145 1.49851e-17
4630.50475 1.49599e-17
4631.99803 1.45245e-17
4633.50133 1.46061e-17
4635.00463 1.48896e-17
4636.49790 1.46771e-17
4638.00120 1.43750e-17
4639.50450 1.44843e-17
4640.99778 1.45584e-17
4642.50108 1.43064e-17
4644.00438 1.43554e-17
4645.49766 1.44812e-17
4647.00096 1.41468e-17
4648.50426 1.39667e-17
4649.99754 1.42348e-17
4651.50084 1.45851e-17
4653.00414 1.44946e-17
4654.49742 1.42384e-17
4656.00072 1.41619e-17
4657.50402 1.40374e-17
4658.99729 1.40232e-17
4660.50059 1.41104e-17
4662.00389 1.41440e-17
4663.49717 1.39708e-17
4665.00047 1.36750e-17
4666.50377 1.35711e-17
4667.99705 1.35504e-17
4669.50035 1.34060e-17
4671.00365 1.34243e-17
4672.49693 1.34437e-17
4674.00023 1.32377e-17
4675.50353 1.30931e-17
4676.99681 1.33482e-17
4678.50011 1.33136e-17
4680.00341 1.30219e-17
4681.49668 1.29947e-17
4682.99998 1.30578e-17
4684.50328 1.31397e-17
4685.99656 1.30198e-17
4687.49986 1.30538e-17
4689.00316 1.28893e-17
4690.49644 1.28344e-17
4691.99974 1.29107e-17
4693.50304 1.26443e-17
4694.99632 1.28245e-17
4696.49962 1.30358e-17
4698.00292 1.29938e-17
4699.49620 1.31016e-17
4700.99950 1.27875e-17
4702.50280 1.29864e-17
4703.99607 1.28680e-17
4705.49937 1.25703e-17
4707.00267 1.24364e-17
4708.49595 1.23670e-17
4709.99925 1.25947e-17
4711.50255 1.23428e-17
4712.99583 1.25306e-17
4714.49913 1.24986e-17
4716.00243 1.24653e-17
4717.49571 1.23807e-17
4718.99901 1.24047e-17
4720.50231 1.22827e-17
4721.99559 1.20533e-17
4723.49889 1.20783e-17
4725.00219 1.22153e-17
4726.49546 1.21701e-17
4727.99876 1.22069e-17
4729.50206 1.24069e-17
4730.99534 1.23054e-17
4732.49864 1.20720e-17
4734.00194 1.22275e-17
4735.49522 1.22404e-17
4736.99852 1.21361e-17
4738.50182 1.19679e-17
4739.99510 1.19720e-17
4741.49840 1.21208e-17
4743.00170 1.20373e-17
4744.49498 1.19960e-17
4745.99828 1.20981e-17
4747.50158 1.21021e-17
4749.00488 1.20011e-17
4750.49815 1.19360e-17
4752.00145 1.18940e-17
4753.50475 1.19504e-17
4754.99803 1.21462e-17
4756.50133 1.21001e-17
4758.00463 1.21868e-17
4759.49791 1.20681e-17
4761.00121 1.17564e-17
4762.50451 1.17244e-17
4763.99779 1.19134e-17
4765.50109 1.17919e-17
4767.00439 1.17574e-17
4768.49767 1.18925e-17
4770.00097 1.18384e-17
4771.50427 1.15574e-17
4772.99754 1.15254e-17
4774.50084 1.19691e-17
4776.00414 1.16225e-17
4777.49742 1.16099e-17
4779.00072 1.17877e-17
4780.50402 1.17712e-17
4781.99730 1.17834e-17
4783.50060 1.19145e-17
4785.00390 1.18387e-17
4786.49718 1.19013e-17
4788.00048 1.20014e-17
4789.50378 1.19059e-17
4790.99706 1.18813e-17
4792.50036 1.20117e-17
4794.00366 1.20053e-17
4795.49693 1.19485e-17
4797.00023 1.21015e-17
4798.50353 1.21916e-17
4799.99681 1.24099e-17
4801.50011 1.23124e-17
4803.00341 1.21964e-17
4804.49669 1.23163e-17
4805.99999 1.23088e-17
4807.50329 1.22473e-17
4808.99657 1.23930e-17
4810.49987 1.24721e-17
4812.00317 1.23009e-17
4813.49645 1.21015e-17
4814.99975 1.20256e-17
4816.50305 1.21886e-17
4817.99632 1.24392e-17
4819.49962 1.24782e-17
4821.00292 1.23904e-17
4822.49620 1.23128e-17
4823.99950 1.24411e-17
4825.50280 1.23997e-17
4826.99608 1.24570e-17
4828.49938 1.25261e-17
4830.00268 1.23224e-17
4831.49596 1.21706e-17
4832.99926 1.23694e-17
4834.50256 1.25564e-17
4835.99584 1.25140e-17
4837.49914 1.24094e-17
4839.00244 1.25401e-17
4840.49571 1.25052e-17
4841.99901 1.23019e-17
4843.50231 1.20945e-17
4844.99559 1.21668e-17
4846.49889 1.26581e-17
4848.00219 1.26927e-17
4849.49547 1.22579e-17
4850.99877 1.21946e-17
4852.50207 1.25285e-17
4853.99535 1.22068e-17
4855.49865 1.23148e-17
4857.00195 1.22502e-17
4858.49523 1.23290e-17
4859.99853 1.23736e-17
4861.50183 1.23957e-17
4862.99510 1.24317e-17
4864.49840 1.25650e-17
4866.00170 1.23603e-17
4867.49498 1.22609e-17
4868.99828 1.24011e-17
4870.50158 1.25137e-17
4872.00488 1.24268e-17
4873.49816 1.23397e-17
4875.00146 1.22592e-17
4876.50476 1.24932e-17
4877.99804 1.26398e-17
4879.50134 1.26144e-17
4881.00464 1.26337e-17
4882.49792 1.26332e-17
4884.00122 1.25298e-17
4885.50452 1.25240e-17
4886.99779 1.25517e-17
4888.50109 1.27964e-17
4890.00439 1.27001e-17
4891.49767 1.24100e-17
4893.00097 1.23745e-17
4894.50427 1.23980e-17
4895.99755 1.25421e-17
4897.50085 1.24194e-17
4899.00415 1.23679e-17
4900.49743 1.25030e-17
4902.00073 1.25222e-17
4903.50403 1.24596e-17
4904.99731 1.25621e-17
4906.50061 1.23883e-17
4908.00391 1.21710e-17
4909.49718 1.23792e-17
4911.00048 1.22269e-17
4912.50378 1.21081e-17
4913.99706 1.21413e-17
4915.50036 1.21145e-17
4917.00366 1.20153e-17
4918.49694 1.21346e-17
4920.00024 1.20754e-17
4921.50354 1.19963e-17
4922.99682 1.21589e-17
4924.50012 1.23964e-17
4926.00342 1.18674e-17
4927.49670 1.17921e-17
4929.00000 1.19646e-17
4930.50330 1.21423e-17
4931.99657 1.21066e-17
4933.49987 1.21546e-17
4935.00317 1.19952e-17
4936.49645 1.20542e-17
4937.99975 1.20818e-17
4939.50305 1.22162e-17
4940.99633 1.23573e-17
4942.49963 1.22552e-17
4944.00293 1.23766e-17
4945.49621 1.22134e-17
4946.99951 1.22489e-17
4948.50281 1.24867e-17
4949.99609 1.25872e-17
4951.49939 1.25228e-17
4953.00269 1.24828e-17
4954.49596 1.24174e-17
4955.99926 1.22878e-17
4957.50256 1.24919e-17
4958.99584 1.26591e-17
4960.49914 1.25521e-17
4962.00244 1.25282e-17
4963.49572 1.26075e-17
4964.99902 1.25788e-17
4966.50232 1.26155e-17
4967.99560 1.25188e-17
4969.49890 1.22829e-17
4971.00220 1.23303e-17
4972.49548 1.22251e-17
4973.99878 1.23488e-17
4975.50208 1.21925e-17
4976.99535 1.20973e-17
4978.49865 1.22206e-17
4980.00195 1.21555e-17
4981.49523 1.21302e-17
4982.99853 1.20749e-17
4984.50183 1.21101e-17
4985.99511 1.21875e-17
4987.49841 1.22099e-17
4989.00171 1.22434e-17
4990.49499 1.22118e-17
4991.99829 1.20166e-17
4993.50159 1.22440e-17
4995.00489 1.22342e-17
4996.49817 1.19094e-17
4998.00147 1.20650e-17
4999.50477 1.20490e-17
5000.99804 1.18377e-17
5002.50134 1.17407e-17
5004.00464 1.17004e-17
5005.49792 1.18604e-17
5007.00122 1.17667e-17
5008.50452 1.17463e-17
5009.99780 1.18355e-17
5011.50110 1.16956e-17
5013.00440 1.16328e-17
5014.49768 1.17215e-17
5016.00098 1.17683e-17
5017.50428 1.17305e-17
5018.99756 1.17847e-17
5020.50086 1.16213e-17
5022.00416 1.17378e-17
5023.49743 1.16808e-17
5025.00073 1.14338e-17
5026.50403 1.15209e-17
5027.99731 1.17364e-17
5029.50061 1.16493e-17
5031.00391 1.16183e-17
5032.49719 1.17848e-17
5034.00049 1.16545e-17
5035.50379 1.14297e-17
5036.99707 1.14381e-17
5038.50037 1.15375e-17
5040.00367 1.16679e-17
5041.49695 1.16463e-17
5043.00025 1.16058e-17
5044.50355 1.14868e-17
5045.99682 1.15819e-17
5047.50012 1.16386e-17
5049.00342 1.15526e-17
5050.49670 1.18155e-17
5052.00000 1.17676e-17
5053.50330 1.17854e-17
5054.99658 1.20103e-17
5056.49988 1.19593e-17
5058.00318 1.18339e-17
5059.49646 1.20259e-17
5060.99976 1.20207e-17
5062.50306 1.18067e-17
5063.99634 1.19544e-17
5065.49964 1.21510e-17
5067.00294 1.21480e-17
5068.49621 1.19500e-17
5069.99951 1.20660e-17
5071.50281 1.21823e-17
5072.99609 1.21833e-17
5074.49939 1.23105e-17
5076.00269 1.22977e-17
5077.49597 1.22095e-17
5078.99927 1.22807e-17
5080.50257 1.24791e-17
5081.99585 1.24937e-17
5083.49915 1.26838e-17
5085.00245 1.26547e-17
5086.49573 1.27315e-17
5087.99903 1.28221e-17
5089.50233 1.27467e-17
5090.99560 1.28658e-17
5092.49890 1.27942e-17
5094.00220 1.27923e-17
5095.49548 1.28335e-17
5096.99878 1.28326e-17
5098.50208 1.29074e-17
5099.99536 1.30374e-17
5101.49866 1.31421e-17
5103.00196 1.33274e-17
5104.49524 1.32477e-17
5105.99854 1.31506e-17
5107.50184 1.31906e-17
5108.99512 1.31952e-17
5110.49842 1.33259e-17
5112.00172 1.31481e-17
5113.49499 1.32852e-17
5114.99829 1.33007e-17
5116.50159 1.32756e-17
5118.00489 1.34809e-17
5119.49817 1.35392e-17
5121.00147 1.35158e-17
5122.50477 1.33661e-17
5123.99805 1.34245e-17
5125.50135 1.35700e-17
5127.00465 1.34796e-17
5128.49793 1.34564e-17
5130.00123 1.35262e-17
5131.50453 1.35223e-17
5132.99781 1.35970e-17
5134.50111 1.36846e-17
5136.00441 1.38788e-17
5137.49768 1.37801e-17
5139.00098 1.36882e-17
5140.50428 1.40507e-17
5141.99756 1.38411e-17
5143.50086 1.39355e-17
5145.00416 1.40386e-17
5146.49744 1.41761e-17
5148.00074 1.42573e-17
5149.50404 1.42655e-17
5150.99732 1.42483e-17
5152.50062 1.41299e-17
5154.00392 1.40977e-17
5155.49720 1.41651e-17
5157.00050 1.40729e-17
5158.50380 1.41375e-17
5159.99707 1.41648e-17
5161.50037 1.41534e-17
5163.00367 1.41083e-17
5164.49695 1.39234e-17
5166.00025 1.39599e-17
5167.50355 1.41347e-17
5168.99683 1.40952e-17
5170.50013 1.41574e-17
5172.00343 1.44367e-17
5173.49671 1.44354e-17
5175.00001 1.42388e-17
5176.50331 1.43487e-17
5177.99659 1.45418e-17
5179.49989 1.46174e-17
5181.00319 1.45351e-17
5182.49646 1.45493e-17
5183.99976 1.46663e-17
5185.50306 1.47487e-17
5186.99634 1.47503e-17
5188.49964 1.47694e-17
5190.00294 1.48154e-17
5191.49622 1.48822e-17
5192.99952 1.50569e-17
5194.50282 1.51446e-17
5195.99610 1.50711e-17
5197.49940 1.51226e-17
5199.00270 1.49034e-17
5200.49598 1.50294e-17
5201.99928 1.51951e-17
5203.50258 1.51829e-17
5204.99585 1.51290e-17
5206.49915 1.52202e-17
5208.00245 1.53955e-17
5209.49573 1.54474e-17
5210.99903 1.55502e-17
5212.50233 1.54090e-17
5213.99561 1.53799e-17
5215.49891 1.53720e-17
5217.00221 1.53088e-17
5218.49549 1.54173e-17
5219.99879 1.55341e-17
5221.50209 1.53631e-17
5222.99537 1.53442e-17
5224.49867 1.55995e-17
5226.00197 1.56296e-17
5227.49524 1.55821e-17
5228.99854 1.56651e-17
5230.50184 1.57324e-17
5231.99512 1.58331e-17
5233.49842 1.58363e-17
5235.00172 1.57357e-17
5236.49500 1.56291e-17
5237.99830 1.57057e-17
5239.50160 1.60946e-17
5241.00490 1.63612e-17
5242.49818 1.61918e-17
5244.00148 1.60617e-17
5245.50478 1.60594e-17
5246.99806 1.60880e-17
5248.50136 1.61009e-17
5250.00466 1.60927e-17
5251.49793 1.63204e-17
5253.00123 1.66150e-17
5254.50453 1.65953e-17
5255.99781 1.65315e-17
5257.50111 1.66520e-17
5259.00441 1.64837e-17
5260.49769 1.63587e-17
5262.00099 1.65389e-17
5263.50429 1.67122e-17
5264.99757 1.66301e-17
5266.50087 1.66034e-17
5268.00417 1.67641e-17
5269.49745 1.68517e-17
5271.00075 1.68698e-17
5272.50405 1.68403e-17
5273.99732 1.70337e-17
5275.50062 1.67391e-17
5277.00392 1.66755e-17
5278.49720 1.70012e-17
5280.00050 1.70597e-17
5281.50380 1.71098e-17
5282.99708 1.69974e-17
5284.50038 1.70339e-17
5286.00368 1.73575e-17
5287.49696 1.74032e-17
5289.00026 1.74597e-17
5290.50356 1.74358e-17
5291.99684 1.74672e-17
5293.50014 1.75339e-17
5295.00344 1.73775e-17
5296.49671 1.75120e-17
5298.00001 1.77085e-17
5299.50331 1.77656e-17
5300.99659 1.78342e-17
5302.49989 1.76546e-17
5304.00319 1.76064e-17
5305.49647 1.78394e-17
5306.99977 1.79033e-17
5308.50307 1.77381e-17
5309.99635 1.76388e-17
5311.49965 1.76249e-17
5313.00295 1.75906e-17
5314.49623 1.76091e-17
5315.99953 1.76718e-17
5317.50283 1.76390e-17
5318.99610 1.75749e-17
5320.49940 1.77456e-17
5322.00270 1.79304e-17
5323.49598 1.78105e-17
5324.99928 1.76908e-17
5326.50258 1.76872e-17
5327.99586 1.77103e-17
5329.49916 1.76691e-17
5331.00246 1.75262e-17
5332.49574 1.76948e-17
5333.99904 1.78588e-17
5335.50234 1.77873e-17
5336.99562 1.75940e-17
5338.49892 1.78421e-17
5340.00222 1.78843e-17
5341.49549 1.77694e-17
5342.99879 1.78123e-17
5344.50209 1.78094e-17
5345.99537 1.77876e-17
5347.49867 1.79231e-17
5349.00197 1.80319e-17
5350.49525 1.79017e-17
5351.99855 1.80119e-17
5353.50185 1.79476e-17
5354.99513 1.78136e-17
5356.49843 1.78885e-17
5358.00173 1.77803e-17
5359.49501 1.77896e-17
5360.99831 1.79021e-17
5362.50161 1.78179e-17
5364.00491 1.79403e-17
5365.49818 1.77845e-17
5367.00148 1.78864e-17
5368.50478 1.81179e-17
5369.99806 1.81677e-17
5371.50136 1.80591e-17
5373.00466 1.79080e-17
5374.49794 1.79963e-17
5376.00124 1.79832e-17
5377.50454 1.79748e-17
5378.99782 1.79796e-17
5380.50112 1.80628e-17
5382.00442 1.81996e-17
5383.49770 1.82084e-17
5385.00100 1.82690e-17
5386.50430 1.83686e-17
5387.99757 1.84182e-17
5389.50087 1.84429e-17
5391.00417 1.84546e-17
5392.49745 1.84812e-17
5394.00075 1.86271e-17
5395.50405 1.87510e-17
5396.99733 1.87652e-17
5398.50063 1.84578e-17
5400.00393 1.82719e-17
5401.49721 1.83907e-17
5403.00051 1.85897e-17
5404.50381 1.85817e-17
5405.99709 1.85759e-17
5407.50039 1.87784e-17
5409.00369 1.87323e-17
5410.49696 1.87636e-17
5412.00026 1.87646e-17
5413.50356 1.86419e-17
5414.99684 1.85609e-17
5416.50014 1.89616e-17
5418.00344 1.91031e-17
5419.49672 1.88407e-17
5421.00002 1.87559e-17
5422.50332 1.87986e-17
5423.99660 1.92554e-17
5425.49990 1.92030e-17
5427.00320 1.90046e-17
5428.49648 1.90722e-17
5429.99978 1.91419e-17
5431.50308 1.95105e-17
5432.99635 1.93104e-17
5434.49965 1.94016e-17
5436.00295 1.93919e-17
5437.49623 1.92264e-17
5438.99953 1.94462e-17
5440.50283 1.97134e-17
5441.99611 1.98075e-17
5443.49941 1.97996e-17
5445.00271 1.97225e-17
5446.49599 1.98337e-17
5447.99929 1.97517e-17
5449.50259 1.98844e-17
5450.99587 2.01258e-17
5452.49917 2.00373e-17
5454.00247 2.00939e-17
5455.49574 2.02875e-17
5456.99904 2.01925e-17
5458.50234 2.01787e-17
5459.99562 2.02811e-17
5461.49892 2.02054e-17
5463.00222 2.00051e-17
5464.49550 1.97945e-17
5465.99880 1.99013e-17
5467.50210 2.00826e-17
5468.99538 2.00717e-17
5470.49868 2.01909e-17
5472.00198 2.01355e-17
5473.49526 1.98873e-17
5474.99856 1.99670e-17
5476.50186 1.99720e-17
5477.99513 1.98343e-17
5479.49843 1.99372e-17
5481.00173 2.00590e-17
5482.49501 1.97828e-17
5483.99831 1.94927e-17
5485.50161 1.95485e-17
5487.00491 1.95324e-17
5488.49819 1.94049e-17
5490.00149 1.92924e-17
5491.50479 1.93028e-17
5492.99807 1.93001e-17
5494.50137 1.92588e-17
5496.00467 1.92640e-17
5497.49795 1.90711e-17
5499.00125 1.88831e-17
5500.50455 1.90239e-17
5501.99782 1.91654e-17
5503.50112 1.88707e-17
5505.00442 1.88842e-17
5506.49770 1.89597e-17
5508.00100 1.88800e-17
5509.50430 1.90811e-17
5510.99758 1.89217e-17
5512.50088 1.88536e-17
5514.00418 1.89134e-17
5515.49746 1.88501e-17
5517.00076 1.87183e-17
5518.50406 1.87383e-17
5519.99734 1.86838e-17
5521.50064 1.87586e-17
5523.00394 1.86398e-17
5524.49721 1.85753e-17
5526.00051 1.85450e-17
5527.50381 1.85912e-17
5528.99709 1.85120e-17
5530.50039 1.83860e-17
5532.00369 1.83971e-17
5533.49697 1.84111e-17
5535.00027 1.83569e-17
5536.50357 1.82688e-17
5537.99685 1.83261e-17
5539.50015 1.84486e-17
5541.00345 1.83360e-17
5542.49673 1.79401e-17
5544.00003 1.80087e-17
5545.50333 1.81195e-17
5546.99660 1.81582e-17
5548.49990 1.81022e-17
5550.00320 1.80605e-17
5551.49648 1.79100e-17
5552.99978 1.78606e-17
5554.50308 1.83721e-17
5555.99636 1.84965e-17
5557.49966 1.82948e-17
5559.00296 1.83125e-17
5560.49624 1.82668e-17
5561.99954 1.83715e-17
5563.50284 1.84841e-17
5564.99612 1.85850e-17
5566.49942 1.83791e-17
5568.00272 1.82394e-17
5569.49599 1.80418e-17
5570.99929 1.79431e-17
5572.50259 1.82202e-17
5573.99587 1.81630e-17
5575.49917 1.82998e-17
5577.00247 1.83388e-17
5578.49575 1.84014e-17
5579.99905 1.81459e-17
5581.50235 1.81015e-17
5582.99563 1.83325e-17
5584.49893 1.83120e-17
5586.00223 1.83036e-17
5587.49551 1.83756e-17
5588.99881 1.84910e-17
5590.50211 1.84581e-17
5591.99538 1.83889e-17
5593.49868 1.82991e-17
5595.00198 1.83499e-17
5596.49526 1.83289e-17
5597.99856 1.82489e-17
5599.50186 1.83207e-17
5600.99514 1.83097e-17
5602.49844 1.81540e-17
5604.00174 1.80554e-17
5605.49502 1.80245e-17
5606.99832 1.81368e-17
5608.50162 1.81360e-17
5610.00492 1.80385e-17
5611.49820 1.79384e-17
5613.00150 1.77663e-17
5614.50480 1.77682e-17
5615.99807 1.78825e-17
5617.50137 1.77413e-17
5619.00467 1.75166e-17
5620.49795 1.77297e-17
5622.00125 1.78144e-17
5623.50455 1.75626e-17
5624.99783 1.73670e-17
5626.50113 1.73357e-17
5628.00443 1.73845e-17
5629.49771 1.73378e-17
5631.00101 1.73919e-17
5632.50431 1.72985e-17
5633.99759 1.72721e-17
5635.50089 1.71956e-17
5637.00419 1.69709e-17
5638.49746 1.70026e-17
5640.00076 1.68686e-17
5641.50406 1.69559e-17
5642.99734 1.70380e-17
5644.50064 1.66185e-17
5646.00394 1.65673e-17
5647.49722 1.65733e-17
5649.00052 1.64452e-17
5650.50382 1.64741e-17
5651.99710 1.62985e-17
5653.50040 1.62256e-17
5655.00370 1.63004e-17
5656.49698 1.62225e-17
5658.00028 1.60176e-17
5659.50358 1.62579e-17
5660.99685 1.62027e-17
5662.50015 1.59443e-17
5664.00345 1.60503e-17
5665.49673 1.58894e-17
5667.00003 1.58058e-17
5668.50333 1.58549e-17
5669.99661 1.57730e-17
5671.49991 1.56742e-17
5673.00321 1.55615e-17
5674.49649 1.54436e-17
5675.99979 1.54881e-17
5677.50309 1.55076e-17
5678.99637 1.53410e-17
5680.49967 1.54022e-17
5682.00297 1.54783e-17
5683.49624 1.51907e-17
5684.99954 1.49453e-17
5686.50284 1.50304e-17
5687.99612 1.51351e-17
5689.49942 1.51397e-17
5691.00272 1.51273e-17
5692.49600 1.50598e-17
5693.99930 1.48624e-17
5695.50260 1.49145e-17
5696.99588 1.47765e-17
5698.49918 1.48563e-17
5700.00248 1.48716e-17
5701.49576 1.47553e-17
5702.99906 1.47421e-17
5704.50236 1.47452e-17
5705.99563 1.47481e-17
5707.49893 1.46337e-17
5709.00223 1.45582e-17
5710.49551 1.46472e-17
5711.99881 1.47362e-17
5713.50211 1.47428e-17
5714.99539 1.46723e-17
5716.49869 1.48305e-17
5718.00199 1.46875e-17
5719.49527 1.44845e-17
5720.99857 1.44592e-17
5722.50187 1.46654e-17
5723.99515 1.46629e-17
5725.49845 1.47256e-17
5727.00175 1.46126e-17
5728.49502 1.45205e-17
5729.99832 1.45850e-17
5731.50162 1.46702e-17
5733.00492 1.47102e-17
5734.49820 1.48482e-17
5736.00150 1.49113e-17
5737.50480 1.48318e-17
5738.99808 1.47189e-17
5740.50138 1.45827e-17
5742.00468 1.48362e-17
5743.49796 1.48515e-17
5745.00126 1.47420e-17
5746.50456 1.48687e-17
5747.99784 1.48868e-17
5749.50114 1.49298e-17
5751.00444 1.50193e-17
5752.49771 1.50343e-17
5754.00101 1.49213e-17
5755.50431 1.50060e-17
5756.99759 1.50989e-17
5758.50089 1.50802e-17
5760.00419 1.51354e-17
5761.49747 1.50494e-17
5763.00077 1.50752e-17
5764.50407 1.49372e-17
5765.99735 1.47851e-17
5767.50065 1.49669e-17
5769.00395 1.50678e-17
5770.49723 1.50192e-17
5772.00053 1.51525e-17
5773.50383 1.52008e-17
5774.99710 1.50274e-17
5776.50040 1.49399e-17
5778.00370 1.51269e-17
5779.49698 1.51061e-17
5781.00028 1.51855e-17
5782.50358 1.51812e-17
5783.99686 1.52339e-17
5785.50016 1.52465e-17
5787.00346 1.52866e-17
5788.49674 1.55429e-17
5790.00004 1.55291e-17
5791.50334 1.53817e-17
5792.99662 1.54492e-17
5794.49992 1.56053e-17
5796.00322 1.56279e-17
5797.49649 1.56066e-17
5798.99979 1.57533e-17
5800.50309 1.57170e-17
5801.99637 1.56226e-17
5803.49967 1.56250e-17
5805.00297 1.56605e-17
5806.49625 1.59167e-17
5807.99955 1.60478e-17
5809.50285 1.60138e-17
5810.99613 1.58352e-17
5812.49943 1.57605e-17
5814.00273 1.58933e-17
5815.49601 1.60135e-17
5816.99931 1.60954e-17
5818.50261 1.61603e-17
5819.99588 1.60297e-17
5821.49918 1.60684e-17
5823.00248 1.61860e-17
5824.49576 1.61663e-17
5825.99906 1.61217e-17
5827.50236 1.60278e-17
5828.99564 1.60072e-17
5830.49894 1.61379e-17
5832.00224 1.61489e-17
5833.49552 1.60307e-17
5834.99882 1.59274e-17
5836.50212 1.61711e-17
5837.99540 1.61686e-17
5839.49870 1.61546e-17
5841.00200 1.61537e-17
5842.49527 1.61099e-17
5843.99857 1.60906e-17
5845.50187 1.60540e-17
5846.99515 1.58622e-17
5848.49845 1.59003e-17
5850.00175 1.60693e-17
5851.49503 1.58562e-17
5852.99833 1.57559e-17
5854.50163 1.60086e-17
5856.00493 1.60503e-17
5857.49821 1.57665e-17
5859.00151 1.58855e-17
5860.50481 1.60363e-17
5861.99809 1.59067e-17
5863.50139 1.57742e-17
5865.00469 1.57991e-17
5866.49796 1.59019e-17
5868.00126 1.58636e-17
5869.50456 1.59288e-17
5870.99784 1.59315e-17
5872.50114 1.59314e-17
5874.00444 1.57751e-17
5875.49772 1.54923e-17
5877.00102 1.55318e-17
5878.50432 1.57030e-17
5879.99760 1.57832e-17
5881.50090 1.56869e-17
5883.00420 1.54855e-17
5884.49748 1.53700e-17
5886.00078 1.53923e-17
5887.50408 1.52302e-17
5888.99735 1.49088e-17
5890.50065 1.47650e-17
5892.00395 1.47954e-17
5893.49723 1.49320e-17
5895.00053 1.50988e-17
5896.50383 1.51412e-17
5897.99711 1.51318e-17
5899.50041 1.52250e-17
5901.00371 1.53906e-17
5902.49699 1.52874e-17
5904.00029 1.52083e-17
5905.50359 1.53088e-17
5906.99687 1.52153e-17
5908.50017 1.52318e-17
5910.00347 1.53311e-17
5911.49674 1.53364e-17
5913.00004 1.54892e-17
5914.50334 1.55537e-17
5915.99662 1.53677e-17
5917.49992 1.53520e-17
5919.00322 1.51548e-17
5920.49650 1.52908e-17
5921.99980 1.55494e-17
5923.50310 1.52950e-17
5924.99638 1.50211e-17
5926.49968 1.52242e-17
5928.00298 1.52381e-17
5929.49626 1.52599e-17
5930.99956 1.53226e-17
5932.50286 1.52523e-17
5933.99613 1.51780e-17
5935.49943 1.51789e-17
5937.00273 1.52071e-17
5938.49601 1.52177e-17
5939.99931 1.52734e-17
5941.50261 1.52262e-17
5942.99589 1.51746e-17
5944.49919 1.51300e-17
5946.00249 1.50710e-17
5947.49577 1.50300e-17
5948.99907 1.49456e-17
5950.50237 1.50163e-17
5951.99565 1.50360e-17
5953.49895 1.51065e-17
5955.00225 1.51975e-17
5956.49552 1.50435e-17
5957.99882 1.49054e-17
5959.50212 1.48534e-17
5960.99540 1.48090e-17
5962.49870 1.48744e-17
5964.00200 1.49177e-17
5965.49528 1.48608e-17
5966.99858 1.47285e-17
5968.50188 1.46685e-17
5970.00518 1.46861e-17
5971.49846 1.47335e-17
5973.00176 1.47155e-17
5974.49504 1.48477e-17
5975.99834 1.45111e-17
5977.50164 1.44567e-17
5979.00494 1.44986e-17
5980.49821 1.45982e-17
5982.00151 1.47175e-17
5983.50481 1.46783e-17
5984.99809 1.45806e-17
5986.50139 1.45768e-17
5988.00469 1.45756e-17
5989.49797 1.46343e-17
5991.00127 1.44700e-17
5992.50457 1.44740e-17
5993.99785 1.46390e-17
5995.50115 1.46521e-17
5997.00445 1.47723e-17
5998.49773 1.46101e-17
6000.00103 1.45523e-17
6001.50433 1.45285e-17
6002.99760 1.44541e-17
6004.50090 1.46062e-17
6006.00420 1.46362e-17
6007.49748 1.44411e-17
6009.00078 1.44165e-17
6010.50408 1.45558e-17
6011.99736 1.44586e-17
6013.50066 1.44089e-17
6015.00396 1.44159e-17
6016.49724 1.43065e-17
6018.00054 1.42096e-17
6019.50384 1.42947e-17
6020.99712 1.43682e-17
6022.50042 1.42106e-17
6024.00372 1.41439e-17
6025.49699 1.42215e-17
6027.00029 1.41635e-17
6028.50359 1.40736e-17
6029.99687 1.40093e-17
6031.50017 1.41232e-17
6033.00347 1.41698e-17
6034.49675 1.41652e-17
6036.00005 1.42287e-17
6037.50335 1.42442e-17
6038.99663 1.41556e-17
6040.49993 1.41005e-17
6042.00323 1.40816e-17
6043.49651 1.41798e-17
6044.99981 1.41489e-17
6046.50311 1.41181e-17
6047.99638 1.40871e-17
6049.49968 1.40720e-17
6051.00298 1.42258e-17
6052.49626 1.40120e-17
6053.99956 1.40711e-17
6055.50286 1.41634e-17
6056.99614 1.40858e-17
6058.49944 1.40618e-17
6060.00274 1.39977e-17
6061.49602 1.40581e-17
6062.99932 1.41493e-17
6064.50262 1.41337e-17
6065.99590 1.40779e-17
6067.49920 1.42527e-17
6069.00250 1.43202e-17
6070.49577 1.43247e-17
6071.99907 1.43851e-17
6073.50237 1.45274e-17
6074.99565 1.44352e-17
6076.49895 1.41421e-17
6078.00225 1.43426e-17
6079.49553 1.44731e-17
6080.99883 1.44271e-17
6082.50213 1.43286e-17
6083.99541 1.45544e-17
6085.49871 1.46862e-17
6087.00201 1.45344e-17
6088.49529 1.46545e-17
6089.99859 1.46327e-17
6091.50189 1.45258e-17
6092.99516 1.45006e-17
6094.49846 1.44888e-17
6096.00176 1.44969e-17
6097.49504 1.44824e-17
6098.99834 1.45246e-17
6100.50164 1.45903e-17
6101.99492 1.46617e-17
6103.49822 1.46405e-17
6105.00152 1.44458e-17
6106.50482 1.44149e-17
6107.99810 1.45605e-17
6109.50140 1.46258e-17
6111.00470 1.46109e-17
6112.49798 1.44978e-17
6114.00128 1.44514e-17
6115.50458 1.44761e-17
6116.99785 1.44129e-17
6118.50115 1.43453e-17
6120.00445 1.43935e-17
6121.49773 1.44109e-17
6123.00103 1.45510e-17
6124.50433 1.46141e-17
6125.99761 1.46124e-17
6127.50091 1.45614e-17
6129.00421 1.44331e-17
6130.49749 1.44884e-17
6132.00079 1.43747e-17
6133.50409 1.42930e-17
6134.99737 1.44703e-17
6136.50067 1.44071e-17
6138.00397 1.43362e-17
6139.49724 1.45417e-17
6141.00054 1.46653e-17
6142.50384 1.45590e-17
6143.99712 1.45268e-17
6145.50042 1.43800e-17
6147.00372 1.44349e-17
6148.49700 1.46304e-17
6150.00030 1.45801e-17
6151.50360 1.43466e-17
6152.99688 1.43027e-17
6154.50018 1.43745e-17
6156.00348 1.44137e-17
6157.49676 1.44537e-17
6159.00006 1.44246e-17
6160.50336 1.43679e-17
6161.99663 1.44608e-17
6163.49993 1.45819e-17
6165.00323 1.44936e-17
6166.49651 1.44732e-17
6167.99981 1.44186e-17
6169.50311 1.44222e-17
6170.99639 1.44532e-17
6172.49969 1.44843e-17
6174.00299 1.43098e-17
6175.49627 1.42457e-17
6176.99957 1.43594e-17
6178.50287 1.41821e-17
6179.99615 1.40300e-17
6181.49945 1.39936e-17
6183.00275 1.39045e-17
6184.49602 1.39893e-17
6185.99932 1.39603e-17
6187.50262 1.38079e-17
6188.99590 1.38329e-17
6190.49920 1.38464e-17
6192.00250 1.37623e-17
6193.49578 1.35998e-17
6194.99908 1.35369e-17
6196.50238 1.35483e-17
6197.99566 1.35327e-17
6199.49896 1.36752e-17
6201.00226 1.36253e-17
6202.49554 1.36497e-17
6203.99884 1.36331e-17
6205.50214 1.34312e-17
6206.99541 1.32374e-17
6208.49871 1.34462e-17
6210.00201 1.32137e-17
6211.49529 1.32680e-17
6212.99859 1.32888e-17
6214.50189 1.30451e-17
6215.99517 1.29808e-17
6217.49847 1.28106e-17
6219.00177 1.27596e-17
6220.49505 1.28455e-17
6221.99835 1.29930e-17
6223.50165 1.27887e-17
6224.99493 1.27447e-17
6226.49823 1.28942e-17
6228.00153 1.29303e-17
6229.50483 1.28232e-17
6230.99810 1.28559e-17
6232.50140 1.27183e-17
6234.00470 1.27024e-17
6235.49798 1.27212e-17
6237.00128 1.26189e-17
6238.50458 1.25719e-17
6239.99786 1.24870e-17
6241.50116 1.26787e-17
6243.00446 1.27552e-17
6244.49774 1.26478e-17
6246.00104 1.25581e-17
6247.50434 1.25807e-17
6248.99762 1.26614e-17
6250.50092 1.26569e-17
6252.00422 1.26023e-17
6253.49749 1.25862e-17
6255.00079 1.26818e-17
6256.50409 1.27258e-17
6257.99737 1.26895e-17
6259.50067 1.27705e-17
6261.00397 1.26675e-17
6262.49725 1.25422e-17
6264.00055 1.25934e-17
6265.50385 1.25350e-17
6266.99713 1.25346e-17
6268.50043 1.27238e-17
6270.00373 1.28783e-17
6271.49701 1.28425e-17
6273.00031 1.27600e-17
6274.50361 1.26486e-17
6275.99688 1.23636e-17
6277.50018 1.23971e-17
6279.00348 1.25041e-17
6280.49676 1.26181e-17
6282.00006 1.27367e-17
6283.50336 1.27981e-17
6284.99664 1.25822e-17
6286.49994 1.26324e-17
6288.00324 1.27748e-17
6289.49652 1.26396e-17
6290.99982 1.28838e-17
6292.50312 1.29271e-17
6293.99640 1.28093e-17
6295.49970 1.29677e-17
6297.00300 1.29825e-17
6298.49627 1.27779e-17
6299.99957 1.26012e-17
6301.50287 1.28111e-17
6302.99615 1.30855e-17
6304.49945 1.29903e-17
6306.00275 1.29346e-17
6307.49603 1.29616e-17
6308.99933 1.29502e-17
6310.50263 1.29312e-17
6311.99591 1.29862e-17
6313.49921 1.31384e-17
6315.00251 1.31495e-17
6316.49579 1.31061e-17
6317.99909 1.30611e-17
6319.50239 1.29458e-17
6320.99566 1.29217e-17
6322.49896 1.31484e-17
6324.00226 1.32971e-17
6325.49554 1.31049e-17
6326.99884 1.30699e-17
6328.50214 1.30885e-17
6329.99542 1.29931e-17
6331.49872 1.30747e-17
6333.00202 1.30377e-17
6334.49530 1.30065e-17
6335.99860 1.33425e-17
6337.50190 1.33626e-17
6338.99518 1.33384e-17
6340.49848 1.33357e-17
6342.00178 1.32374e-17
6343.49505 1.32582e-17
6344.99835 1.35124e-17
6346.50165 1.37401e-17
6347.99493 1.37308e-17
6349.49823 1.36208e-17
6351.00153 1.36062e-17
6352.50483 1.38175e-17
6353.99811 1.37472e-17
6355.50141 1.35337e-17
6357.00471 1.34756e-17
6358.49799 1.34070e-17
6360.00129 1.36809e-17
6361.50459 1.38190e-17
6362.99787 1.34340e-17
6364.50117 1.34056e-17
6366.00447 1.37175e-17
6367.49774 1.35347e-17
6369.00104 1.36172e-17
6370.50434 1.36801e-17
6371.99762 1.35065e-17
6373.50092 1.38326e-17
6375.00422 1.39175e-17
6376.49750 1.38131e-17
6378.00080 1.37188e-17
6379.50410 1.38580e-17
6380.99738 1.39267e-17
6382.50068 1.39698e-17
6384.00398 1.39131e-17
6385.49726 1.39723e-17
6387.00056 1.40230e-17
6388.50386 1.40074e-17
6389.99713 1.40858e-17
6391.50043 1.41725e-17
6393.00373 1.41459e-17
6394.49701 1.41805e-17
6396.00031 1.43057e-17
6397.50361 1.43020e-17
6398.99689 1.41760e-17
6400.50019 1.41265e-17
6402.00349 1.42594e-17
6403.49677 1.42763e-17
6405.00007 1.41898e-17
6406.50337 1.41537e-17
6407.99665 1.43166e-17
6409.49995 1.42808e-17
6411.00325 1.43577e-17
6412.49652 1.42634e-17
6413.99982 1.41744e-17
6415.50312 1.41958e-17
6416.99640 1.43978e-17
6418.49970 1.43713e-17
6420.00300 1.43256e-17
6421.49628 1.43075e-17
6422.99958 1.45282e-17
6424.50288 1.44889e-17
6425.99616 1.43826e-17
6427.49946 1.44417e-17
6429.00276 1.44590e-17
6430.49604 1.44716e-17
6431.99934 1.44968e-17
6433.50264 1.45238e-17
6434.99591 1.45920e-17
6436.49921 1.43960e-17
6438.00251 1.45078e-17
6439.49579 1.45319e-17
6440.99909 1.46094e-17
6442.50239 1.46046e-17
6443.99567 1.46281e-17
6445.49897 1.44760e-17
6447.00227 1.43417e-17
6448.49555 1.44947e-17
6449.99885 1.45435e-17
6451.50215 1.44857e-17
6452.99543 1.45432e-17
6454.49873 1.45824e-17
6456.00203 1.46385e-17
6457.49530 1.46454e-17
6458.99860 1.44924e-17
6460.50190 1.44234e-17
6461.99518 1.45899e-17
6463.49848 1.46653e-17
6465.00178 1.45368e-17
6466.49506 1.45728e-17
6467.99836 1.46088e-17
6469.50166 1.44537e-17
6470.99494 1.43878e-17
6472.49824 1.44589e-17
6474.00154 1.45760e-17
6475.50484 1.45358e-17
6476.99812 1.44370e-17
6478.50142 1.45344e-17
6480.00472 1.45888e-17
6481.49799 1.44148e-17
6483.00129 1.44581e-17
6484.50459 1.45238e-17
6485.99787 1.44693e-17
6487.50117 1.43406e-17
6489.00447 1.44617e-17
6490.49775 1.45305e-17
6492.00105 1.44617e-17
6493.50435 1.44407e-17
6494.99763 1.46098e-17
6496.50093 1.46868e-17
6498.00423 1.46244e-17
6499.49751 1.46282e-17
6501.00081 1.45512e-17
6502.50411 1.46392e-17
6503.99738 1.46437e-17
6505.50068 1.46297e-17
6507.00398 1.48115e-17
6508.49726 1.48991e-17
6510.00056 1.46815e-17
6511.50386 1.46756e-17
6512.99714 1.47872e-17
6514.50044 1.47185e-17
6516.00374 1.46955e-17
6517.49702 1.46512e-17
6519.00032 1.46333e-17
6520.50362 1.45422e-17
6521.99690 1.44988e-17
6523.50020 1.46071e-17
6525.00350 1.46703e-17
6526.49677 1.46565e-17
6528.00007 1.46206e-17
6529.50337 1.45686e-17
6530.99665 1.46352e-17
6532.49995 1.47132e-17
6534.00325 1.47096e-17
6535.49653 1.47335e-17
6536.99983 1.48319e-17
6538.50313 1.48655e-17
6539.99641 1.48153e-17
6541.49971 1.47027e-17
6543.00301 1.46266e-17
6544.49629 1.46458e-17
6545.99959 1.45519e-17
6547.50289 1.45180e-17
6548.99616 1.45492e-17
6550.49946 1.46718e-17
6552.00276 1.46981e-17
6553.49604 1.45255e-17
6554.99934 1.45499e-17
6556.50264 1.46796e-17
6557.99592 1.46047e-17
6559.49922 1.45743e-17
6561.00252 1.45991e-17
6562.49580 1.46051e-17
6563.99910 1.45796e-17
6565.50240 1.44433e-17
6566.99568 1.44145e-17
6568.49898 1.45326e-17
6570.00228 1.43434e-17
6571.49555 1.44475e-17
6572.99885 1.46478e-17
6574.50215 1.45172e-17
6575.99543 1.45050e-17
6577.49873 1.45413e-17
6579.00203 1.45540e-17
6580.49531 1.47410e-17
6581.99861 1.45676e-17
6583.50191 1.42114e-17
6584.99519 1.43001e-17
6586.49849 1.44108e-17
6588.00179 1.44178e-17
6589.49507 1.42824e-17
6590.99837 1.43041e-17
6592.50167 1.45315e-17
6593.99494 1.44336e-17
6595.49824 1.43618e-17
6597.00154 1.44938e-17
6598.50484 1.45243e-17
6599.99812 1.43982e-17
6601.50142 1.43158e-17
6603.00472 1.43263e-17
6604.49800 1.43197e-17
6606.00130 1.42509e-17
6607.50460 1.42355e-17
6608.99788 1.43000e-17
6610.50118 1.42459e-17
6612.00448 1.43155e-17
6613.49776 1.43081e-17
6615.00106 1.42417e-17
6616.50436 1.42839e-17
6617.99763 1.43068e-17
6619.50093 1.41589e-17
6621.00423 1.42048e-17
6622.49751 1.41329e-17
6624.00081 1.41278e-17
6625.50411 1.41955e-17
6626.99739 1.40162e-17
6628.50069 1.40276e-17
6630.00399 1.39605e-17
6631.49727 1.41228e-17
6633.00057 1.39944e-17
6634.50387 1.39423e-17
6635.99715 1.39063e-17
6637.50045 1.37691e-17
6639.00375 1.38097e-17
6640.49702 1.38791e-17
6642.00032 1.37398e-17
6643.50362 1.37810e-17
6644.99690 1.37180e-17
6646.50020 1.37178e-17
6648.00350 1.37907e-17
6649.49678 1.38720e-17
6651.00008 1.37567e-17
6652.50338 1.36016e-17
6653.99666 1.35159e-17
6655.49996 1.36399e-17
6657.00326 1.35403e-17
6658.49654 1.34342e-17
6659.99984 1.34421e-17
6661.50314 1.34559e-17
6662.99641 1.35053e-17
6664.49971 1.34366e-17
6666.00301 1.33228e-17
6667.49629 1.33377e-17
6668.99959 1.33590e-17
6670.50289 1.32526e-17
6671.99617 1.33231e-17
6673.49947 1.33732e-17
6675.00277 1.33477e-17
6676.49605 1.33510e-17
6677.99935 1.33477e-17
6679.50265 1.33212e-17
6680.99593 1.32724e-17
6682.49923 1.31458e-17
6684.00253 1.31090e-17
6685.49580 1.31219e-17
6686.99910 1.30988e-17
6688.50240 1.30152e-17
6689.99568 1.30180e-17
6691.49898 1.30129e-17
6693.00228 1.29742e-17
6694.49556 1.30550e-17
6695.99886 1.30590e-17
6697.50216 1.28436e-17
6698.99544 1.28629e-17
6700.49874 1.31400e-17
6702.00204 1.30691e-17
6703.49532 1.29136e-17
6704.99862 1.28898e-17
6706.50192 1.29582e-17
6707.99519 1.30712e-17
6709.49849 1.32208e-17
6711.00179 1.29653e-17
6712.49507 1.28118e-17
6713.99837 1.30054e-17
6715.50167 1.29478e-17
6716.99495 1.29789e-17
6718.49825 1.29989e-17
6720.00155 1.30203e-17
6721.50485 1.28886e-17
6722.99813 1.27336e-17
6724.50143 1.28222e-17
6726.00473 1.28606e-17
6727.49801 1.28803e-17
6729.00131 1.28661e-17
6730.50461 1.27608e-17
6731.99788 1.27255e-17
6733.50118 1.27191e-17
6735.00448 1.28208e-17
6736.49776 1.28788e-17
6738.00106 1.27564e-17
6739.50436 1.27013e-17
6740.99764 1.26701e-17
6742.50094 1.27387e-17
6744.00424 1.27707e-17
6745.49752 1.27040e-17
6747.00082 1.26141e-17
6748.50412 1.26003e-17
6749.99740 1.26076e-17
6751.50070 1.25625e-17
6753.00400 1.25625e-17
6754.49727 1.25531e-17
6756.00057 1.25413e-17
6757.50387 1.26009e-17
6758.99715 1.26797e-17
6760.50045 1.26057e-17
6762.00375 1.24535e-17
6763.49703 1.25187e-17
6765.00033 1.25574e-17
6766.50363 1.24646e-17
6767.99691 1.23470e-17
6769.50021 1.24471e-17
6771.00351 1.24055e-17
6772.49679 1.23425e-17
6774.00009 1.23760e-17
6775.50339 1.22115e-17
6776.99666 1.21723e-17
6778.49996 1.22643e-17
6780.00326 1.21902e-17
6781.49654 1.20354e-17
6782.99984 1.19883e-17
6784.50314 1.19271e-17
6785.99642 1.19267e-17
6787.49972 1.19494e-17
6789.00302 1.18570e-17
6790.49630 1.17785e-17
6791.99960 1.16603e-17
6793.50290 1.17125e-17
6794.99618 1.17298e-17
6796.49948 1.15454e-17
6798.00278 1.15682e-17
6799.49605 1.15947e-17
6800.99935 1.17605e-17
6802.50265 1.17565e-17
6803.99593 1.15577e-17
6805.49923 1.13941e-17
6807.00253 1.14066e-17
6808.49581 1.15124e-17
6809.99911 1.15294e-17
6811.50241 1.16269e-17
6812.99569 1.16307e-17
6814.49899 1.15685e-17
6816.00229 1.14877e-17
6817.49557 1.13823e-17
6818.99887 1.14112e-17
6820.50217 1.14708e-17
6821.99544 1.15613e-17
6823.49874 1.14605e-17
6825.00204 1.13694e-17
6826.49532 1.14136e-17
6827.99862 1.14405e-17
6829.50192 1.12869e-17
6830.99520 1.11503e-17
6832.49850 1.12618e-17
6834.00180 1.13392e-17
6835.49508 1.13447e-17
6836.99838 1.14105e-17
6838.50168 1.14763e-17
6839.99496 1.14190e-17
6841.49826 1.13488e-17
6843.00156 1.14856e-17
6844.50486 1.16539e-17
6845.99813 1.16494e-17
6847.50143 1.16448e-17
6849.00473 1.16403e-17
6850.49801 1.16357e-17
6852.00131 1.16312e-17
6853.50461 1.16267e-17
6854.99789 1.16221e-17
6856.50119 1.16176e-17
6858.00449 1.16130e-17
6859.49777 1.16085e-17
6861.00107 1.16039e-17
6862.50437 1.15994e-17
6863.99765 1.15949e-17
6865.50095 1.15903e-17
6867.00425 1.15858e-17
6868.49752 1.15812e-17
6870.00082 1.15767e-17
6871.50412 1.15722e-17
6872.99740 1.15676e-17
6874.50070 1.15631e-17
6876.00400 1.15585e-17
6877.49728 1.15540e-17
6879.00058 1.15495e-17
6880.50388 1.15449e-17
6881.99716 1.15404e-17
6883.50046 1.15359e-17
6885.00376 1.15313e-17
6886.49704 1.15268e-17
6888.00034 1.15222e-17
6889.50364 1.15177e-17
6890.99691 1.15132e-17
6892.50021 1.15086e-17
6894.00351 1.15041e-17
6895.49679 1.14996e-17
6897.00009 1.14950e-17
6898.50339 1.14905e-17
6899.99667 1.14860e-17
6901.49997 1.14814e-17
6903.00327 1.14769e-17
6904.49655 1.14724e-17
6905.99985 1.14678e-17
6907.50315 1.14633e-17
6908.99643 1.14588e-17
6910.49973 1.14542e-17
6912.00303 1.14497e-17
6913.49630 1.14452e-17
6914.99960 1.14406e-17
6916.50290 1.14361e-17
6917.99618 1.14316e-17
6919.49948 1.14271e-17
6921.00278 1.14225e-17
6922.49606 1.14180e-17
6923.99936 1.14135e-17
6925.50266 1.14089e-17
6926.99594 1.14044e-17
6928.49924 1.13999e-17
6930.00254 1.13954e-17
6931.49582 1.13908e-17
6932.99912 1.13863e-17
6934.50242 1.13818e-17
6935.99569 1.13772e-17
6937.49899 1.14842e-17
6939.00229 1.15593e-17
6940.49557 1.13538e-17
6941.99887 1.12078e-17
6943.50217 1.12169e-17
6944.99545 1.15447e-17
6946.49875 1.15300e-17
6948.00205 1.13785e-17
6949.49533 1.14799e-17
6950.99863 1.15150e-17
6952.50193 1.16189e-17
6953.99521 1.16057e-17
6955.49851 1.14027e-17
6957.00181 1.12841e-17
6958.50511 1.13944e-17
6959.99838 1.15856e-17
6961.50168 1.16087e-17
6962.99496 1.15247e-17
6964.49826 1.15280e-17
6966.00156 1.14718e-17
6967.50486 1.13931e-17
6968.99814 1.16118e-17
6970.50144 1.16727e-17
6972.00474 1.14980e-17
6973.49802 1.14971e-17
6975.00132 1.14899e-17
6976.50462 1.14763e-17
6977.99790 1.15323e-17
6979.50120 1.16085e-17
6981.00450 1.14781e-17
6982.49777 1.13649e-17
6984.00107 1.14127e-17
6985.50437 1.14949e-17
6986.99765 1.12748e-17
6988.50095 1.12320e-17
6990.00425 1.13939e-17
6991.49753 1.12890e-17
6993.00083 1.13342e-17
6994.50413 1.12677e-17
6995.99741 1.11965e-17
6997.50071 1.12647e-17
6999.00401 1.11647e-17
7000.49729 1.11533e-17
7002.00059 1.13039e-17
7003.50389 1.13125e-17
7004.99716 1.12134e-17
7006.50046 1.10845e-17
7008.00376 1.11124e-17
7009.49704 1.12509e-17
7011.00034 1.10746e-17
7012.50364 1.10733e-17
7013.99692 1.11154e-17
7015.50022 1.11416e-17
7017.00352 1.10822e-17
7018.49680 1.10133e-17
7020.00010 1.09572e-17
7021.50340 1.10233e-17
7022.99668 1.11922e-17
7024.49998 1.12389e-17
7026.00328 1.11818e-17
7027.49655 1.10735e-17
7028.99985 1.10718e-17
7030.50315 1.11251e-17
7031.99643 1.11689e-17
7033.49973 1.10783e-17
7035.00303 1.10482e-17
7036.49631 1.11813e-17
7037.99961 1.11548e-17
7039.50291 1.08960e-17
7040.99619 1.08469e-17
7042.49949 1.09092e-17
7044.00279 1.09240e-17
7045.49607 1.09331e-17
7046.99937 1.08846e-17
7048.50267 1.08053e-17
7049.99594 1.07202e-17
7051.49924 1.07392e-17
7053.00254 1.08536e-17
7054.49582 1.09747e-17
7055.99912 1.08270e-17
7057.50242 1.07630e-17
7058.99570 1.09006e-17
7060.49900 1.09429e-17
7062.00230 1.07435e-17
7063.49558 1.08724e-17
7064.99888 1.07527e-17
7066.50218 1.07265e-17
7067.99546 1.07295e-17
7069.49876 1.07985e-17
7071.00206 1.07730e-17
7072.49533 1.07981e-17
7073.99863 1.08424e-17
7075.50193 1.07743e-17
7076.99521 1.05117e-17
7078.49851 1.07766e-17
7080.00181 1.08166e-17
7081.50511 1.07798e-17
7082.99839 1.07795e-17
7084.50169 1.08933e-17
7085.99497 1.08512e-17
7087.49827 1.09779e-17
7089.00157 1.07478e-17
7090.50487 1.06654e-17
7091.99815 1.09041e-17
7093.50145 1.10669e-17
7095.00475 1.10441e-17
7096.49802 1.09409e-17
7098.00132 1.09432e-17
7099.50462 1.09416e-17
7100.99790 1.07561e-17
7102.50120 1.06814e-17
7104.00450 1.06481e-17
7105.49778 1.07476e-17
7107.00108 1.07465e-17
7108.50438 1.06040e-17
7109.99766 1.05903e-17
7111.50096 1.07442e-17
7113.00426 1.08316e-17
7114.49754 1.07945e-17
7116.00084 1.07694e-17
7117.50414 1.07628e-17
7118.99741 1.07003e-17
7120.50071 1.07768e-17
7122.00401 1.09185e-17
7123.49729 1.09558e-17
7125.00059 1.08186e-17
7126.50389 1.09678e-17
7127.99717 1.08828e-17
7129.50047 1.07769e-17
7131.00377 1.08355e-17
7132.49705 1.07853e-17
7134.00035 1.07076e-17
7135.50365 1.09216e-17
7136.99693 1.09157e-17
7138.50023 1.06971e-17
7140.00353 1.05657e-17
7141.49680 1.05303e-17
7143.00010 1.07788e-17
7144.50340 1.07751e-17
7145.99668 1.05865e-17
7147.49998 1.05876e-17
7149.00328 1.07658e-17
7150.49656 1.07577e-17
7151.99986 1.07322e-17
7153.50316 1.06981e-17
7154.99644 1.06209e-17
7156.49974 1.06212e-17
7158.00304 1.06279e-17
7159.49632 1.07365e-17
7160.99962 1.06848e-17
7162.50292 1.06699e-17
7163.99619 1.08127e-17
7165.49949 1.07754e-17
7167.00279 1.04926e-17
7168.49607 1.04369e-17
7169.99937 1.04151e-17
7171.50267 1.04152e-17
7172.99595 1.03884e-17
7174.49925 1.04070e-17
7176.00255 1.04256e-17
7177.49583 1.04442e-17
7178.99913 1.04627e-17
7180.50243 1.04623e-17
7181.99571 1.05288e-17
7183.49901 1.05010e-17
7185.00231 1.03367e-17
7186.49558 1.03201e-17
7187.99888 1.04016e-17
7189.50218 1.05515e-17
7190.99546 1.06432e-17
7192.49876 1.06684e-17
7194.00206 1.05682e-17
7195.49534 1.05922e-17
7196.99864 1.06962e-17
7198.50194 1.05826e-17
7199.99522 1.04074e-17
7201.49852 1.04972e-17
7203.00182 1.04339e-17
7204.50512 1.04534e-17
7205.99840 1.05179e-17
7207.50170 1.04270e-17
7208.99497 1.06658e-17
7210.49827 1.07393e-17
7212.00157 1.06123e-17
7213.50487 1.06722e-17
7214.99815 1.09015e-17
7216.50145 1.07068e-17
7218.00475 1.03491e-17
7219.49803 1.03649e-17
7221.00133 1.05207e-17
7222.50463 1.07096e-17
7223.99791 1.06879e-17
7225.50121 1.05326e-17
7227.00451 1.03357e-17
7228.49779 1.03995e-17
7230.00109 1.05004e-17
7231.50439 1.03884e-17
7232.99766 1.02655e-17
7234.50096 1.04236e-17
7236.00426 1.04859e-17
7237.49754 1.04428e-17
7239.00084 1.04098e-17
7240.50414 1.03856e-17
7241.99742 1.01905e-17
7243.50072 1.00962e-17
7245.00402 1.02800e-17
7246.49730 1.02940e-17
7248.00060 1.00982e-17
7249.50390 9.98337e-18
7250.99718 1.00630e-17
7252.50048 1.02066e-17
7254.00378 1.02950e-17
7255.49705 1.04556e-17
7257.00035 1.05515e-17
7258.50365 1.04732e-17
7259.99693 1.05392e-17
7261.50023 1.07340e-17
7263.00353 1.06112e-17
7264.49681 1.01687e-17
7266.00011 1.00964e-17
7267.50341 1.03305e-17
7268.99669 1.03290e-17
7270.49999 9.97150e-18
7272.00329 9.90170e-18
7273.49657 9.98845e-18
7274.99987 9.97001e-18
7276.50317 9.94637e-18
7277.99644 9.72311e-18
7279.49974 9.72367e-18
7281.00304 1.00912e-17
7282.49632 1.02666e-17
7283.99962 1.03270e-17
7285.50292 1.04252e-17
7286.99620 9.88396e-18
7288.49950 9.55573e-18
7290.00280 9.60900e-18
7291.49608 9.69913e-18
7292.99938 9.80157e-18
7294.50268 9.82928e-18
7295.99596 9.88073e-18
7297.49926 9.80522e-18
7299.00256 9.63029e-18
7300.49583 9.64497e-18
7301.99913 9.85175e-18
7303.50243 9.69715e-18
7304.99571 9.46608e-18
7306.49901 9.49550e-18
7308.00231 9.46569e-18
7309.49559 9.40776e-18
7310.99889 9.48113e-18
7312.50219 9.52456e-18
7313.99547 9.53142e-18
7315.49877 9.62374e-18
7317.00207 9.65647e-18
7318.49535 9.40931e-18
7319.99865 9.18374e-18
7321.50195 9.22763e-18
7322.99522 9.22767e-18
7324.49852 9.11533e-18
7326.00182 9.29459e-18
7327.50512 9.55108e-18
7328.99840 9.32718e-18
7330.50170 9.15449e-18
7331.99498 9.09310e-18
7333.49828 9.03882e-18
7335.00158 9.02899e-18
7336.50488 9.00488e-18
7337.99816 9.09338e-18
7339.50146 9.07287e-18
7341.00476 9.03062e-18
7342.49804 9.21213e-18
7344.00134 9.11305e-18
7345.50464 8.74036e-18
7346.99791 8.61923e-18
7348.50121 8.76617e-18
7350.00451 8.63491e-18
7351.49779 8.67788e-18
7353.00109 8.67894e-18
7354.50439 8.85077e-18
7355.99767 8.78204e-18
7357.50097 8.53710e-18
7359.00427 8.41216e-18
7360.49755 8.61324e-18
7362.00085 8.58910e-18
7363.50415 8.47426e-18
7364.99743 8.45999e-18
7366.50073 8.30338e-18
7368.00403 8.22294e-18
7369.49730 8.10298e-18
7371.00060 8.14512e-18
7372.50390 8.23884e-18
7373.99718 8.22508e-18
7375.50048 8.23917e-18
7377.00378 8.13118e-18
7378.49706 8.02809e-18
7380.00036 7.94009e-18
7381.50366 7.95092e-18
7382.99694 7.88289e-18
7384.50024 7.79299e-18
7386.00354 7.74866e-18
7387.49682 7.69771e-18
7389.00012 7.67740e-18
7390.50342 7.63390e-18
7391.99669 7.56425e-18
7393.49999 7.60938e-18
7395.00329 7.56415e-18
7396.49657 7.48265e-18
7397.99987 7.48463e-18
7399.50317 7.48076e-18
7400.99645 7.46443e-18
7402.49975 7.34051e-18
7404.00305 7.34508e-18
7405.49633 7.31293e-18
7406.99963 7.12799e-18
7408.50293 7.01831e-18
7409.99621 6.99741e-18
7411.49951 7.00125e-18
7413.00281 6.97377e-18
7414.49608 6.88142e-18
7415.99938 6.95731e-18
7417.50268 6.89850e-18
7418.99596 6.87647e-18
7420.49926 6.78292e-18
7422.00256 6.80633e-18
7423.49584 6.63943e-18
7424.99914 6.65504e-18
7426.50244 6.65884e-18
7427.99572 6.59127e-18
7429.49902 6.69499e-18
7431.00232 6.69417e-18
7432.49560 6.65667e-18
7433.99890 6.63313e-18
7435.50220 6.50803e-18
7436.99547 6.57834e-18
7438.49877 6.52155e-18
7440.00207 6.36642e-18
7441.49535 6.33384e-18
7442.99865 6.22426e-18
7444.50195 6.11553e-18
7445.99523 6.17800e-18
7447.49853 6.17124e-18
7449.00183 6.13588e-18
7450.50513 6.12568e-18
7451.99841 6.15752e-18
7453.50171 6.03712e-18
7454.99499 5.90116e-18
7456.49829 5.93053e-18
7458.00159 5.86040e-18
7459.49486 5.78689e-18
7460.99816 5.71050e-18
7462.50146 5.75824e-18
7464.00476 5.77297e-18
7465.49804 5.71373e-18
7467.00134 5.77549e-18
7468.50464 5.76578e-18
7469.99792 5.70432e-18
7471.50122 5.69141e-18
7473.00452 5.61851e-18
7474.49780 5.56717e-18
7476.00110 5.55690e-18
7477.50440 5.55707e-18
7478.99768 5.53199e-18
7480.50098 5.55972e-18
7482.00428 5.52324e-18
7483.49755 5.40177e-18
7485.00085 5.34234e-18
7486.50415 5.29545e-18
7487.99743 5.45655e-18
7489.50073 5.50625e-18
7491.00403 5.42571e-18
7492.49731 5.26583e-18
7494.00061 5.12851e-18
7495.50391 5.21710e-18
7496.99719 5.20664e-18
7498.50049 5.16738e-18
7500.00379 5.15697e-18
7501.49707 5.08016e-18
7503.00037 4.97619e-18
7504.50367 4.99543e-18
7505.99694 4.97011e-18
7507.50024 4.92462e-18
7509.00354 4.92894e-18
7510.49682 4.89722e-18
7512.00012 4.78146e-18
7513.50342 4.70602e-18
7514.99670 4.74330e-18
7516.50000 4.69623e-18
7518.00330 4.62015e-18
7519.49658 4.57487e-18
7520.99988 4.47108e-18
7522.50318 4.58365e-18
7523.99646 4.59148e-18
7525.49976 4.53733e-18
7527.00306 4.44849e-18
7528.49633 4.41026e-18
7529.99963 4.37815e-18
7531.50293 4.37174e-18
7532.99621 4.32826e-18
7534.49951 4.26211e-18
7536.00281 4.24057e-18
7537.49609 4.23386e-18
7538.99939 4.27733e-18
7540.50269 4.15077e-18
7540.82765 4.15077e-18
7541.68911 4.12366e-18
7542.55058 4.10020e-18
7543.41204 4.07674e-18
7544.27350 4.05632e-18
7545.13496 4.03590e-18
7545.99642 4.01536e-18
7546.86790 3.99480e-18
7547.72936 3.97014e-18
7548.59083 3.94548e-18
7549.45229 3.91669e-18
7550.31375 3.88790e-18
7551.17521 3.85697e-18
7552.03667 3.82604e-18
7552.89814 3.79514e-18
7553.75960 3.76424e-18
7554.62106 3.73575e-18
7555.48252 3.70726e-18
7556.35400 3.68169e-18
7557.21546 3.65613e-18
7558.07693 3.63193e-18
7558.93839 3.60773e-18
7559.79985 3.58355e-18
7560.66131 3.55937e-18
7561.52277 3.53454e-18
7562.38424 3.50972e-18
7563.24570 3.48316e-18
7564.10716 3.45660e-18
7564.96862 3.42593e-18
7565.84010 3.39524e-18
7566.70156 3.36043e-18
7567.56302 3.32561e-18
7568.42449 3.29334e-18
7569.28595 3.26107e-18
7570.14741 3.23689e-18
7571.00887 3.21273e-18
7571.87033 3.19747e-18
7572.73180 3.18222e-18
7573.59326 3.17497e-18
7574.45472 3.16774e-18
7575.31618 3.15840e-18
7576.18766 3.14906e-18
7577.04912 3.12653e-18
7577.91059 3.10399e-18
7578.77205 3.07436e-18
7579.63351 3.04471e-18
7580.49497 3.01766e-18
7581.35643 2.99062e-18
7582.21790 2.96462e-18
7583.07936 2.93862e-18
7583.94082 2.90915e-18
7584.81230 2.87968e-18
7585.67376 2.83042e-18
7586.53522 2.78112e-18
7587.39668 2.68940e-18
7588.25815 2.59761e-18
7589.11961 2.46792e-18
7589.98107 2.33816e-18
7590.84253 2.19754e-18
7591.70399 2.05690e-18
7592.56546 1.93109e-18
7593.42692 1.80531e-18
7594.28838 1.71843e-18
7595.15986 1.63162e-18
7596.02132 1.59570e-18
7596.88278 1.55988e-18
7597.74425 1.56327e-18
7598.60571 1.56675e-18
7599.46717 1.60105e-18
7600.32863 1.63540e-18
7601.19009 1.70698e-18
7602.05156 1.77862e-18
7602.91302 1.88764e-18
7603.77448 1.99673e-18
7604.64596 2.12910e-18
7605.50742 2.26152e-18
7606.36888 2.40041e-18
7607.23034 2.53931e-18
7608.09181 2.66761e-18
7608.95327 2.79589e-18
7609.81473 2.89650e-18
7610.67619 2.99705e-18
7611.53765 3.04604e-18
7612.39912 3.09492e-18
7613.26058 3.07305e-18
7614.13206 3.05103e-18
7614.99352 2.95935e-18
7615.85498 2.86753e-18
7616.71644 2.71685e-18
7617.57791 2.56606e-18
7618.43937 2.40138e-18
7619.30083 2.23669e-18
7620.16229 2.11863e-18
7621.02375 2.00068e-18
7621.88522 1.95218e-18
7622.74668 1.90384e-18
7623.61816 1.92010e-18
7624.47962 1.93649e-18
7625.34108 1.99669e-18
7626.20254 2.05698e-18
7627.06400 2.12286e-18
7627.92547 2.18876e-18
7628.78693 2.23906e-18
7629.64839 2.28933e-18
7630.50985 2.33209e-18
7631.37131 2.37483e-18
7632.23278 2.41527e-18
7633.10426 2.45570e-18
7633.96572 2.49360e-18
7634.82718 2.53149e-18
7635.68864 2.56686e-18
7636.55010 2.60223e-18
7637.41157 2.62811e-18
7638.27303 2.65397e-18
7639.13449 2.66683e-18
7639.99595 2.67966e-18
7640.85741 2.69174e-18
7641.71888 2.70381e-18
7642.59035 2.72722e-18
7643.45182 2.75065e-18
7644.31328 2.79057e-18
7645.17474 2.83051e-18
7646.03620 2.88914e-18
7646.89766 2.94780e-18
7647.75913 3.00932e-18
7648.62059 3.07083e-18
7649.48205 3.11529e-18
7650.34351 3.15971e-18
7651.20497 3.18286e-18
7652.06644 3.20597e-18
7652.93792 3.21003e-18
7653.79938 3.21405e-18
7654.66084 3.21432e-18
7655.52230 3.21458e-18
7656.38376 3.23469e-18
7657.24523 3.25484e-18
7658.10669 3.29860e-18
7658.96815 3.34241e-18
7659.82961 3.39685e-18
7660.69107 3.45132e-18
7661.55254 3.50542e-18
7662.42401 3.55953e-18
7663.28548 3.60329e-18
7664.14694 3.64704e-18
7665.00840 3.67987e-18
7665.86986 3.71268e-18
7666.73132 3.75354e-18
7667.59279 3.79441e-18
7668.45425 3.85209e-18
7669.31571 3.90980e-18
7670.17717 3.96633e-18
7671.03863 4.02285e-18
7671.91011 4.06373e-18
7672.77158 4.10456e-18
7673.63304 4.12715e-18
7674.49450 4.14965e-18
7675.35596 4.15493e-18
7676.21742 4.16018e-18
7677.07889 4.16955e-18
7677.94035 4.17888e-18
7678.80181 4.21367e-18
7679.66327 4.24855e-18
7680.52473 4.29619e-18
7681.38620 4.34384e-18
7682.25767 4.38440e-18
7683.11914 4.42500e-18
7683.98060 4.45843e-18
7684.84206 4.49186e-18
7685.70352 4.52377e-18
7686.56498 4.55569e-18
7687.42645 4.58740e-18
7688.28791 4.61907e-18
7689.14937 4.65102e-18
7690.01083 4.68297e-18
7690.88231 4.71212e-18
7691.74377 4.74127e-18
7692.60524 4.76145e-18
7693.46670 4.78167e-18
7694.32816 4.79440e-18
7695.18962 4.80713e-18
7696.05108 4.82182e-18
7696.91255 4.83652e-18
7697.77401 4.85674e-18
7698.63547 4.87692e-18
7699.49693 4.89786e-18
7700.35839 4.91876e-18
7701.22987 4.93642e-18
7702.09133 4.95407e-18
7702.95280 4.96609e-18
7703.81426 4.97802e-18
7704.67572 4.98270e-18
7705.53718 4.98731e-18
7706.39864 4.98498e-18
7707.26011 4.98262e-18
7708.12157 4.97537e-18
7708.98303 4.96813e-18
7709.84449 4.96436e-18
7710.71597 4.96064e-18
7711.57743 4.96789e-18
7712.43890 4.97517e-18
7713.30036 4.99163e-18
7714.16182 5.00813e-18
7715.02328 5.02971e-18
7715.88474 5.05129e-18
7716.74620 5.07135e-18
7717.60767 5.09145e-18
7718.46913 5.10282e-18
7719.33059 5.11423e-18
7720.20207 5.11643e-18
7721.06353 5.11863e-18
7721.92499 5.11427e-18
7722.78646 5.10991e-18
7723.64792 5.10346e-18
7724.50938 5.09701e-18
7725.37084 5.09449e-18
7726.23230 5.09193e-18
7727.09377 5.09525e-18
7727.95523 5.09861e-18
7728.81669 5.10582e-18
7729.67815 5.11307e-18
7730.54963 5.12376e-18
7731.41109 5.13449e-18
7732.27255 5.15091e-18
7733.13402 5.16728e-18
7733.99548 5.18678e-18
7734.85694 5.20624e-18
7735.71840 5.21829e-18
7736.57986 5.23030e-18
7737.44133 5.22890e-18
7738.30279 5.22750e-18
7739.17427 5.21697e-18
7740.03573 5.20644e-18
7740.89719 5.19239e-18
7741.75865 5.17833e-18
7742.62012 5.16912e-18
7743.48158 5.15991e-18
7744.34304 5.16236e-18
7745.20450 5.16480e-18
7746.06596 5.17429e-18
7746.92743 5.18378e-18
7747.78889 5.19395e-18
7748.65035 5.20412e-18
7749.52183 5.21273e-18
7750.38329 5.22129e-18
7751.24475 5.22666e-18
7752.10621 5.23203e-18
7752.96768 5.23419e-18
7753.82914 5.23631e-18
7754.69060 5.23643e-18
7755.55206 5.23651e-18
7756.41352 5.23315e-18
7757.27499 5.22974e-18
7758.13645 5.22005e-18
7759.00793 5.21040e-18
7759.86939 5.19723e-18
7760.73085 5.18402e-18
7761.59231 5.17397e-18
7762.45378 5.16392e-18
7763.31524 5.15859e-18
7764.17670 5.15323e-18
7765.03816 5.14914e-18
7765.89962 5.14506e-18
7766.76109 5.13953e-18
7767.62255 5.13401e-18
7768.49403 5.12504e-18
7769.35549 5.11603e-18
7770.21695 5.10346e-18
7771.07841 5.09085e-18
7771.93988 5.07892e-18
7772.80134 5.06702e-18
7773.66280 5.05894e-18
7774.52426 5.05085e-18
7775.38572 5.04492e-18
7776.24719 5.03904e-18
7777.10865 5.03399e-18
7777.98013 5.02899e-18
7778.84159 5.02558e-18
7779.70305 5.02218e-18
7780.56451 5.02110e-18
7781.42597 5.02002e-18
7782.28744 5.02106e-18
7783.14890 5.02210e-18
7784.01036 5.02482e-18
7784.87182 5.02755e-18
7785.73328 5.03159e-18
7786.59475 5.03563e-18
7787.46623 5.04052e-18
7788.32769 5.04544e-18
7789.18915 5.04981e-18
7790.05061 5.05413e-18
7790.91207 5.05633e-18
7791.77354 5.05850e-18
7792.63500 5.05769e-18
7793.49646 5.05689e-18
7794.35792 5.05285e-18
7795.21938 5.04877e-18
7796.08085 5.04336e-18
7796.94231 5.03796e-18
7797.81379 5.03463e-18
7798.67525 5.03135e-18
7799.53671 5.03275e-18
7800.39817 5.03419e-18
7801.25963 5.04204e-18
7802.12110 5.04993e-18
7802.98256 5.06290e-18
7803.84402 5.07591e-18
7804.70548 5.08744e-18
7805.56694 5.09902e-18
7806.42841 5.10438e-18
7807.29989 5.10975e-18
7808.16135 5.10947e-18
7809.02281 5.10919e-18
7809.88427 5.10418e-18
7810.74573 5.09914e-18
7811.60720 5.09041e-18
7812.46866 5.08164e-18
7813.33012 5.07075e-18
7814.19158 5.05986e-18
7815.05304 5.04881e-18
7815.91450 5.03776e-18
7816.78598 5.02839e-18
7817.64745 5.01902e-18
7818.50891 5.01357e-18
7819.37037 5.00813e-18
7820.23183 5.00837e-18
7821.09329 5.00865e-18
7821.95476 5.01053e-18
7822.81622 5.01245e-18
7823.67768 5.00989e-18
7824.53914 5.00733e-18
7825.40060 4.99956e-18
7826.27208 4.99175e-18
7827.13355 4.98062e-18
7827.99501 4.96953e-18
7828.85647 4.95660e-18
7829.71793 4.94370e-18
7830.57939 4.93057e-18
7831.44085 4.91744e-18
7832.30232 4.90511e-18
7833.16378 4.89277e-18
7834.02524 4.88124e-18
7834.88670 4.86971e-18
7835.75818 4.86006e-18
7836.61964 4.85041e-18
7837.48111 4.84565e-18
7838.34257 4.84088e-18
7839.20403 4.84180e-18
7840.06549 4.84269e-18
7840.92695 4.84589e-18
7841.78842 4.84909e-18
7842.64988 4.85165e-18
7843.51134 4.85422e-18
7844.37280 4.85478e-18
7845.23426 4.85538e-18
7846.10574 4.85318e-18
7846.96720 4.85101e-18
7847.82867 4.84717e-18
7848.69013 4.84333e-18
7849.55159 4.83920e-18
7850.41305 4.83508e-18
7851.27452 4.83155e-18
7852.13598 4.82799e-18
7852.99744 4.82563e-18
7853.85890 4.82327e-18
7854.72036 4.82255e-18
7855.59184 4.82182e-18
7856.45330 4.82299e-18
7857.31477 4.82419e-18
7858.17623 4.82543e-18
7859.03769 4.82667e-18
7859.89915 4.82507e-18
7860.76061 4.82347e-18
7861.62208 4.81922e-18
7862.48354 4.81498e-18
7863.34500 4.81045e-18
7864.20646 4.80593e-18
7865.07794 4.79988e-18
7865.93940 4.79388e-18
7866.80087 4.78235e-18
7867.66233 4.77086e-18
7868.52379 4.75344e-18
7869.38525 4.73606e-18
7870.24671 4.71608e-18
7871.10818 4.69606e-18
7871.96964 4.67812e-18
7872.83110 4.66015e-18
7873.69256 4.65174e-18
7874.56404 4.64341e-18
7875.42550 4.64753e-18
7876.28696 4.65170e-18
7877.14843 4.65987e-18
7878.00989 4.66803e-18
7878.87135 4.67240e-18
7879.73281 4.67680e-18
7880.59427 4.67500e-18
7881.45574 4.67320e-18
7882.31720 4.66395e-18
7883.17866 4.65466e-18
7884.05014 4.64121e-18
7884.91160 4.62776e-18
7885.77306 4.61418e-18
7886.63453 4.60065e-18
7887.49599 4.58668e-18
7888.35745 4.57266e-18
7889.21891 4.55729e-18
7890.08037 4.54191e-18
7890.94184 4.52598e-18
7891.80330 4.51008e-18
7892.66476 4.49459e-18
7893.52622 4.47913e-18
7894.39770 4.46812e-18
7895.25916 4.45711e-18
7896.12062 4.45615e-18
7896.98209 4.45515e-18
7897.84355 4.46103e-18
7898.70501 4.46688e-18
7899.56647 4.47032e-18
7900.42793 4.47377e-18
7901.28940 4.47072e-18
7902.15086 4.46768e-18
7903.01232 4.45915e-18
7903.88380 4.45058e-18
7904.74526 4.43917e-18
7905.60672 4.42780e-18
7906.46819 4.41947e-18
7907.32965 4.41118e-18
7908.19111 4.40830e-18
7909.05257 4.40542e-18
7909.91403 4.40129e-18
7910.77550 4.39717e-18
7911.63696 4.38784e-18
7912.49842 4.37851e-18
7913.36990 4.36874e-18
7914.23136 4.35893e-18
7915.09282 4.35269e-18
7915.95428 4.34644e-18
7916.81575 4.34400e-18
7917.67721 4.34156e-18
7918.53867 4.34240e-18
7919.40013 4.34324e-18
7920.26159 4.34148e-18
7921.12306 4.33975e-18
7921.98452 4.32950e-18
7922.85600 4.31921e-18
7923.71746 4.30408e-18
7924.57892 4.28894e-18
7925.44038 4.27529e-18
7926.30185 4.26160e-18
7927.16331 4.25311e-18
7928.02477 4.24462e-18
7928.88623 4.24378e-18
7929.74769 4.24298e-18
7930.60916 4.24827e-18
7931.47062 4.25355e-18
7932.34210 4.26060e-18
7933.20356 4.26768e-18
7934.06502 4.27277e-18
7934.92648 4.27785e-18
7935.78794 4.27785e-18
7936.64941 4.27789e-18
7937.51087 4.27125e-18
7938.37233 4.26456e-18
7939.23379 4.25159e-18
7940.09525 4.23858e-18
7940.95672 4.22116e-18
7941.81818 4.20374e-18
7942.68966 4.18624e-18
7943.55112 4.16875e-18
7944.41258 4.15457e-18
7945.27404 4.14040e-18
7946.13551 4.13015e-18
7946.99697 4.11990e-18
7947.85843 4.11353e-18
7948.71989 4.10713e-18
7949.58135 4.10344e-18
7950.44282 4.09976e-18
7951.30428 4.09712e-18
7952.17576 4.09448e-18
7953.03722 4.08935e-18
7953.89868 4.08423e-18
7954.76014 4.07357e-18
7955.62160 4.06292e-18
7956.48307 4.05119e-18
7957.34453 4.03942e-18
7958.20599 4.03237e-18
7959.06745 4.02537e-18
7959.92891 4.02345e-18
7960.79038 4.02152e-18
7961.66186 4.02349e-18
7962.52332 4.02541e-18
7963.38478 4.02817e-18
7964.24624 4.03093e-18
7965.10770 4.03009e-18
7965.96917 4.02921e-18
7966.83063 4.02729e-18
7967.69209 4.02533e-18
7968.55355 4.02961e-18
7969.41501 4.03394e-18
7970.27648 4.04615e-18
7971.14795 4.05840e-18
7972.00942 4.07486e-18
7972.87088 4.09131e-18
7973.73234 4.10705e-18
7974.59380 4.12282e-18
7975.45526 4.13067e-18
7976.31673 4.13852e-18
7977.17819 4.13539e-18
7978.03965 4.13227e-18
7978.90111 4.12406e-18
7979.76257 4.11586e-18
7980.63405 4.10769e-18
7981.49552 4.09956e-18
7982.35698 4.09271e-18
7983.21844 4.08587e-18
7984.07990 4.08114e-18
7984.94136 4.07642e-18
7985.80283 4.07209e-18
7986.66429 4.06781e-18
7987.52575 4.06208e-18
7988.38721 4.05632e-18
7989.24867 4.04991e-18
7990.11014 4.04351e-18
7990.98161 4.03738e-18
7991.84308 4.03125e-18
7992.70454 4.02729e-18
7993.56600 4.02333e-18
7994.42746 4.02369e-18
7995.28892 4.02409e-18
7996.15039 4.02449e-18
7997.01185 4.02489e-18
7997.87331 4.01848e-18
7998.73477 4.01207e-18
7999.59623 3.99969e-18
8000.46771 3.98731e-18
8001.32917 3.97413e-18
8002.19064 3.96094e-18
8003.05210 3.95087e-18
8003.91356 3.94080e-18
8004.77502 3.93717e-18
8005.63649 3.93356e-18
8006.49795 3.93552e-18
8007.35941 3.93749e-18
8008.22087 3.93821e-18
8009.08233 3.93894e-18
8009.95381 3.93621e-18
8010.81527 3.93347e-18
8011.67674 3.93381e-18
8012.53820 3.93415e-18
8013.39966 3.94073e-18
8014.26112 3.94731e-18
8015.12258 3.95553e-18
8015.98405 3.96375e-18
8016.84551 3.96923e-18
8017.70697 3.97471e-18
8018.56843 3.97301e-18
8019.43991 3.97130e-18
8020.30137 3.95969e-18
8021.16284 3.94806e-18
8022.02430 3.93390e-18
8022.88576 3.91973e-18
8023.74722 3.91115e-18
8024.60868 3.90258e-18
8025.47015 3.89933e-18
8026.33161 3.89610e-18
8027.19307 3.89603e-18
8028.05453 3.89596e-18
8028.92601 3.89639e-18
8029.78747 3.89681e-18
8030.64893 3.89463e-18
8031.51040 3.89244e-18
8032.37186 3.88796e-18
8033.23332 3.88347e-18
8034.09478 3.87886e-18
8034.95624 3.87425e-18
8035.81771 3.87090e-18
8036.67917 3.86755e-18
8037.54063 3.86630e-18
8038.41211 3.86504e-18
8039.27357 3.86618e-18
8040.13503 3.86733e-18
8040.99650 3.87050e-18
8041.85796 3.87367e-18
8042.71942 3.87781e-18
8043.58088 3.88196e-18
8044.44234 3.88521e-18
8045.30380 3.88847e-18
8046.16527 3.88944e-18
8047.02673 3.89039e-18
8047.88819 3.88841e-18
8048.75967 3.88642e-18
8049.62113 3.88184e-18
8050.48259 3.87725e-18
8051.34406 3.87345e-18
8052.20552 3.86966e-18
8053.06698 3.86918e-18
8053.92844 3.86871e-18
8054.78990 3.86963e-18
8055.65137 3.87055e-18
8056.51283 3.87044e-18
8057.37429 3.87034e-18
8058.24577 3.86632e-18
8059.10723 3.86229e-18
8059.96869 3.85191e-18
8060.83015 3.84151e-18
8061.69162 3.82675e-18
8062.55308 3.81199e-18
8063.41454 3.79626e-18
8064.27600 3.78054e-18
8065.13746 3.76772e-18
8065.99893 3.75490e-18
8066.86039 3.74875e-18
8067.73187 3.74262e-18
8068.59333 3.74337e-18
8069.45479 3.74414e-18
8070.31625 3.74976e-18
8071.17772 3.75539e-18
8072.03918 3.76185e-18
8072.90064 3.76832e-18
8073.76210 3.76986e-18
8074.62356 3.77139e-18
8075.48503 3.76589e-18
8076.34649 3.76038e-18
8077.21797 3.75059e-18
8078.07943 3.74079e-18
8078.94089 3.72841e-18
8079.80235 3.71603e-18
8080.66381 3.70076e-18
8081.52528 3.68548e-18
8082.38674 3.66754e-18
8083.24820 3.64959e-18
8084.10966 3.62974e-18
8084.97113 3.60989e-18
8085.83259 3.58903e-18
8086.70407 3.56816e-18
8087.56553 3.54761e-18
8088.42699 3.52705e-18
8089.28845 3.50805e-18
8090.14991 3.48904e-18
8091.01138 3.47271e-18
8091.87284 3.45638e-18
8092.73430 3.44331e-18
8093.59576 3.43025e-18
8094.45722 3.42020e-18
8095.31869 3.41016e-18
8096.18015 3.40231e-18
8097.05163 3.39448e-18
8097.91309 3.38448e-18
8098.77455 3.37448e-18
8099.63601 3.35714e-18
8100.49748 3.33979e-18
8101.35894 3.31349e-18
8102.22040 3.28716e-18
8103.08186 3.25221e-18
8103.94332 3.21725e-18
8104.80479 3.17790e-18
8105.67626 3.13854e-18
8106.53773 3.10165e-18
8107.39919 3.06476e-18
8108.26065 3.03461e-18
8109.12211 3.00447e-18
8109.98357 2.98251e-18
8110.84504 2.96056e-18
8111.70650 2.94487e-18
8112.56796 2.92918e-18
8113.42942 2.91302e-18
8114.29088 2.89686e-18
8115.15235 2.87480e-18
8116.02383 2.85273e-18
8116.88529 2.82246e-18
8117.74675 2.79217e-18
8118.60821 2.75325e-18
8119.46967 2.71431e-18
8120.33114 2.67236e-18
8121.19260 2.63041e-18
8122.05406 2.58991e-18
8122.91552 2.54942e-18
8123.77698 2.50538e-18
8124.63845 2.46133e-18
8125.49991 2.40909e-18
8126.37139 2.35683e-18
8127.23285 2.29889e-18
8128.09431 2.24093e-18
8128.95577 2.18094e-18
8129.81723 2.12095e-18
8130.67870 2.06594e-18
8131.54016 2.01094e-18
8132.40162 1.96846e-18
8133.26308 1.92602e-18
8134.12454 1.89202e-18
8134.99602 1.85804e-18
8135.85749 1.82344e-18
8136.71895 1.78883e-18
8137.58041 1.75016e-18
8138.44187 1.71149e-18
8139.30333 1.66864e-18
8140.16480 1.62577e-18
8141.02626 1.57983e-18
8141.88772 1.53388e-18
8142.74918 1.48741e-18
8143.61064 1.44093e-18
8144.47210 1.39646e-18
8145.34358 1.35199e-18
8146.20505 1.31154e-18
8147.06651 1.27111e-18
8147.92797 1.23611e-18
8148.78943 1.20113e-18
8149.65089 1.17204e-18
8150.51236 1.14296e-18
8151.37382 1.11904e-18
8152.23528 1.09514e-18
8153.09674 1.07326e-18
8153.95820 1.05138e-18
8154.82968 1.02898e-18
8155.69115 1.00657e-18
8156.55261 9.83892e-19
8157.41407 9.61210e-19
8158.27553 9.39024e-19
8159.13699 9.16843e-19
8159.99845 8.97043e-19
8160.85992 8.77248e-19
8161.72138 8.61689e-19
8162.58284 8.46138e-19
8163.44430 8.35379e-19
8164.31578 8.24633e-19
8165.17724 8.18579e-19
8166.03871 8.12533e-19
8166.90017 8.08301e-19
8167.76163 8.04073e-19
8168.62309 7.98163e-19
8169.48455 7.92253e-19
8170.34602 7.81751e-19
8171.20748 7.71241e-19
8172.06894 7.53379e-19
8172.93040 7.35498e-19
8173.80188 7.14994e-19
8174.66334 6.94486e-19
8175.52481 6.81533e-19
8176.38627 6.68600e-19
8177.24773 6.65465e-19
8178.10919 6.62354e-19
8178.97065 6.63131e-19
8179.83212 6.63916e-19
8180.69358 6.64104e-19
8181.55504 6.64292e-19
8182.41650 6.61061e-19
8183.28798 6.57826e-19
8184.14944 6.50146e-19
8185.01090 6.42459e-19
8185.87237 6.34143e-19
8186.73383 6.25823e-19
8187.59529 6.19597e-19
8188.45675 6.13370e-19
8189.31821 6.07128e-19
8190.17968 6.00882e-19
8191.04114 5.93151e-19
8191.90260 5.85411e-19
8192.77408 5.77984e-19
8193.63554 5.70557e-19
8194.49700 5.65256e-19
8195.35846 5.59958e-19
8196.21993 5.58409e-19
8197.08139 5.56867e-19
8197.94285 5.60299e-19
8198.80431 5.63738e-19
8199.66577 5.69207e-19
8200.52724 5.74681e-19
8201.38870 5.78076e-19
8202.25016 5.81467e-19
8203.12164 5.81988e-19
8203.98310 5.82504e-19
8204.84456 5.80819e-19
8205.70603 5.79129e-19
8206.56749 5.75578e-19
8207.42895 5.72018e-19
8208.29041 5.66885e-19
8209.15187 5.61748e-19
8210.01334 5.55866e-19
8210.87480 5.49985e-19
8211.73626 5.44439e-19
8212.60774 5.38898e-19
8213.46920 5.34149e-19
8214.33066 5.29405e-19
8215.19212 5.25373e-19
8216.05359 5.21345e-19
8216.91505 5.16752e-19
8217.77651 5.12160e-19
8218.63797 5.03459e-19
8219.49943 4.94747e-19
8220.36090 4.80577e-19
8221.22236 4.66395e-19
8222.08382 4.50387e-19
8222.95530 4.34376e-19
8223.81676 4.20582e-19
8224.67822 4.06793e-19
8225.53969 4.00291e-19
8226.40115 3.93808e-19
8227.26261 3.98264e-19
8228.12407 4.02745e-19
8228.98553 4.14745e-19
8229.84700 4.26760e-19
8230.70846 4.41559e-19
8231.57994 4.56365e-19
8232.44140 4.69354e-19
8233.30286 4.82343e-19
8234.16432 4.89241e-19
8235.02578 4.96128e-19
8235.88725 4.98358e-19
8236.74871 5.00572e-19
8237.61017 5.01702e-19
8238.47163 5.02831e-19
8239.33309 5.05349e-19
8240.19456 5.07872e-19
8241.06604 5.13853e-19
8241.92750 5.19843e-19
8242.78896 5.28075e-19
8243.65042 5.36311e-19
8244.51188 5.43054e-19
8245.37335 5.49796e-19
8246.23481 5.53216e-19
8247.09627 5.56627e-19
8247.95773 5.56927e-19
8248.81919 5.57220e-19
8249.68066 5.55150e-19
8250.54212 5.53076e-19
8251.41360 5.50297e-19
8252.27506 5.47514e-19
8253.13652 5.45576e-19
8253.99798 5.43642e-19
8254.85945 5.43486e-19
8255.72091 5.43338e-19
8256.58237 5.45496e-19
8257.44383 5.47662e-19
8258.30529 5.51766e-19
8259.16676 5.55874e-19
8260.02822 5.61136e-19
8260.89970 5.66401e-19
8261.76116 5.71361e-19
8262.62262 5.76326e-19
8263.48408 5.79557e-19
8264.34554 5.82785e-19
8265.20701 5.82997e-19
8266.06847 5.83201e-19
8266.92993 5.79545e-19
8267.79139 5.75882e-19
8268.65285 5.70304e-19
8269.52433 5.64719e-19
8270.38580 5.59918e-19
8271.24726 5.55122e-19
8272.10872 5.52911e-19
8272.97018 5.50709e-19
8273.83164 5.52495e-19
8274.69311 5.54289e-19
8275.55457 5.58669e-19
8276.41603 5.63049e-19
8277.27749 5.66861e-19
8278.13895 5.70669e-19
8279.01043 5.72623e-19
8279.87189 5.74573e-19
8280.73336 5.74973e-19
8281.59482 5.75369e-19
8282.45628 5.75173e-19
8283.31774 5.74973e-19
8284.17920 5.76174e-19
8285.04067 5.77379e-19
8285.90213 5.80739e-19
8286.76359 5.84102e-19
8287.62505 5.87814e-19
8288.48651 5.91525e-19
8289.34798 5.94628e-19
8290.21946 5.97727e-19
8291.08092 6.01663e-19
8291.94238 6.05599e-19
8292.80384 6.11192e-19
8293.66530 6.16786e-19
8294.52677 6.22579e-19
8295.38823 6.28369e-19
8296.24969 6.33006e-19
8297.11115 6.37642e-19
8297.97261 6.40253e-19
8298.83408 6.42859e-19
8299.70555 6.42927e-19
8300.56702 6.42987e-19
8301.42848 6.43584e-19
8302.28994 6.44181e-19
8303.15140 6.48941e-19
8304.01286 6.53710e-19
8304.87433 6.61237e-19
8305.73579 6.68765e-19
8306.59725 6.76028e-19
8307.45871 6.83291e-19
8308.32017 6.88456e-19
8309.18164 6.93613e-19
8310.05312 6.95334e-19
8310.91458 6.97048e-19
8311.77604 6.96760e-19
8312.63750 6.96464e-19
8313.49896 6.97637e-19
8314.36043 6.98810e-19
8315.22189 7.03394e-19
8316.08335 7.07991e-19
8316.94481 7.16379e-19
8317.80627 7.24779e-19
8318.67775 7.35982e-19
8319.53921 7.47193e-19
8320.40068 7.58092e-19
8321.26214 7.68990e-19
8322.12360 7.77354e-19
8322.98506 7.85711e-19
8323.84652 7.91508e-19
8324.70799 7.97302e-19
8325.56945 8.00825e-19
8326.43091 8.04349e-19
8327.29237 8.06467e-19
8328.16385 8.08585e-19
8329.02531 8.10383e-19
8329.88678 8.12176e-19
8330.74824 8.14266e-19
8331.60970 8.16361e-19
8332.47116 8.19359e-19
8333.33262 8.22362e-19
8334.19408 8.27776e-19
8335.05555 8.33197e-19
8335.91701 8.42278e-19
8336.77847 8.51367e-19
8337.64995 8.63138e-19
8338.51141 8.74910e-19
8339.37287 8.87690e-19
8340.23434 9.00475e-19
8341.09580 9.11962e-19
8341.95726 9.23445e-19
8342.81872 9.31145e-19
8343.68018 9.38836e-19
8344.54165 9.42804e-19
8345.40311 9.46760e-19
8346.26457 9.48742e-19
8347.12603 9.50716e-19
8347.99751 9.52133e-19
8348.85897 9.53554e-19
8349.72043 9.55472e-19
8350.58190 9.57390e-19
8351.44336 9.61046e-19
8352.30482 9.64705e-19
8353.16628 9.71400e-19
8354.02775 9.78102e-19
8354.88921 9.87992e-19
8355.75067 9.97890e-19
8356.62215 1.00936e-18
8357.48361 1.02083e-18
8358.34507 1.03227e-18
8359.20653 1.04370e-18
8360.06800 1.05370e-18
8360.92946 1.06370e-18
8361.79092 1.07142e-18
8362.65238 1.07913e-18
8363.51384 1.08603e-18
8364.37531 1.09293e-18
8365.23677 1.10043e-18
8366.10825 1.10794e-18
8366.96971 1.11511e-18
8367.83117 1.12229e-18
8368.69263 1.12815e-18
8369.55410 1.13401e-18
8370.41556 1.13951e-18
8371.27702 1.14502e-18
8372.13848 1.15148e-18
8372.99994 1.15794e-18
8373.86140 1.16608e-18
8374.72287 1.17422e-18
8375.59435 1.18450e-18
8376.45581 1.19478e-18
8377.31727 1.20709e-18
8378.17873 1.21941e-18
8379.04019 1.23330e-18
8379.90166 1.24718e-18
8380.76312 1.26187e-18
8381.62458 1.27656e-18
8382.48604 1.29116e-18
8383.34750 1.30577e-18
8384.20897 1.31954e-18
8385.07043 1.33331e-18
8385.94191 1.34558e-18
8386.80337 1.35785e-18
8387.66483 1.36902e-18
8388.52629 1.38018e-18
8389.38775 1.39242e-18
8390.24922 1.40466e-18
8391.11068 1.41857e-18
8391.97214 1.43249e-18
8392.83360 1.44528e-18
8393.69507 1.45807e-18
8394.55653 1.46774e-18
8395.41799 1.47740e-18
8396.28947 1.48388e-18
8397.15093 1.49036e-18
8398.01239 1.49448e-18
8398.87385 1.49859e-18
8399.73532 1.50488e-18
8400.59678 1.51118e-18
8401.45824 1.52380e-18
8402.31970 1.53644e-18
8403.18116 1.55404e-18
8404.04263 1.57166e-18
8404.90409 1.59172e-18
8405.77557 1.61178e-18
8406.63703 1.63148e-18
8407.49849 1.65118e-18
8408.35995 1.66761e-18
8409.22142 1.68404e-18
8410.08288 1.69723e-18
8410.94434 1.71041e-18
8411.80580 1.72183e-18
8412.66726 1.73324e-18
8413.52873 1.74392e-18
8414.39019 1.75459e-18
8415.26167 1.76534e-18
8416.12313 1.77610e-18
8416.98459 1.78782e-18
8417.84605 1.79954e-18
8418.70751 1.81294e-18
8419.56898 1.82634e-18
8420.43044 1.84170e-18
8421.29190 1.85707e-18
8422.15336 1.87433e-18
8423.01482 1.89160e-18
8423.87629 1.90984e-18
8424.74777 1.92809e-18
8425.60923 1.94479e-18
8426.47069 1.96150e-18
8427.33215 1.97564e-18
8428.19361 1.98977e-18
8429.05508 2.00419e-18
8429.91654 2.01861e-18
8430.77800 2.03564e-18
8431.63946 2.05267e-18
8432.50092 2.07256e-18
8433.36239 2.09245e-18
8434.23386 2.11482e-18
8435.09533 2.13719e-18
8435.95679 2.15832e-18
8436.81825 2.17946e-18
8437.67971 2.19571e-18
8438.54117 2.21195e-18
8439.40264 2.22544e-18
8440.26410 2.23893e-18
8441.12556 2.25315e-18
8441.98702 2.26737e-18
8442.84848 2.28334e-18
8443.70995 2.29932e-18
8444.58143 2.31727e-18
8445.44289 2.33523e-18
8446.30435 2.35536e-18
8447.16581 2.37549e-18
8448.02727 2.39774e-18
8448.88874 2.41999e-18
8449.75020 2.44367e-18
8450.61166 2.46735e-18
8451.47312 2.49145e-18
8452.33458 2.51555e-18
8453.20606 2.53891e-18
8454.06752 2.56227e-18
8454.92899 2.58350e-18
8455.79045 2.60472e-18
8456.65191 2.62412e-18
8457.51337 2.64351e-18
8458.37483 2.66408e-18
8459.23630 2.68466e-18
8460.09776 2.70767e-18
8460.95922 2.73070e-18
8461.82068 2.75358e-18
8462.69216 2.77647e-18
8463.55362 2.79738e-18
8464.41508 2.81829e-18
8465.27655 2.83737e-18
8466.13801 2.85645e-18
8466.99947 2.87447e-18
8467.86093 2.89249e-18
8468.72240 2.91327e-18
8469.58386 2.93406e-18
8470.44532 2.96099e-18
8471.30678 2.98794e-18
8472.16824 3.01892e-18
8473.03972 3.04991e-18
8473.90118 3.08191e-18
8474.76265 3.11390e-18
8475.62411 3.14460e-18
8476.48557 3.17530e-18
8477.34703 3.20249e-18
8478.20849 3.22968e-18
8479.06996 3.25598e-18
8479.93142 3.28227e-18
8480.79288 3.31247e-18
8481.65434 3.34268e-18
8482.51580 3.37570e-18
8483.38728 3.40872e-18
8484.24875 3.44011e-18
8485.11021 3.47150e-18
8485.97167 3.49927e-18
8486.83313 3.52703e-18
8487.69459 3.55113e-18
8488.55605 3.57522e-18
8489.41752 3.59692e-18
8490.27898 3.61862e-18
8491.14044 3.64113e-18
8492.00190 3.66365e-18
8492.87338 3.68907e-18
8493.73484 3.71450e-18
8494.59631 3.74226e-18
8495.45777 3.77002e-18
8496.31923 3.80042e-18
8497.18069 3.83083e-18
8498.04215 3.86727e-18
8498.90362 3.90372e-18
8499.76508 3.94748e-18
8500.62654 3.99126e-18
8501.48800 4.03650e-18
8502.35948 4.08174e-18
8503.22094 4.12274e-18
8504.08240 4.16374e-18
8504.94387 4.19934e-18
8505.80533 4.23489e-18
8506.66679 4.26484e-18
8507.52825 4.29475e-18
8508.38972 4.32114e-18
8509.25118 4.34752e-18
8510.11264 4.37319e-18
8510.98412 4.39889e-18
8511.84558 4.42496e-18
8512.70704 4.45102e-18
8513.56850 4.47805e-18
8514.42997 4.50504e-18
8515.29143 4.53290e-18
8516.15289 4.56077e-18
8517.01435 4.58916e-18
8517.87581 4.61755e-18
8518.73728 4.64645e-18
8519.59874 4.67532e-18
8520.46020 4.70483e-18
8521.33168 4.73430e-18
8522.19314 4.76569e-18
8523.05460 4.79704e-18
8523.91607 4.83272e-18
8524.77753 4.86843e-18
8525.63899 4.90923e-18
8526.50045 4.95003e-18
8527.36191 4.99447e-18
8528.22337 5.03888e-18
8529.08484 5.08460e-18
8529.94630 5.13033e-18
8530.80776 5.17353e-18
8531.67924 5.21673e-18
8532.54070 5.25433e-18
8533.40216 5.29188e-18
8534.26363 5.32267e-18
8535.12509 5.35346e-18
8535.98655 5.37777e-18
8536.84801 5.40211e-18
8537.70947 5.42465e-18
8538.57094 5.44719e-18
8539.43240 5.47294e-18
8540.30388 5.49873e-18
8541.16534 5.53100e-18
8542.02680 5.56327e-18
8542.88826 5.60403e-18
8543.74972 5.64483e-18
8544.61119 5.69139e-18
8545.47265 5.73796e-18
8546.33411 5.78605e-18
8547.19557 5.83409e-18
8548.05703 5.87629e-18
8548.91850 5.91845e-18
8549.78998 5.94660e-18
8550.65144 5.97475e-18
8551.51290 5.98960e-18
8552.37436 6.00442e-18
8553.23582 6.01211e-18
8554.09729 6.01979e-18
8554.95875 6.02864e-18
8555.82021 6.03753e-18
8556.68167 6.05739e-18
8557.54313 6.07729e-18
8558.40460 6.11264e-18
8559.27607 6.14800e-18
8560.13754 6.19609e-18
8560.99900 6.24417e-18
8561.86046 6.29975e-18
8562.72192 6.35532e-18
8563.58338 6.40977e-18
8564.44485 6.46427e-18
8565.30631 6.50975e-18
8566.16777 6.55520e-18
8567.02923 6.58647e-18
8567.89070 6.61770e-18
8568.75216 6.63227e-18
8569.62364 6.64685e-18
8570.48510 6.64885e-18
8571.34656 6.65085e-18
8572.20802 6.64624e-18
8573.06948 6.64160e-18
8573.93095 6.63692e-18
8574.79241 6.63223e-18
8575.65387 6.63379e-18
8576.51533 6.63539e-18
8577.37679 6.64985e-18
8578.23826 6.66434e-18
8579.09972 6.69669e-18
8579.97120 6.72909e-18
8580.83266 6.77305e-18
8581.69412 6.81705e-18
8582.55558 6.86218e-18
8583.41705 6.90730e-18
8584.27851 6.94514e-18
8585.13997 6.98301e-18
8586.00143 7.00672e-18
8586.86289 7.03042e-18
8587.72436 7.03903e-18
8588.58582 7.04764e-18
8589.45730 7.04499e-18
8590.31876 7.04227e-18
8591.18022 7.03426e-18
8592.04168 7.02626e-18
8592.90314 7.02089e-18
8593.76461 7.01553e-18
8594.62607 7.01729e-18
8595.48753 7.01901e-18
8596.34899 7.02610e-18
8597.21045 7.03314e-18
8598.07192 7.04443e-18
8598.94340 7.05576e-18
8599.80486 7.07242e-18
8600.66632 7.08912e-18
8601.52778 7.11066e-18
8602.38924 7.13220e-18
8603.25071 7.15518e-18
8604.11217 7.17820e-18
8604.97363 7.19886e-18
8605.83509 7.21956e-18
8606.69655 7.23286e-18
8607.56803 7.24615e-18
8608.42949 7.24799e-18
8609.29096 7.24979e-18
8610.15242 7.24131e-18
8611.01388 7.23274e-18
8611.87534 7.21680e-18
8612.73680 7.20083e-18
8613.59827 7.18073e-18
8614.45973 7.16059e-18
8615.32119 7.13977e-18
8616.18265 7.11895e-18
8617.04411 7.10393e-18
8617.91559 7.08892e-18
8618.77706 7.08683e-18
8619.63852 7.08475e-18
8620.49998 7.09600e-18
8621.36144 7.10725e-18
8622.22290 7.12795e-18
8623.08437 7.14874e-18
8623.94583 7.17340e-18
8624.80729 7.19810e-18
8625.66875 7.21976e-18
8626.53021 7.24143e-18
8627.40169 7.25588e-18
8628.26315 7.27029e-18
8629.12462 7.27742e-18
8629.98608 7.28455e-18
8630.84754 7.28419e-18
8631.70900 7.28383e-18
8632.57046 7.27502e-18
8633.43193 7.26617e-18
8634.29339 7.25011e-18
8635.15485 7.23406e-18
8636.01631 7.21580e-18
8636.88779 7.19750e-18
8637.74925 7.18229e-18
8638.61072 7.16711e-18
8639.47218 7.16103e-18
8640.33364 7.15498e-18
8641.19510 7.16223e-18
8642.05656 7.16948e-18
8642.91803 7.18649e-18
8643.77949 7.20359e-18
8644.64095 7.22509e-18
8645.50241 7.24659e-18
8646.37389 7.26697e-18
8647.23535 7.28735e-18
8648.09681 7.30104e-18
8648.95828 7.31470e-18
8649.81974 7.31962e-18
8650.68120 7.32455e-18
8651.54266 7.32078e-18
8652.40412 7.31698e-18
8653.26559 7.30393e-18
8654.12705 7.29087e-18
8654.98851 7.26813e-18
8655.85999 7.24539e-18
8656.72145 7.21692e-18
8657.58291 7.18845e-18
8658.44438 7.16111e-18
8659.30584 7.13376e-18
8660.16730 7.11222e-18
8661.02876 7.09072e-18
8661.89022 7.07707e-18
8662.75168 7.06349e-18
8663.61315 7.05885e-18
8664.47461 7.05424e-18
8665.33607 7.05829e-18
8666.20755 7.06233e-18
8667.06901 7.07314e-18
8667.93047 7.08399e-18
8668.79194 7.09821e-18
8669.65340 7.11246e-18
8670.51486 7.12551e-18
8671.37632 7.13857e-18
8672.23778 7.14261e-18
8673.09925 7.14661e-18
8673.96071 7.13580e-18
8674.82217 7.12495e-18
8675.68363 7.10105e-18
8676.55511 7.07711e-18
8677.41657 7.04395e-18
8678.27803 7.01072e-18
8679.13950 6.97481e-18
8680.00096 6.93885e-18
8680.86242 6.90726e-18
8681.72388 6.87571e-18
8682.58535 6.85132e-18
8683.44681 6.82698e-18
8684.30827 6.81081e-18
8685.16973 6.79463e-18
8686.04121 6.78762e-18
8686.90267 6.78066e-18
8687.76413 6.78294e-18
8688.62560 6.78526e-18
8689.48706 6.79507e-18
8690.34852 6.80488e-18
8691.20998 6.81929e-18
8692.07144 6.83375e-18
8692.93291 6.84792e-18
8693.79437 6.86206e-18
8694.66585 6.86970e-18
8695.52731 6.87735e-18
8696.38877 6.87471e-18
8697.25023 6.87203e-18
8698.11170 6.85841e-18
8698.97316 6.84476e-18
8699.83462 6.82166e-18
8700.69608 6.79855e-18
8701.55754 6.77097e-18
8702.41900 6.74338e-18
8703.28047 6.71555e-18
8704.15195 6.68769e-18
8705.01341 6.65970e-18
8705.87487 6.63175e-18
8706.73633 6.60480e-18
8707.59779 6.57790e-18
8708.45926 6.55764e-18
8709.32072 6.53742e-18
8710.18218 6.52825e-18
8711.04364 6.51908e-18
8711.90510 6.52116e-18
8712.76657 6.52332e-18
8713.62803 6.53510e-18
8714.49951 6.54687e-18
8715.36097 6.55972e-18
8716.22243 6.57257e-18
8717.08389 6.57674e-18
8717.94535 6.58090e-18
8718.80682 6.57241e-18
8719.66828 6.56384e-18
8720.52974 6.54122e-18
8721.39120 6.51856e-18
8722.25267 6.48733e-18
8723.11413 6.45610e-18
8723.98561 6.42599e-18
8724.84707 6.39584e-18
8725.70853 6.37042e-18
8726.56999 6.34495e-18
8727.43145 6.32317e-18
8728.29292 6.30143e-18
8729.15438 6.28341e-18
8730.01584 6.26539e-18
8730.87730 6.25162e-18
8731.73876 6.23781e-18
8732.61024 6.22956e-18
8733.47170 6.22127e-18
8734.33317 6.22235e-18
8735.19463 6.22347e-18
8736.05609 6.23276e-18
8736.91755 6.24205e-18
8737.77902 6.24858e-18
8738.64048 6.25510e-18
8739.50194 6.24958e-18
8740.36340 6.24405e-18
8741.22486 6.22139e-18
8742.08633 6.19869e-18
8742.95780 6.15757e-18
8743.81927 6.11641e-18
8744.68073 6.06868e-18
8745.54219 6.02091e-18
8746.40365 5.97947e-18
8747.26511 5.93803e-18
8748.12658 5.90889e-18
8748.98804 5.87982e-18
8749.84950 5.86660e-18
8750.71096 5.85343e-18
8751.57242 5.85243e-18
8752.44390 5.85147e-18
8753.30537 5.85555e-18
8754.16683 5.85968e-18
8755.02829 5.86496e-18
8755.88975 5.87025e-18
8756.75121 5.87417e-18
8757.61268 5.87810e-18
8758.47414 5.87493e-18
8759.33560 5.87173e-18
8760.19706 5.85451e-18
8761.05852 5.83726e-18
8761.91999 5.80486e-18
8762.79146 5.77243e-18
8763.65293 5.72859e-18
8764.51439 5.68471e-18
8765.37585 5.63550e-18
8766.23731 5.58633e-18
8767.09877 5.54053e-18
8767.96024 5.49480e-18
8768.82170 5.45805e-18
8769.68316 5.42137e-18
8770.54462 5.39298e-18
8771.40608 5.36463e-18
8772.26755 5.34337e-18
8773.13903 5.32215e-18
8774.00049 5.30706e-18
8774.86195 5.29192e-18
8775.72341 5.28095e-18
8776.58487 5.26994e-18
8777.44633 5.26129e-18
8778.30780 5.25269e-18
8779.16926 5.24388e-18
8780.03072 5.23507e-18
8780.89218 5.21845e-18
8781.76366 5.20180e-18
8782.62512 5.17048e-18
8783.48659 5.13909e-18
8784.34805 5.09637e-18
8785.20951 5.05365e-18
8786.07097 5.00564e-18
8786.93243 4.95764e-18
8787.79390 4.90895e-18
8788.65536 4.86026e-18
8789.51682 4.81538e-18
8790.37828 4.77049e-18
8791.24976 4.72929e-18
8792.11122 4.68809e-18
8792.97268 4.64737e-18
8793.83415 4.60661e-18
8794.69561 4.56842e-18
8795.55707 4.53026e-18
8796.41853 4.50047e-18
8797.28000 4.47076e-18
8798.14146 4.44822e-18
8799.00292 4.42572e-18
8799.86438 4.40258e-18
8800.72584 4.37943e-18
8801.59732 4.34928e-18
8802.45878 4.31913e-18
8803.32025 4.27765e-18
8804.18171 4.23617e-18
8805.04317 4.18280e-18
8805.90463 4.12943e-18
8806.76609 4.07185e-18
8807.62756 4.01424e-18
8808.48902 3.95945e-18
8809.35048 3.90469e-18
8810.21194 3.85610e-18
8811.08342 3.80752e-18
8811.94488 3.76737e-18
8812.80635 3.72724e-18
8813.66781 3.69465e-18
8814.52927 3.66208e-18
8815.39073 3.63491e-18
8816.25219 3.60776e-18
8817.11365 3.58336e-18
8817.97512 3.55896e-18
8818.83658 3.53434e-18
8819.70806 3.50972e-18
8820.56952 3.48129e-18
8821.43098 3.45284e-18
8822.29244 3.41745e-18
8823.15391 3.38204e-18
8824.01537 3.33931e-18
8824.87683 3.29656e-18
8825.73829 3.24761e-18
8826.59975 3.19865e-18
8827.46122 3.14800e-18
8828.32268 3.09734e-18
8829.19416 3.05147e-18
8830.05562 3.00562e-18
8830.91708 2.96786e-18
8831.77854 2.93012e-18
8832.64000 2.90069e-18
8833.50147 2.87129e-18
8834.36293 2.84914e-18
8835.22439 2.82701e-18
8836.08585 2.80956e-18
8836.94732 2.79212e-18
8837.80878 2.77632e-18
8838.67024 2.76053e-18
8839.54172 2.74326e-18
8840.40318 2.72600e-18
8841.26464 2.70499e-18
8842.12610 2.68396e-18
8842.98757 2.65889e-18
8843.84903 2.63380e-18
8844.71049 2.60514e-18
8845.57195 2.57648e-18
8846.43341 2.54592e-18
8847.29488 2.51536e-18
8848.15634 2.48505e-18
8849.02782 2.45474e-18
8849.88928 2.42583e-18
8850.75074 2.39692e-18
8851.61220 2.37050e-18
8852.47367 2.34409e-18
8853.33513 2.32578e-18
8854.19659 2.30748e-18
8855.05805 2.30285e-18
8855.91951 2.29827e-18
8856.78097 2.30290e-18
8857.64244 2.30756e-18
8858.50390 2.31362e-18
8859.36536 2.31968e-18
8860.23684 2.32071e-18
8861.09830 2.32173e-18
8861.95976 2.31190e-18
8862.82123 2.30204e-18
8863.68269 2.28354e-18
8864.54415 2.26502e-18
8865.40561 2.24636e-18
8866.26707 2.22770e-18
8867.12854 2.21284e-18
8867.99000 2.19799e-18
8868.86148 2.18592e-18
8869.72294 2.17387e-18
8870.58440 2.16416e-18
8871.44586 2.15447e-18
8872.30732 2.14675e-18
8873.16879 2.13904e-18
8874.03025 2.13374e-18
8874.89171 2.12844e-18
8875.75317 2.12881e-18
8876.61463 2.12921e-18
8877.47610 2.13658e-18
8878.34758 2.14398e-18
8879.20904 2.15429e-18
8880.07050 2.16460e-18
8880.93196 2.17354e-18
8881.79342 2.18248e-18
8882.65489 2.18609e-18
8883.51635 2.18968e-18
8884.37781 2.18505e-18
8885.23927 2.18040e-18
8886.10073 2.17021e-18
8886.96220 2.16001e-18
8887.83367 2.14846e-18
8888.69514 2.13690e-18
8889.55660 2.12785e-18
8890.41806 2.11880e-18
8891.27952 2.11577e-18
8892.14099 2.11276e-18
8893.00245 2.11773e-18
8893.86391 2.12273e-18
8894.72537 2.13650e-18
8895.58683 2.15028e-18
8896.44830 2.16960e-18
8897.30976 2.18893e-18
8898.18124 2.20827e-18
8899.04270 2.22760e-18
8899.90416 2.24224e-18
8900.76562 2.25685e-18
8901.62708 2.26284e-18
8902.48855 2.26881e-18
8903.35001 2.26676e-18
8904.21147 2.26470e-18
8905.07293 2.26116e-18
8905.93439 2.25762e-18
8906.80587 2.25690e-18
8907.66734 2.25618e-18
8908.52880 2.25783e-18
8909.39026 2.25949e-18
8910.25172 2.26354e-18
8911.11318 2.26758e-18
8911.97465 2.27482e-18
8912.83611 2.28206e-18
8913.69757 2.29281e-18
8914.55903 2.30357e-18
8915.42049 2.31861e-18
8916.29197 2.33365e-18
8917.15343 2.35278e-18
8918.01490 2.37193e-18
8918.87636 2.39024e-18
8919.73782 2.40855e-18
8920.59928 2.42111e-18
8921.46074 2.43366e-18
8922.32221 2.43908e-18
8923.18367 2.44448e-18
8924.04513 2.44261e-18
8924.90659 2.44071e-18
8925.76805 2.43735e-18
8926.63953 2.43398e-18
8927.50100 2.43705e-18
8928.36246 2.44013e-18
8929.22392 2.44993e-18
8930.08538 2.45975e-18
8930.94684 2.47270e-18
8931.80831 2.48567e-18
8932.66977 2.49918e-18
8933.53123 2.51269e-18
8934.39269 2.52425e-18
8935.25415 2.53580e-18
8936.12563 2.54659e-18
8936.98709 2.55738e-18
8937.84856 2.57305e-18
8938.71002 2.58875e-18
8939.57148 2.60958e-18
8940.43294 2.63042e-18
8941.29440 2.64872e-18
8942.15587 2.66701e-18
8943.01733 2.67714e-18
8943.87879 2.68725e-18
8944.74025 2.68670e-18
8945.61173 2.68611e-18
8946.47319 2.67577e-18
8947.33466 2.66540e-18
8948.19612 2.65714e-18
8949.05758 2.64887e-18
8949.91904 2.65229e-18
8950.78050 2.65574e-18
8951.64197 2.66786e-18
8952.50343 2.68000e-18
8953.36489 2.69598e-18
8954.22635 2.71197e-18
8955.08781 2.71921e-18
8955.95929 2.72643e-18
8956.82075 2.71253e-18
8957.68222 2.69859e-18
8958.54368 2.67898e-18
8959.40514 2.65935e-18
8960.26660 2.65674e-18
8961.12806 2.65417e-18
8961.98953 2.67180e-18
8962.85099 2.68948e-18
8963.71245 2.72304e-18
8964.57391 2.75665e-18
8965.44539 2.79528e-18
8966.30685 2.83392e-18
8967.16832 2.86114e-18
8968.02978 2.88834e-18
8968.89124 2.90596e-18
8969.75270 2.92357e-18
8970.61416 2.94959e-18
8971.47563 2.97564e-18
8972.33709 3.01630e-18
8973.19855 3.05700e-18
8974.06001 3.10459e-18
8974.93149 3.15219e-18
8975.79295 3.19554e-18
8976.65441 3.23887e-18
8977.51588 3.26091e-18
8978.37734 3.28290e-18
8979.23880 3.27034e-18
8980.10026 3.25769e-18
8980.96172 3.20198e-18
8981.82319 3.14615e-18
8982.68465 3.05277e-18
8983.54611 2.95930e-18
8984.41759 2.87848e-18
8985.27905 2.79771e-18
8986.14051 2.77578e-18
8987.00198 2.75402e-18
8987.86344 2.80688e-18
8988.72490 2.85994e-18
8989.58636 2.98997e-18
8990.44782 3.12020e-18
8991.30928 3.26535e-18
8992.17075 3.41053e-18
8993.03221 3.49608e-18
8993.89367 3.58147e-18
8994.76515 3.59622e-18
8995.62661 3.61079e-18
8996.48807 3.56841e-18
8997.34954 3.52587e-18
8998.21100 3.45976e-18
8999.07246 3.39359e-18
8999.93392 3.34936e-18
9000.79538 3.30518e-18
9001.65685 3.30269e-18
9002.51831 3.30032e-18
9003.38979 3.33836e-18
9004.25125 3.37650e-18
9005.11271 3.44180e-18
9005.97417 3.50717e-18
9006.83563 3.57373e-18
9007.69710 3.64029e-18
9008.55856 3.68784e-18
9009.42002 3.73534e-18
9010.28148 3.75449e-18
9011.14295 3.77356e-18
9012.00441 3.76472e-18
9012.87589 3.75580e-18
9013.73735 3.74131e-18
9014.59881 3.72681e-18
9015.46027 3.72324e-18
9016.32173 3.71971e-18
9017.18320 3.71694e-18
9018.04466 3.71418e-18
9018.90612 3.70467e-18
9019.76758 3.69516e-18
9020.62904 3.68763e-18
9021.49051 3.68011e-18
9022.35197 3.68361e-18
9023.22345 3.68713e-18
9024.08491 3.71302e-18
9024.94637 3.73898e-18
9025.80783 3.79636e-18
9026.66930 3.85382e-18
9027.53076 3.92890e-18
9028.39222 4.00403e-18
9029.25368 4.07594e-18
9030.11514 4.14781e-18
9030.97660 4.20206e-18
9031.83807 4.25623e-18
9032.70955 4.28206e-18
9033.57101 4.30780e-18
9034.43247 4.30424e-18
9035.29393 4.30060e-18
9036.15539 4.27313e-18
9037.01686 4.24558e-18
9037.87832 4.20831e-18
9038.73978 4.17099e-18
9039.60124 4.14556e-18
9040.46270 4.12022e-18
9041.32417 4.11245e-18
9042.18563 4.10473e-18
9043.05711 4.09876e-18
9043.91857 4.09275e-18
9044.78003 4.08022e-18
9045.64149 4.06765e-18
9046.50295 4.05356e-18
9047.36442 4.03946e-18
9048.22588 4.02817e-18
9049.08734 4.01688e-18
9049.94880 4.01536e-18
9050.81027 4.01380e-18
9051.67173 4.02389e-18
9052.54321 4.03402e-18
9053.40467 4.03510e-18
9054.26613 4.03610e-18
9055.12759 4.01007e-18
9055.98905 3.98399e-18
9056.85052 3.94051e-18
9057.71198 3.89698e-18
9058.57344 3.84915e-18
9059.43490 3.80131e-18
9060.29636 3.75074e-18
9061.16784 3.70017e-18
9062.02931 3.64752e-18
9062.89077 3.59486e-18
9063.75223 3.53822e-18
9064.61369 3.48156e-18
9065.47515 3.41669e-18
9066.33662 3.35180e-18
9067.19808 3.29523e-18
9068.05954 3.23869e-18
9068.92100 3.21785e-18
9069.78246 3.19710e-18
9070.64393 3.20592e-18
9071.51540 3.21483e-18
9072.37687 3.22260e-18
9073.23833 3.23038e-18
9074.09979 3.22578e-18
9074.96125 3.22115e-18
9075.82271 3.21275e-18
9076.68418 3.20434e-18
9077.54564 3.19751e-18
9078.40710 3.19068e-18
9079.26856 3.18850e-18
9080.13002 3.18634e-18
9080.99149 3.18871e-18
9081.86297 3.19108e-18
9082.72443 3.18734e-18
9083.58589 3.18358e-18
9084.44735 3.16779e-18
9085.30881 3.15196e-18
9086.17028 3.13585e-18
9087.03174 3.11973e-18
9087.89320 3.11232e-18
9088.75466 3.10493e-18
9089.61612 3.09471e-18
9090.48760 3.08447e-18
9091.34906 3.06037e-18
9092.21053 3.03637e-18
9093.07199 3.00980e-18
9093.93345 2.98323e-18
9094.79491 2.96815e-18
9095.65637 2.95311e-18
9096.51784 2.94555e-18
9097.37930 2.93803e-18
9098.24076 2.92969e-18
9099.10222 2.92134e-18
9099.97370 2.91436e-18
9100.83516 2.90738e-18
9101.69663 2.90622e-18
9102.55809 2.90508e-18
9103.41955 2.91827e-18
9104.28101 2.93150e-18
9105.14247 2.97125e-18
9106.00393 3.01108e-18
9106.86540 3.06292e-18
9107.72686 3.11478e-18
9108.58832 3.14154e-18
9109.45980 3.16823e-18
9110.32126 3.15407e-18
9111.18272 3.13980e-18
9112.04419 3.09395e-18
9112.90565 3.04801e-18
9113.76711 2.98940e-18
9114.62857 2.93077e-18
9115.49003 2.89830e-18
9116.35150 2.86591e-18
9117.21296 2.87985e-18
9118.07442 2.89392e-18
9118.93588 2.92425e-18
9119.80736 2.95464e-18
9120.66882 2.97208e-18
9121.53028 2.98949e-18
9122.39175 2.97528e-18
9123.25321 2.96099e-18
9124.11467 2.90385e-18
9124.97613 2.84661e-18
9125.83760 2.77297e-18
9126.69906 2.69930e-18
9127.56052 2.64134e-18
9128.43200 2.58342e-18
9129.29346 2.55773e-18
9130.15492 2.53214e-18
9131.01638 2.54944e-18
9131.87785 2.56686e-18
9132.73931 2.61993e-18
9133.60077 2.67310e-18
9134.46223 2.74563e-18
9135.32369 2.81821e-18
9136.18516 2.89320e-18
9137.04662 2.96820e-18
9137.90808 3.02813e-18
9138.76954 3.08803e-18
9139.64102 3.12162e-18
9140.50248 3.15514e-18
9141.36395 3.15859e-18
9142.22541 3.16196e-18
9143.08687 3.12955e-18
9143.94833 3.09704e-18
9144.80979 3.02055e-18
9145.67125 2.94395e-18
9146.53272 2.83330e-18
9147.39418 2.72256e-18
9148.26566 2.61117e-18
9149.12712 2.49978e-18
9149.98858 2.41798e-18
9150.85004 2.33626e-18
9151.71151 2.30857e-18
9152.57297 2.28103e-18
9153.43443 2.31704e-18
9154.29589 2.35321e-18
9155.15735 2.42144e-18
9156.01882 2.48975e-18
9156.88028 2.55695e-18
9157.75176 2.62415e-18
9158.61322 2.67478e-18
9159.47468 2.72537e-18
9160.33614 2.74742e-18
9161.19760 2.76940e-18
9162.05907 2.76368e-18
9162.92053 2.75787e-18
9163.78199 2.73090e-18
9164.64345 2.70387e-18
9165.50492 2.65474e-18
9166.36638 2.60555e-18
9167.22784 2.53310e-18
9168.09932 2.46060e-18
9168.96078 2.38281e-18
9169.82224 2.30501e-18
9170.68370 2.24621e-18
9171.54517 2.18747e-18
9172.40663 2.15982e-18
9173.26809 2.13226e-18
9174.12955 2.14106e-18
9174.99101 2.14995e-18
9175.85248 2.18024e-18
9176.71394 2.21058e-18
9177.58542 2.22837e-18
9178.44688 2.24612e-18
9179.30834 2.24151e-18
9180.16980 2.23685e-18
9181.03127 2.23216e-18
9181.89273 2.22747e-18
9182.75419 2.23498e-18
9183.61565 2.24252e-18
9184.47711 2.25784e-18
9185.33857 2.27317e-18
9186.20004 2.29102e-18
9187.07152 2.30888e-18
9187.93298 2.31646e-18
9188.79444 2.32401e-18
9189.65590 2.31421e-18
9190.51736 2.30436e-18
9191.37883 2.29697e-18
9192.24029 2.28959e-18
9193.10175 2.30223e-18
9193.96321 2.31491e-18
9194.82467 2.33974e-18
9195.68614 2.36460e-18
9196.55762 2.39044e-18
9197.41908 2.41629e-18
9198.28054 2.43305e-18
9199.14200 2.44979e-18
9200.00346 2.44776e-18
9200.86492 2.44568e-18
9201.72639 2.43201e-18
9202.58785 2.41831e-18
9203.44931 2.40708e-18
9204.31077 2.39585e-18
9205.17224 2.38745e-18
9206.04371 2.37906e-18
9206.90518 2.36733e-18
9207.76664 2.35558e-18
9208.62810 2.34247e-18
9209.48956 2.32935e-18
9210.35102 2.32147e-18
9211.21249 2.31360e-18
9212.07395 2.31759e-18
9212.93541 2.32161e-18
9213.79687 2.34508e-18
9214.65833 2.36859e-18
9215.52981 2.41001e-18
9216.39127 2.45148e-18
9217.25274 2.49511e-18
9218.11420 2.53875e-18
9218.97566 2.57438e-18
9219.83712 2.60999e-18
9220.69859 2.64088e-18
9221.56005 2.67176e-18
9222.42151 2.69974e-18
9223.28297 2.72772e-18
9224.14443 2.74968e-18
9225.00590 2.77162e-18
9225.87737 2.78538e-18
9226.73884 2.79912e-18
9227.60030 2.80239e-18
9228.46176 2.80563e-18
9229.32322 2.79754e-18
9230.18468 2.78942e-18
9231.04615 2.77918e-18
9231.90761 2.76895e-18
9232.76907 2.76723e-18
9233.63053 2.76554e-18
9234.49199 2.77000e-18
9235.35346 2.77448e-18
9236.22494 2.77912e-18
9237.08640 2.78376e-18
9237.94786 2.79131e-18
9238.80932 2.79887e-18
9239.67078 2.81497e-18
9240.53225 2.83109e-18
9241.39371 2.85844e-18
9242.25517 2.88582e-18
9243.11663 2.92551e-18
9243.97809 2.96524e-18
9244.84957 3.01383e-18
9245.71103 3.06244e-18
9246.57250 3.11203e-18
9247.43396 3.16162e-18
9248.29542 3.20771e-18
9249.15688 3.25379e-18
9250.01834 3.29730e-18
9250.87981 3.34081e-18
9251.74127 3.37956e-18
9252.60273 3.41829e-18
9253.46419 3.44298e-18
9254.32565 3.46762e-18
9255.19713 3.47674e-18
9256.05860 3.48580e-18
9256.92006 3.49739e-18
9257.78152 3.50898e-18
9258.64298 3.53663e-18
9259.50444 3.56432e-18
9260.36591 3.60392e-18
9261.22737 3.64355e-18
9262.08883 3.68780e-18
9262.95029 3.73206e-18
9263.81175 3.76499e-18
9264.68323 3.79788e-18
9265.54469 3.80419e-18
9266.40616 3.81043e-18
9267.26762 3.79057e-18
9268.12908 3.77063e-18
9268.99054 3.73087e-18
9269.85200 3.69107e-18
9270.71347 3.64623e-18
9271.57493 3.60137e-18
9272.43639 3.56909e-18
9273.29785 3.53684e-18
9274.16933 3.53104e-18
9275.03079 3.52531e-18
9275.89226 3.55618e-18
9276.75372 3.58716e-18
9277.61518 3.64950e-18
9278.47664 3.71194e-18
9279.33810 3.78860e-18
9280.19957 3.86530e-18
9281.06103 3.93773e-18
9281.92249 4.01015e-18
9282.79397 4.06048e-18
9283.65543 4.11077e-18
9284.51689 4.12478e-18
9285.37835 4.13868e-18
9286.23982 4.10793e-18
9287.10128 4.07706e-18
9287.96274 4.00527e-18
9288.82420 3.93332e-18
9289.68566 3.84324e-18
9290.54713 3.75311e-18
9291.40859 3.67121e-18
9292.27005 3.58933e-18
9293.14153 3.55046e-18
9294.00299 3.51171e-18
9294.86445 3.53863e-18
9295.72592 3.56574e-18
9296.58738 3.63500e-18
9297.44884 3.70438e-18
9298.31030 3.78488e-18
9299.17176 3.86541e-18
9300.03323 3.91475e-18
9300.89469 3.96399e-18
9301.75615 3.94149e-18
9302.62763 3.91879e-18
9303.48909 3.86351e-18
9304.35055 3.80814e-18
9305.21201 3.78397e-18
9306.07348 3.75988e-18
9306.93494 3.75192e-18
9307.79640 3.74400e-18
9308.65786 3.70591e-18
9309.51932 3.66773e-18
9310.38079 3.60166e-18
9311.24225 3.53552e-18
9312.11373 3.46881e-18
9312.97519 3.40211e-18
9313.83665 3.36159e-18
9314.69811 3.32114e-18
9315.55958 3.33729e-18
9316.42104 3.35360e-18
9317.28250 3.42049e-18
9318.14396 3.48752e-18
9319.00542 3.54651e-18
9319.86688 3.60548e-18
9320.72835 3.63357e-18
9321.58981 3.66157e-18
9322.46129 3.71278e-18
9323.32275 3.76406e-18
9324.18421 3.85023e-18
9325.04567 3.93649e-18
9325.90714 3.94712e-18
9326.76860 3.95753e-18
9327.63006 3.82450e-18
9328.49152 3.69106e-18
9329.35298 3.52132e-18
9330.21445 3.35147e-18
9331.07591 3.24856e-18
9331.94739 3.14584e-18
9332.80885 3.08979e-18
9333.67031 3.03388e-18
9334.53177 2.99479e-18
9335.39323 2.95574e-18
9336.25470 2.93428e-18
9337.11616 2.91286e-18
9337.97762 2.90390e-18
9338.83908 2.89497e-18
9339.70055 2.98969e-18
9340.56201 3.08469e-18
9341.43349 3.40656e-18
9342.29495 3.72908e-18
9343.15641 4.11994e-18
9344.01787 4.51096e-18
9344.87933 4.67981e-18
9345.74080 4.84797e-18
9346.60226 4.70799e-18
9347.46372 4.56710e-18
9348.32518 4.16783e-18
9349.18664 3.76784e-18
9350.04811 3.29290e-18
9350.90957 2.81777e-18
9351.78105 2.60579e-18
9352.64251 2.39457e-18
9353.50397 2.55665e-18
9354.36543 2.71979e-18
9355.22689 3.01097e-18
9356.08836 3.30250e-18
9356.94982 3.51681e-18
9357.81128 3.73088e-18
9358.67274 3.74546e-18
9359.53420 3.75947e-18
9360.39567 3.52121e-18
9361.26715 3.28223e-18
9362.12861 2.98410e-18
9362.99007 2.68582e-18
9363.85153 2.50999e-18
9364.71299 2.33451e-18
9365.57446 2.29145e-18
9366.43592 2.24877e-18
9367.29738 2.32094e-18
9368.15884 2.39344e-18
9369.02030 2.49035e-18
9369.89178 2.58732e-18
9370.75324 2.60534e-18
9371.61471 2.62312e-18
9372.47617 2.56859e-18
9373.33763 2.51386e-18
9374.19909 2.42551e-18
9375.06056 2.33707e-18
9375.92202 2.27412e-18
9376.78348 2.21124e-18
9377.64494 2.24601e-18
9378.50640 2.28105e-18
9379.37788 2.38612e-18
9380.23934 2.49138e-18
9381.10081 2.57361e-18
9381.96227 2.65576e-18
9382.82373 2.68548e-18
9383.68519 2.71505e-18
9384.54665 2.71905e-18
9385.40812 2.72296e-18
9386.26958 2.70863e-18
9387.13104 2.69425e-18
9387.99250 2.64906e-18
9388.85396 2.60378e-18
9389.72544 2.52703e-18
9390.58691 2.45017e-18
9391.44837 2.35343e-18
9392.30983 2.25663e-18
9393.17129 2.15576e-18
9394.03275 2.05488e-18
9394.89422 1.97807e-18
9395.75568 1.90133e-18
9396.61714 1.86763e-18
9397.47860 1.83406e-18
9398.34006 1.82934e-18
9399.21154 1.82472e-18
9400.07300 1.83123e-18
9400.93447 1.83777e-18
9401.79593 1.83843e-18
9402.65739 1.83907e-18
9403.51885 1.81894e-18
9404.38031 1.79875e-18
9405.24178 1.77461e-18
9406.10324 1.75047e-18
9406.96470 1.74591e-18
9407.82616 1.74141e-18
9408.69764 1.75668e-18
9409.55910 1.77202e-18
9410.42057 1.79893e-18
9411.28203 1.82587e-18
9412.14349 1.85168e-18
9413.00495 1.87749e-18
9413.86641 1.88711e-18
9414.72788 1.89667e-18
9415.58934 1.88001e-18
9416.45080 1.86328e-18
9417.31226 1.81725e-18
9418.17372 1.77114e-18
9419.04520 1.69895e-18
9419.90666 1.62669e-18
9420.76813 1.53316e-18
9421.62959 1.43958e-18
9422.49105 1.35819e-18
9423.35251 1.27684e-18
9424.21397 1.28747e-18
9425.07544 1.29837e-18
9425.93690 1.42667e-18
9426.79836 1.55530e-18
9427.65982 1.71752e-18
9428.53130 1.87982e-18
9429.39276 1.99520e-18
9430.25423 2.11045e-18
9431.11569 2.10425e-18
9431.97715 2.09771e-18
9432.83861 1.93208e-18
9433.70007 1.76599e-18
9434.56153 1.57225e-18
9435.42300 1.37843e-18
9436.28446 1.29396e-18
9437.14592 1.20982e-18
9438.01740 1.25626e-18
9438.87886 1.30309e-18
9439.74032 1.47155e-18
9440.60179 1.64036e-18
9441.46325 1.84529e-18
9442.32471 2.05031e-18
9443.18617 2.18157e-18
9444.04763 2.31262e-18
9444.90910 2.33871e-18
9445.77056 2.36450e-18
9446.63202 2.29231e-18
9447.49348 2.21984e-18
9448.36496 2.08833e-18
9449.22642 1.95666e-18
9450.08788 1.82853e-18
9450.94935 1.70042e-18
9451.81081 1.61653e-18
9452.67227 1.53277e-18
9453.53373 1.50904e-18
9454.39520 1.48549e-18
9455.25666 1.52589e-18
9456.11812 1.56648e-18
9456.98960 1.66122e-18
9457.85106 1.75611e-18
9458.71252 1.87681e-18
9459.57398 1.99759e-18
9460.43545 2.08702e-18
9461.29691 2.17636e-18
9462.15837 2.20003e-18
9463.01983 2.22352e-18
9463.88129 2.20838e-18
9464.74276 2.19314e-18
9465.60422 2.16735e-18
9466.47570 2.14155e-18
9467.33716 2.12243e-18
9468.19862 2.10333e-18
9469.06008 2.10477e-18
9469.92155 2.10628e-18
9470.78301 2.10697e-18
9471.64447 2.10766e-18
9472.50593 2.08489e-18
9473.36739 2.06206e-18
9474.22885 2.03004e-18
9475.09032 1.99800e-18
9475.96180 1.97608e-18
9476.82326 1.95419e-18
9477.68472 1.98245e-18
9478.54618 2.01086e-18
9479.40764 2.13451e-18
9480.26911 2.25843e-18
9481.13057 2.42837e-18
9481.99203 2.59845e-18
9482.85349 2.71974e-18
9483.71495 2.84088e-18
9484.57642 2.86345e-18
9485.43788 2.88574e-18
9486.30936 2.79208e-18
9487.17082 2.69809e-18
9488.03228 2.52633e-18
9488.89374 2.35436e-18
9489.75520 2.20495e-18
9490.61667 2.05561e-18
9491.47813 1.99276e-18
9492.33959 1.93018e-18
9493.20105 1.95273e-18
9494.06252 1.97553e-18
9494.92398 2.08316e-18
9495.79546 2.19103e-18
9496.65692 2.39743e-18
9497.51838 2.60412e-18
9498.37984 2.88755e-18
9499.24130 3.17120e-18
9500.10277 3.42074e-18
9500.96423 3.67018e-18
9501.82569 3.78991e-18
9502.68715 3.90926e-18
9503.54861 3.88401e-18
9504.41008 3.85833e-18
9505.28155 3.69789e-18
9506.14302 3.53706e-18
9507.00448 3.32476e-18
9507.86594 3.11233e-18
9508.72740 2.94731e-18
9509.58887 2.78244e-18
9510.45033 2.67441e-18
9511.31179 2.56656e-18
9512.17325 2.49593e-18
9513.03471 2.42541e-18
9513.89617 2.41148e-18
9514.75764 2.39770e-18
9515.62912 2.46806e-18
9516.49058 2.53865e-18
9517.35204 2.68524e-18
9518.21350 2.83206e-18
9519.07496 3.02782e-18
9519.93643 3.22373e-18
9520.79789 3.42101e-18
9521.65935 3.61829e-18
9522.52081 3.75145e-18
9523.38227 3.88443e-18
9524.24374 3.93136e-18
9525.11522 3.97804e-18
9525.97668 3.97324e-18
9526.83814 3.96828e-18
9527.69960 3.94354e-18
9528.56106 3.91875e-18
9529.42252 3.89920e-18
9530.28399 3.87967e-18
9531.14545 3.87939e-18
9532.00691 3.87918e-18
9532.86837 3.87587e-18
9533.72984 3.87256e-18
9534.60131 3.84737e-18
9535.46278 3.82212e-18
9536.32424 3.76935e-18
9537.18570 3.71650e-18
9538.04716 3.63917e-18
9538.90862 3.56177e-18
9539.77009 3.53046e-18
9540.63155 3.49928e-18
9541.49301 3.58059e-18
9542.35447 3.66222e-18
9543.21593 3.80843e-18
9544.08741 3.95483e-18
9544.94888 4.09492e-18
9545.81034 4.23497e-18
9546.67180 4.29964e-18
9547.53326 4.36406e-18
9548.39472 4.28222e-18
9549.25619 4.19998e-18
9550.11765 4.05408e-18
9550.97911 3.90799e-18
9551.84057 3.86398e-18
9552.70203 3.82026e-18
9553.57351 3.88941e-18
9554.43497 3.95889e-18
9555.29644 4.04310e-18
9556.15790 4.12735e-18
9557.01936 4.16054e-18
9557.88082 4.19357e-18
9558.74228 4.13171e-18
9559.60375 4.06961e-18
9560.46521 3.94001e-18
9561.32667 3.81023e-18
9562.18813 3.76272e-18
9563.05961 3.71545e-18
9563.92107 3.82731e-18
9564.78254 3.93964e-18
9565.64400 4.13131e-18
9566.50546 4.32322e-18
9567.36692 4.50908e-18
9568.22838 4.69490e-18
9569.08985 4.77278e-18
9569.95131 4.85037e-18
9570.81277 4.74995e-18
9571.67423 4.64902e-18
9572.53569 4.45879e-18
9573.40717 4.26832e-18
9574.26863 4.09343e-18
9575.13010 3.91862e-18
9575.99156 3.82937e-18
9576.85302 3.74037e-18
9577.71448 3.79226e-18
9578.57594 3.84457e-18
9579.43741 3.95036e-18
9580.29887 4.05628e-18
9581.16033 4.08851e-18
9582.02179 4.12054e-18
9582.89327 4.06236e-18
9583.75473 4.00395e-18
9584.61620 3.88037e-18
9585.47766 3.75659e-18
9586.33912 3.65672e-18
9587.20058 3.55692e-18
9588.06204 3.61646e-18
9588.92351 3.67647e-18
9589.78497 3.87843e-18
9590.64643 4.08082e-18
9591.51791 4.26953e-18
9592.37937 4.45823e-18
9593.24083 4.54976e-18
9594.10229 4.64105e-18
9594.96376 4.64345e-18
9595.82522 4.64561e-18
9596.68668 4.57578e-18
9597.54814 4.50576e-18
9598.40960 4.40306e-18
9599.27107 4.30032e-18
9600.13253 4.20823e-18
9600.99399 4.11614e-18
9601.86547 4.06901e-18
9602.72693 4.02200e-18
9603.58839 4.04226e-18
9604.44986 4.06276e-18
9605.31132 4.14669e-18
9606.17278 4.23081e-18
9607.03424 4.35949e-18
9607.89570 4.48826e-18
9608.75717 4.57987e-18
9609.61863 4.67136e-18
9610.48009 4.64701e-18
9611.35157 4.62231e-18
9612.21303 4.51545e-18
9613.07449 4.40838e-18
9613.93595 4.28210e-18
9614.79742 4.15573e-18
9615.65888 4.05388e-18
9616.52034 3.95207e-18
9617.38180 3.91119e-18
9618.24326 3.87050e-18
9619.10473 3.90000e-18
9619.96619 3.92971e-18
9620.82765 4.01944e-18
9621.69913 4.10937e-18
9622.56059 4.22696e-18
9623.42205 4.34464e-18
9624.28352 4.44506e-18
9625.14498 4.54544e-18
9626.00644 4.58575e-18
9626.86790 4.62587e-18
9627.72936 4.56586e-18
9628.59083 4.50556e-18
9629.45229 4.35701e-18
9630.31375 4.20823e-18
9631.17521 4.05908e-18
9632.04669 3.90991e-18
9632.90815 3.82838e-18
9633.76961 3.74706e-18
9634.63108 3.75971e-18
9635.49254 3.77265e-18
9636.35400 3.87667e-18
9637.21546 3.98097e-18
9638.07692 4.07770e-18
9638.93839 4.17439e-18
9639.79985 4.18224e-18
9640.67133 4.18981e-18
9641.53279 4.15970e-18
9642.39425 4.12947e-18
9643.25571 4.12090e-18
9644.11718 4.11241e-18
9644.97864 4.13976e-18
9645.84010 4.16727e-18
9646.70156 4.23637e-18
9647.56302 4.30560e-18
9648.42448 4.37030e-18
9649.28595 4.43497e-18
9650.15743 4.43513e-18
9651.01889 4.43505e-18
9651.88035 4.37042e-18
9652.74181 4.30560e-18
9653.60327 4.20318e-18
9654.46474 4.10060e-18
9655.32620 3.99740e-18
9656.18766 3.89419e-18
9657.04912 3.83298e-18
9657.91058 3.77189e-18
9658.77205 3.77654e-18
9659.64352 3.78139e-18
9660.50499 3.85776e-18
9661.36645 3.93434e-18
9662.22791 4.05824e-18
9663.08937 4.18228e-18
9663.95083 4.29059e-18
9664.81230 4.39885e-18
9665.67376 4.45503e-18
9666.53522 4.51108e-18
9667.39668 4.53446e-18
9668.25815 4.55777e-18
9669.11961 4.55945e-18
9669.99109 4.56105e-18
9670.85255 4.52233e-18
9671.71401 4.48345e-18
9672.57547 4.39921e-18
9673.43693 4.31481e-18
9674.29840 4.21948e-18
9675.15986 4.12406e-18
9676.02132 4.05199e-18
9676.88278 3.98001e-18
9677.74424 3.95520e-18
9678.61572 3.93053e-18
9679.47718 3.96887e-18
9680.33865 4.00739e-18
9681.20011 4.07730e-18
9682.06157 4.14725e-18
9682.92303 4.20470e-18
9683.78449 4.26212e-18
9684.64596 4.29411e-18
9685.50742 4.32598e-18
9686.36888 4.33071e-18
9687.23034 4.33535e-18
9688.10182 4.31737e-18
9688.96328 4.29935e-18
9689.82475 4.26981e-18
9690.68621 4.24022e-18
9691.54767 4.20110e-18
9692.40913 4.16194e-18
9693.27059 4.10737e-18
9694.13206 4.05271e-18
9694.99352 3.99072e-18
9695.85498 3.92871e-18
9696.71644 3.88132e-18
9697.57790 3.83398e-18
9698.44938 3.81216e-18
9699.31084 3.79041e-18
9700.17231 3.78998e-18
9701.03377 3.78962e-18
9701.89523 3.80158e-18
9702.75669 3.81359e-18
9703.61816 3.81791e-18
9704.47962 3.82222e-18
9705.34108 3.80597e-18
9706.20254 3.78967e-18
9707.06400 3.76533e-18
9707.93548 3.74097e-18
9708.79694 3.72146e-18
9709.65841 3.70198e-18
9710.51987 3.69437e-18
9711.38133 3.68679e-18
9712.24279 3.69567e-18
9713.10425 3.70460e-18
9713.96572 3.71770e-18
9714.82718 3.73080e-18
9715.68864 3.73332e-18
9716.55010 3.73581e-18
9717.41156 3.72353e-18
9718.28304 3.71121e-18
9719.14451 3.68243e-18
9720.00597 3.65360e-18
9720.86743 3.62372e-18
9721.72889 3.59383e-18
9722.59035 3.58651e-18
9723.45182 3.57926e-18
9724.31328 3.58413e-18
9725.17474 3.58903e-18
9726.03620 3.57517e-18
9726.89766 3.56125e-18
9727.76914 3.51773e-18
9728.63060 3.47413e-18
9729.49207 3.40669e-18
9730.35353 3.33919e-18
9731.21499 3.26222e-18
9732.07645 3.18523e-18
9732.93791 3.12520e-18
9733.79938 3.06522e-18
9734.66084 3.03860e-18
9735.52230 3.01208e-18
9736.38376 3.01567e-18
9737.25524 3.01935e-18
9738.11670 3.04574e-18
9738.97817 3.07219e-18
9739.83963 3.10676e-18
9740.70109 3.14135e-18
9741.56255 3.16968e-18
9742.42401 3.19798e-18
9743.28548 3.21241e-18
9744.14694 3.22680e-18
9745.00840 3.22279e-18
9745.86986 3.21873e-18
9746.74134 3.20244e-18
9747.60280 3.18612e-18
9748.46426 3.16600e-18
9749.32573 3.14586e-18
9750.18719 3.12391e-18
9751.04865 3.10195e-18
9751.91011 3.07922e-18
9752.77157 3.05649e-18
9753.63304 3.03224e-18
9754.49450 3.00799e-18
9755.35596 2.98065e-18
9756.22744 2.95330e-18
9757.08890 2.92856e-18
9757.95036 2.90383e-18
9758.81183 2.89009e-18
9759.67329 2.87638e-18
9760.53475 2.88015e-18
9761.39621 2.88397e-18
9762.25767 2.91082e-18
9763.11913 2.93774e-18
9763.98060 2.97922e-18
9764.84206 3.02074e-18
9765.71354 3.05305e-18
9766.57500 3.08532e-18
9767.43646 3.09677e-18
9768.29792 3.10816e-18
9769.15939 3.10641e-18
9770.02085 3.10463e-18
9770.88231 3.09620e-18
9771.74377 3.08776e-18
9772.60523 3.07591e-18
9773.46670 3.06406e-18
9774.32816 3.05293e-18
9775.19964 3.04180e-18
9776.06110 3.03466e-18
9776.92256 3.02753e-18
9777.78402 3.02655e-18
9778.64548 3.02558e-18
9779.50695 3.03355e-18
9780.36841 3.04155e-18
9781.22987 3.05923e-18
9782.09133 3.07695e-18
9782.95280 3.08905e-18
9783.81426 3.10112e-18
9784.68574 3.09098e-18
9785.54720 3.08077e-18
9786.40866 3.05647e-18
9787.27012 3.03212e-18
9788.13158 3.00880e-18
9788.99305 2.98549e-18
9789.85451 2.96851e-18
9790.71597 2.95155e-18
9791.57743 2.94312e-18
9792.43889 2.93472e-18
9793.30036 2.92916e-18
9794.16182 2.92361e-18
9795.03330 2.90897e-18
9795.89476 2.89430e-18
9796.75622 2.87406e-18
9797.61768 2.85381e-18
9798.47915 2.84544e-18
9799.34061 2.83710e-18
9800.20207 2.84643e-18
9801.06353 2.85581e-18
9801.92499 2.87457e-18
9802.78645 2.89335e-18
9803.64792 2.91317e-18
9804.51940 2.93300e-18
9805.38086 2.94409e-18
9806.24232 2.95515e-18
9807.10378 2.95276e-18
9807.96524 2.95031e-18
9808.82671 2.94384e-18
9809.68817 2.93734e-18
9810.54963 2.93573e-18
9811.41109 2.93413e-18
9812.27255 2.94305e-18
9813.13402 2.95200e-18
9813.99548 2.97407e-18
9814.86696 2.99618e-18
9815.72842 3.01570e-18
9816.58988 3.03521e-18
9817.45134 3.03550e-18
9818.31280 3.03573e-18
9819.17427 3.01899e-18
9820.03573 3.00221e-18
9820.89719 2.97549e-18
9821.75865 2.94873e-18
9822.62012 2.92231e-18
9823.48158 2.89589e-18
9824.35306 2.88178e-18
9825.21452 2.86770e-18
9826.07598 2.86415e-18
9826.93744 2.86063e-18
9827.79890 2.85792e-18
9828.66037 2.85521e-18
9829.52183 2.85094e-18
9830.38329 2.84667e-18
9831.24475 2.84372e-18
9832.10621 2.84078e-18
9832.97769 2.83849e-18
9833.83915 2.83620e-18
9834.70062 2.83079e-18
9835.56208 2.82537e-18
9836.42354 2.81511e-18
9837.28500 2.80482e-18
9838.14647 2.79072e-18
9839.00793 2.77660e-18
9839.86939 2.75980e-18
9840.73085 2.74300e-18
9841.59231 2.72411e-18
9842.45377 2.70521e-18
9843.32525 2.68638e-18
9844.18672 2.66755e-18
9845.04818 2.65545e-18
9845.90964 2.64337e-18
9846.77110 2.64326e-18
9847.63256 2.64319e-18
9848.49403 2.65344e-18
9849.35549 2.66372e-18
9850.21695 2.68135e-18
9851.07841 2.69901e-18
9851.93987 2.72116e-18
9852.81135 2.74332e-18
9853.67282 2.76662e-18
9854.53428 2.78993e-18
9855.39574 2.81225e-18
9856.25720 2.83457e-18
9857.11866 2.85435e-18
9857.98013 2.87411e-18
9858.84159 2.88711e-18
9859.70305 2.90008e-18
9860.56451 2.90145e-18
9861.42597 2.90279e-18
9862.29745 2.89188e-18
9863.15891 2.88093e-18
9864.02038 2.85982e-18
9864.88184 2.83867e-18
9865.74330 2.81121e-18
9866.60476 2.78372e-18
9867.46622 2.75542e-18
9868.32769 2.72712e-18
9869.18915 2.70113e-18
9870.05061 2.67515e-18
9870.92209 2.65112e-18
9871.78355 2.62710e-18
9872.64501 2.60543e-18
9873.50648 2.58378e-18
9874.36794 2.56634e-18
9875.22940 2.54891e-18
9876.09086 2.53716e-18
9876.95232 2.52542e-18
9877.81379 2.52072e-18
9878.67525 2.51603e-18
9879.53671 2.51898e-18
9880.39817 2.52196e-18
9881.26965 2.53163e-18
9882.13111 2.54132e-18
9882.99257 2.55598e-18
9883.85404 2.57065e-18
9884.71550 2.58712e-18
9885.57696 2.60360e-18
9886.43842 2.61845e-18
9887.29988 2.63331e-18
9888.16135 2.64333e-18
9889.02281 2.65334e-18
9889.88427 2.65584e-18
9890.74573 2.65831e-18
9891.61721 2.65322e-18
9892.47867 2.64812e-18
9893.34014 2.63680e-18
9894.20160 2.62546e-18
9895.06306 2.60937e-18
9895.92452 2.59325e-18
9896.78598 2.57392e-18
9897.64745 2.55458e-18
9898.50891 2.53451e-18
9899.37037 2.51445e-18
9900.23183 2.49698e-18
9901.09329 2.47952e-18
9901.96477 2.46519e-18
9902.82623 2.45087e-18
9903.68770 2.43687e-18
9904.54916 2.42286e-18
9905.41062 2.40983e-18
9906.27208 2.39679e-18
9907.13354 2.39088e-18
9907.99501 2.38498e-18
9908.85647 2.38909e-18
9909.71793 2.39324e-18
9910.57939 2.40459e-18
9911.45087 2.41597e-18
9912.31233 2.43000e-18
9913.17380 2.44403e-18
9914.03526 2.45108e-18
9914.89672 2.45811e-18
9915.75818 2.45052e-18
9916.61964 2.44290e-18
9917.48111 2.42335e-18
9918.34257 2.40377e-18
9919.20403 2.37696e-18
9920.07551 2.35012e-18
9920.93697 2.32134e-18
9921.79843 2.29257e-18
9922.65989 2.26725e-18
9923.52136 2.24195e-18
9924.38282 2.22247e-18
9925.24428 2.20301e-18
9926.10574 2.19028e-18
9926.96720 2.17758e-18
9927.82867 2.16810e-18
9928.69013 2.15862e-18
9929.56161 2.14677e-18
9930.42307 2.13492e-18
9931.28453 2.11888e-18
9932.14599 2.10283e-18
9933.00746 2.08341e-18
9933.86892 2.06397e-18
9934.73038 2.04281e-18
9935.59184 2.02164e-18
9936.45330 2.00112e-18
9937.31477 1.98059e-18
9938.17623 1.96386e-18
9939.03769 1.94713e-18
9939.90917 1.93814e-18
9940.77063 1.92916e-18
9941.63209 1.92899e-18
9942.49355 1.92885e-18
9943.35502 1.93341e-18
9944.21648 1.93798e-18
9945.07794 1.94374e-18
9945.93940 1.94950e-18
9946.80086 1.95557e-18
9947.66233 1.96164e-18
9948.52379 1.96698e-18
9949.39527 1.97233e-18
9950.25673 1.97500e-18
9951.11819 1.97765e-18
9951.97965 1.97638e-18
9952.84112 1.97509e-18
9953.70258 1.97241e-18
9954.56404 1.96972e-18
9955.42550 1.96842e-18
9956.28696 1.96712e-18
9957.14843 1.96534e-18
9958.00989 1.96356e-18
9958.88137 1.95872e-18
9959.74283 1.95387e-18
9960.60429 1.94466e-18
9961.46575 1.93544e-18
9962.32721 1.92101e-18
9963.18868 1.90657e-18
9964.05014 1.89125e-18
9964.91160 1.87592e-18
9965.77306 1.86691e-18
9966.63452 1.85791e-18
9967.49599 1.85690e-18
9968.36747 1.85592e-18
9969.22893 1.86013e-18
9970.09039 1.86436e-18
9970.95185 1.87337e-18
9971.81331 1.88239e-18
9972.67477 1.89825e-18
9973.53624 1.91414e-18
9974.39770 1.93600e-18
9975.25916 1.95787e-18
9976.12062 1.98105e-18
9976.98208 2.00423e-18
9977.85356 2.02500e-18
9978.71503 2.04577e-18
9979.57649 2.06235e-18
9980.43795 2.07892e-18
9981.29941 2.09070e-18
9982.16087 2.10246e-18
9983.02234 2.11192e-18
9983.88380 2.12137e-18
9984.74526 2.13105e-18
9985.60672 2.14073e-18
9986.46818 2.15188e-18
9987.32965 2.16303e-18
9988.20112 2.17631e-18
9989.06259 2.18958e-18
9989.92405 2.20030e-18
9990.78551 2.21101e-18
9991.64697 2.21388e-18
9992.50843 2.21671e-18
9993.36990 2.21570e-18
9994.23136 2.21468e-18
9995.09282 2.21659e-18
9995.95428 2.21851e-18
9996.81574 2.22218e-18
9997.67721 2.22587e-18
9998.54869 2.22698e-18
9999.41015 2.22807e-18
