# wavelength flux
3374.79538 3.36274e-17
3376.87373 2.32693e-17
3378.95208 2.80895e-19
3381.03043 -1.10977e-17
3383.10878 -2.03530e-18
3385.18714 7.25660e-18
3387.26549 7.88532e-18
3389.34384 4.36081e-18
3391.41200 8.01779e-18
3393.49036 9.84795e-18
3395.56871 3.59510e-18
3397.64706 3.62984e-18
3399.72541 5.76004e-18
3401.80376 2.00224e-18
3403.88212 -2.92205e-18
3405.96047 -6.26782e-18
3408.02863 -8.50709e-18
3410.10698 -6.34213e-18
3412.18534 -2.34847e-18
3414.26369 1.72456e-18
3416.34204 4.32602e-18
3418.42039 6.68606e-18
3420.49874 1.02210e-17
3422.57710 9.37662e-18
3424.64526 5.01430e-18
3426.72361 2.07860e-18
3428.80196 3.04439e-18
3430.88032 4.42166e-18
3432.95867 5.76385e-18
3435.03702 4.13438e-18
3437.11537 -1.81351e-19
3439.18354 1.80236e-18
3441.26189 7.71873e-18
3443.34024 7.13677e-18
3445.41859 7.45647e-19
3447.49694 -1.41000e-18
3449.57530 2.93792e-19
3451.65365 8.93730e-19
3453.73200 3.13418e-19
3455.80016 1.33632e-18
3457.87852 1.46190e-18
3459.95687 3.47792e-18
3462.03522 6.51917e-18
3464.11357 3.17461e-18
3466.19192 -1.94235e-18
3468.27028 2.21333e-18
3470.34863 7.99862e-18
3472.41679 6.69938e-18
3474.49514 5.48785e-18
3476.57350 3.26020e-18
3478.65185 -1.67387e-19
3480.73020 -2.59330e-18
3482.80855 -8.35608e-19
3484.88690 5.81846e-18
3486.96526 6.90871e-18
3489.03342 9.51200e-19
3491.11177 6.02379e-19
3493.19012 4.13441e-18
3495.26848 5.82982e-18
3497.34683 6.36399e-18
3499.42518 6.23359e-18
3501.50353 4.85822e-18
3503.57170 2.89638e-18
3505.65005 1.20967e-18
3507.72840 1.66857e-19
3509.80675 2.49910e-18
3511.88510 5.99734e-18
3513.96346 5.06124e-18
3516.04181 1.15015e-18
3518.12016 3.92069e-19
3520.18832 1.18182e-18
3522.26668 8.50027e-20
3524.34503 9.53586e-21
3526.42338 3.01605e-18
3528.50173 4.72297e-18
3530.58008 3.84913e-18
3532.65844 5.05475e-18
3534.73679 6.89987e-18
3536.80495 3.38063e-18
3538.88330 -2.45836e-20
3540.96166 -1.39311e-18
3543.04001 1.60725e-19
3545.11836 3.64774e-18
3547.19671 6.18258e-18
3549.27506 7.83100e-18
3551.35342 6.88361e-18
3553.42158 4.60883e-18
3555.49993 3.46506e-18
3557.57828 4.33321e-18
3559.65664 4.62267e-18
3561.73499 4.83399e-18
3563.81334 5.89551e-18
3565.89169 6.30432e-18
3567.95986 4.00440e-18
3570.03821 2.41265e-18
3572.11656 4.85566e-18
3574.19491 6.27452e-18
3576.27326 5.24851e-18
3578.35162 5.94053e-18
3580.42997 6.48205e-18
3582.50832 4.33320e-18
3584.57648 3.28179e-18
3586.65484 4.87610e-18
3588.73319 3.03397e-18
3590.81154 2.45433e-18
3592.88989 5.53900e-18
3594.96824 5.50339e-18
3597.04660 5.51817e-18
3599.12495 6.88933e-18
3601.19311 6.43180e-18
3603.27146 3.63393e-18
3605.34982 2.29034e-18
3607.42817 7.11160e-18
3609.50652 1.15478e-17
3611.58487 7.74318e-18
3613.66322 2.64943e-18
3615.74158 1.37098e-18
3617.80974 6.59970e-19
3619.88809 3.99865e-18
3621.96644 4.19134e-18
3624.04480 1.34691e-18
3626.12315 1.61512e-19
3628.20150 4.44787e-18
3630.27985 -1.92917e-18
3632.35820 -7.16091e-18
3634.42637 1.42026e-18
3636.50472 6.46170e-18
3638.58307 1.19480e-18
3640.66142 2.11593e-18
3642.73978 2.67329e-20
3644.81813 -5.26398e-19
3646.89648 4.14709e-18
3648.97483 3.63666e-18
3651.04300 4.91477e-18
3653.12135 6.59679e-18
3655.19970 8.27636e-18
3657.27805 7.37551e-18
3659.35640 -9.74851e-19
3661.43476 -4.77299e-19
3663.51311 8.78724e-19
3665.58127 2.72303e-18
3667.65962 5.88642e-19
3669.73798 -1.05299e-18
3671.81633 5.12697e-18
3673.89468 8.49313e-18
3675.97303 2.78194e-18
3678.05138 1.84411e-18
3680.12974 3.93755e-19
3682.19790 1.11488e-18
3684.27625 4.33610e-18
3686.35460 5.02764e-18
3688.43296 1.69575e-18
3690.51131 1.97704e-18
3692.58966 2.72065e-18
3694.66801 3.53931e-18
3696.74636 1.64206e-18
3698.81453 9.52844e-19
3700.89288 3.19171e-18
3702.97123 2.69740e-18
3705.04958 4.33397e-18
3707.12794 4.09140e-18
3709.20629 2.93565e-18
3711.28464 2.40342e-18
3713.36299 3.03416e-18
3715.43116 3.07069e-18
3717.50951 1.53889e-18
3719.58786 1.28351e-18
3721.66621 4.25791e-18
3723.74456 9.44667e-18
3725.82292 7.50561e-18
3727.90127 2.32579e-18
3729.97962 2.21689e-18
3732.04778 2.15982e-18
3734.12614 2.91953e-18
3736.20449 6.50137e-19
3738.28284 -1.12239e-18
3740.36119 1.67606e-18
3742.43954 2.06005e-18
3744.51790 2.49033e-18
3746.58606 3.80279e-18
3748.66441 3.24763e-18
3750.74276 2.52743e-18
3752.82112 1.28515e-18
3754.89947 3.34598e-18
3756.97782 3.46475e-18
3759.05617 2.82973e-18
3761.13452 3.63923e-18
3763.20269 5.16744e-18
3765.28104 5.15982e-18
3767.35939 4.61116e-19
3769.43774 1.79481e-18
3771.51610 2.24600e-18
3773.59445 1.26312e-18
3775.67280 1.38080e-18
3777.75115 1.38931e-18
3779.81932 1.39782e-18
3781.89767 1.47942e-18
3783.97602 1.56100e-18
3786.05437 1.64257e-18
3788.13272 1.72412e-18
3790.21108 1.80567e-18
3792.28943 1.88719e-18
3794.36778 1.96871e-18
3796.43594 2.05022e-18
3798.51430 2.13171e-18
3800.59265 2.21319e-18
3802.67100 2.29465e-18
3804.74935 2.37610e-18
3806.82770 2.45753e-18
3808.90606 2.53896e-18
3810.98441 2.62038e-18
3813.05257 2.70178e-18
3815.13092 2.78317e-18
3817.20928 2.86454e-18
3819.28763 2.94590e-18
3821.36598 3.50630e-18
3823.44433 3.19075e-18
3825.52268 2.40130e-18
3827.59085 1.77004e-18
3829.66920 2.63139e-18
3831.74755 3.73211e-18
3833.82590 2.82244e-18
3835.90426 1.26502e-18
3837.98261 2.41917e-18
3840.06096 2.13173e-18
3842.13931 2.04209e-18
3844.20748 2.49410e-18
3846.28583 2.58928e-18
3848.36418 1.84825e-18
3850.44253 2.62827e-18
3852.52088 4.69560e-18
3854.59924 5.24174e-18
3856.67759 3.69775e-18
3858.75594 3.15933e-18
3860.82410 3.22899e-18
3862.90246 3.41103e-18
3864.98081 3.11695e-18
3867.05916 3.41543e-18
3869.13751 2.44220e-18
3871.21586 2.50681e-18
3873.29422 4.58255e-18
3875.37257 5.98270e-18
3877.44073 5.38492e-18
3879.51908 6.32760e-18
3881.59744 6.65579e-18
3883.67579 5.56077e-18
3885.75414 4.63460e-18
3887.83249 3.82254e-18
3889.91084 3.93237e-18
3891.98920 3.96389e-18
3894.05736 4.31668e-18
3896.13571 5.29076e-18
3898.21406 3.93436e-18
3900.29242 4.43454e-18
3902.37077 6.01099e-18
3904.44912 6.47718e-18
3906.52747 5.83636e-18
3908.59564 5.89911e-18
3910.67399 4.43100e-18
3912.75234 4.07041e-18
3914.83069 5.10746e-18
3916.90904 6.02326e-18
3918.98740 5.76428e-18
3921.06575 4.96810e-18
3923.14410 4.43087e-18
3925.21226 4.96791e-18
3927.29062 5.19632e-18
3929.36897 5.37873e-18
3931.44732 6.77166e-18
3933.52567 6.04945e-18
3935.60402 5.59004e-18
3937.68238 6.39200e-18
3939.76073 8.77531e-18
3941.82889 7.78635e-18
3943.90724 5.24911e-18
3945.98560 4.62985e-18
3948.06395 5.27721e-18
3950.14230 6.28448e-18
3952.22065 6.68472e-18
3954.29900 6.03168e-18
3956.37736 6.34072e-18
3958.44552 6.66049e-18
3960.52387 7.11468e-18
3962.60222 7.22178e-18
3964.68058 6.20765e-18
3966.75893 5.49754e-18
3968.83728 6.71766e-18
3970.91563 7.06617e-18
3972.99398 6.59967e-18
3975.06215 6.82600e-18
3977.14050 6.73154e-18
3979.21885 5.95242e-18
3981.29720 7.16126e-18
3983.37556 8.41919e-18
3985.45391 7.32461e-18
3987.53226 5.79001e-18
3989.60042 6.04648e-18
3991.67878 6.92316e-18
3993.75713 7.62793e-18
3995.83548 7.82505e-18
3997.91383 6.55419e-18
3999.99218 6.01773e-18
4002.07054 7.50506e-18
4004.14889 7.09396e-18
4006.21705 5.60090e-18
4008.29540 6.73417e-18
4010.37376 7.87905e-18
4012.45211 6.87514e-18
4014.53046 6.03270e-18
4016.60881 6.52419e-18
4018.68716 7.11637e-18
4020.76552 7.27257e-18
4022.83368 6.32299e-18
4024.91203 5.79033e-18
4026.99038 6.74862e-18
4029.06874 5.84387e-18
4031.14709 5.60963e-18
4033.22544 5.84583e-18
4035.30379 5.63202e-18
4037.38214 5.85706e-18
4039.45031 7.03789e-18
4041.52866 7.23567e-18
4043.60701 7.20518e-18
4045.68536 6.78872e-18
4047.76372 5.46870e-18
4049.84207 5.66526e-18
4051.92042 6.90805e-18
4053.98858 7.74520e-18
4056.06694 7.83194e-18
4058.14529 7.67055e-18
4060.22364 6.92108e-18
4062.30199 6.33221e-18
4064.38034 6.96800e-18
4066.45870 7.42894e-18
4068.53705 6.88867e-18
4070.60521 7.00451e-18
4072.68356 7.06466e-18
4074.76192 7.67635e-18
4076.84027 8.03546e-18
4078.91862 7.34147e-18
4080.99697 6.20265e-18
4083.07532 6.16241e-18
4085.15368 6.85076e-18
4087.22184 6.51874e-18
4089.30019 6.86410e-18
4091.37854 7.22420e-18
4093.45690 7.00200e-18
4095.53525 6.77274e-18
4097.61360 6.29590e-18
4099.69195 6.82781e-18
4101.77030 7.39771e-18
4103.83847 6.89623e-18
4105.91682 6.75696e-18
4107.99517 7.30910e-18
4110.07352 7.42719e-18
4112.15188 7.75830e-18
4114.23023 8.37795e-18
4116.30858 7.64660e-18
4118.38693 7.64057e-18
4120.45510 8.10519e-18
4122.53345 7.29965e-18
4124.61180 7.10088e-18
4126.69015 7.44688e-18
4128.76850 7.04094e-18
4130.84686 6.73445e-18
4132.92521 7.27545e-18
4135.00356 6.58599e-18
4137.07172 5.84181e-18
4139.15008 6.29382e-18
4141.22843 7.01613e-18
4143.30678 7.35350e-18
4145.38513 6.63969e-18
4147.46348 5.93085e-18
4149.54184 5.83366e-18
4151.61000 6.62045e-18
4153.68835 7.94309e-18
4155.76670 7.64307e-18
4157.84506 6.46177e-18
4159.92341 6.07070e-18
4162.00176 6.84691e-18
4164.08011 7.51045e-18
4166.15846 6.41416e-18
4168.22663 4.63214e-18
4170.30498 4.15522e-18
4172.38333 6.03928e-18
4174.46168 7.74380e-18
4176.54004 7.97092e-18
4178.61839 7.93528e-18
4180.69674 7.46711e-18
4182.77509 6.93663e-18
4184.84326 6.25836e-18
4186.92161 5.84394e-18
4188.99996 6.65480e-18
4191.07831 8.25524e-18
4193.15666 7.93980e-18
4195.23502 7.02119e-18
4197.31337 6.50639e-18
4199.39172 5.80255e-18
4201.45988 5.56605e-18
4203.53824 6.03380e-18
4205.61659 6.56561e-18
4207.69494 6.62557e-18
4209.77329 5.92452e-18
4211.85164 6.92475e-18
4213.93000 7.43729e-18
4215.99816 6.29645e-18
4218.07651 5.58117e-18
4220.15486 6.13550e-18
4222.23322 6.71103e-18
4224.31157 6.59487e-18
4226.38992 6.78040e-18
4228.46827 6.64478e-18
4230.54662 6.36757e-18
4232.61479 6.81086e-18
4234.69314 6.80535e-18
4236.77149 6.64095e-18
4238.84984 6.48617e-18
4240.92820 6.05839e-18
4243.00655 5.81995e-18
4245.08490 5.90468e-18
4247.16325 5.73484e-18
4249.23142 6.05687e-18
4251.30977 6.34690e-18
4253.38812 6.22160e-18
4255.46647 5.97751e-18
4257.54482 6.02429e-18
4259.62318 6.00578e-18
4261.70153 6.19590e-18
4263.77988 7.25425e-18
4265.84804 8.01964e-18
4267.92640 7.04388e-18
4270.00475 6.31479e-18
4272.08310 6.74698e-18
4274.16145 6.50771e-18
4276.23980 5.90758e-18
4278.31816 5.88913e-18
4280.39651 6.24695e-18
4282.46467 6.79344e-18
4284.54302 6.63159e-18
4286.62138 6.83710e-18
4288.69973 6.72221e-18
4290.77808 5.98597e-18
4292.85643 5.96313e-18
4294.93478 6.51048e-18
4297.00295 5.92254e-18
4299.08130 5.25297e-18
4301.15965 5.98677e-18
4303.23800 7.13245e-18
4305.31636 6.75722e-18
4307.39471 5.73386e-18
4309.47306 5.69661e-18
4311.55141 6.48332e-18
4313.61958 6.70010e-18
4315.69793 5.86656e-18
4317.77628 5.17320e-18
4319.85463 4.47455e-18
4321.93298 5.08014e-18
4324.01134 6.72734e-18
4326.08969 6.90260e-18
4328.16804 6.36429e-18
4330.23620 6.34787e-18
4332.31456 7.02304e-18
4334.39291 7.14713e-18
4336.47126 6.47694e-18
4338.54961 6.01651e-18
4340.62796 6.35830e-18
4342.70632 6.99799e-18
4344.77448 7.30709e-18
4346.85283 6.95110e-18
4348.93118 6.69761e-18
4351.00954 6.23460e-18
4353.08789 6.23802e-18
4355.16624 6.50175e-18
4357.24459 6.95467e-18
4359.32294 6.87069e-18
4361.40130 5.87958e-18
4363.46946 4.82569e-18
4365.54781 4.99521e-18
4367.62616 5.49041e-18
4369.70452 5.49791e-18
4371.78287 5.08550e-18
4373.86122 5.26977e-18
4375.93957 5.56852e-18
4378.00774 5.94352e-18
4380.08609 6.45320e-18
4382.16444 6.48136e-18
4384.24279 5.77245e-18
4386.32114 5.13707e-18
4388.39950 5.04147e-18
4390.47785 5.41686e-18
4392.55620 6.08197e-18
4394.62436 6.13647e-18
4396.70272 6.17509e-18
4398.78107 6.10375e-18
4400.85942 5.65858e-18
4402.93777 5.04920e-18
4405.01612 4.92913e-18
4407.09448 5.20217e-18
4409.17283 5.21709e-18
4411.24099 5.39674e-18
4413.31934 5.79238e-18
4415.39770 5.82115e-18
4417.47605 5.84992e-18
4419.55440 5.87868e-18
4421.63275 5.90743e-18
4423.71110 5.93618e-18
4425.78946 5.96493e-18
4427.85762 5.99367e-18
4429.93597 6.02241e-18
4432.01432 6.05113e-18
4434.09268 6.07986e-18
4436.17103 6.10858e-18
4438.24938 6.13730e-18
4440.32773 6.16601e-18
4442.39590 6.19472e-18
4444.47425 6.22342e-18
4446.55260 6.25212e-18
4448.63095 6.28082e-18
4450.70930 6.30949e-18
4452.78766 6.33818e-18
4454.86601 6.36686e-18
4456.94436 6.39554e-18
4459.01252 6.42420e-18
4461.09088 6.45286e-18
4463.16923 6.48152e-18
4465.24758 6.51018e-18
4467.32593 6.53883e-18
4469.40428 6.56747e-18
4471.48264 6.59611e-18
4473.56099 6.62474e-18
4475.62915 6.65337e-18
4477.70750 6.68200e-18
4479.78586 7.41748e-18
4481.86421 7.84222e-18
4483.94256 7.72633e-18
4486.02091 7.01803e-18
4488.09926 6.94523e-18
4490.17762 6.46671e-18
4492.24578 7.55068e-18
4494.32413 8.35804e-18
4496.40248 8.66183e-18
4498.48084 8.93566e-18
4500.55919 8.90916e-18
4502.63754 8.33948e-18
4504.71589 7.92639e-18
4506.79424 8.24767e-18
4508.86241 8.45400e-18
4510.94076 8.55846e-18
4513.01911 8.67750e-18
4515.09746 8.79589e-18
4517.17582 8.67940e-18
4519.25417 8.48727e-18
4521.33252 8.91659e-18
4523.41087 9.25106e-18
4525.47904 9.46488e-18
4527.55739 9.25043e-18
4529.63574 9.19844e-18
4531.71409 9.50441e-18
4533.79244 9.15453e-18
4535.87080 9.03359e-18
4537.94915 9.33670e-18
4540.01731 9.86717e-18
4542.09566 9.94886e-18
4544.17402 9.31542e-18
4546.25237 8.78562e-18
4548.33072 9.21842e-18
4550.40907 1.01002e-17
4552.48742 1.04010e-17
4554.56578 1.02518e-17
4556.63394 1.05164e-17
4558.71229 1.05849e-17
4560.79064 1.03565e-17
4562.86900 1.01916e-17
4564.94735 1.02951e-17
4567.02570 1.01690e-17
4569.10405 1.03125e-17
4571.18240 1.08166e-17
4573.25057 1.07892e-17
4575.32892 1.09037e-17
4577.40727 1.14811e-17
4579.48562 1.16824e-17
4581.56398 1.16374e-17
4583.64233 1.07860e-17
4585.72068 1.10378e-17
4587.78884 1.19464e-17
4589.86720 1.18491e-17
4591.94555 1.11143e-17
4594.02390 1.17223e-17
4596.10225 1.28492e-17
4598.18060 1.35443e-17
4600.25896 1.36352e-17
4602.33731 1.31613e-17
4604.40547 1.28355e-17
4606.48382 1.25583e-17
4608.56218 1.19682e-17
4610.64053 1.15989e-17
4612.71888 1.20806e-17
4614.79723 1.27205e-17
4616.87558 1.23589e-17
4618.95394 1.23485e-17
4621.02210 1.25902e-17
4623.10045 1.21695e-17
4625.17880 1.19344e-17
4627.25716 1.22843e-17
4629.33551 1.19963e-17
4631.41386 1.18205e-17
4633.49221 1.19016e-17
4635.57056 1.25592e-17
4637.63873 1.35487e-17
4639.71708 1.33464e-17
4641.79543 1.25120e-17
4643.87378 1.25910e-17
4645.95214 1.30440e-17
4648.03049 1.29944e-17
4650.10884 1.26832e-17
4652.18719 1.24047e-17
4654.25536 1.22954e-17
4656.33371 1.23839e-17
4658.41206 1.25043e-17
4660.49041 1.25124e-17
4662.56876 1.20542e-17
4664.64712 1.17058e-17
4666.72547 1.16600e-17
4668.80382 1.21812e-17
4670.87198 1.20538e-17
4672.95034 1.19237e-17
4675.02869 1.21055e-17
4677.10704 1.20540e-17
4679.18539 1.21554e-17
4681.26374 1.26061e-17
4683.34210 1.22997e-17
4685.41026 1.14649e-17
4687.48861 1.16028e-17
4689.56696 1.18910e-17
4691.64532 1.19468e-17
4693.72367 1.13202e-17
4695.80202 1.02601e-17
4697.88037 1.04227e-17
4699.95872 1.11423e-17
4702.02689 1.10060e-17
4704.10524 1.04472e-17
4706.18359 1.04763e-17
4708.26194 1.05410e-17
4710.34030 1.01454e-17
4712.41865 9.83521e-18
4714.49700 1.00980e-17
4716.57535 1.02423e-17
4718.64352 9.94973e-18
4720.72187 9.31461e-18
4722.80022 9.07217e-18
4724.87857 8.26871e-18
4726.95692 8.05845e-18
4729.03528 8.93263e-18
4731.11363 9.62510e-18
4733.19198 9.82982e-18
4735.26014 9.80718e-18
4737.33850 9.66148e-18
4739.41685 9.38191e-18
4741.49520 9.40401e-18
4743.57355 9.81545e-18
4745.65190 1.01054e-17
4747.73026 9.67958e-18
4749.80861 8.87117e-18
4751.87677 8.54912e-18
4753.95512 8.58714e-18
4756.03348 8.98108e-18
4758.11183 8.85108e-18
4760.19018 8.00727e-18
4762.26853 7.64356e-18
4764.34688 8.37915e-18
4766.41505 8.58473e-18
4768.49340 8.08760e-18
4770.57175 8.40083e-18
4772.65010 8.41804e-18
4774.72846 7.75299e-18
4776.80681 7.26614e-18
4778.88516 7.56770e-18
4780.96351 7.75620e-18
4783.03168 7.33399e-18
4785.11003 7.06335e-18
4787.18838 7.51867e-18
4789.26673 8.30833e-18
4791.34508 8.69444e-18
4793.42344 8.33154e-18
4795.50179 7.83525e-18
4797.58014 7.83230e-18
4799.64830 7.97971e-18
4801.72666 8.15786e-18
4803.80501 8.67458e-18
4805.88336 9.20787e-18
4807.96171 8.46938e-18
4810.04006 6.83980e-18
4812.11842 7.20242e-18
4814.18658 7.49304e-18
4816.26493 7.43641e-18
4818.34328 7.92511e-18
4820.42164 8.52830e-18
4822.49999 8.75882e-18
4824.57834 8.98971e-18
4826.65669 8.98375e-18
4828.73504 8.80986e-18
4830.81340 8.66110e-18
4832.88156 8.18293e-18
4834.95991 7.70067e-18
4837.03826 8.25889e-18
4839.11662 8.96406e-18
4841.19497 9.24278e-18
4843.27332 9.07563e-18
4845.35167 8.84104e-18
4847.41984 8.41091e-18
4849.49819 7.69066e-18
4851.57654 8.16961e-18
4853.65489 8.79795e-18
4855.73324 8.75975e-18
4857.81160 8.79087e-18
4859.88995 8.70807e-18
4861.96830 8.81209e-18
4864.03646 8.49887e-18
4866.11482 8.00062e-18
4868.19317 8.00910e-18
4870.27152 8.43241e-18
4872.34987 8.59628e-18
4874.42822 8.53463e-18
4876.50658 8.65141e-18
4878.58493 8.68946e-18
4880.65309 8.51575e-18
4882.73144 8.35253e-18
4884.80980 8.16467e-18
4886.88815 8.36957e-18
4888.96650 8.69942e-18
4891.04485 8.61340e-18
4893.12320 8.64564e-18
4895.20156 9.01754e-18
4897.26972 9.20686e-18
4899.34807 9.31541e-18
4901.42642 9.21451e-18
4903.50478 8.96922e-18
4905.58313 9.24471e-18
4907.66148 9.54454e-18
4909.73983 9.62966e-18
4911.80800 9.29695e-18
4913.88635 8.93447e-18
4915.96470 9.04566e-18
4918.04305 9.58414e-18
4920.12140 9.62564e-18
4922.19976 9.68411e-18
4924.27811 1.01524e-17
4926.35646 1.03383e-17
4928.42462 1.03792e-17
4930.50298 1.04161e-17
4932.58133 1.06624e-17
4934.65968 1.06780e-17
4936.73803 1.06935e-17
4938.81638 1.07091e-17
4940.89474 1.07247e-17
4942.97309 1.07402e-17
4945.04125 1.07558e-17
4947.11960 1.07713e-17
4949.19796 1.07869e-17
4951.27631 1.08025e-17
4953.35466 1.08180e-17
4955.43301 1.08336e-17
4957.51136 1.08491e-17
4959.58972 1.08646e-17
4961.65788 1.08802e-17
4963.73623 1.08957e-17
4965.81458 1.09113e-17
4967.89294 1.09268e-17
4969.97129 1.09423e-17
4972.04964 1.09579e-17
4974.12799 1.12952e-17
4976.20634 1.04522e-17
4978.27451 9.88457e-18
4980.35286 1.04027e-17
4982.43121 1.06559e-17
4984.50956 1.03936e-17
4986.58792 1.02824e-17
4988.66627 9.95079e-18
4990.74462 9.74516e-18
4992.82297 1.02116e-17
4994.89114 1.00814e-17
4996.96949 8.74790e-18
4999.04784 8.23719e-18
5001.12619 8.29243e-18
5003.20454 7.99042e-18
5005.28290 7.87566e-18
5007.36125 8.07642e-18
5009.42941 7.92035e-18
5011.50776 7.70532e-18
5013.58612 8.03946e-18
5015.66447 8.29465e-18
5017.74282 8.38631e-18
5019.82117 8.45107e-18
5021.89952 8.24553e-18
5023.97788 8.23179e-18
5026.04604 8.13143e-18
5028.12439 7.90775e-18
5030.20274 8.50184e-18
5032.28110 9.18111e-18
5034.35945 9.15388e-18
5036.43780 9.12665e-18
5038.51615 9.09943e-18
5040.59450 9.07221e-18
5042.66267 9.04499e-18
5044.74102 9.01778e-18
5046.81937 8.99057e-18
5048.89772 8.96338e-18
5050.97608 8.93618e-18
5053.05443 8.90899e-18
5055.13278 8.88180e-18
5057.20094 8.85463e-18
5059.27930 8.82745e-18
5061.35765 8.80028e-18
5063.43600 8.77311e-18
5065.51435 8.74595e-18
5067.59270 8.71879e-18
5069.67106 8.69164e-18
5071.74941 8.66449e-18
5073.81757 8.63104e-18
5075.89592 8.25683e-18
5077.97428 7.84748e-18
5080.05263 8.03999e-18
5082.13098 7.97844e-18
5084.20933 8.01727e-18
5086.28768 8.05607e-18
5088.36604 8.09488e-18
5090.43420 8.13368e-18
5092.51255 8.17248e-18
5094.59090 8.21127e-18
5096.66926 8.25005e-18
5098.74761 8.28882e-18
5100.82596 8.32760e-18
5102.90431 8.36636e-18
5104.98266 8.40513e-18
5107.05083 8.44388e-18
5109.12918 8.48263e-18
5111.20753 8.52137e-18
5113.28588 8.56012e-18
5115.36424 8.59885e-18
5117.44259 8.63757e-18
5119.52094 8.67629e-18
5121.59929 8.61041e-18
5123.66746 8.05637e-18
5125.74581 7.84066e-18
5127.82416 8.62609e-18
5129.90251 9.20564e-18
5131.98086 9.07655e-18
5134.05922 8.75738e-18
5136.13757 8.47475e-18
5138.21592 8.53695e-18
5140.28408 8.68999e-18
5142.36244 8.65477e-18
5144.44079 8.96254e-18
5146.51914 9.26732e-18
5148.59749 9.44465e-18
5150.67584 9.53465e-18
5152.75420 9.27812e-18
5154.82236 8.99733e-18
5156.90071 9.14489e-18
5158.97906 9.53806e-18
5161.05742 9.35933e-18
5163.13577 8.80550e-18
5165.21412 8.83875e-18
5167.29247 9.20029e-18
5169.37082 9.28277e-18
5171.43899 9.38572e-18
5173.51734 9.30989e-18
5175.59569 9.25885e-18
5177.67404 9.83002e-18
5179.75240 1.02498e-17
5181.83075 9.81637e-18
5183.90910 9.48047e-18
5185.98745 9.13916e-18
5188.05562 9.20450e-18
5190.13397 9.75066e-18
5192.21232 1.00785e-17
5194.29067 1.02033e-17
5196.36902 1.09043e-17
5198.44738 1.11122e-17
5200.52573 1.07317e-17
5202.60408 1.08382e-17
5204.67224 1.11111e-17
5206.75060 1.11361e-17
5208.82895 1.00654e-17
5210.90730 9.92551e-18
5212.98565 1.06552e-17
5215.06400 1.06504e-17
5217.14236 1.06400e-17
5219.22071 1.06458e-17
5221.28887 1.02840e-17
5223.36722 1.04857e-17
5225.44558 1.08858e-17
5227.52393 1.10145e-17
5229.60228 1.17201e-17
5231.68063 1.16645e-17
5233.75898 1.12310e-17
5235.82715 1.14358e-17
5237.90550 1.12396e-17
5239.98385 9.90784e-18
5242.06220 9.37597e-18
5244.14056 1.07193e-17
5246.21891 1.18394e-17
5248.29726 1.20030e-17
5250.37561 1.16724e-17
5252.44378 1.19442e-17
5254.52213 1.24444e-17
5256.60048 1.26629e-17
5258.67883 1.28504e-17
5260.75718 1.30311e-17
5262.83554 1.31227e-17
5264.91389 1.28568e-17
5266.99224 1.22635e-17
5269.06040 1.21978e-17
5271.13876 1.31278e-17
5273.21711 1.37273e-17
5275.29546 1.35527e-17
5277.37381 1.39004e-17
5279.45216 1.34072e-17
5281.53052 1.26967e-17
5283.59868 1.28399e-17
5285.67703 1.34031e-17
5287.75538 1.40510e-17
5289.83374 1.43610e-17
5291.91209 1.41062e-17
5293.99044 1.38710e-17
5296.06879 1.40317e-17
5298.14714 1.41219e-17
5300.22550 1.39749e-17
5302.29366 1.41179e-17
5304.37201 1.46015e-17
5306.45036 1.44603e-17
5308.52872 1.42457e-17
5310.60707 1.43228e-17
5312.68542 1.45233e-17
5314.76377 1.49279e-17
5316.83194 1.51292e-17
5318.91029 1.50572e-17
5320.98864 1.50568e-17
5323.06699 1.46093e-17
5325.14534 1.43798e-17
5327.22370 1.48498e-17
5329.30205 1.49214e-17
5331.38040 1.46437e-17
5333.44856 1.49437e-17
5335.52692 1.54330e-17
5337.60527 1.55921e-17
5339.68362 1.55606e-17
5341.76197 1.56466e-17
5343.84032 1.62644e-17
5345.91868 1.67362e-17
5347.99703 1.62530e-17
5350.06519 1.57077e-17
5352.14354 1.59391e-17
5354.22190 1.65568e-17
5356.30025 1.67833e-17
5358.37860 1.66182e-17
5360.45695 1.58041e-17
5362.53530 1.49949e-17
5364.61366 1.48601e-17
5366.68182 1.50961e-17
5368.76017 1.55210e-17
5370.83852 1.63745e-17
5372.91688 1.58801e-17
5374.99523 1.54603e-17
5377.07358 1.58605e-17
5379.15193 1.61802e-17
5381.22010 1.58121e-17
5383.29845 1.51260e-17
5385.37680 1.52888e-17
5387.45515 1.59585e-17
5389.53350 1.65248e-17
5391.61186 1.68990e-17
5393.69021 1.65220e-17
5395.76856 1.61649e-17
5397.83672 1.63754e-17
5399.91508 1.64491e-17
5401.99343 1.62316e-17
5404.07178 1.58566e-17
5406.15013 1.54551e-17
5408.22848 1.56319e-17
5410.30684 1.58955e-17
5412.38519 1.55797e-17
5414.45335 1.54146e-17
5416.53170 1.55713e-17
5418.61006 1.59127e-17
5420.68841 1.59320e-17
5422.76676 1.59438e-17
5424.84511 1.62615e-17
5426.92346 1.64403e-17
5429.00182 1.65806e-17
5431.06998 1.65468e-17
5433.14833 1.63010e-17
5435.22668 1.61301e-17
5437.30504 1.61805e-17
5439.38339 1.64464e-17
5441.46174 1.66674e-17
5443.54009 1.69164e-17
5445.61844 1.77022e-17
5447.68661 1.84150e-17
5449.76496 1.79167e-17
5451.84331 1.68943e-17
5453.92166 1.65791e-17
5456.00002 1.72116e-17
5458.07837 1.82764e-17
5460.15672 1.86376e-17
5462.23507 1.82408e-17
5464.30324 1.82160e-17
5466.38159 1.83611e-17
5468.45994 1.82433e-17
5470.53829 1.81689e-17
5472.61664 1.79451e-17
5474.69500 1.76099e-17
5476.77335 1.79139e-17
5478.84151 1.81363e-17
5480.91986 1.81367e-17
5482.99822 1.86264e-17
5485.07657 1.92998e-17
5487.15492 1.92638e-17
5489.23327 1.92934e-17
5491.31162 1.99083e-17
5493.38998 1.99182e-17
5495.45814 1.91829e-17
5497.53649 1.89110e-17
5499.61484 1.90224e-17
5501.69320 1.91364e-17
5503.77155 1.95371e-17
5505.84990 1.99594e-17
5507.92825 1.97570e-17
5510.00660 1.96204e-17
5512.07477 1.99292e-17
5514.15312 2.05398e-17
5516.23147 2.05580e-17
5518.30982 2.03871e-17
5520.38818 2.03838e-17
5522.46653 2.04961e-17
5524.54488 1.99915e-17
5526.61304 1.96882e-17
5528.69140 2.04884e-17
5530.76975 2.10495e-17
5532.84810 2.01357e-17
5534.92645 1.94997e-17
5537.00480 2.06758e-17
5539.08316 2.18209e-17
5541.16151 2.16524e-17
5543.22967 2.09944e-17
5545.30802 2.03655e-17
5547.38638 1.99687e-17
5549.46473 2.01907e-17
5551.54308 2.07363e-17
5553.62143 2.03451e-17
5555.69978 1.96017e-17
5557.77814 2.01873e-17
5559.84630 2.05169e-17
5561.92465 2.04945e-17
5564.00300 2.06527e-17
5566.08136 2.05035e-17
5568.15971 2.01767e-17
5570.23806 2.02061e-17
5572.31641 2.03168e-17
5574.39476 1.97225e-17
5576.46293 1.92074e-17
5578.54128 1.93897e-17
5580.61963 1.94844e-17
5582.69798 1.92690e-17
5584.77634 1.89338e-17
5586.85469 1.84811e-17
5588.93304 1.82746e-17
5591.01139 1.82363e-17
5593.07956 1.77525e-17
5595.15791 1.71163e-17
5597.23626 1.74361e-17
5599.31461 1.79054e-17
5601.39296 1.81095e-17
5603.47132 1.84413e-17
5605.54967 1.84494e-17
5607.62802 1.80787e-17
5609.69618 1.78175e-17
5611.77454 1.81339e-17
5613.85289 1.82496e-17
5615.93124 1.78729e-17
5618.00959 1.76728e-17
5620.08794 1.76385e-17
5622.16630 1.77483e-17
5624.24465 1.77663e-17
5626.31281 1.72382e-17
5628.39116 1.69546e-17
5630.46952 1.69449e-17
5632.54787 1.66036e-17
5634.62622 1.63993e-17
5636.70457 1.65810e-17
5638.78292 1.66716e-17
5640.85109 1.67303e-17
5642.92944 1.66286e-17
5645.00779 1.63390e-17
5647.08614 1.62034e-17
5649.16450 1.69396e-17
5651.24285 1.74680e-17
5653.32120 1.68493e-17
5655.39955 1.62426e-17
5657.46772 1.61777e-17
5659.54607 1.60090e-17
5661.62442 1.59840e-17
5663.70277 1.40933e-17
5665.78112 1.05575e-17
5667.85948 1.10802e-17
5669.93783 1.44167e-17
5672.01618 1.54448e-17
5674.08434 1.54923e-17
5676.16270 1.56576e-17
5678.24105 1.52473e-17
5680.31940 1.51837e-17
5682.39775 1.54715e-17
5684.47610 1.53517e-17
5686.55446 1.49245e-17
5688.63281 1.45674e-17
5690.70097 1.41259e-17
5692.77932 1.41181e-17
5694.85768 1.38696e-17
5696.93603 1.35744e-17
5699.01438 1.37940e-17
5701.09273 1.45948e-17
5703.17108 1.46847e-17
5705.23925 1.37884e-17
5707.31760 1.35097e-17
5709.39595 1.38534e-17
5711.47430 1.37878e-17
5713.55266 1.34370e-17
5715.63101 1.32803e-17
5717.70936 1.32694e-17
5719.78771 1.34111e-17
5721.85588 1.35980e-17
5723.93423 1.35217e-17
5726.01258 1.32665e-17
5728.09093 1.29543e-17
5730.16928 1.26267e-17
5732.24764 1.27372e-17
5734.32599 1.24052e-17
5736.40434 1.20199e-17
5738.47250 1.26645e-17
5740.55086 1.27007e-17
5742.62921 1.24163e-17
5744.70756 1.24703e-17
5746.78591 1.25713e-17
5748.86426 1.25787e-17
5750.94262 1.27123e-17
5753.01078 1.29967e-17
5755.08913 1.33368e-17
5757.16748 1.34266e-17
5759.24584 1.29342e-17
5761.32419 1.24798e-17
5763.40254 1.22988e-17
5765.48089 1.20273e-17
5767.55924 1.20259e-17
5769.63760 1.21443e-17
5771.70576 1.18540e-17
5773.78411 1.16766e-17
5775.86246 1.16284e-17
5777.94082 1.17543e-17
5780.01917 1.24138e-17
5782.09752 1.25015e-17
5784.17587 1.25399e-17
5786.24404 1.31727e-17
5788.32239 1.31789e-17
5790.40074 1.31107e-17
5792.47909 1.28239e-17
5794.55744 1.22065e-17
5796.63580 1.19156e-17
5798.71415 1.23049e-17
5800.79250 1.24189e-17
5802.86066 1.19158e-17
5804.93902 1.16152e-17
5807.01737 1.16535e-17
5809.09572 1.20083e-17
5811.17407 1.26545e-17
5813.25242 1.29084e-17
5815.33078 1.26499e-17
5817.40913 1.28388e-17
5819.47729 1.30045e-17
5821.55564 1.27764e-17
5823.63400 1.27640e-17
5825.71235 1.29101e-17
5827.79070 1.30339e-17
5829.86905 1.33885e-17
5831.94740 1.35244e-17
5834.02576 1.37571e-17
5836.09392 1.35321e-17
5838.17227 1.35695e-17
5840.25062 1.38468e-17
5842.32898 1.37013e-17
5844.40733 1.34743e-17
5846.48568 1.35636e-17
5848.56403 1.34477e-17
5850.63220 1.32029e-17
5852.71055 1.33856e-17
5854.78890 1.36303e-17
5856.86725 1.35920e-17
5858.94560 1.35962e-17
5861.02396 1.38345e-17
5863.10231 1.37484e-17
5865.18066 1.35359e-17
5867.24882 1.38545e-17
5869.32718 1.40255e-17
5871.40553 1.41858e-17
5873.48388 1.41580e-17
5875.56223 1.38835e-17
5877.64058 1.36762e-17
5879.71894 1.34112e-17
5881.79729 1.31171e-17
5883.86545 1.32801e-17
5885.94380 1.37440e-17
5888.02216 1.43605e-17
5890.10051 1.47899e-17
5892.17886 1.42952e-17
5894.25721 1.32825e-17
5896.33556 1.34333e-17
5898.41392 1.43256e-17
5900.48208 1.45197e-17
5902.56043 1.47136e-17
5904.63878 1.53834e-17
5906.71714 1.55930e-17
5908.79549 1.49061e-17
5910.87384 1.41364e-17
5912.95219 1.41698e-17
5915.03054 1.42633e-17
5917.09871 1.43617e-17
5919.17706 1.46683e-17
5921.25541 1.47901e-17
5923.33376 1.44695e-17
5925.41212 1.40290e-17
5927.49047 1.39459e-17
5929.56882 1.35101e-17
5931.64717 1.42517e-17
5933.71534 1.47544e-17
5935.79369 1.41960e-17
5937.87204 1.39856e-17
5939.95039 1.45549e-17
5942.02874 1.44631e-17
5944.10710 1.28835e-17
5946.18545 1.13412e-17
5948.25361 1.21035e-17
5950.33196 1.38677e-17
5952.41032 1.47019e-17
5954.48867 1.48662e-17
5956.56702 1.48250e-17
5958.64537 1.47838e-17
5960.72372 1.47426e-17
5962.80208 1.47014e-17
5964.87024 1.46602e-17
5966.94859 1.46191e-17
5969.02694 1.45779e-17
5971.10530 1.45367e-17
5973.18365 1.44955e-17
5975.26200 1.44544e-17
5977.34035 1.44132e-17
5979.41870 1.43720e-17
5981.48687 1.43309e-17
5983.56522 1.42897e-17
5985.64357 1.42486e-17
5987.72192 1.42075e-17
5989.80028 1.41663e-17
5991.87863 1.41252e-17
5993.95698 1.40841e-17
5996.03533 1.40429e-17
5998.10350 1.40018e-17
6000.18185 1.39607e-17
6002.26020 1.39196e-17
6004.33855 1.38785e-17
6006.41690 1.38374e-17
6008.49526 1.37963e-17
6010.57361 1.37552e-17
6012.64177 1.37141e-17
6014.72012 1.36731e-17
6016.79848 1.36320e-17
6018.87683 1.32897e-17
6020.95518 1.36440e-17
6023.03353 1.34725e-17
6025.11188 1.34202e-17
6027.19024 1.37341e-17
6029.25840 1.37043e-17
6031.33675 1.30353e-17
6033.41510 1.31009e-17
6035.49346 1.35409e-17
6037.57181 1.34703e-17
6039.65016 1.29951e-17
6041.72851 1.25037e-17
6043.80686 1.30795e-17
6045.87503 1.38023e-17
6047.95338 1.34063e-17
6050.03173 1.29009e-17
6052.11008 1.31456e-17
6054.18844 1.30138e-17
6056.26679 1.29784e-17
6058.34514 1.33622e-17
6060.42349 1.28732e-17
6062.49166 1.20166e-17
6064.57001 1.18056e-17
6066.64836 1.20939e-17
6068.72671 1.21666e-17
6070.80506 1.25793e-17
6072.88342 1.32247e-17
6074.96177 1.32139e-17
6077.04012 1.25304e-17
6079.10828 1.21799e-17
6081.18664 1.20998e-17
6083.26499 1.19312e-17
6085.34334 1.25098e-17
6087.42169 1.29279e-17
6089.50004 1.27064e-17
6091.57840 1.27015e-17
6093.65675 1.28417e-17
6095.72491 1.27668e-17
6097.80326 1.25739e-17
6099.88162 1.25412e-17
6101.95997 1.24796e-17
6104.03832 1.24129e-17
6106.11667 1.25214e-17
6108.19502 1.25788e-17
6110.26319 1.26672e-17
6112.34154 1.26675e-17
6114.41989 1.27101e-17
6116.49824 1.29850e-17
6118.57660 1.29885e-17
6120.65495 1.28030e-17
6122.73330 1.32051e-17
6124.81165 1.35787e-17
6126.87982 1.31364e-17
6128.95817 1.29059e-17
6131.03652 1.29175e-17
6133.11487 1.28580e-17
6135.19322 1.31130e-17
6137.27158 1.30836e-17
6139.34993 1.25620e-17
6141.42828 1.16087e-17
6143.49644 1.12432e-17
6145.57480 1.25209e-17
6147.65315 1.40321e-17
6149.73150 1.39170e-17
6151.80985 1.34353e-17
6153.88820 1.37552e-17
6155.96656 1.40288e-17
6158.04491 1.38288e-17
6160.11307 1.35092e-17
6162.19142 1.36078e-17
6164.26978 1.39220e-17
6166.34813 1.42144e-17
6168.42648 1.42711e-17
6170.50483 1.41990e-17
6172.58318 1.42899e-17
6174.65135 1.47373e-17
6176.72970 1.47613e-17
6178.80805 1.42222e-17
6180.88640 1.37509e-17
6182.96476 1.35782e-17
6185.04311 1.42071e-17
6187.12146 1.47371e-17
6189.19981 1.46701e-17
6191.26798 1.42784e-17
6193.34633 1.40725e-17
6195.42468 1.42081e-17
6197.50303 1.43086e-17
6199.58138 1.44463e-17
6201.65974 1.46429e-17
6203.73809 1.42483e-17
6205.81644 1.40991e-17
6207.88460 1.45072e-17
6209.96296 1.49069e-17
6212.04131 1.48313e-17
6214.11966 1.45767e-17
6216.19801 1.44972e-17
6218.27636 1.43332e-17
6220.35472 1.41822e-17
6222.42288 1.40808e-17
6224.50123 1.39303e-17
6226.57958 1.42547e-17
6228.65794 1.46546e-17
6230.73629 1.44198e-17
6232.81464 1.37211e-17
6234.89299 1.36765e-17
6236.97134 1.37302e-17
6239.04970 1.39454e-17
6241.11786 1.41003e-17
6243.19621 1.37143e-17
6245.27456 1.33654e-17
6247.35292 1.39162e-17
6249.43127 1.51323e-17
6251.50962 1.45570e-17
6253.58797 1.33560e-17
6255.65614 1.25297e-17
6257.73449 1.23394e-17
6259.81284 1.29026e-17
6261.89119 1.34959e-17
6263.96954 1.32428e-17
6266.04790 1.30904e-17
6268.12625 1.27713e-17
6270.20460 1.23516e-17
6272.27276 1.26285e-17
6274.35112 1.26134e-17
6276.42947 1.19380e-17
6278.50782 1.12234e-17
6280.58617 1.11772e-17
6282.66452 1.15535e-17
6284.74288 1.18246e-17
6286.82123 1.17138e-17
6288.88939 1.14800e-17
6290.96774 1.16353e-17
6293.04610 1.21721e-17
6295.12445 1.18324e-17
6297.20280 1.03703e-17
6299.28115 1.10690e-17
6301.35950 1.14737e-17
6303.43786 1.11414e-17
6305.50602 1.14476e-17
6307.58437 1.14361e-17
6309.66272 1.10738e-17
6311.74108 1.13951e-17
6313.81943 1.16622e-17
6315.89778 1.13964e-17
6317.97613 1.11205e-17
6320.04430 1.15507e-17
6322.12265 1.22044e-17
6324.20100 1.24420e-17
6326.27935 1.20854e-17
6328.35770 1.17963e-17
6330.43606 1.17158e-17
6332.51441 1.17266e-17
6334.59276 1.20461e-17
6336.66092 1.24417e-17
6338.73928 1.25172e-17
6340.81763 1.19618e-17
6342.89598 1.10812e-17
6344.97433 1.13119e-17
6347.05268 1.17514e-17
6349.13104 1.20534e-17
6351.20939 1.19704e-17
6353.27755 1.17320e-17
6355.35590 1.21564e-17
6357.43426 1.23035e-17
6359.51261 1.21829e-17
6361.59096 1.18266e-17
6363.66931 1.16358e-17
6365.74766 1.18219e-17
6367.82602 1.23020e-17
6369.89418 1.26261e-17
6371.97253 1.28384e-17
6374.05088 1.29949e-17
6376.12924 1.26585e-17
6378.20759 1.24701e-17
6380.28594 1.27449e-17
6382.36429 1.27831e-17
6384.44264 1.30321e-17
6386.51081 1.34125e-17
6388.58916 1.28872e-17
6390.66751 1.24734e-17
6392.74586 1.27905e-17
6394.82422 1.31550e-17
6396.90257 1.32981e-17
6398.98092 1.33353e-17
6401.05927 1.34352e-17
6403.12744 1.33445e-17
6405.20579 1.30047e-17
6407.28414 1.33393e-17
6409.36249 1.38785e-17
6411.44084 1.35451e-17
6413.51920 1.36464e-17
6415.59755 1.45343e-17
6417.66571 1.50248e-17
6419.74406 1.48753e-17
6421.82242 1.49009e-17
6423.90077 1.49403e-17
6425.97912 1.46502e-17
6428.05747 1.41351e-17
6430.13582 1.38354e-17
6432.21418 1.41633e-17
6434.28234 1.50702e-17
6436.36069 1.54728e-17
6438.43904 1.47441e-17
6440.51740 1.46403e-17
6442.59575 1.52288e-17
6444.67410 1.52201e-17
6446.75245 1.50478e-17
6448.83080 1.53720e-17
6450.89897 1.53164e-17
6452.97732 1.52473e-17
6455.05567 1.53694e-17
6457.13402 1.53454e-17
6459.21238 1.54579e-17
6461.29073 1.53793e-17
6463.36908 1.50888e-17
6465.44743 1.49378e-17
6467.51560 1.51393e-17
6469.59395 1.54921e-17
6471.67230 1.56506e-17
6473.75065 1.53675e-17
6475.82900 1.54586e-17
6477.90736 1.57842e-17
6479.98571 1.54269e-17
6482.05387 1.57713e-17
6484.13222 1.61027e-17
6486.21058 1.56541e-17
6488.28893 1.55537e-17
6490.36728 1.60779e-17
6492.44563 1.61299e-17
6494.52398 1.56898e-17
6496.60234 1.56659e-17
6498.67050 1.60641e-17
6500.74885 1.61075e-17
6502.82720 1.58654e-17
6504.90556 1.60600e-17
6506.98391 1.65683e-17
6509.06226 1.60158e-17
6511.14061 1.56648e-17
6513.21896 1.60728e-17
6515.28713 1.58501e-17
6517.36548 1.52300e-17
6519.44383 1.55463e-17
6521.52218 1.62754e-17
6523.60054 1.63282e-17
6525.67889 1.58505e-17
6527.75724 1.55870e-17
6529.83559 1.58936e-17
6531.90376 1.60467e-17
6533.98211 1.57316e-17
6536.06046 1.55910e-17
6538.13881 1.62299e-17
6540.21716 1.65521e-17
6542.29552 1.60377e-17
6544.37387 1.58036e-17
6546.45222 1.59416e-17
6548.52038 1.58471e-17
6550.59874 1.55788e-17
6552.67709 1.55164e-17
6554.75544 1.60134e-17
6556.83379 1.61158e-17
6558.91214 1.55066e-17
6560.99050 1.53734e-17
6563.06885 1.55806e-17
6565.13701 1.59918e-17
6567.21536 1.64089e-17
6569.29372 1.62457e-17
6571.37207 1.58154e-17
6573.45042 1.59364e-17
6575.52877 1.59259e-17
6577.60712 1.56849e-17
6579.67529 1.54831e-17
6581.75364 1.56302e-17
6583.83199 1.58524e-17
6585.91034 1.57673e-17
6587.98870 1.53973e-17
6590.06705 1.56392e-17
6592.14540 1.62248e-17
6594.22375 1.60558e-17
6596.29192 1.54806e-17
6598.37027 1.51992e-17
6600.44862 1.52221e-17
6602.52697 1.55981e-17
6604.60532 1.57371e-17
6606.68368 1.52903e-17
6608.76203 1.50712e-17
6610.84038 1.52825e-17
6612.90854 1.49581e-17
6614.98690 1.48850e-17
6617.06525 1.56671e-17
6619.14360 1.62525e-17
6621.22195 1.55319e-17
6623.30030 1.51590e-17
6625.37866 1.48861e-17
6627.45701 1.48861e-17
6629.52517 1.51721e-17
6631.60352 1.50527e-17
6633.68188 1.49874e-17
6635.76023 1.50812e-17
6637.83858 1.50701e-17
6639.91693 1.49133e-17
6641.99528 1.46318e-17
6644.06345 1.47405e-17
6646.14180 1.47387e-17
6648.22015 1.47755e-17
6650.29850 1.50588e-17
6652.37686 1.48863e-17
6654.45521 1.48107e-17
6656.53356 1.47351e-17
6658.61191 1.46595e-17
6660.68008 1.45839e-17
6662.75843 1.45084e-17
6664.83678 1.44328e-17
6666.91513 1.43572e-17
6668.99348 1.42817e-17
6671.07184 1.42061e-17
6673.15019 1.41306e-17
6675.22854 1.40550e-17
6677.29670 1.39795e-17
6679.37506 1.39039e-17
6681.45341 1.38284e-17
6683.53176 1.37529e-17
6685.61011 1.36773e-17
6687.68846 1.36018e-17
6689.76682 1.35263e-17
6691.83498 1.34917e-17
6693.91333 1.34571e-17
6695.99168 1.34225e-17
6698.07004 1.33879e-17
6700.14839 1.33533e-17
6702.22674 1.33187e-17
6704.30509 1.32841e-17
6706.38344 1.32495e-17
6708.46180 1.32149e-17
6710.52996 1.31803e-17
6712.60831 1.31457e-17
6714.68666 1.31111e-17
6716.76502 1.30765e-17
6718.84337 1.30419e-17
6720.92172 1.30074e-17
6723.00007 1.29728e-17
6725.06824 1.29382e-17
6727.14659 1.29036e-17
6729.22494 1.30326e-17
6731.30329 1.29858e-17
6733.38164 1.27281e-17
6735.46000 1.27631e-17
6737.53835 1.28615e-17
6739.61670 1.26739e-17
6741.68486 1.27219e-17
6743.76322 1.31127e-17
6745.84157 1.29885e-17
6747.91992 1.26435e-17
6749.99827 1.22662e-17
6752.07662 1.20712e-17
6754.15498 1.24389e-17
6756.23333 1.27150e-17
6758.30149 1.24313e-17
6760.37984 1.24517e-17
6762.45820 1.28717e-17
6764.53655 1.30475e-17
6766.61490 1.24372e-17
6768.69325 1.19791e-17
6770.77160 1.20468e-17
6772.84996 1.19951e-17
6774.91812 1.19218e-17
6776.99647 1.22263e-17
6779.07482 1.21841e-17
6781.15318 1.18221e-17
6783.23153 1.15758e-17
6785.30988 1.13363e-17
6787.38823 1.13207e-17
6789.45640 1.14714e-17
6791.53475 1.11822e-17
6793.61310 1.10362e-17
6795.69145 1.16224e-17
6797.76980 1.17453e-17
6799.84816 1.16257e-17
6801.92651 1.20551e-17
6804.00486 1.22883e-17
6806.07302 1.12012e-17
6808.15138 1.09446e-17
6810.22973 1.13787e-17
6812.30808 1.20383e-17
6814.38643 1.22505e-17
6816.46478 1.19562e-17
6818.54314 1.12714e-17
6820.62149 1.08338e-17
6822.68965 1.07136e-17
6824.76800 1.07426e-17
6826.84636 1.07716e-17
6828.92471 1.08006e-17
6831.00306 1.08296e-17
6833.08141 1.08586e-17
6835.15976 1.08876e-17
6837.23812 1.09166e-17
6839.30628 1.08628e-17
6841.38463 1.08090e-17
6843.46298 1.07551e-17
6845.54134 1.07013e-17
6847.61969 1.06475e-17
6849.69804 1.05936e-17
6851.77639 1.05398e-17
6853.85474 1.04860e-17
6855.92291 1.04322e-17
6858.00126 1.03784e-17
6860.07961 1.03246e-17
6862.15796 1.02708e-17
6864.23632 1.02170e-17
6866.31467 1.01632e-17
6868.39302 1.01094e-17
6870.47137 1.00556e-17
6872.53954 1.00018e-17
6874.61789 9.94801e-18
6876.69624 9.89424e-18
6878.77459 9.87935e-18
6880.85294 1.04688e-17
6882.93130 1.09765e-17
6885.00965 1.08090e-17
6887.07781 1.03415e-17
6889.15616 1.00521e-17
6891.23452 9.84390e-18
6893.31287 9.57712e-18
6895.39122 9.67031e-18
6897.46957 1.00661e-17
6899.54792 1.03806e-17
6901.62628 1.01731e-17
6903.69444 9.81259e-18
6905.77279 9.89157e-18
6907.85114 1.02176e-17
6909.92950 1.03845e-17
6912.00785 1.01865e-17
6914.08620 9.91553e-18
6916.16455 9.84047e-18
6918.24290 1.02438e-17
6920.31107 1.09434e-17
6922.38942 1.10491e-17
6924.46777 1.06552e-17
6926.54612 1.05205e-17
6928.62448 1.03713e-17
6930.70283 1.02195e-17
6932.78118 1.02421e-17
6934.85953 1.03224e-17
6936.92770 1.02123e-17
6939.00605 1.02275e-17
6941.08440 1.03910e-17
6943.16275 1.01712e-17
6945.24110 9.90624e-18
6947.31946 1.02865e-17
6949.39781 1.06288e-17
6951.46597 1.07436e-17
6953.54432 1.06680e-17
6955.62268 1.08314e-17
6957.70103 1.07207e-17
6959.77938 1.02647e-17
6961.85773 1.03008e-17
6963.93608 1.06206e-17
6966.01444 1.05135e-17
6968.08260 1.06543e-17
6970.16095 1.10295e-17
6972.23930 1.10761e-17
6974.31766 1.08071e-17
6976.39601 1.06748e-17
6978.47436 1.06040e-17
6980.55271 1.06821e-17
6982.63106 1.12215e-17
6984.69923 1.10781e-17
6986.77758 1.06759e-17
6988.85593 1.08014e-17
6990.93428 1.12508e-17
6993.01264 1.10278e-17
6995.09099 1.11166e-17
6997.16934 1.11597e-17
6999.24769 1.09074e-17
7001.31586 1.08512e-17
7003.39421 1.09456e-17
7005.47256 1.13732e-17
7007.55091 1.13379e-17
7009.62926 1.08144e-17
7011.70762 1.08827e-17
7013.78597 1.14337e-17
7015.86432 1.14702e-17
7017.93248 1.14920e-17
7020.01084 1.16793e-17
7022.08919 1.12703e-17
7024.16754 1.08561e-17
7026.24589 1.06763e-17
7028.32424 1.05037e-17
7030.40260 1.09037e-17
7032.48095 1.12641e-17
7034.54911 1.12283e-17
7036.62746 1.13778e-17
7038.70582 1.16056e-17
7040.78417 1.11170e-17
7042.86252 1.11124e-17
7044.94087 1.11200e-17
7047.01922 1.05103e-17
7049.08739 1.02540e-17
7051.16574 1.03885e-17
7053.24409 1.05365e-17
7055.32244 1.05476e-17
7057.40080 1.06118e-17
7059.47915 1.07136e-17
7061.55750 1.04435e-17
7063.63585 1.04060e-17
7065.70402 1.03802e-17
7067.78237 9.98143e-18
7069.86072 9.75614e-18
7071.93907 9.99196e-18
7074.01742 1.02057e-17
7076.09578 1.00169e-17
7078.17413 9.85122e-18
7080.25248 1.00450e-17
7082.32064 1.03063e-17
7084.39900 1.02587e-17
7086.47735 9.69124e-18
7088.55570 9.66647e-18
7090.63405 1.00268e-17
7092.71240 9.78658e-18
7094.79076 9.51302e-18
7096.86911 9.83591e-18
7098.93727 1.00041e-17
7101.01562 9.51364e-18
7103.09398 9.42040e-18
7105.17233 9.86261e-18
7107.25068 1.01481e-17
7109.32903 9.99125e-18
7111.40738 9.59074e-18
7113.47555 9.25424e-18
7115.55390 9.20846e-18
7117.63225 9.54325e-18
7119.71060 9.73659e-18
7121.78896 9.68686e-18
7123.86731 9.35769e-18
7125.94566 9.61362e-18
7128.02401 1.02336e-17
7130.09218 1.04496e-17
7132.17053 1.03862e-17
7134.24888 1.00670e-17
7136.32723 9.67732e-18
7138.40558 9.64646e-18
7140.48394 9.62297e-18
7142.56229 9.52718e-18
7144.64064 9.34036e-18
7146.70880 9.21609e-18
7148.78716 9.26848e-18
7150.86551 9.52348e-18
7152.94386 9.57747e-18
7155.02221 9.61887e-18
7157.10056 9.90135e-18
7159.17892 9.83810e-18
7161.24708 9.62902e-18
7163.32543 1.00013e-17
7165.40378 1.04451e-17
7167.48214 1.04297e-17
7169.56049 1.04227e-17
7171.63884 1.02098e-17
7173.71719 9.72942e-18
7175.79554 9.71732e-18
7177.87390 1.01455e-17
7179.94206 1.01269e-17
7182.02041 9.85778e-18
7184.09876 1.01632e-17
7186.17712 1.04547e-17
7188.25547 1.03955e-17
7190.33382 1.03973e-17
7192.41217 1.05001e-17
7194.48034 1.05836e-17
7196.55869 1.04199e-17
7198.63704 1.01647e-17
7200.71539 1.01690e-17
7202.79374 1.01284e-17
7204.87210 1.03185e-17
7206.95045 1.09203e-17
7209.02880 1.11646e-17
7211.09696 1.09435e-17
7213.17532 1.06886e-17
7215.25367 1.08178e-17
7217.33202 1.12826e-17
7219.41037 1.14995e-17
7221.48872 1.14576e-17
7223.56708 1.15478e-17
7225.64543 1.21183e-17
7227.71359 1.19761e-17
7229.79194 1.12948e-17
7231.87030 1.09113e-17
7233.94865 1.10094e-17
7236.02700 1.13731e-17
7238.10535 1.17186e-17
7240.18370 1.17607e-17
7242.26206 1.12760e-17
7244.33022 1.07664e-17
7246.40857 1.13709e-17
7248.48692 1.18759e-17
7250.56528 1.18584e-17
7252.64363 1.17272e-17
7254.72198 1.13562e-17
7256.80033 1.11599e-17
7258.86850 1.12227e-17
7260.94685 1.14531e-17
7263.02520 1.19630e-17
7265.10355 1.24230e-17
7267.18190 1.25563e-17
7269.26026 1.22408e-17
7271.33861 1.17025e-17
7273.41696 1.13739e-17
7275.48512 1.12767e-17
7277.56348 1.07779e-17
7279.64183 1.08243e-17
7281.72018 1.16108e-17
7283.79853 1.16798e-17
7285.87688 1.13426e-17
7287.95524 1.15725e-17
7290.03359 1.17293e-17
7292.10175 1.15617e-17
7294.18010 1.17032e-17
7296.25846 1.18379e-17
7298.33681 1.16082e-17
7300.41516 1.16171e-17
7302.49351 1.17255e-17
7304.57186 1.17493e-17
7306.65022 1.18860e-17
7308.71838 1.19199e-17
7310.79673 1.21235e-17
7312.87508 1.22055e-17
7314.95344 1.16327e-17
7317.03179 1.16606e-17
7319.11014 1.19333e-17
7321.18849 1.17224e-17
7323.26684 1.15599e-17
7325.33501 1.18274e-17
7327.41336 1.20625e-17
7329.49171 1.18385e-17
7331.57006 1.15623e-17
7333.64842 1.18456e-17
7335.72677 1.21794e-17
7337.80512 1.21759e-17
7339.88347 1.22675e-17
7341.95164 1.23698e-17
7344.02999 1.21643e-17
7346.10834 1.21153e-17
7348.18669 1.20482e-17
7350.26504 1.19379e-17
7352.34340 1.19678e-17
7354.42175 1.21338e-17
7356.48991 1.20370e-17
7358.56826 1.15445e-17
7360.64662 1.14857e-17
7362.72497 1.19516e-17
7364.80332 1.17129e-17
7366.88167 1.17600e-17
7368.96002 1.17734e-17
7371.03838 1.17529e-17
7373.10654 1.22541e-17
7375.18489 1.23913e-17
7377.26324 1.21928e-17
7379.34160 1.20030e-17
7381.41995 1.16463e-17
7383.49830 1.16494e-17
7385.57665 1.19777e-17
7387.65500 1.20080e-17
7389.72317 1.18992e-17
7391.80152 1.19619e-17
7393.87987 1.18359e-17
7395.95822 1.15759e-17
7398.03658 1.14900e-17
7400.11493 1.18234e-17
7402.19328 1.21966e-17
7404.27163 1.22172e-17
7406.33980 1.22892e-17
7408.41815 1.23032e-17
7410.49650 1.15578e-17
7412.57485 1.13906e-17
7414.65320 1.21115e-17
7416.73156 1.26342e-17
7418.80991 1.21954e-17
7420.87807 1.15969e-17
7422.95642 1.16534e-17
7425.03478 1.15682e-17
7427.11313 1.15556e-17
7429.19148 1.18516e-17
7431.26983 1.19107e-17
7433.34818 1.16927e-17
7435.42654 1.16341e-17
7437.49470 1.18882e-17
7439.57305 1.23174e-17
7441.65140 1.21185e-17
7443.72976 1.18516e-17
7445.80811 1.18080e-17
7447.88646 1.19489e-17
7449.96481 1.23528e-17
7452.04316 1.23246e-17
7454.11133 1.22211e-17
7456.18968 1.24127e-17
7458.26803 1.25165e-17
7460.34638 1.23208e-17
7462.42474 1.24267e-17
7464.50309 1.26495e-17
7466.58144 1.28607e-17
7468.65979 1.30242e-17
7470.72796 1.23522e-17
7472.80631 1.16206e-17
7474.88466 1.14129e-17
7476.96301 1.15062e-17
7479.04136 1.17672e-17
7481.11972 1.19120e-17
7483.19807 1.17358e-17
7485.27642 1.14153e-17
7487.34458 1.11972e-17
7489.42294 1.12509e-17
7491.50129 1.10231e-17
7493.57964 1.06094e-17
7495.65799 1.05610e-17
7497.73634 1.04960e-17
7499.81470 1.06064e-17
7501.89305 1.08645e-17
7503.96121 1.06081e-17
7506.03956 1.03208e-17
7508.11792 1.05281e-17
7510.19627 1.09504e-17
7512.27462 1.08286e-17
7514.35297 1.06253e-17
7516.43132 1.03711e-17
7518.49949 9.87743e-18
7520.57784 9.68910e-18
7522.65619 1.00802e-17
7524.73454 1.02055e-17
7526.81290 1.03616e-17
7528.89125 1.02094e-17
7530.96960 9.51857e-18
7533.04795 8.91664e-18
7535.11612 9.13706e-18
7537.19447 9.36164e-18
7539.27282 9.07437e-18
7541.35117 9.09773e-18
7543.42952 9.32770e-18
7545.50788 9.41092e-18
7547.58623 9.63867e-18
7549.66458 9.28341e-18
7551.73274 9.36078e-18
7553.81110 9.49422e-18
7555.88945 9.13260e-18
7557.96780 9.09625e-18
7560.04615 9.49680e-18
7562.12450 9.50893e-18
7564.20286 9.41362e-18
7566.28121 9.37804e-18
7568.34937 9.53670e-18
7570.42772 9.50114e-18
7572.50608 8.98569e-18
7574.58443 8.40796e-18
7576.66278 8.91975e-18
7578.74113 9.59689e-18
7580.81948 9.38093e-18
7582.88765 8.87548e-18
7584.96600 8.85121e-18
7587.04435 9.39234e-18
7589.12270 9.85366e-18
7591.20106 9.68720e-18
7593.27941 9.07025e-18
7595.35776 8.54333e-18
7597.43611 9.67846e-18
7599.50428 1.04671e-17
7601.58263 9.39728e-18
7603.66098 7.95758e-18
7605.73933 7.48441e-18
7607.81768 7.49870e-18
7609.89604 7.81659e-18
7611.97439 7.61610e-18
7614.05274 7.96404e-18
7616.12090 8.62116e-18
7618.19926 9.45494e-18
7620.27761 9.80650e-18
7622.35596 9.25387e-18
7624.43431 8.52260e-18
7626.51266 8.53959e-18
7628.59102 8.81846e-18
7630.65918 8.46193e-18
7632.73753 8.98318e-18
7634.81588 9.17989e-18
7636.89424 8.83232e-18
7638.97259 9.64721e-18
7641.05094 9.35175e-18
7643.12929 8.73309e-18
7645.20764 8.92058e-18
7647.28600 9.76847e-18
7649.35416 1.01887e-17
7651.43251 9.49863e-18
7653.51086 9.10825e-18
7655.58922 9.57749e-18
7657.66757 9.75411e-18
7659.74592 9.27914e-18
7661.82427 9.29060e-18
7663.89244 9.94345e-18
7665.97079 1.02374e-17
7668.04914 1.03539e-17
7670.12749 1.02382e-17
7672.20584 9.67138e-18
7674.28420 9.81434e-18
7676.36255 1.03184e-17
7678.44090 1.04850e-17
7680.50906 1.05206e-17
7682.58742 1.05375e-17
7684.66577 1.03656e-17
7686.74412 1.04308e-17
7688.82247 1.04460e-17
7690.90082 1.05935e-17
7692.97918 1.03879e-17
7695.05753 1.00053e-17
7697.12569 9.91232e-18
7699.20404 1.06367e-17
7701.28240 1.11930e-17
7703.36075 1.10690e-17
7705.43910 1.05919e-17
7707.51745 1.06401e-17
7709.59580 1.16763e-17
7711.67416 1.20113e-17
7713.74232 1.12736e-17
7715.82067 1.08960e-17
7717.89902 1.11298e-17
7719.97738 1.12750e-17
7722.05573 1.14348e-17
7724.13408 1.19262e-17
7726.21243 1.25254e-17
7728.28060 1.29157e-17
7730.35895 1.23168e-17
7732.43730 1.17508e-17
7734.51565 1.22553e-17
7736.59400 1.24377e-17
7738.67236 1.18646e-17
7740.75071 1.18449e-17
7742.82906 1.20150e-17
7744.89722 1.18570e-17
7746.97558 1.21967e-17
7749.05393 1.33506e-17
7751.13228 1.36670e-17
7753.21063 1.29949e-17
7755.28898 1.25600e-17
7757.36734 1.26435e-17
7759.44569 1.27386e-17
7761.51385 1.27121e-17
7763.59220 1.28257e-17
7765.67056 1.27864e-17
7767.74891 1.27005e-17
7769.82726 1.28646e-17
7771.90561 1.24945e-17
7773.98396 1.23765e-17
7776.06232 1.26555e-17
7778.13048 1.23247e-17
7780.20883 1.23083e-17
7782.28718 1.25694e-17
7784.36554 1.26791e-17
7786.44389 1.27659e-17
7788.52224 1.33798e-17
7790.60059 1.35334e-17
7792.67894 1.28416e-17
7794.74711 1.26063e-17
7796.82546 1.31275e-17
7798.90381 1.33731e-17
7800.98216 1.29524e-17
7803.06052 1.28785e-17
7805.13887 1.29006e-17
7807.21722 1.29371e-17
7809.29557 1.28721e-17
7811.36374 1.29288e-17
7813.44209 1.32802e-17
7815.52044 1.41465e-17
7817.59879 1.43844e-17
7819.67714 1.38532e-17
7821.75550 1.35526e-17
7823.83385 1.28595e-17
7825.91220 1.28458e-17
7827.98036 1.28326e-17
7830.05872 1.28461e-17
7832.13707 1.32977e-17
7834.21542 1.25160e-17
7836.29377 1.18536e-17
7838.37212 1.28335e-17
7840.45048 1.33135e-17
7842.51864 1.31892e-17
7844.59699 1.27169e-17
7846.67534 1.24824e-17
7848.75370 1.25926e-17
7850.83205 1.26669e-17
7852.91040 1.21875e-17
7854.98875 1.17302e-17
7857.06710 1.14573e-17
7859.13527 1.13465e-17
7861.21362 1.16052e-17
7863.29197 1.23485e-17
7865.37032 1.30408e-17
7867.44868 1.27843e-17
7869.52703 1.16534e-17
7871.60538 1.18340e-17
7873.68373 1.20126e-17
7875.75190 1.21482e-17
7877.83025 1.18519e-17
7879.90860 1.14814e-17
7881.98695 1.13391e-17
7884.06530 1.13957e-17
7886.14366 1.14912e-17
7888.22201 1.12041e-17
7890.29017 1.09088e-17
7892.36852 1.13243e-17
7894.44688 1.17913e-17
7896.52523 1.16790e-17
7898.60358 1.16687e-17
7900.68193 1.14956e-17
7902.76028 1.11948e-17
7904.83864 1.11072e-17
7906.90680 1.10527e-17
7908.98515 1.14027e-17
7911.06350 1.18828e-17
7913.14186 1.24216e-17
7915.22021 1.19626e-17
7917.29856 1.14702e-17
7919.37691 1.12474e-17
7921.45526 1.12336e-17
7923.52343 1.13616e-17
7925.60178 1.13858e-17
7927.68013 1.14818e-17
7929.75848 1.19214e-17
7931.83684 1.17453e-17
7933.91519 1.11148e-17
7935.99354 1.11412e-17
7938.07189 1.10354e-17
7940.14006 1.10659e-17
7942.21841 1.16762e-17
7944.29676 1.17544e-17
7946.37511 1.09500e-17
7948.45346 1.01884e-17
7950.53182 1.07846e-17
7952.61017 1.14171e-17
7954.68852 1.05919e-17
7956.75668 1.05379e-17
7958.83504 1.01157e-17
7960.91339 1.00324e-17
7962.99174 1.02925e-17
7965.07009 1.13881e-17
7967.14844 1.22375e-17
7969.22680 1.16811e-17
7971.30515 1.12326e-17
7973.37331 1.13623e-17
7975.45166 1.10924e-17
7977.53002 1.01877e-17
7979.60837 1.01670e-17
7981.68672 1.10081e-17
7983.76507 1.12011e-17
7985.84342 1.08689e-17
7987.91159 1.08809e-17
7989.98994 1.12790e-17
7992.06829 1.12246e-17
7994.14664 1.11800e-17
7996.22500 1.17835e-17
7998.30335 1.18274e-17
8000.38170 1.12561e-17
8002.46005 1.10061e-17
8004.52822 1.06971e-17
8006.60657 1.03333e-17
8008.68492 1.03837e-17
8010.76327 1.09263e-17
8012.84162 1.04215e-17
8014.91998 9.71216e-18
8016.99833 1.02118e-17
8019.07668 1.06114e-17
8021.14484 1.01490e-17
8023.22320 1.02960e-17
8025.30155 1.06062e-17
8027.37990 1.03473e-17
8029.45825 9.84917e-18
8031.53660 1.00360e-17
8033.61496 1.02578e-17
8035.69331 1.04865e-17
8037.76147 1.07909e-17
8039.83982 1.09051e-17
8041.91818 1.06622e-17
8043.99653 1.04860e-17
8046.07488 1.05245e-17
8048.15323 1.01863e-17
8050.23158 9.68494e-18
8052.29975 9.86393e-18
8054.37810 1.01558e-17
8056.45645 9.97822e-18
8058.53480 9.85355e-18
8060.61316 9.52043e-18
8062.69151 9.24190e-18
8064.76986 9.17013e-18
8066.84821 9.44772e-18
8068.91638 9.62374e-18
8070.99473 9.68145e-18
8073.07308 9.98597e-18
8075.15143 9.97129e-18
8077.22978 9.88544e-18
8079.30814 1.02111e-17
8081.38649 1.02595e-17
8083.46484 9.77389e-18
8085.53300 9.77604e-18
8087.61136 9.81268e-18
8089.68971 9.18246e-18
8091.76806 8.92814e-18
8093.84641 9.32493e-18
8095.92476 9.46625e-18
8098.00312 9.93904e-18
8100.07128 1.02813e-17
8102.14963 9.87831e-18
8104.22798 9.28796e-18
8106.30634 9.26240e-18
8108.38469 9.19541e-18
8110.46304 8.98248e-18
8112.54139 9.21284e-18
8114.61974 9.41087e-18
8116.69810 8.97993e-18
8118.76626 8.59491e-18
8120.84461 8.65898e-18
8122.92296 8.71872e-18
8125.00132 8.65667e-18
8127.07967 8.70577e-18
8129.15802 8.73710e-18
8131.23637 8.57569e-18
8133.30454 8.17606e-18
8135.38289 7.96502e-18
8137.46124 8.08264e-18
8139.53959 8.16916e-18
8141.61794 8.35530e-18
8143.69630 8.56469e-18
8145.77465 8.49694e-18
8147.85300 8.23709e-18
8149.92116 7.84085e-18
8151.99952 8.18679e-18
8154.07787 8.54472e-18
8156.15622 8.30942e-18
8158.23457 8.07945e-18
8160.31292 7.89089e-18
8162.39128 7.60436e-18
8164.46963 7.30751e-18
8166.53779 7.24866e-18
8168.61614 7.49133e-18
8170.69450 7.20285e-18
8172.77285 6.60520e-18
8174.85120 6.58400e-18
8176.92955 6.63196e-18
8179.00790 6.76830e-18
8181.08626 6.96914e-18
8183.15442 6.80792e-18
8185.23277 6.31688e-18
8187.31112 5.95248e-18
8189.38948 6.06405e-18
8191.46783 5.93890e-18
8193.54618 6.06070e-18
8195.62453 6.24447e-18
8197.70288 6.14654e-18
8199.77105 5.24720e-18
8201.84940 4.72581e-18
8203.92775 5.35829e-18
8206.00610 6.15622e-18
8208.08446 5.81818e-18
8210.16281 5.44470e-18
8212.24116 5.58784e-18
8214.30932 5.56070e-18
8216.38768 5.66957e-18
8218.46603 5.95676e-18
8220.54438 5.88224e-18
8222.62273 5.51948e-18
8224.70108 5.85795e-18
8226.77944 6.29431e-18
8228.85779 5.68562e-18
8230.92595 4.79494e-18
8233.00430 5.15616e-18
8235.08266 5.26759e-18
8237.16101 4.83218e-18
8239.23936 4.79921e-18
8241.31771 4.82504e-18
8243.39606 4.64548e-18
8245.47442 4.33052e-18
8247.54258 4.34747e-18
8249.62093 4.80129e-18
8251.69928 4.96264e-18
8253.77764 4.99417e-18
8255.85599 5.24768e-18
8257.93434 4.63834e-18
8260.01269 4.06691e-18
8262.08086 5.05705e-18
8264.15921 5.83931e-18
8266.23756 5.57519e-18
8268.31591 4.95450e-18
8270.39426 5.10067e-18
8272.47262 4.85628e-18
8274.55097 3.87654e-18
8276.62932 4.04505e-18
8278.70767 5.29953e-18
8280.77584 5.45334e-18
8282.85419 4.96370e-18
8284.93254 5.50198e-18
8287.01089 5.48492e-18
8289.08924 4.72650e-18
8291.16760 4.70753e-18
8293.24595 3.84624e-18
8295.32430 3.47158e-18
8297.39246 4.48633e-18
8299.47082 4.25693e-18
8301.54917 3.98020e-18
8303.62752 4.63536e-18
8305.70587 4.62708e-18
8307.78422 4.45664e-18
8309.86258 4.65823e-18
8311.93074 4.76737e-18
8314.00909 4.88035e-18
8316.08744 4.89057e-18
8318.16580 4.75460e-18
8320.24415 4.90519e-18
8322.32250 4.82642e-18
8324.40085 5.11817e-18
8326.47920 4.97734e-18
8328.54737 4.24716e-18
8330.62572 4.84757e-18
8332.70407 4.60317e-18
8334.78242 5.19789e-18
8336.86078 5.94695e-18
8338.93913 5.96848e-18
8341.01748 5.94302e-18
8343.08564 6.12119e-18
8345.16400 5.78942e-18
8347.24235 5.74348e-18
8349.32070 5.42226e-18
8351.39905 5.21896e-18
8353.47740 5.40483e-18
8355.55576 5.46658e-18
8357.63411 5.31187e-18
8359.70227 5.36772e-18
8361.78062 5.51358e-18
8363.85898 5.79873e-18
8365.93733 6.14389e-18
8368.01568 6.35091e-18
8370.09403 5.25762e-18
8372.17238 4.77697e-18
8374.25074 5.01170e-18
8376.31890 5.41639e-18
8378.39725 5.73078e-18
8380.47560 5.73046e-18
8382.55396 5.14987e-18
8384.63231 5.02676e-18
8386.71066 5.48546e-18
8388.78901 5.86053e-18
8390.86736 5.35371e-18
8392.93553 4.88640e-18
8395.01388 5.32671e-18
8397.09223 4.87334e-18
8399.17058 5.21223e-18
8401.24894 5.95262e-18
8403.32729 5.71079e-18
8405.40564 5.45877e-18
8407.47380 5.46618e-18
8409.55216 5.23327e-18
8411.63051 5.22563e-18
8413.70886 5.62203e-18
8415.78721 5.89112e-18
8417.86556 6.00238e-18
8419.94392 6.29289e-18
8422.02227 6.12216e-18
8424.09043 5.74065e-18
8426.16878 6.23855e-18
8428.24714 6.88805e-18
8430.32549 6.58701e-18
8432.40384 6.10991e-18
8434.48219 6.28427e-18
8436.56054 6.35511e-18
8438.63890 6.23259e-18
8440.71725 6.40166e-18
8442.78541 6.68613e-18
8444.86376 6.58790e-18
8446.94212 6.78854e-18
8449.02047 6.83152e-18
8451.09882 6.71716e-18
8453.17717 6.72239e-18
8455.25552 6.76623e-18
8457.32369 6.84457e-18
8459.40204 6.71136e-18
8461.48039 6.43801e-18
8463.55874 5.75363e-18
8465.63710 5.76295e-18
8467.71545 7.05796e-18
8469.79380 7.81933e-18
8471.87215 8.39893e-18
8473.95050 7.64109e-18
8476.01867 7.38047e-18
8478.09702 7.51017e-18
8480.17537 7.14667e-18
8482.25372 7.35062e-18
8484.33208 7.98449e-18
8486.41043 8.86755e-18
8488.48878 8.71249e-18
8490.55694 8.54043e-18
8492.63530 8.76755e-18
8494.71365 8.70757e-18
8496.79200 8.40030e-18
8498.87035 8.02973e-18
8500.94870 7.91287e-18
8503.02706 8.42414e-18
8505.10541 8.74327e-18
8507.17357 8.20772e-18
8509.25192 8.05877e-18
8511.33028 9.07705e-18
8513.40863 9.28533e-18
8515.48698 9.28403e-18
8517.56533 9.45620e-18
8519.64368 9.39262e-18
8521.71185 9.41308e-18
8523.79020 9.46212e-18
8525.86855 9.23944e-18
8527.94690 9.88927e-18
8530.02526 1.05332e-17
8532.10361 1.06036e-17
8534.18196 1.04100e-17
8536.26031 1.01808e-17
8538.32848 1.00611e-17
8540.40683 1.01867e-17
8542.48518 1.05982e-17
8544.56353 1.09062e-17
8546.64188 1.14052e-17
8548.72024 1.16372e-17
8550.79859 1.10242e-17
8552.87694 1.06560e-17
8554.94510 1.07615e-17
8557.02346 1.07256e-17
8559.10181 1.16777e-17
8561.18016 1.23979e-17
8563.25851 1.23563e-17
8565.33686 1.20447e-17
8567.41522 1.16315e-17
8569.49357 1.23360e-17
8571.56173 1.26118e-17
8573.64008 1.22922e-17
8575.71844 1.28049e-17
8577.79679 1.34558e-17
8579.87514 1.28093e-17
8581.95349 1.25149e-17
8584.03184 1.25577e-17
8586.11020 1.25459e-17
8588.17836 1.28444e-17
8590.25671 1.34066e-17
8592.33506 1.39892e-17
8594.41342 1.38795e-17
8596.49177 1.36105e-17
8598.57012 1.37952e-17
8600.64847 1.38941e-17
8602.71664 1.44790e-17
8604.79499 1.54503e-17
8606.87334 1.53047e-17
8608.95169 1.46524e-17
8611.03004 1.40043e-17
8613.10840 1.42337e-17
8615.18675 1.44882e-17
8617.26510 1.42646e-17
8619.33326 1.44365e-17
8621.41162 1.53544e-17
8623.48997 1.58585e-17
8625.56832 1.56162e-17
8627.64667 1.56289e-17
8629.72502 1.60700e-17
8631.80338 1.60400e-17
8633.87154 1.53054e-17
8635.94989 1.52950e-17
8638.02824 1.58307e-17
8640.10660 1.60359e-17
8642.18495 1.62918e-17
8644.26330 1.65844e-17
8646.34165 1.71958e-17
8648.42000 1.74439e-17
8650.49836 1.66977e-17
8652.56652 1.65490e-17
8654.64487 1.68566e-17
8656.72322 1.67659e-17
8658.80158 1.67955e-17
8660.87993 1.74229e-17
8662.95828 1.85096e-17
8665.03663 1.86361e-17
8667.10480 1.74801e-17
8669.18315 1.75267e-17
8671.26150 1.83019e-17
8673.33985 1.83903e-17
8675.41820 1.83937e-17
8677.49656 1.82190e-17
8679.57491 1.82559e-17
8681.65326 1.85004e-17
8683.73161 1.86046e-17
8685.79978 1.88924e-17
8687.87813 1.86970e-17
8689.95648 1.82129e-17
8692.03483 1.81950e-17
8694.11318 1.86005e-17
8696.19154 1.85938e-17
8698.26989 1.77478e-17
8700.33805 1.78721e-17
8702.41640 1.80514e-17
8704.49476 1.79144e-17
8706.57311 1.80453e-17
8708.65146 1.83944e-17
8710.72981 1.87846e-17
8712.80816 1.87625e-17
8714.88652 1.82290e-17
8716.95468 1.77336e-17
8719.03303 1.80495e-17
8721.11138 1.81123e-17
8723.18974 1.82654e-17
8725.26809 1.79624e-17
8727.34644 1.73824e-17
8729.42479 1.69225e-17
8731.50314 1.69829e-17
8733.57131 1.72645e-17
8735.64966 1.73890e-17
8737.72801 1.76986e-17
8739.80636 1.71299e-17
8741.88472 1.61038e-17
8743.96307 1.64961e-17
8746.04142 1.70518e-17
8748.11977 1.70007e-17
8750.18794 1.73260e-17
8752.26629 1.69131e-17
8754.34464 1.63340e-17
8756.42299 1.65462e-17
8758.50134 1.64621e-17
8760.57970 1.60416e-17
8762.65805 1.67432e-17
8764.73640 1.57533e-17
8766.80456 1.63859e-17
8768.88292 1.76782e-17
8770.96127 1.71982e-17
8773.03962 1.60464e-17
8775.11797 1.53390e-17
8777.19632 1.51895e-17
8779.27468 1.55701e-17
8781.34284 1.57904e-17
8783.42119 1.56510e-17
8785.49954 1.54400e-17
8787.57790 1.57234e-17
8789.65625 1.64824e-17
8791.73460 1.53854e-17
8793.81295 1.49217e-17
8795.89130 1.52444e-17
8797.95947 1.53360e-17
8800.03782 1.51322e-17
8802.11617 1.49661e-17
8804.19452 1.50154e-17
8806.27288 1.63589e-17
8808.35123 1.65671e-17
8810.42958 1.53419e-17
8812.49774 1.47685e-17
8814.57610 1.45771e-17
8816.65445 1.44914e-17
8818.73280 1.50587e-17
8820.81115 1.58165e-17
8822.88950 1.61951e-17
8824.96786 1.59159e-17
8827.04621 1.43823e-17
8829.11437 1.36031e-17
8831.19272 1.45114e-17
8833.27108 1.58164e-17
8835.34943 1.63992e-17
8837.42778 1.55106e-17
8839.50613 1.52368e-17
8841.58448 1.46855e-17
8843.66284 1.49378e-17
8845.73100 1.40020e-17
8847.80935 1.29697e-17
8849.88770 1.37598e-17
8851.96606 1.40680e-17
8854.04441 1.34634e-17
8856.12276 1.33653e-17
8858.20111 1.38961e-17
8860.27946 1.37495e-17
8862.34763 1.38675e-17
8864.42598 1.38821e-17
8866.50433 1.32200e-17
8868.58268 1.29784e-17
8870.66104 1.35283e-17
8872.73939 1.46368e-17
8874.81774 1.51783e-17
8876.88590 1.40504e-17
8878.96426 1.34082e-17
8881.04261 1.35582e-17
8883.12096 1.35165e-17
8885.19931 1.43908e-17
8887.27766 1.28273e-17
8889.35602 1.33332e-17
8891.43437 1.38518e-17
8893.50253 1.28407e-17
8895.58088 1.23888e-17
8897.65924 1.28210e-17
8899.73759 1.26624e-17
8901.81594 1.35857e-17
8903.89429 1.34427e-17
8905.97264 1.33532e-17
8908.05100 1.29544e-17
8910.12935 1.30621e-17
8912.19751 1.33519e-17
8914.27586 1.30537e-17
8916.35422 1.32517e-17
8918.43257 1.40673e-17
8920.51092 1.31911e-17
8922.58927 1.25199e-17
8924.66762 1.32763e-17
8926.74598 1.39431e-17
8928.81414 1.38650e-17
8930.89249 1.30596e-17
8932.97084 1.28969e-17
8935.04920 1.28274e-17
8937.12755 1.30173e-17
8939.20590 1.24693e-17
8941.28425 1.26453e-17
8943.36260 1.36615e-17
8945.43077 1.37779e-17
8947.50912 1.30022e-17
8949.58747 1.25543e-17
8951.66582 1.26472e-17
8953.74418 1.31529e-17
8955.82253 1.41409e-17
8957.90088 1.37491e-17
8959.96904 1.24296e-17
8962.04740 1.11778e-17
8964.12575 1.15515e-17
8966.20410 1.21938e-17
8968.28245 1.27417e-17
8970.36080 1.31549e-17
8972.43916 1.26099e-17
8974.51751 1.16546e-17
8976.58567 1.19362e-17
8978.66402 1.29130e-17
8980.74238 1.35737e-17
8982.82073 1.27433e-17
8984.89908 1.30233e-17
8986.97743 1.41662e-17
8989.05578 1.18260e-17
8991.12395 1.04172e-17
8993.20230 1.10761e-17
8995.28065 1.14949e-17
8997.35900 1.33586e-17
8999.43736 1.28748e-17
9001.51571 1.26287e-17
9003.59406 1.29691e-17
9005.67241 1.20185e-17
9007.74058 1.09428e-17
9009.81893 1.10878e-17
9011.89728 1.15869e-17
9013.97563 1.15965e-17
9016.05398 1.19706e-17
9018.13234 1.22351e-17
9020.21069 1.16558e-17
9022.28904 1.12699e-17
9024.35720 1.08355e-17
9026.43556 1.07618e-17
9028.51391 1.11702e-17
9030.59226 1.09731e-17
9032.67061 1.10285e-17
9034.74896 1.14450e-17
9036.82732 1.07891e-17
9038.90567 1.12669e-17
9040.97383 1.16911e-17
9043.05218 1.15772e-17
9045.13054 1.13372e-17
9047.20889 1.20625e-17
9049.28724 1.29842e-17
9051.36559 1.22291e-17
9053.44394 1.10115e-17
9055.52230 1.14313e-17
9057.59046 1.18330e-17
9059.66881 1.15703e-17
9061.74716 1.11740e-17
9063.82552 1.11713e-17
9065.90387 1.20758e-17
9067.98222 1.23012e-17
9070.06057 1.11195e-17
9072.12874 1.04098e-17
9074.20709 1.06176e-17
9076.28544 1.03619e-17
9078.36379 1.11956e-17
9080.44214 1.13213e-17
9082.52050 1.05482e-17
9084.59885 1.07407e-17
9086.67720 1.16713e-17
9088.74536 1.18516e-17
9090.82372 1.07045e-17
9092.90207 1.02472e-17
9094.98042 1.07303e-17
9097.05877 1.09513e-17
9099.13712 9.75265e-18
9101.21548 9.48126e-18
9103.28364 1.07765e-17
9105.36199 1.17729e-17
9107.44034 1.14280e-17
9109.51870 1.03227e-17
9111.59705 9.07304e-18
9113.67540 9.90071e-18
9115.75375 1.01270e-17
9117.83210 9.95775e-18
9119.91046 9.80684e-18
9121.97862 9.42318e-18
9124.05697 9.85721e-18
9126.13532 1.09847e-17
9128.21368 1.06417e-17
9130.29203 9.74326e-18
9132.37038 9.79964e-18
9134.44873 9.71977e-18
9136.51690 9.54423e-18
9138.59525 9.08548e-18
9140.67360 9.34628e-18
9142.75195 9.47453e-18
9144.83030 9.68589e-18
9146.90866 9.48710e-18
9148.98701 9.55296e-18
9151.06536 9.73923e-18
9153.14371 1.00576e-17
9155.21188 1.06502e-17
9157.29023 9.98418e-18
9159.36858 8.84183e-18
9161.44693 9.28340e-18
9163.52528 1.05594e-17
9165.60364 1.09032e-17
9167.68199 1.05074e-17
9169.75015 1.11188e-17
9171.82850 1.22061e-17
9173.90686 1.12933e-17
9175.98521 8.87425e-18
9178.06356 8.57529e-18
9180.14191 9.49156e-18
9182.22026 9.79028e-18
9184.29862 9.56120e-18
9186.36678 9.48596e-18
9188.44513 9.09549e-18
9190.52348 9.24807e-18
9192.60184 9.27066e-18
9194.68019 9.11855e-18
9196.75854 8.78904e-18
9198.83689 9.78782e-18
9200.90506 1.14358e-17
9202.98341 1.16643e-17
9205.06176 1.09333e-17
9207.14011 1.06889e-17
9209.21846 1.07829e-17
9211.29682 1.10731e-17
9213.37517 1.12276e-17
9215.45352 1.06410e-17
9217.53187 1.05706e-17
9218.11420 1.05706e-17
9218.97566 1.07190e-17
9219.83712 1.08672e-17
9220.69859 1.09958e-17
9221.56005 1.11244e-17
9222.42151 1.12409e-17
9223.28297 1.13574e-17
9224.14443 1.14488e-17
9225.00590 1.15402e-17
9225.87737 1.15975e-17
9226.73884 1.16547e-17
9227.60030 1.16683e-17
9228.46176 1.16818e-17
9229.32322 1.16481e-17
9230.18468 1.16143e-17
9231.04615 1.15717e-17
9231.90761 1.15291e-17
9232.76907 1.15219e-17
9233.63053 1.15149e-17
9234.49199 1.15335e-17
9235.35346 1.15521e-17
9236.22494 1.15714e-17
9237.08640 1.15908e-17
9237.94786 1.16222e-17
9238.80932 1.16537e-17
9239.67078 1.17207e-17
9240.53225 1.17878e-17
9241.39371 1.19017e-17
9242.25517 1.20157e-17
9243.11663 1.21810e-17
9243.97809 1.23464e-17
9244.84957 1.25487e-17
9245.71103 1.27511e-17
9246.57250 1.29576e-17
9247.43396 1.31641e-17
9248.29542 1.33560e-17
9249.15688 1.35478e-17
9250.01834 1.37290e-17
9250.87981 1.39102e-17
9251.74127 1.40715e-17
9252.60273 1.42327e-17
9253.46419 1.43355e-17
9254.32565 1.44382e-17
9255.19713 1.44761e-17
9256.05860 1.45138e-17
9256.92006 1.45621e-17
9257.78152 1.46104e-17
9258.64298 1.47255e-17
9259.50444 1.48408e-17
9260.36591 1.50056e-17
9261.22737 1.51707e-17
9262.08883 1.53549e-17
9262.95029 1.55392e-17
9263.81175 1.56763e-17
9264.68323 1.58132e-17
9265.54469 1.58395e-17
9266.40616 1.58655e-17
9267.26762 1.57828e-17
9268.12908 1.56998e-17
9268.99054 1.55342e-17
9269.85200 1.53685e-17
9270.71347 1.51818e-17
9271.57493 1.49951e-17
9272.43639 1.48606e-17
9273.29785 1.47264e-17
9274.16933 1.47022e-17
9275.03079 1.46784e-17
9275.89226 1.48069e-17
9276.75372 1.49359e-17
9277.61518 1.51955e-17
9278.47664 1.54554e-17
9279.33810 1.57746e-17
9280.19957 1.60939e-17
9281.06103 1.63955e-17
9281.92249 1.66971e-17
9282.79397 1.69066e-17
9283.65543 1.71160e-17
9284.51689 1.71744e-17
9285.37835 1.72322e-17
9286.23982 1.71042e-17
9287.10128 1.69757e-17
9287.96274 1.66768e-17
9288.82420 1.63772e-17
9289.68566 1.60021e-17
9290.54713 1.56268e-17
9291.40859 1.52858e-17
9292.27005 1.49449e-17
9293.14153 1.47831e-17
9294.00299 1.46217e-17
9294.86445 1.47338e-17
9295.72592 1.48467e-17
9296.58738 1.51351e-17
9297.44884 1.54240e-17
9298.31030 1.57591e-17
9299.17176 1.60944e-17
9300.03323 1.62999e-17
9300.89469 1.65049e-17
9301.75615 1.64112e-17
9302.62763 1.63167e-17
9303.48909 1.60865e-17
9304.35055 1.58560e-17
9305.21201 1.57553e-17
9306.07348 1.56550e-17
9306.93494 1.56219e-17
9307.79640 1.55889e-17
9308.65786 1.54303e-17
9309.51932 1.52714e-17
9310.38079 1.49963e-17
9311.24225 1.47208e-17
9312.11373 1.44431e-17
9312.97519 1.41654e-17
9313.83665 1.39967e-17
9314.69811 1.38283e-17
9315.55958 1.38955e-17
9316.42104 1.39634e-17
9317.28250 1.42419e-17
9318.14396 1.45210e-17
9319.00542 1.47666e-17
9319.86688 1.50121e-17
9320.72835 1.51291e-17
9321.58981 1.52457e-17
9322.46129 1.54589e-17
9323.32275 1.56725e-17
9324.18421 1.60312e-17
9325.04567 1.63904e-17
9325.90714 1.64346e-17
9326.76860 1.64780e-17
9327.63006 1.59241e-17
9328.49152 1.53685e-17
9329.35298 1.46617e-17
9330.21445 1.39545e-17
9331.07591 1.35260e-17
9331.94739 1.30984e-17
9332.80885 1.28650e-17
9333.67031 1.26322e-17
9334.53177 1.24694e-17
9335.39323 1.23068e-17
9336.25470 1.22175e-17
9337.11616 1.21283e-17
9337.97762 1.20910e-17
9338.83908 1.20538e-17
9339.70055 1.24482e-17
9340.56201 1.28437e-17
9341.43349 1.41839e-17
9342.29495 1.55268e-17
9343.15641 1.71542e-17
9344.01787 1.87823e-17
9344.87933 1.94853e-17
9345.74080 2.01855e-17
9346.60226 1.96027e-17
9347.46372 1.90160e-17
9348.32518 1.73536e-17
9349.18664 1.56882e-17
9350.04811 1.37107e-17
9350.90957 1.17323e-17
9351.78105 1.08497e-17
9352.64251 9.97027e-18
9353.50397 1.06451e-17
9354.36543 1.13244e-17
9355.22689 1.25368e-17
9356.08836 1.37506e-17
9356.94982 1.46429e-17
9357.81128 1.55343e-17
9358.67274 1.55950e-17
9359.53420 1.56533e-17
9360.39567 1.46613e-17
9361.26715 1.36662e-17
9362.12861 1.24249e-17
9362.99007 1.11830e-17
9363.85153 1.04508e-17
9364.71299 9.72019e-18
9365.57446 9.54091e-18
9366.43592 9.36323e-18
9367.29738 9.66373e-18
9368.15884 9.96557e-18
9369.02030 1.03691e-17
9369.89178 1.07729e-17
9370.75324 1.08479e-17
9371.61471 1.09219e-17
9372.47617 1.06949e-17
9373.33763 1.04670e-17
9374.19909 1.00991e-17
9375.06056 9.73088e-18
9375.92202 9.46876e-18
9376.78348 9.20694e-18
9377.64494 9.35171e-18
9378.50640 9.49763e-18
9379.37788 9.93508e-18
9380.23934 1.03734e-17
9381.10081 1.07157e-17
9381.96227 1.10578e-17
9382.82373 1.11816e-17
9383.68519 1.13047e-17
9384.54665 1.13213e-17
9385.40812 1.13376e-17
9386.26958 1.12780e-17
9387.13104 1.12181e-17
9387.99250 1.10299e-17
9388.85396 1.08414e-17
9389.72544 1.05218e-17
9390.58691 1.02018e-17
9391.44837 9.79898e-18
9392.30983 9.39592e-18
9393.17129 8.97594e-18
9394.03275 8.55593e-18
9394.89422 8.23610e-18
9395.75568 7.91656e-18
9396.61714 7.77626e-18
9397.47860 7.63647e-18
9398.34006 7.61685e-18
9399.21154 7.59758e-18
9400.07300 7.62469e-18
9400.93447 7.65193e-18
9401.79593 7.65468e-18
9402.65739 7.65734e-18
9403.51885 7.57352e-18
9404.38031 7.48945e-18
9405.24178 7.38896e-18
9406.10324 7.28843e-18
9406.96470 7.26946e-18
9407.82616 7.25070e-18
9408.69764 7.31430e-18
9409.55910 7.37815e-18
9410.42057 7.49020e-18
9411.28203 7.60238e-18
9412.14349 7.70986e-18
9413.00495 7.81732e-18
9413.86641 7.85735e-18
9414.72788 7.89716e-18
9415.58934 7.82782e-18
9416.45080 7.75816e-18
9417.31226 7.56650e-18
9418.17372 7.37449e-18
9419.04520 7.07392e-18
9419.90666 6.77304e-18
9420.76813 6.38364e-18
9421.62959 5.99399e-18
9422.49105 5.65511e-18
9423.35251 5.31639e-18
9424.21397 5.36065e-18
9425.07544 5.40603e-18
9425.93690 5.94022e-18
9426.79836 6.47582e-18
9427.65982 7.15123e-18
9428.53130 7.82701e-18
9429.39276 8.30743e-18
9430.25423 8.78728e-18
9431.11569 8.76149e-18
9431.97715 8.73425e-18
9432.83861 8.04460e-18
9433.70007 7.35305e-18
9434.56153 6.54637e-18
9435.42300 5.73939e-18
9436.28446 5.38768e-18
9437.14592 5.03732e-18
9438.01740 5.23070e-18
9438.87886 5.42567e-18
9439.74032 6.12711e-18
9440.60179 6.82999e-18
9441.46325 7.68324e-18
9442.32471 8.53689e-18
9443.18617 9.08342e-18
9444.04763 9.62905e-18
9444.90910 9.73771e-18
9445.77056 9.84509e-18
9446.63202 9.54451e-18
9447.49348 9.24275e-18
9448.36496 8.69519e-18
9449.22642 8.14694e-18
9450.08788 7.61347e-18
9450.94935 7.08004e-18
9451.81081 6.73075e-18
9452.67227 6.38201e-18
9453.53373 6.28320e-18
9454.39520 6.18512e-18
9455.25666 6.35335e-18
9456.11812 6.52236e-18
9456.98960 6.91682e-18
9457.85106 7.31190e-18
9458.71252 7.81449e-18
9459.57398 8.31735e-18
9460.43545 8.68974e-18
9461.29691 9.06172e-18
9462.15837 9.16029e-18
9463.01983 9.25809e-18
9463.88129 9.19505e-18
9464.74276 9.13157e-18
9465.60422 9.02422e-18
9466.47570 8.91676e-18
9467.33716 8.83716e-18
9468.19862 8.75764e-18
9469.06008 8.76365e-18
9469.92155 8.76992e-18
9470.78301 8.77281e-18
9471.64447 8.77567e-18
9472.50593 8.68087e-18
9473.36739 8.58579e-18
9474.22885 8.45249e-18
9475.09032 8.31909e-18
9475.96180 8.22781e-18
9476.82326 8.13666e-18
9477.68472 8.25434e-18
9478.54618 8.37262e-18
9479.40764 8.88745e-18
9480.26911 9.40342e-18
9481.13057 1.01110e-17
9481.99203 1.08192e-17
9482.85349 1.13242e-17
9483.71495 1.18286e-17
9484.57642 1.19226e-17
9485.43788 1.20154e-17
9486.30936 1.16254e-17
9487.17082 1.12340e-17
9488.03228 1.05189e-17
9488.89374 9.80285e-18
9489.75520 9.18075e-18
9490.61667 8.55893e-18
9491.47813 8.29728e-18
9492.33959 8.03670e-18
9493.20105 8.13059e-18
9494.06252 8.22553e-18
9494.92398 8.67365e-18
9495.79546 9.12278e-18
9496.65692 9.98219e-18
9497.51838 1.08428e-17
9498.37984 1.20229e-17
9499.24130 1.32039e-17
9500.10277 1.42430e-17
9500.96423 1.52815e-17
9501.82569 1.57801e-17
9502.68715 1.62770e-17
9503.54861 1.61719e-17
9504.41008 1.60649e-17
9505.28155 1.53969e-17
9506.14302 1.47273e-17
9507.00448 1.38433e-17
9507.86594 1.29588e-17
9508.72740 1.22717e-17
9509.58887 1.15853e-17
9510.45033 1.11355e-17
9511.31179 1.06864e-17
9512.17325 1.03923e-17
9513.03471 1.00987e-17
9513.89617 1.00407e-17
9514.75764 9.98333e-18
9515.62912 1.02763e-17
9516.49058 1.05702e-17
9517.35204 1.11806e-17
9518.21350 1.17918e-17
9519.07496 1.26069e-17
9519.93643 1.34226e-17
9520.79789 1.42441e-17
9521.65935 1.50655e-17
9522.52081 1.56199e-17
9523.38227 1.61736e-17
9524.24374 1.63690e-17
9525.11522 1.65634e-17
9525.97668 1.65434e-17
9526.83814 1.65228e-17
9527.69960 1.64197e-17
9528.56106 1.63165e-17
9529.42252 1.62351e-17
9530.28399 1.61538e-17
9531.14545 1.61526e-17
9532.00691 1.61518e-17
9532.86837 1.61380e-17
9533.72984 1.61242e-17
9534.60131 1.60193e-17
9535.46278 1.59142e-17
9536.32424 1.56945e-17
9537.18570 1.54744e-17
9538.04716 1.51524e-17
9538.90862 1.48302e-17
9539.77009 1.46998e-17
9540.63155 1.45700e-17
9541.49301 1.49085e-17
9542.35447 1.52484e-17
9543.21593 1.58572e-17
9544.08741 1.64667e-17
9544.94888 1.70500e-17
9545.81034 1.76332e-17
9546.67180 1.79024e-17
9547.53326 1.81706e-17
9548.39472 1.78299e-17
9549.25619 1.74875e-17
9550.11765 1.68800e-17
9550.97911 1.62717e-17
9551.84057 1.60885e-17
9552.70203 1.59064e-17
9553.57351 1.61944e-17
9554.43497 1.64836e-17
9555.29644 1.68343e-17
9556.15790 1.71851e-17
9557.01936 1.73233e-17
9557.88082 1.74608e-17
9558.74228 1.72032e-17
9559.60375 1.69447e-17
9560.46521 1.64050e-17
9561.32667 1.58647e-17
9562.18813 1.56668e-17
9563.05961 1.54700e-17
9563.92107 1.59358e-17
9564.78254 1.64035e-17
9565.64400 1.72016e-17
9566.50546 1.80006e-17
9567.36692 1.87745e-17
9568.22838 1.95482e-17
9569.08985 1.98724e-17
9569.95131 2.01955e-17
9570.81277 1.97774e-17
9571.67423 1.93571e-17
9572.53569 1.85651e-17
9573.40717 1.77720e-17
9574.26863 1.70438e-17
9575.13010 1.63160e-17
9575.99156 1.59444e-17
9576.85302 1.55738e-17
9577.71448 1.57899e-17
9578.57594 1.60077e-17
9579.43741 1.64481e-17
9580.29887 1.68891e-17
9581.16033 1.70233e-17
9582.02179 1.71567e-17
9582.89327 1.69145e-17
9583.75473 1.66712e-17
9584.61620 1.61567e-17
9585.47766 1.56413e-17
9586.33912 1.52255e-17
9587.20058 1.48100e-17
9588.06204 1.50579e-17
9588.92351 1.53077e-17
9589.78497 1.61486e-17
9590.64643 1.69913e-17
9591.51791 1.77770e-17
9592.37937 1.85628e-17
9593.24083 1.89439e-17
9594.10229 1.93240e-17
9594.96376 1.93340e-17
9595.82522 1.93430e-17
9596.68668 1.90522e-17
9597.54814 1.87606e-17
9598.40960 1.83330e-17
9599.27107 1.79052e-17
9600.13253 1.75218e-17
9600.99399 1.71384e-17
9601.86547 1.69422e-17
9602.72693 1.67464e-17
9603.58839 1.68308e-17
9604.44986 1.69161e-17
9605.31132 1.72656e-17
9606.17278 1.76158e-17
9607.03424 1.81516e-17
9607.89570 1.86878e-17
9608.75717 1.90692e-17
9609.61863 1.94502e-17
9610.48009 1.93488e-17
9611.35157 1.92459e-17
9612.21303 1.88010e-17
9613.07449 1.83552e-17
9613.93595 1.78294e-17
9614.79742 1.73033e-17
9615.65888 1.68791e-17
9616.52034 1.64552e-17
9617.38180 1.62850e-17
9618.24326 1.61156e-17
9619.10473 1.62385e-17
9619.96619 1.63622e-17
9620.82765 1.67358e-17
9621.69913 1.71102e-17
9622.56059 1.75998e-17
9623.42205 1.80898e-17
9624.28352 1.85079e-17
9625.14498 1.89258e-17
9626.00644 1.90937e-17
9626.86790 1.92608e-17
9627.72936 1.90109e-17
9628.59083 1.87598e-17
9629.45229 1.81413e-17
9630.31375 1.75218e-17
9631.17521 1.69008e-17
9632.04669 1.62797e-17
9632.90815 1.59403e-17
9633.76961 1.56016e-17
9634.63108 1.56543e-17
9635.49254 1.57082e-17
9636.35400 1.61413e-17
9637.21546 1.65756e-17
9638.07692 1.69783e-17
9638.93839 1.73809e-17
9639.79985 1.74136e-17
9640.67133 1.74451e-17
9641.53279 1.73198e-17
9642.39425 1.71939e-17
9643.25571 1.71582e-17
9644.11718 1.71229e-17
9644.97864 1.72367e-17
9645.84010 1.73513e-17
9646.70156 1.76390e-17
9647.56302 1.79272e-17
9648.42448 1.81967e-17
9649.28595 1.84659e-17
9650.15743 1.84666e-17
9651.01889 1.84662e-17
9651.88035 1.81972e-17
9652.74181 1.79272e-17
9653.60327 1.75008e-17
9654.46474 1.70737e-17
9655.32620 1.66440e-17
9656.18766 1.62143e-17
9657.04912 1.59594e-17
9657.91058 1.57050e-17
9658.77205 1.57244e-17
9659.64352 1.57446e-17
9660.50499 1.60626e-17
9661.36645 1.63814e-17
9662.22791 1.68973e-17
9663.08937 1.74138e-17
9663.95083 1.78647e-17
9664.81230 1.83155e-17
9665.67376 1.85494e-17
9666.53522 1.87828e-17
9667.39668 1.88802e-17
9668.25815 1.89772e-17
9669.11961 1.89842e-17
9669.99109 1.89909e-17
9670.85255 1.88297e-17
9671.71401 1.86678e-17
9672.57547 1.83170e-17
9673.43693 1.79656e-17
9674.29840 1.75687e-17
9675.15986 1.71714e-17
9676.02132 1.68713e-17
9676.88278 1.65716e-17
9677.74424 1.64683e-17
9678.61572 1.63656e-17
9679.47718 1.65252e-17
9680.33865 1.66856e-17
9681.20011 1.69767e-17
9682.06157 1.72679e-17
9682.92303 1.75071e-17
9683.78449 1.77462e-17
9684.64596 1.78794e-17
9685.50742 1.80121e-17
9686.36888 1.80318e-17
9687.23034 1.80511e-17
9688.10182 1.79763e-17
9688.96328 1.79012e-17
9689.82475 1.77782e-17
9690.68621 1.76550e-17
9691.54767 1.74921e-17
9692.40913 1.73291e-17
9693.27059 1.71019e-17
9694.13206 1.68743e-17
9694.99352 1.66162e-17
9695.85498 1.63580e-17
9696.71644 1.61607e-17
9697.57790 1.59636e-17
9698.44938 1.58727e-17
9699.31084 1.57821e-17
9700.17231 1.57803e-17
9701.03377 1.57788e-17
9701.89523 1.58287e-17
9702.75669 1.58786e-17
9703.61816 1.58967e-17
9704.47962 1.59146e-17
9705.34108 1.58469e-17
9706.20254 1.57791e-17
9707.06400 1.56777e-17
9707.93548 1.55763e-17
9708.79694 1.54951e-17
9709.65841 1.54139e-17
9710.51987 1.53823e-17
9711.38133 1.53507e-17
9712.24279 1.53877e-17
9713.10425 1.54249e-17
9713.96572 1.54794e-17
9714.82718 1.55339e-17
9715.68864 1.55444e-17
9716.55010 1.55548e-17
9717.41156 1.55037e-17
9718.28304 1.54524e-17
9719.14451 1.53326e-17
9720.00597 1.52125e-17
9720.86743 1.50881e-17
9721.72889 1.49636e-17
9722.59035 1.49332e-17
9723.45182 1.49030e-17
9724.31328 1.49232e-17
9725.17474 1.49436e-17
9726.03620 1.48859e-17
9726.89766 1.48280e-17
9727.76914 1.46468e-17
9728.63060 1.44652e-17
9729.49207 1.41845e-17
9730.35353 1.39034e-17
9731.21499 1.35829e-17
9732.07645 1.32624e-17
9732.93791 1.30124e-17
9733.79938 1.27627e-17
9734.66084 1.26518e-17
9735.52230 1.25414e-17
9736.38376 1.25564e-17
9737.25524 1.25717e-17
9738.11670 1.26815e-17
9738.97817 1.27917e-17
9739.83963 1.29356e-17
9740.70109 1.30797e-17
9741.56255 1.31976e-17
9742.42401 1.33155e-17
9743.28548 1.33755e-17
9744.14694 1.34354e-17
9745.00840 1.34187e-17
9745.86986 1.34018e-17
9746.74134 1.33340e-17
9747.60280 1.32661e-17
9748.46426 1.31823e-17
9749.32573 1.30984e-17
9750.18719 1.30070e-17
9751.04865 1.29156e-17
9751.91011 1.28210e-17
9752.77157 1.27263e-17
9753.63304 1.26254e-17
9754.49450 1.25244e-17
9755.35596 1.24106e-17
9756.22744 1.22967e-17
9757.08890 1.21937e-17
9757.95036 1.20907e-17
9758.81183 1.20335e-17
9759.67329 1.19764e-17
9760.53475 1.19921e-17
9761.39621 1.20080e-17
9762.25767 1.21198e-17
9763.11913 1.22319e-17
9763.98060 1.24046e-17
9764.84206 1.25775e-17
9765.71354 1.27120e-17
9766.57500 1.28464e-17
9767.43646 1.28940e-17
9768.29792 1.29415e-17
9769.15939 1.29342e-17
9770.02085 1.29267e-17
9770.88231 1.28917e-17
9771.74377 1.28565e-17
9772.60523 1.28072e-17
9773.46670 1.27578e-17
9774.32816 1.27115e-17
9775.19964 1.26652e-17
9776.06110 1.26354e-17
9776.92256 1.26057e-17
9777.78402 1.26016e-17
9778.64548 1.25976e-17
9779.50695 1.26308e-17
9780.36841 1.26641e-17
9781.22987 1.27377e-17
9782.09133 1.28115e-17
9782.95280 1.28619e-17
9783.81426 1.29122e-17
9784.68574 1.28699e-17
9785.54720 1.28274e-17
9786.40866 1.27262e-17
9787.27012 1.26248e-17
9788.13158 1.25278e-17
9788.99305 1.24307e-17
9789.85451 1.23600e-17
9790.71597 1.22894e-17
9791.57743 1.22543e-17
9792.43889 1.22193e-17
9793.30036 1.21962e-17
9794.16182 1.21731e-17
9795.03330 1.21121e-17
9795.89476 1.20510e-17
9796.75622 1.19667e-17
9797.61768 1.18824e-17
9798.47915 1.18476e-17
9799.34061 1.18128e-17
9800.20207 1.18517e-17
9801.06353 1.18908e-17
9801.92499 1.19689e-17
9802.78645 1.20471e-17
9803.64792 1.21296e-17
9804.51940 1.22121e-17
9805.38086 1.22583e-17
9806.24232 1.23044e-17
9807.10378 1.22944e-17
9807.96524 1.22842e-17
9808.82671 1.22573e-17
9809.68817 1.22302e-17
9810.54963 1.22235e-17
9811.41109 1.22169e-17
9812.27255 1.22540e-17
9813.13402 1.22913e-17
9813.99548 1.23831e-17
9814.86696 1.24752e-17
9815.72842 1.25565e-17
9816.58988 1.26377e-17
9817.45134 1.26389e-17
9818.31280 1.26399e-17
9819.17427 1.25702e-17
9820.03573 1.25003e-17
9820.89719 1.23890e-17
9821.75865 1.22776e-17
9822.62012 1.21676e-17
9823.48158 1.20576e-17
9824.35306 1.19989e-17
9825.21452 1.19403e-17
9826.07598 1.19255e-17
9826.93744 1.19108e-17
9827.79890 1.18995e-17
9828.66037 1.18882e-17
9829.52183 1.18705e-17
9830.38329 1.18527e-17
9831.24475 1.18404e-17
9832.10621 1.18282e-17
9832.97769 1.18186e-17
9833.83915 1.18091e-17
9834.70062 1.17866e-17
9835.56208 1.17640e-17
9836.42354 1.17213e-17
9837.28500 1.16785e-17
9838.14647 1.16197e-17
9839.00793 1.15609e-17
9839.86939 1.14910e-17
9840.73085 1.14210e-17
9841.59231 1.13424e-17
9842.45377 1.12637e-17
9843.32525 1.11853e-17
9844.18672 1.11069e-17
9845.04818 1.10565e-17
9845.90964 1.10062e-17
9846.77110 1.10058e-17
9847.63256 1.10054e-17
9848.49403 1.10481e-17
9849.35549 1.10910e-17
9850.21695 1.11644e-17
9851.07841 1.12379e-17
9851.93987 1.13301e-17
9852.81135 1.14224e-17
9853.67282 1.15194e-17
9854.53428 1.16164e-17
9855.39574 1.17094e-17
9856.25720 1.18023e-17
9857.11866 1.18846e-17
9857.98013 1.19670e-17
9858.84159 1.20211e-17
9859.70305 1.20751e-17
9860.56451 1.20808e-17
9861.42597 1.20864e-17
9862.29745 1.20409e-17
9863.15891 1.19953e-17
9864.02038 1.19074e-17
9864.88184 1.18194e-17
9865.74330 1.17051e-17
9866.60476 1.15906e-17
9867.46622 1.14728e-17
9868.32769 1.13549e-17
9869.18915 1.12467e-17
9870.05061 1.11386e-17
9870.92209 1.10385e-17
9871.78355 1.09385e-17
9872.64501 1.08483e-17
9873.50648 1.07581e-17
9874.36794 1.06855e-17
9875.22940 1.06129e-17
9876.09086 1.05640e-17
9876.95232 1.05151e-17
9877.81379 1.04955e-17
9878.67525 1.04760e-17
9879.53671 1.04883e-17
9880.39817 1.05007e-17
9881.26965 1.05410e-17
9882.13111 1.05813e-17
9882.99257 1.06424e-17
9883.85404 1.07034e-17
9884.71550 1.07720e-17
9885.57696 1.08406e-17
9886.43842 1.09025e-17
9887.29988 1.09643e-17
9888.16135 1.10060e-17
9889.02281 1.10477e-17
9889.88427 1.10581e-17
9890.74573 1.10684e-17
9891.61721 1.10472e-17
9892.47867 1.10260e-17
9893.34014 1.09788e-17
9894.20160 1.09316e-17
9895.06306 1.08646e-17
9895.92452 1.07975e-17
9896.78598 1.07170e-17
9897.64745 1.06365e-17
9898.50891 1.05530e-17
9899.37037 1.04694e-17
9900.23183 1.03967e-17
9901.09329 1.03240e-17
9901.96477 1.02643e-17
9902.82623 1.02047e-17
9903.68770 1.01464e-17
9904.54916 1.00881e-17
9905.41062 1.00338e-17
9906.27208 9.97954e-18
9907.13354 9.95490e-18
9907.99501 9.93033e-18
9908.85647 9.94747e-18
9909.71793 9.96474e-18
9910.57939 1.00120e-17
9911.45087 1.00594e-17
9912.31233 1.01178e-17
9913.17380 1.01762e-17
9914.03526 1.02056e-17
9914.89672 1.02348e-17
9915.75818 1.02033e-17
9916.61964 1.01715e-17
9917.48111 1.00901e-17
9918.34257 1.00086e-17
9919.20403 9.89694e-18
9920.07551 9.78519e-18
9920.93697 9.66539e-18
9921.79843 9.54558e-18
9922.65989 9.44017e-18
9923.52136 9.33482e-18
9924.38282 9.25370e-18
9925.24428 9.17266e-18
9926.10574 9.11968e-18
9926.96720 9.06680e-18
9927.82867 9.02731e-18
9928.69013 8.98785e-18
9929.56161 8.93852e-18
9930.42307 8.88915e-18
9931.28453 8.82239e-18
9932.14599 8.75557e-18
9933.00746 8.67470e-18
9933.86892 8.59378e-18
9934.73038 8.50565e-18
9935.59184 8.41751e-18
9936.45330 8.33206e-18
9937.31477 8.24660e-18
9938.17623 8.17692e-18
9939.03769 8.10728e-18
9939.90917 8.06982e-18
9940.77063 8.03246e-18
9941.63209 8.03174e-18
9942.49355 8.03114e-18
9943.35502 8.05013e-18
9944.21648 8.06917e-18
9945.07794 8.09316e-18
9945.93940 8.11715e-18
9946.80086 8.14241e-18
9947.66233 8.16768e-18
9948.52379 8.18994e-18
9949.39527 8.21219e-18
9950.25673 8.22329e-18
9951.11819 8.23436e-18
9951.97965 8.22905e-18
9952.84112 8.22370e-18
9953.70258 8.21253e-18
9954.56404 8.20134e-18
9955.42550 8.19592e-18
9956.28696 8.19052e-18
9957.14843 8.18310e-18
9958.00989 8.17567e-18
9958.88137 8.15553e-18
9959.74283 8.13532e-18
9960.60429 8.09699e-18
9961.46575 8.05860e-18
9962.32721 7.99854e-18
9963.18868 7.93840e-18
9964.05014 7.87459e-18
9964.91160 7.81077e-18
9965.77306 7.77324e-18
9966.63452 7.73580e-18
9967.49599 7.73160e-18
9968.36747 7.72750e-18
9969.22893 7.74505e-18
9970.09039 7.76266e-18
9970.95185 7.80015e-18
9971.81331 7.83771e-18
9972.67477 7.90376e-18
9973.53624 7.96989e-18
9974.39770 8.06092e-18
9975.25916 8.15201e-18
9976.12062 8.24852e-18
9976.98208 8.34503e-18
9977.85356 8.43152e-18
9978.71503 8.51797e-18
9979.57649 8.58702e-18
9980.43795 8.65603e-18
9981.29941 8.70504e-18
9982.16087 8.75400e-18
9983.02234 8.79340e-18
9983.88380 8.83277e-18
9984.74526 8.87307e-18
9985.60672 8.91338e-18
9986.46818 8.95981e-18
9987.32965 9.00624e-18
9988.20112 9.06150e-18
9989.06259 9.11678e-18
9989.92405 9.16141e-18
9990.78551 9.20601e-18
9991.64697 9.21793e-18
9992.50843 9.22974e-18
9993.36990 9.22553e-18
9994.23136 9.22126e-18
9995.09282 9.22921e-18
9995.95428 9.23721e-18
9996.81574 9.25252e-18
9997.67721 9.26785e-18
9998.54869 9.27247e-18
9999.41015 9.27704e-18
