# wavelength flux
3719.99538 4.14512e-18
3721.50320 4.75509e-18
3723.00084 5.36502e-18
3724.49848 5.97482e-18
3725.99611 5.97442e-18
3727.50394 5.45437e-18
3729.00157 7.23565e-18
3730.49921 7.11092e-18
3731.99684 5.27116e-18
3733.50467 5.43492e-18
3735.00230 8.59756e-18
3736.49994 1.04584e-17
3737.99758 8.91835e-18
3739.49521 8.06523e-18
3741.00304 6.82436e-18
3742.50067 6.11844e-18
3743.99831 6.36267e-18
3745.49594 6.93758e-18
3747.00377 6.45356e-18
3748.50140 5.61984e-18
3749.99904 7.63595e-18
3751.49668 8.06431e-18
3753.00450 7.39024e-18
3754.50214 4.44218e-18
3755.99977 3.42620e-18
3757.49741 5.89118e-18
3758.99504 4.33623e-18
3760.50287 7.73156e-18
3762.00050 5.95508e-18
3763.49814 4.08230e-18
3764.99578 5.70308e-18
3766.50360 7.28313e-18
3768.00124 5.06575e-18
3769.49887 6.31108e-18
3770.99651 4.83899e-18
3772.50433 6.99810e-18
3774.00197 7.10937e-18
3775.49960 4.10558e-18
3776.99724 4.17979e-18
3778.49488 4.31009e-18
3780.00270 4.44039e-18
3781.50034 4.48523e-18
3782.99797 4.53006e-18
3784.49561 4.57490e-18
3786.00343 4.61972e-18
3787.50107 4.66454e-18
3788.99870 4.70936e-18
3790.49634 4.75416e-18
3792.00416 4.79897e-18
3793.50180 4.84376e-18
3794.99944 4.88856e-18
3796.49707 4.93336e-18
3798.00490 4.97814e-18
3799.50253 5.02292e-18
3801.00017 5.06770e-18
3802.49780 5.11247e-18
3803.99544 5.15724e-18
3805.50326 5.20200e-18
3807.00090 5.24676e-18
3808.49854 5.29151e-18
3809.99617 5.33626e-18
3811.50400 5.38100e-18
3813.00163 5.42574e-18
3814.49927 5.47047e-18
3815.99690 5.51521e-18
3817.50473 5.55993e-18
3819.00236 1.81211e-18
3820.50000 4.19667e-18
3821.99764 9.29152e-18
3823.49527 8.25438e-18
3825.00310 5.50447e-18
3826.50073 8.69148e-18
3827.99837 8.39685e-18
3829.49600 6.32999e-18
3831.00383 6.34142e-18
3832.50146 3.83657e-18
3833.99910 5.00580e-18
3835.49674 7.40620e-18
3837.00456 4.90483e-18
3838.50220 3.73467e-18
3839.99983 6.62310e-18
3841.49747 9.54073e-18
3842.99510 8.16059e-18
3844.50293 6.07033e-18
3846.00056 4.66833e-18
3847.49820 6.31303e-18
3848.99584 5.86914e-18
3850.50366 5.95899e-18
3852.00130 4.50974e-18
3853.49893 3.65510e-18
3854.99657 9.68387e-18
3856.50439 1.14101e-17
3858.00203 9.84882e-18
3859.49966 5.69212e-18
3860.99730 8.12350e-18
3862.49494 8.49391e-18
3864.00276 8.95368e-18
3865.50040 7.55792e-18
3866.99803 6.05067e-18
3868.49567 6.70142e-18
3870.00349 6.49935e-18
3871.50113 5.92244e-18
3872.99876 5.20102e-18
3874.49640 6.28339e-18
3876.00422 8.23596e-18
3877.50186 9.04219e-18
3878.99950 8.71250e-18
3880.49713 7.94662e-18
3881.99477 6.64248e-18
3883.50259 6.51780e-18
3885.00023 9.05836e-18
3886.49786 8.66628e-18
3887.99550 8.33826e-18
3889.50332 9.93036e-18
3891.00096 6.92554e-18
3892.49860 6.72652e-18
3893.99623 7.92898e-18
3895.50406 5.85130e-18
3897.00169 8.78549e-18
3898.49933 1.12336e-17
3899.99696 6.05784e-18
3901.50479 6.53520e-18
3903.00242 8.83286e-18
3904.50006 1.12113e-17
3905.99770 7.53796e-18
3907.49533 6.92908e-18
3909.00316 8.65966e-18
3910.50079 7.31074e-18
3911.99843 9.75794e-18
3913.49606 9.32409e-18
3915.00389 1.07303e-17
3916.50152 9.21036e-18
3917.99916 1.14906e-17
3919.49680 6.85596e-18
3921.00462 3.95288e-18
3922.50226 8.75064e-18
3923.99989 8.25295e-18
3925.49753 7.42808e-18
3926.99516 1.11449e-17
3928.50299 1.34802e-17
3930.00062 8.26893e-18
3931.49826 1.02650e-17
3932.99590 8.82255e-18
3934.50372 7.47752e-18
3936.00136 1.13016e-17
3937.49899 1.02436e-17
3938.99663 1.14728e-17
3940.50445 1.13609e-17
3942.00209 1.10241e-17
3943.49972 9.26297e-18
3944.99736 7.00652e-18
3946.49500 7.40910e-18
3948.00282 9.06779e-18
3949.50046 8.78954e-18
3950.99809 9.49839e-18
3952.49573 1.04058e-17
3954.00355 9.51545e-18
3955.50119 9.48003e-18
3956.99882 1.06581e-17
3958.49646 1.19643e-17
3960.00428 1.10282e-17
3961.50192 9.94338e-18
3962.99956 9.84340e-18
3964.49719 9.76491e-18
3965.99483 1.13055e-17
3967.50265 1.01427e-17
3969.00029 9.30453e-18
3970.49792 1.17067e-17
3971.99556 9.40175e-18
3973.50338 5.94092e-18
3975.00102 8.02539e-18
3976.49866 7.63832e-18
3977.99629 8.55079e-18
3979.50412 8.74821e-18
3981.00175 9.76007e-18
3982.49939 1.21466e-17
3983.99702 1.17822e-17
3985.50485 9.08025e-18
3987.00248 1.03966e-17
3988.50012 1.00265e-17
3989.99776 1.09538e-17
3991.49539 1.22002e-17
3993.00322 9.88441e-18
3994.50085 9.72651e-18
3995.99849 1.15416e-17
3997.49612 1.00012e-17
3999.00395 9.11676e-18
4000.50158 8.73060e-18
4001.99922 9.41835e-18
4003.49686 9.28675e-18
4005.00468 1.00349e-17
4006.50232 8.22902e-18
4007.99995 8.19217e-18
4009.49759 9.78522e-18
4010.99522 1.10024e-17
4012.50305 8.37299e-18
4014.00068 8.49732e-18
4015.49832 1.09003e-17
4016.99596 1.12149e-17
4018.50378 7.61938e-18
4020.00142 9.36804e-18
4021.49905 1.16373e-17
4022.99669 7.64569e-18
4024.50451 5.07497e-18
4026.00215 8.26047e-18
4027.49978 9.14605e-18
4028.99742 7.86859e-18
4030.49506 8.45548e-18
4032.00288 1.07463e-17
4033.50052 9.74984e-18
4034.99815 8.51557e-18
4036.49579 8.78460e-18
4038.00361 7.45648e-18
4039.50125 5.59448e-18
4040.99888 7.99464e-18
4042.49652 7.92020e-18
4044.00434 1.13775e-17
4045.50198 1.22294e-17
4046.99962 1.18347e-17
4048.49725 9.79893e-18
4049.99489 8.96246e-18
4051.50271 1.01374e-17
4053.00035 6.92658e-18
4054.49798 7.32428e-18
4055.99562 7.78907e-18
4057.50344 8.75763e-18
4059.00108 1.23323e-17
4060.49872 1.26117e-17
4061.99635 1.11553e-17
4063.50418 1.04050e-17
4065.00181 9.25544e-18
4066.49945 9.34870e-18
4067.99708 7.86944e-18
4069.50491 8.59254e-18
4071.00254 1.09264e-17
4072.50018 9.23442e-18
4073.99782 7.17091e-18
4075.49545 8.14354e-18
4077.00328 8.73492e-18
4078.50091 7.69028e-18
4079.99855 7.38125e-18
4081.49618 9.64601e-18
4083.00401 1.00958e-17
4084.50164 9.30185e-18
4085.99928 7.82125e-18
4087.49692 8.89551e-18
4089.00474 9.68755e-18
4090.50238 1.06614e-17
4092.00001 1.04971e-17
4093.49765 1.02218e-17
4094.99528 1.05835e-17
4096.50311 9.76253e-18
4098.00074 8.73282e-18
4099.49838 8.91083e-18
4100.99602 9.34394e-18
4102.50384 9.35479e-18
4104.00148 8.94735e-18
4105.49911 1.01775e-17
4106.99675 9.90982e-18
4108.50457 7.65892e-18
4110.00221 7.81964e-18
4111.49984 9.76105e-18
4112.99748 1.03060e-17
4114.49512 9.78883e-18
4116.00294 9.12420e-18
4117.50058 8.52339e-18
4118.99821 8.04354e-18
4120.49585 8.13383e-18
4122.00367 7.46984e-18
4123.50131 7.84663e-18
4124.99894 8.20320e-18
4126.49658 7.86779e-18
4128.00440 7.15417e-18
4129.50204 8.19583e-18
4130.99968 8.77757e-18
4132.49731 9.78739e-18
4133.99495 6.76187e-18
4135.50277 7.11102e-18
4137.00041 9.77072e-18
4138.49804 7.21108e-18
4139.99568 8.91485e-18
4141.50350 9.62741e-18
4143.00114 7.87985e-18
4144.49878 1.07013e-17
4145.99641 1.16581e-17
4147.50424 1.05685e-17
4149.00187 1.01292e-17
4150.49951 8.35346e-18
4151.99714 6.60004e-18
4153.49478 7.64858e-18
4155.00260 7.37392e-18
4156.50024 7.43253e-18
4157.99788 7.48248e-18
4159.49551 6.63046e-18
4161.00334 7.93227e-18
4162.50097 9.12190e-18
4163.99861 8.09967e-18
4165.49624 7.87834e-18
4167.00407 6.74199e-18
4168.50170 6.48394e-18
4169.99934 7.73306e-18
4171.49698 6.29436e-18
4173.00480 7.11703e-18
4174.50244 1.06609e-17
4176.00007 9.69605e-18
4177.49771 1.06067e-17
4178.99534 1.27823e-17
4180.50317 9.50253e-18
4182.00080 7.33124e-18
4183.49844 8.83634e-18
4184.99608 8.31540e-18
4186.50390 7.60008e-18
4188.00154 7.97300e-18
4189.49917 6.65271e-18
4190.99681 6.73754e-18
4192.50463 7.91848e-18
4194.00227 5.65080e-18
4195.49990 6.78344e-18
4196.99754 8.39404e-18
4198.49518 7.64760e-18
4200.00300 8.32677e-18
4201.50064 7.58526e-18
4202.99827 6.09783e-18
4204.49591 8.03130e-18
4206.00373 9.74232e-18
4207.50137 1.08599e-17
4208.99900 9.26266e-18
4210.49664 8.26701e-18
4212.00446 7.35162e-18
4213.50210 8.83551e-18
4214.99974 7.78978e-18
4216.49737 7.41328e-18
4218.00520 8.43497e-18
4219.50283 6.70515e-18
4221.00047 8.15985e-18
4222.49810 1.02477e-17
4223.99574 9.02175e-18
4225.50356 7.00822e-18
4227.00120 7.33488e-18
4228.49884 7.98965e-18
4229.99647 7.64031e-18
4231.50430 9.10737e-18
4233.00193 6.04327e-18
4234.49957 6.12074e-18
4235.99720 7.80073e-18
4237.50503 8.66280e-18
4239.00266 9.43414e-18
4240.50030 8.34381e-18
4241.99794 8.25713e-18
4243.49557 8.69269e-18
4245.00340 8.09322e-18
4246.50103 7.75222e-18
4247.99867 1.05345e-17
4249.49630 9.73128e-18
4251.00413 9.29960e-18
4252.50176 8.05072e-18
4253.99940 7.39387e-18
4255.49704 7.04145e-18
4257.00486 7.16172e-18
4258.50250 6.75635e-18
4260.00013 8.57426e-18
4261.49777 8.81678e-18
4262.99540 9.41474e-18
4264.50323 7.07879e-18
4266.00086 5.85113e-18
4267.49850 5.68725e-18
4268.99614 7.78154e-18
4270.50396 1.03805e-17
4272.00160 8.77696e-18
4273.49923 8.03582e-18
4274.99687 6.45715e-18
4276.50469 9.49822e-18
4278.00233 1.06888e-17
4279.49996 8.77459e-18
4280.99760 8.52187e-18
4282.49524 7.87384e-18
4284.00306 6.97210e-18
4285.50070 5.73723e-18
4286.99833 1.01004e-17
4288.49597 9.19103e-18
4290.00379 7.58935e-18
4291.50143 6.97483e-18
4292.99906 6.39258e-18
4294.49670 6.28489e-18
4296.00452 7.12155e-18
4297.50216 9.02281e-18
4298.99980 7.98550e-18
4300.49743 8.01840e-18
4301.99507 8.98123e-18
4303.50289 7.52282e-18
4305.00053 7.72200e-18
4306.49816 9.38250e-18
4307.99580 9.16936e-18
4309.50362 8.95166e-18
4311.00126 7.83280e-18
4312.49890 5.49937e-18
4313.99653 7.32253e-18
4315.50436 8.29213e-18
4317.00199 6.01434e-18
4318.49963 7.08067e-18
4319.99726 8.93546e-18
4321.49490 7.92755e-18
4323.00272 8.57341e-18
4324.50036 8.74298e-18
4325.99800 8.11639e-18
4327.49563 8.57472e-18
4329.00346 9.29846e-18
4330.50109 8.86887e-18
4331.99873 7.94219e-18
4333.49636 8.99480e-18
4335.00419 9.66338e-18
4336.50182 8.05763e-18
4337.99946 7.21275e-18
4339.49710 8.28315e-18
4341.00492 7.21316e-18
4342.50256 7.37773e-18
4344.00019 7.29540e-18
4345.49783 6.66155e-18
4346.99546 6.00640e-18
4348.50329 6.76912e-18
4350.00092 8.48826e-18
4351.49856 8.70759e-18
4352.99620 8.35473e-18
4354.50402 8.47801e-18
4356.00166 9.65647e-18
4357.49929 8.51389e-18
4358.99693 7.13480e-18
4360.50475 8.33783e-18
4362.00239 7.77830e-18
4363.50002 7.40448e-18
4364.99766 8.08184e-18
4366.49530 7.98205e-18
4368.00312 7.06808e-18
4369.50076 7.59647e-18
4370.99839 8.13035e-18
4372.49603 7.38780e-18
4374.00385 6.57929e-18
4375.50149 7.61784e-18
4376.99912 8.05813e-18
4378.49676 8.04443e-18
4380.00458 6.81815e-18
4381.50222 5.46015e-18
4382.99986 6.17964e-18
4384.49749 7.19712e-18
4385.99513 7.90989e-18
4387.50295 7.23603e-18
4389.00059 6.61528e-18
4390.49822 7.46210e-18
4391.99586 7.88401e-18
4393.50368 9.44029e-18
4395.00132 8.26761e-18
4396.49896 7.65967e-18
4397.99659 8.61471e-18
4399.50442 8.67889e-18
4401.00205 5.88209e-18
4402.49969 6.83930e-18
4403.99732 8.19607e-18
4405.50515 7.93060e-18
4407.00278 7.38694e-18
4408.50042 7.22328e-18
4409.99806 8.54930e-18
4411.49569 9.21737e-18
4413.00352 8.81871e-18
4414.50115 6.40777e-18
4415.99879 6.43910e-18
4417.49642 6.47042e-18
4419.00425 6.50174e-18
4420.50188 6.53307e-18
4421.99952 6.56437e-18
4423.49716 6.59568e-18
4425.00498 6.62699e-18
4426.50262 6.65829e-18
4428.00025 6.68959e-18
4429.49789 6.72089e-18
4430.99552 6.75218e-18
4432.50335 6.78346e-18
4434.00098 6.81474e-18
4435.49862 6.84603e-18
4436.99626 6.87730e-18
4438.50408 6.90857e-18
4440.00172 6.93985e-18
4441.49935 6.97111e-18
4442.99699 7.00237e-18
4444.50481 7.03363e-18
4446.00245 7.06488e-18
4447.50008 7.09613e-18
4448.99772 7.12738e-18
4450.49536 7.15862e-18
4452.00318 7.18986e-18
4453.50082 7.22110e-18
4454.99845 7.25233e-18
4456.49609 7.28355e-18
4458.00391 7.31477e-18
4459.50155 7.34600e-18
4460.99918 7.37722e-18
4462.49682 7.40843e-18
4464.00464 7.43964e-18
4465.50228 7.47085e-18
4466.99992 7.50205e-18
4468.49755 7.53325e-18
4469.99519 7.56444e-18
4471.50301 7.59563e-18
4473.00065 7.62682e-18
4474.49828 7.65800e-18
4475.99592 7.68918e-18
4477.50374 8.59049e-18
4479.00138 7.56695e-18
4480.49902 5.89697e-18
4481.99665 9.59854e-18
4483.50448 1.11157e-17
4485.00211 7.41566e-18
4486.49975 7.77666e-18
4487.99738 1.12793e-17
4489.49502 8.09625e-18
4491.00284 7.47740e-18
4492.50048 8.15801e-18
4493.99812 9.74927e-18
4495.49575 8.91727e-18
4497.00358 9.28152e-18
4498.50121 9.67940e-18
4499.99885 9.18865e-18
4501.49648 1.00261e-17
4503.00431 9.20001e-18
4504.50194 8.08612e-18
4505.99958 9.28869e-18
4507.49722 1.14453e-17
4508.99485 1.00968e-17
4510.50268 8.55937e-18
4512.00031 9.08648e-18
4513.49795 1.07515e-17
4514.99558 1.14641e-17
4516.50341 1.03620e-17
4518.00104 9.86233e-18
4519.49868 8.85382e-18
4520.99632 9.24079e-18
4522.50414 1.06930e-17
4524.00178 9.44692e-18
4525.49941 8.49673e-18
4526.99705 9.71415e-18
4528.50487 1.09487e-17
4530.00251 1.08807e-17
4531.50014 1.05141e-17
4532.99778 1.08778e-17
4534.49542 9.76682e-18
4536.00324 8.62262e-18
4537.50088 1.00129e-17
4538.99851 1.03655e-17
4540.49615 1.11021e-17
4542.00397 1.07655e-17
4543.50161 1.04636e-17
4544.99924 1.18615e-17
4546.49688 1.10869e-17
4548.00470 9.99124e-18
4549.50234 1.13581e-17
4550.99998 1.22927e-17
4552.49761 1.23628e-17
4553.99525 1.18251e-17
4555.50307 1.09299e-17
4557.00071 1.18702e-17
4558.49834 1.08526e-17
4559.99598 1.21557e-17
4561.50380 1.38508e-17
4563.00144 1.25807e-17
4564.49908 1.23413e-17
4565.99671 1.24952e-17
4567.50454 1.22831e-17
4569.00217 1.21430e-17
4570.49981 1.17413e-17
4571.99744 1.10408e-17
4573.49508 1.23136e-17
4575.00290 1.19904e-17
4576.50054 1.04932e-17
4577.99818 1.30308e-17
4579.49581 1.43249e-17
4581.00364 1.37489e-17
4582.50127 1.28793e-17
4583.99891 1.44705e-17
4585.49654 1.40309e-17
4587.00437 1.28216e-17
4588.50200 1.32124e-17
4589.99964 1.26255e-17
4591.49728 1.22354e-17
4593.00510 1.31989e-17
4594.50274 1.27825e-17
4596.00037 1.34377e-17
4597.49801 1.50036e-17
4598.99564 1.44803e-17
4600.50347 1.35163e-17
4602.00110 1.25099e-17
4603.49874 1.24339e-17
4604.99638 1.23058e-17
4606.50420 1.21586e-17
4608.00184 1.40729e-17
4609.49947 1.52749e-17
4610.99711 1.33638e-17
4612.50493 1.21400e-17
4614.00257 1.35240e-17
4615.50020 1.46401e-17
4616.99784 1.49712e-17
4618.49548 1.28699e-17
4620.00330 1.16612e-17
4621.50094 1.32258e-17
4622.99857 1.38425e-17
4624.49621 1.33753e-17
4626.00403 1.34740e-17
4627.50167 1.23553e-17
4628.99930 1.35955e-17
4630.49694 1.29017e-17
4632.00476 1.30022e-17
4633.50240 1.38174e-17
4635.00004 1.55113e-17
4636.49767 1.24674e-17
4637.99531 1.05582e-17
4639.50313 1.27407e-17
4641.00077 1.42822e-17
4642.49840 1.32519e-17
4643.99604 1.35760e-17
4645.50386 1.28536e-17
4647.00150 1.26335e-17
4648.49914 1.37455e-17
4649.99677 1.37563e-17
4651.50460 1.32559e-17
4653.00223 1.41716e-17
4654.49987 1.37324e-17
4655.99750 1.23564e-17
4657.49514 1.21475e-17
4659.00296 1.36213e-17
4660.50060 1.49559e-17
4661.99824 1.46660e-17
4663.49587 1.28746e-17
4665.00370 1.24936e-17
4666.50133 1.32287e-17
4667.99897 1.23396e-17
4669.49660 1.24751e-17
4671.00443 1.21850e-17
4672.50206 1.28465e-17
4673.99970 1.32046e-17
4675.49734 1.25279e-17
4676.99497 1.14073e-17
4678.50280 1.06190e-17
4680.00043 1.03760e-17
4681.49807 1.16698e-17
4682.99570 1.12939e-17
4684.50353 1.07677e-17
4686.00116 1.15338e-17
4687.49880 1.18198e-17
4688.99644 1.23874e-17
4690.50426 1.24968e-17
4692.00190 1.11146e-17
4693.49953 1.19122e-17
4694.99717 1.28275e-17
4696.49480 1.06110e-17
4698.00263 1.17445e-17
4699.50026 9.65296e-18
4700.99790 1.04535e-17
4702.49554 1.14130e-17
4704.00336 1.11352e-17
4705.50100 1.11994e-17
4706.99863 9.20286e-18
4708.49627 1.10395e-17
4710.00409 1.00933e-17
4711.50173 1.02757e-17
4712.99936 9.48265e-18
4714.49700 1.01499e-17
4716.00482 1.14998e-17
4717.50246 1.12321e-17
4719.00010 1.13971e-17
4720.49773 1.10350e-17
4721.99537 8.99398e-18
4723.50319 1.03175e-17
4725.00083 1.09196e-17
4726.49846 1.05969e-17
4727.99610 1.15009e-17
4729.50392 1.07196e-17
4731.00156 9.58991e-18
4732.49920 1.04606e-17
4733.99683 9.91945e-18
4735.50466 9.84195e-18
4737.00229 9.59569e-18
4738.49993 9.32667e-18
4739.99756 9.89516e-18
4741.49520 9.42286e-18
4743.00302 8.79172e-18
4744.50066 9.30823e-18
4745.99830 1.07293e-17
4747.49593 1.03707e-17
4749.00376 1.02588e-17
4750.50139 9.89841e-18
4751.99903 8.72172e-18
4753.49666 8.47969e-18
4755.00449 8.50209e-18
4756.50212 9.88998e-18
4757.99976 1.04757e-17
4759.49740 9.30272e-18
4761.00522 9.10590e-18
4762.50286 9.92844e-18
4764.00049 9.54785e-18
4765.49813 9.76882e-18
4766.99576 8.81687e-18
4768.50359 8.97210e-18
4770.00122 8.77456e-18
4771.49886 8.55744e-18
4772.99650 1.00412e-17
4774.50432 9.38991e-18
4776.00196 9.20469e-18
4777.49959 8.83306e-18
4778.99723 9.18909e-18
4780.50505 8.46130e-18
4782.00269 6.69188e-18
4783.50032 7.90706e-18
4784.99796 7.90875e-18
4786.49560 8.48885e-18
4788.00342 7.99908e-18
4789.50106 7.29712e-18
4790.99869 8.90435e-18
4792.49633 9.63653e-18
4794.00415 9.80114e-18
4795.50179 8.82156e-18
4796.99942 9.32509e-18
4798.49706 9.20412e-18
4800.00488 9.42094e-18
4801.50252 9.73789e-18
4803.00016 9.18870e-18
4804.49779 8.97832e-18
4805.99543 9.02999e-18
4807.50325 8.39096e-18
4809.00089 7.98347e-18
4810.49852 9.16999e-18
4811.99616 9.07949e-18
4813.50398 9.65532e-18
4815.00162 9.65509e-18
4816.49926 8.23458e-18
4817.99689 8.34500e-18
4819.50472 8.74523e-18
4821.00235 8.82833e-18
4822.49999 9.32031e-18
4823.99762 1.02467e-17
4825.49526 1.06478e-17
4827.00308 9.39995e-18
4828.50072 9.30391e-18
4829.99836 9.40239e-18
4831.49599 9.82663e-18
4833.00382 9.04060e-18
4834.50145 7.63688e-18
4835.99909 8.83348e-18
4837.49672 8.63362e-18
4839.00455 1.04964e-17
4840.50218 1.03381e-17
4841.99982 1.00197e-17
4843.49746 9.52796e-18
4844.99509 9.94457e-18
4846.50292 8.33496e-18
4848.00055 8.81954e-18
4849.49819 8.66146e-18
4850.99582 9.47000e-18
4852.50365 9.00333e-18
4854.00128 8.64483e-18
4855.49892 8.67342e-18
4856.99656 7.79107e-18
4858.50438 8.93987e-18
4860.00202 1.01048e-17
4861.49965 9.46116e-18
4862.99729 8.70512e-18
4864.49492 8.63910e-18
4866.00275 8.49882e-18
4867.50038 8.40676e-18
4868.99802 8.83621e-18
4870.49566 8.46203e-18
4872.00348 8.61646e-18
4873.50112 8.05091e-18
4874.99875 8.21997e-18
4876.49639 8.95616e-18
4878.00421 9.54686e-18
4879.50185 1.02563e-17
4880.99948 8.70093e-18
4882.49712 8.62391e-18
4884.00494 1.04057e-17
4885.50258 1.05880e-17
4887.00022 9.75371e-18
4888.49785 9.53317e-18
4889.99549 9.97807e-18
4891.50331 9.95681e-18
4893.00095 9.51856e-18
4894.49858 9.90688e-18
4895.99622 1.05132e-17
4897.50404 9.41818e-18
4899.00168 9.33204e-18
4900.49932 9.15200e-18
4901.99695 9.56745e-18
4903.50478 9.66698e-18
4905.00241 9.96360e-18
4906.50005 1.07349e-17
4907.99768 1.04510e-17
4909.49532 1.02311e-17
4911.00314 1.10482e-17
4912.50078 9.98873e-18
4913.99842 1.02410e-17
4915.49605 1.02701e-17
4917.00388 1.03542e-17
4918.50151 1.08946e-17
4919.99915 1.12466e-17
4921.49678 1.11092e-17
4923.00461 1.00261e-17
4924.50224 1.15296e-17
4925.99988 1.13887e-17
4927.49752 1.21034e-17
4928.99515 1.09736e-17
4930.50298 1.00391e-17
4932.00061 1.11365e-17
4933.49825 1.13801e-17
4934.99588 1.13527e-17
4936.50371 1.13254e-17
4938.00134 1.12980e-17
4939.49898 1.12706e-17
4940.99662 1.12433e-17
4942.50444 1.12159e-17
4944.00208 1.11885e-17
4945.49971 1.11612e-17
4946.99735 1.11338e-17
4948.50517 1.11065e-17
4950.00281 1.10791e-17
4951.50044 1.10518e-17
4952.99808 1.10245e-17
4954.49572 1.09971e-17
4956.00354 1.09698e-17
4957.50118 1.09425e-17
4958.99881 1.09151e-17
4960.49645 1.08878e-17
4962.00427 1.08605e-17
4963.50191 1.08332e-17
4964.99954 1.08059e-17
4966.49718 1.07786e-17
4968.00500 1.07513e-17
4969.50264 1.07240e-17
4971.00028 1.06967e-17
4972.49791 1.06694e-17
4973.99555 9.74293e-18
4975.50337 8.52841e-18
4977.00101 9.78995e-18
4978.49864 1.07176e-17
4979.99628 1.03593e-17
4981.50410 1.04093e-17
4983.00174 9.34311e-18
4984.49938 1.11546e-17
4985.99701 9.89478e-18
4987.50484 9.81896e-18
4989.00247 9.40543e-18
4990.50011 1.00303e-17
4991.99774 9.14381e-18
4993.49538 9.97785e-18
4995.00320 9.52914e-18
4996.50084 9.08951e-18
4997.99848 7.86489e-18
4999.49611 8.44247e-18
5001.00394 9.83993e-18
5002.50157 8.81741e-18
5003.99921 9.55298e-18
5005.49684 9.74827e-18
5007.00467 8.67457e-18
5008.50230 8.35844e-18
5009.99994 9.40775e-18
5011.49758 8.86572e-18
5012.99521 8.25264e-18
5014.50304 8.91479e-18
5016.00067 9.74261e-18
5017.49831 9.91663e-18
5018.99594 9.19851e-18
5020.50377 8.75169e-18
5022.00140 8.66892e-18
5023.49904 8.33157e-18
5024.99668 8.54349e-18
5026.50450 9.33629e-18
5028.00214 9.24235e-18
5029.49977 9.28802e-18
5030.99741 8.60500e-18
5032.49504 8.28149e-18
5034.00287 8.29857e-18
5035.50050 8.31565e-18
5036.99814 8.33272e-18
5038.49578 8.34980e-18
5040.00360 8.36687e-18
5041.50124 8.38394e-18
5042.99887 8.40101e-18
5044.49651 8.41807e-18
5046.00433 8.43514e-18
5047.50197 8.45220e-18
5048.99960 8.46926e-18
5050.49724 8.48633e-18
5051.99488 8.50338e-18
5053.50270 8.52044e-18
5055.00034 8.53750e-18
5056.49797 8.55455e-18
5057.99561 8.57160e-18
5059.50343 8.58865e-18
5061.00107 8.60569e-18
5062.49870 8.62274e-18
5063.99634 8.63978e-18
5065.50416 8.65682e-18
5067.00180 8.67386e-18
5068.49944 8.69090e-18
5069.99707 8.70794e-18
5071.50490 8.72497e-18
5073.00253 7.65053e-18
5074.50017 7.15753e-18
5075.99780 7.12935e-18
5077.49544 7.62117e-18
5079.00326 8.25325e-18
5080.50090 9.55139e-18
5081.99854 9.35484e-18
5083.49617 9.30261e-18
5085.00400 9.25040e-18
5086.50163 9.19820e-18
5087.99927 9.14599e-18
5089.49690 9.09380e-18
5091.00473 9.04162e-18
5092.50236 8.98944e-18
5094.00000 8.93725e-18
5095.49764 8.88509e-18
5096.99527 8.83293e-18
5098.50310 8.78077e-18
5100.00073 8.72862e-18
5101.49837 8.67648e-18
5102.99600 8.62433e-18
5104.50383 8.57220e-18
5106.00146 8.52008e-18
5107.49910 8.46795e-18
5108.99674 8.41584e-18
5110.50456 8.36374e-18
5112.00220 8.31163e-18
5113.49983 8.25954e-18
5114.99747 8.20746e-18
5116.49510 8.15538e-18
5118.00293 8.10329e-18
5119.50056 8.05123e-18
5120.99820 7.78314e-18
5122.49584 8.36873e-18
5124.00366 9.34295e-18
5125.50130 9.82579e-18
5126.99893 1.02280e-17
5128.49657 1.03398e-17
5130.00439 9.35542e-18
5131.50203 8.20222e-18
5132.99966 8.35748e-18
5134.49730 8.44905e-18
5136.00512 8.16614e-18
5137.50276 8.52738e-18
5139.00040 8.67298e-18
5140.49803 8.83722e-18
5141.99567 9.41339e-18
5143.50349 8.27491e-18
5145.00113 8.79156e-18
5146.49876 9.25656e-18
5147.99640 8.01291e-18
5149.50422 8.20807e-18
5151.00186 9.73205e-18
5152.49950 9.64260e-18
5153.99713 9.78290e-18
5155.50496 8.41446e-18
5157.00259 9.50710e-18
5158.50023 9.50779e-18
5159.99786 9.28304e-18
5161.49550 9.67759e-18
5163.00332 9.88276e-18
5164.50096 9.56007e-18
5165.99860 9.58736e-18
5167.49623 1.03224e-17
5169.00406 9.62909e-18
5170.50169 1.02037e-17
5171.99933 1.11913e-17
5173.49696 1.08564e-17
5175.00479 1.10270e-17
5176.50242 1.07270e-17
5178.00006 9.30867e-18
5179.49770 9.54507e-18
5180.99533 9.53461e-18
5182.50316 9.49843e-18
5184.00079 9.92840e-18
5185.49843 1.04031e-17
5186.99606 9.68775e-18
5188.50389 9.70490e-18
5190.00152 9.52150e-18
5191.49916 9.72222e-18
5192.99680 1.09205e-17
5194.50462 1.08448e-17
5196.00226 9.58137e-18
5197.49989 1.02906e-17
5198.99753 1.05882e-17
5200.49516 1.04066e-17
5202.00299 9.94257e-18
5203.50062 9.77985e-18
5204.99826 1.12050e-17
5206.49590 1.05983e-17
5208.00372 9.51012e-18
5209.50136 9.13217e-18
5210.99899 1.01415e-17
5212.49663 1.09399e-17
5214.00445 1.06274e-17
5215.50209 1.14824e-17
5216.99972 1.19433e-17
5218.49736 1.18462e-17
5219.99500 1.10608e-17
5221.50282 1.10323e-17
5223.00046 1.00748e-17
5224.49809 9.42799e-18
5225.99573 9.75827e-18
5227.50355 1.12144e-17
5229.00119 1.21390e-17
5230.49882 1.15335e-17
5231.99646 1.12977e-17
5233.50428 1.15103e-17
5235.00192 1.10818e-17
5236.49956 1.08046e-17
5237.99719 1.17913e-17
5239.49483 1.13525e-17
5241.00265 1.10833e-17
5242.50029 1.05518e-17
5243.99792 1.10567e-17
5245.49556 1.20102e-17
5247.00338 1.20739e-17
5248.50102 1.22443e-17
5249.99866 1.26150e-17
5251.49629 1.25292e-17
5253.00412 1.14167e-17
5254.50175 1.11861e-17
5255.99939 1.13106e-17
5257.49702 1.27965e-17
5259.00485 1.24640e-17
5260.50248 1.17014e-17
5262.00012 1.28179e-17
5263.49776 1.38949e-17
5264.99539 1.26529e-17
5266.50322 1.20358e-17
5268.00085 1.13732e-17
5269.49849 1.19019e-17
5270.99612 1.32608e-17
5272.50395 1.27880e-17
5274.00158 1.22407e-17
5275.49922 1.18102e-17
5276.99686 1.19205e-17
5278.50468 1.25106e-17
5280.00232 1.23420e-17
5281.49995 1.20908e-17
5282.99759 1.17410e-17
5284.49522 1.28764e-17
5286.00305 1.29764e-17
5287.50068 1.37042e-17
5288.99832 1.37274e-17
5290.49596 1.34288e-17
5292.00378 1.26184e-17
5293.50142 1.36267e-17
5294.99905 1.46706e-17
5296.49669 1.36895e-17
5298.00451 1.38085e-17
5299.50215 1.45218e-17
5300.99978 1.38189e-17
5302.49742 1.36598e-17
5303.99506 1.38303e-17
5305.50288 1.29495e-17
5307.00052 1.38197e-17
5308.49815 1.39383e-17
5309.99579 1.31800e-17
5311.50361 1.39376e-17
5313.00125 1.42531e-17
5314.49888 1.35900e-17
5315.99652 1.38657e-17
5317.50434 1.38896e-17
5319.00198 1.36278e-17
5320.49962 1.42179e-17
5321.99725 1.33576e-17
5323.50508 1.39738e-17
5325.00271 1.39779e-17
5326.50035 1.35923e-17
5327.99798 1.32527e-17
5329.49562 1.35727e-17
5331.00344 1.40142e-17
5332.50108 1.36157e-17
5333.99872 1.43599e-17
5335.49635 1.37917e-17
5337.00418 1.42840e-17
5338.50181 1.44752e-17
5339.99945 1.43951e-17
5341.49708 1.39345e-17
5343.00491 1.39044e-17
5344.50254 1.51875e-17
5346.00018 1.49541e-17
5347.49782 1.51219e-17
5348.99545 1.47614e-17
5350.50328 1.48313e-17
5352.00091 1.53995e-17
5353.49855 1.41857e-17
5354.99618 1.38920e-17
5356.50401 1.47740e-17
5358.00164 1.52705e-17
5359.49928 1.52762e-17
5360.99692 1.43442e-17
5362.50474 1.40163e-17
5364.00238 1.36051e-17
5365.50001 1.40079e-17
5366.99765 1.46225e-17
5368.49528 1.34686e-17
5370.00311 1.23426e-17
5371.50074 1.20137e-17
5372.99838 1.29638e-17
5374.49602 1.43904e-17
5376.00384 1.44062e-17
5377.50148 1.54768e-17
5378.99911 1.48650e-17
5380.49675 1.40674e-17
5382.00457 1.48347e-17
5383.50221 1.38565e-17
5384.99984 1.43312e-17
5386.49748 1.54664e-17
5387.99512 1.41486e-17
5389.50294 1.38946e-17
5391.00058 1.50058e-17
5392.49821 1.59512e-17
5393.99585 1.57307e-17
5395.50367 1.35750e-17
5397.00131 1.30673e-17
5398.49894 1.39583e-17
5399.99658 1.48345e-17
5401.50440 1.50681e-17
5403.00204 1.41707e-17
5404.49968 1.40234e-17
5405.99731 1.45651e-17
5407.49495 1.46729e-17
5409.00277 1.49461e-17
5410.50041 1.47016e-17
5411.99804 1.42733e-17
5413.49568 1.43178e-17
5415.00350 1.53562e-17
5416.50114 1.57708e-17
5417.99878 1.48717e-17
5419.49641 1.49268e-17
5421.00424 1.51276e-17
5422.50187 1.52072e-17
5423.99951 1.52389e-17
5425.49714 1.49558e-17
5426.99478 1.55017e-17
5428.50260 1.62647e-17
5430.00024 1.51213e-17
5431.49788 1.42710e-17
5432.99551 1.56989e-17
5434.50334 1.76115e-17
5436.00097 1.70356e-17
5437.49861 1.57260e-17
5438.99624 1.55102e-17
5440.50407 1.58318e-17
5442.00170 1.58441e-17
5443.49934 1.46100e-17
5444.99698 1.52582e-17
5446.50480 1.68855e-17
5448.00244 1.62624e-17
5449.50007 1.55663e-17
5450.99771 1.55461e-17
5452.49534 1.53442e-17
5454.00317 1.45604e-17
5455.50080 1.53088e-17
5456.99844 1.52776e-17
5458.49608 1.57286e-17
5460.00390 1.63089e-17
5461.50154 1.65014e-17
5462.99917 1.54670e-17
5464.49681 1.53789e-17
5466.00463 1.58714e-17
5467.50227 1.67974e-17
5468.99990 1.66599e-17
5470.49754 1.74797e-17
5471.99518 1.86065e-17
5473.50300 1.66485e-17
5475.00064 1.55796e-17
5476.49827 1.79090e-17
5477.99591 1.73277e-17
5479.50373 1.71641e-17
5481.00137 1.67040e-17
5482.49900 1.79951e-17
5483.99664 1.79494e-17
5485.50446 1.67106e-17
5487.00210 1.72867e-17
5488.49974 1.78663e-17
5489.99737 1.78064e-17
5491.49501 1.78157e-17
5493.00283 1.72000e-17
5494.50047 1.75432e-17
5495.99810 1.85759e-17
5497.49574 1.69309e-17
5499.00356 1.73720e-17
5500.50120 1.76016e-17
5501.99884 1.84115e-17
5503.49647 1.74775e-17
5505.00430 1.75091e-17
5506.50193 1.71552e-17
5507.99957 1.89235e-17
5509.49720 1.87786e-17
5511.00503 1.85065e-17
5512.50266 1.94590e-17
5514.00030 1.89218e-17
5515.49794 1.84615e-17
5516.99557 1.75482e-17
5518.50340 1.82794e-17
5520.00103 1.84482e-17
5521.49867 1.79972e-17
5522.99630 1.86734e-17
5524.50413 1.86484e-17
5526.00176 1.84976e-17
5527.49940 1.91758e-17
5528.99704 1.91953e-17
5530.50486 1.83979e-17
5532.00250 1.84399e-17
5533.50013 1.84139e-17
5534.99777 1.89873e-17
5536.49540 1.90381e-17
5538.00323 1.96085e-17
5539.50086 1.89905e-17
5540.99850 1.82814e-17
5542.49614 1.85316e-17
5544.00396 1.80716e-17
5545.50160 1.70485e-17
5546.99923 1.80703e-17
5548.49687 1.99459e-17
5550.00469 1.98827e-17
5551.50233 1.77783e-17
5552.99996 1.85122e-17
5554.49760 1.88933e-17
5555.99524 1.82407e-17
5557.50306 1.82558e-17
5559.00070 1.80738e-17
5560.49833 1.89944e-17
5561.99597 1.87967e-17
5563.50379 1.81284e-17
5565.00143 1.77717e-17
5566.49906 1.77297e-17
5567.99670 1.81333e-17
5569.50452 1.90314e-17
5571.00216 1.85342e-17
5572.49980 1.81317e-17
5573.99743 1.85225e-17
5575.49507 1.78422e-17
5577.00289 1.54639e-17
5578.50053 1.69370e-17
5579.99816 1.71045e-17
5581.49580 1.86822e-17
5583.00362 1.74762e-17
5584.50126 1.76250e-17
5585.99890 1.78307e-17
5587.49653 1.76781e-17
5589.00436 1.73834e-17
5590.50199 1.75089e-17
5591.99963 1.72362e-17
5593.49726 1.72767e-17
5594.99490 1.69178e-17
5596.50272 1.71273e-17
5598.00036 1.77758e-17
5599.49800 1.69274e-17
5600.99563 1.67036e-17
5602.50346 1.75168e-17
5604.00109 1.70475e-17
5605.49873 1.73684e-17
5606.99636 1.89703e-17
5608.50419 1.83344e-17
5610.00182 1.68993e-17
5611.49946 1.60320e-17
5612.99710 1.72496e-17
5614.50492 1.71490e-17
5616.00256 1.64353e-17
5617.50019 1.66954e-17
5618.99783 1.70853e-17
5620.49546 1.63490e-17
5622.00329 1.63178e-17
5623.50092 1.74647e-17
5624.99856 1.61909e-17
5626.49620 1.53691e-17
5628.00402 1.63292e-17
5629.50166 1.65171e-17
5630.99929 1.59202e-17
5632.49693 1.66588e-17
5634.00475 1.70967e-17
5635.50239 1.72291e-17
5637.00002 1.59685e-17
5638.49766 1.52541e-17
5639.99530 1.54614e-17
5641.50312 1.59949e-17
5643.00076 1.59293e-17
5644.49839 1.67797e-17
5645.99603 1.59871e-17
5647.50385 1.47774e-17
5649.00149 1.56310e-17
5650.49912 1.66098e-17
5651.99676 1.62458e-17
5653.50458 1.54116e-17
5655.00222 1.49510e-17
5656.49986 1.52593e-17
5657.99749 1.57861e-17
5659.49513 1.55713e-17
5661.00295 1.48903e-17
5662.50059 1.56566e-17
5663.99822 1.53698e-17
5665.49586 1.49053e-17
5667.00368 1.48968e-17
5668.50132 1.48667e-17
5669.99896 1.48073e-17
5671.49659 1.45360e-17
5673.00442 1.49681e-17
5674.50205 1.51523e-17
5675.99969 1.42438e-17
5677.49732 1.38174e-17
5679.00515 1.43657e-17
5680.50278 1.43834e-17
5682.00042 1.41782e-17
5683.49806 1.46723e-17
5684.99569 1.53361e-17
5686.50352 1.51025e-17
5688.00115 1.47012e-17
5689.49879 1.47155e-17
5690.99642 1.37192e-17
5692.50425 1.34452e-17
5694.00188 1.45625e-17
5695.49952 1.40688e-17
5696.99716 1.37437e-17
5698.50498 1.48686e-17
5700.00262 1.50118e-17
5701.50025 1.50092e-17
5702.99789 1.43664e-17
5704.49552 1.34437e-17
5706.00335 1.35915e-17
5707.50098 1.34099e-17
5708.99862 1.26380e-17
5710.49626 1.36793e-17
5712.00408 1.42123e-17
5713.50172 1.41376e-17
5714.99935 1.38610e-17
5716.49699 1.35316e-17
5718.00481 1.29202e-17
5719.50245 1.36635e-17
5721.00008 1.30437e-17
5722.49772 1.29571e-17
5723.99536 1.41599e-17
5725.50318 1.35811e-17
5727.00082 1.23370e-17
5728.49845 1.18526e-17
5729.99609 1.27097e-17
5731.50391 1.30490e-17
5733.00155 1.31439e-17
5734.49918 1.31764e-17
5735.99682 1.30249e-17
5737.50464 1.31301e-17
5739.00228 1.29899e-17
5740.49992 1.28998e-17
5741.99755 1.38414e-17
5743.49519 1.31205e-17
5745.00301 1.15166e-17
5746.50065 1.17223e-17
5747.99828 1.23460e-17
5749.49592 1.28676e-17
5751.00374 1.26973e-17
5752.50138 1.23597e-17
5753.99902 1.23752e-17
5755.49665 1.30610e-17
5757.00448 1.31766e-17
5758.50211 1.26874e-17
5759.99975 1.21652e-17
5761.49738 1.13763e-17
5762.99502 1.19704e-17
5764.50284 1.25774e-17
5766.00048 1.32869e-17
5767.49812 1.27147e-17
5768.99575 1.16915e-17
5770.50358 1.17355e-17
5772.00121 1.32075e-17
5773.49885 1.32145e-17
5774.99648 1.26166e-17
5776.50431 1.28985e-17
5778.00194 1.20601e-17
5779.49958 1.17841e-17
5780.99722 1.22441e-17
5782.49485 1.35299e-17
5784.00268 1.21366e-17
5785.50031 1.13263e-17
5786.99795 1.18398e-17
5788.49558 1.27916e-17
5790.00341 1.22660e-17
5791.50104 1.10990e-17
5792.99868 1.33063e-17
5794.49632 1.41238e-17
5796.00414 1.41313e-17
5797.50178 1.19325e-17
5798.99941 1.18042e-17
5800.49705 1.26575e-17
5802.00487 1.34592e-17
5803.50251 1.37664e-17
5805.00014 1.32187e-17
5806.49778 1.21068e-17
5807.99542 1.24911e-17
5809.50324 1.31484e-17
5811.00088 1.24939e-17
5812.49851 1.22612e-17
5813.99615 1.27320e-17
5815.50397 1.25519e-17
5817.00161 1.25579e-17
5818.49924 1.36280e-17
5819.99688 1.36408e-17
5821.50470 1.34035e-17
5823.00234 1.32739e-17
5824.49998 1.27914e-17
5825.99761 1.34863e-17
5827.49525 1.31273e-17
5829.00307 1.33566e-17
5830.50071 1.43603e-17
5831.99834 1.39197e-17
5833.49598 1.38291e-17
5835.00380 1.36897e-17
5836.50144 1.37039e-17
5837.99908 1.29679e-17
5839.49671 1.28819e-17
5841.00454 1.29283e-17
5842.50217 1.30273e-17
5843.99981 1.32083e-17
5845.49744 1.45968e-17
5846.99508 1.33821e-17
5848.50290 1.13501e-17
5850.00054 1.29076e-17
5851.49818 1.27556e-17
5852.99581 1.28544e-17
5854.50364 1.42258e-17
5856.00127 1.34383e-17
5857.49891 1.28201e-17
5858.99654 1.33019e-17
5860.50437 1.38452e-17
5862.00200 1.36557e-17
5863.49964 1.46753e-17
5864.99728 1.38632e-17
5866.50510 1.24700e-17
5868.00274 1.33360e-17
5869.50037 1.36119e-17
5870.99801 1.28340e-17
5872.49564 1.28105e-17
5874.00347 1.40451e-17
5875.50110 1.39211e-17
5876.99874 1.30310e-17
5878.49638 1.35600e-17
5880.00420 1.38076e-17
5881.50184 1.29434e-17
5882.99947 1.27175e-17
5884.49711 1.23826e-17
5886.00493 1.25869e-17
5887.50257 1.23946e-17
5889.00020 1.20298e-17
5890.49784 1.39536e-17
5891.99548 1.45341e-17
5893.50330 1.20450e-17
5895.00094 1.12682e-17
5896.49857 1.33018e-17
5897.99621 1.44246e-17
5899.50403 1.38728e-17
5901.00167 1.27173e-17
5902.49930 1.28706e-17
5903.99694 1.34718e-17
5905.50476 1.24940e-17
5907.00240 1.27658e-17
5908.50004 1.38825e-17
5909.99767 1.42031e-17
5911.49531 1.39491e-17
5913.00313 1.41769e-17
5914.50077 1.39431e-17
5915.99840 1.22379e-17
5917.49604 1.26041e-17
5919.00386 1.38461e-17
5920.50150 1.30841e-17
5921.99914 1.27144e-17
5923.49677 1.32096e-17
5925.00460 1.27763e-17
5926.50223 1.32271e-17
5927.99987 1.41925e-17
5929.49750 1.49646e-17
5930.99514 1.36184e-17
5932.50296 1.32440e-17
5934.00060 1.38882e-17
5935.49824 1.31594e-17
5936.99587 1.33276e-17
5938.50370 1.29691e-17
5940.00133 1.23863e-17
5941.49897 1.23943e-17
5942.99660 1.31086e-17
5944.50443 1.37178e-17
5946.00206 1.35003e-17
5947.49970 1.30635e-17
5948.99734 1.31746e-17
5950.49497 1.33984e-17
5952.00280 1.31151e-17
5953.50043 1.22943e-17
5954.99807 1.23127e-17
5956.49570 1.23001e-17
5958.00353 1.22875e-17
5959.50116 1.22749e-17
5960.99880 1.22623e-17
5962.49644 1.22497e-17
5964.00426 1.22371e-17
5965.50190 1.22245e-17
5966.99953 1.22119e-17
5968.49717 1.21993e-17
5969.99480 1.21867e-17
5971.50263 1.21741e-17
5973.00026 1.21615e-17
5974.49790 1.21489e-17
5975.99554 1.21364e-17
5977.50336 1.21238e-17
5979.00100 1.21112e-17
5980.49863 1.20986e-17
5981.99627 1.20860e-17
5983.50409 1.20734e-17
5985.00173 1.20609e-17
5986.49936 1.20483e-17
5987.99700 1.20357e-17
5989.50482 1.20231e-17
5991.00246 1.20106e-17
5992.50010 1.19980e-17
5993.99773 1.19854e-17
5995.49537 1.19728e-17
5997.00319 1.19603e-17
5998.50083 1.19477e-17
5999.99846 1.19351e-17
6001.49610 1.19226e-17
6003.00392 1.19100e-17
6004.50156 1.18974e-17
6005.99920 1.18849e-17
6007.49683 1.18723e-17
6009.00466 1.18598e-17
6010.50229 1.18472e-17
6011.99993 1.18346e-17
6013.49756 1.18221e-17
6014.99520 1.18095e-17
6016.50302 1.17970e-17
6018.00066 1.17844e-17
6019.49830 1.19735e-17
6020.99593 1.22599e-17
6022.50376 1.23632e-17
6024.00139 1.21466e-17
6025.49903 1.26568e-17
6026.99666 1.24632e-17
6028.50449 1.13834e-17
6030.00212 1.16911e-17
6031.49976 1.15838e-17
6032.99740 1.14765e-17
6034.49503 1.13693e-17
6036.00286 1.12620e-17
6037.50049 1.12617e-17
6038.99813 1.15392e-17
6040.49576 1.15610e-17
6042.00359 1.16063e-17
6043.50122 1.15838e-17
6044.99886 1.25176e-17
6046.49650 1.25358e-17
6048.00432 1.17724e-17
6049.50196 1.13427e-17
6050.99959 1.16686e-17
6052.49723 1.17321e-17
6054.00505 1.21590e-17
6055.50269 1.29620e-17
6057.00032 1.26407e-17
6058.49796 1.11134e-17
6059.99560 1.11113e-17
6061.50342 1.19715e-17
6063.00106 1.18839e-17
6064.49869 1.20497e-17
6065.99633 1.11315e-17
6067.50415 1.11219e-17
6069.00179 1.12610e-17
6070.49942 1.15315e-17
6071.99706 1.24855e-17
6073.50488 1.17985e-17
6075.00252 1.22171e-17
6076.50016 1.19550e-17
6077.99779 1.18846e-17
6079.49543 1.20448e-17
6081.00325 1.26837e-17
6082.50089 1.13537e-17
6083.99852 1.10912e-17
6085.49616 1.18419e-17
6087.00398 1.29401e-17
6088.50162 1.34266e-17
6089.99926 1.23337e-17
6091.49689 1.19622e-17
6093.00472 1.17164e-17
6094.50235 1.11439e-17
6095.99999 1.09969e-17
6097.49762 1.15330e-17
6098.99526 1.23109e-17
6100.50308 1.16679e-17
6102.00072 1.10245e-17
6103.49836 1.16559e-17
6104.99599 1.19190e-17
6106.50382 1.18243e-17
6108.00145 1.21071e-17
6109.49909 1.19626e-17
6110.99672 1.14667e-17
6112.50455 1.19254e-17
6114.00218 1.23618e-17
6115.49982 1.18470e-17
6116.99746 1.14011e-17
6118.49509 1.12025e-17
6120.00292 1.18805e-17
6121.50055 1.20586e-17
6122.99819 1.15846e-17
6124.49582 1.23318e-17
6126.00365 1.23284e-17
6127.50128 1.28592e-17
6128.99892 1.32815e-17
6130.49656 1.15626e-17
6132.00438 1.14510e-17
6133.50202 1.13419e-17
6134.99965 1.21472e-17
6136.49729 1.25844e-17
6137.99492 1.19789e-17
6139.50275 1.22110e-17
6141.00038 1.18779e-17
6142.49802 1.16826e-17
6143.99566 1.29348e-17
6145.50348 1.33604e-17
6147.00112 1.34855e-17
6148.49875 1.27785e-17
6149.99639 1.24629e-17
6151.50421 1.36620e-17
6153.00185 1.29371e-17
6154.49948 1.16497e-17
6155.99712 1.21595e-17
6157.50494 1.28858e-17
6159.00258 1.29332e-17
6160.50022 1.30037e-17
6161.99785 1.30176e-17
6163.49549 1.27395e-17
6165.00331 1.32322e-17
6166.50095 1.37046e-17
6167.99858 1.34656e-17
6169.49622 1.30718e-17
6171.00404 1.28553e-17
6172.50168 1.32457e-17
6173.99932 1.29736e-17
6175.49695 1.31500e-17
6177.00478 1.30971e-17
6178.50241 1.24144e-17
6180.00005 1.29014e-17
6181.49768 1.25779e-17
6182.99532 1.21613e-17
6184.50314 1.19755e-17
6186.00078 1.14317e-17
6187.49842 1.30978e-17
6188.99605 1.24929e-17
6190.50388 1.32638e-17
6192.00151 1.39697e-17
6193.49915 1.34527e-17
6194.99678 1.26437e-17
6196.50461 1.24705e-17
6198.00224 1.18993e-17
6199.49988 1.34939e-17
6200.99752 1.32001e-17
6202.49515 1.22387e-17
6204.00298 1.28601e-17
6205.50061 1.27366e-17
6206.99825 1.25929e-17
6208.49588 1.13860e-17
6210.00371 1.24047e-17
6211.50134 1.25418e-17
6212.99898 1.23327e-17
6214.49662 1.29530e-17
6216.00444 1.13237e-17
6217.50208 1.27076e-17
6218.99971 1.35654e-17
6220.49735 1.26160e-17
6221.99498 1.23445e-17
6223.50281 1.31925e-17
6225.00044 1.34530e-17
6226.49808 1.27456e-17
6227.99572 1.22267e-17
6229.50354 1.26360e-17
6231.00118 1.23962e-17
6232.49881 1.12075e-17
6233.99645 1.08265e-17
6235.50427 1.14180e-17
6237.00191 1.27349e-17
6238.49954 1.29188e-17
6239.99718 1.16204e-17
6241.50500 1.18692e-17
6243.00264 1.21058e-17
6244.50028 1.19997e-17
6245.99791 1.18970e-17
6247.49555 1.18943e-17
6249.00337 1.20491e-17
6250.50101 1.21567e-17
6251.99864 1.21716e-17
6253.49628 1.20313e-17
6255.00410 1.26751e-17
6256.50174 1.18698e-17
6257.99938 1.13500e-17
6259.49701 1.16931e-17
6261.00484 1.17224e-17
6262.50247 1.21921e-17
6264.00011 1.16629e-17
6265.49774 1.17484e-17
6266.99538 1.12576e-17
6268.50320 1.05097e-17
6270.00084 1.01854e-17
6271.49848 1.04351e-17
6272.99611 1.11600e-17
6274.50394 1.15360e-17
6276.00157 1.17018e-17
6277.49921 1.18479e-17
6278.99684 1.18584e-17
6280.50467 1.08866e-17
6282.00230 1.10794e-17
6283.49994 1.10050e-17
6284.99758 1.07237e-17
6286.49521 1.07578e-17
6288.00304 1.06399e-17
6289.50067 1.00983e-17
6290.99831 1.08053e-17
6292.49594 1.07192e-17
6294.00377 9.72112e-18
6295.50140 1.03040e-17
6296.99904 1.02526e-17
6298.49668 1.02012e-17
6300.00450 1.01497e-17
6301.50214 1.00983e-17
6302.99977 1.00468e-17
6304.49741 9.99543e-18
6305.99504 9.94399e-18
6307.50287 9.94371e-18
6309.00050 9.85063e-18
6310.49814 9.93179e-18
6311.99578 9.66407e-18
6313.50360 9.85252e-18
6315.00124 1.02470e-17
6316.49887 1.06640e-17
6317.99651 1.06476e-17
6319.50433 1.02758e-17
6321.00197 9.24608e-18
6322.49960 8.95815e-18
6323.99724 9.94207e-18
6325.49488 1.06223e-17
6327.00270 1.01065e-17
6328.50034 1.05125e-17
6329.99797 1.13732e-17
6331.49561 1.04046e-17
6333.00343 1.05393e-17
6334.50107 1.00234e-17
6335.99870 1.06047e-17
6337.49634 1.15206e-17
6339.00416 1.00484e-17
6340.50180 1.10326e-17
6341.99944 1.00599e-17
6343.49707 1.04504e-17
6345.00490 1.18953e-17
6346.50253 1.10489e-17
6348.00017 1.10321e-17
6349.49780 1.05909e-17
6350.99544 1.10176e-17
6352.50326 1.03044e-17
6354.00090 1.05511e-17
6355.49854 1.10661e-17
6356.99617 1.18747e-17
6358.50400 1.21951e-17
6360.00163 1.17734e-17
6361.49927 1.02320e-17
6362.99690 1.12587e-17
6364.50473 1.24395e-17
6366.00236 1.09959e-17
6367.50000 1.12429e-17
6368.99764 1.10215e-17
6370.49527 1.08822e-17
6372.00310 1.11338e-17
6373.50073 1.17111e-17
6374.99837 1.20254e-17
6376.49600 1.17111e-17
6378.00383 1.12271e-17
6379.50146 1.16702e-17
6380.99910 1.18781e-17
6382.49674 1.13261e-17
6384.00456 1.13954e-17
6385.50220 1.19180e-17
6386.99983 1.22100e-17
6388.49747 1.18535e-17
6389.99510 1.16306e-17
6391.50293 1.21276e-17
6393.00056 1.26440e-17
6394.49820 1.19142e-17
6395.99584 1.10207e-17
6397.50366 1.18522e-17
6399.00130 1.15750e-17
6400.49893 1.22417e-17
6401.99657 1.31107e-17
6403.50439 1.29153e-17
6405.00203 1.21864e-17
6406.49966 1.15251e-17
6407.99730 1.19832e-17
6409.49494 1.24205e-17
6411.00276 1.19293e-17
6412.50040 1.24043e-17
6413.99803 1.28880e-17
6415.49567 1.31197e-17
6417.00349 1.40442e-17
6418.50113 1.26010e-17
6419.99876 1.22285e-17
6421.49640 1.30427e-17
6423.00422 1.27433e-17
6424.50186 1.34514e-17
6425.99950 1.30972e-17
6427.49713 1.21649e-17
6429.00496 1.32848e-17
6430.50259 1.35459e-17
6432.00023 1.33244e-17
6433.49786 1.40214e-17
6434.99550 1.31156e-17
6436.50332 1.33561e-17
6438.00096 1.52761e-17
6439.49860 1.54359e-17
6440.99623 1.34852e-17
6442.50406 1.27581e-17
6444.00169 1.37245e-17
6445.49933 1.36407e-17
6446.99696 1.25816e-17
6448.50479 1.30460e-17
6450.00242 1.37074e-17
6451.50006 1.43269e-17
6452.99770 1.40671e-17
6454.49533 1.38859e-17
6456.00316 1.39344e-17
6457.50079 1.32742e-17
6458.99843 1.40764e-17
6460.49606 1.47461e-17
6462.00389 1.45669e-17
6463.50152 1.45789e-17
6464.99916 1.37129e-17
6466.49680 1.33073e-17
6468.00462 1.45146e-17
6469.50226 1.45854e-17
6470.99989 1.30829e-17
6472.49753 1.35281e-17
6473.99516 1.41271e-17
6475.50299 1.40067e-17
6477.00062 1.40229e-17
6478.49826 1.45487e-17
6479.99590 1.48048e-17
6481.50372 1.53651e-17
6483.00136 1.45936e-17
6484.49899 1.45787e-17
6485.99663 1.45044e-17
6487.50445 1.41357e-17
6489.00209 1.43321e-17
6490.49972 1.47411e-17
6491.99736 1.47721e-17
6493.49500 1.36541e-17
6495.00282 1.50253e-17
6496.50046 1.55330e-17
6497.99809 1.51459e-17
6499.49573 1.45221e-17
6501.00355 1.39633e-17
6502.50119 1.48681e-17
6503.99882 1.45623e-17
6505.49646 1.36594e-17
6507.00428 1.38866e-17
6508.50192 1.41045e-17
6509.99956 1.48344e-17
6511.49719 1.53873e-17
6512.99483 1.52406e-17
6514.50265 1.49423e-17
6516.00029 1.45244e-17
6517.49792 1.44686e-17
6518.99556 1.52020e-17
6520.50338 1.48057e-17
6522.00102 1.43971e-17
6523.49866 1.54030e-17
6524.99629 1.54433e-17
6526.50412 1.53701e-17
6528.00175 1.54983e-17
6529.49939 1.55348e-17
6530.99702 1.55634e-17
6532.50485 1.52157e-17
6534.00248 1.52745e-17
6535.50012 1.47008e-17
6536.99776 1.41583e-17
6538.49539 1.49666e-17
6540.00322 1.48127e-17
6541.50085 1.48592e-17
6542.99849 1.51615e-17
6544.49612 1.51939e-17
6546.00395 1.52576e-17
6547.50158 1.43571e-17
6548.99922 1.41090e-17
6550.49686 1.37243e-17
6552.00468 1.47391e-17
6553.50232 1.41182e-17
6554.99995 1.41004e-17
6556.49759 1.47460e-17
6557.99522 1.61188e-17
6559.50305 1.68857e-17
6561.00068 1.52185e-17
6562.49832 1.51358e-17
6563.99596 1.50031e-17
6565.50378 1.46317e-17
6567.00142 1.46470e-17
6568.49905 1.39264e-17
6569.99669 1.41644e-17
6571.50451 1.50653e-17
6573.00215 1.53918e-17
6574.49978 1.49920e-17
6575.99742 1.47342e-17
6577.49506 1.44417e-17
6579.00288 1.35503e-17
6580.50052 1.27910e-17
6581.99815 1.43668e-17
6583.49579 1.40548e-17
6585.00361 1.44912e-17
6586.50125 1.51127e-17
6587.99888 1.54796e-17
6589.49652 1.48259e-17
6591.00434 1.45339e-17
6592.50198 1.43954e-17
6593.99962 1.40703e-17
6595.49725 1.37232e-17
6596.99489 1.44046e-17
6598.50271 1.45669e-17
6600.00035 1.39420e-17
6601.49798 1.36744e-17
6602.99562 1.41579e-17
6604.50344 1.49896e-17
6606.00108 1.54254e-17
6607.49872 1.44212e-17
6608.99635 1.42381e-17
6610.50418 1.46972e-17
6612.00181 1.37709e-17
6613.49945 1.37096e-17
6614.99708 1.48153e-17
6616.50491 1.37621e-17
6618.00254 1.36813e-17
6619.50018 1.47761e-17
6620.99782 1.50659e-17
6622.49545 1.46433e-17
6624.00328 1.44167e-17
6625.50091 1.40951e-17
6626.99855 1.48476e-17
6628.49618 1.48927e-17
6630.00401 1.41162e-17
6631.50164 1.35828e-17
6632.99928 1.32439e-17
6634.49692 1.36466e-17
6636.00474 1.41653e-17
6637.50238 1.35691e-17
6639.00001 1.32809e-17
6640.49765 1.43648e-17
6641.99528 1.41518e-17
6643.50311 1.40248e-17
6645.00074 1.38384e-17
6646.49838 1.33304e-17
6647.99602 1.29951e-17
6649.50384 1.32094e-17
6651.00148 1.35939e-17
6652.49911 1.32867e-17
6653.99675 1.32646e-17
6655.50457 1.32425e-17
6657.00221 1.32203e-17
6658.49984 1.31982e-17
6659.99748 1.31761e-17
6661.49512 1.31540e-17
6663.00294 1.31318e-17
6664.50058 1.31097e-17
6665.99821 1.30876e-17
6667.49585 1.30654e-17
6669.00367 1.30433e-17
6670.50131 1.30212e-17
6671.99894 1.29991e-17
6673.49658 1.29770e-17
6675.00440 1.29548e-17
6676.50204 1.29327e-17
6677.99968 1.29106e-17
6679.49731 1.28885e-17
6680.99495 1.28664e-17
6682.50277 1.28443e-17
6684.00041 1.28221e-17
6685.49804 1.28000e-17
6686.99568 1.27779e-17
6688.50350 1.27558e-17
6690.00114 1.27337e-17
6691.49878 1.27227e-17
6692.99641 1.27116e-17
6694.50424 1.27006e-17
6696.00187 1.26895e-17
6697.49951 1.26785e-17
6698.99714 1.26674e-17
6700.49478 1.26564e-17
6702.00260 1.26453e-17
6703.50024 1.26343e-17
6704.99788 1.26233e-17
6706.49551 1.26122e-17
6708.00334 1.26012e-17
6709.50097 1.25901e-17
6710.99861 1.25791e-17
6712.49624 1.25681e-17
6714.00407 1.25570e-17
6715.50170 1.25460e-17
6716.99934 1.25349e-17
6718.49698 1.25239e-17
6720.00480 1.25129e-17
6721.50244 1.25018e-17
6723.00007 1.24908e-17
6724.49771 1.24798e-17
6725.99534 1.24687e-17
6727.50317 1.25595e-17
6729.00080 1.24071e-17
6730.49844 1.24359e-17
6731.99608 1.33446e-17
6733.50390 1.29359e-17
6735.00154 1.22387e-17
6736.49917 1.23352e-17
6737.99681 1.12803e-17
6739.50463 1.09450e-17
6741.00227 1.21090e-17
6742.49990 1.20317e-17
6743.99754 1.18029e-17
6745.49518 1.23227e-17
6747.00300 1.20266e-17
6748.50064 1.22993e-17
6749.99827 1.23891e-17
6751.49591 1.21089e-17
6753.00373 1.17325e-17
6754.50137 1.16472e-17
6755.99900 1.25853e-17
6757.49664 1.19974e-17
6759.00446 1.12338e-17
6760.50210 1.14518e-17
6761.99974 1.17350e-17
6763.49737 1.18887e-17
6764.99501 1.17282e-17
6766.50283 1.23821e-17
6768.00047 1.19185e-17
6769.49810 1.19251e-17
6770.99574 1.27834e-17
6772.50356 1.26264e-17
6774.00120 1.19863e-17
6775.49884 1.14933e-17
6776.99647 1.19243e-17
6778.50430 1.21830e-17
6780.00193 1.12034e-17
6781.49957 1.24811e-17
6782.99720 1.23506e-17
6784.50503 1.15007e-17
6786.00266 1.17664e-17
6787.50030 1.28247e-17
6788.99794 1.27030e-17
6790.49557 1.17833e-17
6792.00340 1.07443e-17
6793.50103 1.16590e-17
6794.99867 1.25216e-17
6796.49630 1.18368e-17
6798.00413 1.13683e-17
6799.50176 1.20651e-17
6800.99940 1.17983e-17
6802.49704 1.19019e-17
6804.00486 1.23312e-17
6805.50250 1.15057e-17
6807.00013 1.06251e-17
6808.49777 1.08803e-17
6809.99540 1.09648e-17
6811.50323 1.12336e-17
6813.00086 1.14969e-17
6814.49850 1.20498e-17
6815.99614 1.15459e-17
6817.50396 1.15152e-17
6819.00160 1.13614e-17
6820.49923 1.11606e-17
6821.99687 1.15228e-17
6823.50469 1.08874e-17
6825.00233 1.08522e-17
6826.49996 1.08170e-17
6827.99760 1.07818e-17
6829.49524 1.07466e-17
6831.00306 1.07114e-17
6832.50070 1.06761e-17
6833.99833 1.06409e-17
6835.49597 1.06057e-17
6837.00379 1.05705e-17
6838.50143 1.05353e-17
6839.99906 1.05440e-17
6841.49670 1.05526e-17
6843.00452 1.05613e-17
6844.50216 1.05700e-17
6845.99980 1.05786e-17
6847.49743 1.05873e-17
6848.99507 1.05960e-17
6850.50289 1.06047e-17
6852.00053 1.06133e-17
6853.49816 1.06220e-17
6854.99580 1.06307e-17
6856.50362 1.06393e-17
6858.00126 1.06480e-17
6859.49890 1.06567e-17
6860.99653 1.06653e-17
6862.50436 1.06740e-17
6864.00199 1.06827e-17
6865.49963 1.06913e-17
6866.99726 1.07000e-17
6868.49490 1.07086e-17
6870.00272 1.07173e-17
6871.50036 1.07260e-17
6872.99800 1.07346e-17
6874.49563 1.07433e-17
6876.00346 1.07519e-17
6877.50109 1.07559e-17
6878.99873 9.88475e-18
6880.49636 1.04814e-17
6882.00419 9.95110e-18
6883.50182 9.80286e-18
6884.99946 1.05400e-17
6886.49710 9.98102e-18
6888.00492 1.02285e-17
6889.50256 1.00214e-17
6891.00019 1.02132e-17
6892.49783 9.83898e-18
6893.99546 9.12901e-18
6895.50329 9.87384e-18
6897.00092 9.82489e-18
6898.49856 1.04147e-17
6899.99620 9.79472e-18
6901.50402 9.58328e-18
6903.00166 1.03566e-17
6904.49929 9.71394e-18
6905.99693 1.02073e-17
6907.50475 1.01963e-17
6909.00239 1.04887e-17
6910.50002 1.11411e-17
6911.99766 1.02480e-17
6913.49530 1.17261e-17
6915.00312 1.12280e-17
6916.50076 1.01615e-17
6917.99839 9.83026e-18
6919.49603 1.01822e-17
6921.00385 9.94761e-18
6922.50149 9.74675e-18
6923.99912 1.00607e-17
6925.49676 1.05259e-17
6927.00458 1.02942e-17
6928.50222 1.05636e-17
6929.99986 1.05634e-17
6931.49749 1.00036e-17
6932.99513 1.04947e-17
6934.50295 1.10187e-17
6936.00059 1.04217e-17
6937.49822 1.03381e-17
6938.99586 1.07597e-17
6940.50368 1.03713e-17
6942.00132 1.00600e-17
6943.49896 1.03506e-17
6944.99659 1.08284e-17
6946.50442 1.11865e-17
6948.00205 1.10551e-17
6949.49969 1.03997e-17
6950.99732 1.10776e-17
6952.49496 1.19013e-17
6954.00278 1.16322e-17
6955.50042 1.10907e-17
6956.99806 1.09070e-17
6958.49569 1.04646e-17
6960.00352 1.00586e-17
6961.50115 1.04209e-17
6962.99879 1.09962e-17
6964.49642 1.13039e-17
6966.00425 1.15771e-17
6967.50188 1.12856e-17
6968.99952 1.07424e-17
6970.49716 1.10311e-17
6972.00498 1.10004e-17
6973.50262 1.14651e-17
6975.00025 1.14842e-17
6976.49789 1.13389e-17
6977.99552 1.07436e-17
6979.50335 1.13516e-17
6981.00098 1.16512e-17
6982.49862 1.11495e-17
6983.99626 1.08382e-17
6985.50408 9.97975e-18
6987.00172 1.07543e-17
6988.49935 1.10860e-17
6989.99699 1.03752e-17
6991.50481 1.01304e-17
6993.00245 1.01106e-17
6994.50008 1.06532e-17
6995.99772 1.21094e-17
6997.49536 1.20149e-17
6999.00318 1.09799e-17
7000.50082 1.12195e-17
7001.99845 1.19030e-17
7003.49609 1.15609e-17
7005.00391 1.05584e-17
7006.50155 1.08836e-17
7007.99918 1.14861e-17
7009.49682 1.16482e-17
7011.00464 1.15214e-17
7012.50228 1.15723e-17
7013.99992 1.21346e-17
7015.49755 1.22574e-17
7016.99519 1.20179e-17
7018.50301 1.14571e-17
7020.00065 1.11230e-17
7021.49828 1.19223e-17
7022.99592 1.14151e-17
7024.50374 1.09420e-17
7026.00138 1.16276e-17
7027.49902 1.12985e-17
7028.99665 1.08942e-17
7030.50448 1.12630e-17
7032.00211 1.09360e-17
7033.49975 1.09734e-17
7034.99738 1.13803e-17
7036.49502 1.08514e-17
7038.00284 1.02808e-17
7039.50048 1.04670e-17
7040.99812 9.77400e-18
7042.49575 1.02220e-17
7044.00358 1.08961e-17
7045.50121 1.13353e-17
7046.99885 1.08502e-17
7048.49648 1.08420e-17
7050.00431 1.11878e-17
7051.50194 1.12040e-17
7052.99958 1.03105e-17
7054.49722 1.17228e-17
7055.99485 1.22386e-17
7057.50268 1.04039e-17
7059.00031 1.06788e-17
7060.49795 1.00187e-17
7061.99558 1.02230e-17
7063.50341 1.09573e-17
7065.00104 1.13585e-17
7066.49868 9.99924e-18
7067.99632 1.04310e-17
7069.50414 1.08970e-17
7071.00178 1.08333e-17
7072.49941 9.98283e-18
7073.99705 9.04100e-18
7075.50487 1.03031e-17
7077.00251 1.12079e-17
7078.50014 9.49646e-18
7079.99778 1.03778e-17
7081.49542 1.12092e-17
7083.00324 1.12994e-17
7084.50088 1.09617e-17
7085.99851 1.02914e-17
7087.49615 9.72534e-18
7089.00397 1.00605e-17
7090.50161 9.95866e-18
7091.99924 9.70417e-18
7093.49688 9.18230e-18
7095.00470 8.92700e-18
7096.50234 9.45043e-18
7097.99998 1.00527e-17
7099.49761 1.06927e-17
7100.99525 1.04824e-17
7102.50307 1.01663e-17
7104.00071 8.95192e-18
7105.49834 9.24995e-18
7106.99598 9.64396e-18
7108.50380 9.79233e-18
7110.00144 9.51417e-18
7111.49908 1.01332e-17
7112.99671 1.04468e-17
7114.50454 9.23331e-18
7116.00217 9.60160e-18
7117.49981 1.12710e-17
7118.99744 1.06433e-17
7120.49508 9.16229e-18
7122.00290 9.32760e-18
7123.50054 9.14191e-18
7124.99818 1.01921e-17
7126.49581 9.53180e-18
7128.00364 1.06505e-17
7129.50127 1.02857e-17
7130.99891 1.05163e-17
7132.49654 1.03939e-17
7134.00437 9.56781e-18
7135.50200 1.00438e-17
7136.99964 9.94181e-18
7138.49728 9.13494e-18
7139.99491 9.87477e-18
7141.50274 9.92084e-18
7143.00037 9.83994e-18
7144.49801 1.00526e-17
7145.99564 1.00927e-17
7147.50347 1.02653e-17
7149.00110 1.04199e-17
7150.49874 1.01538e-17
7151.99638 1.01644e-17
7153.50420 1.00916e-17
7155.00184 1.02451e-17
7156.49947 9.91736e-18
7157.99711 1.00138e-17
7159.50493 1.02172e-17
7161.00257 1.02311e-17
7162.50020 1.02450e-17
7163.99784 1.02589e-17
7165.49548 1.02729e-17
7167.00330 1.02726e-17
7168.50094 1.01663e-17
7169.99857 1.01097e-17
7171.49621 1.06966e-17
7173.00403 1.03710e-17
7174.50167 9.84530e-18
7175.99930 1.05991e-17
7177.49694 9.80829e-18
7179.00476 9.72083e-18
7180.50240 1.05504e-17
7182.00004 1.06624e-17
7183.49767 9.54832e-18
7184.99531 8.76262e-18
7186.50313 1.01901e-17
7188.00077 1.05494e-17
7189.49840 1.04170e-17
7190.99604 1.09883e-17
7192.50386 1.00496e-17
7194.00150 1.09570e-17
7195.49914 1.07120e-17
7196.99677 1.03604e-17
7198.50460 1.07014e-17
7200.00223 1.09503e-17
7201.49987 1.05671e-17
7202.99750 1.08317e-17
7204.49514 1.10348e-17
7206.00296 1.21149e-17
7207.50060 1.11751e-17
7208.99824 1.00477e-17
7210.49587 1.08142e-17
7212.00370 1.03696e-17
7213.50133 1.05220e-17
7214.99897 1.11764e-17
7216.49660 1.10692e-17
7218.00443 1.08149e-17
7219.50206 1.09216e-17
7220.99970 1.10353e-17
7222.49734 1.01454e-17
7223.99497 1.05439e-17
7225.50280 1.08122e-17
7227.00043 1.04373e-17
7228.49807 1.07326e-17
7229.99570 1.01899e-17
7231.50353 9.90596e-18
7233.00116 1.04905e-17
7234.49880 1.07789e-17
7235.99644 1.11830e-17
7237.50426 1.13412e-17
7239.00190 1.14968e-17
7240.49953 1.10599e-17
7241.99717 1.05154e-17
7243.49480 1.21480e-17
7245.00263 1.19141e-17
7246.50026 1.03250e-17
7247.99790 1.05749e-17
7249.49554 1.10878e-17
7251.00336 1.21592e-17
7252.50100 1.23922e-17
7253.99863 1.11897e-17
7255.49627 1.08053e-17
7257.00409 1.13325e-17
7258.50173 1.13517e-17
7259.99936 1.10742e-17
7261.49700 1.01990e-17
7263.00482 1.00394e-17
7264.50246 1.13139e-17
7266.00010 1.16797e-17
7267.49773 1.19678e-17
7268.99537 1.19019e-17
7270.50319 1.12323e-17
7272.00083 1.11103e-17
7273.49846 1.02663e-17
7274.99610 9.94220e-18
7276.50392 9.91336e-18
7278.00156 1.11752e-17
7279.49920 1.16664e-17
7280.99683 1.12355e-17
7282.50466 1.14383e-17
7284.00229 1.14111e-17
7285.49993 1.05354e-17
7286.99756 9.46214e-18
7288.49520 9.97818e-18
7290.00302 1.14695e-17
7291.50066 1.13360e-17
7292.99830 1.03420e-17
7294.49593 1.08327e-17
7296.00376 1.13094e-17
7297.50139 1.07491e-17
7298.99903 1.03188e-17
7300.49666 1.02647e-17
7302.00449 1.13596e-17
7303.50212 1.24409e-17
7304.99976 1.21192e-17
7306.49740 1.15409e-17
7307.99503 1.15055e-17
7309.50286 1.04308e-17
7311.00049 9.61576e-18
7312.49813 1.16412e-17
7313.99576 1.32954e-17
7315.50359 1.30441e-17
7317.00122 1.09549e-17
7318.49886 1.04753e-17
7319.99650 1.06451e-17
7321.50432 1.09313e-17
7323.00196 1.15211e-17
7324.49959 1.04162e-17
7325.99723 1.02552e-17
7327.49486 1.16963e-17
7329.00269 1.07289e-17
7330.50032 1.01147e-17
7331.99796 1.03201e-17
7333.49560 1.09679e-17
7335.00342 1.13257e-17
7336.50106 1.19513e-17
7337.99869 1.24950e-17
7339.49633 1.08716e-17
7341.00415 1.08413e-17
7342.50179 1.22601e-17
7343.99942 1.09019e-17
7345.49706 9.83247e-18
7347.00488 9.92382e-18
7348.50252 1.02869e-17
7350.00016 1.01687e-17
7351.49779 1.14654e-17
7352.99543 1.17479e-17
7354.50325 1.19214e-17
7356.00089 1.19158e-17
7357.49852 1.12103e-17
7358.99616 1.04384e-17
7360.50398 1.13105e-17
7362.00162 1.23065e-17
7363.49926 1.13835e-17
7364.99689 1.13253e-17
7366.50472 1.14026e-17
7368.00235 1.08668e-17
7369.49999 1.11073e-17
7370.99762 1.10780e-17
7372.49526 1.07911e-17
7374.00308 1.14628e-17
7375.50072 1.17219e-17
7376.99836 1.03278e-17
7378.49599 1.03305e-17
7380.00382 1.12533e-17
7381.50145 1.20163e-17
7382.99909 1.20424e-17
7384.49672 1.11172e-17
7386.00455 1.02193e-17
7387.50218 1.07129e-17
7388.99982 1.14046e-17
7390.49746 1.16228e-17
7391.99509 1.08178e-17
7393.50292 1.09538e-17
7395.00055 1.14612e-17
7396.49819 1.04537e-17
7397.99582 1.01162e-17
7399.50365 1.19767e-17
7401.00128 1.17858e-17
7402.49892 1.15451e-17
7403.99656 1.10909e-17
7405.50438 1.11419e-17
7407.00202 1.07918e-17
7408.49965 1.02040e-17
7409.99729 1.05320e-17
7411.49492 1.13391e-17
7413.00275 1.20136e-17
7414.50038 1.20334e-17
7415.99802 1.01693e-17
7417.49566 1.10931e-17
7419.00348 1.01188e-17
7420.50112 1.06593e-17
7421.99875 1.16717e-17
7423.49639 1.20715e-17
7425.00421 1.04059e-17
7426.50185 1.04693e-17
7427.99948 1.10400e-17
7429.49712 1.12597e-17
7431.00494 1.14186e-17
7432.50258 1.14094e-17
7434.00022 1.16547e-17
7435.49785 1.11481e-17
7436.99549 1.00441e-17
7438.50331 1.06193e-17
7440.00095 1.08488e-17
7441.49858 1.09002e-17
7442.99622 1.12646e-17
7444.50404 1.04298e-17
7446.00168 1.10104e-17
7447.49932 1.20063e-17
7448.99695 1.21945e-17
7450.50478 1.20819e-17
7452.00241 1.12149e-17
7453.50005 1.08229e-17
7454.99768 1.10392e-17
7456.49532 1.12280e-17
7458.00314 1.19899e-17
7459.50078 1.16039e-17
7460.99842 1.18285e-17
7462.49605 1.10680e-17
7464.00388 1.08020e-17
7465.50151 1.06678e-17
7466.99915 1.03450e-17
7468.49678 1.08609e-17
7470.00461 1.07760e-17
7471.50224 9.89558e-18
7472.99988 1.05507e-17
7474.49752 1.06392e-17
7475.99515 1.09584e-17
7477.50298 1.08120e-17
7479.00061 1.07746e-17
7480.49825 1.09872e-17
7481.99588 1.06383e-17
7483.50371 1.02767e-17
7485.00134 1.03725e-17
7486.49898 1.05129e-17
7487.99662 1.00244e-17
7489.50444 9.01854e-18
7491.00208 1.11532e-17
7492.49971 9.91230e-18
7493.99735 9.44280e-18
7495.49498 1.02360e-17
7497.00281 1.02609e-17
7498.50044 9.75737e-18
7499.99808 9.93758e-18
7501.49572 8.99235e-18
7503.00354 8.93172e-18
7504.50118 9.29720e-18
7505.99881 9.46692e-18
7507.49645 1.07428e-17
7509.00427 1.02322e-17
7510.50191 9.40068e-18
7511.99954 9.26640e-18
7513.49718 1.01751e-17
7514.99482 9.97586e-18
7516.50264 9.04853e-18
7518.00028 9.25366e-18
7519.49791 9.12931e-18
7520.99555 1.00570e-17
7522.50337 1.11731e-17
7524.00101 9.40306e-18
7525.49864 7.98945e-18
7526.99628 7.91896e-18
7528.50410 8.03508e-18
7530.00174 8.95749e-18
7531.49938 9.80495e-18
7532.99701 9.06779e-18
7534.50484 9.26182e-18
7536.00247 9.36052e-18
7537.50011 9.10355e-18
7538.99774 8.17587e-18
7540.49538 9.53371e-18
7540.82765 9.53371e-18
7541.68911 9.47145e-18
7542.55058 9.41756e-18
7543.41204 9.36367e-18
7544.27350 9.31677e-18
7545.13496 9.26987e-18
7545.99642 9.22269e-18
7546.86790 9.17546e-18
7547.72936 9.11883e-18
7548.59083 9.06218e-18
7549.45229 8.99607e-18
7550.31375 8.92994e-18
7551.17521 8.85890e-18
7552.03667 8.78786e-18
7552.89814 8.71688e-18
7553.75960 8.64591e-18
7554.62106 8.58046e-18
7555.48252 8.51503e-18
7556.35400 8.45631e-18
7557.21546 8.39760e-18
7558.07693 8.34201e-18
7558.93839 8.28642e-18
7559.79985 8.23089e-18
7560.66131 8.17535e-18
7561.52277 8.11833e-18
7562.38424 8.06131e-18
7563.24570 8.00031e-18
7564.10716 7.93930e-18
7564.96862 7.86885e-18
7565.84010 7.79838e-18
7566.70156 7.71842e-18
7567.56302 7.63845e-18
7568.42449 7.56431e-18
7569.28595 7.49020e-18
7570.14741 7.43466e-18
7571.00887 7.37917e-18
7571.87033 7.34411e-18
7572.73180 7.30909e-18
7573.59326 7.29244e-18
7574.45472 7.27583e-18
7575.31618 7.25438e-18
7576.18766 7.23292e-18
7577.04912 7.18119e-18
7577.91059 7.12942e-18
7578.77205 7.06134e-18
7579.63351 6.99325e-18
7580.49497 6.93112e-18
7581.35643 6.86901e-18
7582.21790 6.80929e-18
7583.07936 6.74959e-18
7583.94082 6.68190e-18
7584.81230 6.61421e-18
7585.67376 6.50106e-18
7586.53522 6.38782e-18
7587.39668 6.17717e-18
7588.25815 5.96632e-18
7589.11961 5.66845e-18
7589.98107 5.37041e-18
7590.84253 5.04743e-18
7591.70399 4.72440e-18
7592.56546 4.43544e-18
7593.42692 4.14654e-18
7594.28838 3.94698e-18
7595.15986 3.74760e-18
7596.02132 3.66509e-18
7596.88278 3.58281e-18
7597.74425 3.59061e-18
7598.60571 3.59859e-18
7599.46717 3.67737e-18
7600.32863 3.75628e-18
7601.19009 3.92068e-18
7602.05156 4.08523e-18
7602.91302 4.33564e-18
7603.77448 4.58619e-18
7604.64596 4.89023e-18
7605.50742 5.19438e-18
7606.36888 5.51339e-18
7607.23034 5.83242e-18
7608.09181 6.12711e-18
7608.95327 6.42174e-18
7609.81473 6.65283e-18
7610.67619 6.88378e-18
7611.53765 6.99631e-18
7612.39912 7.10858e-18
7613.26058 7.05834e-18
7614.13206 7.00778e-18
7614.99352 6.79719e-18
7615.85498 6.58629e-18
7616.71644 6.24021e-18
7617.57791 5.89386e-18
7618.43937 5.51562e-18
7619.30083 5.13734e-18
7620.16229 4.86619e-18
7621.02375 4.59526e-18
7621.88522 4.48388e-18
7622.74668 4.37284e-18
7623.61816 4.41019e-18
7624.47962 4.44784e-18
7625.34108 4.58611e-18
7626.20254 4.72458e-18
7627.06400 4.87591e-18
7627.92547 5.02725e-18
7628.78693 5.14279e-18
7629.64839 5.25825e-18
7630.50985 5.35647e-18
7631.37131 5.45464e-18
7632.23278 5.54752e-18
7633.10426 5.64037e-18
7633.96572 5.72743e-18
7634.82718 5.81447e-18
7635.68864 5.89571e-18
7636.55010 5.97694e-18
7637.41157 6.03638e-18
7638.27303 6.09577e-18
7639.13449 6.12531e-18
7639.99595 6.15479e-18
7640.85741 6.18253e-18
7641.71888 6.21026e-18
7642.59035 6.26403e-18
7643.45182 6.31783e-18
7644.31328 6.40952e-18
7645.17474 6.50128e-18
7646.03620 6.63593e-18
7646.89766 6.77066e-18
7647.75913 6.91196e-18
7648.62059 7.05325e-18
7649.48205 7.15536e-18
7650.34351 7.25738e-18
7651.20497 7.31056e-18
7652.06644 7.36364e-18
7652.93792 7.37296e-18
7653.79938 7.38220e-18
7654.66084 7.38281e-18
7655.52230 7.38342e-18
7656.38376 7.42960e-18
7657.24523 7.47588e-18
7658.10669 7.57640e-18
7658.96815 7.67702e-18
7659.82961 7.80208e-18
7660.69107 7.92717e-18
7661.55254 8.05145e-18
7662.42401 8.17571e-18
7663.28548 8.27623e-18
7664.14694 8.37671e-18
7665.00840 8.45212e-18
7665.86986 8.52749e-18
7666.73132 8.62133e-18
7667.59279 8.71520e-18
7668.45425 8.84769e-18
7669.31571 8.98023e-18
7670.17717 9.11007e-18
7671.03863 9.23989e-18
7671.91011 9.33378e-18
7672.77158 9.42758e-18
7673.63304 9.47945e-18
7674.49450 9.53114e-18
7675.35596 9.54327e-18
7676.21742 9.55532e-18
7677.07889 9.57684e-18
7677.94035 9.59827e-18
7678.80181 9.67819e-18
7679.66327 9.75829e-18
7680.52473 9.86772e-18
7681.38620 9.97716e-18
7682.25767 1.00703e-17
7683.11914 1.01636e-17
7683.98060 1.02404e-17
7684.84206 1.03172e-17
7685.70352 1.03904e-17
7686.56498 1.04637e-17
7687.42645 1.05366e-17
7688.28791 1.06093e-17
7689.14937 1.06827e-17
7690.01083 1.07561e-17
7690.88231 1.08230e-17
7691.74377 1.08900e-17
7692.60524 1.09363e-17
7693.46670 1.09828e-17
7694.32816 1.10120e-17
7695.18962 1.10413e-17
7696.05108 1.10750e-17
7696.91255 1.11088e-17
7697.77401 1.11552e-17
7698.63547 1.12016e-17
7699.49693 1.12497e-17
7700.35839 1.12977e-17
7701.22987 1.13382e-17
7702.09133 1.13788e-17
7702.95280 1.14064e-17
7703.81426 1.14338e-17
7704.67572 1.14445e-17
7705.53718 1.14551e-17
7706.39864 1.14498e-17
7707.26011 1.14444e-17
7708.12157 1.14277e-17
7708.98303 1.14111e-17
7709.84449 1.14024e-17
7710.71597 1.13939e-17
7711.57743 1.14105e-17
7712.43890 1.14272e-17
7713.30036 1.14650e-17
7714.16182 1.15029e-17
7715.02328 1.15525e-17
7715.88474 1.16021e-17
7716.74620 1.16481e-17
7717.60767 1.16943e-17
7718.46913 1.17204e-17
7719.33059 1.17466e-17
7720.20207 1.17517e-17
7721.06353 1.17568e-17
7721.92499 1.17467e-17
7722.78646 1.17367e-17
7723.64792 1.17219e-17
7724.50938 1.17071e-17
7725.37084 1.17013e-17
7726.23230 1.16954e-17
7727.09377 1.17030e-17
7727.95523 1.17108e-17
7728.81669 1.17273e-17
7729.67815 1.17440e-17
7730.54963 1.17685e-17
7731.41109 1.17932e-17
7732.27255 1.18309e-17
7733.13402 1.18685e-17
7733.99548 1.19133e-17
7734.85694 1.19580e-17
7735.71840 1.19857e-17
7736.57986 1.20132e-17
7737.44133 1.20100e-17
7738.30279 1.20068e-17
7739.17427 1.19826e-17
7740.03573 1.19584e-17
7740.89719 1.19261e-17
7741.75865 1.18939e-17
7742.62012 1.18727e-17
7743.48158 1.18516e-17
7744.34304 1.18572e-17
7745.20450 1.18628e-17
7746.06596 1.18846e-17
7746.92743 1.19064e-17
7747.78889 1.19297e-17
7748.65035 1.19531e-17
7749.52183 1.19729e-17
7750.38329 1.19925e-17
7751.24475 1.20049e-17
7752.10621 1.20172e-17
7752.96768 1.20222e-17
7753.82914 1.20270e-17
7754.69060 1.20273e-17
7755.55206 1.20275e-17
7756.41352 1.20198e-17
7757.27499 1.20120e-17
7758.13645 1.19897e-17
7759.00793 1.19675e-17
7759.86939 1.19373e-17
7760.73085 1.19069e-17
7761.59231 1.18838e-17
7762.45378 1.18608e-17
7763.31524 1.18485e-17
7764.17670 1.18362e-17
7765.03816 1.18268e-17
7765.89962 1.18174e-17
7766.76109 1.18048e-17
7767.62255 1.17921e-17
7768.49403 1.17715e-17
7769.35549 1.17508e-17
7770.21695 1.17219e-17
7771.07841 1.16929e-17
7771.93988 1.16655e-17
7772.80134 1.16382e-17
7773.66280 1.16196e-17
7774.52426 1.16011e-17
7775.38572 1.15874e-17
7776.24719 1.15739e-17
7777.10865 1.15623e-17
7777.98013 1.15508e-17
7778.84159 1.15430e-17
7779.70305 1.15352e-17
7780.56451 1.15327e-17
7781.42597 1.15302e-17
7782.28744 1.15326e-17
7783.14890 1.15350e-17
7784.01036 1.15413e-17
7784.87182 1.15475e-17
7785.73328 1.15568e-17
7786.59475 1.15661e-17
7787.46623 1.15773e-17
7788.32769 1.15886e-17
7789.18915 1.15987e-17
7790.05061 1.16086e-17
7790.91207 1.16137e-17
7791.77354 1.16186e-17
7792.63500 1.16168e-17
7793.49646 1.16149e-17
7794.35792 1.16057e-17
7795.21938 1.15963e-17
7796.08085 1.15839e-17
7796.94231 1.15714e-17
7797.81379 1.15638e-17
7798.67525 1.15563e-17
7799.53671 1.15595e-17
7800.39817 1.15628e-17
7801.25963 1.15808e-17
7802.12110 1.15989e-17
7802.98256 1.16287e-17
7803.84402 1.16586e-17
7804.70548 1.16851e-17
7805.56694 1.17117e-17
7806.42841 1.17240e-17
7807.29989 1.17363e-17
7808.16135 1.17357e-17
7809.02281 1.17350e-17
7809.88427 1.17236e-17
7810.74573 1.17120e-17
7811.60720 1.16919e-17
7812.46866 1.16718e-17
7813.33012 1.16468e-17
7814.19158 1.16217e-17
7815.05304 1.15964e-17
7815.91450 1.15710e-17
7816.78598 1.15495e-17
7817.64745 1.15279e-17
7818.50891 1.15154e-17
7819.37037 1.15029e-17
7820.23183 1.15035e-17
7821.09329 1.15041e-17
7821.95476 1.15085e-17
7822.81622 1.15129e-17
7823.67768 1.15070e-17
7824.53914 1.15011e-17
7825.40060 1.14833e-17
7826.27208 1.14653e-17
7827.13355 1.14398e-17
7827.99501 1.14143e-17
7828.85647 1.13846e-17
7829.71793 1.13550e-17
7830.57939 1.13248e-17
7831.44085 1.12946e-17
7832.30232 1.12663e-17
7833.16378 1.12380e-17
7834.02524 1.12115e-17
7834.88670 1.11850e-17
7835.75818 1.11628e-17
7836.61964 1.11407e-17
7837.48111 1.11297e-17
7838.34257 1.11188e-17
7839.20403 1.11209e-17
7840.06549 1.11229e-17
7840.92695 1.11303e-17
7841.78842 1.11377e-17
7842.64988 1.11435e-17
7843.51134 1.11494e-17
7844.37280 1.11507e-17
7845.23426 1.11521e-17
7846.10574 1.11470e-17
7846.96720 1.11421e-17
7847.82867 1.11332e-17
7848.69013 1.11244e-17
7849.55159 1.11149e-17
7850.41305 1.11055e-17
7851.27452 1.10974e-17
7852.13598 1.10892e-17
7852.99744 1.10838e-17
7853.85890 1.10783e-17
7854.72036 1.10767e-17
7855.59184 1.10750e-17
7856.45330 1.10777e-17
7857.31477 1.10805e-17
7858.17623 1.10833e-17
7859.03769 1.10862e-17
7859.89915 1.10825e-17
7860.76061 1.10788e-17
7861.62208 1.10690e-17
7862.48354 1.10593e-17
7863.34500 1.10489e-17
7864.20646 1.10385e-17
7865.07794 1.10246e-17
7865.93940 1.10108e-17
7866.80087 1.09843e-17
7867.66233 1.09580e-17
7868.52379 1.09180e-17
7869.38525 1.08780e-17
7870.24671 1.08321e-17
7871.10818 1.07862e-17
7871.96964 1.07450e-17
7872.83110 1.07037e-17
7873.69256 1.06844e-17
7874.56404 1.06652e-17
7875.42550 1.06747e-17
7876.28696 1.06843e-17
7877.14843 1.07030e-17
7878.00989 1.07218e-17
7878.87135 1.07318e-17
7879.73281 1.07419e-17
7880.59427 1.07378e-17
7881.45574 1.07337e-17
7882.31720 1.07124e-17
7883.17866 1.06911e-17
7884.05014 1.06602e-17
7884.91160 1.06293e-17
7885.77306 1.05981e-17
7886.63453 1.05670e-17
7887.49599 1.05349e-17
7888.35745 1.05027e-17
7889.21891 1.04674e-17
7890.08037 1.04321e-17
7890.94184 1.03955e-17
7891.80330 1.03590e-17
7892.66476 1.03234e-17
7893.52622 1.02879e-17
7894.39770 1.02626e-17
7895.25916 1.02373e-17
7896.12062 1.02351e-17
7896.98209 1.02328e-17
7897.84355 1.02463e-17
7898.70501 1.02598e-17
7899.56647 1.02677e-17
7900.42793 1.02756e-17
7901.28940 1.02686e-17
7902.15086 1.02616e-17
7903.01232 1.02420e-17
7903.88380 1.02223e-17
7904.74526 1.01961e-17
7905.60672 1.01700e-17
7906.46819 1.01509e-17
7907.32965 1.01318e-17
7908.19111 1.01252e-17
7909.05257 1.01186e-17
7909.91403 1.01091e-17
7910.77550 1.00997e-17
7911.63696 1.00782e-17
7912.49842 1.00568e-17
7913.36990 1.00344e-17
7914.23136 1.00118e-17
7915.09282 9.99748e-18
7915.95428 9.98314e-18
7916.81575 9.97753e-18
7917.67721 9.97192e-18
7918.53867 9.97385e-18
7919.40013 9.97578e-18
7920.26159 9.97173e-18
7921.12306 9.96778e-18
7921.98452 9.94424e-18
7922.85600 9.92060e-18
7923.71746 9.88584e-18
7924.57892 9.85108e-18
7925.44038 9.81972e-18
7926.30185 9.78827e-18
7927.16331 9.76877e-18
7928.02477 9.74927e-18
7928.88623 9.74734e-18
7929.74769 9.74550e-18
7930.60916 9.75764e-18
7931.47062 9.76978e-18
7932.34210 9.78597e-18
7933.20356 9.80224e-18
7934.06502 9.81392e-18
7934.92648 9.82560e-18
7935.78794 9.82560e-18
7936.64941 9.82570e-18
7937.51087 9.81043e-18
7938.37233 9.79507e-18
7939.23379 9.76528e-18
7940.09525 9.73539e-18
7940.95672 9.69538e-18
7941.81818 9.65538e-18
7942.68966 9.61519e-18
7943.55112 9.57500e-18
7944.41258 9.54245e-18
7945.27404 9.50989e-18
7946.13551 9.48635e-18
7946.99697 9.46281e-18
7947.85843 9.44818e-18
7948.71989 9.43347e-18
7949.58135 9.42501e-18
7950.44282 9.41655e-18
7951.30428 9.41048e-18
7952.17576 9.40441e-18
7953.03722 9.39264e-18
7953.89868 9.38087e-18
7954.76014 9.35640e-18
7955.62160 9.33194e-18
7956.48307 9.30500e-18
7957.34453 9.27796e-18
7958.20599 9.26177e-18
7959.06745 9.24568e-18
7959.92891 9.24126e-18
7960.79038 9.23685e-18
7961.66186 9.24136e-18
7962.52332 9.24577e-18
7963.38478 9.25212e-18
7964.24624 9.25846e-18
7965.10770 9.25653e-18
7965.96917 9.25451e-18
7966.83063 9.25009e-18
7967.69209 9.24559e-18
7968.55355 9.25543e-18
7969.41501 9.26536e-18
7970.27648 9.29341e-18
7971.14795 9.32155e-18
7972.00942 9.35935e-18
7972.87088 9.39714e-18
7973.73234 9.43329e-18
7974.59380 9.46952e-18
7975.45526 9.48754e-18
7976.31673 9.50557e-18
7977.17819 9.49840e-18
7978.03965 9.49122e-18
7978.90111 9.47237e-18
7979.76257 9.45352e-18
7980.63405 9.43476e-18
7981.49552 9.41609e-18
7982.35698 9.40036e-18
7983.21844 9.38464e-18
7984.07990 9.37378e-18
7984.94136 9.36293e-18
7985.80283 9.35300e-18
7986.66429 9.34316e-18
7987.52575 9.33001e-18
7988.38721 9.31677e-18
7989.24867 9.30205e-18
7990.11014 9.28734e-18
7990.98161 9.27327e-18
7991.84308 9.25920e-18
7992.70454 9.25009e-18
7993.56600 9.24099e-18
7994.42746 9.24182e-18
7995.28892 9.24274e-18
7996.15039 9.24366e-18
7997.01185 9.24458e-18
7997.87331 9.22986e-18
7998.73477 9.21515e-18
7999.59623 9.18670e-18
8000.46771 9.15826e-18
8001.32917 9.12798e-18
8002.19064 9.09770e-18
8003.05210 9.07456e-18
8003.91356 9.05144e-18
8004.77502 9.04310e-18
8005.63649 9.03481e-18
8006.49795 9.03930e-18
8007.35941 9.04383e-18
8008.22087 9.04550e-18
8009.08233 9.04717e-18
8009.95381 9.04089e-18
8010.81527 9.03461e-18
8011.67674 9.03539e-18
8012.53820 9.03617e-18
8013.39966 9.05127e-18
8014.26112 9.06639e-18
8015.12258 9.08527e-18
8015.98405 9.10415e-18
8016.84551 9.11675e-18
8017.70697 9.12933e-18
8018.56843 9.12543e-18
8019.43991 9.12150e-18
8020.30137 9.09483e-18
8021.16284 9.06812e-18
8022.02430 9.03560e-18
8022.88576 9.00305e-18
8023.74722 8.98333e-18
8024.60868 8.96365e-18
8025.47015 8.95620e-18
8026.33161 8.94877e-18
8027.19307 8.94861e-18
8028.05453 8.94845e-18
8028.92601 8.94943e-18
8029.78747 8.95040e-18
8030.64893 8.94539e-18
8031.51040 8.94036e-18
8032.37186 8.93007e-18
8033.23332 8.91977e-18
8034.09478 8.90917e-18
8034.95624 8.89859e-18
8035.81771 8.89089e-18
8036.67917 8.88320e-18
8037.54063 8.88032e-18
8038.41211 8.87744e-18
8039.27357 8.88006e-18
8040.13503 8.88268e-18
8040.99650 8.88996e-18
8041.85796 8.89725e-18
8042.71942 8.90676e-18
8043.58088 8.91628e-18
8044.44234 8.92377e-18
8045.30380 8.93125e-18
8046.16527 8.93346e-18
8047.02673 8.93566e-18
8047.88819 8.93111e-18
8048.75967 8.92654e-18
8049.62113 8.91601e-18
8050.48259 8.90547e-18
8051.34406 8.89675e-18
8052.20552 8.88803e-18
8053.06698 8.88694e-18
8053.92844 8.88586e-18
8054.78990 8.88797e-18
8055.65137 8.89008e-18
8056.51283 8.88984e-18
8057.37429 8.88960e-18
8058.24577 8.88037e-18
8059.10723 8.87112e-18
8059.96869 8.84726e-18
8060.83015 8.82338e-18
8061.69162 8.78949e-18
8062.55308 8.75558e-18
8063.41454 8.71946e-18
8064.27600 8.68335e-18
8065.13746 8.65389e-18
8065.99893 8.62444e-18
8066.86039 8.61033e-18
8067.73187 8.59625e-18
8068.59333 8.59798e-18
8069.45479 8.59973e-18
8070.31625 8.61265e-18
8071.17772 8.62559e-18
8072.03918 8.64043e-18
8072.90064 8.65527e-18
8073.76210 8.65882e-18
8074.62356 8.66233e-18
8075.48503 8.64971e-18
8076.34649 8.63704e-18
8077.21797 8.61455e-18
8078.07943 8.59204e-18
8078.94089 8.56362e-18
8079.80235 8.53518e-18
8080.66381 8.50010e-18
8081.52528 8.46500e-18
8082.38674 8.42380e-18
8083.24820 8.38257e-18
8084.10966 8.33698e-18
8084.97113 8.29139e-18
8085.83259 8.24348e-18
8086.70407 8.19554e-18
8087.56553 8.14833e-18
8088.42699 8.10112e-18
8089.28845 8.05747e-18
8090.14991 8.01382e-18
8091.01138 7.97630e-18
8091.87284 7.93880e-18
8092.73430 7.90878e-18
8093.59576 7.87878e-18
8094.45722 7.85569e-18
8095.31869 7.83263e-18
8096.18015 7.81461e-18
8097.05163 7.79662e-18
8097.91309 7.77365e-18
8098.77455 7.75068e-18
8099.63601 7.71087e-18
8100.49748 7.67101e-18
8101.35894 7.61059e-18
8102.22040 7.55011e-18
8103.08186 7.46986e-18
8103.94332 7.38954e-18
8104.80479 7.29916e-18
8105.67626 7.20876e-18
8106.53773 7.12403e-18
8107.39919 7.03931e-18
8108.26065 6.97005e-18
8109.12211 6.90083e-18
8109.98357 6.85039e-18
8110.84504 6.79998e-18
8111.70650 6.76393e-18
8112.56796 6.72790e-18
8113.42942 6.69079e-18
8114.29088 6.65367e-18
8115.15235 6.60300e-18
8116.02383 6.55231e-18
8116.88529 6.48277e-18
8117.74675 6.41320e-18
8118.60821 6.32381e-18
8119.46967 6.23438e-18
8120.33114 6.13802e-18
8121.19260 6.04166e-18
8122.05406 5.94865e-18
8122.91552 5.85565e-18
8123.77698 5.75449e-18
8124.63845 5.65331e-18
8125.49991 5.53333e-18
8126.37139 5.41330e-18
8127.23285 5.28021e-18
8128.09431 5.14709e-18
8128.95577 5.00930e-18
8129.81723 4.87151e-18
8130.67870 4.74516e-18
8131.54016 4.61884e-18
8132.40162 4.52127e-18
8133.26308 4.42379e-18
8134.12454 4.34570e-18
8134.99602 4.26766e-18
8135.85749 4.18816e-18
8136.71895 4.10867e-18
8137.58041 4.01986e-18
8138.44187 3.93103e-18
8139.30333 3.83261e-18
8140.16480 3.73417e-18
8141.02626 3.62865e-18
8141.88772 3.52311e-18
8142.74918 3.41637e-18
8143.61064 3.30961e-18
8144.47210 3.20746e-18
8145.34358 3.10533e-18
8146.20505 3.01242e-18
8147.06651 2.91955e-18
8147.92797 2.83916e-18
8148.78943 2.75882e-18
8149.65089 2.69199e-18
8150.51236 2.62521e-18
8151.37382 2.57028e-18
8152.23528 2.51539e-18
8153.09674 2.46512e-18
8153.95820 2.41487e-18
8154.82968 2.36341e-18
8155.69115 2.31195e-18
8156.55261 2.25986e-18
8157.41407 2.20776e-18
8158.27553 2.15680e-18
8159.13699 2.10585e-18
8159.99845 2.06038e-18
8160.85992 2.01491e-18
8161.72138 1.97917e-18
8162.58284 1.94345e-18
8163.44430 1.91874e-18
8164.31578 1.89406e-18
8165.17724 1.88016e-18
8166.03871 1.86627e-18
8166.90017 1.85655e-18
8167.76163 1.84684e-18
8168.62309 1.83326e-18
8169.48455 1.81969e-18
8170.34602 1.79557e-18
8171.20748 1.77143e-18
8172.06894 1.73040e-18
8172.93040 1.68933e-18
8173.80188 1.64224e-18
8174.66334 1.59513e-18
8175.52481 1.56538e-18
8176.38627 1.53568e-18
8177.24773 1.52848e-18
8178.10919 1.52133e-18
8178.97065 1.52311e-18
8179.83212 1.52492e-18
8180.69358 1.52535e-18
8181.55504 1.52578e-18
8182.41650 1.51836e-18
8183.28798 1.51093e-18
8184.14944 1.49329e-18
8185.01090 1.47563e-18
8185.87237 1.45653e-18
8186.73383 1.43742e-18
8187.59529 1.42312e-18
8188.45675 1.40882e-18
8189.31821 1.39448e-18
8190.17968 1.38014e-18
8191.04114 1.36238e-18
8191.90260 1.34460e-18
8192.77408 1.32754e-18
8193.63554 1.31049e-18
8194.49700 1.29831e-18
8195.35846 1.28614e-18
8196.21993 1.28258e-18
8197.08139 1.27904e-18
8197.94285 1.28692e-18
8198.80431 1.29482e-18
8199.66577 1.30739e-18
8200.52724 1.31996e-18
8201.38870 1.32776e-18
8202.25016 1.33555e-18
8203.12164 1.33674e-18
8203.98310 1.33793e-18
8204.84456 1.33406e-18
8205.70603 1.33017e-18
8206.56749 1.32202e-18
8207.42895 1.31384e-18
8208.29041 1.30205e-18
8209.15187 1.29025e-18
8210.01334 1.27674e-18
8210.87480 1.26323e-18
8211.73626 1.25050e-18
8212.60774 1.23777e-18
8213.46920 1.22686e-18
8214.33066 1.21596e-18
8215.19212 1.20670e-18
8216.05359 1.19745e-18
8216.91505 1.18690e-18
8217.77651 1.17636e-18
8218.63797 1.15637e-18
8219.49943 1.13636e-18
8220.36090 1.10381e-18
8221.22236 1.07124e-18
8222.08382 1.03447e-18
8222.95530 9.97698e-19
8223.81676 9.66016e-19
8224.67822 9.34344e-19
8225.53969 9.19410e-19
8226.40115 9.04519e-19
8227.26261 9.14754e-19
8228.12407 9.25046e-19
8228.98553 9.52608e-19
8229.84700 9.80206e-19
8230.70846 1.01420e-18
8231.57994 1.04820e-18
8232.44140 1.07804e-18
8233.30286 1.10787e-18
8234.16432 1.12372e-18
8235.02578 1.13953e-18
8235.88725 1.14466e-18
8236.74871 1.14974e-18
8237.61017 1.15233e-18
8238.47163 1.15493e-18
8239.33309 1.16071e-18
8240.19456 1.16651e-18
8241.06604 1.18025e-18
8241.92750 1.19400e-18
8242.78896 1.21291e-18
8243.65042 1.23183e-18
8244.51188 1.24732e-18
8245.37335 1.26280e-18
8246.23481 1.27066e-18
8247.09627 1.27849e-18
8247.95773 1.27918e-18
8248.81919 1.27985e-18
8249.68066 1.27510e-18
8250.54212 1.27033e-18
8251.41360 1.26395e-18
8252.27506 1.25756e-18
8253.13652 1.25311e-18
8253.99798 1.24867e-18
8254.85945 1.24831e-18
8255.72091 1.24797e-18
8256.58237 1.25292e-18
8257.44383 1.25790e-18
8258.30529 1.26733e-18
8259.16676 1.27676e-18
8260.02822 1.28885e-18
8260.89970 1.30094e-18
8261.76116 1.31233e-18
8262.62262 1.32374e-18
8263.48408 1.33116e-18
8264.34554 1.33857e-18
8265.20701 1.33906e-18
8266.06847 1.33953e-18
8266.92993 1.33113e-18
8267.79139 1.32272e-18
8268.65285 1.30991e-18
8269.52433 1.29708e-18
8270.38580 1.28605e-18
8271.24726 1.27503e-18
8272.10872 1.26996e-18
8272.97018 1.26490e-18
8273.83164 1.26900e-18
8274.69311 1.27312e-18
8275.55457 1.28318e-18
8276.41603 1.29324e-18
8277.27749 1.30200e-18
8278.13895 1.31074e-18
8279.01043 1.31523e-18
8279.87189 1.31971e-18
8280.73336 1.32063e-18
8281.59482 1.32154e-18
8282.45628 1.32109e-18
8283.31774 1.32063e-18
8284.17920 1.32339e-18
8285.04067 1.32616e-18
8285.90213 1.33387e-18
8286.76359 1.34160e-18
8287.62505 1.35012e-18
8288.48651 1.35865e-18
8289.34798 1.36577e-18
8290.21946 1.37289e-18
8291.08092 1.38193e-18
8291.94238 1.39097e-18
8292.80384 1.40382e-18
8293.66530 1.41667e-18
8294.52677 1.42997e-18
8295.38823 1.44327e-18
8296.24969 1.45392e-18
8297.11115 1.46457e-18
8297.97261 1.47057e-18
8298.83408 1.47655e-18
8299.70555 1.47671e-18
8300.56702 1.47685e-18
8301.42848 1.47822e-18
8302.28994 1.47959e-18
8303.15140 1.49052e-18
8304.01286 1.50148e-18
8304.87433 1.51876e-18
8305.73579 1.53605e-18
8306.59725 1.55274e-18
8307.45871 1.56942e-18
8308.32017 1.58128e-18
8309.18164 1.59313e-18
8310.05312 1.59708e-18
8310.91458 1.60102e-18
8311.77604 1.60036e-18
8312.63750 1.59967e-18
8313.49896 1.60237e-18
8314.36043 1.60506e-18
8315.22189 1.61559e-18
8316.08335 1.62615e-18
8316.94481 1.64542e-18
8317.80627 1.66471e-18
8318.67775 1.69044e-18
8319.53921 1.71619e-18
8320.40068 1.74123e-18
8321.26214 1.76626e-18
8322.12360 1.78547e-18
8322.98506 1.80466e-18
8323.84652 1.81798e-18
8324.70799 1.83129e-18
8325.56945 1.83938e-18
8326.43091 1.84747e-18
8327.29237 1.85234e-18
8328.16385 1.85720e-18
8329.02531 1.86133e-18
8329.88678 1.86545e-18
8330.74824 1.87025e-18
8331.60970 1.87506e-18
8332.47116 1.88195e-18
8333.33262 1.88885e-18
8334.19408 1.90128e-18
8335.05555 1.91373e-18
8335.91701 1.93459e-18
8336.77847 1.95546e-18
8337.64995 1.98250e-18
8338.51141 2.00954e-18
8339.37287 2.03889e-18
8340.23434 2.06826e-18
8341.09580 2.09464e-18
8341.95726 2.12102e-18
8342.81872 2.13870e-18
8343.68018 2.15637e-18
8344.54165 2.16548e-18
8345.40311 2.17457e-18
8346.26457 2.17912e-18
8347.12603 2.18365e-18
8347.99751 2.18691e-18
8348.85897 2.19017e-18
8349.72043 2.19458e-18
8350.58190 2.19898e-18
8351.44336 2.20738e-18
8352.30482 2.21579e-18
8353.16628 2.23116e-18
8354.02775 2.24656e-18
8354.88921 2.26927e-18
8355.75067 2.29201e-18
8356.62215 2.31834e-18
8357.48361 2.34470e-18
8358.34507 2.37097e-18
8359.20653 2.39723e-18
8360.06800 2.42020e-18
8360.92946 2.44316e-18
8361.79092 2.46089e-18
8362.65238 2.47861e-18
8363.51384 2.49446e-18
8364.37531 2.51029e-18
8365.23677 2.52753e-18
8366.10825 2.54477e-18
8366.96971 2.56125e-18
8367.83117 2.57773e-18
8368.69263 2.59119e-18
8369.55410 2.60466e-18
8370.41556 2.61729e-18
8371.27702 2.62994e-18
8372.13848 2.64478e-18
8372.99994 2.65962e-18
8373.86140 2.67831e-18
8374.72287 2.69702e-18
8375.59435 2.72061e-18
8376.45581 2.74423e-18
8377.31727 2.77252e-18
8378.17873 2.80081e-18
8379.04019 2.83270e-18
8379.90166 2.86459e-18
8380.76312 2.89833e-18
8381.62458 2.93207e-18
8382.48604 2.96561e-18
8383.34750 2.99915e-18
8384.20897 3.03080e-18
8385.07043 3.06242e-18
8385.94191 3.09060e-18
8386.80337 3.11878e-18
8387.66483 3.14443e-18
8388.52629 3.17008e-18
8389.38775 3.19818e-18
8390.24922 3.22629e-18
8391.11068 3.25825e-18
8391.97214 3.29021e-18
8392.83360 3.31959e-18
8393.69507 3.34897e-18
8394.55653 3.37117e-18
8395.41799 3.39337e-18
8396.28947 3.40826e-18
8397.15093 3.42314e-18
8398.01239 3.43260e-18
8398.87385 3.44203e-18
8399.73532 3.45649e-18
8400.59678 3.47096e-18
8401.45824 3.49994e-18
8402.31970 3.52897e-18
8403.18116 3.56941e-18
8404.04263 3.60988e-18
8404.90409 3.65595e-18
8405.77557 3.70202e-18
8406.63703 3.74727e-18
8407.49849 3.79251e-18
8408.35995 3.83026e-18
8409.22142 3.86799e-18
8410.08288 3.89828e-18
8410.94434 3.92856e-18
8411.80580 3.95479e-18
8412.66726 3.98101e-18
8413.52873 4.00552e-18
8414.39019 4.03003e-18
8415.26167 4.05473e-18
8416.12313 4.07944e-18
8416.98459 4.10635e-18
8417.84605 4.13327e-18
8418.70751 4.16405e-18
8419.56898 4.19483e-18
8420.43044 4.23012e-18
8421.29190 4.26541e-18
8422.15336 4.30506e-18
8423.01482 4.34472e-18
8423.87629 4.38662e-18
8424.74777 4.42854e-18
8425.60923 4.46691e-18
8426.47069 4.50527e-18
8427.33215 4.53775e-18
8428.19361 4.57021e-18
8429.05508 4.60333e-18
8429.91654 4.63646e-18
8430.77800 4.67557e-18
8431.63946 4.71469e-18
8432.50092 4.76036e-18
8433.36239 4.80604e-18
8434.23386 4.85742e-18
8435.09533 4.90880e-18
8435.95679 4.95735e-18
8436.81825 5.00590e-18
8437.67971 5.04322e-18
8438.54117 5.08052e-18
8439.40264 5.11152e-18
8440.26410 5.14250e-18
8441.12556 5.17517e-18
8441.98702 5.20782e-18
8442.84848 5.24450e-18
8443.70995 5.28119e-18
8444.58143 5.32243e-18
8445.44289 5.36367e-18
8446.30435 5.40991e-18
8447.16581 5.45616e-18
8448.02727 5.50727e-18
8448.88874 5.55837e-18
8449.75020 5.61276e-18
8450.61166 5.66714e-18
8451.47312 5.72250e-18
8452.33458 5.77784e-18
8453.20606 5.83151e-18
8454.06752 5.88516e-18
8454.92899 5.93392e-18
8455.79045 5.98266e-18
8456.65191 6.02721e-18
8457.51337 6.07175e-18
8458.37483 6.11900e-18
8459.23630 6.16626e-18
8460.09776 6.21913e-18
8460.95922 6.27202e-18
8461.82068 6.32458e-18
8462.69216 6.37713e-18
8463.55362 6.42517e-18
8464.41508 6.47320e-18
8465.27655 6.51703e-18
8466.13801 6.56085e-18
8466.99947 6.60224e-18
8467.86093 6.64363e-18
8468.72240 6.69136e-18
8469.58386 6.73911e-18
8470.44532 6.80097e-18
8471.30678 6.86285e-18
8472.16824 6.93401e-18
8473.03972 7.00520e-18
8473.90118 7.07869e-18
8474.76265 7.15218e-18
8475.62411 7.22269e-18
8476.48557 7.29320e-18
8477.34703 7.35566e-18
8478.20849 7.41809e-18
8479.06996 7.47850e-18
8479.93142 7.53890e-18
8480.79288 7.60826e-18
8481.65434 7.67764e-18
8482.51580 7.75348e-18
8483.38728 7.82933e-18
8484.24875 7.90143e-18
8485.11021 7.97352e-18
8485.97167 8.03730e-18
8486.83313 8.10107e-18
8487.69459 8.15642e-18
8488.55605 8.21176e-18
8489.41752 8.26160e-18
8490.27898 8.31144e-18
8491.14044 8.36315e-18
8492.00190 8.41487e-18
8492.87338 8.47326e-18
8493.73484 8.53166e-18
8494.59631 8.59542e-18
8495.45777 8.65918e-18
8496.31923 8.72901e-18
8497.18069 8.79885e-18
8498.04215 8.88255e-18
8498.90362 8.96628e-18
8499.76508 9.06679e-18
8500.62654 9.16734e-18
8501.48800 9.27125e-18
8502.35948 9.37516e-18
8503.22094 9.46934e-18
8504.08240 9.56351e-18
8504.94387 9.64526e-18
8505.80533 9.72693e-18
8506.66679 9.79572e-18
8507.52825 9.86441e-18
8508.38972 9.92502e-18
8509.25118 9.98562e-18
8510.11264 1.00446e-17
8510.98412 1.01036e-17
8511.84558 1.01635e-17
8512.70704 1.02233e-17
8513.56850 1.02854e-17
8514.42997 1.03474e-17
8515.29143 1.04114e-17
8516.15289 1.04754e-17
8517.01435 1.05406e-17
8517.87581 1.06058e-17
8518.73728 1.06722e-17
8519.59874 1.07385e-17
8520.46020 1.08063e-17
8521.33168 1.08740e-17
8522.19314 1.09461e-17
8523.05460 1.10181e-17
8523.91607 1.11000e-17
8524.77753 1.11821e-17
8525.63899 1.12758e-17
8526.50045 1.13695e-17
8527.36191 1.14716e-17
8528.22337 1.15736e-17
8529.08484 1.16786e-17
8529.94630 1.17836e-17
8530.80776 1.18828e-17
8531.67924 1.19821e-17
8532.54070 1.20684e-17
8533.40216 1.21547e-17
8534.26363 1.22254e-17
8535.12509 1.22961e-17
8535.98655 1.23519e-17
8536.84801 1.24079e-17
8537.70947 1.24596e-17
8538.57094 1.25114e-17
8539.43240 1.25705e-17
8540.30388 1.26298e-17
8541.16534 1.27039e-17
8542.02680 1.27780e-17
8542.88826 1.28716e-17
8543.74972 1.29653e-17
8544.61119 1.30723e-17
8545.47265 1.31792e-17
8546.33411 1.32897e-17
8547.19557 1.34001e-17
8548.05703 1.34970e-17
8548.91850 1.35938e-17
8549.78998 1.36585e-17
8550.65144 1.37231e-17
8551.51290 1.37572e-17
8552.37436 1.37913e-17
8553.23582 1.38089e-17
8554.09729 1.38266e-17
8554.95875 1.38469e-17
8555.82021 1.38673e-17
8556.68167 1.39129e-17
8557.54313 1.39586e-17
8558.40460 1.40398e-17
8559.27607 1.41211e-17
8560.13754 1.42315e-17
8560.99900 1.43419e-17
8561.86046 1.44696e-17
8562.72192 1.45972e-17
8563.58338 1.47223e-17
8564.44485 1.48475e-17
8565.30631 1.49519e-17
8566.16777 1.50563e-17
8567.02923 1.51281e-17
8567.89070 1.51999e-17
8568.75216 1.52334e-17
8569.62364 1.52668e-17
8570.48510 1.52714e-17
8571.34656 1.52760e-17
8572.20802 1.52654e-17
8573.06948 1.52548e-17
8573.93095 1.52440e-17
8574.79241 1.52333e-17
8575.65387 1.52368e-17
8576.51533 1.52405e-17
8577.37679 1.52737e-17
8578.23826 1.53070e-17
8579.09972 1.53813e-17
8579.97120 1.54557e-17
8580.83266 1.55567e-17
8581.69412 1.56578e-17
8582.55558 1.57614e-17
8583.41705 1.58651e-17
8584.27851 1.59520e-17
8585.13997 1.60390e-17
8586.00143 1.60934e-17
8586.86289 1.61478e-17
8587.72436 1.61676e-17
8588.58582 1.61874e-17
8589.45730 1.61813e-17
8590.31876 1.61751e-17
8591.18022 1.61567e-17
8592.04168 1.61383e-17
8592.90314 1.61260e-17
8593.76461 1.61136e-17
8594.62607 1.61177e-17
8595.48753 1.61216e-17
8596.34899 1.61379e-17
8597.21045 1.61541e-17
8598.07192 1.61800e-17
8598.94340 1.62061e-17
8599.80486 1.62443e-17
8600.66632 1.62827e-17
8601.52778 1.63321e-17
8602.38924 1.63816e-17
8603.25071 1.64344e-17
8604.11217 1.64873e-17
8604.97363 1.65347e-17
8605.83509 1.65823e-17
8606.69655 1.66128e-17
8607.56803 1.66433e-17
8608.42949 1.66476e-17
8609.29096 1.66517e-17
8610.15242 1.66322e-17
8611.01388 1.66125e-17
8611.87534 1.65759e-17
8612.73680 1.65392e-17
8613.59827 1.64931e-17
8614.45973 1.64468e-17
8615.32119 1.63990e-17
8616.18265 1.63512e-17
8617.04411 1.63167e-17
8617.91559 1.62822e-17
8618.77706 1.62774e-17
8619.63852 1.62726e-17
8620.49998 1.62985e-17
8621.36144 1.63243e-17
8622.22290 1.63719e-17
8623.08437 1.64196e-17
8623.94583 1.64762e-17
8624.80729 1.65330e-17
8625.66875 1.65827e-17
8626.53021 1.66325e-17
8627.40169 1.66657e-17
8628.26315 1.66988e-17
8629.12462 1.67152e-17
8629.98608 1.67315e-17
8630.84754 1.67307e-17
8631.70900 1.67299e-17
8632.57046 1.67097e-17
8633.43193 1.66893e-17
8634.29339 1.66524e-17
8635.15485 1.66156e-17
8636.01631 1.65736e-17
8636.88779 1.65316e-17
8637.74925 1.64967e-17
8638.61072 1.64618e-17
8639.47218 1.64478e-17
8640.33364 1.64339e-17
8641.19510 1.64506e-17
8642.05656 1.64672e-17
8642.91803 1.65063e-17
8643.77949 1.65456e-17
8644.64095 1.65950e-17
8645.50241 1.66444e-17
8646.37389 1.66912e-17
8647.23535 1.67380e-17
8648.09681 1.67694e-17
8648.95828 1.68008e-17
8649.81974 1.68121e-17
8650.68120 1.68234e-17
8651.54266 1.68148e-17
8652.40412 1.68060e-17
8653.26559 1.67760e-17
8654.12705 1.67461e-17
8654.98851 1.66938e-17
8655.85999 1.66416e-17
8656.72145 1.65762e-17
8657.58291 1.65108e-17
8658.44438 1.64480e-17
8659.30584 1.63852e-17
8660.16730 1.63357e-17
8661.02876 1.62863e-17
8661.89022 1.62550e-17
8662.75168 1.62238e-17
8663.61315 1.62131e-17
8664.47461 1.62026e-17
8665.33607 1.62119e-17
8666.20755 1.62211e-17
8667.06901 1.62460e-17
8667.93047 1.62709e-17
8668.79194 1.63035e-17
8669.65340 1.63363e-17
8670.51486 1.63663e-17
8671.37632 1.63962e-17
8672.23778 1.64055e-17
8673.09925 1.64147e-17
8673.96071 1.63899e-17
8674.82217 1.63650e-17
8675.68363 1.63101e-17
8676.55511 1.62551e-17
8677.41657 1.61789e-17
8678.27803 1.61026e-17
8679.13950 1.60201e-17
8680.00096 1.59375e-17
8680.86242 1.58650e-17
8681.72388 1.57925e-17
8682.58535 1.57365e-17
8683.44681 1.56806e-17
8684.30827 1.56434e-17
8685.16973 1.56063e-17
8686.04121 1.55902e-17
8686.90267 1.55742e-17
8687.76413 1.55794e-17
8688.62560 1.55847e-17
8689.48706 1.56073e-17
8690.34852 1.56298e-17
8691.20998 1.56629e-17
8692.07144 1.56961e-17
8692.93291 1.57287e-17
8693.79437 1.57611e-17
8694.66585 1.57787e-17
8695.52731 1.57963e-17
8696.38877 1.57902e-17
8697.25023 1.57840e-17
8698.11170 1.57528e-17
8698.97316 1.57214e-17
8699.83462 1.56683e-17
8700.69608 1.56153e-17
8701.55754 1.55519e-17
8702.41900 1.54886e-17
8703.28047 1.54246e-17
8704.15195 1.53606e-17
8705.01341 1.52963e-17
8705.87487 1.52322e-17
8706.73633 1.51703e-17
8707.59779 1.51085e-17
8708.45926 1.50619e-17
8709.32072 1.50155e-17
8710.18218 1.49944e-17
8711.04364 1.49734e-17
8711.90510 1.49782e-17
8712.76657 1.49831e-17
8713.62803 1.50102e-17
8714.49951 1.50372e-17
8715.36097 1.50667e-17
8716.22243 1.50962e-17
8717.08389 1.51058e-17
8717.94535 1.51154e-17
8718.80682 1.50959e-17
8719.66828 1.50762e-17
8720.52974 1.50242e-17
8721.39120 1.49722e-17
8722.25267 1.49004e-17
8723.11413 1.48287e-17
8723.98561 1.47596e-17
8724.84707 1.46903e-17
8725.70853 1.46319e-17
8726.56999 1.45734e-17
8727.43145 1.45234e-17
8728.29292 1.44735e-17
8729.15438 1.44321e-17
8730.01584 1.43907e-17
8730.87730 1.43591e-17
8731.73876 1.43273e-17
8732.61024 1.43084e-17
8733.47170 1.42893e-17
8734.33317 1.42918e-17
8735.19463 1.42944e-17
8736.05609 1.43157e-17
8736.91755 1.43371e-17
8737.77902 1.43521e-17
8738.64048 1.43671e-17
8739.50194 1.43544e-17
8740.36340 1.43417e-17
8741.22486 1.42896e-17
8742.08633 1.42375e-17
8742.95780 1.41430e-17
8743.81927 1.40485e-17
8744.68073 1.39389e-17
8745.54219 1.38292e-17
8746.40365 1.37340e-17
8747.26511 1.36388e-17
8748.12658 1.35718e-17
8748.98804 1.35051e-17
8749.84950 1.34747e-17
8750.71096 1.34445e-17
8751.57242 1.34422e-17
8752.44390 1.34400e-17
8753.30537 1.34493e-17
8754.16683 1.34588e-17
8755.02829 1.34710e-17
8755.88975 1.34831e-17
8756.75121 1.34921e-17
8757.61268 1.35011e-17
8758.47414 1.34939e-17
8759.33560 1.34865e-17
8760.19706 1.34470e-17
8761.05852 1.34073e-17
8761.91999 1.33329e-17
8762.79146 1.32584e-17
8763.65293 1.31577e-17
8764.51439 1.30569e-17
8765.37585 1.29439e-17
8766.23731 1.28310e-17
8767.09877 1.27258e-17
8767.96024 1.26208e-17
8768.82170 1.25363e-17
8769.68316 1.24521e-17
8770.54462 1.23869e-17
8771.40608 1.23218e-17
8772.26755 1.22729e-17
8773.13903 1.22242e-17
8774.00049 1.21895e-17
8774.86195 1.21548e-17
8775.72341 1.21296e-17
8776.58487 1.21043e-17
8777.44633 1.20844e-17
8778.30780 1.20646e-17
8779.16926 1.20444e-17
8780.03072 1.20242e-17
8780.89218 1.19860e-17
8781.76366 1.19478e-17
8782.62512 1.18758e-17
8783.48659 1.18037e-17
8784.34805 1.17056e-17
8785.20951 1.16075e-17
8786.07097 1.14972e-17
8786.93243 1.13870e-17
8787.79390 1.12751e-17
8788.65536 1.11633e-17
8789.51682 1.10602e-17
8790.37828 1.09571e-17
8791.24976 1.08625e-17
8792.11122 1.07679e-17
8792.97268 1.06743e-17
8793.83415 1.05807e-17
8794.69561 1.04930e-17
8795.55707 1.04053e-17
8796.41853 1.03369e-17
8797.28000 1.02687e-17
8798.14146 1.02169e-17
8799.00292 1.01652e-17
8799.86438 1.01121e-17
8800.72584 1.00589e-17
8801.59732 9.98967e-18
8802.45878 9.92042e-18
8803.32025 9.82514e-18
8804.18171 9.72987e-18
8805.04317 9.60728e-18
8805.90463 9.48469e-18
8806.76609 9.35245e-18
8807.62756 9.22011e-18
8808.48902 9.09428e-18
8809.35048 8.96851e-18
8810.21194 8.85689e-18
8811.08342 8.74531e-18
8811.94488 8.65309e-18
8812.80635 8.56093e-18
8813.66781 8.48607e-18
8814.52927 8.41126e-18
8815.39073 8.34887e-18
8816.25219 8.28650e-18
8817.11365 8.23044e-18
8817.97512 8.17441e-18
8818.83658 8.11786e-18
8819.70806 8.06132e-18
8820.56952 7.99601e-18
8821.43098 7.93067e-18
8822.29244 7.84938e-18
8823.15391 7.76806e-18
8824.01537 7.66991e-18
8824.87683 7.57172e-18
8825.73829 7.45929e-18
8826.59975 7.34683e-18
8827.46122 7.23048e-18
8828.32268 7.11413e-18
8829.19416 7.00879e-18
8830.05562 6.90348e-18
8830.91708 6.81674e-18
8831.77854 6.73005e-18
8832.64000 6.66246e-18
8833.50147 6.59492e-18
8834.36293 6.54406e-18
8835.22439 6.49324e-18
8836.08585 6.45315e-18
8836.94732 6.41309e-18
8837.80878 6.37680e-18
8838.67024 6.34052e-18
8839.54172 6.30088e-18
8840.40318 6.26123e-18
8841.26464 6.21296e-18
8842.12610 6.16467e-18
8842.98757 6.10707e-18
8843.84903 6.04945e-18
8844.71049 5.98363e-18
8845.57195 5.91779e-18
8846.43341 5.84761e-18
8847.29488 5.77741e-18
8848.15634 5.70779e-18
8849.02782 5.63818e-18
8849.88928 5.57177e-18
8850.75074 5.50538e-18
8851.61220 5.44469e-18
8852.47367 5.38403e-18
8853.33513 5.34197e-18
8854.19659 5.29994e-18
8855.05805 5.28932e-18
8855.91951 5.27878e-18
8856.78097 5.28942e-18
8857.64244 5.30012e-18
8858.50390 5.31404e-18
8859.36536 5.32796e-18
8860.23684 5.33034e-18
8861.09830 5.33267e-18
8861.95976 5.31009e-18
8862.82123 5.28744e-18
8863.68269 5.24496e-18
8864.54415 5.20241e-18
8865.40561 5.15956e-18
8866.26707 5.11670e-18
8867.12854 5.08257e-18
8867.99000 5.04846e-18
8868.86148 5.02075e-18
8869.72294 4.99305e-18
8870.58440 4.97077e-18
8871.44586 4.94849e-18
8872.30732 4.93077e-18
8873.16879 4.91307e-18
8874.03025 4.90088e-18
8874.89171 4.88871e-18
8875.75317 4.88957e-18
8876.61463 4.89047e-18
8877.47610 4.90742e-18
8878.34758 4.92442e-18
8879.20904 4.94808e-18
8880.07050 4.97176e-18
8880.93196 4.99230e-18
8881.79342 5.01284e-18
8882.65489 5.02113e-18
8883.51635 5.02938e-18
8884.37781 5.01874e-18
8885.23927 5.00807e-18
8886.10073 4.98466e-18
8886.96220 4.96123e-18
8887.83367 4.93469e-18
8888.69514 4.90814e-18
8889.55660 4.88736e-18
8890.41806 4.86658e-18
8891.27952 4.85962e-18
8892.14099 4.85270e-18
8893.00245 4.86413e-18
8893.86391 4.87560e-18
8894.72537 4.90722e-18
8895.58683 4.93888e-18
8896.44830 4.98325e-18
8897.30976 5.02765e-18
8898.18124 5.07206e-18
8899.04270 5.11647e-18
8899.90416 5.15009e-18
8900.76562 5.18366e-18
8901.62708 5.19742e-18
8902.48855 5.21112e-18
8903.35001 5.20642e-18
8904.21147 5.20168e-18
8905.07293 5.19356e-18
8905.93439 5.18543e-18
8906.80587 5.18376e-18
8907.66734 5.18211e-18
8908.52880 5.18591e-18
8909.39026 5.18972e-18
8910.25172 5.19901e-18
8911.11318 5.20831e-18
8911.97465 5.22493e-18
8912.83611 5.24155e-18
8913.69757 5.26625e-18
8914.55903 5.29097e-18
8915.42049 5.32550e-18
8916.29197 5.36005e-18
8917.15343 5.40400e-18
8918.01490 5.44797e-18
8918.87636 5.49003e-18
8919.73782 5.53209e-18
8920.59928 5.56094e-18
8921.46074 5.58977e-18
8922.32221 5.60221e-18
8923.18367 5.61461e-18
8924.04513 5.61031e-18
8924.90659 5.60596e-18
8925.76805 5.59824e-18
8926.63953 5.59050e-18
8927.50100 5.59755e-18
8928.36246 5.60463e-18
8929.22392 5.62714e-18
8930.08538 5.64969e-18
8930.94684 5.67944e-18
8931.80831 5.70921e-18
8932.66977 5.74025e-18
8933.53123 5.77128e-18
8934.39269 5.79783e-18
8935.25415 5.82436e-18
8936.12563 5.84914e-18
8936.98709 5.87392e-18
8937.84856 5.90993e-18
8938.71002 5.94598e-18
8939.57148 5.99382e-18
8940.43294 6.04169e-18
8941.29440 6.08371e-18
8942.15587 6.12573e-18
8943.01733 6.14901e-18
8943.87879 6.17223e-18
8944.74025 6.17095e-18
8945.61173 6.16960e-18
8946.47319 6.14585e-18
8947.33466 6.12204e-18
8948.19612 6.10305e-18
8949.05758 6.08407e-18
8949.91904 6.09193e-18
8950.78050 6.09985e-18
8951.64197 6.12769e-18
8952.50343 6.15557e-18
8953.36489 6.19228e-18
8954.22635 6.22901e-18
8955.08781 6.24563e-18
8955.95929 6.26221e-18
8956.82075 6.23029e-18
8957.68222 6.19826e-18
8958.54368 6.15322e-18
8959.40514 6.10815e-18
8960.26660 6.10214e-18
8961.12806 6.09625e-18
8961.98953 6.13673e-18
8962.85099 6.17734e-18
8963.71245 6.25443e-18
8964.57391 6.33163e-18
8965.44539 6.42035e-18
8966.30685 6.50909e-18
8967.16832 6.57162e-18
8968.02978 6.63409e-18
8968.89124 6.67457e-18
8969.75270 6.71501e-18
8970.61416 6.77478e-18
8971.47563 6.83462e-18
8972.33709 6.92801e-18
8973.19855 7.02149e-18
8974.06001 7.13079e-18
8974.93149 7.24011e-18
8975.79295 7.33968e-18
8976.65441 7.43921e-18
8977.51588 7.48984e-18
8978.37734 7.54034e-18
8979.23880 7.51150e-18
8980.10026 7.48244e-18
8980.96172 7.35447e-18
8981.82319 7.22624e-18
8982.68465 7.01178e-18
8983.54611 6.79708e-18
8984.41759 6.61146e-18
8985.27905 6.42592e-18
8986.14051 6.37557e-18
8987.00198 6.32558e-18
8987.86344 6.44699e-18
8988.72490 6.56886e-18
8989.58636 6.86752e-18
8990.44782 7.16665e-18
8991.30928 7.50003e-18
8992.17075 7.83349e-18
8993.03221 8.02999e-18
8993.89367 8.22611e-18
8994.76515 8.26000e-18
8995.62661 8.29346e-18
8996.48807 8.19610e-18
8997.34954 8.09840e-18
8998.21100 7.94656e-18
8999.07246 7.79458e-18
8999.93392 7.69298e-18
9000.79538 7.59151e-18
9001.65685 7.58580e-18
9002.51831 7.58035e-18
9003.38979 7.66772e-18
9004.25125 7.75532e-18
9005.11271 7.90531e-18
9005.97417 8.05545e-18
9006.83563 8.20833e-18
9007.69710 8.36121e-18
9008.55856 8.47043e-18
9009.42002 8.57954e-18
9010.28148 8.62352e-18
9011.14295 8.66731e-18
9012.00441 8.64701e-18
9012.87589 8.62653e-18
9013.73735 8.59325e-18
9014.59881 8.55994e-18
9015.46027 8.55175e-18
9016.32173 8.54362e-18
9017.18320 8.53726e-18
9018.04466 8.53092e-18
9018.90612 8.50909e-18
9019.76758 8.48723e-18
9020.62904 8.46995e-18
9021.49051 8.45267e-18
9022.35197 8.46070e-18
9023.22345 8.46880e-18
9024.08491 8.52827e-18
9024.94637 8.58788e-18
9025.80783 8.71967e-18
9026.66930 8.85167e-18
9027.53076 9.02410e-18
9028.39222 9.19666e-18
9029.25368 9.36183e-18
9030.11514 9.52690e-18
9030.97660 9.65152e-18
9031.83807 9.77594e-18
9032.70955 9.83526e-18
9033.57101 9.89439e-18
9034.43247 9.88621e-18
9035.29393 9.87784e-18
9036.15539 9.81475e-18
9037.01686 9.75148e-18
9037.87832 9.66586e-18
9038.73978 9.58015e-18
9039.60124 9.52175e-18
9040.46270 9.46354e-18
9041.32417 9.44570e-18
9042.18563 9.42795e-18
9043.05711 9.41425e-18
9043.91857 9.40045e-18
9044.78003 9.37167e-18
9045.64149 9.34279e-18
9046.50295 9.31042e-18
9047.36442 9.27805e-18
9048.22588 9.25212e-18
9049.08734 9.22618e-18
9049.94880 9.22269e-18
9050.81027 9.21910e-18
9051.67173 9.24228e-18
9052.54321 9.26554e-18
9053.40467 9.26803e-18
9054.26613 9.27033e-18
9055.12759 9.21055e-18
9055.98905 9.15063e-18
9056.85052 9.05077e-18
9057.71198 8.95080e-18
9058.57344 8.84093e-18
9059.43490 8.73104e-18
9060.29636 8.61490e-18
9061.16784 8.49874e-18
9062.02931 8.37782e-18
9062.89077 8.25687e-18
9063.75223 8.12676e-18
9064.61369 7.99663e-18
9065.47515 7.84764e-18
9066.33662 7.69859e-18
9067.19808 7.56866e-18
9068.05954 7.43879e-18
9068.92100 7.39092e-18
9069.78246 7.34328e-18
9070.64393 7.36354e-18
9071.51540 7.38399e-18
9072.37687 7.40185e-18
9073.23833 7.41971e-18
9074.09979 7.40915e-18
9074.96125 7.39852e-18
9075.82271 7.37923e-18
9076.68418 7.35990e-18
9077.54564 7.34421e-18
9078.40710 7.32852e-18
9079.26856 7.32352e-18
9080.13002 7.31856e-18
9080.99149 7.32399e-18
9081.86297 7.32945e-18
9082.72443 7.32086e-18
9083.58589 7.31222e-18
9084.44735 7.27594e-18
9085.30881 7.23960e-18
9086.17028 7.20258e-18
9087.03174 7.16556e-18
9087.89320 7.14854e-18
9088.75466 7.13158e-18
9089.61612 7.10809e-18
9090.48760 7.08457e-18
9091.34906 7.02922e-18
9092.21053 6.97410e-18
9093.07199 6.91308e-18
9093.93345 6.85205e-18
9094.79491 6.81741e-18
9095.65637 6.78285e-18
9096.51784 6.76551e-18
9097.37930 6.74822e-18
9098.24076 6.72906e-18
9099.10222 6.70989e-18
9099.97370 6.69386e-18
9100.83516 6.67784e-18
9101.69663 6.67517e-18
9102.55809 6.67254e-18
9103.41955 6.70283e-18
9104.28101 6.73322e-18
9105.14247 6.82453e-18
9106.00393 6.91601e-18
9106.86540 7.03507e-18
9107.72686 7.15420e-18
9108.58832 7.21566e-18
9109.45980 7.27695e-18
9110.32126 7.24444e-18
9111.18272 7.21166e-18
9112.04419 7.10634e-18
9112.90565 7.00082e-18
9113.76711 6.86622e-18
9114.62857 6.73154e-18
9115.49003 6.65698e-18
9116.35150 6.58258e-18
9117.21296 6.61459e-18
9118.07442 6.64690e-18
9118.93588 6.71658e-18
9119.80736 6.78637e-18
9120.66882 6.82644e-18
9121.53028 6.86643e-18
9122.39175 6.83379e-18
9123.25321 6.80095e-18
9124.11467 6.66973e-18
9124.97613 6.53824e-18
9125.83760 6.36911e-18
9126.69906 6.19990e-18
9127.56052 6.06676e-18
9128.43200 5.93373e-18
9129.29346 5.87473e-18
9130.15492 5.81595e-18
9131.01638 5.85569e-18
9131.87785 5.89570e-18
9132.73931 6.01760e-18
9133.60077 6.13973e-18
9134.46223 6.30631e-18
9135.32369 6.47301e-18
9136.18516 6.64525e-18
9137.04662 6.81752e-18
9137.90808 6.95518e-18
9138.76954 7.09274e-18
9139.64102 7.16991e-18
9140.50248 7.24690e-18
9141.36395 7.25482e-18
9142.22541 7.26255e-18
9143.08687 7.18811e-18
9143.94833 7.11344e-18
9144.80979 6.93776e-18
9145.67125 6.76182e-18
9146.53272 6.50768e-18
9147.39418 6.25332e-18
9148.26566 5.99748e-18
9149.12712 5.74164e-18
9149.98858 5.55374e-18
9150.85004 5.36604e-18
9151.71151 5.30244e-18
9152.57297 5.23920e-18
9153.43443 5.32189e-18
9154.29589 5.40498e-18
9155.15735 5.56169e-18
9156.01882 5.71859e-18
9156.88028 5.87294e-18
9157.75176 6.02728e-18
9158.61322 6.14358e-18
9159.47468 6.25977e-18
9160.33614 6.31043e-18
9161.19760 6.36090e-18
9162.05907 6.34776e-18
9162.92053 6.33443e-18
9163.78199 6.27248e-18
9164.64345 6.21039e-18
9165.50492 6.09755e-18
9166.36638 5.98457e-18
9167.22784 5.81817e-18
9168.09932 5.65163e-18
9168.96078 5.47296e-18
9169.82224 5.29427e-18
9170.68370 5.15922e-18
9171.54517 5.02430e-18
9172.40663 4.96080e-18
9173.26809 4.89749e-18
9174.12955 4.91769e-18
9174.99101 4.93813e-18
9175.85248 5.00769e-18
9176.71394 5.07738e-18
9177.58542 5.11823e-18
9178.44688 5.15900e-18
9179.30834 5.14842e-18
9180.16980 5.13771e-18
9181.03127 5.12694e-18
9181.89273 5.11618e-18
9182.75419 5.13341e-18
9183.61565 5.15073e-18
9184.47711 5.18592e-18
9185.33857 5.22115e-18
9186.20004 5.26214e-18
9187.07152 5.30315e-18
9187.93298 5.32056e-18
9188.79444 5.33790e-18
9189.65590 5.31540e-18
9190.51736 5.29278e-18
9191.37883 5.27581e-18
9192.24029 5.25885e-18
9193.10175 5.28788e-18
9193.96321 5.31702e-18
9194.82467 5.37405e-18
9195.68614 5.43114e-18
9196.55762 5.49050e-18
9197.41908 5.54986e-18
9198.28054 5.58836e-18
9199.14200 5.62680e-18
9200.00346 5.62214e-18
9200.86492 5.61736e-18
9201.72639 5.58598e-18
9202.58785 5.55451e-18
9203.44931 5.52870e-18
9204.31077 5.50292e-18
9205.17224 5.48363e-18
9206.04371 5.46435e-18
9206.90518 5.43740e-18
9207.76664 5.41042e-18
9208.62810 5.38030e-18
9209.48956 5.35017e-18
9210.35102 5.33207e-18
9211.21249 5.31400e-18
9212.07395 5.32316e-18
9212.93541 5.33241e-18
9213.79687 5.38630e-18
9214.65833 5.44031e-18
9215.52981 5.53543e-18
9216.39127 5.63068e-18
9217.25274 5.73090e-18
9218.11420 5.83113e-18
9218.97566 5.91298e-18
9219.83712 5.99477e-18
9220.69859 6.06572e-18
9221.56005 6.13664e-18
9222.42151 6.20091e-18
9223.28297 6.26517e-18
9224.14443 6.31561e-18
9225.00590 6.36601e-18
9225.87737 6.39761e-18
9226.73884 6.42917e-18
9227.60030 6.43668e-18
9228.46176 6.44413e-18
9229.32322 6.42553e-18
9230.18468 6.40688e-18
9231.04615 6.38338e-18
9231.90761 6.35986e-18
9232.76907 6.35593e-18
9233.63053 6.35204e-18
9234.49199 6.36229e-18
9235.35346 6.37257e-18
9236.22494 6.38323e-18
9237.08640 6.39389e-18
9237.94786 6.41123e-18
9238.80932 6.42860e-18
9239.67078 6.46557e-18
9240.53225 6.50260e-18
9241.39371 6.56541e-18
9242.25517 6.62830e-18
9243.11663 6.71947e-18
9243.97809 6.81072e-18
9244.84957 6.92232e-18
9245.71103 7.03397e-18
9246.57250 7.14787e-18
9247.43396 7.26178e-18
9248.29542 7.36764e-18
9249.15688 7.47347e-18
9250.01834 7.57342e-18
9250.87981 7.67335e-18
9251.74127 7.76235e-18
9252.60273 7.85130e-18
9253.46419 7.90801e-18
9254.32565 7.96462e-18
9255.19713 7.98555e-18
9256.05860 8.00637e-18
9256.92006 8.03299e-18
9257.78152 8.05962e-18
9258.64298 8.12312e-18
9259.50444 8.18672e-18
9260.36591 8.27767e-18
9261.22737 8.36869e-18
9262.08883 8.47033e-18
9262.95029 8.57199e-18
9263.81175 8.64762e-18
9264.68323 8.72317e-18
9265.54469 8.73767e-18
9266.40616 8.75201e-18
9267.26762 8.70638e-18
9268.12908 8.66058e-18
9268.99054 8.56927e-18
9269.85200 8.47784e-18
9270.71347 8.37485e-18
9271.57493 8.27183e-18
9272.43639 8.19768e-18
9273.29785 8.12361e-18
9274.16933 8.11028e-18
9275.03079 8.09712e-18
9275.89226 8.16803e-18
9276.75372 8.23917e-18
9277.61518 8.38238e-18
9278.47664 8.52579e-18
9279.33810 8.70186e-18
9280.19957 8.87802e-18
9281.06103 9.04439e-18
9281.92249 9.21073e-18
9282.79397 9.32633e-18
9283.65543 9.44184e-18
9284.51689 9.47403e-18
9285.37835 9.50594e-18
9286.23982 9.43531e-18
9287.10128 9.36440e-18
9287.96274 9.19951e-18
9288.82420 9.03426e-18
9289.68566 8.82735e-18
9290.54713 8.62033e-18
9291.40859 8.43222e-18
9292.27005 8.24417e-18
9293.14153 8.15490e-18
9294.00299 8.06589e-18
9294.86445 8.12772e-18
9295.72592 8.18997e-18
9296.58738 8.34906e-18
9297.44884 8.50842e-18
9298.31030 8.69333e-18
9299.17176 8.87828e-18
9300.03323 8.99160e-18
9300.89469 9.10471e-18
9301.75615 9.05303e-18
9302.62763 9.00088e-18
9303.48909 8.87392e-18
9304.35055 8.74675e-18
9305.21201 8.69122e-18
9306.07348 8.63589e-18
9306.93494 8.61761e-18
9307.79640 8.59942e-18
9308.65786 8.51194e-18
9309.51932 8.42425e-18
9310.38079 8.27249e-18
9311.24225 8.12057e-18
9312.11373 7.96735e-18
9312.97519 7.81415e-18
9313.83665 7.72108e-18
9314.69811 7.62818e-18
9315.55958 7.66527e-18
9316.42104 7.70274e-18
9317.28250 7.85636e-18
9318.14396 8.01032e-18
9319.00542 8.14582e-18
9319.86688 8.28125e-18
9320.72835 8.34577e-18
9321.58981 8.41009e-18
9322.46129 8.52772e-18
9323.32275 8.64550e-18
9324.18421 8.84341e-18
9325.04567 9.04154e-18
9325.90714 9.06594e-18
9326.76860 9.08986e-18
9327.63006 8.78431e-18
9328.49152 8.47782e-18
9329.35298 8.08795e-18
9330.21445 7.69784e-18
9331.07591 7.46146e-18
9331.94739 7.22554e-18
9332.80885 7.09680e-18
9333.67031 6.96838e-18
9334.53177 6.87858e-18
9335.39323 6.78890e-18
9336.25470 6.73960e-18
9337.11616 6.69042e-18
9337.97762 6.66983e-18
9338.83908 6.64933e-18
9339.70055 6.86687e-18
9340.56201 7.08508e-18
9341.43349 7.82438e-18
9342.29495 8.56515e-18
9343.15641 9.46290e-18
9344.01787 1.03610e-17
9344.87933 1.07488e-17
9345.74080 1.11351e-17
9346.60226 1.08136e-17
9347.46372 1.04900e-17
9348.32518 9.57289e-18
9349.18664 8.65418e-18
9350.04811 7.56332e-18
9350.90957 6.47199e-18
9351.78105 5.98511e-18
9352.64251 5.49997e-18
9353.50397 5.87225e-18
9354.36543 6.24697e-18
9355.22689 6.91576e-18
9356.08836 7.58536e-18
9356.94982 8.07759e-18
9357.81128 8.56929e-18
9358.67274 8.60278e-18
9359.53420 8.63496e-18
9360.39567 8.08770e-18
9361.26715 7.53879e-18
9362.12861 6.85405e-18
9362.99007 6.16894e-18
9363.85153 5.76507e-18
9364.71299 5.36202e-18
9365.57446 5.26312e-18
9366.43592 5.16510e-18
9367.29738 5.33087e-18
9368.15884 5.49738e-18
9369.02030 5.71997e-18
9369.89178 5.94270e-18
9370.75324 5.98408e-18
9371.61471 6.02493e-18
9372.47617 5.89968e-18
9373.33763 5.77397e-18
9374.19909 5.57105e-18
9375.06056 5.36791e-18
9375.92202 5.22332e-18
9376.78348 5.07889e-18
9377.64494 5.15875e-18
9378.50640 5.23925e-18
9379.37788 5.48056e-18
9380.23934 5.72233e-18
9381.10081 5.91120e-18
9381.96227 6.09990e-18
9382.82373 6.16816e-18
9383.68519 6.23608e-18
9384.54665 6.24525e-18
9385.40812 6.25424e-18
9386.26958 6.22134e-18
9387.13104 6.18830e-18
9387.99250 6.08451e-18
9388.85396 5.98051e-18
9389.72544 5.80421e-18
9390.58691 5.62769e-18
9391.44837 5.40548e-18
9392.30983 5.18314e-18
9393.17129 4.95146e-18
9394.03275 4.71977e-18
9394.89422 4.54334e-18
9395.75568 4.36707e-18
9396.61714 4.28967e-18
9397.47860 4.21256e-18
9398.34006 4.20174e-18
9399.21154 4.19111e-18
9400.07300 4.20606e-18
9400.93447 4.22109e-18
9401.79593 4.22260e-18
9402.65739 4.22408e-18
9403.51885 4.17784e-18
9404.38031 4.13146e-18
9405.24178 4.07602e-18
9406.10324 4.02057e-18
9406.96470 4.01010e-18
9407.82616 3.99976e-18
9408.69764 4.03484e-18
9409.55910 4.07006e-18
9410.42057 4.13187e-18
9411.28203 4.19375e-18
9412.14349 4.25304e-18
9413.00495 4.31232e-18
9413.86641 4.33440e-18
9414.72788 4.35637e-18
9415.58934 4.31812e-18
9416.45080 4.27969e-18
9417.31226 4.17396e-18
9418.17372 4.06804e-18
9419.04520 3.90224e-18
9419.90666 3.73626e-18
9420.76813 3.52145e-18
9421.62959 3.30651e-18
9422.49105 3.11957e-18
9423.35251 2.93272e-18
9424.21397 2.95713e-18
9425.07544 2.98217e-18
9425.93690 3.27685e-18
9426.79836 3.57230e-18
9427.65982 3.94488e-18
9428.53130 4.31767e-18
9429.39276 4.58269e-18
9430.25423 4.84739e-18
9431.11569 4.83316e-18
9431.97715 4.81813e-18
9432.83861 4.43770e-18
9433.70007 4.05621e-18
9434.56153 3.61122e-18
9435.42300 3.16606e-18
9436.28446 2.97204e-18
9437.14592 2.77877e-18
9438.01740 2.88545e-18
9438.87886 2.99300e-18
9439.74032 3.37994e-18
9440.60179 3.76768e-18
9441.46325 4.23836e-18
9442.32471 4.70927e-18
9443.18617 5.01075e-18
9444.04763 5.31174e-18
9444.90910 5.37168e-18
9445.77056 5.43092e-18
9446.63202 5.26511e-18
9447.49348 5.09864e-18
9448.36496 4.79659e-18
9449.22642 4.49415e-18
9450.08788 4.19987e-18
9450.94935 3.90561e-18
9451.81081 3.71293e-18
9452.67227 3.52055e-18
9453.53373 3.46604e-18
9454.39520 3.41194e-18
9455.25666 3.50474e-18
9456.11812 3.59798e-18
9456.98960 3.81557e-18
9457.85106 4.03352e-18
9458.71252 4.31076e-18
9459.57398 4.58816e-18
9460.43545 4.79358e-18
9461.29691 4.99878e-18
9462.15837 5.05316e-18
9463.01983 5.10710e-18
9463.88129 5.07233e-18
9464.74276 5.03731e-18
9465.60422 4.97810e-18
9466.47570 4.91882e-18
9467.33716 4.87490e-18
9468.19862 4.83104e-18
9469.06008 4.83436e-18
9469.92155 4.83781e-18
9470.78301 4.83941e-18
9471.64447 4.84099e-18
9472.50593 4.78869e-18
9473.36739 4.73624e-18
9474.22885 4.66271e-18
9475.09032 4.58912e-18
9475.96180 4.53877e-18
9476.82326 4.48848e-18
9477.68472 4.55340e-18
9478.54618 4.61865e-18
9479.40764 4.90265e-18
9480.26911 5.18728e-18
9481.13057 5.57762e-18
9481.99203 5.96826e-18
9482.85349 6.24684e-18
9483.71495 6.52508e-18
9484.57642 6.57693e-18
9485.43788 6.62812e-18
9486.30936 6.41301e-18
9487.17082 6.19711e-18
9488.03228 5.80262e-18
9488.89374 5.40761e-18
9489.75520 5.06444e-18
9490.61667 4.72142e-18
9491.47813 4.57709e-18
9492.33959 4.43334e-18
9493.20105 4.48513e-18
9494.06252 4.53751e-18
9494.92398 4.78471e-18
9495.79546 5.03247e-18
9496.65692 5.50655e-18
9497.51838 5.98128e-18
9498.37984 6.63228e-18
9499.24130 7.28378e-18
9500.10277 7.85694e-18
9500.96423 8.42987e-18
9501.82569 8.70487e-18
9502.68715 8.97899e-18
9503.54861 8.92099e-18
9504.41008 8.86202e-18
9505.28155 8.49351e-18
9506.14302 8.12410e-18
9507.00448 7.63650e-18
9507.86594 7.14856e-18
9508.72740 6.76954e-18
9509.58887 6.39085e-18
9510.45033 6.14274e-18
9511.31179 5.89500e-18
9512.17325 5.73279e-18
9513.03471 5.57082e-18
9513.89617 5.53881e-18
9514.75764 5.50717e-18
9515.62912 5.66876e-18
9516.49058 5.83091e-18
9517.35204 6.16761e-18
9518.21350 6.50482e-18
9519.07496 6.95445e-18
9519.93643 7.40442e-18
9520.79789 7.85755e-18
9521.65935 8.31068e-18
9522.52081 8.61654e-18
9523.38227 8.92196e-18
9524.24374 9.02976e-18
9525.11522 9.13698e-18
9525.97668 9.12594e-18
9526.83814 9.11457e-18
9527.69960 9.05774e-18
9528.56106 9.00079e-18
9529.42252 8.95588e-18
9530.28399 8.91102e-18
9531.14545 8.91040e-18
9532.00691 8.90991e-18
9532.86837 8.90231e-18
9533.72984 8.89470e-18
9534.60131 8.83685e-18
9535.46278 8.77885e-18
9536.32424 8.65764e-18
9537.18570 8.53625e-18
9538.04716 8.35864e-18
9538.90862 8.18087e-18
9539.77009 8.10894e-18
9540.63155 8.03733e-18
9541.49301 8.22408e-18
9542.35447 8.41159e-18
9543.21593 8.74741e-18
9544.08741 9.08366e-18
9544.94888 9.40542e-18
9545.81034 9.72711e-18
9546.67180 9.87563e-18
9547.53326 1.00236e-17
9548.39472 9.83563e-18
9549.25619 9.64673e-18
9550.11765 9.31162e-18
9550.97911 8.97609e-18
9551.84057 8.87499e-18
9552.70203 8.77459e-18
9553.57351 8.93341e-18
9554.43497 9.09298e-18
9555.29644 9.28642e-18
9556.15790 9.47991e-18
9557.01936 9.55615e-18
9557.88082 9.63202e-18
9558.74228 9.48994e-18
9559.60375 9.34730e-18
9560.46521 9.04962e-18
9561.32667 8.75155e-18
9562.18813 8.64241e-18
9563.05961 8.53385e-18
9563.92107 8.79078e-18
9564.78254 9.04878e-18
9565.64400 9.48902e-18
9566.50546 9.92980e-18
9567.36692 1.03567e-17
9568.22838 1.07835e-17
9569.08985 1.09624e-17
9569.95131 1.11406e-17
9570.81277 1.09099e-17
9571.67423 1.06781e-17
9572.53569 1.02412e-17
9573.40717 9.80372e-18
9574.26863 9.40202e-18
9575.13010 9.00050e-18
9575.99156 8.79550e-18
9576.85302 8.59109e-18
9577.71448 8.71027e-18
9578.57594 8.83042e-18
9579.43741 9.07339e-18
9580.29887 9.31668e-18
9581.16033 9.39071e-18
9582.02179 9.46428e-18
9582.89327 9.33065e-18
9583.75473 9.19648e-18
9584.61620 8.91264e-18
9585.47766 8.62833e-18
9586.33912 8.39895e-18
9587.20058 8.16973e-18
9588.06204 8.30648e-18
9588.92351 8.44432e-18
9589.78497 8.90819e-18
9590.64643 9.37305e-18
9591.51791 9.80647e-18
9592.37937 1.02399e-17
9593.24083 1.04501e-17
9594.10229 1.06598e-17
9594.96376 1.06653e-17
9595.82522 1.06703e-17
9596.68668 1.05099e-17
9597.54814 1.03491e-17
9598.40960 1.01132e-17
9599.27107 9.87720e-18
9600.13253 9.66568e-18
9600.99399 9.45416e-18
9601.86547 9.34592e-18
9602.72693 9.23795e-18
9603.58839 9.28449e-18
9604.44986 9.33157e-18
9605.31132 9.52433e-18
9606.17278 9.71755e-18
9607.03424 1.00131e-17
9607.89570 1.03089e-17
9608.75717 1.05193e-17
9609.61863 1.07294e-17
9610.48009 1.06735e-17
9611.35157 1.06168e-17
9612.21303 1.03713e-17
9613.07449 1.01254e-17
9613.93595 9.83535e-18
9614.79742 9.54511e-18
9615.65888 9.31116e-18
9616.52034 9.07732e-18
9617.38180 8.98343e-18
9618.24326 8.88996e-18
9619.10473 8.95773e-18
9619.96619 9.02598e-18
9620.82765 9.23207e-18
9621.69913 9.43862e-18
9622.56059 9.70872e-18
9623.42205 9.97900e-18
9624.28352 1.02096e-17
9625.14498 1.04402e-17
9626.00644 1.05328e-17
9626.86790 1.06250e-17
9627.72936 1.04871e-17
9628.59083 1.03486e-17
9629.45229 1.00074e-17
9630.31375 9.66568e-18
9631.17521 9.32311e-18
9632.04669 8.98049e-18
9632.90815 8.79324e-18
9633.76961 8.60644e-18
9634.63108 8.63550e-18
9635.49254 8.66521e-18
9636.35400 8.90415e-18
9637.21546 9.14371e-18
9638.07692 9.36588e-18
9638.93839 9.58797e-18
9639.79985 9.60599e-18
9640.67133 9.62337e-18
9641.53279 9.55422e-18
9642.39425 9.48479e-18
9643.25571 9.46510e-18
9644.11718 9.44561e-18
9644.97864 9.50842e-18
9645.84010 9.57160e-18
9646.70156 9.73033e-18
9647.56302 9.88933e-18
9648.42448 1.00379e-17
9649.28595 1.01865e-17
9650.15743 1.01868e-17
9651.01889 1.01867e-17
9651.88035 1.00382e-17
9652.74181 9.88933e-18
9653.60327 9.65409e-18
9654.46474 9.41848e-18
9655.32620 9.18145e-18
9656.18766 8.94439e-18
9657.04912 8.80378e-18
9657.91058 8.66347e-18
9658.77205 8.67415e-18
9659.64352 8.68530e-18
9660.50499 8.86070e-18
9661.36645 9.03660e-18
9662.22791 9.32118e-18
9663.08937 9.60609e-18
9663.95083 9.85485e-18
9664.81230 1.01035e-17
9665.67376 1.02325e-17
9666.53522 1.03613e-17
9667.39668 1.04150e-17
9668.25815 1.04685e-17
9669.11961 1.04724e-17
9669.99109 1.04761e-17
9670.85255 1.03871e-17
9671.71401 1.02978e-17
9672.57547 1.01043e-17
9673.43693 9.91049e-18
9674.29840 9.69152e-18
9675.15986 9.47237e-18
9676.02132 9.30684e-18
9676.88278 9.14149e-18
9677.74424 9.08451e-18
9678.61572 9.02785e-18
9679.47718 9.11592e-18
9680.33865 9.20439e-18
9681.20011 9.36496e-18
9682.06157 9.52562e-18
9682.92303 9.65759e-18
9683.78449 9.78946e-18
9684.64596 9.86294e-18
9685.50742 9.93614e-18
9686.36888 9.94700e-18
9687.23034 9.95766e-18
9688.10182 9.91637e-18
9688.96328 9.87499e-18
9689.82475 9.80712e-18
9690.68621 9.73916e-18
9691.54767 9.64931e-18
9692.40913 9.55937e-18
9693.27059 9.43402e-18
9694.13206 9.30849e-18
9694.99352 9.16610e-18
9695.85498 9.02366e-18
9696.71644 8.91483e-18
9697.57790 8.80610e-18
9698.44938 8.75596e-18
9699.31084 8.70601e-18
9700.17231 8.70502e-18
9701.03377 8.70420e-18
9701.89523 8.73167e-18
9702.75669 8.75925e-18
9703.61816 8.76919e-18
9704.47962 8.77907e-18
9705.34108 8.74176e-18
9706.20254 8.70432e-18
9707.06400 8.64841e-18
9707.93548 8.59245e-18
9708.79694 8.54766e-18
9709.65841 8.50291e-18
9710.51987 8.48542e-18
9711.38133 8.46802e-18
9712.24279 8.48842e-18
9713.10425 8.50893e-18
9713.96572 8.53900e-18
9714.82718 8.56909e-18
9715.68864 8.57489e-18
9716.55010 8.58061e-18
9717.41156 8.55241e-18
9718.28304 8.52411e-18
9719.14451 8.45801e-18
9720.00597 8.39179e-18
9720.86743 8.32314e-18
9721.72889 8.25449e-18
9722.59035 8.23769e-18
9723.45182 8.22105e-18
9724.31328 8.23221e-18
9725.17474 8.24347e-18
9726.03620 8.21164e-18
9726.89766 8.17967e-18
9727.76914 8.07972e-18
9728.63060 7.97956e-18
9729.49207 7.82467e-18
9730.35353 7.66962e-18
9731.21499 7.49285e-18
9732.07645 7.31601e-18
9732.93791 7.17812e-18
9733.79938 7.04036e-18
9734.66084 6.97922e-18
9735.52230 6.91831e-18
9736.38376 6.92656e-18
9737.25524 6.93501e-18
9738.11670 6.99561e-18
9738.97817 7.05636e-18
9739.83963 7.13576e-18
9740.70109 7.21523e-18
9741.56255 7.28028e-18
9742.42401 7.34530e-18
9743.28548 7.37844e-18
9744.14694 7.41148e-18
9745.00840 7.40227e-18
9745.86986 7.39295e-18
9746.74134 7.35554e-18
9747.60280 7.31805e-18
9748.46426 7.27183e-18
9749.32573 7.22558e-18
9750.18719 7.17516e-18
9751.04865 7.12472e-18
9751.91011 7.07252e-18
9752.77157 7.02031e-18
9753.63304 6.96462e-18
9754.49450 6.90891e-18
9755.35596 6.84612e-18
9756.22744 6.78330e-18
9757.08890 6.72648e-18
9757.95036 6.66966e-18
9758.81183 6.63811e-18
9759.67329 6.60663e-18
9760.53475 6.61528e-18
9761.39621 6.62406e-18
9762.25767 6.68573e-18
9763.11913 6.74756e-18
9763.98060 6.84284e-18
9764.84206 6.93820e-18
9765.71354 7.01240e-18
9766.57500 7.08653e-18
9767.43646 7.11283e-18
9768.29792 7.13899e-18
9769.15939 7.13498e-18
9770.02085 7.13087e-18
9770.88231 7.11152e-18
9771.74377 7.09212e-18
9772.60523 7.06492e-18
9773.46670 7.03770e-18
9774.32816 7.01214e-18
9775.19964 6.98658e-18
9776.06110 6.97017e-18
9776.92256 6.95378e-18
9777.78402 6.95153e-18
9778.64548 6.94932e-18
9779.50695 6.96762e-18
9780.36841 6.98599e-18
9781.22987 7.02661e-18
9782.09133 7.06730e-18
9782.95280 7.09509e-18
9783.81426 7.12282e-18
9784.68574 7.09954e-18
9785.54720 7.07609e-18
9786.40866 7.02025e-18
9787.27012 6.96433e-18
9788.13158 6.91078e-18
9788.99305 6.85724e-18
9789.85451 6.81824e-18
9790.71597 6.77927e-18
9791.57743 6.75992e-18
9792.43889 6.74062e-18
9793.30036 6.72786e-18
9794.16182 6.71511e-18
9795.03330 6.68148e-18
9795.89476 6.64778e-18
9796.75622 6.60130e-18
9797.61768 6.55478e-18
9798.47915 6.53555e-18
9799.34061 6.51640e-18
9800.20207 6.53783e-18
9801.06353 6.55939e-18
9801.92499 6.60246e-18
9802.78645 6.64560e-18
9803.64792 6.69113e-18
9804.51940 6.73667e-18
9805.38086 6.76214e-18
9806.24232 6.78755e-18
9807.10378 6.78205e-18
9807.96524 6.77644e-18
9808.82671 6.76156e-18
9809.68817 6.74664e-18
9810.54963 6.74295e-18
9811.41109 6.73928e-18
9812.27255 6.75976e-18
9813.13402 6.78031e-18
9813.99548 6.83100e-18
9814.86696 6.88179e-18
9815.72842 6.92663e-18
9816.58988 6.97144e-18
9817.45134 6.97209e-18
9818.31280 6.97262e-18
9819.17427 6.93419e-18
9820.03573 6.89564e-18
9820.89719 6.83426e-18
9821.75865 6.77280e-18
9822.62012 6.71211e-18
9823.48158 6.65143e-18
9824.35306 6.61902e-18
9825.21452 6.58669e-18
9826.07598 6.57852e-18
9826.93744 6.57044e-18
9827.79890 6.56422e-18
9828.66037 6.55800e-18
9829.52183 6.54820e-18
9830.38329 6.53838e-18
9831.24475 6.53161e-18
9832.10621 6.52485e-18
9832.97769 6.51959e-18
9833.83915 6.51433e-18
9834.70062 6.50191e-18
9835.56208 6.48947e-18
9836.42354 6.46589e-18
9837.28500 6.44227e-18
9838.14647 6.40987e-18
9839.00793 6.37745e-18
9839.86939 6.33887e-18
9840.73085 6.30027e-18
9841.59231 6.25688e-18
9842.45377 6.21347e-18
9843.32525 6.17022e-18
9844.18672 6.12696e-18
9845.04818 6.09918e-18
9845.90964 6.07144e-18
9846.77110 6.07119e-18
9847.63256 6.07101e-18
9848.49403 6.09456e-18
9849.35549 6.11818e-18
9850.21695 6.15867e-18
9851.07841 6.19922e-18
9851.93987 6.25009e-18
9852.81135 6.30101e-18
9853.67282 6.35453e-18
9854.53428 6.40805e-18
9855.39574 6.45933e-18
9856.25720 6.51059e-18
9857.11866 6.55601e-18
9857.98013 6.60141e-18
9858.84159 6.63127e-18
9859.70305 6.66106e-18
9860.56451 6.66421e-18
9861.42597 6.66728e-18
9862.29745 6.64222e-18
9863.15891 6.61708e-18
9864.02038 6.56858e-18
9864.88184 6.52002e-18
9865.74330 6.45694e-18
9866.60476 6.39381e-18
9867.46622 6.32880e-18
9868.32769 6.26379e-18
9869.18915 6.20410e-18
9870.05061 6.14444e-18
9870.92209 6.08924e-18
9871.78355 6.03406e-18
9872.64501 5.98430e-18
9873.50648 5.93456e-18
9874.36794 5.89450e-18
9875.22940 5.85447e-18
9876.09086 5.82747e-18
9876.95232 5.80053e-18
9877.81379 5.78971e-18
9878.67525 5.77895e-18
9879.53671 5.78573e-18
9880.39817 5.79256e-18
9881.26965 5.81478e-18
9882.13111 5.83705e-18
9882.99257 5.87072e-18
9883.85404 5.90441e-18
9884.71550 5.94225e-18
9885.57696 5.98009e-18
9886.43842 6.01421e-18
9887.29988 6.04832e-18
9888.16135 6.07133e-18
9889.02281 6.09433e-18
9889.88427 6.10007e-18
9890.74573 6.10576e-18
9891.61721 6.09407e-18
9892.47867 6.08233e-18
9893.34014 6.05634e-18
9894.20160 6.03029e-18
9895.06306 5.99333e-18
9895.92452 5.95632e-18
9896.78598 5.91192e-18
9897.64745 5.86749e-18
9898.50891 5.82140e-18
9899.37037 5.77531e-18
9900.23183 5.73519e-18
9901.09329 5.69508e-18
9901.96477 5.66218e-18
9902.82623 5.62929e-18
9903.68770 5.59712e-18
9904.54916 5.56496e-18
9905.41062 5.53502e-18
9906.27208 5.50509e-18
9907.13354 5.49149e-18
9907.99501 5.47794e-18
9908.85647 5.48739e-18
9909.71793 5.49692e-18
9910.57939 5.52300e-18
9911.45087 5.54913e-18
9912.31233 5.58134e-18
9913.17380 5.61358e-18
9914.03526 5.62977e-18
9914.89672 5.64592e-18
9915.75818 5.62849e-18
9916.61964 5.61097e-18
9917.48111 5.56609e-18
9918.34257 5.52112e-18
9919.20403 5.45952e-18
9920.07551 5.39787e-18
9920.93697 5.33179e-18
9921.79843 5.26569e-18
9922.65989 5.20755e-18
9923.52136 5.14943e-18
9924.38282 5.10468e-18
9925.24428 5.05998e-18
9926.10574 5.03075e-18
9926.96720 5.00158e-18
9927.82867 4.97980e-18
9928.69013 4.95803e-18
9929.56161 4.93082e-18
9930.42307 4.90359e-18
9931.28453 4.86676e-18
9932.14599 4.82990e-18
9933.00746 4.78528e-18
9933.86892 4.74065e-18
9934.73038 4.69203e-18
9935.59184 4.64341e-18
9936.45330 4.59627e-18
9937.31477 4.54913e-18
9938.17623 4.51069e-18
9939.03769 4.47228e-18
9939.90917 4.45161e-18
9940.77063 4.43100e-18
9941.63209 4.43061e-18
9942.49355 4.43028e-18
9943.35502 4.44075e-18
9944.21648 4.45125e-18
9945.07794 4.46449e-18
9945.93940 4.47772e-18
9946.80086 4.49165e-18
9947.66233 4.50559e-18
9948.52379 4.51787e-18
9949.39527 4.53015e-18
9950.25673 4.53627e-18
9951.11819 4.54238e-18
9951.97965 4.53945e-18
9952.84112 4.53649e-18
9953.70258 4.53033e-18
9954.56404 4.52416e-18
9955.42550 4.52117e-18
9956.28696 4.51819e-18
9957.14843 4.51410e-18
9958.00989 4.51000e-18
9958.88137 4.49889e-18
9959.74283 4.48774e-18
9960.60429 4.46660e-18
9961.46575 4.44542e-18
9962.32721 4.41229e-18
9963.18868 4.37912e-18
9964.05014 4.34391e-18
9964.91160 4.30871e-18
9965.77306 4.28801e-18
9966.63452 4.26735e-18
9967.49599 4.26504e-18
9968.36747 4.26277e-18
9969.22893 4.27246e-18
9970.09039 4.28217e-18
9970.95185 4.30285e-18
9971.81331 4.32357e-18
9972.67477 4.36001e-18
9973.53624 4.39649e-18
9974.39770 4.44670e-18
9975.25916 4.49695e-18
9976.12062 4.55019e-18
9976.98208 4.60343e-18
9977.85356 4.65114e-18
9978.71503 4.69883e-18
9979.57649 4.73692e-18
9980.43795 4.77498e-18
9981.29941 4.80202e-18
9982.16087 4.82903e-18
9983.02234 4.85076e-18
9983.88380 4.87248e-18
9984.74526 4.89471e-18
9985.60672 4.91695e-18
9986.46818 4.94256e-18
9987.32965 4.96817e-18
9988.20112 4.99866e-18
9989.06259 5.02915e-18
9989.92405 5.05377e-18
9990.78551 5.07837e-18
9991.64697 5.08495e-18
9992.50843 5.09147e-18
9993.36990 5.08914e-18
9994.23136 5.08679e-18
9995.09282 5.09117e-18
9995.95428 5.09559e-18
9996.81574 5.10403e-18
9997.67721 5.11249e-18
9998.54869 5.11504e-18
9999.41015 5.11756e-18
