# wavelength flux
3719.99538 8.87565e-18
3721.50320 1.25618e-17
3723.00084 1.28267e-17
3724.49848 7.31966e-18
3725.99611 9.25827e-18
3727.50394 1.24859e-17
3729.00157 8.07217e-18
3730.49921 7.06993e-18
3731.99684 6.41626e-18
3733.50467 4.83434e-18
3735.00230 4.34577e-18
3736.49994 8.09545e-18
3737.99758 1.06033e-17
3739.49521 5.87785e-18
3741.00304 9.61194e-18
3742.50067 1.30185e-17
3743.99831 1.09517e-17
3745.49594 8.26123e-18
3747.00377 7.77013e-18
3748.50140 4.25972e-18
3749.99904 9.05699e-18
3751.49668 9.82500e-18
3753.00450 1.05762e-17
3754.50214 1.38834e-17
3755.99977 9.20864e-18
3757.49741 6.37184e-18
3758.99504 8.88570e-18
3760.50287 5.43425e-18
3762.00050 6.43216e-18
3763.49814 8.39337e-18
3764.99578 7.74955e-18
3766.50360 6.97395e-18
3768.00124 6.74900e-18
3769.49887 5.40733e-18
3770.99651 5.95106e-18
3772.50433 6.53489e-18
3774.00197 1.12042e-17
3775.49960 7.63165e-18
3776.99724 5.97680e-18
3778.49488 6.06847e-18
3780.00270 6.16016e-18
3781.50034 6.31155e-18
3782.99797 6.46295e-18
3784.49561 6.61433e-18
3786.00343 6.76567e-18
3787.50107 6.91702e-18
3788.99870 7.06835e-18
3790.49634 7.21963e-18
3792.00416 7.37093e-18
3793.50180 7.52218e-18
3794.99944 7.67344e-18
3796.49707 7.82468e-18
3798.00490 7.97588e-18
3799.50253 8.12709e-18
3801.00017 8.27828e-18
3802.49780 8.42943e-18
3803.99544 8.58058e-18
3805.50326 8.73170e-18
3807.00090 8.88282e-18
3808.49854 9.03393e-18
3809.99617 9.18499e-18
3811.50400 9.33606e-18
3813.00163 9.48712e-18
3814.49927 9.63813e-18
3815.99690 9.78915e-18
3817.50473 9.94014e-18
3819.00236 8.83121e-18
3820.50000 5.91993e-18
3821.99764 4.88214e-18
3823.49527 1.19041e-18
3825.00310 8.58708e-18
3826.50073 7.47739e-18
3827.99837 5.35480e-18
3829.49600 1.05442e-17
3831.00383 9.19443e-18
3832.50146 2.69998e-18
3833.99910 1.57789e-18
3835.49674 6.54992e-18
3837.00456 8.44444e-18
3838.50220 8.46298e-18
3839.99983 9.93831e-18
3841.49747 7.90432e-18
3842.99510 2.78929e-18
3844.50293 6.03244e-18
3846.00056 7.56851e-18
3847.49820 4.97163e-18
3848.99584 4.88267e-18
3850.50366 9.20369e-18
3852.00130 8.22806e-18
3853.49893 4.88348e-18
3854.99657 6.95871e-18
3856.50439 4.51075e-18
3858.00203 5.73391e-18
3859.49966 3.77963e-18
3860.99730 5.78400e-18
3862.49494 5.91171e-18
3864.00276 7.31013e-18
3865.50040 9.74162e-18
3866.99803 8.75802e-18
3868.49567 8.30555e-18
3870.00349 7.28455e-18
3871.50113 7.31807e-18
3872.99876 5.04281e-18
3874.49640 5.29509e-18
3876.00422 5.95289e-18
3877.50186 3.22203e-18
3878.99950 7.88345e-18
3880.49713 8.61264e-18
3881.99477 7.56666e-18
3883.50259 8.80292e-18
3885.00023 1.17493e-17
3886.49786 1.26734e-17
3887.99550 1.29106e-17
3889.50332 9.25835e-18
3891.00096 7.00333e-18
3892.49860 7.06819e-18
3893.99623 1.00470e-17
3895.50406 1.22338e-17
3897.00169 1.00562e-17
3898.49933 7.67810e-18
3899.99696 4.16192e-18
3901.50479 6.56162e-18
3903.00242 8.66870e-18
3904.50006 1.41080e-17
3905.99770 1.35223e-17
3907.49533 8.50520e-18
3909.00316 6.71954e-18
3910.50079 7.70592e-18
3911.99843 1.06269e-17
3913.49606 1.13085e-17
3915.00389 9.49465e-18
3916.50152 1.07026e-17
3917.99916 1.22756e-17
3919.49680 8.12311e-18
3921.00462 6.44148e-18
3922.50226 8.83061e-18
3923.99989 1.15555e-17
3925.49753 1.30812e-17
3926.99516 1.12108e-17
3928.50299 7.98354e-18
3930.00062 6.93144e-18
3931.49826 8.78205e-18
3932.99590 6.84558e-18
3934.50372 7.89988e-18
3936.00136 1.16636e-17
3937.49899 1.27947e-17
3938.99663 1.24467e-17
3940.50445 1.31322e-17
3942.00209 1.17737e-17
3943.49972 1.20455e-17
3944.99736 1.26757e-17
3946.49500 1.07018e-17
3948.00282 1.37269e-17
3949.50046 1.36691e-17
3950.99809 1.30683e-17
3952.49573 1.21447e-17
3954.00355 1.09332e-17
3955.50119 9.99456e-18
3956.99882 1.07500e-17
3958.49646 1.26510e-17
3960.00428 1.40422e-17
3961.50192 1.54244e-17
3962.99956 1.14385e-17
3964.49719 1.11652e-17
3965.99483 1.16338e-17
3967.50265 1.04669e-17
3969.00029 9.80824e-18
3970.49792 8.24685e-18
3971.99556 1.05856e-17
3973.50338 1.37688e-17
3975.00102 1.54808e-17
3976.49866 1.48029e-17
3977.99629 1.52033e-17
3979.50412 1.30466e-17
3981.00175 1.38401e-17
3982.49939 1.85446e-17
3983.99702 1.69091e-17
3985.50485 1.19056e-17
3987.00248 8.15974e-18
3988.50012 1.10777e-17
3989.99776 1.40050e-17
3991.49539 1.43897e-17
3993.00322 1.55037e-17
3994.50085 1.45465e-17
3995.99849 1.58003e-17
3997.49612 1.61805e-17
3999.00395 1.34427e-17
4000.50158 1.22632e-17
4001.99922 1.41635e-17
4003.49686 1.13708e-17
4005.00468 7.96200e-18
4006.50232 1.09371e-17
4007.99995 1.08952e-17
4009.49759 1.12083e-17
4010.99522 1.43345e-17
4012.50305 1.57258e-17
4014.00068 1.63282e-17
4015.49832 1.67878e-17
4016.99596 1.56504e-17
4018.50378 1.26909e-17
4020.00142 9.77678e-18
4021.49905 1.08355e-17
4022.99669 1.47753e-17
4024.50451 1.39054e-17
4026.00215 1.42176e-17
4027.49978 1.36825e-17
4028.99742 1.37489e-17
4030.49506 1.25701e-17
4032.00288 1.34794e-17
4033.50052 1.46881e-17
4034.99815 1.08796e-17
4036.49579 1.25543e-17
4038.00361 8.70758e-18
4039.50125 1.07840e-17
4040.99888 1.34922e-17
4042.49652 1.45720e-17
4044.00434 1.28111e-17
4045.50198 1.34213e-17
4046.99962 1.11450e-17
4048.49725 1.15794e-17
4049.99489 1.05223e-17
4051.50271 1.44218e-17
4053.00035 1.39607e-17
4054.49798 1.34479e-17
4055.99562 1.26879e-17
4057.50344 1.21884e-17
4059.00108 1.35762e-17
4060.49872 1.26376e-17
4061.99635 1.04332e-17
4063.50418 1.02024e-17
4065.00181 9.52698e-18
4066.49945 1.40898e-17
4067.99708 1.03019e-17
4069.50491 1.07978e-17
4071.00254 1.32310e-17
4072.50018 1.21478e-17
4073.99782 1.27227e-17
4075.49545 1.70085e-17
4077.00328 1.54893e-17
4078.50091 1.43330e-17
4079.99855 1.44722e-17
4081.49618 1.01860e-17
4083.00401 9.50563e-18
4084.50164 1.25020e-17
4085.99928 1.32437e-17
4087.49692 1.19753e-17
4089.00474 1.27944e-17
4090.50238 1.20915e-17
4092.00001 1.30116e-17
4093.49765 1.41901e-17
4094.99528 1.39801e-17
4096.50311 1.05804e-17
4098.00074 1.12253e-17
4099.49838 1.32982e-17
4100.99602 1.01175e-17
4102.50384 1.07877e-17
4104.00148 1.58697e-17
4105.49911 1.22212e-17
4106.99675 1.46388e-17
4108.50457 1.40860e-17
4110.00221 1.10067e-17
4111.49984 1.22855e-17
4112.99748 1.24544e-17
4114.49512 1.47029e-17
4116.00294 1.47228e-17
4117.50058 1.18216e-17
4118.99821 1.35024e-17
4120.49585 1.35176e-17
4122.00367 1.21396e-17
4123.50131 1.31138e-17
4124.99894 1.37553e-17
4126.49658 1.31478e-17
4128.00440 1.17198e-17
4129.50204 1.21613e-17
4130.99968 1.51588e-17
4132.49731 1.35598e-17
4133.99495 1.18818e-17
4135.50277 1.26623e-17
4137.00041 1.22579e-17
4138.49804 1.29474e-17
4139.99568 1.57016e-17
4141.50350 1.59234e-17
4143.00114 1.50930e-17
4144.49878 1.36734e-17
4145.99641 1.13400e-17
4147.50424 1.07956e-17
4149.00187 1.12794e-17
4150.49951 1.15674e-17
4151.99714 1.22914e-17
4153.49478 1.10175e-17
4155.00260 1.36203e-17
4156.50024 1.23728e-17
4157.99788 8.86372e-18
4159.49551 1.33242e-17
4161.00334 1.15748e-17
4162.50097 1.04734e-17
4163.99861 1.22741e-17
4165.49624 1.25448e-17
4167.00407 1.37727e-17
4168.50170 1.20335e-17
4169.99934 8.79336e-18
4171.49698 1.12648e-17
4173.00480 1.12329e-17
4174.50244 1.42176e-17
4176.00007 1.53717e-17
4177.49771 1.36624e-17
4178.99534 1.28455e-17
4180.50317 1.04384e-17
4182.00080 1.20450e-17
4183.49844 8.61300e-18
4184.99608 8.21730e-18
4186.50390 9.97068e-18
4188.00154 1.05523e-17
4189.49917 8.00288e-18
4190.99681 1.02139e-17
4192.50463 1.10092e-17
4194.00227 1.18072e-17
4195.49990 1.33657e-17
4196.99754 1.02748e-17
4198.49518 1.01587e-17
4200.00300 1.34905e-17
4201.50064 1.27016e-17
4202.99827 1.30915e-17
4204.49591 1.19756e-17
4206.00373 1.07396e-17
4207.50137 1.30849e-17
4208.99900 1.23200e-17
4210.49664 9.95710e-18
4212.00446 1.11627e-17
4213.50210 1.16439e-17
4214.99974 1.21161e-17
4216.49737 1.26304e-17
4218.00520 1.10679e-17
4219.50283 1.14158e-17
4221.00047 1.06178e-17
4222.49810 1.00432e-17
4223.99574 1.01302e-17
4225.50356 1.06756e-17
4227.00120 1.17553e-17
4228.49884 1.32563e-17
4229.99647 1.51139e-17
4231.50430 1.11580e-17
4233.00193 9.29784e-18
4234.49957 1.06096e-17
4235.99720 1.01440e-17
4237.50503 1.04276e-17
4239.00266 9.44707e-18
4240.50030 1.07722e-17
4241.99794 9.47522e-18
4243.49557 8.53056e-18
4245.00340 9.95821e-18
4246.50103 1.31613e-17
4247.99867 1.26013e-17
4249.49630 1.14494e-17
4251.00413 1.29082e-17
4252.50176 1.23698e-17
4253.99940 1.11222e-17
4255.49704 9.69704e-18
4257.00486 1.01273e-17
4258.50250 1.10578e-17
4260.00013 1.03659e-17
4261.49777 1.07463e-17
4262.99540 9.81188e-18
4264.50323 1.10308e-17
4266.00086 1.18789e-17
4267.49850 1.26858e-17
4268.99614 1.37858e-17
4270.50396 1.27066e-17
4272.00160 1.17112e-17
4273.49923 1.12603e-17
4274.99687 1.07007e-17
4276.50469 1.19067e-17
4278.00233 1.20378e-17
4279.49996 1.12685e-17
4280.99760 9.74201e-18
4282.49524 1.06318e-17
4284.00306 1.35638e-17
4285.50070 1.22688e-17
4286.99833 1.08243e-17
4288.49597 9.56989e-18
4290.00379 8.68574e-18
4291.50143 1.23052e-17
4292.99906 1.18820e-17
4294.49670 8.24491e-18
4296.00452 9.78311e-18
4297.50216 1.18390e-17
4298.99980 1.14322e-17
4300.49743 1.14057e-17
4301.99507 1.06563e-17
4303.50289 1.01830e-17
4305.00053 1.09470e-17
4306.49816 1.14766e-17
4307.99580 1.20304e-17
4309.50362 1.25074e-17
4311.00126 1.01073e-17
4312.49890 8.82896e-18
4313.99653 7.86018e-18
4315.50436 1.14351e-17
4317.00199 1.09949e-17
4318.49963 1.12252e-17
4319.99726 1.01462e-17
4321.49490 9.90966e-18
4323.00272 1.24401e-17
4324.50036 1.16879e-17
4325.99800 1.01821e-17
4327.49563 9.41151e-18
4329.00346 1.08674e-17
4330.50109 1.10810e-17
4331.99873 8.98621e-18
4333.49636 9.71332e-18
4335.00419 1.17779e-17
4336.50182 1.20118e-17
4337.99946 1.19825e-17
4339.49710 1.14200e-17
4341.00492 9.61035e-18
4342.50256 1.09544e-17
4344.00019 1.11319e-17
4345.49783 1.06975e-17
4346.99546 9.67012e-18
4348.50329 9.90655e-18
4350.00092 9.14658e-18
4351.49856 8.42265e-18
4352.99620 9.59162e-18
4354.50402 8.72074e-18
4356.00166 9.37285e-18
4357.49929 1.03609e-17
4358.99693 1.00373e-17
4360.50475 1.09475e-17
4362.00239 1.29048e-17
4363.50002 1.15064e-17
4364.99766 1.00871e-17
4366.49530 8.49684e-18
4368.00312 8.81697e-18
4369.50076 9.69302e-18
4370.99839 8.65928e-18
4372.49603 7.92734e-18
4374.00385 8.27379e-18
4375.50149 8.67164e-18
4376.99912 8.59516e-18
4378.49676 9.28786e-18
4380.00458 9.70896e-18
4381.50222 8.67688e-18
4382.99986 7.66597e-18
4384.49749 8.79986e-18
4385.99513 1.06682e-17
4387.50295 9.01571e-18
4389.00059 9.19588e-18
4390.49822 8.91297e-18
4391.99586 1.03891e-17
4393.50368 9.43947e-18
4395.00132 8.54864e-18
4396.49896 9.80169e-18
4397.99659 9.74530e-18
4399.50442 8.60084e-18
4401.00205 8.58348e-18
4402.49969 9.60446e-18
4403.99732 9.62974e-18
4405.50515 1.02965e-17
4407.00278 1.14556e-17
4408.50042 1.07898e-17
4409.99806 1.05227e-17
4411.49569 9.59087e-18
4413.00352 7.35039e-18
4414.50115 7.52688e-18
4415.99879 7.61435e-18
4417.49642 7.70178e-18
4419.00425 7.78920e-18
4420.50188 7.87664e-18
4421.99952 7.96404e-18
4423.49716 8.05143e-18
4425.00498 8.13884e-18
4426.50262 8.22622e-18
4428.00025 8.31358e-18
4429.49789 8.40096e-18
4430.99552 8.48830e-18
4432.50335 8.57563e-18
4434.00098 8.66296e-18
4435.49862 8.75030e-18
4436.99626 8.83760e-18
4438.50408 8.92489e-18
4440.00172 9.01221e-18
4441.49935 9.09948e-18
4442.99699 9.18674e-18
4444.50481 9.27403e-18
4446.00245 9.36127e-18
4447.50008 9.44851e-18
4448.99772 9.53576e-18
4450.49536 9.62297e-18
4452.00318 9.71018e-18
4453.50082 9.79740e-18
4454.99845 9.88459e-18
4456.49609 9.97176e-18
4458.00391 1.00589e-17
4459.50155 1.01461e-17
4460.99918 1.02333e-17
4462.49682 1.03204e-17
4464.00464 1.04075e-17
4465.50228 1.04947e-17
4466.99992 1.05818e-17
4468.49755 1.06689e-17
4469.99519 1.07560e-17
4471.50301 1.08430e-17
4473.00065 1.09301e-17
4474.49828 1.10172e-17
4475.99592 1.11042e-17
4477.50374 1.03207e-17
4479.00138 9.54856e-18
4480.49902 1.13591e-17
4481.99665 1.03198e-17
4483.50448 9.81756e-18
4485.00211 1.09200e-17
4486.49975 9.93199e-18
4487.99738 9.95126e-18
4489.49502 9.77167e-18
4491.00284 9.19533e-18
4492.50048 1.13036e-17
4493.99812 1.21926e-17
4495.49575 1.09639e-17
4497.00358 9.43046e-18
4498.50121 8.96617e-18
4499.99885 1.02366e-17
4501.49648 9.84010e-18
4503.00431 1.08727e-17
4504.50194 1.20612e-17
4505.99958 1.15551e-17
4507.49722 9.99376e-18
4508.99485 1.02155e-17
4510.50268 1.12578e-17
4512.00031 1.05919e-17
4513.49795 1.03878e-17
4514.99558 1.19210e-17
4516.50341 1.03527e-17
4518.00104 1.05284e-17
4519.49868 1.11097e-17
4520.99632 1.05668e-17
4522.50414 1.14316e-17
4524.00178 1.23911e-17
4525.49941 1.14308e-17
4526.99705 1.21938e-17
4528.50487 1.16080e-17
4530.00251 1.14740e-17
4531.50014 1.19901e-17
4532.99778 1.05773e-17
4534.49542 1.12338e-17
4536.00324 1.23304e-17
4537.50088 1.18704e-17
4538.99851 1.04910e-17
4540.49615 1.19434e-17
4542.00397 1.22107e-17
4543.50161 1.24394e-17
4544.99924 1.04769e-17
4546.49688 1.12110e-17
4548.00470 1.17865e-17
4549.50234 1.01566e-17
4550.99998 1.18401e-17
4552.49761 1.31162e-17
4553.99525 1.39554e-17
4555.50307 1.35761e-17
4557.00071 1.30941e-17
4558.49834 1.28669e-17
4559.99598 1.14249e-17
4561.50380 1.18768e-17
4563.00144 1.32730e-17
4564.49908 1.24390e-17
4565.99671 1.16938e-17
4567.50454 1.07586e-17
4569.00217 1.26193e-17
4570.49981 1.45570e-17
4571.99744 1.35378e-17
4573.49508 1.50790e-17
4575.00290 1.43368e-17
4576.50054 1.30440e-17
4577.99818 1.33215e-17
4579.49581 1.42171e-17
4581.00364 1.29798e-17
4582.50127 1.33192e-17
4583.99891 1.39947e-17
4585.49654 1.44586e-17
4587.00437 1.55393e-17
4588.50200 1.27463e-17
4589.99964 1.21170e-17
4591.49728 1.45558e-17
4593.00510 1.59174e-17
4594.50274 1.43236e-17
4596.00037 1.37013e-17
4597.49801 1.39691e-17
4598.99564 1.28524e-17
4600.50347 1.50890e-17
4602.00110 1.44827e-17
4603.49874 1.53281e-17
4604.99638 1.49584e-17
4606.50420 1.47123e-17
4608.00184 1.33442e-17
4609.49947 1.27916e-17
4610.99711 1.38686e-17
4612.50493 1.50311e-17
4614.00257 1.32610e-17
4615.50020 1.43051e-17
4616.99784 1.66369e-17
4618.49548 1.51080e-17
4620.00330 1.46504e-17
4621.50094 1.53404e-17
4622.99857 1.58900e-17
4624.49621 1.55149e-17
4626.00403 1.42171e-17
4627.50167 1.49227e-17
4628.99930 1.65689e-17
4630.49694 1.56316e-17
4632.00476 1.53520e-17
4633.50240 1.62064e-17
4635.00004 1.67215e-17
4636.49767 1.58340e-17
4637.99531 1.67523e-17
4639.50313 1.60142e-17
4641.00077 1.34931e-17
4642.49840 1.40205e-17
4643.99604 1.65741e-17
4645.50386 1.62325e-17
4647.00150 1.79084e-17
4648.49914 1.61367e-17
4649.99677 1.45389e-17
4651.50460 1.65352e-17
4653.00223 1.63252e-17
4654.49987 1.54147e-17
4655.99750 1.43156e-17
4657.49514 1.42707e-17
4659.00296 1.62455e-17
4660.50060 1.67034e-17
4661.99824 1.75050e-17
4663.49587 1.72474e-17
4665.00370 1.63779e-17
4666.50133 1.62594e-17
4667.99897 1.81416e-17
4669.49660 1.81407e-17
4671.00443 1.56544e-17
4672.50206 1.51426e-17
4673.99970 1.56167e-17
4675.49734 1.60594e-17
4676.99497 1.62545e-17
4678.50280 1.47429e-17
4680.00043 1.51312e-17
4681.49807 1.43576e-17
4682.99570 1.51597e-17
4684.50353 1.57341e-17
4686.00116 1.50534e-17
4687.49880 1.56962e-17
4688.99644 1.35912e-17
4690.50426 1.39625e-17
4692.00190 1.62568e-17
4693.49953 1.34021e-17
4694.99717 1.27549e-17
4696.49480 1.36881e-17
4698.00263 1.40475e-17
4699.50026 1.59330e-17
4700.99790 1.45443e-17
4702.49554 1.33584e-17
4704.00336 1.34741e-17
4705.50100 1.36191e-17
4706.99863 1.43538e-17
4708.49627 1.36628e-17
4710.00409 1.23733e-17
4711.50173 1.22890e-17
4712.99936 1.39995e-17
4714.49700 1.53382e-17
4716.00482 1.38462e-17
4717.50246 1.33012e-17
4719.00010 1.31528e-17
4720.49773 1.17905e-17
4721.99537 1.20712e-17
4723.50319 1.32428e-17
4725.00083 1.23988e-17
4726.49846 1.21416e-17
4727.99610 1.42429e-17
4729.50392 1.39722e-17
4731.00156 1.35347e-17
4732.49920 1.32766e-17
4733.99683 1.28249e-17
4735.50466 1.23567e-17
4737.00229 1.34209e-17
4738.49993 1.22816e-17
4739.99756 1.10939e-17
4741.49520 1.22891e-17
4743.00302 1.20270e-17
4744.50066 1.16373e-17
4745.99830 1.09446e-17
4747.49593 1.19292e-17
4749.00376 1.02567e-17
4750.50139 9.86683e-18
4751.99903 1.00991e-17
4753.49666 9.32542e-18
4755.00449 1.05815e-17
4756.50212 1.32060e-17
4757.99976 1.19822e-17
4759.49740 1.13287e-17
4761.00522 1.13344e-17
4762.50286 1.15433e-17
4764.00049 1.30674e-17
4765.49813 1.12495e-17
4766.99576 1.00817e-17
4768.50359 1.17826e-17
4770.00122 1.31345e-17
4771.49886 1.22148e-17
4772.99650 1.19585e-17
4774.50432 1.10243e-17
4776.00196 1.05292e-17
4777.49959 1.06448e-17
4778.99723 1.09280e-17
4780.50505 1.07502e-17
4782.00269 9.80075e-18
4783.50032 1.06246e-17
4784.99796 1.08022e-17
4786.49560 1.03769e-17
4788.00342 9.14600e-18
4789.50106 1.04256e-17
4790.99869 1.08485e-17
4792.49633 9.51772e-18
4794.00415 1.06550e-17
4795.50179 9.63687e-18
4796.99942 9.45209e-18
4798.49706 1.00583e-17
4800.00488 1.05439e-17
4801.50252 9.70061e-18
4803.00016 1.04602e-17
4804.49779 1.18792e-17
4805.99543 1.05832e-17
4807.50325 1.02546e-17
4809.00089 9.80150e-18
4810.49852 8.85119e-18
4811.99616 1.07394e-17
4813.50398 1.13889e-17
4815.00162 1.10838e-17
4816.49926 1.18139e-17
4817.99689 9.98758e-18
4819.50472 1.07828e-17
4821.00235 1.11157e-17
4822.49999 1.08110e-17
4823.99762 1.01202e-17
4825.49526 9.78831e-18
4827.00308 1.00303e-17
4828.50072 1.05994e-17
4829.99836 1.24124e-17
4831.49599 1.22953e-17
4833.00382 1.08090e-17
4834.50145 9.22560e-18
4835.99909 9.06823e-18
4837.49672 9.87034e-18
4839.00455 1.07508e-17
4840.50218 1.25230e-17
4841.99982 1.17068e-17
4843.49746 1.06655e-17
4844.99509 1.17064e-17
4846.50292 1.20435e-17
4848.00055 1.13290e-17
4849.49819 1.16012e-17
4850.99582 9.89685e-18
4852.50365 9.59438e-18
4854.00128 1.17131e-17
4855.49892 1.13239e-17
4856.99656 1.15887e-17
4858.50438 1.13112e-17
4860.00202 1.14676e-17
4861.49965 1.07378e-17
4862.99729 1.00408e-17
4864.49492 9.91874e-18
4866.00275 1.06458e-17
4867.50038 1.09533e-17
4868.99802 1.03443e-17
4870.49566 1.06862e-17
4872.00348 1.02608e-17
4873.50112 1.00578e-17
4874.99875 9.85474e-18
4876.49639 8.73850e-18
4878.00421 1.16414e-17
4879.50185 1.18470e-17
4880.99948 1.15625e-17
4882.49712 1.23153e-17
4884.00494 8.94631e-18
4885.50258 9.10835e-18
4887.00022 1.04506e-17
4888.49785 1.10981e-17
4889.99549 1.03220e-17
4891.50331 8.89255e-18
4893.00095 9.65773e-18
4894.49858 1.05673e-17
4895.99622 8.00734e-18
4897.50404 8.45391e-18
4899.00168 1.12258e-17
4900.49932 1.04305e-17
4901.99695 8.95350e-18
4903.50478 9.80990e-18
4905.00241 1.02903e-17
4906.50005 1.09718e-17
4907.99768 1.19342e-17
4909.49532 1.07590e-17
4911.00314 1.00958e-17
4912.50078 1.04338e-17
4913.99842 9.81501e-18
4915.49605 9.66735e-18
4917.00388 1.04602e-17
4918.50151 1.05890e-17
4919.99915 1.06960e-17
4921.49678 1.05966e-17
4923.00461 1.03379e-17
4924.50224 9.13066e-18
4925.99988 9.18074e-18
4927.49752 1.17456e-17
4928.99515 1.17189e-17
4930.50298 1.02735e-17
4932.00061 1.09595e-17
4933.49825 1.04601e-17
4934.99588 1.05243e-17
4936.50371 1.05885e-17
4938.00134 1.06526e-17
4939.49898 1.07168e-17
4940.99662 1.07810e-17
4942.50444 1.08451e-17
4944.00208 1.09093e-17
4945.49971 1.09734e-17
4946.99735 1.10376e-17
4948.50517 1.11017e-17
4950.00281 1.11658e-17
4951.50044 1.12300e-17
4952.99808 1.12941e-17
4954.49572 1.13582e-17
4956.00354 1.14223e-17
4957.50118 1.14863e-17
4958.99881 1.15504e-17
4960.49645 1.16145e-17
4962.00427 1.16785e-17
4963.50191 1.17426e-17
4964.99954 1.18067e-17
4966.49718 1.18707e-17
4968.00500 1.19347e-17
4969.50264 1.19988e-17
4971.00028 1.20628e-17
4972.49791 1.21268e-17
4973.99555 1.28994e-17
4975.50337 1.38376e-17
4977.00101 1.27271e-17
4978.49864 1.27136e-17
4979.99628 1.24279e-17
4981.50410 1.21184e-17
4983.00174 1.24773e-17
4984.49938 1.25487e-17
4985.99701 1.41773e-17
4987.50484 1.44456e-17
4989.00247 1.30489e-17
4990.50011 1.29218e-17
4991.99774 1.31329e-17
4993.49538 1.16747e-17
4995.00320 1.15418e-17
4996.50084 1.17902e-17
4997.99848 1.14129e-17
4999.49611 1.21285e-17
5001.00394 1.21110e-17
5002.50157 1.08694e-17
5003.99921 1.04268e-17
5005.49684 1.03125e-17
5007.00467 1.06165e-17
5008.50230 1.07759e-17
5009.99994 1.17819e-17
5011.49758 1.14009e-17
5012.99521 9.88565e-18
5014.50304 1.15667e-17
5016.00067 1.19995e-17
5017.49831 1.18458e-17
5018.99594 9.47342e-18
5020.50377 1.04996e-17
5022.00140 1.08075e-17
5023.49904 1.16216e-17
5024.99668 1.20745e-17
5026.50450 1.21525e-17
5028.00214 1.17225e-17
5029.49977 1.08945e-17
5030.99741 1.06069e-17
5032.49504 1.01779e-17
5034.00287 1.00959e-17
5035.50050 1.00139e-17
5036.99814 9.93187e-18
5038.49578 9.84990e-18
5040.00360 9.76792e-18
5041.50124 9.68596e-18
5042.99887 9.60402e-18
5044.49651 9.52209e-18
5046.00433 9.44014e-18
5047.50197 9.35823e-18
5048.99960 9.27633e-18
5050.49724 9.19441e-18
5051.99488 9.11253e-18
5053.50270 9.03066e-18
5055.00034 8.94876e-18
5056.49797 8.86691e-18
5057.99561 8.78507e-18
5059.50343 8.70320e-18
5061.00107 8.62138e-18
5062.49870 8.53956e-18
5063.99634 8.45773e-18
5065.50416 8.37593e-18
5067.00180 8.29415e-18
5068.49944 8.21237e-18
5069.99707 8.13057e-18
5071.50490 8.04882e-18
5073.00253 8.67695e-18
5074.50017 8.10649e-18
5075.99780 1.03737e-17
5077.49544 1.00484e-17
5079.00326 9.39308e-18
5080.50090 1.01878e-17
5081.99854 8.96033e-18
5083.49617 8.99502e-18
5085.00400 9.02969e-18
5086.50163 9.06436e-18
5087.99927 9.09903e-18
5089.49690 9.13369e-18
5091.00473 9.16835e-18
5092.50236 9.20300e-18
5094.00000 9.23767e-18
5095.49764 9.27231e-18
5096.99527 9.30696e-18
5098.50310 9.34161e-18
5100.00073 9.37624e-18
5101.49837 9.41087e-18
5102.99600 9.44551e-18
5104.50383 9.48014e-18
5106.00146 9.51476e-18
5107.49910 9.54939e-18
5108.99674 9.58400e-18
5110.50456 9.61861e-18
5112.00220 9.65323e-18
5113.49983 9.68783e-18
5114.99747 9.72243e-18
5116.49510 9.75702e-18
5118.00293 9.79163e-18
5119.50056 9.82621e-18
5120.99820 9.87722e-18
5122.49584 1.07402e-17
5124.00366 1.03822e-17
5125.50130 1.07276e-17
5126.99893 1.12740e-17
5128.49657 1.05169e-17
5130.00439 9.42934e-18
5131.50203 1.07462e-17
5132.99966 9.90644e-18
5134.49730 9.56104e-18
5136.00512 9.98154e-18
5137.50276 9.58432e-18
5139.00040 1.12665e-17
5140.49803 1.15277e-17
5141.99567 9.46615e-18
5143.50349 9.46958e-18
5145.00113 1.05048e-17
5146.49876 1.12323e-17
5147.99640 1.03059e-17
5149.50422 1.03484e-17
5151.00186 1.09424e-17
5152.49950 1.03275e-17
5153.99713 1.13902e-17
5155.50496 1.11268e-17
5157.00259 1.13000e-17
5158.50023 9.86179e-18
5159.99786 1.03849e-17
5161.49550 1.11726e-17
5163.00332 1.12269e-17
5164.50096 1.12228e-17
5165.99860 1.04575e-17
5167.49623 1.01313e-17
5169.00406 1.14913e-17
5170.50169 1.12857e-17
5171.99933 1.11948e-17
5173.49696 1.24109e-17
5175.00479 1.15851e-17
5176.50242 1.05443e-17
5178.00006 1.04160e-17
5179.49770 1.04404e-17
5180.99533 9.82386e-18
5182.50316 1.03691e-17
5184.00079 1.22822e-17
5185.49843 1.30870e-17
5186.99606 1.23309e-17
5188.50389 1.12706e-17
5190.00152 1.03368e-17
5191.49916 1.06625e-17
5192.99680 1.13045e-17
5194.50462 1.14699e-17
5196.00226 1.27684e-17
5197.49989 1.23048e-17
5198.99753 1.10578e-17
5200.49516 1.09786e-17
5202.00299 9.75843e-18
5203.50062 9.42722e-18
5204.99826 1.07008e-17
5206.49590 1.19794e-17
5208.00372 1.16582e-17
5209.50136 1.18083e-17
5210.99899 1.12714e-17
5212.49663 1.17658e-17
5214.00445 1.24973e-17
5215.50209 1.09585e-17
5216.99972 1.12047e-17
5218.49736 1.28210e-17
5219.99500 1.20689e-17
5221.50282 1.18061e-17
5223.00046 1.11719e-17
5224.49809 1.12389e-17
5225.99573 1.10581e-17
5227.50355 1.19416e-17
5229.00119 1.29179e-17
5230.49882 1.18156e-17
5231.99646 1.20073e-17
5233.50428 1.33930e-17
5235.00192 1.15473e-17
5236.49956 1.17460e-17
5237.99719 1.18877e-17
5239.49483 1.22820e-17
5241.00265 1.23421e-17
5242.50029 1.17108e-17
5243.99792 1.11189e-17
5245.49556 1.20178e-17
5247.00338 1.19870e-17
5248.50102 1.28731e-17
5249.99866 1.26974e-17
5251.49629 1.22091e-17
5253.00412 1.23496e-17
5254.50175 1.36612e-17
5255.99939 1.32210e-17
5257.49702 1.28286e-17
5259.00485 1.28370e-17
5260.50248 1.25784e-17
5262.00012 1.33059e-17
5263.49776 1.33557e-17
5264.99539 1.24234e-17
5266.50322 1.20336e-17
5268.00085 1.10417e-17
5269.49849 1.21914e-17
5270.99612 1.21798e-17
5272.50395 1.21119e-17
5274.00158 1.25112e-17
5275.49922 1.15897e-17
5276.99686 1.14390e-17
5278.50468 1.28281e-17
5280.00232 1.32685e-17
5281.49995 1.23278e-17
5282.99759 1.32174e-17
5284.49522 1.38583e-17
5286.00305 1.28750e-17
5287.50068 1.53027e-17
5288.99832 1.46603e-17
5290.49596 1.38148e-17
5292.00378 1.54962e-17
5293.50142 1.37460e-17
5294.99905 1.32864e-17
5296.49669 1.40061e-17
5298.00451 1.28882e-17
5299.50215 1.41369e-17
5300.99978 1.46885e-17
5302.49742 1.39674e-17
5303.99506 1.36303e-17
5305.50288 1.32930e-17
5307.00052 1.47313e-17
5308.49815 1.53120e-17
5309.99579 1.46135e-17
5311.50361 1.42436e-17
5313.00125 1.45413e-17
5314.49888 1.47004e-17
5315.99652 1.48303e-17
5317.50434 1.46233e-17
5319.00198 1.43776e-17
5320.49962 1.46463e-17
5321.99725 1.46794e-17
5323.50508 1.39212e-17
5325.00271 1.40936e-17
5326.50035 1.47067e-17
5327.99798 1.50108e-17
5329.49562 1.53783e-17
5331.00344 1.52092e-17
5332.50108 1.46783e-17
5333.99872 1.44476e-17
5335.49635 1.52490e-17
5337.00418 1.50872e-17
5338.50181 1.43126e-17
5339.99945 1.49494e-17
5341.49708 1.55727e-17
5343.00491 1.64972e-17
5344.50254 1.61197e-17
5346.00018 1.50933e-17
5347.49782 1.45863e-17
5348.99545 1.48396e-17
5350.50328 1.65259e-17
5352.00091 1.54400e-17
5353.49855 1.40879e-17
5354.99618 1.50359e-17
5356.50401 1.49265e-17
5358.00164 1.68405e-17
5359.49928 1.76257e-17
5360.99692 1.49000e-17
5362.50474 1.48296e-17
5364.00238 1.59966e-17
5365.50001 1.55054e-17
5366.99765 1.52537e-17
5368.49528 1.46801e-17
5370.00311 1.36601e-17
5371.50074 1.44401e-17
5372.99838 1.64048e-17
5374.49602 1.70217e-17
5376.00384 1.60785e-17
5377.50148 1.45998e-17
5378.99911 1.43713e-17
5380.49675 1.49612e-17
5382.00457 1.49524e-17
5383.50221 1.49460e-17
5384.99984 1.50978e-17
5386.49748 1.47602e-17
5387.99512 1.45803e-17
5389.50294 1.43016e-17
5391.00058 1.44084e-17
5392.49821 1.46716e-17
5393.99585 1.49720e-17
5395.50367 1.53665e-17
5397.00131 1.59690e-17
5398.49894 1.58069e-17
5399.99658 1.57380e-17
5401.50440 1.65232e-17
5403.00204 1.60106e-17
5404.49968 1.53042e-17
5405.99731 1.59780e-17
5407.49495 1.67113e-17
5409.00277 1.72503e-17
5410.50041 1.68464e-17
5411.99804 1.46171e-17
5413.49568 1.44807e-17
5415.00350 1.57753e-17
5416.50114 1.63337e-17
5417.99878 1.53677e-17
5419.49641 1.45980e-17
5421.00424 1.50523e-17
5422.50187 1.61743e-17
5423.99951 1.66936e-17
5425.49714 1.54759e-17
5426.99478 1.56043e-17
5428.50260 1.60539e-17
5430.00024 1.53288e-17
5431.49788 1.46088e-17
5432.99551 1.52699e-17
5434.50334 1.64457e-17
5436.00097 1.52607e-17
5437.49861 1.57708e-17
5438.99624 1.54765e-17
5440.50407 1.46852e-17
5442.00170 1.41826e-17
5443.49934 1.41238e-17
5444.99698 1.61631e-17
5446.50480 1.61011e-17
5448.00244 1.42643e-17
5449.50007 1.66364e-17
5450.99771 1.75156e-17
5452.49534 1.75682e-17
5454.00317 1.59985e-17
5455.50080 1.64063e-17
5456.99844 1.58455e-17
5458.49608 1.46020e-17
5460.00390 1.55293e-17
5461.50154 1.62029e-17
5462.99917 1.63222e-17
5464.49681 1.67314e-17
5466.00463 1.63298e-17
5467.50227 1.57499e-17
5468.99990 1.59815e-17
5470.49754 1.68032e-17
5471.99518 1.71321e-17
5473.50300 1.55888e-17
5475.00064 1.53597e-17
5476.49827 1.68611e-17
5477.99591 1.66755e-17
5479.50373 1.59086e-17
5481.00137 1.46501e-17
5482.49900 1.42253e-17
5483.99664 1.65272e-17
5485.50446 1.69702e-17
5487.00210 1.61170e-17
5488.49974 1.63739e-17
5489.99737 1.68882e-17
5491.49501 1.68219e-17
5493.00283 1.62255e-17
5494.50047 1.70125e-17
5495.99810 1.61229e-17
5497.49574 1.55298e-17
5499.00356 1.67328e-17
5500.50120 1.81184e-17
5501.99884 1.68517e-17
5503.49647 1.72259e-17
5505.00430 1.82430e-17
5506.50193 1.73117e-17
5507.99957 1.65479e-17
5509.49720 1.66081e-17
5511.00503 1.68002e-17
5512.50266 1.61461e-17
5514.00030 1.67627e-17
5515.49794 1.79300e-17
5516.99557 1.84625e-17
5518.50340 1.91522e-17
5520.00103 1.78671e-17
5521.49867 1.72812e-17
5522.99630 1.76760e-17
5524.50413 1.67634e-17
5526.00176 1.73289e-17
5527.49940 1.71955e-17
5528.99704 1.82669e-17
5530.50486 1.80417e-17
5532.00250 1.79191e-17
5533.50013 1.89460e-17
5534.99777 1.77938e-17
5536.49540 1.69018e-17
5538.00323 1.68053e-17
5539.50086 1.74056e-17
5540.99850 1.86240e-17
5542.49614 1.81239e-17
5544.00396 1.77642e-17
5545.50160 1.77501e-17
5546.99923 1.87402e-17
5548.49687 1.83884e-17
5550.00469 1.77956e-17
5551.50233 1.77630e-17
5552.99996 1.72576e-17
5554.49760 1.72552e-17
5555.99524 1.73392e-17
5557.50306 1.67408e-17
5559.00070 1.81234e-17
5560.49833 1.71217e-17
5561.99597 1.54390e-17
5563.50379 1.69112e-17
5565.00143 1.77613e-17
5566.49906 1.74401e-17
5567.99670 1.60016e-17
5569.50452 1.61257e-17
5571.00216 1.49814e-17
5572.49980 1.74019e-17
5573.99743 1.45148e-17
5575.49507 1.45889e-17
5577.00289 1.48813e-17
5578.50053 1.63523e-17
5579.99816 1.68472e-17
5581.49580 1.48869e-17
5583.00362 1.55651e-17
5584.50126 1.56283e-17
5585.99890 1.58743e-17
5587.49653 1.61351e-17
5589.00436 1.54520e-17
5590.50199 1.48045e-17
5591.99963 1.51572e-17
5593.49726 1.65078e-17
5594.99490 1.58769e-17
5596.50272 1.63608e-17
5598.00036 1.71987e-17
5599.49800 1.70632e-17
5600.99563 1.67719e-17
5602.50346 1.52420e-17
5604.00109 1.47658e-17
5605.49873 1.50716e-17
5606.99636 1.57674e-17
5608.50419 1.60334e-17
5610.00182 1.50612e-17
5611.49946 1.35048e-17
5612.99710 1.36101e-17
5614.50492 1.49048e-17
5616.00256 1.49788e-17
5617.50019 1.45685e-17
5618.99783 1.40497e-17
5620.49546 1.42988e-17
5622.00329 1.43848e-17
5623.50092 1.40132e-17
5624.99856 1.58868e-17
5626.49620 1.54949e-17
5628.00402 1.42208e-17
5629.50166 1.41682e-17
5630.99929 1.32859e-17
5632.49693 1.13527e-17
5634.00475 1.20857e-17
5635.50239 1.32979e-17
5637.00002 1.36365e-17
5638.49766 1.21939e-17
5639.99530 1.22260e-17
5641.50312 1.41203e-17
5643.00076 1.59716e-17
5644.49839 1.54239e-17
5645.99603 1.41213e-17
5647.50385 1.42704e-17
5649.00149 1.35177e-17
5650.49912 1.24383e-17
5651.99676 1.39347e-17
5653.50458 1.40623e-17
5655.00222 1.22485e-17
5656.49986 1.31757e-17
5657.99749 1.32024e-17
5659.49513 1.24759e-17
5661.00295 1.27309e-17
5662.50059 1.19918e-17
5663.99822 1.31077e-17
5665.49586 1.44107e-17
5667.00368 1.38867e-17
5668.50132 1.29650e-17
5669.99896 1.24845e-17
5671.49659 1.23628e-17
5673.00442 1.19071e-17
5674.50205 1.19826e-17
5675.99969 1.23982e-17
5677.49732 1.24130e-17
5679.00515 1.23992e-17
5680.50278 1.24949e-17
5682.00042 1.21144e-17
5683.49806 1.23864e-17
5684.99569 1.26598e-17
5686.50352 1.23425e-17
5688.00115 1.19592e-17
5689.49879 1.24833e-17
5690.99642 1.26662e-17
5692.50425 1.19163e-17
5694.00188 1.26945e-17
5695.49952 1.38104e-17
5696.99716 1.25660e-17
5698.50498 1.14681e-17
5700.00262 1.14634e-17
5701.50025 1.13340e-17
5702.99789 1.19180e-17
5704.49552 1.11800e-17
5706.00335 1.12665e-17
5707.50098 1.22554e-17
5708.99862 1.15666e-17
5710.49626 1.23880e-17
5712.00408 1.21560e-17
5713.50172 1.03279e-17
5714.99935 1.17028e-17
5716.49699 1.22240e-17
5718.00481 1.06230e-17
5719.50245 1.05512e-17
5721.00008 1.15294e-17
5722.49772 1.03520e-17
5723.99536 1.01495e-17
5725.50318 1.03592e-17
5727.00082 1.00269e-17
5728.49845 9.93039e-18
5729.99609 1.02755e-17
5731.50391 1.10347e-17
5733.00155 1.16887e-17
5734.49918 1.04240e-17
5735.99682 1.15830e-17
5737.50464 1.20618e-17
5739.00228 1.08921e-17
5740.49992 1.10668e-17
5741.99755 1.15507e-17
5743.49519 1.13802e-17
5745.00301 1.04182e-17
5746.50065 1.09852e-17
5747.99828 1.13172e-17
5749.49592 1.00237e-17
5751.00374 8.61355e-18
5752.50138 9.86768e-18
5753.99902 1.16240e-17
5755.49665 1.02143e-17
5757.00448 9.51282e-18
5758.50211 9.63163e-18
5759.99975 1.01877e-17
5761.49738 1.12173e-17
5762.99502 1.01442e-17
5764.50284 1.00700e-17
5766.00048 1.02082e-17
5767.49812 9.82639e-18
5768.99575 1.04763e-17
5770.50358 1.23584e-17
5772.00121 1.11667e-17
5773.49885 1.03482e-17
5774.99648 1.04692e-17
5776.50431 1.00537e-17
5778.00194 1.04528e-17
5779.49958 1.09749e-17
5780.99722 9.10717e-18
5782.49485 1.08932e-17
5784.00268 1.04224e-17
5785.50031 1.08374e-17
5786.99795 1.10438e-17
5788.49558 9.53493e-18
5790.00341 9.93545e-18
5791.50104 1.05551e-17
5792.99868 1.06797e-17
5794.49632 1.05943e-17
5796.00414 1.04415e-17
5797.50178 9.75863e-18
5798.99941 9.37060e-18
5800.49705 9.18786e-18
5802.00487 1.02669e-17
5803.50251 1.15347e-17
5805.00014 1.14408e-17
5806.49778 1.12631e-17
5807.99542 1.04257e-17
5809.50324 9.43479e-18
5811.00088 9.82161e-18
5812.49851 1.01579e-17
5813.99615 9.75692e-18
5815.50397 1.06672e-17
5817.00161 9.73695e-18
5818.49924 9.38012e-18
5819.99688 1.11021e-17
5821.50470 1.09224e-17
5823.00234 1.07947e-17
5824.49998 9.73175e-18
5825.99761 9.33687e-18
5827.49525 9.42373e-18
5829.00307 1.05516e-17
5830.50071 1.15641e-17
5831.99834 1.14677e-17
5833.49598 1.14321e-17
5835.00380 1.11487e-17
5836.50144 9.41812e-18
5837.99908 1.14645e-17
5839.49671 1.14467e-17
5841.00454 9.44887e-18
5842.50217 1.01740e-17
5843.99981 1.07824e-17
5845.49744 1.04433e-17
5846.99508 1.02421e-17
5848.50290 9.82043e-18
5850.00054 1.17323e-17
5851.49818 1.09238e-17
5852.99581 1.14775e-17
5854.50364 1.20583e-17
5856.00127 1.05619e-17
5857.49891 1.14894e-17
5858.99654 1.00515e-17
5860.50437 1.01997e-17
5862.00200 1.11710e-17
5863.49964 9.52995e-18
5864.99728 1.06098e-17
5866.50510 1.28194e-17
5868.00274 1.08369e-17
5869.50037 1.01389e-17
5870.99801 1.16720e-17
5872.49564 1.11116e-17
5874.00347 1.07393e-17
5875.50110 1.19893e-17
5876.99874 1.20826e-17
5878.49638 1.19827e-17
5880.00420 1.16402e-17
5881.50184 1.05993e-17
5882.99947 1.05428e-17
5884.49711 1.16498e-17
5886.00493 1.25762e-17
5887.50257 1.15167e-17
5889.00020 1.12280e-17
5890.49784 1.16134e-17
5891.99548 1.15449e-17
5893.50330 1.33408e-17
5895.00094 1.43264e-17
5896.49857 1.31901e-17
5897.99621 1.24491e-17
5899.50403 1.19459e-17
5901.00167 1.13982e-17
5902.49930 1.10655e-17
5903.99694 1.24080e-17
5905.50476 1.22698e-17
5907.00240 1.12410e-17
5908.50004 1.21346e-17
5909.99767 1.28910e-17
5911.49531 1.41083e-17
5913.00313 1.28816e-17
5914.50077 1.31368e-17
5915.99840 1.54316e-17
5917.49604 1.32488e-17
5919.00386 1.24730e-17
5920.50150 1.42362e-17
5921.99914 1.32280e-17
5923.49677 1.20063e-17
5925.00460 1.13149e-17
5926.50223 1.19641e-17
5927.99987 1.16172e-17
5929.49750 1.21966e-17
5930.99514 1.20585e-17
5932.50296 1.40781e-17
5934.00060 1.07526e-17
5935.49824 1.25574e-17
5936.99587 1.25780e-17
5938.50370 1.32176e-17
5940.00133 1.35736e-17
5941.49897 1.27397e-17
5942.99660 1.17350e-17
5944.50443 1.23005e-17
5946.00206 1.16144e-17
5947.49970 9.37371e-18
5948.99734 9.67121e-18
5950.49497 1.15807e-17
5952.00280 1.25721e-17
5953.50043 1.16791e-17
5954.99807 1.08519e-17
5956.49570 1.08651e-17
5958.00353 1.08783e-17
5959.50116 1.08915e-17
5960.99880 1.09047e-17
5962.49644 1.09178e-17
5964.00426 1.09310e-17
5965.50190 1.09442e-17
5966.99953 1.09574e-17
5968.49717 1.09706e-17
5969.99480 1.09837e-17
5971.50263 1.09969e-17
5973.00026 1.10101e-17
5974.49790 1.10233e-17
5975.99554 1.10365e-17
5977.50336 1.10496e-17
5979.00100 1.10628e-17
5980.49863 1.10760e-17
5981.99627 1.10892e-17
5983.50409 1.11023e-17
5985.00173 1.11155e-17
5986.49936 1.11287e-17
5987.99700 1.11419e-17
5989.50482 1.11550e-17
5991.00246 1.11682e-17
5992.50010 1.11814e-17
5993.99773 1.11945e-17
5995.49537 1.12077e-17
5997.00319 1.12209e-17
5998.50083 1.12340e-17
5999.99846 1.12472e-17
6001.49610 1.12604e-17
6003.00392 1.12736e-17
6004.50156 1.12867e-17
6005.99920 1.12999e-17
6007.49683 1.13131e-17
6009.00466 1.13262e-17
6010.50229 1.13394e-17
6011.99993 1.13525e-17
6013.49756 1.13657e-17
6014.99520 1.13789e-17
6016.50302 1.13920e-17
6018.00066 1.14052e-17
6019.49830 1.15497e-17
6020.99593 1.18308e-17
6022.50376 1.15697e-17
6024.00139 1.13687e-17
6025.49903 1.20797e-17
6026.99666 1.15892e-17
6028.50449 1.12266e-17
6030.00212 1.13307e-17
6031.49976 1.14737e-17
6032.99740 1.08246e-17
6034.49503 1.01958e-17
6036.00286 1.10133e-17
6037.50049 1.10967e-17
6038.99813 1.17250e-17
6040.49576 1.16417e-17
6042.00359 1.04048e-17
6043.50122 1.13638e-17
6044.99886 1.18499e-17
6046.49650 1.07493e-17
6048.00432 1.11619e-17
6049.50196 1.14424e-17
6050.99959 1.12506e-17
6052.49723 1.16478e-17
6054.00505 1.05861e-17
6055.50269 1.06336e-17
6057.00032 1.17911e-17
6058.49796 1.09153e-17
6059.99560 1.19677e-17
6061.50342 1.30236e-17
6063.00106 1.28899e-17
6064.49869 1.09593e-17
6065.99633 1.18538e-17
6067.50415 1.15510e-17
6069.00179 1.03392e-17
6070.49942 1.17536e-17
6071.99706 1.16879e-17
6073.50488 1.10066e-17
6075.00252 1.12829e-17
6076.50016 1.20204e-17
6077.99779 1.21136e-17
6079.49543 1.14190e-17
6081.00325 1.07451e-17
6082.50089 1.15315e-17
6083.99852 1.24481e-17
6085.49616 1.31859e-17
6087.00398 1.22156e-17
6088.50162 1.16990e-17
6089.99926 1.17539e-17
6091.49689 1.18722e-17
6093.00472 1.27545e-17
6094.50235 1.14087e-17
6095.99999 1.12719e-17
6097.49762 1.17925e-17
6098.99526 1.13171e-17
6100.50308 1.21059e-17
6102.00072 1.24950e-17
6103.49836 1.10548e-17
6104.99599 1.11982e-17
6106.50382 1.12302e-17
6108.00145 1.19887e-17
6109.49909 1.27945e-17
6110.99672 1.36752e-17
6112.50455 1.31761e-17
6114.00218 1.13977e-17
6115.49982 1.13424e-17
6116.99746 1.11370e-17
6118.49509 1.15287e-17
6120.00292 1.19663e-17
6121.50055 1.19873e-17
6122.99819 1.13391e-17
6124.49582 1.18497e-17
6126.00365 1.15223e-17
6127.50128 1.24400e-17
6128.99892 1.19236e-17
6130.49656 1.22679e-17
6132.00438 1.16298e-17
6133.50202 1.15132e-17
6134.99965 1.16447e-17
6136.49729 1.30769e-17
6137.99492 1.22787e-17
6139.50275 1.07868e-17
6141.00038 1.02223e-17
6142.49802 1.30133e-17
6143.99566 1.33252e-17
6145.50348 1.09474e-17
6147.00112 1.12972e-17
6148.49875 1.15579e-17
6149.99639 1.14810e-17
6151.50421 1.17399e-17
6153.00185 1.19988e-17
6154.49948 1.24101e-17
6155.99712 1.18313e-17
6157.50494 1.04258e-17
6159.00258 1.11929e-17
6160.50022 1.17868e-17
6161.99785 1.19864e-17
6163.49549 1.24738e-17
6165.00331 1.26081e-17
6166.50095 1.19007e-17
6167.99858 1.24044e-17
6169.49622 1.29238e-17
6171.00404 1.19091e-17
6172.50168 1.22665e-17
6173.99932 1.17713e-17
6175.49695 1.07741e-17
6177.00478 1.20605e-17
6178.50241 1.21611e-17
6180.00005 1.11989e-17
6181.49768 1.11253e-17
6182.99532 9.92736e-18
6184.50314 1.17237e-17
6186.00078 1.30496e-17
6187.49842 1.13057e-17
6188.99605 1.14493e-17
6190.50388 1.13215e-17
6192.00151 1.08377e-17
6193.49915 1.22972e-17
6194.99678 1.34331e-17
6196.50461 1.35443e-17
6198.00224 1.20884e-17
6199.49988 1.17378e-17
6200.99752 1.21251e-17
6202.49515 1.02358e-17
6204.00298 1.14815e-17
6205.50061 1.27853e-17
6206.99825 1.20685e-17
6208.49588 1.11862e-17
6210.00371 1.17676e-17
6211.50134 1.09403e-17
6212.99898 1.19943e-17
6214.49662 1.21685e-17
6216.00444 9.75311e-18
6217.50208 1.07825e-17
6218.99971 1.17164e-17
6220.49735 1.15466e-17
6221.99498 1.24197e-17
6223.50281 1.16802e-17
6225.00044 1.11799e-17
6226.49808 1.17447e-17
6227.99572 1.29122e-17
6229.50354 1.34815e-17
6231.00118 1.27686e-17
6232.49881 1.35517e-17
6233.99645 1.32114e-17
6235.50427 1.36154e-17
6237.00191 1.30750e-17
6238.49954 1.19289e-17
6239.99718 1.29797e-17
6241.50500 1.25651e-17
6243.00264 1.28908e-17
6244.50028 1.31245e-17
6245.99791 1.11601e-17
6247.49555 1.15972e-17
6249.00337 1.21384e-17
6250.50101 1.16431e-17
6251.99864 1.17893e-17
6253.49628 1.23247e-17
6255.00410 1.16591e-17
6256.50174 1.28862e-17
6257.99938 1.33704e-17
6259.49701 1.24294e-17
6261.00484 1.32850e-17
6262.50247 1.37146e-17
6264.00011 1.27272e-17
6265.49774 1.27720e-17
6266.99538 1.21100e-17
6268.50320 1.11437e-17
6270.00084 1.13904e-17
6271.49848 1.19226e-17
6272.99611 1.17593e-17
6274.50394 1.11955e-17
6276.00157 1.18277e-17
6277.49921 1.17453e-17
6278.99684 9.47514e-18
6280.50467 9.71862e-18
6282.00230 1.17444e-17
6283.49994 1.20732e-17
6284.99758 1.17449e-17
6286.49521 1.13347e-17
6288.00304 1.15888e-17
6289.50067 1.20770e-17
6290.99831 1.22502e-17
6292.49594 1.16026e-17
6294.00377 1.14658e-17
6295.50140 1.09103e-17
6296.99904 1.04231e-17
6298.49668 1.36203e-17
6300.00450 1.48822e-17
6301.50214 1.37965e-17
6302.99977 1.25167e-17
6304.49741 1.13058e-17
6305.99504 1.17562e-17
6307.50287 1.10556e-17
6309.00050 1.18159e-17
6310.49814 1.27372e-17
6311.99578 1.14188e-17
6313.50360 1.08413e-17
6315.00124 1.08206e-17
6316.49887 1.11677e-17
6317.99651 1.11074e-17
6319.50433 1.15744e-17
6321.00197 1.11515e-17
6322.49960 1.05695e-17
6323.99724 1.14541e-17
6325.49488 1.17561e-17
6327.00270 1.19664e-17
6328.50034 1.22685e-17
6329.99797 1.02147e-17
6331.49561 1.03045e-17
6333.00343 1.11081e-17
6334.50107 1.08091e-17
6335.99870 1.03288e-17
6337.49634 1.13899e-17
6339.00416 1.09263e-17
6340.50180 1.20471e-17
6341.99944 1.24838e-17
6343.49707 1.33799e-17
6345.00490 1.14586e-17
6346.50253 1.12845e-17
6348.00017 1.05123e-17
6349.49780 1.05607e-17
6350.99544 1.18695e-17
6352.50326 1.06796e-17
6354.00090 1.19775e-17
6355.49854 1.12580e-17
6356.99617 9.69686e-18
6358.50400 9.70555e-18
6360.00163 1.08080e-17
6361.49927 1.09134e-17
6362.99690 1.19684e-17
6364.50473 1.22784e-17
6366.00236 1.23792e-17
6367.50000 1.16779e-17
6368.99764 1.15981e-17
6370.49527 1.19101e-17
6372.00310 1.22322e-17
6373.50073 1.15233e-17
6374.99837 9.96720e-18
6376.49600 1.15027e-17
6378.00383 1.13707e-17
6379.50146 1.03835e-17
6380.99910 1.09702e-17
6382.49674 1.13833e-17
6384.00456 1.11845e-17
6385.50220 1.05767e-17
6386.99983 1.07180e-17
6388.49747 1.15152e-17
6389.99510 1.13444e-17
6391.50293 1.03423e-17
6393.00056 1.10682e-17
6394.49820 1.23298e-17
6395.99584 1.16063e-17
6397.50366 1.16078e-17
6399.00130 1.22780e-17
6400.49893 1.24650e-17
6401.99657 1.21114e-17
6403.50439 1.13718e-17
6405.00203 1.17138e-17
6406.49966 1.11361e-17
6407.99730 1.11603e-17
6409.49494 1.32546e-17
6411.00276 1.23025e-17
6412.50040 1.24875e-17
6413.99803 1.19562e-17
6415.49567 1.21564e-17
6417.00349 1.37842e-17
6418.50113 1.43580e-17
6419.99876 1.27475e-17
6421.49640 1.14455e-17
6423.00422 1.31483e-17
6424.50186 1.33051e-17
6425.99950 1.12203e-17
6427.49713 1.12788e-17
6429.00496 1.26588e-17
6430.50259 1.29614e-17
6432.00023 1.22239e-17
6433.49786 1.23930e-17
6434.99550 1.34951e-17
6436.50332 1.32616e-17
6438.00096 1.26018e-17
6439.49860 1.25351e-17
6440.99623 1.22011e-17
6442.50406 1.26915e-17
6444.00169 1.24872e-17
6445.49933 1.24851e-17
6446.99696 1.31739e-17
6448.50479 1.28143e-17
6450.00242 1.17692e-17
6451.50006 1.15611e-17
6452.99770 1.19351e-17
6454.49533 1.32071e-17
6456.00316 1.38168e-17
6457.50079 1.32770e-17
6458.99843 1.38161e-17
6460.49606 1.39700e-17
6462.00389 1.31713e-17
6463.50152 1.34752e-17
6464.99916 1.30812e-17
6466.49680 1.01993e-17
6468.00462 1.02904e-17
6469.50226 1.29404e-17
6470.99989 1.34210e-17
6472.49753 1.26306e-17
6473.99516 1.35163e-17
6475.50299 1.37163e-17
6477.00062 1.26462e-17
6478.49826 1.35924e-17
6479.99590 1.44455e-17
6481.50372 1.43439e-17
6483.00136 1.36980e-17
6484.49899 1.27588e-17
6485.99663 1.24173e-17
6487.50445 1.30000e-17
6489.00209 1.32397e-17
6490.49972 1.26799e-17
6491.99736 1.27591e-17
6493.49500 1.36288e-17
6495.00282 1.40029e-17
6496.50046 1.35409e-17
6497.99809 1.22253e-17
6499.49573 1.23757e-17
6501.00355 1.38342e-17
6502.50119 1.44262e-17
6503.99882 1.48734e-17
6505.49646 1.35430e-17
6507.00428 1.30111e-17
6508.50192 1.32893e-17
6509.99956 1.31928e-17
6511.49719 1.37043e-17
6512.99483 1.36956e-17
6514.50265 1.36813e-17
6516.00029 1.39703e-17
6517.49792 1.33274e-17
6518.99556 1.23152e-17
6520.50338 1.20989e-17
6522.00102 1.29250e-17
6523.49866 1.30185e-17
6524.99629 1.32748e-17
6526.50412 1.28013e-17
6528.00175 1.23510e-17
6529.49939 1.29006e-17
6530.99702 1.28078e-17
6532.50485 1.28567e-17
6534.00248 1.41514e-17
6535.50012 1.39042e-17
6536.99776 1.22788e-17
6538.49539 1.19770e-17
6540.00322 1.42678e-17
6541.50085 1.41996e-17
6542.99849 1.51800e-17
6544.49612 1.37100e-17
6546.00395 1.25610e-17
6547.50158 1.36058e-17
6548.99922 1.41722e-17
6550.49686 1.47622e-17
6552.00468 1.33401e-17
6553.50232 1.20942e-17
6554.99995 1.24699e-17
6556.49759 1.28314e-17
6557.99522 1.19926e-17
6559.50305 1.40109e-17
6561.00068 1.27722e-17
6562.49832 1.28711e-17
6563.99596 1.40707e-17
6565.50378 1.32108e-17
6567.00142 1.22578e-17
6568.49905 1.26104e-17
6569.99669 1.22912e-17
6571.50451 1.27509e-17
6573.00215 1.23365e-17
6574.49978 1.15282e-17
6575.99742 1.14513e-17
6577.49506 1.29492e-17
6579.00288 1.43849e-17
6580.50052 1.25447e-17
6581.99815 1.09816e-17
6583.49579 1.09440e-17
6585.00361 1.19423e-17
6586.50125 1.28375e-17
6587.99888 1.27460e-17
6589.49652 1.26361e-17
6591.00434 1.17477e-17
6592.50198 1.12227e-17
6593.99962 1.22762e-17
6595.49725 1.19261e-17
6596.99489 1.20066e-17
6598.50271 1.24686e-17
6600.00035 1.23891e-17
6601.49798 1.25169e-17
6602.99562 1.26399e-17
6604.50344 1.14536e-17
6606.00108 1.16329e-17
6607.49872 1.24064e-17
6608.99635 1.17480e-17
6610.50418 1.23497e-17
6612.00181 1.14602e-17
6613.49945 1.14093e-17
6614.99708 1.10598e-17
6616.50491 1.15527e-17
6618.00254 1.24502e-17
6619.50018 1.15698e-17
6620.99782 9.76541e-18
6622.49545 1.16223e-17
6624.00328 1.20681e-17
6625.50091 1.00762e-17
6626.99855 1.22674e-17
6628.49618 1.16333e-17
6630.00401 9.89636e-18
6631.50164 1.16600e-17
6632.99928 1.21318e-17
6634.49692 1.10225e-17
6636.00474 1.06631e-17
6637.50238 1.00907e-17
6639.00001 1.11124e-17
6640.49765 1.15277e-17
6641.99528 1.00611e-17
6643.50311 9.92296e-18
6645.00074 1.10981e-17
6646.49838 1.06933e-17
6647.99602 1.02602e-17
6649.50384 1.04103e-17
6651.00148 1.08401e-17
6652.49911 1.06687e-17
6653.99675 1.06067e-17
6655.50457 1.05446e-17
6657.00221 1.04826e-17
6658.49984 1.04206e-17
6659.99748 1.03586e-17
6661.49512 1.02966e-17
6663.00294 1.02347e-17
6664.50058 1.01727e-17
6665.99821 1.01107e-17
6667.49585 1.00487e-17
6669.00367 9.98674e-18
6670.50131 9.92475e-18
6671.99894 9.86279e-18
6673.49658 9.80082e-18
6675.00440 9.73884e-18
6676.50204 9.67689e-18
6677.99968 9.61494e-18
6679.49731 9.55297e-18
6680.99495 9.49102e-18
6682.50277 9.42908e-18
6684.00041 9.36712e-18
6685.49804 9.30518e-18
6686.99568 9.24325e-18
6688.50350 9.18130e-18
6690.00114 9.11937e-18
6691.49878 9.10158e-18
6692.99641 9.08378e-18
6694.50424 9.06599e-18
6696.00187 9.04819e-18
6697.49951 9.03040e-18
6698.99714 9.01260e-18
6700.49478 8.99481e-18
6702.00260 8.97702e-18
6703.50024 8.95923e-18
6704.99788 8.94144e-18
6706.49551 8.92366e-18
6708.00334 8.90587e-18
6709.50097 8.88808e-18
6710.99861 8.87030e-18
6712.49624 8.85251e-18
6714.00407 8.83473e-18
6715.50170 8.81694e-18
6716.99934 8.79917e-18
6718.49698 8.78138e-18
6720.00480 8.76360e-18
6721.50244 8.74582e-18
6723.00007 8.72804e-18
6724.49771 8.71027e-18
6725.99534 8.69249e-18
6727.50317 9.18544e-18
6729.00080 9.91424e-18
6730.49844 9.82316e-18
6731.99608 9.56178e-18
6733.50390 9.31253e-18
6735.00154 9.05581e-18
6736.49917 9.79380e-18
6737.99681 1.00118e-17
6739.50463 9.49146e-18
6741.00227 8.33953e-18
6742.49990 9.29881e-18
6743.99754 1.00548e-17
6745.49518 9.68875e-18
6747.00300 8.83639e-18
6748.50064 8.76528e-18
6749.99827 9.09078e-18
6751.49591 9.37647e-18
6753.00373 9.51246e-18
6754.50137 8.49715e-18
6755.99900 8.69533e-18
6757.49664 9.26721e-18
6759.00446 9.36881e-18
6760.50210 8.96501e-18
6761.99974 7.45620e-18
6763.49737 9.32299e-18
6764.99501 9.34014e-18
6766.50283 8.80291e-18
6768.00047 8.58555e-18
6769.49810 9.29300e-18
6770.99574 8.65229e-18
6772.50356 8.31576e-18
6774.00120 8.54199e-18
6775.49884 8.16591e-18
6776.99647 8.91825e-18
6778.50430 7.37047e-18
6780.00193 7.82953e-18
6781.49957 1.03344e-17
6782.99720 1.00923e-17
6784.50503 8.57067e-18
6786.00266 8.51458e-18
6787.50030 8.24308e-18
6788.99794 8.60578e-18
6790.49557 8.85788e-18
6792.00340 7.78590e-18
6793.50103 8.03655e-18
6794.99867 7.48648e-18
6796.49630 6.44994e-18
6798.00413 7.94293e-18
6799.50176 9.22332e-18
6800.99940 9.67316e-18
6802.49704 9.23154e-18
6804.00486 8.95483e-18
6805.50250 9.56225e-18
6807.00013 7.65556e-18
6808.49777 7.13435e-18
6809.99540 8.13187e-18
6811.50323 9.40496e-18
6813.00086 9.14357e-18
6814.49850 6.92439e-18
6815.99614 6.58169e-18
6817.50396 7.25819e-18
6819.00160 8.45724e-18
6820.49923 6.47725e-18
6821.99687 7.66009e-18
6823.50469 9.45141e-18
6825.00233 9.42593e-18
6826.49996 9.40044e-18
6827.99760 9.37494e-18
6829.49524 9.34946e-18
6831.00306 9.32397e-18
6832.50070 9.29849e-18
6833.99833 9.27300e-18
6835.49597 9.24752e-18
6837.00379 9.22204e-18
6838.50143 9.19656e-18
6839.99906 9.08692e-18
6841.49670 8.97728e-18
6843.00452 8.86762e-18
6844.50216 8.75799e-18
6845.99980 8.64838e-18
6847.49743 8.53873e-18
6848.99507 8.42912e-18
6850.50289 8.31952e-18
6852.00053 8.20989e-18
6853.49816 8.10030e-18
6854.99580 7.99071e-18
6856.50362 7.88113e-18
6858.00126 7.77152e-18
6859.49890 7.66196e-18
6860.99653 7.55239e-18
6862.50436 7.44280e-18
6864.00199 7.33325e-18
6865.49963 7.22370e-18
6866.99726 7.11413e-18
6868.49490 7.00459e-18
6870.00272 6.89506e-18
6871.50036 6.78550e-18
6872.99800 6.67598e-18
6874.49563 6.56647e-18
6876.00346 6.45693e-18
6877.50109 7.23970e-18
6878.99873 6.80934e-18
6880.49636 7.33911e-18
6882.00419 8.15915e-18
6883.50182 6.94386e-18
6884.99946 6.76768e-18
6886.49710 6.38399e-18
6888.00492 6.30460e-18
6889.50256 6.89555e-18
6891.00019 8.18488e-18
6892.49783 8.03066e-18
6893.99546 7.55532e-18
6895.50329 8.30762e-18
6897.00092 7.98782e-18
6898.49856 6.92571e-18
6899.99620 7.38688e-18
6901.50402 7.70582e-18
6903.00166 7.08151e-18
6904.49929 6.56039e-18
6905.99693 6.01535e-18
6907.50475 7.23437e-18
6909.00239 8.86111e-18
6910.50002 7.80393e-18
6911.99766 6.96658e-18
6913.49530 6.85579e-18
6915.00312 6.50638e-18
6916.50076 6.36581e-18
6917.99839 6.33262e-18
6919.49603 6.75430e-18
6921.00385 6.68079e-18
6922.50149 7.00590e-18
6923.99912 8.59382e-18
6925.49676 8.29713e-18
6927.00458 7.01523e-18
6928.50222 7.98703e-18
6929.99986 8.32680e-18
6931.49749 6.51607e-18
6932.99513 5.42536e-18
6934.50295 6.39783e-18
6936.00059 8.40793e-18
6937.49822 9.00230e-18
6938.99586 7.64442e-18
6940.50368 6.95081e-18
6942.00132 6.82477e-18
6943.49896 7.05734e-18
6944.99659 7.46073e-18
6946.50442 7.55269e-18
6948.00205 7.62719e-18
6949.49969 6.75926e-18
6950.99732 6.68213e-18
6952.49496 7.55900e-18
6954.00278 7.33356e-18
6955.50042 7.33046e-18
6956.99806 6.96289e-18
6958.49569 7.31574e-18
6960.00352 7.48519e-18
6961.50115 6.50857e-18
6962.99879 5.36719e-18
6964.49642 5.73445e-18
6966.00425 6.74389e-18
6967.50188 8.40019e-18
6968.99952 8.29825e-18
6970.49716 7.76119e-18
6972.00498 7.73330e-18
6973.50262 7.70586e-18
6975.00025 7.85011e-18
6976.49789 7.77481e-18
6977.99552 7.68972e-18
6979.50335 8.11845e-18
6981.00098 8.07324e-18
6982.49862 8.51415e-18
6983.99626 8.12687e-18
6985.50408 7.68317e-18
6987.00172 7.20107e-18
6988.49935 7.08877e-18
6989.99699 6.66093e-18
6991.50481 7.40906e-18
6993.00245 8.02021e-18
6994.50008 7.87239e-18
6995.99772 8.12204e-18
6997.49536 8.02306e-18
6999.00318 8.27144e-18
7000.50082 8.19186e-18
7001.99845 7.70153e-18
7003.49609 8.85739e-18
7005.00391 9.79786e-18
7006.50155 8.91885e-18
7007.99918 8.57329e-18
7009.49682 8.53017e-18
7011.00464 9.54738e-18
7012.50228 1.01208e-17
7013.99992 9.08548e-18
7015.49755 8.27889e-18
7016.99519 8.41038e-18
7018.50301 8.27429e-18
7020.00065 8.01990e-18
7021.49828 8.91320e-18
7022.99592 9.56613e-18
7024.50374 8.12722e-18
7026.00138 8.48544e-18
7027.49902 8.71176e-18
7028.99665 9.15135e-18
7030.50448 8.79170e-18
7032.00211 8.36236e-18
7033.49975 8.63653e-18
7034.99738 8.87217e-18
7036.49502 9.07622e-18
7038.00284 8.18583e-18
7039.50048 8.61360e-18
7040.99812 9.25692e-18
7042.49575 7.84619e-18
7044.00358 8.85760e-18
7045.50121 8.35657e-18
7046.99885 8.61666e-18
7048.49648 8.33018e-18
7050.00431 7.94960e-18
7051.50194 6.62384e-18
7052.99958 8.44462e-18
7054.49722 8.94828e-18
7055.99485 7.82739e-18
7057.50268 7.80944e-18
7059.00031 7.64279e-18
7060.49795 8.58580e-18
7061.99558 8.94858e-18
7063.50341 8.76783e-18
7065.00104 9.46156e-18
7066.49868 1.01205e-17
7067.99632 8.72757e-18
7069.50414 8.07668e-18
7071.00178 8.17492e-18
7072.49941 8.50072e-18
7073.99705 7.72562e-18
7075.50487 7.81427e-18
7077.00251 7.62879e-18
7078.50014 6.88476e-18
7079.99778 7.63477e-18
7081.49542 8.06074e-18
7083.00324 7.55721e-18
7084.50088 7.78718e-18
7085.99851 7.95625e-18
7087.49615 7.50223e-18
7089.00397 5.95648e-18
7090.50161 6.34923e-18
7091.99924 7.78964e-18
7093.49688 8.04720e-18
7095.00470 8.60761e-18
7096.50234 8.13572e-18
7097.99998 9.09230e-18
7099.49761 8.19604e-18
7100.99525 8.54874e-18
7102.50307 7.87267e-18
7104.00071 7.27283e-18
7105.49834 6.51692e-18
7106.99598 6.94373e-18
7108.50380 7.87197e-18
7110.00144 8.10720e-18
7111.49908 8.52353e-18
7112.99671 8.09492e-18
7114.50454 8.19819e-18
7116.00217 9.05836e-18
7117.49981 7.79438e-18
7118.99744 8.00459e-18
7120.49508 7.67675e-18
7122.00290 8.15563e-18
7123.50054 8.90705e-18
7124.99818 8.31680e-18
7126.49581 8.04169e-18
7128.00364 8.26321e-18
7129.50127 8.58175e-18
7130.99891 8.84587e-18
7132.49654 8.36696e-18
7134.00437 8.44346e-18
7135.50200 8.74002e-18
7136.99964 9.49107e-18
7138.49728 8.96933e-18
7139.99491 8.39927e-18
7141.50274 7.50999e-18
7143.00037 7.30740e-18
7144.49801 8.53034e-18
7145.99564 7.69060e-18
7147.50347 6.75327e-18
7149.00110 7.19243e-18
7150.49874 6.57494e-18
7151.99638 6.41785e-18
7153.50420 7.61579e-18
7155.00184 8.62682e-18
7156.49947 8.62218e-18
7157.99711 7.59483e-18
7159.50493 7.85374e-18
7161.00257 8.17047e-18
7162.50020 7.36274e-18
7163.99784 7.12570e-18
7165.49548 8.14419e-18
7167.00330 8.12205e-18
7168.50094 7.36625e-18
7169.99857 7.69895e-18
7171.49621 8.91336e-18
7173.00403 8.06449e-18
7174.50167 8.74652e-18
7175.99930 8.15062e-18
7177.49694 7.23853e-18
7179.00476 8.63553e-18
7180.50240 9.71026e-18
7182.00004 9.90741e-18
7183.49767 8.25737e-18
7184.99531 8.18453e-18
7186.50313 9.13226e-18
7188.00077 8.54630e-18
7189.49840 8.39354e-18
7190.99604 8.41926e-18
7192.50386 8.97089e-18
7194.00150 9.11046e-18
7195.49914 8.51362e-18
7196.99677 9.70473e-18
7198.50460 9.49082e-18
7200.00223 8.54757e-18
7201.49987 8.81961e-18
7202.99750 8.47056e-18
7204.49514 8.06700e-18
7206.00296 7.96598e-18
7207.50060 8.87313e-18
7208.99824 8.79187e-18
7210.49587 9.05366e-18
7212.00370 1.07566e-17
7213.50133 1.07579e-17
7214.99897 9.68999e-18
7216.49660 9.29146e-18
7218.00443 9.80800e-18
7219.50206 1.00362e-17
7220.99970 9.31155e-18
7222.49734 8.37422e-18
7223.99497 8.15938e-18
7225.50280 8.55447e-18
7227.00043 9.20608e-18
7228.49807 1.06240e-17
7229.99570 1.11764e-17
7231.50353 1.11633e-17
7233.00116 1.03626e-17
7234.49880 1.08683e-17
7235.99644 1.21767e-17
7237.50426 1.19453e-17
7239.00190 9.96285e-18
7240.49953 7.81588e-18
7241.99717 9.92866e-18
7243.49480 1.03959e-17
7245.00263 9.32022e-18
7246.50026 1.04445e-17
7247.99790 9.31117e-18
7249.49554 1.00872e-17
7251.00336 9.97028e-18
7252.50100 8.76740e-18
7253.99863 9.35244e-18
7255.49627 9.67389e-18
7257.00409 1.13482e-17
7258.50173 1.06406e-17
7259.99936 1.05962e-17
7261.49700 1.05675e-17
7263.00482 9.78537e-18
7264.50246 9.86284e-18
7266.00010 1.10865e-17
7267.49773 1.15395e-17
7268.99537 1.19738e-17
7270.50319 1.21221e-17
7272.00083 1.19981e-17
7273.49846 1.09826e-17
7274.99610 9.91513e-18
7276.50392 9.38189e-18
7278.00156 9.16992e-18
7279.49920 9.91477e-18
7280.99683 9.50940e-18
7282.50466 1.00056e-17
7284.00229 1.12316e-17
7285.49993 1.18895e-17
7286.99756 1.06956e-17
7288.49520 9.74148e-18
7290.00302 9.68860e-18
7291.50066 1.05156e-17
7292.99830 1.14121e-17
7294.49593 1.10009e-17
7296.00376 1.03884e-17
7297.50139 1.06131e-17
7298.99903 1.10030e-17
7300.49666 1.12230e-17
7302.00449 9.87400e-18
7303.50212 1.10525e-17
7304.99976 1.13849e-17
7306.49740 1.10317e-17
7307.99503 1.14597e-17
7309.50286 1.19049e-17
7311.00049 1.07064e-17
7312.49813 1.01723e-17
7313.99576 1.06125e-17
7315.50359 9.53957e-18
7317.00122 1.02375e-17
7318.49886 1.09243e-17
7319.99650 1.06491e-17
7321.50432 1.07372e-17
7323.00196 1.00642e-17
7324.49959 1.02138e-17
7325.99723 1.00845e-17
7327.49486 1.14488e-17
7329.00269 1.11277e-17
7330.50032 1.09339e-17
7331.99796 9.63233e-18
7333.49560 9.84609e-18
7335.00342 1.08625e-17
7336.50106 1.11289e-17
7337.99869 1.14016e-17
7339.49633 1.13139e-17
7341.00415 1.11156e-17
7342.50179 1.05438e-17
7343.99942 1.07782e-17
7345.49706 1.01451e-17
7347.00488 1.13599e-17
7348.50252 1.31101e-17
7350.00016 1.20357e-17
7351.49779 1.12078e-17
7352.99543 1.10903e-17
7354.50325 1.10089e-17
7356.00089 1.10875e-17
7357.49852 1.23327e-17
7358.99616 1.09433e-17
7360.50398 1.13685e-17
7362.00162 1.32567e-17
7363.49926 1.07503e-17
7364.99689 8.82794e-18
7366.50472 1.08577e-17
7368.00235 1.19171e-17
7369.49999 1.05885e-17
7370.99762 9.88032e-18
7372.49526 9.19953e-18
7374.00308 9.70628e-18
7375.50072 1.15306e-17
7376.99836 1.24948e-17
7378.49599 1.07328e-17
7380.00382 1.00502e-17
7381.50145 1.04185e-17
7382.99909 1.15135e-17
7384.49672 1.05237e-17
7386.00455 1.02811e-17
7387.50218 8.63467e-18
7388.99982 1.07940e-17
7390.49746 1.05349e-17
7391.99509 1.03081e-17
7393.50292 9.07415e-18
7395.00055 1.07096e-17
7396.49819 1.01174e-17
7397.99582 9.83486e-18
7399.50365 1.05032e-17
7401.00128 1.03206e-17
7402.49892 9.46270e-18
7403.99656 9.98523e-18
7405.50438 1.01308e-17
7407.00202 1.07539e-17
7408.49965 9.25434e-18
7409.99729 9.15773e-18
7411.49492 1.04076e-17
7413.00275 9.75683e-18
7414.50038 9.84995e-18
7415.99802 1.00934e-17
7417.49566 1.00748e-17
7419.00348 9.42246e-18
7420.50112 9.27645e-18
7421.99875 1.05794e-17
7423.49639 1.11831e-17
7425.00421 1.14567e-17
7426.50185 1.12285e-17
7427.99948 1.04970e-17
7429.49712 9.68445e-18
7431.00494 9.03939e-18
7432.50258 1.08542e-17
7434.00022 1.07683e-17
7435.49785 1.13443e-17
7436.99549 1.04276e-17
7438.50331 9.07256e-18
7440.00095 1.02312e-17
7441.49858 1.10423e-17
7442.99622 1.21774e-17
7444.50404 9.76309e-18
7446.00168 8.28646e-18
7447.49932 9.76575e-18
7448.99695 1.10595e-17
7450.50478 1.17248e-17
7452.00241 1.09159e-17
7453.50005 1.14548e-17
7454.99768 1.24635e-17
7456.49532 1.17565e-17
7458.00314 1.07961e-17
7459.50078 1.01309e-17
7460.99842 1.00240e-17
7462.49605 1.11471e-17
7464.00388 1.01572e-17
7465.50151 1.09721e-17
7466.99915 1.24199e-17
7468.49678 9.43619e-18
7470.00461 1.05627e-17
7471.50224 1.19441e-17
7472.99988 1.23414e-17
7474.49752 9.82930e-18
7475.99515 1.04558e-17
7477.50298 1.07718e-17
7479.00061 1.00943e-17
7480.49825 1.07680e-17
7481.99588 1.17215e-17
7482.18813 1.17215e-17
7483.04960 1.17120e-17
7483.91106 1.16988e-17
7484.77252 1.16855e-17
7485.63398 1.16738e-17
7486.49544 1.16620e-17
7487.35690 1.16525e-17
7488.21837 1.16430e-17
7489.08985 1.16320e-17
7489.95131 1.16212e-17
7490.81277 1.16075e-17
7491.67423 1.15939e-17
7492.53569 1.15794e-17
7493.39716 1.15649e-17
7494.25862 1.15507e-17
7495.12008 1.15366e-17
7495.98154 1.15231e-17
7496.84300 1.15097e-17
7497.70447 1.14967e-17
7498.57595 1.14838e-17
7499.43741 1.14691e-17
7500.29887 1.14544e-17
7501.16033 1.14364e-17
7502.02179 1.14183e-17
7502.88325 1.13989e-17
7503.74472 1.13795e-17
7504.60618 1.13606e-17
7505.46764 1.13417e-17
7506.32910 1.13183e-17
7507.19056 1.12948e-17
7508.06204 1.12618e-17
7508.92351 1.12288e-17
7509.78497 1.11870e-17
7510.64643 1.11451e-17
7511.50789 1.10965e-17
7512.36935 1.10480e-17
7513.23082 1.10023e-17
7514.09228 1.09565e-17
7514.95374 1.09262e-17
7515.81520 1.08959e-17
7516.67666 1.08766e-17
7517.54814 1.08572e-17
7518.40960 1.08342e-17
7519.27107 1.08112e-17
7520.13253 1.07787e-17
7520.99399 1.07463e-17
7521.85545 1.07055e-17
7522.71691 1.06648e-17
7523.57838 1.06190e-17
7524.43984 1.05732e-17
7525.30130 1.05290e-17
7526.16276 1.04847e-17
7527.02423 1.04448e-17
7527.89570 1.04048e-17
7528.75717 1.03635e-17
7529.61863 1.03223e-17
7530.48009 1.02761e-17
7531.34155 1.02299e-17
7532.20301 1.01798e-17
7533.06448 1.01299e-17
7533.92594 1.00765e-17
7534.78740 1.00231e-17
7535.64886 9.96256e-18
7536.52034 9.90207e-18
7537.38180 9.83263e-18
7538.24327 9.76318e-18
7539.10473 9.69300e-18
7539.96619 9.62282e-18
7540.82765 9.56039e-18
7541.68911 9.49795e-18
7542.55058 9.44391e-18
7543.41204 9.38987e-18
7544.27350 9.34284e-18
7545.13496 9.29581e-18
7545.99642 9.24850e-18
7546.86790 9.20114e-18
7547.72936 9.14435e-18
7548.59083 9.08754e-18
7549.45229 9.02124e-18
7550.31375 8.95493e-18
7551.17521 8.88369e-18
7552.03667 8.81245e-18
7552.89814 8.74127e-18
7553.75960 8.67010e-18
7554.62106 8.60447e-18
7555.48252 8.53885e-18
7556.35400 8.47997e-18
7557.21546 8.42110e-18
7558.07693 8.36535e-18
7558.93839 8.30961e-18
7559.79985 8.25392e-18
7560.66131 8.19823e-18
7561.52277 8.14105e-18
7562.38424 8.08387e-18
7563.24570 8.02270e-18
7564.10716 7.96152e-18
7564.96862 7.89087e-18
7565.84010 7.82020e-18
7566.70156 7.74002e-18
7567.56302 7.65982e-18
7568.42449 7.58548e-18
7569.28595 7.51116e-18
7570.14741 7.45547e-18
7571.00887 7.39982e-18
7571.87033 7.36467e-18
7572.73180 7.32955e-18
7573.59326 7.31285e-18
7574.45472 7.29619e-18
7575.31618 7.27468e-18
7576.18766 7.25316e-18
7577.04912 7.20129e-18
7577.91059 7.14937e-18
7578.77205 7.08110e-18
7579.63351 7.01282e-18
7580.49497 6.95052e-18
7581.35643 6.88823e-18
7582.21790 6.82834e-18
7583.07936 6.76847e-18
7583.94082 6.70060e-18
7584.81230 6.63272e-18
7585.67376 6.51926e-18
7586.53522 6.40569e-18
7587.39668 6.19445e-18
7588.25815 5.98302e-18
7589.11961 5.68431e-18
7589.98107 5.38544e-18
7590.84253 5.06155e-18
7591.70399 4.73762e-18
7592.56546 4.44785e-18
7593.42692 4.15814e-18
7594.28838 3.95802e-18
7595.15986 3.75809e-18
7596.02132 3.67535e-18
7596.88278 3.59284e-18
7597.74425 3.60066e-18
7598.60571 3.60866e-18
7599.46717 3.68766e-18
7600.32863 3.76679e-18
7601.19009 3.93165e-18
7602.05156 4.09666e-18
7602.91302 4.34777e-18
7603.77448 4.59903e-18
7604.64596 4.90392e-18
7605.50742 5.20891e-18
7606.36888 5.52882e-18
7607.23034 5.84874e-18
7608.09181 6.14426e-18
7608.95327 6.43971e-18
7609.81473 6.67145e-18
7610.67619 6.90304e-18
7611.53765 7.01589e-18
7612.39912 7.12847e-18
7613.26058 7.07809e-18
7614.13206 7.02739e-18
7614.99352 6.81621e-18
7615.85498 6.60472e-18
7616.71644 6.25767e-18
7617.57791 5.91036e-18
7618.43937 5.53106e-18
7619.30083 5.15172e-18
7620.16229 4.87980e-18
7621.02375 4.60812e-18
7621.88522 4.49643e-18
7622.74668 4.38507e-18
7623.61816 4.42253e-18
7624.47962 4.46029e-18
7625.34108 4.59894e-18
7626.20254 4.73780e-18
7627.06400 4.88955e-18
7627.92547 5.04132e-18
7628.78693 5.15719e-18
7629.64839 5.27297e-18
7630.50985 5.37146e-18
7631.37131 5.46991e-18
7632.23278 5.56304e-18
7633.10426 5.65616e-18
7633.96572 5.74345e-18
7634.82718 5.83074e-18
7635.68864 5.91221e-18
7636.55010 5.99367e-18
7637.41157 6.05327e-18
7638.27303 6.11283e-18
7639.13449 6.14245e-18
7639.99595 6.17202e-18
7640.85741 6.19983e-18
7641.71888 6.22763e-18
7642.59035 6.28156e-18
7643.45182 6.33551e-18
7644.31328 6.42746e-18
7645.17474 6.51947e-18
7646.03620 6.65450e-18
7646.89766 6.78961e-18
7647.75913 6.93130e-18
7648.62059 7.07299e-18
7649.48205 7.17538e-18
7650.34351 7.27769e-18
7651.20497 7.33101e-18
7652.06644 7.38424e-18
7652.93792 7.39360e-18
7653.79938 7.40285e-18
7654.66084 7.40347e-18
7655.52230 7.40408e-18
7656.38376 7.45039e-18
7657.24523 7.49680e-18
7658.10669 7.59760e-18
7658.96815 7.69851e-18
7659.82961 7.82391e-18
7660.69107 7.94936e-18
7661.55254 8.07398e-18
7662.42401 8.19859e-18
7663.28548 8.29939e-18
7664.14694 8.40015e-18
7665.00840 8.47577e-18
7665.86986 8.55135e-18
7666.73132 8.64545e-18
7667.59279 8.73959e-18
7668.45425 8.87245e-18
7669.31571 9.00536e-18
7670.17717 9.13556e-18
7671.03863 9.26574e-18
7671.91011 9.35990e-18
7672.77158 9.45396e-18
7673.63304 9.50598e-18
7674.49450 9.55781e-18
7675.35596 9.56998e-18
7676.21742 9.58206e-18
7677.07889 9.60364e-18
7677.94035 9.62513e-18
7678.80181 9.70527e-18
7679.66327 9.78559e-18
7680.52473 9.89534e-18
7681.38620 1.00051e-17
7682.25767 1.00985e-17
7683.11914 1.01920e-17
7683.98060 1.02690e-17
7684.84206 1.03460e-17
7685.70352 1.04195e-17
7686.56498 1.04930e-17
7687.42645 1.05661e-17
7688.28791 1.06390e-17
7689.14937 1.07126e-17
7690.01083 1.07862e-17
7690.88231 1.08533e-17
7691.74377 1.09205e-17
7692.60524 1.09669e-17
7693.46670 1.10135e-17
7694.32816 1.10428e-17
7695.18962 1.10722e-17
7696.05108 1.11060e-17
7696.91255 1.11399e-17
7697.77401 1.11864e-17
7698.63547 1.12329e-17
7699.49693 1.12811e-17
7700.35839 1.13293e-17
7701.22987 1.13700e-17
7702.09133 1.14106e-17
7702.95280 1.14383e-17
7703.81426 1.14658e-17
7704.67572 1.14766e-17
7705.53718 1.14872e-17
7706.39864 1.14818e-17
7707.26011 1.14764e-17
7708.12157 1.14597e-17
7708.98303 1.14430e-17
7709.84449 1.14343e-17
7710.71597 1.14257e-17
7711.57743 1.14424e-17
7712.43890 1.14592e-17
7713.30036 1.14971e-17
7714.16182 1.15351e-17
7715.02328 1.15848e-17
7715.88474 1.16345e-17
7716.74620 1.16807e-17
7717.60767 1.17270e-17
7718.46913 1.17532e-17
7719.33059 1.17795e-17
7720.20207 1.17846e-17
7721.06353 1.17897e-17
7721.92499 1.17796e-17
7722.78646 1.17695e-17
7723.64792 1.17547e-17
7724.50938 1.17399e-17
7725.37084 1.17340e-17
7726.23230 1.17281e-17
7727.09377 1.17358e-17
7727.95523 1.17435e-17
7728.81669 1.17601e-17
7729.67815 1.17768e-17
7730.54963 1.18015e-17
7731.41109 1.18262e-17
7732.27255 1.18640e-17
7733.13402 1.19017e-17
7733.99548 1.19466e-17
7734.85694 1.19914e-17
7735.71840 1.20192e-17
7736.57986 1.20469e-17
7737.44133 1.20436e-17
7738.30279 1.20404e-17
7739.17427 1.20161e-17
7740.03573 1.19919e-17
7740.89719 1.19595e-17
7741.75865 1.19272e-17
7742.62012 1.19059e-17
7743.48158 1.18847e-17
7744.34304 1.18904e-17
7745.20450 1.18960e-17
7746.06596 1.19178e-17
7746.92743 1.19397e-17
7747.78889 1.19631e-17
7748.65035 1.19865e-17
7749.52183 1.20064e-17
7750.38329 1.20261e-17
7751.24475 1.20385e-17
7752.10621 1.20508e-17
7752.96768 1.20558e-17
7753.82914 1.20607e-17
7754.69060 1.20610e-17
7755.55206 1.20612e-17
7756.41352 1.20534e-17
7757.27499 1.20456e-17
7758.13645 1.20232e-17
7759.00793 1.20010e-17
7759.86939 1.19707e-17
7760.73085 1.19402e-17
7761.59231 1.19171e-17
7762.45378 1.18940e-17
7763.31524 1.18817e-17
7764.17670 1.18693e-17
7765.03816 1.18599e-17
7765.89962 1.18505e-17
7766.76109 1.18378e-17
7767.62255 1.18251e-17
7768.49403 1.18044e-17
7769.35549 1.17837e-17
7770.21695 1.17547e-17
7771.07841 1.17256e-17
7771.93988 1.16982e-17
7772.80134 1.16708e-17
7773.66280 1.16521e-17
7774.52426 1.16335e-17
7775.38572 1.16199e-17
7776.24719 1.16063e-17
7777.10865 1.15947e-17
7777.98013 1.15832e-17
7778.84159 1.15753e-17
7779.70305 1.15675e-17
7780.56451 1.15650e-17
7781.42597 1.15625e-17
7782.28744 1.15649e-17
7783.14890 1.15673e-17
7784.01036 1.15736e-17
7784.87182 1.15798e-17
7785.73328 1.15892e-17
7786.59475 1.15985e-17
7787.46623 1.16097e-17
7788.32769 1.16211e-17
7789.18915 1.16311e-17
7790.05061 1.16411e-17
7790.91207 1.16462e-17
7791.77354 1.16511e-17
7792.63500 1.16493e-17
7793.49646 1.16474e-17
7794.35792 1.16381e-17
7795.21938 1.16287e-17
7796.08085 1.16163e-17
7796.94231 1.16038e-17
7797.81379 1.15962e-17
7798.67525 1.15886e-17
7799.53671 1.15918e-17
7800.39817 1.15952e-17
7801.25963 1.16132e-17
7802.12110 1.16314e-17
7802.98256 1.16613e-17
7803.84402 1.16913e-17
7804.70548 1.17178e-17
7805.56694 1.17445e-17
7806.42841 1.17568e-17
7807.29989 1.17692e-17
7808.16135 1.17685e-17
7809.02281 1.17679e-17
7809.88427 1.17564e-17
7810.74573 1.17447e-17
7811.60720 1.17246e-17
7812.46866 1.17044e-17
7813.33012 1.16794e-17
7814.19158 1.16543e-17
7815.05304 1.16288e-17
7815.91450 1.16034e-17
7816.78598 1.15818e-17
7817.64745 1.15602e-17
7818.50891 1.15477e-17
7819.37037 1.15351e-17
7820.23183 1.15357e-17
7821.09329 1.15363e-17
7821.95476 1.15407e-17
7822.81622 1.15451e-17
7823.67768 1.15392e-17
7824.53914 1.15333e-17
7825.40060 1.15154e-17
7826.27208 1.14974e-17
7827.13355 1.14718e-17
7827.99501 1.14462e-17
7828.85647 1.14164e-17
7829.71793 1.13867e-17
7830.57939 1.13565e-17
7831.44085 1.13262e-17
7832.30232 1.12978e-17
7833.16378 1.12694e-17
7834.02524 1.12429e-17
7834.88670 1.12163e-17
7835.75818 1.11941e-17
7836.61964 1.11719e-17
7837.48111 1.11609e-17
7838.34257 1.11499e-17
7839.20403 1.11520e-17
7840.06549 1.11541e-17
7840.92695 1.11614e-17
7841.78842 1.11688e-17
7842.64988 1.11747e-17
7843.51134 1.11806e-17
7844.37280 1.11819e-17
7845.23426 1.11833e-17
7846.10574 1.11782e-17
7846.96720 1.11732e-17
7847.82867 1.11644e-17
7848.69013 1.11555e-17
7849.55159 1.11460e-17
7850.41305 1.11365e-17
7851.27452 1.11284e-17
7852.13598 1.11202e-17
7852.99744 1.11148e-17
7853.85890 1.11093e-17
7854.72036 1.11077e-17
7855.59184 1.11060e-17
7856.45330 1.11087e-17
7857.31477 1.11115e-17
7858.17623 1.11143e-17
7859.03769 1.11172e-17
7859.89915 1.11135e-17
7860.76061 1.11098e-17
7861.62208 1.11000e-17
7862.48354 1.10902e-17
7863.34500 1.10798e-17
7864.20646 1.10694e-17
7865.07794 1.10555e-17
7865.93940 1.10416e-17
7866.80087 1.10151e-17
7867.66233 1.09886e-17
7868.52379 1.09485e-17
7869.38525 1.09085e-17
7870.24671 1.08625e-17
7871.10818 1.08163e-17
7871.96964 1.07750e-17
7872.83110 1.07336e-17
7873.69256 1.07143e-17
7874.56404 1.06951e-17
7875.42550 1.07046e-17
7876.28696 1.07142e-17
7877.14843 1.07330e-17
7878.00989 1.07518e-17
7878.87135 1.07618e-17
7879.73281 1.07720e-17
7880.59427 1.07678e-17
7881.45574 1.07637e-17
7882.31720 1.07424e-17
7883.17866 1.07210e-17
7884.05014 1.06900e-17
7884.91160 1.06590e-17
7885.77306 1.06278e-17
7886.63453 1.05966e-17
7887.49599 1.05644e-17
7888.35745 1.05321e-17
7889.21891 1.04967e-17
7890.08037 1.04613e-17
7890.94184 1.04246e-17
7891.80330 1.03880e-17
7892.66476 1.03523e-17
7893.52622 1.03167e-17
7894.39770 1.02913e-17
7895.25916 1.02660e-17
7896.12062 1.02638e-17
7896.98209 1.02615e-17
7897.84355 1.02750e-17
7898.70501 1.02885e-17
7899.56647 1.02964e-17
7900.42793 1.03043e-17
7901.28940 1.02973e-17
7902.15086 1.02903e-17
7903.01232 1.02707e-17
7903.88380 1.02509e-17
7904.74526 1.02247e-17
7905.60672 1.01985e-17
7906.46819 1.01793e-17
7907.32965 1.01602e-17
7908.19111 1.01536e-17
7909.05257 1.01469e-17
7909.91403 1.01374e-17
7910.77550 1.01279e-17
7911.63696 1.01064e-17
7912.49842 1.00849e-17
7913.36990 1.00624e-17
7914.23136 1.00398e-17
7915.09282 1.00255e-17
7915.95428 1.00111e-17
7916.81575 1.00054e-17
7917.67721 9.99982e-18
7918.53867 1.00018e-17
7919.40013 1.00037e-17
7920.26159 9.99964e-18
7921.12306 9.99567e-18
7921.98452 9.97206e-18
7922.85600 9.94836e-18
7923.71746 9.91350e-18
7924.57892 9.87864e-18
7925.44038 9.84720e-18
7926.30185 9.81566e-18
7927.16331 9.79611e-18
7928.02477 9.77655e-18
7928.88623 9.77462e-18
7929.74769 9.77277e-18
7930.60916 9.78495e-18
7931.47062 9.79712e-18
7932.34210 9.81335e-18
7933.20356 9.82967e-18
7934.06502 9.84139e-18
7934.92648 9.85310e-18
7935.78794 9.85310e-18
7936.64941 9.85319e-18
7937.51087 9.83788e-18
7938.37233 9.82248e-18
7939.23379 9.79260e-18
7940.09525 9.76263e-18
7940.95672 9.72251e-18
7941.81818 9.68240e-18
7942.68966 9.64210e-18
7943.55112 9.60180e-18
7944.41258 9.56915e-18
7945.27404 9.53650e-18
7946.13551 9.51289e-18
7946.99697 9.48929e-18
7947.85843 9.47462e-18
7948.71989 9.45987e-18
7949.58135 9.45138e-18
7950.44282 9.44290e-18
7951.30428 9.43681e-18
7952.17576 9.43073e-18
7953.03722 9.41892e-18
7953.89868 9.40712e-18
7954.76014 9.38259e-18
7955.62160 9.35805e-18
7956.48307 9.33103e-18
7957.34453 9.30392e-18
7958.20599 9.28769e-18
7959.06745 9.27155e-18
7959.92891 9.26712e-18
7960.79038 9.26270e-18
7961.66186 9.26722e-18
7962.52332 9.27164e-18
7963.38478 9.27801e-18
7964.24624 9.28437e-18
7965.10770 9.28243e-18
7965.96917 9.28040e-18
7966.83063 9.27598e-18
7967.69209 9.27146e-18
7968.55355 9.28133e-18
7969.41501 9.29129e-18
7970.27648 9.31941e-18
7971.14795 9.34763e-18
7972.00942 9.38554e-18
7972.87088 9.42344e-18
7973.73234 9.45968e-18
7974.59380 9.49602e-18
7975.45526 9.51409e-18
7976.31673 9.53217e-18
7977.17819 9.52498e-18
7978.03965 9.51778e-18
7978.90111 9.49888e-18
7979.76257 9.47997e-18
7980.63405 9.46116e-18
7981.49552 9.44244e-18
7982.35698 9.42667e-18
7983.21844 9.41090e-18
7984.07990 9.40002e-18
7984.94136 9.38913e-18
7985.80283 9.37917e-18
7986.66429 9.36931e-18
7987.52575 9.35612e-18
7988.38721 9.34284e-18
7989.24867 9.32808e-18
7990.11014 9.31333e-18
7990.98161 9.29922e-18
7991.84308 9.28511e-18
7992.70454 9.27598e-18
7993.56600 9.26685e-18
7994.42746 9.26768e-18
7995.28892 9.26860e-18
7996.15039 9.26952e-18
7997.01185 9.27044e-18
7997.87331 9.25569e-18
7998.73477 9.24093e-18
7999.59623 9.21241e-18
8000.46771 9.18389e-18
8001.32917 9.15353e-18
8002.19064 9.12316e-18
8003.05210 9.09996e-18
8003.91356 9.07677e-18
8004.77502 9.06841e-18
8005.63649 9.06009e-18
8006.49795 9.06460e-18
8007.35941 9.06914e-18
8008.22087 9.07081e-18
8009.08233 9.07248e-18
8009.95381 9.06619e-18
8010.81527 9.05989e-18
8011.67674 9.06067e-18
8012.53820 9.06145e-18
8013.39966 9.07660e-18
8014.26112 9.09176e-18
8015.12258 9.11069e-18
8015.98405 9.12962e-18
8016.84551 9.14226e-18
8017.70697 9.15487e-18
8018.56843 9.15096e-18
8019.43991 9.14703e-18
8020.30137 9.12028e-18
8021.16284 9.09350e-18
8022.02430 9.06088e-18
8022.88576 9.02824e-18
8023.74722 9.00847e-18
8024.60868 8.98874e-18
8025.47015 8.98126e-18
8026.33161 8.97382e-18
8027.19307 8.97365e-18
8028.05453 8.97349e-18
8028.92601 8.97447e-18
8029.78747 8.97545e-18
8030.64893 8.97042e-18
8031.51040 8.96538e-18
8032.37186 8.95506e-18
8033.23332 8.94473e-18
8034.09478 8.93410e-18
8034.95624 8.92349e-18
8035.81771 8.91577e-18
8036.67917 8.90806e-18
8037.54063 8.90517e-18
8038.41211 8.90228e-18
8039.27357 8.90491e-18
8040.13503 8.90754e-18
8040.99650 8.91484e-18
8041.85796 8.92214e-18
8042.71942 8.93169e-18
8043.58088 8.94123e-18
8044.44234 8.94874e-18
8045.30380 8.95624e-18
8046.16527 8.95846e-18
8047.02673 8.96066e-18
8047.88819 8.95610e-18
8048.75967 8.95152e-18
8049.62113 8.94096e-18
8050.48259 8.93039e-18
8051.34406 8.92165e-18
8052.20552 8.91290e-18
8053.06698 8.91181e-18
8053.92844 8.91073e-18
8054.78990 8.91284e-18
8055.65137 8.91496e-18
8056.51283 8.91472e-18
8057.37429 8.91447e-18
8058.24577 8.90522e-18
8059.10723 8.89594e-18
8059.96869 8.87202e-18
8060.83015 8.84807e-18
8061.69162 8.81409e-18
8062.55308 8.78008e-18
8063.41454 8.74386e-18
8064.27600 8.70765e-18
8065.13746 8.67811e-18
8065.99893 8.64858e-18
8066.86039 8.63442e-18
8067.73187 8.62030e-18
8068.59333 8.62204e-18
8069.45479 8.62380e-18
8070.31625 8.63675e-18
8071.17772 8.64972e-18
8072.03918 8.66461e-18
8072.90064 8.67949e-18
8073.76210 8.68305e-18
8074.62356 8.68657e-18
8075.48503 8.67391e-18
8076.34649 8.66121e-18
8077.21797 8.63866e-18
8078.07943 8.61608e-18
8078.94089 8.58758e-18
8079.80235 8.55907e-18
8080.66381 8.52389e-18
8081.52528 8.48869e-18
8082.38674 8.44737e-18
8083.24820 8.40603e-18
8084.10966 8.36031e-18
8084.97113 8.31459e-18
8085.83259 8.26654e-18
8086.70407 8.21848e-18
8087.56553 8.17113e-18
8088.42699 8.12379e-18
8089.28845 8.08002e-18
8090.14991 8.03625e-18
8091.01138 7.99862e-18
8091.87284 7.96101e-18
8092.73430 7.93091e-18
8093.59576 7.90083e-18
8094.45722 7.87767e-18
8095.31869 7.85454e-18
8096.18015 7.83648e-18
8097.05163 7.81844e-18
8097.91309 7.79540e-18
8098.77455 7.77237e-18
8099.63601 7.73244e-18
8100.49748 7.69248e-18
8101.35894 7.63189e-18
8102.22040 7.57124e-18
8103.08186 7.49076e-18
8103.94332 7.41022e-18
8104.80479 7.31959e-18
8105.67626 7.22893e-18
8106.53773 7.14396e-18
8107.39919 7.05901e-18
8108.26065 6.98956e-18
8109.12211 6.92014e-18
8109.98357 6.86956e-18
8110.84504 6.81901e-18
8111.70650 6.78286e-18
8112.56796 6.74673e-18
8113.42942 6.70951e-18
8114.29088 6.67229e-18
8115.15235 6.62147e-18
8116.02383 6.57064e-18
8116.88529 6.50091e-18
8117.74675 6.43115e-18
8118.60821 6.34151e-18
8119.46967 6.25182e-18
8120.33114 6.15519e-18
8121.19260 6.05856e-18
8122.05406 5.96529e-18
8122.91552 5.87204e-18
8123.77698 5.77059e-18
8124.63845 5.66913e-18
8125.49991 5.54881e-18
8126.37139 5.42844e-18
8127.23285 5.29498e-18
8128.09431 5.16149e-18
8128.95577 5.02332e-18
8129.81723 4.88514e-18
8130.67870 4.75844e-18
8131.54016 4.63176e-18
8132.40162 4.53393e-18
8133.26308 4.43617e-18
8134.12454 4.35786e-18
8134.99602 4.27960e-18
8135.85749 4.19988e-18
8136.71895 4.12017e-18
8137.58041 4.03111e-18
8138.44187 3.94203e-18
8139.30333 3.84334e-18
8140.16480 3.74461e-18
8141.02626 3.63880e-18
8141.88772 3.53297e-18
8142.74918 3.42593e-18
8143.61064 3.31888e-18
8144.47210 3.21644e-18
8145.34358 3.11402e-18
8146.20505 3.02085e-18
8147.06651 2.92772e-18
8147.92797 2.84711e-18
8148.78943 2.76654e-18
8149.65089 2.69953e-18
8150.51236 2.63256e-18
8151.37382 2.57747e-18
8152.23528 2.52243e-18
8153.09674 2.47202e-18
8153.95820 2.42163e-18
8154.82968 2.37002e-18
8155.69115 2.31842e-18
8156.55261 2.26618e-18
8157.41407 2.21394e-18
8158.27553 2.16284e-18
8159.13699 2.11175e-18
8159.99845 2.06614e-18
8160.85992 2.02055e-18
8161.72138 1.98471e-18
8162.58284 1.94889e-18
8163.44430 1.92411e-18
8164.31578 1.89936e-18
8165.17724 1.88542e-18
8166.03871 1.87149e-18
8166.90017 1.86174e-18
8167.76163 1.85200e-18
8168.62309 1.83839e-18
8169.48455 1.82478e-18
8170.34602 1.80059e-18
8171.20748 1.77638e-18
8172.06894 1.73524e-18
8172.93040 1.69406e-18
8173.80188 1.64683e-18
8174.66334 1.59960e-18
8175.52481 1.56976e-18
8176.38627 1.53997e-18
8177.24773 1.53275e-18
8178.10919 1.52559e-18
8178.97065 1.52738e-18
8179.83212 1.52918e-18
8180.69358 1.52962e-18
8181.55504 1.53005e-18
8182.41650 1.52261e-18
8183.28798 1.51516e-18
8184.14944 1.49747e-18
8185.01090 1.47976e-18
8185.87237 1.46061e-18
8186.73383 1.44145e-18
8187.59529 1.42710e-18
8188.45675 1.41276e-18
8189.31821 1.39839e-18
8190.17968 1.38400e-18
8191.04114 1.36619e-18
8191.90260 1.34837e-18
8192.77408 1.33126e-18
8193.63554 1.31415e-18
8194.49700 1.30194e-18
8195.35846 1.28974e-18
8196.21993 1.28617e-18
8197.08139 1.28262e-18
8197.94285 1.29053e-18
8198.80431 1.29845e-18
8199.66577 1.31104e-18
8200.52724 1.32365e-18
8201.38870 1.33147e-18
8202.25016 1.33928e-18
8203.12164 1.34048e-18
8203.98310 1.34167e-18
8204.84456 1.33779e-18
8205.70603 1.33390e-18
8206.56749 1.32572e-18
8207.42895 1.31752e-18
8208.29041 1.30570e-18
8209.15187 1.29386e-18
8210.01334 1.28032e-18
8210.87480 1.26677e-18
8211.73626 1.25400e-18
8212.60774 1.24123e-18
8213.46920 1.23030e-18
8214.33066 1.21937e-18
8215.19212 1.21008e-18
8216.05359 1.20080e-18
8216.91505 1.19023e-18
8217.77651 1.17965e-18
8218.63797 1.15961e-18
8219.49943 1.13954e-18
8220.36090 1.10690e-18
8221.22236 1.07424e-18
8222.08382 1.03737e-18
8222.95530 1.00049e-18
8223.81676 9.68719e-19
8224.67822 9.36958e-19
8225.53969 9.21982e-19
8226.40115 9.07050e-19
8227.26261 9.17314e-19
8228.12407 9.27635e-19
8228.98553 9.55273e-19
8229.84700 9.82949e-19
8230.70846 1.01703e-18
8231.57994 1.05114e-18
8232.44140 1.08105e-18
8233.30286 1.11097e-18
8234.16432 1.12686e-18
8235.02578 1.14272e-18
8235.88725 1.14786e-18
8236.74871 1.15296e-18
8237.61017 1.15556e-18
8238.47163 1.15816e-18
8239.33309 1.16396e-18
8240.19456 1.16977e-18
8241.06604 1.18355e-18
8241.92750 1.19734e-18
8242.78896 1.21631e-18
8243.65042 1.23528e-18
8244.51188 1.25081e-18
8245.37335 1.26634e-18
8246.23481 1.27421e-18
8247.09627 1.28207e-18
8247.95773 1.28276e-18
8248.81919 1.28343e-18
8249.68066 1.27867e-18
8250.54212 1.27389e-18
8251.41360 1.26749e-18
8252.27506 1.26108e-18
8253.13652 1.25662e-18
8253.99798 1.25216e-18
8254.85945 1.25180e-18
8255.72091 1.25146e-18
8256.58237 1.25643e-18
8257.44383 1.26142e-18
8258.30529 1.27087e-18
8259.16676 1.28033e-18
8260.02822 1.29245e-18
8260.89970 1.30458e-18
8261.76116 1.31601e-18
8262.62262 1.32744e-18
8263.48408 1.33488e-18
8264.34554 1.34232e-18
8265.20701 1.34281e-18
8266.06847 1.34328e-18
8266.92993 1.33486e-18
8267.79139 1.32642e-18
8268.65285 1.31357e-18
8269.52433 1.30071e-18
8270.38580 1.28965e-18
8271.24726 1.27860e-18
8272.10872 1.27351e-18
8272.97018 1.26844e-18
8273.83164 1.27255e-18
8274.69311 1.27668e-18
8275.55457 1.28677e-18
8276.41603 1.29686e-18
8277.27749 1.30564e-18
8278.13895 1.31441e-18
8279.01043 1.31891e-18
8279.87189 1.32340e-18
8280.73336 1.32432e-18
8281.59482 1.32524e-18
8282.45628 1.32479e-18
8283.31774 1.32432e-18
8284.17920 1.32709e-18
8285.04067 1.32987e-18
8285.90213 1.33760e-18
8286.76359 1.34535e-18
8287.62505 1.35390e-18
8288.48651 1.36245e-18
8289.34798 1.36960e-18
8290.21946 1.37673e-18
8291.08092 1.38580e-18
8291.94238 1.39486e-18
8292.80384 1.40775e-18
8293.66530 1.42063e-18
8294.52677 1.43398e-18
8295.38823 1.44731e-18
8296.24969 1.45799e-18
8297.11115 1.46867e-18
8297.97261 1.47468e-18
8298.83408 1.48069e-18
8299.70555 1.48084e-18
8300.56702 1.48098e-18
8301.42848 1.48235e-18
8302.28994 1.48373e-18
8303.15140 1.49469e-18
8304.01286 1.50568e-18
8304.87433 1.52301e-18
8305.73579 1.54035e-18
8306.59725 1.55708e-18
8307.45871 1.57381e-18
8308.32017 1.58571e-18
8309.18164 1.59758e-18
8310.05312 1.60155e-18
8310.91458 1.60550e-18
8311.77604 1.60483e-18
8312.63750 1.60415e-18
8313.49896 1.60685e-18
8314.36043 1.60956e-18
8315.22189 1.62011e-18
8316.08335 1.63070e-18
8316.94481 1.65002e-18
8317.80627 1.66937e-18
8318.67775 1.69517e-18
8319.53921 1.72100e-18
8320.40068 1.74610e-18
8321.26214 1.77120e-18
8322.12360 1.79047e-18
8322.98506 1.80971e-18
8323.84652 1.82307e-18
8324.70799 1.83641e-18
8325.56945 1.84453e-18
8326.43091 1.85264e-18
8327.29237 1.85752e-18
8328.16385 1.86240e-18
8329.02531 1.86654e-18
8329.88678 1.87067e-18
8330.74824 1.87548e-18
8331.60970 1.88031e-18
8332.47116 1.88721e-18
8333.33262 1.89413e-18
8334.19408 1.90660e-18
8335.05555 1.91909e-18
8335.91701 1.94000e-18
8336.77847 1.96094e-18
8337.64995 1.98805e-18
8338.51141 2.01516e-18
8339.37287 2.04460e-18
8340.23434 2.07405e-18
8341.09580 2.10050e-18
8341.95726 2.12695e-18
8342.81872 2.14469e-18
8343.68018 2.16240e-18
8344.54165 2.17154e-18
8345.40311 2.18065e-18
8346.26457 2.18522e-18
8347.12603 2.18976e-18
8347.99751 2.19303e-18
8348.85897 2.19630e-18
8349.72043 2.20072e-18
8350.58190 2.20514e-18
8351.44336 2.21356e-18
8352.30482 2.22199e-18
8353.16628 2.23741e-18
8354.02775 2.25284e-18
8354.88921 2.27562e-18
8355.75067 2.29842e-18
8356.62215 2.32483e-18
8357.48361 2.35126e-18
8358.34507 2.37760e-18
8359.20653 2.40394e-18
8360.06800 2.42698e-18
8360.92946 2.44999e-18
8361.79092 2.46777e-18
8362.65238 2.48555e-18
8363.51384 2.50144e-18
8364.37531 2.51732e-18
8365.23677 2.53460e-18
8366.10825 2.55189e-18
8366.96971 2.56842e-18
8367.83117 2.58494e-18
8368.69263 2.59844e-18
8369.55410 2.61194e-18
8370.41556 2.62462e-18
8371.27702 2.63730e-18
8372.13848 2.65218e-18
8372.99994 2.66707e-18
8373.86140 2.68580e-18
8374.72287 2.70456e-18
8375.59435 2.72823e-18
8376.45581 2.75191e-18
8377.31727 2.78028e-18
8378.17873 2.80865e-18
8379.04019 2.84063e-18
8379.90166 2.87261e-18
8380.76312 2.90644e-18
8381.62458 2.94028e-18
8382.48604 2.97391e-18
8383.34750 3.00755e-18
8384.20897 3.03928e-18
8385.07043 3.07099e-18
8385.94191 3.09925e-18
8386.80337 3.12751e-18
8387.66483 3.15323e-18
8388.52629 3.17895e-18
8389.38775 3.20713e-18
8390.24922 3.23532e-18
8391.11068 3.26737e-18
8391.97214 3.29942e-18
8392.83360 3.32888e-18
8393.69507 3.35835e-18
8394.55653 3.38061e-18
8395.41799 3.40286e-18
8396.28947 3.41780e-18
8397.15093 3.43272e-18
8398.01239 3.44220e-18
8398.87385 3.45166e-18
8399.73532 3.46616e-18
8400.59678 3.48067e-18
8401.45824 3.50974e-18
8402.31970 3.53884e-18
8403.18116 3.57940e-18
8404.04263 3.61998e-18
8404.90409 3.66618e-18
8405.77557 3.71238e-18
8406.63703 3.75776e-18
8407.49849 3.80312e-18
8408.35995 3.84098e-18
8409.22142 3.87881e-18
8410.08288 3.90919e-18
8410.94434 3.93955e-18
8411.80580 3.96585e-18
8412.66726 3.99215e-18
8413.52873 4.01673e-18
8414.39019 4.04131e-18
8415.26167 4.06608e-18
8416.12313 4.09086e-18
8416.98459 4.11784e-18
8417.84605 4.14484e-18
8418.70751 4.17570e-18
8419.56898 4.20657e-18
8420.43044 4.24195e-18
8421.29190 4.27735e-18
8422.15336 4.31711e-18
8423.01482 4.35688e-18
8423.87629 4.39890e-18
8424.74777 4.44093e-18
8425.60923 4.47941e-18
8426.47069 4.51788e-18
8427.33215 4.55044e-18
8428.19361 4.58300e-18
8429.05508 4.61622e-18
8429.91654 4.64943e-18
8430.77800 4.68866e-18
8431.63946 4.72789e-18
8432.50092 4.77368e-18
8433.36239 4.81949e-18
8434.23386 4.87101e-18
8435.09533 4.92254e-18
8435.95679 4.97122e-18
8436.81825 5.01990e-18
8437.67971 5.05733e-18
8438.54117 5.09473e-18
8439.40264 5.12582e-18
8440.26410 5.15689e-18
8441.12556 5.18965e-18
8441.98702 5.22239e-18
8442.84848 5.25917e-18
8443.70995 5.29597e-18
8444.58143 5.33732e-18
8445.44289 5.37868e-18
8446.30435 5.42505e-18
8447.16581 5.47143e-18
8448.02727 5.52268e-18
8448.88874 5.57392e-18
8449.75020 5.62846e-18
8450.61166 5.68300e-18
8451.47312 5.73851e-18
8452.33458 5.79401e-18
8453.20606 5.84783e-18
8454.06752 5.90163e-18
8454.92899 5.95053e-18
8455.79045 5.99940e-18
8456.65191 6.04408e-18
8457.51337 6.08874e-18
8458.37483 6.13612e-18
8459.23630 6.18352e-18
8460.09776 6.23653e-18
8460.95922 6.28957e-18
8461.82068 6.34227e-18
8462.69216 6.39498e-18
8463.55362 6.44315e-18
8464.41508 6.49131e-18
8465.27655 6.53527e-18
8466.13801 6.57921e-18
8466.99947 6.62072e-18
8467.86093 6.66222e-18
8468.72240 6.71009e-18
8469.58386 6.75797e-18
8470.44532 6.82000e-18
8471.30678 6.88205e-18
8472.16824 6.95341e-18
8473.03972 7.02480e-18
8473.90118 7.09850e-18
8474.76265 7.17219e-18
8475.62411 7.24291e-18
8476.48557 7.31361e-18
8477.34703 7.37624e-18
8478.20849 7.43885e-18
8479.06996 7.49943e-18
8479.93142 7.56000e-18
8480.79288 7.62955e-18
8481.65434 7.69912e-18
8482.51580 7.77518e-18
8483.38728 7.85124e-18
8484.24875 7.92354e-18
8485.11021 7.99583e-18
8485.97167 8.05979e-18
8486.83313 8.12374e-18
8487.69459 8.17925e-18
8488.55605 8.23474e-18
8489.41752 8.28472e-18
8490.27898 8.33469e-18
8491.14044 8.38655e-18
8492.00190 8.43842e-18
8492.87338 8.49697e-18
8493.73484 8.55554e-18
8494.59631 8.61947e-18
8495.45777 8.68341e-18
8496.31923 8.75343e-18
8497.18069 8.82348e-18
8498.04215 8.90741e-18
8498.90362 8.99137e-18
8499.76508 9.09216e-18
8500.62654 9.19300e-18
8501.48800 9.29719e-18
8502.35948 9.40140e-18
8503.22094 9.49583e-18
8504.08240 9.59027e-18
8504.94387 9.67225e-18
8505.80533 9.75414e-18
8506.66679 9.82313e-18
8507.52825 9.89202e-18
8508.38972 9.95279e-18
8509.25118 1.00136e-17
8510.11264 1.00727e-17
8510.98412 1.01319e-17
8511.84558 1.01919e-17
8512.70704 1.02520e-17
8513.56850 1.03142e-17
8514.42997 1.03764e-17
8515.29143 1.04405e-17
8516.15289 1.05047e-17
8517.01435 1.05701e-17
8517.87581 1.06355e-17
8518.73728 1.07021e-17
8519.59874 1.07686e-17
8520.46020 1.08365e-17
8521.33168 1.09044e-17
8522.19314 1.09767e-17
8523.05460 1.10489e-17
8523.91607 1.11311e-17
8524.77753 1.12134e-17
8525.63899 1.13073e-17
8526.50045 1.14013e-17
8527.36191 1.15037e-17
8528.22337 1.16059e-17
8529.08484 1.17113e-17
8529.94630 1.18166e-17
8530.80776 1.19161e-17
8531.67924 1.20156e-17
8532.54070 1.21022e-17
8533.40216 1.21887e-17
8534.26363 1.22596e-17
8535.12509 1.23305e-17
8535.98655 1.23865e-17
8536.84801 1.24426e-17
8537.70947 1.24945e-17
8538.57094 1.25464e-17
8539.43240 1.26057e-17
8540.30388 1.26651e-17
8541.16534 1.27394e-17
8542.02680 1.28138e-17
8542.88826 1.29076e-17
8543.74972 1.30016e-17
8544.61119 1.31089e-17
8545.47265 1.32161e-17
8546.33411 1.33269e-17
8547.19557 1.34376e-17
8548.05703 1.35348e-17
8548.91850 1.36319e-17
8549.78998 1.36967e-17
8550.65144 1.37615e-17
8551.51290 1.37957e-17
8552.37436 1.38299e-17
8553.23582 1.38476e-17
8554.09729 1.38653e-17
8554.95875 1.38857e-17
8555.82021 1.39061e-17
8556.68167 1.39519e-17
8557.54313 1.39977e-17
8558.40460 1.40791e-17
8559.27607 1.41606e-17
8560.13754 1.42713e-17
8560.99900 1.43821e-17
8561.86046 1.45101e-17
8562.72192 1.46381e-17
8563.58338 1.47635e-17
8564.44485 1.48890e-17
8565.30631 1.49938e-17
8566.16777 1.50985e-17
8567.02923 1.51705e-17
8567.89070 1.52424e-17
8568.75216 1.52760e-17
8569.62364 1.53096e-17
8570.48510 1.53142e-17
8571.34656 1.53188e-17
8572.20802 1.53082e-17
8573.06948 1.52975e-17
8573.93095 1.52867e-17
8574.79241 1.52759e-17
8575.65387 1.52795e-17
8576.51533 1.52832e-17
8577.37679 1.53165e-17
8578.23826 1.53499e-17
8579.09972 1.54244e-17
8579.97120 1.54990e-17
8580.83266 1.56002e-17
8581.69412 1.57016e-17
8582.55558 1.58055e-17
8583.41705 1.59094e-17
8584.27851 1.59966e-17
8585.13997 1.60838e-17
8586.00143 1.61384e-17
8586.86289 1.61930e-17
8587.72436 1.62129e-17
8588.58582 1.62327e-17
8589.45730 1.62266e-17
8590.31876 1.62203e-17
8591.18022 1.62019e-17
8592.04168 1.61834e-17
8592.90314 1.61711e-17
8593.76461 1.61587e-17
8594.62607 1.61628e-17
8595.48753 1.61667e-17
8596.34899 1.61831e-17
8597.21045 1.61993e-17
8598.07192 1.62253e-17
8598.94340 1.62514e-17
8599.80486 1.62898e-17
8600.66632 1.63282e-17
8601.52778 1.63778e-17
8602.38924 1.64275e-17
8603.25071 1.64804e-17
8604.11217 1.65334e-17
8604.97363 1.65810e-17
8605.83509 1.66287e-17
8606.69655 1.66593e-17
8607.56803 1.66899e-17
8608.42949 1.66942e-17
8609.29096 1.66983e-17
8610.15242 1.66788e-17
8611.01388 1.66590e-17
8611.87534 1.66223e-17
8612.73680 1.65855e-17
8613.59827 1.65392e-17
8614.45973 1.64928e-17
8615.32119 1.64449e-17
8616.18265 1.63969e-17
8617.04411 1.63623e-17
8617.91559 1.63278e-17
8618.77706 1.63230e-17
8619.63852 1.63182e-17
8620.49998 1.63441e-17
8621.36144 1.63700e-17
8622.22290 1.64177e-17
8623.08437 1.64655e-17
8623.94583 1.65224e-17
8624.80729 1.65793e-17
8625.66875 1.66291e-17
8626.53021 1.66790e-17
8627.40169 1.67123e-17
8628.26315 1.67455e-17
8629.12462 1.67619e-17
8629.98608 1.67784e-17
8630.84754 1.67775e-17
8631.70900 1.67767e-17
8632.57046 1.67564e-17
8633.43193 1.67360e-17
8634.29339 1.66990e-17
8635.15485 1.66621e-17
8636.01631 1.66200e-17
8636.88779 1.65779e-17
8637.74925 1.65428e-17
8638.61072 1.65079e-17
8639.47218 1.64939e-17
8640.33364 1.64799e-17
8641.19510 1.64966e-17
8642.05656 1.65133e-17
8642.91803 1.65525e-17
8643.77949 1.65919e-17
8644.64095 1.66414e-17
8645.50241 1.66909e-17
8646.37389 1.67379e-17
8647.23535 1.67848e-17
8648.09681 1.68164e-17
8648.95828 1.68478e-17
8649.81974 1.68591e-17
8650.68120 1.68705e-17
8651.54266 1.68618e-17
8652.40412 1.68531e-17
8653.26559 1.68230e-17
8654.12705 1.67929e-17
8654.98851 1.67405e-17
8655.85999 1.66882e-17
8656.72145 1.66226e-17
8657.58291 1.65570e-17
8658.44438 1.64940e-17
8659.30584 1.64311e-17
8660.16730 1.63814e-17
8661.02876 1.63319e-17
8661.89022 1.63005e-17
8662.75168 1.62692e-17
8663.61315 1.62585e-17
8664.47461 1.62479e-17
8665.33607 1.62572e-17
8666.20755 1.62665e-17
8667.06901 1.62914e-17
8667.93047 1.63164e-17
8668.79194 1.63492e-17
8669.65340 1.63820e-17
8670.51486 1.64121e-17
8671.37632 1.64421e-17
8672.23778 1.64514e-17
8673.09925 1.64607e-17
8673.96071 1.64358e-17
8674.82217 1.64108e-17
8675.68363 1.63557e-17
8676.55511 1.63006e-17
8677.41657 1.62242e-17
8678.27803 1.61477e-17
8679.13950 1.60649e-17
8680.00096 1.59821e-17
8680.86242 1.59094e-17
8681.72388 1.58367e-17
8682.58535 1.57805e-17
8683.44681 1.57245e-17
8684.30827 1.56872e-17
8685.16973 1.56499e-17
8686.04121 1.56338e-17
8686.90267 1.56178e-17
8687.76413 1.56230e-17
8688.62560 1.56284e-17
8689.48706 1.56510e-17
8690.34852 1.56735e-17
8691.20998 1.57067e-17
8692.07144 1.57400e-17
8692.93291 1.57727e-17
8693.79437 1.58052e-17
8694.66585 1.58229e-17
8695.52731 1.58405e-17
8696.38877 1.58344e-17
8697.25023 1.58282e-17
8698.11170 1.57968e-17
8698.97316 1.57654e-17
8699.83462 1.57122e-17
8700.69608 1.56590e-17
8701.55754 1.55954e-17
8702.41900 1.55319e-17
8703.28047 1.54678e-17
8704.15195 1.54036e-17
8705.01341 1.53392e-17
8705.87487 1.52748e-17
8706.73633 1.52127e-17
8707.59779 1.51507e-17
8708.45926 1.51041e-17
8709.32072 1.50575e-17
8710.18218 1.50364e-17
8711.04364 1.50153e-17
8711.90510 1.50201e-17
8712.76657 1.50250e-17
8713.62803 1.50522e-17
8714.49951 1.50793e-17
8715.36097 1.51089e-17
8716.22243 1.51385e-17
8717.08389 1.51481e-17
8717.94535 1.51577e-17
8718.80682 1.51381e-17
8719.66828 1.51184e-17
8720.52974 1.50663e-17
8721.39120 1.50141e-17
8722.25267 1.49421e-17
8723.11413 1.48702e-17
8723.98561 1.48009e-17
8724.84707 1.47314e-17
8725.70853 1.46729e-17
8726.56999 1.46142e-17
8727.43145 1.45640e-17
8728.29292 1.45140e-17
8729.15438 1.44725e-17
8730.01584 1.44310e-17
8730.87730 1.43992e-17
8731.73876 1.43674e-17
8732.61024 1.43484e-17
8733.47170 1.43293e-17
8734.33317 1.43318e-17
8735.19463 1.43344e-17
8736.05609 1.43558e-17
8736.91755 1.43772e-17
8737.77902 1.43922e-17
8738.64048 1.44073e-17
8739.50194 1.43945e-17
8740.36340 1.43818e-17
8741.22486 1.43296e-17
8742.08633 1.42773e-17
8742.95780 1.41826e-17
8743.81927 1.40878e-17
8744.68073 1.39779e-17
8745.54219 1.38679e-17
8746.40365 1.37724e-17
8747.26511 1.36770e-17
8748.12658 1.36098e-17
8748.98804 1.35429e-17
8749.84950 1.35124e-17
8750.71096 1.34821e-17
8751.57242 1.34798e-17
8752.44390 1.34776e-17
8753.30537 1.34870e-17
8754.16683 1.34965e-17
8755.02829 1.35087e-17
8755.88975 1.35208e-17
8756.75121 1.35299e-17
8757.61268 1.35389e-17
8758.47414 1.35316e-17
8759.33560 1.35242e-17
8760.19706 1.34846e-17
8761.05852 1.34448e-17
8761.91999 1.33702e-17
8762.79146 1.32955e-17
8763.65293 1.31945e-17
8764.51439 1.30935e-17
8765.37585 1.29801e-17
8766.23731 1.28669e-17
8767.09877 1.27614e-17
8767.96024 1.26561e-17
8768.82170 1.25714e-17
8769.68316 1.24869e-17
8770.54462 1.24216e-17
8771.40608 1.23563e-17
8772.26755 1.23073e-17
8773.13903 1.22584e-17
8774.00049 1.22236e-17
8774.86195 1.21888e-17
8775.72341 1.21635e-17
8776.58487 1.21382e-17
8777.44633 1.21182e-17
8778.30780 1.20984e-17
8779.16926 1.20781e-17
8780.03072 1.20578e-17
8780.89218 1.20196e-17
8781.76366 1.19812e-17
8782.62512 1.19091e-17
8783.48659 1.18368e-17
8784.34805 1.17384e-17
8785.20951 1.16400e-17
8786.07097 1.15294e-17
8786.93243 1.14188e-17
8787.79390 1.13067e-17
8788.65536 1.11945e-17
8789.51682 1.10912e-17
8790.37828 1.09878e-17
8791.24976 1.08929e-17
8792.11122 1.07980e-17
8792.97268 1.07042e-17
8793.83415 1.06103e-17
8794.69561 1.05223e-17
8795.55707 1.04345e-17
8796.41853 1.03658e-17
8797.28000 1.02974e-17
8798.14146 1.02455e-17
8799.00292 1.01937e-17
8799.86438 1.01404e-17
8800.72584 1.00871e-17
8801.59732 1.00176e-17
8802.45878 9.94818e-18
8803.32025 9.85264e-18
8804.18171 9.75710e-18
8805.04317 9.63417e-18
8805.90463 9.51123e-18
8806.76609 9.37862e-18
8807.62756 9.24591e-18
8808.48902 9.11973e-18
8809.35048 8.99361e-18
8810.21194 8.88168e-18
8811.08342 8.76979e-18
8811.94488 8.67731e-18
8812.80635 8.58488e-18
8813.66781 8.50981e-18
8814.52927 8.43480e-18
8815.39073 8.37223e-18
8816.25219 8.30968e-18
8817.11365 8.25348e-18
8817.97512 8.19728e-18
8818.83658 8.14058e-18
8819.70806 8.08388e-18
8820.56952 8.01839e-18
8821.43098 7.95286e-18
8822.29244 7.87135e-18
8823.15391 7.78980e-18
8824.01537 7.69137e-18
8824.87683 7.59290e-18
8825.73829 7.48016e-18
8826.59975 7.36739e-18
8827.46122 7.25072e-18
8828.32268 7.13404e-18
8829.19416 7.02840e-18
8830.05562 6.92280e-18
8830.91708 6.83581e-18
8831.77854 6.74889e-18
8832.64000 6.68110e-18
8833.50147 6.61338e-18
8834.36293 6.56237e-18
8835.22439 6.51141e-18
8836.08585 6.47121e-18
8836.94732 6.43104e-18
8837.80878 6.39465e-18
8838.67024 6.35826e-18
8839.54172 6.31851e-18
8840.40318 6.27875e-18
8841.26464 6.23034e-18
8842.12610 6.18192e-18
8842.98757 6.12416e-18
8843.84903 6.06638e-18
8844.71049 6.00037e-18
8845.57195 5.93435e-18
8846.43341 5.86397e-18
8847.29488 5.79358e-18
8848.15634 5.72376e-18
8849.02782 5.65395e-18
8849.88928 5.58736e-18
8850.75074 5.52079e-18
8851.61220 5.45993e-18
8852.47367 5.39910e-18
8853.33513 5.35692e-18
8854.19659 5.31477e-18
8855.05805 5.30412e-18
8855.91951 5.29355e-18
8856.78097 5.30422e-18
8857.64244 5.31495e-18
8858.50390 5.32891e-18
8859.36536 5.34287e-18
8860.23684 5.34525e-18
8861.09830 5.34759e-18
8861.95976 5.32495e-18
8862.82123 5.30224e-18
8863.68269 5.25963e-18
8864.54415 5.21697e-18
8865.40561 5.17400e-18
8866.26707 5.13102e-18
8867.12854 5.09679e-18
8867.99000 5.06258e-18
8868.86148 5.03480e-18
8869.72294 5.00702e-18
8870.58440 4.98468e-18
8871.44586 4.96234e-18
8872.30732 4.94457e-18
8873.16879 4.92682e-18
8874.03025 4.91460e-18
8874.89171 4.90239e-18
8875.75317 4.90325e-18
8876.61463 4.90416e-18
8877.47610 4.92115e-18
8878.34758 4.93820e-18
8879.20904 4.96193e-18
8880.07050 4.98567e-18
8880.93196 5.00627e-18
8881.79342 5.02687e-18
8882.65489 5.03518e-18
8883.51635 5.04345e-18
8884.37781 5.03279e-18
8885.23927 5.02208e-18
8886.10073 4.99861e-18
8886.96220 4.97511e-18
8887.83367 4.94850e-18
8888.69514 4.92187e-18
8889.55660 4.90103e-18
8890.41806 4.88020e-18
8891.27952 4.87322e-18
8892.14099 4.86628e-18
8893.00245 4.87774e-18
8893.86391 4.88925e-18
8894.72537 4.92095e-18
8895.58683 4.95270e-18
8896.44830 4.99719e-18
8897.30976 5.04172e-18
8898.18124 5.08626e-18
8899.04270 5.13079e-18
8899.90416 5.16450e-18
8900.76562 5.19817e-18
8901.62708 5.21196e-18
8902.48855 5.22571e-18
8903.35001 5.22099e-18
8904.21147 5.21623e-18
8905.07293 5.20809e-18
8905.93439 5.19994e-18
8906.80587 5.19827e-18
8907.66734 5.19661e-18
8908.52880 5.20042e-18
8909.39026 5.20425e-18
8910.25172 5.21356e-18
8911.11318 5.22288e-18
8911.97465 5.23955e-18
8912.83611 5.25622e-18
8913.69757 5.28098e-18
8914.55903 5.30577e-18
8915.42049 5.34040e-18
8916.29197 5.37505e-18
8917.15343 5.41912e-18
8918.01490 5.46321e-18
8918.87636 5.50539e-18
8919.73782 5.54757e-18
8920.59928 5.57651e-18
8921.46074 5.60541e-18
8922.32221 5.61789e-18
8923.18367 5.63033e-18
8924.04513 5.62601e-18
8924.90659 5.62165e-18
8925.76805 5.61390e-18
8926.63953 5.60615e-18
8927.50100 5.61321e-18
8928.36246 5.62031e-18
8929.22392 5.64289e-18
8930.08538 5.66550e-18
8930.94684 5.69533e-18
8931.80831 5.72518e-18
8932.66977 5.75631e-18
8933.53123 5.78742e-18
8934.39269 5.81405e-18
8935.25415 5.84065e-18
8936.12563 5.86551e-18
8936.98709 5.89035e-18
8937.84856 5.92647e-18
8938.71002 5.96262e-18
8939.57148 6.01059e-18
8940.43294 6.05859e-18
8941.29440 6.10074e-18
8942.15587 6.14287e-18
8943.01733 6.16621e-18
8943.87879 6.18950e-18
8944.74025 6.18822e-18
8945.61173 6.18686e-18
8946.47319 6.16305e-18
8947.33466 6.13918e-18
8948.19612 6.12013e-18
8949.05758 6.10110e-18
8949.91904 6.10897e-18
8950.78050 6.11692e-18
8951.64197 6.14484e-18
8952.50343 6.17280e-18
8953.36489 6.20960e-18
8954.22635 6.24644e-18
8955.08781 6.26311e-18
8955.95929 6.27973e-18
8956.82075 6.24773e-18
8957.68222 6.21561e-18
8958.54368 6.17044e-18
8959.40514 6.12524e-18
8960.26660 6.11922e-18
8961.12806 6.11331e-18
8961.98953 6.15390e-18
8962.85099 6.19463e-18
8963.71245 6.27194e-18
8964.57391 6.34935e-18
8965.44539 6.43831e-18
8966.30685 6.52731e-18
8967.16832 6.59001e-18
8968.02978 6.65265e-18
8968.89124 6.69325e-18
8969.75270 6.73380e-18
8970.61416 6.79374e-18
8971.47563 6.85374e-18
8972.33709 6.94739e-18
8973.19855 7.04114e-18
8974.06001 7.15074e-18
8974.93149 7.26037e-18
8975.79295 7.36022e-18
8976.65441 7.46003e-18
8977.51588 7.51080e-18
8978.37734 7.56144e-18
8979.23880 7.53252e-18
8980.10026 7.50338e-18
8980.96172 7.37505e-18
8981.82319 7.24647e-18
8982.68465 7.03140e-18
8983.54611 6.81610e-18
8984.41759 6.62996e-18
8985.27905 6.44390e-18
8986.14051 6.39341e-18
8987.00198 6.34328e-18
8987.86344 6.46503e-18
8988.72490 6.58724e-18
8989.58636 6.88674e-18
8990.44782 7.18671e-18
8991.30928 7.52102e-18
8992.17075 7.85541e-18
8993.03221 8.05246e-18
8993.89367 8.24913e-18
8994.76515 8.28312e-18
8995.62661 8.31667e-18
8996.48807 8.21904e-18
8997.34954 8.12106e-18
8998.21100 7.96880e-18
8999.07246 7.81639e-18
8999.93392 7.71451e-18
9000.79538 7.61275e-18
9001.65685 7.60702e-18
9002.51831 7.60156e-18
9003.38979 7.68917e-18
9004.25125 7.77702e-18
9005.11271 7.92743e-18
9005.97417 8.07799e-18
9006.83563 8.23130e-18
9007.69710 8.38460e-18
9008.55856 8.49414e-18
9009.42002 8.60355e-18
9010.28148 8.64765e-18
9011.14295 8.69156e-18
9012.00441 8.67121e-18
9012.87589 8.65067e-18
9013.73735 8.61730e-18
9014.59881 8.58389e-18
9015.46027 8.57568e-18
9016.32173 8.56753e-18
9017.18320 8.56115e-18
9018.04466 8.55479e-18
9018.90612 8.53291e-18
9019.76758 8.51098e-18
9020.62904 8.49366e-18
9021.49051 8.47633e-18
9022.35197 8.48438e-18
9023.22345 8.49249e-18
9024.08491 8.55213e-18
9024.94637 8.61191e-18
9025.80783 8.74407e-18
9026.66930 8.87644e-18
9027.53076 9.04935e-18
9028.39222 9.22240e-18
9029.25368 9.38803e-18
9030.11514 9.55356e-18
9030.97660 9.67852e-18
9031.83807 9.80330e-18
9032.70955 9.86278e-18
9033.57101 9.92208e-18
9034.43247 9.91387e-18
9035.29393 9.90548e-18
9036.15539 9.84222e-18
9037.01686 9.77877e-18
9037.87832 9.69291e-18
9038.73978 9.60696e-18
9039.60124 9.54840e-18
9040.46270 9.49002e-18
9041.32417 9.47213e-18
9042.18563 9.45433e-18
9043.05711 9.44059e-18
9043.91857 9.42676e-18
9044.78003 9.39789e-18
9045.64149 9.36894e-18
9046.50295 9.33648e-18
9047.36442 9.30401e-18
9048.22588 9.27801e-18
9049.08734 9.25200e-18
9049.94880 9.24850e-18
9050.81027 9.24490e-18
9051.67173 9.26814e-18
9052.54321 9.29147e-18
9053.40467 9.29396e-18
9054.26613 9.29627e-18
9055.12759 9.23632e-18
9055.98905 9.17624e-18
9056.85052 9.07610e-18
9057.71198 8.97584e-18
9058.57344 8.86567e-18
9059.43490 8.75547e-18
9060.29636 8.63901e-18
9061.16784 8.52252e-18
9062.02931 8.40126e-18
9062.89077 8.27998e-18
9063.75223 8.14951e-18
9064.61369 8.01900e-18
9065.47515 7.86960e-18
9066.33662 7.72013e-18
9067.19808 7.58984e-18
9068.05954 7.45961e-18
9068.92100 7.41161e-18
9069.78246 7.36383e-18
9070.64393 7.38414e-18
9071.51540 7.40465e-18
9072.37687 7.42256e-18
9073.23833 7.44047e-18
9074.09979 7.42988e-18
9074.96125 7.41922e-18
9075.82271 7.39988e-18
9076.68418 7.38050e-18
9077.54564 7.36476e-18
9078.40710 7.34903e-18
9079.26856 7.34402e-18
9080.13002 7.33904e-18
9080.99149 7.34449e-18
9081.86297 7.34996e-18
9082.72443 7.34134e-18
9083.58589 7.33268e-18
9084.44735 7.29630e-18
9085.30881 7.25986e-18
9086.17028 7.22274e-18
9087.03174 7.18561e-18
9087.89320 7.16855e-18
9088.75466 7.15153e-18
9089.61612 7.12798e-18
9090.48760 7.10440e-18
9091.34906 7.04889e-18
9092.21053 6.99361e-18
9093.07199 6.93242e-18
9093.93345 6.87123e-18
9094.79491 6.83649e-18
9095.65637 6.80183e-18
9096.51784 6.78444e-18
9097.37930 6.76710e-18
9098.24076 6.74789e-18
9099.10222 6.72866e-18
9099.97370 6.71259e-18
9100.83516 6.69652e-18
9101.69663 6.69385e-18
9102.55809 6.69121e-18
9103.41955 6.72159e-18
9104.28101 6.75206e-18
9105.14247 6.84363e-18
9106.00393 6.93537e-18
9106.86540 7.05476e-18
9107.72686 7.17422e-18
9108.58832 7.23585e-18
9109.45980 7.29732e-18
9110.32126 7.26471e-18
9111.18272 7.23184e-18
9112.04419 7.12623e-18
9112.90565 7.02041e-18
9113.76711 6.88543e-18
9114.62857 6.75038e-18
9115.49003 6.67561e-18
9116.35150 6.60100e-18
9117.21296 6.63310e-18
9118.07442 6.66550e-18
9118.93588 6.73538e-18
9119.80736 6.80536e-18
9120.66882 6.84554e-18
9121.53028 6.88564e-18
9122.39175 6.85291e-18
9123.25321 6.81998e-18
9124.11467 6.68839e-18
9124.97613 6.55653e-18
9125.83760 6.38694e-18
9126.69906 6.21725e-18
9127.56052 6.08374e-18
9128.43200 5.95033e-18
9129.29346 5.89117e-18
9130.15492 5.83223e-18
9131.01638 5.87207e-18
9131.87785 5.91220e-18
9132.73931 6.03444e-18
9133.60077 6.15691e-18
9134.46223 6.32396e-18
9135.32369 6.49112e-18
9136.18516 6.66385e-18
9137.04662 6.83660e-18
9137.90808 6.97464e-18
9138.76954 7.11259e-18
9139.64102 7.18997e-18
9140.50248 7.26718e-18
9141.36395 7.27512e-18
9142.22541 7.28287e-18
9143.08687 7.20822e-18
9143.94833 7.13335e-18
9144.80979 6.95718e-18
9145.67125 6.78074e-18
9146.53272 6.52589e-18
9147.39418 6.27082e-18
9148.26566 6.01426e-18
9149.12712 5.75770e-18
9149.98858 5.56928e-18
9150.85004 5.38105e-18
9151.71151 5.31728e-18
9152.57297 5.25386e-18
9153.43443 5.33679e-18
9154.29589 5.42011e-18
9155.15735 5.57725e-18
9156.01882 5.73459e-18
9156.88028 5.88938e-18
9157.75176 6.04415e-18
9158.61322 6.16077e-18
9159.47468 6.27729e-18
9160.33614 6.32809e-18
9161.19760 6.37870e-18
9162.05907 6.36552e-18
9162.92053 6.35216e-18
9163.78199 6.29003e-18
9164.64345 6.22777e-18
9165.50492 6.11462e-18
9166.36638 6.00131e-18
9167.22784 5.83445e-18
9168.09932 5.66745e-18
9168.96078 5.48828e-18
9169.82224 5.30908e-18
9170.68370 5.17366e-18
9171.54517 5.03836e-18
9172.40663 4.97468e-18
9173.26809 4.91119e-18
9174.12955 4.93146e-18
9174.99101 4.95195e-18
9175.85248 5.02170e-18
9176.71394 5.09159e-18
9177.58542 5.13255e-18
9178.44688 5.17343e-18
9179.30834 5.16283e-18
9180.16980 5.15209e-18
9181.03127 5.14129e-18
9181.89273 5.13050e-18
9182.75419 5.14778e-18
9183.61565 5.16514e-18
9184.47711 5.20043e-18
9185.33857 5.23576e-18
9186.20004 5.27687e-18
9187.07152 5.31799e-18
9187.93298 5.33545e-18
9188.79444 5.35284e-18
9189.65590 5.33028e-18
9190.51736 5.30759e-18
9191.37883 5.29057e-18
9192.24029 5.27357e-18
9193.10175 5.30267e-18
9193.96321 5.33190e-18
9194.82467 5.38908e-18
9195.68614 5.44634e-18
9196.55762 5.50586e-18
9197.41908 5.56539e-18
9198.28054 5.60400e-18
9199.14200 5.64255e-18
9200.00346 5.63787e-18
9200.86492 5.63308e-18
9201.72639 5.60161e-18
9202.58785 5.57005e-18
9203.44931 5.54417e-18
9204.31077 5.51831e-18
9205.17224 5.49898e-18
9206.04371 5.47965e-18
9206.90518 5.45262e-18
9207.76664 5.42556e-18
9208.62810 5.39536e-18
9209.48956 5.36514e-18
9210.35102 5.34699e-18
9211.21249 5.32887e-18
9212.07395 5.33806e-18
9212.93541 5.34733e-18
9213.79687 5.40137e-18
9214.65833 5.45553e-18
9215.52981 5.55092e-18
9216.39127 5.64644e-18
9217.25274 5.74694e-18
9218.11420 5.84745e-18
9218.97566 5.92953e-18
9219.83712 6.01154e-18
9220.69859 6.08269e-18
9221.56005 6.15381e-18
9222.42151 6.21826e-18
9223.28297 6.28270e-18
9224.14443 6.33328e-18
9225.00590 6.38383e-18
9225.87737 6.41552e-18
9226.73884 6.44716e-18
9227.60030 6.45469e-18
9228.46176 6.46216e-18
9229.32322 6.44351e-18
9230.18468 6.42481e-18
9231.04615 6.40124e-18
9231.90761 6.37766e-18
9232.76907 6.37371e-18
9233.63053 6.36981e-18
9234.49199 6.38009e-18
9235.35346 6.39040e-18
9236.22494 6.40109e-18
9237.08640 6.41178e-18
9237.94786 6.42917e-18
9238.80932 6.44659e-18
9239.67078 6.48367e-18
9240.53225 6.52080e-18
9241.39371 6.58378e-18
9242.25517 6.64684e-18
9243.11663 6.73827e-18
9243.97809 6.82978e-18
9244.84957 6.94169e-18
9245.71103 7.05365e-18
9246.57250 7.16787e-18
9247.43396 7.28210e-18
9248.29542 7.38826e-18
9249.15688 7.49438e-18
9250.01834 7.59461e-18
9250.87981 7.69483e-18
9251.74127 7.78407e-18
9252.60273 7.87327e-18
9253.46419 7.93014e-18
9254.32565 7.98691e-18
9255.19713 8.00790e-18
9256.05860 8.02878e-18
9256.92006 8.05547e-18
9257.78152 8.08217e-18
9258.64298 8.14585e-18
9259.50444 8.20962e-18
9260.36591 8.30083e-18
9261.22737 8.39211e-18
9262.08883 8.49403e-18
9262.95029 8.59598e-18
9263.81175 8.67182e-18
9264.68323 8.74758e-18
9265.54469 8.76212e-18
9266.40616 8.77650e-18
9267.26762 8.73074e-18
9268.12908 8.68481e-18
9268.99054 8.59325e-18
9269.85200 8.50156e-18
9270.71347 8.39828e-18
9271.57493 8.29497e-18
9272.43639 8.22062e-18
9273.29785 8.14634e-18
9274.16933 8.13298e-18
9275.03079 8.11978e-18
9275.89226 8.19088e-18
9276.75372 8.26223e-18
9277.61518 8.40583e-18
9278.47664 8.54964e-18
9279.33810 8.72621e-18
9280.19957 8.90286e-18
9281.06103 9.06970e-18
9281.92249 9.23651e-18
9282.79397 9.35243e-18
9283.65543 9.46826e-18
9284.51689 9.50054e-18
9285.37835 9.53254e-18
9286.23982 9.46171e-18
9287.10128 9.39061e-18
9287.96274 9.22526e-18
9288.82420 9.05954e-18
9289.68566 8.85206e-18
9290.54713 8.64446e-18
9291.40859 8.45582e-18
9292.27005 8.26723e-18
9293.14153 8.17772e-18
9294.00299 8.08846e-18
9294.86445 8.15046e-18
9295.72592 8.21289e-18
9296.58738 8.37242e-18
9297.44884 8.53223e-18
9298.31030 8.71765e-18
9299.17176 8.90313e-18
9300.03323 9.01676e-18
9300.89469 9.13019e-18
9301.75615 9.07837e-18
9302.62763 9.02607e-18
9303.48909 8.89875e-18
9304.35055 8.77122e-18
9305.21201 8.71554e-18
9306.07348 8.66006e-18
9306.93494 8.64173e-18
9307.79640 8.62349e-18
9308.65786 8.53576e-18
9309.51932 8.44782e-18
9310.38079 8.29564e-18
9311.24225 8.14329e-18
9312.11373 7.98965e-18
9312.97519 7.83602e-18
9313.83665 7.74269e-18
9314.69811 7.64953e-18
9315.55958 7.68672e-18
9316.42104 7.72429e-18
9317.28250 7.87835e-18
9318.14396 8.03273e-18
9319.00542 8.16861e-18
9319.86688 8.30443e-18
9320.72835 8.36912e-18
9321.58981 8.43362e-18
9322.46129 8.55158e-18
9323.32275 8.66970e-18
9324.18421 8.86816e-18
9325.04567 9.06684e-18
9325.90714 9.09131e-18
9326.76860 9.11529e-18
9327.63006 8.80889e-18
9328.49152 8.50154e-18
9329.35298 8.11058e-18
9330.21445 7.71938e-18
9331.07591 7.48234e-18
9331.94739 7.24576e-18
9332.80885 7.11666e-18
9333.67031 6.98788e-18
9334.53177 6.89783e-18
9335.39323 6.80790e-18
9336.25470 6.75846e-18
9337.11616 6.70914e-18
9337.97762 6.68849e-18
9338.83908 6.66793e-18
9339.70055 6.88608e-18
9340.56201 7.10491e-18
9341.43349 7.84627e-18
9342.29495 8.58911e-18
9343.15641 9.48938e-18
9344.01787 1.03900e-17
9344.87933 1.07789e-17
9345.74080 1.11662e-17
9346.60226 1.08438e-17
9347.46372 1.05193e-17
9348.32518 9.59967e-18
9349.18664 8.67839e-18
9350.04811 7.58448e-18
9350.90957 6.49010e-18
9351.78105 6.00186e-18
9352.64251 5.51536e-18
9353.50397 5.88868e-18
9354.36543 6.26445e-18
9355.22689 6.93511e-18
9356.08836 7.60659e-18
9356.94982 8.10019e-18
9357.81128 8.59327e-18
9358.67274 8.62685e-18
9359.53420 8.65912e-18
9360.39567 8.11033e-18
9361.26715 7.55989e-18
9362.12861 6.87323e-18
9362.99007 6.18620e-18
9363.85153 5.78120e-18
9364.71299 5.37702e-18
9365.57446 5.27785e-18
9366.43592 5.17956e-18
9367.29738 5.34579e-18
9368.15884 5.51276e-18
9369.02030 5.73597e-18
9369.89178 5.95933e-18
9370.75324 6.00082e-18
9371.61471 6.04179e-18
9372.47617 5.91619e-18
9373.33763 5.79013e-18
9374.19909 5.58664e-18
9375.06056 5.38293e-18
9375.92202 5.23793e-18
9376.78348 5.09310e-18
9377.64494 5.17319e-18
9378.50640 5.25391e-18
9379.37788 5.49590e-18
9380.23934 5.73834e-18
9381.10081 5.92774e-18
9381.96227 6.11697e-18
9382.82373 6.18542e-18
9383.68519 6.25353e-18
9384.54665 6.26272e-18
9385.40812 6.27174e-18
9386.26958 6.23875e-18
9387.13104 6.20562e-18
9387.99250 6.10154e-18
9388.85396 5.99725e-18
9389.72544 5.82045e-18
9390.58691 5.64344e-18
9391.44837 5.42061e-18
9392.30983 5.19764e-18
9393.17129 4.96532e-18
9394.03275 4.73298e-18
9394.89422 4.55605e-18
9395.75568 4.37929e-18
9396.61714 4.30168e-18
9397.47860 4.22435e-18
9398.34006 4.21349e-18
9399.21154 4.20283e-18
9400.07300 4.21783e-18
9400.93447 4.23290e-18
9401.79593 4.23442e-18
9402.65739 4.23590e-18
9403.51885 4.18953e-18
9404.38031 4.14302e-18
9405.24178 4.08743e-18
9406.10324 4.03182e-18
9406.96470 4.02132e-18
9407.82616 4.01095e-18
9408.69764 4.04613e-18
9409.55910 4.08145e-18
9410.42057 4.14343e-18
9411.28203 4.20549e-18
9412.14349 4.26494e-18
9413.00495 4.32439e-18
9413.86641 4.34653e-18
9414.72788 4.36856e-18
9415.58934 4.33020e-18
9416.45080 4.29166e-18
9417.31226 4.18564e-18
9418.17372 4.07942e-18
9419.04520 3.91316e-18
9419.90666 3.74672e-18
9420.76813 3.53131e-18
9421.62959 3.31576e-18
9422.49105 3.12830e-18
9423.35251 2.94093e-18
9424.21397 2.96541e-18
9425.07544 2.99051e-18
9425.93690 3.28602e-18
9426.79836 3.58230e-18
9427.65982 3.95592e-18
9428.53130 4.32975e-18
9429.39276 4.59551e-18
9430.25423 4.86095e-18
9431.11569 4.84669e-18
9431.97715 4.83162e-18
9432.83861 4.45012e-18
9433.70007 4.06756e-18
9434.56153 3.62132e-18
9435.42300 3.17492e-18
9436.28446 2.98036e-18
9437.14592 2.78655e-18
9438.01740 2.89352e-18
9438.87886 3.00138e-18
9439.74032 3.38940e-18
9440.60179 3.77822e-18
9441.46325 4.25022e-18
9442.32471 4.72245e-18
9443.18617 5.02477e-18
9444.04763 5.32660e-18
9444.90910 5.38671e-18
9445.77056 5.44611e-18
9446.63202 5.27984e-18
9447.49348 5.11291e-18
9448.36496 4.81001e-18
9449.22642 4.50673e-18
9450.08788 4.21162e-18
9450.94935 3.91654e-18
9451.81081 3.72332e-18
9452.67227 3.53040e-18
9453.53373 3.47574e-18
9454.39520 3.42149e-18
9455.25666 3.51455e-18
9456.11812 3.60804e-18
9456.98960 3.82625e-18
9457.85106 4.04480e-18
9458.71252 4.32282e-18
9459.57398 4.60100e-18
9460.43545 4.80699e-18
9461.29691 5.01277e-18
9462.15837 5.06730e-18
9463.01983 5.12139e-18
9463.88129 5.08653e-18
9464.74276 5.05141e-18
9465.60422 4.99203e-18
9466.47570 4.93258e-18
9467.33716 4.88854e-18
9468.19862 4.84456e-18
9469.06008 4.84788e-18
9469.92155 4.85135e-18
9470.78301 4.85295e-18
9471.64447 4.85453e-18
9472.50593 4.80209e-18
9473.36739 4.74949e-18
9474.22885 4.67575e-18
9475.09032 4.60196e-18
9475.96180 4.55147e-18
9476.82326 4.50104e-18
9477.68472 4.56614e-18
9478.54618 4.63157e-18
9479.40764 4.91637e-18
9480.26911 5.20179e-18
9481.13057 5.59323e-18
9481.99203 5.98496e-18
9482.85349 6.26432e-18
9483.71495 6.54333e-18
9484.57642 6.59534e-18
9485.43788 6.64667e-18
9486.30936 6.43095e-18
9487.17082 6.21446e-18
9488.03228 5.81885e-18
9488.89374 5.42275e-18
9489.75520 5.07861e-18
9490.61667 4.73464e-18
9491.47813 4.58990e-18
9492.33959 4.44574e-18
9493.20105 4.49768e-18
9494.06252 4.55020e-18
9494.92398 4.79809e-18
9495.79546 5.04655e-18
9496.65692 5.52196e-18
9497.51838 5.99802e-18
9498.37984 6.65084e-18
9499.24130 7.30416e-18
9500.10277 7.87893e-18
9500.96423 8.45346e-18
9501.82569 8.72923e-18
9502.68715 9.00412e-18
9503.54861 8.94596e-18
9504.41008 8.88681e-18
9505.28155 8.51727e-18
9506.14302 8.14683e-18
9507.00448 7.65786e-18
9507.86594 7.16857e-18
9508.72740 6.78849e-18
9509.58887 6.40874e-18
9510.45033 6.15992e-18
9511.31179 5.91150e-18
9512.17325 5.74883e-18
9513.03471 5.58641e-18
9513.89617 5.55431e-18
9514.75764 5.52258e-18
9515.62912 5.68463e-18
9516.49058 5.84723e-18
9517.35204 6.18487e-18
9518.21350 6.52302e-18
9519.07496 6.97392e-18
9519.93643 7.42514e-18
9520.79789 7.87954e-18
9521.65935 8.33394e-18
9522.52081 8.64065e-18
9523.38227 8.94692e-18
9524.24374 9.05503e-18
9525.11522 9.16255e-18
9525.97668 9.15148e-18
9526.83814 9.14007e-18
9527.69960 9.08309e-18
9528.56106 9.02598e-18
9529.42252 8.98094e-18
9530.28399 8.93596e-18
9531.14545 8.93533e-18
9532.00691 8.93484e-18
9532.86837 8.92723e-18
9533.72984 8.91959e-18
9534.60131 8.86158e-18
9535.46278 8.80342e-18
9536.32424 8.68187e-18
9537.18570 8.56014e-18
9538.04716 8.38203e-18
9538.90862 8.20376e-18
9539.77009 8.13163e-18
9540.63155 8.05982e-18
9541.49301 8.24709e-18
9542.35447 8.43512e-18
9543.21593 8.77189e-18
9544.08741 9.10908e-18
9544.94888 9.43174e-18
9545.81034 9.75433e-18
9546.67180 9.90327e-18
9547.53326 1.00517e-17
9548.39472 9.86315e-18
9549.25619 9.67373e-18
9550.11765 9.33767e-18
9550.97911 9.00120e-18
9551.84057 8.89983e-18
9552.70203 8.79914e-18
9553.57351 8.95841e-18
9554.43497 9.11843e-18
9555.29644 9.31241e-18
9556.15790 9.50644e-18
9557.01936 9.58289e-18
9557.88082 9.65897e-18
9558.74228 9.51649e-18
9559.60375 9.37346e-18
9560.46521 9.07494e-18
9561.32667 8.77604e-18
9562.18813 8.66660e-18
9563.05961 8.55773e-18
9563.92107 8.81538e-18
9564.78254 9.07411e-18
9565.64400 9.51557e-18
9566.50546 9.95758e-18
9567.36692 1.03857e-17
9568.22838 1.08137e-17
9569.08985 1.09930e-17
9569.95131 1.11718e-17
9570.81277 1.09405e-17
9571.67423 1.07080e-17
9572.53569 1.02698e-17
9573.40717 9.83115e-18
9574.26863 9.42833e-18
9575.13010 9.02569e-18
9575.99156 8.82011e-18
9576.85302 8.61513e-18
9577.71448 8.73465e-18
9578.57594 8.85513e-18
9579.43741 9.09878e-18
9580.29887 9.34275e-18
9581.16033 9.41698e-18
9582.02179 9.49076e-18
9582.89327 9.35676e-18
9583.75473 9.22221e-18
9584.61620 8.93758e-18
9585.47766 8.65247e-18
9586.33912 8.42245e-18
9587.20058 8.19259e-18
9588.06204 8.32972e-18
9588.92351 8.46794e-18
9589.78497 8.93312e-18
9590.64643 9.39928e-18
9591.51791 9.83392e-18
9592.37937 1.02686e-17
9593.24083 1.04794e-17
9594.10229 1.06896e-17
9594.96376 1.06952e-17
9595.82522 1.07002e-17
9596.68668 1.05393e-17
9597.54814 1.03780e-17
9598.40960 1.01415e-17
9599.27107 9.90483e-18
9600.13253 9.69273e-18
9600.99399 9.48062e-18
9601.86547 9.37207e-18
9602.72693 9.26380e-18
9603.58839 9.31047e-18
9604.44986 9.35769e-18
9605.31132 9.55098e-18
9606.17278 9.74474e-18
9607.03424 1.00411e-17
9607.89570 1.03377e-17
9608.75717 1.05487e-17
9609.61863 1.07594e-17
9610.48009 1.07034e-17
9611.35157 1.06465e-17
9612.21303 1.04003e-17
9613.07449 1.01537e-17
9613.93595 9.86287e-18
9614.79742 9.57182e-18
9615.65888 9.33721e-18
9616.52034 9.10272e-18
9617.38180 9.00856e-18
9618.24326 8.91484e-18
9619.10473 8.98280e-18
9619.96619 9.05123e-18
9620.82765 9.25790e-18
9621.69913 9.46503e-18
9622.56059 9.73589e-18
9623.42205 1.00069e-17
9624.28352 1.02382e-17
9625.14498 1.04694e-17
9626.00644 1.05623e-17
9626.86790 1.06547e-17
9627.72936 1.05164e-17
9628.59083 1.03776e-17
9629.45229 1.00354e-17
9630.31375 9.69273e-18
9631.17521 9.34920e-18
9632.04669 9.00562e-18
9632.90815 8.81784e-18
9633.76961 8.63052e-18
9634.63108 8.65966e-18
9635.49254 8.68946e-18
9636.35400 8.92907e-18
9637.21546 9.16930e-18
9638.07692 9.39208e-18
9638.93839 9.61480e-18
9639.79985 9.63287e-18
9640.67133 9.65030e-18
9641.53279 9.58095e-18
9642.39425 9.51133e-18
9643.25571 9.49159e-18
9644.11718 9.47204e-18
9644.97864 9.53503e-18
9645.84010 9.59838e-18
9646.70156 9.75756e-18
9647.56302 9.91701e-18
9648.42448 1.00660e-17
9649.28595 1.02150e-17
9650.15743 1.02153e-17
9651.01889 1.02152e-17
9651.88035 1.00663e-17
9652.74181 9.91701e-18
9653.60327 9.68111e-18
9654.46474 9.44484e-18
9655.32620 9.20714e-18
9656.18766 8.96942e-18
9657.04912 8.82842e-18
9657.91058 8.68772e-18
9658.77205 8.69842e-18
9659.64352 8.70960e-18
9660.50499 8.88549e-18
9661.36645 9.06189e-18
9662.22791 9.34726e-18
9663.08937 9.63297e-18
9663.95083 9.88242e-18
9664.81230 1.01318e-17
9665.67376 1.02612e-17
9666.53522 1.03903e-17
9667.39668 1.04441e-17
9668.25815 1.04978e-17
9669.11961 1.05017e-17
9669.99109 1.05054e-17
9670.85255 1.04162e-17
9671.71401 1.03267e-17
9672.57547 1.01326e-17
9673.43693 9.93822e-18
9674.29840 9.71864e-18
9675.15986 9.49888e-18
9676.02132 9.33288e-18
9676.88278 9.16707e-18
9677.74424 9.10993e-18
9678.61572 9.05312e-18
9679.47718 9.14143e-18
9680.33865 9.23014e-18
9681.20011 9.39116e-18
9682.06157 9.55227e-18
9682.92303 9.68461e-18
9683.78449 9.81686e-18
9684.64596 9.89054e-18
9685.50742 9.96395e-18
9686.36888 9.97483e-18
9687.23034 9.98553e-18
9688.10182 9.94412e-18
9688.96328 9.90262e-18
9689.82475 9.83456e-18
9690.68621 9.76641e-18
9691.54767 9.67631e-18
9692.40913 9.58612e-18
9693.27059 9.46042e-18
9694.13206 9.33454e-18
9694.99352 9.19175e-18
9695.85498 9.04891e-18
9696.71644 8.93978e-18
9697.57790 8.83074e-18
9698.44938 8.78046e-18
9699.31084 8.73037e-18
9700.17231 8.72938e-18
9701.03377 8.72855e-18
9701.89523 8.75611e-18
9702.75669 8.78376e-18
9703.61816 8.79373e-18
9704.47962 8.80364e-18
9705.34108 8.76623e-18
9706.20254 8.72867e-18
9707.06400 8.67261e-18
9707.93548 8.61649e-18
9708.79694 8.57157e-18
9709.65841 8.52670e-18
9710.51987 8.50917e-18
9711.38133 8.49172e-18
9712.24279 8.51217e-18
9713.10425 8.53274e-18
9713.96572 8.56290e-18
9714.82718 8.59307e-18
9715.68864 8.59888e-18
9716.55010 8.60463e-18
9717.41156 8.57634e-18
9718.28304 8.54797e-18
9719.14451 8.48168e-18
9720.00597 8.41527e-18
9720.86743 8.34643e-18
9721.72889 8.27759e-18
9722.59035 8.26074e-18
9723.45182 8.24405e-18
9724.31328 8.25525e-18
9725.17474 8.26653e-18
9726.03620 8.23462e-18
9726.89766 8.20256e-18
9727.76914 8.10232e-18
9728.63060 8.00189e-18
9729.49207 7.84657e-18
9730.35353 7.69108e-18
9731.21499 7.51382e-18
9732.07645 7.33648e-18
9732.93791 7.19821e-18
9733.79938 7.06006e-18
9734.66084 6.99875e-18
9735.52230 6.93767e-18
9736.38376 6.94594e-18
9737.25524 6.95442e-18
9738.11670 7.01518e-18
9738.97817 7.07611e-18
9739.83963 7.15573e-18
9740.70109 7.23542e-18
9741.56255 7.30066e-18
9742.42401 7.36586e-18
9743.28548 7.39908e-18
9744.14694 7.43222e-18
9745.00840 7.42299e-18
9745.86986 7.41364e-18
9746.74134 7.37612e-18
9747.60280 7.33853e-18
9748.46426 7.29218e-18
9749.32573 7.24580e-18
9750.18719 7.19524e-18
9751.04865 7.14465e-18
9751.91011 7.09231e-18
9752.77157 7.03995e-18
9753.63304 6.98411e-18
9754.49450 6.92825e-18
9755.35596 6.86528e-18
9756.22744 6.80228e-18
9757.08890 6.74530e-18
9757.95036 6.68832e-18
9758.81183 6.65668e-18
9759.67329 6.62512e-18
9760.53475 6.63379e-18
9761.39621 6.64259e-18
9762.25767 6.70444e-18
9763.11913 6.76645e-18
9763.98060 6.86199e-18
9764.84206 6.95762e-18
9765.71354 7.03202e-18
9766.57500 7.10636e-18
9767.43646 7.13274e-18
9768.29792 7.15897e-18
9769.15939 7.15495e-18
9770.02085 7.15082e-18
9770.88231 7.13142e-18
9771.74377 7.11197e-18
9772.60523 7.08469e-18
9773.46670 7.05739e-18
9774.32816 7.03177e-18
9775.19964 7.00613e-18
9776.06110 6.98968e-18
9776.92256 6.97324e-18
9777.78402 6.97098e-18
9778.64548 6.96877e-18
9779.50695 6.98712e-18
9780.36841 7.00554e-18
9781.22987 7.04627e-18
9782.09133 7.08708e-18
9782.95280 7.11494e-18
9783.81426 7.14275e-18
9784.68574 7.11940e-18
9785.54720 7.09589e-18
9786.40866 7.03990e-18
9787.27012 6.98382e-18
9788.13158 6.93012e-18
9788.99305 6.87643e-18
9789.85451 6.83732e-18
9790.71597 6.79824e-18
9791.57743 6.77884e-18
9792.43889 6.75948e-18
9793.30036 6.74668e-18
9794.16182 6.73390e-18
9795.03330 6.70018e-18
9795.89476 6.66639e-18
9796.75622 6.61977e-18
9797.61768 6.57312e-18
9798.47915 6.55384e-18
9799.34061 6.53464e-18
9800.20207 6.55613e-18
9801.06353 6.57774e-18
9801.92499 6.62094e-18
9802.78645 6.66420e-18
9803.64792 6.70986e-18
9804.51940 6.75552e-18
9805.38086 6.78106e-18
9806.24232 6.80654e-18
9807.10378 6.80103e-18
9807.96524 6.79540e-18
9808.82671 6.78048e-18
9809.68817 6.76552e-18
9810.54963 6.76182e-18
9811.41109 6.75814e-18
9812.27255 6.77867e-18
9813.13402 6.79929e-18
9813.99548 6.85012e-18
9814.86696 6.90105e-18
9815.72842 6.94601e-18
9816.58988 6.99095e-18
9817.45134 6.99160e-18
9818.31280 6.99213e-18
9819.17427 6.95359e-18
9820.03573 6.91494e-18
9820.89719 6.85338e-18
9821.75865 6.79175e-18
9822.62012 6.73089e-18
9823.48158 6.67005e-18
9824.35306 6.63754e-18
9825.21452 6.60512e-18
9826.07598 6.59693e-18
9826.93744 6.58883e-18
9827.79890 6.58258e-18
9828.66037 6.57635e-18
9829.52183 6.56652e-18
9830.38329 6.55668e-18
9831.24475 6.54989e-18
9832.10621 6.54311e-18
9832.97769 6.53784e-18
9833.83915 6.53256e-18
9834.70062 6.52010e-18
9835.56208 6.50763e-18
9836.42354 6.48398e-18
9837.28500 6.46030e-18
9838.14647 6.42781e-18
9839.00793 6.39529e-18
9839.86939 6.35660e-18
9840.73085 6.31790e-18
9841.59231 6.27439e-18
9842.45377 6.23086e-18
9843.32525 6.18749e-18
9844.18672 6.14411e-18
9845.04818 6.11625e-18
9845.90964 6.08843e-18
9846.77110 6.08818e-18
9847.63256 6.08800e-18
9848.49403 6.11162e-18
9849.35549 6.13530e-18
9850.21695 6.17591e-18
9851.07841 6.21657e-18
9851.93987 6.26758e-18
9852.81135 6.31864e-18
9853.67282 6.37231e-18
9854.53428 6.42598e-18
9855.39574 6.47741e-18
9856.25720 6.52881e-18
9857.11866 6.57436e-18
9857.98013 6.61989e-18
9858.84159 6.64982e-18
9859.70305 6.67970e-18
9860.56451 6.68286e-18
9861.42597 6.68594e-18
9862.29745 6.66081e-18
9863.15891 6.63559e-18
9864.02038 6.58696e-18
9864.88184 6.53826e-18
9865.74330 6.47501e-18
9866.60476 6.41170e-18
9867.46622 6.34651e-18
9868.32769 6.28132e-18
9869.18915 6.22146e-18
9870.05061 6.16163e-18
9870.92209 6.10628e-18
9871.78355 6.05095e-18
9872.64501 6.00105e-18
9873.50648 5.95116e-18
9874.36794 5.91099e-18
9875.22940 5.87085e-18
9876.09086 5.84378e-18
9876.95232 5.81676e-18
9877.81379 5.80592e-18
9878.67525 5.79513e-18
9879.53671 5.80192e-18
9880.39817 5.80877e-18
9881.26965 5.83105e-18
9882.13111 5.85338e-18
9882.99257 5.88714e-18
9883.85404 5.92093e-18
9884.71550 5.95887e-18
9885.57696 5.99682e-18
9886.43842 6.03104e-18
9887.29988 6.06524e-18
9888.16135 6.08832e-18
9889.02281 6.11138e-18
9889.88427 6.11714e-18
9890.74573 6.12284e-18
9891.61721 6.11112e-18
9892.47867 6.09935e-18
9893.34014 6.07328e-18
9894.20160 6.04717e-18
9895.06306 6.01010e-18
9895.92452 5.97299e-18
9896.78598 5.92846e-18
9897.64745 5.88391e-18
9898.50891 5.83769e-18
9899.37037 5.79147e-18
9900.23183 5.75124e-18
9901.09329 5.71102e-18
9901.96477 5.67802e-18
9902.82623 5.64504e-18
9903.68770 5.61279e-18
9904.54916 5.58054e-18
9905.41062 5.55051e-18
9906.27208 5.52049e-18
9907.13354 5.50686e-18
9907.99501 5.49327e-18
9908.85647 5.50275e-18
9909.71793 5.51230e-18
9910.57939 5.53846e-18
9911.45087 5.56466e-18
9912.31233 5.59696e-18
9913.17380 5.62928e-18
9914.03526 5.64552e-18
9914.89672 5.66172e-18
9915.75818 5.64424e-18
9916.61964 5.62667e-18
9917.48111 5.58166e-18
9918.34257 5.53656e-18
9919.20403 5.47480e-18
9920.07551 5.41298e-18
9920.93697 5.34671e-18
9921.79843 5.28043e-18
9922.65989 5.22212e-18
9923.52136 5.16384e-18
9924.38282 5.11897e-18
9925.24428 5.07414e-18
9926.10574 5.04483e-18
9926.96720 5.01558e-18
9927.82867 4.99373e-18
9928.69013 4.97190e-18
9929.56161 4.94462e-18
9930.42307 4.91731e-18
9931.28453 4.88037e-18
9932.14599 4.84341e-18
9933.00746 4.79868e-18
9933.86892 4.75391e-18
9934.73038 4.70516e-18
9935.59184 4.65641e-18
9936.45330 4.60913e-18
9937.31477 4.56186e-18
9938.17623 4.52331e-18
9939.03769 4.48479e-18
9939.90917 4.46407e-18
9940.77063 4.44340e-18
9941.63209 4.44301e-18
9942.49355 4.44267e-18
9943.35502 4.45318e-18
9944.21648 4.46371e-18
9945.07794 4.47698e-18
9945.93940 4.49025e-18
9946.80086 4.50422e-18
9947.66233 4.51820e-18
9948.52379 4.53051e-18
9949.39527 4.54283e-18
9950.25673 4.54897e-18
9951.11819 4.55509e-18
9951.97965 4.55215e-18
9952.84112 4.54919e-18
9953.70258 4.54301e-18
9954.56404 4.53682e-18
9955.42550 4.53383e-18
9956.28696 4.53084e-18
9957.14843 4.52673e-18
9958.00989 4.52262e-18
9958.88137 4.51148e-18
9959.74283 4.50030e-18
9960.60429 4.47910e-18
9961.46575 4.45786e-18
9962.32721 4.42464e-18
9963.18868 4.39137e-18
9964.05014 4.35607e-18
9964.91160 4.32077e-18
9965.77306 4.30001e-18
9966.63452 4.27929e-18
9967.49599 4.27697e-18
9968.36747 4.27470e-18
9969.22893 4.28441e-18
9970.09039 4.29415e-18
9970.95185 4.31489e-18
9971.81331 4.33567e-18
9972.67477 4.37221e-18
9973.53624 4.40879e-18
9974.39770 4.45914e-18
9975.25916 4.50953e-18
9976.12062 4.56292e-18
9976.98208 4.61631e-18
9977.85356 4.66415e-18
9978.71503 4.71198e-18
9979.57649 4.75018e-18
9980.43795 4.78835e-18
9981.29941 4.81546e-18
9982.16087 4.84254e-18
9983.02234 4.86434e-18
9983.88380 4.88612e-18
9984.74526 4.90841e-18
9985.60672 4.93071e-18
9986.46818 4.95639e-18
9987.32965 4.98208e-18
9988.20112 5.01265e-18
9989.06259 5.04323e-18
9989.92405 5.06792e-18
9990.78551 5.09258e-18
9991.64697 5.09918e-18
9992.50843 5.10572e-18
9993.36990 5.10338e-18
9994.23136 5.10102e-18
9995.09282 5.10542e-18
9995.95428 5.10985e-18
9996.81574 5.11831e-18
9997.67721 5.12680e-18
9998.54869 5.12935e-18
9999.41015 5.13188e-18
