# wavelength flux
3719.99538 5.07290e-19
3721.50320 3.45375e-18
3723.00084 7.54558e-18
3724.49848 8.41302e-18
3725.99611 6.91994e-18
3727.50394 5.03749e-18
3729.00157 8.09332e-18
3730.49921 7.93182e-18
3731.99684 8.00472e-18
3733.50467 1.11481e-17
3735.00230 9.75944e-18
3736.49994 5.84283e-18
3737.99758 3.84635e-18
3739.49521 2.32254e-18
3741.00304 4.05687e-18
3742.50067 6.12282e-18
3743.99831 6.18348e-18
3745.49594 4.31434e-18
3747.00377 4.53247e-18
3748.50140 5.56663e-18
3749.99904 6.64474e-18
3751.49668 8.43830e-18
3753.00450 1.01243e-17
3754.50214 4.78477e-18
3755.99977 5.96669e-18
3757.49741 7.09013e-18
3758.99504 4.88718e-18
3760.50287 4.93819e-18
3762.00050 8.61991e-18
3763.49814 9.37699e-19
3764.99578 7.12914e-18
3766.50360 5.03469e-18
3768.00124 4.94761e-18
3769.49887 4.43623e-18
3770.99651 3.97791e-18
3772.50433 6.59232e-18
3774.00197 5.33405e-18
3775.49960 8.37848e-18
3776.99724 6.45106e-18
3778.49488 6.58572e-18
3780.00270 6.72038e-18
3781.50034 6.49998e-18
3782.99797 6.27957e-18
3784.49561 6.05919e-18
3786.00343 5.83888e-18
3787.50107 5.61856e-18
3788.99870 5.39826e-18
3790.49634 5.17803e-18
3792.00416 4.95779e-18
3793.50180 4.73761e-18
3794.99944 4.51743e-18
3796.49707 4.29727e-18
3798.00490 4.07718e-18
3799.50253 3.85707e-18
3801.00017 3.63700e-18
3802.49780 3.41698e-18
3803.99544 3.19696e-18
3805.50326 2.97700e-18
3807.00090 2.75703e-18
3808.49854 2.53709e-18
3809.99617 2.31721e-18
3811.50400 2.09732e-18
3813.00163 1.87746e-18
3814.49927 1.65766e-18
3815.99690 1.43784e-18
3817.50473 1.21809e-18
3819.00236 6.64993e-18
3820.50000 1.03039e-17
3821.99764 7.16344e-18
3823.49527 4.23942e-18
3825.00310 3.24480e-18
3826.50073 5.76196e-18
3827.99837 7.56844e-18
3829.49600 7.41194e-18
3831.00383 5.08930e-18
3832.50146 6.47624e-18
3833.99910 8.99209e-18
3835.49674 6.09744e-18
3837.00456 5.41860e-18
3838.50220 4.85711e-18
3839.99983 6.83954e-18
3841.49747 6.24566e-18
3842.99510 1.45452e-18
3844.50293 2.72454e-18
3846.00056 8.43682e-18
3847.49820 6.43915e-18
3848.99584 8.75636e-18
3850.50366 9.33138e-18
3852.00130 6.02373e-18
3853.49893 6.86827e-18
3854.99657 8.84686e-18
3856.50439 9.43049e-18
3858.00203 3.46889e-18
3859.49966 1.85992e-18
3860.99730 3.60275e-18
3862.49494 7.53065e-18
3864.00276 8.30699e-18
3865.50040 6.72018e-18
3866.99803 6.25476e-18
3868.49567 9.15015e-18
3870.00349 9.08776e-18
3871.50113 7.74833e-18
3872.99876 5.33030e-18
3874.49640 8.31753e-18
3876.00422 9.36284e-18
3877.50186 6.11187e-18
3878.99950 5.90590e-18
3880.49713 9.47993e-18
3881.99477 8.27892e-18
3883.50259 6.95378e-18
3885.00023 8.58257e-18
3886.49786 8.22718e-18
3887.99550 8.65338e-18
3889.50332 7.09420e-18
3891.00096 8.39708e-18
3892.49860 7.28228e-18
3893.99623 7.71223e-18
3895.50406 9.18939e-18
3897.00169 8.45805e-18
3898.49933 8.20449e-18
3899.99696 6.96486e-18
3901.50479 6.26545e-18
3903.00242 6.47156e-18
3904.50006 6.45249e-18
3905.99770 6.70784e-18
3907.49533 9.94121e-18
3909.00316 1.18449e-17
3910.50079 7.67497e-18
3911.99843 4.35615e-18
3913.49606 4.85182e-18
3915.00389 8.72186e-18
3916.50152 6.28727e-18
3917.99916 6.78375e-18
3919.49680 8.59567e-18
3921.00462 7.39661e-18
3922.50226 1.12473e-17
3923.99989 1.36097e-17
3925.49753 1.14350e-17
3926.99516 1.44764e-17
3928.50299 7.35022e-18
3930.00062 7.80573e-18
3931.49826 1.34296e-17
3932.99590 1.13379e-17
3934.50372 1.11674e-17
3936.00136 9.03304e-18
3937.49899 9.58906e-18
3938.99663 8.85126e-18
3940.50445 8.31099e-18
3942.00209 1.03172e-17
3943.49972 1.06792e-17
3944.99736 9.41151e-18
3946.49500 9.13033e-18
3948.00282 8.78957e-18
3949.50046 9.91135e-18
3950.99809 9.92059e-18
3952.49573 1.00586e-17
3954.00355 9.87899e-18
3955.50119 8.31343e-18
3956.99882 9.24835e-18
3958.49646 8.22454e-18
3960.00428 8.54288e-18
3961.50192 9.86116e-18
3962.99956 6.60272e-18
3964.49719 6.90494e-18
3965.99483 8.21964e-18
3967.50265 7.67175e-18
3969.00029 9.07129e-18
3970.49792 8.92805e-18
3971.99556 1.10095e-17
3973.50338 1.06190e-17
3975.00102 7.62524e-18
3976.49866 9.82856e-18
3977.99629 9.63806e-18
3979.50412 9.61905e-18
3981.00175 8.08340e-18
3982.49939 7.30513e-18
3983.99702 8.12620e-18
3985.50485 1.05064e-17
3987.00248 1.08040e-17
3988.50012 7.53668e-18
3989.99776 7.36837e-18
3991.49539 9.68955e-18
3993.00322 1.01173e-17
3994.50085 9.33838e-18
3995.99849 9.18958e-18
3997.49612 1.05440e-17
3999.00395 9.61032e-18
4000.50158 7.21091e-18
4001.99922 7.02411e-18
4003.49686 8.26912e-18
4005.00468 7.52483e-18
4006.50232 8.49517e-18
4007.99995 7.54689e-18
4009.49759 8.46177e-18
4010.99522 9.44548e-18
4012.50305 8.62800e-18
4014.00068 9.71965e-18
4015.49832 8.87063e-18
4016.99596 7.41862e-18
4018.50378 6.96515e-18
4020.00142 8.13657e-18
4021.49905 9.49907e-18
4022.99669 1.02064e-17
4024.50451 1.06718e-17
4026.00215 7.64840e-18
4027.49978 6.02456e-18
4028.99742 6.69427e-18
4030.49506 7.66526e-18
4032.00288 8.21025e-18
4033.50052 1.00764e-17
4034.99815 9.68058e-18
4036.49579 5.19063e-18
4038.00361 6.00489e-18
4039.50125 8.70225e-18
4040.99888 8.67276e-18
4042.49652 8.17150e-18
4044.00434 7.75721e-18
4045.50198 6.87367e-18
4046.99962 8.65334e-18
4048.49725 7.61472e-18
4049.99489 7.04397e-18
4051.50271 7.99649e-18
4053.00035 8.20779e-18
4054.49798 7.18441e-18
4055.99562 7.49497e-18
4057.50344 9.05950e-18
4059.00108 7.49730e-18
4060.49872 8.28959e-18
4061.99635 1.20662e-17
4063.50418 7.46430e-18
4065.00181 7.51257e-18
4066.49945 7.79144e-18
4067.99708 9.43625e-18
4069.50491 9.29448e-18
4071.00254 7.48510e-18
4072.50018 6.88757e-18
4073.99782 5.31344e-18
4075.49545 4.87931e-18
4077.00328 6.46865e-18
4078.50091 5.27184e-18
4079.99855 6.21343e-18
4081.49618 1.00718e-17
4083.00401 1.04665e-17
4084.50164 6.36638e-18
4085.99928 5.60929e-18
4087.49692 6.40223e-18
4089.00474 7.08139e-18
4090.50238 7.26484e-18
4092.00001 8.97624e-18
4093.49765 7.40335e-18
4094.99528 5.88363e-18
4096.50311 7.87775e-18
4098.00074 9.88831e-18
4099.49838 7.76805e-18
4100.99602 6.60182e-18
4102.50384 8.41722e-18
4104.00148 8.67576e-18
4105.49911 9.18892e-18
4106.99675 1.03927e-17
4108.50457 9.29554e-18
4110.00221 6.92413e-18
4111.49984 7.80376e-18
4112.99748 8.28005e-18
4114.49512 8.47681e-18
4116.00294 9.88238e-18
4117.50058 7.89352e-18
4118.99821 8.45643e-18
4120.49585 8.02456e-18
4122.00367 6.59910e-18
4123.50131 9.07668e-18
4124.99894 9.29631e-18
4126.49658 8.29647e-18
4128.00440 7.28872e-18
4129.50204 8.75918e-18
4130.99968 6.59284e-18
4132.49731 4.76221e-18
4133.99495 5.78704e-18
4135.50277 7.82134e-18
4137.00041 8.72574e-18
4138.49804 6.42538e-18
4139.99568 8.17116e-18
4141.50350 6.88547e-18
4143.00114 7.12465e-18
4144.49878 8.44797e-18
4145.99641 7.68251e-18
4147.50424 7.20527e-18
4149.00187 6.03679e-18
4150.49951 7.22622e-18
4151.99714 8.10507e-18
4153.49478 7.17612e-18
4155.00260 6.25481e-18
4156.50024 5.11942e-18
4157.99788 5.39294e-18
4159.49551 7.79026e-18
4161.00334 7.15002e-18
4162.50097 6.83991e-18
4163.99861 6.42947e-18
4165.49624 6.54520e-18
4167.00407 6.67684e-18
4168.50170 5.97355e-18
4169.99934 6.87881e-18
4171.49698 8.21996e-18
4173.00480 8.47342e-18
4174.50244 7.83495e-18
4176.00007 9.46943e-18
4177.49771 8.84485e-18
4178.99534 6.15378e-18
4180.50317 5.88537e-18
4182.00080 7.37027e-18
4183.49844 9.59385e-18
4184.99608 9.76019e-18
4186.50390 7.57354e-18
4188.00154 6.03738e-18
4189.49917 4.96724e-18
4190.99681 6.87696e-18
4192.50463 8.26700e-18
4194.00227 7.66122e-18
4195.49990 6.99718e-18
4196.99754 8.15839e-18
4198.49518 8.32193e-18
4200.00300 8.26360e-18
4201.50064 7.79004e-18
4202.99827 4.25755e-18
4204.49591 6.84879e-18
4206.00373 7.97789e-18
4207.50137 6.55190e-18
4208.99900 8.42705e-18
4210.49664 8.52046e-18
4212.00446 4.83301e-18
4213.50210 5.90031e-18
4214.99974 9.47904e-18
4216.49737 1.31693e-17
4218.00520 1.42803e-17
4219.50283 9.14621e-18
4221.00047 1.01109e-17
4222.49810 1.27232e-17
4223.99574 1.24776e-17
4225.50356 7.59459e-18
4227.00120 4.61239e-18
4228.49884 5.60950e-18
4229.99647 8.34499e-18
4231.50430 7.18776e-18
4233.00193 6.50299e-18
4234.49957 7.45524e-18
4235.99720 8.43789e-18
4237.50503 8.62994e-18
4239.00266 8.57436e-18
4240.50030 7.72278e-18
4241.99794 6.72701e-18
4243.49557 6.95072e-18
4245.00340 7.42275e-18
4246.50103 8.15552e-18
4247.99867 6.48298e-18
4249.49630 5.09581e-18
4251.00413 6.69909e-18
4252.50176 7.40766e-18
4253.99940 9.27462e-18
4255.49704 9.25341e-18
4257.00486 8.71091e-18
4258.50250 9.73157e-18
4260.00013 7.00850e-18
4261.49777 5.54758e-18
4262.99540 7.44327e-18
4264.50323 7.98338e-18
4266.00086 8.15475e-18
4267.49850 8.63006e-18
4268.99614 7.28160e-18
4270.50396 6.81706e-18
4272.00160 7.86345e-18
4273.49923 7.95039e-18
4274.99687 7.21182e-18
4276.50469 7.31772e-18
4278.00233 8.41117e-18
4279.49996 7.51513e-18
4280.99760 7.04573e-18
4282.49524 7.27945e-18
4284.00306 5.75991e-18
4285.50070 6.89622e-18
4286.99833 7.79321e-18
4288.49597 8.01102e-18
4290.00379 7.81827e-18
4291.50143 8.32321e-18
4292.99906 7.93625e-18
4294.49670 8.25046e-18
4296.00452 8.19674e-18
4297.50216 8.62968e-18
4298.99980 7.81754e-18
4300.49743 7.53365e-18
4301.99507 8.95438e-18
4303.50289 6.85991e-18
4305.00053 6.09722e-18
4306.49816 8.19191e-18
4307.99580 8.11296e-18
4309.50362 7.33026e-18
4311.00126 7.69132e-18
4312.49890 7.18674e-18
4313.99653 6.37481e-18
4315.50436 8.03174e-18
4317.00199 8.27159e-18
4318.49963 6.03480e-18
4319.99726 6.70068e-18
4321.49490 8.33397e-18
4323.00272 9.14076e-18
4324.50036 8.41320e-18
4325.99800 8.46648e-18
4327.49563 7.38066e-18
4329.00346 8.76768e-18
4330.50109 1.06474e-17
4331.99873 6.99661e-18
4333.49636 8.23725e-18
4335.00419 7.83537e-18
4336.50182 7.72504e-18
4337.99946 7.69002e-18
4339.49710 8.12974e-18
4341.00492 7.44682e-18
4342.50256 8.01214e-18
4344.00019 6.60934e-18
4345.49783 6.60305e-18
4346.99546 6.91657e-18
4348.50329 7.43671e-18
4350.00092 7.71200e-18
4351.49856 6.77659e-18
4352.99620 7.76146e-18
4354.50402 7.17200e-18
4356.00166 7.68371e-18
4357.49929 9.07329e-18
4358.99693 6.78935e-18
4360.50475 5.95244e-18
4362.00239 6.43142e-18
4363.50002 7.24218e-18
4364.99766 7.46242e-18
4366.49530 9.52938e-18
4368.00312 7.93975e-18
4369.50076 6.17112e-18
4370.99839 7.18844e-18
4372.49603 7.22217e-18
4374.00385 6.48772e-18
4375.50149 6.53365e-18
4376.99912 6.36880e-18
4378.49676 7.02520e-18
4380.00458 7.30760e-18
4381.50222 5.07506e-18
4382.99986 5.81312e-18
4384.49749 7.57965e-18
4385.99513 6.87358e-18
4387.50295 6.02769e-18
4389.00059 5.72467e-18
4390.49822 6.74768e-18
4391.99586 7.42384e-18
4393.50368 7.53461e-18
4395.00132 8.05346e-18
4396.49896 7.38423e-18
4397.99659 8.10866e-18
4399.50442 8.06996e-18
4401.00205 8.22921e-18
4402.49969 8.38845e-18
4403.99732 8.38801e-18
4405.50515 8.77632e-18
4407.00278 8.63134e-18
4408.50042 8.48635e-18
4409.99806 8.34138e-18
4411.49569 8.34093e-18
4413.00352 7.08488e-18
4414.50115 7.14836e-18
4415.99879 7.18866e-18
4417.49642 7.22894e-18
4419.00425 7.26921e-18
4420.50188 7.30949e-18
4421.99952 7.34976e-18
4423.49716 7.39002e-18
4425.00498 7.43029e-18
4426.50262 7.47054e-18
4428.00025 7.51079e-18
4429.49789 7.55104e-18
4430.99552 7.59128e-18
4432.50335 7.63151e-18
4434.00098 7.67174e-18
4435.49862 7.71198e-18
4436.99626 7.75220e-18
4438.50408 7.79241e-18
4440.00172 7.83263e-18
4441.49935 7.87284e-18
4442.99699 7.91304e-18
4444.50481 7.95325e-18
4446.00245 7.99344e-18
4447.50008 8.03362e-18
4448.99772 8.07382e-18
4450.49536 8.11399e-18
4452.00318 8.15417e-18
4453.50082 8.19435e-18
4454.99845 8.23451e-18
4456.49609 8.27466e-18
4458.00391 8.31482e-18
4459.50155 8.35498e-18
4460.99918 8.39512e-18
4462.49682 8.43526e-18
4464.00464 8.47541e-18
4465.50228 8.51554e-18
4466.99992 8.55566e-18
4468.49755 8.59579e-18
4469.99519 8.63591e-18
4471.50301 8.67602e-18
4473.00065 8.71614e-18
4474.49828 8.75624e-18
4475.99592 8.79633e-18
4477.50374 1.03550e-17
4479.00138 8.49760e-18
4480.49902 9.31243e-18
4481.99665 1.00779e-17
4483.50448 8.24159e-18
4485.00211 8.91404e-18
4486.49975 7.79491e-18
4487.99738 7.83131e-18
4489.49502 9.34623e-18
4491.00284 1.13416e-17
4492.50048 1.10385e-17
4493.99812 8.69932e-18
4495.49575 1.02993e-17
4497.00358 8.89472e-18
4498.50121 8.03394e-18
4499.99885 1.00398e-17
4501.49648 7.78533e-18
4503.00431 8.77958e-18
4504.50194 1.05027e-17
4505.99958 8.59157e-18
4507.49722 8.33052e-18
4508.99485 9.04965e-18
4510.50268 9.49411e-18
4512.00031 1.07515e-17
4513.49795 9.83903e-18
4514.99558 8.50913e-18
4516.50341 8.88722e-18
4518.00104 1.00407e-17
4519.49868 1.03201e-17
4520.99632 9.90021e-18
4522.50414 9.05350e-18
4524.00178 7.10340e-18
4525.49941 7.84633e-18
4526.99705 1.00677e-17
4528.50487 1.03899e-17
4530.00251 1.05557e-17
4531.50014 9.74474e-18
4532.99778 1.03222e-17
4534.49542 1.08312e-17
4536.00324 1.05400e-17
4537.50088 1.25243e-17
4538.99851 1.09812e-17
4540.49615 9.57851e-18
4542.00397 1.06511e-17
4543.50161 1.19972e-17
4544.99924 1.02933e-17
4546.49688 1.00478e-17
4548.00470 1.10179e-17
4549.50234 1.05086e-17
4550.99998 1.14338e-17
4552.49761 1.29313e-17
4553.99525 1.20127e-17
4555.50307 1.08645e-17
4557.00071 1.10649e-17
4558.49834 1.26687e-17
4559.99598 1.28837e-17
4561.50380 1.27516e-17
4563.00144 1.18315e-17
4564.49908 1.19595e-17
4565.99671 1.25571e-17
4567.50454 1.16164e-17
4569.00217 1.25411e-17
4570.49981 1.23684e-17
4571.99744 1.15200e-17
4573.49508 1.24534e-17
4575.00290 1.31045e-17
4576.50054 1.19506e-17
4577.99818 1.30885e-17
4579.49581 1.32152e-17
4581.00364 1.37439e-17
4582.50127 1.15785e-17
4583.99891 1.06113e-17
4585.49654 1.26627e-17
4587.00437 1.38670e-17
4588.50200 1.27740e-17
4589.99964 1.21081e-17
4591.49728 1.22116e-17
4593.00510 1.26659e-17
4594.50274 1.34448e-17
4596.00037 1.35648e-17
4597.49801 1.28291e-17
4598.99564 1.30387e-17
4600.50347 1.35367e-17
4602.00110 1.33086e-17
4603.49874 1.33602e-17
4604.99638 1.39911e-17
4606.50420 1.38861e-17
4608.00184 1.22901e-17
4609.49947 1.33314e-17
4610.99711 1.28414e-17
4612.50493 1.29946e-17
4614.00257 1.35506e-17
4615.50020 1.39605e-17
4616.99784 1.26172e-17
4618.49548 1.14912e-17
4620.00330 1.31693e-17
4621.50094 1.39273e-17
4622.99857 1.39324e-17
4624.49621 1.10465e-17
4626.00403 1.32385e-17
4627.50167 1.33153e-17
4628.99930 1.28545e-17
4630.49694 1.24240e-17
4632.00476 1.34307e-17
4633.50240 1.33098e-17
4635.00004 1.32375e-17
4636.49767 1.32405e-17
4637.99531 1.31851e-17
4639.50313 1.26971e-17
4641.00077 1.17813e-17
4642.49840 1.35046e-17
4643.99604 1.27844e-17
4645.50386 1.19820e-17
4647.00150 1.25291e-17
4648.49914 1.18657e-17
4649.99677 1.17052e-17
4651.50460 1.42446e-17
4653.00223 1.45975e-17
4654.49987 1.36402e-17
4655.99750 1.16357e-17
4657.49514 1.23743e-17
4659.00296 1.35154e-17
4660.50060 1.27274e-17
4661.99824 1.18662e-17
4663.49587 1.25925e-17
4665.00370 1.41694e-17
4666.50133 1.31779e-17
4667.99897 1.17936e-17
4669.49660 1.16633e-17
4671.00443 1.16820e-17
4672.50206 1.10413e-17
4673.99970 1.16339e-17
4675.49734 1.13462e-17
4676.99497 1.14469e-17
4678.50280 1.14410e-17
4680.00043 1.04419e-17
4681.49807 1.16758e-17
4682.99570 1.20485e-17
4684.50353 1.23504e-17
4686.00116 1.21175e-17
4687.49880 1.11756e-17
4688.99644 1.26766e-17
4690.50426 1.22198e-17
4692.00190 1.12835e-17
4693.49953 1.16781e-17
4694.99717 1.21348e-17
4696.49480 1.06899e-17
4698.00263 1.11245e-17
4699.50026 8.81979e-18
4700.99790 1.01795e-17
4702.49554 1.05404e-17
4704.00336 1.13930e-17
4705.50100 1.21709e-17
4706.99863 1.22649e-17
4708.49627 1.03342e-17
4710.00409 1.21911e-17
4711.50173 1.21683e-17
4712.99936 1.24792e-17
4714.49700 1.09648e-17
4716.00482 1.11831e-17
4717.50246 1.13863e-17
4719.00010 9.94747e-18
4720.49773 8.61635e-18
4721.99537 8.66732e-18
4723.50319 1.07554e-17
4725.00083 1.19735e-17
4726.49846 1.04470e-17
4727.99610 9.97138e-18
4729.50392 9.98648e-18
4731.00156 9.90631e-18
4732.49920 9.69644e-18
4733.99683 1.02493e-17
4735.50466 1.03323e-17
4737.00229 1.03706e-17
4738.49993 9.55865e-18
4739.99756 8.90079e-18
4741.49520 9.98844e-18
4743.00302 1.04351e-17
4744.50066 9.32658e-18
4745.99830 9.05246e-18
4747.49593 9.97802e-18
4749.00376 9.95044e-18
4750.50139 9.95939e-18
4751.99903 8.73250e-18
4753.49666 6.81111e-18
4755.00449 6.51006e-18
4756.50212 8.23436e-18
4757.99976 1.06793e-17
4759.49740 9.59631e-18
4761.00522 7.99947e-18
4762.50286 7.97399e-18
4764.00049 9.10234e-18
4765.49813 9.01302e-18
4766.99576 1.02630e-17
4768.50359 1.03888e-17
4770.00122 9.63058e-18
4771.49886 8.92054e-18
4772.99650 8.08407e-18
4774.50432 7.60891e-18
4776.00196 8.51774e-18
4777.49959 9.22662e-18
4778.99723 9.52737e-18
4780.50505 8.98163e-18
4782.00269 1.05308e-17
4783.50032 1.11283e-17
4784.99796 1.01566e-17
4786.49560 9.93792e-18
4788.00342 1.07360e-17
4789.50106 1.03916e-17
4790.99869 9.98492e-18
4792.49633 8.87339e-18
4794.00415 9.33342e-18
4795.50179 9.34530e-18
4796.99942 7.92320e-18
4798.49706 7.97070e-18
4800.00488 9.09575e-18
4801.50252 9.00971e-18
4803.00016 8.96183e-18
4804.49779 9.20194e-18
4805.99543 9.07314e-18
4807.50325 8.86278e-18
4809.00089 8.44115e-18
4810.49852 9.98031e-18
4811.99616 1.00676e-17
4813.50398 8.61470e-18
4815.00162 9.10263e-18
4816.49926 8.49179e-18
4817.99689 8.82664e-18
4819.50472 1.00289e-17
4821.00235 1.04666e-17
4822.49999 9.63227e-18
4823.99762 8.67469e-18
4825.49526 9.60618e-18
4827.00308 7.58023e-18
4828.50072 7.58212e-18
4829.99836 1.01466e-17
4831.49599 9.30893e-18
4833.00382 9.32820e-18
4834.50145 1.05007e-17
4835.99909 9.74356e-18
4837.49672 9.37752e-18
4839.00455 9.46191e-18
4840.50218 9.53227e-18
4841.99982 9.92264e-18
4843.49746 1.13132e-17
4844.99509 1.12221e-17
4846.50292 9.34189e-18
4848.00055 9.72767e-18
4849.49819 8.01687e-18
4850.99582 9.90799e-18
4852.50365 9.11478e-18
4854.00128 8.53555e-18
4855.49892 9.43958e-18
4856.99656 9.72401e-18
4858.50438 9.58032e-18
4860.00202 9.24018e-18
4861.49965 8.70908e-18
4862.99729 9.12097e-18
4864.49492 8.39328e-18
4866.00275 7.90223e-18
4867.50038 9.01733e-18
4868.99802 1.02450e-17
4870.49566 1.05564e-17
4872.00348 9.28437e-18
4873.50112 9.25238e-18
4874.99875 9.38414e-18
4876.49639 8.96508e-18
4878.00421 9.24115e-18
4879.50185 9.19657e-18
4880.99948 9.00480e-18
4882.49712 9.27630e-18
4884.00494 9.00026e-18
4885.50258 9.18920e-18
4887.00022 1.00060e-17
4888.49785 9.24613e-18
4889.99549 9.65020e-18
4891.50331 9.73278e-18
4893.00095 1.03300e-17
4894.49858 1.01678e-17
4895.99622 9.51014e-18
4897.50404 1.00770e-17
4899.00168 1.05906e-17
4900.49932 9.72641e-18
4901.99695 9.17271e-18
4903.50478 9.42722e-18
4905.00241 1.18512e-17
4906.50005 1.13039e-17
4907.99768 1.03613e-17
4909.49532 9.82133e-18
4911.00314 9.88466e-18
4912.50078 1.15696e-17
4913.99842 1.18218e-17
4915.49605 1.13332e-17
4917.00388 1.05925e-17
4918.50151 1.08377e-17
4919.99915 1.02561e-17
4921.49678 1.08665e-17
4923.00461 1.09191e-17
4924.50224 1.09136e-17
4925.99988 1.10590e-17
4927.49752 1.06042e-17
4928.99515 1.03613e-17
4930.50298 9.57525e-18
4932.00061 9.64276e-18
4933.49825 1.11065e-17
4934.99588 1.10364e-17
4936.50371 1.09663e-17
4938.00134 1.08963e-17
4939.49898 1.08262e-17
4940.99662 1.07562e-17
4942.50444 1.06861e-17
4944.00208 1.06161e-17
4945.49971 1.05461e-17
4946.99735 1.04761e-17
4948.50517 1.04061e-17
4950.00281 1.03361e-17
4951.50044 1.02661e-17
4952.99808 1.01961e-17
4954.49572 1.01262e-17
4956.00354 1.00562e-17
4957.50118 9.98627e-18
4958.99881 9.91632e-18
4960.49645 9.84639e-18
4962.00427 9.77648e-18
4963.50191 9.70654e-18
4964.99954 9.63665e-18
4966.49718 9.56675e-18
4968.00500 9.49685e-18
4969.50264 9.42697e-18
4971.00028 9.35711e-18
4972.49791 9.28723e-18
4973.99555 1.02266e-17
4975.50337 9.52839e-18
4977.00101 9.08462e-18
4978.49864 9.35723e-18
4979.99628 1.07815e-17
4981.50410 9.74573e-18
4983.00174 9.22408e-18
4984.49938 9.21700e-18
4985.99701 1.05878e-17
4987.50484 9.87246e-18
4989.00247 9.08648e-18
4990.50011 8.08436e-18
4991.99774 7.92985e-18
4993.49538 8.29210e-18
4995.00320 9.19595e-18
4996.50084 9.71397e-18
4997.99848 8.71673e-18
4999.49611 8.70248e-18
5001.00394 8.36506e-18
5002.50157 7.63343e-18
5003.99921 8.55376e-18
5005.49684 8.14347e-18
5007.00467 8.31030e-18
5008.50230 9.63047e-18
5009.99994 9.61873e-18
5011.49758 9.69516e-18
5012.99521 9.29345e-18
5014.50304 8.77961e-18
5016.00067 9.00497e-18
5017.49831 8.92558e-18
5018.99594 8.92882e-18
5020.50377 8.22601e-18
5022.00140 8.31518e-18
5023.49904 8.36768e-18
5024.99668 8.68141e-18
5026.50450 8.62619e-18
5028.00214 7.50538e-18
5029.49977 7.93241e-18
5030.99741 9.80591e-18
5032.49504 9.76982e-18
5034.00287 9.74493e-18
5035.50050 9.72003e-18
5036.99814 9.69514e-18
5038.49578 9.67025e-18
5040.00360 9.64536e-18
5041.50124 9.62048e-18
5042.99887 9.59560e-18
5044.49651 9.57072e-18
5046.00433 9.54584e-18
5047.50197 9.52097e-18
5048.99960 9.49611e-18
5050.49724 9.47124e-18
5051.99488 9.44638e-18
5053.50270 9.42152e-18
5055.00034 9.39666e-18
5056.49797 9.37181e-18
5057.99561 9.34696e-18
5059.50343 9.32211e-18
5061.00107 9.29727e-18
5062.49870 9.27243e-18
5063.99634 9.24759e-18
5065.50416 9.22276e-18
5067.00180 9.19793e-18
5068.49944 9.17310e-18
5069.99707 9.14827e-18
5071.50490 9.12345e-18
5073.00253 8.74022e-18
5074.50017 8.55884e-18
5075.99780 9.36061e-18
5077.49544 8.95682e-18
5079.00326 7.46212e-18
5080.50090 7.88865e-18
5081.99854 8.68100e-18
5083.49617 8.69608e-18
5085.00400 8.71115e-18
5086.50163 8.72622e-18
5087.99927 8.74130e-18
5089.49690 8.75637e-18
5091.00473 8.77143e-18
5092.50236 8.78650e-18
5094.00000 8.80157e-18
5095.49764 8.81663e-18
5096.99527 8.83169e-18
5098.50310 8.84676e-18
5100.00073 8.86182e-18
5101.49837 8.87688e-18
5102.99600 8.89194e-18
5104.50383 8.90699e-18
5106.00146 8.92204e-18
5107.49910 8.93710e-18
5108.99674 8.95215e-18
5110.50456 8.96720e-18
5112.00220 8.98225e-18
5113.49983 8.99730e-18
5114.99747 9.01234e-18
5116.49510 9.02739e-18
5118.00293 9.04243e-18
5119.50056 9.05747e-18
5120.99820 9.03812e-18
5122.49584 8.48006e-18
5124.00366 9.32286e-18
5125.50130 9.20884e-18
5126.99893 8.17905e-18
5128.49657 9.37775e-18
5130.00439 9.07188e-18
5131.50203 8.36574e-18
5132.99966 8.84389e-18
5134.49730 1.05727e-17
5136.00512 9.51352e-18
5137.50276 1.00201e-17
5139.00040 8.97884e-18
5140.49803 1.07273e-17
5141.99567 1.09178e-17
5143.50349 1.03619e-17
5145.00113 8.96982e-18
5146.49876 7.89563e-18
5147.99640 8.48944e-18
5149.50422 1.02977e-17
5151.00186 9.93488e-18
5152.49950 8.82722e-18
5153.99713 9.46687e-18
5155.50496 1.00158e-17
5157.00259 8.81345e-18
5158.50023 7.84975e-18
5159.99786 8.41740e-18
5161.49550 9.75934e-18
5163.00332 1.03706e-17
5164.50096 1.02069e-17
5165.99860 9.76996e-18
5167.49623 1.00843e-17
5169.00406 9.77537e-18
5170.50169 1.00293e-17
5171.99933 1.03219e-17
5173.49696 1.01740e-17
5175.00479 1.01180e-17
5176.50242 1.04395e-17
5178.00006 9.31413e-18
5179.49770 9.84406e-18
5180.99533 1.08685e-17
5182.50316 9.73837e-18
5184.00079 9.16006e-18
5185.49843 1.02855e-17
5186.99606 1.04245e-17
5188.50389 9.61994e-18
5190.00152 1.06201e-17
5191.49916 1.01283e-17
5192.99680 9.83336e-18
5194.50462 1.06079e-17
5196.00226 1.04979e-17
5197.49989 8.76516e-18
5198.99753 1.01805e-17
5200.49516 1.01502e-17
5202.00299 1.09161e-17
5203.50062 1.14067e-17
5204.99826 1.08470e-17
5206.49590 1.19565e-17
5208.00372 1.18015e-17
5209.50136 1.07659e-17
5210.99899 1.05509e-17
5212.49663 1.08129e-17
5214.00445 1.06743e-17
5215.50209 1.16141e-17
5216.99972 1.12536e-17
5218.49736 1.06338e-17
5219.99500 1.05298e-17
5221.50282 1.02692e-17
5223.00046 1.06133e-17
5224.49809 1.12838e-17
5225.99573 1.10343e-17
5227.50355 1.14674e-17
5229.00119 1.16894e-17
5230.49882 1.16062e-17
5231.99646 1.14493e-17
5233.50428 1.23867e-17
5235.00192 1.27755e-17
5236.49956 1.12299e-17
5237.99719 1.13412e-17
5239.49483 1.20514e-17
5241.00265 1.21407e-17
5242.50029 1.29778e-17
5243.99792 1.31403e-17
5245.49556 1.25283e-17
5247.00338 1.32258e-17
5248.50102 1.28467e-17
5249.99866 1.17242e-17
5251.49629 1.24572e-17
5253.00412 1.26792e-17
5254.50175 1.23754e-17
5255.99939 1.26849e-17
5257.49702 1.17237e-17
5259.00485 1.17820e-17
5260.50248 1.34753e-17
5262.00012 1.24133e-17
5263.49776 1.10931e-17
5264.99539 1.20639e-17
5266.50322 1.26122e-17
5268.00085 1.35635e-17
5269.49849 1.24976e-17
5270.99612 1.09920e-17
5272.50395 1.19124e-17
5274.00158 1.08295e-17
5275.49922 1.31089e-17
5276.99686 1.26859e-17
5278.50468 1.24476e-17
5280.00232 1.32337e-17
5281.49995 1.29566e-17
5282.99759 1.33725e-17
5284.49522 1.37821e-17
5286.00305 1.30381e-17
5287.50068 1.30433e-17
5288.99832 1.37290e-17
5290.49596 1.26490e-17
5292.00378 1.27269e-17
5293.50142 1.30951e-17
5294.99905 1.33562e-17
5296.49669 1.43743e-17
5298.00451 1.41368e-17
5299.50215 1.27008e-17
5300.99978 1.28645e-17
5302.49742 1.39435e-17
5303.99506 1.37924e-17
5305.50288 1.37169e-17
5307.00052 1.34525e-17
5308.49815 1.47001e-17
5309.99579 1.46631e-17
5311.50361 1.42530e-17
5313.00125 1.42358e-17
5314.49888 1.37950e-17
5315.99652 1.34907e-17
5317.50434 1.35041e-17
5319.00198 1.44788e-17
5320.49962 1.45931e-17
5321.99725 1.40860e-17
5323.50508 1.49041e-17
5325.00271 1.51056e-17
5326.50035 1.41656e-17
5327.99798 1.41726e-17
5329.49562 1.35234e-17
5331.00344 1.30374e-17
5332.50108 1.41005e-17
5333.99872 1.40950e-17
5335.49635 1.43306e-17
5337.00418 1.43390e-17
5338.50181 1.33117e-17
5339.99945 1.41760e-17
5341.49708 1.59809e-17
5343.00491 1.56669e-17
5344.50254 1.51047e-17
5346.00018 1.56873e-17
5347.49782 1.47517e-17
5348.99545 1.44429e-17
5350.50328 1.56122e-17
5352.00091 1.53604e-17
5353.49855 1.49973e-17
5354.99618 1.52576e-17
5356.50401 1.49845e-17
5358.00164 1.43496e-17
5359.49928 1.49361e-17
5360.99692 1.46555e-17
5362.50474 1.39039e-17
5364.00238 1.40409e-17
5365.50001 1.37403e-17
5366.99765 1.36725e-17
5368.49528 1.38187e-17
5370.00311 1.38065e-17
5371.50074 1.39448e-17
5372.99838 1.41791e-17
5374.49602 1.45275e-17
5376.00384 1.47822e-17
5377.50148 1.47984e-17
5378.99911 1.44355e-17
5380.49675 1.46170e-17
5382.00457 1.42643e-17
5383.50221 1.47688e-17
5384.99984 1.64462e-17
5386.49748 1.51795e-17
5387.99512 1.36741e-17
5389.50294 1.51322e-17
5391.00058 1.43139e-17
5392.49821 1.44874e-17
5393.99585 1.60123e-17
5395.50367 1.50427e-17
5397.00131 1.52968e-17
5398.49894 1.45013e-17
5399.99658 1.46151e-17
5401.50440 1.62985e-17
5403.00204 1.57837e-17
5404.49968 1.63847e-17
5405.99731 1.65787e-17
5407.49495 1.59790e-17
5409.00277 1.53543e-17
5410.50041 1.36930e-17
5411.99804 1.47626e-17
5413.49568 1.52016e-17
5415.00350 1.43752e-17
5416.50114 1.66921e-17
5417.99878 1.57115e-17
5419.49641 1.48677e-17
5421.00424 1.53792e-17
5422.50187 1.63289e-17
5423.99951 1.64931e-17
5425.49714 1.54752e-17
5426.99478 1.59359e-17
5428.50260 1.56848e-17
5430.00024 1.49485e-17
5431.49788 1.60853e-17
5432.99551 1.65646e-17
5434.50334 1.61050e-17
5436.00097 1.67819e-17
5437.49861 1.74600e-17
5438.99624 1.64304e-17
5440.50407 1.54098e-17
5442.00170 1.62327e-17
5443.49934 1.64492e-17
5444.99698 1.58280e-17
5446.50480 1.55629e-17
5448.00244 1.59085e-17
5449.50007 1.61780e-17
5450.99771 1.67676e-17
5452.49534 1.74308e-17
5454.00317 1.65506e-17
5455.50080 1.68850e-17
5456.99844 1.66599e-17
5458.49608 1.66000e-17
5460.00390 1.64800e-17
5461.50154 1.72601e-17
5462.99917 1.69532e-17
5464.49681 1.67532e-17
5466.00463 1.60263e-17
5467.50227 1.58427e-17
5468.99990 1.42023e-17
5470.49754 1.64951e-17
5471.99518 1.80124e-17
5473.50300 1.76994e-17
5475.00064 1.73229e-17
5476.49827 1.81620e-17
5477.99591 1.73677e-17
5479.50373 1.81441e-17
5481.00137 1.77880e-17
5482.49900 1.93833e-17
5483.99664 1.78251e-17
5485.50446 1.68628e-17
5487.00210 1.82942e-17
5488.49974 1.77261e-17
5489.99737 1.76085e-17
5491.49501 1.80421e-17
5493.00283 1.85192e-17
5494.50047 1.88960e-17
5495.99810 1.87935e-17
5497.49574 1.74343e-17
5499.00356 1.69818e-17
5500.50120 1.85959e-17
5501.99884 1.84866e-17
5503.49647 1.80618e-17
5505.00430 1.74077e-17
5506.50193 1.83321e-17
5507.99957 1.87796e-17
5509.49720 1.85645e-17
5511.00503 1.73516e-17
5512.50266 1.79001e-17
5514.00030 1.96618e-17
5515.49794 1.96524e-17
5516.99557 1.86360e-17
5518.50340 1.82804e-17
5520.00103 1.98352e-17
5521.49867 1.98920e-17
5522.99630 1.92122e-17
5524.50413 1.93177e-17
5526.00176 1.92876e-17
5527.49940 1.91417e-17
5528.99704 1.84709e-17
5530.50486 1.88955e-17
5532.00250 2.01153e-17
5533.50013 1.92126e-17
5534.99777 1.93578e-17
5536.49540 1.95891e-17
5538.00323 1.91398e-17
5539.50086 1.94548e-17
5540.99850 1.79047e-17
5542.49614 1.81797e-17
5544.00396 1.89903e-17
5545.50160 1.93757e-17
5546.99923 1.92276e-17
5548.49687 1.93652e-17
5550.00469 1.96727e-17
5551.50233 1.87468e-17
5552.99996 1.84288e-17
5554.49760 1.83961e-17
5555.99524 1.89346e-17
5557.50306 1.91953e-17
5559.00070 1.97611e-17
5560.49833 1.84487e-17
5561.99597 1.84293e-17
5563.50379 1.87223e-17
5565.00143 1.74842e-17
5566.49906 1.78132e-17
5567.99670 1.96466e-17
5569.50452 2.00158e-17
5571.00216 1.87211e-17
5572.49980 1.72062e-17
5573.99743 1.75427e-17
5575.49507 1.85444e-17
5577.00289 1.70466e-17
5578.50053 1.86016e-17
5579.99816 1.94505e-17
5581.49580 1.81691e-17
5583.00362 1.75664e-17
5584.50126 1.73276e-17
5585.99890 1.73992e-17
5587.49653 1.74645e-17
5589.00436 1.84975e-17
5590.50199 1.85965e-17
5591.99963 1.77622e-17
5593.49726 1.76950e-17
5594.99490 1.81912e-17
5596.50272 1.81319e-17
5598.00036 1.72480e-17
5599.49800 1.76352e-17
5600.99563 1.86826e-17
5602.50346 1.74058e-17
5604.00109 1.62521e-17
5605.49873 1.69701e-17
5606.99636 1.77372e-17
5608.50419 1.75240e-17
5610.00182 1.67734e-17
5611.49946 1.64424e-17
5612.99710 1.65055e-17
5614.50492 1.62736e-17
5616.00256 1.73195e-17
5617.50019 1.71906e-17
5618.99783 1.64578e-17
5620.49546 1.73308e-17
5622.00329 1.78468e-17
5623.50092 1.74018e-17
5624.99856 1.73666e-17
5626.49620 1.64947e-17
5628.00402 1.62043e-17
5629.50166 1.61254e-17
5630.99929 1.68823e-17
5632.49693 1.77628e-17
5634.00475 1.79074e-17
5635.50239 1.67316e-17
5637.00002 1.65119e-17
5638.49766 1.63859e-17
5639.99530 1.66346e-17
5641.50312 1.75690e-17
5643.00076 1.65448e-17
5644.49839 1.64882e-17
5645.99603 1.69902e-17
5647.50385 1.69008e-17
5649.00149 1.70283e-17
5650.49912 1.65491e-17
5651.99676 1.67581e-17
5653.50458 1.73209e-17
5655.00222 1.61767e-17
5656.49986 1.56023e-17
5657.99749 1.61442e-17
5659.49513 1.61727e-17
5661.00295 1.65342e-17
5662.50059 1.55877e-17
5663.99822 1.47194e-17
5665.49586 1.55513e-17
5667.00368 1.64586e-17
5668.50132 1.66840e-17
5669.99896 1.59469e-17
5671.49659 1.50123e-17
5673.00442 1.52164e-17
5674.50205 1.51736e-17
5675.99969 1.59501e-17
5677.49732 1.50138e-17
5679.00515 1.30478e-17
5680.50278 1.43721e-17
5682.00042 1.53829e-17
5683.49806 1.51137e-17
5684.99569 1.41038e-17
5686.50352 1.43683e-17
5688.00115 1.51804e-17
5689.49879 1.53476e-17
5690.99642 1.41885e-17
5692.50425 1.53304e-17
5694.00188 1.47302e-17
5695.49952 1.40433e-17
5696.99716 1.42429e-17
5698.50498 1.34528e-17
5700.00262 1.50964e-17
5701.50025 1.48799e-17
5702.99789 1.44805e-17
5704.49552 1.52797e-17
5706.00335 1.36134e-17
5707.50098 1.33381e-17
5708.99862 1.31676e-17
5710.49626 1.42634e-17
5712.00408 1.50395e-17
5713.50172 1.51166e-17
5714.99935 1.39226e-17
5716.49699 1.36562e-17
5718.00481 1.44873e-17
5719.50245 1.40931e-17
5721.00008 1.26735e-17
5722.49772 1.41359e-17
5723.99536 1.46744e-17
5725.50318 1.37868e-17
5727.00082 1.42999e-17
5728.49845 1.48850e-17
5729.99609 1.48744e-17
5731.50391 1.42533e-17
5733.00155 1.42487e-17
5734.49918 1.40912e-17
5735.99682 1.45763e-17
5737.50464 1.33600e-17
5739.00228 1.26314e-17
5740.49992 1.33153e-17
5741.99755 1.25221e-17
5743.49519 1.20998e-17
5745.00301 1.25023e-17
5746.50065 1.31131e-17
5747.99828 1.34202e-17
5749.49592 1.34712e-17
5751.00374 1.31816e-17
5752.50138 1.34725e-17
5753.99902 1.32672e-17
5755.49665 1.30041e-17
5757.00448 1.23173e-17
5758.50211 1.23222e-17
5759.99975 1.22945e-17
5761.49738 1.15957e-17
5762.99502 1.36332e-17
5764.50284 1.37062e-17
5766.00048 1.33634e-17
5767.49812 1.30550e-17
5768.99575 1.24399e-17
5770.50358 1.23611e-17
5772.00121 1.08723e-17
5773.49885 1.23186e-17
5774.99648 1.36894e-17
5776.50431 1.29624e-17
5778.00194 1.33546e-17
5779.49958 1.32301e-17
5780.99722 1.24027e-17
5782.49485 1.15633e-17
5784.00268 1.23009e-17
5785.50031 1.28068e-17
5786.99795 1.33789e-17
5788.49558 1.32531e-17
5790.00341 1.34802e-17
5791.50104 1.29206e-17
5792.99868 1.20298e-17
5794.49632 1.21357e-17
5796.00414 1.27699e-17
5797.50178 1.34930e-17
5798.99941 1.33853e-17
5800.49705 1.28707e-17
5802.00487 1.27123e-17
5803.50251 1.22515e-17
5805.00014 1.21217e-17
5806.49778 1.21525e-17
5807.99542 1.19579e-17
5809.50324 1.27866e-17
5811.00088 1.28677e-17
5812.49851 1.33950e-17
5813.99615 1.32030e-17
5815.50397 1.32425e-17
5817.00161 1.28976e-17
5818.49924 1.26440e-17
5819.99688 1.34548e-17
5821.50470 1.26295e-17
5823.00234 1.22409e-17
5824.49998 1.27250e-17
5825.99761 1.38935e-17
5827.49525 1.31340e-17
5829.00307 1.23694e-17
5830.50071 1.33827e-17
5831.99834 1.31958e-17
5833.49598 1.29272e-17
5835.00380 1.29104e-17
5836.50144 1.27282e-17
5837.99908 1.39363e-17
5839.49671 1.41955e-17
5841.00454 1.33039e-17
5842.50217 1.41094e-17
5843.99981 1.46330e-17
5845.49744 1.41023e-17
5846.99508 1.44397e-17
5848.50290 1.30146e-17
5850.00054 1.35501e-17
5851.49818 1.45782e-17
5852.99581 1.47105e-17
5854.50364 1.39281e-17
5856.00127 1.36953e-17
5857.49891 1.43618e-17
5858.99654 1.45676e-17
5860.50437 1.52840e-17
5862.00200 1.51569e-17
5863.49964 1.48249e-17
5864.99728 1.43921e-17
5866.50510 1.36477e-17
5868.00274 1.36075e-17
5869.50037 1.34816e-17
5870.99801 1.37340e-17
5872.49564 1.36884e-17
5874.00347 1.37829e-17
5875.50110 1.36769e-17
5876.99874 1.28889e-17
5878.49638 1.28067e-17
5880.00420 1.25506e-17
5881.50184 1.30724e-17
5882.99947 1.42571e-17
5884.49711 1.35760e-17
5886.00493 1.25587e-17
5887.50257 1.29766e-17
5889.00020 1.38248e-17
5890.49784 1.38145e-17
5891.99548 1.35283e-17
5893.50330 1.34516e-17
5895.00094 1.33253e-17
5896.49857 1.45492e-17
5897.99621 1.47865e-17
5899.50403 1.38281e-17
5901.00167 1.39523e-17
5902.49930 1.36269e-17
5903.99694 1.35687e-17
5905.50476 1.40467e-17
5907.00240 1.41685e-17
5908.50004 1.27271e-17
5909.99767 1.34020e-17
5911.49531 1.41078e-17
5913.00313 1.32168e-17
5914.50077 1.28968e-17
5915.99840 1.25433e-17
5917.49604 1.37334e-17
5919.00386 1.34550e-17
5920.50150 1.27553e-17
5921.99914 1.30973e-17
5923.49677 1.36807e-17
5925.00460 1.35613e-17
5926.50223 1.32069e-17
5927.99987 1.39937e-17
5929.49750 1.37985e-17
5930.99514 1.31102e-17
5932.50296 1.31646e-17
5934.00060 1.42589e-17
5935.49824 1.43521e-17
5936.99587 1.37565e-17
5938.50370 1.31627e-17
5940.00133 1.34914e-17
5941.49897 1.37497e-17
5942.99660 1.26499e-17
5944.50443 1.28662e-17
5946.00206 1.31257e-17
5947.49970 1.40051e-17
5948.99734 1.48306e-17
5950.49497 1.40576e-17
5952.00280 1.31647e-17
5953.50043 1.34229e-17
5954.99807 1.35275e-17
5956.49570 1.34779e-17
5958.00353 1.34283e-17
5959.50116 1.33787e-17
5960.99880 1.33292e-17
5962.49644 1.32796e-17
5964.00426 1.32300e-17
5965.50190 1.31805e-17
5966.99953 1.31309e-17
5968.49717 1.30813e-17
5969.99480 1.30318e-17
5971.50263 1.29823e-17
5973.00026 1.29327e-17
5974.49790 1.28832e-17
5975.99554 1.28336e-17
5977.50336 1.27841e-17
5979.00100 1.27346e-17
5980.49863 1.26850e-17
5981.99627 1.26355e-17
5983.50409 1.25860e-17
5985.00173 1.25365e-17
5986.49936 1.24870e-17
5987.99700 1.24375e-17
5989.50482 1.23880e-17
5991.00246 1.23385e-17
5992.50010 1.22890e-17
5993.99773 1.22395e-17
5995.49537 1.21900e-17
5997.00319 1.21405e-17
5998.50083 1.20910e-17
5999.99846 1.20415e-17
6001.49610 1.19921e-17
6003.00392 1.19426e-17
6004.50156 1.18931e-17
6005.99920 1.18437e-17
6007.49683 1.17942e-17
6009.00466 1.17448e-17
6010.50229 1.16953e-17
6011.99993 1.16458e-17
6013.49756 1.15964e-17
6014.99520 1.15470e-17
6016.50302 1.14975e-17
6018.00066 1.14481e-17
6019.49830 1.11955e-17
6020.99593 1.20237e-17
6022.50376 1.23470e-17
6024.00139 1.20008e-17
6025.49903 1.13403e-17
6026.99666 1.12274e-17
6028.50449 1.22526e-17
6030.00212 1.21922e-17
6031.49976 1.20937e-17
6032.99740 1.13397e-17
6034.49503 1.14810e-17
6036.00286 1.23101e-17
6037.50049 1.24634e-17
6038.99813 1.24715e-17
6040.49576 1.15392e-17
6042.00359 1.13698e-17
6043.50122 1.11778e-17
6044.99886 1.15808e-17
6046.49650 1.27870e-17
6048.00432 1.24329e-17
6049.50196 1.29459e-17
6050.99959 1.31418e-17
6052.49723 1.20116e-17
6054.00505 1.25168e-17
6055.50269 1.19335e-17
6057.00032 1.11382e-17
6058.49796 1.14113e-17
6059.99560 1.14593e-17
6061.50342 1.21076e-17
6063.00106 1.22409e-17
6064.49869 1.17063e-17
6065.99633 1.22832e-17
6067.50415 1.24026e-17
6069.00179 1.22271e-17
6070.49942 1.32849e-17
6071.99706 1.27942e-17
6073.50488 1.14671e-17
6075.00252 1.14064e-17
6076.50016 1.19101e-17
6077.99779 1.14217e-17
6079.49543 1.07979e-17
6081.00325 1.08742e-17
6082.50089 1.14864e-17
6083.99852 1.24953e-17
6085.49616 1.16835e-17
6087.00398 1.05506e-17
6088.50162 1.11780e-17
6089.99926 1.22430e-17
6091.49689 1.15566e-17
6093.00472 1.02882e-17
6094.50235 1.12267e-17
6095.99999 1.21822e-17
6097.49762 1.14294e-17
6098.99526 1.14520e-17
6100.50308 1.24304e-17
6102.00072 1.22480e-17
6103.49836 1.19377e-17
6104.99599 1.23910e-17
6106.50382 1.12977e-17
6108.00145 1.08458e-17
6109.49909 9.97806e-18
6110.99672 1.02010e-17
6112.50455 1.17899e-17
6114.00218 1.16113e-17
6115.49982 1.23229e-17
6116.99746 1.15657e-17
6118.49509 1.12350e-17
6120.00292 1.24991e-17
6121.50055 1.16938e-17
6122.99819 1.12335e-17
6124.49582 1.17751e-17
6126.00365 1.23384e-17
6127.50128 1.26826e-17
6128.99892 1.15309e-17
6130.49656 1.18377e-17
6132.00438 1.20806e-17
6133.50202 1.24829e-17
6134.99965 1.24803e-17
6136.49729 1.26284e-17
6137.99492 1.31392e-17
6139.50275 1.28297e-17
6141.00038 1.25646e-17
6142.49802 1.26348e-17
6143.99566 1.20828e-17
6145.50348 1.23655e-17
6147.00112 1.34007e-17
6148.49875 1.25900e-17
6149.99639 1.21223e-17
6151.50421 1.20234e-17
6153.00185 1.24191e-17
6154.49948 1.29936e-17
6155.99712 1.27854e-17
6157.50494 1.26560e-17
6159.00258 1.18723e-17
6160.50022 1.17041e-17
6161.99785 1.23902e-17
6163.49549 1.27463e-17
6165.00331 1.35228e-17
6166.50095 1.31004e-17
6167.99858 1.25347e-17
6169.49622 1.21913e-17
6171.00404 1.19672e-17
6172.50168 1.27761e-17
6173.99932 1.21020e-17
6175.49695 1.23482e-17
6177.00478 1.23115e-17
6178.50241 1.18614e-17
6180.00005 1.25873e-17
6181.49768 1.21088e-17
6182.99532 1.26918e-17
6184.50314 1.30196e-17
6186.00078 1.20209e-17
6187.49842 1.34590e-17
6188.99605 1.20839e-17
6190.50388 1.16141e-17
6192.00151 1.24555e-17
6193.49915 1.18292e-17
6194.99678 1.10288e-17
6196.50461 1.16668e-17
6198.00224 1.31910e-17
6199.49988 1.28615e-17
6200.99752 1.21526e-17
6202.49515 1.30114e-17
6204.00298 1.30045e-17
6205.50061 1.27248e-17
6206.99825 1.24522e-17
6208.49588 1.21289e-17
6210.00371 1.32324e-17
6211.50134 1.29279e-17
6212.99898 1.22358e-17
6214.49662 1.26173e-17
6216.00444 1.23619e-17
6217.50208 1.16104e-17
6218.99971 1.20518e-17
6220.49735 1.18592e-17
6221.99498 1.13720e-17
6223.50281 1.12595e-17
6225.00044 1.14383e-17
6226.49808 1.22070e-17
6227.99572 1.24820e-17
6229.50354 1.16716e-17
6231.00118 1.13949e-17
6232.49881 1.09338e-17
6233.99645 1.09699e-17
6235.50427 1.21162e-17
6237.00191 1.18818e-17
6238.49954 1.11731e-17
6239.99718 1.17081e-17
6241.50500 1.19442e-17
6243.00264 1.08176e-17
6244.50028 1.08934e-17
6245.99791 1.10295e-17
6247.49555 1.06163e-17
6249.00337 1.03637e-17
6250.50101 1.04293e-17
6251.99864 1.08373e-17
6253.49628 1.08342e-17
6255.00410 1.14648e-17
6256.50174 1.16621e-17
6257.99938 1.08454e-17
6259.49701 1.13690e-17
6261.00484 1.04094e-17
6262.50247 1.08591e-17
6264.00011 1.20420e-17
6265.49774 1.09071e-17
6266.99538 1.04238e-17
6268.50320 1.11530e-17
6270.00084 1.08454e-17
6271.49848 1.08840e-17
6272.99611 1.11616e-17
6274.50394 1.12808e-17
6276.00157 1.08347e-17
6277.49921 9.40697e-18
6278.99684 9.55027e-18
6280.50467 1.01283e-17
6282.00230 1.02627e-17
6283.49994 1.11180e-17
6284.99758 1.06627e-17
6286.49521 9.76937e-18
6288.00304 1.05322e-17
6289.50067 1.15232e-17
6290.99831 1.08050e-17
6292.49594 1.01084e-17
6294.00377 1.01438e-17
6295.50140 1.10441e-17
6296.99904 1.20409e-17
6298.49668 1.18870e-17
6300.00450 1.11440e-17
6301.50214 1.12266e-17
6302.99977 1.12066e-17
6304.49741 1.10280e-17
6305.99504 1.07158e-17
6307.50287 1.03122e-17
6309.00050 1.04118e-17
6310.49814 9.99360e-18
6311.99578 9.93487e-18
6313.50360 1.13141e-17
6315.00124 1.18315e-17
6316.49887 1.05854e-17
6317.99651 9.46426e-18
6319.50433 1.00152e-17
6321.00197 1.06774e-17
6322.49960 1.07998e-17
6323.99724 1.05645e-17
6325.49488 1.06485e-17
6327.00270 1.12697e-17
6328.50034 1.04944e-17
6329.99797 1.06067e-17
6331.49561 1.03169e-17
6333.00343 1.06595e-17
6334.50107 1.14453e-17
6335.99870 1.05844e-17
6337.49634 1.10065e-17
6339.00416 1.06589e-17
6340.50180 1.03828e-17
6341.99944 1.00212e-17
6343.49707 9.71746e-18
6345.00490 1.06147e-17
6346.50253 1.11289e-17
6348.00017 1.04044e-17
6349.49780 1.13966e-17
6350.99544 1.21663e-17
6352.50326 1.13546e-17
6354.00090 1.11341e-17
6355.49854 1.01419e-17
6356.99617 1.01186e-17
6358.50400 1.02193e-17
6360.00163 1.07340e-17
6361.49927 1.17120e-17
6362.99690 1.12754e-17
6364.50473 1.09848e-17
6366.00236 1.14918e-17
6367.50000 1.12192e-17
6368.99764 9.97144e-18
6370.49527 1.07012e-17
6372.00310 1.16113e-17
6373.50073 1.10799e-17
6374.99837 1.04490e-17
6376.49600 1.06676e-17
6378.00383 1.08752e-17
6379.50146 1.17686e-17
6380.99910 1.23669e-17
6382.49674 1.16748e-17
6384.00456 1.19435e-17
6385.50220 1.19432e-17
6386.99983 1.10237e-17
6388.49747 1.15757e-17
6389.99510 1.15834e-17
6391.50293 1.13161e-17
6393.00056 1.12529e-17
6394.49820 1.23989e-17
6395.99584 1.20307e-17
6397.50366 1.23806e-17
6399.00130 1.17443e-17
6400.49893 1.17240e-17
6401.99657 1.17880e-17
6403.50439 1.20960e-17
6405.00203 1.13415e-17
6406.49966 1.17767e-17
6407.99730 1.15871e-17
6409.49494 1.27266e-17
6411.00276 1.29284e-17
6412.50040 1.21729e-17
6413.99803 1.29823e-17
6415.49567 1.29635e-17
6417.00349 1.29788e-17
6418.50113 1.32473e-17
6419.99876 1.29271e-17
6421.49640 1.33314e-17
6423.00422 1.36653e-17
6424.50186 1.33453e-17
6425.99950 1.25408e-17
6427.49713 1.29576e-17
6429.00496 1.30823e-17
6430.50259 1.21971e-17
6432.00023 1.22179e-17
6433.49786 1.33213e-17
6434.99550 1.29642e-17
6436.50332 1.27367e-17
6438.00096 1.25243e-17
6439.49860 1.26234e-17
6440.99623 1.28685e-17
6442.50406 1.27800e-17
6444.00169 1.23750e-17
6445.49933 1.34265e-17
6446.99696 1.44044e-17
6448.50479 1.34522e-17
6450.00242 1.33903e-17
6451.50006 1.37795e-17
6452.99770 1.36801e-17
6454.49533 1.37197e-17
6456.00316 1.29316e-17
6457.50079 1.28462e-17
6458.99843 1.37008e-17
6460.49606 1.32940e-17
6462.00389 1.37523e-17
6463.50152 1.40454e-17
6464.99916 1.40594e-17
6466.49680 1.40118e-17
6468.00462 1.32280e-17
6469.50226 1.37909e-17
6470.99989 1.41776e-17
6472.49753 1.43023e-17
6473.99516 1.33141e-17
6475.50299 1.29025e-17
6477.00062 1.35998e-17
6478.49826 1.29652e-17
6479.99590 1.42325e-17
6481.50372 1.46377e-17
6483.00136 1.34935e-17
6484.49899 1.42141e-17
6485.99663 1.42653e-17
6487.50445 1.38198e-17
6489.00209 1.50044e-17
6490.49972 1.54173e-17
6491.99736 1.40730e-17
6493.49500 1.42629e-17
6495.00282 1.51697e-17
6496.50046 1.49814e-17
6497.99809 1.43365e-17
6499.49573 1.35720e-17
6501.00355 1.45735e-17
6502.50119 1.50169e-17
6503.99882 1.38530e-17
6505.49646 1.40198e-17
6507.00428 1.35331e-17
6508.50192 1.30590e-17
6509.99956 1.35797e-17
6511.49719 1.38369e-17
6512.99483 1.34976e-17
6514.50265 1.35767e-17
6516.00029 1.44887e-17
6517.49792 1.44406e-17
6518.99556 1.45605e-17
6520.50338 1.50693e-17
6522.00102 1.54184e-17
6523.49866 1.53125e-17
6524.99629 1.49649e-17
6526.50412 1.43852e-17
6528.00175 1.55617e-17
6529.49939 1.54105e-17
6530.99702 1.42464e-17
6532.50485 1.44634e-17
6534.00248 1.46690e-17
6535.50012 1.44625e-17
6536.99776 1.38238e-17
6538.49539 1.35209e-17
6540.00322 1.42928e-17
6541.50085 1.39976e-17
6542.99849 1.43052e-17
6544.49612 1.38204e-17
6546.00395 1.32052e-17
6547.50158 1.52656e-17
6548.99922 1.43896e-17
6550.49686 1.37726e-17
6552.00468 1.45908e-17
6553.50232 1.44567e-17
6554.99995 1.49496e-17
6556.49759 1.48887e-17
6557.99522 1.40584e-17
6559.50305 1.51097e-17
6561.00068 1.33528e-17
6562.49832 1.40522e-17
6563.99596 1.50346e-17
6565.50378 1.47565e-17
6567.00142 1.34574e-17
6568.49905 1.43650e-17
6569.99669 1.39513e-17
6571.50451 1.49683e-17
6573.00215 1.48522e-17
6574.49978 1.46815e-17
6575.99742 1.46259e-17
6577.49506 1.46487e-17
6579.00288 1.50305e-17
6580.50052 1.48411e-17
6581.99815 1.45259e-17
6583.49579 1.37021e-17
6585.00361 1.37186e-17
6586.50125 1.45413e-17
6587.99888 1.46128e-17
6589.49652 1.38743e-17
6591.00434 1.44754e-17
6592.50198 1.42496e-17
6593.99962 1.37649e-17
6595.49725 1.40583e-17
6596.99489 1.34465e-17
6598.50271 1.38668e-17
6600.00035 1.40209e-17
6601.49798 1.35752e-17
6602.99562 1.43866e-17
6604.50344 1.50446e-17
6606.00108 1.51648e-17
6607.49872 1.57198e-17
6608.99635 1.48390e-17
6610.50418 1.36732e-17
6612.00181 1.45591e-17
6613.49945 1.53894e-17
6614.99708 1.47273e-17
6616.50491 1.41026e-17
6618.00254 1.45577e-17
6619.50018 1.49998e-17
6620.99782 1.59701e-17
6622.49545 1.33948e-17
6624.00328 1.25743e-17
6625.50091 1.31294e-17
6626.99855 1.41531e-17
6628.49618 1.32976e-17
6630.00401 1.37669e-17
6631.50164 1.34930e-17
6632.99928 1.32752e-17
6634.49692 1.34628e-17
6636.00474 1.41097e-17
6637.50238 1.38783e-17
6639.00001 1.27548e-17
6640.49765 1.28200e-17
6641.99528 1.32466e-17
6643.50311 1.37300e-17
6645.00074 1.33563e-17
6646.49838 1.35034e-17
6647.99602 1.38091e-17
6649.50384 1.34205e-17
6651.00148 1.32633e-17
6652.49911 1.40443e-17
6653.99675 1.39708e-17
6655.50457 1.38973e-17
6657.00221 1.38238e-17
6658.49984 1.37504e-17
6659.99748 1.36769e-17
6661.49512 1.36034e-17
6663.00294 1.35300e-17
6664.50058 1.34565e-17
6665.99821 1.33830e-17
6667.49585 1.33096e-17
6669.00367 1.32362e-17
6670.50131 1.31627e-17
6671.99894 1.30893e-17
6673.49658 1.30158e-17
6675.00440 1.29424e-17
6676.50204 1.28690e-17
6677.99968 1.27955e-17
6679.49731 1.27221e-17
6680.99495 1.26487e-17
6682.50277 1.25753e-17
6684.00041 1.25019e-17
6685.49804 1.24285e-17
6686.99568 1.23551e-17
6688.50350 1.22816e-17
6690.00114 1.22082e-17
6691.49878 1.22155e-17
6692.99641 1.22227e-17
6694.50424 1.22299e-17
6696.00187 1.22371e-17
6697.49951 1.22443e-17
6698.99714 1.22515e-17
6700.49478 1.22587e-17
6702.00260 1.22659e-17
6703.50024 1.22731e-17
6704.99788 1.22803e-17
6706.49551 1.22875e-17
6708.00334 1.22948e-17
6709.50097 1.23020e-17
6710.99861 1.23092e-17
6712.49624 1.23164e-17
6714.00407 1.23236e-17
6715.50170 1.23308e-17
6716.99934 1.23380e-17
6718.49698 1.23452e-17
6720.00480 1.23524e-17
6721.50244 1.23596e-17
6723.00007 1.23668e-17
6724.49771 1.23740e-17
6725.99534 1.23812e-17
6727.50317 1.26067e-17
6729.00080 1.24207e-17
6730.49844 1.24458e-17
6731.99608 1.17475e-17
6733.50390 1.18431e-17
6735.00154 1.24472e-17
6736.49917 1.22515e-17
6737.99681 1.23935e-17
6739.50463 1.19318e-17
6741.00227 1.19701e-17
6742.49990 1.27187e-17
6743.99754 1.19311e-17
6745.49518 1.19689e-17
6747.00300 1.21931e-17
6748.50064 1.20166e-17
6749.99827 1.30304e-17
6751.49591 1.24252e-17
6753.00373 1.20187e-17
6754.50137 1.17138e-17
6755.99900 1.13361e-17
6757.49664 1.22167e-17
6759.00446 1.19127e-17
6760.50210 1.11766e-17
6761.99974 1.21322e-17
6763.49737 1.29571e-17
6764.99501 1.17775e-17
6766.50283 1.16759e-17
6768.00047 1.16173e-17
6769.49810 1.18245e-17
6770.99574 1.36428e-17
6772.50356 1.30264e-17
6774.00120 1.14483e-17
6775.49884 1.10442e-17
6776.99647 1.18954e-17
6778.50430 1.20934e-17
6780.00193 1.09293e-17
6781.49957 1.16339e-17
6782.99720 1.11650e-17
6784.50503 1.18842e-17
6786.00266 1.23638e-17
6787.50030 1.15904e-17
6788.99794 1.20962e-17
6790.49557 1.28846e-17
6792.00340 1.17234e-17
6793.50103 1.05850e-17
6794.99867 1.10706e-17
6796.49630 1.17366e-17
6798.00413 1.16193e-17
6799.50176 1.20594e-17
6800.99940 1.19792e-17
6802.49704 1.14925e-17
6804.00486 1.14940e-17
6805.50250 1.22485e-17
6807.00013 1.26682e-17
6808.49777 1.18337e-17
6809.99540 1.13433e-17
6811.50323 1.06819e-17
6813.00086 1.10418e-17
6814.49850 1.01559e-17
6815.99614 1.09720e-17
6817.50396 1.16298e-17
6819.00160 1.13306e-17
6820.49923 1.21327e-17
6821.99687 1.24773e-17
6823.50469 1.29745e-17
6825.00233 1.29272e-17
6826.49996 1.28798e-17
6827.99760 1.28325e-17
6829.49524 1.27851e-17
6831.00306 1.27378e-17
6832.50070 1.26905e-17
6833.99833 1.26431e-17
6835.49597 1.25958e-17
6837.00379 1.25485e-17
6838.50143 1.25012e-17
6839.99906 1.24470e-17
6841.49670 1.23929e-17
6843.00452 1.23388e-17
6844.50216 1.22847e-17
6845.99980 1.22306e-17
6847.49743 1.21765e-17
6848.99507 1.21224e-17
6850.50289 1.20683e-17
6852.00053 1.20142e-17
6853.49816 1.19601e-17
6854.99580 1.19060e-17
6856.50362 1.18519e-17
6858.00126 1.17978e-17
6859.49890 1.17438e-17
6860.99653 1.16897e-17
6862.50436 1.16356e-17
6864.00199 1.15815e-17
6865.49963 1.15275e-17
6866.99726 1.14734e-17
6868.49490 1.14193e-17
6870.00272 1.13652e-17
6871.50036 1.13112e-17
6872.99800 1.12571e-17
6874.49563 1.12031e-17
6876.00346 1.11490e-17
6877.50109 1.09451e-17
6878.99873 1.15609e-17
6880.49636 1.21386e-17
6882.00419 1.16638e-17
6883.50182 1.13726e-17
6884.99946 1.07430e-17
6886.49710 1.00151e-17
6888.00492 1.02979e-17
6889.50256 1.05293e-17
6891.00019 9.79157e-18
6892.49783 1.00239e-17
6893.99546 1.08489e-17
6895.50329 1.07804e-17
6897.00092 1.16072e-17
6898.49856 1.14250e-17
6899.99620 1.08242e-17
6901.50402 1.04919e-17
6903.00166 9.88766e-18
6904.49929 1.10714e-17
6905.99693 1.11149e-17
6907.50475 9.67876e-18
6909.00239 1.00622e-17
6910.50002 1.03902e-17
6911.99766 1.13365e-17
6913.49530 1.03048e-17
6915.00312 9.40979e-18
6916.50076 1.04991e-17
6917.99839 1.00349e-17
6919.49603 9.91042e-18
6921.00385 9.61892e-18
6922.50149 9.47186e-18
6923.99912 9.24917e-18
6925.49676 1.05046e-17
6927.00458 1.11635e-17
6928.50222 9.44765e-18
6929.99986 9.40708e-18
6931.49749 9.83043e-18
6932.99513 1.00307e-17
6934.50295 1.04627e-17
6936.00059 1.02803e-17
6937.49822 9.82970e-18
6938.99586 1.04850e-17
6940.50368 1.13409e-17
6942.00132 1.09666e-17
6943.49896 1.08895e-17
6944.99659 1.10601e-17
6946.50442 1.08500e-17
6948.00205 1.11412e-17
6949.49969 1.16796e-17
6950.99732 1.09488e-17
6952.49496 1.00951e-17
6954.00278 1.02708e-17
6955.50042 1.02672e-17
6956.99806 1.00916e-17
6958.49569 1.08311e-17
6960.00352 1.08934e-17
6961.50115 1.12522e-17
6962.99879 1.12493e-17
6964.49642 1.05560e-17
6966.00425 1.11584e-17
6967.50188 1.10605e-17
6968.99952 1.03608e-17
6970.49716 1.00445e-17
6972.00498 1.06193e-17
6973.50262 1.14964e-17
6975.00025 1.03963e-17
6976.49789 1.04153e-17
6977.99552 1.13045e-17
6979.50335 1.15686e-17
6981.00098 1.27119e-17
6982.49862 1.21406e-17
6983.99626 1.14903e-17
6985.50408 1.12578e-17
6987.00172 1.16555e-17
6988.49935 1.03779e-17
6989.99699 1.11721e-17
6991.50481 1.13867e-17
6993.00245 9.82444e-18
6994.50008 9.85869e-18
6995.99772 1.13243e-17
6997.49536 1.12457e-17
6999.00318 1.08863e-17
7000.50082 1.12388e-17
7001.99845 1.12407e-17
7003.49609 1.13340e-17
7005.00391 1.12982e-17
7006.50155 1.12522e-17
7007.99918 1.13690e-17
7009.49682 1.12621e-17
7011.00464 1.06958e-17
7012.50228 1.05566e-17
7013.99992 1.10311e-17
7015.49755 1.04006e-17
7016.99519 1.06558e-17
7018.50301 1.09775e-17
7020.00065 1.11202e-17
7021.49828 1.06068e-17
7022.99592 1.04959e-17
7024.50374 1.10772e-17
7026.00138 1.05155e-17
7027.49902 1.00982e-17
7028.99665 1.05563e-17
7030.50448 1.01700e-17
7032.00211 1.08879e-17
7033.49975 1.14979e-17
7034.99738 1.17043e-17
7036.49502 1.10361e-17
7038.00284 1.01523e-17
7039.50048 1.14825e-17
7040.99812 1.09705e-17
7042.49575 1.06038e-17
7044.00358 1.06710e-17
7045.50121 1.10188e-17
7046.99885 1.01413e-17
7048.49648 9.77886e-18
7050.00431 1.16822e-17
7051.50194 1.12929e-17
7052.99958 1.09914e-17
7054.49722 1.15061e-17
7055.99485 1.07906e-17
7057.50268 9.69725e-18
7059.00031 1.05962e-17
7060.49795 1.14747e-17
7061.99558 9.76370e-18
7063.50341 9.56998e-18
7065.00104 9.95723e-18
7066.49868 9.82998e-18
7067.99632 1.04830e-17
7069.50414 1.00852e-17
7071.00178 9.64279e-18
7072.49941 9.43854e-18
7073.99705 9.67066e-18
7075.50487 1.06727e-17
7077.00251 9.66791e-18
7078.50014 9.73425e-18
7079.99778 9.90074e-18
7081.49542 9.40384e-18
7083.00324 1.04375e-17
7084.50088 1.08406e-17
7085.99851 1.06018e-17
7087.49615 1.02889e-17
7089.00397 9.97690e-18
7090.50161 9.29906e-18
7091.99924 8.89438e-18
7093.49688 8.74332e-18
7095.00470 9.10325e-18
7096.50234 8.82390e-18
7097.99998 9.33724e-18
7099.49761 9.75604e-18
7100.99525 9.75602e-18
7102.50307 1.00370e-17
7104.00071 1.06252e-17
7105.49834 1.05114e-17
7106.99598 9.75440e-18
7108.50380 9.39294e-18
7110.00144 9.68895e-18
7111.49908 9.83948e-18
7112.99671 9.41619e-18
7114.50454 9.09428e-18
7116.00217 9.56069e-18
7117.49981 1.02930e-17
7118.99744 8.77230e-18
7120.49508 9.71749e-18
7122.00290 9.99672e-18
7123.50054 1.01335e-17
7124.99818 1.05233e-17
7126.49581 9.39711e-18
7128.00364 9.06719e-18
7129.50127 9.19284e-18
7130.99891 9.71157e-18
7132.49654 9.62476e-18
7134.00437 9.06314e-18
7135.50200 9.01694e-18
7136.99964 8.88938e-18
7138.49728 9.85418e-18
7139.99491 1.05323e-17
7141.50274 9.77647e-18
7143.00037 9.39720e-18
7144.49801 9.47520e-18
7145.99564 8.61374e-18
7147.50347 8.59800e-18
7149.00110 9.54946e-18
7150.49874 9.62725e-18
7151.99638 9.52797e-18
7153.50420 9.60137e-18
7155.00184 9.72393e-18
7156.49947 9.80306e-18
7157.99711 8.67140e-18
7159.50493 9.52620e-18
7161.00257 1.08446e-17
7162.50020 1.01533e-17
7163.99784 9.91540e-18
7165.49548 1.01472e-17
7167.00330 9.50219e-18
7168.50094 8.67965e-18
7169.99857 9.20958e-18
7171.49621 1.06574e-17
7173.00403 1.04642e-17
7174.50167 9.60343e-18
7175.99930 9.77726e-18
7177.49694 9.36008e-18
7179.00476 9.24461e-18
7180.50240 9.78044e-18
7182.00004 1.05180e-17
7183.49767 9.97058e-18
7184.99531 9.09025e-18
7186.50313 9.33404e-18
7188.00077 9.80460e-18
7189.49840 1.00692e-17
7190.99604 9.22074e-18
7192.50386 9.22127e-18
7194.00150 9.71142e-18
7195.49914 9.43693e-18
7196.99677 1.13411e-17
7198.50460 1.02736e-17
7200.00223 1.00635e-17
7201.49987 9.18695e-18
7202.99750 9.50818e-18
7204.49514 1.04122e-17
7206.00296 1.01069e-17
7207.50060 9.62689e-18
7208.99824 9.93126e-18
7210.49587 9.95791e-18
7212.00370 1.02784e-17
7213.50133 1.06993e-17
7214.99897 1.01109e-17
7216.49660 1.04025e-17
7218.00443 1.13093e-17
7219.50206 1.13794e-17
7220.99970 1.11193e-17
7222.49734 1.01777e-17
7223.99497 9.17988e-18
7225.50280 9.98538e-18
7227.00043 1.13201e-17
7228.49807 1.12490e-17
7229.99570 1.10358e-17
7231.50353 1.03381e-17
7233.00116 1.03612e-17
7234.49880 1.17224e-17
7235.99644 1.15337e-17
7237.50426 1.17038e-17
7239.00190 1.13919e-17
7240.49953 1.05063e-17
7241.99717 1.12588e-17
7243.49480 1.18808e-17
7245.00263 1.17484e-17
7246.50026 1.14651e-17
7247.99790 1.10971e-17
7249.49554 1.14195e-17
7251.00336 1.12664e-17
7252.50100 1.00905e-17
7253.99863 9.99114e-18
7255.49627 1.04002e-17
7257.00409 9.86455e-18
7258.50173 9.26886e-18
7259.99936 9.98473e-18
7261.49700 9.26530e-18
7263.00482 9.24791e-18
7264.50246 1.00058e-17
7266.00010 1.12737e-17
7267.49773 1.17726e-17
7268.99537 1.12839e-17
7270.50319 1.13242e-17
7272.00083 1.10920e-17
7273.49846 1.16814e-17
7274.99610 1.18495e-17
7276.50392 1.16136e-17
7278.00156 1.03923e-17
7279.49920 1.07260e-17
7280.99683 1.20853e-17
7282.50466 1.18447e-17
7284.00229 1.02292e-17
7285.49993 1.07884e-17
7286.99756 1.10794e-17
7288.49520 9.68500e-18
7290.00302 9.69654e-18
7291.50066 1.10659e-17
7292.99830 1.09330e-17
7294.49593 1.02003e-17
7296.00376 1.06156e-17
7297.50139 1.10401e-17
7298.99903 1.05791e-17
7300.49666 1.05129e-17
7302.00449 1.06340e-17
7303.50212 9.94110e-18
7304.99976 1.11104e-17
7306.49740 1.16376e-17
7307.99503 1.03256e-17
7309.50286 9.08661e-18
7311.00049 1.02059e-17
7312.49813 1.16486e-17
7313.99576 1.17120e-17
7315.50359 1.15357e-17
7317.00122 1.10449e-17
7318.49886 1.09713e-17
7319.99650 1.06845e-17
7321.50432 1.04670e-17
7323.00196 1.00359e-17
7324.49959 1.11532e-17
7325.99723 1.24421e-17
7327.49486 1.18511e-17
7329.00269 1.11647e-17
7330.50032 9.67660e-18
7331.99796 1.06695e-17
7333.49560 1.01191e-17
7335.00342 9.89916e-18
7336.50106 9.72126e-18
7337.99869 9.34421e-18
7339.49633 1.02676e-17
7341.00415 1.06052e-17
7342.50179 9.74262e-18
7343.99942 1.02261e-17
7345.49706 1.10571e-17
7347.00488 1.09131e-17
7348.50252 1.07036e-17
7350.00016 1.10790e-17
7351.49779 9.93108e-18
7352.99543 9.94265e-18
7354.50325 1.10169e-17
7356.00089 1.11009e-17
7357.49852 1.16497e-17
7358.99616 1.19871e-17
7360.50398 1.15672e-17
7362.00162 1.10067e-17
7363.49926 1.06683e-17
7364.99689 1.12943e-17
7366.50472 1.06350e-17
7368.00235 1.14239e-17
7369.49999 1.11386e-17
7370.99762 1.07961e-17
7372.49526 1.14033e-17
7374.00308 1.14489e-17
7375.50072 1.08081e-17
7376.99836 1.01866e-17
7378.49599 1.03911e-17
7380.00382 1.06829e-17
7381.50145 1.08997e-17
7382.99909 1.00703e-17
7384.49672 9.10855e-18
7386.00455 1.10361e-17
7387.50218 1.10598e-17
7388.99982 1.00397e-17
7390.49746 1.15496e-17
7391.99509 1.16678e-17
7393.50292 1.08036e-17
7395.00055 1.09323e-17
7396.49819 1.17453e-17
7397.99582 1.14325e-17
7399.50365 1.00698e-17
7401.00128 9.63900e-18
7402.49892 1.11415e-17
7403.99656 1.09502e-17
7405.50438 1.11431e-17
7407.00202 1.08813e-17
7408.49965 1.11811e-17
7409.99729 1.08171e-17
7411.49492 1.10707e-17
7413.00275 1.13485e-17
7414.50038 1.05856e-17
7415.99802 1.07913e-17
7417.49566 1.08331e-17
7419.00348 9.36805e-18
7420.50112 1.07645e-17
7421.99875 1.14947e-17
7423.49639 1.13306e-17
7425.00421 1.15408e-17
7426.50185 1.04874e-17
7427.99948 1.04024e-17
7429.49712 1.05726e-17
7431.00494 1.13031e-17
7432.50258 1.19435e-17
7434.00022 1.08478e-17
7435.49785 1.09092e-17
7436.99549 1.10083e-17
7438.50331 1.10859e-17
7440.00095 1.07310e-17
7441.49858 1.07207e-17
7442.99622 1.11823e-17
7444.50404 1.06010e-17
7446.00168 9.74845e-18
7447.49932 9.61332e-18
7448.99695 1.02977e-17
7450.50478 9.77929e-18
7452.00241 9.73543e-18
7453.50005 1.00660e-17
7454.99768 1.01319e-17
7456.49532 1.05855e-17
7458.00314 1.09409e-17
7459.50078 1.05814e-17
7460.99842 1.04812e-17
7462.49605 1.02095e-17
7464.00388 9.73534e-18
7465.50151 9.20480e-18
7466.99915 1.04372e-17
7468.49678 1.12234e-17
7470.00461 1.10018e-17
7471.50224 1.10770e-17
7472.99988 1.07828e-17
7474.49752 1.10647e-17
7475.99515 9.87788e-18
7477.50298 9.58323e-18
7479.00061 9.88593e-18
7480.49825 1.07462e-17
7481.32667 1.07462e-17
7482.18813 1.07374e-17
7483.04960 1.07287e-17
7483.91106 1.07166e-17
7484.77252 1.07045e-17
7485.63398 1.06937e-17
7486.49544 1.06829e-17
7487.35690 1.06742e-17
7488.21837 1.06655e-17
7489.08985 1.06555e-17
7489.95131 1.06455e-17
7490.81277 1.06330e-17
7491.67423 1.06205e-17
7492.53569 1.06072e-17
7493.39716 1.05940e-17
7494.25862 1.05810e-17
7495.12008 1.05680e-17
7495.98154 1.05557e-17
7496.84300 1.05434e-17
7497.70447 1.05315e-17
7498.57595 1.05196e-17
7499.43741 1.05062e-17
7500.29887 1.04928e-17
7501.16033 1.04762e-17
7502.02179 1.04596e-17
7502.88325 1.04419e-17
7503.74472 1.04242e-17
7504.60618 1.04068e-17
7505.46764 1.03895e-17
7506.32910 1.03681e-17
7507.19056 1.03465e-17
7508.06204 1.03163e-17
7508.92351 1.02860e-17
7509.78497 1.02478e-17
7510.64643 1.02094e-17
7511.50789 1.01649e-17
7512.36935 1.01205e-17
7513.23082 1.00786e-17
7514.09228 1.00367e-17
7514.95374 1.00089e-17
7515.81520 9.98116e-18
7516.67666 9.96342e-18
7517.54814 9.94568e-18
7518.40960 9.92464e-18
7519.27107 9.90352e-18
7520.13253 9.87379e-18
7520.99399 9.84405e-18
7521.85545 9.80671e-18
7522.71691 9.76946e-18
7523.57838 9.72747e-18
7524.43984 9.68549e-18
7525.30130 9.64502e-18
7526.16276 9.60447e-18
7527.02423 9.56789e-18
7527.89570 9.53123e-18
7528.75717 9.49347e-18
7529.61863 9.45570e-18
7530.48009 9.41338e-18
7531.34155 9.37106e-18
7532.20301 9.32518e-18
7533.06448 9.27940e-18
7533.92594 9.23048e-18
7534.78740 9.18157e-18
7535.64886 9.12615e-18
7536.52034 9.07073e-18
7537.38180 9.00712e-18
7538.24327 8.94351e-18
7539.10473 8.87922e-18
7539.96619 8.81493e-18
7540.82765 8.75774e-18
7541.68911 8.70055e-18
7542.55058 8.65104e-18
7543.41204 8.60154e-18
7544.27350 8.55845e-18
7545.13496 8.51537e-18
7545.99642 8.47203e-18
7546.86790 8.42865e-18
7547.72936 8.37663e-18
7548.59083 8.32459e-18
7549.45229 8.26386e-18
7550.31375 8.20311e-18
7551.17521 8.13785e-18
7552.03667 8.07259e-18
7552.89814 8.00739e-18
7553.75960 7.94220e-18
7554.62106 7.88208e-18
7555.48252 7.82197e-18
7556.35400 7.76803e-18
7557.21546 7.71410e-18
7558.07693 7.66303e-18
7558.93839 7.61197e-18
7559.79985 7.56096e-18
7560.66131 7.50994e-18
7561.52277 7.45756e-18
7562.38424 7.40518e-18
7563.24570 7.34915e-18
7564.10716 7.29311e-18
7564.96862 7.22839e-18
7565.84010 7.16365e-18
7566.70156 7.09020e-18
7567.56302 7.01673e-18
7568.42449 6.94864e-18
7569.28595 6.88056e-18
7570.14741 6.82954e-18
7571.00887 6.77856e-18
7571.87033 6.74636e-18
7572.73180 6.71419e-18
7573.59326 6.69889e-18
7574.45472 6.68364e-18
7575.31618 6.66393e-18
7576.18766 6.64422e-18
7577.04912 6.59670e-18
7577.91059 6.54914e-18
7578.77205 6.48661e-18
7579.63351 6.42406e-18
7580.49497 6.36698e-18
7581.35643 6.30993e-18
7582.21790 6.25507e-18
7583.07936 6.20022e-18
7583.94082 6.13805e-18
7584.81230 6.07586e-18
7585.67376 5.97193e-18
7586.53522 5.86790e-18
7587.39668 5.67439e-18
7588.25815 5.48071e-18
7589.11961 5.20708e-18
7589.98107 4.93330e-18
7590.84253 4.63661e-18
7591.70399 4.33987e-18
7592.56546 4.07443e-18
7593.42692 3.80904e-18
7594.28838 3.62573e-18
7595.15986 3.44258e-18
7596.02132 3.36678e-18
7596.88278 3.29120e-18
7597.74425 3.29836e-18
7598.60571 3.30569e-18
7599.46717 3.37806e-18
7600.32863 3.45055e-18
7601.19009 3.60156e-18
7602.05156 3.75272e-18
7602.91302 3.98275e-18
7603.77448 4.21291e-18
7604.64596 4.49221e-18
7605.50742 4.77159e-18
7606.36888 5.06464e-18
7607.23034 5.35771e-18
7608.09181 5.62841e-18
7608.95327 5.89906e-18
7609.81473 6.11134e-18
7610.67619 6.32349e-18
7611.53765 6.42686e-18
7612.39912 6.52999e-18
7613.26058 6.48384e-18
7614.13206 6.43740e-18
7614.99352 6.24395e-18
7615.85498 6.05021e-18
7616.71644 5.73230e-18
7617.57791 5.41415e-18
7618.43937 5.06670e-18
7619.30083 4.71920e-18
7620.16229 4.47012e-18
7621.02375 4.22124e-18
7621.88522 4.11893e-18
7622.74668 4.01692e-18
7623.61816 4.05124e-18
7624.47962 4.08582e-18
7625.34108 4.21284e-18
7626.20254 4.34004e-18
7627.06400 4.47904e-18
7627.92547 4.61807e-18
7628.78693 4.72421e-18
7629.64839 4.83027e-18
7630.50985 4.92050e-18
7631.37131 5.01068e-18
7632.23278 5.09599e-18
7633.10426 5.18129e-18
7633.96572 5.26126e-18
7634.82718 5.34122e-18
7635.68864 5.41585e-18
7636.55010 5.49047e-18
7637.41157 5.54506e-18
7638.27303 5.59962e-18
7639.13449 5.62676e-18
7639.99595 5.65384e-18
7640.85741 5.67932e-18
7641.71888 5.70479e-18
7642.59035 5.75418e-18
7643.45182 5.80361e-18
7644.31328 5.88784e-18
7645.17474 5.97212e-18
7646.03620 6.09582e-18
7646.89766 6.21959e-18
7647.75913 6.34938e-18
7648.62059 6.47917e-18
7649.48205 6.57297e-18
7650.34351 6.66669e-18
7651.20497 6.71553e-18
7652.06644 6.76430e-18
7652.93792 6.77286e-18
7653.79938 6.78134e-18
7654.66084 6.78191e-18
7655.52230 6.78247e-18
7656.38376 6.82489e-18
7657.24523 6.86740e-18
7658.10669 6.95974e-18
7658.96815 7.05217e-18
7659.82961 7.16705e-18
7660.69107 7.28196e-18
7661.55254 7.39612e-18
7662.42401 7.51027e-18
7663.28548 7.60261e-18
7664.14694 7.69491e-18
7665.00840 7.76419e-18
7665.86986 7.83342e-18
7666.73132 7.91962e-18
7667.59279 8.00585e-18
7668.45425 8.12755e-18
7669.31571 8.24931e-18
7670.17717 8.36858e-18
7671.03863 8.48783e-18
7671.91011 8.57408e-18
7672.77158 8.66025e-18
7673.63304 8.70790e-18
7674.49450 8.75537e-18
7675.35596 8.76653e-18
7676.21742 8.77759e-18
7677.07889 8.79736e-18
7677.94035 8.81704e-18
7678.80181 8.89046e-18
7679.66327 8.96404e-18
7680.52473 9.06457e-18
7681.38620 9.16510e-18
7682.25767 9.25067e-18
7683.11914 9.33633e-18
7683.98060 9.40687e-18
7684.84206 9.47741e-18
7685.70352 9.54474e-18
7686.56498 9.61207e-18
7687.42645 9.67898e-18
7688.28791 9.74580e-18
7689.14937 9.81322e-18
7690.01083 9.88063e-18
7690.88231 9.94213e-18
7691.74377 1.00036e-17
7692.60524 1.00462e-17
7693.46670 1.00889e-17
7694.32816 1.01157e-17
7695.18962 1.01426e-17
7696.05108 1.01736e-17
7696.91255 1.02046e-17
7697.77401 1.02473e-17
7698.63547 1.02898e-17
7699.49693 1.03340e-17
7700.35839 1.03781e-17
7701.22987 1.04154e-17
7702.09133 1.04526e-17
7702.95280 1.04780e-17
7703.81426 1.05032e-17
7704.67572 1.05130e-17
7705.53718 1.05228e-17
7706.39864 1.05179e-17
7707.26011 1.05129e-17
7708.12157 1.04976e-17
7708.98303 1.04823e-17
7709.84449 1.04743e-17
7710.71597 1.04665e-17
7711.57743 1.04818e-17
7712.43890 1.04972e-17
7713.30036 1.05319e-17
7714.16182 1.05667e-17
7715.02328 1.06122e-17
7715.88474 1.06578e-17
7716.74620 1.07001e-17
7717.60767 1.07425e-17
7718.46913 1.07665e-17
7719.33059 1.07906e-17
7720.20207 1.07952e-17
7721.06353 1.07998e-17
7721.92499 1.07906e-17
7722.78646 1.07814e-17
7723.64792 1.07678e-17
7724.50938 1.07542e-17
7725.37084 1.07489e-17
7726.23230 1.07435e-17
7727.09377 1.07505e-17
7727.95523 1.07576e-17
7728.81669 1.07728e-17
7729.67815 1.07881e-17
7730.54963 1.08107e-17
7731.41109 1.08333e-17
7732.27255 1.08679e-17
7733.13402 1.09025e-17
7733.99548 1.09436e-17
7734.85694 1.09847e-17
7735.71840 1.10101e-17
7736.57986 1.10355e-17
7737.44133 1.10325e-17
7738.30279 1.10295e-17
7739.17427 1.10073e-17
7740.03573 1.09851e-17
7740.89719 1.09555e-17
7741.75865 1.09258e-17
7742.62012 1.09064e-17
7743.48158 1.08869e-17
7744.34304 1.08921e-17
7745.20450 1.08972e-17
7746.06596 1.09173e-17
7746.92743 1.09373e-17
7747.78889 1.09587e-17
7748.65035 1.09802e-17
7749.52183 1.09984e-17
7750.38329 1.10164e-17
7751.24475 1.10278e-17
7752.10621 1.10391e-17
7752.96768 1.10436e-17
7753.82914 1.10481e-17
7754.69060 1.10484e-17
7755.55206 1.10485e-17
7756.41352 1.10415e-17
7757.27499 1.10343e-17
7758.13645 1.10138e-17
7759.00793 1.09935e-17
7759.86939 1.09657e-17
7760.73085 1.09378e-17
7761.59231 1.09166e-17
7762.45378 1.08954e-17
7763.31524 1.08842e-17
7764.17670 1.08728e-17
7765.03816 1.08642e-17
7765.89962 1.08556e-17
7766.76109 1.08439e-17
7767.62255 1.08323e-17
7768.49403 1.08134e-17
7769.35549 1.07944e-17
7770.21695 1.07678e-17
7771.07841 1.07412e-17
7771.93988 1.07160e-17
7772.80134 1.06910e-17
7773.66280 1.06739e-17
7774.52426 1.06568e-17
7775.38572 1.06443e-17
7776.24719 1.06319e-17
7777.10865 1.06213e-17
7777.98013 1.06107e-17
7778.84159 1.06035e-17
7779.70305 1.05963e-17
7780.56451 1.05941e-17
7781.42597 1.05918e-17
7782.28744 1.05940e-17
7783.14890 1.05962e-17
7784.01036 1.06019e-17
7784.87182 1.06077e-17
7785.73328 1.06162e-17
7786.59475 1.06247e-17
7787.46623 1.06350e-17
7788.32769 1.06454e-17
7789.18915 1.06546e-17
7790.05061 1.06637e-17
7790.91207 1.06684e-17
7791.77354 1.06730e-17
7792.63500 1.06713e-17
7793.49646 1.06696e-17
7794.35792 1.06610e-17
7795.21938 1.06524e-17
7796.08085 1.06410e-17
7796.94231 1.06296e-17
7797.81379 1.06226e-17
7798.67525 1.06157e-17
7799.53671 1.06186e-17
7800.39817 1.06217e-17
7801.25963 1.06382e-17
7802.12110 1.06549e-17
7802.98256 1.06822e-17
7803.84402 1.07097e-17
7804.70548 1.07340e-17
7805.56694 1.07584e-17
7806.42841 1.07698e-17
7807.29989 1.07811e-17
7808.16135 1.07805e-17
7809.02281 1.07799e-17
7809.88427 1.07693e-17
7810.74573 1.07587e-17
7811.60720 1.07403e-17
7812.46866 1.07218e-17
7813.33012 1.06988e-17
7814.19158 1.06758e-17
7815.05304 1.06525e-17
7815.91450 1.06292e-17
7816.78598 1.06094e-17
7817.64745 1.05897e-17
7818.50891 1.05782e-17
7819.37037 1.05667e-17
7820.23183 1.05672e-17
7821.09329 1.05678e-17
7821.95476 1.05718e-17
7822.81622 1.05758e-17
7823.67768 1.05704e-17
7824.53914 1.05650e-17
7825.40060 1.05486e-17
7826.27208 1.05321e-17
7827.13355 1.05086e-17
7827.99501 1.04852e-17
7828.85647 1.04580e-17
7829.71793 1.04308e-17
7830.57939 1.04030e-17
7831.44085 1.03753e-17
7832.30232 1.03493e-17
7833.16378 1.03233e-17
7834.02524 1.02990e-17
7834.88670 1.02746e-17
7835.75818 1.02543e-17
7836.61964 1.02339e-17
7837.48111 1.02239e-17
7838.34257 1.02138e-17
7839.20403 1.02158e-17
7840.06549 1.02176e-17
7840.92695 1.02244e-17
7841.78842 1.02311e-17
7842.64988 1.02365e-17
7843.51134 1.02419e-17
7844.37280 1.02431e-17
7845.23426 1.02444e-17
7846.10574 1.02398e-17
7846.96720 1.02352e-17
7847.82867 1.02271e-17
7848.69013 1.02190e-17
7849.55159 1.02103e-17
7850.41305 1.02016e-17
7851.27452 1.01941e-17
7852.13598 1.01866e-17
7852.99744 1.01816e-17
7853.85890 1.01766e-17
7854.72036 1.01751e-17
7855.59184 1.01736e-17
7856.45330 1.01761e-17
7857.31477 1.01786e-17
7858.17623 1.01812e-17
7859.03769 1.01838e-17
7859.89915 1.01804e-17
7860.76061 1.01771e-17
7861.62208 1.01681e-17
7862.48354 1.01592e-17
7863.34500 1.01496e-17
7864.20646 1.01401e-17
7865.07794 1.01273e-17
7865.93940 1.01146e-17
7866.80087 1.00903e-17
7867.66233 1.00661e-17
7868.52379 1.00293e-17
7869.38525 9.99265e-18
7870.24671 9.95049e-18
7871.10818 9.90826e-18
7871.96964 9.87041e-18
7872.83110 9.83248e-18
7873.69256 9.81474e-18
7874.56404 9.79717e-18
7875.42550 9.80587e-18
7876.28696 9.81465e-18
7877.14843 9.83189e-18
7878.00989 9.84912e-18
7878.87135 9.85833e-18
7879.73281 9.86762e-18
7880.59427 9.86382e-18
7881.45574 9.86002e-18
7882.31720 9.84050e-18
7883.17866 9.82090e-18
7884.05014 9.79252e-18
7884.91160 9.76413e-18
7885.77306 9.73550e-18
7886.63453 9.70694e-18
7887.49599 9.67746e-18
7888.35745 9.64789e-18
7889.21891 9.61545e-18
7890.08037 9.58301e-18
7890.94184 9.54939e-18
7891.80330 9.51585e-18
7892.66476 9.48316e-18
7893.52622 9.45055e-18
7894.39770 9.42732e-18
7895.25916 9.40409e-18
7896.12062 9.40206e-18
7896.98209 9.39995e-18
7897.84355 9.41237e-18
7898.70501 9.42470e-18
7899.56647 9.43196e-18
7900.42793 9.43923e-18
7901.28940 9.43281e-18
7902.15086 9.42639e-18
7903.01232 9.40839e-18
7903.88380 9.39032e-18
7904.74526 9.36624e-18
7905.60672 9.34225e-18
7906.46819 9.32468e-18
7907.32965 9.30719e-18
7908.19111 9.30111e-18
7909.05257 9.29502e-18
7909.91403 9.28632e-18
7910.77550 9.27762e-18
7911.63696 9.25794e-18
7912.49842 9.23825e-18
7913.36990 9.21764e-18
7914.23136 9.19694e-18
7915.09282 9.18377e-18
7915.95428 9.17059e-18
7916.81575 9.16543e-18
7917.67721 9.16028e-18
7918.53867 9.16206e-18
7919.40013 9.16383e-18
7920.26159 9.16011e-18
7921.12306 9.15648e-18
7921.98452 9.13485e-18
7922.85600 9.11314e-18
7923.71746 9.08121e-18
7924.57892 9.04928e-18
7925.44038 9.02047e-18
7926.30185 8.99158e-18
7927.16331 8.97367e-18
7928.02477 8.95576e-18
7928.88623 8.95398e-18
7929.74769 8.95229e-18
7930.60916 8.96345e-18
7931.47062 8.97460e-18
7932.34210 8.98947e-18
7933.20356 9.00442e-18
7934.06502 9.01515e-18
7934.92648 9.02588e-18
7935.78794 9.02588e-18
7936.64941 9.02596e-18
7937.51087 9.01194e-18
7938.37233 8.99783e-18
7939.23379 8.97046e-18
7940.09525 8.94300e-18
7940.95672 8.90625e-18
7941.81818 8.86951e-18
7942.68966 8.83259e-18
7943.55112 8.79567e-18
7944.41258 8.76577e-18
7945.27404 8.73586e-18
7946.13551 8.71423e-18
7946.99697 8.69261e-18
7947.85843 8.67917e-18
7948.71989 8.66566e-18
7949.58135 8.65789e-18
7950.44282 8.65011e-18
7951.30428 8.64454e-18
7952.17576 8.63896e-18
7953.03722 8.62815e-18
7953.89868 8.61734e-18
7954.76014 8.59486e-18
7955.62160 8.57239e-18
7956.48307 8.54764e-18
7957.34453 8.52280e-18
7958.20599 8.50794e-18
7959.06745 8.49315e-18
7959.92891 8.48910e-18
7960.79038 8.48504e-18
7961.66186 8.48918e-18
7962.52332 8.49324e-18
7963.38478 8.49907e-18
7964.24624 8.50490e-18
7965.10770 8.50312e-18
7965.96917 8.50126e-18
7966.83063 8.49721e-18
7967.69209 8.49307e-18
7968.55355 8.50211e-18
7969.41501 8.51123e-18
7970.27648 8.53700e-18
7971.14795 8.56285e-18
7972.00942 8.59757e-18
7972.87088 8.63229e-18
7973.73234 8.66549e-18
7974.59380 8.69877e-18
7975.45526 8.71533e-18
7976.31673 8.73189e-18
7977.17819 8.72530e-18
7978.03965 8.71871e-18
7978.90111 8.70139e-18
7979.76257 8.68407e-18
7980.63405 8.66684e-18
7981.49552 8.64969e-18
7982.35698 8.63525e-18
7983.21844 8.62080e-18
7984.07990 8.61083e-18
7984.94136 8.60086e-18
7985.80283 8.59174e-18
7986.66429 8.58270e-18
7987.52575 8.57062e-18
7988.38721 8.55845e-18
7989.24867 8.54494e-18
7990.11014 8.53142e-18
7990.98161 8.51850e-18
7991.84308 8.50557e-18
7992.70454 8.49721e-18
7993.56600 8.48884e-18
7994.42746 8.48960e-18
7995.28892 8.49045e-18
7996.15039 8.49129e-18
7997.01185 8.49214e-18
7997.87331 8.47862e-18
7998.73477 8.46511e-18
7999.59623 8.43898e-18
8000.46771 8.41285e-18
8001.32917 8.38504e-18
8002.19064 8.35722e-18
8003.05210 8.33596e-18
8003.91356 8.31473e-18
8004.77502 8.30706e-18
8005.63649 8.29944e-18
8006.49795 8.30357e-18
8007.35941 8.30773e-18
8008.22087 8.30927e-18
8009.08233 8.31080e-18
8009.95381 8.30504e-18
8010.81527 8.29927e-18
8011.67674 8.29998e-18
8012.53820 8.30069e-18
8013.39966 8.31456e-18
8014.26112 8.32845e-18
8015.12258 8.34580e-18
8015.98405 8.36314e-18
8016.84551 8.37471e-18
8017.70697 8.38627e-18
8018.56843 8.38269e-18
8019.43991 8.37908e-18
8020.30137 8.35458e-18
8021.16284 8.33005e-18
8022.02430 8.30017e-18
8022.88576 8.27027e-18
8023.74722 8.25216e-18
8024.60868 8.23408e-18
8025.47015 8.22723e-18
8026.33161 8.22041e-18
8027.19307 8.22026e-18
8028.05453 8.22012e-18
8028.92601 8.22101e-18
8029.78747 8.22191e-18
8030.64893 8.21730e-18
8031.51040 8.21268e-18
8032.37186 8.20323e-18
8033.23332 8.19377e-18
8034.09478 8.18404e-18
8034.95624 8.17431e-18
8035.81771 8.16724e-18
8036.67917 8.16018e-18
8037.54063 8.15753e-18
8038.41211 8.15488e-18
8039.27357 8.15729e-18
8040.13503 8.15970e-18
8040.99650 8.16639e-18
8041.85796 8.17308e-18
8042.71942 8.18182e-18
8043.58088 8.19057e-18
8044.44234 8.19744e-18
8045.30380 8.20431e-18
8046.16527 8.20635e-18
8047.02673 8.20837e-18
8047.88819 8.20418e-18
8048.75967 8.19999e-18
8049.62113 8.19031e-18
8050.48259 8.18063e-18
8051.34406 8.17262e-18
8052.20552 8.16461e-18
8053.06698 8.16361e-18
8053.92844 8.16262e-18
8054.78990 8.16456e-18
8055.65137 8.16650e-18
8056.51283 8.16628e-18
8057.37429 8.16605e-18
8058.24577 8.15758e-18
8059.10723 8.14908e-18
8059.96869 8.12717e-18
8060.83015 8.10523e-18
8061.69162 8.07410e-18
8062.55308 8.04294e-18
8063.41454 8.00977e-18
8064.27600 7.97659e-18
8065.13746 7.94953e-18
8065.99893 7.92248e-18
8066.86039 7.90951e-18
8067.73187 7.89658e-18
8068.59333 7.89817e-18
8069.45479 7.89978e-18
8070.31625 7.91164e-18
8071.17772 7.92353e-18
8072.03918 7.93716e-18
8072.90064 7.95080e-18
8073.76210 7.95406e-18
8074.62356 7.95729e-18
8075.48503 7.94569e-18
8076.34649 7.93406e-18
8077.21797 7.91339e-18
8078.07943 7.89271e-18
8078.94089 7.86661e-18
8079.80235 7.84049e-18
8080.66381 7.80826e-18
8081.52528 7.77601e-18
8082.38674 7.73817e-18
8083.24820 7.70029e-18
8084.10966 7.65842e-18
8084.97113 7.61653e-18
8085.83259 7.57252e-18
8086.70407 7.52849e-18
8087.56553 7.48512e-18
8088.42699 7.44176e-18
8089.28845 7.40165e-18
8090.14991 7.36156e-18
8091.01138 7.32709e-18
8091.87284 7.29264e-18
8092.73430 7.26507e-18
8093.59576 7.23751e-18
8094.45722 7.21630e-18
8095.31869 7.19511e-18
8096.18015 7.17856e-18
8097.05163 7.16204e-18
8097.91309 7.14094e-18
8098.77455 7.11983e-18
8099.63601 7.08326e-18
8100.49748 7.04665e-18
8101.35894 6.99115e-18
8102.22040 6.93559e-18
8103.08186 6.86187e-18
8103.94332 6.78809e-18
8104.80479 6.70507e-18
8105.67626 6.62202e-18
8106.53773 6.54419e-18
8107.39919 6.46636e-18
8108.26065 6.40274e-18
8109.12211 6.33916e-18
8109.98357 6.29282e-18
8110.84504 6.24652e-18
8111.70650 6.21340e-18
8112.56796 6.18030e-18
8113.42942 6.14621e-18
8114.29088 6.11211e-18
8115.15235 6.06556e-18
8116.02383 6.01900e-18
8116.88529 5.95512e-18
8117.74675 5.89122e-18
8118.60821 5.80910e-18
8119.46967 5.72695e-18
8120.33114 5.63843e-18
8121.19260 5.54991e-18
8122.05406 5.46447e-18
8122.91552 5.37905e-18
8123.77698 5.28612e-18
8124.63845 5.19318e-18
8125.49991 5.08296e-18
8126.37139 4.97270e-18
8127.23285 4.85044e-18
8128.09431 4.72816e-18
8128.95577 4.60158e-18
8129.81723 4.47501e-18
8130.67870 4.35894e-18
8131.54016 4.24290e-18
8132.40162 4.15328e-18
8133.26308 4.06373e-18
8134.12454 3.99199e-18
8134.99602 3.92030e-18
8135.85749 3.84728e-18
8136.71895 3.77426e-18
8137.58041 3.69267e-18
8138.44187 3.61108e-18
8139.30333 3.52067e-18
8140.16480 3.43023e-18
8141.02626 3.33330e-18
8141.88772 3.23635e-18
8142.74918 3.13830e-18
8143.61064 3.04024e-18
8144.47210 2.94640e-18
8145.34358 2.85258e-18
8146.20505 2.76724e-18
8147.06651 2.68192e-18
8147.92797 2.60808e-18
8148.78943 2.53428e-18
8149.65089 2.47289e-18
8150.51236 2.41154e-18
8151.37382 2.36108e-18
8152.23528 2.31065e-18
8153.09674 2.26448e-18
8153.95820 2.21832e-18
8154.82968 2.17104e-18
8155.69115 2.12378e-18
8156.55261 2.07592e-18
8157.41407 2.02806e-18
8158.27553 1.98125e-18
8159.13699 1.93445e-18
8159.99845 1.89268e-18
8160.85992 1.85091e-18
8161.72138 1.81808e-18
8162.58284 1.78527e-18
8163.44430 1.76257e-18
8164.31578 1.73990e-18
8165.17724 1.72713e-18
8166.03871 1.71437e-18
8166.90017 1.70544e-18
8167.76163 1.69652e-18
8168.62309 1.68405e-18
8169.48455 1.67158e-18
8170.34602 1.64942e-18
8171.20748 1.62725e-18
8172.06894 1.58956e-18
8172.93040 1.55183e-18
8173.80188 1.50857e-18
8174.66334 1.46530e-18
8175.52481 1.43797e-18
8176.38627 1.41068e-18
8177.24773 1.40407e-18
8178.10919 1.39751e-18
8178.97065 1.39915e-18
8179.83212 1.40080e-18
8180.69358 1.40120e-18
8181.55504 1.40159e-18
8182.41650 1.39478e-18
8183.28798 1.38795e-18
8184.14944 1.37175e-18
8185.01090 1.35553e-18
8185.87237 1.33798e-18
8186.73383 1.32043e-18
8187.59529 1.30729e-18
8188.45675 1.29415e-18
8189.31821 1.28098e-18
8190.17968 1.26781e-18
8191.04114 1.25149e-18
8191.90260 1.23516e-18
8192.77408 1.21949e-18
8193.63554 1.20382e-18
8194.49700 1.19264e-18
8195.35846 1.18146e-18
8196.21993 1.17819e-18
8197.08139 1.17494e-18
8197.94285 1.18218e-18
8198.80431 1.18944e-18
8199.66577 1.20097e-18
8200.52724 1.21252e-18
8201.38870 1.21969e-18
8202.25016 1.22684e-18
8203.12164 1.22794e-18
8203.98310 1.22903e-18
8204.84456 1.22547e-18
8205.70603 1.22191e-18
8206.56749 1.21442e-18
8207.42895 1.20691e-18
8208.29041 1.19608e-18
8209.15187 1.18524e-18
8210.01334 1.17283e-18
8210.87480 1.16042e-18
8211.73626 1.14872e-18
8212.60774 1.13702e-18
8213.46920 1.12701e-18
8214.33066 1.11699e-18
8215.19212 1.10849e-18
8216.05359 1.09999e-18
8216.91505 1.09030e-18
8217.77651 1.08061e-18
8218.63797 1.06225e-18
8219.49943 1.04387e-18
8220.36090 1.01397e-18
8221.22236 9.84050e-19
8222.08382 9.50276e-19
8222.95530 9.16493e-19
8223.81676 8.87390e-19
8224.67822 8.58295e-19
8225.53969 8.44577e-19
8226.40115 8.30898e-19
8227.26261 8.40301e-19
8228.12407 8.49755e-19
8228.98553 8.75073e-19
8229.84700 9.00425e-19
8230.70846 9.31648e-19
8231.57994 9.62888e-19
8232.44140 9.90293e-19
8233.30286 1.01770e-18
8234.16432 1.03225e-18
8235.02578 1.04678e-18
8235.88725 1.05149e-18
8236.74871 1.05616e-18
8237.61017 1.05854e-18
8238.47163 1.06093e-18
8239.33309 1.06624e-18
8240.19456 1.07156e-18
8241.06604 1.08418e-18
8241.92750 1.09682e-18
8242.78896 1.11419e-18
8243.65042 1.13157e-18
8244.51188 1.14579e-18
8245.37335 1.16002e-18
8246.23481 1.16723e-18
8247.09627 1.17443e-18
8247.95773 1.17507e-18
8248.81919 1.17568e-18
8249.68066 1.17131e-18
8250.54212 1.16694e-18
8251.41360 1.16108e-18
8252.27506 1.15520e-18
8253.13652 1.15112e-18
8253.99798 1.14704e-18
8254.85945 1.14671e-18
8255.72091 1.14639e-18
8256.58237 1.15095e-18
8257.44383 1.15552e-18
8258.30529 1.16418e-18
8259.16676 1.17284e-18
8260.02822 1.18394e-18
8260.89970 1.19505e-18
8261.76116 1.20552e-18
8262.62262 1.21600e-18
8263.48408 1.22281e-18
8264.34554 1.22962e-18
8265.20701 1.23007e-18
8266.06847 1.23050e-18
8266.92993 1.22279e-18
8267.79139 1.21506e-18
8268.65285 1.20329e-18
8269.52433 1.19150e-18
8270.38580 1.18138e-18
8271.24726 1.17126e-18
8272.10872 1.16659e-18
8272.97018 1.16195e-18
8273.83164 1.16571e-18
8274.69311 1.16950e-18
8275.55457 1.17874e-18
8276.41603 1.18798e-18
8277.27749 1.19602e-18
8278.13895 1.20406e-18
8279.01043 1.20818e-18
8279.87189 1.21229e-18
8280.73336 1.21314e-18
8281.59482 1.21398e-18
8282.45628 1.21356e-18
8283.31774 1.21314e-18
8284.17920 1.21567e-18
8285.04067 1.21822e-18
8285.90213 1.22530e-18
8286.76359 1.23240e-18
8287.62505 1.24023e-18
8288.48651 1.24806e-18
8289.34798 1.25461e-18
8290.21946 1.26115e-18
8291.08092 1.26945e-18
8291.94238 1.27776e-18
8292.80384 1.28956e-18
8293.66530 1.30136e-18
8294.52677 1.31358e-18
8295.38823 1.32580e-18
8296.24969 1.33558e-18
8297.11115 1.34537e-18
8297.97261 1.35087e-18
8298.83408 1.35637e-18
8299.70555 1.35652e-18
8300.56702 1.35664e-18
8301.42848 1.35790e-18
8302.28994 1.35916e-18
8303.15140 1.36921e-18
8304.01286 1.37927e-18
8304.87433 1.39515e-18
8305.73579 1.41103e-18
8306.59725 1.42636e-18
8307.45871 1.44168e-18
8308.32017 1.45258e-18
8309.18164 1.46346e-18
8310.05312 1.46709e-18
8310.91458 1.47071e-18
8311.77604 1.47010e-18
8312.63750 1.46947e-18
8313.49896 1.47195e-18
8314.36043 1.47442e-18
8315.22189 1.48410e-18
8316.08335 1.49379e-18
8316.94481 1.51149e-18
8317.80627 1.52922e-18
8318.67775 1.55285e-18
8319.53921 1.57651e-18
8320.40068 1.59950e-18
8321.26214 1.62250e-18
8322.12360 1.64015e-18
8322.98506 1.65778e-18
8323.84652 1.67001e-18
8324.70799 1.68223e-18
8325.56945 1.68967e-18
8326.43091 1.69710e-18
8327.29237 1.70157e-18
8328.16385 1.70604e-18
8329.02531 1.70983e-18
8329.88678 1.71362e-18
8330.74824 1.71803e-18
8331.60970 1.72245e-18
8332.47116 1.72877e-18
8333.33262 1.73511e-18
8334.19408 1.74653e-18
8335.05555 1.75797e-18
8335.91701 1.77713e-18
8336.77847 1.79630e-18
8337.64995 1.82114e-18
8338.51141 1.84598e-18
8339.37287 1.87294e-18
8340.23434 1.89992e-18
8341.09580 1.92415e-18
8341.95726 1.94838e-18
8342.81872 1.96463e-18
8343.68018 1.98086e-18
8344.54165 1.98923e-18
8345.40311 1.99758e-18
8346.26457 2.00176e-18
8347.12603 2.00592e-18
8347.99751 2.00891e-18
8348.85897 2.01191e-18
8349.72043 2.01596e-18
8350.58190 2.02000e-18
8351.44336 2.02772e-18
8352.30482 2.03544e-18
8353.16628 2.04956e-18
8354.02775 2.06371e-18
8354.88921 2.08457e-18
8355.75067 2.10545e-18
8356.62215 2.12965e-18
8357.48361 2.15386e-18
8358.34507 2.17799e-18
8359.20653 2.20212e-18
8360.06800 2.22322e-18
8360.92946 2.24430e-18
8361.79092 2.26059e-18
8362.65238 2.27687e-18
8363.51384 2.29143e-18
8364.37531 2.30597e-18
8365.23677 2.32180e-18
8366.10825 2.33764e-18
8366.96971 2.35278e-18
8367.83117 2.36792e-18
8368.69263 2.38029e-18
8369.55410 2.39266e-18
8370.41556 2.40426e-18
8371.27702 2.41588e-18
8372.13848 2.42952e-18
8372.99994 2.44315e-18
8373.86140 2.46032e-18
8374.72287 2.47750e-18
8375.59435 2.49918e-18
8376.45581 2.52087e-18
8377.31727 2.54686e-18
8378.17873 2.57285e-18
8379.04019 2.60214e-18
8379.90166 2.63144e-18
8380.76312 2.66243e-18
8381.62458 2.69343e-18
8382.48604 2.72424e-18
8383.34750 2.75505e-18
8384.20897 2.78411e-18
8385.07043 2.81317e-18
8385.94191 2.83905e-18
8386.80337 2.86494e-18
8387.66483 2.88850e-18
8388.52629 2.91206e-18
8389.38775 2.93787e-18
8390.24922 2.96370e-18
8391.11068 2.99306e-18
8391.97214 3.02241e-18
8392.83360 3.04940e-18
8393.69507 3.07639e-18
8394.55653 3.09679e-18
8395.41799 3.11717e-18
8396.28947 3.13086e-18
8397.15093 3.14453e-18
8398.01239 3.15321e-18
8398.87385 3.16188e-18
8399.73532 3.17516e-18
8400.59678 3.18845e-18
8401.45824 3.21507e-18
8402.31970 3.24174e-18
8403.18116 3.27889e-18
8404.04263 3.31606e-18
8404.90409 3.35838e-18
8405.77557 3.40071e-18
8406.63703 3.44227e-18
8407.49849 3.48383e-18
8408.35995 3.51850e-18
8409.22142 3.55317e-18
8410.08288 3.58099e-18
8410.94434 3.60880e-18
8411.80580 3.63290e-18
8412.66726 3.65698e-18
8413.52873 3.67950e-18
8414.39019 3.70202e-18
8415.26167 3.72471e-18
8416.12313 3.74741e-18
8416.98459 3.77213e-18
8417.84605 3.79685e-18
8418.70751 3.82513e-18
8419.56898 3.85340e-18
8420.43044 3.88582e-18
8421.29190 3.91824e-18
8422.15336 3.95466e-18
8423.01482 3.99110e-18
8423.87629 4.02958e-18
8424.74777 4.06809e-18
8425.60923 4.10333e-18
8426.47069 4.13858e-18
8427.33215 4.16841e-18
8428.19361 4.19823e-18
8429.05508 4.22866e-18
8429.91654 4.25909e-18
8430.77800 4.29502e-18
8431.63946 4.33095e-18
8432.50092 4.37291e-18
8433.36239 4.41487e-18
8434.23386 4.46206e-18
8435.09533 4.50926e-18
8435.95679 4.55386e-18
8436.81825 4.59846e-18
8437.67971 4.63274e-18
8438.54117 4.66700e-18
8439.40264 4.69548e-18
8440.26410 4.72394e-18
8441.12556 4.75395e-18
8441.98702 4.78395e-18
8442.84848 4.81764e-18
8443.70995 4.85134e-18
8444.58143 4.88922e-18
8445.44289 4.92711e-18
8446.30435 4.96959e-18
8447.16581 5.01207e-18
8448.02727 5.05902e-18
8448.88874 5.10596e-18
8449.75020 5.15592e-18
8450.61166 5.20588e-18
8451.47312 5.25673e-18
8452.33458 5.30757e-18
8453.20606 5.35687e-18
8454.06752 5.40616e-18
8454.92899 5.45095e-18
8455.79045 5.49572e-18
8456.65191 5.53664e-18
8457.51337 5.57756e-18
8458.37483 5.62096e-18
8459.23630 5.66437e-18
8460.09776 5.71294e-18
8460.95922 5.76152e-18
8461.82068 5.80980e-18
8462.69216 5.85808e-18
8463.55362 5.90221e-18
8464.41508 5.94633e-18
8465.27655 5.98659e-18
8466.13801 6.02685e-18
8466.99947 6.06487e-18
8467.86093 6.10289e-18
8468.72240 6.14674e-18
8469.58386 6.19060e-18
8470.44532 6.24742e-18
8471.30678 6.30427e-18
8472.16824 6.36964e-18
8473.03972 6.43503e-18
8473.90118 6.50254e-18
8474.76265 6.57005e-18
8475.62411 6.63482e-18
8476.48557 6.69959e-18
8477.34703 6.75696e-18
8478.20849 6.81432e-18
8479.06996 6.86981e-18
8479.93142 6.92530e-18
8480.79288 6.98901e-18
8481.65434 7.05274e-18
8482.51580 7.12241e-18
8483.38728 7.19209e-18
8484.24875 7.25832e-18
8485.11021 7.32453e-18
8485.97167 7.38313e-18
8486.83313 7.44171e-18
8487.69459 7.49255e-18
8488.55605 7.54338e-18
8489.41752 7.58917e-18
8490.27898 7.63495e-18
8491.14044 7.68245e-18
8492.00190 7.72996e-18
8492.87338 7.78360e-18
8493.73484 7.83725e-18
8494.59631 7.89582e-18
8495.45777 7.95439e-18
8496.31923 8.01853e-18
8497.18069 8.08270e-18
8498.04215 8.15958e-18
8498.90362 8.23650e-18
8499.76508 8.32882e-18
8500.62654 8.42119e-18
8501.48800 8.51664e-18
8502.35948 8.61210e-18
8503.22094 8.69860e-18
8504.08240 8.78511e-18
8504.94387 8.86021e-18
8505.80533 8.93523e-18
8506.66679 8.99842e-18
8507.52825 9.06153e-18
8508.38972 9.11720e-18
8509.25118 9.17287e-18
8510.11264 9.22702e-18
8510.98412 9.28125e-18
8511.84558 9.33625e-18
8512.70704 9.39125e-18
8513.56850 9.44827e-18
8514.42997 9.50521e-18
8515.29143 9.56400e-18
8516.15289 9.62280e-18
8517.01435 9.68270e-18
8517.87581 9.74259e-18
8518.73728 9.80359e-18
8519.59874 9.86450e-18
8520.46020 9.92676e-18
8521.33168 9.98893e-18
8522.19314 1.00552e-17
8523.05460 1.01213e-17
8523.91607 1.01966e-17
8524.77753 1.02719e-17
8525.63899 1.03580e-17
8526.50045 1.04441e-17
8527.36191 1.05379e-17
8528.22337 1.06316e-17
8529.08484 1.07280e-17
8529.94630 1.08245e-17
8530.80776 1.09157e-17
8531.67924 1.10068e-17
8532.54070 1.10861e-17
8533.40216 1.11654e-17
8534.26363 1.12303e-17
8535.12509 1.12953e-17
8535.98655 1.13466e-17
8536.84801 1.13980e-17
8537.70947 1.14455e-17
8538.57094 1.14931e-17
8539.43240 1.15474e-17
8540.30388 1.16018e-17
8541.16534 1.16699e-17
8542.02680 1.17380e-17
8542.88826 1.18240e-17
8543.74972 1.19101e-17
8544.61119 1.20083e-17
8545.47265 1.21066e-17
8546.33411 1.22080e-17
8547.19557 1.23094e-17
8548.05703 1.23984e-17
8548.91850 1.24874e-17
8549.78998 1.25468e-17
8550.65144 1.26062e-17
8551.51290 1.26375e-17
8552.37436 1.26688e-17
8553.23582 1.26850e-17
8554.09729 1.27012e-17
8554.95875 1.27199e-17
8555.82021 1.27386e-17
8556.68167 1.27805e-17
8557.54313 1.28225e-17
8558.40460 1.28971e-17
8559.27607 1.29717e-17
8560.13754 1.30732e-17
8560.99900 1.31746e-17
8561.86046 1.32919e-17
8562.72192 1.34091e-17
8563.58338 1.35240e-17
8564.44485 1.36390e-17
8565.30631 1.37350e-17
8566.16777 1.38309e-17
8567.02923 1.38968e-17
8567.89070 1.39627e-17
8568.75216 1.39935e-17
8569.62364 1.40242e-17
8570.48510 1.40285e-17
8571.34656 1.40327e-17
8572.20802 1.40230e-17
8573.06948 1.40132e-17
8573.93095 1.40033e-17
8574.79241 1.39934e-17
8575.65387 1.39967e-17
8576.51533 1.40001e-17
8577.37679 1.40306e-17
8578.23826 1.40611e-17
8579.09972 1.41294e-17
8579.97120 1.41977e-17
8580.83266 1.42905e-17
8581.69412 1.43833e-17
8582.55558 1.44786e-17
8583.41705 1.45738e-17
8584.27851 1.46536e-17
8585.13997 1.47335e-17
8586.00143 1.47835e-17
8586.86289 1.48335e-17
8587.72436 1.48517e-17
8588.58582 1.48699e-17
8589.45730 1.48643e-17
8590.31876 1.48585e-17
8591.18022 1.48416e-17
8592.04168 1.48247e-17
8592.90314 1.48134e-17
8593.76461 1.48021e-17
8594.62607 1.48058e-17
8595.48753 1.48095e-17
8596.34899 1.48244e-17
8597.21045 1.48393e-17
8598.07192 1.48631e-17
8598.94340 1.48870e-17
8599.80486 1.49222e-17
8600.66632 1.49574e-17
8601.52778 1.50028e-17
8602.38924 1.50483e-17
8603.25071 1.50968e-17
8604.11217 1.51453e-17
8604.97363 1.51889e-17
8605.83509 1.52326e-17
8606.69655 1.52607e-17
8607.56803 1.52887e-17
8608.42949 1.52926e-17
8609.29096 1.52964e-17
8610.15242 1.52785e-17
8611.01388 1.52604e-17
8611.87534 1.52268e-17
8612.73680 1.51931e-17
8613.59827 1.51507e-17
8614.45973 1.51082e-17
8615.32119 1.50642e-17
8616.18265 1.50203e-17
8617.04411 1.49886e-17
8617.91559 1.49570e-17
8618.77706 1.49526e-17
8619.63852 1.49482e-17
8620.49998 1.49719e-17
8621.36144 1.49956e-17
8622.22290 1.50393e-17
8623.08437 1.50832e-17
8623.94583 1.51352e-17
8624.80729 1.51873e-17
8625.66875 1.52330e-17
8626.53021 1.52787e-17
8627.40169 1.53092e-17
8628.26315 1.53396e-17
8629.12462 1.53547e-17
8629.98608 1.53697e-17
8630.84754 1.53690e-17
8631.70900 1.53682e-17
8632.57046 1.53496e-17
8633.43193 1.53309e-17
8634.29339 1.52971e-17
8635.15485 1.52632e-17
8636.01631 1.52247e-17
8636.88779 1.51861e-17
8637.74925 1.51540e-17
8638.61072 1.51219e-17
8639.47218 1.51091e-17
8640.33364 1.50963e-17
8641.19510 1.51116e-17
8642.05656 1.51269e-17
8642.91803 1.51628e-17
8643.77949 1.51989e-17
8644.64095 1.52443e-17
8645.50241 1.52896e-17
8646.37389 1.53326e-17
8647.23535 1.53756e-17
8648.09681 1.54045e-17
8648.95828 1.54333e-17
8649.81974 1.54437e-17
8650.68120 1.54541e-17
8651.54266 1.54462e-17
8652.40412 1.54381e-17
8653.26559 1.54106e-17
8654.12705 1.53831e-17
8654.98851 1.53351e-17
8655.85999 1.52871e-17
8656.72145 1.52270e-17
8657.58291 1.51670e-17
8658.44438 1.51093e-17
8659.30584 1.50516e-17
8660.16730 1.50061e-17
8661.02876 1.49608e-17
8661.89022 1.49320e-17
8662.75168 1.49033e-17
8663.61315 1.48935e-17
8664.47461 1.48838e-17
8665.33607 1.48923e-17
8666.20755 1.49009e-17
8667.06901 1.49237e-17
8667.93047 1.49466e-17
8668.79194 1.49766e-17
8669.65340 1.50066e-17
8670.51486 1.50342e-17
8671.37632 1.50617e-17
8672.23778 1.50702e-17
8673.09925 1.50787e-17
8673.96071 1.50559e-17
8674.82217 1.50330e-17
8675.68363 1.49826e-17
8676.55511 1.49320e-17
8677.41657 1.48621e-17
8678.27803 1.47920e-17
8679.13950 1.47162e-17
8680.00096 1.46403e-17
8680.86242 1.45737e-17
8681.72388 1.45071e-17
8682.58535 1.44557e-17
8683.44681 1.44043e-17
8684.30827 1.43702e-17
8685.16973 1.43360e-17
8686.04121 1.43213e-17
8686.90267 1.43066e-17
8687.76413 1.43114e-17
8688.62560 1.43163e-17
8689.48706 1.43370e-17
8690.34852 1.43577e-17
8691.20998 1.43881e-17
8692.07144 1.44186e-17
8692.93291 1.44485e-17
8693.79437 1.44783e-17
8694.66585 1.44944e-17
8695.52731 1.45106e-17
8696.38877 1.45050e-17
8697.25023 1.44993e-17
8698.11170 1.44706e-17
8698.97316 1.44418e-17
8699.83462 1.43931e-17
8700.69608 1.43443e-17
8701.55754 1.42861e-17
8702.41900 1.42279e-17
8703.28047 1.41692e-17
8704.15195 1.41104e-17
8705.01341 1.40513e-17
8705.87487 1.39924e-17
8706.73633 1.39355e-17
8707.59779 1.38788e-17
8708.45926 1.38360e-17
8709.32072 1.37933e-17
8710.18218 1.37740e-17
8711.04364 1.37547e-17
8711.90510 1.37590e-17
8712.76657 1.37636e-17
8713.62803 1.37884e-17
8714.49951 1.38133e-17
8715.36097 1.38404e-17
8716.22243 1.38675e-17
8717.08389 1.38763e-17
8717.94535 1.38851e-17
8718.80682 1.38672e-17
8719.66828 1.38491e-17
8720.52974 1.38014e-17
8721.39120 1.37536e-17
8722.25267 1.36877e-17
8723.11413 1.36218e-17
8723.98561 1.35582e-17
8724.84707 1.34946e-17
8725.70853 1.34410e-17
8726.56999 1.33873e-17
8727.43145 1.33413e-17
8728.29292 1.32954e-17
8729.15438 1.32574e-17
8730.01584 1.32194e-17
8730.87730 1.31903e-17
8731.73876 1.31612e-17
8732.61024 1.31438e-17
8733.47170 1.31263e-17
8734.33317 1.31286e-17
8735.19463 1.31309e-17
8736.05609 1.31505e-17
8736.91755 1.31701e-17
8737.77902 1.31839e-17
8738.64048 1.31977e-17
8739.50194 1.31860e-17
8740.36340 1.31744e-17
8741.22486 1.31266e-17
8742.08633 1.30787e-17
8742.95780 1.29919e-17
8743.81927 1.29051e-17
8744.68073 1.28044e-17
8745.54219 1.27036e-17
8746.40365 1.26161e-17
8747.26511 1.25287e-17
8748.12658 1.24672e-17
8748.98804 1.24059e-17
8749.84950 1.23780e-17
8750.71096 1.23502e-17
8751.57242 1.23481e-17
8752.44390 1.23461e-17
8753.30537 1.23547e-17
8754.16683 1.23634e-17
8755.02829 1.23745e-17
8755.88975 1.23857e-17
8756.75121 1.23940e-17
8757.61268 1.24022e-17
8758.47414 1.23956e-17
8759.33560 1.23888e-17
8760.19706 1.23525e-17
8761.05852 1.23161e-17
8761.91999 1.22477e-17
8762.79146 1.21793e-17
8763.65293 1.20868e-17
8764.51439 1.19942e-17
8765.37585 1.18904e-17
8766.23731 1.17866e-17
8767.09877 1.16900e-17
8767.96024 1.15935e-17
8768.82170 1.15160e-17
8769.68316 1.14386e-17
8770.54462 1.13787e-17
8771.40608 1.13189e-17
8772.26755 1.12740e-17
8773.13903 1.12292e-17
8774.00049 1.11974e-17
8774.86195 1.11655e-17
8775.72341 1.11423e-17
8776.58487 1.11191e-17
8777.44633 1.11008e-17
8778.30780 1.10827e-17
8779.16926 1.10641e-17
8780.03072 1.10455e-17
8780.89218 1.10104e-17
8781.76366 1.09753e-17
8782.62512 1.09092e-17
8783.48659 1.08430e-17
8784.34805 1.07529e-17
8785.20951 1.06627e-17
8786.07097 1.05614e-17
8786.93243 1.04602e-17
8787.79390 1.03574e-17
8788.65536 1.02547e-17
8789.51682 1.01600e-17
8790.37828 1.00653e-17
8791.24976 9.97837e-18
8792.11122 9.89144e-18
8792.97268 9.80553e-18
8793.83415 9.71953e-18
8794.69561 9.63894e-18
8795.55707 9.55843e-18
8796.41853 9.49558e-18
8797.28000 9.43289e-18
8798.14146 9.38533e-18
8799.00292 9.33786e-18
8799.86438 9.28903e-18
8800.72584 9.24020e-18
8801.59732 9.17659e-18
8802.45878 9.11297e-18
8803.32025 9.02545e-18
8804.18171 8.93793e-18
8805.04317 8.82532e-18
8805.90463 8.71271e-18
8806.76609 8.59123e-18
8807.62756 8.46967e-18
8808.48902 8.35408e-18
8809.35048 8.23854e-18
8810.21194 8.13601e-18
8811.08342 8.03351e-18
8811.94488 7.94880e-18
8812.80635 7.86413e-18
8813.66781 7.79537e-18
8814.52927 7.72665e-18
8815.39073 7.66933e-18
8816.25219 7.61204e-18
8817.11365 7.56055e-18
8817.97512 7.50908e-18
8818.83658 7.45713e-18
8819.70806 7.40519e-18
8820.56952 7.34520e-18
8821.43098 7.28517e-18
8822.29244 7.21050e-18
8823.15391 7.13580e-18
8824.01537 7.04564e-18
8824.87683 6.95544e-18
8825.73829 6.85216e-18
8826.59975 6.74885e-18
8827.46122 6.64198e-18
8828.32268 6.53510e-18
8829.19416 6.43833e-18
8830.05562 6.34159e-18
8830.91708 6.26191e-18
8831.77854 6.18228e-18
8832.64000 6.12019e-18
8833.50147 6.05815e-18
8834.36293 6.01142e-18
8835.22439 5.96474e-18
8836.08585 5.92791e-18
8836.94732 5.89112e-18
8837.80878 5.85778e-18
8838.67024 5.82445e-18
8839.54172 5.78803e-18
8840.40318 5.75162e-18
8841.26464 5.70727e-18
8842.12610 5.66291e-18
8842.98757 5.61000e-18
8843.84903 5.55707e-18
8844.71049 5.49661e-18
8845.57195 5.43613e-18
8846.43341 5.37166e-18
8847.29488 5.30717e-18
8848.15634 5.24322e-18
8849.02782 5.17927e-18
8849.88928 5.11827e-18
8850.75074 5.05728e-18
8851.61220 5.00154e-18
8852.47367 4.94582e-18
8853.33513 4.90717e-18
8854.19659 4.86857e-18
8855.05805 4.85881e-18
8855.91951 4.84913e-18
8856.78097 4.85890e-18
8857.64244 4.86873e-18
8858.50390 4.88152e-18
8859.36536 4.89431e-18
8860.23684 4.89649e-18
8861.09830 4.89863e-18
8861.95976 4.87789e-18
8862.82123 4.85709e-18
8863.68269 4.81806e-18
8864.54415 4.77898e-18
8865.40561 4.73961e-18
8866.26707 4.70024e-18
8867.12854 4.66889e-18
8867.99000 4.63755e-18
8868.86148 4.61210e-18
8869.72294 4.58665e-18
8870.58440 4.56618e-18
8871.44586 4.54572e-18
8872.30732 4.52944e-18
8873.16879 4.51318e-18
8874.03025 4.50199e-18
8874.89171 4.49080e-18
8875.75317 4.49160e-18
8876.61463 4.49243e-18
8877.47610 4.50800e-18
8878.34758 4.52361e-18
8879.20904 4.54534e-18
8880.07050 4.56710e-18
8880.93196 4.58597e-18
8881.79342 4.60483e-18
8882.65489 4.61245e-18
8883.51635 4.62002e-18
8884.37781 4.61026e-18
8885.23927 4.60045e-18
8886.10073 4.57895e-18
8886.96220 4.55742e-18
8887.83367 4.53304e-18
8888.69514 4.50865e-18
8889.55660 4.48956e-18
8890.41806 4.47048e-18
8891.27952 4.46408e-18
8892.14099 4.45773e-18
8893.00245 4.46822e-18
8893.86391 4.47877e-18
8894.72537 4.50781e-18
8895.58683 4.53690e-18
8896.44830 4.57765e-18
8897.30976 4.61843e-18
8898.18124 4.65924e-18
8899.04270 4.70003e-18
8899.90416 4.73091e-18
8900.76562 4.76175e-18
8901.62708 4.77439e-18
8902.48855 4.78698e-18
8903.35001 4.78266e-18
8904.21147 4.77830e-18
8905.07293 4.77084e-18
8905.93439 4.76337e-18
8906.80587 4.76185e-18
8907.66734 4.76033e-18
8908.52880 4.76381e-18
8909.39026 4.76732e-18
8910.25172 4.77585e-18
8911.11318 4.78439e-18
8911.97465 4.79966e-18
8912.83611 4.81493e-18
8913.69757 4.83761e-18
8914.55903 4.86032e-18
8915.42049 4.89204e-18
8916.29197 4.92378e-18
8917.15343 4.96416e-18
8918.01490 5.00454e-18
8918.87636 5.04319e-18
8919.73782 5.08182e-18
8920.59928 5.10833e-18
8921.46074 5.13480e-18
8922.32221 5.14623e-18
8923.18367 5.15763e-18
8924.04513 5.15367e-18
8924.90659 5.14968e-18
8925.76805 5.14258e-18
8926.63953 5.13548e-18
8927.50100 5.14195e-18
8928.36246 5.14845e-18
8929.22392 5.16913e-18
8930.08538 5.18985e-18
8930.94684 5.21718e-18
8931.80831 5.24452e-18
8932.66977 5.27303e-18
8933.53123 5.30154e-18
8934.39269 5.32593e-18
8935.25415 5.35030e-18
8936.12563 5.37307e-18
8936.98709 5.39582e-18
8937.84856 5.42891e-18
8938.71002 5.46202e-18
8939.57148 5.50597e-18
8940.43294 5.54994e-18
8941.29440 5.58855e-18
8942.15587 5.62714e-18
8943.01733 5.64853e-18
8943.87879 5.66986e-18
8944.74025 5.66868e-18
8945.61173 5.66744e-18
8946.47319 5.64563e-18
8947.33466 5.62376e-18
8948.19612 5.60631e-18
8949.05758 5.58888e-18
8949.91904 5.59609e-18
8950.78050 5.60337e-18
8951.64197 5.62894e-18
8952.50343 5.65456e-18
8953.36489 5.68827e-18
8954.22635 5.72201e-18
8955.08781 5.73729e-18
8955.95929 5.75251e-18
8956.82075 5.72320e-18
8957.68222 5.69377e-18
8958.54368 5.65240e-18
8959.40514 5.61099e-18
8960.26660 5.60548e-18
8961.12806 5.60006e-18
8961.98953 5.63725e-18
8962.85099 5.67455e-18
8963.71245 5.74537e-18
8964.57391 5.81628e-18
8965.44539 5.89778e-18
8966.30685 5.97930e-18
8967.16832 6.03674e-18
8968.02978 6.09413e-18
8968.89124 6.13131e-18
8969.75270 6.16846e-18
8970.61416 6.22337e-18
8971.47563 6.27833e-18
8972.33709 6.36412e-18
8973.19855 6.44999e-18
8974.06001 6.55040e-18
8974.93149 6.65082e-18
8975.79295 6.74229e-18
8976.65441 6.83372e-18
8977.51588 6.88023e-18
8978.37734 6.92661e-18
8979.23880 6.90012e-18
8980.10026 6.87343e-18
8980.96172 6.75587e-18
8981.82319 6.63808e-18
8982.68465 6.44107e-18
8983.54611 6.24385e-18
8984.41759 6.07334e-18
8985.27905 5.90290e-18
8986.14051 5.85665e-18
8987.00198 5.81073e-18
8987.86344 5.92225e-18
8988.72490 6.03421e-18
8989.58636 6.30856e-18
8990.44782 6.58334e-18
8991.30928 6.88959e-18
8992.17075 7.19591e-18
8993.03221 7.37641e-18
8993.89367 7.55657e-18
8994.76515 7.58770e-18
8995.62661 7.61843e-18
8996.48807 7.52901e-18
8997.34954 7.43926e-18
8998.21100 7.29977e-18
8999.07246 7.16016e-18
8999.93392 7.06683e-18
9000.79538 6.97362e-18
9001.65685 6.96837e-18
9002.51831 6.96337e-18
9003.38979 7.04362e-18
9004.25125 7.12410e-18
9005.11271 7.26188e-18
9005.97417 7.39980e-18
9006.83563 7.54023e-18
9007.69710 7.68067e-18
9008.55856 7.78101e-18
9009.42002 7.88123e-18
9010.28148 7.92163e-18
9011.14295 7.96186e-18
9012.00441 7.94321e-18
9012.87589 7.92440e-18
9013.73735 7.89383e-18
9014.59881 7.86323e-18
9015.46027 7.85570e-18
9016.32173 7.84823e-18
9017.18320 7.84240e-18
9018.04466 7.83657e-18
9018.90612 7.81652e-18
9019.76758 7.79644e-18
9020.62904 7.78057e-18
9021.49051 7.76469e-18
9022.35197 7.77207e-18
9023.22345 7.77950e-18
9024.08491 7.83413e-18
9024.94637 7.88889e-18
9025.80783 8.00996e-18
9026.66930 8.13121e-18
9027.53076 8.28961e-18
9028.39222 8.44813e-18
9029.25368 8.59985e-18
9030.11514 8.75149e-18
9030.97660 8.86596e-18
9031.83807 8.98026e-18
9032.70955 9.03475e-18
9033.57101 9.08907e-18
9034.43247 9.08155e-18
9035.29393 9.07386e-18
9036.15539 9.01591e-18
9037.01686 8.95779e-18
9037.87832 8.87914e-18
9038.73978 8.80040e-18
9039.60124 8.74676e-18
9040.46270 8.69328e-18
9041.32417 8.67689e-18
9042.18563 8.66059e-18
9043.05711 8.64800e-18
9043.91857 8.63533e-18
9044.78003 8.60889e-18
9045.64149 8.58236e-18
9046.50295 8.55263e-18
9047.36442 8.52289e-18
9048.22588 8.49907e-18
9049.08734 8.47524e-18
9049.94880 8.47203e-18
9050.81027 8.46874e-18
9051.67173 8.49003e-18
9052.54321 8.51140e-18
9053.40467 8.51368e-18
9054.26613 8.51579e-18
9055.12759 8.46088e-18
9055.98905 8.40584e-18
9056.85052 8.31411e-18
9057.71198 8.22227e-18
9058.57344 8.12134e-18
9059.43490 8.02040e-18
9060.29636 7.91371e-18
9061.16784 7.80701e-18
9062.02931 7.69593e-18
9062.89077 7.58483e-18
9063.75223 7.46531e-18
9064.61369 7.34576e-18
9065.47515 7.20890e-18
9066.33662 7.07198e-18
9067.19808 6.95263e-18
9068.05954 6.83333e-18
9068.92100 6.78936e-18
9069.78246 6.74559e-18
9070.64393 6.76420e-18
9071.51540 6.78299e-18
9072.37687 6.79940e-18
9073.23833 6.81580e-18
9074.09979 6.80610e-18
9074.96125 6.79634e-18
9075.82271 6.77861e-18
9076.68418 6.76087e-18
9077.54564 6.74645e-18
9078.40710 6.73203e-18
9079.26856 6.72745e-18
9080.13002 6.72288e-18
9080.99149 6.72788e-18
9081.86297 6.73289e-18
9082.72443 6.72500e-18
9083.58589 6.71706e-18
9084.44735 6.68374e-18
9085.30881 6.65035e-18
9086.17028 6.61635e-18
9087.03174 6.58234e-18
9087.89320 6.56671e-18
9088.75466 6.55112e-18
9089.61612 6.52955e-18
9090.48760 6.50794e-18
9091.34906 6.45710e-18
9092.21053 6.40646e-18
9093.07199 6.35041e-18
9093.93345 6.29435e-18
9094.79491 6.26253e-18
9095.65637 6.23078e-18
9096.51784 6.21485e-18
9097.37930 6.19896e-18
9098.24076 6.18137e-18
9099.10222 6.16375e-18
9099.97370 6.14903e-18
9100.83516 6.13431e-18
9101.69663 6.13186e-18
9102.55809 6.12945e-18
9103.41955 6.15727e-18
9104.28101 6.18519e-18
9105.14247 6.26906e-18
9106.00393 6.35310e-18
9106.86540 6.46247e-18
9107.72686 6.57190e-18
9108.58832 6.62836e-18
9109.45980 6.68467e-18
9110.32126 6.65479e-18
9111.18272 6.62469e-18
9112.04419 6.52794e-18
9112.90565 6.43101e-18
9113.76711 6.30736e-18
9114.62857 6.18365e-18
9115.49003 6.11515e-18
9116.35150 6.04681e-18
9117.21296 6.07622e-18
9118.07442 6.10589e-18
9118.93588 6.16990e-18
9119.80736 6.23401e-18
9120.66882 6.27082e-18
9121.53028 6.30755e-18
9122.39175 6.27757e-18
9123.25321 6.24740e-18
9124.11467 6.12686e-18
9124.97613 6.00607e-18
9125.83760 5.85072e-18
9126.69906 5.69528e-18
9127.56052 5.57298e-18
9128.43200 5.45077e-18
9129.29346 5.39658e-18
9130.15492 5.34258e-18
9131.01638 5.37908e-18
9131.87785 5.41584e-18
9132.73931 5.52781e-18
9133.60077 5.64000e-18
9134.46223 5.79303e-18
9135.32369 5.94615e-18
9136.18516 6.10438e-18
9137.04662 6.26263e-18
9137.90808 6.38908e-18
9138.76954 6.51545e-18
9139.64102 6.58633e-18
9140.50248 6.65706e-18
9141.36395 6.66433e-18
9142.22541 6.67144e-18
9143.08687 6.60305e-18
9143.94833 6.53446e-18
9144.80979 6.37308e-18
9145.67125 6.21146e-18
9146.53272 5.97800e-18
9147.39418 5.74435e-18
9148.26566 5.50933e-18
9149.12712 5.27431e-18
9149.98858 5.10171e-18
9150.85004 4.92928e-18
9151.71151 4.87087e-18
9152.57297 4.81277e-18
9153.43443 4.88873e-18
9154.29589 4.96506e-18
9155.15735 5.10901e-18
9156.01882 5.25314e-18
9156.88028 5.39493e-18
9157.75176 5.53671e-18
9158.61322 5.64354e-18
9159.47468 5.75027e-18
9160.33614 5.79681e-18
9161.19760 5.84317e-18
9162.05907 5.83110e-18
9162.92053 5.81886e-18
9163.78199 5.76195e-18
9164.64345 5.70492e-18
9165.50492 5.60126e-18
9166.36638 5.49747e-18
9167.22784 5.34461e-18
9168.09932 5.19163e-18
9168.96078 5.02751e-18
9169.82224 4.86336e-18
9170.68370 4.73930e-18
9171.54517 4.61536e-18
9172.40663 4.55703e-18
9173.26809 4.49887e-18
9174.12955 4.51743e-18
9174.99101 4.53620e-18
9175.85248 4.60010e-18
9176.71394 4.66412e-18
9177.58542 4.70165e-18
9178.44688 4.73910e-18
9179.30834 4.72938e-18
9180.16980 4.71954e-18
9181.03127 4.70965e-18
9181.89273 4.69976e-18
9182.75419 4.71559e-18
9183.61565 4.73150e-18
9184.47711 4.76382e-18
9185.33857 4.79619e-18
9186.20004 4.83385e-18
9187.07152 4.87152e-18
9187.93298 4.88751e-18
9188.79444 4.90344e-18
9189.65590 4.88277e-18
9190.51736 4.86199e-18
9191.37883 4.84640e-18
9192.24029 4.83082e-18
9193.10175 4.85748e-18
9193.96321 4.88426e-18
9194.82467 4.93664e-18
9195.68614 4.98909e-18
9196.55762 5.04362e-18
9197.41908 5.09815e-18
9198.28054 5.13351e-18
9199.14200 5.16882e-18
9200.00346 5.16454e-18
9200.86492 5.16015e-18
9201.72639 5.13132e-18
9202.58785 5.10241e-18
9203.44931 5.07871e-18
9204.31077 5.05502e-18
9205.17224 5.03731e-18
9206.04371 5.01960e-18
9206.90518 4.99484e-18
9207.76664 4.97005e-18
9208.62810 4.94239e-18
9209.48956 4.91471e-18
9210.35102 4.89808e-18
9211.21249 4.88148e-18
9212.07395 4.88990e-18
9212.93541 4.89839e-18
9213.79687 4.94789e-18
9214.65833 4.99751e-18
9215.52981 5.08489e-18
9216.39127 5.17239e-18
9217.25274 5.26445e-18
9218.11420 5.35653e-18
9218.97566 5.43171e-18
9219.83712 5.50684e-18
9220.69859 5.57201e-18
9221.56005 5.63716e-18
9222.42151 5.69621e-18
9223.28297 5.75523e-18
9224.14443 5.80157e-18
9225.00590 5.84787e-18
9225.87737 5.87690e-18
9226.73884 5.90588e-18
9227.60030 5.91278e-18
9228.46176 5.91963e-18
9229.32322 5.90255e-18
9230.18468 5.88541e-18
9231.04615 5.86382e-18
9231.90761 5.84222e-18
9232.76907 5.83860e-18
9233.63053 5.83503e-18
9234.49199 5.84445e-18
9235.35346 5.85389e-18
9236.22494 5.86368e-18
9237.08640 5.87348e-18
9237.94786 5.88941e-18
9238.80932 5.90536e-18
9239.67078 5.93933e-18
9240.53225 5.97334e-18
9241.39371 6.03104e-18
9242.25517 6.08880e-18
9243.11663 6.17256e-18
9243.97809 6.25638e-18
9244.84957 6.35890e-18
9245.71103 6.46146e-18
9246.57250 6.56609e-18
9247.43396 6.67073e-18
9248.29542 6.76797e-18
9249.15688 6.86519e-18
9250.01834 6.95700e-18
9250.87981 7.04880e-18
9251.74127 7.13055e-18
9252.60273 7.21227e-18
9253.46419 7.26436e-18
9254.32565 7.31636e-18
9255.19713 7.33559e-18
9256.05860 7.35472e-18
9256.92006 7.37917e-18
9257.78152 7.40363e-18
9258.64298 7.46196e-18
9259.50444 7.52038e-18
9260.36591 7.60393e-18
9261.22737 7.68755e-18
9262.08883 7.78091e-18
9262.95029 7.87430e-18
9263.81175 7.94377e-18
9264.68323 8.01317e-18
9265.54469 8.02649e-18
9266.40616 8.03966e-18
9267.26762 7.99774e-18
9268.12908 7.95567e-18
9268.99054 7.87179e-18
9269.85200 7.78781e-18
9270.71347 7.69320e-18
9271.57493 7.59857e-18
9272.43639 7.53045e-18
9273.29785 7.46241e-18
9274.16933 7.45017e-18
9275.03079 7.43808e-18
9275.89226 7.50321e-18
9276.75372 7.56857e-18
9277.61518 7.70012e-18
9278.47664 7.83185e-18
9279.33810 7.99360e-18
9280.19957 8.15542e-18
9281.06103 8.30825e-18
9281.92249 8.46105e-18
9282.79397 8.56724e-18
9283.65543 8.67335e-18
9284.51689 8.70291e-18
9285.37835 8.73223e-18
9286.23982 8.66735e-18
9287.10128 8.60221e-18
9287.96274 8.45074e-18
9288.82420 8.29894e-18
9289.68566 8.10888e-18
9290.54713 7.91871e-18
9291.40859 7.74590e-18
9292.27005 7.57315e-18
9293.14153 7.49115e-18
9294.00299 7.40939e-18
9294.86445 7.46619e-18
9295.72592 7.52337e-18
9296.58738 7.66951e-18
9297.44884 7.81590e-18
9298.31030 7.98576e-18
9299.17176 8.15566e-18
9300.03323 8.25975e-18
9300.89469 8.36366e-18
9301.75615 8.31619e-18
9302.62763 8.26828e-18
9303.48909 8.15165e-18
9304.35055 8.03483e-18
9305.21201 7.98382e-18
9306.07348 7.93300e-18
9306.93494 7.91621e-18
9307.79640 7.89950e-18
9308.65786 7.81913e-18
9309.51932 7.73858e-18
9310.38079 7.59917e-18
9311.24225 7.45961e-18
9312.11373 7.31887e-18
9312.97519 7.17814e-18
9313.83665 7.09265e-18
9314.69811 7.00731e-18
9315.55958 7.04138e-18
9316.42104 7.07579e-18
9317.28250 7.21692e-18
9318.14396 7.35834e-18
9319.00542 7.48281e-18
9319.86688 7.60722e-18
9320.72835 7.66649e-18
9321.58981 7.72557e-18
9322.46129 7.83363e-18
9323.32275 7.94183e-18
9324.18421 8.12363e-18
9325.04567 8.30563e-18
9325.90714 8.32805e-18
9326.76860 8.35001e-18
9327.63006 8.06933e-18
9328.49152 7.78779e-18
9329.35298 7.42965e-18
9330.21445 7.07129e-18
9331.07591 6.85416e-18
9331.94739 6.63743e-18
9332.80885 6.51917e-18
9333.67031 6.40121e-18
9334.53177 6.31872e-18
9335.39323 6.23634e-18
9336.25470 6.19105e-18
9337.11616 6.14587e-18
9337.97762 6.12695e-18
9338.83908 6.10812e-18
9339.70055 6.30796e-18
9340.56201 6.50841e-18
9341.43349 7.18753e-18
9342.29495 7.86801e-18
9343.15641 8.69269e-18
9344.01787 9.51771e-18
9344.87933 9.87396e-18
9345.74080 1.02288e-17
9346.60226 9.93343e-18
9347.46372 9.63615e-18
9348.32518 8.79373e-18
9349.18664 7.94979e-18
9350.04811 6.94772e-18
9350.90957 5.94522e-18
9351.78105 5.49797e-18
9352.64251 5.05232e-18
9353.50397 5.39430e-18
9354.36543 5.73851e-18
9355.22689 6.35287e-18
9356.08836 6.96797e-18
9356.94982 7.42014e-18
9357.81128 7.87182e-18
9358.67274 7.90258e-18
9359.53420 7.93214e-18
9360.39567 7.42942e-18
9361.26715 6.92519e-18
9362.12861 6.29618e-18
9362.99007 5.66683e-18
9363.85153 5.29584e-18
9364.71299 4.92559e-18
9365.57446 4.83474e-18
9366.43592 4.74471e-18
9367.29738 4.89698e-18
9368.15884 5.04994e-18
9369.02030 5.25441e-18
9369.89178 5.45901e-18
9370.75324 5.49702e-18
9371.61471 5.53455e-18
9372.47617 5.41950e-18
9373.33763 5.30401e-18
9374.19909 5.11761e-18
9375.06056 4.93101e-18
9375.92202 4.79818e-18
9376.78348 4.66551e-18
9377.64494 4.73887e-18
9378.50640 4.81281e-18
9379.37788 5.03448e-18
9380.23934 5.25658e-18
9381.10081 5.43007e-18
9381.96227 5.60341e-18
9382.82373 5.66612e-18
9383.68519 5.72851e-18
9384.54665 5.73693e-18
9385.40812 5.74519e-18
9386.26958 5.71497e-18
9387.13104 5.68462e-18
9387.99250 5.58928e-18
9388.85396 5.49374e-18
9389.72544 5.33179e-18
9390.58691 5.16964e-18
9391.44837 4.96552e-18
9392.30983 4.76127e-18
9393.17129 4.54845e-18
9394.03275 4.33562e-18
9394.89422 4.17354e-18
9395.75568 4.01162e-18
9396.61714 3.94053e-18
9397.47860 3.86969e-18
9398.34006 3.85975e-18
9399.21154 3.84998e-18
9400.07300 3.86372e-18
9400.93447 3.87752e-18
9401.79593 3.87892e-18
9402.65739 3.88027e-18
9403.51885 3.83779e-18
9404.38031 3.79519e-18
9405.24178 3.74427e-18
9406.10324 3.69333e-18
9406.96470 3.68371e-18
9407.82616 3.67421e-18
9408.69764 3.70644e-18
9409.55910 3.73879e-18
9410.42057 3.79557e-18
9411.28203 3.85242e-18
9412.14349 3.90688e-18
9413.00495 3.96133e-18
9413.86641 3.98162e-18
9414.72788 4.00179e-18
9415.58934 3.96666e-18
9416.45080 3.93135e-18
9417.31226 3.83424e-18
9418.17372 3.73693e-18
9419.04520 3.58463e-18
9419.90666 3.43216e-18
9420.76813 3.23483e-18
9421.62959 3.03738e-18
9422.49105 2.86566e-18
9423.35251 2.69402e-18
9424.21397 2.71645e-18
9425.07544 2.73944e-18
9425.93690 3.01014e-18
9426.79836 3.28154e-18
9427.65982 3.62380e-18
9428.53130 3.96624e-18
9429.39276 4.20969e-18
9430.25423 4.45285e-18
9431.11569 4.43978e-18
9431.97715 4.42598e-18
9432.83861 4.07650e-18
9433.70007 3.72607e-18
9434.56153 3.31729e-18
9435.42300 2.90837e-18
9436.28446 2.73014e-18
9437.14592 2.55260e-18
9438.01740 2.65060e-18
9438.87886 2.74939e-18
9439.74032 3.10484e-18
9440.60179 3.46102e-18
9441.46325 3.89339e-18
9442.32471 4.32597e-18
9443.18617 4.60292e-18
9444.04763 4.87941e-18
9444.90910 4.93447e-18
9445.77056 4.98888e-18
9446.63202 4.83657e-18
9447.49348 4.68365e-18
9448.36496 4.40618e-18
9449.22642 4.12837e-18
9450.08788 3.85803e-18
9450.94935 3.58773e-18
9451.81081 3.41073e-18
9452.67227 3.23401e-18
9453.53373 3.18394e-18
9454.39520 3.13424e-18
9455.25666 3.21948e-18
9456.11812 3.30513e-18
9456.98960 3.50501e-18
9457.85106 3.70522e-18
9458.71252 3.95990e-18
9459.57398 4.21472e-18
9460.43545 4.40342e-18
9461.29691 4.59192e-18
9462.15837 4.64187e-18
9463.01983 4.69142e-18
9463.88129 4.65948e-18
9464.74276 4.62731e-18
9465.60422 4.57292e-18
9466.47570 4.51846e-18
9467.33716 4.47812e-18
9468.19862 4.43783e-18
9469.06008 4.44088e-18
9469.92155 4.44405e-18
9470.78301 4.44552e-18
9471.64447 4.44697e-18
9472.50593 4.39893e-18
9473.36739 4.35075e-18
9474.22885 4.28320e-18
9475.09032 4.21560e-18
9475.96180 4.16935e-18
9476.82326 4.12315e-18
9477.68472 4.18279e-18
9478.54618 4.24272e-18
9479.40764 4.50361e-18
9480.26911 4.76507e-18
9481.13057 5.12364e-18
9481.99203 5.48249e-18
9482.85349 5.73839e-18
9483.71495 5.99398e-18
9484.57642 6.04162e-18
9485.43788 6.08864e-18
9486.30936 5.89104e-18
9487.17082 5.69272e-18
9488.03228 5.33033e-18
9488.89374 4.96748e-18
9489.75520 4.65223e-18
9490.61667 4.33714e-18
9491.47813 4.20455e-18
9492.33959 4.07250e-18
9493.20105 4.12008e-18
9494.06252 4.16819e-18
9494.92398 4.39527e-18
9495.79546 4.62286e-18
9496.65692 5.05836e-18
9497.51838 5.49445e-18
9498.37984 6.09246e-18
9499.24130 6.69093e-18
9500.10277 7.21745e-18
9500.96423 7.74374e-18
9501.82569 7.99636e-18
9502.68715 8.24817e-18
9503.54861 8.19489e-18
9504.41008 8.14072e-18
9505.28155 7.80220e-18
9506.14302 7.46286e-18
9507.00448 7.01494e-18
9507.86594 6.56673e-18
9508.72740 6.21855e-18
9509.58887 5.87069e-18
9510.45033 5.64276e-18
9511.31179 5.41520e-18
9512.17325 5.26618e-18
9513.03471 5.11740e-18
9513.89617 5.08799e-18
9514.75764 5.05893e-18
9515.62912 5.20737e-18
9516.49058 5.35632e-18
9517.35204 5.66562e-18
9518.21350 5.97537e-18
9519.07496 6.38842e-18
9519.93643 6.80176e-18
9520.79789 7.21801e-18
9521.65935 7.63426e-18
9522.52081 7.91522e-18
9523.38227 8.19578e-18
9524.24374 8.29480e-18
9525.11522 8.39330e-18
9525.97668 8.38316e-18
9526.83814 8.37271e-18
9527.69960 8.32051e-18
9528.56106 8.26819e-18
9529.42252 8.22694e-18
9530.28399 8.18573e-18
9531.14545 8.18516e-18
9532.00691 8.18471e-18
9532.86837 8.17773e-18
9533.72984 8.17074e-18
9534.60131 8.11760e-18
9535.46278 8.06432e-18
9536.32424 7.95298e-18
9537.18570 7.84147e-18
9538.04716 7.67831e-18
9538.90862 7.51501e-18
9539.77009 7.44894e-18
9540.63155 7.38315e-18
9541.49301 7.55470e-18
9542.35447 7.72695e-18
9543.21593 8.03544e-18
9544.08741 8.34432e-18
9544.94888 8.63989e-18
9545.81034 8.93540e-18
9546.67180 9.07183e-18
9547.53326 9.20776e-18
9548.39472 9.03508e-18
9549.25619 8.86156e-18
9550.11765 8.55372e-18
9550.97911 8.24550e-18
9551.84057 8.15264e-18
9552.70203 8.06040e-18
9553.57351 8.20630e-18
9554.43497 8.35288e-18
9555.29644 8.53058e-18
9556.15790 8.70832e-18
9557.01936 8.77835e-18
9557.88082 8.84805e-18
9558.74228 8.71753e-18
9559.60375 8.58650e-18
9560.46521 8.31305e-18
9561.32667 8.03924e-18
9562.18813 7.93899e-18
9563.05961 7.83926e-18
9563.92107 8.07528e-18
9564.78254 8.31228e-18
9565.64400 8.71668e-18
9566.50546 9.12159e-18
9567.36692 9.51374e-18
9568.22838 9.90581e-18
9569.08985 1.00701e-17
9569.95131 1.02338e-17
9570.81277 1.00220e-17
9571.67423 9.80899e-18
9572.53569 9.40763e-18
9573.40717 9.00577e-18
9574.26863 8.63677e-18
9575.13010 8.26793e-18
9575.99156 8.07961e-18
9576.85302 7.89184e-18
9577.71448 8.00133e-18
9578.57594 8.11169e-18
9579.43741 8.33489e-18
9580.29887 8.55837e-18
9581.16033 8.62638e-18
9582.02179 8.69396e-18
9582.89327 8.57121e-18
9583.75473 8.44796e-18
9584.61620 8.18722e-18
9585.47766 7.92605e-18
9586.33912 7.71534e-18
9587.20058 7.50478e-18
9588.06204 7.63040e-18
9588.92351 7.75701e-18
9589.78497 8.18313e-18
9590.64643 8.61016e-18
9591.51791 9.00830e-18
9592.37937 9.40645e-18
9593.24083 9.59957e-18
9594.10229 9.79218e-18
9594.96376 9.79725e-18
9595.82522 9.80181e-18
9596.68668 9.65448e-18
9597.54814 9.50673e-18
9598.40960 9.29004e-18
9599.27107 9.07327e-18
9600.13253 8.87897e-18
9600.99399 8.68467e-18
9601.86547 8.58523e-18
9602.72693 8.48606e-18
9603.58839 8.52880e-18
9604.44986 8.57206e-18
9605.31132 8.74912e-18
9606.17278 8.92661e-18
9607.03424 9.19813e-18
9607.89570 9.46981e-18
9608.75717 9.66310e-18
9609.61863 9.85613e-18
9610.48009 9.80477e-18
9611.35157 9.75265e-18
9612.21303 9.52717e-18
9613.07449 9.30128e-18
9613.93595 9.03483e-18
9614.79742 8.76822e-18
9615.65888 8.55330e-18
9616.52034 8.33850e-18
9617.38180 8.25224e-18
9618.24326 8.16639e-18
9619.10473 8.22864e-18
9619.96619 8.29133e-18
9620.82765 8.48065e-18
9621.69913 8.67039e-18
9622.56059 8.91850e-18
9623.42205 9.16679e-18
9624.28352 9.37866e-18
9625.14498 9.59045e-18
9626.00644 9.67552e-18
9626.86790 9.76016e-18
9627.72936 9.63353e-18
9628.59083 9.50631e-18
9629.45229 9.19289e-18
9630.31375 8.87897e-18
9631.17521 8.56428e-18
9632.04669 8.24955e-18
9632.90815 8.07753e-18
9633.76961 7.90594e-18
9634.63108 7.93264e-18
9635.49254 7.95993e-18
9636.35400 8.17942e-18
9637.21546 8.39948e-18
9638.07692 8.60357e-18
9638.93839 8.80758e-18
9639.79985 8.82414e-18
9640.67133 8.84011e-18
9641.53279 8.77658e-18
9642.39425 8.71280e-18
9643.25571 8.69472e-18
9644.11718 8.67681e-18
9644.97864 8.73451e-18
9645.84010 8.79255e-18
9646.70156 8.93836e-18
9647.56302 9.08442e-18
9648.42448 9.22094e-18
9649.28595 9.35737e-18
9650.15743 9.35771e-18
9651.01889 9.35754e-18
9651.88035 9.22119e-18
9652.74181 9.08442e-18
9653.60327 8.86832e-18
9654.46474 8.65189e-18
9655.32620 8.43415e-18
9656.18766 8.21638e-18
9657.04912 8.08722e-18
9657.91058 7.95833e-18
9658.77205 7.96814e-18
9659.64352 7.97838e-18
9660.50499 8.13951e-18
9661.36645 8.30109e-18
9662.22791 8.56251e-18
9663.08937 8.82422e-18
9663.95083 9.05274e-18
9664.81230 9.28117e-18
9665.67376 9.39969e-18
9666.53522 9.51796e-18
9667.39668 9.56730e-18
9668.25815 9.61647e-18
9669.11961 9.62001e-18
9669.99109 9.62339e-18
9670.85255 9.54170e-18
9671.71401 9.45967e-18
9672.57547 9.28193e-18
9673.43693 9.10385e-18
9674.29840 8.90271e-18
9675.15986 8.70139e-18
9676.02132 8.54933e-18
9676.88278 8.39745e-18
9677.74424 8.34510e-18
9678.61572 8.29306e-18
9679.47718 8.37395e-18
9680.33865 8.45522e-18
9681.20011 8.60272e-18
9682.06157 8.75031e-18
9682.92303 8.87153e-18
9683.78449 8.99268e-18
9684.64596 9.06017e-18
9685.50742 9.12742e-18
9686.36888 9.13739e-18
9687.23034 9.14719e-18
9688.10182 9.10926e-18
9688.96328 9.07124e-18
9689.82475 9.00890e-18
9690.68621 8.94647e-18
9691.54767 8.86393e-18
9692.40913 8.78131e-18
9693.27059 8.66616e-18
9694.13206 8.55085e-18
9694.99352 8.42005e-18
9695.85498 8.28920e-18
9696.71644 8.18923e-18
9697.57790 8.08935e-18
9698.44938 8.04329e-18
9699.31084 7.99741e-18
9700.17231 7.99650e-18
9701.03377 7.99574e-18
9701.89523 8.02098e-18
9702.75669 8.04631e-18
9703.61816 8.05544e-18
9704.47962 8.06452e-18
9705.34108 8.03025e-18
9706.20254 7.99585e-18
9707.06400 7.94450e-18
9707.93548 7.89309e-18
9708.79694 7.85194e-18
9709.65841 7.81083e-18
9710.51987 7.79478e-18
9711.38133 7.77879e-18
9712.24279 7.79753e-18
9713.10425 7.81637e-18
9713.96572 7.84399e-18
9714.82718 7.87163e-18
9715.68864 7.87696e-18
9716.55010 7.88222e-18
9717.41156 7.85631e-18
9718.28304 7.83032e-18
9719.14451 7.76959e-18
9720.00597 7.70876e-18
9720.86743 7.64570e-18
9721.72889 7.58264e-18
9722.59035 7.56721e-18
9723.45182 7.55192e-18
9724.31328 7.56217e-18
9725.17474 7.57251e-18
9726.03620 7.54327e-18
9726.89766 7.51391e-18
9727.76914 7.42209e-18
9728.63060 7.33008e-18
9729.49207 7.18780e-18
9730.35353 7.04537e-18
9731.21499 6.88299e-18
9732.07645 6.72054e-18
9732.93791 6.59388e-18
9733.79938 6.46733e-18
9734.66084 6.41117e-18
9735.52230 6.35522e-18
9736.38376 6.36279e-18
9737.25524 6.37056e-18
9738.11670 6.42622e-18
9738.97817 6.48203e-18
9739.83963 6.55497e-18
9740.70109 6.62796e-18
9741.56255 6.68772e-18
9742.42401 6.74745e-18
9743.28548 6.77789e-18
9744.14694 6.80824e-18
9745.00840 6.79979e-18
9745.86986 6.79122e-18
9746.74134 6.75685e-18
9747.60280 6.72242e-18
9748.46426 6.67996e-18
9749.32573 6.63748e-18
9750.18719 6.59116e-18
9751.04865 6.54482e-18
9751.91011 6.49687e-18
9752.77157 6.44891e-18
9753.63304 6.39775e-18
9754.49450 6.34658e-18
9755.35596 6.28890e-18
9756.22744 6.23119e-18
9757.08890 6.17899e-18
9757.95036 6.12680e-18
9758.81183 6.09782e-18
9759.67329 6.06890e-18
9760.53475 6.07685e-18
9761.39621 6.08491e-18
9762.25767 6.14156e-18
9763.11913 6.19836e-18
9763.98060 6.28588e-18
9764.84206 6.37349e-18
9765.71354 6.44165e-18
9766.57500 6.50974e-18
9767.43646 6.53391e-18
9768.29792 6.55793e-18
9769.15939 6.55425e-18
9770.02085 6.55047e-18
9770.88231 6.53270e-18
9771.74377 6.51488e-18
9772.60523 6.48989e-18
9773.46670 6.46489e-18
9774.32816 6.44141e-18
9775.19964 6.41792e-18
9776.06110 6.40285e-18
9776.92256 6.38780e-18
9777.78402 6.38573e-18
9778.64548 6.38370e-18
9779.50695 6.40051e-18
9780.36841 6.41738e-18
9781.22987 6.45470e-18
9782.09133 6.49208e-18
9782.95280 6.51760e-18
9783.81426 6.54308e-18
9784.68574 6.52169e-18
9785.54720 6.50015e-18
9786.40866 6.44886e-18
9787.27012 6.39749e-18
9788.13158 6.34830e-18
9788.99305 6.29911e-18
9789.85451 6.26329e-18
9790.71597 6.22749e-18
9791.57743 6.20972e-18
9792.43889 6.19199e-18
9793.30036 6.18026e-18
9794.16182 6.16855e-18
9795.03330 6.13766e-18
9795.89476 6.10670e-18
9796.75622 6.06400e-18
9797.61768 6.02127e-18
9798.47915 6.00361e-18
9799.34061 5.98602e-18
9800.20207 6.00570e-18
9801.06353 6.02550e-18
9801.92499 6.06507e-18
9802.78645 6.10470e-18
9803.64792 6.14653e-18
9804.51940 6.18835e-18
9805.38086 6.21175e-18
9806.24232 6.23510e-18
9807.10378 6.23004e-18
9807.96524 6.22489e-18
9808.82671 6.21122e-18
9809.68817 6.19752e-18
9810.54963 6.19412e-18
9811.41109 6.19075e-18
9812.27255 6.20957e-18
9813.13402 6.22845e-18
9813.99548 6.27501e-18
9814.86696 6.32167e-18
9815.72842 6.36285e-18
9816.58988 6.40402e-18
9817.45134 6.40462e-18
9818.31280 6.40510e-18
9819.17427 6.36980e-18
9820.03573 6.33439e-18
9820.89719 6.27800e-18
9821.75865 6.22155e-18
9822.62012 6.16580e-18
9823.48158 6.11006e-18
9824.35306 6.08028e-18
9825.21452 6.05059e-18
9826.07598 6.04308e-18
9826.93744 6.03566e-18
9827.79890 6.02994e-18
9828.66037 6.02423e-18
9829.52183 6.01522e-18
9830.38329 6.00621e-18
9831.24475 5.99999e-18
9832.10621 5.99378e-18
9832.97769 5.98895e-18
9833.83915 5.98412e-18
9834.70062 5.97270e-18
9835.56208 5.96127e-18
9836.42354 5.93961e-18
9837.28500 5.91792e-18
9838.14647 5.88816e-18
9839.00793 5.85837e-18
9839.86939 5.82293e-18
9840.73085 5.78748e-18
9841.59231 5.74762e-18
9842.45377 5.70775e-18
9843.32525 5.66802e-18
9844.18672 5.62828e-18
9845.04818 5.60276e-18
9845.90964 5.57727e-18
9846.77110 5.57704e-18
9847.63256 5.57688e-18
9848.49403 5.59851e-18
9849.35549 5.62021e-18
9850.21695 5.65740e-18
9851.07841 5.69465e-18
9851.93987 5.74138e-18
9852.81135 5.78815e-18
9853.67282 5.83732e-18
9854.53428 5.88649e-18
9855.39574 5.93359e-18
9856.25720 5.98068e-18
9857.11866 6.02240e-18
9857.98013 6.06411e-18
9858.84159 6.09153e-18
9859.70305 6.11890e-18
9860.56451 6.12179e-18
9861.42597 6.12461e-18
9862.29745 6.10159e-18
9863.15891 6.07850e-18
9864.02038 6.03395e-18
9864.88184 5.98934e-18
9865.74330 5.93139e-18
9866.60476 5.87340e-18
9867.46622 5.81368e-18
9868.32769 5.75396e-18
9869.18915 5.69914e-18
9870.05061 5.64433e-18
9870.92209 5.59362e-18
9871.78355 5.54294e-18
9872.64501 5.49722e-18
9873.50648 5.45153e-18
9874.36794 5.41473e-18
9875.22940 5.37796e-18
9876.09086 5.35316e-18
9876.95232 5.32841e-18
9877.81379 5.31848e-18
9878.67525 5.30859e-18
9879.53671 5.31482e-18
9880.39817 5.32109e-18
9881.26965 5.34150e-18
9882.13111 5.36196e-18
9882.99257 5.39288e-18
9883.85404 5.42384e-18
9884.71550 5.45859e-18
9885.57696 5.49336e-18
9886.43842 5.52470e-18
9887.29988 5.55603e-18
9888.16135 5.57718e-18
9889.02281 5.59829e-18
9889.88427 5.60357e-18
9890.74573 5.60880e-18
9891.61721 5.59806e-18
9892.47867 5.58728e-18
9893.34014 5.56340e-18
9894.20160 5.53947e-18
9895.06306 5.50552e-18
9895.92452 5.47153e-18
9896.78598 5.43073e-18
9897.64745 5.38992e-18
9898.50891 5.34759e-18
9899.37037 5.30525e-18
9900.23183 5.26839e-18
9901.09329 5.23155e-18
9901.96477 5.20132e-18
9902.82623 5.17111e-18
9903.68770 5.14156e-18
9904.54916 5.11202e-18
9905.41062 5.08451e-18
9906.27208 5.05701e-18
9907.13354 5.04453e-18
9907.99501 5.03208e-18
9908.85647 5.04076e-18
9909.71793 5.04951e-18
9910.57939 5.07347e-18
9911.45087 5.09747e-18
9912.31233 5.12706e-18
9913.17380 5.15667e-18
9914.03526 5.17155e-18
9914.89672 5.18639e-18
9915.75818 5.17038e-18
9916.61964 5.15428e-18
9917.48111 5.11305e-18
9918.34257 5.07174e-18
9919.20403 5.01516e-18
9920.07551 4.95853e-18
9920.93697 4.89782e-18
9921.79843 4.83711e-18
9922.65989 4.78369e-18
9923.52136 4.73031e-18
9924.38282 4.68920e-18
9925.24428 4.64814e-18
9926.10574 4.62129e-18
9926.96720 4.59449e-18
9927.82867 4.57448e-18
9928.69013 4.55448e-18
9929.56161 4.52949e-18
9930.42307 4.50447e-18
9931.28453 4.47064e-18
9932.14599 4.43678e-18
9933.00746 4.39580e-18
9933.86892 4.35479e-18
9934.73038 4.31014e-18
9935.59184 4.26547e-18
9936.45330 4.22217e-18
9937.31477 4.17887e-18
9938.17623 4.14355e-18
9939.03769 4.10827e-18
9939.90917 4.08929e-18
9940.77063 4.07035e-18
9941.63209 4.06999e-18
9942.49355 4.06969e-18
9943.35502 4.07931e-18
9944.21648 4.08896e-18
9945.07794 4.10111e-18
9945.93940 4.11327e-18
9946.80086 4.12607e-18
9947.66233 4.13887e-18
9948.52379 4.15015e-18
9949.39527 4.16143e-18
9950.25673 4.16706e-18
9951.11819 4.17267e-18
9951.97965 4.16997e-18
9952.84112 4.16726e-18
9953.70258 4.16160e-18
9954.56404 4.15593e-18
9955.42550 4.15319e-18
9956.28696 4.15045e-18
9957.14843 4.14669e-18
9958.00989 4.14292e-18
9958.88137 4.13272e-18
9959.74283 4.12248e-18
9960.60429 4.10306e-18
9961.46575 4.08360e-18
9962.32721 4.05316e-18
9963.18868 4.02269e-18
9964.05014 3.99035e-18
9964.91160 3.95801e-18
9965.77306 3.93900e-18
9966.63452 3.92002e-18
9967.49599 3.91789e-18
9968.36747 3.91582e-18
9969.22893 3.92471e-18
9970.09039 3.93363e-18
9970.95185 3.95263e-18
9971.81331 3.97167e-18
9972.67477 4.00514e-18
9973.53624 4.03865e-18
9974.39770 4.08477e-18
9975.25916 4.13093e-18
9976.12062 4.17984e-18
9976.98208 4.22874e-18
9977.85356 4.27257e-18
9978.71503 4.31638e-18
9979.57649 4.35137e-18
9980.43795 4.38634e-18
9981.29941 4.41117e-18
9982.16087 4.43599e-18
9983.02234 4.45595e-18
9983.88380 4.47590e-18
9984.74526 4.49632e-18
9985.60672 4.51675e-18
9986.46818 4.54027e-18
9987.32965 4.56380e-18
9988.20112 4.59181e-18
9989.06259 4.61982e-18
9989.92405 4.64244e-18
9990.78551 4.66503e-18
9991.64697 4.67107e-18
9992.50843 4.67706e-18
9993.36990 4.67493e-18
9994.23136 4.67276e-18
9995.09282 4.67679e-18
9995.95428 4.68085e-18
9996.81574 4.68860e-18
9997.67721 4.69637e-18
9998.54869 4.69871e-18
9999.41015 4.70103e-18
