# wavelength flux
3719.99538 1.69319e-17
3721.50320 8.61539e-18
3723.00084 4.17892e-18
3724.49848 -4.08914e-18
3725.99611 2.07072e-18
3727.50394 6.89695e-18
3729.00157 3.61080e-18
3730.49921 1.16809e-17
3731.99684 1.65865e-17
3733.50467 1.35807e-17
3735.00230 2.30676e-17
3736.49994 1.77904e-17
3737.99758 4.71756e-18
3739.49521 2.42898e-18
3741.00304 2.24708e-17
3742.50067 1.92070e-17
3743.99831 7.09382e-18
3745.49594 5.14452e-18
3747.00377 1.37581e-17
3748.50140 1.60537e-17
3749.99904 -8.79374e-19
3751.49668 4.61958e-18
3753.00450 1.23765e-17
3754.50214 -3.64885e-18
3755.99977 3.28423e-18
3757.49741 1.20780e-17
3758.99504 7.75807e-18
3760.50287 9.71512e-18
3762.00050 1.66195e-17
3763.49814 3.71953e-18
3764.99578 8.58555e-18
3766.50360 1.18933e-17
3768.00124 -9.42741e-18
3769.49887 -3.45252e-18
3770.99651 8.88538e-18
3772.50433 2.14016e-17
3774.00197 3.00815e-17
3775.49960 1.12612e-17
3776.99724 -1.07977e-17
3778.49488 -9.99242e-18
3780.00270 -9.18711e-18
3781.50034 -8.13373e-18
3782.99797 -7.08031e-18
3784.49561 -6.02701e-18
3786.00343 -4.97403e-18
3787.50107 -3.92099e-18
3788.99870 -2.86809e-18
3790.49634 -1.81549e-18
3792.00416 -7.62850e-19
3793.50180 2.89493e-19
3794.99944 1.34188e-18
3796.49707 2.39414e-18
3798.00490 3.44610e-18
3799.50253 4.49811e-18
3801.00017 5.54999e-18
3802.49780 6.60157e-18
3803.99544 7.65320e-18
3805.50326 8.70453e-18
3807.00090 9.75591e-18
3808.49854 1.08072e-17
3809.99617 1.18581e-17
3811.50400 1.29091e-17
3813.00163 1.39600e-17
3814.49927 1.50106e-17
3815.99690 1.60613e-17
3817.50473 1.71116e-17
3819.00236 7.40571e-18
3820.50000 1.09554e-17
3821.99764 1.28549e-17
3823.49527 8.97149e-18
3825.00310 2.74182e-18
3826.50073 2.02636e-18
3827.99837 9.83894e-18
3829.49600 2.01431e-17
3831.00383 1.85995e-17
3832.50146 8.55792e-18
3833.99910 9.52943e-18
3835.49674 6.12564e-18
3837.00456 1.61814e-17
3838.50220 1.83159e-17
3839.99983 8.90327e-18
3841.49747 5.55591e-18
3842.99510 -1.69120e-19
3844.50293 1.01401e-18
3846.00056 1.64184e-17
3847.49820 2.92146e-17
3848.99584 1.21833e-17
3850.50366 5.69957e-18
3852.00130 6.58387e-18
3853.49893 -3.28285e-19
3854.99657 1.19273e-17
3856.50439 1.34159e-17
3858.00203 -1.18408e-19
3859.49966 2.17817e-17
3860.99730 2.15684e-17
3862.49494 1.59934e-17
3864.00276 1.44354e-17
3865.50040 1.78273e-17
3866.99803 -5.00396e-18
3868.49567 1.13519e-17
3870.00349 1.14255e-17
3871.50113 2.83654e-18
3872.99876 9.56564e-20
3874.49640 8.05534e-19
3876.00422 5.97970e-18
3877.50186 2.11901e-17
3878.99950 1.35848e-17
3880.49713 1.75977e-17
3881.99477 1.62001e-17
3883.50259 9.11773e-18
3885.00023 1.33796e-17
3886.49786 1.75233e-17
3887.99550 6.43027e-18
3889.50332 5.54375e-18
3891.00096 -2.41687e-18
3892.49860 1.66901e-18
3893.99623 3.81024e-18
3895.50406 1.54180e-17
3897.00169 1.96446e-17
3898.49933 5.61897e-18
3899.99696 9.84433e-18
3901.50479 1.54444e-17
3903.00242 6.12079e-18
3904.50006 -4.25719e-18
3905.99770 -3.06388e-18
3907.49533 6.36105e-18
3909.00316 1.08763e-17
3910.50079 1.19480e-17
3911.99843 7.41535e-18
3913.49606 -3.29131e-18
3915.00389 -7.25206e-19
3916.50152 1.09261e-17
3917.99916 1.99636e-17
3919.49680 1.47007e-17
3921.00462 3.64194e-18
3922.50226 1.16054e-17
3923.99989 2.30767e-17
3925.49753 2.30746e-17
3926.99516 1.20811e-17
3928.50299 1.44625e-17
3930.00062 1.98074e-17
3931.49826 1.93336e-17
3932.99590 2.70665e-17
3934.50372 1.83988e-17
3936.00136 1.56139e-17
3937.49899 2.24696e-17
3938.99663 1.10115e-17
3940.50445 3.58586e-18
3942.00209 1.91725e-17
3943.49972 2.55690e-17
3944.99736 4.97305e-18
3946.49500 -1.06809e-18
3948.00282 5.49426e-18
3949.50046 2.06915e-17
3950.99809 1.91174e-17
3952.49573 4.03144e-18
3954.00355 8.62102e-18
3955.50119 9.03896e-18
3956.99882 2.12653e-17
3958.49646 2.18241e-17
3960.00428 1.84920e-17
3961.50192 1.28154e-17
3962.99956 1.44727e-17
3964.49719 8.29347e-18
3965.99483 1.32344e-17
3967.50265 9.25186e-18
3969.00029 1.78404e-17
3970.49792 2.91211e-17
3971.99556 2.22853e-17
3973.50338 2.12435e-17
3975.00102 2.99168e-17
3976.49866 2.86814e-17
3977.99629 2.05463e-17
3979.50412 1.69598e-17
3981.00175 1.73084e-17
3982.49939 1.94846e-17
3983.99702 1.72001e-17
3985.50485 1.01933e-17
3987.00248 1.09621e-17
3988.50012 1.33123e-17
3989.99776 1.56787e-17
3991.49539 1.85822e-17
3993.00322 1.90935e-17
3994.50085 2.37921e-17
3995.99849 1.96771e-17
3997.49612 1.49104e-17
3999.00395 1.26939e-17
4000.50158 9.70850e-18
4001.99922 1.71968e-17
4003.49686 1.05120e-17
4005.00468 -5.03616e-18
4006.50232 6.11075e-18
4007.99995 1.63563e-17
4009.49759 9.50074e-18
4010.99522 1.21162e-17
4012.50305 1.34936e-17
4014.00068 1.50010e-17
4015.49832 1.95402e-17
4016.99596 2.03493e-17
4018.50378 7.68302e-18
4020.00142 5.68107e-18
4021.49905 2.02077e-17
4022.99669 1.92157e-17
4024.50451 1.01238e-17
4026.00215 1.56995e-17
4027.49978 1.35496e-17
4028.99742 1.48926e-17
4030.49506 1.97873e-17
4032.00288 1.50079e-17
4033.50052 9.08123e-18
4034.99815 1.32331e-17
4036.49579 6.46594e-18
4038.00361 1.28261e-17
4039.50125 2.20285e-17
4040.99888 7.78105e-18
4042.49652 5.61711e-18
4044.00434 1.55685e-17
4045.50198 1.52277e-17
4046.99962 8.19241e-18
4048.49725 7.99086e-18
4049.99489 1.31436e-17
4051.50271 1.59183e-17
4053.00035 1.81832e-17
4054.49798 2.07801e-17
4055.99562 1.84168e-17
4057.50344 1.34840e-17
4059.00108 4.57151e-18
4060.49872 5.50379e-19
4061.99635 1.32925e-17
4063.50418 1.69020e-17
4065.00181 5.33827e-18
4066.49945 9.14485e-18
4067.99708 9.84545e-18
4069.50491 4.30931e-18
4071.00254 1.20811e-17
4072.50018 1.31060e-17
4073.99782 1.04009e-17
4075.49545 7.34710e-18
4077.00328 4.86075e-18
4078.50091 1.51227e-17
4079.99855 1.79856e-17
4081.49618 1.07866e-17
4083.00401 8.22706e-18
4084.50164 2.71546e-17
4085.99928 2.90941e-17
4087.49692 1.88873e-17
4089.00474 1.63465e-17
4090.50238 2.34013e-17
4092.00001 6.50225e-18
4093.49765 7.89934e-18
4094.99528 1.85113e-17
4096.50311 1.45965e-17
4098.00074 1.45619e-17
4099.49838 1.44609e-17
4100.99602 1.28874e-17
4102.50384 6.22801e-18
4104.00148 7.25107e-18
4105.49911 8.75825e-18
4106.99675 1.26851e-17
4108.50457 2.32586e-17
4110.00221 2.08993e-17
4111.49984 1.49552e-17
4112.99748 1.16445e-17
4114.49512 4.49129e-18
4116.00294 8.73628e-18
4117.50058 2.11270e-17
4118.99821 1.70443e-17
4120.49585 1.28422e-17
4122.00367 1.05823e-17
4123.50131 1.57420e-17
4124.99894 2.15107e-17
4126.49658 1.60470e-17
4128.00440 1.77341e-17
4129.50204 1.06302e-17
4130.99968 7.13427e-18
4132.49731 6.70071e-18
4133.99495 5.15750e-18
4135.50277 1.22714e-17
4137.00041 1.65623e-17
4138.49804 1.88038e-17
4139.99568 1.18735e-17
4141.50350 4.96240e-18
4143.00114 1.17194e-17
4144.49878 1.94657e-17
4145.99641 1.23158e-17
4147.50424 1.71612e-17
4149.00187 1.77314e-17
4150.49951 1.05217e-17
4151.99714 1.25339e-17
4153.49478 1.71295e-17
4155.00260 7.29577e-18
4156.50024 5.94762e-18
4157.99788 1.62143e-17
4159.49551 2.62000e-17
4161.00334 1.90458e-17
4162.50097 2.03611e-17
4163.99861 2.06962e-17
4165.49624 9.25772e-18
4167.00407 6.89201e-18
4168.50170 9.19853e-18
4169.99934 6.37455e-18
4171.49698 1.10362e-17
4173.00480 1.67332e-17
4174.50244 1.28549e-17
4176.00007 1.25130e-17
4177.49771 1.89417e-17
4178.99534 2.08710e-17
4180.50317 1.94838e-17
4182.00080 1.77294e-17
4183.49844 1.64799e-17
4184.99608 1.56797e-17
4186.50390 1.11902e-17
4188.00154 1.41451e-17
4189.49917 1.07935e-17
4190.99681 1.23351e-17
4192.50463 1.39768e-17
4194.00227 9.85180e-18
4195.49990 1.32633e-17
4196.99754 1.64907e-17
4198.49518 1.36797e-17
4200.00300 1.18623e-17
4201.50064 9.45089e-18
4202.99827 1.62171e-17
4204.49591 1.80763e-17
4206.00373 1.60088e-17
4207.50137 2.07944e-17
4208.99900 1.39528e-17
4210.49664 -2.38771e-18
4212.00446 1.47072e-17
4213.50210 1.57917e-17
4214.99974 9.79471e-18
4216.49737 8.47667e-18
4218.00520 8.63241e-18
4219.50283 9.54136e-18
4221.00047 1.25886e-17
4222.49810 1.54353e-17
4223.99574 1.46670e-17
4225.50356 2.12004e-17
4227.00120 1.92218e-17
4228.49884 1.41800e-17
4229.99647 1.31871e-17
4231.50430 1.51755e-17
4233.00193 1.65303e-17
4234.49957 1.79460e-17
4235.99720 1.83826e-17
4237.50503 1.46632e-17
4239.00266 9.78562e-18
4240.50030 1.14387e-17
4241.99794 1.60486e-17
4243.49557 1.28969e-17
4245.00340 1.43886e-17
4246.50103 1.70712e-17
4247.99867 2.00809e-17
4249.49630 1.58993e-17
4251.00413 1.05645e-17
4252.50176 1.11406e-17
4253.99940 1.40171e-17
4255.49704 1.44467e-17
4257.00486 7.45127e-18
4258.50250 4.49955e-18
4260.00013 1.01261e-17
4261.49777 8.49252e-18
4262.99540 1.09311e-17
4264.50323 1.63663e-17
4266.00086 1.76801e-17
4267.49850 2.56357e-17
4268.99614 2.47122e-17
4270.50396 1.88917e-17
4272.00160 1.53275e-17
4273.49923 1.39574e-17
4274.99687 1.71613e-17
4276.50469 1.62087e-17
4278.00233 1.22938e-17
4279.49996 1.25833e-17
4280.99760 8.66028e-18
4282.49524 1.34177e-17
4284.00306 1.44362e-17
4285.50070 1.13642e-17
4286.99833 1.45712e-17
4288.49597 1.16094e-17
4290.00379 4.04408e-18
4291.50143 9.36831e-18
4292.99906 8.56843e-18
4294.49670 7.29983e-18
4296.00452 5.54121e-18
4297.50216 8.18660e-18
4298.99980 1.68086e-17
4300.49743 1.71892e-17
4301.99507 1.18869e-17
4303.50289 7.95612e-18
4305.00053 1.13084e-17
4306.49816 8.51098e-18
4307.99580 6.55938e-18
4309.50362 1.43526e-17
4311.00126 2.39925e-17
4312.49890 2.26617e-17
4313.99653 1.56316e-17
4315.50436 1.27963e-17
4317.00199 1.52508e-17
4318.49963 1.09261e-17
4319.99726 9.34282e-18
4321.49490 9.95908e-18
4323.00272 1.63959e-17
4324.50036 2.16434e-17
4325.99800 1.33742e-17
4327.49563 1.08111e-17
4329.00346 1.64445e-17
4330.50109 1.61311e-17
4331.99873 1.36477e-17
4333.49636 9.62178e-18
4335.00419 8.88641e-18
4336.50182 1.23279e-17
4337.99946 8.32133e-18
4339.49710 1.19157e-17
4341.00492 8.25283e-18
4342.50256 1.24240e-17
4344.00019 1.81468e-17
4345.49783 1.39325e-17
4346.99546 1.41420e-17
4348.50329 1.40839e-17
4350.00092 1.13057e-17
4351.49856 1.45587e-17
4352.99620 6.21157e-18
4354.50402 8.42668e-18
4356.00166 1.29870e-17
4357.49929 7.49731e-18
4358.99693 1.62028e-17
4360.50475 1.05990e-17
4362.00239 1.29990e-17
4363.50002 2.01420e-17
4364.99766 1.43582e-17
4366.49530 1.40082e-17
4368.00312 9.39232e-18
4369.50076 1.40249e-17
4370.99839 9.88369e-18
4372.49603 6.60354e-18
4374.00385 1.09239e-17
4375.50149 1.13941e-17
4376.99912 2.00470e-17
4378.49676 2.07191e-17
4380.00458 1.61101e-17
4381.50222 1.55249e-17
4382.99986 1.35349e-17
4384.49749 1.02354e-17
4385.99513 1.08182e-17
4387.50295 1.05602e-17
4389.00059 7.00080e-18
4390.49822 6.90473e-18
4391.99586 1.00093e-17
4393.50368 1.30775e-17
4395.00132 5.37019e-18
4396.49896 6.29532e-18
4397.99659 1.30101e-17
4399.50442 1.28563e-17
4401.00205 1.08050e-17
4402.49969 1.20896e-17
4403.99732 1.16735e-17
4405.50515 8.13757e-18
4407.00278 9.14285e-18
4408.50042 8.80107e-18
4409.99806 1.42334e-17
4411.49569 1.12787e-17
4413.00352 4.59428e-18
4414.50115 1.84509e-18
4415.99879 2.17364e-18
4417.49642 2.50204e-18
4419.00425 2.83040e-18
4420.50188 3.15884e-18
4421.99952 3.48714e-18
4423.49716 3.81540e-18
4425.00498 4.14373e-18
4426.50262 4.47192e-18
4428.00025 4.80007e-18
4429.49789 5.12830e-18
4430.99552 5.45638e-18
4432.50335 5.78443e-18
4434.00098 6.11244e-18
4435.49862 6.44052e-18
4436.99626 6.76846e-18
4438.50408 7.09637e-18
4440.00172 7.42434e-18
4441.49935 7.75217e-18
4442.99699 8.07997e-18
4444.50481 8.40784e-18
4446.00245 8.73556e-18
4447.50008 9.06325e-18
4448.99772 9.39101e-18
4450.49536 9.71862e-18
4452.00318 1.00462e-17
4453.50082 1.03739e-17
4454.99845 1.07014e-17
4456.49609 1.10288e-17
4458.00391 1.13563e-17
4459.50155 1.16838e-17
4460.99918 1.20111e-17
4462.49682 1.23385e-17
4464.00464 1.26659e-17
4465.50228 1.29931e-17
4466.99992 1.33203e-17
4468.49755 1.36476e-17
4469.99519 1.39748e-17
4471.50301 1.43019e-17
4473.00065 1.46291e-17
4474.49828 1.49561e-17
4475.99592 1.52831e-17
4477.50374 1.82627e-17
4479.00138 1.17565e-17
4480.49902 1.06258e-17
4481.99665 1.25160e-17
4483.50448 1.70551e-17
4485.00211 1.57470e-17
4486.49975 1.05270e-17
4487.99738 1.00580e-17
4489.49502 1.42806e-17
4491.00284 1.53149e-17
4492.50048 1.89027e-17
4493.99812 1.94301e-17
4495.49575 1.14622e-17
4497.00358 1.03153e-17
4498.50121 1.17574e-17
4499.99885 1.04913e-17
4501.49648 1.47870e-17
4503.00431 1.31978e-17
4504.50194 1.22673e-17
4505.99958 1.13370e-17
4507.49722 1.04067e-17
4508.99485 9.47660e-18
4510.50268 8.54655e-18
4512.00031 8.54607e-18
4513.49795 8.93614e-18
4514.99558 9.42249e-18
4516.50341 1.25608e-17
4518.00104 1.34961e-17
4519.49868 1.29353e-17
4520.99632 1.54487e-17
4522.50414 8.70132e-18
4524.00178 5.93317e-18
4525.49941 9.91358e-18
4526.99705 1.43644e-17
4528.50487 1.54268e-17
4530.00251 1.09046e-17
4531.50014 1.25910e-17
4532.99778 1.49032e-17
4534.49542 1.16921e-17
4536.00324 1.13411e-17
4537.50088 1.41494e-17
4538.99851 1.19644e-17
4540.49615 1.21193e-17
4542.00397 1.42308e-17
4543.50161 1.28419e-17
4544.99924 1.73240e-17
4546.49688 1.89201e-17
4548.00470 1.29106e-17
4549.50234 1.06330e-17
4550.99998 1.70188e-17
4552.49761 1.62223e-17
4553.99525 1.07120e-17
4555.50307 1.17662e-17
4557.00071 1.33161e-17
4558.49834 1.51141e-17
4559.99598 1.79731e-17
4561.50380 2.08458e-17
4563.00144 1.34380e-17
4564.49908 1.30352e-17
4565.99671 1.77738e-17
4567.50454 1.86840e-17
4569.00217 1.05612e-17
4570.49981 1.00522e-17
4571.99744 1.13485e-17
4573.49508 1.74384e-17
4575.00290 1.23636e-17
4576.50054 1.56410e-17
4577.99818 1.50902e-17
4579.49581 1.55268e-17
4581.00364 1.49111e-17
4582.50127 1.66856e-17
4583.99891 1.60396e-17
4585.49654 2.00286e-17
4587.00437 1.36884e-17
4588.50200 1.00533e-17
4589.99964 1.38110e-17
4591.49728 1.50357e-17
4593.00510 1.05774e-17
4594.50274 1.59362e-17
4596.00037 1.84502e-17
4597.49801 1.44575e-17
4598.99564 1.26556e-17
4600.50347 1.20755e-17
4602.00110 1.34486e-17
4603.49874 1.36108e-17
4604.99638 1.64467e-17
4606.50420 1.74081e-17
4608.00184 1.63992e-17
4609.49947 1.76720e-17
4610.99711 1.59893e-17
4612.50493 1.50347e-17
4614.00257 1.56272e-17
4615.50020 1.80169e-17
4616.99784 1.55022e-17
4618.49548 1.49053e-17
4620.00330 1.49232e-17
4621.50094 1.58429e-17
4622.99857 1.48332e-17
4624.49621 1.46307e-17
4626.00403 1.45529e-17
4627.50167 1.38401e-17
4628.99930 1.32820e-17
4630.49694 1.69475e-17
4632.00476 1.49706e-17
4633.50240 1.35085e-17
4635.00004 1.22139e-17
4636.49767 2.21063e-17
4637.99531 1.54514e-17
4639.50313 1.75640e-17
4641.00077 1.62169e-17
4642.49840 1.34941e-17
4643.99604 1.40406e-17
4645.50386 1.06219e-17
4647.00150 1.32220e-17
4648.49914 1.59477e-17
4649.99677 1.94766e-17
4651.50460 2.21981e-17
4653.00223 1.88448e-17
4654.49987 1.61107e-17
4655.99750 1.45646e-17
4657.49514 1.82292e-17
4659.00296 1.89382e-17
4660.50060 1.37601e-17
4661.99824 1.59476e-17
4663.49587 2.04545e-17
4665.00370 1.96111e-17
4666.50133 1.86500e-17
4667.99897 1.66291e-17
4669.49660 1.61757e-17
4671.00443 1.33947e-17
4672.50206 1.07256e-17
4673.99970 1.05368e-17
4675.49734 1.13965e-17
4676.99497 1.26110e-17
4678.50280 1.55987e-17
4680.00043 1.38580e-17
4681.49807 1.44396e-17
4682.99570 1.75895e-17
4684.50353 1.77851e-17
4686.00116 1.70640e-17
4687.49880 1.44196e-17
4688.99644 1.76229e-17
4690.50426 2.33774e-17
4692.00190 1.22667e-17
4693.49953 1.22725e-17
4694.99717 1.43550e-17
4696.49480 1.73605e-17
4698.00263 1.75343e-17
4699.50026 1.45112e-17
4700.99790 1.48905e-17
4702.49554 1.73556e-17
4704.00336 1.15265e-17
4705.50100 1.13939e-17
4706.99863 1.03019e-17
4708.49627 1.54330e-17
4710.00409 1.41946e-17
4711.50173 1.59617e-17
4712.99936 1.44200e-17
4714.49700 8.58148e-18
4716.00482 1.32442e-17
4717.50246 1.23585e-17
4719.00010 1.09479e-17
4720.49773 1.28067e-17
4721.99537 1.73955e-17
4723.50319 1.49223e-17
4725.00083 1.42995e-17
4726.49846 1.28698e-17
4727.99610 1.01942e-17
4729.50392 1.37293e-17
4731.00156 1.35466e-17
4732.49920 1.27920e-17
4733.99683 1.61097e-17
4735.50466 1.71298e-17
4737.00229 1.68844e-17
4738.49993 1.36602e-17
4739.99756 7.37213e-18
4741.49520 1.14281e-17
4743.00302 1.81084e-17
4744.50066 1.38131e-17
4745.99830 1.04313e-17
4747.49593 1.30234e-17
4749.00376 1.63976e-17
4750.50139 1.81658e-17
4751.99903 1.54681e-17
4753.49666 1.20324e-17
4755.00449 1.26127e-17
4756.50212 9.87108e-18
4757.99976 8.86492e-18
4759.49740 7.34228e-18
4761.00522 7.27036e-18
4762.50286 1.18722e-17
4764.00049 1.26592e-17
4765.49813 7.80192e-18
4766.99576 9.96733e-18
4768.50359 1.44026e-17
4770.00122 1.05540e-17
4771.49886 8.09004e-18
4772.99650 1.00664e-17
4774.50432 1.55961e-17
4776.00196 1.72707e-17
4777.49959 1.36891e-17
4778.99723 1.57933e-17
4780.50505 1.36756e-17
4782.00269 9.06632e-18
4783.50032 8.78162e-18
4784.99796 1.19232e-17
4786.49560 1.20550e-17
4788.00342 9.25693e-18
4789.50106 9.20312e-18
4790.99869 1.25013e-17
4792.49633 1.30093e-17
4794.00415 1.11394e-17
4795.50179 8.54608e-18
4796.99942 1.17170e-17
4798.49706 1.42625e-17
4800.00488 1.27995e-17
4801.50252 1.09038e-17
4803.00016 6.67181e-18
4804.49779 8.00578e-18
4805.99543 1.23198e-17
4807.50325 1.38473e-17
4809.00089 1.15780e-17
4810.49852 1.08202e-17
4811.99616 1.39457e-17
4813.50398 1.23712e-17
4815.00162 7.57203e-18
4816.49926 7.44139e-18
4817.99689 1.17424e-17
4819.50472 1.01750e-17
4821.00235 5.22449e-18
4822.49999 1.08858e-17
4823.99762 1.62261e-17
4825.49526 1.23523e-17
4827.00308 1.16672e-17
4828.50072 1.51775e-17
4829.99836 1.37292e-17
4831.49599 9.21833e-18
4833.00382 9.35953e-18
4834.50145 9.29610e-18
4835.99909 1.24931e-17
4837.49672 1.59889e-17
4839.00455 1.83526e-17
4840.50218 1.68569e-17
4841.99982 1.31843e-17
4843.49746 1.08090e-17
4844.99509 1.10103e-17
4846.50292 1.41513e-17
4848.00055 1.62253e-17
4849.49819 1.25592e-17
4850.99582 8.47513e-18
4852.50365 1.07434e-17
4854.00128 1.18300e-17
4855.49892 1.51579e-17
4856.99656 1.41989e-17
4858.50438 1.07481e-17
4860.00202 1.13832e-17
4861.49965 1.07438e-17
4862.99729 5.74673e-18
4864.49492 1.32903e-17
4866.00275 1.62610e-17
4867.50038 1.28810e-17
4868.99802 1.23709e-17
4870.49566 1.04022e-17
4872.00348 7.43347e-18
4873.50112 8.02239e-18
4874.99875 1.10481e-17
4876.49639 1.47272e-17
4878.00421 1.59917e-17
4879.50185 1.24943e-17
4880.99948 1.32465e-17
4882.49712 1.51708e-17
4884.00494 1.42776e-17
4885.50258 1.43466e-17
4887.00022 1.30694e-17
4888.49785 1.47736e-17
4889.99549 1.40887e-17
4891.50331 8.69146e-18
4893.00095 6.92143e-18
4894.49858 8.95727e-18
4895.99622 6.64075e-18
4897.50404 2.68418e-18
4899.00168 5.74407e-18
4900.49932 9.02173e-18
4901.99695 9.90322e-18
4903.50478 1.02561e-17
4905.00241 1.48229e-17
4906.50005 1.19618e-17
4907.99768 9.40657e-18
4909.49532 1.16757e-17
4911.00314 1.24044e-17
4912.50078 8.76087e-18
4913.99842 9.75035e-18
4915.49605 9.55119e-18
4917.00388 1.62517e-17
4918.50151 1.42221e-17
4919.99915 1.06158e-17
4921.49678 1.27286e-17
4923.00461 1.09488e-17
4924.50224 8.36464e-18
4925.99988 9.68011e-18
4927.49752 1.60156e-17
4928.99515 1.37633e-17
4930.50298 1.18880e-17
4932.00061 1.30457e-17
4933.49825 1.20609e-17
4934.99588 1.21019e-17
4936.50371 1.21430e-17
4938.00134 1.21841e-17
4939.49898 1.22252e-17
4940.99662 1.22662e-17
4942.50444 1.23073e-17
4944.00208 1.23483e-17
4945.49971 1.23894e-17
4946.99735 1.24304e-17
4948.50517 1.24715e-17
4950.00281 1.25125e-17
4951.50044 1.25535e-17
4952.99808 1.25945e-17
4954.49572 1.26356e-17
4956.00354 1.26766e-17
4957.50118 1.27176e-17
4958.99881 1.27586e-17
4960.49645 1.27996e-17
4962.00427 1.28406e-17
4963.50191 1.28816e-17
4964.99954 1.29225e-17
4966.49718 1.29635e-17
4968.00500 1.30045e-17
4969.50264 1.30455e-17
4971.00028 1.30864e-17
4972.49791 1.31274e-17
4973.99555 1.41316e-17
4975.50337 1.61748e-17
4977.00101 1.12596e-17
4978.49864 9.40265e-18
4979.99628 1.13180e-17
4981.50410 1.08382e-17
4983.00174 1.37539e-17
4984.49938 1.54651e-17
4985.99701 1.14675e-17
4987.50484 1.52111e-17
4989.00247 1.84324e-17
4990.50011 1.39381e-17
4991.99774 9.52966e-18
4993.49538 1.86749e-17
4995.00320 1.45174e-17
4996.50084 1.51236e-17
4997.99848 1.34908e-17
4999.49611 1.00689e-17
5001.00394 1.03162e-17
5002.50157 1.38739e-17
5003.99921 1.21124e-17
5005.49684 1.08541e-17
5007.00467 9.40192e-18
5008.50230 1.16451e-17
5009.99994 1.24580e-17
5011.49758 1.30925e-17
5012.99521 1.34960e-17
5014.50304 9.24427e-18
5016.00067 1.06120e-17
5017.49831 1.32585e-17
5018.99594 1.46644e-17
5020.50377 1.46317e-17
5022.00140 9.27526e-18
5023.49904 1.24835e-17
5024.99668 1.52733e-17
5026.50450 1.13910e-17
5028.00214 7.55766e-18
5029.49977 6.01513e-18
5030.99741 1.10945e-17
5032.49504 1.41836e-17
5034.00287 1.40046e-17
5035.50050 1.38256e-17
5036.99814 1.36467e-17
5038.49578 1.34678e-17
5040.00360 1.32889e-17
5041.50124 1.31100e-17
5042.99887 1.29312e-17
5044.49651 1.27523e-17
5046.00433 1.25735e-17
5047.50197 1.23947e-17
5048.99960 1.22160e-17
5050.49724 1.20372e-17
5051.99488 1.18584e-17
5053.50270 1.16798e-17
5055.00034 1.15010e-17
5056.49797 1.13224e-17
5057.99561 1.11437e-17
5059.50343 1.09651e-17
5061.00107 1.07865e-17
5062.49870 1.06079e-17
5063.99634 1.04293e-17
5065.50416 1.02508e-17
5067.00180 1.00723e-17
5068.49944 9.89380e-18
5069.99707 9.71528e-18
5071.50490 9.53684e-18
5073.00253 6.98884e-18
5074.50017 1.08589e-17
5075.99780 1.60952e-17
5077.49544 1.51455e-17
5079.00326 1.66952e-17
5080.50090 1.43813e-17
5081.99854 1.39834e-17
5083.49617 1.38336e-17
5085.00400 1.36839e-17
5086.50163 1.35343e-17
5087.99927 1.33846e-17
5089.49690 1.32349e-17
5091.00473 1.30853e-17
5092.50236 1.29357e-17
5094.00000 1.27861e-17
5095.49764 1.26365e-17
5096.99527 1.24870e-17
5098.50310 1.23374e-17
5100.00073 1.21879e-17
5101.49837 1.20384e-17
5102.99600 1.18889e-17
5104.50383 1.17394e-17
5106.00146 1.15900e-17
5107.49910 1.14405e-17
5108.99674 1.12911e-17
5110.50456 1.11417e-17
5112.00220 1.09923e-17
5113.49983 1.08429e-17
5114.99747 1.06936e-17
5116.49510 1.05442e-17
5118.00293 1.03949e-17
5119.50056 1.02456e-17
5120.99820 1.02356e-17
5122.49584 1.04275e-17
5124.00366 1.40305e-17
5125.50130 1.24136e-17
5126.99893 1.11820e-17
5128.49657 1.09568e-17
5130.00439 1.12171e-17
5131.50203 9.96749e-18
5132.99966 9.40568e-18
5134.49730 7.66655e-18
5136.00512 1.20240e-17
5137.50276 1.06694e-17
5139.00040 1.36764e-17
5140.49803 1.71444e-17
5141.99567 1.58252e-17
5143.50349 1.56010e-17
5145.00113 1.44062e-17
5146.49876 1.35972e-17
5147.99640 1.56858e-17
5149.50422 1.43282e-17
5151.00186 7.22874e-18
5152.49950 5.69607e-18
5153.99713 9.97611e-18
5155.50496 1.29204e-17
5157.00259 8.55887e-18
5158.50023 7.49934e-18
5159.99786 9.86767e-18
5161.49550 1.13400e-17
5163.00332 9.03825e-18
5164.50096 8.01019e-18
5165.99860 1.05568e-17
5167.49623 1.29607e-17
5169.00406 1.08483e-17
5170.50169 9.94875e-18
5171.99933 1.25441e-17
5173.49696 1.05091e-17
5175.00479 8.68171e-18
5176.50242 1.04651e-17
5178.00006 1.46495e-17
5179.49770 1.57557e-17
5180.99533 1.34393e-17
5182.50316 1.18961e-17
5184.00079 1.04864e-17
5185.49843 1.52761e-17
5186.99606 8.98562e-18
5188.50389 1.06022e-17
5190.00152 1.17825e-17
5191.49916 1.11011e-17
5192.99680 1.31641e-17
5194.50462 8.74792e-18
5196.00226 1.30765e-17
5197.49989 1.19333e-17
5198.99753 9.99417e-18
5200.49516 1.39768e-17
5202.00299 1.22393e-17
5203.50062 1.37190e-17
5204.99826 1.05510e-17
5206.49590 1.29464e-17
5208.00372 1.26585e-17
5209.50136 8.88124e-18
5210.99899 8.86155e-18
5212.49663 1.31475e-17
5214.00445 1.16771e-17
5215.50209 1.00025e-17
5216.99972 9.10499e-18
5218.49736 1.25556e-17
5219.99500 1.15768e-17
5221.50282 1.27382e-17
5223.00046 1.18160e-17
5224.49809 1.08897e-17
5225.99573 1.31549e-17
5227.50355 1.32860e-17
5229.00119 9.22769e-18
5230.49882 9.20596e-18
5231.99646 1.05410e-17
5233.50428 6.81053e-18
5235.00192 7.63158e-18
5236.49956 1.02192e-17
5237.99719 1.22471e-17
5239.49483 1.18202e-17
5241.00265 1.09469e-17
5242.50029 1.10097e-17
5243.99792 1.35820e-17
5245.49556 1.58725e-17
5247.00338 1.56767e-17
5248.50102 1.41269e-17
5249.99866 1.78000e-17
5251.49629 1.59622e-17
5253.00412 1.43822e-17
5254.50175 7.45720e-18
5255.99939 1.06831e-17
5257.49702 1.35187e-17
5259.00485 1.31526e-17
5260.50248 1.42999e-17
5262.00012 1.21914e-17
5263.49776 1.29409e-17
5264.99539 9.45742e-18
5266.50322 1.19762e-17
5268.00085 1.36146e-17
5269.49849 1.32633e-17
5270.99612 1.51024e-17
5272.50395 1.27937e-17
5274.00158 1.42054e-17
5275.49922 1.24942e-17
5276.99686 1.13705e-17
5278.50468 1.27099e-17
5280.00232 1.53966e-17
5281.49995 1.46783e-17
5282.99759 1.48822e-17
5284.49522 1.52406e-17
5286.00305 1.33632e-17
5287.50068 1.39991e-17
5288.99832 1.34276e-17
5290.49596 1.75828e-17
5292.00378 1.88361e-17
5293.50142 1.43602e-17
5294.99905 1.14227e-17
5296.49669 9.73678e-18
5298.00451 1.32289e-17
5299.50215 1.75244e-17
5300.99978 1.38670e-17
5302.49742 1.17209e-17
5303.99506 1.31129e-17
5305.50288 1.02590e-17
5307.00052 1.24505e-17
5308.49815 1.69549e-17
5309.99579 1.17283e-17
5311.50361 1.02996e-17
5313.00125 1.07526e-17
5314.49888 1.60179e-17
5315.99652 1.72878e-17
5317.50434 1.51946e-17
5319.00198 1.53538e-17
5320.49962 1.61782e-17
5321.99725 1.48969e-17
5323.50508 1.46322e-17
5325.00271 1.28146e-17
5326.50035 1.42708e-17
5327.99798 1.88503e-17
5329.49562 1.58394e-17
5331.00344 7.61323e-18
5332.50108 1.24895e-17
5333.99872 1.81841e-17
5335.49635 1.05387e-17
5337.00418 1.16558e-17
5338.50181 1.46270e-17
5339.99945 1.82318e-17
5341.49708 1.77783e-17
5343.00491 1.50102e-17
5344.50254 1.25559e-17
5346.00018 9.17449e-18
5347.49782 1.35680e-17
5348.99545 1.43161e-17
5350.50328 1.28165e-17
5352.00091 1.30598e-17
5353.49855 1.20380e-17
5354.99618 1.24113e-17
5356.50401 1.27846e-17
5358.00164 1.31577e-17
5359.49928 1.35309e-17
5360.99692 1.39041e-17
5362.50474 1.42772e-17
5364.00238 1.46503e-17
5365.50001 1.46496e-17
5366.99765 1.53886e-17
5368.49528 1.08758e-17
5370.00311 1.01255e-17
5371.50074 1.57032e-17
5372.99838 1.65190e-17
5374.49602 1.23357e-17
5376.00384 1.09598e-17
5377.50148 1.14099e-17
5378.99911 1.66874e-17
5380.49675 1.64541e-17
5382.00457 1.37098e-17
5383.50221 1.19523e-17
5384.99984 1.31950e-17
5386.49748 1.60625e-17
5387.99512 1.27324e-17
5389.50294 1.19328e-17
5391.00058 1.39368e-17
5392.49821 1.66946e-17
5393.99585 1.73140e-17
5395.50367 1.45047e-17
5397.00131 1.67849e-17
5398.49894 1.63203e-17
5399.99658 1.15837e-17
5401.50440 1.24529e-17
5403.00204 1.35789e-17
5404.49968 1.64048e-17
5405.99731 1.86781e-17
5407.49495 1.23634e-17
5409.00277 9.74084e-18
5410.50041 1.32811e-17
5411.99804 1.37872e-17
5413.49568 1.43686e-17
5415.00350 1.17381e-17
5416.50114 1.23145e-17
5417.99878 1.71211e-17
5419.49641 1.39939e-17
5421.00424 1.27118e-17
5422.50187 1.68048e-17
5423.99951 1.76722e-17
5425.49714 1.43236e-17
5426.99478 1.16187e-17
5428.50260 1.22955e-17
5430.00024 1.46480e-17
5431.49788 1.54274e-17
5432.99551 1.22036e-17
5434.50334 1.24808e-17
5436.00097 1.74637e-17
5437.49861 1.81797e-17
5438.99624 1.61282e-17
5440.50407 1.65777e-17
5442.00170 1.50900e-17
5443.49934 1.36180e-17
5444.99698 1.70829e-17
5446.50480 1.86370e-17
5448.00244 1.41325e-17
5449.50007 1.45186e-17
5450.99771 1.62559e-17
5452.49534 1.72486e-17
5454.00317 1.80323e-17
5455.50080 1.68120e-17
5456.99844 1.22336e-17
5458.49608 1.52961e-17
5460.00390 1.54390e-17
5461.50154 1.26484e-17
5462.99917 1.37669e-17
5464.49681 1.27248e-17
5466.00463 1.18364e-17
5467.50227 1.31540e-17
5468.99990 1.31564e-17
5470.49754 1.35815e-17
5471.99518 1.31144e-17
5473.50300 1.48581e-17
5475.00064 1.79262e-17
5476.49827 1.37523e-17
5477.99591 1.47415e-17
5479.50373 1.14291e-17
5481.00137 1.26383e-17
5482.49900 1.53686e-17
5483.99664 1.59894e-17
5485.50446 2.10129e-17
5487.00210 1.73905e-17
5488.49974 1.87982e-17
5489.99737 1.78761e-17
5491.49501 1.50544e-17
5493.00283 1.48247e-17
5494.50047 1.55845e-17
5495.99810 1.63395e-17
5497.49574 1.28218e-17
5499.00356 1.15134e-17
5500.50120 1.24353e-17
5501.99884 1.36965e-17
5503.49647 1.77551e-17
5505.00430 1.89996e-17
5506.50193 1.85312e-17
5507.99957 1.47369e-17
5509.49720 9.10929e-18
5511.00503 1.22879e-17
5512.50266 1.58506e-17
5514.00030 1.64735e-17
5515.49794 1.69643e-17
5516.99557 1.38180e-17
5518.50340 1.52456e-17
5520.00103 1.72468e-17
5521.49867 1.67845e-17
5522.99630 1.53305e-17
5524.50413 1.38730e-17
5526.00176 1.88979e-17
5527.49940 2.05798e-17
5528.99704 1.70024e-17
5530.50486 1.44001e-17
5532.00250 1.43354e-17
5533.50013 1.76486e-17
5534.99777 1.67356e-17
5536.49540 1.80317e-17
5538.00323 1.55331e-17
5539.50086 1.31537e-17
5540.99850 1.37382e-17
5542.49614 2.14962e-17
5544.00396 1.62535e-17
5545.50160 1.59247e-17
5546.99923 1.68724e-17
5548.49687 1.54652e-17
5550.00469 1.63869e-17
5551.50233 1.31792e-17
5552.99996 1.33984e-17
5554.49760 1.69663e-17
5555.99524 1.31460e-17
5557.50306 1.50395e-17
5559.00070 1.23900e-17
5560.49833 1.43562e-17
5561.99597 1.79627e-17
5563.50379 2.01191e-17
5565.00143 1.68855e-17
5566.49906 1.29548e-17
5567.99670 1.84980e-17
5569.50452 1.51871e-17
5571.00216 1.11789e-17
5572.49980 1.44554e-17
5573.99743 1.65698e-17
5575.49507 1.38544e-17
5577.00289 1.05388e-17
5578.50053 1.40061e-17
5579.99816 1.55575e-17
5581.49580 1.44479e-17
5583.00362 1.59673e-17
5584.50126 1.62606e-17
5585.99890 1.39525e-17
5587.49653 1.07189e-17
5589.00436 1.06168e-17
5590.50199 1.59809e-17
5591.99963 1.88884e-17
5593.49726 1.73361e-17
5594.99490 1.79776e-17
5596.50272 1.84025e-17
5598.00036 1.49356e-17
5599.49800 1.42466e-17
5600.99563 1.39278e-17
5602.50346 1.03237e-17
5604.00109 1.40538e-17
5605.49873 1.30373e-17
5606.99636 1.44296e-17
5608.50419 1.45303e-17
5610.00182 8.92138e-18
5611.49946 1.19989e-17
5612.99710 1.35273e-17
5614.50492 1.13636e-17
5616.00256 9.84099e-18
5617.50019 1.27866e-17
5618.99783 1.07269e-17
5620.49546 8.39144e-18
5622.00329 1.22832e-17
5623.50092 1.25384e-17
5624.99856 1.70387e-17
5626.49620 1.78071e-17
5628.00402 1.39842e-17
5629.50166 1.45718e-17
5630.99929 1.19005e-17
5632.49693 1.13103e-17
5634.00475 1.21791e-17
5635.50239 1.26250e-17
5637.00002 1.34864e-17
5638.49766 1.45473e-17
5639.99530 1.34642e-17
5641.50312 1.23457e-17
5643.00076 1.41184e-17
5644.49839 1.50459e-17
5645.99603 1.46569e-17
5647.50385 1.01647e-17
5649.00149 8.34681e-18
5650.49912 1.10401e-17
5651.99676 1.16731e-17
5653.50458 1.13647e-17
5655.00222 1.26212e-17
5656.49986 1.49582e-17
5657.99749 1.42929e-17
5659.49513 1.03584e-17
5661.00295 6.75680e-18
5662.50059 7.13813e-18
5663.99822 8.89019e-18
5665.49586 8.56301e-18
5667.00368 1.18081e-17
5668.50132 1.23327e-17
5669.99896 9.26764e-18
5671.49659 1.07274e-17
5673.00442 1.25553e-17
5674.50205 1.23931e-17
5675.99969 1.11492e-17
5677.49732 1.14900e-17
5679.00515 1.22090e-17
5680.50278 1.11202e-17
5682.00042 1.40894e-17
5683.49806 1.49139e-17
5684.99569 9.48753e-18
5686.50352 1.08811e-17
5688.00115 1.17022e-17
5689.49879 7.79610e-18
5690.99642 8.60809e-18
5692.50425 9.09898e-18
5694.00188 9.76608e-18
5695.49952 1.12024e-17
5696.99716 1.11028e-17
5698.50498 1.36225e-17
5700.00262 1.04044e-17
5701.50025 5.68875e-18
5702.99789 7.01394e-18
5704.49552 1.22658e-17
5706.00335 1.26839e-17
5707.50098 9.49432e-18
5708.99862 7.99897e-18
5710.49626 7.90382e-18
5712.00408 1.03724e-17
5713.50172 1.37582e-17
5714.99935 1.20898e-17
5716.49699 1.12439e-17
5718.00481 9.10804e-18
5719.50245 6.07077e-18
5721.00008 1.00261e-17
5722.49772 1.38698e-17
5723.99536 1.31471e-17
5725.50318 1.08071e-17
5727.00082 1.02334e-17
5728.49845 1.21827e-17
5729.99609 1.29432e-17
5731.50391 1.12197e-17
5733.00155 1.08502e-17
5734.49918 7.83783e-18
5735.99682 6.08288e-18
5737.50464 7.50945e-18
5739.00228 1.09289e-17
5740.49992 1.32633e-17
5741.99755 1.14181e-17
5743.49519 8.45044e-18
5745.00301 1.31632e-17
5746.50065 1.39038e-17
5747.99828 1.21206e-17
5749.49592 7.66254e-18
5751.00374 8.88801e-18
5752.50138 8.37147e-18
5753.99902 1.15143e-17
5755.49665 9.61182e-18
5757.00448 1.09422e-17
5758.50211 1.33678e-17
5759.99975 1.18019e-17
5761.49738 7.32334e-18
5762.99502 6.93055e-18
5764.50284 1.12356e-17
5766.00048 8.11754e-18
5767.49812 8.95025e-18
5768.99575 8.55045e-18
5770.50358 1.05440e-17
5772.00121 1.37673e-17
5773.49885 1.10354e-17
5774.99648 7.35575e-18
5776.50431 8.10261e-18
5778.00194 5.83485e-18
5779.49958 8.35345e-18
5780.99722 1.39957e-17
5782.49485 1.12056e-17
5784.00268 9.06838e-18
5785.50031 1.28270e-17
5786.99795 1.34149e-17
5788.49558 9.51771e-18
5790.00341 1.06296e-17
5791.50104 9.81656e-18
5792.99868 8.59340e-18
5794.49632 1.25947e-17
5796.00414 1.16121e-17
5797.50178 1.00439e-17
5798.99941 1.05290e-17
5800.49705 9.54385e-18
5802.00487 1.15903e-17
5803.50251 1.16880e-17
5805.00014 1.05591e-17
5806.49778 1.08382e-17
5807.99542 1.15650e-17
5809.50324 8.82864e-18
5811.00088 8.37750e-18
5812.49851 1.36956e-17
5813.99615 9.42975e-18
5815.50397 5.64133e-18
5817.00161 9.28940e-18
5818.49924 1.03497e-17
5819.99688 8.80847e-18
5821.50470 1.03441e-17
5823.00234 1.08245e-17
5824.49998 1.25635e-17
5825.99761 1.02503e-17
5827.49525 9.78901e-18
5829.00307 1.21014e-17
5830.50071 1.35602e-17
5831.99834 1.10661e-17
5833.49598 1.16849e-17
5835.00380 9.42967e-18
5836.50144 7.01482e-18
5837.99908 6.51647e-18
5839.49671 5.96467e-18
5841.00454 1.15315e-17
5842.50217 1.38727e-17
5843.99981 1.15866e-17
5845.49744 1.43879e-17
5846.99508 1.49091e-17
5848.50290 1.51562e-17
5850.00054 1.63470e-17
5851.49818 1.43113e-17
5852.99581 1.24614e-17
5854.50364 1.03885e-17
5856.00127 1.06307e-17
5857.49891 1.15602e-17
5858.99654 1.30755e-17
5860.50437 1.58117e-17
5862.00200 1.21566e-17
5863.49964 9.79965e-18
5864.99728 1.46662e-17
5866.50510 9.74524e-18
5868.00274 6.70008e-18
5869.50037 1.20924e-17
5870.99801 1.37160e-17
5872.49564 1.17297e-17
5874.00347 1.04847e-17
5875.50110 1.00520e-17
5876.99874 9.42521e-18
5878.49638 1.08076e-17
5880.00420 1.53549e-17
5881.50184 1.02819e-17
5882.99947 8.45369e-18
5884.49711 1.26770e-17
5886.00493 9.54134e-18
5887.50257 7.74388e-18
5889.00020 5.45131e-18
5890.49784 1.25141e-17
5891.99548 1.57379e-17
5893.50330 1.19620e-17
5895.00094 1.51784e-17
5896.49857 1.31323e-17
5897.99621 1.11500e-17
5899.50403 9.96178e-18
5901.00167 8.48316e-18
5902.49930 1.13443e-17
5903.99694 1.09744e-17
5905.50476 9.31413e-18
5907.00240 1.11000e-17
5908.50004 1.49827e-17
5909.99767 1.45867e-17
5911.49531 1.12050e-17
5913.00313 1.13490e-17
5914.50077 1.02533e-17
5915.99840 1.00061e-17
5917.49604 9.64178e-18
5919.00386 7.55798e-18
5920.50150 8.36271e-18
5921.99914 9.48988e-18
5923.49677 1.21043e-17
5925.00460 1.68267e-17
5926.50223 1.53199e-17
5927.99987 1.49953e-17
5929.49750 1.71489e-17
5930.99514 1.15784e-17
5932.50296 7.99242e-18
5934.00060 4.75971e-18
5935.49824 9.54860e-18
5936.99587 1.26330e-17
5938.50370 1.00418e-17
5940.00133 1.07631e-17
5941.49897 8.88541e-18
5942.99660 3.79559e-18
5944.50443 8.92138e-18
5946.00206 1.39218e-17
5947.49970 1.34301e-17
5948.99734 1.23814e-17
5950.49497 1.65871e-17
5952.00280 1.70333e-17
5953.50043 1.12196e-17
5954.99807 1.10494e-17
5956.49570 1.10704e-17
5958.00353 1.10915e-17
5959.50116 1.11125e-17
5960.99880 1.11335e-17
5962.49644 1.11546e-17
5964.00426 1.11756e-17
5965.50190 1.11966e-17
5966.99953 1.12177e-17
5968.49717 1.12387e-17
5969.99480 1.12597e-17
5971.50263 1.12808e-17
5973.00026 1.13018e-17
5974.49790 1.13228e-17
5975.99554 1.13439e-17
5977.50336 1.13649e-17
5979.00100 1.13859e-17
5980.49863 1.14069e-17
5981.99627 1.14280e-17
5983.50409 1.14490e-17
5985.00173 1.14700e-17
5986.49936 1.14910e-17
5987.99700 1.15120e-17
5989.50482 1.15331e-17
5991.00246 1.15541e-17
5992.50010 1.15751e-17
5993.99773 1.15961e-17
5995.49537 1.16171e-17
5997.00319 1.16381e-17
5998.50083 1.16592e-17
5999.99846 1.16802e-17
6001.49610 1.17012e-17
6003.00392 1.17222e-17
6004.50156 1.17432e-17
6005.99920 1.17642e-17
6007.49683 1.17852e-17
6009.00466 1.18062e-17
6010.50229 1.18272e-17
6011.99993 1.18482e-17
6013.49756 1.18692e-17
6014.99520 1.18902e-17
6016.50302 1.19112e-17
6018.00066 1.19322e-17
6019.49830 1.46326e-17
6020.99593 9.54718e-18
6022.50376 1.43571e-17
6024.00139 1.46843e-17
6025.49903 9.19806e-18
6026.99666 1.10593e-17
6028.50449 1.13763e-17
6030.00212 1.30294e-17
6031.49976 9.14569e-18
6032.99740 1.03445e-17
6034.49503 7.73328e-18
6036.00286 1.27931e-17
6037.50049 1.12801e-17
6038.99813 1.31072e-17
6040.49576 1.23546e-17
6042.00359 1.19367e-17
6043.50122 7.62512e-18
6044.99886 5.64585e-18
6046.49650 6.00940e-18
6048.00432 7.75406e-18
6049.50196 8.04442e-18
6050.99959 1.04397e-17
6052.49723 1.39726e-17
6054.00505 1.19080e-17
6055.50269 1.11976e-17
6057.00032 1.12087e-17
6058.49796 1.00657e-17
6059.99560 8.96589e-18
6061.50342 9.38012e-18
6063.00106 9.08977e-18
6064.49869 4.79383e-18
6065.99633 5.45468e-18
6067.50415 9.87729e-18
6069.00179 1.33664e-17
6070.49942 1.18445e-17
6071.99706 8.45108e-18
6073.50488 1.19143e-17
6075.00252 1.40032e-17
6076.50016 1.30191e-17
6077.99779 1.53578e-17
6079.49543 1.19637e-17
6081.00325 1.16091e-17
6082.50089 1.67553e-17
6083.99852 1.49298e-17
6085.49616 1.19798e-17
6087.00398 1.06364e-17
6088.50162 8.28754e-18
6089.99926 7.95217e-18
6091.49689 1.02154e-17
6093.00472 1.00987e-17
6094.50235 7.16292e-18
6095.99999 1.32865e-17
6097.49762 1.46098e-17
6098.99526 8.94131e-18
6100.50308 1.28064e-17
6102.00072 1.27924e-17
6103.49836 1.30871e-17
6104.99599 1.68081e-17
6106.50382 1.43110e-17
6108.00145 9.28784e-18
6109.49909 8.79874e-18
6110.99672 1.25650e-17
6112.50455 1.40808e-17
6114.00218 1.15579e-17
6115.49982 9.45762e-18
6116.99746 1.06388e-17
6118.49509 1.30414e-17
6120.00292 1.44495e-17
6121.50055 1.55996e-17
6122.99819 1.24994e-17
6124.49582 1.12261e-17
6126.00365 1.29079e-17
6127.50128 1.24954e-17
6128.99892 1.02514e-17
6130.49656 1.09505e-17
6132.00438 1.03375e-17
6133.50202 1.04770e-17
6134.99965 8.91785e-18
6136.49729 9.86656e-18
6137.99492 1.43064e-17
6139.50275 1.41790e-17
6141.00038 1.07952e-17
6142.49802 1.19493e-17
6143.99566 1.40373e-17
6145.50348 1.18233e-17
6147.00112 1.05950e-17
6148.49875 1.51158e-17
6149.99639 1.43230e-17
6151.50421 1.11286e-17
6153.00185 9.39414e-18
6154.49948 1.29117e-17
6155.99712 1.09355e-17
6157.50494 1.14936e-17
6159.00258 1.38441e-17
6160.50022 8.32489e-18
6161.99785 1.02337e-17
6163.49549 1.10557e-17
6165.00331 1.04912e-17
6166.50095 7.55128e-18
6167.99858 1.16000e-17
6169.49622 1.24595e-17
6171.00404 1.24971e-17
6172.50168 1.07554e-17
6173.99932 1.26471e-17
6175.49695 1.26490e-17
6177.00478 1.06511e-17
6178.50241 1.60676e-17
6180.00005 1.52068e-17
6181.49768 1.07602e-17
6182.99532 1.20836e-17
6184.50314 1.21237e-17
6186.00078 1.30680e-17
6187.49842 1.22538e-17
6188.99605 1.03014e-17
6190.50388 8.21883e-18
6192.00151 8.71848e-18
6193.49915 1.41733e-17
6194.99678 1.56241e-17
6196.50461 1.10200e-17
6198.00224 9.11103e-18
6199.49988 1.28823e-17
6200.99752 1.19059e-17
6202.49515 1.06308e-17
6204.00298 1.11203e-17
6205.50061 1.25150e-17
6206.99825 1.32369e-17
6208.49588 1.13951e-17
6210.00371 1.19029e-17
6211.50134 1.07142e-17
6212.99898 9.38749e-18
6214.49662 1.05229e-17
6216.00444 1.04570e-17
6217.50208 9.84765e-18
6218.99971 9.11794e-18
6220.49735 9.10988e-18
6221.99498 1.03279e-17
6223.50281 1.11876e-17
6225.00044 1.41332e-17
6226.49808 1.08179e-17
6227.99572 7.96288e-18
6229.50354 1.24897e-17
6231.00118 1.32461e-17
6232.49881 8.26226e-18
6233.99645 5.80501e-18
6235.50427 7.41170e-18
6237.00191 7.74234e-18
6238.49954 7.47664e-18
6239.99718 1.04836e-17
6241.50500 1.58159e-17
6243.00264 1.18269e-17
6244.50028 1.03863e-17
6245.99791 1.02153e-17
6247.49555 1.07953e-17
6249.00337 1.08820e-17
6250.50101 1.20016e-17
6251.99864 1.26485e-17
6253.49628 1.20893e-17
6255.00410 7.67082e-18
6256.50174 6.73101e-18
6257.99938 9.76934e-18
6259.49701 1.30718e-17
6261.00484 1.35688e-17
6262.50247 1.10856e-17
6264.00011 9.73437e-18
6265.49774 8.29418e-18
6266.99538 1.12071e-17
6268.50320 1.19467e-17
6270.00084 8.59389e-18
6271.49848 8.74659e-18
6272.99611 9.39872e-18
6274.50394 9.95718e-18
6276.00157 1.13794e-17
6277.49921 1.17837e-17
6278.99684 9.44361e-18
6280.50467 9.19259e-18
6282.00230 8.90463e-18
6283.49994 9.00587e-18
6284.99758 9.41594e-18
6286.49521 9.92158e-18
6288.00304 1.20071e-17
6289.50067 1.23758e-17
6290.99831 1.22509e-17
6292.49594 1.23278e-17
6294.00377 1.01121e-17
6295.50140 1.06118e-17
6296.99904 1.11271e-17
6298.49668 9.10913e-18
6300.00450 1.22054e-17
6301.50214 1.31326e-17
6302.99977 1.15857e-17
6304.49741 8.94527e-18
6305.99504 1.24273e-17
6307.50287 1.45638e-17
6309.00050 1.05101e-17
6310.49814 9.83387e-18
6311.99578 7.72277e-18
6313.50360 1.00344e-17
6315.00124 8.77063e-18
6316.49887 7.23437e-18
6317.99651 1.29854e-17
6319.50433 9.96695e-18
6321.00197 6.95894e-18
6322.49960 4.17174e-18
6323.99724 8.96677e-18
6325.49488 1.30596e-17
6327.00270 1.05808e-17
6328.50034 1.14645e-17
6329.99797 9.63003e-18
6331.49561 8.29251e-18
6333.00343 1.03356e-17
6334.50107 1.10788e-17
6335.99870 1.11686e-17
6337.49634 1.21005e-17
6339.00416 1.07792e-17
6340.50180 9.96846e-18
6341.99944 8.45090e-18
6343.49707 9.92672e-18
6345.00490 1.09036e-17
6346.50253 9.84005e-18
6348.00017 1.03060e-17
6349.49780 1.13323e-17
6350.99544 1.11420e-17
6352.50326 8.32341e-18
6354.00090 9.06817e-18
6355.49854 9.96497e-18
6356.99617 8.75712e-18
6358.50400 7.83008e-18
6360.00163 1.13413e-17
6361.49927 1.11406e-17
6362.99690 8.91545e-18
6364.50473 4.39474e-18
6366.00236 1.04429e-17
6367.50000 4.96788e-18
6368.99764 6.54865e-18
6370.49527 9.66004e-18
6372.00310 1.08236e-17
6373.50073 1.61525e-17
6374.99837 1.27677e-17
6376.49600 1.15623e-17
6378.00383 1.28085e-17
6379.50146 1.56278e-17
6380.99910 1.28530e-17
6382.49674 9.91127e-18
6384.00456 1.09082e-17
6385.50220 6.78478e-18
6386.99983 7.12532e-18
6388.49747 8.84951e-18
6389.99510 1.30550e-17
6391.50293 1.18404e-17
6393.00056 1.28253e-17
6394.49820 9.04439e-18
6395.99584 9.64581e-18
6397.50366 1.16717e-17
6399.00130 8.48780e-18
6400.49893 8.35100e-18
6401.99657 1.14535e-17
6403.50439 1.21545e-17
6405.00203 1.12861e-17
6406.49966 1.01593e-17
6407.99730 6.92966e-18
6409.49494 6.32921e-18
6411.00276 1.08358e-17
6412.50040 1.31120e-17
6413.99803 8.41434e-18
6415.49567 7.00602e-18
6417.00349 8.81736e-18
6418.50113 1.11722e-17
6419.99876 1.43771e-17
6421.49640 1.39611e-17
6423.00422 1.16482e-17
6424.50186 1.29170e-17
6425.99950 1.33099e-17
6427.49713 1.25115e-17
6429.00496 7.21451e-18
6430.50259 8.48688e-18
6432.00023 1.16018e-17
6433.49786 1.02542e-17
6434.99550 1.06851e-17
6436.50332 1.09981e-17
6438.00096 1.26269e-17
6439.49860 1.09214e-17
6440.99623 1.08251e-17
6442.50406 1.36042e-17
6444.00169 1.08885e-17
6445.49933 1.03923e-17
6446.99696 8.09352e-18
6448.50479 1.14110e-17
6450.00242 1.03764e-17
6451.50006 9.60777e-18
6452.99770 1.22847e-17
6454.49533 1.08185e-17
6456.00316 1.11155e-17
6457.50079 8.71159e-18
6458.99843 7.83234e-18
6460.49606 7.30881e-18
6462.00389 1.18357e-17
6463.50152 1.43855e-17
6464.99916 1.26983e-17
6466.49680 1.04216e-17
6468.00462 1.04475e-17
6469.50226 1.22946e-17
6470.99989 1.15933e-17
6472.49753 1.09986e-17
6473.99516 1.31639e-17
6475.50299 1.17999e-17
6477.00062 8.59846e-18
6478.49826 9.20798e-18
6479.99590 1.09460e-17
6481.50372 1.38733e-17
6483.00136 1.27637e-17
6484.49899 9.89343e-18
6485.99663 1.23622e-17
6487.50445 1.31062e-17
6489.00209 9.72194e-18
6490.49972 9.52572e-18
6491.99736 1.12147e-17
6493.49500 1.27786e-17
6495.00282 1.34703e-17
6496.50046 1.04914e-17
6497.99809 8.92088e-18
6499.49573 8.50565e-18
6501.00355 8.49284e-18
6502.50119 1.14075e-17
6503.99882 1.12929e-17
6505.49646 1.39710e-17
6507.00428 1.24604e-17
6508.50192 9.52663e-18
6509.99956 1.11718e-17
6511.49719 1.43080e-17
6512.99483 1.18506e-17
6514.50265 1.30652e-17
6516.00029 1.46382e-17
6517.49792 1.23579e-17
6518.99556 9.61861e-18
6520.50338 1.21377e-17
6522.00102 1.39619e-17
6523.49866 1.42889e-17
6524.99629 1.49137e-17
6526.50412 1.21815e-17
6528.00175 1.46710e-17
6529.49939 1.02910e-17
6530.99702 1.14807e-17
6532.50485 1.27493e-17
6534.00248 8.84327e-18
6535.50012 7.42876e-18
6536.99776 1.25328e-17
6538.49539 1.56788e-17
6540.00322 1.05628e-17
6541.50085 1.15444e-17
6542.99849 1.15531e-17
6544.49612 1.14127e-17
6546.00395 1.25555e-17
6547.50158 1.01074e-17
6548.99922 1.31219e-17
6550.49686 1.22264e-17
6552.00468 1.31869e-17
6553.50232 1.32961e-17
6554.99995 1.35268e-17
6556.49759 1.60926e-17
6557.99522 1.47447e-17
6559.50305 1.26285e-17
6561.00068 1.09438e-17
6562.49832 1.25379e-17
6563.99596 1.21965e-17
6565.50378 1.40655e-17
6567.00142 1.30417e-17
6568.49905 1.30096e-17
6569.99669 1.15587e-17
6571.50451 1.33037e-17
6573.00215 9.97628e-18
6574.49978 1.22922e-17
6575.99742 1.17735e-17
6577.49506 1.51389e-17
6579.00288 1.10600e-17
6580.50052 1.25838e-17
6581.99815 1.32371e-17
6583.49579 1.06389e-17
6585.00361 1.07164e-17
6586.50125 1.01478e-17
6587.99888 9.60465e-18
6589.49652 8.40029e-18
6591.00434 1.06462e-17
6592.50198 1.04418e-17
6593.99962 1.21112e-17
6595.49725 1.19564e-17
6596.99489 1.02401e-17
6598.50271 7.70350e-18
6600.00035 9.78431e-18
6601.49798 1.15743e-17
6602.99562 1.20893e-17
6604.50344 1.11562e-17
6606.00108 1.53839e-17
6607.49872 1.58939e-17
6608.99635 1.10410e-17
6610.50418 8.28200e-18
6612.00181 9.05172e-18
6613.49945 1.14331e-17
6614.99708 1.19113e-17
6616.50491 1.01840e-17
6618.00254 1.04850e-17
6619.50018 1.02877e-17
6620.99782 1.14229e-17
6622.49545 1.00614e-17
6624.00328 7.24259e-18
6625.50091 9.69570e-18
6626.99855 1.15185e-17
6628.49618 9.59481e-18
6630.00401 7.41334e-18
6631.50164 1.00878e-17
6632.99928 1.24002e-17
6634.49692 1.01528e-17
6636.00474 8.96772e-18
6637.50238 8.44478e-18
6639.00001 8.41929e-18
6640.49765 5.21447e-18
6641.99528 5.01396e-18
6643.50311 8.80555e-18
6645.00074 1.29823e-17
6646.49838 1.25676e-17
6647.99602 9.16442e-18
6649.50384 7.97512e-18
6651.00148 7.77585e-18
6652.49911 6.33631e-18
6653.99675 6.42794e-18
6655.50457 6.51959e-18
6657.00221 6.61122e-18
6658.49984 6.70283e-18
6659.99748 6.79447e-18
6661.49512 6.88608e-18
6663.00294 6.97768e-18
6664.50058 7.06931e-18
6665.99821 7.16091e-18
6667.49585 7.25250e-18
6669.00367 7.34408e-18
6670.50131 7.43569e-18
6671.99894 7.52726e-18
6673.49658 7.61883e-18
6675.00440 7.71043e-18
6676.50204 7.80199e-18
6677.99968 7.89355e-18
6679.49731 7.98513e-18
6680.99495 8.07668e-18
6682.50277 8.16822e-18
6684.00041 8.25979e-18
6685.49804 8.35132e-18
6686.99568 8.44285e-18
6688.50350 8.53440e-18
6690.00114 8.62592e-18
6691.49878 8.54388e-18
6692.99641 8.46184e-18
6694.50424 8.37977e-18
6696.00187 8.29774e-18
6697.49951 8.21571e-18
6698.99714 8.13366e-18
6700.49478 8.05164e-18
6702.00260 7.96963e-18
6703.50024 7.88759e-18
6704.99788 7.80558e-18
6706.49551 7.72358e-18
6708.00334 7.64155e-18
6709.50097 7.55955e-18
6710.99861 7.47756e-18
6712.49624 7.39555e-18
6714.00407 7.31357e-18
6715.50170 7.23159e-18
6716.99934 7.14961e-18
6718.49698 7.06762e-18
6720.00480 6.98565e-18
6721.50244 6.90369e-18
6723.00007 6.82170e-18
6724.49771 6.73975e-18
6725.99534 6.65780e-18
6727.50317 9.43573e-18
6729.00080 1.08062e-17
6730.49844 8.95374e-18
6731.99608 8.99980e-18
6733.50390 9.00036e-18
6735.00154 7.22386e-18
6736.49917 1.15649e-17
6737.99681 9.39511e-18
6739.50463 5.60486e-18
6741.00227 7.10329e-18
6742.49990 8.85172e-18
6743.99754 1.14107e-17
6745.49518 9.73671e-18
6747.00300 3.82886e-18
6748.50064 4.51517e-18
6749.99827 9.50420e-18
6751.49591 8.10449e-18
6753.00373 8.80672e-18
6754.50137 8.74446e-18
6755.99900 8.67984e-18
6757.49664 7.05535e-18
6759.00446 7.93849e-18
6760.50210 8.71781e-18
6761.99974 9.29279e-18
6763.49737 8.63910e-18
6764.99501 7.04900e-18
6766.50283 6.13273e-18
6768.00047 7.71514e-18
6769.49810 9.51700e-18
6770.99574 5.63675e-18
6772.50356 5.83257e-18
6774.00120 1.12092e-17
6775.49884 1.08531e-17
6776.99647 7.40105e-18
6778.50430 1.01248e-17
6780.00193 9.21969e-18
6781.49957 8.25790e-18
6782.99720 7.52018e-18
6784.50503 5.11207e-18
6786.00266 8.23040e-18
6787.50030 8.52051e-18
6788.99794 8.88213e-18
6790.49557 9.35253e-18
6792.00340 7.78469e-18
6793.50103 1.20076e-17
6794.99867 8.20032e-18
6796.49630 6.46413e-18
6798.00413 1.25618e-17
6799.50176 9.49510e-18
6800.99940 6.40054e-18
6802.49704 5.61749e-18
6804.00486 6.36704e-18
6805.50250 1.12587e-17
6807.00013 8.84565e-18
6808.49777 6.56022e-18
6809.99540 6.09305e-18
6811.50323 9.47656e-18
6813.00086 5.58553e-18
6814.49850 3.85739e-18
6815.99614 7.53040e-18
6817.50396 9.16071e-18
6819.00160 8.52394e-18
6820.49923 6.61238e-18
6821.99687 4.80595e-18
6823.50469 3.36884e-18
6825.00233 3.53660e-18
6826.49996 3.70435e-18
6827.99760 3.87215e-18
6829.49524 4.03988e-18
6831.00306 4.20761e-18
6832.50070 4.37532e-18
6833.99833 4.54309e-18
6835.49597 4.71079e-18
6837.00379 4.87848e-18
6838.50143 5.04622e-18
6839.99906 5.25467e-18
6841.49670 5.46310e-18
6843.00452 5.67160e-18
6844.50216 5.88002e-18
6845.99980 6.08842e-18
6847.49743 6.29688e-18
6848.99507 6.50527e-18
6850.50289 6.71364e-18
6852.00053 6.92207e-18
6853.49816 7.13043e-18
6854.99580 7.33877e-18
6856.50362 7.54710e-18
6858.00126 7.75549e-18
6859.49890 7.96380e-18
6860.99653 8.17210e-18
6862.50436 8.38046e-18
6864.00199 8.58873e-18
6865.49963 8.79700e-18
6866.99726 9.00533e-18
6868.49490 9.21357e-18
6870.00272 9.42181e-18
6871.50036 9.63010e-18
6872.99800 9.83832e-18
6874.49563 1.00465e-17
6876.00346 1.02548e-17
6877.50109 5.01879e-18
6878.99873 5.59709e-18
6880.49636 4.89349e-18
6882.00419 6.83169e-18
6883.50182 1.08653e-17
6884.99946 9.32818e-18
6886.49710 1.01894e-17
6888.00492 1.19129e-17
6889.50256 8.43844e-18
6891.00019 7.39642e-18
6892.49783 7.61556e-18
6893.99546 7.44912e-18
6895.50329 9.01378e-18
6897.00092 6.39666e-18
6898.49856 2.95015e-18
6899.99620 6.63480e-18
6901.50402 9.59449e-18
6903.00166 1.24243e-17
6904.49929 1.18006e-17
6905.99693 6.89167e-18
6907.50475 7.32826e-18
6909.00239 6.88905e-18
6910.50002 4.55299e-18
6911.99766 1.02246e-17
6913.49530 1.43095e-17
6915.00312 1.04033e-17
6916.50076 6.54582e-18
6917.99839 7.27454e-18
6919.49603 7.49659e-18
6921.00385 9.49416e-18
6922.50149 1.55802e-17
6923.99912 1.01746e-17
6925.49676 2.43256e-18
6927.00458 4.29305e-18
6928.50222 5.51109e-18
6929.99986 4.78040e-18
6931.49749 7.00769e-18
6932.99513 1.00225e-17
6934.50295 8.33393e-18
6936.00059 6.55047e-18
6937.49822 7.95190e-18
6938.99586 5.43904e-18
6940.50368 3.03386e-18
6942.00132 7.80699e-18
6943.49896 8.63076e-18
6944.99659 4.83432e-18
6946.50442 9.15180e-18
6948.00205 1.04231e-17
6949.49969 6.54092e-18
6950.99732 6.91400e-18
6952.49496 6.53746e-18
6954.00278 6.61132e-18
6955.50042 7.37260e-18
6956.99806 5.36227e-18
6958.49569 3.58255e-18
6960.00352 6.63599e-18
6961.50115 8.03568e-18
6962.99879 6.76562e-18
6964.49642 5.44610e-18
6966.00425 5.43749e-18
6967.50188 6.03894e-18
6968.99952 7.81020e-18
6970.49716 1.33851e-17
6972.00498 1.12671e-17
6973.50262 7.52830e-18
6975.00025 5.64005e-18
6976.49789 4.96583e-18
6977.99552 8.76201e-18
6979.50335 9.13926e-18
6981.00098 5.13090e-18
6982.49862 5.60704e-18
6983.99626 5.75539e-18
6985.50408 5.70838e-18
6987.00172 6.06569e-18
6988.49935 9.70575e-18
6989.99699 9.42074e-18
6991.50481 9.73886e-18
6993.00245 7.41656e-18
6994.50008 6.82051e-18
6995.99772 9.68716e-18
6997.49536 8.00703e-18
6999.00318 9.06815e-18
7000.50082 9.69332e-18
7001.99845 7.59573e-18
7003.49609 2.29050e-19
7005.00391 -2.06344e-18
7006.50155 3.76170e-18
7007.99918 3.28946e-18
7009.49682 3.06744e-18
7011.00464 5.99852e-18
7012.50228 9.63654e-18
7013.99992 7.71351e-18
7015.49755 5.61525e-18
7016.99519 6.27546e-18
7018.50301 8.58352e-18
7020.00065 7.76554e-18
7021.49828 8.86918e-18
7022.99592 8.33364e-18
7024.50374 5.76278e-18
7026.00138 5.38521e-18
7027.49902 5.84318e-18
7028.99665 4.95242e-18
7030.50448 6.09069e-18
7032.00211 6.86863e-18
7033.49975 1.05891e-17
7034.99738 1.28809e-17
7036.49502 8.49472e-18
7038.00284 8.59562e-18
7039.50048 6.42397e-18
7040.99812 6.09523e-18
7042.49575 8.08673e-18
7044.00358 6.29461e-18
7045.50121 8.35049e-18
7046.99885 8.12595e-18
7048.49648 1.14398e-17
7050.00431 7.46968e-18
7051.50194 7.83887e-18
7052.99958 8.64140e-18
7054.49722 7.01271e-18
7055.99485 8.73192e-18
7057.50268 8.50310e-18
7059.00031 4.00808e-18
7060.49795 7.98753e-18
7061.99558 8.72122e-18
7063.50341 1.03263e-17
7065.00104 8.31639e-18
7066.49868 8.87469e-18
7067.99632 8.42808e-18
7069.50414 9.75605e-18
7071.00178 8.59676e-18
7072.49941 8.65401e-18
7073.99705 7.99993e-18
7075.50487 9.83194e-18
7077.00251 9.47789e-18
7078.50014 8.67137e-18
7079.99778 7.19882e-18
7081.49542 7.89667e-18
7083.00324 9.18672e-18
7084.50088 7.58867e-18
7085.99851 8.42553e-18
7087.49615 1.22271e-17
7089.00397 1.30409e-17
7090.50161 1.21825e-17
7091.99924 1.13227e-17
7093.49688 7.65063e-18
7095.00470 1.02095e-17
7096.50234 1.19675e-17
7097.99998 6.24668e-18
7099.49761 6.36187e-18
7100.99525 8.86718e-18
7102.50307 8.14314e-18
7104.00071 7.86452e-18
7105.49834 5.91691e-18
7106.99598 7.09427e-18
7108.50380 8.27157e-18
7110.00144 9.44880e-18
7111.49908 9.44855e-18
7112.99671 8.45746e-18
7114.50454 8.19416e-18
7116.00217 6.22191e-18
7117.49981 8.30145e-18
7118.99744 9.65264e-18
7120.49508 1.28431e-17
7122.00290 7.72969e-18
7123.50054 4.04303e-18
7124.99818 4.52221e-18
7126.49581 7.69274e-18
7128.00364 8.38969e-18
7129.50127 9.64703e-18
7130.99891 8.63573e-18
7132.49654 9.78382e-18
7134.00437 5.42432e-18
7135.50200 7.74746e-18
7136.99964 1.07021e-17
7138.49728 5.32329e-18
7139.99491 2.50138e-18
7141.50274 4.35956e-18
7143.00037 9.31697e-18
7144.49801 7.20729e-18
7145.99564 3.81855e-18
7147.50347 7.42057e-18
7149.00110 6.40834e-18
7150.49874 2.73344e-18
7151.99638 6.94018e-18
7153.50420 1.07833e-17
7155.00184 8.56814e-18
7156.49947 7.66114e-18
7157.99711 5.22107e-18
7159.50493 5.98911e-18
7161.00257 1.03008e-17
7162.50020 8.52161e-18
7163.99784 6.22059e-18
7165.49548 8.39693e-18
7167.00330 9.10022e-18
7168.50094 6.52462e-18
7169.99857 6.88194e-18
7171.49621 8.29853e-18
7173.00403 8.30629e-18
7174.50167 8.81900e-18
7175.99930 9.13423e-18
7177.49694 9.96094e-18
7179.00476 1.01011e-17
7180.50240 7.56206e-18
7182.00004 6.42068e-18
7183.49767 9.02129e-18
7184.99531 7.60041e-18
7186.50313 6.30689e-18
7188.00077 8.32444e-18
7189.49840 8.98864e-18
7190.99604 6.75479e-18
7192.50386 6.21278e-18
7194.00150 7.06717e-18
7195.49914 9.97241e-18
7196.99677 1.25440e-17
7198.50460 8.98416e-18
7200.00223 6.16129e-18
7201.49987 6.53766e-18
7202.99750 7.74163e-18
7204.49514 8.53063e-18
7206.00296 5.64998e-18
7207.50060 7.75596e-18
7208.99824 7.28498e-18
7210.49587 8.92759e-18
7212.00370 1.05451e-17
7213.50133 6.88581e-18
7214.99897 9.95700e-18
7216.49660 1.01436e-17
7218.00443 8.40104e-18
7219.50206 1.00583e-17
7220.99970 1.00637e-17
7222.49734 9.10233e-18
7223.99497 9.06057e-18
7225.50280 8.95188e-18
7227.00043 8.85460e-18
7228.49807 9.91826e-18
7229.99570 8.22810e-18
7231.50353 7.48344e-18
7233.00116 7.83919e-18
7234.49880 8.28389e-18
7235.99644 7.39791e-18
7237.50426 3.34236e-18
7239.00190 3.34823e-18
7240.49953 8.08993e-18
7241.99717 1.12730e-17
7243.49480 1.56521e-17
7245.00263 1.80592e-17
7246.50026 1.20534e-17
7247.99790 7.38888e-18
7249.49554 5.31003e-18
7251.00336 2.98954e-18
7252.50100 5.37062e-18
7253.99863 1.20055e-17
7255.49627 1.12427e-17
7257.00409 1.09325e-17
7258.50173 1.12778e-17
7259.99936 9.52073e-18
7261.49700 7.69192e-18
7263.00482 6.95848e-18
7264.50246 1.17110e-17
7266.00010 1.28074e-17
7267.49773 7.38030e-18
7268.99537 5.90918e-18
7270.50319 8.52827e-18
7272.00083 1.06289e-17
7273.49846 1.44968e-17
7274.99610 1.31112e-17
7276.50392 5.78676e-18
7278.00156 5.45455e-18
7279.49920 2.72621e-18
7280.99683 7.67064e-18
7282.50466 1.07941e-17
7284.00229 6.16083e-18
7285.49993 3.73847e-18
7286.99756 7.55948e-18
7288.49520 1.26605e-17
7290.00302 1.31294e-17
7291.50066 1.08280e-17
7292.99830 8.08124e-18
7294.49593 5.52769e-18
7296.00376 2.94461e-18
7297.50139 4.62510e-18
7298.99903 9.94879e-18
7300.49666 8.48893e-18
7302.00449 9.03358e-18
7303.50212 1.13421e-17
7304.99976 8.88458e-18
7306.49740 9.20829e-18
7307.99503 1.07575e-17
7309.50286 1.09898e-17
7311.00049 7.78114e-18
7312.49813 8.75386e-18
7313.99576 7.97076e-18
7315.50359 5.96167e-18
7317.00122 1.38784e-17
7318.49886 1.41081e-17
7319.99650 1.01788e-17
7321.50432 1.50875e-17
7323.00196 1.09461e-17
7324.49959 5.74709e-18
7325.99723 9.10811e-18
7327.49486 1.21631e-17
7329.00269 1.53858e-17
7330.50032 1.15202e-17
7331.99796 7.53961e-18
7333.49560 1.01766e-17
7335.00342 1.05937e-17
7336.50106 1.30235e-17
7337.99869 1.47678e-17
7339.49633 7.14398e-18
7341.00415 1.22794e-17
7342.50179 7.81950e-18
7343.99942 1.04959e-17
7345.49706 1.20757e-17
7347.00488 1.24968e-17
7348.50252 6.51275e-18
7350.00016 7.99725e-18
7351.49779 7.84904e-18
7352.99543 9.68766e-18
7354.50325 7.64250e-18
7356.00089 1.20934e-17
7357.49852 1.14767e-17
7358.99616 1.34458e-17
7360.50398 1.16622e-17
7362.00162 8.23614e-18
7363.49926 9.09880e-18
7364.99689 1.07274e-17
7366.50472 1.36809e-17
7368.00235 1.37299e-17
7369.49999 8.95446e-18
7370.99762 1.09331e-17
7372.49526 1.08251e-17
7374.00308 1.00663e-17
7375.50072 9.60829e-18
7376.99836 1.37449e-17
7378.49599 1.24338e-17
7380.00382 8.50510e-18
7381.50145 8.47126e-18
7382.99909 9.34312e-18
7384.49672 1.11824e-17
7386.00455 1.17636e-17
7387.50218 9.58545e-18
7388.99982 8.30046e-18
7390.49746 8.03618e-18
7391.99509 7.98171e-18
7393.50292 9.07784e-18
7395.00055 7.38422e-18
7396.49819 1.00407e-17
7397.99582 1.03374e-17
7399.50365 1.23254e-17
7401.00128 1.06038e-17
7402.49892 2.42277e-18
7403.99656 6.90518e-18
7405.50438 6.87208e-18
7407.00202 1.12350e-17
7408.49965 9.38647e-18
7409.99729 9.67572e-18
7411.49492 1.22773e-17
7413.00275 9.56438e-18
7414.50038 1.20017e-17
7415.99802 1.07488e-17
7417.49566 6.66166e-18
7419.00348 1.21664e-17
7420.50112 1.31189e-17
7421.99875 9.88622e-18
7423.49639 1.24204e-17
7425.00421 1.21108e-17
7426.50185 7.10584e-18
7427.99948 1.21611e-17
7429.49712 1.60565e-17
7431.00494 1.31394e-17
7432.50258 7.31919e-18
7434.00022 7.45949e-18
7435.49785 1.05966e-17
7436.99549 9.04506e-18
7438.50331 2.10108e-18
7440.00095 4.92760e-18
7441.49858 1.36687e-17
7442.99622 9.82524e-18
7444.50404 3.89837e-18
7446.00168 6.07618e-18
7447.49932 8.23019e-18
7448.99695 9.96051e-18
7450.50478 1.20348e-17
7452.00241 1.05413e-17
7453.50005 7.57064e-18
7454.99768 9.78226e-18
7456.49532 1.18843e-17
7458.00314 1.38342e-17
7459.50078 1.35906e-17
7460.99842 1.41864e-17
7462.49605 9.17838e-18
7464.00388 8.50298e-18
7465.50151 1.11645e-17
7466.99915 1.05964e-17
7468.49678 7.82687e-18
7470.00461 4.79533e-18
7471.50224 1.11295e-17
7472.99988 1.94540e-18
7474.49752 2.67213e-18
7475.99515 9.18761e-18
7477.50298 6.18712e-18
7479.00061 1.03329e-17
7480.49825 6.02306e-18
7481.99588 7.51226e-18
7482.18813 7.51226e-18
7483.04960 7.50617e-18
7483.91106 7.49772e-18
7484.77252 7.48921e-18
7485.63398 7.48170e-18
7486.49544 7.47414e-18
7487.35690 7.46805e-18
7488.21837 7.46196e-18
7489.08985 7.45493e-18
7489.95131 7.44795e-18
7490.81277 7.43921e-18
7491.67423 7.43046e-18
7492.53569 7.42118e-18
7493.39716 7.41190e-18
7494.25862 7.40280e-18
7495.12008 7.39376e-18
7495.98154 7.38513e-18
7496.84300 7.37650e-18
7497.70447 7.36816e-18
7498.57595 7.35989e-18
7499.43741 7.35049e-18
7500.29887 7.34109e-18
7501.16033 7.32951e-18
7502.02179 7.31793e-18
7502.88325 7.30551e-18
7503.74472 7.29310e-18
7504.60618 7.28099e-18
7505.46764 7.26887e-18
7506.32910 7.25386e-18
7507.19056 7.23878e-18
7508.06204 7.21763e-18
7508.92351 7.19647e-18
7509.78497 7.16969e-18
7510.64643 7.14286e-18
7511.50789 7.11171e-18
7512.36935 7.08062e-18
7513.23082 7.05131e-18
7514.09228 7.02199e-18
7514.95374 7.00255e-18
7515.81520 6.98316e-18
7516.67666 6.97075e-18
7517.54814 6.95834e-18
7518.40960 6.94362e-18
7519.27107 6.92884e-18
7520.13253 6.90804e-18
7520.99399 6.88723e-18
7521.85545 6.86111e-18
7522.71691 6.83504e-18
7523.57838 6.80567e-18
7524.43984 6.77629e-18
7525.30130 6.74798e-18
7526.16276 6.71961e-18
7527.02423 6.69402e-18
7527.89570 6.66837e-18
7528.75717 6.64195e-18
7529.61863 6.61553e-18
7530.48009 6.58592e-18
7531.34155 6.55631e-18
7532.20301 6.52422e-18
7533.06448 6.49218e-18
7533.92594 6.45796e-18
7534.78740 6.42374e-18
7535.64886 6.38497e-18
7536.52034 6.34619e-18
7537.38180 6.30169e-18
7538.24327 6.25718e-18
7539.10473 6.21220e-18
7539.96619 6.16723e-18
7540.82765 6.12721e-18
7541.68911 6.08720e-18
7542.55058 6.05256e-18
7543.41204 6.01793e-18
7544.27350 5.98779e-18
7545.13496 5.95764e-18
7545.99642 5.92732e-18
7546.86790 5.89697e-18
7547.72936 5.86058e-18
7548.59083 5.82417e-18
7549.45229 5.78168e-18
7550.31375 5.73918e-18
7551.17521 5.69352e-18
7552.03667 5.64786e-18
7552.89814 5.60224e-18
7553.75960 5.55663e-18
7554.62106 5.51457e-18
7555.48252 5.47252e-18
7556.35400 5.43478e-18
7557.21546 5.39705e-18
7558.07693 5.36132e-18
7558.93839 5.32559e-18
7559.79985 5.28990e-18
7560.66131 5.25421e-18
7561.52277 5.21756e-18
7562.38424 5.18092e-18
7563.24570 5.14172e-18
7564.10716 5.10251e-18
7564.96862 5.05723e-18
7565.84010 5.01193e-18
7566.70156 4.96054e-18
7567.56302 4.90915e-18
7568.42449 4.86150e-18
7569.28595 4.81387e-18
7570.14741 4.77818e-18
7571.00887 4.74251e-18
7571.87033 4.71998e-18
7572.73180 4.69748e-18
7573.59326 4.68677e-18
7574.45472 4.67610e-18
7575.31618 4.66231e-18
7576.18766 4.64852e-18
7577.04912 4.61527e-18
7577.91059 4.58200e-18
7578.77205 4.53825e-18
7579.63351 4.49449e-18
7580.49497 4.45456e-18
7581.35643 4.41464e-18
7582.21790 4.37626e-18
7583.07936 4.33789e-18
7583.94082 4.29439e-18
7584.81230 4.25088e-18
7585.67376 4.17816e-18
7586.53522 4.10538e-18
7587.39668 3.97000e-18
7588.25815 3.83449e-18
7589.11961 3.64305e-18
7589.98107 3.45151e-18
7590.84253 3.24393e-18
7591.70399 3.03632e-18
7592.56546 2.85061e-18
7593.42692 2.66494e-18
7594.28838 2.53668e-18
7595.15986 2.40854e-18
7596.02132 2.35551e-18
7596.88278 2.30263e-18
7597.74425 2.30765e-18
7598.60571 2.31278e-18
7599.46717 2.36340e-18
7600.32863 2.41412e-18
7601.19009 2.51978e-18
7602.05156 2.62553e-18
7602.91302 2.78647e-18
7603.77448 2.94750e-18
7604.64596 3.14290e-18
7605.50742 3.33837e-18
7606.36888 3.54340e-18
7607.23034 3.74843e-18
7608.09181 3.93783e-18
7608.95327 4.12719e-18
7609.81473 4.27570e-18
7610.67619 4.42413e-18
7611.53765 4.49645e-18
7612.39912 4.56861e-18
7613.26058 4.53632e-18
7614.13206 4.50382e-18
7614.99352 4.36848e-18
7615.85498 4.23294e-18
7616.71644 4.01051e-18
7617.57791 3.78792e-18
7618.43937 3.54483e-18
7619.30083 3.30171e-18
7620.16229 3.12744e-18
7621.02375 2.95332e-18
7621.88522 2.88174e-18
7622.74668 2.81037e-18
7623.61816 2.83438e-18
7624.47962 2.85858e-18
7625.34108 2.94744e-18
7626.20254 3.03644e-18
7627.06400 3.13369e-18
7627.92547 3.23096e-18
7628.78693 3.30522e-18
7629.64839 3.37942e-18
7630.50985 3.44255e-18
7631.37131 3.50564e-18
7632.23278 3.56533e-18
7633.10426 3.62501e-18
7633.96572 3.68096e-18
7634.82718 3.73690e-18
7635.68864 3.78911e-18
7636.55010 3.84132e-18
7637.41157 3.87952e-18
7638.27303 3.91769e-18
7639.13449 3.93667e-18
7639.99595 3.95562e-18
7640.85741 3.97344e-18
7641.71888 3.99126e-18
7642.59035 4.02582e-18
7643.45182 4.06040e-18
7644.31328 4.11933e-18
7645.17474 4.17830e-18
7646.03620 4.26484e-18
7646.89766 4.35143e-18
7647.75913 4.44224e-18
7648.62059 4.53305e-18
7649.48205 4.59867e-18
7650.34351 4.66424e-18
7651.20497 4.69842e-18
7652.06644 4.73253e-18
7652.93792 4.73852e-18
7653.79938 4.74446e-18
7654.66084 4.74485e-18
7655.52230 4.74524e-18
7656.38376 4.77493e-18
7657.24523 4.80467e-18
7658.10669 4.86927e-18
7658.96815 4.93394e-18
7659.82961 5.01431e-18
7660.69107 5.09471e-18
7661.55254 5.17458e-18
7662.42401 5.25444e-18
7663.28548 5.31905e-18
7664.14694 5.38362e-18
7665.00840 5.43209e-18
7665.86986 5.48052e-18
7666.73132 5.54083e-18
7667.59279 5.60117e-18
7668.45425 5.68631e-18
7669.31571 5.77150e-18
7670.17717 5.85494e-18
7671.03863 5.93837e-18
7671.91011 5.99872e-18
7672.77158 6.05901e-18
7673.63304 6.09234e-18
7674.49450 6.12556e-18
7675.35596 6.13336e-18
7676.21742 6.14110e-18
7677.07889 6.15493e-18
7677.94035 6.16870e-18
7678.80181 6.22007e-18
7679.66327 6.27154e-18
7680.52473 6.34188e-18
7681.38620 6.41221e-18
7682.25767 6.47209e-18
7683.11914 6.53202e-18
7683.98060 6.58137e-18
7684.84206 6.63072e-18
7685.70352 6.67783e-18
7686.56498 6.72493e-18
7687.42645 6.77174e-18
7688.28791 6.81850e-18
7689.14937 6.86566e-18
7690.01083 6.91283e-18
7690.88231 6.95585e-18
7691.74377 6.99888e-18
7692.60524 7.02867e-18
7693.46670 7.05852e-18
7694.32816 7.07731e-18
7695.18962 7.09611e-18
7696.05108 7.11780e-18
7696.91255 7.13949e-18
7697.77401 7.16934e-18
7698.63547 7.19913e-18
7699.49693 7.23004e-18
7700.35839 7.26089e-18
7701.22987 7.28695e-18
7702.09133 7.31302e-18
7702.95280 7.33075e-18
7703.81426 7.34836e-18
7704.67572 7.35528e-18
7705.53718 7.36208e-18
7706.39864 7.35865e-18
7707.26011 7.35516e-18
7708.12157 7.34446e-18
7708.98303 7.33377e-18
7709.84449 7.32821e-18
7710.71597 7.32271e-18
7711.57743 7.33341e-18
7712.43890 7.34417e-18
7713.30036 7.36846e-18
7714.16182 7.39281e-18
7715.02328 7.42467e-18
7715.88474 7.45652e-18
7716.74620 7.48614e-18
7717.60767 7.51581e-18
7718.46913 7.53259e-18
7719.33059 7.54944e-18
7720.20207 7.55269e-18
7721.06353 7.55594e-18
7721.92499 7.54950e-18
7722.78646 7.54305e-18
7723.64792 7.53354e-18
7724.50938 7.52402e-18
7725.37084 7.52030e-18
7726.23230 7.51652e-18
7727.09377 7.52142e-18
7727.95523 7.52639e-18
7728.81669 7.53702e-18
7729.67815 7.54772e-18
7730.54963 7.56350e-18
7731.41109 7.57934e-18
7732.27255 7.60358e-18
7733.13402 7.62775e-18
7733.99548 7.65653e-18
7734.85694 7.68526e-18
7735.71840 7.70305e-18
7736.57986 7.72078e-18
7737.44133 7.71871e-18
7738.30279 7.71664e-18
7739.17427 7.70110e-18
7740.03573 7.68555e-18
7740.89719 7.66481e-18
7741.75865 7.64406e-18
7742.62012 7.63047e-18
7743.48158 7.61687e-18
7744.34304 7.62048e-18
7745.20450 7.62409e-18
7746.06596 7.63809e-18
7746.92743 7.65210e-18
7747.78889 7.66711e-18
7748.65035 7.68213e-18
7749.52183 7.69483e-18
7750.38329 7.70748e-18
7751.24475 7.71540e-18
7752.10621 7.72332e-18
7752.96768 7.72651e-18
7753.82914 7.72965e-18
7754.69060 7.72982e-18
7755.55206 7.72994e-18
7756.41352 7.72498e-18
7757.27499 7.71995e-18
7758.13645 7.70565e-18
7759.00793 7.69140e-18
7759.86939 7.67196e-18
7760.73085 7.65246e-18
7761.59231 7.63762e-18
7762.45378 7.62278e-18
7763.31524 7.61492e-18
7764.17670 7.60700e-18
7765.03816 7.60098e-18
7765.89962 7.59495e-18
7766.76109 7.58679e-18
7767.62255 7.57863e-18
7768.49403 7.56539e-18
7769.35549 7.55210e-18
7770.21695 7.53354e-18
7771.07841 7.51492e-18
7771.93988 7.49731e-18
7772.80134 7.47975e-18
7773.66280 7.46781e-18
7774.52426 7.45587e-18
7775.38572 7.44713e-18
7776.24719 7.43844e-18
7777.10865 7.43099e-18
7777.98013 7.42360e-18
7778.84159 7.41858e-18
7779.70305 7.41356e-18
7780.56451 7.41196e-18
7781.42597 7.41036e-18
7782.28744 7.41190e-18
7783.14890 7.41344e-18
7784.01036 7.41746e-18
7784.87182 7.42148e-18
7785.73328 7.42745e-18
7786.59475 7.43342e-18
7787.46623 7.44063e-18
7788.32769 7.44790e-18
7789.18915 7.45434e-18
7790.05061 7.46072e-18
7790.91207 7.46397e-18
7791.77354 7.46716e-18
7792.63500 7.46598e-18
7793.49646 7.46480e-18
7794.35792 7.45883e-18
7795.21938 7.45280e-18
7796.08085 7.44482e-18
7796.94231 7.43684e-18
7797.81379 7.43194e-18
7798.67525 7.42709e-18
7799.53671 7.42916e-18
7800.39817 7.43129e-18
7801.25963 7.44287e-18
7802.12110 7.45452e-18
7802.98256 7.47366e-18
7803.84402 7.49287e-18
7804.70548 7.50990e-18
7805.56694 7.52698e-18
7806.42841 7.53490e-18
7807.29989 7.54282e-18
7808.16135 7.54240e-18
7809.02281 7.54199e-18
7809.88427 7.53460e-18
7810.74573 7.52715e-18
7811.60720 7.51427e-18
7812.46866 7.50133e-18
7813.33012 7.48525e-18
7814.19158 7.46917e-18
7815.05304 7.45286e-18
7815.91450 7.43655e-18
7816.78598 7.42272e-18
7817.64745 7.40889e-18
7818.50891 7.40085e-18
7819.37037 7.39281e-18
7820.23183 7.39317e-18
7821.09329 7.39358e-18
7821.95476 7.39636e-18
7822.81622 7.39919e-18
7823.67768 7.39541e-18
7824.53914 7.39163e-18
7825.40060 7.38016e-18
7826.27208 7.36864e-18
7827.13355 7.35221e-18
7827.99501 7.33583e-18
7828.85647 7.31674e-18
7829.71793 7.29771e-18
7830.57939 7.27833e-18
7831.44085 7.25894e-18
7832.30232 7.24074e-18
7833.16378 7.22253e-18
7834.02524 7.20551e-18
7834.88670 7.18849e-18
7835.75818 7.17424e-18
7836.61964 7.16000e-18
7837.48111 7.15297e-18
7838.34257 7.14593e-18
7839.20403 7.14729e-18
7840.06549 7.14859e-18
7840.92695 7.15332e-18
7841.78842 7.15805e-18
7842.64988 7.16183e-18
7843.51134 7.16561e-18
7844.37280 7.16644e-18
7845.23426 7.16733e-18
7846.10574 7.16408e-18
7846.96720 7.16089e-18
7847.82867 7.15521e-18
7848.69013 7.14954e-18
7849.55159 7.14345e-18
7850.41305 7.13736e-18
7851.27452 7.13216e-18
7852.13598 7.12690e-18
7852.99744 7.12341e-18
7853.85890 7.11993e-18
7854.72036 7.11886e-18
7855.59184 7.11780e-18
7856.45330 7.11951e-18
7857.31477 7.12129e-18
7858.17623 7.12312e-18
7859.03769 7.12495e-18
7859.89915 7.12259e-18
7860.76061 7.12022e-18
7861.62208 7.11396e-18
7862.48354 7.10769e-18
7863.34500 7.10101e-18
7864.20646 7.09433e-18
7865.07794 7.08541e-18
7865.93940 7.07654e-18
7866.80087 7.05952e-18
7867.66233 7.04256e-18
7868.52379 7.01685e-18
7869.38525 6.99120e-18
7870.24671 6.96170e-18
7871.10818 6.93215e-18
7871.96964 6.90567e-18
7872.83110 6.87914e-18
7873.69256 6.86672e-18
7874.56404 6.85443e-18
7875.42550 6.86052e-18
7876.28696 6.86666e-18
7877.14843 6.87872e-18
7878.00989 6.89078e-18
7878.87135 6.89722e-18
7879.73281 6.90372e-18
7880.59427 6.90106e-18
7881.45574 6.89840e-18
7882.31720 6.88475e-18
7883.17866 6.87104e-18
7884.05014 6.85118e-18
7884.91160 6.83132e-18
7885.77306 6.81128e-18
7886.63453 6.79131e-18
7887.49599 6.77068e-18
7888.35745 6.74999e-18
7889.21891 6.72730e-18
7890.08037 6.70460e-18
7890.94184 6.68108e-18
7891.80330 6.65761e-18
7892.66476 6.63474e-18
7893.52622 6.61193e-18
7894.39770 6.59567e-18
7895.25916 6.57942e-18
7896.12062 6.57800e-18
7896.98209 6.57652e-18
7897.84355 6.58521e-18
7898.70501 6.59384e-18
7899.56647 6.59892e-18
7900.42793 6.60401e-18
7901.28940 6.59951e-18
7902.15086 6.59502e-18
7903.01232 6.58243e-18
7903.88380 6.56978e-18
7904.74526 6.55294e-18
7905.60672 6.53615e-18
7906.46819 6.52386e-18
7907.32965 6.51163e-18
7908.19111 6.50737e-18
7909.05257 6.50312e-18
7909.91403 6.49703e-18
7910.77550 6.49094e-18
7911.63696 6.47717e-18
7912.49842 6.46340e-18
7913.36990 6.44898e-18
7914.23136 6.43450e-18
7915.09282 6.42527e-18
7915.95428 6.41605e-18
7916.81575 6.41245e-18
7917.67721 6.40884e-18
7918.53867 6.41009e-18
7919.40013 6.41133e-18
7920.26159 6.40873e-18
7921.12306 6.40618e-18
7921.98452 6.39105e-18
7922.85600 6.37586e-18
7923.71746 6.35352e-18
7924.57892 6.33118e-18
7925.44038 6.31103e-18
7926.30185 6.29081e-18
7927.16331 6.27828e-18
7928.02477 6.26575e-18
7928.88623 6.26451e-18
7929.74769 6.26333e-18
7930.60916 6.27113e-18
7931.47062 6.27893e-18
7932.34210 6.28934e-18
7933.20356 6.29980e-18
7934.06502 6.30730e-18
7934.92648 6.31481e-18
7935.78794 6.31481e-18
7936.64941 6.31487e-18
7937.51087 6.30506e-18
7938.37233 6.29519e-18
7939.23379 6.27604e-18
7940.09525 6.25683e-18
7940.95672 6.23112e-18
7941.81818 6.20541e-18
7942.68966 6.17958e-18
7943.55112 6.15375e-18
7944.41258 6.13283e-18
7945.27404 6.11190e-18
7946.13551 6.09677e-18
7946.99697 6.08164e-18
7947.85843 6.07225e-18
7948.71989 6.06279e-18
7949.58135 6.05735e-18
7950.44282 6.05191e-18
7951.30428 6.04801e-18
7952.17576 6.04411e-18
7953.03722 6.03655e-18
7953.89868 6.02898e-18
7954.76014 6.01326e-18
7955.62160 5.99754e-18
7956.48307 5.98022e-18
7957.34453 5.96284e-18
7958.20599 5.95244e-18
7959.06745 5.94210e-18
7959.92891 5.93926e-18
7960.79038 5.93642e-18
7961.66186 5.93932e-18
7962.52332 5.94216e-18
7963.38478 5.94624e-18
7964.24624 5.95031e-18
7965.10770 5.94907e-18
7965.96917 5.94777e-18
7966.83063 5.94494e-18
7967.69209 5.94204e-18
7968.55355 5.94836e-18
7969.41501 5.95475e-18
7970.27648 5.97277e-18
7971.14795 5.99086e-18
7972.00942 6.01515e-18
7972.87088 6.03944e-18
7973.73234 6.06267e-18
7974.59380 6.08596e-18
7975.45526 6.09754e-18
7976.31673 6.10913e-18
7977.17819 6.10452e-18
7978.03965 6.09991e-18
7978.90111 6.08779e-18
7979.76257 6.07567e-18
7980.63405 6.06362e-18
7981.49552 6.05162e-18
7982.35698 6.04151e-18
7983.21844 6.03140e-18
7984.07990 6.02443e-18
7984.94136 6.01746e-18
7985.80283 6.01107e-18
7986.66429 6.00475e-18
7987.52575 5.99630e-18
7988.38721 5.98779e-18
7989.24867 5.97833e-18
7990.11014 5.96887e-18
7990.98161 5.95983e-18
7991.84308 5.95079e-18
7992.70454 5.94494e-18
7993.56600 5.93908e-18
7994.42746 5.93962e-18
7995.28892 5.94021e-18
7996.15039 5.94080e-18
7997.01185 5.94139e-18
7997.87331 5.93193e-18
7998.73477 5.92248e-18
7999.59623 5.90419e-18
8000.46771 5.88591e-18
8001.32917 5.86646e-18
8002.19064 5.84699e-18
8003.05210 5.83212e-18
8003.91356 5.81726e-18
8004.77502 5.81190e-18
8005.63649 5.80657e-18
8006.49795 5.80946e-18
8007.35941 5.81237e-18
8008.22087 5.81345e-18
8009.08233 5.81452e-18
8009.95381 5.81049e-18
8010.81527 5.80645e-18
8011.67674 5.80694e-18
8012.53820 5.80745e-18
8013.39966 5.81715e-18
8014.26112 5.82687e-18
8015.12258 5.83900e-18
8015.98405 5.85114e-18
8016.84551 5.85923e-18
8017.70697 5.86732e-18
8018.56843 5.86481e-18
8019.43991 5.86229e-18
8020.30137 5.84515e-18
8021.16284 5.82799e-18
8022.02430 5.80708e-18
8022.88576 5.78616e-18
8023.74722 5.77349e-18
8024.60868 5.76084e-18
8025.47015 5.75605e-18
8026.33161 5.75128e-18
8027.19307 5.75117e-18
8028.05453 5.75107e-18
8028.92601 5.75170e-18
8029.78747 5.75233e-18
8030.64893 5.74911e-18
8031.51040 5.74587e-18
8032.37186 5.73926e-18
8033.23332 5.73264e-18
8034.09478 5.72583e-18
8034.95624 5.71903e-18
8035.81771 5.71408e-18
8036.67917 5.70914e-18
8037.54063 5.70728e-18
8038.41211 5.70543e-18
8039.27357 5.70712e-18
8040.13503 5.70880e-18
8040.99650 5.71348e-18
8041.85796 5.71816e-18
8042.71942 5.72428e-18
8043.58088 5.73040e-18
8044.44234 5.73521e-18
8045.30380 5.74002e-18
8046.16527 5.74144e-18
8047.02673 5.74285e-18
8047.88819 5.73993e-18
8048.75967 5.73699e-18
8049.62113 5.73022e-18
8050.48259 5.72345e-18
8051.34406 5.71785e-18
8052.20552 5.71224e-18
8053.06698 5.71154e-18
8053.92844 5.71085e-18
8054.78990 5.71220e-18
8055.65137 5.71356e-18
8056.51283 5.71341e-18
8057.37429 5.71325e-18
8058.24577 5.70732e-18
8059.10723 5.70137e-18
8059.96869 5.68604e-18
8060.83015 5.67069e-18
8061.69162 5.64891e-18
8062.55308 5.62711e-18
8063.41454 5.60390e-18
8064.27600 5.58069e-18
8065.13746 5.56176e-18
8065.99893 5.54284e-18
8066.86039 5.53377e-18
8067.73187 5.52472e-18
8068.59333 5.52583e-18
8069.45479 5.52696e-18
8070.31625 5.53525e-18
8071.17772 5.54357e-18
8072.03918 5.55311e-18
8072.90064 5.56265e-18
8073.76210 5.56493e-18
8074.62356 5.56719e-18
8075.48503 5.55907e-18
8076.34649 5.55093e-18
8077.21797 5.53648e-18
8078.07943 5.52201e-18
8078.94089 5.50375e-18
8079.80235 5.48547e-18
8080.66381 5.46292e-18
8081.52528 5.44036e-18
8082.38674 5.41388e-18
8083.24820 5.38739e-18
8084.10966 5.35809e-18
8084.97113 5.32879e-18
8085.83259 5.29799e-18
8086.70407 5.26719e-18
8087.56553 5.23684e-18
8088.42699 5.20651e-18
8089.28845 5.17845e-18
8090.14991 5.15040e-18
8091.01138 5.12628e-18
8091.87284 5.10218e-18
8092.73430 5.08289e-18
8093.59576 5.06361e-18
8094.45722 5.04877e-18
8095.31869 5.03394e-18
8096.18015 5.02237e-18
8097.05163 5.01081e-18
8097.91309 4.99604e-18
8098.77455 4.98128e-18
8099.63601 4.95569e-18
8100.49748 4.93008e-18
8101.35894 4.89124e-18
8102.22040 4.85238e-18
8103.08186 4.80080e-18
8103.94332 4.74918e-18
8104.80479 4.69109e-18
8105.67626 4.63299e-18
8106.53773 4.57854e-18
8107.39919 4.52409e-18
8108.26065 4.47958e-18
8109.12211 4.43509e-18
8109.98357 4.40267e-18
8110.84504 4.37028e-18
8111.70650 4.34711e-18
8112.56796 4.32395e-18
8113.42942 4.30010e-18
8114.29088 4.27624e-18
8115.15235 4.24367e-18
8116.02383 4.21110e-18
8116.88529 4.16641e-18
8117.74675 4.12170e-18
8118.60821 4.06425e-18
8119.46967 4.00677e-18
8120.33114 3.94484e-18
8121.19260 3.88291e-18
8122.05406 3.82313e-18
8122.91552 3.76336e-18
8123.77698 3.69835e-18
8124.63845 3.63332e-18
8125.49991 3.55621e-18
8126.37139 3.47907e-18
8127.23285 3.39353e-18
8128.09431 3.30798e-18
8128.95577 3.21942e-18
8129.81723 3.13087e-18
8130.67870 3.04966e-18
8131.54016 2.96848e-18
8132.40162 2.90577e-18
8133.26308 2.84312e-18
8134.12454 2.79293e-18
8134.99602 2.74278e-18
8135.85749 2.69169e-18
8136.71895 2.64060e-18
8137.58041 2.58352e-18
8138.44187 2.52643e-18
8139.30333 2.46318e-18
8140.16480 2.39991e-18
8141.02626 2.33209e-18
8141.88772 2.26426e-18
8142.74918 2.19566e-18
8143.61064 2.12705e-18
8144.47210 2.06140e-18
8145.34358 1.99576e-18
8146.20505 1.93605e-18
8147.06651 1.87636e-18
8147.92797 1.82470e-18
8148.78943 1.77307e-18
8149.65089 1.73012e-18
8150.51236 1.68719e-18
8151.37382 1.65189e-18
8152.23528 1.61661e-18
8153.09674 1.58431e-18
8153.95820 1.55201e-18
8154.82968 1.51894e-18
8155.69115 1.48587e-18
8156.55261 1.45238e-18
8157.41407 1.41890e-18
8158.27553 1.38615e-18
8159.13699 1.35341e-18
8159.99845 1.32418e-18
8160.85992 1.29496e-18
8161.72138 1.27199e-18
8162.58284 1.24904e-18
8163.44430 1.23316e-18
8164.31578 1.21729e-18
8165.17724 1.20836e-18
8166.03871 1.19943e-18
8166.90017 1.19318e-18
8167.76163 1.18694e-18
8168.62309 1.17822e-18
8169.48455 1.16949e-18
8170.34602 1.15399e-18
8171.20748 1.13848e-18
8172.06894 1.11211e-18
8172.93040 1.08571e-18
8173.80188 1.05545e-18
8174.66334 1.02517e-18
8175.52481 1.00605e-18
8176.38627 9.86963e-19
8177.24773 9.82335e-19
8178.10919 9.77743e-19
8178.97065 9.78889e-19
8179.83212 9.80048e-19
8180.69358 9.80326e-19
8181.55504 9.80603e-19
8182.41650 9.75834e-19
8183.28798 9.71058e-19
8184.14944 9.59722e-19
8185.01090 9.48374e-19
8185.87237 9.36098e-19
8186.73383 9.23816e-19
8187.59529 9.14625e-19
8188.45675 9.05435e-19
8189.31821 8.96220e-19
8190.17968 8.87000e-19
8191.04114 8.75587e-19
8191.90260 8.64162e-19
8192.77408 8.53198e-19
8193.63554 8.42235e-19
8194.49700 8.34409e-19
8195.35846 8.26590e-19
8196.21993 8.24302e-19
8197.08139 8.22027e-19
8197.94285 8.27092e-19
8198.80431 8.32169e-19
8199.66577 8.40243e-19
8200.52724 8.48322e-19
8201.38870 8.53334e-19
8202.25016 8.58341e-19
8203.12164 8.59109e-19
8203.98310 8.59871e-19
8204.84456 8.57383e-19
8205.70603 8.54889e-19
8206.56749 8.49646e-19
8207.42895 8.44392e-19
8208.29041 8.36815e-19
8209.15187 8.29232e-19
8210.01334 8.20549e-19
8210.87480 8.11867e-19
8211.73626 8.03681e-19
8212.60774 7.95501e-19
8213.46920 7.88491e-19
8214.33066 7.81487e-19
8215.19212 7.75536e-19
8216.05359 7.69590e-19
8216.91505 7.62810e-19
8217.77651 7.56031e-19
8218.63797 7.43188e-19
8219.49943 7.30327e-19
8220.36090 7.09410e-19
8221.22236 6.88475e-19
8222.08382 6.64845e-19
8222.95530 6.41209e-19
8223.81676 6.20848e-19
8224.67822 6.00493e-19
8225.53969 5.90895e-19
8226.40115 5.81325e-19
8227.26261 5.87903e-19
8228.12407 5.94517e-19
8228.98553 6.12231e-19
8229.84700 6.29968e-19
8230.70846 6.51813e-19
8231.57994 6.73669e-19
8232.44140 6.92843e-19
8233.30286 7.12016e-19
8234.16432 7.22200e-19
8235.02578 7.32366e-19
8235.88725 7.35658e-19
8236.74871 7.38926e-19
8237.61017 7.40593e-19
8238.47163 7.42260e-19
8239.33309 7.45978e-19
8240.19456 7.49701e-19
8241.06604 7.58531e-19
8241.92750 7.67373e-19
8242.78896 7.79525e-19
8243.65042 7.91683e-19
8244.51188 8.01636e-19
8245.37335 8.11589e-19
8246.23481 8.16637e-19
8247.09627 8.21672e-19
8247.95773 8.22116e-19
8248.81919 8.22547e-19
8249.68066 8.19491e-19
8250.54212 8.16430e-19
8251.41360 8.12328e-19
8252.27506 8.08220e-19
8253.13652 8.05360e-19
8253.99798 8.02505e-19
8254.85945 8.02274e-19
8255.72091 8.02056e-19
8256.58237 8.05241e-19
8257.44383 8.08439e-19
8258.30529 8.14497e-19
8259.16676 8.20561e-19
8260.02822 8.28327e-19
8260.89970 8.36100e-19
8261.76116 8.43423e-19
8262.62262 8.50752e-19
8263.48408 8.55521e-19
8264.34554 8.60285e-19
8265.20701 8.60598e-19
8266.06847 8.60900e-19
8266.92993 8.55504e-19
8267.79139 8.50095e-19
8268.65285 8.41862e-19
8269.52433 8.33617e-19
8270.38580 8.26531e-19
8271.24726 8.19450e-19
8272.10872 8.16187e-19
8272.97018 8.12937e-19
8273.83164 8.15573e-19
8274.69311 8.18221e-19
8275.55457 8.24687e-19
8276.41603 8.31153e-19
8277.27749 8.36779e-19
8278.13895 8.42400e-19
8279.01043 8.45284e-19
8279.87189 8.48163e-19
8280.73336 8.48754e-19
8281.59482 8.49339e-19
8282.45628 8.49049e-19
8283.31774 8.48754e-19
8284.17920 8.50527e-19
8285.04067 8.52306e-19
8285.90213 8.57265e-19
8286.76359 8.62230e-19
8287.62505 8.67709e-19
8288.48651 8.73187e-19
8289.34798 8.77768e-19
8290.21946 8.82343e-19
8291.08092 8.88153e-19
8291.94238 8.93963e-19
8292.80384 9.02219e-19
8293.66530 9.10476e-19
8294.52677 9.19029e-19
8295.38823 9.27575e-19
8296.24969 9.34419e-19
8297.11115 9.41264e-19
8297.97261 9.45117e-19
8298.83408 9.48965e-19
8299.70555 9.49065e-19
8300.56702 9.49154e-19
8301.42848 9.50035e-19
8302.28994 9.50915e-19
8303.15140 9.57943e-19
8304.01286 9.64982e-19
8304.87433 9.76094e-19
8305.73579 9.87205e-19
8306.59725 9.97927e-19
8307.45871 1.00865e-18
8308.32017 1.01627e-18
8309.18164 1.02389e-18
8310.05312 1.02643e-18
8310.91458 1.02896e-18
8311.77604 1.02853e-18
8312.63750 1.02809e-18
8313.49896 1.02983e-18
8314.36043 1.03156e-18
8315.22189 1.03832e-18
8316.08335 1.04511e-18
8316.94481 1.05749e-18
8317.80627 1.06989e-18
8318.67775 1.08643e-18
8319.53921 1.10298e-18
8320.40068 1.11907e-18
8321.26214 1.13515e-18
8322.12360 1.14750e-18
8322.98506 1.15984e-18
8323.84652 1.16840e-18
8324.70799 1.17695e-18
8325.56945 1.18215e-18
8326.43091 1.18735e-18
8327.29237 1.19048e-18
8328.16385 1.19360e-18
8329.02531 1.19626e-18
8329.88678 1.19890e-18
8330.74824 1.20199e-18
8331.60970 1.20508e-18
8332.47116 1.20951e-18
8333.33262 1.21394e-18
8334.19408 1.22193e-18
8335.05555 1.22993e-18
8335.91701 1.24334e-18
8336.77847 1.25676e-18
8337.64995 1.27413e-18
8338.51141 1.29151e-18
8339.37287 1.31038e-18
8340.23434 1.32925e-18
8341.09580 1.34620e-18
8341.95726 1.36316e-18
8342.81872 1.37452e-18
8343.68018 1.38587e-18
8344.54165 1.39173e-18
8345.40311 1.39757e-18
8346.26457 1.40050e-18
8347.12603 1.40341e-18
8347.99751 1.40550e-18
8348.85897 1.40760e-18
8349.72043 1.41043e-18
8350.58190 1.41326e-18
8351.44336 1.41866e-18
8352.30482 1.42406e-18
8353.16628 1.43394e-18
8354.02775 1.44384e-18
8354.88921 1.45844e-18
8355.75067 1.47305e-18
8356.62215 1.48998e-18
8357.48361 1.50691e-18
8358.34507 1.52379e-18
8359.20653 1.54067e-18
8360.06800 1.55544e-18
8360.92946 1.57019e-18
8361.79092 1.58159e-18
8362.65238 1.59298e-18
8363.51384 1.60316e-18
8364.37531 1.61334e-18
8365.23677 1.62441e-18
8366.10825 1.63550e-18
8366.96971 1.64609e-18
8367.83117 1.65668e-18
8368.69263 1.66533e-18
8369.55410 1.67398e-18
8370.41556 1.68211e-18
8371.27702 1.69023e-18
8372.13848 1.69977e-18
8372.99994 1.70931e-18
8373.86140 1.72132e-18
8374.72287 1.73334e-18
8375.59435 1.74851e-18
8376.45581 1.76369e-18
8377.31727 1.78187e-18
8378.17873 1.80005e-18
8379.04019 1.82054e-18
8379.90166 1.84104e-18
8380.76312 1.86273e-18
8381.62458 1.88441e-18
8382.48604 1.90597e-18
8383.34750 1.92752e-18
8384.20897 1.94786e-18
8385.07043 1.96819e-18
8385.94191 1.98630e-18
8386.80337 2.00441e-18
8387.66483 2.02089e-18
8388.52629 2.03737e-18
8389.38775 2.05544e-18
8390.24922 2.07350e-18
8391.11068 2.09404e-18
8391.97214 2.11458e-18
8392.83360 2.13347e-18
8393.69507 2.15235e-18
8394.55653 2.16662e-18
8395.41799 2.18088e-18
8396.28947 2.19045e-18
8397.15093 2.20002e-18
8398.01239 2.20609e-18
8398.87385 2.21216e-18
8399.73532 2.22145e-18
8400.59678 2.23075e-18
8401.45824 2.24938e-18
8402.31970 2.26803e-18
8403.18116 2.29402e-18
8404.04263 2.32003e-18
8404.90409 2.34964e-18
8405.77557 2.37925e-18
8406.63703 2.40833e-18
8407.49849 2.43740e-18
8408.35995 2.46167e-18
8409.22142 2.48592e-18
8410.08288 2.50538e-18
8410.94434 2.52484e-18
8411.80580 2.54170e-18
8412.66726 2.55855e-18
8413.52873 2.57431e-18
8414.39019 2.59006e-18
8415.26167 2.60593e-18
8416.12313 2.62181e-18
8416.98459 2.63911e-18
8417.84605 2.65641e-18
8418.70751 2.67619e-18
8419.56898 2.69597e-18
8420.43044 2.71865e-18
8421.29190 2.74133e-18
8422.15336 2.76681e-18
8423.01482 2.79231e-18
8423.87629 2.81923e-18
8424.74777 2.84617e-18
8425.60923 2.87083e-18
8426.47069 2.89549e-18
8427.33215 2.91636e-18
8428.19361 2.93722e-18
8429.05508 2.95851e-18
8429.91654 2.97980e-18
8430.77800 3.00494e-18
8431.63946 3.03008e-18
8432.50092 3.05943e-18
8433.36239 3.08879e-18
8434.23386 3.12181e-18
8435.09533 3.15483e-18
8435.95679 3.18603e-18
8436.81825 3.21724e-18
8437.67971 3.24122e-18
8438.54117 3.26519e-18
8439.40264 3.28512e-18
8440.26410 3.30503e-18
8441.12556 3.32602e-18
8441.98702 3.34701e-18
8442.84848 3.37058e-18
8443.70995 3.39416e-18
8444.58143 3.42067e-18
8445.44289 3.44717e-18
8446.30435 3.47689e-18
8447.16581 3.50662e-18
8448.02727 3.53946e-18
8448.88874 3.57230e-18
8449.75020 3.60726e-18
8450.61166 3.64221e-18
8451.47312 3.67779e-18
8452.33458 3.71336e-18
8453.20606 3.74785e-18
8454.06752 3.78233e-18
8454.92899 3.81367e-18
8455.79045 3.84499e-18
8456.65191 3.87362e-18
8457.51337 3.90225e-18
8458.37483 3.93262e-18
8459.23630 3.96299e-18
8460.09776 3.99697e-18
8460.95922 4.03096e-18
8461.82068 4.06474e-18
8462.69216 4.09851e-18
8463.55362 4.12938e-18
8464.41508 4.16025e-18
8465.27655 4.18842e-18
8466.13801 4.21659e-18
8466.99947 4.24319e-18
8467.86093 4.26979e-18
8468.72240 4.30047e-18
8469.58386 4.33115e-18
8470.44532 4.37091e-18
8471.30678 4.41068e-18
8472.16824 4.45641e-18
8473.03972 4.50217e-18
8473.90118 4.54940e-18
8474.76265 4.59663e-18
8475.62411 4.64195e-18
8476.48557 4.68726e-18
8477.34703 4.72740e-18
8478.20849 4.76753e-18
8479.06996 4.80635e-18
8479.93142 4.84517e-18
8480.79288 4.88975e-18
8481.65434 4.93434e-18
8482.51580 4.98308e-18
8483.38728 5.03183e-18
8484.24875 5.07817e-18
8485.11021 5.12449e-18
8485.97167 5.16549e-18
8486.83313 5.20647e-18
8487.69459 5.24204e-18
8488.55605 5.27761e-18
8489.41752 5.30964e-18
8490.27898 5.34167e-18
8491.14044 5.37490e-18
8492.00190 5.40815e-18
8492.87338 5.44567e-18
8493.73484 5.48321e-18
8494.59631 5.52418e-18
8495.45777 5.56516e-18
8496.31923 5.61004e-18
8497.18069 5.65493e-18
8498.04215 5.70872e-18
8498.90362 5.76253e-18
8499.76508 5.82713e-18
8500.62654 5.89175e-18
8501.48800 5.95853e-18
8502.35948 6.02532e-18
8503.22094 6.08584e-18
8504.08240 6.14636e-18
8504.94387 6.19891e-18
8505.80533 6.25139e-18
8506.66679 6.29560e-18
8507.52825 6.33975e-18
8508.38972 6.37870e-18
8509.25118 6.41765e-18
8510.11264 6.45554e-18
8510.98412 6.49348e-18
8511.84558 6.53196e-18
8512.70704 6.57043e-18
8513.56850 6.61033e-18
8514.42997 6.65017e-18
8515.29143 6.69130e-18
8516.15289 6.73244e-18
8517.01435 6.77434e-18
8517.87581 6.81625e-18
8518.73728 6.85892e-18
8519.59874 6.90154e-18
8520.46020 6.94510e-18
8521.33168 6.98860e-18
8522.19314 7.03493e-18
8523.05460 7.08121e-18
8523.91607 7.13388e-18
8524.77753 7.18660e-18
8525.63899 7.24682e-18
8526.50045 7.30705e-18
8527.36191 7.37266e-18
8528.22337 7.43820e-18
8529.08484 7.50570e-18
8529.94630 7.57320e-18
8530.80776 7.63697e-18
8531.67924 7.70074e-18
8532.54070 7.75624e-18
8533.40216 7.81168e-18
8534.26363 7.85713e-18
8535.12509 7.90258e-18
8535.98655 7.93846e-18
8536.84801 7.97440e-18
8537.70947 8.00767e-18
8538.57094 8.04095e-18
8539.43240 8.07895e-18
8540.30388 8.11701e-18
8541.16534 8.16465e-18
8542.02680 8.21229e-18
8542.88826 8.27246e-18
8543.74972 8.33269e-18
8544.61119 8.40142e-18
8545.47265 8.47016e-18
8546.33411 8.54115e-18
8547.19557 8.61207e-18
8548.05703 8.67437e-18
8548.91850 8.73660e-18
8549.78998 8.77815e-18
8550.65144 8.81970e-18
8551.51290 8.84163e-18
8552.37436 8.86350e-18
8553.23582 8.87485e-18
8554.09729 8.88620e-18
8554.95875 8.89926e-18
8555.82021 8.91238e-18
8556.68167 8.94169e-18
8557.54313 8.97107e-18
8558.40460 9.02326e-18
8559.27607 9.07545e-18
8560.13754 9.14643e-18
8560.99900 9.21742e-18
8561.86046 9.29945e-18
8562.72192 9.38149e-18
8563.58338 9.46187e-18
8564.44485 9.54231e-18
8565.30631 9.60945e-18
8566.16777 9.67654e-18
8567.02923 9.72270e-18
8567.89070 9.76880e-18
8568.75216 9.79031e-18
8569.62364 9.81183e-18
8570.48510 9.81478e-18
8571.34656 9.81774e-18
8572.20802 9.81094e-18
8573.06948 9.80408e-18
8573.93095 9.79717e-18
8574.79241 9.79025e-18
8575.65387 9.79256e-18
8576.51533 9.79492e-18
8577.37679 9.81626e-18
8578.23826 9.83766e-18
8579.09972 9.88541e-18
8579.97120 9.93323e-18
8580.83266 9.99812e-18
8581.69412 1.00631e-17
8582.55558 1.01297e-17
8583.41705 1.01963e-17
8584.27851 1.02522e-17
8585.13997 1.03081e-17
8586.00143 1.03431e-17
8586.86289 1.03780e-17
8587.72436 1.03908e-17
8588.58582 1.04035e-17
8589.45730 1.03996e-17
8590.31876 1.03955e-17
8591.18022 1.03837e-17
8592.04168 1.03719e-17
8592.90314 1.03640e-17
8593.76461 1.03561e-17
8594.62607 1.03587e-17
8595.48753 1.03612e-17
8596.34899 1.03717e-17
8597.21045 1.03821e-17
8598.07192 1.03987e-17
8598.94340 1.04155e-17
8599.80486 1.04400e-17
8600.66632 1.04647e-17
8601.52778 1.04965e-17
8602.38924 1.05283e-17
8603.25071 1.05622e-17
8604.11217 1.05962e-17
8604.97363 1.06267e-17
8605.83509 1.06573e-17
8606.69655 1.06769e-17
8607.56803 1.06965e-17
8608.42949 1.06992e-17
8609.29096 1.07019e-17
8610.15242 1.06893e-17
8611.01388 1.06767e-17
8611.87534 1.06532e-17
8612.73680 1.06296e-17
8613.59827 1.05999e-17
8614.45973 1.05702e-17
8615.32119 1.05395e-17
8616.18265 1.05087e-17
8617.04411 1.04866e-17
8617.91559 1.04644e-17
8618.77706 1.04613e-17
8619.63852 1.04582e-17
8620.49998 1.04749e-17
8621.36144 1.04915e-17
8622.22290 1.05220e-17
8623.08437 1.05527e-17
8623.94583 1.05891e-17
8624.80729 1.06256e-17
8625.66875 1.06575e-17
8626.53021 1.06895e-17
8627.40169 1.07109e-17
8628.26315 1.07321e-17
8629.12462 1.07427e-17
8629.98608 1.07532e-17
8630.84754 1.07526e-17
8631.70900 1.07521e-17
8632.57046 1.07391e-17
8633.43193 1.07261e-17
8634.29339 1.07023e-17
8635.15485 1.06786e-17
8636.01631 1.06517e-17
8636.88779 1.06247e-17
8637.74925 1.06022e-17
8638.61072 1.05798e-17
8639.47218 1.05708e-17
8640.33364 1.05619e-17
8641.19510 1.05726e-17
8642.05656 1.05833e-17
8642.91803 1.06084e-17
8643.77949 1.06337e-17
8644.64095 1.06654e-17
8645.50241 1.06971e-17
8646.37389 1.07272e-17
8647.23535 1.07573e-17
8648.09681 1.07775e-17
8648.95828 1.07977e-17
8649.81974 1.08050e-17
8650.68120 1.08122e-17
8651.54266 1.08067e-17
8652.40412 1.08011e-17
8653.26559 1.07818e-17
8654.12705 1.07625e-17
8654.98851 1.07289e-17
8655.85999 1.06954e-17
8656.72145 1.06534e-17
8657.58291 1.06113e-17
8658.44438 1.05710e-17
8659.30584 1.05306e-17
8660.16730 1.04988e-17
8661.02876 1.04671e-17
8661.89022 1.04469e-17
8662.75168 1.04269e-17
8663.61315 1.04200e-17
8664.47461 1.04132e-17
8665.33607 1.04192e-17
8666.20755 1.04252e-17
8667.06901 1.04411e-17
8667.93047 1.04571e-17
8668.79194 1.04781e-17
8669.65340 1.04991e-17
8670.51486 1.05184e-17
8671.37632 1.05377e-17
8672.23778 1.05437e-17
8673.09925 1.05496e-17
8673.96071 1.05336e-17
8674.82217 1.05176e-17
8675.68363 1.04823e-17
8676.55511 1.04470e-17
8677.41657 1.03980e-17
8678.27803 1.03490e-17
8679.13950 1.02959e-17
8680.00096 1.02429e-17
8680.86242 1.01962e-17
8681.72388 1.01497e-17
8682.58535 1.01137e-17
8683.44681 1.00777e-17
8684.30827 1.00539e-17
8685.16973 1.00300e-17
8686.04121 1.00196e-17
8686.90267 1.00094e-17
8687.76413 1.00127e-17
8688.62560 1.00161e-17
8689.48706 1.00306e-17
8690.34852 1.00451e-17
8691.20998 1.00664e-17
8692.07144 1.00877e-17
8692.93291 1.01086e-17
8693.79437 1.01295e-17
8694.66585 1.01408e-17
8695.52731 1.01521e-17
8696.38877 1.01482e-17
8697.25023 1.01442e-17
8698.11170 1.01241e-17
8698.97316 1.01040e-17
8699.83462 1.00699e-17
8700.69608 1.00358e-17
8701.55754 9.99505e-18
8702.41900 9.95433e-18
8703.28047 9.91325e-18
8704.15195 9.87211e-18
8705.01341 9.83080e-18
8705.87487 9.78954e-18
8706.73633 9.74977e-18
8707.59779 9.71005e-18
8708.45926 9.68014e-18
8709.32072 9.65029e-18
8710.18218 9.63676e-18
8711.04364 9.62323e-18
8711.90510 9.62630e-18
8712.76657 9.62949e-18
8713.62803 9.64687e-18
8714.49951 9.66424e-18
8715.36097 9.68322e-18
8716.22243 9.70219e-18
8717.08389 9.70834e-18
8717.94535 9.71448e-18
8718.80682 9.70195e-18
8719.66828 9.68930e-18
8720.52974 9.65591e-18
8721.39120 9.62246e-18
8722.25267 9.57636e-18
8723.11413 9.53025e-18
8723.98561 9.48581e-18
8724.84707 9.44130e-18
8725.70853 9.40377e-18
8726.56999 9.36618e-18
8727.43145 9.33403e-18
8728.29292 9.30193e-18
8729.15438 9.27534e-18
8730.01584 9.24874e-18
8730.87730 9.22841e-18
8731.73876 9.20802e-18
8732.61024 9.19584e-18
8733.47170 9.18361e-18
8734.33317 9.18520e-18
8735.19463 9.18686e-18
8736.05609 9.20057e-18
8736.91755 9.21428e-18
8737.77902 9.22392e-18
8738.64048 9.23355e-18
8739.50194 9.22539e-18
8740.36340 9.21724e-18
8741.22486 9.18379e-18
8742.08633 9.15027e-18
8742.95780 9.08957e-18
8743.81927 9.02881e-18
8744.68073 8.95836e-18
8745.54219 8.88785e-18
8746.40365 8.82668e-18
8747.26511 8.76551e-18
8748.12658 8.72248e-18
8748.98804 8.67957e-18
8749.84950 8.66006e-18
8750.71096 8.64062e-18
8751.57242 8.63914e-18
8752.44390 8.63772e-18
8753.30537 8.64375e-18
8754.16683 8.64984e-18
8755.02829 8.65764e-18
8755.88975 8.66544e-18
8756.75121 8.67123e-18
8757.61268 8.67703e-18
8758.47414 8.67236e-18
8759.33560 8.66763e-18
8760.19706 8.64221e-18
8761.05852 8.61674e-18
8761.91999 8.56892e-18
8762.79146 8.52105e-18
8763.65293 8.45633e-18
8764.51439 8.39155e-18
8765.37585 8.31891e-18
8766.23731 8.24633e-18
8767.09877 8.17872e-18
8767.96024 8.11122e-18
8768.82170 8.05696e-18
8769.68316 8.00282e-18
8770.54462 7.96092e-18
8771.40608 7.91907e-18
8772.26755 7.88769e-18
8773.13903 7.85636e-18
8774.00049 7.83408e-18
8774.86195 7.81174e-18
8775.72341 7.79555e-18
8776.58487 7.77929e-18
8777.44633 7.76653e-18
8778.30780 7.75382e-18
8779.16926 7.74082e-18
8780.03072 7.72781e-18
8780.89218 7.70328e-18
8781.76366 7.67870e-18
8782.62512 7.63248e-18
8783.48659 7.58614e-18
8784.34805 7.52308e-18
8785.20951 7.46001e-18
8786.07097 7.38915e-18
8786.93243 7.31828e-18
8787.79390 7.24641e-18
8788.65536 7.17454e-18
8789.51682 7.10828e-18
8790.37828 7.04203e-18
8791.24976 6.98121e-18
8792.11122 6.92039e-18
8792.97268 6.86028e-18
8793.83415 6.80011e-18
8794.69561 6.74373e-18
8795.55707 6.68740e-18
8796.41853 6.64343e-18
8797.28000 6.59957e-18
8798.14146 6.56630e-18
8799.00292 6.53308e-18
8799.86438 6.49892e-18
8800.72584 6.46476e-18
8801.59732 6.42025e-18
8802.45878 6.37575e-18
8803.32025 6.31451e-18
8804.18171 6.25328e-18
8805.04317 6.17450e-18
8805.90463 6.09571e-18
8806.76609 6.01072e-18
8807.62756 5.92567e-18
8808.48902 5.84480e-18
8809.35048 5.76396e-18
8810.21194 5.69223e-18
8811.08342 5.62052e-18
8811.94488 5.56125e-18
8812.80635 5.50201e-18
8813.66781 5.45390e-18
8814.52927 5.40583e-18
8815.39073 5.36573e-18
8816.25219 5.32564e-18
8817.11365 5.28962e-18
8817.97512 5.25361e-18
8818.83658 5.21726e-18
8819.70806 5.18093e-18
8820.56952 5.13895e-18
8821.43098 5.09696e-18
8822.29244 5.04471e-18
8823.15391 4.99245e-18
8824.01537 4.92937e-18
8824.87683 4.86626e-18
8825.73829 4.79401e-18
8826.59975 4.72173e-18
8827.46122 4.64695e-18
8828.32268 4.57218e-18
8829.19416 4.50447e-18
8830.05562 4.43679e-18
8830.91708 4.38104e-18
8831.77854 4.32533e-18
8832.64000 4.28189e-18
8833.50147 4.23849e-18
8834.36293 4.20579e-18
8835.22439 4.17313e-18
8836.08585 4.14737e-18
8836.94732 4.12162e-18
8837.80878 4.09830e-18
8838.67024 4.07499e-18
8839.54172 4.04951e-18
8840.40318 4.02403e-18
8841.26464 3.99300e-18
8842.12610 3.96197e-18
8842.98757 3.92495e-18
8843.84903 3.88791e-18
8844.71049 3.84561e-18
8845.57195 3.80330e-18
8846.43341 3.75819e-18
8847.29488 3.71308e-18
8848.15634 3.66834e-18
8849.02782 3.62359e-18
8849.88928 3.58092e-18
8850.75074 3.53825e-18
8851.61220 3.49925e-18
8852.47367 3.46026e-18
8853.33513 3.43323e-18
8854.19659 3.40622e-18
8855.05805 3.39939e-18
8855.91951 3.39262e-18
8856.78097 3.39945e-18
8857.64244 3.40633e-18
8858.50390 3.41528e-18
8859.36536 3.42422e-18
8860.23684 3.42575e-18
8861.09830 3.42725e-18
8861.95976 3.41274e-18
8862.82123 3.39818e-18
8863.68269 3.37088e-18
8864.54415 3.34354e-18
8865.40561 3.31599e-18
8866.26707 3.28845e-18
8867.12854 3.26651e-18
8867.99000 3.24459e-18
8868.86148 3.22678e-18
8869.72294 3.20898e-18
8870.58440 3.19466e-18
8871.44586 3.18034e-18
8872.30732 3.16895e-18
8873.16879 3.15758e-18
8874.03025 3.14974e-18
8874.89171 3.14192e-18
8875.75317 3.14247e-18
8876.61463 3.14305e-18
8877.47610 3.15395e-18
8878.34758 3.16487e-18
8879.20904 3.18008e-18
8880.07050 3.19530e-18
8880.93196 3.20850e-18
8881.79342 3.22170e-18
8882.65489 3.22702e-18
8883.51635 3.23233e-18
8884.37781 3.22549e-18
8885.23927 3.21863e-18
8886.10073 3.20359e-18
8886.96220 3.18853e-18
8887.83367 3.17147e-18
8888.69514 3.15441e-18
8889.55660 3.14105e-18
8890.41806 3.12770e-18
8891.27952 3.12322e-18
8892.14099 3.11878e-18
8893.00245 3.12612e-18
8893.86391 3.13350e-18
8894.72537 3.15382e-18
8895.58683 3.17417e-18
8896.44830 3.20268e-18
8897.30976 3.23121e-18
8898.18124 3.25976e-18
8899.04270 3.28830e-18
8899.90416 3.30991e-18
8900.76562 3.33148e-18
8901.62708 3.34033e-18
8902.48855 3.34913e-18
8903.35001 3.34611e-18
8904.21147 3.34306e-18
8905.07293 3.33784e-18
8905.93439 3.33262e-18
8906.80587 3.33155e-18
8907.66734 3.33049e-18
8908.52880 3.33293e-18
8909.39026 3.33538e-18
8910.25172 3.34135e-18
8911.11318 3.34732e-18
8911.97465 3.35800e-18
8912.83611 3.36869e-18
8913.69757 3.38456e-18
8914.55903 3.40045e-18
8915.42049 3.42264e-18
8916.29197 3.44485e-18
8917.15343 3.47309e-18
8918.01490 3.50135e-18
8918.87636 3.52838e-18
8919.73782 3.55541e-18
8920.59928 3.57396e-18
8921.46074 3.59248e-18
8922.32221 3.60048e-18
8923.18367 3.60845e-18
8924.04513 3.60569e-18
8924.90659 3.60289e-18
8925.76805 3.59793e-18
8926.63953 3.59296e-18
8927.50100 3.59748e-18
8928.36246 3.60203e-18
8929.22392 3.61650e-18
8930.08538 3.63099e-18
8930.94684 3.65011e-18
8931.80831 3.66925e-18
8932.66977 3.68919e-18
8933.53123 3.70914e-18
8934.39269 3.72620e-18
8935.25415 3.74325e-18
8936.12563 3.75918e-18
8936.98709 3.77510e-18
8937.84856 3.79825e-18
8938.71002 3.82142e-18
8939.57148 3.85216e-18
8940.43294 3.88293e-18
8941.29440 3.90994e-18
8942.15587 3.93694e-18
8943.01733 3.95190e-18
8943.87879 3.96682e-18
8944.74025 3.96600e-18
8945.61173 3.96513e-18
8946.47319 3.94987e-18
8947.33466 3.93457e-18
8948.19612 3.92237e-18
8949.05758 3.91017e-18
8949.91904 3.91521e-18
8950.78050 3.92031e-18
8951.64197 3.93820e-18
8952.50343 3.95612e-18
8953.36489 3.97971e-18
8954.22635 4.00332e-18
8955.08781 4.01400e-18
8955.95929 4.02465e-18
8956.82075 4.00414e-18
8957.68222 3.98356e-18
8958.54368 3.95461e-18
8959.40514 3.92564e-18
8960.26660 3.92178e-18
8961.12806 3.91799e-18
8961.98953 3.94401e-18
8962.85099 3.97011e-18
8963.71245 4.01966e-18
8964.57391 4.06927e-18
8965.44539 4.12629e-18
8966.30685 4.18332e-18
8967.16832 4.22351e-18
8968.02978 4.26366e-18
8968.89124 4.28968e-18
8969.75270 4.31566e-18
8970.61416 4.35408e-18
8971.47563 4.39253e-18
8972.33709 4.45255e-18
8973.19855 4.51263e-18
8974.06001 4.58288e-18
8974.93149 4.65314e-18
8975.79295 4.71713e-18
8976.65441 4.78110e-18
8977.51588 4.81364e-18
8978.37734 4.84609e-18
8979.23880 4.82756e-18
8980.10026 4.80888e-18
8980.96172 4.72664e-18
8981.82319 4.64423e-18
8982.68465 4.50639e-18
8983.54611 4.36841e-18
8984.41759 4.24911e-18
8985.27905 4.12987e-18
8986.14051 4.09751e-18
8987.00198 4.06538e-18
8987.86344 4.14341e-18
8988.72490 4.22174e-18
8989.58636 4.41368e-18
8990.44782 4.60593e-18
8991.30928 4.82019e-18
8992.17075 5.03450e-18
8993.03221 5.16079e-18
8993.89367 5.28683e-18
8994.76515 5.30861e-18
8995.62661 5.33012e-18
8996.48807 5.26755e-18
8997.34954 5.20476e-18
8998.21100 5.10717e-18
8999.07246 5.00949e-18
8999.93392 4.94420e-18
9000.79538 4.87898e-18
9001.65685 4.87531e-18
9002.51831 4.87181e-18
9003.38979 4.92796e-18
9004.25125 4.98426e-18
9005.11271 5.08065e-18
9005.97417 5.17715e-18
9006.83563 5.27540e-18
9007.69710 5.37366e-18
9008.55856 5.44386e-18
9009.42002 5.51398e-18
9010.28148 5.54224e-18
9011.14295 5.57039e-18
9012.00441 5.55734e-18
9012.87589 5.54418e-18
9013.73735 5.52279e-18
9014.59881 5.50138e-18
9015.46027 5.49612e-18
9016.32173 5.49089e-18
9017.18320 5.48681e-18
9018.04466 5.48273e-18
9018.90612 5.46870e-18
9019.76758 5.45465e-18
9020.62904 5.44355e-18
9021.49051 5.43244e-18
9022.35197 5.43760e-18
9023.22345 5.44280e-18
9024.08491 5.48103e-18
9024.94637 5.51934e-18
9025.80783 5.60404e-18
9026.66930 5.68887e-18
9027.53076 5.79969e-18
9028.39222 5.91060e-18
9029.25368 6.01675e-18
9030.11514 6.12284e-18
9030.97660 6.20293e-18
9031.83807 6.28289e-18
9032.70955 6.32102e-18
9033.57101 6.35902e-18
9034.43247 6.35376e-18
9035.29393 6.34838e-18
9036.15539 6.30783e-18
9037.01686 6.26717e-18
9037.87832 6.21215e-18
9038.73978 6.15706e-18
9039.60124 6.11953e-18
9040.46270 6.08212e-18
9041.32417 6.07065e-18
9042.18563 6.05924e-18
9043.05711 6.05044e-18
9043.91857 6.04157e-18
9044.78003 6.02307e-18
9045.64149 6.00451e-18
9046.50295 5.98371e-18
9047.36442 5.96290e-18
9048.22588 5.94624e-18
9049.08734 5.92957e-18
9049.94880 5.92732e-18
9050.81027 5.92502e-18
9051.67173 5.93991e-18
9052.54321 5.95486e-18
9053.40467 5.95646e-18
9054.26613 5.95794e-18
9055.12759 5.91952e-18
9055.98905 5.88101e-18
9056.85052 5.81683e-18
9057.71198 5.75258e-18
9058.57344 5.68197e-18
9059.43490 5.61135e-18
9060.29636 5.53670e-18
9061.16784 5.46205e-18
9062.02931 5.38433e-18
9062.89077 5.30660e-18
9063.75223 5.22298e-18
9064.61369 5.13935e-18
9065.47515 5.04359e-18
9066.33662 4.94780e-18
9067.19808 4.86430e-18
9068.05954 4.78083e-18
9068.92100 4.75007e-18
9069.78246 4.71945e-18
9070.64393 4.73247e-18
9071.51540 4.74561e-18
9072.37687 4.75709e-18
9073.23833 4.76857e-18
9074.09979 4.76178e-18
9074.96125 4.75495e-18
9075.82271 4.74255e-18
9076.68418 4.73013e-18
9077.54564 4.72004e-18
9078.40710 4.70996e-18
9079.26856 4.70675e-18
9080.13002 4.70356e-18
9080.99149 4.70705e-18
9081.86297 4.71056e-18
9082.72443 4.70504e-18
9083.58589 4.69949e-18
9084.44735 4.67617e-18
9085.30881 4.65281e-18
9086.17028 4.62902e-18
9087.03174 4.60523e-18
9087.89320 4.59429e-18
9088.75466 4.58339e-18
9089.61612 4.56829e-18
9090.48760 4.55318e-18
9091.34906 4.51760e-18
9092.21053 4.48218e-18
9093.07199 4.44296e-18
9093.93345 4.40374e-18
9094.79491 4.38148e-18
9095.65637 4.35926e-18
9096.51784 4.34812e-18
9097.37930 4.33701e-18
9098.24076 4.32469e-18
9099.10222 4.31237e-18
9099.97370 4.30207e-18
9100.83516 4.29177e-18
9101.69663 4.29006e-18
9102.55809 4.28837e-18
9103.41955 4.30784e-18
9104.28101 4.32737e-18
9105.14247 4.38605e-18
9106.00393 4.44485e-18
9106.86540 4.52136e-18
9107.72686 4.59793e-18
9108.58832 4.63743e-18
9109.45980 4.67682e-18
9110.32126 4.65592e-18
9111.18272 4.63486e-18
9112.04419 4.56717e-18
9112.90565 4.49935e-18
9113.76711 4.41284e-18
9114.62857 4.32629e-18
9115.49003 4.27837e-18
9116.35150 4.23055e-18
9117.21296 4.25113e-18
9118.07442 4.27189e-18
9118.93588 4.31667e-18
9119.80736 4.36153e-18
9120.66882 4.38728e-18
9121.53028 4.41298e-18
9122.39175 4.39200e-18
9123.25321 4.37090e-18
9124.11467 4.28656e-18
9124.97613 4.20205e-18
9125.83760 4.09336e-18
9126.69906 3.98461e-18
9127.56052 3.89904e-18
9128.43200 3.81354e-18
9129.29346 3.77563e-18
9130.15492 3.73785e-18
9131.01638 3.76339e-18
9131.87785 3.78910e-18
9132.73931 3.86745e-18
9133.60077 3.94594e-18
9134.46223 4.05300e-18
9135.32369 4.16013e-18
9136.18516 4.27083e-18
9137.04662 4.38155e-18
9137.90808 4.47002e-18
9138.76954 4.55843e-18
9139.64102 4.60802e-18
9140.50248 4.65750e-18
9141.36395 4.66259e-18
9142.22541 4.66756e-18
9143.08687 4.61972e-18
9143.94833 4.57173e-18
9144.80979 4.45883e-18
9145.67125 4.34575e-18
9146.53272 4.18241e-18
9147.39418 4.01894e-18
9148.26566 3.85451e-18
9149.12712 3.69009e-18
9149.98858 3.56933e-18
9150.85004 3.44869e-18
9151.71151 3.40782e-18
9152.57297 3.36718e-18
9153.43443 3.42032e-18
9154.29589 3.47372e-18
9155.15735 3.57444e-18
9156.01882 3.67528e-18
9156.88028 3.77448e-18
9157.75176 3.87367e-18
9158.61322 3.94841e-18
9159.47468 4.02309e-18
9160.33614 4.05565e-18
9161.19760 4.08808e-18
9162.05907 4.07964e-18
9162.92053 4.07107e-18
9163.78199 4.03125e-18
9164.64345 3.99135e-18
9165.50492 3.91883e-18
9166.36638 3.84622e-18
9167.22784 3.73927e-18
9168.09932 3.63224e-18
9168.96078 3.51741e-18
9169.82224 3.40257e-18
9170.68370 3.31577e-18
9171.54517 3.22906e-18
9172.40663 3.18825e-18
9173.26809 3.14756e-18
9174.12955 3.16055e-18
9174.99101 3.17368e-18
9175.85248 3.21839e-18
9176.71394 3.26318e-18
9177.58542 3.28943e-18
9178.44688 3.31563e-18
9179.30834 3.30884e-18
9180.16980 3.30195e-18
9181.03127 3.29503e-18
9181.89273 3.28811e-18
9182.75419 3.29919e-18
9183.61565 3.31032e-18
9184.47711 3.33293e-18
9185.33857 3.35558e-18
9186.20004 3.38192e-18
9187.07152 3.40828e-18
9187.93298 3.41947e-18
9188.79444 3.43061e-18
9189.65590 3.41615e-18
9190.51736 3.40161e-18
9191.37883 3.39071e-18
9192.24029 3.37981e-18
9193.10175 3.39846e-18
9193.96321 3.41719e-18
9194.82467 3.45384e-18
9195.68614 3.49053e-18
9196.55762 3.52869e-18
9197.41908 3.56684e-18
9198.28054 3.59158e-18
9199.14200 3.61628e-18
9200.00346 3.61329e-18
9200.86492 3.61022e-18
9201.72639 3.59005e-18
9202.58785 3.56982e-18
9203.44931 3.55324e-18
9204.31077 3.53666e-18
9205.17224 3.52427e-18
9206.04371 3.51188e-18
9206.90518 3.49456e-18
9207.76664 3.47722e-18
9208.62810 3.45786e-18
9209.48956 3.43850e-18
9210.35102 3.42687e-18
9211.21249 3.41525e-18
9212.07395 3.42114e-18
9212.93541 3.42708e-18
9213.79687 3.46171e-18
9214.65833 3.49643e-18
9215.52981 3.55756e-18
9216.39127 3.61878e-18
9217.25274 3.68319e-18
9218.11420 3.74761e-18
9218.97566 3.80021e-18
9219.83712 3.85277e-18
9220.69859 3.89837e-18
9221.56005 3.94395e-18
9222.42151 3.98526e-18
9223.28297 4.02656e-18
9224.14443 4.05897e-18
9225.00590 4.09137e-18
9225.87737 4.11168e-18
9226.73884 4.13196e-18
9227.60030 4.13678e-18
9228.46176 4.14157e-18
9229.32322 4.12962e-18
9230.18468 4.11763e-18
9231.04615 4.10253e-18
9231.90761 4.08741e-18
9232.76907 4.08489e-18
9233.63053 4.08239e-18
9234.49199 4.08898e-18
9235.35346 4.09558e-18
9236.22494 4.10243e-18
9237.08640 4.10928e-18
9237.94786 4.12043e-18
9238.80932 4.13159e-18
9239.67078 4.15536e-18
9240.53225 4.17915e-18
9241.39371 4.21952e-18
9242.25517 4.25993e-18
9243.11663 4.31853e-18
9243.97809 4.37718e-18
9244.84957 4.44890e-18
9245.71103 4.52065e-18
9246.57250 4.59386e-18
9247.43396 4.66707e-18
9248.29542 4.73510e-18
9249.15688 4.80312e-18
9250.01834 4.86735e-18
9250.87981 4.93158e-18
9251.74127 4.98878e-18
9252.60273 5.04595e-18
9253.46419 5.08239e-18
9254.32565 5.11878e-18
9255.19713 5.13223e-18
9256.05860 5.14561e-18
9256.92006 5.16272e-18
9257.78152 5.17983e-18
9258.64298 5.22064e-18
9259.50444 5.26151e-18
9260.36591 5.31997e-18
9261.22737 5.37847e-18
9262.08883 5.44379e-18
9262.95029 5.50912e-18
9263.81175 5.55773e-18
9264.68323 5.60629e-18
9265.54469 5.61561e-18
9266.40616 5.62482e-18
9267.26762 5.59549e-18
9268.12908 5.56606e-18
9268.99054 5.50738e-18
9269.85200 5.44861e-18
9270.71347 5.38242e-18
9271.57493 5.31621e-18
9272.43639 5.26856e-18
9273.29785 5.22096e-18
9274.16933 5.21239e-18
9275.03079 5.20393e-18
9275.89226 5.24950e-18
9276.75372 5.29523e-18
9277.61518 5.38726e-18
9278.47664 5.47943e-18
9279.33810 5.59259e-18
9280.19957 5.70581e-18
9281.06103 5.81273e-18
9281.92249 5.91964e-18
9282.79397 5.99393e-18
9283.65543 6.06817e-18
9284.51689 6.08885e-18
9285.37835 6.10936e-18
9286.23982 6.06397e-18
9287.10128 6.01840e-18
9287.96274 5.91243e-18
9288.82420 5.80622e-18
9289.68566 5.67325e-18
9290.54713 5.54020e-18
9291.40859 5.41930e-18
9292.27005 5.29844e-18
9293.14153 5.24106e-18
9294.00299 5.18386e-18
9294.86445 5.22360e-18
9295.72592 5.26361e-18
9296.58738 5.36585e-18
9297.44884 5.46827e-18
9298.31030 5.58711e-18
9299.17176 5.70598e-18
9300.03323 5.77881e-18
9300.89469 5.85150e-18
9301.75615 5.81829e-18
9302.62763 5.78477e-18
9303.48909 5.70317e-18
9304.35055 5.62144e-18
9305.21201 5.58575e-18
9306.07348 5.55020e-18
9306.93494 5.53845e-18
9307.79640 5.52676e-18
9308.65786 5.47053e-18
9309.51932 5.41417e-18
9310.38079 5.31664e-18
9311.24225 5.21900e-18
9312.11373 5.12053e-18
9312.97519 5.02207e-18
9313.83665 4.96226e-18
9314.69811 4.90255e-18
9315.55958 4.92639e-18
9316.42104 4.95047e-18
9317.28250 5.04920e-18
9318.14396 5.14815e-18
9319.00542 5.23523e-18
9319.86688 5.32227e-18
9320.72835 5.36373e-18
9321.58981 5.40507e-18
9322.46129 5.48067e-18
9323.32275 5.55637e-18
9324.18421 5.68356e-18
9325.04567 5.81090e-18
9325.90714 5.82659e-18
9326.76860 5.84195e-18
9327.63006 5.64558e-18
9328.49152 5.44860e-18
9329.35298 5.19804e-18
9330.21445 4.94732e-18
9331.07591 4.79540e-18
9331.94739 4.64377e-18
9332.80885 4.56103e-18
9333.67031 4.47850e-18
9334.53177 4.42079e-18
9335.39323 4.36315e-18
9336.25470 4.33147e-18
9337.11616 4.29986e-18
9337.97762 4.28663e-18
9338.83908 4.27345e-18
9339.70055 4.41326e-18
9340.56201 4.55350e-18
9341.43349 5.02864e-18
9342.29495 5.50473e-18
9343.15641 6.08170e-18
9344.01787 6.65891e-18
9344.87933 6.90816e-18
9345.74080 7.15639e-18
9346.60226 6.94977e-18
9347.46372 6.74178e-18
9348.32518 6.15239e-18
9349.18664 5.56195e-18
9350.04811 4.86086e-18
9350.90957 4.15948e-18
9351.78105 3.84657e-18
9352.64251 3.53477e-18
9353.50397 3.77403e-18
9354.36543 4.01486e-18
9355.22689 4.44468e-18
9356.08836 4.87503e-18
9356.94982 5.19138e-18
9357.81128 5.50739e-18
9358.67274 5.52891e-18
9359.53420 5.54959e-18
9360.39567 5.19788e-18
9361.26715 4.84510e-18
9362.12861 4.40502e-18
9362.99007 3.96471e-18
9363.85153 3.70515e-18
9364.71299 3.44611e-18
9365.57446 3.38255e-18
9366.43592 3.31956e-18
9367.29738 3.42609e-18
9368.15884 3.53311e-18
9369.02030 3.67616e-18
9369.89178 3.81931e-18
9370.75324 3.84590e-18
9371.61471 3.87216e-18
9372.47617 3.79166e-18
9373.33763 3.71087e-18
9374.19909 3.58045e-18
9375.06056 3.44990e-18
9375.92202 3.35697e-18
9376.78348 3.26415e-18
9377.64494 3.31547e-18
9378.50640 3.36721e-18
9379.37788 3.52230e-18
9380.23934 3.67768e-18
9381.10081 3.79906e-18
9381.96227 3.92034e-18
9382.82373 3.96421e-18
9383.68519 4.00786e-18
9384.54665 4.01375e-18
9385.40812 4.01953e-18
9386.26958 3.99839e-18
9387.13104 3.97716e-18
9387.99250 3.91045e-18
9388.85396 3.84361e-18
9389.72544 3.73030e-18
9390.58691 3.61686e-18
9391.44837 3.47404e-18
9392.30983 3.33115e-18
9393.17129 3.18225e-18
9394.03275 3.03334e-18
9394.89422 2.91995e-18
9395.75568 2.80667e-18
9396.61714 2.75693e-18
9397.47860 2.70737e-18
9398.34006 2.70041e-18
9399.21154 2.69358e-18
9400.07300 2.70319e-18
9400.93447 2.71285e-18
9401.79593 2.71382e-18
9402.65739 2.71477e-18
9403.51885 2.68505e-18
9404.38031 2.65524e-18
9405.24178 2.61962e-18
9406.10324 2.58398e-18
9406.96470 2.57725e-18
9407.82616 2.57060e-18
9408.69764 2.59315e-18
9409.55910 2.61579e-18
9410.42057 2.65551e-18
9411.28203 2.69528e-18
9412.14349 2.73339e-18
9413.00495 2.77148e-18
9413.86641 2.78567e-18
9414.72788 2.79979e-18
9415.58934 2.77521e-18
9416.45080 2.75051e-18
9417.31226 2.68256e-18
9418.17372 2.61449e-18
9419.04520 2.50793e-18
9419.90666 2.40126e-18
9420.76813 2.26320e-18
9421.62959 2.12506e-18
9422.49105 2.00491e-18
9423.35251 1.88483e-18
9424.21397 1.90052e-18
9425.07544 1.91661e-18
9425.93690 2.10599e-18
9426.79836 2.29588e-18
9427.65982 2.53533e-18
9428.53130 2.77492e-18
9429.39276 2.94524e-18
9430.25423 3.11536e-18
9431.11569 3.10622e-18
9431.97715 3.09656e-18
9432.83861 2.85206e-18
9433.70007 2.60688e-18
9434.56153 2.32089e-18
9435.42300 2.03479e-18
9436.28446 1.91010e-18
9437.14592 1.78589e-18
9438.01740 1.85445e-18
9438.87886 1.92357e-18
9439.74032 2.17225e-18
9440.60179 2.42145e-18
9441.46325 2.72395e-18
9442.32471 3.02660e-18
9443.18617 3.22036e-18
9444.04763 3.41380e-18
9444.90910 3.45232e-18
9445.77056 3.49039e-18
9446.63202 3.38383e-18
9447.49348 3.27684e-18
9448.36496 3.08271e-18
9449.22642 2.88834e-18
9450.08788 2.69921e-18
9450.94935 2.51010e-18
9451.81081 2.38626e-18
9452.67227 2.26262e-18
9453.53373 2.22759e-18
9454.39520 2.19282e-18
9455.25666 2.25246e-18
9456.11812 2.31238e-18
9456.98960 2.45223e-18
9457.85106 2.59230e-18
9458.71252 2.77048e-18
9459.57398 2.94876e-18
9460.43545 3.08078e-18
9461.29691 3.21266e-18
9462.15837 3.24761e-18
9463.01983 3.28228e-18
9463.88129 3.25993e-18
9464.74276 3.23743e-18
9465.60422 3.19937e-18
9466.47570 3.16127e-18
9467.33716 3.13305e-18
9468.19862 3.10486e-18
9469.06008 3.10699e-18
9469.92155 3.10921e-18
9470.78301 3.11023e-18
9471.64447 3.11125e-18
9472.50593 3.07764e-18
9473.36739 3.04393e-18
9474.22885 2.99667e-18
9475.09032 2.94938e-18
9475.96180 2.91702e-18
9476.82326 2.88470e-18
9477.68472 2.92642e-18
9478.54618 2.96835e-18
9479.40764 3.15088e-18
9480.26911 3.33381e-18
9481.13057 3.58467e-18
9481.99203 3.83574e-18
9482.85349 4.01478e-18
9483.71495 4.19360e-18
9484.57642 4.22692e-18
9485.43788 4.25982e-18
9486.30936 4.12157e-18
9487.17082 3.98282e-18
9488.03228 3.72928e-18
9488.89374 3.47541e-18
9489.75520 3.25486e-18
9490.61667 3.03441e-18
9491.47813 2.94164e-18
9492.33959 2.84926e-18
9493.20105 2.88255e-18
9494.06252 2.91621e-18
9494.92398 3.07508e-18
9495.79546 3.23431e-18
9496.65692 3.53900e-18
9497.51838 3.84411e-18
9498.37984 4.26249e-18
9499.24130 4.68121e-18
9500.10277 5.04957e-18
9500.96423 5.41779e-18
9501.82569 5.59452e-18
9502.68715 5.77070e-18
9503.54861 5.73343e-18
9504.41008 5.69552e-18
9505.28155 5.45869e-18
9506.14302 5.22127e-18
9507.00448 4.90789e-18
9507.86594 4.59430e-18
9508.72740 4.35071e-18
9509.58887 4.10733e-18
9510.45033 3.94787e-18
9511.31179 3.78866e-18
9512.17325 3.68440e-18
9513.03471 3.58031e-18
9513.89617 3.55973e-18
9514.75764 3.53940e-18
9515.62912 3.64325e-18
9516.49058 3.74747e-18
9517.35204 3.96386e-18
9518.21350 4.18057e-18
9519.07496 4.46955e-18
9519.93643 4.75874e-18
9520.79789 5.04996e-18
9521.65935 5.34119e-18
9522.52081 5.53775e-18
9523.38227 5.73405e-18
9524.24374 5.80333e-18
9525.11522 5.87224e-18
9525.97668 5.86514e-18
9526.83814 5.85783e-18
9527.69960 5.82131e-18
9528.56106 5.78471e-18
9529.42252 5.75585e-18
9530.28399 5.72702e-18
9531.14545 5.72662e-18
9532.00691 5.72630e-18
9532.86837 5.72142e-18
9533.72984 5.71653e-18
9534.60131 5.67935e-18
9535.46278 5.64207e-18
9536.32424 5.56417e-18
9537.18570 5.48616e-18
9538.04716 5.37201e-18
9538.90862 5.25775e-18
9539.77009 5.21153e-18
9540.63155 5.16550e-18
9541.49301 5.28553e-18
9542.35447 5.40604e-18
9543.21593 5.62187e-18
9544.08741 5.83797e-18
9544.94888 6.04476e-18
9545.81034 6.25151e-18
9546.67180 6.34696e-18
9547.53326 6.44206e-18
9548.39472 6.32125e-18
9549.25619 6.19985e-18
9550.11765 5.98448e-18
9550.97911 5.76883e-18
9551.84057 5.70386e-18
9552.70203 5.63933e-18
9553.57351 5.74140e-18
9554.43497 5.84396e-18
9555.29644 5.96828e-18
9556.15790 6.09264e-18
9557.01936 6.14163e-18
9557.88082 6.19039e-18
9558.74228 6.09908e-18
9559.60375 6.00741e-18
9560.46521 5.81609e-18
9561.32667 5.62453e-18
9562.18813 5.55439e-18
9563.05961 5.48461e-18
9563.92107 5.64974e-18
9564.78254 5.81556e-18
9565.64400 6.09849e-18
9566.50546 6.38177e-18
9567.36692 6.65614e-18
9568.22838 6.93044e-18
9569.08985 7.04540e-18
9569.95131 7.15994e-18
9570.81277 7.01171e-18
9571.67423 6.86271e-18
9572.53569 6.58190e-18
9573.40717 6.30074e-18
9574.26863 6.04258e-18
9575.13010 5.78453e-18
9575.99156 5.65277e-18
9576.85302 5.52140e-18
9577.71448 5.59800e-18
9578.57594 5.67521e-18
9579.43741 5.83137e-18
9580.29887 5.98773e-18
9581.16033 6.03531e-18
9582.02179 6.08259e-18
9582.89327 5.99671e-18
9583.75473 5.91048e-18
9584.61620 5.72806e-18
9585.47766 5.54533e-18
9586.33912 5.39791e-18
9587.20058 5.25060e-18
9588.06204 5.33848e-18
9588.92351 5.42707e-18
9589.78497 5.72520e-18
9590.64643 6.02396e-18
9591.51791 6.30252e-18
9592.37937 6.58107e-18
9593.24083 6.71619e-18
9594.10229 6.85094e-18
9594.96376 6.85449e-18
9595.82522 6.85768e-18
9596.68668 6.75460e-18
9597.54814 6.65123e-18
9598.40960 6.49963e-18
9599.27107 6.34797e-18
9600.13253 6.21203e-18
9600.99399 6.07609e-18
9601.86547 6.00652e-18
9602.72693 5.93713e-18
9603.58839 5.96704e-18
9604.44986 5.99730e-18
9605.31132 6.12118e-18
9606.17278 6.24536e-18
9607.03424 6.43532e-18
9607.89570 6.62540e-18
9608.75717 6.76063e-18
9609.61863 6.89569e-18
9610.48009 6.85975e-18
9611.35157 6.82328e-18
9612.21303 6.66553e-18
9613.07449 6.50749e-18
9613.93595 6.32107e-18
9614.79742 6.13454e-18
9615.65888 5.98418e-18
9616.52034 5.83390e-18
9617.38180 5.77355e-18
9618.24326 5.71348e-18
9619.10473 5.75704e-18
9619.96619 5.80090e-18
9620.82765 5.93335e-18
9621.69913 6.06610e-18
9622.56059 6.23969e-18
9623.42205 6.41340e-18
9624.28352 6.56163e-18
9625.14498 6.70980e-18
9626.00644 6.76932e-18
9626.86790 6.82854e-18
9627.72936 6.73995e-18
9628.59083 6.65093e-18
9629.45229 6.43166e-18
9630.31375 6.21203e-18
9631.17521 5.99186e-18
9632.04669 5.77167e-18
9632.90815 5.65132e-18
9633.76961 5.53127e-18
9634.63108 5.54994e-18
9635.49254 5.56904e-18
9636.35400 5.72260e-18
9637.21546 5.87656e-18
9638.07692 6.01935e-18
9638.93839 6.16208e-18
9639.79985 6.17367e-18
9640.67133 6.18484e-18
9641.53279 6.14039e-18
9642.39425 6.09577e-18
9643.25571 6.08312e-18
9644.11718 6.07059e-18
9644.97864 6.11096e-18
9645.84010 6.15156e-18
9646.70156 6.25358e-18
9647.56302 6.35577e-18
9648.42448 6.45128e-18
9649.28595 6.54673e-18
9650.15743 6.54697e-18
9651.01889 6.54685e-18
9651.88035 6.45146e-18
9652.74181 6.35577e-18
9653.60327 6.20458e-18
9654.46474 6.05316e-18
9655.32620 5.90082e-18
9656.18766 5.74846e-18
9657.04912 5.65810e-18
9657.91058 5.56792e-18
9658.77205 5.57478e-18
9659.64352 5.58195e-18
9660.50499 5.69468e-18
9661.36645 5.80772e-18
9662.22791 5.99062e-18
9663.08937 6.17373e-18
9663.95083 6.33360e-18
9664.81230 6.49342e-18
9665.67376 6.57635e-18
9666.53522 6.65909e-18
9667.39668 6.69361e-18
9668.25815 6.72801e-18
9669.11961 6.73049e-18
9669.99109 6.73285e-18
9670.85255 6.67570e-18
9671.71401 6.61831e-18
9672.57547 6.49395e-18
9673.43693 6.36936e-18
9674.29840 6.22864e-18
9675.15986 6.08779e-18
9676.02132 5.98140e-18
9676.88278 5.87514e-18
9677.74424 5.83852e-18
9678.61572 5.80210e-18
9679.47718 5.85870e-18
9680.33865 5.91556e-18
9681.20011 6.01876e-18
9682.06157 6.12201e-18
9682.92303 6.20683e-18
9683.78449 6.29158e-18
9684.64596 6.33881e-18
9685.50742 6.38585e-18
9686.36888 6.39283e-18
9687.23034 6.39968e-18
9688.10182 6.37315e-18
9688.96328 6.34655e-18
9689.82475 6.30293e-18
9690.68621 6.25925e-18
9691.54767 6.20151e-18
9692.40913 6.14370e-18
9693.27059 6.06314e-18
9694.13206 5.98247e-18
9694.99352 5.89096e-18
9695.85498 5.79941e-18
9696.71644 5.72947e-18
9697.57790 5.65959e-18
9698.44938 5.62736e-18
9699.31084 5.59526e-18
9700.17231 5.59462e-18
9701.03377 5.59409e-18
9701.89523 5.61175e-18
9702.75669 5.62947e-18
9703.61816 5.63586e-18
9704.47962 5.64222e-18
9705.34108 5.61824e-18
9706.20254 5.59417e-18
9707.06400 5.55824e-18
9707.93548 5.52228e-18
9708.79694 5.49349e-18
9709.65841 5.46473e-18
9710.51987 5.45349e-18
9711.38133 5.44231e-18
9712.24279 5.45542e-18
9713.10425 5.46860e-18
9713.96572 5.48792e-18
9714.82718 5.50726e-18
9715.68864 5.51099e-18
9716.55010 5.51467e-18
9717.41156 5.49654e-18
9718.28304 5.47835e-18
9719.14451 5.43587e-18
9720.00597 5.39331e-18
9720.86743 5.34919e-18
9721.72889 5.30507e-18
9722.59035 5.29428e-18
9723.45182 5.28358e-18
9724.31328 5.29075e-18
9725.17474 5.29799e-18
9726.03620 5.27753e-18
9726.89766 5.25699e-18
9727.76914 5.19275e-18
9728.63060 5.12838e-18
9729.49207 5.02883e-18
9730.35353 4.92918e-18
9731.21499 4.81557e-18
9732.07645 4.70192e-18
9732.93791 4.61330e-18
9733.79938 4.52476e-18
9734.66084 4.48547e-18
9735.52230 4.44633e-18
9736.38376 4.45163e-18
9737.25524 4.45706e-18
9738.11670 4.49600e-18
9738.97817 4.53505e-18
9739.83963 4.58608e-18
9740.70109 4.63715e-18
9741.56255 4.67896e-18
9742.42401 4.72075e-18
9743.28548 4.74204e-18
9744.14694 4.76328e-18
9745.00840 4.75736e-18
9745.86986 4.75137e-18
9746.74134 4.72732e-18
9747.60280 4.70323e-18
9748.46426 4.67353e-18
9749.32573 4.64380e-18
9750.18719 4.61140e-18
9751.04865 4.57898e-18
9751.91011 4.54543e-18
9752.77157 4.51188e-18
9753.63304 4.47608e-18
9754.49450 4.44028e-18
9755.35596 4.39993e-18
9756.22744 4.35955e-18
9757.08890 4.32303e-18
9757.95036 4.28652e-18
9758.81183 4.26624e-18
9759.67329 4.24601e-18
9760.53475 4.25157e-18
9761.39621 4.25721e-18
9762.25767 4.29684e-18
9763.11913 4.33659e-18
9763.98060 4.39782e-18
9764.84206 4.45911e-18
9765.71354 4.50679e-18
9766.57500 4.55444e-18
9767.43646 4.57134e-18
9768.29792 4.58815e-18
9769.15939 4.58557e-18
9770.02085 4.58293e-18
9770.88231 4.57050e-18
9771.74377 4.55803e-18
9772.60523 4.54055e-18
9773.46670 4.52305e-18
9774.32816 4.50663e-18
9775.19964 4.49020e-18
9776.06110 4.47965e-18
9776.92256 4.46912e-18
9777.78402 4.46767e-18
9778.64548 4.46625e-18
9779.50695 4.47802e-18
9780.36841 4.48982e-18
9781.22987 4.51593e-18
9782.09133 4.54208e-18
9782.95280 4.55994e-18
9783.81426 4.57776e-18
9784.68574 4.56280e-18
9785.54720 4.54772e-18
9786.40866 4.51184e-18
9787.27012 4.47590e-18
9788.13158 4.44148e-18
9788.99305 4.40707e-18
9789.85451 4.38201e-18
9790.71597 4.35697e-18
9791.57743 4.34453e-18
9792.43889 4.33212e-18
9793.30036 4.32392e-18
9794.16182 4.31573e-18
9795.03330 4.29411e-18
9795.89476 4.27246e-18
9796.75622 4.24258e-18
9797.61768 4.21269e-18
9798.47915 4.20033e-18
9799.34061 4.18802e-18
9800.20207 4.20179e-18
9801.06353 4.21565e-18
9801.92499 4.24333e-18
9802.78645 4.27106e-18
9803.64792 4.30032e-18
9804.51940 4.32958e-18
9805.38086 4.34595e-18
9806.24232 4.36228e-18
9807.10378 4.35875e-18
9807.96524 4.35514e-18
9808.82671 4.34558e-18
9809.68817 4.33600e-18
9810.54963 4.33362e-18
9811.41109 4.33126e-18
9812.27255 4.34442e-18
9813.13402 4.35763e-18
9813.99548 4.39021e-18
9814.86696 4.42285e-18
9815.72842 4.45167e-18
9816.58988 4.48047e-18
9817.45134 4.48089e-18
9818.31280 4.48123e-18
9819.17427 4.45653e-18
9820.03573 4.43176e-18
9820.89719 4.39230e-18
9821.75865 4.35280e-18
9822.62012 4.31380e-18
9823.48158 4.27480e-18
9824.35306 4.25397e-18
9825.21452 4.23320e-18
9826.07598 4.22795e-18
9826.93744 4.22275e-18
9827.79890 4.21875e-18
9828.66037 4.21475e-18
9829.52183 4.20845e-18
9830.38329 4.20215e-18
9831.24475 4.19780e-18
9832.10621 4.19345e-18
9832.97769 4.19007e-18
9833.83915 4.18669e-18
9834.70062 4.17871e-18
9835.56208 4.17071e-18
9836.42354 4.15556e-18
9837.28500 4.14038e-18
9838.14647 4.11956e-18
9839.00793 4.09872e-18
9839.86939 4.07392e-18
9840.73085 4.04912e-18
9841.59231 4.02123e-18
9842.45377 3.99333e-18
9843.32525 3.96554e-18
9844.18672 3.93773e-18
9845.04818 3.91988e-18
9845.90964 3.90205e-18
9846.77110 3.90189e-18
9847.63256 3.90177e-18
9848.49403 3.91691e-18
9849.35549 3.93209e-18
9850.21695 3.95811e-18
9851.07841 3.98417e-18
9851.93987 4.01687e-18
9852.81135 4.04959e-18
9853.67282 4.08399e-18
9854.53428 4.11839e-18
9855.39574 4.15134e-18
9856.25720 4.18429e-18
9857.11866 4.21348e-18
9857.98013 4.24266e-18
9858.84159 4.26184e-18
9859.70305 4.28099e-18
9860.56451 4.28301e-18
9861.42597 4.28499e-18
9862.29745 4.26888e-18
9863.15891 4.25272e-18
9864.02038 4.22156e-18
9864.88184 4.19034e-18
9865.74330 4.14981e-18
9866.60476 4.10923e-18
9867.46622 4.06745e-18
9868.32769 4.02567e-18
9869.18915 3.98731e-18
9870.05061 3.94896e-18
9870.92209 3.91349e-18
9871.78355 3.87803e-18
9872.64501 3.84605e-18
9873.50648 3.81408e-18
9874.36794 3.78833e-18
9875.22940 3.76260e-18
9876.09086 3.74525e-18
9876.95232 3.72794e-18
9877.81379 3.72099e-18
9878.67525 3.71407e-18
9879.53671 3.71843e-18
9880.39817 3.72282e-18
9881.26965 3.73710e-18
9882.13111 3.75141e-18
9882.99257 3.77305e-18
9883.85404 3.79470e-18
9884.71550 3.81902e-18
9885.57696 3.84334e-18
9886.43842 3.86527e-18
9887.29988 3.88719e-18
9888.16135 3.90198e-18
9889.02281 3.91676e-18
9889.88427 3.92045e-18
9890.74573 3.92410e-18
9891.61721 3.91659e-18
9892.47867 3.90905e-18
9893.34014 3.89234e-18
9894.20160 3.87560e-18
9895.06306 3.85185e-18
9895.92452 3.82807e-18
9896.78598 3.79952e-18
9897.64745 3.77097e-18
9898.50891 3.74135e-18
9899.37037 3.71173e-18
9900.23183 3.68594e-18
9901.09329 3.66017e-18
9901.96477 3.63902e-18
9902.82623 3.61789e-18
9903.68770 3.59721e-18
9904.54916 3.57654e-18
9905.41062 3.55730e-18
9906.27208 3.53806e-18
9907.13354 3.52932e-18
9907.99501 3.52061e-18
9908.85647 3.52669e-18
9909.71793 3.53281e-18
9910.57939 3.54957e-18
9911.45087 3.56636e-18
9912.31233 3.58707e-18
9913.17380 3.60778e-18
9914.03526 3.61819e-18
9914.89672 3.62857e-18
9915.75818 3.61737e-18
9916.61964 3.60611e-18
9917.48111 3.57726e-18
9918.34257 3.54836e-18
9919.20403 3.50877e-18
9920.07551 3.46916e-18
9920.93697 3.42668e-18
9921.79843 3.38421e-18
9922.65989 3.34683e-18
9923.52136 3.30949e-18
9924.38282 3.28073e-18
9925.24428 3.25199e-18
9926.10574 3.23321e-18
9926.96720 3.21446e-18
9927.82867 3.20046e-18
9928.69013 3.18647e-18
9929.56161 3.16898e-18
9930.42307 3.15148e-18
9931.28453 3.12781e-18
9932.14599 3.10412e-18
9933.00746 3.07545e-18
9933.86892 3.04676e-18
9934.73038 3.01552e-18
9935.59184 2.98427e-18
9936.45330 2.95397e-18
9937.31477 2.92368e-18
9938.17623 2.89897e-18
9939.03769 2.87428e-18
9939.90917 2.86100e-18
9940.77063 2.84776e-18
9941.63209 2.84750e-18
9942.49355 2.84729e-18
9943.35502 2.85402e-18
9944.21648 2.86077e-18
9945.07794 2.86928e-18
9945.93940 2.87778e-18
9946.80086 2.88674e-18
9947.66233 2.89570e-18
9948.52379 2.90359e-18
9949.39527 2.91148e-18
9950.25673 2.91541e-18
9951.11819 2.91934e-18
9951.97965 2.91745e-18
9952.84112 2.91556e-18
9953.70258 2.91160e-18
9954.56404 2.90763e-18
9955.42550 2.90571e-18
9956.28696 2.90379e-18
9957.14843 2.90116e-18
9958.00989 2.89853e-18
9958.88137 2.89139e-18
9959.74283 2.88423e-18
9960.60429 2.87064e-18
9961.46575 2.85703e-18
9962.32721 2.83573e-18
9963.18868 2.81441e-18
9964.05014 2.79179e-18
9964.91160 2.76916e-18
9965.77306 2.75586e-18
9966.63452 2.74258e-18
9967.49599 2.74109e-18
9968.36747 2.73964e-18
9969.22893 2.74586e-18
9970.09039 2.75210e-18
9970.95185 2.76540e-18
9971.81331 2.77871e-18
9972.67477 2.80213e-18
9973.53624 2.82558e-18
9974.39770 2.85785e-18
9975.25916 2.89014e-18
9976.12062 2.92436e-18
9976.98208 2.95857e-18
9977.85356 2.98924e-18
9978.71503 3.01989e-18
9979.57649 3.04437e-18
9980.43795 3.06883e-18
9981.29941 3.08621e-18
9982.16087 3.10357e-18
9983.02234 3.11753e-18
9983.88380 3.13149e-18
9984.74526 3.14578e-18
9985.60672 3.16007e-18
9986.46818 3.17653e-18
9987.32965 3.19299e-18
9988.20112 3.21258e-18
9989.06259 3.23218e-18
9989.92405 3.24801e-18
9990.78551 3.26382e-18
9991.64697 3.26804e-18
9992.50843 3.27223e-18
9993.36990 3.27074e-18
9994.23136 3.26922e-18
9995.09282 3.27204e-18
9995.95428 3.27488e-18
9996.81574 3.28031e-18
9997.67721 3.28574e-18
9998.54869 3.28738e-18
9999.41015 3.28900e-18
