# wavelength flux
3476.05391 -7.15833e-18
3480.27174 -4.58401e-18
3484.48957 5.04484e-18
3488.70740 1.21794e-17
3492.92524 -3.18615e-18
3497.14307 4.80450e-19
3501.36090 1.31056e-17
3505.57873 4.10366e-18
3509.79656 1.34318e-17
3514.01440 1.16597e-17
3518.23223 1.59236e-17
3522.45006 7.94193e-18
3526.66789 2.47137e-18
3530.88572 9.14129e-18
3535.10356 2.42640e-19
3539.32139 7.53564e-18
3543.53922 1.03983e-17
3547.75705 3.20285e-18
3551.97488 4.20134e-18
3556.19272 4.96224e-18
3560.41055 6.06615e-18
3564.62838 1.30626e-17
3568.84621 3.58824e-18
3573.06404 -4.15683e-19
3577.28188 3.00899e-18
3581.49971 -2.18274e-18
3585.71754 6.53471e-19
3589.93537 5.93587e-18
3594.15320 9.47917e-18
3598.37104 6.06500e-18
3602.58887 7.29170e-18
3606.80670 8.01630e-18
3611.02453 6.67696e-18
3615.24236 3.42916e-18
3619.46020 4.59817e-18
3623.67803 4.10175e-18
3627.89586 1.62133e-18
3632.11369 -2.52251e-19
3636.33152 7.86179e-18
3640.54936 9.98398e-18
3644.76719 7.53284e-18
3648.98502 4.89530e-18
3653.20285 4.44945e-18
3657.42068 3.40456e-18
3661.63852 6.44021e-18
3665.85635 9.43867e-18
3670.07418 1.01180e-17
3674.29201 8.16867e-18
3678.50984 4.73130e-18
3682.72768 7.44548e-18
3686.94551 9.34904e-18
3691.16334 8.93781e-18
3695.39136 8.66430e-18
3699.60919 8.33795e-18
3703.82702 7.47154e-18
3708.04486 7.96706e-18
3712.26269 8.01205e-18
3716.48052 1.01015e-17
3720.69835 1.17937e-17
3724.91618 1.36294e-17
3729.13402 9.95480e-18
3733.35185 9.06533e-18
3737.56968 9.24426e-18
3741.78751 8.05402e-18
3746.00534 8.46510e-18
3750.22318 6.52154e-18
3754.44101 8.78371e-18
3758.65884 9.10641e-18
3762.87667 7.86893e-18
3767.09450 6.41406e-18
3771.31234 7.82904e-18
3775.53017 9.26330e-18
3779.74800 9.43636e-18
3783.96583 9.60936e-18
3788.18366 9.78231e-18
3792.40150 9.95523e-18
3796.61933 1.01281e-17
3800.83716 1.03009e-17
3805.05499 1.04737e-17
3809.27282 1.06464e-17
3813.49066 1.08190e-17
3817.70849 1.09917e-17
3821.92632 7.15189e-18
3826.14415 6.85437e-18
3830.36198 9.40556e-18
3834.57982 7.53843e-18
3838.79765 8.73207e-18
3843.01548 8.47732e-18
3847.23331 5.17352e-18
3851.45114 6.85806e-18
3855.66898 9.30046e-18
3859.88681 7.57920e-18
3864.10464 6.58718e-18
3868.32247 5.38373e-18
3872.54030 7.29669e-18
3876.75814 6.94062e-18
3880.97597 5.31604e-18
3885.19380 5.76862e-18
3889.41163 5.98998e-18
3893.62946 9.06165e-18
3897.84730 6.87252e-18
3902.06513 4.21614e-18
3906.28296 5.26597e-18
3910.50079 8.63179e-18
3914.71862 9.00311e-18
3918.93646 8.48376e-18
3923.15429 9.16442e-18
3927.37212 9.40965e-18
3931.58995 8.61525e-18
3935.80778 7.98408e-18
3940.02562 7.85044e-18
3944.24345 8.43929e-18
3948.46128 8.93406e-18
3952.67911 9.45328e-18
3956.89694 1.00506e-17
3961.11478 1.08449e-17
3965.33261 9.89879e-18
3969.55044 7.11773e-18
3973.77846 8.30719e-18
3977.99629 8.01990e-18
3982.21412 7.02523e-18
3986.43196 8.46279e-18
3990.64979 1.12385e-17
3994.86762 1.16229e-17
3999.08545 1.05781e-17
4003.30328 1.10253e-17
4007.52112 1.02779e-17
4011.73895 1.01811e-17
4015.95678 1.00477e-17
4020.17461 1.02857e-17
4024.39244 1.01715e-17
4028.61028 9.42307e-18
4032.82811 9.67236e-18
4037.04594 1.05612e-17
4041.26377 1.03536e-17
4045.48160 9.71278e-18
4049.69944 1.00143e-17
4053.91727 1.07837e-17
4058.13510 8.80426e-18
4062.35293 8.42382e-18
4066.57076 9.02204e-18
4070.78860 1.02565e-17
4075.00643 1.06525e-17
4079.22426 1.13406e-17
4083.44209 1.09573e-17
4087.65992 1.08838e-17
4091.87776 9.73523e-18
4096.09559 7.70938e-18
4100.31342 8.08426e-18
4104.53125 1.00695e-17
4108.74908 9.92236e-18
4112.96692 9.62455e-18
4117.18475 9.66511e-18
4121.40258 8.45255e-18
4125.62041 9.09721e-18
4129.83824 1.08054e-17
4134.05608 9.73094e-18
4138.27391 8.71099e-18
4142.49174 9.56817e-18
4146.70957 1.05000e-17
4150.92740 1.08328e-17
4155.14524 1.02549e-17
4159.36307 1.15517e-17
4163.58090 1.10096e-17
4167.79873 1.06753e-17
4172.01656 1.22721e-17
4176.23440 1.19871e-17
4180.45223 1.42547e-17
4184.67006 1.45524e-17
4188.88789 1.36736e-17
4193.10572 1.31554e-17
4197.32356 1.30411e-17
4201.54139 1.31692e-17
4205.75922 1.21835e-17
4209.97705 1.19190e-17
4214.19488 1.27556e-17
4218.41272 1.16680e-17
4222.63055 1.00329e-17
4226.84838 1.06914e-17
4231.06621 1.06881e-17
4235.28404 1.12908e-17
4239.50188 1.12175e-17
4243.72990 1.20498e-17
4247.94773 1.15070e-17
4252.16556 1.28977e-17
4256.38339 1.30025e-17
4260.60122 1.20099e-17
4264.81906 1.09310e-17
4269.03689 1.17060e-17
4273.25472 1.15244e-17
4277.47255 1.22933e-17
4281.69038 1.24338e-17
4285.90822 1.23321e-17
4290.12605 1.18258e-17
4294.34388 1.17111e-17
4298.56171 1.19136e-17
4302.77954 1.06304e-17
4306.99738 9.77283e-18
4311.21521 1.00695e-17
4315.43304 1.14663e-17
4319.65087 1.10529e-17
4323.86870 1.07027e-17
4328.08654 1.07147e-17
4332.30437 1.08443e-17
4336.52220 1.18553e-17
4340.74003 1.08515e-17
4344.95786 9.15372e-18
4349.17570 9.69414e-18
4353.39353 1.05455e-17
4357.61136 1.03849e-17
4361.82919 1.10357e-17
4366.04702 1.14078e-17
4370.26486 1.00972e-17
4374.48269 8.87182e-18
4378.70052 1.00710e-17
4382.91835 1.05602e-17
4387.13618 9.56330e-18
4391.35402 9.53040e-18
4395.57185 1.03749e-17
4399.78968 1.02585e-17
4404.00751 9.00892e-18
4408.22534 9.95689e-18
4412.44318 9.87160e-18
4416.66101 9.98395e-18
4420.87884 1.00962e-17
4425.09667 1.02085e-17
4429.31450 1.03207e-17
4433.53234 1.04329e-17
4437.75017 1.05450e-17
4441.96800 1.06571e-17
4446.18583 1.07692e-17
4450.40366 1.08812e-17
4454.62150 1.09933e-17
4458.83933 1.11052e-17
4463.05716 1.12171e-17
4467.27499 1.13290e-17
4471.49282 1.14408e-17
4475.71066 1.15526e-17
4479.92849 1.16644e-17
4484.14632 1.28498e-17
4488.36415 1.28128e-17
4492.58198 1.24292e-17
4496.79982 1.24395e-17
4501.01765 1.13490e-17
4505.23548 1.23315e-17
4509.45331 1.09939e-17
4513.67114 1.32720e-17
4517.88898 1.41379e-17
4522.11700 1.38764e-17
4526.33483 1.35193e-17
4530.55266 1.39082e-17
4534.77049 1.55590e-17
4538.98832 1.41239e-17
4543.20616 1.38993e-17
4547.42399 1.53434e-17
4551.64182 1.50297e-17
4555.85965 1.53174e-17
4560.07748 1.54816e-17
4564.29532 1.53000e-17
4568.51315 1.53718e-17
4572.73098 1.57368e-17
4576.94881 1.54059e-17
4581.16664 1.59890e-17
4585.38448 1.57503e-17
4589.60231 1.54117e-17
4593.82014 1.48188e-17
4598.03797 1.56693e-17
4602.25580 1.61036e-17
4606.47364 1.62376e-17
4610.69147 1.59422e-17
4614.90930 1.53439e-17
4619.12713 1.66265e-17
4623.34496 1.63905e-17
4627.56280 1.62017e-17
4631.78063 1.55367e-17
4635.99846 1.47247e-17
4640.21629 1.47621e-17
4644.43412 1.40568e-17
4648.65196 1.39203e-17
4652.86979 1.42286e-17
4657.08762 1.48039e-17
4661.30545 1.50968e-17
4665.52328 1.46049e-17
4669.74112 1.39260e-17
4673.95895 1.47392e-17
4678.17678 1.50635e-17
4682.39461 1.48339e-17
4686.61244 1.44106e-17
4690.83028 1.43725e-17
4695.04811 1.41195e-17
4699.26594 1.33947e-17
4703.48377 1.25468e-17
4707.70160 1.25250e-17
4711.91944 1.23098e-17
4716.13727 1.20862e-17
4720.35510 1.27605e-17
4724.57293 1.22157e-17
4728.79076 1.18556e-17
4733.00860 1.24901e-17
4737.22643 1.29067e-17
4741.44426 1.20955e-17
4745.66209 1.20959e-17
4749.87992 1.23194e-17
4754.09776 1.23034e-17
4758.31559 1.18270e-17
4762.53342 1.13862e-17
4766.75125 1.10216e-17
4770.96908 1.09525e-17
4775.18692 1.04114e-17
4779.40475 1.03030e-17
4783.62258 1.10198e-17
4787.84041 1.13864e-17
4792.06843 1.09585e-17
4796.27608 1.12461e-17
4800.50410 1.20171e-17
4804.72193 1.14423e-17
4808.93976 1.18977e-17
4813.15759 1.16198e-17
4817.37542 1.11499e-17
4821.59326 1.13337e-17
4825.81109 1.19378e-17
4830.02892 1.19019e-17
4834.24675 1.14643e-17
4838.46458 1.16549e-17
4842.68242 1.24140e-17
4846.90025 1.26387e-17
4851.11808 1.18745e-17
4855.33591 1.15022e-17
4859.55374 1.20256e-17
4863.77158 1.20124e-17
4867.98941 1.19142e-17
4872.20724 1.20671e-17
4876.42507 1.21591e-17
4880.64290 1.14342e-17
4884.86074 1.15994e-17
4889.07857 1.30787e-17
4893.29640 1.28732e-17
4897.51423 1.30868e-17
4901.73206 1.25557e-17
4905.94990 1.15280e-17
4910.16773 1.12556e-17
4914.38556 1.12594e-17
4918.60339 1.21337e-17
4922.82122 1.20013e-17
4927.03906 1.15548e-17
4931.25689 1.12378e-17
4935.47472 1.12285e-17
4939.69255 1.12192e-17
4943.91038 1.12100e-17
4948.12822 1.12007e-17
4952.34605 1.11915e-17
4956.56388 1.11823e-17
4960.78171 1.11730e-17
4964.99954 1.11638e-17
4969.21738 1.11546e-17
4973.43521 1.11453e-17
4977.65304 1.10153e-17
4981.87087 1.13748e-17
4986.08870 1.19349e-17
4990.30654 1.15485e-17
4994.52437 1.12410e-17
4998.74220 1.15502e-17
5002.96003 1.17453e-17
5007.17786 1.22076e-17
5011.39570 1.21508e-17
5015.61353 1.15878e-17
5019.83136 1.15175e-17
5024.04919 1.16426e-17
5028.26702 1.16251e-17
5032.48486 1.20336e-17
5036.70269 1.21176e-17
5040.92052 1.22015e-17
5045.13835 1.22854e-17
5049.35618 1.23694e-17
5053.57402 1.24532e-17
5057.79185 1.25371e-17
5062.00968 1.26209e-17
5066.22751 1.27047e-17
5070.45553 1.27885e-17
5074.66318 1.28723e-17
5078.89120 1.30538e-17
5083.10903 1.32625e-17
5087.32686 1.34711e-17
5091.54469 1.36797e-17
5095.76252 1.38881e-17
5099.98036 1.40966e-17
5104.19819 1.43049e-17
5108.41602 1.45132e-17
5112.63385 1.47215e-17
5116.85168 1.49296e-17
5121.06952 1.51378e-17
5125.28735 1.44819e-17
5129.50518 1.41799e-17
5133.72301 1.45522e-17
5137.94084 1.48987e-17
5142.15868 1.49574e-17
5146.37651 1.50560e-17
5150.59434 1.58009e-17
5154.81217 1.59590e-17
5159.03000 1.50501e-17
5163.24784 1.49491e-17
5167.46567 1.52595e-17
5171.68350 1.54704e-17
5175.90133 1.60897e-17
5180.11916 1.62707e-17
5184.33700 1.60875e-17
5188.55483 1.63378e-17
5192.77266 1.62044e-17
5196.99049 1.64073e-17
5201.20832 1.60708e-17
5205.42616 1.59681e-17
5209.64399 1.63389e-17
5213.86182 1.72240e-17
5218.07965 1.71810e-17
5222.29748 1.69920e-17
5226.51532 1.73697e-17
5230.73315 1.69147e-17
5234.95098 1.76131e-17
5239.16881 1.76166e-17
5243.38664 1.76427e-17
5247.60448 1.73649e-17
5251.82231 1.72176e-17
5256.04014 1.80976e-17
5260.25797 1.81596e-17
5264.47580 1.70706e-17
5268.69364 1.73709e-17
5272.91147 1.82886e-17
5277.12930 1.73013e-17
5281.34713 1.70289e-17
5285.56496 1.70798e-17
5289.78280 1.70942e-17
5294.00063 1.79839e-17
5298.21846 1.77215e-17
5302.43629 1.73994e-17
5306.65412 1.75667e-17
5310.87196 1.75418e-17
5315.08979 1.73833e-17
5319.30762 1.69906e-17
5323.52545 1.72712e-17
5327.74328 1.75408e-17
5331.96112 1.73794e-17
5336.17895 1.71061e-17
5340.39678 1.67850e-17
5344.61461 1.66563e-17
5348.84263 1.76403e-17
5353.06046 1.69248e-17
5357.27830 1.62904e-17
5361.49613 1.69133e-17
5365.71396 1.71326e-17
5369.93179 1.69699e-17
5374.14962 1.67185e-17
5378.36746 1.70731e-17
5382.58529 1.75226e-17
5386.80312 1.68442e-17
5391.02095 1.65851e-17
5395.23878 1.68010e-17
5399.45662 1.71616e-17
5403.67445 1.68782e-17
5407.89228 1.66247e-17
5412.11011 1.65672e-17
5416.32794 1.64963e-17
5420.54578 1.62689e-17
5424.76361 1.62482e-17
5428.98144 1.64670e-17
5433.19927 1.59526e-17
5437.41710 1.60855e-17
5441.63494 1.70203e-17
5445.85277 1.70751e-17
5450.07060 1.65673e-17
5454.28843 1.67264e-17
5458.50626 1.68040e-17
5462.72410 1.68949e-17
5466.94193 1.68316e-17
5471.15976 1.62986e-17
5475.37759 1.59474e-17
5479.59542 1.62031e-17
5483.81326 1.61625e-17
5488.03109 1.60061e-17
5492.24892 1.59145e-17
5496.46675 1.52705e-17
5500.68458 1.54095e-17
5504.90242 1.59415e-17
5509.12025 1.57973e-17
5513.33808 1.58098e-17
5517.55591 1.60174e-17
5521.77374 1.56207e-17
5525.99158 1.54574e-17
5530.20941 1.54174e-17
5534.42724 1.56295e-17
5538.64507 1.54648e-17
5542.86290 1.57124e-17
5547.08074 1.53364e-17
5551.29857 1.52348e-17
5555.51640 1.54365e-17
5559.73423 1.57308e-17
5563.95206 1.51874e-17
5568.16990 1.45347e-17
5572.38773 1.48147e-17
5576.60556 1.54739e-17
5580.82339 1.53881e-17
5585.04122 1.46246e-17
5589.25906 1.45907e-17
5593.47689 1.45040e-17
5597.69472 1.44111e-17
5601.91255 1.46908e-17
5606.13038 1.46510e-17
5610.34822 1.43989e-17
5614.56605 1.43898e-17
5618.78388 1.44218e-17
5623.01190 1.45572e-17
5627.22973 1.46882e-17
5631.44756 1.42547e-17
5635.66540 1.42207e-17
5639.88323 1.39842e-17
5644.10106 1.43551e-17
5648.31889 1.38754e-17
5652.53672 1.38572e-17
5656.75456 1.44978e-17
5660.97239 1.38403e-17
5665.19022 1.34225e-17
5669.40805 1.33356e-17
5673.62588 1.28859e-17
5677.84372 1.34219e-17
5682.06155 1.25210e-17
5686.27938 1.29168e-17
5690.49721 1.30270e-17
5694.71504 1.28011e-17
5698.93288 1.28012e-17
5703.15071 1.22892e-17
5707.36854 1.28851e-17
5711.58637 1.29685e-17
5715.80420 1.25290e-17
5720.02204 1.29858e-17
5724.23987 1.26356e-17
5728.45770 1.19754e-17
5732.67553 1.21554e-17
5736.89336 1.27607e-17
5741.11120 1.32987e-17
5745.32903 1.29084e-17
5749.54686 1.26455e-17
5753.76469 1.31211e-17
5757.98252 1.24483e-17
5762.20036 1.27541e-17
5766.41819 1.31164e-17
5770.63602 1.23023e-17
5774.85385 1.30336e-17
5779.07168 1.24388e-17
5783.28952 1.26852e-17
5787.50735 1.30048e-17
5791.72518 1.30632e-17
5795.94301 1.30079e-17
5800.16084 1.31253e-17
5804.37868 1.28196e-17
5808.59651 1.26229e-17
5812.81434 1.32409e-17
5817.03217 1.33354e-17
5821.25000 1.30205e-17
5825.46784 1.31011e-17
5829.68567 1.28335e-17
5833.90350 1.30356e-17
5838.12133 1.34922e-17
5842.33916 1.31105e-17
5846.55700 1.29140e-17
5850.77483 1.30958e-17
5854.99266 1.34465e-17
5859.21049 1.29526e-17
5863.42832 1.31939e-17
5867.64616 1.33515e-17
5871.86399 1.30748e-17
5876.08182 1.29681e-17
5880.29965 1.23670e-17
5884.51748 1.23026e-17
5888.73532 1.29150e-17
5892.96334 1.30429e-17
5897.17098 1.25683e-17
5901.39900 1.24105e-17
5905.61683 1.26089e-17
5909.83466 1.28471e-17
5914.05250 1.25309e-17
5918.27033 1.23960e-17
5922.48816 1.26282e-17
5926.70599 1.25564e-17
5930.92382 1.24105e-17
5935.14166 1.21924e-17
5939.35949 1.22153e-17
5943.57732 1.23846e-17
5947.79515 1.24360e-17
5952.01298 1.23505e-17
5956.23082 1.23278e-17
5960.44865 1.23051e-17
5964.66648 1.22824e-17
5968.88431 1.22597e-17
5973.10214 1.22370e-17
5977.31998 1.22143e-17
5981.53781 1.21917e-17
5985.75564 1.21690e-17
5989.97347 1.21463e-17
5994.19130 1.21237e-17
5998.40914 1.21010e-17
6002.62697 1.20784e-17
6006.84480 1.20558e-17
6011.06263 1.20332e-17
6015.28046 1.20105e-17
6019.49830 1.19879e-17
6023.71613 1.26348e-17
6027.93396 1.26964e-17
6032.15179 1.21638e-17
6036.36962 1.19763e-17
6040.58746 1.26114e-17
6044.80529 1.20922e-17
6049.02312 1.23703e-17
6053.24095 1.26854e-17
6057.45878 1.18533e-17
6061.67662 1.09748e-17
6065.89445 1.15994e-17
6070.11228 1.12858e-17
6074.33011 1.10966e-17
6078.54794 1.19343e-17
6082.76578 1.20770e-17
6086.98361 1.17124e-17
6091.20144 1.15057e-17
6095.41927 1.15510e-17
6099.63710 1.15487e-17
6103.85494 1.14128e-17
6108.07277 1.13764e-17
6112.29060 1.12284e-17
6116.50843 1.08677e-17
6120.72626 1.08178e-17
6124.94410 1.10321e-17
6129.16193 1.11099e-17
6133.37976 1.07033e-17
6137.59759 1.09289e-17
6141.81542 1.09003e-17
6146.03326 1.10099e-17
6150.25109 1.08328e-17
6154.46892 9.94040e-18
6158.68675 9.13818e-18
6162.91477 9.46748e-18
6167.12242 1.00369e-17
6171.35044 1.01697e-17
6175.55808 1.01544e-17
6179.78610 9.91432e-18
6184.00393 9.54235e-18
6188.22176 9.56228e-18
6192.43960 9.82776e-18
6196.65743 9.96122e-18
6200.87526 1.00841e-17
6205.09309 1.04511e-17
6209.31092 1.07573e-17
6213.52876 1.00617e-17
6217.74659 1.02598e-17
6221.96442 1.01799e-17
6226.18225 9.89524e-18
6230.40008 1.01249e-17
6234.61792 1.00967e-17
6238.83575 1.00909e-17
6243.05358 1.02241e-17
6247.27141 1.00542e-17
6251.48924 1.04483e-17
6255.70708 1.04874e-17
6259.92491 1.03630e-17
6264.14274 1.01532e-17
6268.36057 1.02350e-17
6272.57840 1.04355e-17
6276.79624 1.03054e-17
6281.01407 1.04602e-17
6285.23190 1.06491e-17
6289.44973 1.06053e-17
6293.66756 1.06713e-17
6297.88540 1.04292e-17
6302.10323 1.00554e-17
6306.32106 1.05039e-17
6310.53889 1.07736e-17
6314.75672 1.10714e-17
6318.97456 1.09815e-17
6323.19239 1.12182e-17
6327.41022 1.09829e-17
6331.62805 1.09186e-17
6335.84588 1.14100e-17
6340.06372 1.12610e-17
6344.28155 1.08985e-17
6348.49938 1.12686e-17
6352.71721 1.16982e-17
6356.93504 1.18892e-17
6361.15288 1.18489e-17
6365.37071 1.15990e-17
6369.58854 1.17265e-17
6373.80637 1.16532e-17
6378.02420 1.15630e-17
6382.24204 1.19199e-17
6386.45987 1.22746e-17
6390.67770 1.18162e-17
6394.89553 1.16791e-17
6399.11336 1.17119e-17
6403.33120 1.23899e-17
6407.54903 1.19138e-17
6411.76686 1.18288e-17
6415.98469 1.22571e-17
6420.20252 1.21756e-17
6424.42036 1.20379e-17
6428.63819 1.21662e-17
6432.85602 1.18688e-17
6437.07385 1.17818e-17
6441.30187 1.24377e-17
6445.50952 1.21488e-17
6449.73754 1.20670e-17
6453.95537 1.19644e-17
6458.17320 1.26019e-17
6462.39103 1.24949e-17
6466.60886 1.21493e-17
6470.82670 1.22296e-17
6475.04453 1.23633e-17
6479.26236 1.22503e-17
6483.48019 1.22520e-17
6487.69802 1.23950e-17
6491.91586 1.24003e-17
6496.13369 1.24592e-17
6500.35152 1.24083e-17
6504.56935 1.21140e-17
6508.78718 1.21531e-17
6513.00502 1.25134e-17
6517.22285 1.25958e-17
6521.44068 1.24562e-17
6525.65851 1.24923e-17
6529.87634 1.23241e-17
6534.09418 1.18949e-17
6538.31201 1.20146e-17
6542.52984 1.20325e-17
6546.74767 1.19791e-17
6550.96550 1.23163e-17
6555.18334 1.24037e-17
6559.40117 1.21015e-17
6563.61900 1.23653e-17
6567.83683 1.19617e-17
6572.05466 1.19276e-17
6576.27250 1.20246e-17
6580.49033 1.19411e-17
6584.70816 1.21549e-17
6588.92599 1.23677e-17
6593.14382 1.27039e-17
6597.36166 1.22999e-17
6601.57949 1.19048e-17
6605.79732 1.19565e-17
6610.01515 1.21517e-17
6614.23298 1.20891e-17
6618.45082 1.19407e-17
6622.66865 1.17331e-17
6626.88648 1.17151e-17
6631.10431 1.16275e-17
6635.32214 1.15777e-17
6639.53998 1.16879e-17
6643.75781 1.17290e-17
6647.97564 1.16733e-17
6652.19347 1.15582e-17
6656.41130 1.15235e-17
6660.62914 1.14888e-17
6664.84697 1.14541e-17
6669.06480 1.14195e-17
6673.28263 1.13848e-17
6677.50046 1.13501e-17
6681.71830 1.13155e-17
6685.93613 1.12808e-17
6690.15396 1.12461e-17
6694.37179 1.12611e-17
6698.58962 1.12760e-17
6702.80746 1.12909e-17
6707.02529 1.13059e-17
6711.24312 1.13208e-17
6715.46095 1.13357e-17
6719.68897 1.13506e-17
6723.90680 1.13656e-17
6728.12464 1.13805e-17
6732.34247 1.09085e-17
6736.56030 1.04759e-17
6740.77813 1.05840e-17
6744.99596 1.06973e-17
6749.21380 1.06238e-17
6753.43163 1.04772e-17
6757.64946 1.06175e-17
6761.86729 1.04544e-17
6766.08512 1.06372e-17
6770.30296 1.09656e-17
6774.52079 1.06168e-17
6778.73862 1.05146e-17
6782.95645 1.06842e-17
6787.17428 1.07235e-17
6791.39212 1.04313e-17
6795.60995 1.00416e-17
6799.82778 1.03095e-17
6804.04561 1.05799e-17
6808.26344 1.01778e-17
6812.48128 1.02485e-17
6816.69911 1.04721e-17
6820.91694 1.04110e-17
6825.13477 1.03140e-17
6829.35260 1.02171e-17
6833.57044 1.01202e-17
6837.78827 1.00233e-17
6842.00610 9.92068e-18
6846.22393 9.81808e-18
6850.44176 9.71551e-18
6854.65960 9.61294e-18
6858.87743 9.51039e-18
6863.09526 9.40786e-18
6867.31309 9.30534e-18
6871.53092 9.20283e-18
6875.74876 9.10034e-18
6879.96659 8.99785e-18
6884.18442 9.07942e-18
6888.40225 8.98059e-18
6892.62008 9.24381e-18
6896.83792 9.69547e-18
6901.05575 9.19441e-18
6905.27358 8.89798e-18
6909.49141 8.99302e-18
6913.70924 9.36249e-18
6917.92708 9.73284e-18
6922.14491 9.55173e-18
6926.36274 9.53264e-18
6930.58057 9.37970e-18
6934.79840 9.10136e-18
6939.01624 8.94932e-18
6943.23407 9.14556e-18
6947.45190 9.27114e-18
6951.66973 9.14374e-18
6955.88756 9.30735e-18
6960.10540 9.12724e-18
6964.32323 9.41912e-18
6968.54106 9.21454e-18
6972.75889 9.14557e-18
6976.97672 8.63816e-18
6981.19456 8.65197e-18
6985.41239 9.13457e-18
6989.63022 9.00275e-18
6993.85824 9.19162e-18
6998.07607 9.01901e-18
7002.29390 8.87537e-18
7006.51174 8.82412e-18
7010.72957 8.73572e-18
7014.94740 8.96557e-18
7019.16523 9.01191e-18
7023.38306 8.69536e-18
7027.60090 8.75147e-18
7031.81873 9.24015e-18
7036.03656 9.41494e-18
7040.25439 8.73119e-18
7044.47222 9.14340e-18
7048.69006 9.00762e-18
7052.90789 8.65927e-18
7057.12572 8.31519e-18
7061.34355 8.61730e-18
7065.56138 9.05808e-18
7069.77922 8.90839e-18
7073.99705 8.75947e-18
7078.21488 9.19325e-18
7082.43271 9.40642e-18
7086.65054 9.19368e-18
7090.86838 8.84599e-18
7095.08621 8.59638e-18
7099.30404 8.86123e-18
7103.52187 8.54584e-18
7107.73970 8.55841e-18
7111.95754 8.63177e-18
7116.17537 8.88796e-18
7120.39320 8.74249e-18
7124.61103 8.50650e-18
7128.82886 8.49567e-18
7133.04670 8.71515e-18
7137.26453 8.59917e-18
7141.48236 8.46636e-18
7145.70019 8.93859e-18
7149.91802 9.13813e-18
7154.13586 8.76642e-18
7158.35369 8.79455e-18
7162.57152 8.59563e-18
7166.78935 8.17705e-18
7171.00718 8.60466e-18
7175.22502 8.78714e-18
7179.44285 8.84755e-18
7183.66068 8.44813e-18
7187.87851 8.55126e-18
7192.09634 8.68902e-18
7196.31418 8.70950e-18
7200.53201 8.46430e-18
7204.74984 8.20220e-18
7208.96767 8.12693e-18
7213.18550 8.49768e-18
7217.40334 8.64730e-18
7221.62117 8.56367e-18
7225.83900 8.67762e-18
7230.05683 8.68577e-18
7234.27466 8.53631e-18
7238.49250 8.35111e-18
7242.71033 8.33244e-18
7246.92816 8.46228e-18
7251.14599 8.44042e-18
7255.36382 8.39640e-18
7259.58166 8.47919e-18
7263.80968 8.61878e-18
7268.01732 8.79638e-18
7272.24534 8.65080e-18
7276.46317 8.43946e-18
7280.68100 8.35472e-18
7284.89884 8.06289e-18
7289.11667 8.30490e-18
7293.33450 8.58537e-18
7297.55233 7.96730e-18
7301.77016 7.94018e-18
7305.98800 8.37546e-18
7310.20583 8.36986e-18
7314.42366 8.41315e-18
7318.64149 8.21409e-18
7322.85932 8.12190e-18
7327.07716 8.06483e-18
7331.29499 7.84560e-18
7335.51282 7.63995e-18
7339.73065 7.80692e-18
7343.94848 8.03849e-18
7348.16632 7.69455e-18
7352.38415 7.75313e-18
7356.60198 7.52085e-18
7360.81981 7.51654e-18
7365.03764 7.79311e-18
7369.25548 7.86855e-18
7373.47331 7.80018e-18
7377.69114 7.52380e-18
7381.90897 7.39348e-18
7386.12680 7.51378e-18
7390.34464 7.66350e-18
7394.56247 7.61838e-18
7398.78030 7.41053e-18
7402.99813 7.60964e-18
7407.21596 7.27339e-18
7411.43380 7.14308e-18
7415.65163 7.12958e-18
7419.86946 7.11506e-18
7424.08729 7.15851e-18
7428.30512 7.08952e-18
7432.52296 7.59730e-18
7436.74079 7.67803e-18
7440.95862 7.14135e-18
7445.17645 7.21649e-18
7449.39428 7.28980e-18
7453.61212 7.09929e-18
7457.82995 7.16840e-18
7462.04778 7.36588e-18
7466.26561 7.46038e-18
7470.48344 -6.62696e-20
7472.00146 -6.62696e-20
7473.99830 -6.58440e-20
7475.99515 -6.77956e-20
7478.00219 -6.91695e-20
7479.99904 -6.84945e-20
7481.99588 -6.75381e-20
7484.00292 -6.82328e-20
7485.99977 -7.14906e-20
7487.99662 -7.01860e-20
7490.00365 -6.42720e-20
7492.00050 -6.10415e-20
7493.99735 -6.14278e-20
7496.00438 -6.33651e-20
7498.00123 -6.43642e-20
7499.99808 -6.56337e-20
7501.99493 -6.64770e-20
7504.00196 -6.69033e-20
7505.99881 -6.71380e-20
7507.99566 -6.72859e-20
7510.00270 -6.75373e-20
7511.99954 -6.81997e-20
7513.99639 -6.94453e-20
7516.00343 -6.94222e-20
7518.00028 -6.78139e-20
7519.99712 -6.68356e-20
7522.00416 -6.62949e-20
7524.00101 -6.59190e-20
7525.99786 -6.58958e-20
7527.99470 -6.61382e-20
7530.00174 -6.56718e-20
7531.99859 -6.39020e-20
7533.99544 -6.35492e-20
7536.00247 -6.44142e-20
7537.99932 -6.50928e-20
7539.99617 -6.51608e-20
7542.00320 -6.51429e-20
7544.00005 -6.52954e-20
7545.99690 -6.59970e-20
7548.00394 -6.53367e-20
7550.00078 -6.29422e-20
7551.99763 -6.14629e-20
7554.00467 -6.07261e-20
7556.00152 -6.08558e-20
7557.99836 -6.25529e-20
7559.99521 -6.67466e-20
7562.00225 -6.70974e-20
7563.99910 -6.37784e-20
7565.99594 -6.19702e-20
7568.00298 -6.19544e-20
7569.99983 -6.22184e-20
7571.99668 -6.10119e-20
7574.00371 -5.89198e-20
7576.00056 -5.90329e-20
7577.99741 -6.23759e-20
7580.00444 -6.27258e-20
7582.00129 -5.93921e-20
7583.99814 -5.65990e-20
7585.99499 -5.69225e-20
7588.00202 -5.93079e-20
7589.99887 -6.05874e-20
7591.99572 -6.16918e-20
7594.00276 -6.26477e-20
7595.99960 -6.25068e-20
7597.99645 -6.31900e-20
7600.00349 -6.64001e-20
7602.00034 -7.05214e-20
7603.99718 -7.00302e-20
7606.00422 -6.46702e-20
7608.00107 -6.26265e-20
7609.99792 -6.18232e-20
7612.00495 -6.18414e-20
7614.00180 -6.28859e-20
7615.99865 -6.43260e-20
7617.99550 -6.51658e-20
7620.00253 -6.41117e-20
7621.99938 -6.71033e-20
7623.99623 -7.69472e-20
7626.00326 -8.04214e-20
7628.00011 -7.52586e-20
7629.99696 -6.77645e-20
7632.00400 -6.42560e-20
7634.00084 -6.20910e-20
7635.99769 -6.00529e-20
7638.00473 -5.77232e-20
7640.00158 -5.77005e-20
7641.99842 -6.10513e-20
7643.99527 -6.45013e-20
7646.00231 -6.49773e-20
7647.99916 -6.39813e-20
7649.99600 -6.31331e-20
7652.00304 -6.04524e-20
7653.99989 -5.96601e-20
7655.99674 -6.04868e-20
7658.00377 -6.17881e-20
7660.00062 -6.33907e-20
7661.99747 -6.54326e-20
7664.00450 -6.56144e-20
7666.00135 -6.44148e-20
7667.99820 -6.29208e-20
7669.99505 -6.06104e-20
7672.00208 -5.84463e-20
7673.99893 -5.64500e-20
7675.99578 -5.48924e-20
7678.00282 -5.46344e-20
7679.99966 -5.58140e-20
7681.99651 -5.78801e-20
7684.00355 -6.16828e-20
7686.00040 -6.46730e-20
7687.99724 -6.69607e-20
7690.00428 -6.85059e-20
7692.00113 -6.83468e-20
7693.99798 -6.62185e-20
7695.99482 -6.55252e-20
7698.00186 -6.56453e-20
7699.99871 -6.54943e-20
7701.99556 -6.54505e-20
7704.00259 -6.49769e-20
7705.99944 -6.30863e-20
7707.99629 -5.97886e-20
7710.00332 -6.06887e-20
7712.00017 -6.69416e-20
7713.99702 -6.85851e-20
7716.00406 -6.58885e-20
7718.00090 -6.31823e-20
7719.99775 -6.20631e-20
7722.00479 -6.14232e-20
7724.00164 -6.23737e-20
7725.99848 -6.61784e-20
7727.99533 -6.71578e-20
7730.00237 -6.60481e-20
7731.99922 -6.48759e-20
7733.99606 -6.34216e-20
7736.00310 -6.22855e-20
7737.99995 -6.30881e-20
7739.99680 -6.61301e-20
7742.00383 -6.82033e-20
7744.00068 -7.15864e-20
7745.99753 -7.23261e-20
7748.00456 -6.90811e-20
7750.00141 -6.42421e-20
7751.99826 -6.16991e-20
7753.99511 -5.94330e-20
7756.00214 -6.02626e-20
7757.99899 -6.62173e-20
7759.99584 -6.92303e-20
7762.00288 -6.94005e-20
7763.99972 -6.79031e-20
7765.99657 -6.42496e-20
7768.00361 -5.75363e-20
7770.00046 -5.61620e-20
7771.99730 -5.86948e-20
7774.00434 -6.06968e-20
7776.00119 -6.36769e-20
7777.99804 -6.58355e-20
7780.00507 -6.61218e-20
7782.00192 -6.48850e-20
7783.99877 -6.39512e-20
7785.99562 -6.17866e-20
7788.00265 -6.10598e-20
7789.99950 -6.16405e-20
7791.99635 -6.27740e-20
7794.00338 -6.47984e-20
7796.00023 -6.73601e-20
7797.99708 -6.74204e-20
7800.00412 -6.37274e-20
7802.00096 -6.33935e-20
7803.99781 -6.54765e-20
7806.00485 -6.67378e-20
7808.00170 -6.66090e-20
7809.99854 -6.54365e-20
7811.99539 -6.47252e-20
7814.00243 -6.30742e-20
7815.99928 -6.47031e-20
7817.99612 -7.05480e-20
7820.00316 -7.37746e-20
7822.00001 -7.41539e-20
7823.99686 -7.28627e-20
7826.00389 -6.93232e-20
7828.00074 -6.23914e-20
7829.99759 -6.01255e-20
7832.00462 -6.06083e-20
7834.00147 -6.20914e-20
7835.99832 -6.63040e-20
7837.99517 -6.97324e-20
7840.00220 -6.87398e-20
7841.99905 -6.45970e-20
7843.99590 -6.18466e-20
7846.00294 -5.78922e-20
7847.99978 -5.64187e-20
7849.99663 -5.62528e-20
7852.00367 -5.81756e-20
7854.00052 -6.33175e-20
7855.99736 -7.00817e-20
7858.00440 -7.24041e-20
7860.00125 -7.22599e-20
7861.99810 -7.03164e-20
7863.99494 -6.48146e-20
7866.00198 -6.02814e-20
7867.99883 -5.80844e-20
7869.99568 -5.71784e-20
7872.00271 -5.69787e-20
7873.99956 -5.88255e-20
7875.99641 -5.92862e-20
7878.00344 -5.90002e-20
7880.00029 -5.92956e-20
7881.99714 -6.01077e-20
7884.00418 -6.08497e-20
7886.00102 -6.14811e-20
7887.99787 -6.14702e-20
7889.99472 -6.21980e-20
7892.00176 -6.41141e-20
7893.99860 -6.50479e-20
7895.99545 -6.58255e-20
7898.00249 -6.58252e-20
7899.99934 -6.37028e-20
7901.99618 -5.94184e-20
7904.00322 -5.72382e-20
7906.00007 -5.58515e-20
7907.99692 -5.62395e-20
7910.00395 -5.89012e-20
7912.00080 -6.15942e-20
7913.99765 -6.34195e-20
7916.00468 -6.48819e-20
7918.00153 -6.41977e-20
7919.99838 -6.04040e-20
7921.99523 -5.93767e-20
7924.00226 -5.93312e-20
7925.99911 -6.10063e-20
7927.99596 -6.56573e-20
7930.00300 -7.17427e-20
7931.99984 -7.22997e-20
7933.99669 -6.76713e-20
7936.00373 -6.50219e-20
7938.00058 -6.05796e-20
7939.99742 -5.85551e-20
7942.00446 -6.07016e-20
7944.00131 -6.44652e-20
7945.99816 -6.55638e-20
7947.99500 -6.57447e-20
7950.00204 -6.53676e-20
7951.99889 -6.34253e-20
7953.99574 -6.29333e-20
7956.00277 -6.55288e-20
7957.99962 -6.78270e-20
7959.99647 -6.56750e-20
7962.00350 -5.99993e-20
7964.00035 -5.87645e-20
7965.99720 -6.02848e-20
7968.00424 -6.09776e-20
7970.00108 -6.13701e-20
7971.99793 -6.19458e-20
7973.99478 -6.24436e-20
7976.00182 -6.30102e-20
7977.99866 -6.26199e-20
7979.99551 -6.06321e-20
7982.00255 -5.97873e-20
7983.99940 -5.91681e-20
7985.99624 -5.96304e-20
7988.00328 -6.29167e-20
7990.00013 -6.77973e-20
7991.99698 -6.77948e-20
7994.00401 -6.35018e-20
7996.00086 -6.08060e-20
7997.99771 -5.67996e-20
8000.00474 -5.47308e-20
8002.00159 -5.64896e-20
8003.99844 -5.98894e-20
8005.99529 -6.19254e-20
8008.00232 -6.48447e-20
8009.99917 -6.55071e-20
8011.99602 -6.43960e-20
8014.00306 -6.24575e-20
8015.99990 -5.96105e-20
8017.99675 -5.63155e-20
8020.00379 -5.36283e-20
8022.00064 -4.98909e-20
8023.99748 -5.10948e-20
8026.00452 -5.92315e-20
8028.00137 -6.29087e-20
8029.99822 -6.03978e-20
8031.99506 -5.72961e-20
8034.00210 -5.84313e-20
8035.99895 -6.17594e-20
8037.99580 -6.21633e-20
8040.00283 -6.01350e-20
8041.99968 -5.94212e-20
8043.99653 -5.99076e-20
8046.00356 -6.06251e-20
8048.00041 -6.09074e-20
8049.99726 -6.11889e-20
8052.00430 -6.21649e-20
8054.00114 -6.50397e-20
8055.99799 -6.53795e-20
8057.99484 -6.32021e-20
8060.00188 -6.14318e-20
8061.99872 -6.08422e-20
8063.99557 -6.06312e-20
8066.00261 -6.05383e-20
8067.99946 -6.11930e-20
8069.99630 -6.14438e-20
8072.00334 -6.11201e-20
8074.00019 -6.15893e-20
8075.99704 -6.44997e-20
8078.00407 -6.75896e-20
8080.00092 -6.59522e-20
8081.99777 -5.97248e-20
8084.00480 -5.78584e-20
8086.00165 -5.87750e-20
8087.99850 -5.91428e-20
8089.99535 -5.89856e-20
8092.00238 -5.87220e-20
8093.99923 -5.77550e-20
8095.99608 -5.60273e-20
8098.00312 -5.59246e-20
8099.99996 -5.71741e-20
8101.99681 -5.83148e-20
8104.00385 -5.97981e-20
8106.00070 -6.12014e-20
8107.99754 -6.19185e-20
8110.00458 -6.22773e-20
8112.00143 -6.30535e-20
8113.99828 -6.52957e-20
8115.99512 -6.50784e-20
8118.00216 -6.20630e-20
8119.99901 -5.93267e-20
8121.99586 -5.87601e-20
8124.00289 -5.89387e-20
8125.99974 -5.69304e-20
8127.99659 -5.14181e-20
8130.00362 -5.07837e-20
8132.00047 -5.41284e-20
8133.99732 -5.70196e-20
8136.00436 -5.85611e-20
8138.00120 -5.97826e-20
8139.99805 -6.13708e-20
8141.99490 -6.32530e-20
8144.00194 -6.35714e-20
8145.99878 -6.18439e-20
8147.99563 -6.13522e-20
8150.00267 -6.27286e-20
8151.99952 -6.46465e-20
8153.99636 -6.52824e-20
8156.00340 -6.53946e-20
8158.00025 -6.51819e-20
8159.99710 -6.46700e-20
8162.00413 -6.29898e-20
8164.00098 -5.82018e-20
8165.99783 -5.47998e-20
8167.99468 -5.80388e-20
8170.00171 -6.62169e-20
8171.99856 -6.86329e-20
8173.99541 -6.78137e-20
8176.00244 -6.77292e-20
8177.99929 -6.78134e-20
8179.99614 -6.74568e-20
8182.00318 -6.62820e-20
8184.00002 -6.41839e-20
8185.99687 -6.14455e-20
8188.00391 -5.57126e-20
8190.00076 -5.46085e-20
8191.99760 -5.76752e-20
8194.00464 -6.10658e-20
8196.00149 -6.43230e-20
8197.99834 -6.73905e-20
8199.99518 -6.59032e-20
8202.00222 -5.83274e-20
8203.99907 -5.67655e-20
8205.99592 -5.92120e-20
8208.00295 -6.08093e-20
8209.99980 -6.13792e-20
8211.99665 -6.12374e-20
8214.00368 -5.97021e-20
8216.00053 -5.63859e-20
8217.99738 -5.62125e-20
8220.00442 -5.85850e-20
8222.00126 -6.08995e-20
8223.99811 -6.35807e-20
8225.99496 -6.60138e-20
8228.00200 -6.76738e-20
8229.99884 -6.92099e-20
8231.99569 -6.84368e-20
8234.00273 -6.54874e-20
8235.99958 -6.33041e-20
8237.99642 -6.07297e-20
8240.00346 -5.90300e-20
8242.00031 -5.92896e-20
8243.99716 -6.10331e-20
8246.00419 -6.10910e-20
8248.00104 -6.06215e-20
8249.99789 -6.12706e-20
8252.00492 -6.20948e-20
8254.00177 -6.31147e-20
8255.99862 -6.57921e-20
8257.99547 -6.80376e-20
8260.00250 -6.65981e-20
8261.99935 -6.37392e-20
8263.99620 -6.13866e-20
8266.00324 -5.93751e-20
8268.00008 -5.83099e-20
8269.99693 -5.83837e-20
8272.00397 -5.93420e-20
8274.00082 -6.09181e-20
8275.99766 -6.38071e-20
8278.00470 -6.53534e-20
8280.00155 -6.71928e-20
8281.99840 -6.69383e-20
8283.99524 -6.34194e-20
8286.00228 -5.91938e-20
8287.99913 -5.72868e-20
8289.99598 -5.63480e-20
8292.00301 -5.67066e-20
8293.99986 -5.93848e-20
8295.99671 -6.09082e-20
8298.00374 -6.10696e-20
8300.00059 -6.14100e-20
8301.99744 -6.32985e-20
8304.00448 -6.62369e-20
8306.00132 -6.71853e-20
8307.99817 -6.66875e-20
8309.99502 -6.63062e-20
8312.00206 -6.53765e-20
8313.99890 -6.47365e-20
8315.99575 -6.53251e-20
8318.00279 -6.64329e-20
8319.99964 -6.48183e-20
8321.99648 -5.90820e-20
8324.00352 -5.77890e-20
8326.00037 -5.96160e-20
8327.99722 -6.16830e-20
8330.00425 -6.35986e-20
8332.00110 -6.54831e-20
8333.99795 -6.60850e-20
8335.99480 -6.61894e-20
8338.00183 -6.45696e-20
8339.99868 -5.91783e-20
8341.99553 -5.69588e-20
8344.00256 -5.89718e-20
8345.99941 -6.32373e-20
8347.99626 -6.86042e-20
8350.00330 -7.75815e-20
8352.00014 -7.87992e-20
8353.99699 -7.28632e-20
8356.00403 -6.88294e-20
8358.00088 -6.63739e-20
8359.99772 -6.42734e-20
8362.00476 -6.19153e-20
8364.00161 -5.93843e-20
8365.99846 -5.87666e-20
8367.99530 -5.95064e-20
8370.00234 -6.11719e-20
8371.99919 -6.48662e-20
8373.99604 -6.81022e-20
8376.00307 -6.94888e-20
8377.99992 -6.97672e-20
8379.99677 -6.82203e-20
8382.00380 -6.31542e-20
8384.00065 -6.09725e-20
8385.99750 -6.00187e-20
8388.00454 -6.03936e-20
8390.00138 -6.24303e-20
8391.99823 -6.57493e-20
8393.99508 -6.90695e-20
8396.00212 -7.43613e-20
8397.99896 -7.62199e-20
8399.99581 -7.62865e-20
8402.00285 -7.44953e-20
8403.99970 -6.96409e-20
8405.99654 -6.38022e-20
8408.00358 -6.13674e-20
8410.00043 -6.11432e-20
8411.99728 -6.04722e-20
8414.00431 -6.02663e-20
8416.00116 -6.02764e-20
8417.99801 -5.98990e-20
8419.99486 -6.04125e-20
8422.00189 -6.37722e-20
8423.99874 -6.98979e-20
8425.99559 -7.28520e-20
8428.00262 -7.56894e-20
8429.99947 -7.49302e-20
8431.99632 -6.85808e-20
8434.00336 -6.24989e-20
8436.00020 -6.11450e-20
8437.99705 -6.23948e-20
8440.00409 -6.35568e-20
8442.00094 -6.72635e-20
8443.99778 -6.79669e-20
8446.00482 -6.51793e-20
8448.00167 -6.33218e-20
8449.99852 -6.51053e-20
8451.99536 -6.85148e-20
8454.00240 -6.82475e-20
8455.99925 -6.40330e-20
8457.99610 -6.32417e-20
8460.00313 -6.40928e-20
8461.99998 -6.56217e-20
8463.99683 -6.87128e-20
8466.00386 -7.18551e-20
8468.00071 -7.03270e-20
8469.99756 -6.35822e-20
8472.00460 -6.15548e-20
8474.00144 -6.19946e-20
8475.99829 -6.26079e-20
8477.99514 -6.37721e-20
8480.00218 -6.48308e-20
8481.99902 -6.41691e-20
8483.99587 -6.19078e-20
8486.00291 -6.14259e-20
8487.99976 -6.19678e-20
8489.99660 -6.25469e-20
8492.00364 -6.28955e-20
8494.00049 -6.38597e-20
8495.99734 -6.65986e-20
8498.00437 -7.09412e-20
8500.00122 -7.20906e-20
8501.99807 -7.08429e-20
8504.00510 -6.97744e-20
8506.00195 -6.79378e-20
8507.99880 -6.64310e-20
8509.99565 -6.63053e-20
8512.00268 -6.69137e-20
8513.99953 -6.55189e-20
8515.99638 -6.10051e-20
8518.00342 -6.02742e-20
8520.00026 -6.30382e-20
8521.99711 -6.52147e-20
8524.00415 -6.55072e-20
8526.00100 -6.49488e-20
8527.99784 -6.42209e-20
8529.99469 -6.33493e-20
8532.00173 -6.12743e-20
8533.99858 -5.58616e-20
8535.99542 -5.40561e-20
8538.00246 -5.83989e-20
8539.99931 -6.46603e-20
8541.99616 -6.66434e-20
8544.00319 -6.61037e-20
8546.00004 -6.68652e-20
8547.99689 -6.80096e-20
8550.00392 -6.86954e-20
8552.00077 -6.90436e-20
8553.99762 -6.89329e-20
8556.00466 -6.80776e-20
8558.00150 -6.65227e-20
8559.99835 -6.49851e-20
8561.99520 -6.16112e-20
8564.00224 -6.14614e-20
8565.99908 -6.57861e-20
8567.99593 -6.96621e-20
8570.00297 -6.98796e-20
8571.99982 -6.80713e-20
8573.99666 -6.49875e-20
8576.00370 -5.75946e-20
8578.00055 -5.49443e-20
8579.99740 -5.57766e-20
8582.00443 -5.78098e-20
8584.00128 -6.07796e-20
8585.99813 -6.46006e-20
8587.99498 -6.63902e-20
8590.00201 -6.64835e-20
8591.99886 -6.73442e-20
8593.99571 -6.88376e-20
8596.00274 -6.93194e-20
8597.99959 -6.82091e-20
8599.99644 -6.62611e-20
8602.00348 -6.45633e-20
8604.00032 -6.23938e-20
8605.99717 -6.10574e-20
8608.00421 -6.02498e-20
8610.00106 -5.96842e-20
8611.99790 -5.92900e-20
8613.99475 -5.92285e-20
8616.00179 -5.98205e-20
8617.99864 -6.12725e-20
8619.99548 -6.13070e-20
8622.00252 -5.98013e-20
8623.99937 -5.93810e-20
8625.99622 -5.98886e-20
8628.00325 -6.09153e-20
8630.00010 -6.21668e-20
8631.99695 -6.37174e-20
8634.00398 -6.66705e-20
8636.00083 -7.27794e-20
8637.99768 -7.52283e-20
8640.00472 -7.55533e-20
8642.00156 -7.34532e-20
8643.99841 -6.71868e-20
8645.99526 -5.81582e-20
8648.00230 -5.58053e-20
8649.99914 -5.81174e-20
8651.99599 -6.05804e-20
8654.00303 -6.67125e-20
8655.99988 -7.03853e-20
8657.99672 -6.95425e-20
8660.00376 -6.61153e-20
8662.00061 -6.20894e-20
8663.99746 -5.37644e-20
8665.99430 -5.27187e-20
8668.00134 -5.81465e-20
8669.99819 -6.23097e-20
8671.99504 -6.50074e-20
8674.00207 -6.64984e-20
8675.99892 -6.52177e-20
8677.99577 -6.10910e-20
8680.00280 -5.80244e-20
8681.99965 -5.34856e-20
8683.99650 -5.13789e-20
8686.00354 -5.15431e-20
8688.00038 -5.35500e-20
8689.99723 -5.80146e-20
8692.00427 -6.54615e-20
8694.00112 -6.78443e-20
8695.99796 -6.65315e-20
8698.00500 -6.55981e-20
8700.00185 -6.41347e-20
8701.99870 -6.26005e-20
8703.99554 -6.15051e-20
8706.00258 -6.05805e-20
8707.99943 -5.90844e-20
8709.99628 -5.58875e-20
8712.00331 -5.55474e-20
8714.00016 -5.77286e-20
8715.99701 -6.03455e-20
8718.00404 -6.33848e-20
8720.00089 -6.64826e-20
8721.99774 -6.61250e-20
8724.00478 -6.20658e-20
8726.00162 -5.98086e-20
8727.99847 -5.67597e-20
8729.99532 -5.55754e-20
8732.00236 -5.75234e-20
8733.99920 -6.06829e-20
8735.99605 -6.18774e-20
8738.00309 -6.26152e-20
8739.99994 -6.17458e-20
8741.99678 -5.81813e-20
8744.00382 -5.61835e-20
8746.00067 -5.52454e-20
8747.99752 -5.59473e-20
8750.00455 -6.01873e-20
8752.00140 -6.82810e-20
8753.99825 -7.18520e-20
8755.99510 -7.29154e-20
8758.00213 -7.36477e-20
8759.99898 -7.30978e-20
8761.99583 -7.27468e-20
8764.00286 -7.46431e-20
8765.99971 -7.80946e-20
8767.99656 -7.58726e-20
8770.00360 -6.75027e-20
8772.00044 -6.24692e-20
8773.99729 -5.83464e-20
8776.00433 -5.59893e-20
8778.00118 -5.62274e-20
8779.99802 -5.84466e-20
8782.00506 -6.07571e-20
8784.00191 -6.61392e-20
8785.99876 -6.68586e-20
8787.99560 -6.27967e-20
8790.00264 -6.02916e-20
8791.99949 -6.15478e-20
8793.99634 -6.41434e-20
8796.00337 -6.46655e-20
8798.00022 -6.47365e-20
8799.99707 -6.30800e-20
8802.00410 -5.86953e-20
8804.00095 -5.55956e-20
8805.99780 -5.36747e-20
8807.99465 -5.30560e-20
8810.00168 -5.50940e-20
8811.99853 -6.03326e-20
8813.99538 -6.22499e-20
8816.00242 -6.11259e-20
8817.99926 -6.24165e-20
8819.99611 -6.64134e-20
8822.00315 -7.11712e-20
8824.00000 -7.59868e-20
8825.99684 -8.18153e-20
8828.00388 -8.11988e-20
8830.00073 -7.36978e-20
8831.99758 -6.86061e-20
8834.00461 -6.33539e-20
8836.00146 -5.99112e-20
8837.99831 -6.00875e-20
8840.00534 -6.28376e-20
8842.00219 -6.48572e-20
8843.99904 -6.98156e-20
8845.99589 -6.94164e-20
8848.00292 -6.32928e-20
8849.99977 -5.81274e-20
8851.99662 -5.62756e-20
8854.00366 -5.58363e-20
8856.00050 -5.49561e-20
8857.99735 -5.27610e-20
8860.00439 -5.50586e-20
8862.00124 -6.31603e-20
8863.99808 -6.84446e-20
8865.99493 -6.89459e-20
8868.00197 -6.76326e-20
8869.99882 -6.76907e-20
8871.99566 -6.74997e-20
8874.00270 -6.87360e-20
8875.99955 -7.22955e-20
8877.99640 -7.39518e-20
8880.00343 -7.40696e-20
8882.00028 -7.24979e-20
8883.99713 -6.79035e-20
8886.00416 -5.98182e-20
8888.00101 -5.69751e-20
8889.99786 -5.60846e-20
8892.00490 -5.84944e-20
8894.00174 -6.76416e-20
8895.99859 -7.49181e-20
8897.99544 -7.34973e-20
8900.00248 -6.66503e-20
8901.99932 -6.17796e-20
8903.99617 -5.45426e-20
8906.00321 -5.07922e-20
8908.00006 -4.89723e-20
8909.99690 -4.95864e-20
8912.00394 -5.41899e-20
8914.00079 -6.12152e-20
8915.99764 -6.33569e-20
8918.00467 -6.33421e-20
8920.00152 -6.09372e-20
8921.99837 -5.29449e-20
8923.99522 -4.83545e-20
8926.00225 -4.99439e-20
8927.99910 -5.43967e-20
8929.99595 -5.75299e-20
8932.00298 -6.20706e-20
8933.99983 -6.32694e-20
8935.99668 -6.06686e-20
8938.00372 -5.98583e-20
8940.00056 -6.19741e-20
8941.99741 -6.44571e-20
8944.00445 -6.44765e-20
8946.00130 -6.28690e-20
8947.99814 -6.19748e-20
8949.99499 -6.16893e-20
8952.00203 -6.00336e-20
8953.99888 -5.66590e-20
8955.99572 -5.29030e-20
8958.00276 -4.92224e-20
8959.99961 -4.50241e-20
8961.99646 -4.58629e-20
8964.00349 -5.35077e-20
8966.00034 -5.63229e-20
8967.99719 -5.53223e-20
8970.00422 -5.38604e-20
8972.00107 -5.32798e-20
8973.99792 -5.28481e-20
8976.00496 -5.33595e-20
8978.00180 -5.44456e-20
8979.99865 -5.63933e-20
8981.99550 -5.97228e-20
8984.00254 -6.28319e-20
8985.99938 -6.57755e-20
8987.99623 -6.81980e-20
8990.00327 -6.78321e-20
8992.00012 -6.46585e-20
8993.99696 -6.20681e-20
8996.00400 -5.72335e-20
8998.00085 -5.52865e-20
8999.99770 -5.75990e-20
9001.99454 -6.17918e-20
9004.00158 -6.50492e-20
9005.99843 -6.89936e-20
9007.99528 -7.11240e-20
9010.00231 -7.13052e-20
9011.99916 -7.23072e-20
9013.99601 -7.51537e-20
9016.00304 -7.71326e-20
9017.99989 -7.50728e-20
9019.99674 -6.96806e-20
9022.00378 -6.78480e-20
9024.00062 -6.85937e-20
9025.99747 -6.78596e-20
9028.00451 -6.62121e-20
9030.00136 -6.39630e-20
9031.99820 -6.04347e-20
9033.99505 -5.59322e-20
9036.00209 -5.61493e-20
9037.99894 -6.27856e-20
9039.99578 -6.38010e-20
9042.00282 -6.08220e-20
9043.99967 -5.72718e-20
9045.99652 -5.35974e-20
9048.00355 -4.98655e-20
9050.00040 -4.97065e-20
9051.99725 -5.34273e-20
9054.00428 -5.52569e-20
9056.00113 -5.62564e-20
9057.99798 -5.82531e-20
9059.99483 -6.25268e-20
9062.00186 -6.71145e-20
9063.99871 -6.82204e-20
9065.99556 -6.67925e-20
9068.00260 -6.53480e-20
9069.99944 -6.13232e-20
9071.99629 -5.99613e-20
9074.00333 -6.29194e-20
9076.00018 -6.63436e-20
9077.99702 -6.57526e-20
9080.00406 -6.26064e-20
9082.00091 -6.02758e-20
9083.99776 -5.65260e-20
9085.99460 -5.48859e-20
9088.00164 -5.62878e-20
9089.99849 -5.74655e-20
9091.99534 -5.52412e-20
9094.00237 -5.08025e-20
9095.99922 -5.14745e-20
9097.99607 -5.66974e-20
9100.00310 -6.02639e-20
9101.99995 -6.50383e-20
9103.99680 -6.71702e-20
9106.00384 -6.36567e-20
9108.00068 -5.66534e-20
9109.99753 -5.31673e-20
9112.00457 -4.98174e-20
9114.00142 -4.95175e-20
9115.99826 -5.31000e-20
9117.99511 -5.60823e-20
9120.00215 -5.71834e-20
9121.99900 -5.76191e-20
9123.99584 -5.84530e-20
9126.00288 -5.94671e-20
9127.99973 -5.98971e-20
9129.99658 -5.93953e-20
9132.00361 -5.96321e-20
9134.00046 -6.17045e-20
9135.99731 -6.35199e-20
9138.00434 -6.17651e-20
9140.00119 -5.68331e-20
9141.99804 -5.43344e-20
9143.99489 -5.12068e-20
9146.00192 -5.13223e-20
9147.99877 -5.61852e-20
9149.99562 -6.16222e-20
9152.00266 -6.39281e-20
9153.99950 -6.48337e-20
9155.99635 -6.41544e-20
9158.00339 -6.06735e-20
9160.00024 -5.84366e-20
9161.99708 -5.66017e-20
9164.00412 -5.53961e-20
9166.00097 -5.50272e-20
9167.99782 -5.53850e-20
9170.00485 -5.67267e-20
9172.00170 -5.96397e-20
9173.99855 -6.18888e-20
9175.99540 -6.49578e-20
9178.00243 -6.64413e-20
9179.99928 -6.50020e-20
9181.99613 -6.19042e-20
9184.00316 -5.99295e-20
9186.00001 -5.72832e-20
9187.99686 -5.67407e-20
9190.00390 -5.91676e-20
9192.00074 -5.97944e-20
9193.99759 -5.69725e-20
9196.00463 -5.32425e-20
9198.00148 -5.23455e-20
9199.99832 -5.32897e-20
9201.99517 -5.36190e-20
9204.00221 -5.38426e-20
9205.99906 -5.47249e-20
9207.99590 -5.64121e-20
9210.00294 -5.84986e-20
9211.99979 -6.09984e-20
9213.99664 -6.45994e-20
9216.00367 -6.38330e-20
9218.00052 -5.66041e-20
9219.99737 -5.49691e-20
9222.00440 -5.97995e-20
9224.00125 -6.47444e-20
9225.99810 -6.51724e-20
9227.99495 -6.32407e-20
9230.00198 -6.41173e-20
9231.99883 -6.71683e-20
9233.99568 -6.87086e-20
9236.00272 -6.99796e-20
9237.99956 -6.99555e-20
9239.99641 -6.73895e-20
9242.00345 -6.33830e-20
9244.00030 -6.24358e-20
9245.99714 -6.47569e-20
9248.00418 -6.41344e-20
9250.00103 -6.17952e-20
9251.99788 -5.93539e-20
9254.00491 -5.67442e-20
9256.00176 -5.42890e-20
9257.99861 -5.36973e-20
9259.99546 -5.54897e-20
9262.00249 -5.46422e-20
9263.99934 -5.13018e-20
9265.99619 -4.95169e-20
9268.00322 -4.99018e-20
9270.00007 -5.10809e-20
9271.99692 -5.18680e-20
9274.00396 -5.30615e-20
9276.00080 -5.28154e-20
9277.99765 -5.00756e-20
9279.99450 -4.98608e-20
9282.00154 -5.26884e-20
9283.99838 -5.60768e-20
9285.99523 -5.80184e-20
9288.00227 -5.93474e-20
9289.99912 -6.16378e-20
9291.99596 -6.68378e-20
9294.00300 -6.70506e-20
9295.99985 -5.88165e-20
9297.99670 -5.45698e-20
9300.00373 -6.32745e-20
9302.00058 -7.94132e-20
9303.99743 -8.54473e-20
9306.00446 -9.26837e-20
9308.00131 -8.41646e-20
9309.99816 -5.08092e-20
9312.00520 -2.89342e-20
9314.00204 -3.37708e-20
9315.99889 -5.07463e-20
9317.99574 -5.56760e-20
9320.00278 -5.48571e-20
9321.99962 -5.89690e-20
9323.99647 -6.56071e-20
9326.00351 -7.24484e-20
9328.00036 -8.13822e-20
9329.99720 -8.88939e-20
9332.00424 -8.73180e-20
9334.00109 -7.71294e-20
9335.99794 -7.19825e-20
9337.99478 -6.64215e-20
9340.00182 -6.39216e-20
9341.99867 -6.68289e-20
9343.99552 -6.95493e-20
9346.00255 -6.54008e-20
9347.99940 -5.60860e-20
9349.99625 -5.32474e-20
9352.00328 -5.42189e-20
9354.00013 -5.53587e-20
9355.99698 -5.71275e-20
9358.00402 -5.98736e-20
9360.00086 -6.41944e-20
9361.99771 -6.98411e-20
9364.00475 -7.28229e-20
9366.00160 -7.42822e-20
9367.99844 -7.49933e-20
9369.99529 -7.29281e-20
9372.00233 -7.28633e-20
9373.99918 -7.84192e-20
9375.99602 -8.63241e-20
9378.00306 -8.65718e-20
9379.99991 -8.18263e-20
9381.99676 -7.55613e-20
9384.00379 -6.15654e-20
9386.00064 -5.41922e-20
9387.99749 -5.94165e-20
9390.00452 -6.89570e-20
9392.00137 -6.89200e-20
9393.99822 -6.26843e-20
9395.99507 -5.95610e-20
9398.00210 -5.54693e-20
9399.99895 -5.39350e-20
9401.99580 -5.69092e-20
9404.00284 -6.01883e-20
9405.99968 -5.82219e-20
9407.99653 -5.23946e-20
9410.00357 -4.95005e-20
9412.00042 -4.72729e-20
9413.99726 -4.59420e-20
9416.00430 -4.50840e-20
9418.00115 -4.55974e-20
9419.99800 -4.88292e-20
9421.99484 -5.44488e-20
9424.00188 -5.67690e-20
9425.99873 -5.64782e-20
9427.99558 -5.75470e-20
9430.00261 -5.81919e-20
9431.99946 -6.07855e-20
9433.99631 -6.63466e-20
9436.00334 -7.43379e-20
9438.00019 -8.59086e-20
9439.99704 -1.11326e-19
9442.00408 -1.14868e-19
9444.00092 -9.98049e-20
9445.99777 -8.40997e-20
9448.00481 -7.00550e-20
9450.00166 -5.71950e-20
9451.99850 -5.49856e-20
9453.99535 -6.60685e-20
9456.00239 -6.55928e-20
9457.99924 -5.86671e-20
9459.99608 -5.22940e-20
9462.00312 -4.63618e-20
9463.99997 -4.11178e-20
9465.99682 -3.82657e-20
9468.00385 -3.60783e-20
9470.00070 -4.02404e-20
9471.99755 -5.32799e-20
9474.00458 -6.21383e-20
9476.00143 -6.85970e-20
9477.99828 -7.15072e-20
9479.99513 -6.72847e-20
9482.00216 -5.61766e-20
9483.99901 -5.27557e-20
9485.99586 -5.47202e-20
9488.00290 -5.40834e-20
9489.99974 -5.11638e-20
9491.99659 -4.86786e-20
9494.00363 -4.76003e-20
9496.00048 -4.74193e-20
9497.99732 -5.12039e-20
9500.00436 -6.01012e-20
9502.00121 -6.68118e-20
9503.99806 -7.55616e-20
9505.99490 -8.00779e-20
9508.00194 -7.72628e-20
9509.99879 -6.97846e-20
9511.99564 -6.25153e-20
9514.00267 -5.01287e-20
9515.99952 -4.53011e-20
9517.99637 -4.54733e-20
9520.00340 -4.72023e-20
9522.00025 -5.04769e-20
9523.99710 -5.50337e-20
9526.00414 -5.95785e-20
9528.00098 -6.69070e-20
9529.99783 -6.62123e-20
9532.00487 -5.59738e-20
9534.00172 -5.06322e-20
9535.99856 -5.28255e-20
9537.99541 -5.54128e-20
9540.00245 -4.96845e-20
9541.99930 -3.60978e-20
9543.99614 -3.99825e-20
9546.00318 -6.17654e-20
9548.00003 -7.45883e-20
9549.99688 -8.24569e-20
9552.00391 -8.52503e-20
9554.00076 -8.07019e-20
9555.99761 -6.96352e-20
9557.99446 -5.97501e-20
9560.00149 -4.03409e-20
9561.99834 -3.75470e-20
9563.99519 -5.22594e-20
9566.00222 -6.73369e-20
9567.99907 -7.70401e-20
9569.99592 -8.43342e-20
9572.00296 -8.15885e-20
9573.99980 -6.55180e-20
9575.99665 -5.64671e-20
9578.00369 -4.84255e-20
9580.00054 -4.17796e-20
9581.99738 -3.55349e-20
9584.00442 -3.12967e-20
9586.00127 -3.39549e-20
9587.99812 -4.51377e-20
9590.00515 -5.01871e-20
9592.00200 -5.30030e-20
9593.99885 -5.52799e-20
9595.99570 -5.68648e-20
9598.00273 -5.80026e-20
9599.99958 -5.93950e-20
9601.99643 -6.07570e-20
9604.00346 -6.20294e-20
9606.00031 -6.48557e-20
9607.99716 -6.42949e-20
9610.00420 -6.03074e-20
9612.00104 -5.42102e-20
9613.99789 -4.49706e-20
9615.99474 -3.15123e-20
9618.00178 -3.34196e-20
9619.99862 -5.56790e-20
9621.99547 -6.16028e-20
9624.00251 -5.33403e-20
9625.99936 -4.30749e-20
9627.99620 -3.50361e-20
9630.00324 -2.71190e-20
9632.00009 -2.98566e-20
9633.99694 -4.64093e-20
9636.00397 -5.40019e-20
9638.00082 -5.92410e-20
9639.99767 -6.04805e-20
9642.00470 -5.46988e-20
9644.00155 -4.56109e-20
9645.99840 -4.51058e-20
9647.99525 -5.17529e-20
9650.00228 -5.42156e-20
9651.99913 -5.69228e-20
9653.99598 -5.70003e-20
9656.00302 -5.31748e-20
9657.99986 -4.75760e-20
9659.99671 -4.31278e-20
9662.00375 -3.71757e-20
9664.00060 -3.71464e-20
9665.99744 -4.39036e-20
9668.00448 -4.79261e-20
9670.00133 -4.92712e-20
9671.99818 -4.93046e-20
9673.99502 -4.83776e-20
9676.00206 -4.61341e-20
9677.99891 -4.42762e-20
9679.99576 -3.99137e-20
9682.00279 -4.03320e-20
9683.99964 -4.82118e-20
9685.99649 -5.44157e-20
9688.00352 -5.17883e-20
9690.00037 -4.37712e-20
9691.99722 -4.04442e-20
9694.00426 -3.84683e-20
9696.00110 -3.74079e-20
9697.99795 -3.77594e-20
9699.99480 -3.85062e-20
9702.00184 -3.90156e-20
9703.99868 -3.98023e-20
9705.99553 -4.21785e-20
9708.00257 -4.70737e-20
9709.99942 -4.96691e-20
9711.99626 -5.12270e-20
9714.00330 -5.22010e-20
9716.00015 -5.21777e-20
9717.99700 -5.18834e-20
9720.00403 -5.34305e-20
9722.00088 -5.73260e-20
9723.99773 -5.77216e-20
9726.00476 -5.67959e-20
9728.00161 -5.34511e-20
9729.99846 -4.56402e-20
9731.99531 -3.75100e-20
9734.00234 -3.45991e-20
9735.99919 -3.44401e-20
9737.99604 -3.77100e-20
9740.00308 -4.68308e-20
9741.99992 -5.37076e-20
9743.99677 -6.01352e-20
9746.00381 -6.43738e-20
9748.00066 -6.40371e-20
9749.99750 -6.00131e-20
9751.99435 -5.64062e-20
9754.00139 -5.01078e-20
9755.99824 -4.66421e-20
9757.99508 -4.42548e-20
9760.00212 -4.44797e-20
9761.99897 -5.00115e-20
9763.99582 -5.88223e-20
9766.00285 -5.90543e-20
9767.99970 -5.18319e-20
9769.99655 -4.74851e-20
9772.00358 -4.03031e-20
9774.00043 -3.80331e-20
9775.99728 -4.58178e-20
9778.00432 -5.76043e-20
9780.00116 -5.90263e-20
9781.99801 -5.17928e-20
9784.00505 -5.05359e-20
9786.00190 -5.36905e-20
9787.99874 -5.30602e-20
9789.99559 -4.59883e-20
9792.00263 -3.72481e-20
9793.99948 -3.27328e-20
9795.99632 -2.85310e-20
9798.00336 -3.27068e-20
9800.00021 -5.11427e-20
9801.99706 -5.84859e-20
9804.00409 -5.24736e-20
9806.00094 -4.29442e-20
9807.99779 -3.69370e-20
9809.99464 -3.03696e-20
9812.00167 -3.18731e-20
9813.99852 -4.56001e-20
9815.99537 -4.94971e-20
9818.00240 -4.46874e-20
9819.99925 -3.77752e-20
9821.99610 -3.05443e-20
9824.00314 -2.20100e-20
9825.99998 -2.42516e-20
9827.99683 -4.06735e-20
9830.00387 -4.63112e-20
9832.00072 -4.55051e-20
9833.99756 -4.30475e-20
9836.00460 -3.91239e-20
9838.00145 -3.43207e-20
9839.99830 -3.54496e-20
9841.99514 -4.29090e-20
9844.00218 -4.63632e-20
9845.99903 -4.86923e-20
9847.99588 -5.04576e-20
9850.00291 -5.20818e-20
9851.99976 -5.29001e-20
9853.99661 -5.14351e-20
9856.00364 -4.68375e-20
9858.00049 -4.57646e-20
9859.99734 -4.72948e-20
9862.00438 -4.80539e-20
9864.00122 -4.87265e-20
9865.99807 -4.82625e-20
9868.00511 -4.44442e-20
9870.00196 -3.74067e-20
9871.99880 -3.31632e-20
9873.99565 -2.77130e-20
9876.00269 -2.73949e-20
9877.99954 -3.47157e-20
9879.99638 -4.17958e-20
9882.00342 -4.23266e-20
9884.00027 -3.91760e-20
9885.99712 -3.76001e-20
9888.00415 -3.39465e-20
9890.00100 -3.42321e-20
9891.99785 -4.14516e-20
9893.99470 -4.46828e-20
9896.00173 -3.62347e-20
9897.99858 -2.17492e-20
9899.99543 -1.88178e-20
9902.00246 -2.42780e-20
9903.99931 -2.75020e-20
9905.99616 -3.30629e-20
9908.00320 -3.67501e-20
9910.00004 -3.68038e-20
9911.99689 -3.52499e-20
9914.00393 -3.54488e-20
9916.00078 -3.53460e-20
9917.99762 -3.80703e-20
9920.00466 -4.62180e-20
9922.00151 -4.95482e-20
9923.99836 -4.58258e-20
9925.99520 -3.94960e-20
9928.00224 -3.48454e-20
9929.99909 -2.81199e-20
9931.99594 -3.07849e-20
9934.00297 -4.44005e-20
9935.99982 -5.31672e-20
9937.99667 -5.92392e-20
9940.00370 -6.15599e-20
9942.00055 -5.57045e-20
9943.99740 -4.17212e-20
9946.00444 -4.30748e-20
9948.00128 -6.13659e-20
9949.99813 -6.67099e-20
9951.99498 -6.04935e-20
9954.00202 -5.31219e-20
9955.99886 -4.99147e-20
9957.99571 -4.79485e-20
9960.00275 -4.55784e-20
9961.99960 -3.92096e-20
9963.99644 -4.26339e-20
9966.00348 -6.36839e-20
9968.00033 -7.21970e-20
9969.99718 -5.16875e-20
9972.00421 -1.82475e-20
9974.00106 -7.88146e-21
9975.99791 -1.18765e-20
9978.00494 -1.27958e-20
9980.00179 -1.67370e-20
9981.99864 -2.12699e-20
9983.99549 -2.64002e-20
9986.00252 -3.19657e-20
9987.99937 -3.70156e-20
9989.99622 -4.24044e-20
9992.00326 -4.58074e-20
9994.00010 -4.80612e-20
9995.99695 -4.88405e-20
9998.00399 -4.71674e-20
10000.00084 -4.51377e-20
