# wavelength flux
3490.79594 -1.57587e-19
3495.02396 5.19541e-19
3499.25198 4.70412e-18
3503.48000 8.41983e-18
3507.70802 5.74609e-18
3511.93604 1.96899e-18
3516.16406 1.16254e-18
3520.39208 4.21570e-18
3524.62010 1.08044e-17
3528.84812 1.12161e-17
3533.06596 1.02928e-17
3537.29398 5.23595e-18
3541.52200 1.05454e-18
3545.75002 4.88627e-19
3549.97804 2.77607e-18
3554.20606 4.72901e-18
3558.43408 3.92876e-18
3562.66210 2.41716e-18
3566.89012 1.73086e-19
3571.11814 1.92764e-18
3575.34616 3.14087e-18
3579.56399 1.41045e-20
3583.79201 -3.17856e-19
3588.02003 1.12783e-18
3592.24805 2.08182e-19
3596.47607 -1.96932e-19
3600.70409 1.26715e-18
3604.93211 2.90480e-18
3609.16013 3.86213e-18
3613.38815 1.12162e-18
3617.61617 9.74769e-19
3621.84419 -2.81371e-19
3626.06202 -4.24920e-18
3630.29004 -7.67824e-18
3634.51806 -4.07009e-18
3638.74608 2.01759e-18
3642.97410 1.13677e-18
3647.20212 4.11890e-19
3651.43014 4.70765e-18
3655.65816 6.22742e-18
3659.88618 6.17914e-19
3664.11420 2.99274e-18
3668.34222 6.94233e-18
3672.56005 7.87361e-18
3676.78807 4.09270e-18
3681.01609 2.76789e-18
3685.24411 3.43649e-18
3689.47213 1.33778e-18
3693.70015 9.11728e-19
3697.92817 -9.79234e-19
3702.15619 2.38918e-19
3706.38421 2.21559e-18
3710.61223 3.02571e-18
3714.84025 2.40419e-18
3719.05808 2.68124e-18
3723.28610 3.87816e-18
3727.51412 3.28485e-18
3731.74214 3.95181e-18
3735.97016 3.15200e-18
3740.19818 4.41089e-18
3744.42620 1.75200e-18
3748.65422 6.84680e-19
3752.88224 1.65518e-18
3757.11026 2.43621e-18
3761.33828 1.85127e-18
3765.55612 2.18953e-18
3769.78414 1.30126e-18
3774.01216 2.19060e-18
3778.24018 2.34945e-18
3782.46820 2.24176e-18
3786.69622 2.13410e-18
3790.92424 2.02649e-18
3795.15226 1.91890e-18
3799.38028 1.81137e-18
3803.60830 1.70386e-18
3807.82613 1.59641e-18
3812.05415 1.48898e-18
3816.28217 1.38159e-18
3820.51019 1.27424e-18
3824.73821 -3.17837e-19
3828.96623 3.71440e-19
3833.19425 2.16253e-18
3837.42227 4.50715e-18
3841.65029 5.64244e-18
3845.87831 5.27441e-18
3850.10633 2.62059e-18
3854.33435 2.76188e-18
3858.55218 4.13837e-18
3862.78020 4.71165e-18
3867.00822 4.25125e-18
3871.23624 4.01761e-18
3875.46426 5.50718e-18
3879.69228 5.61532e-18
3883.92030 5.56364e-18
3888.14832 4.33286e-18
3892.37634 3.47019e-18
3896.60436 4.82983e-18
3900.82219 5.75121e-18
3905.05021 6.02286e-18
3909.27823 5.72964e-18
3913.50625 5.76007e-18
3917.73427 5.59718e-18
3921.96229 5.18982e-18
3926.19031 4.59693e-18
3930.41833 4.10183e-18
3934.64635 4.57075e-18
3938.87437 5.10505e-18
3943.10239 4.71467e-18
3947.32022 4.66712e-18
3951.54824 5.59717e-18
3955.77626 6.02194e-18
3960.00428 5.89165e-18
3964.23230 6.05327e-18
3968.46032 6.78113e-18
3972.68834 6.67495e-18
3976.91636 5.44591e-18
3981.14438 5.50443e-18
3985.37240 6.62779e-18
3989.60042 6.86011e-18
3993.81826 6.84909e-18
3998.04628 5.82470e-18
4002.27430 5.70781e-18
4006.50232 6.03355e-18
4010.73034 6.61442e-18
4014.95836 6.25699e-18
4019.18638 7.18130e-18
4023.41440 7.54730e-18
4027.64242 5.82010e-18
4031.87044 4.55099e-18
4036.09846 6.21229e-18
4040.31629 8.28224e-18
4044.54431 7.18664e-18
4048.77233 4.89728e-18
4053.00035 6.42054e-18
4057.22837 7.90731e-18
4061.45639 6.88033e-18
4065.68441 5.91171e-18
4069.91243 6.08741e-18
4074.14045 5.93151e-18
4078.36847 5.80678e-18
4082.59649 6.23483e-18
4086.81432 6.53517e-18
4091.04234 5.76174e-18
4095.27036 6.08266e-18
4099.49838 5.86475e-18
4103.72640 5.01041e-18
4107.95442 4.23704e-18
4112.18244 4.80603e-18
4116.41046 5.70302e-18
4120.63848 6.14262e-18
4124.86650 5.66856e-18
4129.09452 4.67144e-18
4133.31235 4.51444e-18
4137.54037 5.64412e-18
4141.76839 5.80680e-18
4145.99641 5.96739e-18
4150.22443 5.70146e-18
4154.45245 5.52997e-18
4158.68047 5.65441e-18
4162.90849 5.62490e-18
4167.13651 5.37108e-18
4171.36453 5.00958e-18
4175.58236 5.75922e-18
4179.81038 6.17120e-18
4184.03840 5.91252e-18
4188.26642 5.73903e-18
4192.49444 5.94858e-18
4196.72246 6.01221e-18
4200.95048 5.83862e-18
4205.17850 6.17591e-18
4209.40652 6.40574e-18
4213.63454 6.18105e-18
4217.86256 5.79176e-18
4222.08040 6.05791e-18
4226.30842 6.23489e-18
4230.53644 5.68442e-18
4234.76446 5.14793e-18
4238.99248 5.20600e-18
4243.22050 5.11225e-18
4247.44852 4.57917e-18
4251.67654 4.97208e-18
4255.90456 5.42037e-18
4260.13258 5.82133e-18
4264.36060 6.07700e-18
4268.57843 5.85596e-18
4272.80645 5.90254e-18
4277.03447 5.91019e-18
4281.26249 5.68424e-18
4285.49051 5.49379e-18
4289.71853 5.40145e-18
4293.94655 5.79858e-18
4298.17457 6.27365e-18
4302.40259 5.86106e-18
4306.63061 5.68124e-18
4310.85863 6.16865e-18
4315.08665 6.21689e-18
4319.30448 5.57916e-18
4323.53250 4.94490e-18
4327.76052 4.97563e-18
4331.98854 5.41159e-18
4336.21656 5.39922e-18
4340.44458 4.72975e-18
4344.67260 4.49835e-18
4348.90062 4.78471e-18
4353.12864 4.83072e-18
4357.35666 5.04332e-18
4361.57449 5.70589e-18
4365.80251 6.30204e-18
4370.03053 6.15486e-18
4374.25855 5.75865e-18
4378.48657 5.61496e-18
4382.71459 5.20457e-18
4386.94261 5.02643e-18
4391.17063 4.94782e-18
4395.39865 4.96112e-18
4399.62667 4.63283e-18
4403.85469 4.67394e-18
4408.07252 4.94293e-18
4412.30054 4.96529e-18
4416.52856 5.03514e-18
4420.75658 5.10495e-18
4424.98460 5.17475e-18
4429.21262 5.24452e-18
4433.44064 5.31428e-18
4437.66866 5.38400e-18
4441.89668 5.45370e-18
4446.12470 5.52338e-18
4450.35272 5.59304e-18
4454.57056 5.66268e-18
4458.79858 5.73228e-18
4463.02660 5.80187e-18
4467.25462 5.87144e-18
4471.48264 5.94097e-18
4475.71066 6.01049e-18
4479.93868 6.07998e-18
4484.16670 6.00240e-18
4488.39472 5.94236e-18
4492.62274 6.09812e-18
4496.85076 6.18971e-18
4501.06859 6.19444e-18
4505.29661 6.36381e-18
4509.52463 6.25012e-18
4513.75265 6.80914e-18
4517.98067 7.73512e-18
4522.20869 7.86729e-18
4526.43671 7.68592e-18
4530.66473 7.72271e-18
4534.89275 8.14079e-18
4539.12077 8.49684e-18
4543.33860 8.30527e-18
4547.56662 8.11384e-18
4551.79464 8.88047e-18
4556.02266 9.32500e-18
4560.25068 9.27346e-18
4564.47870 9.28843e-18
4568.70672 9.54936e-18
4572.93474 9.68238e-18
4577.16276 1.00520e-17
4581.39078 1.03477e-17
4585.61880 1.05152e-17
4589.84682 1.06723e-17
4594.06465 1.02678e-17
4598.29267 1.08494e-17
4602.52069 1.08971e-17
4606.74871 1.07958e-17
4610.97673 1.08058e-17
4615.20475 1.12581e-17
4619.43277 1.16498e-17
4623.66079 1.16248e-17
4627.88881 1.12012e-17
4632.11683 1.07043e-17
4636.34485 1.03420e-17
4640.56268 1.05935e-17
4644.79070 1.10579e-17
4649.01872 1.07307e-17
4653.24674 1.08707e-17
4657.47476 1.09736e-17
4661.70278 1.06359e-17
4665.93080 1.04330e-17
4670.15882 1.04653e-17
4674.38684 1.05401e-17
4678.61486 1.07162e-17
4682.83270 1.04166e-17
4687.06072 9.65742e-18
4691.28874 9.51140e-18
4695.51676 9.54088e-18
4699.74478 8.95944e-18
4703.97280 8.80358e-18
4708.20082 8.88736e-18
4712.42884 8.98031e-18
4716.65686 8.96247e-18
4720.88488 8.70535e-18
4725.11290 8.77000e-18
4729.33073 9.01099e-18
4733.55875 8.73125e-18
4737.78677 8.40276e-18
4742.01479 8.21590e-18
4746.24281 8.20177e-18
4750.47083 7.88136e-18
4754.69885 7.59153e-18
4758.92687 7.75687e-18
4763.15489 7.29692e-18
4767.38291 6.99143e-18
4771.61093 7.25749e-18
4775.82876 7.55632e-18
4780.05678 7.68466e-18
4784.28480 7.55541e-18
4788.51282 7.42700e-18
4792.74084 7.51786e-18
4796.96886 7.10808e-18
4801.19688 7.06258e-18
4805.42490 7.47529e-18
4809.65292 7.74983e-18
4813.88094 8.02612e-18
4818.10896 8.14516e-18
4822.32679 8.08412e-18
4826.55481 8.03312e-18
4830.78283 7.88788e-18
4835.01085 8.02831e-18
4839.23887 8.16658e-18
4843.46689 8.01062e-18
4847.69491 8.05458e-18
4851.92293 8.26997e-18
4856.15095 8.25223e-18
4860.37897 8.10080e-18
4864.60699 8.01968e-18
4868.82482 7.89484e-18
4873.05284 7.91188e-18
4877.28086 7.92783e-18
4881.50888 8.05141e-18
4885.73690 7.98897e-18
4889.96492 7.96913e-18
4894.19294 8.48802e-18
4898.42096 8.78211e-18
4902.64898 8.73751e-18
4906.87700 8.53668e-18
4911.10502 8.67757e-18
4915.32286 9.22183e-18
4919.55088 9.65975e-18
4923.77890 9.69489e-18
4928.00692 9.67305e-18
4932.23494 9.85534e-18
4936.46296 9.85999e-18
4940.69098 9.86463e-18
4944.91900 9.86927e-18
4949.14702 9.87392e-18
4953.37504 9.87856e-18
4957.60306 9.88320e-18
4961.82089 9.88784e-18
4966.04891 9.89248e-18
4970.27693 9.89712e-18
4974.50495 9.90176e-18
4978.73297 9.18576e-18
4982.96099 8.62732e-18
4987.18901 8.49493e-18
4991.41703 8.49544e-18
4995.64505 8.33776e-18
4999.87307 8.44844e-18
5004.09090 8.25221e-18
5008.31892 7.67789e-18
5012.54694 7.32950e-18
5016.77496 7.42657e-18
5021.00298 7.60977e-18
5025.23100 7.82790e-18
5029.45902 7.92341e-18
5033.68704 7.95753e-18
5037.91506 7.98973e-18
5042.14308 8.02193e-18
5046.37110 8.05412e-18
5050.59912 8.08629e-18
5054.81695 8.11845e-18
5059.04497 8.15061e-18
5063.27299 8.18276e-18
5067.50101 8.21490e-18
5071.72903 8.24703e-18
5075.95705 8.03839e-18
5080.18507 7.96566e-18
5084.41309 7.99094e-18
5088.64111 8.01621e-18
5092.86913 8.04148e-18
5097.08696 8.06673e-18
5101.31498 8.09198e-18
5105.54300 8.11723e-18
5109.77102 8.14247e-18
5113.99904 8.16770e-18
5118.22706 8.19293e-18
5122.45508 8.21815e-18
5126.68310 8.15796e-18
5130.91112 8.40987e-18
5135.13914 8.69351e-18
5139.36716 8.43705e-18
5143.58500 7.96961e-18
5147.81302 8.12883e-18
5152.04104 8.50508e-18
5156.26906 8.71424e-18
5160.49708 8.14442e-18
5164.72510 8.10683e-18
5168.95312 8.44965e-18
5173.18114 8.87625e-18
5177.40916 9.12919e-18
5181.63718 9.04176e-18
5185.86520 8.91719e-18
5190.08303 9.02093e-18
5194.31105 9.25071e-18
5198.53907 9.63423e-18
5202.76709 9.88785e-18
5206.99511 9.83093e-18
5211.22313 9.94723e-18
5215.45115 1.03280e-17
5219.67917 1.05237e-17
5223.90719 1.06666e-17
5228.13521 1.07611e-17
5232.36323 1.08170e-17
5236.58106 1.07809e-17
5240.80908 1.08249e-17
5245.03710 1.10404e-17
5249.26512 1.12864e-17
5253.49314 1.17591e-17
5257.72116 1.19595e-17
5261.94918 1.18986e-17
5266.17720 1.19142e-17
5270.40522 1.22100e-17
5274.63324 1.25184e-17
5278.86126 1.28078e-17
5283.07909 1.29473e-17
5287.30711 1.30643e-17
5291.53513 1.33138e-17
5295.76315 1.34027e-17
5299.99117 1.36954e-17
5304.21919 1.41983e-17
5308.44721 1.42135e-17
5312.67523 1.44036e-17
5316.90325 1.46691e-17
5321.13127 1.46059e-17
5325.34910 1.44996e-17
5329.57712 1.46026e-17
5333.80514 1.48735e-17
5338.03316 1.52793e-17
5342.26118 1.54679e-17
5346.48920 1.52875e-17
5350.71722 1.54077e-17
5354.94524 1.53222e-17
5359.17326 1.50328e-17
5363.40128 1.50679e-17
5367.62930 1.52424e-17
5371.85732 1.53597e-17
5376.07516 1.55313e-17
5380.30318 1.54721e-17
5384.53120 1.51288e-17
5388.75922 1.50200e-17
5392.98724 1.53254e-17
5397.21526 1.53820e-17
5401.44328 1.55940e-17
5405.67130 1.55086e-17
5409.89932 1.54565e-17
5414.12734 1.57414e-17
5418.35536 1.58970e-17
5422.57319 1.59197e-17
5426.80121 1.63967e-17
5431.02923 1.65782e-17
5435.25725 1.69236e-17
5439.48527 1.75236e-17
5443.71329 1.72547e-17
5447.94131 1.66369e-17
5452.16933 1.73086e-17
5456.39735 1.79216e-17
5460.62537 1.79408e-17
5464.84320 1.81933e-17
5469.07122 1.86487e-17
5473.29924 1.94460e-17
5477.52726 1.98471e-17
5481.75528 1.94978e-17
5485.98330 1.92684e-17
5490.21132 1.93224e-17
5494.43934 1.93239e-17
5498.66736 1.98654e-17
5502.89538 2.05039e-17
5507.12340 2.05777e-17
5511.34123 2.06603e-17
5515.56925 2.06339e-17
5519.79727 2.05757e-17
5524.02529 2.06238e-17
5528.25331 2.07380e-17
5532.48133 2.10158e-17
5536.70935 2.12046e-17
5540.93737 2.11823e-17
5545.16539 2.10489e-17
5549.39341 2.07715e-17
5553.62143 2.08861e-17
5557.83926 2.07586e-17
5562.06728 2.07795e-17
5566.29530 2.10327e-17
5570.52332 2.09420e-17
5574.75134 2.08893e-17
5578.97936 2.09805e-17
5583.20738 2.09584e-17
5587.43540 2.07958e-17
5591.66342 2.02822e-17
5595.89144 1.94798e-17
5600.11946 1.92325e-17
5604.33730 1.93028e-17
5608.56532 1.92943e-17
5612.79334 1.91581e-17
5617.02136 1.92303e-17
5621.24938 1.93167e-17
5625.47740 1.92750e-17
5629.70542 1.90541e-17
5633.93344 1.87719e-17
5638.16146 1.85123e-17
5642.38948 1.81500e-17
5646.61750 1.79130e-17
5650.83533 1.81462e-17
5655.06335 1.83046e-17
5659.29137 1.79246e-17
5663.51939 1.74800e-17
5667.74741 1.75222e-17
5671.97543 1.75482e-17
5676.20345 1.72681e-17
5680.43147 1.70273e-17
5684.65949 1.69390e-17
5688.88751 1.63925e-17
5693.11553 1.58227e-17
5697.33336 1.57583e-17
5701.56138 1.54488e-17
5705.78940 1.53148e-17
5710.01742 1.57845e-17
5714.24544 1.57967e-17
5718.47346 1.53691e-17
5722.70148 1.48106e-17
5726.92950 1.45306e-17
5731.15752 1.44949e-17
5735.38554 1.43562e-17
5739.61356 1.43923e-17
5743.83139 1.45359e-17
5748.05941 1.44683e-17
5752.28743 1.45223e-17
5756.51545 1.45325e-17
5760.74347 1.43282e-17
5764.97149 1.42268e-17
5769.19951 1.42735e-17
5773.42753 1.42954e-17
5777.65555 1.40321e-17
5781.88357 1.40725e-17
5786.10140 1.44071e-17
5790.32942 1.45873e-17
5794.55744 1.46342e-17
5798.78546 1.47281e-17
5803.01348 1.50218e-17
5807.24150 1.50535e-17
5811.46952 1.48255e-17
5815.69754 1.48690e-17
5819.92556 1.49182e-17
5824.15358 1.48943e-17
5828.38160 1.49280e-17
5832.59944 1.50595e-17
5836.82746 1.51231e-17
5841.05548 1.53369e-17
5845.28350 1.57875e-17
5849.51152 1.50958e-17
5853.73954 1.45539e-17
5857.96756 1.51574e-17
5862.19558 1.55619e-17
5866.42360 1.55164e-17
5870.65162 1.51558e-17
5874.87964 1.48470e-17
5879.09747 1.48700e-17
5883.32549 1.51114e-17
5887.55351 1.52642e-17
5891.78153 1.46889e-17
5896.00955 1.40413e-17
5900.23757 1.42774e-17
5904.46559 1.45147e-17
5908.69361 1.51345e-17
5912.92163 1.52476e-17
5917.14965 1.52348e-17
5921.37767 1.53245e-17
5925.59550 1.54180e-17
5929.82352 1.54038e-17
5934.05154 1.53294e-17
5938.27956 1.54711e-17
5942.50758 1.56972e-17
5946.73560 1.58386e-17
5950.96362 1.52755e-17
5955.19164 1.45654e-17
5959.41966 1.44814e-17
5963.64768 1.43974e-17
5967.87570 1.43135e-17
5972.09353 1.42295e-17
5976.32155 1.41456e-17
5980.54957 1.40617e-17
5984.77759 1.39779e-17
5989.00561 1.38940e-17
5993.23363 1.38102e-17
5997.46165 1.37264e-17
6001.68967 1.36426e-17
6005.91769 1.35588e-17
6010.14571 1.34750e-17
6014.37373 1.33913e-17
6018.59156 1.33075e-17
6022.81958 1.41145e-17
6027.04760 1.43129e-17
6031.27562 1.39294e-17
6035.50364 1.35500e-17
6039.73166 1.34818e-17
6043.95968 1.36130e-17
6048.18770 1.37147e-17
6052.41572 1.37795e-17
6056.64374 1.35036e-17
6060.87176 1.32620e-17
6065.08960 1.34239e-17
6069.31762 1.34630e-17
6073.54564 1.33394e-17
6077.77366 1.34339e-17
6082.00168 1.34668e-17
6086.22970 1.33123e-17
6090.45772 1.32445e-17
6094.68574 1.33437e-17
6098.91376 1.37252e-17
6103.14178 1.42933e-17
6107.36980 1.38886e-17
6111.58763 1.35539e-17
6115.81565 1.35605e-17
6120.04367 1.37541e-17
6124.27169 1.38046e-17
6128.49971 1.38167e-17
6132.72773 1.38128e-17
6136.95575 1.39105e-17
6141.18377 1.38770e-17
6145.41179 1.39492e-17
6149.63981 1.45256e-17
6153.86783 1.47709e-17
6158.08566 1.45699e-17
6162.31368 1.47638e-17
6166.54170 1.51927e-17
6170.76972 1.53109e-17
6174.99774 1.49087e-17
6179.22576 1.46923e-17
6183.45378 1.47730e-17
6187.68180 1.47799e-17
6191.90982 1.48834e-17
6196.13784 1.51401e-17
6200.35567 1.51066e-17
6204.58369 1.49854e-17
6208.81171 1.44056e-17
6213.03973 1.37115e-17
6217.26775 1.34915e-17
6221.49577 1.36762e-17
6225.72379 1.37962e-17
6229.95181 1.37515e-17
6234.17983 1.34985e-17
6238.40785 1.33733e-17
6242.63587 1.34669e-17
6246.85370 1.34163e-17
6251.08172 1.32228e-17
6255.30974 1.27266e-17
6259.53776 1.25854e-17
6263.76578 1.25439e-17
6267.99380 1.22960e-17
6272.22182 1.22164e-17
6276.44984 1.22546e-17
6280.67786 1.21797e-17
6284.90588 1.18873e-17
6289.13390 1.16897e-17
6293.36192 1.16286e-17
6297.57976 1.14299e-17
6301.80778 1.13446e-17
6306.03580 1.14973e-17
6310.26382 1.15494e-17
6314.49184 1.16159e-17
6318.71986 1.17101e-17
6322.94788 1.18649e-17
6327.17590 1.19320e-17
6331.40392 1.19416e-17
6335.63194 1.20460e-17
6339.84977 1.24350e-17
6344.07779 1.26722e-17
6348.30581 1.26115e-17
6352.53383 1.26408e-17
6356.76185 1.28738e-17
6360.98987 1.27830e-17
6365.21789 1.29021e-17
6369.44591 1.31693e-17
6373.67393 1.34534e-17
6377.90195 1.38391e-17
6382.12997 1.42141e-17
6386.34780 1.43845e-17
6390.57582 1.41921e-17
6394.80384 1.41046e-17
6399.03186 1.43595e-17
6403.25988 1.45894e-17
6407.48790 1.49261e-17
6411.71592 1.52690e-17
6415.94394 1.53740e-17
6420.17196 1.55415e-17
6424.39998 1.57507e-17
6428.62800 1.58038e-17
6432.84583 1.58255e-17
6437.07385 1.59992e-17
6441.30187 1.61353e-17
6445.52989 1.63406e-17
6449.75791 1.67178e-17
6453.98593 1.69015e-17
6458.21395 1.69333e-17
6462.44197 1.69380e-17
6466.66999 1.68266e-17
6470.89801 1.66043e-17
6475.12603 1.65316e-17
6479.34386 1.68250e-17
6483.57188 1.70633e-17
6487.79990 1.70628e-17
6492.02792 1.70355e-17
6496.25594 1.71636e-17
6500.48396 1.73509e-17
6504.71198 1.72193e-17
6508.94000 1.72050e-17
6513.16802 1.77024e-17
6517.39604 1.78739e-17
6521.61388 1.77149e-17
6525.84190 1.76446e-17
6530.06992 1.76798e-17
6534.29794 1.79565e-17
6538.52596 1.81197e-17
6542.75398 1.79910e-17
6546.98200 1.77331e-17
6551.21002 1.78874e-17
6555.43804 1.81340e-17
6559.66606 1.80165e-17
6563.89408 1.79525e-17
6568.12210 1.83254e-17
6572.33993 1.82507e-17
6576.56795 1.79176e-17
6580.79597 1.80013e-17
6585.02399 1.83306e-17
6589.25201 1.82863e-17
6593.48003 1.80947e-17
6597.70805 1.81754e-17
6601.93607 1.81276e-17
6606.16409 1.80362e-17
6610.39211 1.80079e-17
6614.62013 1.76564e-17
6618.83796 1.73581e-17
6623.06598 1.73495e-17
6627.29400 1.73819e-17
6631.52202 1.74155e-17
6635.75004 1.73356e-17
6639.97806 1.72118e-17
6644.20608 1.69954e-17
6648.43410 1.65867e-17
6652.66212 1.64125e-17
6656.89014 1.63658e-17
6661.11816 1.63190e-17
6665.33599 1.62722e-17
6669.56401 1.62254e-17
6673.79203 1.61787e-17
6678.02005 1.61319e-17
6682.24807 1.60852e-17
6686.47609 1.60385e-17
6690.70411 1.59917e-17
6694.93213 1.58763e-17
6699.16015 1.57609e-17
6703.38817 1.56455e-17
6707.60600 1.55301e-17
6711.83402 1.54147e-17
6716.06204 1.52993e-17
6720.29006 1.51840e-17
6724.51808 1.50687e-17
6728.74610 1.49533e-17
6732.97412 1.47684e-17
6737.20214 1.48822e-17
6741.43016 1.50680e-17
6745.65818 1.50117e-17
6749.88620 1.48214e-17
6754.10404 1.48380e-17
6758.33206 1.49712e-17
6762.56008 1.48021e-17
6766.78810 1.49167e-17
6771.01612 1.50422e-17
6775.24414 1.49170e-17
6779.47216 1.47160e-17
6783.70018 1.46011e-17
6787.92820 1.48696e-17
6792.15622 1.50481e-17
6796.38424 1.48730e-17
6800.60207 1.45386e-17
6804.83009 1.42961e-17
6809.05811 1.42819e-17
6813.28613 1.43793e-17
6817.51415 1.42184e-17
6821.74217 1.39655e-17
6825.97019 1.39520e-17
6830.19821 1.39384e-17
6834.42623 1.39249e-17
6838.65425 1.39114e-17
6842.88227 1.37371e-17
6847.10010 1.35628e-17
6851.32812 1.33886e-17
6855.55614 1.32144e-17
6859.78416 1.30402e-17
6864.01218 1.28660e-17
6868.24020 1.26919e-17
6872.46822 1.25178e-17
6876.69624 1.23437e-17
6880.92426 1.20650e-17
6885.15228 1.19558e-17
6889.38030 1.20638e-17
6893.59813 1.22891e-17
6897.82615 1.23013e-17
6902.05417 1.20338e-17
6906.28219 1.18377e-17
6910.51021 1.20023e-17
6914.73823 1.20915e-17
6918.96625 1.20013e-17
6923.19427 1.21541e-17
6927.42229 1.24225e-17
6931.65031 1.23468e-17
6935.87833 1.22542e-17
6940.09616 1.22747e-17
6944.32418 1.23004e-17
6948.55220 1.22124e-17
6952.78022 1.22629e-17
6957.00824 1.26401e-17
6961.23626 1.26413e-17
6965.46428 1.24514e-17
6969.69230 1.27164e-17
6973.92032 1.27804e-17
6978.14834 1.24660e-17
6982.37636 1.24238e-17
6986.59420 1.24696e-17
6990.82222 1.24707e-17
6995.05024 1.25143e-17
6999.27826 1.24585e-17
7003.50628 1.23724e-17
7007.73430 1.25566e-17
7011.96232 1.26852e-17
7016.19034 1.23184e-17
7020.41836 1.20427e-17
7024.64638 1.21143e-17
7028.87440 1.21264e-17
7033.09223 1.20293e-17
7037.32025 1.20633e-17
7041.54827 1.20837e-17
7045.77629 1.19800e-17
7050.00431 1.18084e-17
7054.23233 1.18028e-17
7058.46035 1.18079e-17
7062.68837 1.16434e-17
7066.91639 1.16346e-17
7071.14441 1.14491e-17
7075.36224 1.14456e-17
7079.59026 1.15296e-17
7083.81828 1.13165e-17
7088.04630 1.09256e-17
7092.27432 1.07566e-17
7096.50234 1.08544e-17
7100.73036 1.08556e-17
7104.95838 1.07226e-17
7109.18640 1.07687e-17
7113.41442 1.07791e-17
7117.64244 1.05067e-17
7121.86027 1.03357e-17
7126.08829 1.05315e-17
7130.31631 1.07728e-17
7134.54433 1.07884e-17
7138.77235 1.08141e-17
7143.00037 1.08510e-17
7147.22839 1.06222e-17
7151.45641 1.05224e-17
7155.68443 1.07284e-17
7159.91245 1.06035e-17
7164.14047 1.04886e-17
7168.35830 1.05631e-17
7172.58632 1.04973e-17
7176.81434 1.04395e-17
7181.04236 1.07654e-17
7185.27038 1.11591e-17
7189.49840 1.12585e-17
7193.72642 1.13474e-17
7197.95444 1.15613e-17
7202.18246 1.18179e-17
7206.41048 1.19527e-17
7210.63850 1.18794e-17
7214.85634 1.18217e-17
7219.08436 1.15548e-17
7223.31238 1.13048e-17
7227.54040 1.11754e-17
7231.76842 1.11233e-17
7235.99644 1.13067e-17
7240.22446 1.14393e-17
7244.45248 1.13765e-17
7248.68050 1.13499e-17
7252.90852 1.14087e-17
7257.13654 1.15122e-17
7261.35437 1.13821e-17
7265.58239 1.13259e-17
7269.81041 1.17043e-17
7274.03843 1.19557e-17
7278.26645 1.18584e-17
7282.49447 1.15721e-17
7286.72249 1.14451e-17
7290.95051 1.17313e-17
7295.17853 1.16804e-17
7299.40655 1.13367e-17
7303.63457 1.14521e-17
7307.85240 1.17394e-17
7312.08042 1.15611e-17
7316.30844 1.11940e-17
7320.53646 1.08642e-17
7324.76448 1.08219e-17
7328.99250 1.10502e-17
7333.22052 1.13096e-17
7337.44854 1.12931e-17
7341.67656 1.13208e-17
7345.90458 1.15744e-17
7350.13260 1.13935e-17
7354.35043 1.09303e-17
7358.57845 1.08721e-17
7362.80647 1.10288e-17
7367.03449 1.12005e-17
7371.26251 1.12584e-17
7375.49053 1.10129e-17
7379.71855 1.07749e-17
7383.94657 1.09924e-17
7388.17459 1.13106e-17
7392.40261 1.11883e-17
7396.63063 1.09668e-17
7400.84846 1.10163e-17
7405.07648 1.11995e-17
7409.30450 1.12838e-17
7413.53252 1.11209e-17
7417.76054 1.10263e-17
7421.98856 1.11773e-17
7426.21658 1.11145e-17
7430.44460 1.10869e-17
7434.67262 1.10913e-17
7438.90064 1.10444e-17
7443.11848 1.10392e-17
7447.34650 1.10421e-17
7451.57452 1.10164e-17
7455.80254 1.09668e-17
7460.03056 1.08861e-17
7464.25858 1.07719e-17
7468.48660 1.06378e-17
7472.71462 1.04947e-17
7476.94264 1.03407e-17
7481.17066 1.02373e-17
7485.39868 1.01511e-17
7489.62670 1.00662e-17
7493.84453 9.99172e-18
7498.07255 9.92528e-18
7502.30057 9.85899e-18
7506.52859 9.77711e-18
7510.75661 9.67682e-18
7514.98463 9.64202e-18
7519.21265 9.52218e-18
7523.44067 9.40332e-18
7527.66869 9.28316e-18
7531.89671 9.19433e-18
7536.11454 9.08849e-18
7540.34256 8.98916e-18
7544.57058 8.96854e-18
7548.79860 9.00450e-18
7553.02662 9.04361e-18
7557.25464 9.08138e-18
7561.48266 9.04723e-18
7565.71068 8.90495e-18
7569.93870 8.82218e-18
7574.16672 8.75691e-18
7578.39474 8.76882e-18
7582.61257 8.86680e-18
7586.84059 9.05834e-18
7591.06861 9.35755e-18
7595.29663 9.63167e-18
7599.52465 9.74029e-18
7603.75267 9.57740e-18
7607.98069 9.22522e-18
7612.20871 8.97903e-18
7616.43673 8.92141e-18
7620.66475 9.09121e-18
7624.89277 9.31628e-18
7629.11060 9.51265e-18
7633.33862 9.64951e-18
7637.56664 9.71726e-18
7641.79466 9.74744e-18
7646.02268 9.78734e-18
7650.25070 9.83698e-18
7654.47872 9.85801e-18
7658.70674 9.87164e-18
7662.93476 9.87850e-18
7667.16278 9.89033e-18
7671.39080 9.90452e-18
7675.60864 9.97859e-18
7679.83666 1.00922e-17
7684.06468 1.02510e-17
7688.29270 1.04033e-17
7692.52072 1.05662e-17
7696.74874 1.06597e-17
7700.97676 1.06814e-17
7705.20478 1.06687e-17
7709.43280 1.06451e-17
7713.66082 1.06659e-17
7717.88884 1.07802e-17
7722.10667 1.09728e-17
7726.33469 1.11590e-17
7730.56271 1.13251e-17
7734.79073 1.14414e-17
7739.01875 1.15212e-17
7743.24677 1.16340e-17
7747.47479 1.17842e-17
7751.70281 1.19148e-17
7755.93083 1.19763e-17
7760.15885 1.20571e-17
7764.37668 1.20564e-17
7768.60470 1.21494e-17
7772.83272 1.22153e-17
7777.06074 1.23607e-17
7781.28876 1.24719e-17
7785.51678 1.25751e-17
7789.74480 1.26344e-17
7793.97282 1.26237e-17
7798.20084 1.25472e-17
7802.42886 1.23928e-17
7806.65688 1.22521e-17
7810.88490 1.21442e-17
7815.10273 1.21750e-17
7819.33075 1.22666e-17
7823.55877 1.23519e-17
7827.78679 1.24422e-17
7832.01481 1.25444e-17
7836.24283 1.25961e-17
7840.47085 1.25953e-17
7844.69887 1.25770e-17
7848.92689 1.25806e-17
7853.15491 1.25930e-17
7857.37274 1.25565e-17
7861.60076 1.25519e-17
7865.82878 1.25036e-17
7870.05680 1.23864e-17
7874.28482 1.22486e-17
7878.51284 1.22209e-17
7882.74086 1.22534e-17
7886.96888 1.22607e-17
7891.19690 1.22166e-17
7895.42492 1.21413e-17
7899.65294 1.20867e-17
7903.87078 1.19704e-17
7908.09880 1.19485e-17
7912.32682 1.19311e-17
7916.55484 1.19428e-17
7920.78286 1.19608e-17
7925.01088 1.20176e-17
7929.23890 1.20819e-17
7933.46692 1.21577e-17
7937.69494 1.21801e-17
7941.92296 1.21900e-17
7946.15098 1.22202e-17
7950.36881 1.22476e-17
7954.59683 1.22761e-17
7958.82485 1.22586e-17
7963.05287 1.22578e-17
7967.28089 1.21556e-17
7971.50891 1.19752e-17
7975.73693 1.17724e-17
7979.96495 1.15773e-17
7984.19297 1.13808e-17
7988.42099 1.11753e-17
7992.64901 1.10230e-17
7996.86684 1.09621e-17
8001.09486 1.09678e-17
8005.32288 1.09487e-17
8009.55090 1.09709e-17
8013.77892 1.10276e-17
8018.00694 1.10546e-17
8022.23496 1.10492e-17
8026.46298 1.09780e-17
8030.69100 1.08761e-17
8034.91902 1.07900e-17
8039.14704 1.07181e-17
8043.36487 1.06309e-17
8047.59289 1.05940e-17
8051.82091 1.06114e-17
8056.04893 1.06535e-17
8060.27695 1.06804e-17
8064.50497 1.06761e-17
8068.73299 1.06306e-17
8072.96101 1.05982e-17
8077.18903 1.05643e-17
8081.41705 1.05282e-17
8085.64507 1.04273e-17
8089.86290 1.02937e-17
8094.09092 1.01483e-17
8098.31894 9.96704e-18
8102.54696 9.79239e-18
8106.77498 9.62439e-18
8111.00300 9.44859e-18
8115.23102 9.27611e-18
8119.45904 9.12150e-18
8123.68706 8.91097e-18
8127.91508 8.67374e-18
8132.14310 8.41009e-18
8136.36094 8.07441e-18
8140.58896 7.83706e-18
8144.81698 7.71327e-18
8149.04500 7.62547e-18
8153.27302 7.53024e-18
8157.50104 7.44983e-18
8161.72906 7.43296e-18
8165.95708 7.40802e-18
8170.18510 7.33367e-18
8174.41312 7.14786e-18
8178.63095 6.87606e-18
8182.85897 6.63104e-18
8187.08699 6.41334e-18
8191.31501 6.22256e-18
8195.54303 6.04492e-18
8199.77105 5.83164e-18
8203.99907 5.57117e-18
8208.22709 5.33024e-18
8212.45511 5.12746e-18
8216.68313 5.00604e-18
8220.91115 4.96997e-18
8225.12898 4.93773e-18
8229.35700 4.96984e-18
8233.58502 4.92540e-18
8237.81304 4.83565e-18
8242.04106 4.76726e-18
8246.26908 4.66327e-18
8250.49710 4.60444e-18
8254.72512 4.47878e-18
8258.95314 4.25827e-18
8263.18116 4.62841e-18
8267.40918 4.63476e-18
8271.62701 4.63676e-18
8275.85503 4.61840e-18
8280.08305 4.56635e-18
8284.31107 4.46023e-18
8288.53909 4.31995e-18
8292.76711 4.20691e-18
8296.99513 4.19254e-18
8301.22315 4.31886e-18
8305.45117 4.50830e-18
8309.67919 4.69545e-18
8313.90721 4.80981e-18
8318.12504 4.87238e-18
8322.35306 4.91662e-18
8326.58108 4.97732e-18
8330.80910 5.05619e-18
8335.03712 5.14140e-18
8339.26514 5.22193e-18
8343.49316 5.29197e-18
8347.72118 5.37408e-18
8351.94920 5.48720e-18
8356.17722 5.63836e-18
8360.40524 5.80301e-18
8364.62308 5.94714e-18
8368.85110 6.03228e-18
8373.07912 6.07479e-18
8377.30714 6.11342e-18
8381.53516 6.18079e-18
8385.76318 6.28896e-18
8389.99120 6.39843e-18
8394.21922 6.47771e-18
8398.44724 6.50155e-18
8402.67526 6.49173e-18
8406.89309 6.46316e-18
8411.13130 6.43108e-18
8415.34913 6.41073e-18
8419.57715 6.42553e-18
8423.80517 6.49411e-18
8428.03319 6.61090e-18
8432.26121 6.75586e-18
8436.48923 6.90913e-18
8440.71725 7.05239e-18
8444.94527 7.18545e-18
8449.17329 7.30590e-18
8453.40131 7.41373e-18
8457.61914 7.50937e-18
8461.84716 7.59556e-18
8466.07518 7.67477e-18
8470.30320 7.75445e-18
8474.53122 7.84571e-18
8478.75924 7.95394e-18
8482.98726 8.08683e-18
8487.21528 8.24938e-18
8491.44330 8.45080e-18
8495.67132 8.69267e-18
8499.88915 8.94547e-18
8504.11717 9.18235e-18
8508.34519 9.37964e-18
8512.57321 9.52875e-18
8516.80123 9.63646e-18
8521.02925 9.70450e-18
8525.25727 9.75032e-18
8529.48529 9.80671e-18
8533.71331 9.90540e-18
8537.94133 1.00667e-17
8542.16935 1.02768e-17
8546.39737 1.05182e-17
8550.61520 1.07748e-17
8554.84322 1.10373e-17
8559.07124 1.12982e-17
8563.29926 1.15475e-17
8567.52728 1.17781e-17
8571.75530 1.19853e-17
8575.98332 1.21662e-17
8580.21134 1.23196e-17
8584.43936 1.24393e-17
8588.66738 1.25122e-17
8592.89540 1.25303e-17
8597.11324 1.25393e-17
8601.34126 1.25831e-17
8605.56928 1.26965e-17
8609.79730 1.28713e-17
8614.02532 1.30795e-17
8618.25334 1.32875e-17
8622.48136 1.34775e-17
8626.70938 1.36504e-17
8630.93740 1.38033e-17
8635.16542 1.39357e-17
8639.38325 1.40634e-17
8643.61127 1.42079e-17
8647.83929 1.43946e-17
8652.06731 1.45891e-17
8656.29533 1.47471e-17
8660.52335 1.48226e-17
8664.75137 1.48279e-17
8668.97939 1.48236e-17
8673.20741 1.48746e-17
8677.43543 1.50158e-17
8681.66345 1.51887e-17
8685.89147 1.53465e-17
8690.10930 1.54407e-17
8694.33732 1.54829e-17
8698.56534 1.54874e-17
8702.79336 1.54648e-17
8707.02138 1.54290e-17
8711.24940 1.53917e-17
8715.47742 1.53679e-17
8719.70544 1.53649e-17
8723.93346 1.53479e-17
8728.16148 1.52883e-17
8732.38950 1.51753e-17
8736.60733 1.50213e-17
8740.83535 1.48394e-17
8745.06337 1.46413e-17
8749.29139 1.44676e-17
8753.51941 1.43598e-17
8757.74743 1.43660e-17
8761.97545 1.44710e-17
8766.20347 1.46000e-17
8770.43149 1.46688e-17
8774.65951 1.46221e-17
8778.87734 1.44883e-17
8783.10536 1.43141e-17
8787.33338 1.41270e-17
8791.56140 1.39201e-17
8795.78942 1.36794e-17
8800.01744 1.33944e-17
8804.24546 1.30883e-17
8808.47348 1.28086e-17
8812.70150 1.26062e-17
8816.92952 1.25059e-17
8821.15754 1.24884e-17
8825.37538 1.25413e-17
8829.60340 1.26423e-17
8833.83142 1.27668e-17
8838.05944 1.28850e-17
8842.28746 1.29450e-17
8846.51548 1.29824e-17
8850.74350 1.30504e-17
8854.97152 1.31997e-17
8859.19954 1.34270e-17
8863.42756 1.36562e-17
8867.65558 1.38085e-17
8871.87341 1.38267e-17
8876.10143 1.37497e-17
8880.32945 1.36218e-17
8884.55747 1.34748e-17
8888.78549 1.33237e-17
8893.01351 1.31808e-17
8897.24153 1.30655e-17
8901.46955 1.29690e-17
8905.69757 1.28611e-17
8909.92559 1.27133e-17
8914.15361 1.25149e-17
8918.37144 1.22941e-17
8922.59946 1.20846e-17
8926.82748 1.19193e-17
8931.05550 1.18041e-17
8935.28352 1.17408e-17
8939.51154 1.17285e-17
8943.73956 1.17944e-17
8947.96758 1.19800e-17
8952.19560 1.23431e-17
8956.42362 1.28314e-17
8960.64145 1.32959e-17
8964.86947 1.35800e-17
8969.09749 1.35899e-17
8973.32551 1.33455e-17
8977.55353 1.29614e-17
8981.78155 1.25142e-17
8986.00957 1.20881e-17
8990.23759 1.17877e-17
8994.46561 1.17228e-17
8998.69363 1.19017e-17
9002.92165 1.22301e-17
9007.13948 1.26113e-17
9011.36750 1.29702e-17
9015.59552 1.32317e-17
9019.82354 1.33249e-17
9024.05156 1.31800e-17
9028.27958 1.28441e-17
9032.50760 1.24035e-17
9036.73562 1.19265e-17
9040.96364 1.14615e-17
9045.19166 1.10424e-17
9049.41968 1.07110e-17
9053.64770 1.04769e-17
9057.86554 1.03289e-17
9062.09356 1.02448e-17
9066.32158 1.02070e-17
9070.54960 1.02044e-17
9074.77762 1.02267e-17
9079.00564 1.02626e-17
9083.23366 1.02987e-17
9087.46168 1.03232e-17
9091.68970 1.03263e-17
9095.91772 1.03018e-17
9100.13555 1.02634e-17
9104.36357 1.02211e-17
9108.59159 1.01849e-17
9112.81961 1.01661e-17
9117.04763 1.01805e-17
9121.27565 1.02424e-17
9125.50367 1.03290e-17
9129.73169 1.04085e-17
9133.95971 1.04515e-17
9138.18773 1.04546e-17
9142.41575 1.04323e-17
9146.63358 1.04027e-17
9150.86160 1.03787e-17
9155.08962 1.03503e-17
9159.31764 1.03163e-17
9163.54566 1.02760e-17
9167.77368 1.02291e-17
9172.00170 1.01748e-17
9176.22972 1.01128e-17
9180.45774 1.00707e-17
9184.68576 1.00858e-17
9188.91378 1.01866e-17
9193.14180 1.04061e-17
9197.35963 1.07506e-17
9201.58765 1.12315e-17
9205.81567 1.18456e-17
9210.04369 1.24851e-17
9214.27171 1.30508e-17
9218.49973 1.34490e-17
9222.72775 1.36604e-17
9226.95577 1.36771e-17
9231.18379 1.35006e-17
9235.41181 1.31914e-17
9239.62964 1.28205e-17
9243.85766 1.24821e-17
9248.08568 1.22456e-17
9252.31370 1.20999e-17
9256.54172 1.20351e-17
9260.76974 1.20359e-17
9264.99776 1.20822e-17
9269.22578 1.21501e-17
9273.45380 1.22227e-17
9277.68182 1.22380e-17
9281.89966 1.21423e-17
9286.12768 1.18756e-17
9290.35570 1.14088e-17
9294.58372 1.08616e-17
9298.81174 1.03351e-17
9303.03976 9.92783e-18
9307.26778 9.64762e-18
9311.49580 9.51038e-18
9315.72382 9.55873e-18
9319.95184 9.70680e-18
9324.17986 9.83784e-18
9328.40788 9.80780e-18
9332.62571 9.63020e-18
9336.85373 9.43684e-18
9341.08175 9.36705e-18
9345.30977 9.50257e-18
9349.53779 9.76995e-18
9353.76581 1.00773e-17
9357.99383 1.03460e-17
9362.22185 1.05391e-17
9366.44987 1.06136e-17
9370.67789 1.05160e-17
9374.90591 1.02952e-17
9379.12374 1.00814e-17
9383.35176 1.00003e-17
9387.57978 1.01021e-17
9391.80780 1.02615e-17
9396.03582 1.03446e-17
9400.26384 1.02367e-17
9404.49186 1.00102e-17
9408.71988 9.76820e-18
9412.94790 9.57239e-18
9417.17592 9.51234e-18
9421.39375 9.66992e-18
9425.62177 1.01691e-17
9429.84979 1.09300e-17
9434.07781 1.17086e-17
9438.30583 1.22571e-17
9442.53385 1.23343e-17
9446.76187 1.21031e-17
9450.98989 1.17176e-17
9455.21791 1.13428e-17
9459.44593 1.09994e-17
9463.67395 1.06836e-17
9467.89178 1.03981e-17
9472.11980 1.01705e-17
9476.34782 1.00496e-17
9480.57584 1.00982e-17
9484.80386 1.03120e-17
9489.03188 1.06002e-17
9493.25990 1.08597e-17
9497.48792 1.09806e-17
9501.71594 1.10482e-17
9505.94396 1.11755e-17
9510.17198 1.14590e-17
9514.38982 1.18739e-17
9518.61784 1.23180e-17
9522.84586 1.26811e-17
9527.07388 1.29041e-17
9531.30190 1.30045e-17
9535.52992 1.30282e-17
9539.75794 1.29923e-17
9543.98596 1.28405e-17
9548.21398 1.25241e-17
9552.44200 1.19828e-17
9556.67002 1.13231e-17
9560.88785 1.07047e-17
9565.11587 1.02626e-17
9569.34389 1.00731e-17
9573.57191 1.00442e-17
9577.79993 1.01111e-17
9582.02795 1.02087e-17
9586.25597 1.02879e-17
9590.48399 1.02914e-17
9594.71201 1.01675e-17
9598.94003 9.97088e-18
9603.16805 9.79001e-18
9607.38588 9.72528e-18
9611.61390 9.77661e-18
9615.84192 9.89774e-18
9620.06994 1.00521e-17
9624.29796 1.01970e-17
9628.52598 1.02952e-17
9632.75400 1.02987e-17
9636.98202 1.01842e-17
9641.21004 9.99113e-18
9645.43806 9.77958e-18
9649.65589 9.62044e-18
9653.88391 9.50312e-18
9658.11193 9.38100e-18
9662.33995 9.20983e-18
9666.56797 8.99616e-18
9670.79599 8.82941e-18
9675.02401 8.79887e-18
9679.25203 8.97379e-18
9683.48005 9.25254e-18
9687.70807 9.54969e-18
9691.93609 9.75796e-18
9696.16411 9.93236e-18
9700.38194 1.01633e-17
9704.60996 1.05625e-17
9708.83798 1.10675e-17
9713.06600 1.15188e-17
9717.29402 1.17499e-17
9721.52204 1.16861e-17
9725.75006 1.14315e-17
9729.97808 1.11405e-17
9734.20610 1.09202e-17
9738.43412 1.07736e-17
9742.66214 1.06889e-17
9746.87998 1.06588e-17
9751.10800 1.06468e-17
9755.33602 1.05954e-17
9759.56404 1.04520e-17
9763.79206 1.01928e-17
9768.02008 9.85820e-18
9772.24810 9.48379e-18
9776.47612 9.11213e-18
9780.70414 8.76986e-18
9784.93216 8.47489e-18
9789.14999 8.24615e-18
9793.37801 8.10265e-18
9797.60603 8.04798e-18
9801.83405 8.09796e-18
9806.06207 8.21896e-18
9810.29009 8.32022e-18
9814.51811 8.32367e-18
9818.74613 8.16448e-18
9822.97415 7.96263e-18
9827.20217 7.82656e-18
9831.43019 7.87089e-18
9835.65821 8.08220e-18
9839.87604 8.45086e-18
9844.10406 8.95988e-18
9848.33208 9.57278e-18
9852.56010 1.02369e-17
9856.78812 1.08942e-17
9861.01614 1.14904e-17
9865.24416 1.19875e-17
9869.47218 1.23367e-17
9873.70020 1.25132e-17
9877.92822 1.25001e-17
9882.14605 1.22775e-17
9886.37407 1.18520e-17
9890.60209 1.13059e-17
9894.83011 1.07785e-17
9899.05813 1.04063e-17
9903.28615 1.02579e-17
9907.51417 1.02356e-17
9911.74219 1.02554e-17
9915.97021 1.02563e-17
9920.19823 1.02001e-17
9924.42625 1.00465e-17
9928.64408 9.73488e-18
9932.87210 9.39332e-18
9937.10012 9.18461e-18
9941.32814 9.26309e-18
9945.55616 9.64296e-18
9949.78418 1.00979e-17
9954.01220 1.04356e-17
9958.24022 1.05098e-17
9962.46824 1.03950e-17
9966.69626 1.01330e-17
9970.92428 9.75961e-18
9975.15230 9.31409e-18
9979.37014 8.83491e-18
9983.59816 8.36465e-18
9987.82618 7.95425e-18
9992.05420 7.65201e-18
9996.28222 7.52033e-18
9996.81574 7.52033e-18
9997.67721 7.53280e-18
9998.54869 7.53655e-18
9999.41015 7.54026e-18
