# wavelength flux
3719.99538 5.65613e-18
3721.50320 6.39526e-18
3723.00084 5.23324e-18
3724.49848 5.22479e-18
3725.99611 5.21637e-18
3727.50394 5.20791e-18
3729.00157 5.20756e-18
3730.49921 9.59645e-18
3731.99684 7.84994e-18
3733.50467 7.45804e-18
3735.00230 4.35624e-18
3736.49994 3.93785e-18
3737.99758 6.59919e-18
3739.49521 8.06317e-18
3741.00304 7.34032e-18
3742.50067 9.93847e-18
3743.99831 1.05237e-17
3745.49594 1.11089e-17
3747.00377 1.16940e-17
3748.50140 1.16933e-17
3749.99904 1.07936e-17
3751.49668 9.89413e-18
3753.00450 8.99476e-18
3754.50214 8.09547e-18
3755.99977 8.09494e-18
3757.49741 1.50881e-17
3758.99504 1.04587e-17
3760.50287 7.66233e-18
3762.00050 7.04163e-18
3763.49814 6.42106e-18
3764.99578 5.80056e-18
3766.50360 5.18010e-18
3768.00124 4.55977e-18
3769.49887 3.93947e-18
3770.99651 3.31927e-18
3772.50433 3.31906e-18
3774.00197 4.16134e-19
3775.49960 2.64666e-19
3776.99724 1.23271e-17
3778.49488 1.19733e-17
3780.00270 1.16195e-17
3781.50034 1.14131e-17
3782.99797 1.12067e-17
3784.49561 1.10004e-17
3786.00343 1.07941e-17
3787.50107 1.05877e-17
3788.99870 1.03814e-17
3790.49634 1.01752e-17
3792.00416 9.96899e-18
3793.50180 9.76281e-18
3794.99944 9.55663e-18
3796.49707 9.35047e-18
3798.00490 9.14438e-18
3799.50253 8.93828e-18
3801.00017 8.73220e-18
3802.49780 8.52618e-18
3803.99544 8.32016e-18
3805.50326 8.11419e-18
3807.00090 7.90822e-18
3808.49854 7.70227e-18
3809.99617 7.49638e-18
3811.50400 7.29048e-18
3813.00163 7.08461e-18
3814.49927 6.87880e-18
3815.99690 6.67298e-18
3817.50473 6.46721e-18
3819.00236 9.01028e-18
3820.50000 4.69723e-18
3821.99764 6.07836e-18
3823.49527 7.77174e-18
3825.00310 8.88935e-18
3826.50073 5.38430e-18
3827.99837 2.23180e-18
3829.49600 3.76080e-18
3831.00383 5.23454e-18
3832.50146 6.11339e-18
3833.99910 9.45343e-18
3835.49674 7.58598e-18
3837.00456 7.41971e-18
3838.50220 4.88906e-18
3839.99983 2.98094e-18
3841.49747 7.72863e-18
3842.99510 7.32521e-18
3844.50293 5.56909e-18
3846.00056 3.66158e-18
3847.49820 3.20861e-18
3848.99584 3.75533e-18
3850.50366 1.44471e-18
3852.00130 6.47088e-18
3853.49893 8.69682e-18
3854.99657 3.04583e-18
3856.50439 6.09866e-18
3858.00203 5.75609e-18
3859.49966 5.93703e-18
3860.99730 6.15232e-18
3862.49494 3.97595e-18
3864.00276 7.06577e-18
3865.50040 6.09237e-18
3866.99803 5.70430e-18
3868.49567 4.63076e-18
3870.00349 6.55572e-18
3871.50113 5.83739e-18
3872.99876 7.12202e-18
3874.49640 9.21430e-18
3876.00422 7.77754e-18
3877.50186 5.69589e-18
3878.99950 6.38738e-18
3880.49713 8.62630e-18
3881.99477 7.97213e-18
3883.50259 7.48294e-18
3885.00023 6.54909e-18
3886.49786 9.34183e-18
3887.99550 1.06309e-17
3889.50332 6.28706e-18
3891.00096 7.38469e-18
3892.49860 7.09470e-18
3893.99623 6.44741e-18
3895.50406 3.09281e-18
3897.00169 5.71406e-18
3898.49933 8.57411e-18
3899.99696 6.16721e-18
3901.50479 8.22634e-18
3903.00242 1.08857e-17
3904.50006 1.11984e-17
3905.99770 9.64632e-18
3907.49533 5.18055e-18
3909.00316 1.69891e-18
3910.50079 1.77073e-18
3911.99843 6.04108e-18
3913.49606 1.12424e-17
3915.00389 7.39906e-18
3916.50152 8.27361e-18
3917.99916 1.04148e-17
3919.49680 1.06503e-17
3921.00462 9.08156e-18
3922.50226 6.52142e-18
3923.99989 8.03864e-18
3925.49753 6.71482e-18
3926.99516 9.69942e-18
3928.50299 1.15643e-17
3930.00062 9.54863e-18
3931.49826 1.00152e-17
3932.99590 7.25697e-18
3934.50372 8.64772e-18
3936.00136 1.02540e-17
3937.49899 1.00751e-17
3938.99663 9.03489e-18
3940.50445 8.46415e-18
3942.00209 8.81854e-18
3943.49972 1.22135e-17
3944.99736 1.04649e-17
3946.49500 9.26944e-18
3948.00282 1.16434e-17
3949.50046 7.74698e-18
3950.99809 8.17664e-18
3952.49573 7.46933e-18
3954.00355 5.32401e-18
3955.50119 7.50020e-18
3956.99882 8.25276e-18
3958.49646 8.15711e-18
3960.00428 1.06931e-17
3961.50192 8.27187e-18
3962.99956 6.90883e-18
3964.49719 9.09111e-18
3965.99483 8.15948e-18
3967.50265 9.40878e-18
3969.00029 1.08332e-17
3970.49792 8.62569e-18
3971.99556 7.41652e-18
3973.50338 6.68803e-18
3975.00102 7.68254e-18
3976.49866 9.86666e-18
3977.99629 1.04514e-17
3979.50412 9.10101e-18
3981.00175 1.04484e-17
3982.49939 1.19164e-17
3983.99702 9.78194e-18
3985.50485 7.30793e-18
3987.00248 7.17238e-18
3988.50012 9.39391e-18
3989.99776 7.64482e-18
3991.49539 9.17507e-18
3993.00322 1.00477e-17
3994.50085 1.04440e-17
3995.99849 1.04644e-17
3997.49612 1.03921e-17
3999.00395 1.03734e-17
4000.50158 8.99640e-18
4001.99922 9.38491e-18
4003.49686 1.10238e-17
4005.00468 8.23792e-18
4006.50232 5.33320e-18
4007.99995 1.00748e-17
4009.49759 1.15376e-17
4010.99522 7.86773e-18
4012.50305 8.03792e-18
4014.00068 9.02054e-18
4015.49832 8.60739e-18
4016.99596 9.85690e-18
4018.50378 9.96956e-18
4020.00142 7.55477e-18
4021.49905 7.49025e-18
4022.99669 6.91148e-18
4024.50451 7.43590e-18
4026.00215 8.75727e-18
4027.49978 9.71821e-18
4028.99742 9.82926e-18
4030.49506 6.03190e-18
4032.00288 6.49543e-18
4033.50052 8.06011e-18
4034.99815 6.75393e-18
4036.49579 9.29187e-18
4038.00361 9.65106e-18
4039.50125 6.17019e-18
4040.99888 7.38674e-18
4042.49652 6.85228e-18
4044.00434 1.02871e-17
4045.50198 1.10402e-17
4046.99962 7.25668e-18
4048.49725 9.20800e-18
4049.99489 9.15747e-18
4051.50271 5.22271e-18
4053.00035 8.35828e-18
4054.49798 9.26256e-18
4055.99562 8.83370e-18
4057.50344 8.12291e-18
4059.00108 1.06118e-17
4060.49872 8.38980e-18
4061.99635 1.16395e-17
4063.50418 1.02257e-17
4065.00181 5.95516e-18
4066.49945 4.84483e-18
4067.99708 7.07612e-18
4069.50491 4.55932e-18
4071.00254 6.94874e-18
4072.50018 8.32376e-18
4073.99782 8.36283e-18
4075.49545 5.42159e-18
4077.00328 5.26935e-18
4078.50091 6.01724e-18
4079.99855 5.43290e-18
4081.49618 6.45725e-18
4083.00401 9.58904e-18
4084.50164 1.06142e-17
4085.99928 7.21602e-18
4087.49692 6.38883e-18
4089.00474 7.70012e-18
4090.50238 7.89546e-18
4092.00001 9.43322e-18
4093.49765 9.33885e-18
4094.99528 8.73863e-18
4096.50311 8.54251e-18
4098.00074 6.30639e-18
4099.49838 5.53627e-18
4100.99602 5.95900e-18
4102.50384 5.38933e-18
4104.00148 6.66862e-18
4105.49911 8.87805e-18
4106.99675 9.73132e-18
4108.50457 7.40366e-18
4110.00221 8.17813e-18
4111.49984 9.69691e-18
4112.99748 8.38264e-18
4114.49512 8.09415e-18
4116.00294 5.04216e-18
4117.50058 6.82978e-18
4118.99821 7.35839e-18
4120.49585 6.51795e-18
4122.00367 6.57216e-18
4123.50131 8.72954e-18
4124.99894 9.82783e-18
4126.49658 7.17631e-18
4128.00440 7.84349e-18
4129.50204 8.77545e-18
4130.99968 7.46342e-18
4132.49731 6.60963e-18
4133.99495 4.98725e-18
4135.50277 1.00775e-17
4137.00041 8.55838e-18
4138.49804 8.62017e-18
4139.99568 5.86126e-18
4141.50350 2.71768e-18
4143.00114 8.01534e-18
4144.49878 8.71633e-18
4145.99641 5.79404e-18
4147.50424 8.84163e-18
4149.00187 8.61819e-18
4150.49951 9.27301e-18
4151.99714 8.66613e-18
4153.49478 5.20206e-18
4155.00260 6.94893e-18
4156.50024 7.84668e-18
4157.99788 6.17189e-18
4159.49551 6.94809e-18
4161.00334 7.93748e-18
4162.50097 7.61703e-18
4163.99861 9.05613e-18
4165.49624 6.53457e-18
4167.00407 4.73118e-18
4168.50170 4.61793e-18
4169.99934 6.99418e-18
4171.49698 6.79743e-18
4173.00480 6.06981e-18
4174.50244 7.07958e-18
4176.00007 9.35110e-18
4177.49771 9.29904e-18
4178.99534 9.36416e-18
4180.50317 7.84115e-18
4182.00080 7.17283e-18
4183.49844 6.87272e-18
4184.99608 6.96913e-18
4186.50390 7.13818e-18
4188.00154 7.78470e-18
4189.49917 9.06931e-18
4190.99681 8.23848e-18
4192.50463 6.11772e-18
4194.00227 5.05946e-18
4195.49990 6.72976e-18
4196.99754 7.51610e-18
4198.49518 8.74229e-18
4200.00300 7.53393e-18
4201.50064 4.25594e-18
4202.99827 5.82423e-18
4204.49591 7.32128e-18
4206.00373 5.99530e-18
4207.50137 8.78568e-18
4208.99900 7.82759e-18
4210.49664 3.78059e-18
4212.00446 4.33663e-18
4213.50210 6.32945e-18
4214.99974 7.93924e-18
4216.49737 9.15086e-18
4218.00520 7.79427e-18
4219.50283 7.45129e-18
4221.00047 6.56016e-18
4222.49810 6.91713e-18
4223.99574 9.09754e-18
4225.50356 9.42495e-18
4227.00120 9.19197e-18
4228.49884 7.44411e-18
4229.99647 8.67756e-18
4231.50430 1.02734e-17
4233.00193 9.06291e-18
4234.49957 8.51106e-18
4235.99720 7.67826e-18
4237.50503 6.73430e-18
4239.00266 4.53697e-18
4240.50030 5.00264e-18
4241.99794 8.02601e-18
4243.49557 7.15564e-18
4245.00340 5.16418e-18
4246.50103 4.98660e-18
4247.99867 6.01605e-18
4249.49630 7.14405e-18
4251.00413 7.51808e-18
4252.50176 7.84411e-18
4253.99940 7.55388e-18
4255.49704 7.48893e-18
4257.00486 5.92774e-18
4258.50250 6.55083e-18
4260.00013 8.18654e-18
4261.49777 8.69468e-18
4262.99540 7.01595e-18
4264.50323 4.91510e-18
4266.00086 8.93493e-18
4267.49850 7.59538e-18
4268.99614 5.22395e-18
4270.50396 8.36358e-18
4272.00160 6.03670e-18
4273.49923 6.94780e-18
4274.99687 4.91370e-18
4276.50469 6.36548e-18
4278.00233 8.00221e-18
4279.49996 7.33506e-18
4280.99760 7.08755e-18
4282.49524 7.45671e-18
4284.00306 8.95054e-18
4285.50070 7.95412e-18
4286.99833 4.90025e-18
4288.49597 7.13961e-18
4290.00379 9.77091e-18
4291.50143 8.89049e-18
4292.99906 8.45530e-18
4294.49670 6.83731e-18
4296.00452 8.17903e-18
4297.50216 8.59017e-18
4298.99980 5.47775e-18
4300.49743 7.98466e-18
4301.99507 1.00522e-17
4303.50289 7.91338e-18
4305.00053 8.51481e-18
4306.49816 8.67979e-18
4307.99580 9.07296e-18
4309.50362 8.77218e-18
4311.00126 5.29438e-18
4312.49890 5.98483e-18
4313.99653 7.07778e-18
4315.50436 6.72641e-18
4317.00199 7.68860e-18
4318.49963 8.39892e-18
4319.99726 5.92023e-18
4321.49490 5.70860e-18
4323.00272 7.79940e-18
4324.50036 7.37402e-18
4325.99800 8.50835e-18
4327.49563 8.97196e-18
4329.00346 8.50830e-18
4330.50109 6.76437e-18
4331.99873 6.31888e-18
4333.49636 7.23333e-18
4335.00419 6.08526e-18
4336.50182 6.70126e-18
4337.99946 7.77787e-18
4339.49710 6.15856e-18
4341.00492 4.71723e-18
4342.50256 6.52296e-18
4344.00019 6.57678e-18
4345.49783 6.52236e-18
4346.99546 6.55157e-18
4348.50329 4.79715e-18
4350.00092 4.10966e-18
4351.49856 6.08892e-18
4352.99620 6.71257e-18
4354.50402 5.28875e-18
4356.00166 6.18541e-18
4357.49929 8.14553e-18
4358.99693 7.01682e-18
4360.50475 5.76659e-18
4362.00239 6.55202e-18
4363.50002 7.34789e-18
4364.99766 8.63467e-18
4366.49530 7.00539e-18
4368.00312 5.47535e-18
4369.50076 4.76180e-18
4370.99839 5.58751e-18
4372.49603 8.03361e-18
4374.00385 7.70933e-18
4375.50149 6.84489e-18
4376.99912 7.77365e-18
4378.49676 8.00633e-18
4380.00458 5.94813e-18
4381.50222 5.15420e-18
4382.99986 5.49846e-18
4384.49749 5.95593e-18
4385.99513 7.79888e-18
4387.50295 7.07067e-18
4389.00059 6.85573e-18
4390.49822 6.90960e-18
4391.99586 4.80420e-18
4393.50368 5.30907e-18
4395.00132 6.44990e-18
4396.49896 7.42792e-18
4397.99659 6.70492e-18
4399.50442 4.52798e-18
4401.00205 5.61716e-18
4402.49969 7.91132e-18
4403.99732 7.37535e-18
4405.50515 5.50941e-18
4407.00278 5.35483e-18
4408.50042 7.24984e-18
4409.99806 8.38193e-18
4411.49569 8.06081e-18
4413.00352 6.05089e-18
4414.50115 5.70410e-18
4415.99879 5.78241e-18
4417.49642 5.86069e-18
4419.00425 5.93896e-18
4420.50188 6.01724e-18
4421.99952 6.09550e-18
4423.49716 6.17374e-18
4425.00498 6.25200e-18
4426.50262 6.33023e-18
4428.00025 6.40845e-18
4429.49789 6.48668e-18
4430.99552 6.56488e-18
4432.50335 6.64308e-18
4434.00098 6.72126e-18
4435.49862 6.79946e-18
4436.99626 6.87762e-18
4438.50408 6.95578e-18
4440.00172 7.03395e-18
4441.49935 7.11209e-18
4442.99699 7.19023e-18
4444.50481 7.26837e-18
4446.00245 7.34649e-18
4447.50008 7.42459e-18
4448.99772 7.50271e-18
4450.49536 7.58080e-18
4452.00318 7.65887e-18
4453.50082 7.73697e-18
4454.99845 7.81503e-18
4456.49609 7.89308e-18
4458.00391 7.97112e-18
4459.50155 8.04918e-18
4460.99918 8.12721e-18
4462.49682 8.20522e-18
4464.00464 8.28325e-18
4465.50228 8.36125e-18
4466.99992 8.43924e-18
4468.49755 8.51725e-18
4469.99519 8.59522e-18
4471.50301 8.67318e-18
4473.00065 8.75116e-18
4474.49828 8.82911e-18
4475.99592 8.90704e-18
4477.50374 9.37942e-18
4479.00138 8.57216e-18
4480.49902 8.35118e-18
4481.99665 6.70294e-18
4483.50448 9.09895e-18
4485.00211 7.43313e-18
4486.49975 5.39888e-18
4487.99738 6.91006e-18
4489.49502 9.37396e-18
4491.00284 6.66277e-18
4492.50048 6.62183e-18
4493.99812 6.17146e-18
4495.49575 6.44007e-18
4497.00358 7.54823e-18
4498.50121 8.01842e-18
4499.99885 1.08258e-17
4501.49648 8.37736e-18
4503.00431 8.68142e-18
4504.50194 7.44863e-18
4505.99958 8.93496e-18
4507.49722 8.72411e-18
4508.99485 8.16812e-18
4510.50268 8.04128e-18
4512.00031 8.68790e-18
4513.49795 7.50576e-18
4514.99558 8.46187e-18
4516.50341 9.00380e-18
4518.00104 8.38465e-18
4519.49868 9.04953e-18
4520.99632 9.14623e-18
4522.50414 7.55898e-18
4524.00178 8.72974e-18
4525.49941 9.07628e-18
4526.99705 9.15970e-18
4528.50487 9.31360e-18
4530.00251 9.33196e-18
4531.50014 1.02623e-17
4532.99778 1.07618e-17
4534.49542 1.02031e-17
4536.00324 1.01796e-17
4537.50088 9.29264e-18
4538.99851 8.69149e-18
4540.49615 8.81867e-18
4542.00397 8.59978e-18
4543.50161 1.02344e-17
4544.99924 1.02671e-17
4546.49688 1.00235e-17
4548.00470 1.09207e-17
4549.50234 1.13576e-17
4550.99998 1.09869e-17
4552.49761 1.02890e-17
4553.99525 1.25697e-17
4555.50307 1.21259e-17
4557.00071 9.94726e-18
4558.49834 9.61569e-18
4559.99598 9.87653e-18
4561.50380 1.12721e-17
4563.00144 1.20487e-17
4564.49908 1.17370e-17
4565.99671 1.07423e-17
4567.50454 9.19502e-18
4569.00217 1.22470e-17
4570.49981 1.27032e-17
4571.99744 1.08569e-17
4573.49508 1.08380e-17
4575.00290 1.29481e-17
4576.50054 1.35850e-17
4577.99818 1.14414e-17
4579.49581 1.07238e-17
4581.00364 1.15491e-17
4582.50127 1.09715e-17
4583.99891 1.06140e-17
4585.49654 1.22498e-17
4587.00437 1.21606e-17
4588.50200 1.33452e-17
4589.99964 1.49673e-17
4591.49728 1.37018e-17
4593.00510 1.21616e-17
4594.50274 1.17524e-17
4596.00037 1.03050e-17
4597.49801 1.04410e-17
4598.99564 1.29099e-17
4600.50347 1.28587e-17
4602.00110 1.14328e-17
4603.49874 1.16604e-17
4604.99638 1.20804e-17
4606.50420 1.13324e-17
4608.00184 1.05941e-17
4609.49947 1.26157e-17
4610.99711 1.42796e-17
4612.50493 1.26213e-17
4614.00257 1.23519e-17
4615.50020 1.24965e-17
4616.99784 1.23421e-17
4618.49548 1.18343e-17
4620.00330 1.10367e-17
4621.50094 1.19186e-17
4622.99857 1.27681e-17
4624.49621 1.18742e-17
4626.00403 1.24563e-17
4627.50167 1.27306e-17
4628.99930 1.14432e-17
4630.49694 1.22027e-17
4632.00476 1.18517e-17
4633.50240 1.14070e-17
4635.00004 1.32633e-17
4636.49767 1.31250e-17
4637.99531 1.21766e-17
4639.50313 1.25579e-17
4641.00077 1.29127e-17
4642.49840 1.20843e-17
4643.99604 1.19388e-17
4645.50386 1.21610e-17
4647.00150 1.24287e-17
4648.49914 1.21498e-17
4649.99677 1.24802e-17
4651.50460 1.18530e-17
4653.00223 1.16332e-17
4654.49987 1.12431e-17
4655.99750 1.11869e-17
4657.49514 1.24269e-17
4659.00296 1.13616e-17
4660.50060 1.07964e-17
4661.99824 1.18069e-17
4663.49587 1.18598e-17
4665.00370 1.17236e-17
4666.50133 1.16772e-17
4667.99897 1.12359e-17
4669.49660 1.17784e-17
4671.00443 1.17951e-17
4672.50206 1.06103e-17
4673.99970 1.16658e-17
4675.49734 1.18330e-17
4676.99497 1.16842e-17
4678.50280 1.14866e-17
4680.00043 1.06264e-17
4681.49807 1.11800e-17
4682.99570 1.15022e-17
4684.50353 1.08011e-17
4686.00116 1.16021e-17
4687.49880 1.09515e-17
4688.99644 1.14390e-17
4690.50426 1.16734e-17
4692.00190 1.09840e-17
4693.49953 1.00264e-17
4694.99717 8.69637e-18
4696.49480 9.32864e-18
4698.00263 1.01526e-17
4699.50026 1.02558e-17
4700.99790 1.05971e-17
4702.49554 1.23673e-17
4704.00336 8.96980e-18
4705.50100 9.02170e-18
4706.99863 8.75972e-18
4708.49627 9.54042e-18
4710.00409 1.07371e-17
4711.50173 1.02424e-17
4712.99936 9.40132e-18
4714.49700 8.57931e-18
4716.00482 8.81619e-18
4717.50246 9.79207e-18
4719.00010 9.31900e-18
4720.49773 9.76227e-18
4721.99537 1.03162e-17
4723.50319 1.16989e-17
4725.00083 1.09571e-17
4726.49846 8.93598e-18
4727.99610 8.44779e-18
4729.50392 9.11461e-18
4731.00156 8.65184e-18
4732.49920 8.07091e-18
4733.99683 9.16735e-18
4735.50466 8.99688e-18
4737.00229 8.91854e-18
4738.49993 1.02410e-17
4739.99756 9.15011e-18
4741.49520 8.84076e-18
4743.00302 9.04094e-18
4744.50066 9.10382e-18
4745.99830 9.22147e-18
4747.49593 8.85416e-18
4749.00376 9.20413e-18
4750.50139 9.63880e-18
4751.99903 9.18423e-18
4753.49666 9.22014e-18
4755.00449 8.22281e-18
4756.50212 7.76604e-18
4757.99976 8.44895e-18
4759.49740 9.21112e-18
4761.00522 7.78241e-18
4762.50286 9.33338e-18
4764.00049 9.10423e-18
4765.49813 7.45301e-18
4766.99576 7.54372e-18
4768.50359 6.79923e-18
4770.00122 8.07798e-18
4771.49886 7.66503e-18
4772.99650 7.61196e-18
4774.50432 8.82866e-18
4776.00196 7.83211e-18
4777.49959 9.08170e-18
4778.99723 7.79427e-18
4780.50505 7.24984e-18
4782.00269 6.81580e-18
4783.50032 9.22508e-18
4784.99796 8.28029e-18
4786.49560 7.98259e-18
4788.00342 7.10884e-18
4789.50106 6.85509e-18
4790.99869 6.84773e-18
4792.49633 6.94308e-18
4794.00415 7.76148e-18
4795.50179 8.05143e-18
4796.99942 9.88163e-18
4798.49706 8.11296e-18
4800.00488 6.62518e-18
4801.50252 7.40687e-18
4803.00016 8.70198e-18
4804.49779 7.74509e-18
4805.99543 7.04284e-18
4807.50325 7.52299e-18
4809.00089 9.26781e-18
4810.49852 9.29648e-18
4811.99616 8.45099e-18
4813.50398 7.92969e-18
4815.00162 9.04346e-18
4816.49926 8.93851e-18
4817.99689 7.93507e-18
4819.50472 7.75928e-18
4821.00235 7.87986e-18
4822.49999 7.05008e-18
4823.99762 8.96959e-18
4825.49526 8.49699e-18
4827.00308 7.76211e-18
4828.50072 8.90736e-18
4829.99836 8.17377e-18
4831.49599 9.75801e-18
4833.00382 1.10806e-17
4834.50145 8.60981e-18
4835.99909 8.47019e-18
4837.49672 9.23458e-18
4839.00455 7.84040e-18
4840.50218 7.59765e-18
4841.99982 8.19744e-18
4843.49746 8.03691e-18
4844.99509 8.57057e-18
4846.50292 9.78319e-18
4848.00055 9.12453e-18
4849.49819 8.28188e-18
4850.99582 7.63665e-18
4852.50365 1.02738e-17
4854.00128 7.64322e-18
4855.49892 7.12467e-18
4856.99656 8.14786e-18
4858.50438 8.26087e-18
4860.00202 7.62427e-18
4861.49965 8.40914e-18
4862.99729 7.04405e-18
4864.49492 7.65790e-18
4866.00275 8.71069e-18
4867.50038 8.95009e-18
4868.99802 8.62561e-18
4870.49566 8.37304e-18
4872.00348 6.72639e-18
4873.50112 8.30033e-18
4874.99875 8.81570e-18
4876.49639 8.55442e-18
4878.00421 8.94140e-18
4879.50185 8.18765e-18
4880.99948 7.82086e-18
4882.49712 7.17876e-18
4884.00494 6.73952e-18
4885.50258 9.02534e-18
4887.00022 9.28202e-18
4888.49785 8.17368e-18
4889.99549 8.25841e-18
4891.50331 8.10283e-18
4893.00095 9.15759e-18
4894.49858 9.74221e-18
4895.99622 9.42577e-18
4897.50404 9.43967e-18
4899.00168 8.87939e-18
4900.49932 8.19632e-18
4901.99695 9.34447e-18
4903.50478 1.05300e-17
4905.00241 8.77282e-18
4906.50005 9.95220e-18
4907.99768 1.04757e-17
4909.49532 1.05193e-17
4911.00314 1.00602e-17
4912.50078 9.29611e-18
4913.99842 1.02025e-17
4915.49605 1.19949e-17
4917.00388 9.82482e-18
4918.50151 9.79761e-18
4919.99915 9.64368e-18
4921.49678 1.02934e-17
4923.00461 9.96126e-18
4924.50224 8.90667e-18
4925.99988 1.00670e-17
4927.49752 1.05625e-17
4928.99515 1.07238e-17
4930.50298 1.11524e-17
4932.00061 1.04765e-17
4933.49825 1.05381e-17
4934.99588 1.05455e-17
4936.50371 1.05528e-17
4938.00134 1.05601e-17
4939.49898 1.05674e-17
4940.99662 1.05748e-17
4942.50444 1.05821e-17
4944.00208 1.05894e-17
4945.49971 1.05968e-17
4946.99735 1.06041e-17
4948.50517 1.06114e-17
4950.00281 1.06187e-17
4951.50044 1.06261e-17
4952.99808 1.06334e-17
4954.49572 1.06407e-17
4956.00354 1.06480e-17
4957.50118 1.06553e-17
4958.99881 1.06627e-17
4960.49645 1.06700e-17
4962.00427 1.06773e-17
4963.50191 1.06846e-17
4964.99954 1.06919e-17
4966.49718 1.06993e-17
4968.00500 1.07066e-17
4969.50264 1.07139e-17
4971.00028 1.07212e-17
4972.49791 1.07285e-17
4973.99555 9.14661e-18
4975.50337 8.84986e-18
4977.00101 1.03100e-17
4978.49864 9.19895e-18
4979.99628 8.81138e-18
4981.50410 9.83848e-18
4983.00174 1.04095e-17
4984.49938 8.04350e-18
4985.99701 8.80374e-18
4987.50484 8.38243e-18
4989.00247 1.01519e-17
4990.50011 8.61452e-18
4991.99774 9.12428e-18
4993.49538 8.62326e-18
4995.00320 8.44486e-18
4996.50084 9.24576e-18
4997.99848 8.95022e-18
4999.49611 7.07001e-18
5001.00394 8.49794e-18
5002.50157 7.91081e-18
5003.99921 7.21753e-18
5005.49684 8.47363e-18
5007.00467 7.59906e-18
5008.50230 7.37341e-18
5009.99994 8.50493e-18
5011.49758 8.22407e-18
5012.99521 8.00467e-18
5014.50304 8.86339e-18
5016.00067 8.38605e-18
5017.49831 8.17809e-18
5018.99594 8.54488e-18
5020.50377 7.54954e-18
5022.00140 7.06762e-18
5023.49904 8.01997e-18
5024.99668 8.30037e-18
5026.50450 7.73357e-18
5028.00214 8.04967e-18
5029.49977 7.41883e-18
5030.99741 7.41068e-18
5032.49504 8.38255e-18
5034.00287 8.41592e-18
5035.50050 8.44928e-18
5036.99814 8.48264e-18
5038.49578 8.51599e-18
5040.00360 8.54935e-18
5041.50124 8.58269e-18
5042.99887 8.61603e-18
5044.49651 8.64937e-18
5046.00433 8.68271e-18
5047.50197 8.71604e-18
5048.99960 8.74937e-18
5050.49724 8.78270e-18
5051.99488 8.81601e-18
5053.50270 8.84933e-18
5055.00034 8.88265e-18
5056.49797 8.91596e-18
5057.99561 8.94926e-18
5059.50343 8.98257e-18
5061.00107 9.01587e-18
5062.49870 9.04916e-18
5063.99634 9.08246e-18
5065.50416 9.11575e-18
5067.00180 9.14903e-18
5068.49944 9.18231e-18
5069.99707 9.21559e-18
5071.50490 9.24886e-18
5073.00253 7.37219e-18
5074.50017 7.50753e-18
5075.99780 8.35057e-18
5077.49544 7.61123e-18
5079.00326 8.65534e-18
5080.50090 9.18295e-18
5081.99854 9.15464e-18
5083.49617 9.14387e-18
5085.00400 9.13310e-18
5086.50163 9.12233e-18
5087.99927 9.11156e-18
5089.49690 9.10079e-18
5091.00473 9.09003e-18
5092.50236 9.07926e-18
5094.00000 9.06850e-18
5095.49764 9.05774e-18
5096.99527 9.04698e-18
5098.50310 9.03622e-18
5100.00073 9.02546e-18
5101.49837 9.01471e-18
5102.99600 9.00395e-18
5104.50383 8.99320e-18
5106.00146 8.98245e-18
5107.49910 8.97170e-18
5108.99674 8.96095e-18
5110.50456 8.95021e-18
5112.00220 8.93946e-18
5113.49983 8.92872e-18
5114.99747 8.91797e-18
5116.49510 8.90723e-18
5118.00293 8.89649e-18
5119.50056 8.88576e-18
5120.99820 7.50332e-18
5122.49584 7.34923e-18
5124.00366 6.48559e-18
5125.50130 7.71891e-18
5126.99893 9.22257e-18
5128.49657 8.07624e-18
5130.00439 8.11313e-18
5131.50203 8.34381e-18
5132.99966 8.80797e-18
5134.49730 1.04367e-17
5136.00512 8.51143e-18
5137.50276 8.06964e-18
5139.00040 5.81959e-18
5140.49803 4.85596e-18
5141.99567 5.43019e-18
5143.50349 6.00440e-18
5145.00113 6.57851e-18
5146.49876 7.15259e-18
5147.99640 7.72661e-18
5149.50422 8.30053e-18
5151.00186 8.87442e-18
5152.49950 8.87392e-18
5153.99713 5.35563e-18
5155.50496 6.85230e-18
5157.00259 6.62303e-18
5158.50023 7.52044e-18
5159.99786 9.25792e-18
5161.49550 9.21305e-18
5163.00332 9.80638e-18
5164.50096 9.71206e-18
5165.99860 9.10596e-18
5167.49623 8.55748e-18
5169.00406 7.93829e-18
5170.50169 7.72320e-18
5171.99933 8.22112e-18
5173.49696 8.85752e-18
5175.00479 9.13597e-18
5176.50242 9.33489e-18
5178.00006 9.14992e-18
5179.49770 8.84729e-18
5180.99533 9.42685e-18
5182.50316 9.48255e-18
5184.00079 8.97148e-18
5185.49843 8.70714e-18
5186.99606 8.41941e-18
5188.50389 9.32695e-18
5190.00152 1.00812e-17
5191.49916 1.13230e-17
5192.99680 1.20138e-17
5194.50462 1.10266e-17
5196.00226 9.48981e-18
5197.49989 1.00675e-17
5198.99753 9.41638e-18
5200.49516 9.11431e-18
5202.00299 9.37377e-18
5203.50062 9.23654e-18
5204.99826 1.00487e-17
5206.49590 9.50166e-18
5208.00372 9.14099e-18
5209.50136 1.02338e-17
5210.99899 9.10648e-18
5212.49663 8.19156e-18
5214.00445 1.04581e-17
5215.50209 1.06793e-17
5216.99972 9.77011e-18
5218.49736 1.04631e-17
5219.99500 1.05479e-17
5221.50282 9.47525e-18
5223.00046 9.84861e-18
5224.49809 1.06204e-17
5225.99573 1.11342e-17
5227.50355 1.02380e-17
5229.00119 1.04652e-17
5230.49882 1.02399e-17
5231.99646 1.15165e-17
5233.50428 1.23997e-17
5235.00192 1.08633e-17
5236.49956 1.02503e-17
5237.99719 9.11135e-18
5239.49483 9.90033e-18
5241.00265 1.04552e-17
5242.50029 1.02116e-17
5243.99792 1.09369e-17
5245.49556 1.16366e-17
5247.00338 1.12617e-17
5248.50102 1.08499e-17
5249.99866 1.03807e-17
5251.49629 1.06163e-17
5253.00412 1.22113e-17
5254.50175 1.24380e-17
5255.99939 1.12256e-17
5257.49702 1.06410e-17
5259.00485 1.18109e-17
5260.50248 1.23733e-17
5262.00012 1.17562e-17
5263.49776 1.30957e-17
5264.99539 1.28236e-17
5266.50322 1.39019e-17
5268.00085 1.33777e-17
5269.49849 1.27354e-17
5270.99612 1.15169e-17
5272.50395 1.32914e-17
5274.00158 1.15677e-17
5275.49922 1.13209e-17
5276.99686 1.13317e-17
5278.50468 1.19699e-17
5280.00232 1.31726e-17
5281.49995 1.28015e-17
5282.99759 1.25000e-17
5284.49522 1.27034e-17
5286.00305 1.35770e-17
5287.50068 1.37384e-17
5288.99832 1.26832e-17
5290.49596 1.21014e-17
5292.00378 1.13571e-17
5293.50142 1.18119e-17
5294.99905 1.28285e-17
5296.49669 1.31163e-17
5298.00451 1.30716e-17
5299.50215 1.25418e-17
5300.99978 1.37184e-17
5302.49742 1.46504e-17
5303.99506 1.36787e-17
5305.50288 1.31339e-17
5307.00052 1.27446e-17
5308.49815 1.29785e-17
5309.99579 1.30398e-17
5311.50361 1.35818e-17
5313.00125 1.44388e-17
5314.49888 1.40806e-17
5315.99652 1.35779e-17
5317.50434 1.30491e-17
5319.00198 1.31264e-17
5320.49962 1.40879e-17
5321.99725 1.40327e-17
5323.50508 1.38564e-17
5325.00271 1.34541e-17
5326.50035 1.35344e-17
5327.99798 1.30210e-17
5329.49562 1.29154e-17
5331.00344 1.41026e-17
5332.50108 1.40469e-17
5333.99872 1.40094e-17
5335.49635 1.46761e-17
5337.00418 1.54831e-17
5338.50181 1.50212e-17
5339.99945 1.41597e-17
5341.49708 1.35787e-17
5343.00491 1.30861e-17
5344.50254 1.53238e-17
5346.00018 1.53328e-17
5347.49782 1.35866e-17
5348.99545 1.39332e-17
5350.50328 1.44997e-17
5352.00091 1.53300e-17
5353.49855 1.47602e-17
5354.99618 1.34140e-17
5356.50401 1.35075e-17
5358.00164 1.37254e-17
5359.49928 1.33700e-17
5360.99692 1.32106e-17
5362.50474 1.38533e-17
5364.00238 1.45458e-17
5365.50001 1.53167e-17
5366.99765 1.48804e-17
5368.49528 1.42359e-17
5370.00311 1.53477e-17
5371.50074 1.48916e-17
5372.99838 1.43552e-17
5374.49602 1.43024e-17
5376.00384 1.39818e-17
5377.50148 1.44101e-17
5378.99911 1.44438e-17
5380.49675 1.44137e-17
5382.00457 1.44779e-17
5383.50221 1.36904e-17
5384.99984 1.39192e-17
5386.49748 1.54465e-17
5387.99512 1.47275e-17
5389.50294 1.41046e-17
5391.00058 1.44125e-17
5392.49821 1.38599e-17
5393.99585 1.39327e-17
5395.50367 1.44248e-17
5397.00131 1.50237e-17
5398.49894 1.53526e-17
5399.99658 1.54083e-17
5401.50440 1.56881e-17
5403.00204 1.54678e-17
5404.49968 1.44120e-17
5405.99731 1.37754e-17
5407.49495 1.45790e-17
5409.00277 1.51550e-17
5410.50041 1.53930e-17
5411.99804 1.60288e-17
5413.49568 1.55403e-17
5415.00350 1.44562e-17
5416.50114 1.44886e-17
5417.99878 1.59239e-17
5419.49641 1.69863e-17
5421.00424 1.45566e-17
5422.50187 1.43211e-17
5423.99951 1.64813e-17
5425.49714 1.63108e-17
5426.99478 1.54353e-17
5428.50260 1.57316e-17
5430.00024 1.58056e-17
5431.49788 1.51491e-17
5432.99551 1.63633e-17
5434.50334 1.67995e-17
5436.00097 1.63202e-17
5437.49861 1.57401e-17
5438.99624 1.61692e-17
5440.50407 1.75199e-17
5442.00170 1.75290e-17
5443.49934 1.64092e-17
5444.99698 1.48741e-17
5446.50480 1.49806e-17
5448.00244 1.69350e-17
5449.50007 1.58923e-17
5450.99771 1.49687e-17
5452.49534 1.59637e-17
5454.00317 1.61671e-17
5455.50080 1.65043e-17
5456.99844 1.65590e-17
5458.49608 1.55824e-17
5460.00390 1.57535e-17
5461.50154 1.81672e-17
5462.99917 1.86797e-17
5464.49681 1.63109e-17
5466.00463 1.70054e-17
5467.50227 1.76058e-17
5468.99990 1.71364e-17
5470.49754 1.77364e-17
5471.99518 1.76344e-17
5473.50300 1.70563e-17
5475.00064 1.68209e-17
5476.49827 1.79767e-17
5477.99591 1.67416e-17
5479.50373 1.63494e-17
5481.00137 1.80695e-17
5482.49900 1.90044e-17
5483.99664 1.77037e-17
5485.50446 1.74563e-17
5487.00210 1.79495e-17
5488.49974 1.83867e-17
5489.99737 1.67319e-17
5491.49501 1.66612e-17
5493.00283 1.84791e-17
5494.50047 1.88855e-17
5495.99810 1.74378e-17
5497.49574 1.83327e-17
5499.00356 1.83547e-17
5500.50120 1.75711e-17
5501.99884 1.85841e-17
5503.49647 1.98102e-17
5505.00430 1.86072e-17
5506.50193 1.86570e-17
5507.99957 1.91035e-17
5509.49720 1.87123e-17
5511.00503 1.86259e-17
5512.50266 1.87788e-17
5514.00030 1.83569e-17
5515.49794 1.88973e-17
5516.99557 1.88861e-17
5518.50340 1.79360e-17
5520.00103 1.81120e-17
5521.49867 1.87332e-17
5522.99630 1.95400e-17
5524.50413 1.92843e-17
5526.00176 2.01152e-17
5527.49940 1.94754e-17
5528.99704 1.76488e-17
5530.50486 1.88823e-17
5532.00250 1.95553e-17
5533.50013 2.02324e-17
5534.99777 2.17882e-17
5536.49540 1.99750e-17
5538.00323 2.02484e-17
5539.50086 2.07236e-17
5540.99850 1.88131e-17
5542.49614 1.96999e-17
5544.00396 2.01651e-17
5545.50160 1.89614e-17
5546.99923 1.89345e-17
5548.49687 2.01886e-17
5550.00469 2.20238e-17
5551.50233 2.04136e-17
5552.99996 2.00371e-17
5554.49760 1.96821e-17
5555.99524 1.89361e-17
5557.50306 1.93064e-17
5559.00070 1.84334e-17
5560.49833 2.01145e-17
5561.99597 1.83209e-17
5563.50379 1.99336e-17
5565.00143 1.82892e-17
5566.49906 1.73644e-17
5567.99670 1.96650e-17
5569.50452 1.95169e-17
5571.00216 1.97446e-17
5572.49980 2.01503e-17
5573.99743 1.98900e-17
5575.49507 1.99493e-17
5577.00289 2.27126e-17
5578.50053 1.96721e-17
5579.99816 1.81123e-17
5581.49580 1.76343e-17
5583.00362 1.86321e-17
5584.50126 1.85002e-17
5585.99890 1.97407e-17
5587.49653 1.94332e-17
5589.00436 1.78504e-17
5590.50199 1.83611e-17
5591.99963 1.87906e-17
5593.49726 1.81403e-17
5594.99490 1.80046e-17
5596.50272 1.83412e-17
5598.00036 1.74200e-17
5599.49800 1.74615e-17
5600.99563 1.82098e-17
5602.50346 1.72655e-17
5604.00109 1.64154e-17
5605.49873 1.65581e-17
5606.99636 1.73858e-17
5608.50419 1.78807e-17
5610.00182 1.66458e-17
5611.49946 1.82049e-17
5612.99710 1.80070e-17
5614.50492 1.68849e-17
5616.00256 1.89017e-17
5617.50019 1.89538e-17
5618.99783 1.81809e-17
5620.49546 1.73539e-17
5622.00329 1.72882e-17
5623.50092 1.66182e-17
5624.99856 1.69706e-17
5626.49620 1.87813e-17
5628.00402 1.83743e-17
5629.50166 1.77046e-17
5630.99929 1.63290e-17
5632.49693 1.68259e-17
5634.00475 1.64661e-17
5635.50239 1.72769e-17
5637.00002 1.67613e-17
5638.49766 1.65793e-17
5639.99530 1.60317e-17
5641.50312 1.63270e-17
5643.00076 1.67215e-17
5644.49839 1.64850e-17
5645.99603 1.55138e-17
5647.50385 1.48036e-17
5649.00149 1.59458e-17
5650.49912 1.76370e-17
5651.99676 1.67044e-17
5653.50458 1.66721e-17
5655.00222 1.71514e-17
5656.49986 1.66071e-17
5657.99749 1.54824e-17
5659.49513 1.49120e-17
5661.00295 1.47218e-17
5662.50059 1.57047e-17
5663.99822 1.64491e-17
5665.49586 1.51398e-17
5667.00368 1.52096e-17
5668.50132 1.57675e-17
5669.99896 1.54262e-17
5671.49659 1.56347e-17
5673.00442 1.55956e-17
5674.50205 1.56508e-17
5675.99969 1.60632e-17
5677.49732 1.62351e-17
5679.00515 1.58738e-17
5680.50278 1.49415e-17
5682.00042 1.45721e-17
5683.49806 1.51163e-17
5684.99569 1.62784e-17
5686.50352 1.64216e-17
5688.00115 1.55542e-17
5689.49879 1.42837e-17
5690.99642 1.41378e-17
5692.50425 1.52991e-17
5694.00188 1.50293e-17
5695.49952 1.46909e-17
5696.99716 1.44330e-17
5698.50498 1.37840e-17
5700.00262 1.47499e-17
5701.50025 1.62292e-17
5702.99789 1.53007e-17
5704.49552 1.36348e-17
5706.00335 1.41637e-17
5707.50098 1.51124e-17
5708.99862 1.50404e-17
5710.49626 1.51890e-17
5712.00408 1.46295e-17
5713.50172 1.38798e-17
5714.99935 1.41826e-17
5716.49699 1.35458e-17
5718.00481 1.39638e-17
5719.50245 1.42295e-17
5721.00008 1.26178e-17
5722.49772 1.29558e-17
5723.99536 1.24848e-17
5725.50318 1.22062e-17
5727.00082 1.34340e-17
5728.49845 1.27879e-17
5729.99609 1.28403e-17
5731.50391 1.26358e-17
5733.00155 1.26312e-17
5734.49918 1.23107e-17
5735.99682 1.14317e-17
5737.50464 1.18984e-17
5739.00228 1.27045e-17
5740.49992 1.32760e-17
5741.99755 1.37080e-17
5743.49519 1.37669e-17
5745.00301 1.29906e-17
5746.50065 1.32838e-17
5747.99828 1.42788e-17
5749.49592 1.30625e-17
5751.00374 1.30895e-17
5752.50138 1.33892e-17
5753.99902 1.33658e-17
5755.49665 1.24893e-17
5757.00448 1.23971e-17
5758.50211 1.27273e-17
5759.99975 1.23162e-17
5761.49738 1.25314e-17
5762.99502 1.25757e-17
5764.50284 1.32770e-17
5766.00048 1.29939e-17
5767.49812 1.31751e-17
5768.99575 1.39606e-17
5770.50358 1.38222e-17
5772.00121 1.29571e-17
5773.49885 1.24385e-17
5774.99648 1.19838e-17
5776.50431 1.25192e-17
5778.00194 1.28103e-17
5779.49958 1.35330e-17
5780.99722 1.30967e-17
5782.49485 1.21869e-17
5784.00268 1.36584e-17
5785.50031 1.36381e-17
5786.99795 1.44863e-17
5788.49558 1.28497e-17
5790.00341 1.27821e-17
5791.50104 1.37770e-17
5792.99868 1.35269e-17
5794.49632 1.26744e-17
5796.00414 1.27102e-17
5797.50178 1.18566e-17
5798.99941 1.34164e-17
5800.49705 1.33215e-17
5802.00487 1.30193e-17
5803.50251 1.23147e-17
5805.00014 1.31002e-17
5806.49778 1.46339e-17
5807.99542 1.40797e-17
5809.50324 1.36273e-17
5811.00088 1.34262e-17
5812.49851 1.36957e-17
5813.99615 1.34394e-17
5815.50397 1.36176e-17
5817.00161 1.35855e-17
5818.49924 1.30091e-17
5819.99688 1.30288e-17
5821.50470 1.32822e-17
5823.00234 1.37950e-17
5824.49998 1.39764e-17
5825.99761 1.33483e-17
5827.49525 1.36490e-17
5829.00307 1.35588e-17
5830.50071 1.32932e-17
5831.99834 1.24737e-17
5833.49598 1.11465e-17
5835.00380 1.26097e-17
5836.50144 1.49966e-17
5837.99908 1.28549e-17
5839.49671 1.18615e-17
5841.00454 1.36095e-17
5842.50217 1.21706e-17
5843.99981 1.18709e-17
5845.49744 1.35012e-17
5846.99508 1.35266e-17
5848.50290 1.23056e-17
5850.00054 1.20045e-17
5851.49818 1.27735e-17
5852.99581 1.39853e-17
5854.50364 1.27800e-17
5856.00127 1.25414e-17
5857.49891 1.23540e-17
5858.99654 1.43347e-17
5860.50437 1.34053e-17
5862.00200 1.28792e-17
5863.49964 1.31268e-17
5864.99728 1.38573e-17
5866.50510 1.33370e-17
5868.00274 1.40097e-17
5869.50037 1.36833e-17
5870.99801 1.33812e-17
5872.49564 1.29450e-17
5874.00347 1.29457e-17
5875.50110 1.19793e-17
5876.99874 1.27756e-17
5878.49638 1.37666e-17
5880.00420 1.42097e-17
5881.50184 1.40685e-17
5882.99947 1.38285e-17
5884.49711 1.25561e-17
5886.00493 1.23491e-17
5887.50257 1.42825e-17
5889.00020 1.36545e-17
5890.49784 1.29018e-17
5891.99548 1.29063e-17
5893.50330 1.29108e-17
5895.00094 1.29153e-17
5896.49857 1.29199e-17
5897.99621 1.29244e-17
5899.50403 1.29289e-17
5901.00167 1.29285e-17
5902.49930 1.39743e-17
5903.99694 1.37424e-17
5905.50476 1.30370e-17
5907.00240 1.33522e-17
5908.50004 1.40819e-17
5909.99767 1.42249e-17
5911.49531 1.40891e-17
5913.00313 1.36107e-17
5914.50077 1.41715e-17
5915.99840 1.35380e-17
5917.49604 1.33269e-17
5919.00386 1.60403e-17
5920.50150 1.53646e-17
5921.99914 1.27090e-17
5923.49677 1.33028e-17
5925.00460 1.40934e-17
5926.50223 1.45351e-17
5927.99987 1.50938e-17
5929.49750 1.44882e-17
5930.99514 1.39019e-17
5932.50296 1.35247e-17
5934.00060 1.42694e-17
5935.49824 1.39320e-17
5936.99587 1.32648e-17
5938.50370 1.36000e-17
5940.00133 1.37838e-17
5941.49897 1.30284e-17
5942.99660 1.29834e-17
5944.50443 1.30679e-17
5946.00206 1.29937e-17
5947.49970 1.28811e-17
5948.99734 1.42950e-17
5950.49497 1.45150e-17
5952.00280 1.22876e-17
5953.50043 1.15699e-17
5954.99807 1.33505e-17
5956.49570 1.33296e-17
5958.00353 1.33087e-17
5959.50116 1.32878e-17
5960.99880 1.32669e-17
5962.49644 1.32460e-17
5964.00426 1.32250e-17
5965.50190 1.32041e-17
5966.99953 1.31832e-17
5968.49717 1.31623e-17
5969.99480 1.31414e-17
5971.50263 1.31205e-17
5973.00026 1.30996e-17
5974.49790 1.30787e-17
5975.99554 1.30578e-17
5977.50336 1.30370e-17
5979.00100 1.30161e-17
5980.49863 1.29952e-17
5981.99627 1.29743e-17
5983.50409 1.29534e-17
5985.00173 1.29325e-17
5986.49936 1.29116e-17
5987.99700 1.28908e-17
5989.50482 1.28699e-17
5991.00246 1.28490e-17
5992.50010 1.28281e-17
5993.99773 1.28073e-17
5995.49537 1.27864e-17
5997.00319 1.27655e-17
5998.50083 1.27447e-17
5999.99846 1.27238e-17
6001.49610 1.27029e-17
6003.00392 1.26821e-17
6004.50156 1.26612e-17
6005.99920 1.26404e-17
6007.49683 1.26195e-17
6009.00466 1.25986e-17
6010.50229 1.25778e-17
6011.99993 1.25569e-17
6013.49756 1.25361e-17
6014.99520 1.25152e-17
6016.50302 1.24944e-17
6018.00066 1.24736e-17
6019.49830 1.26657e-17
6020.99593 1.27954e-17
6022.50376 1.24644e-17
6024.00139 1.22129e-17
6025.49903 1.26155e-17
6026.99666 1.34192e-17
6028.50449 1.24013e-17
6030.00212 1.07269e-17
6031.49976 1.17004e-17
6032.99740 1.24297e-17
6034.49503 1.21911e-17
6036.00286 1.18219e-17
6037.50049 1.19222e-17
6038.99813 1.09698e-17
6040.49576 1.13181e-17
6042.00359 1.25831e-17
6043.50122 1.22161e-17
6044.99886 1.18223e-17
6046.49650 1.15149e-17
6048.00432 1.17284e-17
6049.50196 1.21473e-17
6050.99959 1.21094e-17
6052.49723 1.26812e-17
6054.00505 1.20889e-17
6055.50269 1.20770e-17
6057.00032 1.20650e-17
6058.49796 1.20531e-17
6059.99560 1.20527e-17
6061.50342 1.24486e-17
6063.00106 1.17544e-17
6064.49869 1.17921e-17
6065.99633 1.18498e-17
6067.50415 1.08509e-17
6069.00179 1.01345e-17
6070.49942 1.06200e-17
6071.99706 1.22242e-17
6073.50488 1.25761e-17
6075.00252 1.17554e-17
6076.50016 1.25130e-17
6077.99779 1.26074e-17
6079.49543 1.16663e-17
6081.00325 1.19421e-17
6082.50089 1.20438e-17
6083.99852 1.19407e-17
6085.49616 1.13062e-17
6087.00398 1.15534e-17
6088.50162 1.26686e-17
6089.99926 1.15085e-17
6091.49689 1.13243e-17
6093.00472 1.20730e-17
6094.50235 1.11223e-17
6095.99999 1.04546e-17
6097.49762 1.09304e-17
6098.99526 1.07192e-17
6100.50308 1.06781e-17
6102.00072 1.19341e-17
6103.49836 1.24375e-17
6104.99599 1.17943e-17
6106.50382 1.06716e-17
6108.00145 1.13622e-17
6109.49909 1.19612e-17
6110.99672 1.15377e-17
6112.50455 1.12910e-17
6114.00218 1.12296e-17
6115.49982 1.16854e-17
6116.99746 1.17930e-17
6118.49509 1.09195e-17
6120.00292 1.01638e-17
6121.50055 1.09974e-17
6122.99819 1.13516e-17
6124.49582 1.15154e-17
6126.00365 1.10659e-17
6127.50128 1.05315e-17
6128.99892 1.23254e-17
6130.49656 1.28600e-17
6132.00438 1.26765e-17
6133.50202 1.26958e-17
6134.99965 1.18510e-17
6136.49729 1.28259e-17
6137.99492 1.40074e-17
6139.50275 1.26945e-17
6141.00038 1.32222e-17
6142.49802 1.18154e-17
6143.99566 1.18286e-17
6145.50348 1.38892e-17
6147.00112 1.32887e-17
6148.49875 1.20629e-17
6149.99639 1.17194e-17
6151.50421 1.16005e-17
6153.00185 1.18320e-17
6154.49948 1.16332e-17
6155.99712 1.20899e-17
6157.50494 1.34996e-17
6159.00258 1.34957e-17
6160.50022 1.24329e-17
6161.99785 1.24166e-17
6163.49549 1.26692e-17
6165.00331 1.38262e-17
6166.50095 1.33206e-17
6167.99858 1.28387e-17
6169.49622 1.28757e-17
6171.00404 1.21622e-17
6172.50168 1.25207e-17
6173.99932 1.28045e-17
6175.49695 1.29266e-17
6177.00478 1.31406e-17
6178.50241 1.30382e-17
6180.00005 1.33938e-17
6181.49768 1.28768e-17
6182.99532 1.31588e-17
6184.50314 1.34596e-17
6186.00078 1.25109e-17
6187.49842 1.20383e-17
6188.99605 1.25783e-17
6190.50388 1.27388e-17
6192.00151 1.26206e-17
6193.49915 1.25024e-17
6194.99678 1.23841e-17
6196.50461 1.22659e-17
6198.00224 1.21477e-17
6199.49988 1.20295e-17
6200.99752 1.19113e-17
6202.49515 1.19109e-17
6204.00298 1.14109e-17
6205.50061 1.29182e-17
6206.99825 1.17031e-17
6208.49588 1.07783e-17
6210.00371 1.28253e-17
6211.50134 1.24930e-17
6212.99898 1.09052e-17
6214.49662 1.03605e-17
6216.00444 1.23283e-17
6217.50208 1.25550e-17
6218.99971 1.25577e-17
6220.49735 1.20685e-17
6221.99498 1.32066e-17
6223.50281 1.28231e-17
6225.00044 1.26766e-17
6226.49808 1.29482e-17
6227.99572 1.29313e-17
6229.50354 1.25326e-17
6231.00118 1.17763e-17
6232.49881 1.18052e-17
6233.99645 1.16092e-17
6235.50427 1.21409e-17
6237.00191 1.17291e-17
6238.49954 1.08137e-17
6239.99718 1.15938e-17
6241.50500 1.28233e-17
6243.00264 1.15956e-17
6244.50028 1.14802e-17
6245.99791 1.12505e-17
6247.49555 1.11361e-17
6249.00337 1.13994e-17
6250.50101 1.24863e-17
6251.99864 1.20703e-17
6253.49628 1.01130e-17
6255.00410 1.03574e-17
6256.50174 1.24122e-17
6257.99938 1.21914e-17
6259.49701 1.01114e-17
6261.00484 1.02564e-17
6262.50247 1.19508e-17
6264.00011 1.20391e-17
6265.49774 1.10439e-17
6266.99538 9.48525e-18
6268.50320 1.03508e-17
6270.00084 9.48457e-18
6271.49848 9.39045e-18
6272.99611 1.09989e-17
6274.50394 1.11087e-17
6276.00157 1.12034e-17
6277.49921 1.11352e-17
6278.99684 9.76766e-18
6280.50467 1.10397e-17
6282.00230 1.19431e-17
6283.49994 1.09537e-17
6284.99758 1.04705e-17
6286.49521 9.86100e-18
6288.00304 1.03821e-17
6289.50067 1.08365e-17
6290.99831 1.00393e-17
6292.49594 9.42204e-18
6294.00377 1.09757e-17
6295.50140 1.10619e-17
6296.99904 1.04329e-17
6298.49668 1.10706e-17
6300.00450 1.07834e-17
6301.50214 8.22316e-18
6302.99977 8.58011e-18
6304.49741 1.03859e-17
6305.99504 1.11617e-17
6307.50287 1.10214e-17
6309.00050 1.05875e-17
6310.49814 1.06192e-17
6311.99578 9.87388e-18
6313.50360 9.77935e-18
6315.00124 1.05811e-17
6316.49887 1.03718e-17
6317.99651 9.26779e-18
6319.50433 8.70041e-18
6321.00197 9.74779e-18
6322.49960 1.08546e-17
6323.99724 1.02211e-17
6325.49488 1.06049e-17
6327.00270 9.78330e-18
6328.50034 8.80180e-18
6329.99797 9.72990e-18
6331.49561 1.00647e-17
6333.00343 9.89443e-18
6334.50107 9.19768e-18
6335.99870 9.54964e-18
6337.49634 1.02481e-17
6339.00416 1.06347e-17
6340.50180 1.01140e-17
6341.99944 9.97077e-18
6343.49707 1.06409e-17
6345.00490 1.13645e-17
6346.50253 1.14873e-17
6348.00017 1.09804e-17
6349.49780 1.10246e-17
6350.99544 1.04274e-17
6352.50326 1.01214e-17
6354.00090 1.00365e-17
6355.49854 9.73465e-18
6356.99617 1.11021e-17
6358.50400 1.09368e-17
6360.00163 1.11970e-17
6361.49927 1.22677e-17
6362.99690 1.08113e-17
6364.50473 1.09498e-17
6366.00236 1.18562e-17
6367.50000 1.05296e-17
6368.99764 9.51336e-18
6370.49527 8.95125e-18
6372.00310 9.35885e-18
6373.50073 1.15516e-17
6374.99837 1.21745e-17
6376.49600 1.09845e-17
6378.00383 1.05815e-17
6379.50146 1.12116e-17
6380.99910 1.19093e-17
6382.49674 1.18071e-17
6384.00456 1.12767e-17
6385.50220 1.14921e-17
6386.99983 1.05354e-17
6388.49747 1.08315e-17
6389.99510 1.22184e-17
6391.50293 1.25095e-17
6393.00056 1.20954e-17
6394.49820 1.19793e-17
6395.99584 1.21523e-17
6397.50366 1.23413e-17
6399.00130 1.18477e-17
6400.49893 1.15151e-17
6401.99657 1.17875e-17
6403.50439 1.21377e-17
6405.00203 1.18763e-17
6406.49966 1.14928e-17
6407.99730 1.14696e-17
6409.49494 1.23325e-17
6411.00276 1.35594e-17
6412.50040 1.32839e-17
6413.99803 1.35600e-17
6415.49567 1.40166e-17
6417.00349 1.28068e-17
6418.50113 1.29871e-17
6419.99876 1.41819e-17
6421.49640 1.30921e-17
6423.00422 1.28103e-17
6424.50186 1.29456e-17
6425.99950 1.34408e-17
6427.49713 1.35246e-17
6429.00496 1.30271e-17
6430.50259 1.33922e-17
6432.00023 1.41954e-17
6433.49786 1.35409e-17
6434.99550 1.39281e-17
6436.50332 1.34922e-17
6438.00096 1.42832e-17
6439.49860 1.36224e-17
6440.99623 1.34441e-17
6442.50406 1.28625e-17
6444.00169 1.41321e-17
6445.49933 1.33738e-17
6446.99696 1.44774e-17
6448.50479 1.41005e-17
6450.00242 1.29477e-17
6451.50006 1.31816e-17
6452.99770 1.40272e-17
6454.49533 1.41822e-17
6456.00316 1.41691e-17
6457.50079 1.40013e-17
6458.99843 1.34874e-17
6460.49606 1.43583e-17
6462.00389 1.56121e-17
6463.50152 1.50359e-17
6464.99916 1.31196e-17
6466.49680 1.25059e-17
6468.00462 1.39187e-17
6469.50226 1.40272e-17
6470.99989 1.37515e-17
6472.49753 1.39286e-17
6473.99516 1.36398e-17
6475.50299 1.29862e-17
6477.00062 1.36523e-17
6478.49826 1.50277e-17
6479.99590 1.49242e-17
6481.50372 1.39915e-17
6483.00136 1.44836e-17
6484.49899 1.55394e-17
6485.99663 1.50944e-17
6487.50445 1.40271e-17
6489.00209 1.34824e-17
6490.49972 1.49295e-17
6491.99736 1.41602e-17
6493.49500 1.33857e-17
6495.00282 1.49820e-17
6496.50046 1.45424e-17
6497.99809 1.55791e-17
6499.49573 1.60206e-17
6501.00355 1.48491e-17
6502.50119 1.53006e-17
6503.99882 1.43598e-17
6505.49646 1.39041e-17
6507.00428 1.49270e-17
6508.50192 1.61470e-17
6509.99956 1.58017e-17
6511.49719 1.50178e-17
6512.99483 1.46098e-17
6514.50265 1.54386e-17
6516.00029 1.62578e-17
6517.49792 1.58178e-17
6518.99556 1.56941e-17
6520.50338 1.47116e-17
6522.00102 1.49095e-17
6523.49866 1.59042e-17
6524.99629 1.59903e-17
6526.50412 1.58746e-17
6528.00175 1.52344e-17
6529.49939 1.45954e-17
6530.99702 1.43238e-17
6532.50485 1.39382e-17
6534.00248 1.44932e-17
6535.50012 1.54518e-17
6536.99776 1.54762e-17
6538.49539 1.45008e-17
6540.00322 1.29499e-17
6541.50085 1.43106e-17
6542.99849 1.68054e-17
6544.49612 1.57541e-17
6546.00395 1.45229e-17
6547.50158 1.61373e-17
6548.99922 1.58083e-17
6550.49686 1.49780e-17
6552.00468 1.52084e-17
6553.50232 1.48427e-17
6554.99995 1.43529e-17
6556.49759 1.39886e-17
6557.99522 1.43485e-17
6559.50305 1.45318e-17
6561.00068 1.57111e-17
6562.49832 1.51954e-17
6563.99596 1.50107e-17
6565.50378 1.58446e-17
6567.00142 1.48881e-17
6568.49905 1.55592e-17
6569.99669 1.53880e-17
6571.50451 1.47313e-17
6573.00215 1.61935e-17
6574.49978 1.51937e-17
6575.99742 1.50615e-17
6577.49506 1.52907e-17
6579.00288 1.59830e-17
6580.50052 1.65018e-17
6581.99815 1.36059e-17
6583.49579 1.50323e-17
6585.00361 1.69599e-17
6586.50125 1.56709e-17
6587.99888 1.54559e-17
6589.49652 1.43306e-17
6591.00434 1.43287e-17
6592.50198 1.44198e-17
6593.99962 1.38385e-17
6595.49725 1.50280e-17
6596.99489 1.61864e-17
6598.50271 1.60900e-17
6600.00035 1.52428e-17
6601.49798 1.40185e-17
6602.99562 1.41145e-17
6604.50344 1.41965e-17
6606.00108 1.42010e-17
6607.49872 1.46245e-17
6608.99635 1.49993e-17
6610.50418 1.56148e-17
6612.00181 1.60499e-17
6613.49945 1.53771e-17
6614.99708 1.49226e-17
6616.50491 1.52491e-17
6618.00254 1.48182e-17
6619.50018 1.47078e-17
6620.99782 1.39835e-17
6622.49545 1.37108e-17
6624.00328 1.48997e-17
6625.50091 1.60976e-17
6626.99855 1.51970e-17
6628.49618 1.36749e-17
6630.00401 1.35772e-17
6631.50164 1.45500e-17
6632.99928 1.43939e-17
6634.49692 1.39392e-17
6636.00474 1.43428e-17
6637.50238 1.63763e-17
6639.00001 1.47899e-17
6640.49765 1.28413e-17
6641.99528 1.38929e-17
6643.50311 1.42204e-17
6645.00074 1.42767e-17
6646.49838 1.47145e-17
6647.99602 1.30402e-17
6649.50384 1.35992e-17
6651.00148 1.49163e-17
6652.49911 1.42327e-17
6653.99675 1.41893e-17
6655.50457 1.41458e-17
6657.00221 1.41023e-17
6658.49984 1.40588e-17
6659.99748 1.40153e-17
6661.49512 1.39719e-17
6663.00294 1.39284e-17
6664.50058 1.38849e-17
6665.99821 1.38415e-17
6667.49585 1.37980e-17
6669.00367 1.37546e-17
6670.50131 1.37111e-17
6671.99894 1.36676e-17
6673.49658 1.36242e-17
6675.00440 1.35807e-17
6676.50204 1.35373e-17
6677.99968 1.34939e-17
6679.49731 1.34504e-17
6680.99495 1.34070e-17
6682.50277 1.33635e-17
6684.00041 1.33201e-17
6685.49804 1.32766e-17
6686.99568 1.32332e-17
6688.50350 1.31898e-17
6690.00114 1.31464e-17
6691.49878 1.31200e-17
6692.99641 1.30937e-17
6694.50424 1.30673e-17
6696.00187 1.30410e-17
6697.49951 1.30147e-17
6698.99714 1.29884e-17
6700.49478 1.29620e-17
6702.00260 1.29357e-17
6703.50024 1.29094e-17
6704.99788 1.28831e-17
6706.49551 1.28567e-17
6708.00334 1.28304e-17
6709.50097 1.28041e-17
6710.99861 1.27778e-17
6712.49624 1.27514e-17
6714.00407 1.27251e-17
6715.50170 1.26988e-17
6716.99934 1.26725e-17
6718.49698 1.26462e-17
6720.00480 1.26199e-17
6721.50244 1.25936e-17
6723.00007 1.25673e-17
6724.49771 1.25410e-17
6725.99534 1.25147e-17
6727.50317 1.33021e-17
6729.00080 1.40101e-17
6730.49844 1.33038e-17
6731.99608 1.27255e-17
6733.50390 1.24563e-17
6735.00154 1.27381e-17
6736.49917 1.37335e-17
6737.99681 1.32331e-17
6739.50463 1.21928e-17
6741.00227 1.26873e-17
6742.49990 1.26790e-17
6743.99754 1.29222e-17
6745.49518 1.31585e-17
6747.00300 1.32190e-17
6748.50064 1.32885e-17
6749.99827 1.20984e-17
6751.49591 1.14459e-17
6753.00373 1.19806e-17
6754.50137 1.24369e-17
6755.99900 1.28553e-17
6757.49664 1.28297e-17
6759.00446 1.13329e-17
6760.50210 1.21416e-17
6761.99974 1.29555e-17
6763.49737 1.24354e-17
6764.99501 1.20726e-17
6766.50283 1.17705e-17
6768.00047 1.17991e-17
6769.49810 1.27185e-17
6770.99574 1.40978e-17
6772.50356 1.28429e-17
6774.00120 1.21824e-17
6775.49884 1.23688e-17
6776.99647 1.03729e-17
6778.50430 1.10117e-17
6780.00193 1.32343e-17
6781.49957 1.25209e-17
6782.99720 1.21048e-17
6784.50503 1.20746e-17
6786.00266 1.25547e-17
6787.50030 1.13767e-17
6788.99794 1.17045e-17
6790.49557 1.17482e-17
6792.00340 1.38086e-17
6793.50103 1.24881e-17
6794.99867 1.10413e-17
6796.49630 1.20915e-17
6798.00413 1.28197e-17
6799.50176 1.35888e-17
6800.99940 1.28047e-17
6802.49704 1.09874e-17
6804.00486 1.29031e-17
6805.50250 1.28915e-17
6807.00013 1.18868e-17
6808.49777 1.22068e-17
6809.99540 1.18509e-17
6811.50323 1.29129e-17
6813.00086 1.37836e-17
6814.49850 1.24747e-17
6815.99614 1.17812e-17
6817.50396 1.26726e-17
6819.00160 1.29757e-17
6820.49923 1.21100e-17
6821.99687 1.22132e-17
6823.50469 1.21105e-17
6825.00233 1.21113e-17
6826.49996 1.21121e-17
6827.99760 1.21129e-17
6829.49524 1.21137e-17
6831.00306 1.21145e-17
6832.50070 1.21153e-17
6833.99833 1.21161e-17
6835.49597 1.21169e-17
6837.00379 1.21177e-17
6838.50143 1.21185e-17
6839.99906 1.20761e-17
6841.49670 1.20338e-17
6843.00452 1.19915e-17
6844.50216 1.19492e-17
6845.99980 1.19069e-17
6847.49743 1.18646e-17
6848.99507 1.18223e-17
6850.50289 1.17800e-17
6852.00053 1.17377e-17
6853.49816 1.16954e-17
6854.99580 1.16531e-17
6856.50362 1.16108e-17
6858.00126 1.15685e-17
6859.49890 1.15262e-17
6860.99653 1.14839e-17
6862.50436 1.14416e-17
6864.00199 1.13993e-17
6865.49963 1.13571e-17
6866.99726 1.13148e-17
6868.49490 1.12725e-17
6870.00272 1.12302e-17
6871.50036 1.11879e-17
6872.99800 1.11457e-17
6874.49563 1.11034e-17
6876.00346 1.10611e-17
6877.50109 1.04954e-17
6878.99873 1.20312e-17
6880.49636 1.13647e-17
6882.00419 1.03315e-17
6883.50182 1.11769e-17
6884.99946 1.04869e-17
6886.49710 9.50894e-18
6888.00492 1.10445e-17
6889.50256 1.13616e-17
6891.00019 1.11988e-17
6892.49783 1.10714e-17
6893.99546 9.84733e-18
6895.50329 1.02092e-17
6897.00092 1.15103e-17
6898.49856 1.15509e-17
6899.99620 1.08675e-17
6901.50402 1.06556e-17
6903.00166 1.04966e-17
6904.49929 1.00018e-17
6905.99693 1.02869e-17
6907.50475 1.04799e-17
6909.00239 1.00341e-17
6910.50002 1.02850e-17
6911.99766 1.06671e-17
6913.49530 1.08257e-17
6915.00312 1.14249e-17
6916.50076 1.11352e-17
6917.99839 9.89797e-18
6919.49603 8.81441e-18
6921.00385 1.08610e-17
6922.50149 1.18879e-17
6923.99912 1.06256e-17
6925.49676 1.09332e-17
6927.00458 1.15156e-17
6928.50222 1.26204e-17
6929.99986 1.13573e-17
6931.49749 1.03851e-17
6932.99513 1.07706e-17
6934.50295 1.01191e-17
6936.00059 9.75276e-18
6937.49822 1.16909e-17
6938.99586 1.23357e-17
6940.50368 1.18271e-17
6942.00132 1.07351e-17
6943.49896 1.12201e-17
6944.99659 1.16137e-17
6946.50442 1.13441e-17
6948.00205 1.22231e-17
6949.49969 1.19169e-17
6950.99732 1.12462e-17
6952.49496 1.16204e-17
6954.00278 1.25313e-17
6955.50042 1.11609e-17
6956.99806 1.06837e-17
6958.49569 1.23092e-17
6960.00352 1.30483e-17
6961.50115 1.21226e-17
6962.99879 1.13976e-17
6964.49642 1.17483e-17
6966.00425 1.14799e-17
6967.50188 1.04410e-17
6968.99952 9.47873e-18
6970.49716 1.05541e-17
6972.00498 1.13804e-17
6973.50262 1.08150e-17
6975.00025 1.11908e-17
6976.49789 1.21847e-17
6977.99552 1.18355e-17
6979.50335 1.17999e-17
6981.00098 1.14696e-17
6982.49862 1.12671e-17
6983.99626 1.10836e-17
6985.50408 1.07410e-17
6987.00172 1.20789e-17
6988.49935 1.17387e-17
6989.99699 1.12242e-17
6991.50481 1.16153e-17
6993.00245 1.18107e-17
6994.50008 1.17876e-17
6995.99772 1.08124e-17
6997.49536 1.02345e-17
6999.00318 1.23802e-17
7000.50082 1.16491e-17
7001.99845 1.18907e-17
7003.49609 1.10925e-17
7005.00391 1.00261e-17
7006.50155 1.11561e-17
7007.99918 1.06065e-17
7009.49682 1.18059e-17
7011.00464 1.21723e-17
7012.50228 1.25478e-17
7013.99992 1.12121e-17
7015.49755 9.61714e-18
7016.99519 1.03763e-17
7018.50301 1.19865e-17
7020.00065 1.11404e-17
7021.49828 9.72278e-18
7022.99592 9.32551e-18
7024.50374 1.01195e-17
7026.00138 1.16560e-17
7027.49902 1.25274e-17
7028.99665 1.12141e-17
7030.50448 1.07530e-17
7032.00211 1.15077e-17
7033.49975 1.27759e-17
7034.99738 1.16850e-17
7036.49502 1.08150e-17
7038.00284 1.19509e-17
7039.50048 1.07811e-17
7040.99812 1.05133e-17
7042.49575 1.20456e-17
7044.00358 1.21359e-17
7045.50121 1.17460e-17
7046.99885 1.17607e-17
7048.49648 1.09143e-17
7050.00431 1.12575e-17
7051.50194 1.15209e-17
7052.99958 1.20603e-17
7054.49722 1.09906e-17
7055.99485 1.17413e-17
7057.50268 1.21187e-17
7059.00031 1.12783e-17
7060.49795 1.16187e-17
7061.99558 1.11484e-17
7063.50341 1.18573e-17
7065.00104 1.05895e-17
7066.49868 1.06845e-17
7067.99632 1.11653e-17
7069.50414 1.23104e-17
7071.00178 1.00559e-17
7072.49941 1.07057e-17
7073.99705 1.15831e-17
7075.50487 1.09998e-17
7077.00251 1.00057e-17
7078.50014 1.13392e-17
7079.99778 1.14955e-17
7081.49542 1.01752e-17
7083.00324 1.11520e-17
7084.50088 9.94678e-18
7085.99851 1.00983e-17
7087.49615 9.08477e-18
7089.00397 8.88023e-18
7090.50161 1.00327e-17
7091.99924 1.12699e-17
7093.49688 1.16268e-17
7095.00470 9.80047e-18
7096.50234 9.04556e-18
7097.99998 1.02479e-17
7099.49761 1.07963e-17
7100.99525 9.93499e-18
7102.50307 9.31929e-18
7104.00071 8.20874e-18
7105.49834 9.42924e-18
7106.99598 1.11648e-17
7108.50380 1.12213e-17
7110.00144 9.80646e-18
7111.49908 8.92532e-18
7112.99671 9.08785e-18
7114.50454 9.49164e-18
7116.00217 9.33303e-18
7117.49981 9.31311e-18
7118.99744 1.00355e-17
7120.49508 1.00487e-17
7122.00290 9.27057e-18
7123.50054 8.90247e-18
7124.99818 8.39614e-18
7126.49581 9.00584e-18
7128.00364 1.05337e-17
7129.50127 1.09900e-17
7130.99891 9.78301e-18
7132.49654 9.22908e-18
7134.00437 9.58934e-18
7135.50200 1.01375e-17
7136.99964 1.00750e-17
7138.49728 9.77128e-18
7139.99491 9.95658e-18
7141.50274 9.62217e-18
7143.00037 9.00317e-18
7144.49801 1.01216e-17
7145.99564 9.97189e-18
7147.50347 1.06949e-17
7149.00110 1.00153e-17
7150.49874 9.00807e-18
7151.99638 9.61139e-18
7153.50420 9.68416e-18
7155.00184 9.61964e-18
7156.49947 1.01417e-17
7157.99711 9.72785e-18
7159.50493 9.49051e-18
7161.00257 9.28614e-18
7162.50020 1.07002e-17
7163.99784 9.55725e-18
7165.49548 9.14440e-18
7167.00330 9.31066e-18
7168.50094 9.76970e-18
7169.99857 9.71819e-18
7171.49621 1.02621e-17
7173.00403 1.13400e-17
7174.50167 1.06470e-17
7175.99930 1.01568e-17
7177.49694 9.88723e-18
7179.00476 9.03935e-18
7180.50240 9.57406e-18
7182.00004 9.49896e-18
7183.49767 9.42389e-18
7184.99531 9.34879e-18
7186.50313 9.27373e-18
7188.00077 9.27348e-18
7189.49840 9.60081e-18
7190.99604 1.07266e-17
7192.50386 1.24162e-17
7194.00150 1.16557e-17
7195.49914 1.09603e-17
7196.99677 1.02064e-17
7198.50460 1.03676e-17
7200.00223 1.04764e-17
7201.49987 1.16812e-17
7202.99750 1.17813e-17
7204.49514 1.06723e-17
7206.00296 1.09959e-17
7207.50060 1.10184e-17
7208.99824 1.14892e-17
7210.49587 1.22169e-17
7212.00370 1.19458e-17
7213.50133 1.15252e-17
7214.99897 1.10135e-17
7216.49660 1.10435e-17
7218.00443 1.11208e-17
7219.50206 1.21829e-17
7220.99970 1.17804e-17
7222.49734 1.20893e-17
7223.99497 1.19843e-17
7225.50280 1.16699e-17
7227.00043 1.16370e-17
7228.49807 1.10927e-17
7229.99570 1.11206e-17
7231.50353 1.07869e-17
7233.00116 1.06220e-17
7234.49880 1.11307e-17
7235.99644 1.11065e-17
7237.50426 1.21918e-17
7239.00190 1.29392e-17
7240.49953 1.14745e-17
7241.99717 1.02280e-17
7243.49480 1.00176e-17
7245.00263 1.05494e-17
7246.50026 1.11748e-17
7247.99790 1.06564e-17
7249.49554 9.99459e-18
7251.00336 1.04903e-17
7252.50100 1.03698e-17
7253.99863 9.88174e-18
7255.49627 1.08247e-17
7257.00409 1.14867e-17
7258.50173 1.10351e-17
7259.99936 1.04444e-17
7261.49700 1.03123e-17
7263.00482 1.04690e-17
7264.50246 1.14863e-17
7266.00010 1.23330e-17
7267.49773 1.17533e-17
7268.99537 1.24264e-17
7270.50319 1.22884e-17
7272.00083 1.19539e-17
7273.49846 1.28947e-17
7274.99610 1.17788e-17
7276.50392 1.05245e-17
7278.00156 1.11401e-17
7279.49920 9.93050e-18
7280.99683 9.25136e-18
7282.50466 1.04249e-17
7284.00229 1.12682e-17
7285.49993 1.10489e-17
7286.99756 9.69722e-18
7288.49520 9.77279e-18
7290.00302 1.02984e-17
7291.50066 1.16299e-17
7292.99830 1.17649e-17
7294.49593 1.11864e-17
7296.00376 1.14286e-17
7297.50139 1.18307e-17
7298.99903 1.05159e-17
7300.49666 1.08102e-17
7302.00449 1.18929e-17
7303.50212 1.13931e-17
7304.99976 1.01445e-17
7306.49740 1.03509e-17
7307.99503 9.64337e-18
7309.50286 1.06929e-17
7311.00049 1.19502e-17
7312.49813 1.19180e-17
7313.99576 1.22663e-17
7315.50359 1.04984e-17
7317.00122 1.02808e-17
7318.49886 1.16789e-17
7319.99650 1.24147e-17
7321.50432 1.16991e-17
7323.00196 1.08739e-17
7324.49959 1.00908e-17
7325.99723 1.09457e-17
7327.49486 1.24239e-17
7329.00269 1.18719e-17
7330.50032 1.06053e-17
7331.99796 1.04473e-17
7333.49560 1.10735e-17
7335.00342 1.17562e-17
7336.50106 1.12068e-17
7337.99869 1.08969e-17
7339.49633 1.24130e-17
7341.00415 1.14143e-17
7342.50179 1.12354e-17
7343.99942 1.08170e-17
7345.49706 1.01426e-17
7347.00488 1.07326e-17
7348.50252 1.21397e-17
7350.00016 1.16295e-17
7351.49779 1.01445e-17
7352.99543 1.15432e-17
7354.50325 1.14618e-17
7356.00089 1.15864e-17
7357.49852 1.03618e-17
7358.99616 1.10627e-17
7360.50398 1.23341e-17
7362.00162 1.24706e-17
7363.49926 1.11824e-17
7364.99689 1.24851e-17
7366.50472 1.14888e-17
7368.00235 1.11423e-17
7369.49999 1.32575e-17
7370.99762 1.11061e-17
7372.49526 8.14818e-18
7374.00308 9.79824e-18
7375.50072 1.07196e-17
7376.99836 1.09916e-17
7378.49599 1.09303e-17
7380.00382 1.10815e-17
7381.50145 1.08237e-17
7382.99909 1.01916e-17
7384.49672 1.10302e-17
7386.00455 1.08648e-17
7387.50218 1.08055e-17
7388.99982 1.07023e-17
7390.49746 1.07818e-17
7391.99509 1.05395e-17
7393.50292 1.07637e-17
7395.00055 1.16523e-17
7396.49819 1.19703e-17
7397.99582 1.13632e-17
7399.50365 1.00169e-17
7401.00128 1.14574e-17
7402.49892 1.27133e-17
7403.99656 1.18437e-17
7405.50438 1.07096e-17
7407.00202 1.09468e-17
7408.49965 1.17239e-17
7409.99729 1.12725e-17
7411.49492 1.16462e-17
7413.00275 1.08283e-17
7414.50038 1.07228e-17
7415.99802 1.11036e-17
7417.49566 1.02971e-17
7419.00348 9.54997e-18
7420.50112 9.46664e-18
7421.99875 1.01822e-17
7423.49639 1.11613e-17
7425.00421 1.12392e-17
7426.50185 1.15096e-17
7427.99948 1.07537e-17
7429.49712 1.17149e-17
7431.00494 1.16668e-17
7432.50258 9.49989e-18
7434.00022 1.08029e-17
7435.49785 1.13158e-17
7436.99549 1.08906e-17
7438.50331 1.19181e-17
7440.00095 1.12945e-17
7441.49858 1.07454e-17
7442.99622 1.01791e-17
7444.50404 1.15528e-17
7446.00168 1.18733e-17
7447.49932 1.13540e-17
7448.99695 1.05007e-17
7450.50478 1.04984e-17
7452.00241 1.09787e-17
7453.50005 1.13259e-17
7454.99768 1.10460e-17
7456.49532 1.08937e-17
7458.00314 1.21286e-17
7459.50078 1.16058e-17
7460.99842 1.11528e-17
7462.49605 1.14691e-17
7464.00388 1.23018e-17
7465.50151 1.12940e-17
7466.99915 1.12880e-17
7468.49678 1.18918e-17
7470.00461 1.23460e-17
7471.50224 1.10329e-17
7472.99988 9.92475e-18
7474.49752 1.02220e-17
7475.99515 1.14492e-17
7477.50298 1.12382e-17
7479.00061 9.63074e-18
7480.49825 1.00683e-17
7481.99588 1.18930e-17
7483.50371 1.18152e-17
7485.00134 9.70211e-18
7486.49898 1.01719e-17
7487.99662 1.11149e-17
7489.50444 9.78978e-18
7491.00208 1.01833e-17
7492.49971 1.11510e-17
7493.99735 1.13794e-17
7495.49498 1.09114e-17
7497.00281 1.09469e-17
7498.50044 1.02195e-17
7499.99808 1.05433e-17
7501.49572 9.97954e-18
7503.00354 1.01442e-17
7504.50118 9.05835e-18
7505.99881 1.06239e-17
7507.49645 9.95166e-18
7509.00427 1.07161e-17
7510.50191 9.88686e-18
7511.99954 9.77678e-18
7513.49718 9.51814e-18
7514.99482 1.03091e-17
7516.50264 1.01052e-17
7518.00028 9.50678e-18
7519.49791 9.61337e-18
7520.99555 9.55520e-18
7522.50337 1.03456e-17
7524.00101 1.00756e-17
7525.49864 9.71242e-18
7526.99628 1.02023e-17
7528.50410 9.65709e-18
7530.00174 9.64097e-18
7531.49938 9.11363e-18
7532.99701 8.31207e-18
7534.50484 7.73639e-18
7536.00247 9.26362e-18
7537.50011 9.22175e-18
7538.99774 8.68558e-18
7540.49538 8.43293e-18
7540.82765 8.43293e-18
7541.68911 8.37786e-18
7542.55058 8.33019e-18
7543.41204 8.28252e-18
7544.27350 8.24104e-18
7545.13496 8.19955e-18
7545.99642 8.15782e-18
7546.86790 8.11605e-18
7547.72936 8.06596e-18
7548.59083 8.01585e-18
7549.45229 7.95737e-18
7550.31375 7.89887e-18
7551.17521 7.83603e-18
7552.03667 7.77319e-18
7552.89814 7.71041e-18
7553.75960 7.64764e-18
7554.62106 7.58974e-18
7555.48252 7.53187e-18
7556.35400 7.47993e-18
7557.21546 7.42800e-18
7558.07693 7.37882e-18
7558.93839 7.32966e-18
7559.79985 7.28053e-18
7560.66131 7.23141e-18
7561.52277 7.18097e-18
7562.38424 7.13054e-18
7563.24570 7.07658e-18
7564.10716 7.02262e-18
7564.96862 6.96030e-18
7565.84010 6.89796e-18
7566.70156 6.82723e-18
7567.56302 6.75650e-18
7568.42449 6.69092e-18
7569.28595 6.62537e-18
7570.14741 6.57624e-18
7571.00887 6.52716e-18
7571.87033 6.49615e-18
7572.73180 6.46517e-18
7573.59326 6.45044e-18
7574.45472 6.43575e-18
7575.31618 6.41677e-18
7576.18766 6.39779e-18
7577.04912 6.35204e-18
7577.91059 6.30624e-18
7578.77205 6.24603e-18
7579.63351 6.18580e-18
7580.49497 6.13084e-18
7581.35643 6.07590e-18
7582.21790 6.02308e-18
7583.07936 5.97027e-18
7583.94082 5.91040e-18
7584.81230 5.85052e-18
7585.67376 5.75044e-18
7586.53522 5.65027e-18
7587.39668 5.46394e-18
7588.25815 5.27744e-18
7589.11961 5.01396e-18
7589.98107 4.75034e-18
7590.84253 4.46464e-18
7591.70399 4.17892e-18
7592.56546 3.92331e-18
7593.42692 3.66777e-18
7594.28838 3.49125e-18
7595.15986 3.31490e-18
7596.02132 3.24191e-18
7596.88278 3.16913e-18
7597.74425 3.17603e-18
7598.60571 3.18309e-18
7599.46717 3.25277e-18
7600.32863 3.32258e-18
7601.19009 3.46799e-18
7602.05156 3.61354e-18
7602.91302 3.83504e-18
7603.77448 4.05666e-18
7604.64596 4.32560e-18
7605.50742 4.59462e-18
7606.36888 4.87680e-18
7607.23034 5.15900e-18
7608.09181 5.41966e-18
7608.95327 5.68028e-18
7609.81473 5.88468e-18
7610.67619 6.08897e-18
7611.53765 6.18850e-18
7612.39912 6.28781e-18
7613.26058 6.24337e-18
7614.13206 6.19864e-18
7614.99352 6.01237e-18
7615.85498 5.82582e-18
7616.71644 5.51970e-18
7617.57791 5.21335e-18
7618.43937 4.87878e-18
7619.30083 4.54417e-18
7620.16229 4.30433e-18
7621.02375 4.06468e-18
7621.88522 3.96616e-18
7622.74668 3.86794e-18
7623.61816 3.90098e-18
7624.47962 3.93429e-18
7625.34108 4.05659e-18
7626.20254 4.17907e-18
7627.06400 4.31292e-18
7627.92547 4.44679e-18
7628.78693 4.54900e-18
7629.64839 4.65113e-18
7630.50985 4.73800e-18
7631.37131 4.82484e-18
7632.23278 4.90699e-18
7633.10426 4.98913e-18
7633.96572 5.06613e-18
7634.82718 5.14312e-18
7635.68864 5.21498e-18
7636.55010 5.28683e-18
7637.41157 5.33941e-18
7638.27303 5.39194e-18
7639.13449 5.41807e-18
7639.99595 5.44415e-18
7640.85741 5.46868e-18
7641.71888 5.49321e-18
7642.59035 5.54077e-18
7643.45182 5.58837e-18
7644.31328 5.66947e-18
7645.17474 5.75063e-18
7646.03620 5.86973e-18
7646.89766 5.98891e-18
7647.75913 6.11389e-18
7648.62059 6.23887e-18
7649.48205 6.32919e-18
7650.34351 6.41943e-18
7651.20497 6.46647e-18
7652.06644 6.51342e-18
7652.93792 6.52167e-18
7653.79938 6.52983e-18
7654.66084 6.53038e-18
7655.52230 6.53092e-18
7656.38376 6.57177e-18
7657.24523 6.61270e-18
7658.10669 6.70161e-18
7658.96815 6.79062e-18
7659.82961 6.90123e-18
7660.69107 7.01189e-18
7661.55254 7.12181e-18
7662.42401 7.23172e-18
7663.28548 7.32064e-18
7664.14694 7.40952e-18
7665.00840 7.47623e-18
7665.86986 7.54289e-18
7666.73132 7.62589e-18
7667.59279 7.70893e-18
7668.45425 7.82612e-18
7669.31571 7.94336e-18
7670.17717 8.05820e-18
7671.03863 8.17303e-18
7671.91011 8.25608e-18
7672.77158 8.33906e-18
7673.63304 8.38494e-18
7674.49450 8.43065e-18
7675.35596 8.44139e-18
7676.21742 8.45205e-18
7677.07889 8.47108e-18
7677.94035 8.49003e-18
7678.80181 8.56072e-18
7679.66327 8.63158e-18
7680.52473 8.72838e-18
7681.38620 8.82518e-18
7682.25767 8.90758e-18
7683.11914 8.99007e-18
7683.98060 9.05799e-18
7684.84206 9.12591e-18
7685.70352 9.19075e-18
7686.56498 9.25558e-18
7687.42645 9.32000e-18
7688.28791 9.38435e-18
7689.14937 9.44926e-18
7690.01083 9.51417e-18
7690.88231 9.57339e-18
7691.74377 9.63261e-18
7692.60524 9.67361e-18
7693.46670 9.71469e-18
7694.32816 9.74056e-18
7695.18962 9.76643e-18
7696.05108 9.79628e-18
7696.91255 9.82614e-18
7697.77401 9.86721e-18
7698.63547 9.90821e-18
7699.49693 9.95076e-18
7700.35839 9.99322e-18
7701.22987 1.00291e-17
7702.09133 1.00650e-17
7702.95280 1.00894e-17
7703.81426 1.01136e-17
7704.67572 1.01231e-17
7705.53718 1.01325e-17
7706.39864 1.01278e-17
7707.26011 1.01230e-17
7708.12157 1.01082e-17
7708.98303 1.00935e-17
7709.84449 1.00859e-17
7710.71597 1.00783e-17
7711.57743 1.00930e-17
7712.43890 1.01078e-17
7713.30036 1.01413e-17
7714.16182 1.01748e-17
7715.02328 1.02186e-17
7715.88474 1.02625e-17
7716.74620 1.03032e-17
7717.60767 1.03441e-17
7718.46913 1.03672e-17
7719.33059 1.03903e-17
7720.20207 1.03948e-17
7721.06353 1.03993e-17
7721.92499 1.03904e-17
7722.78646 1.03816e-17
7723.64792 1.03685e-17
7724.50938 1.03554e-17
7725.37084 1.03502e-17
7726.23230 1.03450e-17
7727.09377 1.03518e-17
7727.95523 1.03586e-17
7728.81669 1.03733e-17
7729.67815 1.03880e-17
7730.54963 1.04097e-17
7731.41109 1.04315e-17
7732.27255 1.04649e-17
7733.13402 1.04981e-17
7733.99548 1.05377e-17
7734.85694 1.05773e-17
7735.71840 1.06018e-17
7736.57986 1.06262e-17
7737.44133 1.06233e-17
7738.30279 1.06205e-17
7739.17427 1.05991e-17
7740.03573 1.05777e-17
7740.89719 1.05491e-17
7741.75865 1.05206e-17
7742.62012 1.05019e-17
7743.48158 1.04832e-17
7744.34304 1.04881e-17
7745.20450 1.04931e-17
7746.06596 1.05124e-17
7746.92743 1.05316e-17
7747.78889 1.05523e-17
7748.65035 1.05730e-17
7749.52183 1.05905e-17
7750.38329 1.06079e-17
7751.24475 1.06188e-17
7752.10621 1.06297e-17
7752.96768 1.06341e-17
7753.82914 1.06384e-17
7754.69060 1.06386e-17
7755.55206 1.06388e-17
7756.41352 1.06319e-17
7757.27499 1.06250e-17
7758.13645 1.06053e-17
7759.00793 1.05857e-17
7759.86939 1.05590e-17
7760.73085 1.05321e-17
7761.59231 1.05117e-17
7762.45378 1.04913e-17
7763.31524 1.04805e-17
7764.17670 1.04696e-17
7765.03816 1.04613e-17
7765.89962 1.04530e-17
7766.76109 1.04418e-17
7767.62255 1.04305e-17
7768.49403 1.04123e-17
7769.35549 1.03940e-17
7770.21695 1.03685e-17
7771.07841 1.03428e-17
7771.93988 1.03186e-17
7772.80134 1.02944e-17
7773.66280 1.02780e-17
7774.52426 1.02616e-17
7775.38572 1.02495e-17
7776.24719 1.02376e-17
7777.10865 1.02273e-17
7777.98013 1.02172e-17
7778.84159 1.02102e-17
7779.70305 1.02033e-17
7780.56451 1.02011e-17
7781.42597 1.01989e-17
7782.28744 1.02011e-17
7783.14890 1.02032e-17
7784.01036 1.02087e-17
7784.87182 1.02142e-17
7785.73328 1.02225e-17
7786.59475 1.02307e-17
7787.46623 1.02406e-17
7788.32769 1.02506e-17
7789.18915 1.02595e-17
7790.05061 1.02682e-17
7790.91207 1.02727e-17
7791.77354 1.02771e-17
7792.63500 1.02755e-17
7793.49646 1.02739e-17
7794.35792 1.02656e-17
7795.21938 1.02573e-17
7796.08085 1.02464e-17
7796.94231 1.02354e-17
7797.81379 1.02286e-17
7798.67525 1.02220e-17
7799.53671 1.02248e-17
7800.39817 1.02277e-17
7801.25963 1.02437e-17
7802.12110 1.02597e-17
7802.98256 1.02861e-17
7803.84402 1.03125e-17
7804.70548 1.03359e-17
7805.56694 1.03594e-17
7806.42841 1.03703e-17
7807.29989 1.03812e-17
7808.16135 1.03807e-17
7809.02281 1.03801e-17
7809.88427 1.03699e-17
7810.74573 1.03597e-17
7811.60720 1.03419e-17
7812.46866 1.03241e-17
7813.33012 1.03020e-17
7814.19158 1.02799e-17
7815.05304 1.02574e-17
7815.91450 1.02350e-17
7816.78598 1.02159e-17
7817.64745 1.01969e-17
7818.50891 1.01858e-17
7819.37037 1.01748e-17
7820.23183 1.01753e-17
7821.09329 1.01758e-17
7821.95476 1.01797e-17
7822.81622 1.01836e-17
7823.67768 1.01784e-17
7824.53914 1.01732e-17
7825.40060 1.01574e-17
7826.27208 1.01415e-17
7827.13355 1.01189e-17
7827.99501 1.00964e-17
7828.85647 1.00701e-17
7829.71793 1.00439e-17
7830.57939 1.00172e-17
7831.44085 9.99053e-18
7832.30232 9.96548e-18
7833.16378 9.94043e-18
7834.02524 9.91700e-18
7834.88670 9.89357e-18
7835.75818 9.87397e-18
7836.61964 9.85436e-18
7837.48111 9.84468e-18
7838.34257 9.83500e-18
7839.20403 9.83687e-18
7840.06549 9.83866e-18
7840.92695 9.84517e-18
7841.78842 9.85168e-18
7842.64988 9.85688e-18
7843.51134 9.86209e-18
7844.37280 9.86323e-18
7845.23426 9.86445e-18
7846.10574 9.85997e-18
7846.96720 9.85558e-18
7847.82867 9.84777e-18
7848.69013 9.83996e-18
7849.55159 9.83159e-18
7850.41305 9.82321e-18
7851.27452 9.81605e-18
7852.13598 9.80881e-18
7852.99744 9.80401e-18
7853.85890 9.79921e-18
7854.72036 9.79775e-18
7855.59184 9.79628e-18
7856.45330 9.79864e-18
7857.31477 9.80108e-18
7858.17623 9.80360e-18
7859.03769 9.80612e-18
7859.89915 9.80287e-18
7860.76061 9.79962e-18
7861.62208 9.79099e-18
7862.48354 9.78237e-18
7863.34500 9.77318e-18
7864.20646 9.76399e-18
7865.07794 9.75170e-18
7865.93940 9.73950e-18
7866.80087 9.71607e-18
7867.66233 9.69273e-18
7868.52379 9.65734e-18
7869.38525 9.62204e-18
7870.24671 9.58145e-18
7871.10818 9.54077e-18
7871.96964 9.50433e-18
7872.83110 9.46781e-18
7873.69256 9.45073e-18
7874.56404 9.43381e-18
7875.42550 9.44218e-18
7876.28696 9.45064e-18
7877.14843 9.46724e-18
7878.00989 9.48383e-18
7878.87135 9.49270e-18
7879.73281 9.50165e-18
7880.59427 9.49799e-18
7881.45574 9.49433e-18
7882.31720 9.47554e-18
7883.17866 9.45666e-18
7884.05014 9.42933e-18
7884.91160 9.40200e-18
7885.77306 9.37442e-18
7886.63453 9.34693e-18
7887.49599 9.31854e-18
7888.35745 9.29007e-18
7889.21891 9.25883e-18
7890.08037 9.22759e-18
7890.94184 9.19522e-18
7891.80330 9.16292e-18
7892.66476 9.13144e-18
7893.52622 9.10004e-18
7894.39770 9.07767e-18
7895.25916 9.05530e-18
7896.12062 9.05335e-18
7896.98209 9.05132e-18
7897.84355 9.06328e-18
7898.70501 9.07515e-18
7899.56647 9.08215e-18
7900.42793 9.08914e-18
7901.28940 9.08296e-18
7902.15086 9.07678e-18
7903.01232 9.05945e-18
7903.88380 9.04205e-18
7904.74526 9.01886e-18
7905.60672 8.99576e-18
7906.46819 8.97884e-18
7907.32965 8.96200e-18
7908.19111 8.95614e-18
7909.05257 8.95029e-18
7909.91403 8.94191e-18
7910.77550 8.93353e-18
7911.63696 8.91458e-18
7912.49842 8.89562e-18
7913.36990 8.87578e-18
7914.23136 8.85585e-18
7915.09282 8.84316e-18
7915.95428 8.83047e-18
7916.81575 8.82550e-18
7917.67721 8.82054e-18
7918.53867 8.82225e-18
7919.40013 8.82396e-18
7920.26159 8.82038e-18
7921.12306 8.81688e-18
7921.98452 8.79606e-18
7922.85600 8.77515e-18
7923.71746 8.74440e-18
7924.57892 8.71365e-18
7925.44038 8.68591e-18
7926.30185 8.65809e-18
7927.16331 8.64085e-18
7928.02477 8.62360e-18
7928.88623 8.62190e-18
7929.74769 8.62027e-18
7930.60916 8.63101e-18
7931.47062 8.64174e-18
7932.34210 8.65606e-18
7933.20356 8.67046e-18
7934.06502 8.68079e-18
7934.92648 8.69112e-18
7935.78794 8.69112e-18
7936.64941 8.69120e-18
7937.51087 8.67770e-18
7938.37233 8.66411e-18
7939.23379 8.63776e-18
7940.09525 8.61132e-18
7940.95672 8.57594e-18
7941.81818 8.54055e-18
7942.68966 8.50500e-18
7943.55112 8.46945e-18
7944.41258 8.44066e-18
7945.27404 8.41186e-18
7946.13551 8.39104e-18
7946.99697 8.37021e-18
7947.85843 8.35728e-18
7948.71989 8.34426e-18
7949.58135 8.33678e-18
7950.44282 8.32930e-18
7951.30428 8.32393e-18
7952.17576 8.31856e-18
7953.03722 8.30815e-18
7953.89868 8.29773e-18
7954.76014 8.27610e-18
7955.62160 8.25446e-18
7956.48307 8.23062e-18
7957.34453 8.20671e-18
7958.20599 8.19239e-18
7959.06745 8.17816e-18
7959.92891 8.17425e-18
7960.79038 8.17035e-18
7961.66186 8.17433e-18
7962.52332 8.17824e-18
7963.38478 8.18385e-18
7964.24624 8.18946e-18
7965.10770 8.18775e-18
7965.96917 8.18596e-18
7966.83063 8.18206e-18
7967.69209 8.17807e-18
7968.55355 8.18678e-18
7969.41501 8.19556e-18
7970.27648 8.22037e-18
7971.14795 8.24527e-18
7972.00942 8.27870e-18
7972.87088 8.31213e-18
7973.73234 8.34410e-18
7974.59380 8.37615e-18
7975.45526 8.39209e-18
7976.31673 8.40804e-18
7977.17819 8.40169e-18
7978.03965 8.39535e-18
7978.90111 8.37867e-18
7979.76257 8.36200e-18
7980.63405 8.34540e-18
7981.49552 8.32889e-18
7982.35698 8.31498e-18
7983.21844 8.30107e-18
7984.07990 8.29147e-18
7984.94136 8.28187e-18
7985.80283 8.27309e-18
7986.66429 8.26438e-18
7987.52575 8.25275e-18
7988.38721 8.24104e-18
7989.24867 8.22802e-18
7990.11014 8.21501e-18
7990.98161 8.20256e-18
7991.84308 8.19011e-18
7992.70454 8.18206e-18
7993.56600 8.17401e-18
7994.42746 8.17474e-18
7995.28892 8.17555e-18
7996.15039 8.17637e-18
7997.01185 8.17718e-18
7997.87331 8.16416e-18
7998.73477 8.15115e-18
7999.59623 8.12599e-18
8000.46771 8.10083e-18
8001.32917 8.07405e-18
8002.19064 8.04726e-18
8003.05210 8.02680e-18
8003.91356 8.00635e-18
8004.77502 7.99897e-18
8005.63649 7.99163e-18
8006.49795 7.99561e-18
8007.35941 7.99961e-18
8008.22087 8.00109e-18
8009.08233 8.00256e-18
8009.95381 7.99702e-18
8010.81527 7.99146e-18
8011.67674 7.99214e-18
8012.53820 7.99283e-18
8013.39966 8.00619e-18
8014.26112 8.01956e-18
8015.12258 8.03626e-18
8015.98405 8.05296e-18
8016.84551 8.06411e-18
8017.70697 8.07524e-18
8018.56843 8.07179e-18
8019.43991 8.06831e-18
8020.30137 8.04472e-18
8021.16284 8.02110e-18
8022.02430 7.99233e-18
8022.88576 7.96354e-18
8023.74722 7.94610e-18
8024.60868 7.92869e-18
8025.47015 7.92210e-18
8026.33161 7.91553e-18
8027.19307 7.91539e-18
8028.05453 7.91525e-18
8028.92601 7.91611e-18
8029.78747 7.91697e-18
8030.64893 7.91254e-18
8031.51040 7.90809e-18
8032.37186 7.89899e-18
8033.23332 7.88988e-18
8034.09478 7.88050e-18
8034.95624 7.87114e-18
8035.81771 7.86433e-18
8036.67917 7.85753e-18
8037.54063 7.85498e-18
8038.41211 7.85243e-18
8039.27357 7.85475e-18
8040.13503 7.85707e-18
8040.99650 7.86351e-18
8041.85796 7.86995e-18
8042.71942 7.87837e-18
8043.58088 7.88679e-18
8044.44234 7.89341e-18
8045.30380 7.90003e-18
8046.16527 7.90199e-18
8047.02673 7.90393e-18
8047.88819 7.89991e-18
8048.75967 7.89586e-18
8049.62113 7.88655e-18
8050.48259 7.87723e-18
8051.34406 7.86951e-18
8052.20552 7.86180e-18
8053.06698 7.86083e-18
8053.92844 7.85988e-18
8054.78990 7.86175e-18
8055.65137 7.86362e-18
8056.51283 7.86341e-18
8057.37429 7.86319e-18
8058.24577 7.85503e-18
8059.10723 7.84684e-18
8059.96869 7.82574e-18
8060.83015 7.80462e-18
8061.69162 7.77464e-18
8062.55308 7.74464e-18
8063.41454 7.71270e-18
8064.27600 7.68075e-18
8065.13746 7.65470e-18
8065.99893 7.62865e-18
8066.86039 7.61616e-18
8067.73187 7.60371e-18
8068.59333 7.60524e-18
8069.45479 7.60679e-18
8070.31625 7.61821e-18
8071.17772 7.62966e-18
8072.03918 7.64279e-18
8072.90064 7.65592e-18
8073.76210 7.65906e-18
8074.62356 7.66216e-18
8075.48503 7.65100e-18
8076.34649 7.63979e-18
8077.21797 7.61990e-18
8078.07943 7.59998e-18
8078.94089 7.57485e-18
8079.80235 7.54970e-18
8080.66381 7.51866e-18
8081.52528 7.48761e-18
8082.38674 7.45117e-18
8083.24820 7.41470e-18
8084.10966 7.37438e-18
8084.97113 7.33405e-18
8085.83259 7.29167e-18
8086.70407 7.24927e-18
8087.56553 7.20751e-18
8088.42699 7.16575e-18
8089.28845 7.12714e-18
8090.14991 7.08853e-18
8091.01138 7.05534e-18
8091.87284 7.02217e-18
8092.73430 6.99562e-18
8093.59576 6.96908e-18
8094.45722 6.94866e-18
8095.31869 6.92826e-18
8096.18015 6.91232e-18
8097.05163 6.89641e-18
8097.91309 6.87609e-18
8098.77455 6.85577e-18
8099.63601 6.82056e-18
8100.49748 6.78530e-18
8101.35894 6.73186e-18
8102.22040 6.67836e-18
8103.08186 6.60737e-18
8103.94332 6.53633e-18
8104.80479 6.45639e-18
8105.67626 6.37643e-18
8106.53773 6.30147e-18
8107.39919 6.22654e-18
8108.26065 6.16528e-18
8109.12211 6.10405e-18
8109.98357 6.05943e-18
8110.84504 6.01484e-18
8111.70650 5.98296e-18
8112.56796 5.95109e-18
8113.42942 5.91825e-18
8114.29088 5.88542e-18
8115.15235 5.84060e-18
8116.02383 5.79576e-18
8116.88529 5.73426e-18
8117.74675 5.67272e-18
8118.60821 5.59365e-18
8119.46967 5.51454e-18
8120.33114 5.42931e-18
8121.19260 5.34408e-18
8122.05406 5.26180e-18
8122.91552 5.17955e-18
8123.77698 5.09007e-18
8124.63845 5.00057e-18
8125.49991 4.89444e-18
8126.37139 4.78827e-18
8127.23285 4.67054e-18
8128.09431 4.55280e-18
8128.95577 4.43092e-18
8129.81723 4.30904e-18
8130.67870 4.19728e-18
8131.54016 4.08554e-18
8132.40162 3.99924e-18
8133.26308 3.91301e-18
8134.12454 3.84393e-18
8134.99602 3.77491e-18
8135.85749 3.70459e-18
8136.71895 3.63427e-18
8137.58041 3.55572e-18
8138.44187 3.47715e-18
8139.30333 3.39009e-18
8140.16480 3.30301e-18
8141.02626 3.20968e-18
8141.88772 3.11632e-18
8142.74918 3.02191e-18
8143.61064 2.92748e-18
8144.47210 2.83712e-18
8145.34358 2.74678e-18
8146.20505 2.66460e-18
8147.06651 2.58245e-18
8147.92797 2.51135e-18
8148.78943 2.44029e-18
8149.65089 2.38117e-18
8150.51236 2.32210e-18
8151.37382 2.27351e-18
8152.23528 2.22496e-18
8153.09674 2.18049e-18
8153.95820 2.13604e-18
8154.82968 2.09052e-18
8155.69115 2.04501e-18
8156.55261 1.99893e-18
8157.41407 1.95285e-18
8158.27553 1.90777e-18
8159.13699 1.86271e-18
8159.99845 1.82248e-18
8160.85992 1.78226e-18
8161.72138 1.75065e-18
8162.58284 1.71906e-18
8163.44430 1.69720e-18
8164.31578 1.67537e-18
8165.17724 1.66307e-18
8166.03871 1.65079e-18
8166.90017 1.64219e-18
8167.76163 1.63360e-18
8168.62309 1.62159e-18
8169.48455 1.60958e-18
8170.34602 1.58825e-18
8171.20748 1.56689e-18
8172.06894 1.53061e-18
8172.93040 1.49428e-18
8173.80188 1.45262e-18
8174.66334 1.41095e-18
8175.52481 1.38464e-18
8176.38627 1.35836e-18
8177.24773 1.35200e-18
8178.10919 1.34567e-18
8178.97065 1.34725e-18
8179.83212 1.34885e-18
8180.69358 1.34923e-18
8181.55504 1.34961e-18
8182.41650 1.34305e-18
8183.28798 1.33647e-18
8184.14944 1.32087e-18
8185.01090 1.30525e-18
8185.87237 1.28836e-18
8186.73383 1.27146e-18
8187.59529 1.25881e-18
8188.45675 1.24616e-18
8189.31821 1.23348e-18
8190.17968 1.22079e-18
8191.04114 1.20508e-18
8191.90260 1.18935e-18
8192.77408 1.17426e-18
8193.63554 1.15917e-18
8194.49700 1.14840e-18
8195.35846 1.13764e-18
8196.21993 1.13449e-18
8197.08139 1.13136e-18
8197.94285 1.13833e-18
8198.80431 1.14532e-18
8199.66577 1.15643e-18
8200.52724 1.16755e-18
8201.38870 1.17445e-18
8202.25016 1.18134e-18
8203.12164 1.18240e-18
8203.98310 1.18345e-18
8204.84456 1.18002e-18
8205.70603 1.17659e-18
8206.56749 1.16937e-18
8207.42895 1.16214e-18
8208.29041 1.15171e-18
8209.15187 1.14128e-18
8210.01334 1.12933e-18
8210.87480 1.11738e-18
8211.73626 1.10611e-18
8212.60774 1.09485e-18
8213.46920 1.08521e-18
8214.33066 1.07557e-18
8215.19212 1.06738e-18
8216.05359 1.05919e-18
8216.91505 1.04986e-18
8217.77651 1.04053e-18
8218.63797 1.02286e-18
8219.49943 1.00515e-18
8220.36090 9.76366e-19
8221.22236 9.47554e-19
8222.08382 9.15032e-19
8222.95530 8.82502e-19
8223.81676 8.54478e-19
8224.67822 8.26463e-19
8225.53969 8.13253e-19
8226.40115 8.00081e-19
8227.26261 8.09135e-19
8228.12407 8.18239e-19
8228.98553 8.42618e-19
8229.84700 8.67030e-19
8230.70846 8.97095e-19
8231.57994 9.27177e-19
8232.44140 9.53565e-19
8233.30286 9.79954e-19
8234.16432 9.93969e-19
8235.02578 1.00796e-18
8235.88725 1.01249e-18
8236.74871 1.01699e-18
8237.61017 1.01928e-18
8238.47163 1.02158e-18
8239.33309 1.02669e-18
8240.19456 1.03182e-18
8241.06604 1.04397e-18
8241.92750 1.05614e-18
8242.78896 1.07287e-18
8243.65042 1.08960e-18
8244.51188 1.10330e-18
8245.37335 1.11700e-18
8246.23481 1.12394e-18
8247.09627 1.13087e-18
8247.95773 1.13148e-18
8248.81919 1.13208e-18
8249.68066 1.12787e-18
8250.54212 1.12366e-18
8251.41360 1.11801e-18
8252.27506 1.11236e-18
8253.13652 1.10842e-18
8253.99798 1.10449e-18
8254.85945 1.10418e-18
8255.72091 1.10388e-18
8256.58237 1.10826e-18
8257.44383 1.11266e-18
8258.30529 1.12100e-18
8259.16676 1.12934e-18
8260.02822 1.14003e-18
8260.89970 1.15073e-18
8261.76116 1.16081e-18
8262.62262 1.17090e-18
8263.48408 1.17746e-18
8264.34554 1.18402e-18
8265.20701 1.18445e-18
8266.06847 1.18486e-18
8266.92993 1.17744e-18
8267.79139 1.16999e-18
8268.65285 1.15866e-18
8269.52433 1.14731e-18
8270.38580 1.13756e-18
8271.24726 1.12782e-18
8272.10872 1.12333e-18
8272.97018 1.11885e-18
8273.83164 1.12248e-18
8274.69311 1.12612e-18
8275.55457 1.13502e-18
8276.41603 1.14392e-18
8277.27749 1.15167e-18
8278.13895 1.15940e-18
8279.01043 1.16337e-18
8279.87189 1.16733e-18
8280.73336 1.16815e-18
8281.59482 1.16895e-18
8282.45628 1.16855e-18
8283.31774 1.16815e-18
8284.17920 1.17059e-18
8285.04067 1.17304e-18
8285.90213 1.17986e-18
8286.76359 1.18669e-18
8287.62505 1.19423e-18
8288.48651 1.20177e-18
8289.34798 1.20808e-18
8290.21946 1.21438e-18
8291.08092 1.22237e-18
8291.94238 1.23037e-18
8292.80384 1.24173e-18
8293.66530 1.25310e-18
8294.52677 1.26487e-18
8295.38823 1.27663e-18
8296.24969 1.28605e-18
8297.11115 1.29547e-18
8297.97261 1.30077e-18
8298.83408 1.30607e-18
8299.70555 1.30621e-18
8300.56702 1.30633e-18
8301.42848 1.30754e-18
8302.28994 1.30875e-18
8303.15140 1.31842e-18
8304.01286 1.32811e-18
8304.87433 1.34341e-18
8305.73579 1.35870e-18
8306.59725 1.37345e-18
8307.45871 1.38821e-18
8308.32017 1.39870e-18
8309.18164 1.40918e-18
8310.05312 1.41268e-18
8310.91458 1.41616e-18
8311.77604 1.41558e-18
8312.63750 1.41497e-18
8313.49896 1.41736e-18
8314.36043 1.41974e-18
8315.22189 1.42905e-18
8316.08335 1.43839e-18
8316.94481 1.45543e-18
8317.80627 1.47250e-18
8318.67775 1.49526e-18
8319.53921 1.51804e-18
8320.40068 1.54018e-18
8321.26214 1.56232e-18
8322.12360 1.57932e-18
8322.98506 1.59629e-18
8323.84652 1.60807e-18
8324.70799 1.61984e-18
8325.56945 1.62700e-18
8326.43091 1.63416e-18
8327.29237 1.63846e-18
8328.16385 1.64277e-18
8329.02531 1.64642e-18
8329.88678 1.65006e-18
8330.74824 1.65431e-18
8331.60970 1.65856e-18
8332.47116 1.66466e-18
8333.33262 1.67076e-18
8334.19408 1.68175e-18
8335.05555 1.69277e-18
8335.91701 1.71122e-18
8336.77847 1.72968e-18
8337.64995 1.75360e-18
8338.51141 1.77751e-18
8339.37287 1.80348e-18
8340.23434 1.82945e-18
8341.09580 1.85279e-18
8341.95726 1.87612e-18
8342.81872 1.89176e-18
8343.68018 1.90739e-18
8344.54165 1.91545e-18
8345.40311 1.92349e-18
8346.26457 1.92752e-18
8347.12603 1.93153e-18
8347.99751 1.93441e-18
8348.85897 1.93729e-18
8349.72043 1.94119e-18
8350.58190 1.94509e-18
8351.44336 1.95251e-18
8352.30482 1.95995e-18
8353.16628 1.97355e-18
8354.02775 1.98717e-18
8354.88921 2.00726e-18
8355.75067 2.02737e-18
8356.62215 2.05066e-18
8357.48361 2.07398e-18
8358.34507 2.09721e-18
8359.20653 2.12044e-18
8360.06800 2.14076e-18
8360.92946 2.16107e-18
8361.79092 2.17675e-18
8362.65238 2.19243e-18
8363.51384 2.20644e-18
8364.37531 2.22045e-18
8365.23677 2.23569e-18
8366.10825 2.25095e-18
8366.96971 2.26552e-18
8367.83117 2.28010e-18
8368.69263 2.29201e-18
8369.55410 2.30392e-18
8370.41556 2.31509e-18
8371.27702 2.32628e-18
8372.13848 2.33941e-18
8372.99994 2.35254e-18
8373.86140 2.36907e-18
8374.72287 2.38561e-18
8375.59435 2.40649e-18
8376.45581 2.42738e-18
8377.31727 2.45240e-18
8378.17873 2.47743e-18
8379.04019 2.50563e-18
8379.90166 2.53384e-18
8380.76312 2.56369e-18
8381.62458 2.59353e-18
8382.48604 2.62320e-18
8383.34750 2.65287e-18
8384.20897 2.68086e-18
8385.07043 2.70883e-18
8385.94191 2.73376e-18
8386.80337 2.75868e-18
8387.66483 2.78137e-18
8388.52629 2.80405e-18
8389.38775 2.82891e-18
8390.24922 2.85378e-18
8391.11068 2.88205e-18
8391.97214 2.91032e-18
8392.83360 2.93631e-18
8393.69507 2.96230e-18
8394.55653 2.98193e-18
8395.41799 3.00156e-18
8396.28947 3.01474e-18
8397.15093 3.02790e-18
8398.01239 3.03626e-18
8398.87385 3.04461e-18
8399.73532 3.05740e-18
8400.59678 3.07019e-18
8401.45824 3.09583e-18
8402.31970 3.12151e-18
8403.18116 3.15728e-18
8404.04263 3.19307e-18
8404.90409 3.23383e-18
8405.77557 3.27458e-18
8406.63703 3.31460e-18
8407.49849 3.35462e-18
8408.35995 3.38801e-18
8409.22142 3.42139e-18
8410.08288 3.44818e-18
8410.94434 3.47496e-18
8411.80580 3.49816e-18
8412.66726 3.52135e-18
8413.52873 3.54304e-18
8414.39019 3.56472e-18
8415.26167 3.58657e-18
8416.12313 3.60842e-18
8416.98459 3.63223e-18
8417.84605 3.65603e-18
8418.70751 3.68326e-18
8419.56898 3.71049e-18
8420.43044 3.74170e-18
8421.29190 3.77292e-18
8422.15336 3.80799e-18
8423.01482 3.84307e-18
8423.87629 3.88013e-18
8424.74777 3.91721e-18
8425.60923 3.95115e-18
8426.47069 3.98509e-18
8427.33215 4.01381e-18
8428.19361 4.04252e-18
8429.05508 4.07182e-18
8429.91654 4.10113e-18
8430.77800 4.13572e-18
8431.63946 4.17033e-18
8432.50092 4.21072e-18
8433.36239 4.25113e-18
8434.23386 4.29657e-18
8435.09533 4.34202e-18
8435.95679 4.38496e-18
8436.81825 4.42791e-18
8437.67971 4.46092e-18
8438.54117 4.49391e-18
8439.40264 4.52133e-18
8440.26410 4.54874e-18
8441.12556 4.57763e-18
8441.98702 4.60652e-18
8442.84848 4.63896e-18
8443.70995 4.67141e-18
8444.58143 4.70789e-18
8445.44289 4.74437e-18
8446.30435 4.78527e-18
8447.16581 4.82618e-18
8448.02727 4.87139e-18
8448.88874 4.91659e-18
8449.75020 4.96470e-18
8450.61166 5.01281e-18
8451.47312 5.06177e-18
8452.33458 5.11072e-18
8453.20606 5.15819e-18
8454.06752 5.20565e-18
8454.92899 5.24878e-18
8455.79045 5.29189e-18
8456.65191 5.33130e-18
8457.51337 5.37069e-18
8458.37483 5.41249e-18
8459.23630 5.45429e-18
8460.09776 5.50106e-18
8460.95922 5.54784e-18
8461.82068 5.59433e-18
8462.69216 5.64082e-18
8463.55362 5.68330e-18
8464.41508 5.72579e-18
8465.27655 5.76456e-18
8466.13801 5.80332e-18
8466.99947 5.83993e-18
8467.86093 5.87654e-18
8468.72240 5.91877e-18
8469.58386 5.96100e-18
8470.44532 6.01571e-18
8471.30678 6.07045e-18
8472.16824 6.13340e-18
8473.03972 6.19637e-18
8473.90118 6.26137e-18
8474.76265 6.32637e-18
8475.62411 6.38875e-18
8476.48557 6.45112e-18
8477.34703 6.50636e-18
8478.20849 6.56158e-18
8479.06996 6.61502e-18
8479.93142 6.66845e-18
8480.79288 6.72980e-18
8481.65434 6.79117e-18
8482.51580 6.85825e-18
8483.38728 6.92534e-18
8484.24875 6.98912e-18
8485.11021 7.05288e-18
8485.97167 7.10930e-18
8486.83313 7.16570e-18
8487.69459 7.21467e-18
8488.55605 7.26361e-18
8489.41752 7.30770e-18
8490.27898 7.35178e-18
8491.14044 7.39752e-18
8492.00190 7.44327e-18
8492.87338 7.49492e-18
8493.73484 7.54658e-18
8494.59631 7.60298e-18
8495.45777 7.65937e-18
8496.31923 7.72114e-18
8497.18069 7.78292e-18
8498.04215 7.85695e-18
8498.90362 7.93102e-18
8499.76508 8.01992e-18
8500.62654 8.10887e-18
8501.48800 8.20077e-18
8502.35948 8.29269e-18
8503.22094 8.37599e-18
8504.08240 8.45929e-18
8504.94387 8.53160e-18
8505.80533 8.60384e-18
8506.66679 8.66468e-18
8507.52825 8.72545e-18
8508.38972 8.77906e-18
8509.25118 8.83266e-18
8510.11264 8.88480e-18
8510.98412 8.93703e-18
8511.84558 8.98998e-18
8512.70704 9.04294e-18
8513.56850 9.09785e-18
8514.42997 9.15268e-18
8515.29143 9.20929e-18
8516.15289 9.26591e-18
8517.01435 9.32358e-18
8517.87581 9.38126e-18
8518.73728 9.43999e-18
8519.59874 9.49864e-18
8520.46020 9.55859e-18
8521.33168 9.61846e-18
8522.19314 9.68223e-18
8523.05460 9.74593e-18
8523.91607 9.81841e-18
8524.77753 9.89097e-18
8525.63899 9.97386e-18
8526.50045 1.00567e-17
8527.36191 1.01470e-17
8528.22337 1.02373e-17
8529.08484 1.03302e-17
8529.94630 1.04230e-17
8530.80776 1.05108e-17
8531.67924 1.05986e-17
8532.54070 1.06750e-17
8533.40216 1.07513e-17
8534.26363 1.08138e-17
8535.12509 1.08764e-17
8535.98655 1.09258e-17
8536.84801 1.09752e-17
8537.70947 1.10210e-17
8538.57094 1.10668e-17
8539.43240 1.11191e-17
8540.30388 1.11715e-17
8541.16534 1.12371e-17
8542.02680 1.13026e-17
8542.88826 1.13854e-17
8543.74972 1.14683e-17
8544.61119 1.15629e-17
8545.47265 1.16575e-17
8546.33411 1.17552e-17
8547.19557 1.18529e-17
8548.05703 1.19386e-17
8548.91850 1.20243e-17
8549.78998 1.20814e-17
8550.65144 1.21386e-17
8551.51290 1.21688e-17
8552.37436 1.21989e-17
8553.23582 1.22145e-17
8554.09729 1.22301e-17
8554.95875 1.22481e-17
8555.82021 1.22662e-17
8556.68167 1.23065e-17
8557.54313 1.23470e-17
8558.40460 1.24188e-17
8559.27607 1.24906e-17
8560.13754 1.25883e-17
8560.99900 1.26860e-17
8561.86046 1.27989e-17
8562.72192 1.29118e-17
8563.58338 1.30224e-17
8564.44485 1.31332e-17
8565.30631 1.32256e-17
8566.16777 1.33179e-17
8567.02923 1.33814e-17
8567.89070 1.34449e-17
8568.75216 1.34745e-17
8569.62364 1.35041e-17
8570.48510 1.35082e-17
8571.34656 1.35122e-17
8572.20802 1.35029e-17
8573.06948 1.34934e-17
8573.93095 1.34839e-17
8574.79241 1.34744e-17
8575.65387 1.34776e-17
8576.51533 1.34808e-17
8577.37679 1.35102e-17
8578.23826 1.35396e-17
8579.09972 1.36054e-17
8579.97120 1.36712e-17
8580.83266 1.37605e-17
8581.69412 1.38499e-17
8582.55558 1.39416e-17
8583.41705 1.40332e-17
8584.27851 1.41101e-17
8585.13997 1.41871e-17
8586.00143 1.42352e-17
8586.86289 1.42834e-17
8587.72436 1.43009e-17
8588.58582 1.43184e-17
8589.45730 1.43130e-17
8590.31876 1.43075e-17
8591.18022 1.42912e-17
8592.04168 1.42749e-17
8592.90314 1.42640e-17
8593.76461 1.42531e-17
8594.62607 1.42567e-17
8595.48753 1.42602e-17
8596.34899 1.42746e-17
8597.21045 1.42889e-17
8598.07192 1.43119e-17
8598.94340 1.43349e-17
8599.80486 1.43687e-17
8600.66632 1.44026e-17
8601.52778 1.44464e-17
8602.38924 1.44902e-17
8603.25071 1.45369e-17
8604.11217 1.45836e-17
8604.97363 1.46256e-17
8605.83509 1.46677e-17
8606.69655 1.46947e-17
8607.56803 1.47217e-17
8608.42949 1.47254e-17
8609.29096 1.47291e-17
8610.15242 1.47118e-17
8611.01388 1.46944e-17
8611.87534 1.46620e-17
8612.73680 1.46296e-17
8613.59827 1.45888e-17
8614.45973 1.45478e-17
8615.32119 1.45055e-17
8616.18265 1.44632e-17
8617.04411 1.44327e-17
8617.91559 1.44022e-17
8618.77706 1.43980e-17
8619.63852 1.43938e-17
8620.49998 1.44166e-17
8621.36144 1.44395e-17
8622.22290 1.44815e-17
8623.08437 1.45238e-17
8623.94583 1.45739e-17
8624.80729 1.46241e-17
8625.66875 1.46681e-17
8626.53021 1.47121e-17
8627.40169 1.47414e-17
8628.26315 1.47707e-17
8629.12462 1.47852e-17
8629.98608 1.47997e-17
8630.84754 1.47990e-17
8631.70900 1.47982e-17
8632.57046 1.47803e-17
8633.43193 1.47623e-17
8634.29339 1.47297e-17
8635.15485 1.46971e-17
8636.01631 1.46600e-17
8636.88779 1.46228e-17
8637.74925 1.45919e-17
8638.61072 1.45611e-17
8639.47218 1.45487e-17
8640.33364 1.45364e-17
8641.19510 1.45512e-17
8642.05656 1.45659e-17
8642.91803 1.46005e-17
8643.77949 1.46352e-17
8644.64095 1.46789e-17
8645.50241 1.47226e-17
8646.37389 1.47640e-17
8647.23535 1.48054e-17
8648.09681 1.48332e-17
8648.95828 1.48609e-17
8649.81974 1.48709e-17
8650.68120 1.48809e-17
8651.54266 1.48733e-17
8652.40412 1.48656e-17
8653.26559 1.48391e-17
8654.12705 1.48125e-17
8654.98851 1.47663e-17
8655.85999 1.47201e-17
8656.72145 1.46623e-17
8657.58291 1.46045e-17
8658.44438 1.45489e-17
8659.30584 1.44933e-17
8660.16730 1.44496e-17
8661.02876 1.44059e-17
8661.89022 1.43782e-17
8662.75168 1.43506e-17
8663.61315 1.43411e-17
8664.47461 1.43318e-17
8665.33607 1.43400e-17
8666.20755 1.43482e-17
8667.06901 1.43702e-17
8667.93047 1.43922e-17
8668.79194 1.44211e-17
8669.65340 1.44501e-17
8670.51486 1.44766e-17
8671.37632 1.45031e-17
8672.23778 1.45113e-17
8673.09925 1.45194e-17
8673.96071 1.44975e-17
8674.82217 1.44754e-17
8675.68363 1.44269e-17
8676.55511 1.43782e-17
8677.41657 1.43109e-17
8678.27803 1.42434e-17
8679.13950 1.41704e-17
8680.00096 1.40973e-17
8680.86242 1.40332e-17
8681.72388 1.39691e-17
8682.58535 1.39195e-17
8683.44681 1.38701e-17
8684.30827 1.38372e-17
8685.16973 1.38043e-17
8686.04121 1.37901e-17
8686.90267 1.37759e-17
8687.76413 1.37806e-17
8688.62560 1.37853e-17
8689.48706 1.38052e-17
8690.34852 1.38252e-17
8691.20998 1.38544e-17
8692.07144 1.38838e-17
8692.93291 1.39126e-17
8693.79437 1.39413e-17
8694.66585 1.39569e-17
8695.52731 1.39724e-17
8696.38877 1.39670e-17
8697.25023 1.39616e-17
8698.11170 1.39339e-17
8698.97316 1.39062e-17
8699.83462 1.38592e-17
8700.69608 1.38123e-17
8701.55754 1.37563e-17
8702.41900 1.37002e-17
8703.28047 1.36437e-17
8704.15195 1.35871e-17
8705.01341 1.35302e-17
8705.87487 1.34734e-17
8706.73633 1.34187e-17
8707.59779 1.33640e-17
8708.45926 1.33229e-17
8709.32072 1.32818e-17
8710.18218 1.32631e-17
8711.04364 1.32445e-17
8711.90510 1.32487e-17
8712.76657 1.32531e-17
8713.62803 1.32771e-17
8714.49951 1.33010e-17
8715.36097 1.33271e-17
8716.22243 1.33532e-17
8717.08389 1.33617e-17
8717.94535 1.33701e-17
8718.80682 1.33529e-17
8719.66828 1.33355e-17
8720.52974 1.32895e-17
8721.39120 1.32435e-17
8722.25267 1.31800e-17
8723.11413 1.31166e-17
8723.98561 1.30554e-17
8724.84707 1.29941e-17
8725.70853 1.29425e-17
8726.56999 1.28907e-17
8727.43145 1.28465e-17
8728.29292 1.28023e-17
8729.15438 1.27657e-17
8730.01584 1.27291e-17
8730.87730 1.27011e-17
8731.73876 1.26731e-17
8732.61024 1.26563e-17
8733.47170 1.26395e-17
8734.33317 1.26417e-17
8735.19463 1.26439e-17
8736.05609 1.26628e-17
8736.91755 1.26817e-17
8737.77902 1.26949e-17
8738.64048 1.27082e-17
8739.50194 1.26970e-17
8740.36340 1.26858e-17
8741.22486 1.26397e-17
8742.08633 1.25936e-17
8742.95780 1.25101e-17
8743.81927 1.24264e-17
8744.68073 1.23295e-17
8745.54219 1.22324e-17
8746.40365 1.21482e-17
8747.26511 1.20640e-17
8748.12658 1.20048e-17
8748.98804 1.19458e-17
8749.84950 1.19189e-17
8750.71096 1.18921e-17
8751.57242 1.18901e-17
8752.44390 1.18882e-17
8753.30537 1.18965e-17
8754.16683 1.19048e-17
8755.02829 1.19156e-17
8755.88975 1.19263e-17
8756.75121 1.19343e-17
8757.61268 1.19423e-17
8758.47414 1.19358e-17
8759.33560 1.19293e-17
8760.19706 1.18943e-17
8761.05852 1.18593e-17
8761.91999 1.17935e-17
8762.79146 1.17276e-17
8763.65293 1.16385e-17
8764.51439 1.15494e-17
8765.37585 1.14494e-17
8766.23731 1.13495e-17
8767.09877 1.12564e-17
8767.96024 1.11635e-17
8768.82170 1.10889e-17
8769.68316 1.10143e-17
8770.54462 1.09567e-17
8771.40608 1.08991e-17
8772.26755 1.08559e-17
8773.13903 1.08128e-17
8774.00049 1.07821e-17
8774.86195 1.07514e-17
8775.72341 1.07291e-17
8776.58487 1.07067e-17
8777.44633 1.06891e-17
8778.30780 1.06716e-17
8779.16926 1.06537e-17
8780.03072 1.06358e-17
8780.89218 1.06021e-17
8781.76366 1.05683e-17
8782.62512 1.05046e-17
8783.48659 1.04409e-17
8784.34805 1.03541e-17
8785.20951 1.02673e-17
8786.07097 1.01697e-17
8786.93243 1.00722e-17
8787.79390 9.97329e-18
8788.65536 9.87437e-18
8789.51682 9.78318e-18
8790.37828 9.69200e-18
8791.24976 9.60829e-18
8792.11122 9.52459e-18
8792.97268 9.44186e-18
8793.83415 9.35905e-18
8794.69561 9.28145e-18
8795.55707 9.20392e-18
8796.41853 9.14340e-18
8797.28000 9.08304e-18
8798.14146 9.03725e-18
8799.00292 8.99153e-18
8799.86438 8.94451e-18
8800.72584 8.89749e-18
8801.59732 8.83624e-18
8802.45878 8.77499e-18
8803.32025 8.69071e-18
8804.18171 8.60644e-18
8805.04317 8.49801e-18
8805.90463 8.38957e-18
8806.76609 8.27260e-18
8807.62756 8.15554e-18
8808.48902 8.04424e-18
8809.35048 7.93299e-18
8810.21194 7.83426e-18
8811.08342 7.73556e-18
8811.94488 7.65399e-18
8812.80635 7.57246e-18
8813.66781 7.50625e-18
8814.52927 7.44008e-18
8815.39073 7.38489e-18
8816.25219 7.32972e-18
8817.11365 7.28014e-18
8817.97512 7.23058e-18
8818.83658 7.18056e-18
8819.70806 7.13055e-18
8820.56952 7.07278e-18
8821.43098 7.01498e-18
8822.29244 6.94308e-18
8823.15391 6.87114e-18
8824.01537 6.78432e-18
8824.87683 6.69747e-18
8825.73829 6.59803e-18
8826.59975 6.49855e-18
8827.46122 6.39564e-18
8828.32268 6.29272e-18
8829.19416 6.19954e-18
8830.05562 6.10639e-18
8830.91708 6.02967e-18
8831.77854 5.95299e-18
8832.64000 5.89320e-18
8833.50147 5.83346e-18
8834.36293 5.78847e-18
8835.22439 5.74352e-18
8836.08585 5.70806e-18
8836.94732 5.67262e-18
8837.80878 5.64052e-18
8838.67024 5.60843e-18
8839.54172 5.57337e-18
8840.40318 5.53830e-18
8841.26464 5.49560e-18
8842.12610 5.45288e-18
8842.98757 5.40194e-18
8843.84903 5.35097e-18
8844.71049 5.29275e-18
8845.57195 5.23451e-18
8846.43341 5.17243e-18
8847.29488 5.11034e-18
8848.15634 5.04876e-18
8849.02782 4.98718e-18
8849.88928 4.92844e-18
8850.75074 4.86972e-18
8851.61220 4.81604e-18
8852.47367 4.76238e-18
8853.33513 4.72518e-18
8854.19659 4.68800e-18
8855.05805 4.67861e-18
8855.91951 4.66928e-18
8856.78097 4.67869e-18
8857.64244 4.68816e-18
8858.50390 4.70047e-18
8859.36536 4.71279e-18
8860.23684 4.71489e-18
8861.09830 4.71695e-18
8861.95976 4.69698e-18
8862.82123 4.67695e-18
8863.68269 4.63936e-18
8864.54415 4.60173e-18
8865.40561 4.56383e-18
8866.26707 4.52592e-18
8867.12854 4.49572e-18
8867.99000 4.46555e-18
8868.86148 4.44104e-18
8869.72294 4.41654e-18
8870.58440 4.39683e-18
8871.44586 4.37713e-18
8872.30732 4.36146e-18
8873.16879 4.34580e-18
8874.03025 4.33502e-18
8874.89171 4.32425e-18
8875.75317 4.32501e-18
8876.61463 4.32581e-18
8877.47610 4.34080e-18
8878.34758 4.35583e-18
8879.20904 4.37676e-18
8880.07050 4.39771e-18
8880.93196 4.41588e-18
8881.79342 4.43405e-18
8882.65489 4.44138e-18
8883.51635 4.44867e-18
8884.37781 4.43927e-18
8885.23927 4.42983e-18
8886.10073 4.40912e-18
8886.96220 4.38840e-18
8887.83367 4.36492e-18
8888.69514 4.34144e-18
8889.55660 4.32305e-18
8890.41806 4.30468e-18
8891.27952 4.29852e-18
8892.14099 4.29240e-18
8893.00245 4.30250e-18
8893.86391 4.31266e-18
8894.72537 4.34062e-18
8895.58683 4.36863e-18
8896.44830 4.40787e-18
8897.30976 4.44714e-18
8898.18124 4.48643e-18
8899.04270 4.52572e-18
8899.90416 4.55545e-18
8900.76562 4.58515e-18
8901.62708 4.59732e-18
8902.48855 4.60944e-18
8903.35001 4.60528e-18
8904.21147 4.60108e-18
8905.07293 4.59390e-18
8905.93439 4.58671e-18
8906.80587 4.58524e-18
8907.66734 4.58377e-18
8908.52880 4.58713e-18
8909.39026 4.59051e-18
8910.25172 4.59872e-18
8911.11318 4.60695e-18
8911.97465 4.62165e-18
8912.83611 4.63635e-18
8913.69757 4.65820e-18
8914.55903 4.68006e-18
8915.42049 4.71061e-18
8916.29197 4.74117e-18
8917.15343 4.78004e-18
8918.01490 4.81893e-18
8918.87636 4.85614e-18
8919.73782 4.89334e-18
8920.59928 4.91887e-18
8921.46074 4.94436e-18
8922.32221 4.95537e-18
8923.18367 4.96634e-18
8924.04513 4.96253e-18
8924.90659 4.95869e-18
8925.76805 4.95185e-18
8926.63953 4.94501e-18
8927.50100 4.95124e-18
8928.36246 4.95751e-18
8929.22392 4.97742e-18
8930.08538 4.99737e-18
8930.94684 5.02368e-18
8931.80831 5.05001e-18
8932.66977 5.07747e-18
8933.53123 5.10491e-18
8934.39269 5.12840e-18
8935.25415 5.15187e-18
8936.12563 5.17379e-18
8936.98709 5.19570e-18
8937.84856 5.22756e-18
8938.71002 5.25945e-18
8939.57148 5.30176e-18
8940.43294 5.34410e-18
8941.29440 5.38128e-18
8942.15587 5.41844e-18
8943.01733 5.43903e-18
8943.87879 5.45957e-18
8944.74025 5.45844e-18
8945.61173 5.45724e-18
8946.47319 5.43624e-18
8947.33466 5.41518e-18
8948.19612 5.39838e-18
8949.05758 5.38159e-18
8949.91904 5.38854e-18
8950.78050 5.39555e-18
8951.64197 5.42018e-18
8952.50343 5.44484e-18
8953.36489 5.47730e-18
8954.22635 5.50979e-18
8955.08781 5.52450e-18
8955.95929 5.53916e-18
8956.82075 5.51093e-18
8957.68222 5.48260e-18
8958.54368 5.44276e-18
8959.40514 5.40289e-18
8960.26660 5.39758e-18
8961.12806 5.39236e-18
8961.98953 5.42817e-18
8962.85099 5.46409e-18
8963.71245 5.53229e-18
8964.57391 5.60057e-18
8965.44539 5.67904e-18
8966.30685 5.75754e-18
8967.16832 5.81285e-18
8968.02978 5.86810e-18
8968.89124 5.90391e-18
8969.75270 5.93968e-18
8970.61416 5.99256e-18
8971.47563 6.04548e-18
8972.33709 6.12809e-18
8973.19855 6.21077e-18
8974.06001 6.30745e-18
8974.93149 6.40416e-18
8975.79295 6.49223e-18
8976.65441 6.58027e-18
8977.51588 6.62505e-18
8978.37734 6.66972e-18
8979.23880 6.64421e-18
8980.10026 6.61850e-18
8980.96172 6.50531e-18
8981.82319 6.39189e-18
8982.68465 6.20218e-18
8983.54611 6.01227e-18
8984.41759 5.84809e-18
8985.27905 5.68397e-18
8986.14051 5.63943e-18
8987.00198 5.59522e-18
8987.86344 5.70261e-18
8988.72490 5.81041e-18
8989.58636 6.07458e-18
8990.44782 6.33918e-18
8991.30928 6.63406e-18
8992.17075 6.92902e-18
8993.03221 7.10283e-18
8993.89367 7.27631e-18
8994.76515 7.30629e-18
8995.62661 7.33588e-18
8996.48807 7.24977e-18
8997.34954 7.16335e-18
8998.21100 7.02904e-18
8999.07246 6.89460e-18
8999.93392 6.80473e-18
9000.79538 6.71498e-18
9001.65685 6.70993e-18
9002.51831 6.70511e-18
9003.38979 6.78239e-18
9004.25125 6.85988e-18
9005.11271 6.99254e-18
9005.97417 7.12535e-18
9006.83563 7.26058e-18
9007.69710 7.39581e-18
9008.55856 7.49242e-18
9009.42002 7.58893e-18
9010.28148 7.62783e-18
9011.14295 7.66657e-18
9012.00441 7.64861e-18
9012.87589 7.63050e-18
9013.73735 7.60106e-18
9014.59881 7.57159e-18
9015.46027 7.56435e-18
9016.32173 7.55716e-18
9017.18320 7.55153e-18
9018.04466 7.54592e-18
9018.90612 7.52662e-18
9019.76758 7.50728e-18
9020.62904 7.49200e-18
9021.49051 7.47671e-18
9022.35197 7.48381e-18
9023.22345 7.49097e-18
9024.08491 7.54358e-18
9024.94637 7.59631e-18
9025.80783 7.71288e-18
9026.66930 7.82964e-18
9027.53076 7.98216e-18
9028.39222 8.13480e-18
9029.25368 8.28090e-18
9030.11514 8.42691e-18
9030.97660 8.53713e-18
9031.83807 8.64719e-18
9032.70955 8.69966e-18
9033.57101 8.75197e-18
9034.43247 8.74473e-18
9035.29393 8.73733e-18
9036.15539 8.68152e-18
9037.01686 8.62556e-18
9037.87832 8.54982e-18
9038.73978 8.47401e-18
9039.60124 8.42236e-18
9040.46270 8.37086e-18
9041.32417 8.35508e-18
9042.18563 8.33938e-18
9043.05711 8.32726e-18
9043.91857 8.31506e-18
9044.78003 8.28960e-18
9045.64149 8.26406e-18
9046.50295 8.23542e-18
9047.36442 8.20679e-18
9048.22588 8.18385e-18
9049.08734 8.16091e-18
9049.94880 8.15782e-18
9050.81027 8.15465e-18
9051.67173 8.17515e-18
9052.54321 8.19573e-18
9053.40467 8.19792e-18
9054.26613 8.19996e-18
9055.12759 8.14708e-18
9055.98905 8.09409e-18
9056.85052 8.00575e-18
9057.71198 7.91732e-18
9058.57344 7.82014e-18
9059.43490 7.72294e-18
9060.29636 7.62021e-18
9061.16784 7.51746e-18
9062.02931 7.41050e-18
9062.89077 7.30352e-18
9063.75223 7.18843e-18
9064.61369 7.07332e-18
9065.47515 6.94153e-18
9066.33662 6.80970e-18
9067.19808 6.69477e-18
9068.05954 6.57989e-18
9068.92100 6.53755e-18
9069.78246 6.49541e-18
9070.64393 6.51333e-18
9071.51540 6.53142e-18
9072.37687 6.54722e-18
9073.23833 6.56302e-18
9074.09979 6.55368e-18
9074.96125 6.54427e-18
9075.82271 6.52721e-18
9076.68418 6.51012e-18
9077.54564 6.49623e-18
9078.40710 6.48235e-18
9079.26856 6.47794e-18
9080.13002 6.47354e-18
9080.99149 6.47835e-18
9081.86297 6.48317e-18
9082.72443 6.47558e-18
9083.58589 6.46794e-18
9084.44735 6.43585e-18
9085.30881 6.40370e-18
9086.17028 6.37096e-18
9087.03174 6.33821e-18
9087.89320 6.32316e-18
9088.75466 6.30815e-18
9089.61612 6.28738e-18
9090.48760 6.26658e-18
9091.34906 6.21761e-18
9092.21053 6.16886e-18
9093.07199 6.11488e-18
9093.93345 6.06090e-18
9094.79491 6.03026e-18
9095.65637 5.99969e-18
9096.51784 5.98435e-18
9097.37930 5.96905e-18
9098.24076 5.95211e-18
9099.10222 5.93515e-18
9099.97370 5.92097e-18
9100.83516 5.90680e-18
9101.69663 5.90444e-18
9102.55809 5.90212e-18
9103.41955 5.92891e-18
9104.28101 5.95579e-18
9105.14247 6.03656e-18
9106.00393 6.11748e-18
9106.86540 6.22279e-18
9107.72686 6.32816e-18
9108.58832 6.38253e-18
9109.45980 6.43674e-18
9110.32126 6.40798e-18
9111.18272 6.37899e-18
9112.04419 6.28583e-18
9112.90565 6.19249e-18
9113.76711 6.07343e-18
9114.62857 5.95431e-18
9115.49003 5.88835e-18
9116.35150 5.82254e-18
9117.21296 5.85086e-18
9118.07442 5.87944e-18
9118.93588 5.94107e-18
9119.80736 6.00281e-18
9120.66882 6.03825e-18
9121.53028 6.07362e-18
9122.39175 6.04475e-18
9123.25321 6.01570e-18
9124.11467 5.89963e-18
9124.97613 5.78332e-18
9125.83760 5.63372e-18
9126.69906 5.48405e-18
9127.56052 5.36628e-18
9128.43200 5.24861e-18
9129.29346 5.19643e-18
9130.15492 5.14443e-18
9131.01638 5.17958e-18
9131.87785 5.21497e-18
9132.73931 5.32280e-18
9133.60077 5.43082e-18
9134.46223 5.57817e-18
9135.32369 5.72562e-18
9136.18516 5.87798e-18
9137.04662 6.03036e-18
9137.90808 6.15212e-18
9138.76954 6.27380e-18
9139.64102 6.34206e-18
9140.50248 6.41016e-18
9141.36395 6.41716e-18
9142.22541 6.42400e-18
9143.08687 6.35815e-18
9143.94833 6.29211e-18
9144.80979 6.13672e-18
9145.67125 5.98109e-18
9146.53272 5.75629e-18
9147.39418 5.53130e-18
9148.26566 5.30500e-18
9149.12712 5.07870e-18
9149.98858 4.91250e-18
9150.85004 4.74646e-18
9151.71151 4.69021e-18
9152.57297 4.63427e-18
9153.43443 4.70742e-18
9154.29589 4.78091e-18
9155.15735 4.91953e-18
9156.01882 5.05831e-18
9156.88028 5.19484e-18
9157.75176 5.33136e-18
9158.61322 5.43423e-18
9159.47468 5.53700e-18
9160.33614 5.58182e-18
9161.19760 5.62646e-18
9162.05907 5.61484e-18
9162.92053 5.60305e-18
9163.78199 5.54825e-18
9164.64345 5.49333e-18
9165.50492 5.39352e-18
9166.36638 5.29358e-18
9167.22784 5.14639e-18
9168.09932 4.99908e-18
9168.96078 4.84104e-18
9169.82224 4.68298e-18
9170.68370 4.56353e-18
9171.54517 4.44418e-18
9172.40663 4.38801e-18
9173.26809 4.33202e-18
9174.12955 4.34989e-18
9174.99101 4.36796e-18
9175.85248 4.42949e-18
9176.71394 4.49114e-18
9177.58542 4.52727e-18
9178.44688 4.56333e-18
9179.30834 4.55398e-18
9180.16980 4.54450e-18
9181.03127 4.53497e-18
9181.89273 4.52546e-18
9182.75419 4.54070e-18
9183.61565 4.55602e-18
9184.47711 4.58714e-18
9185.33857 4.61830e-18
9186.20004 4.65457e-18
9187.07152 4.69084e-18
9187.93298 4.70624e-18
9188.79444 4.72158e-18
9189.65590 4.70167e-18
9190.51736 4.68166e-18
9191.37883 4.66666e-18
9192.24029 4.65166e-18
9193.10175 4.67733e-18
9193.96321 4.70311e-18
9194.82467 4.75355e-18
9195.68614 4.80405e-18
9196.55762 4.85656e-18
9197.41908 4.90907e-18
9198.28054 4.94312e-18
9199.14200 4.97712e-18
9200.00346 4.97299e-18
9200.86492 4.96877e-18
9201.72639 4.94101e-18
9202.58785 4.91317e-18
9203.44931 4.89035e-18
9204.31077 4.86754e-18
9205.17224 4.85048e-18
9206.04371 4.83343e-18
9206.90518 4.80959e-18
9207.76664 4.78572e-18
9208.62810 4.75908e-18
9209.48956 4.73243e-18
9210.35102 4.71642e-18
9211.21249 4.70044e-18
9212.07395 4.70854e-18
9212.93541 4.71672e-18
9213.79687 4.76438e-18
9214.65833 4.81216e-18
9215.52981 4.89630e-18
9216.39127 4.98055e-18
9217.25274 5.06920e-18
9218.11420 5.15786e-18
9218.97566 5.23026e-18
9219.83712 5.30260e-18
9220.69859 5.36536e-18
9221.56005 5.42809e-18
9222.42151 5.48494e-18
9223.28297 5.54178e-18
9224.14443 5.58640e-18
9225.00590 5.63098e-18
9225.87737 5.65893e-18
9226.73884 5.68684e-18
9227.60030 5.69349e-18
9228.46176 5.70008e-18
9229.32322 5.68363e-18
9230.18468 5.66713e-18
9231.04615 5.64634e-18
9231.90761 5.62554e-18
9232.76907 5.62206e-18
9233.63053 5.61862e-18
9234.49199 5.62769e-18
9235.35346 5.63678e-18
9236.22494 5.64621e-18
9237.08640 5.65564e-18
9237.94786 5.67098e-18
9238.80932 5.68634e-18
9239.67078 5.71905e-18
9240.53225 5.75180e-18
9241.39371 5.80736e-18
9242.25517 5.86298e-18
9243.11663 5.94363e-18
9243.97809 6.02435e-18
9244.84957 6.12306e-18
9245.71103 6.22181e-18
9246.57250 6.32257e-18
9247.43396 6.42332e-18
9248.29542 6.51696e-18
9249.15688 6.61057e-18
9250.01834 6.69898e-18
9250.87981 6.78737e-18
9251.74127 6.86609e-18
9252.60273 6.94478e-18
9253.46419 6.99494e-18
9254.32565 7.04501e-18
9255.19713 7.06353e-18
9256.05860 7.08194e-18
9256.92006 7.10548e-18
9257.78152 7.12904e-18
9258.64298 7.18521e-18
9259.50444 7.24146e-18
9260.36591 7.32191e-18
9261.22737 7.40243e-18
9262.08883 7.49233e-18
9262.95029 7.58225e-18
9263.81175 7.64915e-18
9264.68323 7.71597e-18
9265.54469 7.72880e-18
9266.40616 7.74148e-18
9267.26762 7.70112e-18
9268.12908 7.66061e-18
9268.99054 7.57984e-18
9269.85200 7.49897e-18
9270.71347 7.40787e-18
9271.57493 7.31675e-18
9272.43639 7.25116e-18
9273.29785 7.18564e-18
9274.16933 7.17386e-18
9275.03079 7.16221e-18
9275.89226 7.22493e-18
9276.75372 7.28786e-18
9277.61518 7.41453e-18
9278.47664 7.54138e-18
9279.33810 7.69713e-18
9280.19957 7.85294e-18
9281.06103 8.00011e-18
9281.92249 8.14724e-18
9282.79397 8.24950e-18
9283.65543 8.35167e-18
9284.51689 8.38014e-18
9285.37835 8.40836e-18
9286.23982 8.34589e-18
9287.10128 8.28317e-18
9287.96274 8.13732e-18
9288.82420 7.99115e-18
9289.68566 7.80813e-18
9290.54713 7.62501e-18
9291.40859 7.45862e-18
9292.27005 7.29228e-18
9293.14153 7.21332e-18
9294.00299 7.13459e-18
9294.86445 7.18928e-18
9295.72592 7.24434e-18
9296.58738 7.38506e-18
9297.44884 7.52602e-18
9298.31030 7.68958e-18
9299.17176 7.85318e-18
9300.03323 7.95341e-18
9300.89469 8.05346e-18
9301.75615 8.00775e-18
9302.62763 7.96162e-18
9303.48909 7.84932e-18
9304.35055 7.73683e-18
9305.21201 7.68772e-18
9306.07348 7.63878e-18
9306.93494 7.62261e-18
9307.79640 7.60652e-18
9308.65786 7.52913e-18
9309.51932 7.45157e-18
9310.38079 7.31733e-18
9311.24225 7.18295e-18
9312.11373 7.04743e-18
9312.97519 6.91191e-18
9313.83665 6.82959e-18
9314.69811 6.74742e-18
9315.55958 6.78022e-18
9316.42104 6.81336e-18
9317.28250 6.94925e-18
9318.14396 7.08543e-18
9319.00542 7.20529e-18
9319.86688 7.32509e-18
9320.72835 7.38215e-18
9321.58981 7.43904e-18
9322.46129 7.54309e-18
9323.32275 7.64728e-18
9324.18421 7.82233e-18
9325.04567 7.99758e-18
9325.90714 8.01917e-18
9326.76860 8.04032e-18
9327.63006 7.77005e-18
9328.49152 7.49895e-18
9329.35298 7.15410e-18
9330.21445 6.80903e-18
9331.07591 6.59995e-18
9331.94739 6.39126e-18
9332.80885 6.27739e-18
9333.67031 6.16380e-18
9334.53177 6.08437e-18
9335.39323 6.00504e-18
9336.25470 5.96143e-18
9337.11616 5.91793e-18
9337.97762 5.89972e-18
9338.83908 5.88158e-18
9339.70055 6.07401e-18
9340.56201 6.26702e-18
9341.43349 6.92096e-18
9342.29495 7.57620e-18
9343.15641 8.37029e-18
9344.01787 9.16471e-18
9344.87933 9.50775e-18
9345.74080 9.84940e-18
9346.60226 9.56502e-18
9347.46372 9.27876e-18
9348.32518 8.46758e-18
9349.18664 7.65495e-18
9350.04811 6.69004e-18
9350.90957 5.72473e-18
9351.78105 5.29406e-18
9352.64251 4.86494e-18
9353.50397 5.19423e-18
9354.36543 5.52568e-18
9355.22689 6.11725e-18
9356.08836 6.70954e-18
9356.94982 7.14494e-18
9357.81128 7.57987e-18
9358.67274 7.60949e-18
9359.53420 7.63795e-18
9360.39567 7.15388e-18
9361.26715 6.66835e-18
9362.12861 6.06267e-18
9362.99007 5.45666e-18
9363.85153 5.09942e-18
9364.71299 4.74291e-18
9365.57446 4.65543e-18
9366.43592 4.56873e-18
9367.29738 4.71536e-18
9368.15884 4.86264e-18
9369.02030 5.05953e-18
9369.89178 5.25655e-18
9370.75324 5.29315e-18
9371.61471 5.32928e-18
9372.47617 5.21850e-18
9373.33763 5.10730e-18
9374.19909 4.92781e-18
9375.06056 4.74812e-18
9375.92202 4.62022e-18
9376.78348 4.49247e-18
9377.64494 4.56311e-18
9378.50640 4.63431e-18
9379.37788 4.84776e-18
9380.23934 5.06162e-18
9381.10081 5.22868e-18
9381.96227 5.39559e-18
9382.82373 5.45598e-18
9383.68519 5.51605e-18
9384.54665 5.52416e-18
9385.40812 5.53212e-18
9386.26958 5.50301e-18
9387.13104 5.47379e-18
9387.99250 5.38198e-18
9388.85396 5.28999e-18
9389.72544 5.13404e-18
9390.58691 4.97791e-18
9391.44837 4.78135e-18
9392.30983 4.58468e-18
9393.17129 4.37976e-18
9394.03275 4.17482e-18
9394.89422 4.01875e-18
9395.75568 3.86284e-18
9396.61714 3.79438e-18
9397.47860 3.72617e-18
9398.34006 3.71660e-18
9399.21154 3.70719e-18
9400.07300 3.72042e-18
9400.93447 3.73371e-18
9401.79593 3.73505e-18
9402.65739 3.73636e-18
9403.51885 3.69545e-18
9404.38031 3.65443e-18
9405.24178 3.60540e-18
9406.10324 3.55635e-18
9406.96470 3.54709e-18
9407.82616 3.53794e-18
9408.69764 3.56897e-18
9409.55910 3.60013e-18
9410.42057 3.65480e-18
9411.28203 3.70954e-18
9412.14349 3.76198e-18
9413.00495 3.81441e-18
9413.86641 3.83395e-18
9414.72788 3.85337e-18
9415.58934 3.81954e-18
9416.45080 3.78555e-18
9417.31226 3.69203e-18
9418.17372 3.59834e-18
9419.04520 3.45168e-18
9419.90666 3.30487e-18
9420.76813 3.11486e-18
9421.62959 2.92473e-18
9422.49105 2.75938e-18
9423.35251 2.59410e-18
9424.21397 2.61570e-18
9425.07544 2.63784e-18
9425.93690 2.89850e-18
9426.79836 3.15984e-18
9427.65982 3.48940e-18
9428.53130 3.81914e-18
9429.39276 4.05356e-18
9430.25423 4.28770e-18
9431.11569 4.27512e-18
9431.97715 4.26182e-18
9432.83861 3.92531e-18
9433.70007 3.58788e-18
9434.56153 3.19426e-18
9435.42300 2.80050e-18
9436.28446 2.62888e-18
9437.14592 2.45793e-18
9438.01740 2.55229e-18
9438.87886 2.64742e-18
9439.74032 2.98968e-18
9440.60179 3.33265e-18
9441.46325 3.74899e-18
9442.32471 4.16553e-18
9443.18617 4.43220e-18
9444.04763 4.69844e-18
9444.90910 4.75146e-18
9445.77056 4.80385e-18
9446.63202 4.65719e-18
9447.49348 4.50994e-18
9448.36496 4.24276e-18
9449.22642 3.97525e-18
9450.08788 3.71495e-18
9450.94935 3.45466e-18
9451.81081 3.28423e-18
9452.67227 3.11406e-18
9453.53373 3.06585e-18
9454.39520 3.01799e-18
9455.25666 3.10008e-18
9456.11812 3.18255e-18
9456.98960 3.37502e-18
9457.85106 3.56780e-18
9458.71252 3.81303e-18
9459.57398 4.05840e-18
9460.43545 4.24010e-18
9461.29691 4.42161e-18
9462.15837 4.46971e-18
9463.01983 4.51743e-18
9463.88129 4.48667e-18
9464.74276 4.45569e-18
9465.60422 4.40332e-18
9466.47570 4.35088e-18
9467.33716 4.31204e-18
9468.19862 4.27324e-18
9469.06008 4.27617e-18
9469.92155 4.27923e-18
9470.78301 4.28064e-18
9471.64447 4.28204e-18
9472.50593 4.23578e-18
9473.36739 4.18939e-18
9474.22885 4.12434e-18
9475.09032 4.05925e-18
9475.96180 4.01471e-18
9476.82326 3.97023e-18
9477.68472 4.02765e-18
9478.54618 4.08537e-18
9479.40764 4.33658e-18
9480.26911 4.58834e-18
9481.13057 4.93362e-18
9481.99203 5.27916e-18
9482.85349 5.52557e-18
9483.71495 5.77168e-18
9484.57642 5.81755e-18
9485.43788 5.86283e-18
9486.30936 5.67255e-18
9487.17082 5.48158e-18
9488.03228 5.13264e-18
9488.89374 4.78324e-18
9489.75520 4.47969e-18
9490.61667 4.17628e-18
9491.47813 4.04861e-18
9492.33959 3.92146e-18
9493.20105 3.96727e-18
9494.06252 4.01360e-18
9494.92398 4.23225e-18
9495.79546 4.45141e-18
9496.65692 4.87075e-18
9497.51838 5.29067e-18
9498.37984 5.86650e-18
9499.24130 6.44278e-18
9500.10277 6.94976e-18
9500.96423 7.45654e-18
9501.82569 7.69979e-18
9502.68715 7.94226e-18
9503.54861 7.89096e-18
9504.41008 7.83879e-18
9505.28155 7.51283e-18
9506.14302 7.18607e-18
9507.00448 6.75477e-18
9507.86594 6.32318e-18
9508.72740 5.98792e-18
9509.58887 5.65295e-18
9510.45033 5.43348e-18
9511.31179 5.21436e-18
9512.17325 5.07087e-18
9513.03471 4.92760e-18
9513.89617 4.89929e-18
9514.75764 4.87130e-18
9515.62912 5.01424e-18
9516.49058 5.15767e-18
9517.35204 5.45549e-18
9518.21350 5.75376e-18
9519.07496 6.15148e-18
9519.93643 6.54950e-18
9520.79789 6.95030e-18
9521.65935 7.35112e-18
9522.52081 7.62165e-18
9523.38227 7.89181e-18
9524.24374 7.98716e-18
9525.11522 8.08201e-18
9525.97668 8.07224e-18
9526.83814 8.06218e-18
9527.69960 8.01192e-18
9528.56106 7.96154e-18
9529.42252 7.92182e-18
9530.28399 7.88214e-18
9531.14545 7.88159e-18
9532.00691 7.88116e-18
9532.86837 7.87444e-18
9533.72984 7.86770e-18
9534.60131 7.81653e-18
9535.46278 7.76523e-18
9536.32424 7.65802e-18
9537.18570 7.55064e-18
9538.04716 7.39354e-18
9538.90862 7.23629e-18
9539.77009 7.17267e-18
9540.63155 7.10932e-18
9541.49301 7.27451e-18
9542.35447 7.44037e-18
9543.21593 7.73742e-18
9544.08741 8.03484e-18
9544.94888 8.31945e-18
9545.81034 8.60400e-18
9546.67180 8.73537e-18
9547.53326 8.86626e-18
9548.39472 8.69999e-18
9549.25619 8.53290e-18
9550.11765 8.23648e-18
9550.97911 7.93969e-18
9551.84057 7.85027e-18
9552.70203 7.76146e-18
9553.57351 7.90194e-18
9554.43497 8.04309e-18
9555.29644 8.21419e-18
9556.15790 8.38534e-18
9557.01936 8.45278e-18
9557.88082 8.51989e-18
9558.74228 8.39421e-18
9559.60375 8.26804e-18
9560.46521 8.00474e-18
9561.32667 7.74108e-18
9562.18813 7.64455e-18
9563.05961 7.54852e-18
9563.92107 7.77578e-18
9564.78254 8.00399e-18
9565.64400 8.39340e-18
9566.50546 8.78329e-18
9567.36692 9.16089e-18
9568.22838 9.53842e-18
9569.08985 9.69663e-18
9569.95131 9.85428e-18
9570.81277 9.65027e-18
9571.67423 9.44519e-18
9572.53569 9.05872e-18
9573.40717 8.67176e-18
9574.26863 8.31644e-18
9575.13010 7.96129e-18
9575.99156 7.77995e-18
9576.85302 7.59915e-18
9577.71448 7.70457e-18
9578.57594 7.81084e-18
9579.43741 8.02576e-18
9580.29887 8.24095e-18
9581.16033 8.30644e-18
9582.02179 8.37151e-18
9582.89327 8.25332e-18
9583.75473 8.13464e-18
9584.61620 7.88357e-18
9585.47766 7.63208e-18
9586.33912 7.42919e-18
9587.20058 7.22644e-18
9588.06204 7.34740e-18
9588.92351 7.46932e-18
9589.78497 7.87963e-18
9590.64643 8.29082e-18
9591.51791 8.67420e-18
9592.37937 9.05758e-18
9593.24083 9.24354e-18
9594.10229 9.42901e-18
9594.96376 9.43389e-18
9595.82522 9.43828e-18
9596.68668 9.29641e-18
9597.54814 9.15414e-18
9598.40960 8.94549e-18
9599.27107 8.73676e-18
9600.13253 8.54966e-18
9600.99399 8.36257e-18
9601.86547 8.26682e-18
9602.72693 8.17132e-18
9603.58839 8.21248e-18
9604.44986 8.25413e-18
9605.31132 8.42463e-18
9606.17278 8.59554e-18
9607.03424 8.85698e-18
9607.89570 9.11859e-18
9608.75717 9.30471e-18
9609.61863 9.49058e-18
9610.48009 9.44113e-18
9611.35157 9.39094e-18
9612.21303 9.17383e-18
9613.07449 8.95631e-18
9613.93595 8.69974e-18
9614.79742 8.44302e-18
9615.65888 8.23607e-18
9616.52034 8.02924e-18
9617.38180 7.94618e-18
9618.24326 7.86351e-18
9619.10473 7.92345e-18
9619.96619 7.98382e-18
9620.82765 8.16612e-18
9621.69913 8.34882e-18
9622.56059 8.58773e-18
9623.42205 8.82681e-18
9624.28352 9.03082e-18
9625.14498 9.23475e-18
9626.00644 9.31667e-18
9626.86790 9.39818e-18
9627.72936 9.27624e-18
9628.59083 9.15373e-18
9629.45229 8.85194e-18
9630.31375 8.54966e-18
9631.17521 8.24665e-18
9632.04669 7.94359e-18
9632.90815 7.77795e-18
9633.76961 7.61272e-18
9634.63108 7.63843e-18
9635.49254 7.66471e-18
9636.35400 7.87606e-18
9637.21546 8.08796e-18
9638.07692 8.28447e-18
9638.93839 8.48092e-18
9639.79985 8.49687e-18
9640.67133 8.51224e-18
9641.53279 8.45107e-18
9642.39425 8.38965e-18
9643.25571 8.37225e-18
9644.11718 8.35500e-18
9644.97864 8.41056e-18
9645.84010 8.46644e-18
9646.70156 8.60685e-18
9647.56302 8.74749e-18
9648.42448 8.87895e-18
9649.28595 9.01032e-18
9650.15743 9.01065e-18
9651.01889 9.01048e-18
9651.88035 8.87919e-18
9652.74181 8.74749e-18
9653.60327 8.53941e-18
9654.46474 8.33100e-18
9655.32620 8.12134e-18
9656.18766 7.91165e-18
9657.04912 7.78728e-18
9657.91058 7.66317e-18
9658.77205 7.67262e-18
9659.64352 7.68248e-18
9660.50499 7.83763e-18
9661.36645 7.99322e-18
9662.22791 8.24494e-18
9663.08937 8.49695e-18
9663.95083 8.71699e-18
9664.81230 8.93695e-18
9665.67376 9.05107e-18
9666.53522 9.16496e-18
9667.39668 9.21246e-18
9668.25815 9.25981e-18
9669.11961 9.26322e-18
9669.99109 9.26648e-18
9670.85255 9.18782e-18
9671.71401 9.10883e-18
9672.57547 8.93768e-18
9673.43693 8.76620e-18
9674.29840 8.57252e-18
9675.15986 8.37867e-18
9676.02132 8.23225e-18
9676.88278 8.08600e-18
9677.74424 8.03560e-18
9678.61572 7.98548e-18
9679.47718 8.06338e-18
9680.33865 8.14163e-18
9681.20011 8.28366e-18
9682.06157 8.42577e-18
9682.92303 8.54250e-18
9683.78449 8.65915e-18
9684.64596 8.72415e-18
9685.50742 8.78890e-18
9686.36888 8.79850e-18
9687.23034 8.80793e-18
9688.10182 8.77141e-18
9688.96328 8.73480e-18
9689.82475 8.67477e-18
9690.68621 8.61466e-18
9691.54767 8.53518e-18
9692.40913 8.45563e-18
9693.27059 8.34475e-18
9694.13206 8.23371e-18
9694.99352 8.10777e-18
9695.85498 7.98177e-18
9696.71644 7.88551e-18
9697.57790 7.78933e-18
9698.44938 7.74498e-18
9699.31084 7.70080e-18
9700.17231 7.69993e-18
9701.03377 7.69919e-18
9701.89523 7.72350e-18
9702.75669 7.74789e-18
9703.61816 7.75668e-18
9704.47962 7.76542e-18
9705.34108 7.73242e-18
9706.20254 7.69930e-18
9707.06400 7.64985e-18
9707.93548 7.60035e-18
9708.79694 7.56073e-18
9709.65841 7.52114e-18
9710.51987 7.50568e-18
9711.38133 7.49029e-18
9712.24279 7.50833e-18
9713.10425 7.52647e-18
9713.96572 7.55307e-18
9714.82718 7.57969e-18
9715.68864 7.58481e-18
9716.55010 7.58988e-18
9717.41156 7.56493e-18
9718.28304 7.53990e-18
9719.14451 7.48143e-18
9720.00597 7.42285e-18
9720.86743 7.36214e-18
9721.72889 7.30141e-18
9722.59035 7.28655e-18
9723.45182 7.27183e-18
9724.31328 7.28170e-18
9725.17474 7.29166e-18
9726.03620 7.26351e-18
9726.89766 7.23523e-18
9727.76914 7.14682e-18
9728.63060 7.05822e-18
9729.49207 6.92122e-18
9730.35353 6.78407e-18
9731.21499 6.62771e-18
9732.07645 6.47129e-18
9732.93791 6.34932e-18
9733.79938 6.22747e-18
9734.66084 6.17339e-18
9735.52230 6.11951e-18
9736.38376 6.12681e-18
9737.25524 6.13428e-18
9738.11670 6.18788e-18
9738.97817 6.24162e-18
9739.83963 6.31185e-18
9740.70109 6.38214e-18
9741.56255 6.43969e-18
9742.42401 6.49720e-18
9743.28548 6.52651e-18
9744.14694 6.55574e-18
9745.00840 6.54759e-18
9745.86986 6.53934e-18
9746.74134 6.50625e-18
9747.60280 6.47310e-18
9748.46426 6.43221e-18
9749.32573 6.39130e-18
9750.18719 6.34670e-18
9751.04865 6.30208e-18
9751.91011 6.25591e-18
9752.77157 6.20973e-18
9753.63304 6.16047e-18
9754.49450 6.11120e-18
9755.35596 6.05566e-18
9756.22744 6.00009e-18
9757.08890 5.94982e-18
9757.95036 5.89957e-18
9758.81183 5.87166e-18
9759.67329 5.84382e-18
9760.53475 5.85147e-18
9761.39621 5.85923e-18
9762.25767 5.91378e-18
9763.11913 5.96848e-18
9763.98060 6.05275e-18
9764.84206 6.13711e-18
9765.71354 6.20274e-18
9766.57500 6.26831e-18
9767.43646 6.29157e-18
9768.29792 6.31471e-18
9769.15939 6.31116e-18
9770.02085 6.30753e-18
9770.88231 6.29041e-18
9771.74377 6.27325e-18
9772.60523 6.24919e-18
9773.46670 6.22511e-18
9774.32816 6.20251e-18
9775.19964 6.17989e-18
9776.06110 6.16538e-18
9776.92256 6.15089e-18
9777.78402 6.14889e-18
9778.64548 6.14694e-18
9779.50695 6.16313e-18
9780.36841 6.17937e-18
9781.22987 6.21530e-18
9782.09133 6.25130e-18
9782.95280 6.27587e-18
9783.81426 6.30041e-18
9784.68574 6.27981e-18
9785.54720 6.25907e-18
9786.40866 6.20968e-18
9787.27012 6.16022e-18
9788.13158 6.11285e-18
9788.99305 6.06549e-18
9789.85451 6.03099e-18
9790.71597 5.99653e-18
9791.57743 5.97941e-18
9792.43889 5.96234e-18
9793.30036 5.95104e-18
9794.16182 5.93977e-18
9795.03330 5.91002e-18
9795.89476 5.88022e-18
9796.75622 5.83910e-18
9797.61768 5.79795e-18
9798.47915 5.78094e-18
9799.34061 5.76401e-18
9800.20207 5.78296e-18
9801.06353 5.80203e-18
9801.92499 5.84013e-18
9802.78645 5.87829e-18
9803.64792 5.91856e-18
9804.51940 5.95884e-18
9805.38086 5.98137e-18
9806.24232 6.00385e-18
9807.10378 5.99898e-18
9807.96524 5.99402e-18
9808.82671 5.98086e-18
9809.68817 5.96766e-18
9810.54963 5.96439e-18
9811.41109 5.96115e-18
9812.27255 5.97926e-18
9813.13402 5.99744e-18
9813.99548 6.04228e-18
9814.86696 6.08721e-18
9815.72842 6.12687e-18
9816.58988 6.16650e-18
9817.45134 6.16708e-18
9818.31280 6.16755e-18
9819.17427 6.13355e-18
9820.03573 6.09946e-18
9820.89719 6.04516e-18
9821.75865 5.99080e-18
9822.62012 5.93712e-18
9823.48158 5.88345e-18
9824.35306 5.85477e-18
9825.21452 5.82618e-18
9826.07598 5.81896e-18
9826.93744 5.81181e-18
9827.79890 5.80630e-18
9828.66037 5.80080e-18
9829.52183 5.79213e-18
9830.38329 5.78345e-18
9831.24475 5.77746e-18
9832.10621 5.77148e-18
9832.97769 5.76683e-18
9833.83915 5.76218e-18
9834.70062 5.75119e-18
9835.56208 5.74018e-18
9836.42354 5.71932e-18
9837.28500 5.69843e-18
9838.14647 5.66978e-18
9839.00793 5.64109e-18
9839.86939 5.60697e-18
9840.73085 5.57283e-18
9841.59231 5.53445e-18
9842.45377 5.49605e-18
9843.32525 5.45780e-18
9844.18672 5.41953e-18
9845.04818 5.39496e-18
9845.90964 5.37042e-18
9846.77110 5.37020e-18
9847.63256 5.37004e-18
9848.49403 5.39088e-18
9849.35549 5.41176e-18
9850.21695 5.44758e-18
9851.07841 5.48345e-18
9851.93987 5.52845e-18
9852.81135 5.57348e-18
9853.67282 5.62082e-18
9854.53428 5.66817e-18
9855.39574 5.71352e-18
9856.25720 5.75887e-18
9857.11866 5.79904e-18
9857.98013 5.83920e-18
9858.84159 5.86561e-18
9859.70305 5.89196e-18
9860.56451 5.89475e-18
9861.42597 5.89746e-18
9862.29745 5.87530e-18
9863.15891 5.85306e-18
9864.02038 5.81016e-18
9864.88184 5.76720e-18
9865.74330 5.71141e-18
9866.60476 5.65557e-18
9867.46622 5.59806e-18
9868.32769 5.54056e-18
9869.18915 5.48777e-18
9870.05061 5.43499e-18
9870.92209 5.38617e-18
9871.78355 5.33736e-18
9872.64501 5.29334e-18
9873.50648 5.24934e-18
9874.36794 5.21391e-18
9875.22940 5.17850e-18
9876.09086 5.15462e-18
9876.95232 5.13079e-18
9877.81379 5.12122e-18
9878.67525 5.11171e-18
9879.53671 5.11770e-18
9880.39817 5.12374e-18
9881.26965 5.14340e-18
9882.13111 5.16309e-18
9882.99257 5.19287e-18
9883.85404 5.22268e-18
9884.71550 5.25614e-18
9885.57696 5.28962e-18
9886.43842 5.31980e-18
9887.29988 5.34997e-18
9888.16135 5.37033e-18
9889.02281 5.39066e-18
9889.88427 5.39575e-18
9890.74573 5.40077e-18
9891.61721 5.39044e-18
9892.47867 5.38006e-18
9893.34014 5.35706e-18
9894.20160 5.33402e-18
9895.06306 5.30133e-18
9895.92452 5.26860e-18
9896.78598 5.22931e-18
9897.64745 5.19002e-18
9898.50891 5.14925e-18
9899.37037 5.10848e-18
9900.23183 5.07299e-18
9901.09329 5.03752e-18
9901.96477 5.00841e-18
9902.82623 4.97932e-18
9903.68770 4.95087e-18
9904.54916 4.92242e-18
9905.41062 4.89594e-18
9906.27208 4.86946e-18
9907.13354 4.85744e-18
9907.99501 4.84545e-18
9908.85647 4.85381e-18
9909.71793 4.86223e-18
9910.57939 4.88530e-18
9911.45087 4.90841e-18
9912.31233 4.93691e-18
9913.17380 4.96542e-18
9914.03526 4.97975e-18
9914.89672 4.99403e-18
9915.75818 4.97862e-18
9916.61964 4.96312e-18
9917.48111 4.92341e-18
9918.34257 4.88364e-18
9919.20403 4.82915e-18
9920.07551 4.77463e-18
9920.93697 4.71617e-18
9921.79843 4.65771e-18
9922.65989 4.60627e-18
9923.52136 4.55487e-18
9924.38282 4.51529e-18
9925.24428 4.47575e-18
9926.10574 4.44989e-18
9926.96720 4.42409e-18
9927.82867 4.40482e-18
9928.69013 4.38557e-18
9929.56161 4.36150e-18
9930.42307 4.33741e-18
9931.28453 4.30483e-18
9932.14599 4.27223e-18
9933.00746 4.23277e-18
9933.86892 4.19328e-18
9934.73038 4.15028e-18
9935.59184 4.10727e-18
9936.45330 4.06558e-18
9937.31477 4.02388e-18
9938.17623 3.98988e-18
9939.03769 3.95590e-18
9939.90917 3.93762e-18
9940.77063 3.91939e-18
9941.63209 3.91904e-18
9942.49355 3.91875e-18
9943.35502 3.92801e-18
9944.21648 3.93730e-18
9945.07794 3.94901e-18
9945.93940 3.96071e-18
9946.80086 3.97304e-18
9947.66233 3.98537e-18
9948.52379 3.99623e-18
9949.39527 4.00709e-18
9950.25673 4.01251e-18
9951.11819 4.01791e-18
9951.97965 4.01531e-18
9952.84112 4.01270e-18
9953.70258 4.00725e-18
9954.56404 4.00179e-18
9955.42550 3.99915e-18
9956.28696 3.99651e-18
9957.14843 3.99289e-18
9958.00989 3.98927e-18
9958.88137 3.97944e-18
9959.74283 3.96958e-18
9960.60429 3.95088e-18
9961.46575 3.93215e-18
9962.32721 3.90284e-18
9963.18868 3.87350e-18
9964.05014 3.84236e-18
9964.91160 3.81122e-18
9965.77306 3.79291e-18
9966.63452 3.77464e-18
9967.49599 3.77259e-18
9968.36747 3.77059e-18
9969.22893 3.77915e-18
9970.09039 3.78774e-18
9970.95185 3.80604e-18
9971.81331 3.82436e-18
9972.67477 3.85659e-18
9973.53624 3.88886e-18
9974.39770 3.93328e-18
9975.25916 3.97772e-18
9976.12062 4.02481e-18
9976.98208 4.07191e-18
9977.85356 4.11411e-18
9978.71503 4.15629e-18
9979.57649 4.18999e-18
9980.43795 4.22366e-18
9981.29941 4.24757e-18
9982.16087 4.27146e-18
9983.02234 4.29068e-18
9983.88380 4.30990e-18
9984.74526 4.32956e-18
9985.60672 4.34923e-18
9986.46818 4.37188e-18
9987.32965 4.39454e-18
9988.20112 4.42150e-18
9989.06259 4.44848e-18
9989.92405 4.47025e-18
9990.78551 4.49201e-18
9991.64697 4.49783e-18
9992.50843 4.50360e-18
9993.36990 4.50154e-18
9994.23136 4.49946e-18
9995.09282 4.50334e-18
9995.95428 4.50724e-18
9996.81574 4.51471e-18
9997.67721 4.52219e-18
9998.54869 4.52445e-18
9999.41015 4.52668e-18
