# wavelength flux
3491.20346 0.00000e+00
3495.42130 0.00000e+00
3499.64932 1.15203e-17
3503.87734 -2.99399e-18
3508.10536 -7.69879e-19
3512.33338 5.19071e-18
3516.55121 1.26789e-17
3520.77923 3.32580e-18
3525.00725 3.34073e-18
3529.23527 1.38111e-18
3533.46329 6.96126e-18
3537.68112 2.25073e-18
3541.90914 6.01463e-18
3546.13716 1.03653e-17
3550.36518 4.37301e-17
3554.59320 3.86546e-17
3558.81103 6.84041e-18
3563.03905 9.14368e-19
3567.26707 7.47840e-19
3571.49509 4.40584e-18
3575.72311 4.73760e-18
3579.94094 1.04500e-17
3584.16896 5.02848e-18
3588.39698 8.28229e-18
3592.62500 6.99276e-18
3596.85302 1.62373e-18
3601.07086 9.41610e-18
3605.29888 2.28708e-17
3609.52690 6.71779e-18
3613.75492 4.43122e-18
3617.98294 3.41639e-18
3622.20077 4.17915e-18
3626.42879 5.62756e-18
3630.65681 5.64175e-18
3634.88483 3.30835e-18
3639.11285 -6.89306e-19
3643.33068 1.93885e-18
3647.55870 9.38588e-18
3651.78672 7.94592e-18
3656.01474 8.84890e-18
3660.24276 1.92650e-18
3664.46059 3.33430e-18
3668.68861 5.20366e-18
3672.91663 4.95376e-18
3677.14465 7.94989e-19
3681.37267 4.93299e-18
3685.59050 2.68382e-18
3689.81852 6.43898e-18
3694.04654 6.73379e-18
3698.27456 8.91692e-19
3702.50258 6.57207e-18
3706.72042 4.87820e-18
3710.94844 2.35444e-18
3715.17646 2.36008e-18
3719.40448 2.66758e-18
3723.63250 6.46764e-18
3727.85033 4.68915e-18
3732.07835 3.68375e-18
3736.30637 1.11014e-18
3740.53439 2.59448e-18
3744.76241 4.58790e-18
3748.98024 1.96170e-18
3753.20826 3.74328e-18
3757.43628 5.52256e-18
3761.66430 3.14212e-18
3765.89232 4.04851e-18
3770.11015 3.36705e-18
3774.33817 2.45327e-18
3778.56619 2.40120e-18
3782.79421 2.38977e-18
3787.01204 2.37835e-18
3791.24006 2.36693e-18
3795.46808 2.35552e-18
3799.69610 2.34412e-18
3803.92412 2.33272e-18
3808.14196 2.32133e-18
3812.36998 2.30994e-18
3816.59800 2.29856e-18
3820.82602 2.28719e-18
3825.05404 2.28163e-18
3829.27187 4.06150e-18
3833.49989 3.77934e-18
3837.72791 2.84310e-18
3841.95593 2.02243e-18
3846.18395 2.48992e-18
3850.40178 3.12557e-18
3854.62980 3.50386e-18
3858.85782 3.38257e-18
3863.08584 1.87837e-18
3867.31386 2.69990e-18
3871.53169 4.12063e-18
3875.75971 5.07855e-18
3879.98773 4.29869e-18
3884.21575 3.31030e-18
3888.44377 3.01032e-18
3892.66160 2.95299e-18
3896.88962 6.01309e-18
3901.11764 2.94799e-18
3905.34566 3.75458e-18
3909.57368 7.17821e-18
3913.79152 7.29365e-18
3918.01954 5.15782e-18
3922.24756 3.42229e-18
3926.47558 3.81514e-18
3930.70360 4.99975e-18
3934.92143 5.07040e-18
3939.14945 5.15183e-18
3943.37747 4.98475e-18
3947.60549 4.81525e-18
3951.83351 5.10911e-18
3956.05134 4.54760e-18
3960.27936 4.76023e-18
3964.50738 6.33327e-18
3968.73540 6.92027e-18
3972.96342 6.61732e-18
3977.18125 6.54126e-18
3981.40927 7.10285e-18
3985.63729 6.15748e-18
3989.86531 4.62561e-18
3994.09333 6.80654e-18
3998.31116 5.84997e-18
4002.53918 6.24502e-18
4006.76720 4.58578e-18
4010.99522 6.43187e-18
4015.22324 5.95277e-18
4019.44108 6.19713e-18
4023.66910 5.99463e-18
4027.89712 6.62049e-18
4032.12514 5.81632e-18
4036.35316 5.36908e-18
4040.57099 5.93398e-18
4044.79901 7.09424e-18
4049.02703 7.25781e-18
4053.25505 5.98096e-18
4057.48307 5.77554e-18
4061.70090 6.23898e-18
4065.92892 6.44059e-18
4070.15694 5.99881e-18
4074.38496 5.41494e-18
4078.61298 5.49598e-18
4082.83081 5.82382e-18
4087.05883 6.74470e-18
4091.28685 8.07395e-18
4095.51487 6.94959e-18
4099.74289 6.19494e-18
4103.96072 5.66218e-18
4108.18874 6.21393e-18
4112.41676 6.81031e-18
4116.64478 5.89728e-18
4120.86262 5.68615e-18
4125.09064 4.60630e-18
4129.31866 5.38121e-18
4133.54668 5.53137e-18
4137.77470 7.14033e-18
4141.99253 7.10660e-18
4146.22055 6.69638e-18
4150.44857 6.81275e-18
4154.67659 6.31370e-18
4158.90461 5.62259e-18
4163.12244 5.22071e-18
4167.35046 4.73222e-18
4171.57848 4.74183e-18
4175.80650 5.95861e-18
4180.03452 6.54449e-18
4184.25235 5.95441e-18
4188.48037 5.75035e-18
4192.70839 5.63736e-18
4196.93641 4.87748e-18
4201.16443 5.02560e-18
4205.38226 5.65799e-18
4209.61028 5.55182e-18
4213.83830 4.98231e-18
4218.06632 6.27606e-18
4222.29434 6.50971e-18
4226.51218 6.94575e-18
4230.74020 6.66318e-18
4234.96822 6.08937e-18
4239.19624 5.59277e-18
4243.42426 5.87963e-18
4247.64209 5.92236e-18
4251.87011 5.16463e-18
4256.09813 5.34140e-18
4260.32615 5.84946e-18
4264.55417 6.57704e-18
4268.77200 6.79742e-18
4273.00002 6.12246e-18
4277.22804 5.18316e-18
4281.45606 5.65889e-18
4285.68408 6.27711e-18
4289.90191 6.11338e-18
4294.12993 5.82704e-18
4298.35795 5.92599e-18
4302.58597 6.40913e-18
4306.81399 6.04717e-18
4311.03182 6.15602e-18
4315.25984 6.21636e-18
4319.48786 5.54032e-18
4323.71588 5.72341e-18
4327.94390 7.22951e-18
4332.16174 6.57554e-18
4336.38976 6.34644e-18
4340.61778 5.73241e-18
4344.84580 5.27657e-18
4349.07382 5.65113e-18
4353.29165 5.68881e-18
4357.51967 5.60929e-18
4361.74769 5.38152e-18
4365.97571 5.35108e-18
4370.20373 5.40092e-18
4374.42156 5.33082e-18
4378.64958 4.95256e-18
4382.87760 5.54300e-18
4387.10562 5.60379e-18
4391.33364 4.91585e-18
4395.55147 4.89258e-18
4399.77949 5.15851e-18
4404.00751 5.33177e-18
4408.23553 5.19236e-18
4412.46355 5.53742e-18
4416.68138 5.58670e-18
4420.90940 5.63597e-18
4425.13742 5.68520e-18
4429.36544 5.73444e-18
4433.59346 5.78365e-18
4437.81130 5.83285e-18
4442.03932 5.88202e-18
4446.26734 5.93118e-18
4450.49536 5.98033e-18
4454.72338 6.02945e-18
4458.94121 6.07857e-18
4463.16923 6.12766e-18
4467.39725 6.17673e-18
4471.62527 6.22579e-18
4475.85329 6.27483e-18
4480.07112 6.56370e-18
4484.29914 6.80509e-18
4488.52716 7.17300e-18
4492.75518 7.19233e-18
4496.97301 7.05805e-18
4501.20103 7.37032e-18
4505.42905 7.47413e-18
4509.65707 7.69609e-18
4513.88509 7.75497e-18
4518.10292 8.22834e-18
4522.33094 7.76807e-18
4526.55896 7.78227e-18
4530.78698 7.88116e-18
4535.01500 7.76030e-18
4539.23284 8.45222e-18
4543.46086 9.31366e-18
4547.68888 9.23610e-18
4551.91690 9.28968e-18
4556.14492 9.17009e-18
4560.36275 9.38374e-18
4564.59077 1.05266e-17
4568.81879 1.06022e-17
4573.04681 1.04501e-17
4577.27483 1.06136e-17
4581.49266 1.04695e-17
4585.72068 1.06710e-17
4589.94870 1.14951e-17
4594.17672 1.17656e-17
4598.40474 1.18605e-17
4602.62257 1.18671e-17
4606.85059 1.22369e-17
4611.07861 1.16611e-17
4615.30663 1.15553e-17
4619.53465 1.20908e-17
4623.75248 1.17351e-17
4627.98050 1.19949e-17
4632.20852 1.19840e-17
4636.43654 1.15455e-17
4640.66456 1.14624e-17
4644.88240 1.19297e-17
4649.11042 1.20318e-17
4653.33844 1.20387e-17
4657.56646 1.16445e-17
4661.79448 1.12113e-17
4666.01231 1.14312e-17
4670.24033 1.12580e-17
4674.46835 1.08419e-17
4678.69637 1.13361e-17
4682.92439 1.13937e-17
4687.14222 1.07095e-17
4691.37024 1.02765e-17
4695.59826 1.02437e-17
4699.82628 1.01628e-17
4704.05430 9.98421e-18
4708.27213 9.43862e-18
4712.50015 9.24651e-18
4716.72817 9.32115e-18
4720.95619 8.73833e-18
4725.18421 8.69328e-18
4729.40204 8.47744e-18
4733.63006 9.00538e-18
4737.85808 8.68591e-18
4742.08610 8.36787e-18
4746.31412 8.82080e-18
4750.53196 8.51331e-18
4754.75998 8.08247e-18
4758.98800 8.23587e-18
4763.21602 8.17041e-18
4767.44404 8.25336e-18
4771.66187 7.71909e-18
4775.88989 7.68779e-18
4780.11791 7.74609e-18
4784.34593 7.82286e-18
4788.57395 7.78577e-18
4792.79178 8.27524e-18
4797.01980 8.06335e-18
4801.24782 7.42843e-18
4805.47584 7.71727e-18
4809.70386 8.51334e-18
4813.92169 8.32856e-18
4818.14971 8.13028e-18
4822.37773 8.07688e-18
4826.60575 8.01830e-18
4830.83377 8.20215e-18
4835.05160 8.26933e-18
4839.27962 8.45231e-18
4843.50764 8.15232e-18
4847.73566 8.13415e-18
4851.96368 8.34003e-18
4856.18152 8.37392e-18
4860.40954 8.25870e-18
4864.63756 7.97259e-18
4868.86558 7.05397e-18
4873.08341 7.40289e-18
4877.31143 8.09909e-18
4881.53945 8.74747e-18
4885.76747 8.60371e-18
4889.99549 8.15061e-18
4894.21332 8.18423e-18
4898.44134 8.67498e-18
4902.66936 8.88859e-18
4906.89738 9.37753e-18
4911.12540 9.81147e-18
4915.34323 9.91922e-18
4919.57125 9.80343e-18
4923.79927 1.01826e-17
4928.02729 1.04820e-17
4932.25531 1.03450e-17
4936.47314 1.02869e-17
4940.70116 1.02287e-17
4944.92918 1.01707e-17
4949.15720 1.01126e-17
4953.38522 1.00546e-17
4957.60306 9.99655e-18
4961.83108 9.93855e-18
4966.05910 9.88057e-18
4970.28712 9.82261e-18
4974.51514 9.76467e-18
4978.73297 9.38995e-18
4982.96099 9.11364e-18
4987.18901 8.74571e-18
4991.41703 8.31949e-18
4995.64505 8.55432e-18
4999.86288 8.70543e-18
5004.09090 8.36770e-18
5008.31892 8.40888e-18
5012.54694 8.14221e-18
5016.77496 7.59246e-18
5020.99279 7.98481e-18
5025.22081 8.16955e-18
5029.44883 7.81008e-18
5033.67685 8.02229e-18
5037.90487 8.00069e-18
5042.12270 7.97911e-18
5046.35072 7.95753e-18
5050.57874 7.93596e-18
5054.80676 7.91440e-18
5059.03478 7.89285e-18
5063.25262 7.87131e-18
5067.48064 7.84977e-18
5071.70866 7.82825e-18
5075.93668 7.93286e-18
5080.16470 7.60722e-18
5084.38253 7.68080e-18
5088.61055 7.75434e-18
5092.83857 7.82789e-18
5097.06659 7.90140e-18
5101.29461 7.97489e-18
5105.51244 8.04836e-18
5109.74046 8.12181e-18
5113.96848 8.19523e-18
5118.19650 8.26863e-18
5122.42452 8.34202e-18
5126.64235 8.15994e-18
5130.87037 8.67200e-18
5135.09839 7.91638e-18
5139.32641 8.72711e-18
5143.55443 9.25516e-18
5147.77226 8.61321e-18
5152.00028 8.26521e-18
5156.22830 8.56451e-18
5160.45632 8.71852e-18
5164.68434 8.88335e-18
5168.90218 8.72616e-18
5173.13020 8.99606e-18
5177.35822 9.46584e-18
5181.58624 9.66044e-18
5185.81426 9.81195e-18
5190.03209 1.01332e-17
5194.26011 9.85669e-18
5198.48813 9.81957e-18
5202.71615 1.01656e-17
5206.94417 1.02275e-17
5211.16200 1.02870e-17
5215.39002 1.03774e-17
5219.61804 1.04454e-17
5223.84606 1.09208e-17
5228.07408 1.12777e-17
5232.29191 1.10283e-17
5236.51993 1.13103e-17
5240.74795 1.12647e-17
5244.97597 1.17425e-17
5249.19380 1.19144e-17
5253.42182 1.21131e-17
5257.64984 1.21294e-17
5261.87786 1.24111e-17
5266.10588 1.26936e-17
5270.32372 1.29473e-17
5274.55174 1.28156e-17
5278.77976 1.28623e-17
5283.00778 1.35232e-17
5287.23580 1.39482e-17
5291.45363 1.36885e-17
5295.68165 1.35821e-17
5299.90967 1.38034e-17
5304.13769 1.39177e-17
5308.36571 1.42135e-17
5312.58354 1.44088e-17
5316.81156 1.46140e-17
5321.03958 1.46764e-17
5325.26760 1.46513e-17
5329.49562 1.47205e-17
5333.71345 1.52346e-17
5337.94147 1.57200e-17
5342.16949 1.55515e-17
5346.39751 1.50882e-17
5350.62553 1.50564e-17
5354.84336 1.57031e-17
5359.07138 1.53900e-17
5363.29940 1.60112e-17
5367.52742 1.56961e-17
5371.75544 1.54466e-17
5375.97328 1.52618e-17
5380.20130 1.55319e-17
5384.42932 1.56729e-17
5388.65734 1.55790e-17
5392.88536 1.56894e-17
5397.10319 1.58911e-17
5401.33121 1.61111e-17
5405.55923 1.60550e-17
5409.78725 1.60974e-17
5414.01527 1.60593e-17
5418.23310 1.60445e-17
5422.46112 1.62960e-17
5426.68914 1.64462e-17
5430.91716 1.67619e-17
5435.14518 1.65687e-17
5439.36301 1.69330e-17
5443.59103 1.74989e-17
5447.81905 1.78365e-17
5452.04707 1.79700e-17
5456.27509 1.84012e-17
5460.49292 1.81206e-17
5464.72094 1.85543e-17
5468.94896 1.91334e-17
5473.17698 1.90551e-17
5477.40500 1.88246e-17
5481.62284 1.90620e-17
5485.85086 1.95616e-17
5490.07888 2.00301e-17
5494.30690 2.01246e-17
5498.53492 2.01609e-17
5502.75275 2.00956e-17
5506.98077 2.01486e-17
5511.20879 2.06444e-17
5515.43681 2.07180e-17
5519.66483 2.07959e-17
5523.88266 2.10786e-17
5528.11068 2.12318e-17
5532.33870 2.16220e-17
5536.56672 2.16839e-17
5540.79474 2.08601e-17
5545.01257 2.11676e-17
5549.24059 2.13911e-17
5553.46861 2.12872e-17
5557.69663 2.13641e-17
5561.92465 1.97731e-17
5566.14248 2.03369e-17
5570.37050 2.02030e-17
5574.59852 2.11783e-17
5578.82654 2.17387e-17
5583.05456 2.15073e-17
5587.27240 2.10451e-17
5591.50042 2.04402e-17
5595.72844 1.98881e-17
5599.95646 1.97295e-17
5604.18448 1.95021e-17
5608.40231 1.95314e-17
5612.63033 1.96381e-17
5616.85835 1.91144e-17
5621.08637 1.86550e-17
5625.30420 1.86510e-17
5629.53222 1.87912e-17
5633.76024 1.89132e-17
5637.98826 1.82691e-17
5642.21628 1.79157e-17
5646.43411 1.82498e-17
5650.66213 1.81030e-17
5654.89015 1.75889e-17
5659.11817 1.73504e-17
5663.34619 1.71660e-17
5667.56402 1.68807e-17
5671.79204 1.67843e-17
5676.02006 1.67634e-17
5680.24808 1.65707e-17
5684.47610 1.65315e-17
5688.69394 1.60995e-17
5692.92196 1.63289e-17
5697.14998 1.61647e-17
5701.37800 1.54118e-17
5705.60602 1.53465e-17
5709.82385 1.54751e-17
5714.05187 1.51613e-17
5718.27989 1.48034e-17
5722.50791 1.45496e-17
5726.73593 1.42224e-17
5730.95376 1.41703e-17
5735.18178 1.43761e-17
5739.40980 1.43695e-17
5743.63782 1.41491e-17
5747.86584 1.39968e-17
5752.08367 1.41763e-17
5756.31169 1.43185e-17
5760.53971 1.39957e-17
5764.76773 1.39240e-17
5768.99575 1.41281e-17
5773.21358 1.44137e-17
5777.44160 1.42796e-17
5781.66962 1.40302e-17
5785.89764 1.40269e-17
5790.12566 1.41708e-17
5794.34350 1.47815e-17
5798.57152 1.48649e-17
5802.79954 1.47078e-17
5807.02756 1.48467e-17
5811.25558 1.46508e-17
5815.47341 1.45588e-17
5819.70143 1.49640e-17
5823.92945 1.50832e-17
5828.15747 1.50761e-17
5832.38549 1.48862e-17
5836.60332 1.49178e-17
5840.83134 1.49674e-17
5845.05936 1.50817e-17
5849.28738 1.47266e-17
5853.51540 1.50387e-17
5857.73323 1.51117e-17
5861.96125 1.55424e-17
5866.18927 1.53394e-17
5870.41729 1.49908e-17
5874.64531 1.54932e-17
5878.86314 1.56769e-17
5883.09116 1.53118e-17
5887.31918 1.47123e-17
5891.54720 1.46671e-17
5895.77522 1.45412e-17
5899.99306 1.45163e-17
5904.22108 1.44552e-17
5908.44910 1.46902e-17
5912.67712 1.45971e-17
5916.90514 1.46936e-17
5921.12297 1.51725e-17
5925.35099 1.53714e-17
5929.57901 1.53476e-17
5933.80703 1.55410e-17
5938.03505 1.50548e-17
5942.25288 1.51679e-17
5946.48090 1.56212e-17
5950.70892 1.49715e-17
5954.93694 1.46689e-17
5959.16496 1.46112e-17
5963.38279 1.45534e-17
5967.61081 1.44957e-17
5971.83883 1.44381e-17
5976.06685 1.43804e-17
5980.28468 1.43227e-17
5984.51270 1.42651e-17
5988.74072 1.42074e-17
5992.96874 1.41498e-17
5997.19676 1.40922e-17
6001.41460 1.40346e-17
6005.64262 1.39771e-17
6009.87064 1.39195e-17
6014.09866 1.38619e-17
6018.32668 1.38044e-17
6022.54451 1.39089e-17
6026.77253 1.39282e-17
6031.00055 1.39325e-17
6035.22857 1.41420e-17
6039.45659 1.41604e-17
6043.67442 1.40962e-17
6047.90244 1.39073e-17
6052.13046 1.37079e-17
6056.35848 1.36727e-17
6060.58650 1.34755e-17
6064.80433 1.35797e-17
6069.03235 1.34228e-17
6073.26037 1.31685e-17
6077.48839 1.35349e-17
6081.71641 1.33202e-17
6085.93424 1.30540e-17
6090.16226 1.31118e-17
6094.39028 1.32017e-17
6098.61830 1.33997e-17
6102.84632 1.34792e-17
6107.06416 1.32621e-17
6111.29218 1.34975e-17
6115.52020 1.37140e-17
6119.74822 1.35839e-17
6123.97624 1.36770e-17
6128.19407 1.36690e-17
6132.42209 1.38654e-17
6136.65011 1.40888e-17
6140.87813 1.44149e-17
6145.10615 1.46363e-17
6149.32398 1.46475e-17
6153.55200 1.46153e-17
6157.78002 1.45586e-17
6162.00804 1.45237e-17
6166.23606 1.47984e-17
6170.45389 1.49595e-17
6174.68191 1.46978e-17
6178.90993 1.48781e-17
6183.13795 1.49085e-17
6187.36597 1.46398e-17
6191.58380 1.47467e-17
6195.81182 1.49941e-17
6200.03984 1.46560e-17
6204.26786 1.41386e-17
6208.49588 1.40377e-17
6212.71372 1.45382e-17
6216.94174 1.46625e-17
6221.16976 1.44965e-17
6225.39778 1.45303e-17
6229.62580 1.44134e-17
6233.84363 1.42222e-17
6238.07165 1.40171e-17
6242.29967 1.35206e-17
6246.52769 1.32920e-17
6250.75571 1.34559e-17
6254.97354 1.34360e-17
6259.20156 1.34187e-17
6263.42958 1.29889e-17
6267.65760 1.26961e-17
6271.88562 1.23042e-17
6276.10345 1.18740e-17
6280.33147 1.12538e-17
6284.55949 1.07475e-17
6288.78751 1.17269e-17
6293.01553 1.10662e-17
6297.23336 1.09427e-17
6301.46138 1.05067e-17
6305.68940 1.08617e-17
6309.91742 1.28566e-17
6314.13526 1.34355e-17
6318.36328 1.25159e-17
6322.59130 1.20861e-17
6326.81932 1.19480e-17
6331.04734 1.21333e-17
6335.27536 1.26565e-17
6339.49319 1.26648e-17
6343.72121 1.20718e-17
6347.94923 1.23289e-17
6352.17725 1.36034e-17
6356.39508 1.36478e-17
6360.62310 1.29208e-17
6364.85112 1.30523e-17
6369.07914 1.30666e-17
6373.30716 1.36410e-17
6377.52499 1.47176e-17
6381.75301 1.41956e-17
6385.98103 1.40044e-17
6390.20905 1.41460e-17
6394.43707 1.46160e-17
6398.65490 1.48647e-17
6402.88292 1.46880e-17
6407.11094 1.48769e-17
6411.33896 1.53402e-17
6415.56698 1.55798e-17
6419.78482 1.57343e-17
6424.01284 1.58453e-17
6428.24086 1.59602e-17
6432.46888 1.58368e-17
6436.69690 1.55698e-17
6440.91473 1.58820e-17
6445.14275 1.62439e-17
6449.37077 1.62836e-17
6453.59879 1.63818e-17
6457.82681 1.65274e-17
6462.04464 1.64390e-17
6466.27266 1.65006e-17
6470.50068 1.63969e-17
6474.72870 1.66354e-17
6478.95672 1.70600e-17
6483.17455 1.71924e-17
6487.40257 1.73227e-17
6491.63059 1.73320e-17
6495.85861 1.70125e-17
6500.08663 1.68417e-17
6504.30446 1.70443e-17
6508.53248 1.73695e-17
6512.76050 1.77564e-17
6516.98852 1.80537e-17
6521.21654 1.79700e-17
6525.43438 1.78482e-17
6529.66240 1.73937e-17
6533.89042 1.75655e-17
6538.11844 1.79247e-17
6542.34646 1.80239e-17
6546.56429 1.77678e-17
6550.79231 1.76195e-17
6555.02033 1.76682e-17
6559.24835 1.78687e-17
6563.47637 1.77994e-17
6567.69420 1.75126e-17
6571.92222 1.76290e-17
6576.15024 1.77525e-17
6580.37826 1.75421e-17
6584.60628 1.74234e-17
6588.82411 1.74592e-17
6593.05213 1.76811e-17
6597.28015 1.77379e-17
6601.50817 1.76056e-17
6605.73619 1.73961e-17
6609.95402 1.74116e-17
6614.18204 1.72405e-17
6618.41006 1.72193e-17
6622.63808 1.70003e-17
6626.86610 1.69628e-17
6631.08394 1.68940e-17
6635.31196 1.67936e-17
6639.53998 1.68333e-17
6643.76800 1.65366e-17
6647.98583 1.60563e-17
6652.21385 1.60219e-17
6656.44187 1.59592e-17
6660.66989 1.58965e-17
6664.89791 1.58338e-17
6669.12593 1.57711e-17
6673.34376 1.57084e-17
6677.57178 1.56457e-17
6681.79980 1.55831e-17
6686.02782 1.55204e-17
6690.24565 1.54578e-17
6694.47367 1.53683e-17
6698.70169 1.52789e-17
6702.92971 1.51896e-17
6707.15773 1.51002e-17
6711.38575 1.50108e-17
6715.60358 1.49215e-17
6719.83160 1.48321e-17
6724.05962 1.47428e-17
6728.28764 1.46535e-17
6732.50548 1.47373e-17
6736.73350 1.47018e-17
6740.96152 1.46367e-17
6745.18954 1.45158e-17
6749.41756 1.44578e-17
6753.63539 1.42417e-17
6757.86341 1.42385e-17
6762.09143 1.42310e-17
6766.31945 1.41358e-17
6770.54747 1.36336e-17
6774.76530 1.35003e-17
6778.99332 1.38677e-17
6783.22134 1.43607e-17
6787.44936 1.41586e-17
6791.67738 1.36841e-17
6795.89521 1.39726e-17
6800.12323 1.39395e-17
6804.35125 1.36202e-17
6808.57927 1.35545e-17
6812.80729 1.36749e-17
6817.02512 1.35502e-17
6821.25314 1.31460e-17
6825.48116 1.30474e-17
6829.70918 1.29487e-17
6833.93720 1.28501e-17
6838.15504 1.27515e-17
6842.38306 1.25814e-17
6846.61108 1.24113e-17
6850.83910 1.22413e-17
6855.06712 1.20713e-17
6859.28495 1.19013e-17
6863.51297 1.17313e-17
6867.74099 1.15614e-17
6871.96901 1.13915e-17
6876.19703 1.12216e-17
6880.41486 1.14452e-17
6884.64288 1.17139e-17
6888.87090 1.19371e-17
6893.09892 1.17715e-17
6897.32694 1.15697e-17
6901.54477 1.15428e-17
6905.77279 1.14664e-17
6910.00081 1.15103e-17
6914.22883 1.16877e-17
6918.45685 1.17396e-17
6922.67468 1.15340e-17
6926.90270 1.15521e-17
6931.13072 1.15725e-17
6935.35874 1.16029e-17
6939.58676 1.16830e-17
6943.80460 1.20820e-17
6948.03262 1.21763e-17
6952.26064 1.19082e-17
6956.48866 1.19800e-17
6960.71668 1.20985e-17
6964.93451 1.20804e-17
6969.16253 1.21456e-17
6973.39055 1.24256e-17
6977.61857 1.22448e-17
6981.84659 1.17035e-17
6986.06442 1.19345e-17
6990.29244 1.21008e-17
6994.52046 1.20023e-17
6998.74848 1.18373e-17
7002.97650 1.18412e-17
7007.19433 1.19069e-17
7011.42235 1.20217e-17
7015.65037 1.21890e-17
7019.87839 1.21449e-17
7024.09622 1.19810e-17
7028.32424 1.18557e-17
7032.55226 1.18180e-17
7036.78028 1.18535e-17
7041.00830 1.16822e-17
7045.23632 1.16269e-17
7049.45416 1.14918e-17
7053.68218 1.14213e-17
7057.91020 1.13674e-17
7062.13822 1.13606e-17
7066.35605 1.13645e-17
7070.58407 1.11314e-17
7074.81209 1.08212e-17
7079.04011 1.06536e-17
7083.26813 1.10081e-17
7087.49615 1.11252e-17
7091.71398 1.08483e-17
7095.94200 1.07771e-17
7100.17002 1.06503e-17
7104.39804 1.03824e-17
7108.61587 1.04190e-17
7112.84389 1.03973e-17
7117.07191 1.02248e-17
7121.29993 1.02077e-17
7125.52795 1.02100e-17
7129.74578 1.03413e-17
7133.97380 1.02766e-17
7138.20182 1.03967e-17
7142.42984 1.02365e-17
7146.65786 1.00818e-17
7150.87570 1.03133e-17
7155.10372 1.02893e-17
7159.33174 9.89672e-18
7163.55976 9.72544e-18
7167.78778 9.79702e-18
7172.00561 9.92858e-18
7176.23363 1.01038e-17
7180.46165 1.02038e-17
7184.68967 1.06324e-17
7188.91769 1.05012e-17
7193.13552 1.09501e-17
7197.36354 1.13502e-17
7201.59156 1.20430e-17
7205.81958 1.20598e-17
7210.04760 1.15540e-17
7214.26543 1.15902e-17
7218.49345 1.15729e-17
7222.72147 1.11976e-17
7226.94949 1.09662e-17
7231.17751 1.06727e-17
7235.39534 1.05184e-17
7239.62336 1.08185e-17
7243.85138 1.10458e-17
7248.07940 1.13170e-17
7252.30742 1.15817e-17
7256.52526 1.13686e-17
7260.75328 1.12316e-17
7264.98130 1.11800e-17
7269.20932 1.12043e-17
7273.43734 1.13792e-17
7277.65517 1.15958e-17
7281.88319 1.15643e-17
7286.11121 1.14723e-17
7290.33923 1.11190e-17
7294.56725 1.15142e-17
7298.78508 1.15832e-17
7303.01310 1.14336e-17
7307.24112 1.14147e-17
7311.46914 1.13163e-17
7315.69716 1.12116e-17
7319.91499 1.10989e-17
7324.14301 1.09980e-17
7328.37103 1.08341e-17
7332.59905 1.10414e-17
7336.82707 1.10230e-17
7341.04490 1.09150e-17
7345.27292 1.10348e-17
7349.50094 1.08764e-17
7353.72896 1.09100e-17
7357.95698 1.11574e-17
7362.17482 1.11918e-17
7366.40284 1.12136e-17
7370.63086 1.12796e-17
7374.85888 1.11053e-17
7379.08690 1.08891e-17
7383.30473 1.08847e-17
7387.53275 1.09951e-17
7391.76077 1.11323e-17
7395.98879 1.10412e-17
7400.21681 1.11863e-17
7404.43464 1.12684e-17
7408.66266 1.11132e-17
7412.89068 1.07726e-17
7417.11870 1.08357e-17
7421.34672 1.10379e-17
7425.56455 1.08786e-17
7429.79257 1.07035e-17
7434.02059 1.06986e-17
7438.24861 1.10115e-17
7442.46644 1.12442e-17
7446.69446 1.11161e-17
7450.92248 1.10576e-17
7455.15050 1.10749e-17
7459.37852 1.09099e-17
7463.60654 1.08349e-17
7467.82438 1.12662e-17
7472.05240 1.14270e-17
7476.28042 1.06714e-17
7480.50844 1.02908e-17
7484.72627 1.05496e-17
7488.95429 1.04816e-17
7493.18231 9.96834e-18
7497.41033 9.75081e-18
7501.63835 9.52969e-18
7505.85618 9.32953e-18
7510.08420 9.55874e-18
7514.31222 9.83579e-18
7518.54024 9.02407e-18
7522.76826 8.80308e-18
7526.98609 9.09217e-18
7531.21411 9.02462e-18
7535.44213 8.68586e-18
7539.67015 8.71268e-18
7543.89817 8.75706e-18
7548.11600 8.34728e-18
7552.34402 8.31379e-18
7556.57204 8.47861e-18
7560.80006 8.34528e-18
7565.02808 8.46683e-18
7569.24592 8.25233e-18
7573.47394 8.16314e-18
7577.70196 8.34262e-18
7581.92998 8.17215e-18
7586.15800 7.41828e-18
7590.37583 6.55140e-18
7594.60385 5.71465e-18
7598.83187 5.30632e-18
7603.05989 6.09698e-18
7607.28791 8.00779e-18
7611.50574 8.78128e-18
7615.73376 8.38064e-18
7619.96178 7.73847e-18
7624.18980 7.25140e-18
7628.41782 7.40742e-18
7632.63565 7.76836e-18
7636.86367 8.24686e-18
7641.09169 8.94153e-18
7645.31971 9.13003e-18
7649.54773 8.99148e-18
7653.76556 8.99351e-18
7657.99358 8.85603e-18
7662.22160 9.07626e-18
7666.44962 9.39208e-18
7670.67764 9.15756e-18
7674.89548 9.08876e-18
7679.12350 9.47453e-18
7683.35152 9.64796e-18
7687.57954 9.46383e-18
7691.80756 9.36024e-18
7696.02539 9.51259e-18
7700.25341 9.79069e-18
7704.48143 9.37599e-18
7708.70945 9.19981e-18
7712.93747 9.53852e-18
7717.15530 9.49510e-18
7721.38332 9.23665e-18
7725.61134 9.90726e-18
7729.83936 1.00630e-17
7734.06738 1.02466e-17
7738.28521 1.01060e-17
7742.51323 9.98356e-18
7746.74125 1.00322e-17
7750.96927 1.01247e-17
7755.18710 1.04630e-17
7759.41512 1.04013e-17
7763.64314 9.98721e-18
7767.87116 9.94394e-18
7772.09918 1.01010e-17
7776.32720 1.04254e-17
7780.54504 1.06925e-17
7784.77306 1.08416e-17
7789.00108 1.08838e-17
7793.22910 1.11368e-17
7797.44693 1.13580e-17
7801.67495 1.09629e-17
7805.90297 1.08451e-17
7810.13099 1.05500e-17
7810.74573 1.05500e-17
7811.60720 1.05319e-17
7812.46866 1.05138e-17
7813.33012 1.04913e-17
7814.19158 1.04687e-17
7815.05304 1.04459e-17
7815.91450 1.04230e-17
7816.78598 1.04036e-17
7817.64745 1.03842e-17
7818.50891 1.03730e-17
7819.37037 1.03617e-17
7820.23183 1.03622e-17
7821.09329 1.03628e-17
7821.95476 1.03667e-17
7822.81622 1.03707e-17
7823.67768 1.03653e-17
7824.53914 1.03600e-17
7825.40060 1.03440e-17
7826.27208 1.03278e-17
7827.13355 1.03048e-17
7827.99501 1.02818e-17
7828.85647 1.02551e-17
7829.71793 1.02284e-17
7830.57939 1.02012e-17
7831.44085 1.01741e-17
7832.30232 1.01486e-17
7833.16378 1.01230e-17
7834.02524 1.00992e-17
7834.88670 1.00753e-17
7835.75818 1.00554e-17
7836.61964 1.00354e-17
7837.48111 1.00255e-17
7838.34257 1.00157e-17
7839.20403 1.00176e-17
7840.06549 1.00194e-17
7840.92695 1.00260e-17
7841.78842 1.00327e-17
7842.64988 1.00380e-17
7843.51134 1.00433e-17
7844.37280 1.00444e-17
7845.23426 1.00457e-17
7846.10574 1.00411e-17
7846.96720 1.00366e-17
7847.82867 1.00287e-17
7848.69013 1.00207e-17
7849.55159 1.00122e-17
7850.41305 1.00037e-17
7851.27452 9.99638e-18
7852.13598 9.98901e-18
7852.99744 9.98412e-18
7853.85890 9.97923e-18
7854.72036 9.97774e-18
7855.59184 9.97625e-18
7856.45330 9.97865e-18
7857.31477 9.98114e-18
7858.17623 9.98371e-18
7859.03769 9.98627e-18
7859.89915 9.98296e-18
7860.76061 9.97965e-18
7861.62208 9.97087e-18
7862.48354 9.96208e-18
7863.34500 9.95272e-18
7864.20646 9.94336e-18
7865.07794 9.93085e-18
7865.93940 9.91843e-18
7866.80087 9.89457e-18
7867.66233 9.87080e-18
7868.52379 9.83476e-18
7869.38525 9.79881e-18
7870.24671 9.75747e-18
7871.10818 9.71605e-18
7871.96964 9.67894e-18
7872.83110 9.64174e-18
7873.69256 9.62435e-18
7874.56404 9.60712e-18
7875.42550 9.61565e-18
7876.28696 9.62426e-18
7877.14843 9.64116e-18
7878.00989 9.65806e-18
7878.87135 9.66709e-18
7879.73281 9.67620e-18
7880.59427 9.67248e-18
7881.45574 9.66875e-18
7882.31720 9.64961e-18
7883.17866 9.63039e-18
7884.05014 9.60256e-18
7884.91160 9.57473e-18
7885.77306 9.54664e-18
7886.63453 9.51864e-18
7887.49599 9.48973e-18
7888.35745 9.46074e-18
7889.21891 9.42893e-18
7890.08037 9.39712e-18
7890.94184 9.36415e-18
7891.80330 9.33126e-18
7892.66476 9.29920e-18
7893.52622 9.26722e-18
7894.39770 9.24444e-18
7895.25916 9.22166e-18
7896.12062 9.21967e-18
7896.98209 9.21760e-18
7897.84355 9.22978e-18
7898.70501 9.24187e-18
7899.56647 9.24900e-18
7900.42793 9.25612e-18
7901.28940 9.24983e-18
7902.15086 9.24353e-18
7903.01232 9.22589e-18
7903.88380 9.20816e-18
7904.74526 9.18455e-18
7905.60672 9.16102e-18
7906.46819 9.14379e-18
7907.32965 9.12664e-18
7908.19111 9.12068e-18
7909.05257 9.11471e-18
7909.91403 9.10618e-18
7910.77550 9.09765e-18
7911.63696 9.07835e-18
7912.49842 9.05905e-18
7913.36990 9.03883e-18
7914.23136 9.01854e-18
7915.09282 9.00561e-18
7915.95428 8.99269e-18
7916.81575 8.98764e-18
7917.67721 8.98259e-18
7918.53867 8.98432e-18
7919.40013 8.98606e-18
7920.26159 8.98242e-18
7921.12306 8.97886e-18
7921.98452 8.95765e-18
7922.85600 8.93636e-18
7923.71746 8.90505e-18
7924.57892 8.87373e-18
7925.44038 8.84549e-18
7926.30185 8.81715e-18
7927.16331 8.79959e-18
7928.02477 8.78203e-18
7928.88623 8.78029e-18
7929.74769 8.77863e-18
7930.60916 8.78957e-18
7931.47062 8.80050e-18
7932.34210 8.81508e-18
7933.20356 8.82975e-18
7934.06502 8.84027e-18
7934.92648 8.85079e-18
7935.78794 8.85079e-18
7936.64941 8.85087e-18
7937.51087 8.83712e-18
7938.37233 8.82328e-18
7939.23379 8.79644e-18
7940.09525 8.76952e-18
7940.95672 8.73349e-18
7941.81818 8.69745e-18
7942.68966 8.66125e-18
7943.55112 8.62505e-18
7944.41258 8.59572e-18
7945.27404 8.56640e-18
7946.13551 8.54519e-18
7946.99697 8.52398e-18
7947.85843 8.51081e-18
7948.71989 8.49756e-18
7949.58135 8.48994e-18
7950.44282 8.48231e-18
7951.30428 8.47685e-18
7952.17576 8.47138e-18
7953.03722 8.46078e-18
7953.89868 8.45017e-18
7954.76014 8.42814e-18
7955.62160 8.40610e-18
7956.48307 8.38183e-18
7957.34453 8.35747e-18
7958.20599 8.34290e-18
7959.06745 8.32840e-18
7959.92891 8.32442e-18
7960.79038 8.32045e-18
7961.66186 8.32450e-18
7962.52332 8.32848e-18
7963.38478 8.33420e-18
7964.24624 8.33991e-18
7965.10770 8.33817e-18
7965.96917 8.33635e-18
7966.83063 8.33237e-18
7967.69209 8.32832e-18
7968.55355 8.33718e-18
7969.41501 8.34613e-18
7970.27648 8.37139e-18
7971.14795 8.39674e-18
7972.00942 8.43079e-18
7972.87088 8.46484e-18
7973.73234 8.49739e-18
7974.59380 8.53003e-18
7975.45526 8.54627e-18
7976.31673 8.56250e-18
7977.17819 8.55604e-18
7978.03965 8.54958e-18
7978.90111 8.53260e-18
7979.76257 8.51562e-18
7980.63405 8.49872e-18
7981.49552 8.48190e-18
7982.35698 8.46773e-18
7983.21844 8.45357e-18
7984.07990 8.44379e-18
7984.94136 8.43402e-18
7985.80283 8.42507e-18
7986.66429 8.41621e-18
7987.52575 8.40436e-18
7988.38721 8.39243e-18
7989.24867 8.37918e-18
7990.11014 8.36592e-18
7990.98161 8.35325e-18
7991.84308 8.34058e-18
7992.70454 8.33237e-18
7993.56600 8.32417e-18
7994.42746 8.32492e-18
7995.28892 8.32575e-18
7996.15039 8.32658e-18
7997.01185 8.32740e-18
7997.87331 8.31415e-18
7998.73477 8.30090e-18
7999.59623 8.27527e-18
8000.46771 8.24965e-18
8001.32917 8.22238e-18
8002.19064 8.19510e-18
8003.05210 8.17426e-18
8003.91356 8.15343e-18
8004.77502 8.14592e-18
8005.63649 8.13845e-18
8006.49795 8.14250e-18
8007.35941 8.14657e-18
8008.22087 8.14808e-18
8009.08233 8.14958e-18
8009.95381 8.14393e-18
8010.81527 8.13827e-18
8011.67674 8.13897e-18
8012.53820 8.13967e-18
8013.39966 8.15327e-18
8014.26112 8.16689e-18
8015.12258 8.18390e-18
8015.98405 8.20091e-18
8016.84551 8.21226e-18
8017.70697 8.22359e-18
8018.56843 8.22008e-18
8019.43991 8.21654e-18
8020.30137 8.19252e-18
8021.16284 8.16846e-18
8022.02430 8.13916e-18
8022.88576 8.10984e-18
8023.74722 8.09208e-18
8024.60868 8.07435e-18
8025.47015 8.06763e-18
8026.33161 8.06095e-18
8027.19307 8.06080e-18
8028.05453 8.06066e-18
8028.92601 8.06154e-18
8029.78747 8.06242e-18
8030.64893 8.05790e-18
8031.51040 8.05337e-18
8032.37186 8.04410e-18
8033.23332 8.03482e-18
8034.09478 8.02528e-18
8034.95624 8.01574e-18
8035.81771 8.00881e-18
8036.67917 8.00188e-18
8037.54063 7.99928e-18
8038.41211 7.99669e-18
8039.27357 7.99905e-18
8040.13503 8.00141e-18
8040.99650 8.00797e-18
8041.85796 8.01453e-18
8042.71942 8.02311e-18
8043.58088 8.03168e-18
8044.44234 8.03843e-18
8045.30380 8.04516e-18
8046.16527 8.04716e-18
8047.02673 8.04914e-18
8047.88819 8.04504e-18
8048.75967 8.04092e-18
8049.62113 8.03143e-18
8050.48259 8.02194e-18
8051.34406 8.01409e-18
8052.20552 8.00623e-18
8053.06698 8.00525e-18
8053.92844 8.00428e-18
8054.78990 8.00618e-18
8055.65137 8.00808e-18
8056.51283 8.00787e-18
8057.37429 8.00764e-18
8058.24577 7.99933e-18
8059.10723 7.99100e-18
8059.96869 7.96951e-18
8060.83015 7.94800e-18
8061.69162 7.91747e-18
8062.55308 7.88692e-18
8063.41454 7.85439e-18
8064.27600 7.82186e-18
8065.13746 7.79532e-18
8065.99893 7.76880e-18
8066.86039 7.75608e-18
8067.73187 7.74340e-18
8068.59333 7.74496e-18
8069.45479 7.74654e-18
8070.31625 7.75817e-18
8071.17772 7.76982e-18
8072.03918 7.78320e-18
8072.90064 7.79657e-18
8073.76210 7.79976e-18
8074.62356 7.80293e-18
8075.48503 7.79155e-18
8076.34649 7.78015e-18
8077.21797 7.75988e-18
8078.07943 7.73960e-18
8078.94089 7.71401e-18
8079.80235 7.68839e-18
8080.66381 7.65679e-18
8081.52528 7.62517e-18
8082.38674 7.58806e-18
8083.24820 7.55092e-18
8084.10966 7.50986e-18
8084.97113 7.46878e-18
8085.83259 7.42562e-18
8086.70407 7.38245e-18
8087.56553 7.33992e-18
8088.42699 7.29740e-18
8089.28845 7.25807e-18
8090.14991 7.21876e-18
8091.01138 7.18496e-18
8091.87284 7.15118e-18
8092.73430 7.12414e-18
8093.59576 7.09711e-18
8094.45722 7.07631e-18
8095.31869 7.05554e-18
8096.18015 7.03931e-18
8097.05163 7.02311e-18
8097.91309 7.00241e-18
8098.77455 6.98172e-18
8099.63601 6.94586e-18
8100.49748 6.90995e-18
8101.35894 6.85553e-18
8102.22040 6.80105e-18
8103.08186 6.72876e-18
8103.94332 6.65641e-18
8104.80479 6.57500e-18
8105.67626 6.49357e-18
8106.53773 6.41724e-18
8107.39919 6.34093e-18
8108.26065 6.27854e-18
8109.12211 6.21619e-18
8109.98357 6.17075e-18
8110.84504 6.12534e-18
8111.70650 6.09287e-18
8112.56796 6.06041e-18
8113.42942 6.02698e-18
8114.29088 5.99355e-18
8115.15235 5.94790e-18
8116.02383 5.90224e-18
8116.88529 5.83960e-18
8117.74675 5.77694e-18
8118.60821 5.69642e-18
8119.46967 5.61585e-18
8120.33114 5.52905e-18
8121.19260 5.44225e-18
8122.05406 5.35847e-18
8122.91552 5.27470e-18
8123.77698 5.18358e-18
8124.63845 5.09244e-18
8125.49991 4.98436e-18
8126.37139 4.87623e-18
8127.23285 4.75635e-18
8128.09431 4.63644e-18
8128.95577 4.51232e-18
8129.81723 4.38820e-18
8130.67870 4.27438e-18
8131.54016 4.16060e-18
8132.40162 4.07271e-18
8133.26308 3.98490e-18
8134.12454 3.91455e-18
8134.99602 3.84425e-18
8135.85749 3.77265e-18
8136.71895 3.70104e-18
8137.58041 3.62104e-18
8138.44187 3.54103e-18
8139.30333 3.45237e-18
8140.16480 3.36369e-18
8141.02626 3.26864e-18
8141.88772 3.17357e-18
8142.74918 3.07742e-18
8143.61064 2.98126e-18
8144.47210 2.88924e-18
8145.34358 2.79724e-18
8146.20505 2.71356e-18
8147.06651 2.62990e-18
8147.92797 2.55748e-18
8148.78943 2.48512e-18
8149.65089 2.42492e-18
8150.51236 2.36476e-18
8151.37382 2.31528e-18
8152.23528 2.26583e-18
8153.09674 2.22055e-18
8153.95820 2.17529e-18
8154.82968 2.12893e-18
8155.69115 2.08258e-18
8156.55261 2.03565e-18
8157.41407 1.98872e-18
8158.27553 1.94282e-18
8159.13699 1.89693e-18
8159.99845 1.85596e-18
8160.85992 1.81501e-18
8161.72138 1.78282e-18
8162.58284 1.75064e-18
8163.44430 1.72838e-18
8164.31578 1.70615e-18
8165.17724 1.69362e-18
8166.03871 1.68111e-18
8166.90017 1.67236e-18
8167.76163 1.66361e-18
8168.62309 1.65138e-18
8169.48455 1.63915e-18
8170.34602 1.61743e-18
8171.20748 1.59568e-18
8172.06894 1.55872e-18
8172.93040 1.52173e-18
8173.80188 1.47931e-18
8174.66334 1.43688e-18
8175.52481 1.41008e-18
8176.38627 1.38332e-18
8177.24773 1.37683e-18
8178.10919 1.37040e-18
8178.97065 1.37200e-18
8179.83212 1.37363e-18
8180.69358 1.37402e-18
8181.55504 1.37441e-18
8182.41650 1.36772e-18
8183.28798 1.36103e-18
8184.14944 1.34514e-18
8185.01090 1.32923e-18
8185.87237 1.31203e-18
8186.73383 1.29481e-18
8187.59529 1.28193e-18
8188.45675 1.26905e-18
8189.31821 1.25614e-18
8190.17968 1.24321e-18
8191.04114 1.22722e-18
8191.90260 1.21120e-18
8192.77408 1.19584e-18
8193.63554 1.18047e-18
8194.49700 1.16950e-18
8195.35846 1.15854e-18
8196.21993 1.15534e-18
8197.08139 1.15215e-18
8197.94285 1.15925e-18
8198.80431 1.16636e-18
8199.66577 1.17768e-18
8200.52724 1.18900e-18
8201.38870 1.19603e-18
8202.25016 1.20304e-18
8203.12164 1.20412e-18
8203.98310 1.20519e-18
8204.84456 1.20170e-18
8205.70603 1.19821e-18
8206.56749 1.19086e-18
8207.42895 1.18349e-18
8208.29041 1.17287e-18
8209.15187 1.16224e-18
8210.01334 1.15008e-18
8210.87480 1.13791e-18
8211.73626 1.12643e-18
8212.60774 1.11497e-18
8213.46920 1.10514e-18
8214.33066 1.09533e-18
8215.19212 1.08698e-18
8216.05359 1.07865e-18
8216.91505 1.06915e-18
8217.77651 1.05965e-18
8218.63797 1.04165e-18
8219.49943 1.02362e-18
8220.36090 9.94303e-19
8221.22236 9.64961e-19
8222.08382 9.31842e-19
8222.95530 8.98714e-19
8223.81676 8.70176e-19
8224.67822 8.41646e-19
8225.53969 8.28193e-19
8226.40115 8.14780e-19
8227.26261 8.24000e-19
8228.12407 8.33271e-19
8228.98553 8.58098e-19
8229.84700 8.82958e-19
8230.70846 9.13576e-19
8231.57994 9.44210e-19
8232.44140 9.71083e-19
8233.30286 9.97956e-19
8234.16432 1.01223e-18
8235.02578 1.02648e-18
8235.88725 1.03109e-18
8236.74871 1.03567e-18
8237.61017 1.03801e-18
8238.47163 1.04035e-18
8239.33309 1.04556e-18
8240.19456 1.05078e-18
8241.06604 1.06315e-18
8241.92750 1.07554e-18
8242.78896 1.09258e-18
8243.65042 1.10962e-18
8244.51188 1.12357e-18
8245.37335 1.13752e-18
8246.23481 1.14459e-18
8247.09627 1.15165e-18
8247.95773 1.15227e-18
8248.81919 1.15288e-18
8249.68066 1.14859e-18
8250.54212 1.14430e-18
8251.41360 1.13855e-18
8252.27506 1.13280e-18
8253.13652 1.12879e-18
8253.99798 1.12478e-18
8254.85945 1.12446e-18
8255.72091 1.12415e-18
8256.58237 1.12862e-18
8257.44383 1.13310e-18
8258.30529 1.14159e-18
8259.16676 1.15009e-18
8260.02822 1.16098e-18
8260.89970 1.17187e-18
8261.76116 1.18213e-18
8262.62262 1.19241e-18
8263.48408 1.19909e-18
8264.34554 1.20577e-18
8265.20701 1.20621e-18
8266.06847 1.20663e-18
8266.92993 1.19907e-18
8267.79139 1.19149e-18
8268.65285 1.17995e-18
8269.52433 1.16839e-18
8270.38580 1.15846e-18
8271.24726 1.14853e-18
8272.10872 1.14396e-18
8272.97018 1.13941e-18
8273.83164 1.14310e-18
8274.69311 1.14681e-18
8275.55457 1.15587e-18
8276.41603 1.16494e-18
8277.27749 1.17282e-18
8278.13895 1.18070e-18
8279.01043 1.18474e-18
8279.87189 1.18878e-18
8280.73336 1.18961e-18
8281.59482 1.19043e-18
8282.45628 1.19002e-18
8283.31774 1.18961e-18
8284.17920 1.19209e-18
8285.04067 1.19459e-18
8285.90213 1.20154e-18
8286.76359 1.20849e-18
8287.62505 1.21617e-18
8288.48651 1.22385e-18
8289.34798 1.23027e-18
8290.21946 1.23668e-18
8291.08092 1.24483e-18
8291.94238 1.25297e-18
8292.80384 1.26454e-18
8293.66530 1.27612e-18
8294.52677 1.28810e-18
8295.38823 1.30008e-18
8296.24969 1.30967e-18
8297.11115 1.31927e-18
8297.97261 1.32467e-18
8298.83408 1.33006e-18
8299.70555 1.33020e-18
8300.56702 1.33033e-18
8301.42848 1.33156e-18
8302.28994 1.33280e-18
8303.15140 1.34265e-18
8304.01286 1.35251e-18
8304.87433 1.36809e-18
8305.73579 1.38366e-18
8306.59725 1.39869e-18
8307.45871 1.41371e-18
8308.32017 1.42440e-18
8309.18164 1.43507e-18
8310.05312 1.43863e-18
8310.91458 1.44218e-18
8311.77604 1.44158e-18
8312.63750 1.44097e-18
8313.49896 1.44340e-18
8314.36043 1.44582e-18
8315.22189 1.45531e-18
8316.08335 1.46482e-18
8316.94481 1.48217e-18
8317.80627 1.49955e-18
8318.67775 1.52273e-18
8319.53921 1.54593e-18
8320.40068 1.56848e-18
8321.26214 1.59102e-18
8322.12360 1.60833e-18
8322.98506 1.62562e-18
8323.84652 1.63761e-18
8324.70799 1.64960e-18
8325.56945 1.65689e-18
8326.43091 1.66418e-18
8327.29237 1.66856e-18
8328.16385 1.67294e-18
8329.02531 1.67666e-18
8329.88678 1.68038e-18
8330.74824 1.68470e-18
8331.60970 1.68903e-18
8332.47116 1.69524e-18
8333.33262 1.70145e-18
8334.19408 1.71265e-18
8335.05555 1.72387e-18
8335.91701 1.74265e-18
8336.77847 1.76146e-18
8337.64995 1.78581e-18
8338.51141 1.81017e-18
8339.37287 1.83661e-18
8340.23434 1.86306e-18
8341.09580 1.88683e-18
8341.95726 1.91059e-18
8342.81872 1.92652e-18
8343.68018 1.94243e-18
8344.54165 1.95064e-18
8345.40311 1.95883e-18
8346.26457 1.96293e-18
8347.12603 1.96701e-18
8347.99751 1.96994e-18
8348.85897 1.97288e-18
8349.72043 1.97685e-18
8350.58190 1.98082e-18
8351.44336 1.98838e-18
8352.30482 1.99595e-18
8353.16628 2.00981e-18
8354.02775 2.02367e-18
8354.88921 2.04413e-18
8355.75067 2.06461e-18
8356.62215 2.08834e-18
8357.48361 2.11208e-18
8358.34507 2.13574e-18
8359.20653 2.15940e-18
8360.06800 2.18009e-18
8360.92946 2.20077e-18
8361.79092 2.21674e-18
8362.65238 2.23270e-18
8363.51384 2.24698e-18
8364.37531 2.26124e-18
8365.23677 2.27677e-18
8366.10825 2.29230e-18
8366.96971 2.30714e-18
8367.83117 2.32199e-18
8368.69263 2.33412e-18
8369.55410 2.34624e-18
8370.41556 2.35763e-18
8371.27702 2.36902e-18
8372.13848 2.38239e-18
8372.99994 2.39576e-18
8373.86140 2.41259e-18
8374.72287 2.42944e-18
8375.59435 2.45070e-18
8376.45581 2.47197e-18
8377.31727 2.49745e-18
8378.17873 2.52294e-18
8379.04019 2.55166e-18
8379.90166 2.58039e-18
8380.76312 2.61078e-18
8381.62458 2.64118e-18
8382.48604 2.67139e-18
8383.34750 2.70160e-18
8384.20897 2.73011e-18
8385.07043 2.75860e-18
8385.94191 2.78398e-18
8386.80337 2.80936e-18
8387.66483 2.83246e-18
8388.52629 2.85557e-18
8389.38775 2.88088e-18
8390.24922 2.90621e-18
8391.11068 2.93499e-18
8391.97214 2.96378e-18
8392.83360 2.99025e-18
8393.69507 3.01672e-18
8394.55653 3.03671e-18
8395.41799 3.05670e-18
8396.28947 3.07012e-18
8397.15093 3.08353e-18
8398.01239 3.09204e-18
8398.87385 3.10054e-18
8399.73532 3.11356e-18
8400.59678 3.12660e-18
8401.45824 3.15271e-18
8402.31970 3.17885e-18
8403.18116 3.21528e-18
8404.04263 3.25173e-18
8404.90409 3.29324e-18
8405.77557 3.33474e-18
8406.63703 3.37550e-18
8407.49849 3.41625e-18
8408.35995 3.45025e-18
8409.22142 3.48424e-18
8410.08288 3.51153e-18
8410.94434 3.53880e-18
8411.80580 3.56242e-18
8412.66726 3.58604e-18
8413.52873 3.60813e-18
8414.39019 3.63020e-18
8415.26167 3.65246e-18
8416.12313 3.67471e-18
8416.98459 3.69895e-18
8417.84605 3.72320e-18
8418.70751 3.75093e-18
8419.56898 3.77865e-18
8420.43044 3.81044e-18
8421.29190 3.84223e-18
8422.15336 3.87795e-18
8423.01482 3.91367e-18
8423.87629 3.95142e-18
8424.74777 3.98917e-18
8425.60923 4.02374e-18
8426.47069 4.05830e-18
8427.33215 4.08755e-18
8428.19361 4.11679e-18
8429.05508 4.14663e-18
8429.91654 4.17647e-18
8430.77800 4.21170e-18
8431.63946 4.24694e-18
8432.50092 4.28808e-18
8433.36239 4.32922e-18
8434.23386 4.37551e-18
8435.09533 4.42179e-18
8435.95679 4.46552e-18
8436.81825 4.50925e-18
8437.67971 4.54287e-18
8438.54117 4.57647e-18
8439.40264 4.60439e-18
8440.26410 4.63230e-18
8441.12556 4.66173e-18
8441.98702 4.69114e-18
8442.84848 4.72418e-18
8443.70995 4.75723e-18
8444.58143 4.79438e-18
8445.44289 4.83153e-18
8446.30435 4.87318e-18
8447.16581 4.91484e-18
8448.02727 4.96088e-18
8448.88874 5.00691e-18
8449.75020 5.05590e-18
8450.61166 5.10490e-18
8451.47312 5.15476e-18
8452.33458 5.20461e-18
8453.20606 5.25296e-18
8454.06752 5.30129e-18
8454.92899 5.34521e-18
8455.79045 5.38911e-18
8456.65191 5.42924e-18
8457.51337 5.46936e-18
8458.37483 5.51192e-18
8459.23630 5.55449e-18
8460.09776 5.60212e-18
8460.95922 5.64976e-18
8461.82068 5.69710e-18
8462.69216 5.74445e-18
8463.55362 5.78771e-18
8464.41508 5.83098e-18
8465.27655 5.87046e-18
8466.13801 5.90994e-18
8466.99947 5.94722e-18
8467.86093 5.98450e-18
8468.72240 6.02750e-18
8469.58386 6.07051e-18
8470.44532 6.12623e-18
8471.30678 6.18197e-18
8472.16824 6.24607e-18
8473.03972 6.31020e-18
8473.90118 6.37640e-18
8474.76265 6.44260e-18
8475.62411 6.50612e-18
8476.48557 6.56963e-18
8477.34703 6.62589e-18
8478.20849 6.68213e-18
8479.06996 6.73655e-18
8479.93142 6.79095e-18
8480.79288 6.85343e-18
8481.65434 6.91593e-18
8482.51580 6.98425e-18
8483.38728 7.05257e-18
8484.24875 7.11752e-18
8485.11021 7.18245e-18
8485.97167 7.23991e-18
8486.83313 7.29735e-18
8487.69459 7.34721e-18
8488.55605 7.39705e-18
8489.41752 7.44195e-18
8490.27898 7.48684e-18
8491.14044 7.53342e-18
8492.00190 7.58001e-18
8492.87338 7.63261e-18
8493.73484 7.68522e-18
8494.59631 7.74265e-18
8495.45777 7.80009e-18
8496.31923 7.86299e-18
8497.18069 7.92590e-18
8498.04215 8.00130e-18
8498.90362 8.07672e-18
8499.76508 8.16726e-18
8500.62654 8.25783e-18
8501.48800 8.35143e-18
8502.35948 8.44504e-18
8503.22094 8.52986e-18
8504.08240 8.61469e-18
8504.94387 8.68834e-18
8505.80533 8.76190e-18
8506.66679 8.82386e-18
8507.52825 8.88575e-18
8508.38972 8.94034e-18
8509.25118 8.99493e-18
8510.11264 9.04803e-18
8510.98412 9.10121e-18
8511.84558 9.15514e-18
8512.70704 9.20907e-18
8513.56850 9.26499e-18
8514.42997 9.32082e-18
8515.29143 9.37848e-18
8516.15289 9.43613e-18
8517.01435 9.49487e-18
8517.87581 9.55360e-18
8518.73728 9.61341e-18
8519.59874 9.67314e-18
8520.46020 9.73419e-18
8521.33168 9.79516e-18
8522.19314 9.86011e-18
8523.05460 9.92497e-18
8523.91607 9.99878e-18
8524.77753 1.00727e-17
8525.63899 1.01571e-17
8526.50045 1.02415e-17
8527.36191 1.03335e-17
8528.22337 1.04253e-17
8529.08484 1.05199e-17
8529.94630 1.06145e-17
8530.80776 1.07039e-17
8531.67924 1.07933e-17
8532.54070 1.08711e-17
8533.40216 1.09488e-17
8534.26363 1.10125e-17
8535.12509 1.10762e-17
8535.98655 1.11265e-17
8536.84801 1.11768e-17
8537.70947 1.12235e-17
8538.57094 1.12701e-17
8539.43240 1.13234e-17
8540.30388 1.13767e-17
8541.16534 1.14435e-17
8542.02680 1.15103e-17
8542.88826 1.15946e-17
8543.74972 1.16790e-17
8544.61119 1.17754e-17
8545.47265 1.18717e-17
8546.33411 1.19712e-17
8547.19557 1.20706e-17
8548.05703 1.21579e-17
8548.91850 1.22452e-17
8549.78998 1.23034e-17
8550.65144 1.23616e-17
8551.51290 1.23924e-17
8552.37436 1.24230e-17
8553.23582 1.24389e-17
8554.09729 1.24548e-17
8554.95875 1.24731e-17
8555.82021 1.24915e-17
8556.68167 1.25326e-17
8557.54313 1.25738e-17
8558.40460 1.26469e-17
8559.27607 1.27201e-17
8560.13754 1.28196e-17
8560.99900 1.29191e-17
8561.86046 1.30340e-17
8562.72192 1.31490e-17
8563.58338 1.32617e-17
8564.44485 1.33744e-17
8565.30631 1.34685e-17
8566.16777 1.35626e-17
8567.02923 1.36273e-17
8567.89070 1.36919e-17
8568.75216 1.37220e-17
8569.62364 1.37522e-17
8570.48510 1.37563e-17
8571.34656 1.37605e-17
8572.20802 1.37509e-17
8573.06948 1.37413e-17
8573.93095 1.37316e-17
8574.79241 1.37219e-17
8575.65387 1.37252e-17
8576.51533 1.37285e-17
8577.37679 1.37584e-17
8578.23826 1.37884e-17
8579.09972 1.38553e-17
8579.97120 1.39223e-17
8580.83266 1.40133e-17
8581.69412 1.41043e-17
8582.55558 1.41977e-17
8583.41705 1.42911e-17
8584.27851 1.43693e-17
8585.13997 1.44477e-17
8586.00143 1.44967e-17
8586.86289 1.45458e-17
8587.72436 1.45636e-17
8588.58582 1.45814e-17
8589.45730 1.45759e-17
8590.31876 1.45703e-17
8591.18022 1.45537e-17
8592.04168 1.45372e-17
8592.90314 1.45261e-17
8593.76461 1.45150e-17
8594.62607 1.45186e-17
8595.48753 1.45222e-17
8596.34899 1.45368e-17
8597.21045 1.45514e-17
8598.07192 1.45748e-17
8598.94340 1.45982e-17
8599.80486 1.46327e-17
8600.66632 1.46672e-17
8601.52778 1.47118e-17
8602.38924 1.47564e-17
8603.25071 1.48039e-17
8604.11217 1.48515e-17
8604.97363 1.48943e-17
8605.83509 1.49371e-17
8606.69655 1.49646e-17
8607.56803 1.49921e-17
8608.42949 1.49959e-17
8609.29096 1.49997e-17
8610.15242 1.49821e-17
8611.01388 1.49644e-17
8611.87534 1.49314e-17
8612.73680 1.48984e-17
8613.59827 1.48568e-17
8614.45973 1.48151e-17
8615.32119 1.47720e-17
8616.18265 1.47289e-17
8617.04411 1.46979e-17
8617.91559 1.46668e-17
8618.77706 1.46625e-17
8619.63852 1.46582e-17
8620.49998 1.46815e-17
8621.36144 1.47048e-17
8622.22290 1.47476e-17
8623.08437 1.47906e-17
8623.94583 1.48416e-17
8624.80729 1.48927e-17
8625.66875 1.49375e-17
8626.53021 1.49824e-17
8627.40169 1.50123e-17
8628.26315 1.50421e-17
8629.12462 1.50568e-17
8629.98608 1.50716e-17
8630.84754 1.50708e-17
8631.70900 1.50701e-17
8632.57046 1.50519e-17
8633.43193 1.50335e-17
8634.29339 1.50003e-17
8635.15485 1.49671e-17
8636.01631 1.49293e-17
8636.88779 1.48915e-17
8637.74925 1.48600e-17
8638.61072 1.48286e-17
8639.47218 1.48160e-17
8640.33364 1.48035e-17
8641.19510 1.48185e-17
8642.05656 1.48335e-17
8642.91803 1.48687e-17
8643.77949 1.49041e-17
8644.64095 1.49486e-17
8645.50241 1.49930e-17
8646.37389 1.50352e-17
8647.23535 1.50774e-17
8648.09681 1.51057e-17
8648.95828 1.51339e-17
8649.81974 1.51441e-17
8650.68120 1.51543e-17
8651.54266 1.51465e-17
8652.40412 1.51387e-17
8653.26559 1.51117e-17
8654.12705 1.50847e-17
8654.98851 1.50376e-17
8655.85999 1.49906e-17
8656.72145 1.49317e-17
8657.58291 1.48728e-17
8658.44438 1.48162e-17
8659.30584 1.47596e-17
8660.16730 1.47150e-17
8661.02876 1.46705e-17
8661.89022 1.46423e-17
8662.75168 1.46142e-17
8663.61315 1.46046e-17
8664.47461 1.45951e-17
8665.33607 1.46034e-17
8666.20755 1.46118e-17
8667.06901 1.46342e-17
8667.93047 1.46566e-17
8668.79194 1.46860e-17
8669.65340 1.47155e-17
8670.51486 1.47425e-17
8671.37632 1.47695e-17
8672.23778 1.47779e-17
8673.09925 1.47862e-17
8673.96071 1.47638e-17
8674.82217 1.47414e-17
8675.68363 1.46919e-17
8676.55511 1.46424e-17
8677.41657 1.45738e-17
8678.27803 1.45050e-17
8679.13950 1.44307e-17
8680.00096 1.43563e-17
8680.86242 1.42910e-17
8681.72388 1.42257e-17
8682.58535 1.41752e-17
8683.44681 1.41249e-17
8684.30827 1.40914e-17
8685.16973 1.40579e-17
8686.04121 1.40434e-17
8686.90267 1.40290e-17
8687.76413 1.40338e-17
8688.62560 1.40386e-17
8689.48706 1.40589e-17
8690.34852 1.40791e-17
8691.20998 1.41090e-17
8692.07144 1.41389e-17
8692.93291 1.41682e-17
8693.79437 1.41974e-17
8694.66585 1.42133e-17
8695.52731 1.42291e-17
8696.38877 1.42236e-17
8697.25023 1.42181e-17
8698.11170 1.41899e-17
8698.97316 1.41617e-17
8699.83462 1.41139e-17
8700.69608 1.40661e-17
8701.55754 1.40090e-17
8702.41900 1.39519e-17
8703.28047 1.38943e-17
8704.15195 1.38367e-17
8705.01341 1.37788e-17
8705.87487 1.37209e-17
8706.73633 1.36652e-17
8707.59779 1.36095e-17
8708.45926 1.35676e-17
8709.32072 1.35258e-17
8710.18218 1.35068e-17
8711.04364 1.34878e-17
8711.90510 1.34921e-17
8712.76657 1.34966e-17
8713.62803 1.35210e-17
8714.49951 1.35453e-17
8715.36097 1.35719e-17
8716.22243 1.35985e-17
8717.08389 1.36071e-17
8717.94535 1.36157e-17
8718.80682 1.35982e-17
8719.66828 1.35805e-17
8720.52974 1.35336e-17
8721.39120 1.34868e-17
8722.25267 1.34221e-17
8723.11413 1.33575e-17
8723.98561 1.32952e-17
8724.84707 1.32329e-17
8725.70853 1.31803e-17
8726.56999 1.31276e-17
8727.43145 1.30825e-17
8728.29292 1.30375e-17
8729.15438 1.30002e-17
8730.01584 1.29630e-17
8730.87730 1.29345e-17
8731.73876 1.29059e-17
8732.61024 1.28888e-17
8733.47170 1.28717e-17
8734.33317 1.28739e-17
8735.19463 1.28762e-17
8736.05609 1.28954e-17
8736.91755 1.29147e-17
8737.77902 1.29282e-17
8738.64048 1.29417e-17
8739.50194 1.29302e-17
8740.36340 1.29188e-17
8741.22486 1.28719e-17
8742.08633 1.28250e-17
8742.95780 1.27399e-17
8743.81927 1.26547e-17
8744.68073 1.25560e-17
8745.54219 1.24571e-17
8746.40365 1.23714e-17
8747.26511 1.22857e-17
8748.12658 1.22254e-17
8748.98804 1.21652e-17
8749.84950 1.21379e-17
8750.71096 1.21106e-17
8751.57242 1.21086e-17
8752.44390 1.21066e-17
8753.30537 1.21150e-17
8754.16683 1.21235e-17
8755.02829 1.21345e-17
8755.88975 1.21454e-17
8756.75121 1.21535e-17
8757.61268 1.21617e-17
8758.47414 1.21551e-17
8759.33560 1.21485e-17
8760.19706 1.21129e-17
8761.05852 1.20772e-17
8761.91999 1.20101e-17
8762.79146 1.19430e-17
8763.65293 1.18523e-17
8764.51439 1.17615e-17
8765.37585 1.16597e-17
8766.23731 1.15580e-17
8767.09877 1.14632e-17
8767.96024 1.13686e-17
8768.82170 1.12926e-17
8769.68316 1.12167e-17
8770.54462 1.11580e-17
8771.40608 1.10993e-17
8772.26755 1.10553e-17
8773.13903 1.10114e-17
8774.00049 1.09802e-17
8774.86195 1.09489e-17
8775.72341 1.09262e-17
8776.58487 1.09034e-17
8777.44633 1.08855e-17
8778.30780 1.08677e-17
8779.16926 1.08495e-17
8780.03072 1.08312e-17
8780.89218 1.07969e-17
8781.76366 1.07624e-17
8782.62512 1.06976e-17
8783.48659 1.06327e-17
8784.34805 1.05443e-17
8785.20951 1.04559e-17
8786.07097 1.03566e-17
8786.93243 1.02572e-17
8787.79390 1.01565e-17
8788.65536 1.00558e-17
8789.51682 9.96291e-18
8790.37828 9.87005e-18
8791.24976 9.78481e-18
8792.11122 9.69956e-18
8792.97268 9.61532e-18
8793.83415 9.53099e-18
8794.69561 9.45196e-18
8795.55707 9.37301e-18
8796.41853 9.31138e-18
8797.28000 9.24991e-18
8798.14146 9.20327e-18
8799.00292 9.15671e-18
8799.86438 9.10883e-18
8800.72584 9.06095e-18
8801.59732 8.99857e-18
8802.45878 8.93619e-18
8803.32025 8.85037e-18
8804.18171 8.76455e-18
8805.04317 8.65412e-18
8805.90463 8.54370e-18
8806.76609 8.42458e-18
8807.62756 8.30537e-18
8808.48902 8.19202e-18
8809.35048 8.07873e-18
8810.21194 7.97818e-18
8811.08342 7.87767e-18
8811.94488 7.79460e-18
8812.80635 7.71158e-18
8813.66781 7.64415e-18
8814.52927 7.57677e-18
8815.39073 7.52056e-18
8816.25219 7.46438e-18
8817.11365 7.41389e-18
8817.97512 7.36341e-18
8818.83658 7.31247e-18
8819.70806 7.26154e-18
8820.56952 7.20271e-18
8821.43098 7.14385e-18
8822.29244 7.07063e-18
8823.15391 6.99738e-18
8824.01537 6.90896e-18
8824.87683 6.82051e-18
8825.73829 6.71924e-18
8826.59975 6.61794e-18
8827.46122 6.51313e-18
8828.32268 6.40833e-18
8829.19416 6.31343e-18
8830.05562 6.21857e-18
8830.91708 6.14044e-18
8831.77854 6.06235e-18
8832.64000 6.00147e-18
8833.50147 5.94063e-18
8834.36293 5.89481e-18
8835.22439 5.84903e-18
8836.08585 5.81292e-18
8836.94732 5.77684e-18
8837.80878 5.74415e-18
8838.67024 5.71147e-18
8839.54172 5.67575e-18
8840.40318 5.64004e-18
8841.26464 5.59656e-18
8842.12610 5.55306e-18
8842.98757 5.50118e-18
8843.84903 5.44927e-18
8844.71049 5.38998e-18
8845.57195 5.33068e-18
8846.43341 5.26745e-18
8847.29488 5.20422e-18
8848.15634 5.14151e-18
8849.02782 5.07880e-18
8849.88928 5.01898e-18
8850.75074 4.95918e-18
8851.61220 4.90451e-18
8852.47367 4.84987e-18
8853.33513 4.81198e-18
8854.19659 4.77412e-18
8855.05805 4.76456e-18
8855.91951 4.75506e-18
8856.78097 4.76465e-18
8857.64244 4.77428e-18
8858.50390 4.78682e-18
8859.36536 4.79937e-18
8860.23684 4.80150e-18
8861.09830 4.80361e-18
8861.95976 4.78327e-18
8862.82123 4.76287e-18
8863.68269 4.72459e-18
8864.54415 4.68627e-18
8865.40561 4.64767e-18
8866.26707 4.60907e-18
8867.12854 4.57832e-18
8867.99000 4.54759e-18
8868.86148 4.52263e-18
8869.72294 4.49768e-18
8870.58440 4.47761e-18
8871.44586 4.45754e-18
8872.30732 4.44158e-18
8873.16879 4.42563e-18
8874.03025 4.41466e-18
8874.89171 4.40369e-18
8875.75317 4.40447e-18
8876.61463 4.40528e-18
8877.47610 4.42055e-18
8878.34758 4.43586e-18
8879.20904 4.45717e-18
8880.07050 4.47850e-18
8880.93196 4.49701e-18
8881.79342 4.51551e-18
8882.65489 4.52297e-18
8883.51635 4.53040e-18
8884.37781 4.52083e-18
8885.23927 4.51121e-18
8886.10073 4.49012e-18
8886.96220 4.46902e-18
8887.83367 4.44511e-18
8888.69514 4.42119e-18
8889.55660 4.40247e-18
8890.41806 4.38376e-18
8891.27952 4.37749e-18
8892.14099 4.37126e-18
8893.00245 4.38155e-18
8893.86391 4.39188e-18
8894.72537 4.42037e-18
8895.58683 4.44889e-18
8896.44830 4.48885e-18
8897.30976 4.52884e-18
8898.18124 4.56886e-18
8899.04270 4.60886e-18
8899.90416 4.63914e-18
8900.76562 4.66938e-18
8901.62708 4.68177e-18
8902.48855 4.69412e-18
8903.35001 4.68988e-18
8904.21147 4.68561e-18
8905.07293 4.67830e-18
8905.93439 4.67097e-18
8906.80587 4.66947e-18
8907.66734 4.66798e-18
8908.52880 4.67140e-18
8909.39026 4.67484e-18
8910.25172 4.68321e-18
8911.11318 4.69158e-18
8911.97465 4.70655e-18
8912.83611 4.72153e-18
8913.69757 4.74377e-18
8914.55903 4.76604e-18
8915.42049 4.79715e-18
8916.29197 4.82827e-18
8917.15343 4.86786e-18
8918.01490 4.90746e-18
8918.87636 4.94535e-18
8919.73782 4.98324e-18
8920.59928 5.00923e-18
8921.46074 5.03519e-18
8922.32221 5.04640e-18
8923.18367 5.05758e-18
8924.04513 5.05370e-18
8924.90659 5.04978e-18
8925.76805 5.04282e-18
8926.63953 5.03586e-18
8927.50100 5.04220e-18
8928.36246 5.04858e-18
8929.22392 5.06886e-18
8930.08538 5.08917e-18
8930.94684 5.11597e-18
8931.80831 5.14279e-18
8932.66977 5.17075e-18
8933.53123 5.19870e-18
8934.39269 5.22261e-18
8935.25415 5.24651e-18
8936.12563 5.26884e-18
8936.98709 5.29115e-18
8937.84856 5.32359e-18
8938.71002 5.35607e-18
8939.57148 5.39916e-18
8940.43294 5.44228e-18
8941.29440 5.48014e-18
8942.15587 5.51799e-18
8943.01733 5.53895e-18
8943.87879 5.55987e-18
8944.74025 5.55872e-18
8945.61173 5.55750e-18
8946.47319 5.53611e-18
8947.33466 5.51466e-18
8948.19612 5.49756e-18
8949.05758 5.48046e-18
8949.91904 5.48753e-18
8950.78050 5.49468e-18
8951.64197 5.51975e-18
8952.50343 5.54487e-18
8953.36489 5.57793e-18
8954.22635 5.61102e-18
8955.08781 5.62599e-18
8955.95929 5.64092e-18
8956.82075 5.61218e-18
8957.68222 5.58332e-18
8958.54368 5.54275e-18
8959.40514 5.50215e-18
8960.26660 5.49674e-18
8961.12806 5.49143e-18
8961.98953 5.52789e-18
8962.85099 5.56448e-18
8963.71245 5.63392e-18
8964.57391 5.70346e-18
8965.44539 5.78337e-18
8966.30685 5.86331e-18
8967.16832 5.91964e-18
8968.02978 5.97591e-18
8968.89124 6.01238e-18
8969.75270 6.04880e-18
8970.61416 6.10265e-18
8971.47563 6.15654e-18
8972.33709 6.24067e-18
8973.19855 6.32487e-18
8974.06001 6.42333e-18
8974.93149 6.52181e-18
8975.79295 6.61150e-18
8976.65441 6.70116e-18
8977.51588 6.74676e-18
8978.37734 6.79225e-18
8979.23880 6.76627e-18
8980.10026 6.74009e-18
8980.96172 6.62482e-18
8981.82319 6.50932e-18
8982.68465 6.31612e-18
8983.54611 6.12273e-18
8984.41759 5.95552e-18
8985.27905 5.78839e-18
8986.14051 5.74304e-18
8987.00198 5.69801e-18
8987.86344 5.80737e-18
8988.72490 5.91715e-18
8989.58636 6.18618e-18
8990.44782 6.45564e-18
8991.30928 6.75594e-18
8992.17075 7.05632e-18
8993.03221 7.23332e-18
8993.89367 7.40998e-18
8994.76515 7.44051e-18
8995.62661 7.47065e-18
8996.48807 7.38295e-18
8997.34954 7.29494e-18
8998.21100 7.15817e-18
8999.07246 7.02127e-18
8999.93392 6.92974e-18
9000.79538 6.83834e-18
9001.65685 6.83319e-18
9002.51831 6.82829e-18
9003.38979 6.90699e-18
9004.25125 6.98590e-18
9005.11271 7.12101e-18
9005.97417 7.25625e-18
9006.83563 7.39396e-18
9007.69710 7.53168e-18
9008.55856 7.63007e-18
9009.42002 7.72835e-18
9010.28148 7.76796e-18
9011.14295 7.80741e-18
9012.00441 7.78913e-18
9012.87589 7.77068e-18
9013.73735 7.74070e-18
9014.59881 7.71069e-18
9015.46027 7.70331e-18
9016.32173 7.69599e-18
9017.18320 7.69027e-18
9018.04466 7.68455e-18
9018.90612 7.66489e-18
9019.76758 7.64520e-18
9020.62904 7.62963e-18
9021.49051 7.61407e-18
9022.35197 7.62130e-18
9023.22345 7.62859e-18
9024.08491 7.68216e-18
9024.94637 7.73586e-18
9025.80783 7.85458e-18
9026.66930 7.97348e-18
9027.53076 8.12880e-18
9028.39222 8.28424e-18
9029.25368 8.43302e-18
9030.11514 8.58172e-18
9030.97660 8.69397e-18
9031.83807 8.80605e-18
9032.70955 8.85948e-18
9033.57101 8.91275e-18
9034.43247 8.90538e-18
9035.29393 8.89784e-18
9036.15539 8.84101e-18
9037.01686 8.78402e-18
9037.87832 8.70689e-18
9038.73978 8.62969e-18
9039.60124 8.57708e-18
9040.46270 8.52465e-18
9041.32417 8.50857e-18
9042.18563 8.49259e-18
9043.05711 8.48024e-18
9043.91857 8.46782e-18
9044.78003 8.44189e-18
9045.64149 8.41588e-18
9046.50295 8.38672e-18
9047.36442 8.35756e-18
9048.22588 8.33420e-18
9049.08734 8.31084e-18
9049.94880 8.30769e-18
9050.81027 8.30446e-18
9051.67173 8.32533e-18
9052.54321 8.34629e-18
9053.40467 8.34853e-18
9054.26613 8.35060e-18
9055.12759 8.29675e-18
9055.98905 8.24278e-18
9056.85052 8.15283e-18
9057.71198 8.06277e-18
9058.57344 7.96380e-18
9059.43490 7.86482e-18
9060.29636 7.76020e-18
9061.16784 7.65556e-18
9062.02931 7.54664e-18
9062.89077 7.43769e-18
9063.75223 7.32049e-18
9064.61369 7.20327e-18
9065.47515 7.06906e-18
9066.33662 6.93480e-18
9067.19808 6.81776e-18
9068.05954 6.70078e-18
9068.92100 6.65766e-18
9069.78246 6.61474e-18
9070.64393 6.63299e-18
9071.51540 6.65141e-18
9072.37687 6.66750e-18
9073.23833 6.68359e-18
9074.09979 6.67408e-18
9074.96125 6.66450e-18
9075.82271 6.64712e-18
9076.68418 6.62971e-18
9077.54564 6.61557e-18
9078.40710 6.60144e-18
9079.26856 6.59694e-18
9080.13002 6.59247e-18
9080.99149 6.59737e-18
9081.86297 6.60228e-18
9082.72443 6.59454e-18
9083.58589 6.58676e-18
9084.44735 6.55408e-18
9085.30881 6.52134e-18
9086.17028 6.48800e-18
9087.03174 6.45465e-18
9087.89320 6.43932e-18
9088.75466 6.42404e-18
9089.61612 6.40288e-18
9090.48760 6.38170e-18
9091.34906 6.33184e-18
9092.21053 6.28218e-18
9093.07199 6.22722e-18
9093.93345 6.17225e-18
9094.79491 6.14104e-18
9095.65637 6.10991e-18
9096.51784 6.09429e-18
9097.37930 6.07871e-18
9098.24076 6.06146e-18
9099.10222 6.04419e-18
9099.97370 6.02975e-18
9100.83516 6.01532e-18
9101.69663 6.01291e-18
9102.55809 6.01054e-18
9103.41955 6.03783e-18
9104.28101 6.06520e-18
9105.14247 6.14745e-18
9106.00393 6.22986e-18
9106.86540 6.33711e-18
9107.72686 6.44442e-18
9108.58832 6.49978e-18
9109.45980 6.55499e-18
9110.32126 6.52570e-18
9111.18272 6.49618e-18
9112.04419 6.40131e-18
9112.90565 6.30626e-18
9113.76711 6.18501e-18
9114.62857 6.06369e-18
9115.49003 5.99653e-18
9116.35150 5.92951e-18
9117.21296 5.95835e-18
9118.07442 5.98745e-18
9118.93588 6.05022e-18
9119.80736 6.11308e-18
9120.66882 6.14918e-18
9121.53028 6.18520e-18
9122.39175 6.15580e-18
9123.25321 6.12621e-18
9124.11467 6.00801e-18
9124.97613 5.88956e-18
9125.83760 5.73722e-18
9126.69906 5.58480e-18
9127.56052 5.46487e-18
9128.43200 5.34503e-18
9129.29346 5.29189e-18
9130.15492 5.23894e-18
9131.01638 5.27473e-18
9131.87785 5.31078e-18
9132.73931 5.42058e-18
9133.60077 5.53059e-18
9134.46223 5.68065e-18
9135.32369 5.83081e-18
9136.18516 5.98597e-18
9137.04662 6.14114e-18
9137.90808 6.26514e-18
9138.76954 6.38906e-18
9139.64102 6.45857e-18
9140.50248 6.52792e-18
9141.36395 6.53505e-18
9142.22541 6.54202e-18
9143.08687 6.47496e-18
9143.94833 6.40770e-18
9144.80979 6.24945e-18
9145.67125 6.09097e-18
9146.53272 5.86204e-18
9147.39418 5.63292e-18
9148.26566 5.40246e-18
9149.12712 5.17200e-18
9149.98858 5.00275e-18
9150.85004 4.83366e-18
9151.71151 4.77638e-18
9152.57297 4.71941e-18
9153.43443 4.79390e-18
9154.29589 4.86874e-18
9155.15735 5.00990e-18
9156.01882 5.15124e-18
9156.88028 5.29028e-18
9157.75176 5.42931e-18
9158.61322 5.53407e-18
9159.47468 5.63873e-18
9160.33614 5.68436e-18
9161.19760 5.72982e-18
9162.05907 5.71799e-18
9162.92053 5.70598e-18
9163.78199 5.65017e-18
9164.64345 5.59425e-18
9165.50492 5.49260e-18
9166.36638 5.39083e-18
9167.22784 5.24094e-18
9168.09932 5.09092e-18
9168.96078 4.92998e-18
9169.82224 4.76901e-18
9170.68370 4.64736e-18
9171.54517 4.52583e-18
9172.40663 4.46863e-18
9173.26809 4.41160e-18
9174.12955 4.42980e-18
9174.99101 4.44821e-18
9175.85248 4.51087e-18
9176.71394 4.57364e-18
9177.58542 4.61044e-18
9178.44688 4.64716e-18
9179.30834 4.63764e-18
9180.16980 4.62799e-18
9181.03127 4.61829e-18
9181.89273 4.60859e-18
9182.75419 4.62412e-18
9183.61565 4.63972e-18
9184.47711 4.67141e-18
9185.33857 4.70315e-18
9186.20004 4.74008e-18
9187.07152 4.77702e-18
9187.93298 4.79270e-18
9188.79444 4.80832e-18
9189.65590 4.78805e-18
9190.51736 4.76767e-18
9191.37883 4.75239e-18
9192.24029 4.73711e-18
9193.10175 4.76326e-18
9193.96321 4.78951e-18
9194.82467 4.84088e-18
9195.68614 4.89230e-18
9196.55762 4.94578e-18
9197.41908 4.99925e-18
9198.28054 5.03393e-18
9199.14200 5.06855e-18
9200.00346 5.06435e-18
9200.86492 5.06006e-18
9201.72639 5.03178e-18
9202.58785 5.00343e-18
9203.44931 4.98019e-18
9204.31077 4.95696e-18
9205.17224 4.93959e-18
9206.04371 4.92223e-18
9206.90518 4.89795e-18
9207.76664 4.87364e-18
9208.62810 4.84651e-18
9209.48956 4.81937e-18
9210.35102 4.80307e-18
9211.21249 4.78679e-18
9212.07395 4.79504e-18
9212.93541 4.80337e-18
9213.79687 4.85191e-18
9214.65833 4.90056e-18
9215.52981 4.98625e-18
9216.39127 5.07205e-18
9217.25274 5.16233e-18
9218.11420 5.25262e-18
9218.97566 5.32634e-18
9219.83712 5.40001e-18
9220.69859 5.46392e-18
9221.56005 5.52781e-18
9222.42151 5.58571e-18
9223.28297 5.64359e-18
9224.14443 5.68903e-18
9225.00590 5.73443e-18
9225.87737 5.76289e-18
9226.73884 5.79132e-18
9227.60030 5.79808e-18
9228.46176 5.80479e-18
9229.32322 5.78804e-18
9230.18468 5.77124e-18
9231.04615 5.75007e-18
9231.90761 5.72889e-18
9232.76907 5.72534e-18
9233.63053 5.72184e-18
9234.49199 5.73108e-18
9235.35346 5.74034e-18
9236.22494 5.74994e-18
9237.08640 5.75954e-18
9237.94786 5.77516e-18
9238.80932 5.79080e-18
9239.67078 5.82411e-18
9240.53225 5.85746e-18
9241.39371 5.91404e-18
9242.25517 5.97069e-18
9243.11663 6.05282e-18
9243.97809 6.13502e-18
9244.84957 6.23555e-18
9245.71103 6.33611e-18
9246.57250 6.43872e-18
9247.43396 6.54132e-18
9248.29542 6.63668e-18
9249.15688 6.73201e-18
9250.01834 6.82204e-18
9250.87981 6.91207e-18
9251.74127 6.99223e-18
9252.60273 7.07236e-18
9253.46419 7.12344e-18
9254.32565 7.17444e-18
9255.19713 7.19329e-18
9256.05860 7.21205e-18
9256.92006 7.23602e-18
9257.78152 7.26001e-18
9258.64298 7.31721e-18
9259.50444 7.37450e-18
9260.36591 7.45642e-18
9261.22737 7.53842e-18
9262.08883 7.62997e-18
9262.95029 7.72155e-18
9263.81175 7.78967e-18
9264.68323 7.85773e-18
9265.54469 7.87079e-18
9266.40616 7.88370e-18
9267.26762 7.84260e-18
9268.12908 7.80135e-18
9268.99054 7.71909e-18
9269.85200 7.63673e-18
9270.71347 7.54396e-18
9271.57493 7.45116e-18
9272.43639 7.38437e-18
9273.29785 7.31765e-18
9274.16933 7.30565e-18
9275.03079 7.29379e-18
9275.89226 7.35766e-18
9276.75372 7.42175e-18
9277.61518 7.55075e-18
9278.47664 7.67993e-18
9279.33810 7.83853e-18
9280.19957 7.99721e-18
9281.06103 8.14708e-18
9281.92249 8.29692e-18
9282.79397 8.40105e-18
9283.65543 8.50510e-18
9284.51689 8.53409e-18
9285.37835 8.56284e-18
9286.23982 8.49921e-18
9287.10128 8.43534e-18
9287.96274 8.28681e-18
9288.82420 8.13796e-18
9289.68566 7.95158e-18
9290.54713 7.76509e-18
9291.40859 7.59565e-18
9292.27005 7.42625e-18
9293.14153 7.34583e-18
9294.00299 7.26566e-18
9294.86445 7.32135e-18
9295.72592 7.37743e-18
9296.58738 7.52073e-18
9297.44884 7.66429e-18
9298.31030 7.83084e-18
9299.17176 7.99745e-18
9300.03323 8.09953e-18
9300.89469 8.20141e-18
9301.75615 8.15486e-18
9302.62763 8.10789e-18
9303.48909 7.99352e-18
9304.35055 7.87897e-18
9305.21201 7.82895e-18
9306.07348 7.77911e-18
9306.93494 7.76264e-18
9307.79640 7.74626e-18
9308.65786 7.66745e-18
9309.51932 7.58846e-18
9310.38079 7.45176e-18
9311.24225 7.31491e-18
9312.11373 7.17690e-18
9312.97519 7.03889e-18
9313.83665 6.95506e-18
9314.69811 6.87138e-18
9315.55958 6.90479e-18
9316.42104 6.93853e-18
9317.28250 7.07692e-18
9318.14396 7.21560e-18
9319.00542 7.33766e-18
9319.86688 7.45966e-18
9320.72835 7.51777e-18
9321.58981 7.57571e-18
9322.46129 7.68167e-18
9323.32275 7.78777e-18
9324.18421 7.96604e-18
9325.04567 8.14451e-18
9325.90714 8.16650e-18
9326.76860 8.18803e-18
9327.63006 7.91280e-18
9328.49152 7.63672e-18
9329.35298 7.28553e-18
9330.21445 6.93412e-18
9331.07591 6.72120e-18
9331.94739 6.50868e-18
9332.80885 6.39271e-18
9333.67031 6.27703e-18
9334.53177 6.19615e-18
9335.39323 6.11536e-18
9336.25470 6.07095e-18
9337.11616 6.02665e-18
9337.97762 6.00810e-18
9338.83908 5.98964e-18
9339.70055 6.18559e-18
9340.56201 6.38216e-18
9341.43349 7.04811e-18
9342.29495 7.71538e-18
9343.15641 8.52407e-18
9344.01787 9.33308e-18
9344.87933 9.68242e-18
9345.74080 1.00303e-17
9346.60226 9.74074e-18
9347.46372 9.44922e-18
9348.32518 8.62314e-18
9349.18664 7.79558e-18
9350.04811 6.81295e-18
9350.90957 5.82990e-18
9351.78105 5.39132e-18
9352.64251 4.95431e-18
9353.50397 5.28965e-18
9354.36543 5.62719e-18
9355.22689 6.22963e-18
9356.08836 6.83281e-18
9356.94982 7.27620e-18
9357.81128 7.71912e-18
9358.67274 7.74928e-18
9359.53420 7.77827e-18
9360.39567 7.28530e-18
9361.26715 6.79086e-18
9362.12861 6.17405e-18
9362.99007 5.55690e-18
9363.85153 5.19310e-18
9364.71299 4.83004e-18
9365.57446 4.74096e-18
9366.43592 4.65266e-18
9367.29738 4.80198e-18
9368.15884 4.95197e-18
9369.02030 5.15248e-18
9369.89178 5.35312e-18
9370.75324 5.39039e-18
9371.61471 5.42719e-18
9372.47617 5.31437e-18
9373.33763 5.20112e-18
9374.19909 5.01834e-18
9375.06056 4.83535e-18
9375.92202 4.70510e-18
9376.78348 4.57500e-18
9377.64494 4.64694e-18
9378.50640 4.71945e-18
9379.37788 4.93682e-18
9380.23934 5.15461e-18
9381.10081 5.32474e-18
9381.96227 5.49472e-18
9382.82373 5.55621e-18
9383.68519 5.61739e-18
9384.54665 5.62564e-18
9385.40812 5.63375e-18
9386.26958 5.60411e-18
9387.13104 5.57435e-18
9387.99250 5.48086e-18
9388.85396 5.38717e-18
9389.72544 5.22836e-18
9390.58691 5.06936e-18
9391.44837 4.86919e-18
9392.30983 4.66891e-18
9393.17129 4.46022e-18
9394.03275 4.25151e-18
9394.89422 4.09258e-18
9395.75568 3.93380e-18
9396.61714 3.86409e-18
9397.47860 3.79463e-18
9398.34006 3.78487e-18
9399.21154 3.77530e-18
9400.07300 3.78877e-18
9400.93447 3.80230e-18
9401.79593 3.80367e-18
9402.65739 3.80500e-18
9403.51885 3.76334e-18
9404.38031 3.72157e-18
9405.24178 3.67163e-18
9406.10324 3.62168e-18
9406.96470 3.61225e-18
9407.82616 3.60293e-18
9408.69764 3.63454e-18
9409.55910 3.66626e-18
9410.42057 3.72194e-18
9411.28203 3.77768e-18
9412.14349 3.83109e-18
9413.00495 3.88449e-18
9413.86641 3.90438e-18
9414.72788 3.92416e-18
9415.58934 3.88971e-18
9416.45080 3.85509e-18
9417.31226 3.75986e-18
9418.17372 3.66444e-18
9419.04520 3.51509e-18
9419.90666 3.36558e-18
9420.76813 3.17208e-18
9421.62959 2.97846e-18
9422.49105 2.81007e-18
9423.35251 2.64176e-18
9424.21397 2.66375e-18
9425.07544 2.68630e-18
9425.93690 2.95175e-18
9426.79836 3.21789e-18
9427.65982 3.55350e-18
9428.53130 3.88930e-18
9429.39276 4.12803e-18
9430.25423 4.36647e-18
9431.11569 4.35365e-18
9431.97715 4.34012e-18
9432.83861 3.99743e-18
9433.70007 3.65379e-18
9434.56153 3.25294e-18
9435.42300 2.85195e-18
9436.28446 2.67718e-18
9437.14592 2.50308e-18
9438.01740 2.59918e-18
9438.87886 2.69606e-18
9439.74032 3.04461e-18
9440.60179 3.39388e-18
9441.46325 3.81786e-18
9442.32471 4.24205e-18
9443.18617 4.51363e-18
9444.04763 4.78475e-18
9444.90910 4.83875e-18
9445.77056 4.89211e-18
9446.63202 4.74274e-18
9447.49348 4.59280e-18
9448.36496 4.32071e-18
9449.22642 4.04828e-18
9450.08788 3.78319e-18
9450.94935 3.51813e-18
9451.81081 3.34456e-18
9452.67227 3.17127e-18
9453.53373 3.12217e-18
9454.39520 3.07344e-18
9455.25666 3.15703e-18
9456.11812 3.24101e-18
9456.98960 3.43702e-18
9457.85106 3.63334e-18
9458.71252 3.88308e-18
9459.57398 4.13296e-18
9460.43545 4.31800e-18
9461.29691 4.50284e-18
9462.15837 4.55182e-18
9463.01983 4.60042e-18
9463.88129 4.56910e-18
9464.74276 4.53755e-18
9465.60422 4.48421e-18
9466.47570 4.43081e-18
9467.33716 4.39126e-18
9468.19862 4.35174e-18
9469.06008 4.35473e-18
9469.92155 4.35785e-18
9470.78301 4.35928e-18
9471.64447 4.36070e-18
9472.50593 4.31359e-18
9473.36739 4.26635e-18
9474.22885 4.20011e-18
9475.09032 4.13382e-18
9475.96180 4.08847e-18
9476.82326 4.04317e-18
9477.68472 4.10165e-18
9478.54618 4.16042e-18
9479.40764 4.41625e-18
9480.26911 4.67264e-18
9481.13057 5.02425e-18
9481.99203 5.37614e-18
9482.85349 5.62708e-18
9483.71495 5.87771e-18
9484.57642 5.92442e-18
9485.43788 5.97053e-18
9486.30936 5.77676e-18
9487.17082 5.58229e-18
9488.03228 5.22693e-18
9488.89374 4.87111e-18
9489.75520 4.56199e-18
9490.61667 4.25300e-18
9491.47813 4.12299e-18
9492.33959 3.99350e-18
9493.20105 4.04015e-18
9494.06252 4.08733e-18
9494.92398 4.31001e-18
9495.79546 4.53318e-18
9496.65692 4.96023e-18
9497.51838 5.38787e-18
9498.37984 5.97428e-18
9499.24130 6.56114e-18
9500.10277 7.07744e-18
9500.96423 7.59352e-18
9501.82569 7.84124e-18
9502.68715 8.08817e-18
9503.54861 8.03592e-18
9504.41008 7.98280e-18
9505.28155 7.65085e-18
9506.14302 7.31809e-18
9507.00448 6.87886e-18
9507.86594 6.43934e-18
9508.72740 6.09792e-18
9509.58887 5.75681e-18
9510.45033 5.53330e-18
9511.31179 5.31015e-18
9512.17325 5.16403e-18
9513.03471 5.01813e-18
9513.89617 4.98929e-18
9514.75764 4.96080e-18
9515.62912 5.10635e-18
9516.49058 5.25242e-18
9517.35204 5.55571e-18
9518.21350 5.85946e-18
9519.07496 6.26449e-18
9519.93643 6.66982e-18
9520.79789 7.07799e-18
9521.65935 7.48616e-18
9522.52081 7.76167e-18
9523.38227 8.03679e-18
9524.24374 8.13390e-18
9525.11522 8.23048e-18
9525.97668 8.22054e-18
9526.83814 8.21029e-18
9527.69960 8.15911e-18
9528.56106 8.10780e-18
9529.42252 8.06735e-18
9530.28399 8.02694e-18
9531.14545 8.02638e-18
9532.00691 8.02594e-18
9532.86837 8.01910e-18
9533.72984 8.01224e-18
9534.60131 7.96013e-18
9535.46278 7.90789e-18
9536.32424 7.79870e-18
9537.18570 7.68935e-18
9538.04716 7.52937e-18
9538.90862 7.36923e-18
9539.77009 7.30444e-18
9540.63155 7.23993e-18
9541.49301 7.40815e-18
9542.35447 7.57706e-18
9543.21593 7.87956e-18
9544.08741 8.18245e-18
9544.94888 8.47229e-18
9545.81034 8.76207e-18
9546.67180 8.89585e-18
9547.53326 9.02914e-18
9548.39472 8.85982e-18
9549.25619 8.68966e-18
9550.11765 8.38779e-18
9550.97911 8.08555e-18
9551.84057 7.99449e-18
9552.70203 7.90404e-18
9553.57351 8.04711e-18
9554.43497 8.19085e-18
9555.29644 8.36510e-18
9556.15790 8.53939e-18
9557.01936 8.60807e-18
9557.88082 8.67641e-18
9558.74228 8.54842e-18
9559.60375 8.41994e-18
9560.46521 8.15179e-18
9561.32667 7.88329e-18
9562.18813 7.78498e-18
9563.05961 7.68719e-18
9563.92107 7.91863e-18
9564.78254 8.15104e-18
9565.64400 8.54759e-18
9566.50546 8.94464e-18
9567.36692 9.32919e-18
9568.22838 9.71365e-18
9569.08985 9.87477e-18
9569.95131 1.00353e-17
9570.81277 9.82755e-18
9571.67423 9.61871e-18
9572.53569 9.22514e-18
9573.40717 8.83107e-18
9574.26863 8.46923e-18
9575.13010 8.10755e-18
9575.99156 7.92288e-18
9576.85302 7.73875e-18
9577.71448 7.84611e-18
9578.57594 7.95433e-18
9579.43741 8.17321e-18
9580.29887 8.39235e-18
9581.16033 8.45904e-18
9582.02179 8.52531e-18
9582.89327 8.40494e-18
9583.75473 8.28408e-18
9584.61620 8.02840e-18
9585.47766 7.77229e-18
9586.33912 7.56567e-18
9587.20058 7.35920e-18
9588.06204 7.48238e-18
9588.92351 7.60654e-18
9589.78497 8.02439e-18
9590.64643 8.44313e-18
9591.51791 8.83356e-18
9592.37937 9.22398e-18
9593.24083 9.41335e-18
9594.10229 9.60223e-18
9594.96376 9.60720e-18
9595.82522 9.61167e-18
9596.68668 9.46720e-18
9597.54814 9.32231e-18
9598.40960 9.10983e-18
9599.27107 8.89726e-18
9600.13253 8.70673e-18
9600.99399 8.51620e-18
9601.86547 8.41869e-18
9602.72693 8.32144e-18
9603.58839 8.36336e-18
9604.44986 8.40577e-18
9605.31132 8.57940e-18
9606.17278 8.75345e-18
9607.03424 9.01970e-18
9607.89570 9.28611e-18
9608.75717 9.47565e-18
9609.61863 9.66494e-18
9610.48009 9.61457e-18
9611.35157 9.56346e-18
9612.21303 9.34236e-18
9613.07449 9.12085e-18
9613.93595 8.85957e-18
9614.79742 8.59812e-18
9615.65888 8.38738e-18
9616.52034 8.17674e-18
9617.38180 8.09216e-18
9618.24326 8.00797e-18
9619.10473 8.06902e-18
9619.96619 8.13049e-18
9620.82765 8.31614e-18
9621.69913 8.50220e-18
9622.56059 8.74550e-18
9623.42205 8.98896e-18
9624.28352 9.19673e-18
9625.14498 9.40441e-18
9626.00644 9.48783e-18
9626.86790 9.57083e-18
9627.72936 9.44665e-18
9628.59083 9.32190e-18
9629.45229 9.01456e-18
9630.31375 8.70673e-18
9631.17521 8.39815e-18
9632.04669 8.08952e-18
9632.90815 7.92084e-18
9633.76961 7.75258e-18
9634.63108 7.77875e-18
9635.49254 7.80552e-18
9636.35400 8.02076e-18
9637.21546 8.23655e-18
9638.07692 8.43667e-18
9638.93839 8.63673e-18
9639.79985 8.65296e-18
9640.67133 8.66862e-18
9641.53279 8.60633e-18
9642.39425 8.54378e-18
9643.25571 8.52605e-18
9644.11718 8.50849e-18
9644.97864 8.56507e-18
9645.84010 8.62198e-18
9646.70156 8.76496e-18
9647.56302 8.90819e-18
9648.42448 9.04206e-18
9649.28595 9.17585e-18
9650.15743 9.17618e-18
9651.01889 9.17602e-18
9651.88035 9.04231e-18
9652.74181 8.90819e-18
9653.60327 8.69629e-18
9654.46474 8.48405e-18
9655.32620 8.27054e-18
9656.18766 8.05700e-18
9657.04912 7.93034e-18
9657.91058 7.80395e-18
9658.77205 7.81357e-18
9659.64352 7.82361e-18
9660.50499 7.98161e-18
9661.36645 8.14006e-18
9662.22791 8.39641e-18
9663.08937 8.65305e-18
9663.95083 8.87713e-18
9664.81230 9.10113e-18
9665.67376 9.21735e-18
9666.53522 9.33333e-18
9667.39668 9.38171e-18
9668.25815 9.42992e-18
9669.11961 9.43340e-18
9669.99109 9.43671e-18
9670.85255 9.35661e-18
9671.71401 9.27617e-18
9672.57547 9.10187e-18
9673.43693 8.92725e-18
9674.29840 8.73001e-18
9675.15986 8.53260e-18
9676.02132 8.38349e-18
9676.88278 8.23455e-18
9677.74424 8.18322e-18
9678.61572 8.13218e-18
9679.47718 8.21151e-18
9680.33865 8.29120e-18
9681.20011 8.43584e-18
9682.06157 8.58056e-18
9682.92303 8.69944e-18
9683.78449 8.81823e-18
9684.64596 8.88442e-18
9685.50742 8.95036e-18
9686.36888 8.96014e-18
9687.23034 8.96974e-18
9688.10182 8.93255e-18
9688.96328 8.89527e-18
9689.82475 8.83414e-18
9690.68621 8.77292e-18
9691.54767 8.69198e-18
9692.40913 8.61097e-18
9693.27059 8.49805e-18
9694.13206 8.38498e-18
9694.99352 8.25672e-18
9695.85498 8.12841e-18
9696.71644 8.03037e-18
9697.57790 7.93243e-18
9698.44938 7.88727e-18
9699.31084 7.84227e-18
9700.17231 7.84138e-18
9701.03377 7.84064e-18
9701.89523 7.86539e-18
9702.75669 7.89022e-18
9703.61816 7.89918e-18
9704.47962 7.90808e-18
9705.34108 7.87448e-18
9706.20254 7.84074e-18
9707.06400 7.79039e-18
9707.93548 7.73998e-18
9708.79694 7.69963e-18
9709.65841 7.65932e-18
9710.51987 7.64357e-18
9711.38133 7.62790e-18
9712.24279 7.64627e-18
9713.10425 7.66474e-18
9713.96572 7.69183e-18
9714.82718 7.71894e-18
9715.68864 7.72416e-18
9716.55010 7.72932e-18
9717.41156 7.70391e-18
9718.28304 7.67842e-18
9719.14451 7.61887e-18
9720.00597 7.55922e-18
9720.86743 7.49739e-18
9721.72889 7.43555e-18
9722.59035 7.42041e-18
9723.45182 7.40542e-18
9724.31328 7.41548e-18
9725.17474 7.42562e-18
9726.03620 7.39695e-18
9726.89766 7.36815e-18
9727.76914 7.27811e-18
9728.63060 7.18789e-18
9729.49207 7.04837e-18
9730.35353 6.90870e-18
9731.21499 6.74947e-18
9732.07645 6.59018e-18
9732.93791 6.46597e-18
9733.79938 6.34187e-18
9734.66084 6.28680e-18
9735.52230 6.23193e-18
9736.38376 6.23936e-18
9737.25524 6.24698e-18
9738.11670 6.30156e-18
9738.97817 6.35629e-18
9739.83963 6.42781e-18
9740.70109 6.49939e-18
9741.56255 6.55799e-18
9742.42401 6.61656e-18
9743.28548 6.64641e-18
9744.14694 6.67617e-18
9745.00840 6.66788e-18
9745.86986 6.65948e-18
9746.74134 6.62578e-18
9747.60280 6.59201e-18
9748.46426 6.55038e-18
9749.32573 6.50872e-18
9750.18719 6.46330e-18
9751.04865 6.41786e-18
9751.91011 6.37084e-18
9752.77157 6.32381e-18
9753.63304 6.27364e-18
9754.49450 6.22347e-18
9755.35596 6.16690e-18
9756.22744 6.11032e-18
9757.08890 6.05913e-18
9757.95036 6.00795e-18
9758.81183 5.97953e-18
9759.67329 5.95117e-18
9760.53475 5.95897e-18
9761.39621 5.96687e-18
9762.25767 6.02242e-18
9763.11913 6.07813e-18
9763.98060 6.16395e-18
9764.84206 6.24985e-18
9765.71354 6.31669e-18
9766.57500 6.38346e-18
9767.43646 6.40716e-18
9768.29792 6.43072e-18
9769.15939 6.42710e-18
9770.02085 6.42340e-18
9770.88231 6.40597e-18
9771.74377 6.38850e-18
9772.60523 6.36400e-18
9773.46670 6.33948e-18
9774.32816 6.31646e-18
9775.19964 6.29343e-18
9776.06110 6.27865e-18
9776.92256 6.26389e-18
9777.78402 6.26186e-18
9778.64548 6.25987e-18
9779.50695 6.27635e-18
9780.36841 6.29290e-18
9781.22987 6.32949e-18
9782.09133 6.36614e-18
9782.95280 6.39117e-18
9783.81426 6.41615e-18
9784.68574 6.39518e-18
9785.54720 6.37405e-18
9786.40866 6.32376e-18
9787.27012 6.27339e-18
9788.13158 6.22515e-18
9788.99305 6.17692e-18
9789.85451 6.14179e-18
9790.71597 6.10669e-18
9791.57743 6.08926e-18
9792.43889 6.07187e-18
9793.30036 6.06037e-18
9794.16182 6.04889e-18
9795.03330 6.01860e-18
9795.89476 5.98824e-18
9796.75622 5.94637e-18
9797.61768 5.90447e-18
9798.47915 5.88715e-18
9799.34061 5.86990e-18
9800.20207 5.88920e-18
9801.06353 5.90862e-18
9801.92499 5.94742e-18
9802.78645 5.98628e-18
9803.64792 6.02729e-18
9804.51940 6.06831e-18
9805.38086 6.09126e-18
9806.24232 6.11414e-18
9807.10378 6.10919e-18
9807.96524 6.10414e-18
9808.82671 6.09073e-18
9809.68817 6.07730e-18
9810.54963 6.07397e-18
9811.41109 6.07066e-18
9812.27255 6.08911e-18
9813.13402 6.10762e-18
9813.99548 6.15329e-18
9814.86696 6.19904e-18
9815.72842 6.23942e-18
9816.58988 6.27979e-18
9817.45134 6.28038e-18
9818.31280 6.28085e-18
9819.17427 6.24623e-18
9820.03573 6.21151e-18
9820.89719 6.15622e-18
9821.75865 6.10086e-18
9822.62012 6.04619e-18
9823.48158 5.99153e-18
9824.35306 5.96233e-18
9825.21452 5.93321e-18
9826.07598 5.92586e-18
9826.93744 5.91858e-18
9827.79890 5.91297e-18
9828.66037 5.90737e-18
9829.52183 5.89854e-18
9830.38329 5.88970e-18
9831.24475 5.88360e-18
9832.10621 5.87751e-18
9832.97769 5.87277e-18
9833.83915 5.86803e-18
9834.70062 5.85684e-18
9835.56208 5.84563e-18
9836.42354 5.82439e-18
9837.28500 5.80312e-18
9838.14647 5.77394e-18
9839.00793 5.74473e-18
9839.86939 5.70998e-18
9840.73085 5.67521e-18
9841.59231 5.63612e-18
9842.45377 5.59702e-18
9843.32525 5.55806e-18
9844.18672 5.51910e-18
9845.04818 5.49407e-18
9845.90964 5.46908e-18
9846.77110 5.46885e-18
9847.63256 5.46870e-18
9848.49403 5.48991e-18
9849.35549 5.51119e-18
9850.21695 5.54766e-18
9851.07841 5.58418e-18
9851.93987 5.63001e-18
9852.81135 5.67587e-18
9853.67282 5.72408e-18
9854.53428 5.77230e-18
9855.39574 5.81849e-18
9856.25720 5.86466e-18
9857.11866 5.90558e-18
9857.98013 5.94648e-18
9858.84159 5.97337e-18
9859.70305 6.00021e-18
9860.56451 6.00304e-18
9861.42597 6.00581e-18
9862.29745 5.98323e-18
9863.15891 5.96058e-18
9864.02038 5.91690e-18
9864.88184 5.87315e-18
9865.74330 5.81633e-18
9866.60476 5.75946e-18
9867.46622 5.70091e-18
9868.32769 5.64235e-18
9869.18915 5.58858e-18
9870.05061 5.53484e-18
9870.92209 5.48512e-18
9871.78355 5.43541e-18
9872.64501 5.39059e-18
9873.50648 5.34578e-18
9874.36794 5.30969e-18
9875.22940 5.27363e-18
9876.09086 5.24932e-18
9876.95232 5.22505e-18
9877.81379 5.21531e-18
9878.67525 5.20561e-18
9879.53671 5.21172e-18
9880.39817 5.21787e-18
9881.26965 5.23789e-18
9882.13111 5.25794e-18
9882.99257 5.28827e-18
9883.85404 5.31862e-18
9884.71550 5.35270e-18
9885.57696 5.38679e-18
9886.43842 5.41753e-18
9887.29988 5.44825e-18
9888.16135 5.46899e-18
9889.02281 5.48970e-18
9889.88427 5.49487e-18
9890.74573 5.49999e-18
9891.61721 5.48946e-18
9892.47867 5.47889e-18
9893.34014 5.45548e-18
9894.20160 5.43201e-18
9895.06306 5.39872e-18
9895.92452 5.36539e-18
9896.78598 5.32538e-18
9897.64745 5.28536e-18
9898.50891 5.24385e-18
9899.37037 5.20233e-18
9900.23183 5.16619e-18
9901.09329 5.13006e-18
9901.96477 5.10042e-18
9902.82623 5.07080e-18
9903.68770 5.04182e-18
9904.54916 5.01285e-18
9905.41062 4.98588e-18
9906.27208 4.95892e-18
9907.13354 4.94667e-18
9907.99501 4.93446e-18
9908.85647 4.94298e-18
9909.71793 4.95156e-18
9910.57939 4.97505e-18
9911.45087 4.99859e-18
9912.31233 5.02761e-18
9913.17380 5.05664e-18
9914.03526 5.07123e-18
9914.89672 5.08578e-18
9915.75818 5.07008e-18
9916.61964 5.05430e-18
9917.48111 5.01386e-18
9918.34257 4.97335e-18
9919.20403 4.91787e-18
9920.07551 4.86234e-18
9920.93697 4.80281e-18
9921.79843 4.74328e-18
9922.65989 4.69090e-18
9923.52136 4.63855e-18
9924.38282 4.59824e-18
9925.24428 4.55797e-18
9926.10574 4.53164e-18
9926.96720 4.50537e-18
9927.82867 4.48574e-18
9928.69013 4.46613e-18
9929.56161 4.44162e-18
9930.42307 4.41709e-18
9931.28453 4.38392e-18
9932.14599 4.35071e-18
9933.00746 4.31053e-18
9933.86892 4.27032e-18
9934.73038 4.22653e-18
9935.59184 4.18273e-18
9936.45330 4.14027e-18
9937.31477 4.09780e-18
9938.17623 4.06318e-18
9939.03769 4.02857e-18
9939.90917 4.00996e-18
9940.77063 3.99139e-18
9941.63209 3.99104e-18
9942.49355 3.99074e-18
9943.35502 4.00018e-18
9944.21648 4.00964e-18
9945.07794 4.02156e-18
9945.93940 4.03348e-18
9946.80086 4.04603e-18
9947.66233 4.05859e-18
9948.52379 4.06965e-18
9949.39527 4.08070e-18
9950.25673 4.08622e-18
9951.11819 4.09172e-18
9951.97965 4.08908e-18
9952.84112 4.08642e-18
9953.70258 4.08087e-18
9954.56404 4.07531e-18
9955.42550 4.07262e-18
9956.28696 4.06994e-18
9957.14843 4.06625e-18
9958.00989 4.06255e-18
9958.88137 4.05255e-18
9959.74283 4.04251e-18
9960.60429 4.02346e-18
9961.46575 4.00438e-18
9962.32721 3.97454e-18
9963.18868 3.94466e-18
9964.05014 3.91295e-18
9964.91160 3.88123e-18
9965.77306 3.86259e-18
9966.63452 3.84398e-18
9967.49599 3.84189e-18
9968.36747 3.83986e-18
9969.22893 3.84858e-18
9970.09039 3.85733e-18
9970.95185 3.87596e-18
9971.81331 3.89462e-18
9972.67477 3.92744e-18
9973.53624 3.96031e-18
9974.39770 4.00554e-18
9975.25916 4.05080e-18
9976.12062 4.09876e-18
9976.98208 4.14671e-18
9977.85356 4.18969e-18
9978.71503 4.23265e-18
9979.57649 4.26696e-18
9980.43795 4.30125e-18
9981.29941 4.32560e-18
9982.16087 4.34993e-18
9983.02234 4.36951e-18
9983.88380 4.38908e-18
9984.74526 4.40910e-18
9985.60672 4.42913e-18
9986.46818 4.45220e-18
9987.32965 4.47527e-18
9988.20112 4.50273e-18
9989.06259 4.53020e-18
9989.92405 4.55238e-18
9990.78551 4.57454e-18
9991.64697 4.58046e-18
9992.50843 4.58633e-18
9993.36990 4.58424e-18
9994.23136 4.58212e-18
9995.09282 4.58607e-18
9995.95428 4.59005e-18
9996.81574 4.59765e-18
9997.67721 4.60527e-18
9998.54869 4.60757e-18
9999.41015 4.60984e-18
