# wavelength flux
3719.99538 1.09791e-17
3721.50320 1.10231e-17
3723.00084 8.25822e-18
3724.49848 4.12069e-18
3725.99611 5.84647e-18
3727.50394 7.07823e-18
3729.00157 7.39238e-18
3730.49921 6.93368e-18
3731.99684 1.25953e-17
3733.50467 1.39900e-17
3735.00230 6.02109e-18
3736.49994 1.07338e-17
3737.99758 1.05418e-17
3739.49521 1.16859e-17
3741.00304 1.20482e-17
3742.50067 4.71912e-18
3743.99831 1.48535e-17
3745.49594 5.30485e-18
3747.00377 3.16447e-18
3748.50140 1.04303e-17
3749.99904 8.12661e-18
3751.49668 4.84148e-18
3753.00450 1.18890e-17
3754.50214 1.24850e-17
3755.99977 6.45145e-18
3757.49741 8.57558e-18
3758.99504 8.53818e-18
3760.50287 9.40030e-18
3762.00050 4.30045e-19
3763.49814 3.58350e-18
3764.99578 1.26803e-17
3766.50360 6.69703e-18
3768.00124 2.88318e-18
3769.49887 3.77107e-18
3770.99651 1.84495e-18
3772.50433 4.90706e-18
3774.00197 1.01202e-17
3775.49960 9.54040e-18
3776.99724 7.51352e-18
3778.49488 7.66694e-18
3780.00270 7.82036e-18
3781.50034 7.91926e-18
3782.99797 8.01816e-18
3784.49561 8.11705e-18
3786.00343 8.21591e-18
3787.50107 8.31478e-18
3788.99870 8.41363e-18
3790.49634 8.51246e-18
3792.00416 8.61130e-18
3793.50180 8.71011e-18
3794.99944 8.80892e-18
3796.49707 8.90772e-18
3798.00490 9.00649e-18
3799.50253 9.10527e-18
3801.00017 9.20404e-18
3802.49780 9.30279e-18
3803.99544 9.40153e-18
3805.50326 9.50026e-18
3807.00090 9.59898e-18
3808.49854 9.69770e-18
3809.99617 9.79639e-18
3811.50400 9.89509e-18
3813.00163 9.99377e-18
3814.49927 1.00924e-17
3815.99690 1.01911e-17
3817.50473 1.02897e-17
3819.00236 5.71442e-18
3820.50000 7.85800e-18
3821.99764 8.87121e-18
3823.49527 8.29667e-18
3825.00310 8.73447e-18
3826.50073 1.43847e-17
3827.99837 9.11374e-18
3829.49600 5.69046e-18
3831.00383 4.55716e-18
3832.50146 6.71603e-18
3833.99910 5.81796e-18
3835.49674 6.34549e-18
3837.00456 1.01126e-17
3838.50220 7.38372e-18
3839.99983 8.11625e-18
3841.49747 9.25873e-18
3842.99510 3.71627e-18
3844.50293 5.81659e-18
3846.00056 6.96331e-18
3847.49820 6.02882e-18
3848.99584 7.78493e-18
3850.50366 1.04415e-17
3852.00130 1.06586e-17
3853.49893 1.06247e-17
3854.99657 9.20675e-18
3856.50439 6.49111e-18
3858.00203 6.59088e-18
3859.49966 7.25926e-18
3860.99730 6.46234e-18
3862.49494 1.06108e-17
3864.00276 8.18253e-18
3865.50040 5.64634e-18
3866.99803 1.02200e-17
3868.49567 1.12810e-17
3870.00349 1.02716e-17
3871.50113 1.54553e-17
3872.99876 1.06466e-17
3874.49640 7.37729e-18
3876.00422 9.96837e-18
3877.50186 1.32767e-17
3878.99950 7.92391e-18
3880.49713 1.02230e-17
3881.99477 6.92184e-18
3883.50259 8.35718e-18
3885.00023 7.70501e-18
3886.49786 1.02137e-17
3887.99550 9.44342e-18
3889.50332 1.12910e-17
3891.00096 9.60916e-18
3892.49860 4.79080e-18
3893.99623 6.82511e-18
3895.50406 1.15650e-17
3897.00169 1.12224e-17
3898.49933 1.20572e-17
3899.99696 1.32632e-17
3901.50479 9.88069e-18
3903.00242 1.16820e-17
3904.50006 1.15372e-17
3905.99770 9.06711e-18
3907.49533 7.50231e-18
3909.00316 7.92522e-18
3910.50079 8.58587e-18
3911.99843 1.09001e-17
3913.49606 1.10131e-17
3915.00389 8.78599e-18
3916.50152 9.00772e-18
3917.99916 1.06437e-17
3919.49680 1.05138e-17
3921.00462 1.18292e-17
3922.50226 1.38490e-17
3923.99989 1.04215e-17
3925.49753 1.06303e-17
3926.99516 1.28102e-17
3928.50299 1.04981e-17
3930.00062 1.18842e-17
3931.49826 1.41499e-17
3932.99590 6.94095e-18
3934.50372 4.73659e-18
3936.00136 9.81591e-18
3937.49899 1.14977e-17
3938.99663 1.12324e-17
3940.50445 1.24642e-17
3942.00209 1.32009e-17
3943.49972 1.32728e-17
3944.99736 1.46488e-17
3946.49500 1.40404e-17
3948.00282 1.24417e-17
3949.50046 1.02835e-17
3950.99809 1.16618e-17
3952.49573 1.41959e-17
3954.00355 1.10878e-17
3955.50119 1.00741e-17
3956.99882 1.19975e-17
3958.49646 1.34337e-17
3960.00428 1.23482e-17
3961.50192 1.33286e-17
3962.99956 1.44562e-17
3964.49719 1.58638e-17
3965.99483 1.39924e-17
3967.50265 1.26815e-17
3969.00029 1.17150e-17
3970.49792 1.47723e-17
3971.99556 1.49086e-17
3973.50338 1.20804e-17
3975.00102 8.36165e-18
3976.49866 1.02340e-17
3977.99629 1.43619e-17
3979.50412 1.52507e-17
3981.00175 1.24403e-17
3982.49939 1.26720e-17
3983.99702 1.24313e-17
3985.50485 1.36565e-17
3987.00248 1.30819e-17
3988.50012 1.08963e-17
3989.99776 8.45627e-18
3991.49539 5.04144e-18
3993.00322 4.99003e-18
3994.50085 9.25967e-18
3995.99849 1.13757e-17
3997.49612 1.52886e-17
3999.00395 1.35949e-17
4000.50158 1.03884e-17
4001.99922 1.15566e-17
4003.49686 8.44030e-18
4005.00468 7.33037e-18
4006.50232 1.17313e-17
4007.99995 1.15539e-17
4009.49759 8.05969e-18
4010.99522 9.76122e-18
4012.50305 1.07284e-17
4014.00068 9.74803e-18
4015.49832 9.31857e-18
4016.99596 7.37639e-18
4018.50378 1.12931e-17
4020.00142 1.28473e-17
4021.49905 1.13365e-17
4022.99669 1.42284e-17
4024.50451 1.37217e-17
4026.00215 1.13336e-17
4027.49978 1.28682e-17
4028.99742 1.14746e-17
4030.49506 5.55456e-18
4032.00288 2.50261e-18
4033.50052 1.06639e-17
4034.99815 1.09447e-17
4036.49579 8.69268e-18
4038.00361 1.28914e-17
4039.50125 1.02371e-17
4040.99888 1.08259e-17
4042.49652 8.62583e-18
4044.00434 9.06674e-18
4045.50198 1.31908e-17
4046.99962 1.52526e-17
4048.49725 1.08517e-17
4049.99489 1.03450e-17
4051.50271 1.15327e-17
4053.00035 9.73956e-18
4054.49798 8.88691e-18
4055.99562 1.01870e-17
4057.50344 8.12314e-18
4059.00108 9.95276e-18
4060.49872 9.84994e-18
4061.99635 1.15256e-17
4063.50418 1.30656e-17
4065.00181 1.26975e-17
4066.49945 1.05956e-17
4067.99708 6.92689e-18
4069.50491 9.83726e-18
4071.00254 1.19432e-17
4072.50018 1.03228e-17
4073.99782 9.42471e-18
4075.49545 1.06435e-17
4077.00328 1.19485e-17
4078.50091 1.31004e-17
4079.99855 1.25023e-17
4081.49618 1.40516e-17
4083.00401 1.24058e-17
4084.50164 9.73214e-18
4085.99928 1.25140e-17
4087.49692 9.79017e-18
4089.00474 8.60580e-18
4090.50238 1.10147e-17
4092.00001 1.10580e-17
4093.49765 9.00756e-18
4094.99528 8.21233e-18
4096.50311 1.02657e-17
4098.00074 1.30341e-17
4099.49838 1.33543e-17
4100.99602 1.10875e-17
4102.50384 1.22058e-17
4104.00148 1.12221e-17
4105.49911 1.07608e-17
4106.99675 1.24006e-17
4108.50457 1.09092e-17
4110.00221 1.26441e-17
4111.49984 1.38098e-17
4112.99748 1.16520e-17
4114.49512 1.27017e-17
4116.00294 1.24708e-17
4117.50058 7.86614e-18
4118.99821 1.09968e-17
4120.49585 1.04123e-17
4122.00367 1.02362e-17
4123.50131 1.07198e-17
4124.99894 1.22674e-17
4126.49658 1.13390e-17
4128.00440 7.29860e-18
4129.50204 5.25702e-18
4130.99968 1.03523e-17
4132.49731 1.17717e-17
4133.99495 1.20009e-17
4135.50277 1.27048e-17
4137.00041 1.10552e-17
4138.49804 9.21714e-18
4139.99568 8.70271e-18
4141.50350 9.22244e-18
4143.00114 1.10500e-17
4144.49878 1.01694e-17
4145.99641 1.00116e-17
4147.50424 8.44420e-18
4149.00187 7.14186e-18
4150.49951 1.00883e-17
4151.99714 1.01343e-17
4153.49478 9.76350e-18
4155.00260 9.30890e-18
4156.50024 9.21877e-18
4157.99788 1.27265e-17
4159.49551 1.50925e-17
4161.00334 1.17054e-17
4162.50097 8.57190e-18
4163.99861 8.75880e-18
4165.49624 1.10461e-17
4167.00407 1.09998e-17
4168.50170 6.28719e-18
4169.99934 7.88559e-18
4171.49698 8.02444e-18
4173.00480 9.36578e-18
4174.50244 1.22476e-17
4176.00007 1.04652e-17
4177.49771 1.28085e-17
4178.99534 1.23649e-17
4180.50317 1.02077e-17
4182.00080 1.01814e-17
4183.49844 9.92152e-18
4184.99608 8.78302e-18
4186.50390 1.11064e-17
4188.00154 1.19074e-17
4189.49917 9.86241e-18
4190.99681 9.78556e-18
4192.50463 1.12862e-17
4194.00227 1.07868e-17
4195.49990 9.58201e-18
4196.99754 9.13028e-18
4198.49518 9.00633e-18
4200.00300 7.05587e-18
4201.50064 8.12604e-18
4202.99827 1.04079e-17
4204.49591 8.32181e-18
4206.00373 8.95652e-18
4207.50137 9.91753e-18
4208.99900 8.81169e-18
4210.49664 1.06970e-17
4212.00446 1.18579e-17
4213.50210 1.03476e-17
4214.99974 1.00654e-17
4216.49737 1.08584e-17
4218.00520 8.74425e-18
4219.50283 7.17612e-18
4221.00047 7.22763e-18
4222.49810 1.10951e-17
4223.99574 1.35849e-17
4225.50356 9.22269e-18
4227.00120 8.58546e-18
4228.49884 1.14807e-17
4229.99647 1.08441e-17
4231.50430 1.19544e-17
4233.00193 1.16224e-17
4234.49957 9.05533e-18
4235.99720 1.07956e-17
4237.50503 1.02375e-17
4239.00266 1.06457e-17
4240.50030 1.09233e-17
4241.99794 9.73784e-18
4243.49557 9.20301e-18
4245.00340 1.16757e-17
4246.50103 9.91823e-18
4247.99867 1.12053e-17
4249.49630 1.08255e-17
4251.00413 9.71382e-18
4252.50176 9.50206e-18
4253.99940 1.08197e-17
4255.49704 1.03610e-17
4257.00486 9.42312e-18
4258.50250 1.10902e-17
4260.00013 1.10191e-17
4261.49777 1.01995e-17
4262.99540 9.42838e-18
4264.50323 8.25675e-18
4266.00086 1.05667e-17
4267.49850 1.07517e-17
4268.99614 9.63138e-18
4270.50396 9.40466e-18
4272.00160 1.05464e-17
4273.49923 1.16774e-17
4274.99687 7.63220e-18
4276.50469 8.51835e-18
4278.00233 1.00387e-17
4279.49996 8.72348e-18
4280.99760 9.03867e-18
4282.49524 8.03806e-18
4284.00306 8.44676e-18
4285.50070 1.05207e-17
4286.99833 1.01172e-17
4288.49597 1.06744e-17
4290.00379 1.13577e-17
4291.50143 1.08774e-17
4292.99906 1.33657e-17
4294.49670 1.39689e-17
4296.00452 1.16723e-17
4297.50216 1.25358e-17
4298.99980 1.08311e-17
4300.49743 1.13530e-17
4301.99507 1.18466e-17
4303.50289 1.05235e-17
4305.00053 9.93726e-18
4306.49816 7.08712e-18
4307.99580 1.17013e-17
4309.50362 1.14165e-17
4311.00126 1.06395e-17
4312.49890 1.02112e-17
4313.99653 1.15774e-17
4315.50436 1.22223e-17
4317.00199 8.51637e-18
4318.49963 9.88420e-18
4319.99726 1.19393e-17
4321.49490 9.65914e-18
4323.00272 9.62016e-18
4324.50036 6.93656e-18
4325.99800 6.91750e-18
4327.49563 7.43933e-18
4329.00346 8.78865e-18
4330.50109 1.05387e-17
4331.99873 1.11782e-17
4333.49636 8.99173e-18
4335.00419 8.50798e-18
4336.50182 1.10181e-17
4337.99946 9.79524e-18
4339.49710 9.07445e-18
4341.00492 1.16861e-17
4342.50256 1.29729e-17
4344.00019 1.05395e-17
4345.49783 1.05894e-17
4346.99546 1.03955e-17
4348.50329 8.48237e-18
4350.00092 8.77852e-18
4351.49856 8.74361e-18
4352.99620 8.79518e-18
4354.50402 9.60748e-18
4356.00166 1.02517e-17
4357.49929 1.13869e-17
4358.99693 8.82230e-18
4360.50475 9.17150e-18
4362.00239 1.17604e-17
4363.50002 1.09711e-17
4364.99766 1.05171e-17
4366.49530 1.06469e-17
4368.00312 1.09075e-17
4369.50076 8.77915e-18
4370.99839 7.60530e-18
4372.49603 9.51378e-18
4374.00385 1.08258e-17
4375.50149 6.94244e-18
4376.99912 6.65889e-18
4378.49676 1.03937e-17
4380.00458 1.05230e-17
4381.50222 1.19030e-17
4382.99986 9.30421e-18
4384.49749 7.95661e-18
4385.99513 7.81703e-18
4387.50295 9.20606e-18
4389.00059 8.71109e-18
4390.49822 9.33830e-18
4391.99586 9.98091e-18
4393.50368 8.57407e-18
4395.00132 8.68451e-18
4396.49896 9.82957e-18
4397.99659 1.09042e-17
4399.50442 9.62680e-18
4401.00205 9.03678e-18
4402.49969 1.08730e-17
4403.99732 9.71173e-18
4405.50515 9.82726e-18
4407.00278 9.87929e-18
4408.50042 8.96128e-18
4409.99806 6.72977e-18
4411.49569 8.18003e-18
4413.00352 9.57775e-18
4414.50115 9.65706e-18
4415.99879 9.68513e-18
4417.49642 9.71318e-18
4419.00425 9.74123e-18
4420.50188 9.76928e-18
4421.99952 9.79732e-18
4423.49716 9.82536e-18
4425.00498 9.85340e-18
4426.50262 9.88143e-18
4428.00025 9.90945e-18
4429.49789 9.93749e-18
4430.99552 9.96550e-18
4432.50335 9.99352e-18
4434.00098 1.00215e-17
4435.49862 1.00496e-17
4436.99626 1.00776e-17
4438.50408 1.01056e-17
4440.00172 1.01336e-17
4441.49935 1.01616e-17
4442.99699 1.01896e-17
4444.50481 1.02176e-17
4446.00245 1.02455e-17
4447.50008 1.02735e-17
4448.99772 1.03015e-17
4450.49536 1.03295e-17
4452.00318 1.03575e-17
4453.50082 1.03854e-17
4454.99845 1.04134e-17
4456.49609 1.04414e-17
4458.00391 1.04693e-17
4459.50155 1.04973e-17
4460.99918 1.05252e-17
4462.49682 1.05532e-17
4464.00464 1.05811e-17
4465.50228 1.06091e-17
4466.99992 1.06370e-17
4468.49755 1.06649e-17
4469.99519 1.06929e-17
4471.50301 1.07208e-17
4473.00065 1.07487e-17
4474.49828 1.07766e-17
4475.99592 1.08046e-17
4477.50374 1.08880e-17
4479.00138 1.06135e-17
4480.49902 1.22040e-17
4481.99665 1.12594e-17
4483.50448 1.03505e-17
4485.00211 9.72164e-18
4486.49975 1.15909e-17
4487.99738 8.29493e-18
4489.49502 1.07908e-17
4491.00284 1.13672e-17
4492.50048 8.71061e-18
4493.99812 9.34539e-18
4495.49575 9.75452e-18
4497.00358 1.00837e-17
4498.50121 1.04494e-17
4499.99885 1.06231e-17
4501.49648 1.12961e-17
4503.00431 1.07684e-17
4504.50194 1.10855e-17
4505.99958 1.12893e-17
4507.49722 1.16999e-17
4508.99485 1.06216e-17
4510.50268 7.67452e-18
4512.00031 8.90191e-18
4513.49795 1.23998e-17
4514.99558 1.18379e-17
4516.50341 9.71525e-18
4518.00104 9.94884e-18
4519.49868 1.24982e-17
4520.99632 1.42612e-17
4522.50414 1.33654e-17
4524.00178 1.23265e-17
4525.49941 1.23664e-17
4526.99705 1.41214e-17
4528.50487 1.12453e-17
4530.00251 1.11845e-17
4531.50014 1.32479e-17
4532.99778 1.23205e-17
4534.49542 1.04039e-17
4536.00324 1.19132e-17
4537.50088 1.23313e-17
4538.99851 9.65435e-18
4540.49615 1.08171e-17
4542.00397 1.04544e-17
4543.50161 1.14580e-17
4544.99924 1.19790e-17
4546.49688 1.33886e-17
4548.00470 1.38359e-17
4549.50234 1.12815e-17
4550.99998 1.01877e-17
4552.49761 1.05434e-17
4553.99525 1.11661e-17
4555.50307 1.18792e-17
4557.00071 1.26995e-17
4558.49834 1.30643e-17
4559.99598 1.08128e-17
4561.50380 1.06141e-17
4563.00144 1.16664e-17
4564.49908 1.22086e-17
4565.99671 1.41810e-17
4567.50454 1.25110e-17
4569.00217 1.34519e-17
4570.49981 1.50214e-17
4571.99744 1.49015e-17
4573.49508 1.54282e-17
4575.00290 1.35362e-17
4576.50054 1.33231e-17
4577.99818 1.47302e-17
4579.49581 1.33901e-17
4581.00364 1.24193e-17
4582.50127 1.25472e-17
4583.99891 1.31130e-17
4585.49654 1.35722e-17
4587.00437 1.34324e-17
4588.50200 1.32316e-17
4589.99964 1.30481e-17
4591.49728 1.36399e-17
4593.00510 1.37830e-17
4594.50274 1.29100e-17
4596.00037 1.36308e-17
4597.49801 1.68145e-17
4598.99564 1.53820e-17
4600.50347 1.26535e-17
4602.00110 1.28548e-17
4603.49874 1.47057e-17
4604.99638 1.43406e-17
4606.50420 1.43238e-17
4608.00184 1.58483e-17
4609.49947 1.15730e-17
4610.99711 1.12261e-17
4612.50493 1.37640e-17
4614.00257 1.33064e-17
4615.50020 1.42487e-17
4616.99784 1.39832e-17
4618.49548 1.44688e-17
4620.00330 1.40773e-17
4621.50094 1.35755e-17
4622.99857 1.44950e-17
4624.49621 1.52527e-17
4626.00403 1.57718e-17
4627.50167 1.40074e-17
4628.99930 1.24350e-17
4630.49694 1.39630e-17
4632.00476 1.36731e-17
4633.50240 1.49245e-17
4635.00004 1.42123e-17
4636.49767 1.37065e-17
4637.99531 1.55132e-17
4639.50313 1.57228e-17
4641.00077 1.41763e-17
4642.49840 1.33077e-17
4643.99604 1.32789e-17
4645.50386 1.62486e-17
4647.00150 1.76758e-17
4648.49914 1.46337e-17
4649.99677 1.65652e-17
4651.50460 1.92378e-17
4653.00223 1.70126e-17
4654.49987 1.40441e-17
4655.99750 1.51331e-17
4657.49514 1.94076e-17
4659.00296 2.10168e-17
4660.50060 1.88308e-17
4661.99824 2.00013e-17
4663.49587 1.81786e-17
4665.00370 1.73504e-17
4666.50133 1.66829e-17
4667.99897 1.47314e-17
4669.49660 1.45942e-17
4671.00443 1.38662e-17
4672.50206 1.34689e-17
4673.99970 1.11875e-17
4675.49734 1.20409e-17
4676.99497 1.50952e-17
4678.50280 1.44268e-17
4680.00043 1.35660e-17
4681.49807 1.41798e-17
4682.99570 1.51915e-17
4684.50353 1.27632e-17
4686.00116 1.29784e-17
4687.49880 1.24301e-17
4688.99644 1.30955e-17
4690.50426 1.32083e-17
4692.00190 1.30372e-17
4693.49953 1.34394e-17
4694.99717 1.28572e-17
4696.49480 1.19484e-17
4698.00263 1.07941e-17
4699.50026 1.07163e-17
4700.99790 1.21801e-17
4702.49554 1.07253e-17
4704.00336 1.11531e-17
4705.50100 9.45123e-18
4706.99863 1.05666e-17
4708.49627 1.23606e-17
4710.00409 1.12695e-17
4711.50173 1.05440e-17
4712.99936 1.05755e-17
4714.49700 1.00280e-17
4716.00482 1.07531e-17
4717.50246 1.14726e-17
4719.00010 1.05854e-17
4720.49773 9.36743e-18
4721.99537 1.13182e-17
4723.50319 1.19626e-17
4725.00083 1.00293e-17
4726.49846 1.01994e-17
4727.99610 1.11276e-17
4729.50392 9.42196e-18
4731.00156 1.27260e-17
4732.49920 1.21244e-17
4733.99683 1.20931e-17
4735.50466 1.23304e-17
4737.00229 1.15846e-17
4738.49993 1.06476e-17
4739.99756 1.11469e-17
4741.49520 1.11833e-17
4743.00302 1.15987e-17
4744.50066 1.37585e-17
4745.99830 1.03557e-17
4747.49593 1.08345e-17
4749.00376 1.20831e-17
4750.50139 1.10482e-17
4751.99903 1.12412e-17
4753.49666 1.01566e-17
4755.00449 1.06185e-17
4756.50212 1.03135e-17
4757.99976 1.12818e-17
4759.49740 9.76868e-18
4761.00522 9.32871e-18
4762.50286 9.78366e-18
4764.00049 1.05478e-17
4765.49813 1.03060e-17
4766.99576 1.12951e-17
4768.50359 1.08473e-17
4770.00122 8.76781e-18
4771.49886 1.05539e-17
4772.99650 1.08600e-17
4774.50432 9.38902e-18
4776.00196 9.97376e-18
4777.49959 1.02182e-17
4778.99723 9.62606e-18
4780.50505 8.93595e-18
4782.00269 8.05048e-18
4783.50032 1.00190e-17
4784.99796 1.12775e-17
4786.49560 9.00869e-18
4788.00342 1.00557e-17
4789.50106 1.04917e-17
4790.99869 1.01301e-17
4792.49633 1.14065e-17
4794.00415 1.04910e-17
4795.50179 9.78660e-18
4796.99942 9.90100e-18
4798.49706 1.04781e-17
4800.00488 9.99183e-18
4801.50252 9.27424e-18
4803.00016 1.02723e-17
4804.49779 1.19749e-17
4805.99543 1.07889e-17
4807.50325 9.79182e-18
4809.00089 1.10924e-17
4810.49852 1.03956e-17
4811.99616 9.23712e-18
4813.50398 9.43804e-18
4815.00162 1.07176e-17
4816.49926 9.60245e-18
4817.99689 1.17921e-17
4819.50472 1.02623e-17
4821.00235 9.86538e-18
4822.49999 1.00627e-17
4823.99762 1.18235e-17
4825.49526 1.07829e-17
4827.00308 1.04316e-17
4828.50072 1.07436e-17
4829.99836 1.09205e-17
4831.49599 1.08031e-17
4833.00382 1.03462e-17
4834.50145 1.01731e-17
4835.99909 1.04373e-17
4837.49672 1.24566e-17
4839.00455 1.26437e-17
4840.50218 1.03285e-17
4841.99982 9.44538e-18
4843.49746 1.00514e-17
4844.99509 1.06785e-17
4846.50292 1.04778e-17
4848.00055 1.01515e-17
4849.49819 1.11592e-17
4850.99582 1.15747e-17
4852.50365 1.10438e-17
4854.00128 1.08427e-17
4855.49892 1.06786e-17
4856.99656 1.09559e-17
4858.50438 1.16524e-17
4860.00202 1.14097e-17
4861.49965 1.16144e-17
4862.99729 1.23193e-17
4864.49492 1.10500e-17
4866.00275 1.18523e-17
4867.50038 1.13559e-17
4868.99802 9.11935e-18
4870.49566 1.01275e-17
4872.00348 1.10434e-17
4873.50112 9.46001e-18
4874.99875 9.10983e-18
4876.49639 1.20394e-17
4878.00421 1.19640e-17
4879.50185 9.37543e-18
4880.99948 8.28982e-18
4882.49712 9.95408e-18
4884.00494 1.15180e-17
4885.50258 1.06853e-17
4887.00022 1.06103e-17
4888.49785 1.17221e-17
4889.99549 1.03221e-17
4891.50331 1.06677e-17
4893.00095 1.12006e-17
4894.49858 1.19123e-17
4895.99622 9.18431e-18
4897.50404 9.27894e-18
4899.00168 1.08717e-17
4900.49932 1.30044e-17
4901.99695 1.12483e-17
4903.50478 8.89767e-18
4905.00241 1.04513e-17
4906.50005 1.07647e-17
4907.99768 1.07883e-17
4909.49532 1.10465e-17
4911.00314 1.03157e-17
4912.50078 9.61304e-18
4913.99842 1.13327e-17
4915.49605 1.16061e-17
4917.00388 1.16000e-17
4918.50151 1.25384e-17
4919.99915 1.04332e-17
4921.49678 1.09173e-17
4923.00461 1.19473e-17
4924.50224 1.25483e-17
4925.99988 1.17896e-17
4927.49752 1.07963e-17
4928.99515 1.17628e-17
4930.50298 1.29081e-17
4932.00061 1.28015e-17
4933.49825 1.07212e-17
4934.99588 1.08562e-17
4936.50371 1.09911e-17
4938.00134 1.11260e-17
4939.49898 1.12610e-17
4940.99662 1.13959e-17
4942.50444 1.15307e-17
4944.00208 1.16656e-17
4945.49971 1.18005e-17
4946.99735 1.19353e-17
4948.50517 1.20701e-17
4950.00281 1.22049e-17
4951.50044 1.23397e-17
4952.99808 1.24745e-17
4954.49572 1.26093e-17
4956.00354 1.27440e-17
4957.50118 1.28787e-17
4958.99881 1.30134e-17
4960.49645 1.31481e-17
4962.00427 1.32828e-17
4963.50191 1.34175e-17
4964.99954 1.35521e-17
4966.49718 1.36867e-17
4968.00500 1.38214e-17
4969.50264 1.39560e-17
4971.00028 1.40905e-17
4972.49791 1.42251e-17
4973.99555 1.43252e-17
4975.50337 1.19913e-17
4977.00101 1.31245e-17
4978.49864 1.27201e-17
4979.99628 1.18594e-17
4981.50410 1.21631e-17
4983.00174 1.07421e-17
4984.49938 1.05993e-17
4985.99701 9.82754e-18
4987.50484 9.33750e-18
4989.00247 1.01925e-17
4990.50011 1.10476e-17
4991.99774 1.06145e-17
4993.49538 1.14372e-17
4995.00320 1.23525e-17
4996.50084 1.18288e-17
4997.99848 9.67325e-18
4999.49611 1.02350e-17
5001.00394 1.11992e-17
5002.50157 1.06033e-17
5003.99921 9.07102e-18
5005.49684 8.80733e-18
5007.00467 9.23663e-18
5008.50230 1.06803e-17
5009.99994 1.12801e-17
5011.49758 1.01116e-17
5012.99521 1.05067e-17
5014.50304 1.24301e-17
5016.00067 1.18986e-17
5017.49831 1.02696e-17
5018.99594 8.90935e-18
5020.50377 9.10510e-18
5022.00140 8.89138e-18
5023.49904 8.58146e-18
5024.99668 1.01912e-17
5026.50450 1.06192e-17
5028.00214 9.64013e-18
5029.49977 1.03048e-17
5030.99741 8.27743e-18
5032.49504 7.54053e-18
5034.00287 7.63340e-18
5035.50050 7.72628e-18
5036.99814 7.81912e-18
5038.49578 7.91195e-18
5040.00360 8.00480e-18
5041.50124 8.09761e-18
5042.99887 8.19041e-18
5044.49651 8.28320e-18
5046.00433 8.37601e-18
5047.50197 8.46878e-18
5048.99960 8.56154e-18
5050.49724 8.65432e-18
5051.99488 8.74705e-18
5053.50270 8.83978e-18
5055.00034 8.93252e-18
5056.49797 9.02523e-18
5057.99561 9.11792e-18
5059.50343 9.21064e-18
5061.00107 9.30331e-18
5062.49870 9.39597e-18
5063.99634 9.48866e-18
5065.50416 9.58130e-18
5067.00180 9.67393e-18
5068.49944 9.76656e-18
5069.99707 9.85920e-18
5071.50490 9.95180e-18
5073.00253 1.01414e-17
5074.50017 9.76161e-18
5075.99780 8.84270e-18
5077.49544 9.77001e-18
5079.00326 8.54444e-18
5080.50090 8.06283e-18
5081.99854 9.14140e-18
5083.49617 9.16798e-18
5085.00400 9.19456e-18
5086.50163 9.22113e-18
5087.99927 9.24770e-18
5089.49690 9.27427e-18
5091.00473 9.30083e-18
5092.50236 9.32739e-18
5094.00000 9.35396e-18
5095.49764 9.38051e-18
5096.99527 9.40707e-18
5098.50310 9.43362e-18
5100.00073 9.46017e-18
5101.49837 9.48672e-18
5102.99600 9.51326e-18
5104.50383 9.53980e-18
5106.00146 9.56634e-18
5107.49910 9.59288e-18
5108.99674 9.61941e-18
5110.50456 9.64594e-18
5112.00220 9.67247e-18
5113.49983 9.69899e-18
5114.99747 9.72551e-18
5116.49510 9.75203e-18
5118.00293 9.77855e-18
5119.50056 9.80506e-18
5120.99820 9.96554e-18
5122.49584 1.31580e-17
5124.00366 1.32318e-17
5125.50130 1.15468e-17
5126.99893 1.16964e-17
5128.49657 1.05735e-17
5130.00439 1.09450e-17
5131.50203 1.23332e-17
5132.99966 1.17092e-17
5134.49730 1.03480e-17
5136.00512 7.88726e-18
5137.50276 9.05204e-18
5139.00040 9.91436e-18
5140.49803 1.03923e-17
5141.99567 1.08511e-17
5143.50349 1.07166e-17
5145.00113 1.06160e-17
5146.49876 1.01537e-17
5147.99640 1.00155e-17
5149.50422 9.18196e-18
5151.00186 8.54448e-18
5152.49950 9.56741e-18
5153.99713 9.52969e-18
5155.50496 1.06076e-17
5157.00259 1.03969e-17
5158.50023 1.00552e-17
5159.99786 1.17509e-17
5161.49550 1.19501e-17
5163.00332 1.08357e-17
5164.50096 9.27848e-18
5165.99860 9.45868e-18
5167.49623 9.48792e-18
5169.00406 1.03119e-17
5170.50169 1.01740e-17
5171.99933 1.07345e-17
5173.49696 9.73803e-18
5175.00479 9.30484e-18
5176.50242 1.03506e-17
5178.00006 1.13676e-17
5179.49770 1.21268e-17
5180.99533 1.09716e-17
5182.50316 1.03732e-17
5184.00079 1.02256e-17
5185.49843 8.62503e-18
5186.99606 1.00047e-17
5188.50389 1.13950e-17
5190.00152 1.06848e-17
5191.49916 1.04718e-17
5192.99680 1.02502e-17
5194.50462 1.11217e-17
5196.00226 9.14504e-18
5197.49989 1.04881e-17
5198.99753 1.27455e-17
5200.49516 1.10583e-17
5202.00299 1.10503e-17
5203.50062 1.25113e-17
5204.99826 1.15785e-17
5206.49590 1.09692e-17
5208.00372 1.07161e-17
5209.50136 1.11999e-17
5210.99899 1.20822e-17
5212.49663 1.16543e-17
5214.00445 1.11372e-17
5215.50209 1.09601e-17
5216.99972 1.25724e-17
5218.49736 1.20016e-17
5219.99500 1.14432e-17
5221.50282 1.08118e-17
5223.00046 9.76733e-18
5224.49809 9.66782e-18
5225.99573 1.09520e-17
5227.50355 1.14895e-17
5229.00119 1.09648e-17
5230.49882 1.12031e-17
5231.99646 1.31690e-17
5233.50428 1.39286e-17
5235.00192 1.33193e-17
5236.49956 1.10983e-17
5237.99719 1.18071e-17
5239.49483 1.28529e-17
5241.00265 1.50385e-17
5242.50029 1.32675e-17
5243.99792 1.18909e-17
5245.49556 1.20647e-17
5247.00338 1.19532e-17
5248.50102 1.16210e-17
5249.99866 1.01946e-17
5251.49629 9.78483e-18
5253.00412 1.15502e-17
5254.50175 1.27909e-17
5255.99939 1.32355e-17
5257.49702 1.39807e-17
5259.00485 1.48019e-17
5260.50248 1.35252e-17
5262.00012 1.18530e-17
5263.49776 1.32811e-17
5264.99539 1.33820e-17
5266.50322 1.43423e-17
5268.00085 1.41323e-17
5269.49849 1.29673e-17
5270.99612 1.16327e-17
5272.50395 1.38273e-17
5274.00158 1.44914e-17
5275.49922 1.29467e-17
5276.99686 1.10573e-17
5278.50468 1.26456e-17
5280.00232 1.40193e-17
5281.49995 1.24460e-17
5282.99759 1.36427e-17
5284.49522 1.46588e-17
5286.00305 1.20701e-17
5287.50068 1.03590e-17
5288.99832 1.24713e-17
5290.49596 1.31658e-17
5292.00378 1.30879e-17
5293.50142 1.35765e-17
5294.99905 1.39102e-17
5296.49669 1.56567e-17
5298.00451 1.60695e-17
5299.50215 1.50049e-17
5300.99978 1.42796e-17
5302.49742 1.31555e-17
5303.99506 1.26831e-17
5305.50288 1.55985e-17
5307.00052 1.40089e-17
5308.49815 1.18277e-17
5309.99579 1.27561e-17
5311.50361 1.46519e-17
5313.00125 1.39875e-17
5314.49888 1.32440e-17
5315.99652 1.23895e-17
5317.50434 1.28366e-17
5319.00198 1.35677e-17
5320.49962 1.40477e-17
5321.99725 1.50187e-17
5323.50508 1.38017e-17
5325.00271 1.36807e-17
5326.50035 1.36719e-17
5327.99798 1.30169e-17
5329.49562 1.50329e-17
5331.00344 1.56549e-17
5332.50108 1.58007e-17
5333.99872 1.46081e-17
5335.49635 1.44764e-17
5337.00418 1.61177e-17
5338.50181 1.60934e-17
5339.99945 1.47601e-17
5341.49708 1.52147e-17
5343.00491 1.54050e-17
5344.50254 1.64944e-17
5346.00018 1.64881e-17
5347.49782 1.49251e-17
5348.99545 1.46665e-17
5350.50328 1.63373e-17
5352.00091 1.71707e-17
5353.49855 1.66775e-17
5354.99618 1.57398e-17
5356.50401 1.51720e-17
5358.00164 1.54443e-17
5359.49928 1.52644e-17
5360.99692 1.40185e-17
5362.50474 1.52257e-17
5364.00238 1.63689e-17
5365.50001 1.55611e-17
5366.99765 1.48415e-17
5368.49528 1.38802e-17
5370.00311 1.36560e-17
5371.50074 1.40350e-17
5372.99838 1.59371e-17
5374.49602 1.62849e-17
5376.00384 1.50986e-17
5377.50148 1.46683e-17
5378.99911 1.45983e-17
5380.49675 1.42993e-17
5382.00457 1.40633e-17
5383.50221 1.55871e-17
5384.99984 1.66334e-17
5386.49748 1.70551e-17
5387.99512 1.56212e-17
5389.50294 1.58804e-17
5391.00058 1.50618e-17
5392.49821 1.41443e-17
5393.99585 1.39772e-17
5395.50367 1.56121e-17
5397.00131 1.52003e-17
5398.49894 1.58226e-17
5399.99658 1.53582e-17
5401.50440 1.44227e-17
5403.00204 1.62802e-17
5404.49968 1.56048e-17
5405.99731 1.47548e-17
5407.49495 1.42834e-17
5409.00277 1.64050e-17
5410.50041 1.62340e-17
5411.99804 1.52337e-17
5413.49568 1.49933e-17
5415.00350 1.47506e-17
5416.50114 1.55608e-17
5417.99878 1.49962e-17
5419.49641 1.45454e-17
5421.00424 1.50089e-17
5422.50187 1.44988e-17
5423.99951 1.59036e-17
5425.49714 1.69291e-17
5426.99478 1.58725e-17
5428.50260 1.52271e-17
5430.00024 1.43043e-17
5431.49788 1.50382e-17
5432.99551 1.70954e-17
5434.50334 1.68121e-17
5436.00097 1.55091e-17
5437.49861 1.50699e-17
5438.99624 1.48830e-17
5440.50407 1.50402e-17
5442.00170 1.60150e-17
5443.49934 1.50431e-17
5444.99698 1.40103e-17
5446.50480 1.52719e-17
5448.00244 1.55113e-17
5449.50007 1.55553e-17
5450.99771 1.57797e-17
5452.49534 1.65319e-17
5454.00317 1.69937e-17
5455.50080 1.70920e-17
5456.99844 1.69100e-17
5458.49608 1.68159e-17
5460.00390 1.71112e-17
5461.50154 1.54004e-17
5462.99917 1.41785e-17
5464.49681 1.37312e-17
5466.00463 1.53553e-17
5467.50227 1.73338e-17
5468.99990 1.76510e-17
5470.49754 1.57096e-17
5471.99518 1.51112e-17
5473.50300 1.81936e-17
5475.00064 1.68306e-17
5476.49827 1.57175e-17
5477.99591 1.57200e-17
5479.50373 1.66845e-17
5481.00137 1.73958e-17
5482.49900 1.75714e-17
5483.99664 1.78674e-17
5485.50446 1.84838e-17
5487.00210 1.68585e-17
5488.49974 1.70151e-17
5489.99737 1.79433e-17
5491.49501 1.73109e-17
5493.00283 1.66534e-17
5494.50047 1.83152e-17
5495.99810 1.76991e-17
5497.49574 1.71594e-17
5499.00356 1.83843e-17
5500.50120 1.86399e-17
5501.99884 1.68465e-17
5503.49647 1.75138e-17
5505.00430 1.78173e-17
5506.50193 1.65860e-17
5507.99957 1.76451e-17
5509.49720 1.87489e-17
5511.00503 1.84091e-17
5512.50266 1.88594e-17
5514.00030 1.83891e-17
5515.49794 1.85328e-17
5516.99557 1.92520e-17
5518.50340 1.83941e-17
5520.00103 1.68370e-17
5521.49867 1.86915e-17
5522.99630 1.91287e-17
5524.50413 1.86362e-17
5526.00176 1.80416e-17
5527.49940 1.75906e-17
5528.99704 1.86219e-17
5530.50486 1.84412e-17
5532.00250 1.93023e-17
5533.50013 2.13029e-17
5534.99777 1.99929e-17
5536.49540 1.93780e-17
5538.00323 1.99903e-17
5539.50086 1.80483e-17
5540.99850 1.80476e-17
5542.49614 1.86445e-17
5544.00396 1.89844e-17
5545.50160 1.90174e-17
5546.99923 2.05333e-17
5548.49687 1.99385e-17
5550.00469 2.05043e-17
5551.50233 1.82259e-17
5552.99996 1.78536e-17
5554.49760 2.01788e-17
5555.99524 1.91227e-17
5557.50306 2.15797e-17
5559.00070 2.08753e-17
5560.49833 1.87008e-17
5561.99597 1.97324e-17
5563.50379 1.86133e-17
5565.00143 1.78950e-17
5566.49906 1.74053e-17
5567.99670 1.57792e-17
5569.50452 1.63280e-17
5571.00216 1.83705e-17
5572.49980 2.09809e-17
5573.99743 2.00157e-17
5575.49507 2.03069e-17
5577.00289 1.97513e-17
5578.50053 1.57614e-17
5579.99816 1.37741e-17
5581.49580 1.64294e-17
5583.00362 1.81160e-17
5584.50126 1.69030e-17
5585.99890 1.84479e-17
5587.49653 1.80996e-17
5589.00436 1.76824e-17
5590.50199 1.72653e-17
5591.99963 1.74395e-17
5593.49726 1.72729e-17
5594.99490 1.67584e-17
5596.50272 1.76543e-17
5598.00036 1.65237e-17
5599.49800 1.66906e-17
5600.99563 1.61325e-17
5602.50346 1.70739e-17
5604.00109 1.72121e-17
5605.49873 1.75432e-17
5606.99636 1.76607e-17
5608.50419 1.59958e-17
5610.00182 1.52364e-17
5611.49946 1.53612e-17
5612.99710 1.54928e-17
5614.50492 1.51282e-17
5616.00256 1.53776e-17
5617.50019 1.56911e-17
5618.99783 1.50566e-17
5620.49546 1.71950e-17
5622.00329 1.70533e-17
5623.50092 1.63759e-17
5624.99856 1.69406e-17
5626.49620 1.61462e-17
5628.00402 1.67631e-17
5629.50166 1.70976e-17
5630.99929 1.69315e-17
5632.49693 1.64396e-17
5634.00475 1.56724e-17
5635.50239 1.54813e-17
5637.00002 1.48643e-17
5638.49766 1.50927e-17
5639.99530 1.61039e-17
5641.50312 1.54335e-17
5643.00076 1.42701e-17
5644.49839 1.41325e-17
5645.99603 1.46404e-17
5647.50385 1.49706e-17
5649.00149 1.49668e-17
5650.49912 1.45756e-17
5651.99676 1.47201e-17
5653.50458 1.53830e-17
5655.00222 1.63828e-17
5656.49986 1.68543e-17
5657.99749 1.52401e-17
5659.49513 1.50003e-17
5661.00295 1.50478e-17
5662.50059 1.60029e-17
5663.99822 1.62480e-17
5665.49586 1.47710e-17
5667.00368 1.37181e-17
5668.50132 1.35097e-17
5669.99896 1.47309e-17
5671.49659 1.49806e-17
5673.00442 1.46083e-17
5674.50205 1.63069e-17
5675.99969 1.50081e-17
5677.49732 1.44299e-17
5679.00515 1.47580e-17
5680.50278 1.41104e-17
5682.00042 1.66398e-17
5683.49806 1.62174e-17
5684.99569 1.64602e-17
5686.50352 1.62687e-17
5688.00115 1.43457e-17
5689.49879 1.36140e-17
5690.99642 1.31004e-17
5692.50425 1.31637e-17
5694.00188 1.45881e-17
5695.49952 1.35522e-17
5696.99716 1.30058e-17
5698.50498 1.38507e-17
5700.00262 1.34776e-17
5701.50025 1.50391e-17
5702.99789 1.47361e-17
5704.49552 1.34829e-17
5706.00335 1.20665e-17
5707.50098 1.26972e-17
5708.99862 1.40604e-17
5710.49626 1.37582e-17
5712.00408 1.13632e-17
5713.50172 1.10356e-17
5714.99935 1.32882e-17
5716.49699 1.37885e-17
5718.00481 1.36887e-17
5719.50245 1.45334e-17
5721.00008 1.41619e-17
5722.49772 1.28887e-17
5723.99536 1.28687e-17
5725.50318 1.27251e-17
5727.00082 1.34790e-17
5728.49845 1.47182e-17
5729.99609 1.48658e-17
5731.50391 1.32709e-17
5733.00155 1.29439e-17
5734.49918 1.56398e-17
5735.99682 1.47659e-17
5737.50464 1.12734e-17
5739.00228 1.14928e-17
5740.49992 1.35596e-17
5741.99755 1.31227e-17
5743.49519 1.25073e-17
5745.00301 1.35460e-17
5746.50065 1.42520e-17
5747.99828 1.25395e-17
5749.49592 1.03083e-17
5751.00374 9.98107e-18
5752.50138 1.11350e-17
5753.99902 1.12173e-17
5755.49665 1.09682e-17
5757.00448 1.33176e-17
5758.50211 1.21689e-17
5759.99975 1.18047e-17
5761.49738 1.22103e-17
5762.99502 1.10174e-17
5764.50284 1.14621e-17
5766.00048 1.11229e-17
5767.49812 1.02758e-17
5768.99575 1.09690e-17
5770.50358 1.09350e-17
5772.00121 1.21707e-17
5773.49885 1.33761e-17
5774.99648 1.41214e-17
5776.50431 1.26080e-17
5778.00194 1.18304e-17
5779.49958 1.22917e-17
5780.99722 1.20814e-17
5782.49485 1.25166e-17
5784.00268 1.28383e-17
5785.50031 1.32258e-17
5786.99795 1.31003e-17
5788.49558 1.18480e-17
5790.00341 1.11284e-17
5791.50104 1.17813e-17
5792.99868 1.31185e-17
5794.49632 1.15040e-17
5796.00414 1.14356e-17
5797.50178 1.22795e-17
5798.99941 1.25643e-17
5800.49705 1.23593e-17
5802.00487 1.25501e-17
5803.50251 1.33380e-17
5805.00014 1.28379e-17
5806.49778 1.33693e-17
5807.99542 1.19977e-17
5809.50324 1.10170e-17
5811.00088 1.11050e-17
5812.49851 1.12593e-17
5813.99615 1.25898e-17
5815.50397 1.31184e-17
5817.00161 1.39356e-17
5818.49924 1.34519e-17
5819.99688 1.25287e-17
5821.50470 1.29078e-17
5823.00234 1.34934e-17
5824.49998 1.27432e-17
5825.99761 1.19301e-17
5827.49525 1.39501e-17
5829.00307 1.43862e-17
5830.50071 1.24359e-17
5831.99834 1.29813e-17
5833.49598 1.35560e-17
5835.00380 1.26474e-17
5836.50144 1.36566e-17
5837.99908 1.32985e-17
5839.49671 1.27708e-17
5841.00454 1.18749e-17
5842.50217 1.18062e-17
5843.99981 1.46801e-17
5845.49744 1.40396e-17
5846.99508 1.26154e-17
5848.50290 1.38511e-17
5850.00054 1.46628e-17
5851.49818 1.50555e-17
5852.99581 1.41673e-17
5854.50364 1.20213e-17
5856.00127 1.09963e-17
5857.49891 1.30405e-17
5858.99654 1.21304e-17
5860.50437 1.12908e-17
5862.00200 1.34848e-17
5863.49964 1.34573e-17
5864.99728 1.19272e-17
5866.50510 1.41611e-17
5868.00274 1.33936e-17
5869.50037 1.19780e-17
5870.99801 1.30311e-17
5872.49564 1.26955e-17
5874.00347 1.24199e-17
5875.50110 1.30563e-17
5876.99874 1.22894e-17
5878.49638 1.21284e-17
5880.00420 1.33926e-17
5881.50184 1.41594e-17
5882.99947 1.42192e-17
5884.49711 1.47413e-17
5886.00493 1.26939e-17
5887.50257 1.51816e-17
5889.00020 1.36774e-17
5890.49784 1.37013e-17
5891.99548 1.17493e-17
5893.50330 1.24503e-17
5895.00094 1.33379e-17
5896.49857 1.42224e-17
5897.99621 1.21521e-17
5899.50403 1.11638e-17
5901.00167 1.16560e-17
5902.49930 1.04751e-17
5903.99694 1.31765e-17
5905.50476 1.42623e-17
5907.00240 1.37427e-17
5908.50004 1.38590e-17
5909.99767 1.54082e-17
5911.49531 1.44131e-17
5913.00313 1.48849e-17
5914.50077 1.42672e-17
5915.99840 1.31713e-17
5917.49604 1.30234e-17
5919.00386 1.29442e-17
5920.50150 1.33246e-17
5921.99914 1.43313e-17
5923.49677 1.35035e-17
5925.00460 1.23553e-17
5926.50223 1.31304e-17
5927.99987 1.37249e-17
5929.49750 1.38682e-17
5930.99514 1.39925e-17
5932.50296 1.36800e-17
5934.00060 1.25373e-17
5935.49824 1.32737e-17
5936.99587 1.31235e-17
5938.50370 1.24644e-17
5940.00133 1.31961e-17
5941.49897 1.40589e-17
5942.99660 1.49479e-17
5944.50443 1.35332e-17
5946.00206 1.33097e-17
5947.49970 1.49960e-17
5948.99734 1.46447e-17
5950.49497 1.40746e-17
5952.00280 1.39668e-17
5953.50043 1.35205e-17
5954.99807 1.23255e-17
5956.49570 1.23469e-17
5958.00353 1.23683e-17
5959.50116 1.23897e-17
5960.99880 1.24110e-17
5962.49644 1.24324e-17
5964.00426 1.24538e-17
5965.50190 1.24752e-17
5966.99953 1.24966e-17
5968.49717 1.25180e-17
5969.99480 1.25394e-17
5971.50263 1.25607e-17
5973.00026 1.25821e-17
5974.49790 1.26035e-17
5975.99554 1.26249e-17
5977.50336 1.26462e-17
5979.00100 1.26676e-17
5980.49863 1.26890e-17
5981.99627 1.27104e-17
5983.50409 1.27317e-17
5985.00173 1.27531e-17
5986.49936 1.27745e-17
5987.99700 1.27959e-17
5989.50482 1.28172e-17
5991.00246 1.28386e-17
5992.50010 1.28600e-17
5993.99773 1.28813e-17
5995.49537 1.29027e-17
5997.00319 1.29241e-17
5998.50083 1.29454e-17
5999.99846 1.29668e-17
6001.49610 1.29881e-17
6003.00392 1.30095e-17
6004.50156 1.30309e-17
6005.99920 1.30522e-17
6007.49683 1.30736e-17
6009.00466 1.30949e-17
6010.50229 1.31163e-17
6011.99993 1.31376e-17
6013.49756 1.31590e-17
6014.99520 1.31803e-17
6016.50302 1.32017e-17
6018.00066 1.32230e-17
6019.49830 1.28025e-17
6020.99593 1.16922e-17
6022.50376 1.26764e-17
6024.00139 1.09581e-17
6025.49903 1.16141e-17
6026.99666 1.34956e-17
6028.50449 1.15740e-17
6030.00212 1.17607e-17
6031.49976 1.32382e-17
6032.99740 1.37242e-17
6034.49503 1.33509e-17
6036.00286 1.30439e-17
6037.50049 1.28306e-17
6038.99813 9.77487e-18
6040.49576 1.04850e-17
6042.00359 1.12872e-17
6043.50122 1.26728e-17
6044.99886 1.03177e-17
6046.49650 1.08967e-17
6048.00432 1.13469e-17
6049.50196 9.95564e-18
6050.99959 1.00038e-17
6052.49723 1.11924e-17
6054.00505 1.16680e-17
6055.50269 1.12479e-17
6057.00032 1.09791e-17
6058.49796 1.12025e-17
6059.99560 1.19820e-17
6061.50342 1.17856e-17
6063.00106 1.04015e-17
6064.49869 9.71954e-18
6065.99633 1.03713e-17
6067.50415 1.26861e-17
6069.00179 1.34005e-17
6070.49942 1.33239e-17
6071.99706 1.23053e-17
6073.50488 1.09743e-17
6075.00252 7.81103e-18
6076.50016 8.32716e-18
6077.99779 1.22462e-17
6079.49543 1.18110e-17
6081.00325 1.05131e-17
6082.50089 1.03840e-17
6083.99852 1.11841e-17
6085.49616 1.12505e-17
6087.00398 1.02970e-17
6088.50162 1.13174e-17
6089.99926 1.19890e-17
6091.49689 1.20535e-17
6093.00472 1.28864e-17
6094.50235 1.31571e-17
6095.99999 1.23140e-17
6097.49762 1.07448e-17
6098.99526 1.05211e-17
6100.50308 1.07129e-17
6102.00072 1.09740e-17
6103.49836 1.12678e-17
6104.99599 1.29835e-17
6106.50382 1.12855e-17
6108.00145 1.10236e-17
6109.49909 1.10674e-17
6110.99672 1.15007e-17
6112.50455 1.09807e-17
6114.00218 1.17029e-17
6115.49982 1.05930e-17
6116.99746 1.14526e-17
6118.49509 1.19897e-17
6120.00292 1.24710e-17
6121.50055 1.17820e-17
6122.99819 1.11687e-17
6124.49582 1.28327e-17
6126.00365 1.25881e-17
6127.50128 1.16798e-17
6128.99892 1.09660e-17
6130.49656 1.03580e-17
6132.00438 1.06489e-17
6133.50202 1.09611e-17
6134.99965 1.14369e-17
6136.49729 1.15000e-17
6137.99492 1.11984e-17
6139.50275 1.14095e-17
6141.00038 1.21995e-17
6142.49802 1.21058e-17
6143.99566 1.22997e-17
6145.50348 1.21522e-17
6147.00112 1.19795e-17
6148.49875 1.14967e-17
6149.99639 1.06424e-17
6151.50421 1.15668e-17
6153.00185 1.23280e-17
6154.49948 1.18397e-17
6155.99712 1.15829e-17
6157.50494 1.18501e-17
6159.00258 1.19463e-17
6160.50022 1.18717e-17
6161.99785 1.20787e-17
6163.49549 1.18207e-17
6165.00331 1.17815e-17
6166.50095 1.19024e-17
6167.99858 1.12674e-17
6169.49622 1.14197e-17
6171.00404 1.19472e-17
6172.50168 1.11273e-17
6173.99932 1.23558e-17
6175.49695 1.19322e-17
6177.00478 1.11156e-17
6178.50241 1.31575e-17
6180.00005 1.26635e-17
6181.49768 1.15062e-17
6182.99532 1.25719e-17
6184.50314 1.35697e-17
6186.00078 1.22838e-17
6187.49842 1.16482e-17
6188.99605 1.21420e-17
6190.50388 1.23769e-17
6192.00151 1.25918e-17
6193.49915 1.19029e-17
6194.99678 1.08127e-17
6196.50461 1.23630e-17
6198.00224 1.30807e-17
6199.49988 1.20845e-17
6200.99752 1.19727e-17
6202.49515 1.20757e-17
6204.00298 1.17731e-17
6205.50061 1.10943e-17
6206.99825 1.12856e-17
6208.49588 1.27877e-17
6210.00371 1.27920e-17
6211.50134 1.22525e-17
6212.99898 1.13986e-17
6214.49662 1.11371e-17
6216.00444 1.10719e-17
6217.50208 1.18065e-17
6218.99971 1.28047e-17
6220.49735 1.18236e-17
6221.99498 1.13118e-17
6223.50281 1.20652e-17
6225.00044 1.33033e-17
6226.49808 1.43234e-17
6227.99572 1.35558e-17
6229.50354 1.16791e-17
6231.00118 1.12669e-17
6232.49881 1.25717e-17
6233.99645 1.17612e-17
6235.50427 1.16524e-17
6237.00191 1.16531e-17
6238.49954 1.23552e-17
6239.99718 1.19115e-17
6241.50500 1.36091e-17
6243.00264 1.33666e-17
6244.50028 1.40949e-17
6245.99791 1.43102e-17
6247.49555 1.09212e-17
6249.00337 1.27587e-17
6250.50101 1.29521e-17
6251.99864 9.66879e-18
6253.49628 1.15472e-17
6255.00410 1.13198e-17
6256.50174 1.10896e-17
6257.99938 1.04437e-17
6259.49701 1.06771e-17
6261.00484 1.11937e-17
6262.50247 1.21946e-17
6264.00011 1.12806e-17
6265.49774 9.93944e-18
6266.99538 1.14950e-17
6268.50320 1.21619e-17
6270.00084 1.16401e-17
6271.49848 1.28809e-17
6272.99611 1.28975e-17
6274.50394 1.20169e-17
6276.00157 1.12738e-17
6277.49921 9.86533e-18
6278.99684 9.40210e-18
6280.50467 1.06274e-17
6282.00230 1.01882e-17
6283.49994 1.07963e-17
6284.99758 1.12610e-17
6286.49521 1.10148e-17
6288.00304 1.14368e-17
6289.50067 1.19115e-17
6290.99831 1.13548e-17
6292.49594 1.13548e-17
6294.00377 9.18970e-18
6295.50140 9.41753e-18
6296.99904 1.20765e-17
6298.49668 8.50836e-18
6300.00450 9.50756e-18
6301.50214 1.20174e-17
6302.99977 1.39678e-17
6304.49741 1.50932e-17
6305.99504 1.04809e-17
6307.50287 8.61034e-18
6309.00050 9.22405e-18
6310.49814 9.76748e-18
6311.99578 1.06879e-17
6313.50360 8.98983e-18
6315.00124 1.01598e-17
6316.49887 9.55739e-18
6317.99651 8.70856e-18
6319.50433 1.06050e-17
6321.00197 1.17789e-17
6322.49960 9.85451e-18
6323.99724 8.80602e-18
6325.49488 9.28637e-18
6327.00270 9.30546e-18
6328.50034 9.95832e-18
6329.99797 1.04345e-17
6331.49561 1.00628e-17
6333.00343 8.60907e-18
6334.50107 8.86636e-18
6335.99870 8.99492e-18
6337.49634 9.99512e-18
6339.00416 1.03804e-17
6340.50180 1.05391e-17
6341.99944 1.05580e-17
6343.49707 1.03452e-17
6345.00490 1.05191e-17
6346.50253 1.01382e-17
6348.00017 1.05970e-17
6349.49780 9.92573e-18
6350.99544 9.33708e-18
6352.50326 1.06589e-17
6354.00090 1.11956e-17
6355.49854 1.00204e-17
6356.99617 9.21367e-18
6358.50400 1.03764e-17
6360.00163 1.00367e-17
6361.49927 9.10988e-18
6362.99690 1.10230e-17
6364.50473 1.24724e-17
6366.00236 1.08650e-17
6367.50000 9.76384e-18
6368.99764 1.00784e-17
6370.49527 9.91096e-18
6372.00310 1.03509e-17
6373.50073 1.00531e-17
6374.99837 1.07047e-17
6376.49600 1.17873e-17
6378.00383 1.07030e-17
6379.50146 1.04487e-17
6380.99910 1.02405e-17
6382.49674 9.88639e-18
6384.00456 9.46025e-18
6385.50220 9.57557e-18
6386.99983 1.06325e-17
6388.49747 1.19705e-17
6389.99510 1.14515e-17
6391.50293 1.16241e-17
6393.00056 1.24649e-17
6394.49820 1.10279e-17
6395.99584 1.00357e-17
6397.50366 1.01882e-17
6399.00130 1.06679e-17
6400.49893 1.12275e-17
6401.99657 1.24968e-17
6403.50439 1.14518e-17
6405.00203 1.22345e-17
6406.49966 1.38635e-17
6407.99730 1.26787e-17
6409.49494 1.15146e-17
6411.00276 1.19677e-17
6412.50040 1.25537e-17
6413.99803 1.33307e-17
6415.49567 1.27318e-17
6417.00349 1.22562e-17
6418.50113 1.19706e-17
6419.99876 1.20991e-17
6421.49640 1.38812e-17
6423.00422 1.37684e-17
6424.50186 1.21615e-17
6425.99950 1.22534e-17
6427.49713 1.16932e-17
6429.00496 1.23024e-17
6430.50259 1.25489e-17
6432.00023 1.17775e-17
6433.49786 1.18479e-17
6434.99550 1.16688e-17
6436.50332 1.11703e-17
6438.00096 1.06264e-17
6439.49860 1.24963e-17
6440.99623 1.39855e-17
6442.50406 1.25746e-17
6444.00169 1.09741e-17
6445.49933 1.15304e-17
6446.99696 1.32493e-17
6448.50479 1.20175e-17
6450.00242 1.08059e-17
6451.50006 1.30380e-17
6452.99770 1.25857e-17
6454.49533 1.30657e-17
6456.00316 1.34158e-17
6457.50079 1.31115e-17
6458.99843 1.37796e-17
6460.49606 1.14670e-17
6462.00389 1.26433e-17
6463.50152 1.25130e-17
6464.99916 1.18263e-17
6466.49680 1.26692e-17
6468.00462 1.26737e-17
6469.50226 1.25372e-17
6470.99989 1.24689e-17
6472.49753 1.21944e-17
6473.99516 1.20667e-17
6475.50299 1.53819e-17
6477.00062 1.44430e-17
6478.49826 1.35613e-17
6479.99590 1.20204e-17
6481.50372 1.25335e-17
6483.00136 1.40584e-17
6484.49899 1.38931e-17
6485.99663 1.28042e-17
6487.50445 1.32170e-17
6489.00209 1.50977e-17
6490.49972 1.47092e-17
6491.99736 1.32307e-17
6493.49500 1.28536e-17
6495.00282 1.38501e-17
6496.50046 1.35684e-17
6497.99809 1.31267e-17
6499.49573 1.43645e-17
6501.00355 1.30232e-17
6502.50119 1.21709e-17
6503.99882 1.27520e-17
6505.49646 1.35109e-17
6507.00428 1.38939e-17
6508.50192 1.37503e-17
6509.99956 1.32923e-17
6511.49719 1.20578e-17
6512.99483 1.37567e-17
6514.50265 1.38038e-17
6516.00029 1.29717e-17
6517.49792 1.32649e-17
6518.99556 1.31237e-17
6520.50338 1.42150e-17
6522.00102 1.39556e-17
6523.49866 1.39603e-17
6524.99629 1.35840e-17
6526.50412 1.29310e-17
6528.00175 1.32589e-17
6529.49939 1.50846e-17
6530.99702 1.57265e-17
6532.50485 1.45391e-17
6534.00248 1.52006e-17
6535.50012 1.25703e-17
6536.99776 1.31746e-17
6538.49539 1.45636e-17
6540.00322 1.31784e-17
6541.50085 1.36449e-17
6542.99849 1.30675e-17
6544.49612 1.34051e-17
6546.00395 1.34235e-17
6547.50158 1.24938e-17
6548.99922 1.24145e-17
6550.49686 1.34556e-17
6552.00468 1.27977e-17
6553.50232 1.32843e-17
6554.99995 1.33375e-17
6556.49759 1.31164e-17
6557.99522 1.49277e-17
6559.50305 1.59619e-17
6561.00068 1.38033e-17
6562.49832 1.36395e-17
6563.99596 1.38730e-17
6565.50378 1.31917e-17
6567.00142 1.33248e-17
6568.49905 1.23484e-17
6569.99669 1.24792e-17
6571.50451 1.24937e-17
6573.00215 1.11959e-17
6574.49978 1.13254e-17
6575.99742 1.29904e-17
6577.49506 1.24288e-17
6579.00288 1.23559e-17
6580.50052 1.37963e-17
6581.99815 1.33793e-17
6583.49579 1.29458e-17
6585.00361 1.34738e-17
6586.50125 1.39450e-17
6587.99888 1.31385e-17
6589.49652 1.19330e-17
6591.00434 1.26519e-17
6592.50198 1.28455e-17
6593.99962 1.20410e-17
6595.49725 1.20950e-17
6596.99489 1.20217e-17
6598.50271 1.27625e-17
6600.00035 1.22445e-17
6601.49798 1.24076e-17
6602.99562 1.36067e-17
6604.50344 1.27028e-17
6606.00108 1.33922e-17
6607.49872 1.18270e-17
6608.99635 1.08274e-17
6610.50418 1.28411e-17
6612.00181 1.23618e-17
6613.49945 1.13678e-17
6614.99708 1.23880e-17
6616.50491 1.19362e-17
6618.00254 1.24022e-17
6619.50018 1.33613e-17
6620.99782 1.37263e-17
6622.49545 1.13112e-17
6624.00328 1.00557e-17
6625.50091 1.08781e-17
6626.99855 1.13872e-17
6628.49618 1.26495e-17
6630.00401 1.19777e-17
6631.50164 1.10289e-17
6632.99928 1.11001e-17
6634.49692 1.16651e-17
6636.00474 1.34009e-17
6637.50238 1.44165e-17
6639.00001 1.44191e-17
6640.49765 1.41780e-17
6641.99528 1.39375e-17
6643.50311 1.40827e-17
6645.00074 1.30109e-17
6646.49838 1.34693e-17
6647.99602 1.29706e-17
6649.50384 1.22054e-17
6651.00148 1.18526e-17
6652.49911 1.19537e-17
6653.99675 1.19544e-17
6655.50457 1.19551e-17
6657.00221 1.19559e-17
6658.49984 1.19566e-17
6659.99748 1.19573e-17
6661.49512 1.19580e-17
6663.00294 1.19587e-17
6664.50058 1.19594e-17
6665.99821 1.19601e-17
6667.49585 1.19608e-17
6669.00367 1.19615e-17
6670.50131 1.19622e-17
6671.99894 1.19629e-17
6673.49658 1.19636e-17
6675.00440 1.19643e-17
6676.50204 1.19650e-17
6677.99968 1.19657e-17
6679.49731 1.19664e-17
6680.99495 1.19671e-17
6682.50277 1.19678e-17
6684.00041 1.19685e-17
6685.49804 1.19692e-17
6686.99568 1.19699e-17
6688.50350 1.19706e-17
6690.00114 1.19713e-17
6691.49878 1.19448e-17
6692.99641 1.19184e-17
6694.50424 1.18919e-17
6696.00187 1.18654e-17
6697.49951 1.18390e-17
6698.99714 1.18125e-17
6700.49478 1.17861e-17
6702.00260 1.17596e-17
6703.50024 1.17332e-17
6704.99788 1.17067e-17
6706.49551 1.16803e-17
6708.00334 1.16539e-17
6709.50097 1.16274e-17
6710.99861 1.16010e-17
6712.49624 1.15745e-17
6714.00407 1.15481e-17
6715.50170 1.15217e-17
6716.99934 1.14952e-17
6718.49698 1.14688e-17
6720.00480 1.14424e-17
6721.50244 1.14159e-17
6723.00007 1.13895e-17
6724.49771 1.13631e-17
6725.99534 1.13366e-17
6727.50317 1.09530e-17
6729.00080 1.03768e-17
6730.49844 1.11161e-17
6731.99608 1.00670e-17
6733.50390 1.04302e-17
6735.00154 1.16883e-17
6736.49917 1.15708e-17
6737.99681 1.12400e-17
6739.50463 1.10127e-17
6741.00227 1.17645e-17
6742.49990 1.28699e-17
6743.99754 9.90582e-18
6745.49518 9.57802e-18
6747.00300 9.64014e-18
6748.50064 1.08478e-17
6749.99827 1.15973e-17
6751.49591 1.26626e-17
6753.00373 1.19259e-17
6754.50137 1.10542e-17
6755.99900 1.17283e-17
6757.49664 1.18283e-17
6759.00446 1.05756e-17
6760.50210 1.09896e-17
6761.99974 1.21114e-17
6763.49737 1.22187e-17
6764.99501 1.21217e-17
6766.50283 1.22008e-17
6768.00047 1.08891e-17
6769.49810 9.48467e-18
6770.99574 9.31042e-18
6772.50356 9.32471e-18
6774.00120 1.02270e-17
6775.49884 1.16873e-17
6776.99647 1.08046e-17
6778.50430 9.74424e-18
6780.00193 9.91103e-18
6781.49957 1.12452e-17
6782.99720 1.16033e-17
6784.50503 1.04303e-17
6786.00266 9.74587e-18
6787.50030 9.71086e-18
6788.99794 9.66799e-18
6790.49557 1.03647e-17
6792.00340 1.14616e-17
6793.50103 1.06028e-17
6794.99867 9.36170e-18
6796.49630 9.14038e-18
6798.00413 9.88525e-18
6799.50176 1.16349e-17
6800.99940 1.20098e-17
6802.49704 1.04795e-17
6804.00486 1.03961e-17
6805.50250 1.13030e-17
6807.00013 1.01933e-17
6808.49777 9.28081e-18
6809.99540 1.11738e-17
6811.50323 1.05505e-17
6813.00086 8.08290e-18
6814.49850 8.89994e-18
6815.99614 1.04220e-17
6817.50396 9.96492e-18
6819.00160 9.70615e-18
6820.49923 9.14317e-18
6821.99687 1.02633e-17
6823.50469 1.06647e-17
6825.00233 1.06297e-17
6826.49996 1.05947e-17
6827.99760 1.05597e-17
6829.49524 1.05247e-17
6831.00306 1.04897e-17
6832.50070 1.04547e-17
6833.99833 1.04197e-17
6835.49597 1.03847e-17
6837.00379 1.03497e-17
6838.50143 1.03147e-17
6839.99906 1.02887e-17
6841.49670 1.02626e-17
6843.00452 1.02365e-17
6844.50216 1.02105e-17
6845.99980 1.01844e-17
6847.49743 1.01583e-17
6848.99507 1.01323e-17
6850.50289 1.01062e-17
6852.00053 1.00801e-17
6853.49816 1.00541e-17
6854.99580 1.00280e-17
6856.50362 1.00020e-17
6858.00126 9.97592e-18
6859.49890 9.94987e-18
6860.99653 9.92382e-18
6862.50436 9.89777e-18
6864.00199 9.87172e-18
6865.49963 9.84568e-18
6866.99726 9.81962e-18
6868.49490 9.79358e-18
6870.00272 9.76754e-18
6871.50036 9.74149e-18
6872.99800 9.71545e-18
6874.49563 9.68942e-18
6876.00346 9.66337e-18
6877.50109 8.99362e-18
6878.99873 9.31526e-18
6880.49636 1.08528e-17
6882.00419 9.94211e-18
6883.50182 9.44804e-18
6884.99946 9.50856e-18
6886.49710 7.57432e-18
6888.00492 8.63594e-18
6889.50256 9.47381e-18
6891.00019 8.68389e-18
6892.49783 8.27094e-18
6893.99546 8.71878e-18
6895.50329 1.06617e-17
6897.00092 8.70978e-18
6898.49856 8.64636e-18
6899.99620 8.96509e-18
6901.50402 7.71876e-18
6903.00166 9.41484e-18
6904.49929 1.08319e-17
6905.99693 1.00397e-17
6907.50475 9.29786e-18
6909.00239 7.26413e-18
6910.50002 9.20562e-18
6911.99766 9.32817e-18
6913.49530 1.03727e-17
6915.00312 1.06869e-17
6916.50076 1.05088e-17
6917.99839 1.06783e-17
6919.49603 1.06444e-17
6921.00385 1.13954e-17
6922.50149 1.02753e-17
6923.99912 8.10668e-18
6925.49676 9.37244e-18
6927.00458 9.51596e-18
6928.50222 9.36028e-18
6929.99986 1.08169e-17
6931.49749 9.75809e-18
6932.99513 8.53332e-18
6934.50295 8.63528e-18
6936.00059 9.50912e-18
6937.49822 1.09117e-17
6938.99586 9.13869e-18
6940.50368 7.42710e-18
6942.00132 9.74005e-18
6943.49896 9.71875e-18
6944.99659 1.00278e-17
6946.50442 1.07453e-17
6948.00205 9.25738e-18
6949.49969 8.82000e-18
6950.99732 8.04094e-18
6952.49496 8.23938e-18
6954.00278 9.57599e-18
6955.50042 9.46578e-18
6956.99806 8.36506e-18
6958.49569 9.61834e-18
6960.00352 1.04537e-17
6961.50115 1.00276e-17
6962.99879 9.06658e-18
6964.49642 8.33068e-18
6966.00425 9.56715e-18
6967.50188 9.62863e-18
6968.99952 8.14621e-18
6970.49716 8.49022e-18
6972.00498 8.90955e-18
6973.50262 9.52376e-18
6975.00025 9.66209e-18
6976.49789 8.67497e-18
6977.99552 9.02879e-18
6979.50335 8.93867e-18
6981.00098 1.04014e-17
6982.49862 9.81864e-18
6983.99626 1.05354e-17
6985.50408 1.06842e-17
6987.00172 9.31286e-18
6988.49935 9.79506e-18
6989.99699 1.01973e-17
6991.50481 1.04880e-17
6993.00245 1.06357e-17
6994.50008 9.65484e-18
6995.99772 9.19018e-18
6997.49536 1.02750e-17
6999.00318 9.96691e-18
7000.50082 1.12328e-17
7001.99845 1.15861e-17
7003.49609 9.26673e-18
7005.00391 8.82484e-18
7006.50155 9.55754e-18
7007.99918 1.03675e-17
7009.49682 1.08759e-17
7011.00464 9.91051e-18
7012.50228 8.75087e-18
7013.99992 8.69065e-18
7015.49755 9.72990e-18
7016.99519 9.89326e-18
7018.50301 9.06665e-18
7020.00065 1.00594e-17
7021.49828 9.39600e-18
7022.99592 7.78793e-18
7024.50374 8.83034e-18
7026.00138 9.27178e-18
7027.49902 9.16989e-18
7028.99665 1.04766e-17
7030.50448 1.10740e-17
7032.00211 9.91629e-18
7033.49975 1.01255e-17
7034.99738 1.05647e-17
7036.49502 9.68128e-18
7038.00284 1.00365e-17
7039.50048 9.77247e-18
7040.99812 1.01798e-17
7042.49575 1.11023e-17
7044.00358 1.07498e-17
7045.50121 1.02851e-17
7046.99885 1.01091e-17
7048.49648 1.02369e-17
7050.00431 9.70257e-18
7051.50194 1.01594e-17
7052.99958 9.84298e-18
7054.49722 9.78368e-18
7055.99485 1.04431e-17
7057.50268 9.68324e-18
7059.00031 9.96746e-18
7060.49795 1.05933e-17
7061.99558 9.17292e-18
7063.50341 7.74866e-18
7065.00104 9.36655e-18
7066.49868 1.00905e-17
7067.99632 9.13687e-18
7069.50414 9.29183e-18
7071.00178 9.39191e-18
7072.49941 9.87241e-18
7073.99705 1.07813e-17
7075.50487 1.01967e-17
7077.00251 8.69458e-18
7078.50014 9.08115e-18
7079.99778 9.13832e-18
7081.49542 7.03319e-18
7083.00324 7.89574e-18
7084.50088 9.06824e-18
7085.99851 9.63380e-18
7087.49615 1.02989e-17
7089.00397 9.71548e-18
7090.50161 9.21404e-18
7091.99924 1.00911e-17
7093.49688 9.42296e-18
7095.00470 7.92592e-18
7096.50234 9.94667e-18
7097.99998 1.08638e-17
7099.49761 1.00280e-17
7100.99525 8.64789e-18
7102.50307 8.27605e-18
7104.00071 8.67073e-18
7105.49834 8.72688e-18
7106.99598 8.60189e-18
7108.50380 7.89346e-18
7110.00144 8.36190e-18
7111.49908 1.03071e-17
7112.99671 9.18516e-18
7114.50454 7.70619e-18
7116.00217 8.68620e-18
7117.49981 1.13567e-17
7118.99744 9.53928e-18
7120.49508 7.00351e-18
7122.00290 7.24349e-18
7123.50054 8.39852e-18
7124.99818 9.49270e-18
7126.49581 9.50540e-18
7128.00364 9.22224e-18
7129.50127 8.31800e-18
7130.99891 7.53211e-18
7132.49654 7.79202e-18
7134.00437 8.56874e-18
7135.50200 1.00400e-17
7136.99964 1.03025e-17
7138.49728 7.59257e-18
7139.99491 7.00369e-18
7141.50274 1.02551e-17
7143.00037 1.05423e-17
7144.49801 7.61753e-18
7145.99564 8.79018e-18
7147.50347 1.03545e-17
7149.00110 8.99905e-18
7150.49874 7.85573e-18
7151.99638 9.31281e-18
7153.50420 9.79403e-18
7155.00184 8.20740e-18
7156.49947 7.95196e-18
7157.99711 9.27205e-18
7159.50493 9.45084e-18
7161.00257 1.05935e-17
7162.50020 1.04786e-17
7163.99784 9.16484e-18
7165.49548 8.56045e-18
7167.00330 8.93678e-18
7168.50094 9.61402e-18
7169.99857 9.57152e-18
7171.49621 7.88196e-18
7173.00403 7.91408e-18
7174.50167 9.34912e-18
7175.99930 7.88945e-18
7177.49694 7.94357e-18
7179.00476 8.71791e-18
7180.50240 8.91612e-18
7182.00004 9.51788e-18
7183.49767 1.07972e-17
7184.99531 9.69061e-18
7186.50313 8.96864e-18
7188.00077 9.86453e-18
7189.49840 1.05704e-17
7190.99604 9.39634e-18
7192.50386 8.46407e-18
7194.00150 1.01289e-17
7195.49914 9.70630e-18
7196.99677 1.06472e-17
7198.50460 9.58663e-18
7200.00223 9.65437e-18
7201.49987 9.72212e-18
7202.99750 9.78986e-18
7204.49514 9.85765e-18
7206.00296 9.92538e-18
7207.50060 9.92512e-18
7208.99824 9.98122e-18
7210.49587 1.08945e-17
7212.00370 1.07333e-17
7213.50133 9.82436e-18
7214.99897 8.46863e-18
7216.49660 9.26379e-18
7218.00443 1.00328e-17
7219.50206 9.57243e-18
7220.99970 8.65526e-18
7222.49734 1.03834e-17
7223.99497 1.04487e-17
7225.50280 1.03397e-17
7227.00043 1.01426e-17
7228.49807 1.04095e-17
7229.99570 1.11948e-17
7231.50353 1.01999e-17
7233.00116 1.04035e-17
7234.49880 9.42815e-18
7235.99644 1.05739e-17
7237.50426 1.14345e-17
7239.00190 1.10226e-17
7240.49953 1.14120e-17
7241.99717 1.11187e-17
7243.49480 1.10521e-17
7245.00263 1.07492e-17
7246.50026 9.05668e-18
7247.99790 1.04926e-17
7249.49554 1.16900e-17
7251.00336 1.01160e-17
7252.50100 1.17533e-17
7253.99863 1.09508e-17
7255.49627 9.12550e-18
7257.00409 1.00922e-17
7258.50173 1.04216e-17
7259.99936 9.01133e-18
7261.49700 1.12958e-17
7263.00482 1.15271e-17
7264.50246 9.34505e-18
7266.00010 7.88308e-18
7267.49773 1.03936e-17
7268.99537 1.06015e-17
7270.50319 1.10980e-17
7272.00083 1.04615e-17
7273.49846 1.15988e-17
7274.99610 1.13513e-17
7276.50392 1.27127e-17
7278.00156 1.16920e-17
7279.49920 1.07359e-17
7280.99683 1.08433e-17
7282.50466 1.09764e-17
7284.00229 9.99399e-18
7285.49993 8.91749e-18
7286.99756 9.60577e-18
7288.49520 9.54810e-18
7290.00302 8.79547e-18
7291.50066 9.81924e-18
7292.99830 1.11550e-17
7294.49593 1.13698e-17
7296.00376 1.04832e-17
7297.50139 1.05062e-17
7298.99903 1.00670e-17
7300.49666 1.01419e-17
7302.00449 9.46108e-18
7303.50212 9.37158e-18
7304.99976 1.00751e-17
7306.49740 1.02327e-17
7307.99503 1.13523e-17
7309.50286 8.33848e-18
7311.00049 8.58211e-18
7312.49813 1.13166e-17
7313.99576 1.01990e-17
7315.50359 9.15373e-18
7317.00122 1.24036e-17
7318.49886 1.16279e-17
7319.99650 1.03460e-17
7321.50432 1.22636e-17
7323.00196 1.00500e-17
7324.49959 1.09373e-17
7325.99723 1.16157e-17
7327.49486 9.58370e-18
7329.00269 9.79310e-18
7330.50032 1.02641e-17
7331.99796 9.54345e-18
7333.49560 1.06112e-17
7335.00342 1.24852e-17
7336.50106 1.10874e-17
7337.99869 1.06687e-17
7339.49633 1.17392e-17
7341.00415 1.11317e-17
7342.50179 1.12293e-17
7343.99942 1.16704e-17
7345.49706 9.85989e-18
7347.00488 9.50148e-18
7348.50252 1.04330e-17
7350.00016 1.06819e-17
7351.49779 1.08321e-17
7352.99543 1.09255e-17
7354.50325 1.09156e-17
7356.00089 1.09402e-17
7357.49852 1.13679e-17
7358.99616 1.10599e-17
7360.50398 1.07826e-17
7362.00162 1.14245e-17
7363.49926 1.30235e-17
7364.99689 1.35785e-17
7366.50472 1.18600e-17
7368.00235 1.29568e-17
7369.49999 1.27241e-17
7370.99762 9.60696e-18
7372.49526 8.79687e-18
7374.00308 1.05661e-17
7375.50072 1.18444e-17
7376.99836 1.27243e-17
7378.49599 1.32230e-17
7380.00382 1.11750e-17
7381.50145 1.01437e-17
7382.99909 1.26322e-17
7384.49672 1.38645e-17
7386.00455 1.16458e-17
7387.50218 1.14400e-17
7388.99982 1.32558e-17
7390.49746 1.28010e-17
7391.99509 1.09899e-17
7393.50292 9.52560e-18
7395.00055 1.13500e-17
7396.49819 1.18224e-17
7397.99582 1.15447e-17
7399.50365 1.05977e-17
7401.00128 1.09964e-17
7402.49892 1.18951e-17
7403.99656 1.05218e-17
7405.50438 1.08488e-17
7407.00202 1.07937e-17
7408.49965 1.18958e-17
7409.99729 1.10490e-17
7411.49492 9.57867e-18
7413.00275 9.38164e-18
7414.50038 9.08937e-18
7415.99802 9.43993e-18
7417.49566 1.10133e-17
7419.00348 9.82257e-18
7420.50112 9.26522e-18
7421.99875 1.03103e-17
7423.49639 1.06431e-17
7425.00421 1.06363e-17
7426.50185 1.02204e-17
7427.99948 1.16190e-17
7429.49712 1.16154e-17
7431.00494 1.17404e-17
7432.50258 1.08043e-17
7434.00022 9.81444e-18
7435.49785 1.05188e-17
7436.99549 1.06834e-17
7438.50331 1.09079e-17
7440.00095 1.18444e-17
7441.49858 1.23969e-17
7442.99622 1.09811e-17
7444.50404 9.08131e-18
7446.00168 9.32458e-18
7447.49932 1.03119e-17
7448.99695 1.00917e-17
7450.50478 1.10753e-17
7452.00241 1.18378e-17
7453.50005 1.04969e-17
7454.99768 8.69265e-18
7456.49532 9.26294e-18
7458.00314 1.12648e-17
7459.50078 1.20231e-17
7460.99842 1.21699e-17
7462.49605 1.30564e-17
7464.00388 1.14929e-17
7465.50151 9.70173e-18
7466.99915 1.05342e-17
7468.49678 1.23748e-17
7470.00461 1.17264e-17
7471.50224 1.11055e-17
7472.99988 1.17918e-17
7474.49752 8.46069e-18
7475.99515 8.66206e-18
7477.50298 9.27231e-18
7479.00061 1.02523e-17
7480.49825 1.19304e-17
7481.99588 1.07431e-17
7483.50371 1.13042e-17
7485.00134 1.23889e-17
7486.49898 1.07420e-17
7487.99662 9.82743e-18
7489.50444 1.02734e-17
7491.00208 1.03628e-17
7492.49971 1.05098e-17
7493.99735 9.33326e-18
7495.49498 9.83144e-18
7497.00281 9.17527e-18
7498.50044 8.81474e-18
7499.99808 9.78526e-18
7501.49572 9.74582e-18
7503.00354 9.69625e-18
7504.50118 1.00529e-17
7505.99881 1.01204e-17
7507.49645 8.98674e-18
7509.00427 8.79035e-18
7510.50191 8.65912e-18
7511.99954 8.78336e-18
7513.49718 1.02508e-17
7514.99482 1.07786e-17
7516.50264 9.88716e-18
7518.00028 9.21543e-18
7519.49791 9.92411e-18
7520.99555 1.02311e-17
7522.50337 9.49144e-18
7524.00101 1.00212e-17
7525.49864 1.05059e-17
7526.99628 9.05059e-18
7528.50410 8.74523e-18
7530.00174 7.76589e-18
7531.49938 7.27119e-18
7532.99701 8.81401e-18
7534.50484 8.76015e-18
7536.00247 1.03833e-17
7537.50011 8.37169e-18
7538.99774 7.36646e-18
7540.49538 8.70834e-18
7540.82765 8.70834e-18
7541.68911 8.65147e-18
7542.55058 8.60225e-18
7543.41204 8.55302e-18
7544.27350 8.51018e-18
7545.13496 8.46734e-18
7545.99642 8.42424e-18
7546.86790 8.38111e-18
7547.72936 8.32938e-18
7548.59083 8.27764e-18
7549.45229 8.21725e-18
7550.31375 8.15684e-18
7551.17521 8.09195e-18
7552.03667 8.02706e-18
7552.89814 7.96222e-18
7553.75960 7.89740e-18
7554.62106 7.83762e-18
7555.48252 7.77785e-18
7556.35400 7.72421e-18
7557.21546 7.67059e-18
7558.07693 7.61981e-18
7558.93839 7.56903e-18
7559.79985 7.51831e-18
7560.66131 7.46758e-18
7561.52277 7.41550e-18
7562.38424 7.36341e-18
7563.24570 7.30770e-18
7564.10716 7.25197e-18
7564.96862 7.18761e-18
7565.84010 7.12324e-18
7566.70156 7.05020e-18
7567.56302 6.97716e-18
7568.42449 6.90944e-18
7569.28595 6.84174e-18
7570.14741 6.79102e-18
7571.00887 6.74033e-18
7571.87033 6.70831e-18
7572.73180 6.67632e-18
7573.59326 6.66111e-18
7574.45472 6.64593e-18
7575.31618 6.62634e-18
7576.18766 6.60674e-18
7577.04912 6.55949e-18
7577.91059 6.51219e-18
7578.77205 6.45002e-18
7579.63351 6.38782e-18
7580.49497 6.33107e-18
7581.35643 6.27433e-18
7582.21790 6.21978e-18
7583.07936 6.16525e-18
7583.94082 6.10342e-18
7584.81230 6.04159e-18
7585.67376 5.93824e-18
7586.53522 5.83480e-18
7587.39668 5.64239e-18
7588.25815 5.44979e-18
7589.11961 5.17771e-18
7589.98107 4.90548e-18
7590.84253 4.61045e-18
7591.70399 4.31539e-18
7592.56546 4.05144e-18
7593.42692 3.78756e-18
7594.28838 3.60527e-18
7595.15986 3.42316e-18
7596.02132 3.34779e-18
7596.88278 3.27263e-18
7597.74425 3.27976e-18
7598.60571 3.28705e-18
7599.46717 3.35900e-18
7600.32863 3.43109e-18
7601.19009 3.58125e-18
7602.05156 3.73155e-18
7602.91302 3.96028e-18
7603.77448 4.18915e-18
7604.64596 4.46687e-18
7605.50742 4.74468e-18
7606.36888 5.03607e-18
7607.23034 5.32749e-18
7608.09181 5.59666e-18
7608.95327 5.86579e-18
7609.81473 6.07687e-18
7610.67619 6.28783e-18
7611.53765 6.39061e-18
7612.39912 6.49316e-18
7613.26058 6.44727e-18
7614.13206 6.40109e-18
7614.99352 6.20873e-18
7615.85498 6.01609e-18
7616.71644 5.69997e-18
7617.57791 5.38361e-18
7618.43937 5.03812e-18
7619.30083 4.69258e-18
7620.16229 4.44490e-18
7621.02375 4.19743e-18
7621.88522 4.09570e-18
7622.74668 3.99426e-18
7623.61816 4.02838e-18
7624.47962 4.06277e-18
7625.34108 4.18907e-18
7626.20254 4.31555e-18
7627.06400 4.45378e-18
7627.92547 4.59202e-18
7628.78693 4.69756e-18
7629.64839 4.80303e-18
7630.50985 4.89274e-18
7631.37131 4.98241e-18
7632.23278 5.06725e-18
7633.10426 5.15206e-18
7633.96572 5.23158e-18
7634.82718 5.31109e-18
7635.68864 5.38530e-18
7636.55010 5.45950e-18
7637.41157 5.51379e-18
7638.27303 5.56804e-18
7639.13449 5.59502e-18
7639.99595 5.62195e-18
7640.85741 5.64728e-18
7641.71888 5.67261e-18
7642.59035 5.72173e-18
7643.45182 5.77088e-18
7644.31328 5.85463e-18
7645.17474 5.93843e-18
7646.03620 6.06143e-18
7646.89766 6.18450e-18
7647.75913 6.31356e-18
7648.62059 6.44262e-18
7649.48205 6.53589e-18
7650.34351 6.62908e-18
7651.20497 6.67765e-18
7652.06644 6.72614e-18
7652.93792 6.73466e-18
7653.79938 6.74309e-18
7654.66084 6.74365e-18
7655.52230 6.74421e-18
7656.38376 6.78639e-18
7657.24523 6.82866e-18
7658.10669 6.92048e-18
7658.96815 7.01239e-18
7659.82961 7.12662e-18
7660.69107 7.24089e-18
7661.55254 7.35440e-18
7662.42401 7.46790e-18
7663.28548 7.55973e-18
7664.14694 7.65151e-18
7665.00840 7.72039e-18
7665.86986 7.78923e-18
7666.73132 7.87495e-18
7667.59279 7.96070e-18
7668.45425 8.08171e-18
7669.31571 8.20278e-18
7670.17717 8.32138e-18
7671.03863 8.43995e-18
7671.91011 8.52572e-18
7672.77158 8.61140e-18
7673.63304 8.65878e-18
7674.49450 8.70599e-18
7675.35596 8.71708e-18
7676.21742 8.72808e-18
7677.07889 8.74774e-18
7677.94035 8.76731e-18
7678.80181 8.84031e-18
7679.66327 8.91347e-18
7680.52473 9.01344e-18
7681.38620 9.11340e-18
7682.25767 9.19849e-18
7683.11914 9.28367e-18
7683.98060 9.35381e-18
7684.84206 9.42395e-18
7685.70352 9.49090e-18
7686.56498 9.55785e-18
7687.42645 9.62438e-18
7688.28791 9.69083e-18
7689.14937 9.75786e-18
7690.01083 9.82490e-18
7690.88231 9.88605e-18
7691.74377 9.94720e-18
7692.60524 9.98954e-18
7693.46670 1.00320e-17
7694.32816 1.00587e-17
7695.18962 1.00854e-17
7696.05108 1.01162e-17
7696.91255 1.01470e-17
7697.77401 1.01895e-17
7698.63547 1.02318e-17
7699.49693 1.02757e-17
7700.35839 1.03196e-17
7701.22987 1.03566e-17
7702.09133 1.03937e-17
7702.95280 1.04189e-17
7703.81426 1.04439e-17
7704.67572 1.04537e-17
7705.53718 1.04634e-17
7706.39864 1.04585e-17
7707.26011 1.04536e-17
7708.12157 1.04384e-17
7708.98303 1.04232e-17
7709.84449 1.04153e-17
7710.71597 1.04075e-17
7711.57743 1.04227e-17
7712.43890 1.04379e-17
7713.30036 1.04725e-17
7714.16182 1.05071e-17
7715.02328 1.05524e-17
7715.88474 1.05976e-17
7716.74620 1.06397e-17
7717.60767 1.06819e-17
7718.46913 1.07057e-17
7719.33059 1.07297e-17
7720.20207 1.07343e-17
7721.06353 1.07389e-17
7721.92499 1.07298e-17
7722.78646 1.07206e-17
7723.64792 1.07071e-17
7724.50938 1.06936e-17
7725.37084 1.06883e-17
7726.23230 1.06829e-17
7727.09377 1.06899e-17
7727.95523 1.06969e-17
7728.81669 1.07120e-17
7729.67815 1.07272e-17
7730.54963 1.07497e-17
7731.41109 1.07722e-17
7732.27255 1.08066e-17
7733.13402 1.08410e-17
7733.99548 1.08819e-17
7734.85694 1.09227e-17
7735.71840 1.09480e-17
7736.57986 1.09732e-17
7737.44133 1.09703e-17
7738.30279 1.09673e-17
7739.17427 1.09452e-17
7740.03573 1.09231e-17
7740.89719 1.08937e-17
7741.75865 1.08642e-17
7742.62012 1.08449e-17
7743.48158 1.08255e-17
7744.34304 1.08307e-17
7745.20450 1.08358e-17
7746.06596 1.08557e-17
7746.92743 1.08756e-17
7747.78889 1.08969e-17
7748.65035 1.09183e-17
7749.52183 1.09363e-17
7750.38329 1.09543e-17
7751.24475 1.09656e-17
7752.10621 1.09768e-17
7752.96768 1.09814e-17
7753.82914 1.09858e-17
7754.69060 1.09861e-17
7755.55206 1.09862e-17
7756.41352 1.09792e-17
7757.27499 1.09720e-17
7758.13645 1.09517e-17
7759.00793 1.09315e-17
7759.86939 1.09038e-17
7760.73085 1.08761e-17
7761.59231 1.08550e-17
7762.45378 1.08339e-17
7763.31524 1.08228e-17
7764.17670 1.08115e-17
7765.03816 1.08029e-17
7765.89962 1.07944e-17
7766.76109 1.07828e-17
7767.62255 1.07712e-17
7768.49403 1.07524e-17
7769.35549 1.07335e-17
7770.21695 1.07071e-17
7771.07841 1.06806e-17
7771.93988 1.06556e-17
7772.80134 1.06306e-17
7773.66280 1.06137e-17
7774.52426 1.05967e-17
7775.38572 1.05843e-17
7776.24719 1.05719e-17
7777.10865 1.05613e-17
7777.98013 1.05508e-17
7778.84159 1.05437e-17
7779.70305 1.05366e-17
7780.56451 1.05343e-17
7781.42597 1.05320e-17
7782.28744 1.05342e-17
7783.14890 1.05364e-17
7784.01036 1.05421e-17
7784.87182 1.05478e-17
7785.73328 1.05563e-17
7786.59475 1.05648e-17
7787.46623 1.05750e-17
7788.32769 1.05854e-17
7789.18915 1.05945e-17
7790.05061 1.06036e-17
7790.91207 1.06082e-17
7791.77354 1.06128e-17
7792.63500 1.06111e-17
7793.49646 1.06094e-17
7794.35792 1.06009e-17
7795.21938 1.05923e-17
7796.08085 1.05810e-17
7796.94231 1.05697e-17
7797.81379 1.05627e-17
7798.67525 1.05558e-17
7799.53671 1.05587e-17
7800.39817 1.05618e-17
7801.25963 1.05782e-17
7802.12110 1.05948e-17
7802.98256 1.06220e-17
7803.84402 1.06493e-17
7804.70548 1.06735e-17
7805.56694 1.06978e-17
7806.42841 1.07090e-17
7807.29989 1.07203e-17
7808.16135 1.07197e-17
7809.02281 1.07191e-17
7809.88427 1.07086e-17
7810.74573 1.06980e-17
7811.60720 1.06797e-17
7812.46866 1.06613e-17
7813.33012 1.06385e-17
7814.19158 1.06156e-17
7815.05304 1.05924e-17
7815.91450 1.05692e-17
7816.78598 1.05496e-17
7817.64745 1.05299e-17
7818.50891 1.05185e-17
7819.37037 1.05071e-17
7820.23183 1.05076e-17
7821.09329 1.05082e-17
7821.95476 1.05121e-17
7822.81622 1.05162e-17
7823.67768 1.05108e-17
7824.53914 1.05054e-17
7825.40060 1.04891e-17
7826.27208 1.04727e-17
7827.13355 1.04494e-17
7827.99501 1.04261e-17
7828.85647 1.03990e-17
7829.71793 1.03719e-17
7830.57939 1.03444e-17
7831.44085 1.03168e-17
7832.30232 1.02909e-17
7833.16378 1.02651e-17
7834.02524 1.02409e-17
7834.88670 1.02167e-17
7835.75818 1.01964e-17
7836.61964 1.01762e-17
7837.48111 1.01662e-17
7838.34257 1.01562e-17
7839.20403 1.01581e-17
7840.06549 1.01600e-17
7840.92695 1.01667e-17
7841.78842 1.01734e-17
7842.64988 1.01788e-17
7843.51134 1.01842e-17
7844.37280 1.01854e-17
7845.23426 1.01866e-17
7846.10574 1.01820e-17
7846.96720 1.01775e-17
7847.82867 1.01694e-17
7848.69013 1.01613e-17
7849.55159 1.01527e-17
7850.41305 1.01440e-17
7851.27452 1.01366e-17
7852.13598 1.01292e-17
7852.99744 1.01242e-17
7853.85890 1.01192e-17
7854.72036 1.01177e-17
7855.59184 1.01162e-17
7856.45330 1.01187e-17
7857.31477 1.01212e-17
7858.17623 1.01238e-17
7859.03769 1.01264e-17
7859.89915 1.01230e-17
7860.76061 1.01197e-17
7861.62208 1.01108e-17
7862.48354 1.01019e-17
7863.34500 1.00924e-17
7864.20646 1.00829e-17
7865.07794 1.00702e-17
7865.93940 1.00576e-17
7866.80087 1.00334e-17
7867.66233 1.00093e-17
7868.52379 9.97274e-18
7869.38525 9.93628e-18
7870.24671 9.89437e-18
7871.10818 9.85237e-18
7871.96964 9.81473e-18
7872.83110 9.77702e-18
7873.69256 9.75938e-18
7874.56404 9.74190e-18
7875.42550 9.75056e-18
7876.28696 9.75929e-18
7877.14843 9.77643e-18
7878.00989 9.79356e-18
7878.87135 9.80272e-18
7879.73281 9.81196e-18
7880.59427 9.80818e-18
7881.45574 9.80440e-18
7882.31720 9.78500e-18
7883.17866 9.76551e-18
7884.05014 9.73728e-18
7884.91160 9.70906e-18
7885.77306 9.68058e-18
7886.63453 9.65219e-18
7887.49599 9.62287e-18
7888.35745 9.59347e-18
7889.21891 9.56121e-18
7890.08037 9.52896e-18
7890.94184 9.49552e-18
7891.80330 9.46218e-18
7892.66476 9.42967e-18
7893.52622 9.39724e-18
7894.39770 9.37414e-18
7895.25916 9.35104e-18
7896.12062 9.34902e-18
7896.98209 9.34692e-18
7897.84355 9.35927e-18
7898.70501 9.37154e-18
7899.56647 9.37876e-18
7900.42793 9.38599e-18
7901.28940 9.37960e-18
7902.15086 9.37322e-18
7903.01232 9.35532e-18
7903.88380 9.33735e-18
7904.74526 9.31341e-18
7905.60672 9.28955e-18
7906.46819 9.27208e-18
7907.32965 9.25469e-18
7908.19111 9.24864e-18
7909.05257 9.24259e-18
7909.91403 9.23394e-18
7910.77550 9.22529e-18
7911.63696 9.20572e-18
7912.49842 9.18614e-18
7913.36990 9.16565e-18
7914.23136 9.14507e-18
7915.09282 9.13196e-18
7915.95428 9.11886e-18
7916.81575 9.11373e-18
7917.67721 9.10861e-18
7918.53867 9.11037e-18
7919.40013 9.11214e-18
7920.26159 9.10844e-18
7921.12306 9.10483e-18
7921.98452 9.08333e-18
7922.85600 9.06174e-18
7923.71746 9.02998e-18
7924.57892 8.99823e-18
7925.44038 8.96959e-18
7926.30185 8.94086e-18
7927.16331 8.92305e-18
7928.02477 8.90524e-18
7928.88623 8.90348e-18
7929.74769 8.90180e-18
7930.60916 8.91289e-18
7931.47062 8.92397e-18
7932.34210 8.93876e-18
7933.20356 8.95363e-18
7934.06502 8.96429e-18
7934.92648 8.97496e-18
7935.78794 8.97496e-18
7936.64941 8.97505e-18
7937.51087 8.96110e-18
7938.37233 8.94707e-18
7939.23379 8.91986e-18
7940.09525 8.89256e-18
7940.95672 8.85602e-18
7941.81818 8.81947e-18
7942.68966 8.78277e-18
7943.55112 8.74606e-18
7944.41258 8.71632e-18
7945.27404 8.68658e-18
7946.13551 8.66508e-18
7946.99697 8.64357e-18
7947.85843 8.63022e-18
7948.71989 8.61678e-18
7949.58135 8.60905e-18
7950.44282 8.60132e-18
7951.30428 8.59578e-18
7952.17576 8.59023e-18
7953.03722 8.57948e-18
7953.89868 8.56873e-18
7954.76014 8.54638e-18
7955.62160 8.52404e-18
7956.48307 8.49943e-18
7957.34453 8.47473e-18
7958.20599 8.45995e-18
7959.06745 8.44525e-18
7959.92891 8.44121e-18
7960.79038 8.43718e-18
7961.66186 8.44130e-18
7962.52332 8.44533e-18
7963.38478 8.45113e-18
7964.24624 8.45692e-18
7965.10770 8.45516e-18
7965.96917 8.45331e-18
7966.83063 8.44928e-18
7967.69209 8.44516e-18
7968.55355 8.45415e-18
7969.41501 8.46322e-18
7970.27648 8.48884e-18
7971.14795 8.51455e-18
7972.00942 8.54907e-18
7972.87088 8.58360e-18
7973.73234 8.61661e-18
7974.59380 8.64971e-18
7975.45526 8.66617e-18
7976.31673 8.68264e-18
7977.17819 8.67608e-18
7978.03965 8.66953e-18
7978.90111 8.65231e-18
7979.76257 8.63509e-18
7980.63405 8.61795e-18
7981.49552 8.60090e-18
7982.35698 8.58654e-18
7983.21844 8.57217e-18
7984.07990 8.56226e-18
7984.94136 8.55235e-18
7985.80283 8.54328e-18
7986.66429 8.53429e-18
7987.52575 8.52228e-18
7988.38721 8.51018e-18
7989.24867 8.49674e-18
7990.11014 8.48330e-18
7990.98161 8.47045e-18
7991.84308 8.45759e-18
7992.70454 8.44928e-18
7993.56600 8.44096e-18
7994.42746 8.44172e-18
7995.28892 8.44256e-18
7996.15039 8.44340e-18
7997.01185 8.44424e-18
7997.87331 8.43080e-18
7998.73477 8.41736e-18
7999.59623 8.39137e-18
8000.46771 8.36539e-18
8001.32917 8.33774e-18
8002.19064 8.31008e-18
8003.05210 8.28894e-18
8003.91356 8.26782e-18
8004.77502 8.26021e-18
8005.63649 8.25263e-18
8006.49795 8.25674e-18
8007.35941 8.26087e-18
8008.22087 8.26240e-18
8009.08233 8.26392e-18
8009.95381 8.25819e-18
8010.81527 8.25245e-18
8011.67674 8.25316e-18
8012.53820 8.25387e-18
8013.39966 8.26766e-18
8014.26112 8.28147e-18
8015.12258 8.29872e-18
8015.98405 8.31597e-18
8016.84551 8.32747e-18
8017.70697 8.33897e-18
8018.56843 8.33540e-18
8019.43991 8.33182e-18
8020.30137 8.30746e-18
8021.16284 8.28306e-18
8022.02430 8.25335e-18
8022.88576 8.22362e-18
8023.74722 8.20561e-18
8024.60868 8.18764e-18
8025.47015 8.18082e-18
8026.33161 8.17404e-18
8027.19307 8.17389e-18
8028.05453 8.17375e-18
8028.92601 8.17464e-18
8029.78747 8.17553e-18
8030.64893 8.17095e-18
8031.51040 8.16636e-18
8032.37186 8.15696e-18
8033.23332 8.14755e-18
8034.09478 8.13787e-18
8034.95624 8.12820e-18
8035.81771 8.12117e-18
8036.67917 8.11415e-18
8037.54063 8.11151e-18
8038.41211 8.10888e-18
8039.27357 8.11128e-18
8040.13503 8.11367e-18
8040.99650 8.12032e-18
8041.85796 8.12698e-18
8042.71942 8.13567e-18
8043.58088 8.14437e-18
8044.44234 8.15120e-18
8045.30380 8.15803e-18
8046.16527 8.16006e-18
8047.02673 8.16207e-18
8047.88819 8.15791e-18
8048.75967 8.15373e-18
8049.62113 8.14411e-18
8050.48259 8.13449e-18
8051.34406 8.12652e-18
8052.20552 8.11856e-18
8053.06698 8.11756e-18
8053.92844 8.11658e-18
8054.78990 8.11850e-18
8055.65137 8.12043e-18
8056.51283 8.12022e-18
8057.37429 8.11999e-18
8058.24577 8.11156e-18
8059.10723 8.10311e-18
8059.96869 8.08132e-18
8060.83015 8.05951e-18
8061.69162 8.02855e-18
8062.55308 7.99757e-18
8063.41454 7.96458e-18
8064.27600 7.93160e-18
8065.13746 7.90469e-18
8065.99893 7.87779e-18
8066.86039 7.86490e-18
8067.73187 7.85204e-18
8068.59333 7.85362e-18
8069.45479 7.85522e-18
8070.31625 7.86702e-18
8071.17772 7.87884e-18
8072.03918 7.89239e-18
8072.90064 7.90595e-18
8073.76210 7.90919e-18
8074.62356 7.91240e-18
8075.48503 7.90087e-18
8076.34649 7.88930e-18
8077.21797 7.86875e-18
8078.07943 7.84819e-18
8078.94089 7.82223e-18
8079.80235 7.79626e-18
8080.66381 7.76421e-18
8081.52528 7.73215e-18
8082.38674 7.69452e-18
8083.24820 7.65686e-18
8084.10966 7.61522e-18
8084.97113 7.57357e-18
8085.83259 7.52981e-18
8086.70407 7.48602e-18
8087.56553 7.44290e-18
8088.42699 7.39978e-18
8089.28845 7.35990e-18
8090.14991 7.32004e-18
8091.01138 7.28576e-18
8091.87284 7.25151e-18
8092.73430 7.22409e-18
8093.59576 7.19669e-18
8094.45722 7.17559e-18
8095.31869 7.15453e-18
8096.18015 7.13807e-18
8097.05163 7.12164e-18
8097.91309 7.10066e-18
8098.77455 7.07967e-18
8099.63601 7.04331e-18
8100.49748 7.00690e-18
8101.35894 6.95171e-18
8102.22040 6.89647e-18
8103.08186 6.82316e-18
8103.94332 6.74980e-18
8104.80479 6.66725e-18
8105.67626 6.58467e-18
8106.53773 6.50727e-18
8107.39919 6.42989e-18
8108.26065 6.36663e-18
8109.12211 6.30340e-18
8109.98357 6.25732e-18
8110.84504 6.21128e-18
8111.70650 6.17835e-18
8112.56796 6.14544e-18
8113.42942 6.11154e-18
8114.29088 6.07763e-18
8115.15235 6.03135e-18
8116.02383 5.98505e-18
8116.88529 5.92153e-18
8117.74675 5.85799e-18
8118.60821 5.77634e-18
8119.46967 5.69464e-18
8120.33114 5.60663e-18
8121.19260 5.51861e-18
8122.05406 5.43365e-18
8122.91552 5.34871e-18
8123.77698 5.25630e-18
8124.63845 5.16388e-18
8125.49991 5.05429e-18
8126.37139 4.94465e-18
8127.23285 4.82308e-18
8128.09431 4.70149e-18
8128.95577 4.57562e-18
8129.81723 4.44976e-18
8130.67870 4.33435e-18
8131.54016 4.21897e-18
8132.40162 4.12985e-18
8133.26308 4.04081e-18
8134.12454 3.96947e-18
8134.99602 3.89819e-18
8135.85749 3.82558e-18
8136.71895 3.75297e-18
8137.58041 3.67185e-18
8138.44187 3.59071e-18
8139.30333 3.50081e-18
8140.16480 3.41088e-18
8141.02626 3.31450e-18
8141.88772 3.21810e-18
8142.74918 3.12060e-18
8143.61064 3.02309e-18
8144.47210 2.92978e-18
8145.34358 2.83649e-18
8146.20505 2.75163e-18
8147.06651 2.66679e-18
8147.92797 2.59337e-18
8148.78943 2.51998e-18
8149.65089 2.45894e-18
8150.51236 2.39794e-18
8151.37382 2.34776e-18
8152.23528 2.29762e-18
8153.09674 2.25170e-18
8153.95820 2.20581e-18
8154.82968 2.15880e-18
8155.69115 2.11180e-18
8156.55261 2.06421e-18
8157.41407 2.01662e-18
8158.27553 1.97008e-18
8159.13699 1.92354e-18
8159.99845 1.88200e-18
8160.85992 1.84047e-18
8161.72138 1.80783e-18
8162.58284 1.77520e-18
8163.44430 1.75263e-18
8164.31578 1.73008e-18
8165.17724 1.71738e-18
8166.03871 1.70470e-18
8166.90017 1.69582e-18
8167.76163 1.68695e-18
8168.62309 1.67455e-18
8169.48455 1.66215e-18
8170.34602 1.64012e-18
8171.20748 1.61807e-18
8172.06894 1.58059e-18
8172.93040 1.54308e-18
8173.80188 1.50006e-18
8174.66334 1.45703e-18
8175.52481 1.42986e-18
8176.38627 1.40273e-18
8177.24773 1.39615e-18
8178.10919 1.38962e-18
8178.97065 1.39125e-18
8179.83212 1.39290e-18
8180.69358 1.39329e-18
8181.55504 1.39369e-18
8182.41650 1.38691e-18
8183.28798 1.38012e-18
8184.14944 1.36401e-18
8185.01090 1.34788e-18
8185.87237 1.33044e-18
8186.73383 1.31298e-18
8187.59529 1.29992e-18
8188.45675 1.28685e-18
8189.31821 1.27376e-18
8190.17968 1.26065e-18
8191.04114 1.24443e-18
8191.90260 1.22820e-18
8192.77408 1.21261e-18
8193.63554 1.19703e-18
8194.49700 1.18591e-18
8195.35846 1.17480e-18
8196.21993 1.17155e-18
8197.08139 1.16831e-18
8197.94285 1.17551e-18
8198.80431 1.18273e-18
8199.66577 1.19420e-18
8200.52724 1.20568e-18
8201.38870 1.21281e-18
8202.25016 1.21992e-18
8203.12164 1.22101e-18
8203.98310 1.22210e-18
8204.84456 1.21856e-18
8205.70603 1.21502e-18
8206.56749 1.20757e-18
8207.42895 1.20010e-18
8208.29041 1.18933e-18
8209.15187 1.17855e-18
8210.01334 1.16621e-18
8210.87480 1.15387e-18
8211.73626 1.14224e-18
8212.60774 1.13061e-18
8213.46920 1.12065e-18
8214.33066 1.11069e-18
8215.19212 1.10223e-18
8216.05359 1.09378e-18
8216.91505 1.08415e-18
8217.77651 1.07451e-18
8218.63797 1.05626e-18
8219.49943 1.03798e-18
8220.36090 1.00825e-18
8221.22236 9.78500e-19
8222.08382 9.44916e-19
8222.95530 9.11323e-19
8223.81676 8.82384e-19
8224.67822 8.53454e-19
8225.53969 8.39813e-19
8226.40115 8.26211e-19
8227.26261 8.35561e-19
8228.12407 8.44961e-19
8228.98553 8.70137e-19
8229.84700 8.95346e-19
8230.70846 9.26393e-19
8231.57994 9.57457e-19
8232.44140 9.84707e-19
8233.30286 1.01196e-18
8234.16432 1.02643e-18
8235.02578 1.04088e-18
8235.88725 1.04556e-18
8236.74871 1.05020e-18
8237.61017 1.05257e-18
8238.47163 1.05494e-18
8239.33309 1.06023e-18
8240.19456 1.06552e-18
8241.06604 1.07807e-18
8241.92750 1.09063e-18
8242.78896 1.10791e-18
8243.65042 1.12518e-18
8244.51188 1.13933e-18
8245.37335 1.15348e-18
8246.23481 1.16065e-18
8247.09627 1.16781e-18
8247.95773 1.16844e-18
8248.81919 1.16905e-18
8249.68066 1.16471e-18
8250.54212 1.16036e-18
8251.41360 1.15453e-18
8252.27506 1.14869e-18
8253.13652 1.14462e-18
8253.99798 1.14057e-18
8254.85945 1.14024e-18
8255.72091 1.13993e-18
8256.58237 1.14445e-18
8257.44383 1.14900e-18
8258.30529 1.15761e-18
8259.16676 1.16623e-18
8260.02822 1.17727e-18
8260.89970 1.18831e-18
8261.76116 1.19872e-18
8262.62262 1.20914e-18
8263.48408 1.21592e-18
8264.34554 1.22269e-18
8265.20701 1.22313e-18
8266.06847 1.22356e-18
8266.92993 1.21589e-18
8267.79139 1.20820e-18
8268.65285 1.19650e-18
8269.52433 1.18478e-18
8270.38580 1.17471e-18
8271.24726 1.16465e-18
8272.10872 1.16001e-18
8272.97018 1.15539e-18
8273.83164 1.15914e-18
8274.69311 1.16290e-18
8275.55457 1.17209e-18
8276.41603 1.18128e-18
8277.27749 1.18928e-18
8278.13895 1.19727e-18
8279.01043 1.20137e-18
8279.87189 1.20546e-18
8280.73336 1.20630e-18
8281.59482 1.20713e-18
8282.45628 1.20672e-18
8283.31774 1.20630e-18
8284.17920 1.20882e-18
8285.04067 1.21135e-18
8285.90213 1.21839e-18
8286.76359 1.22545e-18
8287.62505 1.23324e-18
8288.48651 1.24102e-18
8289.34798 1.24753e-18
8290.21946 1.25404e-18
8291.08092 1.26229e-18
8291.94238 1.27055e-18
8292.80384 1.28229e-18
8293.66530 1.29402e-18
8294.52677 1.30618e-18
8295.38823 1.31832e-18
8296.24969 1.32805e-18
8297.11115 1.33778e-18
8297.97261 1.34325e-18
8298.83408 1.34872e-18
8299.70555 1.34887e-18
8300.56702 1.34899e-18
8301.42848 1.35024e-18
8302.28994 1.35149e-18
8303.15140 1.36148e-18
8304.01286 1.37149e-18
8304.87433 1.38728e-18
8305.73579 1.40307e-18
8306.59725 1.41831e-18
8307.45871 1.43355e-18
8308.32017 1.44438e-18
8309.18164 1.45520e-18
8310.05312 1.45882e-18
8310.91458 1.46241e-18
8311.77604 1.46181e-18
8312.63750 1.46118e-18
8313.49896 1.46365e-18
8314.36043 1.46611e-18
8315.22189 1.47573e-18
8316.08335 1.48537e-18
8316.94481 1.50297e-18
8317.80627 1.52059e-18
8318.67775 1.54409e-18
8319.53921 1.56762e-18
8320.40068 1.59048e-18
8321.26214 1.61335e-18
8322.12360 1.63089e-18
8322.98506 1.64843e-18
8323.84652 1.66059e-18
8324.70799 1.67274e-18
8325.56945 1.68014e-18
8326.43091 1.68753e-18
8327.29237 1.69197e-18
8328.16385 1.69642e-18
8329.02531 1.70019e-18
8329.88678 1.70395e-18
8330.74824 1.70834e-18
8331.60970 1.71273e-18
8332.47116 1.71902e-18
8333.33262 1.72532e-18
8334.19408 1.73668e-18
8335.05555 1.74805e-18
8335.91701 1.76710e-18
8336.77847 1.78617e-18
8337.64995 1.81087e-18
8338.51141 1.83557e-18
8339.37287 1.86238e-18
8340.23434 1.88920e-18
8341.09580 1.91330e-18
8341.95726 1.93739e-18
8342.81872 1.95355e-18
8343.68018 1.96968e-18
8344.54165 1.97801e-18
8345.40311 1.98631e-18
8346.26457 1.99047e-18
8347.12603 1.99461e-18
8347.99751 1.99758e-18
8348.85897 2.00056e-18
8349.72043 2.00459e-18
8350.58190 2.00861e-18
8351.44336 2.01628e-18
8352.30482 2.02396e-18
8353.16628 2.03800e-18
8354.02775 2.05206e-18
8354.88921 2.07281e-18
8355.75067 2.09358e-18
8356.62215 2.11764e-18
8357.48361 2.14171e-18
8358.34507 2.16570e-18
8359.20653 2.18969e-18
8360.06800 2.21068e-18
8360.92946 2.23164e-18
8361.79092 2.24784e-18
8362.65238 2.26403e-18
8363.51384 2.27850e-18
8364.37531 2.29297e-18
8365.23677 2.30871e-18
8366.10825 2.32446e-18
8366.96971 2.33951e-18
8367.83117 2.35456e-18
8368.69263 2.36686e-18
8369.55410 2.37916e-18
8370.41556 2.39070e-18
8371.27702 2.40225e-18
8372.13848 2.41581e-18
8372.99994 2.42937e-18
8373.86140 2.44644e-18
8374.72287 2.46352e-18
8375.59435 2.48508e-18
8376.45581 2.50665e-18
8377.31727 2.53249e-18
8378.17873 2.55834e-18
8379.04019 2.58746e-18
8379.90166 2.61659e-18
8380.76312 2.64741e-18
8381.62458 2.67823e-18
8382.48604 2.70887e-18
8383.34750 2.73950e-18
8384.20897 2.76841e-18
8385.07043 2.79730e-18
8385.94191 2.82304e-18
8386.80337 2.84877e-18
8387.66483 2.87220e-18
8388.52629 2.89563e-18
8389.38775 2.92130e-18
8390.24922 2.94698e-18
8391.11068 2.97617e-18
8391.97214 3.00536e-18
8392.83360 3.03220e-18
8393.69507 3.05904e-18
8394.55653 3.07932e-18
8395.41799 3.09959e-18
8396.28947 3.11320e-18
8397.15093 3.12679e-18
8398.01239 3.13542e-18
8398.87385 3.14404e-18
8399.73532 3.15725e-18
8400.59678 3.17046e-18
8401.45824 3.19694e-18
8402.31970 3.22345e-18
8403.18116 3.26039e-18
8404.04263 3.29736e-18
8404.90409 3.33944e-18
8405.77557 3.38153e-18
8406.63703 3.42285e-18
8407.49849 3.46418e-18
8408.35995 3.49866e-18
8409.22142 3.53312e-18
8410.08288 3.56079e-18
8410.94434 3.58845e-18
8411.80580 3.61241e-18
8412.66726 3.63635e-18
8413.52873 3.65875e-18
8414.39019 3.68114e-18
8415.26167 3.70370e-18
8416.12313 3.72627e-18
8416.98459 3.75085e-18
8417.84605 3.77544e-18
8418.70751 3.80355e-18
8419.56898 3.83167e-18
8420.43044 3.86390e-18
8421.29190 3.89614e-18
8422.15336 3.93235e-18
8423.01482 3.96858e-18
8423.87629 4.00685e-18
8424.74777 4.04514e-18
8425.60923 4.08019e-18
8426.47069 4.11523e-18
8427.33215 4.14490e-18
8428.19361 4.17455e-18
8429.05508 4.20481e-18
8429.91654 4.23506e-18
8430.77800 4.27079e-18
8431.63946 4.30652e-18
8432.50092 4.34824e-18
8433.36239 4.38996e-18
8434.23386 4.43690e-18
8435.09533 4.48383e-18
8435.95679 4.52817e-18
8436.81825 4.57252e-18
8437.67971 4.60661e-18
8438.54117 4.64068e-18
8439.40264 4.66899e-18
8440.26410 4.69729e-18
8441.12556 4.72713e-18
8441.98702 4.75696e-18
8442.84848 4.79046e-18
8443.70995 4.82398e-18
8444.58143 4.86164e-18
8445.44289 4.89932e-18
8446.30435 4.94156e-18
8447.16581 4.98380e-18
8448.02727 5.03048e-18
8448.88874 5.07716e-18
8449.75020 5.12684e-18
8450.61166 5.17652e-18
8451.47312 5.22708e-18
8452.33458 5.27763e-18
8453.20606 5.32666e-18
8454.06752 5.37566e-18
8454.92899 5.42020e-18
8455.79045 5.46472e-18
8456.65191 5.50541e-18
8457.51337 5.54609e-18
8458.37483 5.58925e-18
8459.23630 5.63242e-18
8460.09776 5.68072e-18
8460.95922 5.72903e-18
8461.82068 5.77703e-18
8462.69216 5.82504e-18
8463.55362 5.86891e-18
8464.41508 5.91279e-18
8465.27655 5.95282e-18
8466.13801 5.99285e-18
8466.99947 6.03066e-18
8467.86093 6.06846e-18
8468.72240 6.11207e-18
8469.58386 6.15568e-18
8470.44532 6.21218e-18
8471.30678 6.26871e-18
8472.16824 6.33371e-18
8473.03972 6.39873e-18
8473.90118 6.46586e-18
8474.76265 6.53299e-18
8475.62411 6.59740e-18
8476.48557 6.66180e-18
8477.34703 6.71885e-18
8478.20849 6.77588e-18
8479.06996 6.83106e-18
8479.93142 6.88623e-18
8480.79288 6.94959e-18
8481.65434 7.01296e-18
8482.51580 7.08223e-18
8483.38728 7.15152e-18
8484.24875 7.21738e-18
8485.11021 7.28322e-18
8485.97167 7.34148e-18
8486.83313 7.39973e-18
8487.69459 7.45029e-18
8488.55605 7.50083e-18
8489.41752 7.54636e-18
8490.27898 7.59188e-18
8491.14044 7.63912e-18
8492.00190 7.68636e-18
8492.87338 7.73969e-18
8493.73484 7.79304e-18
8494.59631 7.85128e-18
8495.45777 7.90952e-18
8496.31923 7.97330e-18
8497.18069 8.03710e-18
8498.04215 8.11355e-18
8498.90362 8.19004e-18
8499.76508 8.28184e-18
8500.62654 8.37369e-18
8501.48800 8.46860e-18
8502.35948 8.56352e-18
8503.22094 8.64954e-18
8504.08240 8.73556e-18
8504.94387 8.81023e-18
8505.80533 8.88483e-18
8506.66679 8.94766e-18
8507.52825 9.01041e-18
8508.38972 9.06577e-18
8509.25118 9.12113e-18
8510.11264 9.17497e-18
8510.98412 9.22890e-18
8511.84558 9.28359e-18
8512.70704 9.33827e-18
8513.56850 9.39497e-18
8514.42997 9.45159e-18
8515.29143 9.51006e-18
8516.15289 9.56852e-18
8517.01435 9.62808e-18
8517.87581 9.68764e-18
8518.73728 9.74829e-18
8519.59874 9.80885e-18
8520.46020 9.87076e-18
8521.33168 9.93259e-18
8522.19314 9.99845e-18
8523.05460 1.00642e-17
8523.91607 1.01391e-17
8524.77753 1.02140e-17
8525.63899 1.02996e-17
8526.50045 1.03852e-17
8527.36191 1.04784e-17
8528.22337 1.05716e-17
8529.08484 1.06675e-17
8529.94630 1.07635e-17
8530.80776 1.08541e-17
8531.67924 1.09447e-17
8532.54070 1.10236e-17
8533.40216 1.11024e-17
8534.26363 1.11670e-17
8535.12509 1.12316e-17
8535.98655 1.12826e-17
8536.84801 1.13337e-17
8537.70947 1.13810e-17
8538.57094 1.14282e-17
8539.43240 1.14823e-17
8540.30388 1.15364e-17
8541.16534 1.16041e-17
8542.02680 1.16718e-17
8542.88826 1.17573e-17
8543.74972 1.18429e-17
8544.61119 1.19406e-17
8545.47265 1.20383e-17
8546.33411 1.21392e-17
8547.19557 1.22400e-17
8548.05703 1.23285e-17
8548.91850 1.24170e-17
8549.78998 1.24760e-17
8550.65144 1.25351e-17
8551.51290 1.25662e-17
8552.37436 1.25973e-17
8553.23582 1.26134e-17
8554.09729 1.26296e-17
8554.95875 1.26481e-17
8555.82021 1.26668e-17
8556.68167 1.27084e-17
8557.54313 1.27502e-17
8558.40460 1.28244e-17
8559.27607 1.28985e-17
8560.13754 1.29994e-17
8560.99900 1.31003e-17
8561.86046 1.32169e-17
8562.72192 1.33335e-17
8563.58338 1.34477e-17
8564.44485 1.35621e-17
8565.30631 1.36575e-17
8566.16777 1.37528e-17
8567.02923 1.38184e-17
8567.89070 1.38840e-17
8568.75216 1.39145e-17
8569.62364 1.39451e-17
8570.48510 1.39493e-17
8571.34656 1.39535e-17
8572.20802 1.39439e-17
8573.06948 1.39341e-17
8573.93095 1.39243e-17
8574.79241 1.39145e-17
8575.65387 1.39177e-17
8576.51533 1.39211e-17
8577.37679 1.39514e-17
8578.23826 1.39818e-17
8579.09972 1.40497e-17
8579.97120 1.41177e-17
8580.83266 1.42099e-17
8581.69412 1.43022e-17
8582.55558 1.43969e-17
8583.41705 1.44916e-17
8584.27851 1.45709e-17
8585.13997 1.46504e-17
8586.00143 1.47001e-17
8586.86289 1.47499e-17
8587.72436 1.47679e-17
8588.58582 1.47860e-17
8589.45730 1.47804e-17
8590.31876 1.47747e-17
8591.18022 1.47579e-17
8592.04168 1.47411e-17
8592.90314 1.47299e-17
8593.76461 1.47186e-17
8594.62607 1.47223e-17
8595.48753 1.47259e-17
8596.34899 1.47408e-17
8597.21045 1.47556e-17
8598.07192 1.47793e-17
8598.94340 1.48030e-17
8599.80486 1.48380e-17
8600.66632 1.48730e-17
8601.52778 1.49182e-17
8602.38924 1.49634e-17
8603.25071 1.50116e-17
8604.11217 1.50599e-17
8604.97363 1.51033e-17
8605.83509 1.51467e-17
8606.69655 1.51746e-17
8607.56803 1.52025e-17
8608.42949 1.52063e-17
8609.29096 1.52101e-17
8610.15242 1.51923e-17
8611.01388 1.51743e-17
8611.87534 1.51409e-17
8612.73680 1.51074e-17
8613.59827 1.50652e-17
8614.45973 1.50230e-17
8615.32119 1.49793e-17
8616.18265 1.49356e-17
8617.04411 1.49041e-17
8617.91559 1.48726e-17
8618.77706 1.48682e-17
8619.63852 1.48639e-17
8620.49998 1.48875e-17
8621.36144 1.49111e-17
8622.22290 1.49545e-17
8623.08437 1.49981e-17
8623.94583 1.50498e-17
8624.80729 1.51017e-17
8625.66875 1.51471e-17
8626.53021 1.51926e-17
8627.40169 1.52229e-17
8628.26315 1.52531e-17
8629.12462 1.52681e-17
8629.98608 1.52830e-17
8630.84754 1.52823e-17
8631.70900 1.52815e-17
8632.57046 1.52630e-17
8633.43193 1.52445e-17
8634.29339 1.52108e-17
8635.15485 1.51771e-17
8636.01631 1.51388e-17
8636.88779 1.51004e-17
8637.74925 1.50685e-17
8638.61072 1.50366e-17
8639.47218 1.50239e-17
8640.33364 1.50112e-17
8641.19510 1.50264e-17
8642.05656 1.50416e-17
8642.91803 1.50773e-17
8643.77949 1.51132e-17
8644.64095 1.51583e-17
8645.50241 1.52034e-17
8646.37389 1.52461e-17
8647.23535 1.52889e-17
8648.09681 1.53176e-17
8648.95828 1.53463e-17
8649.81974 1.53566e-17
8650.68120 1.53669e-17
8651.54266 1.53590e-17
8652.40412 1.53511e-17
8653.26559 1.53237e-17
8654.12705 1.52963e-17
8654.98851 1.52486e-17
8655.85999 1.52009e-17
8656.72145 1.51411e-17
8657.58291 1.50814e-17
8658.44438 1.50240e-17
8659.30584 1.49667e-17
8660.16730 1.49215e-17
8661.02876 1.48764e-17
8661.89022 1.48477e-17
8662.75168 1.48192e-17
8663.61315 1.48095e-17
8664.47461 1.47998e-17
8665.33607 1.48083e-17
8666.20755 1.48168e-17
8667.06901 1.48395e-17
8667.93047 1.48623e-17
8668.79194 1.48921e-17
8669.65340 1.49220e-17
8670.51486 1.49494e-17
8671.37632 1.49768e-17
8672.23778 1.49852e-17
8673.09925 1.49936e-17
8673.96071 1.49710e-17
8674.82217 1.49482e-17
8675.68363 1.48980e-17
8676.55511 1.48478e-17
8677.41657 1.47783e-17
8678.27803 1.47085e-17
8679.13950 1.46332e-17
8680.00096 1.45577e-17
8680.86242 1.44915e-17
8681.72388 1.44253e-17
8682.58535 1.43741e-17
8683.44681 1.43230e-17
8684.30827 1.42891e-17
8685.16973 1.42552e-17
8686.04121 1.42405e-17
8686.90267 1.42259e-17
8687.76413 1.42306e-17
8688.62560 1.42355e-17
8689.48706 1.42561e-17
8690.34852 1.42767e-17
8691.20998 1.43069e-17
8692.07144 1.43372e-17
8692.93291 1.43670e-17
8693.79437 1.43966e-17
8694.66585 1.44127e-17
8695.52731 1.44287e-17
8696.38877 1.44232e-17
8697.25023 1.44175e-17
8698.11170 1.43890e-17
8698.97316 1.43603e-17
8699.83462 1.43119e-17
8700.69608 1.42634e-17
8701.55754 1.42055e-17
8702.41900 1.41477e-17
8703.28047 1.40893e-17
8704.15195 1.40308e-17
8705.01341 1.39721e-17
8705.87487 1.39135e-17
8706.73633 1.38569e-17
8707.59779 1.38005e-17
8708.45926 1.37580e-17
8709.32072 1.37155e-17
8710.18218 1.36963e-17
8711.04364 1.36771e-17
8711.90510 1.36814e-17
8712.76657 1.36860e-17
8713.62803 1.37107e-17
8714.49951 1.37354e-17
8715.36097 1.37623e-17
8716.22243 1.37893e-17
8717.08389 1.37980e-17
8717.94535 1.38068e-17
8718.80682 1.37890e-17
8719.66828 1.37710e-17
8720.52974 1.37235e-17
8721.39120 1.36760e-17
8722.25267 1.36105e-17
8723.11413 1.35449e-17
8723.98561 1.34818e-17
8724.84707 1.34185e-17
8725.70853 1.33652e-17
8726.56999 1.33117e-17
8727.43145 1.32660e-17
8728.29292 1.32204e-17
8729.15438 1.31826e-17
8730.01584 1.31448e-17
8730.87730 1.31159e-17
8731.73876 1.30870e-17
8732.61024 1.30697e-17
8733.47170 1.30523e-17
8734.33317 1.30545e-17
8735.19463 1.30569e-17
8736.05609 1.30764e-17
8736.91755 1.30959e-17
8737.77902 1.31096e-17
8738.64048 1.31232e-17
8739.50194 1.31117e-17
8740.36340 1.31001e-17
8741.22486 1.30525e-17
8742.08633 1.30049e-17
8742.95780 1.29186e-17
8743.81927 1.28323e-17
8744.68073 1.27321e-17
8745.54219 1.26319e-17
8746.40365 1.25450e-17
8747.26511 1.24580e-17
8748.12658 1.23969e-17
8748.98804 1.23359e-17
8749.84950 1.23082e-17
8750.71096 1.22805e-17
8751.57242 1.22784e-17
8752.44390 1.22764e-17
8753.30537 1.22850e-17
8754.16683 1.22936e-17
8755.02829 1.23047e-17
8755.88975 1.23158e-17
8756.75121 1.23240e-17
8757.61268 1.23323e-17
8758.47414 1.23256e-17
8759.33560 1.23189e-17
8760.19706 1.22828e-17
8761.05852 1.22466e-17
8761.91999 1.21786e-17
8762.79146 1.21106e-17
8763.65293 1.20186e-17
8764.51439 1.19265e-17
8765.37585 1.18233e-17
8766.23731 1.17202e-17
8767.09877 1.16241e-17
8767.96024 1.15281e-17
8768.82170 1.14510e-17
8769.68316 1.13741e-17
8770.54462 1.13145e-17
8771.40608 1.12550e-17
8772.26755 1.12104e-17
8773.13903 1.11659e-17
8774.00049 1.11342e-17
8774.86195 1.11025e-17
8775.72341 1.10795e-17
8776.58487 1.10564e-17
8777.44633 1.10382e-17
8778.30780 1.10202e-17
8779.16926 1.10017e-17
8780.03072 1.09832e-17
8780.89218 1.09483e-17
8781.76366 1.09134e-17
8782.62512 1.08477e-17
8783.48659 1.07819e-17
8784.34805 1.06922e-17
8785.20951 1.06026e-17
8786.07097 1.05019e-17
8786.93243 1.04012e-17
8787.79390 1.02990e-17
8788.65536 1.01969e-17
8789.51682 1.01027e-17
8790.37828 1.00085e-17
8791.24976 9.92209e-18
8792.11122 9.83565e-18
8792.97268 9.75022e-18
8793.83415 9.66471e-18
8794.69561 9.58457e-18
8795.55707 9.50451e-18
8796.41853 9.44202e-18
8797.28000 9.37969e-18
8798.14146 9.33239e-18
8799.00292 9.28518e-18
8799.86438 9.23663e-18
8800.72584 9.18808e-18
8801.59732 9.12482e-18
8802.45878 9.06157e-18
8803.32025 8.97454e-18
8804.18171 8.88752e-18
8805.04317 8.77554e-18
8805.90463 8.66357e-18
8806.76609 8.54277e-18
8807.62756 8.42189e-18
8808.48902 8.30695e-18
8809.35048 8.19207e-18
8810.21194 8.09012e-18
8811.08342 7.98820e-18
8811.94488 7.90396e-18
8812.80635 7.81977e-18
8813.66781 7.75140e-18
8814.52927 7.68307e-18
8815.39073 7.62607e-18
8816.25219 7.56910e-18
8817.11365 7.51790e-18
8817.97512 7.46672e-18
8818.83658 7.41507e-18
8819.70806 7.36342e-18
8820.56952 7.30376e-18
8821.43098 7.24408e-18
8822.29244 7.16983e-18
8823.15391 7.09555e-18
8824.01537 7.00589e-18
8824.87683 6.91620e-18
8825.73829 6.81351e-18
8826.59975 6.71078e-18
8827.46122 6.60451e-18
8828.32268 6.49823e-18
8829.19416 6.40201e-18
8830.05562 6.30582e-18
8830.91708 6.22659e-18
8831.77854 6.14741e-18
8832.64000 6.08567e-18
8833.50147 6.02397e-18
8834.36293 5.97751e-18
8835.22439 5.93109e-18
8836.08585 5.89448e-18
8836.94732 5.85788e-18
8837.80878 5.82474e-18
8838.67024 5.79160e-18
8839.54172 5.75539e-18
8840.40318 5.71917e-18
8841.26464 5.67508e-18
8842.12610 5.63097e-18
8842.98757 5.57836e-18
8843.84903 5.52572e-18
8844.71049 5.46560e-18
8845.57195 5.40547e-18
8846.43341 5.34136e-18
8847.29488 5.27724e-18
8848.15634 5.21365e-18
8849.02782 5.15006e-18
8849.88928 5.08940e-18
8850.75074 5.02876e-18
8851.61220 4.97333e-18
8852.47367 4.91792e-18
8853.33513 4.87949e-18
8854.19659 4.84111e-18
8855.05805 4.83140e-18
8855.91951 4.82178e-18
8856.78097 4.83150e-18
8857.64244 4.84127e-18
8858.50390 4.85398e-18
8859.36536 4.86670e-18
8860.23684 4.86887e-18
8861.09830 4.87100e-18
8861.95976 4.85038e-18
8862.82123 4.82969e-18
8863.68269 4.79088e-18
8864.54415 4.75202e-18
8865.40561 4.71288e-18
8866.26707 4.67373e-18
8867.12854 4.64255e-18
8867.99000 4.61139e-18
8868.86148 4.58608e-18
8869.72294 4.56078e-18
8870.58440 4.54043e-18
8871.44586 4.52008e-18
8872.30732 4.50390e-18
8873.16879 4.48773e-18
8874.03025 4.47659e-18
8874.89171 4.46547e-18
8875.75317 4.46626e-18
8876.61463 4.46709e-18
8877.47610 4.48257e-18
8878.34758 4.49809e-18
8879.20904 4.51970e-18
8880.07050 4.54134e-18
8880.93196 4.56010e-18
8881.79342 4.57886e-18
8882.65489 4.58643e-18
8883.51635 4.59396e-18
8884.37781 4.58425e-18
8885.23927 4.57450e-18
8886.10073 4.55312e-18
8886.96220 4.53172e-18
8887.83367 4.50747e-18
8888.69514 4.48322e-18
8889.55660 4.46424e-18
8890.41806 4.44526e-18
8891.27952 4.43890e-18
8892.14099 4.43259e-18
8893.00245 4.44302e-18
8893.86391 4.45350e-18
8894.72537 4.48238e-18
8895.58683 4.51130e-18
8896.44830 4.55183e-18
8897.30976 4.59238e-18
8898.18124 4.63296e-18
8899.04270 4.67352e-18
8899.90416 4.70422e-18
8900.76562 4.73489e-18
8901.62708 4.74746e-18
8902.48855 4.75998e-18
8903.35001 4.75568e-18
8904.21147 4.75135e-18
8905.07293 4.74393e-18
8905.93439 4.73651e-18
8906.80587 4.73499e-18
8907.66734 4.73347e-18
8908.52880 4.73694e-18
8909.39026 4.74043e-18
8910.25172 4.74891e-18
8911.11318 4.75741e-18
8911.97465 4.77258e-18
8912.83611 4.78777e-18
8913.69757 4.81033e-18
8914.55903 4.83291e-18
8915.42049 4.86445e-18
8916.29197 4.89601e-18
8917.15343 4.93615e-18
8918.01490 4.97632e-18
8918.87636 5.01474e-18
8919.73782 5.05315e-18
8920.59928 5.07951e-18
8921.46074 5.10584e-18
8922.32221 5.11720e-18
8923.18367 5.12854e-18
8924.04513 5.12460e-18
8924.90659 5.12063e-18
8925.76805 5.11358e-18
8926.63953 5.10651e-18
8927.50100 5.11295e-18
8928.36246 5.11941e-18
8929.22392 5.13998e-18
8930.08538 5.16057e-18
8930.94684 5.18775e-18
8931.80831 5.21494e-18
8932.66977 5.24329e-18
8933.53123 5.27163e-18
8934.39269 5.29589e-18
8935.25415 5.32012e-18
8936.12563 5.34276e-18
8936.98709 5.36539e-18
8937.84856 5.39828e-18
8938.71002 5.43121e-18
8939.57148 5.47491e-18
8940.43294 5.51863e-18
8941.29440 5.55702e-18
8942.15587 5.59540e-18
8943.01733 5.61666e-18
8943.87879 5.63787e-18
8944.74025 5.63671e-18
8945.61173 5.63547e-18
8946.47319 5.61378e-18
8947.33466 5.59203e-18
8948.19612 5.57469e-18
8949.05758 5.55735e-18
8949.91904 5.56452e-18
8950.78050 5.57177e-18
8951.64197 5.59719e-18
8952.50343 5.62266e-18
8953.36489 5.65619e-18
8954.22635 5.68974e-18
8955.08781 5.70493e-18
8955.95929 5.72006e-18
8956.82075 5.69091e-18
8957.68222 5.66166e-18
8958.54368 5.62051e-18
8959.40514 5.57934e-18
8960.26660 5.57386e-18
8961.12806 5.56847e-18
8961.98953 5.60545e-18
8962.85099 5.64255e-18
8963.71245 5.71296e-18
8964.57391 5.78348e-18
8965.44539 5.86451e-18
8966.30685 5.94557e-18
8967.16832 6.00269e-18
8968.02978 6.05975e-18
8968.89124 6.09673e-18
8969.75270 6.13366e-18
8970.61416 6.18827e-18
8971.47563 6.24292e-18
8972.33709 6.32822e-18
8973.19855 6.41361e-18
8974.06001 6.51345e-18
8974.93149 6.61331e-18
8975.79295 6.70426e-18
8976.65441 6.79517e-18
8977.51588 6.84142e-18
8978.37734 6.88754e-18
8979.23880 6.86120e-18
8980.10026 6.83465e-18
8980.96172 6.71777e-18
8981.82319 6.60064e-18
8982.68465 6.40474e-18
8983.54611 6.20863e-18
8984.41759 6.03908e-18
8985.27905 5.86960e-18
8986.14051 5.82361e-18
8987.00198 5.77795e-18
8987.86344 5.88885e-18
8988.72490 6.00017e-18
8989.58636 6.27297e-18
8990.44782 6.54621e-18
8991.30928 6.85072e-18
8992.17075 7.15532e-18
8993.03221 7.33480e-18
8993.89367 7.51395e-18
8994.76515 7.54490e-18
8995.62661 7.57546e-18
8996.48807 7.48654e-18
8997.34954 7.39729e-18
8998.21100 7.25860e-18
8999.07246 7.11977e-18
8999.93392 7.02697e-18
9000.79538 6.93428e-18
9001.65685 6.92906e-18
9002.51831 6.92409e-18
9003.38979 7.00389e-18
9004.25125 7.08391e-18
9005.11271 7.22091e-18
9005.97417 7.35806e-18
9006.83563 7.49770e-18
9007.69710 7.63735e-18
9008.55856 7.73711e-18
9009.42002 7.83678e-18
9010.28148 7.87695e-18
9011.14295 7.91695e-18
9012.00441 7.89841e-18
9012.87589 7.87970e-18
9013.73735 7.84930e-18
9014.59881 7.81887e-18
9015.46027 7.81139e-18
9016.32173 7.80396e-18
9017.18320 7.79816e-18
9018.04466 7.79236e-18
9018.90612 7.77243e-18
9019.76758 7.75246e-18
9020.62904 7.73668e-18
9021.49051 7.72089e-18
9022.35197 7.72823e-18
9023.22345 7.73562e-18
9024.08491 7.78994e-18
9024.94637 7.84439e-18
9025.80783 7.96478e-18
9026.66930 8.08535e-18
9027.53076 8.24285e-18
9028.39222 8.40047e-18
9029.25368 8.55134e-18
9030.11514 8.70212e-18
9030.97660 8.81595e-18
9031.83807 8.92960e-18
9032.70955 8.98378e-18
9033.57101 9.03780e-18
9034.43247 9.03032e-18
9035.29393 9.02268e-18
9036.15539 8.96505e-18
9037.01686 8.90726e-18
9037.87832 8.82905e-18
9038.73978 8.75076e-18
9039.60124 8.69742e-18
9040.46270 8.64425e-18
9041.32417 8.62795e-18
9042.18563 8.61174e-18
9043.05711 8.59922e-18
9043.91857 8.58662e-18
9044.78003 8.56033e-18
9045.64149 8.53395e-18
9046.50295 8.50438e-18
9047.36442 8.47481e-18
9048.22588 8.45113e-18
9049.08734 8.42744e-18
9049.94880 8.42424e-18
9050.81027 8.42097e-18
9051.67173 8.44214e-18
9052.54321 8.46339e-18
9053.40467 8.46566e-18
9054.26613 8.46776e-18
9055.12759 8.41316e-18
9055.98905 8.35843e-18
9056.85052 8.26721e-18
9057.71198 8.17589e-18
9058.57344 8.07553e-18
9059.43490 7.97516e-18
9060.29636 7.86907e-18
9061.16784 7.76297e-18
9062.02931 7.65252e-18
9062.89077 7.54205e-18
9063.75223 7.42320e-18
9064.61369 7.30433e-18
9065.47515 7.16824e-18
9066.33662 7.03209e-18
9067.19808 6.91341e-18
9068.05954 6.79479e-18
9068.92100 6.75106e-18
9069.78246 6.70754e-18
9070.64393 6.72605e-18
9071.51540 6.74473e-18
9072.37687 6.76104e-18
9073.23833 6.77736e-18
9074.09979 6.76771e-18
9074.96125 6.75800e-18
9075.82271 6.74038e-18
9076.68418 6.72273e-18
9077.54564 6.70839e-18
9078.40710 6.69406e-18
9079.26856 6.68950e-18
9080.13002 6.68496e-18
9080.99149 6.68993e-18
9081.86297 6.69491e-18
9082.72443 6.68706e-18
9083.58589 6.67917e-18
9084.44735 6.64604e-18
9085.30881 6.61284e-18
9086.17028 6.57903e-18
9087.03174 6.54521e-18
9087.89320 6.52967e-18
9088.75466 6.51417e-18
9089.61612 6.49271e-18
9090.48760 6.47124e-18
9091.34906 6.42067e-18
9092.21053 6.37032e-18
9093.07199 6.31459e-18
9093.93345 6.25884e-18
9094.79491 6.22720e-18
9095.65637 6.19563e-18
9096.51784 6.17979e-18
9097.37930 6.16400e-18
9098.24076 6.14650e-18
9099.10222 6.12899e-18
9099.97370 6.11434e-18
9100.83516 6.09971e-18
9101.69663 6.09727e-18
9102.55809 6.09487e-18
9103.41955 6.12254e-18
9104.28101 6.15030e-18
9105.14247 6.23370e-18
9106.00393 6.31727e-18
9106.86540 6.42602e-18
9107.72686 6.53483e-18
9108.58832 6.59097e-18
9109.45980 6.64696e-18
9110.32126 6.61726e-18
9111.18272 6.58732e-18
9112.04419 6.49112e-18
9112.90565 6.39473e-18
9113.76711 6.27178e-18
9114.62857 6.14877e-18
9115.49003 6.08066e-18
9116.35150 6.01270e-18
9117.21296 6.04194e-18
9118.07442 6.07145e-18
9118.93588 6.13510e-18
9119.80736 6.19885e-18
9120.66882 6.23545e-18
9121.53028 6.27197e-18
9122.39175 6.24216e-18
9123.25321 6.21216e-18
9124.11467 6.09230e-18
9124.97613 5.97220e-18
9125.83760 5.81772e-18
9126.69906 5.66315e-18
9127.56052 5.54154e-18
9128.43200 5.42002e-18
9129.29346 5.36614e-18
9130.15492 5.31244e-18
9131.01638 5.34874e-18
9131.87785 5.38529e-18
9132.73931 5.49663e-18
9133.60077 5.60819e-18
9134.46223 5.76035e-18
9135.32369 5.91261e-18
9136.18516 6.06995e-18
9137.04662 6.22730e-18
9137.90808 6.35304e-18
9138.76954 6.47869e-18
9139.64102 6.54918e-18
9140.50248 6.61951e-18
9141.36395 6.62674e-18
9142.22541 6.63380e-18
9143.08687 6.56581e-18
9143.94833 6.49760e-18
9144.80979 6.33713e-18
9145.67125 6.17642e-18
9146.53272 5.94428e-18
9147.39418 5.71195e-18
9148.26566 5.47825e-18
9149.12712 5.24456e-18
9149.98858 5.07293e-18
9150.85004 4.90148e-18
9151.71151 4.84339e-18
9152.57297 4.78562e-18
9153.43443 4.86116e-18
9154.29589 4.93705e-18
9155.15735 5.08019e-18
9156.01882 5.22351e-18
9156.88028 5.36450e-18
9157.75176 5.50548e-18
9158.61322 5.61171e-18
9159.47468 5.71784e-18
9160.33614 5.76411e-18
9161.19760 5.81021e-18
9162.05907 5.79821e-18
9162.92053 5.78604e-18
9163.78199 5.72945e-18
9164.64345 5.67274e-18
9165.50492 5.56967e-18
9166.36638 5.46646e-18
9167.22784 5.31447e-18
9168.09932 5.16235e-18
9168.96078 4.99915e-18
9169.82224 4.83592e-18
9170.68370 4.71257e-18
9171.54517 4.58933e-18
9172.40663 4.53132e-18
9173.26809 4.47350e-18
9174.12955 4.49195e-18
9174.99101 4.51062e-18
9175.85248 4.57415e-18
9176.71394 4.63781e-18
9177.58542 4.67513e-18
9178.44688 4.71236e-18
9179.30834 4.70270e-18
9180.16980 4.69292e-18
9181.03127 4.68308e-18
9181.89273 4.67325e-18
9182.75419 4.68899e-18
9183.61565 4.70481e-18
9184.47711 4.73695e-18
9185.33857 4.76913e-18
9186.20004 4.80658e-18
9187.07152 4.84404e-18
9187.93298 4.85994e-18
9188.79444 4.87578e-18
9189.65590 4.85523e-18
9190.51736 4.83456e-18
9191.37883 4.81906e-18
9192.24029 4.80357e-18
9193.10175 4.83008e-18
9193.96321 4.85670e-18
9194.82467 4.90879e-18
9195.68614 4.96094e-18
9196.55762 5.01517e-18
9197.41908 5.06939e-18
9198.28054 5.10455e-18
9199.14200 5.13967e-18
9200.00346 5.13541e-18
9200.86492 5.13105e-18
9201.72639 5.10238e-18
9202.58785 5.07363e-18
9203.44931 5.05006e-18
9204.31077 5.02651e-18
9205.17224 5.00889e-18
9206.04371 4.99128e-18
9206.90518 4.96666e-18
9207.76664 4.94202e-18
9208.62810 4.91451e-18
9209.48956 4.88699e-18
9210.35102 4.87046e-18
9211.21249 4.85395e-18
9212.07395 4.86232e-18
9212.93541 4.87076e-18
9213.79687 4.91998e-18
9214.65833 4.96932e-18
9215.52981 5.05621e-18
9216.39127 5.14321e-18
9217.25274 5.23476e-18
9218.11420 5.32631e-18
9218.97566 5.40107e-18
9219.83712 5.47578e-18
9220.69859 5.54058e-18
9221.56005 5.60537e-18
9222.42151 5.66408e-18
9223.28297 5.72277e-18
9224.14443 5.76884e-18
9225.00590 5.81488e-18
9225.87737 5.84375e-18
9226.73884 5.87257e-18
9227.60030 5.87943e-18
9228.46176 5.88624e-18
9229.32322 5.86925e-18
9230.18468 5.85221e-18
9231.04615 5.83074e-18
9231.90761 5.80926e-18
9232.76907 5.80567e-18
9233.63053 5.80212e-18
9234.49199 5.81148e-18
9235.35346 5.82087e-18
9236.22494 5.83061e-18
9237.08640 5.84035e-18
9237.94786 5.85619e-18
9238.80932 5.87205e-18
9239.67078 5.90583e-18
9240.53225 5.93964e-18
9241.39371 5.99702e-18
9242.25517 6.05446e-18
9243.11663 6.13774e-18
9243.97809 6.22109e-18
9244.84957 6.32303e-18
9245.71103 6.42501e-18
9246.57250 6.52905e-18
9247.43396 6.63310e-18
9248.29542 6.72979e-18
9249.15688 6.82646e-18
9250.01834 6.91776e-18
9250.87981 7.00904e-18
9251.74127 7.09033e-18
9252.60273 7.17159e-18
9253.46419 7.22338e-18
9254.32565 7.27509e-18
9255.19713 7.29421e-18
9256.05860 7.31323e-18
9256.92006 7.33754e-18
9257.78152 7.36187e-18
9258.64298 7.41987e-18
9259.50444 7.47796e-18
9260.36591 7.56104e-18
9261.22737 7.64418e-18
9262.08883 7.73702e-18
9262.95029 7.82988e-18
9263.81175 7.89896e-18
9264.68323 7.96797e-18
9265.54469 7.98122e-18
9266.40616 7.99431e-18
9267.26762 7.95263e-18
9268.12908 7.91080e-18
9268.99054 7.82739e-18
9269.85200 7.74388e-18
9270.71347 7.64980e-18
9271.57493 7.55570e-18
9272.43639 7.48797e-18
9273.29785 7.42032e-18
9274.16933 7.40815e-18
9275.03079 7.39612e-18
9275.89226 7.46089e-18
9276.75372 7.52587e-18
9277.61518 7.65668e-18
9278.47664 7.78768e-18
9279.33810 7.94851e-18
9280.19957 8.10941e-18
9281.06103 8.26138e-18
9281.92249 8.41332e-18
9282.79397 8.51892e-18
9283.65543 8.62442e-18
9284.51689 8.65382e-18
9285.37835 8.68297e-18
9286.23982 8.61846e-18
9287.10128 8.55369e-18
9287.96274 8.40308e-18
9288.82420 8.25213e-18
9289.68566 8.06314e-18
9290.54713 7.87404e-18
9291.40859 7.70221e-18
9292.27005 7.53044e-18
9293.14153 7.44890e-18
9294.00299 7.36760e-18
9294.86445 7.42407e-18
9295.72592 7.48093e-18
9296.58738 7.62625e-18
9297.44884 7.77182e-18
9298.31030 7.94071e-18
9299.17176 8.10966e-18
9300.03323 8.21316e-18
9300.89469 8.31648e-18
9301.75615 8.26928e-18
9302.62763 8.22164e-18
9303.48909 8.10567e-18
9304.35055 7.98951e-18
9305.21201 7.93879e-18
9306.07348 7.88825e-18
9306.93494 7.87155e-18
9307.79640 7.85494e-18
9308.65786 7.77503e-18
9309.51932 7.69493e-18
9310.38079 7.55631e-18
9311.24225 7.41754e-18
9312.11373 7.27759e-18
9312.97519 7.13765e-18
9313.83665 7.05264e-18
9314.69811 6.96778e-18
9315.55958 7.00166e-18
9316.42104 7.03588e-18
9317.28250 7.17621e-18
9318.14396 7.31684e-18
9319.00542 7.44060e-18
9319.86688 7.56431e-18
9320.72835 7.62324e-18
9321.58981 7.68199e-18
9322.46129 7.78944e-18
9323.32275 7.89703e-18
9324.18421 8.07780e-18
9325.04567 8.25878e-18
9325.90714 8.28107e-18
9326.76860 8.30291e-18
9327.63006 8.02381e-18
9328.49152 7.74386e-18
9329.35298 7.38774e-18
9330.21445 7.03140e-18
9331.07591 6.81549e-18
9331.94739 6.59999e-18
9332.80885 6.48240e-18
9333.67031 6.36510e-18
9334.53177 6.28308e-18
9335.39323 6.20116e-18
9336.25470 6.15613e-18
9337.11616 6.11120e-18
9337.97762 6.09239e-18
9338.83908 6.07367e-18
9339.70055 6.27238e-18
9340.56201 6.47170e-18
9341.43349 7.14699e-18
9342.29495 7.82363e-18
9343.15641 8.64366e-18
9344.01787 9.46402e-18
9344.87933 9.81826e-18
9345.74080 1.01711e-17
9346.60226 9.87740e-18
9347.46372 9.58179e-18
9348.32518 8.74412e-18
9349.18664 7.90495e-18
9350.04811 6.90853e-18
9350.90957 5.91169e-18
9351.78105 5.46696e-18
9352.64251 5.02382e-18
9353.50397 5.36387e-18
9354.36543 5.70614e-18
9355.22689 6.31703e-18
9356.08836 6.92867e-18
9356.94982 7.37828e-18
9357.81128 7.82742e-18
9358.67274 7.85800e-18
9359.53420 7.88739e-18
9360.39567 7.38751e-18
9361.26715 6.88613e-18
9362.12861 6.26067e-18
9362.99007 5.63487e-18
9363.85153 5.26596e-18
9364.71299 4.89781e-18
9365.57446 4.80747e-18
9366.43592 4.71794e-18
9367.29738 4.86936e-18
9368.15884 5.02145e-18
9369.02030 5.22477e-18
9369.89178 5.42822e-18
9370.75324 5.46601e-18
9371.61471 5.50333e-18
9372.47617 5.38893e-18
9373.33763 5.27409e-18
9374.19909 5.08874e-18
9375.06056 4.90319e-18
9375.92202 4.77111e-18
9376.78348 4.63919e-18
9377.64494 4.71214e-18
9378.50640 4.78566e-18
9379.37788 5.00609e-18
9380.23934 5.22693e-18
9381.10081 5.39944e-18
9381.96227 5.57181e-18
9382.82373 5.63416e-18
9383.68519 5.69620e-18
9384.54665 5.70457e-18
9385.40812 5.71279e-18
9386.26958 5.68273e-18
9387.13104 5.65256e-18
9387.99250 5.55775e-18
9388.85396 5.46276e-18
9389.72544 5.30171e-18
9390.58691 5.14048e-18
9391.44837 4.93751e-18
9392.30983 4.73441e-18
9393.17129 4.52280e-18
9394.03275 4.31116e-18
9394.89422 4.15000e-18
9395.75568 3.98900e-18
9396.61714 3.91830e-18
9397.47860 3.84786e-18
9398.34006 3.83798e-18
9399.21154 3.82827e-18
9400.07300 3.84192e-18
9400.93447 3.85565e-18
9401.79593 3.85704e-18
9402.65739 3.85838e-18
9403.51885 3.81614e-18
9404.38031 3.77378e-18
9405.24178 3.72315e-18
9406.10324 3.67249e-18
9406.96470 3.66293e-18
9407.82616 3.65348e-18
9408.69764 3.68553e-18
9409.55910 3.71770e-18
9410.42057 3.77416e-18
9411.28203 3.83069e-18
9412.14349 3.88484e-18
9413.00495 3.93899e-18
9413.86641 3.95916e-18
9414.72788 3.97922e-18
9415.58934 3.94428e-18
9416.45080 3.90918e-18
9417.31226 3.81261e-18
9418.17372 3.71585e-18
9419.04520 3.56441e-18
9419.90666 3.41280e-18
9420.76813 3.21659e-18
9421.62959 3.02025e-18
9422.49105 2.84950e-18
9423.35251 2.67882e-18
9424.21397 2.70112e-18
9425.07544 2.72399e-18
9425.93690 2.99316e-18
9426.79836 3.26303e-18
9427.65982 3.60336e-18
9428.53130 3.94387e-18
9429.39276 4.18595e-18
9430.25423 4.42773e-18
9431.11569 4.41474e-18
9431.97715 4.40101e-18
9432.83861 4.05351e-18
9433.70007 3.70505e-18
9434.56153 3.29858e-18
9435.42300 2.89196e-18
9436.28446 2.71474e-18
9437.14592 2.53820e-18
9438.01740 2.63564e-18
9438.87886 2.73389e-18
9439.74032 3.08732e-18
9440.60179 3.44149e-18
9441.46325 3.87143e-18
9442.32471 4.30157e-18
9443.18617 4.57695e-18
9444.04763 4.85188e-18
9444.90910 4.90664e-18
9445.77056 4.96074e-18
9446.63202 4.80929e-18
9447.49348 4.65723e-18
9448.36496 4.38133e-18
9449.22642 4.10508e-18
9450.08788 3.83627e-18
9450.94935 3.56749e-18
9451.81081 3.39149e-18
9452.67227 3.21576e-18
9453.53373 3.16598e-18
9454.39520 3.11656e-18
9455.25666 3.20132e-18
9456.11812 3.28649e-18
9456.98960 3.48524e-18
9457.85106 3.68432e-18
9458.71252 3.93756e-18
9459.57398 4.19095e-18
9460.43545 4.37858e-18
9461.29691 4.56602e-18
9462.15837 4.61569e-18
9463.01983 4.66496e-18
9463.88129 4.63320e-18
9464.74276 4.60121e-18
9465.60422 4.54712e-18
9466.47570 4.49298e-18
9467.33716 4.45286e-18
9468.19862 4.41280e-18
9469.06008 4.41583e-18
9469.92155 4.41899e-18
9470.78301 4.42044e-18
9471.64447 4.42188e-18
9472.50593 4.37411e-18
9473.36739 4.32621e-18
9474.22885 4.25904e-18
9475.09032 4.19182e-18
9475.96180 4.14583e-18
9476.82326 4.09990e-18
9477.68472 4.15919e-18
9478.54618 4.21879e-18
9479.40764 4.47821e-18
9480.26911 4.73819e-18
9481.13057 5.09474e-18
9481.99203 5.45157e-18
9482.85349 5.70603e-18
9483.71495 5.96017e-18
9484.57642 6.00754e-18
9485.43788 6.05430e-18
9486.30936 5.85781e-18
9487.17082 5.66061e-18
9488.03228 5.30026e-18
9488.89374 4.93946e-18
9489.75520 4.62599e-18
9490.61667 4.31267e-18
9491.47813 4.18083e-18
9492.33959 4.04953e-18
9493.20105 4.09684e-18
9494.06252 4.14468e-18
9494.92398 4.37047e-18
9495.79546 4.59679e-18
9496.65692 5.02982e-18
9497.51838 5.46346e-18
9498.37984 6.05810e-18
9499.24130 6.65319e-18
9500.10277 7.17674e-18
9500.96423 7.70006e-18
9501.82569 7.95125e-18
9502.68715 8.20165e-18
9503.54861 8.14867e-18
9504.41008 8.09480e-18
9505.28155 7.75819e-18
9506.14302 7.42076e-18
9507.00448 6.97537e-18
9507.86594 6.52968e-18
9508.72740 6.18348e-18
9509.58887 5.83757e-18
9510.45033 5.61094e-18
9511.31179 5.38465e-18
9512.17325 5.23648e-18
9513.03471 5.08853e-18
9513.89617 5.05929e-18
9514.75764 5.03040e-18
9515.62912 5.17800e-18
9516.49058 5.32611e-18
9517.35204 5.63366e-18
9518.21350 5.94167e-18
9519.07496 6.35238e-18
9519.93643 6.76340e-18
9520.79789 7.17729e-18
9521.65935 7.59119e-18
9522.52081 7.87057e-18
9523.38227 8.14955e-18
9524.24374 8.24802e-18
9525.11522 8.34595e-18
9525.97668 8.33587e-18
9526.83814 8.32548e-18
9527.69960 8.27358e-18
9528.56106 8.22156e-18
9529.42252 8.18054e-18
9530.28399 8.13956e-18
9531.14545 8.13899e-18
9532.00691 8.13854e-18
9532.86837 8.13161e-18
9533.72984 8.12465e-18
9534.60131 8.07181e-18
9535.46278 8.01883e-18
9536.32424 7.90812e-18
9537.18570 7.79724e-18
9538.04716 7.63500e-18
9538.90862 7.47262e-18
9539.77009 7.40692e-18
9540.63155 7.34151e-18
9541.49301 7.51209e-18
9542.35447 7.68336e-18
9543.21593 7.99011e-18
9544.08741 8.29725e-18
9544.94888 8.59116e-18
9545.81034 8.88500e-18
9546.67180 9.02066e-18
9547.53326 9.15582e-18
9548.39472 8.98412e-18
9549.25619 8.81158e-18
9550.11765 8.50547e-18
9550.97911 8.19899e-18
9551.84057 8.10665e-18
9552.70203 8.01494e-18
9553.57351 8.16001e-18
9554.43497 8.30577e-18
9555.29644 8.48246e-18
9556.15790 8.65920e-18
9557.01936 8.72884e-18
9557.88082 8.79814e-18
9558.74228 8.66835e-18
9559.60375 8.53807e-18
9560.46521 8.26616e-18
9561.32667 7.99389e-18
9562.18813 7.89421e-18
9563.05961 7.79504e-18
9563.92107 8.02973e-18
9564.78254 8.26540e-18
9565.64400 8.66751e-18
9566.50546 9.07014e-18
9567.36692 9.46008e-18
9568.22838 9.84993e-18
9569.08985 1.00133e-17
9569.95131 1.01761e-17
9570.81277 9.96543e-18
9571.67423 9.75366e-18
9572.53569 9.35457e-18
9573.40717 8.95497e-18
9574.26863 8.58805e-18
9575.13010 8.22130e-18
9575.99156 8.03404e-18
9576.85302 7.84733e-18
9577.71448 7.95619e-18
9578.57594 8.06593e-18
9579.43741 8.28788e-18
9580.29887 8.51009e-18
9581.16033 8.57772e-18
9582.02179 8.64492e-18
9582.89327 8.52286e-18
9583.75473 8.40030e-18
9584.61620 8.14104e-18
9585.47766 7.88134e-18
9586.33912 7.67182e-18
9587.20058 7.46244e-18
9588.06204 7.58736e-18
9588.92351 7.71326e-18
9589.78497 8.13697e-18
9590.64643 8.56159e-18
9591.51791 8.95749e-18
9592.37937 9.35339e-18
9593.24083 9.54542e-18
9594.10229 9.73695e-18
9594.96376 9.74199e-18
9595.82522 9.74652e-18
9596.68668 9.60002e-18
9597.54814 9.45310e-18
9598.40960 9.23764e-18
9599.27107 9.02209e-18
9600.13253 8.82888e-18
9600.99399 8.63568e-18
9601.86547 8.53681e-18
9602.72693 8.43819e-18
9603.58839 8.48069e-18
9604.44986 8.52370e-18
9605.31132 8.69977e-18
9606.17278 8.87626e-18
9607.03424 9.14624e-18
9607.89570 9.41639e-18
9608.75717 9.60859e-18
9609.61863 9.80054e-18
9610.48009 9.74946e-18
9611.35157 9.69763e-18
9612.21303 9.47343e-18
9613.07449 9.24881e-18
9613.93595 8.98387e-18
9614.79742 8.71876e-18
9615.65888 8.50505e-18
9616.52034 8.29146e-18
9617.38180 8.20570e-18
9618.24326 8.12032e-18
9619.10473 8.18223e-18
9619.96619 8.24456e-18
9620.82765 8.43281e-18
9621.69913 8.62148e-18
9622.56059 8.86820e-18
9623.42205 9.11508e-18
9624.28352 9.32576e-18
9625.14498 9.53635e-18
9626.00644 9.62094e-18
9626.86790 9.70511e-18
9627.72936 9.57919e-18
9628.59083 9.45268e-18
9629.45229 9.14104e-18
9630.31375 8.82888e-18
9631.17521 8.51597e-18
9632.04669 8.20302e-18
9632.90815 8.03197e-18
9633.76961 7.86135e-18
9634.63108 7.88789e-18
9635.49254 7.91503e-18
9636.35400 8.13329e-18
9637.21546 8.35210e-18
9638.07692 8.55504e-18
9638.93839 8.75790e-18
9639.79985 8.77437e-18
9640.67133 8.79024e-18
9641.53279 8.72707e-18
9642.39425 8.66365e-18
9643.25571 8.64567e-18
9644.11718 8.62787e-18
9644.97864 8.68524e-18
9645.84010 8.74295e-18
9646.70156 8.88794e-18
9647.56302 9.03318e-18
9648.42448 9.16892e-18
9649.28595 9.30459e-18
9650.15743 9.30492e-18
9651.01889 9.30476e-18
9651.88035 9.16918e-18
9652.74181 9.03318e-18
9653.60327 8.81830e-18
9654.46474 8.60309e-18
9655.32620 8.38658e-18
9656.18766 8.17004e-18
9657.04912 8.04161e-18
9657.91058 7.91344e-18
9658.77205 7.92320e-18
9659.64352 7.93338e-18
9660.50499 8.09360e-18
9661.36645 8.25427e-18
9662.22791 8.51421e-18
9663.08937 8.77445e-18
9663.95083 9.00168e-18
9664.81230 9.22882e-18
9665.67376 9.34667e-18
9666.53522 9.46428e-18
9667.39668 9.51333e-18
9668.25815 9.56222e-18
9669.11961 9.56575e-18
9669.99109 9.56911e-18
9670.85255 9.48788e-18
9671.71401 9.40631e-18
9672.57547 9.22957e-18
9673.43693 9.05250e-18
9674.29840 8.85249e-18
9675.15986 8.65231e-18
9676.02132 8.50111e-18
9676.88278 8.35008e-18
9677.74424 8.29803e-18
9678.61572 8.24628e-18
9679.47718 8.32672e-18
9680.33865 8.40753e-18
9681.20011 8.55420e-18
9682.06157 8.70095e-18
9682.92303 8.82149e-18
9683.78449 8.94195e-18
9684.64596 9.00907e-18
9685.50742 9.07593e-18
9686.36888 9.08585e-18
9687.23034 9.09559e-18
9688.10182 9.05787e-18
9688.96328 9.02007e-18
9689.82475 8.95808e-18
9690.68621 8.89600e-18
9691.54767 8.81393e-18
9692.40913 8.73178e-18
9693.27059 8.61728e-18
9694.13206 8.50262e-18
9694.99352 8.37256e-18
9695.85498 8.24245e-18
9696.71644 8.14304e-18
9697.57790 8.04372e-18
9698.44938 7.99793e-18
9699.31084 7.95230e-18
9700.17231 7.95140e-18
9701.03377 7.95064e-18
9701.89523 7.97574e-18
9702.75669 8.00092e-18
9703.61816 8.01000e-18
9704.47962 8.01903e-18
9705.34108 7.98496e-18
9706.20254 7.95075e-18
9707.06400 7.89968e-18
9707.93548 7.84857e-18
9708.79694 7.80765e-18
9709.65841 7.76678e-18
9710.51987 7.75081e-18
9711.38133 7.73491e-18
9712.24279 7.75355e-18
9713.10425 7.77228e-18
9713.96572 7.79975e-18
9714.82718 7.82723e-18
9715.68864 7.83252e-18
9716.55010 7.83776e-18
9717.41156 7.81199e-18
9718.28304 7.78615e-18
9719.14451 7.72577e-18
9720.00597 7.66528e-18
9720.86743 7.60258e-18
9721.72889 7.53987e-18
9722.59035 7.52452e-18
9723.45182 7.50932e-18
9724.31328 7.51952e-18
9725.17474 7.52980e-18
9726.03620 7.50072e-18
9726.89766 7.47153e-18
9727.76914 7.38022e-18
9728.63060 7.28874e-18
9729.49207 7.14726e-18
9730.35353 7.00563e-18
9731.21499 6.84416e-18
9732.07645 6.68264e-18
9732.93791 6.55668e-18
9733.79938 6.43085e-18
9734.66084 6.37500e-18
9735.52230 6.31937e-18
9736.38376 6.32690e-18
9737.25524 6.33462e-18
9738.11670 6.38997e-18
9738.97817 6.44546e-18
9739.83963 6.51799e-18
9740.70109 6.59058e-18
9741.56255 6.65000e-18
9742.42401 6.70939e-18
9743.28548 6.73966e-18
9744.14694 6.76984e-18
9745.00840 6.76143e-18
9745.86986 6.75291e-18
9746.74134 6.71874e-18
9747.60280 6.68450e-18
9748.46426 6.64228e-18
9749.32573 6.60004e-18
9750.18719 6.55398e-18
9751.04865 6.50790e-18
9751.91011 6.46022e-18
9752.77157 6.41253e-18
9753.63304 6.36166e-18
9754.49450 6.31078e-18
9755.35596 6.25343e-18
9756.22744 6.19604e-18
9757.08890 6.14414e-18
9757.95036 6.09224e-18
9758.81183 6.06342e-18
9759.67329 6.03467e-18
9760.53475 6.04257e-18
9761.39621 6.05059e-18
9762.25767 6.10692e-18
9763.11913 6.16340e-18
9763.98060 6.25043e-18
9764.84206 6.33754e-18
9765.71354 6.40531e-18
9766.57500 6.47302e-18
9767.43646 6.49705e-18
9768.29792 6.52094e-18
9769.15939 6.51728e-18
9770.02085 6.51352e-18
9770.88231 6.49585e-18
9771.74377 6.47813e-18
9772.60523 6.45328e-18
9773.46670 6.42842e-18
9774.32816 6.40508e-18
9775.19964 6.38172e-18
9776.06110 6.36674e-18
9776.92256 6.35177e-18
9777.78402 6.34971e-18
9778.64548 6.34769e-18
9779.50695 6.36441e-18
9780.36841 6.38119e-18
9781.22987 6.41829e-18
9782.09133 6.45546e-18
9782.95280 6.48084e-18
9783.81426 6.50617e-18
9784.68574 6.48490e-18
9785.54720 6.46348e-18
9786.40866 6.41248e-18
9787.27012 6.36140e-18
9788.13158 6.31249e-18
9788.99305 6.26358e-18
9789.85451 6.22796e-18
9790.71597 6.19236e-18
9791.57743 6.17469e-18
9792.43889 6.15706e-18
9793.30036 6.14540e-18
9794.16182 6.13376e-18
9795.03330 6.10304e-18
9795.89476 6.07226e-18
9796.75622 6.02980e-18
9797.61768 5.98731e-18
9798.47915 5.96974e-18
9799.34061 5.95225e-18
9800.20207 5.97183e-18
9801.06353 5.99152e-18
9801.92499 6.03086e-18
9802.78645 6.07027e-18
9803.64792 6.11186e-18
9804.51940 6.15345e-18
9805.38086 6.17672e-18
9806.24232 6.19993e-18
9807.10378 6.19490e-18
9807.96524 6.18978e-18
9808.82671 6.17619e-18
9809.68817 6.16256e-18
9810.54963 6.15918e-18
9811.41109 6.15583e-18
9812.27255 6.17454e-18
9813.13402 6.19331e-18
9813.99548 6.23962e-18
9814.86696 6.28601e-18
9815.72842 6.32696e-18
9816.58988 6.36790e-18
9817.45134 6.36849e-18
9818.31280 6.36897e-18
9819.17427 6.33387e-18
9820.03573 6.29866e-18
9820.89719 6.24259e-18
9821.75865 6.18645e-18
9822.62012 6.13102e-18
9823.48158 6.07559e-18
9824.35306 6.04598e-18
9825.21452 6.01646e-18
9826.07598 6.00900e-18
9826.93744 6.00161e-18
9827.79890 5.99593e-18
9828.66037 5.99025e-18
9829.52183 5.98129e-18
9830.38329 5.97233e-18
9831.24475 5.96615e-18
9832.10621 5.95997e-18
9832.97769 5.95517e-18
9833.83915 5.95036e-18
9834.70062 5.93901e-18
9835.56208 5.92765e-18
9836.42354 5.90611e-18
9837.28500 5.88454e-18
9838.14647 5.85494e-18
9839.00793 5.82533e-18
9839.86939 5.79009e-18
9840.73085 5.75483e-18
9841.59231 5.71520e-18
9842.45377 5.67555e-18
9843.32525 5.63604e-18
9844.18672 5.59653e-18
9845.04818 5.57115e-18
9845.90964 5.54581e-18
9846.77110 5.54558e-18
9847.63256 5.54542e-18
9848.49403 5.56693e-18
9849.35549 5.58851e-18
9850.21695 5.62549e-18
9851.07841 5.66253e-18
9851.93987 5.70900e-18
9852.81135 5.75550e-18
9853.67282 5.80439e-18
9854.53428 5.85328e-18
9855.39574 5.90012e-18
9856.25720 5.94694e-18
9857.11866 5.98843e-18
9857.98013 6.02990e-18
9858.84159 6.05717e-18
9859.70305 6.08439e-18
9860.56451 6.08726e-18
9861.42597 6.09007e-18
9862.29745 6.06718e-18
9863.15891 6.04421e-18
9864.02038 5.99992e-18
9864.88184 5.95555e-18
9865.74330 5.89794e-18
9866.60476 5.84027e-18
9867.46622 5.78089e-18
9868.32769 5.72151e-18
9869.18915 5.66699e-18
9870.05061 5.61249e-18
9870.92209 5.56207e-18
9871.78355 5.51167e-18
9872.64501 5.46622e-18
9873.50648 5.42078e-18
9874.36794 5.38419e-18
9875.22940 5.34762e-18
9876.09086 5.32297e-18
9876.95232 5.29835e-18
9877.81379 5.28848e-18
9878.67525 5.27865e-18
9879.53671 5.28484e-18
9880.39817 5.29108e-18
9881.26965 5.31138e-18
9882.13111 5.33171e-18
9882.99257 5.36247e-18
9883.85404 5.39324e-18
9884.71550 5.42780e-18
9885.57696 5.46237e-18
9886.43842 5.49353e-18
9887.29988 5.52469e-18
9888.16135 5.54572e-18
9889.02281 5.56672e-18
9889.88427 5.57197e-18
9890.74573 5.57716e-18
9891.61721 5.56648e-18
9892.47867 5.55576e-18
9893.34014 5.53202e-18
9894.20160 5.50823e-18
9895.06306 5.47447e-18
9895.92452 5.44066e-18
9896.78598 5.40010e-18
9897.64745 5.35952e-18
9898.50891 5.31742e-18
9899.37037 5.27532e-18
9900.23183 5.23867e-18
9901.09329 5.20204e-18
9901.96477 5.17198e-18
9902.82623 5.14194e-18
9903.68770 5.11256e-18
9904.54916 5.08318e-18
9905.41062 5.05583e-18
9906.27208 5.02849e-18
9907.13354 5.01607e-18
9907.99501 5.00369e-18
9908.85647 5.01233e-18
9909.71793 5.02103e-18
9910.57939 5.04485e-18
9911.45087 5.06872e-18
9912.31233 5.09814e-18
9913.17380 5.12759e-18
9914.03526 5.14238e-18
9914.89672 5.15713e-18
9915.75818 5.14121e-18
9916.61964 5.12521e-18
9917.48111 5.08421e-18
9918.34257 5.04313e-18
9919.20403 4.98687e-18
9920.07551 4.93056e-18
9920.93697 4.87020e-18
9921.79843 4.80982e-18
9922.65989 4.75671e-18
9923.52136 4.70363e-18
9924.38282 4.66275e-18
9925.24428 4.62192e-18
9926.10574 4.59522e-18
9926.96720 4.56858e-18
9927.82867 4.54868e-18
9928.69013 4.52879e-18
9929.56161 4.50394e-18
9930.42307 4.47906e-18
9931.28453 4.44542e-18
9932.14599 4.41175e-18
9933.00746 4.37100e-18
9933.86892 4.33023e-18
9934.73038 4.28583e-18
9935.59184 4.24141e-18
9936.45330 4.19835e-18
9937.31477 4.15529e-18
9938.17623 4.12018e-18
9939.03769 4.08509e-18
9939.90917 4.06622e-18
9940.77063 4.04739e-18
9941.63209 4.04703e-18
9942.49355 4.04673e-18
9943.35502 4.05630e-18
9944.21648 4.06589e-18
9945.07794 4.07798e-18
9945.93940 4.09007e-18
9946.80086 4.10279e-18
9947.66233 4.11553e-18
9948.52379 4.12674e-18
9949.39527 4.13796e-18
9950.25673 4.14355e-18
9951.11819 4.14913e-18
9951.97965 4.14645e-18
9952.84112 4.14375e-18
9953.70258 4.13812e-18
9954.56404 4.13249e-18
9955.42550 4.12976e-18
9956.28696 4.12704e-18
9957.14843 4.12330e-18
9958.00989 4.11955e-18
9958.88137 4.10940e-18
9959.74283 4.09922e-18
9960.60429 4.07991e-18
9961.46575 4.06057e-18
9962.32721 4.03030e-18
9963.18868 4.00000e-18
9964.05014 3.96784e-18
9964.91160 3.93569e-18
9965.77306 3.91678e-18
9966.63452 3.89791e-18
9967.49599 3.89580e-18
9968.36747 3.89373e-18
9969.22893 3.90257e-18
9970.09039 3.91144e-18
9970.95185 3.93034e-18
9971.81331 3.94926e-18
9972.67477 3.98254e-18
9973.53624 4.01587e-18
9974.39770 4.06173e-18
9975.25916 4.10763e-18
9976.12062 4.15626e-18
9976.98208 4.20489e-18
9977.85356 4.24847e-18
9978.71503 4.29203e-18
9979.57649 4.32683e-18
9980.43795 4.36160e-18
9981.29941 4.38629e-18
9982.16087 4.41096e-18
9983.02234 4.43081e-18
9983.88380 4.45065e-18
9984.74526 4.47096e-18
9985.60672 4.49127e-18
9986.46818 4.51466e-18
9987.32965 4.53806e-18
9988.20112 4.56591e-18
9989.06259 4.59376e-18
9989.92405 4.61625e-18
9990.78551 4.63872e-18
9991.64697 4.64473e-18
9992.50843 4.65068e-18
9993.36990 4.64856e-18
9994.23136 4.64641e-18
9995.09282 4.65041e-18
9995.95428 4.65444e-18
9996.81574 4.66216e-18
9997.67721 4.66988e-18
9998.54869 4.67221e-18
9999.41015 4.67451e-18
