# wavelength flux
3202.61818 2.75933e-18
3205.52176 2.38755e-18
3208.42534 3.00243e-18
3211.33910 3.51669e-18
3214.24268 2.93678e-18
3217.14626 2.68170e-18
3220.06003 3.44271e-18
3222.96361 3.65167e-18
3225.86719 2.94587e-18
3228.78096 2.29615e-18
3231.68454 1.67063e-18
3234.58812 1.57469e-18
3237.49170 2.49430e-18
3240.40547 3.18770e-18
3243.30905 3.25701e-18
3246.21263 3.13290e-18
3249.12640 3.08023e-18
3252.02998 2.99449e-18
3254.93356 2.80144e-18
3257.84732 2.82009e-18
3260.75090 2.88566e-18
3263.65448 2.61852e-18
3266.56825 2.27876e-18
3269.47183 2.11553e-18
3272.37541 1.93998e-18
3275.28918 2.32275e-18
3278.19276 3.10426e-18
3281.09634 3.21179e-18
3284.01011 3.07425e-18
3286.91369 3.30269e-18
3289.81727 3.41306e-18
3292.73104 3.20442e-18
3295.63462 3.22718e-18
3298.53820 3.55032e-18
3301.45196 3.72679e-18
3304.35554 3.81349e-18
3307.25912 3.74687e-18
3310.17289 3.26184e-18
3313.07647 2.68669e-18
3315.98005 2.54675e-18
3318.89382 2.86086e-18
3321.79740 3.08984e-18
3324.70098 2.93377e-18
3327.61475 2.80337e-18
3330.51833 2.93207e-18
3333.42191 3.13120e-18
3336.33568 3.09253e-18
3339.23926 2.82001e-18
3342.14284 2.68979e-18
3345.05660 2.95783e-18
3347.96018 3.41387e-18
3350.86376 3.69011e-18
3353.77753 3.65860e-18
3356.68111 3.37475e-18
3359.58469 2.98057e-18
3362.49846 2.83584e-18
3365.40204 3.04892e-18
3368.30562 3.41626e-18
3371.21939 3.75038e-18
3374.12297 3.78086e-18
3377.02655 3.45177e-18
3379.94032 3.28356e-18
3382.84390 3.37502e-18
3385.74748 3.41568e-18
3388.66124 3.36208e-18
3391.56482 3.25633e-18
3394.46840 3.23537e-18
3397.38217 3.42754e-18
3400.28575 3.71252e-18
3403.18933 3.85148e-18
3406.10310 3.77802e-18
3409.00668 3.63878e-18
3411.91026 3.60398e-18
3414.82403 3.67668e-18
3417.72761 3.67920e-18
3420.63119 3.58438e-18
3423.54496 3.48913e-18
3426.44854 3.42258e-18
3429.35212 3.51746e-18
3432.26588 3.72123e-18
3435.16946 3.82111e-18
3438.07304 3.88034e-18
3440.98681 3.86536e-18
3443.89039 3.58521e-18
3446.79397 3.32305e-18
3449.70774 3.34430e-18
3452.61132 3.38596e-18
3455.51490 3.34936e-18
3458.42867 3.43608e-18
3461.33225 3.57025e-18
3464.23583 3.62965e-18
3467.14960 3.63368e-18
3470.05318 3.58706e-18
3472.95676 3.58580e-18
3475.87052 3.73007e-18
3478.77410 3.90606e-18
3481.67768 3.98337e-18
3484.59145 3.93150e-18
3487.49503 3.77881e-18
3490.39861 3.75181e-18
3493.31238 3.97329e-18
3496.21596 4.31021e-18
3499.11954 4.42156e-18
3502.03331 4.17083e-18
3504.93689 3.89932e-18
3507.84047 3.94504e-18
3510.75424 4.10796e-18
3513.65782 4.20525e-18
3516.56140 4.27351e-18
3519.47516 4.22760e-18
3522.37874 4.12523e-18
3525.28232 4.11546e-18
3528.19609 4.28680e-18
3531.09967 4.43382e-18
3534.00325 4.45935e-18
3536.91702 4.48301e-18
3539.82060 4.47617e-18
3542.72418 4.34525e-18
3545.63795 4.27859e-18
3548.54153 4.42403e-18
3551.44511 4.59322e-18
3554.35888 4.55002e-18
3557.26246 4.38236e-18
3560.16604 4.34729e-18
3563.07980 4.41512e-18
3565.98338 4.40960e-18
3568.88696 4.30958e-18
3571.80073 4.28403e-18
3574.70431 4.41438e-18
3577.60789 4.49364e-18
3580.52166 4.46404e-18
3583.42524 4.40917e-18
3586.32882 4.37262e-18
3589.23240 4.37509e-18
3592.14617 4.36131e-18
3595.04975 4.28275e-18
3597.95333 4.48966e-18
3600.86710 5.68360e-18
3603.77068 7.02445e-18
3606.67426 6.13172e-18
3609.58802 3.80632e-18
3612.49160 3.00517e-18
3615.39518 3.47434e-18
3618.30895 3.83184e-18
3621.21253 3.99202e-18
3624.11611 3.55712e-18
3627.02988 1.93005e-18
3629.93346 2.69887e-18
3632.83704 4.55078e-18
3635.75081 3.45374e-18
3638.65439 2.79289e-18
3641.55797 3.68142e-18
3644.47174 4.69136e-18
3647.37532 5.75162e-18
3650.27890 7.10384e-18
3653.19266 6.20857e-18
3656.09624 3.48423e-18
3658.99982 3.03798e-18
3661.91359 4.39928e-18
3664.81717 5.38159e-18
3667.72075 6.13760e-18
3670.63452 5.81707e-18
3673.53810 4.36625e-18
3676.44168 3.87990e-18
3679.35545 4.86170e-18
3682.25903 5.56086e-18
3685.16261 4.60189e-18
3688.07638 3.99982e-18
3690.97996 4.44127e-18
3693.88354 4.86750e-18
3696.79730 5.22357e-18
3699.70088 5.08663e-18
3702.60446 4.60791e-18
3705.51823 4.55939e-18
3708.42181 4.73990e-18
3711.32539 4.46910e-18
3714.23916 4.32004e-18
3717.14274 4.91816e-18
3720.04632 5.57174e-18
3722.96009 5.28090e-18
3725.86367 4.99224e-18
3728.76725 4.80213e-18
3731.68102 4.12460e-18
3734.58460 3.64074e-18
3737.48818 3.98463e-18
3740.40194 3.89995e-18
3743.30552 3.60301e-18
3746.20910 3.71183e-18
3749.12287 3.89069e-18
3752.02645 3.76577e-18
3754.93003 3.16005e-18
3757.84380 3.44641e-18
3760.74738 4.06515e-18
3763.65096 3.81131e-18
3766.56473 3.59885e-18
3769.46831 3.61771e-18
3772.37189 3.91024e-18
3775.28566 4.23521e-18
3778.18924 4.17870e-18
3781.09282 4.14370e-18
3784.00658 4.10871e-18
3786.91016 4.07373e-18
3789.81374 4.03877e-18
3792.72751 4.00381e-18
3795.63109 3.96887e-18
3798.53467 3.93393e-18
3801.44844 3.89901e-18
3804.35202 3.86409e-18
3807.25560 3.82918e-18
3810.16937 3.79429e-18
3813.07295 3.75940e-18
3815.97653 3.72453e-18
3818.89030 3.68966e-18
3821.79388 3.87111e-18
3824.69746 3.97692e-18
3827.61122 4.12792e-18
3830.51480 4.35766e-18
3833.41838 4.54930e-18
3836.33215 4.50330e-18
3839.23573 4.50298e-18
3842.13931 4.61243e-18
3845.05308 4.59550e-18
3847.95666 4.75178e-18
3850.86024 5.13284e-18
3853.77401 5.39893e-18
3856.67759 5.34377e-18
3859.58117 5.09719e-18
3862.49494 5.12566e-18
3865.39852 5.29004e-18
3868.30210 5.65990e-18
3871.21586 6.14373e-18
3874.11944 6.12537e-18
3877.02302 5.95423e-18
3879.93679 5.93409e-18
3882.84037 5.66075e-18
3885.74395 5.42732e-18
3888.65772 5.50094e-18
3891.56130 5.61778e-18
3894.46488 5.85798e-18
3897.37865 6.33419e-18
3900.28223 6.59746e-18
3903.18581 6.44467e-18
3906.09958 6.35461e-18
3909.00316 6.40127e-18
3911.90674 6.36640e-18
3914.82050 6.30020e-18
3917.72408 6.37996e-18
3920.62766 6.62169e-18
3923.54143 6.68773e-18
3926.44501 6.52131e-18
3929.34859 6.40237e-18
3932.26236 6.45488e-18
3935.16594 6.76117e-18
3938.06952 7.00949e-18
3940.97310 7.00296e-18
3943.88687 7.00624e-18
3946.79045 7.09091e-18
3949.69403 7.08330e-18
3952.60780 7.10877e-18
3955.51138 7.08984e-18
3958.41496 7.17743e-18
3961.32872 7.34824e-18
3964.23230 7.55820e-18
3967.13588 7.70000e-18
3970.04965 7.57140e-18
3972.95323 7.36767e-18
3975.85681 7.23444e-18
3978.77058 7.23392e-18
3981.67416 7.27116e-18
3984.57774 7.29242e-18
3987.49151 7.36461e-18
3990.39509 7.35238e-18
3993.29867 7.07514e-18
3996.21244 6.92799e-18
3999.11602 6.99764e-18
4002.01960 6.96999e-18
4004.93336 6.96309e-18
4007.83694 6.91030e-18
4010.74052 6.80096e-18
4013.65429 6.83485e-18
4016.55787 6.94086e-18
4019.46145 6.98509e-18
4022.37522 6.97787e-18
4025.27880 6.88563e-18
4028.18238 6.78619e-18
4031.09615 6.76684e-18
4033.99973 6.75451e-18
4036.90331 6.78265e-18
4039.81708 7.00512e-18
4042.72066 7.24419e-18
4045.62424 7.24195e-18
4048.53800 7.09065e-18
4051.44158 6.93276e-18
4054.34516 6.81942e-18
4057.25893 6.77791e-18
4060.16251 6.80654e-18
4063.06609 6.84091e-18
4065.97986 6.87235e-18
4068.88344 7.02539e-18
4071.78702 7.21549e-18
4074.70079 7.05922e-18
4077.60437 6.83827e-18
4080.50795 6.95598e-18
4083.42172 7.00484e-18
4086.32530 6.98770e-18
4089.22888 6.99463e-18
4092.14264 6.93245e-18
4095.04622 6.80341e-18
4097.94980 6.75628e-18
4100.86357 6.78097e-18
4103.76715 6.71913e-18
4106.67073 6.65165e-18
4109.58450 6.66587e-18
4112.48808 6.65047e-18
4115.39166 6.68124e-18
4118.30543 6.69584e-18
4121.20901 6.63200e-18
4124.11259 6.58536e-18
4127.02636 6.49317e-18
4129.92994 6.50068e-18
4132.83352 6.55283e-18
4135.74728 6.48531e-18
4138.65086 6.44916e-18
4141.55444 6.51734e-18
4144.46821 6.56735e-18
4147.37179 6.53086e-18
4150.27537 6.49559e-18
4153.18914 6.39173e-18
4156.09272 6.26594e-18
4158.99630 6.25750e-18
4161.91007 6.28392e-18
4164.81365 6.25682e-18
4167.71723 6.35001e-18
4170.63100 6.58245e-18
4173.53458 6.81868e-18
4176.43816 7.06708e-18
4179.35192 7.20806e-18
4182.25550 7.13506e-18
4185.15908 6.88275e-18
4188.07285 6.60201e-18
4190.97643 6.42906e-18
4193.88001 6.34221e-18
4196.79378 6.33973e-18
4199.69736 6.41878e-18
4202.60094 6.45670e-18
4205.51471 6.47997e-18
4208.41829 6.52107e-18
4211.32187 6.47582e-18
4214.23564 6.40874e-18
4217.13922 6.36470e-18
4220.04280 6.41134e-18
4222.95656 6.48247e-18
4225.86014 6.42677e-18
4228.76372 6.31626e-18
4231.67749 6.30981e-18
4234.58107 6.35964e-18
4237.48465 6.38127e-18
4240.39842 6.36536e-18
4243.30200 6.36976e-18
4246.20558 6.40793e-18
4249.11935 6.38930e-18
4252.02293 6.36307e-18
4254.92651 6.40277e-18
4257.84028 6.49282e-18
4260.74386 6.60787e-18
4263.64744 6.62565e-18
4266.56120 6.59736e-18
4269.46478 6.59952e-18
4272.36836 6.61940e-18
4275.28213 6.61842e-18
4278.18571 6.60296e-18
4281.08929 6.60807e-18
4283.99287 6.63621e-18
4286.90664 6.56278e-18
4289.81022 6.50730e-18
4292.71380 6.52660e-18
4295.62757 6.61169e-18
4298.53115 6.64997e-18
4301.43473 6.64299e-18
4304.34850 6.65196e-18
4307.25208 6.62841e-18
4310.15566 6.56048e-18
4313.06942 6.45811e-18
4315.97300 6.37421e-18
4318.87658 6.39772e-18
4321.79035 6.39781e-18
4324.69393 6.33456e-18
4327.59751 6.28217e-18
4330.51128 6.28629e-18
4333.41486 6.29600e-18
4336.31844 6.23695e-18
4339.23221 6.11407e-18
4342.13579 5.97795e-18
4345.03937 5.92000e-18
4347.95314 5.90615e-18
4350.85672 5.86436e-18
4353.76030 5.92169e-18
4356.67406 6.00535e-18
4359.57764 6.05501e-18
4362.48122 6.07458e-18
4365.39499 6.02507e-18
4368.29857 5.95256e-18
4371.20215 5.89703e-18
4374.11592 5.89515e-18
4377.01950 5.91840e-18
4379.92308 5.95151e-18
4382.83685 5.94214e-18
4385.74043 5.87551e-18
4388.64401 5.83506e-18
4391.55778 5.80726e-18
4394.46136 5.81829e-18
4397.36494 5.86758e-18
4400.27870 5.88063e-18
4403.18228 5.88797e-18
4406.08586 5.96385e-18
4408.99963 6.15867e-18
4411.90321 6.39718e-18
4414.80679 6.45386e-18
4417.72056 6.51054e-18
4420.62414 6.56719e-18
4423.52772 6.62384e-18
4426.44149 6.68048e-18
4429.34507 6.73709e-18
4432.24865 6.79372e-18
4435.16242 6.85031e-18
4438.06600 6.90689e-18
4440.96958 6.96346e-18
4443.88334 7.02002e-18
4446.78692 7.07656e-18
4449.69050 7.13309e-18
4452.60427 7.18962e-18
4455.50785 7.24612e-18
4458.41143 7.30261e-18
4461.32520 7.35909e-18
4464.22878 7.41556e-18
4467.13236 7.47201e-18
4470.04613 7.52844e-18
4472.94971 7.58487e-18
4475.85329 7.64129e-18
4478.76706 7.61815e-18
4481.67064 7.68015e-18
4484.57422 7.86921e-18
4487.48798 8.04936e-18
4490.39156 8.10110e-18
4493.29514 8.11077e-18
4496.20891 8.11895e-18
4499.11249 8.19247e-18
4502.01607 8.30568e-18
4504.92984 8.37855e-18
4507.83342 8.51338e-18
4510.73700 8.65997e-18
4513.65077 8.83722e-18
4516.55435 8.99742e-18
4519.45793 9.07967e-18
4522.37170 9.16979e-18
4525.27528 9.33463e-18
4528.17886 9.52084e-18
4531.09262 9.67289e-18
4533.99620 9.88950e-18
4536.89978 1.01858e-17
4539.81355 1.04144e-17
4542.71713 1.05545e-17
4545.62071 1.07421e-17
4548.53448 1.09772e-17
4551.43806 1.11420e-17
4554.34164 1.12539e-17
4557.25541 1.13776e-17
4560.15899 1.15681e-17
4563.06257 1.18158e-17
4565.97634 1.20906e-17
4568.87992 1.23431e-17
4571.78350 1.25442e-17
4574.69726 1.27214e-17
4577.60084 1.28425e-17
4580.50442 1.29218e-17
4583.41819 1.30332e-17
4586.32177 1.30893e-17
4589.22535 1.31300e-17
4592.13912 1.32098e-17
4595.04270 1.31769e-17
4597.94628 1.30803e-17
4600.86005 1.31470e-17
4603.76363 1.32946e-17
4606.66721 1.33770e-17
4609.58098 1.33590e-17
4612.48456 1.32967e-17
4615.38814 1.33134e-17
4618.30190 1.33568e-17
4621.20548 1.33686e-17
4624.10906 1.33871e-17
4627.02283 1.33431e-17
4629.92641 1.32919e-17
4632.82999 1.33317e-17
4635.73357 1.34579e-17
4638.64734 1.35464e-17
4641.55092 1.34345e-17
4644.45450 1.31994e-17
4647.36827 1.30161e-17
4650.27185 1.28896e-17
4653.17543 1.27152e-17
4656.08920 1.25429e-17
4658.99278 1.24557e-17
4661.90654 1.24289e-17
4664.81012 1.23720e-17
4667.71370 1.22306e-17
4670.61728 1.20160e-17
4673.53105 1.18054e-17
4676.43463 1.16856e-17
4679.33821 1.15725e-17
4682.25198 1.13609e-17
4685.15556 1.11459e-17
4688.05914 1.10417e-17
4690.97291 1.09605e-17
4693.87649 1.08274e-17
4696.78007 1.06650e-17
4699.69384 1.04804e-17
4702.59742 1.02871e-17
4705.50100 1.01857e-17
4708.41476 1.01506e-17
4711.31834 1.00663e-17
4714.22192 9.94111e-18
4717.13569 9.77098e-18
4720.03927 9.57508e-18
4722.94285 9.50318e-18
4725.85662 9.50337e-18
4728.76020 9.47670e-18
4731.66378 9.44886e-18
4734.57755 9.35623e-18
4737.48113 9.20609e-18
4740.38471 9.08635e-18
4743.29848 9.02382e-18
4746.20206 8.94984e-18
4749.10564 8.84608e-18
4752.01940 8.79944e-18
4754.92298 8.81399e-18
4757.82656 8.84984e-18
4760.74033 8.85591e-18
4763.64391 8.74789e-18
4766.54749 8.65662e-18
4769.46126 8.65208e-18
4772.36484 8.61349e-18
4775.26842 8.59822e-18
4778.18219 8.58788e-18
4781.08577 8.51231e-18
4783.98935 8.46081e-18
4786.90312 8.47655e-18
4789.80670 8.53229e-18
4792.71028 8.61057e-18
4795.62404 8.68511e-18
4798.52762 8.71319e-18
4801.43120 8.69431e-18
4804.34497 8.66554e-18
4807.24855 8.67471e-18
4810.15213 8.77426e-18
4813.06590 8.88732e-18
4815.96948 8.93596e-18
4818.87306 8.93619e-18
4821.78683 8.93823e-18
4824.69041 8.93349e-18
4827.59399 8.92026e-18
4830.50776 8.93044e-18
4833.41134 8.96256e-18
4836.31492 8.96431e-18
4839.22868 8.92376e-18
4842.13226 8.89473e-18
4845.03584 8.91076e-18
4847.94961 8.88875e-18
4850.85319 8.79758e-18
4853.75677 8.74354e-18
4856.67054 8.77695e-18
4859.57412 8.83191e-18
4862.47770 8.84723e-18
4865.39147 8.89130e-18
4868.29505 8.96286e-18
4871.19863 8.97370e-18
4874.11240 8.96779e-18
4877.01598 9.07974e-18
4879.91956 9.28176e-18
4882.83332 9.44212e-18
4885.73690 9.55836e-18
4888.64048 9.75935e-18
4891.55425 1.00616e-17
4894.45783 1.02828e-17
4897.36141 1.04046e-17
4900.27518 1.05400e-17
4903.17876 1.06881e-17
4906.08234 1.08269e-17
4908.99611 1.10219e-17
4911.89969 1.12137e-17
4914.80327 1.13143e-17
4917.71704 1.14342e-17
4920.62062 1.16257e-17
4923.52420 1.17087e-17
4926.43796 1.16369e-17
4929.34154 1.16098e-17
4932.24512 1.16753e-17
4935.15889 1.15676e-17
4938.06247 1.14599e-17
4940.96605 1.13522e-17
4943.87982 1.12446e-17
4946.78340 1.11369e-17
4949.68698 1.10293e-17
4952.60075 1.09217e-17
4955.50433 1.08142e-17
4958.40791 1.07067e-17
4961.32168 1.05992e-17
4964.22526 1.04917e-17
4967.12884 1.03843e-17
4970.04260 1.02768e-17
4972.94618 1.01694e-17
4975.84976 9.92348e-18
4978.76353 9.69308e-18
4981.66711 9.53257e-18
4984.57069 9.43627e-18
4987.47427 9.36564e-18
4990.38804 9.29373e-18
4993.29162 9.17805e-18
4996.19520 9.03696e-18
4999.10897 8.91506e-18
5002.01255 8.86701e-18
5004.91613 8.84431e-18
5007.82990 8.73608e-18
5010.73348 8.63679e-18
5013.63706 8.62579e-18
5016.55082 8.63338e-18
5019.45440 8.64348e-18
5022.35798 8.61715e-18
5025.27175 8.53994e-18
5028.17533 8.49340e-18
5031.07891 8.51855e-18
5033.99268 8.54365e-18
5036.89626 8.56874e-18
5039.79984 8.59383e-18
5042.71361 8.61891e-18
5045.61719 8.64399e-18
5048.52077 8.66906e-18
5051.43454 8.69413e-18
5054.33812 8.71920e-18
5057.24170 8.74425e-18
5060.15546 8.76931e-18
5063.05904 8.79435e-18
5065.96262 8.81940e-18
5068.87639 8.84444e-18
5071.77997 8.86947e-18
5074.68355 8.88400e-18
5077.59732 8.89948e-18
5080.50090 8.91671e-18
5083.40448 8.92755e-18
5086.31825 8.93838e-18
5089.22183 8.94921e-18
5092.12541 8.96005e-18
5095.03918 8.97088e-18
5097.94276 8.98171e-18
5100.84634 8.99254e-18
5103.76010 9.00336e-18
5106.66368 9.01419e-18
5109.56726 9.02501e-18
5112.48103 9.03583e-18
5115.38461 9.04665e-18
5118.28819 9.05747e-18
5121.20196 9.06829e-18
5124.10554 9.09699e-18
5127.00912 9.15224e-18
5129.92289 9.24756e-18
5132.82647 9.36432e-18
5135.73005 9.46095e-18
5138.64382 9.54784e-18
5141.54740 9.62879e-18
5144.45098 9.69983e-18
5147.36474 9.78797e-18
5150.26832 9.90012e-18
5153.17190 9.96728e-18
5156.08567 9.99531e-18
5158.98925 1.00503e-17
5161.89283 1.01178e-17
5164.80660 1.01420e-17
5167.71018 1.01935e-17
5170.61376 1.03398e-17
5173.52753 1.04854e-17
5176.43111 1.05548e-17
5179.33469 1.06498e-17
5182.24846 1.08064e-17
5185.15204 1.09693e-17
5188.05562 1.11203e-17
5190.96938 1.12295e-17
5193.87296 1.12613e-17
5196.77654 1.13240e-17
5199.69031 1.15089e-17
5202.59389 1.17086e-17
5205.49747 1.18466e-17
5208.41124 1.19777e-17
5211.31482 1.20996e-17
5214.21840 1.22268e-17
5217.13217 1.24081e-17
5220.03575 1.25892e-17
5222.93933 1.27047e-17
5225.85310 1.28209e-17
5228.75668 1.29513e-17
5231.66026 1.30639e-17
5234.57402 1.31505e-17
5237.47760 1.32829e-17
5240.38118 1.35178e-17
5243.29495 1.37700e-17
5246.19853 1.39277e-17
5249.10211 1.40244e-17
5252.01588 1.41529e-17
5254.91946 1.42973e-17
5257.82304 1.43627e-17
5260.73681 1.43759e-17
5263.64039 1.44609e-17
5266.54397 1.46229e-17
5269.45774 1.47924e-17
5272.36132 1.50041e-17
5275.26490 1.52029e-17
5278.17866 1.51235e-17
5281.08224 1.47527e-17
5283.98582 1.47193e-17
5286.89959 1.52263e-17
5289.80317 1.56542e-17
5292.70675 1.57705e-17
5295.62052 1.58293e-17
5298.52410 1.58979e-17
5301.42768 1.59768e-17
5304.34145 1.61831e-17
5307.24503 1.65180e-17
5310.14861 1.67884e-17
5313.06238 1.68838e-17
5315.96596 1.68401e-17
5318.86954 1.67753e-17
5321.78330 1.68491e-17
5324.68688 1.70376e-17
5327.59046 1.72412e-17
5330.50423 1.74244e-17
5333.40781 1.75459e-17
5336.31139 1.75387e-17
5339.21497 1.74960e-17
5342.12874 1.75181e-17
5345.03232 1.75420e-17
5347.93590 1.75488e-17
5350.84967 1.76046e-17
5353.75325 1.76958e-17
5356.65683 1.77013e-17
5359.57060 1.76300e-17
5362.47418 1.76134e-17
5365.38794 1.76523e-17
5368.29152 1.76518e-17
5371.19510 1.76130e-17
5374.09868 1.76214e-17
5377.01245 1.76822e-17
5379.91603 1.77163e-17
5382.81961 1.77261e-17
5385.73338 1.77225e-17
5388.63696 1.77405e-17
5391.54054 1.79753e-17
5394.45431 1.84699e-17
5397.35789 1.88701e-17
5400.26147 1.90324e-17
5403.17524 1.91103e-17
5406.07882 1.92014e-17
5408.98240 1.93264e-17
5411.89616 1.94897e-17
5414.79974 1.96670e-17
5417.70332 1.98658e-17
5420.61709 2.00838e-17
5423.52067 2.02432e-17
5426.42425 2.03613e-17
5429.33802 2.04997e-17
5432.24160 2.06968e-17
5435.14518 2.09488e-17
5438.05895 2.11893e-17
5440.96253 2.13739e-17
5443.86611 2.15118e-17
5446.77988 2.16450e-17
5449.68346 2.17459e-17
5452.58704 2.18025e-17
5455.50080 2.19110e-17
5458.40438 2.21023e-17
5461.30796 2.23612e-17
5464.22173 2.25683e-17
5467.12531 2.26094e-17
5470.02889 2.26444e-17
5472.94266 2.28381e-17
5475.84624 2.30468e-17
5478.74982 2.31116e-17
5481.66359 2.31419e-17
5484.56717 2.32654e-17
5487.47075 2.34371e-17
5490.38452 2.35456e-17
5493.28810 2.35949e-17
5496.19168 2.36693e-17
5499.10544 2.37844e-17
5502.00902 2.38641e-17
5504.91260 2.38475e-17
5507.82637 2.37866e-17
5510.72995 2.37819e-17
5513.63353 2.38742e-17
5516.54730 2.40524e-17
5519.45088 2.42361e-17
5522.35446 2.42824e-17
5525.26823 2.42022e-17
5528.17181 2.41434e-17
5531.07539 2.41580e-17
5533.98916 2.42646e-17
5536.89274 2.43536e-17
5539.79632 2.42979e-17
5542.71008 2.42116e-17
5545.61366 2.41903e-17
5548.51724 2.41618e-17
5551.43101 2.40792e-17
5554.33459 2.39430e-17
5557.23817 2.38490e-17
5560.15194 2.39272e-17
5563.05552 2.40490e-17
5565.95910 2.40150e-17
5568.87287 2.39105e-17
5571.77645 2.38233e-17
5574.68003 2.36755e-17
5577.59380 2.34909e-17
5580.49738 2.33769e-17
5583.40096 2.33014e-17
5586.31472 2.31655e-17
5589.21830 2.29847e-17
5592.12188 2.28623e-17
5595.03565 2.28172e-17
5597.93923 2.28101e-17
5600.84281 2.28036e-17
5603.75658 2.27197e-17
5606.66016 2.25423e-17
5609.56374 2.24033e-17
5612.47751 2.23376e-17
5615.38109 2.22496e-17
5618.28467 2.21358e-17
5621.19844 2.20496e-17
5624.10202 2.20103e-17
5627.00560 2.19446e-17
5629.91936 2.17773e-17
5632.82294 2.15484e-17
5635.72652 2.13232e-17
5638.64029 2.11556e-17
5641.54387 2.10677e-17
5644.44745 2.09936e-17
5647.36122 2.08456e-17
5650.26480 2.06548e-17
5653.16838 2.04928e-17
5656.08215 2.03569e-17
5658.98573 2.02016e-17
5661.88931 2.00308e-17
5664.80308 1.99316e-17
5667.70666 1.98706e-17
5670.61024 1.96924e-17
5673.52400 1.93887e-17
5676.42758 1.91312e-17
5679.33116 1.89914e-17
5682.24493 1.88960e-17
5685.14851 1.87921e-17
5688.05209 1.86831e-17
5690.95567 1.85780e-17
5693.86944 1.84509e-17
5696.77302 1.82904e-17
5699.67660 1.81484e-17
5702.59037 1.80289e-17
5705.49395 1.78797e-17
5708.39753 1.76764e-17
5711.31130 1.74999e-17
5714.21488 1.74062e-17
5717.11846 1.73244e-17
5720.03222 1.72003e-17
5722.93580 1.70760e-17
5725.83938 1.69480e-17
5728.75315 1.68191e-17
5731.65673 1.67248e-17
5734.57050 1.66564e-17
5737.47408 1.66011e-17
5740.37766 1.65737e-17
5743.28124 1.65815e-17
5746.19501 1.65973e-17
5749.09859 1.65790e-17
5752.00217 1.65365e-17
5754.91594 1.65137e-17
5757.81952 1.65101e-17
5760.72310 1.65136e-17
5763.63686 1.65281e-17
5766.54044 1.65347e-17
5769.44402 1.65222e-17
5772.35779 1.64964e-17
5775.26137 1.64779e-17
5778.16495 1.64602e-17
5781.07872 1.64663e-17
5783.98230 1.65467e-17
5786.88588 1.65775e-17
5789.79965 1.65412e-17
5792.70323 1.65213e-17
5795.60681 1.65849e-17
5798.52058 1.66992e-17
5801.42416 1.67842e-17
5804.32774 1.68368e-17
5807.24150 1.68815e-17
5810.14508 1.69333e-17
5813.04866 1.70215e-17
5815.96243 1.71200e-17
5818.86601 1.70905e-17
5821.76959 1.68535e-17
5824.68336 1.66908e-17
5827.58694 1.68690e-17
5830.49052 1.71396e-17
5833.40429 1.72281e-17
5836.30787 1.72002e-17
5839.21145 1.71940e-17
5842.12522 1.72169e-17
5845.02880 1.71976e-17
5847.93238 1.71397e-17
5850.84614 1.71483e-17
5853.74972 1.71927e-17
5856.65330 1.71984e-17
5859.56707 1.72086e-17
5862.47065 1.72216e-17
5865.37423 1.71705e-17
5868.28800 1.71049e-17
5871.19158 1.70831e-17
5874.09516 1.70918e-17
5877.00893 1.71030e-17
5879.91251 1.70493e-17
5882.81609 1.69306e-17
5885.72986 1.68165e-17
5888.63344 1.67365e-17
5891.53702 1.67291e-17
5894.45078 1.68033e-17
5897.35436 1.68743e-17
5900.25794 1.69414e-17
5903.17171 1.70257e-17
5906.07529 1.70629e-17
5908.97887 1.70259e-17
5911.89264 1.69867e-17
5914.79622 1.69791e-17
5917.69980 1.69518e-17
5920.61357 1.69219e-17
5923.51715 1.69319e-17
5926.42073 1.69406e-17
5929.33450 1.68896e-17
5932.23808 1.67727e-17
5935.14166 1.66343e-17
5938.05542 1.65131e-17
5940.95900 1.64167e-17
5943.86258 1.63525e-17
5946.77635 1.63077e-17
5949.67993 1.62423e-17
5952.58351 1.61520e-17
5955.49728 1.60658e-17
5958.40086 1.60061e-17
5961.30444 1.59463e-17
5964.21821 1.58866e-17
5967.12179 1.58269e-17
5970.02537 1.57672e-17
5972.93914 1.57075e-17
5975.84272 1.56478e-17
5978.74630 1.55881e-17
5981.66006 1.55284e-17
5984.56364 1.54687e-17
5987.46722 1.54091e-17
5990.38099 1.53494e-17
5993.28457 1.52898e-17
5996.18815 1.52302e-17
5999.10192 1.51705e-17
6002.00550 1.51109e-17
6004.90908 1.50513e-17
6007.82285 1.49917e-17
6010.72643 1.49322e-17
6013.63001 1.48726e-17
6016.54378 1.48130e-17
6019.44736 1.47535e-17
6022.35094 1.47856e-17
6025.26470 1.48091e-17
6028.16828 1.47550e-17
6031.07186 1.46574e-17
6033.98563 1.46481e-17
6036.88921 1.46945e-17
6039.79279 1.46819e-17
6042.70656 1.45935e-17
6045.61014 1.45289e-17
6048.51372 1.45496e-17
6051.41730 1.46067e-17
6054.33107 1.46040e-17
6057.23465 1.45345e-17
6060.13823 1.44890e-17
6063.05200 1.44646e-17
6065.95558 1.44038e-17
6068.86934 1.43218e-17
6071.77292 1.42699e-17
6074.67650 1.42329e-17
6077.58008 1.41837e-17
6080.49385 1.41598e-17
6083.39743 1.42032e-17
6086.31120 1.42626e-17
6089.21478 1.42620e-17
6092.11836 1.42444e-17
6095.02194 1.42422e-17
6097.93571 1.42090e-17
6100.83929 1.41929e-17
6103.74287 1.42506e-17
6106.65664 1.42930e-17
6109.56022 1.42854e-17
6112.46380 1.42990e-17
6115.37756 1.43731e-17
6118.28114 1.44554e-17
6121.18472 1.45111e-17
6124.09849 1.45584e-17
6127.00207 1.45540e-17
6129.90565 1.45326e-17
6132.81942 1.46009e-17
6135.72300 1.47378e-17
6138.62658 1.48736e-17
6141.54035 1.49771e-17
6144.44393 1.50245e-17
6147.34751 1.50288e-17
6150.26128 1.50369e-17
6153.16486 1.50792e-17
6156.06844 1.51663e-17
6158.98220 1.52475e-17
6161.88578 1.52411e-17
6164.78936 1.51642e-17
6167.70313 1.51071e-17
6170.60671 1.50769e-17
6173.51029 1.49978e-17
6176.42406 1.48973e-17
6179.32764 1.48479e-17
6182.23122 1.48183e-17
6185.14499 1.47717e-17
6188.04857 1.47066e-17
6190.95215 1.45958e-17
6193.86592 1.44766e-17
6196.76950 1.44436e-17
6199.67308 1.44426e-17
6202.58684 1.43413e-17
6205.49042 1.41624e-17
6208.39400 1.40072e-17
6211.30777 1.38967e-17
6214.21135 1.37994e-17
6217.11493 1.36980e-17
6220.02870 1.36185e-17
6222.93228 1.35694e-17
6225.83586 1.35229e-17
6228.74963 1.34715e-17
6231.65321 1.33729e-17
6234.55679 1.32148e-17
6237.47056 1.30891e-17
6240.37414 1.30630e-17
6243.27772 1.30689e-17
6246.19148 1.29952e-17
6249.09506 1.28601e-17
6251.99864 1.27771e-17
6254.91241 1.27561e-17
6257.81599 1.26907e-17
6260.71957 1.25891e-17
6263.63334 1.25205e-17
6266.53692 1.24397e-17
6269.44050 1.22872e-17
6272.35427 1.21267e-17
6275.25785 1.20216e-17
6278.16143 1.19313e-17
6281.07520 1.18570e-17
6283.97878 1.18530e-17
6286.88236 1.18882e-17
6289.79612 1.19182e-17
6292.69970 1.20097e-17
6295.60328 1.21723e-17
6298.51705 1.22769e-17
6301.42063 1.22165e-17
6304.32421 1.20280e-17
6307.23798 1.18794e-17
6310.14156 1.18582e-17
6313.04514 1.19115e-17
6315.95891 1.19820e-17
6318.86249 1.20626e-17
6321.76607 1.21671e-17
6324.67984 1.22173e-17
6327.58342 1.21890e-17
6330.48700 1.22061e-17
6333.40076 1.22682e-17
6336.30434 1.22887e-17
6339.20792 1.22662e-17
6342.12169 1.22235e-17
6345.02527 1.22198e-17
6347.92885 1.23174e-17
6350.84262 1.25110e-17
6353.74620 1.27521e-17
6356.64978 1.29565e-17
6359.56355 1.30911e-17
6362.46713 1.31885e-17
6365.37071 1.32528e-17
6368.28448 1.33004e-17
6371.18806 1.33663e-17
6374.09164 1.34511e-17
6377.00540 1.35392e-17
6379.90898 1.36177e-17
6382.81256 1.36943e-17
6385.72633 1.38046e-17
6388.62991 1.39736e-17
6391.53349 1.41571e-17
6394.44726 1.42881e-17
6397.35084 1.43794e-17
6400.25442 1.44779e-17
6403.15800 1.46102e-17
6406.07177 1.47578e-17
6408.97535 1.49027e-17
6411.87893 1.50828e-17
6414.79270 1.52965e-17
6417.69628 1.54717e-17
6420.59986 1.55200e-17
6423.51362 1.54347e-17
6426.41720 1.53759e-17
6429.32078 1.54695e-17
6432.23455 1.55918e-17
6435.13813 1.56290e-17
6438.05190 1.56528e-17
6440.95548 1.57136e-17
6443.85906 1.57822e-17
6446.76264 1.58162e-17
6449.67641 1.58172e-17
6452.57999 1.58399e-17
6455.48357 1.58707e-17
6458.39734 1.59043e-17
6461.30092 1.59783e-17
6464.20450 1.60608e-17
6467.11826 1.60893e-17
6470.02184 1.60860e-17
6472.92542 1.61478e-17
6475.83919 1.62677e-17
6478.74277 1.63609e-17
6481.64635 1.64310e-17
6484.56012 1.65259e-17
6487.46370 1.66031e-17
6490.36728 1.65910e-17
6493.28105 1.65456e-17
6496.18463 1.65867e-17
6499.08821 1.66867e-17
6502.00198 1.67585e-17
6504.90556 1.68251e-17
6507.80914 1.69020e-17
6510.72290 1.69647e-17
6513.62648 1.70241e-17
6516.53006 1.70955e-17
6519.44383 1.71368e-17
6522.34741 1.71280e-17
6525.25099 1.70882e-17
6528.16476 1.70074e-17
6531.06834 1.69635e-17
6533.97192 1.70714e-17
6536.88569 1.72282e-17
6539.78927 1.72970e-17
6542.69285 1.73246e-17
6545.60662 1.73648e-17
6548.51020 1.73704e-17
6551.41378 1.73006e-17
6554.32754 1.72063e-17
6557.23112 1.71787e-17
6560.13470 1.72500e-17
6563.04847 1.73278e-17
6565.95205 1.73345e-17
6568.85563 1.73311e-17
6571.76940 1.73593e-17
6574.67298 1.73706e-17
6577.57656 1.73495e-17
6580.49033 1.73503e-17
6583.39391 1.74172e-17
6586.29749 1.75029e-17
6589.21126 1.75307e-17
6592.11484 1.75023e-17
6595.01842 1.74338e-17
6597.93218 1.73519e-17
6600.83576 1.73226e-17
6603.73934 1.73174e-17
6606.65311 1.72486e-17
6609.55669 1.71816e-17
6612.46027 1.72002e-17
6615.37404 1.72049e-17
6618.27762 1.71113e-17
6621.18120 1.69952e-17
6624.09497 1.69325e-17
6626.99855 1.68754e-17
6629.90213 1.68096e-17
6632.81590 1.67839e-17
6635.71948 1.67512e-17
6638.62306 1.66426e-17
6641.53682 1.64865e-17
6644.44040 1.63381e-17
6647.34398 1.62105e-17
6650.25775 1.61073e-17
6653.16133 1.60807e-17
6656.06491 1.60541e-17
6658.97868 1.60274e-17
6661.88226 1.60008e-17
6664.78584 1.59742e-17
6667.69961 1.59476e-17
6670.60319 1.59210e-17
6673.50677 1.58944e-17
6676.42054 1.58678e-17
6679.32412 1.58412e-17
6682.22770 1.58146e-17
6685.14146 1.57880e-17
6688.04504 1.57614e-17
6690.94862 1.57348e-17
6693.86239 1.56806e-17
6696.76597 1.56264e-17
6699.66955 1.55722e-17
6702.58332 1.55180e-17
6705.48690 1.54638e-17
6708.39048 1.54096e-17
6711.30425 1.53554e-17
6714.20783 1.53012e-17
6717.11141 1.52471e-17
6720.02518 1.51929e-17
6722.92876 1.51387e-17
6725.83234 1.50846e-17
6728.74610 1.50506e-17
6731.64968 1.50494e-17
6734.55326 1.50742e-17
6737.46703 1.50689e-17
6740.37061 1.50356e-17
6743.27419 1.49775e-17
6746.18796 1.48857e-17
6749.09154 1.48050e-17
6751.99512 1.47803e-17
6754.89870 1.47824e-17
6757.81247 1.47620e-17
6760.71605 1.47329e-17
6763.61963 1.47419e-17
6766.53340 1.47679e-17
6769.43698 1.47622e-17
6772.35074 1.47145e-17
6775.25432 1.46554e-17
6778.15790 1.45989e-17
6781.06148 1.45041e-17
6783.97525 1.44215e-17
6786.87883 1.44208e-17
6789.79260 1.44231e-17
6792.69618 1.43725e-17
6795.59976 1.43198e-17
6798.50334 1.42765e-17
6801.41711 1.42296e-17
6804.32069 1.41958e-17
6807.22427 1.41487e-17
6810.13804 1.40885e-17
6813.04162 1.40404e-17
6815.94520 1.39696e-17
6818.85896 1.39156e-17
6821.76254 1.38995e-17
6824.66612 1.38913e-17
6827.57989 1.38832e-17
6830.48347 1.38750e-17
6833.38705 1.38668e-17
6836.30082 1.38587e-17
6839.20440 1.37403e-17
6842.10798 1.36220e-17
6845.02175 1.35036e-17
6847.92533 1.33853e-17
6850.82891 1.32670e-17
6853.74268 1.31487e-17
6856.64626 1.30304e-17
6859.54984 1.29121e-17
6862.46360 1.27938e-17
6865.36718 1.26756e-17
6868.27076 1.25573e-17
6871.18453 1.24391e-17
6874.08811 1.23208e-17
6876.99169 1.22026e-17
6879.90546 1.22562e-17
6882.80904 1.21333e-17
6885.71262 1.20039e-17
6888.62639 1.20634e-17
6891.52997 1.21550e-17
6894.43355 1.20810e-17
6897.34732 1.19572e-17
6900.25090 1.19572e-17
6903.15448 1.20461e-17
6906.06824 1.20520e-17
6908.97182 1.19496e-17
6911.87540 1.19388e-17
6914.78917 1.20833e-17
6917.69275 1.22290e-17
6920.59633 1.22800e-17
6923.51010 1.22744e-17
6926.41368 1.23000e-17
6929.31726 1.23483e-17
6932.23103 1.23465e-17
6935.13461 1.23396e-17
6938.03819 1.23934e-17
6940.95196 1.24843e-17
6943.85554 1.25822e-17
6946.75912 1.26600e-17
6949.67288 1.27016e-17
6952.57646 1.27065e-17
6955.48004 1.26898e-17
6958.39381 1.26966e-17
6961.29739 1.27396e-17
6964.20097 1.28070e-17
6967.11474 1.28879e-17
6970.01832 1.29684e-17
6972.92190 1.30289e-17
6975.83567 1.30137e-17
6978.73925 1.29348e-17
6981.64283 1.28784e-17
6984.55660 1.28556e-17
6987.46018 1.28420e-17
6990.36376 1.28485e-17
6993.27752 1.28867e-17
6996.18110 1.29182e-17
6999.08468 1.29252e-17
7001.99845 1.29131e-17
7004.90203 1.28932e-17
7007.80561 1.28742e-17
7010.71938 1.28530e-17
7013.62296 1.28279e-17
7016.52654 1.27868e-17
7019.44031 1.27525e-17
7022.34389 1.27329e-17
7025.24747 1.27094e-17
7028.16124 1.26793e-17
7031.06482 1.26445e-17
7033.96840 1.26086e-17
7036.88216 1.25767e-17
7039.78574 1.25494e-17
7042.68932 1.25201e-17
7045.60309 1.24853e-17
7048.50667 1.24484e-17
7051.41025 1.24104e-17
7054.32402 1.23678e-17
7057.22760 1.23224e-17
7060.13118 1.22817e-17
7063.04495 1.22500e-17
7065.94853 1.22218e-17
7068.85211 1.21903e-17
7071.76588 1.21522e-17
7074.66946 1.21033e-17
7077.57304 1.20424e-17
7080.48680 1.19751e-17
7083.39038 1.19070e-17
7086.29396 1.18403e-17
7089.20773 1.17771e-17
7092.11131 1.17213e-17
7095.01489 1.16768e-17
7097.92866 1.16447e-17
7100.83224 1.16206e-17
7103.73582 1.15962e-17
7106.63940 1.15663e-17
7109.55317 1.15311e-17
7112.45675 1.14917e-17
7115.36033 1.14504e-17
7118.27410 1.14122e-17
7121.17768 1.13841e-17
7124.08126 1.13679e-17
7126.99502 1.13557e-17
7129.89860 1.13383e-17
7132.80218 1.13175e-17
7135.71595 1.13006e-17
7138.61953 1.12883e-17
7141.53330 1.12794e-17
7144.43688 1.12772e-17
7147.34046 1.12837e-17
7150.24404 1.12954e-17
7153.15781 1.13099e-17
7156.06139 1.13301e-17
7158.96497 1.13572e-17
7161.87874 1.13891e-17
7164.78232 1.14228e-17
7167.68590 1.14513e-17
7170.59966 1.14670e-17
7173.50324 1.14793e-17
7176.40682 1.15069e-17
7179.32059 1.15495e-17
7182.22417 1.15978e-17
7185.12775 1.16556e-17
7188.04152 1.17262e-17
7190.94510 1.18005e-17
7193.84868 1.18642e-17
7196.76245 1.19120e-17
7199.66603 1.19531e-17
7202.56961 1.19961e-17
7205.48338 1.20348e-17
7208.38696 1.20610e-17
7211.29054 1.20802e-17
7214.20430 1.21003e-17
7217.10788 1.21193e-17
7220.01146 1.21349e-17
7222.92523 1.21530e-17
7225.82881 1.21777e-17
7228.73239 1.22033e-17
7231.64616 1.22217e-17
7234.54974 1.22301e-17
7237.45332 1.22301e-17
7240.36709 1.22314e-17
7243.27067 1.22387e-17
7246.17425 1.22416e-17
7249.08802 1.22321e-17
7251.99160 1.22128e-17
7254.89518 1.21827e-17
7257.80894 1.21378e-17
7260.71252 1.20869e-17
7263.61610 1.20396e-17
7266.52987 1.19981e-17
7269.43345 1.19665e-17
7272.33703 1.19452e-17
7275.25080 1.19327e-17
7278.15438 1.19304e-17
7281.05796 1.19334e-17
7283.97173 1.19316e-17
7286.87531 1.19219e-17
7289.77889 1.19095e-17
7292.69266 1.19054e-17
7295.59624 1.19175e-17
7298.49982 1.19448e-17
7301.41358 1.19815e-17
7304.31716 1.20183e-17
7307.22074 1.20449e-17
7310.13451 1.20561e-17
7313.03809 1.20507e-17
7315.94167 1.20374e-17
7318.85544 1.20310e-17
7321.75902 1.20363e-17
7324.66260 1.20530e-17
7327.57637 1.20872e-17
7330.47995 1.21371e-17
7333.38353 1.21866e-17
7336.29730 1.22273e-17
7339.20088 1.22588e-17
7342.10446 1.22769e-17
7345.01822 1.22803e-17
7347.92180 1.22726e-17
7350.82538 1.22559e-17
7353.73915 1.22381e-17
7356.64273 1.22339e-17
7359.54631 1.22526e-17
7362.46008 1.22911e-17
7365.36366 1.23340e-17
7368.26724 1.23617e-17
7371.18101 1.23626e-17
7374.08459 1.23363e-17
7376.98817 1.22938e-17
7379.90194 1.22526e-17
7382.80552 1.22259e-17
7385.70910 1.22216e-17
7388.62286 1.22421e-17
7391.52644 1.22783e-17
7394.43002 1.23162e-17
7397.34379 1.23447e-17
7400.24737 1.23538e-17
7403.15095 1.23383e-17
7406.06472 1.23017e-17
7408.96830 1.22542e-17
7411.87188 1.22078e-17
7414.78565 1.21755e-17
7417.68923 1.21679e-17
7420.59281 1.21875e-17
7423.50658 1.22280e-17
7426.41016 1.22723e-17
7429.31374 1.22998e-17
7432.22750 1.22984e-17
7435.13108 1.22664e-17
7438.03466 1.22068e-17
7440.94843 1.21279e-17
7443.85201 1.20449e-17
7446.75559 1.19729e-17
7449.66936 1.19213e-17
7452.57294 1.18972e-17
7455.47652 1.18714e-17
7458.38010 1.17632e-17
7461.29387 1.15612e-17
7464.19745 1.13756e-17
7467.10103 1.12591e-17
7470.01480 1.11591e-17
7472.91838 1.10440e-17
7475.83214 1.09282e-17
7478.73572 1.08265e-17
7481.63930 1.07412e-17
7484.54288 1.06697e-17
7487.45665 1.06067e-17
7490.36023 1.05454e-17
7493.27400 1.04783e-17
7496.17758 1.03988e-17
7499.08116 1.03100e-17
7501.98474 1.02184e-17
7504.89851 1.01226e-17
7507.80209 1.00222e-17
7510.70567 9.92916e-18
7513.61944 9.85403e-18
7516.52302 9.79487e-18
7519.42660 9.74415e-18
7522.34036 9.69040e-18
7525.24394 9.61961e-18
7528.14752 9.55254e-18
7531.06129 9.56121e-18
7533.96487 9.64719e-18
7536.86845 9.69925e-18
7539.78222 9.67596e-18
7542.68580 9.63828e-18
7545.58938 9.62176e-18
7548.50315 9.61905e-18
7551.40673 9.62414e-18
7554.31031 9.63712e-18
7557.22408 9.65164e-18
7560.12766 9.66025e-18
7563.03124 9.65974e-18
7565.94500 9.64818e-18
7568.84858 9.62023e-18
7571.75216 9.57408e-18
7574.66593 9.53180e-18
7577.56951 9.52251e-18
7580.47309 9.54656e-18
7583.38686 9.58709e-18
7586.29044 9.63399e-18
7589.19402 9.67749e-18
7592.10779 9.71080e-18
7595.01137 9.74591e-18
7597.91495 9.79312e-18
7600.82872 9.83868e-18
7603.73230 9.87063e-18
7606.63588 9.89937e-18
7609.54964 9.94071e-18
7612.45322 9.99454e-18
7615.35680 1.00452e-17
7618.27057 1.00851e-17
7621.17415 1.01261e-17
7624.07773 1.01740e-17
7626.99150 1.02207e-17
7629.89508 1.02654e-17
7632.79866 1.03162e-17
7635.71243 1.03735e-17
7638.61601 1.04287e-17
7641.51959 1.04894e-17
7644.43336 1.05751e-17
7647.33694 1.06756e-17
7650.24052 1.07636e-17
7653.15428 1.08371e-17
7656.05786 1.09065e-17
7658.96144 1.09678e-17
7661.87521 1.10224e-17
7664.77879 1.10868e-17
7667.68237 1.11583e-17
7670.59614 1.12222e-17
7673.49972 1.12911e-17
7676.40330 1.13811e-17
7679.31707 1.14805e-17
7682.22065 1.15649e-17
7685.12423 1.16266e-17
7688.03800 1.16906e-17
7690.94158 1.17775e-17
7693.84516 1.18763e-17
7696.75892 1.19706e-17
7699.66250 1.20527e-17
7702.56608 1.21223e-17
7705.47985 1.21869e-17
7708.38343 1.22552e-17
7711.28701 1.23283e-17
7714.20078 1.23918e-17
7717.10436 1.24250e-17
7720.00794 1.24263e-17
7722.92171 1.24124e-17
7725.82529 1.23931e-17
7728.72887 1.23713e-17
7731.64264 1.23616e-17
7734.54622 1.23766e-17
7737.44980 1.24078e-17
7740.36356 1.24503e-17
7743.26714 1.25122e-17
7746.17072 1.25849e-17
7749.08449 1.26467e-17
7751.98807 1.26875e-17
7754.89165 1.27119e-17
7757.80542 1.27248e-17
7760.70900 1.27187e-17
7763.61258 1.26875e-17
7766.52635 1.26394e-17
7769.42993 1.25893e-17
7772.33351 1.25563e-17
7775.24728 1.25500e-17
7778.15086 1.25581e-17
7781.05444 1.25680e-17
7783.96820 1.25841e-17
7786.87178 1.26178e-17
7789.77536 1.26728e-17
7792.68913 1.27390e-17
7795.59271 1.28008e-17
7798.49629 1.28504e-17
7801.41006 1.28848e-17
7804.31364 1.29017e-17
7807.21722 1.29012e-17
7810.12080 1.28891e-17
7813.03457 1.28688e-17
7815.93815 1.28433e-17
7818.85192 1.28239e-17
7821.75550 1.28233e-17
7824.65908 1.28439e-17
7827.56266 1.28780e-17
7830.47642 1.29166e-17
7833.38000 1.29540e-17
7836.28358 1.29851e-17
7839.19735 1.30047e-17
7842.10093 1.30093e-17
7845.01470 1.29948e-17
7847.91828 1.29605e-17
7850.82186 1.29179e-17
7853.72544 1.28842e-17
7856.63921 1.28667e-17
7859.54279 1.28620e-17
7862.44637 1.28688e-17
7865.36014 1.28914e-17
7868.26372 1.29295e-17
7871.16730 1.29750e-17
7874.08106 1.30167e-17
7876.98464 1.30461e-17
7879.88822 1.30543e-17
7882.80199 1.30341e-17
7885.70557 1.29907e-17
7888.60915 1.29351e-17
7891.52292 1.28724e-17
7894.42650 1.28078e-17
7897.33008 1.27524e-17
7900.24385 1.27182e-17
7903.14743 1.27111e-17
7906.05101 1.27271e-17
7908.96478 1.27557e-17
7911.86836 1.27884e-17
7914.77194 1.28193e-17
7917.68570 1.28386e-17
7920.58928 1.28361e-17
7923.49286 1.28055e-17
7926.40663 1.27404e-17
7929.31021 1.26408e-17
7932.21379 1.25246e-17
7935.12756 1.24142e-17
7938.03114 1.23197e-17
7940.93472 1.22435e-17
7943.84849 1.21911e-17
7946.75207 1.21674e-17
7949.65565 1.21705e-17
7952.56942 1.21943e-17
7955.47300 1.22273e-17
7958.37658 1.22506e-17
7961.29034 1.22503e-17
7964.19392 1.22230e-17
7967.09750 1.21663e-17
7970.01127 1.20828e-17
7972.91485 1.19769e-17
7975.81843 1.18539e-17
7978.73220 1.17234e-17
7981.63578 1.16006e-17
7984.53936 1.15001e-17
7987.45313 1.14301e-17
7990.35671 1.13951e-17
7993.26029 1.13930e-17
7996.17406 1.14126e-17
7999.07764 1.14449e-17
8001.98122 1.14840e-17
8004.89498 1.15143e-17
8007.79856 1.15150e-17
8010.70214 1.14797e-17
8013.61591 1.14124e-17
8016.51949 1.13201e-17
8019.42307 1.12091e-17
8022.33684 1.10872e-17
8025.24042 1.09672e-17
8028.14400 1.08650e-17
8031.05777 1.07912e-17
8033.96135 1.07459e-17
8036.86493 1.07282e-17
8039.77870 1.07364e-17
8042.68228 1.07609e-17
8045.58586 1.07878e-17
8048.49962 1.08096e-17
8051.40320 1.08232e-17
8054.30678 1.08196e-17
8057.22055 1.07860e-17
8060.12413 1.07191e-17
8063.02771 1.06241e-17
8065.94148 1.05079e-17
8068.84506 1.03804e-17
8071.74864 1.02530e-17
8074.66241 1.01375e-17
8077.56599 1.00451e-17
8080.46957 9.97987e-18
8083.38334 9.93559e-18
8086.28692 9.90345e-18
8089.19050 9.87862e-18
8092.10426 9.85521e-18
8095.00784 9.82264e-18
8097.91142 9.77082e-18
8100.82519 9.69429e-18
8103.72877 9.59127e-18
8106.63235 9.46287e-18
8109.54612 9.31261e-18
8112.44970 9.14661e-18
8115.35328 8.97641e-18
8118.26705 8.81414e-18
8121.17063 8.66381e-18
8124.07421 8.52572e-18
8126.98798 8.40568e-18
8129.89156 8.31038e-18
8132.79514 8.23845e-18
8135.70890 8.17441e-18
8138.61248 8.07511e-18
8141.51606 7.90393e-18
8144.42983 7.69993e-18
8147.33341 7.52280e-18
8150.23699 7.36649e-18
8153.15076 7.19951e-18
8156.05434 7.01823e-18
8158.95792 6.83366e-18
8161.87169 6.65578e-18
8164.77527 6.49544e-18
8167.67885 6.36289e-18
8170.59262 6.25934e-18
8173.49620 6.17808e-18
8176.39978 6.11436e-18
8179.31354 6.06405e-18
8182.21712 6.01832e-18
8185.12070 5.96851e-18
8188.02428 5.90629e-18
8190.93805 5.82384e-18
8193.84163 5.72176e-18
8196.74521 5.60765e-18
8199.65898 5.48706e-18
8202.56256 5.36188e-18
8205.46614 5.23276e-18
8208.37991 5.11021e-18
8211.28349 5.03443e-18
8214.19726 5.03605e-18
8217.10084 5.07180e-18
8220.00442 5.08413e-18
8222.90800 5.07361e-18
8225.82176 5.06418e-18
8228.72534 5.06199e-18
8231.62892 5.06328e-18
8234.54269 5.06192e-18
8237.44627 5.04868e-18
8240.34985 5.01630e-18
8243.26362 4.96408e-18
8246.16720 4.89619e-18
8249.07078 4.81898e-18
8251.98455 4.74014e-18
8254.88813 4.66831e-18
8257.79171 4.61048e-18
8260.70548 4.57161e-18
8263.60906 4.55371e-18
8266.51264 4.55715e-18
8269.42640 4.57875e-18
8272.32998 4.61543e-18
8275.23356 4.66050e-18
8278.14733 4.70353e-18
8281.05091 4.73910e-18
8283.95449 4.76864e-18
8286.86826 4.79369e-18
8289.77184 4.80738e-18
8292.67542 4.79992e-18
8295.58919 4.77690e-18
8298.49277 4.75049e-18
8301.39635 4.72676e-18
8304.31012 4.70701e-18
8307.21370 4.69045e-18
8310.11728 4.68002e-18
8313.03104 4.68260e-18
8315.93462 4.70453e-18
8318.83820 4.74870e-18
8321.75197 4.81323e-18
8324.65555 4.89150e-18
8327.55913 4.97258e-18
8330.47290 5.04550e-18
8333.37648 5.10552e-18
8336.28006 5.15248e-18
8339.19383 5.18535e-18
8342.09741 5.20098e-18
8345.00099 5.19808e-18
8347.91476 5.18303e-18
8350.81834 5.16633e-18
8353.72192 5.15398e-18
8356.63568 5.14756e-18
8359.53926 5.14863e-18
8362.44284 5.16222e-18
8365.35661 5.19513e-18
8368.26019 5.24868e-18
8371.16377 5.31796e-18
8374.07754 5.39707e-18
8376.98112 5.48324e-18
8379.88470 5.57470e-18
8382.79847 5.66133e-18
8385.70205 5.72877e-18
8388.60563 5.76955e-18
8391.51940 5.78559e-18
8394.42298 5.78407e-18
8397.32656 5.77240e-18
8400.24032 5.76021e-18
8403.14390 5.75714e-18
8406.04748 5.76775e-18
8408.96125 5.79904e-18
8411.86483 5.85996e-18
8414.76841 5.95113e-18
8417.68218 6.06628e-18
8420.58576 6.19496e-18
8423.48934 6.32558e-18
8426.40311 6.45058e-18
8429.30669 6.56342e-18
8432.21027 6.66125e-18
8435.12404 6.74890e-18
8438.02762 6.82268e-18
8440.93120 6.87254e-18
8443.84496 6.90041e-18
8446.74854 6.91474e-18
8449.65212 6.92174e-18
8452.56589 6.93198e-18
8455.46947 6.96120e-18
8458.37305 7.02122e-18
8461.28682 7.11618e-18
8464.19040 7.24733e-18
8467.09398 7.40130e-18
8470.00775 7.56572e-18
8472.91133 7.73505e-18
8475.81491 7.90316e-18
8478.72868 8.06343e-18
8481.63226 8.20623e-18
8484.53584 8.31950e-18
8487.44960 8.39681e-18
8490.35318 8.44121e-18
8493.25676 8.46513e-18
8496.17053 8.48414e-18
8499.07411 8.51133e-18
8501.97769 8.55852e-18
8504.89146 8.63048e-18
8507.79504 8.72084e-18
8510.69862 8.83245e-18
8513.60220 8.97892e-18
8516.51597 9.16266e-18
8519.41955 9.37496e-18
8522.32313 9.60340e-18
8525.23690 9.83219e-18
8528.14048 1.00458e-17
8531.04406 1.02310e-17
8533.95782 1.03759e-17
8536.86140 1.04746e-17
8539.77517 1.05299e-17
8542.67875 1.05513e-17
8545.58233 1.05505e-17
8548.49610 1.05400e-17
8551.39968 1.05327e-17
8554.30326 1.05413e-17
8557.20684 1.05765e-17
8560.12061 1.06500e-17
8563.02419 1.07710e-17
8565.92777 1.09350e-17
8568.84154 1.11257e-17
8571.74512 1.13268e-17
8574.64870 1.15256e-17
8577.56246 1.17075e-17
8580.46604 1.18549e-17
8583.36962 1.19557e-17
8586.28339 1.20082e-17
8589.18697 1.20184e-17
8592.09055 1.19932e-17
8595.00432 1.19398e-17
8597.90790 1.18719e-17
8600.81148 1.18113e-17
8603.72525 1.17828e-17
8606.62883 1.18008e-17
8609.53241 1.18719e-17
8612.44618 1.20045e-17
8615.34976 1.21972e-17
8618.25334 1.24285e-17
8621.16710 1.26718e-17
8624.07068 1.29060e-17
8626.97426 1.31105e-17
8629.88803 1.32682e-17
8632.79161 1.33691e-17
8635.69519 1.34071e-17
8638.60896 1.33876e-17
8641.51254 1.33323e-17
8644.41612 1.32637e-17
8647.32989 1.31973e-17
8650.23347 1.31521e-17
8653.13705 1.31535e-17
8656.05082 1.32166e-17
8658.95440 1.33363e-17
8661.85798 1.35026e-17
8664.77174 1.37018e-17
8667.67532 1.39197e-17
8670.57890 1.41344e-17
8673.49267 1.43198e-17
8676.39625 1.44526e-17
8679.29983 1.45213e-17
8682.21360 1.45247e-17
8685.11718 1.44663e-17
8688.02076 1.43604e-17
8690.93453 1.42294e-17
8693.83811 1.40955e-17
8696.74169 1.39823e-17
8699.65546 1.39161e-17
8702.55904 1.39166e-17
8705.46262 1.39869e-17
8708.37638 1.41205e-17
8711.27996 1.43031e-17
8714.18354 1.45049e-17
8717.09731 1.46939e-17
8720.00089 1.48515e-17
8722.90447 1.49643e-17
8725.81824 1.50142e-17
8728.72182 1.49893e-17
8731.62540 1.48942e-17
8734.53917 1.47453e-17
8737.44275 1.45650e-17
8740.34633 1.43836e-17
8743.26010 1.42300e-17
8746.16368 1.41205e-17
8749.06726 1.40668e-17
8751.98102 1.40797e-17
8754.88460 1.41583e-17
8757.78818 1.42848e-17
8760.70195 1.44293e-17
8763.60553 1.45648e-17
8766.50911 1.46729e-17
8769.42288 1.47373e-17
8772.32646 1.47453e-17
8775.23004 1.46901e-17
8778.14381 1.45696e-17
8781.04739 1.43875e-17
8783.95097 1.41603e-17
8786.86474 1.39196e-17
8789.76832 1.36972e-17
8792.67190 1.35088e-17
8795.58566 1.33615e-17
8798.48924 1.32712e-17
8801.39282 1.32514e-17
8804.30659 1.32974e-17
8807.21017 1.33938e-17
8810.11375 1.35196e-17
8813.02752 1.36424e-17
8815.93110 1.37318e-17
8818.83468 1.37737e-17
8821.74845 1.37596e-17
8824.65203 1.36815e-17
8827.55561 1.35396e-17
8830.46938 1.33475e-17
8833.37296 1.31297e-17
8836.27654 1.29156e-17
8839.19030 1.27299e-17
8842.09388 1.25791e-17
8844.99746 1.24649e-17
8847.90104 1.23943e-17
8850.81481 1.23821e-17
8853.71839 1.24349e-17
8856.63216 1.25417e-17
8859.53574 1.26799e-17
8862.43932 1.28161e-17
8865.35309 1.29289e-17
8868.25667 1.30112e-17
8871.16025 1.30504e-17
8874.07402 1.30325e-17
8876.97760 1.29576e-17
8879.88118 1.28313e-17
8882.79494 1.26594e-17
8885.69852 1.24584e-17
8888.60210 1.22544e-17
8891.50568 1.20725e-17
8894.41945 1.19316e-17
8897.32303 1.18446e-17
8900.22661 1.18176e-17
8903.14038 1.18483e-17
8906.04396 1.19244e-17
8908.95773 1.20199e-17
8911.86131 1.21101e-17
8914.76489 1.21913e-17
8917.67866 1.22609e-17
8920.58224 1.22938e-17
8923.48582 1.22631e-17
8926.38940 1.21640e-17
8929.30316 1.20073e-17
8932.20674 1.18073e-17
8935.11032 1.15825e-17
8938.02409 1.13504e-17
8940.92767 1.11273e-17
8943.83125 1.09305e-17
8946.74502 1.07670e-17
8949.64860 1.06339e-17
8952.55218 1.05349e-17
8955.46595 1.04834e-17
8958.36953 1.04885e-17
8961.27311 1.05392e-17
8964.18688 1.06048e-17
8967.09046 1.06520e-17
8969.99404 1.06633e-17
8972.90780 1.06325e-17
8975.81138 1.05511e-17
8978.71496 1.04185e-17
8981.62873 1.02536e-17
8984.53231 1.00736e-17
8987.43589 9.88001e-18
8990.34966 9.68147e-18
8993.25324 9.50214e-18
8996.15682 9.36336e-18
8999.07059 9.27166e-18
9001.97417 9.22724e-18
9004.87775 9.23127e-18
9007.79152 9.28222e-18
9010.69510 9.37039e-18
9013.59868 9.47556e-18
9016.51244 9.57659e-18
9019.41602 9.66728e-18
9022.31960 9.74882e-18
9025.23337 9.80605e-18
9028.13695 9.81041e-18
9031.04053 9.74863e-18
9033.95430 9.63366e-18
9036.85788 9.49109e-18
9039.76146 9.34396e-18
9042.67523 9.20570e-18
9045.57881 9.08576e-18
9048.48239 8.99745e-18
9051.39616 8.95274e-18
9054.29974 8.95127e-18
9057.20332 8.99164e-18
9060.11708 9.06836e-18
9063.02066 9.17080e-18
9065.92424 9.28194e-18
9068.83801 9.38760e-18
9071.74159 9.47594e-18
9074.64517 9.53352e-18
9077.55894 9.54931e-18
9080.46252 9.51727e-18
9083.36610 9.43987e-18
9086.27987 9.33028e-18
9089.18345 9.20658e-18
9092.08703 9.07814e-18
9095.00080 8.94844e-18
9097.90438 8.83363e-18
9100.80796 8.75965e-18
9103.72172 8.73747e-18
9106.62530 8.76473e-18
9109.52888 8.83947e-18
9112.44265 8.95522e-18
9115.34623 9.09482e-18
9118.24981 9.23915e-18
9121.16358 9.37399e-18
9124.06716 9.48319e-18
9126.97074 9.55193e-18
9129.88451 9.57559e-18
9132.78809 9.54802e-18
9135.69167 9.46322e-18
9138.60544 9.33382e-18
9141.50902 9.18386e-18
9144.41260 9.03156e-18
9147.32636 8.88881e-18
9150.22994 8.76727e-18
9153.13352 8.68733e-18
9156.04729 8.66459e-18
9158.95087 8.69809e-18
9161.85445 8.77896e-18
9164.76822 8.89722e-18
9167.67180 9.04210e-18
9170.57538 9.19794e-18
9173.48915 9.34874e-18
9176.39273 9.48337e-18
9179.29631 9.58210e-18
9182.21008 9.63393e-18
9185.11366 9.64161e-18
9188.01724 9.61551e-18
9190.93100 9.56601e-18
9193.83458 9.50158e-18
9196.73816 9.43225e-18
9199.65193 9.37289e-18
9202.55551 9.33859e-18
9205.45909 9.34530e-18
9208.37286 9.40376e-18
9211.27644 9.50919e-18
9214.18002 9.64828e-18
9217.08360 9.80745e-18
9219.99737 9.97865e-18
9222.90095 1.01586e-17
9225.80453 1.03366e-17
9228.71830 1.04908e-17
9231.62188 1.05933e-17
9234.53564 1.06198e-17
9237.43922 1.06057e-17
9240.34280 1.06010e-17
9243.25657 1.06239e-17
9246.16015 1.06715e-17
9249.06373 1.07372e-17
9251.97750 1.08438e-17
9254.88108 1.10162e-17
9257.78466 1.12088e-17
9260.68824 1.13775e-17
9263.60201 1.15334e-17
9266.50559 1.17039e-17
9269.40917 1.18676e-17
9272.32294 1.19904e-17
9275.22652 1.20833e-17
9278.13010 1.21564e-17
9281.04386 1.22225e-17
9283.94744 1.23076e-17
9286.85102 1.23836e-17
9289.76479 1.24039e-17
9292.66837 1.23722e-17
9295.57195 1.23457e-17
9298.48572 1.23840e-17
9301.38930 1.24505e-17
9304.29288 1.25081e-17
9307.20665 1.26048e-17
9310.11023 1.27560e-17
9313.01381 1.28494e-17
9315.92758 1.28419e-17
9318.83116 1.28332e-17
9321.73474 1.28517e-17
9324.64850 1.28427e-17
9327.55208 1.27633e-17
9330.45566 1.26426e-17
9333.36943 1.25377e-17
9336.27301 1.24421e-17
9339.17659 1.23166e-17
9342.09036 1.21773e-17
9344.99394 1.20914e-17
9347.89752 1.20548e-17
9350.81129 1.20261e-17
9353.71487 1.19965e-17
9356.61845 1.19710e-17
9359.53222 1.19501e-17
9362.43580 1.19461e-17
9365.33938 1.19491e-17
9368.25314 1.19056e-17
9371.15672 1.17826e-17
9374.06030 1.16216e-17
9376.97407 1.14704e-17
9379.87765 1.13006e-17
9382.78123 1.10933e-17
9385.69500 1.09218e-17
9388.59858 1.08054e-17
9391.50216 1.06901e-17
9394.41593 1.05642e-17
9397.31951 1.04201e-17
9400.22309 1.02695e-17
9403.13686 1.01420e-17
9406.04044 1.00372e-17
9408.94402 9.94837e-18
9411.85778 9.88612e-18
9414.76136 9.85022e-18
9417.66494 9.80676e-18
9420.57871 9.74093e-18
9423.48229 9.67503e-18
9426.38587 9.61187e-18
9429.29964 9.52532e-18
9432.20322 9.42374e-18
9435.10680 9.32862e-18
9438.02057 9.25178e-18
9440.92415 9.19011e-18
9443.82773 9.12905e-18
9446.74150 9.08359e-18
9449.64508 9.09276e-18
9452.54866 9.13078e-18
9455.46242 9.14438e-18
9458.36600 9.13610e-18
9461.26958 9.13840e-18
9464.18335 9.13532e-18
9467.08693 9.08773e-18
9469.99051 9.02980e-18
9472.90428 8.98634e-18
9475.80786 8.96051e-18
9478.71144 8.94876e-18
9481.62521 8.93023e-18
9484.52879 8.89070e-18
9487.43237 8.83770e-18
9490.34614 8.79539e-18
9493.24972 8.78319e-18
9496.15330 8.79246e-18
9499.06706 8.79541e-18
9501.97064 8.76527e-18
9504.87422 8.70872e-18
9507.78799 8.67294e-18
9510.69157 8.67342e-18
9513.59515 8.68529e-18
9516.50892 8.68527e-18
9519.41250 8.65024e-18
9522.31608 8.57347e-18
9525.22985 8.47611e-18
9528.13343 8.39256e-18
9531.03701 8.32757e-18
9533.95078 8.25687e-18
9536.85436 8.16364e-18
9539.75794 8.06620e-18
9542.67170 8.01083e-18
9545.57528 7.99230e-18
9548.47886 7.94643e-18
9551.39263 7.84954e-18
9554.29621 7.74330e-18
9557.19979 7.65247e-18
9560.11356 7.56531e-18
9563.01714 7.45335e-18
9565.92072 7.30840e-18
9568.83449 7.16893e-18
9571.73807 7.05530e-18
9574.64165 6.97008e-18
9577.55542 6.90229e-18
9580.45900 6.81407e-18
9583.36258 6.69008e-18
9586.27634 6.54652e-18
9589.17992 6.40468e-18
9592.08350 6.27340e-18
9594.98708 6.15122e-18
9597.90085 6.03653e-18
9600.80443 5.92057e-18
9603.70801 5.79640e-18
9606.62178 5.66380e-18
9609.52536 5.53245e-18
9612.43913 5.40723e-18
9615.34271 5.26651e-18
9618.24629 5.10094e-18
9621.16006 4.95606e-18
9624.06364 4.85499e-18
9626.96722 4.77891e-18
9629.87080 4.71113e-18
9632.78456 4.65385e-18
9635.68814 4.61430e-18
9638.59172 4.57925e-18
9641.50549 4.51810e-18
9644.40907 4.42259e-18
9647.31265 4.31632e-18
9650.22642 4.21961e-18
9653.13000 4.13738e-18
9656.03358 4.07031e-18
9658.94735 4.01473e-18
9661.85093 3.96073e-18
9664.75451 3.90601e-18
9667.66828 3.85352e-18
9670.57186 3.80493e-18
9673.47544 3.76404e-18
9676.38920 3.73061e-18
9679.29278 3.70259e-18
9682.19636 3.67646e-18
9685.11013 3.64986e-18
9688.01371 3.62798e-18
9690.91729 3.61717e-18
9693.83106 3.61398e-18
9696.73464 3.60931e-18
9699.63822 3.59915e-18
9702.55199 3.58404e-18
9705.45557 3.56000e-18
9708.35915 3.51934e-18
9711.27292 3.46556e-18
9714.17650 3.40781e-18
9717.08008 3.35113e-18
9719.99384 3.29222e-18
9722.89742 3.23127e-18
9725.80100 3.17301e-18
9728.71477 3.11654e-18
9731.61835 3.06463e-18
9734.52193 3.02640e-18
9737.43570 3.00229e-18
9740.33928 2.98331e-18
9743.24286 2.96278e-18
9746.15663 2.93625e-18
9749.06021 2.89986e-18
9751.96379 2.85765e-18
9754.87756 2.81618e-18
9757.78114 2.77677e-18
9760.68472 2.73474e-18
9763.59848 2.68508e-18
9766.50206 2.62732e-18
9769.40564 2.56247e-18
9772.31941 2.49319e-18
9775.22299 2.42709e-18
9778.12657 2.37259e-18
9781.04034 2.33181e-18
9783.94392 2.30080e-18
9786.84750 2.27719e-18
9789.76127 2.26364e-18
9792.66485 2.26077e-18
9795.56843 2.26218e-18
9798.48220 2.26053e-18
9801.38578 2.25548e-18
9804.28936 2.24960e-18
9807.20312 2.23920e-18
9810.10670 2.21932e-18
9813.01028 2.19158e-18
9815.92405 2.16092e-18
9818.82763 2.13292e-18
9821.73121 2.10914e-18
9824.64498 2.08768e-18
9827.54856 2.06729e-18
9830.45214 2.04746e-18
9833.36591 2.02876e-18
9836.26949 2.01399e-18
9839.17307 2.00580e-18
9842.08684 2.00455e-18
9844.99042 2.00897e-18
9847.89400 2.01363e-18
9850.80776 2.01431e-18
9853.71134 2.00999e-18
9856.61492 2.00169e-18
9859.52869 1.98991e-18
9862.43227 1.97371e-18
9865.33585 1.95348e-18
9868.24962 1.93202e-18
9871.15320 1.91278e-18
9874.05678 1.89599e-18
9876.97055 1.87787e-18
9879.87413 1.85911e-18
9882.77771 1.84545e-18
9885.69148 1.83868e-18
9888.59506 1.83469e-18
9891.49864 1.83159e-18
9894.41240 1.83079e-18
9897.31598 1.83203e-18
9900.21956 1.83386e-18
9903.13333 1.83393e-18
9906.03691 1.83057e-18
9908.94049 1.82570e-18
9911.85426 1.81836e-18
9914.75784 1.80569e-18
9917.66142 1.78849e-18
9920.56500 1.77128e-18
9923.47877 1.75779e-18
9926.38235 1.74807e-18
9929.28593 1.74072e-18
9932.19970 1.73573e-18
9935.10328 1.73359e-18
9938.01704 1.73413e-18
9940.92062 1.73544e-18
9943.82420 1.73596e-18
9946.73797 1.73566e-18
9949.64155 1.73469e-18
9952.54513 1.73271e-18
9955.45890 1.72915e-18
9958.36248 1.72363e-18
9961.26606 1.71691e-18
9964.16964 1.71011e-18
9967.08341 1.70399e-18
9969.98699 1.69880e-18
9972.89057 1.69334e-18
9975.80434 1.68740e-18
9978.70792 1.68009e-18
9981.61150 1.66889e-18
9984.52526 1.65614e-18
9987.42884 1.64682e-18
9990.33242 1.64134e-18
9993.24619 1.63805e-18
9996.14977 1.63709e-18
9999.05335 1.63781e-18
9999.41015 1.63781e-18
