# wavelength flux
3600.00419 2.59748e-18
3604.32177 2.89217e-18
3608.63934 2.82194e-18
3612.95692 2.34061e-18
3617.27449 1.98350e-18
3621.59207 2.14629e-18
3625.90964 2.89164e-18
3630.22722 3.15249e-18
3634.54479 2.33635e-18
3638.86237 2.16655e-18
3643.17994 2.65541e-18
3647.49752 2.90173e-18
3651.81509 2.25721e-18
3656.13267 1.76017e-18
3660.45024 2.61375e-18
3664.76782 3.36047e-18
3669.09555 2.59467e-18
3673.41313 2.00594e-18
3677.73070 2.67413e-18
3682.04828 2.84574e-18
3686.36585 2.14873e-18
3690.68343 2.17652e-18
3695.00100 3.06016e-18
3699.31858 3.46057e-18
3703.63615 2.94564e-18
3707.95373 2.17544e-18
3712.27130 1.96274e-18
3716.58888 2.44679e-18
3720.90645 2.67903e-18
3725.22403 2.50154e-18
3729.54160 2.80248e-18
3733.85918 3.04552e-18
3738.18691 2.38441e-18
3742.50449 1.88403e-18
3746.82206 2.19468e-18
3751.13964 2.24607e-18
3755.45721 1.88354e-18
3759.77479 1.78858e-18
3764.09236 1.85095e-18
3768.40994 1.90973e-18
3772.72751 1.96850e-18
3777.04509 2.02726e-18
3781.36266 2.08602e-18
3785.68024 2.14477e-18
3789.99781 2.20350e-18
3794.31539 2.26223e-18
3798.63296 2.32095e-18
3802.95054 2.37966e-18
3807.26811 2.43836e-18
3811.59585 2.90697e-18
3815.91342 2.54477e-18
3820.23100 1.95869e-18
3824.54857 1.75969e-18
3828.86615 1.99802e-18
3833.18372 2.20319e-18
3837.50130 2.37205e-18
3841.81887 2.64792e-18
3846.13645 2.71458e-18
3850.45402 2.48447e-18
3854.77160 2.14015e-18
3859.08917 1.96119e-18
3863.40675 2.02862e-18
3867.72432 2.13165e-18
3872.04190 2.38370e-18
3876.35947 2.61480e-18
3880.67705 2.33591e-18
3885.00478 1.88991e-18
3889.32235 1.84453e-18
3893.63993 2.26710e-18
3897.95750 2.72756e-18
3902.27508 2.80026e-18
3906.59265 2.60378e-18
3910.91023 2.29139e-18
3915.22780 2.15298e-18
3919.54538 2.61128e-18
3923.86296 3.26012e-18
3928.18053 3.59342e-18
3932.49811 3.60827e-18
3936.81568 3.71127e-18
3941.13325 3.73025e-18
3945.45083 3.40990e-18
3949.76840 3.56510e-18
3954.08598 4.23100e-18
3958.41371 4.49265e-18
3962.73129 4.32939e-18
3967.04886 4.39980e-18
3971.36644 4.79062e-18
3975.68401 5.13366e-18
3980.00159 5.10503e-18
3984.31916 4.87475e-18
3988.63674 4.70142e-18
3992.95431 4.53967e-18
3997.27189 4.45168e-18
4001.58946 4.46629e-18
4005.90704 4.68602e-18
4010.22461 5.07098e-18
4014.54219 4.98723e-18
4018.85976 4.46696e-18
4023.17734 4.27186e-18
4027.49491 4.49011e-18
4031.82265 4.64596e-18
4036.14022 4.66495e-18
4040.45780 4.75415e-18
4044.77537 4.94103e-18
4049.09295 5.03165e-18
4053.41052 4.82137e-18
4057.72810 4.53800e-18
4062.04567 4.80126e-18
4066.36325 5.16039e-18
4070.68082 5.05673e-18
4074.99840 5.04437e-18
4079.31597 5.14435e-18
4083.63355 5.16995e-18
4087.95112 5.15838e-18
4092.26870 5.00646e-18
4096.58627 4.81947e-18
4100.91401 4.63559e-18
4105.23158 4.52746e-18
4109.54916 4.48056e-18
4113.86673 4.41812e-18
4118.18431 4.36823e-18
4122.50188 4.43450e-18
4126.81946 4.45185e-18
4131.13703 4.36029e-18
4135.45461 4.47852e-18
4139.77218 4.39214e-18
4144.08976 3.93817e-18
4148.40733 3.81278e-18
4152.72491 3.99439e-18
4157.04248 3.78021e-18
4161.36006 3.46106e-18
4165.67763 3.32134e-18
4169.99521 3.35059e-18
4174.32294 3.63771e-18
4178.64052 3.74408e-18
4182.95809 3.63597e-18
4187.27567 3.53204e-18
4191.59324 3.57366e-18
4195.91082 3.66349e-18
4200.22839 3.67130e-18
4204.54597 3.63143e-18
4208.86354 3.68603e-18
4213.18112 3.86390e-18
4217.49869 3.91156e-18
4221.81627 3.95381e-18
4226.13384 4.22225e-18
4230.45142 4.33267e-18
4234.76899 3.92488e-18
4239.08657 3.50414e-18
4243.41430 3.56232e-18
4247.73188 3.76778e-18
4252.04945 3.96069e-18
4256.36703 4.06653e-18
4260.68460 3.75369e-18
4265.00218 3.38867e-18
4269.31975 3.44708e-18
4273.63732 3.70177e-18
4277.95490 3.73913e-18
4282.27247 3.75201e-18
4286.59005 3.86424e-18
4290.90762 3.75124e-18
4295.22520 3.44570e-18
4299.54277 3.41320e-18
4303.86035 3.58951e-18
4308.17792 3.57237e-18
4312.49550 3.62246e-18
4316.82323 3.82151e-18
4321.14081 3.94236e-18
4325.45838 3.88499e-18
4329.77596 3.82203e-18
4334.09353 3.86067e-18
4338.41111 4.09510e-18
4342.72868 4.17309e-18
4347.04626 3.72383e-18
4351.36383 3.27147e-18
4355.68141 3.08482e-18
4359.99898 3.13364e-18
4364.31656 3.46529e-18
4368.63413 3.56398e-18
4372.95171 3.33792e-18
4377.26928 3.32352e-18
4381.58686 3.52805e-18
4385.90443 3.65667e-18
4390.23217 3.66919e-18
4394.54974 3.73553e-18
4398.86732 3.74706e-18
4403.18489 3.63900e-18
4407.50247 3.69428e-18
4411.82004 3.66361e-18
4416.13762 3.72331e-18
4420.45519 3.78301e-18
4424.77277 3.84269e-18
4429.09034 3.90236e-18
4433.40792 3.96202e-18
4437.72549 4.02168e-18
4442.04307 4.08132e-18
4446.36064 4.14095e-18
4450.67822 4.20058e-18
4454.99579 4.26019e-18
4459.31337 4.49832e-18
4463.63094 4.31373e-18
4467.95868 3.95775e-18
4472.27625 4.08491e-18
4476.59383 4.35138e-18
4480.91140 4.10037e-18
4485.22898 3.50069e-18
4489.54655 3.47674e-18
4493.86413 4.06049e-18
4498.18170 4.41340e-18
4502.49928 4.47174e-18
4506.81685 4.54671e-18
4511.13443 4.46315e-18
4515.45200 4.22517e-18
4519.76958 4.29257e-18
4524.08715 4.80791e-18
4528.40473 5.21611e-18
4532.73246 5.13471e-18
4537.05004 4.95322e-18
4541.36761 5.06288e-18
4545.68519 5.36846e-18
4550.00276 5.57045e-18
4554.32034 6.01379e-18
4558.63791 6.63923e-18
4562.95549 6.87184e-18
4567.27306 6.84944e-18
4571.59064 6.81604e-18
4575.90821 6.76443e-18
4580.22579 6.98773e-18
4584.54336 7.25748e-18
4588.86094 7.18929e-18
4593.17851 7.13743e-18
4597.49609 7.27252e-18
4601.81366 7.38865e-18
4606.13124 7.20771e-18
4610.45897 7.06319e-18
4614.77655 7.35459e-18
4619.09412 7.69042e-18
4623.41170 7.80944e-18
4627.72927 7.70817e-18
4632.04684 7.36914e-18
4636.36442 7.39484e-18
4640.68199 8.01575e-18
4644.99957 8.33855e-18
4649.31714 7.93317e-18
4653.63472 7.46437e-18
4657.95230 7.47035e-18
4662.26987 7.59458e-18
4666.58745 7.54416e-18
4670.90502 7.59846e-18
4675.22260 7.77893e-18
4679.55033 7.99365e-18
4683.86790 8.19633e-18
4688.18548 7.86196e-18
4692.50305 7.33843e-18
4696.82063 7.42250e-18
4701.13820 7.44023e-18
4705.45578 7.32556e-18
4709.77335 7.36961e-18
4714.09093 7.13153e-18
4718.40850 6.73079e-18
4722.72608 6.42701e-18
4727.04365 6.27680e-18
4731.36123 6.31422e-18
4735.67880 6.58616e-18
4739.99638 6.82391e-18
4744.31395 6.68095e-18
4748.63153 6.31194e-18
4752.95926 6.09590e-18
4757.27684 6.16870e-18
4761.59441 6.36371e-18
4765.91199 6.40645e-18
4770.22956 6.38759e-18
4774.54714 6.56899e-18
4778.86471 6.56015e-18
4783.18229 5.93242e-18
4787.49986 5.50982e-18
4791.81744 6.00849e-18
4796.13501 6.41712e-18
4800.45259 6.16007e-18
4804.77016 6.01804e-18
4809.08774 6.18546e-18
4813.40531 6.23048e-18
4817.72289 6.02063e-18
4822.04046 5.83390e-18
4826.36820 5.78467e-18
4830.68577 5.77425e-18
4835.00335 5.92340e-18
4839.32092 6.26473e-18
4843.63850 6.34892e-18
4847.95607 6.10612e-18
4852.27365 5.88357e-18
4856.59122 5.74010e-18
4860.90880 5.92568e-18
4865.22637 6.33068e-18
4869.54395 6.32033e-18
4873.86152 6.01572e-18
4878.17910 5.92810e-18
4882.49667 6.03979e-18
4886.81425 6.14312e-18
4891.13182 6.09033e-18
4895.44940 6.05817e-18
4899.77713 6.26532e-18
4904.09471 6.39602e-18
4908.41228 6.32446e-18
4912.72986 6.43980e-18
4917.04743 6.91228e-18
4921.36501 6.91757e-18
4925.68258 6.92286e-18
4930.00016 6.92815e-18
4934.31773 6.93344e-18
4938.63531 6.93873e-18
4942.95288 6.94402e-18
4947.27046 6.94931e-18
4951.58803 6.95460e-18
4955.90561 6.95988e-18
4960.22318 6.96517e-18
4964.54076 7.11705e-18
4968.86849 7.23885e-18
4973.18607 7.22199e-18
4977.50364 7.04491e-18
4981.82122 6.96872e-18
4986.13879 7.03315e-18
4990.45637 7.03555e-18
4994.77394 6.98429e-18
4999.09152 6.95534e-18
5003.40909 6.94708e-18
5007.72667 6.81629e-18
5012.04424 6.69052e-18
5016.36182 6.83514e-18
5020.67939 6.71573e-18
5024.99697 6.59632e-18
5029.31454 6.47694e-18
5033.63212 6.35759e-18
5037.94969 6.23823e-18
5042.27742 6.11892e-18
5046.59500 5.99962e-18
5050.91257 5.88034e-18
5055.23015 5.76106e-18
5059.54772 5.64183e-18
5063.86530 5.51963e-18
5068.18287 5.54404e-18
5072.50045 5.56845e-18
5076.81802 5.59286e-18
5081.13560 5.61726e-18
5085.45317 5.64166e-18
5089.77075 5.66606e-18
5094.08832 5.69045e-18
5098.40590 5.71484e-18
5102.72347 5.73923e-18
5107.04105 5.76361e-18
5111.35862 5.95145e-18
5115.68636 5.91179e-18
5120.00393 5.72884e-18
5124.32151 5.61656e-18
5128.63908 5.79242e-18
5132.95666 6.04381e-18
5137.27423 6.22840e-18
5141.59181 6.24340e-18
5145.90938 5.85993e-18
5150.22696 5.58464e-18
5154.54453 5.71257e-18
5158.86211 5.75457e-18
5163.17968 5.63438e-18
5167.49726 5.78700e-18
5171.81483 6.06650e-18
5176.13241 6.06014e-18
5180.44998 6.13336e-18
5184.76756 6.46683e-18
5189.09529 6.75937e-18
5193.41287 6.83671e-18
5197.73044 6.78412e-18
5202.04802 6.74829e-18
5206.36559 6.72424e-18
5210.68317 6.80636e-18
5215.00074 6.91374e-18
5219.31832 6.84781e-18
5223.63589 6.95034e-18
5227.95347 7.29016e-18
5232.27104 7.51059e-18
5236.58862 7.75264e-18
5240.90619 7.96311e-18
5245.22377 7.99443e-18
5249.54134 8.09385e-18
5253.85892 8.15941e-18
5258.17649 8.02971e-18
5262.50423 7.95446e-18
5266.82180 8.01771e-18
5271.13938 8.08980e-18
5275.45695 8.19858e-18
5279.77453 8.41701e-18
5284.09210 8.58522e-18
5288.40968 8.59438e-18
5292.72725 8.70975e-18
5297.04483 8.90581e-18
5301.36240 8.96927e-18
5305.67998 8.97332e-18
5309.99755 8.87581e-18
5314.31513 9.01248e-18
5318.63270 9.32185e-18
5322.95028 9.56078e-18
5327.27801 9.68028e-18
5331.59559 9.86721e-18
5335.91316 9.94256e-18
5340.23074 1.00313e-17
5344.54831 1.01360e-17
5348.86589 1.01125e-17
5353.18346 1.00400e-17
5357.50103 1.00174e-17
5361.81861 1.01607e-17
5366.13618 1.02365e-17
5370.45376 1.02828e-17
5374.77133 1.03459e-17
5379.08891 1.04228e-17
5383.40648 1.05818e-17
5387.72406 1.06730e-17
5392.04163 1.04769e-17
5396.35921 1.03957e-17
5400.68694 1.06259e-17
5405.00452 1.06403e-17
5409.32209 1.04838e-17
5413.63967 1.05952e-17
5417.95724 1.08672e-17
5422.27482 1.10271e-17
5426.59239 1.10005e-17
5430.90997 1.08044e-17
5435.22754 1.06871e-17
5439.54512 1.07819e-17
5443.86269 1.08206e-17
5448.18027 1.09018e-17
5452.49784 1.10046e-17
5456.81542 1.10907e-17
5461.13299 1.12538e-17
5465.45057 1.15361e-17
5469.76814 1.19274e-17
5474.09588 1.21981e-17
5478.41345 1.22936e-17
5482.73103 1.24100e-17
5487.04860 1.24111e-17
5491.36618 1.23154e-17
5495.68375 1.25114e-17
5500.00133 1.29110e-17
5504.31890 1.31472e-17
5508.63648 1.31289e-17
5512.95405 1.32186e-17
5517.27163 1.35275e-17
5521.58920 1.35209e-17
5525.90678 1.32174e-17
5530.22435 1.32410e-17
5534.54193 1.35199e-17
5538.85950 1.36437e-17
5543.17708 1.37091e-17
5547.50481 1.37745e-17
5551.82239 1.35169e-17
5556.13996 1.29459e-17
5560.45754 1.26531e-17
5564.77511 1.29363e-17
5569.09269 1.30906e-17
5573.41026 1.26593e-17
5577.72784 1.23505e-17
5582.04541 1.23645e-17
5586.36299 1.26253e-17
5590.68056 1.24614e-17
5594.99814 1.22456e-17
5599.31571 1.22604e-17
5603.63329 1.21733e-17
5607.95086 1.19933e-17
5612.26844 1.20410e-17
5616.58601 1.23379e-17
5620.91375 1.27325e-17
5625.23132 1.31975e-17
5629.54890 1.36932e-17
5633.86647 1.37926e-17
5638.18405 1.33878e-17
5642.50162 1.31648e-17
5646.81920 1.30846e-17
5651.13677 1.30145e-17
5655.45435 1.31876e-17
5659.77192 1.34035e-17
5664.08950 1.36888e-17
5668.40707 1.39651e-17
5672.72465 1.39170e-17
5677.04222 1.38197e-17
5681.35980 1.37717e-17
5685.67737 1.35486e-17
5689.99495 1.35690e-17
5694.32268 1.39750e-17
5698.64026 1.41334e-17
5702.95783 1.39031e-17
5707.27541 1.36982e-17
5711.59298 1.36315e-17
5715.91056 1.35399e-17
5720.22813 1.32247e-17
5724.54570 1.28358e-17
5728.86328 1.26521e-17
5733.18085 1.24798e-17
5737.49843 1.23581e-17
5741.81600 1.25702e-17
5746.13358 1.27683e-17
5750.45115 1.27800e-17
5754.76873 1.27486e-17
5759.08630 1.26800e-17
5763.41404 1.23677e-17
5767.73161 1.20283e-17
5772.04919 1.20738e-17
5776.36676 1.19897e-17
5780.68434 1.15702e-17
5785.00191 1.14390e-17
5789.31949 1.15309e-17
5793.63706 1.13894e-17
5797.95464 1.12360e-17
5802.27221 1.15651e-17
5806.58979 1.18222e-17
5810.90736 1.13826e-17
5815.22494 1.12019e-17
5819.54251 1.13594e-17
5823.86009 1.11081e-17
5828.17766 1.09779e-17
5832.49524 1.11593e-17
5836.82297 1.14944e-17
5841.14055 1.17447e-17
5845.45812 1.18301e-17
5849.77570 1.19109e-17
5854.09327 1.20103e-17
5858.41085 1.18845e-17
5862.72842 1.15387e-17
5867.04600 1.12474e-17
5871.36357 1.10355e-17
5875.68115 1.10685e-17
5879.99872 1.12861e-17
5884.31630 1.12309e-17
5888.63387 1.10980e-17
5892.95145 1.14295e-17
5897.26902 1.17595e-17
5901.58660 1.18184e-17
5905.90417 1.19939e-17
5910.23191 1.22337e-17
5914.54948 1.25059e-17
5918.86706 1.28319e-17
5923.18463 1.29120e-17
5927.50221 1.28758e-17
5931.81978 1.28636e-17
5936.13736 1.27034e-17
5940.45493 1.25505e-17
5944.77251 1.23001e-17
5949.09008 1.20309e-17
5953.40766 1.20590e-17
5957.72523 1.21067e-17
5962.04281 1.19890e-17
5966.36038 1.19507e-17
5970.67796 1.18151e-17
5974.99553 1.14721e-17
5979.31311 1.10364e-17
5983.64084 1.04752e-17
5987.95842 1.01412e-17
5992.27599 1.03995e-17
5996.59357 1.08036e-17
6000.91114 1.07875e-17
6005.22872 1.08827e-17
6009.54629 1.12685e-17
6013.86387 1.13042e-17
6018.18144 1.11388e-17
6022.49902 1.10703e-17
6026.81659 1.10279e-17
6031.13417 1.10910e-17
6035.45174 1.10912e-17
6039.76932 1.07734e-17
6044.08689 1.04802e-17
6048.40447 1.05245e-17
6052.73220 1.05034e-17
6057.04978 1.03050e-17
6061.36735 1.05037e-17
6065.68493 1.09661e-17
6070.00250 1.09593e-17
6074.32008 1.05674e-17
6078.63765 1.04401e-17
6082.95522 1.04377e-17
6087.27280 1.02774e-17
6091.59037 1.02751e-17
6095.90795 1.04096e-17
6100.22552 1.03875e-17
6104.54310 1.04834e-17
6108.86067 1.07285e-17
6113.17825 1.06980e-17
6117.49582 1.05670e-17
6121.81340 1.05745e-17
6126.13098 1.06778e-17
6130.45871 1.06250e-17
6134.77628 1.03056e-17
6139.09386 1.00751e-17
6143.41143 1.00838e-17
6147.72901 1.02886e-17
6152.04658 1.05378e-17
6156.36416 1.05840e-17
6160.68173 1.06513e-17
6164.99931 1.09290e-17
6169.31688 1.10563e-17
6173.63446 1.10680e-17
6177.95203 1.12808e-17
6182.26961 1.13247e-17
6186.58718 1.10697e-17
6190.90476 1.10621e-17
6195.23249 1.11762e-17
6199.55007 1.10303e-17
6203.86764 1.08940e-17
6208.18522 1.10236e-17
6212.50279 1.12250e-17
6216.82037 1.11424e-17
6221.13794 1.08129e-17
6225.45552 1.07161e-17
6229.77309 1.08702e-17
6234.09067 1.07671e-17
6238.40824 1.04141e-17
6242.72582 1.02170e-17
6247.04339 1.02190e-17
6251.36097 1.01513e-17
6255.67854 9.93598e-18
6259.99612 9.71323e-18
6264.31369 9.46442e-18
6268.63127 9.37022e-18
6272.95900 9.46192e-18
6277.27658 9.53572e-18
6281.59415 9.59821e-18
6285.91173 9.56439e-18
6290.22930 9.42345e-18
6294.54688 9.42043e-18
6298.86445 9.57795e-18
6303.18203 9.73832e-18
6307.49960 9.75473e-18
6311.81718 9.70407e-18
6316.13475 9.86945e-18
6320.45233 1.00507e-17
6324.76990 1.00576e-17
6329.08748 1.01372e-17
6333.40505 1.01273e-17
6337.72263 9.95356e-18
6342.05036 9.86964e-18
6346.36794 9.78837e-18
6350.68551 9.56597e-18
6355.00309 9.35045e-18
6359.32066 9.41156e-18
6363.63824 9.63881e-18
6367.95581 9.69777e-18
6372.27339 9.78956e-18
6376.59096 9.75103e-18
6380.90854 9.45841e-18
6385.22611 9.33123e-18
6389.54369 9.37717e-18
6393.86126 9.60008e-18
6398.17884 1.00744e-17
6402.49641 1.04250e-17
6406.81399 1.05463e-17
6411.13156 1.08044e-17
6415.45930 1.12853e-17
6419.77687 1.15383e-17
6424.09445 1.12382e-17
6428.41202 1.07771e-17
6432.72960 1.06999e-17
6437.04717 1.08305e-17
6441.36475 1.09071e-17
6445.68232 1.10894e-17
6449.99989 1.10977e-17
6454.31747 1.08501e-17
6458.63504 1.09474e-17
6462.95262 1.15607e-17
6467.27020 1.20463e-17
6471.58777 1.20018e-17
6475.90535 1.18358e-17
6480.22292 1.18657e-17
6484.54050 1.18588e-17
6488.86823 1.17647e-17
6493.18580 1.16650e-17
6497.50338 1.16532e-17
6501.82095 1.18588e-17
6506.13853 1.21490e-17
6510.45610 1.22410e-17
6514.77368 1.20741e-17
6519.09125 1.19413e-17
6523.40883 1.18937e-17
6527.72640 1.17834e-17
6532.04398 1.18307e-17
6536.36155 1.22086e-17
6540.67913 1.26217e-17
6544.99670 1.25918e-17
6549.31428 1.22984e-17
6553.63185 1.21638e-17
6557.94943 1.22194e-17
6562.27716 1.22831e-17
6566.59474 1.22027e-17
6570.91231 1.21556e-17
6575.22989 1.21653e-17
6579.54746 1.21942e-17
6583.86504 1.24137e-17
6588.18261 1.28218e-17
6592.50019 1.29093e-17
6596.81776 1.24688e-17
6601.13534 1.22599e-17
6605.45291 1.27601e-17
6609.77049 1.33091e-17
6614.08806 1.32576e-17
6618.40564 1.30477e-17
6622.72321 1.28267e-17
6627.04079 1.24873e-17
6631.36852 1.23732e-17
6635.68610 1.23456e-17
6640.00367 1.23544e-17
6644.32125 1.23633e-17
6648.63882 1.23721e-17
6652.95640 1.23809e-17
6657.27397 1.23897e-17
6661.59155 1.23985e-17
6665.90912 1.24073e-17
6670.22670 1.24161e-17
6674.54427 1.24249e-17
6678.86185 1.24337e-17
6683.17942 1.24425e-17
6687.49700 1.24513e-17
6691.81457 1.24601e-17
6696.13215 1.24689e-17
6700.44972 1.24777e-17
6704.77746 1.22347e-17
6709.09503 1.24558e-17
6713.41261 1.26209e-17
6717.73018 1.23483e-17
6722.04776 1.21365e-17
6726.36533 1.22594e-17
6730.68291 1.22638e-17
6735.00048 1.22093e-17
6739.31806 1.22542e-17
6743.63563 1.22509e-17
6747.95321 1.23658e-17
6752.27078 1.26201e-17
6756.58836 1.27844e-17
6760.90593 1.27745e-17
6765.22351 1.26572e-17
6769.54108 1.26030e-17
6773.85866 1.26478e-17
6778.18639 1.26895e-17
6782.50397 1.26416e-17
6786.82154 1.26312e-17
6791.13912 1.26779e-17
6795.45669 1.25135e-17
6799.77427 1.23433e-17
6804.09184 1.23386e-17
6808.40942 1.23092e-17
6812.72699 1.22378e-17
6817.04457 1.22009e-17
6821.36214 1.23044e-17
6825.67972 1.24667e-17
6829.99729 1.24442e-17
6834.31487 1.23979e-17
6838.63244 1.23563e-17
6842.95002 1.21616e-17
6847.26759 1.19671e-17
6851.59532 1.19448e-17
6855.91290 1.21394e-17
6860.23047 1.22804e-17
6864.54805 1.20726e-17
6868.86562 1.17064e-17
6873.18320 1.14676e-17
6877.50077 1.15081e-17
6881.81835 1.15250e-17
6886.13592 1.12319e-17
6890.45350 1.09977e-17
6894.77107 1.10287e-17
6899.08865 1.10724e-17
6903.40622 1.11348e-17
6907.72380 1.10883e-17
6912.04137 1.09545e-17
6916.35895 1.10719e-17
6920.68668 1.12489e-17
6925.00426 1.12043e-17
6929.32183 1.11380e-17
6933.63941 1.11354e-17
6937.95698 1.09968e-17
6942.27456 1.08210e-17
6946.59213 1.07944e-17
6950.90971 1.09022e-17
6955.22728 1.10875e-17
6959.54486 1.11992e-17
6963.86243 1.12033e-17
6968.18001 1.13050e-17
6972.49758 1.15683e-17
6976.81516 1.16118e-17
6981.13273 1.13866e-17
6985.45031 1.12956e-17
6989.77804 1.13779e-17
6994.08546 1.16176e-17
6998.41319 1.18287e-17
7002.73077 1.16934e-17
7007.04834 1.16381e-17
7011.36592 1.18709e-17
7015.68349 1.19424e-17
7020.00107 1.17894e-17
7024.31864 1.15719e-17
7028.63622 1.14334e-17
7032.95379 1.14764e-17
7037.27137 1.14520e-17
7041.58894 1.13554e-17
7045.90652 1.14424e-17
7050.22409 1.14545e-17
7054.54167 1.12529e-17
7058.85924 1.11133e-17
7063.18698 1.11155e-17
7067.50455 1.11579e-17
7071.82213 1.10297e-17
7076.13970 1.08120e-17
7080.45728 1.07345e-17
7084.77485 1.06022e-17
7089.09243 1.04790e-17
7093.41000 1.06308e-17
7097.72758 1.08426e-17
7102.04515 1.08506e-17
7106.36273 1.07210e-17
7110.68030 1.05140e-17
7114.99788 1.03244e-17
7119.31545 1.03094e-17
7123.63303 1.04694e-17
7127.95060 1.05896e-17
7132.26818 1.04318e-17
7136.59591 1.01463e-17
7140.91349 1.00724e-17
7145.23106 1.01766e-17
7149.54864 1.01831e-17
7153.86621 1.03529e-17
7158.18379 1.06964e-17
7162.50136 1.08731e-17
7166.81894 1.06762e-17
7171.13651 1.04550e-17
7175.45408 1.06029e-17
7179.77166 1.08036e-17
7184.08923 1.07970e-17
7188.40681 1.08277e-17
7192.72438 1.08895e-17
7197.04196 1.08690e-17
7201.35953 1.08164e-17
7205.67711 1.08773e-17
7210.00484 1.11960e-17
7214.32242 1.14545e-17
7218.63999 1.12741e-17
7222.95757 1.12545e-17
7227.27514 1.15976e-17
7231.59272 1.15558e-17
7235.91029 1.14284e-17
7240.22787 1.14974e-17
7244.54544 1.14455e-17
7248.86302 1.15294e-17
7253.18059 1.16913e-17
7257.49817 1.17587e-17
7261.81574 1.18155e-17
7266.13332 1.17915e-17
7270.45089 1.16715e-17
7274.76847 1.15335e-17
7279.08604 1.16050e-17
7283.41378 1.16905e-17
7287.73135 1.14653e-17
7292.04893 1.12993e-17
7296.36650 1.12910e-17
7300.68408 1.12036e-17
7305.00165 1.11488e-17
7309.31923 1.10836e-17
7313.63680 1.08129e-17
7317.95438 1.06865e-17
7322.27195 1.09063e-17
7326.58953 1.10089e-17
7330.90710 1.09055e-17
7335.22468 1.07670e-17
7339.54225 1.05935e-17
7343.85983 1.05555e-17
7348.17740 1.06778e-17
7352.49498 1.07953e-17
7356.82271 1.10302e-17
7361.14029 1.13471e-17
7365.45786 1.13961e-17
7369.77544 1.15356e-17
7374.09301 1.19341e-17
7378.41059 1.18807e-17
7382.72816 1.16319e-17
7387.04574 1.15958e-17
7391.36331 1.16240e-17
7395.68089 1.15542e-17
7399.99846 1.12891e-17
7404.31604 1.11959e-17
7408.63361 1.15481e-17
7412.95119 1.18418e-17
7417.26876 1.18868e-17
7421.58634 1.20756e-17
7425.91407 1.22217e-17
7430.23165 1.19215e-17
7434.54922 1.16064e-17
7438.86680 1.15658e-17
7443.18437 1.17285e-17
7447.50195 1.19657e-17
7451.81952 1.19239e-17
7456.13710 1.17261e-17
7460.45467 1.17629e-17
7464.77225 1.19107e-17
7469.08982 1.18978e-17
7473.40740 1.17743e-17
7477.72497 1.17888e-17
7482.04255 1.19583e-17
7486.36012 1.18377e-17
7490.67770 1.15560e-17
7494.99527 1.15781e-17
7499.32301 1.15997e-17
7503.64058 1.13534e-17
7507.95816 1.11640e-17
7512.27573 1.11732e-17
7516.59331 1.09058e-17
7520.91088 1.02728e-17
7525.22846 9.97593e-18
7529.54603 1.00884e-17
7533.86360 1.01456e-17
7538.18118 1.01655e-17
7542.49875 1.01893e-17
7546.81633 1.00647e-17
7551.13390 9.81310e-18
7555.45148 9.62844e-18
7559.76905 9.47317e-18
7564.08663 9.13852e-18
7568.40420 8.83128e-18
7572.73194 8.74981e-18
7577.04951 8.73149e-18
7581.36709 8.83390e-18
7585.68466 9.11525e-18
7590.00224 9.20727e-18
7594.31981 8.67401e-18
7598.63739 7.90258e-18
7602.95496 7.85203e-18
7607.27254 8.15393e-18
7611.59011 8.23218e-18
7615.90769 8.27041e-18
7620.22526 8.20113e-18
7624.54284 7.86995e-18
7628.86041 7.51969e-18
7633.17799 7.68453e-18
7637.49556 7.94290e-18
7641.81314 7.90588e-18
7646.14087 7.69162e-18
7650.45845 7.42198e-18
7654.77602 7.36724e-18
7659.09360 7.49305e-18
7663.41117 7.64903e-18
7667.72875 7.87625e-18
7672.04632 8.11035e-18
7676.36390 8.21421e-18
7680.68147 8.11877e-18
7684.99905 8.03967e-18
7689.31662 8.25623e-18
7693.63420 8.64482e-18
7697.95177 8.91305e-18
7702.26935 9.05331e-18
7706.58692 9.22647e-18
7710.90450 8.95368e-18
7715.23223 8.87329e-18
7719.54981 9.21588e-18
7723.86738 9.40940e-18
7728.18496 9.45585e-18
7732.50253 9.69620e-18
7736.82011 1.00908e-17
7741.13768 1.03754e-17
7745.45526 1.06202e-17
7749.77283 1.10305e-17
7754.09041 1.13054e-17
7758.40798 1.14012e-17
7762.72556 1.14316e-17
7767.04313 1.14103e-17
7771.36071 1.15110e-17
7775.67828 1.16808e-17
7779.99586 1.19904e-17
7784.31343 1.21206e-17
7788.64117 1.17487e-17
7792.95874 1.14986e-17
7797.27632 1.18159e-17
7801.59389 1.22750e-17
7805.91147 1.25002e-17
7810.22904 1.25940e-17
7814.54662 1.25619e-17
7818.86419 1.22337e-17
7823.18177 1.21815e-17
7827.49934 1.26613e-17
7831.81692 1.28930e-17
7836.13449 1.27422e-17
7840.45207 1.27681e-17
7844.76964 1.28527e-17
7849.08722 1.26726e-17
7853.40479 1.25059e-17
7857.73253 1.25625e-17
7862.05010 1.28395e-17
7866.36768 1.31898e-17
7870.68525 1.33762e-17
7875.00283 1.34618e-17
7879.32040 1.34053e-17
7883.63798 1.30252e-17
7887.95555 1.27941e-17
7892.27313 1.29793e-17
7896.59070 1.33090e-17
7900.90827 1.36059e-17
7905.22585 1.38519e-17
7909.54342 1.39038e-17
7913.86100 1.35627e-17
7918.17857 1.33672e-17
7922.49615 1.36997e-17
7926.81372 1.38368e-17
7931.14146 1.37238e-17
7935.45903 1.38544e-17
7939.77661 1.40903e-17
7944.09418 1.43591e-17
7948.41176 1.44614e-17
7952.72933 1.41914e-17
7957.04691 1.40923e-17
7961.36448 1.45144e-17
7965.68206 1.47074e-17
7969.99963 1.46110e-17
7974.31721 1.46378e-17
7978.63478 1.45744e-17
7982.95236 1.44669e-17
7987.26993 1.44711e-17
7991.58751 1.43922e-17
7995.90508 1.44338e-17
8000.22266 1.45263e-17
8004.55039 1.43452e-17
8008.86797 1.41104e-17
8013.18554 1.42399e-17
8017.50312 1.46328e-17
8021.82069 1.46948e-17
8026.13827 1.41045e-17
8030.45584 1.37785e-17
8034.77342 1.41157e-17
8039.09099 1.45172e-17
8043.40857 1.47256e-17
8047.72614 1.44277e-17
8052.04372 1.36414e-17
8056.36129 1.30588e-17
8060.67887 1.28818e-17
8064.99644 1.29553e-17
8069.31402 1.31834e-17
8073.63159 1.33250e-17
8077.95933 1.33120e-17
8082.27690 1.30978e-17
8086.59448 1.27920e-17
8090.91205 1.26030e-17
8095.22963 1.24552e-17
8099.54720 1.22579e-17
8103.86478 1.21348e-17
8108.18235 1.20098e-17
8112.49993 1.18108e-17
8116.81750 1.18031e-17
8121.13508 1.21504e-17
8125.45265 1.24425e-17
8129.77023 1.23940e-17
8134.08780 1.23144e-17
8138.40538 1.21707e-17
8142.72295 1.20194e-17
8147.04053 1.19680e-17
8151.36826 1.18280e-17
8155.68584 1.15409e-17
8160.00341 1.13903e-17
8164.32099 1.14253e-17
8168.63856 1.12802e-17
8172.95614 1.10043e-17
8177.27371 1.07282e-17
8181.59129 1.03670e-17
8185.90886 9.97861e-18
8190.22644 9.69518e-18
8194.54401 9.49870e-18
8198.86159 9.27488e-18
8203.17916 9.04957e-18
8207.49674 8.80994e-18
8211.81431 8.49265e-18
8216.13189 8.36749e-18
8220.45962 8.38520e-18
8224.77720 8.03608e-18
8229.09477 7.56816e-18
8233.41235 7.44028e-18
8237.72992 7.36452e-18
8242.04750 7.11486e-18
8246.36507 6.71392e-18
8250.68265 6.22154e-18
8255.00022 5.84499e-18
8259.31780 5.74283e-18
8263.63537 5.82021e-18
8267.95295 5.75281e-18
8272.27052 5.37802e-18
8276.58810 4.97812e-18
8280.90567 4.69813e-18
8285.22325 4.28500e-18
8289.54082 4.00982e-18
8293.86855 3.99398e-18
8298.18613 3.92629e-18
8302.50370 4.16077e-18
8306.82128 4.56270e-18
8311.13885 4.49410e-18
8315.45643 4.29941e-18
8319.77400 4.36567e-18
8324.09158 4.30332e-18
8328.40915 4.03086e-18
8332.72673 3.89050e-18
8337.04430 3.85525e-18
8341.36188 3.77632e-18
8345.67945 3.82408e-18
8349.99703 4.11320e-18
8354.31460 4.34709e-18
8358.63218 4.47386e-18
8362.95991 4.64279e-18
8367.26733 4.72144e-18
8371.59506 4.65882e-18
8375.91264 4.78862e-18
8380.23021 5.07518e-18
8384.54779 5.05896e-18
8388.86536 4.86974e-18
8393.18294 4.73681e-18
8397.50051 4.54407e-18
8401.81809 4.61613e-18
8406.13566 5.02461e-18
8410.45324 5.38166e-18
8414.77081 5.52606e-18
8419.08839 5.46629e-18
8423.40596 5.42875e-18
8427.72354 5.39090e-18
8432.04111 5.63238e-18
8436.36885 6.04117e-18
8440.68642 6.08859e-18
8445.00400 6.21104e-18
8449.32157 6.45244e-18
8453.63915 6.53099e-18
8457.95672 6.45671e-18
8462.27430 6.49640e-18
8466.59187 7.03691e-18
8470.90945 7.12694e-18
8475.22702 6.80143e-18
8479.54460 6.79802e-18
8483.86217 6.89662e-18
8488.17975 6.87796e-18
8492.49732 6.76397e-18
8496.81490 6.75263e-18
8501.13247 6.80956e-18
8505.45005 7.11683e-18
8509.76762 7.66664e-18
8514.08520 8.05676e-18
8518.41293 8.77637e-18
8522.73051 1.01514e-17
8527.04808 1.04178e-17
8531.36566 9.73014e-18
8535.68323 9.60992e-18
8540.00081 9.63302e-18
8544.31838 9.39469e-18
8548.63596 9.43357e-18
8552.95353 1.00408e-17
8557.27111 1.07494e-17
8561.58868 1.10968e-17
8565.90626 1.12149e-17
8570.22383 1.14249e-17
8574.54141 1.19706e-17
8578.85898 1.23829e-17
8583.17656 1.23128e-17
8587.50429 1.22061e-17
8591.82186 1.25251e-17
8596.13944 1.30303e-17
8600.45701 1.33457e-17
8604.77459 1.36084e-17
8609.09217 1.40373e-17
8613.40974 1.45744e-17
8617.72732 1.48300e-17
8622.04489 1.47993e-17
8626.36247 1.49208e-17
8630.68004 1.50023e-17
8634.99762 1.45860e-17
8639.31519 1.43726e-17
8643.63277 1.48605e-17
8647.95034 1.53990e-17
8652.26792 1.55724e-17
8656.59565 1.56539e-17
8660.91322 1.61726e-17
8665.23080 1.65350e-17
8669.54837 1.67662e-17
8673.86595 1.76359e-17
8678.18352 1.82103e-17
8682.50110 1.77817e-17
8686.81867 1.70905e-17
8691.13625 1.66394e-17
8695.45382 1.67242e-17
8699.77140 1.72531e-17
8704.08897 1.72894e-17
8708.40655 1.70195e-17
8712.72412 1.72963e-17
8717.04170 1.75263e-17
8721.36943 1.75043e-17
8725.67685 1.78108e-17
8730.00458 1.80468e-17
8734.32216 1.78426e-17
8738.63973 1.73861e-17
8742.95731 1.71237e-17
8747.27488 1.70721e-17
8751.59246 1.71267e-17
8755.91003 1.72748e-17
8760.22761 1.74582e-17
8764.54518 1.82105e-17
8768.86276 1.86743e-17
8773.18033 1.86948e-17
8777.49791 1.85369e-17
8781.81548 1.81626e-17
8786.13306 1.71334e-17
8790.45063 1.59056e-17
8794.76821 1.57858e-17
8799.09594 1.61430e-17
8803.41352 1.62390e-17
8807.73109 1.60553e-17
8812.04867 1.57753e-17
8816.36624 1.57594e-17
8820.68382 1.59482e-17
8825.00139 1.56516e-17
8829.31897 1.51261e-17
8833.63654 1.53212e-17
8837.95412 1.60348e-17
8842.27169 1.64311e-17
8846.58927 1.63566e-17
8850.90684 1.64694e-17
8855.22442 1.64311e-17
8859.54199 1.57924e-17
8863.85957 1.55115e-17
8868.17714 1.53517e-17
8872.49472 1.50723e-17
8876.82245 1.47365e-17
8881.14003 1.38138e-17
8885.45760 1.29248e-17
8889.77518 1.28864e-17
8894.09275 1.30869e-17
8898.41033 1.24545e-17
8902.72790 1.11610e-17
8907.04548 1.05850e-17
8911.36305 1.09938e-17
8915.68063 1.11979e-17
8919.99820 1.05432e-17
8924.31578 1.01691e-17
8928.63335 1.15349e-17
8932.95093 1.31345e-17
8937.26850 1.32167e-17
8941.58608 1.31404e-17
8945.91381 1.32283e-17
8950.23138 1.24407e-17
8954.54896 1.15580e-17
8958.86653 1.16223e-17
8963.18411 1.16021e-17
8967.50168 1.13319e-17
8971.81926 1.15122e-17
8976.13683 1.15053e-17
8980.45441 1.06791e-17
8984.77198 9.71631e-18
8989.08956 9.56260e-18
8993.40713 9.78933e-18
8997.72471 9.47433e-18
9002.04228 9.12724e-18
9006.35986 9.44426e-18
9010.67743 9.73597e-18
9014.99501 9.57574e-18
9019.32274 9.41590e-18
9023.64032 9.73674e-18
9027.95789 1.04695e-17
9032.27547 1.09115e-17
9036.59304 1.11076e-17
9040.91062 1.14319e-17
9045.22819 1.17621e-17
9049.54577 1.22579e-17
9053.86334 1.27034e-17
9058.18092 1.20229e-17
9062.49849 1.07700e-17
9066.81607 1.03174e-17
9071.13364 1.02774e-17
9075.45122 9.87113e-18
9079.76879 9.66889e-18
9084.08637 9.63502e-18
9088.41410 9.33370e-18
9092.73168 9.11479e-18
9097.04925 9.01642e-18
9101.36683 9.24268e-18
9105.68440 9.67595e-18
9110.00198 9.56920e-18
9114.31955 9.02689e-18
9118.63713 8.74129e-18
9122.95470 8.85731e-18
9127.27228 9.51406e-18
9131.58985 1.05349e-17
9135.90743 1.20525e-17
9140.22500 1.25535e-17
9144.54258 1.14491e-17
9148.86015 1.00571e-17
9153.17773 9.33309e-18
9157.49530 9.33802e-18
9161.81288 9.63999e-18
9166.14061 9.68019e-18
9170.45819 9.20139e-18
9174.77576 8.99416e-18
9179.09334 9.32009e-18
9183.41091 9.46310e-18
9187.72849 9.68422e-18
9192.04606 1.03101e-17
9196.36364 1.05497e-17
9200.68121 1.08179e-17
9204.99879 1.17361e-17
9209.31636 1.21383e-17
9213.63394 1.22002e-17
9217.95151 1.24699e-17
9222.26909 1.23047e-17
9226.58666 1.17843e-17
9230.90424 1.12440e-17
9235.23197 1.08268e-17
9239.54955 1.06473e-17
9243.86712 1.04374e-17
9248.18470 1.00133e-17
9252.50227 9.88114e-18
9256.81985 1.02651e-17
9261.13742 1.05556e-17
9265.45500 1.07199e-17
9269.77257 1.09823e-17
9274.09015 1.14191e-17
9278.40772 1.18922e-17
9282.72530 1.23680e-17
9287.04287 1.24093e-17
9291.36045 1.20674e-17
9295.67802 1.14129e-17
9295.72592 1.14129e-17
9296.58738 1.16346e-17
9297.44884 1.18567e-17
9298.31030 1.21143e-17
9299.17176 1.23721e-17
9300.03323 1.25300e-17
9300.89469 1.26876e-17
9301.75615 1.26156e-17
9302.62763 1.25429e-17
9303.48909 1.23660e-17
9304.35055 1.21888e-17
9305.21201 1.21114e-17
9306.07348 1.20343e-17
9306.93494 1.20088e-17
9307.79640 1.19835e-17
9308.65786 1.18616e-17
9309.51932 1.17394e-17
9310.38079 1.15279e-17
9311.24225 1.13162e-17
9312.11373 1.11027e-17
9312.97519 1.08892e-17
9313.83665 1.07595e-17
9314.69811 1.06300e-17
9315.55958 1.06817e-17
9316.42104 1.07339e-17
9317.28250 1.09480e-17
9318.14396 1.11626e-17
9319.00542 1.13514e-17
9319.86688 1.15401e-17
9320.72835 1.16300e-17
9321.58981 1.17196e-17
9322.46129 1.18836e-17
9323.32275 1.20477e-17
9324.18421 1.23235e-17
9325.04567 1.25996e-17
9325.90714 1.26336e-17
9326.76860 1.26669e-17
9327.63006 1.22411e-17
9328.49152 1.18140e-17
9329.35298 1.12707e-17
9330.21445 1.07271e-17
9331.07591 1.03977e-17
9331.94739 1.00689e-17
9332.80885 9.88954e-18
9333.67031 9.71058e-18
9334.53177 9.58546e-18
9335.39323 9.46048e-18
9336.25470 9.39178e-18
9337.11616 9.32324e-18
9337.97762 9.29455e-18
9338.83908 9.26598e-18
9339.70055 9.56913e-18
9340.56201 9.87321e-18
9341.43349 1.09034e-17
9342.29495 1.19357e-17
9343.15641 1.31868e-17
9344.01787 1.44383e-17
9344.87933 1.49787e-17
9345.74080 1.55170e-17
9346.60226 1.50689e-17
9347.46372 1.46180e-17
9348.32518 1.33400e-17
9349.18664 1.20598e-17
9350.04811 1.05396e-17
9350.90957 9.01886e-18
9351.78105 8.34038e-18
9352.64251 7.66433e-18
9353.50397 8.18311e-18
9354.36543 8.70528e-18
9355.22689 9.63725e-18
9356.08836 1.05704e-17
9356.94982 1.12563e-17
9357.81128 1.19415e-17
9358.67274 1.19882e-17
9359.53420 1.20330e-17
9360.39567 1.12704e-17
9361.26715 1.05055e-17
9362.12861 9.55126e-18
9362.99007 8.59654e-18
9363.85153 8.03375e-18
9364.71299 7.47209e-18
9365.57446 7.33427e-18
9366.43592 7.19768e-18
9367.29738 7.42868e-18
9368.15884 7.66072e-18
9369.02030 7.97090e-18
9369.89178 8.28129e-18
9370.75324 8.33894e-18
9371.61471 8.39587e-18
9372.47617 8.22134e-18
9373.33763 8.04615e-18
9374.19909 7.76338e-18
9375.06056 7.48030e-18
9375.92202 7.27881e-18
9376.78348 7.07754e-18
9377.64494 7.18883e-18
9378.50640 7.30100e-18
9379.37788 7.63728e-18
9380.23934 7.97419e-18
9381.10081 8.23738e-18
9381.96227 8.50034e-18
9382.82373 8.59547e-18
9383.68519 8.69011e-18
9384.54665 8.70289e-18
9385.40812 8.71542e-18
9386.26958 8.66957e-18
9387.13104 8.62353e-18
9387.99250 8.47890e-18
9388.85396 8.33397e-18
9389.72544 8.08829e-18
9390.58691 7.84231e-18
9391.44837 7.53265e-18
9392.30983 7.22281e-18
9393.17129 6.89997e-18
9394.03275 6.57710e-18
9394.89422 6.33124e-18
9395.75568 6.08561e-18
9396.61714 5.97775e-18
9397.47860 5.87029e-18
9398.34006 5.85521e-18
9399.21154 5.84040e-18
9400.07300 5.86123e-18
9400.93447 5.88217e-18
9401.79593 5.88429e-18
9402.65739 5.88634e-18
9403.51885 5.82190e-18
9404.38031 5.75728e-18
9405.24178 5.68002e-18
9406.10324 5.60275e-18
9406.96470 5.58816e-18
9407.82616 5.57375e-18
9408.69764 5.62264e-18
9409.55910 5.67172e-18
9410.42057 5.75785e-18
9411.28203 5.84409e-18
9412.14349 5.92671e-18
9413.00495 6.00932e-18
9413.86641 6.04009e-18
9414.72788 6.07069e-18
9415.58934 6.01739e-18
9416.45080 5.96383e-18
9417.31226 5.81651e-18
9418.17372 5.66890e-18
9419.04520 5.43785e-18
9419.90666 5.20656e-18
9420.76813 4.90722e-18
9421.62959 4.60769e-18
9422.49105 4.34719e-18
9423.35251 4.08681e-18
9424.21397 4.12083e-18
9425.07544 4.15571e-18
9425.93690 4.56636e-18
9426.79836 4.97808e-18
9427.65982 5.49728e-18
9428.53130 6.01676e-18
9429.39276 6.38607e-18
9430.25423 6.75494e-18
9431.11569 6.73511e-18
9431.97715 6.71417e-18
9432.83861 6.18403e-18
9433.70007 5.65242e-18
9434.56153 5.03231e-18
9435.42300 4.41197e-18
9436.28446 4.14160e-18
9437.14592 3.87228e-18
9438.01740 4.02094e-18
9438.87886 4.17081e-18
9439.74032 4.71002e-18
9440.60179 5.25034e-18
9441.46325 5.90624e-18
9442.32471 6.56246e-18
9443.18617 6.98259e-18
9444.04763 7.40202e-18
9444.90910 7.48556e-18
9445.77056 7.56810e-18
9446.63202 7.33704e-18
9447.49348 7.10507e-18
9448.36496 6.68415e-18
9449.22642 6.26270e-18
9450.08788 5.85261e-18
9450.94935 5.44256e-18
9451.81081 5.17405e-18
9452.67227 4.90596e-18
9453.53373 4.83001e-18
9454.39520 4.75461e-18
9455.25666 4.88393e-18
9456.11812 5.01386e-18
9456.98960 5.31708e-18
9457.85106 5.62079e-18
9458.71252 6.00714e-18
9459.57398 6.39370e-18
9460.43545 6.67996e-18
9461.29691 6.96591e-18
9462.15837 7.04168e-18
9463.01983 7.11686e-18
9463.88129 7.06840e-18
9464.74276 7.01960e-18
9465.60422 6.93708e-18
9466.47570 6.85448e-18
9467.33716 6.79328e-18
9468.19862 6.73215e-18
9469.06008 6.73678e-18
9469.92155 6.74160e-18
9470.78301 6.74382e-18
9471.64447 6.74602e-18
9472.50593 6.67314e-18
9473.36739 6.60005e-18
9474.22885 6.49758e-18
9475.09032 6.39503e-18
9475.96180 6.32487e-18
9476.82326 6.25479e-18
9477.68472 6.34526e-18
9478.54618 6.43618e-18
9479.40764 6.83195e-18
9480.26911 7.22858e-18
9481.13057 7.77253e-18
9481.99203 8.31690e-18
9482.85349 8.70510e-18
9483.71495 9.09283e-18
9484.57642 9.16510e-18
9485.43788 9.23643e-18
9486.30936 8.93666e-18
9487.17082 8.63581e-18
9488.03228 8.08607e-18
9488.89374 7.53563e-18
9489.75520 7.05741e-18
9490.61667 6.57941e-18
9491.47813 6.37827e-18
9492.33959 6.17795e-18
9493.20105 6.25013e-18
9494.06252 6.32311e-18
9494.92398 6.66759e-18
9495.79546 7.01285e-18
9496.65692 7.67349e-18
9497.51838 8.33505e-18
9498.37984 9.24222e-18
9499.24130 1.01501e-17
9500.10277 1.09488e-17
9500.96423 1.17472e-17
9501.82569 1.21304e-17
9502.68715 1.25124e-17
9503.54861 1.24316e-17
9504.41008 1.23494e-17
9505.28155 1.18359e-17
9506.14302 1.13211e-17
9507.00448 1.06416e-17
9507.86594 9.96168e-18
9508.72740 9.43350e-18
9509.58887 8.90579e-18
9510.45033 8.56003e-18
9511.31179 8.21481e-18
9512.17325 7.98876e-18
9513.03471 7.76306e-18
9513.89617 7.71845e-18
9514.75764 7.67436e-18
9515.62912 7.89954e-18
9516.49058 8.12550e-18
9517.35204 8.59470e-18
9518.21350 9.06460e-18
9519.07496 9.69118e-18
9519.93643 1.03182e-17
9520.79789 1.09497e-17
9521.65935 1.15811e-17
9522.52081 1.20073e-17
9523.38227 1.24329e-17
9524.24374 1.25832e-17
9525.11522 1.27326e-17
9525.97668 1.27172e-17
9526.83814 1.27013e-17
9527.69960 1.26222e-17
9528.56106 1.25428e-17
9529.42252 1.24802e-17
9530.28399 1.24177e-17
9531.14545 1.24168e-17
9532.00691 1.24162e-17
9532.86837 1.24056e-17
9533.72984 1.23950e-17
9534.60131 1.23143e-17
9535.46278 1.22335e-17
9536.32424 1.20646e-17
9537.18570 1.18954e-17
9538.04716 1.16479e-17
9538.90862 1.14002e-17
9539.77009 1.13000e-17
9540.63155 1.12002e-17
9541.49301 1.14604e-17
9542.35447 1.17217e-17
9543.21593 1.21897e-17
9544.08741 1.26583e-17
9544.94888 1.31067e-17
9545.81034 1.35549e-17
9546.67180 1.37619e-17
9547.53326 1.39681e-17
9548.39472 1.37062e-17
9549.25619 1.34429e-17
9550.11765 1.29759e-17
9550.97911 1.25084e-17
9551.84057 1.23675e-17
9552.70203 1.22276e-17
9553.57351 1.24489e-17
9554.43497 1.26713e-17
9555.29644 1.29408e-17
9556.15790 1.32105e-17
9557.01936 1.33167e-17
9557.88082 1.34224e-17
9558.74228 1.32244e-17
9559.60375 1.30257e-17
9560.46521 1.26108e-17
9561.32667 1.21955e-17
9562.18813 1.20434e-17
9563.05961 1.18921e-17
9563.92107 1.22501e-17
9564.78254 1.26097e-17
9565.64400 1.32231e-17
9566.50546 1.38374e-17
9567.36692 1.44323e-17
9568.22838 1.50270e-17
9569.08985 1.52763e-17
9569.95131 1.55247e-17
9570.81277 1.52032e-17
9571.67423 1.48802e-17
9572.53569 1.42713e-17
9573.40717 1.36617e-17
9574.26863 1.31019e-17
9575.13010 1.25424e-17
9575.99156 1.22567e-17
9576.85302 1.19719e-17
9577.71448 1.21380e-17
9578.57594 1.23054e-17
9579.43741 1.26440e-17
9580.29887 1.29830e-17
9581.16033 1.30862e-17
9582.02179 1.31887e-17
9582.89327 1.30025e-17
9583.75473 1.28155e-17
9584.61620 1.24200e-17
9585.47766 1.20238e-17
9586.33912 1.17041e-17
9587.20058 1.13847e-17
9588.06204 1.15753e-17
9588.92351 1.17673e-17
9589.78497 1.24138e-17
9590.64643 1.30615e-17
9591.51791 1.36655e-17
9592.37937 1.42695e-17
9593.24083 1.45625e-17
9594.10229 1.48547e-17
9594.96376 1.48624e-17
9595.82522 1.48693e-17
9596.68668 1.46458e-17
9597.54814 1.44216e-17
9598.40960 1.40929e-17
9599.27107 1.37641e-17
9600.13253 1.34693e-17
9600.99399 1.31746e-17
9601.86547 1.30237e-17
9602.72693 1.28733e-17
9603.58839 1.29381e-17
9604.44986 1.30037e-17
9605.31132 1.32724e-17
9606.17278 1.35416e-17
9607.03424 1.39535e-17
9607.89570 1.43656e-17
9608.75717 1.46589e-17
9609.61863 1.49517e-17
9610.48009 1.48738e-17
9611.35157 1.47947e-17
9612.21303 1.44527e-17
9613.07449 1.41100e-17
9613.93595 1.37058e-17
9614.79742 1.33013e-17
9615.65888 1.29753e-17
9616.52034 1.26494e-17
9617.38180 1.25186e-17
9618.24326 1.23884e-17
9619.10473 1.24828e-17
9619.96619 1.25779e-17
9620.82765 1.28651e-17
9621.69913 1.31529e-17
9622.56059 1.35293e-17
9623.42205 1.39059e-17
9624.28352 1.42274e-17
9625.14498 1.45486e-17
9626.00644 1.46777e-17
9626.86790 1.48061e-17
9627.72936 1.46140e-17
9628.59083 1.44210e-17
9629.45229 1.39455e-17
9630.31375 1.34693e-17
9631.17521 1.29920e-17
9632.04669 1.25145e-17
9632.90815 1.22536e-17
9633.76961 1.19933e-17
9634.63108 1.20338e-17
9635.49254 1.20752e-17
9636.35400 1.24081e-17
9637.21546 1.27420e-17
9638.07692 1.30515e-17
9638.93839 1.33610e-17
9639.79985 1.33862e-17
9640.67133 1.34104e-17
9641.53279 1.33140e-17
9642.39425 1.32173e-17
9643.25571 1.31898e-17
9644.11718 1.31627e-17
9644.97864 1.32502e-17
9645.84010 1.33382e-17
9646.70156 1.35594e-17
9647.56302 1.37810e-17
9648.42448 1.39881e-17
9649.28595 1.41951e-17
9650.15743 1.41956e-17
9651.01889 1.41953e-17
9651.88035 1.39885e-17
9652.74181 1.37810e-17
9653.60327 1.34532e-17
9654.46474 1.31249e-17
9655.32620 1.27945e-17
9656.18766 1.24642e-17
9657.04912 1.22683e-17
9657.91058 1.20727e-17
9658.77205 1.20876e-17
9659.64352 1.21031e-17
9660.50499 1.23476e-17
9661.36645 1.25927e-17
9662.22791 1.29893e-17
9663.08937 1.33863e-17
9663.95083 1.37329e-17
9664.81230 1.40795e-17
9665.67376 1.42593e-17
9666.53522 1.44387e-17
9667.39668 1.45135e-17
9668.25815 1.45881e-17
9669.11961 1.45935e-17
9669.99109 1.45986e-17
9670.85255 1.44747e-17
9671.71401 1.43503e-17
9672.57547 1.40806e-17
9673.43693 1.38105e-17
9674.29840 1.35053e-17
9675.15986 1.32000e-17
9676.02132 1.29693e-17
9676.88278 1.27389e-17
9677.74424 1.26595e-17
9678.61572 1.25805e-17
9679.47718 1.27032e-17
9680.33865 1.28265e-17
9681.20011 1.30503e-17
9682.06157 1.32742e-17
9682.92303 1.34581e-17
9683.78449 1.36418e-17
9684.64596 1.37442e-17
9685.50742 1.38462e-17
9686.36888 1.38614e-17
9687.23034 1.38762e-17
9688.10182 1.38187e-17
9688.96328 1.37610e-17
9689.82475 1.36664e-17
9690.68621 1.35717e-17
9691.54767 1.34465e-17
9692.40913 1.33212e-17
9693.27059 1.31465e-17
9694.13206 1.29716e-17
9694.99352 1.27732e-17
9695.85498 1.25747e-17
9696.71644 1.24230e-17
9697.57790 1.22715e-17
9698.44938 1.22016e-17
9699.31084 1.21320e-17
9700.17231 1.21306e-17
9701.03377 1.21295e-17
9701.89523 1.21678e-17
9702.75669 1.22062e-17
9703.61816 1.22200e-17
9704.47962 1.22338e-17
9705.34108 1.21818e-17
9706.20254 1.21297e-17
9707.06400 1.20517e-17
9707.93548 1.19738e-17
9708.79694 1.19113e-17
9709.65841 1.18490e-17
9710.51987 1.18246e-17
9711.38133 1.18004e-17
9712.24279 1.18288e-17
9713.10425 1.18574e-17
9713.96572 1.18993e-17
9714.82718 1.19412e-17
9715.68864 1.19493e-17
9716.55010 1.19573e-17
9717.41156 1.19180e-17
9718.28304 1.18785e-17
9719.14451 1.17864e-17
9720.00597 1.16941e-17
9720.86743 1.15985e-17
9721.72889 1.15028e-17
9722.59035 1.14794e-17
9723.45182 1.14562e-17
9724.31328 1.14718e-17
9725.17474 1.14874e-17
9726.03620 1.14431e-17
9726.89766 1.13985e-17
9727.76914 1.12593e-17
9728.63060 1.11197e-17
9729.49207 1.09038e-17
9730.35353 1.06878e-17
9731.21499 1.04414e-17
9732.07645 1.01950e-17
9732.93791 1.00029e-17
9733.79938 9.81089e-18
9734.66084 9.72569e-18
9735.52230 9.64082e-18
9736.38376 9.65231e-18
9737.25524 9.66409e-18
9738.11670 9.74853e-18
9738.97817 9.83319e-18
9739.83963 9.94384e-18
9740.70109 1.00546e-17
9741.56255 1.01452e-17
9742.42401 1.02358e-17
9743.28548 1.02820e-17
9744.14694 1.03281e-17
9745.00840 1.03152e-17
9745.86986 1.03022e-17
9746.74134 1.02501e-17
9747.60280 1.01979e-17
9748.46426 1.01335e-17
9749.32573 1.00690e-17
9750.18719 9.99874e-18
9751.04865 9.92845e-18
9751.91011 9.85571e-18
9752.77157 9.78295e-18
9753.63304 9.70534e-18
9754.49450 9.62772e-18
9755.35596 9.54022e-18
9756.22744 9.45268e-18
9757.08890 9.37349e-18
9757.95036 9.29432e-18
9758.81183 9.25035e-18
9759.67329 9.20648e-18
9760.53475 9.21854e-18
9761.39621 9.23076e-18
9762.25767 9.31670e-18
9763.11913 9.40287e-18
9763.98060 9.53564e-18
9764.84206 9.66854e-18
9765.71354 9.77193e-18
9766.57500 9.87524e-18
9767.43646 9.91189e-18
9768.29792 9.94833e-18
9769.15939 9.94275e-18
9770.02085 9.93702e-18
9770.88231 9.91006e-18
9771.74377 9.88303e-18
9772.60523 9.84512e-18
9773.46670 9.80719e-18
9774.32816 9.77157e-18
9775.19964 9.73595e-18
9776.06110 9.71308e-18
9776.92256 9.69025e-18
9777.78402 9.68711e-18
9778.64548 9.68403e-18
9779.50695 9.70953e-18
9780.36841 9.73513e-18
9781.22987 9.79173e-18
9782.09133 9.84844e-18
9782.95280 9.88715e-18
9783.81426 9.92581e-18
9784.68574 9.89336e-18
9785.54720 9.86068e-18
9786.40866 9.78288e-18
9787.27012 9.70495e-18
9788.13158 9.63032e-18
9788.99305 9.55571e-18
9789.85451 9.50136e-18
9790.71597 9.44706e-18
9791.57743 9.42010e-18
9792.43889 9.39320e-18
9793.30036 9.37541e-18
9794.16182 9.35765e-18
9795.03330 9.31078e-18
9795.89476 9.26383e-18
9796.75622 9.19905e-18
9797.61768 9.13423e-18
9798.47915 9.10743e-18
9799.34061 9.08075e-18
9800.20207 9.11061e-18
9801.06353 9.14065e-18
9801.92499 9.20067e-18
9802.78645 9.26079e-18
9803.64792 9.32424e-18
9804.51940 9.38769e-18
9805.38086 9.42319e-18
9806.24232 9.45860e-18
9807.10378 9.45093e-18
9807.96524 9.44311e-18
9808.82671 9.42238e-18
9809.68817 9.40159e-18
9810.54963 9.39644e-18
9811.41109 9.39133e-18
9812.27255 9.41987e-18
9813.13402 9.44851e-18
9813.99548 9.51915e-18
9814.86696 9.58993e-18
9815.72842 9.65240e-18
9816.58988 9.71485e-18
9817.45134 9.71576e-18
9818.31280 9.71649e-18
9819.17427 9.66294e-18
9820.03573 9.60923e-18
9820.89719 9.52368e-18
9821.75865 9.43804e-18
9822.62012 9.35347e-18
9823.48158 9.26892e-18
9824.35306 9.22374e-18
9825.21452 9.17870e-18
9826.07598 9.16732e-18
9826.93744 9.15605e-18
9827.79890 9.14737e-18
9828.66037 9.13871e-18
9829.52183 9.12505e-18
9830.38329 9.11138e-18
9831.24475 9.10194e-18
9832.10621 9.09252e-18
9832.97769 9.08519e-18
9833.83915 9.07786e-18
9834.70062 9.06055e-18
9835.56208 9.04321e-18
9836.42354 9.01035e-18
9837.28500 8.97744e-18
9838.14647 8.93229e-18
9839.00793 8.88711e-18
9839.86939 8.83335e-18
9840.73085 8.77956e-18
9841.59231 8.71910e-18
9842.45377 8.65861e-18
9843.32525 8.59834e-18
9844.18672 8.53806e-18
9845.04818 8.49934e-18
9845.90964 8.46068e-18
9846.77110 8.46033e-18
9847.63256 8.46009e-18
9848.49403 8.49291e-18
9849.35549 8.52582e-18
9850.21695 8.58224e-18
9851.07841 8.63875e-18
9851.93987 8.70964e-18
9852.81135 8.78059e-18
9853.67282 8.85517e-18
9854.53428 8.92976e-18
9855.39574 9.00122e-18
9856.25720 9.07265e-18
9857.11866 9.13594e-18
9857.98013 9.19921e-18
9858.84159 9.24081e-18
9859.70305 9.28233e-18
9860.56451 9.28672e-18
9861.42597 9.29100e-18
9862.29745 9.25607e-18
9863.15891 9.22104e-18
9864.02038 9.15346e-18
9864.88184 9.08578e-18
9865.74330 8.99788e-18
9866.60476 8.90991e-18
9867.46622 8.81931e-18
9868.32769 8.72872e-18
9869.18915 8.64555e-18
9870.05061 8.56240e-18
9870.92209 8.48549e-18
9871.78355 8.40859e-18
9872.64501 8.33925e-18
9873.50648 8.26993e-18
9874.36794 8.21411e-18
9875.22940 8.15832e-18
9876.09086 8.12071e-18
9876.95232 8.08316e-18
9877.81379 8.06809e-18
9878.67525 8.05310e-18
9879.53671 8.06254e-18
9880.39817 8.07206e-18
9881.26965 8.10303e-18
9882.13111 8.13405e-18
9882.99257 8.18097e-18
9883.85404 8.22792e-18
9884.71550 8.28065e-18
9885.57696 8.33338e-18
9886.43842 8.38093e-18
9887.29988 8.42846e-18
9888.16135 8.46054e-18
9889.02281 8.49257e-18
9889.88427 8.50058e-18
9890.74573 8.50850e-18
9891.61721 8.49221e-18
9892.47867 8.47586e-18
9893.34014 8.43963e-18
9894.20160 8.40334e-18
9895.06306 8.35184e-18
9895.92452 8.30027e-18
9896.78598 8.23838e-18
9897.64745 8.17647e-18
9898.50891 8.11225e-18
9899.37037 8.04802e-18
9900.23183 7.99211e-18
9901.09329 7.93622e-18
9901.96477 7.89037e-18
9902.82623 7.84454e-18
9903.68770 7.79971e-18
9904.54916 7.75490e-18
9905.41062 7.71317e-18
9906.27208 7.67146e-18
9907.13354 7.65251e-18
9907.99501 7.63362e-18
9908.85647 7.64680e-18
9909.71793 7.66008e-18
9910.57939 7.69642e-18
9911.45087 7.73283e-18
9912.31233 7.77772e-18
9913.17380 7.82264e-18
9914.03526 7.84521e-18
9914.89672 7.86771e-18
9915.75818 7.84342e-18
9916.61964 7.81901e-18
9917.48111 7.75646e-18
9918.34257 7.69379e-18
9919.20403 7.60795e-18
9920.07551 7.52205e-18
9920.93697 7.42996e-18
9921.79843 7.33786e-18
9922.65989 7.25683e-18
9923.52136 7.17585e-18
9924.38282 7.11349e-18
9925.24428 7.05119e-18
9926.10574 7.01046e-18
9926.96720 6.96981e-18
9927.82867 6.93945e-18
9928.69013 6.90912e-18
9929.56161 6.87120e-18
9930.42307 6.83325e-18
9931.28453 6.78193e-18
9932.14599 6.73056e-18
9933.00746 6.66840e-18
9933.86892 6.60619e-18
9934.73038 6.53845e-18
9935.59184 6.47069e-18
9936.45330 6.40500e-18
9937.31477 6.33931e-18
9938.17623 6.28574e-18
9939.03769 6.23221e-18
9939.90917 6.20342e-18
9940.77063 6.17470e-18
9941.63209 6.17415e-18
9942.49355 6.17369e-18
9943.35502 6.18828e-18
9944.21648 6.20292e-18
9945.07794 6.22136e-18
9945.93940 6.23980e-18
9946.80086 6.25922e-18
9947.66233 6.27864e-18
9948.52379 6.29575e-18
9949.39527 6.31286e-18
9950.25673 6.32140e-18
9951.11819 6.32990e-18
9951.97965 6.32582e-18
9952.84112 6.32170e-18
9953.70258 6.31312e-18
9954.56404 6.30452e-18
9955.42550 6.30035e-18
9956.28696 6.29620e-18
9957.14843 6.29050e-18
9958.00989 6.28478e-18
9958.88137 6.26930e-18
9959.74283 6.25377e-18
9960.60429 6.22431e-18
9961.46575 6.19479e-18
9962.32721 6.14862e-18
9963.18868 6.10239e-18
9964.05014 6.05334e-18
9964.91160 6.00428e-18
9965.77306 5.97543e-18
9966.63452 5.94665e-18
9967.49599 5.94342e-18
9968.36747 5.94027e-18
9969.22893 5.95376e-18
9970.09039 5.96729e-18
9970.95185 5.99612e-18
9971.81331 6.02499e-18
9972.67477 6.07576e-18
9973.53624 6.12660e-18
9974.39770 6.19657e-18
9975.25916 6.26660e-18
9976.12062 6.34078e-18
9976.98208 6.41497e-18
9977.85356 6.48146e-18
9978.71503 6.54792e-18
9979.57649 6.60100e-18
9980.43795 6.65404e-18
9981.29941 6.69172e-18
9982.16087 6.72936e-18
9983.02234 6.75964e-18
9983.88380 6.78991e-18
9984.74526 6.82089e-18
9985.60672 6.85187e-18
9986.46818 6.88757e-18
9987.32965 6.92326e-18
9988.20112 6.96574e-18
9989.06259 7.00823e-18
9989.92405 7.04254e-18
9990.78551 7.07682e-18
9991.64697 7.08599e-18
9992.50843 7.09507e-18
9993.36990 7.09183e-18
9994.23136 7.08855e-18
9995.09282 7.09466e-18
9995.95428 7.10081e-18
9996.81574 7.11258e-18
9997.67721 7.12437e-18
9998.54869 7.12792e-18
9999.41015 7.13143e-18
