# wavelength flux
3499.99900 1.58870e-18
3504.29625 1.89265e-18
3508.59351 1.70129e-18
3512.89077 1.34219e-18
3517.19819 1.13714e-18
3521.49544 1.26768e-18
3525.79270 1.59398e-18
3530.08996 1.86534e-18
3534.38721 2.05112e-18
3538.68447 2.08203e-18
3542.98173 1.79640e-18
3547.27898 1.55114e-18
3551.58640 1.53682e-18
3555.88366 1.45657e-18
3560.18091 1.34058e-18
3564.47817 1.43000e-18
3568.77543 1.76558e-18
3573.07269 1.99320e-18
3577.36994 1.76744e-18
3581.66720 1.39509e-18
3585.97462 1.37674e-18
3590.27187 1.89021e-18
3594.56913 2.45854e-18
3598.86639 2.45981e-18
3603.16364 1.92307e-18
3607.46090 1.49650e-18
3611.75816 1.58892e-18
3616.05541 1.93839e-18
3620.35267 2.08778e-18
3624.66009 1.98958e-18
3628.95734 1.91230e-18
3633.25460 1.90844e-18
3637.55186 2.02846e-18
3641.84911 1.93803e-18
3646.14637 1.44176e-18
3650.44363 1.27471e-18
3654.74089 1.61164e-18
3659.04830 1.83926e-18
3663.34556 1.92030e-18
3667.64282 1.93335e-18
3671.94007 1.83688e-18
3676.23733 2.01833e-18
3680.53459 2.28011e-18
3684.83184 2.15695e-18
3689.12910 2.12866e-18
3693.43652 2.16704e-18
3697.73377 2.12307e-18
3702.03103 2.23092e-18
3706.32829 2.40665e-18
3710.62555 2.49669e-18
3714.92280 2.60646e-18
3719.22006 2.59346e-18
3723.51732 2.42359e-18
3727.82473 2.39462e-18
3732.12199 2.46432e-18
3736.41925 2.47773e-18
3740.71650 2.40967e-18
3745.01376 2.29018e-18
3749.31102 2.26511e-18
3753.60827 2.33081e-18
3757.90553 2.38100e-18
3762.20279 2.34085e-18
3766.51020 2.29898e-18
3770.80746 2.27735e-18
3775.10472 2.25572e-18
3779.40198 2.23409e-18
3783.69923 2.21247e-18
3787.99649 2.19085e-18
3792.29375 2.16924e-18
3796.59100 2.14764e-18
3800.89842 2.12604e-18
3805.19568 2.10444e-18
3809.49293 2.08285e-18
3813.79019 2.04917e-18
3818.08745 2.04866e-18
3822.38470 1.91689e-18
3826.68196 1.82507e-18
3830.97922 1.89075e-18
3835.28663 1.89353e-18
3839.58389 1.81664e-18
3843.88115 1.83303e-18
3848.17841 1.97053e-18
3852.47566 2.04344e-18
3856.77292 2.00126e-18
3861.07018 1.91787e-18
3865.36743 1.94252e-18
3869.66469 2.16525e-18
3873.97211 2.36815e-18
3878.26936 2.37300e-18
3882.56662 2.41628e-18
3886.86388 2.55190e-18
3891.16113 2.54048e-18
3895.45839 2.52270e-18
3899.75565 2.64259e-18
3904.05291 2.81982e-18
3908.36032 2.96544e-18
3912.65758 3.17724e-18
3916.95484 3.49265e-18
3921.25209 3.73283e-18
3925.54935 3.75052e-18
3929.84661 3.60597e-18
3934.14386 3.49821e-18
3938.44112 3.50307e-18
3942.74854 3.52502e-18
3947.04579 3.57649e-18
3951.34305 3.60276e-18
3955.64031 3.55112e-18
3959.93756 3.51758e-18
3964.23482 3.60894e-18
3968.53208 3.85821e-18
3972.82934 4.20633e-18
3977.13675 4.39846e-18
3981.43401 4.38206e-18
3985.73126 4.46408e-18
3990.02852 4.52393e-18
3994.32578 4.36540e-18
3998.62304 4.35290e-18
4002.92029 4.52912e-18
4007.21755 4.61399e-18
4011.52497 4.50874e-18
4015.82222 4.38284e-18
4020.11948 4.44321e-18
4024.41674 4.51286e-18
4028.71399 4.36253e-18
4033.01125 4.31406e-18
4037.30851 4.60387e-18
4041.60576 4.87594e-18
4045.90302 4.88875e-18
4050.21044 4.74322e-18
4054.50770 4.68722e-18
4058.80495 4.84059e-18
4063.10221 4.96070e-18
4067.39947 4.95346e-18
4071.69672 4.95301e-18
4075.99398 5.02379e-18
4080.29124 5.09126e-18
4084.59865 5.04053e-18
4088.89591 4.91179e-18
4093.19317 4.78373e-18
4097.49042 4.63536e-18
4101.78768 4.63217e-18
4106.08494 4.72925e-18
4110.38220 4.63711e-18
4114.67945 4.47626e-18
4118.98687 4.43104e-18
4123.28413 4.30965e-18
4127.58138 4.06970e-18
4131.87864 3.97179e-18
4136.17590 3.90783e-18
4140.47315 3.71548e-18
4144.77041 3.70778e-18
4149.06767 3.90086e-18
4153.36492 3.96280e-18
4157.67234 3.72874e-18
4161.96960 3.29269e-18
4166.26685 2.95427e-18
4170.56411 2.85976e-18
4174.86137 2.97795e-18
4179.15863 3.17125e-18
4183.45588 3.32016e-18
4187.75314 3.45400e-18
4192.06056 3.50630e-18
4196.35781 3.40223e-18
4200.65507 3.35456e-18
4204.95233 3.38985e-18
4209.24958 3.36218e-18
4213.54684 3.36738e-18
4217.84410 3.58901e-18
4222.14135 3.81985e-18
4226.44877 3.72846e-18
4230.74603 3.46828e-18
4235.04328 3.44668e-18
4239.34054 3.65594e-18
4243.63780 3.74758e-18
4247.93505 3.67483e-18
4252.23231 3.57005e-18
4256.52957 3.48465e-18
4260.83698 3.57942e-18
4265.13424 3.63160e-18
4269.43150 3.64589e-18
4273.72876 3.78281e-18
4278.02601 3.81414e-18
4282.32327 3.63983e-18
4286.62053 3.61979e-18
4290.91778 3.79150e-18
4295.22520 3.78401e-18
4299.52246 3.69798e-18
4303.81971 3.77448e-18
4308.11697 3.74082e-18
4312.41423 3.53096e-18
4316.71148 3.37581e-18
4321.00874 3.40870e-18
4325.30600 3.63448e-18
4329.60326 3.76493e-18
4333.91067 3.83512e-18
4338.20793 3.93519e-18
4342.50519 3.94303e-18
4346.80244 3.85909e-18
4351.09970 3.71261e-18
4355.39696 3.50410e-18
4359.69421 3.42728e-18
4363.99147 3.59094e-18
4368.29889 3.63066e-18
4372.59614 3.41065e-18
4376.89340 3.21788e-18
4381.19066 3.25099e-18
4385.48792 3.39714e-18
4389.78517 3.44971e-18
4394.08243 3.46966e-18
4398.37969 3.54198e-18
4402.67694 3.53228e-18
4406.98436 3.42104e-18
4411.28162 3.34313e-18
4415.57887 3.36351e-18
4419.87613 3.38389e-18
4424.17339 3.40427e-18
4428.47064 3.42464e-18
4432.76790 3.44501e-18
4437.06516 3.46537e-18
4441.37257 3.48573e-18
4445.66983 3.50609e-18
4449.96709 3.52644e-18
4454.26435 3.54680e-18
4458.56160 3.64149e-18
4462.85886 3.57831e-18
4467.15612 3.59306e-18
4471.45337 3.90931e-18
4475.76079 4.18517e-18
4480.05805 4.17275e-18
4484.35530 4.00871e-18
4488.65256 3.91409e-18
4492.94982 3.89807e-18
4497.24707 3.97840e-18
4501.54433 4.15764e-18
4505.84159 4.32333e-18
4510.14900 4.39370e-18
4514.44626 4.31949e-18
4518.74352 4.20979e-18
4523.04078 4.25722e-18
4527.33803 4.52219e-18
4531.63529 4.86750e-18
4535.93255 5.11246e-18
4540.22980 5.20840e-18
4544.52706 5.17892e-18
4548.83448 5.19250e-18
4553.13173 5.41078e-18
4557.42899 5.71305e-18
4561.72625 5.96177e-18
4566.02350 6.17880e-18
4570.32076 6.32310e-18
4574.61802 6.49571e-18
4578.91528 6.86343e-18
4583.22269 7.26184e-18
4587.51995 7.43226e-18
4591.81721 7.31391e-18
4596.11446 7.22377e-18
4600.41172 7.34160e-18
4604.70898 7.49517e-18
4609.00623 7.59268e-18
4613.30349 7.61831e-18
4617.61091 7.53071e-18
4621.90816 7.42889e-18
4626.20542 7.45323e-18
4630.50268 7.70511e-18
4634.79993 7.89746e-18
4639.09719 7.84302e-18
4643.39445 7.82816e-18
4647.69171 7.94754e-18
4651.99912 7.94108e-18
4656.29638 7.73438e-18
4660.59364 7.58625e-18
4664.89089 7.67656e-18
4669.18815 7.90055e-18
4673.48541 7.98631e-18
4677.78266 7.77248e-18
4682.07992 7.57436e-18
4686.38734 7.59469e-18
4690.68459 7.61428e-18
4694.98185 7.56259e-18
4699.27911 7.41668e-18
4703.57636 7.11810e-18
4707.87362 6.85196e-18
4712.17088 6.74630e-18
4716.46814 6.72048e-18
4720.76539 6.71147e-18
4725.07281 6.62784e-18
4729.37007 6.44573e-18
4733.66732 6.28496e-18
4737.96458 6.35921e-18
4742.26184 6.37048e-18
4746.55909 6.09489e-18
4750.85635 5.90131e-18
4755.15361 5.93383e-18
4759.46102 6.00556e-18
4763.75828 6.00534e-18
4768.05554 6.03564e-18
4772.35279 6.19191e-18
4776.65005 6.24848e-18
4780.94731 6.12392e-18
4785.24457 6.04183e-18
4789.54182 5.96521e-18
4793.84924 5.70581e-18
4798.14649 5.42038e-18
4802.44375 5.36047e-18
4806.74101 5.52057e-18
4811.03827 5.74560e-18
4815.33552 5.84411e-18
4819.63278 5.72418e-18
4823.93004 5.57847e-18
4828.23745 5.67761e-18
4832.53471 5.94229e-18
4836.83197 6.07466e-18
4841.12922 6.06524e-18
4845.42648 6.05029e-18
4849.72374 6.11143e-18
4854.02099 6.17225e-18
4858.31825 6.11954e-18
4862.61551 6.00202e-18
4866.92292 5.90779e-18
4871.22018 5.88420e-18
4875.51744 5.91738e-18
4879.81470 5.94500e-18
4884.11195 6.02564e-18
4888.40921 6.10244e-18
4892.70647 6.05858e-18
4897.00372 6.09378e-18
4901.31114 6.19309e-18
4905.60840 6.20545e-18
4909.90565 6.24766e-18
4914.20291 6.49738e-18
4918.50017 6.76883e-18
4922.79742 6.83334e-18
4927.09468 6.89783e-18
4931.39194 6.96231e-18
4935.68920 7.02678e-18
4939.99661 7.09125e-18
4944.29387 7.15570e-18
4948.59113 7.22014e-18
4952.88838 7.28458e-18
4957.18564 7.34900e-18
4961.48290 7.51655e-18
4965.78015 7.51272e-18
4970.07741 7.29867e-18
4974.38483 7.08285e-18
4978.68208 7.05425e-18
4982.97934 7.23376e-18
4987.27660 7.40829e-18
4991.57385 7.28635e-18
4995.87111 6.88070e-18
5000.16837 6.53713e-18
5004.46563 6.45742e-18
5008.77304 6.45271e-18
5013.07030 6.32719e-18
5017.36756 6.22886e-18
5021.66481 6.19678e-18
5025.96207 6.16471e-18
5030.25933 6.13265e-18
5034.55658 6.10059e-18
5038.85384 6.06852e-18
5043.16126 6.03648e-18
5047.45851 6.00443e-18
5051.75577 5.97239e-18
5056.05303 5.94036e-18
5060.35028 5.80909e-18
5064.64754 5.60737e-18
5068.94480 5.56891e-18
5073.24206 5.53047e-18
5077.54947 5.49203e-18
5081.84673 5.45359e-18
5086.14399 5.41517e-18
5090.44124 5.37675e-18
5094.73850 5.33834e-18
5099.03576 5.29993e-18
5103.33301 5.26153e-18
5107.63027 5.22314e-18
5111.92753 5.19213e-18
5116.23494 5.30982e-18
5120.53220 5.49897e-18
5124.82946 5.67032e-18
5129.12672 5.78315e-18
5133.42397 5.83876e-18
5137.72123 5.84114e-18
5142.01849 5.72850e-18
5146.31574 5.66392e-18
5150.62316 5.81089e-18
5154.92042 5.95558e-18
5159.21767 5.97720e-18
5163.51493 6.00593e-18
5167.81219 6.00539e-18
5172.10944 5.96467e-18
5176.40670 5.97273e-18
5180.70396 6.03231e-18
5185.01137 6.07916e-18
5189.30863 6.15451e-18
5193.60589 6.35047e-18
5197.90315 6.56359e-18
5202.20040 6.66743e-18
5206.49766 6.80460e-18
5210.79492 7.02160e-18
5215.09217 7.21071e-18
5219.39959 7.32384e-18
5223.69685 7.31168e-18
5227.99410 7.22827e-18
5232.29136 7.21741e-18
5236.58862 7.35936e-18
5240.88587 7.60631e-18
5245.18313 7.81352e-18
5249.48039 7.87993e-18
5253.77765 7.84287e-18
5258.08506 7.84225e-18
5262.38232 7.95936e-18
5266.67958 8.06375e-18
5270.97683 8.14387e-18
5275.27409 8.17389e-18
5279.57135 8.23747e-18
5283.86860 8.29764e-18
5288.16586 8.36143e-18
5292.47328 8.62174e-18
5296.77053 8.99901e-18
5301.06779 9.25054e-18
5305.36505 9.37953e-18
5309.66230 9.35875e-18
5313.95956 9.20450e-18
5318.25682 9.16886e-18
5322.55408 9.28948e-18
5326.86149 9.47658e-18
5331.15875 9.56852e-18
5335.45601 9.52873e-18
5339.75326 9.47999e-18
5344.05052 9.56867e-18
5348.34778 9.79739e-18
5352.64503 9.99441e-18
5356.94229 1.00087e-17
5361.23955 9.92092e-18
5365.54696 9.99079e-18
5369.84422 1.00757e-17
5374.14148 1.01011e-17
5378.43873 1.02888e-17
5382.73599 1.04562e-17
5387.03325 1.03930e-17
5391.33050 1.02908e-17
5395.63792 1.04169e-17
5399.93518 1.07464e-17
5404.23243 1.09441e-17
5408.52969 1.08178e-17
5412.82695 1.06142e-17
5417.12421 1.05696e-17
5421.42146 1.07166e-17
5425.71872 1.09001e-17
5430.01598 1.08916e-17
5434.32339 1.07336e-17
5438.62065 1.07044e-17
5442.91791 1.08615e-17
5447.21516 1.10221e-17
5451.51242 1.11810e-17
5455.80968 1.14143e-17
5460.10693 1.15587e-17
5464.40419 1.15853e-17
5468.71161 1.17222e-17
5473.00887 1.19510e-17
5477.30612 1.21432e-17
5481.60338 1.22475e-17
5485.90064 1.22983e-17
5490.19789 1.23657e-17
5494.49515 1.24147e-17
5498.79241 1.24265e-17
5503.08966 1.25435e-17
5507.39708 1.27624e-17
5511.69434 1.28571e-17
5515.99159 1.28868e-17
5520.28885 1.30346e-17
5524.58611 1.31976e-17
5528.88337 1.34429e-17
5533.18062 1.36592e-17
5537.47788 1.36539e-17
5541.78530 1.36695e-17
5546.08255 1.37577e-17
5550.37981 1.36942e-17
5554.67707 1.34941e-17
5558.97432 1.32430e-17
5563.27158 1.28947e-17
5567.56884 1.25752e-17
5571.86609 1.23800e-17
5576.17351 1.21443e-17
5580.47077 1.20425e-17
5584.76802 1.20490e-17
5589.06528 1.20051e-17
5593.36254 1.19916e-17
5597.65980 1.21352e-17
5601.95705 1.22865e-17
5606.25431 1.23602e-17
5610.56173 1.25037e-17
5614.85898 1.27748e-17
5619.15624 1.29565e-17
5623.45350 1.28093e-17
5627.75075 1.26602e-17
5632.04801 1.28839e-17
5636.34527 1.33022e-17
5640.64252 1.35008e-17
5644.93978 1.35152e-17
5649.24720 1.35292e-17
5653.54445 1.35740e-17
5657.84171 1.36320e-17
5662.13897 1.37084e-17
5666.43623 1.37930e-17
5670.73348 1.38322e-17
5675.03074 1.38594e-17
5679.32800 1.39556e-17
5683.63541 1.39321e-17
5687.93267 1.37191e-17
5692.22993 1.36675e-17
5696.52718 1.37484e-17
5700.82444 1.37019e-17
5705.12170 1.36515e-17
5709.41895 1.37977e-17
5713.71621 1.38107e-17
5718.02363 1.34369e-17
5722.32088 1.31473e-17
5726.61814 1.31381e-17
5730.91540 1.30010e-17
5735.21266 1.28181e-17
5739.50991 1.28572e-17
5743.80717 1.28710e-17
5748.10443 1.26384e-17
5752.41184 1.25996e-17
5756.70910 1.27521e-17
5761.00636 1.25243e-17
5765.30361 1.21521e-17
5769.60087 1.21946e-17
5773.89813 1.22671e-17
5778.19538 1.19177e-17
5782.49264 1.14442e-17
5786.80006 1.12132e-17
5791.09731 1.10977e-17
5795.39457 1.10285e-17
5799.69183 1.10164e-17
5803.98909 1.10257e-17
5808.28634 1.10293e-17
5812.58360 1.11013e-17
5816.88086 1.13099e-17
5821.17811 1.14404e-17
5825.48553 1.12808e-17
5829.78279 1.10766e-17
5834.08004 1.09725e-17
5838.37730 1.08619e-17
5842.67456 1.09751e-17
5846.97181 1.12580e-17
5851.26907 1.15226e-17
5855.56633 1.15716e-17
5859.87374 1.14763e-17
5864.17100 1.14575e-17
5868.46826 1.15236e-17
5872.76552 1.15486e-17
5877.06277 1.15731e-17
5881.36003 1.16087e-17
5885.65729 1.14938e-17
5889.95454 1.14379e-17
5894.26196 1.16735e-17
5898.55922 1.18730e-17
5902.85647 1.18967e-17
5907.15373 1.20557e-17
5911.45099 1.23110e-17
5915.74824 1.22832e-17
5920.04550 1.20645e-17
5924.34276 1.20954e-17
5928.64002 1.23735e-17
5932.94743 1.24609e-17
5937.24469 1.21786e-17
5941.54194 1.19496e-17
5945.83920 1.21331e-17
5950.13646 1.23620e-17
5954.43372 1.23743e-17
5958.73097 1.23089e-17
5963.02823 1.22794e-17
5967.33565 1.23385e-17
5971.63290 1.22968e-17
5975.93016 1.19106e-17
5980.22742 1.12440e-17
5984.52467 1.06457e-17
5988.82193 1.05947e-17
5993.11919 1.11600e-17
5997.41645 1.18308e-17
6001.72386 1.20584e-17
6006.02112 1.17822e-17
6010.31837 1.14848e-17
6014.61563 1.14308e-17
6018.91289 1.14368e-17
6023.21015 1.13714e-17
6027.50740 1.13232e-17
6031.80466 1.13978e-17
6036.10192 1.14683e-17
6040.40933 1.13609e-17
6044.70659 1.12015e-17
6049.00385 1.09900e-17
6053.30110 1.07858e-17
6057.59836 1.07648e-17
6061.89562 1.09407e-17
6066.19287 1.10933e-17
6070.49013 1.10542e-17
6074.79755 1.08929e-17
6079.09480 1.06717e-17
6083.39206 1.04301e-17
6087.68932 1.03040e-17
6091.98658 1.03489e-17
6096.28383 1.05385e-17
6100.58109 1.07330e-17
6104.87835 1.06847e-17
6109.18576 1.04836e-17
6113.48302 1.04354e-17
6117.78028 1.06772e-17
6122.07753 1.09510e-17
6126.37479 1.09954e-17
6130.67205 1.07806e-17
6134.96930 1.05171e-17
6139.26656 1.03726e-17
6143.57398 1.03042e-17
6147.87123 1.04006e-17
6152.16849 1.06668e-17
6156.46575 1.09078e-17
6160.76301 1.10173e-17
6165.06026 1.10277e-17
6169.35752 1.11568e-17
6173.65478 1.12784e-17
6177.95203 1.12748e-17
6182.25945 1.12523e-17
6186.55671 1.12086e-17
6190.85396 1.11835e-17
6195.15122 1.12822e-17
6199.44848 1.13284e-17
6203.74573 1.12381e-17
6208.04299 1.11695e-17
6212.34025 1.11004e-17
6216.64767 1.11033e-17
6220.94492 1.11604e-17
6225.24218 1.10308e-17
6229.53944 1.07476e-17
6233.83669 1.05140e-17
6238.13395 1.03979e-17
6242.43121 1.04116e-17
6246.72846 1.04867e-17
6251.03588 1.04787e-17
6255.33314 1.03268e-17
6259.63039 9.99950e-18
6263.92765 9.64021e-18
6268.22491 9.54298e-18
6272.52217 9.75321e-18
6276.81942 9.95647e-18
6281.11668 9.83416e-18
6285.42410 9.57404e-18
6289.72135 9.52482e-18
6294.01861 9.64785e-18
6298.31587 9.74422e-18
6302.61312 9.73735e-18
6306.91038 9.65134e-18
6311.20764 9.64357e-18
6315.50489 9.75882e-18
6319.81231 9.85753e-18
6324.10957 9.83332e-18
6328.40682 9.77212e-18
6332.70408 9.76745e-18
6337.00134 9.84711e-18
6341.29860 9.95052e-18
6345.59585 9.98538e-18
6349.89311 9.95061e-18
6354.19037 9.94784e-18
6358.49778 1.00418e-17
6362.79504 1.01297e-17
6367.09230 1.01138e-17
6371.38955 1.00056e-17
6375.68681 9.99985e-18
6379.98407 1.00590e-17
6384.28132 1.00874e-17
6388.57858 1.02110e-17
6392.88600 1.04210e-17
6397.18325 1.05529e-17
6401.48051 1.05766e-17
6405.77777 1.05834e-17
6410.07503 1.06748e-17
6414.37228 1.08013e-17
6418.66954 1.08684e-17
6422.96680 1.09356e-17
6427.27421 1.09918e-17
6431.57147 1.10394e-17
6435.86873 1.11047e-17
6440.16598 1.11237e-17
6444.46324 1.11287e-17
6448.76050 1.11301e-17
6453.05775 1.10670e-17
6457.35501 1.10809e-17
6461.65227 1.13370e-17
6465.95968 1.16865e-17
6470.25694 1.18192e-17
6474.55420 1.16874e-17
6478.85145 1.15533e-17
6483.14871 1.15745e-17
6487.44597 1.16560e-17
6491.74323 1.17163e-17
6496.04048 1.18418e-17
6500.34790 1.20650e-17
6504.64516 1.22779e-17
6508.94241 1.22941e-17
6513.23967 1.20412e-17
6517.53693 1.18274e-17
6521.83418 1.19040e-17
6526.13144 1.21525e-17
6530.42870 1.24098e-17
6534.73611 1.25391e-17
6539.03337 1.25049e-17
6543.33063 1.23733e-17
6547.62788 1.23462e-17
6551.92514 1.24439e-17
6556.22240 1.25281e-17
6560.51966 1.25918e-17
6564.81691 1.25932e-17
6569.12433 1.25012e-17
6573.42159 1.25621e-17
6577.71884 1.28449e-17
6582.01610 1.29376e-17
6586.31336 1.27174e-17
6590.61061 1.24990e-17
6594.90787 1.25210e-17
6599.20513 1.25969e-17
6603.50238 1.26428e-17
6607.80980 1.27857e-17
6612.10706 1.29405e-17
6616.40432 1.29725e-17
6620.70157 1.28965e-17
6624.99883 1.27725e-17
6629.29609 1.27605e-17
6633.59334 1.28850e-17
6637.89060 1.28925e-17
6642.19802 1.29000e-17
6646.49527 1.29074e-17
6650.79253 1.29149e-17
6655.08979 1.29223e-17
6659.38704 1.29298e-17
6663.68430 1.29372e-17
6667.98156 1.29447e-17
6672.27882 1.29521e-17
6676.58623 1.29596e-17
6680.88349 1.29670e-17
6685.18075 1.29745e-17
6689.47800 1.29820e-17
6693.77526 1.29894e-17
6698.07252 1.29969e-17
6702.36977 1.27516e-17
6706.66703 1.26468e-17
6710.97445 1.27007e-17
6715.27170 1.26338e-17
6719.56896 1.25477e-17
6723.86622 1.26091e-17
6728.16347 1.27311e-17
6732.46073 1.28057e-17
6736.75799 1.27040e-17
6741.05525 1.25461e-17
6745.35250 1.25600e-17
6749.65992 1.26880e-17
6753.95718 1.27957e-17
6758.25443 1.28854e-17
6762.55169 1.29322e-17
6766.84895 1.28559e-17
6771.14620 1.26453e-17
6775.44346 1.24149e-17
6779.74072 1.23723e-17
6784.04813 1.25713e-17
6788.34539 1.27166e-17
6792.64265 1.24747e-17
6796.93990 1.22253e-17
6801.23716 1.22577e-17
6805.53442 1.23398e-17
6809.83168 1.22759e-17
6814.12893 1.21764e-17
6818.43635 1.21985e-17
6822.73361 1.23104e-17
6827.03086 1.23225e-17
6831.32812 1.22259e-17
6835.62538 1.21744e-17
6839.92263 1.21639e-17
6844.21989 1.21174e-17
6848.51715 1.20346e-17
6852.82456 1.20040e-17
6857.12182 1.19655e-17
6861.41908 1.18049e-17
6865.71633 1.15700e-17
6870.01359 1.13718e-17
6874.31085 1.12979e-17
6878.60811 1.13774e-17
6882.90536 1.13848e-17
6887.20262 1.11305e-17
6891.51004 1.08662e-17
6895.80729 1.07853e-17
6900.10455 1.08787e-17
6904.40181 1.10417e-17
6908.69906 1.10783e-17
6912.99632 1.09497e-17
6917.29358 1.08262e-17
6921.59083 1.08235e-17
6925.89825 1.09333e-17
6930.19551 1.10591e-17
6934.49276 1.11084e-17
6938.79002 1.10666e-17
6943.08728 1.10488e-17
6947.38454 1.11248e-17
6951.68179 1.11481e-17
6955.97905 1.11312e-17
6960.28647 1.11247e-17
6964.58372 1.10664e-17
6968.88098 1.10682e-17
6973.17824 1.12567e-17
6977.47549 1.14453e-17
6981.77275 1.14600e-17
6986.07001 1.13826e-17
6990.36726 1.13383e-17
6994.67468 1.13892e-17
6998.97194 1.14645e-17
7003.26919 1.15263e-17
7007.56645 1.16231e-17
7011.86371 1.15930e-17
7016.16097 1.14491e-17
7020.45822 1.14867e-17
7024.75548 1.16063e-17
7029.05274 1.15900e-17
7033.36015 1.15670e-17
7037.65741 1.15336e-17
7041.95467 1.13795e-17
7046.25192 1.12131e-17
7050.54918 1.10859e-17
7054.84644 1.10588e-17
7059.14369 1.11180e-17
7063.44095 1.11766e-17
7067.74837 1.12144e-17
7072.04562 1.11487e-17
7076.34288 1.10054e-17
7080.64014 1.09567e-17
7084.93739 1.09610e-17
7089.23465 1.07949e-17
7093.53191 1.05571e-17
7097.82917 1.05593e-17
7102.13658 1.06660e-17
7106.43384 1.05392e-17
7110.73110 1.04211e-17
7115.02835 1.04629e-17
7119.32561 1.04588e-17
7123.62287 1.03767e-17
7127.92012 1.03313e-17
7132.21738 1.03275e-17
7136.51464 1.02501e-17
7140.82205 1.00910e-17
7145.11931 1.00629e-17
7149.41657 1.01826e-17
7153.71382 1.02456e-17
7158.01108 1.02962e-17
7162.30834 1.03052e-17
7166.60560 1.03215e-17
7170.90285 1.03390e-17
7175.21027 1.03620e-17
7179.50753 1.03614e-17
7183.80478 1.03755e-17
7188.10204 1.05183e-17
7192.39930 1.06720e-17
7196.69655 1.06675e-17
7200.99381 1.05832e-17
7205.29107 1.06011e-17
7209.59848 1.07537e-17
7213.89574 1.08598e-17
7218.19300 1.09145e-17
7222.49025 1.10736e-17
7226.78751 1.12689e-17
7231.08477 1.13437e-17
7235.38203 1.13498e-17
7239.67928 1.13708e-17
7243.97654 1.14519e-17
7248.28396 1.15717e-17
7252.58121 1.15949e-17
7256.87847 1.14416e-17
7261.17573 1.12729e-17
7265.47298 1.12506e-17
7269.77024 1.13190e-17
7274.06750 1.13914e-17
7278.36475 1.14219e-17
7282.67217 1.13912e-17
7286.96943 1.13426e-17
7291.26668 1.12645e-17
7295.56394 1.11041e-17
7299.86120 1.09458e-17
7304.15846 1.09032e-17
7308.45571 1.09242e-17
7312.75297 1.08987e-17
7317.06039 1.08381e-17
7321.35764 1.08190e-17
7325.65490 1.08516e-17
7329.95216 1.09268e-17
7334.24941 1.09267e-17
7338.54667 1.07983e-17
7342.84393 1.07231e-17
7347.14118 1.07656e-17
7351.44860 1.08451e-17
7355.74586 1.09833e-17
7360.04312 1.11620e-17
7364.34037 1.13387e-17
7368.63763 1.14654e-17
7372.93489 1.15054e-17
7377.23214 1.14869e-17
7381.52940 1.13893e-17
7385.83682 1.13482e-17
7390.13407 1.14366e-17
7394.43133 1.15482e-17
7398.72859 1.16633e-17
7403.02584 1.17595e-17
7407.32310 1.17473e-17
7411.62036 1.17021e-17
7415.91762 1.16690e-17
7420.21487 1.16678e-17
7424.52229 1.17074e-17
7428.81955 1.16411e-17
7433.11680 1.15666e-17
7437.41406 1.16243e-17
7441.71132 1.16570e-17
7446.00857 1.16054e-17
7450.30583 1.15661e-17
7454.60309 1.14517e-17
7458.91050 1.13053e-17
7463.20776 1.13419e-17
7467.50502 1.14031e-17
7471.80227 1.13868e-17
7476.09953 1.14072e-17
7480.39679 1.13846e-17
7484.69405 1.13314e-17
7488.99130 1.14216e-17
7493.29872 1.15294e-17
7497.59598 1.14019e-17
7501.89323 1.11177e-17
7506.19049 1.09376e-17
7510.48775 1.09281e-17
7514.78500 1.09038e-17
7519.08226 1.07572e-17
7523.37952 1.06283e-17
7527.68693 1.04653e-17
7531.98419 1.02453e-17
7536.28145 1.01131e-17
7540.57870 9.99915e-18
7544.87596 9.82137e-18
7549.17322 9.60346e-18
7553.47048 9.38080e-18
7557.76773 9.16086e-18
7562.06499 8.91384e-18
7566.37241 8.69748e-18
7570.66966 8.57830e-18
7574.96692 8.46808e-18
7579.26418 8.35530e-18
7583.56143 8.22036e-18
7587.85869 8.00081e-18
7592.15595 7.76638e-18
7596.45320 7.43352e-18
7600.76062 7.08677e-18
7605.05788 6.89044e-18
7609.35513 6.85569e-18
7613.65239 6.90377e-18
7617.94965 6.83537e-18
7622.24690 6.60605e-18
7626.54416 6.42909e-18
7630.84142 6.44611e-18
7635.14883 6.53448e-18
7639.44609 6.57408e-18
7643.74335 6.68128e-18
7648.04061 6.88893e-18
7652.33786 6.98276e-18
7656.63512 6.93321e-18
7660.93238 6.91281e-18
7665.22963 6.99159e-18
7669.53705 7.07771e-18
7673.83431 7.15478e-18
7678.13156 7.35728e-18
7682.42882 7.61715e-18
7686.72608 7.74003e-18
7691.02333 7.82205e-18
7695.32059 8.03138e-18
7699.61785 8.28459e-18
7703.91511 8.43349e-18
7708.22252 8.56846e-18
7712.51978 8.77218e-18
7716.81704 8.96141e-18
7721.11429 9.15852e-18
7725.41155 9.35454e-18
7729.70881 9.41169e-18
7734.00606 9.39833e-18
7738.30332 9.52562e-18
7742.61074 9.77877e-18
7746.90799 9.98226e-18
7751.20525 1.00828e-17
7755.50251 1.01730e-17
7759.79977 1.02787e-17
7764.09702 1.03443e-17
7768.39428 1.04370e-17
7772.69154 1.06807e-17
7776.98879 1.09498e-17
7781.29621 1.10367e-17
7785.59347 1.10119e-17
7789.89072 1.11169e-17
7794.18798 1.13407e-17
7798.48524 1.14956e-17
7802.78249 1.16378e-17
7807.07975 1.17309e-17
7811.37701 1.18889e-17
7815.68442 1.20399e-17
7819.98168 1.19825e-17
7824.27894 1.19254e-17
7828.57620 1.19698e-17
7832.87345 1.20332e-17
7837.17071 1.21376e-17
7841.46797 1.22389e-17
7845.76522 1.22309e-17
7850.07264 1.22012e-17
7854.36990 1.22728e-17
7858.66715 1.23508e-17
7862.96441 1.23285e-17
7867.26167 1.23172e-17
7871.55892 1.23604e-17
7875.85618 1.24342e-17
7880.15344 1.25541e-17
7884.46085 1.26577e-17
7888.75811 1.27010e-17
7893.05537 1.27301e-17
7897.35263 1.26605e-17
7901.64988 1.26596e-17
7905.94714 1.28682e-17
7910.24440 1.29793e-17
7914.54165 1.29718e-17
7918.84907 1.30823e-17
7923.14633 1.32412e-17
7927.44358 1.32788e-17
7931.74084 1.32313e-17
7936.03810 1.32236e-17
7940.33535 1.33051e-17
7944.63261 1.34546e-17
7948.92987 1.35253e-17
7953.22713 1.34988e-17
7957.53454 1.34868e-17
7961.83180 1.34878e-17
7966.12906 1.34996e-17
7970.42631 1.36070e-17
7974.72357 1.37336e-17
7979.02083 1.37028e-17
7983.31808 1.36260e-17
7987.61534 1.37075e-17
7991.92276 1.38286e-17
7996.22001 1.37434e-17
8000.51727 1.35445e-17
8004.81453 1.34393e-17
8009.11178 1.35123e-17
8013.40904 1.36162e-17
8017.70630 1.35990e-17
8022.00356 1.35170e-17
8026.31097 1.34730e-17
8030.60823 1.33735e-17
8034.90549 1.32238e-17
8039.20274 1.31877e-17
8043.50000 1.31862e-17
8047.79726 1.30222e-17
8052.09451 1.28542e-17
8056.39177 1.27439e-17
8060.69919 1.26106e-17
8064.99644 1.25418e-17
8069.29370 1.25565e-17
8073.59096 1.25477e-17
8077.88821 1.24511e-17
8082.18547 1.22641e-17
8086.48273 1.21052e-17
8090.77999 1.21371e-17
8095.08740 1.21872e-17
8099.38466 1.20165e-17
8103.68192 1.18396e-17
8107.97917 1.18055e-17
8112.27643 1.16846e-17
8116.57369 1.14878e-17
8120.87094 1.14501e-17
8125.16820 1.15033e-17
8129.46546 1.14952e-17
8133.77287 1.14366e-17
8138.07013 1.13499e-17
8142.36739 1.12761e-17
8146.66464 1.12010e-17
8150.96190 1.11217e-17
8155.25916 1.10235e-17
8159.55642 1.08243e-17
8163.85367 1.05504e-17
8168.16109 1.03412e-17
8172.45835 1.02167e-17
8176.75560 1.00018e-17
8181.05286 9.70714e-18
8185.35012 9.49255e-18
8189.64737 9.30728e-18
8193.94463 8.92986e-18
8198.24189 8.51976e-18
8202.54930 8.36576e-18
8206.84656 8.26480e-18
8211.14382 8.05801e-18
8215.44107 7.96010e-18
8219.73833 7.85698e-18
8224.03559 7.45938e-18
8228.33285 7.05244e-18
8232.63010 6.91878e-18
8236.93752 6.79755e-18
8241.23478 6.48269e-18
8245.53203 6.18870e-18
8249.82929 6.01363e-18
8254.12655 5.75003e-18
8258.42380 5.40548e-18
8262.72106 5.19262e-18
8267.01832 5.13753e-18
8271.31557 5.01140e-18
8275.62299 4.72864e-18
8279.92025 4.46274e-18
8284.21750 4.30090e-18
8288.51476 4.22568e-18
8292.81202 4.25346e-18
8297.10928 4.22748e-18
8301.40653 3.96303e-18
8305.70379 3.75879e-18
8310.01121 3.77311e-18
8314.30846 3.78518e-18
8318.60572 3.75087e-18
8322.90298 3.71735e-18
8327.20023 3.72585e-18
8331.49749 3.70605e-18
8335.79475 3.62429e-18
8340.09200 3.63666e-18
8344.38926 3.69524e-18
8348.69668 3.63856e-18
8352.99393 3.61576e-18
8357.29119 3.69126e-18
8361.58845 3.72445e-18
8365.88571 3.74088e-18
8370.18296 3.76342e-18
8374.48022 3.83156e-18
8378.77748 4.07557e-18
8383.08489 4.27171e-18
8387.38215 4.35271e-18
8391.67941 4.52238e-18
8395.97666 4.66309e-18
8400.27392 4.71352e-18
8404.57118 4.80971e-18
8408.86843 4.92875e-18
8413.16569 5.05543e-18
8417.47311 5.19934e-18
8421.77036 5.36169e-18
8426.06762 5.48410e-18
8430.36488 5.51980e-18
8434.66214 5.48366e-18
8438.95939 5.40183e-18
8443.25665 5.40034e-18
8447.55391 5.52624e-18
8451.86132 5.63022e-18
8456.15858 5.64336e-18
8460.45584 5.73244e-18
8464.75309 5.97183e-18
8469.05035 6.09438e-18
8473.34761 6.00712e-18
8477.64486 6.00850e-18
8481.94212 6.25209e-18
8486.23938 6.53794e-18
8490.54679 6.63986e-18
8494.84405 6.70860e-18
8499.14131 6.89281e-18
8503.43857 7.02629e-18
8507.73582 7.20366e-18
8512.03308 7.57442e-18
8516.33034 7.90795e-18
8520.63775 8.08043e-18
8524.93501 8.21945e-18
8529.23227 8.38150e-18
8533.52952 8.61743e-18
8537.82678 9.00790e-18
8542.12404 9.42745e-18
8546.42129 9.65977e-18
8550.71855 9.75222e-18
8555.01581 9.95304e-18
8559.32322 1.03557e-17
8563.62048 1.06595e-17
8567.91774 1.08112e-17
8572.21500 1.10767e-17
8576.51225 1.14643e-17
8580.80951 1.17637e-17
8585.10677 1.19978e-17
8589.40402 1.22495e-17
8593.71144 1.25503e-17
8598.00870 1.29140e-17
8602.30595 1.32074e-17
8606.60321 1.33224e-17
8610.90047 1.34053e-17
8615.19772 1.35801e-17
8619.49498 1.38512e-17
8623.79224 1.42200e-17
8628.08950 1.44726e-17
8632.39691 1.45274e-17
8636.69417 1.47258e-17
8640.99143 1.50817e-17
8645.28868 1.51966e-17
8649.58594 1.51493e-17
8653.88320 1.52768e-17
8658.18045 1.54633e-17
8662.47771 1.54999e-17
8666.78513 1.55771e-17
8671.08238 1.58293e-17
8675.37964 1.60558e-17
8679.67690 1.61364e-17
8683.97415 1.61913e-17
8688.27141 1.63280e-17
8692.56867 1.64129e-17
8696.86593 1.64347e-17
8701.17334 1.65755e-17
8705.47060 1.68076e-17
8709.76786 1.69783e-17
8714.06511 1.69808e-17
8718.36237 1.69805e-17
8722.65963 1.71613e-17
8726.95688 1.73165e-17
8731.25414 1.72453e-17
8735.55140 1.71279e-17
8739.85881 1.72775e-17
8744.15607 1.74942e-17
8748.45333 1.73386e-17
8752.75058 1.70836e-17
8757.04784 1.71299e-17
8761.34510 1.72720e-17
8765.64236 1.72199e-17
8769.93961 1.69026e-17
8774.24703 1.65571e-17
8778.54428 1.64361e-17
8782.84154 1.63613e-17
8787.13880 1.62537e-17
8791.43606 1.62300e-17
8795.73331 1.61813e-17
8800.03057 1.60757e-17
8804.33799 1.59870e-17
8808.63524 1.58799e-17
8812.93250 1.58967e-17
8817.22976 1.58768e-17
8821.52701 1.57413e-17
8825.82427 1.57245e-17
8830.12153 1.56688e-17
8834.41878 1.53416e-17
8838.71604 1.50642e-17
8843.02346 1.50124e-17
8847.32071 1.49700e-17
8851.61797 1.49120e-17
8855.91523 1.48120e-17
8860.21249 1.45719e-17
8864.50974 1.43394e-17
8868.80700 1.41594e-17
8873.10426 1.39687e-17
8877.41167 1.37447e-17
8881.70893 1.34380e-17
8886.00619 1.32088e-17
8890.30344 1.30919e-17
8894.60070 1.29060e-17
8898.89796 1.26504e-17
8903.19521 1.24735e-17
8907.49247 1.23610e-17
8911.79989 1.22441e-17
8916.09714 1.19449e-17
8920.39440 1.14796e-17
8924.69166 1.12339e-17
8928.98892 1.11648e-17
8933.28617 1.10510e-17
8937.58343 1.09615e-17
8941.88069 1.08597e-17
8946.17794 1.06965e-17
8950.48536 1.04868e-17
8954.78262 1.03612e-17
8959.07987 1.03323e-17
8963.37713 1.01393e-17
8967.67439 9.85288e-18
8971.97164 9.79248e-18
8976.26890 9.92744e-18
8980.56616 9.97738e-18
8984.87357 9.61573e-18
8989.17083 9.17767e-18
8993.46809 9.20328e-18
8997.76535 9.38154e-18
9002.06260 9.40305e-18
9006.35986 9.52841e-18
9010.65712 9.76477e-18
9014.95437 9.84056e-18
9019.25163 9.73431e-18
9023.55905 9.57452e-18
9027.85630 9.65014e-18
9032.15356 1.00335e-17
9036.45082 1.03052e-17
9040.74807 1.02536e-17
9045.04533 1.01660e-17
9049.34259 1.01390e-17
9053.63985 9.96015e-18
9057.94726 9.64160e-18
9062.24452 9.28531e-18
9066.54178 8.89959e-18
9070.83903 8.61956e-18
9075.13629 8.50713e-18
9079.43355 8.45434e-18
9083.73080 8.36997e-18
9088.02806 8.40967e-18
9092.33548 8.62339e-18
9096.63273 8.65640e-18
9100.92999 8.52447e-18
9105.22725 8.47116e-18
9109.52451 8.67304e-18
9113.82176 8.87974e-18
9118.11902 8.99008e-18
9122.41628 9.06649e-18
9126.72369 8.88305e-18
9131.02095 8.49033e-18
9135.31821 8.48394e-18
9139.61546 8.94703e-18
9143.91272 9.20091e-18
9148.20998 8.88864e-18
9152.50723 8.48140e-18
9156.80449 8.51925e-18
9161.11191 8.90267e-18
9165.40916 9.27495e-18
9169.70642 9.31752e-18
9174.00368 9.12283e-18
9178.30093 9.24414e-18
9182.59819 9.64634e-18
9186.89545 9.96280e-18
9191.19271 1.01753e-17
9195.50012 1.03956e-17
9199.79738 1.07004e-17
9204.09464 1.08686e-17
9208.39189 1.05978e-17
9212.68915 1.02907e-17
9216.98641 1.05231e-17
9221.28366 1.09274e-17
9225.58092 1.08487e-17
9229.87818 1.05267e-17
9234.18559 1.04600e-17
9238.48285 1.04658e-17
9242.78011 1.02559e-17
9247.07737 1.01253e-17
9251.37462 1.03269e-17
9255.67188 1.05668e-17
9259.96914 1.05893e-17
9264.26639 1.06664e-17
9268.57381 1.07998e-17
9272.87107 1.09059e-17
9277.16832 1.12993e-17
9281.46558 1.19119e-17
9285.76284 1.24062e-17
9290.06009 1.25922e-17
9294.35735 1.23260e-17
9298.65461 1.18836e-17
9302.95187 1.15320e-17
9307.25928 1.13368e-17
9311.55654 1.15349e-17
9315.85379 1.20300e-17
9320.15105 1.25338e-17
9324.44831 1.28531e-17
9328.74557 1.30178e-17
9333.04282 1.30375e-17
9337.34008 1.28317e-17
9341.64750 1.22446e-17
9345.94475 1.23295e-17
9350.24201 1.28339e-17
9354.53927 1.24354e-17
9358.83652 1.24006e-17
9363.13378 1.31199e-17
9367.43104 1.32973e-17
9371.72829 1.28836e-17
9376.03571 1.22442e-17
9380.33297 1.14282e-17
9384.63023 1.11728e-17
9388.92748 1.18790e-17
9393.22474 1.26014e-17
9397.52200 1.24459e-17
9401.81925 1.21606e-17
9406.11651 1.25755e-17
9410.41377 1.28474e-17
9414.72118 1.25844e-17
9419.01844 1.25723e-17
9423.31570 1.23879e-17
9427.61295 1.17594e-17
9431.91021 1.16827e-17
9436.20747 1.15399e-17
9440.50473 1.09737e-17
9444.80198 1.10955e-17
9449.10940 1.15295e-17
9453.40666 1.14217e-17
9457.70391 1.11827e-17
9462.00117 1.11359e-17
9466.29843 1.11795e-17
9470.59568 1.14812e-17
9474.89294 1.14746e-17
9479.19020 1.09318e-17
9483.49761 1.08567e-17
9487.79487 1.15079e-17
9492.09213 1.16901e-17
9496.38938 1.09260e-17
9500.68664 1.02793e-17
9504.98390 1.05266e-17
9509.28116 1.09546e-17
9513.57841 1.08497e-17
9517.88583 1.04725e-17
9522.18309 1.02662e-17
9526.48034 1.02542e-17
9530.77760 1.04664e-17
9535.07486 1.09266e-17
9539.37211 1.11012e-17
9543.66937 1.09605e-17
9547.96663 1.12609e-17
9552.27404 1.16460e-17
9556.57130 1.18054e-17
9560.86856 1.19806e-17
9565.16581 1.17756e-17
9569.46307 1.15768e-17
9573.76033 1.14826e-17
9578.05759 1.11637e-17
9582.35484 1.09734e-17
9586.66226 1.06359e-17
9590.95952 1.01233e-17
9595.25677 1.02711e-17
9599.55403 1.09583e-17
9603.85129 1.13377e-17
9608.14854 1.14061e-17
9612.44580 1.14734e-17
9616.74306 1.12194e-17
9621.04031 1.06766e-17
9625.34773 1.03917e-17
9629.64499 1.03745e-17
9633.94224 1.02680e-17
9638.23950 1.01798e-17
9642.53676 1.03211e-17
9646.83402 1.06165e-17
9651.13127 1.09303e-17
9655.42853 1.11990e-17
9659.73595 1.12246e-17
9664.03320 1.10211e-17
9668.33046 1.07023e-17
9672.62772 1.02502e-17
9676.92497 9.85843e-18
9681.22223 9.81455e-18
9685.51949 9.99875e-18
9689.81674 9.99584e-18
9694.11400 9.84612e-18
9698.42142 9.74101e-18
9702.71867 9.76946e-18
9707.01593 9.97535e-18
9711.31319 1.03361e-17
9715.61045 1.06781e-17
9719.90770 1.06304e-17
9724.20496 1.03711e-17
9728.50222 1.02235e-17
9732.80963 1.00191e-17
9737.10689 9.61137e-18
9741.40415 9.38886e-18
9745.70140 9.45334e-18
9749.99866 9.41620e-18
9750.18719 9.41620e-18
9751.04865 9.35000e-18
9751.91011 9.28150e-18
9752.77157 9.21299e-18
9753.63304 9.13990e-18
9754.49450 9.06680e-18
9755.35596 8.98439e-18
9756.22744 8.90195e-18
9757.08890 8.82738e-18
9757.95036 8.75282e-18
9758.81183 8.71141e-18
9759.67329 8.67010e-18
9760.53475 8.68146e-18
9761.39621 8.69297e-18
9762.25767 8.77390e-18
9763.11913 8.85505e-18
9763.98060 8.98008e-18
9764.84206 9.10524e-18
9765.71354 9.20261e-18
9766.57500 9.29989e-18
9767.43646 9.33441e-18
9768.29792 9.36873e-18
9769.15939 9.36347e-18
9770.02085 9.35808e-18
9770.88231 9.33268e-18
9771.74377 9.30723e-18
9772.60523 9.27153e-18
9773.46670 9.23581e-18
9774.32816 9.20227e-18
9775.19964 9.16872e-18
9776.06110 9.14719e-18
9776.92256 9.12568e-18
9777.78402 9.12272e-18
9778.64548 9.11983e-18
9779.50695 9.14385e-18
9780.36841 9.16795e-18
9781.22987 9.22125e-18
9782.09133 9.27466e-18
9782.95280 9.31112e-18
9783.81426 9.34752e-18
9784.68574 9.31696e-18
9785.54720 9.28618e-18
9786.40866 9.21291e-18
9787.27012 9.13952e-18
9788.13158 9.06925e-18
9788.99305 8.99898e-18
9789.85451 8.94780e-18
9790.71597 8.89667e-18
9791.57743 8.87127e-18
9792.43889 8.84594e-18
9793.30036 8.82919e-18
9794.16182 8.81246e-18
9795.03330 8.76833e-18
9795.89476 8.72411e-18
9796.75622 8.66310e-18
9797.61768 8.60206e-18
9798.47915 8.57682e-18
9799.34061 8.55169e-18
9800.20207 8.57981e-18
9801.06353 8.60810e-18
9801.92499 8.66463e-18
9802.78645 8.72125e-18
9803.64792 8.78100e-18
9804.51940 8.84075e-18
9805.38086 8.87418e-18
9806.24232 8.90753e-18
9807.10378 8.90031e-18
9807.96524 8.89295e-18
9808.82671 8.87342e-18
9809.68817 8.85385e-18
9810.54963 8.84899e-18
9811.41109 8.84418e-18
9812.27255 8.87106e-18
9813.13402 8.89803e-18
9813.99548 8.96455e-18
9814.86696 9.03121e-18
9815.72842 9.09004e-18
9816.58988 9.14885e-18
9817.45134 9.14971e-18
9818.31280 9.15040e-18
9819.17427 9.09996e-18
9820.03573 9.04938e-18
9820.89719 8.96882e-18
9821.75865 8.88817e-18
9822.62012 8.80853e-18
9823.48158 8.72890e-18
9824.35306 8.68636e-18
9825.21452 8.64393e-18
9826.07598 8.63322e-18
9826.93744 8.62261e-18
9827.79890 8.61444e-18
9828.66037 8.60628e-18
9829.52183 8.59341e-18
9830.38329 8.58054e-18
9831.24475 8.57165e-18
9832.10621 8.56278e-18
9832.97769 8.55588e-18
9833.83915 8.54898e-18
9834.70062 8.53267e-18
9835.56208 8.51634e-18
9836.42354 8.48540e-18
9837.28500 8.45441e-18
9838.14647 8.41189e-18
9839.00793 8.36933e-18
9839.86939 8.31871e-18
9840.73085 8.26805e-18
9841.59231 8.21111e-18
9842.45377 8.15415e-18
9843.32525 8.09739e-18
9844.18672 8.04062e-18
9845.04818 8.00416e-18
9845.90964 7.96775e-18
9846.77110 7.96742e-18
9847.63256 7.96719e-18
9848.49403 7.99810e-18
9849.35549 8.02909e-18
9850.21695 8.08223e-18
9851.07841 8.13544e-18
9851.93987 8.20221e-18
9852.81135 8.26902e-18
9853.67282 8.33926e-18
9854.53428 8.40950e-18
9855.39574 8.47679e-18
9856.25720 8.54407e-18
9857.11866 8.60367e-18
9857.98013 8.66326e-18
9858.84159 8.70243e-18
9859.70305 8.74153e-18
9860.56451 8.74566e-18
9861.42597 8.74969e-18
9862.29745 8.71681e-18
9863.15891 8.68381e-18
9864.02038 8.62017e-18
9864.88184 8.55644e-18
9865.74330 8.47366e-18
9866.60476 8.39080e-18
9867.46622 8.30549e-18
9868.32769 8.22018e-18
9869.18915 8.14185e-18
9870.05061 8.06355e-18
9870.92209 7.99111e-18
9871.78355 7.91870e-18
9872.64501 7.85340e-18
9873.50648 7.78812e-18
9874.36794 7.73555e-18
9875.22940 7.68301e-18
9876.09086 7.64759e-18
9876.95232 7.61223e-18
9877.81379 7.59803e-18
9878.67525 7.58391e-18
9879.53671 7.59281e-18
9880.39817 7.60178e-18
9881.26965 7.63093e-18
9882.13111 7.66015e-18
9882.99257 7.70434e-18
9883.85404 7.74856e-18
9884.71550 7.79821e-18
9885.57696 7.84787e-18
9886.43842 7.89264e-18
9887.29988 7.93741e-18
9888.16135 7.96762e-18
9889.02281 7.99779e-18
9889.88427 8.00533e-18
9890.74573 8.01279e-18
9891.61721 7.99745e-18
9892.47867 7.98205e-18
9893.34014 7.94793e-18
9894.20160 7.91375e-18
9895.06306 7.86525e-18
9895.92452 7.81668e-18
9896.78598 7.75840e-18
9897.64745 7.70010e-18
9898.50891 7.63962e-18
9899.37037 7.57913e-18
9900.23183 7.52648e-18
9901.09329 7.47385e-18
9901.96477 7.43067e-18
9902.82623 7.38751e-18
9903.68770 7.34529e-18
9904.54916 7.30309e-18
9905.41062 7.26379e-18
9906.27208 7.22451e-18
9907.13354 7.20667e-18
9907.99501 7.18888e-18
9908.85647 7.20129e-18
9909.71793 7.21379e-18
9910.57939 7.24802e-18
9911.45087 7.28230e-18
9912.31233 7.32458e-18
9913.17380 7.36688e-18
9914.03526 7.38814e-18
9914.89672 7.40933e-18
9915.75818 7.38646e-18
9916.61964 7.36347e-18
9917.48111 7.30456e-18
9918.34257 7.24554e-18
9919.20403 7.16471e-18
9920.07551 7.08381e-18
9920.93697 6.99708e-18
9921.79843 6.91035e-18
9922.65989 6.83404e-18
9923.52136 6.75777e-18
9924.38282 6.69905e-18
9925.24428 6.64038e-18
9926.10574 6.60203e-18
9926.96720 6.56374e-18
9927.82867 6.53515e-18
9928.69013 6.50659e-18
9929.56161 6.47088e-18
9930.42307 6.43514e-18
9931.28453 6.38681e-18
9932.14599 6.33843e-18
9933.00746 6.27989e-18
9933.86892 6.22131e-18
9934.73038 6.15751e-18
9935.59184 6.09370e-18
9936.45330 6.03184e-18
9937.31477 5.96998e-18
9938.17623 5.91953e-18
9939.03769 5.86912e-18
9939.90917 5.84200e-18
9940.77063 5.81495e-18
9941.63209 5.81443e-18
9942.49355 5.81400e-18
9943.35502 5.82775e-18
9944.21648 5.84153e-18
9945.07794 5.85890e-18
9945.93940 5.87626e-18
9946.80086 5.89455e-18
9947.66233 5.91284e-18
9948.52379 5.92895e-18
9949.39527 5.94507e-18
9950.25673 5.95310e-18
9951.11819 5.96112e-18
9951.97965 5.95727e-18
9952.84112 5.95339e-18
9953.70258 5.94531e-18
9954.56404 5.93721e-18
9955.42550 5.93329e-18
9956.28696 5.92938e-18
9957.14843 5.92401e-18
9958.00989 5.91862e-18
9958.88137 5.90404e-18
9959.74283 5.88942e-18
9960.60429 5.86167e-18
9961.46575 5.83388e-18
9962.32721 5.79039e-18
9963.18868 5.74686e-18
9964.05014 5.70066e-18
9964.91160 5.65446e-18
9965.77306 5.62730e-18
9966.63452 5.60019e-18
9967.49599 5.59715e-18
9968.36747 5.59418e-18
9969.22893 5.60689e-18
9970.09039 5.61963e-18
9970.95185 5.64678e-18
9971.81331 5.67397e-18
9972.67477 5.72178e-18
9973.53624 5.76966e-18
9974.39770 5.83555e-18
9975.25916 5.90150e-18
9976.12062 5.97136e-18
9976.98208 6.04123e-18
9977.85356 6.10384e-18
9978.71503 6.16643e-18
9979.57649 6.21642e-18
9980.43795 6.26637e-18
9981.29941 6.30185e-18
9982.16087 6.33730e-18
9983.02234 6.36582e-18
9983.88380 6.39432e-18
9984.74526 6.42349e-18
9985.60672 6.45268e-18
9986.46818 6.48629e-18
9987.32965 6.51990e-18
9988.20112 6.55991e-18
9989.06259 6.59993e-18
9989.92405 6.63223e-18
9990.78551 6.66452e-18
9991.64697 6.67315e-18
9992.50843 6.68170e-18
9993.36990 6.67865e-18
9994.23136 6.67556e-18
9995.09282 6.68132e-18
9995.95428 6.68711e-18
9996.81574 6.69819e-18
9997.67721 6.70929e-18
9998.54869 6.71264e-18
9999.41015 6.71594e-18
