# wavelength flux
3720.00230 5.92288e-18
3721.49568 2.47819e-18
3722.99921 3.98322e-18
3724.50274 7.76006e-19
3725.99611 5.19573e-18
3727.49964 7.94134e-18
3729.00318 1.03059e-17
3730.49655 4.70629e-18
3732.00008 5.18941e-18
3733.50361 5.93769e-18
3734.99699 5.93750e-18
3736.50052 -8.79741e-19
3738.00405 3.65127e-18
3739.49742 5.74790e-18
3741.00095 5.70385e-18
3742.50449 4.14526e-18
3743.99786 5.03101e-18
3745.50139 5.49557e-18
3746.99476 6.49921e-18
3748.49830 -9.02451e-19
3750.00183 -5.71196e-19
3751.49520 -5.71179e-19
3752.99873 9.84250e-19
3754.50227 1.07800e-18
3755.99564 7.69685e-19
3757.49917 7.60234e-18
3759.00270 9.46272e-18
3760.49608 1.06228e-17
3761.99961 7.73843e-18
3763.50314 2.00495e-18
3764.99651 2.06421e-18
3766.50005 7.95508e-18
3768.00358 7.80670e-18
3769.49695 7.65834e-18
3771.00048 7.47518e-18
3772.50401 7.29204e-18
3773.99739 7.10890e-18
3775.50092 6.92581e-18
3777.00445 6.74270e-18
3778.49782 6.55960e-18
3780.00136 6.37651e-18
3781.50489 6.19343e-18
3782.99826 6.01037e-18
3784.50179 5.82734e-18
3785.99517 5.64430e-18
3787.49870 5.46126e-18
3789.00223 5.27824e-18
3790.49560 5.09523e-18
3791.99914 4.91223e-18
3793.50267 4.72927e-18
3794.99604 4.54629e-18
3796.49957 4.36333e-18
3798.00310 4.18037e-18
3799.49648 3.99742e-18
3801.00001 3.81449e-18
3802.50354 3.63156e-18
3803.99691 3.44868e-18
3805.50045 3.26578e-18
3807.00398 3.08289e-18
3808.49735 4.29077e-18
3810.00088 6.56976e-18
3811.50441 5.44576e-18
3812.99779 2.23589e-18
3814.50132 8.72902e-19
3816.00485 1.95100e-18
3817.49823 6.93164e-18
3819.00176 8.83584e-18
3820.49513 5.40259e-18
3821.99866 2.39484e-18
3823.50219 5.75139e-18
3824.99557 8.95043e-18
3826.49910 1.14437e-17
3828.00263 9.43519e-18
3829.49600 3.99496e-18
3830.99954 1.96866e-18
3832.50307 1.72478e-18
3833.99644 4.99277e-18
3835.49997 4.99096e-18
3837.00351 2.02477e-18
3838.49688 5.23549e-18
3840.00041 6.74577e-18
3841.50394 1.99928e-18
3842.99732 1.90039e-18
3844.50085 4.37444e-18
3846.00438 7.68486e-19
3847.49775 2.74037e-18
3849.00128 2.74029e-18
3850.50482 6.48713e-18
3851.99819 1.96805e-18
3853.50172 3.49378e-18
3854.99509 4.75502e-18
3856.49863 1.93422e-18
3858.00216 4.57250e-18
3859.49553 4.57238e-18
3860.99906 5.72436e-18
3862.50260 1.53482e-18
3863.99597 4.72965e-18
3865.49950 1.48130e-18
3867.00303 3.12734e-18
3868.49640 1.79510e-18
3869.99994 9.92519e-19
3871.50347 6.49256e-18
3872.99684 5.74658e-18
3874.50037 4.97058e-18
3876.00391 7.28895e-18
3877.49728 3.95362e-18
3879.00081 1.21363e-18
3880.50434 2.68534e-18
3881.99772 3.72413e-18
3883.50125 4.42022e-18
3885.00478 4.08140e-18
3886.49815 4.56252e-18
3888.00169 6.12357e-18
3889.49506 8.80024e-18
3890.99859 8.30136e-18
3892.50212 4.42744e-18
3893.99550 5.15459e-18
3895.49903 3.65826e-18
3897.00256 3.66607e-18
3898.49593 3.85221e-18
3899.99946 4.03834e-18
3901.50300 4.22446e-18
3902.99637 4.22436e-18
3904.49990 4.54288e-18
3906.00343 2.83152e-18
3907.49681 1.87668e-18
3909.00034 7.47180e-18
3910.50387 7.77520e-18
3911.99724 6.44535e-18
3913.50077 6.73490e-18
3915.00431 6.43054e-18
3916.49768 6.98578e-18
3918.00121 4.89824e-18
3919.50474 4.42117e-18
3920.99812 6.60528e-18
3922.50165 6.81536e-18
3923.99502 5.83484e-18
3925.49855 1.22171e-18
3927.00209 2.51949e-18
3928.49546 9.83970e-18
3929.99899 9.25887e-18
3931.50252 5.55563e-18
3932.99590 7.23871e-18
3934.49943 5.59891e-18
3936.00296 2.49679e-18
3937.49633 9.69975e-18
3938.99987 4.33976e-18
3940.50340 3.28222e-18
3941.99677 6.03789e-18
3943.50030 5.37946e-18
3945.00383 4.35390e-18
3946.49721 5.87799e-18
3948.00074 7.69980e-18
3949.50427 3.41488e-18
3950.99764 5.01050e-18
3952.50118 7.66334e-18
3954.00471 4.92582e-18
3955.49808 4.02804e-18
3957.00161 4.78434e-18
3958.49499 6.61836e-18
3959.99852 4.70424e-18
3961.50205 6.03329e-18
3962.99542 4.27301e-18
3964.49896 3.87073e-18
3966.00249 6.31098e-18
3967.49586 5.18748e-18
3968.99939 7.77338e-18
3970.50292 5.40405e-18
3971.99630 5.40948e-18
3973.49983 8.16630e-18
3975.00336 7.35934e-18
3976.49673 6.62930e-18
3978.00027 1.08187e-17
3979.50380 7.94363e-18
3980.99717 8.34960e-18
3982.50070 7.58566e-18
3984.00424 6.82176e-18
3985.49761 6.05789e-18
3987.00114 6.05775e-18
3988.50467 7.52881e-18
3989.99805 5.34203e-18
3991.50158 2.84909e-18
3992.99495 7.50491e-18
3994.49848 6.35834e-18
3996.00201 2.24213e-18
3997.49539 2.93328e-18
3998.99892 4.71378e-18
4000.50245 5.58726e-18
4001.99582 8.89682e-18
4003.49936 9.26350e-18
4005.00289 6.06800e-18
4006.49626 5.46465e-18
4007.99979 8.56276e-18
4009.50333 4.89557e-18
4010.99670 4.70848e-18
4012.50023 7.69797e-18
4014.00376 7.31901e-18
4015.49714 8.06361e-18
4017.00067 7.70098e-18
4018.50420 7.14851e-18
4019.99757 5.11188e-18
4021.50110 4.53544e-18
4023.00464 8.28832e-18
4024.49801 6.44870e-18
4026.00154 5.29494e-18
4027.49491 4.50976e-18
4028.99845 5.29845e-18
4030.50198 5.65581e-18
4031.99535 2.32858e-18
4033.49888 1.77775e-18
4035.00241 4.62511e-18
4036.49579 7.70809e-18
4037.99932 7.97704e-18
4039.50285 7.94001e-18
4040.99623 8.07186e-18
4042.49976 5.61447e-18
4044.00329 6.05660e-18
4045.49666 6.99855e-18
4047.00019 4.75677e-18
4048.50373 5.76432e-18
4049.99710 7.41870e-18
4051.50063 9.29907e-18
4053.00416 3.70440e-18
4054.49754 5.68407e-18
4056.00107 6.69309e-18
4057.50460 6.59314e-18
4058.99797 5.76088e-18
4060.50150 2.50761e-18
4062.00504 4.90203e-18
4063.49841 4.81749e-18
4065.00194 6.24101e-18
4066.49532 8.51189e-18
4067.99885 9.08914e-18
4069.50238 8.59146e-18
4070.99575 8.40896e-18
4072.49928 6.56817e-18
4074.00282 5.90776e-18
4075.49619 7.36163e-18
4076.99972 6.63220e-18
4078.50325 7.98181e-18
4079.99663 6.40549e-18
4081.50016 6.86214e-18
4083.00369 7.86662e-18
4084.49706 7.72476e-18
4086.00060 1.00375e-17
4087.50413 7.42262e-18
4088.99750 4.81987e-18
4090.50103 4.71188e-18
4092.00456 5.38461e-18
4093.49794 8.17383e-18
4095.00147 7.94977e-18
4096.50500 6.79468e-18
4097.99837 7.90838e-18
4099.50191 9.39661e-18
4100.99528 6.85484e-18
4102.49881 6.60026e-18
4104.00234 6.24864e-18
4105.49572 7.37435e-18
4106.99925 6.54321e-18
4108.50278 3.73656e-18
4109.99615 6.27177e-18
4111.49968 7.82643e-18
4113.00322 4.96438e-18
4114.49659 5.92491e-18
4116.00012 7.44026e-18
4117.50365 4.29703e-18
4118.99703 5.38095e-18
4120.50056 7.13047e-18
4122.00409 3.80438e-18
4123.49746 1.85357e-18
4125.00100 1.87281e-18
4126.50453 1.89205e-18
4127.99790 1.89200e-18
4129.50143 1.34073e-18
4130.99481 7.31591e-18
4132.49834 1.02220e-17
4134.00187 1.03127e-17
4135.49524 7.59614e-18
4136.99878 5.03075e-18
4138.50231 3.16975e-18
4139.99568 5.86938e-18
4141.49921 7.95256e-18
4143.00274 5.91798e-18
4144.49612 6.76680e-18
4145.99965 6.02276e-18
4147.50318 9.21487e-18
4148.99655 9.18830e-18
4150.50009 2.95842e-18
4152.00362 7.50660e-18
4153.49699 8.22586e-18
4155.00052 8.79119e-18
4156.50406 7.08165e-18
4157.99743 6.91560e-18
4159.50096 3.71955e-18
4161.00449 1.69211e-18
4162.49787 3.35742e-18
4164.00140 4.46960e-18
4165.50493 3.60649e-18
4166.99830 4.55526e-18
4168.50183 5.37098e-18
4169.99521 5.58776e-18
4171.49874 6.67675e-18
4173.00227 6.22992e-18
4174.49564 6.05828e-18
4175.99918 4.51762e-18
4177.50271 4.02457e-18
4178.99608 4.92868e-18
4180.49961 5.23248e-18
4182.00315 5.10573e-18
4183.49652 3.66432e-18
4185.00005 4.35110e-18
4186.50358 5.63298e-18
4187.99695 4.54138e-18
4189.50049 5.57513e-18
4191.00402 2.85438e-18
4192.49739 5.25096e-18
4194.00092 5.09762e-18
4195.50446 4.89054e-18
4196.99783 2.06912e-18
4198.50136 3.91680e-18
4200.00489 6.95168e-18
4201.49827 6.23992e-18
4203.00180 6.89605e-18
4204.49517 6.24491e-18
4205.99870 5.62008e-18
4207.50223 5.34276e-18
4208.99561 4.68986e-18
4210.49914 4.45569e-18
4212.00267 4.60243e-18
4213.49604 4.51228e-18
4214.99958 5.72834e-18
4216.50311 6.28573e-18
4217.99648 7.73594e-18
4219.50001 6.13296e-18
4221.00355 5.26052e-18
4222.49692 1.73760e-18
4224.00045 3.02206e-18
4225.50398 6.50571e-18
4226.99736 8.46353e-18
4228.50089 4.93447e-18
4230.00442 4.49765e-18
4231.49779 6.03009e-18
4233.00133 5.42386e-18
4234.50486 6.37605e-18
4235.99823 6.29366e-18
4237.50176 5.00301e-18
4238.99514 4.85751e-18
4240.49867 5.09866e-18
4242.00220 4.22763e-18
4243.49557 4.78082e-18
4244.99910 4.09752e-18
4246.50264 3.03614e-18
4247.99601 4.77028e-18
4249.49954 6.51586e-18
4251.00307 7.23344e-18
4252.49645 7.66497e-18
4253.99998 6.25555e-18
4255.50351 4.67505e-18
4256.99688 7.03099e-18
4258.50042 8.44090e-18
4260.00395 4.84345e-18
4261.49732 2.49069e-18
4263.00085 5.44273e-18
4264.50438 5.76262e-18
4265.99776 3.54327e-18
4267.50129 4.63332e-18
4269.00482 4.93219e-18
4270.49819 1.27093e-18
4272.00173 3.17319e-18
4273.49510 3.60719e-18
4274.99863 5.55026e-18
4276.50216 7.13500e-18
4277.99554 5.00959e-18
4279.49907 3.10019e-18
4281.00260 5.78838e-18
4282.49597 4.69682e-18
4283.99950 5.23963e-18
4285.50304 7.32339e-18
4286.99641 5.92297e-18
4288.49994 5.51171e-18
4290.00347 4.67818e-18
4291.49685 7.48063e-18
4293.00038 7.83278e-18
4294.50391 6.53848e-18
4295.99728 6.38300e-18
4297.50082 6.09146e-18
4299.00435 7.31357e-18
4300.49772 4.24677e-18
4302.00125 3.84784e-18
4303.50479 5.16122e-18
4304.99816 7.93805e-18
4306.50169 8.17184e-18
4307.99506 6.10589e-18
4309.49860 6.97635e-18
4311.00213 5.30927e-18
4312.49550 5.20066e-18
4313.99903 7.17154e-18
4315.50256 8.44772e-18
4316.99594 4.87414e-18
4318.49947 4.49300e-18
4320.00300 6.18397e-18
4321.49637 6.05510e-18
4322.99991 4.43919e-18
4324.50344 5.27437e-18
4325.99681 7.76777e-18
4327.50034 6.85929e-18
4329.00388 6.02243e-18
4330.49725 6.45520e-18
4332.00078 5.26535e-18
4333.50431 6.59720e-18
4334.99768 6.54093e-18
4336.50122 5.74035e-18
4338.00475 5.11454e-18
4339.49812 5.73747e-18
4341.00165 6.42048e-18
4342.49503 4.89825e-18
4343.99856 6.10513e-18
4345.50209 6.59468e-18
4346.99546 5.52735e-18
4348.49900 4.69604e-18
4350.00253 4.66895e-18
4351.49590 5.13533e-18
4352.99943 7.23016e-18
4354.50297 7.34783e-18
4355.99634 6.10510e-18
4357.49987 4.45858e-18
4359.00340 4.16693e-18
4360.49678 5.51731e-18
4362.00031 6.81381e-18
4363.50384 5.51411e-18
4364.99721 3.75487e-18
4366.50074 3.89202e-18
4368.00428 5.73535e-18
4369.49765 5.77881e-18
4371.00118 4.18015e-18
4372.50471 6.23174e-18
4373.99809 5.88271e-18
4375.50162 4.90569e-18
4376.99499 5.32184e-18
4378.49852 5.82485e-18
4380.00205 5.30014e-18
4381.49543 6.40009e-18
4382.99896 5.71577e-18
4384.50249 4.31596e-18
4385.99587 6.92582e-18
4387.49940 6.94816e-18
4389.00293 3.12820e-18
4390.49630 3.17868e-18
4391.99983 3.35630e-18
4393.50337 4.41522e-18
4394.99674 6.31049e-18
4396.50027 4.47489e-18
4398.00380 2.07532e-18
4399.49718 6.12313e-18
4401.00071 7.94032e-18
4402.50424 5.28914e-18
4403.99761 4.13286e-18
4405.50115 4.98873e-18
4407.00468 4.57507e-18
4408.49805 4.23621e-18
4410.00158 4.81637e-18
4411.50511 4.03943e-18
4412.99849 3.42346e-18
4414.50202 3.55088e-18
4415.99539 3.67833e-18
4417.49892 3.80578e-18
4419.00246 3.93322e-18
4420.49583 4.06066e-18
4421.99936 4.18809e-18
4423.50289 4.31551e-18
4424.99627 4.44293e-18
4426.49980 4.57033e-18
4428.00333 4.69774e-18
4429.49670 4.82513e-18
4431.00023 4.95252e-18
4432.50377 5.07990e-18
4433.99714 5.20724e-18
4435.50067 5.33460e-18
4437.00420 5.46197e-18
4438.49758 5.58932e-18
4440.00111 5.71667e-18
4441.50464 5.84401e-18
4442.99801 5.97135e-18
4444.50155 6.09868e-18
4446.00508 6.22600e-18
4447.49845 6.35331e-18
4449.00198 6.48062e-18
4450.49536 6.60792e-18
4451.99889 6.73518e-18
4453.50242 6.75118e-18
4454.99579 6.11861e-18
4456.49932 5.87185e-18
4458.00286 3.81119e-18
4459.49623 3.68315e-18
4460.99976 3.93514e-18
4462.50329 3.62981e-18
4463.99667 4.55391e-18
4465.50020 4.04493e-18
4467.00373 5.27325e-18
4468.49710 4.73423e-18
4470.00064 5.02606e-18
4471.50417 5.89574e-18
4472.99754 5.64016e-18
4474.50107 4.79510e-18
4476.00461 6.66402e-18
4477.49798 6.30262e-18
4479.00151 6.92759e-18
4480.50504 5.92073e-18
4481.99842 5.63490e-18
4483.50195 6.44591e-18
4484.99532 7.17637e-18
4486.49885 6.17730e-18
4488.00238 4.89409e-18
4489.49576 5.59079e-18
4490.99929 6.88242e-18
4492.50282 9.03442e-18
4493.99619 7.83047e-18
4495.49973 4.62337e-18
4497.00326 4.79914e-18
4498.49663 5.87792e-18
4500.00016 5.52176e-18
4501.50370 4.79967e-18
4502.99707 5.62958e-18
4504.50060 4.53849e-18
4506.00413 5.95977e-18
4507.49751 5.94686e-18
4509.00104 5.40465e-18
4510.50457 6.61419e-18
4511.99794 6.01732e-18
4513.50147 5.34449e-18
4514.99485 5.19151e-18
4516.49838 5.88464e-18
4518.00191 6.92073e-18
4519.49528 6.62907e-18
4520.99882 7.25429e-18
4522.50235 5.65775e-18
4523.99572 6.19618e-18
4525.49925 6.77831e-18
4527.00278 5.50453e-18
4528.49616 4.64670e-18
4529.99969 3.97756e-18
4531.50322 4.27632e-18
4532.99660 5.92610e-18
4534.50013 7.16156e-18
4536.00366 6.57457e-18
4537.49703 6.04734e-18
4539.00056 6.47686e-18
4540.50410 8.12321e-18
4541.99747 8.20231e-18
4543.50100 6.68707e-18
4545.00453 6.05379e-18
4546.49791 3.83725e-18
4548.00144 5.07821e-18
4549.49481 8.35170e-18
4550.99834 6.65928e-18
4552.50187 5.96997e-18
4553.99525 5.51333e-18
4555.49878 5.88060e-18
4557.00231 5.71105e-18
4558.49568 7.44093e-18
4559.99922 8.89083e-18
4561.50275 8.20015e-18
4562.99612 1.09885e-17
4564.49965 8.11569e-18
4566.00319 7.22367e-18
4567.49656 7.53747e-18
4569.00009 5.54980e-18
4570.50362 7.00091e-18
4571.99700 7.52920e-18
4573.50053 8.94919e-18
4575.00406 8.88222e-18
4576.49743 6.83887e-18
4578.00097 7.41824e-18
4579.50450 8.93105e-18
4580.99787 7.47474e-18
4582.50140 6.62863e-18
4583.99478 6.75866e-18
4585.49831 6.87130e-18
4587.00184 9.08686e-18
4588.49521 1.03298e-17
4589.99874 9.87080e-18
4591.50228 8.78895e-18
4592.99565 8.15866e-18
4594.49918 7.10992e-18
4596.00271 7.22759e-18
4597.49609 8.79340e-18
4598.99962 1.02335e-17
4600.50315 9.22616e-18
4601.99652 7.14488e-18
4603.50005 7.38515e-18
4605.00359 8.30122e-18
4606.49696 8.95462e-18
4608.00049 8.65621e-18
4609.50402 7.84096e-18
4610.99740 9.26434e-18
4612.50093 9.45689e-18
4614.00446 8.60091e-18
4615.49783 8.85865e-18
4617.00137 1.00592e-17
4618.50490 1.06765e-17
4619.99827 1.12070e-17
4621.50180 1.02960e-17
4622.99518 8.47827e-18
4624.49871 8.32178e-18
4626.00224 9.84401e-18
4627.49561 9.60121e-18
4628.99915 8.85074e-18
4630.50268 9.85696e-18
4631.99605 9.38544e-18
4633.49958 7.65308e-18
4635.00311 9.38291e-18
4636.49649 9.13956e-18
4638.00002 8.16487e-18
4639.50355 7.88681e-18
4640.99692 8.78019e-18
4642.50046 9.18722e-18
4644.00399 8.38803e-18
4645.49736 8.99047e-18
4647.00089 7.04194e-18
4648.50443 7.83518e-18
4649.99780 9.22152e-18
4651.50133 1.01184e-17
4653.00486 8.17025e-18
4654.49824 6.85486e-18
4656.00177 8.47494e-18
4657.49514 9.06619e-18
4658.99867 8.23754e-18
4660.50220 8.66323e-18
4661.99558 9.15299e-18
4663.49911 9.10790e-18
4665.00264 8.11829e-18
4666.49601 8.56202e-18
4667.99955 8.68887e-18
4669.50308 7.45193e-18
4670.99645 7.01078e-18
4672.49998 8.83751e-18
4674.00352 9.54982e-18
4675.49689 9.48624e-18
4677.00042 9.92680e-18
4678.50395 9.03531e-18
4679.99733 1.00755e-17
4681.50086 9.87436e-18
4683.00439 7.66546e-18
4684.49776 7.79890e-18
4686.00129 7.93055e-18
4687.50483 7.77452e-18
4688.99820 8.90998e-18
4690.50173 8.61778e-18
4691.99510 6.81283e-18
4693.49864 6.23980e-18
4695.00217 8.70389e-18
4696.49554 8.70854e-18
4697.99907 8.11845e-18
4699.50260 7.28809e-18
4700.99598 8.64587e-18
4702.49951 8.85381e-18
4704.00304 7.64930e-18
4705.49642 8.13252e-18
4706.99995 9.13635e-18
4708.50348 9.32094e-18
4709.99685 9.20986e-18
4711.50038 7.24949e-18
4713.00392 8.15866e-18
4714.49729 1.02275e-17
4716.00082 8.33988e-18
4717.50435 7.54249e-18
4718.99773 6.82204e-18
4720.50126 8.43005e-18
4722.00479 7.00448e-18
4723.49816 8.32785e-18
4725.00169 7.20940e-18
4726.49507 7.52626e-18
4727.99860 8.10235e-18
4729.50213 8.46409e-18
4730.99550 8.83266e-18
4732.49904 8.35717e-18
4734.00257 8.36986e-18
4735.49594 8.48732e-18
4736.99947 6.96562e-18
4738.50301 7.10210e-18
4739.99638 8.52846e-18
4741.49991 6.79830e-18
4743.00344 7.65099e-18
4744.49682 8.44302e-18
4746.00035 7.14829e-18
4747.50388 8.48848e-18
4748.99725 6.92575e-18
4750.50079 6.23831e-18
4752.00432 8.05831e-18
4753.49769 8.13706e-18
4755.00122 7.23721e-18
4756.50475 6.78802e-18
4757.99813 8.00023e-18
4759.50166 8.13569e-18
4760.99503 7.91085e-18
4762.49856 7.28669e-18
4764.00210 8.17262e-18
4765.49547 8.36619e-18
4766.99900 8.05206e-18
4768.50253 8.19777e-18
4769.99591 9.21543e-18
4771.49944 8.12867e-18
4773.00297 7.55614e-18
4774.49634 6.15040e-18
4775.99988 8.09892e-18
4777.50341 7.97738e-18
4778.99678 6.09257e-18
4780.50031 7.98266e-18
4782.00384 7.27044e-18
4783.49722 7.90501e-18
4785.00075 6.92405e-18
4786.50428 5.82935e-18
4787.99765 5.96074e-18
4789.50119 7.01196e-18
4791.00472 5.76528e-18
4792.49809 6.63052e-18
4794.00162 6.79287e-18
4795.49500 6.81252e-18
4796.99853 7.23242e-18
4798.50206 7.98393e-18
4799.99543 7.27847e-18
4801.49897 6.35623e-18
4803.00250 7.78872e-18
4804.49587 7.11997e-18
4805.99940 7.06386e-18
4807.50293 5.73304e-18
4808.99631 6.83936e-18
4810.49984 8.21773e-18
4812.00337 6.74862e-18
4813.49674 5.00213e-18
4815.00028 6.66811e-18
4816.50381 7.33065e-18
4817.99718 7.65245e-18
4819.50071 8.06434e-18
4821.00425 6.78186e-18
4822.49762 7.13385e-18
4824.00115 8.60449e-18
4825.50468 7.98101e-18
4826.99806 7.91459e-18
4828.50159 7.33329e-18
4829.99496 7.09721e-18
4831.49849 8.19224e-18
4833.00202 7.68603e-18
4834.49540 6.80603e-18
4835.99893 7.03277e-18
4837.50246 7.71483e-18
4838.99583 8.80573e-18
4840.49937 7.50764e-18
4842.00290 6.55146e-18
4843.49627 7.55062e-18
4844.99980 7.74413e-18
4846.50333 7.45249e-18
4847.99671 6.10803e-18
4849.50024 8.29314e-18
4851.00377 8.04088e-18
4852.49715 7.28255e-18
4854.00068 5.91880e-18
4855.50421 8.07190e-18
4856.99758 7.64252e-18
4858.50111 9.38719e-18
4860.00465 9.61824e-18
4861.49802 5.77952e-18
4863.00155 8.42418e-18
4864.49492 7.54283e-18
4865.99846 6.50959e-18
4867.50199 6.31056e-18
4868.99536 8.10647e-18
4870.49889 8.00681e-18
4872.00242 7.33470e-18
4873.49580 5.56141e-18
4874.99933 6.64686e-18
4876.50286 6.90860e-18
4877.99623 6.22038e-18
4879.49977 5.91331e-18
4881.00330 6.40437e-18
4882.49667 6.50711e-18
4884.00020 6.71320e-18
4885.50374 6.89831e-18
4886.99711 7.54050e-18
4888.50064 7.14767e-18
4890.00417 6.90895e-18
4891.49755 8.15034e-18
4893.00108 8.03232e-18
4894.50461 7.31092e-18
4895.99798 7.84310e-18
4897.50152 7.19202e-18
4899.00505 7.40337e-18
4900.49842 7.64293e-18
4902.00195 6.52383e-18
4903.49532 7.43245e-18
4904.99886 9.32272e-18
4906.50239 9.02791e-18
4907.99576 7.54842e-18
4909.49929 5.33208e-18
4911.00283 6.44291e-18
4912.49620 6.57758e-18
4913.99973 7.73718e-18
4915.50326 7.35445e-18
4916.99664 6.77139e-18
4918.50017 7.00052e-18
4920.00370 8.70568e-18
4921.49707 8.65567e-18
4923.00061 8.60567e-18
4924.50414 8.55566e-18
4925.99751 8.50566e-18
4927.50104 8.45566e-18
4929.00457 8.40566e-18
4930.49795 8.35567e-18
4932.00148 8.30568e-18
4933.50501 8.25569e-18
4934.99838 8.20571e-18
4936.50192 8.15572e-18
4937.99529 8.10576e-18
4939.49882 8.05579e-18
4941.00235 8.00581e-18
4942.49573 7.95584e-18
4943.99926 7.90587e-18
4945.50279 7.85591e-18
4946.99616 7.80595e-18
4948.49970 7.75599e-18
4950.00323 7.70603e-18
4951.49660 7.65608e-18
4953.00013 7.60613e-18
4954.50366 7.55618e-18
4955.99704 7.50625e-18
4957.50057 7.45631e-18
4959.00410 6.77032e-18
4960.49747 9.03009e-18
4962.00101 9.81790e-18
4963.50454 9.57075e-18
4964.99791 8.83914e-18
4966.50144 7.99825e-18
4968.00497 7.96825e-18
4969.49835 7.93826e-18
4971.00188 7.90826e-18
4972.49525 7.87827e-18
4973.99878 7.84828e-18
4975.50232 7.84806e-18
4976.99569 7.39920e-18
4978.49922 7.28892e-18
4980.00275 8.47883e-18
4981.49613 8.97708e-18
4982.99966 7.66077e-18
4984.50319 6.50963e-18
4985.99656 8.35020e-18
4987.50010 8.40959e-18
4989.00363 8.49537e-18
4990.49700 8.64033e-18
4992.00053 7.74082e-18
4993.50407 7.32029e-18
4994.99744 8.44689e-18
4996.50097 7.09446e-18
4998.00450 5.98102e-18
4999.49788 6.75489e-18
5001.00141 8.63492e-18
5002.50494 7.90239e-18
5003.99831 6.96567e-18
5005.50184 7.73913e-18
5006.99522 8.27995e-18
5008.49875 8.99241e-18
5010.00228 8.18463e-18
5011.49565 7.53272e-18
5012.99919 7.73983e-18
5014.50272 7.01197e-18
5015.99609 7.29633e-18
5017.49962 8.24582e-18
5019.00316 9.32642e-18
5020.49653 9.24598e-18
5022.00006 9.16554e-18
5023.50359 9.08511e-18
5024.99697 9.00468e-18
5026.50050 8.92426e-18
5028.00403 8.84384e-18
5029.49740 8.76343e-18
5031.00093 8.68305e-18
5032.50447 8.60264e-18
5033.99784 8.52224e-18
5035.50137 8.44184e-18
5037.00490 8.36145e-18
5038.49828 8.28107e-18
5040.00181 8.20069e-18
5041.49518 8.12031e-18
5042.99871 8.03993e-18
5044.50225 7.95956e-18
5045.99562 7.87920e-18
5047.49915 7.79884e-18
5049.00268 7.71851e-18
5050.49605 7.63816e-18
5051.99959 7.55782e-18
5053.50312 7.47747e-18
5054.99649 7.39714e-18
5056.50002 7.31681e-18
5058.00356 8.64208e-18
5059.49693 8.19228e-18
5061.00046 6.75866e-18
5062.50399 6.34802e-18
5063.99737 5.73789e-18
5065.50090 7.06338e-18
5067.00443 6.88699e-18
5068.49780 6.89350e-18
5070.00133 6.90002e-18
5071.49471 6.90653e-18
5072.99824 6.91304e-18
5074.50177 6.91956e-18
5075.99514 6.92607e-18
5077.49868 6.93258e-18
5079.00221 6.93910e-18
5080.49558 6.94561e-18
5081.99911 6.95212e-18
5083.50265 6.95863e-18
5084.99602 6.96515e-18
5086.49955 6.97166e-18
5088.00308 6.97817e-18
5089.49646 6.98468e-18
5090.99999 6.99119e-18
5092.50352 6.99770e-18
5093.99689 7.00421e-18
5095.50043 7.01072e-18
5097.00396 7.01723e-18
5098.49733 7.02374e-18
5100.00086 7.03025e-18
5101.50439 7.03676e-18
5102.99777 7.04327e-18
5104.50130 7.04977e-18
5105.99467 7.05628e-18
5107.49820 6.36555e-18
5109.00174 6.21258e-18
5110.49511 6.82007e-18
5111.99864 6.34605e-18
5113.50217 5.71262e-18
5114.99555 6.64805e-18
5116.49908 7.60502e-18
5118.00261 8.46815e-18
5119.49598 7.54953e-18
5120.99952 8.52732e-18
5122.50305 7.79265e-18
5123.99642 8.65127e-18
5125.49995 7.65183e-18
5127.00348 7.20641e-18
5128.49686 7.05994e-18
5130.00039 7.53017e-18
5131.50392 9.58416e-18
5132.99729 8.49273e-18
5134.50083 8.09230e-18
5136.00436 7.41652e-18
5137.49773 6.61175e-18
5139.00126 8.20182e-18
5140.50480 6.11107e-18
5141.99817 6.08024e-18
5143.50170 7.50784e-18
5144.99507 6.37381e-18
5146.49860 6.57726e-18
5148.00214 7.04546e-18
5149.49551 6.42088e-18
5150.99904 6.68854e-18
5152.50257 7.76148e-18
5153.99595 7.97884e-18
5155.49948 6.57896e-18
5157.00301 6.45665e-18
5158.49638 7.20068e-18
5159.99992 7.74766e-18
5161.50345 7.47575e-18
5162.99682 6.81752e-18
5164.50035 7.46330e-18
5166.00389 7.88964e-18
5167.49726 7.36326e-18
5169.00079 7.50141e-18
5170.50432 6.63554e-18
5171.99770 5.76317e-18
5173.50123 8.01808e-18
5175.00476 8.25708e-18
5176.49813 7.20398e-18
5178.00166 6.13582e-18
5179.49504 6.42217e-18
5180.99857 7.39616e-18
5182.50210 7.52586e-18
5183.99547 6.95832e-18
5185.49901 6.27568e-18
5187.00254 6.68085e-18
5188.49591 6.99608e-18
5189.99944 7.74324e-18
5191.50298 7.42076e-18
5192.99635 8.77794e-18
5194.49988 8.04054e-18
5196.00341 6.96001e-18
5197.49678 8.48189e-18
5199.00032 7.81914e-18
5200.50385 6.52385e-18
5201.99722 7.71009e-18
5203.50075 7.13173e-18
5205.00429 8.02753e-18
5206.49766 7.88798e-18
5208.00119 7.10721e-18
5209.50472 6.23387e-18
5210.99810 7.02445e-18
5212.50163 7.68572e-18
5214.00516 8.40637e-18
5215.49853 9.28548e-18
5217.00207 8.47417e-18
5218.49544 7.88000e-18
5219.99897 7.77822e-18
5221.50250 8.51867e-18
5222.99588 8.20190e-18
5224.49941 7.35658e-18
5226.00294 7.70380e-18
5227.49631 8.65355e-18
5228.99984 8.58079e-18
5230.50338 8.49814e-18
5231.99675 8.77514e-18
5233.50028 9.20798e-18
5235.00381 9.78882e-18
5236.49719 7.95128e-18
5238.00072 7.30059e-18
5239.50425 7.15383e-18
5240.99762 6.62720e-18
5242.50115 6.40848e-18
5244.00469 7.45341e-18
5245.49806 8.21593e-18
5247.00159 7.79086e-18
5248.49497 8.05047e-18
5249.99850 8.10813e-18
5251.50203 7.89481e-18
5252.99540 8.35572e-18
5254.49893 8.43243e-18
5256.00247 9.14241e-18
5257.49584 1.06137e-17
5258.99937 1.00351e-17
5260.50290 9.05162e-18
5261.99628 8.80223e-18
5263.49981 9.01785e-18
5265.00334 1.00309e-17
5266.49671 1.04740e-17
5268.00025 9.24753e-18
5269.50378 9.32127e-18
5270.99715 9.36521e-18
5272.50068 9.46546e-18
5274.00421 1.03347e-17
5275.49759 9.73012e-18
5277.00112 8.83373e-18
5278.50465 9.73317e-18
5279.99802 1.00177e-17
5281.50156 1.12394e-17
5282.99493 9.05951e-18
5284.49846 1.10341e-17
5286.00199 1.16585e-17
5287.49537 9.99474e-18
5288.99890 1.13532e-17
5290.50243 1.10339e-17
5291.99580 9.76891e-18
5293.49933 9.62653e-18
5295.00287 9.57916e-18
5296.49624 9.74488e-18
5297.99977 1.06820e-17
5299.50330 9.13667e-18
5300.99668 8.29558e-18
5302.50021 8.14036e-18
5304.00374 1.00807e-17
5305.49711 1.12460e-17
5307.00065 1.01767e-17
5308.50418 1.02326e-17
5309.99755 9.85722e-18
5311.50108 9.22625e-18
5313.00462 8.99647e-18
5314.49799 8.38187e-18
5316.00152 8.54764e-18
5317.49489 8.92032e-18
5318.99842 9.46119e-18
5320.50196 1.08136e-17
5321.99533 1.10463e-17
5323.49886 1.05799e-17
5325.00239 1.06906e-17
5326.49577 1.15985e-17
5327.99930 1.02041e-17
5329.50283 9.65543e-18
5330.99620 1.06318e-17
5332.49974 9.85667e-18
5334.00327 8.57956e-18
5335.49664 1.13855e-17
5337.00017 1.17370e-17
5338.50371 9.19395e-18
5339.99708 9.80356e-18
5341.50061 1.23073e-17
5343.00414 1.19541e-17
5344.49752 1.00543e-17
5346.00105 9.44845e-18
5347.50458 9.15054e-18
5348.99795 8.99804e-18
5350.50148 9.74224e-18
5351.99486 1.23009e-17
5353.49839 1.15804e-17
5355.00192 1.00600e-17
5356.49529 1.17607e-17
5357.99883 1.17030e-17
5359.50236 1.10701e-17
5360.99573 1.08858e-17
5362.49926 1.18795e-17
5364.00280 1.14054e-17
5365.49617 1.22535e-17
5366.99970 1.17899e-17
5368.50323 1.10490e-17
5369.99661 1.02293e-17
5371.50014 1.08946e-17
5373.00367 1.13394e-17
5374.49704 1.11198e-17
5376.00057 1.06450e-17
5377.50411 1.06953e-17
5378.99748 1.16261e-17
5380.50101 1.20092e-17
5382.00454 1.15344e-17
5383.49792 1.17744e-17
5385.00145 1.07644e-17
5386.49482 9.49454e-18
5387.99835 9.90543e-18
5389.50188 1.14782e-17
5390.99526 1.08680e-17
5392.49879 9.26534e-18
5394.00232 9.24972e-18
5395.49570 1.07149e-17
5396.99923 1.11667e-17
5398.50276 1.08124e-17
5399.99613 1.07404e-17
5401.49966 1.15276e-17
5403.00320 1.19255e-17
5404.49657 1.21520e-17
5406.00010 1.09020e-17
5407.50363 9.48622e-18
5408.99701 1.10409e-17
5410.50054 1.03477e-17
5412.00407 9.95369e-18
5413.49744 1.02234e-17
5415.00097 1.11224e-17
5416.50451 1.13168e-17
5417.99788 1.11779e-17
5419.50141 1.16463e-17
5421.00494 1.07749e-17
5422.49832 1.10000e-17
5424.00185 1.13230e-17
5425.49522 1.12664e-17
5426.99875 1.03618e-17
5428.50229 9.88991e-18
5429.99566 1.07069e-17
5431.49919 1.12143e-17
5433.00272 1.12950e-17
5434.49610 1.11383e-17
5435.99963 1.11960e-17
5437.50316 1.21883e-17
5438.99653 1.32910e-17
5440.50007 1.22797e-17
5442.00360 1.04062e-17
5443.49697 9.55847e-18
5445.00050 1.01461e-17
5446.50403 1.08313e-17
5447.99741 1.06584e-17
5449.50094 1.04841e-17
5451.00447 1.11721e-17
5452.49784 1.29868e-17
5454.00138 1.31807e-17
5455.50491 1.07957e-17
5456.99828 9.70489e-18
5458.50181 1.20069e-17
5459.99519 1.35916e-17
5461.49872 1.28193e-17
5463.00225 1.22971e-17
5464.49562 1.17046e-17
5465.99915 1.15405e-17
5467.50269 1.11827e-17
5468.99606 1.07514e-17
5470.49959 1.08202e-17
5472.00312 1.09044e-17
5473.49650 1.18616e-17
5475.00003 1.27179e-17
5476.50356 1.18728e-17
5477.99693 1.14817e-17
5479.50047 1.15663e-17
5481.00400 1.19974e-17
5482.49737 1.32805e-17
5484.00090 1.28179e-17
5485.50443 1.10784e-17
5486.99781 1.11025e-17
5488.50134 1.26844e-17
5490.00487 1.21943e-17
5491.49825 1.17133e-17
5493.00178 1.23381e-17
5494.49515 1.12642e-17
5495.99868 1.23588e-17
5497.50221 1.22755e-17
5498.99559 1.31965e-17
5500.49912 1.32708e-17
5502.00265 1.18999e-17
5503.49602 1.30091e-17
5504.99956 1.30063e-17
5506.50309 1.26922e-17
5507.99646 1.27483e-17
5509.49999 1.35993e-17
5511.00353 1.23671e-17
5512.49690 1.19010e-17
5514.00043 1.26269e-17
5515.50396 1.30601e-17
5516.99734 1.30055e-17
5518.50087 1.18429e-17
5520.00440 1.30375e-17
5521.49777 1.26201e-17
5523.00130 1.23174e-17
5524.50484 1.22745e-17
5525.99821 1.31919e-17
5527.50174 1.36278e-17
5528.99511 1.28651e-17
5530.49865 1.32653e-17
5532.00218 1.46534e-17
5533.49555 1.44750e-17
5534.99908 1.45714e-17
5536.50262 1.39875e-17
5537.99599 1.21703e-17
5539.49952 1.12022e-17
5541.00305 1.21712e-17
5542.49643 1.24709e-17
5543.99996 1.38971e-17
5545.50349 1.45295e-17
5546.99686 1.39813e-17
5548.50039 1.48348e-17
5550.00393 1.15379e-17
5551.49730 1.23015e-17
5553.00083 1.37759e-17
5554.50436 1.26628e-17
5555.99774 1.43263e-17
5557.50127 1.42527e-17
5559.00480 1.43319e-17
5560.49817 1.29302e-17
5562.00170 1.34484e-17
5563.49508 1.50034e-17
5564.99861 1.29260e-17
5566.50214 1.21099e-17
5567.99552 1.21954e-17
5569.49905 1.22722e-17
5571.00258 1.35317e-17
5572.49595 1.43198e-17
5573.99948 1.44779e-17
5575.50302 1.20451e-17
5576.99639 1.40346e-17
5578.49992 1.38365e-17
5580.00345 1.36385e-17
5581.49683 1.34405e-17
5583.00036 1.32425e-17
5584.50389 1.30445e-17
5585.99726 1.28466e-17
5587.50079 1.28463e-17
5589.00433 1.20006e-17
5590.49770 1.18562e-17
5592.00123 1.18385e-17
5593.50476 1.26240e-17
5594.99814 1.20044e-17
5596.50167 1.15449e-17
5597.99504 1.02505e-17
5599.49857 1.14345e-17
5601.00211 1.23083e-17
5602.49548 1.12650e-17
5603.99901 1.06237e-17
5605.50254 1.07008e-17
5606.99592 1.15025e-17
5608.49945 1.12283e-17
5610.00298 1.18090e-17
5611.49635 1.31657e-17
5612.99989 1.32392e-17
5614.50342 1.25030e-17
5615.99679 1.26511e-17
5617.50032 1.31691e-17
5619.00385 1.30580e-17
5620.49723 1.12751e-17
5622.00076 1.20017e-17
5623.50429 1.38455e-17
5624.99766 1.40361e-17
5626.50120 1.30247e-17
5628.00473 1.13440e-17
5629.49810 1.29627e-17
5631.00163 1.14705e-17
5632.49501 1.39654e-17
5633.99854 1.44493e-17
5635.50207 1.29950e-17
5636.99544 1.20203e-17
5638.49898 1.16597e-17
5640.00251 1.31141e-17
5641.49588 1.30110e-17
5642.99941 1.28496e-17
5644.50294 1.19852e-17
5645.99632 1.25446e-17
5647.49985 1.28469e-17
5649.00338 1.34626e-17
5650.49675 1.20187e-17
5652.00029 1.17250e-17
5653.50382 1.18575e-17
5654.99719 1.19451e-17
5656.50072 1.22444e-17
5658.00425 1.24284e-17
5659.49763 1.38600e-17
5661.00116 1.23252e-17
5662.50469 1.31519e-17
5663.99807 1.35389e-17
5665.50160 1.33630e-17
5666.99497 1.25916e-17
5668.49850 1.14878e-17
5670.00203 1.15957e-17
5671.49541 1.30402e-17
5672.99894 1.25255e-17
5674.50247 1.26949e-17
5675.99584 1.44952e-17
5677.49938 1.33980e-17
5679.00291 1.26689e-17
5680.49628 1.35397e-17
5681.99981 1.42485e-17
5683.50335 1.36714e-17
5684.99672 1.31855e-17
5686.50025 1.24489e-17
5688.00378 1.17041e-17
5689.49716 1.32165e-17
5691.00069 1.38835e-17
5692.50422 1.38925e-17
5693.99759 1.33068e-17
5695.50112 1.38321e-17
5697.00466 1.43393e-17
5698.49803 1.40421e-17
5700.00156 1.40902e-17
5701.50509 1.40924e-17
5702.99847 1.27026e-17
5704.50200 1.37136e-17
5705.99537 1.52903e-17
5707.49890 1.29604e-17
5709.00243 1.22712e-17
5710.49581 1.33860e-17
5711.99934 1.34389e-17
5713.50287 1.30215e-17
5714.99625 1.37283e-17
5716.49978 1.47822e-17
5718.00331 1.39538e-17
5719.49668 1.25166e-17
5721.00021 1.16065e-17
5722.50375 1.31649e-17
5723.99712 1.38229e-17
5725.50065 1.27706e-17
5727.00418 1.29588e-17
5728.49756 1.27541e-17
5730.00109 1.33753e-17
5731.50462 1.41515e-17
5732.99799 1.41458e-17
5734.50153 1.41492e-17
5736.00506 1.37080e-17
5737.49843 1.32896e-17
5739.00196 1.32433e-17
5740.49533 1.26632e-17
5741.99887 1.23105e-17
5743.50240 1.29887e-17
5744.99577 1.26695e-17
5746.49930 1.25440e-17
5748.00284 1.35245e-17
5749.49621 1.27428e-17
5750.99974 1.19526e-17
5752.50327 1.22793e-17
5753.99665 1.06410e-17
5755.50018 1.12843e-17
5757.00371 1.24621e-17
5758.49708 1.21262e-17
5760.00062 1.34565e-17
5761.50415 1.35728e-17
5762.99752 1.29207e-17
5764.50105 1.39610e-17
5766.00458 1.27783e-17
5767.49796 1.14536e-17
5769.00149 1.21562e-17
5770.50502 1.07605e-17
5771.99839 1.13195e-17
5773.50193 1.15248e-17
5774.99530 1.02934e-17
5776.49883 1.24911e-17
5778.00236 1.16503e-17
5779.49574 1.11661e-17
5780.99927 1.00484e-17
5782.50280 9.72075e-18
5783.99617 1.10997e-17
5785.49971 1.08274e-17
5787.00324 1.31319e-17
5788.49661 1.25033e-17
5790.00014 9.74936e-18
5791.50367 1.07414e-17
5792.99705 1.12888e-17
5794.50058 1.04414e-17
5796.00411 1.06849e-17
5797.49748 1.10843e-17
5799.00102 1.14301e-17
5800.50455 1.13873e-17
5801.99792 1.13532e-17
5803.50145 1.06025e-17
5805.00498 9.88371e-18
5806.49836 1.05380e-17
5808.00189 1.09190e-17
5809.49526 1.06175e-17
5810.99880 1.16627e-17
5812.50233 1.19323e-17
5813.99570 1.06590e-17
5815.49923 9.95340e-18
5817.00276 1.04923e-17
5818.49614 1.07054e-17
5819.99967 1.11041e-17
5821.50320 1.14369e-17
5822.99657 1.22229e-17
5824.50011 1.19035e-17
5826.00364 1.02965e-17
5827.49701 1.02083e-17
5829.00054 1.08767e-17
5830.50407 1.19740e-17
5831.99745 1.14378e-17
5833.50098 1.09955e-17
5835.00451 1.10086e-17
5836.49788 1.04894e-17
5838.00142 1.10367e-17
5839.49479 1.17779e-17
5840.99832 1.02278e-17
5842.50185 1.01629e-17
5843.99523 1.20693e-17
5845.49876 1.12113e-17
5847.00229 1.19233e-17
5848.49566 1.00780e-17
5849.99920 1.17397e-17
5851.50273 1.23113e-17
5852.99610 1.21466e-17
5854.49963 1.03903e-17
5856.00317 1.07808e-17
5857.49654 1.25277e-17
5859.00007 1.12604e-17
5860.50360 1.04324e-17
5861.99698 1.02232e-17
5863.50051 1.03478e-17
5865.00404 1.09210e-17
5866.49741 1.08729e-17
5868.00094 1.03377e-17
5869.50448 1.04540e-17
5870.99785 1.19789e-17
5872.50138 1.15090e-17
5873.99475 1.11946e-17
5875.49829 1.16903e-17
5877.00182 1.13601e-17
5878.49519 1.15511e-17
5879.99872 1.34841e-17
5881.50226 1.40641e-17
5882.99563 1.20572e-17
5884.49916 1.13616e-17
5886.00269 1.21194e-17
5887.49607 1.28068e-17
5888.99960 1.18190e-17
5890.50313 1.17210e-17
5891.99650 1.22291e-17
5893.50003 1.29007e-17
5895.00357 1.23746e-17
5896.49694 1.12271e-17
5898.00047 1.20239e-17
5899.50400 1.18810e-17
5900.99738 1.22659e-17
5902.50091 1.18273e-17
5904.00444 1.13758e-17
5905.49781 1.09478e-17
5907.00135 1.28554e-17
5908.49472 1.22136e-17
5909.99825 1.23482e-17
5911.50178 1.30089e-17
5912.99515 1.32712e-17
5914.49869 1.33640e-17
5916.00222 1.27168e-17
5917.49559 1.21574e-17
5918.99912 1.23459e-17
5920.50266 1.24791e-17
5921.99603 1.32942e-17
5923.49956 1.28423e-17
5925.00309 1.31045e-17
5926.49647 1.25438e-17
5928.00000 1.15428e-17
5929.50353 1.19395e-17
5930.99690 1.10541e-17
5932.50043 1.09751e-17
5934.00397 1.21398e-17
5935.49734 1.33552e-17
5937.00087 1.37193e-17
5938.50440 1.36199e-17
5939.99778 1.32348e-17
5941.50131 1.28759e-17
5943.00484 1.36378e-17
5944.49821 1.26384e-17
5946.00175 1.19696e-17
5947.49512 1.23432e-17
5948.99865 1.31547e-17
5950.50218 1.38029e-17
5951.99556 1.15130e-17
5953.49909 1.17818e-17
5955.00262 1.40759e-17
5956.49599 1.29196e-17
5957.99953 1.16475e-17
5959.50306 1.37172e-17
5960.99643 1.44064e-17
5962.49996 1.18498e-17
5964.00349 1.12698e-17
5965.49687 1.32498e-17
5967.00040 1.27245e-17
5968.50393 1.22161e-17
5969.99730 1.35449e-17
5971.50084 1.37944e-17
5973.00437 1.42221e-17
5974.49774 1.43282e-17
5976.00127 1.26914e-17
5977.50480 1.20646e-17
5978.99818 1.25067e-17
5980.50171 1.32842e-17
5981.99508 1.34510e-17
5983.49862 1.22535e-17
5985.00215 1.13116e-17
5986.49552 1.00451e-17
5987.99905 1.02399e-17
5989.50258 1.14381e-17
5990.99596 1.17710e-17
5992.49949 1.10576e-17
5994.00302 1.07097e-17
5995.49639 1.16998e-17
5996.99993 1.33390e-17
5998.50346 1.35957e-17
5999.99683 1.19679e-17
6001.50036 1.14232e-17
6003.00390 1.27735e-17
6004.49727 1.24168e-17
6006.00080 1.16312e-17
6007.50433 1.23074e-17
6008.99770 1.15199e-17
6010.50124 1.21575e-17
6012.00477 1.25313e-17
6013.49814 1.25281e-17
6015.00167 1.09347e-17
6016.49505 1.23945e-17
6017.99858 1.18021e-17
6019.50211 1.18487e-17
6020.99548 1.22527e-17
6022.49902 1.30854e-17
6024.00255 1.12982e-17
6025.49592 1.14747e-17
6026.99945 1.34771e-17
6028.50299 1.18973e-17
6029.99636 1.15955e-17
6031.49989 1.23465e-17
6033.00342 1.22052e-17
6034.49680 1.29543e-17
6036.00033 1.12838e-17
6037.50386 1.12728e-17
6038.99723 1.21226e-17
6040.50076 1.22149e-17
6042.00430 1.18378e-17
6043.49767 1.15312e-17
6045.00120 1.28118e-17
6046.50473 1.23429e-17
6047.99811 1.07846e-17
6049.50164 1.04377e-17
6050.99501 1.16764e-17
6052.49854 1.11996e-17
6054.00208 1.26808e-17
6055.49545 1.22704e-17
6056.99898 1.04402e-17
6058.50251 1.21739e-17
6059.99588 1.20593e-17
6061.49942 1.15034e-17
6063.00295 1.14026e-17
6064.49632 1.11014e-17
6065.99985 1.14663e-17
6067.50339 1.33773e-17
6068.99676 1.17649e-17
6070.50029 1.21744e-17
6072.00382 1.24565e-17
6073.49720 1.31761e-17
6075.00073 1.28621e-17
6076.50426 1.23800e-17
6077.99763 1.18980e-17
6079.50117 1.14159e-17
6081.00470 1.14158e-17
6082.49807 1.20292e-17
6084.00160 1.20859e-17
6085.49498 1.18045e-17
6086.99851 1.09729e-17
6088.50204 1.00303e-17
6089.99541 1.12060e-17
6091.49894 1.19324e-17
6093.00248 1.21143e-17
6094.49585 1.17625e-17
6095.99938 1.10222e-17
6097.50291 1.12456e-17
6098.99629 1.18950e-17
6100.49982 1.10154e-17
6102.00335 1.22150e-17
6103.49672 1.28408e-17
6105.00025 1.16184e-17
6106.50379 1.20059e-17
6107.99716 1.06442e-17
6109.50069 1.01258e-17
6111.00422 1.08065e-17
6112.49760 1.17893e-17
6114.00113 1.29353e-17
6115.50466 1.27523e-17
6116.99803 1.26594e-17
6118.50157 1.03267e-17
6119.99494 1.10333e-17
6121.49847 1.16504e-17
6123.00200 1.11290e-17
6124.49538 1.05358e-17
6125.99891 1.04199e-17
6127.50244 1.17583e-17
6128.99581 1.24916e-17
6130.49935 1.17117e-17
6132.00288 1.10653e-17
6133.49625 1.07482e-17
6134.99978 1.16537e-17
6136.50331 1.26064e-17
6137.99669 1.33781e-17
6139.50022 1.28139e-17
6141.00375 1.09478e-17
6142.49712 1.10900e-17
6144.00066 1.13069e-17
6145.50419 1.12945e-17
6146.99756 1.14799e-17
6148.50109 1.10648e-17
6150.00463 1.10728e-17
6151.49800 1.23060e-17
6153.00153 1.15520e-17
6154.49490 1.12689e-17
6155.99843 1.24031e-17
6157.50197 1.18985e-17
6158.99534 1.23251e-17
6160.49887 1.25037e-17
6162.00240 1.18320e-17
6163.49578 1.29590e-17
6164.99931 1.33468e-17
6166.50284 1.22579e-17
6167.99621 1.09248e-17
6169.49975 1.13080e-17
6171.00328 1.19005e-17
6172.49665 1.15324e-17
6174.00018 1.21489e-17
6175.50372 1.17160e-17
6176.99709 1.14260e-17
6178.50062 1.23966e-17
6180.00415 1.26791e-17
6181.49752 1.16651e-17
6183.00106 1.19615e-17
6184.50459 1.31410e-17
6185.99796 1.26529e-17
6187.50149 1.23672e-17
6188.99487 1.29647e-17
6190.49840 1.40473e-17
6192.00193 1.33725e-17
6193.49530 1.19928e-17
6194.99884 1.35253e-17
6196.50237 1.34110e-17
6197.99574 1.27211e-17
6199.49927 1.35891e-17
6201.00281 1.27790e-17
6202.49618 1.15330e-17
6203.99971 1.15546e-17
6205.50324 1.18486e-17
6206.99662 1.14289e-17
6208.50015 1.18268e-17
6210.00368 1.22561e-17
6211.49705 1.17686e-17
6213.00058 1.23121e-17
6214.50412 1.29257e-17
6215.99749 1.32653e-17
6217.50102 1.35751e-17
6219.00455 1.27885e-17
6220.49793 1.29520e-17
6222.00146 1.12522e-17
6223.50499 1.10277e-17
6224.99836 1.05799e-17
6226.50190 1.03774e-17
6227.99527 1.13289e-17
6229.49880 1.23680e-17
6231.00233 1.10083e-17
6232.49571 1.13181e-17
6233.99924 1.22268e-17
6235.50277 1.22766e-17
6236.99614 1.20165e-17
6238.49967 1.29860e-17
6240.00321 1.23365e-17
6241.49658 1.18818e-17
6243.00011 1.14252e-17
6244.50364 1.13169e-17
6245.99702 1.24360e-17
6247.50055 1.29115e-17
6249.00408 1.19807e-17
6250.49745 9.86967e-18
6252.00098 9.77301e-18
6253.50452 1.03334e-17
6254.99789 1.08743e-17
6256.50142 1.10970e-17
6258.00495 1.24542e-17
6259.49833 1.00616e-17
6261.00186 1.15013e-17
6262.49523 1.11417e-17
6263.99876 8.86977e-18
6265.50230 9.48077e-18
6266.99567 1.19957e-17
6268.49920 1.14912e-17
6270.00273 9.79214e-18
6271.49611 1.13359e-17
6272.99964 1.20235e-17
6274.50317 9.72571e-18
6275.99654 9.97455e-18
6277.50007 9.95470e-18
6279.00361 1.00657e-17
6280.49698 1.19991e-17
6282.00051 1.03832e-17
6283.50404 1.03086e-17
6284.99742 1.03891e-17
6286.50095 1.14277e-17
6288.00448 1.13060e-17
6289.49785 1.14113e-17
6291.00139 1.16832e-17
6292.50492 1.15257e-17
6293.99829 1.04622e-17
6295.50182 1.02222e-17
6296.99520 1.15208e-17
6298.49873 1.25580e-17
6300.00226 1.32803e-17
6301.49563 1.12952e-17
6302.99917 9.71621e-18
6304.50270 1.04248e-17
6305.99607 1.23646e-17
6307.49960 1.20559e-17
6309.00313 1.13841e-17
6310.49651 1.17822e-17
6312.00004 1.03361e-17
6313.50357 9.71211e-18
6314.99694 1.11206e-17
6316.50048 1.13776e-17
6318.00401 1.05223e-17
6319.49738 9.38251e-18
6321.00091 1.02008e-17
6322.50445 1.20180e-17
6323.99782 1.21396e-17
6325.50135 1.12839e-17
6327.00488 1.19059e-17
6328.49826 1.23421e-17
6330.00179 1.13404e-17
6331.49516 1.05857e-17
6332.99869 1.07970e-17
6334.50222 1.10131e-17
6335.99560 1.09925e-17
6337.49913 1.00193e-17
6339.00266 1.04221e-17
6340.49603 1.15696e-17
6341.99957 9.37294e-18
6343.50310 9.18236e-18
6344.99647 1.12252e-17
6346.50000 9.87616e-18
6348.00353 9.50906e-18
6349.49691 1.20254e-17
6351.00044 1.30704e-17
6352.50397 1.23283e-17
6353.99735 1.11144e-17
6355.50088 1.10403e-17
6357.00441 1.07874e-17
6358.49778 1.17410e-17
6360.00131 1.29139e-17
6361.50485 1.19040e-17
6362.99822 1.19985e-17
6364.50175 1.26529e-17
6365.99512 1.19421e-17
6367.49866 1.17384e-17
6369.00219 1.13848e-17
6370.49556 1.07128e-17
6371.99909 1.08042e-17
6373.50263 1.19192e-17
6374.99600 1.24873e-17
6376.49953 1.01275e-17
6378.00306 9.27345e-18
6379.49644 1.13518e-17
6380.99997 1.16406e-17
6382.50350 1.10594e-17
6383.99687 1.22311e-17
6385.50040 1.22899e-17
6387.00394 1.10508e-17
6388.49731 1.01461e-17
6390.00084 1.04948e-17
6391.50437 1.00031e-17
6392.99775 1.08895e-17
6394.50128 1.19165e-17
6396.00481 1.08360e-17
6397.49818 1.10557e-17
6399.00172 1.26188e-17
6400.49509 1.32742e-17
6401.99862 1.37189e-17
6403.50215 1.16862e-17
6404.99553 1.11226e-17
6406.49906 1.25009e-17
6408.00259 1.12518e-17
6409.49596 9.66612e-18
6410.99949 1.13205e-17
6412.50303 1.23840e-17
6413.99640 1.22946e-17
6415.49993 1.34942e-17
6417.00346 1.23196e-17
6418.49684 1.04378e-17
6420.00037 1.12642e-17
6421.50390 1.28554e-17
6422.99727 1.15269e-17
6424.50080 1.19239e-17
6426.00434 1.15943e-17
6427.49771 1.10186e-17
6429.00124 1.15797e-17
6430.49462 1.14909e-17
6431.99815 1.22708e-17
6433.50168 1.11979e-17
6434.99505 1.11911e-17
6436.49858 1.19672e-17
6438.00212 1.16602e-17
6439.49549 1.07462e-17
6440.99902 1.13915e-17
6442.50255 1.21437e-17
6443.99593 1.23126e-17
6445.49946 1.05853e-17
6447.00299 1.14831e-17
6448.49636 1.12789e-17
6449.99989 1.14313e-17
6451.50343 1.12857e-17
6452.99680 1.12380e-17
6454.50033 1.20287e-17
6456.00386 1.17104e-17
6457.49724 1.10053e-17
6459.00077 1.20067e-17
6460.50430 1.30933e-17
6461.99767 1.31420e-17
6463.50121 1.27582e-17
6465.00474 1.20642e-17
6466.49811 1.12557e-17
6468.00164 1.13854e-17
6469.49502 1.33064e-17
6470.99855 1.26651e-17
6472.50208 1.16107e-17
6473.99545 1.29923e-17
6475.49899 1.15488e-17
6477.00252 1.02043e-17
6478.49589 1.15450e-17
6479.99942 1.20270e-17
6481.50295 1.25837e-17
6482.99633 1.19014e-17
6484.49986 1.17541e-17
6486.00339 1.33091e-17
6487.49676 1.30214e-17
6489.00030 1.25627e-17
6490.50383 1.37018e-17
6491.99720 1.24197e-17
6493.50073 1.25867e-17
6495.00427 1.26471e-17
6496.49764 1.26749e-17
6498.00117 1.24615e-17
6499.50470 1.19232e-17
6500.99808 1.28130e-17
6502.50161 1.41105e-17
6504.00514 1.40176e-17
6505.49851 1.29589e-17
6507.00204 1.20188e-17
6508.49542 1.13757e-17
6509.99895 1.20030e-17
6511.50248 1.35117e-17
6512.99585 1.28339e-17
6514.49939 1.33517e-17
6516.00292 1.33775e-17
6517.49629 1.31728e-17
6518.99982 1.36533e-17
6520.50335 1.29962e-17
6521.99673 1.34167e-17
6523.50026 1.37709e-17
6525.00379 1.31854e-17
6526.49717 1.25806e-17
6528.00070 1.29560e-17
6529.50423 1.43412e-17
6530.99760 1.51376e-17
6532.50113 1.39738e-17
6534.00467 1.23785e-17
6535.49804 1.32878e-17
6537.00157 1.32870e-17
6538.50510 1.09046e-17
6539.99848 1.18553e-17
6541.50201 1.38677e-17
6542.99538 1.42852e-17
6544.49891 1.34469e-17
6546.00245 1.18972e-17
6547.49582 1.25816e-17
6548.99935 1.25324e-17
6550.50288 1.23480e-17
6551.99626 1.38279e-17
6553.49979 1.33179e-17
6555.00332 1.39894e-17
6556.49669 1.43780e-17
6558.00022 1.29556e-17
6559.50376 1.23652e-17
6560.99713 1.26642e-17
6562.50066 1.22531e-17
6564.00419 1.39278e-17
6565.49757 1.27018e-17
6567.00110 1.22054e-17
6568.50463 1.31678e-17
6569.99800 1.36130e-17
6571.50153 1.39646e-17
6572.99491 1.21092e-17
6574.49844 1.19692e-17
6576.00197 1.29181e-17
6577.49535 1.37435e-17
6578.99888 1.53780e-17
6580.50241 1.39461e-17
6581.99578 1.29313e-17
6583.49931 1.34036e-17
6585.00285 1.28360e-17
6586.49622 1.33596e-17
6587.99975 1.26769e-17
6589.50328 1.12636e-17
6590.99666 1.25693e-17
6592.50019 1.36125e-17
6594.00372 1.26029e-17
6595.49709 1.23541e-17
6597.00063 1.32742e-17
6598.50416 1.38541e-17
6599.99753 1.43144e-17
6601.50106 1.39908e-17
6603.00459 1.32931e-17
6604.49797 1.29510e-17
6606.00150 1.20040e-17
6607.49487 1.23288e-17
6608.99840 1.40894e-17
6610.50194 1.35383e-17
6611.99531 1.14817e-17
6613.49884 1.18163e-17
6615.00237 1.33662e-17
6616.49575 1.37405e-17
6617.99928 1.40428e-17
6619.50281 1.41146e-17
6620.99618 1.32454e-17
6622.49972 1.27924e-17
6624.00325 1.31118e-17
6625.49662 1.39277e-17
6627.00015 1.39146e-17
6628.50368 1.24835e-17
6629.99706 1.30321e-17
6631.50059 1.39368e-17
6633.00412 1.25219e-17
6634.49749 1.24095e-17
6636.00103 1.24084e-17
6637.50456 1.24200e-17
6638.99793 1.24316e-17
6640.50146 1.24432e-17
6641.99484 1.24548e-17
6643.49837 1.24664e-17
6645.00190 1.24779e-17
6646.49527 1.24895e-17
6647.99881 1.25011e-17
6649.50234 1.25127e-17
6650.99571 1.25243e-17
6652.49924 1.25359e-17
6654.00277 1.25475e-17
6655.49615 1.25590e-17
6656.99968 1.25706e-17
6658.50321 1.25822e-17
6659.99658 1.25938e-17
6661.50012 1.26054e-17
6663.00365 1.26170e-17
6664.49702 1.26286e-17
6666.00055 1.26401e-17
6667.50408 1.26517e-17
6668.99746 1.26633e-17
6670.50099 1.26749e-17
6672.00452 1.26865e-17
6673.49790 1.26981e-17
6675.00143 1.27096e-17
6676.49480 1.27212e-17
6677.99833 1.27328e-17
6679.50186 1.27444e-17
6680.99524 1.27560e-17
6682.49877 1.27675e-17
6684.00230 1.27791e-17
6685.49567 1.27907e-17
6686.99921 1.28023e-17
6688.50274 1.28139e-17
6689.99611 1.28254e-17
6691.49964 1.28370e-17
6693.00317 1.28486e-17
6694.49655 1.28602e-17
6696.00008 1.28718e-17
6697.50361 1.28833e-17
6698.99698 1.28949e-17
6700.50052 1.31232e-17
6702.00405 1.44568e-17
6703.49742 1.40194e-17
6705.00095 1.42502e-17
6706.50449 1.37410e-17
6707.99786 1.32401e-17
6709.50139 1.37878e-17
6710.99476 1.29653e-17
6712.49830 1.24500e-17
6714.00183 1.24682e-17
6715.49520 1.26845e-17
6716.99873 1.43943e-17
6718.50227 1.29446e-17
6719.99564 1.21495e-17
6721.49917 1.17742e-17
6723.00270 1.23958e-17
6724.49608 1.21366e-17
6725.99961 1.22589e-17
6727.50314 1.36153e-17
6728.99651 1.30337e-17
6730.50004 1.25272e-17
6732.00358 1.29033e-17
6733.49695 1.34388e-17
6735.00048 1.30197e-17
6736.50401 1.22513e-17
6737.99739 1.22351e-17
6739.50092 1.24040e-17
6741.00445 1.38424e-17
6742.49782 1.36835e-17
6744.00136 1.24152e-17
6745.50489 1.29379e-17
6746.99826 1.28080e-17
6748.50179 1.30915e-17
6749.99517 1.37477e-17
6751.49870 1.30161e-17
6753.00223 1.23278e-17
6754.49560 1.36336e-17
6755.99913 1.41387e-17
6757.50267 1.26960e-17
6758.99604 1.24631e-17
6760.49957 1.30720e-17
6762.00310 1.37781e-17
6763.49648 1.37722e-17
6765.00001 1.33909e-17
6766.50354 1.34215e-17
6767.99691 1.19431e-17
6769.50045 1.16794e-17
6771.00398 1.27420e-17
6772.49735 1.35822e-17
6774.00088 1.35189e-17
6775.50441 1.38356e-17
6776.99779 1.29874e-17
6778.50132 1.24411e-17
6780.00485 1.14042e-17
6781.49822 1.26967e-17
6783.00176 1.32384e-17
6784.49513 1.34151e-17
6785.99866 1.33401e-17
6787.50219 1.09218e-17
6788.99557 1.19133e-17
6790.49910 1.35883e-17
6792.00263 1.27860e-17
6793.49600 1.21677e-17
6794.99953 1.22640e-17
6796.50307 1.22903e-17
6797.99644 1.35264e-17
6799.49997 1.18391e-17
6801.00350 1.10939e-17
6802.49688 1.16169e-17
6804.00041 1.07640e-17
6805.50394 1.05780e-17
6806.99731 1.22390e-17
6808.50085 1.37228e-17
6810.00438 1.30009e-17
6811.49775 1.27570e-17
6813.00128 1.17851e-17
6814.50482 1.18514e-17
6815.99819 1.16097e-17
6817.50172 1.11921e-17
6818.99509 1.18247e-17
6820.49863 1.20509e-17
6822.00216 1.28443e-17
6823.49553 1.31645e-17
6824.99906 1.36575e-17
6826.50259 1.27984e-17
6827.99597 1.28999e-17
6829.49950 1.30511e-17
6831.00303 1.25848e-17
6832.49640 1.30112e-17
6833.99994 1.35567e-17
6835.50347 1.14780e-17
6836.99684 1.33790e-17
6838.50037 1.28466e-17
6840.00390 1.23137e-17
6841.49728 1.15749e-17
6843.00081 1.14250e-17
6844.50434 1.24608e-17
6845.99772 1.10667e-17
6847.50125 1.11293e-17
6849.00478 1.17562e-17
6850.49815 1.12536e-17
6852.00168 1.15546e-17
6853.49506 1.10820e-17
6854.99859 1.18408e-17
6856.50212 1.30421e-17
6857.99549 1.23018e-17
6859.49903 1.14274e-17
6861.00256 1.15699e-17
6862.49593 1.20522e-17
6863.99946 1.27807e-17
6865.50300 1.30446e-17
6866.99637 1.16478e-17
6868.49990 1.06295e-17
6870.00343 9.42399e-18
6871.49680 1.13518e-17
6873.00034 1.21854e-17
6874.50387 1.13948e-17
6875.99724 1.19486e-17
6877.50077 1.14193e-17
6879.00431 1.18994e-17
6880.49768 1.21574e-17
6882.00121 1.14881e-17
6883.50474 1.12382e-17
6884.99812 1.04519e-17
6886.50165 1.17533e-17
6887.99502 1.16383e-17
6889.49855 1.10060e-17
6891.00209 1.20061e-17
6892.49546 1.20771e-17
6893.99899 1.10822e-17
6895.50252 1.01277e-17
6896.99590 1.02282e-17
6898.49943 1.12844e-17
6900.00296 1.10119e-17
6901.49633 1.06877e-17
6902.99986 1.04435e-17
6904.50340 9.62188e-18
6905.99677 8.97083e-18
6907.50030 1.03434e-17
6909.00383 9.63267e-18
6910.49721 1.03843e-17
6912.00074 1.13274e-17
6913.50427 9.21564e-18
6914.99764 1.05943e-17
6916.50118 1.13067e-17
6918.00471 9.38797e-18
6919.49808 1.16118e-17
6921.00161 1.25997e-17
6922.49498 1.25671e-17
6923.99852 9.68478e-18
6925.50205 1.03278e-17
6926.99542 1.06866e-17
6928.49895 1.01925e-17
6930.00249 1.21947e-17
6931.49586 1.10255e-17
6932.99939 9.72998e-18
6934.50292 1.06199e-17
6935.99630 1.16542e-17
6937.49983 1.14655e-17
6939.00336 1.16925e-17
6940.49673 1.08340e-17
6942.00027 1.04103e-17
6943.50380 1.06534e-17
6944.99717 1.07927e-17
6946.50070 1.14229e-17
6948.00423 1.15689e-17
6949.49761 1.20637e-17
6951.00114 1.05341e-17
6952.50467 1.05277e-17
6953.99804 1.17252e-17
6955.50158 1.06007e-17
6956.99495 1.00915e-17
6958.49848 1.03650e-17
6960.00201 1.01013e-17
6961.49539 1.09014e-17
6962.99892 1.18238e-17
6964.50245 1.15335e-17
6965.99582 1.12138e-17
6967.49935 1.09887e-17
6969.00289 1.03444e-17
6970.49626 1.11330e-17
6971.99979 1.11493e-17
6973.50332 1.02068e-17
6974.99670 9.94033e-18
6976.50023 9.98361e-18
6978.00376 1.07510e-17
6979.49713 1.09070e-17
6981.00067 1.10781e-17
6982.50420 1.07328e-17
6983.99757 1.02737e-17
6985.50110 1.11897e-17
6987.00464 1.10542e-17
6988.49801 1.05316e-17
6990.00154 1.13734e-17
6991.49491 1.14551e-17
6992.99845 1.10605e-17
6994.50198 1.18512e-17
6995.99535 1.16035e-17
6997.49888 1.09057e-17
6999.00241 1.05053e-17
7000.49579 1.06319e-17
7001.99932 1.16977e-17
7003.50285 1.07401e-17
7004.99622 1.07563e-17
7006.49976 1.14419e-17
7008.00329 1.17815e-17
7009.49666 1.10456e-17
7011.00019 1.06145e-17
7012.50373 1.06766e-17
7013.99710 1.10173e-17
7015.50063 1.14900e-17
7017.00416 1.15029e-17
7018.49753 1.19279e-17
7020.00107 1.16793e-17
7021.50460 1.15800e-17
7022.99797 1.01073e-17
7024.50150 9.73133e-18
7026.00504 1.11920e-17
7027.49841 1.14272e-17
7029.00194 1.04197e-17
7030.49531 1.15128e-17
7031.99885 1.23863e-17
7033.50238 1.17688e-17
7034.99575 1.12553e-17
7036.49928 1.14106e-17
7038.00282 1.10961e-17
7039.49619 1.11226e-17
7040.99972 1.05223e-17
7042.50325 1.04406e-17
7043.99662 1.04563e-17
7045.50016 1.18303e-17
7047.00369 1.19879e-17
7048.49706 1.19248e-17
7050.00059 1.20484e-17
7051.50413 1.17055e-17
7052.99750 1.12640e-17
7054.50103 1.06539e-17
7056.00456 1.00390e-17
7057.49794 1.23822e-17
7059.00147 1.17396e-17
7060.50500 1.09499e-17
7061.99837 1.15647e-17
7063.50191 1.25014e-17
7064.99528 1.11712e-17
7066.49881 1.19750e-17
7068.00234 1.18274e-17
7069.49572 1.12818e-17
7070.99925 1.03218e-17
7072.50278 1.14105e-17
7073.99615 1.17287e-17
7075.49968 1.10524e-17
7077.00322 1.14481e-17
7078.49659 1.15347e-17
7080.00012 1.07372e-17
7081.50365 9.94688e-18
7082.99703 1.05355e-17
7084.50056 1.08237e-17
7086.00409 1.13031e-17
7087.49746 1.02633e-17
7089.00100 1.10276e-17
7090.50453 1.04173e-17
7091.99790 9.81628e-18
7093.50143 1.14331e-17
7095.00496 1.07597e-17
7096.49834 1.06619e-17
7098.00187 1.17696e-17
7099.49524 1.17517e-17
7100.99877 1.06955e-17
7102.50231 9.96782e-18
7103.99568 9.71238e-18
7105.49921 9.76769e-18
7107.00274 1.01300e-17
7108.49612 1.05665e-17
7109.99965 9.93125e-18
7111.50318 1.09685e-17
7112.99655 1.19335e-17
7114.50008 1.08920e-17
7116.00362 1.18284e-17
7117.49699 9.96597e-18
7119.00052 9.98299e-18
7120.50405 1.05422e-17
7121.99743 1.08809e-17
7123.50096 9.97937e-18
7125.00449 1.06308e-17
7126.49786 1.15495e-17
7128.00140 1.13221e-17
7129.50493 1.10342e-17
7130.99830 1.03512e-17
7132.50183 1.10784e-17
7133.99521 1.18991e-17
7135.49874 1.15127e-17
7137.00227 1.13321e-17
7138.49564 1.03607e-17
7139.99917 1.03824e-17
7141.50271 1.05141e-17
7142.99608 1.22389e-17
7144.49961 1.07843e-17
7146.00314 1.04320e-17
7147.49652 1.02373e-17
7149.00005 9.24015e-18
7150.50358 1.07271e-17
7151.99695 1.17042e-17
7153.50049 1.07449e-17
7155.00402 9.19855e-18
7156.49739 9.93948e-18
7158.00092 1.17701e-17
7159.50446 9.81481e-18
7160.99783 8.97820e-18
7162.50136 1.06923e-17
7164.00489 1.05949e-17
7165.49827 9.95493e-18
7167.00180 1.05559e-17
7168.49517 1.22332e-17
7169.99870 1.13267e-17
7171.50223 9.35557e-18
7172.99561 1.03551e-17
7174.49914 1.12314e-17
7176.00267 1.05643e-17
7177.49604 1.09800e-17
7178.99958 1.15974e-17
7180.50311 1.04991e-17
7181.99648 8.93461e-18
7183.50001 9.73480e-18
7185.00355 9.97404e-18
7186.49692 1.01169e-17
7188.00045 1.07338e-17
7189.50398 1.02424e-17
7190.99736 9.64193e-18
7192.50089 8.55963e-18
7194.00442 9.19220e-18
7195.49779 1.11558e-17
7197.00132 8.85347e-18
7198.49470 1.03142e-17
7199.99823 1.15470e-17
7201.50176 9.60322e-18
7202.99513 8.41627e-18
7204.49867 1.10241e-17
7206.00220 1.12152e-17
7207.49557 1.14063e-17
7208.99910 1.14062e-17
7210.50263 1.24981e-17
7211.99601 1.11874e-17
7213.49954 1.04066e-17
7215.00307 9.45479e-18
7216.49645 9.97522e-18
7217.99998 1.16174e-17
7219.50351 1.19862e-17
7220.99688 1.16944e-17
7222.50041 1.12365e-17
7224.00395 1.03116e-17
7225.49732 1.08517e-17
7227.00085 1.11369e-17
7228.50438 1.00129e-17
7229.99776 1.05130e-17
7231.50129 1.12986e-17
7232.99466 1.06533e-17
7234.49819 1.05077e-17
7236.00173 1.16475e-17
7237.49510 1.07775e-17
7238.99863 9.43703e-18
7240.50216 1.01461e-17
7241.99554 1.10962e-17
7243.49907 1.22252e-17
7245.00260 1.27502e-17
7246.49597 1.20890e-17
7247.99950 1.22363e-17
7249.50304 1.20724e-17
7250.99641 1.05844e-17
7252.49994 9.34019e-18
7254.00347 1.06628e-17
7255.49685 1.24064e-17
7257.00038 1.29199e-17
7258.50391 1.21418e-17
7259.99728 1.04383e-17
7261.50082 1.06181e-17
7263.00435 1.25550e-17
7264.49772 1.31777e-17
7266.00125 1.16578e-17
7267.50478 1.17756e-17
7268.99816 1.16715e-17
7270.50169 1.13763e-17
7271.99506 1.15867e-17
7273.49859 1.28867e-17
7275.00213 1.30781e-17
7276.49550 9.90128e-18
7277.99903 1.15047e-17
7279.50256 1.21092e-17
7280.99594 1.10676e-17
7282.49947 1.14535e-17
7284.00300 1.06308e-17
7285.49637 1.07345e-17
7286.99990 1.00172e-17
7288.50344 9.45777e-18
7289.99681 1.04318e-17
7291.50034 1.09035e-17
7293.00387 1.17967e-17
7294.49725 1.30308e-17
7296.00078 1.20897e-17
7297.50431 1.09860e-17
7298.99768 1.15191e-17
7300.50122 1.23558e-17
7302.00475 1.12118e-17
7303.49812 1.09356e-17
7305.00165 1.16852e-17
7306.50518 1.09241e-17
7307.99856 1.01254e-17
7309.50209 9.77640e-18
7310.99546 1.02364e-17
7312.49899 1.15064e-17
7314.00253 1.14826e-17
7315.49590 9.82402e-18
7316.99943 1.08248e-17
7318.50296 1.22633e-17
7319.99634 1.11909e-17
7321.49987 1.10672e-17
7323.00340 1.10083e-17
7324.49677 1.13020e-17
7326.00031 1.06605e-17
7327.50384 9.58846e-18
7328.99721 1.01141e-17
7330.50074 1.02381e-17
7332.00428 1.10754e-17
7333.49765 1.12336e-17
7335.00118 1.19892e-17
7336.50471 1.15213e-17
7337.99809 1.24730e-17
7339.50162 1.30015e-17
7340.99499 9.24635e-18
7342.49852 1.08998e-17
7344.00205 1.11587e-17
7345.49543 1.00136e-17
7346.99896 1.00433e-17
7348.50249 1.29515e-17
7349.99586 1.21790e-17
7351.49940 9.67219e-18
7353.00293 9.51985e-18
7354.49630 1.01320e-17
7355.99983 1.09471e-17
7357.50337 1.09865e-17
7358.99674 1.11452e-17
7360.50027 1.04976e-17
7362.00380 9.69193e-18
7363.49718 1.11949e-17
7365.00071 1.11650e-17
7366.50424 1.07596e-17
7367.99761 1.04311e-17
7369.50114 9.42182e-18
7371.00468 9.05495e-18
7372.49805 1.00537e-17
7374.00158 9.87986e-18
7375.49495 1.10036e-17
7376.99849 1.15305e-17
7378.50202 1.13796e-17
7379.99539 1.16615e-17
7381.49892 1.09333e-17
7383.00245 1.18004e-17
7384.49583 1.28582e-17
7385.99936 1.29401e-17
7387.50289 1.19041e-17
7388.99627 9.69906e-18
7390.49980 1.02842e-17
7392.00333 1.08493e-17
7393.49670 1.05872e-17
7395.00023 1.06899e-17
7396.50377 1.11465e-17
7397.99714 1.21418e-17
7399.50067 1.11159e-17
7401.00420 9.36601e-18
7402.49758 1.03694e-17
7404.00111 1.14860e-17
7405.50464 1.07024e-17
7406.99801 1.13702e-17
7408.50155 1.07256e-17
7409.99492 1.21932e-17
7411.49845 1.13452e-17
7413.00198 1.22959e-17
7414.49536 1.09625e-17
7415.99889 1.19718e-17
7417.50242 1.24145e-17
7418.99579 1.13615e-17
7420.49932 1.26019e-17
7422.00286 1.06915e-17
7423.49623 9.42064e-18
7424.99976 1.12293e-17
7426.50329 1.22310e-17
7427.99667 1.10996e-17
7429.50020 1.11252e-17
7431.00373 1.04015e-17
7432.49710 1.05637e-17
7434.00063 1.09764e-17
7435.50417 1.13054e-17
7436.99754 1.27564e-17
7438.50107 1.25784e-17
7440.00460 1.04352e-17
7441.49798 9.96332e-18
7443.00151 1.08692e-17
7444.49488 1.08532e-17
7445.99841 1.03998e-17
7447.50195 1.07237e-17
7448.99532 1.10526e-17
7450.49885 1.12695e-17
7452.00238 9.67166e-18
7453.49576 9.62663e-18
7454.99929 1.11556e-17
7456.50282 1.16058e-17
7457.99619 1.18733e-17
7459.49973 1.24886e-17
7461.00326 1.15357e-17
7462.49663 1.19145e-17
7464.00016 1.25305e-17
7465.50369 1.19759e-17
7466.99707 1.12792e-17
7468.50060 9.78748e-18
7470.00413 1.05117e-17
7471.49750 1.14215e-17
7473.00104 1.15285e-17
7474.50457 1.06425e-17
7475.99794 1.14428e-17
7477.50147 1.23733e-17
7478.99485 1.27264e-17
7480.49838 1.13876e-17
7482.00191 1.11369e-17
7483.49528 1.25074e-17
7484.99882 1.19273e-17
7486.50235 1.15168e-17
7487.99572 9.80492e-18
7489.49925 1.16110e-17
7491.00278 1.08365e-17
7492.49616 1.18648e-17
7493.99969 1.05635e-17
7495.50322 1.07575e-17
7496.99659 1.27159e-17
7498.50013 1.01795e-17
7500.00366 1.17220e-17
7501.49703 1.18338e-17
7503.00056 1.09319e-17
7504.50410 1.22450e-17
7505.99747 1.14533e-17
7507.50100 9.66780e-18
7509.00453 1.02006e-17
7510.49791 1.05260e-17
7512.00144 1.14591e-17
7513.49481 1.25013e-17
7514.99834 1.22296e-17
7516.50187 1.01847e-17
7517.99525 9.82433e-18
7519.49878 9.33122e-18
7521.00231 9.78194e-18
7522.49568 1.14569e-17
7523.99922 1.10938e-17
7525.50275 1.20110e-17
7526.99612 1.24692e-17
7528.49965 1.04768e-17
7530.00318 1.12780e-17
7531.49656 1.16419e-17
7533.00009 1.10964e-17
7534.50362 9.37030e-18
7535.99700 7.81779e-18
7537.50053 8.59873e-18
7539.00406 1.04510e-17
7540.49743 1.08378e-17
7540.82765 1.08378e-17
7541.68911 1.07670e-17
7542.55058 1.07058e-17
7543.41204 1.06445e-17
7544.27350 1.05912e-17
7545.13496 1.05379e-17
7545.99642 1.04842e-17
7546.86790 1.04306e-17
7547.72936 1.03662e-17
7548.59083 1.03018e-17
7549.45229 1.02266e-17
7550.31375 1.01514e-17
7551.17521 1.00707e-17
7552.03667 9.98992e-18
7552.89814 9.90924e-18
7553.75960 9.82856e-18
7554.62106 9.75416e-18
7555.48252 9.67977e-18
7556.35400 9.61302e-18
7557.21546 9.54628e-18
7558.07693 9.48309e-18
7558.93839 9.41990e-18
7559.79985 9.35677e-18
7560.66131 9.29363e-18
7561.52277 9.22882e-18
7562.38424 9.16400e-18
7563.24570 9.09465e-18
7564.10716 9.02530e-18
7564.96862 8.94521e-18
7565.84010 8.86510e-18
7566.70156 8.77420e-18
7567.56302 8.68329e-18
7568.42449 8.59901e-18
7569.28595 8.51476e-18
7570.14741 8.45163e-18
7571.00887 8.38855e-18
7571.87033 8.34870e-18
7572.73180 8.30889e-18
7573.59326 8.28995e-18
7574.45472 8.27107e-18
7575.31618 8.24668e-18
7576.18766 8.22229e-18
7577.04912 8.16349e-18
7577.91059 8.10463e-18
7578.77205 8.02725e-18
7579.63351 7.94984e-18
7580.49497 7.87921e-18
7581.35643 7.80860e-18
7582.21790 7.74071e-18
7583.07936 7.67284e-18
7583.94082 7.59590e-18
7584.81230 7.51895e-18
7585.67376 7.39033e-18
7586.53522 7.26159e-18
7587.39668 7.02212e-18
7588.25815 6.78244e-18
7589.11961 6.44382e-18
7589.98107 6.10502e-18
7590.84253 5.73785e-18
7591.70399 5.37064e-18
7592.56546 5.04215e-18
7593.42692 4.71373e-18
7594.28838 4.48688e-18
7595.15986 4.26023e-18
7596.02132 4.16643e-18
7596.88278 4.07289e-18
7597.74425 4.08176e-18
7598.60571 4.09083e-18
7599.46717 4.18039e-18
7600.32863 4.27009e-18
7601.19009 4.45698e-18
7602.05156 4.64404e-18
7602.91302 4.92870e-18
7603.77448 5.21352e-18
7604.64596 5.55916e-18
7605.50742 5.90490e-18
7606.36888 6.26755e-18
7607.23034 6.63022e-18
7608.09181 6.96522e-18
7608.95327 7.30016e-18
7609.81473 7.56285e-18
7610.67619 7.82539e-18
7611.53765 7.95331e-18
7612.39912 8.08094e-18
7613.26058 8.02383e-18
7614.13206 7.96635e-18
7614.99352 7.72696e-18
7615.85498 7.48721e-18
7616.71644 7.09379e-18
7617.57791 6.70007e-18
7618.43937 6.27009e-18
7619.30083 5.84006e-18
7620.16229 5.53182e-18
7621.02375 5.22383e-18
7621.88522 5.09722e-18
7622.74668 4.97098e-18
7623.61816 5.01345e-18
7624.47962 5.05625e-18
7625.34108 5.21343e-18
7626.20254 5.37084e-18
7627.06400 5.54287e-18
7627.92547 5.71491e-18
7628.78693 5.84626e-18
7629.64839 5.97752e-18
7630.50985 6.08917e-18
7631.37131 6.20077e-18
7632.23278 6.30635e-18
7633.10426 6.41191e-18
7633.96572 6.51087e-18
7634.82718 6.60982e-18
7635.68864 6.70217e-18
7636.55010 6.79451e-18
7637.41157 6.86208e-18
7638.27303 6.92959e-18
7639.13449 6.96317e-18
7639.99595 6.99669e-18
7640.85741 7.02822e-18
7641.71888 7.05974e-18
7642.59035 7.12087e-18
7643.45182 7.18203e-18
7644.31328 7.28626e-18
7645.17474 7.39057e-18
7646.03620 7.54364e-18
7646.89766 7.69681e-18
7647.75913 7.85743e-18
7648.62059 8.01805e-18
7649.48205 8.13412e-18
7650.34351 8.25010e-18
7651.20497 8.31055e-18
7652.06644 8.37089e-18
7652.93792 8.38149e-18
7653.79938 8.39199e-18
7654.66084 8.39269e-18
7655.52230 8.39338e-18
7656.38376 8.44588e-18
7657.24523 8.49849e-18
7658.10669 8.61275e-18
7658.96815 8.72714e-18
7659.82961 8.86930e-18
7660.69107 9.01151e-18
7661.55254 9.15278e-18
7662.42401 9.29404e-18
7663.28548 9.40832e-18
7664.14694 9.52254e-18
7665.00840 9.60827e-18
7665.86986 9.69394e-18
7666.73132 9.80061e-18
7667.59279 9.90733e-18
7668.45425 1.00579e-17
7669.31571 1.02086e-17
7670.17717 1.03562e-17
7671.03863 1.05038e-17
7671.91011 1.06105e-17
7672.77158 1.07172e-17
7673.63304 1.07761e-17
7674.49450 1.08349e-17
7675.35596 1.08487e-17
7676.21742 1.08624e-17
7677.07889 1.08868e-17
7677.94035 1.09112e-17
7678.80181 1.10020e-17
7679.66327 1.10931e-17
7680.52473 1.12175e-17
7681.38620 1.13419e-17
7682.25767 1.14478e-17
7683.11914 1.15538e-17
7683.98060 1.16411e-17
7684.84206 1.17284e-17
7685.70352 1.18117e-17
7686.56498 1.18950e-17
7687.42645 1.19778e-17
7688.28791 1.20605e-17
7689.14937 1.21440e-17
7690.01083 1.22274e-17
7690.88231 1.23035e-17
7691.74377 1.23796e-17
7692.60524 1.24323e-17
7693.46670 1.24851e-17
7694.32816 1.25183e-17
7695.18962 1.25516e-17
7696.05108 1.25899e-17
7696.91255 1.26283e-17
7697.77401 1.26811e-17
7698.63547 1.27338e-17
7699.49693 1.27885e-17
7700.35839 1.28430e-17
7701.22987 1.28891e-17
7702.09133 1.29353e-17
7702.95280 1.29666e-17
7703.81426 1.29978e-17
7704.67572 1.30100e-17
7705.53718 1.30220e-17
7706.39864 1.30160e-17
7707.26011 1.30098e-17
7708.12157 1.29909e-17
7708.98303 1.29719e-17
7709.84449 1.29621e-17
7710.71597 1.29524e-17
7711.57743 1.29713e-17
7712.43890 1.29903e-17
7713.30036 1.30333e-17
7714.16182 1.30764e-17
7715.02328 1.31327e-17
7715.88474 1.31891e-17
7716.74620 1.32415e-17
7717.60767 1.32939e-17
7718.46913 1.33236e-17
7719.33059 1.33534e-17
7720.20207 1.33592e-17
7721.06353 1.33649e-17
7721.92499 1.33535e-17
7722.78646 1.33421e-17
7723.64792 1.33253e-17
7724.50938 1.33085e-17
7725.37084 1.33019e-17
7726.23230 1.32952e-17
7727.09377 1.33039e-17
7727.95523 1.33127e-17
7728.81669 1.33315e-17
7729.67815 1.33504e-17
7730.54963 1.33783e-17
7731.41109 1.34063e-17
7732.27255 1.34492e-17
7733.13402 1.34919e-17
7733.99548 1.35429e-17
7734.85694 1.35937e-17
7735.71840 1.36251e-17
7736.57986 1.36565e-17
7737.44133 1.36528e-17
7738.30279 1.36492e-17
7739.17427 1.36217e-17
7740.03573 1.35942e-17
7740.89719 1.35575e-17
7741.75865 1.35208e-17
7742.62012 1.34968e-17
7743.48158 1.34727e-17
7744.34304 1.34791e-17
7745.20450 1.34855e-17
7746.06596 1.35102e-17
7746.92743 1.35350e-17
7747.78889 1.35616e-17
7748.65035 1.35881e-17
7749.52183 1.36106e-17
7750.38329 1.36330e-17
7751.24475 1.36470e-17
7752.10621 1.36610e-17
7752.96768 1.36666e-17
7753.82914 1.36722e-17
7754.69060 1.36725e-17
7755.55206 1.36727e-17
7756.41352 1.36639e-17
7757.27499 1.36550e-17
7758.13645 1.36297e-17
7759.00793 1.36045e-17
7759.86939 1.35701e-17
7760.73085 1.35356e-17
7761.59231 1.35094e-17
7762.45378 1.34832e-17
7763.31524 1.34693e-17
7764.17670 1.34553e-17
7765.03816 1.34446e-17
7765.89962 1.34339e-17
7766.76109 1.34195e-17
7767.62255 1.34051e-17
7768.49403 1.33817e-17
7769.35549 1.33581e-17
7770.21695 1.33253e-17
7771.07841 1.32924e-17
7771.93988 1.32612e-17
7772.80134 1.32302e-17
7773.66280 1.32091e-17
7774.52426 1.31879e-17
7775.38572 1.31725e-17
7776.24719 1.31571e-17
7777.10865 1.31439e-17
7777.98013 1.31309e-17
7778.84159 1.31220e-17
7779.70305 1.31131e-17
7780.56451 1.31103e-17
7781.42597 1.31074e-17
7782.28744 1.31102e-17
7783.14890 1.31129e-17
7784.01036 1.31200e-17
7784.87182 1.31271e-17
7785.73328 1.31376e-17
7786.59475 1.31482e-17
7787.46623 1.31610e-17
7788.32769 1.31738e-17
7789.18915 1.31852e-17
7790.05061 1.31965e-17
7790.91207 1.32023e-17
7791.77354 1.32079e-17
7792.63500 1.32058e-17
7793.49646 1.32037e-17
7794.35792 1.31932e-17
7795.21938 1.31825e-17
7796.08085 1.31684e-17
7796.94231 1.31543e-17
7797.81379 1.31456e-17
7798.67525 1.31370e-17
7799.53671 1.31407e-17
7800.39817 1.31444e-17
7801.25963 1.31649e-17
7802.12110 1.31855e-17
7802.98256 1.32194e-17
7803.84402 1.32534e-17
7804.70548 1.32835e-17
7805.56694 1.33137e-17
7806.42841 1.33277e-17
7807.29989 1.33417e-17
7808.16135 1.33410e-17
7809.02281 1.33403e-17
7809.88427 1.33272e-17
7810.74573 1.33140e-17
7811.60720 1.32912e-17
7812.46866 1.32683e-17
7813.33012 1.32399e-17
7814.19158 1.32115e-17
7815.05304 1.31826e-17
7815.91450 1.31537e-17
7816.78598 1.31293e-17
7817.64745 1.31048e-17
7818.50891 1.30906e-17
7819.37037 1.30764e-17
7820.23183 1.30770e-17
7821.09329 1.30777e-17
7821.95476 1.30827e-17
7822.81622 1.30877e-17
7823.67768 1.30810e-17
7824.53914 1.30743e-17
7825.40060 1.30540e-17
7826.27208 1.30336e-17
7827.13355 1.30046e-17
7827.99501 1.29756e-17
7828.85647 1.29418e-17
7829.71793 1.29082e-17
7830.57939 1.28739e-17
7831.44085 1.28396e-17
7832.30232 1.28074e-17
7833.16378 1.27752e-17
7834.02524 1.27451e-17
7834.88670 1.27150e-17
7835.75818 1.26898e-17
7836.61964 1.26646e-17
7837.48111 1.26521e-17
7838.34257 1.26397e-17
7839.20403 1.26421e-17
7840.06549 1.26444e-17
7840.92695 1.26528e-17
7841.78842 1.26611e-17
7842.64988 1.26678e-17
7843.51134 1.26745e-17
7844.37280 1.26760e-17
7845.23426 1.26776e-17
7846.10574 1.26718e-17
7846.96720 1.26662e-17
7847.82867 1.26561e-17
7848.69013 1.26461e-17
7849.55159 1.26353e-17
7850.41305 1.26246e-17
7851.27452 1.26154e-17
7852.13598 1.26060e-17
7852.99744 1.25999e-17
7853.85890 1.25937e-17
7854.72036 1.25918e-17
7855.59184 1.25899e-17
7856.45330 1.25930e-17
7857.31477 1.25961e-17
7858.17623 1.25994e-17
7859.03769 1.26026e-17
7859.89915 1.25984e-17
7860.76061 1.25942e-17
7861.62208 1.25832e-17
7862.48354 1.25721e-17
7863.34500 1.25603e-17
7864.20646 1.25484e-17
7865.07794 1.25327e-17
7865.93940 1.25170e-17
7866.80087 1.24869e-17
7867.66233 1.24569e-17
7868.52379 1.24114e-17
7869.38525 1.23660e-17
7870.24671 1.23138e-17
7871.10818 1.22616e-17
7871.96964 1.22147e-17
7872.83110 1.21678e-17
7873.69256 1.21458e-17
7874.56404 1.21241e-17
7875.42550 1.21349e-17
7876.28696 1.21457e-17
7877.14843 1.21671e-17
7878.00989 1.21884e-17
7878.87135 1.21998e-17
7879.73281 1.22113e-17
7880.59427 1.22066e-17
7881.45574 1.22019e-17
7882.31720 1.21777e-17
7883.17866 1.21535e-17
7884.05014 1.21184e-17
7884.91160 1.20832e-17
7885.77306 1.20478e-17
7886.63453 1.20124e-17
7887.49599 1.19760e-17
7888.35745 1.19394e-17
7889.21891 1.18992e-17
7890.08037 1.18591e-17
7890.94184 1.18175e-17
7891.80330 1.17760e-17
7892.66476 1.17355e-17
7893.52622 1.16952e-17
7894.39770 1.16664e-17
7895.25916 1.16377e-17
7896.12062 1.16352e-17
7896.98209 1.16325e-17
7897.84355 1.16479e-17
7898.70501 1.16632e-17
7899.56647 1.16722e-17
7900.42793 1.16812e-17
7901.28940 1.16732e-17
7902.15086 1.16653e-17
7903.01232 1.16430e-17
7903.88380 1.16206e-17
7904.74526 1.15908e-17
7905.60672 1.15611e-17
7906.46819 1.15394e-17
7907.32965 1.15177e-17
7908.19111 1.15102e-17
7909.05257 1.15027e-17
7909.91403 1.14919e-17
7910.77550 1.14812e-17
7911.63696 1.14568e-17
7912.49842 1.14324e-17
7913.36990 1.14069e-17
7914.23136 1.13813e-17
7915.09282 1.13650e-17
7915.95428 1.13487e-17
7916.81575 1.13423e-17
7917.67721 1.13359e-17
7918.53867 1.13381e-17
7919.40013 1.13403e-17
7920.26159 1.13357e-17
7921.12306 1.13312e-17
7921.98452 1.13045e-17
7922.85600 1.12776e-17
7923.71746 1.12381e-17
7924.57892 1.11986e-17
7925.44038 1.11629e-17
7926.30185 1.11272e-17
7927.16331 1.11050e-17
7928.02477 1.10828e-17
7928.88623 1.10807e-17
7929.74769 1.10786e-17
7930.60916 1.10924e-17
7931.47062 1.11062e-17
7932.34210 1.11246e-17
7933.20356 1.11431e-17
7934.06502 1.11563e-17
7934.92648 1.11696e-17
7935.78794 1.11696e-17
7936.64941 1.11697e-17
7937.51087 1.11524e-17
7938.37233 1.11349e-17
7939.23379 1.11010e-17
7940.09525 1.10671e-17
7940.95672 1.10216e-17
7941.81818 1.09761e-17
7942.68966 1.09304e-17
7943.55112 1.08847e-17
7944.41258 1.08477e-17
7945.27404 1.08107e-17
7946.13551 1.07840e-17
7946.99697 1.07572e-17
7947.85843 1.07406e-17
7948.71989 1.07238e-17
7949.58135 1.07142e-17
7950.44282 1.07046e-17
7951.30428 1.06977e-17
7952.17576 1.06908e-17
7953.03722 1.06774e-17
7953.89868 1.06640e-17
7954.76014 1.06362e-17
7955.62160 1.06084e-17
7956.48307 1.05778e-17
7957.34453 1.05471e-17
7958.20599 1.05287e-17
7959.06745 1.05104e-17
7959.92891 1.05054e-17
7960.79038 1.05003e-17
7961.66186 1.05055e-17
7962.52332 1.05105e-17
7963.38478 1.05177e-17
7964.24624 1.05249e-17
7965.10770 1.05227e-17
7965.96917 1.05204e-17
7966.83063 1.05154e-17
7967.69209 1.05103e-17
7968.55355 1.05215e-17
7969.41501 1.05327e-17
7970.27648 1.05646e-17
7971.14795 1.05966e-17
7972.00942 1.06396e-17
7972.87088 1.06826e-17
7973.73234 1.07236e-17
7974.59380 1.07648e-17
7975.45526 1.07853e-17
7976.31673 1.08058e-17
7977.17819 1.07977e-17
7978.03965 1.07895e-17
7978.90111 1.07681e-17
7979.76257 1.07466e-17
7980.63405 1.07253e-17
7981.49552 1.07041e-17
7982.35698 1.06862e-17
7983.21844 1.06683e-17
7984.07990 1.06560e-17
7984.94136 1.06437e-17
7985.80283 1.06324e-17
7986.66429 1.06212e-17
7987.52575 1.06062e-17
7988.38721 1.05912e-17
7989.24867 1.05745e-17
7990.11014 1.05577e-17
7990.98161 1.05417e-17
7991.84308 1.05257e-17
7992.70454 1.05154e-17
7993.56600 1.05050e-17
7994.42746 1.05060e-17
7995.28892 1.05070e-17
7996.15039 1.05081e-17
7997.01185 1.05091e-17
7997.87331 1.04924e-17
7998.73477 1.04757e-17
7999.59623 1.04433e-17
8000.46771 1.04110e-17
8001.32917 1.03766e-17
8002.19064 1.03421e-17
8003.05210 1.03158e-17
8003.91356 1.02896e-17
8004.77502 1.02801e-17
8005.63649 1.02707e-17
8006.49795 1.02758e-17
8007.35941 1.02809e-17
8008.22087 1.02828e-17
8009.08233 1.02847e-17
8009.95381 1.02776e-17
8010.81527 1.02704e-17
8011.67674 1.02713e-17
8012.53820 1.02722e-17
8013.39966 1.02894e-17
8014.26112 1.03066e-17
8015.12258 1.03280e-17
8015.98405 1.03495e-17
8016.84551 1.03638e-17
8017.70697 1.03781e-17
8018.56843 1.03737e-17
8019.43991 1.03692e-17
8020.30137 1.03389e-17
8021.16284 1.03085e-17
8022.02430 1.02716e-17
8022.88576 1.02346e-17
8023.74722 1.02121e-17
8024.60868 1.01898e-17
8025.47015 1.01813e-17
8026.33161 1.01729e-17
8027.19307 1.01727e-17
8028.05453 1.01725e-17
8028.92601 1.01736e-17
8029.78747 1.01747e-17
8030.64893 1.01690e-17
8031.51040 1.01633e-17
8032.37186 1.01516e-17
8033.23332 1.01399e-17
8034.09478 1.01278e-17
8034.95624 1.01158e-17
8035.81771 1.01071e-17
8036.67917 1.00983e-17
8037.54063 1.00950e-17
8038.41211 1.00918e-17
8039.27357 1.00947e-17
8040.13503 1.00977e-17
8040.99650 1.01060e-17
8041.85796 1.01143e-17
8042.71942 1.01251e-17
8043.58088 1.01359e-17
8044.44234 1.01444e-17
8045.30380 1.01529e-17
8046.16527 1.01554e-17
8047.02673 1.01579e-17
8047.88819 1.01528e-17
8048.75967 1.01476e-17
8049.62113 1.01356e-17
8050.48259 1.01236e-17
8051.34406 1.01137e-17
8052.20552 1.01038e-17
8053.06698 1.01026e-17
8053.92844 1.01013e-17
8054.78990 1.01037e-17
8055.65137 1.01061e-17
8056.51283 1.01059e-17
8057.37429 1.01056e-17
8058.24577 1.00951e-17
8059.10723 1.00846e-17
8059.96869 1.00575e-17
8060.83015 1.00303e-17
8061.69162 9.99178e-18
8062.55308 9.95323e-18
8063.41454 9.91217e-18
8064.27600 9.87112e-18
8065.13746 9.83763e-18
8065.99893 9.80416e-18
8066.86039 9.78811e-18
8067.73187 9.77211e-18
8068.59333 9.77407e-18
8069.45479 9.77607e-18
8070.31625 9.79075e-18
8071.17772 9.80546e-18
8072.03918 9.82233e-18
8072.90064 9.83920e-18
8073.76210 9.84324e-18
8074.62356 9.84723e-18
8075.48503 9.83288e-18
8076.34649 9.81848e-18
8077.21797 9.79291e-18
8078.07943 9.76732e-18
8078.94089 9.73501e-18
8079.80235 9.70269e-18
8080.66381 9.66281e-18
8081.52528 9.62290e-18
8082.38674 9.57607e-18
8083.24820 9.52920e-18
8084.10966 9.47738e-18
8084.97113 9.42554e-18
8085.83259 9.37108e-18
8086.70407 9.31659e-18
8087.56553 9.26292e-18
8088.42699 9.20926e-18
8089.28845 9.15963e-18
8090.14991 9.11001e-18
8091.01138 9.06736e-18
8091.87284 9.02473e-18
8092.73430 8.99060e-18
8093.59576 8.95650e-18
8094.45722 8.93025e-18
8095.31869 8.90403e-18
8096.18015 8.88355e-18
8097.05163 8.86310e-18
8097.91309 8.83699e-18
8098.77455 8.81087e-18
8099.63601 8.76561e-18
8100.49748 8.72031e-18
8101.35894 8.65162e-18
8102.22040 8.58287e-18
8103.08186 8.49164e-18
8103.94332 8.40034e-18
8104.80479 8.29760e-18
8105.67626 8.19483e-18
8106.53773 8.09850e-18
8107.39919 8.00220e-18
8108.26065 7.92347e-18
8109.12211 7.84478e-18
8109.98357 7.78743e-18
8110.84504 7.73013e-18
8111.70650 7.68915e-18
8112.56796 7.64819e-18
8113.42942 7.60600e-18
8114.29088 7.56381e-18
8115.15235 7.50620e-18
8116.02383 7.44858e-18
8116.88529 7.36953e-18
8117.74675 7.29045e-18
8118.60821 7.18883e-18
8119.46967 7.08716e-18
8120.33114 6.97762e-18
8121.19260 6.86808e-18
8122.05406 6.76234e-18
8122.91552 6.65663e-18
8123.77698 6.54163e-18
8124.63845 6.42661e-18
8125.49991 6.29022e-18
8126.37139 6.15377e-18
8127.23285 6.00247e-18
8128.09431 5.85114e-18
8128.95577 5.69451e-18
8129.81723 5.53787e-18
8130.67870 5.39424e-18
8131.54016 5.25064e-18
8132.40162 5.13973e-18
8133.26308 5.02891e-18
8134.12454 4.94013e-18
8134.99602 4.85142e-18
8135.85749 4.76105e-18
8136.71895 4.67068e-18
8137.58041 4.56973e-18
8138.44187 4.46875e-18
8139.30333 4.35687e-18
8140.16480 4.24495e-18
8141.02626 4.12500e-18
8141.88772 4.00502e-18
8142.74918 3.88368e-18
8143.61064 3.76233e-18
8144.47210 3.64620e-18
8145.34358 3.53009e-18
8146.20505 3.42448e-18
8147.06651 3.31891e-18
8147.92797 3.22753e-18
8148.78943 3.13620e-18
8149.65089 3.06022e-18
8150.51236 2.98430e-18
8151.37382 2.92186e-18
8152.23528 2.85946e-18
8153.09674 2.80232e-18
8153.95820 2.74519e-18
8154.82968 2.68669e-18
8155.69115 2.62820e-18
8156.55261 2.56898e-18
8157.41407 2.50975e-18
8158.27553 2.45182e-18
8159.13699 2.39391e-18
8159.99845 2.34221e-18
8160.85992 2.29052e-18
8161.72138 2.24990e-18
8162.58284 2.20929e-18
8163.44430 2.18120e-18
8164.31578 2.15314e-18
8165.17724 2.13734e-18
8166.03871 2.12155e-18
8166.90017 2.11050e-18
8167.76163 2.09946e-18
8168.62309 2.08403e-18
8169.48455 2.06860e-18
8170.34602 2.04118e-18
8171.20748 2.01373e-18
8172.06894 1.96710e-18
8172.93040 1.92041e-18
8173.80188 1.86687e-18
8174.66334 1.81333e-18
8175.52481 1.77951e-18
8176.38627 1.74574e-18
8177.24773 1.73755e-18
8178.10919 1.72943e-18
8178.97065 1.73146e-18
8179.83212 1.73351e-18
8180.69358 1.73400e-18
8181.55504 1.73449e-18
8182.41650 1.72605e-18
8183.28798 1.71761e-18
8184.14944 1.69755e-18
8185.01090 1.67748e-18
8185.87237 1.65577e-18
8186.73383 1.63404e-18
8187.59529 1.61779e-18
8188.45675 1.60153e-18
8189.31821 1.58523e-18
8190.17968 1.56892e-18
8191.04114 1.54874e-18
8191.90260 1.52853e-18
8192.77408 1.50914e-18
8193.63554 1.48974e-18
8194.49700 1.47590e-18
8195.35846 1.46207e-18
8196.21993 1.45802e-18
8197.08139 1.45400e-18
8197.94285 1.46296e-18
8198.80431 1.47194e-18
8199.66577 1.48622e-18
8200.52724 1.50051e-18
8201.38870 1.50938e-18
8202.25016 1.51823e-18
8203.12164 1.51959e-18
8203.98310 1.52094e-18
8204.84456 1.51654e-18
8205.70603 1.51213e-18
8206.56749 1.50285e-18
8207.42895 1.49356e-18
8208.29041 1.48016e-18
8209.15187 1.46674e-18
8210.01334 1.45139e-18
8210.87480 1.43603e-18
8211.73626 1.42155e-18
8212.60774 1.40708e-18
8213.46920 1.39468e-18
8214.33066 1.38229e-18
8215.19212 1.37177e-18
8216.05359 1.36125e-18
8216.91505 1.34926e-18
8217.77651 1.33727e-18
8218.63797 1.31455e-18
8219.49943 1.29180e-18
8220.36090 1.25480e-18
8221.22236 1.21777e-18
8222.08382 1.17598e-18
8222.95530 1.13417e-18
8223.81676 1.09815e-18
8224.67822 1.06215e-18
8225.53969 1.04517e-18
8226.40115 1.02825e-18
8227.26261 1.03988e-18
8228.12407 1.05158e-18
8228.98553 1.08291e-18
8229.84700 1.11429e-18
8230.70846 1.15292e-18
8231.57994 1.19159e-18
8232.44140 1.22550e-18
8233.30286 1.25941e-18
8234.16432 1.27743e-18
8235.02578 1.29541e-18
8235.88725 1.30123e-18
8236.74871 1.30701e-18
8237.61017 1.30996e-18
8238.47163 1.31291e-18
8239.33309 1.31948e-18
8240.19456 1.32607e-18
8241.06604 1.34169e-18
8241.92750 1.35733e-18
8242.78896 1.37882e-18
8243.65042 1.40033e-18
8244.51188 1.41793e-18
8245.37335 1.43554e-18
8246.23481 1.44447e-18
8247.09627 1.45337e-18
8247.95773 1.45416e-18
8248.81919 1.45492e-18
8249.68066 1.44951e-18
8250.54212 1.44410e-18
8251.41360 1.43684e-18
8252.27506 1.42958e-18
8253.13652 1.42452e-18
8253.99798 1.41947e-18
8254.85945 1.41906e-18
8255.72091 1.41867e-18
8256.58237 1.42431e-18
8257.44383 1.42996e-18
8258.30529 1.44068e-18
8259.16676 1.45141e-18
8260.02822 1.46514e-18
8260.89970 1.47889e-18
8261.76116 1.49184e-18
8262.62262 1.50481e-18
8263.48408 1.51324e-18
8264.34554 1.52167e-18
8265.20701 1.52222e-18
8266.06847 1.52276e-18
8266.92993 1.51321e-18
8267.79139 1.50365e-18
8268.65285 1.48908e-18
8269.52433 1.47450e-18
8270.38580 1.46197e-18
8271.24726 1.44944e-18
8272.10872 1.44367e-18
8272.97018 1.43792e-18
8273.83164 1.44258e-18
8274.69311 1.44727e-18
8275.55457 1.45870e-18
8276.41603 1.47014e-18
8277.27749 1.48009e-18
8278.13895 1.49004e-18
8279.01043 1.49514e-18
8279.87189 1.50023e-18
8280.73336 1.50127e-18
8281.59482 1.50231e-18
8282.45628 1.50180e-18
8283.31774 1.50127e-18
8284.17920 1.50441e-18
8285.04067 1.50756e-18
8285.90213 1.51633e-18
8286.76359 1.52511e-18
8287.62505 1.53480e-18
8288.48651 1.54449e-18
8289.34798 1.55259e-18
8290.21946 1.56069e-18
8291.08092 1.57096e-18
8291.94238 1.58124e-18
8292.80384 1.59584e-18
8293.66530 1.61045e-18
8294.52677 1.62558e-18
8295.38823 1.64069e-18
8296.24969 1.65280e-18
8297.11115 1.66491e-18
8297.97261 1.67172e-18
8298.83408 1.67853e-18
8299.70555 1.67870e-18
8300.56702 1.67886e-18
8301.42848 1.68042e-18
8302.28994 1.68198e-18
8303.15140 1.69441e-18
8304.01286 1.70686e-18
8304.87433 1.72651e-18
8305.73579 1.74617e-18
8306.59725 1.76513e-18
8307.45871 1.78409e-18
8308.32017 1.79758e-18
8309.18164 1.81105e-18
8310.05312 1.81554e-18
8310.91458 1.82002e-18
8311.77604 1.81926e-18
8312.63750 1.81849e-18
8313.49896 1.82155e-18
8314.36043 1.82462e-18
8315.22189 1.83659e-18
8316.08335 1.84859e-18
8316.94481 1.87049e-18
8317.80627 1.89242e-18
8318.67775 1.92167e-18
8319.53921 1.95095e-18
8320.40068 1.97940e-18
8321.26214 2.00786e-18
8322.12360 2.02970e-18
8322.98506 2.05152e-18
8323.84652 2.06665e-18
8324.70799 2.08178e-18
8325.56945 2.09098e-18
8326.43091 2.10018e-18
8327.29237 2.10571e-18
8328.16385 2.11124e-18
8329.02531 2.11594e-18
8329.88678 2.12062e-18
8330.74824 2.12608e-18
8331.60970 2.13154e-18
8332.47116 2.13938e-18
8333.33262 2.14722e-18
8334.19408 2.16135e-18
8335.05555 2.17551e-18
8335.91701 2.19922e-18
8336.77847 2.22295e-18
8337.64995 2.25368e-18
8338.51141 2.28442e-18
8339.37287 2.31779e-18
8340.23434 2.35117e-18
8341.09580 2.38116e-18
8341.95726 2.41115e-18
8342.81872 2.43125e-18
8343.68018 2.45133e-18
8344.54165 2.46169e-18
8345.40311 2.47202e-18
8346.26457 2.47720e-18
8347.12603 2.48235e-18
8347.99751 2.48605e-18
8348.85897 2.48976e-18
8349.72043 2.49477e-18
8350.58190 2.49978e-18
8351.44336 2.50932e-18
8352.30482 2.51888e-18
8353.16628 2.53636e-18
8354.02775 2.55386e-18
8354.88921 2.57968e-18
8355.75067 2.60552e-18
8356.62215 2.63546e-18
8357.48361 2.66543e-18
8358.34507 2.69528e-18
8359.20653 2.72514e-18
8360.06800 2.75126e-18
8360.92946 2.77735e-18
8361.79092 2.79751e-18
8362.65238 2.81765e-18
8363.51384 2.83567e-18
8364.37531 2.85367e-18
8365.23677 2.87326e-18
8366.10825 2.89286e-18
8366.96971 2.91160e-18
8367.83117 2.93033e-18
8368.69263 2.94563e-18
8369.55410 2.96094e-18
8370.41556 2.97530e-18
8371.27702 2.98968e-18
8372.13848 3.00655e-18
8372.99994 3.02343e-18
8373.86140 3.04467e-18
8374.72287 3.06593e-18
8375.59435 3.09276e-18
8376.45581 3.11960e-18
8377.31727 3.15176e-18
8378.17873 3.18393e-18
8379.04019 3.22018e-18
8379.90166 3.25643e-18
8380.76312 3.29479e-18
8381.62458 3.33315e-18
8382.48604 3.37127e-18
8383.34750 3.40940e-18
8384.20897 3.44537e-18
8385.07043 3.48132e-18
8385.94191 3.51336e-18
8386.80337 3.54539e-18
8387.66483 3.57455e-18
8388.52629 3.60370e-18
8389.38775 3.63565e-18
8390.24922 3.66761e-18
8391.11068 3.70394e-18
8391.97214 3.74027e-18
8392.83360 3.77367e-18
8393.69507 3.80707e-18
8394.55653 3.83231e-18
8395.41799 3.85753e-18
8396.28947 3.87447e-18
8397.15093 3.89139e-18
8398.01239 3.90213e-18
8398.87385 3.91286e-18
8399.73532 3.92929e-18
8400.59678 3.94574e-18
8401.45824 3.97869e-18
8402.31970 4.01168e-18
8403.18116 4.05766e-18
8404.04263 4.10366e-18
8404.90409 4.15604e-18
8405.77557 4.20841e-18
8406.63703 4.25985e-18
8407.49849 4.31127e-18
8408.35995 4.35419e-18
8409.22142 4.39708e-18
8410.08288 4.43152e-18
8410.94434 4.46594e-18
8411.80580 4.49575e-18
8412.66726 4.52556e-18
8413.52873 4.55343e-18
8414.39019 4.58129e-18
8415.26167 4.60937e-18
8416.12313 4.63746e-18
8416.98459 4.66805e-18
8417.84605 4.69865e-18
8418.70751 4.73364e-18
8419.56898 4.76863e-18
8420.43044 4.80874e-18
8421.29190 4.84887e-18
8422.15336 4.89394e-18
8423.01482 4.93903e-18
8423.87629 4.98666e-18
8424.74777 5.03431e-18
8425.60923 5.07792e-18
8426.47069 5.12154e-18
8427.33215 5.15845e-18
8428.19361 5.19535e-18
8429.05508 5.23301e-18
8429.91654 5.27067e-18
8430.77800 5.31513e-18
8431.63946 5.35960e-18
8432.50092 5.41152e-18
8433.36239 5.46345e-18
8434.23386 5.52185e-18
8435.09533 5.58026e-18
8435.95679 5.63545e-18
8436.81825 5.69064e-18
8437.67971 5.73306e-18
8438.54117 5.77547e-18
8439.40264 5.81071e-18
8440.26410 5.84593e-18
8441.12556 5.88306e-18
8441.98702 5.92019e-18
8442.84848 5.96188e-18
8443.70995 6.00359e-18
8444.58143 6.05047e-18
8445.44289 6.09735e-18
8446.30435 6.14992e-18
8447.16581 6.20249e-18
8448.02727 6.26059e-18
8448.88874 6.31868e-18
8449.75020 6.38051e-18
8450.61166 6.44234e-18
8451.47312 6.50526e-18
8452.33458 6.56818e-18
8453.20606 6.62919e-18
8454.06752 6.69018e-18
8454.92899 6.74561e-18
8455.79045 6.80102e-18
8456.65191 6.85166e-18
8457.51337 6.90229e-18
8458.37483 6.95600e-18
8459.23630 7.00973e-18
8460.09776 7.06983e-18
8460.95922 7.12995e-18
8461.82068 7.18970e-18
8462.69216 7.24944e-18
8463.55362 7.30405e-18
8464.41508 7.35865e-18
8465.27655 7.40847e-18
8466.13801 7.45829e-18
8466.99947 7.50534e-18
8467.86093 7.55239e-18
8468.72240 7.60666e-18
8469.58386 7.66094e-18
8470.44532 7.73125e-18
8471.30678 7.80160e-18
8472.16824 7.88250e-18
8473.03972 7.96342e-18
8473.90118 8.04696e-18
8474.76265 8.13050e-18
8475.62411 8.21067e-18
8476.48557 8.29082e-18
8477.34703 8.36182e-18
8478.20849 8.43279e-18
8479.06996 8.50147e-18
8479.93142 8.57013e-18
8480.79288 8.64898e-18
8481.65434 8.72784e-18
8482.51580 8.81406e-18
8483.38728 8.90029e-18
8484.24875 8.98225e-18
8485.11021 9.06419e-18
8485.97167 9.13670e-18
8486.83313 9.20919e-18
8487.69459 9.27212e-18
8488.55605 9.33502e-18
8489.41752 9.39168e-18
8490.27898 9.44834e-18
8491.14044 9.50712e-18
8492.00190 9.56592e-18
8492.87338 9.63229e-18
8493.73484 9.69869e-18
8494.59631 9.77117e-18
8495.45777 9.84365e-18
8496.31923 9.92302e-18
8497.18069 1.00024e-17
8498.04215 1.00976e-17
8498.90362 1.01928e-17
8499.76508 1.03070e-17
8500.62654 1.04213e-17
8501.48800 1.05394e-17
8502.35948 1.06576e-17
8503.22094 1.07646e-17
8504.08240 1.08717e-17
8504.94387 1.09646e-17
8505.80533 1.10574e-17
8506.66679 1.11356e-17
8507.52825 1.12137e-17
8508.38972 1.12826e-17
8509.25118 1.13515e-17
8510.11264 1.14185e-17
8510.98412 1.14857e-17
8511.84558 1.15537e-17
8512.70704 1.16218e-17
8513.56850 1.16923e-17
8514.42997 1.17628e-17
8515.29143 1.18356e-17
8516.15289 1.19083e-17
8517.01435 1.19824e-17
8517.87581 1.20566e-17
8518.73728 1.21320e-17
8519.59874 1.22074e-17
8520.46020 1.22845e-17
8521.33168 1.23614e-17
8522.19314 1.24434e-17
8523.05460 1.25252e-17
8523.91607 1.26184e-17
8524.77753 1.27116e-17
8525.63899 1.28182e-17
8526.50045 1.29247e-17
8527.36191 1.30407e-17
8528.22337 1.31567e-17
8529.08484 1.32761e-17
8529.94630 1.33955e-17
8530.80776 1.35083e-17
8531.67924 1.36211e-17
8532.54070 1.37192e-17
8533.40216 1.38173e-17
8534.26363 1.38977e-17
8535.12509 1.39781e-17
8535.98655 1.40415e-17
8536.84801 1.41051e-17
8537.70947 1.41640e-17
8538.57094 1.42228e-17
8539.43240 1.42900e-17
8540.30388 1.43574e-17
8541.16534 1.44416e-17
8542.02680 1.45259e-17
8542.88826 1.46323e-17
8543.74972 1.47388e-17
8544.61119 1.48604e-17
8545.47265 1.49820e-17
8546.33411 1.51076e-17
8547.19557 1.52330e-17
8548.05703 1.53432e-17
8548.91850 1.54533e-17
8549.78998 1.55268e-17
8550.65144 1.56003e-17
8551.51290 1.56391e-17
8552.37436 1.56777e-17
8553.23582 1.56978e-17
8554.09729 1.57179e-17
8554.95875 1.57410e-17
8555.82021 1.57642e-17
8556.68167 1.58160e-17
8557.54313 1.58680e-17
8558.40460 1.59603e-17
8559.27607 1.60526e-17
8560.13754 1.61782e-17
8560.99900 1.63037e-17
8561.86046 1.64489e-17
8562.72192 1.65940e-17
8563.58338 1.67361e-17
8564.44485 1.68784e-17
8565.30631 1.69972e-17
8566.16777 1.71158e-17
8567.02923 1.71975e-17
8567.89070 1.72790e-17
8568.75216 1.73171e-17
8569.62364 1.73551e-17
8570.48510 1.73604e-17
8571.34656 1.73656e-17
8572.20802 1.73536e-17
8573.06948 1.73414e-17
8573.93095 1.73292e-17
8574.79241 1.73170e-17
8575.65387 1.73211e-17
8576.51533 1.73252e-17
8577.37679 1.73630e-17
8578.23826 1.74008e-17
8579.09972 1.74853e-17
8579.97120 1.75699e-17
8580.83266 1.76847e-17
8581.69412 1.77996e-17
8582.55558 1.79174e-17
8583.41705 1.80352e-17
8584.27851 1.81340e-17
8585.13997 1.82329e-17
8586.00143 1.82948e-17
8586.86289 1.83567e-17
8587.72436 1.83791e-17
8588.58582 1.84016e-17
8589.45730 1.83947e-17
8590.31876 1.83876e-17
8591.18022 1.83667e-17
8592.04168 1.83458e-17
8592.90314 1.83318e-17
8593.76461 1.83178e-17
8594.62607 1.83224e-17
8595.48753 1.83269e-17
8596.34899 1.83454e-17
8597.21045 1.83638e-17
8598.07192 1.83933e-17
8598.94340 1.84228e-17
8599.80486 1.84663e-17
8600.66632 1.85099e-17
8601.52778 1.85662e-17
8602.38924 1.86224e-17
8603.25071 1.86824e-17
8604.11217 1.87425e-17
8604.97363 1.87965e-17
8605.83509 1.88505e-17
8606.69655 1.88852e-17
8607.56803 1.89199e-17
8608.42949 1.89248e-17
8609.29096 1.89295e-17
8610.15242 1.89073e-17
8611.01388 1.88849e-17
8611.87534 1.88433e-17
8612.73680 1.88016e-17
8613.59827 1.87491e-17
8614.45973 1.86965e-17
8615.32119 1.86422e-17
8616.18265 1.85878e-17
8617.04411 1.85486e-17
8617.91559 1.85094e-17
8618.77706 1.85040e-17
8619.63852 1.84985e-17
8620.49998 1.85279e-17
8621.36144 1.85573e-17
8622.22290 1.86113e-17
8623.08437 1.86656e-17
8623.94583 1.87300e-17
8624.80729 1.87945e-17
8625.66875 1.88510e-17
8626.53021 1.89076e-17
8627.40169 1.89453e-17
8628.26315 1.89830e-17
8629.12462 1.90016e-17
8629.98608 1.90202e-17
8630.84754 1.90193e-17
8631.70900 1.90183e-17
8632.57046 1.89953e-17
8633.43193 1.89722e-17
8634.29339 1.89303e-17
8635.15485 1.88884e-17
8636.01631 1.88407e-17
8636.88779 1.87929e-17
8637.74925 1.87532e-17
8638.61072 1.87136e-17
8639.47218 1.86977e-17
8640.33364 1.86819e-17
8641.19510 1.87008e-17
8642.05656 1.87197e-17
8642.91803 1.87642e-17
8643.77949 1.88088e-17
8644.64095 1.88650e-17
8645.50241 1.89211e-17
8646.37389 1.89743e-17
8647.23535 1.90275e-17
8648.09681 1.90633e-17
8648.95828 1.90989e-17
8649.81974 1.91118e-17
8650.68120 1.91246e-17
8651.54266 1.91148e-17
8652.40412 1.91049e-17
8653.26559 1.90708e-17
8654.12705 1.90367e-17
8654.98851 1.89773e-17
8655.85999 1.89180e-17
8656.72145 1.88436e-17
8657.58291 1.87693e-17
8658.44438 1.86979e-17
8659.30584 1.86265e-17
8660.16730 1.85702e-17
8661.02876 1.85141e-17
8661.89022 1.84785e-17
8662.75168 1.84430e-17
8663.61315 1.84309e-17
8664.47461 1.84189e-17
8665.33607 1.84294e-17
8666.20755 1.84400e-17
8667.06901 1.84682e-17
8667.93047 1.84965e-17
8668.79194 1.85337e-17
8669.65340 1.85709e-17
8670.51486 1.86050e-17
8671.37632 1.86390e-17
8672.23778 1.86496e-17
8673.09925 1.86600e-17
8673.96071 1.86318e-17
8674.82217 1.86035e-17
8675.68363 1.85411e-17
8676.55511 1.84786e-17
8677.41657 1.83920e-17
8678.27803 1.83052e-17
8679.13950 1.82115e-17
8680.00096 1.81176e-17
8680.86242 1.80351e-17
8681.72388 1.79527e-17
8682.58535 1.78890e-17
8683.44681 1.78255e-17
8684.30827 1.77832e-17
8685.16973 1.77410e-17
8686.04121 1.77227e-17
8686.90267 1.77045e-17
8687.76413 1.77105e-17
8688.62560 1.77165e-17
8689.48706 1.77422e-17
8690.34852 1.77678e-17
8691.20998 1.78054e-17
8692.07144 1.78431e-17
8692.93291 1.78802e-17
8693.79437 1.79171e-17
8694.66585 1.79370e-17
8695.52731 1.79570e-17
8696.38877 1.79501e-17
8697.25023 1.79431e-17
8698.11170 1.79075e-17
8698.97316 1.78719e-17
8699.83462 1.78116e-17
8700.69608 1.77513e-17
8701.55754 1.76792e-17
8702.41900 1.76072e-17
8703.28047 1.75345e-17
8704.15195 1.74618e-17
8705.01341 1.73887e-17
8705.87487 1.73157e-17
8706.73633 1.72454e-17
8707.59779 1.71751e-17
8708.45926 1.71222e-17
8709.32072 1.70694e-17
8710.18218 1.70455e-17
8711.04364 1.70215e-17
8711.90510 1.70270e-17
8712.76657 1.70326e-17
8713.62803 1.70634e-17
8714.49951 1.70941e-17
8715.36097 1.71277e-17
8716.22243 1.71612e-17
8717.08389 1.71721e-17
8717.94535 1.71830e-17
8718.80682 1.71608e-17
8719.66828 1.71384e-17
8720.52974 1.70794e-17
8721.39120 1.70202e-17
8722.25267 1.69386e-17
8723.11413 1.68571e-17
8723.98561 1.67785e-17
8724.84707 1.66998e-17
8725.70853 1.66334e-17
8726.56999 1.65669e-17
8727.43145 1.65100e-17
8728.29292 1.64532e-17
8729.15438 1.64062e-17
8730.01584 1.63592e-17
8730.87730 1.63232e-17
8731.73876 1.62871e-17
8732.61024 1.62656e-17
8733.47170 1.62439e-17
8734.33317 1.62468e-17
8735.19463 1.62497e-17
8736.05609 1.62739e-17
8736.91755 1.62982e-17
8737.77902 1.63152e-17
8738.64048 1.63323e-17
8739.50194 1.63179e-17
8740.36340 1.63034e-17
8741.22486 1.62443e-17
8742.08633 1.61850e-17
8742.95780 1.60776e-17
8743.81927 1.59701e-17
8744.68073 1.58455e-17
8745.54219 1.57208e-17
8746.40365 1.56126e-17
8747.26511 1.55044e-17
8748.12658 1.54283e-17
8748.98804 1.53524e-17
8749.84950 1.53179e-17
8750.71096 1.52835e-17
8751.57242 1.52809e-17
8752.44390 1.52784e-17
8753.30537 1.52890e-17
8754.16683 1.52998e-17
8755.02829 1.53136e-17
8755.88975 1.53274e-17
8756.75121 1.53377e-17
8757.61268 1.53479e-17
8758.47414 1.53396e-17
8759.33560 1.53313e-17
8760.19706 1.52863e-17
8761.05852 1.52413e-17
8761.91999 1.51567e-17
8762.79146 1.50720e-17
8763.65293 1.49575e-17
8764.51439 1.48430e-17
8765.37585 1.47145e-17
8766.23731 1.45861e-17
8767.09877 1.44665e-17
8767.96024 1.43471e-17
8768.82170 1.42511e-17
8769.68316 1.41554e-17
8770.54462 1.40813e-17
8771.40608 1.40072e-17
8772.26755 1.39517e-17
8773.13903 1.38963e-17
8774.00049 1.38569e-17
8774.86195 1.38174e-17
8775.72341 1.37887e-17
8776.58487 1.37600e-17
8777.44633 1.37374e-17
8778.30780 1.37149e-17
8779.16926 1.36919e-17
8780.03072 1.36689e-17
8780.89218 1.36256e-17
8781.76366 1.35821e-17
8782.62512 1.35003e-17
8783.48659 1.34183e-17
8784.34805 1.33068e-17
8785.20951 1.31953e-17
8786.07097 1.30699e-17
8786.93243 1.29446e-17
8787.79390 1.28174e-17
8788.65536 1.26903e-17
8789.51682 1.25731e-17
8790.37828 1.24559e-17
8791.24976 1.23483e-17
8792.11122 1.22408e-17
8792.97268 1.21345e-17
8793.83415 1.20280e-17
8794.69561 1.19283e-17
8795.55707 1.18287e-17
8796.41853 1.17509e-17
8797.28000 1.16733e-17
8798.14146 1.16145e-17
8799.00292 1.15557e-17
8799.86438 1.14953e-17
8800.72584 1.14348e-17
8801.59732 1.13561e-17
8802.45878 1.12774e-17
8803.32025 1.11691e-17
8804.18171 1.10608e-17
8805.04317 1.09214e-17
8805.90463 1.07821e-17
8806.76609 1.06317e-17
8807.62756 1.04813e-17
8808.48902 1.03383e-17
8809.35048 1.01953e-17
8810.21194 1.00684e-17
8811.08342 9.94156e-18
8811.94488 9.83672e-18
8812.80635 9.73195e-18
8813.66781 9.64685e-18
8814.52927 9.56182e-18
8815.39073 9.49088e-18
8816.25219 9.41998e-18
8817.11365 9.35626e-18
8817.97512 9.29257e-18
8818.83658 9.22828e-18
8819.70806 9.16401e-18
8820.56952 9.08976e-18
8821.43098 9.01548e-18
8822.29244 8.92308e-18
8823.15391 8.83063e-18
8824.01537 8.71905e-18
8824.87683 8.60743e-18
8825.73829 8.47963e-18
8826.59975 8.35178e-18
8827.46122 8.21952e-18
8828.32268 8.08725e-18
8829.19416 7.96750e-18
8830.05562 7.84779e-18
8830.91708 7.74918e-18
8831.77854 7.65064e-18
8832.64000 7.57380e-18
8833.50147 7.49702e-18
8834.36293 7.43920e-18
8835.22439 7.38143e-18
8836.08585 7.33586e-18
8836.94732 7.29032e-18
8837.80878 7.24907e-18
8838.67024 7.20782e-18
8839.54172 7.16276e-18
8840.40318 7.11769e-18
8841.26464 7.06281e-18
8842.12610 7.00792e-18
8842.98757 6.94244e-18
8843.84903 6.87693e-18
8844.71049 6.80211e-18
8845.57195 6.72727e-18
8846.43341 6.64748e-18
8847.29488 6.56769e-18
8848.15634 6.48855e-18
8849.02782 6.40941e-18
8849.88928 6.33392e-18
8850.75074 6.25845e-18
8851.61220 6.18946e-18
8852.47367 6.12050e-18
8853.33513 6.07268e-18
8854.19659 6.02491e-18
8855.05805 6.01283e-18
8855.91951 6.00085e-18
8856.78097 6.01295e-18
8857.64244 6.02511e-18
8858.50390 6.04093e-18
8859.36536 6.05676e-18
8860.23684 6.05946e-18
8861.09830 6.06211e-18
8861.95976 6.03645e-18
8862.82123 6.01070e-18
8863.68269 5.96240e-18
8864.54415 5.91404e-18
8865.40561 5.86532e-18
8866.26707 5.81660e-18
8867.12854 5.77780e-18
8867.99000 5.73902e-18
8868.86148 5.70752e-18
8869.72294 5.67603e-18
8870.58440 5.65070e-18
8871.44586 5.62538e-18
8872.30732 5.60524e-18
8873.16879 5.58511e-18
8874.03025 5.57126e-18
8874.89171 5.55742e-18
8875.75317 5.55840e-18
8876.61463 5.55943e-18
8877.47610 5.57869e-18
8878.34758 5.59801e-18
8879.20904 5.62491e-18
8880.07050 5.65183e-18
8880.93196 5.67519e-18
8881.79342 5.69853e-18
8882.65489 5.70795e-18
8883.51635 5.71733e-18
8884.37781 5.70524e-18
8885.23927 5.69311e-18
8886.10073 5.66650e-18
8886.96220 5.63986e-18
8887.83367 5.60969e-18
8888.69514 5.57951e-18
8889.55660 5.55588e-18
8890.41806 5.53227e-18
8891.27952 5.52435e-18
8892.14099 5.51649e-18
8893.00245 5.52948e-18
8893.86391 5.54252e-18
8894.72537 5.57846e-18
8895.58683 5.61446e-18
8896.44830 5.66489e-18
8897.30976 5.71536e-18
8898.18124 5.76586e-18
8899.04270 5.81634e-18
8899.90416 5.85455e-18
8900.76562 5.89272e-18
8901.62708 5.90836e-18
8902.48855 5.92394e-18
8903.35001 5.91860e-18
8904.21147 5.91320e-18
8905.07293 5.90397e-18
8905.93439 5.89473e-18
8906.80587 5.89284e-18
8907.66734 5.89096e-18
8908.52880 5.89527e-18
8909.39026 5.89961e-18
8910.25172 5.91017e-18
8911.11318 5.92074e-18
8911.97465 5.93963e-18
8912.83611 5.95853e-18
8913.69757 5.98660e-18
8914.55903 6.01470e-18
8915.42049 6.05396e-18
8916.29197 6.09324e-18
8917.15343 6.14320e-18
8918.01490 6.19318e-18
8918.87636 6.24100e-18
8919.73782 6.28881e-18
8920.59928 6.32161e-18
8921.46074 6.35437e-18
8922.32221 6.36852e-18
8923.18367 6.38262e-18
8924.04513 6.37773e-18
8924.90659 6.37278e-18
8925.76805 6.36400e-18
8926.63953 6.35521e-18
8927.50100 6.36322e-18
8928.36246 6.37127e-18
8929.22392 6.39686e-18
8930.08538 6.42250e-18
8930.94684 6.45632e-18
8931.80831 6.49016e-18
8932.66977 6.52544e-18
8933.53123 6.56071e-18
8934.39269 6.59089e-18
8935.25415 6.62105e-18
8936.12563 6.64923e-18
8936.98709 6.67739e-18
8937.84856 6.71833e-18
8938.71002 6.75931e-18
8939.57148 6.81370e-18
8940.43294 6.86811e-18
8941.29440 6.91589e-18
8942.15587 6.96365e-18
8943.01733 6.99011e-18
8943.87879 7.01651e-18
8944.74025 7.01506e-18
8945.61173 7.01352e-18
8946.47319 6.98653e-18
8947.33466 6.95946e-18
8948.19612 6.93787e-18
8949.05758 6.91630e-18
8949.91904 6.92522e-18
8950.78050 6.93423e-18
8951.64197 6.96588e-18
8952.50343 6.99758e-18
8953.36489 7.03930e-18
8954.22635 7.08106e-18
8955.08781 7.09996e-18
8955.95929 7.11880e-18
8956.82075 7.08252e-18
8957.68222 7.04611e-18
8958.54368 6.99490e-18
8959.40514 6.94366e-18
8960.26660 6.93684e-18
8961.12806 6.93014e-18
8961.98953 6.97616e-18
8962.85099 7.02232e-18
8963.71245 7.10996e-18
8964.57391 7.19772e-18
8965.44539 7.29857e-18
8966.30685 7.39945e-18
8967.16832 7.47053e-18
8968.02978 7.54155e-18
8968.89124 7.58757e-18
8969.75270 7.63354e-18
8970.61416 7.70149e-18
8971.47563 7.76950e-18
8972.33709 7.87567e-18
8973.19855 7.98194e-18
8974.06001 8.10619e-18
8974.93149 8.23047e-18
8975.79295 8.34366e-18
8976.65441 8.45680e-18
8977.51588 8.51436e-18
8978.37734 8.57176e-18
8979.23880 8.53898e-18
8980.10026 8.50594e-18
8980.96172 8.36047e-18
8981.82319 8.21470e-18
8982.68465 7.97090e-18
8983.54611 7.72683e-18
8984.41759 7.51582e-18
8985.27905 7.30490e-18
8986.14051 7.24767e-18
8987.00198 7.19084e-18
8987.86344 7.32885e-18
8988.72490 7.46740e-18
8989.58636 7.80691e-18
8990.44782 8.14696e-18
8991.30928 8.52594e-18
8992.17075 8.90501e-18
8993.03221 9.12839e-18
8993.89367 9.35134e-18
8994.76515 9.38986e-18
8995.62661 9.42790e-18
8996.48807 9.31723e-18
8997.34954 9.20616e-18
8998.21100 9.03355e-18
8999.07246 8.86078e-18
8999.93392 8.74528e-18
9000.79538 8.62993e-18
9001.65685 8.62344e-18
9002.51831 8.61725e-18
9003.38979 8.71656e-18
9004.25125 8.81615e-18
9005.11271 8.98665e-18
9005.97417 9.15733e-18
9006.83563 9.33112e-18
9007.69710 9.50491e-18
9008.55856 9.62908e-18
9009.42002 9.75311e-18
9010.28148 9.80310e-18
9011.14295 9.85289e-18
9012.00441 9.82981e-18
9012.87589 9.80653e-18
9013.73735 9.76870e-18
9014.59881 9.73083e-18
9015.46027 9.72152e-18
9016.32173 9.71228e-18
9017.18320 9.70505e-18
9018.04466 9.69784e-18
9018.90612 9.67303e-18
9019.76758 9.64818e-18
9020.62904 9.62854e-18
9021.49051 9.60889e-18
9022.35197 9.61802e-18
9023.22345 9.62722e-18
9024.08491 9.69483e-18
9024.94637 9.76259e-18
9025.80783 9.91241e-18
9026.66930 1.00625e-17
9027.53076 1.02585e-17
9028.39222 1.04546e-17
9029.25368 1.06424e-17
9030.11514 1.08301e-17
9030.97660 1.09717e-17
9031.83807 1.11132e-17
9032.70955 1.11806e-17
9033.57101 1.12478e-17
9034.43247 1.12385e-17
9035.29393 1.12290e-17
9036.15539 1.11573e-17
9037.01686 1.10854e-17
9037.87832 1.09880e-17
9038.73978 1.08906e-17
9039.60124 1.08242e-17
9040.46270 1.07580e-17
9041.32417 1.07378e-17
9042.18563 1.07176e-17
9043.05711 1.07020e-17
9043.91857 1.06863e-17
9044.78003 1.06536e-17
9045.64149 1.06208e-17
9046.50295 1.05840e-17
9047.36442 1.05472e-17
9048.22588 1.05177e-17
9049.08734 1.04882e-17
9049.94880 1.04842e-17
9050.81027 1.04802e-17
9051.67173 1.05065e-17
9052.54321 1.05330e-17
9053.40467 1.05358e-17
9054.26613 1.05384e-17
9055.12759 1.04704e-17
9055.98905 1.04023e-17
9056.85052 1.02888e-17
9057.71198 1.01752e-17
9058.57344 1.00503e-17
9059.43490 9.92534e-18
9060.29636 9.79331e-18
9061.16784 9.66126e-18
9062.02931 9.52379e-18
9062.89077 9.38631e-18
9063.75223 9.23840e-18
9064.61369 9.09046e-18
9065.47515 8.92109e-18
9066.33662 8.75166e-18
9067.19808 8.60396e-18
9068.05954 8.45632e-18
9068.92100 8.40191e-18
9069.78246 8.34774e-18
9070.64393 8.37078e-18
9071.51540 8.39403e-18
9072.37687 8.41433e-18
9073.23833 8.43463e-18
9074.09979 8.42263e-18
9074.96125 8.41054e-18
9075.82271 8.38861e-18
9076.68418 8.36665e-18
9077.54564 8.34880e-18
9078.40710 8.33097e-18
9079.26856 8.32529e-18
9080.13002 8.31964e-18
9080.99149 8.32582e-18
9081.86297 8.33202e-18
9082.72443 8.32226e-18
9083.58589 8.31244e-18
9084.44735 8.27120e-18
9085.30881 8.22988e-18
9086.17028 8.18780e-18
9087.03174 8.14571e-18
9087.89320 8.12637e-18
9088.75466 8.10709e-18
9089.61612 8.08039e-18
9090.48760 8.05365e-18
9091.34906 7.99073e-18
9092.21053 7.92807e-18
9093.07199 7.85870e-18
9093.93345 7.78933e-18
9094.79491 7.74994e-18
9095.65637 7.71066e-18
9096.51784 7.69094e-18
9097.37930 7.67129e-18
9098.24076 7.64951e-18
9099.10222 7.62771e-18
9099.97370 7.60949e-18
9100.83516 7.59128e-18
9101.69663 7.58825e-18
9102.55809 7.58526e-18
9103.41955 7.61969e-18
9104.28101 7.65424e-18
9105.14247 7.75804e-18
9106.00393 7.86204e-18
9106.86540 7.99738e-18
9107.72686 8.13280e-18
9108.58832 8.20267e-18
9109.45980 8.27235e-18
9110.32126 8.23538e-18
9111.18272 8.19812e-18
9112.04419 8.07840e-18
9112.90565 7.95845e-18
9113.76711 7.80543e-18
9114.62857 7.65233e-18
9115.49003 7.56757e-18
9116.35150 7.48299e-18
9117.21296 7.51938e-18
9118.07442 7.55611e-18
9118.93588 7.63532e-18
9119.80736 7.71466e-18
9120.66882 7.76021e-18
9121.53028 7.80567e-18
9122.39175 7.76856e-18
9123.25321 7.73123e-18
9124.11467 7.58206e-18
9124.97613 7.43258e-18
9125.83760 7.24033e-18
9126.69906 7.04797e-18
9127.56052 6.89662e-18
9128.43200 6.74539e-18
9129.29346 6.67832e-18
9130.15492 6.61150e-18
9131.01638 6.65667e-18
9131.87785 6.70216e-18
9132.73931 6.84073e-18
9133.60077 6.97956e-18
9134.46223 7.16893e-18
9135.32369 7.35843e-18
9136.18516 7.55424e-18
9137.04662 7.75007e-18
9137.90808 7.90656e-18
9138.76954 8.06294e-18
9139.64102 8.15066e-18
9140.50248 8.23818e-18
9141.36395 8.24718e-18
9142.22541 8.25598e-18
9143.08687 8.17135e-18
9143.94833 8.08647e-18
9144.80979 7.88676e-18
9145.67125 7.68675e-18
9146.53272 7.39784e-18
9147.39418 7.10870e-18
9148.26566 6.81786e-18
9149.12712 6.52702e-18
9149.98858 6.31343e-18
9150.85004 6.10004e-18
9151.71151 6.02775e-18
9152.57297 5.95586e-18
9153.43443 6.04986e-18
9154.29589 6.14432e-18
9155.15735 6.32246e-18
9156.01882 6.50082e-18
9156.88028 6.67628e-18
9157.75176 6.85174e-18
9158.61322 6.98395e-18
9159.47468 7.11603e-18
9160.33614 7.17362e-18
9161.19760 7.23099e-18
9162.05907 7.21605e-18
9162.92053 7.20090e-18
9163.78199 7.13047e-18
9164.64345 7.05990e-18
9165.50492 6.93162e-18
9166.36638 6.80318e-18
9167.22784 6.61402e-18
9168.09932 6.42470e-18
9168.96078 6.22159e-18
9169.82224 6.01846e-18
9170.68370 5.86493e-18
9171.54517 5.71156e-18
9172.40663 5.63937e-18
9173.26809 5.56740e-18
9174.12955 5.59037e-18
9174.99101 5.61360e-18
9175.85248 5.69268e-18
9176.71394 5.77190e-18
9177.58542 5.81834e-18
9178.44688 5.86468e-18
9179.30834 5.85266e-18
9180.16980 5.84048e-18
9181.03127 5.82824e-18
9181.89273 5.81601e-18
9182.75419 5.83560e-18
9183.61565 5.85528e-18
9184.47711 5.89528e-18
9185.33857 5.93533e-18
9186.20004 5.98194e-18
9187.07152 6.02855e-18
9187.93298 6.04835e-18
9188.79444 6.06806e-18
9189.65590 6.04248e-18
9190.51736 6.01676e-18
9191.37883 5.99747e-18
9192.24029 5.97820e-18
9193.10175 6.01119e-18
9193.96321 6.04432e-18
9194.82467 6.10915e-18
9195.68614 6.17405e-18
9196.55762 6.24153e-18
9197.41908 6.30901e-18
9198.28054 6.35278e-18
9199.14200 6.39647e-18
9200.00346 6.39117e-18
9200.86492 6.38575e-18
9201.72639 6.35007e-18
9202.58785 6.31429e-18
9203.44931 6.28496e-18
9204.31077 6.25564e-18
9205.17224 6.23372e-18
9206.04371 6.21181e-18
9206.90518 6.18117e-18
9207.76664 6.15049e-18
9208.62810 6.11626e-18
9209.48956 6.08201e-18
9210.35102 6.06143e-18
9211.21249 6.04089e-18
9212.07395 6.05130e-18
9212.93541 6.06181e-18
9213.79687 6.12307e-18
9214.65833 6.18447e-18
9215.52981 6.29261e-18
9216.39127 6.40089e-18
9217.25274 6.51482e-18
9218.11420 6.62876e-18
9218.97566 6.72180e-18
9219.83712 6.81477e-18
9220.69859 6.89543e-18
9221.56005 6.97605e-18
9222.42151 7.04912e-18
9223.28297 7.12216e-18
9224.14443 7.17950e-18
9225.00590 7.23680e-18
9225.87737 7.27273e-18
9226.73884 7.30859e-18
9227.60030 7.31714e-18
9228.46176 7.32560e-18
9229.32322 7.30446e-18
9230.18468 7.28326e-18
9231.04615 7.25654e-18
9231.90761 7.22981e-18
9232.76907 7.22534e-18
9233.63053 7.22091e-18
9234.49199 7.23257e-18
9235.35346 7.24426e-18
9236.22494 7.25637e-18
9237.08640 7.26849e-18
9237.94786 7.28821e-18
9238.80932 7.30795e-18
9239.67078 7.34998e-18
9240.53225 7.39207e-18
9241.39371 7.46348e-18
9242.25517 7.53496e-18
9243.11663 7.63861e-18
9243.97809 7.74234e-18
9244.84957 7.86921e-18
9245.71103 7.99612e-18
9246.57250 8.12561e-18
9247.43396 8.25510e-18
9248.29542 8.37544e-18
9249.15688 8.49575e-18
9250.01834 8.60936e-18
9250.87981 8.72297e-18
9251.74127 8.82414e-18
9252.60273 8.92526e-18
9253.46419 8.98972e-18
9254.32565 9.05408e-18
9255.19713 9.07788e-18
9256.05860 9.10154e-18
9256.92006 9.13180e-18
9257.78152 9.16207e-18
9258.64298 9.23426e-18
9259.50444 9.30655e-18
9260.36591 9.40995e-18
9261.22737 9.51342e-18
9262.08883 9.62897e-18
9262.95029 9.74453e-18
9263.81175 9.83050e-18
9264.68323 9.91639e-18
9265.54469 9.93287e-18
9266.40616 9.94917e-18
9267.26762 9.89730e-18
9268.12908 9.84523e-18
9268.99054 9.74143e-18
9269.85200 9.63750e-18
9270.71347 9.52042e-18
9271.57493 9.40331e-18
9272.43639 9.31902e-18
9273.29785 9.23482e-18
9274.16933 9.21967e-18
9275.03079 9.20471e-18
9275.89226 9.28531e-18
9276.75372 9.36619e-18
9277.61518 9.52898e-18
9278.47664 9.69200e-18
9279.33810 9.89216e-18
9280.19957 1.00924e-17
9281.06103 1.02815e-17
9281.92249 1.04706e-17
9282.79397 1.06021e-17
9283.65543 1.07334e-17
9284.51689 1.07700e-17
9285.37835 1.08062e-17
9286.23982 1.07259e-17
9287.10128 1.06453e-17
9287.96274 1.04579e-17
9288.82420 1.02700e-17
9289.68566 1.00348e-17
9290.54713 9.79949e-18
9291.40859 9.58564e-18
9292.27005 9.37186e-18
9293.14153 9.27038e-18
9294.00299 9.16920e-18
9294.86445 9.23949e-18
9295.72592 9.31025e-18
9296.58738 9.49110e-18
9297.44884 9.67227e-18
9298.31030 9.88246e-18
9299.17176 1.00927e-17
9300.03323 1.02215e-17
9300.89469 1.03501e-17
9301.75615 1.02914e-17
9302.62763 1.02321e-17
9303.48909 1.00878e-17
9304.35055 9.94319e-18
9305.21201 9.88007e-18
9306.07348 9.81717e-18
9306.93494 9.79639e-18
9307.79640 9.77571e-18
9308.65786 9.67626e-18
9309.51932 9.57658e-18
9310.38079 9.40406e-18
9311.24225 9.23136e-18
9312.11373 9.05719e-18
9312.97519 8.88303e-18
9313.83665 8.77723e-18
9314.69811 8.67162e-18
9315.55958 8.71378e-18
9316.42104 8.75637e-18
9317.28250 8.93101e-18
9318.14396 9.10603e-18
9319.00542 9.26006e-18
9319.86688 9.41402e-18
9320.72835 9.48736e-18
9321.58981 9.56048e-18
9322.46129 9.69420e-18
9323.32275 9.82810e-18
9324.18421 1.00531e-17
9325.04567 1.02783e-17
9325.90714 1.03061e-17
9326.76860 1.03332e-17
9327.63006 9.98589e-18
9328.49152 9.63748e-18
9329.35298 9.19427e-18
9330.21445 8.75080e-18
9331.07591 8.48209e-18
9331.94739 8.21390e-18
9332.80885 8.06755e-18
9333.67031 7.92156e-18
9334.53177 7.81949e-18
9335.39323 7.71754e-18
9336.25470 7.66149e-18
9337.11616 7.60558e-18
9337.97762 7.58217e-18
9338.83908 7.55887e-18
9339.70055 7.80617e-18
9340.56201 8.05423e-18
9341.43349 8.89465e-18
9342.29495 9.73675e-18
9343.15641 1.07573e-17
9344.01787 1.17783e-17
9344.87933 1.22191e-17
9345.74080 1.26582e-17
9346.60226 1.22927e-17
9347.46372 1.19248e-17
9348.32518 1.08823e-17
9349.18664 9.83796e-18
9350.04811 8.59789e-18
9350.90957 7.35728e-18
9351.78105 6.80380e-18
9352.64251 6.25230e-18
9353.50397 6.67550e-18
9354.36543 7.10147e-18
9355.22689 7.86174e-18
9356.08836 8.62294e-18
9356.94982 9.18250e-18
9357.81128 9.74146e-18
9358.67274 9.77953e-18
9359.53420 9.81611e-18
9360.39567 9.19399e-18
9361.26715 8.57000e-18
9362.12861 7.79159e-18
9362.99007 7.01277e-18
9363.85153 6.55366e-18
9364.71299 6.09547e-18
9365.57446 5.98305e-18
9366.43592 5.87162e-18
9367.29738 6.06006e-18
9368.15884 6.24935e-18
9369.02030 6.50239e-18
9369.89178 6.75559e-18
9370.75324 6.80263e-18
9371.61471 6.84906e-18
9372.47617 6.70669e-18
9373.33763 6.56378e-18
9374.19909 6.33310e-18
9375.06056 6.10217e-18
9375.92202 5.93780e-18
9376.78348 5.77362e-18
9377.64494 5.86440e-18
9378.50640 5.95591e-18
9379.37788 6.23023e-18
9380.23934 6.50507e-18
9381.10081 6.71977e-18
9381.96227 6.93429e-18
9382.82373 7.01189e-18
9383.68519 7.08910e-18
9384.54665 7.09952e-18
9385.40812 7.10974e-18
9386.26958 7.07234e-18
9387.13104 7.03478e-18
9387.99250 6.91680e-18
9388.85396 6.79857e-18
9389.72544 6.59815e-18
9390.58691 6.39749e-18
9391.44837 6.14488e-18
9392.30983 5.89213e-18
9393.17129 5.62876e-18
9394.03275 5.36537e-18
9394.89422 5.16481e-18
9395.75568 4.96443e-18
9396.61714 4.87645e-18
9397.47860 4.78879e-18
9398.34006 4.77648e-18
9399.21154 4.76440e-18
9400.07300 4.78139e-18
9400.93447 4.79848e-18
9401.79593 4.80020e-18
9402.65739 4.80187e-18
9403.51885 4.74931e-18
9404.38031 4.69659e-18
9405.24178 4.63357e-18
9406.10324 4.57053e-18
9406.96470 4.55863e-18
9407.82616 4.54687e-18
9408.69764 4.58676e-18
9409.55910 4.62680e-18
9410.42057 4.69706e-18
9411.28203 4.76741e-18
9412.14349 4.83481e-18
9413.00495 4.90219e-18
9413.86641 4.92730e-18
9414.72788 4.95226e-18
9415.58934 4.90878e-18
9416.45080 4.86509e-18
9417.31226 4.74491e-18
9418.17372 4.62450e-18
9419.04520 4.43601e-18
9419.90666 4.24733e-18
9420.76813 4.00314e-18
9421.62959 3.75879e-18
9422.49105 3.54629e-18
9423.35251 3.33388e-18
9424.21397 3.36163e-18
9425.07544 3.39009e-18
9425.93690 3.72508e-18
9426.79836 4.06094e-18
9427.65982 4.48449e-18
9428.53130 4.90827e-18
9429.39276 5.20954e-18
9430.25423 5.51045e-18
9431.11569 5.49428e-18
9431.97715 5.47719e-18
9432.83861 5.04472e-18
9433.70007 4.61105e-18
9434.56153 4.10519e-18
9435.42300 3.59913e-18
9436.28446 3.37858e-18
9437.14592 3.15887e-18
9438.01740 3.28014e-18
9438.87886 3.40241e-18
9439.74032 3.84227e-18
9440.60179 4.28305e-18
9441.46325 4.81811e-18
9442.32471 5.35343e-18
9443.18617 5.69616e-18
9444.04763 6.03832e-18
9444.90910 6.10646e-18
9445.77056 6.17380e-18
9446.63202 5.98531e-18
9447.49348 5.79607e-18
9448.36496 5.45270e-18
9449.22642 5.10890e-18
9450.08788 4.77436e-18
9450.94935 4.43985e-18
9451.81081 4.22081e-18
9452.67227 4.00212e-18
9453.53373 3.94016e-18
9454.39520 3.87865e-18
9455.25666 3.98415e-18
9456.11812 4.09013e-18
9456.98960 4.33749e-18
9457.85106 4.58525e-18
9458.71252 4.90042e-18
9459.57398 5.21576e-18
9460.43545 5.44928e-18
9461.29691 5.68255e-18
9462.15837 5.74436e-18
9463.01983 5.80569e-18
9463.88129 5.76616e-18
9464.74276 5.72635e-18
9465.60422 5.65904e-18
9466.47570 5.59165e-18
9467.33716 5.54173e-18
9468.19862 5.49186e-18
9469.06008 5.49563e-18
9469.92155 5.49957e-18
9470.78301 5.50137e-18
9471.64447 5.50317e-18
9472.50593 5.44372e-18
9473.36739 5.38410e-18
9474.22885 5.30050e-18
9475.09032 5.21685e-18
9475.96180 5.15961e-18
9476.82326 5.10245e-18
9477.68472 5.17624e-18
9478.54618 5.25042e-18
9479.40764 5.57327e-18
9480.26911 5.89683e-18
9481.13057 6.34056e-18
9481.99203 6.78464e-18
9482.85349 7.10133e-18
9483.71495 7.41762e-18
9484.57642 7.47657e-18
9485.43788 7.53476e-18
9486.30936 7.29023e-18
9487.17082 7.04480e-18
9488.03228 6.59634e-18
9488.89374 6.14731e-18
9489.75520 5.75719e-18
9490.61667 5.36726e-18
9491.47813 5.20317e-18
9492.33959 5.03976e-18
9493.20105 5.09864e-18
9494.06252 5.15818e-18
9494.92398 5.43919e-18
9495.79546 5.72084e-18
9496.65692 6.25977e-18
9497.51838 6.79945e-18
9498.37984 7.53949e-18
9499.24130 8.28011e-18
9500.10277 8.93167e-18
9500.96423 9.58297e-18
9501.82569 9.89558e-18
9502.68715 1.02072e-17
9503.54861 1.01413e-17
9504.41008 1.00742e-17
9505.28155 9.65531e-18
9506.14302 9.23537e-18
9507.00448 8.68107e-18
9507.86594 8.12640e-18
9508.72740 7.69553e-18
9509.58887 7.26504e-18
9510.45033 6.98298e-18
9511.31179 6.70136e-18
9512.17325 6.51696e-18
9513.03471 6.33284e-18
9513.89617 6.29645e-18
9514.75764 6.26048e-18
9515.62912 6.44418e-18
9516.49058 6.62851e-18
9517.35204 7.01126e-18
9518.21350 7.39459e-18
9519.07496 7.90574e-18
9519.93643 8.41726e-18
9520.79789 8.93236e-18
9521.65935 9.44748e-18
9522.52081 9.79517e-18
9523.38227 1.01424e-17
9524.24374 1.02649e-17
9525.11522 1.03868e-17
9525.97668 1.03743e-17
9526.83814 1.03613e-17
9527.69960 1.02967e-17
9528.56106 1.02320e-17
9529.42252 1.01809e-17
9530.28399 1.01299e-17
9531.14545 1.01292e-17
9532.00691 1.01287e-17
9532.86837 1.01200e-17
9533.72984 1.01114e-17
9534.60131 1.00456e-17
9535.46278 9.97969e-18
9536.32424 9.84190e-18
9537.18570 9.70390e-18
9538.04716 9.50200e-18
9538.90862 9.29990e-18
9539.77009 9.21814e-18
9540.63155 9.13673e-18
9541.49301 9.34903e-18
9542.35447 9.56218e-18
9543.21593 9.94394e-18
9544.08741 1.03262e-17
9544.94888 1.06920e-17
9545.81034 1.10577e-17
9546.67180 1.12265e-17
9547.53326 1.13947e-17
9548.39472 1.11810e-17
9549.25619 1.09663e-17
9550.11765 1.05853e-17
9550.97911 1.02039e-17
9551.84057 1.00890e-17
9552.70203 9.97484e-18
9553.57351 1.01554e-17
9554.43497 1.03368e-17
9555.29644 1.05567e-17
9556.15790 1.07766e-17
9557.01936 1.08633e-17
9557.88082 1.09496e-17
9558.74228 1.07880e-17
9559.60375 1.06259e-17
9560.46521 1.02875e-17
9561.32667 9.94865e-18
9562.18813 9.82459e-18
9563.05961 9.70117e-18
9563.92107 9.99325e-18
9564.78254 1.02865e-17
9565.64400 1.07870e-17
9566.50546 1.12881e-17
9567.36692 1.17734e-17
9568.22838 1.22585e-17
9569.08985 1.24619e-17
9569.95131 1.26645e-17
9570.81277 1.24023e-17
9571.67423 1.21387e-17
9572.53569 1.16421e-17
9573.40717 1.11447e-17
9574.26863 1.06881e-17
9575.13010 1.02317e-17
9575.99156 9.99861e-18
9576.85302 9.76624e-18
9577.71448 9.90173e-18
9578.57594 1.00383e-17
9579.43741 1.03145e-17
9580.29887 1.05911e-17
9581.16033 1.06752e-17
9582.02179 1.07589e-17
9582.89327 1.06070e-17
9583.75473 1.04544e-17
9584.61620 1.01318e-17
9585.47766 9.80857e-18
9586.33912 9.54782e-18
9587.20058 9.28724e-18
9588.06204 9.44270e-18
9588.92351 9.59939e-18
9589.78497 1.01267e-17
9590.64643 1.06552e-17
9591.51791 1.11479e-17
9592.37937 1.16406e-17
9593.24083 1.18796e-17
9594.10229 1.21179e-17
9594.96376 1.21242e-17
9595.82522 1.21299e-17
9596.68668 1.19475e-17
9597.54814 1.17647e-17
9598.40960 1.14965e-17
9599.27107 1.12283e-17
9600.13253 1.09878e-17
9600.99399 1.07474e-17
9601.86547 1.06243e-17
9602.72693 1.05016e-17
9603.58839 1.05545e-17
9604.44986 1.06080e-17
9605.31132 1.08271e-17
9606.17278 1.10468e-17
9607.03424 1.13828e-17
9607.89570 1.17190e-17
9608.75717 1.19582e-17
9609.61863 1.21971e-17
9610.48009 1.21335e-17
9611.35157 1.20690e-17
9612.21303 1.17900e-17
9613.07449 1.15104e-17
9613.93595 1.11807e-17
9614.79742 1.08508e-17
9615.65888 1.05848e-17
9616.52034 1.03190e-17
9617.38180 1.02122e-17
9618.24326 1.01060e-17
9619.10473 1.01830e-17
9619.96619 1.02606e-17
9620.82765 1.04949e-17
9621.69913 1.07297e-17
9622.56059 1.10367e-17
9623.42205 1.13440e-17
9624.28352 1.16062e-17
9625.14498 1.18683e-17
9626.00644 1.19736e-17
9626.86790 1.20783e-17
9627.72936 1.19216e-17
9628.59083 1.17642e-17
9629.45229 1.13763e-17
9630.31375 1.09878e-17
9631.17521 1.05984e-17
9632.04669 1.02089e-17
9632.90815 9.99604e-18
9633.76961 9.78369e-18
9634.63108 9.81673e-18
9635.49254 9.85050e-18
9636.35400 1.01221e-17
9637.21546 1.03945e-17
9638.07692 1.06470e-17
9638.93839 1.08995e-17
9639.79985 1.09200e-17
9640.67133 1.09397e-17
9641.53279 1.08611e-17
9642.39425 1.07822e-17
9643.25571 1.07598e-17
9644.11718 1.07376e-17
9644.97864 1.08091e-17
9645.84010 1.08809e-17
9646.70156 1.10613e-17
9647.56302 1.12421e-17
9648.42448 1.14110e-17
9649.28595 1.15798e-17
9650.15743 1.15803e-17
9651.01889 1.15801e-17
9651.88035 1.14113e-17
9652.74181 1.12421e-17
9653.60327 1.09746e-17
9654.46474 1.07068e-17
9655.32620 1.04374e-17
9656.18766 1.01679e-17
9657.04912 1.00080e-17
9657.91058 9.84853e-18
9658.77205 9.86066e-18
9659.64352 9.87334e-18
9660.50499 1.00727e-17
9661.36645 1.02727e-17
9662.22791 1.05962e-17
9663.08937 1.09201e-17
9663.95083 1.12029e-17
9664.81230 1.14856e-17
9665.67376 1.16322e-17
9666.53522 1.17786e-17
9667.39668 1.18396e-17
9668.25815 1.19005e-17
9669.11961 1.19049e-17
9669.99109 1.19091e-17
9670.85255 1.18080e-17
9671.71401 1.17065e-17
9672.57547 1.14865e-17
9673.43693 1.12661e-17
9674.29840 1.10172e-17
9675.15986 1.07681e-17
9676.02132 1.05799e-17
9676.88278 1.03919e-17
9677.74424 1.03272e-17
9678.61572 1.02627e-17
9679.47718 1.03629e-17
9680.33865 1.04634e-17
9681.20011 1.06460e-17
9682.06157 1.08286e-17
9682.92303 1.09786e-17
9683.78449 1.11285e-17
9684.64596 1.12121e-17
9685.50742 1.12953e-17
9686.36888 1.13076e-17
9687.23034 1.13197e-17
9688.10182 1.12728e-17
9688.96328 1.12258e-17
9689.82475 1.11486e-17
9690.68621 1.10713e-17
9691.54767 1.09692e-17
9692.40913 1.08670e-17
9693.27059 1.07245e-17
9694.13206 1.05818e-17
9694.99352 1.04199e-17
9695.85498 1.02580e-17
9696.71644 1.01343e-17
9697.57790 1.00107e-17
9698.44938 9.95367e-18
9699.31084 9.89688e-18
9700.17231 9.89576e-18
9701.03377 9.89482e-18
9701.89523 9.92606e-18
9702.75669 9.95740e-18
9703.61816 9.96870e-18
9704.47962 9.97994e-18
9705.34108 9.93752e-18
9706.20254 9.89495e-18
9707.06400 9.83140e-18
9707.93548 9.76779e-18
9708.79694 9.71687e-18
9709.65841 9.66599e-18
9710.51987 9.64612e-18
9711.38133 9.62634e-18
9712.24279 9.64953e-18
9713.10425 9.67284e-18
9713.96572 9.70703e-18
9714.82718 9.74123e-18
9715.68864 9.74782e-18
9716.55010 9.75433e-18
9717.41156 9.72227e-18
9718.28304 9.69010e-18
9719.14451 9.61496e-18
9720.00597 9.53967e-18
9720.86743 9.46164e-18
9721.72889 9.38360e-18
9722.59035 9.36450e-18
9723.45182 9.34558e-18
9724.31328 9.35827e-18
9725.17474 9.37107e-18
9726.03620 9.33488e-18
9726.89766 9.29855e-18
9727.76914 9.18492e-18
9728.63060 9.07106e-18
9729.49207 8.89499e-18
9730.35353 8.71873e-18
9731.21499 8.51777e-18
9732.07645 8.31675e-18
9732.93791 8.16000e-18
9733.79938 8.00339e-18
9734.66084 7.93389e-18
9735.52230 7.86465e-18
9736.38376 7.87403e-18
9737.25524 7.88363e-18
9738.11670 7.95252e-18
9738.97817 8.02158e-18
9739.83963 8.11184e-18
9740.70109 8.20218e-18
9741.56255 8.27613e-18
9742.42401 8.35004e-18
9743.28548 8.38771e-18
9744.14694 8.42527e-18
9745.00840 8.41481e-18
9745.86986 8.40421e-18
9746.74134 8.36168e-18
9747.60280 8.31907e-18
9748.46426 8.26652e-18
9749.32573 8.21395e-18
9750.18719 8.15663e-18
9751.04865 8.09929e-18
9751.91011 8.03995e-18
9752.77157 7.98060e-18
9753.63304 7.91729e-18
9754.49450 7.85397e-18
9755.35596 7.78258e-18
9756.22744 7.71117e-18
9757.08890 7.64657e-18
9757.95036 7.58199e-18
9758.81183 7.54612e-18
9759.67329 7.51033e-18
9760.53475 7.52017e-18
9761.39621 7.53014e-18
9762.25767 7.60025e-18
9763.11913 7.67054e-18
9763.98060 7.77885e-18
9764.84206 7.88726e-18
9765.71354 7.97161e-18
9766.57500 8.05588e-18
9767.43646 8.08578e-18
9768.29792 8.11551e-18
9769.15939 8.11095e-18
9770.02085 8.10628e-18
9770.88231 8.08428e-18
9771.74377 8.06224e-18
9772.60523 8.03131e-18
9773.46670 8.00037e-18
9774.32816 7.97132e-18
9775.19964 7.94225e-18
9776.06110 7.92360e-18
9776.92256 7.90497e-18
9777.78402 7.90241e-18
9778.64548 7.89990e-18
9779.50695 7.92071e-18
9780.36841 7.94158e-18
9781.22987 7.98776e-18
9782.09133 8.03402e-18
9782.95280 8.06560e-18
9783.81426 8.09713e-18
9784.68574 8.07066e-18
9785.54720 8.04400e-18
9786.40866 7.98054e-18
9787.27012 7.91696e-18
9788.13158 7.85609e-18
9788.99305 7.79522e-18
9789.85451 7.75089e-18
9790.71597 7.70659e-18
9791.57743 7.68459e-18
9792.43889 7.66265e-18
9793.30036 7.64814e-18
9794.16182 7.63365e-18
9795.03330 7.59542e-18
9795.89476 7.55711e-18
9796.75622 7.50427e-18
9797.61768 7.45139e-18
9798.47915 7.42953e-18
9799.34061 7.40776e-18
9800.20207 7.43212e-18
9801.06353 7.45663e-18
9801.92499 7.50560e-18
9802.78645 7.55464e-18
9803.64792 7.60640e-18
9804.51940 7.65816e-18
9805.38086 7.68711e-18
9806.24232 7.71600e-18
9807.10378 7.70975e-18
9807.96524 7.70337e-18
9808.82671 7.68646e-18
9809.68817 7.66950e-18
9810.54963 7.66530e-18
9811.41109 7.66112e-18
9812.27255 7.68441e-18
9813.13402 7.70777e-18
9813.99548 7.76540e-18
9814.86696 7.82314e-18
9815.72842 7.87410e-18
9816.58988 7.92504e-18
9817.45134 7.92579e-18
9818.31280 7.92638e-18
9819.17427 7.88269e-18
9820.03573 7.83888e-18
9820.89719 7.76910e-18
9821.75865 7.69923e-18
9822.62012 7.63024e-18
9823.48158 7.56127e-18
9824.35306 7.52441e-18
9825.21452 7.48767e-18
9826.07598 7.47838e-18
9826.93744 7.46919e-18
9827.79890 7.46212e-18
9828.66037 7.45505e-18
9829.52183 7.44390e-18
9830.38329 7.43275e-18
9831.24475 7.42506e-18
9832.10621 7.41737e-18
9832.97769 7.41139e-18
9833.83915 7.40541e-18
9834.70062 7.39129e-18
9835.56208 7.37714e-18
9836.42354 7.35034e-18
9837.28500 7.32349e-18
9838.14647 7.28666e-18
9839.00793 7.24980e-18
9839.86939 7.20594e-18
9840.73085 7.16207e-18
9841.59231 7.11274e-18
9842.45377 7.06340e-18
9843.32525 7.01423e-18
9844.18672 6.96505e-18
9845.04818 6.93347e-18
9845.90964 6.90193e-18
9846.77110 6.90165e-18
9847.63256 6.90145e-18
9848.49403 6.92822e-18
9849.35549 6.95507e-18
9850.21695 7.00110e-18
9851.07841 7.04719e-18
9851.93987 7.10503e-18
9852.81135 7.16290e-18
9853.67282 7.22375e-18
9854.53428 7.28459e-18
9855.39574 7.34288e-18
9856.25720 7.40116e-18
9857.11866 7.45279e-18
9857.98013 7.50440e-18
9858.84159 7.53834e-18
9859.70305 7.57221e-18
9860.56451 7.57579e-18
9861.42597 7.57928e-18
9862.29745 7.55079e-18
9863.15891 7.52221e-18
9864.02038 7.46708e-18
9864.88184 7.41187e-18
9865.74330 7.34017e-18
9866.60476 7.26840e-18
9867.46622 7.19450e-18
9868.32769 7.12059e-18
9869.18915 7.05275e-18
9870.05061 6.98492e-18
9870.92209 6.92217e-18
9871.78355 6.85944e-18
9872.64501 6.80288e-18
9873.50648 6.74633e-18
9874.36794 6.70079e-18
9875.22940 6.65528e-18
9876.09086 6.62460e-18
9876.95232 6.59397e-18
9877.81379 6.58167e-18
9878.67525 6.56944e-18
9879.53671 6.57715e-18
9880.39817 6.58491e-18
9881.26965 6.61017e-18
9882.13111 6.63548e-18
9882.99257 6.67375e-18
9883.85404 6.71206e-18
9884.71550 6.75507e-18
9885.57696 6.79809e-18
9886.43842 6.83687e-18
9887.29988 6.87565e-18
9888.16135 6.90182e-18
9889.02281 6.92795e-18
9889.88427 6.93449e-18
9890.74573 6.94095e-18
9891.61721 6.92766e-18
9892.47867 6.91432e-18
9893.34014 6.88477e-18
9894.20160 6.85516e-18
9895.06306 6.81314e-18
9895.92452 6.77107e-18
9896.78598 6.72059e-18
9897.64745 6.67009e-18
9898.50891 6.61770e-18
9899.37037 6.56530e-18
9900.23183 6.51969e-18
9901.09329 6.47410e-18
9901.96477 6.43669e-18
9902.82623 6.39931e-18
9903.68770 6.36274e-18
9904.54916 6.32618e-18
9905.41062 6.29214e-18
9906.27208 6.25811e-18
9907.13354 6.24266e-18
9907.99501 6.22725e-18
9908.85647 6.23800e-18
9909.71793 6.24883e-18
9910.57939 6.27848e-18
9911.45087 6.30818e-18
9912.31233 6.34480e-18
9913.17380 6.38144e-18
9914.03526 6.39985e-18
9914.89672 6.41821e-18
9915.75818 6.39840e-18
9916.61964 6.37848e-18
9917.48111 6.32745e-18
9918.34257 6.27633e-18
9919.20403 6.20631e-18
9920.07551 6.13623e-18
9920.93697 6.06111e-18
9921.79843 5.98597e-18
9922.65989 5.91987e-18
9923.52136 5.85381e-18
9924.38282 5.80294e-18
9925.24428 5.75212e-18
9926.10574 5.71890e-18
9926.96720 5.68574e-18
9927.82867 5.66097e-18
9928.69013 5.63622e-18
9929.56161 5.60529e-18
9930.42307 5.57434e-18
9931.28453 5.53247e-18
9932.14599 5.49056e-18
9933.00746 5.43985e-18
9933.86892 5.38911e-18
9934.73038 5.33384e-18
9935.59184 5.27857e-18
9936.45330 5.22498e-18
9937.31477 5.17139e-18
9938.17623 5.12769e-18
9939.03769 5.08403e-18
9939.90917 5.06054e-18
9940.77063 5.03711e-18
9941.63209 5.03666e-18
9942.49355 5.03628e-18
9943.35502 5.04819e-18
9944.21648 5.06013e-18
9945.07794 5.07517e-18
9945.93940 5.09022e-18
9946.80086 5.10605e-18
9947.66233 5.12190e-18
9948.52379 5.13586e-18
9949.39527 5.14982e-18
9950.25673 5.15678e-18
9951.11819 5.16372e-18
9951.97965 5.16039e-18
9952.84112 5.15703e-18
9953.70258 5.15002e-18
9954.56404 5.14301e-18
9955.42550 5.13961e-18
9956.28696 5.13623e-18
9957.14843 5.13157e-18
9958.00989 5.12691e-18
9958.88137 5.11428e-18
9959.74283 5.10161e-18
9960.60429 5.07758e-18
9961.46575 5.05350e-18
9962.32721 5.01583e-18
9963.18868 4.97812e-18
9964.05014 4.93811e-18
9964.91160 4.89809e-18
9965.77306 4.87455e-18
9966.63452 4.85107e-18
9967.49599 4.84844e-18
9968.36747 4.84587e-18
9969.22893 4.85687e-18
9970.09039 4.86791e-18
9970.95185 4.89143e-18
9971.81331 4.91498e-18
9972.67477 4.95640e-18
9973.53624 4.99787e-18
9974.39770 5.05495e-18
9975.25916 5.11208e-18
9976.12062 5.17260e-18
9976.98208 5.23312e-18
9977.85356 5.28735e-18
9978.71503 5.34157e-18
9979.57649 5.38487e-18
9980.43795 5.42814e-18
9981.29941 5.45888e-18
9982.16087 5.48958e-18
9983.02234 5.51429e-18
9983.88380 5.53898e-18
9984.74526 5.56425e-18
9985.60672 5.58953e-18
9986.46818 5.61864e-18
9987.32965 5.64776e-18
9988.20112 5.68241e-18
9989.06259 5.71708e-18
9989.92405 5.74506e-18
9990.78551 5.77303e-18
9991.64697 5.78050e-18
9992.50843 5.78792e-18
9993.36990 5.78527e-18
9994.23136 5.78260e-18
9995.09282 5.78758e-18
9995.95428 5.79260e-18
9996.81574 5.80220e-18
9997.67721 5.81182e-18
9998.54869 5.81471e-18
9999.41015 5.81758e-18
