# wavelength flux
3720.00230 7.55308e-18
3721.49568 8.14305e-18
3722.99921 8.36480e-18
3724.50274 4.61535e-18
3725.99611 8.91733e-18
3727.49964 9.50258e-18
3729.00318 3.53734e-18
3730.49655 1.73151e-18
3732.00008 1.81258e-18
3733.50361 3.00478e-18
3734.99699 2.77317e-18
3736.50052 1.44978e-19
3738.00405 1.82527e-19
3739.49742 -3.32943e-19
3741.00095 2.71608e-19
3742.50449 3.93761e-18
3743.99786 6.10884e-18
3745.50139 1.54522e-18
3746.99476 2.14674e-18
3748.49830 6.79191e-18
3750.00183 4.53027e-18
3751.49520 8.39596e-18
3752.99873 5.80149e-18
3754.50227 -1.95009e-18
3755.99564 4.78118e-19
3757.49917 8.18044e-18
3759.00270 1.35632e-18
3760.49608 2.39025e-18
3761.99961 3.24551e-18
3763.50314 2.07093e-18
3764.99651 3.09855e-18
3766.50005 3.29973e-18
3768.00358 3.20173e-18
3769.49695 3.10374e-18
3771.00048 3.24140e-18
3772.50401 3.37905e-18
3773.99739 3.51670e-18
3775.50092 3.65431e-18
3777.00445 3.79194e-18
3778.49782 3.92956e-18
3780.00136 4.06717e-18
3781.50489 4.20478e-18
3782.99826 4.34237e-18
3784.50179 4.47994e-18
3785.99517 4.61752e-18
3787.49870 4.75510e-18
3789.00223 4.89266e-18
3790.49560 5.03022e-18
3791.99914 5.16777e-18
3793.50267 5.30529e-18
3794.99604 5.44282e-18
3796.49957 5.58035e-18
3798.00310 5.71787e-18
3799.49648 5.85538e-18
3801.00001 5.99289e-18
3802.50354 6.13039e-18
3803.99691 6.26785e-18
3805.50045 6.40534e-18
3807.00398 6.54281e-18
3808.49735 5.04770e-18
3810.00088 -5.58319e-19
3811.50441 1.27405e-18
3812.99779 3.69971e-18
3814.50132 5.54304e-18
3816.00485 5.19175e-18
3817.49823 5.07587e-18
3819.00176 4.63297e-18
3820.49513 1.33621e-18
3821.99866 1.93683e-18
3823.50219 7.22323e-18
3824.99557 3.24661e-18
3826.49910 2.37345e-18
3828.00263 3.64736e-18
3829.49600 5.30428e-18
3830.99954 4.43855e-18
3832.50307 1.03659e-18
3833.99644 -8.21301e-19
3835.49997 4.27765e-18
3837.00351 5.11588e-18
3838.49688 5.76045e-18
3840.00041 7.97086e-18
3841.50394 5.84981e-18
3842.99732 3.27805e-18
3844.50085 2.35282e-18
3846.00438 7.23255e-18
3847.49775 4.44841e-18
3849.00128 3.00683e-18
3850.50482 8.56281e-18
3851.99819 7.15837e-18
3853.50172 1.91329e-18
3854.99509 3.53277e-18
3856.49863 4.65621e-18
3858.00216 5.25528e-18
3859.49553 4.25867e-18
3860.99906 1.60655e-18
3862.50260 1.77846e-18
3863.99597 4.94440e-18
3865.49950 2.51607e-18
3867.00303 2.16452e-18
3868.49640 4.81464e-18
3869.99994 3.93988e-18
3871.50347 4.70233e-18
3872.99684 4.84542e-18
3874.50037 3.81801e-18
3876.00391 3.88708e-18
3877.49728 5.24562e-18
3879.00081 6.79169e-18
3880.50434 3.28890e-18
3881.99772 1.66622e-19
3883.50125 1.02672e-18
3885.00478 4.18193e-18
3886.49815 3.42752e-18
3888.00169 2.38688e-18
3889.49506 1.68309e-19
3890.99859 4.41868e-18
3892.50212 8.21591e-18
3893.99550 5.54296e-18
3895.49903 6.61922e-18
3897.00256 2.44351e-18
3898.49593 5.14987e-19
3899.99946 4.06073e-18
3901.50300 7.38022e-18
3902.99637 2.49977e-18
3904.49990 4.86277e-18
3906.00343 6.95705e-18
3907.49681 5.34369e-18
3909.00034 6.45454e-18
3910.50387 6.74787e-18
3911.99724 8.10776e-18
3913.50077 5.20396e-18
3915.00431 5.28919e-18
3916.49768 6.92603e-18
3918.00121 4.40466e-18
3919.50474 6.71055e-18
3920.99812 7.86626e-18
3922.50165 6.73496e-18
3923.99502 4.08296e-18
3925.49855 6.43132e-18
3927.00209 8.59703e-18
3928.49546 7.06139e-18
3929.99899 6.49658e-18
3931.50252 7.75313e-18
3932.99590 7.95085e-18
3934.49943 7.81990e-18
3936.00296 7.62176e-18
3937.49633 4.00027e-18
3938.99987 6.66855e-18
3940.50340 7.08924e-18
3941.99677 5.31993e-18
3943.50030 3.66268e-18
3945.00383 5.12754e-18
3946.49721 6.63738e-18
3948.00074 4.87391e-18
3949.50427 4.87877e-18
3950.99764 6.30570e-18
3952.50118 5.79275e-18
3954.00471 5.61883e-18
3955.49808 5.86826e-18
3957.00161 5.68019e-18
3958.49499 5.67249e-18
3959.99852 4.46668e-18
3961.50205 5.71164e-18
3962.99542 6.79928e-18
3964.49896 6.11959e-18
3966.00249 5.12921e-18
3967.49586 6.31500e-18
3968.99939 5.03410e-18
3970.50292 3.03213e-18
3971.99630 6.57173e-18
3973.49983 9.02665e-18
3975.00336 5.83516e-18
3976.49673 6.69036e-18
3978.00027 8.78321e-18
3979.50380 3.04918e-18
3980.99717 5.51956e-18
3982.50070 7.73635e-18
3984.00424 8.29610e-18
3985.49761 7.18573e-18
3987.00114 9.19885e-18
3988.50467 7.14961e-18
3989.99805 7.90748e-18
3991.50158 7.67442e-18
3992.99495 8.52326e-18
3994.49848 4.91887e-18
3996.00201 3.11384e-18
3997.49539 7.93846e-18
3998.99892 6.02890e-18
4000.50245 5.60688e-18
4001.99582 7.11432e-18
4003.49936 6.28548e-18
4005.00289 6.24266e-18
4006.49626 7.95294e-18
4007.99979 6.22482e-18
4009.50333 5.93466e-18
4010.99670 7.72367e-18
4012.50023 9.41378e-18
4014.00376 4.85133e-18
4015.49714 4.24951e-18
4017.00067 3.41978e-18
4018.50420 4.60259e-18
4019.99757 7.62271e-18
4021.50110 9.26366e-18
4023.00464 8.17455e-18
4024.49801 4.11698e-18
4026.00154 6.41140e-18
4027.49491 1.02384e-17
4028.99845 8.67174e-18
4030.50198 6.01958e-18
4031.99535 4.41538e-18
4033.49888 2.67481e-18
4035.00241 2.62815e-18
4036.49579 3.06642e-18
4037.99932 7.57619e-18
4039.50285 7.42888e-18
4040.99623 6.22445e-18
4042.49976 8.01361e-18
4044.00329 7.17262e-18
4045.49666 6.58483e-18
4047.00019 8.74180e-18
4048.50373 7.92630e-18
4049.99710 6.31878e-18
4051.50063 6.83020e-18
4053.00416 8.31486e-18
4054.49754 8.08320e-18
4056.00107 7.57233e-18
4057.50460 4.10338e-18
4058.99797 5.01394e-18
4060.50150 7.27835e-18
4062.00504 7.20975e-18
4063.49841 8.72401e-18
4065.00194 8.00236e-18
4066.49532 6.04441e-18
4067.99885 6.83978e-18
4069.50238 3.36054e-18
4070.99575 2.97747e-18
4072.49928 6.05709e-18
4074.00282 7.51259e-18
4075.49619 8.22575e-18
4076.99972 6.76157e-18
4078.50325 4.47231e-18
4079.99663 6.88848e-18
4081.50016 6.49747e-18
4083.00369 6.90302e-18
4084.49706 7.85721e-18
4086.00060 7.55245e-18
4087.50413 6.31744e-18
4088.99750 6.80998e-18
4090.50103 5.77286e-18
4092.00456 5.61545e-18
4093.49794 7.47859e-18
4095.00147 6.44174e-18
4096.50500 5.82443e-18
4097.99837 5.40517e-18
4099.50191 4.62974e-18
4100.99528 5.84571e-18
4102.49881 5.64920e-18
4104.00234 5.95778e-18
4105.49572 5.72082e-18
4106.99925 7.13016e-18
4108.50278 1.06534e-17
4109.99615 8.92985e-18
4111.49968 6.23777e-18
4113.00322 6.61026e-18
4114.49659 5.03505e-18
4116.00012 5.65690e-18
4117.50365 1.09387e-17
4118.99703 6.39065e-18
4120.50056 3.39471e-18
4122.00409 3.92618e-18
4123.49746 7.13766e-18
4125.00100 5.27432e-18
4126.50453 9.50113e-18
4127.99790 4.98286e-18
4129.50143 5.15510e-18
4130.99481 5.89891e-18
4132.49834 4.79282e-18
4134.00187 8.00689e-18
4135.49524 7.91312e-18
4136.99878 7.85721e-18
4138.50231 5.66250e-18
4139.99568 4.77789e-18
4141.49921 1.11802e-17
4143.00274 1.14688e-17
4144.49612 7.60471e-18
4145.99965 6.26988e-18
4147.50318 6.85814e-18
4148.99655 5.91109e-18
4150.50009 7.50120e-18
4152.00362 9.13553e-18
4153.49699 7.28455e-18
4155.00052 7.17431e-18
4156.50406 6.91018e-18
4157.99743 4.76940e-18
4159.50096 5.06313e-18
4161.00449 6.98181e-18
4162.49787 5.48709e-18
4164.00140 2.62714e-18
4165.50493 2.83231e-18
4166.99830 3.93934e-18
4168.50183 4.49641e-18
4169.99521 4.83638e-18
4171.49874 4.96320e-18
4173.00227 6.23460e-18
4174.49564 4.93261e-18
4175.99918 4.10151e-18
4177.50271 4.28448e-18
4178.99608 4.07896e-18
4180.49961 4.30014e-18
4182.00315 4.19348e-18
4183.49652 5.45479e-18
4185.00005 5.83532e-18
4186.50358 7.43704e-18
4187.99695 7.32169e-18
4189.50049 4.66275e-18
4191.00402 4.18262e-18
4192.49739 4.29448e-18
4194.00092 6.93664e-18
4195.50446 5.95590e-18
4196.99783 5.85637e-18
4198.50136 5.71061e-18
4200.00489 5.23997e-18
4201.49827 5.33926e-18
4203.00180 8.57911e-18
4204.49517 9.62131e-18
4205.99870 4.82241e-18
4207.50223 5.51983e-18
4208.99561 4.98952e-18
4210.49914 5.48924e-18
4212.00267 3.93824e-18
4213.49604 4.86943e-18
4214.99958 7.01126e-18
4216.50311 5.26721e-18
4217.99648 5.81564e-18
4219.50001 6.22989e-18
4221.00355 5.42065e-18
4222.49692 7.11263e-18
4224.00045 5.82508e-18
4225.50398 6.39681e-18
4226.99736 6.18849e-18
4228.50089 7.04851e-18
4230.00442 8.55167e-18
4231.49779 8.33247e-18
4233.00133 4.23877e-18
4234.50486 7.12482e-18
4235.99823 8.22286e-18
4237.50176 5.56602e-18
4238.99514 7.04745e-18
4240.49867 5.94044e-18
4242.00220 2.77027e-18
4243.49557 2.72798e-18
4244.99910 5.31036e-18
4246.50264 6.80659e-18
4247.99601 7.07508e-18
4249.49954 5.30816e-18
4251.00307 3.66895e-18
4252.49645 4.54205e-18
4253.99998 6.17886e-18
4255.50351 7.61768e-18
4256.99688 5.87494e-18
4258.50042 5.12194e-18
4260.00395 8.49162e-18
4261.49732 8.12451e-18
4263.00085 6.32642e-18
4264.50438 7.74467e-18
4265.99776 6.30038e-18
4267.50129 5.62841e-18
4269.00482 4.87653e-18
4270.49819 5.50242e-18
4272.00173 5.11127e-18
4273.49510 3.94254e-18
4274.99863 5.19100e-18
4276.50216 7.51329e-18
4277.99554 6.59488e-18
4279.49907 6.28997e-18
4281.00260 6.39964e-18
4282.49597 6.44177e-18
4283.99950 6.41898e-18
4285.50304 5.76842e-18
4286.99641 6.08476e-18
4288.49994 6.71824e-18
4290.00347 5.41506e-18
4291.49685 6.13256e-18
4293.00038 6.48263e-18
4294.50391 5.21287e-18
4295.99728 5.27589e-18
4297.50082 6.37121e-18
4299.00435 6.83052e-18
4300.49772 7.04340e-18
4302.00125 7.23758e-18
4303.50479 6.16609e-18
4304.99816 5.62600e-18
4306.50169 6.04417e-18
4307.99506 6.42784e-18
4309.49860 7.77730e-18
4311.00213 6.02805e-18
4312.49550 4.50910e-18
4313.99903 5.09358e-18
4315.50256 6.34789e-18
4316.99594 7.22443e-18
4318.49947 7.73170e-18
4320.00300 5.43251e-18
4321.49637 5.46368e-18
4322.99991 6.17499e-18
4324.50344 6.49489e-18
4325.99681 4.91667e-18
4327.50034 5.59999e-18
4329.00388 6.81823e-18
4330.49725 7.22934e-18
4332.00078 6.64192e-18
4333.50431 5.35982e-18
4334.99768 4.70141e-18
4336.50122 5.72517e-18
4338.00475 6.20172e-18
4339.49812 6.41964e-18
4341.00165 6.31396e-18
4342.49503 4.63468e-18
4343.99856 5.81250e-18
4345.50209 6.91519e-18
4346.99546 6.29603e-18
4348.49900 5.41535e-18
4350.00253 6.39273e-18
4351.49590 7.32132e-18
4352.99943 8.20076e-18
4354.50297 5.19487e-18
4355.99634 4.10204e-18
4357.49987 3.24991e-18
4359.00340 7.02877e-18
4360.49678 7.67011e-18
4362.00031 6.00206e-18
4363.50384 5.56754e-18
4364.99721 5.71943e-18
4366.50074 5.68356e-18
4368.00428 6.22233e-18
4369.49765 7.05894e-18
4371.00118 7.23625e-18
4372.50471 6.86034e-18
4373.99809 4.71181e-18
4375.50162 4.80179e-18
4376.99499 7.99772e-18
4378.49852 8.67577e-18
4380.00205 7.76780e-18
4381.49543 6.38234e-18
4382.99896 5.24733e-18
4384.50249 4.68756e-18
4385.99587 5.80721e-18
4387.49940 4.62231e-18
4389.00293 5.31564e-18
4390.49630 5.28756e-18
4391.99983 4.49742e-18
4393.50337 6.52037e-18
4394.99674 4.85282e-18
4396.50027 4.54444e-18
4398.00380 5.90331e-18
4399.49718 6.15101e-18
4401.00071 4.12256e-18
4402.50424 6.50180e-18
4403.99761 6.80397e-18
4405.50115 5.87486e-18
4407.00468 3.80159e-18
4408.49805 5.50329e-18
4410.00158 6.30735e-18
4411.50511 6.20045e-18
4412.99849 4.82107e-18
4414.50202 4.86952e-18
4415.99539 4.91800e-18
4417.49892 4.96647e-18
4419.00246 5.01493e-18
4420.49583 5.06340e-18
4421.99936 5.11186e-18
4423.50289 5.16032e-18
4424.99627 5.20877e-18
4426.49980 5.25723e-18
4428.00333 5.30568e-18
4429.49670 5.35413e-18
4431.00023 5.40258e-18
4432.50377 5.45102e-18
4433.99714 5.49944e-18
4435.50067 5.54788e-18
4437.00420 5.59632e-18
4438.49758 5.64475e-18
4440.00111 5.69318e-18
4441.50464 5.74161e-18
4442.99801 5.79004e-18
4444.50155 5.83846e-18
4446.00508 5.88688e-18
4447.49845 5.93530e-18
4449.00198 5.98371e-18
4450.49536 6.03212e-18
4451.99889 6.08052e-18
4453.50242 6.47139e-18
4454.99579 5.04417e-18
4456.49932 5.63234e-18
4458.00286 6.60719e-18
4459.49623 7.79530e-18
4460.99976 8.28479e-18
4462.50329 6.31517e-18
4463.99667 5.45538e-18
4465.50020 4.91721e-18
4467.00373 5.11455e-18
4468.49710 5.59548e-18
4470.00064 6.76528e-18
4471.50417 6.99732e-18
4472.99754 3.91763e-18
4474.50107 3.10797e-18
4476.00461 6.43357e-18
4477.49798 6.79841e-18
4479.00151 6.04643e-18
4480.50504 6.03362e-18
4481.99842 5.20328e-18
4483.50195 5.34676e-18
4484.99532 7.17546e-18
4486.49885 6.23299e-18
4488.00238 5.52686e-18
4489.49576 5.90078e-18
4490.99929 7.18263e-18
4492.50282 7.12453e-18
4493.99619 6.29983e-18
4495.49973 5.57032e-18
4497.00326 4.65713e-18
4498.49663 5.14319e-18
4500.00016 5.72260e-18
4501.50370 5.81585e-18
4502.99707 5.77719e-18
4504.50060 6.24168e-18
4506.00413 5.29748e-18
4507.49751 5.39079e-18
4509.00104 6.41206e-18
4510.50457 6.36539e-18
4511.99794 5.93065e-18
4513.50147 7.03254e-18
4514.99485 6.77714e-18
4516.49838 3.66907e-18
4518.00191 5.40856e-18
4519.49528 8.37568e-18
4520.99882 8.30450e-18
4522.50235 8.69757e-18
4523.99572 8.59531e-18
4525.49925 6.17600e-18
4527.00278 5.02455e-18
4528.49616 6.43481e-18
4529.99969 6.39083e-18
4531.50322 6.15047e-18
4532.99660 5.11171e-18
4534.50013 5.91725e-18
4536.00366 6.26423e-18
4537.49703 7.60717e-18
4539.00056 8.80510e-18
4540.50410 7.27043e-18
4541.99747 6.61706e-18
4543.50100 7.20007e-18
4545.00453 7.45269e-18
4546.49791 6.34135e-18
4548.00144 7.24789e-18
4549.49481 7.56134e-18
4550.99834 8.67395e-18
4552.50187 7.50203e-18
4553.99525 8.08109e-18
4555.49878 7.44338e-18
4557.00231 8.02402e-18
4558.49568 1.01711e-17
4559.99922 7.86793e-18
4561.50275 7.52903e-18
4562.99612 7.28349e-18
4564.49965 8.24066e-18
4566.00319 7.84371e-18
4567.49656 7.55018e-18
4569.00009 9.07265e-18
4570.50362 8.73821e-18
4571.99700 8.85744e-18
4573.50053 8.57926e-18
4575.00406 8.14340e-18
4576.49743 1.08266e-17
4578.00097 9.56614e-18
4579.50450 7.09620e-18
4580.99787 8.03028e-18
4582.50140 8.39181e-18
4583.99478 8.22682e-18
4585.49831 7.49826e-18
4587.00184 8.51500e-18
4588.49521 9.20484e-18
4589.99874 8.58930e-18
4591.50228 8.63485e-18
4592.99565 8.31331e-18
4594.49918 9.39909e-18
4596.00271 1.02016e-17
4597.49609 8.64576e-18
4598.99962 9.28270e-18
4600.50315 1.13683e-17
4601.99652 1.04203e-17
4603.50005 8.91518e-18
4605.00359 8.62538e-18
4606.49696 8.85936e-18
4608.00049 7.86735e-18
4609.50402 8.73459e-18
4610.99740 8.82014e-18
4612.50093 1.19605e-17
4614.00446 1.09964e-17
4615.49783 9.61685e-18
4617.00137 1.02384e-17
4618.50490 1.20780e-17
4619.99827 9.50348e-18
4621.50180 7.41321e-18
4622.99518 7.58401e-18
4624.49871 8.44427e-18
4626.00224 8.33390e-18
4627.49561 1.05300e-17
4628.99915 9.63039e-18
4630.50268 8.94959e-18
4631.99605 8.74242e-18
4633.49958 7.36118e-18
4635.00311 9.67118e-18
4636.49649 9.59759e-18
4638.00002 9.58149e-18
4639.50355 1.04014e-17
4640.99692 1.09860e-17
4642.50046 9.10166e-18
4644.00399 8.61579e-18
4645.49736 1.04874e-17
4647.00089 9.59946e-18
4648.50443 7.41004e-18
4649.99780 9.18331e-18
4651.50133 9.95063e-18
4653.00486 9.86593e-18
4654.49824 9.59752e-18
4656.00177 9.93886e-18
4657.49514 9.23897e-18
4658.99867 1.01924e-17
4660.50220 1.05367e-17
4661.99558 1.12884e-17
4663.49911 1.10218e-17
4665.00264 8.67948e-18
4666.49601 1.00008e-17
4667.99955 9.13106e-18
4669.50308 9.35760e-18
4670.99645 9.84731e-18
4672.49998 9.41054e-18
4674.00352 7.54109e-18
4675.49689 8.17325e-18
4677.00042 9.18539e-18
4678.50395 1.01510e-17
4679.99733 8.88588e-18
4681.50086 9.64465e-18
4683.00439 8.17011e-18
4684.49776 1.08964e-17
4686.00129 1.00654e-17
4687.50483 8.92700e-18
4688.99820 9.04825e-18
4690.50173 9.74745e-18
4691.99510 8.10874e-18
4693.49864 9.36614e-18
4695.00217 1.00304e-17
4696.49554 9.42854e-18
4697.99907 1.02392e-17
4699.50260 1.07559e-17
4700.99598 7.83748e-18
4702.49951 9.05479e-18
4704.00304 9.61710e-18
4705.49642 8.39355e-18
4706.99995 9.50997e-18
4708.50348 8.59699e-18
4709.99685 8.75851e-18
4711.50038 1.00181e-17
4713.00392 9.76098e-18
4714.49729 8.77699e-18
4716.00082 8.88451e-18
4717.50435 9.91601e-18
4718.99773 9.80348e-18
4720.50126 9.16471e-18
4722.00479 7.39890e-18
4723.49816 6.99863e-18
4725.00169 9.38002e-18
4726.49507 9.10194e-18
4727.99860 7.72868e-18
4729.50213 8.04581e-18
4730.99550 7.60492e-18
4732.49904 8.07938e-18
4734.00257 8.81356e-18
4735.49594 9.22887e-18
4736.99947 9.09085e-18
4738.50301 8.57417e-18
4739.99638 8.46218e-18
4741.49991 8.43397e-18
4743.00344 8.59140e-18
4744.49682 7.11230e-18
4746.00035 8.31752e-18
4747.50388 1.02437e-17
4748.99725 1.05776e-17
4750.50079 6.57273e-18
4752.00432 8.23968e-18
4753.49769 8.69381e-18
4755.00122 6.86647e-18
4756.50475 8.17041e-18
4757.99813 7.89882e-18
4759.50166 7.45489e-18
4760.99503 8.06157e-18
4762.49856 6.52105e-18
4764.00210 6.84561e-18
4765.49547 6.93856e-18
4766.99900 6.96512e-18
4768.50253 7.52672e-18
4769.99591 6.92931e-18
4771.49944 6.52590e-18
4773.00297 8.24919e-18
4774.49634 8.07957e-18
4775.99988 6.86709e-18
4777.50341 8.04001e-18
4778.99678 9.20811e-18
4780.50031 8.88362e-18
4782.00384 8.51406e-18
4783.49722 8.43723e-18
4785.00075 7.60559e-18
4786.50428 6.87836e-18
4787.99765 6.07529e-18
4789.50119 7.52731e-18
4791.00472 9.58382e-18
4792.49809 8.46969e-18
4794.00162 7.61460e-18
4795.49500 7.37360e-18
4796.99853 6.13328e-18
4798.50206 6.04165e-18
4799.99543 7.68326e-18
4801.49897 8.34356e-18
4803.00250 7.47713e-18
4804.49587 6.44905e-18
4805.99940 6.65196e-18
4807.50293 6.24767e-18
4808.99631 6.47905e-18
4810.49984 7.59446e-18
4812.00337 8.37324e-18
4813.49674 8.68100e-18
4815.00028 7.20987e-18
4816.50381 7.51749e-18
4817.99718 6.06248e-18
4819.50071 6.66785e-18
4821.00425 9.14098e-18
4822.49762 9.90012e-18
4824.00115 6.53936e-18
4825.50468 7.65110e-18
4826.99806 8.60905e-18
4828.50159 9.16432e-18
4829.99496 7.82256e-18
4831.49849 7.33362e-18
4833.00202 7.44419e-18
4834.49540 6.59124e-18
4835.99893 5.76187e-18
4837.50246 6.67907e-18
4838.99583 6.27810e-18
4840.49937 7.35983e-18
4842.00290 7.95332e-18
4843.49627 9.37552e-18
4844.99980 8.18853e-18
4846.50333 8.29378e-18
4847.99671 9.34639e-18
4849.50024 7.90190e-18
4851.00377 8.17544e-18
4852.49715 9.17469e-18
4854.00068 7.66286e-18
4855.50421 7.09761e-18
4856.99758 8.12920e-18
4858.50111 6.96535e-18
4860.00465 7.51882e-18
4861.49802 9.48522e-18
4863.00155 9.41629e-18
4864.49492 7.68332e-18
4865.99846 6.44846e-18
4867.50199 7.26876e-18
4868.99536 8.92876e-18
4870.49889 8.30596e-18
4872.00242 7.84402e-18
4873.49580 9.13956e-18
4874.99933 8.87346e-18
4876.50286 8.85816e-18
4877.99623 8.31111e-18
4879.49977 7.61647e-18
4881.00330 6.55637e-18
4882.49667 8.09373e-18
4884.00020 8.04937e-18
4885.50374 6.69028e-18
4886.99711 6.91076e-18
4888.50064 7.75038e-18
4890.00417 7.17106e-18
4891.49755 7.94636e-18
4893.00108 8.32116e-18
4894.50461 8.85974e-18
4895.99798 9.48785e-18
4897.50152 8.17177e-18
4899.00505 5.77065e-18
4900.49842 6.47047e-18
4902.00195 6.77527e-18
4903.49532 7.70678e-18
4904.99886 7.67113e-18
4906.50239 7.83549e-18
4907.99576 7.39137e-18
4909.49929 6.64927e-18
4911.00283 5.86363e-18
4912.49620 6.53813e-18
4913.99973 8.51170e-18
4915.50326 8.31203e-18
4916.99664 6.87510e-18
4918.50017 6.98706e-18
4920.00370 7.45733e-18
4921.49707 7.46535e-18
4923.00061 7.47338e-18
4924.50414 7.48140e-18
4925.99751 7.48942e-18
4927.50104 7.49745e-18
4929.00457 7.50547e-18
4930.49795 7.51349e-18
4932.00148 7.52151e-18
4933.50501 7.52953e-18
4934.99838 7.53755e-18
4936.50192 7.54557e-18
4937.99529 7.55359e-18
4939.49882 7.56161e-18
4941.00235 7.56963e-18
4942.49573 7.57765e-18
4943.99926 7.58566e-18
4945.50279 7.59368e-18
4946.99616 7.60170e-18
4948.49970 7.60972e-18
4950.00323 7.61773e-18
4951.49660 7.62575e-18
4953.00013 7.63376e-18
4954.50366 7.64178e-18
4955.99704 7.64979e-18
4957.50057 7.65780e-18
4959.00410 7.05869e-18
4960.49747 7.05380e-18
4962.00101 6.91878e-18
4963.50454 7.55124e-18
4964.99791 8.32777e-18
4966.50144 7.01993e-18
4968.00497 8.07663e-18
4969.49835 8.82047e-18
4971.00188 6.79960e-18
4972.49525 8.14663e-18
4973.99878 8.76195e-18
4975.50232 7.31253e-18
4976.99569 8.31182e-18
4978.49922 9.93273e-18
4980.00275 1.06105e-17
4981.49613 9.46500e-18
4982.99966 8.27872e-18
4984.50319 9.15540e-18
4985.99656 9.60784e-18
4987.50010 9.11832e-18
4989.00363 8.16997e-18
4990.49700 9.10831e-18
4992.00053 7.48804e-18
4993.50407 8.24963e-18
4994.99744 8.49271e-18
4996.50097 8.17843e-18
4998.00450 8.42906e-18
4999.49788 7.96640e-18
5001.00141 7.76727e-18
5002.50494 7.88886e-18
5003.99831 9.29371e-18
5005.50184 9.39894e-18
5006.99522 9.82555e-18
5008.49875 9.44521e-18
5010.00228 8.85735e-18
5011.49565 8.62758e-18
5012.99919 7.98097e-18
5014.50272 8.75350e-18
5015.99609 8.52788e-18
5017.49962 6.93144e-18
5019.00316 7.65257e-18
5020.49653 7.68785e-18
5022.00006 7.72312e-18
5023.50359 7.75839e-18
5024.99697 7.79366e-18
5026.50050 7.82893e-18
5028.00403 7.86419e-18
5029.49740 7.89945e-18
5031.00093 7.93470e-18
5032.50447 7.96996e-18
5033.99784 8.00522e-18
5035.50137 8.04047e-18
5037.00490 8.07573e-18
5038.49828 8.11098e-18
5040.00181 8.14623e-18
5041.49518 8.18148e-18
5042.99871 8.21672e-18
5044.50225 8.25197e-18
5045.99562 8.28721e-18
5047.49915 8.32245e-18
5049.00268 8.35768e-18
5050.49605 8.39291e-18
5051.99959 8.42815e-18
5053.50312 8.46338e-18
5054.99649 8.49861e-18
5056.50002 8.53384e-18
5058.00356 6.18078e-18
5059.49693 5.68167e-18
5061.00046 6.74918e-18
5062.50399 7.20256e-18
5063.99737 6.35898e-18
5065.50090 6.47834e-18
5067.00443 7.95958e-18
5068.49780 7.85954e-18
5070.00133 7.75947e-18
5071.49471 7.65940e-18
5072.99824 7.55934e-18
5074.50177 7.45928e-18
5075.99514 7.35923e-18
5077.49868 7.25919e-18
5079.00221 7.15915e-18
5080.49558 7.05911e-18
5081.99911 6.95908e-18
5083.50265 6.85906e-18
5084.99602 6.75904e-18
5086.49955 6.65907e-18
5088.00308 6.55906e-18
5089.49646 6.45906e-18
5090.99999 6.35906e-18
5092.50352 6.25907e-18
5093.99689 6.15909e-18
5095.50043 6.05911e-18
5097.00396 5.95914e-18
5098.49733 5.85917e-18
5100.00086 5.75921e-18
5101.50439 5.65925e-18
5102.99777 5.55930e-18
5104.50130 5.45935e-18
5105.99467 5.35945e-18
5107.49820 6.25119e-18
5109.00174 5.78536e-18
5110.49511 6.94369e-18
5111.99864 6.72159e-18
5113.50217 6.06372e-18
5114.99555 5.29391e-18
5116.49908 6.10583e-18
5118.00261 6.73731e-18
5119.49598 6.66390e-18
5120.99952 6.42948e-18
5122.50305 6.49348e-18
5123.99642 7.04552e-18
5125.49995 7.92758e-18
5127.00348 6.30620e-18
5128.49686 7.61902e-18
5130.00039 7.64013e-18
5131.50392 7.53932e-18
5132.99729 8.07394e-18
5134.50083 7.01298e-18
5136.00436 7.79863e-18
5137.49773 6.41749e-18
5139.00126 6.26664e-18
5140.50480 7.14831e-18
5141.99817 7.09553e-18
5143.50170 6.74431e-18
5144.99507 6.69868e-18
5146.49860 6.14299e-18
5148.00214 6.75950e-18
5149.49551 6.89105e-18
5150.99904 7.40569e-18
5152.50257 8.54041e-18
5153.99595 7.86408e-18
5155.49948 6.37930e-18
5157.00301 6.97090e-18
5158.49638 7.48816e-18
5159.99992 7.88890e-18
5161.50345 7.35511e-18
5162.99682 6.80992e-18
5164.50035 7.55704e-18
5166.00389 7.52710e-18
5167.49726 6.67942e-18
5169.00079 7.36583e-18
5170.50432 7.74835e-18
5171.99770 8.04559e-18
5173.50123 7.59250e-18
5175.00476 7.11636e-18
5176.49813 7.20802e-18
5178.00166 7.01845e-18
5179.49504 7.07300e-18
5180.99857 7.18061e-18
5182.50210 7.58071e-18
5183.99547 7.95757e-18
5185.49901 7.57798e-18
5187.00254 6.83092e-18
5188.49591 7.43916e-18
5189.99944 7.81321e-18
5191.50298 7.97306e-18
5192.99635 7.30086e-18
5194.49988 6.30941e-18
5196.00341 6.41442e-18
5197.49678 7.63172e-18
5199.00032 5.61339e-18
5200.50385 5.90369e-18
5201.99722 6.90322e-18
5203.50075 8.69754e-18
5205.00429 9.23568e-18
5206.49766 9.19583e-18
5208.00119 7.64310e-18
5209.50472 7.02270e-18
5210.99810 7.12719e-18
5212.50163 8.09864e-18
5214.00516 7.41912e-18
5215.49853 7.15651e-18
5217.00207 7.19312e-18
5218.49544 7.83520e-18
5219.99897 8.83844e-18
5221.50250 8.25462e-18
5222.99588 8.49583e-18
5224.49941 8.56942e-18
5226.00294 7.69293e-18
5227.49631 7.80367e-18
5228.99984 7.94080e-18
5230.50338 7.46175e-18
5231.99675 8.35172e-18
5233.50028 9.58575e-18
5235.00381 8.70734e-18
5236.49719 8.99164e-18
5238.00072 8.79923e-18
5239.50425 7.79061e-18
5240.99762 8.60604e-18
5242.50115 8.52049e-18
5244.00469 9.89104e-18
5245.49806 7.43783e-18
5247.00159 8.60210e-18
5248.49497 8.88992e-18
5249.99850 8.77125e-18
5251.50203 7.26361e-18
5252.99540 7.38495e-18
5254.49893 8.81184e-18
5256.00247 9.28274e-18
5257.49584 8.68737e-18
5258.99937 9.95494e-18
5260.50290 8.08743e-18
5261.99628 8.71122e-18
5263.49981 7.79682e-18
5265.00334 9.65188e-18
5266.49671 9.86130e-18
5268.00025 9.46354e-18
5269.50378 8.17366e-18
5270.99715 8.09159e-18
5272.50068 7.99520e-18
5274.00421 7.16517e-18
5275.49759 7.47966e-18
5277.00112 9.33934e-18
5278.50465 8.85247e-18
5279.99802 8.60157e-18
5281.50156 8.56481e-18
5282.99493 9.05684e-18
5284.49846 8.78041e-18
5286.00199 9.77025e-18
5287.49537 1.07009e-17
5288.99890 1.03518e-17
5290.50243 9.23075e-18
5291.99580 8.82553e-18
5293.49933 8.60707e-18
5295.00287 9.32652e-18
5296.49624 9.76121e-18
5297.99977 9.27457e-18
5299.50330 9.15913e-18
5300.99668 9.28959e-18
5302.50021 9.37586e-18
5304.00374 9.07790e-18
5305.49711 8.96128e-18
5307.00065 9.79468e-18
5308.50418 9.36579e-18
5309.99755 8.87718e-18
5311.50108 9.20164e-18
5313.00462 9.62176e-18
5314.49799 1.03678e-17
5316.00152 1.09010e-17
5317.49489 1.04655e-17
5318.99842 9.76594e-18
5320.50196 1.01798e-17
5321.99533 1.07440e-17
5323.49886 9.52053e-18
5325.00239 1.04145e-17
5326.49577 9.98887e-18
5327.99930 9.65940e-18
5329.50283 9.68019e-18
5330.99620 9.04526e-18
5332.49974 1.03329e-17
5334.00327 9.70358e-18
5335.49664 1.12116e-17
5337.00017 1.08691e-17
5338.50371 1.01180e-17
5339.99708 1.01601e-17
5341.50061 1.04908e-17
5343.00414 1.09534e-17
5344.49752 9.95121e-18
5346.00105 1.07675e-17
5347.50458 1.07660e-17
5348.99795 1.04132e-17
5350.50148 1.05198e-17
5351.99486 1.02310e-17
5353.49839 1.00634e-17
5355.00192 8.51676e-18
5356.49529 1.01836e-17
5357.99883 1.20568e-17
5359.50236 1.08200e-17
5360.99573 1.09419e-17
5362.49926 1.19338e-17
5364.00280 1.07156e-17
5365.49617 9.86955e-18
5366.99970 1.09322e-17
5368.50323 1.14904e-17
5369.99661 1.11628e-17
5371.50014 1.06482e-17
5373.00367 1.01831e-17
5374.49704 1.06004e-17
5376.00057 1.08184e-17
5377.50411 1.07081e-17
5378.99748 1.01468e-17
5380.50101 9.99962e-18
5382.00454 1.01634e-17
5383.49792 9.79026e-18
5385.00145 1.06633e-17
5386.49482 1.03542e-17
5387.99835 1.02960e-17
5389.50188 1.08726e-17
5390.99526 1.02186e-17
5392.49879 1.01696e-17
5394.00232 1.04951e-17
5395.49570 1.07059e-17
5396.99923 1.00239e-17
5398.50276 1.01941e-17
5399.99613 1.13750e-17
5401.49966 1.14175e-17
5403.00320 1.09773e-17
5404.49657 1.10060e-17
5406.00010 1.13680e-17
5407.50363 1.15649e-17
5408.99701 9.58778e-18
5410.50054 9.40261e-18
5412.00407 1.06645e-17
5413.49744 1.01760e-17
5415.00097 1.05759e-17
5416.50451 1.12578e-17
5417.99788 1.12997e-17
5419.50141 1.02149e-17
5421.00494 8.89620e-18
5422.49832 9.36674e-18
5424.00185 1.03898e-17
5425.49522 1.04438e-17
5426.99875 1.04953e-17
5428.50229 1.12912e-17
5429.99566 1.14319e-17
5431.49919 1.03623e-17
5433.00272 1.02959e-17
5434.49610 1.15669e-17
5435.99963 1.14727e-17
5437.50316 1.06285e-17
5438.99653 1.07884e-17
5440.50007 1.06603e-17
5442.00360 1.12713e-17
5443.49697 1.09729e-17
5445.00050 9.83021e-18
5446.50403 1.03932e-17
5447.99741 1.07064e-17
5449.50094 1.04511e-17
5451.00447 1.10979e-17
5452.49784 1.06244e-17
5454.00138 9.23358e-18
5455.50491 1.11296e-17
5456.99828 1.31128e-17
5458.50181 1.16213e-17
5459.99519 1.03007e-17
5461.49872 1.03210e-17
5463.00225 1.12910e-17
5464.49562 1.20010e-17
5465.99915 1.10204e-17
5467.50269 1.25466e-17
5468.99606 1.38758e-17
5470.49959 1.16824e-17
5472.00312 1.10674e-17
5473.49650 1.05934e-17
5475.00003 9.61705e-18
5476.50356 1.22459e-17
5477.99693 1.06419e-17
5479.50047 9.70866e-18
5481.00400 9.15139e-18
5482.49737 1.06896e-17
5484.00090 1.20099e-17
5485.50443 1.02143e-17
5486.99781 1.15539e-17
5488.50134 1.18283e-17
5490.00487 1.14948e-17
5491.49825 1.15114e-17
5493.00178 1.21661e-17
5494.49515 1.22951e-17
5495.99868 1.25797e-17
5497.50221 1.25446e-17
5498.99559 1.14825e-17
5500.49912 1.13605e-17
5502.00265 1.16371e-17
5503.49602 1.22102e-17
5504.99956 1.19519e-17
5506.50309 1.14655e-17
5507.99646 1.14371e-17
5509.49999 1.25103e-17
5511.00353 1.33001e-17
5512.49690 1.19384e-17
5514.00043 1.20055e-17
5515.50396 1.17888e-17
5516.99734 1.15056e-17
5518.50087 1.33800e-17
5520.00440 1.42785e-17
5521.49777 1.39519e-17
5523.00130 1.40330e-17
5524.50484 1.34051e-17
5525.99821 1.33939e-17
5527.50174 1.34365e-17
5528.99511 1.23940e-17
5530.49865 1.18936e-17
5532.00218 1.23406e-17
5533.49555 1.27984e-17
5534.99908 1.43902e-17
5536.50262 1.34664e-17
5537.99599 1.19707e-17
5539.49952 1.40314e-17
5541.00305 1.28041e-17
5542.49643 1.27341e-17
5543.99996 1.36426e-17
5545.50349 1.39212e-17
5546.99686 1.45191e-17
5548.50039 1.41809e-17
5550.00393 1.33377e-17
5551.49730 1.37744e-17
5553.00083 1.22918e-17
5554.50436 1.30094e-17
5555.99774 1.32162e-17
5557.50127 1.35256e-17
5559.00480 1.38931e-17
5560.49817 1.34959e-17
5562.00170 1.35994e-17
5563.49508 1.30073e-17
5564.99861 1.17877e-17
5566.50214 1.23665e-17
5567.99552 1.31132e-17
5569.49905 1.40135e-17
5571.00258 1.26926e-17
5572.49595 1.23743e-17
5573.99948 1.29598e-17
5575.50302 1.25672e-17
5576.99639 1.26425e-17
5578.49992 1.49259e-17
5580.00345 1.38153e-17
5581.49683 1.14690e-17
5583.00036 1.25093e-17
5584.50389 1.32729e-17
5585.99726 1.27032e-17
5587.50079 1.18709e-17
5589.00433 1.21208e-17
5590.49770 1.25286e-17
5592.00123 1.19284e-17
5593.50476 1.19364e-17
5594.99814 1.07832e-17
5596.50167 1.10596e-17
5597.99504 1.19602e-17
5599.49857 1.28826e-17
5601.00211 1.25216e-17
5602.49548 1.23791e-17
5603.99901 1.15672e-17
5605.50254 1.21495e-17
5606.99592 1.28879e-17
5608.49945 1.21457e-17
5610.00298 1.21798e-17
5611.49635 1.13069e-17
5612.99989 1.24692e-17
5614.50342 1.22503e-17
5615.99679 1.15535e-17
5617.50032 1.18106e-17
5619.00385 1.24588e-17
5620.49723 1.21016e-17
5622.00076 1.02628e-17
5623.50429 1.08565e-17
5624.99766 1.09145e-17
5626.50120 1.08581e-17
5628.00473 1.10028e-17
5629.49810 1.21277e-17
5631.00163 1.22122e-17
5632.49501 1.11448e-17
5633.99854 1.02990e-17
5635.50207 1.19358e-17
5636.99544 1.16280e-17
5638.49898 1.10164e-17
5640.00251 1.16117e-17
5641.49588 1.10097e-17
5642.99941 1.08411e-17
5644.50294 1.20912e-17
5645.99632 1.26763e-17
5647.49985 1.15773e-17
5649.00338 1.18864e-17
5650.49675 1.22441e-17
5652.00029 1.19563e-17
5653.50382 1.19616e-17
5654.99719 1.24932e-17
5656.50072 1.18561e-17
5658.00425 1.11128e-17
5659.49763 1.20621e-17
5661.00116 1.26014e-17
5662.50469 1.18627e-17
5663.99807 1.20848e-17
5665.50160 1.31767e-17
5666.99497 1.29798e-17
5668.49850 1.25624e-17
5670.00203 1.28487e-17
5671.49541 1.19067e-17
5672.99894 1.26209e-17
5674.50247 1.32826e-17
5675.99584 1.14592e-17
5677.49938 1.20477e-17
5679.00291 1.21796e-17
5680.49628 1.15939e-17
5681.99981 1.37531e-17
5683.50335 1.31474e-17
5684.99672 1.21049e-17
5686.50025 1.17329e-17
5688.00378 1.13968e-17
5689.49716 1.21394e-17
5691.00069 1.25412e-17
5692.50422 1.38906e-17
5693.99759 1.38809e-17
5695.50112 1.29589e-17
5697.00466 1.20715e-17
5698.49803 1.17772e-17
5700.00156 1.30663e-17
5701.50509 1.30436e-17
5702.99847 1.34475e-17
5704.50200 1.32037e-17
5705.99537 1.24664e-17
5707.49890 1.33585e-17
5709.00243 1.36331e-17
5710.49581 1.33651e-17
5711.99934 1.18088e-17
5713.50287 1.13425e-17
5714.99625 1.24945e-17
5716.49978 1.21372e-17
5718.00331 1.24522e-17
5719.49668 1.39149e-17
5721.00021 1.34190e-17
5722.50375 1.29084e-17
5723.99712 1.30322e-17
5725.50065 1.11837e-17
5727.00418 1.10050e-17
5728.49756 1.28423e-17
5730.00109 1.33230e-17
5731.50462 1.32494e-17
5732.99799 1.33570e-17
5734.50153 1.30240e-17
5736.00506 1.16409e-17
5737.49843 1.19735e-17
5739.00196 1.23068e-17
5740.49533 1.19987e-17
5741.99887 1.26190e-17
5743.50240 1.25129e-17
5744.99577 1.24593e-17
5746.49930 1.22821e-17
5748.00284 1.19688e-17
5749.49621 1.15562e-17
5750.99974 1.15371e-17
5752.50327 1.12635e-17
5753.99665 1.13640e-17
5755.50018 1.27961e-17
5757.00371 1.31770e-17
5758.49708 1.36149e-17
5760.00062 1.34824e-17
5761.50415 1.14552e-17
5762.99752 1.13235e-17
5764.50105 1.15739e-17
5766.00458 1.24968e-17
5767.49796 1.17545e-17
5769.00149 1.05134e-17
5770.50502 1.13409e-17
5771.99839 1.15759e-17
5773.50193 1.10374e-17
5774.99530 1.06771e-17
5776.49883 1.07166e-17
5778.00236 1.19049e-17
5779.49574 1.19613e-17
5780.99927 1.11453e-17
5782.50280 9.34483e-18
5783.99617 8.77409e-18
5785.49971 1.01252e-17
5787.00324 1.01405e-17
5788.49661 9.39485e-18
5790.00014 9.42460e-18
5791.50367 9.48150e-18
5792.99705 9.82624e-18
5794.50058 1.08159e-17
5796.00411 1.07825e-17
5797.49748 1.00521e-17
5799.00102 9.89464e-18
5800.50455 8.53916e-18
5801.99792 8.38719e-18
5803.50145 9.65869e-18
5805.00498 9.05019e-18
5806.49836 8.31178e-18
5808.00189 8.88419e-18
5809.49526 1.05838e-17
5810.99880 1.06523e-17
5812.50233 8.75404e-18
5813.99570 9.55608e-18
5815.49923 1.00607e-17
5817.00276 9.75088e-18
5818.49614 9.79874e-18
5819.99967 1.04325e-17
5821.50320 1.10642e-17
5822.99657 1.07911e-17
5824.50011 9.24678e-18
5826.00364 8.84118e-18
5827.49701 9.24687e-18
5829.00054 1.06569e-17
5830.50407 9.72411e-18
5831.99745 9.36479e-18
5833.50098 9.49842e-18
5835.00451 9.70576e-18
5836.49788 9.81933e-18
5838.00142 9.64592e-18
5839.49479 1.01435e-17
5840.99832 9.91780e-18
5842.50185 1.02228e-17
5843.99523 9.17879e-18
5845.49876 8.36069e-18
5847.00229 1.01412e-17
5848.49566 1.03328e-17
5849.99920 9.82865e-18
5851.50273 1.00600e-17
5852.99610 1.04893e-17
5854.49963 1.06574e-17
5856.00317 9.59618e-18
5857.49654 8.58268e-18
5859.00007 8.81977e-18
5860.50360 8.31301e-18
5861.99698 9.04862e-18
5863.50051 1.06075e-17
5865.00404 1.10957e-17
5866.49741 1.10229e-17
5868.00094 1.02677e-17
5869.50448 1.01770e-17
5870.99785 1.13481e-17
5872.50138 1.16503e-17
5873.99475 1.01423e-17
5875.49829 1.16165e-17
5877.00182 1.22249e-17
5878.49519 1.22626e-17
5879.99872 1.16155e-17
5881.50226 1.18280e-17
5882.99563 1.12066e-17
5884.49916 1.06907e-17
5886.00269 1.14784e-17
5887.49607 1.19339e-17
5888.99960 1.12999e-17
5890.50313 1.08662e-17
5891.99650 1.04267e-17
5893.50003 1.11405e-17
5895.00357 1.02767e-17
5896.49694 1.09127e-17
5898.00047 1.16652e-17
5899.50400 1.02483e-17
5900.99738 1.00557e-17
5902.50091 1.07710e-17
5904.00444 1.16678e-17
5905.49781 1.25711e-17
5907.00135 1.16121e-17
5908.49472 1.13362e-17
5909.99825 1.13400e-17
5911.50178 1.19800e-17
5912.99515 1.20021e-17
5914.49869 1.18741e-17
5916.00222 1.26522e-17
5917.49559 1.32872e-17
5918.99912 1.23811e-17
5920.50266 1.20924e-17
5921.99603 1.24464e-17
5923.49956 1.31815e-17
5925.00309 1.37873e-17
5926.49647 1.36704e-17
5928.00000 1.35251e-17
5929.50353 1.27301e-17
5930.99690 1.23066e-17
5932.50043 1.31446e-17
5934.00397 1.38395e-17
5935.49734 1.36886e-17
5937.00087 1.39684e-17
5938.50440 1.40419e-17
5939.99778 1.39899e-17
5941.50131 1.36502e-17
5943.00484 1.32551e-17
5944.49821 1.40351e-17
5946.00175 1.33242e-17
5947.49512 1.30758e-17
5948.99865 1.31047e-17
5950.50218 1.33083e-17
5951.99556 1.36424e-17
5953.49909 1.27179e-17
5955.00262 1.15327e-17
5956.49599 1.25896e-17
5957.99953 1.31997e-17
5959.50306 1.19610e-17
5960.99643 1.36979e-17
5962.49996 1.44286e-17
5964.00349 1.38818e-17
5965.49687 1.35407e-17
5967.00040 1.41366e-17
5968.50393 1.51418e-17
5969.99730 1.39064e-17
5971.50084 1.44298e-17
5973.00437 1.51885e-17
5974.49774 1.41680e-17
5976.00127 1.31874e-17
5977.50480 1.25394e-17
5978.99818 1.36151e-17
5980.50171 1.28444e-17
5981.99508 1.29584e-17
5983.49862 1.24403e-17
5985.00215 1.02266e-17
5986.49552 9.90072e-18
5987.99905 1.17189e-17
5989.50258 1.23071e-17
5990.99596 1.12934e-17
5992.49949 1.16670e-17
5994.00302 1.26586e-17
5995.49639 1.27115e-17
5996.99993 1.16910e-17
5998.50346 1.21772e-17
5999.99683 1.34989e-17
6001.50036 1.33776e-17
6003.00390 1.27355e-17
6004.49727 1.24575e-17
6006.00080 1.26111e-17
6007.50433 1.44960e-17
6008.99770 1.36679e-17
6010.50124 1.29238e-17
6012.00477 1.34484e-17
6013.49814 1.25650e-17
6015.00167 1.27179e-17
6016.49505 1.35579e-17
6017.99858 1.21867e-17
6019.50211 1.24501e-17
6020.99548 1.38183e-17
6022.49902 1.37399e-17
6024.00255 1.42116e-17
6025.49592 1.26657e-17
6026.99945 1.29410e-17
6028.50299 1.32163e-17
6029.99636 1.31161e-17
6031.49989 1.32887e-17
6033.00342 1.28581e-17
6034.49680 1.30251e-17
6036.00033 1.31441e-17
6037.50386 1.26308e-17
6038.99723 1.29035e-17
6040.50076 1.33085e-17
6042.00430 1.44635e-17
6043.49767 1.44562e-17
6045.00120 1.21752e-17
6046.50473 1.23998e-17
6047.99811 1.21143e-17
6049.50164 1.18677e-17
6050.99501 1.27622e-17
6052.49854 1.35555e-17
6054.00208 1.25314e-17
6055.49545 1.22617e-17
6056.99898 1.23232e-17
6058.50251 1.33489e-17
6059.99588 1.20236e-17
6061.49942 1.28455e-17
6063.00295 1.38655e-17
6064.49632 1.24181e-17
6065.99985 1.25594e-17
6067.50339 1.26512e-17
6068.99676 1.22979e-17
6070.50029 1.20667e-17
6072.00382 1.22201e-17
6073.49720 1.23156e-17
6075.00073 1.23123e-17
6076.50426 1.25976e-17
6077.99763 1.26879e-17
6079.50117 1.35847e-17
6081.00470 1.33908e-17
6082.49807 1.21500e-17
6084.00160 1.16254e-17
6085.49498 1.24514e-17
6086.99851 1.19905e-17
6088.50204 1.18633e-17
6089.99541 1.20398e-17
6091.49894 1.15167e-17
6093.00248 1.12982e-17
6094.49585 1.21319e-17
6095.99938 1.21981e-17
6097.50291 1.14333e-17
6098.99629 1.14968e-17
6100.49982 1.24263e-17
6102.00335 1.28362e-17
6103.49672 1.25202e-17
6105.00025 1.28973e-17
6106.50379 1.27828e-17
6107.99716 1.10587e-17
6109.50069 1.12535e-17
6111.00422 1.15876e-17
6112.49760 1.13042e-17
6114.00113 1.20923e-17
6115.50466 1.22299e-17
6116.99803 1.20455e-17
6118.50157 1.16443e-17
6119.99494 1.15429e-17
6121.49847 1.20191e-17
6123.00200 1.30644e-17
6124.49538 1.34221e-17
6125.99891 1.15274e-17
6127.50244 1.18792e-17
6128.99581 1.30391e-17
6130.49935 1.13968e-17
6132.00288 1.09565e-17
6133.49625 1.14411e-17
6134.99978 1.12173e-17
6136.50331 1.03945e-17
6137.99669 9.91788e-18
6139.50022 1.13167e-17
6141.00375 1.19706e-17
6142.49712 1.17096e-17
6144.00066 1.17386e-17
6145.50419 1.08214e-17
6146.99756 1.03031e-17
6148.50109 1.08206e-17
6150.00463 1.18320e-17
6151.49800 1.13351e-17
6153.00153 9.81966e-18
6154.49490 1.06854e-17
6155.99843 1.18300e-17
6157.50197 1.16333e-17
6158.99534 1.15622e-17
6160.49887 1.13608e-17
6162.00240 1.17162e-17
6163.49578 1.17475e-17
6164.99931 1.10161e-17
6166.50284 1.12874e-17
6167.99621 1.24454e-17
6169.49975 1.20295e-17
6171.00328 1.19626e-17
6172.49665 1.15916e-17
6174.00018 1.13616e-17
6175.50372 1.13580e-17
6176.99709 1.10938e-17
6178.50062 1.11763e-17
6180.00415 1.08716e-17
6181.49752 1.24317e-17
6183.00106 1.28144e-17
6184.50459 1.22892e-17
6185.99796 1.21565e-17
6187.50149 1.27947e-17
6188.99487 1.20688e-17
6190.49840 1.13274e-17
6192.00193 1.02673e-17
6193.49530 1.19470e-17
6194.99884 1.21306e-17
6196.50237 1.23456e-17
6197.99574 1.31639e-17
6199.49927 1.35180e-17
6201.00281 1.29769e-17
6202.49618 1.27565e-17
6203.99971 1.21204e-17
6205.50324 1.25416e-17
6206.99662 1.25899e-17
6208.50015 1.26303e-17
6210.00368 1.36523e-17
6211.49705 1.32610e-17
6213.00058 1.21656e-17
6214.50412 1.29199e-17
6215.99749 1.24891e-17
6217.50102 1.18764e-17
6219.00455 1.23984e-17
6220.49793 1.26224e-17
6222.00146 1.23096e-17
6223.50499 1.25746e-17
6224.99836 1.17857e-17
6226.50190 1.26623e-17
6227.99527 1.35391e-17
6229.49880 1.28253e-17
6231.00233 1.28808e-17
6232.49571 1.16805e-17
6233.99924 1.20947e-17
6235.50277 1.27382e-17
6236.99614 1.24943e-17
6238.49967 1.29051e-17
6240.00321 1.29563e-17
6241.49658 1.29852e-17
6243.00011 1.21542e-17
6244.50364 1.12620e-17
6245.99702 1.18158e-17
6247.50055 1.18080e-17
6249.00408 1.17713e-17
6250.49745 1.10725e-17
6252.00098 1.18966e-17
6253.50452 1.09051e-17
6254.99789 1.12051e-17
6256.50142 1.16287e-17
6258.00495 1.11393e-17
6259.49833 1.14887e-17
6261.00186 1.24474e-17
6262.49523 1.27228e-17
6263.99876 1.31483e-17
6265.50230 1.27805e-17
6266.99567 1.16509e-17
6268.49920 1.20289e-17
6270.00273 1.20831e-17
6271.49611 1.15191e-17
6272.99964 1.20098e-17
6274.50317 1.30315e-17
6275.99654 1.20160e-17
6277.50007 1.09570e-17
6279.00361 1.00625e-17
6280.49698 9.90944e-18
6282.00051 1.03809e-17
6283.50404 1.16577e-17
6284.99742 1.16464e-17
6286.50095 1.07923e-17
6288.00448 1.08254e-17
6289.49785 1.19254e-17
6291.00139 1.21037e-17
6292.50492 1.16407e-17
6293.99829 1.16641e-17
6295.50182 1.13054e-17
6296.99520 1.14682e-17
6298.49873 1.18237e-17
6300.00226 1.16059e-17
6301.49563 1.22852e-17
6302.99917 1.20745e-17
6304.50270 1.21659e-17
6305.99607 1.17238e-17
6307.49960 1.09963e-17
6309.00313 1.22127e-17
6310.49651 1.24700e-17
6312.00004 1.24488e-17
6313.50357 1.19570e-17
6314.99694 1.16216e-17
6316.50048 1.23511e-17
6318.00401 1.22652e-17
6319.49738 1.05653e-17
6321.00091 1.07917e-17
6322.50445 1.12368e-17
6323.99782 1.04864e-17
6325.50135 1.09451e-17
6327.00488 1.09535e-17
6328.49826 1.10117e-17
6330.00179 1.11223e-17
6331.49516 1.10761e-17
6332.99869 1.16352e-17
6334.50222 1.21562e-17
6335.99560 1.16427e-17
6337.49913 1.11245e-17
6339.00266 1.07784e-17
6340.49603 1.10506e-17
6341.99957 1.19123e-17
6343.50310 1.14054e-17
6344.99647 1.14148e-17
6346.50000 1.12962e-17
6348.00353 1.09964e-17
6349.49691 1.15716e-17
6351.00044 1.17536e-17
6352.50397 1.16237e-17
6353.99735 1.20233e-17
6355.50088 1.22961e-17
6357.00441 1.19856e-17
6358.49778 1.15536e-17
6360.00131 1.15813e-17
6361.50485 1.21241e-17
6362.99822 1.14183e-17
6364.50175 1.14179e-17
6365.99512 1.22565e-17
6367.49866 1.24734e-17
6369.00219 1.21396e-17
6370.49556 1.21546e-17
6371.99909 1.27012e-17
6373.50263 1.26712e-17
6374.99600 1.16206e-17
6376.49953 1.22749e-17
6378.00306 1.29834e-17
6379.49644 1.33320e-17
6380.99997 1.19562e-17
6382.50350 1.13455e-17
6383.99687 1.07595e-17
6385.50040 1.22768e-17
6387.00394 1.25312e-17
6388.49731 1.20899e-17
6390.00084 1.29874e-17
6391.50437 1.23554e-17
6392.99775 1.28627e-17
6394.50128 1.25002e-17
6396.00481 1.21137e-17
6397.49818 1.16836e-17
6399.00172 1.22904e-17
6400.49509 1.25547e-17
6401.99862 1.25004e-17
6403.50215 1.22023e-17
6404.99553 1.33672e-17
6406.49906 1.21942e-17
6408.00259 1.17034e-17
6409.49596 1.23181e-17
6410.99949 1.20281e-17
6412.50303 1.23215e-17
6413.99640 1.17254e-17
6415.49993 1.14921e-17
6417.00346 1.20221e-17
6418.49684 1.18880e-17
6420.00037 1.10353e-17
6421.50390 1.19537e-17
6422.99727 1.17319e-17
6424.50080 1.14167e-17
6426.00434 1.21852e-17
6427.49771 1.26483e-17
6429.00124 1.23730e-17
6430.49462 1.24665e-17
6431.99815 1.18017e-17
6433.50168 1.12584e-17
6434.99505 1.24587e-17
6436.49858 1.25246e-17
6438.00212 1.19134e-17
6439.49549 1.24217e-17
6440.99902 1.24066e-17
6442.50255 1.14553e-17
6443.99593 1.20479e-17
6445.49946 1.19537e-17
6447.00299 1.16893e-17
6448.49636 1.18831e-17
6449.99989 1.27600e-17
6451.50343 1.38772e-17
6452.99680 1.31860e-17
6454.50033 1.20846e-17
6456.00386 1.18013e-17
6457.49724 1.22360e-17
6459.00077 1.12242e-17
6460.50430 1.17064e-17
6461.99767 1.26216e-17
6463.50121 1.24490e-17
6465.00474 1.27642e-17
6466.49811 1.22388e-17
6468.00164 1.15162e-17
6469.49502 1.01846e-17
6470.99855 1.12950e-17
6472.50208 1.32644e-17
6473.99545 1.17829e-17
6475.49899 9.93911e-18
6477.00252 1.13362e-17
6478.49589 1.19636e-17
6479.99942 1.15292e-17
6481.50295 1.20327e-17
6482.99633 1.26698e-17
6484.49986 1.28975e-17
6486.00339 1.34490e-17
6487.49676 1.26440e-17
6489.00030 1.22327e-17
6490.50383 1.25718e-17
6491.99720 1.27867e-17
6493.50073 1.27285e-17
6495.00427 1.20352e-17
6496.49764 1.20427e-17
6498.00117 1.20027e-17
6499.50470 1.22666e-17
6500.99808 1.28950e-17
6502.50161 1.33400e-17
6504.00514 1.34208e-17
6505.49851 1.35830e-17
6507.00204 1.27210e-17
6508.49542 1.13935e-17
6509.99895 1.19022e-17
6511.50248 1.19263e-17
6512.99585 1.13733e-17
6514.49939 1.21771e-17
6516.00292 1.20983e-17
6517.49629 1.18795e-17
6518.99982 1.23450e-17
6520.50335 1.22241e-17
6521.99673 1.28755e-17
6523.50026 1.43620e-17
6525.00379 1.33153e-17
6526.49717 1.10792e-17
6528.00070 1.19222e-17
6529.50423 1.28368e-17
6530.99760 1.19386e-17
6532.50113 1.25297e-17
6534.00467 1.40457e-17
6535.49804 1.40012e-17
6537.00157 1.29201e-17
6538.50510 1.23132e-17
6539.99848 1.18918e-17
6541.50201 1.21130e-17
6542.99538 1.28371e-17
6544.49891 1.33729e-17
6546.00245 1.33694e-17
6547.49582 1.29629e-17
6548.99935 1.27497e-17
6550.50288 1.26083e-17
6551.99626 1.24413e-17
6553.49979 1.22375e-17
6555.00332 1.16439e-17
6556.49669 1.18396e-17
6558.00022 1.25531e-17
6559.50376 1.35999e-17
6560.99713 1.34861e-17
6562.50066 1.19187e-17
6564.00419 1.23170e-17
6565.49757 1.25983e-17
6567.00110 1.24948e-17
6568.50463 1.25285e-17
6569.99800 1.30068e-17
6571.50153 1.33188e-17
6572.99491 1.32730e-17
6574.49844 1.25870e-17
6576.00197 1.20873e-17
6577.49535 1.18942e-17
6578.99888 1.20603e-17
6580.50241 1.25496e-17
6581.99578 1.25057e-17
6583.49931 1.16791e-17
6585.00285 1.14117e-17
6586.49622 1.17910e-17
6587.99975 1.15499e-17
6589.50328 1.12601e-17
6590.99666 1.25310e-17
6592.50019 1.33779e-17
6594.00372 1.24661e-17
6595.49709 1.19126e-17
6597.00063 1.29920e-17
6598.50416 1.35399e-17
6599.99753 1.22048e-17
6601.50106 1.21417e-17
6603.00459 1.25949e-17
6604.49797 1.24591e-17
6606.00150 1.32233e-17
6607.49487 1.27834e-17
6608.99840 1.28683e-17
6610.50194 1.29304e-17
6611.99531 1.28661e-17
6613.49884 1.29774e-17
6615.00237 1.29600e-17
6616.49575 1.29149e-17
6617.99928 1.23610e-17
6619.50281 1.31156e-17
6620.99618 1.38606e-17
6622.49972 1.31477e-17
6624.00325 1.30774e-17
6625.49662 1.32466e-17
6627.00015 1.29485e-17
6628.50368 1.30378e-17
6629.99706 1.27528e-17
6631.50059 1.24754e-17
6633.00412 1.30166e-17
6634.49749 1.15953e-17
6636.00103 1.22255e-17
6637.50456 1.22445e-17
6638.99793 1.22636e-17
6640.50146 1.22826e-17
6641.99484 1.23016e-17
6643.49837 1.23206e-17
6645.00190 1.23396e-17
6646.49527 1.23586e-17
6647.99881 1.23776e-17
6649.50234 1.23967e-17
6650.99571 1.24157e-17
6652.49924 1.24347e-17
6654.00277 1.24537e-17
6655.49615 1.24727e-17
6656.99968 1.24917e-17
6658.50321 1.25107e-17
6659.99658 1.25297e-17
6661.50012 1.25488e-17
6663.00365 1.25678e-17
6664.49702 1.25868e-17
6666.00055 1.26058e-17
6667.50408 1.26248e-17
6668.99746 1.26438e-17
6670.50099 1.26628e-17
6672.00452 1.26818e-17
6673.49790 1.27008e-17
6675.00143 1.27198e-17
6676.49480 1.27388e-17
6677.99833 1.27578e-17
6679.50186 1.27768e-17
6680.99524 1.27958e-17
6682.49877 1.28148e-17
6684.00230 1.28338e-17
6685.49567 1.28528e-17
6686.99921 1.28718e-17
6688.50274 1.28909e-17
6689.99611 1.29099e-17
6691.49964 1.29288e-17
6693.00317 1.29478e-17
6694.49655 1.29668e-17
6696.00008 1.29858e-17
6697.50361 1.30048e-17
6698.99698 1.30238e-17
6700.50052 1.32978e-17
6702.00405 1.31265e-17
6703.49742 1.35833e-17
6705.00095 1.33217e-17
6706.50449 1.26087e-17
6707.99786 1.18090e-17
6709.50139 1.24365e-17
6710.99476 1.27967e-17
6712.49830 1.19338e-17
6714.00183 1.21561e-17
6715.49520 1.23693e-17
6716.99873 1.28675e-17
6718.50227 1.31330e-17
6719.99564 1.27350e-17
6721.49917 1.30273e-17
6723.00270 1.26505e-17
6724.49608 1.23572e-17
6725.99961 1.32845e-17
6727.50314 1.41290e-17
6728.99651 1.34568e-17
6730.50004 1.19752e-17
6732.00358 1.22874e-17
6733.49695 1.34910e-17
6735.00048 1.34249e-17
6736.50401 1.29244e-17
6737.99739 1.22080e-17
6739.50092 1.18268e-17
6741.00445 1.26259e-17
6742.49782 1.26040e-17
6744.00136 1.22287e-17
6745.50489 1.29253e-17
6746.99826 1.30022e-17
6748.50179 1.37858e-17
6749.99517 1.38016e-17
6751.49870 1.17373e-17
6753.00223 1.22718e-17
6754.49560 1.29360e-17
6755.99913 1.18233e-17
6757.50267 1.16226e-17
6758.99604 1.21865e-17
6760.49957 1.24990e-17
6762.00310 1.19130e-17
6763.49648 1.20758e-17
6765.00001 1.20615e-17
6766.50354 1.21892e-17
6767.99691 1.23147e-17
6769.50045 1.21217e-17
6771.00398 1.27452e-17
6772.49735 1.18657e-17
6774.00088 1.17678e-17
6775.50441 1.22387e-17
6776.99779 1.22359e-17
6778.50132 1.21505e-17
6780.00485 1.19125e-17
6781.49822 1.20479e-17
6783.00176 1.24323e-17
6784.49513 1.24323e-17
6785.99866 1.17003e-17
6787.50219 1.26561e-17
6788.99557 1.43232e-17
6790.49910 1.36618e-17
6792.00263 1.16338e-17
6793.49600 1.18806e-17
6794.99953 1.27275e-17
6796.50307 1.22076e-17
6797.99644 1.15098e-17
6799.49997 1.19668e-17
6801.00350 1.19799e-17
6802.49688 1.21565e-17
6804.00041 1.21862e-17
6805.50394 1.15018e-17
6806.99731 1.15322e-17
6808.50085 1.20049e-17
6810.00438 1.21056e-17
6811.49775 1.14885e-17
6813.00128 1.12783e-17
6814.50482 1.20481e-17
6815.99819 1.23407e-17
6817.50172 1.25160e-17
6818.99509 1.24546e-17
6820.49863 1.13379e-17
6822.00216 1.17593e-17
6823.49553 1.42208e-17
6824.99906 1.33569e-17
6826.50259 1.27514e-17
6827.99597 1.29850e-17
6829.49950 1.23342e-17
6831.00303 1.16795e-17
6832.49640 1.19234e-17
6833.99994 1.14119e-17
6835.50347 1.20046e-17
6836.99684 1.24201e-17
6838.50037 1.21464e-17
6840.00390 1.25867e-17
6841.49728 1.29643e-17
6843.00081 1.20356e-17
6844.50434 1.10485e-17
6845.99772 1.13951e-17
6847.50125 1.23044e-17
6849.00478 1.28045e-17
6850.49815 1.24718e-17
6852.00168 1.07775e-17
6853.49506 1.03349e-17
6854.99859 1.18642e-17
6856.50212 1.21027e-17
6857.99549 1.22806e-17
6859.49903 1.21118e-17
6861.00256 1.16280e-17
6862.49593 1.15252e-17
6863.99946 1.07634e-17
6865.50300 1.07163e-17
6866.99637 1.16993e-17
6868.49990 1.07570e-17
6870.00343 1.00391e-17
6871.49680 1.01878e-17
6873.00034 1.01623e-17
6874.50387 1.17197e-17
6875.99724 1.09430e-17
6877.50077 1.07027e-17
6879.00431 1.15798e-17
6880.49768 1.12665e-17
6882.00121 1.04754e-17
6883.50474 1.05704e-17
6884.99812 1.04051e-17
6886.50165 9.86612e-18
6887.99502 1.16709e-17
6889.49855 1.04753e-17
6891.00209 1.03699e-17
6892.49546 1.12065e-17
6893.99899 1.04234e-17
6895.50252 1.11751e-17
6896.99590 1.24674e-17
6898.49943 1.13744e-17
6900.00296 1.15481e-17
6901.49633 1.03316e-17
6902.99986 1.05882e-17
6904.50340 1.08602e-17
6905.99677 1.04710e-17
6907.50030 1.10203e-17
6909.00383 1.10738e-17
6910.49721 1.01217e-17
6912.00074 1.08870e-17
6913.50427 1.16192e-17
6914.99764 1.05497e-17
6916.50118 1.04535e-17
6918.00471 1.05173e-17
6919.49808 1.11695e-17
6921.00161 1.10467e-17
6922.49498 1.06541e-17
6923.99852 1.07783e-17
6925.50205 1.13063e-17
6926.99542 1.11949e-17
6928.49895 1.07275e-17
6930.00249 1.08333e-17
6931.49586 1.07054e-17
6932.99939 1.15284e-17
6934.50292 1.21936e-17
6935.99630 1.14300e-17
6937.49983 1.05890e-17
6939.00336 1.06607e-17
6940.49673 1.04345e-17
6942.00027 9.76529e-18
6943.50380 1.05220e-17
6944.99717 1.08065e-17
6946.50070 9.79749e-18
6948.00423 1.02616e-17
6949.49761 1.12013e-17
6951.00114 9.71011e-18
6952.50467 1.01005e-17
6953.99804 1.15912e-17
6955.50158 1.00106e-17
6956.99495 9.38655e-18
6958.49848 1.05192e-17
6960.00201 1.02927e-17
6961.49539 9.83073e-18
6962.99892 9.33459e-18
6964.50245 1.04499e-17
6965.99582 1.01088e-17
6967.49935 9.19863e-18
6969.00289 1.06728e-17
6970.49626 1.21852e-17
6971.99979 1.17637e-17
6973.50332 1.00619e-17
6974.99670 1.09308e-17
6976.50023 1.12979e-17
6978.00376 1.05888e-17
6979.49713 1.00864e-17
6981.00067 1.05963e-17
6982.50420 1.13862e-17
6983.99757 1.06831e-17
6985.50110 1.03088e-17
6987.00464 1.09323e-17
6988.49801 1.14860e-17
6990.00154 1.11078e-17
6991.49491 9.52683e-18
6992.99845 9.28237e-18
6994.50198 1.01346e-17
6995.99535 1.01293e-17
6997.49888 9.76620e-18
6999.00241 1.08037e-17
7000.49579 1.16331e-17
7001.99932 1.14321e-17
7003.50285 1.09767e-17
7004.99622 1.05541e-17
7006.49976 1.15574e-17
7008.00329 1.17212e-17
7009.49666 1.03254e-17
7011.00019 1.02051e-17
7012.50373 1.02269e-17
7013.99710 1.09397e-17
7015.50063 1.17349e-17
7017.00416 1.02387e-17
7018.49753 1.02853e-17
7020.00107 1.11280e-17
7021.50460 1.12494e-17
7022.99797 1.20259e-17
7024.50150 1.20428e-17
7026.00504 1.09954e-17
7027.49841 1.12181e-17
7029.00194 1.13109e-17
7030.49531 1.08404e-17
7031.99885 1.12219e-17
7033.50238 1.15320e-17
7034.99575 1.11414e-17
7036.49928 1.10539e-17
7038.00282 1.02560e-17
7039.49619 1.08845e-17
7040.99972 1.07077e-17
7042.50325 1.11498e-17
7043.99662 1.09670e-17
7045.50016 1.07458e-17
7047.00369 1.13747e-17
7048.49706 1.22562e-17
7050.00059 1.15533e-17
7051.50413 1.17885e-17
7052.99750 1.09870e-17
7054.50103 1.11874e-17
7056.00456 1.23853e-17
7057.49794 1.05829e-17
7059.00147 1.03907e-17
7060.50500 1.10814e-17
7061.99837 1.08617e-17
7063.50191 1.02467e-17
7064.99528 1.03615e-17
7066.49881 1.07572e-17
7068.00234 1.16574e-17
7069.49572 1.19919e-17
7070.99925 1.16594e-17
7072.50278 1.11192e-17
7073.99615 1.08744e-17
7075.49968 1.10076e-17
7077.00322 1.15507e-17
7078.49659 1.13089e-17
7080.00012 1.05193e-17
7081.50365 1.04533e-17
7082.99703 1.06178e-17
7084.50056 1.19167e-17
7086.00409 1.13648e-17
7087.49746 1.01293e-17
7089.00100 1.03677e-17
7090.50453 1.11024e-17
7091.99790 1.13884e-17
7093.50143 1.14438e-17
7095.00496 1.16421e-17
7096.49834 1.02042e-17
7098.00187 1.04279e-17
7099.49524 9.96655e-18
7100.99877 1.03365e-17
7102.50231 1.14001e-17
7103.99568 1.04588e-17
7105.49921 1.01140e-17
7107.00274 1.22001e-17
7108.49612 1.10547e-17
7109.99965 1.12500e-17
7111.50318 1.02558e-17
7112.99655 9.90505e-18
7114.50008 1.05439e-17
7116.00362 1.03969e-17
7117.49699 1.05064e-17
7119.00052 1.00858e-17
7120.50405 1.06119e-17
7121.99743 1.05852e-17
7123.50096 1.12992e-17
7125.00449 1.10010e-17
7126.49786 1.04109e-17
7128.00140 1.00653e-17
7129.50493 1.07171e-17
7130.99830 1.08165e-17
7132.50183 1.18648e-17
7133.99521 1.11748e-17
7135.49874 9.66295e-18
7137.00227 9.75648e-18
7138.49564 1.10773e-17
7139.99917 1.07644e-17
7141.50271 9.40801e-18
7142.99608 1.00454e-17
7144.49961 1.10738e-17
7146.00314 1.03054e-17
7147.49652 1.03805e-17
7149.00005 1.04670e-17
7150.50358 1.04035e-17
7151.99695 1.03521e-17
7153.50049 1.10428e-17
7155.00402 1.05020e-17
7156.49739 9.86180e-18
7158.00092 1.01449e-17
7159.50446 1.05608e-17
7160.99783 1.05598e-17
7162.50136 1.13109e-17
7164.00489 1.13460e-17
7165.49827 1.06013e-17
7167.00180 1.09197e-17
7168.49517 1.05894e-17
7169.99870 1.06022e-17
7171.50223 1.11126e-17
7172.99561 1.14134e-17
7174.49914 1.10817e-17
7176.00267 1.10068e-17
7177.49604 9.97489e-18
7178.99958 1.08206e-17
7180.50311 1.03497e-17
7181.99648 1.11186e-17
7183.50001 1.03064e-17
7185.00355 9.58578e-18
7186.49692 1.03433e-17
7188.00045 1.13611e-17
7189.50398 1.17791e-17
7190.99736 1.08068e-17
7192.50089 1.07510e-17
7194.00442 1.06609e-17
7195.49779 1.06168e-17
7197.00132 1.05086e-17
7198.49470 1.08375e-17
7199.99823 1.07485e-17
7201.50176 1.02355e-17
7202.99513 1.10806e-17
7204.49867 1.05083e-17
7206.00220 9.75992e-18
7207.49557 1.09511e-17
7208.99910 1.10404e-17
7210.50263 1.09627e-17
7211.99601 1.10755e-17
7213.49954 1.04017e-17
7215.00307 1.06322e-17
7216.49645 1.09312e-17
7217.99998 1.10017e-17
7219.50351 1.11099e-17
7220.99688 1.05489e-17
7222.50041 1.10616e-17
7224.00395 1.09664e-17
7225.49732 1.07857e-17
7227.00085 9.91759e-18
7228.50438 1.01107e-17
7229.99776 1.10547e-17
7231.50129 1.12401e-17
7232.99466 1.17515e-17
7234.49819 1.20756e-17
7236.00173 1.17502e-17
7237.49510 1.20221e-17
7238.99863 1.25624e-17
7240.50216 1.29425e-17
7241.99554 1.24639e-17
7243.49907 1.14771e-17
7245.00260 1.17844e-17
7246.49597 1.08671e-17
7247.99950 1.16301e-17
7249.50304 1.17449e-17
7250.99641 1.20821e-17
7252.49994 1.16813e-17
7254.00347 1.15810e-17
7255.49685 1.03277e-17
7257.00038 1.02490e-17
7258.50391 1.13184e-17
7259.99728 1.09642e-17
7261.50082 1.06513e-17
7263.00435 1.02486e-17
7264.49772 1.14292e-17
7266.00125 1.13008e-17
7267.50478 1.05520e-17
7268.99816 1.02002e-17
7270.50169 1.03287e-17
7271.99506 1.12322e-17
7273.49859 1.23479e-17
7275.00213 1.22894e-17
7276.49550 1.28024e-17
7277.99903 1.30734e-17
7279.50256 1.24520e-17
7280.99594 1.19923e-17
7282.49947 1.19516e-17
7284.00300 1.23232e-17
7285.49637 1.19549e-17
7286.99990 1.14040e-17
7288.50344 1.14133e-17
7289.99681 1.28201e-17
7291.50034 1.22334e-17
7293.00387 1.03754e-17
7294.49725 1.12542e-17
7296.00078 1.25466e-17
7297.50431 1.20242e-17
7298.99768 1.12021e-17
7300.50122 1.17197e-17
7302.00475 1.15386e-17
7303.49812 1.12808e-17
7305.00165 1.16849e-17
7306.50518 1.11541e-17
7307.99856 1.14934e-17
7309.50209 1.23213e-17
7310.99546 1.17807e-17
7312.49899 1.14797e-17
7314.00253 1.22532e-17
7315.49590 1.11658e-17
7316.99943 1.11628e-17
7318.50296 1.16493e-17
7319.99634 1.17017e-17
7321.49987 1.16954e-17
7323.00340 1.13130e-17
7324.49677 1.26801e-17
7326.00031 1.26220e-17
7327.50384 1.14478e-17
7328.99721 1.15114e-17
7330.50074 1.27389e-17
7332.00428 1.20946e-17
7333.49765 1.05703e-17
7335.00118 1.03136e-17
7336.50471 1.06155e-17
7337.99809 1.07340e-17
7339.50162 1.06349e-17
7340.99499 1.12733e-17
7342.49852 1.10807e-17
7344.00205 1.03339e-17
7345.49543 1.11258e-17
7346.99896 1.11388e-17
7348.50249 1.02169e-17
7349.99586 1.06740e-17
7351.49940 1.18458e-17
7353.00293 1.16302e-17
7354.49630 1.13630e-17
7355.99983 1.13970e-17
7357.50337 1.08773e-17
7358.99674 1.08505e-17
7360.50027 1.18444e-17
7362.00380 1.11923e-17
7363.49718 9.86050e-18
7365.00071 1.06637e-17
7366.50424 1.29079e-17
7367.99761 1.29375e-17
7369.50114 1.30811e-17
7371.00468 1.30114e-17
7372.49805 1.19761e-17
7374.00158 1.26574e-17
7375.49495 1.21470e-17
7376.99849 1.15779e-17
7378.50202 1.20386e-17
7379.99539 1.26787e-17
7381.49892 1.28501e-17
7383.00245 1.24410e-17
7384.49583 1.15030e-17
7385.99936 1.26550e-17
7387.50289 1.21236e-17
7388.99627 1.15314e-17
7390.49980 1.23142e-17
7392.00333 1.17299e-17
7393.49670 1.15831e-17
7395.00023 9.89523e-18
7396.50377 1.05693e-17
7397.99714 1.09821e-17
7399.50067 1.15551e-17
7401.00420 1.25589e-17
7402.49758 1.18577e-17
7404.00111 1.13983e-17
7405.50464 1.21128e-17
7406.99801 1.11507e-17
7408.50155 1.12994e-17
7409.99492 1.17806e-17
7411.49845 1.15454e-17
7413.00198 1.12819e-17
7414.49536 1.13752e-17
7415.99889 1.13424e-17
7417.50242 1.15669e-17
7418.99579 1.13597e-17
7420.49932 1.22777e-17
7422.00286 1.20143e-17
7423.49623 1.13058e-17
7424.99976 1.21495e-17
7426.50329 1.24393e-17
7427.99667 1.26417e-17
7429.50020 1.20327e-17
7431.00373 1.17103e-17
7432.49710 1.14924e-17
7434.00063 1.12615e-17
7435.50417 1.20389e-17
7436.99754 1.38897e-17
7438.50107 1.27108e-17
7440.00460 1.10504e-17
7441.49798 1.17859e-17
7443.00151 1.23772e-17
7444.49488 1.20999e-17
7445.99841 1.19425e-17
7447.50195 1.15656e-17
7448.99532 1.20509e-17
7450.49885 1.10549e-17
7452.00238 1.14529e-17
7453.49576 1.12582e-17
7454.99929 1.09187e-17
7456.50282 1.17281e-17
7457.99619 1.14251e-17
7459.49973 1.12477e-17
7461.00326 1.24466e-17
7462.49663 1.24937e-17
7464.00016 1.18466e-17
7465.50369 1.15462e-17
7466.99707 1.21500e-17
7468.50060 1.29199e-17
7470.00413 1.30658e-17
7471.49750 1.18667e-17
7473.00104 1.06592e-17
7474.50457 1.00152e-17
7475.99794 1.11185e-17
7477.50147 1.05481e-17
7478.99485 1.08119e-17
7480.49838 1.09446e-17
7482.00191 1.05404e-17
7483.49528 1.09128e-17
7484.99882 1.14352e-17
7486.50235 1.21307e-17
7487.99572 1.18539e-17
7489.49925 1.15831e-17
7491.00278 1.04418e-17
7492.49616 1.04717e-17
7493.99969 1.09986e-17
7495.50322 1.09646e-17
7496.99659 1.09790e-17
7498.50013 1.10409e-17
7500.00366 1.13545e-17
7501.49703 1.09890e-17
7503.00056 1.05815e-17
7504.50410 1.06774e-17
7505.99747 1.11144e-17
7507.50100 1.25519e-17
7509.00453 1.17274e-17
7510.49791 1.07210e-17
7512.00144 1.13183e-17
7513.49481 1.10153e-17
7514.99834 1.10473e-17
7516.50187 1.22873e-17
7517.99525 1.23178e-17
7519.49878 1.09700e-17
7521.00231 1.21359e-17
7521.85545 1.21359e-17
7522.71691 1.20898e-17
7523.57838 1.20378e-17
7524.43984 1.19859e-17
7525.30130 1.19358e-17
7526.16276 1.18856e-17
7527.02423 1.18404e-17
7527.89570 1.17950e-17
7528.75717 1.17483e-17
7529.61863 1.17015e-17
7530.48009 1.16491e-17
7531.34155 1.15968e-17
7532.20301 1.15400e-17
7533.06448 1.14833e-17
7533.92594 1.14228e-17
7534.78740 1.13623e-17
7535.64886 1.12937e-17
7536.52034 1.12251e-17
7537.38180 1.11464e-17
7538.24327 1.10677e-17
7539.10473 1.09881e-17
7539.96619 1.09086e-17
7540.82765 1.08378e-17
7541.68911 1.07670e-17
7542.55058 1.07057e-17
7543.41204 1.06445e-17
7544.27350 1.05912e-17
7545.13496 1.05379e-17
7545.99642 1.04842e-17
7546.86790 1.04305e-17
7547.72936 1.03662e-17
7548.59083 1.03018e-17
7549.45229 1.02266e-17
7550.31375 1.01514e-17
7551.17521 1.00707e-17
7552.03667 9.98991e-18
7552.89814 9.90922e-18
7553.75960 9.82855e-18
7554.62106 9.75414e-18
7555.48252 9.67976e-18
7556.35400 9.61301e-18
7557.21546 9.54627e-18
7558.07693 9.48307e-18
7558.93839 9.41989e-18
7559.79985 9.35675e-18
7560.66131 9.29362e-18
7561.52277 9.22880e-18
7562.38424 9.16399e-18
7563.24570 9.09464e-18
7564.10716 9.02529e-18
7564.96862 8.94520e-18
7565.84010 8.86509e-18
7566.70156 8.77419e-18
7567.56302 8.68328e-18
7568.42449 8.59900e-18
7569.28595 8.51475e-18
7570.14741 8.45162e-18
7571.00887 8.38854e-18
7571.87033 8.34869e-18
7572.73180 8.30888e-18
7573.59326 8.28994e-18
7574.45472 8.27106e-18
7575.31618 8.24667e-18
7576.18766 8.22228e-18
7577.04912 8.16348e-18
7577.91059 8.10462e-18
7578.77205 8.02724e-18
7579.63351 7.94983e-18
7580.49497 7.87920e-18
7581.35643 7.80859e-18
7582.21790 7.74070e-18
7583.07936 7.67283e-18
7583.94082 7.59589e-18
7584.81230 7.51894e-18
7585.67376 7.39032e-18
7586.53522 7.26158e-18
7587.39668 7.02212e-18
7588.25815 6.78243e-18
7589.11961 6.44381e-18
7589.98107 6.10501e-18
7590.84253 5.73784e-18
7591.70399 5.37064e-18
7592.56546 5.04214e-18
7593.42692 4.71373e-18
7594.28838 4.48687e-18
7595.15986 4.26022e-18
7596.02132 4.16642e-18
7596.88278 4.07289e-18
7597.74425 4.08175e-18
7598.60571 4.09083e-18
7599.46717 4.18038e-18
7600.32863 4.27009e-18
7601.19009 4.45697e-18
7602.05156 4.64403e-18
7602.91302 4.92869e-18
7603.77448 5.21352e-18
7604.64596 5.55915e-18
7605.50742 5.90489e-18
7606.36888 6.26754e-18
7607.23034 6.63021e-18
7608.09181 6.96521e-18
7608.95327 7.30015e-18
7609.81473 7.56284e-18
7610.67619 7.82538e-18
7611.53765 7.95330e-18
7612.39912 8.08093e-18
7613.26058 8.02382e-18
7614.13206 7.96634e-18
7614.99352 7.72695e-18
7615.85498 7.48720e-18
7616.71644 7.09378e-18
7617.57791 6.70006e-18
7618.43937 6.27008e-18
7619.30083 5.84006e-18
7620.16229 5.53181e-18
7621.02375 5.22383e-18
7621.88522 5.09721e-18
7622.74668 4.97098e-18
7623.61816 5.01344e-18
7624.47962 5.05624e-18
7625.34108 5.21342e-18
7626.20254 5.37083e-18
7627.06400 5.54286e-18
7627.92547 5.71491e-18
7628.78693 5.84626e-18
7629.64839 5.97751e-18
7630.50985 6.08916e-18
7631.37131 6.20076e-18
7632.23278 6.30634e-18
7633.10426 6.41190e-18
7633.96572 6.51086e-18
7634.82718 6.60981e-18
7635.68864 6.70216e-18
7636.55010 6.79450e-18
7637.41157 6.86207e-18
7638.27303 6.92958e-18
7639.13449 6.96316e-18
7639.99595 6.99668e-18
7640.85741 7.02821e-18
7641.71888 7.05973e-18
7642.59035 7.12086e-18
7643.45182 7.18203e-18
7644.31328 7.28625e-18
7645.17474 7.39056e-18
7646.03620 7.54363e-18
7646.89766 7.69680e-18
7647.75913 7.85742e-18
7648.62059 8.01804e-18
7649.48205 8.13411e-18
7650.34351 8.25009e-18
7651.20497 8.31054e-18
7652.06644 8.37088e-18
7652.93792 8.38148e-18
7653.79938 8.39198e-18
7654.66084 8.39268e-18
7655.52230 8.39337e-18
7656.38376 8.44587e-18
7657.24523 8.49848e-18
7658.10669 8.61274e-18
7658.96815 8.72713e-18
7659.82961 8.86929e-18
7660.69107 9.01150e-18
7661.55254 9.15277e-18
7662.42401 9.29403e-18
7663.28548 9.40830e-18
7664.14694 9.52253e-18
7665.00840 9.60825e-18
7665.86986 9.69393e-18
7666.73132 9.80060e-18
7667.59279 9.90732e-18
7668.45425 1.00579e-17
7669.31571 1.02086e-17
7670.17717 1.03562e-17
7671.03863 1.05038e-17
7671.91011 1.06105e-17
7672.77158 1.07171e-17
7673.63304 1.07761e-17
7674.49450 1.08349e-17
7675.35596 1.08487e-17
7676.21742 1.08624e-17
7677.07889 1.08868e-17
7677.94035 1.09112e-17
7678.80181 1.10020e-17
7679.66327 1.10931e-17
7680.52473 1.12175e-17
7681.38620 1.13419e-17
7682.25767 1.14478e-17
7683.11914 1.15538e-17
7683.98060 1.16411e-17
7684.84206 1.17284e-17
7685.70352 1.18117e-17
7686.56498 1.18950e-17
7687.42645 1.19778e-17
7688.28791 1.20605e-17
7689.14937 1.21439e-17
7690.01083 1.22274e-17
7690.88231 1.23035e-17
7691.74377 1.23796e-17
7692.60524 1.24323e-17
7693.46670 1.24851e-17
7694.32816 1.25183e-17
7695.18962 1.25516e-17
7696.05108 1.25899e-17
7696.91255 1.26283e-17
7697.77401 1.26811e-17
7698.63547 1.27338e-17
7699.49693 1.27885e-17
7700.35839 1.28430e-17
7701.22987 1.28891e-17
7702.09133 1.29352e-17
7702.95280 1.29666e-17
7703.81426 1.29978e-17
7704.67572 1.30100e-17
7705.53718 1.30220e-17
7706.39864 1.30159e-17
7707.26011 1.30098e-17
7708.12157 1.29909e-17
7708.98303 1.29719e-17
7709.84449 1.29621e-17
7710.71597 1.29524e-17
7711.57743 1.29713e-17
7712.43890 1.29903e-17
7713.30036 1.30333e-17
7714.16182 1.30764e-17
7715.02328 1.31327e-17
7715.88474 1.31891e-17
7716.74620 1.32414e-17
7717.60767 1.32939e-17
7718.46913 1.33236e-17
7719.33059 1.33534e-17
7720.20207 1.33592e-17
7721.06353 1.33649e-17
7721.92499 1.33535e-17
7722.78646 1.33421e-17
7723.64792 1.33253e-17
7724.50938 1.33085e-17
7725.37084 1.33019e-17
7726.23230 1.32952e-17
7727.09377 1.33039e-17
7727.95523 1.33126e-17
7728.81669 1.33315e-17
7729.67815 1.33504e-17
7730.54963 1.33783e-17
7731.41109 1.34063e-17
7732.27255 1.34492e-17
7733.13402 1.34919e-17
7733.99548 1.35428e-17
7734.85694 1.35937e-17
7735.71840 1.36251e-17
7736.57986 1.36565e-17
7737.44133 1.36528e-17
7738.30279 1.36492e-17
7739.17427 1.36217e-17
7740.03573 1.35942e-17
7740.89719 1.35575e-17
7741.75865 1.35208e-17
7742.62012 1.34967e-17
7743.48158 1.34727e-17
7744.34304 1.34791e-17
7745.20450 1.34854e-17
7746.06596 1.35102e-17
7746.92743 1.35350e-17
7747.78889 1.35616e-17
7748.65035 1.35881e-17
7749.52183 1.36106e-17
7750.38329 1.36330e-17
7751.24475 1.36470e-17
7752.10621 1.36610e-17
7752.96768 1.36666e-17
7753.82914 1.36722e-17
7754.69060 1.36725e-17
7755.55206 1.36727e-17
7756.41352 1.36639e-17
7757.27499 1.36550e-17
7758.13645 1.36297e-17
7759.00793 1.36045e-17
7759.86939 1.35701e-17
7760.73085 1.35356e-17
7761.59231 1.35094e-17
7762.45378 1.34831e-17
7763.31524 1.34692e-17
7764.17670 1.34552e-17
7765.03816 1.34446e-17
7765.89962 1.34339e-17
7766.76109 1.34195e-17
7767.62255 1.34051e-17
7768.49403 1.33816e-17
7769.35549 1.33581e-17
7770.21695 1.33253e-17
7771.07841 1.32924e-17
7771.93988 1.32612e-17
7772.80134 1.32302e-17
7773.66280 1.32090e-17
7774.52426 1.31879e-17
7775.38572 1.31724e-17
7776.24719 1.31571e-17
7777.10865 1.31439e-17
7777.98013 1.31308e-17
7778.84159 1.31220e-17
7779.70305 1.31131e-17
7780.56451 1.31102e-17
7781.42597 1.31074e-17
7782.28744 1.31101e-17
7783.14890 1.31129e-17
7784.01036 1.31200e-17
7784.87182 1.31271e-17
7785.73328 1.31376e-17
7786.59475 1.31482e-17
7787.46623 1.31609e-17
7788.32769 1.31738e-17
7789.18915 1.31852e-17
7790.05061 1.31965e-17
7790.91207 1.32022e-17
7791.77354 1.32079e-17
7792.63500 1.32058e-17
7793.49646 1.32037e-17
7794.35792 1.31931e-17
7795.21938 1.31825e-17
7796.08085 1.31684e-17
7796.94231 1.31543e-17
7797.81379 1.31456e-17
7798.67525 1.31370e-17
7799.53671 1.31407e-17
7800.39817 1.31444e-17
7801.25963 1.31649e-17
7802.12110 1.31855e-17
7802.98256 1.32194e-17
7803.84402 1.32534e-17
7804.70548 1.32835e-17
7805.56694 1.33137e-17
7806.42841 1.33277e-17
7807.29989 1.33417e-17
7808.16135 1.33410e-17
7809.02281 1.33402e-17
7809.88427 1.33272e-17
7810.74573 1.33140e-17
7811.60720 1.32912e-17
7812.46866 1.32683e-17
7813.33012 1.32399e-17
7814.19158 1.32114e-17
7815.05304 1.31826e-17
7815.91450 1.31537e-17
7816.78598 1.31293e-17
7817.64745 1.31048e-17
7818.50891 1.30906e-17
7819.37037 1.30764e-17
7820.23183 1.30770e-17
7821.09329 1.30777e-17
7821.95476 1.30826e-17
7822.81622 1.30877e-17
7823.67768 1.30810e-17
7824.53914 1.30743e-17
7825.40060 1.30540e-17
7826.27208 1.30336e-17
7827.13355 1.30045e-17
7827.99501 1.29756e-17
7828.85647 1.29418e-17
7829.71793 1.29082e-17
7830.57939 1.28739e-17
7831.44085 1.28396e-17
7832.30232 1.28074e-17
7833.16378 1.27752e-17
7834.02524 1.27451e-17
7834.88670 1.27150e-17
7835.75818 1.26898e-17
7836.61964 1.26646e-17
7837.48111 1.26521e-17
7838.34257 1.26397e-17
7839.20403 1.26421e-17
7840.06549 1.26444e-17
7840.92695 1.26528e-17
7841.78842 1.26611e-17
7842.64988 1.26678e-17
7843.51134 1.26745e-17
7844.37280 1.26760e-17
7845.23426 1.26775e-17
7846.10574 1.26718e-17
7846.96720 1.26661e-17
7847.82867 1.26561e-17
7848.69013 1.26461e-17
7849.55159 1.26353e-17
7850.41305 1.26245e-17
7851.27452 1.26153e-17
7852.13598 1.26060e-17
7852.99744 1.25999e-17
7853.85890 1.25937e-17
7854.72036 1.25918e-17
7855.59184 1.25899e-17
7856.45330 1.25930e-17
7857.31477 1.25961e-17
7858.17623 1.25993e-17
7859.03769 1.26026e-17
7859.89915 1.25984e-17
7860.76061 1.25942e-17
7861.62208 1.25831e-17
7862.48354 1.25721e-17
7863.34500 1.25602e-17
7864.20646 1.25484e-17
7865.07794 1.25326e-17
7865.93940 1.25170e-17
7866.80087 1.24869e-17
7867.66233 1.24568e-17
7868.52379 1.24114e-17
7869.38525 1.23660e-17
7870.24671 1.23138e-17
7871.10818 1.22616e-17
7871.96964 1.22147e-17
7872.83110 1.21678e-17
7873.69256 1.21458e-17
7874.56404 1.21241e-17
7875.42550 1.21349e-17
7876.28696 1.21457e-17
7877.14843 1.21671e-17
7878.00989 1.21884e-17
7878.87135 1.21998e-17
7879.73281 1.22113e-17
7880.59427 1.22066e-17
7881.45574 1.22019e-17
7882.31720 1.21777e-17
7883.17866 1.21535e-17
7884.05014 1.21183e-17
7884.91160 1.20832e-17
7885.77306 1.20478e-17
7886.63453 1.20124e-17
7887.49599 1.19759e-17
7888.35745 1.19394e-17
7889.21891 1.18992e-17
7890.08037 1.18591e-17
7890.94184 1.18175e-17
7891.80330 1.17760e-17
7892.66476 1.17355e-17
7893.52622 1.16951e-17
7894.39770 1.16664e-17
7895.25916 1.16376e-17
7896.12062 1.16351e-17
7896.98209 1.16325e-17
7897.84355 1.16479e-17
7898.70501 1.16632e-17
7899.56647 1.16721e-17
7900.42793 1.16811e-17
7901.28940 1.16732e-17
7902.15086 1.16652e-17
7903.01232 1.16430e-17
7903.88380 1.16206e-17
7904.74526 1.15908e-17
7905.60672 1.15611e-17
7906.46819 1.15394e-17
7907.32965 1.15177e-17
7908.19111 1.15102e-17
7909.05257 1.15027e-17
7909.91403 1.14919e-17
7910.77550 1.14811e-17
7911.63696 1.14568e-17
7912.49842 1.14324e-17
7913.36990 1.14069e-17
7914.23136 1.13813e-17
7915.09282 1.13650e-17
7915.95428 1.13487e-17
7916.81575 1.13423e-17
7917.67721 1.13359e-17
7918.53867 1.13381e-17
7919.40013 1.13403e-17
7920.26159 1.13357e-17
7921.12306 1.13312e-17
7921.98452 1.13045e-17
7922.85600 1.12776e-17
7923.71746 1.12381e-17
7924.57892 1.11986e-17
7925.44038 1.11629e-17
7926.30185 1.11272e-17
7927.16331 1.11050e-17
7928.02477 1.10828e-17
7928.88623 1.10806e-17
7929.74769 1.10785e-17
7930.60916 1.10923e-17
7931.47062 1.11061e-17
7932.34210 1.11245e-17
7933.20356 1.11431e-17
7934.06502 1.11563e-17
7934.92648 1.11696e-17
7935.78794 1.11696e-17
7936.64941 1.11697e-17
7937.51087 1.11524e-17
7938.37233 1.11349e-17
7939.23379 1.11010e-17
7940.09525 1.10671e-17
7940.95672 1.10216e-17
7941.81818 1.09761e-17
7942.68966 1.09304e-17
7943.55112 1.08847e-17
7944.41258 1.08477e-17
7945.27404 1.08107e-17
7946.13551 1.07839e-17
7946.99697 1.07572e-17
7947.85843 1.07406e-17
7948.71989 1.07238e-17
7949.58135 1.07142e-17
7950.44282 1.07046e-17
7951.30428 1.06977e-17
7952.17576 1.06908e-17
7953.03722 1.06774e-17
7953.89868 1.06640e-17
7954.76014 1.06362e-17
7955.62160 1.06084e-17
7956.48307 1.05778e-17
7957.34453 1.05471e-17
7958.20599 1.05287e-17
7959.06745 1.05104e-17
7959.92891 1.05053e-17
7960.79038 1.05003e-17
7961.66186 1.05054e-17
7962.52332 1.05105e-17
7963.38478 1.05177e-17
7964.24624 1.05249e-17
7965.10770 1.05227e-17
7965.96917 1.05204e-17
7966.83063 1.05154e-17
7967.69209 1.05103e-17
7968.55355 1.05214e-17
7969.41501 1.05327e-17
7970.27648 1.05646e-17
7971.14795 1.05966e-17
7972.00942 1.06396e-17
7972.87088 1.06825e-17
7973.73234 1.07236e-17
7974.59380 1.07648e-17
7975.45526 1.07853e-17
7976.31673 1.08058e-17
7977.17819 1.07976e-17
7978.03965 1.07895e-17
7978.90111 1.07681e-17
7979.76257 1.07466e-17
7980.63405 1.07253e-17
7981.49552 1.07041e-17
7982.35698 1.06862e-17
7983.21844 1.06683e-17
7984.07990 1.06560e-17
7984.94136 1.06437e-17
7985.80283 1.06324e-17
7986.66429 1.06212e-17
7987.52575 1.06062e-17
7988.38721 1.05912e-17
7989.24867 1.05744e-17
7990.11014 1.05577e-17
7990.98161 1.05417e-17
7991.84308 1.05257e-17
7992.70454 1.05154e-17
7993.56600 1.05050e-17
7994.42746 1.05060e-17
7995.28892 1.05070e-17
7996.15039 1.05081e-17
7997.01185 1.05091e-17
7997.87331 1.04924e-17
7998.73477 1.04756e-17
7999.59623 1.04433e-17
8000.46771 1.04110e-17
8001.32917 1.03766e-17
8002.19064 1.03421e-17
8003.05210 1.03158e-17
8003.91356 1.02896e-17
8004.77502 1.02801e-17
8005.63649 1.02706e-17
8006.49795 1.02758e-17
8007.35941 1.02809e-17
8008.22087 1.02828e-17
8009.08233 1.02847e-17
8009.95381 1.02776e-17
8010.81527 1.02704e-17
8011.67674 1.02713e-17
8012.53820 1.02722e-17
8013.39966 1.02894e-17
8014.26112 1.03065e-17
8015.12258 1.03280e-17
8015.98405 1.03495e-17
8016.84551 1.03638e-17
8017.70697 1.03781e-17
8018.56843 1.03737e-17
8019.43991 1.03692e-17
8020.30137 1.03389e-17
8021.16284 1.03085e-17
8022.02430 1.02715e-17
8022.88576 1.02345e-17
8023.74722 1.02121e-17
8024.60868 1.01898e-17
8025.47015 1.01813e-17
8026.33161 1.01728e-17
8027.19307 1.01727e-17
8028.05453 1.01725e-17
8028.92601 1.01736e-17
8029.78747 1.01747e-17
8030.64893 1.01690e-17
8031.51040 1.01633e-17
8032.37186 1.01516e-17
8033.23332 1.01399e-17
8034.09478 1.01278e-17
8034.95624 1.01158e-17
8035.81771 1.01070e-17
8036.67917 1.00983e-17
8037.54063 1.00950e-17
8038.41211 1.00917e-17
8039.27357 1.00947e-17
8040.13503 1.00977e-17
8040.99650 1.01060e-17
8041.85796 1.01143e-17
8042.71942 1.01251e-17
8043.58088 1.01359e-17
8044.44234 1.01444e-17
8045.30380 1.01529e-17
8046.16527 1.01554e-17
8047.02673 1.01579e-17
8047.88819 1.01528e-17
8048.75967 1.01476e-17
8049.62113 1.01356e-17
8050.48259 1.01236e-17
8051.34406 1.01137e-17
8052.20552 1.01038e-17
8053.06698 1.01025e-17
8053.92844 1.01013e-17
8054.78990 1.01037e-17
8055.65137 1.01061e-17
8056.51283 1.01058e-17
8057.37429 1.01056e-17
8058.24577 1.00951e-17
8059.10723 1.00846e-17
8059.96869 1.00574e-17
8060.83015 1.00303e-17
8061.69162 9.99177e-18
8062.55308 9.95322e-18
8063.41454 9.91216e-18
8064.27600 9.87111e-18
8065.13746 9.83762e-18
8065.99893 9.80415e-18
8066.86039 9.78810e-18
8067.73187 9.77209e-18
8068.59333 9.77406e-18
8069.45479 9.77606e-18
8070.31625 9.79073e-18
8071.17772 9.80544e-18
8072.03918 9.82232e-18
8072.90064 9.83919e-18
8073.76210 9.84323e-18
8074.62356 9.84722e-18
8075.48503 9.83287e-18
8076.34649 9.81847e-18
8077.21797 9.79290e-18
8078.07943 9.76731e-18
8078.94089 9.73500e-18
8079.80235 9.70268e-18
8080.66381 9.66279e-18
8081.52528 9.62289e-18
8082.38674 9.57605e-18
8083.24820 9.52919e-18
8084.10966 9.47737e-18
8084.97113 9.42553e-18
8085.83259 9.37107e-18
8086.70407 9.31658e-18
8087.56553 9.26291e-18
8088.42699 9.20924e-18
8089.28845 9.15962e-18
8090.14991 9.11000e-18
8091.01138 9.06735e-18
8091.87284 9.02471e-18
8092.73430 8.99059e-18
8093.59576 8.95649e-18
8094.45722 8.93024e-18
8095.31869 8.90402e-18
8096.18015 8.88354e-18
8097.05163 8.86309e-18
8097.91309 8.83698e-18
8098.77455 8.81086e-18
8099.63601 8.76560e-18
8100.49748 8.72030e-18
8101.35894 8.65161e-18
8102.22040 8.58286e-18
8103.08186 8.49163e-18
8103.94332 8.40033e-18
8104.80479 8.29759e-18
8105.67626 8.19482e-18
8106.53773 8.09849e-18
8107.39919 8.00219e-18
8108.26065 7.92346e-18
8109.12211 7.84477e-18
8109.98357 7.78742e-18
8110.84504 7.73012e-18
8111.70650 7.68914e-18
8112.56796 7.64818e-18
8113.42942 7.60599e-18
8114.29088 7.56380e-18
8115.15235 7.50619e-18
8116.02383 7.44857e-18
8116.88529 7.36952e-18
8117.74675 7.29044e-18
8118.60821 7.18882e-18
8119.46967 7.08715e-18
8120.33114 6.97761e-18
8121.19260 6.86807e-18
8122.05406 6.76234e-18
8122.91552 6.65662e-18
8123.77698 6.54162e-18
8124.63845 6.42661e-18
8125.49991 6.29021e-18
8126.37139 6.15376e-18
8127.23285 6.00246e-18
8128.09431 5.85114e-18
8128.95577 5.69450e-18
8129.81723 5.53786e-18
8130.67870 5.39423e-18
8131.54016 5.25063e-18
8132.40162 5.13972e-18
8133.26308 5.02891e-18
8134.12454 4.94013e-18
8134.99602 4.85141e-18
8135.85749 4.76104e-18
8136.71895 4.67068e-18
8137.58041 4.56972e-18
8138.44187 4.46874e-18
8139.30333 4.35686e-18
8140.16480 4.24495e-18
8141.02626 4.12499e-18
8141.88772 4.00502e-18
8142.74918 3.88368e-18
8143.61064 3.76232e-18
8144.47210 3.64620e-18
8145.34358 3.53009e-18
8146.20505 3.42448e-18
8147.06651 3.31890e-18
8147.92797 3.22752e-18
8148.78943 3.13619e-18
8149.65089 3.06022e-18
8150.51236 2.98430e-18
8151.37382 2.92186e-18
8152.23528 2.85946e-18
8153.09674 2.80231e-18
8153.95820 2.74519e-18
8154.82968 2.68669e-18
8155.69115 2.62820e-18
8156.55261 2.56897e-18
8157.41407 2.50975e-18
8158.27553 2.45182e-18
8159.13699 2.39390e-18
8159.99845 2.34221e-18
8160.85992 2.29052e-18
8161.72138 2.24990e-18
8162.58284 2.20929e-18
8163.44430 2.18120e-18
8164.31578 2.15314e-18
8165.17724 2.13733e-18
8166.03871 2.12155e-18
8166.90017 2.11050e-18
8167.76163 2.09946e-18
8168.62309 2.08403e-18
8169.48455 2.06860e-18
8170.34602 2.04118e-18
8171.20748 2.01373e-18
8172.06894 1.96710e-18
8172.93040 1.92041e-18
8173.80188 1.86687e-18
8174.66334 1.81332e-18
8175.52481 1.77950e-18
8176.38627 1.74574e-18
8177.24773 1.73755e-18
8178.10919 1.72943e-18
8178.97065 1.73146e-18
8179.83212 1.73350e-18
8180.69358 1.73400e-18
8181.55504 1.73449e-18
8182.41650 1.72605e-18
8183.28798 1.71760e-18
8184.14944 1.69755e-18
8185.01090 1.67748e-18
8185.87237 1.65577e-18
8186.73383 1.63404e-18
8187.59529 1.61779e-18
8188.45675 1.60153e-18
8189.31821 1.58523e-18
8190.17968 1.56892e-18
8191.04114 1.54873e-18
8191.90260 1.52853e-18
8192.77408 1.50913e-18
8193.63554 1.48974e-18
8194.49700 1.47590e-18
8195.35846 1.46207e-18
8196.21993 1.45802e-18
8197.08139 1.45400e-18
8197.94285 1.46296e-18
8198.80431 1.47194e-18
8199.66577 1.48622e-18
8200.52724 1.50051e-18
8201.38870 1.50937e-18
8202.25016 1.51823e-18
8203.12164 1.51959e-18
8203.98310 1.52094e-18
8204.84456 1.51654e-18
8205.70603 1.51212e-18
8206.56749 1.50285e-18
8207.42895 1.49356e-18
8208.29041 1.48015e-18
8209.15187 1.46674e-18
8210.01334 1.45138e-18
8210.87480 1.43603e-18
8211.73626 1.42155e-18
8212.60774 1.40708e-18
8213.46920 1.39468e-18
8214.33066 1.38229e-18
8215.19212 1.37176e-18
8216.05359 1.36125e-18
8216.91505 1.34926e-18
8217.77651 1.33726e-18
8218.63797 1.31455e-18
8219.49943 1.29180e-18
8220.36090 1.25480e-18
8221.22236 1.21777e-18
8222.08382 1.17598e-18
8222.95530 1.13417e-18
8223.81676 1.09815e-18
8224.67822 1.06215e-18
8225.53969 1.04517e-18
8226.40115 1.02824e-18
8227.26261 1.03988e-18
8228.12407 1.05158e-18
8228.98553 1.08291e-18
8229.84700 1.11428e-18
8230.70846 1.15292e-18
8231.57994 1.19158e-18
8232.44140 1.22550e-18
8233.30286 1.25941e-18
8234.16432 1.27742e-18
8235.02578 1.29541e-18
8235.88725 1.30123e-18
8236.74871 1.30701e-18
8237.61017 1.30996e-18
8238.47163 1.31291e-18
8239.33309 1.31948e-18
8240.19456 1.32607e-18
8241.06604 1.34169e-18
8241.92750 1.35733e-18
8242.78896 1.37882e-18
8243.65042 1.40033e-18
8244.51188 1.41793e-18
8245.37335 1.43554e-18
8246.23481 1.44446e-18
8247.09627 1.45337e-18
8247.95773 1.45415e-18
8248.81919 1.45492e-18
8249.68066 1.44951e-18
8250.54212 1.44410e-18
8251.41360 1.43684e-18
8252.27506 1.42958e-18
8253.13652 1.42452e-18
8253.99798 1.41947e-18
8254.85945 1.41906e-18
8255.72091 1.41867e-18
8256.58237 1.42431e-18
8257.44383 1.42996e-18
8258.30529 1.44068e-18
8259.16676 1.45140e-18
8260.02822 1.46514e-18
8260.89970 1.47889e-18
8261.76116 1.49184e-18
8262.62262 1.50481e-18
8263.48408 1.51324e-18
8264.34554 1.52167e-18
8265.20701 1.52222e-18
8266.06847 1.52276e-18
8266.92993 1.51321e-18
8267.79139 1.50365e-18
8268.65285 1.48908e-18
8269.52433 1.47450e-18
8270.38580 1.46196e-18
8271.24726 1.44944e-18
8272.10872 1.44367e-18
8272.97018 1.43792e-18
8273.83164 1.44258e-18
8274.69311 1.44727e-18
8275.55457 1.45870e-18
8276.41603 1.47014e-18
8277.27749 1.48009e-18
8278.13895 1.49003e-18
8279.01043 1.49514e-18
8279.87189 1.50023e-18
8280.73336 1.50127e-18
8281.59482 1.50231e-18
8282.45628 1.50179e-18
8283.31774 1.50127e-18
8284.17920 1.50441e-18
8285.04067 1.50756e-18
8285.90213 1.51633e-18
8286.76359 1.52511e-18
8287.62505 1.53480e-18
8288.48651 1.54449e-18
8289.34798 1.55259e-18
8290.21946 1.56068e-18
8291.08092 1.57096e-18
8291.94238 1.58124e-18
8292.80384 1.59584e-18
8293.66530 1.61045e-18
8294.52677 1.62557e-18
8295.38823 1.64069e-18
8296.24969 1.65280e-18
8297.11115 1.66490e-18
8297.97261 1.67172e-18
8298.83408 1.67853e-18
8299.70555 1.67870e-18
8300.56702 1.67886e-18
8301.42848 1.68042e-18
8302.28994 1.68198e-18
8303.15140 1.69441e-18
8304.01286 1.70686e-18
8304.87433 1.72651e-18
8305.73579 1.74616e-18
8306.59725 1.76513e-18
8307.45871 1.78409e-18
8308.32017 1.79758e-18
8309.18164 1.81104e-18
8310.05312 1.81554e-18
8310.91458 1.82001e-18
8311.77604 1.81926e-18
8312.63750 1.81849e-18
8313.49896 1.82155e-18
8314.36043 1.82461e-18
8315.22189 1.83658e-18
8316.08335 1.84859e-18
8316.94481 1.87049e-18
8317.80627 1.89242e-18
8318.67775 1.92167e-18
8319.53921 1.95094e-18
8320.40068 1.97940e-18
8321.26214 2.00786e-18
8322.12360 2.02970e-18
8322.98506 2.05151e-18
8323.84652 2.06665e-18
8324.70799 2.08178e-18
8325.56945 2.09098e-18
8326.43091 2.10018e-18
8327.29237 2.10571e-18
8328.16385 2.11124e-18
8329.02531 2.11593e-18
8329.88678 2.12062e-18
8330.74824 2.12607e-18
8331.60970 2.13154e-18
8332.47116 2.13937e-18
8333.33262 2.14721e-18
8334.19408 2.16135e-18
8335.05555 2.17550e-18
8335.91701 2.19921e-18
8336.77847 2.22294e-18
8337.64995 2.25368e-18
8338.51141 2.28442e-18
8339.37287 2.31779e-18
8340.23434 2.35117e-18
8341.09580 2.38116e-18
8341.95726 2.41114e-18
8342.81872 2.43125e-18
8343.68018 2.45133e-18
8344.54165 2.46169e-18
8345.40311 2.47202e-18
8346.26457 2.47719e-18
8347.12603 2.48235e-18
8347.99751 2.48605e-18
8348.85897 2.48976e-18
8349.72043 2.49477e-18
8350.58190 2.49977e-18
8351.44336 2.50932e-18
8352.30482 2.51887e-18
8353.16628 2.53635e-18
8354.02775 2.55386e-18
8354.88921 2.57968e-18
8355.75067 2.60552e-18
8356.62215 2.63546e-18
8357.48361 2.66542e-18
8358.34507 2.69528e-18
8359.20653 2.72514e-18
8360.06800 2.75125e-18
8360.92946 2.77735e-18
8361.79092 2.79750e-18
8362.65238 2.81765e-18
8363.51384 2.83566e-18
8364.37531 2.85366e-18
8365.23677 2.87326e-18
8366.10825 2.89286e-18
8366.96971 2.91159e-18
8367.83117 2.93033e-18
8368.69263 2.94563e-18
8369.55410 2.96094e-18
8370.41556 2.97530e-18
8371.27702 2.98967e-18
8372.13848 3.00655e-18
8372.99994 3.02342e-18
8373.86140 3.04466e-18
8374.72287 3.06593e-18
8375.59435 3.09275e-18
8376.45581 3.11960e-18
8377.31727 3.15176e-18
8378.17873 3.18393e-18
8379.04019 3.22017e-18
8379.90166 3.25643e-18
8380.76312 3.29478e-18
8381.62458 3.33314e-18
8382.48604 3.37127e-18
8383.34750 3.40939e-18
8384.20897 3.44537e-18
8385.07043 3.48132e-18
8385.94191 3.51335e-18
8386.80337 3.54538e-18
8387.66483 3.57454e-18
8388.52629 3.60370e-18
8389.38775 3.63565e-18
8390.24922 3.66761e-18
8391.11068 3.70394e-18
8391.97214 3.74026e-18
8392.83360 3.77367e-18
8393.69507 3.80707e-18
8394.55653 3.83230e-18
8395.41799 3.85753e-18
8396.28947 3.87447e-18
8397.15093 3.89138e-18
8398.01239 3.90213e-18
8398.87385 3.91285e-18
8399.73532 3.92929e-18
8400.59678 3.94573e-18
8401.45824 3.97869e-18
8402.31970 4.01168e-18
8403.18116 4.05766e-18
8404.04263 4.10366e-18
8404.90409 4.15603e-18
8405.77557 4.20841e-18
8406.63703 4.25984e-18
8407.49849 4.31127e-18
8408.35995 4.35418e-18
8409.22142 4.39708e-18
8410.08288 4.43151e-18
8410.94434 4.46593e-18
8411.80580 4.49575e-18
8412.66726 4.52555e-18
8413.52873 4.55342e-18
8414.39019 4.58128e-18
8415.26167 4.60936e-18
8416.12313 4.63745e-18
8416.98459 4.66804e-18
8417.84605 4.69864e-18
8418.70751 4.73363e-18
8419.56898 4.76862e-18
8420.43044 4.80874e-18
8421.29190 4.84886e-18
8422.15336 4.89393e-18
8423.01482 4.93902e-18
8423.87629 4.98665e-18
8424.74777 5.03430e-18
8425.60923 5.07792e-18
8426.47069 5.12153e-18
8427.33215 5.15844e-18
8428.19361 5.19535e-18
8429.05508 5.23301e-18
8429.91654 5.27066e-18
8430.77800 5.31512e-18
8431.63946 5.35960e-18
8432.50092 5.41151e-18
8433.36239 5.46344e-18
8434.23386 5.52185e-18
8435.09533 5.58026e-18
8435.95679 5.63544e-18
8436.81825 5.69063e-18
8437.67971 5.73306e-18
8438.54117 5.77546e-18
8439.40264 5.81070e-18
8440.26410 5.84592e-18
8441.12556 5.88305e-18
8441.98702 5.92018e-18
8442.84848 5.96187e-18
8443.70995 6.00358e-18
8444.58143 6.05046e-18
8445.44289 6.09735e-18
8446.30435 6.14991e-18
8447.16581 6.20249e-18
8448.02727 6.26058e-18
8448.88874 6.31868e-18
8449.75020 6.38050e-18
8450.61166 6.44233e-18
8451.47312 6.50525e-18
8452.33458 6.56817e-18
8453.20606 6.62918e-18
8454.06752 6.69017e-18
8454.92899 6.74560e-18
8455.79045 6.80101e-18
8456.65191 6.85165e-18
8457.51337 6.90228e-18
8458.37483 6.95599e-18
8459.23630 7.00972e-18
8460.09776 7.06982e-18
8460.95922 7.12994e-18
8461.82068 7.18969e-18
8462.69216 7.24943e-18
8463.55362 7.30404e-18
8464.41508 7.35864e-18
8465.27655 7.40847e-18
8466.13801 7.45828e-18
8466.99947 7.50534e-18
8467.86093 7.55238e-18
8468.72240 7.60665e-18
8469.58386 7.66093e-18
8470.44532 7.73124e-18
8471.30678 7.80159e-18
8472.16824 7.88249e-18
8473.03972 7.96341e-18
8473.90118 8.04695e-18
8474.76265 8.13049e-18
8475.62411 8.21066e-18
8476.48557 8.29081e-18
8477.34703 8.36181e-18
8478.20849 8.43278e-18
8479.06996 8.50145e-18
8479.93142 8.57012e-18
8480.79288 8.64897e-18
8481.65434 8.72783e-18
8482.51580 8.81405e-18
8483.38728 8.90028e-18
8484.24875 8.98224e-18
8485.11021 9.06418e-18
8485.97167 9.13669e-18
8486.83313 9.20918e-18
8487.69459 9.27211e-18
8488.55605 9.33501e-18
8489.41752 9.39167e-18
8490.27898 9.44832e-18
8491.14044 9.50711e-18
8492.00190 9.56590e-18
8492.87338 9.63228e-18
8493.73484 9.69867e-18
8494.59631 9.77115e-18
8495.45777 9.84363e-18
8496.31923 9.92301e-18
8497.18069 1.00024e-17
8498.04215 1.00976e-17
8498.90362 1.01927e-17
8499.76508 1.03070e-17
8500.62654 1.04213e-17
8501.48800 1.05394e-17
8502.35948 1.06576e-17
8503.22094 1.07646e-17
8504.08240 1.08717e-17
8504.94387 1.09646e-17
8505.80533 1.10574e-17
8506.66679 1.11356e-17
8507.52825 1.12137e-17
8508.38972 1.12826e-17
8509.25118 1.13515e-17
8510.11264 1.14185e-17
8510.98412 1.14856e-17
8511.84558 1.15537e-17
8512.70704 1.16218e-17
8513.56850 1.16923e-17
8514.42997 1.17628e-17
8515.29143 1.18355e-17
8516.15289 1.19083e-17
8517.01435 1.19824e-17
8517.87581 1.20566e-17
8518.73728 1.21320e-17
8519.59874 1.22074e-17
8520.46020 1.22845e-17
8521.33168 1.23614e-17
8522.19314 1.24434e-17
8523.05460 1.25252e-17
8523.91607 1.26184e-17
8524.77753 1.27116e-17
8525.63899 1.28181e-17
8526.50045 1.29247e-17
8527.36191 1.30407e-17
8528.22337 1.31567e-17
8529.08484 1.32760e-17
8529.94630 1.33954e-17
8530.80776 1.35082e-17
8531.67924 1.36210e-17
8532.54070 1.37192e-17
8533.40216 1.38173e-17
8534.26363 1.38977e-17
8535.12509 1.39781e-17
8535.98655 1.40415e-17
8536.84801 1.41051e-17
8537.70947 1.41639e-17
8538.57094 1.42228e-17
8539.43240 1.42900e-17
8540.30388 1.43573e-17
8541.16534 1.44416e-17
8542.02680 1.45259e-17
8542.88826 1.46323e-17
8543.74972 1.47388e-17
8544.61119 1.48604e-17
8545.47265 1.49820e-17
8546.33411 1.51075e-17
8547.19557 1.52330e-17
8548.05703 1.53432e-17
8548.91850 1.54533e-17
8549.78998 1.55268e-17
8550.65144 1.56003e-17
8551.51290 1.56390e-17
8552.37436 1.56777e-17
8553.23582 1.56978e-17
8554.09729 1.57179e-17
8554.95875 1.57410e-17
8555.82021 1.57642e-17
8556.68167 1.58160e-17
8557.54313 1.58680e-17
8558.40460 1.59603e-17
8559.27607 1.60526e-17
8560.13754 1.61782e-17
8560.99900 1.63037e-17
8561.86046 1.64488e-17
8562.72192 1.65939e-17
8563.58338 1.67361e-17
8564.44485 1.68784e-17
8565.30631 1.69972e-17
8566.16777 1.71158e-17
8567.02923 1.71975e-17
8567.89070 1.72790e-17
8568.75216 1.73171e-17
8569.62364 1.73551e-17
8570.48510 1.73603e-17
8571.34656 1.73656e-17
8572.20802 1.73535e-17
8573.06948 1.73414e-17
8573.93095 1.73292e-17
8574.79241 1.73170e-17
8575.65387 1.73210e-17
8576.51533 1.73252e-17
8577.37679 1.73630e-17
8578.23826 1.74008e-17
8579.09972 1.74853e-17
8579.97120 1.75698e-17
8580.83266 1.76846e-17
8581.69412 1.77995e-17
8582.55558 1.79173e-17
8583.41705 1.80352e-17
8584.27851 1.81340e-17
8585.13997 1.82329e-17
8586.00143 1.82948e-17
8586.86289 1.83566e-17
8587.72436 1.83791e-17
8588.58582 1.84016e-17
8589.45730 1.83947e-17
8590.31876 1.83876e-17
8591.18022 1.83667e-17
8592.04168 1.83458e-17
8592.90314 1.83318e-17
8593.76461 1.83177e-17
8594.62607 1.83223e-17
8595.48753 1.83268e-17
8596.34899 1.83453e-17
8597.21045 1.83637e-17
8598.07192 1.83932e-17
8598.94340 1.84228e-17
8599.80486 1.84663e-17
8600.66632 1.85099e-17
8601.52778 1.85661e-17
8602.38924 1.86224e-17
8603.25071 1.86824e-17
8604.11217 1.87425e-17
8604.97363 1.87965e-17
8605.83509 1.88505e-17
8606.69655 1.88852e-17
8607.56803 1.89199e-17
8608.42949 1.89247e-17
8609.29096 1.89294e-17
8610.15242 1.89073e-17
8611.01388 1.88849e-17
8611.87534 1.88433e-17
8612.73680 1.88016e-17
8613.59827 1.87491e-17
8614.45973 1.86965e-17
8615.32119 1.86421e-17
8616.18265 1.85878e-17
8617.04411 1.85486e-17
8617.91559 1.85094e-17
8618.77706 1.85039e-17
8619.63852 1.84985e-17
8620.49998 1.85279e-17
8621.36144 1.85573e-17
8622.22290 1.86113e-17
8623.08437 1.86656e-17
8623.94583 1.87300e-17
8624.80729 1.87945e-17
8625.66875 1.88510e-17
8626.53021 1.89076e-17
8627.40169 1.89453e-17
8628.26315 1.89830e-17
8629.12462 1.90016e-17
8629.98608 1.90202e-17
8630.84754 1.90192e-17
8631.70900 1.90183e-17
8632.57046 1.89953e-17
8633.43193 1.89722e-17
8634.29339 1.89303e-17
8635.15485 1.88883e-17
8636.01631 1.88407e-17
8636.88779 1.87929e-17
8637.74925 1.87532e-17
8638.61072 1.87136e-17
8639.47218 1.86977e-17
8640.33364 1.86819e-17
8641.19510 1.87008e-17
8642.05656 1.87197e-17
8642.91803 1.87641e-17
8643.77949 1.88088e-17
8644.64095 1.88649e-17
8645.50241 1.89211e-17
8646.37389 1.89743e-17
8647.23535 1.90275e-17
8648.09681 1.90632e-17
8648.95828 1.90989e-17
8649.81974 1.91118e-17
8650.68120 1.91246e-17
8651.54266 1.91148e-17
8652.40412 1.91049e-17
8653.26559 1.90708e-17
8654.12705 1.90367e-17
8654.98851 1.89773e-17
8655.85999 1.89179e-17
8656.72145 1.88436e-17
8657.58291 1.87693e-17
8658.44438 1.86979e-17
8659.30584 1.86265e-17
8660.16730 1.85702e-17
8661.02876 1.85141e-17
8661.89022 1.84784e-17
8662.75168 1.84430e-17
8663.61315 1.84309e-17
8664.47461 1.84188e-17
8665.33607 1.84294e-17
8666.20755 1.84400e-17
8667.06901 1.84682e-17
8667.93047 1.84965e-17
8668.79194 1.85336e-17
8669.65340 1.85708e-17
8670.51486 1.86049e-17
8671.37632 1.86390e-17
8672.23778 1.86496e-17
8673.09925 1.86600e-17
8673.96071 1.86318e-17
8674.82217 1.86035e-17
8675.68363 1.85411e-17
8676.55511 1.84785e-17
8677.41657 1.83920e-17
8678.27803 1.83052e-17
8679.13950 1.82114e-17
8680.00096 1.81175e-17
8680.86242 1.80351e-17
8681.72388 1.79527e-17
8682.58535 1.78890e-17
8683.44681 1.78255e-17
8684.30827 1.77832e-17
8685.16973 1.77410e-17
8686.04121 1.77227e-17
8686.90267 1.77045e-17
8687.76413 1.77105e-17
8688.62560 1.77165e-17
8689.48706 1.77421e-17
8690.34852 1.77677e-17
8691.20998 1.78054e-17
8692.07144 1.78431e-17
8692.93291 1.78801e-17
8693.79437 1.79170e-17
8694.66585 1.79370e-17
8695.52731 1.79570e-17
8696.38877 1.79501e-17
8697.25023 1.79431e-17
8698.11170 1.79075e-17
8698.97316 1.78719e-17
8699.83462 1.78116e-17
8700.69608 1.77512e-17
8701.55754 1.76792e-17
8702.41900 1.76072e-17
8703.28047 1.75345e-17
8704.15195 1.74617e-17
8705.01341 1.73887e-17
8705.87487 1.73157e-17
8706.73633 1.72453e-17
8707.59779 1.71751e-17
8708.45926 1.71222e-17
8709.32072 1.70694e-17
8710.18218 1.70455e-17
8711.04364 1.70215e-17
8711.90510 1.70270e-17
8712.76657 1.70326e-17
8713.62803 1.70633e-17
8714.49951 1.70941e-17
8715.36097 1.71276e-17
8716.22243 1.71612e-17
8717.08389 1.71721e-17
8717.94535 1.71829e-17
8718.80682 1.71608e-17
8719.66828 1.71384e-17
8720.52974 1.70793e-17
8721.39120 1.70202e-17
8722.25267 1.69386e-17
8723.11413 1.68571e-17
8723.98561 1.67785e-17
8724.84707 1.66997e-17
8725.70853 1.66333e-17
8726.56999 1.65669e-17
8727.43145 1.65100e-17
8728.29292 1.64532e-17
8729.15438 1.64062e-17
8730.01584 1.63591e-17
8730.87730 1.63232e-17
8731.73876 1.62871e-17
8732.61024 1.62656e-17
8733.47170 1.62439e-17
8734.33317 1.62467e-17
8735.19463 1.62497e-17
8736.05609 1.62739e-17
8736.91755 1.62982e-17
8737.77902 1.63152e-17
8738.64048 1.63323e-17
8739.50194 1.63178e-17
8740.36340 1.63034e-17
8741.22486 1.62442e-17
8742.08633 1.61850e-17
8742.95780 1.60776e-17
8743.81927 1.59701e-17
8744.68073 1.58455e-17
8745.54219 1.57208e-17
8746.40365 1.56126e-17
8747.26511 1.55044e-17
8748.12658 1.54283e-17
8748.98804 1.53524e-17
8749.84950 1.53179e-17
8750.71096 1.52835e-17
8751.57242 1.52809e-17
8752.44390 1.52784e-17
8753.30537 1.52890e-17
8754.16683 1.52998e-17
8755.02829 1.53136e-17
8755.88975 1.53274e-17
8756.75121 1.53376e-17
8757.61268 1.53479e-17
8758.47414 1.53396e-17
8759.33560 1.53313e-17
8760.19706 1.52863e-17
8761.05852 1.52413e-17
8761.91999 1.51567e-17
8762.79146 1.50720e-17
8763.65293 1.49575e-17
8764.51439 1.48429e-17
8765.37585 1.47145e-17
8766.23731 1.45861e-17
8767.09877 1.44665e-17
8767.96024 1.43471e-17
8768.82170 1.42511e-17
8769.68316 1.41554e-17
8770.54462 1.40812e-17
8771.40608 1.40072e-17
8772.26755 1.39517e-17
8773.13903 1.38963e-17
8774.00049 1.38569e-17
8774.86195 1.38174e-17
8775.72341 1.37887e-17
8776.58487 1.37600e-17
8777.44633 1.37374e-17
8778.30780 1.37149e-17
8779.16926 1.36919e-17
8780.03072 1.36689e-17
8780.89218 1.36255e-17
8781.76366 1.35820e-17
8782.62512 1.35003e-17
8783.48659 1.34183e-17
8784.34805 1.33068e-17
8785.20951 1.31952e-17
8786.07097 1.30699e-17
8786.93243 1.29445e-17
8787.79390 1.28174e-17
8788.65536 1.26903e-17
8789.51682 1.25731e-17
8790.37828 1.24559e-17
8791.24976 1.23483e-17
8792.11122 1.22408e-17
8792.97268 1.21344e-17
8793.83415 1.20280e-17
8794.69561 1.19283e-17
8795.55707 1.18286e-17
8796.41853 1.17509e-17
8797.28000 1.16733e-17
8798.14146 1.16144e-17
8799.00292 1.15557e-17
8799.86438 1.14953e-17
8800.72584 1.14348e-17
8801.59732 1.13561e-17
8802.45878 1.12774e-17
8803.32025 1.11691e-17
8804.18171 1.10608e-17
8805.04317 1.09214e-17
8805.90463 1.07821e-17
8806.76609 1.06317e-17
8807.62756 1.04813e-17
8808.48902 1.03382e-17
8809.35048 1.01953e-17
8810.21194 1.00684e-17
8811.08342 9.94155e-18
8811.94488 9.83671e-18
8812.80635 9.73194e-18
8813.66781 9.64684e-18
8814.52927 9.56181e-18
8815.39073 9.49087e-18
8816.25219 9.41997e-18
8817.11365 9.35625e-18
8817.97512 9.29255e-18
8818.83658 9.22827e-18
8819.70806 9.16400e-18
8820.56952 9.08975e-18
8821.43098 9.01547e-18
8822.29244 8.92307e-18
8823.15391 8.83062e-18
8824.01537 8.71904e-18
8824.87683 8.60742e-18
8825.73829 8.47962e-18
8826.59975 8.35177e-18
8827.46122 8.21951e-18
8828.32268 8.08724e-18
8829.19416 7.96749e-18
8830.05562 7.84778e-18
8830.91708 7.74917e-18
8831.77854 7.65063e-18
8832.64000 7.57379e-18
8833.50147 7.49701e-18
8834.36293 7.43919e-18
8835.22439 7.38142e-18
8836.08585 7.33585e-18
8836.94732 7.29031e-18
8837.80878 7.24906e-18
8838.67024 7.20782e-18
8839.54172 7.16275e-18
8840.40318 7.11768e-18
8841.26464 7.06280e-18
8842.12610 7.00791e-18
8842.98757 6.94243e-18
8843.84903 6.87693e-18
8844.71049 6.80210e-18
8845.57195 6.72726e-18
8846.43341 6.64747e-18
8847.29488 6.56768e-18
8848.15634 6.48854e-18
8849.02782 6.40940e-18
8849.88928 6.33391e-18
8850.75074 6.25844e-18
8851.61220 6.18945e-18
8852.47367 6.12049e-18
8853.33513 6.07268e-18
8854.19659 6.02490e-18
8855.05805 6.01282e-18
8855.91951 6.00084e-18
8856.78097 6.01294e-18
8857.64244 6.02510e-18
8858.50390 6.04093e-18
8859.36536 6.05675e-18
8860.23684 6.05945e-18
8861.09830 6.06211e-18
8861.95976 6.03644e-18
8862.82123 6.01069e-18
8863.68269 5.96239e-18
8864.54415 5.91403e-18
8865.40561 5.86531e-18
8866.26707 5.81660e-18
8867.12854 5.77779e-18
8867.99000 5.73902e-18
8868.86148 5.70752e-18
8869.72294 5.67603e-18
8870.58440 5.65070e-18
8871.44586 5.62538e-18
8872.30732 5.60523e-18
8873.16879 5.58511e-18
8874.03025 5.57125e-18
8874.89171 5.55741e-18
8875.75317 5.55840e-18
8876.61463 5.55942e-18
8877.47610 5.57869e-18
8878.34758 5.59801e-18
8879.20904 5.62491e-18
8880.07050 5.65183e-18
8880.93196 5.67518e-18
8881.79342 5.69853e-18
8882.65489 5.70794e-18
8883.51635 5.71732e-18
8884.37781 5.70524e-18
8885.23927 5.69310e-18
8886.10073 5.66649e-18
8886.96220 5.63986e-18
8887.83367 5.60968e-18
8888.69514 5.57950e-18
8889.55660 5.55588e-18
8890.41806 5.53226e-18
8891.27952 5.52435e-18
8892.14099 5.51648e-18
8893.00245 5.52947e-18
8893.86391 5.54252e-18
8894.72537 5.57846e-18
8895.58683 5.61445e-18
8896.44830 5.66488e-18
8897.30976 5.71536e-18
8898.18124 5.76585e-18
8899.04270 5.81634e-18
8899.90416 5.85455e-18
8900.76562 5.89271e-18
8901.62708 5.90835e-18
8902.48855 5.92393e-18
8903.35001 5.91859e-18
8904.21147 5.91319e-18
8905.07293 5.90396e-18
8905.93439 5.89472e-18
8906.80587 5.89283e-18
8907.66734 5.89095e-18
8908.52880 5.89527e-18
8909.39026 5.89960e-18
8910.25172 5.91016e-18
8911.11318 5.92073e-18
8911.97465 5.93962e-18
8912.83611 5.95852e-18
8913.69757 5.98659e-18
8914.55903 6.01470e-18
8915.42049 6.05395e-18
8916.29197 6.09323e-18
8917.15343 6.14319e-18
8918.01490 6.19317e-18
8918.87636 6.24099e-18
8919.73782 6.28880e-18
8920.59928 6.32160e-18
8921.46074 6.35437e-18
8922.32221 6.36851e-18
8923.18367 6.38261e-18
8924.04513 6.37772e-18
8924.90659 6.37278e-18
8925.76805 6.36400e-18
8926.63953 6.35520e-18
8927.50100 6.36321e-18
8928.36246 6.37126e-18
8929.22392 6.39685e-18
8930.08538 6.42249e-18
8930.94684 6.45631e-18
8931.80831 6.49015e-18
8932.66977 6.52543e-18
8933.53123 6.56070e-18
8934.39269 6.59089e-18
8935.25415 6.62105e-18
8936.12563 6.64922e-18
8936.98709 6.67738e-18
8937.84856 6.71832e-18
8938.71002 6.75930e-18
8939.57148 6.81369e-18
8940.43294 6.86810e-18
8941.29440 6.91588e-18
8942.15587 6.96364e-18
8943.01733 6.99010e-18
8943.87879 7.01650e-18
8944.74025 7.01505e-18
8945.61173 7.01351e-18
8946.47319 6.98652e-18
8947.33466 6.95945e-18
8948.19612 6.93786e-18
8949.05758 6.91629e-18
8949.91904 6.92521e-18
8950.78050 6.93423e-18
8951.64197 6.96587e-18
8952.50343 6.99757e-18
8953.36489 7.03929e-18
8954.22635 7.08105e-18
8955.08781 7.09995e-18
8955.95929 7.11879e-18
8956.82075 7.08251e-18
8957.68222 7.04610e-18
8958.54368 6.99489e-18
8959.40514 6.94366e-18
8960.26660 6.93683e-18
8961.12806 6.93013e-18
8961.98953 6.97615e-18
8962.85099 7.02231e-18
8963.71245 7.10995e-18
8964.57391 7.19771e-18
8965.44539 7.29856e-18
8966.30685 7.39944e-18
8967.16832 7.47052e-18
8968.02978 7.54154e-18
8968.89124 7.58756e-18
8969.75270 7.63353e-18
8970.61416 7.70148e-18
8971.47563 7.76950e-18
8972.33709 7.87566e-18
8973.19855 7.98193e-18
8974.06001 8.10618e-18
8974.93149 8.23046e-18
8975.79295 8.34365e-18
8976.65441 8.45679e-18
8977.51588 8.51435e-18
8978.37734 8.57175e-18
8979.23880 8.53896e-18
8980.10026 8.50593e-18
8980.96172 8.36046e-18
8981.82319 8.21469e-18
8982.68465 7.97089e-18
8983.54611 7.72682e-18
8984.41759 7.51581e-18
8985.27905 7.30489e-18
8986.14051 7.24766e-18
8987.00198 7.19083e-18
8987.86344 7.32885e-18
8988.72490 7.46739e-18
8989.58636 7.80690e-18
8990.44782 8.14695e-18
8991.30928 8.52593e-18
8992.17075 8.90500e-18
8993.03221 9.12838e-18
8993.89367 9.35133e-18
8994.76515 9.38985e-18
8995.62661 9.42789e-18
8996.48807 9.31722e-18
8997.34954 9.20615e-18
8998.21100 9.03354e-18
8999.07246 8.86077e-18
8999.93392 8.74527e-18
9000.79538 8.62992e-18
9001.65685 8.62343e-18
9002.51831 8.61724e-18
9003.38979 8.71655e-18
9004.25125 8.81614e-18
9005.11271 8.98664e-18
9005.97417 9.15732e-18
9006.83563 9.33111e-18
9007.69710 9.50490e-18
9008.55856 9.62907e-18
9009.42002 9.75310e-18
9010.28148 9.80309e-18
9011.14295 9.85287e-18
9012.00441 9.82980e-18
9012.87589 9.80652e-18
9013.73735 9.76869e-18
9014.59881 9.73082e-18
9015.46027 9.72151e-18
9016.32173 9.71226e-18
9017.18320 9.70504e-18
9018.04466 9.69783e-18
9018.90612 9.67302e-18
9019.76758 9.64817e-18
9020.62904 9.62852e-18
9021.49051 9.60888e-18
9022.35197 9.61801e-18
9023.22345 9.62721e-18
9024.08491 9.69482e-18
9024.94637 9.76258e-18
9025.80783 9.91240e-18
9026.66930 1.00625e-17
9027.53076 1.02585e-17
9028.39222 1.04546e-17
9029.25368 1.06424e-17
9030.11514 1.08301e-17
9030.97660 1.09717e-17
9031.83807 1.11132e-17
9032.70955 1.11806e-17
9033.57101 1.12478e-17
9034.43247 1.12385e-17
9035.29393 1.12290e-17
9036.15539 1.11573e-17
9037.01686 1.10853e-17
9037.87832 1.09880e-17
9038.73978 1.08906e-17
9039.60124 1.08242e-17
9040.46270 1.07580e-17
9041.32417 1.07377e-17
9042.18563 1.07176e-17
9043.05711 1.07020e-17
9043.91857 1.06863e-17
9044.78003 1.06536e-17
9045.64149 1.06208e-17
9046.50295 1.05840e-17
9047.36442 1.05472e-17
9048.22588 1.05177e-17
9049.08734 1.04882e-17
9049.94880 1.04842e-17
9050.81027 1.04801e-17
9051.67173 1.05065e-17
9052.54321 1.05329e-17
9053.40467 1.05358e-17
9054.26613 1.05384e-17
9055.12759 1.04704e-17
9055.98905 1.04023e-17
9056.85052 1.02888e-17
9057.71198 1.01751e-17
9058.57344 1.00502e-17
9059.43490 9.92532e-18
9060.29636 9.79330e-18
9061.16784 9.66125e-18
9062.02931 9.52378e-18
9062.89077 9.38630e-18
9063.75223 9.23839e-18
9064.61369 9.09045e-18
9065.47515 8.92108e-18
9066.33662 8.75165e-18
9067.19808 8.60395e-18
9068.05954 8.45631e-18
9068.92100 8.40190e-18
9069.78246 8.34773e-18
9070.64393 8.37077e-18
9071.51540 8.39402e-18
9072.37687 8.41432e-18
9073.23833 8.43462e-18
9074.09979 8.42262e-18
9074.96125 8.41053e-18
9075.82271 8.38860e-18
9076.68418 8.36664e-18
9077.54564 8.34879e-18
9078.40710 8.33096e-18
9079.26856 8.32528e-18
9080.13002 8.31963e-18
9080.99149 8.32581e-18
9081.86297 8.33201e-18
9082.72443 8.32225e-18
9083.58589 8.31243e-18
9084.44735 8.27119e-18
9085.30881 8.22987e-18
9086.17028 8.18779e-18
9087.03174 8.14570e-18
9087.89320 8.12636e-18
9088.75466 8.10708e-18
9089.61612 8.08038e-18
9090.48760 8.05364e-18
9091.34906 7.99072e-18
9092.21053 7.92806e-18
9093.07199 7.85869e-18
9093.93345 7.78932e-18
9094.79491 7.74994e-18
9095.65637 7.71065e-18
9096.51784 7.69093e-18
9097.37930 7.67128e-18
9098.24076 7.64950e-18
9099.10222 7.62770e-18
9099.97370 7.60948e-18
9100.83516 7.59127e-18
9101.69663 7.58824e-18
9102.55809 7.58525e-18
9103.41955 7.61969e-18
9104.28101 7.65423e-18
9105.14247 7.75803e-18
9106.00393 7.86203e-18
9106.86540 7.99737e-18
9107.72686 8.13279e-18
9108.58832 8.20266e-18
9109.45980 8.27234e-18
9110.32126 8.23537e-18
9111.18272 8.19811e-18
9112.04419 8.07839e-18
9112.90565 7.95844e-18
9113.76711 7.80542e-18
9114.62857 7.65232e-18
9115.49003 7.56756e-18
9116.35150 7.48298e-18
9117.21296 7.51938e-18
9118.07442 7.55610e-18
9118.93588 7.63531e-18
9119.80736 7.71465e-18
9120.66882 7.76020e-18
9121.53028 7.80566e-18
9122.39175 7.76855e-18
9123.25321 7.73122e-18
9124.11467 7.58205e-18
9124.97613 7.43257e-18
9125.83760 7.24032e-18
9126.69906 7.04796e-18
9127.56052 6.89661e-18
9128.43200 6.74538e-18
9129.29346 6.67832e-18
9130.15492 6.61149e-18
9131.01638 6.65666e-18
9131.87785 6.70215e-18
9132.73931 6.84072e-18
9133.60077 6.97956e-18
9134.46223 7.16893e-18
9135.32369 7.35842e-18
9136.18516 7.55423e-18
9137.04662 7.75006e-18
9137.90808 7.90655e-18
9138.76954 8.06293e-18
9139.64102 8.15065e-18
9140.50248 8.23817e-18
9141.36395 8.24717e-18
9142.22541 8.25597e-18
9143.08687 8.17134e-18
9143.94833 8.08646e-18
9144.80979 7.88675e-18
9145.67125 7.68674e-18
9146.53272 7.39783e-18
9147.39418 7.10869e-18
9148.26566 6.81785e-18
9149.12712 6.52701e-18
9149.98858 6.31342e-18
9150.85004 6.10003e-18
9151.71151 6.02774e-18
9152.57297 5.95585e-18
9153.43443 6.04985e-18
9154.29589 6.14431e-18
9155.15735 6.32245e-18
9156.01882 6.50081e-18
9156.88028 6.67628e-18
9157.75176 6.85173e-18
9158.61322 6.98394e-18
9159.47468 7.11602e-18
9160.33614 7.17361e-18
9161.19760 7.23098e-18
9162.05907 7.21604e-18
9162.92053 7.20090e-18
9163.78199 7.13046e-18
9164.64345 7.05989e-18
9165.50492 6.93161e-18
9166.36638 6.80317e-18
9167.22784 6.61401e-18
9168.09932 6.42469e-18
9168.96078 6.22159e-18
9169.82224 6.01845e-18
9170.68370 5.86493e-18
9171.54517 5.71155e-18
9172.40663 5.63936e-18
9173.26809 5.56740e-18
9174.12955 5.59037e-18
9174.99101 5.61359e-18
9175.85248 5.69267e-18
9176.71394 5.77189e-18
9177.58542 5.81833e-18
9178.44688 5.86468e-18
9179.30834 5.85265e-18
9180.16980 5.84047e-18
9181.03127 5.82823e-18
9181.89273 5.81600e-18
9182.75419 5.83559e-18
9183.61565 5.85528e-18
9184.47711 5.89528e-18
9185.33857 5.93533e-18
9186.20004 5.98193e-18
9187.07152 6.02855e-18
9187.93298 6.04834e-18
9188.79444 6.06805e-18
9189.65590 6.04247e-18
9190.51736 6.01676e-18
9191.37883 5.99747e-18
9192.24029 5.97819e-18
9193.10175 6.01118e-18
9193.96321 6.04431e-18
9194.82467 6.10914e-18
9195.68614 6.17404e-18
9196.55762 6.24152e-18
9197.41908 6.30901e-18
9198.28054 6.35277e-18
9199.14200 6.39647e-18
9200.00346 6.39117e-18
9200.86492 6.38574e-18
9201.72639 6.35006e-18
9202.58785 6.31429e-18
9203.44931 6.28495e-18
9204.31077 6.25564e-18
9205.17224 6.23371e-18
9206.04371 6.21180e-18
9206.90518 6.18116e-18
9207.76664 6.15049e-18
9208.62810 6.11625e-18
9209.48956 6.08200e-18
9210.35102 6.06143e-18
9211.21249 6.04088e-18
9212.07395 6.05130e-18
9212.93541 6.06180e-18
9213.79687 6.12307e-18
9214.65833 6.18446e-18
9215.52981 6.29260e-18
9216.39127 6.40088e-18
9217.25274 6.51481e-18
9218.11420 6.62875e-18
9218.97566 6.72179e-18
9219.83712 6.81476e-18
9220.69859 6.89542e-18
9221.56005 6.97604e-18
9222.42151 7.04911e-18
9223.28297 7.12215e-18
9224.14443 7.17950e-18
9225.00590 7.23680e-18
9225.87737 7.27272e-18
9226.73884 7.30859e-18
9227.60030 7.31713e-18
9228.46176 7.32559e-18
9229.32322 7.30446e-18
9230.18468 7.28325e-18
9231.04615 7.25653e-18
9231.90761 7.22980e-18
9232.76907 7.22533e-18
9233.63053 7.22090e-18
9234.49199 7.23256e-18
9235.35346 7.24425e-18
9236.22494 7.25637e-18
9237.08640 7.26848e-18
9237.94786 7.28820e-18
9238.80932 7.30794e-18
9239.67078 7.34997e-18
9240.53225 7.39206e-18
9241.39371 7.46347e-18
9242.25517 7.53495e-18
9243.11663 7.63860e-18
9243.97809 7.74234e-18
9244.84957 7.86920e-18
9245.71103 7.99611e-18
9246.57250 8.12560e-18
9247.43396 8.25509e-18
9248.29542 8.37543e-18
9249.15688 8.49574e-18
9250.01834 8.60935e-18
9250.87981 8.72296e-18
9251.74127 8.82413e-18
9252.60273 8.92525e-18
9253.46419 8.98971e-18
9254.32565 9.05407e-18
9255.19713 9.07786e-18
9256.05860 9.10153e-18
9256.92006 9.13179e-18
9257.78152 9.16206e-18
9258.64298 9.23425e-18
9259.50444 9.30654e-18
9260.36591 9.40994e-18
9261.22737 9.51341e-18
9262.08883 9.62895e-18
9262.95029 9.74452e-18
9263.81175 9.83049e-18
9264.68323 9.91637e-18
9265.54469 9.93286e-18
9266.40616 9.94916e-18
9267.26762 9.89728e-18
9268.12908 9.84522e-18
9268.99054 9.74142e-18
9269.85200 9.63748e-18
9270.71347 9.52041e-18
9271.57493 9.40330e-18
9272.43639 9.31900e-18
9273.29785 9.23480e-18
9274.16933 9.21966e-18
9275.03079 9.20470e-18
9275.89226 9.28530e-18
9276.75372 9.36617e-18
9277.61518 9.52897e-18
9278.47664 9.69199e-18
9279.33810 9.89215e-18
9280.19957 1.00924e-17
9281.06103 1.02815e-17
9281.92249 1.04706e-17
9282.79397 1.06020e-17
9283.65543 1.07333e-17
9284.51689 1.07699e-17
9285.37835 1.08062e-17
9286.23982 1.07259e-17
9287.10128 1.06453e-17
9287.96274 1.04579e-17
9288.82420 1.02700e-17
9289.68566 1.00348e-17
9290.54713 9.79947e-18
9291.40859 9.58563e-18
9292.27005 9.37185e-18
9293.14153 9.27037e-18
9294.00299 9.16919e-18
9294.86445 9.23948e-18
9295.72592 9.31024e-18
9296.58738 9.49109e-18
9297.44884 9.67226e-18
9298.31030 9.88245e-18
9299.17176 1.00927e-17
9300.03323 1.02215e-17
9300.89469 1.03501e-17
9301.75615 1.02914e-17
9302.62763 1.02321e-17
9303.48909 1.00877e-17
9304.35055 9.94318e-18
9305.21201 9.88006e-18
9306.07348 9.81716e-18
9306.93494 9.79638e-18
9307.79640 9.77570e-18
9308.65786 9.67625e-18
9309.51932 9.57657e-18
9310.38079 9.40405e-18
9311.24225 9.23134e-18
9312.11373 9.05718e-18
9312.97519 8.88302e-18
9313.83665 8.77722e-18
9314.69811 8.67161e-18
9315.55958 8.71377e-18
9316.42104 8.75636e-18
9317.28250 8.93100e-18
9318.14396 9.10602e-18
9319.00542 9.26005e-18
9319.86688 9.41401e-18
9320.72835 9.48735e-18
9321.58981 9.56047e-18
9322.46129 9.69419e-18
9323.32275 9.82809e-18
9324.18421 1.00531e-17
9325.04567 1.02783e-17
9325.90714 1.03060e-17
9326.76860 1.03332e-17
9327.63006 9.98587e-18
9328.49152 9.63746e-18
9329.35298 9.19426e-18
9330.21445 8.75079e-18
9331.07591 8.48208e-18
9331.94739 8.21389e-18
9332.80885 8.06754e-18
9333.67031 7.92155e-18
9334.53177 7.81948e-18
9335.39323 7.71753e-18
9336.25470 7.66148e-18
9337.11616 7.60557e-18
9337.97762 7.58216e-18
9338.83908 7.55886e-18
9339.70055 7.80616e-18
9340.56201 8.05422e-18
9341.43349 8.89464e-18
9342.29495 9.73674e-18
9343.15641 1.07573e-17
9344.01787 1.17783e-17
9344.87933 1.22191e-17
9345.74080 1.26582e-17
9346.60226 1.22927e-17
9347.46372 1.19248e-17
9348.32518 1.08823e-17
9349.18664 9.83795e-18
9350.04811 8.59788e-18
9350.90957 7.35727e-18
9351.78105 6.80379e-18
9352.64251 6.25229e-18
9353.50397 6.67549e-18
9354.36543 7.10146e-18
9355.22689 7.86173e-18
9356.08836 8.62293e-18
9356.94982 9.18249e-18
9357.81128 9.74145e-18
9358.67274 9.77952e-18
9359.53420 9.81610e-18
9360.39567 9.19398e-18
9361.26715 8.56999e-18
9362.12861 7.79159e-18
9362.99007 7.01276e-18
9363.85153 6.55365e-18
9364.71299 6.09547e-18
9365.57446 5.98304e-18
9366.43592 5.87162e-18
9367.29738 6.06006e-18
9368.15884 6.24934e-18
9369.02030 6.50238e-18
9369.89178 6.75558e-18
9370.75324 6.80262e-18
9371.61471 6.84906e-18
9372.47617 6.70668e-18
9373.33763 6.56377e-18
9374.19909 6.33309e-18
9375.06056 6.10217e-18
9375.92202 5.93779e-18
9376.78348 5.77361e-18
9377.64494 5.86439e-18
9378.50640 5.95590e-18
9379.37788 6.23022e-18
9380.23934 6.50507e-18
9381.10081 6.71977e-18
9381.96227 6.93428e-18
9382.82373 7.01188e-18
9383.68519 7.08909e-18
9384.54665 7.09951e-18
9385.40812 7.10973e-18
9386.26958 7.07233e-18
9387.13104 7.03478e-18
9387.99250 6.91679e-18
9388.85396 6.79856e-18
9389.72544 6.59814e-18
9390.58691 6.39748e-18
9391.44837 6.14487e-18
9392.30983 5.89212e-18
9393.17129 5.62875e-18
9394.03275 5.36537e-18
9394.89422 5.16480e-18
9395.75568 4.96442e-18
9396.61714 4.87644e-18
9397.47860 4.78878e-18
9398.34006 4.77648e-18
9399.21154 4.76439e-18
9400.07300 4.78139e-18
9400.93447 4.79847e-18
9401.79593 4.80020e-18
9402.65739 4.80187e-18
9403.51885 4.74930e-18
9404.38031 4.69658e-18
9405.24178 4.63356e-18
9406.10324 4.57053e-18
9406.96470 4.55863e-18
9407.82616 4.54687e-18
9408.69764 4.58675e-18
9409.55910 4.62679e-18
9410.42057 4.69705e-18
9411.28203 4.76740e-18
9412.14349 4.83480e-18
9413.00495 4.90219e-18
9413.86641 4.92729e-18
9414.72788 4.95225e-18
9415.58934 4.90877e-18
9416.45080 4.86509e-18
9417.31226 4.74490e-18
9418.17372 4.62449e-18
9419.04520 4.43601e-18
9419.90666 4.24733e-18
9420.76813 4.00314e-18
9421.62959 3.75879e-18
9422.49105 3.54628e-18
9423.35251 3.33387e-18
9424.21397 3.36163e-18
9425.07544 3.39009e-18
9425.93690 3.72507e-18
9426.79836 4.06094e-18
9427.65982 4.48449e-18
9428.53130 4.90826e-18
9429.39276 5.20954e-18
9430.25423 5.51044e-18
9431.11569 5.49427e-18
9431.97715 5.47719e-18
9432.83861 5.04471e-18
9433.70007 4.61105e-18
9434.56153 4.10518e-18
9435.42300 3.59913e-18
9436.28446 3.37858e-18
9437.14592 3.15887e-18
9438.01740 3.28014e-18
9438.87886 3.40240e-18
9439.74032 3.84227e-18
9440.60179 4.28304e-18
9441.46325 4.81810e-18
9442.32471 5.35343e-18
9443.18617 5.69615e-18
9444.04763 6.03831e-18
9444.90910 6.10645e-18
9445.77056 6.17379e-18
9446.63202 5.98530e-18
9447.49348 5.79606e-18
9448.36496 5.45269e-18
9449.22642 5.10889e-18
9450.08788 4.77435e-18
9450.94935 4.43985e-18
9451.81081 4.22081e-18
9452.67227 4.00211e-18
9453.53373 3.94015e-18
9454.39520 3.87865e-18
9455.25666 3.98414e-18
9456.11812 4.09013e-18
9456.98960 4.33749e-18
9457.85106 4.58524e-18
9458.71252 4.90041e-18
9459.57398 5.21576e-18
9460.43545 5.44927e-18
9461.29691 5.68254e-18
9462.15837 5.74436e-18
9463.01983 5.80568e-18
9463.88129 5.76615e-18
9464.74276 5.72634e-18
9465.60422 5.65903e-18
9466.47570 5.59164e-18
9467.33716 5.54172e-18
9468.19862 5.49185e-18
9469.06008 5.49563e-18
9469.92155 5.49956e-18
9470.78301 5.50137e-18
9471.64447 5.50317e-18
9472.50593 5.44371e-18
9473.36739 5.38409e-18
9474.22885 5.30050e-18
9475.09032 5.21684e-18
9475.96180 5.15961e-18
9476.82326 5.10244e-18
9477.68472 5.17624e-18
9478.54618 5.25041e-18
9479.40764 5.57326e-18
9480.26911 5.89682e-18
9481.13057 6.34056e-18
9481.99203 6.78464e-18
9482.85349 7.10132e-18
9483.71495 7.41761e-18
9484.57642 7.47657e-18
9485.43788 7.53475e-18
9486.30936 7.29022e-18
9487.17082 7.04479e-18
9488.03228 6.59633e-18
9488.89374 6.14730e-18
9489.75520 5.75718e-18
9490.61667 5.36725e-18
9491.47813 5.20317e-18
9492.33959 5.03976e-18
9493.20105 5.09864e-18
9494.06252 5.15817e-18
9494.92398 5.43919e-18
9495.79546 5.72084e-18
9496.65692 6.25977e-18
9497.51838 6.79944e-18
9498.37984 7.53948e-18
9499.24130 8.28010e-18
9500.10277 8.93166e-18
9500.96423 9.58295e-18
9501.82569 9.89557e-18
9502.68715 1.02072e-17
9503.54861 1.01413e-17
9504.41008 1.00742e-17
9505.28155 9.65530e-18
9506.14302 9.23536e-18
9507.00448 8.68106e-18
9507.86594 8.12639e-18
9508.72740 7.69552e-18
9509.58887 7.26503e-18
9510.45033 6.98298e-18
9511.31179 6.70136e-18
9512.17325 6.51695e-18
9513.03471 6.33283e-18
9513.89617 6.29644e-18
9514.75764 6.26048e-18
9515.62912 6.44417e-18
9516.49058 6.62850e-18
9517.35204 7.01125e-18
9518.21350 7.39458e-18
9519.07496 7.90573e-18
9519.93643 8.41725e-18
9520.79789 8.93235e-18
9521.65935 9.44747e-18
9522.52081 9.79516e-18
9523.38227 1.01424e-17
9524.24374 1.02649e-17
9525.11522 1.03868e-17
9525.97668 1.03742e-17
9526.83814 1.03613e-17
9527.69960 1.02967e-17
9528.56106 1.02320e-17
9529.42252 1.01809e-17
9530.28399 1.01299e-17
9531.14545 1.01292e-17
9532.00691 1.01287e-17
9532.86837 1.01200e-17
9533.72984 1.01114e-17
9534.60131 1.00456e-17
9535.46278 9.97968e-18
9536.32424 9.84189e-18
9537.18570 9.70389e-18
9538.04716 9.50199e-18
9538.90862 9.29989e-18
9539.77009 9.21813e-18
9540.63155 9.13672e-18
9541.49301 9.34902e-18
9542.35447 9.56217e-18
9543.21593 9.94393e-18
9544.08741 1.03262e-17
9544.94888 1.06919e-17
9545.81034 1.10576e-17
9546.67180 1.12265e-17
9547.53326 1.13947e-17
9548.39472 1.11810e-17
9549.25619 1.09663e-17
9550.11765 1.05853e-17
9550.97911 1.02039e-17
9551.84057 1.00890e-17
9552.70203 9.97482e-18
9553.57351 1.01554e-17
9554.43497 1.03368e-17
9555.29644 1.05567e-17
9556.15790 1.07766e-17
9557.01936 1.08633e-17
9557.88082 1.09495e-17
9558.74228 1.07880e-17
9559.60375 1.06259e-17
9560.46521 1.02875e-17
9561.32667 9.94864e-18
9562.18813 9.82457e-18
9563.05961 9.70116e-18
9563.92107 9.99323e-18
9564.78254 1.02865e-17
9565.64400 1.07870e-17
9566.50546 1.12881e-17
9567.36692 1.17733e-17
9568.22838 1.22585e-17
9569.08985 1.24619e-17
9569.95131 1.26645e-17
9570.81277 1.24023e-17
9571.67423 1.21387e-17
9572.53569 1.16420e-17
9573.40717 1.11447e-17
9574.26863 1.06881e-17
9575.13010 1.02316e-17
9575.99156 9.99860e-18
9576.85302 9.76623e-18
9577.71448 9.90172e-18
9578.57594 1.00383e-17
9579.43741 1.03145e-17
9580.29887 1.05911e-17
9581.16033 1.06752e-17
9582.02179 1.07589e-17
9582.89327 1.06070e-17
9583.75473 1.04544e-17
9584.61620 1.01318e-17
9585.47766 9.80856e-18
9586.33912 9.54781e-18
9587.20058 9.28723e-18
9588.06204 9.44269e-18
9588.92351 9.59938e-18
9589.78497 1.01267e-17
9590.64643 1.06551e-17
9591.51791 1.11479e-17
9592.37937 1.16406e-17
9593.24083 1.18796e-17
9594.10229 1.21179e-17
9594.96376 1.21242e-17
9595.82522 1.21298e-17
9596.68668 1.19475e-17
9597.54814 1.17647e-17
9598.40960 1.14965e-17
9599.27107 1.12283e-17
9600.13253 1.09878e-17
9600.99399 1.07474e-17
9601.86547 1.06243e-17
9602.72693 1.05016e-17
9603.58839 1.05545e-17
9604.44986 1.06080e-17
9605.31132 1.08271e-17
9606.17278 1.10468e-17
9607.03424 1.13828e-17
9607.89570 1.17190e-17
9608.75717 1.19582e-17
9609.61863 1.21971e-17
9610.48009 1.21335e-17
9611.35157 1.20690e-17
9612.21303 1.17900e-17
9613.07449 1.15104e-17
9613.93595 1.11807e-17
9614.79742 1.08508e-17
9615.65888 1.05848e-17
9616.52034 1.03190e-17
9617.38180 1.02122e-17
9618.24326 1.01060e-17
9619.10473 1.01830e-17
9619.96619 1.02606e-17
9620.82765 1.04949e-17
9621.69913 1.07297e-17
9622.56059 1.10367e-17
9623.42205 1.13440e-17
9624.28352 1.16062e-17
9625.14498 1.18683e-17
9626.00644 1.19735e-17
9626.86790 1.20783e-17
9627.72936 1.19216e-17
9628.59083 1.17641e-17
9629.45229 1.13763e-17
9630.31375 1.09878e-17
9631.17521 1.05984e-17
9632.04669 1.02089e-17
9632.90815 9.99603e-18
9633.76961 9.78368e-18
9634.63108 9.81671e-18
9635.49254 9.85049e-18
9636.35400 1.01221e-17
9637.21546 1.03944e-17
9638.07692 1.06470e-17
9638.93839 1.08995e-17
9639.79985 1.09200e-17
9640.67133 1.09397e-17
9641.53279 1.08611e-17
9642.39425 1.07822e-17
9643.25571 1.07598e-17
9644.11718 1.07376e-17
9644.97864 1.08090e-17
9645.84010 1.08809e-17
9646.70156 1.10613e-17
9647.56302 1.12421e-17
9648.42448 1.14110e-17
9649.28595 1.15798e-17
9650.15743 1.15803e-17
9651.01889 1.15800e-17
9651.88035 1.14113e-17
9652.74181 1.12421e-17
9653.60327 1.09746e-17
9654.46474 1.07068e-17
9655.32620 1.04373e-17
9656.18766 1.01679e-17
9657.04912 1.00080e-17
9657.91058 9.84852e-18
9658.77205 9.86065e-18
9659.64352 9.87332e-18
9660.50499 1.00727e-17
9661.36645 1.02727e-17
9662.22791 1.05962e-17
9663.08937 1.09201e-17
9663.95083 1.12029e-17
9664.81230 1.14855e-17
9665.67376 1.16322e-17
9666.53522 1.17786e-17
9667.39668 1.18396e-17
9668.25815 1.19005e-17
9669.11961 1.19049e-17
9669.99109 1.19090e-17
9670.85255 1.18079e-17
9671.71401 1.17064e-17
9672.57547 1.14865e-17
9673.43693 1.12661e-17
9674.29840 1.10172e-17
9675.15986 1.07681e-17
9676.02132 1.05799e-17
9676.88278 1.03919e-17
9677.74424 1.03271e-17
9678.61572 1.02627e-17
9679.47718 1.03628e-17
9680.33865 1.04634e-17
9681.20011 1.06459e-17
9682.06157 1.08286e-17
9682.92303 1.09786e-17
9683.78449 1.11285e-17
9684.64596 1.12121e-17
9685.50742 1.12953e-17
9686.36888 1.13076e-17
9687.23034 1.13197e-17
9688.10182 1.12728e-17
9688.96328 1.12257e-17
9689.82475 1.11486e-17
9690.68621 1.10713e-17
9691.54767 1.09692e-17
9692.40913 1.08670e-17
9693.27059 1.07245e-17
9694.13206 1.05818e-17
9694.99352 1.04199e-17
9695.85498 1.02580e-17
9696.71644 1.01343e-17
9697.57790 1.00107e-17
9698.44938 9.95365e-18
9699.31084 9.89687e-18
9700.17231 9.89575e-18
9701.03377 9.89481e-18
9701.89523 9.92604e-18
9702.75669 9.95739e-18
9703.61816 9.96869e-18
9704.47962 9.97993e-18
9705.34108 9.93751e-18
9706.20254 9.89494e-18
9707.06400 9.83139e-18
9707.93548 9.76778e-18
9708.79694 9.71685e-18
9709.65841 9.66598e-18
9710.51987 9.64611e-18
9711.38133 9.62633e-18
9712.24279 9.64952e-18
9713.10425 9.67283e-18
9713.96572 9.70702e-18
9714.82718 9.74122e-18
9715.68864 9.74781e-18
9716.55010 9.75432e-18
9717.41156 9.72226e-18
9718.28304 9.69009e-18
9719.14451 9.61494e-18
9720.00597 9.53966e-18
9720.86743 9.46163e-18
9721.72889 9.38359e-18
9722.59035 9.36449e-18
9723.45182 9.34557e-18
9724.31328 9.35826e-18
9725.17474 9.37106e-18
9726.03620 9.33487e-18
9726.89766 9.29853e-18
9727.76914 9.18491e-18
9728.63060 9.07105e-18
9729.49207 8.89498e-18
9730.35353 8.71872e-18
9731.21499 8.51776e-18
9732.07645 8.31674e-18
9732.93791 8.15999e-18
9733.79938 8.00338e-18
9734.66084 7.93388e-18
9735.52230 7.86464e-18
9736.38376 7.87402e-18
9737.25524 7.88363e-18
9738.11670 7.95251e-18
9738.97817 8.02157e-18
9739.83963 8.11183e-18
9740.70109 8.20217e-18
9741.56255 8.27612e-18
9742.42401 8.35003e-18
9743.28548 8.38770e-18
9744.14694 8.42526e-18
9745.00840 8.41480e-18
9745.86986 8.40420e-18
9746.74134 8.36167e-18
9747.60280 8.31906e-18
9748.46426 8.26651e-18
9749.32573 8.21394e-18
9750.18719 8.15662e-18
9751.04865 8.09928e-18
9751.91011 8.03994e-18
9752.77157 7.98059e-18
9753.63304 7.91728e-18
9754.49450 7.85396e-18
9755.35596 7.78257e-18
9756.22744 7.71116e-18
9757.08890 7.64656e-18
9757.95036 7.58198e-18
9758.81183 7.54611e-18
9759.67329 7.51032e-18
9760.53475 7.52016e-18
9761.39621 7.53013e-18
9762.25767 7.60024e-18
9763.11913 7.67053e-18
9763.98060 7.77884e-18
9764.84206 7.88725e-18
9765.71354 7.97160e-18
9766.57500 8.05587e-18
9767.43646 8.08577e-18
9768.29792 8.11550e-18
9769.15939 8.11094e-18
9770.02085 8.10627e-18
9770.88231 8.08428e-18
9771.74377 8.06223e-18
9772.60523 8.03130e-18
9773.46670 8.00036e-18
9774.32816 7.97131e-18
9775.19964 7.94224e-18
9776.06110 7.92359e-18
9776.92256 7.90496e-18
9777.78402 7.90240e-18
9778.64548 7.89989e-18
9779.50695 7.92070e-18
9780.36841 7.94157e-18
9781.22987 7.98775e-18
9782.09133 8.03401e-18
9782.95280 8.06559e-18
9783.81426 8.09712e-18
9784.68574 8.07065e-18
9785.54720 8.04399e-18
9786.40866 7.98053e-18
9787.27012 7.91695e-18
9788.13158 7.85608e-18
9788.99305 7.79521e-18
9789.85451 7.75088e-18
9790.71597 7.70658e-18
9791.57743 7.68459e-18
9792.43889 7.66264e-18
9793.30036 7.64813e-18
9794.16182 7.63364e-18
9795.03330 7.59541e-18
9795.89476 7.55711e-18
9796.75622 7.50426e-18
9797.61768 7.45138e-18
9798.47915 7.42952e-18
9799.34061 7.40776e-18
9800.20207 7.43211e-18
9801.06353 7.45662e-18
9801.92499 7.50559e-18
9802.78645 7.55463e-18
9803.64792 7.60639e-18
9804.51940 7.65815e-18
9805.38086 7.68710e-18
9806.24232 7.71599e-18
9807.10378 7.70974e-18
9807.96524 7.70336e-18
9808.82671 7.68645e-18
9809.68817 7.66949e-18
9810.54963 7.66529e-18
9811.41109 7.66112e-18
9812.27255 7.68440e-18
9813.13402 7.70776e-18
9813.99548 7.76539e-18
9814.86696 7.82313e-18
9815.72842 7.87409e-18
9816.58988 7.92503e-18
9817.45134 7.92578e-18
9818.31280 7.92637e-18
9819.17427 7.88268e-18
9820.03573 7.83887e-18
9820.89719 7.76909e-18
9821.75865 7.69922e-18
9822.62012 7.63023e-18
9823.48158 7.56126e-18
9824.35306 7.52440e-18
9825.21452 7.48766e-18
9826.07598 7.47837e-18
9826.93744 7.46918e-18
9827.79890 7.46211e-18
9828.66037 7.45504e-18
9829.52183 7.44390e-18
9830.38329 7.43274e-18
9831.24475 7.42505e-18
9832.10621 7.41736e-18
9832.97769 7.41138e-18
9833.83915 7.40540e-18
9834.70062 7.39128e-18
9835.56208 7.37713e-18
9836.42354 7.35033e-18
9837.28500 7.32348e-18
9838.14647 7.28665e-18
9839.00793 7.24979e-18
9839.86939 7.20593e-18
9840.73085 7.16206e-18
9841.59231 7.11273e-18
9842.45377 7.06339e-18
9843.32525 7.01422e-18
9844.18672 6.96505e-18
9845.04818 6.93346e-18
9845.90964 6.90192e-18
9846.77110 6.90164e-18
9847.63256 6.90144e-18
9848.49403 6.92822e-18
9849.35549 6.95506e-18
9850.21695 7.00109e-18
9851.07841 7.04719e-18
9851.93987 7.10502e-18
9852.81135 7.16289e-18
9853.67282 7.22374e-18
9854.53428 7.28458e-18
9855.39574 7.34288e-18
9856.25720 7.40115e-18
9857.11866 7.45278e-18
9857.98013 7.50439e-18
9858.84159 7.53833e-18
9859.70305 7.57220e-18
9860.56451 7.57578e-18
9861.42597 7.57927e-18
9862.29745 7.55078e-18
9863.15891 7.52220e-18
9864.02038 7.46707e-18
9864.88184 7.41186e-18
9865.74330 7.34016e-18
9866.60476 7.26839e-18
9867.46622 7.19449e-18
9868.32769 7.12059e-18
9869.18915 7.05274e-18
9870.05061 6.98491e-18
9870.92209 6.92216e-18
9871.78355 6.85944e-18
9872.64501 6.80287e-18
9873.50648 6.74632e-18
9874.36794 6.70078e-18
9875.22940 6.65527e-18
9876.09086 6.62459e-18
9876.95232 6.59396e-18
9877.81379 6.58166e-18
9878.67525 6.56943e-18
9879.53671 6.57714e-18
9880.39817 6.58491e-18
9881.26965 6.61016e-18
9882.13111 6.63547e-18
9882.99257 6.67375e-18
9883.85404 6.71205e-18
9884.71550 6.75506e-18
9885.57696 6.79808e-18
9886.43842 6.83687e-18
9887.29988 6.87564e-18
9888.16135 6.90181e-18
9889.02281 6.92794e-18
9889.88427 6.93448e-18
9890.74573 6.94094e-18
9891.61721 6.92765e-18
9892.47867 6.91431e-18
9893.34014 6.88476e-18
9894.20160 6.85515e-18
9895.06306 6.81313e-18
9895.92452 6.77107e-18
9896.78598 6.72058e-18
9897.64745 6.67008e-18
9898.50891 6.61769e-18
9899.37037 6.56529e-18
9900.23183 6.51968e-18
9901.09329 6.47409e-18
9901.96477 6.43668e-18
9902.82623 6.39930e-18
9903.68770 6.36273e-18
9904.54916 6.32617e-18
9905.41062 6.29213e-18
9906.27208 6.25810e-18
9907.13354 6.24265e-18
9907.99501 6.22724e-18
9908.85647 6.23799e-18
9909.71793 6.24882e-18
9910.57939 6.27847e-18
9911.45087 6.30817e-18
9912.31233 6.34479e-18
9913.17380 6.38143e-18
9914.03526 6.39984e-18
9914.89672 6.41820e-18
9915.75818 6.39839e-18
9916.61964 6.37847e-18
9917.48111 6.32745e-18
9918.34257 6.27633e-18
9919.20403 6.20630e-18
9920.07551 6.13623e-18
9920.93697 6.06110e-18
9921.79843 5.98597e-18
9922.65989 5.91986e-18
9923.52136 5.85380e-18
9924.38282 5.80293e-18
9925.24428 5.75211e-18
9926.10574 5.71889e-18
9926.96720 5.68573e-18
9927.82867 5.66096e-18
9928.69013 5.63622e-18
9929.56161 5.60528e-18
9930.42307 5.57433e-18
9931.28453 5.53246e-18
9932.14599 5.49056e-18
9933.00746 5.43984e-18
9933.86892 5.38910e-18
9934.73038 5.33384e-18
9935.59184 5.27857e-18
9936.45330 5.22498e-18
9937.31477 5.17139e-18
9938.17623 5.12769e-18
9939.03769 5.08402e-18
9939.90917 5.06053e-18
9940.77063 5.03710e-18
9941.63209 5.03665e-18
9942.49355 5.03628e-18
9943.35502 5.04818e-18
9944.21648 5.06012e-18
9945.07794 5.07517e-18
9945.93940 5.09021e-18
9946.80086 5.10605e-18
9947.66233 5.12190e-18
9948.52379 5.13585e-18
9949.39527 5.14981e-18
9950.25673 5.15677e-18
9951.11819 5.16371e-18
9951.97965 5.16038e-18
9952.84112 5.15702e-18
9953.70258 5.15002e-18
9954.56404 5.14300e-18
9955.42550 5.13961e-18
9956.28696 5.13622e-18
9957.14843 5.13157e-18
9958.00989 5.12690e-18
9958.88137 5.11428e-18
9959.74283 5.10160e-18
9960.60429 5.07757e-18
9961.46575 5.05349e-18
9962.32721 5.01583e-18
9963.18868 4.97812e-18
9964.05014 4.93810e-18
9964.91160 4.89808e-18
9965.77306 4.87455e-18
9966.63452 4.85107e-18
9967.49599 4.84843e-18
9968.36747 4.84586e-18
9969.22893 4.85687e-18
9970.09039 4.86791e-18
9970.95185 4.89142e-18
9971.81331 4.91497e-18
9972.67477 4.95639e-18
9973.53624 4.99787e-18
9974.39770 5.05495e-18
9975.25916 5.11207e-18
9976.12062 5.17259e-18
9976.98208 5.23311e-18
9977.85356 5.28735e-18
9978.71503 5.34156e-18
9979.57649 5.38486e-18
9980.43795 5.42814e-18
9981.29941 5.45887e-18
9982.16087 5.48958e-18
9983.02234 5.51428e-18
9983.88380 5.53897e-18
9984.74526 5.56424e-18
9985.60672 5.58952e-18
9986.46818 5.61863e-18
9987.32965 5.64775e-18
9988.20112 5.68241e-18
9989.06259 5.71707e-18
9989.92405 5.74506e-18
9990.78551 5.77302e-18
9991.64697 5.78050e-18
9992.50843 5.78791e-18
9993.36990 5.78527e-18
9994.23136 5.78259e-18
9995.09282 5.78758e-18
9995.95428 5.79259e-18
9996.81574 5.80219e-18
9997.67721 5.81181e-18
9998.54869 5.81470e-18
9999.41015 5.81757e-18
