# wavelength flux
3720.00230 8.04912e-18
3721.49568 7.20460e-18
3722.99921 6.42365e-18
3724.50274 1.41801e-18
3725.99611 5.63071e-18
3727.49964 1.05971e-17
3729.00318 3.91945e-18
3730.49655 4.86165e-18
3732.00008 4.86150e-18
3733.50361 9.41220e-18
3734.99699 8.01800e-18
3736.50052 5.44349e-18
3738.00405 9.24011e-18
3739.49742 8.05322e-18
3741.00095 6.86640e-18
3742.50449 5.67966e-18
3743.99786 5.67948e-18
3745.50139 1.66684e-17
3746.99476 7.79897e-18
3748.49830 1.05626e-17
3750.00183 8.88171e-18
3751.49520 6.92786e-18
3752.99873 6.70861e-18
3754.50227 8.76801e-18
3755.99564 7.55439e-18
3757.49917 7.85177e-19
3759.00270 -6.93713e-20
3760.49608 1.43719e-18
3761.99961 -1.32778e-19
3763.50314 5.80437e-18
3764.99651 3.89246e-18
3766.50005 6.77222e-18
3768.00358 6.82024e-18
3769.49695 6.86825e-18
3771.00048 6.67968e-18
3772.50401 6.49112e-18
3773.99739 6.30257e-18
3775.50092 6.11407e-18
3777.00445 5.92554e-18
3778.49782 5.73703e-18
3780.00136 5.54853e-18
3781.50489 5.36004e-18
3782.99826 5.17156e-18
3784.50179 4.98312e-18
3785.99517 4.79467e-18
3787.49870 4.60623e-18
3789.00223 4.41779e-18
3790.49560 4.22937e-18
3791.99914 4.04096e-18
3793.50267 3.85259e-18
3794.99604 3.66421e-18
3796.49957 3.47583e-18
3798.00310 3.28746e-18
3799.49648 3.09911e-18
3801.00001 2.91077e-18
3802.50354 2.72243e-18
3803.99691 2.53414e-18
3805.50045 2.34583e-18
3807.00398 2.15753e-18
3808.49735 1.03340e-17
3810.00088 8.55831e-18
3811.50441 3.05347e-18
3812.99779 4.35355e-18
3814.50132 4.57677e-18
3816.00485 4.78104e-18
3817.49823 5.70252e-18
3819.00176 1.23918e-18
3820.49513 2.44087e-18
3821.99866 6.22580e-18
3823.50219 2.95275e-18
3824.99557 5.43652e-18
3826.49910 8.74235e-18
3828.00263 3.19335e-18
3829.49600 6.35262e-18
3830.99954 4.31059e-18
3832.50307 3.90991e-18
3833.99644 3.12566e-18
3835.49997 3.62714e-18
3837.00351 4.12860e-18
3838.49688 4.63002e-18
3840.00041 5.13143e-18
3841.50394 5.63280e-18
3842.99732 6.13415e-18
3844.50085 6.63547e-18
3846.00438 7.13676e-18
3847.49775 7.13657e-18
3849.00128 9.72235e-18
3850.50482 3.47701e-19
3851.99819 7.58195e-18
3853.50172 1.38444e-17
3854.99509 9.05768e-18
3856.49863 4.84814e-18
3858.00216 7.01463e-18
3859.49553 5.50109e-18
3860.99906 4.56674e-18
3862.50260 7.01583e-19
3863.99597 6.58233e-18
3865.49950 7.05725e-18
3867.00303 6.38360e-18
3868.49640 7.76836e-18
3869.99994 3.36420e-18
3871.50347 8.00566e-18
3872.99684 1.00695e-17
3874.50037 2.25003e-18
3876.00391 3.89137e-18
3877.49728 1.22659e-17
3879.00081 5.99980e-18
3880.50434 1.14772e-17
3881.99772 1.14770e-17
3883.50125 1.37357e-17
3885.00478 2.57300e-18
3886.49815 1.51945e-19
3888.00169 1.27233e-18
3889.49506 8.26351e-18
3890.99859 7.11133e-18
3892.50212 5.20870e-18
3893.99550 1.45767e-17
3895.49903 1.32259e-17
3897.00256 7.33229e-18
3898.49593 1.06168e-17
3899.99946 8.62100e-18
3901.50300 -4.47515e-19
3902.99637 3.26369e-18
3904.49990 1.15148e-17
3906.00343 1.28192e-17
3907.49681 1.54091e-17
3909.00034 1.52272e-17
3910.50387 1.09437e-17
3911.99724 7.60890e-18
3913.50077 9.43050e-18
3915.00431 7.18806e-18
3916.49768 1.06013e-17
3918.00121 9.25831e-18
3919.50474 9.40068e-18
3920.99812 6.44765e-18
3922.50165 4.41624e-18
3923.99502 3.17775e-18
3925.49855 4.23407e-18
3927.00209 1.33536e-17
3928.49546 5.36698e-18
3929.99899 1.15366e-17
3931.50252 1.31727e-17
3932.99590 1.02445e-17
3934.49943 5.34500e-18
3936.00296 7.02233e-18
3937.49633 8.51977e-19
3938.99987 9.50028e-18
3940.50340 9.22215e-18
3941.99677 1.58377e-17
3943.50030 7.78963e-18
3945.00383 -4.67773e-19
3946.49721 1.09901e-17
3948.00074 6.53125e-18
3949.50427 -4.30092e-19
3950.99764 1.20814e-17
3952.50118 9.02963e-18
3954.00471 -4.96281e-19
3955.49808 -5.87660e-19
3957.00161 5.76989e-18
3958.49499 1.55917e-17
3959.99852 1.73291e-17
3961.50205 1.69001e-17
3962.99542 1.68389e-17
3964.49896 1.03808e-17
3966.00249 5.73185e-18
3967.49586 7.93461e-18
3968.99939 1.20893e-17
3970.50292 1.02690e-17
3971.99630 7.54893e-18
3973.49983 1.25611e-17
3975.00336 1.37512e-17
3976.49673 9.82617e-18
3978.00027 6.59294e-18
3979.50380 -3.72092e-19
3980.99717 1.76120e-18
3982.50070 7.86423e-18
3984.00424 7.35545e-18
3985.49761 8.86715e-18
3987.00114 8.62697e-18
3988.50467 8.53773e-18
3989.99805 1.03723e-17
3991.50158 1.10442e-17
3992.99495 5.49143e-18
3994.49848 3.24731e-18
3996.00201 -1.42304e-18
3997.49539 7.24601e-18
3998.99892 3.79376e-18
4000.50245 4.88521e-18
4001.99582 3.02960e-19
4003.49936 8.28779e-18
4005.00289 1.23053e-17
4006.49626 1.00365e-17
4007.99979 9.22118e-18
4009.50333 7.38877e-18
4010.99670 1.43168e-17
4012.50023 1.22460e-17
4014.00376 8.98940e-18
4015.49714 6.24379e-18
4017.00067 5.94526e-18
4018.50420 1.04993e-17
4019.99757 5.62991e-18
4021.50110 9.99119e-18
4023.00464 1.83266e-18
4024.49801 1.10800e-17
4026.00154 7.97665e-18
4027.49491 1.22610e-18
4028.99845 4.55658e-18
4030.50198 5.37977e-18
4031.99535 7.08911e-18
4033.49888 8.96751e-18
4035.00241 1.10969e-17
4036.49579 9.39633e-18
4037.99932 3.60406e-18
4039.50285 3.61132e-18
4040.99623 2.96633e-18
4042.49976 4.85825e-18
4044.00329 5.34334e-18
4045.49666 9.05393e-18
4047.00019 1.53475e-17
4048.50373 1.18751e-17
4049.99710 5.86739e-18
4051.50063 9.53904e-18
4053.00416 1.17809e-17
4054.49754 9.49153e-18
4056.00107 2.19209e-18
4057.50460 2.56194e-18
4058.99797 1.36026e-17
4060.50150 1.45834e-17
4062.00504 1.06617e-17
4063.49841 9.23908e-18
4065.00194 5.37418e-18
4066.49532 5.88645e-18
4067.99885 7.62737e-18
4069.50238 1.23467e-17
4070.99575 1.53361e-17
4072.49928 1.30926e-17
4074.00282 9.34657e-18
4075.49619 1.27093e-17
4076.99972 1.61134e-17
4078.50325 9.51661e-18
4079.99663 1.20082e-17
4081.50016 1.03924e-17
4083.00369 9.35157e-18
4084.49706 1.42633e-17
4086.00060 1.23374e-17
4087.50413 9.60998e-18
4088.99750 8.09494e-18
4090.50103 5.39651e-18
4092.00456 4.74760e-18
4093.49794 1.28888e-17
4095.00147 1.22294e-17
4096.50500 1.35962e-17
4097.99837 1.42819e-17
4099.50191 1.07115e-17
4100.99528 7.25294e-18
4102.49881 8.39237e-18
4104.00234 7.63547e-18
4105.49572 1.03120e-17
4106.99925 1.07698e-17
4108.50278 1.18385e-17
4109.99615 1.37573e-17
4111.49968 1.42379e-17
4113.00322 6.99897e-18
4114.49659 7.85454e-18
4116.00012 1.17842e-17
4117.50365 1.10477e-17
4118.99703 1.48716e-17
4120.50056 8.81113e-18
4122.00409 1.07282e-17
4123.49746 7.50412e-18
4125.00100 1.16644e-17
4126.50453 1.57056e-17
4127.99790 6.93054e-18
4129.50143 1.06619e-18
4130.99481 3.02289e-18
4132.49834 6.69637e-18
4134.00187 7.84912e-18
4135.49524 8.14838e-18
4136.99878 7.68243e-18
4138.50231 4.24597e-18
4139.99568 1.89911e-18
4141.49921 6.04423e-18
4143.00274 4.07342e-18
4144.49612 1.37161e-18
4145.99965 9.69978e-18
4147.50318 9.96655e-18
4148.99655 4.39866e-18
4150.50009 5.01460e-18
4152.00362 3.16555e-18
4153.49699 7.95354e-18
4155.00052 6.97718e-18
4156.50406 9.75089e-18
4157.99743 8.55154e-18
4159.50096 9.35300e-18
4161.00449 8.67530e-18
4162.49787 5.36523e-18
4164.00140 4.52499e-18
4165.50493 4.90010e-18
4166.99830 4.44753e-18
4168.50183 9.09261e-18
4169.99521 1.33800e-17
4171.49874 1.26343e-17
4173.00227 6.00846e-18
4174.49564 4.44133e-18
4175.99918 9.02871e-18
4177.50271 8.25763e-18
4178.99608 7.67441e-18
4180.49961 1.14090e-17
4182.00315 5.52721e-18
4183.49652 3.50260e-18
4185.00005 7.98179e-18
4186.50358 4.85416e-18
4187.99695 4.18844e-18
4189.50049 1.13412e-17
4191.00402 1.44087e-17
4192.49739 1.38877e-17
4194.00092 9.58093e-18
4195.50446 7.69688e-18
4196.99783 9.62409e-18
4198.50136 5.17058e-18
4200.00489 7.67515e-18
4201.49827 8.34181e-18
4203.00180 1.28240e-17
4204.49517 1.41124e-17
4205.99870 1.04236e-17
4207.50223 1.19204e-17
4208.99561 1.31851e-17
4210.49914 1.15510e-17
4212.00267 4.92520e-18
4213.49604 9.21600e-18
4214.99958 7.99623e-18
4216.50311 1.03098e-17
4217.99648 1.18388e-17
4219.50001 1.28337e-17
4221.00355 6.97352e-18
4222.49692 1.06538e-17
4224.00045 5.62645e-18
4225.50398 3.06974e-18
4226.99736 8.81070e-18
4228.50089 7.96595e-18
4230.00442 6.96641e-18
4231.49779 6.57990e-18
4233.00133 1.08564e-17
4234.50486 1.45754e-17
4235.99823 1.31535e-17
4237.50176 1.25629e-17
4238.99514 1.00779e-17
4240.49867 9.67045e-18
4242.00220 9.69429e-18
4243.49557 1.17137e-17
4244.99910 1.46568e-17
4246.50264 1.59720e-17
4247.99601 1.20056e-17
4249.49954 6.78373e-18
4251.00307 4.64557e-18
4252.49645 7.04319e-18
4253.99998 1.11774e-17
4255.50351 1.22162e-17
4256.99688 1.14107e-17
4258.50042 9.22434e-18
4260.00395 9.35754e-18
4261.49732 5.15911e-18
4263.00085 5.92157e-18
4264.50438 6.97152e-18
4265.99776 8.70416e-18
4267.50129 8.81490e-18
4269.00482 7.92137e-18
4270.49819 9.66712e-18
4272.00173 1.55932e-17
4273.49510 1.21972e-17
4274.99863 1.81303e-17
4276.50216 9.88659e-18
4277.99554 2.75695e-18
4279.49907 1.42729e-17
4281.00260 1.20007e-17
4282.49597 5.18938e-18
4283.99950 4.36285e-18
4285.50304 9.14818e-18
4286.99641 1.07481e-17
4288.49994 5.43985e-18
4290.00347 6.20514e-18
4291.49685 5.30691e-18
4293.00038 1.11389e-17
4294.50391 1.17423e-17
4295.99728 8.78235e-18
4297.50082 9.80078e-18
4299.00435 1.11440e-17
4300.49772 8.30146e-18
4302.00125 6.53633e-18
4303.50479 9.87970e-18
4304.99816 9.63784e-18
4306.50169 6.16122e-18
4307.99506 7.63663e-18
4309.49860 9.32851e-18
4311.00213 8.21214e-18
4312.49550 6.16966e-18
4313.99903 6.49893e-18
4315.50256 9.08732e-18
4316.99594 9.38942e-18
4318.49947 6.73608e-18
4320.00300 6.57562e-18
4321.49637 9.32933e-18
4322.99991 9.90760e-18
4324.50344 7.80532e-18
4325.99681 5.04005e-18
4327.50034 4.99046e-18
4329.00388 1.20465e-17
4330.49725 1.06788e-17
4332.00078 7.39676e-18
4333.50431 9.81261e-18
4334.99768 1.19357e-17
4336.50122 1.27467e-17
4338.00475 1.04866e-17
4339.49812 3.35238e-18
4341.00165 2.70892e-18
4342.49503 5.39297e-18
4343.99856 9.41312e-18
4345.50209 7.44599e-18
4346.99546 5.84391e-18
4348.49900 7.27480e-18
4350.00253 7.10427e-18
4351.49590 8.09709e-18
4352.99943 7.15967e-18
4354.50297 9.49237e-18
4355.99634 9.96469e-18
4357.49987 9.49656e-18
4359.00340 3.19437e-18
4360.49678 7.39623e-18
4362.00031 8.24407e-18
4363.50384 7.41118e-18
4364.99721 4.26306e-18
4366.50074 4.16543e-18
4368.00428 1.26554e-17
4369.49765 1.21997e-17
4371.00118 5.92981e-18
4372.50471 6.91159e-18
4373.99809 9.57419e-18
4375.50162 1.34562e-17
4376.99499 9.94219e-18
4378.49852 5.28838e-18
4380.00205 6.01484e-18
4381.49543 9.37701e-18
4382.99896 1.24266e-17
4384.50249 9.39585e-18
4385.99587 7.12730e-18
4387.49940 5.50155e-18
4389.00293 6.11699e-18
4390.49630 5.96704e-18
4391.99983 8.90750e-18
4393.50337 6.57745e-18
4394.99674 4.18993e-18
4396.50027 7.58384e-18
4398.00380 6.20418e-18
4399.49718 6.08525e-18
4401.00071 3.31042e-18
4402.50424 3.74957e-18
4403.99761 1.13354e-17
4405.50115 9.86326e-18
4407.00468 6.26276e-18
4408.49805 3.86743e-18
4410.00158 6.29342e-18
4411.50511 8.32696e-18
4412.99849 6.01473e-18
4414.50202 6.20162e-18
4415.99539 6.38857e-18
4417.49892 6.57550e-18
4419.00246 6.76242e-18
4420.49583 6.94934e-18
4421.99936 7.13625e-18
4423.50289 7.32314e-18
4424.99627 7.51002e-18
4426.49980 7.69690e-18
4428.00333 7.88377e-18
4429.49670 8.07062e-18
4431.00023 8.25747e-18
4432.50377 8.44431e-18
4433.99714 8.63107e-18
4435.50067 8.81789e-18
4437.00420 9.00470e-18
4438.49758 9.19149e-18
4440.00111 9.37828e-18
4441.50464 9.56506e-18
4442.99801 9.75183e-18
4444.50155 9.93858e-18
4446.00508 1.01253e-17
4447.49845 1.03121e-17
4449.00198 1.04988e-17
4450.49536 1.06855e-17
4451.99889 1.08722e-17
4453.50242 8.37278e-18
4454.99579 6.11373e-18
4456.49932 7.76147e-18
4458.00286 7.23960e-18
4459.49623 8.35305e-18
4460.99976 8.40854e-18
4462.50329 6.42307e-18
4463.99667 5.81818e-18
4465.50020 8.46038e-18
4467.00373 1.29964e-17
4468.49710 1.38829e-17
4470.00064 9.38449e-18
4471.50417 7.03935e-18
4472.99754 1.13068e-17
4474.50107 1.37350e-17
4476.00461 1.12220e-17
4477.49798 6.98173e-18
4479.00151 7.34161e-18
4480.50504 8.49477e-18
4481.99842 8.09034e-18
4483.50195 6.80539e-18
4484.99532 4.25742e-18
4486.49885 5.74008e-18
4488.00238 6.75932e-18
4489.49576 6.90490e-18
4490.99929 3.50368e-18
4492.50282 1.68393e-18
4493.99619 9.86750e-18
4495.49973 7.15943e-18
4497.00326 2.39061e-18
4498.49663 5.02330e-18
4500.00016 6.08130e-18
4501.50370 7.94358e-18
4502.99707 5.07594e-18
4504.50060 3.22401e-18
4506.00413 5.73822e-18
4507.49751 7.86440e-18
4509.00104 8.39556e-18
4510.50457 5.26725e-18
4511.99794 5.59033e-18
4513.50147 7.83928e-18
4514.99485 1.07453e-17
4516.49838 9.71742e-18
4518.00191 6.53652e-18
4519.49528 9.42994e-18
4520.99882 1.25384e-17
4522.50235 1.28587e-17
4523.99572 1.05553e-17
4525.49925 9.76824e-18
4527.00278 1.20176e-17
4528.49616 1.49002e-17
4529.99969 1.20360e-17
4531.50322 1.05229e-17
4532.99660 1.07211e-17
4534.50013 8.52955e-18
4536.00366 8.26439e-18
4537.49703 1.11572e-17
4539.00056 1.22638e-17
4540.50410 9.07256e-18
4541.99747 4.65003e-18
4543.50100 6.35462e-18
4545.00453 9.89563e-18
4546.49791 7.79430e-18
4548.00144 8.23990e-18
4549.49481 1.22337e-17
4550.99834 1.37177e-17
4552.50187 1.70349e-17
4553.99525 1.36755e-17
4555.49878 8.97025e-18
4557.00231 9.36857e-18
4558.49568 8.92836e-18
4559.99922 1.18697e-17
4561.50275 9.18838e-18
4562.99612 1.00976e-17
4564.49965 1.06454e-17
4566.00319 7.23546e-18
4567.49656 9.67592e-18
4569.00009 9.09324e-18
4570.50362 9.62317e-18
4571.99700 1.11734e-17
4573.50053 1.13194e-17
4575.00406 1.05653e-17
4576.49743 9.07121e-18
4578.00097 1.16029e-17
4579.50450 1.07814e-17
4580.99787 8.96150e-18
4582.50140 1.30327e-17
4583.99478 1.27988e-17
4585.49831 9.97392e-18
4587.00184 6.99019e-18
4588.49521 1.14607e-17
4589.99874 1.40566e-17
4591.50228 8.64316e-18
4592.99565 3.98672e-18
4594.49918 7.95903e-18
4596.00271 9.21970e-18
4597.49609 8.08906e-18
4598.99962 7.14813e-18
4600.50315 6.66186e-18
4601.99652 1.05688e-17
4603.50005 1.46844e-17
4605.00359 1.39837e-17
4606.49696 1.06597e-17
4608.00049 1.10469e-17
4609.50402 1.18339e-17
4610.99740 1.05108e-17
4612.50093 1.26494e-17
4614.00446 1.44363e-17
4615.49783 1.22991e-17
4617.00137 1.17766e-17
4618.50490 1.06768e-17
4619.99827 1.11528e-17
4621.50180 1.10749e-17
4622.99518 1.21888e-17
4624.49871 1.33260e-17
4626.00224 1.15411e-17
4627.49561 1.34033e-17
4628.99915 1.43849e-17
4630.50268 8.91982e-18
4631.99605 7.57583e-18
4633.49958 1.14279e-17
4635.00311 1.36604e-17
4636.49649 1.45425e-17
4638.00002 1.36054e-17
4639.50355 7.35044e-18
4640.99692 6.17519e-18
4642.50046 9.65184e-18
4644.00399 1.20467e-17
4645.49736 1.03133e-17
4647.00089 8.93817e-18
4648.50443 1.37507e-17
4649.99780 1.38571e-17
4651.50133 1.03071e-17
4653.00486 1.19792e-17
4654.49824 9.55627e-18
4656.00177 1.45328e-17
4657.49514 1.34288e-17
4658.99867 1.33367e-17
4660.50220 1.27110e-17
4661.99558 9.28080e-18
4663.49911 9.92724e-18
4665.00264 1.36566e-17
4666.49601 1.25937e-17
4667.99955 9.75811e-18
4669.50308 9.90576e-18
4670.99645 1.24758e-17
4672.49998 1.15556e-17
4674.00352 9.46761e-18
4675.49689 1.08802e-17
4677.00042 1.23558e-17
4678.50395 1.34415e-17
4679.99733 1.39532e-17
4681.50086 1.12373e-17
4683.00439 1.46152e-17
4684.49776 1.63101e-17
4686.00129 1.35167e-17
4687.50483 1.11480e-17
4688.99820 1.02660e-17
4690.50173 1.08953e-17
4691.99510 1.47105e-17
4693.49864 1.40700e-17
4695.00217 9.26288e-18
4696.49554 1.20609e-17
4697.99907 1.11906e-17
4699.50260 7.81498e-18
4700.99598 8.90964e-18
4702.49951 8.85726e-18
4704.00304 9.68566e-18
4705.49642 9.74352e-18
4706.99995 1.40100e-17
4708.50348 1.31710e-17
4709.99685 1.61804e-17
4711.50038 1.17154e-17
4713.00392 1.21961e-17
4714.49729 1.03788e-17
4716.00082 9.18348e-18
4717.50435 1.37586e-17
4718.99773 1.28345e-17
4720.50126 9.25799e-18
4722.00479 1.00818e-17
4723.49816 1.20303e-17
4725.00169 1.19971e-17
4726.49507 8.95395e-18
4727.99860 1.11521e-17
4729.50213 1.34231e-17
4730.99550 1.02185e-17
4732.49904 5.73216e-18
4734.00257 6.95866e-18
4735.49594 1.41651e-17
4736.99947 1.36911e-17
4738.50301 1.03370e-17
4739.99638 9.00807e-18
4741.49991 6.07080e-18
4743.00344 9.25716e-18
4744.49682 1.04648e-17
4746.00035 8.82518e-18
4747.50388 7.10805e-18
4748.99725 1.02109e-17
4750.50079 1.33676e-17
4752.00432 1.26230e-17
4753.49769 8.09117e-18
4755.00122 9.21887e-18
4756.50475 1.36389e-17
4757.99813 1.24365e-17
4759.50166 9.40955e-18
4760.99503 1.17912e-17
4762.49856 1.21980e-17
4764.00210 1.22952e-17
4765.49547 1.28893e-17
4766.99900 5.77493e-18
4768.50253 4.92067e-18
4769.99591 1.06548e-17
4771.49944 9.99656e-18
4773.00297 9.99524e-18
4774.49634 9.59362e-18
4775.99988 9.09379e-18
4777.50341 1.07317e-17
4778.99678 1.21959e-17
4780.50031 1.24473e-17
4782.00384 5.12226e-18
4783.49722 9.07590e-18
4785.00075 9.89350e-18
4786.50428 8.83587e-18
4787.99765 6.10973e-18
4789.50119 9.51414e-18
4791.00472 9.65875e-18
4792.49809 1.14063e-17
4794.00162 9.35733e-18
4795.49500 1.13980e-17
4796.99853 6.36155e-18
4798.50206 1.15316e-17
4799.99543 1.08706e-17
4801.49897 9.51403e-18
4803.00250 9.09062e-18
4804.49587 1.00602e-17
4805.99940 1.38792e-17
4807.50293 1.20940e-17
4808.99631 8.85978e-18
4810.49984 8.96690e-18
4812.00337 7.98421e-18
4813.49674 9.78597e-18
4815.00028 1.13611e-17
4816.50381 1.21496e-17
4817.99718 1.00411e-17
4819.50071 7.34460e-18
4821.00425 9.44523e-18
4822.49762 1.05359e-17
4824.00115 4.85379e-18
4825.50468 6.81377e-18
4826.99806 1.19498e-17
4828.50159 1.44888e-17
4829.99496 9.87057e-18
4831.49849 9.84579e-18
4833.00202 1.07439e-17
4834.49540 1.34957e-17
4835.99893 1.33866e-17
4837.50246 1.19113e-17
4838.99583 1.61837e-17
4840.49937 1.69548e-17
4842.00290 1.32429e-17
4843.49627 1.02755e-17
4844.99980 9.22784e-18
4846.50333 7.56153e-18
4847.99671 1.06958e-17
4849.50024 1.17283e-17
4851.00377 1.10939e-17
4852.49715 9.28581e-18
4854.00068 8.78871e-18
4855.50421 1.40794e-17
4856.99758 9.22588e-18
4858.50111 1.02922e-17
4860.00465 9.42002e-18
4861.49802 9.44748e-18
4863.00155 1.01331e-17
4864.49492 1.01966e-17
4865.99846 8.56964e-18
4867.50199 9.67085e-18
4868.99536 1.16699e-17
4870.49889 1.13616e-17
4872.00242 1.03704e-17
4873.49580 7.91979e-18
4874.99933 9.08563e-18
4876.50286 1.15038e-17
4877.99623 1.17749e-17
4879.49977 9.31782e-18
4881.00330 1.00776e-17
4882.49667 1.28487e-17
4884.00020 1.15980e-17
4885.50374 1.00223e-17
4886.99711 1.08454e-17
4888.50064 8.41660e-18
4890.00417 7.33532e-18
4891.49755 6.36768e-18
4893.00108 7.99502e-18
4894.50461 1.25575e-17
4895.99798 1.27032e-17
4897.50152 9.13751e-18
4899.00505 7.01756e-18
4900.49842 7.50863e-18
4902.00195 7.91965e-18
4903.49532 9.60471e-18
4904.99886 9.80642e-18
4906.50239 9.67772e-18
4907.99576 1.08700e-17
4909.49929 9.51249e-18
4911.00283 8.82794e-18
4912.49620 7.67062e-18
4913.99973 1.03349e-17
4915.50326 9.19838e-18
4916.99664 8.88205e-18
4918.50017 1.01855e-17
4920.00370 1.01767e-17
4921.49707 1.03015e-17
4923.00061 1.04262e-17
4924.50414 1.05510e-17
4925.99751 1.06757e-17
4927.50104 1.08004e-17
4929.00457 1.09251e-17
4930.49795 1.10498e-17
4932.00148 1.11745e-17
4933.50501 1.12992e-17
4934.99838 1.14239e-17
4936.50192 1.15486e-17
4937.99529 1.16732e-17
4939.49882 1.17979e-17
4941.00235 1.19225e-17
4942.49573 1.20472e-17
4943.99926 1.21718e-17
4945.50279 1.22965e-17
4946.99616 1.24211e-17
4948.49970 1.25457e-17
4950.00323 1.26703e-17
4951.49660 1.27949e-17
4953.00013 1.29195e-17
4954.50366 1.30441e-17
4955.99704 1.31687e-17
4957.50057 1.32933e-17
4959.00410 9.54514e-18
4960.49747 8.46376e-18
4962.00101 1.22984e-17
4963.50454 1.09452e-17
4964.99791 6.36963e-18
4966.50144 5.31923e-18
4968.00497 8.92609e-18
4969.49835 1.08023e-17
4971.00188 1.15186e-17
4972.49525 1.28507e-17
4973.99878 9.05238e-18
4975.50232 1.00557e-17
4976.99569 1.32814e-17
4978.49922 1.06130e-17
4980.00275 9.02891e-18
4981.49613 1.04334e-17
4982.99966 1.03813e-17
4984.50319 1.02531e-17
4985.99656 1.13973e-17
4987.50010 1.23055e-17
4989.00363 1.10160e-17
4990.49700 1.02599e-17
4992.00053 1.25710e-17
4993.50407 1.34208e-17
4994.99744 1.19910e-17
4996.50097 1.19923e-17
4998.00450 1.04813e-17
4999.49788 9.30130e-18
5001.00141 8.97627e-18
5002.50494 9.74039e-18
5003.99831 1.33659e-17
5005.50184 1.44043e-17
5006.99522 1.27715e-17
5008.49875 1.34828e-17
5010.00228 1.27820e-17
5011.49565 1.11902e-17
5012.99919 1.32999e-17
5014.50272 1.34815e-17
5015.99609 1.06435e-17
5017.49962 8.80241e-18
5019.00316 9.85752e-18
5020.49653 9.87132e-18
5022.00006 9.88513e-18
5023.50359 9.89893e-18
5024.99697 9.91274e-18
5026.50050 9.92654e-18
5028.00403 9.94034e-18
5029.49740 9.95415e-18
5031.00093 9.96794e-18
5032.50447 9.98174e-18
5033.99784 9.99554e-18
5035.50137 1.00093e-17
5037.00490 1.00231e-17
5038.49828 1.00369e-17
5040.00181 1.00507e-17
5041.49518 1.00645e-17
5042.99871 1.00783e-17
5044.50225 1.00921e-17
5045.99562 1.01059e-17
5047.49915 1.01197e-17
5049.00268 1.01335e-17
5050.49605 1.01473e-17
5051.99959 1.01611e-17
5053.50312 1.01749e-17
5054.99649 1.01887e-17
5056.50002 1.02025e-17
5058.00356 9.04505e-18
5059.49693 1.00519e-17
5061.00046 9.02222e-18
5062.50399 7.43965e-18
5063.99737 9.80336e-18
5065.50090 1.09989e-17
5067.00443 1.07852e-17
5068.49780 1.07553e-17
5070.00133 1.07255e-17
5071.49471 1.06956e-17
5072.99824 1.06657e-17
5074.50177 1.06358e-17
5075.99514 1.06060e-17
5077.49868 1.05761e-17
5079.00221 1.05462e-17
5080.49558 1.05164e-17
5081.99911 1.04865e-17
5083.50265 1.04567e-17
5084.99602 1.04268e-17
5086.49955 1.03970e-17
5088.00308 1.03671e-17
5089.49646 1.03372e-17
5090.99999 1.03074e-17
5092.50352 1.02775e-17
5093.99689 1.02477e-17
5095.50043 1.02179e-17
5097.00396 1.01880e-17
5098.49733 1.01582e-17
5100.00086 1.01283e-17
5101.50439 1.00985e-17
5102.99777 1.00687e-17
5104.50130 1.00388e-17
5105.99467 1.00090e-17
5107.49820 1.01875e-17
5109.00174 1.07273e-17
5110.49511 1.18878e-17
5111.99864 9.98611e-18
5113.50217 8.26210e-18
5114.99555 8.69732e-18
5116.49908 1.13161e-17
5118.00261 1.07749e-17
5119.49598 8.47497e-18
5120.99952 7.18964e-18
5122.50305 8.95241e-18
5123.99642 9.37531e-18
5125.49995 9.18439e-18
5127.00348 1.06029e-17
5128.49686 1.21192e-17
5130.00039 1.08822e-17
5131.50392 1.03018e-17
5132.99729 9.03808e-18
5134.50083 8.74672e-18
5136.00436 6.97452e-18
5137.49773 7.73956e-18
5139.00126 1.11180e-17
5140.50480 7.09454e-18
5141.99817 9.04221e-18
5143.50170 1.13753e-17
5144.99507 1.09755e-17
5146.49860 1.00673e-17
5148.00214 9.84213e-18
5149.49551 8.21077e-18
5150.99904 6.46247e-18
5152.50257 1.00354e-17
5153.99595 1.12473e-17
5155.49948 1.30486e-17
5157.00301 1.06902e-17
5158.49638 8.42053e-18
5159.99992 9.32213e-18
5161.50345 1.06037e-17
5162.99682 1.14409e-17
5164.50035 9.29326e-18
5166.00389 7.43547e-18
5167.49726 1.00412e-17
5169.00079 1.18733e-17
5170.50432 9.40116e-18
5171.99770 1.00682e-17
5173.50123 1.05659e-17
5175.00476 7.48298e-18
5176.49813 1.01220e-17
5178.00166 1.26401e-17
5179.49504 7.99747e-18
5180.99857 6.86585e-18
5182.50210 1.03756e-17
5183.99547 1.12297e-17
5185.49901 8.26934e-18
5187.00254 7.53414e-18
5188.49591 8.85031e-18
5189.99944 6.33559e-18
5191.50298 7.42781e-18
5192.99635 9.16511e-18
5194.49988 1.12952e-17
5196.00341 9.59417e-18
5197.49678 1.08954e-17
5199.00032 1.26684e-17
5200.50385 9.00672e-18
5201.99722 1.11942e-17
5203.50075 1.10073e-17
5205.00429 1.21899e-17
5206.49766 9.50246e-18
5208.00119 1.06806e-17
5209.50472 1.20585e-17
5210.99810 9.56653e-18
5212.50163 8.86999e-18
5214.00516 1.05199e-17
5215.49853 1.02105e-17
5217.00207 1.23756e-17
5218.49544 9.92637e-18
5219.99897 8.96014e-18
5221.50250 1.22944e-17
5222.99588 1.07429e-17
5224.49941 9.42751e-18
5226.00294 1.11388e-17
5227.49631 9.82469e-18
5228.99984 1.03991e-17
5230.50338 1.16872e-17
5231.99675 1.25843e-17
5233.50028 1.19482e-17
5235.00381 1.17245e-17
5236.49719 1.02733e-17
5238.00072 1.08316e-17
5239.50425 1.18638e-17
5240.99762 1.13040e-17
5242.50115 1.09322e-17
5244.00469 1.16512e-17
5245.49806 1.12166e-17
5247.00159 9.21030e-18
5248.49497 9.16298e-18
5249.99850 1.06895e-17
5251.50203 1.27438e-17
5252.99540 1.35218e-17
5254.49893 1.05522e-17
5256.00247 7.48934e-18
5257.49584 9.92581e-18
5258.99937 1.10412e-17
5260.50290 1.07920e-17
5261.99628 1.12832e-17
5263.49981 9.23726e-18
5265.00334 1.14303e-17
5266.49671 1.11366e-17
5268.00025 9.71899e-18
5269.50378 1.18178e-17
5270.99715 1.10320e-17
5272.50068 1.18830e-17
5274.00421 1.13172e-17
5275.49759 1.20669e-17
5277.00112 7.86259e-18
5278.50465 9.13911e-18
5279.99802 1.14105e-17
5281.50156 1.48594e-17
5282.99493 1.19798e-17
5284.49846 1.18217e-17
5286.00199 1.24960e-17
5287.49537 1.21118e-17
5288.99890 9.61817e-18
5290.50243 1.26337e-17
5291.99580 1.16660e-17
5293.49933 1.02350e-17
5295.00287 1.02237e-17
5296.49624 1.23662e-17
5297.99977 1.60869e-17
5299.50330 1.16326e-17
5300.99668 1.12140e-17
5302.50021 1.32057e-17
5304.00374 1.12992e-17
5305.49711 1.26617e-17
5307.00065 1.19056e-17
5308.50418 1.24758e-17
5309.99755 1.48297e-17
5311.50108 1.34340e-17
5313.00462 1.54595e-17
5314.49799 1.68498e-17
5316.00152 1.34907e-17
5317.49489 1.11885e-17
5318.99842 1.23703e-17
5320.50196 1.22613e-17
5321.99533 9.82092e-18
5323.49886 1.07577e-17
5325.00239 1.25015e-17
5326.49577 1.24399e-17
5327.99930 1.44155e-17
5329.50283 1.47180e-17
5330.99620 1.29212e-17
5332.49974 1.30721e-17
5334.00327 1.36240e-17
5335.49664 1.38874e-17
5337.00017 1.57083e-17
5338.50371 1.40156e-17
5339.99708 1.39602e-17
5341.50061 1.31072e-17
5343.00414 1.33909e-17
5344.49752 1.25988e-17
5346.00105 1.32461e-17
5347.50458 1.29580e-17
5348.99795 1.15226e-17
5350.50148 1.06328e-17
5351.99486 1.17824e-17
5353.49839 1.36838e-17
5355.00192 1.37714e-17
5356.49529 1.32883e-17
5357.99883 1.23840e-17
5359.50236 1.30234e-17
5360.99573 1.15746e-17
5362.49926 1.28622e-17
5364.00280 1.52994e-17
5365.49617 1.25789e-17
5366.99970 1.23198e-17
5368.50323 1.42603e-17
5369.99661 1.37742e-17
5371.50014 1.39790e-17
5373.00367 1.42509e-17
5374.49704 1.53352e-17
5376.00057 1.56662e-17
5377.50411 1.44341e-17
5378.99748 1.17649e-17
5380.50101 1.14679e-17
5382.00454 1.19960e-17
5383.49792 1.04914e-17
5385.00145 1.04115e-17
5386.49482 1.29806e-17
5387.99835 1.25352e-17
5389.50188 1.15304e-17
5390.99526 1.12475e-17
5392.49879 1.12010e-17
5394.00232 1.25837e-17
5395.49570 1.23943e-17
5396.99923 1.29712e-17
5398.50276 1.39792e-17
5399.99613 1.35114e-17
5401.49966 1.64440e-17
5403.00320 1.66437e-17
5404.49657 1.24777e-17
5406.00010 1.16962e-17
5407.50363 1.36250e-17
5408.99701 1.40482e-17
5410.50054 1.40335e-17
5412.00407 1.54003e-17
5413.49744 1.58491e-17
5415.00097 1.40620e-17
5416.50451 1.17459e-17
5417.99788 1.15433e-17
5419.50141 1.06025e-17
5421.00494 1.09446e-17
5422.49832 1.23819e-17
5424.00185 1.32656e-17
5425.49522 1.31231e-17
5426.99875 1.11382e-17
5428.50229 1.19071e-17
5429.99566 1.07773e-17
5431.49919 1.15555e-17
5433.00272 1.57973e-17
5434.49610 1.63737e-17
5435.99963 1.62658e-17
5437.50316 1.42442e-17
5438.99653 1.38711e-17
5440.50007 1.53729e-17
5442.00360 1.45820e-17
5443.49697 1.38679e-17
5445.00050 1.43407e-17
5446.50403 1.42410e-17
5447.99741 1.44936e-17
5449.50094 1.56650e-17
5451.00447 1.47967e-17
5452.49784 1.37203e-17
5454.00138 1.65091e-17
5455.50491 1.73495e-17
5456.99828 1.61365e-17
5458.50181 1.43191e-17
5459.99519 1.36523e-17
5461.49872 1.53801e-17
5463.00225 1.64650e-17
5464.49562 1.71443e-17
5465.99915 1.60198e-17
5467.50269 1.59163e-17
5468.99606 1.76129e-17
5470.49959 1.29528e-17
5472.00312 1.09329e-17
5473.49650 1.36349e-17
5475.00003 1.42084e-17
5476.50356 1.36522e-17
5477.99693 1.47498e-17
5479.50047 1.78594e-17
5481.00400 1.54738e-17
5482.49737 1.48239e-17
5484.00090 1.40328e-17
5485.50443 1.42288e-17
5486.99781 1.42737e-17
5488.50134 1.62248e-17
5490.00487 1.39010e-17
5491.49825 1.58244e-17
5493.00178 1.59973e-17
5494.49515 1.44855e-17
5495.99868 1.50595e-17
5497.50221 1.65808e-17
5498.99559 1.63744e-17
5500.49912 1.44314e-17
5502.00265 1.30697e-17
5503.49602 1.46951e-17
5504.99956 1.62091e-17
5506.50309 1.57589e-17
5507.99646 1.56305e-17
5509.49999 1.27982e-17
5511.00353 1.31835e-17
5512.49690 1.42424e-17
5514.00043 1.56067e-17
5515.50396 1.42669e-17
5516.99734 1.46092e-17
5518.50087 1.59024e-17
5520.00440 1.62264e-17
5521.49777 1.46028e-17
5523.00130 1.64701e-17
5524.50484 1.71365e-17
5525.99821 1.46455e-17
5527.50174 1.50741e-17
5528.99511 1.41899e-17
5530.49865 1.59322e-17
5532.00218 1.95146e-17
5533.49555 1.73071e-17
5534.99908 1.63742e-17
5536.50262 1.78193e-17
5537.99599 1.76324e-17
5539.49952 1.67533e-17
5542.09007 1.60762e-17
5556.33298 1.59186e-17
5570.56574 1.58057e-17
5584.80866 1.52386e-17
5599.05158 1.47165e-17
5613.29450 1.46414e-17
5627.52725 1.44821e-17
5641.77017 1.43426e-17
5656.01309 1.44214e-17
5670.25601 1.47023e-17
5684.48877 1.49111e-17
5698.73169 1.55052e-17
5712.97460 1.55778e-17
5727.21752 1.53161e-17
5741.46044 1.54008e-17
5755.69320 1.49649e-17
5769.93612 1.44026e-17
5784.17904 1.35465e-17
5798.42195 1.28054e-17
5812.65471 1.24357e-17
5826.89763 1.19723e-17
5841.14055 1.22369e-17
5855.38347 1.28121e-17
5869.61622 1.28712e-17
5883.85914 1.28022e-17
5898.10206 1.33170e-17
5912.34498 1.36650e-17
5926.57774 1.42576e-17
5940.82066 1.49428e-17
5955.06357 1.52106e-17
5969.30649 1.55835e-17
5983.54941 1.55645e-17
5997.78217 1.55864e-17
6012.02509 1.56870e-17
6026.26800 1.55538e-17
6040.51092 1.54127e-17
6054.74368 1.52604e-17
6068.98660 1.47579e-17
6083.22952 1.43795e-17
6097.47244 1.41310e-17
6111.70520 1.38182e-17
6125.94811 1.38874e-17
6140.19103 1.36673e-17
6154.43395 1.31920e-17
6168.66671 1.35136e-17
6182.90963 1.36777e-17
6197.15254 1.40170e-17
6211.39546 1.43450e-17
6225.62822 1.44260e-17
6239.87114 1.44380e-17
6254.11406 1.38004e-17
6268.35698 1.33519e-17
6282.58973 1.32648e-17
6296.83265 1.32059e-17
6311.07557 1.32848e-17
6325.31849 1.34643e-17
6339.56141 1.36100e-17
6353.79417 1.35037e-17
6368.03708 1.36700e-17
6382.28000 1.39447e-17
6396.52292 1.38481e-17
6410.75568 1.39974e-17
6424.99860 1.43115e-17
6439.24151 1.44608e-17
6453.48443 1.45468e-17
6467.71719 1.46257e-17
6481.96011 1.46081e-17
6496.20303 1.49153e-17
6510.44595 1.50304e-17
6524.67870 1.49336e-17
6538.92162 1.52470e-17
6553.16454 1.53621e-17
6567.40746 1.55932e-17
6581.65038 1.56854e-17
6595.88314 1.57293e-17
6610.12605 1.57082e-17
6624.36897 1.57649e-17
6638.61189 1.61865e-17
6652.84465 1.65327e-17
6667.08757 1.64877e-17
6681.33048 1.64455e-17
6695.57340 1.66156e-17
6709.80616 1.66365e-17
6724.04908 1.64503e-17
6738.29200 1.61773e-17
6752.53492 1.58251e-17
6766.76767 1.55669e-17
6781.01059 1.56239e-17
6795.25351 1.55158e-17
6809.49643 1.54291e-17
6823.73935 1.55135e-17
6837.97210 1.50642e-17
6852.21502 1.48479e-17
6866.45794 1.48508e-17
6880.70086 1.44046e-17
6894.93362 1.41220e-17
6909.17654 1.37807e-17
6923.41945 1.33243e-17
6937.66237 1.31806e-17
6951.89513 1.30619e-17
6966.13805 1.29313e-17
6980.38097 1.29180e-17
6994.62388 1.29857e-17
7008.85664 1.31482e-17
7023.09956 1.33636e-17
7037.34248 1.36086e-17
7051.58540 1.38987e-17
7065.81816 1.40078e-17
7080.06108 1.39642e-17
7094.30399 1.37199e-17
7108.54691 1.36049e-17
7122.77967 1.36487e-17
7137.02259 1.34316e-17
7151.26551 1.30682e-17
7165.50842 1.28619e-17
7179.75134 1.28449e-17
7193.98410 1.27385e-17
7208.22702 1.27552e-17
7222.46994 1.31170e-17
7236.71285 1.33473e-17
7250.94561 1.34068e-17
7265.18853 1.35786e-17
7279.43145 1.37440e-17
7293.67437 1.37468e-17
7307.90713 1.36209e-17
7322.15005 1.33904e-17
7336.39296 1.31674e-17
7350.63588 1.33794e-17
7364.86864 1.38840e-17
7379.11156 1.41555e-17
7393.35448 1.42868e-17
7407.59739 1.44100e-17
7421.84031 1.47998e-17
7436.07307 1.49190e-17
7450.31599 1.46673e-17
7464.55891 1.43506e-17
7478.80183 1.41686e-17
7493.03458 1.42803e-17
7507.27750 1.44845e-17
7521.52042 1.43307e-17
7535.76334 1.40332e-17
7549.99610 1.36007e-17
7564.23902 1.29345e-17
7578.48193 1.28179e-17
7592.72485 1.29121e-17
7606.95761 1.23158e-17
7621.20053 1.13727e-17
7635.44345 9.99213e-18
7649.68636 9.01777e-18
7663.91912 8.69340e-18
7678.16204 8.77118e-18
7692.40496 9.22623e-18
7706.64788 9.95886e-18
7720.89080 1.05894e-17
7735.12355 1.13679e-17
7749.36647 1.19849e-17
7763.60939 1.27915e-17
7777.85231 1.34739e-17
7792.08507 1.36893e-17
7806.32798 1.43599e-17
7820.57090 1.50378e-17
7834.81382 1.52942e-17
7849.04658 1.55840e-17
7863.28950 1.59664e-17
7877.53242 1.59687e-17
7891.77533 1.58366e-17
7906.00809 1.59710e-17
7920.25101 1.62475e-17
7934.49393 1.62881e-17
7948.73685 1.66943e-17
7962.96961 1.70965e-17
7977.21252 1.69672e-17
7991.45544 1.68578e-17
8005.69836 1.69547e-17
8019.94128 1.68137e-17
8034.17404 1.67502e-17
8048.41695 1.65177e-17
8062.65987 1.64985e-17
8076.90279 1.62436e-17
8091.13555 1.58785e-17
8105.37847 1.56468e-17
8119.62139 1.50215e-17
8133.86430 1.45021e-17
8148.09706 1.41539e-17
8162.33998 1.34682e-17
8176.58290 1.30368e-17
8190.82582 1.21670e-17
8205.05858 1.10168e-17
8219.30149 1.03448e-17
8233.54441 9.70524e-18
8247.78733 8.51595e-18
8262.03025 7.42512e-18
8276.26301 6.90218e-18
8290.50592 6.16768e-18
8304.74884 5.55677e-18
8318.99176 5.32934e-18
8333.22452 5.03259e-18
8347.46744 5.09160e-18
8361.71036 5.38113e-18
8375.95327 5.53607e-18
8390.18603 5.83378e-18
8404.42895 6.25895e-18
8418.67187 6.56105e-18
8432.91479 6.83241e-18
8447.14755 7.19282e-18
8461.39046 7.54405e-18
8475.63338 7.62655e-18
8489.87630 7.87853e-18
8504.10906 8.58382e-18
8518.35198 9.19782e-18
8532.59490 9.84278e-18
8546.83781 1.07347e-17
8561.07057 1.18072e-17
8575.31349 1.29901e-17
8589.55641 1.41114e-17
8603.79933 1.52702e-17
8618.04224 1.60831e-17
8632.27500 1.70337e-17
8646.51792 1.82806e-17
8660.76084 1.90644e-17
8675.00376 1.95756e-17
8689.23652 1.99397e-17
8703.47943 2.01718e-17
8717.72235 2.04103e-17
8731.96527 1.98850e-17
8746.19803 1.96811e-17
8760.44095 1.97945e-17
8774.68387 1.96431e-17
8788.92678 1.92027e-17
8803.15954 1.82609e-17
8817.40246 1.73245e-17
8831.64538 1.68347e-17
8845.88830 1.65234e-17
8860.13121 1.65635e-17
8874.36397 1.68599e-17
8888.60689 1.64141e-17
8902.84981 1.45403e-17
8917.09273 1.29590e-17
8931.32549 1.22439e-17
8945.56840 1.16839e-17
8959.81132 1.10596e-17
8974.05424 1.07171e-17
8988.28700 1.04453e-17
9002.52992 1.08833e-17
9016.77283 1.13542e-17
9031.01575 1.12313e-17
9045.24851 1.10840e-17
9059.49143 1.06531e-17
9073.73435 1.04642e-17
9087.97727 1.05251e-17
9102.21003 1.06361e-17
9116.45294 1.00525e-17
9130.69586 9.69036e-18
9144.93878 9.85207e-18
9159.18170 1.01241e-17
9173.41446 1.06632e-17
9187.65737 1.14659e-17
9201.90029 1.19791e-17
9216.14321 1.23698e-17
9230.37597 1.25835e-17
9244.61889 1.31034e-17
9258.86181 1.29912e-17
9273.10472 1.14610e-17
9287.33748 1.05771e-17
9301.58040 1.12486e-17
9315.82332 1.05351e-17
9330.06624 9.39079e-18
9344.29899 9.75089e-18
9358.54191 1.04617e-17
9372.78483 1.07142e-17
9387.02775 1.00115e-17
9401.26051 1.02005e-17
9415.50343 1.14897e-17
9429.74634 1.24298e-17
9443.98926 1.24305e-17
9458.23218 1.15665e-17
9472.46494 1.06419e-17
9486.70786 1.01122e-17
9500.95077 1.03514e-17
9515.19369 1.11442e-17
9529.42645 1.15429e-17
9543.66937 1.15418e-17
9557.91229 1.09575e-17
9572.15521 1.00617e-17
9586.38796 9.90267e-18
9600.63088 1.01123e-17
9614.87380 1.04746e-17
9629.11672 1.04746e-17
9643.34948 9.92216e-18
9657.59240 9.94608e-18
9671.83531 1.07421e-17
9686.07823 1.17631e-17
9700.32115 1.17303e-17
9714.55391 1.09769e-17
9728.79683 1.05598e-17
9743.03975 1.03486e-17
9757.28266 1.05212e-17
9771.51542 1.05298e-17
9785.75834 9.84775e-18
9786.40866 9.84775e-18
9787.27012 9.76930e-18
9788.13158 9.69418e-18
9788.99305 9.61908e-18
9789.85451 9.56437e-18
9790.71597 9.50971e-18
9791.57743 9.48257e-18
9792.43889 9.45549e-18
9793.30036 9.43758e-18
9794.16182 9.41970e-18
9795.03330 9.37253e-18
9795.89476 9.32526e-18
9796.75622 9.26005e-18
9797.61768 9.19480e-18
9798.47915 9.16782e-18
9799.34061 9.14097e-18
9800.20207 9.17102e-18
9801.06353 9.20126e-18
9801.92499 9.26169e-18
9802.78645 9.32220e-18
9803.64792 9.38607e-18
9804.51940 9.44994e-18
9805.38086 9.48568e-18
9806.24232 9.52132e-18
9807.10378 9.51361e-18
9807.96524 9.50574e-18
9808.82671 9.48486e-18
9809.68817 9.46394e-18
9810.54963 9.45875e-18
9811.41109 9.45361e-18
9812.27255 9.48233e-18
9813.13402 9.51117e-18
9813.99548 9.58227e-18
9814.86696 9.65352e-18
9815.72842 9.71641e-18
9816.58988 9.77927e-18
9817.45134 9.78019e-18
9818.31280 9.78093e-18
9819.17427 9.72702e-18
9820.03573 9.67295e-18
9820.89719 9.58684e-18
9821.75865 9.50063e-18
9822.62012 9.41550e-18
9823.48158 9.33038e-18
9824.35306 9.28491e-18
9825.21452 9.23956e-18
9826.07598 9.22811e-18
9826.93744 9.21677e-18
9827.79890 9.20803e-18
9828.66037 9.19931e-18
9829.52183 9.18556e-18
9830.38329 9.17180e-18
9831.24475 9.16230e-18
9832.10621 9.15282e-18
9832.97769 9.14544e-18
9833.83915 9.13806e-18
9834.70062 9.12063e-18
9835.56208 9.10318e-18
9836.42354 9.07010e-18
9837.28500 9.03698e-18
9838.14647 8.99153e-18
9839.00793 8.94604e-18
9839.86939 8.89192e-18
9840.73085 8.83778e-18
9841.59231 8.77692e-18
9842.45377 8.71603e-18
9843.32525 8.65536e-18
9844.18672 8.59467e-18
9845.04818 8.55570e-18
9845.90964 8.51678e-18
9846.77110 8.51643e-18
9847.63256 8.51619e-18
9848.49403 8.54923e-18
9849.35549 8.58236e-18
9850.21695 8.63916e-18
9851.07841 8.69603e-18
9851.93987 8.76740e-18
9852.81135 8.83881e-18
9853.67282 8.91389e-18
9854.53428 8.98897e-18
9855.39574 9.06091e-18
9856.25720 9.13281e-18
9857.11866 9.19653e-18
9857.98013 9.26022e-18
9858.84159 9.30209e-18
9859.70305 9.34389e-18
9860.56451 9.34830e-18
9861.42597 9.35261e-18
9862.29745 9.31746e-18
9863.15891 9.28219e-18
9864.02038 9.21416e-18
9864.88184 9.14604e-18
9865.74330 9.05755e-18
9866.60476 8.96899e-18
9867.46622 8.87780e-18
9868.32769 8.78661e-18
9869.18915 8.70288e-18
9870.05061 8.61919e-18
9870.92209 8.54176e-18
9871.78355 8.46436e-18
9872.64501 8.39455e-18
9873.50648 8.32477e-18
9874.36794 8.26858e-18
9875.22940 8.21242e-18
9876.09086 8.17456e-18
9876.95232 8.13676e-18
9877.81379 8.12159e-18
9878.67525 8.10650e-18
9879.53671 8.11601e-18
9880.39817 8.12559e-18
9881.26965 8.15676e-18
9882.13111 8.18799e-18
9882.99257 8.23522e-18
9883.85404 8.28249e-18
9884.71550 8.33556e-18
9885.57696 8.38864e-18
9886.43842 8.43650e-18
9887.29988 8.48435e-18
9888.16135 8.51664e-18
9889.02281 8.54889e-18
9889.88427 8.55695e-18
9890.74573 8.56493e-18
9891.61721 8.54853e-18
9892.47867 8.53207e-18
9893.34014 8.49560e-18
9894.20160 8.45907e-18
9895.06306 8.40722e-18
9895.92452 8.35531e-18
9896.78598 8.29301e-18
9897.64745 8.23069e-18
9898.50891 8.16605e-18
9899.37037 8.10139e-18
9900.23183 8.04511e-18
9901.09329 7.98885e-18
9901.96477 7.94269e-18
9902.82623 7.89656e-18
9903.68770 7.85143e-18
9904.54916 7.80632e-18
9905.41062 7.76432e-18
9906.27208 7.72233e-18
9907.13354 7.70326e-18
9907.99501 7.68425e-18
9908.85647 7.69751e-18
9909.71793 7.71087e-18
9910.57939 7.74746e-18
9911.45087 7.78411e-18
9912.31233 7.82930e-18
9913.17380 7.87451e-18
9914.03526 7.89723e-18
9914.89672 7.91988e-18
9915.75818 7.89544e-18
9916.61964 7.87086e-18
9917.48111 7.80790e-18
9918.34257 7.74481e-18
9919.20403 7.65841e-18
9920.07551 7.57194e-18
9920.93697 7.47923e-18
9921.79843 7.38652e-18
9922.65989 7.30495e-18
9923.52136 7.22343e-18
9924.38282 7.16066e-18
9925.24428 7.09795e-18
9926.10574 7.05695e-18
9926.96720 7.01603e-18
9927.82867 6.98547e-18
9928.69013 6.95494e-18
9929.56161 6.91677e-18
9930.42307 6.87857e-18
9931.28453 6.82690e-18
9932.14599 6.77520e-18
9933.00746 6.71262e-18
9933.86892 6.65000e-18
9934.73038 6.58181e-18
9935.59184 6.51360e-18
9936.45330 6.44748e-18
9937.31477 6.38135e-18
9938.17623 6.32743e-18
9939.03769 6.27354e-18
9939.90917 6.24455e-18
9940.77063 6.21564e-18
9941.63209 6.21509e-18
9942.49355 6.21463e-18
9943.35502 6.22932e-18
9944.21648 6.24405e-18
9945.07794 6.26261e-18
9945.93940 6.28118e-18
9946.80086 6.30072e-18
9947.66233 6.32028e-18
9948.52379 6.33750e-18
9949.39527 6.35472e-18
9950.25673 6.36331e-18
9951.11819 6.37188e-18
9951.97965 6.36777e-18
9952.84112 6.36362e-18
9953.70258 6.35498e-18
9954.56404 6.34633e-18
9955.42550 6.34213e-18
9956.28696 6.33795e-18
9957.14843 6.33221e-18
9958.00989 6.32646e-18
9958.88137 6.31088e-18
9959.74283 6.29524e-18
9960.60429 6.26558e-18
9961.46575 6.23587e-18
9962.32721 6.18939e-18
9963.18868 6.14286e-18
9964.05014 6.09348e-18
9964.91160 6.04410e-18
9965.77306 6.01506e-18
9966.63452 5.98608e-18
9967.49599 5.98283e-18
9968.36747 5.97966e-18
9969.22893 5.99324e-18
9970.09039 6.00687e-18
9970.95185 6.03588e-18
9971.81331 6.06494e-18
9972.67477 6.11605e-18
9973.53624 6.16723e-18
9974.39770 6.23767e-18
9975.25916 6.30815e-18
9976.12062 6.38283e-18
9976.98208 6.45751e-18
9977.85356 6.52444e-18
9978.71503 6.59134e-18
9979.57649 6.64477e-18
9980.43795 6.69817e-18
9981.29941 6.73610e-18
9982.16087 6.77398e-18
9983.02234 6.80447e-18
9983.88380 6.83494e-18
9984.74526 6.86612e-18
9985.60672 6.89731e-18
9986.46818 6.93324e-18
9987.32965 6.96917e-18
9988.20112 7.01193e-18
9989.06259 7.05471e-18
9989.92405 7.08924e-18
9990.78551 7.12375e-18
9991.64697 7.13298e-18
9992.50843 7.14212e-18
9993.36990 7.13886e-18
9994.23136 7.13556e-18
9995.09282 7.14171e-18
9995.95428 7.14790e-18
9996.81574 7.15974e-18
9997.67721 7.17161e-18
9998.54869 7.17519e-18
9999.41015 7.17872e-18
