# wavelength flux
3249.99617 4.93169e-18
3252.90164 5.26612e-18
3255.80712 5.60049e-18
3258.71259 5.69738e-18
3261.61806 5.59969e-18
3264.52354 5.29439e-18
3267.42901 4.49674e-18
3270.33449 4.59789e-18
3273.23996 5.10519e-18
3276.13527 5.21112e-18
3279.04075 5.14294e-18
3281.94622 4.97981e-18
3284.85170 4.92628e-18
3287.75717 5.14265e-18
3290.66264 5.60829e-18
3293.56812 6.03943e-18
3296.47359 6.20771e-18
3299.37907 5.92034e-18
3302.28454 5.49060e-18
3305.17985 5.26315e-18
3308.08533 5.15744e-18
3310.99080 5.13986e-18
3313.89628 5.03838e-18
3316.80175 5.56924e-18
3319.70723 7.09236e-18
3322.61270 8.49056e-18
3325.51817 8.73904e-18
3328.42365 8.16842e-18
3331.32912 7.28807e-18
3334.22444 7.24217e-18
3337.12991 7.40903e-18
3340.03538 7.30172e-18
3342.94086 6.88832e-18
3345.84633 6.62521e-18
3348.75181 6.92488e-18
3351.65728 7.39042e-18
3354.56275 7.28966e-18
3357.46823 6.54315e-18
3360.37370 5.69704e-18
3363.27918 5.40655e-18
3366.17449 5.85789e-18
3369.07996 6.52801e-18
3371.98544 6.55920e-18
3374.89091 5.78732e-18
3377.79639 5.22282e-18
3380.70186 5.14212e-18
3383.60734 5.61634e-18
3386.51281 6.34791e-18
3389.41828 6.96874e-18
3392.32376 7.26123e-18
3395.21907 7.28522e-18
3398.12455 7.07395e-18
3401.03002 6.73322e-18
3403.93549 6.72909e-18
3406.84097 7.18568e-18
3409.74644 7.29034e-18
3412.65192 6.87115e-18
3415.55739 6.58654e-18
3418.46286 6.67829e-18
3421.36834 6.85737e-18
3424.26365 7.01145e-18
3427.16913 7.46852e-18
3430.07460 7.82040e-18
3432.98007 7.72285e-18
3435.88555 7.57468e-18
3438.79102 7.67116e-18
3441.69650 7.87677e-18
3444.60197 8.01036e-18
3447.50745 8.13218e-18
3450.41292 8.01426e-18
3453.30823 7.26885e-18
3456.21371 6.56552e-18
3459.11918 7.01576e-18
3462.02466 8.10541e-18
3464.93013 8.59966e-18
3467.83560 8.53853e-18
3470.74108 8.48879e-18
3473.64655 8.50409e-18
3476.55203 8.31582e-18
3479.45750 7.88695e-18
3482.35282 7.56070e-18
3485.25829 7.49348e-18
3488.16376 7.48570e-18
3491.06924 7.67248e-18
3493.97471 8.05094e-18
3496.88018 8.29982e-18
3499.78566 8.46083e-18
3502.69113 8.66574e-18
3505.59661 8.79292e-18
3508.50208 8.92522e-18
3511.39740 9.06679e-18
3514.30287 9.10434e-18
3517.20834 9.29835e-18
3520.11382 9.57586e-18
3523.01929 9.17920e-18
3525.92477 8.59484e-18
3528.83024 9.11041e-18
3531.73571 9.99321e-18
3534.64119 9.95772e-18
3537.54666 9.40818e-18
3540.44198 9.05484e-18
3543.34745 8.97989e-18
3546.25293 9.51018e-18
3549.15840 1.05412e-17
3552.06387 1.09421e-17
3554.96935 1.03442e-17
3557.87482 9.57387e-18
3560.78030 9.26416e-18
3563.68577 9.33238e-18
3566.59124 9.40814e-18
3569.48656 9.62434e-18
3572.39203 1.00971e-17
3575.29751 1.00739e-17
3578.20298 9.60476e-18
3581.10845 9.72614e-18
3584.01393 1.02456e-17
3586.91940 1.02805e-17
3589.82488 1.01220e-17
3592.73035 1.00981e-17
3595.63582 9.85066e-18
3598.53114 9.73713e-18
3601.43661 1.01755e-17
3604.34209 1.04561e-17
3607.24756 1.03277e-17
3610.15304 1.03396e-17
3613.05851 1.04148e-17
3615.96398 1.03215e-17
3618.86946 1.02739e-17
3621.77493 1.03495e-17
3624.68041 1.02578e-17
3627.57572 9.93326e-18
3630.48119 9.75413e-18
3633.38667 9.84952e-18
3636.29214 9.98739e-18
3639.19762 1.00483e-17
3642.10309 1.02497e-17
3645.00856 1.05333e-17
3647.91404 1.05031e-17
3650.81951 1.03871e-17
3653.72499 1.03327e-17
3656.62030 1.02162e-17
3659.52578 1.02696e-17
3662.43125 1.05276e-17
3665.33672 1.07893e-17
3668.24220 1.09270e-17
3671.14767 1.07868e-17
3674.05315 1.06073e-17
3676.95862 1.09751e-17
3679.86409 1.15562e-17
3682.76957 1.14629e-17
3685.66488 1.11178e-17
3688.57036 1.13195e-17
3691.47583 1.18267e-17
3694.38130 1.24021e-17
3697.28678 1.26897e-17
3700.19225 1.25509e-17
3703.09773 1.24896e-17
3706.00320 1.24146e-17
3708.90867 1.21929e-17
3711.81415 1.21537e-17
3714.70946 1.23215e-17
3717.61494 1.24068e-17
3720.52041 1.24659e-17
3723.42589 1.27121e-17
3726.33136 1.30221e-17
3729.23683 1.33099e-17
3732.14231 1.32146e-17
3735.04778 1.26420e-17
3737.95325 1.22700e-17
3740.85873 1.21996e-17
3743.75404 1.19343e-17
3746.65952 1.17581e-17
3749.56499 1.20125e-17
3752.47047 1.21031e-17
3755.37594 1.19727e-17
3758.28141 1.18146e-17
3761.18689 1.13693e-17
3764.09236 1.08775e-17
3766.99784 1.08455e-17
3769.90331 1.07989e-17
3772.79862 1.07523e-17
3775.70410 1.07057e-17
3778.60957 1.06592e-17
3781.51505 1.06126e-17
3784.42052 1.05660e-17
3787.32600 1.05195e-17
3790.23147 1.04729e-17
3793.13694 1.04264e-17
3796.04242 1.03799e-17
3798.94789 1.03334e-17
3801.84321 1.02868e-17
3804.74868 1.02403e-17
3807.65415 1.01938e-17
3810.55963 9.89389e-18
3813.46510 9.79511e-18
3816.37058 9.80363e-18
3819.27605 9.92169e-18
3822.18152 9.94050e-18
3825.08700 9.90114e-18
3827.99247 9.92799e-18
3830.89795 9.70485e-18
3833.79326 9.47582e-18
3836.69874 9.63768e-18
3839.60421 9.91346e-18
3842.50968 1.02267e-17
3845.41516 1.05135e-17
3848.32063 1.04596e-17
3851.22610 1.03660e-17
3854.13158 1.05083e-17
3857.03705 1.06927e-17
3859.93237 1.08318e-17
3862.83784 1.09564e-17
3865.74332 1.11861e-17
3868.64879 1.14625e-17
3871.55426 1.13444e-17
3874.45974 1.11922e-17
3877.36521 1.14969e-17
3880.27069 1.18906e-17
3883.17616 1.19361e-17
3886.08163 1.18628e-17
3888.97695 1.20214e-17
3891.88242 1.21915e-17
3894.78790 1.24038e-17
3897.69337 1.27441e-17
3900.59885 1.29118e-17
3903.50432 1.30366e-17
3906.40979 1.33200e-17
3909.31527 1.36142e-17
3912.22074 1.39013e-17
3915.12622 1.39755e-17
3918.03169 1.39464e-17
3920.92700 1.41519e-17
3923.83248 1.43706e-17
3926.73795 1.45311e-17
3929.64343 1.50474e-17
3932.54890 1.56718e-17
3935.45437 1.55619e-17
3938.35985 1.48801e-17
3941.26532 1.45071e-17
3944.17080 1.44817e-17
3947.07627 1.42747e-17
3949.97159 1.39131e-17
3952.87706 1.38159e-17
3955.78253 1.38709e-17
3958.68801 1.39562e-17
3961.59348 1.42172e-17
3964.49896 1.42727e-17
3967.40443 1.41519e-17
3970.30990 1.43403e-17
3973.21538 1.44827e-17
3976.12085 1.43545e-17
3979.01617 1.44156e-17
3981.92164 1.45810e-17
3984.82711 1.45295e-17
3987.73259 1.43543e-17
3990.63806 1.40963e-17
3993.54354 1.38407e-17
3996.44901 1.36540e-17
3999.35448 1.35865e-17
4002.25996 1.36775e-17
4005.16543 1.39662e-17
4008.06075 1.43900e-17
4010.96622 1.45299e-17
4013.87170 1.45059e-17
4016.77717 1.45266e-17
4019.68264 1.43717e-17
4022.58812 1.40847e-17
4025.49359 1.39013e-17
4028.39907 1.37976e-17
4031.30454 1.36336e-17
4034.21001 1.34596e-17
4037.10533 1.35136e-17
4040.01080 1.37602e-17
4042.91628 1.38981e-17
4045.82175 1.39022e-17
4048.72722 1.38844e-17
4051.63270 1.39362e-17
4054.53817 1.39575e-17
4057.44365 1.38921e-17
4060.34912 1.38947e-17
4063.25459 1.40158e-17
4066.14991 1.41135e-17
4069.05538 1.40766e-17
4071.96086 1.40571e-17
4074.86633 1.41151e-17
4077.77180 1.40503e-17
4080.67728 1.40694e-17
4083.58275 1.43224e-17
4086.48823 1.44796e-17
4089.39370 1.44358e-17
4092.29918 1.42886e-17
4095.19449 1.41648e-17
4098.09996 1.43059e-17
4101.00544 1.46740e-17
4103.91091 1.49287e-17
4106.81639 1.49585e-17
4109.72186 1.49716e-17
4112.62733 1.50409e-17
4115.53281 1.51496e-17
4118.43828 1.52209e-17
4121.34376 1.51095e-17
4124.23907 1.49048e-17
4127.14455 1.48205e-17
4130.05002 1.48318e-17
4132.95549 1.47506e-17
4135.86097 1.46913e-17
4138.76644 1.47914e-17
4141.67191 1.47604e-17
4144.57739 1.45056e-17
4147.48286 1.43325e-17
4150.38834 1.42333e-17
4153.28365 1.41175e-17
4156.18913 1.40322e-17
4159.09460 1.39044e-17
4162.00007 1.37078e-17
4164.90555 1.35839e-17
4167.81102 1.35071e-17
4170.71650 1.33520e-17
4173.62197 1.32903e-17
4176.52744 1.34242e-17
4179.43292 1.36113e-17
4182.32823 1.37977e-17
4185.23371 1.39907e-17
4188.13918 1.41336e-17
4191.04465 1.42570e-17
4193.95013 1.43650e-17
4196.85560 1.43467e-17
4199.76108 1.42933e-17
4202.66655 1.43508e-17
4205.57203 1.42659e-17
4208.47750 1.39074e-17
4211.37281 1.36788e-17
4214.27829 1.37569e-17
4217.18376 1.37880e-17
4220.08924 1.35842e-17
4222.99471 1.34156e-17
4225.90018 1.33995e-17
4228.80566 1.34922e-17
4231.71113 1.36327e-17
4234.61661 1.36641e-17
4237.52208 1.36382e-17
4240.41740 1.37497e-17
4243.32287 1.38849e-17
4246.22834 1.38802e-17
4249.13382 1.38207e-17
4252.03929 1.37889e-17
4254.94477 1.37592e-17
4257.85024 1.37030e-17
4260.75571 1.35916e-17
4263.66119 1.34875e-17
4266.56666 1.34420e-17
4269.47213 1.34269e-17
4272.36745 1.34050e-17
4275.27292 1.33604e-17
4278.17840 1.32842e-17
4281.08387 1.31131e-17
4283.98935 1.29301e-17
4286.89482 1.29094e-17
4289.80029 1.29231e-17
4292.70577 1.27865e-17
4295.61124 1.26065e-17
4298.50656 1.24866e-17
4301.41203 1.23813e-17
4304.31750 1.23147e-17
4307.22298 1.22691e-17
4310.12845 1.21342e-17
4313.03393 1.20018e-17
4315.93940 1.19028e-17
4318.84487 1.17087e-17
4321.75035 1.15682e-17
4324.65582 1.15713e-17
4327.56130 1.14873e-17
4330.45661 1.12727e-17
4333.36209 1.11777e-17
4336.26756 1.11440e-17
4339.17303 1.09686e-17
4342.07851 1.08136e-17
4344.98398 1.07316e-17
4347.88946 1.06674e-17
4350.79493 1.07496e-17
4353.70040 1.07700e-17
4356.60588 1.06783e-17
4359.50119 1.06512e-17
4362.40667 1.06755e-17
4365.31214 1.07481e-17
4368.21762 1.08780e-17
4371.12309 1.09636e-17
4374.02856 1.09468e-17
4376.93404 1.09280e-17
4379.83951 1.09247e-17
4382.74498 1.09662e-17
4385.64030 1.10473e-17
4388.54577 1.10446e-17
4391.45125 1.11262e-17
4394.35672 1.13116e-17
4397.26220 1.13935e-17
4400.16767 1.14808e-17
4403.07314 1.16817e-17
4405.97862 1.19343e-17
4408.88409 1.20785e-17
4411.78957 1.20627e-17
4414.69504 1.21239e-17
4417.59036 1.21852e-17
4420.49583 1.22464e-17
4423.40130 1.23077e-17
4426.30678 1.23689e-17
4429.21225 1.24301e-17
4432.11773 1.24914e-17
4435.02320 1.25526e-17
4437.92867 1.26138e-17
4440.83415 1.26750e-17
4443.73962 1.27362e-17
4446.63494 1.27974e-17
4449.54041 1.28585e-17
4452.44588 1.29197e-17
4455.35136 1.30357e-17
4458.25683 1.29470e-17
4461.16231 1.27828e-17
4464.06778 1.27475e-17
4466.97325 1.29208e-17
4469.87873 1.31992e-17
4472.78420 1.34842e-17
4475.67952 1.36932e-17
4478.58499 1.38729e-17
4481.49047 1.40603e-17
4484.39594 1.42181e-17
4487.30141 1.43364e-17
4490.20689 1.43490e-17
4493.11236 1.43238e-17
4496.01783 1.44235e-17
4498.92331 1.46496e-17
4501.82878 1.49104e-17
4504.72410 1.51363e-17
4507.62957 1.53038e-17
4510.53505 1.54408e-17
4513.44052 1.57024e-17
4516.34599 1.60634e-17
4519.25147 1.62042e-17
4522.15694 1.61714e-17
4525.06242 1.63144e-17
4527.96789 1.66080e-17
4530.87336 1.68440e-17
4533.76868 1.70064e-17
4536.67415 1.71515e-17
4539.57963 1.73061e-17
4542.48510 1.74755e-17
4545.39058 1.76018e-17
4548.29605 1.77133e-17
4551.20152 1.79013e-17
4554.10700 1.81359e-17
4557.01247 1.83150e-17
4559.91795 1.84371e-17
4562.81326 1.84976e-17
4565.71873 1.85803e-17
4568.62421 1.86796e-17
4571.52968 1.86319e-17
4574.43516 1.85730e-17
4577.34063 1.85612e-17
4580.24610 1.84206e-17
4583.15158 1.82952e-17
4586.05705 1.83671e-17
4588.96253 1.84637e-17
4591.85784 1.83266e-17
4594.76332 1.81222e-17
4597.66879 1.80387e-17
4600.57426 1.79740e-17
4603.47974 1.79311e-17
4606.38521 1.78820e-17
4609.29068 1.77079e-17
4612.19616 1.74709e-17
4615.10163 1.73059e-17
4618.00711 1.72552e-17
4620.90242 1.72612e-17
4623.80790 1.72502e-17
4626.71337 1.72444e-17
4629.61884 1.72737e-17
4632.52432 1.72937e-17
4635.42979 1.73031e-17
4638.33527 1.73131e-17
4641.24074 1.72782e-17
4644.14621 1.71371e-17
4647.05169 1.69478e-17
4649.94700 1.68881e-17
4652.85248 1.68866e-17
4655.75795 1.68496e-17
4658.66342 1.67643e-17
4661.56890 1.65781e-17
4664.47437 1.64801e-17
4667.37985 1.65365e-17
4670.28532 1.64866e-17
4673.19080 1.61924e-17
4676.09627 1.58274e-17
4678.99158 1.56308e-17
4681.89706 1.56154e-17
4684.80253 1.54275e-17
4687.70801 1.51065e-17
4690.61348 1.50575e-17
4693.51895 1.50710e-17
4696.42443 1.48667e-17
4699.32990 1.45187e-17
4702.23538 1.41758e-17
4705.14085 1.40565e-17
4708.03617 1.41379e-17
4710.94164 1.41302e-17
4713.84711 1.40650e-17
4716.75259 1.41364e-17
4719.65806 1.41545e-17
4722.56353 1.40944e-17
4725.46901 1.41634e-17
4728.37448 1.42523e-17
4731.27996 1.42858e-17
4734.18543 1.43223e-17
4737.08075 1.42690e-17
4739.98622 1.40980e-17
4742.89169 1.40133e-17
4745.79717 1.41008e-17
4748.70264 1.41454e-17
4751.60812 1.40134e-17
4754.51359 1.38792e-17
4757.41906 1.39217e-17
4760.32454 1.39032e-17
4763.23001 1.36856e-17
4766.12533 1.35088e-17
4769.03080 1.34254e-17
4771.93628 1.33577e-17
4774.84175 1.32950e-17
4777.74722 1.31819e-17
4780.65270 1.30235e-17
4783.55817 1.28737e-17
4786.46365 1.27420e-17
4789.36912 1.26983e-17
4792.27459 1.27634e-17
4795.16991 1.27610e-17
4798.07538 1.26847e-17
4800.98086 1.26858e-17
4803.88633 1.26521e-17
4806.79180 1.25625e-17
4809.69728 1.26038e-17
4812.60275 1.27180e-17
4815.50823 1.28119e-17
4818.41370 1.29147e-17
4821.31917 1.29611e-17
4824.21449 1.29543e-17
4827.11996 1.29906e-17
4830.02544 1.30397e-17
4832.93091 1.30140e-17
4835.83638 1.29004e-17
4838.74186 1.27777e-17
4841.64733 1.27971e-17
4844.55281 1.30152e-17
4847.45828 1.31959e-17
4850.36376 1.31507e-17
4853.26923 1.30996e-17
4856.16454 1.30890e-17
4859.07002 1.30524e-17
4861.97549 1.31020e-17
4864.88097 1.30841e-17
4867.78644 1.30615e-17
4870.69191 1.32146e-17
4873.59739 1.33069e-17
4876.50286 1.32404e-17
4879.40834 1.31991e-17
4882.31381 1.31629e-17
4885.20913 1.30409e-17
4888.11460 1.29284e-17
4891.02007 1.28220e-17
4893.92555 1.26939e-17
4896.83102 1.26718e-17
4899.73650 1.27605e-17
4902.64197 1.27548e-17
4905.54744 1.26569e-17
4908.45292 1.25727e-17
4911.35839 1.25273e-17
4914.25371 1.25508e-17
4917.15918 1.25444e-17
4920.06465 1.24563e-17
4922.97013 1.24712e-17
4925.87560 1.24861e-17
4928.78108 1.25009e-17
4931.68655 1.25158e-17
4934.59202 1.25307e-17
4937.49750 1.25455e-17
4940.40297 1.25604e-17
4943.29829 1.25753e-17
4946.20376 1.25901e-17
4949.10923 1.26050e-17
4952.01471 1.26198e-17
4954.92018 1.26347e-17
4957.82566 1.26496e-17
4960.73113 1.26442e-17
4963.63660 1.26427e-17
4966.54208 1.27427e-17
4969.44755 1.28295e-17
4972.34287 1.27133e-17
4975.24834 1.23641e-17
4978.15382 1.21682e-17
4981.05929 1.23669e-17
4983.96476 1.25899e-17
4986.87024 1.27198e-17
4989.77571 1.28426e-17
4992.68119 1.28839e-17
4995.58666 1.28946e-17
4998.49213 1.29671e-17
5001.38745 1.29763e-17
5004.29292 1.28718e-17
5007.19840 1.28143e-17
5010.10387 1.27895e-17
5013.00935 1.27584e-17
5015.91482 1.26229e-17
5018.82029 1.25011e-17
5021.72577 1.25730e-17
5024.63124 1.26448e-17
5027.53672 1.27167e-17
5030.43203 1.27885e-17
5033.33750 1.28604e-17
5036.24298 1.29322e-17
5039.14845 1.30040e-17
5042.05393 1.30758e-17
5044.95940 1.31476e-17
5047.86487 1.32195e-17
5050.77035 1.32912e-17
5053.67582 1.33630e-17
5056.58130 1.34348e-17
5059.47661 1.34811e-17
5062.38209 1.35004e-17
5065.28756 1.35386e-17
5068.19303 1.36537e-17
5071.09851 1.37688e-17
5074.00398 1.38839e-17
5076.90945 1.39990e-17
5079.81493 1.41141e-17
5082.72040 1.42291e-17
5085.62588 1.43442e-17
5088.53135 1.44592e-17
5091.42667 1.45742e-17
5094.33214 1.46892e-17
5097.23761 1.48043e-17
5100.14309 1.49192e-17
5103.04856 1.50342e-17
5105.95404 1.51492e-17
5108.85951 1.52915e-17
5111.76498 1.54085e-17
5114.67046 1.55125e-17
5117.57593 1.55807e-17
5120.47125 1.56750e-17
5123.37672 1.58517e-17
5126.28220 1.58911e-17
5129.18767 1.57502e-17
5132.09314 1.57813e-17
5134.99862 1.60117e-17
5137.90409 1.61405e-17
5140.80957 1.61860e-17
5143.71504 1.63145e-17
5146.61035 1.64956e-17
5149.51583 1.65994e-17
5152.42130 1.66263e-17
5155.32678 1.66650e-17
5158.23225 1.66195e-17
5161.13772 1.65634e-17
5164.04320 1.66724e-17
5166.94867 1.68041e-17
5169.85415 1.67951e-17
5172.75962 1.68160e-17
5175.66509 1.68920e-17
5178.56041 1.68258e-17
5181.46588 1.66643e-17
5184.37136 1.66390e-17
5187.27683 1.66688e-17
5190.18231 1.64954e-17
5193.08778 1.63081e-17
5195.99325 1.63445e-17
5198.89873 1.64898e-17
5201.80420 1.66226e-17
5204.70968 1.67501e-17
5207.60499 1.68573e-17
5210.51046 1.69299e-17
5213.41594 1.68484e-17
5216.32141 1.66978e-17
5219.22689 1.67518e-17
5222.13236 1.68668e-17
5225.03783 1.68923e-17
5227.94331 1.69008e-17
5230.84878 1.69102e-17
5233.75426 1.69366e-17
5236.64957 1.69409e-17
5239.55505 1.69198e-17
5242.46052 1.69162e-17
5245.36599 1.68028e-17
5248.27147 1.66014e-17
5251.17694 1.66302e-17
5254.08242 1.69547e-17
5256.98789 1.72789e-17
5259.89336 1.74355e-17
5262.79884 1.74087e-17
5265.69415 1.71648e-17
5268.59963 1.68591e-17
5271.50510 1.67876e-17
5274.41057 1.69261e-17
5277.31605 1.69158e-17
5280.22152 1.67626e-17
5283.12700 1.67377e-17
5286.03247 1.66973e-17
5288.93794 1.65438e-17
5291.84342 1.65505e-17
5294.73873 1.66963e-17
5297.64421 1.66841e-17
5300.54968 1.65307e-17
5303.45515 1.64061e-17
5306.36063 1.62991e-17
5309.26610 1.62422e-17
5312.17158 1.63114e-17
5315.07705 1.63292e-17
5317.98253 1.61845e-17
5320.88800 1.60351e-17
5323.78331 1.59882e-17
5326.68879 1.60574e-17
5329.59426 1.61145e-17
5332.49974 1.60842e-17
5335.40521 1.61173e-17
5338.31068 1.61568e-17
5341.21616 1.60790e-17
5344.12163 1.60059e-17
5347.02711 1.59374e-17
5349.93258 1.58981e-17
5352.82790 1.59475e-17
5355.73337 1.59388e-17
5358.63884 1.57479e-17
5361.54432 1.57597e-17
5364.44979 1.60031e-17
5367.35527 1.60629e-17
5370.26074 1.61296e-17
5373.16621 1.62166e-17
5376.07169 1.62179e-17
5378.97716 1.61638e-17
5381.87248 1.60666e-17
5384.77795 1.60064e-17
5387.68342 1.60655e-17
5390.58890 1.61751e-17
5393.49437 1.61865e-17
5396.39985 1.61191e-17
5399.30532 1.61834e-17
5402.21079 1.63846e-17
5405.11627 1.64047e-17
5408.02174 1.61738e-17
5410.91706 1.60077e-17
5413.82253 1.60188e-17
5416.72800 1.59774e-17
5419.63348 1.58484e-17
5422.53895 1.58239e-17
5425.44443 1.59332e-17
5428.34990 1.60231e-17
5431.25537 1.59352e-17
5434.16085 1.57498e-17
5437.06632 1.55827e-17
5439.96164 1.55117e-17
5442.86711 1.56350e-17
5445.77259 1.58129e-17
5448.67806 1.58122e-17
5451.58353 1.56675e-17
5454.48901 1.55325e-17
5457.39448 1.54754e-17
5460.29996 1.55090e-17
5463.20543 1.55098e-17
5466.11090 1.54058e-17
5469.01638 1.53146e-17
5471.91169 1.52698e-17
5474.81717 1.52024e-17
5477.72264 1.51665e-17
5480.62812 1.52328e-17
5483.53359 1.52603e-17
5486.43906 1.51679e-17
5489.34454 1.50623e-17
5492.25001 1.50059e-17
5495.15548 1.49478e-17
5498.05080 1.48744e-17
5500.95627 1.47405e-17
5503.86175 1.45916e-17
5506.76722 1.45822e-17
5509.67270 1.46346e-17
5512.57817 1.45672e-17
5515.48364 1.44196e-17
5518.38912 1.43983e-17
5521.29459 1.44584e-17
5524.20007 1.44793e-17
5527.10554 1.45128e-17
5530.00086 1.45325e-17
5532.90633 1.45256e-17
5535.81180 1.44934e-17
5538.71728 1.44028e-17
5541.62275 1.44685e-17
5544.52823 1.47310e-17
5547.43370 1.49119e-17
5550.33917 1.49799e-17
5553.24465 1.49597e-17
5556.15012 1.48402e-17
5559.04544 1.48531e-17
5561.95091 1.48999e-17
5564.85638 1.46087e-17
5567.76186 1.43801e-17
5570.66733 1.45877e-17
5573.57281 1.48617e-17
5576.47828 1.49439e-17
5579.38375 1.49283e-17
5582.28923 1.49723e-17
5585.18454 1.51140e-17
5588.09002 1.52179e-17
5590.99549 1.51730e-17
5593.90097 1.50381e-17
5596.80644 1.49595e-17
5599.71191 1.50221e-17
5602.61739 1.50189e-17
5605.52286 1.48002e-17
5608.42833 1.45829e-17
5611.33381 1.44749e-17
5614.23928 1.44425e-17
5617.13460 1.44685e-17
5620.04007 1.44668e-17
5622.94555 1.43946e-17
5625.85102 1.43318e-17
5628.75649 1.43789e-17
5631.66197 1.44593e-17
5634.56744 1.44931e-17
5637.47292 1.44717e-17
5640.37839 1.43363e-17
5643.28386 1.42113e-17
5646.17918 1.42754e-17
5649.08465 1.43773e-17
5651.99013 1.43965e-17
5654.89560 1.43297e-17
5657.80108 1.41426e-17
5660.70655 1.39568e-17
5663.61202 1.38651e-17
5666.51750 1.39541e-17
5669.42297 1.41389e-17
5672.32845 1.41018e-17
5675.22376 1.38523e-17
5678.12923 1.37734e-17
5681.03471 1.39110e-17
5683.94018 1.39716e-17
5686.84566 1.38776e-17
5689.75113 1.37674e-17
5692.65660 1.37859e-17
5695.56208 1.38256e-17
5698.46755 1.37558e-17
5701.37303 1.36954e-17
5704.26834 1.36782e-17
5707.17382 1.37380e-17
5710.07929 1.39152e-17
5712.98476 1.40620e-17
5715.89024 1.39576e-17
5718.79571 1.37320e-17
5721.70118 1.37703e-17
5724.60666 1.38635e-17
5727.51213 1.38190e-17
5730.41761 1.38031e-17
5733.31292 1.38901e-17
5736.21840 1.39595e-17
5739.12387 1.38789e-17
5742.02934 1.38438e-17
5744.93482 1.39871e-17
5747.84029 1.41053e-17
5750.74577 1.40746e-17
5753.65124 1.40406e-17
5756.55671 1.41238e-17
5759.46219 1.42464e-17
5762.35750 1.43264e-17
5765.26298 1.42776e-17
5768.16845 1.41934e-17
5771.07392 1.42388e-17
5773.97940 1.42529e-17
5776.88487 1.42045e-17
5779.79035 1.42559e-17
5782.69582 1.43642e-17
5785.60130 1.44133e-17
5788.50677 1.43880e-17
5791.40208 1.43540e-17
5794.30756 1.43422e-17
5797.21303 1.43291e-17
5800.11851 1.42838e-17
5803.02398 1.43116e-17
5805.92945 1.44746e-17
5808.83493 1.46280e-17
5811.74040 1.46372e-17
5814.64588 1.45065e-17
5817.55135 1.43833e-17
5820.44667 1.43852e-17
5823.35214 1.44449e-17
5826.25761 1.45294e-17
5829.16309 1.45867e-17
5832.06856 1.45333e-17
5834.97404 1.44092e-17
5837.87951 1.43163e-17
5840.78498 1.43041e-17
5843.69046 1.43530e-17
5846.59593 1.43870e-17
5849.49125 1.44008e-17
5852.39672 1.44250e-17
5855.30219 1.44197e-17
5858.20767 1.43162e-17
5861.11314 1.41005e-17
5864.01862 1.40005e-17
5866.92409 1.40004e-17
5869.82956 1.39658e-17
5872.73504 1.38997e-17
5875.64051 1.37759e-17
5878.53583 1.36561e-17
5881.44130 1.34729e-17
5884.34677 1.32879e-17
5887.25225 1.32583e-17
5890.15772 1.33597e-17
5893.06320 1.36295e-17
5895.96867 1.38478e-17
5898.87415 1.38624e-17
5901.77962 1.38330e-17
5904.68509 1.38688e-17
5907.58041 1.38543e-17
5910.48588 1.37536e-17
5913.39136 1.36761e-17
5916.29683 1.36446e-17
5919.20230 1.36260e-17
5922.10778 1.36453e-17
5925.01325 1.36824e-17
5927.91873 1.36291e-17
5930.82420 1.34845e-17
5933.72967 1.33374e-17
5936.62499 1.33130e-17
5939.53046 1.34199e-17
5942.43594 1.34044e-17
5945.34141 1.32221e-17
5948.24688 1.30998e-17
5951.15236 1.30524e-17
5954.05783 1.30039e-17
5956.96331 1.30324e-17
5959.86878 1.31858e-17
5962.77426 1.33027e-17
5965.66957 1.32718e-17
5968.57504 1.32697e-17
5971.48052 1.33402e-17
5974.38599 1.31866e-17
5977.29147 1.27504e-17
5980.19694 1.22998e-17
5983.10241 1.19659e-17
5986.00789 1.18165e-17
5988.91336 1.18189e-17
5991.81884 1.18860e-17
5994.72431 1.21160e-17
5997.61963 1.24970e-17
6000.52510 1.28854e-17
6003.43057 1.31385e-17
6006.33605 1.32442e-17
6009.24152 1.32719e-17
6012.14700 1.33272e-17
6015.05247 1.32801e-17
6017.95794 1.31474e-17
6020.86342 1.32067e-17
6023.75873 1.33262e-17
6026.66421 1.32886e-17
6029.56968 1.31737e-17
6032.47515 1.31058e-17
6035.38063 1.30207e-17
6038.28610 1.28936e-17
6041.19158 1.27872e-17
6044.09705 1.28702e-17
6047.00252 1.30038e-17
6049.90800 1.29381e-17
6052.81347 1.27550e-17
6055.70879 1.26129e-17
6058.61426 1.25510e-17
6061.51973 1.24664e-17
6064.42521 1.23939e-17
6067.33068 1.24334e-17
6070.23616 1.24979e-17
6073.14163 1.25146e-17
6076.04710 1.24910e-17
6078.95258 1.24062e-17
6081.85805 1.23013e-17
6084.75337 1.22619e-17
6087.65884 1.22130e-17
6090.56432 1.20987e-17
6093.46979 1.20427e-17
6096.37526 1.20709e-17
6099.28074 1.20640e-17
6102.18621 1.19828e-17
6105.09169 1.18798e-17
6107.99716 1.18016e-17
6110.90263 1.17831e-17
6113.79795 1.17559e-17
6116.70342 1.16196e-17
6119.60890 1.14644e-17
6122.51437 1.14186e-17
6125.41985 1.14700e-17
6128.32532 1.14894e-17
6131.23079 1.13677e-17
6134.13627 1.11616e-17
6137.04174 1.10315e-17
6139.94722 1.10544e-17
6142.84253 1.10283e-17
6145.74800 1.08398e-17
6148.65348 1.07330e-17
6151.55895 1.07886e-17
6154.46443 1.07782e-17
6157.36990 1.06457e-17
6160.27537 1.06038e-17
6163.18085 1.06623e-17
6166.08632 1.06484e-17
6168.99180 1.06541e-17
6171.88711 1.06952e-17
6174.79259 1.06111e-17
6177.69806 1.04625e-17
6180.60353 1.04314e-17
6183.50901 1.04821e-17
6186.41448 1.05211e-17
6189.31995 1.05455e-17
6192.22543 1.05439e-17
6195.13090 1.05812e-17
6198.03638 1.06319e-17
6200.93169 1.05704e-17
6203.83717 1.05045e-17
6206.74264 1.05350e-17
6209.64811 1.05487e-17
6212.55359 1.04935e-17
6215.45906 1.04770e-17
6218.36454 1.05552e-17
6221.27001 1.06884e-17
6224.17548 1.08682e-17
6227.08096 1.10129e-17
6229.97627 1.10867e-17
6232.88175 1.10970e-17
6235.78722 1.10899e-17
6238.69270 1.11431e-17
6241.59817 1.12676e-17
6244.50364 1.13492e-17
6247.40912 1.13062e-17
6250.31459 1.12324e-17
6253.22007 1.12938e-17
6256.12554 1.14286e-17
6259.02085 1.13967e-17
6261.92633 1.13995e-17
6264.83180 1.16364e-17
6267.73728 1.17503e-17
6270.64275 1.16782e-17
6273.54822 1.16892e-17
6276.45370 1.17162e-17
6279.35917 1.16689e-17
6282.26465 1.16461e-17
6285.17012 1.16903e-17
6288.06543 1.17394e-17
6290.97091 1.17198e-17
6293.87638 1.17276e-17
6296.78186 1.18771e-17
6299.68733 1.20153e-17
6302.59281 1.20291e-17
6305.49828 1.21674e-17
6308.40375 1.24046e-17
6311.30923 1.25212e-17
6314.21470 1.24982e-17
6317.11002 1.24818e-17
6320.01549 1.25330e-17
6322.92096 1.25915e-17
6325.82644 1.25696e-17
6328.73191 1.24871e-17
6331.63739 1.24966e-17
6334.54286 1.25612e-17
6337.44833 1.25594e-17
6340.35381 1.25727e-17
6343.25928 1.26252e-17
6346.15460 1.25940e-17
6349.06007 1.25324e-17
6351.96555 1.24938e-17
6354.87102 1.24278e-17
6357.77649 1.22737e-17
6360.68197 1.21697e-17
6363.58744 1.21883e-17
6366.49292 1.22215e-17
6369.39839 1.22362e-17
6372.30386 1.21814e-17
6375.19918 1.20320e-17
6378.10465 1.18501e-17
6381.01013 1.16830e-17
6383.91560 1.15961e-17
6386.82107 1.15876e-17
6389.72655 1.16218e-17
6392.63202 1.17151e-17
6395.53750 1.18144e-17
6398.44297 1.18386e-17
6401.34844 1.18537e-17
6404.24376 1.19459e-17
6407.14923 1.20060e-17
6410.05471 1.19568e-17
6412.96018 1.18922e-17
6415.86565 1.18517e-17
6418.77113 1.18288e-17
6421.67660 1.18816e-17
6424.58208 1.19712e-17
6427.48755 1.20241e-17
6430.39303 1.20803e-17
6433.28834 1.21545e-17
6436.19381 1.22217e-17
6439.09929 1.22655e-17
6442.00476 1.22646e-17
6444.91024 1.22259e-17
6447.81571 1.21750e-17
6450.72118 1.22369e-17
6453.62666 1.23777e-17
6456.53213 1.23753e-17
6459.43761 1.22502e-17
6462.33292 1.21649e-17
6465.23840 1.21861e-17
6468.14387 1.23243e-17
6471.04934 1.24866e-17
6473.95482 1.25219e-17
6476.86029 1.25169e-17
6479.76577 1.25680e-17
6482.67124 1.25895e-17
6485.57671 1.25227e-17
6488.48219 1.24571e-17
6491.38766 1.24248e-17
6494.28298 1.24040e-17
6497.18845 1.24429e-17
6500.09392 1.24690e-17
6502.99940 1.24121e-17
6505.90487 1.24225e-17
6508.81035 1.24685e-17
6511.71582 1.24047e-17
6514.62129 1.23230e-17
6517.52677 1.23627e-17
6520.43224 1.24300e-17
6523.32756 1.24317e-17
6526.23303 1.24050e-17
6529.13850 1.23462e-17
6532.04398 1.22714e-17
6534.94945 1.22677e-17
6537.85493 1.23697e-17
6540.76040 1.24308e-17
6543.66588 1.23466e-17
6546.57135 1.22230e-17
6549.47682 1.21715e-17
6552.37214 1.21790e-17
6555.27761 1.21954e-17
6558.18309 1.22335e-17
6561.08856 1.22711e-17
6563.99403 1.22567e-17
6566.89951 1.22448e-17
6569.80498 1.22710e-17
6572.71046 1.22776e-17
6575.61593 1.22337e-17
6578.52140 1.21901e-17
6581.41672 1.22066e-17
6584.32219 1.22766e-17
6587.22767 1.23177e-17
6590.13314 1.22273e-17
6593.03862 1.20583e-17
6595.94409 1.19620e-17
6598.84956 1.19081e-17
6601.75504 1.19192e-17
6604.66051 1.20144e-17
6607.56599 1.20790e-17
6610.46130 1.20881e-17
6613.36677 1.20818e-17
6616.27225 1.20636e-17
6619.17772 1.19694e-17
6622.08320 1.18667e-17
6624.98867 1.18897e-17
6627.89414 1.19255e-17
6630.79962 1.18466e-17
6633.70509 1.17571e-17
6636.61057 1.17445e-17
6639.50588 1.17387e-17
6642.41136 1.17330e-17
6645.31683 1.17273e-17
6648.22230 1.17215e-17
6651.12778 1.17158e-17
6654.03325 1.17101e-17
6656.93872 1.17043e-17
6659.84420 1.16986e-17
6662.74967 1.16929e-17
6665.65515 1.16871e-17
6668.55046 1.16814e-17
6671.45594 1.16757e-17
6674.36141 1.16699e-17
6677.26688 1.16642e-17
6680.17236 1.16585e-17
6683.07783 1.16527e-17
6685.98331 1.16470e-17
6688.88878 1.16413e-17
6691.79425 1.16356e-17
6694.69973 1.16298e-17
6697.59504 1.16241e-17
6700.50052 1.16184e-17
6703.40599 1.16248e-17
6706.31147 1.16002e-17
6709.21694 1.15483e-17
6712.12241 1.14376e-17
6715.02789 1.13641e-17
6717.93336 1.13280e-17
6720.83883 1.12953e-17
6723.74431 1.13115e-17
6726.63962 1.13369e-17
6729.54510 1.13249e-17
6732.45057 1.13227e-17
6735.35605 1.12945e-17
6738.26152 1.12143e-17
6741.16699 1.11624e-17
6744.07247 1.11632e-17
6746.97794 1.11436e-17
6749.88342 1.10920e-17
6752.78889 1.10958e-17
6755.68420 1.11925e-17
6758.58968 1.12606e-17
6761.49515 1.12190e-17
6764.40063 1.10782e-17
6767.30610 1.09265e-17
6770.21158 1.08784e-17
6773.11705 1.08883e-17
6776.02252 1.08614e-17
6778.92800 1.08255e-17
6781.83347 1.08114e-17
6784.72879 1.07977e-17
6787.63426 1.07514e-17
6790.53973 1.07056e-17
6793.44521 1.07025e-17
6796.35068 1.07151e-17
6799.25616 1.06986e-17
6802.16163 1.06173e-17
6805.06710 1.04772e-17
6807.97258 1.04051e-17
6810.87805 1.04662e-17
6813.77337 1.05438e-17
6816.67884 1.05787e-17
6819.58432 1.05587e-17
6822.48979 1.05015e-17
6825.39526 1.04403e-17
6828.30074 1.04103e-17
6831.20621 1.04146e-17
6834.11168 1.04246e-17
6837.01716 1.04773e-17
6839.92263 1.05722e-17
6842.81795 1.06099e-17
6845.72342 1.05434e-17
6848.62890 1.04474e-17
6851.53437 1.03353e-17
6854.43984 1.02175e-17
6857.34532 1.01057e-17
6860.25079 1.00273e-17
6863.15627 1.00548e-17
6866.06174 1.02473e-17
6868.96721 1.03900e-17
6871.86253 1.02849e-17
6874.76800 1.00594e-17
6877.67348 9.90382e-18
6880.57895 9.87795e-18
6883.48443 9.94220e-18
6886.38990 9.97799e-18
6889.29537 9.95156e-18
6892.20085 9.95040e-18
6895.10632 1.00158e-17
6898.01180 1.01052e-17
6900.90711 1.01051e-17
6903.81258 1.00457e-17
6906.71806 9.99709e-18
6909.62353 9.92527e-18
6912.52901 9.88312e-18
6915.43448 9.93361e-18
6918.33995 1.00062e-17
6921.24543 1.00009e-17
6924.15090 9.94268e-18
6927.05638 9.94400e-18
6929.96185 1.00240e-17
6932.85717 1.00340e-17
6935.76264 9.91364e-18
6938.66811 9.81769e-18
6941.57359 9.82099e-18
6944.47906 9.87861e-18
6947.38454 9.93248e-18
6950.29001 9.92336e-18
6953.19548 9.90250e-18
6956.10096 9.86561e-18
6958.99627 9.79493e-18
6961.90175 9.76205e-18
6964.80722 9.77349e-18
6967.71269 9.80557e-18
6970.61817 9.85419e-18
6973.52364 9.87759e-18
6976.42912 9.83218e-18
6979.33459 9.75429e-18
6982.24006 9.71909e-18
6985.14554 9.68445e-18
6988.04085 9.57064e-18
6990.94633 9.52698e-18
6993.85180 9.61453e-18
6996.75727 9.69256e-18
6999.66275 9.66604e-18
7002.56822 9.54848e-18
7005.47370 9.43225e-18
7008.37917 9.43806e-18
7011.28465 9.49398e-18
7014.19012 9.45797e-18
7017.09559 9.45695e-18
7019.99091 9.56151e-18
7022.89638 9.61885e-18
7025.80186 9.54079e-18
7028.70733 9.37499e-18
7031.61280 9.26689e-18
7034.51828 9.23734e-18
7037.42375 9.26546e-18
7040.32923 9.37721e-18
7043.23470 9.50330e-18
7046.13002 9.56669e-18
7049.03549 9.54617e-18
7051.94096 9.42070e-18
7054.84644 9.20775e-18
7057.75191 9.01504e-18
7060.65738 8.94960e-18
7063.56286 8.99394e-18
7066.46833 9.07530e-18
7069.37381 9.17803e-18
7072.27928 9.26639e-18
7075.18476 9.31212e-18
7078.08007 9.34208e-18
7080.98554 9.27210e-18
7083.89102 9.14007e-18
7086.79649 9.08271e-18
7089.70197 9.10860e-18
7092.60744 9.24856e-18
7095.51291 9.44988e-18
7098.41839 9.58150e-18
7101.32386 9.61266e-18
7104.22934 9.55591e-18
7107.12465 9.40879e-18
7110.03013 9.24960e-18
7112.93560 9.20383e-18
7115.84107 9.25004e-18
7118.74655 9.33780e-18
7121.65202 9.49095e-18
7124.55750 9.64255e-18
7127.46297 9.74703e-18
7130.36844 9.83930e-18
7133.27392 9.86461e-18
7136.16923 9.76189e-18
7139.07471 9.54258e-18
7141.98018 9.30266e-18
7144.88565 9.24770e-18
7147.79113 9.39011e-18
7150.69660 9.52532e-18
7153.60208 9.63380e-18
7156.50755 9.74876e-18
7159.41302 9.78702e-18
7162.31850 9.66987e-18
7165.21381 9.47944e-18
7168.11929 9.25395e-18
7171.02476 9.04161e-18
7173.93023 8.91325e-18
7176.83571 8.89495e-18
7179.74118 8.98445e-18
7182.64666 9.09191e-18
7185.55213 9.18414e-18
7188.45760 9.24902e-18
7191.36308 9.20398e-18
7194.25839 9.04714e-18
7197.16387 8.88295e-18
7200.06934 8.79209e-18
7202.97482 8.80608e-18
7205.88029 8.94737e-18
7208.78576 9.15064e-18
7211.69124 9.38677e-18
7214.59671 9.56595e-18
7217.50219 9.58762e-18
7220.40766 9.48939e-18
7223.30298 9.38043e-18
7226.20845 9.27919e-18
7229.11392 9.11790e-18
7232.01940 8.91358e-18
7234.92487 8.82113e-18
7237.83035 8.87363e-18
7240.73582 9.02783e-18
7243.64129 9.22764e-18
7246.54677 9.36293e-18
7249.45224 9.37579e-18
7252.34756 9.34510e-18
7255.25303 9.31744e-18
7258.15850 9.23308e-18
7261.06398 9.13569e-18
7263.96945 9.08255e-18
7266.87493 9.03823e-18
7269.78040 8.98077e-18
7272.68587 8.91373e-18
7275.59135 8.92630e-18
7278.49682 9.01596e-18
7281.39214 9.07861e-18
7284.29761 9.13044e-18
7287.20309 9.16686e-18
7290.10856 9.18221e-18
7293.01403 9.18466e-18
7295.91951 9.15288e-18
7298.82498 9.13928e-18
7301.73045 9.15028e-18
7304.63593 9.06946e-18
7307.54140 8.87065e-18
7310.43672 8.72127e-18
7313.34219 8.72690e-18
7316.24767 8.84140e-18
7319.15314 8.94659e-18
7322.05861 9.00422e-18
7324.96409 9.01229e-18
7327.86956 8.92861e-18
7330.77504 8.84996e-18
7333.68051 8.80937e-18
7336.58598 8.74128e-18
7339.48130 8.76602e-18
7342.38677 8.90745e-18
7345.29225 9.07282e-18
7348.19772 9.10960e-18
7351.10320 8.89006e-18
7354.00867 8.64019e-18
7356.91414 8.53647e-18
7359.81962 8.51005e-18
7362.72509 8.55274e-18
7365.63057 8.65553e-18
7368.52588 8.78365e-18
7371.43135 8.93506e-18
7374.33683 9.04225e-18
7377.24230 9.01089e-18
7380.14778 8.86752e-18
7383.05325 8.64601e-18
7385.95872 8.34391e-18
7388.86420 8.22157e-18
7391.76967 8.42427e-18
7394.67515 8.64180e-18
7397.57046 8.67823e-18
7400.47593 8.67518e-18
7403.38141 8.71237e-18
7406.28688 8.67277e-18
7409.19236 8.48612e-18
7412.09783 8.22051e-18
7415.00331 8.03484e-18
7417.90878 7.94888e-18
7420.81425 7.96638e-18
7423.71973 8.14079e-18
7426.61504 8.40808e-18
7429.52052 8.62477e-18
7432.42599 8.67267e-18
7435.33146 8.46108e-18
7438.23694 8.08981e-18
7441.14241 7.77469e-18
7444.04789 7.55138e-18
7446.95336 7.40835e-18
7449.85883 7.41117e-18
7452.76431 7.53724e-18
7455.66978 7.66500e-18
7458.56510 7.72668e-18
7461.47057 7.64859e-18
7464.37604 7.42385e-18
7467.28152 7.11699e-18
7470.18699 6.77895e-18
7473.09247 6.52415e-18
7475.99794 6.43840e-18
7478.90342 6.47268e-18
7481.80889 6.55441e-18
7484.70420 6.67449e-18
7487.60968 6.79840e-18
7490.51515 6.79247e-18
7493.42063 6.65728e-18
7496.32610 6.46278e-18
7499.23157 6.28860e-18
7502.13705 6.13998e-18
7505.04252 6.00365e-18
7507.94800 5.98924e-18
7510.85347 6.01358e-18
7513.75894 5.99963e-18
7516.65426 5.97784e-18
7519.55973 5.93332e-18
7522.46521 5.90139e-18
7525.37068 5.92583e-18
7528.27615 6.01813e-18
7531.18163 6.13888e-18
7534.08710 6.20065e-18
7536.99258 6.19208e-18
7539.89805 6.13293e-18
7542.80353 5.97509e-18
7545.69884 5.78729e-18
7548.60431 5.68357e-18
7551.50979 5.68410e-18
7554.41526 5.76031e-18
7557.32074 5.87492e-18
7560.22621 5.97034e-18
7563.13168 6.07879e-18
7566.03716 6.25075e-18
7568.94263 6.33488e-18
7571.84811 6.28203e-18
7574.74342 6.24635e-18
7577.64890 6.23250e-18
7580.55437 6.22044e-18
7583.45984 6.28427e-18
7586.36532 6.33493e-18
7589.27079 6.32277e-18
7592.17627 6.34220e-18
7595.08174 6.29489e-18
7597.98721 6.09808e-18
7600.89269 5.88051e-18
7603.78800 5.87579e-18
7606.69348 6.05039e-18
7609.59895 6.25367e-18
7612.50442 6.40261e-18
7615.40990 6.38424e-18
7618.31537 6.30660e-18
7621.22085 6.30922e-18
7624.12632 6.35754e-18
7627.03179 6.45756e-18
7629.93727 6.54425e-18
7632.83258 6.53222e-18
7635.73806 6.64438e-18
7638.64353 6.88260e-18
7641.54900 7.00536e-18
7644.45448 7.05911e-18
7647.35995 7.19714e-18
7650.26543 7.31539e-18
7653.17090 7.31117e-18
7656.07638 7.34607e-18
7658.98185 7.48368e-18
7661.87716 7.64083e-18
7664.78264 7.76086e-18
7667.68811 7.83429e-18
7670.59359 7.89935e-18
7673.49906 7.92232e-18
7676.40453 7.96777e-18
7679.31001 8.10508e-18
7682.21548 8.22699e-18
7685.12096 8.24073e-18
7688.02643 8.16478e-18
7690.92175 8.06258e-18
7693.82722 8.10512e-18
7696.73269 8.22836e-18
7699.63817 8.26158e-18
7702.54364 8.35779e-18
7705.44912 8.52573e-18
7708.35459 8.60886e-18
7711.26006 8.62488e-18
7714.16554 8.65099e-18
7717.07101 8.60100e-18
7719.96633 8.41321e-18
7722.87180 8.23970e-18
7725.77727 8.21154e-18
7728.68275 8.41237e-18
7731.58822 8.80980e-18
7734.49370 9.17793e-18
7737.39917 9.36990e-18
7740.30464 9.40409e-18
7743.21012 9.33523e-18
7746.11559 9.10969e-18
7749.01091 8.82606e-18
7751.91638 8.72157e-18
7754.82186 8.80775e-18
7757.72733 8.95647e-18
7760.63280 9.09564e-18
7763.53828 9.22795e-18
7766.44375 9.38822e-18
7769.34922 9.46592e-18
7772.25470 9.41390e-18
7775.16017 9.29106e-18
7778.05549 9.23381e-18
7780.96096 9.36733e-18
7783.86644 9.48899e-18
7786.77191 9.51636e-18
7789.67738 9.54518e-18
7792.58286 9.59577e-18
7795.48833 9.56773e-18
7798.39381 9.46035e-18
7801.29928 9.36623e-18
7804.20475 9.32017e-18
7807.10007 9.31261e-18
7810.00554 9.39309e-18
7812.91102 9.56425e-18
7815.81649 9.77747e-18
7818.72197 1.00079e-17
7821.62744 1.02018e-17
7824.53291 1.02486e-17
7827.43839 1.00970e-17
7830.34386 9.83535e-18
7833.24933 9.53269e-18
7836.14465 9.28881e-18
7839.05012 9.22152e-18
7841.95560 9.34661e-18
7844.86107 9.52034e-18
7847.76655 9.69277e-18
7850.67202 9.84761e-18
7853.57749 9.95392e-18
7856.48297 9.97099e-18
7859.38844 9.97056e-18
7862.29392 1.00170e-17
7865.18923 9.99494e-18
7868.09471 9.96459e-18
7871.00018 9.93463e-18
7873.90565 9.68166e-18
7876.81113 9.25575e-18
7879.71660 8.91703e-18
7882.62208 8.86154e-18
7885.52755 9.12136e-18
7888.43302 9.53835e-18
7891.33850 9.87373e-18
7894.24397 9.99187e-18
7897.13929 9.90974e-18
7900.04476 9.74524e-18
7902.95023 9.59131e-18
7905.85571 9.47497e-18
7908.76118 9.29986e-18
7911.66666 9.06947e-18
7914.57213 8.94479e-18
7917.47760 8.91289e-18
7920.38308 9.01557e-18
7923.27839 9.25416e-18
7926.18387 9.47577e-18
7929.08934 9.64267e-18
7931.99482 9.78012e-18
7934.90029 9.88992e-18
7937.80576 9.96225e-18
7940.71124 9.91388e-18
7943.61671 9.77769e-18
7946.52218 9.67018e-18
7949.42766 9.58947e-18
7952.33313 9.45365e-18
7955.22845 9.24598e-18
7958.13392 9.07172e-18
7961.03940 8.94328e-18
7963.94487 8.94289e-18
7966.85034 9.09721e-18
7969.75582 9.31176e-18
7972.66129 9.49218e-18
7975.56677 9.56788e-18
7978.47224 9.59885e-18
7981.37771 9.55096e-18
7984.27303 9.47703e-18
7987.17850 9.43344e-18
7990.08398 9.40039e-18
7992.98945 9.32170e-18
7995.89493 9.09347e-18
7998.80040 8.79919e-18
8001.70587 8.57629e-18
8004.61135 8.48906e-18
8007.51682 8.53912e-18
8010.41214 8.67434e-18
8013.31761 8.88588e-18
8016.22308 9.15395e-18
8019.12856 9.33855e-18
8022.03403 9.37785e-18
8024.93951 9.36965e-18
8027.84498 9.37440e-18
8030.75045 9.41482e-18
8033.65593 9.39668e-18
8036.56140 9.17810e-18
8039.46688 8.86428e-18
8042.36219 8.55109e-18
8045.26767 8.28910e-18
8048.17314 8.12666e-18
8051.07861 8.00783e-18
8053.98409 7.78720e-18
8056.88956 7.78440e-18
8059.79504 7.89441e-18
8062.70051 8.11065e-18
8065.60598 8.39556e-18
8068.51146 8.72990e-18
8071.40677 9.01492e-18
8074.31225 9.17884e-18
8077.21772 9.11816e-18
8080.12319 8.84049e-18
8083.02867 8.55607e-18
8085.93414 8.25140e-18
8088.83962 7.96002e-18
8091.74509 7.73720e-18
8094.65056 7.46493e-18
8097.55604 7.26051e-18
8100.45135 7.23521e-18
8103.35683 7.33413e-18
8106.26230 7.52737e-18
8109.16777 7.77074e-18
8112.07325 7.98897e-18
8114.97872 8.10360e-18
8117.88420 8.14831e-18
8120.78967 8.17812e-18
8123.69515 8.14392e-18
8126.60062 7.97122e-18
8129.49593 7.69961e-18
8132.40141 7.45887e-18
8135.30688 7.27808e-18
8138.21236 7.01522e-18
8141.11783 6.69747e-18
8144.02330 6.53974e-18
8146.92878 6.56002e-18
8149.83425 6.70544e-18
8152.73973 6.92487e-18
8155.64520 7.09564e-18
8158.54052 7.19681e-18
8161.44599 7.23979e-18
8164.35146 7.23326e-18
8167.25694 7.17493e-18
8170.16241 7.05226e-18
8173.06788 6.86475e-18
8175.97336 6.62316e-18
8178.87883 6.35711e-18
8181.78431 6.14070e-18
8184.68978 6.01187e-18
8187.58510 5.93103e-18
8190.49057 5.92186e-18
8193.39604 5.96646e-18
8196.30152 6.03774e-18
8199.20699 6.15157e-18
8202.11247 6.33598e-18
8205.01794 6.49807e-18
8207.92341 6.64500e-18
8210.82889 6.75605e-18
8213.73436 6.68906e-18
8216.62968 6.43384e-18
8219.53515 6.12766e-18
8222.44063 5.76915e-18
8225.34610 5.37170e-18
8228.25157 5.10382e-18
8231.15705 5.01846e-18
8234.06252 5.06898e-18
8236.96800 5.09993e-18
8239.87347 5.14238e-18
8242.77894 5.34564e-18
8245.67426 5.61230e-18
8248.57973 5.82030e-18
8251.48521 5.99412e-18
8254.39068 6.13447e-18
8257.29615 6.11642e-18
8260.20163 6.05507e-18
8263.10710 6.15558e-18
8266.01258 6.19918e-18
8268.91805 5.98706e-18
8271.82352 5.64418e-18
8274.71884 5.36326e-18
8277.62431 5.17257e-18
8280.52979 5.02330e-18
8283.43526 4.97254e-18
8286.34073 5.13743e-18
8289.24621 5.39639e-18
8292.15168 5.55644e-18
8295.05716 5.66855e-18
8297.96263 6.00806e-18
8300.86810 6.41330e-18
8303.76342 6.69808e-18
8306.66889 6.96373e-18
8309.57437 7.15207e-18
8312.47984 7.09073e-18
8315.38532 6.80865e-18
8318.29079 6.48420e-18
8321.19626 6.33253e-18
8324.10174 6.17154e-18
8327.00721 5.97510e-18
8329.91269 5.95303e-18
8332.81816 5.89308e-18
8335.71348 5.60476e-18
8338.61895 5.46262e-18
8341.52442 5.77660e-18
8344.42990 6.24950e-18
8347.33537 6.59972e-18
8350.24085 6.91038e-18
8353.14632 7.29752e-18
8356.05179 7.63953e-18
8358.95727 7.80303e-18
8361.86274 7.75435e-18
8364.75806 7.59445e-18
8367.66353 7.44378e-18
8370.56900 7.19800e-18
8373.47448 6.86072e-18
8376.37995 6.48687e-18
8379.28543 6.23312e-18
8382.19090 6.13886e-18
8385.09637 6.12686e-18
8388.00185 6.28020e-18
8390.90732 6.53924e-18
8393.80264 6.71237e-18
8396.70811 6.86554e-18
8399.61358 7.10612e-18
8402.51906 7.52657e-18
8405.42453 8.05296e-18
8408.33001 8.43586e-18
8411.23548 8.44579e-18
8414.14096 8.18263e-18
8417.04643 7.85569e-18
8419.95190 7.48323e-18
8422.84722 7.05365e-18
8425.75269 6.69505e-18
8428.65817 6.42658e-18
8431.56364 6.35077e-18
8434.46911 6.59029e-18
8437.37459 7.01298e-18
8440.28006 7.33626e-18
8443.18554 7.56728e-18
8446.09101 7.80664e-18
8448.99648 7.98335e-18
8451.89180 8.21292e-18
8454.79727 8.52060e-18
8457.70275 8.62594e-18
8460.60822 8.43674e-18
8463.51369 8.11091e-18
8466.41917 7.86670e-18
8469.32464 7.80199e-18
8472.23012 7.77071e-18
8475.13559 7.64040e-18
8478.03091 7.48821e-18
8480.94654 7.38455e-18
8483.84185 7.42089e-18
8486.74733 7.49159e-18
8489.65280 7.64113e-18
8492.55828 7.86175e-18
8495.46375 8.18653e-18
8498.36922 8.67252e-18
8501.27470 9.08429e-18
8504.18017 9.30387e-18
8507.08565 9.46687e-18
8509.98096 9.61666e-18
8512.88644 9.69753e-18
8515.79191 9.49595e-18
8518.69738 9.11108e-18
8521.60286 8.78964e-18
8524.50833 8.53254e-18
8527.41381 8.29010e-18
8530.31928 8.04095e-18
8533.22475 7.81046e-18
8536.13023 7.66524e-18
8539.02554 7.74818e-18
8541.93102 8.09025e-18
8544.83649 8.53510e-18
8547.74196 9.05881e-18
8550.64744 9.60745e-18
8553.55291 1.00266e-17
8556.45839 1.02270e-17
8559.36386 1.02469e-17
8562.26933 1.02322e-17
8565.17481 1.00378e-17
8568.07012 9.70798e-18
8570.97560 9.33645e-18
8573.88107 8.93183e-18
8576.78654 8.50843e-18
8579.69202 8.22965e-18
8582.59749 8.07013e-18
8585.50297 8.05727e-18
8588.40844 8.20552e-18
8591.31392 8.57726e-18
8594.21939 9.06457e-18
8597.11470 9.56002e-18
8600.02018 9.98008e-18
8602.92565 1.03761e-17
8605.83113 1.07190e-17
8608.73660 1.08502e-17
8611.64207 1.06795e-17
8614.54755 1.02490e-17
8617.45302 9.72480e-18
8620.35850 9.25627e-18
8623.26397 8.80998e-18
8626.15928 8.50381e-18
8629.06476 8.41797e-18
8631.97023 8.40438e-18
8634.87571 8.45125e-18
8637.78118 8.61155e-18
8640.68666 8.97415e-18
8643.59213 9.43641e-18
8646.49760 9.81127e-18
8649.40308 9.99372e-18
8652.30855 1.01249e-17
8655.21402 1.03656e-17
8658.10934 1.05700e-17
8661.01481 1.04528e-17
8663.92029 1.00407e-17
8666.82576 9.53749e-18
8669.73124 9.08523e-18
8672.63671 8.56843e-18
8675.54218 8.02297e-18
8678.44766 7.78691e-18
8681.35313 7.78782e-18
8684.24845 7.94377e-18
8687.15392 8.32599e-18
8690.05940 8.79900e-18
8692.96487 9.28313e-18
8695.87034 9.79549e-18
8698.77582 1.01001e-17
8701.68129 1.00971e-17
8704.58677 1.00017e-17
8707.49224 9.79344e-18
8710.39771 9.38626e-18
8713.29303 8.94063e-18
8716.19850 8.49777e-18
8719.10398 8.08820e-18
8722.00945 7.84085e-18
8724.91492 7.69474e-18
8727.82040 7.68338e-18
8730.72587 7.88167e-18
8733.63135 8.21396e-18
8736.53682 8.63726e-18
8739.44229 9.16597e-18
8742.33761 9.59446e-18
8745.24308 9.85215e-18
8748.14856 9.86957e-18
8751.05403 9.53072e-18
8753.95951 9.01685e-18
8756.86498 8.61196e-18
8759.77045 8.28094e-18
8762.67593 7.94146e-18
8765.58140 7.49074e-18
8768.48688 7.04636e-18
8771.39235 6.84901e-18
8774.28766 6.92603e-18
8777.19314 7.16941e-18
8780.09861 7.45260e-18
8783.00409 7.88518e-18
8785.90956 8.46789e-18
8788.81503 8.91707e-18
8791.72051 9.10857e-18
8794.62598 9.13324e-18
8797.53146 9.18151e-18
8800.42677 9.11075e-18
8803.33224 8.78152e-18
8806.23772 8.32629e-18
8809.14319 7.82732e-18
8812.04867 7.30476e-18
8814.95414 6.81925e-18
8817.85962 6.40707e-18
8820.76509 6.07034e-18
8823.67056 5.91464e-18
8826.57604 6.05300e-18
8829.48151 6.46946e-18
8832.37683 7.08301e-18
8835.28230 7.59232e-18
8838.18777 8.05131e-18
8841.09325 8.60026e-18
8843.99872 8.97923e-18
8846.90420 9.04274e-18
8849.80967 8.79403e-18
8852.71514 8.30669e-18
8855.62062 7.79459e-18
8858.52609 7.36742e-18
8861.42141 6.86489e-18
8864.32688 6.31894e-18
8867.23236 5.97273e-18
8870.13783 5.75563e-18
8873.04330 5.69019e-18
8875.94878 5.80276e-18
8878.85425 5.87710e-18
8881.75972 5.81871e-18
8884.66520 5.95286e-18
8887.57067 6.51845e-18
8890.46599 7.11498e-18
8893.37146 7.53559e-18
8896.27694 7.99916e-18
8899.18241 8.17618e-18
8902.08788 7.84772e-18
8904.99336 7.41153e-18
8907.89883 6.97170e-18
8910.80431 6.44942e-18
8913.70978 5.91339e-18
8916.60509 5.49409e-18
8919.52073 5.25241e-18
8922.41604 5.23395e-18
8925.32152 5.39286e-18
8928.22699 5.63012e-18
8931.13247 5.82729e-18
8934.03794 5.85516e-18
8936.94341 5.84012e-18
8939.84889 6.05149e-18
8942.75436 6.50028e-18
8945.65984 6.93691e-18
8948.55515 7.13274e-18
8951.46062 6.98271e-18
8954.36610 6.61703e-18
8957.27157 6.25200e-18
8960.17705 5.99357e-18
8963.08252 5.96107e-18
8965.98799 5.84124e-18
8968.89347 5.45986e-18
8971.79894 5.18241e-18
8974.70442 5.09842e-18
8977.59973 4.97299e-18
8980.50521 4.85588e-18
8983.41068 4.88645e-18
8986.31615 5.10916e-18
8989.22163 5.35532e-18
8992.12710 5.55957e-18
8995.03258 5.82547e-18
8997.93805 6.03851e-18
9000.84352 6.11286e-18
9003.74900 6.19904e-18
9006.64431 6.28399e-18
9009.54979 6.13948e-18
9012.45526 5.76089e-18
9015.36073 5.37638e-18
9018.26621 5.12385e-18
9021.17168 5.00381e-18
9024.07716 4.85521e-18
9026.98263 4.75748e-18
9029.88810 4.83928e-18
9032.79358 4.94380e-18
9035.68889 5.18396e-18
9038.59437 5.44038e-18
9041.49984 5.62874e-18
9044.40531 5.87609e-18
9047.31079 6.20167e-18
9050.21626 6.41684e-18
9053.12174 6.44761e-18
9056.02721 6.47627e-18
9058.93268 6.47161e-18
9061.83816 6.16624e-18
9064.73347 5.69121e-18
9067.63895 5.31740e-18
9070.54442 5.04607e-18
9073.44990 4.89275e-18
9076.35537 4.84142e-18
9079.26084 4.82967e-18
9082.16632 4.88223e-18
9085.07179 4.99575e-18
9087.97727 5.18708e-18
9090.88274 5.46869e-18
9093.78821 5.77755e-18
9096.68353 6.03552e-18
9099.58900 6.39175e-18
9102.49448 6.65766e-18
9105.39995 6.57354e-18
9108.30543 6.30892e-18
9111.21090 6.16719e-18
9114.11637 6.13283e-18
9117.02185 5.94699e-18
9119.92732 5.58227e-18
9122.82264 5.34715e-18
9125.72811 5.25847e-18
9128.63358 5.09954e-18
9131.53906 4.92661e-18
9134.44453 4.97148e-18
9137.35001 5.28804e-18
9140.25548 5.65457e-18
9143.16095 5.95468e-18
9146.06643 6.27880e-18
9148.97190 6.61548e-18
9151.86722 6.89421e-18
9154.77269 6.94348e-18
9157.67817 6.73429e-18
9160.58364 6.53369e-18
9163.48911 6.49688e-18
9166.39459 6.33177e-18
9169.30006 5.93212e-18
9172.20553 5.63907e-18
9175.11101 5.43960e-18
9178.01648 5.30365e-18
9180.91180 5.31415e-18
9183.81727 5.34416e-18
9186.72275 5.30778e-18
9189.62822 5.36744e-18
9192.53369 5.68637e-18
9195.43917 6.15512e-18
9198.34464 6.56493e-18
9201.25012 6.88442e-18
9204.15559 7.07211e-18
9207.06106 6.96086e-18
9209.96654 6.74147e-18
9212.86185 6.68170e-18
9215.76733 6.59354e-18
9218.67280 6.52281e-18
9221.57827 6.30096e-18
9224.48375 5.80517e-18
9227.38922 5.56282e-18
9230.29470 5.57148e-18
9233.20017 5.47083e-18
9236.10564 5.25664e-18
9239.00096 5.30338e-18
9241.90643 5.52547e-18
9244.81191 5.73427e-18
9247.71738 5.95668e-18
9250.62286 6.21139e-18
9253.52833 6.43032e-18
9256.43380 6.66216e-18
9259.33928 6.91056e-18
9262.24475 6.97337e-18
9265.15023 6.82622e-18
9268.05570 6.66126e-18
9270.95102 6.42726e-18
9273.85649 6.18084e-18
9276.76196 5.88094e-18
9279.66744 5.67756e-18
9282.57291 5.59551e-18
9285.47839 5.56628e-18
9288.38386 5.55272e-18
9291.28933 5.55941e-18
9294.19481 5.59661e-18
9297.09012 5.63673e-18
9297.99670 5.63673e-18
9300.00373 6.53588e-18
9302.00058 8.20291e-18
9303.99743 8.82619e-18
9306.00446 9.57367e-18
9308.00131 8.69370e-18
9309.99816 5.24829e-18
9312.00520 2.98873e-18
9314.00204 3.48833e-18
9315.99889 5.24179e-18
9317.99574 5.75100e-18
9320.00278 5.66641e-18
9321.99962 6.09115e-18
9323.99647 6.77682e-18
9326.00351 7.48348e-18
9328.00036 8.40629e-18
9329.99720 9.18221e-18
9332.00424 9.01943e-18
9334.00109 7.96700e-18
9335.99794 7.43536e-18
9337.99478 6.86094e-18
9340.00182 6.60272e-18
9341.99867 6.90303e-18
9343.99552 7.18403e-18
9346.00255 6.75551e-18
9347.99940 5.79335e-18
9349.99625 5.50014e-18
9352.00328 5.60048e-18
9354.00013 5.71822e-18
9355.99698 5.90092e-18
9358.00402 6.18458e-18
9360.00086 6.63090e-18
9361.99771 7.21417e-18
9364.00475 7.52217e-18
9366.00160 7.67290e-18
9367.99844 7.74635e-18
9369.99529 7.53304e-18
9372.00233 7.52634e-18
9373.99918 8.10024e-18
9375.99602 8.91677e-18
9378.00306 8.94235e-18
9379.99991 8.45217e-18
9381.99676 7.80503e-18
9384.00379 6.35934e-18
9386.00064 5.59773e-18
9387.99749 6.13736e-18
9390.00452 7.12284e-18
9392.00137 7.11902e-18
9393.99822 6.47491e-18
9395.99507 6.15229e-18
9398.00210 5.72964e-18
9399.99895 5.57116e-18
9401.99580 5.87838e-18
9404.00284 6.21709e-18
9405.99968 6.01397e-18
9407.99653 5.41205e-18
9410.00357 5.11310e-18
9412.00042 4.88301e-18
9413.99726 4.74554e-18
9416.00430 4.65691e-18
9418.00115 4.70994e-18
9419.99800 5.04376e-18
9421.99484 5.62424e-18
9424.00188 5.86389e-18
9425.99873 5.83386e-18
9427.99558 5.94426e-18
9430.00261 6.01088e-18
9431.99946 6.27878e-18
9433.99631 6.85321e-18
9436.00334 7.67866e-18
9438.00019 8.87384e-18
9439.99704 1.14993e-17
9442.00408 1.18652e-17
9444.00092 1.03092e-17
9445.99777 8.68700e-18
9448.00481 7.23626e-18
9450.00166 5.90790e-18
9451.99850 5.67968e-18
9453.99535 6.82448e-18
9456.00239 6.77534e-18
9457.99924 6.05995e-18
9459.99608 5.40165e-18
9462.00312 4.78890e-18
9463.99997 4.24722e-18
9465.99682 3.95262e-18
9468.00385 3.72667e-18
9470.00070 4.15659e-18
9471.99755 5.50350e-18
9474.00458 6.41852e-18
9476.00143 7.08566e-18
9477.99828 7.38626e-18
9479.99513 6.95011e-18
9482.00216 5.80271e-18
9483.99901 5.44935e-18
9485.99586 5.65226e-18
9488.00290 5.58649e-18
9489.99974 5.28491e-18
9491.99659 5.02821e-18
9494.00363 4.91683e-18
9496.00048 4.89813e-18
9497.99732 5.28905e-18
9500.00436 6.20809e-18
9502.00121 6.90126e-18
9503.99806 7.80506e-18
9505.99490 8.27157e-18
9508.00194 7.98078e-18
9509.99879 7.20833e-18
9511.99564 6.45745e-18
9514.00267 5.17799e-18
9515.99952 4.67933e-18
9517.99637 4.69712e-18
9520.00340 4.87572e-18
9522.00025 5.21396e-18
9523.99710 5.68465e-18
9526.00414 6.15410e-18
9528.00098 6.91109e-18
9529.99783 6.83933e-18
9532.00487 5.78176e-18
9534.00172 5.23001e-18
9535.99856 5.45656e-18
9537.99541 5.72381e-18
9540.00245 5.13211e-18
9541.99930 3.72868e-18
9543.99614 4.12995e-18
9546.00318 6.37999e-18
9548.00003 7.70452e-18
9549.99688 8.51731e-18
9552.00391 8.80584e-18
9554.00076 8.33603e-18
9555.99761 7.19290e-18
9557.99446 6.17182e-18
9560.00149 4.16697e-18
9561.99834 3.87838e-18
9563.99519 5.39808e-18
9566.00222 6.95550e-18
9567.99907 7.95778e-18
9569.99592 8.71122e-18
9572.00296 8.42761e-18
9573.99980 6.76762e-18
9575.99665 5.83271e-18
9578.00369 5.00206e-18
9580.00054 4.31558e-18
9581.99738 3.67054e-18
9584.00442 3.23276e-18
9586.00127 3.50734e-18
9587.99812 4.66245e-18
9590.00515 5.18402e-18
9592.00200 5.47489e-18
9593.99885 5.71008e-18
9595.99570 5.87379e-18
9598.00273 5.99132e-18
9599.99958 6.13515e-18
9601.99643 6.27583e-18
9604.00346 6.40727e-18
9606.00031 6.69920e-18
9607.99716 6.64127e-18
9610.00420 6.22939e-18
9612.00104 5.59959e-18
9613.99789 4.64520e-18
9615.99474 3.25503e-18
9618.00178 3.45205e-18
9619.99862 5.75130e-18
9621.99547 6.36320e-18
9624.00251 5.50974e-18
9625.99936 4.44938e-18
9627.99620 3.61901e-18
9630.00324 2.80123e-18
9632.00009 3.08400e-18
9633.99694 4.79380e-18
9636.00397 5.57807e-18
9638.00082 6.11924e-18
9639.99767 6.24727e-18
9642.00470 5.65006e-18
9644.00155 4.71133e-18
9645.99840 4.65916e-18
9647.99525 5.34576e-18
9650.00228 5.60015e-18
9651.99913 5.87978e-18
9653.99598 5.88779e-18
9656.00302 5.49263e-18
9657.99986 4.91431e-18
9659.99671 4.45484e-18
9662.00375 3.84003e-18
9664.00060 3.83700e-18
9665.99744 4.53498e-18
9668.00448 4.95048e-18
9670.00133 5.08942e-18
9671.99818 5.09287e-18
9673.99502 4.99712e-18
9676.00206 4.76538e-18
9677.99891 4.57346e-18
9679.99576 4.12284e-18
9682.00279 4.16605e-18
9683.99964 4.97999e-18
9685.99649 5.62082e-18
9688.00352 5.34942e-18
9690.00037 4.52131e-18
9691.99722 4.17765e-18
9694.00426 3.97355e-18
9696.00110 3.86401e-18
9697.99795 3.90032e-18
9699.99480 3.97746e-18
9702.00184 4.03008e-18
9703.99868 4.11134e-18
9705.99553 4.35679e-18
9708.00257 4.86243e-18
9709.99942 5.13052e-18
9711.99626 5.29144e-18
9714.00330 5.39205e-18
9716.00015 5.38965e-18
9717.99700 5.35924e-18
9720.00403 5.51905e-18
9722.00088 5.92143e-18
9723.99773 5.96229e-18
9726.00476 5.86668e-18
9728.00161 5.52118e-18
9729.99846 4.71436e-18
9731.99531 3.87456e-18
9734.00234 3.57387e-18
9735.99919 3.55745e-18
9737.99604 3.89521e-18
9740.00308 4.83734e-18
9741.99992 5.54767e-18
9743.99677 6.21161e-18
9746.00381 6.64942e-18
9748.00066 6.61465e-18
9749.99750 6.19899e-18
9751.99435 5.82642e-18
9754.00139 5.17583e-18
9755.99824 4.81785e-18
9757.99508 4.57126e-18
9760.00212 4.59448e-18
9761.99897 5.16588e-18
9763.99582 6.07599e-18
9766.00285 6.09996e-18
9767.99970 5.35393e-18
9769.99655 4.90492e-18
9772.00358 4.16307e-18
9774.00043 3.92859e-18
9775.99728 4.73270e-18
9778.00432 5.95017e-18
9780.00116 6.09706e-18
9781.99801 5.34989e-18
9784.00505 5.22006e-18
9786.00190 5.54590e-18
9787.99874 5.48080e-18
9789.99559 4.75032e-18
9792.00263 3.84751e-18
9793.99948 3.38110e-18
9795.99632 2.94708e-18
9798.00336 3.37841e-18
9800.00021 5.28274e-18
9801.99706 6.04125e-18
9804.00409 5.42021e-18
9806.00094 4.43588e-18
9807.99779 3.81537e-18
9809.99464 3.13700e-18
9812.00167 3.29230e-18
9813.99852 4.71022e-18
9815.99537 5.11276e-18
9818.00240 4.61594e-18
9819.99925 3.90195e-18
9821.99610 3.15504e-18
9824.00314 2.27350e-18
9825.99998 2.50504e-18
9827.99683 4.20133e-18
9830.00387 4.78367e-18
9832.00072 4.70041e-18
9833.99756 4.44655e-18
9836.00460 4.04126e-18
9838.00145 3.54512e-18
9839.99830 3.66173e-18
9841.99514 4.43225e-18
9844.00218 4.78904e-18
9845.99903 5.02962e-18
9847.99588 5.21197e-18
9850.00291 5.37974e-18
9851.99976 5.46426e-18
9853.99661 5.31294e-18
9856.00364 4.83803e-18
9858.00049 4.72721e-18
9859.99734 4.88527e-18
9862.00438 4.96368e-18
9864.00122 5.03315e-18
9865.99807 4.98522e-18
9868.00511 4.59082e-18
9870.00196 3.86389e-18
9871.99880 3.42556e-18
9873.99565 2.86259e-18
9876.00269 2.82973e-18
9877.99954 3.58592e-18
9879.99638 4.31726e-18
9882.00342 4.37208e-18
9884.00027 4.04664e-18
9885.99712 3.88387e-18
9888.00415 3.50647e-18
9890.00100 3.53597e-18
9891.99785 4.28170e-18
9893.99470 4.61546e-18
9896.00173 3.74282e-18
9897.99858 2.24656e-18
9899.99543 1.94377e-18
9902.00246 2.50777e-18
9903.99931 2.84079e-18
9905.99616 3.41520e-18
9908.00320 3.79606e-18
9910.00004 3.80161e-18
9911.99689 3.64110e-18
9914.00393 3.66165e-18
9916.00078 3.65103e-18
9917.99762 3.93244e-18
9920.00466 4.77404e-18
9922.00151 5.11803e-18
9923.99836 4.73353e-18
9925.99520 4.07970e-18
9928.00224 3.59932e-18
9929.99909 2.90462e-18
9931.99594 3.17990e-18
9934.00297 4.58630e-18
9935.99982 5.49185e-18
9937.99667 6.11905e-18
9940.00370 6.35877e-18
9942.00055 5.75394e-18
9943.99740 4.30955e-18
9946.00444 4.44937e-18
9948.00128 6.33873e-18
9949.99813 6.89073e-18
9951.99498 6.24861e-18
9954.00202 5.48717e-18
9955.99886 5.15589e-18
9957.99571 4.95279e-18
9960.00275 4.70798e-18
9961.99960 4.05011e-18
9963.99644 4.40382e-18
9966.00348 6.57817e-18
9968.00033 7.45752e-18
9969.99718 5.33900e-18
9972.00421 1.88486e-18
9974.00106 8.14107e-19
9975.99791 1.22677e-18
9978.00494 1.32173e-18
9980.00179 1.72883e-18
9981.99864 2.19705e-18
9983.99549 2.72699e-18
9986.00252 3.30187e-18
9987.99937 3.82349e-18
9989.99622 4.38012e-18
9992.00326 4.73163e-18
9994.00010 4.96443e-18
9995.99695 5.04493e-18
9998.00399 4.87211e-18
10000.00084 4.66245e-18
