# wavelength flux
3600.00419 1.27346e-17
3602.07663 1.53542e-17
3604.14907 1.50121e-17
3606.23166 1.36114e-17
3608.30410 1.11963e-17
3610.38669 8.47419e-18
3612.45913 9.53854e-18
3614.53156 1.06517e-17
3616.61416 9.38066e-18
3618.68660 1.40540e-17
3620.75903 1.58306e-17
3622.84163 7.41576e-18
3624.91406 5.95961e-18
3626.99666 1.04033e-17
3629.06909 1.33380e-17
3631.14153 1.62724e-17
3633.22412 8.57907e-18
3635.29656 9.61093e-18
3637.37916 1.44500e-17
3639.45159 1.60780e-17
3641.52403 1.26722e-17
3643.60662 9.31073e-18
3645.67906 1.11624e-17
3647.76165 1.63426e-17
3649.83409 1.61610e-17
3651.90652 9.70272e-18
3653.98912 7.93972e-18
3656.06156 9.07433e-18
3658.14415 6.24226e-18
3660.21659 6.07310e-18
3662.28902 1.08067e-17
3664.37162 1.08241e-17
3666.44405 9.03636e-18
3668.51649 8.15259e-18
3670.59909 7.85344e-18
3672.67152 9.86295e-18
3674.75412 9.11823e-18
3676.82655 8.87433e-18
3678.89899 1.14994e-17
3680.98158 1.18737e-17
3683.05402 1.22266e-17
3685.13661 9.65683e-18
3687.20905 8.00862e-18
3689.28149 1.25160e-17
3691.36408 1.41423e-17
3693.43652 1.26234e-17
3695.51911 1.17850e-17
3697.59155 8.79750e-18
3699.66398 7.09799e-18
3701.74658 7.25450e-18
3703.81902 9.65828e-18
3705.90161 1.32513e-17
3707.97405 1.05129e-17
3710.04648 7.73635e-18
3712.12908 6.28861e-18
3714.20151 6.62260e-18
3716.28411 9.57407e-18
3718.35654 1.37224e-17
3720.42898 1.45320e-17
3722.51157 1.33968e-17
3724.58401 1.19152e-17
3726.65645 9.84906e-18
3728.73904 1.06744e-17
3730.81148 1.22835e-17
3732.89407 1.00866e-17
3734.96651 8.78746e-18
3737.03895 9.93477e-18
3739.12154 9.71995e-18
3741.19398 1.03608e-17
3743.27657 9.68499e-18
3745.34901 8.88113e-18
3747.42144 8.02395e-18
3749.50404 8.88037e-18
3751.57647 1.02042e-17
3753.65907 1.14222e-17
3755.73150 1.21069e-17
3757.80394 1.22218e-17
3759.88654 1.20474e-17
3761.95897 1.08760e-17
3764.04157 1.14431e-17
3766.11400 1.08879e-17
3768.18644 1.07902e-17
3770.26903 1.06591e-17
3772.34147 1.05279e-17
3774.41391 1.03968e-17
3776.49650 1.02657e-17
3778.56894 1.01346e-17
3780.65153 1.00035e-17
3782.72397 9.87238e-18
3784.79640 9.74131e-18
3786.87900 9.61025e-18
3788.95144 9.47920e-18
3791.03403 9.34817e-18
3793.10647 9.21714e-18
3795.17890 9.08613e-18
3797.26150 8.95514e-18
3799.33393 8.82415e-18
3801.41653 8.69317e-18
3803.48896 8.56221e-18
3805.56140 8.43125e-18
3807.64400 8.30031e-18
3809.71643 6.19667e-18
3811.79903 5.80384e-18
3813.87146 8.31103e-18
3815.94390 1.00911e-17
3818.02649 9.47040e-18
3820.09893 7.43363e-18
3822.17137 6.60674e-18
3824.25396 9.88260e-18
3826.32640 9.38054e-18
3828.40899 8.05202e-18
3830.48143 6.46631e-18
3832.55386 7.12394e-18
3834.63646 8.36274e-18
3836.70889 8.86062e-18
3838.79149 7.89701e-18
3840.86393 5.43141e-18
3842.93636 5.65782e-18
3845.01896 7.10821e-18
3847.09139 8.91582e-18
3849.17399 7.07149e-18
3851.24642 7.82737e-18
3853.31886 9.14251e-18
3855.40145 8.05214e-18
3857.47389 7.61910e-18
3859.55649 7.87406e-18
3861.62892 6.47668e-18
3863.70136 6.28808e-18
3865.78395 7.34360e-18
3867.85639 7.66706e-18
3869.93898 9.28341e-18
3872.01142 9.27639e-18
3874.08385 8.07933e-18
3876.16645 8.85220e-18
3878.23889 9.41964e-18
3880.31132 1.09161e-17
3882.39392 1.12107e-17
3884.46635 9.32806e-18
3886.54895 1.08244e-17
3888.62138 1.16197e-17
3890.69382 9.92377e-18
3892.77641 9.26245e-18
3894.84885 1.04410e-17
3896.93145 1.02028e-17
3899.00388 9.24900e-18
3901.07632 9.99265e-18
3903.15891 9.31802e-18
3905.23135 8.78044e-18
3907.31394 9.89091e-18
3909.38638 8.93854e-18
3911.45882 1.01171e-17
3913.54141 1.14247e-17
3915.61385 1.20410e-17
3917.69644 1.01103e-17
3919.76888 1.04127e-17
3921.84131 1.18073e-17
3923.92391 1.08083e-17
3925.99635 1.00929e-17
3928.06878 1.14368e-17
3930.15138 1.20333e-17
3932.22381 1.17978e-17
3934.30641 9.74239e-18
3936.37884 1.01860e-17
3938.45128 1.21989e-17
3940.53387 1.28242e-17
3942.60631 1.26581e-17
3944.68890 1.30755e-17
3946.76134 1.31109e-17
3948.83378 1.32192e-17
3950.91637 1.34529e-17
3952.98881 1.27433e-17
3955.07140 1.08383e-17
3957.14384 9.95007e-18
3959.21628 1.24089e-17
3961.29887 1.41878e-17
3963.37131 1.31653e-17
3965.45390 1.10183e-17
3967.52634 1.19953e-17
3969.59877 1.22846e-17
3971.68137 1.18383e-17
3973.75380 1.35164e-17
3975.82624 1.37201e-17
3977.90884 1.21467e-17
3979.98127 1.21558e-17
3982.06387 1.24824e-17
3984.13630 1.18862e-17
3986.20874 1.16044e-17
3988.29133 1.21569e-17
3990.36377 1.31269e-17
3992.44636 1.36394e-17
3994.51880 1.28237e-17
3996.59124 1.26270e-17
3998.67383 1.24187e-17
4000.74627 1.20367e-17
4002.82886 1.11726e-17
4004.90130 1.07158e-17
4006.97373 1.03368e-17
4009.05633 1.06653e-17
4011.12876 1.17064e-17
4013.21136 1.18041e-17
4015.28380 1.18062e-17
4017.35623 1.29960e-17
4019.43883 1.30196e-17
4021.51126 1.19742e-17
4023.58370 1.17531e-17
4025.66629 1.15561e-17
4027.73873 1.06740e-17
4029.82132 1.02817e-17
4031.89376 1.00445e-17
4033.96620 9.64678e-18
4036.04879 9.56012e-18
4038.12123 9.37762e-18
4040.20382 9.96912e-18
4042.27626 1.11150e-17
4044.34870 1.05723e-17
4046.43129 9.92552e-18
4048.50373 1.05937e-17
4050.58632 1.02293e-17
4052.65876 9.99280e-18
4054.73119 1.10789e-17
4056.81379 1.15143e-17
4058.88622 1.13058e-17
4060.96882 1.07304e-17
4063.04126 1.01125e-17
4065.11369 1.03905e-17
4067.19629 1.13684e-17
4069.26872 1.21347e-17
4071.35132 1.18521e-17
4073.42375 1.03684e-17
4075.49619 9.38501e-18
4077.57878 9.37392e-18
4079.65122 1.06384e-17
4081.72366 1.17458e-17
4083.80625 1.17596e-17
4085.87869 1.19930e-17
4087.96128 1.26372e-17
4090.03372 1.21014e-17
4092.10615 1.04943e-17
4094.18875 1.02262e-17
4096.26119 1.06895e-17
4098.34378 1.11661e-17
4100.41622 1.08908e-17
4102.48865 1.03694e-17
4104.57125 1.03518e-17
4106.64368 9.76812e-18
4108.72628 9.60733e-18
4110.79871 1.04345e-17
4112.87115 1.19598e-17
4114.95375 1.16820e-17
4117.02618 1.09111e-17
4119.10878 1.07080e-17
4121.18121 1.05251e-17
4123.25365 1.03613e-17
4125.33624 9.97757e-18
4127.40868 9.79046e-18
4129.48111 1.02117e-17
4131.56371 1.04048e-17
4133.63615 9.97320e-18
4135.71874 9.80946e-18
4137.79118 1.06063e-17
4139.86361 1.06187e-17
4141.94621 9.39517e-18
4144.01864 9.64473e-18
4146.10124 9.55222e-18
4148.17368 9.25059e-18
4150.24611 9.74058e-18
4152.32871 1.00513e-17
4154.40114 1.01333e-17
4156.48374 9.58145e-18
4158.55617 9.47279e-18
4160.62861 8.61256e-18
4162.71120 7.99669e-18
4164.78364 8.84895e-18
4166.86623 9.50670e-18
4168.93867 8.65514e-18
4171.01111 7.98020e-18
4173.09370 8.57783e-18
4175.16614 9.15591e-18
4177.23857 9.55096e-18
4179.32117 9.96030e-18
4181.39361 9.81498e-18
4183.47620 9.36070e-18
4185.54864 8.90908e-18
4187.62107 9.59982e-18
4189.70367 9.95839e-18
4191.77610 9.57865e-18
4193.85870 9.30687e-18
4195.93113 9.37986e-18
4198.00357 8.90785e-18
4200.08617 8.93773e-18
4202.15860 9.96305e-18
4204.24120 1.04194e-17
4206.31363 9.99069e-18
4208.38607 9.79964e-18
4210.46866 1.01433e-17
4212.54110 1.05542e-17
4214.62369 1.07066e-17
4216.69613 1.05189e-17
4218.76857 1.00644e-17
4220.85116 9.36265e-18
4222.92360 8.80867e-18
4225.00619 8.78768e-18
4227.07863 8.69832e-18
4229.15106 8.51375e-18
4231.23366 8.52133e-18
4233.30609 9.29529e-18
4235.37853 9.89161e-18
4237.46113 9.89122e-18
4239.53356 1.02735e-17
4241.61616 1.01611e-17
4243.68859 9.23560e-18
4245.76103 9.21037e-18
4247.84362 1.02920e-17
4249.91606 1.08361e-17
4251.99866 1.05133e-17
4254.07109 1.02531e-17
4256.14353 1.00694e-17
4258.22612 9.73102e-18
4260.29856 9.54862e-18
4262.38115 9.60540e-18
4264.45359 1.00377e-17
4266.52603 1.03568e-17
4268.60862 9.84188e-18
4270.68106 9.83334e-18
4272.76365 1.04114e-17
4274.83609 1.03088e-17
4276.90852 1.02956e-17
4278.99112 1.05934e-17
4281.06355 1.07921e-17
4283.13599 1.05972e-17
4285.21858 9.27181e-18
4287.29102 8.15146e-18
4289.37362 8.62402e-18
4291.44605 9.77208e-18
4293.51849 1.00314e-17
4295.60108 9.74941e-18
4297.67352 9.53618e-18
4299.75611 9.26059e-18
4301.82855 9.18736e-18
4303.90099 9.37489e-18
4305.98358 9.37647e-18
4308.05602 9.40166e-18
4310.13861 9.70944e-18
4312.21105 9.89887e-18
4314.28348 9.77319e-18
4316.36608 9.52916e-18
4318.43852 9.66496e-18
4320.52111 9.74967e-18
4322.59355 9.77179e-18
4324.66598 1.01117e-17
4326.74858 1.06159e-17
4328.82101 1.10172e-17
4330.89345 1.05535e-17
4332.97604 9.33850e-18
4335.04848 8.85940e-18
4337.13108 9.37675e-18
4339.20351 9.75064e-18
4341.27595 9.47693e-18
4343.35854 8.78890e-18
4345.43098 8.12792e-18
4347.51357 7.97456e-18
4349.58601 8.63623e-18
4351.65845 9.53419e-18
4353.74104 9.59326e-18
4355.81348 9.05050e-18
4357.89607 8.56623e-18
4359.96851 8.27546e-18
4362.04094 8.30167e-18
4364.12354 9.10954e-18
4366.19597 9.77927e-18
4368.27857 9.21235e-18
4370.35100 8.01792e-18
4372.42344 7.60673e-18
4374.50604 7.89400e-18
4376.57847 7.94042e-18
4378.65091 8.13574e-18
4380.73350 7.88658e-18
4382.80594 7.34307e-18
4384.88853 7.49126e-18
4386.96097 8.27653e-18
4389.03341 8.33620e-18
4391.11600 7.81364e-18
4393.18844 7.92754e-18
4395.27103 8.31784e-18
4397.34347 8.85389e-18
4399.41590 9.42402e-18
4401.49850 9.65789e-18
4403.57093 9.41847e-18
4405.65353 8.79051e-18
4407.72597 8.54077e-18
4409.79840 8.17994e-18
4411.88100 7.75946e-18
4413.95343 7.19719e-18
4416.03603 7.27408e-18
4418.10846 7.35100e-18
4420.18090 7.42789e-18
4422.26350 7.50480e-18
4424.33593 7.58167e-18
4426.41853 7.65857e-18
4428.49096 7.73542e-18
4430.56340 7.81229e-18
4432.64599 7.88916e-18
4434.71843 7.96602e-18
4436.79087 8.04287e-18
4438.87346 8.11972e-18
4440.94590 8.19656e-18
4443.02849 8.27340e-18
4445.10093 8.35023e-18
4447.17336 8.42705e-18
4449.25596 8.50385e-18
4451.32839 8.58068e-18
4453.41099 8.04712e-18
4455.48343 8.00141e-18
4457.55586 8.25811e-18
4459.63846 8.43865e-18
4461.71089 8.70296e-18
4463.79349 8.44109e-18
4465.86592 8.14047e-18
4467.93836 8.03884e-18
4470.02095 7.92472e-18
4472.09339 8.47787e-18
4474.17598 9.79032e-18
4476.24842 1.04070e-17
4478.32086 9.52093e-18
4480.40345 8.42870e-18
4482.47589 8.33814e-18
4484.54832 8.67305e-18
4486.63092 8.93311e-18
4488.70335 9.50794e-18
4490.78595 1.01726e-17
4492.85839 9.92947e-18
4494.93082 9.45193e-18
4497.01342 8.95830e-18
4499.08585 8.57358e-18
4501.16845 9.16197e-18
4503.24088 9.29794e-18
4505.31332 9.11048e-18
4507.39592 9.83966e-18
4509.46835 1.05612e-17
4511.55095 1.07897e-17
4513.62338 1.02681e-17
4515.69582 9.89411e-18
4517.77841 1.02545e-17
4519.85085 1.10465e-17
4521.93344 1.13664e-17
4524.00588 1.11229e-17
4526.07832 1.11615e-17
4528.16091 1.10801e-17
4530.23335 1.14440e-17
4532.30578 1.15913e-17
4534.38838 1.10942e-17
4536.46081 1.12409e-17
4538.54341 1.17778e-17
4540.61585 1.15884e-17
4542.68828 1.15994e-17
4544.77088 1.26958e-17
4546.84331 1.28621e-17
4548.92591 1.25918e-17
4550.99834 1.28943e-17
4553.07078 1.32329e-17
4555.15337 1.32261e-17
4557.22581 1.31464e-17
4559.30840 1.35351e-17
4561.38084 1.39088e-17
4563.45328 1.38891e-17
4565.53587 1.38561e-17
4567.60831 1.36973e-17
4569.69090 1.32140e-17
4571.76334 1.27855e-17
4573.83578 1.32156e-17
4575.91837 1.45137e-17
4577.99081 1.56777e-17
4580.06324 1.56316e-17
4582.14584 1.53237e-17
4584.21827 1.57610e-17
4586.30087 1.56779e-17
4588.37330 1.52471e-17
4590.44574 1.49755e-17
4592.52833 1.47656e-17
4594.60077 1.48773e-17
4596.68337 1.52151e-17
4598.75580 1.51839e-17
4600.82824 1.46230e-17
4602.91083 1.46405e-17
4604.98327 1.48331e-17
4607.06586 1.45826e-17
4609.13830 1.43212e-17
4611.21074 1.43088e-17
4613.29333 1.50640e-17
4615.36577 1.57131e-17
4617.44836 1.51600e-17
4619.52080 1.46406e-17
4621.59323 1.53299e-17
4623.67583 1.56738e-17
4625.74827 1.55299e-17
4627.83086 1.52218e-17
4629.90330 1.43454e-17
4631.97573 1.44006e-17
4634.05833 1.48125e-17
4636.13076 1.52802e-17
4638.20320 1.51355e-17
4640.28579 1.49692e-17
4642.35823 1.49386e-17
4644.44082 1.42818e-17
4646.51326 1.36772e-17
4648.58570 1.35720e-17
4650.66829 1.35856e-17
4652.74073 1.37480e-17
4654.82332 1.38350e-17
4656.89576 1.37257e-17
4658.96820 1.34342e-17
4661.05079 1.31118e-17
4663.12323 1.35029e-17
4665.20582 1.36614e-17
4667.27826 1.35180e-17
4669.35069 1.35926e-17
4671.43329 1.33714e-17
4673.50572 1.32599e-17
4675.58832 1.35332e-17
4677.66075 1.35056e-17
4679.73319 1.29240e-17
4681.81579 1.28528e-17
4683.88822 1.33478e-17
4685.96066 1.30952e-17
4688.04325 1.27524e-17
4690.11569 1.25433e-17
4692.19828 1.23302e-17
4694.27072 1.23602e-17
4696.34316 1.20656e-17
4698.42575 1.16064e-17
4700.49819 1.16030e-17
4702.58078 1.18936e-17
4704.65322 1.21979e-17
4706.72565 1.21942e-17
4708.80825 1.18727e-17
4710.88069 1.12733e-17
4712.96328 1.06115e-17
4715.03572 1.05578e-17
4717.10815 1.15981e-17
4719.19075 1.21474e-17
4721.26318 1.15284e-17
4723.34578 1.12532e-17
4725.41821 1.15595e-17
4727.49065 1.15294e-17
4729.57325 1.15753e-17
4731.64568 1.18509e-17
4733.71812 1.16326e-17
4735.80071 1.09559e-17
4737.87315 1.02958e-17
4739.95574 1.00507e-17
4742.02818 1.01303e-17
4744.10062 1.03288e-17
4746.18321 1.10417e-17
4748.25565 1.14799e-17
4750.33824 1.12482e-17
4752.41068 1.14094e-17
4754.48311 1.13175e-17
4756.56571 1.07140e-17
4758.63814 1.02251e-17
4760.72074 1.04169e-17
4762.79317 1.11376e-17
4764.86561 1.13072e-17
4766.94821 1.08543e-17
4769.02064 1.07115e-17
4771.10324 1.05991e-17
4773.17567 1.03235e-17
4775.24811 1.04304e-17
4777.33070 1.07037e-17
4779.40314 1.06718e-17
4781.47558 1.06118e-17
4783.55817 1.06982e-17
4785.63061 1.02831e-17
4787.71320 9.55910e-18
4789.78564 9.62503e-18
4791.85807 1.01467e-17
4793.94067 1.04739e-17
4796.01310 1.02600e-17
4798.09570 1.01636e-17
4800.16814 1.02178e-17
4802.24057 1.04834e-17
4804.32317 1.10304e-17
4806.39560 1.09857e-17
4808.47820 1.07679e-17
4810.55063 1.04880e-17
4812.62307 1.03699e-17
4814.70567 1.02697e-17
4816.77810 1.01501e-17
4818.86070 1.05970e-17
4820.93313 1.07875e-17
4823.00557 1.04083e-17
4825.08816 1.00440e-17
4827.16060 9.79905e-18
4829.24319 1.00921e-17
4831.31563 1.05015e-17
4833.38807 1.03639e-17
4835.47066 1.04295e-17
4837.54310 1.04879e-17
4839.61553 9.79346e-18
4841.69813 9.47616e-18
4843.77056 9.93769e-18
4845.85316 1.03569e-17
4847.92560 1.02512e-17
4849.99803 1.10138e-17
4852.08063 1.14312e-17
4854.15306 1.05876e-17
4856.23566 1.02403e-17
4858.30809 1.05451e-17
4860.38053 1.04688e-17
4862.46312 1.02719e-17
4864.53556 1.04525e-17
4866.61816 1.06064e-17
4868.69059 9.97597e-18
4870.76303 9.42526e-18
4872.84562 9.71982e-18
4874.91806 9.76797e-18
4877.00065 9.72073e-18
4879.07309 9.85282e-18
4881.14552 9.95310e-18
4883.22812 1.04025e-17
4885.30056 1.06024e-17
4887.37299 1.05909e-17
4889.45559 1.07907e-17
4891.52802 1.09135e-17
4893.61062 1.08644e-17
4895.68305 1.08762e-17
4897.75549 1.07500e-17
4899.83808 1.05561e-17
4901.91052 1.07020e-17
4903.99312 1.15460e-17
4906.06555 1.16931e-17
4908.13799 1.08626e-17
4910.22058 1.09728e-17
4912.29302 1.17242e-17
4914.37561 1.14803e-17
4916.44805 1.08227e-17
4918.52049 1.06000e-17
4920.60308 1.06074e-17
4922.67552 1.06149e-17
4924.75811 1.06224e-17
4926.83055 1.06299e-17
4928.90298 1.06373e-17
4930.98558 1.06448e-17
4933.05802 1.06523e-17
4935.13045 1.06598e-17
4937.21305 1.06672e-17
4939.28548 1.06747e-17
4941.36808 1.06822e-17
4943.44051 1.06896e-17
4945.51295 1.06971e-17
4947.59554 1.07046e-17
4949.66798 1.07120e-17
4951.75058 1.07195e-17
4953.82301 1.07270e-17
4955.89545 1.07345e-17
4957.97804 1.07419e-17
4960.05048 1.11641e-17
4962.13307 1.13912e-17
4964.20551 1.13355e-17
4966.27795 1.09099e-17
4968.36054 1.07927e-17
4970.43298 1.10765e-17
4972.51557 1.09614e-17
4974.58801 1.09896e-17
4976.66044 1.08121e-17
4978.74304 1.07888e-17
4980.81547 1.10272e-17
4982.88791 1.10262e-17
4984.97051 1.05138e-17
4987.04294 1.05810e-17
4989.12554 1.09735e-17
4991.19797 1.09185e-17
4993.27041 1.02896e-17
4995.35300 9.72821e-18
4997.42544 9.36442e-18
4999.50803 9.52755e-18
5001.58047 1.02982e-17
5003.65291 1.07252e-17
5005.73550 1.05064e-17
5007.80794 9.95648e-18
5009.89053 1.00693e-17
5011.96297 1.03791e-17
5014.03540 1.00313e-17
5016.11800 9.54893e-18
5018.19043 9.27309e-18
5020.27303 9.28799e-18
5022.34547 9.30288e-18
5024.41790 9.31777e-18
5026.50050 9.33267e-18
5028.57293 9.34756e-18
5030.65553 9.36245e-18
5032.72796 9.37734e-18
5034.80040 9.39223e-18
5036.88299 9.40711e-18
5038.95543 9.42199e-18
5041.02787 9.43688e-18
5043.11046 9.45177e-18
5045.18290 9.46665e-18
5047.26549 9.48153e-18
5049.33793 9.49642e-18
5051.41037 9.51130e-18
5053.49296 9.52618e-18
5055.56540 9.54106e-18
5057.64799 9.55593e-18
5059.72043 9.47771e-18
5061.79286 9.03125e-18
5063.87546 9.18468e-18
5065.94789 9.69029e-18
5068.03049 9.84891e-18
5070.10293 9.90671e-18
5072.17536 9.96450e-18
5074.25796 1.00223e-17
5076.33039 1.00801e-17
5078.41299 1.01378e-17
5080.48542 1.01956e-17
5082.55786 1.02534e-17
5084.64045 1.03111e-17
5086.71289 1.03689e-17
5088.78533 1.04267e-17
5090.86792 1.04844e-17
5092.94036 1.05422e-17
5095.02295 1.05999e-17
5097.09539 1.06576e-17
5099.16782 1.07154e-17
5101.25042 1.07731e-17
5103.32286 1.08308e-17
5105.40545 1.08886e-17
5107.47789 1.05821e-17
5109.55032 1.04349e-17
5111.63292 1.06869e-17
5113.70535 1.06500e-17
5115.78795 1.07502e-17
5117.86038 1.10537e-17
5119.93282 1.14414e-17
5122.01542 1.13896e-17
5124.08785 1.12479e-17
5126.17045 1.16248e-17
5128.24288 1.19433e-17
5130.31532 1.19547e-17
5132.39791 1.17033e-17
5134.47035 1.11566e-17
5136.54278 1.09904e-17
5138.62538 1.11143e-17
5140.69782 1.07502e-17
5142.78041 1.01205e-17
5144.85285 1.03576e-17
5146.92528 1.10524e-17
5149.00788 1.12095e-17
5151.08031 1.10167e-17
5153.16291 1.09069e-17
5155.23535 1.07452e-17
5157.30778 1.07529e-17
5159.39038 1.11159e-17
5161.46281 1.15473e-17
5163.54541 1.18207e-17
5165.61784 1.20230e-17
5167.69028 1.20322e-17
5169.77287 1.19798e-17
5171.84531 1.20318e-17
5173.92790 1.21746e-17
5176.00034 1.24750e-17
5178.07278 1.27621e-17
5180.15537 1.28824e-17
5182.22781 1.26975e-17
5184.30024 1.20341e-17
5186.38284 1.15880e-17
5188.45528 1.19283e-17
5190.53787 1.25705e-17
5192.61031 1.29508e-17
5194.68274 1.33364e-17
5196.76534 1.35413e-17
5198.83777 1.32775e-17
5200.92037 1.32233e-17
5202.99280 1.35318e-17
5205.06524 1.36038e-17
5207.14783 1.37287e-17
5209.22027 1.36868e-17
5211.30287 1.34717e-17
5213.37530 1.34798e-17
5215.44774 1.32014e-17
5217.53033 1.28043e-17
5219.60277 1.31597e-17
5221.68536 1.36238e-17
5223.75780 1.35855e-17
5225.83024 1.39264e-17
5227.91283 1.44905e-17
5229.98527 1.42317e-17
5232.06786 1.39445e-17
5234.14030 1.40621e-17
5236.21273 1.40863e-17
5238.29533 1.39775e-17
5240.36777 1.41961e-17
5242.44020 1.45441e-17
5244.52280 1.46417e-17
5246.59523 1.45890e-17
5248.67783 1.45891e-17
5250.75026 1.48168e-17
5252.82270 1.50897e-17
5254.90529 1.50927e-17
5256.97773 1.49183e-17
5259.06033 1.49824e-17
5261.13276 1.51876e-17
5263.20520 1.52200e-17
5265.28779 1.54491e-17
5267.36023 1.58009e-17
5269.44282 1.54468e-17
5271.51526 1.47066e-17
5273.58770 1.44448e-17
5275.67029 1.45102e-17
5277.74273 1.47167e-17
5279.82532 1.49272e-17
5281.89776 1.48583e-17
5283.97019 1.47690e-17
5286.05279 1.51972e-17
5288.12522 1.56832e-17
5290.19766 1.57440e-17
5292.28025 1.58061e-17
5294.35269 1.57131e-17
5296.43529 1.53734e-17
5298.50772 1.52083e-17
5300.58016 1.54862e-17
5302.66275 1.57367e-17
5304.73519 1.54705e-17
5306.81778 1.52299e-17
5308.89022 1.54123e-17
5310.96266 1.54580e-17
5313.04525 1.53252e-17
5315.11769 1.56946e-17
5317.20028 1.65237e-17
5319.27272 1.66803e-17
5321.34515 1.60274e-17
5323.42775 1.57991e-17
5325.50018 1.59589e-17
5327.58278 1.61271e-17
5329.65522 1.63601e-17
5331.72765 1.62530e-17
5333.81025 1.57614e-17
5335.88268 1.53120e-17
5337.95512 1.53731e-17
5340.03771 1.59355e-17
5342.11015 1.62054e-17
5344.19275 1.55389e-17
5346.26518 1.48621e-17
5348.33762 1.52385e-17
5350.42021 1.59510e-17
5352.49265 1.59267e-17
5354.57524 1.56297e-17
5356.64768 1.58474e-17
5358.72012 1.58416e-17
5360.80271 1.53787e-17
5362.87515 1.54619e-17
5364.95774 1.58928e-17
5367.03018 1.58979e-17
5369.10261 1.55707e-17
5371.18521 1.53491e-17
5373.25764 1.51525e-17
5375.34024 1.49285e-17
5377.41268 1.52173e-17
5379.48511 1.57813e-17
5381.56771 1.56771e-17
5383.64014 1.52153e-17
5385.71258 1.54755e-17
5387.79517 1.60859e-17
5389.86761 1.62635e-17
5391.95020 1.64792e-17
5394.02264 1.66809e-17
5396.09508 1.63672e-17
5398.17767 1.60998e-17
5400.25011 1.60023e-17
5402.33270 1.57894e-17
5404.40514 1.55629e-17
5406.47757 1.57512e-17
5408.56017 1.60371e-17
5410.63260 1.64216e-17
5412.71520 1.63719e-17
5414.78764 1.57653e-17
5416.86007 1.56365e-17
5418.94267 1.59289e-17
5421.01510 1.58740e-17
5423.09770 1.59067e-17
5425.17013 1.65326e-17
5427.24257 1.69585e-17
5429.32517 1.66413e-17
5431.39760 1.60202e-17
5433.48020 1.58701e-17
5435.55263 1.60902e-17
5437.62507 1.63195e-17
5439.70766 1.64285e-17
5441.78010 1.60587e-17
5443.85253 1.58754e-17
5445.93513 1.59241e-17
5448.00757 1.56167e-17
5450.09016 1.55745e-17
5452.16260 1.58282e-17
5454.23503 1.55693e-17
5456.31763 1.52489e-17
5458.39006 1.55236e-17
5460.47266 1.60373e-17
5462.54510 1.63091e-17
5464.61753 1.64074e-17
5466.70013 1.64104e-17
5468.77256 1.64963e-17
5470.85516 1.66218e-17
5472.92759 1.65431e-17
5475.00003 1.66198e-17
5477.08262 1.66378e-17
5479.15506 1.59240e-17
5481.23765 1.52981e-17
5483.31009 1.54892e-17
5485.38253 1.56628e-17
5487.46512 1.56345e-17
5489.53756 1.57871e-17
5491.60999 1.57222e-17
5493.69259 1.53888e-17
5495.76502 1.51619e-17
5497.84762 1.50393e-17
5499.92006 1.49109e-17
5501.99249 1.52646e-17
5504.07509 1.54955e-17
5506.14752 1.53764e-17
5508.23012 1.51914e-17
5510.30255 1.49979e-17
5512.37499 1.45417e-17
5514.45759 1.47041e-17
5516.53002 1.54807e-17
5518.61262 1.59000e-17
5520.68505 1.57231e-17
5522.75749 1.53735e-17
5524.84008 1.57080e-17
5526.91252 1.63226e-17
5528.99511 1.58025e-17
5531.06755 1.49024e-17
5533.13999 1.48612e-17
5535.22258 1.51177e-17
5537.29502 1.49702e-17
5539.36745 1.49011e-17
5541.45005 1.46518e-17
5543.52248 1.46032e-17
5545.60508 1.45507e-17
5547.67752 1.44318e-17
5549.74995 1.48622e-17
5551.83255 1.52368e-17
5553.90498 1.49031e-17
5555.98758 1.48138e-17
5558.06001 1.47813e-17
5560.13245 1.47419e-17
5562.21504 1.52094e-17
5564.28748 1.55795e-17
5566.37007 1.55102e-17
5568.44251 1.54295e-17
5570.51495 1.52165e-17
5572.59754 1.46942e-17
5574.66998 1.45176e-17
5576.75257 1.52634e-17
5578.82501 1.58583e-17
5580.89745 1.53148e-17
5582.98004 1.48146e-17
5585.05248 1.46759e-17
5587.12491 1.49719e-17
5589.20751 1.54363e-17
5591.27994 1.52152e-17
5593.36254 1.49921e-17
5595.43497 1.46558e-17
5597.50741 1.47043e-17
5599.59001 1.51566e-17
5601.66244 1.54890e-17
5603.74504 1.54161e-17
5605.81747 1.50978e-17
5607.88991 1.49264e-17
5609.97250 1.50003e-17
5612.04494 1.51252e-17
5614.12753 1.51556e-17
5616.19997 1.50504e-17
5618.27241 1.48575e-17
5620.35500 1.49309e-17
5622.42744 1.51803e-17
5624.51003 1.52359e-17
5626.58247 1.50613e-17
5628.65490 1.52491e-17
5630.73750 1.53126e-17
5632.80994 1.48246e-17
5634.89253 1.45842e-17
5636.96497 1.47264e-17
5639.03740 1.46125e-17
5641.12000 1.45189e-17
5643.19243 1.46597e-17
5645.26487 1.45033e-17
5647.34746 1.43203e-17
5649.41990 1.44058e-17
5651.50250 1.45303e-17
5653.57493 1.48161e-17
5655.64737 1.51011e-17
5657.72996 1.48679e-17
5659.80240 1.41455e-17
5661.88499 1.35315e-17
5663.95743 1.35389e-17
5666.02987 1.36569e-17
5668.11246 1.36097e-17
5670.18490 1.35939e-17
5672.26749 1.37006e-17
5674.33993 1.39277e-17
5676.41236 1.42157e-17
5678.49496 1.43561e-17
5680.56739 1.40606e-17
5682.64999 1.38055e-17
5684.72242 1.36009e-17
5686.79486 1.34600e-17
5688.87746 1.36456e-17
5690.94989 1.39868e-17
5693.02233 1.43151e-17
5695.10492 1.42778e-17
5697.17736 1.36142e-17
5699.25995 1.30178e-17
5701.33239 1.32018e-17
5703.40483 1.35524e-17
5705.48742 1.31985e-17
5707.55986 1.29265e-17
5709.64245 1.31211e-17
5711.71489 1.30935e-17
5713.78732 1.29955e-17
5715.86992 1.27523e-17
5717.94236 1.25006e-17
5720.02495 1.26012e-17
5722.09739 1.28252e-17
5724.16982 1.28783e-17
5726.25242 1.25263e-17
5728.32485 1.21233e-17
5730.40745 1.22828e-17
5732.47988 1.26492e-17
5734.55232 1.26153e-17
5736.63492 1.23798e-17
5738.70735 1.23938e-17
5740.77979 1.27150e-17
5742.86238 1.29490e-17
5744.93482 1.29580e-17
5747.01741 1.30649e-17
5749.08985 1.33490e-17
5751.16228 1.37910e-17
5753.24488 1.34904e-17
5755.31732 1.23142e-17
5757.39991 1.19853e-17
5759.47235 1.25415e-17
5761.54478 1.33996e-17
5763.62738 1.38586e-17
5765.69981 1.38548e-17
5767.78241 1.42183e-17
5769.85485 1.44246e-17
5771.92728 1.43675e-17
5774.00988 1.43115e-17
5776.08231 1.36979e-17
5778.16491 1.31561e-17
5780.23734 1.34702e-17
5782.30978 1.38328e-17
5784.39237 1.37044e-17
5786.46481 1.38658e-17
5788.53725 1.45458e-17
5790.61984 1.46964e-17
5792.69228 1.43485e-17
5794.77487 1.44794e-17
5796.84731 1.46754e-17
5798.91974 1.45894e-17
5801.00234 1.44737e-17
5803.07478 1.44033e-17
5805.15737 1.42944e-17
5807.22981 1.40460e-17
5809.30224 1.38535e-17
5811.38484 1.37180e-17
5813.45727 1.34846e-17
5815.53987 1.30312e-17
5817.61230 1.30581e-17
5819.68474 1.34092e-17
5821.76733 1.35600e-17
5823.83977 1.36064e-17
5825.92237 1.36201e-17
5827.99480 1.38387e-17
5830.06724 1.41248e-17
5832.14983 1.40570e-17
5834.22227 1.38630e-17
5836.30486 1.35058e-17
5838.37730 1.31467e-17
5840.44974 1.29629e-17
5842.53233 1.27251e-17
5844.60477 1.26844e-17
5846.67720 1.36567e-17
5848.75980 1.46168e-17
5850.83223 1.48361e-17
5852.91483 1.47146e-17
5854.98727 1.49148e-17
5857.05970 1.46210e-17
5859.14230 1.38911e-17
5861.21473 1.35058e-17
5863.29733 1.35279e-17
5865.36976 1.38830e-17
5867.44220 1.42366e-17
5869.52479 1.41533e-17
5871.59723 1.37200e-17
5873.67983 1.32519e-17
5875.75226 1.30616e-17
5877.82470 1.31820e-17
5879.90729 1.35651e-17
5881.97973 1.41018e-17
5884.06232 1.39227e-17
5886.13476 1.33193e-17
5888.20719 1.26297e-17
5890.28979 1.24633e-17
5892.36223 1.29413e-17
5894.43466 1.37186e-17
5896.51726 1.41399e-17
5898.58969 1.39123e-17
5900.67229 1.33352e-17
5902.74472 1.29778e-17
5904.81716 1.32602e-17
5906.89976 1.38991e-17
5908.97219 1.42396e-17
5911.05479 1.38109e-17
5913.12722 1.34512e-17
5915.19966 1.38139e-17
5917.28225 1.37258e-17
5919.35469 1.30851e-17
5921.43728 1.29798e-17
5923.50972 1.30722e-17
5925.58216 1.32322e-17
5927.66475 1.35210e-17
5929.73719 1.32741e-17
5931.81978 1.30073e-17
5933.89222 1.26557e-17
5935.96465 1.27365e-17
5938.04725 1.33842e-17
5940.11968 1.32103e-17
5942.19212 1.21737e-17
5944.27472 1.13698e-17
5946.34715 1.12796e-17
5948.42975 1.18752e-17
5950.50218 1.22450e-17
5952.57462 1.23651e-17
5954.65721 1.27094e-17
5956.72965 1.29312e-17
5958.81225 1.30848e-17
5960.88468 1.31729e-17
5962.95712 1.27248e-17
5965.03971 1.22286e-17
5967.11215 1.22650e-17
5969.19474 1.24702e-17
5971.26718 1.27949e-17
5973.33962 1.30599e-17
5975.42221 1.26377e-17
5977.49465 1.23899e-17
5979.57724 1.19306e-17
5981.64968 1.13621e-17
5983.72211 1.11011e-17
5985.80471 1.04766e-17
5987.87714 1.00586e-17
5989.95974 1.02460e-17
5992.03218 1.04496e-17
5994.10461 1.06629e-17
5996.18721 1.11045e-17
5998.25964 1.13954e-17
6000.33208 1.17287e-17
6002.41467 1.19936e-17
6004.48711 1.17954e-17
6006.56970 1.20256e-17
6008.64214 1.21291e-17
6010.71458 1.17776e-17
6012.79717 1.17376e-17
6014.86961 1.20576e-17
6016.95220 1.22826e-17
6019.02464 1.25412e-17
6021.09707 1.31397e-17
6023.17967 1.32647e-17
6025.25210 1.26609e-17
6027.33470 1.22639e-17
6029.40714 1.20672e-17
6031.47957 1.21244e-17
6033.56217 1.28967e-17
6035.63460 1.33409e-17
6037.71720 1.29121e-17
6039.78963 1.23379e-17
6041.86207 1.24599e-17
6043.94467 1.28481e-17
6046.01710 1.26817e-17
6048.08954 1.27238e-17
6050.17213 1.31620e-17
6052.24457 1.31624e-17
6054.32716 1.28023e-17
6056.39960 1.27159e-17
6058.47203 1.30385e-17
6060.55463 1.32412e-17
6062.62707 1.28394e-17
6064.70966 1.24180e-17
6066.78210 1.24510e-17
6068.85453 1.25101e-17
6070.93713 1.23937e-17
6073.00956 1.23662e-17
6075.09216 1.25577e-17
6077.16460 1.24168e-17
6079.23703 1.20861e-17
6081.31963 1.25298e-17
6083.39206 1.29110e-17
6085.47466 1.27151e-17
6087.54709 1.26805e-17
6089.61953 1.24595e-17
6091.70212 1.23541e-17
6093.77456 1.27157e-17
6095.84700 1.28662e-17
6097.92959 1.30122e-17
6100.00203 1.32057e-17
6102.08462 1.32044e-17
6104.15706 1.29925e-17
6106.22949 1.27807e-17
6108.31209 1.28002e-17
6110.38453 1.30431e-17
6112.46712 1.33166e-17
6114.53956 1.34566e-17
6116.61199 1.30523e-17
6118.69459 1.25342e-17
6120.76702 1.24764e-17
6122.84962 1.30599e-17
6124.92205 1.32629e-17
6126.99449 1.35443e-17
6129.07708 1.31625e-17
6131.14952 1.29385e-17
6133.23212 1.23030e-17
6135.30455 1.23635e-17
6137.37699 1.26211e-17
6139.45958 1.25326e-17
6141.53202 1.22613e-17
6143.60445 1.22532e-17
6145.68705 1.24414e-17
6147.75949 1.26013e-17
6149.84208 1.25480e-17
6151.91452 1.24396e-17
6153.98695 1.18896e-17
6156.06955 1.09838e-17
6158.14198 1.06568e-17
6160.22458 1.12577e-17
6162.29702 1.19245e-17
6164.36945 1.22042e-17
6166.45205 1.18522e-17
6168.52448 1.13805e-17
6170.60708 1.13820e-17
6172.67951 1.13490e-17
6174.75195 1.10752e-17
6176.83454 1.09714e-17
6178.90698 1.07840e-17
6180.98958 1.04921e-17
6183.06201 1.02867e-17
6185.13445 1.02302e-17
6187.21704 1.04202e-17
6189.28948 1.06657e-17
6191.37207 1.08973e-17
6193.44451 1.08947e-17
6195.51695 1.06782e-17
6197.59954 1.06640e-17
6199.67198 1.07087e-17
6201.74441 1.02618e-17
6203.82701 9.98701e-18
6205.89944 1.03469e-17
6207.98204 1.02618e-17
6210.05447 1.01479e-17
6212.12691 1.02423e-17
6214.20950 1.01781e-17
6216.28194 1.00601e-17
6218.36454 9.84422e-18
6220.43697 1.00121e-17
6222.50941 1.07125e-17
6224.59200 1.10064e-17
6226.66444 1.06364e-17
6228.74703 1.01778e-17
6230.81947 9.74529e-18
6232.89191 9.91079e-18
6234.97450 1.01970e-17
6237.04694 1.03687e-17
6239.12953 1.05868e-17
6241.20197 1.06260e-17
6243.27440 1.04608e-17
6245.35700 1.02302e-17
6247.42944 1.03353e-17
6249.50187 1.04016e-17
6251.58447 1.05875e-17
6253.65690 1.08362e-17
6255.73950 1.04506e-17
6257.81193 1.00283e-17
6259.88437 1.00359e-17
6261.96696 1.00520e-17
6264.03940 1.03002e-17
6266.12200 1.05850e-17
6268.19443 1.07682e-17
6270.26687 1.07728e-17
6272.34946 1.02724e-17
6274.42190 1.02771e-17
6276.50449 1.05615e-17
6278.57693 1.01272e-17
6280.64937 9.83132e-18
6282.73196 1.01669e-17
6284.80440 1.03690e-17
6286.88699 1.01729e-17
6288.95943 1.00743e-17
6291.03186 1.05302e-17
6293.11446 1.09416e-17
6295.18689 1.12514e-17
6297.25933 1.14828e-17
6299.34192 1.11746e-17
6301.41436 1.09902e-17
6303.49696 1.09354e-17
6305.56939 1.06823e-17
6307.64183 1.09373e-17
6309.72442 1.15741e-17
6311.79686 1.15184e-17
6313.87945 1.12622e-17
6315.95189 1.16708e-17
6318.02433 1.21362e-17
6320.10692 1.21982e-17
6322.17936 1.23943e-17
6324.26195 1.24929e-17
6326.33439 1.22700e-17
6328.40682 1.19845e-17
6330.48942 1.17683e-17
6332.56185 1.18983e-17
6334.64445 1.20246e-17
6336.71689 1.20917e-17
6338.78932 1.24016e-17
6340.87192 1.25573e-17
6342.94435 1.25769e-17
6345.01679 1.26812e-17
6347.09938 1.25708e-17
6349.17182 1.24985e-17
6351.25442 1.24060e-17
6353.32685 1.23672e-17
6355.39929 1.25185e-17
6357.48188 1.28191e-17
6359.55432 1.30017e-17
6361.63691 1.29900e-17
6363.70935 1.30348e-17
6365.78179 1.32516e-17
6367.86438 1.31008e-17
6369.93682 1.29408e-17
6372.01941 1.28713e-17
6374.09185 1.26343e-17
6376.16428 1.25181e-17
6378.24688 1.25471e-17
6380.31931 1.23809e-17
6382.40191 1.22947e-17
6384.47435 1.24295e-17
6386.54678 1.26439e-17
6388.62938 1.27980e-17
6390.70181 1.28606e-17
6392.78441 1.31715e-17
6394.85684 1.32096e-17
6396.92928 1.29805e-17
6399.01187 1.29913e-17
6401.08431 1.28621e-17
6403.15675 1.28989e-17
6405.23934 1.31990e-17
6407.31178 1.33525e-17
6409.39437 1.28463e-17
6411.46681 1.21568e-17
6413.53924 1.20890e-17
6415.62184 1.24303e-17
6417.69427 1.24770e-17
6419.77687 1.24363e-17
6421.84931 1.26478e-17
6423.92174 1.30732e-17
6426.00434 1.31077e-17
6428.07677 1.27620e-17
6430.15937 1.25524e-17
6432.23180 1.26797e-17
6434.30424 1.28560e-17
6436.38683 1.26485e-17
6438.45927 1.22811e-17
6440.53171 1.24138e-17
6442.61430 1.28390e-17
6444.68674 1.29511e-17
6446.76933 1.27375e-17
6448.84177 1.26943e-17
6450.91421 1.27078e-17
6452.99680 1.25680e-17
6455.06924 1.23518e-17
6457.15183 1.25699e-17
6459.22427 1.28258e-17
6461.29670 1.24945e-17
6463.37930 1.24467e-17
6465.45173 1.26838e-17
6467.53433 1.28555e-17
6469.60677 1.26558e-17
6471.67920 1.24765e-17
6473.76180 1.24152e-17
6475.83423 1.23798e-17
6477.91683 1.24356e-17
6479.98926 1.26960e-17
6482.06170 1.30903e-17
6484.14429 1.30199e-17
6486.21673 1.28823e-17
6488.29932 1.26900e-17
6490.37176 1.27532e-17
6492.44420 1.29395e-17
6494.52679 1.28472e-17
6496.59923 1.25977e-17
6498.67166 1.27841e-17
6500.75426 1.32245e-17
6502.82670 1.29790e-17
6504.90929 1.28285e-17
6506.98173 1.27018e-17
6509.05416 1.29593e-17
6511.13676 1.33697e-17
6513.20919 1.35255e-17
6515.29179 1.32388e-17
6517.36422 1.29040e-17
6519.43666 1.28469e-17
6521.51926 1.29717e-17
6523.59169 1.28248e-17
6525.67429 1.27738e-17
6527.74672 1.28497e-17
6529.81916 1.29909e-17
6531.90175 1.33043e-17
6533.97419 1.33219e-17
6536.04662 1.31742e-17
6538.12922 1.32387e-17
6540.20166 1.34761e-17
6542.28425 1.36204e-17
6544.35669 1.32646e-17
6546.42912 1.28709e-17
6548.51172 1.27497e-17
6550.58415 1.29307e-17
6552.66675 1.32565e-17
6554.73918 1.35485e-17
6556.81162 1.34452e-17
6558.89422 1.31479e-17
6560.96665 1.32899e-17
6563.04925 1.31929e-17
6565.12168 1.28300e-17
6567.19412 1.26291e-17
6569.27671 1.27114e-17
6571.34915 1.29006e-17
6573.43175 1.29518e-17
6575.50418 1.32780e-17
6577.57662 1.30573e-17
6579.65921 1.28575e-17
6581.73165 1.32884e-17
6583.81424 1.31634e-17
6585.88668 1.29718e-17
6587.95912 1.28250e-17
6590.04171 1.30096e-17
6592.11415 1.33508e-17
6594.18658 1.33349e-17
6596.26918 1.30388e-17
6598.34161 1.29388e-17
6600.42421 1.28573e-17
6602.49664 1.25266e-17
6604.56908 1.24328e-17
6606.65168 1.27262e-17
6608.72411 1.29645e-17
6610.80671 1.27798e-17
6612.87914 1.27120e-17
6614.95158 1.27804e-17
6617.03417 1.29481e-17
6619.10661 1.27395e-17
6621.18920 1.23990e-17
6623.26164 1.21452e-17
6625.33408 1.22107e-17
6627.41667 1.22457e-17
6629.48911 1.22389e-17
6631.57170 1.23188e-17
6633.64414 1.26295e-17
6635.71657 1.28382e-17
6637.79917 1.28268e-17
6639.87161 1.28154e-17
6641.95420 1.28041e-17
6644.02664 1.27927e-17
6646.09907 1.27813e-17
6648.18167 1.27700e-17
6650.25410 1.27586e-17
6652.32654 1.27473e-17
6654.40913 1.27359e-17
6656.48157 1.27245e-17
6658.56417 1.27132e-17
6660.63660 1.27018e-17
6662.70904 1.26904e-17
6664.79163 1.26791e-17
6666.86407 1.26677e-17
6668.94666 1.26564e-17
6671.01910 1.26450e-17
6673.09153 1.26336e-17
6675.17413 1.26223e-17
6677.24657 1.26109e-17
6679.32916 1.25996e-17
6681.40160 1.25882e-17
6683.47403 1.25768e-17
6685.55663 1.25655e-17
6687.62906 1.25541e-17
6689.70150 1.25428e-17
6691.78409 1.25314e-17
6693.85653 1.25200e-17
6695.93913 1.25087e-17
6698.01156 1.24973e-17
6700.08400 1.24613e-17
6702.16659 1.24150e-17
6704.23903 1.23710e-17
6706.32162 1.23207e-17
6708.39406 1.21506e-17
6710.46650 1.19704e-17
6712.54909 1.16916e-17
6714.62153 1.17383e-17
6716.70412 1.19974e-17
6718.77656 1.20246e-17
6720.84899 1.19807e-17
6722.93159 1.21525e-17
6725.00403 1.20798e-17
6727.08662 1.17207e-17
6729.15906 1.17432e-17
6731.23149 1.19276e-17
6733.31409 1.22644e-17
6735.38652 1.26174e-17
6737.46912 1.23802e-17
6739.54155 1.21489e-17
6741.61399 1.19291e-17
6743.69658 1.17697e-17
6745.76902 1.19784e-17
6747.84146 1.21454e-17
6749.92405 1.20408e-17
6751.99649 1.18061e-17
6754.07908 1.19227e-17
6756.15152 1.23673e-17
6758.22396 1.27118e-17
6760.30655 1.25901e-17
6762.37899 1.24737e-17
6764.46158 1.23221e-17
6766.53402 1.20707e-17
6768.60645 1.19023e-17
6770.68905 1.18920e-17
6772.76148 1.16641e-17
6774.84408 1.11887e-17
6776.91652 1.11268e-17
6778.98895 1.14390e-17
6781.07155 1.15536e-17
6783.14398 1.15665e-17
6785.21642 1.17435e-17
6787.29901 1.17708e-17
6789.37145 1.17095e-17
6791.45404 1.14641e-17
6793.52648 1.11097e-17
6795.60908 1.10656e-17
6797.68151 1.14055e-17
6799.75395 1.16734e-17
6801.83654 1.14029e-17
6803.90898 1.11358e-17
6805.98141 1.11601e-17
6808.06401 1.14247e-17
6810.13645 1.16557e-17
6812.21904 1.16539e-17
6814.29148 1.14861e-17
6816.36391 1.12835e-17
6818.44651 1.09983e-17
6820.51894 1.12004e-17
6822.60154 1.16336e-17
6824.67397 1.17173e-17
6826.74641 1.14255e-17
6828.82900 1.15634e-17
6830.90144 1.14727e-17
6832.98404 1.12249e-17
6835.05647 1.10652e-17
6837.12891 1.09691e-17
6839.21150 1.12015e-17
6841.28394 1.14609e-17
6843.35638 1.13214e-17
6845.43897 1.12505e-17
6847.51141 1.11478e-17
6849.59400 1.13261e-17
6851.66644 1.14970e-17
6853.73887 1.12950e-17
6855.82147 1.09541e-17
6857.89390 1.09731e-17
6859.97650 1.10325e-17
6862.04893 1.10001e-17
6864.12137 1.11638e-17
6866.20397 1.11884e-17
6868.27640 1.08389e-17
6870.35900 1.09820e-17
6872.43143 1.14604e-17
6874.50387 1.14893e-17
6876.58646 1.11664e-17
6878.65890 1.07597e-17
6880.74150 1.08995e-17
6882.81393 1.11313e-17
6884.88637 1.08136e-17
6886.96896 1.04115e-17
6889.04140 1.03002e-17
6891.12399 1.08658e-17
6893.19643 1.16340e-17
6895.26887 1.17232e-17
6897.35146 1.15407e-17
6899.42390 1.08928e-17
6901.49633 1.05245e-17
6903.57893 1.03540e-17
6905.65136 1.02630e-17
6907.73396 1.04669e-17
6909.80639 1.08847e-17
6911.87883 1.09150e-17
6913.96143 1.05419e-17
6916.03386 1.07572e-17
6918.11646 1.12355e-17
6920.18889 1.12709e-17
6922.26133 1.10803e-17
6924.34392 1.13949e-17
6926.41636 1.15555e-17
6928.49895 1.14068e-17
6930.57139 1.13416e-17
6932.64383 1.11375e-17
6934.72642 1.07722e-17
6936.79886 1.08086e-17
6938.87129 1.11175e-17
6940.95389 1.13664e-17
6943.02632 1.12986e-17
6945.10892 1.14388e-17
6947.18135 1.12830e-17
6949.25379 1.08750e-17
6951.33639 1.06008e-17
6953.40882 1.04980e-17
6955.49142 1.06544e-17
6957.56385 1.08616e-17
6959.63629 1.10405e-17
6961.71888 1.10847e-17
6963.79132 1.10825e-17
6965.87392 1.08794e-17
6967.94635 1.09560e-17
6970.01879 1.10578e-17
6972.10138 1.08212e-17
6974.17382 1.07389e-17
6976.25641 1.11434e-17
6978.32885 1.11346e-17
6980.40128 1.07858e-17
6982.48388 1.05571e-17
6984.55632 1.05668e-17
6986.63891 1.05518e-17
6988.71135 1.05008e-17
6990.78378 1.06046e-17
6992.86638 1.07361e-17
6994.93881 1.08361e-17
6997.01125 1.07712e-17
6999.09385 1.07701e-17
7001.16628 1.05105e-17
7003.24888 1.03724e-17
7005.32131 1.01678e-17
7007.39375 1.00462e-17
7009.47634 9.85061e-18
7011.54878 9.89478e-18
7013.63137 1.01896e-17
7015.70381 1.00516e-17
7017.77625 1.00384e-17
7019.85884 1.01181e-17
7021.93128 1.00943e-17
7024.01387 9.96315e-18
7026.08631 9.95716e-18
7028.15874 1.00883e-17
7030.24134 1.02915e-17
7032.31378 1.03144e-17
7034.39637 1.00947e-17
7036.46881 1.00829e-17
7038.54124 1.01723e-17
7040.62384 1.02584e-17
7042.69627 1.04405e-17
7044.77887 1.06734e-17
7046.85130 1.08120e-17
7048.92374 1.05080e-17
7051.00634 1.02446e-17
7053.07877 1.01052e-17
7055.15121 1.00961e-17
7057.23380 1.01750e-17
7059.30624 1.03573e-17
7061.38883 1.05343e-17
7063.46127 1.03157e-17
7065.53370 1.00448e-17
7067.61630 9.95699e-18
7069.68874 1.01421e-17
7071.77133 1.02972e-17
7073.84377 1.03607e-17
7075.91620 1.03541e-17
7077.99880 1.02173e-17
7080.07123 1.01428e-17
7082.15383 1.03638e-17
7084.22627 1.05954e-17
7086.29870 1.07118e-17
7088.38130 1.08542e-17
7090.45373 1.05457e-17
7092.52617 1.01134e-17
7094.60876 1.01158e-17
7096.68120 1.00450e-17
7098.76379 9.86692e-18
7100.83623 9.74181e-18
7102.90867 9.63809e-18
7104.99126 9.89986e-18
7107.06370 1.01467e-17
7109.14629 1.00497e-17
7111.21873 1.00165e-17
7113.29116 1.02830e-17
7115.37376 1.03637e-17
7117.44620 1.01258e-17
7119.52879 1.00242e-17
7121.60123 1.01951e-17
7123.67366 1.04704e-17
7125.75626 1.08170e-17
7127.82869 1.06075e-17
7129.91129 1.02243e-17
7131.98372 1.00824e-17
7134.05616 9.93120e-18
7136.13875 1.01310e-17
7138.21119 1.01828e-17
7140.29379 1.01000e-17
7142.36622 1.02767e-17
7144.43866 1.05062e-17
7146.52125 1.02985e-17
7148.59369 9.84781e-18
7150.66612 9.93232e-18
7152.74872 1.01174e-17
7154.82116 1.04710e-17
7156.90375 1.05716e-17
7158.97619 1.02396e-17
7161.04862 9.98836e-18
7163.13122 9.87601e-18
7165.20365 1.00006e-17
7167.28625 1.00813e-17
7169.35869 1.02252e-17
7171.43112 1.04111e-17
7173.51372 1.05181e-17
7175.58615 1.04654e-17
7177.66875 1.03968e-17
7179.74118 1.08106e-17
7181.81362 1.08416e-17
7183.89621 1.04046e-17
7185.96865 1.04426e-17
7188.04109 1.08605e-17
7190.12368 1.07313e-17
7192.19612 1.02817e-17
7194.27871 1.07048e-17
7196.35115 1.10961e-17
7198.43374 1.08579e-17
7200.50618 1.08073e-17
7202.57862 1.09484e-17
7204.66121 1.07207e-17
7206.73365 1.06389e-17
7208.80608 1.08692e-17
7210.88868 1.10331e-17
7212.96111 1.09300e-17
7215.04371 1.06781e-17
7217.11614 1.05277e-17
7219.18858 1.05856e-17
7221.27117 1.07395e-17
7223.34361 1.06022e-17
7225.42621 1.03434e-17
7227.49864 1.01836e-17
7229.57108 1.03751e-17
7231.65367 1.03972e-17
7233.72611 1.01492e-17
7235.80870 1.03836e-17
7237.88114 1.02963e-17
7239.95358 9.70502e-18
7242.03617 9.84288e-18
7244.10861 1.03817e-17
7246.18104 1.05189e-17
7248.26364 1.09398e-17
7250.33607 1.09180e-17
7252.41867 1.03094e-17
7254.49111 1.02681e-17
7256.56354 1.03891e-17
7258.64614 1.01001e-17
7260.71857 1.02045e-17
7262.80117 1.04654e-17
7264.87360 1.05791e-17
7266.94604 1.08772e-17
7269.02863 1.13311e-17
7271.10107 1.14892e-17
7273.18367 1.08594e-17
7275.25610 1.01724e-17
7277.32854 1.00149e-17
7279.41113 1.00773e-17
7281.48357 1.02867e-17
7283.56616 1.05923e-17
7285.63860 1.05282e-17
7287.71104 9.76185e-18
7289.79363 9.40819e-18
7291.86607 9.76837e-18
7293.94866 1.00160e-17
7296.02110 1.01495e-17
7298.09353 1.01859e-17
7300.17613 1.02822e-17
7302.24856 1.06464e-17
7304.32100 1.08724e-17
7306.40360 1.07586e-17
7308.47603 1.06519e-17
7310.55863 1.04881e-17
7312.63106 1.02553e-17
7314.70350 1.02408e-17
7316.78609 9.79652e-18
7318.85853 9.73135e-18
7320.94112 1.01779e-17
7323.01356 1.02685e-17
7325.08600 1.00443e-17
7327.16859 9.87662e-18
7329.24103 9.99171e-18
7331.32362 1.04129e-17
7333.39606 1.04867e-17
7335.46849 1.05182e-17
7337.55109 1.09918e-17
7339.62352 1.13626e-17
7341.69596 1.08739e-17
7343.77856 1.00562e-17
7345.85099 1.00497e-17
7347.93359 1.00849e-17
7350.00602 9.69016e-18
7352.07846 9.59730e-18
7354.16105 9.96975e-18
7356.23349 1.02335e-17
7358.31608 1.03711e-17
7360.38852 1.04757e-17
7362.46096 1.03054e-17
7364.54355 1.02367e-17
7366.61599 1.02600e-17
7368.69858 1.00373e-17
7370.77102 9.96082e-18
7372.84346 1.02037e-17
7374.92605 1.02987e-17
7376.99849 1.01326e-17
7379.08108 9.96916e-18
7381.15352 9.76602e-18
7383.22595 9.87548e-18
7385.30855 1.02569e-17
7387.38098 1.02968e-17
7389.46358 1.04220e-17
7391.53602 1.07050e-17
7393.60845 1.06572e-17
7395.69105 1.02120e-17
7397.76348 9.92182e-18
7399.83592 1.02689e-17
7401.91851 1.04553e-17
7403.99095 1.00420e-17
7406.07354 9.88162e-18
7408.14598 9.99495e-18
7410.21842 9.78985e-18
7412.30101 9.53675e-18
7414.37345 9.67414e-18
7416.45604 9.93556e-18
7418.52848 9.86060e-18
7420.60091 9.70762e-18
7422.68351 9.84145e-18
7424.75595 1.01897e-17
7426.83854 1.00476e-17
7428.91098 9.56159e-18
7430.98341 9.51790e-18
7433.06601 9.76855e-18
7435.13844 9.73816e-18
7437.22104 9.58814e-18
7439.29347 9.65622e-18
7441.36591 9.85909e-18
7443.44851 9.81268e-18
7445.52094 9.41022e-18
7447.60354 9.17793e-18
7449.67597 9.66835e-18
7451.74841 9.90089e-18
7453.83100 9.53102e-18
7455.90344 9.26388e-18
7457.97588 9.34975e-18
7460.05847 9.50084e-18
7462.13091 9.38915e-18
7464.21350 9.26722e-18
7466.28594 9.18823e-18
7468.35837 8.83310e-18
7470.44097 8.82830e-18
7472.51340 9.17950e-18
7474.59600 9.21607e-18
7476.66843 8.64142e-18
7478.74087 8.25221e-18
7480.82347 7.99193e-18
7482.89590 7.75233e-18
7484.97850 7.59405e-18
7487.05093 7.63340e-18
7489.12337 7.97851e-18
7491.20596 8.70653e-18
7493.27840 8.97406e-18
7495.35084 8.64190e-18
7497.43343 8.08542e-18
7499.50587 7.90923e-18
7501.58846 8.08579e-18
7503.66090 8.20317e-18
7505.73333 8.06941e-18
7507.81593 8.12048e-18
7509.88837 7.93140e-18
7511.97096 7.78074e-18
7514.04340 7.77320e-18
7516.11583 7.57994e-18
7518.19843 7.42213e-18
7520.27086 7.16932e-18
7522.35346 6.80419e-18
7524.42589 6.91858e-18
7526.49833 7.22188e-18
7528.58093 7.60651e-18
7530.65336 7.68749e-18
7532.73596 7.44055e-18
7534.80839 7.19530e-18
7536.88083 7.12977e-18
7538.96342 6.98100e-18
7541.03586 6.58038e-18
7543.11845 6.64394e-18
7545.19089 6.55477e-18
7547.26333 6.54836e-18
7549.34592 6.86394e-18
7551.41836 6.85592e-18
7553.49079 6.78823e-18
7555.57339 7.00636e-18
7557.64582 7.01097e-18
7559.72842 6.88320e-18
7561.80086 7.10247e-18
7563.87329 7.40336e-18
7565.95589 7.53692e-18
7568.02832 7.47102e-18
7570.11092 7.38603e-18
7572.18335 7.30326e-18
7574.25579 7.10803e-18
7576.33838 7.13101e-18
7578.41082 7.32125e-18
7580.49342 7.10069e-18
7582.56585 6.69398e-18
7584.63829 6.52354e-18
7586.72088 6.59772e-18
7588.79332 6.72172e-18
7590.86575 6.61249e-18
7592.94835 6.53123e-18
7595.02078 6.73846e-18
7597.10338 6.81439e-18
7599.17582 6.58025e-18
7601.25841 6.17753e-18
7603.33085 5.74967e-18
7605.40328 5.65739e-18
7607.48588 5.62866e-18
7609.55831 5.75862e-18
7611.63075 6.13654e-18
7613.71335 5.99906e-18
7615.78578 5.97069e-18
7617.86838 6.31324e-18
7619.94081 6.45270e-18
7622.01325 6.03664e-18
7624.09584 5.89641e-18
7626.16828 6.13529e-18
7628.25087 6.04206e-18
7630.32331 5.72654e-18
7632.39575 6.07549e-18
7634.47834 6.24685e-18
7636.55078 6.37831e-18
7638.63337 6.67686e-18
7640.70581 6.63210e-18
7642.77824 6.35743e-18
7644.86084 6.29549e-18
7646.93328 6.46250e-18
7649.00571 6.56310e-18
7651.08831 6.81593e-18
7653.16074 6.78256e-18
7655.24334 6.93063e-18
7657.31577 7.30474e-18
7659.38821 7.25699e-18
7661.47080 7.13350e-18
7663.54324 7.18055e-18
7665.62583 7.46826e-18
7667.69827 7.88555e-18
7669.77071 7.98206e-18
7671.85330 8.00104e-18
7673.92574 8.08977e-18
7676.00833 8.05902e-18
7678.08077 7.87947e-18
7680.15320 8.26590e-18
7682.23580 8.65949e-18
7684.30824 8.28906e-18
7686.39083 7.91126e-18
7688.46327 7.90706e-18
7690.53570 7.94223e-18
7692.61830 7.91069e-18
7694.69073 7.99939e-18
7696.77333 8.26611e-18
7698.84577 8.27352e-18
7700.91820 8.27936e-18
7703.00080 8.26648e-18
7705.07323 8.35045e-18
7707.14567 8.42365e-18
7709.22826 8.68587e-18
7711.30070 8.63951e-18
7713.38329 8.57203e-18
7715.45573 8.94367e-18
7717.52817 9.33331e-18
7719.61076 9.17127e-18
7721.68320 9.01915e-18
7723.76579 9.15129e-18
7725.83823 9.21495e-18
7727.91066 9.19538e-18
7729.99326 8.83585e-18
7732.06570 8.52096e-18
7734.14829 8.57809e-18
7736.22073 8.43604e-18
7738.29316 8.70269e-18
7740.37576 9.52607e-18
7742.44819 9.70669e-18
7744.52063 9.83828e-18
7746.60322 1.03575e-17
7748.67566 1.04872e-17
7750.75825 1.01326e-17
7752.83069 9.85717e-18
7754.90313 1.00134e-17
7756.98572 1.03246e-17
7759.05816 9.97574e-18
7761.14075 9.31942e-18
7763.21319 9.38721e-18
7765.28563 9.70613e-18
7767.36822 1.00266e-17
7769.44066 1.01767e-17
7771.52325 1.00055e-17
7773.59569 9.91529e-18
7775.66812 9.49383e-18
7777.75072 9.15303e-18
7779.82315 9.54368e-18
7781.90575 9.69704e-18
7783.97818 9.53375e-18
7786.05062 9.33136e-18
7788.13322 8.98385e-18
7790.20565 8.97217e-18
7792.28825 9.56277e-18
7794.36068 9.84426e-18
7796.43312 9.79885e-18
7798.51571 1.02029e-17
7800.58815 1.04085e-17
7802.66059 1.04213e-17
7804.74318 1.03955e-17
7806.81562 1.05005e-17
7808.89821 1.05765e-17
7810.97065 1.06347e-17
7813.04308 1.02175e-17
7815.12568 1.08412e-17
7817.19812 1.10773e-17
7819.28071 1.20941e-17
7821.35315 1.21339e-17
7823.42558 1.13149e-17
7825.50818 9.73646e-18
7827.58061 1.00032e-17
7829.66321 1.09140e-17
7831.73564 1.14874e-17
7833.80808 1.13220e-17
7835.89068 1.04249e-17
7837.96311 1.04670e-17
7840.04571 1.19351e-17
7842.11814 1.17924e-17
7844.19058 1.09282e-17
7846.27317 1.12847e-17
7848.34561 1.16253e-17
7850.42820 1.17775e-17
7852.50064 1.16311e-17
7854.57308 1.14717e-17
7856.65567 1.12590e-17
7858.72811 1.06831e-17
7860.80054 1.06203e-17
7862.88314 1.13813e-17
7864.95557 1.11692e-17
7867.03817 1.12106e-17
7869.11060 1.17329e-17
7871.18304 1.16584e-17
7873.26564 1.09733e-17
7875.33807 1.00816e-17
7877.42067 1.02266e-17
7879.49310 1.07526e-17
7881.56554 1.08054e-17
7883.64813 1.08212e-17
7885.72057 1.06365e-17
7887.80317 1.00162e-17
7889.87560 9.90918e-18
7891.94804 1.00126e-17
7894.03063 1.02959e-17
7896.10307 1.05925e-17
7898.17550 1.01886e-17
7900.25810 1.01807e-17
7902.33054 1.05927e-17
7904.41313 1.12122e-17
7906.48557 1.15793e-17
7908.55800 1.06887e-17
7910.64060 1.10531e-17
7912.71303 1.21758e-17
7914.79563 1.24358e-17
7916.86806 1.16911e-17
7918.94050 1.09688e-17
7921.02310 1.17762e-17
7923.09553 1.15118e-17
7925.17813 1.05522e-17
7927.25056 9.75648e-18
7929.32300 1.03297e-17
7931.40559 1.05214e-17
7933.47803 1.03591e-17
7935.56062 1.10347e-17
7937.63306 1.13199e-17
7939.70550 1.13261e-17
7941.78809 1.16001e-17
7943.86053 1.18314e-17
7945.94312 1.17214e-17
7948.01556 1.15450e-17
7950.08799 1.13525e-17
7952.17059 1.14991e-17
7954.24302 1.15199e-17
7956.31546 1.14779e-17
7958.39806 1.09604e-17
7960.47049 1.00799e-17
7962.55309 1.05760e-17
7964.62552 1.08878e-17
7966.69796 1.04942e-17
7968.78055 1.07876e-17
7970.85299 1.08038e-17
7972.93559 1.12767e-17
7975.00802 1.10393e-17
7977.08046 1.07242e-17
7979.16305 1.03168e-17
7981.23549 1.04163e-17
7983.31808 1.07004e-17
7985.39052 1.10487e-17
7987.46295 1.11946e-17
7989.54555 1.15272e-17
7991.61799 1.20596e-17
7993.69042 1.07283e-17
7995.77302 1.01923e-17
7997.84545 1.02776e-17
7999.92805 1.02591e-17
8002.00048 1.01942e-17
8004.08308 1.01156e-17
8006.15552 9.94631e-18
8008.22795 9.98483e-18
8010.31055 1.01504e-17
8012.38298 9.87153e-18
8014.45542 9.91696e-18
8016.53801 1.03822e-17
8018.61045 1.04573e-17
8020.69304 1.01952e-17
8022.76548 9.78321e-18
8024.83792 9.27819e-18
8026.92051 8.79398e-18
8028.99295 8.69773e-18
8031.07554 9.77513e-18
8033.14798 1.04522e-17
8035.22041 1.01049e-17
8037.30301 9.84916e-18
8039.37545 9.85813e-18
8041.45804 9.80323e-18
8043.53048 9.88106e-18
8045.60291 1.03759e-17
8047.68551 1.04410e-17
8049.75794 1.01059e-17
8051.83038 9.79563e-18
8053.91297 9.30112e-18
8055.98541 9.55346e-18
8058.06801 1.02905e-17
8060.14044 1.02980e-17
8062.21288 9.03532e-18
8064.29547 8.68305e-18
8066.36791 9.34484e-18
8068.45050 9.63067e-18
8070.52294 9.54132e-18
8072.59537 9.64992e-18
8074.67797 9.76973e-18
8076.75041 9.60081e-18
8078.83300 9.61584e-18
8080.90544 9.54914e-18
8082.97787 9.81340e-18
8085.06047 1.00213e-17
8087.13290 9.33926e-18
8089.21550 8.54722e-18
8091.28793 9.31275e-18
8093.36037 9.60463e-18
8095.44297 8.84957e-18
8097.51540 8.74300e-18
8099.59800 8.78112e-18
8101.67043 9.21111e-18
8103.74287 1.01886e-17
8105.82546 9.79864e-18
8107.89790 8.55318e-18
8109.97034 8.42189e-18
8112.05293 8.79044e-18
8114.12537 8.89335e-18
8116.20796 8.62637e-18
8118.28040 8.18779e-18
8120.35283 8.10375e-18
8122.43543 8.58645e-18
8124.50787 8.97533e-18
8126.59046 8.66507e-18
8128.66290 8.19186e-18
8130.73533 8.04468e-18
8132.81793 7.80900e-18
8134.89036 8.00648e-18
8136.97296 8.69804e-18
8139.04539 8.50196e-18
8141.11783 8.35309e-18
8143.20042 8.32348e-18
8145.27286 7.51851e-18
8147.34530 7.10092e-18
8149.42789 7.46400e-18
8151.50033 7.90806e-18
8153.58292 7.67271e-18
8155.65536 7.60951e-18
8157.72780 8.63723e-18
8159.81039 9.05719e-18
8161.88283 8.32360e-18
8163.96542 7.82903e-18
8166.03786 7.86528e-18
8168.11029 7.89119e-18
8170.19289 7.68299e-18
8172.26532 7.59294e-18
8174.34792 7.34296e-18
8176.42036 7.35154e-18
8178.49279 7.38490e-18
8180.57539 7.72265e-18
8182.64782 8.19027e-18
8184.73042 7.92248e-18
8186.80285 7.24786e-18
8188.87529 6.82315e-18
8190.95788 7.09902e-18
8193.03032 7.11035e-18
8195.11291 6.65178e-18
8197.18535 7.20123e-18
8199.25779 7.71936e-18
8201.34038 6.82688e-18
8203.41282 6.09041e-18
8205.48525 6.06331e-18
8207.56785 6.53208e-18
8209.64028 6.89592e-18
8211.72288 6.43161e-18
8213.79532 6.15329e-18
8215.86775 6.47191e-18
8217.95035 6.60958e-18
8220.02278 6.48937e-18
8222.10538 6.48970e-18
8224.17781 6.30822e-18
8226.25025 5.44685e-18
8228.33285 5.17230e-18
8230.40528 6.78179e-18
8232.48788 7.49491e-18
8234.56031 6.97851e-18
8236.63275 6.41364e-18
8238.71534 6.24020e-18
8240.78778 6.05367e-18
8242.87037 5.71820e-18
8244.94281 5.46433e-18
8247.01525 5.93838e-18
8249.09784 6.56594e-18
8251.17028 6.35795e-18
8253.25287 5.58332e-18
8255.32531 5.55263e-18
8257.39774 6.28630e-18
8259.48034 6.12073e-18
8261.55278 4.83297e-18
8263.62521 4.49241e-18
8265.70781 4.75342e-18
8267.78024 5.55741e-18
8269.86284 6.52453e-18
8271.93527 5.97468e-18
8274.00771 4.92709e-18
8276.09030 5.60882e-18
8278.16274 6.24691e-18
8280.24533 6.33420e-18
8282.31777 6.10735e-18
8284.39021 5.94262e-18
8286.47280 5.79203e-18
8288.54524 6.09337e-18
8290.62783 6.28961e-18
8292.70027 5.36216e-18
8294.77270 4.76351e-18
8296.85530 4.71812e-18
8298.92774 5.07971e-18
8301.01033 6.81235e-18
8303.08277 7.09815e-18
8305.15520 7.19181e-18
8307.23780 7.70015e-18
8309.31023 7.11910e-18
8311.38267 6.88217e-18
8313.46527 6.75067e-18
8315.53770 5.81865e-18
8317.62030 5.25408e-18
8319.69273 5.41264e-18
8321.76517 5.61189e-18
8323.84776 5.85927e-18
8325.92020 6.07695e-18
8328.00279 6.19363e-18
8330.07523 6.19439e-18
8332.14767 6.32057e-18
8334.23026 6.34992e-18
8336.30270 6.66537e-18
8338.38529 6.13726e-18
8340.45773 4.37477e-18
8342.53016 4.59102e-18
8344.61276 6.01167e-18
8346.68520 5.53487e-18
8348.75763 4.75645e-18
8350.84023 5.37036e-18
8352.91266 6.47275e-18
8354.99526 6.86842e-18
8357.06769 7.49647e-18
8359.15029 7.31726e-18
8361.22272 6.92576e-18
8363.29516 6.28365e-18
8365.37776 7.14186e-18
8367.45019 7.44524e-18
8369.52263 7.12269e-18
8371.60522 7.05870e-18
8373.67766 7.12587e-18
8375.76025 6.86716e-18
8377.83269 7.24114e-18
8379.90512 8.35855e-18
8381.98772 7.99348e-18
8384.06016 7.17241e-18
8386.14275 7.08654e-18
8388.21519 6.91874e-18
8390.28762 7.48479e-18
8392.37022 8.12949e-18
8394.44265 8.36041e-18
8396.52525 8.23696e-18
8398.59769 7.72386e-18
8400.67012 7.21071e-18
8402.75272 7.12233e-18
8404.82515 7.13435e-18
8406.89759 6.45785e-18
8408.98018 6.19107e-18
8411.05262 7.11622e-18
8413.13521 7.88281e-18
8415.20765 7.64181e-18
8417.28009 7.47101e-18
8419.36268 7.16535e-18
8421.43512 7.68336e-18
8423.51771 7.74384e-18
8425.59015 7.68918e-18
8427.66258 8.29083e-18
8429.74518 8.36097e-18
8431.81761 7.65255e-18
8433.90021 7.16129e-18
8435.97265 7.54127e-18
8438.04508 7.38644e-18
8440.12768 7.03352e-18
8442.20011 6.80828e-18
8444.28271 6.66653e-18
8446.35514 7.24382e-18
8448.42758 7.94935e-18
8450.51017 8.91890e-18
8452.58261 8.64839e-18
8454.65505 8.16250e-18
8456.73764 8.37769e-18
8458.81008 7.92023e-18
8460.89267 7.10536e-18
8462.96511 7.57490e-18
8465.03754 7.75116e-18
8467.12014 7.40167e-18
8469.19258 7.58457e-18
8471.27517 8.17680e-18
8473.34761 8.11537e-18
8475.42004 7.60013e-18
8477.50264 7.34892e-18
8479.57507 7.43685e-18
8481.65767 8.08664e-18
8483.73011 8.04655e-18
8485.80254 8.02004e-18
8487.88514 8.91836e-18
8489.95757 9.46038e-18
8492.04017 8.82692e-18
8494.11260 8.94076e-18
8496.18504 8.93039e-18
8498.26763 8.90789e-18
8500.34007 8.82441e-18
8502.42267 9.22608e-18
8504.49510 1.04726e-17
8506.56754 1.02312e-17
8508.65013 9.40765e-18
8510.72257 8.53090e-18
8512.79500 7.77857e-18
8514.87760 8.50659e-18
8516.95003 9.67248e-18
8519.03263 9.93261e-18
8521.10507 8.95073e-18
8523.17750 8.41547e-18
8525.26010 8.88816e-18
8527.33253 9.21385e-18
8529.41513 9.47537e-18
8531.48756 1.00106e-17
8533.56000 1.01029e-17
8535.64259 9.95493e-18
8537.71503 9.62399e-18
8539.79763 9.12238e-18
8541.87006 8.72435e-18
8543.94250 9.05702e-18
8546.02509 9.96888e-18
8548.09753 9.41730e-18
8550.18012 8.21704e-18
8552.25256 8.52016e-18
8554.32500 9.48826e-18
8556.40759 9.93457e-18
8558.48003 9.91631e-18
8560.56262 9.76067e-18
8562.63506 9.54923e-18
8564.70749 9.23287e-18
8566.79009 9.15712e-18
8568.86253 9.49981e-18
8570.93496 9.81827e-18
8573.01756 1.00027e-17
8575.08999 9.99444e-18
8577.17259 9.97459e-18
8579.24502 9.94041e-18
8581.31746 9.31352e-18
8583.40005 9.73133e-18
8585.47249 1.05504e-17
8587.55508 1.13383e-17
8589.62752 1.16890e-17
8591.69996 1.05396e-17
8593.78255 1.02395e-17
8595.85499 1.08042e-17
8597.93758 1.07300e-17
8600.01002 1.01856e-17
8602.08246 1.02072e-17
8604.16505 1.02478e-17
8606.23749 1.02646e-17
8608.30992 1.06027e-17
8610.39252 1.05854e-17
8612.46495 1.01974e-17
8614.54755 1.04171e-17
8616.61998 1.09592e-17
8618.69242 1.14059e-17
8620.77502 1.08198e-17
8622.84745 1.09438e-17
8624.93005 1.21108e-17
8627.00248 1.18207e-17
8629.07492 1.12530e-17
8631.15751 1.09098e-17
8633.22995 1.08625e-17
8635.31254 1.18061e-17
8637.38498 1.20170e-17
8639.45742 1.11899e-17
8641.54001 1.03750e-17
8643.61245 9.91953e-18
8645.69504 9.90581e-18
8647.76748 1.05837e-17
8649.83991 1.17795e-17
8651.92251 1.20511e-17
8653.99495 1.16142e-17
8656.06738 1.16118e-17
8658.14998 1.10985e-17
8660.22241 1.06205e-17
8662.30501 1.08888e-17
8664.37744 1.18190e-17
8666.46004 1.17470e-17
8668.53247 1.09843e-17
8670.60491 1.04616e-17
8672.68751 1.12348e-17
8674.75994 1.13516e-17
8676.83238 1.08775e-17
8678.91497 1.08290e-17
8680.98741 1.09830e-17
8683.07000 1.10784e-17
8685.14244 1.11801e-17
8687.21487 1.06692e-17
8689.29747 9.95779e-18
8691.36991 1.03826e-17
8693.45250 1.10351e-17
8695.52494 1.07632e-17
8697.59737 1.13941e-17
8699.67997 1.20452e-17
8701.75240 1.19351e-17
8703.83500 1.10439e-17
8705.90743 1.05549e-17
8707.97987 1.01338e-17
8710.06247 1.06207e-17
8712.13490 1.11639e-17
8714.20734 1.04420e-17
8716.28993 9.90417e-18
8718.36237 1.05904e-17
8720.44496 1.09584e-17
8722.51740 1.06605e-17
8724.58984 1.06348e-17
8726.67243 1.08767e-17
8728.74487 1.13226e-17
8730.82746 1.13235e-17
8732.89990 1.09780e-17
8734.97233 1.06723e-17
8737.05493 9.79480e-18
8739.12737 1.02679e-17
8741.20996 1.14263e-17
8743.28240 1.10576e-17
8745.35483 1.01301e-17
8747.43743 9.17729e-18
8749.50986 8.87390e-18
8751.59246 9.68478e-18
8753.66489 1.03346e-17
8755.73733 1.04174e-17
8757.81992 9.46489e-18
8759.89236 9.75671e-18
8761.96480 9.75042e-18
8764.04739 1.04659e-17
8766.11983 1.00015e-17
8768.20242 9.45711e-18
8770.27486 1.03022e-17
8772.34729 9.86283e-18
8774.42989 9.27013e-18
8776.50233 8.16870e-18
8778.58492 7.90921e-18
8780.65736 9.15454e-18
8782.72979 9.67434e-18
8784.81239 9.94690e-18
8786.88482 1.03790e-17
8788.96742 1.05277e-17
8791.03986 9.64679e-18
8793.11229 8.76123e-18
8795.19489 9.09701e-18
8797.26732 9.79019e-18
8799.34992 1.00917e-17
8801.42235 9.01632e-18
8803.49479 9.41786e-18
8805.57738 9.83581e-18
8807.64982 9.66878e-18
8809.72226 9.89902e-18
8811.80485 9.87162e-18
8813.87729 9.03341e-18
8815.95988 9.55798e-18
8818.03232 9.76501e-18
8820.10475 1.02460e-17
8822.18735 1.12504e-17
8824.25979 1.14392e-17
8826.34238 1.13357e-17
8828.41482 1.06641e-17
8830.48725 9.12391e-18
8832.56985 1.00401e-17
8834.64228 1.08781e-17
8836.72488 1.05180e-17
8838.79731 9.66588e-18
8840.86975 9.41114e-18
8842.95234 9.02735e-18
8845.02478 9.04331e-18
8847.09722 9.04984e-18
8849.17981 8.88355e-18
8851.25225 9.68069e-18
8853.33484 1.06638e-17
8855.40728 1.04294e-17
8857.48987 8.55338e-18
8859.56231 7.88780e-18
8861.63475 9.34213e-18
8863.71734 1.00856e-17
8865.78978 9.46882e-18
8867.87237 1.01529e-17
8869.94481 9.78306e-18
8872.01724 8.05654e-18
8874.09984 7.70820e-18
8876.17228 7.64638e-18
8878.24471 7.94944e-18
8880.32731 8.86666e-18
8882.39974 9.01385e-18
8884.48234 7.78398e-18
8886.55477 6.92350e-18
8888.62721 8.72767e-18
8890.70980 9.78260e-18
8892.78224 9.67196e-18
8894.86484 9.32215e-18
8896.93727 8.95406e-18
8899.00971 8.81294e-18
8901.09230 9.08638e-18
8903.16474 7.77668e-18
8905.24733 6.76197e-18
8907.31977 8.18155e-18
8909.39221 9.20218e-18
8911.47480 8.80991e-18
8913.54724 8.90217e-18
8915.61967 8.78936e-18
8917.70227 6.76815e-18
8919.77470 6.44434e-18
8921.85730 8.11627e-18
8923.92973 8.56867e-18
8926.00217 8.61139e-18
8928.08477 9.28873e-18
8930.15720 9.01993e-18
8932.23980 7.83064e-18
8934.31223 6.58285e-18
8936.38467 6.67759e-18
8938.46726 7.38433e-18
8940.53970 8.05447e-18
8942.62229 7.90843e-18
8944.69473 8.38528e-18
8946.76717 8.06663e-18
8948.84976 8.19499e-18
8950.92220 8.73759e-18
8953.00479 9.09809e-18
8955.07723 9.77855e-18
8957.14966 8.20759e-18
8959.23226 6.14361e-18
8961.30469 6.09897e-18
8963.37713 7.46679e-18
8965.45973 7.40077e-18
8967.53216 7.41241e-18
8969.61476 7.80326e-18
8971.68719 6.74810e-18
8973.75963 6.29831e-18
8975.84222 7.22443e-18
8977.91466 8.08358e-18
8979.99726 8.63695e-18
8982.06969 8.88143e-18
8984.14213 9.12352e-18
8986.22472 7.43634e-18
8988.29716 5.71135e-18
8990.37975 5.68434e-18
8992.45219 7.16679e-18
8994.52463 8.47799e-18
8996.60722 7.12525e-18
8998.67966 5.66221e-18
9000.76225 4.99772e-18
9002.83469 5.90679e-18
9004.90712 7.23526e-18
9006.98972 8.00372e-18
9009.06215 8.32643e-18
9011.13459 9.26246e-18
9013.21718 9.22692e-18
9015.28962 9.08000e-18
9017.37222 9.82608e-18
9019.44465 8.90361e-18
9021.51709 7.12518e-18
9023.59968 6.80476e-18
9025.67212 7.75453e-18
9027.75471 7.84852e-18
9029.82715 7.72936e-18
9031.89959 7.54162e-18
9033.98218 7.16380e-18
9036.05462 7.06323e-18
9038.13721 6.65593e-18
9040.20965 7.52061e-18
9042.28208 8.07323e-18
9044.36468 7.68713e-18
9046.43712 7.59941e-18
9048.51971 7.71052e-18
9050.59215 8.11490e-18
9052.66458 9.03038e-18
9054.74718 8.00293e-18
9056.81961 6.89710e-18
9058.90221 7.66048e-18
9060.97464 7.26479e-18
9063.04708 6.37241e-18
9065.12968 7.20955e-18
9067.20211 8.96324e-18
9069.27455 8.73916e-18
9071.35714 7.43618e-18
9073.42958 6.30970e-18
9075.51217 6.58190e-18
9077.58461 6.93307e-18
9079.65704 7.57293e-18
9081.73964 7.13308e-18
9083.81208 5.91076e-18
9085.89467 6.08067e-18
9087.96711 7.22021e-18
9090.03954 8.39035e-18
9092.12214 7.63984e-18
9094.19457 8.07776e-18
9096.27717 8.22242e-18
9098.34961 8.01103e-18
9100.42204 9.19591e-18
9102.50464 9.03047e-18
9104.57707 7.69717e-18
9106.65967 7.63881e-18
9108.73210 8.25975e-18
9110.80454 7.74891e-18
9112.88713 6.92252e-18
9114.95957 6.53426e-18
9117.03201 7.90733e-18
9119.11460 7.86948e-18
9121.18704 7.42268e-18
9123.26963 8.58251e-18
9125.34207 7.91139e-18
9127.41450 6.91954e-18
9129.49710 6.25328e-18
9131.56954 6.66597e-18
9133.65213 7.61577e-18
9135.72457 8.16263e-18
9137.79700 9.77422e-18
9139.87960 9.10840e-18
9141.95203 8.25319e-18
9144.03463 7.83929e-18
9146.10706 8.59570e-18
9148.17950 8.74088e-18
9150.26210 7.40824e-18
9152.33453 8.26412e-18
9154.40697 8.15922e-18
9156.48956 7.36505e-18
9158.56200 7.88712e-18
9160.64459 8.92034e-18
9162.71703 9.23034e-18
9164.79962 8.47684e-18
9166.87206 8.27256e-18
9168.94450 8.21324e-18
9171.02709 8.24182e-18
9173.09953 7.37505e-18
9175.17196 8.60070e-18
9177.25456 7.92632e-18
9179.32699 8.47190e-18
9181.40959 8.56831e-18
9183.48202 8.24137e-18
9185.55446 9.08473e-18
9187.63706 9.94957e-18
9189.70949 8.55353e-18
9191.79209 6.44439e-18
9193.86452 5.79364e-18
9195.93696 7.71569e-18
9198.01955 7.33192e-18
9200.09199 8.73947e-18
9202.17459 9.60815e-18
9204.24702 1.07842e-17
9206.31946 1.10807e-17
9208.40205 1.08556e-17
9210.47449 1.00149e-17
9212.54692 8.94021e-18
9214.62952 8.87866e-18
9216.70196 9.05976e-18
9218.78455 8.47613e-18
9219.99737 8.47613e-18
9222.00440 9.22098e-18
9224.00125 9.98347e-18
9225.99810 1.00495e-17
9227.99495 9.75161e-18
9230.00198 9.88677e-18
9231.99883 1.03572e-17
9233.99568 1.05947e-17
9236.00272 1.07907e-17
9237.99956 1.07870e-17
9239.99641 1.03913e-17
9242.00345 9.77354e-18
9244.00030 9.62749e-18
9245.99714 9.98540e-18
9248.00418 9.88942e-18
9250.00103 9.52871e-18
9251.99788 9.15227e-18
9254.00491 8.74986e-18
9256.00176 8.37126e-18
9257.99861 8.28002e-18
9259.99546 8.55641e-18
9262.00249 8.42572e-18
9263.99934 7.91064e-18
9265.99619 7.63542e-18
9268.00322 7.69477e-18
9270.00007 7.87658e-18
9271.99692 7.99795e-18
9274.00396 8.18199e-18
9276.00080 8.14404e-18
9277.99765 7.72156e-18
9279.99450 7.68844e-18
9282.00154 8.12446e-18
9283.99838 8.64694e-18
9285.99523 8.94633e-18
9288.00227 9.15127e-18
9289.99912 9.50444e-18
9291.99596 1.03063e-17
9294.00300 1.03391e-17
9295.99985 9.06939e-18
9297.99670 8.41456e-18
9300.00373 9.75682e-18
9302.00058 1.22454e-17
9303.99743 1.31758e-17
9306.00446 1.42917e-17
9308.00131 1.29780e-17
9309.99816 7.83469e-18
9312.00520 4.46160e-18
9314.00204 5.20740e-18
9315.99889 7.82499e-18
9317.99574 8.58514e-18
9320.00278 8.45886e-18
9321.99962 9.09292e-18
9323.99647 1.01165e-17
9326.00351 1.11714e-17
9328.00036 1.25490e-17
9329.99720 1.37073e-17
9332.00424 1.34643e-17
9334.00109 1.18932e-17
9335.99794 1.10996e-17
9337.99478 1.02421e-17
9340.00182 9.85660e-18
9341.99867 1.03049e-17
9343.99552 1.07244e-17
9346.00255 1.00847e-17
9347.99940 8.64837e-18
9349.99625 8.21066e-18
9352.00328 8.36045e-18
9354.00013 8.53621e-18
9355.99698 8.80895e-18
9358.00402 9.23240e-18
9360.00086 9.89866e-18
9361.99771 1.07694e-17
9364.00475 1.12292e-17
9366.00160 1.14542e-17
9367.99844 1.15638e-17
9369.99529 1.12454e-17
9372.00233 1.12354e-17
9373.99918 1.20921e-17
9375.99602 1.33110e-17
9378.00306 1.33492e-17
9379.99991 1.26175e-17
9381.99676 1.16514e-17
9384.00379 9.49328e-18
9386.00064 8.35634e-18
9387.99749 9.16191e-18
9390.00452 1.06330e-17
9392.00137 1.06273e-17
9393.99822 9.66580e-18
9395.99507 9.18419e-18
9398.00210 8.55326e-18
9399.99895 8.31668e-18
9401.99580 8.77530e-18
9404.00284 9.28093e-18
9405.99968 8.97771e-18
9407.99653 8.07916e-18
9410.00357 7.63289e-18
9412.00042 7.28940e-18
9413.99726 7.08418e-18
9416.00430 6.95187e-18
9418.00115 7.03104e-18
9419.99800 7.52937e-18
9421.99484 8.39591e-18
9424.00188 8.75367e-18
9425.99873 8.70884e-18
9427.99558 8.87365e-18
9430.00261 8.97309e-18
9431.99946 9.37301e-18
9433.99631 1.02305e-17
9436.00334 1.14628e-17
9438.00019 1.32470e-17
9439.99704 1.71663e-17
9442.00408 1.77124e-17
9444.00092 1.53897e-17
9445.99777 1.29680e-17
9448.00481 1.08024e-17
9450.00166 8.81937e-18
9451.99850 8.47868e-18
9453.99535 1.01876e-17
9456.00239 1.01143e-17
9457.99924 9.04636e-18
9459.99608 8.06364e-18
9462.00312 7.14891e-18
9463.99997 6.34029e-18
9465.99682 5.90051e-18
9468.00385 5.56321e-18
9470.00070 6.20499e-18
9471.99755 8.21567e-18
9474.00458 9.58162e-18
9476.00143 1.05775e-17
9477.99828 1.10263e-17
9479.99513 1.03752e-17
9482.00216 8.66234e-18
9483.99901 8.13483e-18
9485.99586 8.43775e-18
9488.00290 8.33957e-18
9489.99974 7.88937e-18
9491.99659 7.50615e-18
9494.00363 7.33989e-18
9496.00048 7.31197e-18
9497.99732 7.89555e-18
9500.00436 9.26749e-18
9502.00121 1.03023e-17
9503.99806 1.16515e-17
9505.99490 1.23479e-17
9508.00194 1.19138e-17
9509.99879 1.07607e-17
9511.99564 9.63974e-18
9514.00267 7.72975e-18
9515.99952 6.98535e-18
9517.99637 7.01191e-18
9520.00340 7.27851e-18
9522.00025 7.78345e-18
9523.99710 8.48609e-18
9526.00414 9.18690e-18
9528.00098 1.03169e-17
9529.99783 1.02098e-17
9532.00487 8.63107e-18
9534.00172 7.80740e-18
9535.99856 8.14560e-18
9537.99541 8.54456e-18
9540.00245 7.66126e-18
9541.99930 5.56621e-18
9543.99614 6.16523e-18
9546.00318 9.52411e-18
9548.00003 1.15014e-17
9549.99688 1.27147e-17
9552.00391 1.31454e-17
9554.00076 1.24441e-17
9555.99761 1.07376e-17
9557.99446 9.21335e-18
9560.00149 6.22050e-18
9561.99834 5.78967e-18
9563.99519 8.05831e-18
9566.00222 1.03832e-17
9567.99907 1.18794e-17
9569.99592 1.30042e-17
9572.00296 1.25808e-17
9573.99980 1.01028e-17
9575.99665 8.70712e-18
9578.00369 7.46712e-18
9580.00054 6.44233e-18
9581.99738 5.47942e-18
9584.00442 4.82589e-18
9586.00127 5.23579e-18
9587.99812 6.96015e-18
9590.00515 7.73876e-18
9592.00200 8.17297e-18
9593.99885 8.52406e-18
9595.99570 8.76845e-18
9598.00273 8.94390e-18
9599.99958 9.15860e-18
9601.99643 9.36862e-18
9604.00346 9.56482e-18
9606.00031 1.00006e-17
9607.99716 9.91416e-18
9610.00420 9.29929e-18
9612.00104 8.35911e-18
9613.99789 6.93439e-18
9615.99474 4.85914e-18
9618.00178 5.15325e-18
9619.99862 8.58560e-18
9621.99547 9.49905e-18
9624.00251 8.22498e-18
9625.99936 6.64207e-18
9627.99620 5.40250e-18
9630.00324 4.18171e-18
9632.00009 4.60383e-18
9633.99694 7.15623e-18
9636.00397 8.32699e-18
9638.00082 9.13485e-18
9639.99767 9.32598e-18
9642.00470 8.43446e-18
9644.00155 7.03312e-18
9645.99840 6.95523e-18
9647.99525 7.98020e-18
9650.00228 8.35995e-18
9651.99913 8.77739e-18
9653.99598 8.78935e-18
9656.00302 8.19945e-18
9657.99986 7.33613e-18
9659.99671 6.65023e-18
9662.00375 5.73243e-18
9664.00060 5.72791e-18
9665.99744 6.76986e-18
9668.00448 7.39012e-18
9670.00133 7.59753e-18
9671.99818 7.60268e-18
9673.99502 7.45974e-18
9676.00206 7.11380e-18
9677.99891 6.82731e-18
9679.99576 6.15462e-18
9682.00279 6.21912e-18
9683.99964 7.43418e-18
9685.99649 8.39081e-18
9688.00352 7.98567e-18
9690.00037 6.74945e-18
9691.99722 6.23643e-18
9694.00426 5.93175e-18
9696.00110 5.76823e-18
9697.99795 5.82243e-18
9699.99480 5.93759e-18
9702.00184 6.01614e-18
9703.99868 6.13744e-18
9705.99553 6.50386e-18
9708.00257 7.25868e-18
9709.99942 7.65889e-18
9711.99626 7.89912e-18
9714.00330 8.04930e-18
9716.00015 8.04572e-18
9717.99700 8.00032e-18
9720.00403 8.23889e-18
9722.00088 8.83957e-18
9723.99773 8.90056e-18
9726.00476 8.75783e-18
9728.00161 8.24207e-18
9729.99846 7.03763e-18
9731.99531 5.78398e-18
9734.00234 5.33511e-18
9735.99919 5.31060e-18
9737.99604 5.81481e-18
9740.00308 7.22123e-18
9741.99992 8.28162e-18
9743.99677 9.27275e-18
9746.00381 9.92632e-18
9748.00066 9.87441e-18
9749.99750 9.25392e-18
9751.99435 8.69774e-18
9754.00139 7.72653e-18
9755.99824 7.19213e-18
9757.99508 6.82401e-18
9760.00212 6.85869e-18
9761.99897 7.71168e-18
9763.99582 9.07029e-18
9766.00285 9.10607e-18
9767.99970 7.99239e-18
9769.99655 7.32212e-18
9772.00358 6.21467e-18
9774.00043 5.86464e-18
9775.99728 7.06502e-18
9778.00432 8.88247e-18
9780.00116 9.10174e-18
9781.99801 7.98636e-18
9784.00505 7.79255e-18
9786.00190 8.27897e-18
9787.99874 8.18179e-18
9789.99559 7.09132e-18
9792.00263 5.74360e-18
9793.99948 5.04733e-18
9795.99632 4.39943e-18
9798.00336 5.04332e-18
9800.00021 7.88612e-18
9801.99706 9.01843e-18
9804.00409 8.09134e-18
9806.00094 6.62192e-18
9807.99779 5.69562e-18
9809.99464 4.68294e-18
9812.00167 4.91478e-18
9813.99852 7.03145e-18
9815.99537 7.63237e-18
9818.00240 6.89072e-18
9819.99925 5.82486e-18
9821.99610 4.70988e-18
9824.00314 3.39390e-18
9825.99998 3.73955e-18
9827.99683 6.27178e-18
9830.00387 7.14110e-18
9832.00072 7.01681e-18
9833.99756 6.63785e-18
9836.00460 6.03283e-18
9838.00145 5.29219e-18
9839.99830 5.46627e-18
9841.99514 6.61650e-18
9844.00218 7.14912e-18
9845.99903 7.50826e-18
9847.99588 7.78047e-18
9850.00291 8.03092e-18
9851.99976 8.15710e-18
9853.99661 7.93121e-18
9856.00364 7.22226e-18
9858.00049 7.05682e-18
9859.99734 7.29278e-18
9862.00438 7.40982e-18
9864.00122 7.51353e-18
9865.99807 7.44199e-18
9868.00511 6.85322e-18
9870.00196 5.76805e-18
9871.99880 5.11370e-18
9873.99565 4.27330e-18
9876.00269 4.22424e-18
9877.99954 5.35309e-18
9879.99638 6.44484e-18
9882.00342 6.52668e-18
9884.00027 6.04087e-18
9885.99712 5.79787e-18
9888.00415 5.23448e-18
9890.00100 5.27853e-18
9891.99785 6.39176e-18
9893.99470 6.89000e-18
9896.00173 5.58732e-18
9897.99858 3.35368e-18
9899.99543 2.90167e-18
9902.00246 3.74362e-18
9903.99931 4.24075e-18
9905.99616 5.09824e-18
9908.00320 5.66680e-18
9910.00004 5.67507e-18
9911.99689 5.43547e-18
9914.00393 5.46615e-18
9916.00078 5.45029e-18
9917.99762 5.87038e-18
9920.00466 7.12674e-18
9922.00151 7.64024e-18
9923.99836 7.06626e-18
9925.99520 6.09021e-18
9928.00224 5.37309e-18
9929.99909 4.33604e-18
9931.99594 4.74698e-18
9934.00297 6.84648e-18
9935.99982 8.19828e-18
9937.99667 9.13458e-18
9940.00370 9.49243e-18
9942.00055 8.58953e-18
9943.99740 6.43333e-18
9946.00444 6.64206e-18
9948.00128 9.46251e-18
9949.99813 1.02865e-17
9951.99498 9.32798e-18
9954.00202 8.19130e-18
9955.99886 7.69676e-18
9957.99571 7.39357e-18
9960.00275 7.02811e-18
9961.99960 6.04605e-18
9963.99644 6.57407e-18
9966.00348 9.81995e-18
9968.00033 1.11327e-17
9969.99718 7.97011e-18
9972.00421 2.81374e-18
9974.00106 1.21531e-18
9975.99791 1.83134e-18
9978.00494 1.97309e-18
9980.00179 2.58082e-18
9981.99864 3.27978e-18
9983.99549 4.07087e-18
9986.00252 4.92906e-18
9987.99937 5.70774e-18
9989.99622 6.53868e-18
9992.00326 7.06342e-18
9994.00010 7.41095e-18
9995.99695 7.53112e-18
9998.00399 7.27312e-18
10000.00084 6.96015e-18
