# wavelength flux
3693.97494 -4.87802e-18
3695.31593 -4.68118e-18
3696.65692 -9.99334e-19
3697.99791 1.41046e-18
3699.33890 5.48374e-18
3700.67988 9.96052e-18
3702.02087 6.40792e-18
3703.36186 -9.64347e-19
3704.70285 -3.76479e-19
3706.04384 5.14801e-18
3707.37466 4.05869e-18
3708.71565 2.82545e-18
3710.05664 1.08618e-17
3711.39763 1.26734e-17
3712.73862 1.89774e-18
3714.07960 -3.09307e-18
3715.42059 4.10211e-18
3716.76158 2.79837e-19
3718.10257 -7.18687e-19
3719.44356 8.90928e-18
3720.78455 7.62869e-18
3722.11537 -4.46194e-19
3723.45636 3.14760e-18
3724.79735 -1.32866e-19
3726.13834 -3.67197e-18
3727.47933 7.62325e-19
3728.82031 8.89504e-18
3730.16130 -9.89497e-19
3731.50229 1.99968e-18
3732.84328 9.01284e-18
3734.18427 6.56982e-18
3735.51510 6.60775e-18
3736.85608 1.02468e-17
3738.19707 7.15993e-18
3739.53806 3.27845e-18
3740.87905 6.38203e-18
3742.22004 9.31095e-19
3743.56102 6.15450e-19
3744.90201 -3.07306e-18
3746.24300 -5.11591e-18
3747.58399 5.69333e-18
3748.91482 4.86245e-18
3750.25580 -7.93922e-18
3751.59679 -7.05698e-18
3752.93778 -3.78606e-18
3754.27877 -1.68779e-18
3755.61976 2.78539e-18
3756.96074 1.08207e-17
3758.30173 9.77871e-18
3759.64272 4.73469e-18
3760.98371 3.41976e-18
3762.32470 4.44287e-18
3763.65553 5.27600e-18
3764.99651 6.26566e-18
3766.33750 6.51101e-18
3767.67849 6.44596e-18
3769.01948 6.38091e-18
3770.36047 6.29966e-18
3771.70145 6.21844e-18
3773.04244 6.13721e-18
3774.38343 6.05599e-18
3775.72442 5.97477e-18
3777.05525 5.89354e-18
3778.39623 5.81233e-18
3779.73722 5.73112e-18
3781.07821 5.64991e-18
3782.41920 5.56872e-18
3783.76019 5.48753e-18
3785.10117 5.40633e-18
3786.44216 5.32516e-18
3787.78315 5.24398e-18
3789.12414 5.16280e-18
3790.45497 5.08164e-18
3791.79596 5.00047e-18
3793.13694 4.91930e-18
3794.47793 4.83814e-18
3795.81892 4.75698e-18
3797.15991 4.67584e-18
3798.50090 4.59470e-18
3799.84188 4.51355e-18
3801.18287 4.43243e-18
3802.52386 4.35129e-18
3803.86485 4.27016e-18
3805.19568 4.18905e-18
3806.53666 4.10791e-18
3807.87765 3.81646e-18
3809.21864 3.52502e-18
3810.55963 3.23359e-18
3811.90062 2.94218e-18
3813.24160 2.65078e-18
3814.58259 2.35940e-18
3815.92358 2.06804e-18
3817.26457 1.77668e-18
3818.59540 1.77664e-18
3819.93638 2.46921e-18
3821.27737 6.76974e-18
3822.61836 6.78389e-18
3823.95935 7.56673e-18
3825.30034 7.84996e-18
3826.64133 6.81645e-18
3827.98231 6.35858e-18
3829.32330 3.87854e-18
3830.66429 4.35988e-18
3831.99512 -1.91117e-18
3833.33611 -3.33079e-18
3834.67709 3.94042e-18
3836.01808 1.57006e-17
3837.35907 8.40692e-18
3838.70006 1.80709e-18
3840.04105 2.51636e-18
3841.38203 2.15893e-18
3842.72302 1.17048e-18
3844.06401 1.62757e-18
3845.39484 4.98187e-19
3846.73583 2.07483e-18
3848.07681 -3.71308e-18
3849.41780 5.73129e-18
3850.75879 5.57612e-18
3852.09978 5.25770e-18
3853.44077 6.65973e-18
3854.78175 9.72087e-18
3856.12274 1.08575e-17
3857.46373 5.65919e-18
3858.80472 -4.47743e-19
3860.13555 2.18775e-18
3861.47654 6.82518e-18
3862.81752 4.23573e-18
3864.15851 7.07837e-18
3865.49950 4.76270e-18
3866.84049 2.38045e-18
3868.18148 -1.17210e-18
3869.52246 2.78758e-18
3870.86345 6.76415e-18
3872.20444 8.73723e-18
3873.53527 1.15990e-17
3874.87626 6.09741e-18
3876.21725 -2.05083e-18
3877.55823 6.20230e-18
3878.89922 1.02966e-17
3880.24021 6.10074e-18
3881.58120 4.49304e-18
3882.92219 4.03289e-18
3884.26317 5.15707e-18
3885.60416 8.59272e-18
3886.93499 1.08547e-17
3888.27598 9.86191e-18
3889.61697 6.41985e-18
3890.95795 2.49617e-18
3892.29894 6.22538e-18
3893.63993 5.99749e-18
3894.98092 1.03604e-17
3896.32191 5.95894e-18
3897.66289 2.18979e-18
3899.00388 4.17515e-18
3900.34487 3.35090e-18
3901.67570 3.18465e-18
3903.01669 5.93948e-18
3904.35768 5.41303e-18
3905.69866 4.66833e-18
3907.03965 8.22543e-18
3908.38064 5.94256e-18
3909.72163 6.28565e-18
3911.06261 4.49017e-18
3912.40360 2.31518e-18
3913.74459 4.61383e-18
3915.07542 4.87409e-18
3916.41641 7.17395e-18
3917.75740 1.17272e-17
3919.09838 1.38937e-17
3920.43937 1.39978e-17
3921.78036 1.03785e-17
3923.12135 6.12340e-18
3924.46234 6.50464e-18
3925.80332 1.14352e-17
3927.14431 9.07598e-18
3928.47514 2.79971e-18
3929.81613 5.77048e-18
3931.15712 1.15952e-17
3932.49811 6.74579e-18
3933.83909 3.86207e-19
3935.18008 4.58989e-18
3936.52107 7.54149e-18
3937.86206 6.50746e-18
3939.20305 8.75718e-18
3940.54403 4.69325e-18
3941.87486 9.10231e-20
3943.21585 2.15834e-18
3944.55684 1.73745e-18
3945.89783 1.68237e-18
3947.23881 5.70159e-18
3948.57980 8.37930e-18
3949.92079 7.31860e-18
3951.26178 7.82333e-18
3952.60277 8.93119e-18
3953.94375 6.94738e-18
3955.28474 7.47944e-18
3956.61557 7.79790e-18
3957.95656 6.24634e-18
3959.29755 6.85092e-18
3960.63854 1.17663e-17
3961.97952 1.17593e-17
3963.32051 7.46943e-18
3964.66150 1.06718e-17
3966.00249 1.63026e-17
3967.34348 9.01912e-18
3968.68446 5.26707e-18
3970.01529 3.60669e-18
3971.35628 1.20132e-17
3972.69727 1.03700e-17
3974.03826 9.87267e-18
3975.37924 9.67873e-18
3976.72023 4.99070e-18
3978.06122 8.53044e-18
3979.40221 1.37705e-17
3980.74320 9.81408e-18
3982.08418 8.83807e-18
3983.41501 7.14806e-18
3984.75600 1.43213e-17
3986.09699 7.23871e-18
3987.43798 7.14467e-18
3988.77896 1.08647e-17
3990.11995 1.37134e-17
3991.46094 1.12191e-17
3992.80193 6.23144e-18
3994.14292 3.68448e-18
3995.48391 3.09867e-18
3996.82489 2.57915e-18
3998.15572 2.95534e-18
3999.49671 3.75518e-18
4000.83770 7.80179e-18
4002.17869 8.43733e-18
4003.51967 3.92548e-18
4004.86066 6.38162e-18
4006.20165 1.08039e-17
4007.54264 1.09997e-17
4008.88363 8.57282e-18
4010.22461 9.07269e-18
4011.55544 9.74005e-18
4012.89643 6.74687e-18
4014.23742 1.23493e-17
4015.57841 1.53702e-17
4016.91940 1.13464e-17
4018.26038 1.12106e-17
4019.60137 1.35791e-17
4020.94236 8.95053e-18
4022.28335 8.08468e-18
4023.62433 1.16469e-17
4024.95516 1.00832e-17
4026.29615 5.06331e-18
4027.63714 4.93484e-18
4028.97813 8.22038e-18
4030.31912 1.39807e-17
4031.66010 6.31688e-18
4033.00109 5.99792e-18
4034.34208 3.45212e-18
4035.68307 2.67477e-18
4037.02406 6.65058e-18
4038.36504 8.96338e-18
4039.69587 8.73569e-18
4041.03686 9.54820e-18
4042.37785 1.16007e-17
4043.71884 1.30794e-17
4045.05983 1.03775e-17
4046.40081 7.08662e-18
4047.74180 6.21729e-18
4049.08279 6.95120e-18
4050.42378 1.02979e-17
4051.76476 1.08830e-17
4053.09559 1.39030e-17
4054.43658 1.66703e-17
4055.77757 1.19021e-17
4057.11856 7.34973e-18
4058.45955 9.98618e-18
4059.80053 5.72094e-18
4061.14152 7.02205e-18
4062.48251 5.52280e-18
4063.82350 7.97233e-18
4065.16449 1.45415e-17
4066.49532 1.03919e-17
4067.83630 5.03207e-18
4069.17729 4.38958e-18
4070.51828 6.25293e-18
4071.85927 9.28434e-18
4073.20025 1.10883e-17
4074.54124 7.53926e-18
4075.88223 2.90423e-18
4077.22322 2.97451e-18
4078.56421 8.14418e-18
4079.89504 8.51721e-18
4081.23602 8.53505e-18
4082.57701 1.11087e-17
4083.91800 1.33777e-17
4085.25899 1.27019e-17
4086.59998 1.05148e-17
4087.94096 8.44934e-18
4089.28195 6.73530e-18
4090.62294 7.83169e-18
4091.96393 1.05719e-17
4093.30492 1.09974e-17
4094.63575 1.24298e-17
4095.97673 1.28964e-17
4097.31772 1.29049e-17
4098.65871 1.03133e-17
4099.99970 6.54142e-18
4101.34069 7.02004e-18
4102.68167 1.01597e-17
4104.02266 9.09281e-18
4105.36365 5.63832e-18
4106.70464 3.89988e-18
4108.03547 5.65674e-18
4109.37645 1.03016e-17
4110.71744 9.62998e-18
4112.05843 1.02916e-17
4113.39942 1.40378e-17
4114.74041 1.11588e-17
4116.08139 6.68245e-18
4117.42238 8.32647e-18
4118.76337 1.00659e-17
4120.10436 9.15760e-18
4121.43519 1.26675e-17
4122.77617 1.31437e-17
4124.11716 1.04516e-17
4125.45815 1.11832e-17
4126.79914 8.29301e-18
4128.14013 1.18865e-17
4129.48111 1.32884e-17
4130.82210 1.09402e-17
4132.16309 1.14852e-17
4133.50408 1.42280e-17
4134.83491 1.33609e-17
4136.17590 9.49825e-18
4137.51688 9.34639e-18
4138.85787 7.34209e-18
4140.19886 7.36291e-18
4141.53985 1.00308e-17
4142.88084 9.70496e-18
4144.22182 1.25164e-17
4145.56281 1.20831e-17
4146.90380 9.33308e-18
4148.24479 8.67318e-18
4149.57562 7.22889e-18
4150.91661 5.97209e-18
4152.25759 6.36312e-18
4153.59858 1.18819e-17
4154.93957 3.97134e-18
4156.28056 5.44327e-18
4157.62154 8.15458e-18
4158.96253 9.82301e-18
4160.30352 8.63087e-18
4161.64451 4.93492e-18
4162.97534 5.49480e-18
4164.31633 1.05723e-17
4165.65731 9.15310e-18
4166.99830 2.64621e-18
4168.33929 6.78403e-18
4169.68028 3.03023e-18
4171.02127 4.09147e-18
4172.36225 9.64967e-18
4173.70324 8.14042e-18
4175.04423 7.46199e-18
4176.37506 6.04397e-18
4177.71605 6.50665e-18
4179.05703 7.95467e-18
4180.39802 4.96496e-18
4181.73901 7.70989e-18
4183.08000 1.09699e-17
4184.42099 9.39056e-18
4185.76198 6.64792e-18
4187.10296 7.37485e-18
4188.44395 3.57600e-18
4189.78494 8.16255e-18
4191.11577 9.77258e-18
4192.45676 8.74385e-18
4193.79774 9.69970e-18
4195.13873 9.45357e-18
4196.47972 1.06664e-17
4197.82071 1.03290e-17
4199.16170 9.87217e-18
4200.50268 4.31848e-18
4201.84367 9.31746e-18
4203.18466 9.93053e-18
4204.51549 6.93210e-18
4205.85648 6.76300e-18
4207.19747 8.33314e-18
4208.53845 9.70069e-18
4209.87944 9.41776e-18
4211.22043 7.41858e-18
4212.56142 8.23910e-18
4213.90240 5.56691e-18
4215.24339 6.06663e-18
4216.58438 6.27097e-18
4217.91521 8.70714e-18
4219.25620 9.76535e-18
4220.59719 1.15178e-17
4221.93817 9.74672e-18
4223.27916 5.51618e-18
4224.62015 4.24551e-18
4225.96114 6.66280e-18
4227.30213 1.03541e-17
4228.64311 1.20164e-17
4229.98410 9.62459e-18
4231.31493 1.06897e-17
4232.65592 1.36802e-17
4233.99691 9.57424e-18
4235.33790 7.57387e-18
4236.67888 1.22303e-17
4238.01987 1.47911e-17
4239.36086 1.04176e-17
4240.70185 5.85829e-18
4242.04283 5.97819e-18
4243.38382 7.35376e-18
4244.72481 1.04909e-17
4246.05564 9.75802e-18
4247.39663 8.07442e-18
4248.73762 6.65918e-18
4250.07860 7.85544e-18
4251.41959 1.08756e-17
4252.76058 1.16076e-17
4254.10157 9.30426e-18
4255.44256 8.38340e-18
4256.78354 9.64878e-18
4258.12453 8.15408e-18
4259.45536 6.59935e-18
4260.79635 8.26884e-18
4262.13734 1.40312e-17
4263.47833 8.76504e-18
4264.81931 8.72037e-18
4266.16030 1.03991e-17
4267.50129 6.40350e-18
4268.84228 3.06271e-18
4270.18327 5.08909e-18
4271.52425 7.80115e-18
4272.85508 7.81214e-18
4274.19607 5.05866e-18
4275.53706 6.00589e-18
4276.87805 8.50383e-18
4278.21903 6.66391e-18
4279.56002 8.84063e-18
4280.90101 9.33476e-18
4282.24200 7.67829e-18
4283.58299 7.96921e-18
4284.92397 8.05668e-18
4286.25480 6.86293e-18
4287.59579 7.64016e-18
4288.93678 7.54468e-18
4290.27777 6.77349e-18
4291.61875 6.37859e-18
4292.95974 7.09525e-18
4294.30073 7.33248e-18
4295.64172 7.50470e-18
4296.98271 8.21117e-18
4298.32370 9.91150e-18
4299.66468 7.13312e-18
4300.99551 3.85307e-18
4302.33650 6.74166e-18
4303.67749 8.33243e-18
4305.01848 9.27849e-18
4306.35946 1.49882e-17
4307.70045 7.71379e-18
4309.04144 3.54554e-18
4310.38243 8.12639e-18
4311.72342 8.40277e-18
4313.06440 8.19264e-18
4314.39523 9.24452e-18
4315.73622 8.66250e-18
4317.07721 7.31759e-18
4318.41820 7.88188e-18
4319.75918 1.05932e-17
4321.10017 1.22820e-17
4322.44116 6.44724e-18
4323.78215 6.50014e-18
4325.12314 6.89019e-18
4326.46413 6.21076e-18
4327.79495 6.45933e-18
4329.13594 8.05346e-18
4330.47693 9.48677e-18
4331.81792 9.05327e-18
4333.15891 7.90922e-18
4334.49989 8.33363e-18
4335.84088 6.85932e-18
4337.18187 5.23943e-18
4338.52286 7.90173e-18
4339.86385 7.69076e-18
4341.20483 6.97012e-18
4342.53566 8.01629e-18
4343.87665 8.53488e-18
4345.21764 9.01348e-18
4346.55863 1.04506e-17
4347.89962 1.10241e-17
4349.24060 1.08299e-17
4350.58159 1.16562e-17
4351.92258 7.50811e-18
4353.26357 8.43468e-18
4354.60455 1.19207e-17
4355.93538 9.87923e-18
4357.27637 7.17329e-18
4358.61736 8.02233e-18
4359.95835 7.81457e-18
4361.29934 7.86197e-18
4362.64032 8.17497e-18
4363.98131 5.74158e-18
4365.32230 6.85719e-18
4366.66329 7.26779e-18
4368.00428 7.20294e-18
4369.33511 9.49097e-18
4370.67609 5.81004e-18
4372.01708 5.77656e-18
4373.35807 5.99754e-18
4374.69906 4.37615e-18
4376.04005 6.84638e-18
4377.38103 1.16269e-17
4378.72202 1.15470e-17
4380.06301 8.11731e-18
4381.40400 4.04935e-18
4382.74498 5.89330e-18
4384.07581 1.00822e-17
4385.41680 1.02941e-17
4386.75779 1.02997e-17
4388.09878 9.16674e-18
4389.43977 1.01290e-17
4390.78075 9.26944e-18
4392.12174 6.75517e-18
4393.46273 7.07049e-18
4394.80372 7.50272e-18
4396.14471 5.40470e-18
4397.47553 7.82127e-18
4398.81652 1.13964e-17
4400.15751 1.26649e-17
4401.49850 7.51203e-18
4402.83949 1.01155e-17
4404.18048 1.28079e-17
4405.52146 1.04612e-17
4406.86245 7.20982e-18
4408.20344 5.80527e-18
4409.54443 4.91693e-18
4410.87526 5.86670e-18
4412.21624 1.03164e-17
4413.55723 7.58789e-18
4414.89822 7.60593e-18
4416.23921 7.62397e-18
4417.58020 7.64201e-18
4418.92118 7.66005e-18
4420.26217 7.67809e-18
4421.60316 7.69613e-18
4422.94415 7.71417e-18
4424.27498 7.73220e-18
4425.61597 7.75024e-18
4426.95695 7.76828e-18
4428.29794 7.78631e-18
4429.63893 7.80435e-18
4430.97992 7.82238e-18
4432.32090 7.84040e-18
4433.66189 7.85844e-18
4435.00288 7.87647e-18
4436.34387 7.89449e-18
4437.68486 7.91252e-18
4439.01569 7.93056e-18
4440.35667 7.94858e-18
4441.69766 7.96661e-18
4443.03865 7.98463e-18
4444.37964 8.00265e-18
4445.72063 8.02067e-18
4447.06161 8.03869e-18
4448.40260 8.05671e-18
4449.74359 8.07474e-18
4451.08458 8.09275e-18
4452.41541 9.91062e-18
4453.75640 9.05383e-18
4455.09738 5.06718e-18
4456.43837 4.91047e-18
4457.77936 7.68190e-18
4459.12035 7.99665e-18
4460.46133 1.03664e-17
4461.80232 1.11567e-17
4463.14331 1.00008e-17
4464.48430 8.50706e-18
4465.81513 8.10610e-18
4467.15612 7.67885e-18
4468.49710 5.45923e-18
4469.83809 5.63160e-18
4471.17908 1.00828e-17
4472.52007 1.01566e-17
4473.86106 8.80375e-18
4475.20204 6.13431e-18
4476.54303 7.81199e-18
4477.88402 6.19675e-18
4479.22501 5.67170e-18
4480.55584 8.55536e-18
4481.89682 8.98086e-18
4483.23781 6.29341e-18
4484.57880 7.60425e-18
4485.91979 1.14937e-17
4487.26078 9.07674e-18
4488.60177 6.00534e-18
4489.94275 1.83144e-18
4491.28374 4.93856e-18
4492.62473 6.96812e-18
4493.95556 1.04028e-17
4495.29655 9.44121e-18
4496.63753 9.00669e-18
4497.97852 7.25714e-18
4499.31951 6.57362e-18
4500.66050 8.26068e-18
4502.00149 7.58821e-18
4503.34247 9.62565e-18
4504.68346 6.38637e-18
4506.02445 1.26105e-17
4507.35528 8.70940e-18
4508.69627 1.19262e-17
4510.03726 1.27284e-17
4511.37824 9.04797e-18
4512.71923 6.28428e-18
4514.06022 6.18387e-18
4515.40121 6.52801e-18
4516.74220 6.68618e-18
4518.08318 8.17405e-18
4519.42417 1.13848e-17
4520.75500 1.10606e-17
4522.09599 8.41452e-18
4523.43698 8.71315e-18
4524.77796 8.03037e-18
4526.11895 5.78332e-18
4527.45994 8.09986e-18
4528.80093 1.01430e-17
4530.14192 9.25571e-18
4531.48290 7.74350e-18
4532.82389 4.93192e-18
4534.16488 6.39194e-18
4535.49571 9.69777e-18
4536.83670 8.74574e-18
4538.17768 6.86746e-18
4539.51867 1.34881e-17
4540.85966 1.09433e-17
4542.20065 6.53118e-18
4543.54164 7.68700e-18
4544.88263 9.95098e-18
4546.22361 1.02358e-17
4547.56460 1.08921e-17
4548.89543 1.14865e-17
4550.23642 1.17250e-17
4551.57741 1.05263e-17
4552.91839 1.24297e-17
4554.25938 1.16534e-17
4555.60037 1.02369e-17
4556.94136 8.34789e-18
4558.28235 8.51378e-18
4559.62333 1.17531e-17
4560.96432 1.36390e-17
4562.29515 1.11233e-17
4563.63614 8.47552e-18
4564.97713 9.03166e-18
4566.31812 9.31229e-18
4567.65910 9.30123e-18
4569.00009 1.11017e-17
4570.34108 1.06904e-17
4571.68207 9.89580e-18
4573.02305 1.05102e-17
4574.36404 1.17290e-17
4575.69487 1.08808e-17
4577.03586 9.72818e-18
4578.37685 1.11285e-17
4579.71784 1.14034e-17
4581.05882 1.22473e-17
4582.39981 7.30832e-18
4583.74080 1.02331e-17
4585.08179 9.63375e-18
4586.42278 8.80312e-18
4587.76376 9.10519e-18
4589.10475 9.50844e-18
4590.43558 8.74651e-18
4591.77657 1.01206e-17
4593.11756 1.41734e-17
4594.45855 1.39165e-17
4595.79953 1.13208e-17
4597.14052 1.05553e-17
4598.48151 1.28683e-17
4599.82250 9.83488e-18
4601.16349 6.78516e-18
4602.50447 8.85563e-18
4603.83530 1.03380e-17
4605.17629 9.36413e-18
4606.51728 9.36625e-18
4607.85827 1.04171e-17
4609.19925 1.06005e-17
4610.54024 1.07864e-17
4611.88123 8.00906e-18
4613.22222 1.09874e-17
4614.56321 1.01707e-17
4615.90419 1.01400e-17
4617.24518 8.23901e-18
4618.57601 7.56674e-18
4619.91700 5.74485e-18
4621.25799 7.35099e-18
4622.59897 1.20184e-17
4623.93996 1.26917e-17
4625.28095 1.28390e-17
4626.62194 8.92497e-18
4627.96293 7.51768e-18
4629.30392 1.05165e-17
4630.64490 1.28419e-17
4631.97573 1.34970e-17
4633.31672 1.24264e-17
4634.65771 9.97319e-18
4635.99870 9.49356e-18
4637.33968 1.18690e-17
4638.68067 1.28049e-17
4640.02166 1.15628e-17
4641.36265 1.33941e-17
4642.70364 1.18992e-17
4644.04462 6.90144e-18
4645.37545 8.67207e-18
4646.71644 1.10941e-17
4648.05743 9.64422e-18
4649.39842 1.07973e-17
4650.73941 1.23549e-17
4652.08039 1.18670e-17
4653.42138 1.20689e-17
4654.76237 1.20322e-17
4656.10336 9.54872e-18
4657.44434 1.01804e-17
4658.77517 1.08127e-17
4660.11616 1.17696e-17
4661.45715 1.09755e-17
4662.79814 9.23057e-18
4664.13913 1.05268e-17
4665.48011 1.17454e-17
4666.82110 1.27350e-17
4668.16209 1.43031e-17
4669.50308 1.34430e-17
4670.84407 1.06187e-17
4672.18505 1.10226e-17
4673.51588 1.21919e-17
4674.85687 8.23153e-18
4676.19786 1.03037e-17
4677.53885 1.35660e-17
4678.87983 1.28890e-17
4680.22082 1.07217e-17
4681.56181 1.14531e-17
4682.90280 1.32204e-17
4684.24379 1.12884e-17
4685.58478 9.10075e-18
4686.91560 1.32076e-17
4688.25659 1.24036e-17
4689.59758 1.23949e-17
4690.93857 1.37770e-17
4692.27956 1.12973e-17
4693.62054 9.81506e-18
4694.96153 1.13846e-17
4696.30252 1.12906e-17
4697.64351 1.07147e-17
4698.98450 1.18936e-17
4700.31533 1.25929e-17
4701.65631 1.29549e-17
4702.99730 1.27493e-17
4704.33829 1.20395e-17
4705.67928 1.35620e-17
4707.02027 1.25367e-17
4708.36125 1.07734e-17
4709.70224 1.16283e-17
4711.04323 1.09702e-17
4712.38422 8.30438e-18
4713.71505 8.52667e-18
4715.05603 1.05542e-17
4716.39702 9.62704e-18
4717.73801 9.98877e-18
4719.07900 1.07727e-17
4720.41999 1.06228e-17
4721.76097 1.00888e-17
4723.10196 8.46095e-18
4724.44295 1.04706e-17
4725.78394 1.11293e-17
4727.12493 1.05926e-17
4728.45575 1.08167e-17
4729.79674 1.05368e-17
4731.13773 9.51804e-18
4732.47872 9.35231e-18
4733.81971 9.29403e-18
4735.16070 1.02807e-17
4736.50168 8.31923e-18
4737.84267 8.97934e-18
4739.18366 9.49887e-18
4740.52465 9.51046e-18
4741.85548 9.57863e-18
4743.19646 1.00184e-17
4744.53745 1.08043e-17
4745.87844 1.03639e-17
4747.21943 8.52674e-18
4748.56042 9.71034e-18
4749.90140 9.93969e-18
4751.24239 1.01535e-17
4752.58338 8.09319e-18
4753.92437 7.06603e-18
4755.25520 7.24961e-18
4756.59618 8.53643e-18
4757.93717 1.11179e-17
4759.27816 1.06681e-17
4760.61915 7.81786e-18
4761.96014 8.52741e-18
4763.30112 9.38418e-18
4764.64211 9.54107e-18
4765.98310 1.18282e-17
4767.32409 1.26666e-17
4768.65492 1.05739e-17
4769.99591 9.06670e-18
4771.33689 9.84856e-18
4772.67788 1.00401e-17
4774.01887 9.78623e-18
4775.35986 9.45700e-18
4776.70085 8.39635e-18
4778.04183 8.97179e-18
4779.38282 1.07642e-17
4780.72381 1.11460e-17
4782.06480 1.01435e-17
4783.39563 1.20223e-17
4784.73662 1.15909e-17
4786.07760 8.79014e-18
4787.41859 8.92198e-18
4788.75958 1.06036e-17
4790.10057 1.16641e-17
4791.44156 1.08548e-17
4792.78254 7.66850e-18
4794.12353 7.31607e-18
4795.46452 5.60562e-18
4796.79535 9.57031e-18
4798.13634 1.06862e-17
4799.47732 1.05370e-17
4800.81831 1.04959e-17
4802.15930 1.04549e-17
4803.50029 1.04139e-17
4804.84128 1.03729e-17
4806.18226 1.03319e-17
4807.52325 1.02908e-17
4808.86424 1.02498e-17
4810.20523 1.02088e-17
4811.53606 1.01678e-17
4812.87705 1.01268e-17
4814.21803 1.00858e-17
4815.55902 1.00855e-17
4816.90001 1.01845e-17
4818.24100 9.77965e-18
4819.58198 8.53505e-18
4820.92297 7.87551e-18
4822.26396 9.65903e-18
4823.59479 1.15577e-17
4824.93578 1.22530e-17
4826.27677 9.43516e-18
4827.61775 9.62466e-18
4828.95874 9.24984e-18
4830.29973 1.02695e-17
4831.64072 1.01482e-17
4832.98171 7.48121e-18
4834.32269 7.84127e-18
4835.66368 9.92453e-18
4837.00467 9.66651e-18
4838.33550 8.83620e-18
4839.67649 7.98532e-18
4841.01748 9.08892e-18
4842.35846 8.02468e-18
4843.69945 8.46740e-18
4845.04044 9.36961e-18
4846.38143 1.06015e-17
4847.72242 1.03260e-17
4849.06340 9.25450e-18
4850.40439 7.85605e-18
4851.73522 7.76846e-18
4853.07621 8.86769e-18
4854.41720 8.43163e-18
4855.75818 1.00118e-17
4857.09917 1.08800e-17
4858.44016 1.03170e-17
4859.78115 8.39750e-18
4861.12214 1.04637e-17
4862.46312 1.17357e-17
4863.80411 1.08285e-17
4865.14510 9.41088e-18
4866.47593 8.34736e-18
4867.81692 8.83338e-18
4869.15791 1.02830e-17
4870.49889 8.53963e-18
4871.83988 7.73333e-18
4873.18087 8.68990e-18
4874.52186 1.03353e-17
4875.86285 1.08555e-17
4877.20383 8.59554e-18
4878.54482 8.99099e-18
4879.87565 7.85775e-18
4881.21664 7.42168e-18
4882.55763 1.00598e-17
4883.89861 1.08099e-17
4885.23960 1.00636e-17
4886.58059 9.28754e-18
4887.92158 8.26714e-18
4889.26257 9.15388e-18
4890.60355 9.07851e-18
4891.94454 9.83421e-18
4893.27537 8.79394e-18
4894.61636 8.01343e-18
4895.95735 8.05854e-18
4897.29833 8.23400e-18
4898.63932 9.14230e-18
4899.98031 9.86120e-18
4901.32130 8.26889e-18
4902.66229 7.49538e-18
4904.00328 8.69081e-18
4905.34426 9.16465e-18
4906.67509 8.91779e-18
4908.01608 9.39644e-18
4909.35707 9.00391e-18
4910.69806 8.52303e-18
4912.03904 8.42048e-18
4913.38003 8.63595e-18
4914.72102 8.04528e-18
4916.06201 5.95127e-18
4917.40300 1.02754e-17
4918.74398 1.25353e-17
4920.08497 9.13147e-18
4921.41580 9.08858e-18
4922.75679 9.04569e-18
4924.09778 9.00279e-18
4925.43877 8.95990e-18
4926.77975 8.91702e-18
4928.12074 8.87412e-18
4929.46173 8.83125e-18
4930.80272 8.78837e-18
4932.14370 8.74548e-18
4933.48469 8.70261e-18
4934.81552 8.65974e-18
4936.15651 8.61686e-18
4937.49750 8.57399e-18
4938.83849 8.53111e-18
4940.17947 8.48824e-18
4941.52046 8.44538e-18
4942.86145 8.40252e-18
4944.20244 8.35965e-18
4945.54343 8.31680e-18
4946.88441 8.27395e-18
4948.21524 8.23109e-18
4949.55623 8.18824e-18
4950.89722 8.14540e-18
4952.23821 8.10254e-18
4953.57920 8.05970e-18
4954.92018 8.01687e-18
4956.26117 7.97403e-18
4957.60216 7.93119e-18
4958.94315 8.03652e-18
4960.28413 9.89617e-18
4961.61496 1.17089e-17
4962.95595 1.36564e-17
4964.29694 1.08636e-17
4965.63793 1.16726e-17
4966.97892 1.05230e-17
4968.31990 9.14805e-18
4969.66089 8.06009e-18
4971.00188 9.54518e-18
4972.34287 1.17522e-17
4973.68386 1.05955e-17
4975.02484 9.22381e-18
4976.35567 1.06360e-17
4977.69666 8.19770e-18
4979.03765 1.16048e-17
4980.37864 1.15703e-17
4981.71962 9.63163e-18
4983.06061 9.98016e-18
4984.40160 1.06050e-17
4985.74259 8.81941e-18
4987.08358 1.04206e-17
4988.42457 1.19912e-17
4989.75539 1.05674e-17
4991.09638 1.16165e-17
4992.43737 1.29690e-17
4993.77836 1.14613e-17
4995.11935 9.38862e-18
4996.46033 1.11979e-17
4997.80132 9.45470e-18
4999.14231 8.02783e-18
5000.48330 8.79022e-18
5001.82429 9.37984e-18
5003.15512 1.00894e-17
5004.49610 1.19339e-17
5005.83709 1.20406e-17
5007.17808 9.48229e-18
5008.51907 9.62428e-18
5009.86006 8.99300e-18
5011.20104 9.82499e-18
5012.54203 7.98141e-18
5013.88302 8.17065e-18
5015.22401 9.80680e-18
5016.55484 9.66689e-18
5017.89582 9.61847e-18
5019.23681 9.93528e-18
5020.57780 9.92545e-18
5021.91879 9.91562e-18
5023.25978 9.90578e-18
5024.60076 9.89595e-18
5025.94175 9.88612e-18
5027.28274 9.87629e-18
5028.62373 9.86646e-18
5029.96472 9.85663e-18
5031.29554 9.84680e-18
5032.63653 9.83697e-18
5033.97752 9.82715e-18
5035.31851 9.81732e-18
5036.65950 9.80749e-18
5038.00048 9.79767e-18
5039.34147 9.78785e-18
5040.68246 9.77802e-18
5042.02345 9.76820e-18
5043.36444 9.75837e-18
5044.69527 9.74855e-18
5046.03625 9.73873e-18
5047.37724 9.72891e-18
5048.71823 9.71909e-18
5050.05922 9.70927e-18
5051.40021 9.69944e-18
5052.74119 9.68962e-18
5054.08218 9.67980e-18
5055.42317 9.66999e-18
5056.76416 9.66017e-18
5058.10515 8.90099e-18
5059.43598 8.41952e-18
5060.77696 7.87283e-18
5062.11795 8.67726e-18
5063.45894 8.25974e-18
5064.79993 8.35045e-18
5066.14092 8.73972e-18
5067.48190 7.03658e-18
5068.82289 7.10519e-18
5070.16388 7.17382e-18
5071.49471 7.24243e-18
5072.83570 7.31103e-18
5074.17668 7.37965e-18
5075.51767 7.44825e-18
5076.85866 7.51684e-18
5078.19965 7.58548e-18
5079.54064 7.65406e-18
5080.88162 7.72265e-18
5082.22261 7.79125e-18
5083.56360 7.85982e-18
5084.90459 7.92840e-18
5086.23542 7.99699e-18
5087.57640 8.06556e-18
5088.91739 8.13412e-18
5090.25838 8.20268e-18
5091.59937 8.27126e-18
5092.94036 8.33981e-18
5094.28135 8.40836e-18
5095.62233 8.47693e-18
5096.96332 8.54548e-18
5098.30431 8.61401e-18
5099.63514 8.68258e-18
5100.97613 8.75111e-18
5102.31711 8.81964e-18
5103.65810 8.88819e-18
5104.99909 8.95672e-18
5106.34008 8.33408e-18
5107.68107 8.52122e-18
5109.02205 1.01418e-17
5110.36304 1.20343e-17
5111.70403 1.03813e-17
5113.04502 7.54999e-18
5114.37585 9.97532e-18
5115.71684 1.05087e-17
5117.05782 8.85954e-18
5118.39881 8.04834e-18
5119.73980 7.39130e-18
5121.08079 7.43596e-18
5122.42177 8.36776e-18
5123.76276 8.92933e-18
5125.10375 8.12138e-18
5126.44474 7.30346e-18
5127.77557 7.12075e-18
5129.11656 6.86075e-18
5130.45754 7.73938e-18
5131.79853 8.69290e-18
5133.13952 7.60608e-18
5134.48051 8.47816e-18
5135.82150 7.33338e-18
5137.16248 9.54416e-18
5138.50347 9.93769e-18
5139.84446 1.02892e-17
5141.17529 9.48106e-18
5142.51628 8.50181e-18
5143.85727 9.19711e-18
5145.19825 6.72144e-18
5146.53924 6.71180e-18
5147.88023 1.00115e-17
5149.22122 1.05666e-17
5150.56221 9.38283e-18
5151.90319 6.46314e-18
5153.24418 6.69757e-18
5154.57501 8.97093e-18
5155.91600 1.02183e-17
5157.25699 1.05515e-17
5158.59797 1.05849e-17
5159.93896 9.26225e-18
5161.27995 7.68804e-18
5162.62094 8.55777e-18
5163.96193 6.59636e-18
5165.30291 8.88350e-18
5166.64390 9.37363e-18
5167.98489 7.59994e-18
5169.31572 9.39395e-18
5170.65671 9.96824e-18
5171.99770 8.57634e-18
5173.33868 9.47764e-18
5174.67967 1.09757e-17
5176.02066 9.79068e-18
5177.36165 7.69182e-18
5178.70263 8.36115e-18
5180.04362 1.19439e-17
5181.38461 1.26804e-17
5182.71544 1.04900e-17
5184.05643 8.53591e-18
5185.39742 7.34069e-18
5186.73840 8.95277e-18
5188.07939 1.10793e-17
5189.42038 9.81718e-18
5190.76137 7.95227e-18
5192.10236 7.57084e-18
5193.44334 6.53308e-18
5194.78433 8.39876e-18
5196.11516 8.25944e-18
5197.45615 9.46423e-18
5198.79714 9.93192e-18
5200.13813 9.68053e-18
5201.47911 8.79741e-18
5202.82010 8.24714e-18
5204.16109 8.29095e-18
5205.50208 7.73407e-18
5206.84307 7.84789e-18
5208.18405 1.05149e-17
5209.51488 8.59908e-18
5210.85587 7.35352e-18
5212.19686 7.61054e-18
5213.53785 8.58187e-18
5214.87883 8.61251e-18
5216.21982 8.83854e-18
5217.56081 1.12680e-17
5218.90180 1.26598e-17
5220.24279 1.07661e-17
5221.58377 9.89243e-18
5222.92476 9.63413e-18
5224.25559 9.66675e-18
5225.59658 9.01850e-18
5226.93757 9.02406e-18
5228.27855 1.13766e-17
5229.61954 1.13915e-17
5230.96053 8.53420e-18
5232.30152 7.22093e-18
5233.64251 9.01395e-18
5234.98350 1.00292e-17
5236.32448 9.19631e-18
5237.65531 1.10347e-17
5238.99630 1.18008e-17
5240.33729 9.29591e-18
5241.67828 8.66944e-18
5243.01926 9.01522e-18
5244.36025 1.21988e-17
5245.70124 1.22741e-17
5247.04223 9.11427e-18
5248.38322 8.42591e-18
5249.72420 1.06917e-17
5251.06519 1.16019e-17
5252.39602 1.07058e-17
5253.73701 9.25793e-18
5255.07800 9.05004e-18
5256.41898 9.99068e-18
5257.75997 9.30952e-18
5259.10096 7.36869e-18
5260.44195 1.00348e-17
5261.78294 1.23633e-17
5263.12392 1.08680e-17
5264.45475 8.47461e-18
5265.79574 8.32623e-18
5267.13673 1.09797e-17
5268.47772 1.41155e-17
5269.81871 1.08919e-17
5271.15969 1.09924e-17
5272.50068 1.19868e-17
5273.84167 9.33650e-18
5275.18266 9.06807e-18
5276.52365 9.30592e-18
5277.86463 9.28474e-18
5279.19546 1.11484e-17
5280.53645 1.40576e-17
5281.87744 1.44786e-17
5283.21843 1.18623e-17
5284.55942 8.97785e-18
5285.90040 9.35658e-18
5287.24139 1.10385e-17
5288.58238 1.14882e-17
5289.92337 9.90069e-18
5291.26436 8.64164e-18
5292.59518 9.83392e-18
5293.93617 1.08068e-17
5295.27716 1.06362e-17
5296.61815 1.12901e-17
5297.95914 1.17386e-17
5299.30012 1.09080e-17
5300.64111 1.06250e-17
5301.98210 1.11124e-17
5303.32309 1.26493e-17
5304.66408 1.20996e-17
5306.00506 9.38277e-18
5307.33589 1.08237e-17
5308.67688 1.33388e-17
5310.01787 1.14322e-17
5311.35886 9.00209e-18
5312.69985 1.01639e-17
5314.04083 1.01243e-17
5315.38182 1.09691e-17
5316.72281 1.08990e-17
5318.06380 1.07821e-17
5319.40478 1.03756e-17
5320.73561 1.02922e-17
5322.07660 1.06599e-17
5323.41759 1.12793e-17
5324.75858 1.14568e-17
5326.09957 1.11338e-17
5327.44055 1.03325e-17
5328.78154 9.09033e-18
5330.12253 1.01414e-17
5331.46352 1.37623e-17
5332.80451 1.21860e-17
5334.13533 1.12882e-17
5335.47632 1.00690e-17
5336.81731 9.17466e-18
5338.15830 1.08330e-17
5339.49929 1.12133e-17
5340.84028 1.02540e-17
5342.18126 1.12623e-17
5343.52225 1.21644e-17
5344.86324 1.13589e-17
5346.20423 1.09504e-17
5347.53506 1.10715e-17
5348.87604 1.08899e-17
5350.21703 1.10872e-17
5351.55802 1.28935e-17
5352.89901 1.22881e-17
5354.24000 1.13219e-17
5355.58098 1.15372e-17
5356.92197 1.11469e-17
5358.26296 1.01825e-17
5359.60395 1.03373e-17
5360.94494 1.15229e-17
5362.27577 1.21181e-17
5363.61675 1.16849e-17
5364.95774 1.30214e-17
5366.29873 1.23031e-17
5367.63972 1.09416e-17
5368.98070 1.09117e-17
5370.32169 1.21239e-17
5371.66268 1.17265e-17
5373.00367 9.50750e-18
5374.34466 1.03239e-17
5375.67549 1.39846e-17
5377.01647 1.14660e-17
5378.35746 1.25920e-17
5379.69845 1.58203e-17
5381.03944 1.20780e-17
5382.38043 1.18987e-17
5383.72141 1.32722e-17
5385.06240 1.36011e-17
5386.40339 1.45014e-17
5387.74438 1.47844e-17
5389.07521 1.21277e-17
5390.41620 1.00939e-17
5391.75718 1.18334e-17
5393.09817 1.41162e-17
5394.43916 1.32573e-17
5395.78015 1.18907e-17
5397.12113 1.28081e-17
5398.46212 1.25692e-17
5399.80311 1.14887e-17
5401.14410 1.15908e-17
5402.47493 1.26923e-17
5403.81592 1.27641e-17
5405.15690 1.17610e-17
5406.49789 1.28142e-17
5407.83888 1.17569e-17
5409.17987 1.06624e-17
5410.52086 1.21521e-17
5411.86184 1.34016e-17
5413.20283 1.23062e-17
5414.54382 1.06036e-17
5415.88481 1.11764e-17
5417.21564 1.17925e-17
5418.55663 1.17585e-17
5419.89761 1.34265e-17
5421.23860 1.32276e-17
5422.57959 1.30406e-17
5423.92058 1.21632e-17
5425.26157 1.25154e-17
5426.60255 1.16438e-17
5427.94354 1.15029e-17
5429.28453 1.05426e-17
5430.61536 1.25703e-17
5431.95635 1.40287e-17
5433.29733 1.16029e-17
5434.63832 9.96956e-18
5435.97931 1.04903e-17
5437.32030 1.12701e-17
5438.66129 1.13366e-17
5440.00227 1.34387e-17
5441.34326 1.23257e-17
5442.68425 1.40812e-17
5444.01508 1.51421e-17
5445.35607 1.24600e-17
5446.69705 1.06270e-17
5448.03804 1.16720e-17
5449.37903 1.14101e-17
5450.72002 8.85782e-18
5452.06101 8.61080e-18
5453.40200 1.17629e-17
5454.74298 1.03975e-17
5456.08397 1.26065e-17
5457.41480 1.22422e-17
5458.75579 1.16811e-17
5460.09678 1.35582e-17
5461.43776 1.56863e-17
5462.77875 1.41791e-17
5464.11974 1.15574e-17
5465.46073 1.21177e-17
5466.80172 1.23007e-17
5468.14270 1.09283e-17
5469.48369 1.34664e-17
5470.82468 1.13719e-17
5472.15551 1.19031e-17
5473.49650 1.17970e-17
5474.83749 1.12710e-17
5476.17847 1.03981e-17
5477.51946 9.86225e-18
5478.86045 1.11927e-17
5480.20144 1.25781e-17
5481.54243 1.16268e-17
5482.88341 1.24270e-17
5484.22440 1.20765e-17
5485.55523 1.10125e-17
5486.89622 1.27658e-17
5488.23721 1.35971e-17
5489.57819 1.30507e-17
5490.91918 1.19378e-17
5492.26017 1.02078e-17
5493.60116 1.08181e-17
5494.94215 1.29483e-17
5496.28313 1.21895e-17
5497.62412 1.16419e-17
5498.96511 1.15244e-17
5500.29594 1.15470e-17
5501.63693 1.18232e-17
5502.97792 1.25627e-17
5504.31890 1.34207e-17
5505.65989 1.26869e-17
5507.00088 1.18225e-17
5508.34187 1.20307e-17
5509.68286 1.32414e-17
5511.02384 1.35961e-17
5512.35467 1.16724e-17
5513.69566 1.25410e-17
5515.03665 1.53807e-17
5516.37764 1.28713e-17
5517.71862 1.23937e-17
5519.05961 1.42531e-17
5520.40060 1.38030e-17
5521.74159 1.23755e-17
5523.08258 1.24829e-17
5524.42356 1.27320e-17
5525.76455 1.26445e-17
5527.09538 1.41029e-17
5528.43637 1.51369e-17
5529.77736 1.46196e-17
5531.11835 1.42897e-17
5532.45933 1.29477e-17
5533.80032 1.35667e-17
5535.14131 1.46226e-17
5536.48230 1.44337e-17
5537.82328 1.41355e-17
5539.16427 1.44754e-17
5540.49510 1.45414e-17
5541.83609 1.45973e-17
5543.17708 1.56272e-17
5544.51807 1.51179e-17
5545.85905 1.29377e-17
5547.20004 1.45299e-17
5548.54103 1.68505e-17
5549.88202 1.45701e-17
5551.22301 1.19923e-17
5552.56399 1.37296e-17
5553.90498 1.49309e-17
5555.23581 1.34276e-17
5556.57680 1.28130e-17
5557.91779 1.31196e-17
5559.25878 1.38360e-17
5560.59976 1.55447e-17
5561.94075 1.70219e-17
5563.28174 1.51594e-17
5564.62273 1.39602e-17
5565.96372 1.27989e-17
5567.30470 1.34726e-17
5568.63553 1.53821e-17
5569.97652 1.37526e-17
5571.31751 1.16092e-17
5572.65850 1.41791e-17
5573.99948 1.37303e-17
5575.34047 1.16712e-17
5576.68146 1.97999e-17
5578.02245 1.28407e-17
5579.36344 1.08950e-17
5580.70442 1.44059e-17
5582.03525 1.57378e-17
5583.37624 1.54100e-17
5584.71723 1.41272e-17
5586.05822 1.35286e-17
5587.39920 1.47410e-17
5588.74019 1.40986e-17
5590.08118 1.28733e-17
5591.42217 1.26182e-17
5592.76316 1.42236e-17
5594.10415 1.47910e-17
5595.43497 1.40120e-17
5596.77596 1.52438e-17
5598.11695 1.57264e-17
5599.45794 1.43212e-17
5600.79893 1.32667e-17
5602.13991 1.35000e-17
5603.48090 1.37380e-17
5604.82189 1.31503e-17
5606.16288 1.18580e-17
5607.50387 1.35173e-17
5608.84485 1.46281e-17
5610.17568 1.41438e-17
5611.51667 1.43039e-17
5612.85766 1.29418e-17
5614.19865 1.36316e-17
5615.53964 1.40566e-17
5616.88062 1.21415e-17
5618.22161 1.27132e-17
5619.56260 1.57242e-17
5620.90359 1.55622e-17
5622.24457 1.17099e-17
5623.57540 1.18841e-17
5624.91639 1.40918e-17
5626.25738 1.50298e-17
5627.59837 1.34991e-17
5628.93936 1.38907e-17
5630.28034 1.44270e-17
5631.62133 1.29379e-17
5632.96232 1.22604e-17
5634.30331 1.36472e-17
5635.64430 1.47498e-17
5636.97512 1.44068e-17
5638.31611 1.23294e-17
5639.65710 1.28825e-17
5640.99809 1.31021e-17
5642.33908 1.21185e-17
5643.68007 1.18542e-17
5645.02105 1.34901e-17
5646.36204 1.39811e-17
5647.70303 1.26473e-17
5649.04402 1.28559e-17
5650.37485 1.44857e-17
5651.71583 1.54812e-17
5653.05682 1.21226e-17
5654.39781 1.18869e-17
5655.73880 1.25901e-17
5657.07979 1.25745e-17
5658.42077 1.46450e-17
5659.76176 1.38623e-17
5661.10275 1.32941e-17
5662.44374 1.47838e-17
5663.78473 1.36267e-17
5665.11556 1.16724e-17
5666.45654 1.33622e-17
5667.79753 1.54579e-17
5669.13852 1.47800e-17
5670.47951 1.19488e-17
5671.82049 1.24722e-17
5673.16148 1.22544e-17
5674.50247 1.14536e-17
5675.84346 1.28356e-17
5677.18445 1.42078e-17
5678.51528 1.27235e-17
5679.85626 1.20035e-17
5681.19725 1.45359e-17
5682.53824 1.26359e-17
5683.87923 1.22024e-17
5685.22022 1.51983e-17
5686.56120 1.47990e-17
5687.90219 1.47669e-17
5689.24318 1.23752e-17
5690.58417 1.08254e-17
5691.91500 1.29033e-17
5693.25598 1.50118e-17
5694.59697 1.45814e-17
5695.93796 1.42804e-17
5697.27895 1.43451e-17
5698.61994 1.47589e-17
5699.96093 1.41156e-17
5701.30191 1.36661e-17
5702.64290 1.21819e-17
5703.98389 1.16664e-17
5705.31472 1.40159e-17
5706.65571 1.39952e-17
5707.99669 1.19258e-17
5709.33768 1.36121e-17
5710.67867 1.56780e-17
5712.01966 1.17713e-17
5713.36065 1.18210e-17
5714.70163 1.44290e-17
5716.04262 1.46403e-17
5717.38361 1.28451e-17
5718.72460 1.32532e-17
5720.05543 1.34835e-17
5721.39642 1.33219e-17
5722.73740 1.24416e-17
5724.07839 1.09331e-17
5725.41938 1.12021e-17
5726.76037 1.34926e-17
5728.10135 1.47931e-17
5729.44234 1.42496e-17
5730.78333 1.28938e-17
5732.12432 1.30631e-17
5733.45515 1.34246e-17
5734.79614 1.37971e-17
5736.13712 1.29619e-17
5737.47811 1.18714e-17
5738.81910 1.24234e-17
5740.16009 1.28503e-17
5741.50108 1.13427e-17
5742.84206 1.18107e-17
5744.18305 1.21251e-17
5745.52404 1.04920e-17
5746.86503 1.17729e-17
5748.19586 1.20827e-17
5749.53685 1.05833e-17
5750.87783 9.98401e-18
5752.21882 1.10745e-17
5753.55981 1.24448e-17
5754.90080 1.32504e-17
5756.24179 1.36695e-17
5757.58277 1.34565e-17
5758.92376 1.21549e-17
5760.25459 1.09637e-17
5761.59558 1.00781e-17
5762.93657 1.04559e-17
5764.27755 1.05236e-17
5765.61854 1.00894e-17
5766.95953 9.90532e-18
5768.30052 1.00241e-17
5769.64151 1.00662e-17
5770.98249 1.02523e-17
5772.32348 1.08193e-17
5773.66447 1.11021e-17
5774.99530 1.12993e-17
5776.33629 1.07607e-17
5777.67728 9.59582e-18
5779.01826 9.58911e-18
5780.35925 9.95409e-18
5781.70024 1.03815e-17
5783.04123 1.06445e-17
5784.38222 9.43166e-18
5785.72320 6.21861e-18
5787.06419 5.24399e-18
5788.39502 1.03150e-17
5789.73601 1.15526e-17
5791.07700 1.14990e-17
5792.41798 1.08714e-17
5793.75897 9.57923e-18
5795.09996 7.78822e-18
5796.44095 9.03483e-18
5797.78194 9.61503e-18
5799.12292 8.95715e-18
5800.46391 8.95311e-18
5801.80490 9.29265e-18
5803.13573 1.01129e-17
5804.47672 9.09409e-18
5805.81771 7.41590e-18
5807.15869 7.96496e-18
5808.49968 8.59404e-18
5809.84067 8.97777e-18
5811.18166 7.57369e-18
5812.52265 8.05879e-18
5813.86363 9.04396e-18
5815.20462 9.71006e-18
5816.53545 9.71875e-18
5817.87644 7.96691e-18
5819.21743 9.78897e-18
5820.55841 9.47041e-18
5821.89940 8.66667e-18
5823.24039 1.00659e-17
5824.58138 7.23469e-18
5825.92237 6.55580e-18
5827.26335 6.85323e-18
5828.60434 6.94534e-18
5829.93517 7.81808e-18
5831.27616 9.06354e-18
5832.61715 9.93297e-18
5833.95813 1.08053e-17
5835.29912 9.66228e-18
5836.64011 8.60574e-18
5837.98110 7.60966e-18
5839.32209 8.22128e-18
5840.66308 1.01537e-17
5842.00406 9.93734e-18
5843.33489 8.52754e-18
5844.67588 9.32035e-18
5846.01687 9.50687e-18
5847.35786 7.92036e-18
5848.69884 9.29666e-18
5850.03983 9.31156e-18
5851.38082 8.99764e-18
5852.72181 9.13314e-18
5854.06280 1.02609e-17
5855.40378 1.12565e-17
5856.74477 1.14471e-17
5858.07560 8.33602e-18
5859.41659 8.83780e-18
5860.75758 1.03712e-17
5862.09857 8.26265e-18
5863.43955 8.56618e-18
5864.78054 1.08100e-17
5866.12153 1.05061e-17
5867.46252 6.22393e-18
5868.80350 6.38253e-18
5870.14449 8.57400e-18
5871.47532 8.67678e-18
5872.81631 8.93210e-18
5874.15730 9.56182e-18
5875.49829 9.16434e-18
5876.83927 8.45486e-18
5878.18026 8.88878e-18
5879.52125 9.77996e-18
5880.86224 1.03358e-17
5882.20323 1.20964e-17
5883.54421 9.59569e-18
5884.87504 9.35428e-18
5886.21603 8.36931e-18
5887.55702 1.01751e-17
5888.89801 1.01804e-17
5890.23900 7.79728e-18
5891.57998 8.41642e-18
5892.92097 1.14100e-17
5894.26196 1.16700e-17
5895.60295 1.18788e-17
5896.94393 1.27089e-17
5898.27476 9.73109e-18
5899.61575 8.50089e-18
5900.95674 8.28966e-18
5902.29773 8.22092e-18
5903.63872 9.54826e-18
5904.97970 9.74144e-18
5906.32069 9.19753e-18
5907.66168 9.65986e-18
5909.00267 1.03552e-17
5910.34366 1.12014e-17
5911.68464 1.16710e-17
5913.01547 1.21518e-17
5914.35646 1.27960e-17
5915.69745 1.08024e-17
5917.03844 9.29926e-18
5918.37943 9.19968e-18
5919.72041 1.17749e-17
5921.06140 1.38216e-17
5922.40239 1.29657e-17
5923.74338 1.13881e-17
5925.08437 1.12092e-17
5926.41519 1.22802e-17
5927.75618 1.27323e-17
5929.09717 1.08042e-17
5930.43816 8.16312e-18
5931.77915 9.21306e-18
5933.12013 1.22723e-17
5934.46112 1.39467e-17
5935.80211 1.25917e-17
5937.14310 1.09154e-17
5938.48409 1.14901e-17
5939.81492 1.23262e-17
5941.15590 1.20547e-17
5942.49689 1.41733e-17
5943.83788 1.15057e-17
5945.17887 9.51320e-18
5946.51985 1.15237e-17
5947.86084 1.27433e-17
5949.20183 1.34700e-17
5950.54282 1.27518e-17
5951.88381 1.20196e-17
5953.22480 1.23397e-17
5954.55562 1.22440e-17
5955.89661 1.19815e-17
5957.23760 1.25950e-17
5958.57859 1.20652e-17
5959.91958 1.35146e-17
5961.26056 1.33050e-17
5962.60155 1.25666e-17
5963.94254 1.46032e-17
5965.28353 1.42982e-17
5966.62452 1.30285e-17
5967.95535 1.40907e-17
5969.29633 1.51493e-17
5970.63732 1.46089e-17
5971.97831 1.47396e-17
5973.31930 1.29389e-17
5974.66028 1.09270e-17
5976.00127 1.30189e-17
5977.34226 1.26223e-17
5978.68325 1.01720e-17
5980.02424 1.20309e-17
5981.35507 1.45413e-17
5982.69605 1.38252e-17
5984.03704 1.23689e-17
5985.37803 1.19217e-17
5986.71902 1.14251e-17
5988.06001 1.24887e-17
5989.40099 1.18133e-17
5990.74198 1.07565e-17
5992.08297 1.32158e-17
5993.42396 1.38117e-17
5994.75479 1.28940e-17
5996.09577 1.37085e-17
5997.43676 1.55293e-17
5998.77775 1.52153e-17
6000.11874 1.31294e-17
6001.45973 1.28810e-17
6002.80072 1.46637e-17
6004.14170 1.37011e-17
6005.48269 1.14934e-17
6006.82368 1.24102e-17
6008.16467 1.39016e-17
6009.49550 1.35266e-17
6010.83648 1.34100e-17
6012.17747 1.41888e-17
6013.51846 1.44766e-17
6014.85945 1.38581e-17
6016.20044 1.31872e-17
6017.54142 1.36322e-17
6018.88241 1.58577e-17
6020.22340 1.28302e-17
6021.56439 1.41078e-17
6022.89522 1.39610e-17
6024.23621 1.53649e-17
6025.57719 1.51417e-17
6026.91818 1.46539e-17
6028.25917 1.47376e-17
6029.60016 1.40260e-17
6030.94115 1.34960e-17
6032.28213 1.45588e-17
6033.62312 1.43703e-17
6034.96411 1.38385e-17
6036.29494 1.46889e-17
6037.63593 1.35084e-17
6038.97691 1.08965e-17
6040.31790 1.06386e-17
6041.65889 1.20284e-17
6042.99988 1.10413e-17
6044.34087 1.02506e-17
6045.68185 1.20742e-17
6047.02284 1.25523e-17
6048.36383 1.18822e-17
6049.70482 1.32684e-17
6051.03565 1.26044e-17
6052.37663 1.29298e-17
6053.71762 1.19722e-17
6055.05861 1.39890e-17
6056.39960 1.41399e-17
6057.74059 1.34035e-17
6059.08158 1.39858e-17
6060.42256 1.47123e-17
6061.76355 1.45008e-17
6063.10454 1.41832e-17
6064.43537 1.41919e-17
6065.77636 1.27068e-17
6067.11734 1.18660e-17
6068.45833 1.36259e-17
6069.79932 1.25753e-17
6071.14031 1.25336e-17
6072.48130 1.32894e-17
6073.82228 1.35743e-17
6075.16327 1.34256e-17
6076.50426 1.28660e-17
6077.83509 1.22551e-17
6079.17608 1.27165e-17
6080.51707 1.34068e-17
6081.85805 1.28133e-17
6083.19904 1.31962e-17
6084.54003 1.26207e-17
6085.88102 1.33027e-17
6087.22200 1.27086e-17
6088.56299 1.24023e-17
6089.90398 1.34806e-17
6091.24497 1.36135e-17
6092.57580 1.19524e-17
6093.91679 1.13135e-17
6095.25777 1.33489e-17
6096.59876 1.31818e-17
6097.93975 1.50219e-17
6099.28074 1.20983e-17
6100.62173 1.07287e-17
6101.96271 1.30560e-17
6103.30370 1.41062e-17
6104.64469 1.24546e-17
6105.97552 1.21606e-17
6107.31651 1.25773e-17
6108.65750 1.07818e-17
6109.99848 1.24254e-17
6111.33947 1.24919e-17
6112.68046 1.22394e-17
6114.02145 1.13803e-17
6115.36244 1.26755e-17
6116.70342 1.16001e-17
6118.04441 1.08703e-17
6119.37524 1.17398e-17
6120.71623 1.35140e-17
6122.05722 1.42496e-17
6123.39820 1.21862e-17
6124.73919 1.02091e-17
6126.08018 1.16166e-17
6127.42117 1.30537e-17
6128.76216 1.57327e-17
6130.10314 1.34995e-17
6131.44413 1.48453e-17
6132.77496 1.52317e-17
6134.11595 1.44065e-17
6135.45694 1.34579e-17
6136.79792 1.19629e-17
6138.13891 1.17846e-17
6139.47990 1.37390e-17
6140.82089 1.27705e-17
6142.16188 1.13156e-17
6143.50287 1.21585e-17
6144.84385 1.16322e-17
6146.18484 1.10557e-17
6147.51567 1.08488e-17
6148.85666 1.04770e-17
6150.19765 1.15007e-17
6151.53863 1.20465e-17
6152.87962 1.06693e-17
6154.22061 1.04691e-17
6155.56160 1.12400e-17
6156.90259 1.06736e-17
6158.24357 9.25884e-18
6159.58456 9.42675e-18
6160.91539 1.15435e-17
6162.25638 1.08274e-17
6163.59737 1.10166e-17
6164.93836 1.19760e-17
6166.27934 1.14353e-17
6167.62033 1.11867e-17
6168.96132 1.28289e-17
6170.30231 1.36090e-17
6171.64330 1.33476e-17
6172.98428 1.31043e-17
6174.31511 1.20985e-17
6175.65610 1.22707e-17
6176.99709 1.33877e-17
6178.33808 1.38946e-17
6179.67906 1.31433e-17
6181.02005 1.13122e-17
6182.36104 1.11113e-17
6183.70203 1.28659e-17
6185.04302 1.23171e-17
6186.38400 1.00031e-17
6187.72499 1.13889e-17
6189.05582 1.36946e-17
6190.39681 1.31633e-17
6191.73780 1.26121e-17
6193.07878 1.22785e-17
6194.41977 1.09060e-17
6195.76076 1.14829e-17
6197.10175 1.34345e-17
6198.44274 1.34656e-17
6199.78373 1.24764e-17
6201.12471 1.22787e-17
6202.45554 1.11170e-17
6203.79653 1.28606e-17
6205.13752 1.35017e-17
6206.47851 1.04383e-17
6207.81949 1.17802e-17
6209.16048 1.35394e-17
6210.50147 1.20862e-17
6211.84246 1.15127e-17
6213.18345 1.37040e-17
6214.52443 1.49251e-17
6215.85526 1.41642e-17
6217.19625 1.33808e-17
6218.53724 1.10676e-17
6219.87823 1.11887e-17
6221.21922 1.22598e-17
6222.56020 1.19758e-17
6223.90119 1.22414e-17
6225.24218 1.29194e-17
6226.58317 1.22223e-17
6227.92415 1.20094e-17
6229.25498 1.30628e-17
6230.59597 1.32757e-17
6231.93696 1.42250e-17
6233.27795 1.53859e-17
6234.61894 1.49955e-17
6235.95992 1.37475e-17
6237.30091 1.46910e-17
6238.64190 1.38609e-17
6239.98289 1.18987e-17
6241.32388 1.17199e-17
6242.66486 1.23999e-17
6243.99569 1.26480e-17
6245.33668 1.33954e-17
6246.67767 1.39024e-17
6248.01866 1.27657e-17
6249.35965 1.29527e-17
6250.70063 1.29081e-17
6252.04162 1.15066e-17
6253.38261 1.15966e-17
6254.72360 1.27511e-17
6256.06459 1.34552e-17
6257.39541 1.38344e-17
6258.73640 1.28468e-17
6260.07739 1.08370e-17
6261.41838 1.10203e-17
6262.75937 1.29675e-17
6264.10035 1.41672e-17
6265.44134 1.34457e-17
6266.78233 1.32705e-17
6268.12332 1.20513e-17
6269.46431 1.22979e-17
6270.79513 1.26461e-17
6272.13612 1.32507e-17
6273.47711 1.30507e-17
6274.81810 1.19492e-17
6276.15909 1.11800e-17
6277.50007 1.06800e-17
6278.84106 1.31234e-17
6280.18205 1.15918e-17
6281.52304 1.20697e-17
6282.86403 1.23725e-17
6284.20502 1.50261e-17
6285.53584 1.36680e-17
6286.87683 1.25754e-17
6288.21782 1.35177e-17
6289.55881 1.36845e-17
6290.89980 1.36600e-17
6292.24078 1.41524e-17
6293.58177 1.20810e-17
6294.92276 1.23834e-17
6296.26375 1.36251e-17
6297.60474 1.37072e-17
6298.93557 1.17742e-17
6300.27655 1.31761e-17
6301.61754 1.55774e-17
6302.95853 1.62117e-17
6304.29952 1.48312e-17
6305.64051 1.31146e-17
6306.98149 1.30451e-17
6308.32248 1.39833e-17
6309.66347 1.38091e-17
6311.00446 1.33794e-17
6312.33529 1.32962e-17
6313.67627 1.46141e-17
6315.01726 1.29479e-17
6316.35825 1.22169e-17
6317.69924 1.25656e-17
6319.04023 1.32820e-17
6320.38121 1.39564e-17
6321.72220 1.46496e-17
6323.06319 1.53998e-17
6324.40418 1.31433e-17
6325.73501 1.28205e-17
6327.07600 1.46487e-17
6328.41698 1.45974e-17
6329.75797 1.36043e-17
6331.09896 1.35393e-17
6332.43995 1.41563e-17
6333.78093 1.40676e-17
6335.12192 1.40963e-17
6336.46291 1.54625e-17
6337.80390 1.57198e-17
6339.14489 1.24579e-17
6340.47572 1.10536e-17
6341.81670 1.39691e-17
6343.15769 1.43684e-17
6344.49868 1.48892e-17
6345.83967 1.44891e-17
6347.18066 1.34028e-17
6348.52164 1.15163e-17
6349.86263 1.11091e-17
6351.20362 1.31423e-17
6352.54461 1.51654e-17
6353.87544 1.60237e-17
6355.21643 1.61142e-17
6356.55741 1.47669e-17
6357.89840 1.39098e-17
6359.23939 1.36762e-17
6360.58038 1.46221e-17
6361.92137 1.52443e-17
6363.26235 1.47408e-17
6364.60334 1.43669e-17
6365.94433 1.48183e-17
6367.27516 1.42733e-17
6368.61615 1.22195e-17
6369.95713 1.29452e-17
6371.29812 1.73951e-17
6372.63911 1.47171e-17
6373.98010 1.30843e-17
6375.32109 1.41497e-17
6376.66207 1.34525e-17
6378.00306 1.32139e-17
6379.34405 1.43193e-17
6380.67488 1.48558e-17
6382.01587 1.41196e-17
6383.35685 1.41683e-17
6384.69784 1.55469e-17
6386.03883 1.36672e-17
6387.37982 1.36373e-17
6388.72081 1.70732e-17
6390.06180 1.50459e-17
6391.40278 1.44830e-17
6392.74377 1.53883e-17
6394.08476 1.35529e-17
6395.41559 1.15944e-17
6396.75658 1.34190e-17
6398.09756 1.65090e-17
6399.43855 1.67637e-17
6400.77954 1.50944e-17
6402.12053 1.50937e-17
6403.46152 1.61465e-17
6404.80250 1.58353e-17
6406.14349 1.39300e-17
6407.48448 1.33813e-17
6408.81531 1.37723e-17
6410.15630 1.50153e-17
6411.49728 1.60619e-17
6412.83827 1.54345e-17
6414.17926 1.43567e-17
6415.52025 1.47723e-17
6416.86124 1.54071e-17
6418.20222 1.58546e-17
6419.54321 1.52287e-17
6420.88420 1.73520e-17
6422.22519 1.78378e-17
6423.55602 1.66342e-17
6424.89701 1.41602e-17
6426.23799 1.16641e-17
6427.57898 1.15488e-17
6428.91997 1.40938e-17
6430.26096 1.52566e-17
6431.60195 1.22735e-17
6432.94293 1.39157e-17
6434.28392 1.47632e-17
6435.62491 1.27478e-17
6436.95574 1.31206e-17
6438.29673 1.41794e-17
6439.63772 1.49027e-17
6440.97870 1.51081e-17
6442.31969 1.54496e-17
6443.66068 1.57052e-17
6445.00167 1.45454e-17
6446.34266 1.30378e-17
6447.68364 1.30380e-17
6449.02463 1.50661e-17
6450.35546 1.47999e-17
6451.69645 1.39768e-17
6453.03744 1.37378e-17
6454.37842 1.42394e-17
6455.71941 1.33824e-17
6457.06040 1.29823e-17
6458.40139 1.43801e-17
6459.74238 1.49632e-17
6461.08336 1.47019e-17
6462.42435 1.51460e-17
6463.75518 1.19929e-17
6465.09617 1.32827e-17
6466.43716 1.37026e-17
6467.77815 1.35516e-17
6469.11913 1.29630e-17
6470.46012 1.28476e-17
6471.80111 1.29101e-17
6473.14210 1.26359e-17
6474.48308 1.22123e-17
6475.82407 1.26237e-17
6477.16506 1.44646e-17
6478.49589 1.24407e-17
6479.83688 1.27230e-17
6481.17787 1.30053e-17
6482.51885 1.27861e-17
6483.85984 1.26945e-17
6485.20083 1.34206e-17
6486.54182 1.32610e-17
6487.88281 1.36217e-17
6489.22379 1.48228e-17
6490.56478 1.44340e-17
6491.89561 1.40057e-17
6493.23660 1.32549e-17
6494.57759 1.24821e-17
6495.91858 1.39888e-17
6497.25956 1.38021e-17
6498.60055 1.49873e-17
6499.94154 1.18395e-17
6501.28253 1.09339e-17
6502.62352 1.25089e-17
6503.96450 1.21696e-17
6505.29533 1.26085e-17
6506.63632 1.52287e-17
6507.97731 1.47372e-17
6509.31830 1.47249e-17
6510.65928 1.30638e-17
6512.00027 1.34836e-17
6513.34126 1.17369e-17
6514.68225 1.15388e-17
6516.02324 1.23839e-17
6517.36422 1.40455e-17
6518.69505 1.52002e-17
6520.03604 1.40417e-17
6521.37703 1.33602e-17
6522.71802 1.59805e-17
6524.05901 1.49914e-17
6525.39999 1.28812e-17
6526.74098 1.34349e-17
6528.08197 1.23802e-17
6529.42296 1.30106e-17
6530.76395 1.41713e-17
6532.10493 1.42157e-17
6533.43576 1.36119e-17
6534.77675 1.23372e-17
6536.11774 1.19121e-17
6537.45873 1.46555e-17
6538.79971 1.47575e-17
6540.14070 1.29042e-17
6541.48169 1.26751e-17
6542.82268 1.30033e-17
6544.16367 1.19557e-17
6545.50465 1.33177e-17
6546.83548 1.36323e-17
6548.17647 1.28575e-17
6549.51746 1.29200e-17
6550.85845 1.35020e-17
6552.19943 1.48248e-17
6553.54042 1.61018e-17
6554.88141 1.31460e-17
6556.22240 1.20538e-17
6557.56339 1.26363e-17
6558.90438 1.22001e-17
6560.23520 1.28117e-17
6561.57619 1.40176e-17
6562.91718 1.39702e-17
6564.25817 1.35874e-17
6565.59916 1.32866e-17
6566.94014 1.22446e-17
6568.28113 1.17461e-17
6569.62212 1.12035e-17
6570.96311 1.33830e-17
6572.30410 1.43240e-17
6573.63493 1.41040e-17
6574.97591 1.42892e-17
6576.31690 1.47358e-17
6577.65789 1.51102e-17
6578.99888 1.43059e-17
6580.33987 1.35404e-17
6581.68085 1.45383e-17
6583.02184 1.54596e-17
6584.36283 1.49484e-17
6585.70382 1.44890e-17
6587.04480 1.34459e-17
6588.37563 1.41342e-17
6589.71662 1.35499e-17
6591.05761 1.35372e-17
6592.39860 1.41188e-17
6593.73959 1.44355e-17
6595.08057 1.40560e-17
6596.42156 1.37407e-17
6597.76255 1.45515e-17
6599.10354 1.49853e-17
6600.44453 1.21718e-17
6601.77535 1.17214e-17
6603.11634 1.18232e-17
6604.45733 1.17321e-17
6605.79832 1.19054e-17
6607.13931 1.22162e-17
6608.48030 1.28138e-17
6609.82128 1.29018e-17
6611.16227 1.34207e-17
6612.50326 1.48560e-17
6613.84425 1.44647e-17
6615.18523 1.32983e-17
6616.51606 1.36641e-17
6617.85705 1.20705e-17
6619.19804 1.18904e-17
6620.53903 1.34898e-17
6621.88002 1.34773e-17
6623.22100 1.33737e-17
6624.56199 1.31105e-17
6625.90298 1.19309e-17
6627.24397 1.15990e-17
6628.57480 1.26591e-17
6629.91579 1.25301e-17
6631.25677 1.24233e-17
6632.59776 1.19868e-17
6633.93875 1.10914e-17
6635.27974 1.24218e-17
6636.62072 1.33445e-17
6637.96171 1.33699e-17
6639.30270 1.33953e-17
6640.64369 1.34207e-17
6641.98468 1.34461e-17
6643.31551 1.34716e-17
6644.65649 1.34970e-17
6645.99748 1.35224e-17
6647.33847 1.35478e-17
6648.67946 1.35732e-17
6650.02045 1.35986e-17
6651.36143 1.36240e-17
6652.70242 1.36494e-17
6654.04341 1.36748e-17
6655.38440 1.37002e-17
6656.71523 1.37256e-17
6658.05622 1.37510e-17
6659.39720 1.37764e-17
6660.73819 1.38018e-17
6662.07918 1.38272e-17
6663.42017 1.38527e-17
6664.76116 1.38781e-17
6666.10214 1.39035e-17
6667.44313 1.39289e-17
6668.78412 1.39543e-17
6670.12511 1.39797e-17
6671.45594 1.40051e-17
6672.79692 1.40305e-17
6674.13791 1.40559e-17
6675.47890 1.40813e-17
6676.81989 1.41067e-17
6678.16088 1.41321e-17
6679.50186 1.41574e-17
6680.84285 1.41828e-17
6682.18384 1.42082e-17
6683.52483 1.42336e-17
6684.85566 1.42590e-17
6686.19664 1.42844e-17
6687.53763 1.43098e-17
6688.87862 1.43352e-17
6690.21961 1.43606e-17
6691.56060 1.43860e-17
6692.90158 1.44114e-17
6694.24257 1.44368e-17
6695.58356 1.44622e-17
6696.92455 1.44876e-17
6698.25538 1.45129e-17
6699.59637 1.41179e-17
6700.93735 1.24104e-17
6702.27834 1.24237e-17
6703.61933 1.35048e-17
6704.96032 1.36155e-17
6706.30131 1.34839e-17
6707.64229 1.08020e-17
6708.98328 1.23146e-17
6710.32427 1.38001e-17
6711.65510 1.40299e-17
6712.99609 1.29330e-17
6714.33708 1.30019e-17
6715.67806 1.38674e-17
6717.01905 1.34732e-17
6718.36004 1.29634e-17
6719.70103 1.28171e-17
6721.04202 1.09481e-17
6722.38300 1.15694e-17
6723.72399 1.18736e-17
6725.06498 1.17161e-17
6726.39581 1.23784e-17
6727.73680 1.28506e-17
6729.07778 1.32018e-17
6730.41877 1.03174e-17
6731.75976 1.04011e-17
6733.10075 1.25046e-17
6734.44174 1.11571e-17
6735.78272 1.09993e-17
6737.12371 1.28484e-17
6738.46470 1.27481e-17
6739.79553 1.08635e-17
6741.13652 1.23716e-17
6742.47750 1.18901e-17
6743.81849 1.11868e-17
6745.15948 1.05304e-17
6746.50047 1.12344e-17
6747.84146 1.18717e-17
6749.18245 1.10762e-17
6750.52343 1.13388e-17
6751.86442 1.33553e-17
6753.19525 1.33065e-17
6754.53624 1.29663e-17
6755.87723 1.15183e-17
6757.21821 1.26581e-17
6758.55920 1.18298e-17
6759.90019 1.26913e-17
6761.24118 1.22907e-17
6762.58217 1.04218e-17
6763.92315 1.02159e-17
6765.26414 1.05876e-17
6766.59497 9.50241e-18
6767.93596 1.00443e-17
6769.27695 1.12226e-17
6770.61794 1.15625e-17
6771.95892 1.30720e-17
6773.29991 1.32648e-17
6774.64090 1.13794e-17
6775.98189 1.10139e-17
6777.32287 1.11326e-17
6778.66386 1.11804e-17
6780.00485 1.15351e-17
6781.33568 1.12390e-17
6782.67667 1.13932e-17
6784.01766 1.11855e-17
6785.35864 1.17260e-17
6786.69963 1.06885e-17
6788.04062 1.12283e-17
6789.38161 1.17473e-17
6790.72260 1.18170e-17
6792.06358 1.13820e-17
6793.40457 1.17504e-17
6794.73540 1.18199e-17
6796.07639 1.06129e-17
6797.41738 1.06323e-17
6798.75837 1.02477e-17
6800.09935 9.59024e-18
6801.44034 1.09094e-17
6802.78133 1.15519e-17
6804.12232 1.01248e-17
6805.46331 9.95872e-18
6806.80429 9.54802e-18
6808.13512 9.62024e-18
6809.47611 9.84327e-18
6810.81710 1.05517e-17
6812.15809 1.20802e-17
6813.49907 9.38903e-18
6814.84006 9.65901e-18
6816.18105 1.15123e-17
6817.52204 1.32081e-17
6818.86303 1.09529e-17
6820.20401 8.98383e-18
6821.53484 1.03319e-17
6822.87583 1.26397e-17
6824.21682 1.43931e-17
6825.55781 1.52529e-17
6826.89880 1.45030e-17
6828.23978 1.23751e-17
6829.58077 8.69426e-18
6830.92176 8.66097e-18
6832.26275 8.13243e-18
6833.60373 1.12810e-17
6834.94472 1.32361e-17
6836.27555 1.24538e-17
6837.61654 1.06050e-17
6838.95753 1.02680e-17
6840.29852 1.19731e-17
6841.63950 1.21824e-17
6842.98049 9.12690e-18
6844.32148 8.58248e-18
6845.66247 1.00763e-17
6847.00346 9.86639e-18
6848.34444 9.03670e-18
6849.67527 8.95533e-18
6851.01626 1.08531e-17
6852.35725 1.20767e-17
6853.69824 1.11357e-17
6855.03923 1.01959e-17
6856.38021 1.03942e-17
6857.72120 1.01624e-17
6859.06219 1.05156e-17
6860.40318 1.39807e-17
6861.74417 1.18417e-17
6863.08515 1.23687e-17
6864.41598 1.11285e-17
6865.75697 8.20027e-18
6867.09796 8.53147e-18
6868.43895 9.81675e-18
6869.77993 1.02515e-17
6871.12092 1.05893e-17
6872.46191 1.04398e-17
6873.80290 9.96862e-18
6875.14389 1.11491e-17
6876.47472 1.23461e-17
6877.81570 7.76990e-18
6879.15669 8.98936e-18
6880.49768 1.10028e-17
6881.83867 1.08655e-17
6883.17965 1.05008e-17
6884.52064 1.00085e-17
6885.86163 9.94411e-18
6887.20262 1.06722e-17
6888.54361 1.05737e-17
6889.88460 9.79950e-18
6891.21542 8.59346e-18
6892.55641 8.55826e-18
6893.89740 8.45975e-18
6895.23839 8.80797e-18
6896.57938 9.45490e-18
6897.92036 1.00293e-17
6899.26135 9.65865e-18
6900.60234 9.94727e-18
6901.94333 1.09417e-17
6903.28432 1.03939e-17
6904.61515 9.29647e-18
6905.95613 9.23154e-18
6907.29712 9.16662e-18
6908.63811 9.10170e-18
6909.97910 9.03678e-18
6911.32008 8.97187e-18
6912.66107 8.90695e-18
6914.00206 8.84203e-18
6915.34305 8.77712e-18
6916.68404 8.71221e-18
6918.02502 8.71212e-18
6919.35585 9.72345e-18
6920.69684 1.00686e-17
6922.03783 8.13605e-18
6923.37882 8.03997e-18
6924.71981 9.31696e-18
6926.06079 9.14531e-18
6927.40178 1.05187e-17
6928.74277 1.17114e-17
6930.08376 1.07504e-17
6931.42475 9.77386e-18
6932.75558 9.71729e-18
6934.09656 8.96862e-18
6935.43755 8.86466e-18
6936.77854 1.04273e-17
6938.11953 1.07564e-17
6939.46052 1.00751e-17
6940.80150 9.46577e-18
6942.14249 9.62127e-18
6943.48348 9.75907e-18
6944.82447 1.02641e-17
6946.15530 1.14606e-17
6947.49628 1.11306e-17
6948.83727 8.91489e-18
6950.17826 8.61389e-18
6951.51925 9.84368e-18
6952.86024 7.77401e-18
6954.20122 9.15027e-18
6955.54221 9.29790e-18
6956.88320 8.48007e-18
6958.22419 9.87387e-18
6959.55502 1.05672e-17
6960.89600 9.48626e-18
6962.23699 8.13405e-18
6963.57798 8.75527e-18
6964.91897 1.13200e-17
6966.25996 1.14071e-17
6967.60095 8.80487e-18
6968.94193 1.00385e-17
6970.28292 1.03436e-17
6971.62391 9.32884e-18
6972.96490 9.95043e-18
6974.29573 1.02761e-17
6975.63671 1.09174e-17
6976.97770 1.06644e-17
6978.31869 9.50256e-18
6979.65968 8.57836e-18
6981.00067 6.66650e-18
6982.34165 6.67025e-18
6983.68264 9.31906e-18
6985.02363 9.36577e-18
6986.36462 8.52060e-18
6987.69545 7.81394e-18
6989.03643 9.24517e-18
6990.37742 1.04470e-17
6991.71841 9.80384e-18
6993.05940 9.28868e-18
6994.40039 9.09565e-18
6995.74138 8.33097e-18
6997.08236 9.98629e-18
6998.42335 1.05502e-17
6999.76434 1.08504e-17
7001.09517 7.55186e-18
7002.43616 9.75189e-18
7003.77714 1.31288e-17
7005.11813 1.15192e-17
7006.45912 1.05549e-17
7007.80011 1.07553e-17
7009.14110 9.35204e-18
7010.48208 9.05845e-18
7011.82307 9.98844e-18
7013.16406 9.04860e-18
7014.49489 8.62697e-18
7015.83588 9.38902e-18
7017.17687 9.95511e-18
7018.51785 8.76403e-18
7019.85884 8.38996e-18
7021.19983 9.33668e-18
7022.54082 9.65398e-18
7023.88180 9.85048e-18
7025.22279 1.15048e-17
7026.56378 1.19219e-17
7027.90477 8.91994e-18
7029.23560 1.05877e-17
7030.57659 1.07266e-17
7031.91757 8.81268e-18
7033.25856 9.17283e-18
7034.59955 1.04167e-17
7035.94054 1.07579e-17
7037.28153 9.76642e-18
7038.62251 9.50523e-18
7039.96350 1.08227e-17
7041.30449 1.14317e-17
7042.63532 1.08495e-17
7043.97631 1.18044e-17
7045.31730 1.16287e-17
7046.65828 1.00225e-17
7047.99927 9.41787e-18
7049.34026 8.80639e-18
7050.68125 8.05350e-18
7052.02223 9.98040e-18
7053.36322 1.14912e-17
7054.70421 1.03565e-17
7056.03504 9.65175e-18
7057.37603 1.00029e-17
7058.71702 9.69103e-18
7060.05800 1.03167e-17
7061.39899 1.12700e-17
7062.73998 9.42162e-18
7064.08097 9.67837e-18
7065.42196 1.15435e-17
7066.76294 1.07627e-17
7068.10393 1.01768e-17
7069.43476 1.15542e-17
7070.77575 1.26987e-17
7072.11674 1.22701e-17
7073.45773 1.01745e-17
7074.79871 1.11798e-17
7076.13970 1.13818e-17
7077.48069 1.21334e-17
7078.82168 1.22270e-17
7080.16267 1.08551e-17
7081.50365 9.76545e-18
7082.84464 1.01678e-17
7084.17547 9.99793e-18
7085.51646 1.02968e-17
7086.85745 1.21964e-17
7088.19843 1.19798e-17
7089.53942 1.21131e-17
7090.88041 1.04763e-17
7092.22140 9.82413e-18
7093.56239 1.04117e-17
7094.90337 1.01311e-17
7096.24436 1.07875e-17
7097.57519 1.10257e-17
7098.91618 1.01784e-17
7100.25717 9.23322e-18
7101.59815 8.87737e-18
7102.93914 8.95500e-18
7104.28013 9.41402e-18
7105.62112 1.14488e-17
7106.96211 8.88399e-18
7108.30310 8.91641e-18
7109.64408 9.77618e-18
7110.98507 9.67537e-18
7112.31590 1.05212e-17
7113.65689 1.05424e-17
7114.99788 1.04978e-17
7116.33886 1.14829e-17
7117.67985 1.13868e-17
7119.02084 1.07146e-17
7120.36183 1.12016e-17
7121.70282 1.10970e-17
7123.04380 1.10838e-17
7124.38479 9.39248e-18
7125.71562 1.05790e-17
7127.05661 1.07286e-17
7128.39760 9.72549e-18
7129.73859 1.05197e-17
7131.07957 1.12278e-17
7132.42056 9.84018e-18
7133.76155 9.63733e-18
7135.10254 1.06963e-17
7136.44353 1.14587e-17
7137.78451 1.21928e-17
7139.11534 1.10090e-17
7140.45633 9.86073e-18
7141.79732 9.90695e-18
7143.13831 1.00856e-17
7144.47929 1.04910e-17
7145.82028 1.04424e-17
7147.16127 1.07426e-17
7148.50226 1.18914e-17
7149.84325 1.03161e-17
7151.18423 9.60660e-18
7152.51506 1.06028e-17
7153.85605 1.04515e-17
7155.19704 9.37774e-18
7156.53803 9.53933e-18
7157.87902 9.06932e-18
7159.22000 9.69574e-18
7160.56099 1.04523e-17
7161.90198 9.88929e-18
7163.24297 9.38269e-18
7164.58396 9.62062e-18
7165.92494 1.05511e-17
7167.25577 9.69849e-18
7168.59676 1.07882e-17
7169.93775 1.00866e-17
7171.27874 8.28316e-18
7172.61972 7.50283e-18
7173.96071 9.27631e-18
7175.30170 9.41923e-18
7176.64269 9.22984e-18
7177.98368 1.08828e-17
7179.32466 1.03370e-17
7180.65549 9.05192e-18
7181.99648 9.27106e-18
7183.33747 8.14620e-18
7184.67846 9.42740e-18
7186.01945 9.13929e-18
7187.36043 1.00462e-17
7188.70142 1.04837e-17
7190.04241 1.02227e-17
7191.38340 1.05060e-17
7192.72438 1.07435e-17
7194.05521 9.93622e-18
7195.39620 9.30090e-18
7196.73719 9.49548e-18
7198.07818 9.00092e-18
7199.41917 9.23283e-18
7200.76015 9.74657e-18
7202.10114 9.05960e-18
7203.44213 7.62573e-18
7204.78312 7.43304e-18
7206.12411 8.45309e-18
7207.45493 1.00855e-17
7208.79592 1.08674e-17
7210.13691 1.01294e-17
7211.47790 1.11541e-17
7212.81889 9.87578e-18
7214.15988 9.11349e-18
7215.50086 1.15237e-17
7216.84185 9.18786e-18
7218.18284 9.46757e-18
7219.52383 8.72949e-18
7220.86482 7.58245e-18
7222.19564 8.73410e-18
7223.53663 1.05005e-17
7224.87762 1.06558e-17
7226.21861 1.00474e-17
7227.55960 9.87655e-18
7228.90058 9.01277e-18
7230.24157 1.06583e-17
7231.58256 1.12147e-17
7232.92355 1.05478e-17
7234.26454 1.08538e-17
7235.59537 1.16918e-17
7236.93635 9.76240e-18
7238.27734 7.37328e-18
7239.61833 8.07978e-18
7240.95932 8.33866e-18
7242.30030 7.45187e-18
7243.64129 9.55995e-18
7244.98228 8.86973e-18
7246.32327 1.04138e-17
7247.66426 1.05544e-17
7248.99509 1.04011e-17
7250.33607 1.04183e-17
7251.67706 1.09760e-17
7253.01805 1.02968e-17
7254.35904 1.03495e-17
7255.70003 1.26483e-17
7257.04101 1.02935e-17
7258.38200 1.00265e-17
7259.72299 9.38299e-18
7261.06398 8.62811e-18
7262.39481 9.76114e-18
7263.73580 9.64690e-18
7265.07678 9.11889e-18
7266.41777 9.28363e-18
7267.75876 1.07576e-17
7269.09975 1.19999e-17
7270.44074 1.13650e-17
7271.78172 1.05959e-17
7273.12271 1.05097e-17
7274.46370 9.58121e-18
7275.80469 9.58544e-18
7277.13552 1.04614e-17
7278.47650 1.07407e-17
7279.81749 1.02655e-17
7281.15848 1.17385e-17
7282.49947 1.03138e-17
7283.84046 8.35324e-18
7283.84152 8.35324e-18
7284.70298 8.17091e-18
7285.56444 8.04616e-18
7286.43592 7.92155e-18
7287.29738 7.92561e-18
7288.15884 7.92986e-18
7289.02031 8.02362e-18
7289.88177 8.11750e-18
7290.74323 8.24774e-18
7291.60469 8.37810e-18
7292.46615 8.45562e-18
7293.32762 8.53308e-18
7294.18908 8.49122e-18
7295.05054 8.44912e-18
7295.92202 8.34287e-18
7296.78348 8.23656e-18
7297.64494 8.13287e-18
7298.50640 8.02924e-18
7299.36787 7.97096e-18
7300.22933 7.91280e-18
7301.09079 7.93473e-18
7301.95225 7.95678e-18
7302.81371 8.01581e-18
7303.67518 8.07490e-18
7304.53664 8.10538e-18
7305.40812 8.13574e-18
7306.26958 8.12699e-18
7307.13104 8.11819e-18
7307.99250 8.08152e-18
7308.85397 8.04473e-18
7309.71543 7.99894e-18
7310.57689 7.95309e-18
7311.43835 7.92367e-18
7312.29981 7.89425e-18
7313.16128 7.89082e-18
7314.02274 7.88744e-18
7314.89422 7.90431e-18
7315.75568 7.92117e-18
7316.61714 7.94766e-18
7317.47860 7.97408e-18
7318.34006 7.99469e-18
7319.20153 8.01531e-18
7320.06299 8.01468e-18
7320.92445 8.01400e-18
7321.78591 7.97564e-18
7322.64737 7.93716e-18
7323.50884 7.86239e-18
7324.38032 7.78750e-18
7325.24178 7.72048e-18
7326.10324 7.65345e-18
7326.96470 7.62897e-18
7327.82616 7.60454e-18
7328.68763 7.61604e-18
7329.54909 7.62759e-18
7330.41055 7.66313e-18
7331.27201 7.69880e-18
7332.13347 7.74328e-18
7332.99494 7.78781e-18
7333.85640 7.82435e-18
7334.72788 7.86090e-18
7335.58934 7.87757e-18
7336.45080 7.89419e-18
7337.31226 7.88276e-18
7338.17372 7.87133e-18
7339.03519 7.83716e-18
7339.89665 7.80293e-18
7340.75811 7.75683e-18
7341.61957 7.71067e-18
7342.48103 7.66676e-18
7343.34250 7.62278e-18
7344.21398 7.59636e-18
7345.07544 7.57000e-18
7345.93690 7.56194e-18
7346.79836 7.55388e-18
7347.65982 7.55451e-18
7348.52129 7.55513e-18
7349.38275 7.55519e-18
7350.24421 7.55519e-18
7351.10567 7.54595e-18
7351.96713 7.53671e-18
7352.82860 7.51628e-18
7353.70007 7.49579e-18
7354.56154 7.47305e-18
7355.42300 7.45025e-18
7356.28446 7.43333e-18
7357.14592 7.41640e-18
7358.00738 7.41196e-18
7358.86885 7.40747e-18
7359.73031 7.41834e-18
7360.59177 7.42920e-18
7361.45323 7.44607e-18
7362.31469 7.46293e-18
7363.18617 7.47730e-18
7364.04764 7.49167e-18
7364.90910 7.50466e-18
7365.77056 7.51759e-18
7366.63202 7.53077e-18
7367.49348 7.54395e-18
7368.35495 7.55763e-18
7369.21641 7.57137e-18
7370.07787 7.58611e-18
7370.93933 7.60092e-18
7371.80079 7.61522e-18
7372.66226 7.62953e-18
7373.53373 7.64140e-18
7374.39520 7.65320e-18
7375.25666 7.66432e-18
7376.11812 7.67550e-18
7376.97958 7.68918e-18
7377.84104 7.70286e-18
7378.70251 7.71954e-18
7379.56397 7.73628e-18
7380.42543 7.75496e-18
7381.28689 7.77363e-18
7382.14835 7.79256e-18
7383.01983 7.81142e-18
7383.88130 7.82816e-18
7384.74276 7.84490e-18
7385.60422 7.85777e-18
7386.46568 7.87064e-18
7387.32714 7.87889e-18
7388.18861 7.88713e-18
7389.05007 7.89132e-18
7389.91153 7.89544e-18
7390.77299 7.89775e-18
7391.63445 7.90000e-18
7392.50593 7.90362e-18
7393.36739 7.90724e-18
7394.22886 7.91874e-18
7395.09032 7.93023e-18
7395.95178 7.95266e-18
7396.81324 7.97502e-18
7397.67470 8.00044e-18
7398.53617 8.02586e-18
7399.39763 8.04573e-18
7400.25909 8.06559e-18
7401.12055 8.07109e-18
7401.99203 8.07659e-18
7402.85349 8.06091e-18
7403.71495 8.04529e-18
7404.57642 8.01862e-18
7405.43788 7.99188e-18
7406.29934 7.96808e-18
7407.16080 7.94435e-18
7408.02227 7.92748e-18
7408.88373 7.91068e-18
7409.74519 7.90143e-18
7410.60665 7.89219e-18
7411.47813 7.88988e-18
7412.33959 7.88757e-18
7413.20105 7.89013e-18
7414.06252 7.89275e-18
7414.92398 7.89794e-18
7415.78544 7.90306e-18
7416.64690 7.90856e-18
7417.50836 7.91405e-18
7418.36983 7.91793e-18
7419.23129 7.92186e-18
7420.09275 7.92261e-18
7420.95421 7.92336e-18
7421.82569 7.92180e-18
7422.68715 7.92017e-18
7423.54861 7.92017e-18
7424.41008 7.92017e-18
7425.27154 7.92411e-18
7426.13300 7.92804e-18
7426.99446 7.93498e-18
7427.85592 7.94185e-18
7428.71739 7.95003e-18
7429.57885 7.95822e-18
7430.44031 7.96365e-18
7431.31179 7.96908e-18
7432.17325 7.96883e-18
7433.03471 7.96852e-18
7433.89618 7.96559e-18
7434.75764 7.96265e-18
7435.61910 7.96046e-18
7436.48056 7.95828e-18
7437.34202 7.95765e-18
7438.20349 7.95703e-18
7439.06495 7.95828e-18
7439.92641 7.95953e-18
7440.79789 7.96246e-18
7441.65935 7.96540e-18
7442.52081 7.96921e-18
7443.38227 7.97302e-18
7444.24374 7.97764e-18
7445.10520 7.98220e-18
7445.96666 7.98789e-18
7446.82812 7.99363e-18
7447.68959 7.99713e-18
7448.55105 8.00063e-18
7449.41251 7.99632e-18
7450.28399 7.99201e-18
7451.14545 7.98126e-18
7452.00691 7.97052e-18
7452.86837 7.96059e-18
7453.72984 7.95059e-18
7454.59130 7.94404e-18
7455.45276 7.93754e-18
7456.31422 7.93142e-18
7457.17568 7.92536e-18
7458.03715 7.91830e-18
7458.89861 7.91124e-18
7459.77009 7.90312e-18
7460.63155 7.89500e-18
7461.49301 7.88751e-18
7462.35447 7.87995e-18
7463.21594 7.88020e-18
7464.07740 7.88045e-18
7464.93886 7.89257e-18
7465.80032 7.90475e-18
7466.66178 7.92286e-18
7467.52325 7.94097e-18
7468.38471 7.95840e-18
7469.25619 7.97577e-18
7470.11765 7.98595e-18
7470.97911 7.99607e-18
7471.84057 7.99357e-18
7472.70203 7.99101e-18
7473.56350 7.98220e-18
7474.42496 7.97346e-18
7475.28642 7.96740e-18
7476.14788 7.96140e-18
7477.00934 7.95853e-18
7477.87081 7.95572e-18
7478.73227 7.95378e-18
7479.60375 7.95184e-18
7480.46521 7.94885e-18
7481.32667 7.94585e-18
7482.18813 7.93935e-18
7483.04960 7.93292e-18
7483.91106 7.92398e-18
7484.77252 7.91499e-18
7485.63398 7.90706e-18
7486.49544 7.89906e-18
7487.35690 7.89263e-18
7488.21837 7.88619e-18
7489.08985 7.87876e-18
7489.95131 7.87139e-18
7490.81277 7.86214e-18
7491.67423 7.85290e-18
7492.53569 7.84309e-18
7493.39716 7.83329e-18
7494.25862 7.82367e-18
7495.12008 7.81411e-18
7495.98154 7.80499e-18
7496.84300 7.79587e-18
7497.70447 7.78706e-18
7498.57595 7.77832e-18
7499.43741 7.76839e-18
7500.29887 7.75845e-18
7501.16033 7.74621e-18
7502.02179 7.73397e-18
7502.88325 7.72085e-18
7503.74472 7.70773e-18
7504.60618 7.69493e-18
7505.46764 7.68212e-18
7506.32910 7.66626e-18
7507.19056 7.65033e-18
7508.06204 7.62797e-18
7508.92351 7.60560e-18
7509.78497 7.57731e-18
7510.64643 7.54895e-18
7511.50789 7.51603e-18
7512.36935 7.48317e-18
7513.23082 7.45219e-18
7514.09228 7.42121e-18
7514.95374 7.40066e-18
7515.81520 7.38017e-18
7516.67666 7.36705e-18
7517.54814 7.35393e-18
7518.40960 7.33838e-18
7519.27107 7.32276e-18
7520.13253 7.30078e-18
7520.99399 7.27879e-18
7521.85545 7.25118e-18
7522.71691 7.22363e-18
7523.57838 7.19259e-18
7524.43984 7.16154e-18
7525.30130 7.13162e-18
7526.16276 7.10164e-18
7527.02423 7.07459e-18
7527.89570 7.04748e-18
7528.75717 7.01956e-18
7529.61863 6.99164e-18
7530.48009 6.96035e-18
7531.34155 6.92905e-18
7532.20301 6.89513e-18
7533.06448 6.86128e-18
7533.92594 6.82511e-18
7534.78740 6.78894e-18
7535.64886 6.74797e-18
7536.52034 6.70699e-18
7537.38180 6.65995e-18
7538.24327 6.61292e-18
7539.10473 6.56538e-18
7539.96619 6.51785e-18
7540.82765 6.47556e-18
7541.68911 6.43327e-18
7542.55058 6.39667e-18
7543.41204 6.36006e-18
7544.27350 6.32821e-18
7545.13496 6.29635e-18
7545.99642 6.26431e-18
7546.86790 6.23223e-18
7547.72936 6.19376e-18
7548.59083 6.15529e-18
7549.45229 6.11038e-18
7550.31375 6.06546e-18
7551.17521 6.01721e-18
7552.03667 5.96895e-18
7552.89814 5.92074e-18
7553.75960 5.87254e-18
7554.62106 5.82809e-18
7555.48252 5.78364e-18
7556.35400 5.74376e-18
7557.21546 5.70388e-18
7558.07693 5.66612e-18
7558.93839 5.62837e-18
7559.79985 5.59065e-18
7560.66131 5.55292e-18
7561.52277 5.51420e-18
7562.38424 5.47547e-18
7563.24570 5.43403e-18
7564.10716 5.39260e-18
7564.96862 5.34474e-18
7565.84010 5.29688e-18
7566.70156 5.24256e-18
7567.56302 5.18824e-18
7568.42449 5.13789e-18
7569.28595 5.08755e-18
7570.14741 5.04983e-18
7571.00887 5.01214e-18
7571.87033 4.98833e-18
7572.73180 4.96454e-18
7573.59326 4.95323e-18
7574.45472 4.94195e-18
7575.31618 4.92737e-18
7576.18766 4.91280e-18
7577.04912 4.87766e-18
7577.91059 4.84250e-18
7578.77205 4.79626e-18
7579.63351 4.75001e-18
7580.49497 4.70781e-18
7581.35643 4.66562e-18
7582.21790 4.62506e-18
7583.07936 4.58451e-18
7583.94082 4.53853e-18
7584.81230 4.49255e-18
7585.67376 4.41570e-18
7586.53522 4.33878e-18
7587.39668 4.19570e-18
7588.25815 4.05249e-18
7589.11961 3.85017e-18
7589.98107 3.64773e-18
7590.84253 3.42835e-18
7591.70399 3.20895e-18
7592.56546 3.01267e-18
7593.42692 2.81645e-18
7594.28838 2.68090e-18
7595.15986 2.54547e-18
7596.02132 2.48943e-18
7596.88278 2.43354e-18
7597.74425 2.43884e-18
7598.60571 2.44426e-18
7599.46717 2.49777e-18
7600.32863 2.55137e-18
7601.19009 2.66303e-18
7602.05156 2.77480e-18
7602.91302 2.94488e-18
7603.77448 3.11507e-18
7604.64596 3.32158e-18
7605.50742 3.52816e-18
7606.36888 3.74485e-18
7607.23034 3.96154e-18
7608.09181 4.16170e-18
7608.95327 4.36183e-18
7609.81473 4.51879e-18
7610.67619 4.67565e-18
7611.53765 4.75209e-18
7612.39912 4.82834e-18
7613.26058 4.79422e-18
7614.13206 4.75988e-18
7614.99352 4.61684e-18
7615.85498 4.47359e-18
7616.71644 4.23852e-18
7617.57791 4.00328e-18
7618.43937 3.74637e-18
7619.30083 3.48942e-18
7620.16229 3.30525e-18
7621.02375 3.12123e-18
7621.88522 3.04558e-18
7622.74668 2.97015e-18
7623.61816 2.99552e-18
7624.47962 3.02110e-18
7625.34108 3.11501e-18
7626.20254 3.20907e-18
7627.06400 3.31185e-18
7627.92547 3.41465e-18
7628.78693 3.49313e-18
7629.64839 3.57155e-18
7630.50985 3.63826e-18
7631.37131 3.70495e-18
7632.23278 3.76803e-18
7633.10426 3.83110e-18
7633.96572 3.89023e-18
7634.82718 3.94935e-18
7635.68864 4.00453e-18
7636.55010 4.05971e-18
7637.41157 4.10008e-18
7638.27303 4.14042e-18
7639.13449 4.16048e-18
7639.99595 4.18051e-18
7640.85741 4.19934e-18
7641.71888 4.21818e-18
7642.59035 4.25470e-18
7643.45182 4.29125e-18
7644.31328 4.35353e-18
7645.17474 4.41585e-18
7646.03620 4.50731e-18
7646.89766 4.59882e-18
7647.75913 4.69479e-18
7648.62059 4.79076e-18
7649.48205 4.86012e-18
7650.34351 4.92942e-18
7651.20497 4.96553e-18
7652.06644 5.00159e-18
7652.93792 5.00792e-18
7653.79938 5.01419e-18
7654.66084 5.01461e-18
7655.52230 5.01502e-18
7656.38376 5.04639e-18
7657.24523 5.07783e-18
7658.10669 5.14610e-18
7658.96815 5.21445e-18
7659.82961 5.29939e-18
7660.69107 5.38436e-18
7661.55254 5.46876e-18
7662.42401 5.55317e-18
7663.28548 5.62145e-18
7664.14694 5.68970e-18
7665.00840 5.74092e-18
7665.86986 5.79211e-18
7666.73132 5.85584e-18
7667.59279 5.91961e-18
7668.45425 6.00959e-18
7669.31571 6.09962e-18
7670.17717 6.18781e-18
7671.03863 6.27599e-18
7671.91011 6.33976e-18
7672.77158 6.40348e-18
7673.63304 6.43871e-18
7674.49450 6.47381e-18
7675.35596 6.48206e-18
7676.21742 6.49024e-18
7677.07889 6.50486e-18
7677.94035 6.51941e-18
7678.80181 6.57369e-18
7679.66327 6.62810e-18
7680.52473 6.70243e-18
7681.38620 6.77676e-18
7682.25767 6.84004e-18
7683.11914 6.90338e-18
7683.98060 6.95554e-18
7684.84206 7.00769e-18
7685.70352 7.05748e-18
7686.56498 7.10726e-18
7687.42645 7.15673e-18
7688.28791 7.20614e-18
7689.14937 7.25599e-18
7690.01083 7.30584e-18
7690.88231 7.35131e-18
7691.74377 7.39679e-18
7692.60524 7.42827e-18
7693.46670 7.45981e-18
7694.32816 7.47968e-18
7695.18962 7.49954e-18
7696.05108 7.52246e-18
7696.91255 7.54539e-18
7697.77401 7.57693e-18
7698.63547 7.60841e-18
7699.49693 7.64108e-18
7700.35839 7.67369e-18
7701.22987 7.70124e-18
7702.09133 7.72878e-18
7702.95280 7.74752e-18
7703.81426 7.76614e-18
7704.67572 7.77345e-18
7705.53718 7.78063e-18
7706.39864 7.77701e-18
7707.26011 7.77332e-18
7708.12157 7.76201e-18
7708.98303 7.75071e-18
7709.84449 7.74484e-18
7710.71597 7.73903e-18
7711.57743 7.75033e-18
7712.43890 7.76170e-18
7713.30036 7.78737e-18
7714.16182 7.81311e-18
7715.02328 7.84678e-18
7715.88474 7.88045e-18
7716.74620 7.91174e-18
7717.60767 7.94310e-18
7718.46913 7.96084e-18
7719.33059 7.97864e-18
7720.20207 7.98208e-18
7721.06353 7.98551e-18
7721.92499 7.97870e-18
7722.78646 7.97189e-18
7723.64792 7.96184e-18
7724.50938 7.95178e-18
7725.37084 7.94785e-18
7726.23230 7.94385e-18
7727.09377 7.94903e-18
7727.95523 7.95428e-18
7728.81669 7.96552e-18
7729.67815 7.97683e-18
7730.54963 7.99351e-18
7731.41109 8.01025e-18
7732.27255 8.03586e-18
7733.13402 8.06141e-18
7733.99548 8.09183e-18
7734.85694 8.12218e-18
7735.71840 8.14099e-18
7736.57986 8.15973e-18
7737.44133 8.15754e-18
7738.30279 8.15535e-18
7739.17427 8.13892e-18
7740.03573 8.12250e-18
7740.89719 8.10057e-18
7741.75865 8.07865e-18
7742.62012 8.06428e-18
7743.48158 8.04991e-18
7744.34304 8.05372e-18
7745.20450 8.05753e-18
7746.06596 8.07234e-18
7746.92743 8.08714e-18
7747.78889 8.10301e-18
7748.65035 8.11887e-18
7749.52183 8.13230e-18
7750.38329 8.14567e-18
7751.24475 8.15404e-18
7752.10621 8.16241e-18
7752.96768 8.16578e-18
7753.82914 8.16909e-18
7754.69060 8.16928e-18
7755.55206 8.16941e-18
7756.41352 8.16416e-18
7757.27499 8.15885e-18
7758.13645 8.14373e-18
7759.00793 8.12868e-18
7759.86939 8.10813e-18
7760.73085 8.08752e-18
7761.59231 8.07184e-18
7762.45378 8.05616e-18
7763.31524 8.04785e-18
7764.17670 8.03948e-18
7765.03816 8.03311e-18
7765.89962 8.02674e-18
7766.76109 8.01812e-18
7767.62255 8.00950e-18
7768.49403 7.99551e-18
7769.35549 7.98145e-18
7770.21695 7.96184e-18
7771.07841 7.94216e-18
7771.93988 7.92355e-18
7772.80134 7.90500e-18
7773.66280 7.89238e-18
7774.52426 7.87976e-18
7775.38572 7.87052e-18
7776.24719 7.86133e-18
7777.10865 7.85346e-18
7777.98013 7.84565e-18
7778.84159 7.84034e-18
7779.70305 7.83504e-18
7780.56451 7.83335e-18
7781.42597 7.83166e-18
7782.28744 7.83329e-18
7783.14890 7.83491e-18
7784.01036 7.83916e-18
7784.87182 7.84341e-18
7785.73328 7.84971e-18
7786.59475 7.85602e-18
7787.46623 7.86364e-18
7788.32769 7.87133e-18
7789.18915 7.87814e-18
7790.05061 7.88488e-18
7790.91207 7.88832e-18
7791.77354 7.89169e-18
7792.63500 7.89044e-18
7793.49646 7.88919e-18
7794.35792 7.88288e-18
7795.21938 7.87651e-18
7796.08085 7.86808e-18
7796.94231 7.85965e-18
7797.81379 7.85446e-18
7798.67525 7.84934e-18
7799.53671 7.85153e-18
7800.39817 7.85377e-18
7801.25963 7.86602e-18
7802.12110 7.87832e-18
7802.98256 7.89856e-18
7803.84402 7.91886e-18
7804.70548 7.93685e-18
7805.56694 7.95490e-18
7806.42841 7.96327e-18
7807.29989 7.97164e-18
7808.16135 7.97121e-18
7809.02281 7.97077e-18
7809.88427 7.96296e-18
7810.74573 7.95509e-18
7811.60720 7.94147e-18
7812.46866 7.92779e-18
7813.33012 7.91080e-18
7814.19158 7.89381e-18
7815.05304 7.87657e-18
7815.91450 7.85933e-18
7816.78598 7.84472e-18
7817.64745 7.83010e-18
7818.50891 7.82161e-18
7819.37037 7.81311e-18
7820.23183 7.81349e-18
7821.09329 7.81392e-18
7821.95476 7.81686e-18
7822.81622 7.81986e-18
7823.67768 7.81586e-18
7824.53914 7.81186e-18
7825.40060 7.79974e-18
7826.27208 7.78756e-18
7827.13355 7.77020e-18
7827.99501 7.75289e-18
7828.85647 7.73272e-18
7829.71793 7.71261e-18
7830.57939 7.69212e-18
7831.44085 7.67163e-18
7832.30232 7.65239e-18
7833.16378 7.63315e-18
7834.02524 7.61516e-18
7834.88670 7.59717e-18
7835.75818 7.58212e-18
7836.61964 7.56706e-18
7837.48111 7.55963e-18
7838.34257 7.55220e-18
7839.20403 7.55363e-18
7840.06549 7.55501e-18
7840.92695 7.56000e-18
7841.78842 7.56500e-18
7842.64988 7.56900e-18
7843.51134 7.57300e-18
7844.37280 7.57387e-18
7845.23426 7.57481e-18
7846.10574 7.57137e-18
7846.96720 7.56800e-18
7847.82867 7.56200e-18
7848.69013 7.55601e-18
7849.55159 7.54957e-18
7850.41305 7.54314e-18
7851.27452 7.53764e-18
7852.13598 7.53208e-18
7852.99744 7.52840e-18
7853.85890 7.52471e-18
7854.72036 7.52359e-18
7855.59184 7.52246e-18
7856.45330 7.52427e-18
7857.31477 7.52615e-18
7858.17623 7.52809e-18
7859.03769 7.53002e-18
7859.89915 7.52752e-18
7860.76061 7.52502e-18
7861.62208 7.51840e-18
7862.48354 7.51178e-18
7863.34500 7.50472e-18
7864.20646 7.49767e-18
7865.07794 7.48823e-18
7865.93940 7.47886e-18
7866.80087 7.46087e-18
7867.66233 7.44295e-18
7868.52379 7.41577e-18
7869.38525 7.38866e-18
7870.24671 7.35749e-18
7871.10818 7.32626e-18
7871.96964 7.29828e-18
7872.83110 7.27023e-18
7873.69256 7.25711e-18
7874.56404 7.24412e-18
7875.42550 7.25056e-18
7876.28696 7.25705e-18
7877.14843 7.26979e-18
7878.00989 7.28254e-18
7878.87135 7.28935e-18
7879.73281 7.29622e-18
7880.59427 7.29341e-18
7881.45574 7.29060e-18
7882.31720 7.27617e-18
7883.17866 7.26167e-18
7884.05014 7.24069e-18
7884.91160 7.21970e-18
7885.77306 7.19852e-18
7886.63453 7.17741e-18
7887.49599 7.15561e-18
7888.35745 7.13375e-18
7889.21891 7.10976e-18
7890.08037 7.08577e-18
7890.94184 7.06091e-18
7891.80330 7.03612e-18
7892.66476 7.01194e-18
7893.52622 6.98783e-18
7894.39770 6.97065e-18
7895.25916 6.95348e-18
7896.12062 6.95198e-18
7896.98209 6.95041e-18
7897.84355 6.95960e-18
7898.70501 6.96872e-18
7899.56647 6.97409e-18
7900.42793 6.97946e-18
7901.28940 6.97471e-18
7902.15086 6.96997e-18
7903.01232 6.95666e-18
7903.88380 6.94329e-18
7904.74526 6.92549e-18
7905.60672 6.90775e-18
7906.46819 6.89476e-18
7907.32965 6.88183e-18
7908.19111 6.87733e-18
7909.05257 6.87283e-18
7909.91403 6.86640e-18
7910.77550 6.85997e-18
7911.63696 6.84541e-18
7912.49842 6.83086e-18
7913.36990 6.81562e-18
7914.23136 6.80031e-18
7915.09282 6.79057e-18
7915.95428 6.78082e-18
7916.81575 6.77701e-18
7917.67721 6.77320e-18
7918.53867 6.77451e-18
7919.40013 6.77583e-18
7920.26159 6.77308e-18
7921.12306 6.77039e-18
7921.98452 6.75440e-18
7922.85600 6.73835e-18
7923.71746 6.71474e-18
7924.57892 6.69112e-18
7925.44038 6.66982e-18
7926.30185 6.64846e-18
7927.16331 6.63522e-18
7928.02477 6.62198e-18
7928.88623 6.62066e-18
7929.74769 6.61942e-18
7930.60916 6.62766e-18
7931.47062 6.63591e-18
7932.34210 6.64690e-18
7933.20356 6.65796e-18
7934.06502 6.66589e-18
7934.92648 6.67382e-18
7935.78794 6.67382e-18
7936.64941 6.67388e-18
7937.51087 6.66352e-18
7938.37233 6.65308e-18
7939.23379 6.63285e-18
7940.09525 6.61254e-18
7940.95672 6.58537e-18
7941.81818 6.55820e-18
7942.68966 6.53090e-18
7943.55112 6.50361e-18
7944.41258 6.48149e-18
7945.27404 6.45938e-18
7946.13551 6.44339e-18
7946.99697 6.42740e-18
7947.85843 6.41747e-18
7948.71989 6.40747e-18
7949.58135 6.40173e-18
7950.44282 6.39598e-18
7951.30428 6.39186e-18
7952.17576 6.38774e-18
7953.03722 6.37974e-18
7953.89868 6.37174e-18
7954.76014 6.35513e-18
7955.62160 6.33851e-18
7956.48307 6.32021e-18
7957.34453 6.30185e-18
7958.20599 6.29085e-18
7959.06745 6.27992e-18
7959.92891 6.27692e-18
7960.79038 6.27392e-18
7961.66186 6.27699e-18
7962.52332 6.27998e-18
7963.38478 6.28429e-18
7964.24624 6.28860e-18
7965.10770 6.28729e-18
7965.96917 6.28592e-18
7966.83063 6.28292e-18
7967.69209 6.27986e-18
7968.55355 6.28654e-18
7969.41501 6.29329e-18
7970.27648 6.31234e-18
7971.14795 6.33145e-18
7972.00942 6.35713e-18
7972.87088 6.38280e-18
7973.73234 6.40735e-18
7974.59380 6.43196e-18
7975.45526 6.44420e-18
7976.31673 6.45645e-18
7977.17819 6.45157e-18
7978.03965 6.44670e-18
7978.90111 6.43390e-18
7979.76257 6.42109e-18
7980.63405 6.40835e-18
7981.49552 6.39567e-18
7982.35698 6.38499e-18
7983.21844 6.37431e-18
7984.07990 6.36693e-18
7984.94136 6.35956e-18
7985.80283 6.35282e-18
7986.66429 6.34613e-18
7987.52575 6.33720e-18
7988.38721 6.32821e-18
7989.24867 6.31821e-18
7990.11014 6.30822e-18
7990.98161 6.29866e-18
7991.84308 6.28910e-18
7992.70454 6.28292e-18
7993.56600 6.27674e-18
7994.42746 6.27730e-18
7995.28892 6.27792e-18
7996.15039 6.27855e-18
7997.01185 6.27917e-18
7997.87331 6.26918e-18
7998.73477 6.25918e-18
7999.59623 6.23986e-18
8000.46771 6.22054e-18
8001.32917 6.19998e-18
8002.19064 6.17941e-18
8003.05210 6.16369e-18
8003.91356 6.14799e-18
8004.77502 6.14232e-18
8005.63649 6.13669e-18
8006.49795 6.13975e-18
8007.35941 6.14282e-18
8008.22087 6.14396e-18
8009.08233 6.14509e-18
8009.95381 6.14083e-18
8010.81527 6.13656e-18
8011.67674 6.13708e-18
8012.53820 6.13762e-18
8013.39966 6.14787e-18
8014.26112 6.15814e-18
8015.12258 6.17096e-18
8015.98405 6.18379e-18
8016.84551 6.19235e-18
8017.70697 6.20089e-18
8018.56843 6.19824e-18
8019.43991 6.19558e-18
8020.30137 6.17746e-18
8021.16284 6.15932e-18
8022.02430 6.13723e-18
8022.88576 6.11512e-18
8023.74722 6.10173e-18
8024.60868 6.08836e-18
8025.47015 6.08330e-18
8026.33161 6.07826e-18
8027.19307 6.07814e-18
8028.05453 6.07804e-18
8028.92601 6.07870e-18
8029.78747 6.07936e-18
8030.64893 6.07596e-18
8031.51040 6.07254e-18
8032.37186 6.06555e-18
8033.23332 6.05855e-18
8034.09478 6.05136e-18
8034.95624 6.04417e-18
8035.81771 6.03894e-18
8036.67917 6.03372e-18
8037.54063 6.03176e-18
8038.41211 6.02980e-18
8039.27357 6.03158e-18
8040.13503 6.03336e-18
8040.99650 6.03831e-18
8041.85796 6.04326e-18
8042.71942 6.04972e-18
8043.58088 6.05619e-18
8044.44234 6.06127e-18
8045.30380 6.06635e-18
8046.16527 6.06785e-18
8047.02673 6.06935e-18
8047.88819 6.06626e-18
8048.75967 6.06315e-18
8049.62113 6.05600e-18
8050.48259 6.04884e-18
8051.34406 6.04292e-18
8052.20552 6.03700e-18
8053.06698 6.03625e-18
8053.92844 6.03552e-18
8054.78990 6.03695e-18
8055.65137 6.03839e-18
8056.51283 6.03823e-18
8057.37429 6.03806e-18
8058.24577 6.03179e-18
8059.10723 6.02551e-18
8059.96869 6.00931e-18
8060.83015 5.99308e-18
8061.69162 5.97007e-18
8062.55308 5.94703e-18
8063.41454 5.92250e-18
8064.27600 5.89797e-18
8065.13746 5.87796e-18
8065.99893 5.85796e-18
8066.86039 5.84837e-18
8067.73187 5.83881e-18
8068.59333 5.83998e-18
8069.45479 5.84118e-18
8070.31625 5.84995e-18
8071.17772 5.85874e-18
8072.03918 5.86882e-18
8072.90064 5.87890e-18
8073.76210 5.88131e-18
8074.62356 5.88370e-18
8075.48503 5.87512e-18
8076.34649 5.86652e-18
8077.21797 5.85124e-18
8078.07943 5.83595e-18
8078.94089 5.81665e-18
8079.80235 5.79733e-18
8080.66381 5.77350e-18
8081.52528 5.74966e-18
8082.38674 5.72168e-18
8083.24820 5.69367e-18
8084.10966 5.66271e-18
8084.97113 5.63174e-18
8085.83259 5.59920e-18
8086.70407 5.56664e-18
8087.56553 5.53457e-18
8088.42699 5.50251e-18
8089.28845 5.47286e-18
8090.14991 5.44321e-18
8091.01138 5.41773e-18
8091.87284 5.39225e-18
8092.73430 5.37186e-18
8093.59576 5.35149e-18
8094.45722 5.33580e-18
8095.31869 5.32014e-18
8096.18015 5.30790e-18
8097.05163 5.29568e-18
8097.91309 5.28008e-18
8098.77455 5.26448e-18
8099.63601 5.23743e-18
8100.49748 5.21036e-18
8101.35894 5.16932e-18
8102.22040 5.12825e-18
8103.08186 5.07373e-18
8103.94332 5.01918e-18
8104.80479 4.95779e-18
8105.67626 4.89639e-18
8106.53773 4.83884e-18
8107.39919 4.78129e-18
8108.26065 4.73425e-18
8109.12211 4.68724e-18
8109.98357 4.65297e-18
8110.84504 4.61874e-18
8111.70650 4.59425e-18
8112.56796 4.56978e-18
8113.42942 4.54457e-18
8114.29088 4.51936e-18
8115.15235 4.48494e-18
8116.02383 4.45051e-18
8116.88529 4.40328e-18
8117.74675 4.35602e-18
8118.60821 4.29531e-18
8119.46967 4.23456e-18
8120.33114 4.16911e-18
8121.19260 4.10366e-18
8122.05406 4.04049e-18
8122.91552 3.97732e-18
8123.77698 3.90861e-18
8124.63845 3.83989e-18
8125.49991 3.75839e-18
8126.37139 3.67686e-18
8127.23285 3.58646e-18
8128.09431 3.49605e-18
8128.95577 3.40245e-18
8129.81723 3.30886e-18
8130.67870 3.22304e-18
8131.54016 3.13724e-18
8132.40162 3.07098e-18
8133.26308 3.00476e-18
8134.12454 2.95172e-18
8134.99602 2.89871e-18
8135.85749 2.84472e-18
8136.71895 2.79072e-18
8137.58041 2.73040e-18
8138.44187 2.67007e-18
8139.30333 2.60322e-18
8140.16480 2.53635e-18
8141.02626 2.46468e-18
8141.88772 2.39299e-18
8142.74918 2.32049e-18
8143.61064 2.24798e-18
8144.47210 2.17860e-18
8145.34358 2.10922e-18
8146.20505 2.04612e-18
8147.06651 1.98304e-18
8147.92797 1.92844e-18
8148.78943 1.87387e-18
8149.65089 1.82848e-18
8150.51236 1.78312e-18
8151.37382 1.74581e-18
8152.23528 1.70852e-18
8153.09674 1.67438e-18
8153.95820 1.64025e-18
8154.82968 1.60529e-18
8155.69115 1.57034e-18
8156.55261 1.53496e-18
8157.41407 1.49957e-18
8158.27553 1.46496e-18
8159.13699 1.43035e-18
8159.99845 1.39947e-18
8160.85992 1.36858e-18
8161.72138 1.34431e-18
8162.58284 1.32005e-18
8163.44430 1.30326e-18
8164.31578 1.28650e-18
8165.17724 1.27705e-18
8166.03871 1.26762e-18
8166.90017 1.26102e-18
8167.76163 1.25442e-18
8168.62309 1.24520e-18
8169.48455 1.23598e-18
8170.34602 1.21960e-18
8171.20748 1.20320e-18
8172.06894 1.17534e-18
8172.93040 1.14744e-18
8173.80188 1.11545e-18
8174.66334 1.08346e-18
8175.52481 1.06325e-18
8176.38627 1.04307e-18
8177.24773 1.03818e-18
8178.10919 1.03333e-18
8178.97065 1.03454e-18
8179.83212 1.03577e-18
8180.69358 1.03606e-18
8181.55504 1.03635e-18
8182.41650 1.03131e-18
8183.28798 1.02627e-18
8184.14944 1.01428e-18
8185.01090 1.00229e-18
8185.87237 9.89317e-19
8186.73383 9.76337e-19
8187.59529 9.66624e-19
8188.45675 9.56911e-19
8189.31821 9.47173e-19
8190.17968 9.37428e-19
8191.04114 9.25366e-19
8191.90260 9.13292e-19
8192.77408 9.01705e-19
8193.63554 8.90118e-19
8194.49700 8.81847e-19
8195.35846 8.73583e-19
8196.21993 8.71166e-19
8197.08139 8.68761e-19
8197.94285 8.74114e-19
8198.80431 8.79480e-19
8199.66577 8.88013e-19
8200.52724 8.96552e-19
8201.38870 9.01849e-19
8202.25016 9.07139e-19
8203.12164 9.07951e-19
8203.98310 9.08757e-19
8204.84456 9.06127e-19
8205.70603 9.03491e-19
8206.56749 8.97951e-19
8207.42895 8.92398e-19
8208.29041 8.84390e-19
8209.15187 8.76376e-19
8210.01334 8.67200e-19
8210.87480 8.58024e-19
8211.73626 8.49372e-19
8212.60774 8.40727e-19
8213.46920 8.33319e-19
8214.33066 8.25917e-19
8215.19212 8.19627e-19
8216.05359 8.13343e-19
8216.91505 8.06178e-19
8217.77651 7.99013e-19
8218.63797 7.85440e-19
8219.49943 7.71848e-19
8220.36090 7.49742e-19
8221.22236 7.27617e-19
8222.08382 7.02643e-19
8222.95530 6.77664e-19
8223.81676 6.56145e-19
8224.67822 6.34632e-19
8225.53969 6.24489e-19
8226.40115 6.14374e-19
8227.26261 6.21327e-19
8228.12407 6.28317e-19
8228.98553 6.47038e-19
8229.84700 6.65783e-19
8230.70846 6.88870e-19
8231.57994 7.11969e-19
8232.44140 7.32233e-19
8233.30286 7.52496e-19
8234.16432 7.63259e-19
8235.02578 7.74003e-19
8235.88725 7.77482e-19
8236.74871 7.80936e-19
8237.61017 7.82698e-19
8238.47163 7.84459e-19
8239.33309 7.88388e-19
8240.19456 7.92324e-19
8241.06604 8.01656e-19
8241.92750 8.11000e-19
8242.78896 8.23843e-19
8243.65042 8.36692e-19
8244.51188 8.47211e-19
8245.37335 8.57730e-19
8246.23481 8.63064e-19
8247.09627 8.68386e-19
8247.95773 8.68855e-19
8248.81919 8.69311e-19
8249.68066 8.66081e-19
8250.54212 8.62846e-19
8251.41360 8.58511e-19
8252.27506 8.54170e-19
8253.13652 8.51146e-19
8253.99798 8.48129e-19
8254.85945 8.47886e-19
8255.72091 8.47654e-19
8256.58237 8.51021e-19
8257.44383 8.54401e-19
8258.30529 8.60803e-19
8259.16676 8.67212e-19
8260.02822 8.75420e-19
8260.89970 8.83634e-19
8261.76116 8.91373e-19
8262.62262 8.99119e-19
8263.48408 9.04160e-19
8264.34554 9.09194e-19
8265.20701 9.09525e-19
8266.06847 9.09844e-19
8266.92993 9.04141e-19
8267.79139 8.98426e-19
8268.65285 8.89724e-19
8269.52433 8.81010e-19
8270.38580 8.73521e-19
8271.24726 8.66038e-19
8272.10872 8.62590e-19
8272.97018 8.59154e-19
8273.83164 8.61940e-19
8274.69311 8.64738e-19
8275.55457 8.71572e-19
8276.41603 8.78406e-19
8277.27749 8.84352e-19
8278.13895 8.90293e-19
8279.01043 8.93341e-19
8279.87189 8.96383e-19
8280.73336 8.97008e-19
8281.59482 8.97626e-19
8282.45628 8.97320e-19
8283.31774 8.97008e-19
8284.17920 8.98882e-19
8285.04067 9.00762e-19
8285.90213 9.06002e-19
8286.76359 9.11249e-19
8287.62505 9.17040e-19
8288.48651 9.22830e-19
8289.34798 9.27671e-19
8290.21946 9.32506e-19
8291.08092 9.38646e-19
8291.94238 9.44787e-19
8292.80384 9.53513e-19
8293.66530 9.62239e-19
8294.52677 9.71278e-19
8295.38823 9.80310e-19
8296.24969 9.87544e-19
8297.11115 9.94777e-19
8297.97261 9.98850e-19
8298.83408 1.00292e-18
8299.70555 1.00302e-18
8300.56702 1.00312e-18
8301.42848 1.00405e-18
8302.28994 1.00498e-18
8303.15140 1.01240e-18
8304.01286 1.01984e-18
8304.87433 1.03159e-18
8305.73579 1.04333e-18
8306.59725 1.05466e-18
8307.45871 1.06599e-18
8308.32017 1.07405e-18
8309.18164 1.08210e-18
8310.05312 1.08478e-18
8310.91458 1.08746e-18
8311.77604 1.08701e-18
8312.63750 1.08654e-18
8313.49896 1.08837e-18
8314.36043 1.09020e-18
8315.22189 1.09736e-18
8316.08335 1.10453e-18
8316.94481 1.11761e-18
8317.80627 1.13072e-18
8318.67775 1.14820e-18
8319.53921 1.16569e-18
8320.40068 1.18269e-18
8321.26214 1.19969e-18
8322.12360 1.21274e-18
8322.98506 1.22578e-18
8323.84652 1.23482e-18
8324.70799 1.24386e-18
8325.56945 1.24936e-18
8326.43091 1.25485e-18
8327.29237 1.25816e-18
8328.16385 1.26146e-18
8329.02531 1.26427e-18
8329.88678 1.26707e-18
8330.74824 1.27033e-18
8331.60970 1.27359e-18
8332.47116 1.27827e-18
8333.33262 1.28296e-18
8334.19408 1.29140e-18
8335.05555 1.29986e-18
8335.91701 1.31403e-18
8336.77847 1.32821e-18
8337.64995 1.34657e-18
8338.51141 1.36493e-18
8339.37287 1.38487e-18
8340.23434 1.40482e-18
8341.09580 1.42274e-18
8341.95726 1.44065e-18
8342.81872 1.45267e-18
8343.68018 1.46467e-18
8344.54165 1.47086e-18
8345.40311 1.47703e-18
8346.26457 1.48012e-18
8347.12603 1.48320e-18
8347.99751 1.48541e-18
8348.85897 1.48763e-18
8349.72043 1.49062e-18
8350.58190 1.49361e-18
8351.44336 1.49931e-18
8352.30482 1.50502e-18
8353.16628 1.51547e-18
8354.02775 1.52592e-18
8354.88921 1.54135e-18
8355.75067 1.55679e-18
8356.62215 1.57468e-18
8357.48361 1.59259e-18
8358.34507 1.61043e-18
8359.20653 1.62827e-18
8360.06800 1.64387e-18
8360.92946 1.65946e-18
8361.79092 1.67150e-18
8362.65238 1.68354e-18
8363.51384 1.69430e-18
8364.37531 1.70506e-18
8365.23677 1.71677e-18
8366.10825 1.72848e-18
8366.96971 1.73967e-18
8367.83117 1.75086e-18
8368.69263 1.76001e-18
8369.55410 1.76915e-18
8370.41556 1.77774e-18
8371.27702 1.78633e-18
8372.13848 1.79641e-18
8372.99994 1.80649e-18
8373.86140 1.81918e-18
8374.72287 1.83189e-18
8375.59435 1.84792e-18
8376.45581 1.86396e-18
8377.31727 1.88317e-18
8378.17873 1.90239e-18
8379.04019 1.92405e-18
8379.90166 1.94571e-18
8380.76312 1.96863e-18
8381.62458 1.99155e-18
8382.48604 2.01433e-18
8383.34750 2.03711e-18
8384.20897 2.05860e-18
8385.07043 2.08008e-18
8385.94191 2.09922e-18
8386.80337 2.11836e-18
8387.66483 2.13578e-18
8388.52629 2.15320e-18
8389.38775 2.17229e-18
8390.24922 2.19139e-18
8391.11068 2.21310e-18
8391.97214 2.23480e-18
8392.83360 2.25476e-18
8393.69507 2.27472e-18
8394.55653 2.28980e-18
8395.41799 2.30487e-18
8396.28947 2.31499e-18
8397.15093 2.32509e-18
8398.01239 2.33152e-18
8398.87385 2.33792e-18
8399.73532 2.34774e-18
8400.59678 2.35757e-18
8401.45824 2.37726e-18
8402.31970 2.39697e-18
8403.18116 2.42444e-18
8404.04263 2.45193e-18
8404.90409 2.48322e-18
8405.77557 2.51452e-18
8406.63703 2.54525e-18
8407.49849 2.57598e-18
8408.35995 2.60162e-18
8409.22142 2.62725e-18
8410.08288 2.64782e-18
8410.94434 2.66839e-18
8411.80580 2.68620e-18
8412.66726 2.70401e-18
8413.52873 2.72066e-18
8414.39019 2.73731e-18
8415.26167 2.75409e-18
8416.12313 2.77087e-18
8416.98459 2.78915e-18
8417.84605 2.80743e-18
8418.70751 2.82834e-18
8419.56898 2.84925e-18
8420.43044 2.87321e-18
8421.29190 2.89719e-18
8422.15336 2.92411e-18
8423.01482 2.95106e-18
8423.87629 2.97951e-18
8424.74777 3.00799e-18
8425.60923 3.03405e-18
8426.47069 3.06011e-18
8427.33215 3.08216e-18
8428.19361 3.10421e-18
8429.05508 3.12671e-18
8429.91654 3.14921e-18
8430.77800 3.17578e-18
8431.63946 3.20235e-18
8432.50092 3.23337e-18
8433.36239 3.26440e-18
8434.23386 3.29929e-18
8435.09533 3.33419e-18
8435.95679 3.36717e-18
8436.81825 3.40014e-18
8437.67971 3.42549e-18
8438.54117 3.45083e-18
8439.40264 3.47188e-18
8440.26410 3.49293e-18
8441.12556 3.51512e-18
8441.98702 3.53730e-18
8442.84848 3.56221e-18
8443.70995 3.58713e-18
8444.58143 3.61514e-18
8445.44289 3.64316e-18
8446.30435 3.67456e-18
8447.16581 3.70598e-18
8448.02727 3.74069e-18
8448.88874 3.77540e-18
8449.75020 3.81234e-18
8450.61166 3.84928e-18
8451.47312 3.88688e-18
8452.33458 3.92447e-18
8453.20606 3.96092e-18
8454.06752 3.99737e-18
8454.92899 4.03048e-18
8455.79045 4.06359e-18
8456.65191 4.09385e-18
8457.51337 4.12410e-18
8458.37483 4.15619e-18
8459.23630 4.18829e-18
8460.09776 4.22421e-18
8460.95922 4.26013e-18
8461.82068 4.29583e-18
8462.69216 4.33153e-18
8463.55362 4.36415e-18
8464.41508 4.39678e-18
8465.27655 4.42655e-18
8466.13801 4.45631e-18
8466.99947 4.48443e-18
8467.86093 4.51253e-18
8468.72240 4.54496e-18
8469.58386 4.57739e-18
8470.44532 4.61941e-18
8471.30678 4.66144e-18
8472.16824 4.70977e-18
8473.03972 4.75813e-18
8473.90118 4.80804e-18
8474.76265 4.85796e-18
8475.62411 4.90585e-18
8476.48557 4.95375e-18
8477.34703 4.99617e-18
8478.20849 5.03857e-18
8479.06996 5.07961e-18
8479.93142 5.12063e-18
8480.79288 5.16774e-18
8481.65434 5.21487e-18
8482.51580 5.26638e-18
8483.38728 5.31790e-18
8484.24875 5.36687e-18
8485.11021 5.41583e-18
8485.97167 5.45916e-18
8486.83313 5.50247e-18
8487.69459 5.54007e-18
8488.55605 5.57765e-18
8489.41752 5.61151e-18
8490.27898 5.64536e-18
8491.14044 5.68048e-18
8492.00190 5.71561e-18
8492.87338 5.75527e-18
8493.73484 5.79494e-18
8494.59631 5.83825e-18
8495.45777 5.88155e-18
8496.31923 5.92898e-18
8497.18069 5.97643e-18
8498.04215 6.03327e-18
8498.90362 6.09015e-18
8499.76508 6.15842e-18
8500.62654 6.22671e-18
8501.48800 6.29729e-18
8502.35948 6.36787e-18
8503.22094 6.43183e-18
8504.08240 6.49580e-18
8504.94387 6.55133e-18
8505.80533 6.60680e-18
8506.66679 6.65352e-18
8507.52825 6.70018e-18
8508.38972 6.74135e-18
8509.25118 6.78251e-18
8510.11264 6.82255e-18
8510.98412 6.86265e-18
8511.84558 6.90332e-18
8512.70704 6.94398e-18
8513.56850 6.98614e-18
8514.42997 7.02825e-18
8515.29143 7.07172e-18
8516.15289 7.11520e-18
8517.01435 7.15948e-18
8517.87581 7.20377e-18
8518.73728 7.24887e-18
8519.59874 7.29391e-18
8520.46020 7.33994e-18
8521.33168 7.38592e-18
8522.19314 7.43489e-18
8523.05460 7.48380e-18
8523.91607 7.53945e-18
8524.77753 7.59517e-18
8525.63899 7.65882e-18
8526.50045 7.72247e-18
8527.36191 7.79181e-18
8528.22337 7.86108e-18
8529.08484 7.93242e-18
8529.94630 8.00375e-18
8530.80776 8.07115e-18
8531.67924 8.13855e-18
8532.54070 8.19720e-18
8533.40216 8.25580e-18
8534.26363 8.30383e-18
8535.12509 8.35187e-18
8535.98655 8.38978e-18
8536.84801 8.42776e-18
8537.70947 8.46293e-18
8538.57094 8.49809e-18
8539.43240 8.53826e-18
8540.30388 8.57849e-18
8541.16534 8.62883e-18
8542.02680 8.67918e-18
8542.88826 8.74277e-18
8543.74972 8.80642e-18
8544.61119 8.87907e-18
8545.47265 8.95171e-18
8546.33411 9.02673e-18
8547.19557 9.10169e-18
8548.05703 9.16753e-18
8548.91850 9.23330e-18
8549.78998 9.27721e-18
8550.65144 9.32113e-18
8551.51290 9.34430e-18
8552.37436 9.36741e-18
8553.23582 9.37941e-18
8554.09729 9.39140e-18
8554.95875 9.40520e-18
8555.82021 9.41907e-18
8556.68167 9.45005e-18
8557.54313 9.48110e-18
8558.40460 9.53625e-18
8559.27607 9.59141e-18
8560.13754 9.66643e-18
8560.99900 9.74145e-18
8561.86046 9.82815e-18
8562.72192 9.91485e-18
8563.58338 9.99980e-18
8564.44485 1.00848e-17
8565.30631 1.01558e-17
8566.16777 1.02267e-17
8567.02923 1.02755e-17
8567.89070 1.03242e-17
8568.75216 1.03469e-17
8569.62364 1.03697e-17
8570.48510 1.03728e-17
8571.34656 1.03759e-17
8572.20802 1.03687e-17
8573.06948 1.03615e-17
8573.93095 1.03542e-17
8574.79241 1.03469e-17
8575.65387 1.03493e-17
8576.51533 1.03518e-17
8577.37679 1.03743e-17
8578.23826 1.03970e-17
8579.09972 1.04474e-17
8579.97120 1.04980e-17
8580.83266 1.05665e-17
8581.69412 1.06352e-17
8582.55558 1.07056e-17
8583.41705 1.07760e-17
8584.27851 1.08350e-17
8585.13997 1.08941e-17
8586.00143 1.09311e-17
8586.86289 1.09681e-17
8587.72436 1.09815e-17
8588.58582 1.09949e-17
8589.45730 1.09908e-17
8590.31876 1.09866e-17
8591.18022 1.09741e-17
8592.04168 1.09616e-17
8592.90314 1.09532e-17
8593.76461 1.09448e-17
8594.62607 1.09476e-17
8595.48753 1.09503e-17
8596.34899 1.09613e-17
8597.21045 1.09723e-17
8598.07192 1.09899e-17
8598.94340 1.10076e-17
8599.80486 1.10336e-17
8600.66632 1.10596e-17
8601.52778 1.10932e-17
8602.38924 1.11268e-17
8603.25071 1.11627e-17
8604.11217 1.11986e-17
8604.97363 1.12309e-17
8605.83509 1.12631e-17
8606.69655 1.12839e-17
8607.56803 1.13046e-17
8608.42949 1.13075e-17
8609.29096 1.13103e-17
8610.15242 1.12971e-17
8611.01388 1.12837e-17
8611.87534 1.12588e-17
8612.73680 1.12339e-17
8613.59827 1.12026e-17
8614.45973 1.11711e-17
8615.32119 1.11387e-17
8616.18265 1.11062e-17
8617.04411 1.10827e-17
8617.91559 1.10593e-17
8618.77706 1.10561e-17
8619.63852 1.10528e-17
8620.49998 1.10704e-17
8621.36144 1.10879e-17
8622.22290 1.11202e-17
8623.08437 1.11526e-17
8623.94583 1.11911e-17
8624.80729 1.12297e-17
8625.66875 1.12635e-17
8626.53021 1.12972e-17
8627.40169 1.13198e-17
8628.26315 1.13423e-17
8629.12462 1.13534e-17
8629.98608 1.13645e-17
8630.84754 1.13640e-17
8631.70900 1.13634e-17
8632.57046 1.13497e-17
8633.43193 1.13359e-17
8634.29339 1.13108e-17
8635.15485 1.12858e-17
8636.01631 1.12573e-17
8636.88779 1.12287e-17
8637.74925 1.12050e-17
8638.61072 1.11813e-17
8639.47218 1.11718e-17
8640.33364 1.11624e-17
8641.19510 1.11737e-17
8642.05656 1.11850e-17
8642.91803 1.12115e-17
8643.77949 1.12382e-17
8644.64095 1.12718e-17
8645.50241 1.13053e-17
8646.37389 1.13371e-17
8647.23535 1.13689e-17
8648.09681 1.13903e-17
8648.95828 1.14116e-17
8649.81974 1.14192e-17
8650.68120 1.14269e-17
8651.54266 1.14211e-17
8652.40412 1.14151e-17
8653.26559 1.13948e-17
8654.12705 1.13744e-17
8654.98851 1.13389e-17
8655.85999 1.13034e-17
8656.72145 1.12590e-17
8657.58291 1.12146e-17
8658.44438 1.11719e-17
8659.30584 1.11293e-17
8660.16730 1.10957e-17
8661.02876 1.10621e-17
8661.89022 1.10408e-17
8662.75168 1.10197e-17
8663.61315 1.10124e-17
8664.47461 1.10052e-17
8665.33607 1.10115e-17
8666.20755 1.10178e-17
8667.06901 1.10347e-17
8667.93047 1.10516e-17
8668.79194 1.10738e-17
8669.65340 1.10961e-17
8670.51486 1.11164e-17
8671.37632 1.11368e-17
8672.23778 1.11431e-17
8673.09925 1.11493e-17
8673.96071 1.11325e-17
8674.82217 1.11155e-17
8675.68363 1.10782e-17
8676.55511 1.10409e-17
8677.41657 1.09892e-17
8678.27803 1.09373e-17
8679.13950 1.08813e-17
8680.00096 1.08252e-17
8680.86242 1.07759e-17
8681.72388 1.07267e-17
8682.58535 1.06887e-17
8683.44681 1.06507e-17
8684.30827 1.06254e-17
8685.16973 1.06002e-17
8686.04121 1.05893e-17
8686.90267 1.05784e-17
8687.76413 1.05820e-17
8688.62560 1.05856e-17
8689.48706 1.06009e-17
8690.34852 1.06162e-17
8691.20998 1.06387e-17
8692.07144 1.06612e-17
8692.93291 1.06833e-17
8693.79437 1.07054e-17
8694.66585 1.07173e-17
8695.52731 1.07293e-17
8696.38877 1.07251e-17
8697.25023 1.07210e-17
8698.11170 1.06997e-17
8698.97316 1.06784e-17
8699.83462 1.06424e-17
8700.69608 1.06063e-17
8701.55754 1.05633e-17
8702.41900 1.05203e-17
8703.28047 1.04768e-17
8704.15195 1.04334e-17
8705.01341 1.03897e-17
8705.87487 1.03461e-17
8706.73633 1.03041e-17
8707.59779 1.02621e-17
8708.45926 1.02305e-17
8709.32072 1.01989e-17
8710.18218 1.01846e-17
8711.04364 1.01703e-17
8711.90510 1.01736e-17
8712.76657 1.01770e-17
8713.62803 1.01953e-17
8714.49951 1.02137e-17
8715.36097 1.02337e-17
8716.22243 1.02538e-17
8717.08389 1.02603e-17
8717.94535 1.02668e-17
8718.80682 1.02535e-17
8719.66828 1.02402e-17
8720.52974 1.02049e-17
8721.39120 1.01695e-17
8722.25267 1.01208e-17
8723.11413 1.00721e-17
8723.98561 1.00251e-17
8724.84707 9.97806e-18
8725.70853 9.93840e-18
8726.56999 9.89867e-18
8727.43145 9.86469e-18
8728.29292 9.83077e-18
8729.15438 9.80266e-18
8730.01584 9.77456e-18
8730.87730 9.75307e-18
8731.73876 9.73152e-18
8732.61024 9.71865e-18
8733.47170 9.70572e-18
8734.33317 9.70741e-18
8735.19463 9.70915e-18
8736.05609 9.72365e-18
8736.91755 9.73814e-18
8737.77902 9.74832e-18
8738.64048 9.75850e-18
8739.50194 9.74988e-18
8740.36340 9.74126e-18
8741.22486 9.70591e-18
8742.08633 9.67049e-18
8742.95780 9.60634e-18
8743.81927 9.54213e-18
8744.68073 9.46767e-18
8745.54219 9.39315e-18
8746.40365 9.32850e-18
8747.26511 9.26385e-18
8748.12658 9.21837e-18
8748.98804 9.17302e-18
8749.84950 9.15241e-18
8750.71096 9.13186e-18
8751.57242 9.13030e-18
8752.44390 9.12880e-18
8753.30537 9.13517e-18
8754.16683 9.14160e-18
8755.02829 9.14985e-18
8755.88975 9.15809e-18
8756.75121 9.16422e-18
8757.61268 9.17034e-18
8758.47414 9.16540e-18
8759.33560 9.16041e-18
8760.19706 9.13355e-18
8761.05852 9.10662e-18
8761.91999 9.05609e-18
8762.79146 9.00549e-18
8763.65293 8.93709e-18
8764.51439 8.86863e-18
8765.37585 8.79187e-18
8766.23731 8.71516e-18
8767.09877 8.64370e-18
8767.96024 8.57237e-18
8768.82170 8.51502e-18
8769.68316 8.45781e-18
8770.54462 8.41352e-18
8771.40608 8.36929e-18
8772.26755 8.33612e-18
8773.13903 8.30302e-18
8774.00049 8.27947e-18
8774.86195 8.25586e-18
8775.72341 8.23874e-18
8776.58487 8.22157e-18
8777.44633 8.20807e-18
8778.30780 8.19464e-18
8779.16926 8.18090e-18
8780.03072 8.16716e-18
8780.89218 8.14124e-18
8781.76366 8.11525e-18
8782.62512 8.06640e-18
8783.48659 8.01743e-18
8784.34805 7.95078e-18
8785.20951 7.88413e-18
8786.07097 7.80924e-18
8786.93243 7.73434e-18
8787.79390 7.65839e-18
8788.65536 7.58243e-18
8789.51682 7.51241e-18
8790.37828 7.44238e-18
8791.24976 7.37811e-18
8792.11122 7.31383e-18
8792.97268 7.25031e-18
8793.83415 7.18672e-18
8794.69561 7.12713e-18
8795.55707 7.06760e-18
8796.41853 7.02112e-18
8797.28000 6.97478e-18
8798.14146 6.93961e-18
8799.00292 6.90450e-18
8799.86438 6.86840e-18
8800.72584 6.83229e-18
8801.59732 6.78526e-18
8802.45878 6.73822e-18
8803.32025 6.67351e-18
8804.18171 6.60880e-18
8805.04317 6.52553e-18
8805.90463 6.44227e-18
8806.76609 6.35244e-18
8807.62756 6.26256e-18
8808.48902 6.17709e-18
8809.35048 6.09166e-18
8810.21194 6.01585e-18
8811.08342 5.94006e-18
8811.94488 5.87742e-18
8812.80635 5.81482e-18
8813.66781 5.76397e-18
8814.52927 5.71316e-18
8815.39073 5.67078e-18
8816.25219 5.62842e-18
8817.11365 5.59035e-18
8817.97512 5.55229e-18
8818.83658 5.51388e-18
8819.70806 5.47547e-18
8820.56952 5.43111e-18
8821.43098 5.38673e-18
8822.29244 5.33152e-18
8823.15391 5.27628e-18
8824.01537 5.20961e-18
8824.87683 5.14292e-18
8825.73829 5.06656e-18
8826.59975 4.99017e-18
8827.46122 4.91115e-18
8828.32268 4.83212e-18
8829.19416 4.76056e-18
8830.05562 4.68903e-18
8830.91708 4.63012e-18
8831.77854 4.57124e-18
8832.64000 4.52533e-18
8833.50147 4.47945e-18
8834.36293 4.44490e-18
8835.22439 4.41039e-18
8836.08585 4.38316e-18
8836.94732 4.35595e-18
8837.80878 4.33130e-18
8838.67024 4.30666e-18
8839.54172 4.27973e-18
8840.40318 4.25280e-18
8841.26464 4.22001e-18
8842.12610 4.18721e-18
8842.98757 4.14809e-18
8843.84903 4.10895e-18
8844.71049 4.06425e-18
8845.57195 4.01953e-18
8846.43341 3.97186e-18
8847.29488 3.92418e-18
8848.15634 3.87689e-18
8849.02782 3.82961e-18
8849.88928 3.78450e-18
8850.75074 3.73941e-18
8851.61220 3.69819e-18
8852.47367 3.65698e-18
8853.33513 3.62841e-18
8854.19659 3.59987e-18
8855.05805 3.59265e-18
8855.91951 3.58549e-18
8856.78097 3.59272e-18
8857.64244 3.59999e-18
8858.50390 3.60944e-18
8859.36536 3.61890e-18
8860.23684 3.62051e-18
8861.09830 3.62210e-18
8861.95976 3.60676e-18
8862.82123 3.59138e-18
8863.68269 3.56252e-18
8864.54415 3.53362e-18
8865.40561 3.50452e-18
8866.26707 3.47541e-18
8867.12854 3.45222e-18
8867.99000 3.42905e-18
8868.86148 3.41023e-18
8869.72294 3.39142e-18
8870.58440 3.37628e-18
8871.44586 3.36115e-18
8872.30732 3.34912e-18
8873.16879 3.33709e-18
8874.03025 3.32882e-18
8874.89171 3.32055e-18
8875.75317 3.32113e-18
8876.61463 3.32174e-18
8877.47610 3.33326e-18
8878.34758 3.34480e-18
8879.20904 3.36087e-18
8880.07050 3.37696e-18
8880.93196 3.39091e-18
8881.79342 3.40486e-18
8882.65489 3.41049e-18
8883.51635 3.41609e-18
8884.37781 3.40887e-18
8885.23927 3.40162e-18
8886.10073 3.38572e-18
8886.96220 3.36980e-18
8887.83367 3.35178e-18
8888.69514 3.33374e-18
8889.55660 3.31963e-18
8890.41806 3.30552e-18
8891.27952 3.30079e-18
8892.14099 3.29609e-18
8893.00245 3.30385e-18
8893.86391 3.31164e-18
8894.72537 3.33312e-18
8895.58683 3.35463e-18
8896.44830 3.38476e-18
8897.30976 3.41492e-18
8898.18124 3.44509e-18
8899.04270 3.47525e-18
8899.90416 3.49808e-18
8900.76562 3.52089e-18
8901.62708 3.53023e-18
8902.48855 3.53954e-18
8903.35001 3.53635e-18
8904.21147 3.53312e-18
8905.07293 3.52761e-18
8905.93439 3.52209e-18
8906.80587 3.52096e-18
8907.66734 3.51983e-18
8908.52880 3.52241e-18
8909.39026 3.52500e-18
8910.25172 3.53131e-18
8911.11318 3.53763e-18
8911.97465 3.54892e-18
8912.83611 3.56021e-18
8913.69757 3.57698e-18
8914.55903 3.59377e-18
8915.42049 3.61723e-18
8916.29197 3.64069e-18
8917.15343 3.67055e-18
8918.01490 3.70041e-18
8918.87636 3.72898e-18
8919.73782 3.75755e-18
8920.59928 3.77715e-18
8921.46074 3.79672e-18
8922.32221 3.80518e-18
8923.18367 3.81360e-18
8924.04513 3.81068e-18
8924.90659 3.80772e-18
8925.76805 3.80248e-18
8926.63953 3.79722e-18
8927.50100 3.80201e-18
8928.36246 3.80682e-18
8929.22392 3.82211e-18
8930.08538 3.83743e-18
8930.94684 3.85763e-18
8931.80831 3.87785e-18
8932.66977 3.89893e-18
8933.53123 3.92001e-18
8934.39269 3.93804e-18
8935.25415 3.95606e-18
8936.12563 3.97290e-18
8936.98709 3.98973e-18
8937.84856 4.01419e-18
8938.71002 4.03867e-18
8939.57148 4.07117e-18
8940.43294 4.10368e-18
8941.29440 4.13223e-18
8942.15587 4.16077e-18
8943.01733 4.17658e-18
8943.87879 4.19235e-18
8944.74025 4.19148e-18
8945.61173 4.19056e-18
8946.47319 4.17443e-18
8947.33466 4.15826e-18
8948.19612 4.14536e-18
8949.05758 4.13247e-18
8949.91904 4.13780e-18
8950.78050 4.14319e-18
8951.64197 4.16210e-18
8952.50343 4.18104e-18
8953.36489 4.20597e-18
8954.22635 4.23091e-18
8955.08781 4.24221e-18
8955.95929 4.25346e-18
8956.82075 4.23179e-18
8957.68222 4.21003e-18
8958.54368 4.17944e-18
8959.40514 4.14882e-18
8960.26660 4.14474e-18
8961.12806 4.14074e-18
8961.98953 4.16824e-18
8962.85099 4.19582e-18
8963.71245 4.24819e-18
8964.57391 4.30062e-18
8965.44539 4.36088e-18
8966.30685 4.42116e-18
8967.16832 4.46363e-18
8968.02978 4.50606e-18
8968.89124 4.53355e-18
8969.75270 4.56102e-18
8970.61416 4.60162e-18
8971.47563 4.64226e-18
8972.33709 4.70569e-18
8973.19855 4.76919e-18
8974.06001 4.84343e-18
8974.93149 4.91769e-18
8975.79295 4.98532e-18
8976.65441 5.05292e-18
8977.51588 5.08731e-18
8978.37734 5.12161e-18
8979.23880 5.10202e-18
8980.10026 5.08228e-18
8980.96172 4.99536e-18
8981.82319 4.90827e-18
8982.68465 4.76259e-18
8983.54611 4.61676e-18
8984.41759 4.49068e-18
8985.27905 4.36466e-18
8986.14051 4.33046e-18
8987.00198 4.29651e-18
8987.86344 4.37897e-18
8988.72490 4.46175e-18
8989.58636 4.66461e-18
8990.44782 4.86779e-18
8991.30928 5.09423e-18
8992.17075 5.32072e-18
8993.03221 5.45419e-18
8993.89367 5.58740e-18
8994.76515 5.61042e-18
8995.62661 5.63315e-18
8996.48807 5.56702e-18
8997.34954 5.50066e-18
8998.21100 5.39752e-18
8999.07246 5.29430e-18
8999.93392 5.22528e-18
9000.79538 5.15636e-18
9001.65685 5.15248e-18
9002.51831 5.14878e-18
9003.38979 5.20813e-18
9004.25125 5.26763e-18
9005.11271 5.36950e-18
9005.97417 5.47148e-18
9006.83563 5.57532e-18
9007.69710 5.67916e-18
9008.55856 5.75335e-18
9009.42002 5.82746e-18
9010.28148 5.85733e-18
9011.14295 5.88708e-18
9012.00441 5.87329e-18
9012.87589 5.85938e-18
9013.73735 5.83677e-18
9014.59881 5.81415e-18
9015.46027 5.80858e-18
9016.32173 5.80306e-18
9017.18320 5.79875e-18
9018.04466 5.79444e-18
9018.90612 5.77961e-18
9019.76758 5.76477e-18
9020.62904 5.75303e-18
9021.49051 5.74129e-18
9022.35197 5.74674e-18
9023.22345 5.75224e-18
9024.08491 5.79264e-18
9024.94637 5.83313e-18
9025.80783 5.92264e-18
9026.66930 6.01230e-18
9027.53076 6.12942e-18
9028.39222 6.24663e-18
9029.25368 6.35881e-18
9030.11514 6.47094e-18
9030.97660 6.55558e-18
9031.83807 6.64009e-18
9032.70955 6.68038e-18
9033.57101 6.72055e-18
9034.43247 6.71499e-18
9035.29393 6.70930e-18
9036.15539 6.66645e-18
9037.01686 6.62348e-18
9037.87832 6.56532e-18
9038.73978 6.50710e-18
9039.60124 6.46744e-18
9040.46270 6.42790e-18
9041.32417 6.41578e-18
9042.18563 6.40373e-18
9043.05711 6.39442e-18
9043.91857 6.38505e-18
9044.78003 6.36550e-18
9045.64149 6.34588e-18
9046.50295 6.32390e-18
9047.36442 6.30191e-18
9048.22588 6.28429e-18
9049.08734 6.26668e-18
9049.94880 6.26431e-18
9050.81027 6.26187e-18
9051.67173 6.27761e-18
9052.54321 6.29341e-18
9053.40467 6.29510e-18
9054.26613 6.29666e-18
9055.12759 6.25606e-18
9055.98905 6.21536e-18
9056.85052 6.14753e-18
9057.71198 6.07963e-18
9058.57344 6.00500e-18
9059.43490 5.93036e-18
9060.29636 5.85148e-18
9061.16784 5.77258e-18
9062.02931 5.69044e-18
9062.89077 5.60830e-18
9063.75223 5.51992e-18
9064.61369 5.43153e-18
9065.47515 5.33033e-18
9066.33662 5.22910e-18
9067.19808 5.14085e-18
9068.05954 5.05263e-18
9068.92100 5.02012e-18
9069.78246 4.98776e-18
9070.64393 5.00152e-18
9071.51540 5.01541e-18
9072.37687 5.02754e-18
9073.23833 5.03967e-18
9074.09979 5.03250e-18
9074.96125 5.02528e-18
9075.82271 5.01218e-18
9076.68418 4.99905e-18
9077.54564 4.98839e-18
9078.40710 4.97773e-18
9079.26856 4.97434e-18
9080.13002 4.97097e-18
9080.99149 4.97466e-18
9081.86297 4.97836e-18
9082.72443 4.97253e-18
9083.58589 4.96666e-18
9084.44735 4.94202e-18
9085.30881 4.91734e-18
9086.17028 4.89219e-18
9087.03174 4.86705e-18
9087.89320 4.85549e-18
9088.75466 4.84396e-18
9089.61612 4.82801e-18
9090.48760 4.81204e-18
9091.34906 4.77444e-18
9092.21053 4.73700e-18
9093.07199 4.69556e-18
9093.93345 4.65410e-18
9094.79491 4.63057e-18
9095.65637 4.60710e-18
9096.51784 4.59532e-18
9097.37930 4.58358e-18
9098.24076 4.57056e-18
9099.10222 4.55754e-18
9099.97370 4.54665e-18
9100.83516 4.53577e-18
9101.69663 4.53396e-18
9102.55809 4.53217e-18
9103.41955 4.55275e-18
9104.28101 4.57339e-18
9105.14247 4.63541e-18
9106.00393 4.69755e-18
9106.86540 4.77841e-18
9107.72686 4.85933e-18
9108.58832 4.90108e-18
9109.45980 4.94271e-18
9110.32126 4.92062e-18
9111.18272 4.89836e-18
9112.04419 4.82682e-18
9112.90565 4.75515e-18
9113.76711 4.66372e-18
9114.62857 4.57225e-18
9115.49003 4.52160e-18
9116.35150 4.47107e-18
9117.21296 4.49281e-18
9118.07442 4.51476e-18
9118.93588 4.56209e-18
9119.80736 4.60949e-18
9120.66882 4.63671e-18
9121.53028 4.66387e-18
9122.39175 4.64170e-18
9123.25321 4.61939e-18
9124.11467 4.53026e-18
9124.97613 4.44095e-18
9125.83760 4.32608e-18
9126.69906 4.21114e-18
9127.56052 4.12071e-18
9128.43200 4.03035e-18
9129.29346 3.99028e-18
9130.15492 3.95036e-18
9131.01638 3.97735e-18
9131.87785 4.00452e-18
9132.73931 4.08732e-18
9133.60077 4.17027e-18
9134.46223 4.28342e-18
9135.32369 4.39664e-18
9136.18516 4.51364e-18
9137.04662 4.63065e-18
9137.90808 4.72415e-18
9138.76954 4.81759e-18
9139.64102 4.87000e-18
9140.50248 4.92230e-18
9141.36395 4.92767e-18
9142.22541 4.93293e-18
9143.08687 4.88236e-18
9143.94833 4.83165e-18
9144.80979 4.71232e-18
9145.67125 4.59281e-18
9146.53272 4.42019e-18
9147.39418 4.24743e-18
9148.26566 4.07365e-18
9149.12712 3.89988e-18
9149.98858 3.77226e-18
9150.85004 3.64476e-18
9151.71151 3.60157e-18
9152.57297 3.55861e-18
9153.43443 3.61478e-18
9154.29589 3.67121e-18
9155.15735 3.77765e-18
9156.01882 3.88422e-18
9156.88028 3.98906e-18
9157.75176 4.09390e-18
9158.61322 4.17289e-18
9159.47468 4.25181e-18
9160.33614 4.28622e-18
9161.19760 4.32050e-18
9162.05907 4.31157e-18
9162.92053 4.30252e-18
9163.78199 4.26044e-18
9164.64345 4.21827e-18
9165.50492 4.14163e-18
9166.36638 4.06488e-18
9167.22784 3.95186e-18
9168.09932 3.83874e-18
9168.96078 3.71739e-18
9169.82224 3.59601e-18
9170.68370 3.50428e-18
9171.54517 3.41264e-18
9172.40663 3.36951e-18
9173.26809 3.32651e-18
9174.12955 3.34023e-18
9174.99101 3.35411e-18
9175.85248 3.40136e-18
9176.71394 3.44870e-18
9177.58542 3.47644e-18
9178.44688 3.50413e-18
9179.30834 3.49695e-18
9180.16980 3.48967e-18
9181.03127 3.48236e-18
9181.89273 3.47505e-18
9182.75419 3.48676e-18
9183.61565 3.49852e-18
9184.47711 3.52242e-18
9185.33857 3.54635e-18
9186.20004 3.57419e-18
9187.07152 3.60205e-18
9187.93298 3.61387e-18
9188.79444 3.62565e-18
9189.65590 3.61037e-18
9190.51736 3.59500e-18
9191.37883 3.58348e-18
9192.24029 3.57196e-18
9193.10175 3.59167e-18
9193.96321 3.61147e-18
9194.82467 3.65020e-18
9195.68614 3.68898e-18
9196.55762 3.72930e-18
9197.41908 3.76962e-18
9198.28054 3.79577e-18
9199.14200 3.82188e-18
9200.00346 3.81871e-18
9200.86492 3.81547e-18
9201.72639 3.79415e-18
9202.58785 3.77278e-18
9203.44931 3.75525e-18
9204.31077 3.73773e-18
9205.17224 3.72463e-18
9206.04371 3.71154e-18
9206.90518 3.69323e-18
9207.76664 3.67491e-18
9208.62810 3.65445e-18
9209.48956 3.63399e-18
9210.35102 3.62169e-18
9211.21249 3.60942e-18
9212.07395 3.61564e-18
9212.93541 3.62192e-18
9213.79687 3.65852e-18
9214.65833 3.69521e-18
9215.52981 3.75982e-18
9216.39127 3.82451e-18
9217.25274 3.89259e-18
9218.11420 3.96067e-18
9218.97566 4.01626e-18
9219.83712 4.07181e-18
9220.69859 4.12000e-18
9221.56005 4.16817e-18
9222.42151 4.21183e-18
9223.28297 4.25548e-18
9224.14443 4.28974e-18
9225.00590 4.32397e-18
9225.87737 4.34544e-18
9226.73884 4.36687e-18
9227.60030 4.37197e-18
9228.46176 4.37703e-18
9229.32322 4.36440e-18
9230.18468 4.35173e-18
9231.04615 4.33577e-18
9231.90761 4.31979e-18
9232.76907 4.31712e-18
9233.63053 4.31448e-18
9234.49199 4.32144e-18
9235.35346 4.32843e-18
9236.22494 4.33567e-18
9237.08640 4.34291e-18
9237.94786 4.35469e-18
9238.80932 4.36648e-18
9239.67078 4.39160e-18
9240.53225 4.41675e-18
9241.39371 4.45941e-18
9242.25517 4.50212e-18
9243.11663 4.56405e-18
9243.97809 4.62603e-18
9244.84957 4.70183e-18
9245.71103 4.77767e-18
9246.57250 4.85503e-18
9247.43396 4.93240e-18
9248.29542 5.00430e-18
9249.15688 5.07619e-18
9250.01834 5.14407e-18
9250.87981 5.21196e-18
9251.74127 5.27240e-18
9252.60273 5.33282e-18
9253.46419 5.37134e-18
9254.32565 5.40979e-18
9255.19713 5.42401e-18
9256.05860 5.43815e-18
9256.92006 5.45623e-18
9257.78152 5.47432e-18
9258.64298 5.51745e-18
9259.50444 5.56064e-18
9260.36591 5.62242e-18
9261.22737 5.68425e-18
9262.08883 5.75328e-18
9262.95029 5.82233e-18
9263.81175 5.87370e-18
9264.68323 5.92502e-18
9265.54469 5.93487e-18
9266.40616 5.94461e-18
9267.26762 5.91361e-18
9268.12908 5.88250e-18
9268.99054 5.82048e-18
9269.85200 5.75838e-18
9270.71347 5.68843e-18
9271.57493 5.61845e-18
9272.43639 5.56809e-18
9273.29785 5.51778e-18
9274.16933 5.50873e-18
9275.03079 5.49979e-18
9275.89226 5.54795e-18
9276.75372 5.59627e-18
9277.61518 5.69354e-18
9278.47664 5.79095e-18
9279.33810 5.91054e-18
9280.19957 6.03020e-18
9281.06103 6.14320e-18
9281.92249 6.25618e-18
9282.79397 6.33470e-18
9283.65543 6.41316e-18
9284.51689 6.43502e-18
9285.37835 6.45670e-18
9286.23982 6.40872e-18
9287.10128 6.36056e-18
9287.96274 6.24856e-18
9288.82420 6.13632e-18
9289.68566 5.99578e-18
9290.54713 5.85517e-18
9291.40859 5.72740e-18
9292.27005 5.59967e-18
9293.14153 5.53903e-18
9294.00299 5.47858e-18
9294.86445 5.52057e-18
9295.72592 5.56286e-18
9296.58738 5.67091e-18
9297.44884 5.77916e-18
9298.31030 5.90475e-18
9299.17176 6.03038e-18
9300.03323 6.10734e-18
9300.89469 6.18417e-18
9301.75615 6.14907e-18
9302.62763 6.11365e-18
9303.48909 6.02741e-18
9304.35055 5.94103e-18
9305.21201 5.90332e-18
9306.07348 5.86574e-18
9306.93494 5.85332e-18
9307.79640 5.84097e-18
9308.65786 5.78154e-18
9309.51932 5.72198e-18
9310.38079 5.61890e-18
9311.24225 5.51571e-18
9312.11373 5.41165e-18
9312.97519 5.30759e-18
9313.83665 5.24437e-18
9314.69811 5.18127e-18
9315.55958 5.20646e-18
9316.42104 5.23191e-18
9317.28250 5.33626e-18
9318.14396 5.44083e-18
9319.00542 5.53287e-18
9319.86688 5.62486e-18
9320.72835 5.66868e-18
9321.58981 5.71236e-18
9322.46129 5.79226e-18
9323.32275 5.87227e-18
9324.18421 6.00669e-18
9325.04567 6.14126e-18
9325.90714 6.15784e-18
9326.76860 6.17408e-18
9327.63006 5.96654e-18
9328.49152 5.75837e-18
9329.35298 5.49356e-18
9330.21445 5.22858e-18
9331.07591 5.06803e-18
9331.94739 4.90778e-18
9332.80885 4.82034e-18
9333.67031 4.73312e-18
9334.53177 4.67213e-18
9335.39323 4.61121e-18
9336.25470 4.57772e-18
9337.11616 4.54432e-18
9337.97762 4.53033e-18
9338.83908 4.51641e-18
9339.70055 4.66417e-18
9340.56201 4.81238e-18
9341.43349 5.31453e-18
9342.29495 5.81768e-18
9343.15641 6.42746e-18
9344.01787 7.03749e-18
9344.87933 7.30090e-18
9345.74080 7.56325e-18
9346.60226 7.34488e-18
9347.46372 7.12506e-18
9348.32518 6.50217e-18
9349.18664 5.87816e-18
9350.04811 5.13722e-18
9350.90957 4.39596e-18
9351.78105 4.06525e-18
9352.64251 3.73573e-18
9353.50397 3.98860e-18
9354.36543 4.24311e-18
9355.22689 4.69737e-18
9356.08836 5.15219e-18
9356.94982 5.48652e-18
9357.81128 5.82050e-18
9358.67274 5.84325e-18
9359.53420 5.86510e-18
9360.39567 5.49339e-18
9361.26715 5.12056e-18
9362.12861 4.65546e-18
9362.99007 4.19011e-18
9363.85153 3.91579e-18
9364.71299 3.64203e-18
9365.57446 3.57486e-18
9366.43592 3.50828e-18
9367.29738 3.62087e-18
9368.15884 3.73397e-18
9369.02030 3.88516e-18
9369.89178 4.03645e-18
9370.75324 4.06455e-18
9371.61471 4.09230e-18
9372.47617 4.00723e-18
9373.33763 3.92184e-18
9374.19909 3.78401e-18
9375.06056 3.64603e-18
9375.92202 3.54782e-18
9376.78348 3.44972e-18
9377.64494 3.50397e-18
9378.50640 3.55864e-18
9379.37788 3.72255e-18
9380.23934 3.88677e-18
9381.10081 4.01505e-18
9381.96227 4.14322e-18
9382.82373 4.18959e-18
9383.68519 4.23572e-18
9384.54665 4.24195e-18
9385.40812 4.24805e-18
9386.26958 4.22570e-18
9387.13104 4.20327e-18
9387.99250 4.13277e-18
9388.85396 4.06213e-18
9389.72544 3.94238e-18
9390.58691 3.82248e-18
9391.44837 3.67155e-18
9392.30983 3.52053e-18
9393.17129 3.36317e-18
9394.03275 3.20580e-18
9394.89422 3.08596e-18
9395.75568 2.96623e-18
9396.61714 2.91366e-18
9397.47860 2.86129e-18
9398.34006 2.85394e-18
9399.21154 2.84672e-18
9400.07300 2.85687e-18
9400.93447 2.86708e-18
9401.79593 2.86811e-18
9402.65739 2.86911e-18
9403.51885 2.83770e-18
9404.38031 2.80620e-18
9405.24178 2.76855e-18
9406.10324 2.73088e-18
9406.96470 2.72377e-18
9407.82616 2.71675e-18
9408.69764 2.74058e-18
9409.55910 2.76450e-18
9410.42057 2.80648e-18
9411.28203 2.84851e-18
9412.14349 2.88879e-18
9413.00495 2.92905e-18
9413.86641 2.94405e-18
9414.72788 2.95896e-18
9415.58934 2.93298e-18
9416.45080 2.90688e-18
9417.31226 2.83507e-18
9418.17372 2.76313e-18
9419.04520 2.65051e-18
9419.90666 2.53777e-18
9420.76813 2.39187e-18
9421.62959 2.24587e-18
9422.49105 2.11890e-18
9423.35251 1.99198e-18
9424.21397 2.00857e-18
9425.07544 2.02557e-18
9425.93690 2.22573e-18
9426.79836 2.42640e-18
9427.65982 2.67947e-18
9428.53130 2.93268e-18
9429.39276 3.11269e-18
9430.25423 3.29248e-18
9431.11569 3.28282e-18
9431.97715 3.27261e-18
9432.83861 3.01421e-18
9433.70007 2.75509e-18
9434.56153 2.45284e-18
9435.42300 2.15047e-18
9436.28446 2.01869e-18
9437.14592 1.88742e-18
9438.01740 1.95988e-18
9438.87886 2.03293e-18
9439.74032 2.29575e-18
9440.60179 2.55911e-18
9441.46325 2.87881e-18
9442.32471 3.19866e-18
9443.18617 3.40344e-18
9444.04763 3.60788e-18
9444.90910 3.64860e-18
9445.77056 3.68883e-18
9446.63202 3.57621e-18
9447.49348 3.46314e-18
9448.36496 3.25797e-18
9449.22642 3.05255e-18
9450.08788 2.85267e-18
9450.94935 2.65280e-18
9451.81081 2.52193e-18
9452.67227 2.39126e-18
9453.53373 2.35423e-18
9454.39520 2.31749e-18
9455.25666 2.38052e-18
9456.11812 2.44384e-18
9456.98960 2.59164e-18
9457.85106 2.73968e-18
9458.71252 2.92799e-18
9459.57398 3.11641e-18
9460.43545 3.25593e-18
9461.29691 3.39531e-18
9462.15837 3.43224e-18
9463.01983 3.46889e-18
9463.88129 3.44527e-18
9464.74276 3.42148e-18
9465.60422 3.38126e-18
9466.47570 3.34100e-18
9467.33716 3.31117e-18
9468.19862 3.28137e-18
9469.06008 3.28363e-18
9469.92155 3.28598e-18
9470.78301 3.28706e-18
9471.64447 3.28813e-18
9472.50593 3.25261e-18
9473.36739 3.21699e-18
9474.22885 3.16704e-18
9475.09032 3.11706e-18
9475.96180 3.08286e-18
9476.82326 3.04870e-18
9477.68472 3.09279e-18
9478.54618 3.13711e-18
9479.40764 3.33001e-18
9480.26911 3.52334e-18
9481.13057 3.78847e-18
9481.99203 4.05381e-18
9482.85349 4.24303e-18
9483.71495 4.43201e-18
9484.57642 4.46724e-18
9485.43788 4.50200e-18
9486.30936 4.35589e-18
9487.17082 4.20925e-18
9488.03228 3.94130e-18
9488.89374 3.67300e-18
9489.75520 3.43991e-18
9490.61667 3.20692e-18
9491.47813 3.10888e-18
9492.33959 3.01125e-18
9493.20105 3.04643e-18
9494.06252 3.08200e-18
9494.92398 3.24990e-18
9495.79546 3.41819e-18
9496.65692 3.74020e-18
9497.51838 4.06265e-18
9498.37984 4.50483e-18
9499.24130 4.94734e-18
9500.10277 5.33665e-18
9500.96423 5.72580e-18
9501.82569 5.91259e-18
9502.68715 6.09878e-18
9503.54861 6.05938e-18
9504.41008 6.01933e-18
9505.28155 5.76903e-18
9506.14302 5.51811e-18
9507.00448 5.18692e-18
9507.86594 4.85550e-18
9508.72740 4.59806e-18
9509.58887 4.34085e-18
9510.45033 4.17232e-18
9511.31179 4.00405e-18
9512.17325 3.89387e-18
9513.03471 3.78386e-18
9513.89617 3.76211e-18
9514.75764 3.74062e-18
9515.62912 3.85038e-18
9516.49058 3.96052e-18
9517.35204 4.18921e-18
9518.21350 4.41825e-18
9519.07496 4.72366e-18
9519.93643 5.02929e-18
9520.79789 5.33706e-18
9521.65935 5.64485e-18
9522.52081 5.85259e-18
9523.38227 6.06004e-18
9524.24374 6.13326e-18
9525.11522 6.20609e-18
9525.97668 6.19859e-18
9526.83814 6.19087e-18
9527.69960 6.15227e-18
9528.56106 6.11358e-18
9529.42252 6.08308e-18
9530.28399 6.05261e-18
9531.14545 6.05219e-18
9532.00691 6.05186e-18
9532.86837 6.04670e-18
9533.72984 6.04153e-18
9534.60131 6.00224e-18
9535.46278 5.96284e-18
9536.32424 5.88051e-18
9537.18570 5.79806e-18
9538.04716 5.67742e-18
9538.90862 5.55667e-18
9539.77009 5.50782e-18
9540.63155 5.45918e-18
9541.49301 5.58602e-18
9542.35447 5.71338e-18
9543.21593 5.94148e-18
9544.08741 6.16987e-18
9544.94888 6.38842e-18
9545.81034 6.60692e-18
9546.67180 6.70780e-18
9547.53326 6.80831e-18
9548.39472 6.68063e-18
9549.25619 6.55233e-18
9550.11765 6.32471e-18
9550.97911 6.09681e-18
9551.84057 6.02814e-18
9552.70203 5.95994e-18
9553.57351 6.06782e-18
9554.43497 6.17621e-18
9555.29644 6.30759e-18
9556.15790 6.43902e-18
9557.01936 6.49080e-18
9557.88082 6.54233e-18
9558.74228 6.44583e-18
9559.60375 6.34894e-18
9560.46521 6.14675e-18
9561.32667 5.94429e-18
9562.18813 5.87017e-18
9563.05961 5.79643e-18
9563.92107 5.97094e-18
9564.78254 6.14619e-18
9565.64400 6.44520e-18
9566.50546 6.74459e-18
9567.36692 7.03455e-18
9568.22838 7.32445e-18
9569.08985 7.44594e-18
9569.95131 7.56700e-18
9570.81277 7.41034e-18
9571.67423 7.25287e-18
9572.53569 6.95610e-18
9573.40717 6.65896e-18
9574.26863 6.38611e-18
9575.13010 6.11339e-18
9575.99156 5.97415e-18
9576.85302 5.83531e-18
9577.71448 5.91626e-18
9578.57594 5.99786e-18
9579.43741 6.16290e-18
9580.29887 6.32814e-18
9581.16033 6.37843e-18
9582.02179 6.42840e-18
9582.89327 6.33764e-18
9583.75473 6.24650e-18
9584.61620 6.05371e-18
9585.47766 5.86060e-18
9586.33912 5.70480e-18
9587.20058 5.54911e-18
9588.06204 5.64199e-18
9588.92351 5.73561e-18
9589.78497 6.05069e-18
9590.64643 6.36643e-18
9591.51791 6.66083e-18
9592.37937 6.95522e-18
9593.24083 7.09802e-18
9594.10229 7.24044e-18
9594.96376 7.24418e-18
9595.82522 7.24756e-18
9596.68668 7.13862e-18
9597.54814 7.02937e-18
9598.40960 6.86915e-18
9599.27107 6.70886e-18
9600.13253 6.56520e-18
9600.99399 6.42153e-18
9601.86547 6.34801e-18
9602.72693 6.27467e-18
9603.58839 6.30628e-18
9604.44986 6.33826e-18
9605.31132 6.46919e-18
9606.17278 6.60043e-18
9607.03424 6.80119e-18
9607.89570 7.00207e-18
9608.75717 7.14499e-18
9609.61863 7.28772e-18
9610.48009 7.24974e-18
9611.35157 7.21120e-18
9612.21303 7.04449e-18
9613.07449 6.87746e-18
9613.93595 6.68044e-18
9614.79742 6.48331e-18
9615.65888 6.32440e-18
9616.52034 6.16557e-18
9617.38180 6.10179e-18
9618.24326 6.03831e-18
9619.10473 6.08434e-18
9619.96619 6.13069e-18
9620.82765 6.27068e-18
9621.69913 6.41097e-18
9622.56059 6.59443e-18
9623.42205 6.77801e-18
9624.28352 6.93467e-18
9625.14498 7.09127e-18
9626.00644 7.15417e-18
9626.86790 7.21676e-18
9627.72936 7.12313e-18
9628.59083 7.02906e-18
9629.45229 6.79731e-18
9630.31375 6.56520e-18
9631.17521 6.33252e-18
9632.04669 6.09980e-18
9632.90815 5.97261e-18
9633.76961 5.84573e-18
9634.63108 5.86547e-18
9635.49254 5.88565e-18
9636.35400 6.04795e-18
9637.21546 6.21066e-18
9638.07692 6.36156e-18
9638.93839 6.51241e-18
9639.79985 6.52466e-18
9640.67133 6.53646e-18
9641.53279 6.48949e-18
9642.39425 6.44233e-18
9643.25571 6.42896e-18
9644.11718 6.41572e-18
9644.97864 6.45838e-18
9645.84010 6.50130e-18
9646.70156 6.60911e-18
9647.56302 6.71711e-18
9648.42448 6.81805e-18
9649.28595 6.91893e-18
9650.15743 6.91918e-18
9651.01889 6.91906e-18
9651.88035 6.81824e-18
9652.74181 6.71711e-18
9653.60327 6.55733e-18
9654.46474 6.39729e-18
9655.32620 6.23630e-18
9656.18766 6.07528e-18
9657.04912 5.97977e-18
9657.91058 5.88447e-18
9658.77205 5.89172e-18
9659.64352 5.89929e-18
9660.50499 6.01843e-18
9661.36645 6.13791e-18
9662.22791 6.33120e-18
9663.08937 6.52472e-18
9663.95083 6.69369e-18
9664.81230 6.86259e-18
9665.67376 6.95023e-18
9666.53522 7.03768e-18
9667.39668 7.07416e-18
9668.25815 7.11051e-18
9669.11961 7.11313e-18
9669.99109 7.11563e-18
9670.85255 7.05523e-18
9671.71401 6.99458e-18
9672.57547 6.86315e-18
9673.43693 6.73148e-18
9674.29840 6.58275e-18
9675.15986 6.43390e-18
9676.02132 6.32146e-18
9676.88278 6.20916e-18
9677.74424 6.17045e-18
9678.61572 6.13197e-18
9679.47718 6.19178e-18
9680.33865 6.25187e-18
9681.20011 6.36094e-18
9682.06157 6.47006e-18
9682.92303 6.55970e-18
9683.78449 6.64927e-18
9684.64596 6.69918e-18
9685.50742 6.74890e-18
9686.36888 6.75628e-18
9687.23034 6.76352e-18
9688.10182 6.73547e-18
9688.96328 6.70737e-18
9689.82475 6.66127e-18
9690.68621 6.61511e-18
9691.54767 6.55408e-18
9692.40913 6.49299e-18
9693.27059 6.40785e-18
9694.13206 6.32258e-18
9694.99352 6.22587e-18
9695.85498 6.12912e-18
9696.71644 6.05520e-18
9697.57790 5.98135e-18
9698.44938 5.94729e-18
9699.31084 5.91336e-18
9700.17231 5.91269e-18
9701.03377 5.91213e-18
9701.89523 5.93080e-18
9702.75669 5.94952e-18
9703.61816 5.95627e-18
9704.47962 5.96299e-18
9705.34108 5.93765e-18
9706.20254 5.91221e-18
9707.06400 5.87424e-18
9707.93548 5.83623e-18
9708.79694 5.80580e-18
9709.65841 5.77541e-18
9710.51987 5.76353e-18
9711.38133 5.75172e-18
9712.24279 5.76557e-18
9713.10425 5.77950e-18
9713.96572 5.79993e-18
9714.82718 5.82036e-18
9715.68864 5.82430e-18
9716.55010 5.82819e-18
9717.41156 5.80903e-18
9718.28304 5.78981e-18
9719.14451 5.74491e-18
9720.00597 5.69993e-18
9720.86743 5.65331e-18
9721.72889 5.60668e-18
9722.59035 5.59527e-18
9723.45182 5.58396e-18
9724.31328 5.59154e-18
9725.17474 5.59919e-18
9726.03620 5.57757e-18
9726.89766 5.55586e-18
9727.76914 5.48797e-18
9728.63060 5.41994e-18
9729.49207 5.31473e-18
9730.35353 5.20942e-18
9731.21499 5.08935e-18
9732.07645 4.96924e-18
9732.93791 4.87558e-18
9733.79938 4.78201e-18
9734.66084 4.74048e-18
9735.52230 4.69911e-18
9736.38376 4.70471e-18
9737.25524 4.71045e-18
9738.11670 4.75161e-18
9738.97817 4.79288e-18
9739.83963 4.84681e-18
9740.70109 4.90078e-18
9741.56255 4.94497e-18
9742.42401 4.98913e-18
9743.28548 5.01164e-18
9744.14694 5.03408e-18
9745.00840 5.02783e-18
9745.86986 5.02149e-18
9746.74134 4.99608e-18
9747.60280 4.97062e-18
9748.46426 4.93923e-18
9749.32573 4.90782e-18
9750.18719 4.87357e-18
9751.04865 4.83930e-18
9751.91011 4.80385e-18
9752.77157 4.76839e-18
9753.63304 4.73056e-18
9754.49450 4.69273e-18
9755.35596 4.65008e-18
9756.22744 4.60741e-18
9757.08890 4.56881e-18
9757.95036 4.53022e-18
9758.81183 4.50879e-18
9759.67329 4.48741e-18
9760.53475 4.49328e-18
9761.39621 4.49924e-18
9762.25767 4.54113e-18
9763.11913 4.58313e-18
9763.98060 4.64785e-18
9764.84206 4.71262e-18
9765.71354 4.76302e-18
9766.57500 4.81337e-18
9767.43646 4.83123e-18
9768.29792 4.84900e-18
9769.15939 4.84628e-18
9770.02085 4.84348e-18
9770.88231 4.83034e-18
9771.74377 4.81717e-18
9772.60523 4.79869e-18
9773.46670 4.78020e-18
9774.32816 4.76284e-18
9775.19964 4.74548e-18
9776.06110 4.73433e-18
9776.92256 4.72320e-18
9777.78402 4.72167e-18
9778.64548 4.72017e-18
9779.50695 4.73260e-18
9780.36841 4.74508e-18
9781.22987 4.77267e-18
9782.09133 4.80031e-18
9782.95280 4.81918e-18
9783.81426 4.83802e-18
9784.68574 4.82220e-18
9785.54720 4.80627e-18
9786.40866 4.76835e-18
9787.27012 4.73037e-18
9788.13158 4.69399e-18
9788.99305 4.65763e-18
9789.85451 4.63114e-18
9790.71597 4.60467e-18
9791.57743 4.59153e-18
9792.43889 4.57842e-18
9793.30036 4.56975e-18
9794.16182 4.56109e-18
9795.03330 4.53825e-18
9795.89476 4.51536e-18
9796.75622 4.48378e-18
9797.61768 4.45219e-18
9798.47915 4.43913e-18
9799.34061 4.42612e-18
9800.20207 4.44068e-18
9801.06353 4.45532e-18
9801.92499 4.48458e-18
9802.78645 4.51388e-18
9803.64792 4.54480e-18
9804.51940 4.57573e-18
9805.38086 4.59303e-18
9806.24232 4.61029e-18
9807.10378 4.60656e-18
9807.96524 4.60275e-18
9808.82671 4.59264e-18
9809.68817 4.58251e-18
9810.54963 4.58000e-18
9811.41109 4.57750e-18
9812.27255 4.59141e-18
9813.13402 4.60538e-18
9813.99548 4.63981e-18
9814.86696 4.67431e-18
9815.72842 4.70476e-18
9816.58988 4.73520e-18
9817.45134 4.73564e-18
9818.31280 4.73599e-18
9819.17427 4.70989e-18
9820.03573 4.68371e-18
9820.89719 4.64202e-18
9821.75865 4.60027e-18
9822.62012 4.55905e-18
9823.48158 4.51784e-18
9824.35306 4.49582e-18
9825.21452 4.47386e-18
9826.07598 4.46832e-18
9826.93744 4.46283e-18
9827.79890 4.45860e-18
9828.66037 4.45437e-18
9829.52183 4.44772e-18
9830.38329 4.44105e-18
9831.24475 4.43645e-18
9832.10621 4.43186e-18
9832.97769 4.42829e-18
9833.83915 4.42472e-18
9834.70062 4.41628e-18
9835.56208 4.40783e-18
9836.42354 4.39181e-18
9837.28500 4.37577e-18
9838.14647 4.35376e-18
9839.00793 4.33174e-18
9839.86939 4.30553e-18
9840.73085 4.27932e-18
9841.59231 4.24985e-18
9842.45377 4.22036e-18
9843.32525 4.19099e-18
9844.18672 4.16160e-18
9845.04818 4.14273e-18
9845.90964 4.12389e-18
9846.77110 4.12372e-18
9847.63256 4.12360e-18
9848.49403 4.13960e-18
9849.35549 4.15564e-18
9850.21695 4.18314e-18
9851.07841 4.21068e-18
9851.93987 4.24524e-18
9852.81135 4.27982e-18
9853.67282 4.31617e-18
9854.53428 4.35253e-18
9855.39574 4.38736e-18
9856.25720 4.42217e-18
9857.11866 4.45302e-18
9857.98013 4.48386e-18
9858.84159 4.50414e-18
9859.70305 4.52438e-18
9860.56451 4.52651e-18
9861.42597 4.52860e-18
9862.29745 4.51158e-18
9863.15891 4.49450e-18
9864.02038 4.46156e-18
9864.88184 4.42858e-18
9865.74330 4.38573e-18
9866.60476 4.34285e-18
9867.46622 4.29869e-18
9868.32769 4.25454e-18
9869.18915 4.21400e-18
9870.05061 4.17347e-18
9870.92209 4.13598e-18
9871.78355 4.09850e-18
9872.64501 4.06470e-18
9873.50648 4.03092e-18
9874.36794 4.00371e-18
9875.22940 3.97652e-18
9876.09086 3.95818e-18
9876.95232 3.93988e-18
9877.81379 3.93253e-18
9878.67525 3.92523e-18
9879.53671 3.92983e-18
9880.39817 3.93447e-18
9881.26965 3.94956e-18
9882.13111 3.96468e-18
9882.99257 3.98755e-18
9883.85404 4.01044e-18
9884.71550 4.03614e-18
9885.57696 4.06184e-18
9886.43842 4.08502e-18
9887.29988 4.10818e-18
9888.16135 4.12382e-18
9889.02281 4.13943e-18
9889.88427 4.14334e-18
9890.74573 4.14720e-18
9891.61721 4.13926e-18
9892.47867 4.13129e-18
9893.34014 4.11363e-18
9894.20160 4.09594e-18
9895.06306 4.07084e-18
9895.92452 4.04570e-18
9896.78598 4.01554e-18
9897.64745 3.98536e-18
9898.50891 3.95406e-18
9899.37037 3.92275e-18
9900.23183 3.89550e-18
9901.09329 3.86826e-18
9901.96477 3.84591e-18
9902.82623 3.82357e-18
9903.68770 3.80172e-18
9904.54916 3.77988e-18
9905.41062 3.75954e-18
9906.27208 3.73921e-18
9907.13354 3.72997e-18
9907.99501 3.72077e-18
9908.85647 3.72719e-18
9909.71793 3.73366e-18
9910.57939 3.75137e-18
9911.45087 3.76912e-18
9912.31233 3.79100e-18
9913.17380 3.81290e-18
9914.03526 3.82390e-18
9914.89672 3.83486e-18
9915.75818 3.82303e-18
9916.61964 3.81113e-18
9917.48111 3.78064e-18
9918.34257 3.75009e-18
9919.20403 3.70826e-18
9920.07551 3.66639e-18
9920.93697 3.62150e-18
9921.79843 3.57661e-18
9922.65989 3.53711e-18
9923.52136 3.49764e-18
9924.38282 3.46724e-18
9925.24428 3.43688e-18
9926.10574 3.41703e-18
9926.96720 3.39721e-18
9927.82867 3.38242e-18
9928.69013 3.36763e-18
9929.56161 3.34915e-18
9930.42307 3.33065e-18
9931.28453 3.30564e-18
9932.14599 3.28060e-18
9933.00746 3.25030e-18
9933.86892 3.21998e-18
9934.73038 3.18696e-18
9935.59184 3.15393e-18
9936.45330 3.12191e-18
9937.31477 3.08990e-18
9938.17623 3.06379e-18
9939.03769 3.03769e-18
9939.90917 3.02366e-18
9940.77063 3.00966e-18
9941.63209 3.00939e-18
9942.49355 3.00917e-18
9943.35502 3.01628e-18
9944.21648 3.02341e-18
9945.07794 3.03240e-18
9945.93940 3.04139e-18
9946.80086 3.05086e-18
9947.66233 3.06032e-18
9948.52379 3.06866e-18
9949.39527 3.07700e-18
9950.25673 3.08116e-18
9951.11819 3.08531e-18
9951.97965 3.08332e-18
9952.84112 3.08131e-18
9953.70258 3.07713e-18
9954.56404 3.07294e-18
9955.42550 3.07091e-18
9956.28696 3.06888e-18
9957.14843 3.06610e-18
9958.00989 3.06332e-18
9958.88137 3.05577e-18
9959.74283 3.04820e-18
9960.60429 3.03384e-18
9961.46575 3.01945e-18
9962.32721 2.99695e-18
9963.18868 2.97442e-18
9964.05014 2.95051e-18
9964.91160 2.92659e-18
9965.77306 2.91253e-18
9966.63452 2.89850e-18
9967.49599 2.89693e-18
9968.36747 2.89539e-18
9969.22893 2.90197e-18
9970.09039 2.90857e-18
9970.95185 2.92262e-18
9971.81331 2.93669e-18
9972.67477 2.96144e-18
9973.53624 2.98622e-18
9974.39770 3.02032e-18
9975.25916 3.05445e-18
9976.12062 3.09061e-18
9976.98208 3.12677e-18
9977.85356 3.15918e-18
9978.71503 3.19158e-18
9979.57649 3.21745e-18
9980.43795 3.24330e-18
9981.29941 3.26167e-18
9982.16087 3.28001e-18
9983.02234 3.29477e-18
9983.88380 3.30953e-18
9984.74526 3.32462e-18
9985.60672 3.33973e-18
9986.46818 3.35712e-18
9987.32965 3.37452e-18
9988.20112 3.39523e-18
9989.06259 3.41594e-18
9989.92405 3.43266e-18
9990.78551 3.44937e-18
9991.64697 3.45384e-18
9992.50843 3.45827e-18
9993.36990 3.45669e-18
9994.23136 3.45509e-18
9995.09282 3.45807e-18
9995.95428 3.46107e-18
9996.81574 3.46680e-18
9997.67721 3.47255e-18
9998.54869 3.47428e-18
9999.41015 3.47599e-18
