# wavelength flux
3799.99774 1.08656e-17
3801.51590 9.72303e-18
3803.04425 8.58056e-18
3804.56241 1.03513e-17
3806.08057 1.21218e-17
3807.59873 1.00312e-17
3809.12708 7.94081e-18
3810.64524 8.48833e-18
3812.16340 9.03579e-18
3813.68157 9.47067e-18
3815.20992 9.90549e-18
3816.72808 7.38903e-18
3818.24624 4.87288e-18
3819.76440 7.04689e-18
3821.29275 9.22065e-18
3822.81091 1.18242e-17
3824.32907 1.44274e-17
3825.84723 1.29406e-17
3827.37558 1.14541e-17
3828.89374 1.06781e-17
3830.41190 9.90228e-18
3831.93006 1.00672e-17
3833.45841 1.02321e-17
3834.97658 1.03810e-17
3836.49474 1.05300e-17
3838.01290 8.95061e-18
3839.54125 7.37144e-18
3841.05941 8.25075e-18
3842.57757 9.12995e-18
3844.09573 8.60725e-18
3845.62408 8.08461e-18
3847.14224 7.28372e-18
3848.66040 6.48294e-18
3850.17856 7.71689e-18
3851.70691 8.95070e-18
3853.22507 8.46809e-18
3854.74324 7.98552e-18
3856.26140 7.54564e-18
3857.78975 7.10582e-18
3859.30791 8.30415e-18
3860.82607 9.50235e-18
3862.34423 9.24291e-18
3863.87258 8.98351e-18
3865.39074 8.11679e-18
3866.90890 7.25017e-18
3868.42706 8.36869e-18
3869.95541 9.48710e-18
3871.47357 9.13959e-18
3872.99173 8.79213e-18
3874.50990 8.57120e-18
3876.03825 8.35031e-18
3877.55641 9.64894e-18
3879.07457 1.09474e-17
3880.59273 1.14233e-17
3882.12108 1.18990e-17
3883.63924 1.07372e-17
3885.15740 9.57545e-18
3886.67556 8.58422e-18
3888.20391 7.59312e-18
3889.72207 8.50437e-18
3891.24023 9.41554e-18
3892.75839 9.14903e-18
3894.28674 8.88255e-18
3895.80491 7.50541e-18
3897.32307 6.12841e-18
3898.84123 8.41736e-18
3900.36958 1.07061e-17
3901.88774 1.08338e-17
3903.40590 1.09615e-17
3904.92406 1.07933e-17
3906.45241 1.06251e-17
3907.97057 1.08769e-17
3909.48873 1.11287e-17
3911.00689 1.12926e-17
3912.53524 1.14564e-17
3914.05340 1.20645e-17
3915.57157 1.26725e-17
3917.08973 1.31941e-17
3918.61808 1.37157e-17
3920.13624 1.41718e-17
3921.65440 1.46278e-17
3923.17256 1.33745e-17
3924.70091 1.21214e-17
3926.21907 1.24891e-17
3927.73723 1.28569e-17
3929.25539 1.33109e-17
3930.78374 1.37648e-17
3932.30190 1.45092e-17
3933.82006 1.52535e-17
3935.33823 1.55013e-17
3936.86658 1.57491e-17
3938.38474 1.41846e-17
3939.90290 1.26203e-17
3941.42106 1.33873e-17
3942.94941 1.41541e-17
3944.46757 1.45003e-17
3945.98573 1.48465e-17
3947.50389 1.66410e-17
3949.03224 1.84353e-17
3950.55040 2.02013e-17
3952.06856 2.19671e-17
3953.58672 2.08185e-17
3955.11507 1.96699e-17
3956.63324 2.05589e-17
3958.15140 2.14478e-17
3959.66956 2.06832e-17
3961.19791 1.99186e-17
3962.71607 1.94727e-17
3964.23423 1.90267e-17
3965.75239 2.15588e-17
3967.28074 2.40907e-17
3968.79890 2.43048e-17
3970.31706 2.45189e-17
3971.83522 2.63741e-17
3973.36357 2.82291e-17
3974.88173 2.95178e-17
3976.39990 3.08064e-17
3977.91806 3.24513e-17
3979.44641 3.40961e-17
3980.96457 3.34772e-17
3982.48273 3.28584e-17
3984.00089 3.25922e-17
3985.52924 3.23260e-17
3987.04740 3.21121e-17
3988.56556 3.18981e-17
3990.08372 3.37308e-17
3991.61207 3.55633e-17
3993.13023 3.56108e-17
3994.64839 3.56582e-17
3996.16656 3.65699e-17
3997.69491 3.74815e-17
3999.21307 3.74430e-17
4000.73123 3.74045e-17
4002.24939 3.46447e-17
4003.77774 3.18852e-17
4005.29590 3.28167e-17
4006.81406 3.37482e-17
4008.33222 3.65634e-17
4009.86057 3.93782e-17
4011.37873 4.14474e-17
4012.89689 4.35163e-17
4014.41505 4.05268e-17
4015.94340 3.75376e-17
4017.46157 3.76235e-17
4018.97973 3.77095e-17
4020.49789 3.85023e-17
4022.02624 3.92950e-17
4023.54440 4.03995e-17
4025.06256 4.15039e-17
4026.58072 3.98200e-17
4028.10907 3.81362e-17
4029.62723 3.89048e-17
4031.14539 3.96733e-17
4032.66355 4.07223e-17
4034.19190 4.17711e-17
4035.71006 3.93307e-17
4037.22823 3.68906e-17
4038.74639 3.96931e-17
4040.27474 4.24953e-17
4041.79290 4.02267e-17
4043.31106 3.79582e-17
4044.82922 3.72164e-17
4046.35757 3.64748e-17
4047.87573 3.65623e-17
4049.39389 3.66498e-17
4050.91205 3.85943e-17
4052.44040 4.05387e-17
4053.95856 3.84708e-17
4055.47672 3.64031e-17
4056.99489 3.73919e-17
4058.52324 3.83807e-17
4060.04140 4.05297e-17
4061.55956 4.26784e-17
4063.07772 3.99704e-17
4064.60607 3.72625e-17
4066.12423 3.63133e-17
4067.64239 3.53642e-17
4069.16055 3.62736e-17
4070.68890 3.71828e-17
4072.20706 3.61019e-17
4073.72522 3.50211e-17
4075.24338 3.53685e-17
4076.77173 3.57160e-17
4078.28990 3.57671e-17
4079.80806 3.58182e-17
4081.32622 3.52971e-17
4082.85457 3.47760e-17
4084.37273 3.45190e-17
4085.89089 3.42620e-17
4087.40905 3.48396e-17
4088.93740 3.54171e-17
4090.45556 3.35811e-17
4091.97372 3.17453e-17
4093.49188 3.37836e-17
4095.02023 3.58218e-17
4096.53839 3.50285e-17
4098.05656 3.42352e-17
4099.57472 3.31761e-17
4101.10307 3.21171e-17
4102.62123 3.01690e-17
4104.13939 2.82211e-17
4105.65755 2.91010e-17
4107.18590 2.99809e-17
4108.70406 3.17456e-17
4110.22222 3.35102e-17
4111.74038 3.17698e-17
4113.26873 3.00295e-17
4114.78689 2.92914e-17
4116.30505 2.85535e-17
4117.82322 2.84368e-17
4119.35157 2.83201e-17
4120.86973 2.61272e-17
4122.38789 2.39345e-17
4123.90605 2.55912e-17
4125.43440 2.72479e-17
4126.95256 2.75044e-17
4128.47072 2.77608e-17
4129.98888 2.49183e-17
4131.51723 2.20760e-17
4133.03539 2.34729e-17
4134.55355 2.48697e-17
4136.07171 2.33150e-17
4137.60006 2.17604e-17
4139.11823 2.12166e-17
4140.63639 2.06728e-17
4142.15455 2.16998e-17
4143.68290 2.27268e-17
4145.20106 2.19731e-17
4146.71922 2.12196e-17
4148.23738 2.14996e-17
4149.76573 2.17795e-17
4151.28389 2.03733e-17
4152.80205 1.89671e-17
4154.32021 2.05554e-17
4155.84856 2.21434e-17
4157.36672 2.26420e-17
4158.88489 2.31406e-17
4160.40305 2.26818e-17
4161.93140 2.22230e-17
4163.44956 2.04974e-17
4164.96772 1.87719e-17
4166.48588 1.99188e-17
4168.01423 2.10656e-17
4169.53239 2.06720e-17
4171.05055 2.02785e-17
4172.56871 1.94875e-17
4174.09706 1.86965e-17
4175.61522 2.06512e-17
4177.13338 2.26058e-17
4178.65155 2.16307e-17
4180.17990 2.06558e-17
4181.69806 1.83896e-17
4183.21622 1.61237e-17
4184.73438 1.69818e-17
4186.26273 1.78400e-17
4187.78089 1.85700e-17
4189.29905 1.93000e-17
4190.81721 1.95188e-17
4192.34556 1.97377e-17
4193.86372 1.86471e-17
4195.38188 1.75567e-17
4196.90004 1.85230e-17
4198.42839 1.94893e-17
4199.94656 1.93422e-17
4201.46472 1.91950e-17
4202.98288 1.82921e-17
4204.51123 1.73893e-17
4206.02939 1.74453e-17
4207.54755 1.75013e-17
4209.06571 1.72204e-17
4210.59406 1.69396e-17
4212.11222 1.71249e-17
4213.63038 1.73102e-17
4215.14854 1.63304e-17
4216.67689 1.53507e-17
4218.19505 1.60299e-17
4219.71322 1.67090e-17
4221.23138 1.79968e-17
4222.75973 1.92843e-17
4224.27789 1.82048e-17
4225.79605 1.71253e-17
4227.31421 1.80518e-17
4228.84256 1.89783e-17
4230.36072 1.87543e-17
4231.87888 1.85303e-17
4233.39704 1.75146e-17
4234.92539 1.64991e-17
4236.44355 1.82763e-17
4237.96172 2.00533e-17
4239.47988 1.96382e-17
4241.00823 1.92232e-17
4242.52639 1.88853e-17
4244.04455 1.85474e-17
4245.56271 1.99994e-17
4247.09106 2.14513e-17
4248.60922 2.14911e-17
4250.12738 2.15308e-17
4251.64554 2.20407e-17
4253.17389 2.25506e-17
4254.69205 2.12531e-17
4256.21021 1.99557e-17
4257.72837 2.07016e-17
4259.25672 2.14475e-17
4260.77489 2.05270e-17
4262.29305 1.96065e-17
4263.81121 2.02074e-17
4265.33956 2.08082e-17
4266.85772 1.96897e-17
4268.37588 1.85711e-17
4269.89404 1.98365e-17
4271.42239 2.11018e-17
4272.94055 2.24387e-17
4274.45871 2.37754e-17
4275.97687 2.19397e-17
4277.50522 2.01042e-17
4279.02338 1.97719e-17
4280.54155 1.94396e-17
4282.05971 1.98470e-17
4283.58806 2.02545e-17
4285.10622 2.00475e-17
4286.62438 1.98404e-17
4288.14254 1.92799e-17
4289.67089 1.87194e-17
4291.18905 2.01342e-17
4292.70721 2.15488e-17
4294.22537 2.12108e-17
4295.75372 2.08727e-17
4297.27188 2.10671e-17
4298.79004 2.12614e-17
4300.30821 2.22334e-17
4301.83656 2.32052e-17
4303.35472 2.19630e-17
4304.87288 2.07209e-17
4306.39104 1.99708e-17
4307.91939 1.92209e-17
4309.43755 2.06008e-17
4310.95571 2.19806e-17
4312.47387 2.15523e-17
4314.00222 2.11239e-17
4315.52038 2.13572e-17
4317.03854 2.15905e-17
4318.55670 2.19429e-17
4320.08505 2.22953e-17
4321.60322 2.11173e-17
4323.12138 1.99395e-17
4324.63954 2.04659e-17
4326.16789 2.09923e-17
4327.68605 2.09978e-17
4329.20421 2.10033e-17
4330.72237 2.11459e-17
4332.25072 2.12884e-17
4333.76888 2.13720e-17
4335.28704 2.14556e-17
4336.80520 1.99348e-17
4338.33355 1.84140e-17
4339.85171 1.92691e-17
4341.36988 2.01242e-17
4342.88804 2.07899e-17
4344.41639 2.14556e-17
4345.93455 2.04475e-17
4347.45271 1.94394e-17
4348.97087 2.07790e-17
4350.49922 2.21184e-17
4352.01738 2.18099e-17
4353.53554 2.15014e-17
4355.05370 2.11377e-17
4356.58205 2.07740e-17
4358.10021 2.15669e-17
4359.61838 2.23598e-17
4361.13654 2.33358e-17
4362.66489 2.43118e-17
4364.18305 2.39936e-17
4365.70121 2.36754e-17
4367.21937 2.39175e-17
4368.74772 2.41595e-17
4370.26588 2.27313e-17
4371.78404 2.13032e-17
4373.30220 2.02036e-17
4374.83055 1.91042e-17
4376.34871 2.16505e-17
4377.86687 2.41965e-17
4379.38503 2.40854e-17
4380.91338 2.39742e-17
4382.43155 2.22283e-17
4383.94971 2.04826e-17
4385.46787 2.12236e-17
4386.99622 2.19647e-17
4388.51438 2.18528e-17
4390.03254 2.17408e-17
4391.55070 2.32821e-17
4393.07905 2.48233e-17
4394.59721 2.44528e-17
4396.11537 2.40824e-17
4397.63353 2.31940e-17
4399.16188 2.23057e-17
4400.68005 2.31568e-17
4402.19821 2.40079e-17
4403.71637 2.29451e-17
4405.24472 2.18825e-17
4406.76288 2.14666e-17
4408.28104 2.10508e-17
4409.79920 2.14158e-17
4411.32755 2.17807e-17
4412.84571 2.04271e-17
4414.36387 1.90737e-17
4415.88203 2.03046e-17
4417.41038 2.15355e-17
4418.92854 2.10017e-17
4420.44670 2.04679e-17
4421.96487 2.18939e-17
4423.49322 2.33197e-17
4425.01138 2.23903e-17
4426.52954 2.14609e-17
4428.04770 2.20277e-17
4429.57605 2.25945e-17
4431.09421 2.07535e-17
4432.61237 1.89126e-17
4434.13053 2.03809e-17
4435.65888 2.18492e-17
4437.17704 2.09541e-17
4438.69520 2.00591e-17
4440.21336 1.88342e-17
4441.74172 1.76094e-17
4443.25988 1.84264e-17
4444.77804 1.92434e-17
4446.29620 1.82195e-17
4447.82455 1.71957e-17
4449.34271 1.61859e-17
4450.86087 1.51762e-17
4452.37903 1.54542e-17
4453.90738 1.57322e-17
4455.42554 1.49173e-17
4456.94370 1.41024e-17
4458.46186 1.42990e-17
4459.99021 1.44957e-17
4461.50837 1.41054e-17
4463.02654 1.37151e-17
4464.54470 1.21238e-17
4466.07305 1.05326e-17
4467.59121 1.19161e-17
4469.10937 1.32994e-17
4470.62753 1.31357e-17
4472.15588 1.29720e-17
4473.67404 1.30386e-17
4475.19220 1.31053e-17
4476.71036 1.23039e-17
4478.23871 1.15026e-17
4479.75687 1.07034e-17
4481.27503 9.90438e-18
4482.79320 1.09062e-17
4484.32155 1.19079e-17
4485.83971 1.16468e-17
4487.35787 1.13857e-17
4488.87603 1.11925e-17
4490.40438 1.09993e-17
4491.92254 1.10616e-17
4493.44070 1.11239e-17
4494.95886 1.04558e-17
4496.48721 9.78770e-18
4498.00537 9.84697e-18
4499.52353 9.90626e-18
4501.04169 8.95803e-18
4502.57004 8.00989e-18
4504.08821 1.09577e-17
4505.60637 1.39053e-17
4507.12453 1.20511e-17
4508.65288 1.01970e-17
4510.17104 1.03231e-17
4511.68920 1.04492e-17
4513.20736 1.13005e-17
4514.73571 1.21518e-17
4516.25387 1.17155e-17
4517.77203 1.12793e-17
4519.29019 1.20592e-17
4520.81854 1.28390e-17
4522.33670 1.26487e-17
4523.85487 1.24583e-17
4525.37303 1.22451e-17
4526.90138 1.20320e-17
4528.41954 1.19642e-17
4529.93770 1.18965e-17
4531.45586 1.27932e-17
4532.98421 1.36899e-17
4534.50237 1.35178e-17
4536.02053 1.33455e-17
4537.53869 1.34015e-17
4539.06704 1.34574e-17
4540.58520 1.33295e-17
4542.10336 1.32016e-17
4543.62153 1.41003e-17
4545.14988 1.49990e-17
4546.66804 1.51194e-17
4548.18620 1.52398e-17
4549.70436 1.54096e-17
4551.23271 1.55793e-17
4552.75087 1.54589e-17
4554.26903 1.53384e-17
4555.78719 1.45995e-17
4557.31554 1.38607e-17
4558.83370 1.46675e-17
4560.35186 1.54742e-17
4561.87002 1.46863e-17
4563.39837 1.38984e-17
4564.91654 1.50186e-17
4566.43470 1.61387e-17
4567.95286 1.62934e-17
4569.48121 1.64480e-17
4570.99937 1.62512e-17
4572.51753 1.60544e-17
4574.03569 1.72470e-17
4575.56404 1.84395e-17
4577.08220 1.92110e-17
4578.60036 1.99823e-17
4580.11852 1.89006e-17
4581.64687 1.78191e-17
4583.16503 1.87098e-17
4584.68320 1.96004e-17
4586.20136 2.00426e-17
4587.72971 2.04846e-17
4589.24787 2.02412e-17
4590.76603 1.99978e-17
4592.28419 2.03589e-17
4593.81254 2.07201e-17
4595.33070 2.11861e-17
4596.84886 2.16520e-17
4598.36702 2.15907e-17
4599.88518 2.15294e-17
4601.41353 2.17471e-17
4602.93170 2.19648e-17
4604.44986 2.30669e-17
4605.97821 2.41690e-17
4607.49637 2.42629e-17
4609.01453 2.43568e-17
4610.53269 2.33507e-17
4612.06104 2.23447e-17
4613.57920 2.36250e-17
4615.09736 2.49052e-17
4616.61552 2.54636e-17
4618.14387 2.60219e-17
4619.66203 2.63186e-17
4621.18019 2.66153e-17
4622.69835 2.70086e-17
4624.22670 2.74020e-17
4625.74487 2.70337e-17
4627.26303 2.66655e-17
4628.78119 2.58981e-17
4630.30954 2.51307e-17
4631.82770 2.55686e-17
4633.34586 2.60065e-17
4634.86402 2.75189e-17
4636.39237 2.90312e-17
4637.91053 2.87673e-17
4639.42869 2.85033e-17
4640.94685 2.85611e-17
4642.47520 2.86190e-17
4643.99337 2.94749e-17
4645.51153 3.03308e-17
4647.02969 3.06020e-17
4648.55804 3.08730e-17
4650.07620 3.14464e-17
4651.59436 3.20197e-17
4653.11252 3.08710e-17
4654.64087 2.97225e-17
4656.15903 2.95797e-17
4657.67719 2.94369e-17
4659.19535 3.01533e-17
4660.72370 3.08696e-17
4662.24186 3.07870e-17
4663.76002 3.07045e-17
4665.27819 3.03391e-17
4666.80654 2.99737e-17
4668.32470 2.95090e-17
4669.84286 2.90444e-17
4671.36102 2.87682e-17
4672.88937 2.84921e-17
4674.40753 2.95171e-17
4675.92569 3.05419e-17
4677.44385 3.01732e-17
4678.96201 2.98045e-17
4680.49036 2.96529e-17
4682.00852 2.95014e-17
4683.52668 2.89973e-17
4685.05503 2.84933e-17
4686.57320 2.91864e-17
4688.09136 2.98796e-17
4689.60952 2.97155e-17
4691.13787 2.95515e-17
4692.65603 2.98771e-17
4694.17419 3.02027e-17
4695.69235 3.01797e-17
4697.21051 3.01566e-17
4698.73886 3.03273e-17
4700.25702 3.04980e-17
4701.77518 3.00218e-17
4703.30353 2.95456e-17
4704.82169 2.84075e-17
4706.33986 2.72695e-17
4707.85802 2.84307e-17
4709.37618 2.95919e-17
4710.90453 2.98228e-17
4712.42269 3.00537e-17
4713.94085 2.80231e-17
4715.46920 2.59928e-17
4716.98736 2.60761e-17
4718.50552 2.61595e-17
4720.02368 2.59192e-17
4721.55203 2.56789e-17
4723.07019 2.52548e-17
4724.58835 2.48307e-17
4726.10652 2.55469e-17
4727.63487 2.62630e-17
4729.15303 2.57375e-17
4730.67119 2.52120e-17
4732.18935 2.48498e-17
4733.71770 2.44878e-17
4735.23586 2.48521e-17
4736.75402 2.52164e-17
4738.27218 2.69975e-17
4739.80053 2.87784e-17
4741.31869 2.73659e-17
4742.83685 2.59535e-17
4744.35502 2.58707e-17
4745.88336 2.57880e-17
4747.40153 2.60489e-17
4748.91969 2.63098e-17
4750.43785 2.59095e-17
4751.95601 2.55093e-17
4753.48436 2.55549e-17
4755.00252 2.56005e-17
4756.52068 2.56620e-17
4758.03884 2.57234e-17
4759.56719 2.56636e-17
4761.08535 2.56038e-17
4762.60351 2.51143e-17
4764.12167 2.46249e-17
4765.65002 2.41857e-17
4767.16819 2.37466e-17
4768.68635 2.37681e-17
4770.21470 2.37898e-17
4771.73286 2.34201e-17
4773.25102 2.30505e-17
4774.76918 2.22873e-17
4776.28734 2.15241e-17
4777.81569 2.11757e-17
4779.33385 2.08274e-17
4780.85201 2.16979e-17
4782.38036 2.25683e-17
4783.89852 2.20567e-17
4785.41668 2.15450e-17
4786.93485 2.20540e-17
4788.45301 2.25630e-17
4789.98136 2.20478e-17
4791.49952 2.15327e-17
4793.01768 2.11125e-17
4794.53584 2.06925e-17
4796.06419 2.10255e-17
4797.58235 2.13585e-17
4799.10051 2.09244e-17
4800.62886 2.04904e-17
4802.14702 1.99936e-17
4803.66518 1.94969e-17
4805.18334 1.91174e-17
4806.70151 1.87378e-17
4808.22986 1.90541e-17
4809.74802 1.93704e-17
4811.26618 1.86893e-17
4812.79453 1.80083e-17
4814.31269 1.76873e-17
4815.83085 1.73663e-17
4817.34901 1.72329e-17
4818.87736 1.70995e-17
4820.39552 1.66010e-17
4821.91368 1.61025e-17
4823.43184 1.60355e-17
4824.95000 1.59685e-17
4826.47835 1.47051e-17
4827.99652 1.34417e-17
4829.51468 1.30403e-17
4831.03284 1.26389e-17
4832.56119 1.32917e-17
4834.07935 1.39444e-17
4835.59751 1.35274e-17
4837.11567 1.31103e-17
4838.64402 1.35103e-17
4840.16218 1.39103e-17
4841.68034 1.39687e-17
4843.19850 1.40271e-17
4844.72685 1.33369e-17
4846.24502 1.26468e-17
4847.76318 1.24057e-17
4849.28134 1.21645e-17
4850.80969 1.27838e-17
4852.32785 1.34029e-17
4853.84601 1.28431e-17
4855.36417 1.22834e-17
4856.89252 1.11500e-17
4858.41068 1.00167e-17
4859.92884 1.02697e-17
4861.44700 1.05226e-17
4862.97535 1.01844e-17
4864.49351 9.84618e-18
4866.01167 1.04082e-17
4867.52984 1.09703e-17
4869.05819 1.05061e-17
4870.57635 1.00419e-17
4872.09451 9.77413e-18
4873.61267 9.50638e-18
4875.14102 1.04926e-17
4876.65918 1.14788e-17
4878.17734 1.06636e-17
4879.70569 9.84848e-18
4881.22385 1.02377e-17
4882.74201 1.06270e-17
4884.26017 9.79995e-18
4885.77833 8.97299e-18
4887.30668 9.35050e-18
4888.82485 9.72802e-18
4890.34301 9.82550e-18
4891.86117 9.92295e-18
4893.38952 1.04551e-17
4894.90768 1.09873e-17
4896.42584 1.04128e-17
4897.94400 9.83833e-18
4899.47235 9.37116e-18
4900.99051 8.90405e-18
4902.50867 8.95407e-18
4904.02683 9.00411e-18
4905.55518 9.23180e-18
4907.07334 9.45946e-18
4908.59151 1.05463e-17
4910.10967 1.16331e-17
4911.63802 1.05334e-17
4913.15618 9.43377e-18
4914.67434 9.27796e-18
4916.19250 9.12220e-18
4917.72085 1.04659e-17
4919.23901 1.18094e-17
4920.75717 1.10566e-17
4922.27533 1.03037e-17
4923.80368 1.01165e-17
4925.32184 9.92935e-18
4926.84000 9.37490e-18
4928.35817 8.82050e-18
4929.88652 9.76918e-18
4931.40468 1.07178e-17
4932.92284 1.14473e-17
4934.44100 1.21767e-17
4935.96935 1.10720e-17
4937.48751 9.96734e-18
4939.00567 1.01599e-17
4940.52383 1.03525e-17
4942.05218 1.10206e-17
4943.57034 1.16886e-17
4945.08850 1.12539e-17
4946.60667 1.08192e-17
4948.13501 1.09112e-17
4949.65318 1.10032e-17
4951.17134 1.16740e-17
4952.68950 1.23446e-17
4954.21785 1.21649e-17
4955.73601 1.19852e-17
4957.25417 1.22922e-17
4958.77233 1.25992e-17
4960.30068 1.19274e-17
4961.81884 1.12557e-17
4963.33700 1.09397e-17
4964.85516 1.06237e-17
4966.38351 1.08465e-17
4967.90167 1.10693e-17
4969.41984 1.18896e-17
4970.93800 1.27098e-17
4972.46635 1.28634e-17
4973.98451 1.30168e-17
4975.50267 1.28406e-17
4977.02083 1.26643e-17
4978.54918 1.23096e-17
4980.06734 1.19549e-17
4981.58550 1.21301e-17
4983.10366 1.23053e-17
4984.63201 1.27048e-17
4986.15017 1.31043e-17
4987.66833 1.29047e-17
4989.18650 1.27051e-17
4990.71485 1.25112e-17
4992.23301 1.23174e-17
4993.75117 1.24057e-17
4995.26933 1.24940e-17
4996.79768 1.35936e-17
4998.31584 1.46931e-17
4999.83400 1.42942e-17
5001.35216 1.38953e-17
5002.88051 1.31762e-17
5004.39867 1.24573e-17
5005.91683 1.26217e-17
5007.43499 1.27861e-17
5008.96335 1.32824e-17
5010.48151 1.37786e-17
5011.99967 1.43140e-17
5013.51783 1.48493e-17
5015.04618 1.53408e-17
5016.56434 1.58323e-17
5018.08250 1.52135e-17
5019.60066 1.45948e-17
5021.12901 1.50065e-17
5022.64717 1.54182e-17
5024.16533 1.54074e-17
5025.68349 1.53966e-17
5027.21184 1.57314e-17
5028.73000 1.60663e-17
5030.24817 1.60815e-17
5031.76633 1.60967e-17
5033.29468 1.60888e-17
5034.81284 1.60809e-17
5036.33100 1.71912e-17
5037.84916 1.83014e-17
5039.37751 1.83313e-17
5040.89567 1.83611e-17
5042.41383 1.85912e-17
5043.93199 1.88213e-17
5045.46034 1.78544e-17
5046.97850 1.68876e-17
5048.49666 1.69674e-17
5050.01483 1.70473e-17
5051.54318 1.70261e-17
5053.06134 1.70048e-17
5054.57950 1.81752e-17
5056.09766 1.93454e-17
5057.62601 1.87534e-17
5059.14417 1.81614e-17
5060.66233 1.71891e-17
5062.18049 1.62168e-17
5063.70884 1.58957e-17
5065.22700 1.55746e-17
5066.74516 1.54514e-17
5068.26332 1.53281e-17
5069.79167 1.60048e-17
5071.30984 1.66814e-17
5072.82800 1.65204e-17
5074.34616 1.63593e-17
5075.87451 1.54026e-17
5077.39267 1.44459e-17
5078.91083 1.44301e-17
5080.42899 1.44142e-17
5081.95734 1.49647e-17
5083.47550 1.55151e-17
5084.99366 1.57863e-17
5086.51182 1.60573e-17
5088.04017 1.55818e-17
5089.55833 1.51063e-17
5091.07650 1.43492e-17
5092.59466 1.35921e-17
5094.12301 1.34118e-17
5095.64117 1.32315e-17
5097.15933 1.28465e-17
5098.67749 1.24616e-17
5100.20584 1.12184e-17
5101.72400 9.97533e-18
5103.24216 1.16444e-17
5104.76032 1.33134e-17
5106.28867 1.32501e-17
5107.80683 1.31868e-17
5109.32499 1.18913e-17
5110.84316 1.05958e-17
5112.37151 1.09090e-17
5113.88967 1.12223e-17
5115.40783 1.10327e-17
5116.92599 1.08431e-17
5118.45434 1.02217e-17
5119.97250 9.60028e-18
5121.49066 1.08409e-17
5123.00882 1.20814e-17
5124.53717 1.25386e-17
5126.05533 1.29957e-17
5127.57349 1.27553e-17
5129.09165 1.25148e-17
5130.62000 1.23560e-17
5132.13817 1.21971e-17
5133.65633 1.11653e-17
5135.17449 1.01336e-17
5136.70284 1.07072e-17
5138.22100 1.12808e-17
5139.73916 1.14270e-17
5141.25732 1.15732e-17
5142.78567 1.13373e-17
5144.30383 1.11013e-17
5145.82199 1.12242e-17
5147.34015 1.13471e-17
5148.86850 1.11583e-17
5150.38666 1.09696e-17
5151.90483 1.15286e-17
5153.42299 1.20876e-17
5154.95134 1.27151e-17
5156.46950 1.33427e-17
5157.98766 1.26099e-17
5159.50582 1.18771e-17
5161.03417 1.19714e-17
5162.55233 1.20657e-17
5164.07049 1.26875e-17
5165.58865 1.33094e-17
5167.11700 1.29193e-17
5168.63516 1.25291e-17
5170.15332 1.26003e-17
5171.67149 1.26715e-17
5173.19984 1.29568e-17
5174.71800 1.32420e-17
5176.23616 1.39549e-17
5177.75432 1.46677e-17
5179.28267 1.36645e-17
5180.80083 1.26612e-17
5182.31899 1.29092e-17
5183.83715 1.31573e-17
5185.36550 1.37537e-17
5186.88366 1.43500e-17
5188.40182 1.46836e-17
5189.91998 1.50172e-17
5191.44833 1.56010e-17
5192.96650 1.61848e-17
5194.48466 1.70514e-17
5196.00282 1.79179e-17
5197.53117 1.65661e-17
5199.04933 1.52144e-17
5200.56749 1.58156e-17
5202.08565 1.64169e-17
5203.61400 1.61201e-17
5205.13216 1.58234e-17
5206.65032 1.52789e-17
5208.16848 1.47345e-17
5209.69683 1.60703e-17
5211.21499 1.74060e-17
5212.73316 1.72253e-17
5214.25132 1.70445e-17
5215.77967 1.67676e-17
5217.29783 1.64907e-17
5218.81599 1.71299e-17
5220.33415 1.77691e-17
5221.86250 1.75794e-17
5223.38066 1.73897e-17
5224.89882 1.74802e-17
5226.41698 1.75708e-17
5227.94533 1.70260e-17
5229.46349 1.64812e-17
5230.98165 1.62052e-17
5232.49982 1.59292e-17
5234.02817 1.59629e-17
5235.54633 1.59967e-17
5237.06449 1.59839e-17
5238.58265 1.59711e-17
5240.11100 1.61327e-17
5241.62916 1.62943e-17
5243.14732 1.58364e-17
5244.66548 1.53785e-17
5246.19383 1.63277e-17
5247.71199 1.72769e-17
5249.23015 1.57725e-17
5250.74831 1.42681e-17
5252.27667 1.55366e-17
5253.79483 1.68052e-17
5255.31299 1.68865e-17
5256.83115 1.69677e-17
5258.35950 1.65620e-17
5259.87766 1.61563e-17
5261.39582 1.62182e-17
5262.91398 1.62802e-17
5264.44233 1.69040e-17
5265.96049 1.75277e-17
5267.47865 1.71134e-17
5268.99681 1.66991e-17
5270.52516 1.63109e-17
5272.04332 1.59228e-17
5273.56149 1.63350e-17
5275.07965 1.67473e-17
5276.60800 1.75686e-17
5278.12616 1.83899e-17
5279.64432 1.82217e-17
5281.16248 1.80534e-17
5282.69083 1.75474e-17
5284.20899 1.70416e-17
5285.72715 1.67861e-17
5287.24531 1.65307e-17
5288.77366 1.71832e-17
5290.29182 1.78358e-17
5291.80998 1.74609e-17
5293.32815 1.70859e-17
5294.85650 1.72868e-17
5296.37466 1.74877e-17
5297.89282 1.75197e-17
5299.41098 1.75516e-17
5300.93933 1.85998e-17
5302.45749 1.96481e-17
5303.97565 1.96397e-17
5305.49381 1.96313e-17
5307.02216 1.92090e-17
5308.54032 1.87868e-17
5310.05848 1.88721e-17
5311.57665 1.89574e-17
5313.10499 1.89406e-17
5314.62316 1.89239e-17
5316.14132 1.95169e-17
5317.65948 2.01099e-17
5319.18783 2.02445e-17
5320.70599 2.03790e-17
5322.22415 1.98663e-17
5323.74231 1.93537e-17
5325.27066 1.92099e-17
5326.78882 1.90662e-17
5328.30698 1.97258e-17
5329.82514 2.03854e-17
5331.35349 2.14726e-17
5332.87165 2.25598e-17
5334.38982 2.22878e-17
5335.90798 2.20158e-17
5337.43633 2.21958e-17
5338.95449 2.23758e-17
5340.47265 2.30436e-17
5341.99081 2.37114e-17
5343.51916 2.32744e-17
5345.03732 2.28374e-17
5346.55548 2.23267e-17
5348.07364 2.18160e-17
5349.60199 2.15506e-17
5351.12015 2.12854e-17
5352.63832 2.18459e-17
5354.15648 2.24065e-17
5355.68483 2.41789e-17
5357.20299 2.59513e-17
5358.72115 2.54527e-17
5360.23931 2.49541e-17
5361.76766 2.39959e-17
5363.28582 2.30378e-17
5364.80398 2.27263e-17
5366.32214 2.24149e-17
5367.85049 2.39389e-17
5369.36865 2.54629e-17
5370.88681 2.49881e-17
5372.40497 2.45132e-17
5373.93332 2.38462e-17
5375.45149 2.31791e-17
5376.96965 2.44533e-17
5378.48781 2.57275e-17
5380.01616 2.56340e-17
5381.53432 2.55403e-17
5383.05248 2.48833e-17
5384.57064 2.42262e-17
5386.09899 2.42556e-17
5387.61715 2.42850e-17
5389.13531 2.48199e-17
5390.65347 2.53549e-17
5392.18182 2.49225e-17
5393.69998 2.44900e-17
5395.21815 2.43587e-17
5396.73631 2.42274e-17
5398.26466 2.41519e-17
5399.78282 2.40764e-17
5401.30098 2.41709e-17
5402.81914 2.42654e-17
5404.34749 2.40018e-17
5405.86565 2.37382e-17
5407.38381 2.41679e-17
5408.90197 2.45977e-17
5410.43032 2.38701e-17
5411.94848 2.31426e-17
5413.46664 2.31863e-17
5414.98481 2.32301e-17
5416.51316 2.40901e-17
5418.03132 2.49500e-17
5419.54948 2.49624e-17
5421.06764 2.49748e-17
5422.59599 2.35574e-17
5424.11415 2.21399e-17
5425.63231 2.26993e-17
5427.15047 2.32587e-17
5428.67882 2.36861e-17
5430.19698 2.41135e-17
5431.71514 2.35968e-17
5433.23330 2.30801e-17
5434.76165 2.36411e-17
5436.27982 2.42021e-17
5437.79798 2.34901e-17
5439.31614 2.27781e-17
5440.84449 2.15023e-17
5442.36265 2.02266e-17
5443.88081 2.08778e-17
5445.39897 2.15292e-17
5446.92732 2.23795e-17
5448.44548 2.32297e-17
5449.96364 2.20243e-17
5451.48180 2.08189e-17
5453.01015 2.11331e-17
5454.52831 2.14473e-17
5456.04648 2.24893e-17
5457.56464 2.35312e-17
5459.09299 2.27538e-17
5460.61115 2.19763e-17
5462.12931 2.12792e-17
5463.64747 2.05821e-17
5465.17582 2.02047e-17
5466.69398 1.98273e-17
5468.21214 1.95421e-17
5469.73030 1.92569e-17
5471.25865 1.97449e-17
5472.77681 2.02328e-17
5474.29497 2.00547e-17
5475.81314 1.98765e-17
5477.34149 2.02258e-17
5478.85965 2.05750e-17
5480.37781 2.02725e-17
5481.89597 1.99699e-17
5483.42432 2.00811e-17
5484.94248 2.01924e-17
5486.46064 2.04237e-17
5487.97880 2.06550e-17
5489.50715 1.99342e-17
5491.02531 1.92135e-17
5492.54347 1.93129e-17
5494.06163 1.94125e-17
5495.58998 1.92195e-17
5497.10815 1.90265e-17
5498.62631 1.85159e-17
5500.14447 1.80053e-17
5501.67282 1.81811e-17
5503.19098 1.83569e-17
5504.70914 1.83095e-17
5506.22730 1.82620e-17
5507.75565 1.94499e-17
5509.27381 2.06378e-17
5510.79197 2.08726e-17
5512.31013 2.11073e-17
5513.83848 2.01893e-17
5515.35664 1.92713e-17
5516.87481 1.92331e-17
5518.39297 1.91948e-17
5519.92132 1.83354e-17
5521.43948 1.74759e-17
5522.95764 1.72291e-17
5524.47580 1.69823e-17
5526.00415 1.73431e-17
5527.52231 1.77039e-17
5529.04047 1.75086e-17
5530.55863 1.73132e-17
5532.08698 1.74281e-17
5533.60514 1.75430e-17
5535.12330 1.77867e-17
5536.64147 1.80304e-17
5538.16982 1.85704e-17
5539.68798 1.91104e-17
5541.20614 1.88097e-17
5542.72430 1.85089e-17
5544.25265 1.87629e-17
5545.77081 1.90168e-17
5547.28897 1.95549e-17
5548.80713 2.00930e-17
5550.33548 1.96286e-17
5551.85364 1.91642e-17
5553.37180 1.90019e-17
5554.88997 1.88397e-17
5556.41831 1.88768e-17
5557.93648 1.89140e-17
5559.45464 1.82457e-17
5560.97280 1.75774e-17
5562.50115 1.78331e-17
5564.01931 1.80888e-17
5565.53747 1.83845e-17
5567.05563 1.86802e-17
5568.58398 1.88007e-17
5570.10214 1.89212e-17
5571.62030 1.87893e-17
5573.13846 1.86573e-17
5574.66681 1.75177e-17
5576.18497 1.63782e-17
5577.70314 1.75335e-17
5579.22130 1.86889e-17
5580.74965 1.98246e-17
5582.26781 2.09603e-17
5583.78597 2.02759e-17
5585.30413 1.95915e-17
5586.83248 1.94670e-17
5588.35064 1.93426e-17
5589.86880 1.89232e-17
5591.38696 1.85039e-17
5592.91531 1.77795e-17
5594.43347 1.70553e-17
5595.95163 1.80595e-17
5597.46980 1.90638e-17
5598.99815 1.88001e-17
5600.51631 1.85365e-17
5602.03447 1.82123e-17
5603.55263 1.78881e-17
5605.08098 1.81249e-17
5606.59914 1.83619e-17
5608.11730 1.76535e-17
5609.63546 1.69452e-17
5611.16381 1.68277e-17
5612.68197 1.67103e-17
5614.20013 1.74937e-17
5615.71829 1.82771e-17
5617.24665 1.81328e-17
5618.76481 1.79885e-17
5620.28297 1.82664e-17
5621.80113 1.85442e-17
5623.32948 1.74850e-17
5624.84764 1.64257e-17
5626.36580 1.70256e-17
5627.88396 1.76256e-17
5629.41231 1.80219e-17
5630.93047 1.84182e-17
5632.44863 1.85353e-17
5633.96679 1.86525e-17
5635.49514 1.80489e-17
5637.01330 1.74453e-17
5638.53147 1.73101e-17
5640.04963 1.71750e-17
5641.57798 1.71000e-17
5643.09614 1.70249e-17
5644.61430 1.69618e-17
5646.13246 1.68986e-17
5647.66081 1.66962e-17
5649.17897 1.64938e-17
5650.69713 1.69358e-17
5652.21529 1.73779e-17
5653.74364 1.73714e-17
5655.26180 1.73648e-17
5656.77996 1.66126e-17
5658.29813 1.58603e-17
5659.82648 1.64029e-17
5661.34464 1.69456e-17
5662.86280 1.71882e-17
5664.38096 1.74307e-17
5665.90931 1.68398e-17
5667.42747 1.62488e-17
5668.94563 1.57983e-17
5670.46379 1.53478e-17
5671.99214 1.62036e-17
5673.51030 1.70595e-17
5675.02846 1.73391e-17
5676.54662 1.76185e-17
5678.07497 1.67442e-17
5679.59314 1.58699e-17
5681.11130 1.59420e-17
5682.62946 1.60141e-17
5684.15781 1.58110e-17
5685.67597 1.56079e-17
5687.19413 1.52739e-17
5688.71229 1.49399e-17
5690.24064 1.53890e-17
5691.75880 1.58382e-17
5693.27696 1.66223e-17
5694.79512 1.74065e-17
5696.32347 1.68532e-17
5697.84163 1.62999e-17
5699.35980 1.66169e-17
5700.87796 1.69340e-17
5702.40631 1.70792e-17
5703.92447 1.72244e-17
5705.44263 1.71048e-17
5706.96079 1.69853e-17
5708.48914 1.64414e-17
5710.00730 1.58976e-17
5711.52546 1.56315e-17
5713.04362 1.53654e-17
5714.57197 1.52666e-17
5716.09013 1.51678e-17
5717.60829 1.53049e-17
5719.12646 1.54419e-17
5720.65481 1.54009e-17
5722.17297 1.53598e-17
5723.69113 1.53691e-17
5725.20929 1.53784e-17
5726.73764 1.51444e-17
5728.25580 1.49103e-17
5729.77396 1.50303e-17
5731.29212 1.51502e-17
5732.82047 1.52916e-17
5734.33863 1.54330e-17
5735.85679 1.54185e-17
5737.37495 1.54040e-17
5738.90330 1.59057e-17
5740.42147 1.64075e-17
5741.93963 1.61433e-17
5743.45779 1.58791e-17
5744.98614 1.64095e-17
5746.50430 1.69400e-17
5748.02246 1.64849e-17
5749.54062 1.60297e-17
5751.06897 1.52282e-17
5752.58713 1.44268e-17
5754.10529 1.46535e-17
5755.62345 1.48802e-17
5757.15180 1.51938e-17
5758.66997 1.55073e-17
5760.18813 1.48875e-17
5761.70629 1.42677e-17
5763.23464 1.44486e-17
5764.75280 1.46295e-17
5766.27096 1.48289e-17
5767.78912 1.50282e-17
5769.31747 1.50579e-17
5770.83563 1.50875e-17
5772.35379 1.54927e-17
5773.87195 1.58978e-17
5775.40030 1.60371e-17
5776.91846 1.61763e-17
5778.43662 1.59216e-17
5779.95479 1.56670e-17
5781.48314 1.54249e-17
5783.00130 1.51828e-17
5784.51946 1.47984e-17
5786.03762 1.44141e-17
5787.56597 1.40296e-17
5789.08413 1.36451e-17
5790.60229 1.33207e-17
5792.12045 1.29964e-17
5793.64880 1.31887e-17
5795.16696 1.33810e-17
5796.68512 1.41765e-17
5798.20328 1.49719e-17
5799.73163 1.51255e-17
5801.24980 1.52791e-17
5802.76796 1.45099e-17
5804.28612 1.37406e-17
5805.81447 1.40998e-17
5807.33263 1.44590e-17
5808.85079 1.45158e-17
5810.36895 1.45726e-17
5811.88711 1.48272e-17
5813.41546 1.50817e-17
5814.93362 1.51201e-17
5816.45178 1.51584e-17
5817.98013 1.39724e-17
5819.49829 1.27863e-17
5821.01646 1.27410e-17
5822.53462 1.26957e-17
5824.06297 1.33002e-17
5825.58113 1.39048e-17
5827.09929 1.41584e-17
5828.61745 1.44120e-17
5830.14580 1.39516e-17
5831.66396 1.34912e-17
5833.18212 1.36454e-17
5834.70028 1.37996e-17
5836.22863 1.25292e-17
5837.74679 1.12587e-17
5839.26495 1.08275e-17
5840.78312 1.03963e-17
5842.31147 1.11680e-17
5843.82963 1.19397e-17
5845.34779 1.17013e-17
5846.86595 1.14627e-17
5848.39430 1.15282e-17
5849.91246 1.15937e-17
5851.43062 1.12080e-17
5852.94878 1.08222e-17
5854.47713 1.10454e-17
5855.99529 1.12686e-17
5857.51345 1.10809e-17
5859.03161 1.08931e-17
5860.55996 1.14172e-17
5862.07813 1.19414e-17
5863.59629 1.22388e-17
5865.11445 1.25362e-17
5866.64280 1.21678e-17
5868.16096 1.17993e-17
5869.67912 1.14870e-17
5871.19728 1.11746e-17
5872.72563 1.10828e-17
5874.24379 1.09910e-17
5875.76195 1.13768e-17
5877.28011 1.17625e-17
5878.79827 1.21464e-17
5880.32662 1.25301e-17
5881.84479 1.17830e-17
5883.36295 1.10358e-17
5884.89130 1.23862e-17
5886.40946 1.37367e-17
5887.92762 1.26665e-17
5889.44578 1.15961e-17
5890.96394 1.20016e-17
5892.49229 1.24071e-17
5894.01045 1.28365e-17
5895.52861 1.32659e-17
5897.05696 1.33722e-17
5898.57512 1.34785e-17
5900.09328 1.35271e-17
5901.61145 1.35756e-17
5903.13980 1.54097e-17
5904.65796 1.72438e-17
5906.17612 1.71230e-17
5907.69428 1.70021e-17
5909.21244 1.60486e-17
5910.74079 1.50951e-17
5912.25895 1.50575e-17
5913.77711 1.50200e-17
5915.30546 1.50973e-17
5916.82362 1.51746e-17
5918.34178 1.59417e-17
5919.85995 1.67087e-17
5921.37811 1.72521e-17
5922.90646 1.77955e-17
5924.42462 1.76060e-17
5925.94278 1.74166e-17
5927.47113 1.69885e-17
5928.98929 1.65604e-17
5930.50745 1.67740e-17
5932.02561 1.69877e-17
5933.55396 1.73220e-17
5935.07212 1.76563e-17
5936.59028 1.78035e-17
5938.10844 1.79506e-17
5939.63679 1.76437e-17
5941.15495 1.73368e-17
5942.67312 1.82813e-17
5944.19128 1.92258e-17
5945.71963 1.79255e-17
5947.23779 1.66250e-17
5948.75595 1.75293e-17
5950.27411 1.84337e-17
5951.80246 1.88135e-17
5953.32062 1.91932e-17
5954.83878 1.89748e-17
5956.35694 1.87564e-17
5957.87510 1.83113e-17
5959.40345 1.78662e-17
5960.92162 1.78290e-17
5962.43978 1.77918e-17
5963.95794 1.77041e-17
5965.48629 1.76163e-17
5967.00445 1.70360e-17
5968.52261 1.64557e-17
5970.04077 1.69483e-17
5971.56912 1.74409e-17
5973.08728 1.76891e-17
5974.60544 1.79372e-17
5976.12360 1.75082e-17
5977.65195 1.70793e-17
5979.17011 1.70829e-17
5980.68827 1.70865e-17
5982.21662 1.71468e-17
5983.73479 1.72072e-17
5985.25295 1.64284e-17
5986.77111 1.56496e-17
5988.28927 1.57948e-17
5989.81762 1.59402e-17
5991.33578 1.69036e-17
5992.85394 1.78670e-17
5994.38229 1.69057e-17
5995.90045 1.59442e-17
5997.41861 1.58174e-17
5998.93677 1.56907e-17
6000.45493 1.57288e-17
6001.98328 1.57670e-17
6003.50145 1.52403e-17
6005.01961 1.47137e-17
6006.53777 1.52139e-17
6008.06612 1.57141e-17
6009.58428 1.65151e-17
6011.10244 1.73161e-17
6012.63079 1.69468e-17
6014.14895 1.65775e-17
6015.66711 1.64585e-17
6017.18527 1.63395e-17
6018.70343 1.66133e-17
6020.23178 1.68872e-17
6021.74994 1.61861e-17
6023.26811 1.54851e-17
6024.79646 1.57104e-17
6026.31462 1.59359e-17
6027.83278 1.60849e-17
6029.35094 1.62340e-17
6030.86910 1.64569e-17
6032.39745 1.66798e-17
6033.91561 1.69764e-17
6035.43377 1.72730e-17
6036.95193 1.64324e-17
6038.48028 1.55917e-17
6039.99844 1.56000e-17
6041.51660 1.56084e-17
6043.03477 1.61263e-17
6044.56312 1.66443e-17
6046.08128 1.51838e-17
6047.59944 1.37233e-17
6049.11760 1.38500e-17
6050.64595 1.39769e-17
6052.16411 1.41240e-17
6053.68227 1.42710e-17
6055.20043 1.47856e-17
6056.72878 1.53001e-17
6058.24694 1.50115e-17
6059.76510 1.47229e-17
6061.28327 1.41066e-17
6062.81161 1.34904e-17
6064.32978 1.42009e-17
6065.84794 1.49116e-17
6067.36610 1.50141e-17
6068.89445 1.51165e-17
6070.41261 1.51618e-17
6071.93077 1.52071e-17
6073.44893 1.53002e-17
6074.97728 1.53933e-17
6076.49544 1.54641e-17
6078.01360 1.55349e-17
6079.53176 1.57326e-17
6081.06011 1.59302e-17
6082.57827 1.60122e-17
6084.09644 1.60942e-17
6085.61460 1.56521e-17
6087.14295 1.52100e-17
6088.66111 1.44081e-17
6090.17927 1.36061e-17
6091.70762 1.39729e-17
6093.22578 1.43398e-17
6094.74394 1.50662e-17
6096.26210 1.57926e-17
6097.78026 1.53379e-17
6099.30861 1.48831e-17
6100.82677 1.53126e-17
6102.34493 1.57423e-17
6103.86310 1.57791e-17
6105.39145 1.58159e-17
6106.90961 1.43361e-17
6108.42777 1.28562e-17
6109.94593 1.31254e-17
6111.47428 1.33947e-17
6112.99244 1.45631e-17
6114.51060 1.57314e-17
6116.02876 1.52735e-17
6117.55711 1.48154e-17
6119.07527 1.46956e-17
6120.59343 1.45758e-17
6122.11159 1.36889e-17
6123.63994 1.28020e-17
6125.15811 1.33174e-17
6126.67627 1.38329e-17
6128.19443 1.31555e-17
6129.72278 1.24780e-17
6131.24094 1.26934e-17
6132.75910 1.29088e-17
6134.27726 1.25697e-17
6135.80561 1.22305e-17
6137.32377 1.30152e-17
6138.84193 1.37999e-17
6140.36009 1.35364e-17
6141.88844 1.32727e-17
6143.40660 1.30221e-17
6144.92477 1.27715e-17
6146.44293 1.22562e-17
6147.97128 1.17409e-17
6149.48944 1.21224e-17
6151.00760 1.25039e-17
6152.52576 1.26489e-17
6154.05411 1.27939e-17
6155.57227 1.29301e-17
6157.09043 1.30663e-17
6158.60859 1.33133e-17
6160.13694 1.35604e-17
6161.65510 1.24093e-17
6163.17326 1.12582e-17
6164.69143 1.15438e-17
6166.21978 1.18295e-17
6167.73794 1.21904e-17
6169.25610 1.25512e-17
6170.77426 1.31077e-17
6172.30261 1.36642e-17
6173.82077 1.36985e-17
6175.33893 1.37327e-17
6176.85709 1.35914e-17
6178.38544 1.34501e-17
6179.90360 1.21845e-17
6181.42176 1.09189e-17
6182.93992 1.17655e-17
6184.46827 1.26122e-17
6185.98644 1.26832e-17
6187.50460 1.27540e-17
6189.02276 1.32015e-17
6190.55111 1.36489e-17
6192.06927 1.32770e-17
6193.58743 1.29050e-17
6195.10559 1.28013e-17
6196.63394 1.26976e-17
6198.15210 1.27719e-17
6199.67026 1.28462e-17
6201.18842 1.23635e-17
6202.71677 1.18807e-17
6204.23493 1.21100e-17
6205.75310 1.23393e-17
6207.27126 1.17880e-17
6208.79961 1.12368e-17
6210.31777 1.19955e-17
6211.83593 1.27544e-17
6213.35409 1.27542e-17
6214.88244 1.27540e-17
6216.40060 1.26024e-17
6217.91876 1.24508e-17
6219.43692 1.23144e-17
6220.96527 1.21780e-17
6222.48343 1.23985e-17
6224.00159 1.26190e-17
6225.51976 1.23584e-17
6227.04811 1.20978e-17
6228.56627 1.29142e-17
6230.08443 1.37306e-17
6231.60259 1.31277e-17
6233.13094 1.25247e-17
6234.64910 1.33544e-17
6236.16726 1.41841e-17
6237.68542 1.35619e-17
6239.21377 1.29397e-17
6240.73193 1.35859e-17
6242.25009 1.42322e-17
6243.76825 1.35570e-17
6245.29660 1.28817e-17
6246.81477 1.29262e-17
6248.33293 1.29708e-17
6249.85109 1.25695e-17
6251.37944 1.21683e-17
6252.89760 1.17858e-17
6254.41576 1.14033e-17
6255.93392 1.22923e-17
6257.46227 1.31814e-17
6258.98043 1.24626e-17
6260.49859 1.17437e-17
6262.01675 1.16557e-17
6263.54510 1.15677e-17
6265.06326 1.27864e-17
6266.58143 1.40051e-17
6268.09959 1.32490e-17
6269.62794 1.24926e-17
6271.14610 1.27285e-17
6272.66426 1.29644e-17
6274.18242 1.30810e-17
6275.71077 1.31977e-17
6277.22893 1.21897e-17
6278.74709 1.11818e-17
6280.26525 1.12254e-17
6281.79360 1.12691e-17
6283.31176 1.20452e-17
6284.82992 1.28213e-17
6286.34809 1.32812e-17
6287.87644 1.37411e-17
6289.39460 1.30594e-17
6290.91276 1.23778e-17
6292.43092 1.22595e-17
6293.95927 1.21414e-17
6295.47743 1.16682e-17
6296.99559 1.11950e-17
6298.51375 1.12455e-17
6300.04210 1.12960e-17
6301.56026 1.08304e-17
6303.07842 1.03649e-17
6304.59658 1.02573e-17
6306.12493 1.01497e-17
6307.64310 9.85033e-18
6309.16126 9.55092e-18
6310.67942 9.63468e-18
6312.20777 9.71847e-18
6313.72593 9.76108e-18
6315.24409 9.80369e-18
6316.76225 9.68968e-18
6318.29060 9.57566e-18
6319.80876 1.01885e-17
6321.32692 1.08014e-17
6322.84508 1.00874e-17
6324.37343 9.37328e-18
6325.89160 9.11008e-18
6327.40976 8.84693e-18
6328.92792 9.57689e-18
6330.45627 1.03069e-17
6331.97443 9.00244e-18
6333.49259 7.69784e-18
6335.01075 7.52295e-18
6336.53910 7.34819e-18
6338.05726 7.52876e-18
6339.57542 7.70935e-18
6341.09358 8.31923e-18
6342.62193 8.92911e-18
6344.14009 8.40501e-18
6345.65825 7.88083e-18
6347.17642 8.33509e-18
6348.70477 8.78942e-18
6350.22293 8.15251e-18
6351.74109 7.51553e-18
6353.25925 6.52762e-18
6354.78760 5.53972e-18
6356.30576 6.52928e-18
6357.82392 7.51899e-18
6359.34208 7.41039e-18
6360.87043 7.30169e-18
6362.38859 7.44012e-18
6363.90675 7.57856e-18
6365.42491 7.32062e-18
6366.95327 7.06266e-18
6368.47143 6.70203e-18
6369.98959 6.34141e-18
6371.50775 6.33789e-18
6373.03610 6.33440e-18
6374.55426 5.95165e-18
6376.07242 5.56887e-18
6377.59058 6.30474e-18
6379.11893 7.04068e-18
6380.63709 7.77244e-18
6382.15525 8.50417e-18
6383.67341 8.69588e-18
6385.20176 8.88752e-18
6386.71992 7.88208e-18
6388.23809 6.87657e-18
6389.75625 6.78707e-18
6391.28460 6.69766e-18
6392.80276 7.44538e-18
6394.32092 8.19315e-18
6395.83908 7.95000e-18
6397.36743 7.70677e-18
6398.88559 8.26419e-18
6400.40375 8.82165e-18
6401.92191 8.79510e-18
6403.45026 8.76848e-18
6404.96842 9.15599e-18
6406.48658 9.54353e-18
6408.00475 9.71428e-18
6409.53310 9.88499e-18
6411.05126 9.41891e-18
6412.56942 8.95279e-18
6414.08758 9.64156e-18
6415.61593 1.03304e-17
6417.13409 1.04365e-17
6418.65225 1.05426e-17
6420.17041 9.88046e-18
6421.69876 9.21830e-18
6423.21692 9.25764e-18
6424.73508 9.29704e-18
6426.25324 9.54373e-18
6427.78159 9.79042e-18
6429.29976 1.02906e-17
6430.81792 1.07907e-17
6432.33608 1.11265e-17
6433.86443 1.14622e-17
6435.38259 1.24130e-17
6436.90075 1.33637e-17
6438.41891 1.27247e-17
6439.94726 1.20855e-17
6441.46542 1.14882e-17
6442.98358 1.08909e-17
6444.50174 1.04045e-17
6446.03009 9.91810e-18
6447.54825 1.15095e-17
6449.06642 1.31010e-17
6450.58458 1.27950e-17
6452.11293 1.24888e-17
6453.63109 1.20785e-17
6455.14925 1.16682e-17
6456.66741 1.21170e-17
6458.19576 1.25658e-17
6459.71392 1.26278e-17
6461.23208 1.26897e-17
6462.75024 1.26725e-17
6464.27859 1.26553e-17
6465.79675 1.32406e-17
6467.31491 1.38259e-17
6468.83308 1.32144e-17
6470.36143 1.26028e-17
6471.87959 1.29420e-17
6473.39775 1.32813e-17
6474.91591 1.33610e-17
6476.44426 1.34408e-17
6477.96242 1.30750e-17
6479.48058 1.27092e-17
6480.99874 1.30859e-17
6482.52709 1.34628e-17
6484.04525 1.42956e-17
6485.56341 1.51284e-17
6487.08157 1.48455e-17
6488.60992 1.45625e-17
6490.12809 1.43909e-17
6491.64625 1.42194e-17
6493.16441 1.39217e-17
6494.69276 1.36241e-17
6496.21092 1.41454e-17
6497.72908 1.46668e-17
6499.24724 1.45715e-17
6500.77559 1.44760e-17
6502.29375 1.45506e-17
6503.81191 1.46253e-17
6505.33007 1.47572e-17
6506.85842 1.48892e-17
6508.37658 1.38366e-17
6509.89475 1.27840e-17
6511.41291 1.32861e-17
6512.94126 1.37884e-17
6514.45942 1.35467e-17
6515.97758 1.33050e-17
6517.49574 1.33709e-17
6519.02409 1.34369e-17
6520.54225 1.34982e-17
6522.06041 1.35594e-17
6523.57857 1.36853e-17
6525.10692 1.38113e-17
6526.62508 1.46473e-17
6528.14324 1.54833e-17
6529.66141 1.49994e-17
6531.18976 1.45153e-17
6532.70792 1.42496e-17
6534.22608 1.39839e-17
6535.74424 1.44492e-17
6537.27259 1.49145e-17
6538.79075 1.43589e-17
6540.30891 1.38033e-17
6541.82707 1.31652e-17
6543.35542 1.25272e-17
6544.87358 1.28123e-17
6546.39174 1.30975e-17
6547.90990 1.37721e-17
6549.43825 1.44466e-17
6550.95642 1.50572e-17
6552.47458 1.56677e-17
6553.99274 1.55815e-17
6555.52109 1.54953e-17
6557.03925 1.51643e-17
6558.55741 1.48333e-17
6560.07557 1.47779e-17
6561.60392 1.47225e-17
6563.12208 1.49085e-17
6564.64024 1.50945e-17
6566.15840 1.53905e-17
6567.68675 1.56864e-17
6569.20492 1.47997e-17
6570.72308 1.39129e-17
6572.24124 1.41541e-17
6573.76959 1.43955e-17
6575.28775 1.37095e-17
6576.80591 1.30234e-17
6578.32407 1.40039e-17
6579.85242 1.49846e-17
6581.37058 1.50593e-17
6582.88874 1.51338e-17
6584.40690 1.40880e-17
6585.93525 1.30420e-17
6587.45341 1.34021e-17
6588.97157 1.37624e-17
6590.48974 1.34463e-17
6592.01809 1.31301e-17
6593.53625 1.35959e-17
6595.05441 1.40618e-17
6596.57257 1.42266e-17
6598.10092 1.43914e-17
6599.61908 1.43720e-17
6601.13724 1.43526e-17
6602.65540 1.33284e-17
6604.18375 1.23042e-17
6605.70191 1.28787e-17
6607.22007 1.34533e-17
6608.73823 1.32441e-17
6610.26658 1.30349e-17
6611.78475 1.22158e-17
6613.30291 1.13968e-17
6614.82107 1.23329e-17
6616.34942 1.32692e-17
6617.86758 1.32182e-17
6619.38574 1.31670e-17
6620.90390 1.28564e-17
6622.43225 1.25458e-17
6623.95041 1.33782e-17
6625.46857 1.42106e-17
6626.98673 1.35776e-17
6628.51508 1.29445e-17
6630.03324 1.33029e-17
6631.55141 1.36614e-17
6633.06957 1.31863e-17
6634.59792 1.27111e-17
6636.11608 1.22507e-17
6637.63424 1.17904e-17
6639.15240 1.30120e-17
6640.68075 1.42337e-17
6642.19891 1.31372e-17
6643.71707 1.20405e-17
6645.23523 1.23244e-17
6646.76358 1.26084e-17
6648.28174 1.24541e-17
6649.79990 1.22997e-17
6651.31807 1.15609e-17
6652.84642 1.08220e-17
6654.36458 1.15977e-17
6655.88274 1.23735e-17
6657.40090 1.17701e-17
6658.92925 1.11665e-17
6660.44741 1.09069e-17
6661.96557 1.06473e-17
6663.48373 1.14005e-17
6665.01208 1.21537e-17
6666.53024 1.16901e-17
6668.04840 1.12263e-17
6669.56657 1.12607e-17
6671.09491 1.12951e-17
6672.61308 1.13749e-17
6674.13124 1.14547e-17
6675.64940 1.13105e-17
6677.17775 1.11664e-17
6678.69591 1.10613e-17
6680.21407 1.09562e-17
6681.73223 1.06965e-17
6683.26058 1.04369e-17
6684.77874 1.00219e-17
6686.29690 9.60690e-18
6687.81506 1.00272e-17
6689.34341 1.04475e-17
6690.86157 1.10993e-17
6692.37974 1.17511e-17
6693.89790 1.12560e-17
6695.42625 1.07609e-17
6696.94441 1.17112e-17
6698.46257 1.26616e-17
6699.98073 1.24520e-17
6701.50908 1.22422e-17
6703.02724 1.14113e-17
6704.54540 1.05803e-17
6706.06356 1.05401e-17
6707.59191 1.05000e-17
6709.11007 1.05844e-17
6710.62823 1.06689e-17
6712.14640 1.10881e-17
6713.67475 1.15073e-17
6715.19291 1.21688e-17
6716.71107 1.28303e-17
6718.22923 1.28125e-17
6719.75758 1.27947e-17
6721.27574 1.29867e-17
6722.79390 1.31788e-17
6724.31206 1.26192e-17
6725.84041 1.20595e-17
6727.35857 1.17894e-17
6728.87673 1.15195e-17
6730.39489 1.17054e-17
6731.92324 1.18915e-17
6733.44141 1.24454e-17
6734.95957 1.29994e-17
6736.47773 1.29541e-17
6738.00608 1.29088e-17
6739.52424 1.28397e-17
6741.04240 1.27706e-17
6742.56056 1.35877e-17
6744.08891 1.44048e-17
6745.60707 1.34939e-17
6747.12523 1.25829e-17
6748.64339 1.23397e-17
6750.17174 1.20966e-17
6751.68990 1.29149e-17
6753.20807 1.37332e-17
6754.72623 1.36561e-17
6756.25458 1.35789e-17
6757.77274 1.32326e-17
6759.29090 1.28863e-17
6760.80906 1.39197e-17
6762.33741 1.49532e-17
6763.85557 1.45625e-17
6765.37373 1.41718e-17
6766.89189 1.39260e-17
6768.42024 1.36802e-17
6769.93840 1.32982e-17
6771.45656 1.29162e-17
6772.97473 1.29485e-17
6774.50308 1.29809e-17
6776.02124 1.32756e-17
6777.53940 1.35704e-17
6779.05756 1.28544e-17
6780.58591 1.21384e-17
6782.10407 1.26740e-17
6783.62223 1.32097e-17
6785.14039 1.34992e-17
6786.66874 1.37887e-17
6788.18690 1.35894e-17
6789.70506 1.33901e-17
6791.22322 1.35009e-17
6792.75157 1.36117e-17
6794.26974 1.39268e-17
6795.78790 1.42419e-17
6797.30606 1.39440e-17
6798.83441 1.36461e-17
6800.35257 1.30121e-17
6801.87073 1.23781e-17
6803.38889 1.31485e-17
6804.91724 1.39189e-17
6806.43540 1.41502e-17
6807.95356 1.43815e-17
6809.47172 1.36758e-17
6811.00007 1.29701e-17
6812.51823 1.28098e-17
6814.03640 1.26496e-17
6815.55456 1.27330e-17
6817.08291 1.28164e-17
6818.60107 1.26296e-17
6820.11923 1.24428e-17
6821.63739 1.27154e-17
6823.16574 1.29881e-17
6824.68390 1.30812e-17
6826.20206 1.31743e-17
6827.72022 1.30488e-17
6829.24857 1.29233e-17
6830.76673 1.30574e-17
6832.28489 1.31914e-17
6833.80306 1.26156e-17
6835.33141 1.20397e-17
6836.84957 1.20743e-17
6838.36773 1.21090e-17
6839.88589 1.20138e-17
6841.41424 1.19186e-17
6842.93240 1.19856e-17
6844.45056 1.20527e-17
6845.96872 1.20033e-17
6847.49707 1.19539e-17
6849.01523 1.19046e-17
6850.53339 1.18552e-17
6852.05155 1.18058e-17
6853.57990 1.17565e-17
6855.09807 1.17071e-17
6856.61623 1.16578e-17
6858.13439 1.16084e-17
6859.66274 1.15591e-17
6861.18090 1.15097e-17
6862.69906 1.14604e-17
6864.21722 1.14111e-17
6865.74557 1.13617e-17
6867.26373 1.13124e-17
6868.78189 1.12631e-17
6870.30005 1.12137e-17
6871.82840 1.11644e-17
6873.34656 1.11151e-17
6874.86473 1.10658e-17
6876.38289 1.10165e-17
6877.91124 1.09671e-17
6879.42940 1.09178e-17
6880.94756 1.08685e-17
6882.46572 1.08192e-17
6883.99407 1.07699e-17
6885.51223 1.07206e-17
6887.03039 1.06713e-17
6888.54855 1.06220e-17
6890.07690 1.05727e-17
6891.59506 1.05234e-17
6893.11322 1.04741e-17
6894.63139 1.04248e-17
6896.15974 1.03756e-17
6897.67790 1.03263e-17
6899.19606 1.02770e-17
6900.71422 1.02277e-17
6902.24257 1.01784e-17
6903.76073 1.01292e-17
6905.27889 1.00799e-17
6906.79705 1.00306e-17
6908.32540 9.98138e-18
6909.84356 9.93211e-18
6911.36172 9.88286e-18
6912.87988 9.83359e-18
6914.40823 9.78434e-18
6915.92640 9.73510e-18
6917.44456 9.68584e-18
6918.96272 9.63662e-18
6920.49107 9.58735e-18
6922.00923 9.53811e-18
6923.52739 9.48888e-18
6925.04555 9.43963e-18
6926.57390 9.39041e-18
6928.09206 9.34117e-18
6929.61022 9.29194e-18
6931.12838 9.24271e-18
6932.65673 9.19349e-18
6934.17489 9.14428e-18
6935.69306 9.09505e-18
6937.21122 9.56687e-18
6938.73957 1.00388e-17
6940.25773 1.02439e-17
6941.77589 1.04488e-17
6943.29405 1.02436e-17
6944.82240 1.00384e-17
6946.34056 1.04338e-17
6947.85872 1.08292e-17
6949.37688 1.14059e-17
6950.90523 1.19826e-17
6952.42339 1.13816e-17
6953.94155 1.07805e-17
6955.45972 1.07485e-17
6956.98807 1.07166e-17
6958.50623 1.05190e-17
6960.02439 1.03213e-17
6961.54255 1.00377e-17
6963.07090 9.75411e-18
6964.58906 9.71320e-18
6966.10722 9.67234e-18
6967.62538 9.59071e-18
6969.15373 9.50908e-18
6970.67189 9.77276e-18
6972.19005 1.00365e-17
6973.70821 1.04619e-17
6975.23657 1.08873e-17
6976.75473 1.17408e-17
6978.27289 1.25942e-17
6979.79105 1.10016e-17
6981.31940 9.40870e-18
6982.83756 9.68031e-18
6984.35572 9.95215e-18
6985.87388 1.06440e-17
6987.40223 1.13359e-17
6988.92039 1.15549e-17
6990.43855 1.17739e-17
6991.95671 1.13277e-17
6993.48506 1.08814e-17
6995.00322 1.05463e-17
6996.52139 1.02112e-17
6998.03955 1.07665e-17
6999.56790 1.13219e-17
7001.08606 1.13815e-17
7002.60422 1.14410e-17
7004.12238 1.04073e-17
7005.65073 9.37356e-18
7007.16889 9.44349e-18
7008.68705 9.51355e-18
7010.20521 9.72193e-18
7011.73356 9.93032e-18
7013.25172 1.04278e-17
7014.76988 1.09253e-17
7016.28805 1.06475e-17
7017.81640 1.03697e-17
7019.33456 9.73145e-18
7020.85272 9.09323e-18
7022.37088 8.90350e-18
7023.88904 8.71383e-18
7025.41739 8.92819e-18
7026.93555 9.14259e-18
7028.45371 9.66531e-18
7029.98206 1.01880e-17
7031.50022 9.30026e-18
7033.01838 8.41236e-18
7034.53654 8.58367e-18
7036.05471 8.75510e-18
7037.58306 9.64780e-18
7039.10122 1.05405e-17
7040.61938 1.04231e-17
7042.14773 1.03054e-17
7043.66589 9.55999e-18
7045.18405 8.81450e-18
7046.70221 8.59179e-18
7048.23056 8.36917e-18
7049.74872 8.67976e-18
7051.26688 8.99040e-18
7052.78504 9.47785e-18
7054.31339 9.96529e-18
7055.83155 9.38091e-18
7057.34972 8.79642e-18
7058.86788 9.21595e-18
7060.39623 9.63558e-18
7061.91439 9.91116e-18
7063.43255 1.01867e-17
7064.95071 9.45719e-18
7066.47906 8.72756e-18
7067.99722 8.94960e-18
7069.51538 9.17175e-18
7071.03354 9.25013e-18
7072.56189 9.32848e-18
7074.08005 9.37234e-18
7075.59821 9.41620e-18
7077.11638 8.91783e-18
7078.64473 8.41941e-18
7080.16289 8.58942e-18
7081.68105 8.75952e-18
7083.19921 9.19468e-18
7084.72756 9.62985e-18
7086.24572 1.04211e-17
7087.76388 1.12124e-17
7089.28204 1.07406e-17
7090.80020 1.02688e-17
7092.32855 1.02806e-17
7093.84671 1.02924e-17
7095.36487 1.07013e-17
7096.89322 1.11103e-17
7098.41139 1.07396e-17
7099.92955 1.03689e-17
7101.44771 1.05367e-17
7102.96587 1.07046e-17
7104.49422 1.07248e-17
7106.01238 1.07451e-17
7107.53054 1.03191e-17
7109.05889 9.89313e-18
7110.57705 1.00594e-17
7112.09521 1.02257e-17
7113.61337 1.02927e-17
7115.13153 1.03596e-17
7116.65988 1.04257e-17
7118.17805 1.04917e-17
7119.69621 1.08073e-17
7121.21437 1.11229e-17
7122.74272 1.11295e-17
7124.26088 1.11360e-17
7125.77904 1.11507e-17
7127.30739 1.11654e-17
7128.82555 1.08791e-17
7130.34371 1.05927e-17
7131.86187 1.09319e-17
7133.38003 1.12713e-17
7134.90838 1.09948e-17
7136.42654 1.07181e-17
7137.94471 1.09968e-17
7139.47306 1.12755e-17
7140.99122 1.13038e-17
7142.50938 1.13321e-17
7144.02754 1.14409e-17
7145.54570 1.15498e-17
7147.07405 1.09075e-17
7148.59221 1.02650e-17
7150.11037 1.06698e-17
7151.63872 1.10747e-17
7153.15688 1.12828e-17
7154.67504 1.14908e-17
7156.19320 1.18066e-17
7157.72155 1.21225e-17
7159.23972 1.20272e-17
7160.75788 1.19319e-17
7162.27604 1.12246e-17
7163.79420 1.05172e-17
7165.32255 1.07521e-17
7166.84071 1.09871e-17
7168.35887 1.12959e-17
7169.87703 1.16048e-17
7171.40538 1.15968e-17
7172.92354 1.15888e-17
7174.44170 1.08326e-17
7175.95986 1.00764e-17
7177.48821 9.88579e-18
7179.00638 9.69527e-18
7180.52454 1.02825e-17
7182.04270 1.08698e-17
7183.57105 1.04592e-17
7185.08921 1.00485e-17
7186.60737 1.00473e-17
7188.12553 1.00461e-17
7189.65388 1.00039e-17
7191.17204 9.96171e-18
7192.69020 9.70210e-18
7194.20836 9.44248e-18
7195.73671 9.92025e-18
7197.25487 1.03981e-17
7198.77304 1.04667e-17
7200.29120 1.05352e-17
7201.81955 1.06126e-17
7203.33771 1.06899e-17
7204.85587 1.08073e-17
7206.38422 1.09247e-17
7207.90238 9.48408e-18
7209.42054 8.04331e-18
7210.93870 8.89049e-18
7212.45686 9.73793e-18
7213.98521 1.00576e-17
7215.50337 1.03772e-17
7217.02153 9.51772e-18
7218.54988 8.65816e-18
7220.06805 9.25720e-18
7221.58621 9.85642e-18
7223.10437 9.52411e-18
7224.62253 9.19168e-18
7226.15088 9.37332e-18
7227.66904 9.55502e-18
7229.18720 9.57522e-18
7230.70536 9.59540e-18
7232.23371 9.75194e-18
7233.75187 9.90849e-18
7235.27003 9.72961e-18
7236.78819 9.55069e-18
7238.31654 9.90460e-18
7239.83471 1.02586e-17
7241.35287 1.00705e-17
7242.87103 9.88243e-18
7244.39938 1.00735e-17
7245.91754 1.02646e-17
7247.43570 1.02583e-17
7248.95386 1.02519e-17
7250.48221 9.56852e-18
7252.00037 8.88508e-18
7253.51853 9.18735e-18
7255.03669 9.48974e-18
7256.56504 9.88197e-18
7258.08320 1.02742e-17
7259.60137 9.20640e-18
7261.11953 8.13845e-18
7262.64788 8.83752e-18
7264.16604 9.53680e-18
7265.68420 8.93342e-18
7267.20236 8.32989e-18
7268.73071 7.99683e-18
7270.24887 7.66383e-18
7271.76703 8.33024e-18
7273.28519 8.99675e-18
7274.81354 8.51715e-18
7276.33170 8.03743e-18
7277.84987 7.80101e-18
7279.36803 7.56464e-18
7280.89638 8.46059e-18
7282.41454 9.35665e-18
7283.93270 9.15686e-18
7285.45086 8.95693e-18
7286.97921 8.72694e-18
7288.49737 8.49696e-18
7290.01553 8.29375e-18
7291.53369 8.09055e-18
7293.06204 8.34737e-18
7294.58020 8.60424e-18
7296.09836 8.83811e-18
7297.61652 9.07195e-18
7299.14487 9.02318e-18
7300.66304 8.97436e-18
7302.18120 8.88195e-18
7303.69936 8.78953e-18
7305.22771 9.48463e-18
7306.74587 1.01798e-17
7308.26403 9.58097e-18
7309.78219 8.98200e-18
7311.31054 9.28216e-18
7312.82870 9.58243e-18
7314.34686 1.07172e-17
7315.86502 1.18520e-17
7317.39337 1.06033e-17
7318.91153 9.35420e-18
7320.42970 1.02315e-17
7321.94786 1.11090e-17
7323.47621 1.01616e-17
7324.99437 9.21409e-18
7326.51253 9.82366e-18
7328.03069 1.04334e-17
7329.55904 9.42776e-18
7331.07720 8.42193e-18
7332.59536 8.26919e-18
7334.11352 8.11658e-18
7335.64187 8.29488e-18
7337.16003 8.47322e-18
7338.67819 9.51755e-18
7340.19636 1.05619e-17
7341.72471 1.03780e-17
7343.24287 1.01939e-17
7344.76103 1.03066e-17
7346.27919 1.04194e-17
7347.80754 1.01540e-17
7349.32570 9.88862e-18
7350.84386 9.37884e-18
7352.36202 8.86906e-18
7353.89037 8.86906e-18
7355.40853 8.86914e-18
7356.92669 9.17948e-18
7358.44485 9.48984e-18
7359.97320 9.41115e-18
7361.49137 9.33241e-18
7363.00953 9.87593e-18
7364.52769 1.04195e-17
7366.05604 9.35438e-18
7367.57420 8.28909e-18
7369.09236 8.59797e-18
7370.61052 8.90704e-18
7372.13887 8.08848e-18
7373.65703 7.26981e-18
7375.17519 8.09871e-18
7376.69335 8.92779e-18
7378.22170 8.80608e-18
7379.73986 8.68424e-18
7381.25803 8.96091e-18
7382.77619 9.23763e-18
7384.30454 9.28790e-18
7385.82270 9.33814e-18
7387.34086 8.65637e-18
7388.85902 7.97454e-18
7390.38737 7.96979e-18
7391.90553 7.96514e-18
7393.42369 8.22121e-18
7394.94185 8.47731e-18
7396.47020 8.54824e-18
7397.98836 8.61915e-18
7399.50652 8.80261e-18
7401.02469 8.98607e-18
7402.55304 9.01928e-18
7404.07120 9.05247e-18
7405.58936 8.38129e-18
7407.10752 7.71006e-18
7408.63587 8.20534e-18
7410.15403 8.70076e-18
7411.67219 9.67330e-18
7413.19035 1.06459e-17
7414.71870 1.04374e-17
7416.23686 1.02287e-17
7417.75502 9.58215e-18
7419.27318 8.93556e-18
7420.80153 8.63335e-18
7422.31970 8.33121e-18
7423.83786 7.89923e-18
7425.35602 7.46726e-18
7426.88437 7.80289e-18
7428.40253 8.13861e-18
7429.92069 8.14688e-18
7431.43885 8.15511e-18
7432.96720 8.14115e-18
7434.48536 8.12718e-18
7436.00352 8.55899e-18
7437.52168 8.99084e-18
7439.05003 8.52707e-18
7440.56819 8.06319e-18
7442.08636 8.63070e-18
7443.60452 9.19833e-18
7445.13287 8.67435e-18
7446.65103 8.15024e-18
7448.16919 8.06886e-18
7449.68735 7.98754e-18
7451.21570 8.10382e-18
7452.73386 8.22012e-18
7454.25202 8.65373e-18
7455.77018 9.08735e-18
7457.29853 8.90658e-18
7458.81669 8.72573e-18
7460.33485 8.92153e-18
7461.85302 9.11737e-18
7463.38137 9.84828e-18
7464.89953 1.05792e-17
7466.41769 1.03257e-17
7467.93585 1.00721e-17
7469.46420 9.26934e-18
7470.98236 8.46654e-18
7472.50052 8.18485e-18
7474.01868 7.90326e-18
7475.54703 8.37332e-18
7477.06519 8.84346e-18
7478.58335 8.22037e-18
7480.10151 7.59715e-18
7481.62986 7.80625e-18
7483.14803 8.01547e-18
7484.66619 8.70855e-18
7486.18435 9.40167e-18
7487.71270 9.06480e-18
7489.23086 8.72780e-18
7490.74902 8.68605e-18
7492.26718 8.64435e-18
7493.79553 8.16975e-18
7495.31369 7.69511e-18
7496.83185 7.86514e-18
7498.35001 8.03525e-18
7499.87836 7.82994e-18
7501.39652 7.62458e-18
7502.91469 7.71803e-18
7504.43285 7.81152e-18
7505.96120 7.76107e-18
7507.47936 7.71061e-18
7508.99752 7.82497e-18
7510.51568 7.93936e-18
7512.04403 7.76384e-18
7513.56219 7.58828e-18
7515.08035 7.97487e-18
7516.59851 8.36152e-18
7518.12686 8.74985e-18
7519.64502 9.13815e-18
7521.16318 9.08449e-18
7522.68135 9.03076e-18
7524.20970 8.37530e-18
7525.72786 7.71979e-18
7527.24602 8.61784e-18
7528.76418 9.51606e-18
7530.29253 9.06584e-18
7531.81069 8.61543e-18
7533.32885 9.18424e-18
7534.84701 9.75316e-18
7536.37536 9.00471e-18
7537.89352 8.25610e-18
7539.41168 7.88292e-18
7540.92984 7.50981e-18
7542.45819 8.19100e-18
7543.97636 8.87230e-18
7545.49452 8.60638e-18
7547.01268 8.34033e-18
7548.54103 7.70989e-18
7550.05919 7.71728e-18
7551.57735 7.72466e-18
7553.09551 7.73205e-18
7554.62386 7.73943e-18
7556.14202 7.74682e-18
7557.66018 7.75420e-18
7559.17834 7.76159e-18
7560.70669 7.76897e-18
7562.22485 7.77635e-18
7563.74302 7.78374e-18
7565.26118 7.79112e-18
7566.78953 7.79850e-18
7568.30769 7.80588e-18
7569.82585 7.81326e-18
7571.34401 7.82064e-18
7572.87236 7.82802e-18
7574.39052 7.83540e-18
7575.90868 7.84278e-18
7577.42684 7.85016e-18
7578.95519 7.85754e-18
7580.47335 7.86492e-18
7581.99151 7.87229e-18
7583.50968 7.87967e-18
7585.03803 7.88704e-18
7586.55619 7.89442e-18
7588.07435 7.90180e-18
7589.59251 7.90917e-18
7591.12086 7.91654e-18
7592.63902 7.92392e-18
7594.15718 7.93129e-18
7595.67534 7.93866e-18
7597.20369 7.94603e-18
7598.72185 7.95341e-18
7600.24001 7.96078e-18
7601.75817 7.96815e-18
7603.28652 7.97552e-18
7604.80469 7.98289e-18
7606.32285 7.99026e-18
7607.84101 7.99763e-18
7609.36936 8.00500e-18
7610.88752 8.01236e-18
7612.40568 8.01973e-18
7613.92384 8.02710e-18
7615.45219 8.03446e-18
7616.97035 8.04183e-18
7618.48851 8.04920e-18
7620.00667 8.05656e-18
7621.53502 8.06393e-18
7623.05318 8.07129e-18
7624.57135 8.07865e-18
7626.08951 8.08602e-18
7627.61786 8.09338e-18
7629.13602 8.10074e-18
7630.65418 8.10810e-18
7632.17234 8.11547e-18
7633.70069 8.12283e-18
7635.21885 8.13019e-18
7636.73701 8.13755e-18
7638.25517 8.14491e-18
7639.78352 8.15227e-18
7641.30168 8.15962e-18
7642.81984 8.16698e-18
7644.33801 8.17434e-18
7645.86636 8.18170e-18
7647.38452 8.18905e-18
7648.90268 8.19641e-18
7650.42084 8.20377e-18
7651.94919 8.21112e-18
7653.46735 8.21847e-18
7654.98551 8.22583e-18
7656.50367 8.23318e-18
7658.03202 8.24054e-18
7659.55018 8.24789e-18
7661.06834 8.25524e-18
7662.58650 8.26259e-18
7664.11485 8.26994e-18
7665.63302 8.27730e-18
7667.15118 8.28465e-18
7668.66934 8.29200e-18
7670.19769 8.29935e-18
7671.71585 8.30669e-18
7673.23401 8.31404e-18
7674.75217 8.32139e-18
7676.28052 8.32874e-18
7677.79868 8.33609e-18
7679.31684 8.34343e-18
7680.83500 8.35078e-18
7682.36335 7.76116e-18
7683.88152 7.17152e-18
7685.39968 8.01199e-18
7686.91784 8.85264e-18
7688.44619 8.05822e-18
7689.96435 7.26358e-18
7691.48251 7.17933e-18
7693.00067 7.09520e-18
7694.52902 8.09271e-18
7696.04718 9.09033e-18
7697.56534 8.19723e-18
7699.08350 7.30388e-18
7700.61185 7.33505e-18
7702.13001 7.36637e-18
7703.64817 8.28496e-18
7705.16634 9.20363e-18
7706.69469 8.90091e-18
7708.21285 8.59803e-18
7709.73101 8.05545e-18
7711.24917 7.51287e-18
7712.77752 7.56551e-18
7714.29568 7.61823e-18
7715.81384 7.68843e-18
7717.33200 7.75864e-18
7718.86035 6.99300e-18
7720.37851 6.22729e-18
7721.89667 7.08565e-18
7723.41483 7.94422e-18
7724.94318 7.49965e-18
7726.46135 7.05490e-18
7727.97951 7.05535e-18
7729.49767 7.05587e-18
7731.02602 6.94424e-18
7732.54418 6.83260e-18
7734.06234 7.33392e-18
7735.58050 7.83531e-18
7737.10885 6.96772e-18
7738.62701 6.09997e-18
7740.14517 7.09063e-18
7741.66333 8.08153e-18
7743.19168 7.91181e-18
7744.70984 7.74192e-18
7746.22801 7.48140e-18
7747.74617 7.22088e-18
7749.27452 7.21218e-18
7750.79268 7.20351e-18
7752.31084 7.32201e-18
7753.82900 7.44053e-18
7755.35735 6.94653e-18
7756.87551 6.45246e-18
7758.39367 7.49594e-18
7759.91183 8.53960e-18
7761.44018 7.71342e-18
7762.95834 6.88700e-18
7764.47650 7.17909e-18
7765.99467 7.47133e-18
7767.52302 8.21256e-18
7769.04118 8.95381e-18
7770.55934 8.30601e-18
7772.07750 7.65802e-18
7773.60585 7.04010e-18
7775.12401 6.42221e-18
7776.64217 7.50251e-18
7778.16033 8.58301e-18
7779.68868 8.69815e-18
7781.20684 8.81313e-18
7782.72500 8.17691e-18
7784.24316 7.54062e-18
7785.77151 7.39244e-18
7787.28968 7.24434e-18
7788.80784 7.78511e-18
7790.32600 8.32595e-18
7791.85435 7.71026e-18
7793.37251 7.09442e-18
7794.89067 7.19541e-18
7796.40883 7.29652e-18
7797.93718 7.70952e-18
7799.45534 8.12254e-18
7800.97350 7.59085e-18
7802.49166 7.05903e-18
7804.02001 7.13881e-18
7805.53817 7.21868e-18
7807.05634 7.00033e-18
7808.57450 6.78195e-18
7810.10285 7.32635e-18
7811.62101 7.87085e-18
7813.13917 7.92664e-18
7814.65733 7.98234e-18
7816.18568 8.43651e-18
7817.70384 8.89071e-18
7819.22200 8.30987e-18
7820.74016 7.72891e-18
7822.26851 7.45874e-18
7823.78667 7.18864e-18
7825.30483 7.16582e-18
7826.82300 7.14304e-18
7828.35135 6.94287e-18
7829.86951 6.74268e-18
7831.38767 8.03809e-18
7832.90583 9.33367e-18
7834.43418 8.35959e-18
7835.95234 7.38521e-18
7837.47050 8.33567e-18
7838.98866 9.28639e-18
7840.51701 9.60489e-18
7842.03517 9.92328e-18
7843.55333 8.68451e-18
7845.07149 7.44556e-18
7846.59984 8.01103e-18
7848.11801 8.57676e-18
7849.63617 8.13757e-18
7851.15433 7.69825e-18
7852.68268 8.32772e-18
7854.20084 8.95733e-18
7855.71900 9.50020e-18
7857.23716 1.00430e-17
7858.76551 8.34419e-18
7860.28367 6.64509e-18
7861.80183 6.08955e-18
7863.31999 5.53422e-18
7864.84834 5.72867e-18
7866.36650 5.92324e-18
7867.88467 6.85109e-18
7869.40283 7.77901e-18
7870.93118 7.52684e-18
7872.44934 7.27450e-18
7873.96750 7.30463e-18
7875.48566 7.33480e-18
7877.01401 7.62646e-18
7878.53217 7.91815e-18
7880.05033 7.85965e-18
7881.56849 7.80109e-18
7883.09684 7.35366e-18
7884.61500 6.90620e-18
7886.13316 6.96551e-18
7887.65133 7.02491e-18
7889.17968 6.90568e-18
7890.69784 6.78642e-18
7892.21600 7.44136e-18
7893.73416 8.09638e-18
7895.26251 7.78223e-18
7896.78067 7.46795e-18
7898.29883 7.37698e-18
7899.81699 7.28606e-18
7901.34534 7.36585e-18
7902.86350 7.44566e-18
7904.38166 7.40533e-18
7905.89982 7.36499e-18
7907.42817 8.37406e-18
7908.94634 9.38325e-18
7910.46450 9.21328e-18
7911.98266 9.04312e-18
7913.51101 8.27206e-18
7915.02917 7.50095e-18
7916.54733 7.54172e-18
7918.06549 7.58262e-18
7919.59384 7.37355e-18
7921.11200 7.16444e-18
7922.63016 7.49239e-18
7924.14832 7.82041e-18
7925.67667 8.14107e-18
7927.19483 8.46170e-18
7928.71300 7.95798e-18
7930.23116 7.45416e-18
7931.75951 7.73663e-18
7933.27767 8.01920e-18
7934.79583 8.56151e-18
7936.31399 9.10384e-18
7937.84234 8.44999e-18
7939.36050 7.79598e-18
7940.87866 7.99419e-18
7942.39682 8.19253e-18
7943.92517 8.05284e-18
7945.44333 7.91312e-18
7946.96149 7.50269e-18
7948.47966 7.09225e-18
7950.00801 7.09144e-18
7951.52617 7.09070e-18
7953.04433 6.70921e-18
7954.56249 6.32768e-18
7956.09084 7.61701e-18
7957.60900 8.90655e-18
7959.12716 8.75862e-18
7960.64532 8.61046e-18
7962.17367 8.12276e-18
7963.69183 7.63503e-18
7965.20999 7.75451e-18
7966.72815 7.87410e-18
7968.25650 8.39408e-18
7969.77467 8.91410e-18
7971.29283 8.91362e-18
7972.81099 8.91305e-18
7974.33934 9.03067e-18
7975.85750 9.14829e-18
7977.37566 9.00012e-18
7978.89382 8.85191e-18
7980.42217 8.70313e-18
7981.94033 8.55435e-18
7983.45849 8.54191e-18
7984.97665 8.52949e-18
7986.50500 8.72033e-18
7988.02316 8.91118e-18
7989.54133 9.08824e-18
7991.05949 9.26527e-18
7992.58784 7.91527e-18
7994.10600 6.56510e-18
7995.62416 6.39046e-18
7997.14232 6.21603e-18
7998.67067 6.57470e-18
8000.18883 6.93343e-18
8001.70699 6.77654e-18
8003.22515 6.61956e-18
8004.75350 7.92760e-18
8006.27166 9.23580e-18
8007.78982 8.72608e-18
8009.30799 8.21608e-18
8010.83634 9.40964e-18
8012.35450 1.06034e-17
8013.87266 1.02230e-17
8015.39082 9.84243e-18
8016.91917 8.39434e-18
8018.43733 6.94616e-18
8019.95549 6.40446e-18
8021.47365 5.86294e-18
8023.00200 7.03470e-18
8024.52016 8.20667e-18
8026.03832 8.31348e-18
8027.55648 8.42011e-18
8029.08483 8.02447e-18
8030.60300 7.62876e-18
8032.12116 8.22451e-18
8033.63932 8.82040e-18
8035.16767 8.53821e-18
8036.68583 8.25589e-18
8038.20399 8.11245e-18
8039.72215 7.96904e-18
8041.25050 8.20507e-18
8042.76866 8.44116e-18
8044.28682 8.68006e-18
8045.80498 8.91896e-18
8047.33333 8.23449e-18
8048.85149 7.54991e-18
8050.36966 7.24340e-18
8051.88782 6.93698e-18
8053.41617 6.74774e-18
8054.93433 6.55854e-18
8056.45249 6.67354e-18
8057.97065 6.78859e-18
8059.49900 7.73612e-18
8061.01716 8.68374e-18
8062.53532 8.65288e-18
8064.05348 8.62187e-18
8065.58183 7.85923e-18
8067.09999 7.09651e-18
8068.61815 7.11576e-18
8070.13632 7.13515e-18
8071.66467 7.27286e-18
8073.18283 7.41059e-18
8074.70099 7.74469e-18
8076.21915 8.07881e-18
8077.74750 7.90584e-18
8079.26566 7.73280e-18
8080.78382 7.80363e-18
8082.30198 7.87450e-18
8083.83033 7.19295e-18
8085.34849 6.51130e-18
8086.86665 6.06232e-18
8088.38481 5.61339e-18
8089.91316 6.50346e-18
8091.43133 7.39370e-18
8092.94949 7.37222e-18
8094.46765 7.35059e-18
8095.99600 6.77587e-18
8097.51416 6.20109e-18
8099.03232 6.36645e-18
8100.55048 6.53193e-18
8102.07883 7.45197e-18
8103.59699 8.37207e-18
8105.11515 7.31733e-18
8106.63331 6.26231e-18
8108.16166 5.83731e-18
8109.67982 5.41244e-18
8111.19799 6.05824e-18
8112.71615 6.70418e-18
8114.24450 7.05039e-18
8115.76266 7.39653e-18
8117.28082 6.94461e-18
8118.79898 6.49259e-18
8120.32733 6.48202e-18
8121.84549 6.47153e-18
8123.36365 6.49786e-18
8124.88181 6.52420e-18
8126.41016 6.93557e-18
8127.92832 7.34698e-18
8129.44648 7.39427e-18
8130.96465 7.44149e-18
8132.49300 7.27088e-18
8134.01116 7.10025e-18
8135.52932 7.43685e-18
8137.04748 7.77351e-18
8138.57583 7.45868e-18
8140.09399 7.14376e-18
8141.61215 6.97090e-18
8143.13031 6.79809e-18
8144.65866 6.36298e-18
8146.17682 5.92785e-18
8147.69498 7.09124e-18
8149.21314 8.25484e-18
8150.73131 7.76605e-18
8152.25966 7.27699e-18
8153.77782 6.65191e-18
8155.29598 6.02684e-18
8156.82433 7.00195e-18
8158.34249 7.97729e-18
8159.86065 7.75364e-18
8161.37881 7.52979e-18
8162.90716 7.70348e-18
8164.42532 7.87723e-18
8165.94348 7.83964e-18
8167.46164 7.80202e-18
8168.98999 7.06763e-18
8170.50815 6.33316e-18
8172.02632 6.17794e-18
8173.54448 6.02282e-18
8175.07283 6.41141e-18
8176.59099 6.80007e-18
8178.10915 6.34238e-18
8179.62731 5.88457e-18
8181.15566 5.18923e-18
8182.67382 4.49389e-18
8184.19198 4.80349e-18
8185.71014 5.11326e-18
8187.23849 5.48489e-18
8188.75665 5.85651e-18
8190.27481 5.90466e-18
8191.79298 5.95274e-18
8193.31114 5.70857e-18
8194.83949 5.46437e-18
8196.35765 6.04336e-18
8197.87581 6.62246e-18
8199.40416 6.50934e-18
8200.92232 6.39612e-18
8202.44048 6.04906e-18
8203.95864 5.70197e-18
8205.48699 5.39712e-18
8207.00515 5.09229e-18
8208.52331 5.05880e-18
8210.04147 5.02537e-18
8211.56982 5.32879e-18
8213.08799 5.63226e-18
8214.60615 5.67973e-18
8216.12431 5.72716e-18
8217.65266 4.98850e-18
8219.17082 4.24975e-18
8220.68898 4.90329e-18
8222.20714 5.55704e-18
8223.72530 6.08184e-18
8225.25365 6.60658e-18
8226.77181 6.07437e-18
8228.28997 5.54200e-18
8229.80813 6.17073e-18
8231.33648 6.79964e-18
8232.85465 6.09588e-18
8234.37281 5.39193e-18
8235.89097 5.30480e-18
8237.41932 5.21779e-18
8238.93748 5.25649e-18
8240.45564 5.29520e-18
8241.98399 4.55564e-18
8243.50215 3.81598e-18
8245.02031 3.95411e-18
8246.53847 4.09239e-18
8248.06682 4.22497e-18
8249.58498 4.35754e-18
8251.10314 4.82184e-18
8252.62131 5.28617e-18
8254.13947 5.41649e-18
8255.66782 5.54675e-18
8257.18598 5.05025e-18
8258.70414 4.55367e-18
8260.22230 4.65928e-18
8261.75065 4.76499e-18
8263.26881 5.40669e-18
8264.78697 6.04845e-18
8266.31532 5.73506e-18
8267.83348 5.42151e-18
8269.35164 5.31684e-18
8270.86980 5.21221e-18
8272.39815 5.87456e-18
8273.91632 6.53701e-18
8275.43448 5.34419e-18
8276.95264 4.15110e-18
8278.48099 4.36083e-18
8279.99915 4.57080e-18
8281.51731 4.18345e-18
8283.03547 3.79600e-18
8284.55363 4.25939e-18
8286.08198 4.72291e-18
8287.60014 5.43822e-18
8289.11830 6.15353e-18
8290.63646 6.03056e-18
8292.16482 5.90745e-18
8293.68298 6.22906e-18
8295.20114 6.55074e-18
8296.71930 5.84481e-18
8298.24765 5.13874e-18
8299.76581 4.71239e-18
8301.28397 4.28611e-18
8302.80213 4.66308e-18
8304.33048 5.04017e-18
8305.84864 4.59709e-18
8307.36680 4.15389e-18
8308.89515 4.64675e-18
8310.41331 5.13976e-18
8311.93147 6.09591e-18
8313.44964 7.05209e-18
8314.97799 6.71860e-18
8316.49615 6.38489e-18
8318.01431 6.20346e-18
8319.53247 6.02206e-18
8321.05063 4.96187e-18
8322.57898 3.90158e-18
8324.09714 3.90389e-18
8325.61530 3.90640e-18
8327.13346 4.78446e-18
8328.66181 5.66262e-18
8330.17997 5.23572e-18
8331.69813 4.80860e-18
8333.22648 4.61570e-18
8334.74465 4.42285e-18
8336.26281 5.30359e-18
8337.78097 6.18448e-18
8339.30932 5.42635e-18
8340.82748 4.66797e-18
8342.34564 4.79122e-18
8343.86380 4.91461e-18
8345.39215 4.28624e-18
8346.91031 3.65776e-18
8348.42847 4.05830e-18
8349.94663 4.45901e-18
8351.46479 5.68490e-18
8352.99314 6.91088e-18
8354.51131 5.67954e-18
8356.02947 4.44782e-18
8357.54763 4.08413e-18
8359.07598 3.72062e-18
8360.59414 4.17527e-18
8362.11230 4.63003e-18
8363.64065 4.85778e-18
8365.15881 5.08548e-18
8366.67697 4.86915e-18
8368.19513 4.65275e-18
8369.71329 5.07573e-18
8371.24164 5.49880e-18
8372.75980 5.14151e-18
8374.27797 4.78410e-18
8375.80632 4.33011e-18
8377.32448 3.87613e-18
8378.84264 4.75935e-18
8380.36080 5.64277e-18
8381.87896 4.71421e-18
8383.40731 3.78537e-18
8384.92547 3.96676e-18
8386.44363 4.14833e-18
8387.97198 4.38054e-18
8389.49014 4.61275e-18
8391.00830 4.51068e-18
8392.52646 4.40856e-18
8394.04463 5.14997e-18
8395.57298 5.89151e-18
8397.09114 5.26500e-18
8398.60930 4.63828e-18
8400.13765 5.00747e-18
8401.65581 5.37683e-18
8403.17397 4.21103e-18
8404.69213 3.04502e-18
8406.22048 2.96738e-18
8407.73864 2.88995e-18
8409.25680 3.56929e-18
8410.77496 4.24874e-18
8412.29313 4.26119e-18
8413.82147 4.27352e-18
8415.33964 4.57560e-18
8416.85780 4.87771e-18
8418.37596 4.49551e-18
8419.90431 4.11321e-18
8421.42247 4.10837e-18
8422.94063 4.10361e-18
8424.45879 4.50725e-18
8425.98714 4.91096e-18
8427.50530 4.34181e-18
8429.02346 3.77252e-18
8430.55181 3.07505e-18
8432.06997 2.37759e-18
8433.58813 2.45685e-18
8435.10630 2.53624e-18
8436.62446 2.80801e-18
8438.15281 3.07980e-18
8439.67097 3.19187e-18
8441.18913 3.30391e-18
8442.70729 3.28722e-18
8444.23564 3.27051e-18
8445.75380 3.20991e-18
8447.27196 3.14931e-18
8448.79012 2.98076e-18
8450.31847 2.81219e-18
8451.83663 3.02943e-18
8453.35479 3.24672e-18
8454.87296 3.15075e-18
8456.40131 3.05473e-18
8457.91947 3.45927e-18
8459.43763 3.86388e-18
8460.95579 3.70805e-18
8462.48414 3.55213e-18
8464.00230 3.37645e-18
8465.52046 3.20077e-18
8467.04881 3.02017e-18
8468.56697 2.83959e-18
8470.08513 3.58317e-18
8471.60329 4.32688e-18
8473.13164 4.10219e-18
8474.64981 3.87732e-18
8476.16797 3.14775e-18
8477.68613 2.41811e-18
8479.20429 2.46383e-18
8480.73264 2.50970e-18
8482.25080 2.88446e-18
8483.76896 3.25925e-18
8485.28712 3.72896e-18
8486.81547 4.19865e-18
8488.33363 3.81696e-18
8489.85179 3.43513e-18
8491.36995 4.01134e-18
8492.89830 4.58769e-18
8494.41647 3.73865e-18
8495.93463 2.88939e-18
8497.45279 3.31931e-18
8498.98114 3.74946e-18
8500.49930 3.76680e-18
8502.01746 3.78406e-18
8503.53562 3.67426e-18
8505.06397 3.56444e-18
8506.58213 4.30597e-18
8508.10029 5.04762e-18
8509.61845 3.83811e-18
8511.14680 2.62830e-18
8512.66496 2.72908e-18
8514.18312 2.83010e-18
8515.70129 3.09426e-18
8517.22964 3.35843e-18
8518.74780 3.51267e-18
8520.26596 3.66689e-18
8521.78412 3.31812e-18
8523.31247 2.96927e-18
8524.83063 3.71168e-18
8526.34879 4.45426e-18
8527.86695 4.28250e-18
8529.39530 4.11058e-18
8530.91346 4.15490e-18
8532.43162 4.19926e-18
8533.95997 5.37012e-18
8535.47813 6.54114e-18
8536.99630 4.98478e-18
8538.51446 3.42798e-18
8540.03262 2.95193e-18
8541.56097 2.47611e-18
8543.07913 3.67018e-18
8544.59729 4.86451e-18
8546.11545 4.86736e-18
8547.64380 4.86998e-18
8549.16196 4.28542e-18
8550.68012 3.70078e-18
8552.19828 3.94242e-18
8553.72663 4.18422e-18
8555.24479 3.75778e-18
8556.76296 3.33123e-18
8558.28112 3.29680e-18
8559.80947 3.26244e-18
8561.32763 3.76422e-18
8562.84579 4.26607e-18
8564.36395 3.98966e-18
8565.89230 3.71312e-18
8567.41046 3.29405e-18
8568.92862 2.87497e-18
8570.44678 3.75608e-18
8571.97513 4.63740e-18
8573.49329 4.96488e-18
8575.01145 5.29224e-18
8576.52962 5.22901e-18
8578.05797 5.16571e-18
8579.57613 4.72211e-18
8581.09429 4.27845e-18
8582.61245 4.47618e-18
8584.14080 4.67402e-18
8585.65896 4.62327e-18
8587.17712 4.57247e-18
8588.69528 4.39099e-18
8590.22363 4.20948e-18
8591.74179 4.59589e-18
8593.25995 4.98239e-18
8594.77811 4.93321e-18
8596.30646 4.88395e-18
8597.82463 4.83658e-18
8599.34279 4.78922e-18
8600.86095 4.69104e-18
8602.38930 4.59286e-18
8603.90746 4.64682e-18
8605.42562 4.70081e-18
8606.94378 4.38453e-18
8608.47213 4.06819e-18
8609.99029 4.11858e-18
8611.50845 4.16904e-18
8613.02661 3.99565e-18
8614.55496 3.82223e-18
8616.07312 4.19733e-18
8617.59129 4.57251e-18
8619.10945 5.39860e-18
8620.63780 6.22473e-18
8622.15596 5.95494e-18
8623.67412 5.68496e-18
8625.19228 5.60890e-18
8626.72063 5.53288e-18
8628.23879 5.10751e-18
8629.75695 4.68209e-18
8631.27511 4.95253e-18
8632.80346 5.22308e-18
8634.32162 5.35124e-18
8635.83978 5.47937e-18
8637.35795 5.00058e-18
8638.88630 4.52169e-18
8640.40446 5.13814e-18
8641.92262 5.75476e-18
8643.44078 6.26081e-18
8644.96913 6.76681e-18
8646.48729 6.27598e-18
8648.00545 5.78498e-18
8649.52361 5.32424e-18
8651.05196 4.86353e-18
8652.57012 4.67578e-18
8654.08828 4.48810e-18
8655.60644 4.58996e-18
8657.13479 4.69187e-18
8658.65296 4.69023e-18
8660.17112 4.68856e-18
8661.68928 6.09333e-18
8663.21763 7.49830e-18
8664.73579 7.66333e-18
8666.25395 7.82812e-18
8667.77211 7.17725e-18
8669.30046 6.52625e-18
8670.81862 5.97379e-18
8672.33678 5.42137e-18
8673.85494 4.92355e-18
8675.38329 4.42576e-18
8676.90145 5.07623e-18
8678.41962 5.72688e-18
8679.93778 5.56971e-18
8681.46613 5.41239e-18
8682.98429 6.11964e-18
8684.50245 6.82703e-18
8686.02061 6.04818e-18
8687.54896 5.26907e-18
8689.06712 5.19810e-18
8690.58528 5.12727e-18
8692.11363 6.04548e-18
8693.63179 6.96384e-18
8695.14995 6.50512e-18
8696.66812 6.04616e-18
8698.18628 6.02497e-18
8699.71463 6.00387e-18
8701.23279 6.45382e-18
8702.75095 6.90385e-18
8704.26911 6.74863e-18
8705.79746 6.59330e-18
8707.31562 6.65434e-18
8708.83378 6.71542e-18
8710.35194 6.03790e-18
8711.88029 5.36028e-18
8713.39845 6.10783e-18
8714.91661 6.85562e-18
8716.43477 6.93091e-18
8717.96312 7.00607e-18
8719.48129 6.54068e-18
8720.99945 6.07521e-18
8722.51761 7.08217e-18
8724.04596 8.08937e-18
8725.56412 6.66486e-18
8727.08228 5.23993e-18
8728.60044 6.25303e-18
8730.12879 7.26656e-18
8731.64695 6.91289e-18
8733.16511 6.55897e-18
8734.68327 6.11049e-18
8736.21162 5.66202e-18
8737.72978 6.21637e-18
8739.24795 6.77090e-18
8740.76611 6.62407e-18
8742.29446 6.47711e-18
8743.81262 6.50435e-18
8745.33078 6.53163e-18
8746.84894 6.57938e-18
8748.37729 6.62713e-18
8749.89545 6.27063e-18
8751.41361 5.91407e-18
8752.93177 6.29870e-18
8754.46012 6.68346e-18
8755.97828 8.16556e-18
8757.49644 9.64781e-18
8759.01461 9.60270e-18
8760.54296 9.55730e-18
8762.06112 7.87194e-18
8763.57928 6.18634e-18
8765.09744 6.99155e-18
8766.62579 7.79721e-18
8768.14395 7.79226e-18
8769.66211 7.78715e-18
8771.18027 7.45108e-18
8772.70862 7.11497e-18
8774.22678 8.38464e-18
8775.74494 9.65458e-18
8777.26310 9.19016e-18
8778.79146 8.72540e-18
8780.30962 7.61877e-18
8781.82778 6.51206e-18
8783.34594 6.78349e-18
8784.87429 7.05518e-18
8786.39245 6.83960e-18
8787.91061 6.62393e-18
8789.42877 6.49082e-18
8790.95712 6.35774e-18
8792.47528 6.05447e-18
8793.99344 5.75119e-18
8795.51160 6.13265e-18
8797.03995 6.51422e-18
8798.55811 6.29115e-18
8800.07628 6.06797e-18
8801.59444 6.94452e-18
8803.12279 7.82125e-18
8804.64095 7.89274e-18
8806.15911 7.96407e-18
8807.67727 7.77923e-18
8809.20562 7.59436e-18
8810.72378 7.36012e-18
8812.24194 7.12589e-18
8813.76010 6.44743e-18
8815.28845 5.76891e-18
8816.80661 5.57915e-18
8818.32477 5.38950e-18
8819.84294 6.19570e-18
8821.37129 7.00207e-18
8822.88945 7.70724e-18
8824.40761 8.41237e-18
8825.92577 9.11670e-18
8827.45412 9.82100e-18
8828.97228 7.87977e-18
8830.49044 5.93810e-18
8832.00860 5.08761e-18
8833.53695 4.23738e-18
8835.05511 4.43932e-18
8836.57327 4.64146e-18
8838.09143 5.45817e-18
8839.61978 6.27496e-18
8841.13795 5.48052e-18
8842.65611 4.68579e-18
8844.17427 4.83109e-18
8845.70262 4.97658e-18
8847.22078 5.27712e-18
8848.73894 5.57769e-18
8850.25710 6.32414e-18
8851.78545 7.07066e-18
8853.30361 7.33483e-18
8854.82177 7.59890e-18
8856.33993 7.16201e-18
8857.86828 6.72499e-18
8859.38644 6.77878e-18
8860.90461 6.83266e-18
8862.42277 6.33238e-18
8863.95112 5.83200e-18
8865.46928 5.15804e-18
8866.98744 4.48407e-18
8868.50560 5.62616e-18
8870.03395 6.76857e-18
8871.55211 6.29776e-18
8873.07027 5.82664e-18
8874.58843 5.78290e-18
8876.11678 5.73926e-18
8877.63494 5.59730e-18
8879.15310 5.45533e-18
8880.67127 4.72494e-18
8882.19962 3.99446e-18
8883.71778 4.78310e-18
8885.23594 5.57203e-18
8886.75410 4.68978e-18
8888.28245 3.80723e-18
8889.80061 4.20328e-18
8891.31877 4.59958e-18
8892.83693 5.07961e-18
8894.36528 5.55964e-18
8895.88344 4.91490e-18
8897.40160 4.26994e-18
8898.91977 4.23816e-18
8900.44811 4.20649e-18
8901.96628 4.86810e-18
8903.48444 5.52983e-18
8905.00260 4.73056e-18
8906.53095 3.93102e-18
8908.04911 4.39080e-18
8909.56727 4.85083e-18
8911.08543 4.49580e-18
8912.61378 4.14061e-18
8914.13194 3.07843e-18
8915.65010 2.01615e-18
8917.16826 2.75762e-18
8918.69661 3.49943e-18
8920.21477 5.22432e-18
8921.73294 6.94935e-18
8923.25110 6.84470e-18
8924.77945 6.73968e-18
8926.29761 6.55252e-18
8927.81577 6.36536e-18
8929.33393 4.53210e-18
8930.86228 2.69858e-18
8932.38044 4.17917e-18
8933.89860 5.66037e-18
8935.41676 5.56815e-18
8936.94511 5.47562e-18
8938.46327 4.12548e-18
8939.98143 2.77513e-18
8941.49960 4.97513e-18
8943.02795 7.17578e-18
8944.54611 5.96371e-18
8946.06427 4.75099e-18
8947.58243 5.08677e-18
8949.11078 5.42285e-18
8950.62894 5.39833e-18
8952.14710 5.37373e-18
8953.66526 5.74234e-18
8955.19361 6.11101e-18
8956.71177 4.97762e-18
8958.22993 3.84396e-18
8959.74809 5.31500e-18
8961.27644 6.78652e-18
8962.79461 5.38545e-18
8964.31277 3.98384e-18
8965.83093 4.61265e-18
8967.35928 5.24186e-18
8968.87744 5.12959e-18
8970.39560 5.01716e-18
8971.91376 5.62243e-18
8973.44211 6.22782e-18
8974.96027 5.28255e-18
8976.47843 4.33700e-18
8977.99659 5.17454e-18
8979.52494 6.01242e-18
8981.04311 5.80714e-18
8982.56127 5.60165e-18
8984.07943 4.77891e-18
8985.60778 3.95607e-18
8987.12594 3.20406e-18
8988.64410 2.45209e-18
8990.16226 3.96594e-18
8991.69061 5.48020e-18
8993.20877 6.19840e-18
8994.72693 6.91642e-18
8996.24509 5.31427e-18
8997.77344 3.71170e-18
8999.29160 2.85785e-18
9000.80976 2.00418e-18
9002.32793 3.20536e-18
9003.85628 4.40693e-18
9005.37444 4.80116e-18
9006.89260 5.19522e-18
9008.41076 5.39281e-18
9009.93911 5.59037e-18
9011.45727 5.13916e-18
9012.97543 4.68783e-18
9014.49359 4.08237e-18
9016.02194 3.47689e-18
9017.54010 3.85090e-18
9019.05826 4.22509e-18
9020.57642 4.37669e-18
9022.10477 4.52823e-18
9023.62294 3.68342e-18
9025.14110 2.83842e-18
9026.65926 3.67812e-18
9028.18761 4.51814e-18
9029.70577 3.82333e-18
9031.22393 3.12822e-18
9032.74209 3.45532e-18
9034.27044 3.78262e-18
9035.78860 4.02018e-18
9037.30676 4.25771e-18
9038.82492 5.98074e-18
9040.35327 7.70403e-18
9041.87143 6.12404e-18
9043.38960 4.54342e-18
9044.90776 4.51162e-18
9046.43611 4.48016e-18
9047.95427 5.13548e-18
9049.47243 5.79092e-18
9050.99059 5.71454e-18
9052.51894 5.63801e-18
9054.03710 5.25563e-18
9055.55526 4.87320e-18
9057.07342 4.38778e-18
9058.60177 3.90235e-18
9060.11993 4.03123e-18
9061.63809 4.16024e-18
9063.15626 5.05191e-18
9064.68461 5.94370e-18
9066.20277 5.24020e-18
9067.72093 4.53638e-18
9069.23909 5.03776e-18
9070.76744 5.53937e-18
9072.28560 5.47562e-18
9073.80376 5.41175e-18
9075.32192 4.93868e-18
9076.85027 4.46553e-18
9078.36843 3.80445e-18
9079.88659 3.14334e-18
9081.40475 3.18331e-18
9082.93311 3.22341e-18
9084.45127 3.63463e-18
9085.96943 4.04591e-18
9087.48759 3.95530e-18
9089.01594 3.86459e-18
9090.53410 4.77920e-18
9092.05226 5.69380e-18
9093.57042 5.94177e-18
9095.09877 6.18960e-18
9096.61693 4.94539e-18
9098.13509 3.70090e-18
9099.65325 4.05885e-18
9101.18160 4.41713e-18
9102.69976 3.49226e-18
9104.21793 2.56716e-18
9105.73609 2.86581e-18
9107.26444 3.16471e-18
9108.78260 3.79573e-18
9110.30076 4.42680e-18
9111.81892 4.00737e-18
9113.34727 3.58772e-18
9114.86543 3.55237e-18
9116.38359 3.51710e-18
9117.90175 3.63537e-18
9119.43010 3.75368e-18
9120.94826 3.24899e-18
9122.46642 2.74418e-18
9123.98459 3.81227e-18
9125.51294 4.88066e-18
9127.03110 4.63269e-18
9128.54926 4.38444e-18
9130.06742 4.36895e-18
9131.59577 4.35351e-18
9133.11393 4.62072e-18
9134.63209 4.88797e-18
9136.15025 4.93135e-18
9137.67860 4.97468e-18
9139.19676 5.20994e-18
9140.71492 5.44524e-18
9142.23308 4.13220e-18
9143.76143 2.81887e-18
9145.27960 3.14839e-18
9146.79776 3.47825e-18
9148.31592 3.50139e-18
9149.84427 3.52446e-18
9151.36243 4.16595e-18
9152.88059 4.80756e-18
9154.39875 4.67679e-18
9155.92710 4.54586e-18
9157.44526 4.80465e-18
9158.96342 5.06352e-18
9160.48158 4.66973e-18
9162.00993 4.27582e-18
9163.52809 4.20733e-18
9165.04626 4.13892e-18
9166.56442 2.98468e-18
9168.09277 1.83024e-18
9169.61093 2.21181e-18
9171.12909 2.59370e-18
9172.64725 2.72710e-18
9174.17560 2.86045e-18
9175.69376 4.53666e-18
9177.21192 6.21314e-18
9178.73008 6.02725e-18
9180.24824 5.84096e-18
9181.77659 5.86217e-18
9183.29476 5.88343e-18
9184.81292 5.32467e-18
9186.34127 4.76580e-18
9187.85943 3.94087e-18
9189.37759 3.11590e-18
9190.89575 3.42231e-18
9192.42410 3.72895e-18
9193.94226 3.71494e-18
9195.46042 3.70087e-18
9196.97858 4.61726e-18
9198.50693 5.53382e-18
9200.02509 6.22309e-18
9201.54325 6.91229e-18
9203.06142 5.18708e-18
9204.58976 3.46140e-18
9206.10793 2.75399e-18
9207.62609 2.04682e-18
9209.14425 2.70187e-18
9210.67260 3.35720e-18
9212.19076 3.17850e-18
9213.70892 2.99963e-18
9215.22708 3.00836e-18
9216.75543 3.01713e-18
9218.27359 2.97001e-18
9219.79175 2.92288e-18
9221.30991 3.21744e-18
9222.83826 3.51206e-18
9224.35642 3.08512e-18
9225.87459 2.65803e-18
9227.39275 3.07462e-18
9228.92110 3.49138e-18
9230.43926 2.93894e-18
9231.95742 2.38632e-18
9233.47558 3.31290e-18
9235.00393 4.23977e-18
9235.65272 4.23977e-18
9237.35031 4.39130e-18
9239.04790 5.09041e-18
9240.74549 6.26278e-18
9242.44307 7.49891e-18
9244.14066 8.16917e-18
9245.83825 8.03006e-18
9247.53584 7.21714e-18
9249.23343 6.00725e-18
9250.93101 4.81549e-18
9252.62860 3.95998e-18
9254.32619 3.59022e-18
9256.02378 3.77042e-18
9257.72137 4.47630e-18
9259.41895 5.32608e-18
9261.11654 5.46978e-18
9262.81413 4.70097e-18
9264.51172 3.85286e-18
9266.20931 3.50207e-18
9267.91694 3.66496e-18
9269.60448 4.11620e-18
9271.31212 4.17785e-18
9272.99966 3.55981e-18
9274.70729 3.04396e-18
9276.40488 3.22487e-18
9278.10247 3.78258e-18
9279.80006 4.25550e-18
9281.49764 4.27168e-18
9283.19523 3.71707e-18
9284.89282 3.29393e-18
9286.59041 3.67887e-18
9288.28800 4.36569e-18
9289.98559 4.59727e-18
9291.68317 4.72510e-18
9293.38076 5.38783e-18
9295.07835 5.93364e-18
9296.77594 5.32189e-18
9298.47353 4.43236e-18
9300.17111 5.06708e-18
9301.86870 6.63939e-18
9303.56629 6.96194e-18
9305.26388 5.87778e-18
9306.96147 4.90895e-18
9308.65905 4.62489e-18
9310.35664 4.73016e-18
9312.05423 4.81896e-18
9313.75182 4.24335e-18
9315.44941 3.41343e-18
9317.14700 4.20251e-18
9318.84458 6.83139e-18
9320.54217 9.06192e-18
9322.23976 9.31043e-18
9323.93735 7.19734e-18
9325.63494 3.35867e-18
9327.33252 2.39862e-19
9329.03011 -7.37188e-19
9330.72770 -9.74663e-19
9332.42529 -1.63974e-18
9334.12288 -2.22975e-18
9335.82046 -2.08351e-18
9337.51805 -8.17032e-19
9339.21564 1.59761e-18
9340.91323 4.37563e-18
9342.61082 6.58989e-18
9344.30840 7.79089e-18
9346.00599 7.85499e-18
9347.70358 6.89561e-18
9349.41121 5.29400e-18
9351.09876 3.90840e-18
9352.80639 3.60254e-18
9354.49393 4.25799e-18
9356.20157 5.11385e-18
9357.89915 5.54314e-18
9359.59674 5.10835e-18
9361.29433 4.02549e-18
9362.99192 3.07469e-18
9364.68951 2.39899e-18
9366.38709 1.54163e-18
9368.08468 6.41436e-19
9369.78227 4.04642e-19
9371.47986 1.16086e-18
9373.17745 2.84723e-18
9374.87504 4.69521e-18
9376.57262 4.90346e-18
9378.27021 3.20765e-18
9379.96780 1.89585e-18
9381.66539 2.30082e-18
9383.36298 3.73904e-18
9385.06056 5.32147e-18
9386.75815 6.02802e-18
9388.45574 5.52401e-18
9390.15333 5.29629e-18
9391.85092 6.33583e-18
9393.54850 7.37313e-18
9395.24609 7.26021e-18
9396.94368 6.66341e-18
9398.64127 6.45996e-18
9400.33886 6.71560e-18
9402.03644 7.13157e-18
9403.73403 6.95479e-18
9405.43162 5.57774e-18
9407.12921 3.66728e-18
9408.82680 2.42188e-18
9410.52439 2.54195e-18
9412.22197 4.18498e-18
9413.91956 6.46124e-18
9415.61715 7.85735e-18
9417.31474 7.68828e-18
9419.01233 6.07986e-18
9420.70991 3.99507e-18
9422.40750 3.08745e-18
9424.10509 3.37513e-18
9425.80268 3.14789e-18
9427.50027 2.20200e-18
9429.19785 2.10315e-18
9430.89544 3.11413e-18
9432.59303 3.77405e-18
9434.29062 3.64354e-18
9435.98821 3.87723e-18
9437.69584 4.97449e-18
9439.39343 6.26718e-18
9441.09102 7.08323e-18
9442.78860 6.81133e-18
9444.48619 5.42464e-18
9446.18378 4.15226e-18
9447.88137 3.92130e-18
9449.57896 4.44263e-18
9451.27654 5.15028e-18
9452.97413 5.45787e-18
9454.67172 5.02132e-18
9456.36931 4.18677e-18
9458.06690 3.53328e-18
9459.76449 3.68603e-18
9461.46207 4.95254e-18
9463.15966 6.42930e-18
9464.85725 6.92523e-18
9466.55484 6.54653e-18
9468.25243 6.04360e-18
9469.95001 5.66316e-18
9471.64760 5.34093e-18
9473.34519 4.88384e-18
9475.04278 4.02293e-18
9476.74037 2.83840e-18
9478.43795 1.72739e-18
9480.13554 1.48026e-18
9481.83313 3.16995e-18
9483.53072 6.12566e-18
9485.22831 7.78393e-18
9486.92589 7.36028e-18
9488.62348 6.37461e-18
9490.32107 5.71881e-18
9492.01866 5.33703e-18
9493.71625 5.09005e-18
9495.41384 4.59976e-18
9497.11142 3.87754e-18
9498.80901 3.81773e-18
9500.50660 4.76172e-18
9502.20419 5.69367e-18
9503.90178 5.90701e-18
9505.59936 5.94025e-18
9507.29695 6.20186e-18
9508.99454 6.11606e-18
9510.69213 5.22656e-18
9512.38972 4.03827e-18
9514.08730 3.14873e-18
9515.78489 2.38831e-18
9517.48248 1.56349e-18
9519.19011 1.59275e-18
9520.88770 3.31585e-18
9522.58529 5.41776e-18
9524.28288 5.95606e-18
9525.98047 5.14542e-18
9527.67805 4.39267e-18
9529.37564 4.38027e-18
9531.07323 5.23343e-18
9532.77082 6.45230e-18
9534.46841 7.02484e-18
9536.16599 6.70538e-18
9537.86358 5.99624e-18
9539.56117 5.32995e-18
9541.25876 5.07392e-18
9542.95635 5.18623e-18
9544.65394 5.09862e-18
9546.35152 4.53200e-18
9548.04911 3.62941e-18
9549.74670 2.65749e-18
9551.44429 2.00213e-18
9553.14188 2.03519e-18
9554.83946 3.21506e-18
9556.53705 5.20554e-18
9558.23464 5.98362e-18
9559.93223 4.68203e-18
9561.62982 3.54319e-18
9563.32740 4.17070e-18
9565.02499 5.28156e-18
9566.72258 5.50834e-18
9568.42017 4.86015e-18
9570.11776 3.80275e-18
9571.81534 3.09094e-18
9573.51293 3.38883e-18
9575.21052 4.69890e-18
9576.90811 6.61021e-18
9578.60570 8.42325e-18
9580.30329 9.41054e-18
9582.00087 9.30885e-18
9583.69846 8.24848e-18
9585.39605 6.61993e-18
9587.09364 4.98708e-18
9588.79123 3.85838e-18
9590.48881 3.58441e-18
9592.18640 3.88353e-18
9593.88399 3.95447e-18
9595.58158 3.91758e-18
9597.27917 4.78140e-18
9598.97675 6.30619e-18
9600.67434 6.90002e-18
9602.38198 6.21940e-18
9604.07956 5.50607e-18
9605.76711 5.37893e-18
9607.47474 5.52157e-18
9609.17233 5.61718e-18
9610.86992 5.35650e-18
9612.56750 4.66875e-18
9614.26509 3.94129e-18
9615.96268 3.54149e-18
9617.66027 3.71427e-18
9619.35786 4.41530e-18
9621.05544 5.03183e-18
9622.75303 5.02950e-18
9624.45062 4.26966e-18
9626.14821 2.99330e-18
9627.84580 2.19489e-18
9629.54339 2.71044e-18
9631.24097 4.21021e-18
9632.93856 5.91262e-18
9634.63615 7.13673e-18
9636.33374 7.40641e-18
9638.03133 6.83476e-18
9639.72891 5.90073e-18
9641.42650 5.05190e-18
9643.12409 4.63829e-18
9644.82168 4.59556e-18
9646.51927 4.56879e-18
9648.21685 4.55635e-18
9649.91444 4.81194e-18
9651.61203 5.50495e-18
9653.30962 6.73391e-18
9655.00721 7.69125e-18
9656.70479 6.65964e-18
9658.40238 4.09158e-18
9660.09997 3.01717e-18
9661.79756 4.67818e-18
9663.49515 7.84203e-18
9665.19274 1.09712e-17
9666.89032 1.21516e-17
9668.58791 1.07877e-17
9670.28550 8.72475e-18
9671.98309 7.42932e-18
9673.68068 7.05898e-18
9675.37826 7.33208e-18
9677.07585 7.40328e-18
9678.77344 6.58925e-18
9680.47103 4.83923e-18
9682.16862 2.56079e-18
9683.86620 9.67159e-19
9685.56379 9.79927e-19
9687.26138 2.04277e-18
9688.96901 3.14348e-18
9690.66660 3.49687e-18
9692.36419 2.72753e-18
9694.06178 1.70415e-18
9695.75937 1.62853e-18
9697.45695 2.24317e-18
9699.15454 2.55967e-18
9700.85213 2.30423e-18
9702.54972 1.68881e-18
9704.24731 1.17669e-18
9705.94489 1.39194e-18
9707.64248 2.23045e-18
9709.34007 2.94431e-18
9711.03766 3.18602e-18
9712.73525 3.01425e-18
9714.43283 2.71923e-18
9716.13042 2.87870e-18
9717.82801 3.53701e-18
9719.52560 4.02527e-18
9721.22319 3.94368e-18
9722.92078 3.28491e-18
9724.61836 2.37950e-18
9726.31595 2.12344e-18
9728.01354 2.87230e-18
9729.71113 3.87946e-18
9731.40872 4.50719e-18
9733.10630 4.60790e-18
9734.80389 4.29312e-18
9736.50148 4.13063e-18
9738.19907 4.50211e-18
9739.89666 5.08694e-18
9741.59424 5.40944e-18
9743.29183 4.93433e-18
9744.98942 3.50166e-18
9746.68701 2.33645e-18
9748.38460 2.63640e-18
9750.08219 3.53968e-18
9751.77977 3.57740e-18
9753.47736 2.59103e-18
9755.17495 1.20858e-18
9756.87254 6.02567e-19
9758.57013 1.96815e-18
9760.26771 4.42205e-18
9761.96530 5.72160e-18
9763.66289 5.11975e-18
9765.36048 3.19867e-18
9767.05807 1.22446e-18
9768.75565 1.08298e-18
9770.45324 2.80226e-18
9772.16088 4.31885e-18
9773.85846 4.84090e-18
9775.55605 5.17432e-18
9777.25364 5.78711e-18
9778.95123 6.72504e-18
9780.64882 7.82129e-18
9782.34640 8.55227e-18
9784.04399 8.51375e-18
9785.74158 7.52314e-18
9787.43917 5.79741e-18
9789.13676 4.30148e-18
9790.83434 3.62343e-18
9792.53193 3.25622e-18
9794.22952 2.68840e-18
9795.92711 1.85516e-18
9797.62470 9.37954e-19
9799.32228 6.74605e-19
9801.01987 1.52359e-18
9802.71746 2.45977e-18
9804.41505 2.41132e-18
9806.11264 2.02936e-18
9807.81023 2.37851e-18
9809.50781 3.36937e-18
9811.20540 4.34928e-18
9812.90299 4.55392e-18
9814.60058 3.38468e-18
9816.29817 1.64360e-18
9817.99575 9.34052e-19
9819.69334 1.40861e-18
9821.39093 2.10138e-18
9823.08852 2.70353e-18
9824.78611 3.42566e-18
9826.48369 4.00958e-18
9828.18128 3.83175e-18
9829.87887 3.11195e-18
9831.57646 2.98994e-18
9833.27405 3.90111e-18
9834.97163 5.36019e-18
9836.66922 6.70187e-18
9838.36681 7.01138e-18
9840.06440 6.06326e-18
9841.76199 4.84769e-18
9843.45958 4.10281e-18
9845.15716 3.83971e-18
9846.85475 3.91214e-18
9848.55234 4.00940e-18
9850.24993 3.91003e-18
9851.94752 3.79018e-18
9853.65515 3.76855e-18
9855.34269 3.49439e-18
9857.05033 2.74313e-18
9858.74791 2.07454e-18
9860.44550 2.02188e-18
9862.14309 2.02626e-18
9863.84068 1.47205e-18
9865.53827 1.35074e-18
9867.23585 2.86739e-18
9868.93344 4.76264e-18
9870.63103 4.99533e-18
9872.32862 4.68502e-18
9874.02621 6.40126e-18
9875.72379 9.33208e-18
9877.42138 1.04887e-17
9879.11897 8.54726e-18
9880.81656 3.70336e-18
9882.51415 -1.74878e-18
9884.21173 -3.60096e-18
9885.90932 -1.36317e-18
9887.60691 1.28376e-18
9889.30450 2.23732e-18
9891.00209 1.38007e-18
9892.69968 -3.29974e-19
9894.39726 -2.36252e-19
9896.09485 2.35739e-18
9897.79244 4.77358e-18
9899.49003 5.13820e-18
9901.18762 3.35366e-18
9902.88520 2.26312e-19
9904.58279 -1.89887e-18
9906.28038 -1.63270e-18
9907.97797 -3.85386e-19
9909.67556 4.13734e-19
9911.37314 7.62466e-19
9913.07073 9.85827e-19
9914.76832 1.44309e-18
9916.46591 2.37606e-18
9918.16350 3.54190e-18
9919.86108 4.51721e-18
9921.55867 4.91802e-18
9923.25626 4.53486e-18
9924.95385 3.65803e-18
9926.65144 2.82457e-18
9928.34903 2.50920e-18
9930.04661 2.97706e-18
9931.74420 3.56098e-18
9933.44179 3.11288e-18
9935.14942 1.93563e-18
9936.83697 1.39806e-18
9938.54460 1.70618e-18
9940.23214 2.06170e-18
9941.93978 2.03345e-18
9943.63736 1.51017e-18
9945.33495 7.67616e-19
9947.03254 6.17684e-19
9948.73013 9.63775e-19
9950.42772 4.18241e-19
9952.12530 -1.25381e-18
9953.82289 -2.48904e-18
9955.52048 -2.33547e-18
9957.21807 -1.05491e-18
9958.91566 9.48700e-19
9960.61324 3.20811e-18
9962.31083 5.33154e-18
9964.00842 7.34552e-18
9965.70601 9.04487e-18
9967.40360 9.39149e-18
9969.10118 7.79883e-18
9970.79877 5.07327e-18
9972.49636 2.41580e-18
9974.19395 1.04163e-18
9975.89154 1.64045e-18
9977.58913 3.36001e-18
9979.28671 4.82583e-18
9980.98430 5.36243e-18
9982.68189 4.77978e-18
9984.37948 3.22976e-18
9986.07707 1.20851e-18
9987.77465 -5.40584e-19
9989.47224 -1.26234e-18
9991.16983 -6.19151e-19
9992.86742 1.24932e-18
9994.56501 3.10205e-18
9996.26259 2.95751e-18
9997.96018 1.33547e-18
9999.65777 1.13534e-18
