# wavelength flux
3484.99972 2.27823e-17
3486.46996 2.10089e-17
3487.94020 2.81518e-17
3489.41044 2.58981e-17
3490.88068 1.51742e-17
3492.35092 1.74430e-17
3493.82116 2.90839e-17
3495.29140 2.65852e-17
3496.76164 2.86894e-17
3498.23188 2.77374e-17
3499.70212 2.01053e-17
3501.17236 1.69336e-17
3502.64260 1.99260e-17
3504.11284 2.97126e-17
3505.58308 3.06694e-17
3507.05332 2.43108e-17
3508.52356 1.49982e-17
3509.99380 1.36718e-17
3511.46404 2.58708e-17
3512.93428 2.22498e-17
3514.40452 2.16897e-17
3515.87476 1.92625e-17
3517.34500 2.03503e-17
3518.80503 2.09933e-17
3520.27527 2.88133e-17
3521.74551 3.05166e-17
3523.21575 1.55880e-17
3524.68599 1.40410e-17
3526.15623 1.88244e-17
3527.62647 2.38305e-17
3529.09671 2.76523e-17
3530.56695 2.57933e-17
3532.03719 1.64202e-17
3533.50743 1.89260e-17
3534.97767 3.13641e-17
3536.44791 3.08782e-17
3537.91815 1.72513e-17
3539.38839 1.78659e-17
3540.85863 1.75993e-17
3542.32887 1.95878e-17
3543.79911 2.16223e-17
3545.26935 2.18399e-17
3546.73959 2.25400e-17
3548.20983 2.57983e-17
3549.68007 3.06678e-17
3551.15031 2.15651e-17
3552.62055 1.98373e-17
3554.09079 2.95641e-17
3555.56103 2.09331e-17
3557.03127 2.46816e-17
3558.50151 3.08240e-17
3559.97175 2.03871e-17
3561.44199 2.41681e-17
3562.91223 2.15364e-17
3564.38247 2.07450e-17
3565.85271 3.31847e-17
3567.32295 2.19968e-17
3568.79319 2.48685e-17
3570.26343 2.63766e-17
3571.73367 2.44303e-17
3573.20391 2.27275e-17
3574.67415 2.98227e-17
3576.14439 2.58895e-17
3577.61463 2.22362e-17
3579.08487 3.07251e-17
3580.55511 2.57478e-17
3582.01514 2.33170e-17
3583.48538 2.31742e-17
3584.95562 2.56842e-17
3586.42586 2.59059e-17
3587.89610 2.22507e-17
3589.36634 2.74384e-17
3590.83658 2.02920e-17
3592.30682 1.51693e-17
3593.77706 1.57294e-17
3595.24730 2.31325e-17
3596.71754 1.76362e-17
3598.18778 2.07369e-17
3599.65802 2.33369e-17
3601.12826 2.72855e-17
3602.59850 3.05050e-17
3604.06874 2.25262e-17
3605.53898 1.80573e-17
3607.00922 2.37475e-17
3608.47946 2.64946e-17
3609.94970 2.93035e-17
3611.41994 2.42594e-17
3612.89018 2.52824e-17
3614.36042 2.96539e-17
3615.83066 2.49229e-17
3617.30090 3.08643e-17
3618.77114 2.16420e-17
3620.24138 1.80801e-17
3621.71162 2.19268e-17
3623.18186 2.71719e-17
3624.65210 2.80294e-17
3626.12234 2.40350e-17
3627.59258 2.27697e-17
3629.06282 2.44891e-17
3630.53306 1.76357e-17
3632.00330 1.41101e-17
3633.47354 1.83791e-17
3634.94378 2.62315e-17
3636.41402 2.68735e-17
3637.88426 3.33531e-17
3639.35450 3.03855e-17
3640.82474 2.74191e-17
3642.29498 2.44537e-17
3643.75501 2.44493e-17
3645.22525 2.52525e-17
3646.69549 2.83950e-17
3648.16573 2.50301e-17
3649.63597 1.86415e-17
3651.10621 2.21454e-17
3652.57645 2.54700e-17
3654.04669 2.39760e-17
3655.51693 1.73400e-17
3656.98717 1.50590e-17
3658.45741 2.12596e-17
3659.92765 2.16025e-17
3661.39789 2.07925e-17
3662.86813 2.02779e-17
3664.33837 2.32691e-17
3665.80861 3.08038e-17
3667.27885 2.07669e-17
3668.74909 1.18737e-17
3670.21933 1.79294e-17
3671.68957 1.94718e-17
3673.15981 1.62900e-17
3674.63005 1.46891e-17
3676.10029 1.92151e-17
3677.57053 2.17357e-17
3679.04077 2.68653e-17
3680.51101 1.87279e-17
3681.98125 2.27737e-17
3683.45149 2.48987e-17
3684.92173 2.22844e-17
3686.39197 2.44289e-17
3687.86221 2.10308e-17
3689.33245 2.16023e-17
3690.80269 2.09379e-17
3692.27293 1.87553e-17
3693.74317 2.30060e-17
3695.21341 2.39833e-17
3696.68365 2.03205e-17
3698.15389 2.10573e-17
3699.62413 2.68935e-17
3701.09437 1.95832e-17
3702.56461 1.69443e-17
3704.03485 2.53424e-17
3705.49488 2.46077e-17
3706.96512 2.71020e-17
3708.43536 2.31294e-17
3709.90560 2.19841e-17
3711.37584 2.53095e-17
3712.84608 1.78410e-17
3714.31632 1.85906e-17
3715.78656 1.88975e-17
3717.25680 2.90966e-17
3718.72704 2.25579e-17
3720.19728 1.76148e-17
3721.66752 1.87184e-17
3723.13776 2.14536e-17
3724.60800 2.30818e-17
3726.07824 2.41700e-17
3727.54848 1.85762e-17
3729.01872 1.85168e-17
3730.48896 1.92177e-17
3731.95920 2.20992e-17
3733.42944 2.30683e-17
3734.89968 2.03250e-17
3736.36992 2.24657e-17
3737.84016 2.55812e-17
3739.31040 2.24652e-17
3740.78064 1.68613e-17
3742.25088 1.36256e-17
3743.72112 2.16525e-17
3745.19136 2.27806e-17
3746.66160 1.99263e-17
3748.13184 1.71151e-17
3749.60208 1.52356e-17
3751.07232 1.74264e-17
3752.54256 1.91886e-17
3754.01280 2.03987e-17
3755.48304 2.07612e-17
3756.95328 1.80719e-17
3758.42352 1.99686e-17
3759.89376 1.80513e-17
3761.36400 1.73668e-17
3762.83424 1.46819e-17
3764.30448 1.72524e-17
3765.77472 1.70389e-17
3767.24496 1.68275e-17
3768.70499 1.81415e-17
3770.17523 1.77348e-17
3771.64547 1.55454e-17
3773.11571 1.38506e-17
3774.58595 1.55095e-17
3776.05619 1.75344e-17
3777.52643 1.49741e-17
3778.99667 1.33024e-17
3780.46691 1.44182e-17
3781.93715 1.16217e-17
3783.40739 1.40179e-17
3784.87763 1.56252e-17
3786.34787 1.31001e-17
3787.81811 1.16307e-17
3789.28835 6.24690e-18
3790.75859 9.20823e-18
3792.22883 1.27128e-17
3793.69907 1.94647e-17
3795.16931 1.61215e-17
3796.63955 1.72077e-17
3798.10979 1.40570e-17
3799.58003 4.71732e-18
3801.05027 9.09688e-18
3802.52051 1.05961e-17
3803.99075 1.05938e-17
3805.46099 1.11752e-17
3806.93123 8.62487e-18
3808.40147 1.13507e-17
3809.87171 1.03003e-17
3811.34195 1.09286e-17
3812.81219 1.16639e-17
3814.28243 9.38770e-18
3815.75267 8.67548e-18
3817.22291 1.34095e-17
3818.69315 1.07931e-17
3820.16339 9.37450e-18
3821.63363 1.14133e-17
3823.10387 1.48540e-17
3824.57411 1.35382e-17
3826.04435 1.41857e-17
3827.51459 1.55027e-17
3828.98483 1.18066e-17
3830.44486 1.07240e-17
3831.91510 9.85902e-18
3833.38534 8.53438e-18
3834.85558 1.06902e-17
3836.32582 1.01087e-17
3837.79606 7.80894e-18
3839.26630 7.92427e-18
3840.73654 5.93477e-18
3842.20678 9.00660e-18
3843.67702 1.33453e-17
3845.14726 9.35918e-18
3846.61750 4.48244e-18
3848.08774 7.76615e-18
3849.55798 1.09303e-17
3851.02822 1.25551e-17
3852.49846 1.19470e-17
3853.96870 1.00724e-17
3855.43894 1.27489e-17
3856.90918 1.11182e-17
3858.37942 1.00460e-17
3859.84966 7.99025e-18
3861.31990 8.25069e-18
3862.79014 9.03482e-18
3864.26038 8.31970e-18
3865.73062 5.86272e-18
3867.20086 1.12159e-17
3868.67110 1.29474e-17
3870.14134 1.32988e-17
3871.61158 1.23735e-17
3873.08182 1.00597e-17
3874.55206 9.51744e-18
3876.02230 9.45450e-18
3877.49254 8.13396e-18
3878.96278 8.29765e-18
3880.43302 9.71141e-18
3881.90326 1.05957e-17
3883.37350 1.12748e-17
3884.84374 1.61657e-17
3886.31398 1.30309e-17
3887.78422 1.19788e-17
3889.25446 1.28152e-17
3890.72470 1.40856e-17
3892.19494 1.33508e-17
3893.65497 1.66643e-17
3895.12521 1.67956e-17
3896.59545 1.60326e-17
3898.06569 9.93357e-18
3899.53593 1.08503e-17
3901.00617 1.36553e-17
3902.47641 1.54274e-17
3903.94665 1.19364e-17
3905.41689 1.69370e-17
3906.88713 1.83057e-17
3908.35737 1.31885e-17
3909.82761 1.54524e-17
3911.29785 1.52558e-17
3912.76809 1.85662e-17
3914.23833 1.77722e-17
3915.70857 1.63457e-17
3917.17881 1.42231e-17
3918.64905 1.42759e-17
3920.11929 1.78803e-17
3921.58953 1.81450e-17
3923.05977 1.97271e-17
3924.53001 1.54242e-17
3926.00025 1.93150e-17
3927.47049 1.87437e-17
3928.94073 1.33500e-17
3930.41097 1.72917e-17
3931.88121 1.77004e-17
3933.35145 2.37056e-17
3934.82169 2.28588e-17
3936.29193 2.15643e-17
3937.76217 2.03493e-17
3939.23241 1.79387e-17
3940.70265 1.92631e-17
3942.17289 2.18496e-17
3943.64313 2.14328e-17
3945.11337 2.17192e-17
3946.58361 2.13039e-17
3948.05385 1.71936e-17
3949.52409 2.18295e-17
3950.99433 2.54679e-17
3952.46457 2.07714e-17
3953.93481 2.13561e-17
3955.39484 2.44890e-17
3956.86508 2.65263e-17
3958.33532 2.68388e-17
3959.80556 2.30250e-17
3961.27580 2.00895e-17
3962.74604 2.32879e-17
3964.21628 2.42907e-17
3965.68652 2.39093e-17
3967.15676 2.30695e-17
3968.62700 2.25000e-17
3970.09724 2.46209e-17
3971.56748 2.65851e-17
3973.03772 2.76148e-17
3974.50796 2.51588e-17
3975.97820 2.52347e-17
3977.44844 2.68173e-17
3978.91868 2.91109e-17
3980.38892 2.86958e-17
3981.85916 2.63661e-17
3983.32940 2.60281e-17
3984.79964 2.54514e-17
3986.26988 2.81653e-17
3987.74012 2.67053e-17
3989.21036 2.49339e-17
3990.68060 2.72576e-17
3992.15084 2.82192e-17
3993.62108 3.17477e-17
3995.09132 3.00909e-17
3996.56156 2.44885e-17
3998.03180 2.87316e-17
3999.50204 3.03851e-17
4000.97228 2.94848e-17
4002.44252 3.08422e-17
4003.91276 2.86477e-17
4005.38300 2.69302e-17
4006.85324 2.77515e-17
4008.32348 2.57639e-17
4009.79372 2.78079e-17
4011.26396 2.96678e-17
4012.73420 3.07638e-17
4014.20444 2.78406e-17
4015.67468 2.79959e-17
4017.13471 2.91203e-17
4018.60495 2.71144e-17
4020.07519 2.75048e-17
4021.54543 2.69915e-17
4023.01567 2.87688e-17
4024.48591 2.64805e-17
4025.95615 2.61624e-17
4027.42639 2.92637e-17
4028.89663 3.09879e-17
4030.36687 3.07962e-17
4031.83711 2.71119e-17
4033.30735 3.11824e-17
4034.77759 2.97922e-17
4036.24783 3.04678e-17
4037.71807 2.70460e-17
4039.18831 2.91978e-17
4040.65855 2.93210e-17
4042.12879 2.74746e-17
4043.59903 3.09168e-17
4045.06927 3.10814e-17
4046.53951 2.91050e-17
4048.00975 3.26176e-17
4049.47999 2.85308e-17
4050.95023 2.86311e-17
4052.42047 2.83171e-17
4053.89071 2.89155e-17
4055.36095 2.64853e-17
4056.83119 2.66537e-17
4058.30143 2.66534e-17
4059.77167 2.53908e-17
4061.24191 3.28595e-17
4062.71215 2.95242e-17
4064.18239 2.72760e-17
4065.65263 2.87292e-17
4067.12287 2.72298e-17
4068.59311 2.75845e-17
4070.06335 2.90562e-17
4071.53359 2.84434e-17
4073.00383 2.86885e-17
4074.47407 2.71368e-17
4075.94431 2.76640e-17
4077.41455 2.96176e-17
4078.88479 2.98580e-17
4080.35503 3.02790e-17
4081.81506 3.05417e-17
4083.28530 2.64072e-17
4084.75554 2.76276e-17
4086.22578 2.99920e-17
4087.69602 2.75832e-17
4089.16626 2.54725e-17
4090.63650 2.81371e-17
4092.10674 2.73654e-17
4093.57698 2.69256e-17
4095.04722 2.76302e-17
4096.51746 2.47430e-17
4097.98770 2.34870e-17
4099.45794 2.64687e-17
4100.92818 2.54478e-17
4102.39842 2.07630e-17
4103.86866 2.36771e-17
4105.33890 2.48351e-17
4106.80914 2.25436e-17
4108.27938 2.57993e-17
4109.74962 2.36506e-17
4111.21986 2.40787e-17
4112.69010 2.65331e-17
4114.16034 2.54208e-17
4115.63058 2.58150e-17
4117.10082 2.46967e-17
4118.57106 2.58731e-17
4120.04130 2.39542e-17
4121.51154 2.16070e-17
4122.98178 2.43365e-17
4124.45202 2.29855e-17
4125.92226 2.11124e-17
4127.39250 2.42303e-17
4128.86274 2.51068e-17
4130.33298 2.42782e-17
4131.80322 2.22635e-17
4133.27346 2.18868e-17
4134.74370 2.68397e-17
4136.21394 2.45969e-17
4137.68418 2.31748e-17
4139.15442 2.53696e-17
4140.62466 2.53862e-17
4142.09490 2.45034e-17
4143.55493 2.25159e-17
4145.02517 2.47003e-17
4146.49541 2.25407e-17
4147.96565 1.97508e-17
4149.43589 2.12325e-17
4150.90613 2.15165e-17
4152.37637 2.06927e-17
4153.84661 1.94968e-17
4155.31685 2.26549e-17
4156.78709 2.51783e-17
4158.25733 2.26223e-17
4159.72757 2.34023e-17
4161.19781 2.41686e-17
4162.66805 2.17094e-17
4164.13829 2.02071e-17
4165.60853 2.08568e-17
4167.07877 2.09910e-17
4168.54901 2.11208e-17
4170.01925 2.11002e-17
4171.48949 2.11223e-17
4172.95973 2.10997e-17
4174.42997 1.97034e-17
4175.90021 2.24841e-17
4177.37045 2.15606e-17
4178.84069 2.17527e-17
4180.31093 2.43587e-17
4181.78117 2.31058e-17
4183.25141 2.24901e-17
4184.72165 2.33078e-17
4186.19189 2.37071e-17
4187.66213 2.34180e-17
4189.13237 2.13385e-17
4190.60261 2.11055e-17
4192.07285 2.18982e-17
4193.54309 2.49153e-17
4195.01333 2.40256e-17
4196.48357 2.35548e-17
4197.95381 2.16040e-17
4199.42405 2.32367e-17
4200.89429 2.37360e-17
4202.36453 2.43648e-17
4203.83477 2.08274e-17
4205.29480 2.17029e-17
4206.76504 2.44910e-17
4208.23528 2.63338e-17
4209.70552 2.64531e-17
4211.17576 2.40736e-17
4212.64600 2.05679e-17
4214.11624 2.24665e-17
4215.58648 2.25326e-17
4217.05672 2.15793e-17
4218.52696 2.19866e-17
4219.99720 2.25400e-17
4221.46744 2.38127e-17
4222.93768 2.14992e-17
4224.40792 2.47134e-17
4225.87816 2.49073e-17
4227.34840 2.13233e-17
4228.81864 2.27859e-17
4230.28888 2.46533e-17
4231.75912 2.25866e-17
4233.22936 2.11293e-17
4234.69960 2.22344e-17
4236.16984 2.29317e-17
4237.64008 2.26727e-17
4239.11032 2.28779e-17
4240.58056 2.30051e-17
4242.05080 2.41528e-17
4243.52104 2.25526e-17
4244.99128 2.28714e-17
4246.46152 2.29028e-17
4247.93176 2.13415e-17
4249.40200 2.21436e-17
4250.87224 2.24921e-17
4252.34248 2.37375e-17
4253.81272 2.15591e-17
4255.28296 2.02204e-17
4256.75320 2.36452e-17
4258.22344 2.29524e-17
4259.69368 2.12972e-17
4261.16392 2.22682e-17
4262.63416 2.32808e-17
4264.10440 2.28056e-17
4265.56443 2.15033e-17
4267.03467 2.29138e-17
4268.50491 2.29758e-17
4269.97515 2.31971e-17
4271.44539 2.19729e-17
4272.91563 2.50324e-17
4274.38587 2.46954e-17
4275.85611 2.09481e-17
4277.32635 2.16031e-17
4278.79659 2.09999e-17
4280.26683 2.17352e-17
4281.73707 2.17278e-17
4283.20731 2.06621e-17
4284.67755 2.24479e-17
4286.14779 2.24993e-17
4287.61803 2.17113e-17
4289.08827 2.08244e-17
4290.55851 1.98189e-17
4292.02875 2.10740e-17
4293.49899 2.30114e-17
4294.96923 2.31133e-17
4296.43947 2.19933e-17
4297.90971 2.16532e-17
4299.37995 2.11929e-17
4300.85019 2.27690e-17
4302.32043 2.25122e-17
4303.79067 2.25216e-17
4305.26091 2.29315e-17
4306.73115 2.26099e-17
4308.20139 2.09260e-17
4309.67163 2.13505e-17
4311.14187 2.23574e-17
4312.61211 2.17801e-17
4314.08235 2.23887e-17
4315.55259 2.23666e-17
4317.02283 2.13819e-17
4318.49307 2.30762e-17
4319.96331 2.25345e-17
4321.43355 2.28807e-17
4322.90379 2.34750e-17
4324.37403 2.25611e-17
4325.84427 2.46145e-17
4327.31451 2.18571e-17
4328.78475 1.98733e-17
4330.25499 2.13417e-17
4331.71502 2.29243e-17
4333.18526 2.19883e-17
4334.65550 2.16393e-17
4336.12574 2.36032e-17
4337.59598 2.14558e-17
4339.06622 2.01110e-17
4340.53646 2.01047e-17
4342.00670 2.16844e-17
4343.47694 2.09935e-17
4344.94718 2.20778e-17
4346.41742 2.07011e-17
4347.88766 2.22710e-17
4349.35790 2.22371e-17
4350.82814 1.81833e-17
4352.29838 2.11402e-17
4353.76862 2.53776e-17
4355.23886 2.31506e-17
4356.70910 2.29059e-17
4358.17934 2.01715e-17
4359.64958 2.17767e-17
4361.11982 2.11255e-17
4362.59006 2.12426e-17
4364.06030 2.03069e-17
4365.53054 2.08997e-17
4367.00078 2.05488e-17
4368.47102 2.11945e-17
4369.94126 1.96682e-17
4371.41150 2.14033e-17
4372.88174 2.36875e-17
4374.35198 2.30584e-17
4375.82222 2.09712e-17
4377.29246 2.01573e-17
4378.76270 1.84849e-17
4380.23294 2.01739e-17
4381.70318 2.20135e-17
4383.17342 1.92527e-17
4384.64366 1.95262e-17
4386.11390 2.04169e-17
4387.58414 2.02834e-17
4389.05438 1.96500e-17
4390.52462 2.04775e-17
4391.99486 2.21942e-17
4393.45489 2.02563e-17
4394.92513 1.83383e-17
4396.39537 1.86682e-17
4397.86561 1.90457e-17
4399.33585 1.93161e-17
4400.80609 1.98915e-17
4402.27633 1.80184e-17
4403.74657 1.80787e-17
4405.21681 1.79108e-17
4406.68705 1.63694e-17
4408.15729 1.68082e-17
4409.62753 1.85353e-17
4411.09777 1.78422e-17
4412.56801 1.77240e-17
4414.03825 1.61617e-17
4415.50849 1.44281e-17
4416.97873 1.62612e-17
4418.44897 1.69668e-17
4419.91921 1.67682e-17
4421.38945 1.71864e-17
4422.85969 1.75642e-17
4424.32993 1.72377e-17
4425.80017 1.60451e-17
4427.27041 1.66529e-17
4428.74065 1.70407e-17
4430.21089 1.31982e-17
4431.68113 1.26919e-17
4433.15137 1.55522e-17
4434.62161 1.72760e-17
4436.09185 1.67188e-17
4437.56209 1.30300e-17
4439.03233 1.45237e-17
4440.50257 1.51356e-17
4441.97281 1.37206e-17
4443.44305 1.51849e-17
4444.91329 1.53496e-17
4446.38353 1.64992e-17
4447.85377 1.63424e-17
4449.32401 1.69130e-17
4450.79425 1.49676e-17
4452.26449 1.44590e-17
4453.72452 1.53096e-17
4455.20497 1.27295e-17
4456.66500 1.38311e-17
4458.13524 1.48363e-17
4459.60548 1.41717e-17
4461.07572 1.56537e-17
4462.54596 1.56626e-17
4464.01620 1.53914e-17
4465.48644 1.55071e-17
4466.95668 1.44110e-17
4468.42692 1.47224e-17
4469.89716 1.58005e-17
4471.36740 1.54473e-17
4472.83764 1.53567e-17
4474.30788 1.69376e-17
4475.77812 1.48884e-17
4477.24836 1.44736e-17
4478.71860 1.70330e-17
4480.18884 1.58304e-17
4481.65908 1.46360e-17
4483.12932 1.57954e-17
4484.59956 1.54681e-17
4486.06980 1.38066e-17
4487.54004 1.44672e-17
4489.01028 1.67242e-17
4490.48052 1.60617e-17
4491.95076 1.49309e-17
4493.42100 1.46115e-17
4494.89124 1.48021e-17
4496.36148 1.49812e-17
4497.83172 1.50171e-17
4499.30196 1.58083e-17
4500.77220 1.54547e-17
4502.24244 1.54868e-17
4503.71268 1.61403e-17
4505.18292 1.62496e-17
4506.65316 1.62961e-17
4508.12340 1.53921e-17
4509.59364 1.56065e-17
4511.06388 1.57410e-17
4512.53412 1.53860e-17
4514.00436 1.69302e-17
4515.47460 1.73934e-17
4516.94484 1.52469e-17
4518.41508 1.64130e-17
4519.87511 1.77586e-17
4521.34535 1.78988e-17
4522.81559 1.84759e-17
4524.28583 1.63697e-17
4525.75607 1.69495e-17
4527.22631 1.84075e-17
4528.69655 1.55115e-17
4530.16679 1.65962e-17
4531.63703 1.86448e-17
4533.10727 1.84220e-17
4534.57751 1.83349e-17
4536.04775 1.78800e-17
4537.51799 1.72684e-17
4538.98823 1.76552e-17
4540.45847 1.86817e-17
4541.92871 1.90310e-17
4543.39895 2.07806e-17
4544.86919 2.05282e-17
4546.33943 1.79482e-17
4547.80967 1.83531e-17
4549.27991 1.93019e-17
4550.75015 2.01434e-17
4552.22039 2.00450e-17
4553.69063 1.80149e-17
4555.16087 1.73052e-17
4556.63111 1.94077e-17
4558.10135 2.03892e-17
4559.57159 2.06207e-17
4561.04183 2.10546e-17
4562.51207 1.98314e-17
4563.98231 1.88242e-17
4565.45255 2.01050e-17
4566.92279 2.12207e-17
4568.39303 2.11740e-17
4569.86327 2.15450e-17
4571.33351 2.13501e-17
4572.80375 2.12793e-17
4574.27399 2.13714e-17
4575.74423 1.94782e-17
4577.21447 1.98285e-17
4578.68471 2.11122e-17
4580.14474 2.13035e-17
4581.61498 2.27829e-17
4583.08522 2.28949e-17
4584.55546 2.07854e-17
4586.02570 2.18793e-17
4587.49594 2.34491e-17
4588.96618 2.16926e-17
4590.43642 2.18282e-17
4591.90666 2.36192e-17
4593.37690 2.36193e-17
4594.84714 2.34929e-17
4596.31738 2.57987e-17
4597.78762 2.33442e-17
4599.25786 2.07412e-17
4600.72810 2.07229e-17
4602.19834 2.00601e-17
4603.66858 2.04753e-17
4605.13882 2.21782e-17
4606.60906 2.30414e-17
4608.07930 2.25290e-17
4609.54954 2.24355e-17
4611.01978 2.09865e-17
4612.49002 2.17390e-17
4613.96026 2.23591e-17
4615.43050 2.18305e-17
4616.90074 2.16127e-17
4618.37098 2.17527e-17
4619.84122 2.10839e-17
4621.31146 2.13629e-17
4622.78170 2.32319e-17
4624.25194 2.15287e-17
4625.72218 2.12466e-17
4627.19242 2.31552e-17
4628.66266 2.24928e-17
4630.13290 2.22075e-17
4631.60314 2.25996e-17
4633.07338 2.21375e-17
4634.54362 2.22609e-17
4636.01386 2.25755e-17
4637.48410 2.39060e-17
4638.95434 2.42924e-17
4640.42458 2.38291e-17
4641.89482 2.21075e-17
4643.35485 2.11996e-17
4644.82509 2.19236e-17
4646.29533 2.26542e-17
4647.76557 2.44663e-17
4649.23581 2.54038e-17
4650.70605 2.38265e-17
4652.17629 2.18543e-17
4653.64653 2.32274e-17
4655.11677 2.34780e-17
4656.58701 2.38702e-17
4658.05725 2.50243e-17
4659.52749 2.39203e-17
4660.99773 2.29723e-17
4662.46797 2.14970e-17
4663.93821 2.23920e-17
4665.40845 2.36846e-17
4666.87869 2.27938e-17
4668.34893 2.16030e-17
4669.81917 2.29091e-17
4671.28941 2.41016e-17
4672.75965 2.54785e-17
4674.22989 2.48806e-17
4675.70013 2.33292e-17
4677.17037 2.45959e-17
4678.64061 2.54238e-17
4680.11085 2.28113e-17
4681.58109 2.25627e-17
4683.05133 2.50585e-17
4684.52157 2.66550e-17
4685.99181 2.31753e-17
4687.46205 2.19380e-17
4688.93229 2.20212e-17
4690.40253 2.34800e-17
4691.87277 2.35952e-17
4693.34301 2.26846e-17
4694.81325 2.44012e-17
4696.28349 2.39688e-17
4697.75373 2.32377e-17
4699.22397 2.49013e-17
4700.69421 2.46432e-17
4702.16445 2.28765e-17
4703.63469 2.33769e-17
4705.10493 2.38046e-17
4706.56496 2.39228e-17
4708.03520 2.32055e-17
4709.50544 2.29339e-17
4710.97568 2.41877e-17
4712.44592 2.37020e-17
4713.91616 2.26498e-17
4715.38640 2.34234e-17
4716.85664 2.45201e-17
4718.32688 2.49227e-17
4719.79712 2.43457e-17
4721.26736 2.28413e-17
4722.73760 2.18649e-17
4724.20784 2.17801e-17
4725.67808 2.29681e-17
4727.14832 2.45082e-17
4728.61856 2.37713e-17
4730.08880 2.32002e-17
4731.55904 2.27041e-17
4733.02928 2.17503e-17
4734.49952 2.28362e-17
4735.96976 2.39462e-17
4737.44000 2.14543e-17
4738.91024 2.06957e-17
4740.38048 2.27785e-17
4741.85072 2.33444e-17
4743.32096 2.11699e-17
4744.79120 2.07488e-17
4746.26144 2.01398e-17
4747.73168 1.92775e-17
4749.20192 2.07032e-17
4750.67216 2.17773e-17
4752.14240 2.09733e-17
4753.61264 2.14656e-17
4755.08288 2.23709e-17
4756.55312 2.13475e-17
4758.02336 2.17602e-17
4759.49360 2.23794e-17
4760.96384 2.04894e-17
4762.43408 1.96270e-17
4763.90432 2.06565e-17
4765.37456 2.06877e-17
4766.83459 2.10340e-17
4768.30483 2.10950e-17
4769.77507 2.06986e-17
4771.24531 2.08496e-17
4772.71555 2.09796e-17
4774.18579 2.02013e-17
4775.65603 1.97974e-17
4777.12627 1.97044e-17
4778.59651 1.90043e-17
4780.06675 1.89096e-17
4781.53699 1.92639e-17
4783.00723 1.91427e-17
4784.47747 2.00555e-17
4785.94771 2.00246e-17
4787.41795 1.81236e-17
4788.88819 1.87748e-17
4790.35843 1.80935e-17
4791.82867 1.73614e-17
4793.29891 1.78775e-17
4794.76915 1.73696e-17
4796.23939 1.70527e-17
4797.70963 1.72433e-17
4799.17987 1.80255e-17
4800.65011 1.77711e-17
4802.12035 1.70541e-17
4803.59059 1.67431e-17
4805.06083 1.60072e-17
4806.53107 1.68015e-17
4808.00131 1.77273e-17
4809.47155 1.64601e-17
4810.94179 1.61038e-17
4812.41203 1.61462e-17
4813.88227 1.51381e-17
4815.35251 1.57458e-17
4816.82275 1.73956e-17
4818.29299 1.69562e-17
4819.76323 1.56008e-17
4821.23347 1.62811e-17
4822.70371 1.69551e-17
4824.17395 1.60534e-17
4825.64419 1.59626e-17
4827.11443 1.47432e-17
4828.58467 1.40560e-17
4830.05491 1.45392e-17
4831.52515 1.49392e-17
4832.98518 1.47311e-17
4834.45542 1.41850e-17
4835.92566 1.41855e-17
4837.39590 1.46889e-17
4838.86614 1.57361e-17
4840.33638 1.56110e-17
4841.80662 1.43340e-17
4843.27686 1.40370e-17
4844.74710 1.42525e-17
4846.21734 1.32011e-17
4847.68758 1.23693e-17
4849.15782 1.28558e-17
4850.62806 1.24896e-17
4852.09830 1.27493e-17
4853.56854 1.31381e-17
4855.03878 1.34270e-17
4856.50902 1.31257e-17
4857.97926 1.28377e-17
4859.44950 1.31757e-17
4860.91974 1.32954e-17
4862.38998 1.39634e-17
4863.86022 1.45244e-17
4865.33046 1.47095e-17
4866.80070 1.35199e-17
4868.27094 1.27484e-17
4869.74118 1.30670e-17
4871.21142 1.26515e-17
4872.68166 1.36470e-17
4874.15190 1.38369e-17
4875.62214 1.35724e-17
4877.09238 1.41360e-17
4878.56262 1.39081e-17
4880.03286 1.33625e-17
4881.50310 1.49275e-17
4882.97334 1.57634e-17
4884.44358 1.37816e-17
4885.91382 1.38185e-17
4887.38406 1.47494e-17
4888.85430 1.28579e-17
4890.32454 1.30647e-17
4891.79478 1.39482e-17
4893.25481 1.37136e-17
4894.72505 1.31938e-17
4896.19529 1.35791e-17
4897.66553 1.34787e-17
4899.13577 1.34790e-17
4900.60601 1.32741e-17
4902.07625 1.32426e-17
4903.54649 1.32964e-17
4905.01673 1.23613e-17
4906.48697 1.24284e-17
4907.95721 1.29219e-17
4909.42745 1.26126e-17
4910.89769 1.12353e-17
4912.36793 1.18956e-17
4913.83817 1.19532e-17
4915.30841 1.20666e-17
4916.77865 1.29464e-17
4918.24889 1.25360e-17
4919.71913 1.22833e-17
4921.18937 1.33080e-17
4922.65961 1.38718e-17
4924.12985 1.27443e-17
4925.60009 1.21723e-17
4927.07033 1.18626e-17
4928.54057 1.11969e-17
4930.01081 1.13841e-17
4931.48105 1.19235e-17
4932.95129 1.19897e-17
4934.42153 1.15767e-17
4935.89177 1.06678e-17
4937.36201 1.07854e-17
4938.83225 1.13170e-17
4940.30249 1.21941e-17
4941.77273 1.19910e-17
4943.24297 1.12376e-17
4944.71321 1.17521e-17
4946.18345 1.17000e-17
4947.65369 1.12222e-17
4949.12393 1.16620e-17
4950.59417 1.24828e-17
4952.06441 1.33477e-17
4953.53465 1.32320e-17
4954.99468 1.16729e-17
4956.46492 1.13228e-17
4957.93516 1.18241e-17
4959.40540 1.26618e-17
4960.87564 1.41964e-17
4962.34588 1.41961e-17
4963.81612 1.28877e-17
4965.28636 1.32174e-17
4966.75660 1.35640e-17
4968.22684 1.30072e-17
4969.69708 1.40749e-17
4971.16732 1.48065e-17
4972.63756 1.42240e-17
4974.10780 1.39847e-17
4975.57804 1.38773e-17
4977.04828 1.43531e-17
4978.51852 1.43561e-17
4979.98876 1.30995e-17
4981.45900 1.39482e-17
4982.92924 1.56508e-17
4984.39948 1.49503e-17
4985.86972 1.39026e-17
4987.33996 1.50875e-17
4988.81020 1.62651e-17
4990.28044 1.51531e-17
4991.75068 1.47241e-17
4993.22092 1.51342e-17
4994.69116 1.57000e-17
4996.16140 1.71211e-17
4997.63164 1.64966e-17
4999.10188 1.60437e-17
5000.57212 1.73125e-17
5002.04236 1.61928e-17
5003.51260 1.55303e-17
5004.98284 1.68302e-17
5006.45308 1.65941e-17
5007.92332 1.59282e-17
5009.39356 1.53626e-17
5010.86380 1.59211e-17
5012.33404 1.74575e-17
5013.80428 1.67180e-17
5015.27452 1.57274e-17
5016.74476 1.64871e-17
5018.21500 1.69349e-17
5019.68524 1.57161e-17
5021.14527 1.40279e-17
5022.61551 1.44683e-17
5024.08575 1.67426e-17
5025.55599 1.72308e-17
5027.02623 1.57609e-17
5028.49647 1.56057e-17
5029.96671 1.64309e-17
5031.43695 1.53509e-17
5032.90719 1.45201e-17
5034.37743 1.55428e-17
5035.84767 1.57721e-17
5037.31791 1.52439e-17
5038.78815 1.47593e-17
5040.25839 1.48071e-17
5041.72863 1.49401e-17
5043.19887 1.39931e-17
5044.66911 1.33585e-17
5046.13935 1.31519e-17
5047.60959 1.31031e-17
5049.07983 1.37808e-17
5050.55007 1.38905e-17
5052.02031 1.40802e-17
5053.49055 1.41736e-17
5054.96079 1.34944e-17
5056.43103 1.35274e-17
5057.90127 1.31228e-17
5059.37151 1.25611e-17
5060.84175 1.27336e-17
5062.31199 1.26347e-17
5063.78223 1.25365e-17
5065.25247 1.31787e-17
5066.72271 1.40770e-17
5068.19295 1.35472e-17
5069.66319 1.24226e-17
5071.13343 1.19756e-17
5072.60367 1.23100e-17
5074.07391 1.25732e-17
5075.54415 1.19781e-17
5077.01439 1.22641e-17
5078.48463 1.34971e-17
5079.95487 1.28978e-17
5081.41490 1.19990e-17
5082.88514 1.20668e-17
5084.35538 1.23056e-17
5085.82562 1.31931e-17
5087.29586 1.28680e-17
5088.76610 1.26356e-17
5090.23634 1.26031e-17
5091.70658 1.25272e-17
5093.17682 1.34808e-17
5094.64706 1.24613e-17
5096.11730 1.22299e-17
5097.58754 1.26983e-17
5099.05778 1.22565e-17
5100.52802 1.36475e-17
5101.99826 1.42004e-17
5103.46850 1.34128e-17
5104.93874 1.27944e-17
5106.40898 1.24586e-17
5107.87922 1.21307e-17
5109.34946 1.21916e-17
5110.81970 1.20765e-17
5112.28994 1.18211e-17
5113.76018 1.31493e-17
5115.23042 1.39203e-17
5116.70066 1.38673e-17
5118.17090 1.38489e-17
5119.64114 1.33242e-17
5121.11138 1.36098e-17
5122.58162 1.32843e-17
5124.05186 1.30777e-17
5125.52210 1.46859e-17
5126.99234 1.51009e-17
5128.46258 1.46356e-17
5129.93282 1.43838e-17
5131.40306 1.34892e-17
5132.87330 1.30221e-17
5134.34354 1.38647e-17
5135.81378 1.50209e-17
5137.28402 1.49379e-17
5138.75426 1.36411e-17
5140.22450 1.30892e-17
5141.69474 1.31439e-17
5143.16498 1.32922e-17
5144.62501 1.37190e-17
5146.09525 1.41923e-17
5147.56549 1.45773e-17
5149.03573 1.44678e-17
5150.50597 1.48942e-17
5151.97621 1.56713e-17
5153.44645 1.50067e-17
5154.91669 1.40362e-17
5156.38693 1.43089e-17
5157.85717 1.39577e-17
5159.32741 1.40777e-17
5160.79765 1.50601e-17
5162.26789 1.52445e-17
5163.73813 1.53942e-17
5165.20837 1.48467e-17
5166.67861 1.45372e-17
5168.14885 1.46115e-17
5169.61909 1.44361e-17
5171.08933 1.58483e-17
5172.55957 1.60636e-17
5174.02981 1.54590e-17
5175.50005 1.67305e-17
5176.97029 1.67996e-17
5178.44053 1.51984e-17
5179.91077 1.50232e-17
5181.38101 1.50425e-17
5182.85125 1.56411e-17
5184.32149 1.57277e-17
5185.79173 1.43279e-17
5187.26197 1.41692e-17
5188.73221 1.49462e-17
5190.20245 1.50312e-17
5191.67269 1.48217e-17
5193.14293 1.59210e-17
5194.61317 1.67193e-17
5196.08341 1.70607e-17
5197.55365 1.66119e-17
5199.02389 1.56675e-17
5200.49413 1.59847e-17
5201.96437 1.59765e-17
5203.43461 1.52384e-17
5204.90485 1.55377e-17
5206.37509 1.62997e-17
5207.83512 1.58806e-17
5209.30536 1.61055e-17
5210.77560 1.66759e-17
5212.24584 1.59257e-17
5213.71608 1.45360e-17
5215.18632 1.45936e-17
5216.65656 1.59234e-17
5218.12680 1.59187e-17
5219.59704 1.62627e-17
5221.06728 1.66066e-17
5222.53752 1.69505e-17
5224.00776 1.72943e-17
5225.47800 1.76379e-17
5226.94824 1.76357e-17
5228.41848 1.64187e-17
5229.88872 1.60330e-17
5231.35896 1.52110e-17
5232.82920 1.58976e-17
5234.29944 1.64569e-17
5235.76968 1.60282e-17
5237.23992 1.53996e-17
5238.71016 1.49598e-17
5240.18040 1.52312e-17
5241.65064 1.60060e-17
5243.12088 1.67057e-17
5244.59112 1.62459e-17
5246.06136 1.50881e-17
5247.53160 1.50762e-17
5249.00184 1.60780e-17
5250.47208 1.59682e-17
5251.94232 1.48499e-17
5253.41256 1.50038e-17
5254.88280 1.50554e-17
5256.35304 1.55664e-17
5257.82328 1.62487e-17
5259.29352 1.72719e-17
5260.76376 1.71177e-17
5262.23400 1.60287e-17
5263.70424 1.59608e-17
5265.17448 1.59530e-17
5266.64472 1.64929e-17
5268.10475 1.64472e-17
5269.57499 1.59991e-17
5271.04523 1.72490e-17
5272.51547 1.68926e-17
5273.98571 1.70706e-17
5275.45595 1.78987e-17
5276.92619 1.70506e-17
5278.39643 1.63849e-17
5279.86667 1.62046e-17
5281.33691 1.62360e-17
5282.80715 1.69225e-17
5284.27739 1.65520e-17
5285.74763 1.75214e-17
5287.21787 1.88682e-17
5288.68811 1.90571e-17
5290.15835 1.79178e-17
5291.62859 1.72789e-17
5293.09883 1.75408e-17
5294.56907 1.73261e-17
5296.03931 1.79161e-17
5297.50955 1.74149e-17
5298.97979 1.68601e-17
5300.45003 1.67380e-17
5301.92027 1.80086e-17
5303.39051 1.84346e-17
5304.86075 1.78699e-17
5306.33099 1.68606e-17
5307.80123 1.67279e-17
5309.27147 1.77601e-17
5310.74171 1.77959e-17
5312.21195 1.77025e-17
5313.68219 1.93128e-17
5315.15243 1.84322e-17
5316.62267 1.88054e-17
5318.09291 1.84007e-17
5319.56315 1.77699e-17
5321.03339 1.89603e-17
5322.50363 1.88204e-17
5323.97387 1.70391e-17
5325.44411 1.83424e-17
5326.91435 1.95605e-17
5328.38459 1.92917e-17
5329.85483 1.90270e-17
5331.31486 1.82454e-17
5332.78510 1.89822e-17
5334.25534 1.91766e-17
5335.72558 1.83425e-17
5337.19582 1.87418e-17
5338.66606 2.01457e-17
5340.13630 2.09933e-17
5341.60654 1.91594e-17
5343.07678 1.75269e-17
5344.54702 1.95580e-17
5346.01726 1.99288e-17
5347.48750 1.80719e-17
5348.95774 1.90465e-17
5350.42798 1.83769e-17
5351.89822 1.84529e-17
5353.36846 1.94089e-17
5354.83870 1.90880e-17
5356.30894 1.94514e-17
5357.77918 1.91489e-17
5359.24942 1.72685e-17
5360.71966 1.85378e-17
5362.18990 1.87235e-17
5363.66014 1.78128e-17
5365.13038 1.77661e-17
5366.60062 1.82328e-17
5368.07086 1.75251e-17
5369.54110 1.81593e-17
5371.01134 1.85547e-17
5372.48158 1.77472e-17
5373.95182 1.96467e-17
5375.42206 2.00576e-17
5376.89230 1.91405e-17
5378.36254 1.82056e-17
5379.83278 1.80800e-17
5381.30302 1.90641e-17
5382.77326 1.74012e-17
5384.24350 1.83961e-17
5385.71374 1.97859e-17
5387.18398 1.94088e-17
5388.65422 1.78623e-17
5390.12446 1.72633e-17
5391.59470 1.84502e-17
5393.06494 1.82057e-17
5394.52497 1.72259e-17
5395.99521 1.74364e-17
5397.46545 1.83374e-17
5398.93569 1.76775e-17
5400.40593 1.68606e-17
5401.87617 1.64066e-17
5403.34641 1.71231e-17
5404.81665 1.79627e-17
5406.28689 1.73353e-17
5407.75713 1.79858e-17
5409.22737 1.77482e-17
5410.69761 1.71493e-17
5412.16785 1.74774e-17
5413.63809 1.77392e-17
5415.10833 1.76658e-17
5416.57857 1.84500e-17
5418.04881 1.85345e-17
5419.51905 1.83688e-17
5420.98929 1.81300e-17
5422.45953 1.71949e-17
5423.92977 1.71224e-17
5425.40001 1.72891e-17
5426.87025 1.70824e-17
5428.34049 1.63700e-17
5429.81073 1.71162e-17
5431.28097 1.79745e-17
5432.75121 1.83700e-17
5434.22145 1.75593e-17
5435.69169 1.63384e-17
5437.16193 1.65097e-17
5438.63217 1.74248e-17
5440.10241 1.72366e-17
5441.57265 1.71710e-17
5443.04289 1.72452e-17
5444.51313 1.73114e-17
5445.98337 1.70058e-17
5447.45361 1.65294e-17
5448.92385 1.65053e-17
5450.39409 1.66414e-17
5451.86433 1.67880e-17
5453.33457 1.73525e-17
5454.79460 1.77482e-17
5456.26484 1.73136e-17
5457.73508 1.69832e-17
5459.20532 1.77811e-17
5460.67556 1.78655e-17
5462.14580 1.69398e-17
5463.61604 1.74219e-17
5465.08628 1.85194e-17
5466.55652 1.77331e-17
5468.02676 1.78592e-17
5469.49700 1.71700e-17
5470.96724 1.60435e-17
5472.43748 1.58565e-17
5473.90772 1.61880e-17
5475.37796 1.78589e-17
5476.84820 1.79416e-17
5478.31844 1.72554e-17
5479.78868 1.75119e-17
5481.25892 1.73152e-17
5482.72916 1.66293e-17
5484.19940 1.66250e-17
5485.66964 1.75961e-17
5487.13988 1.78764e-17
5488.61012 1.69083e-17
5490.08036 1.68068e-17
5491.55060 1.67469e-17
5493.02084 1.71432e-17
5494.49108 1.72389e-17
5495.96132 1.67532e-17
5497.43156 1.69533e-17
5498.90180 1.59812e-17
5500.37204 1.57363e-17
5501.84228 1.65385e-17
5503.31252 1.73915e-17
5504.78276 1.64218e-17
5506.25300 1.60505e-17
5507.72324 1.69102e-17
5509.19348 1.56538e-17
5510.66372 1.53984e-17
5512.13396 1.68494e-17
5513.60420 1.68323e-17
5515.07444 1.59883e-17
5516.54468 1.64439e-17
5518.00471 1.55985e-17
5519.47495 1.39365e-17
5520.94519 1.58241e-17
5522.41543 1.77564e-17
5523.88567 1.63906e-17
5525.35591 1.62855e-17
5526.82615 1.61963e-17
5528.29639 1.60829e-17
5529.76663 1.64906e-17
5531.23687 1.76393e-17
5532.70711 1.67807e-17
5534.17735 1.55069e-17
5535.64759 1.58351e-17
5537.11783 1.61450e-17
5538.58807 1.58255e-17
5540.05831 1.61154e-17
5541.52855 1.62520e-17
5542.99879 1.60832e-17
5544.46903 1.62227e-17
5545.93927 1.66190e-17
5547.40951 1.62424e-17
5548.87975 1.61744e-17
5550.34999 1.54175e-17
5551.82023 1.53708e-17
5553.29047 1.53715e-17
5554.76071 1.57926e-17
5556.23095 1.45341e-17
5557.70119 1.57602e-17
5559.17143 1.67043e-17
5560.64167 1.62365e-17
5562.11191 1.54179e-17
5563.58215 1.50183e-17
5565.05239 1.55716e-17
5566.52263 1.60658e-17
5567.99287 1.71632e-17
5569.46311 1.72116e-17
5570.93335 1.50949e-17
5572.40359 1.40314e-17
5573.87383 1.40971e-17
5575.34407 1.40510e-17
5576.81431 1.84693e-17
5578.28455 1.98524e-17
5579.75479 1.76024e-17
5581.22503 1.62627e-17
5582.68506 1.56323e-17
5584.15530 1.56157e-17
5585.62554 1.52127e-17
5587.09578 1.46464e-17
5588.56602 1.50195e-17
5590.03626 1.57647e-17
5591.50650 1.47768e-17
5592.97674 1.56297e-17
5594.44698 1.45493e-17
5595.91722 1.48551e-17
5597.38746 1.68057e-17
5598.85770 1.58530e-17
5600.32794 1.68197e-17
5601.79818 1.44140e-17
5603.26842 1.35082e-17
5604.73866 1.33705e-17
5606.20890 1.42160e-17
5607.67914 1.47213e-17
5609.14938 1.41890e-17
5610.61962 1.50535e-17
5612.08986 1.56202e-17
5613.56010 1.75026e-17
5615.03034 1.69367e-17
5616.50058 1.63702e-17
5617.97082 1.65732e-17
5619.44106 1.47883e-17
5620.91130 1.41697e-17
5622.38154 1.27899e-17
5623.85178 1.30939e-17
5625.32202 1.38036e-17
5626.79226 1.36748e-17
5628.26250 1.28030e-17
5629.73274 1.47939e-17
5631.20298 1.43392e-17
5632.67322 1.35535e-17
5634.14346 1.27110e-17
5635.61370 1.18758e-17
5637.08394 1.21484e-17
5638.55418 1.27980e-17
5640.02442 1.28147e-17
5641.49466 1.31530e-17
5642.96490 1.31244e-17
5644.42493 1.27106e-17
5645.89517 1.21753e-17
5647.36541 1.14441e-17
5648.83565 1.22785e-17
5650.30589 1.35376e-17
5651.77613 1.34047e-17
5653.24637 1.24555e-17
5654.71661 1.19425e-17
5656.18685 1.30974e-17
5657.65709 1.32696e-17
5659.12733 1.31825e-17
5660.59757 1.32397e-17
5662.06781 1.22394e-17
5663.53805 1.32980e-17
5665.00829 1.24134e-17
5666.47853 1.13846e-17
5667.94877 1.20998e-17
5669.41901 1.34486e-17
5670.88925 1.43625e-17
5672.35949 1.27206e-17
5673.82973 1.31057e-17
5675.29997 1.32520e-17
5676.77021 1.29881e-17
5678.24045 1.31650e-17
5679.71069 1.23572e-17
5681.18093 1.10770e-17
5682.65117 1.09653e-17
5684.12141 1.12585e-17
5685.59165 1.22760e-17
5687.06189 1.28794e-17
5688.53213 1.20583e-17
5690.00237 1.17081e-17
5691.47261 1.26885e-17
5692.94285 1.23962e-17
5694.41309 1.26254e-17
5695.88333 1.25937e-17
5697.35357 1.14777e-17
5698.82381 1.07314e-17
5700.29405 1.16679e-17
5701.76429 1.17246e-17
5703.23453 1.11210e-17
5704.70477 1.05857e-17
5706.16480 1.18489e-17
5707.63504 1.15170e-17
5709.10528 1.03144e-17
5710.57552 1.10054e-17
5712.04576 1.17190e-17
5713.51600 1.20329e-17
5714.98624 1.11067e-17
5716.45648 1.08555e-17
5717.92672 1.07522e-17
5719.39696 1.03168e-17
5720.86720 1.11863e-17
5722.33744 1.05309e-17
5723.80768 9.45606e-18
5725.27792 1.06187e-17
5726.74816 1.10261e-17
5728.21840 1.05512e-17
5729.68864 1.02360e-17
5731.15888 1.03807e-17
5732.62912 1.06921e-17
5734.09936 1.05358e-17
5735.56960 1.05485e-17
5737.03984 1.12090e-17
5738.51008 1.14322e-17
5739.98032 1.04083e-17
5741.45056 9.57766e-18
5742.92080 9.65782e-18
5744.39104 9.55187e-18
5745.86128 9.75832e-18
5747.33152 9.85521e-18
5748.80176 9.97714e-18
5750.27200 1.02134e-17
5751.74224 9.83227e-18
5753.21248 9.61366e-18
5754.68272 8.62961e-18
5756.15296 9.18827e-18
5757.62320 1.01822e-17
5759.09344 1.03881e-17
5760.56368 9.73687e-18
5762.03392 9.19891e-18
5763.50416 9.66768e-18
5764.97440 9.87827e-18
5766.44464 9.25101e-18
5767.91488 9.45552e-18
5769.37491 9.82408e-18
5770.84515 9.83928e-18
5772.31539 9.72976e-18
5773.78563 9.30413e-18
5775.25587 9.08456e-18
5776.72611 9.87830e-18
5778.19635 9.57345e-18
5779.66659 8.93532e-18
5781.13683 8.95033e-18
5782.60707 9.55113e-18
5784.07731 1.02738e-17
5785.54755 9.92039e-18
5787.01779 9.07927e-18
5788.48803 9.43699e-18
5789.95827 9.65001e-18
5791.42851 9.64467e-18
5792.89875 8.47649e-18
5794.36899 8.30047e-18
5795.83923 9.58167e-18
5797.30947 1.01492e-17
5798.77971 1.01844e-17
5800.24995 9.91431e-18
5801.72019 8.58120e-18
5803.19043 9.48621e-18
5804.66067 9.59075e-18
5806.13091 8.23180e-18
5807.60115 8.83189e-18
5809.07139 9.60509e-18
5810.54163 1.06122e-17
5812.01187 1.08152e-17
5813.48211 1.09726e-17
5814.95235 1.03779e-17
5816.42259 1.06719e-17
5817.89283 1.15967e-17
5819.36307 1.15921e-17
5820.83331 1.14501e-17
5822.30355 1.08432e-17
5823.77379 8.59477e-18
5825.24403 9.30079e-18
5826.71427 1.03722e-17
5828.18451 9.89271e-18
5829.65475 1.04236e-17
5831.12499 1.12680e-17
5832.58502 1.03922e-17
5834.05526 9.84737e-18
5835.52550 1.04169e-17
5836.99574 1.02829e-17
5838.46598 1.17427e-17
5839.93622 1.11352e-17
5841.40646 1.03931e-17
5842.87670 1.08462e-17
5844.34694 1.11612e-17
5845.81718 1.18237e-17
5847.28742 1.13593e-17
5848.75766 1.19904e-17
5850.22790 1.04887e-17
5851.69814 1.18769e-17
5853.16838 1.12620e-17
5854.63862 1.19794e-17
5856.10886 1.20733e-17
5857.57910 1.18480e-17
5859.04934 1.16692e-17
5860.51958 1.19900e-17
5861.98982 1.17348e-17
5863.46006 1.16729e-17
5864.93030 1.21049e-17
5866.40054 1.18948e-17
5867.87078 1.11025e-17
5869.34102 1.20578e-17
5870.81126 1.17271e-17
5872.28150 1.38284e-17
5873.75174 1.31727e-17
5875.22198 1.20756e-17
5876.69222 1.19328e-17
5878.16246 1.19038e-17
5879.63270 1.15643e-17
5881.10294 1.13160e-17
5882.57318 1.21320e-17
5884.04342 1.28332e-17
5885.51366 1.23691e-17
5886.98390 1.11359e-17
5888.45414 1.26365e-17
5889.92438 1.23291e-17
5891.39462 1.09600e-17
5892.85465 1.13605e-17
5894.32489 1.11306e-17
5895.79513 1.19832e-17
5897.26537 1.20272e-17
5898.73561 1.19935e-17
5900.20585 1.24510e-17
5901.67609 1.30101e-17
5903.14633 1.27648e-17
5904.61657 1.15421e-17
5906.08681 1.33791e-17
5907.55705 1.39610e-17
5909.02729 1.39674e-17
5910.49753 1.34687e-17
5911.96777 1.15620e-17
5913.43801 1.28809e-17
5914.90825 1.41026e-17
5916.37849 1.49203e-17
5917.84873 1.37052e-17
5919.31897 1.39110e-17
5920.78921 1.46453e-17
5922.25945 1.41890e-17
5923.72969 1.41205e-17
5925.19993 1.39635e-17
5926.67017 1.49855e-17
5928.14041 1.43517e-17
5929.61065 1.36834e-17
5931.08089 1.45229e-17
5932.55113 1.44674e-17
5934.02137 1.39833e-17
5935.49161 1.38910e-17
5936.96185 1.31639e-17
5938.43209 1.39285e-17
5939.90233 1.51941e-17
5941.37257 1.59410e-17
5942.84281 1.49176e-17
5944.31305 1.31508e-17
5945.78329 1.44553e-17
5947.25353 1.53205e-17
5948.72377 1.52119e-17
5950.19401 1.45114e-17
5951.66425 1.44007e-17
5953.13449 1.46429e-17
5954.60473 1.55322e-17
5956.06476 1.64807e-17
5957.53500 1.51282e-17
5959.00524 1.53321e-17
5960.47548 1.52684e-17
5961.94572 1.42033e-17
5963.41596 1.42261e-17
5964.88620 1.38851e-17
5966.35644 1.34240e-17
5967.82668 1.48103e-17
5969.29692 1.56981e-17
5970.76716 1.49404e-17
5972.23740 1.47805e-17
5973.70764 1.39646e-17
5975.17788 1.42303e-17
5976.64812 1.46247e-17
5978.11836 1.48599e-17
5979.58860 1.59288e-17
5981.05884 1.51788e-17
5982.52908 1.46381e-17
5983.99932 1.61662e-17
5985.46956 1.40905e-17
5986.93980 1.40310e-17
5988.41004 1.56072e-17
5989.88028 1.48821e-17
5991.35052 1.54688e-17
5992.82076 1.57197e-17
5994.29100 1.57501e-17
5995.76124 1.60924e-17
5997.23148 1.55564e-17
5998.70172 1.55689e-17
6000.17196 1.49598e-17
6001.64220 1.53937e-17
6003.11244 1.53188e-17
6004.58268 1.45530e-17
6006.05292 1.58933e-17
6007.52316 1.59317e-17
6008.99340 1.61784e-17
6010.46364 1.56107e-17
6011.93388 1.44067e-17
6013.40412 1.24198e-17
6014.87436 1.14248e-17
6016.34460 1.16570e-17
6017.81484 1.26990e-17
6019.27487 1.27769e-17
6020.74511 1.32580e-17
6022.21535 1.40245e-17
6023.68559 1.33506e-17
6025.15583 1.38731e-17
6026.62607 1.41156e-17
6028.09631 1.47521e-17
6029.56655 1.46537e-17
6031.03679 1.52982e-17
6032.50703 1.44130e-17
6033.97727 1.23304e-17
6035.44751 1.52647e-17
6036.91775 1.51807e-17
6038.38799 1.47688e-17
6039.85823 1.46702e-17
6041.32847 1.36546e-17
6042.79871 1.35360e-17
6044.26895 1.43575e-17
6045.73919 1.51218e-17
6047.20943 1.42097e-17
6048.67967 1.44070e-17
6050.14991 1.55322e-17
6051.62015 1.47238e-17
6053.09039 1.37324e-17
6054.56063 1.37064e-17
6056.03087 1.42138e-17
6057.50111 1.42459e-17
6058.97135 1.49016e-17
6060.44159 1.48131e-17
6061.91183 1.33936e-17
6063.38207 1.26414e-17
6064.85231 1.45488e-17
6066.32255 1.33539e-17
6067.79279 1.20503e-17
6069.26303 1.26581e-17
6070.73327 1.40841e-17
6072.20351 1.45355e-17
6073.67375 1.36354e-17
6075.14399 1.31771e-17
6076.61423 1.42139e-17
6078.08447 1.33102e-17
6079.54450 1.35445e-17
6081.01474 1.40868e-17
6082.48498 1.41748e-17
6083.95522 1.31743e-17
6085.42546 1.24602e-17
6086.89570 1.35303e-17
6088.36594 1.29669e-17
6089.83618 1.40460e-17
6091.30642 1.23775e-17
6092.77666 1.29362e-17
6094.24690 1.36608e-17
6095.71714 1.31398e-17
6097.18738 1.26941e-17
6098.65762 1.30609e-17
6100.12786 1.29517e-17
6101.59810 1.22897e-17
6103.06834 1.32464e-17
6104.53858 1.26226e-17
6106.00882 1.35011e-17
6107.47906 1.31734e-17
6108.94930 1.27391e-17
6110.41954 1.25715e-17
6111.88978 1.29716e-17
6113.36002 1.31072e-17
6114.83026 1.25264e-17
6116.30050 1.29235e-17
6117.77074 1.31054e-17
6119.24098 1.35935e-17
6120.71122 1.30837e-17
6122.18146 1.37605e-17
6123.65170 1.24936e-17
6125.12194 1.23621e-17
6126.59218 1.23684e-17
6128.06242 1.30179e-17
6129.53266 1.43111e-17
6131.00290 1.28925e-17
6132.47314 1.18015e-17
6133.94338 1.22868e-17
6135.41362 1.29677e-17
6136.88386 1.25742e-17
6138.35410 1.36533e-17
6139.82434 1.32600e-17
6141.29458 1.15373e-17
6142.76482 1.30519e-17
6144.22485 1.29715e-17
6145.69509 1.26054e-17
6147.16533 1.33800e-17
6148.63557 1.19971e-17
6150.10581 1.25694e-17
6151.57605 1.29553e-17
6153.04629 1.18318e-17
6154.51653 1.19028e-17
6155.98677 1.13876e-17
6157.45701 1.21023e-17
6158.92725 1.25682e-17
6160.39749 1.20852e-17
6161.86773 1.31643e-17
6163.33797 1.18028e-17
6164.80821 1.07180e-17
6166.27845 1.15417e-17
6167.74869 1.20009e-17
6169.21893 1.26183e-17
6170.68917 1.20733e-17
6172.15941 1.22910e-17
6173.62965 1.27872e-17
6175.09989 1.17313e-17
6176.57013 1.08120e-17
6178.04037 1.17669e-17
6179.51061 1.19356e-17
6180.98085 1.15566e-17
6182.45109 1.12991e-17
6183.92133 1.13081e-17
6185.39157 1.29392e-17
6186.86181 1.28500e-17
6188.33205 1.17309e-17
6189.80229 1.14759e-17
6191.27253 1.22184e-17
6192.74277 1.15240e-17
6194.21301 1.34830e-17
6195.68325 1.29067e-17
6197.15349 1.05231e-17
6198.62373 1.03468e-17
6200.09397 1.21424e-17
6201.56421 1.19127e-17
6203.03445 1.21526e-17
6204.50469 1.23485e-17
6205.97493 1.28065e-17
6207.43496 1.18113e-17
6208.90520 1.25663e-17
6210.37544 1.25356e-17
6211.84568 1.20049e-17
6213.31592 1.21060e-17
6214.78616 1.20373e-17
6216.25640 1.27907e-17
6217.72664 1.18967e-17
6219.19688 1.21398e-17
6220.66712 1.19400e-17
6222.13736 1.17454e-17
6223.60760 1.11764e-17
6225.07784 1.14541e-17
6226.54808 1.18916e-17
6228.01832 1.24652e-17
6229.48856 1.23450e-17
6230.95880 1.22249e-17
6232.42904 1.21047e-17
6233.89928 1.19846e-17
6235.36952 1.19838e-17
6236.83976 1.14519e-17
6238.31000 1.15228e-17
6239.78024 1.15886e-17
6241.25048 1.08590e-17
6242.72072 1.09158e-17
6244.19096 1.05065e-17
6245.66120 1.05369e-17
6247.13144 9.63463e-18
6248.60168 9.54311e-18
6250.07192 1.07492e-17
6251.54216 1.06666e-17
6253.01240 1.03591e-17
6254.48264 1.02123e-17
6255.95288 1.09684e-17
6257.42312 1.10215e-17
6258.89336 1.08213e-17
6260.36360 1.10069e-17
6261.83384 9.73813e-18
6263.30408 1.04342e-17
6264.77432 9.40779e-18
6266.24456 1.07751e-17
6267.70459 1.02637e-17
6269.17483 9.93012e-18
6270.64507 9.80852e-18
6272.11531 9.58567e-18
6273.58555 9.85555e-18
6275.05579 9.72135e-18
6276.52603 9.15935e-18
6277.99627 8.77623e-18
6279.46651 9.23635e-18
6280.93675 9.25482e-18
6282.40699 8.80271e-18
6283.87723 8.57822e-18
6285.34747 9.47923e-18
6286.81771 9.77656e-18
6288.28795 9.23726e-18
6289.75819 8.52831e-18
6291.22843 8.99218e-18
6292.69867 8.66682e-18
6294.16891 9.67829e-18
6295.63915 9.62105e-18
6297.10939 1.00538e-17
6298.57963 9.89266e-18
6300.04987 9.98373e-18
6301.52011 6.85451e-18
6302.99035 8.07690e-18
6304.46059 9.42770e-18
6305.93083 8.59869e-18
6307.40107 8.59524e-18
6308.87131 8.88209e-18
6310.34155 9.31028e-18
6311.81179 9.01684e-18
6313.28203 8.65304e-18
6314.75227 9.75944e-18
6316.22251 9.46750e-18
6317.69275 8.53001e-18
6319.16299 8.95122e-18
6320.63323 8.98722e-18
6322.10347 9.22005e-18
6323.57371 9.39213e-18
6325.04395 9.84124e-18
6326.51419 9.79638e-18
6327.98443 9.01854e-18
6329.45467 9.28613e-18
6330.92491 9.34203e-18
6332.39515 8.80612e-18
6333.85518 9.23358e-18
6335.32542 9.73117e-18
6336.79566 9.23927e-18
6338.26590 9.28498e-18
6339.73614 9.39420e-18
6341.20638 8.32965e-18
6342.67662 8.44249e-18
6344.14686 9.41056e-18
6345.61710 8.77799e-18
6347.08734 9.08344e-18
6348.55758 8.88584e-18
6350.02782 8.81721e-18
6351.49806 9.87254e-18
6352.96830 9.63003e-18
6354.43854 9.66204e-18
6355.90878 9.82140e-18
6357.37902 9.88321e-18
6358.84926 9.92698e-18
6360.31950 9.76344e-18
6361.78974 1.03805e-17
6363.25998 1.06707e-17
6364.73022 1.02691e-17
6366.20046 9.71711e-18
6367.67070 9.55094e-18
6369.14094 9.63168e-18
6370.61118 9.03110e-18
6372.08142 8.94000e-18
6373.55166 8.98569e-18
6375.02190 9.37766e-18
6376.49214 1.04045e-17
6377.96238 1.01600e-17
6379.43262 9.49177e-18
6380.90286 1.03133e-17
6382.37310 1.13244e-17
6383.84334 1.00692e-17
6385.31358 9.95659e-18
6386.78382 1.17607e-17
6388.25406 1.04842e-17
6389.72430 9.62611e-18
6391.19454 1.07414e-17
6392.66478 9.86029e-18
6394.12481 9.73940e-18
6395.59505 1.04043e-17
6397.06529 1.03811e-17
6398.53553 9.66092e-18
6400.00577 1.04172e-17
6401.47601 1.12409e-17
6402.94625 1.08819e-17
6404.41649 1.00884e-17
6405.88673 1.05246e-17
6407.35697 1.11725e-17
6408.82721 1.04793e-17
6410.29745 1.02725e-17
6411.76769 9.89040e-18
6413.23793 1.12953e-17
6414.70817 9.98954e-18
6416.17841 1.00757e-17
6417.64865 1.10859e-17
6419.11889 1.01071e-17
6420.58913 9.60836e-18
6422.05937 9.68012e-18
6423.52961 1.05985e-17
6424.99985 9.96008e-18
6426.47009 1.01669e-17
6427.94033 1.07189e-17
6429.41057 9.25870e-18
6430.88081 1.00715e-17
6432.35105 1.14873e-17
6433.82129 1.08200e-17
6435.29153 1.06635e-17
6436.76177 1.08972e-17
6438.23201 1.01886e-17
6439.70225 1.00404e-17
6441.17249 9.14882e-18
6442.64273 1.00649e-17
6444.11297 1.23805e-17
6445.58321 1.18025e-17
6447.05345 1.08041e-17
6448.52369 1.22295e-17
6449.99393 1.24468e-17
6451.46417 1.19084e-17
6452.93441 1.08608e-17
6454.40465 1.09845e-17
6455.86468 1.11850e-17
6457.33492 1.01870e-17
6458.80516 1.01495e-17
6460.27540 9.49162e-18
6461.74564 9.67328e-18
6463.21588 1.09034e-17
6464.68612 1.10822e-17
6466.15636 1.10587e-17
6467.62660 1.13444e-17
6469.09684 1.01928e-17
6470.56708 1.05425e-17
6472.03732 1.07973e-17
6473.50756 1.05615e-17
6474.97780 1.12399e-17
6476.44804 1.06301e-17
6477.91828 1.03594e-17
6479.38852 1.02328e-17
6480.85876 9.69149e-18
6482.32900 1.03970e-17
6483.79924 1.08236e-17
6485.26948 1.08121e-17
6486.73972 1.09431e-17
6488.20996 1.06080e-17
6489.68020 1.11883e-17
6491.15044 1.08576e-17
6492.62068 1.00439e-17
6494.09092 1.04824e-17
6495.56116 9.51380e-18
6497.03140 1.00596e-17
6498.50164 1.11577e-17
6499.97188 1.11439e-17
6501.44212 1.03211e-17
6502.91236 1.05040e-17
6504.38260 1.07512e-17
6505.85284 1.02821e-17
6507.32308 9.76186e-18
6508.79332 1.09176e-17
6510.26356 1.05655e-17
6511.73380 1.13943e-17
6513.20404 1.07817e-17
6514.67428 1.07897e-17
6516.14452 1.01958e-17
6517.61476 1.00168e-17
6519.08500 1.05664e-17
6520.54503 9.92509e-18
6522.01527 9.97070e-18
6523.48551 1.08923e-17
6524.95575 1.05386e-17
6526.42599 1.02116e-17
6527.89623 1.02644e-17
6529.36647 1.00201e-17
6530.83671 1.08982e-17
6532.30695 1.10355e-17
6533.77719 1.05921e-17
6535.24743 1.01237e-17
6536.71767 1.02284e-17
6538.18791 1.09761e-17
6539.65815 1.10590e-17
6541.12839 1.01973e-17
6542.59863 9.52604e-18
6544.06887 9.63281e-18
6545.53911 9.86893e-18
6547.00935 9.82484e-18
6548.47959 9.15084e-18
6549.94983 9.42713e-18
6551.42007 1.01815e-17
6552.89031 1.04367e-17
6554.36055 1.01528e-17
6555.83079 9.65559e-18
6557.30103 9.87813e-18
6558.77127 9.16330e-18
6560.24151 8.80997e-18
6561.71175 9.42331e-18
6563.18199 9.37770e-18
6564.65223 9.35869e-18
6566.12247 9.63039e-18
6567.59271 9.67079e-18
6569.06295 9.67047e-18
6570.53319 9.80908e-18
6572.00343 9.30635e-18
6573.47367 8.78994e-18
6574.94391 8.65760e-18
6576.41415 8.92969e-18
6577.88439 9.38661e-18
6579.35463 8.69495e-18
6580.81466 7.98289e-18
6582.28490 8.33820e-18
6583.75514 7.98938e-18
6585.22538 8.09095e-18
6586.69562 9.21678e-18
6588.16586 9.21129e-18
6589.63610 9.23257e-18
6591.10634 9.25144e-18
6592.57658 8.57719e-18
6594.04682 8.53190e-18
6595.51706 8.94540e-18
6596.98730 8.70320e-18
6598.45754 8.64933e-18
6599.92778 9.01852e-18
6601.39802 8.46555e-18
6602.86826 8.18302e-18
6604.33850 8.75236e-18
6605.80874 9.47023e-18
6607.27898 9.30756e-18
6608.74922 8.52803e-18
6610.21946 8.84204e-18
6611.68970 9.38290e-18
6613.15994 9.08677e-18
6614.63018 8.73935e-18
6616.10042 8.82932e-18
6617.57066 9.04388e-18
6619.04090 8.65215e-18
6620.51114 8.79707e-18
6621.98138 8.29311e-18
6623.45162 7.87706e-18
6624.92186 8.44610e-18
6626.39210 9.13918e-18
6627.86234 9.67235e-18
6629.33258 9.25758e-18
6630.80282 9.20009e-18
6632.27306 9.61134e-18
6633.74330 9.20978e-18
6635.21354 9.64112e-18
6636.68378 9.78263e-18
6638.15402 9.37888e-18
6639.62426 9.03828e-18
6641.09450 8.90493e-18
6642.56474 1.00093e-17
6644.02477 9.94234e-18
6645.49501 9.30822e-18
6646.96525 9.43206e-18
6648.43549 9.85962e-18
6649.90573 9.84480e-18
6651.37597 1.03156e-17
6652.84621 9.58071e-18
6654.31645 9.49130e-18
6655.78669 1.05890e-17
6657.25693 1.03286e-17
6658.72717 8.96579e-18
6660.19741 9.20371e-18
6661.66765 9.65725e-18
6663.13789 1.00028e-17
6664.60813 9.96800e-18
6666.07837 9.61801e-18
6667.54861 1.06092e-17
6669.01885 1.04521e-17
6670.48909 1.03514e-17
6671.95933 1.01084e-17
6673.42957 9.61867e-18
6674.89981 9.79974e-18
6676.37005 1.00742e-17
6677.84029 1.00853e-17
6679.31053 1.03893e-17
6680.78077 9.82253e-18
6682.25101 9.96989e-18
6683.72125 1.01178e-17
6685.19149 9.95738e-18
6686.66173 9.87897e-18
6688.13197 9.55159e-18
6689.60221 9.55600e-18
6691.07245 1.14544e-17
6692.54269 1.13357e-17
6694.01293 1.07083e-17
6695.48317 1.02459e-17
6696.95341 9.20838e-18
6698.42365 1.01679e-17
6699.89389 1.05879e-17
6701.36413 9.64114e-18
6702.83437 1.05634e-17
6704.30461 1.02989e-17
6705.77485 1.00430e-17
6707.24509 9.65494e-18
6708.70512 8.65131e-18
6710.17536 9.26604e-18
6711.64560 9.85563e-18
6713.11584 9.06425e-18
6714.58608 9.09026e-18
6716.05632 1.01057e-17
6717.52656 1.07863e-17
6718.99680 1.06347e-17
6720.46704 9.47982e-18
6721.93728 9.91935e-18
6723.40752 1.11985e-17
6724.87776 9.83543e-18
6726.34800 8.99992e-18
6727.81824 9.56768e-18
6729.28848 1.08380e-17
6730.75872 1.06874e-17
6732.22896 1.05024e-17
6733.69920 1.06227e-17
6735.16944 1.08186e-17
6736.63968 1.05207e-17
6738.10992 9.72290e-18
6739.58016 1.06600e-17
6741.05040 1.12836e-17
6742.52064 1.05963e-17
6743.99088 9.75675e-18
6745.46112 9.59862e-18
6746.93136 9.47111e-18
6748.40160 1.00049e-17
6749.87184 1.07854e-17
6751.34208 1.03600e-17
6752.81232 9.07291e-18
6754.28256 9.73237e-18
6755.75280 8.94651e-18
6757.22304 9.11798e-18
6758.69328 1.02315e-17
6760.16352 1.04247e-17
6761.63376 1.07419e-17
6763.10400 1.10599e-17
6764.57424 9.78265e-18
6766.04448 9.57788e-18
6767.50451 1.01340e-17
6768.97475 1.04275e-17
6770.44499 1.04108e-17
6771.91523 1.11324e-17
6773.38547 1.08056e-17
6774.85571 9.81281e-18
6776.32595 9.93009e-18
6777.79619 1.00888e-17
6779.26643 1.03832e-17
6780.73667 1.13131e-17
6782.20691 1.01245e-17
6783.67715 8.88590e-18
6785.14739 9.56558e-18
6786.61763 1.06401e-17
6788.08787 1.04136e-17
6789.55811 9.83911e-18
6791.02835 1.00442e-17
6792.49859 9.92512e-18
6793.96883 9.66439e-18
6795.43907 9.63750e-18
6796.90931 9.98912e-18
6798.37955 1.05836e-17
6799.84979 1.05416e-17
6801.32003 1.02809e-17
6802.79027 1.03762e-17
6804.26051 9.93540e-18
6805.73075 9.78596e-18
6807.20099 9.88013e-18
6808.67123 1.01887e-17
6810.14147 1.04241e-17
6811.61171 9.63367e-18
6813.08195 9.88795e-18
6814.55219 9.99446e-18
6816.02243 9.30384e-18
6817.49267 9.39981e-18
6818.96291 1.00198e-17
6820.43315 9.77919e-18
6821.90339 8.91869e-18
6823.37363 9.48471e-18
6824.84387 1.00277e-17
6826.31411 1.03081e-17
6827.78435 9.88356e-18
6829.25459 8.83198e-18
6830.72483 9.68867e-18
6832.19507 1.02345e-17
6833.65510 9.48831e-18
6835.12534 9.01146e-18
6836.59558 8.99352e-18
6838.06582 9.72449e-18
6839.53606 1.00677e-17
6841.00630 1.00838e-17
6842.47654 1.02104e-17
6843.94678 9.55723e-18
6845.41702 8.97855e-18
6846.88726 9.22449e-18
6848.35750 9.89139e-18
6849.82774 9.48153e-18
6851.29798 9.44994e-18
6852.76822 9.96836e-18
6854.23846 9.42886e-18
6855.70870 9.98644e-18
6857.17894 9.46368e-18
6858.64918 8.53104e-18
6860.11942 9.49873e-18
6861.58966 9.43007e-18
6863.05990 9.28782e-18
6864.53014 9.64680e-18
6866.00038 9.05576e-18
6867.47062 8.72895e-18
6868.94086 9.15526e-18
6870.41110 1.01605e-17
6871.88134 1.00681e-17
6873.35158 9.03598e-18
6874.82182 8.69989e-18
6876.29206 9.17555e-18
6877.76230 8.87392e-18
6879.23254 9.15148e-18
6880.70278 9.60261e-18
6882.17302 9.28409e-18
6883.64326 8.96629e-18
6885.11350 8.36235e-18
6886.58374 7.55359e-18
6888.05398 7.82361e-18
6889.52422 8.58405e-18
6890.99446 8.85438e-18
6892.46470 7.96057e-18
6893.93494 7.68702e-18
6895.39497 8.32387e-18
6896.86521 8.92049e-18
6898.33545 8.64991e-18
6899.80569 7.74373e-18
6901.27593 8.21685e-18
6902.74617 8.64136e-18
6904.21641 9.43228e-18
6905.68665 9.91174e-18
6907.15689 9.56928e-18
6908.62713 9.30229e-18
6910.09737 9.54892e-18
6911.56761 9.36192e-18
6913.03785 8.97938e-18
6914.50809 9.45040e-18
6915.97833 9.48844e-18
6917.44857 8.54947e-18
6918.91881 8.42560e-18
6920.38905 8.85252e-18
6921.85929 8.99079e-18
6923.32953 9.18401e-18
6924.79977 9.24816e-18
6926.27001 8.73833e-18
6927.74025 8.01627e-18
6929.21049 8.75800e-18
6930.68073 8.92677e-18
6932.15097 7.45286e-18
6933.62121 6.67285e-18
6935.09145 7.54799e-18
6936.56169 8.95939e-18
6938.03193 8.33483e-18
6939.50217 8.41380e-18
6940.97241 9.12150e-18
6942.44265 9.13006e-18
6943.91289 8.78523e-18
6945.38313 7.85621e-18
6946.85337 8.03665e-18
6948.32361 8.89497e-18
6949.79385 9.04522e-18
6951.26409 9.27084e-18
6952.73433 9.00035e-18
6954.20457 7.94964e-18
6955.66460 8.51287e-18
6957.13484 9.20469e-18
6958.60508 8.55240e-18
6960.07532 7.72921e-18
6961.54556 8.24837e-18
6963.01580 8.55370e-18
6964.48604 7.95248e-18
6965.95628 8.12337e-18
6967.42652 7.94505e-18
6968.89676 8.03426e-18
6970.36700 9.02185e-18
6971.83724 8.39433e-18
6973.30748 8.28312e-18
6974.77772 8.15159e-18
6976.24796 7.19886e-18
6977.71820 7.07634e-18
6979.18844 8.23070e-18
6980.65868 8.59598e-18
6982.12892 7.43208e-18
6983.59916 7.50098e-18
6985.06940 7.98108e-18
6986.53964 7.55160e-18
6988.00988 7.30916e-18
6989.48012 7.24089e-18
6990.95036 7.89084e-18
6992.42060 8.15090e-18
6993.89084 8.61968e-18
6995.36108 9.21627e-18
6996.83132 8.41157e-18
6998.30156 7.32082e-18
6999.77180 7.63613e-18
7001.24204 8.38110e-18
7002.71228 8.21083e-18
7004.18252 7.85487e-18
7005.65276 8.17800e-18
7007.12300 8.15793e-18
7008.59324 8.78967e-18
7010.06348 8.03726e-18
7011.53372 7.51082e-18
7013.00396 8.58952e-18
7014.47420 8.54033e-18
7015.94444 7.67757e-18
7017.41468 7.83458e-18
7018.87471 8.20953e-18
7020.35516 8.24734e-18
7021.81519 8.25757e-18
7023.28543 7.63447e-18
7024.75567 7.58670e-18
7026.22591 8.30776e-18
7027.69615 8.67981e-18
7029.16639 8.91313e-18
7030.63663 8.90651e-18
7032.10687 8.25629e-18
7033.57711 8.42552e-18
7035.04735 8.66719e-18
7036.51759 8.31079e-18
7037.98783 8.11919e-18
7039.45807 7.79667e-18
7040.92831 7.84530e-18
7042.39855 7.61835e-18
7043.86879 7.67109e-18
7045.33903 8.07568e-18
7046.80927 8.59005e-18
7048.27951 8.34460e-18
7049.74975 7.52117e-18
7051.21999 8.28040e-18
7052.69023 8.95650e-18
7054.16047 7.79898e-18
7055.63071 7.82054e-18
7057.10095 8.72281e-18
7058.57119 8.89705e-18
7060.04143 8.99742e-18
7061.51167 9.02683e-18
7062.98191 8.81320e-18
7064.45215 8.49415e-18
7065.92239 7.10327e-18
7067.39263 7.72348e-18
7068.86287 9.36630e-18
7070.33311 8.97473e-18
7071.80335 7.85330e-18
7073.27359 7.02655e-18
7074.74383 7.12595e-18
7076.21407 8.40125e-18
7077.68431 9.26377e-18
7079.15455 9.32183e-18
7080.62479 9.05829e-18
7082.08482 8.64732e-18
7083.55506 8.50692e-18
7085.02530 8.57972e-18
7086.49554 8.47402e-18
7087.96578 8.20375e-18
7089.43602 8.72106e-18
7090.90626 8.25892e-18
7092.37650 7.31148e-18
7093.84674 8.65178e-18
7095.31698 9.60498e-18
7096.78722 8.62727e-18
7098.25746 8.29135e-18
7099.72770 8.73970e-18
7101.19794 8.46882e-18
7102.66818 8.04213e-18
7104.13842 8.32795e-18
7105.60866 8.77051e-18
7107.07890 8.73313e-18
7108.54914 8.31731e-18
7110.01938 8.39752e-18
7111.48962 8.81536e-18
7112.95986 8.80455e-18
7114.43010 8.61980e-18
7115.90034 8.71931e-18
7117.37058 8.77574e-18
7118.84082 8.34262e-18
7120.31106 8.36428e-18
7121.78130 9.02757e-18
7123.25154 9.29042e-18
7124.72178 9.04230e-18
7126.19202 8.75236e-18
7127.66226 8.65768e-18
7129.13250 8.80609e-18
7130.60274 8.79037e-18
7132.07298 8.75612e-18
7133.54322 8.61601e-18
7135.01346 8.30643e-18
7136.48370 8.16788e-18
7137.95394 8.23959e-18
7139.42418 8.26224e-18
7140.89442 7.91250e-18
7142.36466 8.10817e-18
7143.83490 8.94415e-18
7145.29493 8.84561e-18
7146.76517 8.55437e-18
7148.23541 9.01492e-18
7149.70565 8.89545e-18
7151.17589 8.42264e-18
7152.64613 8.91505e-18
7154.11637 9.04667e-18
7155.58661 8.32244e-18
7157.05685 8.30051e-18
7158.52709 8.48796e-18
7159.99733 8.30148e-18
7161.46757 7.87627e-18
7162.93781 7.72432e-18
7164.40805 7.96443e-18
7165.87829 8.66822e-18
7167.34853 9.46334e-18
7168.81877 8.91234e-18
7170.28901 8.63913e-18
7171.75925 8.67290e-18
7173.22949 8.03671e-18
7174.69973 8.02222e-18
7176.16997 8.69803e-18
7177.64021 8.49342e-18
7179.11045 7.67316e-18
7180.58069 8.48898e-18
7182.05093 9.45012e-18
7183.52117 9.48812e-18
7184.99141 9.16008e-18
7186.46165 8.72678e-18
7187.93189 8.91106e-18
7189.40213 9.15910e-18
7190.87237 8.16071e-18
7192.34261 7.58759e-18
7193.81285 8.18225e-18
7195.28309 8.22475e-18
7196.75333 7.64815e-18
7198.22357 7.87946e-18
7199.69381 8.63981e-18
7201.16405 8.55100e-18
7202.63429 8.41300e-18
7204.10453 8.59152e-18
7205.56456 8.51753e-18
7207.04501 8.39973e-18
7208.50504 8.01180e-18
7209.97528 7.13226e-18
7211.44552 6.42025e-18
7212.91576 6.96886e-18
7214.38600 7.97486e-18
7215.85624 8.28156e-18
7217.32648 8.14677e-18
7218.79672 6.87232e-18
7220.26696 6.41419e-18
7221.73720 7.57733e-18
7223.20744 8.07429e-18
7224.67768 7.98351e-18
7226.14792 7.13016e-18
7227.61816 7.00428e-18
7229.08840 7.48286e-18
7230.55864 8.22263e-18
7232.02888 9.02961e-18
7233.49912 8.58887e-18
7234.96936 8.27727e-18
7236.43960 8.39580e-18
7237.90984 8.43267e-18
7239.38008 8.40677e-18
7240.85032 8.63344e-18
7242.32056 8.80479e-18
7243.79080 8.83771e-18
7245.26104 8.88932e-18
7246.73128 8.95343e-18
7248.20152 9.07758e-18
7249.67176 8.51995e-18
7251.14200 7.69657e-18
7252.61224 7.85317e-18
7254.08248 8.52138e-18
7255.55272 9.44941e-18
7257.02296 9.68523e-18
7258.49320 9.13424e-18
7259.96344 8.83032e-18
7261.43368 8.69535e-18
7262.90392 9.17522e-18
7264.37416 9.45126e-18
7265.84440 8.22810e-18
7267.31464 8.01745e-18
7268.77467 9.01994e-18
7270.24491 9.01394e-18
7271.71515 8.01987e-18
7273.18539 7.71447e-18
7274.65563 9.24388e-18
7276.12587 8.90415e-18
7277.59611 8.38506e-18
7279.06635 1.02273e-17
7280.53659 9.77571e-18
7282.00683 9.06990e-18
7283.47707 8.93417e-18
7284.94731 8.77622e-18
7286.41755 8.72576e-18
7287.88779 8.16052e-18
7289.35803 7.94836e-18
7290.82827 8.50392e-18
7292.29851 8.57858e-18
7293.76875 8.53472e-18
7295.23899 8.91724e-18
7296.70923 8.56772e-18
7298.17947 8.41945e-18
7299.64971 8.97044e-18
7301.11995 8.54182e-18
7302.59019 9.07611e-18
7304.06043 1.07688e-17
7305.53067 1.03599e-17
7307.00091 8.67835e-18
7308.47115 8.60249e-18
7309.94139 9.19135e-18
7311.41163 8.35166e-18
7312.88187 7.86949e-18
7314.35211 8.49399e-18
7315.82235 8.10902e-18
7317.29259 8.09963e-18
7318.76283 8.31453e-18
7320.23307 8.35152e-18
7321.70331 7.90068e-18
7323.17355 8.31403e-18
7324.64379 8.56950e-18
7326.11403 8.18199e-18
7327.58427 8.01573e-18
7329.05451 7.84639e-18
7330.52475 7.11670e-18
7331.99499 8.05913e-18
7333.45502 8.88340e-18
7334.92526 8.54443e-18
7336.39550 8.42676e-18
7337.86574 7.95385e-18
7339.33598 8.58235e-18
7340.80622 8.83365e-18
7342.27646 8.80738e-18
7343.74670 9.00481e-18
7345.21694 9.21761e-18
7346.68718 8.34321e-18
7348.15742 7.71304e-18
7349.62766 8.65168e-18
7351.09790 9.25166e-18
7352.56814 9.01466e-18
7354.03838 9.83322e-18
7355.50862 1.03811e-17
7356.97886 9.69510e-18
7358.44910 9.06885e-18
7359.91934 8.30371e-18
7361.38958 8.38435e-18
7362.85982 8.35885e-18
7364.33006 8.91809e-18
7365.80030 8.76264e-18
7367.27054 7.79539e-18
7368.74078 8.03219e-18
7370.21102 7.52594e-18
7371.68126 7.58875e-18
7373.15150 8.15187e-18
7374.62174 8.06958e-18
7376.09198 8.18296e-18
7377.56222 9.07979e-18
7379.03246 9.31514e-18
7380.50270 8.39048e-18
7381.97294 7.53011e-18
7383.44318 8.27829e-18
7384.91342 9.60240e-18
7386.38366 9.20198e-18
7387.85390 8.48929e-18
7389.32414 8.41672e-18
7390.79438 8.65173e-18
7392.25441 9.79332e-18
7393.72465 9.80743e-18
7395.20510 8.66159e-18
7396.66513 8.81593e-18
7398.13537 8.79154e-18
7399.60561 8.96820e-18
7401.07585 9.00651e-18
7402.54609 9.06223e-18
7404.01633 8.51689e-18
7405.48657 8.55201e-18
7407.12935 8.55201e-18
7408.82694 7.43496e-18
7410.52453 6.84615e-18
7412.22211 7.06649e-18
7413.91970 7.45340e-18
7415.61729 7.78359e-18
7417.31488 8.34596e-18
7419.01247 8.92336e-18
7420.71005 8.62207e-18
7422.40764 7.39552e-18
7424.10523 6.56343e-18
7425.80282 6.80284e-18
7427.50041 7.47247e-18
7429.19800 8.01638e-18
7430.89558 8.27240e-18
7432.59317 8.22397e-18
7434.29076 8.14648e-18
7435.98835 8.27972e-18
7437.68594 8.60170e-18
7439.38352 9.00543e-18
7441.09116 9.36014e-18
7442.78874 9.50565e-18
7444.48633 9.09430e-18
7446.18392 7.98406e-18
7447.88151 6.99639e-18
7449.57910 7.00494e-18
7451.27669 7.70502e-18
7452.97427 8.32112e-18
7454.67186 8.33536e-18
7456.36945 7.50594e-18
7458.06704 6.29722e-18
7459.76463 5.55512e-18
7461.46221 5.48937e-18
7463.15980 5.81223e-18
7464.85739 6.40136e-18
7466.55498 7.23200e-18
7468.25257 8.05315e-18
7469.95015 8.46075e-18
7471.64774 8.34108e-18
7473.34533 7.90709e-18
7475.04292 7.49275e-18
7476.74051 7.57727e-18
7478.43809 8.11590e-18
7480.13568 8.22983e-18
7481.83327 7.64008e-18
7483.53086 7.19751e-18
7485.22845 7.39570e-18
7486.92604 7.88244e-18
7488.62362 8.32178e-18
7490.32121 8.61951e-18
7492.01880 8.67864e-18
7493.71639 8.28741e-18
7495.41398 7.44931e-18
7497.11156 6.79080e-18
7498.80915 6.82618e-18
7500.50674 7.29350e-18
7502.20433 7.77554e-18
7503.90192 8.07763e-18
7505.59950 8.14836e-18
7507.29709 8.32377e-18
7508.99468 8.93239e-18
7510.69227 9.53828e-18
7512.38986 9.45985e-18
7514.08745 8.48327e-18
7515.78503 6.79231e-18
7517.48262 5.31780e-18
7519.18021 5.29387e-18
7520.87780 6.41144e-18
7522.58543 7.18630e-18
7524.28302 7.26864e-18
7525.98061 7.34773e-18
7527.67819 7.61933e-18
7529.37578 7.81472e-18
7531.07337 7.81811e-18
7532.77096 7.64581e-18
7534.46855 7.40369e-18
7536.16614 7.33902e-18
7537.86372 7.52768e-18
7539.56131 7.74896e-18
7541.25890 7.85524e-18
7542.95649 7.87636e-18
7544.65408 7.84592e-18
7546.35166 7.79432e-18
7548.04925 7.71982e-18
7549.74684 7.49684e-18
7551.44443 7.49034e-18
7553.14202 7.48385e-18
7554.83960 7.47734e-18
7556.53719 7.47085e-18
7558.23478 7.46436e-18
7559.93237 7.45786e-18
7561.62996 7.45136e-18
7563.32754 7.44486e-18
7565.02513 7.43837e-18
7566.72272 7.43188e-18
7568.42031 7.42538e-18
7570.11790 7.41889e-18
7571.81549 7.41239e-18
7573.51307 7.40590e-18
7575.21066 7.39941e-18
7576.90825 7.39291e-18
7578.60584 7.38643e-18
7580.30343 7.37993e-18
7582.00101 7.37344e-18
7583.69860 7.36695e-18
7585.39619 7.36046e-18
7587.09378 7.35397e-18
7588.79137 7.34749e-18
7590.48895 7.34099e-18
7592.18654 7.33450e-18
7593.88413 7.32802e-18
7595.58172 7.32153e-18
7597.27931 7.31504e-18
7598.97689 7.30855e-18
7600.67448 7.30207e-18
7602.37207 7.29559e-18
7604.06966 7.28910e-18
7605.76725 7.28262e-18
7607.47488 7.27613e-18
7609.17247 7.26965e-18
7610.87006 7.26316e-18
7612.56764 7.25668e-18
7614.26523 7.25019e-18
7615.96282 7.24371e-18
7617.66041 7.23722e-18
7619.35800 7.23075e-18
7621.05559 7.22426e-18
7622.75317 7.21779e-18
7624.45076 7.21130e-18
7626.14835 7.20483e-18
7627.84594 7.19834e-18
7629.54353 7.19187e-18
7631.24111 7.18539e-18
7632.93870 7.17890e-18
7634.63629 7.17243e-18
7636.33388 7.16595e-18
7638.03147 7.15948e-18
7639.72905 7.15300e-18
7641.42664 7.14652e-18
7643.12423 7.14005e-18
7644.82182 7.13357e-18
7646.51941 7.12709e-18
7648.21699 7.12062e-18
7649.91458 7.11415e-18
7651.61217 7.10767e-18
7653.30976 7.10120e-18
7655.00735 7.09473e-18
7656.70494 7.08825e-18
7658.40252 7.08179e-18
7660.10011 7.07531e-18
7661.79770 7.06884e-18
7663.49529 7.06236e-18
7665.19288 7.05590e-18
7666.89046 7.04943e-18
7668.58805 7.04296e-18
7670.28564 7.03649e-18
7671.98323 7.03002e-18
7673.68082 7.02356e-18
7675.37840 7.01709e-18
7677.07599 7.01061e-18
7678.77358 7.00415e-18
7680.47117 6.99768e-18
7682.16876 6.99738e-18
7683.86634 6.92041e-18
7685.56393 6.79188e-18
7687.26152 6.64848e-18
7688.96915 6.57644e-18
7690.66674 6.66400e-18
7692.36433 6.85296e-18
7694.06192 6.98072e-18
7695.75951 6.96744e-18
7697.45709 6.82137e-18
7699.15468 6.59952e-18
7700.85227 6.40788e-18
7702.54986 6.40318e-18
7704.24745 6.78546e-18
7705.94504 7.45176e-18
7707.64262 7.88930e-18
7709.34021 7.88742e-18
7711.03780 7.75538e-18
7712.73539 7.63492e-18
7714.43298 7.28744e-18
7716.13056 6.68908e-18
7717.82815 6.32281e-18
7719.52574 6.40019e-18
7721.22333 6.32744e-18
7722.92092 5.79250e-18
7724.61850 5.57703e-18
7726.31609 6.25072e-18
7728.01368 7.18459e-18
7729.71127 7.69153e-18
7731.40886 7.88875e-18
7733.10644 8.02282e-18
7734.80403 7.83651e-18
7736.50162 7.10969e-18
7738.19921 6.47321e-18
7739.89680 6.67351e-18
7741.59439 7.34238e-18
7743.29197 7.67329e-18
7744.98956 7.66261e-18
7746.68715 7.73696e-18
7748.38474 7.95676e-18
7750.08233 8.15623e-18
7751.77991 8.22079e-18
7753.47750 8.07579e-18
7755.17509 7.85623e-18
7756.87268 7.88487e-18
7758.57027 8.26415e-18
7760.26785 8.85189e-18
7761.96544 9.28039e-18
7763.66303 8.89446e-18
7765.36062 7.79482e-18
7767.05821 7.22532e-18
7768.75579 7.66743e-18
7770.46343 8.21486e-18
7772.16102 8.27269e-18
7773.85860 8.02156e-18
7775.55619 7.65297e-18
7777.25378 7.23406e-18
7778.95137 6.88010e-18
7780.64896 6.83005e-18
7782.34654 7.17498e-18
7784.04413 7.58987e-18
7785.74172 7.75567e-18
7787.43931 7.63239e-18
7789.13690 7.31290e-18
7790.83448 7.11909e-18
7792.53207 7.31786e-18
7794.22966 7.51643e-18
7795.92725 7.26263e-18
7797.62484 7.16951e-18
7799.32243 8.06469e-18
7801.02001 9.35368e-18
7802.71760 9.83095e-18
7804.41519 9.33206e-18
7806.11278 8.40145e-18
7807.81037 7.61843e-18
7809.50795 7.53929e-18
7811.20554 7.95261e-18
7812.90313 7.94922e-18
7814.60072 7.51585e-18
7816.29831 7.56944e-18
7817.99589 8.16559e-18
7819.69348 8.34538e-18
7821.39107 7.90654e-18
7823.08866 7.69786e-18
7824.78625 7.99752e-18
7826.48384 8.13556e-18
7828.18142 7.80048e-18
7829.87901 7.41786e-18
7831.57660 7.20409e-18
7833.27419 6.79560e-18
7834.97178 6.08734e-18
7836.66936 5.69812e-18
7838.36695 6.05632e-18
7840.06454 6.92959e-18
7841.76213 7.87962e-18
7843.45972 8.19311e-18
7845.15730 7.45794e-18
7846.85489 6.43850e-18
7848.55248 6.04392e-18
7850.25007 6.30943e-18
7851.94766 6.93556e-18
7853.64524 7.74029e-18
7855.35288 8.53760e-18
7857.05047 8.95823e-18
7858.74805 8.67988e-18
7860.44564 7.97618e-18
7862.14323 7.43308e-18
7863.84082 7.11128e-18
7865.53841 6.70596e-18
7867.23599 6.29419e-18
7868.93358 6.22332e-18
7870.63117 6.33691e-18
7872.32876 6.04035e-18
7874.02635 5.41882e-18
7875.72393 5.29376e-18
7877.42152 5.92214e-18
7879.11911 6.85483e-18
7880.81670 7.50250e-18
7882.51429 7.02886e-18
7884.21188 5.56228e-18
7885.90946 4.95804e-18
7887.60705 6.05987e-18
7889.30464 7.48809e-18
7891.00223 8.14728e-18
7892.69982 8.05181e-18
7894.39740 7.45384e-18
7896.09499 6.88707e-18
7897.79258 6.74326e-18
7899.49017 6.71267e-18
7901.18776 6.50133e-18
7902.88534 6.46323e-18
7904.58293 6.91508e-18
7906.28052 7.51434e-18
7907.97811 7.78225e-18
7909.67570 7.45754e-18
7911.37328 6.52509e-18
7913.07087 5.60359e-18
7914.76846 5.45760e-18
7916.46605 6.11424e-18
7918.16364 7.10587e-18
7919.86123 7.66369e-18
7921.55881 6.99935e-18
7923.25640 5.60147e-18
7924.95399 4.91201e-18
7926.65158 5.38340e-18
7928.34917 6.50735e-18
7930.04675 7.64526e-18
7931.74434 8.01573e-18
7933.44193 7.55554e-18
7935.13952 7.16299e-18
7936.84715 7.14205e-18
7938.54474 6.88144e-18
7940.24233 6.28150e-18
7941.93992 6.07656e-18
7943.63750 6.61529e-18
7945.33509 7.55325e-18
7947.03268 8.39052e-18
7948.73027 8.37884e-18
7950.42786 7.26077e-18
7952.12544 5.99235e-18
7953.82303 5.40305e-18
7955.52062 5.42062e-18
7957.21821 5.78287e-18
7958.91580 6.22797e-18
7960.61338 6.55341e-18
7962.31097 6.92725e-18
7964.00856 7.50141e-18
7965.70615 7.83674e-18
7967.40374 7.46669e-18
7969.10133 6.66757e-18
7970.79891 5.98715e-18
7972.49650 5.64355e-18
7974.19409 5.63574e-18
7975.89168 5.77605e-18
7977.58927 5.77297e-18
7979.28685 5.61749e-18
7980.98444 5.51024e-18
7982.68203 5.44095e-18
7984.37962 5.24159e-18
7986.07721 4.88849e-18
7987.77479 4.49029e-18
7989.47238 4.25509e-18
7991.16997 4.49411e-18
7992.86756 5.17941e-18
7994.56515 5.83597e-18
7996.26273 6.14417e-18
7997.96032 6.05213e-18
7999.65791 5.63843e-18
8001.35550 5.19857e-18
8003.05309 4.88771e-18
8004.75068 4.49230e-18
8006.44826 3.92564e-18
8008.14585 3.49286e-18
8009.84344 3.38371e-18
8011.54103 3.35413e-18
8013.23862 3.21523e-18
8014.93620 3.18116e-18
8016.63379 3.44020e-18
8018.34143 3.81572e-18
8020.03901 4.09045e-18
8021.73660 4.29419e-18
8023.43419 4.49906e-18
8025.13178 4.57933e-18
8026.82937 4.39187e-18
8028.52695 4.07788e-18
8030.22454 3.86417e-18
8031.92213 3.64024e-18
8033.61972 3.15913e-18
8035.31731 2.57465e-18
8037.01489 2.27491e-18
8038.71248 2.30041e-18
8040.41007 2.42484e-18
8042.10766 2.61899e-18
8043.80525 3.01407e-18
8045.50283 3.60964e-18
8047.20042 4.27880e-18
8048.89801 4.80698e-18
8050.59560 4.88263e-18
8052.29319 4.40974e-18
8053.99078 3.60632e-18
8055.68836 2.72416e-18
8057.38595 1.98561e-18
8059.08354 1.65861e-18
8060.78113 2.14547e-18
8062.47872 3.38046e-18
8064.17630 4.32578e-18
8065.87389 4.29083e-18
8067.57148 3.70188e-18
8069.26907 3.09294e-18
8070.96666 2.70459e-18
8072.66424 2.68022e-18
8074.36183 3.08607e-18
8076.05942 3.82072e-18
8077.75701 4.36522e-18
8079.45460 4.26045e-18
8081.15218 3.77929e-18
8082.84977 3.39609e-18
8084.54736 3.10584e-18
8086.24495 2.74038e-18
8087.94254 2.40473e-18
8089.64013 2.30617e-18
8091.33771 2.52010e-18
8093.03530 3.01069e-18
8094.73289 3.58337e-18
8096.43048 3.94325e-18
8098.12807 3.98330e-18
8099.82565 3.78485e-18
8101.52324 3.47700e-18
8103.22083 3.23572e-18
8104.92846 3.08071e-18
8106.62605 2.82469e-18
8108.32364 2.52254e-18
8110.02123 2.56263e-18
8111.71882 2.98700e-18
8113.41640 3.32956e-18
8115.11399 3.21023e-18
8116.81158 2.37203e-18
8118.50917 1.05082e-18
8120.20676 4.95489e-19
8121.90434 1.31898e-18
8123.60193 2.41556e-18
8125.29952 2.86950e-18
8126.99711 2.95772e-18
8128.69470 3.04825e-18
8130.39228 3.13957e-18
8132.08987 3.17282e-18
8133.78746 3.10127e-18
8135.48505 2.89299e-18
8137.18264 2.54189e-18
8138.88023 2.10392e-18
8140.57781 1.87547e-18
8142.27540 2.12718e-18
8143.97299 2.58646e-18
8145.67058 2.77079e-18
8147.36817 2.55854e-18
8149.06575 2.08849e-18
8150.76334 1.67056e-18
8152.46093 1.69501e-18
8154.15852 2.13882e-18
8155.85611 2.62361e-18
8157.55369 3.00505e-18
8159.25128 3.36520e-18
8160.94887 3.66559e-18
8162.64646 3.75941e-18
8164.34405 3.67340e-18
8166.04163 3.64178e-18
8167.73922 3.69220e-18
8169.43681 3.54840e-18
8171.13440 3.06729e-18
8172.83199 2.33331e-18
8174.52958 1.50871e-18
8176.22716 8.46903e-19
8177.92475 5.64276e-19
8179.62234 8.14541e-19
8181.31993 1.52285e-18
8183.01752 2.13182e-18
8184.71510 2.21519e-18
8186.41269 1.86568e-18
8188.12032 1.37311e-18
8189.81791 1.32047e-18
8191.51550 2.05390e-18
8193.21309 2.83907e-18
8194.91068 2.83482e-18
8196.60827 2.12768e-18
8198.30585 1.20578e-18
8200.00344 6.75314e-19
8201.70103 1.02059e-18
8203.39862 1.76506e-18
8205.09621 2.01749e-18
8206.79379 1.91338e-18
8208.49138 2.19259e-18
8210.18897 2.88584e-18
8211.88656 3.51364e-18
8213.58415 3.78481e-18
8215.28173 3.57316e-18
8216.97932 3.05231e-18
8218.67691 2.72212e-18
8220.37450 2.68168e-18
8222.07209 2.52554e-18
8223.76967 2.14588e-18
8225.46726 1.85520e-18
8227.16485 1.77070e-18
8228.86244 1.68478e-18
8230.56003 1.56526e-18
8232.25762 1.73192e-18
8233.95520 2.28226e-18
8235.65279 2.81414e-18
8237.35038 3.05638e-18
8239.04797 3.18906e-18
8240.74556 3.35091e-18
8242.44314 3.37240e-18
8244.14073 3.13862e-18
8245.83832 2.83496e-18
8247.53591 2.64804e-18
8249.23350 2.57636e-18
8250.93108 2.53771e-18
8252.62867 2.28681e-18
8254.32626 1.66545e-18
8256.02385 1.16915e-18
8257.72144 1.38871e-18
8259.41903 2.03826e-18
8261.11661 2.44661e-18
8262.81420 2.36887e-18
8264.51179 1.88108e-18
8266.20938 1.38746e-18
8267.91701 1.47254e-18
8269.60455 2.05151e-18
8271.30214 2.47356e-18
8273.00977 2.46666e-18
8274.70736 2.14169e-18
8276.40495 1.70575e-18
8278.10254 1.49259e-18
8279.80013 1.62335e-18
8281.49772 1.90544e-18
8283.19530 2.22541e-18
8284.89289 2.61701e-18
8286.59048 3.02373e-18
8288.28807 3.24370e-18
8289.98566 3.20048e-18
8291.68324 3.05700e-18
8293.38083 2.96163e-18
8295.07842 2.97286e-18
8296.77601 3.09263e-18
8298.47360 3.21935e-18
8300.17118 3.25478e-18
8301.86877 3.17659e-18
8303.56636 2.99390e-18
8305.26395 2.75075e-18
8306.96154 2.49202e-18
8308.65912 2.21449e-18
8310.35671 1.91250e-18
8312.05430 1.59488e-18
8313.75189 1.30584e-18
8315.44948 1.25831e-18
8317.14707 1.65740e-18
8318.84465 2.30516e-18
8320.54224 2.80888e-18
8322.23983 3.03827e-18
8323.93742 3.06467e-18
8325.63501 3.04701e-18
8327.33259 3.19971e-18
8329.03018 3.48697e-18
8330.72777 3.63873e-18
8332.42536 3.51982e-18
8334.12295 3.14261e-18
8335.82053 2.67914e-18
8337.51812 2.50506e-18
8339.21571 2.63356e-18
8340.91330 2.54510e-18
8342.61089 2.09961e-18
8344.30847 1.78274e-18
8346.00606 1.92395e-18
8347.70365 2.54957e-18
8349.40124 3.47012e-18
8351.09883 4.09930e-18
8352.79642 4.08104e-18
8354.50405 3.70232e-18
8356.20164 3.31544e-18
8357.89922 3.12869e-18
8359.59681 3.24131e-18
8361.29440 3.54524e-18
8362.99199 3.84992e-18
8364.68958 3.91057e-18
8366.38717 3.57374e-18
8368.08475 3.05076e-18
8369.78234 2.65327e-18
8371.47993 2.42129e-18
8373.17752 2.30512e-18
8374.87511 2.51383e-18
8376.57269 3.27912e-18
8378.27028 4.30292e-18
8379.96787 5.01154e-18
8381.66546 5.27872e-18
8383.36305 5.30894e-18
8385.06063 5.14482e-18
8386.75822 4.72573e-18
8388.45581 3.98256e-18
8390.15340 2.82789e-18
8391.85099 1.74483e-18
8393.54857 1.83436e-18
8395.24616 3.15911e-18
8396.94375 4.42016e-18
8398.64134 4.85026e-18
8400.33893 4.54655e-18
8402.03652 3.82887e-18
8403.73410 3.37477e-18
8405.43169 3.49021e-18
8407.12928 3.61292e-18
8408.82687 3.37614e-18
8410.52446 3.06530e-18
8412.22204 2.94993e-18
8413.91963 3.06800e-18
8415.61722 3.37774e-18
8417.31481 3.71472e-18
8419.01240 3.93154e-18
8420.70998 4.07623e-18
8422.40757 4.21706e-18
8424.10516 4.22136e-18
8425.80275 3.98455e-18
8427.50034 3.80899e-18
8429.19792 4.03411e-18
8430.89551 4.40224e-18
8432.59310 4.45173e-18
8434.29069 4.22867e-18
8435.99832 4.05131e-18
8437.69591 4.06641e-18
8439.39350 4.28275e-18
8441.09109 4.45731e-18
8442.77863 4.18048e-18
8444.48626 3.57878e-18
8446.18385 3.26616e-18
8447.88144 3.48956e-18
8449.57903 4.08919e-18
8451.27662 4.80237e-18
8452.97420 5.23335e-18
8454.67179 5.23893e-18
8456.36938 5.08051e-18
8458.06697 4.88267e-18
8459.76456 4.50248e-18
8461.46214 3.91732e-18
8463.15973 3.30330e-18
8464.85732 2.86729e-18
8466.55491 2.87102e-18
8468.25250 3.38465e-18
8469.95008 4.06431e-18
8471.64767 4.55931e-18
8473.34526 4.67597e-18
8475.04285 4.39698e-18
8476.74044 4.10420e-18
8478.43802 4.14573e-18
8480.13561 4.39391e-18
8481.83320 4.58826e-18
8483.53079 4.55144e-18
8485.22838 4.21793e-18
8486.92597 3.86448e-18
8488.62355 3.85706e-18
8490.32114 4.14693e-18
8492.01873 4.47819e-18
8493.71632 4.85855e-18
8495.41391 5.41820e-18
8497.11149 6.00574e-18
8498.80908 6.30206e-18
8500.50667 6.18915e-18
8502.20426 5.74384e-18
8503.90185 5.25990e-18
8505.59943 5.22912e-18
8507.29702 5.71332e-18
8508.99461 6.25092e-18
8510.69220 6.58660e-18
8512.38979 6.77778e-18
8514.08737 6.76823e-18
8515.78496 6.32820e-18
8517.49260 5.48696e-18
8519.19018 4.67491e-18
8520.87773 4.26232e-18
8522.58536 4.48626e-18
8524.27290 5.25786e-18
8525.98054 5.80095e-18
8527.67812 5.60958e-18
8529.37571 5.11729e-18
8531.07330 4.81431e-18
8532.77089 4.83836e-18
8534.46848 5.14981e-18
8536.16606 5.36870e-18
8537.86365 5.17015e-18
8539.56124 4.85163e-18
8541.25883 4.81971e-18
8542.95642 4.98609e-18
8544.65401 5.08732e-18
8546.35159 5.03475e-18
8548.04918 4.84453e-18
8549.74677 4.62246e-18
8551.44436 4.52729e-18
8553.14195 4.62987e-18
8554.83953 4.91452e-18
8556.53712 5.32736e-18
8558.23471 5.77511e-18
8559.93230 6.08325e-18
8561.62989 6.03054e-18
8563.32747 5.70635e-18
8565.02506 5.53590e-18
8566.72265 5.66975e-18
8568.42024 5.89528e-18
8570.11783 6.09566e-18
8571.81542 6.29955e-18
8573.51300 6.49271e-18
8575.21059 6.61731e-18
8576.90818 6.59259e-18
8578.60577 6.26422e-18
8580.30336 5.65078e-18
8582.00094 5.14407e-18
8583.69853 5.00711e-18
8585.39612 5.07201e-18
8587.09371 5.15955e-18
8588.79130 5.27124e-18
8590.48888 5.43458e-18
8592.18647 5.71396e-18
8593.88406 6.09735e-18
8595.58165 6.23638e-18
8597.27924 5.83618e-18
8598.97682 5.15406e-18
8600.67441 4.62678e-18
8602.37200 4.50949e-18
8604.07963 4.87878e-18
8605.76718 5.40781e-18
8607.47481 5.61104e-18
8609.17240 5.55517e-18
8610.86999 5.64441e-18
8612.56757 5.87660e-18
8614.26516 5.97301e-18
8615.96275 5.85954e-18
8617.66034 5.63587e-18
8619.35793 5.62979e-18
8621.05551 6.37280e-18
8622.75310 7.81151e-18
8624.45069 9.21595e-18
8626.14828 9.87501e-18
8627.84587 9.13305e-18
8629.54346 7.12659e-18
8631.24104 5.19733e-18
8632.93863 4.24400e-18
8634.63622 4.24019e-18
8636.33381 4.83877e-18
8638.03140 5.18355e-18
8639.72898 4.83813e-18
8641.42657 4.55240e-18
8643.12416 4.90626e-18
8644.82175 5.58346e-18
8646.51934 6.14683e-18
8648.21692 6.27406e-18
8649.91451 5.83781e-18
8651.61210 5.22962e-18
8653.30969 4.91386e-18
8655.00728 4.98092e-18
8656.70486 5.34287e-18
8658.40245 5.84534e-18
8660.10004 6.30020e-18
8661.79763 6.60872e-18
8663.49522 6.73481e-18
8665.19281 6.57949e-18
8666.89039 6.06629e-18
8668.58798 5.42833e-18
8670.28557 5.08084e-18
8671.98316 5.09776e-18
8673.68075 5.25884e-18
8675.37833 5.47268e-18
8677.07592 5.76233e-18
8678.77351 6.12497e-18
8680.47110 6.54874e-18
8682.16869 6.95028e-18
8683.86627 7.16008e-18
8685.56386 7.06685e-18
8687.26145 6.63678e-18
8688.96908 5.99558e-18
8690.66667 5.50993e-18
8692.36426 5.40713e-18
8694.06185 5.62602e-18
8695.75944 6.01138e-18
8697.45702 6.30102e-18
8699.15461 6.31187e-18
8700.85220 6.08383e-18
8702.54979 5.74298e-18
8704.24738 5.48353e-18
8705.94496 5.46464e-18
8707.64255 5.75157e-18
8709.34014 6.27347e-18
8711.03773 6.57204e-18
8712.73532 6.26943e-18
8714.43291 5.82229e-18
8716.13049 5.85869e-18
8717.82808 6.19423e-18
8719.52567 6.33004e-18
8721.22326 6.21290e-18
8722.92085 6.03789e-18
8724.61843 6.02247e-18
8726.31602 6.36342e-18
8728.01361 6.81902e-18
8729.71120 6.83937e-18
8731.40879 6.47036e-18
8733.10637 6.28442e-18
8734.80396 6.44042e-18
8736.50155 6.67133e-18
8738.19914 6.78755e-18
8739.89673 6.67761e-18
8741.59431 6.34992e-18
8743.29190 5.99672e-18
8744.98949 5.75353e-18
8746.68708 5.64474e-18
8748.38467 5.63853e-18
8750.08226 5.61920e-18
8751.77984 5.50989e-18
8753.47743 5.29585e-18
8755.17502 5.09514e-18
8756.87261 5.34090e-18
8758.57020 6.22757e-18
8760.26778 7.26171e-18
8761.96537 7.92229e-18
8763.66296 8.00008e-18
8765.36055 7.50285e-18
8767.05814 6.87994e-18
8768.75572 6.54523e-18
8770.45331 6.17412e-18
8772.16095 5.33125e-18
8773.85853 4.22684e-18
8775.55612 3.34841e-18
8777.25371 3.22409e-18
8778.95130 4.20206e-18
8780.64889 5.57118e-18
8782.34647 6.09397e-18
8784.04406 5.77011e-18
8785.74165 5.49498e-18
8787.43924 5.48117e-18
8789.13683 5.39697e-18
8790.83441 5.20765e-18
8792.53200 5.10361e-18
8794.22959 5.11902e-18
8795.92718 5.14840e-18
8797.62477 5.05305e-18
8799.32236 4.63536e-18
8801.01994 4.00479e-18
8802.71753 3.74588e-18
8804.41512 4.04472e-18
8806.11271 4.36645e-18
8807.81030 4.36768e-18
8809.50788 4.17369e-18
8811.20547 3.93829e-18
8812.90306 3.79572e-18
8814.60065 3.79791e-18
8816.29824 3.76070e-18
8817.99582 3.55785e-18
8819.69341 3.34365e-18
8821.39100 3.29415e-18
8823.08859 3.46628e-18
8824.78618 3.83693e-18
8826.48376 4.25779e-18
8828.18135 4.55947e-18
8829.87894 4.66513e-18
8831.57653 4.57759e-18
8833.27412 4.43818e-18
8834.97171 4.42160e-18
8836.66929 4.47029e-18
8838.36688 4.41010e-18
8840.06447 4.30353e-18
8841.76206 4.34145e-18
8843.45965 4.40436e-18
8845.15723 4.16897e-18
8846.85482 3.68479e-18
8848.55241 3.33273e-18
8850.25000 3.35421e-18
8851.94759 3.83447e-18
8853.65522 4.64164e-18
8855.34276 5.35923e-18
8857.05040 5.85560e-18
8858.74798 6.45514e-18
8860.44557 7.14227e-18
8862.14316 7.32576e-18
8863.84075 6.77331e-18
8865.53834 5.90707e-18
8867.23592 5.15782e-18
8868.93351 4.88948e-18
8870.63110 5.16025e-18
8872.32869 5.29356e-18
8874.02628 4.86375e-18
8875.72386 4.44073e-18
8877.42145 4.59198e-18
8879.11904 5.32664e-18
8880.81663 6.39507e-18
8882.51422 7.19437e-18
8884.21181 7.21211e-18
8885.90939 6.71355e-18
8887.60698 6.21376e-18
8889.30457 5.76645e-18
8891.00216 5.28598e-18
8892.69975 5.13080e-18
8894.39733 5.72972e-18
8896.09492 6.71202e-18
8897.79251 7.26590e-18
8899.49010 7.26338e-18
8901.18769 7.08795e-18
8902.88527 6.61198e-18
8904.58286 5.35427e-18
8906.28045 3.91550e-18
8907.97804 3.87216e-18
8909.67563 5.23840e-18
8911.37321 6.25304e-18
8913.07080 6.00136e-18
8914.76839 4.70072e-18
8916.46598 2.98902e-18
8918.16357 2.17397e-18
8919.86116 2.65746e-18
8921.55874 3.11018e-18
8923.25633 2.78518e-18
8924.95392 2.37040e-18
8926.65151 2.42363e-18
8928.34910 2.94810e-18
8930.04668 3.75832e-18
8931.74427 4.34604e-18
8933.44186 4.36305e-18
8935.14949 4.10682e-18
8936.83704 3.94388e-18
8938.53462 3.91361e-18
8940.24226 3.96845e-18
8941.93985 4.03527e-18
8943.63743 4.08327e-18
8945.33502 4.43116e-18
8947.03261 5.36829e-18
8948.73020 6.36009e-18
8950.42779 6.61433e-18
8952.12537 6.27356e-18
8953.82296 5.98389e-18
8955.52055 5.77291e-18
8957.21814 5.29070e-18
8958.91573 4.58581e-18
8960.61331 3.98702e-18
8962.31090 3.67358e-18
8964.00849 3.68389e-18
8965.70608 3.94041e-18
8967.40367 4.23961e-18
8969.10125 4.34238e-18
8970.79884 3.97381e-18
8972.49643 3.31068e-18
8974.19402 3.18714e-18
8975.89161 3.86167e-18
8977.58920 4.59141e-18
8979.28678 4.90572e-18
8980.98437 5.01348e-18
8982.68196 4.99780e-18
8984.37955 4.45566e-18
8986.07714 3.40123e-18
8987.77472 2.97852e-18
8989.47231 3.89806e-18
8991.16990 5.24076e-18
8992.86749 6.06344e-18
8994.56508 6.52208e-18
8996.26266 6.92767e-18
8997.96025 7.08487e-18
8999.65784 6.76627e-18
9001.35543 6.09329e-18
9003.05302 5.31248e-18
9004.75061 4.64660e-18
9006.44819 4.24314e-18
9008.14578 3.95063e-18
9009.84337 3.49100e-18
9011.54096 2.88554e-18
9013.23855 2.36794e-18
9014.93613 2.18499e-18
9016.63372 2.55712e-18
9018.33131 3.41982e-18
9020.02890 4.42840e-18
9021.72649 5.28044e-18
9023.43412 5.75666e-18
9025.13171 5.61876e-18
9026.82930 4.61939e-18
9028.52688 3.17336e-18
9030.22447 2.56198e-18
9031.92206 3.19899e-18
9033.61965 4.09677e-18
9035.31724 4.61965e-18
9037.01482 4.91595e-18
9038.71241 5.10462e-18
9040.41000 5.17271e-18
9042.10759 5.10750e-18
9043.80518 4.84476e-18
9045.50276 4.38720e-18
9047.20035 3.95995e-18
9048.89794 3.69967e-18
9050.59553 3.30719e-18
9052.29312 2.58886e-18
9053.99070 2.03468e-18
9055.68829 2.13487e-18
9057.38588 2.72035e-18
9059.08347 3.37104e-18
9060.78106 3.71372e-18
9062.47865 3.50271e-18
9064.17623 2.81144e-18
9065.87382 1.96593e-18
9067.57141 1.69917e-18
9069.26900 2.74727e-18
9070.96659 4.31442e-18
9072.66417 4.65574e-18
9074.36176 3.72801e-18
9076.05935 2.89332e-18
9077.75694 2.71838e-18
9079.45453 3.01914e-18
9081.15211 3.59609e-18
9082.84970 4.17134e-18
9084.54729 4.36578e-18
9086.24488 3.71986e-18
9087.94247 2.47135e-18
9089.64005 1.85580e-18
9091.33764 2.45697e-18
9093.03523 3.72855e-18
9094.73282 5.02712e-18
9096.43041 5.66668e-18
9098.12800 5.41056e-18
9099.82558 5.00048e-18
9101.52317 5.05645e-18
9103.22076 5.56598e-18
9104.92839 6.29849e-18
9106.62598 6.74296e-18
9108.32357 6.54393e-18
9110.01111 6.03445e-18
9111.71875 5.64327e-18
9113.41633 5.41752e-18
9115.11392 5.25927e-18
9116.81151 4.98142e-18
9118.50910 4.44730e-18
9120.20669 3.94909e-18
9121.90427 3.89645e-18
9123.60186 4.24487e-18
9125.29945 4.67771e-18
9126.99704 4.84757e-18
9128.69463 4.46545e-18
9130.39221 3.91267e-18
9132.08980 4.03828e-18
9133.78739 4.70616e-18
9135.48498 4.91539e-18
9137.18257 4.61459e-18
9138.88015 4.71244e-18
9140.57774 5.32978e-18
9142.27533 5.67784e-18
9143.97292 5.50567e-18
9145.67051 5.26819e-18
9147.36810 5.28633e-18
9149.06568 5.69969e-18
9150.76327 6.32622e-18
9152.46086 6.38294e-18
9154.15845 5.52833e-18
9155.85604 4.46657e-18
9157.55362 3.68010e-18
9159.25121 2.71346e-18
9160.94880 1.41912e-18
9162.64639 8.45263e-19
9164.34398 1.69091e-18
9166.04156 3.17255e-18
9167.73915 4.26025e-18
9169.43674 4.26734e-18
9171.13433 3.02370e-18
9172.83192 1.75073e-18
9174.52950 1.80128e-18
9176.22709 2.80757e-18
9177.92468 3.70174e-18
9179.62227 4.02713e-18
9181.31986 3.75662e-18
9183.01745 3.45727e-18
9184.71503 3.97259e-18
9186.42267 5.07503e-18
9188.11021 5.77951e-18
9189.81784 5.75017e-18
9191.50539 5.21922e-18
9193.21302 4.73426e-18
9194.91061 5.15088e-18
9196.60820 6.27642e-18
9198.30578 6.70969e-18
9200.00337 6.06133e-18
9201.70096 5.26554e-18
9203.39855 4.91951e-18
9205.09614 5.13226e-18
9206.79372 5.66709e-18
9208.49131 5.65976e-18
9210.18890 4.80931e-18
9211.88649 4.03223e-18
9213.58408 3.93607e-18
9215.28166 4.11510e-18
9216.97925 4.27339e-18
9218.67684 4.84833e-18
9220.37443 5.96672e-18
9222.07202 6.58859e-18
9223.76960 5.90376e-18
9225.46719 4.45762e-18
9227.16478 3.13070e-18
9228.86237 2.59037e-18
9230.55996 3.14477e-18
9232.25755 4.04946e-18
9233.95513 4.33848e-18
9235.65272 4.20195e-18
9237.35031 4.35213e-18
9239.04790 5.04500e-18
9240.74549 6.20692e-18
9242.44307 7.43202e-18
9244.14066 8.09630e-18
9245.83825 7.95843e-18
9247.53584 7.15276e-18
9249.23343 5.95366e-18
9250.93101 4.77253e-18
9252.62860 3.92465e-18
9254.32619 3.55820e-18
9256.02378 3.73678e-18
9257.72137 4.43637e-18
9259.41895 5.27857e-18
9261.11654 5.42099e-18
9262.81413 4.65903e-18
9264.51172 3.81849e-18
9266.20931 3.47083e-18
9267.91694 3.63227e-18
9269.60448 4.07948e-18
9271.31212 4.14058e-18
9272.99966 3.52806e-18
9274.70729 3.01681e-18
9276.40488 3.19611e-18
9278.10247 3.74883e-18
9279.80006 4.21754e-18
9281.49764 4.23358e-18
9283.19523 3.68391e-18
9284.89282 3.26454e-18
9286.59041 3.64606e-18
9288.28800 4.32675e-18
9289.98559 4.55627e-18
9291.68317 4.68295e-18
9293.38076 5.33977e-18
9295.07835 5.88071e-18
9296.77594 5.27442e-18
9298.47353 4.39283e-18
9300.17111 5.02188e-18
9301.86870 6.58016e-18
9303.56629 6.89984e-18
9305.26388 5.82534e-18
9306.96147 4.86516e-18
9308.65905 4.58364e-18
9310.35664 4.68796e-18
9312.05423 4.77597e-18
9313.75182 4.20550e-18
9315.44941 3.38298e-18
9317.14700 4.16502e-18
9318.84458 6.77045e-18
9320.54217 8.98108e-18
9322.23976 9.22738e-18
9323.93735 7.13314e-18
9325.63494 3.32871e-18
9327.33252 2.37722e-19
9329.03011 -7.30612e-19
9330.72770 -9.65969e-19
9332.42529 -1.62512e-18
9334.12288 -2.20986e-18
9335.82046 -2.06492e-18
9337.51805 -8.09744e-19
9339.21564 1.58336e-18
9340.91323 4.33660e-18
9342.61082 6.53111e-18
9344.30840 7.72140e-18
9346.00599 7.78492e-18
9347.70358 6.83410e-18
9349.41121 5.24678e-18
9351.09876 3.87353e-18
9352.80639 3.57040e-18
9354.49393 4.22000e-18
9356.20157 5.06823e-18
9357.89915 5.49370e-18
9359.59674 5.06278e-18
9361.29433 3.98958e-18
9362.99192 3.04726e-18
9364.68951 2.37759e-18
9366.38709 1.52787e-18
9368.08468 6.35715e-19
9369.78227 4.01032e-19
9371.47986 1.15051e-18
9373.17745 2.82183e-18
9374.87504 4.65333e-18
9376.57262 4.85972e-18
9378.27021 3.17904e-18
9379.96780 1.87894e-18
9381.66539 2.28030e-18
9383.36298 3.70569e-18
9385.06056 5.27400e-18
9386.75815 5.97425e-18
9388.45574 5.47474e-18
9390.15333 5.24905e-18
9391.85092 6.27931e-18
9393.54850 7.30736e-18
9395.24609 7.19544e-18
9396.94368 6.60397e-18
9398.64127 6.40234e-18
9400.33886 6.65569e-18
9402.03644 7.06796e-18
9403.73403 6.89276e-18
9405.43162 5.52798e-18
9407.12921 3.63457e-18
9408.82680 2.40028e-18
9410.52439 2.51928e-18
9412.22197 4.14765e-18
9413.91956 6.40361e-18
9415.61715 7.78726e-18
9417.31474 7.61970e-18
9419.01233 6.02563e-18
9420.70991 3.95943e-18
9422.40750 3.05990e-18
9424.10509 3.34503e-18
9425.80268 3.11981e-18
9427.50027 2.18236e-18
9429.19785 2.08439e-18
9430.89544 3.08635e-18
9432.59303 3.74039e-18
9434.29062 3.61104e-18
9435.98821 3.84265e-18
9437.69584 4.93012e-18
9439.39343 6.21128e-18
9441.09102 7.02005e-18
9442.78860 6.75057e-18
9444.48619 5.37625e-18
9446.18378 4.11522e-18
9447.88137 3.88632e-18
9449.57896 4.40300e-18
9451.27654 5.10434e-18
9452.97413 5.40918e-18
9454.67172 4.97653e-18
9456.36931 4.14943e-18
9458.06690 3.50176e-18
9459.76449 3.65315e-18
9461.46207 4.90836e-18
9463.15966 6.37195e-18
9464.85725 6.86346e-18
9466.55484 6.48814e-18
9468.25243 5.98969e-18
9469.95001 5.61265e-18
9471.64760 5.29329e-18
9473.34519 4.84028e-18
9475.04278 3.98705e-18
9476.74037 2.81308e-18
9478.43795 1.71198e-18
9480.13554 1.46705e-18
9481.83313 3.14167e-18
9483.53072 6.07102e-18
9485.22831 7.71450e-18
9486.92589 7.29463e-18
9488.62348 6.31775e-18
9490.32107 5.66779e-18
9492.01866 5.28942e-18
9493.71625 5.04465e-18
9495.41384 4.55873e-18
9497.11142 3.84295e-18
9498.80901 3.78367e-18
9500.50660 4.71924e-18
9502.20419 5.64288e-18
9503.90178 5.85432e-18
9505.59936 5.88726e-18
9507.29695 6.14654e-18
9508.99454 6.06151e-18
9510.69213 5.17994e-18
9512.38972 4.00225e-18
9514.08730 3.12064e-18
9515.78489 2.36701e-18
9517.48248 1.54955e-18
9519.19011 1.57854e-18
9520.88770 3.28627e-18
9522.58529 5.36943e-18
9524.28288 5.90293e-18
9525.98047 5.09952e-18
9527.67805 4.35349e-18
9529.37564 4.34120e-18
9531.07323 5.18674e-18
9532.77082 6.39474e-18
9534.46841 6.96217e-18
9536.16599 6.64556e-18
9537.86358 5.94275e-18
9539.56117 5.28240e-18
9541.25876 5.02866e-18
9542.95635 5.13997e-18
9544.65394 5.05314e-18
9546.35152 4.49158e-18
9548.04911 3.59704e-18
9549.74670 2.63379e-18
9551.44429 1.98427e-18
9553.14188 2.01703e-18
9554.83946 3.18638e-18
9556.53705 5.15911e-18
9558.23464 5.93025e-18
9559.93223 4.64027e-18
9561.62982 3.51158e-18
9563.32740 4.13349e-18
9565.02499 5.23445e-18
9566.72258 5.45920e-18
9568.42017 4.81680e-18
9570.11776 3.76883e-18
9571.81534 3.06337e-18
9573.51293 3.35860e-18
9575.21052 4.65699e-18
9576.90811 6.55124e-18
9578.60570 8.34811e-18
9580.30329 9.32660e-18
9582.00087 9.22581e-18
9583.69846 8.17490e-18
9585.39605 6.56088e-18
9587.09364 4.94260e-18
9588.79123 3.82397e-18
9590.48881 3.55243e-18
9592.18640 3.84888e-18
9593.88399 3.91920e-18
9595.58158 3.88263e-18
9597.27917 4.73874e-18
9598.97675 6.24994e-18
9600.67434 6.83847e-18
9602.38198 6.16393e-18
9604.07956 5.45695e-18
9605.76711 5.33095e-18
9607.47474 5.47232e-18
9609.17233 5.56707e-18
9610.86992 5.30872e-18
9612.56750 4.62711e-18
9614.26509 3.90614e-18
9615.96268 3.50990e-18
9617.66027 3.68114e-18
9619.35786 4.37592e-18
9621.05544 4.98695e-18
9622.75303 4.98464e-18
9624.45062 4.23157e-18
9626.14821 2.96660e-18
9627.84580 2.17531e-18
9629.54339 2.68626e-18
9631.24097 4.17265e-18
9632.93856 5.85988e-18
9634.63615 7.07307e-18
9636.33374 7.34034e-18
9638.03133 6.77379e-18
9639.72891 5.84809e-18
9641.42650 5.00683e-18
9643.12409 4.59691e-18
9644.82168 4.55457e-18
9646.51927 4.52803e-18
9648.21685 4.51571e-18
9649.91444 4.76901e-18
9651.61203 5.45584e-18
9653.30962 6.67385e-18
9655.00721 7.62264e-18
9656.70479 6.60023e-18
9658.40238 4.05508e-18
9660.09997 2.99026e-18
9661.79756 4.63645e-18
9663.49515 7.77208e-18
9665.19274 1.08733e-17
9666.89032 1.20432e-17
9668.58791 1.06915e-17
9670.28550 8.64692e-18
9671.98309 7.36305e-18
9673.68068 6.99601e-18
9675.37826 7.26667e-18
9677.07585 7.33724e-18
9678.77344 6.53047e-18
9680.47103 4.79606e-18
9682.16862 2.53795e-18
9683.86620 9.58532e-19
9685.56379 9.71186e-19
9687.26138 2.02454e-18
9688.96901 3.11544e-18
9690.66660 3.46567e-18
9692.36419 2.70320e-18
9694.06178 1.68894e-18
9695.75937 1.61400e-18
9697.45695 2.22316e-18
9699.15454 2.53684e-18
9700.85213 2.28368e-18
9702.54972 1.67375e-18
9704.24731 1.16620e-18
9705.94489 1.37952e-18
9707.64248 2.21056e-18
9709.34007 2.91805e-18
9711.03766 3.15760e-18
9712.73525 2.98736e-18
9714.43283 2.69497e-18
9716.13042 2.85302e-18
9717.82801 3.50546e-18
9719.52560 3.98936e-18
9721.22319 3.90850e-18
9722.92078 3.25561e-18
9724.61836 2.35827e-18
9726.31595 2.10450e-18
9728.01354 2.84668e-18
9729.71113 3.84485e-18
9731.40872 4.46699e-18
9733.10630 4.56680e-18
9734.80389 4.25483e-18
9736.50148 4.09378e-18
9738.19907 4.46195e-18
9739.89666 5.04156e-18
9741.59424 5.36119e-18
9743.29183 4.89032e-18
9744.98942 3.47042e-18
9746.68701 2.31561e-18
9748.38460 2.61288e-18
9750.08219 3.50811e-18
9751.77977 3.54549e-18
9753.47736 2.56791e-18
9755.17495 1.19780e-18
9756.87254 5.97192e-19
9758.57013 1.95060e-18
9760.26771 4.38261e-18
9761.96530 5.67056e-18
9763.66289 5.07408e-18
9765.36048 3.17014e-18
9767.05807 1.21353e-18
9768.75565 1.07332e-18
9770.45324 2.77727e-18
9772.16088 4.28032e-18
9773.85846 4.79772e-18
9775.55605 5.12817e-18
9777.25364 5.73549e-18
9778.95123 6.66505e-18
9780.64882 7.75152e-18
9782.34640 8.47598e-18
9784.04399 8.43781e-18
9785.74158 7.45604e-18
9787.43917 5.74569e-18
9789.13676 4.26311e-18
9790.83434 3.59111e-18
9792.53193 3.22717e-18
9794.22952 2.66442e-18
9795.92711 1.83861e-18
9797.62470 9.29587e-19
9799.32228 6.68587e-19
9801.01987 1.51000e-18
9802.71746 2.43783e-18
9804.41505 2.38981e-18
9806.11264 2.01126e-18
9807.81023 2.35729e-18
9809.50781 3.33931e-18
9811.20540 4.31048e-18
9812.90299 4.51330e-18
9814.60058 3.35449e-18
9816.29817 1.62894e-18
9817.99575 9.25720e-19
9819.69334 1.39605e-18
9821.39093 2.08263e-18
9823.08852 2.67941e-18
9824.78611 3.39511e-18
9826.48369 3.97381e-18
9828.18128 3.79757e-18
9829.87887 3.08419e-18
9831.57646 2.96327e-18
9833.27405 3.86631e-18
9834.97163 5.31238e-18
9836.66922 6.64209e-18
9838.36681 6.94884e-18
9840.06440 6.00917e-18
9841.76199 4.80445e-18
9843.45958 4.06621e-18
9845.15716 3.80546e-18
9846.85475 3.87724e-18
9848.55234 3.97363e-18
9850.24993 3.87515e-18
9851.94752 3.75637e-18
9853.65515 3.73493e-18
9855.34269 3.46322e-18
9857.05033 2.71867e-18
9858.74791 2.05603e-18
9860.44550 2.00385e-18
9862.14309 2.00819e-18
9863.84068 1.45892e-18
9865.53827 1.33869e-18
9867.23585 2.84181e-18
9868.93344 4.72016e-18
9870.63103 4.95077e-18
9872.32862 4.64322e-18
9874.02621 6.34416e-18
9875.72379 9.24883e-18
9877.42138 1.03951e-17
9879.11897 8.47102e-18
9880.81656 3.67032e-18
9882.51415 -1.73318e-18
9884.21173 -3.56884e-18
9885.90932 -1.35101e-18
9887.60691 1.27231e-18
9889.30450 2.21736e-18
9891.00209 1.36776e-18
9892.69968 -3.27030e-19
9894.39726 -2.34144e-19
9896.09485 2.33636e-18
9897.79244 4.73100e-18
9899.49003 5.09236e-18
9901.18762 3.32374e-18
9902.88520 2.24293e-19
9904.58279 -1.88193e-18
9906.28038 -1.61814e-18
9907.97797 -3.81948e-19
9909.67556 4.10043e-19
9911.37314 7.55665e-19
9913.07073 9.77033e-19
9914.76832 1.43022e-18
9916.46591 2.35487e-18
9918.16350 3.51030e-18
9919.86108 4.47691e-18
9921.55867 4.87415e-18
9923.25626 4.49441e-18
9924.95385 3.62540e-18
9926.65144 2.79937e-18
9928.34903 2.48682e-18
9930.04661 2.95050e-18
9931.74420 3.52921e-18
9933.44179 3.08511e-18
9935.14942 1.91836e-18
9936.83697 1.38559e-18
9938.54460 1.69096e-18
9940.23214 2.04331e-18
9941.93978 2.01531e-18
9943.63736 1.49670e-18
9945.33495 7.60769e-19
9947.03254 6.12174e-19
9948.73013 9.55178e-19
9950.42772 4.14510e-19
9952.12530 -1.24263e-18
9953.82289 -2.46684e-18
9955.52048 -2.31463e-18
9957.21807 -1.04550e-18
9958.91566 9.40237e-19
9960.61324 3.17949e-18
9962.31083 5.28398e-18
9964.00842 7.28000e-18
9965.70601 8.96419e-18
9967.40360 9.30771e-18
9969.10118 7.72926e-18
9970.79877 5.02802e-18
9972.49636 2.39425e-18
9974.19395 1.03234e-18
9975.89154 1.62582e-18
9977.58913 3.33004e-18
9979.28671 4.78279e-18
9980.98430 5.31460e-18
9982.68189 4.73715e-18
9984.37948 3.20095e-18
9986.07707 1.19773e-18
9987.77465 -5.35762e-19
9989.47224 -1.25108e-18
9991.16983 -6.13628e-19
9992.86742 1.23818e-18
9994.56501 3.07438e-18
9996.26259 2.93112e-18
9997.96018 1.32356e-18
9999.65777 1.12521e-18
