# wavelength flux
3494.99531 1.66520e-17
3496.46555 1.60636e-17
3497.93579 1.27000e-17
3499.40603 1.34290e-17
3500.87627 1.75572e-17
3502.34651 2.08226e-17
3503.81675 2.54094e-17
3505.28699 2.22422e-17
3506.75723 1.81630e-17
3508.22747 1.97990e-17
3509.69771 2.31769e-17
3511.16795 2.34179e-17
3512.63819 1.93166e-17
3514.10843 1.80899e-17
3515.57867 2.16556e-17
3517.04891 2.30542e-17
3518.51915 1.64375e-17
3519.98939 1.33880e-17
3521.45963 1.82167e-17
3522.92987 1.46895e-17
3524.40011 8.02163e-18
3525.87035 1.31485e-17
3527.34059 2.09912e-17
3528.81083 1.96361e-17
3530.28107 1.82660e-17
3531.75131 1.72366e-17
3533.22155 1.46733e-17
3534.69179 1.48643e-17
3536.16203 1.59659e-17
3537.63227 1.87834e-17
3539.10251 2.12791e-17
3540.57275 1.62621e-17
3542.04299 1.62104e-17
3543.51323 1.81386e-17
3544.98347 1.76909e-17
3546.45371 1.53186e-17
3547.92395 1.22218e-17
3549.39419 1.43171e-17
3550.86443 1.59994e-17
3552.33467 1.69371e-17
3553.80491 2.51874e-17
3555.26494 2.54507e-17
3556.73518 1.84072e-17
3558.20542 1.87591e-17
3559.67566 1.45761e-17
3561.14590 9.96216e-18
3562.61614 1.32445e-17
3564.08638 1.41365e-17
3565.55662 1.33807e-17
3567.02686 1.54219e-17
3568.49710 1.70114e-17
3569.96734 1.50229e-17
3571.43758 1.48968e-17
3572.90782 1.63182e-17
3574.37806 1.94501e-17
3575.84830 1.61306e-17
3577.31854 1.42069e-17
3578.78878 1.82765e-17
3580.25902 1.86090e-17
3581.72926 1.57219e-17
3583.19950 1.84867e-17
3584.66974 1.89916e-17
3586.13998 1.60763e-17
3587.61022 1.68717e-17
3589.08046 1.58850e-17
3590.55070 1.71587e-17
3592.02094 1.74875e-17
3593.49118 1.54834e-17
3594.96142 1.63852e-17
3596.43166 1.64712e-17
3597.90190 1.60401e-17
3599.37214 1.50314e-17
3600.84238 1.27542e-17
3602.31262 1.29507e-17
3603.78286 1.54892e-17
3605.25310 1.62702e-17
3606.72334 1.31291e-17
3608.19358 1.77669e-17
3609.66382 2.23857e-17
3611.13406 1.99769e-17
3612.60430 1.66953e-17
3614.07454 1.35482e-17
3615.54478 1.64586e-17
3617.00481 1.71424e-17
3618.47505 1.62200e-17
3619.94529 1.96955e-17
3621.41553 2.46254e-17
3622.88577 2.07594e-17
3624.35601 1.71711e-17
3625.82625 1.72265e-17
3627.29649 1.75025e-17
3628.76673 1.84607e-17
3630.23697 1.92673e-17
3631.70721 1.92531e-17
3633.17745 1.61004e-17
3634.64769 1.47967e-17
3636.11793 1.70445e-17
3637.58817 1.86037e-17
3639.05841 1.74552e-17
3640.52865 1.72222e-17
3641.99889 1.69987e-17
3643.46913 1.73783e-17
3644.93937 1.65010e-17
3646.40961 1.61627e-17
3647.87985 2.00475e-17
3649.35009 1.80026e-17
3650.82033 1.71731e-17
3652.29057 1.48666e-17
3653.76081 1.20922e-17
3655.23105 1.62370e-17
3656.70129 1.43042e-17
3658.17153 1.47035e-17
3659.64177 1.65709e-17
3661.11201 1.93557e-17
3662.58225 2.05364e-17
3664.05249 1.60812e-17
3665.52273 2.08647e-17
3666.99297 2.24300e-17
3668.46321 1.73182e-17
3669.93345 1.62956e-17
3671.40369 1.71534e-17
3672.87393 1.63075e-17
3674.34417 1.65158e-17
3675.81441 1.94897e-17
3677.28465 1.81533e-17
3678.75489 1.37681e-17
3680.21492 1.55531e-17
3681.68516 1.68144e-17
3683.15540 1.52562e-17
3684.62564 1.28629e-17
3686.09588 1.22425e-17
3687.56612 1.36327e-17
3689.03636 1.16976e-17
3690.50660 1.33286e-17
3691.97684 1.51992e-17
3693.44708 1.55791e-17
3694.91732 1.43529e-17
3696.38756 1.61168e-17
3697.85780 2.17073e-17
3699.32804 1.57937e-17
3700.79828 1.33641e-17
3702.26852 1.63510e-17
3703.73876 1.55732e-17
3705.20900 1.52183e-17
3706.67924 1.58469e-17
3708.14948 1.77291e-17
3709.61972 1.53897e-17
3711.08996 1.35448e-17
3712.56020 1.52336e-17
3714.03044 1.60075e-17
3715.50068 1.47043e-17
3716.97092 1.54269e-17
3718.44116 1.87919e-17
3719.91140 1.85820e-17
3721.38164 1.80073e-17
3722.85188 1.74517e-17
3724.32212 1.88326e-17
3725.79236 1.85017e-17
3727.26260 1.73675e-17
3728.73284 1.76758e-17
3730.20308 1.52128e-17
3731.67332 1.45186e-17
3733.14356 1.18777e-17
3734.61380 1.50068e-17
3736.08404 1.51821e-17
3737.55428 1.81023e-17
3739.02452 1.63287e-17
3740.49476 1.33876e-17
3741.95479 1.36135e-17
3743.42503 1.41090e-17
3744.89527 1.42241e-17
3746.36551 1.52633e-17
3747.83575 1.56939e-17
3749.30599 1.29350e-17
3750.77623 1.39780e-17
3752.24647 1.34650e-17
3753.71671 1.48882e-17
3755.18695 1.48642e-17
3756.65719 1.32625e-17
3758.12743 1.43751e-17
3759.59767 1.24640e-17
3761.06791 1.16867e-17
3762.53815 1.15429e-17
3764.00839 1.32608e-17
3765.47863 1.52112e-17
3766.94887 1.44151e-17
3768.41911 1.31201e-17
3769.88935 1.07768e-17
3771.35959 1.11240e-17
3772.82983 1.13074e-17
3774.30007 1.22661e-17
3775.77031 1.42655e-17
3777.24055 1.51582e-17
3778.71079 1.32886e-17
3780.18103 9.12631e-18
3781.65127 1.17149e-17
3783.12151 1.28372e-17
3784.59175 9.03452e-18
3786.06199 9.06534e-18
3787.53223 1.14796e-17
3789.00247 9.72884e-18
3790.47271 1.02641e-17
3791.94295 1.08796e-17
3793.41319 9.79788e-18
3794.88343 7.73518e-18
3796.35367 7.24247e-18
3797.82391 7.52007e-18
3799.29415 9.00562e-18
3800.76439 9.06742e-18
3802.23463 9.32389e-18
3803.70487 8.47316e-18
3805.16490 7.73066e-18
3806.63514 6.08565e-18
3808.10538 7.02859e-18
3809.57562 7.85749e-18
3811.04586 6.95032e-18
3812.51610 7.69745e-18
3813.98634 9.08660e-18
3815.45658 8.45995e-18
3816.92682 5.69520e-18
3818.39706 5.36696e-18
3819.86730 6.50623e-18
3821.33754 6.96137e-18
3822.80778 6.63074e-18
3824.27802 4.86876e-18
3825.74826 5.52655e-18
3827.21850 5.25451e-18
3828.68874 4.60991e-18
3830.15898 5.97971e-18
3831.62922 6.18972e-18
3833.09946 5.07691e-18
3834.56970 3.70574e-18
3836.03994 3.92424e-18
3837.51018 5.39578e-18
3838.98042 3.93870e-18
3840.45066 4.34311e-18
3841.92090 3.79705e-18
3843.39114 3.94260e-18
3844.86138 4.99821e-18
3846.33162 4.46728e-18
3847.80186 4.88681e-18
3849.27210 7.20548e-18
3850.74234 5.76737e-18
3852.21258 3.64491e-18
3853.68282 5.55047e-18
3855.15306 6.32969e-18
3856.62330 6.41484e-18
3858.09354 4.25520e-18
3859.56378 4.65261e-18
3861.03402 6.07498e-18
3862.50426 4.71104e-18
3863.97450 6.86279e-18
3865.44474 7.89579e-18
3866.91498 4.23614e-18
3868.37501 3.40979e-18
3869.84525 6.16537e-18
3871.31549 7.85869e-18
3872.78573 6.29599e-18
3874.25597 5.33479e-18
3875.72621 4.96090e-18
3877.19645 5.18791e-18
3878.66669 5.42810e-18
3880.13693 5.65528e-18
3881.60717 7.38869e-18
3883.07741 7.72231e-18
3884.54765 5.78845e-18
3886.01789 4.64932e-18
3887.48813 5.69171e-18
3888.95837 5.11120e-18
3890.42861 5.29764e-18
3891.89885 6.54512e-18
3893.36909 6.62918e-18
3894.83933 8.09597e-18
3896.30957 9.46501e-18
3897.77981 7.18877e-18
3899.25005 4.94577e-18
3900.72029 5.97585e-18
3902.19053 6.33712e-18
3903.66077 7.17341e-18
3905.13101 7.25591e-18
3906.60125 8.87887e-18
3908.07149 8.97927e-18
3909.54173 7.94352e-18
3911.01197 7.47311e-18
3912.48221 5.94046e-18
3913.95245 7.34811e-18
3915.42269 7.23463e-18
3916.89293 8.56667e-18
3918.36317 7.53708e-18
3919.83341 9.39446e-18
3921.30365 8.62628e-18
3922.77389 9.20366e-18
3924.24413 9.32506e-18
3925.71437 9.66585e-18
3927.18461 1.06438e-17
3928.64464 1.03394e-17
3930.11488 9.39083e-18
3931.58512 9.28620e-18
3933.05536 9.72503e-18
3934.52560 1.00543e-17
3935.99584 8.97084e-18
3937.46608 1.18820e-17
3938.93632 1.17559e-17
3940.40656 1.22420e-17
3941.87680 1.23683e-17
3943.34704 1.37890e-17
3944.81728 1.53695e-17
3946.28752 1.39911e-17
3947.75776 1.35701e-17
3949.22800 1.23887e-17
3950.69824 1.37861e-17
3952.16848 1.33686e-17
3953.63872 1.28289e-17
3955.10896 1.39139e-17
3956.57920 1.41605e-17
3958.04944 1.53673e-17
3959.51968 1.64290e-17
3960.98992 1.72418e-17
3962.46016 1.77665e-17
3963.93040 1.70713e-17
3965.40064 1.57780e-17
3966.87088 1.68779e-17
3968.34112 1.73506e-17
3969.81136 1.64662e-17
3971.28160 1.57821e-17
3972.75184 1.82458e-17
3974.22208 2.08130e-17
3975.69232 1.79198e-17
3977.16256 1.89183e-17
3978.63280 1.91037e-17
3980.10304 2.02039e-17
3981.57328 2.10175e-17
3983.04352 1.94805e-17
3984.51376 2.06027e-17
3985.98400 2.17046e-17
3987.45424 2.42167e-17
3988.92448 2.18736e-17
3990.39472 1.97025e-17
3991.86496 2.24054e-17
3993.32499 2.32927e-17
3994.79523 2.17436e-17
3996.26547 2.19508e-17
3997.73571 2.42899e-17
3999.20595 2.38042e-17
4000.67619 2.23010e-17
4002.14643 2.23631e-17
4003.61667 2.34502e-17
4005.08691 2.45415e-17
4006.55715 2.55334e-17
4008.02739 2.42387e-17
4009.49763 2.45644e-17
4010.96787 2.41399e-17
4012.43811 2.34917e-17
4013.90835 2.21962e-17
4015.37859 2.31978e-17
4016.84883 2.29202e-17
4018.31907 2.22223e-17
4019.78931 2.52983e-17
4021.25955 2.47197e-17
4022.72979 2.63816e-17
4024.20003 2.65186e-17
4025.67027 2.65073e-17
4027.14051 2.66855e-17
4028.61075 2.61297e-17
4030.08099 2.61179e-17
4031.55123 2.32106e-17
4033.02147 2.41854e-17
4034.49171 2.72497e-17
4035.96195 2.80214e-17
4037.43219 2.72862e-17
4038.90243 2.57202e-17
4040.37267 2.50099e-17
4041.84291 2.56927e-17
4043.31315 2.55797e-17
4044.78339 2.52095e-17
4046.25363 2.50664e-17
4047.72387 2.22982e-17
4049.19411 2.50914e-17
4050.66435 2.52210e-17
4052.13459 2.68631e-17
4053.60483 2.37877e-17
4055.07507 2.27441e-17
4056.53510 2.69791e-17
4058.00534 2.42566e-17
4059.47558 2.46706e-17
4060.94582 2.55137e-17
4062.41606 2.41081e-17
4063.88630 2.53168e-17
4065.35654 2.58870e-17
4066.82678 2.36016e-17
4068.29702 2.42858e-17
4069.76726 2.39766e-17
4071.23750 2.67715e-17
4072.70774 2.79112e-17
4074.17798 2.59240e-17
4075.64822 2.40868e-17
4077.11846 2.45036e-17
4078.58870 2.50919e-17
4080.05894 2.50060e-17
4081.52918 2.59898e-17
4082.99942 2.92259e-17
4084.46966 2.60135e-17
4085.93990 2.54283e-17
4087.41014 2.83515e-17
4088.88038 2.64258e-17
4090.35062 2.48907e-17
4091.82086 2.52871e-17
4093.29110 2.74672e-17
4094.76134 2.61937e-17
4096.23158 2.33406e-17
4097.70182 2.33396e-17
4099.17206 2.55691e-17
4100.64230 2.44190e-17
4102.11254 2.33785e-17
4103.58278 2.21345e-17
4105.05302 2.30519e-17
4106.52326 2.38429e-17
4107.99350 2.25834e-17
4109.46374 2.29427e-17
4110.93398 2.44461e-17
4112.40422 2.20216e-17
4113.87446 2.25653e-17
4115.34470 2.41883e-17
4116.81494 2.46267e-17
4118.27497 2.27134e-17
4119.74521 2.24396e-17
4121.21545 2.26342e-17
4122.68569 2.17099e-17
4124.15593 1.98049e-17
4125.62617 2.14631e-17
4127.09641 2.19931e-17
4128.56665 1.94246e-17
4130.03689 2.02529e-17
4131.50713 2.01648e-17
4132.97737 1.93008e-17
4134.44761 2.06370e-17
4135.91785 2.10876e-17
4137.38809 1.87249e-17
4138.85833 1.88525e-17
4140.32857 1.87462e-17
4141.79881 1.89039e-17
4143.26905 1.97265e-17
4144.73929 1.99411e-17
4146.20953 1.94474e-17
4147.67977 1.92010e-17
4149.15001 1.97088e-17
4150.62025 2.03447e-17
4152.09049 2.09533e-17
4153.56073 1.81104e-17
4155.03097 1.83797e-17
4156.50121 1.79938e-17
4157.97145 1.83721e-17
4159.44169 1.82090e-17
4160.91193 1.86527e-17
4162.38217 1.77250e-17
4163.85241 1.86934e-17
4165.32265 1.85448e-17
4166.79289 1.97793e-17
4168.26313 1.81823e-17
4169.73337 1.89807e-17
4171.20361 1.91644e-17
4172.67385 1.95770e-17
4174.14409 1.89668e-17
4175.61433 1.96437e-17
4177.08457 1.83624e-17
4178.54460 1.80127e-17
4180.01484 1.60905e-17
4181.48508 1.70043e-17
4182.95532 1.88194e-17
4184.42556 1.73693e-17
4185.89580 1.66476e-17
4187.36604 1.67808e-17
4188.83628 1.73437e-17
4190.30652 1.78791e-17
4191.77676 1.59786e-17
4193.24700 1.76561e-17
4194.71724 1.82033e-17
4196.18748 1.72032e-17
4197.65772 1.69603e-17
4199.12796 1.68720e-17
4200.59820 1.68816e-17
4202.06844 1.78621e-17
4203.53868 1.87767e-17
4205.00892 1.72940e-17
4206.47916 1.73183e-17
4207.94940 1.63912e-17
4209.41964 1.65668e-17
4210.88988 1.68284e-17
4212.36012 1.86006e-17
4213.83036 1.85541e-17
4215.30060 1.70824e-17
4216.77084 1.76077e-17
4218.24108 1.78811e-17
4219.71132 1.80379e-17
4221.18156 1.73920e-17
4222.65180 1.68613e-17
4224.12204 1.72381e-17
4225.59228 1.79271e-17
4227.06252 1.83204e-17
4228.53276 1.70124e-17
4230.00300 1.74589e-17
4231.47324 1.90010e-17
4232.94348 1.70533e-17
4234.41372 1.77778e-17
4235.88396 1.73966e-17
4237.35420 1.70155e-17
4238.82444 1.66345e-17
4240.29468 1.62535e-17
4241.75471 1.58727e-17
4243.22495 1.58709e-17
4244.70540 1.66577e-17
4246.16543 1.73605e-17
4247.63567 1.72086e-17
4249.10591 1.80580e-17
4250.57615 1.80970e-17
4252.04639 1.81294e-17
4253.51663 1.78246e-17
4254.98687 1.84612e-17
4256.45711 1.76709e-17
4257.92735 1.67490e-17
4259.39759 1.91504e-17
4260.86783 2.01604e-17
4262.33807 2.08924e-17
4263.80831 1.87255e-17
4265.27855 1.72517e-17
4266.74879 1.85788e-17
4268.21903 1.80116e-17
4269.68927 1.66146e-17
4271.15951 1.71250e-17
4272.62975 1.84359e-17
4274.09999 1.89104e-17
4275.57023 1.75359e-17
4277.04047 1.70027e-17
4278.51071 1.77904e-17
4279.98095 1.85130e-17
4281.45119 1.91493e-17
4282.92143 1.85609e-17
4284.39167 1.85766e-17
4285.86191 1.92004e-17
4287.33215 1.69344e-17
4288.80239 1.74328e-17
4290.27263 1.99835e-17
4291.74287 1.84217e-17
4293.21311 1.78420e-17
4294.68335 1.83315e-17
4296.15359 1.90199e-17
4297.62383 1.92604e-17
4299.09407 1.87524e-17
4300.56431 1.81560e-17
4302.03455 1.88155e-17
4303.50479 1.96491e-17
4304.97503 1.75740e-17
4306.43506 1.78284e-17
4307.90530 1.78907e-17
4309.37554 1.72332e-17
4310.84578 1.68730e-17
4312.31602 1.72570e-17
4313.78626 1.84672e-17
4315.25650 1.84592e-17
4316.72674 1.89423e-17
4318.19698 1.85487e-17
4319.66722 1.93725e-17
4321.13746 1.84171e-17
4322.60770 1.91648e-17
4324.07794 1.99340e-17
4325.54818 1.78076e-17
4327.01842 1.93210e-17
4328.48866 1.88912e-17
4329.95890 1.88991e-17
4331.42914 1.82547e-17
4332.89938 1.77353e-17
4334.36962 1.95992e-17
4335.83986 1.89193e-17
4337.31010 1.85534e-17
4338.78034 1.57652e-17
4340.25058 1.57783e-17
4341.72082 1.82092e-17
4343.19106 1.63713e-17
4344.66130 1.87259e-17
4346.13154 1.81665e-17
4347.60178 1.74110e-17
4349.07202 1.67681e-17
4350.54226 1.78313e-17
4352.01250 1.82835e-17
4353.48274 1.81403e-17
4354.95298 1.84158e-17
4356.42322 1.89018e-17
4357.89346 1.79955e-17
4359.36370 1.64639e-17
4360.83394 1.72992e-17
4362.30418 1.87964e-17
4363.77442 1.85478e-17
4365.24466 1.76586e-17
4366.71490 1.79090e-17
4368.17493 1.95461e-17
4369.64517 1.75066e-17
4371.11541 1.88200e-17
4372.58565 1.92228e-17
4374.05589 1.89647e-17
4375.52613 1.50185e-17
4376.99637 1.56037e-17
4378.46661 1.52569e-17
4379.93685 1.48049e-17
4381.40709 1.50664e-17
4382.87733 1.81834e-17
4384.34757 1.78034e-17
4385.81781 1.85772e-17
4387.28805 1.87996e-17
4388.75829 1.68366e-17
4390.22853 1.78756e-17
4391.69877 1.76432e-17
4393.16901 1.81113e-17
4394.63925 1.80187e-17
4396.10949 1.68285e-17
4397.57973 1.79185e-17
4399.04997 1.77142e-17
4400.52021 1.94142e-17
4401.99045 1.75149e-17
4403.46069 1.57929e-17
4404.93093 1.87561e-17
4406.40117 1.62413e-17
4407.87141 1.69032e-17
4409.34165 1.73059e-17
4410.81189 1.73885e-17
4412.28213 1.86527e-17
4413.75237 1.76237e-17
4415.22261 1.76869e-17
4416.69285 1.84194e-17
4418.16309 1.63716e-17
4419.63333 1.82741e-17
4421.10357 1.67640e-17
4422.57381 1.67778e-17
4424.04405 1.56736e-17
4425.51429 1.66765e-17
4426.98453 1.63379e-17
4428.45477 1.60075e-17
4429.91480 1.52835e-17
4431.39525 1.44860e-17
4432.85528 1.74987e-17
4434.32552 1.65764e-17
4435.79576 1.57931e-17
4437.26600 1.42276e-17
4438.73624 1.45432e-17
4440.20648 1.51036e-17
4441.67672 1.49921e-17
4443.14696 1.31142e-17
4444.61720 1.32040e-17
4446.08744 1.62300e-17
4447.55768 1.52328e-17
4449.02792 1.41763e-17
4450.49816 1.31770e-17
4451.96840 1.31543e-17
4453.43864 1.35803e-17
4454.90888 1.39449e-17
4456.37912 1.33275e-17
4457.84936 1.35947e-17
4459.31960 1.23826e-17
4460.78984 1.37713e-17
4462.26008 1.33320e-17
4463.73032 1.27432e-17
4465.20056 1.30069e-17
4466.67080 1.17578e-17
4468.14104 1.17024e-17
4469.61128 1.15212e-17
4471.08152 1.22659e-17
4472.55176 1.29128e-17
4474.02200 1.09280e-17
4475.49224 1.24306e-17
4476.96248 1.44501e-17
4478.43272 1.30952e-17
4479.90296 1.34512e-17
4481.37320 1.27952e-17
4482.84344 1.14344e-17
4484.31368 1.23268e-17
4485.78392 1.25219e-17
4487.25416 1.15139e-17
4488.72440 1.20716e-17
4490.19464 1.30018e-17
4491.66488 1.31218e-17
4493.12491 1.20869e-17
4494.59515 1.19208e-17
4496.06539 1.21669e-17
4497.53563 1.25637e-17
4499.00587 1.21594e-17
4500.47611 1.31497e-17
4501.94635 1.29559e-17
4503.41659 1.15666e-17
4504.88683 1.29231e-17
4506.35707 1.34716e-17
4507.82731 1.30451e-17
4509.29755 1.24981e-17
4510.76779 1.33668e-17
4512.23803 1.22906e-17
4513.70827 1.30638e-17
4515.17851 1.37529e-17
4516.64875 1.16797e-17
4518.11899 1.14182e-17
4519.58923 1.38715e-17
4521.05947 1.26071e-17
4522.52971 1.09522e-17
4523.99995 1.15225e-17
4525.47019 1.26183e-17
4526.94043 1.42345e-17
4528.41067 1.27913e-17
4529.88091 1.05412e-17
4531.35115 1.12639e-17
4532.82139 1.29482e-17
4534.29163 1.25372e-17
4535.76187 1.14680e-17
4537.23211 1.24294e-17
4538.70235 1.30154e-17
4540.17259 1.25840e-17
4541.64283 1.39487e-17
4543.11307 1.41346e-17
4544.58331 1.52860e-17
4546.05355 1.48367e-17
4547.52379 1.37733e-17
4548.99403 1.39576e-17
4550.46427 1.46380e-17
4551.93451 1.50998e-17
4553.40475 1.45257e-17
4554.87499 1.36274e-17
4556.33502 1.39260e-17
4557.80526 1.48402e-17
4559.27550 1.43087e-17
4560.74574 1.40751e-17
4562.21598 1.54900e-17
4563.68622 1.56369e-17
4565.15646 1.51455e-17
4566.62670 1.53557e-17
4568.09694 1.53676e-17
4569.56718 1.63827e-17
4571.03742 1.59009e-17
4572.50766 1.47152e-17
4573.97790 1.66621e-17
4575.44814 1.75098e-17
4576.91838 1.75882e-17
4578.38862 1.69109e-17
4579.85886 1.61300e-17
4581.32910 1.63989e-17
4582.79934 1.73318e-17
4584.26958 1.79893e-17
4585.73982 1.76606e-17
4587.21006 1.74148e-17
4588.68030 1.79040e-17
4590.15054 1.74310e-17
4591.62078 1.87341e-17
4593.09102 1.92010e-17
4594.56126 1.78294e-17
4596.03150 1.83042e-17
4597.50174 1.98901e-17
4598.97198 1.91511e-17
4600.44222 1.86665e-17
4601.91246 1.83525e-17
4603.38270 2.02422e-17
4604.85294 1.98179e-17
4606.32318 1.87681e-17
4607.79342 1.90814e-17
4609.26366 1.88969e-17
4610.73390 1.92602e-17
4612.20414 1.95031e-17
4613.67438 1.88179e-17
4615.14462 1.88115e-17
4616.60465 1.91520e-17
4618.07489 1.90289e-17
4619.54513 1.95933e-17
4621.01537 2.13898e-17
4622.48561 2.12671e-17
4623.95585 2.22727e-17
4625.42609 2.05834e-17
4626.89633 1.97345e-17
4628.36657 2.10388e-17
4629.83681 2.10629e-17
4631.30705 2.08145e-17
4632.77729 1.96154e-17
4634.24753 1.91441e-17
4635.71777 2.14845e-17
4637.18801 2.20862e-17
4638.65825 2.26397e-17
4640.12849 2.14372e-17
4641.59873 2.12788e-17
4643.06897 2.12459e-17
4644.53921 2.13896e-17
4646.00945 2.17867e-17
4647.47969 2.13561e-17
4648.94993 2.28602e-17
4650.42017 2.26940e-17
4651.89041 2.15699e-17
4653.36065 2.13245e-17
4654.83089 2.01730e-17
4656.30113 2.20476e-17
4657.77137 2.19109e-17
4659.24161 2.24561e-17
4660.71185 2.24536e-17
4662.18209 2.31875e-17
4663.65233 2.27304e-17
4665.12257 2.28403e-17
4666.59281 2.25954e-17
4668.06305 2.19831e-17
4669.53329 2.28223e-17
4671.00353 2.29764e-17
4672.47377 2.36326e-17
4673.94401 2.41564e-17
4675.41425 2.40625e-17
4676.88449 2.23035e-17
4678.35473 2.25426e-17
4679.81476 2.28759e-17
4681.28500 2.43766e-17
4682.75524 2.33433e-17
4684.22548 2.38631e-17
4685.69572 2.37583e-17
4687.16596 2.24380e-17
4688.63620 2.14001e-17
4690.10644 2.21335e-17
4691.57668 2.31607e-17
4693.04692 2.31133e-17
4694.51716 2.29496e-17
4695.98740 2.32246e-17
4697.45764 2.36180e-17
4698.92788 2.30206e-17
4700.39812 2.40236e-17
4701.86836 2.48205e-17
4703.33860 2.32426e-17
4704.80884 2.35974e-17
4706.27908 2.35165e-17
4707.74932 2.27866e-17
4709.21956 2.34719e-17
4710.68980 2.39802e-17
4712.16004 2.45726e-17
4713.63028 2.42207e-17
4715.10052 2.36875e-17
4716.57076 2.31088e-17
4718.04100 2.34967e-17
4719.51124 2.28121e-17
4720.98148 2.26275e-17
4722.45172 2.35812e-17
4723.92196 2.35393e-17
4725.39220 2.26899e-17
4726.86244 2.25769e-17
4728.33268 2.32085e-17
4729.80292 2.32399e-17
4731.27316 2.17757e-17
4732.74340 2.26533e-17
4734.21364 2.39462e-17
4735.68388 2.33120e-17
4737.15412 2.26023e-17
4738.62436 2.27530e-17
4740.09460 2.35171e-17
4741.56484 2.33922e-17
4743.02487 2.38825e-17
4744.49511 2.31456e-17
4745.96535 2.16381e-17
4747.43559 2.21468e-17
4748.90583 2.21435e-17
4750.37607 2.32298e-17
4751.84631 2.31902e-17
4753.31655 2.24261e-17
4754.78679 2.33907e-17
4756.25703 2.33822e-17
4757.72727 2.33665e-17
4759.19751 2.25175e-17
4760.66775 2.31303e-17
4762.13799 2.32830e-17
4763.60823 2.20473e-17
4765.07847 2.20942e-17
4766.54871 2.29483e-17
4768.01895 2.13414e-17
4769.48919 2.19537e-17
4770.95943 2.25202e-17
4772.42967 2.31045e-17
4773.89991 2.05014e-17
4775.37015 2.09293e-17
4776.84039 2.11653e-17
4778.31063 2.12276e-17
4779.78087 2.02652e-17
4781.25111 2.04302e-17
4782.72135 2.21543e-17
4784.19159 2.26067e-17
4785.66183 2.18259e-17
4787.13207 2.06027e-17
4788.60231 2.18094e-17
4790.07255 2.10161e-17
4791.54279 2.08149e-17
4793.01303 2.04675e-17
4794.48327 2.11657e-17
4795.95351 2.04460e-17
4797.42375 2.01541e-17
4798.89399 2.02238e-17
4800.36423 2.11864e-17
4801.83447 2.10170e-17
4803.29450 2.10717e-17
4804.76474 2.07933e-17
4806.24519 1.86322e-17
4807.70522 1.93592e-17
4809.17546 2.00667e-17
4810.64570 1.95338e-17
4812.11594 1.93252e-17
4813.58618 1.93758e-17
4815.05642 2.01930e-17
4816.52666 1.94827e-17
4817.99690 1.98049e-17
4819.46714 1.95628e-17
4820.93738 1.69903e-17
4822.40762 1.75716e-17
4823.87786 1.78048e-17
4825.34810 1.81515e-17
4826.81834 1.76317e-17
4828.28858 1.78383e-17
4829.75882 1.61847e-17
4831.22906 1.60695e-17
4832.69930 1.67676e-17
4834.16954 1.61292e-17
4835.63978 1.67094e-17
4837.11002 1.54844e-17
4838.58026 1.65286e-17
4840.05050 1.63744e-17
4841.52074 1.49768e-17
4842.99098 1.45065e-17
4844.46122 1.66562e-17
4845.93146 1.63065e-17
4847.40170 1.47685e-17
4848.87194 1.41653e-17
4850.34218 1.39476e-17
4851.81242 1.32616e-17
4853.28266 1.37679e-17
4854.75290 1.35911e-17
4856.22314 1.38653e-17
4857.69338 1.37249e-17
4859.16362 1.30558e-17
4860.63386 1.36183e-17
4862.10410 1.30966e-17
4863.57434 1.22860e-17
4865.04458 1.17598e-17
4866.51482 1.19138e-17
4867.97485 1.32899e-17
4869.44509 1.32583e-17
4870.91533 1.32267e-17
4872.38557 1.31950e-17
4873.85581 1.31634e-17
4875.32605 1.31318e-17
4876.79629 1.31300e-17
4878.26653 1.26132e-17
4879.73677 1.12598e-17
4881.20701 1.14786e-17
4882.67725 1.16820e-17
4884.14749 1.07600e-17
4885.61773 1.16849e-17
4887.08797 1.22716e-17
4888.55821 1.09891e-17
4890.02845 1.15008e-17
4891.49869 1.20750e-17
4892.96893 1.21865e-17
4894.43917 1.13876e-17
4895.90941 1.17898e-17
4897.37965 1.18243e-17
4898.84989 1.19253e-17
4900.32013 1.28660e-17
4901.79037 1.18815e-17
4903.26061 1.15612e-17
4904.73085 1.17447e-17
4906.20109 1.20478e-17
4907.67133 1.22693e-17
4909.14157 1.19992e-17
4910.61181 1.21253e-17
4912.08205 1.26539e-17
4913.55229 1.26529e-17
4915.02253 1.19182e-17
4916.49277 1.18590e-17
4917.96301 1.23196e-17
4919.43325 1.24197e-17
4920.90349 1.26087e-17
4922.37373 1.33632e-17
4923.84397 1.31799e-17
4925.31421 1.29509e-17
4926.78445 1.26600e-17
4928.25469 1.30023e-17
4929.72493 1.31333e-17
4931.18496 1.27277e-17
4932.65520 1.18716e-17
4934.12544 1.20438e-17
4935.59568 1.27034e-17
4937.06592 1.24897e-17
4938.53616 1.29628e-17
4940.00640 1.23045e-17
4941.47664 1.29394e-17
4942.94688 1.22641e-17
4944.41712 1.17991e-17
4945.88736 1.20550e-17
4947.35760 1.17936e-17
4948.82784 1.18012e-17
4950.29808 1.13842e-17
4951.76832 1.13202e-17
4953.23856 1.16612e-17
4954.70880 1.20244e-17
4956.17904 1.13789e-17
4957.64928 1.02055e-17
4959.11952 1.02922e-17
4960.58976 1.08407e-17
4962.06000 1.16598e-17
4963.53024 1.18039e-17
4965.00048 1.13172e-17
4966.47072 1.12293e-17
4967.94096 1.10527e-17
4969.41120 1.07148e-17
4970.88144 1.03467e-17
4972.35168 1.06027e-17
4973.82192 1.12038e-17
4975.29216 1.09356e-17
4976.76240 1.08752e-17
4978.23264 1.04592e-17
4979.70288 1.10213e-17
4981.17312 1.08465e-17
4982.64336 1.12996e-17
4984.11360 1.21274e-17
4985.58384 1.21346e-17
4987.05408 1.26711e-17
4988.52432 1.25007e-17
4989.99456 1.27746e-17
4991.45459 1.27349e-17
4992.92483 1.26483e-17
4994.39507 1.15706e-17
4995.86531 1.20778e-17
4997.33555 1.28144e-17
4998.80579 1.37257e-17
5000.27603 1.42643e-17
5001.74627 1.36981e-17
5003.21651 1.41210e-17
5004.68675 1.46083e-17
5006.15699 1.47220e-17
5007.62723 1.45363e-17
5009.09747 1.44223e-17
5010.56771 1.48444e-17
5012.03795 1.50350e-17
5013.50819 1.47043e-17
5014.97843 1.45361e-17
5016.44867 1.47262e-17
5017.91891 1.57781e-17
5019.38915 1.62642e-17
5020.85939 1.52985e-17
5022.32963 1.53248e-17
5023.79987 1.61263e-17
5025.27011 1.66154e-17
5026.74035 1.62805e-17
5028.21059 1.57644e-17
5029.68083 1.62161e-17
5031.15107 1.67709e-17
5032.62131 1.71423e-17
5034.09155 1.70809e-17
5035.56179 1.82036e-17
5037.03203 1.79419e-17
5038.50227 1.71508e-17
5039.97251 1.80000e-17
5041.44275 1.80014e-17
5042.91299 1.81582e-17
5044.38323 1.81497e-17
5045.85347 1.76291e-17
5047.32371 1.77706e-17
5048.79395 1.77379e-17
5050.26419 1.83517e-17
5051.73443 1.88530e-17
5053.20467 1.77806e-17
5054.67491 1.71883e-17
5056.14515 1.70753e-17
5057.60518 1.85695e-17
5059.07542 1.89234e-17
5060.54566 1.77503e-17
5062.01590 1.80468e-17
5063.48614 1.82612e-17
5064.95638 1.70897e-17
5066.42662 1.71161e-17
5067.89686 1.70258e-17
5069.36710 1.72849e-17
5070.83734 1.64805e-17
5072.30758 1.55452e-17
5073.77782 1.53133e-17
5075.24806 1.56915e-17
5076.71830 1.60374e-17
5078.18854 1.65416e-17
5079.65878 1.68225e-17
5081.12902 1.60913e-17
5082.59926 1.56215e-17
5084.06950 1.50079e-17
5085.53974 1.45893e-17
5087.00998 1.45054e-17
5088.48022 1.40850e-17
5089.95046 1.33496e-17
5091.42070 1.36656e-17
5092.89094 1.35050e-17
5094.36118 1.26724e-17
5095.83142 1.24841e-17
5097.30166 1.24727e-17
5098.77190 1.26548e-17
5100.24214 1.20985e-17
5101.71238 1.18326e-17
5103.18262 1.22053e-17
5104.65286 1.27438e-17
5106.12310 1.21645e-17
5107.59334 1.11301e-17
5109.06358 1.13596e-17
5110.53382 1.20142e-17
5112.00406 1.24583e-17
5113.47430 1.25965e-17
5114.94454 1.23394e-17
5116.41478 1.11759e-17
5117.87481 1.06968e-17
5119.34505 1.06814e-17
5120.81529 1.09412e-17
5122.28553 1.13058e-17
5123.75577 1.19551e-17
5125.22601 1.19854e-17
5126.69625 1.12420e-17
5128.16649 1.12932e-17
5129.63673 1.14987e-17
5131.10697 1.11945e-17
5132.57721 1.15526e-17
5134.04745 1.27608e-17
5135.51769 1.31149e-17
5136.98793 1.22093e-17
5138.45817 1.16764e-17
5139.92841 1.16944e-17
5141.39865 1.22674e-17
5142.86889 1.24763e-17
5144.33913 1.24256e-17
5145.80937 1.31867e-17
5147.27961 1.24984e-17
5148.74985 1.12578e-17
5150.22009 1.26611e-17
5151.69033 1.38640e-17
5153.16057 1.30519e-17
5154.63081 1.28552e-17
5156.10105 1.28968e-17
5157.57129 1.28425e-17
5159.04153 1.29663e-17
5160.51177 1.31896e-17
5161.98201 1.35431e-17
5163.45225 1.31517e-17
5164.92249 1.31734e-17
5166.39273 1.38705e-17
5167.86297 1.37897e-17
5169.33321 1.35130e-17
5170.80345 1.34859e-17
5172.27369 1.36254e-17
5173.74393 1.38273e-17
5175.21417 1.32566e-17
5176.68441 1.34274e-17
5178.15465 1.39496e-17
5179.61468 1.44133e-17
5181.08492 1.51355e-17
5182.55516 1.48838e-17
5184.02540 1.47650e-17
5185.49564 1.48654e-17
5186.96588 1.46485e-17
5188.43612 1.45279e-17
5189.90636 1.44930e-17
5191.37660 1.48705e-17
5192.84684 1.43410e-17
5194.31708 1.38801e-17
5195.78732 1.49229e-17
5197.25756 1.48886e-17
5198.72780 1.47100e-17
5200.19804 1.53137e-17
5201.66828 1.49953e-17
5203.13852 1.51583e-17
5204.60876 1.56993e-17
5206.07900 1.52685e-17
5207.54924 1.52630e-17
5209.01948 1.50169e-17
5210.48972 1.53588e-17
5211.95996 1.63170e-17
5213.43020 1.56749e-17
5214.90044 1.51846e-17
5216.37068 1.50369e-17
5217.84092 1.45877e-17
5219.31116 1.51243e-17
5220.78140 1.47492e-17
5222.25164 1.38678e-17
5223.72188 1.40845e-17
5225.19212 1.55342e-17
5226.66236 1.54244e-17
5228.13260 1.46310e-17
5229.60284 1.47892e-17
5231.07308 1.54430e-17
5232.54332 1.56259e-17
5234.01356 1.50742e-17
5235.48380 1.52445e-17
5236.95404 1.52518e-17
5238.42428 1.48024e-17
5239.89452 1.52600e-17
5241.36476 1.55461e-17
5242.83500 1.49539e-17
5244.29503 1.47461e-17
5245.76527 1.53380e-17
5247.23551 1.54165e-17
5248.70575 1.42536e-17
5250.17599 1.38587e-17
5251.64623 1.46589e-17
5253.11647 1.42443e-17
5254.58671 1.43241e-17
5256.05695 1.44601e-17
5257.52719 1.41653e-17
5258.99743 1.44252e-17
5260.46767 1.43740e-17
5261.93791 1.45190e-17
5263.40815 1.46477e-17
5264.87839 1.51380e-17
5266.34863 1.54058e-17
5267.81887 1.47186e-17
5269.28911 1.44836e-17
5270.75935 1.44608e-17
5272.22959 1.46011e-17
5273.69983 1.51679e-17
5275.17007 1.49349e-17
5276.64031 1.47701e-17
5278.11055 1.52161e-17
5279.58079 1.52648e-17
5281.05103 1.50235e-17
5282.52127 1.63344e-17
5283.99151 1.63244e-17
5285.46175 1.53158e-17
5286.93199 1.52712e-17
5288.40223 1.60142e-17
5289.87247 1.66816e-17
5291.34271 1.57975e-17
5292.81295 1.55954e-17
5294.28319 1.64627e-17
5295.75343 1.69854e-17
5297.22367 1.72173e-17
5298.69391 1.65228e-17
5300.16415 1.59319e-17
5301.63439 1.60512e-17
5303.10463 1.70484e-17
5304.56466 1.70876e-17
5306.03490 1.68806e-17
5307.50514 1.78750e-17
5308.97538 1.78917e-17
5310.44562 1.71952e-17
5311.91586 1.70938e-17
5313.38610 1.71572e-17
5314.85634 1.80501e-17
5316.32658 1.78419e-17
5317.79682 1.64612e-17
5319.26706 1.66824e-17
5320.73730 1.78996e-17
5322.20754 1.79450e-17
5323.67778 1.82434e-17
5325.14802 1.85601e-17
5326.61826 1.81669e-17
5328.08850 1.86105e-17
5329.55874 1.90047e-17
5331.02898 1.90116e-17
5332.49922 1.85820e-17
5333.96946 1.85533e-17
5335.43970 1.93829e-17
5336.90994 1.85780e-17
5338.38018 1.87175e-17
5339.85042 1.89844e-17
5341.32066 1.96252e-17
5342.79090 1.93401e-17
5344.26114 1.90135e-17
5345.73138 1.97819e-17
5347.20162 1.93520e-17
5348.67186 1.93920e-17
5350.14210 1.96328e-17
5351.61234 1.93853e-17
5353.08258 2.00522e-17
5354.55282 1.94230e-17
5356.02306 1.91098e-17
5357.49330 1.95272e-17
5358.96354 2.02368e-17
5360.43378 2.02454e-17
5361.90402 1.91544e-17
5363.37426 1.95450e-17
5364.84450 1.95712e-17
5366.31474 1.91920e-17
5367.78498 1.98380e-17
5369.24501 2.03322e-17
5370.71525 1.99865e-17
5372.18549 2.04949e-17
5373.65573 2.04235e-17
5375.12597 2.00134e-17
5376.59621 1.95815e-17
5378.06645 1.95137e-17
5379.53669 2.03257e-17
5381.00693 2.00026e-17
5382.47717 2.00492e-17
5383.94741 2.06908e-17
5385.41765 1.99984e-17
5386.88789 1.97595e-17
5388.35813 1.97882e-17
5389.82837 2.02538e-17
5391.29861 2.09125e-17
5392.76885 2.07738e-17
5394.23909 2.06713e-17
5395.70933 2.08202e-17
5397.17957 2.10685e-17
5398.64981 2.09455e-17
5400.12005 1.93813e-17
5401.59029 1.93052e-17
5403.06053 2.07682e-17
5404.53077 2.03239e-17
5406.00101 2.01536e-17
5407.47125 2.06983e-17
5408.94149 2.04837e-17
5410.41173 2.05543e-17
5411.88197 1.98273e-17
5413.35221 1.98461e-17
5414.82245 2.01385e-17
5416.29269 2.02350e-17
5417.76293 1.97933e-17
5419.23317 1.94863e-17
5420.70341 1.95888e-17
5422.17365 2.01732e-17
5423.64389 2.04312e-17
5425.11413 1.96824e-17
5426.58437 1.99219e-17
5428.05461 2.01903e-17
5429.52485 2.03271e-17
5430.99509 2.02355e-17
5432.45512 1.95575e-17
5433.92536 1.96652e-17
5435.39560 2.03061e-17
5436.86584 2.02075e-17
5438.33608 2.03027e-17
5439.80632 2.07890e-17
5441.27656 2.05877e-17
5442.74680 2.00868e-17
5444.21704 2.01570e-17
5445.68728 2.08063e-17
5447.15752 2.03504e-17
5448.62776 1.95397e-17
5450.09800 2.00864e-17
5451.56824 2.06729e-17
5453.03848 1.99886e-17
5454.50872 1.92015e-17
5455.97896 1.98533e-17
5457.44920 1.96396e-17
5458.91944 1.91623e-17
5460.38968 1.94757e-17
5461.85992 1.90552e-17
5463.33016 1.93125e-17
5464.80040 2.03845e-17
5466.27064 1.99649e-17
5467.74088 1.88002e-17
5469.21112 1.88415e-17
5470.68136 1.90320e-17
5472.15160 1.88644e-17
5473.62184 1.95944e-17
5475.09208 2.01999e-17
5476.56232 1.95472e-17
5478.03256 1.87327e-17
5479.50280 1.87782e-17
5480.97304 1.92800e-17
5482.44328 1.88136e-17
5483.91352 1.76431e-17
5485.38376 1.81710e-17
5486.85400 1.93641e-17
5488.32424 1.97221e-17
5489.79448 1.98659e-17
5491.25451 1.89275e-17
5492.72475 1.82085e-17
5494.19499 1.84759e-17
5495.66523 1.83446e-17
5497.13547 1.79462e-17
5498.60571 1.76859e-17
5500.07595 1.81775e-17
5501.54619 1.87126e-17
5503.01643 1.87521e-17
5504.48667 1.87566e-17
5505.95691 1.87744e-17
5507.42715 1.87456e-17
5508.89739 1.84132e-17
5510.36763 1.82770e-17
5511.83787 1.83520e-17
5513.30811 1.88279e-17
5514.77835 1.89308e-17
5516.24859 1.84564e-17
5517.71883 1.82604e-17
5519.18907 1.81925e-17
5520.65931 1.83618e-17
5522.12955 1.87509e-17
5523.59979 1.91075e-17
5525.07003 1.88103e-17
5526.54027 1.89621e-17
5528.01051 1.94549e-17
5529.48075 1.92264e-17
5530.95099 1.85498e-17
5532.42123 1.83200e-17
5533.89147 1.91164e-17
5535.36171 1.93311e-17
5536.83195 1.90306e-17
5538.30219 1.88399e-17
5539.77243 1.81143e-17
5541.24267 1.78566e-17
5542.71291 1.85797e-17
5544.18315 1.89214e-17
5545.65339 1.91112e-17
5547.12363 1.90934e-17
5548.59387 1.86448e-17
5550.06411 1.86652e-17
5551.53435 1.85048e-17
5553.00459 1.79034e-17
5554.47483 1.82379e-17
5555.94507 1.87831e-17
5557.40510 1.80665e-17
5558.87534 1.80668e-17
5560.34558 1.87435e-17
5561.81582 1.80002e-17
5563.28606 1.79670e-17
5564.75630 1.84652e-17
5566.22654 1.83568e-17
5567.69678 1.83593e-17
5569.16702 1.80548e-17
5570.63726 1.77160e-17
5572.10750 1.73803e-17
5573.57774 1.81496e-17
5575.04798 2.02862e-17
5576.51822 1.96401e-17
5577.98846 1.80882e-17
5579.45870 1.84756e-17
5580.92894 1.88194e-17
5582.39918 1.84012e-17
5583.86942 1.74199e-17
5585.33966 1.64775e-17
5586.80990 1.50576e-17
5588.28014 1.47415e-17
5589.75038 1.52509e-17
5591.22062 1.56778e-17
5592.69086 1.76800e-17
5594.16110 1.91379e-17
5595.63134 1.83942e-17
5597.10158 1.81442e-17
5598.57182 1.79362e-17
5600.04206 1.80385e-17
5601.51230 1.86086e-17
5602.98254 1.81832e-17
5604.45278 1.81165e-17
5605.92302 1.85078e-17
5607.39326 1.82651e-17
5608.86350 1.83997e-17
5610.33374 1.82668e-17
5611.80398 1.76434e-17
5613.27422 1.67853e-17
5614.74446 1.62613e-17
5616.21470 1.69676e-17
5617.68494 1.75595e-17
5619.14497 1.75862e-17
5620.61521 1.71101e-17
5622.08545 1.69399e-17
5623.55569 1.68360e-17
5625.02593 1.66883e-17
5626.49617 1.73814e-17
5627.96641 1.84913e-17
5629.43665 1.81300e-17
5630.90689 1.73251e-17
5632.37713 1.71221e-17
5633.84737 1.71429e-17
5635.31761 1.74366e-17
5636.78785 1.65669e-17
5638.25809 1.60792e-17
5639.72833 1.61789e-17
5641.19857 1.60666e-17
5642.66881 1.61573e-17
5644.13905 1.59464e-17
5645.60929 1.65978e-17
5647.07953 1.72422e-17
5648.54977 1.63947e-17
5650.02001 1.61905e-17
5651.49025 1.64464e-17
5652.96049 1.68284e-17
5654.43073 1.62179e-17
5655.90097 1.54333e-17
5657.37121 1.56829e-17
5658.84145 1.55071e-17
5660.31169 1.52223e-17
5661.78193 1.51084e-17
5663.25217 1.54763e-17
5664.72241 1.63930e-17
5666.19265 1.64053e-17
5667.66289 1.57080e-17
5669.13313 1.52450e-17
5670.60337 1.54003e-17
5672.07361 1.57997e-17
5673.54385 1.47938e-17
5675.01409 1.49906e-17
5676.48433 1.54184e-17
5677.95457 1.50727e-17
5679.41460 1.45950e-17
5680.88484 1.44174e-17
5682.35508 1.49931e-17
5683.82532 1.55092e-17
5685.29556 1.53037e-17
5686.76580 1.48749e-17
5688.23604 1.42510e-17
5689.70628 1.40126e-17
5691.17652 1.43468e-17
5692.64676 1.41449e-17
5694.11700 1.34153e-17
5695.58724 1.32575e-17
5697.05748 1.37594e-17
5698.52772 1.45165e-17
5699.99796 1.44139e-17
5701.46820 1.38132e-17
5702.93844 1.43095e-17
5704.40868 1.45987e-17
5705.87892 1.43403e-17
5707.34916 1.39246e-17
5708.81940 1.37659e-17
5710.28964 1.33501e-17
5711.75988 1.28411e-17
5713.23012 1.29729e-17
5714.70036 1.32486e-17
5716.17060 1.29893e-17
5717.64084 1.28352e-17
5719.11108 1.34249e-17
5720.58132 1.35174e-17
5722.05156 1.36079e-17
5723.52180 1.30832e-17
5724.99204 1.21430e-17
5726.46228 1.20203e-17
5727.93252 1.19362e-17
5729.40276 1.22051e-17
5730.87300 1.23241e-17
5732.34324 1.21820e-17
5733.81348 1.28902e-17
5735.28372 1.29592e-17
5736.75396 1.21517e-17
5738.22420 1.19657e-17
5739.69444 1.20309e-17
5741.16468 1.17353e-17
5742.63492 1.13156e-17
5744.10516 1.11050e-17
5745.56519 1.14322e-17
5747.03543 1.13731e-17
5748.50567 1.08533e-17
5749.97591 1.09781e-17
5751.44615 1.11098e-17
5752.91639 1.10838e-17
5754.38663 1.10264e-17
5755.85687 1.09364e-17
5757.32711 1.07499e-17
5758.79735 1.07705e-17
5760.26759 1.08106e-17
5761.73783 1.06636e-17
5763.20807 1.10744e-17
5764.67831 1.06421e-17
5766.14855 9.88193e-18
5767.61879 1.00139e-17
5769.08903 9.84452e-18
5770.55927 9.50911e-18
5772.02951 9.46709e-18
5773.49975 9.80037e-18
5774.96999 1.02863e-17
5776.44023 9.60230e-18
5777.91047 9.51258e-18
5779.38071 9.75614e-18
5780.85095 9.34766e-18
5782.32119 9.73115e-18
5783.79143 9.70313e-18
5785.26167 9.18921e-18
5786.73191 9.52342e-18
5788.20215 9.19294e-18
5789.67239 8.43521e-18
5791.14263 8.99274e-18
5792.61287 9.03881e-18
5794.08311 8.72180e-18
5795.55335 9.09250e-18
5797.02359 8.79743e-18
5798.49383 8.78439e-18
5799.96407 8.72320e-18
5801.43431 8.85500e-18
5802.90455 9.08122e-18
5804.37479 9.06723e-18
5805.83482 9.42716e-18
5807.30506 9.43258e-18
5808.77530 9.24020e-18
5810.24554 9.71444e-18
5811.71578 9.42789e-18
5813.18602 9.39197e-18
5814.65626 9.64473e-18
5816.12650 9.09511e-18
5817.59674 9.39778e-18
5819.06698 1.01142e-17
5820.53722 9.98971e-18
5822.00746 9.33489e-18
5823.47770 9.29251e-18
5824.94794 9.60643e-18
5826.41818 9.37042e-18
5827.88842 1.00258e-17
5829.35866 1.00640e-17
5830.82890 9.23054e-18
5832.29914 9.70939e-18
5833.76938 1.00493e-17
5835.23962 9.85117e-18
5836.70986 1.00275e-17
5838.18010 1.05455e-17
5839.65034 1.04773e-17
5841.12058 9.58597e-18
5842.59082 9.11907e-18
5844.06106 9.59608e-18
5845.53130 9.52994e-18
5847.00154 1.01708e-17
5848.47178 1.10143e-17
5849.94202 1.12520e-17
5851.41226 1.09600e-17
5852.88250 1.03066e-17
5854.35274 1.07243e-17
5855.82298 1.14326e-17
5857.29322 1.08257e-17
5858.76346 1.04298e-17
5860.23370 1.08818e-17
5861.70394 1.15007e-17
5863.17418 1.19154e-17
5864.64442 1.18456e-17
5866.11466 1.16741e-17
5867.58490 1.17631e-17
5869.04493 1.16650e-17
5870.51517 1.15412e-17
5871.98541 1.17849e-17
5873.45565 1.26966e-17
5874.92589 1.28608e-17
5876.39613 1.23718e-17
5877.86637 1.21310e-17
5879.33661 1.16398e-17
5880.80685 1.17051e-17
5882.27709 1.21294e-17
5883.74733 1.20248e-17
5885.21757 1.21219e-17
5886.68781 1.24038e-17
5888.15805 1.19613e-17
5889.62829 1.15906e-17
5891.09853 1.21033e-17
5892.56877 1.36255e-17
5894.03901 1.33550e-17
5895.50925 1.25149e-17
5896.97949 1.23382e-17
5898.44973 1.25997e-17
5899.91997 1.28586e-17
5901.39021 1.32395e-17
5902.86045 1.30753e-17
5904.33069 1.28981e-17
5905.80093 1.30865e-17
5907.27117 1.29544e-17
5908.74141 1.36670e-17
5910.21165 1.52754e-17
5911.68189 1.56964e-17
5913.15213 1.49846e-17
5914.62237 1.41498e-17
5916.09261 1.36799e-17
5917.56285 1.43579e-17
5919.03309 1.52057e-17
5920.50333 1.48821e-17
5921.97357 1.47619e-17
5923.44381 1.48049e-17
5924.91405 1.45383e-17
5926.38429 1.51241e-17
5927.85453 1.55728e-17
5929.32477 1.50194e-17
5930.79501 1.51240e-17
5932.25504 1.52237e-17
5933.72528 1.50149e-17
5935.19552 1.58807e-17
5936.66576 1.63693e-17
5938.13600 1.46602e-17
5939.60624 1.43427e-17
5941.07648 1.54315e-17
5942.54672 1.50830e-17
5944.01696 1.48685e-17
5945.48720 1.54746e-17
5946.95744 1.55716e-17
5948.42768 1.51834e-17
5949.89792 1.59573e-17
5951.36816 1.72195e-17
5952.83840 1.67701e-17
5954.30864 1.56395e-17
5955.77888 1.50014e-17
5957.24912 1.55779e-17
5958.71936 1.65684e-17
5960.18960 1.64926e-17
5961.65984 1.61465e-17
5963.13008 1.65122e-17
5964.60032 1.67522e-17
5966.07056 1.61369e-17
5967.54080 1.61891e-17
5969.01104 1.64333e-17
5970.48128 1.62334e-17
5971.95152 1.60486e-17
5973.42176 1.64418e-17
5974.89200 1.73143e-17
5976.36224 1.66950e-17
5977.83248 1.60161e-17
5979.30272 1.63780e-17
5980.77296 1.64085e-17
5982.24320 1.63913e-17
5983.71344 1.58666e-17
5985.18368 1.48031e-17
5986.65392 1.54882e-17
5988.12416 1.62574e-17
5989.59440 1.57900e-17
5991.06464 1.56514e-17
5992.52467 1.58304e-17
5993.99491 1.63985e-17
5995.46515 1.66890e-17
5996.93539 1.65545e-17
5998.40563 1.61912e-17
5999.87587 1.64416e-17
6001.34611 1.70398e-17
6002.81635 1.65715e-17
6004.28659 1.69852e-17
6005.75683 1.65717e-17
6007.22707 1.61502e-17
6008.69731 1.58105e-17
6010.16755 1.59214e-17
6011.63779 1.57273e-17
6013.10803 1.57856e-17
6014.57827 1.49664e-17
6016.04851 1.48236e-17
6017.51875 1.48861e-17
6018.98899 1.50472e-17
6020.45923 1.54110e-17
6021.92947 1.51288e-17
6023.39971 1.44753e-17
6024.86995 1.42225e-17
6026.34019 1.50177e-17
6027.81043 1.66294e-17
6029.28067 1.64587e-17
6030.75091 1.67998e-17
6032.22115 1.64036e-17
6033.69139 1.54990e-17
6035.16163 1.60059e-17
6036.63187 1.57011e-17
6038.10211 1.58523e-17
6039.57235 1.59603e-17
6041.04259 1.58899e-17
6042.51283 1.51993e-17
6043.98307 1.55785e-17
6045.45331 1.59942e-17
6046.92355 1.57075e-17
6048.39379 1.63048e-17
6049.86403 1.59916e-17
6051.33427 1.53848e-17
6052.80451 1.61128e-17
6054.27475 1.65470e-17
6055.74499 1.62965e-17
6057.20502 1.62256e-17
6058.67526 1.59347e-17
6060.14550 1.53085e-17
6061.61574 1.54689e-17
6063.08598 1.59603e-17
6064.55622 1.58924e-17
6066.02646 1.67867e-17
6067.49670 1.58528e-17
6068.96694 1.50107e-17
6070.43718 1.57211e-17
6071.90742 1.56033e-17
6073.37766 1.49993e-17
6074.84790 1.44797e-17
6076.31814 1.47189e-17
6077.78838 1.46283e-17
6079.25862 1.47730e-17
6080.72886 1.45103e-17
6082.19910 1.45672e-17
6083.66934 1.43896e-17
6085.13958 1.46417e-17
6086.60982 1.42974e-17
6088.08006 1.42161e-17
6089.55030 1.51761e-17
6091.02054 1.42775e-17
6092.49078 1.41092e-17
6093.96102 1.42914e-17
6095.43126 1.44215e-17
6096.90150 1.42478e-17
6098.37174 1.45692e-17
6099.84198 1.42538e-17
6101.31222 1.44588e-17
6102.78246 1.40706e-17
6104.25270 1.36508e-17
6105.72294 1.35827e-17
6107.19318 1.36343e-17
6108.66342 1.39809e-17
6110.13366 1.44099e-17
6111.60390 1.43749e-17
6113.07414 1.46241e-17
6114.54438 1.37114e-17
6116.00441 1.36515e-17
6117.48486 1.32761e-17
6118.95510 1.34374e-17
6120.41513 1.40075e-17
6121.88537 1.38369e-17
6123.35561 1.39388e-17
6124.82585 1.37120e-17
6126.29609 1.31674e-17
6127.76633 1.31496e-17
6129.23657 1.41716e-17
6130.70681 1.39872e-17
6132.17705 1.37720e-17
6133.64729 1.42254e-17
6135.11753 1.35711e-17
6136.58777 1.37866e-17
6138.05801 1.40154e-17
6139.52825 1.38519e-17
6140.99849 1.36550e-17
6142.46873 1.33952e-17
6143.93897 1.33114e-17
6145.40921 1.34689e-17
6146.87945 1.28660e-17
6148.34969 1.29184e-17
6149.81993 1.34815e-17
6151.29017 1.35752e-17
6152.76041 1.33101e-17
6154.23065 1.30708e-17
6155.70089 1.31340e-17
6157.17113 1.39614e-17
6158.64137 1.43465e-17
6160.11161 1.35158e-17
6161.58185 1.37713e-17
6163.05209 1.39936e-17
6164.52233 1.30452e-17
6165.99257 1.26075e-17
6167.46281 1.30623e-17
6168.93305 1.37520e-17
6170.40329 1.33770e-17
6171.87353 1.28417e-17
6173.34377 1.32058e-17
6174.81401 1.33461e-17
6176.28425 1.32570e-17
6177.75449 1.31909e-17
6179.22473 1.27801e-17
6180.68476 1.28042e-17
6182.15500 1.34214e-17
6183.62524 1.32229e-17
6185.09548 1.31612e-17
6186.56572 1.32002e-17
6188.03596 1.27748e-17
6189.50620 1.22732e-17
6190.97644 1.25379e-17
6192.44668 1.32315e-17
6193.91692 1.38288e-17
6195.38716 1.31675e-17
6196.85740 1.24887e-17
6198.32764 1.27255e-17
6199.79788 1.28795e-17
6201.26812 1.26513e-17
6202.73836 1.29266e-17
6204.20860 1.28637e-17
6205.67884 1.27287e-17
6207.14908 1.32649e-17
6208.61932 1.25178e-17
6210.08956 1.24721e-17
6211.55980 1.29405e-17
6213.03004 1.28522e-17
6214.50028 1.30744e-17
6215.97052 1.36742e-17
6217.44076 1.27973e-17
6218.91100 1.25579e-17
6220.38124 1.33855e-17
6221.85148 1.37282e-17
6223.32172 1.34841e-17
6224.79196 1.33762e-17
6226.26220 1.29568e-17
6227.73244 1.33413e-17
6229.20268 1.39464e-17
6230.67292 1.34632e-17
6232.14316 1.33370e-17
6233.61340 1.32739e-17
6235.08364 1.33652e-17
6236.55388 1.32985e-17
6238.02412 1.28253e-17
6239.49436 1.33475e-17
6240.96460 1.36840e-17
6242.43484 1.35672e-17
6243.89487 1.37752e-17
6245.36511 1.41727e-17
6246.83535 1.33681e-17
6248.30559 1.32657e-17
6249.77583 1.33647e-17
6251.24607 1.31294e-17
6252.71631 1.27267e-17
6254.18655 1.22384e-17
6255.65679 1.33260e-17
6257.12703 1.37289e-17
6258.59727 1.29083e-17
6260.06751 1.29767e-17
6261.53775 1.38037e-17
6263.00799 1.37422e-17
6264.47823 1.38743e-17
6265.94847 1.38811e-17
6267.41871 1.35558e-17
6268.88895 1.32777e-17
6270.35919 1.35257e-17
6271.82943 1.38991e-17
6273.29967 1.36328e-17
6274.76991 1.29091e-17
6276.24015 1.36122e-17
6277.71039 1.26026e-17
6279.18063 1.21931e-17
6280.65087 1.29747e-17
6282.12111 1.29434e-17
6283.59135 1.26132e-17
6285.06159 1.28752e-17
6286.53183 1.35266e-17
6288.00207 1.32117e-17
6289.47231 1.24510e-17
6290.94255 1.23785e-17
6292.41279 1.18258e-17
6293.88303 1.12735e-17
6295.35327 1.12405e-17
6296.82351 1.22747e-17
6298.29375 1.11970e-17
6299.76399 1.22847e-17
6301.23423 1.24134e-17
6302.70447 1.10455e-17
6304.17471 1.16548e-17
6305.64495 1.17278e-17
6307.10498 1.02511e-17
6308.57522 1.00056e-17
6310.04546 1.09400e-17
6311.51570 1.13771e-17
6312.98594 1.19767e-17
6314.45618 1.17040e-17
6315.92642 1.06916e-17
6317.39666 1.12542e-17
6318.86690 1.13139e-17
6320.33714 1.09148e-17
6321.80738 1.02878e-17
6323.27762 1.02954e-17
6324.74786 9.66723e-18
6326.21810 9.12726e-18
6327.68834 1.02173e-17
6329.15858 1.04411e-17
6330.62882 1.00850e-17
6332.09906 1.06511e-17
6333.56930 1.08329e-17
6335.03954 1.09637e-17
6336.50978 9.59491e-18
6337.98002 1.00625e-17
6339.45026 1.11031e-17
6340.92050 1.03952e-17
6342.39074 9.97880e-18
6343.86098 1.05425e-17
6345.33122 1.10024e-17
6346.80146 1.03767e-17
6348.27170 9.85183e-18
6349.74194 1.06617e-17
6351.21218 1.05548e-17
6352.68242 1.02633e-17
6354.15266 1.07786e-17
6355.62290 1.07081e-17
6357.09314 1.06484e-17
6358.56338 1.04352e-17
6360.03362 1.00619e-17
6361.50386 1.02450e-17
6362.97410 1.04583e-17
6364.44434 1.03899e-17
6365.91458 1.04220e-17
6367.38482 1.00020e-17
6368.84485 9.87302e-18
6370.31509 1.00407e-17
6371.78533 1.02105e-17
6373.25557 1.05766e-17
6374.72581 1.04013e-17
6376.19605 1.07450e-17
6377.66629 1.06012e-17
6379.13653 1.02239e-17
6380.60677 1.07176e-17
6382.07701 1.11205e-17
6383.54725 1.11758e-17
6385.01749 1.13170e-17
6386.48773 1.19180e-17
6387.95797 1.12718e-17
6389.42821 1.07489e-17
6390.89845 1.08264e-17
6392.36869 1.11707e-17
6393.83893 1.19339e-17
6395.30917 1.07726e-17
6396.77941 1.04448e-17
6398.24965 1.05771e-17
6399.71989 1.07228e-17
6401.19013 1.10647e-17
6402.66037 1.08939e-17
6404.13061 1.16000e-17
6405.60085 1.22881e-17
6407.07109 1.15023e-17
6408.54133 1.13610e-17
6410.01157 1.22469e-17
6411.48181 1.18083e-17
6412.95205 1.13892e-17
6414.42229 1.17532e-17
6415.89253 1.16398e-17
6417.36277 1.17484e-17
6418.83301 1.14349e-17
6420.30325 1.04404e-17
6421.77349 1.11752e-17
6423.24373 1.10752e-17
6424.71397 1.10754e-17
6426.18421 1.09319e-17
6427.65445 1.17793e-17
6429.12469 1.16709e-17
6430.58472 1.15096e-17
6432.05496 1.11479e-17
6433.52520 1.19320e-17
6434.99544 1.21458e-17
6436.46568 1.14584e-17
6437.93592 1.18581e-17
6439.40616 1.18636e-17
6440.87640 1.17457e-17
6442.34664 1.19947e-17
6443.81688 1.19033e-17
6445.28712 1.21797e-17
6446.75736 1.20969e-17
6448.22760 1.13672e-17
6449.69784 1.26014e-17
6451.16808 1.28262e-17
6452.63832 1.28451e-17
6454.10856 1.25611e-17
6455.57880 1.26225e-17
6457.04904 1.20309e-17
6458.51928 1.24150e-17
6459.98952 1.26126e-17
6461.45976 1.27636e-17
6462.93000 1.18849e-17
6464.40024 1.26271e-17
6465.87048 1.26355e-17
6467.34072 1.31417e-17
6468.81096 1.29101e-17
6470.28120 1.26487e-17
6471.75144 1.27931e-17
6473.22168 1.25800e-17
6474.69192 1.19907e-17
6476.16216 1.20244e-17
6477.63240 1.28233e-17
6479.10264 1.22066e-17
6480.57288 1.24924e-17
6482.04312 1.29038e-17
6483.51336 1.31724e-17
6484.98360 1.24604e-17
6486.45384 1.29132e-17
6487.92408 1.19770e-17
6489.39432 1.22499e-17
6490.86456 1.29550e-17
6492.33480 1.25836e-17
6493.79483 1.17838e-17
6495.26507 1.20517e-17
6496.73531 1.19132e-17
6498.20555 1.16012e-17
6499.67579 1.27743e-17
6501.14603 1.33100e-17
6502.61627 1.35972e-17
6504.08651 1.23459e-17
6505.55675 1.21115e-17
6507.02699 1.25093e-17
6508.49723 1.27987e-17
6509.96747 1.20760e-17
6511.43771 1.16805e-17
6512.90795 1.19377e-17
6514.37819 1.21088e-17
6515.84843 1.21198e-17
6517.31867 1.24762e-17
6518.78891 1.16347e-17
6520.25915 1.17801e-17
6521.72939 1.21572e-17
6523.19963 1.21764e-17
6524.66987 1.25863e-17
6526.14011 1.29120e-17
6527.61035 1.24794e-17
6529.08059 1.24721e-17
6530.55083 1.28689e-17
6532.02107 1.25732e-17
6533.49131 1.19572e-17
6534.96155 1.18363e-17
6536.43179 1.28146e-17
6537.90203 1.23982e-17
6539.37227 1.22901e-17
6540.84251 1.22724e-17
6542.31275 1.20558e-17
6543.78299 1.22057e-17
6545.25323 1.17342e-17
6546.72347 1.15621e-17
6548.19371 1.20971e-17
6549.66395 1.15431e-17
6551.13419 1.11335e-17
6552.60443 1.19259e-17
6554.07467 1.24533e-17
6555.54491 1.27266e-17
6557.00494 1.19729e-17
6558.47518 1.14343e-17
6559.94542 1.15954e-17
6561.41566 1.13624e-17
6562.88590 1.15945e-17
6564.35614 1.21471e-17
6565.82638 1.13766e-17
6567.29662 1.12420e-17
6568.76686 1.12034e-17
6570.23710 1.09762e-17
6571.70734 1.17041e-17
6573.17758 1.07094e-17
6574.64782 1.07830e-17
6576.11806 1.20456e-17
6577.58830 1.12618e-17
6579.05854 1.02562e-17
6580.52878 9.93908e-18
6581.99902 1.00056e-17
6583.46926 1.03761e-17
6584.93950 1.01707e-17
6586.40974 9.56756e-18
6587.87998 9.26997e-18
6589.35022 9.31445e-18
6590.82046 1.02568e-17
6592.29070 1.11639e-17
6593.76094 1.05283e-17
6595.23118 1.02663e-17
6596.70142 1.03417e-17
6598.17166 9.60700e-18
6599.64190 1.03659e-17
6601.11214 1.01270e-17
6602.58238 9.99272e-18
6604.05262 1.10281e-17
6605.52286 1.06063e-17
6606.99310 1.03541e-17
6608.46334 9.73744e-18
6609.93358 1.03060e-17
6611.40382 9.73526e-18
6612.87406 9.63302e-18
6614.34430 1.01339e-17
6615.81454 9.45924e-18
6617.27457 9.37978e-18
6618.74481 9.50968e-18
6620.21505 1.00162e-17
6621.68529 1.03994e-17
6623.15553 1.07564e-17
6624.62577 1.01999e-17
6626.09601 9.97904e-18
6627.56625 1.01556e-17
6629.03649 1.00615e-17
6630.50673 1.00588e-17
6631.97697 1.03596e-17
6633.44721 9.71564e-18
6634.91745 1.01287e-17
6636.38769 1.00241e-17
6637.85793 1.05798e-17
6639.32817 9.98334e-18
6640.79841 1.03748e-17
6642.26865 1.05167e-17
6643.73889 1.01163e-17
6645.20913 1.09791e-17
6646.67937 1.11145e-17
6648.14961 1.03764e-17
6649.61985 9.76776e-18
6651.09009 1.06149e-17
6652.56033 1.07360e-17
6654.03057 1.04658e-17
6655.50081 1.02379e-17
6656.97105 1.10064e-17
6658.44129 1.03310e-17
6659.91153 1.03606e-17
6661.38177 1.07970e-17
6662.85201 1.15046e-17
6664.32225 1.11493e-17
6665.79249 1.07963e-17
6667.26273 1.14998e-17
6668.73297 1.11848e-17
6670.20321 1.12688e-17
6671.67345 1.06863e-17
6673.14369 1.15056e-17
6674.61393 1.16658e-17
6676.08417 1.16475e-17
6677.55441 1.12223e-17
6679.02465 1.16834e-17
6680.49489 1.16338e-17
6681.95492 1.06131e-17
6683.42516 1.15270e-17
6684.89540 1.21017e-17
6686.36564 1.22914e-17
6687.83588 1.15230e-17
6689.30612 1.22392e-17
6690.77636 1.17366e-17
6692.24660 1.24449e-17
6693.71684 1.17045e-17
6695.18708 1.21536e-17
6696.65732 1.12550e-17
6698.12756 1.21454e-17
6699.59780 1.15448e-17
6701.06804 1.20832e-17
6702.53828 1.29360e-17
6704.00852 1.26883e-17
6705.47876 1.22887e-17
6706.94900 1.32645e-17
6708.41924 1.26266e-17
6709.88948 1.27238e-17
6711.35972 1.16302e-17
6712.82996 1.17200e-17
6714.30020 1.28933e-17
6715.77044 1.31590e-17
6717.24068 1.29957e-17
6718.71092 1.20295e-17
6720.18116 1.28207e-17
6721.65140 1.25013e-17
6723.12164 1.21112e-17
6724.59188 1.15107e-17
6726.06212 1.31658e-17
6727.53236 1.25578e-17
6729.00260 1.22558e-17
6730.47284 1.30220e-17
6731.94308 1.20116e-17
6733.41332 1.16467e-17
6734.88356 1.23922e-17
6736.35380 1.33337e-17
6737.82404 1.27001e-17
6739.29428 1.17896e-17
6740.76452 1.19735e-17
6742.23476 1.23772e-17
6743.70500 1.35851e-17
6745.16503 1.24557e-17
6746.63527 1.24833e-17
6748.10551 1.29146e-17
6749.57575 1.23800e-17
6751.04599 1.26495e-17
6752.51623 1.31977e-17
6753.98647 1.20550e-17
6755.45671 1.19403e-17
6756.92695 1.25502e-17
6758.39719 1.21673e-17
6759.86743 1.25126e-17
6761.33767 1.27305e-17
6762.80791 1.22584e-17
6764.27815 1.22619e-17
6765.74839 1.28666e-17
6767.21863 1.27287e-17
6768.68887 1.29405e-17
6770.15911 1.22813e-17
6771.62935 1.19513e-17
6773.09959 1.26167e-17
6774.56983 1.22463e-17
6776.04007 1.22154e-17
6777.51031 1.30688e-17
6778.98055 1.23914e-17
6780.45079 1.27440e-17
6781.92103 1.37175e-17
6783.39127 1.25474e-17
6784.86151 1.19142e-17
6786.33175 1.20437e-17
6787.80199 1.21664e-17
6789.27223 1.15724e-17
6790.74247 1.17750e-17
6792.21271 1.26524e-17
6793.68295 1.29779e-17
6795.15319 1.30150e-17
6796.62343 1.22705e-17
6798.09367 1.21200e-17
6799.56391 1.22595e-17
6801.03415 1.22415e-17
6802.50439 1.22561e-17
6803.97463 1.21994e-17
6805.43466 1.21280e-17
6806.90490 1.23281e-17
6808.37514 1.25548e-17
6809.84538 1.21734e-17
6811.31562 1.19187e-17
6812.78586 1.21401e-17
6814.25610 1.18098e-17
6815.72634 1.17834e-17
6817.19658 1.16681e-17
6818.66682 1.10547e-17
6820.13706 1.15873e-17
6821.60730 1.18234e-17
6823.07754 1.21476e-17
6824.54778 1.20037e-17
6826.01802 1.18679e-17
6827.48826 1.17104e-17
6828.95850 1.17465e-17
6830.42874 1.13170e-17
6831.89898 1.16618e-17
6833.36922 1.11512e-17
6834.83946 1.00891e-17
6836.30970 1.04490e-17
6837.77994 1.06809e-17
6839.25018 1.10430e-17
6840.72042 1.17219e-17
6842.19066 1.21425e-17
6843.66090 1.19333e-17
6845.13114 1.16007e-17
6846.60138 1.12057e-17
6848.07162 1.08603e-17
6849.54186 1.21360e-17
6851.01210 1.14861e-17
6852.48234 1.05410e-17
6853.95258 1.09575e-17
6855.42282 1.11242e-17
6856.89306 1.07882e-17
6858.36330 1.14446e-17
6859.83354 1.16834e-17
6861.30378 1.19969e-17
6862.77402 1.14106e-17
6864.24426 1.07932e-17
6865.71450 1.21047e-17
6867.18474 1.10511e-17
6868.65498 1.04085e-17
6870.11501 1.13225e-17
6871.58525 1.23065e-17
6873.05549 1.19830e-17
6874.52573 1.12835e-17
6875.99597 1.07280e-17
6877.46621 1.07343e-17
6878.93645 1.11477e-17
6880.40669 1.12251e-17
6881.87693 1.08564e-17
6883.34717 1.11866e-17
6884.81741 1.09829e-17
6886.28765 1.02697e-17
6887.75789 1.03478e-17
6889.22813 1.07019e-17
6890.69837 1.07350e-17
6892.16861 1.08560e-17
6893.63885 1.11481e-17
6895.10909 1.12707e-17
6896.57933 1.07608e-17
6898.04957 1.14429e-17
6899.51981 1.04413e-17
6900.99005 9.59640e-18
6902.46029 1.03699e-17
6903.93053 9.93524e-18
6905.40077 9.83486e-18
6906.87101 9.71449e-18
6908.34125 9.69664e-18
6909.81149 1.00946e-17
6911.28173 1.01684e-17
6912.75197 9.71104e-18
6914.22221 1.04521e-17
6915.69245 1.08708e-17
6917.16269 9.95423e-18
6918.63293 1.12644e-17
6920.10317 1.13349e-17
6921.57341 9.65953e-18
6923.04365 1.00300e-17
6924.51389 1.09562e-17
6925.98413 1.04795e-17
6927.45437 1.05822e-17
6928.92461 9.68242e-18
6930.39485 9.49853e-18
6931.85488 1.02191e-17
6933.32512 9.54466e-18
6934.79536 9.63900e-18
6936.26560 1.01028e-17
6937.73584 9.61727e-18
6939.20608 9.89225e-18
6940.67632 9.62211e-18
6942.14656 9.32499e-18
6943.61680 9.95460e-18
6945.08704 9.77356e-18
6946.55728 9.95502e-18
6948.02752 9.61489e-18
6949.49776 9.60468e-18
6950.96800 9.64282e-18
6952.43824 9.42995e-18
6953.90848 9.50502e-18
6955.37872 1.00783e-17
6956.84896 9.82080e-18
6958.31920 1.02107e-17
6959.78944 1.01125e-17
6961.25968 9.28438e-18
6962.72992 9.50997e-18
6964.20016 1.02815e-17
6965.67040 9.45941e-18
6967.14064 1.02830e-17
6968.61088 9.42896e-18
6970.08112 9.73675e-18
6971.55136 1.01629e-17
6973.02160 1.01404e-17
6974.49184 1.00747e-17
6975.96208 9.51439e-18
6977.43232 9.31759e-18
6978.90256 8.71438e-18
6980.37280 8.98765e-18
6981.84304 9.11013e-18
6983.31328 9.01452e-18
6984.78352 9.05549e-18
6986.25376 9.41176e-18
6987.72400 9.62526e-18
6989.19424 9.62752e-18
6990.66448 9.60379e-18
6992.12451 8.64864e-18
6993.59475 8.88243e-18
6995.06499 9.61300e-18
6996.53523 9.50373e-18
6998.00547 8.96657e-18
6999.47571 8.08390e-18
7000.94595 8.60520e-18
7002.41619 8.31956e-18
7003.88643 7.89288e-18
7005.35667 8.14236e-18
7006.82691 8.83672e-18
7008.29715 9.42551e-18
7009.76739 1.01080e-17
7011.23763 1.00675e-17
7012.70787 9.60294e-18
7014.17811 9.62075e-18
7015.64835 9.09897e-18
7017.11859 9.31459e-18
7018.58883 9.43730e-18
7020.05907 9.14760e-18
7021.52931 8.32267e-18
7022.99955 8.61488e-18
7024.46979 8.75368e-18
7025.94003 9.07020e-18
7027.41027 8.90120e-18
7028.88051 8.30027e-18
7030.35075 9.15702e-18
7031.82099 9.78187e-18
7033.29123 9.18246e-18
7034.76147 9.46652e-18
7036.23171 9.22360e-18
7037.70195 8.90200e-18
7039.17219 8.92996e-18
7040.64243 9.07211e-18
7042.11267 9.39593e-18
7043.58291 9.59732e-18
7045.05315 9.23244e-18
7046.52339 8.98867e-18
7047.99363 8.88196e-18
7049.46387 9.29575e-18
7050.93411 9.56998e-18
7052.40435 9.47188e-18
7053.87459 9.78048e-18
7055.34483 9.48057e-18
7056.81507 9.56839e-18
7058.27510 9.59439e-18
7059.74534 8.97351e-18
7061.21558 8.49710e-18
7062.68582 8.35027e-18
7064.15606 9.28783e-18
7065.62630 9.36354e-18
7067.09654 8.78571e-18
7068.56678 9.55501e-18
7070.03702 9.81674e-18
7071.50726 9.69890e-18
7072.97750 9.52186e-18
7074.44774 9.56455e-18
7075.91798 9.88833e-18
7077.38822 9.99565e-18
7078.85846 1.03151e-17
7080.32870 1.01110e-17
7081.79894 1.02210e-17
7083.26918 9.82711e-18
7084.73942 9.35073e-18
7086.20966 9.46585e-18
7087.67990 9.76816e-18
7089.15014 9.89718e-18
7090.62038 9.85050e-18
7092.09062 9.77284e-18
7093.56086 9.34106e-18
7095.03110 9.66265e-18
7096.50134 1.01812e-17
7097.97158 9.78740e-18
7099.44182 9.29346e-18
7100.91206 8.96342e-18
7102.38230 9.13238e-18
7103.85254 9.26745e-18
7105.32278 9.95056e-18
7106.79302 9.79126e-18
7108.26326 9.42743e-18
7109.73350 1.01988e-17
7111.20374 9.68025e-18
7112.67398 9.06653e-18
7114.14422 9.42958e-18
7115.61446 9.65268e-18
7117.08470 9.28951e-18
7118.54473 9.64065e-18
7120.01497 9.78286e-18
7121.48521 9.74948e-18
7122.95545 9.94171e-18
7124.42569 1.04492e-17
7125.89593 1.00406e-17
7127.36617 9.43149e-18
7128.83641 9.65180e-18
7130.30665 9.66588e-18
7131.77689 1.03511e-17
7133.24713 1.02717e-17
7134.71737 9.35920e-18
7136.18761 9.70837e-18
7137.65785 9.89859e-18
7139.12809 9.79199e-18
7140.59833 1.03809e-17
7142.06857 1.04285e-17
7143.53881 1.03937e-17
7145.00905 1.04813e-17
7146.47929 9.97949e-18
7147.94953 9.25394e-18
7149.41977 9.60327e-18
7150.89001 9.49945e-18
7152.36025 8.52936e-18
7153.83049 9.55555e-18
7155.30073 1.01732e-17
7156.77097 9.52525e-18
7158.24121 1.00828e-17
7159.71145 1.02102e-17
7161.18169 9.30289e-18
7162.65193 9.99224e-18
7164.12217 1.05406e-17
7165.59241 1.05837e-17
7167.06265 1.01076e-17
7168.53289 9.94656e-18
7170.00313 1.04425e-17
7171.47337 9.91446e-18
7172.94361 9.73284e-18
7174.41385 1.03899e-17
7175.88409 9.70804e-18
7177.35433 9.72751e-18
7178.82457 1.00501e-17
7180.28460 9.36265e-18
7181.75484 8.97416e-18
7183.22508 9.41021e-18
7184.69532 9.90125e-18
7186.16556 9.28368e-18
7187.63580 9.83979e-18
7189.10604 1.00057e-17
7190.57628 9.64102e-18
7192.04652 9.55407e-18
7193.51676 9.80853e-18
7194.98700 1.01734e-17
7196.45724 9.45955e-18
7197.92748 9.76753e-18
7199.39772 1.07718e-17
7200.86796 1.02000e-17
7202.33820 1.00141e-17
7203.80844 1.03745e-17
7205.27868 9.39155e-18
7206.74892 9.60641e-18
7208.21916 1.03789e-17
7209.68940 1.02493e-17
7211.15964 9.94991e-18
7212.62988 1.01568e-17
7214.10012 9.85643e-18
7215.57036 9.38636e-18
7217.04060 1.04612e-17
7218.51084 1.08175e-17
7219.98108 9.90905e-18
7221.45132 9.73315e-18
7222.92156 9.54641e-18
7224.39180 9.34233e-18
7225.86204 9.45167e-18
7227.33228 9.58141e-18
7228.80252 9.80998e-18
7230.27276 9.50889e-18
7231.74300 9.06493e-18
7233.21324 8.99039e-18
7234.68348 9.48704e-18
7236.15372 9.50006e-18
7237.62396 9.92261e-18
7239.09420 1.00172e-17
7240.56444 9.37617e-18
7242.03468 8.90788e-18
7243.50492 9.59847e-18
7244.97516 8.93077e-18
7246.43519 8.57894e-18
7247.90543 8.50629e-18
7249.37567 8.33278e-18
7250.84591 8.01462e-18
7252.31615 8.37549e-18
7253.78639 9.07817e-18
7255.25663 9.24344e-18
7256.72687 9.50952e-18
7258.19711 9.40443e-18
7259.66735 8.42208e-18
7261.13759 8.36035e-18
7262.60783 9.18476e-18
7264.07807 9.56431e-18
7265.54831 8.79810e-18
7267.01855 8.91270e-18
7268.48879 9.62129e-18
7269.95903 9.79919e-18
7271.42927 9.66673e-18
7272.89951 8.72687e-18
7274.36975 9.02428e-18
7275.83999 9.66757e-18
7277.31023 8.60379e-18
7278.78047 9.13730e-18
7280.25071 9.76347e-18
7281.72095 9.39007e-18
7283.19119 9.68449e-18
7284.66143 9.65489e-18
7286.13167 9.46895e-18
7287.60191 1.01509e-17
7289.07215 9.34901e-18
7290.54239 8.41681e-18
7292.01263 9.42425e-18
7293.48287 9.00126e-18
7294.95311 9.09407e-18
7296.42335 1.07187e-17
7297.89359 1.02953e-17
7299.36383 9.57542e-18
7300.83407 9.54999e-18
7302.30431 9.76651e-18
7303.77455 1.00551e-17
7305.24479 1.00077e-17
7306.70482 9.70089e-18
7308.17506 9.57808e-18
7309.64530 8.86491e-18
7311.11554 9.30808e-18
7312.58578 1.00841e-17
7314.05602 9.93595e-18
7315.52626 9.96036e-18
7316.99650 1.03705e-17
7318.46674 9.47000e-18
7319.93698 9.69633e-18
7321.40722 1.05835e-17
7322.87746 9.84480e-18
7324.34770 1.00665e-17
7325.81794 9.95858e-18
7327.28818 1.00041e-17
7328.75842 9.77452e-18
7330.22866 8.84960e-18
7331.69890 9.53331e-18
7333.16914 1.02826e-17
7334.63938 1.03102e-17
7336.10962 1.00739e-17
7337.57986 9.39999e-18
7339.05010 9.21917e-18
7340.52034 9.56571e-18
7341.99058 1.02817e-17
7343.46082 9.63115e-18
7344.93106 9.31380e-18
7346.40130 9.80003e-18
7347.87154 9.64282e-18
7349.34178 9.06714e-18
7350.81202 9.64927e-18
7352.28226 1.01100e-17
7353.75250 9.91690e-18
7355.22274 1.08400e-17
7356.69298 1.08314e-17
7358.16322 1.02201e-17
7359.63346 9.81918e-18
7361.10370 9.90273e-18
7362.57394 1.02299e-17
7364.04418 1.02484e-17
7365.51442 1.02363e-17
7366.98466 1.08406e-17
7368.45490 1.10871e-17
7369.91493 1.07331e-17
7371.38517 1.00287e-17
7372.85541 1.03844e-17
7374.32565 9.78311e-18
7375.79589 9.19917e-18
7377.26613 9.22405e-18
7378.73637 1.00501e-17
7380.20661 9.70802e-18
7381.67685 9.66980e-18
7383.14709 1.02700e-17
7384.61733 1.00129e-17
7386.08757 1.00037e-17
7387.55781 9.97025e-18
7389.02805 1.01381e-17
7390.49829 1.11700e-17
7391.96853 1.08070e-17
7393.43877 9.30469e-18
7394.90901 9.70705e-18
7396.37925 9.98667e-18
7397.84949 1.01199e-17
7399.31973 1.02389e-17
7400.78997 1.05755e-17
7402.26021 1.08537e-17
7403.73045 1.03222e-17
7405.20069 9.35844e-18
7406.67093 9.53641e-18
7408.14117 1.01749e-17
7409.61141 9.58618e-18
7411.08165 8.86942e-18
7412.55189 9.45340e-18
7414.02213 9.87905e-18
7415.49237 9.24760e-18
7416.96261 9.20077e-18
7418.43285 9.56052e-18
7419.90309 9.90679e-18
7421.37333 9.65740e-18
7421.82406 9.65740e-18
7423.48165 9.84320e-18
7425.14929 9.92851e-18
7426.80688 1.00138e-17
7428.46447 9.98144e-18
7430.13211 9.94902e-18
7431.78970 9.71395e-18
7433.44729 9.47892e-18
7435.10488 9.40047e-18
7436.77251 9.32211e-18
7438.43010 9.52589e-18
7440.08769 9.72957e-18
7441.74528 9.60177e-18
7443.41292 9.47401e-18
7445.07051 9.48473e-18
7446.72810 9.49546e-18
7448.39573 9.60665e-18
7450.05332 9.71781e-18
7451.71091 9.71508e-18
7453.36850 9.71236e-18
7455.03614 9.74237e-18
7456.69373 9.77240e-18
7458.35132 9.88745e-18
7460.00891 1.00025e-17
7461.67655 1.00203e-17
7463.33414 1.00382e-17
7464.99173 9.98098e-18
7466.65936 9.92368e-18
7468.31695 9.57161e-18
7469.97454 9.21964e-18
7471.63213 9.18743e-18
7473.29977 9.15529e-18
7474.95736 9.32257e-18
7476.61495 9.48980e-18
7478.28258 9.47942e-18
7479.94017 9.46900e-18
7481.59776 9.27729e-18
7483.25535 9.08566e-18
7484.92299 9.27119e-18
7486.58058 9.45669e-18
7488.23817 9.53512e-18
7489.89576 9.61356e-18
7491.56340 9.70681e-18
7493.22099 9.79997e-18
7494.87858 9.66515e-18
7496.54621 9.53033e-18
7498.20380 9.41284e-18
7499.86139 9.29530e-18
7501.51898 9.07194e-18
7503.18662 8.84867e-18
7504.84421 8.91341e-18
7506.50180 8.97814e-18
7508.16943 9.02330e-18
7509.82702 9.06844e-18
7511.48461 9.02334e-18
7513.14220 8.97831e-18
7514.80984 9.18907e-18
7516.46743 9.39969e-18
7518.12502 9.15188e-18
7519.78261 8.90418e-18
7521.45025 8.99538e-18
7523.10784 9.08657e-18
7524.76543 9.17077e-18
7526.43306 9.25493e-18
7528.09065 9.22255e-18
7529.74824 9.19011e-18
7531.40583 8.96463e-18
7533.07347 8.73927e-18
7534.73106 8.89532e-18
7536.38865 9.05133e-18
7538.04624 9.09481e-18
7539.71387 9.13825e-18
7541.37146 9.10861e-18
7543.02905 9.07891e-18
7544.69669 8.85493e-18
7546.35428 8.63106e-18
7548.01187 8.76357e-18
7549.66946 8.89607e-18
7551.33710 8.88181e-18
7552.99469 8.86754e-18
7554.65228 8.85328e-18
7556.30987 8.83903e-18
7557.97750 8.82476e-18
7559.63509 8.81051e-18
7561.29268 8.79625e-18
7562.96032 8.78199e-18
7564.61791 8.76773e-18
7566.27550 8.75348e-18
7567.93309 8.73921e-18
7569.60072 8.72496e-18
7571.25831 8.71070e-18
7572.91590 8.69644e-18
7574.58354 8.68219e-18
7576.24113 8.66793e-18
7577.89872 8.65367e-18
7579.55631 8.63942e-18
7581.22395 8.62517e-18
7582.88154 8.61092e-18
7584.53913 8.59667e-18
7586.19672 8.58240e-18
7587.86435 8.56816e-18
7589.52194 8.55390e-18
7591.17953 8.53965e-18
7592.84717 8.52541e-18
7594.50476 8.51114e-18
7596.16235 8.49690e-18
7597.81994 8.48265e-18
7599.48757 8.46840e-18
7601.14516 8.45415e-18
7602.80275 8.43990e-18
7604.46034 8.42565e-18
7606.12798 8.41141e-18
7607.78557 8.39716e-18
7609.44316 8.38292e-18
7611.11080 8.36866e-18
7612.76839 8.35441e-18
7614.42598 8.34017e-18
7616.08357 8.32592e-18
7617.75120 8.31168e-18
7619.40879 8.29743e-18
7621.06638 8.28319e-18
7622.72397 8.26894e-18
7624.39161 8.25470e-18
7626.04920 8.24045e-18
7627.70679 8.22621e-18
7629.37442 8.21197e-18
7631.03201 8.19773e-18
7632.68960 8.18348e-18
7634.34719 8.16926e-18
7636.01483 8.15501e-18
7637.67242 8.14077e-18
7639.33001 8.12653e-18
7640.99765 8.11229e-18
7642.65524 8.09805e-18
7644.31283 8.08381e-18
7645.97042 8.06957e-18
7647.63805 8.05534e-18
7649.29564 8.04110e-18
7650.95323 8.02686e-18
7652.61082 8.01262e-18
7654.27846 7.99838e-18
7655.93605 7.98416e-18
7657.59364 7.96992e-18
7659.26127 7.95568e-18
7660.91886 7.94145e-18
7662.57645 7.92721e-18
7664.23404 7.91298e-18
7665.90168 7.89875e-18
7667.55927 7.88451e-18
7669.21686 7.87027e-18
7670.87445 7.85605e-18
7672.54209 7.84182e-18
7674.19968 7.82758e-18
7675.85727 7.81336e-18
7677.52490 7.79913e-18
7679.18249 7.78489e-18
7680.84008 7.77067e-18
7682.49767 7.59640e-18
7684.16531 7.57851e-18
7685.82290 7.56073e-18
7687.48049 7.94112e-18
7689.13808 8.32134e-18
7690.80571 8.17165e-18
7692.46330 8.02199e-18
7694.12089 8.04516e-18
7695.78853 8.06829e-18
7697.44612 7.98260e-18
7699.10371 7.89701e-18
7700.76130 8.15474e-18
7702.42894 8.41230e-18
7704.08653 8.10239e-18
7705.74412 7.79263e-18
7707.40171 7.99247e-18
7709.06934 8.19223e-18
7710.72693 8.15961e-18
7712.38452 8.12703e-18
7714.05216 8.24289e-18
7715.70975 8.35866e-18
7717.36734 8.18325e-18
7719.02493 8.00792e-18
7720.69256 8.14528e-18
7722.35015 8.28253e-18
7724.00774 8.06395e-18
7725.67538 7.84538e-18
7727.33297 7.67465e-18
7728.99056 7.50404e-18
7730.64815 7.73645e-18
7732.31579 7.96881e-18
7733.97338 8.03623e-18
7735.63097 8.10358e-18
7737.28856 7.99445e-18
7738.95619 7.88536e-18
7740.61378 7.95859e-18
7742.27137 8.03182e-18
7743.93901 8.05811e-18
7745.59660 8.08445e-18
7747.25419 8.26701e-18
7748.91178 8.44942e-18
7750.57941 8.14326e-18
7752.23700 7.83716e-18
7753.89459 7.72876e-18
7755.55218 7.62046e-18
7757.21982 7.80721e-18
7758.87741 7.99404e-18
7760.53500 8.42557e-18
7762.20264 8.85690e-18
7763.86023 8.68350e-18
7765.51782 8.51017e-18
7767.17541 8.54668e-18
7768.84304 8.58315e-18
7770.50063 8.53833e-18
7772.15822 8.49349e-18
7773.81581 8.42320e-18
7775.48345 8.35291e-18
7777.14104 8.26261e-18
7778.79863 8.17239e-18
7780.46626 8.30106e-18
7782.12385 8.42966e-18
7783.78144 8.26046e-18
7785.43903 8.09139e-18
7787.10667 8.30754e-18
7788.76426 8.52365e-18
7790.42185 8.66034e-18
7792.07944 8.79696e-18
7793.74708 8.71104e-18
7795.40467 8.62517e-18
7797.06226 8.68008e-18
7798.72989 8.73500e-18
7800.38748 8.78882e-18
7802.04507 8.84258e-18
7803.70266 8.77065e-18
7805.37030 8.69875e-18
7807.02789 8.74188e-18
7808.68548 8.78495e-18
7810.35311 8.66427e-18
7812.01070 8.54374e-18
7813.66829 8.89827e-18
7815.32588 9.25261e-18
7816.99352 9.03981e-18
7818.65111 8.82706e-18
7820.30870 8.76232e-18
7821.96629 8.69755e-18
7823.63393 8.50022e-18
7825.29152 8.30295e-18
7826.94911 8.30542e-18
7828.61674 8.30787e-18
7830.27433 8.26054e-18
7831.93192 8.21325e-18
7833.58951 8.35295e-18
7835.25715 8.49266e-18
7836.91474 8.66597e-18
7838.57233 8.83912e-18
7840.22992 8.48690e-18
7841.89755 8.13486e-18
7843.55514 8.29884e-18
7845.21273 8.46277e-18
7846.88037 8.44371e-18
7848.53796 8.42470e-18
7850.19555 8.61137e-18
7851.85314 8.79811e-18
7853.52078 9.26807e-18
7855.17837 9.73782e-18
7856.83596 9.46499e-18
7858.50359 9.19218e-18
7860.16118 8.96766e-18
7861.81877 8.74330e-18
7863.47636 9.00954e-18
7865.14400 9.27562e-18
7866.80159 9.06367e-18
7868.45918 8.85182e-18
7870.11677 8.96385e-18
7871.78440 9.07579e-18
7873.44199 8.92350e-18
7875.09958 8.77124e-18
7876.76722 8.76505e-18
7878.42481 8.75890e-18
7880.08240 8.87771e-18
7881.73999 8.99642e-18
7883.40763 8.81347e-18
7885.06522 8.63067e-18
7886.72281 8.95632e-18
7888.38040 9.28182e-18
7890.04803 9.17892e-18
7891.70562 9.07596e-18
7893.36321 8.77788e-18
7895.03085 8.47988e-18
7896.68844 8.42162e-18
7898.34603 8.36336e-18
7900.00362 8.32739e-18
7901.67125 8.29149e-18
7903.32884 8.49647e-18
7904.98643 8.70138e-18
7906.64402 8.70357e-18
7908.31166 8.70573e-18
7909.96925 8.60447e-18
7911.62684 8.50317e-18
7913.29448 8.27673e-18
7914.95207 8.05045e-18
7916.60966 8.34519e-18
7918.26725 8.63978e-18
7919.93488 8.47949e-18
7921.59247 8.31934e-18
7923.25006 8.58504e-18
7924.90765 8.85065e-18
7926.57529 8.83087e-18
7928.23288 8.81103e-18
7929.89047 8.58393e-18
7931.55810 8.35687e-18
7933.21569 8.23375e-18
7934.87328 8.11071e-18
7936.53087 8.24219e-18
7938.19851 8.37357e-18
7939.85610 8.18561e-18
7941.51369 7.99773e-18
7943.18133 8.11192e-18
7944.83892 8.22619e-18
7946.49651 8.59450e-18
7948.15410 8.96261e-18
7949.82173 8.67410e-18
7951.47932 8.38558e-18
7953.13691 8.06827e-18
7954.79450 7.75118e-18
7956.46214 8.07257e-18
7958.11973 8.39374e-18
7959.77732 8.01724e-18
7961.44495 7.64094e-18
7963.10254 7.89775e-18
7964.76013 8.15446e-18
7966.41772 8.10961e-18
7968.08536 8.06477e-18
7969.74295 8.09124e-18
7971.40054 8.11773e-18
7973.05813 8.21284e-18
7974.72577 8.30786e-18
7976.38336 8.05493e-18
7978.04095 7.80205e-18
7979.70858 7.67781e-18
7981.36617 7.55371e-18
7983.02376 7.84499e-18
7984.68135 8.13619e-18
7986.34899 8.22322e-18
7988.00658 8.31015e-18
7989.66417 8.16362e-18
7991.33180 8.01717e-18
7992.98939 8.16667e-18
7994.64698 8.31599e-18
7996.30457 7.94659e-18
7997.97221 7.57741e-18
7999.62980 7.85841e-18
8001.28739 8.13924e-18
8002.94498 7.92991e-18
8004.61262 7.72064e-18
8006.27021 7.65176e-18
8007.92780 7.58302e-18
8009.59543 7.92886e-18
8011.25302 8.27448e-18
8012.91061 7.98789e-18
8014.56820 7.70140e-18
8016.23584 7.73004e-18
8017.89343 7.75870e-18
8019.55102 7.88650e-18
8021.20861 8.01427e-18
8022.87624 8.02106e-18
8024.53383 8.02778e-18
8026.19142 7.84161e-18
8027.85906 7.65547e-18
8029.51665 7.58276e-18
8031.17424 7.51003e-18
8032.83183 7.37212e-18
8034.49947 7.23432e-18
8036.15706 7.47514e-18
8037.81465 7.71586e-18
8039.47224 7.71439e-18
8041.13987 7.71288e-18
8042.79746 7.61900e-18
8044.45505 7.52514e-18
8046.12269 7.42199e-18
8047.78028 7.31891e-18
8049.43787 7.49096e-18
8051.09546 7.66293e-18
8052.76309 7.61047e-18
8054.42068 7.55796e-18
8056.07827 7.38427e-18
8057.73586 7.21068e-18
8059.40350 7.31284e-18
8061.06109 7.41499e-18
8062.71868 7.44673e-18
8064.38632 7.47839e-18
8066.04391 7.28133e-18
8067.70150 7.08432e-18
8069.35909 7.01866e-18
8071.02672 6.95306e-18
8072.68431 7.06845e-18
8074.34190 7.18385e-18
8076.00954 7.29710e-18
8077.66713 7.41031e-18
8079.32472 7.39512e-18
8080.98231 7.37985e-18
8082.64994 7.11859e-18
8084.30753 6.85736e-18
8085.96512 6.72941e-18
8087.62271 6.60152e-18
8089.29035 6.67958e-18
8090.94794 6.75767e-18
8092.60553 6.84365e-18
8094.27317 6.92963e-18
8095.93076 6.93414e-18
8097.58835 6.93865e-18
8099.24594 6.93234e-18
8100.91357 6.92606e-18
8102.57116 6.98157e-18
8104.22875 7.03700e-18
8105.88634 6.91467e-18
8107.55398 6.79242e-18
8109.21157 6.89715e-18
8110.86916 7.00176e-18
8112.53679 6.74348e-18
8114.19438 6.48538e-18
8115.85197 6.70372e-18
8117.50956 6.92208e-18
8119.17720 7.19456e-18
8120.83479 7.46687e-18
8122.49238 7.21862e-18
8124.16002 6.97035e-18
8125.81761 6.61165e-18
8127.47520 6.25311e-18
8129.13279 6.34361e-18
8130.80042 6.43414e-18
8132.45801 6.64058e-18
8134.11560 6.84694e-18
8135.77319 6.87477e-18
8137.44083 6.90260e-18
8139.09842 6.94349e-18
8140.75601 6.98435e-18
8142.41360 6.91111e-18
8144.08123 6.83783e-18
8145.73882 6.59326e-18
8147.39641 6.34885e-18
8149.06405 6.59922e-18
8150.72164 6.84947e-18
8152.37923 6.80043e-18
8154.03682 6.75133e-18
8155.70446 6.49973e-18
8157.36205 6.24828e-18
8159.01964 6.41016e-18
8160.68727 6.57200e-18
8162.34486 6.65592e-18
8164.00245 6.73975e-18
8165.66004 6.53901e-18
8167.32768 6.33844e-18
8168.98527 6.66647e-18
8170.64286 6.99437e-18
8172.30045 6.98183e-18
8173.96808 6.96911e-18
8175.62567 6.41293e-18
8177.28326 5.85700e-18
8178.95090 6.02329e-18
8180.60849 6.18960e-18
8182.26608 6.40935e-18
8183.92367 6.62906e-18
8185.59131 6.73175e-18
8187.24890 6.83427e-18
8188.90649 6.41598e-18
8190.56408 5.99786e-18
8192.23171 6.06177e-18
8193.88930 6.12576e-18
8195.54689 6.44121e-18
8197.21453 6.75654e-18
8198.87212 6.75636e-18
8200.52971 6.75612e-18
8202.18730 6.62019e-18
8203.85493 6.48431e-18
8205.51252 6.51026e-18
8207.17011 6.53622e-18
8208.82770 6.56777e-18
8210.49534 6.59919e-18
8212.15293 6.24197e-18
8213.81052 5.88493e-18
8215.47816 6.05100e-18
8217.13575 6.21697e-18
8218.79334 6.06522e-18
8220.45093 5.91361e-18
8222.11856 6.15599e-18
8223.77615 6.39823e-18
8225.43374 6.23235e-18
8227.09133 6.06660e-18
8228.75897 6.20068e-18
8230.41656 6.33469e-18
8232.07415 6.21761e-18
8233.74178 6.10058e-18
8235.39937 6.09587e-18
8237.05696 6.09113e-18
8238.71455 5.96223e-18
8240.38219 5.83336e-18
8242.03978 5.71679e-18
8243.69737 5.60039e-18
8245.36501 5.94428e-18
8247.02260 6.28803e-18
8248.68019 6.20520e-18
8250.33778 6.12240e-18
8252.00541 6.14635e-18
8253.66300 6.17015e-18
8255.32059 5.72567e-18
8256.97818 5.28151e-18
8258.64582 5.65075e-18
8260.30341 6.01988e-18
8261.96100 6.12044e-18
8263.62863 6.22091e-18
8265.28622 6.10348e-18
8266.94381 5.98603e-18
8268.60140 5.78987e-18
8270.26904 5.59379e-18
8271.92663 5.57497e-18
8273.58422 5.55618e-18
8275.25186 5.61956e-18
8276.90945 5.68288e-18
8278.56704 5.59245e-18
8280.22463 5.50201e-18
8281.89226 5.37616e-18
8283.54985 5.25040e-18
8285.20744 5.39846e-18
8286.86503 5.54643e-18
8288.53267 5.45069e-18
8290.19026 5.35502e-18
8291.84785 5.45951e-18
8293.51548 5.56400e-18
8295.17307 5.65323e-18
8296.83066 5.74242e-18
8298.48825 5.69348e-18
8300.15589 5.64445e-18
8301.81348 5.37516e-18
8303.47107 5.10598e-18
8305.12866 5.17624e-18
8306.79630 5.24644e-18
8308.45389 5.20020e-18
8310.11148 5.15395e-18
8311.77911 5.05522e-18
8313.43670 4.95654e-18
8315.09429 5.05362e-18
8316.75188 5.15071e-18
8318.41952 5.30634e-18
8320.07711 5.46190e-18
8321.73470 5.35790e-18
8323.40233 5.25385e-18
8325.05992 4.95487e-18
8326.71751 4.65607e-18
8328.37510 4.77149e-18
8330.04274 4.88691e-18
8331.70033 4.99368e-18
8333.35792 5.10043e-18
8335.01551 5.11884e-18
8336.68315 5.13726e-18
8338.34074 5.17612e-18
8339.99833 5.21500e-18
8341.65592 5.29882e-18
8343.32355 5.38271e-18
8344.98114 5.61921e-18
8346.63873 5.85558e-18
8348.30637 5.70853e-18
8349.96396 5.56144e-18
8351.62155 5.25676e-18
8353.27914 4.95222e-18
8354.94677 5.02249e-18
8356.60436 5.09277e-18
8358.26195 5.25061e-18
8359.92959 5.40839e-18
8361.58718 5.37995e-18
8363.24477 5.35146e-18
8364.90236 5.19489e-18
8366.57000 5.03833e-18
8368.22759 4.92632e-18
8369.88518 4.81443e-18
8371.54277 5.03599e-18
8373.21040 5.25736e-18
8374.86799 4.92272e-18
8376.52558 4.58830e-18
8378.19322 4.90321e-18
8379.85081 5.21797e-18
8381.50840 5.05532e-18
8383.16599 4.89276e-18
8384.83362 4.98406e-18
8386.49121 5.07525e-18
8388.14880 4.86179e-18
8389.81644 4.64847e-18
8391.47403 4.86657e-18
8393.13162 5.08465e-18
8394.78921 5.27833e-18
8396.45685 5.47190e-18
8398.11444 5.36150e-18
8399.77203 5.25112e-18
8401.42962 5.15928e-18
8403.09725 5.06752e-18
8404.75484 5.15774e-18
8406.41243 5.24803e-18
8408.08007 5.50752e-18
8409.73766 5.76683e-18
8411.39525 5.53601e-18
8413.05284 5.30526e-18
8414.72047 5.32119e-18
8416.37806 5.33705e-18
8418.03565 5.18961e-18
8419.69324 5.04222e-18
8421.36088 5.00890e-18
8423.01847 4.97562e-18
8424.67606 5.04004e-18
8426.34370 5.10435e-18
8428.00129 4.79648e-18
8429.65888 4.48883e-18
8431.31647 4.74068e-18
8432.98410 4.99250e-18
8434.64169 5.18180e-18
8436.29928 5.37100e-18
8437.95687 5.32922e-18
8439.62451 5.28744e-18
8441.28210 5.21405e-18
8442.93969 5.14057e-18
8444.60732 4.82031e-18
8446.26491 4.50021e-18
8447.92250 4.62203e-18
8449.58009 4.74388e-18
8451.24773 5.02208e-18
8452.90532 5.30020e-18
8454.56291 5.38709e-18
8456.22050 5.47387e-18
8457.88814 5.26963e-18
8459.54573 5.06543e-18
8461.20332 4.96733e-18
8462.87095 4.86930e-18
8464.52854 4.95156e-18
8466.18613 5.03379e-18
8467.84372 5.05241e-18
8469.51136 5.07101e-18
8471.16895 5.05576e-18
8472.82654 5.04048e-18
8474.48413 4.99977e-18
8476.15176 4.95912e-18
8477.80935 5.06667e-18
8479.46694 5.17430e-18
8481.13458 5.48589e-18
8482.79217 5.79726e-18
8484.44976 5.54494e-18
8486.10735 5.29271e-18
8487.77499 5.27905e-18
8489.43258 5.26551e-18
8491.09017 5.58646e-18
8492.75780 5.90719e-18
8494.41539 5.64788e-18
8496.07298 5.38868e-18
8497.73057 5.44718e-18
8499.39821 5.50566e-18
8501.05580 5.52088e-18
8502.71339 5.53611e-18
8504.37098 5.52999e-18
8506.03861 5.52385e-18
8507.69620 5.49497e-18
8509.35379 5.46611e-18
8511.01138 5.53280e-18
8512.67902 5.59944e-18
8514.33661 5.53363e-18
8515.99420 5.46790e-18
8517.66184 5.63036e-18
8519.31943 5.79271e-18
8520.97702 5.63973e-18
8522.63461 5.48676e-18
8524.30224 5.36728e-18
8525.95983 5.24795e-18
8527.61742 5.53814e-18
8529.28506 5.82829e-18
8530.94265 6.02919e-18
8532.60024 6.22991e-18
8534.25783 5.91992e-18
8535.92546 5.61014e-18
8537.58305 5.90153e-18
8539.24064 6.19274e-18
8540.89823 6.01532e-18
8542.56587 5.83797e-18
8544.22346 5.82304e-18
8545.88105 5.80811e-18
8547.54869 5.82533e-18
8549.20628 5.84265e-18
8550.86387 6.12432e-18
8552.52146 6.40588e-18
8554.18909 6.40202e-18
8555.84668 6.39822e-18
8557.50427 6.55338e-18
8559.17191 6.70842e-18
8560.82950 6.56250e-18
8562.48709 6.41660e-18
8564.14468 6.30241e-18
8565.81231 6.18834e-18
8567.46990 6.38253e-18
8569.12749 6.57663e-18
8570.78508 6.55958e-18
8572.45272 6.54246e-18
8574.11031 6.33955e-18
8575.76790 6.13664e-18
8577.43554 6.01001e-18
8579.09313 5.88347e-18
8580.75072 6.04257e-18
8582.40831 6.20155e-18
8584.07594 6.13345e-18
8585.73353 6.06541e-18
8587.39112 6.21657e-18
8589.04871 6.36775e-18
8590.71635 6.54319e-18
8592.37394 6.71850e-18
8594.03153 6.53514e-18
8595.69916 6.35182e-18
8597.35675 6.24862e-18
8599.01434 6.14550e-18
8600.67193 6.19539e-18
8602.33957 6.24538e-18
8603.99716 6.54613e-18
8605.65475 6.84671e-18
8607.32239 6.72850e-18
8608.97998 6.61025e-18
8610.63757 6.43458e-18
8612.29516 6.25898e-18
8613.96279 6.27279e-18
8615.62038 6.28659e-18
8617.27797 6.31325e-18
8618.93556 6.33989e-18
8620.60320 6.31640e-18
8622.26079 6.29300e-18
8623.91838 6.56911e-18
8625.58601 6.84516e-18
8627.24360 6.97049e-18
8628.90119 7.09570e-18
8630.55878 6.89134e-18
8632.22642 6.68703e-18
8633.88401 6.55558e-18
8635.54160 6.42428e-18
8637.20924 6.65949e-18
8638.86683 6.89466e-18
8640.52442 7.00152e-18
8642.18201 7.10818e-18
8643.84964 6.64343e-18
8645.50723 6.17887e-18
8647.16482 6.25640e-18
8648.82241 6.33399e-18
8650.49005 6.63564e-18
8652.14764 6.93716e-18
8653.80523 6.93686e-18
8655.46282 6.93650e-18
8657.13045 6.82103e-18
8658.78804 6.70566e-18
8660.44563 6.82049e-18
8662.11327 6.93518e-18
8663.77086 6.68373e-18
8665.42845 6.43238e-18
8667.08604 6.49101e-18
8668.75368 6.54960e-18
8670.41127 6.52982e-18
8672.06886 6.51007e-18
8673.73649 6.57960e-18
8675.39408 6.64904e-18
8677.05167 6.48718e-18
8678.70926 6.32544e-18
8680.37690 6.44355e-18
8682.03449 6.56161e-18
8683.69208 6.61421e-18
8685.34967 6.66669e-18
8687.01730 6.44084e-18
8688.67489 6.21515e-18
8690.33248 6.42784e-18
8691.99007 6.64048e-18
8693.65771 6.72139e-18
8695.31530 6.80219e-18
8696.97289 6.63614e-18
8698.64053 6.47017e-18
8700.29812 6.51378e-18
8701.95571 6.55740e-18
8703.61330 6.68031e-18
8705.28093 6.80313e-18
8706.93852 6.68786e-18
8708.59611 6.57258e-18
8710.26375 6.45720e-18
8711.92134 6.34195e-18
8713.57893 6.49031e-18
8715.23652 6.63860e-18
8716.90415 6.55703e-18
8718.56174 6.47545e-18
8720.21933 6.36727e-18
8721.87692 6.25913e-18
8723.54456 6.29926e-18
8725.20215 6.33943e-18
8726.85974 6.45782e-18
8728.52738 6.57623e-18
8730.18497 6.73761e-18
8731.84256 6.89884e-18
8733.50015 6.70522e-18
8735.16778 6.51174e-18
8736.82537 6.63816e-18
8738.48296 6.76449e-18
8740.14055 6.61653e-18
8741.80819 6.46868e-18
8743.46578 6.61285e-18
8745.12337 6.75685e-18
8746.79100 6.43345e-18
8748.44859 6.11022e-18
8750.10618 6.22796e-18
8751.76377 6.34583e-18
8753.43141 6.80921e-18
8755.08900 7.27242e-18
8756.74659 7.31590e-18
8758.40418 7.35917e-18
8760.07182 6.85515e-18
8761.72941 6.35128e-18
8763.38700 6.28225e-18
8765.05463 6.21327e-18
8766.71222 6.29934e-18
8768.36981 6.38534e-18
8770.02740 6.28750e-18
8771.69504 6.18972e-18
8773.35263 6.20174e-18
8775.01022 6.21373e-18
8776.67785 6.19073e-18
8778.33544 6.16773e-18
8779.99303 6.16367e-18
8781.65062 6.15963e-18
8783.31826 6.22919e-18
8784.97585 6.29861e-18
8786.63344 6.01628e-18
8788.29103 5.73401e-18
8789.95867 5.61997e-18
8791.61626 5.50610e-18
8793.27385 5.88181e-18
8794.94148 6.25731e-18
8796.59907 6.07771e-18
8798.25666 5.89817e-18
8799.91425 5.86218e-18
8801.58189 5.82618e-18
8803.23948 5.79507e-18
8804.89707 5.76397e-18
8806.56470 5.78438e-18
8808.22229 5.80481e-18
8809.87988 5.90051e-18
8811.53747 5.99618e-18
8813.20511 6.01039e-18
8814.86270 6.02462e-18
8816.52029 6.09847e-18
8818.17788 6.17229e-18
8819.84552 6.20427e-18
8821.50311 6.23626e-18
8823.16070 6.22617e-18
8824.82833 6.21608e-18
8826.48592 6.21099e-18
8828.14351 6.20567e-18
8829.80110 5.66286e-18
8831.46874 5.12045e-18
8833.12633 5.60583e-18
8834.78392 6.09097e-18
8836.44151 5.97549e-18
8838.10914 5.86006e-18
8839.76673 5.85079e-18
8841.42432 5.84148e-18
8843.09196 5.73350e-18
8844.74955 5.62556e-18
8846.40714 5.61855e-18
8848.06473 5.61155e-18
8849.73237 5.61376e-18
8851.38996 5.61601e-18
8853.04755 5.74996e-18
8854.71518 5.88376e-18
8856.37277 5.71983e-18
8858.03036 5.55592e-18
8859.68795 5.44278e-18
8861.35559 5.32967e-18
8863.01318 5.31931e-18
8864.67077 5.30899e-18
8866.32836 5.39392e-18
8867.99599 5.47888e-18
8869.65358 5.60518e-18
8871.31117 5.73144e-18
8872.97881 5.72541e-18
8874.63640 5.71930e-18
8876.29399 5.51310e-18
8877.95158 5.30704e-18
8879.61922 5.47504e-18
8881.27681 5.64294e-18
8882.93440 5.58486e-18
8884.60203 5.52687e-18
8886.25962 5.68116e-18
8887.91721 5.83541e-18
8889.57480 5.86369e-18
8891.24244 5.89184e-18
8892.90003 5.57690e-18
8894.55762 5.26212e-18
8896.21521 5.37710e-18
8897.88284 5.49204e-18
8899.54043 5.49369e-18
8901.19802 5.49531e-18
8902.85561 5.46307e-18
8904.52325 5.43083e-18
8906.18084 5.40972e-18
8907.83843 5.38854e-18
8909.50607 5.16574e-18
8911.16366 4.94305e-18
8912.82125 4.99924e-18
8914.47884 5.05535e-18
8916.14647 4.89504e-18
8917.80406 4.73491e-18
8919.46165 4.96007e-18
8921.11924 5.18512e-18
8922.78688 5.11729e-18
8924.44447 5.04964e-18
8926.10206 5.43382e-18
8927.76969 5.81781e-18
8929.42728 5.75719e-18
8931.08487 5.69638e-18
8932.74246 5.19330e-18
8934.41010 4.69042e-18
8936.06769 4.66345e-18
8937.72528 4.63660e-18
8939.38287 4.92112e-18
8941.05051 5.20539e-18
8942.70810 4.87170e-18
8944.36569 4.53817e-18
8946.03332 4.62843e-18
8947.69091 4.71858e-18
8949.34850 4.60213e-18
8951.00609 4.48579e-18
8952.67373 4.69115e-18
8954.33132 4.89630e-18
8955.98891 4.55390e-18
8957.64650 4.21172e-18
8959.31413 4.40103e-18
8960.97172 4.59031e-18
8962.62931 4.72617e-18
8964.29695 4.86205e-18
8965.95454 5.06310e-18
8967.61213 5.26398e-18
8969.26972 5.12235e-18
8970.93736 4.98075e-18
8972.59495 4.95688e-18
8974.25254 4.93300e-18
8975.92017 4.89115e-18
8977.57776 4.84928e-18
8979.23535 4.72784e-18
8980.89294 4.60650e-18
8982.56058 4.71486e-18
8984.21817 4.82323e-18
8985.87576 4.96075e-18
8987.53335 5.09812e-18
8989.20098 4.87446e-18
8990.85857 4.65086e-18
8992.51616 4.57653e-18
8994.18380 4.50225e-18
8995.84139 4.59561e-18
8997.49898 4.68896e-18
8999.15657 4.77586e-18
9000.82421 4.86279e-18
9002.48180 5.01694e-18
9004.13939 5.17100e-18
9005.79698 5.10773e-18
9007.46461 5.04446e-18
9009.12220 5.01233e-18
9010.77979 4.98026e-18
9012.44743 5.12277e-18
9014.10502 5.26513e-18
9015.76261 5.00152e-18
9017.42020 4.73806e-18
9019.08783 4.78687e-18
9020.74542 4.83561e-18
9022.40301 4.69950e-18
9024.07065 4.56345e-18
9025.72824 4.60345e-18
9027.38583 4.64346e-18
9029.04342 4.74081e-18
9030.71106 4.83819e-18
9032.36865 5.04805e-18
9034.02624 5.25771e-18
9035.68383 4.98086e-18
9037.35146 4.70408e-18
9039.00905 4.61854e-18
9040.66664 4.53310e-18
9042.33428 4.69226e-18
9043.99187 4.85127e-18
9045.64946 4.63581e-18
9047.30705 4.42034e-18
9048.97468 4.19319e-18
9050.63227 3.96629e-18
9052.28986 4.31580e-18
9053.95750 4.66519e-18
9055.61509 4.71649e-18
9057.27268 4.76765e-18
9058.93027 4.51216e-18
9060.59791 4.25675e-18
9062.25550 4.20197e-18
9063.91309 4.14724e-18
9065.57068 4.20184e-18
9067.23831 4.25635e-18
9068.89590 4.07493e-18
9070.55349 3.89367e-18
9072.21108 4.09574e-18
9073.87872 4.29772e-18
9075.53631 4.30097e-18
9077.19390 4.30423e-18
9078.86153 4.34488e-18
9080.51912 4.38537e-18
9082.17671 4.03807e-18
9083.83430 3.69103e-18
9085.50194 3.94698e-18
9087.15953 4.20289e-18
9088.81712 4.36672e-18
9090.48476 4.53041e-18
9092.14235 4.37620e-18
9093.79994 4.22224e-18
9095.45753 4.52505e-18
9097.12516 4.82760e-18
9098.78275 4.49587e-18
9100.44034 4.16439e-18
9102.09793 4.37092e-18
9103.76557 4.57754e-18
9105.42316 4.98373e-18
9107.08075 5.38966e-18
9108.74838 5.17401e-18
9110.40597 4.95835e-18
9112.06356 4.66725e-18
9113.72115 4.37626e-18
9115.38879 4.29028e-18
9117.04638 4.20438e-18
9118.70397 4.30438e-18
9120.36156 4.40433e-18
9122.02920 4.35289e-18
9123.68679 4.30151e-18
9125.34438 4.40053e-18
9127.01201 4.49954e-18
9128.66960 4.62896e-18
9130.32719 4.75833e-18
9131.98478 4.82448e-18
9133.65242 4.89061e-18
9135.31001 4.88177e-18
9136.96760 4.87295e-18
9138.63523 4.95711e-18
9140.29282 5.04116e-18
9141.95041 4.87982e-18
9143.60800 4.71855e-18
9145.27564 4.75466e-18
9146.93323 4.79073e-18
9148.59082 4.72188e-18
9150.24841 4.65299e-18
9151.91605 4.46110e-18
9153.57364 4.26943e-18
9155.23123 4.61230e-18
9156.89886 4.95503e-18
9158.55645 4.99229e-18
9160.21404 5.02947e-18
9161.87163 4.94039e-18
9163.53927 4.85122e-18
9165.19686 4.57893e-18
9166.85445 4.30683e-18
9168.51204 4.50090e-18
9170.17967 4.69491e-18
9171.83726 4.70266e-18
9173.49485 4.71039e-18
9175.15244 4.65782e-18
9176.82008 4.60536e-18
9178.47767 4.84916e-18
9180.13526 5.09289e-18
9181.80290 5.16434e-18
9183.46049 5.23572e-18
9185.11808 5.14227e-18
9186.77567 5.04890e-18
9188.44330 5.10858e-18
9190.10089 5.16820e-18
9191.75848 5.09630e-18
9193.42612 5.02434e-18
9195.08371 4.81832e-18
9196.74130 4.61250e-18
9198.39889 4.90956e-18
9200.06652 5.20650e-18
9201.72411 5.21750e-18
9203.38170 5.22839e-18
9205.03929 4.98379e-18
9206.70693 4.73928e-18
9208.36452 4.73282e-18
9210.02211 4.72646e-18
9211.68975 4.93300e-18
9213.34734 5.13941e-18
9215.00493 5.08260e-18
9216.66252 5.02578e-18
9218.33015 4.93285e-18
9219.98774 4.83992e-18
9221.64533 4.74149e-18
9223.31297 4.64313e-18
9224.97056 4.71816e-18
9226.62815 4.79306e-18
9228.28574 4.52422e-18
9229.95337 4.25565e-18
9231.61096 4.69048e-18
9233.26855 5.12518e-18
9234.92614 5.33550e-18
9236.59378 5.54560e-18
9238.25137 5.22842e-18
9239.90896 4.91131e-18
9241.56655 4.74787e-18
9243.23419 4.58462e-18
9244.89178 4.90617e-18
9246.54937 5.22748e-18
9248.21700 4.98767e-18
9249.87459 4.74797e-18
9251.53218 4.76513e-18
9253.18977 4.78224e-18
9254.85741 4.72793e-18
9256.51500 4.67367e-18
9258.17259 4.73893e-18
9259.84022 4.80421e-18
9261.49781 4.92353e-18
9263.15540 5.04277e-18
9264.81299 4.95506e-18
9266.48063 4.86725e-18
9268.13822 4.55903e-18
9269.79581 4.25108e-18
9271.45340 4.60448e-18
9273.12104 4.95765e-18
9274.77863 4.78967e-18
9276.43622 4.62186e-18
9278.10385 4.87616e-18
9279.76144 5.13024e-18
9281.41903 4.88107e-18
9283.07662 4.63202e-18
9284.74426 4.63860e-18
9286.40185 4.64523e-18
9288.05944 4.76254e-18
9289.71703 4.87966e-18
9291.38466 4.49333e-18
9293.04225 4.10721e-18
9294.69984 4.22229e-18
9296.36748 4.33740e-18
9298.02507 4.50511e-18
9299.68266 4.67274e-18
9301.34025 4.68158e-18
9303.00789 4.69040e-18
9304.66548 4.66320e-18
9306.32307 4.63594e-18
9307.99070 4.45095e-18
9309.64829 4.26601e-18
9311.30588 4.17914e-18
9312.96347 4.09235e-18
9314.63111 4.17473e-18
9316.28870 4.25698e-18
9317.94629 3.99430e-18
9319.60388 3.73159e-18
9321.27151 3.37945e-18
9322.92910 3.02763e-18
9324.58669 3.40321e-18
9326.25433 3.77864e-18
9327.91192 3.83043e-18
9329.56951 3.88225e-18
9331.22710 4.00415e-18
9332.89474 4.12591e-18
9334.55233 3.92017e-18
9336.20992 3.71454e-18
9337.87755 3.78667e-18
9339.53514 3.85879e-18
9341.19273 3.89967e-18
9342.85032 3.94065e-18
9344.51796 4.15925e-18
9346.17555 4.37779e-18
9347.83314 4.43009e-18
9349.49073 4.48214e-18
9351.15836 3.92975e-18
9352.81595 3.37757e-18
9354.47354 3.28035e-18
9356.13113 3.18340e-18
9357.79877 3.70379e-18
9359.45636 4.22394e-18
9361.11395 4.17523e-18
9362.78159 4.12665e-18
9364.43918 4.35734e-18
9366.09677 4.58793e-18
9367.75436 4.58772e-18
9369.42199 4.58749e-18
9371.07958 4.55284e-18
9372.73717 4.51794e-18
9374.40481 3.85352e-18
9376.06240 3.18942e-18
9377.71999 3.20656e-18
9379.37758 3.22380e-18
9381.04521 3.50079e-18
9382.70280 3.77766e-18
9384.36039 3.79124e-18
9386.01798 3.80480e-18
9387.68562 3.80711e-18
9389.34321 3.80940e-18
9391.00080 3.79441e-18
9392.66844 3.77951e-18
9394.32603 3.95413e-18
9395.98362 4.12861e-18
9397.64121 3.94971e-18
9399.30884 3.77089e-18
9400.96643 3.78168e-18
9402.62402 3.79249e-18
9404.28161 3.84281e-18
9405.94925 3.89306e-18
9407.60684 3.79224e-18
9409.26443 3.69156e-18
9410.93206 3.89158e-18
9412.58965 4.09153e-18
9414.24724 4.12918e-18
9415.90483 4.16675e-18
9417.57247 4.00843e-18
9419.23006 3.85019e-18
9420.88765 3.80466e-18
9422.54524 3.75908e-18
9424.21288 3.59541e-18
9425.87047 3.43200e-18
9427.52806 3.87650e-18
9429.19569 4.32068e-18
9430.85328 4.05116e-18
9432.51087 3.78171e-18
9434.16846 3.69580e-18
9435.83610 3.60973e-18
9437.49369 3.13612e-18
9439.15128 2.66263e-18
9440.80887 2.48751e-18
9442.47650 2.31281e-18
9444.13409 3.08982e-18
9445.79168 3.86650e-18
9447.45932 3.85231e-18
9449.11691 3.83816e-18
9450.77450 3.93417e-18
9452.43209 4.03002e-18
9454.09973 3.79790e-18
9455.75732 3.56578e-18
9457.41491 3.28094e-18
9459.07250 2.99628e-18
9460.74013 3.07312e-18
9462.39772 3.15004e-18
9464.05531 3.42253e-18
9465.72295 3.69474e-18
9467.38054 3.33048e-18
9469.03813 2.96651e-18
9470.69572 3.23167e-18
9472.36335 3.49685e-18
9474.02094 3.79575e-18
9475.67853 4.09461e-18
9477.34617 4.24806e-18
9479.00376 4.40138e-18
9480.66135 4.23526e-18
9482.31894 4.06923e-18
9483.98658 4.07312e-18
9485.64417 4.07691e-18
9487.30176 3.80152e-18
9488.95935 3.52623e-18
9490.62698 3.49741e-18
9492.28457 3.46858e-18
9493.94216 3.37881e-18
9495.60980 3.28927e-18
9497.26739 3.72725e-18
9498.92498 4.16497e-18
9500.58257 3.97154e-18
9502.25020 3.77821e-18
9503.90779 3.83563e-18
9505.56538 3.89307e-18
9507.23302 3.98365e-18
9508.89061 4.07406e-18
9510.54820 3.78356e-18
9512.20579 3.49312e-18
9513.87343 3.36808e-18
9515.53102 3.24304e-18
9517.18861 3.18024e-18
9518.84620 3.11764e-18
9520.51383 3.51569e-18
9522.17142 3.91345e-18
9523.82901 3.67160e-18
9525.49665 3.42992e-18
9527.15424 3.52107e-18
9528.81183 3.61214e-18
9530.46942 3.47549e-18
9532.13705 3.33898e-18
9533.79464 3.49868e-18
9535.45223 3.65831e-18
9537.10982 3.69565e-18
9538.77746 3.73299e-18
9540.43505 3.82170e-18
9542.09264 3.91035e-18
9543.76028 3.86854e-18
9545.41787 3.82662e-18
9547.07546 3.51982e-18
9548.73305 3.21309e-18
9550.40068 3.05653e-18
9552.05827 2.90037e-18
9553.71586 3.65752e-18
9555.37345 4.41419e-18
9557.04109 4.06874e-18
9558.69868 3.72341e-18
9560.35627 3.67396e-18
9562.02390 3.62461e-18
9563.68149 3.77208e-18
9565.33908 3.91939e-18
9566.99667 3.71590e-18
9568.66431 3.51252e-18
9570.32190 3.54187e-18
9571.97949 3.57126e-18
9573.64713 3.66175e-18
9575.30472 3.75206e-18
9576.96231 3.46764e-18
9578.61990 3.18336e-18
9580.28753 3.18291e-18
9581.94512 3.18251e-18
9583.60271 3.28361e-18
9585.27035 3.38461e-18
9586.92794 3.25806e-18
9588.58553 3.13155e-18
9590.24312 3.08591e-18
9591.91075 3.04040e-18
9593.56834 3.32704e-18
9595.22593 3.61349e-18
9596.88352 3.48046e-18
9598.55116 3.34758e-18
9600.20875 3.58298e-18
9601.86634 3.81826e-18
9603.52393 3.81208e-18
9605.19157 3.80595e-18
9606.84916 3.96886e-18
9608.50675 4.13150e-18
9610.17438 3.70281e-18
9611.83197 3.27431e-18
9613.48956 3.25829e-18
9615.14715 3.24225e-18
9616.81479 3.20707e-18
9618.47238 3.17193e-18
9620.12997 3.23073e-18
9621.79760 3.28955e-18
9623.45519 3.36459e-18
9625.11278 3.43964e-18
9626.77037 3.51123e-18
9628.43801 3.58282e-18
9630.09560 3.67709e-18
9631.75319 3.77131e-18
9633.41078 3.76190e-18
9635.07842 3.75257e-18
9636.73601 3.95284e-18
9638.39360 4.15289e-18
9640.06123 3.91066e-18
9641.71882 3.66858e-18
9643.37641 3.75240e-18
9645.03400 3.83603e-18
9646.70164 3.50054e-18
9648.35923 3.16531e-18
9650.01682 3.38402e-18
9651.67441 3.60261e-18
9653.34204 3.57297e-18
9654.99963 3.54324e-18
9656.65722 3.29686e-18
9658.31481 3.05064e-18
9659.98245 3.15289e-18
9661.64004 3.25525e-18
9663.29763 3.60323e-18
9664.96527 3.95086e-18
9666.62286 3.47941e-18
9668.28045 3.00830e-18
9669.93804 3.25569e-18
9671.60567 3.50307e-18
9673.26326 3.75610e-18
9674.92085 4.00903e-18
9676.58849 4.07490e-18
9678.24608 4.14066e-18
9679.90367 3.95733e-18
9681.56126 3.77427e-18
9683.22889 4.16805e-18
9684.88648 4.56154e-18
9686.54407 4.25354e-18
9688.20166 3.94548e-18
9689.86930 3.51339e-18
9691.52689 3.08171e-18
9693.18448 3.49365e-18
9694.85212 3.90544e-18
9696.50971 3.95891e-18
9698.16730 4.01249e-18
9699.82489 4.30335e-18
9701.49252 4.59371e-18
9703.15011 3.76258e-18
9704.80770 2.93191e-18
9706.46529 3.11359e-18
9708.13293 3.29524e-18
9709.79052 3.37148e-18
9711.44811 3.44755e-18
9713.11574 3.08371e-18
9714.77333 2.72021e-18
9716.43092 3.09019e-18
9718.08851 3.46016e-18
9719.75615 3.79687e-18
9721.41374 4.13328e-18
9723.07133 3.80804e-18
9724.73897 3.48299e-18
9726.39656 3.55224e-18
9728.05415 3.62151e-18
9729.71174 3.72893e-18
9731.37937 3.83619e-18
9733.03696 3.62090e-18
9734.69455 3.40575e-18
9736.35214 3.49943e-18
9738.01978 3.59313e-18
9739.67737 3.74869e-18
9741.33496 3.90418e-18
9743.00259 3.90159e-18
9744.66018 3.89891e-18
9746.31777 3.69860e-18
9747.97536 3.49831e-18
9749.64300 3.32766e-18
9751.30059 3.15724e-18
9752.95818 3.50565e-18
9754.62582 3.85375e-18
9756.28341 3.57472e-18
9757.94100 3.29587e-18
9759.59859 3.42710e-18
9761.26622 3.55831e-18
9762.92381 3.65541e-18
9764.58140 3.75244e-18
9766.23899 3.69043e-18
9767.90663 3.62854e-18
9769.56422 3.79460e-18
9771.22181 3.96053e-18
9772.87940 3.82886e-18
9774.54703 3.69718e-18
9776.20462 3.49338e-18
9777.86221 3.28959e-18
9779.52985 3.11772e-18
9781.18744 2.94608e-18
9782.84503 3.25426e-18
9784.50262 3.56229e-18
9786.17026 3.49067e-18
9787.82785 3.41949e-18
9789.48544 4.26609e-18
9791.15307 5.11209e-18
9792.81066 4.68476e-18
9794.46825 4.25755e-18
9796.12584 4.04053e-18
9797.79348 3.82366e-18
9799.45107 3.95339e-18
9801.10866 4.08272e-18
9802.76625 3.35092e-18
9804.43388 2.61937e-18
9806.09147 2.37926e-18
9807.74906 2.13954e-18
9809.41670 2.69898e-18
9811.07429 3.25821e-18
9812.73188 3.37452e-18
9814.38947 3.49082e-18
9816.05711 3.60994e-18
9817.71470 3.72895e-18
9819.37229 3.63721e-18
9821.03992 3.54539e-18
9822.69751 3.26512e-18
9824.35510 2.98518e-18
9826.01269 3.39979e-18
9827.68033 3.81411e-18
9829.33792 3.58564e-18
9830.99551 3.35735e-18
9832.65310 3.48415e-18
9834.32073 3.61083e-18
9835.97832 3.50830e-18
9837.63591 3.40571e-18
9839.30355 3.18845e-18
9840.96114 2.97149e-18
9842.61873 3.38381e-18
9844.27632 3.79613e-18
9845.94396 4.22956e-18
9847.60155 4.66269e-18
9849.25914 4.46345e-18
9850.91673 4.26420e-18
9852.58436 4.06216e-18
9854.24195 3.86011e-18
9855.89954 3.68110e-18
9857.56718 3.50218e-18
9859.22477 3.47260e-18
9860.88236 3.44305e-18
9862.53995 3.43430e-18
9864.20758 3.42586e-18
9865.86517 4.09788e-18
9867.52276 4.76951e-18
9869.18035 4.59626e-18
9870.84799 4.42316e-18
9872.50558 4.58099e-18
9874.16317 4.73893e-18
9875.83081 5.16975e-18
9877.48840 5.60001e-18
9879.14599 4.86876e-18
9880.80358 4.13753e-18
9882.47121 3.43562e-18
9884.12880 2.73431e-18
9885.78639 3.30255e-18
9887.44398 3.87067e-18
9889.11162 4.17340e-18
9890.76921 4.47603e-18
9892.42680 4.56829e-18
9894.09443 4.66059e-18
9895.75202 4.80101e-18
9897.40961 4.94139e-18
9899.06720 5.01622e-18
9900.73484 5.09061e-18
9902.39243 4.20494e-18
9904.05002 3.31965e-18
9905.70761 3.23403e-18
9907.37525 3.14839e-18
9909.03284 3.01437e-18
9910.69043 2.88041e-18
9912.35806 2.91508e-18
9914.01565 2.94997e-18
9915.67324 3.44711e-18
9917.33083 3.94392e-18
9918.99847 3.77203e-18
9920.65606 3.60026e-18
9922.31365 3.67796e-18
9923.98128 3.75569e-18
9925.63887 3.85454e-18
9927.29646 3.95345e-18
9928.95405 4.14137e-18
9930.62169 4.32882e-18
9932.27928 3.46337e-18
9933.93687 2.59822e-18
9935.59446 2.35492e-18
9937.26210 2.11214e-18
9938.91969 2.92882e-18
9940.57728 3.74526e-18
9942.23487 4.07988e-18
9943.90250 4.41433e-18
9945.56009 4.41674e-18
9947.21768 4.41886e-18
9948.88532 3.80796e-18
9950.54291 3.19768e-18
9952.20050 3.90240e-18
9953.85809 4.60679e-18
9955.52572 4.59590e-18
9957.18331 4.58479e-18
9958.84090 4.09201e-18
9960.50854 3.59938e-18
9962.16613 3.38452e-18
9963.82372 3.16973e-18
9965.48131 3.04680e-18
9967.14895 2.92382e-18
9968.80654 2.62719e-18
9970.46413 2.33066e-18
9972.12172 2.18898e-18
9973.78935 2.04737e-18
9975.44694 2.06645e-18
9977.10453 2.08581e-18
9978.77217 2.66779e-18
9980.42976 3.24946e-18
9982.08735 3.21962e-18
9983.74494 3.18990e-18
9985.41257 3.40957e-18
9987.07016 3.62927e-18
9988.72775 3.97229e-18
9990.39539 4.31509e-18
9992.05298 4.20128e-18
9993.71057 4.08732e-18
9995.36816 3.67901e-18
9997.03580 3.27055e-18
9998.69339 2.53006e-18
