# wavelength flux
3485.00480 1.32765e-17
3486.47202 1.42942e-17
3487.93924 1.53731e-17
3489.40645 1.29000e-17
3490.88386 1.57376e-17
3492.35107 1.84226e-17
3493.81829 1.93800e-17
3495.28550 1.56252e-17
3496.76291 1.38566e-17
3498.23013 1.42635e-17
3499.69734 1.50892e-17
3501.17475 1.98182e-17
3502.64196 1.99293e-17
3504.10918 1.45292e-17
3505.57640 1.48365e-17
3507.05380 1.79564e-17
3508.52102 1.97620e-17
3509.98823 1.67552e-17
3511.45545 1.64525e-17
3512.93285 1.69984e-17
3514.40007 1.80670e-17
3515.86728 1.97047e-17
3517.34469 2.03107e-17
3518.81191 2.03825e-17
3520.27912 2.02445e-17
3521.74634 2.04566e-17
3523.22374 2.09597e-17
3524.69096 2.08733e-17
3526.15817 2.05341e-17
3527.62539 1.90799e-17
3529.10280 1.72201e-17
3530.57001 2.20408e-17
3532.03723 2.24776e-17
3533.51463 1.86320e-17
3534.98185 2.11821e-17
3536.44906 2.30370e-17
3537.91628 2.22408e-17
3539.39369 2.14447e-17
3540.86090 2.06488e-17
3542.32812 1.98530e-17
3543.79533 1.90574e-17
3545.27274 1.90557e-17
3546.73995 2.09622e-17
3548.20717 2.17951e-17
3549.68458 2.11623e-17
3551.15179 1.86593e-17
3552.61901 1.89440e-17
3554.08622 1.82115e-17
3555.56363 2.14407e-17
3557.03084 1.98160e-17
3558.49806 1.92817e-17
3559.96528 1.98612e-17
3561.44268 1.72858e-17
3562.90990 1.67437e-17
3564.37711 1.88606e-17
3565.85452 1.73964e-17
3567.32173 1.94823e-17
3568.78895 1.91356e-17
3570.25617 1.55329e-17
3571.73357 1.57980e-17
3573.20079 1.77573e-17
3574.66800 1.54890e-17
3576.13522 1.59179e-17
3577.61262 1.85981e-17
3579.07984 2.15055e-17
3580.54706 2.04782e-17
3582.02446 1.83840e-17
3583.49168 1.64955e-17
3584.95889 1.71083e-17
3586.42611 1.70531e-17
3587.90351 1.65063e-17
3589.37073 1.66659e-17
3590.83795 1.95036e-17
3592.30516 1.94381e-17
3593.78257 1.72061e-17
3595.24978 1.61694e-17
3596.71700 1.67200e-17
3598.19440 1.75718e-17
3599.66162 1.91054e-17
3601.12884 2.02469e-17
3602.59605 1.77509e-17
3604.07346 1.65056e-17
3605.54067 1.73630e-17
3607.00789 1.72339e-17
3608.47511 1.98097e-17
3609.95251 2.06449e-17
3611.41973 1.88786e-17
3612.88694 1.80856e-17
3614.36435 2.01960e-17
3615.83156 2.20184e-17
3617.29878 1.91374e-17
3618.76600 1.64868e-17
3620.24340 1.44000e-17
3621.71062 1.75511e-17
3623.17783 1.87743e-17
3624.64505 1.81319e-17
3626.12245 1.86906e-17
3627.58967 1.89823e-17
3629.05689 1.74963e-17
3630.53429 1.63304e-17
3632.00151 1.75929e-17
3633.46872 1.95412e-17
3634.93594 1.72893e-17
3636.41334 1.94761e-17
3637.88056 1.70381e-17
3639.34778 1.96457e-17
3640.81499 1.94049e-17
3642.29240 1.86980e-17
3643.75961 2.00760e-17
3645.22683 2.06024e-17
3646.70423 1.81391e-17
3648.17145 1.69742e-17
3649.63867 1.92181e-17
3651.10588 2.05556e-17
3652.58329 1.93820e-17
3654.05050 1.67006e-17
3655.51772 1.69519e-17
3656.98493 1.51979e-17
3658.46234 1.75137e-17
3659.92956 1.71348e-17
3661.39677 1.76403e-17
3662.87418 1.88826e-17
3664.34139 1.76633e-17
3665.80861 1.74761e-17
3667.27582 1.66155e-17
3668.75323 1.54262e-17
3670.22045 1.74636e-17
3671.68766 1.86624e-17
3673.15488 1.72666e-17
3674.63228 1.80653e-17
3676.09950 1.97427e-17
3677.56671 1.89946e-17
3679.04412 1.62695e-17
3680.51134 1.50493e-17
3681.97855 1.75479e-17
3683.44577 1.67574e-17
3684.92317 1.65539e-17
3686.39039 1.90275e-17
3687.85760 1.76758e-17
3689.33501 1.66611e-17
3690.80223 1.69654e-17
3692.26944 1.76506e-17
3693.73666 1.66275e-17
3695.21406 1.68665e-17
3696.68128 1.56855e-17
3698.14849 1.69381e-17
3699.61571 1.49670e-17
3701.09312 1.44709e-17
3702.56033 1.60335e-17
3704.02755 1.59382e-17
3705.49476 1.39644e-17
3706.97217 1.50398e-17
3708.43938 1.48051e-17
3709.90660 1.45441e-17
3711.38401 1.57716e-17
3712.85122 1.63185e-17
3714.31844 1.38873e-17
3715.78565 1.08124e-17
3717.26306 1.28416e-17
3718.73027 1.34816e-17
3720.19749 1.48073e-17
3721.67490 1.63879e-17
3723.14211 1.62096e-17
3724.60933 1.61163e-17
3726.07654 1.54395e-17
3727.55395 1.44938e-17
3729.02116 1.53086e-17
3730.48838 1.61338e-17
3731.95560 1.52002e-17
3733.43300 1.58500e-17
3734.90022 1.41524e-17
3736.36743 1.29640e-17
3737.84484 1.39455e-17
3739.31205 1.34535e-17
3740.77927 1.43418e-17
3742.24649 1.53653e-17
3743.72389 1.62628e-17
3745.19111 1.53012e-17
3746.65832 1.50906e-17
3748.12554 1.65162e-17
3749.60295 1.49408e-17
3751.07016 1.48489e-17
3752.53738 1.70145e-17
3754.01478 1.78666e-17
3755.48200 1.72866e-17
3756.94921 1.56479e-17
3758.41643 1.49964e-17
3759.89383 1.55554e-17
3761.36105 1.53773e-17
3762.82827 1.45808e-17
3764.29548 1.50750e-17
3765.77289 1.58457e-17
3767.24010 1.59409e-17
3768.70732 1.67812e-17
3770.18472 1.64149e-17
3771.65194 1.55150e-17
3773.11916 1.62206e-17
3774.58637 1.68512e-17
3776.06378 1.69225e-17
3777.53099 1.72763e-17
3778.99821 1.71982e-17
3780.46543 1.79471e-17
3781.94283 1.78086e-17
3783.41005 1.56567e-17
3784.87726 1.65235e-17
3786.35467 1.95848e-17
3787.82188 1.89203e-17
3789.28910 1.85523e-17
3790.75632 1.81982e-17
3792.23372 1.84233e-17
3793.70094 1.85708e-17
3795.16815 1.68496e-17
3796.63537 1.70915e-17
3798.11277 1.74077e-17
3799.57999 1.62953e-17
3801.04721 1.64513e-17
3802.52461 1.63834e-17
3803.99183 1.66457e-17
3805.45904 1.45554e-17
3806.92626 1.56392e-17
3808.40366 1.57064e-17
3809.87088 1.62133e-17
3811.33810 1.51598e-17
3812.80531 1.49920e-17
3814.28272 1.42292e-17
3815.74993 1.43830e-17
3817.21715 1.47986e-17
3818.69455 1.45388e-17
3820.16177 1.45406e-17
3821.62899 1.47257e-17
3823.09620 1.21589e-17
3824.57361 1.33777e-17
3826.04082 1.44678e-17
3827.50804 1.28544e-17
3828.97525 1.33607e-17
3830.45266 1.45303e-17
3831.91988 1.38463e-17
3833.38709 1.35941e-17
3834.86450 1.37764e-17
3836.33171 1.28947e-17
3837.79893 1.14701e-17
3839.26615 1.21503e-17
3840.74355 1.25730e-17
3842.21077 1.25986e-17
3843.67798 1.04961e-17
3845.14520 1.02903e-17
3846.62260 1.16637e-17
3848.08982 1.04147e-17
3849.55703 9.09567e-18
3851.03444 9.27946e-18
3852.50166 1.01844e-17
3853.96887 1.04893e-17
3855.43609 9.39565e-18
3856.91349 1.02028e-17
3858.38071 1.09938e-17
3859.84792 9.51016e-18
3861.31514 9.13064e-18
3862.79255 9.54360e-18
3864.25976 8.96606e-18
3865.72698 8.34074e-18
3867.20438 1.00451e-17
3868.67160 1.04993e-17
3870.13881 8.15089e-18
3871.60603 7.84726e-18
3873.08344 9.20349e-18
3874.55065 7.38126e-18
3876.01787 8.28332e-18
3877.48508 8.33781e-18
3878.96249 8.15415e-18
3880.42970 8.60657e-18
3881.89692 7.50910e-18
3883.37433 8.33437e-18
3884.84154 9.12341e-18
3886.30876 9.36905e-18
3887.77597 8.26912e-18
3889.25338 7.17879e-18
3890.72059 7.81655e-18
3892.18781 7.47815e-18
3893.65503 7.82592e-18
3895.13243 8.11021e-18
3896.59965 8.24335e-18
3898.06686 8.13994e-18
3899.54427 6.70017e-18
3901.01148 8.70750e-18
3902.47870 8.72186e-18
3903.94592 9.71879e-18
3905.42332 9.66031e-18
3906.89054 8.28912e-18
3908.35775 9.27837e-18
3909.82497 9.53144e-18
3911.30237 1.00941e-17
3912.76959 1.01334e-17
3914.23681 1.14987e-17
3915.71421 1.09614e-17
3917.18143 9.62944e-18
3918.64864 1.24057e-17
3920.11586 1.08852e-17
3921.59326 1.07742e-17
3923.06048 1.03498e-17
3924.52770 1.01701e-17
3925.99491 1.20153e-17
3927.47232 1.25217e-17
3928.93953 1.17219e-17
3930.40675 1.20140e-17
3931.88415 1.26132e-17
3933.35137 1.20919e-17
3934.81859 1.23685e-17
3936.28580 1.11211e-17
3937.76321 1.21485e-17
3939.23042 1.26080e-17
3940.69764 1.21581e-17
3942.16486 1.36631e-17
3943.64226 1.39225e-17
3945.10948 1.41474e-17
3946.57669 1.47908e-17
3948.05410 1.48234e-17
3949.52131 1.55631e-17
3950.98853 1.57930e-17
3952.45575 1.53764e-17
3953.93315 1.57993e-17
3955.40037 1.38160e-17
3956.86758 1.45236e-17
3958.34499 1.70689e-17
3959.81220 1.85592e-17
3961.27942 1.73575e-17
3962.74664 1.69872e-17
3964.22404 1.81234e-17
3965.69126 1.85600e-17
3967.15847 1.67230e-17
3968.62569 1.63053e-17
3970.10309 1.74285e-17
3971.57031 1.79742e-17
3973.03753 1.82743e-17
3974.50474 1.71864e-17
3975.98215 1.81383e-17
3977.44936 1.85696e-17
3978.91658 1.84363e-17
3980.39398 1.94994e-17
3981.86120 1.96531e-17
3983.32842 1.99215e-17
3984.79563 2.01502e-17
3986.27304 2.00556e-17
3987.74025 2.00083e-17
3989.20747 2.08334e-17
3990.68487 2.14153e-17
3992.15209 2.12111e-17
3993.61931 2.19669e-17
3995.08652 2.14817e-17
3996.56393 2.02544e-17
3998.03114 2.28615e-17
3999.49836 2.37308e-17
4000.96557 2.24754e-17
4002.44298 2.19118e-17
4003.91020 2.19368e-17
4005.37741 1.97906e-17
4006.85482 1.92542e-17
4008.32203 2.00076e-17
4009.78925 2.20155e-17
4011.25646 2.19949e-17
4012.73387 2.20923e-17
4014.20109 2.24297e-17
4015.66830 2.17417e-17
4017.13552 2.18794e-17
4018.61292 2.04669e-17
4020.08014 2.14984e-17
4021.54735 2.27182e-17
4023.02476 2.26588e-17
4024.49198 2.26296e-17
4025.95919 2.17483e-17
4027.42641 2.07566e-17
4028.90381 2.26063e-17
4030.37103 2.32441e-17
4031.83824 2.30272e-17
4033.30546 2.27598e-17
4034.78287 2.20643e-17
4036.25008 2.14781e-17
4037.71730 2.17578e-17
4039.19470 2.10104e-17
4040.66192 2.14772e-17
4042.12913 2.12568e-17
4043.59635 2.08787e-17
4045.07376 2.27430e-17
4046.54097 2.34146e-17
4048.00819 2.22380e-17
4049.47540 2.46826e-17
4050.95281 2.25290e-17
4052.42002 2.13302e-17
4053.88724 2.31891e-17
4055.36465 2.39976e-17
4056.83186 2.33602e-17
4058.29908 2.32915e-17
4059.76629 2.29848e-17
4061.24370 2.23990e-17
4062.71091 2.18078e-17
4064.17813 2.44700e-17
4065.64535 2.26287e-17
4067.12275 2.22926e-17
4068.58997 2.17987e-17
4070.05718 2.20479e-17
4071.53459 2.05434e-17
4073.00180 2.13950e-17
4074.46902 2.25251e-17
4075.93624 2.29449e-17
4077.41364 2.34054e-17
4078.88086 2.22521e-17
4080.34807 2.09936e-17
4081.81529 2.12283e-17
4083.29269 2.20668e-17
4084.75991 2.21984e-17
4086.22713 2.17551e-17
4087.70453 2.28367e-17
4089.17175 2.20787e-17
4090.63896 2.11838e-17
4092.10618 2.18685e-17
4093.58358 2.19581e-17
4095.05080 2.25346e-17
4096.51802 2.23845e-17
4097.98523 2.19461e-17
4099.46264 2.09826e-17
4100.92985 2.03562e-17
4102.39707 2.14820e-17
4103.87447 2.15415e-17
4105.34169 1.98981e-17
4106.80891 2.12792e-17
4108.27612 2.21611e-17
4109.75353 2.10196e-17
4111.22074 2.07311e-17
4112.68796 2.15805e-17
4114.15518 2.13910e-17
4115.63258 1.98986e-17
4117.09980 2.11618e-17
4118.56701 2.02661e-17
4120.04442 2.09488e-17
4121.51163 2.12732e-17
4122.97885 1.93406e-17
4124.44607 1.90504e-17
4125.92347 1.92939e-17
4127.39069 1.88139e-17
4128.85790 1.90387e-17
4130.32512 1.88935e-17
4131.80252 1.85674e-17
4133.26974 1.86080e-17
4134.73696 1.86368e-17
4136.21436 1.77276e-17
4137.68158 1.62949e-17
4139.14879 1.71128e-17
4140.61601 1.80196e-17
4142.09341 1.88320e-17
4143.56063 1.82685e-17
4145.02785 1.63876e-17
4146.49506 1.69646e-17
4147.97247 1.80242e-17
4149.43968 1.73599e-17
4150.90690 1.71103e-17
4152.38430 1.73595e-17
4153.85152 1.72556e-17
4155.31874 1.59192e-17
4156.78595 1.63632e-17
4158.26336 1.71616e-17
4159.73057 1.72321e-17
4161.19779 1.76009e-17
4162.66500 1.59564e-17
4164.14241 1.70582e-17
4165.60963 1.69924e-17
4167.07684 1.70852e-17
4168.55425 1.77324e-17
4170.02146 1.66924e-17
4171.48868 1.75207e-17
4172.95590 1.68843e-17
4174.43330 1.66478e-17
4175.90052 1.70482e-17
4177.36773 1.66842e-17
4178.83495 1.70891e-17
4180.31235 1.64340e-17
4181.77957 1.76179e-17
4183.24678 1.63724e-17
4184.72419 1.48757e-17
4186.19141 1.63822e-17
4187.65862 1.74461e-17
4189.12584 1.65448e-17
4190.60324 1.73276e-17
4192.07046 1.75491e-17
4193.53767 1.73789e-17
4195.00489 1.71478e-17
4196.48230 1.70686e-17
4197.94951 1.68805e-17
4199.41673 1.63029e-17
4200.89413 1.57370e-17
4202.36135 1.64863e-17
4203.82856 1.56761e-17
4205.29578 1.64636e-17
4206.77319 1.64146e-17
4208.24040 1.67150e-17
4209.70762 1.58396e-17
4211.17483 1.54479e-17
4212.65224 1.63965e-17
4214.11945 1.72022e-17
4215.58667 1.68538e-17
4217.06408 1.57931e-17
4218.53129 1.65546e-17
4219.99851 1.59677e-17
4221.46572 1.62992e-17
4222.94313 1.58238e-17
4224.41035 1.61845e-17
4225.87756 1.50024e-17
4227.35497 1.57161e-17
4228.82218 1.63333e-17
4230.28940 1.67919e-17
4231.75661 1.65996e-17
4233.23402 1.64707e-17
4234.70123 1.61264e-17
4236.16845 1.61548e-17
4237.63567 1.82131e-17
4239.11307 1.66159e-17
4240.58029 1.62857e-17
4242.04750 1.73428e-17
4243.52491 1.74532e-17
4244.99212 1.82272e-17
4246.45934 1.81678e-17
4247.92656 1.75942e-17
4249.40396 1.70244e-17
4250.87118 1.77617e-17
4252.33839 1.69456e-17
4253.80561 1.72288e-17
4255.28301 1.71036e-17
4256.75023 1.71964e-17
4258.21745 1.74201e-17
4259.68466 1.79838e-17
4261.16207 1.79972e-17
4262.62928 1.76249e-17
4264.09650 1.68240e-17
4265.57390 1.74530e-17
4267.04112 1.79289e-17
4268.50834 1.78264e-17
4269.97555 1.85624e-17
4271.45296 1.69610e-17
4272.92017 1.67455e-17
4274.38739 1.71225e-17
4275.85461 1.67164e-17
4277.33201 1.66342e-17
4278.79923 1.65457e-17
4280.26644 1.62534e-17
4281.74385 1.72392e-17
4283.21106 1.68982e-17
4284.67828 1.73489e-17
4286.14550 1.66262e-17
4287.62290 1.65637e-17
4289.09012 1.75386e-17
4290.55733 1.72865e-17
4292.03474 1.65149e-17
4293.50195 1.61176e-17
4294.96917 1.66437e-17
4296.43639 1.77460e-17
4297.91379 1.73746e-17
4299.38101 1.70558e-17
4300.84822 1.69891e-17
4302.31544 1.64526e-17
4303.79284 1.67801e-17
4305.26006 1.75824e-17
4306.72728 1.71797e-17
4308.20468 1.69473e-17
4309.67190 1.63107e-17
4311.13911 1.60486e-17
4312.60633 1.57502e-17
4314.08373 1.65531e-17
4315.55095 1.72063e-17
4317.01817 1.63765e-17
4318.48538 1.71327e-17
4319.96279 1.81480e-17
4321.43000 1.82183e-17
4322.89722 1.71334e-17
4324.37462 1.60496e-17
4325.84184 1.65431e-17
4327.30906 1.71377e-17
4328.77627 1.70339e-17
4330.25368 1.71554e-17
4331.72089 1.73325e-17
4333.18811 1.70647e-17
4334.65532 1.74807e-17
4336.13273 1.67203e-17
4337.59995 1.61955e-17
4339.06716 1.66011e-17
4340.54457 1.57858e-17
4342.01178 1.59578e-17
4343.47900 1.58744e-17
4344.94621 1.67936e-17
4346.42362 1.73073e-17
4347.89084 1.51359e-17
4349.35805 1.58134e-17
4350.82527 1.67323e-17
4352.30267 1.69105e-17
4353.76989 1.79425e-17
4355.23710 1.81892e-17
4356.71451 1.70639e-17
4358.18173 1.67926e-17
4359.64894 1.64440e-17
4361.11616 1.65300e-17
4362.59356 1.62198e-17
4364.06078 1.63607e-17
4365.52799 1.61013e-17
4366.99521 1.62480e-17
4368.47262 1.56509e-17
4369.93983 1.67025e-17
4371.40705 1.71372e-17
4372.88445 1.68094e-17
4374.35167 1.65047e-17
4375.81888 1.62701e-17
4377.28610 1.67723e-17
4378.76351 1.59218e-17
4380.23072 1.60352e-17
4381.69794 1.61808e-17
4383.16515 1.66523e-17
4384.64256 1.67278e-17
4386.10977 1.69436e-17
4387.57699 1.64085e-17
4389.05440 1.57845e-17
4390.52161 1.60533e-17
4391.98883 1.56643e-17
4393.45604 1.60787e-17
4394.93345 1.65231e-17
4396.40067 1.66395e-17
4397.86788 1.62747e-17
4399.33510 1.55466e-17
4400.81250 1.54835e-17
4402.27972 1.63954e-17
4403.74693 1.63413e-17
4405.22434 1.62843e-17
4406.69155 1.62519e-17
4408.15877 1.53986e-17
4409.62599 1.60245e-17
4411.10339 1.56958e-17
4412.57061 1.60921e-17
4414.03782 1.67784e-17
4415.50504 1.62337e-17
4416.98244 1.65723e-17
4418.44966 1.62755e-17
4419.91688 1.58596e-17
4421.39428 1.57933e-17
4422.86150 1.65725e-17
4424.32871 1.57838e-17
4425.79593 1.51901e-17
4427.27333 1.49951e-17
4428.74055 1.55680e-17
4430.20777 1.56886e-17
4431.68517 1.47869e-17
4433.15239 1.48615e-17
4434.61960 1.48586e-17
4436.08682 1.53068e-17
4437.56423 1.50724e-17
4439.03144 1.49924e-17
4440.49866 1.53266e-17
4441.96587 1.37252e-17
4443.44328 1.55870e-17
4444.91049 1.48918e-17
4446.37771 1.34024e-17
4447.84493 1.43089e-17
4449.32233 1.39299e-17
4450.78955 1.34802e-17
4452.25676 1.31790e-17
4453.73417 1.25704e-17
4455.20138 1.21866e-17
4456.66860 1.27738e-17
4458.13582 1.26274e-17
4459.61322 1.25947e-17
4461.08044 1.17416e-17
4462.54765 1.24957e-17
4464.01487 1.17919e-17
4465.49227 1.19361e-17
4466.95949 1.19069e-17
4468.42671 1.12692e-17
4469.90411 1.18899e-17
4471.37133 1.14504e-17
4472.83854 1.13876e-17
4474.30576 1.10936e-17
4475.78316 1.15369e-17
4477.25038 1.15612e-17
4478.71760 1.21049e-17
4480.18481 1.13410e-17
4481.66222 1.06130e-17
4483.12943 1.15967e-17
4484.59665 1.12439e-17
4486.07405 1.14599e-17
4487.54127 1.01579e-17
4489.00849 1.09303e-17
4490.47570 1.24343e-17
4491.95311 1.14912e-17
4493.42032 1.12092e-17
4494.88754 1.13901e-17
4496.36494 1.06688e-17
4497.83216 1.19219e-17
4499.29938 1.18570e-17
4500.76659 1.16059e-17
4502.24400 1.16077e-17
4503.71121 1.16713e-17
4505.17843 1.12043e-17
4506.64564 1.08711e-17
4508.12305 1.10631e-17
4509.59027 1.15054e-17
4511.05748 1.16492e-17
4512.52470 1.16923e-17
4514.00210 1.15703e-17
4515.46932 1.24001e-17
4516.93653 1.22742e-17
4518.41394 1.20278e-17
4519.88116 1.16777e-17
4521.34837 1.15613e-17
4522.81559 1.28213e-17
4524.29299 1.23664e-17
4525.76021 1.19622e-17
4527.22743 1.24119e-17
4528.70483 1.22569e-17
4530.17205 1.25064e-17
4531.63926 1.39103e-17
4533.10648 1.25022e-17
4534.58388 1.29103e-17
4536.05110 1.31067e-17
4537.51832 1.28699e-17
4538.98553 1.35512e-17
4540.46294 1.29951e-17
4541.93015 1.30592e-17
4543.39737 1.27180e-17
4544.87477 1.27412e-17
4546.34199 1.32065e-17
4547.80920 1.29973e-17
4549.27642 1.31987e-17
4550.75383 1.36786e-17
4552.22104 1.32354e-17
4553.68826 1.28298e-17
4555.15547 1.39083e-17
4556.63288 1.30687e-17
4558.10009 1.26602e-17
4559.56731 1.30545e-17
4561.04472 1.26375e-17
4562.51193 1.33631e-17
4563.97915 1.38474e-17
4565.44636 1.36590e-17
4566.92377 1.34648e-17
4568.39098 1.34991e-17
4569.85820 1.30289e-17
4571.32542 1.36886e-17
4572.80282 1.35537e-17
4574.27004 1.40099e-17
4575.73725 1.44425e-17
4577.21466 1.38444e-17
4578.68187 1.43414e-17
4580.14909 1.42615e-17
4581.61631 1.49139e-17
4583.09371 1.46719e-17
4584.56093 1.49575e-17
4586.02814 1.61249e-17
4587.49536 1.55371e-17
4588.97277 1.46765e-17
4590.43998 1.45663e-17
4591.90720 1.50056e-17
4593.38460 1.52709e-17
4594.85182 1.46749e-17
4596.31903 1.46340e-17
4597.78625 1.58000e-17
4599.26365 1.60409e-17
4600.73087 1.53870e-17
4602.19809 1.54784e-17
4603.66530 1.57168e-17
4605.14271 1.54603e-17
4606.60992 1.56254e-17
4608.07714 1.57879e-17
4609.55454 1.65043e-17
4611.02176 1.65371e-17
4612.48898 1.67628e-17
4613.95619 1.69170e-17
4615.43360 1.64298e-17
4616.90081 1.63827e-17
4618.36803 1.64919e-17
4619.83525 1.66818e-17
4621.31265 1.69784e-17
4622.77987 1.64660e-17
4624.24708 1.71940e-17
4625.72449 1.73565e-17
4627.19170 1.67847e-17
4628.65892 1.70638e-17
4630.12614 1.71233e-17
4631.60354 1.73250e-17
4633.07076 1.77404e-17
4634.53797 1.75550e-17
4636.00519 1.74039e-17
4637.48259 1.78279e-17
4638.94981 1.73401e-17
4640.41703 1.74565e-17
4641.89443 1.80227e-17
4643.36165 1.77696e-17
4644.82886 1.70370e-17
4646.29608 1.76103e-17
4647.77348 1.82031e-17
4649.24070 1.86204e-17
4650.70792 1.84141e-17
4652.17513 1.79827e-17
4653.65254 1.78643e-17
4655.11975 1.87783e-17
4656.58697 1.91387e-17
4658.06437 1.84198e-17
4659.53159 1.86213e-17
4660.99881 1.88235e-17
4662.46602 1.82141e-17
4663.94343 1.74407e-17
4665.41064 1.76844e-17
4666.87786 1.80977e-17
4668.34507 1.82590e-17
4669.82248 1.81112e-17
4671.28970 1.79108e-17
4672.75691 1.79160e-17
4674.23432 1.82114e-17
4675.70153 1.75180e-17
4677.16875 1.73420e-17
4678.63597 1.83342e-17
4680.11337 1.82460e-17
4681.58059 1.77591e-17
4683.04780 1.86169e-17
4684.51502 1.83359e-17
4685.99242 1.76270e-17
4687.45964 1.79804e-17
4688.92685 1.83378e-17
4690.40426 1.73872e-17
4691.87148 1.66952e-17
4693.33869 1.77272e-17
4694.80591 1.76113e-17
4696.28331 1.70174e-17
4697.75053 1.77029e-17
4699.21774 1.78188e-17
4700.68496 1.77191e-17
4702.16237 1.77120e-17
4703.62958 1.73798e-17
4705.09680 1.71901e-17
4706.57420 1.71220e-17
4708.04142 1.73899e-17
4709.50863 1.80942e-17
4710.97585 1.76932e-17
4712.45326 1.75760e-17
4713.92047 1.70096e-17
4715.38769 1.69140e-17
4716.85490 1.75946e-17
4718.33231 1.71227e-17
4719.79952 1.78862e-17
4721.26674 1.73521e-17
4722.74415 1.67766e-17
4724.21136 1.63537e-17
4725.67858 1.66372e-17
4727.14579 1.66850e-17
4728.62320 1.73132e-17
4730.09041 1.79388e-17
4731.55763 1.75560e-17
4733.02485 1.82877e-17
4734.50225 1.79606e-17
4735.96947 1.72926e-17
4737.43668 1.72008e-17
4738.91409 1.72436e-17
4740.38130 1.71832e-17
4741.84852 1.70304e-17
4743.31574 1.74953e-17
4744.79314 1.78609e-17
4746.26036 1.74568e-17
4747.72757 1.66379e-17
4749.19479 1.70943e-17
4750.67220 1.71915e-17
4752.13941 1.63095e-17
4753.60663 1.71261e-17
4755.08403 1.77465e-17
4756.55125 1.67123e-17
4758.01846 1.63936e-17
4759.48568 1.68329e-17
4760.96308 1.70568e-17
4762.43030 1.70549e-17
4763.89752 1.68659e-17
4765.37492 1.71734e-17
4766.84214 1.71472e-17
4768.30935 1.67848e-17
4769.77657 1.66189e-17
4771.25397 1.73638e-17
4772.72119 1.72340e-17
4774.18841 1.69767e-17
4775.65562 1.66400e-17
4777.13303 1.66800e-17
4778.60024 1.69667e-17
4780.06746 1.65688e-17
4781.54486 1.61801e-17
4783.01208 1.63436e-17
4784.47930 1.62774e-17
4785.94651 1.61909e-17
4787.42392 1.65034e-17
4788.89113 1.65488e-17
4790.35835 1.64591e-17
4791.82557 1.65446e-17
4793.30297 1.61093e-17
4794.77019 1.65881e-17
4796.23740 1.72905e-17
4797.70462 1.68547e-17
4799.18202 1.61949e-17
4800.64924 1.67225e-17
4802.11646 1.64154e-17
4803.59386 1.60253e-17
4805.06108 1.63282e-17
4806.52829 1.64881e-17
4807.99551 1.59094e-17
4809.47291 1.56981e-17
4810.94013 1.55326e-17
4812.40735 1.52028e-17
4813.87456 1.55062e-17
4815.35197 1.55860e-17
4816.81918 1.49430e-17
4818.28640 1.48987e-17
4819.76380 1.54088e-17
4821.23102 1.52476e-17
4822.69824 1.48172e-17
4824.16545 1.51159e-17
4825.64286 1.46132e-17
4827.11007 1.47846e-17
4828.57729 1.54127e-17
4830.05469 1.51392e-17
4831.52191 1.45449e-17
4832.98913 1.44436e-17
4834.45634 1.44725e-17
4835.93375 1.43111e-17
4837.40096 1.44024e-17
4838.86818 1.45610e-17
4840.33540 1.40803e-17
4841.81280 1.45740e-17
4843.28002 1.39334e-17
4844.74723 1.38599e-17
4846.22464 1.40303e-17
4847.69185 1.38244e-17
4849.15907 1.41781e-17
4850.62628 1.40911e-17
4852.10369 1.35829e-17
4853.57091 1.31395e-17
4855.03812 1.32048e-17
4856.50534 1.28389e-17
4857.98274 1.29830e-17
4859.44996 1.28104e-17
4860.91717 1.21606e-17
4862.39458 1.23522e-17
4863.86180 1.23591e-17
4865.32901 1.20114e-17
4866.79623 1.24283e-17
4868.27363 1.19717e-17
4869.74085 1.13261e-17
4871.20806 1.12382e-17
4872.67528 1.13387e-17
4874.15269 1.14538e-17
4875.61990 1.10582e-17
4877.08712 1.09839e-17
4878.56452 1.10530e-17
4880.03174 1.09711e-17
4881.49895 1.10824e-17
4882.96617 1.11986e-17
4884.44358 1.07972e-17
4885.91079 1.04657e-17
4887.37801 1.06317e-17
4888.84522 1.06755e-17
4890.32263 1.01838e-17
4891.78984 1.00496e-17
4893.25706 1.04179e-17
4894.73447 1.08189e-17
4896.20168 1.06456e-17
4897.66890 1.04467e-17
4899.13611 1.01149e-17
4900.61352 9.99970e-18
4902.08073 9.87661e-18
4903.54795 9.99715e-18
4905.01517 1.04246e-17
4906.49257 1.03079e-17
4907.95979 1.03825e-17
4909.42700 9.94902e-18
4910.90441 1.00302e-17
4912.37162 1.04981e-17
4913.83884 1.00461e-17
4915.30606 1.01610e-17
4916.78346 1.02291e-17
4918.25068 1.07037e-17
4919.71789 1.01562e-17
4921.18511 1.00240e-17
4922.66251 1.10728e-17
4924.12973 1.11999e-17
4925.59695 1.09468e-17
4927.07435 1.09052e-17
4928.54157 1.06889e-17
4930.00878 1.06086e-17
4931.47600 1.09899e-17
4932.95340 1.16865e-17
4934.42062 1.09476e-17
4935.88784 1.10756e-17
4937.35505 1.18867e-17
4938.83246 1.13182e-17
4940.29967 1.15579e-17
4941.76689 1.12906e-17
4943.24429 1.08845e-17
4944.71151 1.13897e-17
4946.17873 1.07334e-17
4947.64594 1.05647e-17
4949.12335 1.07118e-17
4950.59056 1.07507e-17
4952.05778 1.06909e-17
4953.52500 1.06885e-17
4955.00240 1.09850e-17
4956.46962 1.03267e-17
4957.93683 9.86545e-18
4959.41424 1.02438e-17
4960.88145 1.05600e-17
4962.34867 1.04294e-17
4963.81589 1.09896e-17
4965.29329 1.07181e-17
4966.76051 9.75640e-18
4968.22772 1.03353e-17
4969.70513 1.08725e-17
4971.17234 1.02714e-17
4972.63956 9.64854e-18
4974.10678 9.47873e-18
4975.58418 9.84739e-18
4977.05140 1.01973e-17
4978.51861 1.02769e-17
4979.98583 9.79497e-18
4981.46323 9.25666e-18
4982.93045 9.70321e-18
4984.39767 9.98306e-18
4985.86488 9.89816e-18
4987.34229 1.00919e-17
4988.80950 9.60604e-18
4990.27672 9.11087e-18
4991.75412 9.95784e-18
4993.22134 1.00581e-17
4994.68856 1.01153e-17
4996.15577 1.04278e-17
4997.63318 1.00613e-17
4999.10039 1.02032e-17
5000.56761 1.04562e-17
5002.03482 1.05316e-17
5003.51223 1.01699e-17
5004.97945 9.76407e-18
5006.44666 1.03615e-17
5007.92407 1.04608e-17
5009.39128 1.03323e-17
5010.85850 1.03136e-17
5012.32571 1.02966e-17
5013.80312 1.09190e-17
5015.27034 1.12289e-17
5016.73755 1.10404e-17
5018.20477 1.15431e-17
5019.68217 1.18839e-17
5021.14939 1.20720e-17
5022.61660 1.18274e-17
5024.09401 1.14212e-17
5025.56123 1.11454e-17
5027.02844 1.15192e-17
5028.49566 1.22441e-17
5029.97306 1.27612e-17
5031.44028 1.27350e-17
5032.90749 1.27151e-17
5034.38490 1.30935e-17
5035.85212 1.28889e-17
5037.31933 1.33633e-17
5038.78655 1.32628e-17
5040.26395 1.29279e-17
5041.73117 1.30108e-17
5043.19838 1.27682e-17
5044.66560 1.30924e-17
5046.14301 1.35235e-17
5047.61022 1.32951e-17
5049.07744 1.34719e-17
5050.54465 1.39084e-17
5052.02206 1.43412e-17
5053.48927 1.43079e-17
5054.95649 1.37886e-17
5056.43390 1.37020e-17
5057.90111 1.40038e-17
5059.36833 1.41405e-17
5060.83554 1.37162e-17
5062.31295 1.38323e-17
5063.78017 1.38993e-17
5065.24738 1.40552e-17
5066.72479 1.39535e-17
5068.19200 1.42928e-17
5069.65922 1.44860e-17
5071.12643 1.37430e-17
5072.60384 1.40268e-17
5074.07105 1.41795e-17
5075.53827 1.43726e-17
5077.00549 1.45618e-17
5078.48289 1.41452e-17
5079.95011 1.36926e-17
5081.41732 1.37145e-17
5082.89473 1.41764e-17
5084.36194 1.38692e-17
5085.82916 1.34314e-17
5087.29638 1.37554e-17
5088.77378 1.38988e-17
5090.24100 1.34740e-17
5091.70821 1.37834e-17
5093.17543 1.39470e-17
5094.65283 1.33639e-17
5096.12005 1.32603e-17
5097.58727 1.29384e-17
5099.06467 1.28320e-17
5100.53189 1.29643e-17
5101.99910 1.23952e-17
5103.46632 1.22707e-17
5104.94372 1.22027e-17
5106.41094 1.18293e-17
5107.87816 1.14812e-17
5109.34537 1.14246e-17
5110.82278 1.19609e-17
5112.28999 1.14394e-17
5113.75721 1.12698e-17
5115.23462 1.18083e-17
5116.70183 1.15058e-17
5118.16905 1.11635e-17
5119.63626 1.11388e-17
5121.11367 1.05277e-17
5122.58088 1.02374e-17
5124.04810 1.05694e-17
5125.51532 1.08417e-17
5126.99272 1.04369e-17
5128.45994 9.73600e-18
5129.92715 9.83746e-18
5131.40456 9.68657e-18
5132.87177 9.95481e-18
5134.33899 1.03560e-17
5135.80621 1.04520e-17
5137.28361 1.01052e-17
5138.75083 9.86961e-18
5140.21804 1.01540e-17
5141.68526 9.97409e-18
5143.16266 9.85670e-18
5144.62988 9.95297e-18
5146.09710 9.48963e-18
5147.57450 9.42945e-18
5149.04172 9.98334e-18
5150.50893 9.91402e-18
5151.97615 9.68604e-18
5153.45355 9.70913e-18
5154.92077 9.99604e-18
5156.38799 9.90142e-18
5157.85520 1.00626e-17
5159.33261 1.00695e-17
5160.79982 1.04413e-17
5162.26704 1.04266e-17
5163.74444 1.00062e-17
5165.21166 1.02635e-17
5166.67888 1.03876e-17
5168.14609 1.00179e-17
5169.62350 9.14755e-18
5171.09071 9.04847e-18
5172.55793 9.31501e-18
5174.02514 1.06139e-17
5175.50255 1.11762e-17
5176.96977 1.07060e-17
5178.43698 1.06175e-17
5179.91439 1.07841e-17
5181.38160 1.06768e-17
5182.84882 1.08154e-17
5184.31603 1.13439e-17
5185.79344 1.15431e-17
5187.26066 1.14401e-17
5188.72787 1.15221e-17
5190.19509 1.17359e-17
5191.67249 1.17356e-17
5193.13971 1.21206e-17
5194.60692 1.20422e-17
5196.08433 1.16997e-17
5197.55155 1.13688e-17
5199.01876 1.15192e-17
5200.48598 1.20244e-17
5201.96338 1.24853e-17
5203.43060 1.18405e-17
5204.89782 1.13980e-17
5206.36503 1.16574e-17
5207.84244 1.24574e-17
5209.30965 1.23373e-17
5210.77687 1.19393e-17
5212.25427 1.24432e-17
5213.72149 1.31297e-17
5215.18870 1.27608e-17
5216.65592 1.16345e-17
5218.13333 1.24051e-17
5219.60054 1.28262e-17
5221.06776 1.22651e-17
5222.53497 1.19385e-17
5224.01238 1.20936e-17
5225.47959 1.25719e-17
5226.94681 1.27303e-17
5228.42422 1.23173e-17
5229.89143 1.20894e-17
5231.35865 1.23849e-17
5232.82586 1.22838e-17
5234.30327 1.24594e-17
5235.77048 1.28091e-17
5237.23770 1.28505e-17
5238.70492 1.24887e-17
5240.18232 1.21924e-17
5241.64954 1.25804e-17
5243.11675 1.27445e-17
5244.59416 1.22991e-17
5246.06137 1.21561e-17
5247.52859 1.23929e-17
5248.99581 1.18341e-17
5250.47321 1.21205e-17
5251.94043 1.16829e-17
5253.40764 1.26246e-17
5254.87486 1.32695e-17
5256.35226 1.26460e-17
5257.81948 1.24064e-17
5259.28670 1.22890e-17
5260.76410 1.21194e-17
5262.23132 1.15629e-17
5263.69853 1.16345e-17
5265.16575 1.22511e-17
5266.64315 1.23101e-17
5268.11037 1.17177e-17
5269.57759 1.18878e-17
5271.04480 1.20327e-17
5272.52221 1.19118e-17
5273.98942 1.20289e-17
5275.45664 1.25590e-17
5276.93404 1.21448e-17
5278.40126 1.22121e-17
5279.86848 1.25076e-17
5281.33569 1.28365e-17
5282.81310 1.19109e-17
5284.28031 1.21239e-17
5285.74753 1.19752e-17
5287.22493 1.23287e-17
5288.69215 1.27309e-17
5290.15937 1.22888e-17
5291.62658 1.21913e-17
5293.10399 1.22447e-17
5294.57120 1.20491e-17
5296.03842 1.18869e-17
5297.50564 1.26030e-17
5298.98304 1.21574e-17
5300.45026 1.18647e-17
5301.91747 1.23500e-17
5303.39488 1.23477e-17
5304.86209 1.26464e-17
5306.32931 1.27934e-17
5307.79653 1.26142e-17
5309.27393 1.25997e-17
5310.74115 1.27698e-17
5312.20836 1.29801e-17
5313.67558 1.21575e-17
5315.15298 1.19190e-17
5316.62020 1.17085e-17
5318.08742 1.15651e-17
5319.56482 1.22972e-17
5321.03204 1.29790e-17
5322.49925 1.27790e-17
5323.96647 1.23983e-17
5325.44387 1.28616e-17
5326.91109 1.26456e-17
5328.37831 1.28855e-17
5329.84552 1.29918e-17
5331.32293 1.24917e-17
5332.79014 1.32709e-17
5334.25736 1.36545e-17
5335.72457 1.35097e-17
5337.20198 1.34229e-17
5338.66920 1.30811e-17
5340.13641 1.27797e-17
5341.61382 1.30927e-17
5343.08103 1.36882e-17
5344.54825 1.39657e-17
5346.01546 1.31539e-17
5347.49287 1.33162e-17
5348.96009 1.37728e-17
5350.42730 1.38752e-17
5351.89452 1.38752e-17
5353.37192 1.38880e-17
5354.83914 1.37984e-17
5356.30635 1.32928e-17
5357.78376 1.37550e-17
5359.25098 1.35705e-17
5360.71819 1.38444e-17
5362.18541 1.37589e-17
5363.66281 1.40484e-17
5365.13003 1.41735e-17
5366.59724 1.44406e-17
5368.07465 1.41122e-17
5369.54187 1.42585e-17
5371.00908 1.42360e-17
5372.47630 1.34816e-17
5373.95370 1.37594e-17
5375.42092 1.42213e-17
5376.88813 1.44268e-17
5378.35535 1.41908e-17
5379.83276 1.37718e-17
5381.29997 1.43824e-17
5382.76719 1.43813e-17
5384.24459 1.44963e-17
5385.71181 1.45226e-17
5387.17902 1.40678e-17
5388.64624 1.35954e-17
5390.12365 1.39381e-17
5391.59086 1.43685e-17
5393.05808 1.44008e-17
5394.52529 1.39580e-17
5396.00270 1.41102e-17
5397.46991 1.38418e-17
5398.93713 1.41206e-17
5400.41454 1.40390e-17
5401.88175 1.47853e-17
5403.34897 1.45787e-17
5404.81618 1.42471e-17
5406.29359 1.41123e-17
5407.76080 1.38392e-17
5409.22802 1.37244e-17
5410.69524 1.36459e-17
5412.17264 1.33861e-17
5413.63986 1.35412e-17
5415.10707 1.34589e-17
5416.58448 1.36812e-17
5418.05170 1.37579e-17
5419.51891 1.33374e-17
5420.98613 1.39168e-17
5422.46353 1.35987e-17
5423.93075 1.32255e-17
5425.39796 1.34850e-17
5426.86518 1.37107e-17
5428.34258 1.40515e-17
5429.80980 1.37333e-17
5431.27702 1.33366e-17
5432.75442 1.36141e-17
5434.22164 1.38500e-17
5435.68885 1.39594e-17
5437.15607 1.37828e-17
5438.63347 1.35159e-17
5440.10069 1.36400e-17
5441.56791 1.28409e-17
5443.03512 1.31794e-17
5444.51253 1.33690e-17
5445.97974 1.31187e-17
5447.44696 1.37232e-17
5448.92436 1.33493e-17
5450.39158 1.34066e-17
5451.85880 1.33002e-17
5453.32601 1.31440e-17
5454.80342 1.30340e-17
5456.27063 1.31603e-17
5457.73785 1.38401e-17
5459.20507 1.38059e-17
5460.68247 1.37116e-17
5462.14969 1.37037e-17
5463.61690 1.34633e-17
5465.09431 1.37453e-17
5466.56152 1.33518e-17
5468.02874 1.26600e-17
5469.49596 1.23320e-17
5470.97336 1.22028e-17
5472.44058 1.23578e-17
5473.90779 1.25852e-17
5475.37501 1.27398e-17
5476.85241 1.25982e-17
5478.31963 1.26450e-17
5479.78685 1.25006e-17
5481.26425 1.25301e-17
5482.73147 1.21568e-17
5484.19868 1.22328e-17
5485.66590 1.26207e-17
5487.14330 1.21489e-17
5488.61052 1.22563e-17
5490.07774 1.22026e-17
5491.54495 1.20437e-17
5493.02236 1.23785e-17
5494.48957 1.25230e-17
5495.95679 1.22281e-17
5497.43419 1.30183e-17
5498.90141 1.31691e-17
5500.36863 1.24133e-17
5501.83584 1.23040e-17
5503.31325 1.19056e-17
5504.78046 1.20735e-17
5506.24768 1.21357e-17
5507.72508 1.17311e-17
5509.19230 1.13646e-17
5510.65952 1.15371e-17
5512.12673 1.17819e-17
5513.60414 1.19290e-17
5515.07135 1.18828e-17
5516.53857 1.17115e-17
5518.00578 1.17671e-17
5519.48319 1.18204e-17
5520.95041 1.16605e-17
5522.41762 1.15958e-17
5523.88484 1.14799e-17
5525.36224 1.12431e-17
5526.82946 1.18354e-17
5528.29667 1.22328e-17
5529.77408 1.16793e-17
5531.24130 1.16633e-17
5532.70851 1.13727e-17
5534.17573 1.10098e-17
5535.65313 1.13519e-17
5537.12035 1.17373e-17
5538.58756 1.22527e-17
5540.05478 1.16722e-17
5541.53219 1.15972e-17
5542.99940 1.19205e-17
5544.46662 1.18885e-17
5545.94402 1.20093e-17
5547.41124 1.21620e-17
5548.87845 1.16861e-17
5550.34567 1.17964e-17
5551.82308 1.22692e-17
5553.29029 1.24049e-17
5554.75751 1.24177e-17
5556.23491 1.22696e-17
5557.70213 1.20150e-17
5559.16934 1.21818e-17
5560.63656 1.21972e-17
5562.11397 1.22130e-17
5563.58118 1.21950e-17
5565.04840 1.19994e-17
5566.51561 1.21911e-17
5567.99302 1.18199e-17
5569.46023 1.17048e-17
5570.92745 1.14884e-17
5572.40486 1.17330e-17
5573.87207 1.22992e-17
5575.33929 1.27337e-17
5576.80650 1.19336e-17
5578.28391 1.09136e-17
5579.75112 1.14457e-17
5581.21834 1.14127e-17
5582.68556 1.17573e-17
5584.16296 1.19128e-17
5585.63018 1.19192e-17
5587.09739 1.19265e-17
5588.56461 1.20795e-17
5590.04201 1.23810e-17
5591.50923 1.22613e-17
5592.97645 1.20673e-17
5594.45385 1.19216e-17
5595.92107 1.19939e-17
5597.38828 1.19065e-17
5598.85550 1.21064e-17
5600.33290 1.19812e-17
5601.80012 1.25175e-17
5603.26734 1.20649e-17
5604.74474 1.22841e-17
5606.21196 1.22584e-17
5607.67917 1.20632e-17
5609.14639 1.21773e-17
5610.62379 1.15795e-17
5612.09101 1.17720e-17
5613.55823 1.19708e-17
5615.02544 1.18476e-17
5616.50285 1.14129e-17
5617.97006 1.22500e-17
5619.43728 1.22406e-17
5620.91468 1.14529e-17
5622.38190 1.16440e-17
5623.84912 1.15107e-17
5625.31633 1.18307e-17
5626.79374 1.17659e-17
5628.26095 1.12954e-17
5629.72817 1.14291e-17
5631.19539 1.16249e-17
5632.67279 1.14671e-17
5634.14001 1.11962e-17
5635.60722 1.10784e-17
5637.08463 1.15535e-17
5638.55184 1.19403e-17
5640.01906 1.16398e-17
5641.48628 1.17308e-17
5642.96368 1.13365e-17
5644.43090 1.15408e-17
5645.89811 1.18125e-17
5647.36533 1.20199e-17
5648.84273 1.20308e-17
5650.30995 1.16509e-17
5651.77717 1.09783e-17
5653.25457 1.10536e-17
5654.72179 1.15097e-17
5656.18900 1.12354e-17
5657.65622 1.12941e-17
5659.13362 1.10584e-17
5660.60084 1.12902e-17
5662.06806 1.13923e-17
5663.53527 1.08833e-17
5665.01268 1.07536e-17
5666.47989 1.09133e-17
5667.94711 1.16587e-17
5669.42451 1.12116e-17
5670.89173 1.08687e-17
5672.35895 1.08606e-17
5673.82616 1.09259e-17
5675.30357 1.05495e-17
5676.77078 1.04202e-17
5678.23800 1.10687e-17
5679.70521 1.10171e-17
5681.18262 1.06738e-17
5682.64984 1.08358e-17
5684.11705 1.07652e-17
5685.59446 1.07071e-17
5687.06167 1.09372e-17
5688.52889 1.08541e-17
5689.99610 1.10817e-17
5691.47351 1.11026e-17
5692.94073 1.07594e-17
5694.40794 1.11170e-17
5695.87516 1.11976e-17
5697.35256 1.05280e-17
5698.81978 1.07039e-17
5700.28699 1.10277e-17
5701.76440 1.09562e-17
5703.23162 1.09375e-17
5704.69883 1.05976e-17
5706.16605 1.03969e-17
5707.64345 1.07268e-17
5709.11067 1.08465e-17
5710.57788 1.05866e-17
5712.04510 1.05096e-17
5713.52251 1.07123e-17
5714.98972 1.02636e-17
5716.45694 1.01017e-17
5717.93434 1.08155e-17
5719.40156 1.11035e-17
5720.86877 1.07713e-17
5722.33599 1.05799e-17
5723.81340 1.10329e-17
5725.28061 1.08606e-17
5726.74783 1.06017e-17
5728.21504 1.06238e-17
5729.69245 1.08052e-17
5731.15967 1.09630e-17
5732.62688 1.06398e-17
5734.10429 1.05670e-17
5735.57150 1.04579e-17
5737.03872 1.05594e-17
5738.50593 1.04499e-17
5739.98334 1.00439e-17
5741.45055 1.04221e-17
5742.91777 1.07663e-17
5744.38499 1.05059e-17
5745.86239 1.04870e-17
5747.32961 1.04424e-17
5748.79682 1.04405e-17
5750.27423 1.06063e-17
5751.74144 1.04074e-17
5753.20866 1.03183e-17
5754.67588 1.04459e-17
5756.15328 1.05907e-17
5757.62050 1.08394e-17
5759.08771 1.04281e-17
5760.55493 1.04856e-17
5762.03233 1.10558e-17
5763.49955 1.09427e-17
5764.96677 1.06849e-17
5766.44417 1.02246e-17
5767.91139 1.05664e-17
5769.37860 1.02674e-17
5770.84582 9.90048e-18
5772.32322 1.01106e-17
5773.79044 9.87448e-18
5775.25766 1.02012e-17
5776.72487 1.00840e-17
5778.20228 1.00290e-17
5779.66949 9.56317e-18
5781.13671 9.43264e-18
5782.61412 9.90243e-18
5784.08133 9.76045e-18
5785.54855 9.22063e-18
5787.01576 9.72687e-18
5788.49317 9.61762e-18
5789.96038 9.36118e-18
5791.42760 9.22371e-18
5792.89482 8.70470e-18
5794.37222 8.86556e-18
5795.83944 9.16917e-18
5797.30665 8.97951e-18
5798.78406 8.12873e-18
5800.25127 8.44579e-18
5801.71849 8.92815e-18
5803.18571 9.05113e-18
5804.66311 8.09693e-18
5806.13033 8.00647e-18
5807.59754 8.62363e-18
5809.06476 8.71734e-18
5810.54216 8.41197e-18
5812.00938 8.24765e-18
5813.47660 8.04181e-18
5814.95400 7.81651e-18
5816.42122 7.19383e-18
5817.88843 7.03829e-18
5819.35565 6.98349e-18
5820.83305 6.92611e-18
5822.30027 6.71863e-18
5823.76749 7.49304e-18
5825.24489 7.05411e-18
5826.71211 6.64109e-18
5828.17932 7.00895e-18
5829.64654 6.75082e-18
5831.12394 6.97072e-18
5832.59116 7.09168e-18
5834.05838 6.51298e-18
5835.52559 6.32727e-18
5837.00300 6.48048e-18
5838.47021 6.78484e-18
5839.93743 6.74432e-18
5841.41483 6.69901e-18
5842.88205 6.44979e-18
5844.34927 6.53164e-18
5845.81648 6.48075e-18
5847.29389 6.32391e-18
5848.76110 6.76310e-18
5850.22832 6.63619e-18
5851.69553 6.57007e-18
5853.17294 6.80646e-18
5854.64016 7.26397e-18
5856.10737 6.69162e-18
5857.58478 6.53795e-18
5859.05199 6.81058e-18
5860.51921 6.99065e-18
5861.98642 7.07893e-18
5863.46383 7.03195e-18
5864.93105 7.35445e-18
5866.39826 7.42003e-18
5867.86548 6.91232e-18
5869.34288 7.19710e-18
5870.81010 7.50820e-18
5872.27732 7.67917e-18
5873.74453 7.80509e-18
5875.22194 8.13749e-18
5876.68915 8.30864e-18
5878.15637 8.27459e-18
5879.63377 8.45409e-18
5881.10099 8.47312e-18
5882.56820 8.93891e-18
5884.03542 9.55151e-18
5885.51283 9.47947e-18
5886.98004 9.42855e-18
5888.44726 9.27151e-18
5889.92466 9.31587e-18
5891.39188 1.01826e-17
5892.85909 9.99115e-18
5894.32631 1.00750e-17
5895.80372 1.00236e-17
5897.27093 1.03648e-17
5898.73815 1.05175e-17
5900.20536 1.08415e-17
5901.68277 1.07929e-17
5903.14998 1.06818e-17
5904.61720 1.07741e-17
5906.09461 1.09728e-17
5907.56182 1.14119e-17
5909.02904 1.14500e-17
5910.49625 1.13407e-17
5911.97366 1.14353e-17
5913.44087 1.17192e-17
5914.90809 1.18866e-17
5916.37531 1.21585e-17
5917.85271 1.24141e-17
5919.31993 1.23108e-17
5920.78714 1.20832e-17
5922.26455 1.19327e-17
5923.73176 1.21876e-17
5925.19898 1.26452e-17
5926.66620 1.26635e-17
5928.14360 1.27056e-17
5929.61082 1.27054e-17
5931.07803 1.24065e-17
5932.54525 1.22598e-17
5934.02265 1.24671e-17
5935.48987 1.25069e-17
5936.95709 1.25881e-17
5938.43449 1.27914e-17
5939.90171 1.27363e-17
5941.36892 1.28946e-17
5942.83614 1.28933e-17
5944.31354 1.31838e-17
5945.78076 1.33438e-17
5947.24798 1.30481e-17
5948.71519 1.32462e-17
5950.19260 1.31226e-17
5951.65981 1.27369e-17
5953.12703 1.30993e-17
5954.60443 1.32842e-17
5956.07165 1.32399e-17
5957.53887 1.36641e-17
5959.00608 1.36030e-17
5960.48349 1.29161e-17
5961.95070 1.30535e-17
5963.41792 1.39356e-17
5964.88514 1.38147e-17
5966.36254 1.32237e-17
5967.82976 1.27684e-17
5969.29697 1.25263e-17
5970.77438 1.29856e-17
5972.24159 1.36222e-17
5973.70881 1.31572e-17
5975.17603 1.27258e-17
5976.65343 1.28995e-17
5978.12065 1.31144e-17
5979.58786 1.33788e-17
5981.05508 1.34464e-17
5982.53248 1.30516e-17
5983.99970 1.33858e-17
5985.46692 1.30538e-17
5986.94432 1.28969e-17
5988.41154 1.27769e-17
5989.87875 1.25873e-17
5991.34597 1.29757e-17
5992.82337 1.25969e-17
5994.29059 1.27223e-17
5995.75781 1.26122e-17
5997.22502 1.20795e-17
5998.70243 1.17944e-17
6000.16964 1.16059e-17
6001.63686 1.20292e-17
6003.11426 1.23243e-17
6004.58148 1.21852e-17
6006.04870 1.21932e-17
6007.51591 1.23011e-17
6008.99332 1.26432e-17
6010.46053 1.25755e-17
6011.92775 1.21212e-17
6013.39496 1.22891e-17
6014.87237 1.25783e-17
6016.33959 1.28995e-17
6017.80680 1.27676e-17
6019.28421 1.27306e-17
6020.75142 1.23434e-17
6022.21864 1.23107e-17
6023.68585 1.24284e-17
6025.16326 1.23148e-17
6026.63048 1.22903e-17
6028.09769 1.20159e-17
6029.56491 1.19350e-17
6031.04231 1.19372e-17
6032.50953 1.23849e-17
6033.97674 1.20036e-17
6035.45415 1.21176e-17
6036.92137 1.22174e-17
6038.38858 1.20016e-17
6039.85580 1.20065e-17
6041.33320 1.18108e-17
6042.80042 1.24711e-17
6044.26763 1.23766e-17
6045.74504 1.19638e-17
6047.21226 1.17376e-17
6048.67947 1.14530e-17
6050.14669 1.12644e-17
6051.62409 1.09556e-17
6053.09131 1.20056e-17
6054.55852 1.20611e-17
6056.02574 1.15598e-17
6057.50315 1.16966e-17
6058.97036 1.19910e-17
6060.43758 1.15601e-17
6061.90479 1.18728e-17
6063.38220 1.14888e-17
6064.84941 1.14617e-17
6066.31663 1.12493e-17
6067.79404 1.11926e-17
6069.26125 1.14077e-17
6070.72847 1.13564e-17
6072.19568 1.13205e-17
6073.67309 1.09676e-17
6075.14030 1.12107e-17
6076.60752 1.12808e-17
6078.07474 1.09293e-17
6079.55214 1.09635e-17
6081.01936 1.08270e-17
6082.48657 1.06816e-17
6083.96398 1.05995e-17
6085.43120 1.07837e-17
6086.89841 1.11129e-17
6088.36563 1.09644e-17
6089.84303 1.08672e-17
6091.31025 1.08621e-17
6092.77746 1.09161e-17
6094.25487 1.03574e-17
6095.72208 1.04916e-17
6097.18930 1.06679e-17
6098.65652 1.04465e-17
6100.13392 1.08073e-17
6101.60114 1.05693e-17
6103.06835 1.00209e-17
6104.53557 1.01201e-17
6106.01297 1.04955e-17
6107.48019 1.03577e-17
6108.94741 1.03169e-17
6110.42481 1.03447e-17
6111.89203 1.01301e-17
6113.35924 1.03861e-17
6114.82646 1.02165e-17
6116.30386 1.00939e-17
6117.77108 1.05933e-17
6119.23830 1.06082e-17
6120.70551 1.05748e-17
6122.18292 1.05382e-17
6123.65013 1.02353e-17
6125.11735 1.08275e-17
6126.58457 1.08707e-17
6128.06197 1.00605e-17
6129.52919 9.79082e-18
6130.99640 1.02005e-17
6132.47381 1.04096e-17
6133.94102 1.01776e-17
6135.40824 1.01864e-17
6136.87546 9.94924e-18
6138.35286 9.98587e-18
6139.82008 1.02823e-17
6141.28729 1.00193e-17
6142.75451 9.92205e-18
6144.23191 9.72140e-18
6145.69913 9.72578e-18
6147.16635 9.97186e-18
6148.64375 9.63304e-18
6150.11097 9.50109e-18
6151.57818 1.01023e-17
6153.04540 1.03140e-17
6154.52280 9.92979e-18
6155.99002 9.36791e-18
6157.45724 9.26688e-18
6158.93464 9.44395e-18
6160.40186 9.53087e-18
6161.86907 9.66880e-18
6163.33629 9.53633e-18
6164.81369 9.46889e-18
6166.28091 9.34667e-18
6167.74813 9.15142e-18
6169.21534 9.35681e-18
6170.69275 9.70138e-18
6172.15996 9.50453e-18
6173.62718 9.75294e-18
6175.10458 9.78623e-18
6176.57180 9.58861e-18
6178.03902 9.50891e-18
6179.50623 9.65422e-18
6180.98364 9.38499e-18
6182.45085 9.17230e-18
6183.91807 9.17639e-18
6185.38528 9.56994e-18
6186.86269 9.58176e-18
6188.32991 9.16731e-18
6189.79712 9.10098e-18
6191.27453 9.16813e-18
6192.74174 9.40457e-18
6194.20896 9.48058e-18
6195.67617 9.81923e-18
6197.15358 9.60141e-18
6198.62080 8.96194e-18
6200.08801 9.17149e-18
6201.55523 9.20705e-18
6203.03263 9.10986e-18
6204.49985 9.35271e-18
6205.96706 9.05915e-18
6207.44447 8.89027e-18
6208.91169 9.36609e-18
6210.37890 9.23984e-18
6211.84612 9.07713e-18
6213.32352 9.39422e-18
6214.79074 9.44627e-18
6216.25795 9.25813e-18
6217.72517 9.01192e-18
6219.20258 9.04829e-18
6220.66979 9.65956e-18
6222.13701 9.72191e-18
6223.61441 9.21252e-18
6225.08163 8.89144e-18
6226.54884 9.13675e-18
6228.01606 8.95820e-18
6229.49347 9.15190e-18
6230.96068 9.92159e-18
6232.42790 9.26249e-18
6233.89511 8.90479e-18
6235.37252 9.34538e-18
6236.83973 9.26076e-18
6238.30695 8.86018e-18
6239.78436 9.00092e-18
6241.25157 8.98373e-18
6242.71879 8.88694e-18
6244.18600 9.01913e-18
6245.66341 8.94981e-18
6247.13062 9.04272e-18
6248.59784 9.06742e-18
6250.06506 9.22813e-18
6251.54246 9.25450e-18
6253.00968 9.29280e-18
6254.47689 9.15144e-18
6255.95430 9.26993e-18
6257.42151 8.98804e-18
6258.88873 8.79066e-18
6260.35595 8.76695e-18
6261.83335 9.05916e-18
6263.30057 8.96573e-18
6264.76778 8.87760e-18
6266.23500 9.01873e-18
6267.71240 8.99424e-18
6269.17962 8.67212e-18
6270.64684 9.12834e-18
6272.12424 9.00980e-18
6273.59146 8.95161e-18
6275.05867 8.87228e-18
6276.52589 8.86901e-18
6278.00329 8.46091e-18
6279.47051 9.07954e-18
6280.93773 9.85028e-18
6282.41513 9.59818e-18
6283.88235 9.12522e-18
6285.34956 9.13743e-18
6286.81678 9.23611e-18
6288.29418 9.13305e-18
6289.76140 8.83316e-18
6291.22862 9.17856e-18
6292.69583 9.32809e-18
6294.17324 9.15934e-18
6295.64045 9.72393e-18
6297.10767 1.02789e-17
6298.57489 9.61211e-18
6300.05229 8.07265e-18
6301.51951 8.67399e-18
6302.98672 9.34478e-18
6304.46413 8.86043e-18
6305.93134 8.29851e-18
6307.39856 8.17993e-18
6308.86578 8.52085e-18
6310.34318 8.43960e-18
6311.81040 8.43244e-18
6313.27761 8.41626e-18
6314.74483 8.52099e-18
6316.22223 8.72676e-18
6317.68945 8.41142e-18
6319.15667 8.11921e-18
6320.63407 8.02052e-18
6322.10129 8.26423e-18
6323.56850 8.59481e-18
6325.03572 8.27624e-18
6326.51312 8.44847e-18
6327.98034 8.51629e-18
6329.44756 8.12788e-18
6330.91477 7.98999e-18
6332.39218 7.86798e-18
6333.85939 7.97753e-18
6335.32661 8.00807e-18
6336.80401 7.97305e-18
6338.27123 8.08122e-18
6339.73845 7.91550e-18
6341.20566 7.73872e-18
6342.68307 7.50893e-18
6344.15028 7.49401e-18
6345.61750 7.53350e-18
6347.08471 7.42194e-18
6348.56212 7.41463e-18
6350.02934 7.39698e-18
6351.49655 7.61092e-18
6352.97396 7.73076e-18
6354.44117 7.38717e-18
6355.90839 7.06905e-18
6357.37560 7.42420e-18
6358.85301 7.46664e-18
6360.32023 7.11786e-18
6361.78744 7.65835e-18
6363.25466 7.59638e-18
6364.73206 6.94822e-18
6366.19928 7.16664e-18
6367.66649 7.31403e-18
6369.14390 7.07458e-18
6370.61112 7.20397e-18
6372.07833 7.41712e-18
6373.54555 7.09044e-18
6375.02295 6.93529e-18
6376.49017 7.23794e-18
6377.95738 7.30634e-18
6379.43479 7.17430e-18
6380.90201 7.34859e-18
6382.36922 7.59869e-18
6383.83644 7.42876e-18
6385.31384 7.24940e-18
6386.78106 7.22649e-18
6388.24827 7.31584e-18
6389.71549 7.46026e-18
6391.19290 7.82019e-18
6392.66011 8.03008e-18
6394.12733 8.01978e-18
6395.60473 7.70276e-18
6397.07195 7.21199e-18
6398.53917 7.08285e-18
6400.00638 7.34772e-18
6401.48379 7.60509e-18
6402.95100 7.46082e-18
6404.41822 7.53665e-18
6405.88543 7.79943e-18
6407.36284 7.82587e-18
6408.83005 7.88796e-18
6410.29727 7.84047e-18
6411.76449 7.50711e-18
6413.24189 7.32968e-18
6414.70911 7.40641e-18
6416.17632 7.69694e-18
6417.65373 7.81168e-18
6419.12094 7.76823e-18
6420.58816 7.96586e-18
6422.05538 8.17734e-18
6423.53278 8.05172e-18
6425.00000 7.88823e-18
6426.46721 7.96303e-18
6427.94462 8.06352e-18
6429.41183 7.84828e-18
6430.87905 7.79228e-18
6432.34627 7.61518e-18
6433.82367 7.74141e-18
6435.29089 7.97236e-18
6436.75810 7.87795e-18
6438.22532 7.78309e-18
6439.70272 8.10317e-18
6441.16994 8.26381e-18
6442.63716 8.15369e-18
6444.11456 8.03173e-18
6445.58178 8.13644e-18
6447.04899 8.25592e-18
6448.51621 8.41064e-18
6449.99361 8.44513e-18
6451.46083 8.33191e-18
6452.92805 8.72172e-18
6454.39526 8.65074e-18
6455.87267 8.27993e-18
6457.33988 8.24328e-18
6458.80710 8.46076e-18
6460.28450 8.59861e-18
6461.75172 8.63809e-18
6463.21894 8.22042e-18
6464.68615 7.96158e-18
6466.16356 7.73254e-18
6467.63077 8.52193e-18
6469.09799 8.64440e-18
6470.56521 8.50475e-18
6472.04261 8.38573e-18
6473.50983 8.64641e-18
6474.97704 8.71642e-18
6476.45445 8.43081e-18
6477.92166 8.54381e-18
6479.38888 8.46942e-18
6480.85610 8.43736e-18
6482.33350 8.67822e-18
6483.80072 8.63065e-18
6485.26793 9.01620e-18
6486.73515 9.96059e-18
6488.21255 9.78177e-18
6489.67977 9.02700e-18
6491.14699 8.84482e-18
6492.62439 8.62866e-18
6494.09161 9.02115e-18
6495.55882 9.08459e-18
6497.02604 8.65596e-18
6498.50344 8.72718e-18
6499.97066 9.20962e-18
6501.43788 9.16324e-18
6502.90509 9.01975e-18
6504.38250 8.91249e-18
6505.84971 8.38568e-18
6507.31693 8.35328e-18
6508.79433 8.54836e-18
6510.26155 8.62773e-18
6511.72877 8.64781e-18
6513.19598 8.37819e-18
6514.67339 8.58133e-18
6516.14060 9.12846e-18
6517.60782 8.79003e-18
6519.07503 8.09087e-18
6520.55244 7.98574e-18
6522.01966 8.23270e-18
6523.48687 8.36879e-18
6524.96428 8.25984e-18
6526.43149 8.27585e-18
6527.89871 8.54461e-18
6529.36592 8.66369e-18
6530.84333 8.86152e-18
6532.31055 8.77701e-18
6533.77776 8.52682e-18
6535.24498 8.54162e-18
6536.72238 8.46032e-18
6538.18960 8.55498e-18
6539.65682 8.57139e-18
6541.13422 8.57913e-18
6542.60144 8.30406e-18
6544.06865 8.35150e-18
6545.53587 8.75452e-18
6547.01327 8.69111e-18
6548.48049 8.48809e-18
6549.94770 8.53877e-18
6551.41492 8.58024e-18
6552.89233 8.75812e-18
6554.35954 8.50262e-18
6555.82676 7.94722e-18
6557.30416 8.17388e-18
6558.77138 8.35135e-18
6560.23859 8.50883e-18
6561.70581 8.57267e-18
6563.18322 8.12558e-18
6564.65043 8.32221e-18
6566.11765 8.69570e-18
6567.58486 8.24242e-18
6569.06227 8.03270e-18
6570.52948 8.15904e-18
6571.99670 8.26635e-18
6573.47411 8.45452e-18
6574.94132 8.21081e-18
6576.40854 8.01977e-18
6577.87575 8.07675e-18
6579.35316 8.28940e-18
6580.82037 8.51695e-18
6582.28759 8.48062e-18
6583.75481 8.31936e-18
6585.23221 8.14934e-18
6586.69943 7.89765e-18
6588.16664 8.13917e-18
6589.64405 8.50513e-18
6591.11126 8.30366e-18
6592.57848 7.76728e-18
6594.04570 7.47667e-18
6595.52310 7.73746e-18
6596.99032 7.59781e-18
6598.45753 7.29723e-18
6599.92475 7.54810e-18
6601.40215 7.37520e-18
6602.86937 7.52643e-18
6604.33659 8.02724e-18
6605.81399 7.60699e-18
6607.28121 7.53116e-18
6608.74842 7.41854e-18
6610.21564 7.20842e-18
6611.69304 7.58204e-18
6613.16026 7.50153e-18
6614.62748 7.20900e-18
6616.10488 7.06299e-18
6617.57210 7.10725e-18
6619.03931 6.97046e-18
6620.50653 6.83470e-18
6621.98393 7.10792e-18
6623.45115 7.40573e-18
6624.91837 6.93106e-18
6626.38558 7.04183e-18
6627.86299 7.00991e-18
6629.33020 6.95501e-18
6630.79742 6.67826e-18
6632.27482 6.43103e-18
6633.74204 6.62204e-18
6635.20926 6.44774e-18
6636.67647 6.61809e-18
6638.15388 6.71097e-18
6639.62109 6.40481e-18
6641.08831 6.39854e-18
6642.55553 6.09639e-18
6644.03293 5.88458e-18
6645.50015 5.98876e-18
6646.96736 6.19936e-18
6648.44477 6.51450e-18
6649.91198 6.37637e-18
6651.37920 5.98964e-18
6652.84642 5.74457e-18
6654.32382 6.11375e-18
6655.79104 6.16606e-18
6657.25825 6.08653e-18
6658.72547 6.13352e-18
6660.20287 6.28564e-18
6661.67009 6.17457e-18
6663.13731 5.99303e-18
6664.60452 6.06632e-18
6666.08193 6.30210e-18
6667.54914 6.27820e-18
6669.01636 6.38863e-18
6670.49376 6.69817e-18
6671.96098 6.35357e-18
6673.42820 6.05222e-18
6674.89541 6.22028e-18
6676.37282 6.48934e-18
6677.84003 6.59428e-18
6679.30725 6.82770e-18
6680.77446 6.68112e-18
6682.25187 6.99113e-18
6683.71909 7.17964e-18
6685.18630 6.89624e-18
6686.66371 6.87757e-18
6688.13092 6.81492e-18
6689.59814 7.08174e-18
6691.06535 7.11050e-18
6692.54276 7.55963e-18
6694.00998 7.62225e-18
6695.47719 7.18506e-18
6696.95460 7.04553e-18
6698.42181 6.95583e-18
6699.88903 7.05584e-18
6701.35624 7.40375e-18
6702.83365 7.50450e-18
6704.30087 7.72188e-18
6705.76808 7.54651e-18
6707.23530 7.38281e-18
6708.71270 8.15725e-18
6710.17992 8.05175e-18
6711.64713 7.75921e-18
6713.12454 7.79358e-18
6714.59176 7.93751e-18
6716.05897 7.91542e-18
6717.52619 7.81058e-18
6719.00359 7.94560e-18
6720.47081 7.95232e-18
6721.93802 8.22955e-18
6723.40524 8.56732e-18
6724.88265 8.64129e-18
6726.34986 8.51869e-18
6727.81708 8.24832e-18
6729.29448 8.57578e-18
6730.76170 8.74040e-18
6732.22891 8.67442e-18
6733.69613 8.83209e-18
6735.17354 9.04166e-18
6736.64075 9.09424e-18
6738.10797 9.01121e-18
6739.57518 8.87983e-18
6741.05259 8.67085e-18
6742.51980 9.27127e-18
6743.98702 8.87637e-18
6745.46443 8.51909e-18
6746.93164 8.71558e-18
6748.39886 8.61636e-18
6749.86607 9.10082e-18
6751.34348 9.21694e-18
6752.81069 9.28976e-18
6754.27791 9.46513e-18
6755.74513 9.41299e-18
6757.22253 9.12705e-18
6758.68975 8.78809e-18
6760.15696 8.90484e-18
6761.63437 9.00746e-18
6763.10158 8.83149e-18
6764.56880 9.10786e-18
6766.03602 9.45755e-18
6767.51342 9.13592e-18
6768.98064 8.87197e-18
6770.44785 8.99510e-18
6771.91507 9.22910e-18
6773.39247 9.26102e-18
6774.85969 8.78441e-18
6776.32691 8.83631e-18
6777.80431 9.15681e-18
6779.27153 9.21730e-18
6780.73874 9.40357e-18
6782.20596 9.60328e-18
6783.68336 9.52470e-18
6785.15058 9.14171e-18
6786.61780 8.92467e-18
6788.08501 9.02960e-18
6789.56242 9.35184e-18
6791.02963 9.39911e-18
6792.49685 9.23867e-18
6793.97425 9.44429e-18
6795.44147 9.53305e-18
6796.90869 9.19662e-18
6798.37590 9.33474e-18
6799.85331 9.25958e-18
6801.32052 8.85770e-18
6802.78774 8.91449e-18
6804.25496 8.91352e-18
6805.73236 8.92658e-18
6807.19958 8.97219e-18
6808.66679 9.12103e-18
6810.14420 8.80875e-18
6811.61141 8.42697e-18
6813.07863 8.93068e-18
6814.54585 9.14361e-18
6816.02325 8.74487e-18
6817.49047 8.83006e-18
6818.95768 8.96732e-18
6820.43509 9.08558e-18
6821.90230 8.95185e-18
6823.36952 8.88673e-18
6824.83674 8.81428e-18
6826.31414 8.67515e-18
6827.78136 8.78117e-18
6829.24857 8.82792e-18
6830.71579 9.27946e-18
6832.19319 9.44798e-18
6833.66041 9.17618e-18
6835.12763 8.88832e-18
6836.60503 8.55229e-18
6838.07225 8.37847e-18
6839.53946 8.48070e-18
6841.00668 8.51731e-18
6842.48408 8.38667e-18
6843.95130 8.38504e-18
6845.41852 8.37963e-18
6846.88573 8.37422e-18
6848.36314 8.36881e-18
6849.83035 8.36340e-18
6851.29757 8.35799e-18
6852.76478 8.35258e-18
6854.24219 8.34717e-18
6855.70941 8.34176e-18
6857.17662 8.33636e-18
6858.65403 8.33095e-18
6860.12124 8.32554e-18
6861.58846 8.32013e-18
6863.05567 8.31473e-18
6864.53308 8.30932e-18
6866.00030 8.30391e-18
6867.46751 8.29850e-18
6868.93473 8.29310e-18
6870.41213 8.28769e-18
6871.87935 8.28229e-18
6873.34656 8.27688e-18
6874.82397 8.27148e-18
6876.29119 8.26607e-18
6877.75840 8.26067e-18
6879.22562 8.25526e-18
6880.70302 8.24986e-18
6882.17024 8.24446e-18
6883.63745 8.23905e-18
6885.11486 8.23365e-18
6886.58208 8.22824e-18
6888.04929 8.22284e-18
6889.51651 8.21744e-18
6890.99391 8.21204e-18
6892.46113 8.20663e-18
6893.92834 8.20123e-18
6895.39556 8.19583e-18
6896.87297 8.19043e-18
6898.34018 8.18503e-18
6899.80740 8.17963e-18
6901.27461 8.17423e-18
6902.75202 8.16882e-18
6904.21923 8.16342e-18
6905.68645 8.15802e-18
6907.16386 8.15262e-18
6908.63107 8.14723e-18
6910.09829 8.14183e-18
6911.56550 8.13643e-18
6913.04291 8.13103e-18
6914.51012 8.12563e-18
6915.97734 8.12023e-18
6917.45475 8.11483e-18
6918.92196 8.10943e-18
6920.38918 8.10403e-18
6921.85639 8.09864e-18
6923.33380 8.09324e-18
6924.80102 8.08785e-18
6926.26823 8.08245e-18
6927.73545 8.07705e-18
6929.21285 8.07165e-18
6930.68007 8.06626e-18
6932.14728 8.06086e-18
6933.62469 8.05547e-18
6935.09190 8.05007e-18
6936.55912 7.71394e-18
6938.02634 7.65338e-18
6939.50374 7.64960e-18
6940.97096 7.51066e-18
6942.43817 7.58597e-18
6943.90539 7.58734e-18
6945.38279 7.44882e-18
6946.85001 7.56324e-18
6948.31723 7.76881e-18
6949.79463 7.83909e-18
6951.26185 7.77446e-18
6952.72906 7.60633e-18
6954.19628 7.50140e-18
6955.67368 7.48356e-18
6957.14090 7.32410e-18
6958.60812 7.48171e-18
6960.07533 7.54079e-18
6961.55274 7.44215e-18
6963.01995 7.56227e-18
6964.48717 7.60445e-18
6965.96457 7.64683e-18
6967.43179 7.89303e-18
6968.89901 7.72533e-18
6970.36622 7.16787e-18
6971.84363 7.35383e-18
6973.31084 7.66767e-18
6974.77806 7.25665e-18
6976.24528 7.51036e-18
6977.72268 7.67570e-18
6979.18990 7.52342e-18
6980.65711 7.54264e-18
6982.13452 7.29494e-18
6983.60173 7.19147e-18
6985.06895 7.22687e-18
6986.53617 6.79064e-18
6988.01357 6.62903e-18
6989.48079 7.23318e-18
6990.94800 7.37558e-18
6992.41522 7.13976e-18
6993.89262 7.23597e-18
6995.35984 7.36438e-18
6996.82706 7.40270e-18
6998.30446 7.28336e-18
6999.77168 7.23707e-18
7001.23889 7.07032e-18
7002.70611 7.13173e-18
7004.18351 7.08969e-18
7005.65073 7.02187e-18
7007.11795 6.97858e-18
7008.58516 7.05415e-18
7010.06257 6.99117e-18
7011.52978 6.92927e-18
7012.99700 7.05825e-18
7014.47440 6.95020e-18
7015.94162 6.63019e-18
7017.40884 7.05321e-18
7018.87605 7.31949e-18
7020.35346 7.05820e-18
7021.82067 6.96874e-18
7023.28789 6.69541e-18
7024.75510 6.51444e-18
7026.23251 6.31472e-18
7027.69973 6.22458e-18
7029.16694 6.40518e-18
7030.64435 6.55615e-18
7032.11156 6.62377e-18
7033.57878 6.74646e-18
7035.04599 6.61547e-18
7036.52340 6.10943e-18
7037.99062 6.11081e-18
7039.45783 6.37340e-18
7040.92505 6.16207e-18
7042.40245 6.32627e-18
7043.86967 6.49985e-18
7045.33688 6.29370e-18
7046.81429 6.46008e-18
7048.28151 6.39762e-18
7049.74872 6.39370e-18
7051.21594 6.63247e-18
7052.69334 6.56896e-18
7054.16056 6.26554e-18
7055.62777 6.17401e-18
7057.09499 6.49588e-18
7058.57240 6.89410e-18
7060.03961 6.80417e-18
7061.50683 6.32561e-18
7062.98423 6.31119e-18
7064.45145 6.73886e-18
7065.91867 6.71724e-18
7067.38588 6.32421e-18
7068.86329 6.61227e-18
7070.33050 6.96633e-18
7071.79772 7.03634e-18
7073.26493 7.21758e-18
7074.74234 7.14799e-18
7076.20955 6.85390e-18
7077.67677 6.45490e-18
7079.15418 6.65560e-18
7080.62139 7.31270e-18
7082.08861 7.51335e-18
7083.55582 7.26403e-18
7085.03323 6.91403e-18
7086.50044 7.06108e-18
7087.96766 7.44341e-18
7089.43488 7.46712e-18
7090.91228 7.37223e-18
7092.37950 7.73461e-18
7093.84671 8.01369e-18
7095.32412 7.79684e-18
7096.79133 7.60978e-18
7098.25855 7.35202e-18
7099.72577 7.15153e-18
7101.20317 7.31762e-18
7102.67039 7.46685e-18
7104.13760 7.61424e-18
7105.60482 7.78619e-18
7107.08222 7.66016e-18
7108.54944 7.48090e-18
7110.01666 7.50991e-18
7111.49406 7.57372e-18
7112.96128 7.46632e-18
7114.42849 7.50643e-18
7115.89571 7.67521e-18
7117.37311 7.90803e-18
7118.84033 8.32956e-18
7120.30755 8.49462e-18
7121.77476 8.28129e-18
7123.25217 8.00308e-18
7124.71938 7.92884e-18
7126.18660 8.27407e-18
7127.66400 8.37889e-18
7129.13122 8.07422e-18
7130.59844 8.18978e-18
7132.06565 8.31748e-18
7133.54306 8.28695e-18
7135.01027 8.56401e-18
7136.47749 8.38908e-18
7137.94471 7.93776e-18
7139.42211 8.19008e-18
7140.88933 8.48146e-18
7142.35654 8.31193e-18
7143.83395 8.38598e-18
7145.30116 8.52758e-18
7146.76838 8.34439e-18
7148.23560 8.14868e-18
7149.71300 8.41936e-18
7151.18022 8.48083e-18
7152.64743 8.41150e-18
7154.12484 8.48419e-18
7155.59205 8.18317e-18
7157.05927 7.96215e-18
7158.52649 8.02303e-18
7160.00389 7.98828e-18
7161.47111 8.19798e-18
7162.93832 8.27329e-18
7164.40554 8.06499e-18
7165.88294 8.14895e-18
7167.35016 7.97346e-18
7168.81738 7.88284e-18
7170.29478 7.85157e-18
7171.76200 7.60147e-18
7173.22921 7.81004e-18
7174.69643 7.93503e-18
7176.17383 8.02031e-18
7177.64105 8.29803e-18
7179.10827 8.29773e-18
7180.57548 8.14355e-18
7182.05289 7.97006e-18
7183.52010 7.42737e-18
7184.98732 7.20771e-18
7186.46472 7.94429e-18
7187.93194 8.30958e-18
7189.39916 8.06734e-18
7190.86637 8.03976e-18
7192.34378 8.10525e-18
7193.81099 8.03382e-18
7195.27821 7.93189e-18
7196.74542 7.81101e-18
7198.22283 8.07172e-18
7199.69005 8.19007e-18
7201.15726 7.68658e-18
7202.62448 7.56198e-18
7204.10188 7.87990e-18
7205.56910 8.28223e-18
7207.03631 8.44775e-18
7208.51372 8.51149e-18
7209.98094 8.22236e-18
7211.44815 7.62697e-18
7212.91537 7.84675e-18
7214.39277 7.91618e-18
7215.85999 7.69703e-18
7217.32720 7.44610e-18
7218.80461 7.40079e-18
7220.27183 7.85250e-18
7221.73904 7.77346e-18
7223.20626 7.59037e-18
7224.68366 7.45915e-18
7226.15088 7.52733e-18
7227.61809 7.39114e-18
7229.08531 7.23770e-18
7230.56272 7.01281e-18
7232.02993 6.91715e-18
7233.49715 7.41969e-18
7234.97455 7.42537e-18
7236.44177 7.76819e-18
7237.90898 8.04483e-18
7239.37620 7.72523e-18
7240.85361 7.56227e-18
7242.32082 7.42172e-18
7243.78804 7.19344e-18
7245.25525 7.29689e-18
7246.73266 7.63807e-18
7248.19987 7.71045e-18
7249.66709 7.52525e-18
7251.14450 6.96668e-18
7252.61171 6.87603e-18
7254.07893 7.31722e-18
7255.54614 7.65409e-18
7257.02355 7.81979e-18
7258.49076 7.33420e-18
7259.95798 7.07771e-18
7261.42520 7.06399e-18
7262.90260 6.70675e-18
7264.36982 6.81842e-18
7265.83703 7.18318e-18
7267.31444 7.29140e-18
7268.78165 6.82473e-18
7270.24887 6.73731e-18
7271.71609 7.36618e-18
7273.19349 7.18252e-18
7274.66071 6.85272e-18
7276.12792 7.23915e-18
7277.59514 7.28962e-18
7279.07254 7.23881e-18
7280.53976 7.35812e-18
7282.00698 7.22521e-18
7283.48438 7.32878e-18
7284.95160 7.17153e-18
7286.41881 6.72692e-18
7287.88603 6.67345e-18
7289.36343 6.62379e-18
7290.83065 6.45512e-18
7292.29787 6.62836e-18
7293.76508 7.04418e-18
7295.24249 7.05773e-18
7296.70970 7.12060e-18
7298.17692 6.96965e-18
7299.65432 6.78586e-18
7301.12154 6.86687e-18
7302.58876 7.02426e-18
7304.05597 7.13614e-18
7305.53338 7.08706e-18
7307.00059 7.19267e-18
7308.46781 6.98103e-18
7309.93503 6.86006e-18
7311.41243 7.08970e-18
7312.87965 7.29953e-18
7314.34686 7.21683e-18
7315.82427 6.86309e-18
7317.29148 6.75458e-18
7318.75870 6.89852e-18
7320.22592 6.93885e-18
7321.70332 6.92121e-18
7323.17054 7.31842e-18
7324.63775 7.23567e-18
7326.10497 6.77340e-18
7327.58237 6.98727e-18
7329.04959 7.56655e-18
7330.51681 7.32679e-18
7331.99421 7.15272e-18
7333.46143 7.47588e-18
7334.92864 7.45208e-18
7336.39586 7.23956e-18
7337.87326 7.01438e-18
7339.34048 7.02030e-18
7340.80770 7.00312e-18
7342.27491 6.87336e-18
7343.75232 7.01712e-18
7345.21953 7.16987e-18
7346.68675 7.23634e-18
7348.16415 7.16634e-18
7349.63137 6.66270e-18
7351.09859 6.35484e-18
7352.56580 6.87424e-18
7354.04321 7.15081e-18
7355.51042 7.39685e-18
7356.97764 7.85523e-18
7358.45504 7.47270e-18
7359.92226 7.05112e-18
7361.38948 6.66681e-18
7362.85669 6.73250e-18
7364.33410 7.54825e-18
7365.80131 7.62206e-18
7367.26853 7.27218e-18
7368.73574 6.98345e-18
7370.21315 6.88957e-18
7371.68037 6.99304e-18
7373.14758 7.08812e-18
7374.62499 7.08674e-18
7376.09220 6.87577e-18
7377.55942 7.27051e-18
7379.02663 7.58532e-18
7380.50404 7.25667e-18
7381.97126 6.95663e-18
7383.43847 6.84717e-18
7384.90569 6.77421e-18
7386.38309 6.65107e-18
7387.85031 6.88975e-18
7389.31752 7.31780e-18
7390.78474 7.19307e-18
7392.26215 7.14224e-18
7393.72936 7.17456e-18
7395.19658 6.93957e-18
7396.67398 6.95750e-18
7398.14120 7.41386e-18
7399.60841 7.47034e-18
7401.07563 6.96486e-18
7402.55304 6.44277e-18
7404.02025 6.74886e-18
7405.48747 7.28260e-18
7406.95468 7.03579e-18
7408.43209 7.02999e-18
7409.89930 7.33354e-18
7411.36652 7.11696e-18
7411.86848 7.11696e-18
7413.52607 7.24265e-18
7415.18366 7.22617e-18
7416.84125 7.20962e-18
7418.50888 7.00506e-18
7420.16647 6.80060e-18
7421.82406 6.93402e-18
7423.48165 7.06743e-18
7425.14929 7.12868e-18
7426.80688 7.18992e-18
7428.46447 7.16668e-18
7430.13211 7.14340e-18
7431.78970 6.97462e-18
7433.44729 6.80587e-18
7435.10488 6.74954e-18
7436.77251 6.69328e-18
7438.43010 6.83959e-18
7440.08769 6.98584e-18
7441.74528 6.89407e-18
7443.41292 6.80235e-18
7445.07051 6.81004e-18
7446.72810 6.81774e-18
7448.39573 6.89758e-18
7450.05332 6.97740e-18
7451.71091 6.97543e-18
7453.36850 6.97348e-18
7455.03614 6.99503e-18
7456.69373 7.01659e-18
7458.35132 7.09919e-18
7460.00891 7.18178e-18
7461.67655 7.19462e-18
7463.33414 7.20744e-18
7464.99173 7.16635e-18
7466.65936 7.12521e-18
7468.31695 6.87242e-18
7469.97454 6.61971e-18
7471.63213 6.59658e-18
7473.29977 6.57350e-18
7474.95736 6.69361e-18
7476.61495 6.81368e-18
7478.28258 6.80623e-18
7479.94017 6.79875e-18
7481.59776 6.66110e-18
7483.25535 6.52351e-18
7484.92299 6.65672e-18
7486.58058 6.78991e-18
7488.23817 6.84623e-18
7489.89576 6.90254e-18
7491.56340 6.96949e-18
7493.22099 7.03639e-18
7494.87858 6.93958e-18
7496.54621 6.84279e-18
7498.20380 6.75842e-18
7499.86139 6.67403e-18
7501.51898 6.51366e-18
7503.18662 6.35335e-18
7504.84421 6.39984e-18
7506.50180 6.44631e-18
7508.16943 6.47873e-18
7509.82702 6.51115e-18
7511.48461 6.47876e-18
7513.14220 6.44644e-18
7514.80984 6.59776e-18
7516.46743 6.74899e-18
7518.12502 6.57106e-18
7519.78261 6.39321e-18
7521.45025 6.45869e-18
7523.10784 6.52417e-18
7524.76543 6.58462e-18
7526.43306 6.64505e-18
7528.09065 6.62180e-18
7529.74824 6.59851e-18
7531.40583 6.43661e-18
7533.07347 6.27480e-18
7534.73106 6.38685e-18
7536.38865 6.49886e-18
7538.04624 6.53008e-18
7539.71387 6.56127e-18
7541.37146 6.53999e-18
7543.02905 6.51866e-18
7544.69669 6.35785e-18
7546.35428 6.19710e-18
7548.01187 6.29225e-18
7549.66946 6.38739e-18
7551.33710 6.37715e-18
7552.99469 6.36690e-18
7554.65228 6.35666e-18
7556.30987 6.34643e-18
7557.97750 6.33619e-18
7559.63509 6.32595e-18
7561.29268 6.31571e-18
7562.96032 6.30548e-18
7564.61791 6.29524e-18
7566.27550 6.28500e-18
7567.93309 6.27476e-18
7569.60072 6.26453e-18
7571.25831 6.25429e-18
7572.91590 6.24405e-18
7574.58354 6.23382e-18
7576.24113 6.22358e-18
7577.89872 6.21334e-18
7579.55631 6.20311e-18
7581.22395 6.19288e-18
7582.88154 6.18265e-18
7584.53913 6.17241e-18
7586.19672 6.16217e-18
7587.86435 6.15195e-18
7589.52194 6.14171e-18
7591.17953 6.13147e-18
7592.84717 6.12125e-18
7594.50476 6.11101e-18
7596.16235 6.10078e-18
7597.81994 6.09055e-18
7599.48757 6.08032e-18
7601.14516 6.07008e-18
7602.80275 6.05985e-18
7604.46034 6.04962e-18
7606.12798 6.03940e-18
7607.78557 6.02916e-18
7609.44316 6.01894e-18
7611.11080 6.00871e-18
7612.76839 5.99847e-18
7614.42598 5.98825e-18
7616.08357 5.97802e-18
7617.75120 5.96779e-18
7619.40879 5.95756e-18
7621.06638 5.94734e-18
7622.72397 5.93711e-18
7624.39161 5.92688e-18
7626.04920 5.91665e-18
7627.70679 5.90643e-18
7629.37442 5.89620e-18
7631.03201 5.88598e-18
7632.68960 5.87575e-18
7634.34719 5.86553e-18
7636.01483 5.85530e-18
7637.67242 5.84508e-18
7639.33001 5.83485e-18
7640.99765 5.82463e-18
7642.65524 5.81441e-18
7644.31283 5.80418e-18
7645.97042 5.79396e-18
7647.63805 5.78374e-18
7649.29564 5.77351e-18
7650.95323 5.76329e-18
7652.61082 5.75307e-18
7654.27846 5.74284e-18
7655.93605 5.73263e-18
7657.59364 5.72241e-18
7659.26127 5.71218e-18
7660.91886 5.70197e-18
7662.57645 5.69175e-18
7664.23404 5.68152e-18
7665.90168 5.67131e-18
7667.55927 5.66108e-18
7669.21686 5.65086e-18
7670.87445 5.64065e-18
7672.54209 5.63043e-18
7674.19968 5.62021e-18
7675.85727 5.61000e-18
7677.52490 5.59978e-18
7679.18249 5.58956e-18
7680.84008 5.57935e-18
7682.49767 5.45422e-18
7684.16531 5.44137e-18
7685.82290 5.42861e-18
7687.48049 5.70173e-18
7689.13808 5.97473e-18
7690.80571 5.86725e-18
7692.46330 5.75979e-18
7694.12089 5.77643e-18
7695.78853 5.79304e-18
7697.44612 5.73151e-18
7699.10371 5.67006e-18
7700.76130 5.85511e-18
7702.42894 6.04004e-18
7704.08653 5.81752e-18
7705.74412 5.59511e-18
7707.40171 5.73860e-18
7709.06934 5.88203e-18
7710.72693 5.85861e-18
7712.38452 5.83521e-18
7714.05216 5.91840e-18
7715.70975 6.00152e-18
7717.36734 5.87558e-18
7719.02493 5.74969e-18
7720.69256 5.84832e-18
7722.35015 5.94686e-18
7724.00774 5.78992e-18
7725.67538 5.63299e-18
7727.33297 5.51041e-18
7728.99056 5.38791e-18
7730.64815 5.55478e-18
7732.31579 5.72161e-18
7733.97338 5.77002e-18
7735.63097 5.81838e-18
7737.28856 5.74002e-18
7738.95619 5.66169e-18
7740.61378 5.71428e-18
7742.27137 5.76685e-18
7743.93901 5.78573e-18
7745.59660 5.80464e-18
7747.25419 5.93572e-18
7748.91178 6.06669e-18
7750.57941 5.84687e-18
7752.23700 5.62709e-18
7753.89459 5.54925e-18
7755.55218 5.47149e-18
7757.21982 5.60558e-18
7758.87741 5.73973e-18
7760.53500 6.04956e-18
7762.20264 6.35926e-18
7763.86023 6.23476e-18
7765.51782 6.11031e-18
7767.17541 6.13652e-18
7768.84304 6.16271e-18
7770.50063 6.13052e-18
7772.15822 6.09833e-18
7773.81581 6.04787e-18
7775.48345 5.99739e-18
7777.14104 5.93256e-18
7778.79863 5.86778e-18
7780.46626 5.96017e-18
7782.12385 6.05250e-18
7783.78144 5.93101e-18
7785.43903 5.80962e-18
7787.10667 5.96482e-18
7788.76426 6.11999e-18
7790.42185 6.21813e-18
7792.07944 6.31622e-18
7793.74708 6.25453e-18
7795.40467 6.19288e-18
7797.06226 6.23230e-18
7798.72989 6.27174e-18
7800.38748 6.31038e-18
7802.04507 6.34898e-18
7803.70266 6.29733e-18
7805.37030 6.24571e-18
7807.02789 6.27667e-18
7808.68548 6.30760e-18
7810.35311 6.22095e-18
7812.01070 6.13441e-18
7813.66829 6.38896e-18
7815.32588 6.64338e-18
7816.99352 6.49059e-18
7818.65111 6.33783e-18
7820.30870 6.29135e-18
7821.96629 6.24485e-18
7823.63393 6.10316e-18
7825.29152 5.96152e-18
7826.94911 5.96329e-18
7828.61674 5.96506e-18
7830.27433 5.93107e-18
7831.93192 5.89712e-18
7833.58951 5.99742e-18
7835.25715 6.09773e-18
7836.91474 6.22218e-18
7838.57233 6.34649e-18
7840.22992 6.09360e-18
7841.89755 5.84083e-18
7843.55514 5.95858e-18
7845.21273 6.07627e-18
7846.88037 6.06259e-18
7848.53796 6.04894e-18
7850.19555 6.18297e-18
7851.85314 6.31705e-18
7853.52078 6.65448e-18
7855.17837 6.99176e-18
7856.83596 6.79587e-18
7858.50359 6.59999e-18
7860.16118 6.43879e-18
7861.81877 6.27770e-18
7863.47636 6.46885e-18
7865.14400 6.65990e-18
7866.80159 6.50772e-18
7868.45918 6.35561e-18
7870.11677 6.43605e-18
7871.78440 6.51643e-18
7873.44199 6.40708e-18
7875.09958 6.29776e-18
7876.76722 6.29331e-18
7878.42481 6.28890e-18
7880.08240 6.37420e-18
7881.73999 6.45943e-18
7883.40763 6.32808e-18
7885.06522 6.19683e-18
7886.72281 6.43064e-18
7888.38040 6.66436e-18
7890.04803 6.59047e-18
7891.70562 6.51655e-18
7893.36321 6.30252e-18
7895.03085 6.08856e-18
7896.68844 6.04673e-18
7898.34603 6.00490e-18
7900.00362 5.97907e-18
7901.67125 5.95330e-18
7903.32884 6.10047e-18
7904.98643 6.24760e-18
7906.64402 6.24917e-18
7908.31166 6.25072e-18
7909.96925 6.17801e-18
7911.62684 6.10528e-18
7913.29448 5.94270e-18
7914.95207 5.78023e-18
7916.60966 5.99185e-18
7918.26725 6.20337e-18
7919.93488 6.08828e-18
7921.59247 5.97329e-18
7923.25006 6.16407e-18
7924.90765 6.35478e-18
7926.57529 6.34057e-18
7928.23288 6.32632e-18
7929.89047 6.16327e-18
7931.55810 6.00024e-18
7933.21569 5.91184e-18
7934.87328 5.82349e-18
7936.53087 5.91790e-18
7938.19851 6.01223e-18
7939.85610 5.87727e-18
7941.51369 5.74238e-18
7943.18133 5.82436e-18
7944.83892 5.90641e-18
7946.49651 6.17086e-18
7948.15410 6.43516e-18
7949.82173 6.22801e-18
7951.47932 6.02085e-18
7953.13691 5.79302e-18
7954.79450 5.56535e-18
7956.46214 5.79611e-18
7958.11973 6.02671e-18
7959.77732 5.75638e-18
7961.44495 5.48620e-18
7963.10254 5.67059e-18
7964.76013 5.85491e-18
7966.41772 5.82271e-18
7968.08536 5.79051e-18
7969.74295 5.80952e-18
7971.40054 5.82853e-18
7973.05813 5.89683e-18
7974.72577 5.96505e-18
7976.38336 5.78344e-18
7978.04095 5.60188e-18
7979.70858 5.51267e-18
7981.36617 5.42357e-18
7983.02376 5.63271e-18
7984.68135 5.84179e-18
7986.34899 5.90428e-18
7988.00658 5.96670e-18
7989.66417 5.86149e-18
7991.33180 5.75634e-18
7992.98939 5.86368e-18
7994.64698 5.97088e-18
7996.30457 5.70565e-18
7997.97221 5.44059e-18
7999.62980 5.64234e-18
8001.28739 5.84398e-18
8002.94498 5.69368e-18
8004.61262 5.54343e-18
8006.27021 5.49397e-18
8007.92780 5.44461e-18
8009.59543 5.69293e-18
8011.25302 5.94108e-18
8012.91061 5.73531e-18
8014.56820 5.52961e-18
8016.23584 5.55017e-18
8017.89343 5.57075e-18
8019.55102 5.66252e-18
8021.20861 5.75425e-18
8022.87624 5.75913e-18
8024.53383 5.76395e-18
8026.19142 5.63028e-18
8027.85906 5.49663e-18
8029.51665 5.44442e-18
8031.17424 5.39221e-18
8032.83183 5.29319e-18
8034.49947 5.19425e-18
8036.15706 5.36716e-18
8037.81465 5.54000e-18
8039.47224 5.53893e-18
8041.13987 5.53785e-18
8042.79746 5.47045e-18
8044.45505 5.40306e-18
8046.12269 5.32899e-18
8047.78028 5.25498e-18
8049.43787 5.37852e-18
8051.09546 5.50199e-18
8052.76309 5.46432e-18
8054.42068 5.42662e-18
8056.07827 5.30191e-18
8057.73586 5.17727e-18
8059.40350 5.25062e-18
8061.06109 5.32397e-18
8062.71868 5.34676e-18
8064.38632 5.36949e-18
8066.04391 5.22800e-18
8067.70150 5.08655e-18
8069.35909 5.03940e-18
8071.02672 4.99230e-18
8072.68431 5.07515e-18
8074.34190 5.15801e-18
8076.00954 5.23932e-18
8077.66713 5.32061e-18
8079.32472 5.30970e-18
8080.98231 5.29874e-18
8082.64994 5.11116e-18
8084.30753 4.92359e-18
8085.96512 4.83172e-18
8087.62271 4.73989e-18
8089.29035 4.79595e-18
8090.94794 4.85201e-18
8092.60553 4.91375e-18
8094.27317 4.97548e-18
8095.93076 4.97872e-18
8097.58835 4.98196e-18
8099.24594 4.97743e-18
8100.91357 4.97292e-18
8102.57116 5.01277e-18
8104.22875 5.05257e-18
8105.88634 4.96474e-18
8107.55398 4.87697e-18
8109.21157 4.95216e-18
8110.86916 5.02727e-18
8112.53679 4.84182e-18
8114.19438 4.65651e-18
8115.85197 4.81328e-18
8117.50956 4.97006e-18
8119.17720 5.16570e-18
8120.83479 5.36122e-18
8122.49238 5.18297e-18
8124.16002 5.00471e-18
8125.81761 4.74717e-18
8127.47520 4.48974e-18
8129.13279 4.55472e-18
8130.80042 4.61971e-18
8132.45801 4.76794e-18
8134.11560 4.91611e-18
8135.77319 4.93609e-18
8137.44083 4.95607e-18
8139.09842 4.98543e-18
8140.75601 5.01477e-18
8142.41360 4.96218e-18
8144.08123 4.90957e-18
8145.73882 4.73396e-18
8147.39641 4.55848e-18
8149.06405 4.73824e-18
8150.72164 4.91793e-18
8152.37923 4.88272e-18
8154.03682 4.84746e-18
8155.70446 4.66681e-18
8157.36205 4.48627e-18
8159.01964 4.60250e-18
8160.68727 4.71870e-18
8162.34486 4.77896e-18
8164.00245 4.83914e-18
8165.66004 4.69501e-18
8167.32768 4.55100e-18
8168.98527 4.78653e-18
8170.64286 5.02196e-18
8172.30045 5.01296e-18
8173.96808 5.00382e-18
8175.62567 4.60449e-18
8177.28326 4.20533e-18
8178.95090 4.32472e-18
8180.60849 4.44414e-18
8182.26608 4.60192e-18
8183.92367 4.75967e-18
8185.59131 4.83340e-18
8187.24890 4.90701e-18
8188.90649 4.60668e-18
8190.56408 4.30647e-18
8192.23171 4.35235e-18
8193.88930 4.39830e-18
8195.54689 4.62479e-18
8197.21453 4.85120e-18
8198.87212 4.85107e-18
8200.52971 4.85090e-18
8202.18730 4.75330e-18
8203.85493 4.65574e-18
8205.51252 4.67437e-18
8207.17011 4.69301e-18
8208.82770 4.71567e-18
8210.49534 4.73823e-18
8212.15293 4.48174e-18
8213.81052 4.22538e-18
8215.47816 4.34462e-18
8217.13575 4.46379e-18
8218.79334 4.35484e-18
8220.45093 4.24598e-18
8222.11856 4.42000e-18
8223.77615 4.59393e-18
8225.43374 4.47483e-18
8227.09133 4.35582e-18
8228.75897 4.45209e-18
8230.41656 4.54831e-18
8232.07415 4.46425e-18
8233.74178 4.38022e-18
8235.39937 4.37684e-18
8237.05696 4.37343e-18
8238.71455 4.28088e-18
8240.38219 4.18835e-18
8242.03978 4.10466e-18
8243.69737 4.02108e-18
8245.36501 4.26800e-18
8247.02260 4.51481e-18
8248.68019 4.45534e-18
8250.33778 4.39589e-18
8252.00541 4.41309e-18
8253.66300 4.43017e-18
8255.32059 4.11104e-18
8256.97818 3.79212e-18
8258.64582 4.05724e-18
8260.30341 4.32228e-18
8261.96100 4.39448e-18
8263.62863 4.46662e-18
8265.28622 4.38230e-18
8266.94381 4.29798e-18
8268.60140 4.15713e-18
8270.26904 4.01635e-18
8271.92663 4.00284e-18
8273.58422 3.98934e-18
8275.25186 4.03485e-18
8276.90945 4.08031e-18
8278.56704 4.01538e-18
8280.22463 3.95045e-18
8281.89226 3.86009e-18
8283.54985 3.76979e-18
8285.20744 3.87610e-18
8286.86503 3.98234e-18
8288.53267 3.91360e-18
8290.19026 3.84491e-18
8291.84785 3.91993e-18
8293.51548 3.99495e-18
8295.17307 4.05902e-18
8296.83066 4.12306e-18
8298.48825 4.08792e-18
8300.15589 4.05272e-18
8301.81348 3.85937e-18
8303.47107 3.66610e-18
8305.12866 3.71654e-18
8306.79630 3.76695e-18
8308.45389 3.73375e-18
8310.11148 3.70054e-18
8311.77911 3.62965e-18
8313.43670 3.55880e-18
8315.09429 3.62850e-18
8316.75188 3.69821e-18
8318.41952 3.80996e-18
8320.07711 3.92165e-18
8321.73470 3.84697e-18
8323.40233 3.77227e-18
8325.05992 3.55760e-18
8326.71751 3.34306e-18
8328.37510 3.42593e-18
8330.04274 3.50881e-18
8331.70033 3.58547e-18
8333.35792 3.66211e-18
8335.01551 3.67533e-18
8336.68315 3.68856e-18
8338.34074 3.71646e-18
8339.99833 3.74437e-18
8341.65592 3.80456e-18
8343.32355 3.86479e-18
8344.98114 4.03460e-18
8346.63873 4.20431e-18
8348.30637 4.09873e-18
8349.96396 3.99311e-18
8351.62155 3.77436e-18
8353.27914 3.55570e-18
8354.94677 3.60615e-18
8356.60436 3.65662e-18
8358.26195 3.76994e-18
8359.92959 3.88323e-18
8361.58718 3.86281e-18
8363.24477 3.84235e-18
8364.90236 3.72993e-18
8366.57000 3.61752e-18
8368.22759 3.53710e-18
8369.88518 3.45676e-18
8371.54277 3.61585e-18
8373.21040 3.77479e-18
8374.86799 3.53451e-18
8376.52558 3.29440e-18
8378.19322 3.52051e-18
8379.85081 3.74650e-18
8381.50840 3.62973e-18
8383.16599 3.51301e-18
8384.83362 3.57856e-18
8386.49121 3.64403e-18
8388.14880 3.49077e-18
8389.81644 3.33761e-18
8391.47403 3.49420e-18
8393.13162 3.65078e-18
8394.78921 3.78984e-18
8396.45685 3.92883e-18
8398.11444 3.84956e-18
8399.77203 3.77030e-18
8401.42962 3.70437e-18
8403.09725 3.63848e-18
8404.75484 3.70326e-18
8406.41243 3.76809e-18
8408.08007 3.95440e-18
8409.73766 4.14059e-18
8411.39525 3.97486e-18
8413.05284 3.80918e-18
8414.72047 3.82062e-18
8416.37806 3.83200e-18
8418.03565 3.72614e-18
8419.69324 3.62032e-18
8421.36088 3.59639e-18
8423.01847 3.57250e-18
8424.67606 3.61875e-18
8426.34370 3.66493e-18
8428.00129 3.44388e-18
8429.65888 3.22298e-18
8431.31647 3.40381e-18
8432.98410 3.58462e-18
8434.64169 3.72053e-18
8436.29928 3.85638e-18
8437.95687 3.82639e-18
8439.62451 3.79639e-18
8441.28210 3.74369e-18
8442.93969 3.69093e-18
8444.60732 3.46099e-18
8446.26491 3.23116e-18
8447.92250 3.31862e-18
8449.58009 3.40611e-18
8451.24773 3.60586e-18
8452.90532 3.80555e-18
8454.56291 3.86793e-18
8456.22050 3.93024e-18
8457.88814 3.78360e-18
8459.54573 3.63698e-18
8461.20332 3.56655e-18
8462.87095 3.49616e-18
8464.52854 3.55523e-18
8466.18613 3.61426e-18
8467.84372 3.62763e-18
8469.51136 3.64099e-18
8471.16895 3.63004e-18
8472.82654 3.61907e-18
8474.48413 3.58984e-18
8476.15176 3.56065e-18
8477.80935 3.63787e-18
8479.46694 3.71515e-18
8481.13458 3.93887e-18
8482.79217 4.16244e-18
8484.44976 3.98127e-18
8486.10735 3.80017e-18
8487.77499 3.79036e-18
8489.43258 3.78064e-18
8491.09017 4.01108e-18
8492.75780 4.24136e-18
8494.41539 4.05518e-18
8496.07298 3.86908e-18
8497.73057 3.91108e-18
8499.39821 3.95306e-18
8501.05580 3.96400e-18
8502.71339 3.97493e-18
8504.37098 3.97054e-18
8506.03861 3.96613e-18
8507.69620 3.94539e-18
8509.35379 3.92467e-18
8511.01138 3.97255e-18
8512.67902 4.02040e-18
8514.33661 3.97315e-18
8515.99420 3.92596e-18
8517.66184 4.04260e-18
8519.31943 4.15917e-18
8520.97702 4.04933e-18
8522.63461 3.93950e-18
8524.30224 3.85371e-18
8525.95983 3.76803e-18
8527.61742 3.97639e-18
8529.28506 4.18471e-18
8530.94265 4.32896e-18
8532.60024 4.47308e-18
8534.25783 4.25051e-18
8535.92546 4.02809e-18
8537.58305 4.23730e-18
8539.24064 4.44639e-18
8540.89823 4.31900e-18
8542.56587 4.19167e-18
8544.22346 4.18094e-18
8545.88105 4.17023e-18
8547.54869 4.18259e-18
8549.20628 4.19502e-18
8550.86387 4.39726e-18
8552.52146 4.59943e-18
8554.18909 4.59665e-18
8555.84668 4.59392e-18
8557.50427 4.70533e-18
8559.17191 4.81665e-18
8560.82950 4.71188e-18
8562.48709 4.60712e-18
8564.14468 4.52514e-18
8565.81231 4.44324e-18
8567.46990 4.58266e-18
8569.12749 4.72202e-18
8570.78508 4.70978e-18
8572.45272 4.69749e-18
8574.11031 4.55180e-18
8575.76790 4.40611e-18
8577.43554 4.31519e-18
8579.09313 4.22434e-18
8580.75072 4.33857e-18
8582.40831 4.45272e-18
8584.07594 4.40382e-18
8585.73353 4.35497e-18
8587.39112 4.46350e-18
8589.04871 4.57205e-18
8590.71635 4.69801e-18
8592.37394 4.82389e-18
8594.03153 4.69223e-18
8595.69916 4.56061e-18
8597.35675 4.48652e-18
8599.01434 4.41247e-18
8600.67193 4.44830e-18
8602.33957 4.48419e-18
8603.99716 4.70013e-18
8605.65475 4.91595e-18
8607.32239 4.83107e-18
8608.97998 4.74617e-18
8610.63757 4.62004e-18
8612.29516 4.49395e-18
8613.96279 4.50387e-18
8615.62038 4.51378e-18
8617.27797 4.53292e-18
8618.93556 4.55204e-18
8620.60320 4.53518e-18
8622.26079 4.51838e-18
8623.91838 4.71662e-18
8625.58601 4.91483e-18
8627.24360 5.00482e-18
8628.90119 5.09472e-18
8630.55878 4.94799e-18
8632.22642 4.80129e-18
8633.88401 4.70691e-18
8635.54160 4.61264e-18
8637.20924 4.78152e-18
8638.86683 4.95037e-18
8640.52442 5.02709e-18
8642.18201 5.10368e-18
8643.84964 4.76999e-18
8645.50723 4.43643e-18
8647.16482 4.49210e-18
8648.82241 4.54781e-18
8650.49005 4.76440e-18
8652.14764 4.98089e-18
8653.80523 4.98067e-18
8655.46282 4.98041e-18
8657.13045 4.89751e-18
8658.78804 4.81467e-18
8660.44563 4.89712e-18
8662.11327 4.97946e-18
8663.77086 4.79892e-18
8665.42845 4.61845e-18
8667.08604 4.66055e-18
8668.75368 4.70262e-18
8670.41127 4.68842e-18
8672.06886 4.67423e-18
8673.73649 4.72416e-18
8675.39408 4.77401e-18
8677.05167 4.65780e-18
8678.70926 4.54167e-18
8680.37690 4.62647e-18
8682.03449 4.71124e-18
8683.69208 4.74901e-18
8685.34967 4.78669e-18
8687.01730 4.62453e-18
8688.67489 4.46248e-18
8690.33248 4.61519e-18
8691.99007 4.76787e-18
8693.65771 4.82596e-18
8695.31530 4.88398e-18
8696.97289 4.76476e-18
8698.64053 4.64559e-18
8700.29812 4.67689e-18
8701.95571 4.70822e-18
8703.61330 4.79647e-18
8705.28093 4.88465e-18
8706.93852 4.80189e-18
8708.59611 4.71911e-18
8710.26375 4.63628e-18
8711.92134 4.55352e-18
8713.57893 4.66005e-18
8715.23652 4.76652e-18
8716.90415 4.70795e-18
8718.56174 4.64938e-18
8720.21933 4.57171e-18
8721.87692 4.49406e-18
8723.54456 4.52287e-18
8725.20215 4.55171e-18
8726.85974 4.63672e-18
8728.52738 4.72174e-18
8730.18497 4.83761e-18
8731.84256 4.95337e-18
8733.50015 4.81436e-18
8735.16778 4.67544e-18
8736.82537 4.76620e-18
8738.48296 4.85691e-18
8740.14055 4.75068e-18
8741.80819 4.64452e-18
8743.46578 4.74803e-18
8745.12337 4.85142e-18
8746.79100 4.61922e-18
8748.44859 4.38714e-18
8750.10618 4.47168e-18
8751.76377 4.55631e-18
8753.43141 4.88902e-18
8755.08900 5.22160e-18
8756.74659 5.25282e-18
8758.40418 5.28389e-18
8760.07182 4.92200e-18
8761.72941 4.56022e-18
8763.38700 4.51066e-18
8765.05463 4.46113e-18
8766.71222 4.52293e-18
8768.36981 4.58468e-18
8770.02740 4.51443e-18
8771.69504 4.44422e-18
8773.35263 4.45285e-18
8775.01022 4.46147e-18
8776.67785 4.44495e-18
8778.33544 4.42844e-18
8779.99303 4.42552e-18
8781.65062 4.42262e-18
8783.31826 4.47256e-18
8784.97585 4.52241e-18
8786.63344 4.31969e-18
8788.29103 4.11703e-18
8789.95867 4.03515e-18
8791.61626 3.95339e-18
8793.27385 4.22314e-18
8794.94148 4.49275e-18
8796.59907 4.36380e-18
8798.25666 4.23489e-18
8799.91425 4.20905e-18
8801.58189 4.18320e-18
8803.23948 4.16087e-18
8804.89707 4.13853e-18
8806.56470 4.15319e-18
8808.22229 4.16786e-18
8809.87988 4.23657e-18
8811.53747 4.30526e-18
8813.20511 4.31547e-18
8814.86270 4.32568e-18
8816.52029 4.37870e-18
8818.17788 4.43170e-18
8819.84552 4.45467e-18
8821.50311 4.47764e-18
8823.16070 4.47039e-18
8824.82833 4.46315e-18
8826.48592 4.45949e-18
8828.14351 4.45568e-18
8829.80110 4.06594e-18
8831.46874 3.67648e-18
8833.12633 4.02499e-18
8834.78392 4.37332e-18
8836.44151 4.29041e-18
8838.10914 4.20753e-18
8839.76673 4.20087e-18
8841.42432 4.19419e-18
8843.09196 4.11666e-18
8844.74955 4.03915e-18
8846.40714 4.03412e-18
8848.06473 4.02910e-18
8849.73237 4.03068e-18
8851.38996 4.03230e-18
8853.04755 4.12847e-18
8854.71518 4.22455e-18
8856.37277 4.10684e-18
8858.03036 3.98915e-18
8859.68795 3.90792e-18
8861.35559 3.82671e-18
8863.01318 3.81927e-18
8864.67077 3.81186e-18
8866.32836 3.87284e-18
8867.99599 3.93384e-18
8869.65358 4.02452e-18
8871.31117 4.11518e-18
8872.97881 4.11085e-18
8874.63640 4.10646e-18
8876.29399 3.95841e-18
8877.95158 3.81046e-18
8879.61922 3.93108e-18
8881.27681 4.05163e-18
8882.93440 4.00993e-18
8884.60203 3.96830e-18
8886.25962 4.07908e-18
8887.91721 4.18983e-18
8889.57480 4.21014e-18
8891.24244 4.23035e-18
8892.90003 4.00422e-18
8894.55762 3.77821e-18
8896.21521 3.86076e-18
8897.88284 3.94329e-18
8899.54043 3.94447e-18
8901.19802 3.94564e-18
8902.85561 3.92249e-18
8904.52325 3.89934e-18
8906.18084 3.88418e-18
8907.83843 3.86898e-18
8909.50607 3.70900e-18
8911.16366 3.54911e-18
8912.82125 3.58946e-18
8914.47884 3.62975e-18
8916.14647 3.51464e-18
8917.80406 3.39967e-18
8919.46165 3.56134e-18
8921.11924 3.72292e-18
8922.78688 3.67422e-18
8924.44447 3.62564e-18
8926.10206 3.90148e-18
8927.76969 4.17719e-18
8929.42728 4.13366e-18
8931.08487 4.09000e-18
8932.74246 3.72879e-18
8934.41010 3.36773e-18
8936.06769 3.34836e-18
8937.72528 3.32908e-18
8939.38287 3.53337e-18
8941.05051 3.73747e-18
8942.70810 3.49788e-18
8944.36569 3.25841e-18
8946.03332 3.32321e-18
8947.69091 3.38795e-18
8949.34850 3.30433e-18
8951.00609 3.22080e-18
8952.67373 3.36825e-18
8954.33132 3.51554e-18
8955.98891 3.26970e-18
8957.64650 3.02402e-18
8959.31413 3.15994e-18
8960.97172 3.29584e-18
8962.62931 3.39340e-18
8964.29695 3.49096e-18
8965.95454 3.63531e-18
8967.61213 3.77954e-18
8969.26972 3.67785e-18
8970.93736 3.57618e-18
8972.59495 3.55904e-18
8974.25254 3.54189e-18
8975.92017 3.51185e-18
8977.57776 3.48179e-18
8979.23535 3.39459e-18
8980.89294 3.30747e-18
8982.56058 3.38528e-18
8984.21817 3.46308e-18
8985.87576 3.56182e-18
8987.53335 3.66045e-18
8989.20098 3.49986e-18
8990.85857 3.33932e-18
8992.51616 3.28595e-18
8994.18380 3.23262e-18
8995.84139 3.29965e-18
8997.49898 3.36668e-18
8999.15657 3.42907e-18
9000.82421 3.49149e-18
9002.48180 3.60216e-18
9004.13939 3.71278e-18
9005.79698 3.66735e-18
9007.46461 3.62193e-18
9009.12220 3.59886e-18
9010.77979 3.57583e-18
9012.44743 3.67815e-18
9014.10502 3.78037e-18
9015.76261 3.59110e-18
9017.42020 3.40193e-18
9019.08783 3.43698e-18
9020.74542 3.47197e-18
9022.40301 3.37425e-18
9024.07065 3.27656e-18
9025.72824 3.30528e-18
9027.38583 3.33401e-18
9029.04342 3.40390e-18
9030.71106 3.47383e-18
9032.36865 3.62451e-18
9034.02624 3.77504e-18
9035.68383 3.57626e-18
9037.35146 3.37753e-18
9039.00905 3.31612e-18
9040.66664 3.25477e-18
9042.33428 3.36904e-18
9043.99187 3.48322e-18
9045.64946 3.32851e-18
9047.30705 3.17381e-18
9048.97468 3.01072e-18
9050.63227 2.84780e-18
9052.28986 3.09875e-18
9053.95750 3.34961e-18
9055.61509 3.38644e-18
9057.27268 3.42317e-18
9058.93027 3.23973e-18
9060.59791 3.05635e-18
9062.25550 3.01702e-18
9063.91309 2.97772e-18
9065.57068 3.01692e-18
9067.23831 3.05606e-18
9068.89590 2.92580e-18
9070.55349 2.79566e-18
9072.21108 2.94074e-18
9073.87872 3.08577e-18
9075.53631 3.08810e-18
9077.19390 3.09044e-18
9078.86153 3.11963e-18
9080.51912 3.14870e-18
9082.17671 2.89934e-18
9083.83430 2.65016e-18
9085.50194 2.83393e-18
9087.15953 3.01768e-18
9088.81712 3.13531e-18
9090.48476 3.25284e-18
9092.14235 3.14211e-18
9093.79994 3.03157e-18
9095.45753 3.24899e-18
9097.12516 3.46622e-18
9098.78275 3.22804e-18
9100.44034 2.99003e-18
9102.09793 3.13832e-18
9103.76557 3.28668e-18
9105.42316 3.57833e-18
9107.08075 3.86978e-18
9108.74838 3.71494e-18
9110.40597 3.56010e-18
9112.06356 3.35109e-18
9113.72115 3.14216e-18
9115.38879 3.08042e-18
9117.04638 3.01875e-18
9118.70397 3.09055e-18
9120.36156 3.16231e-18
9122.02920 3.12538e-18
9123.68679 3.08849e-18
9125.34438 3.15958e-18
9127.01201 3.23067e-18
9128.66960 3.32359e-18
9130.32719 3.41649e-18
9131.98478 3.46398e-18
9133.65242 3.51146e-18
9135.31001 3.50511e-18
9136.96760 3.49878e-18
9138.63523 3.55920e-18
9140.29282 3.61956e-18
9141.95041 3.50371e-18
9143.60800 3.38792e-18
9145.27564 3.41385e-18
9146.93323 3.43975e-18
9148.59082 3.39032e-18
9150.24841 3.34085e-18
9151.91605 3.20307e-18
9153.57364 3.06545e-18
9155.23123 3.31164e-18
9156.89886 3.55772e-18
9158.55645 3.58446e-18
9160.21404 3.61116e-18
9161.87163 3.54720e-18
9163.53927 3.48318e-18
9165.19686 3.28767e-18
9166.85445 3.09230e-18
9168.51204 3.23165e-18
9170.17967 3.37095e-18
9171.83726 3.37651e-18
9173.49485 3.38206e-18
9175.15244 3.34432e-18
9176.82008 3.30665e-18
9178.47767 3.48170e-18
9180.13526 3.65670e-18
9181.80290 3.70800e-18
9183.46049 3.75925e-18
9185.11808 3.69216e-18
9186.77567 3.62511e-18
9188.44330 3.66797e-18
9190.10089 3.71077e-18
9191.75848 3.65915e-18
9193.42612 3.60748e-18
9195.08371 3.45956e-18
9196.74130 3.31178e-18
9198.39889 3.52507e-18
9200.06652 3.73827e-18
9201.72411 3.74617e-18
9203.38170 3.75399e-18
9205.03929 3.57836e-18
9206.70693 3.40280e-18
9208.36452 3.39817e-18
9210.02211 3.39360e-18
9211.68975 3.54189e-18
9213.34734 3.69010e-18
9215.00493 3.64931e-18
9216.66252 3.60851e-18
9218.33015 3.54179e-18
9219.98774 3.47507e-18
9221.64533 3.40440e-18
9223.31297 3.33377e-18
9224.97056 3.38764e-18
9226.62815 3.44142e-18
9228.28574 3.24839e-18
9229.95337 3.05556e-18
9231.61096 3.36777e-18
9233.26855 3.67989e-18
9234.92614 3.83090e-18
9236.59378 3.98174e-18
9238.25137 3.75401e-18
9239.90896 3.52633e-18
9241.56655 3.40897e-18
9243.23419 3.29176e-18
9244.89178 3.52263e-18
9246.54937 3.75333e-18
9248.21700 3.58115e-18
9249.87459 3.40905e-18
9251.53218 3.42136e-18
9253.18977 3.43365e-18
9254.85741 3.39466e-18
9256.51500 3.35569e-18
9258.17259 3.40256e-18
9259.84022 3.44943e-18
9261.49781 3.53510e-18
9263.15540 3.62072e-18
9264.81299 3.55774e-18
9266.48063 3.49469e-18
9268.13822 3.27339e-18
9269.79581 3.05228e-18
9271.45340 3.30602e-18
9273.12104 3.55959e-18
9274.77863 3.43899e-18
9276.43622 3.31850e-18
9278.10385 3.50109e-18
9279.76144 3.68351e-18
9281.41903 3.50461e-18
9283.07662 3.32579e-18
9284.74426 3.33052e-18
9286.40185 3.33528e-18
9288.05944 3.41951e-18
9289.71703 3.50360e-18
9291.38466 3.22621e-18
9293.04225 2.94898e-18
9294.69984 3.03161e-18
9296.36748 3.11426e-18
9298.02507 3.23467e-18
9299.68266 3.35503e-18
9301.34025 3.36138e-18
9303.00789 3.36771e-18
9304.66548 3.34818e-18
9306.32307 3.32861e-18
9307.99070 3.19579e-18
9309.64829 3.06300e-18
9311.30588 3.00063e-18
9312.96347 2.93831e-18
9314.63111 2.99746e-18
9316.28870 3.05652e-18
9317.94629 2.86791e-18
9319.60388 2.67929e-18
9321.27151 2.42645e-18
9322.92910 2.17384e-18
9324.58669 2.44350e-18
9326.25433 2.71306e-18
9327.91192 2.75025e-18
9329.56951 2.78746e-18
9331.22710 2.87498e-18
9332.89474 2.96240e-18
9334.55233 2.81468e-18
9336.20992 2.66704e-18
9337.87755 2.71883e-18
9339.53514 2.77061e-18
9341.19273 2.79997e-18
9342.85032 2.82939e-18
9344.51796 2.98635e-18
9346.17555 3.14326e-18
9347.83314 3.18081e-18
9349.49073 3.21818e-18
9351.15836 2.82156e-18
9352.81595 2.42509e-18
9354.47354 2.35529e-18
9356.13113 2.28568e-18
9357.79877 2.65932e-18
9359.45636 3.03279e-18
9361.11395 2.99782e-18
9362.78159 2.96293e-18
9364.43918 3.12857e-18
9366.09677 3.29414e-18
9367.75436 3.29399e-18
9369.42199 3.29382e-18
9371.07958 3.26894e-18
9372.73717 3.24388e-18
9374.40481 2.76683e-18
9376.06240 2.29000e-18
9377.71999 2.30231e-18
9379.37758 2.31469e-18
9381.04521 2.51357e-18
9382.70280 2.71236e-18
9384.36039 2.72211e-18
9386.01798 2.73185e-18
9387.68562 2.73351e-18
9389.34321 2.73515e-18
9391.00080 2.72439e-18
9392.66844 2.71369e-18
9394.32603 2.83907e-18
9395.98362 2.96435e-18
9397.64121 2.83590e-18
9399.30884 2.70750e-18
9400.96643 2.71525e-18
9402.62402 2.72301e-18
9404.28161 2.75914e-18
9405.94925 2.79522e-18
9407.60684 2.72283e-18
9409.26443 2.65054e-18
9410.93206 2.79416e-18
9412.58965 2.93772e-18
9414.24724 2.96475e-18
9415.90483 2.99173e-18
9417.57247 2.87806e-18
9419.23006 2.76444e-18
9420.88765 2.73175e-18
9422.54524 2.69902e-18
9424.21288 2.58151e-18
9425.87047 2.46418e-18
9427.52806 2.78333e-18
9429.19569 3.10225e-18
9430.85328 2.90874e-18
9432.51087 2.71527e-18
9434.16846 2.65359e-18
9435.83610 2.59179e-18
9437.49369 2.25173e-18
9439.15128 1.91177e-18
9440.80887 1.78604e-18
9442.47650 1.66060e-18
9444.13409 2.21850e-18
9445.79168 2.77615e-18
9447.45932 2.76596e-18
9449.11691 2.75580e-18
9450.77450 2.82473e-18
9452.43209 2.89356e-18
9454.09973 2.72690e-18
9455.75732 2.56023e-18
9457.41491 2.35572e-18
9459.07250 2.15133e-18
9460.74013 2.20650e-18
9462.39772 2.26173e-18
9464.05531 2.45738e-18
9465.72295 2.65282e-18
9467.38054 2.39129e-18
9469.03813 2.12995e-18
9470.69572 2.32034e-18
9472.36335 2.51074e-18
9474.02094 2.72535e-18
9475.67853 2.93993e-18
9477.34617 3.05011e-18
9479.00376 3.16019e-18
9480.66135 3.04092e-18
9482.31894 2.92171e-18
9483.98658 2.92450e-18
9485.64417 2.92722e-18
9487.30176 2.72949e-18
9488.95935 2.53184e-18
9490.62698 2.51115e-18
9492.28457 2.49044e-18
9493.94216 2.42599e-18
9495.60980 2.36170e-18
9497.26739 2.67617e-18
9498.92498 2.99045e-18
9500.58257 2.85157e-18
9502.25020 2.71276e-18
9503.90779 2.75399e-18
9505.56538 2.79523e-18
9507.23302 2.86026e-18
9508.89061 2.92518e-18
9510.54820 2.71660e-18
9512.20579 2.50807e-18
9513.87343 2.41828e-18
9515.53102 2.32851e-18
9517.18861 2.28342e-18
9518.84620 2.23847e-18
9520.51383 2.52427e-18
9522.17142 2.80986e-18
9523.82901 2.63621e-18
9525.49665 2.46268e-18
9527.15424 2.52813e-18
9528.81183 2.59352e-18
9530.46942 2.49541e-18
9532.13705 2.39739e-18
9533.79464 2.51205e-18
9535.45223 2.62667e-18
9537.10982 2.65348e-18
9538.77746 2.68029e-18
9540.43505 2.74398e-18
9542.09264 2.80763e-18
9543.76028 2.77762e-18
9545.41787 2.74751e-18
9547.07546 2.52723e-18
9548.73305 2.30700e-18
9550.40068 2.19459e-18
9552.05827 2.08247e-18
9553.71586 2.62610e-18
9555.37345 3.16939e-18
9557.04109 2.92136e-18
9558.69868 2.67341e-18
9560.35627 2.63791e-18
9562.02390 2.60247e-18
9563.68149 2.70835e-18
9565.33908 2.81412e-18
9566.99667 2.66802e-18
9568.66431 2.52199e-18
9570.32190 2.54307e-18
9571.97949 2.56417e-18
9573.64713 2.62914e-18
9575.30472 2.69398e-18
9576.96231 2.48977e-18
9578.61990 2.28565e-18
9580.28753 2.28533e-18
9581.94512 2.28505e-18
9583.60271 2.35763e-18
9585.27035 2.43015e-18
9586.92794 2.33929e-18
9588.58553 2.24846e-18
9590.24312 2.21568e-18
9591.91075 2.18301e-18
9593.56834 2.38882e-18
9595.22593 2.59449e-18
9596.88352 2.49897e-18
9598.55116 2.40357e-18
9600.20875 2.57258e-18
9601.86634 2.74152e-18
9603.52393 2.73707e-18
9605.19157 2.73268e-18
9606.84916 2.84964e-18
9608.50675 2.96642e-18
9610.17438 2.65862e-18
9611.83197 2.35095e-18
9613.48956 2.33945e-18
9615.14715 2.32794e-18
9616.81479 2.30268e-18
9618.47238 2.27745e-18
9620.12997 2.31967e-18
9621.79760 2.36190e-18
9623.45519 2.41578e-18
9625.11278 2.46966e-18
9626.77037 2.52107e-18
9628.43801 2.57247e-18
9630.09560 2.64015e-18
9631.75319 2.70781e-18
9633.41078 2.70105e-18
9635.07842 2.69435e-18
9636.73601 2.83814e-18
9638.39360 2.98178e-18
9640.06123 2.80786e-18
9641.71882 2.63404e-18
9643.37641 2.69423e-18
9645.03400 2.75427e-18
9646.70164 2.51339e-18
9648.35923 2.27269e-18
9650.01682 2.42973e-18
9651.67441 2.58668e-18
9653.34204 2.56540e-18
9654.99963 2.54405e-18
9656.65722 2.36715e-18
9658.31481 2.19037e-18
9659.98245 2.26378e-18
9661.64004 2.33727e-18
9663.29763 2.58712e-18
9664.96527 2.83672e-18
9666.62286 2.49822e-18
9668.28045 2.15996e-18
9669.93804 2.33759e-18
9671.60567 2.51521e-18
9673.26326 2.69688e-18
9674.92085 2.87848e-18
9676.58849 2.92578e-18
9678.24608 2.97300e-18
9679.90367 2.84136e-18
9681.56126 2.70993e-18
9683.22889 2.99267e-18
9684.88648 3.27519e-18
9686.54407 3.05404e-18
9688.20166 2.83285e-18
9689.86930 2.52262e-18
9691.52689 2.21267e-18
9693.18448 2.50845e-18
9694.85212 2.80411e-18
9696.50971 2.84250e-18
9698.16730 2.88097e-18
9699.82489 3.08981e-18
9701.49252 3.29829e-18
9703.15011 2.70153e-18
9704.80770 2.10511e-18
9706.46529 2.23556e-18
9708.13293 2.36598e-18
9709.79052 2.42073e-18
9711.44811 2.47534e-18
9713.11574 2.21411e-18
9714.77333 1.95312e-18
9716.43092 2.21876e-18
9718.08851 2.48440e-18
9719.75615 2.72616e-18
9721.41374 2.96770e-18
9723.07133 2.73417e-18
9724.73897 2.50079e-18
9726.39656 2.55051e-18
9728.05415 2.60025e-18
9729.71174 2.67737e-18
9731.37937 2.75438e-18
9733.03696 2.59981e-18
9734.69455 2.44533e-18
9736.35214 2.51260e-18
9738.01978 2.57987e-18
9739.67737 2.69157e-18
9741.33496 2.80321e-18
9743.00259 2.80134e-18
9744.66018 2.79942e-18
9746.31777 2.65560e-18
9747.97536 2.51179e-18
9749.64300 2.38926e-18
9751.30059 2.26690e-18
9752.95818 2.51706e-18
9754.62582 2.76699e-18
9756.28341 2.56665e-18
9757.94100 2.36644e-18
9759.59859 2.46066e-18
9761.26622 2.55487e-18
9762.92381 2.62459e-18
9764.58140 2.69426e-18
9766.23899 2.64973e-18
9767.90663 2.60530e-18
9769.56422 2.72453e-18
9771.22181 2.84366e-18
9772.87940 2.74912e-18
9774.54703 2.65458e-18
9776.20462 2.50825e-18
9777.86221 2.36193e-18
9779.52985 2.23853e-18
9781.18744 2.11529e-18
9782.84503 2.33656e-18
9784.50262 2.55772e-18
9786.17026 2.50630e-18
9787.82785 2.45520e-18
9789.48544 3.06305e-18
9791.15307 3.67049e-18
9792.81066 3.36366e-18
9794.46825 3.05692e-18
9796.12584 2.90110e-18
9797.79348 2.74539e-18
9799.45107 2.83854e-18
9801.10866 2.93139e-18
9802.76625 2.40597e-18
9804.43388 1.88071e-18
9806.09147 1.70831e-18
9807.74906 1.53619e-18
9809.41670 1.93787e-18
9811.07429 2.33939e-18
9812.73188 2.42291e-18
9814.38947 2.50641e-18
9816.05711 2.59194e-18
9817.71470 2.67739e-18
9819.37229 2.61152e-18
9821.03992 2.54560e-18
9822.69751 2.34436e-18
9824.35510 2.14336e-18
9826.01269 2.44105e-18
9827.68033 2.73853e-18
9829.33792 2.57449e-18
9830.99551 2.41058e-18
9832.65310 2.50162e-18
9834.32073 2.59258e-18
9835.97832 2.51896e-18
9837.63591 2.44530e-18
9839.30355 2.28931e-18
9840.96114 2.13354e-18
9842.61873 2.42958e-18
9844.27632 2.72563e-18
9845.94396 3.03683e-18
9847.60155 3.34781e-18
9849.25914 3.20476e-18
9850.91673 3.06170e-18
9852.58436 2.91663e-18
9854.24195 2.77156e-18
9855.89954 2.64304e-18
9857.56718 2.51457e-18
9859.22477 2.49333e-18
9860.88236 2.47211e-18
9862.53995 2.46583e-18
9864.20758 2.45977e-18
9865.86517 2.94228e-18
9867.52276 3.42451e-18
9869.18035 3.30012e-18
9870.84799 3.17583e-18
9872.50558 3.28915e-18
9874.16317 3.40256e-18
9875.83081 3.71188e-18
9877.48840 4.02081e-18
9879.14599 3.49577e-18
9880.80358 2.97075e-18
9882.47121 2.46677e-18
9884.12880 1.96323e-18
9885.78639 2.37123e-18
9887.44398 2.77914e-18
9889.11162 2.99650e-18
9890.76921 3.21379e-18
9892.42680 3.28004e-18
9894.09443 3.34631e-18
9895.75202 3.44713e-18
9897.40961 3.54792e-18
9899.06720 3.60165e-18
9900.73484 3.65506e-18
9902.39243 3.01915e-18
9904.05002 2.38351e-18
9905.70761 2.32204e-18
9907.37525 2.26055e-18
9909.03284 2.16432e-18
9910.69043 2.06814e-18
9912.35806 2.09303e-18
9914.01565 2.11808e-18
9915.67324 2.47503e-18
9917.33083 2.83174e-18
9918.99847 2.70832e-18
9920.65606 2.58499e-18
9922.31365 2.64078e-18
9923.98128 2.69659e-18
9925.63887 2.76756e-18
9927.29646 2.83858e-18
9928.95405 2.97351e-18
9930.62169 3.10810e-18
9932.27928 2.48670e-18
9933.93687 1.86552e-18
9935.59446 1.69083e-18
9937.26210 1.51651e-18
9938.91969 2.10289e-18
9940.57728 2.68910e-18
9942.23487 2.92936e-18
9943.90250 3.16950e-18
9945.56009 3.17122e-18
9947.21768 3.17275e-18
9948.88532 2.73412e-18
9950.54291 2.29593e-18
9952.20050 2.80193e-18
9953.85809 3.30768e-18
9955.52572 3.29986e-18
9957.18331 3.29188e-18
9958.84090 2.93806e-18
9960.50854 2.58436e-18
9962.16613 2.43009e-18
9963.82372 2.27587e-18
9965.48131 2.18761e-18
9967.14895 2.09930e-18
9968.80654 1.88633e-18
9970.46413 1.67342e-18
9972.12172 1.57169e-18
9973.78935 1.47001e-18
9975.44694 1.48371e-18
9977.10453 1.49761e-18
9978.77217 1.91547e-18
9980.42976 2.33311e-18
9982.08735 2.31169e-18
9983.74494 2.29035e-18
9985.41257 2.44807e-18
9987.07016 2.60582e-18
9988.72775 2.85211e-18
9990.39539 3.09823e-18
9992.05298 3.01652e-18
9993.71057 2.93470e-18
9995.36816 2.64153e-18
9997.03580 2.34825e-18
9998.69339 1.81658e-18
