# wavelength flux
3490.00262 1.40711e-17
3491.47286 2.64714e-17
3492.94310 1.98370e-17
3494.41334 1.50459e-17
3495.88358 1.56248e-17
3497.35382 1.87480e-17
3498.82406 1.51207e-17
3500.29430 1.71191e-17
3501.76454 2.70096e-17
3503.23478 2.59392e-17
3504.69481 1.65315e-17
3506.16505 1.99597e-17
3507.63529 2.25672e-17
3509.10553 2.60334e-17
3510.57577 1.85372e-17
3512.04601 1.91076e-17
3513.51625 2.60012e-17
3514.98649 1.24197e-17
3516.45673 7.58011e-18
3517.92697 1.86476e-17
3519.39721 1.31500e-17
3520.86745 1.43255e-17
3522.33769 2.45569e-17
3523.80793 2.46412e-17
3525.27817 1.48568e-17
3526.74841 1.51177e-17
3528.21865 2.85832e-17
3529.68889 3.39904e-17
3531.15913 2.45648e-17
3532.62937 1.81288e-17
3534.09961 1.94287e-17
3535.56985 1.63916e-17
3537.04009 1.32424e-17
3538.51033 2.78205e-17
3539.98057 1.52050e-17
3541.45081 1.57308e-17
3542.92105 2.16415e-17
3544.39129 2.13506e-17
3545.86153 2.84085e-17
3547.33177 2.14147e-17
3548.80201 2.48502e-17
3550.27225 2.29655e-17
3551.74249 2.43006e-17
3553.21273 2.08670e-17
3554.68297 2.70598e-17
3556.15321 2.55310e-17
3557.62345 2.26926e-17
3559.09369 1.61089e-17
3560.56393 1.58408e-17
3562.03417 1.86958e-17
3563.50441 1.78025e-17
3564.97465 1.84610e-17
3566.43468 2.65762e-17
3567.90492 2.03782e-17
3569.37516 2.01601e-17
3570.84540 2.11434e-17
3572.31564 2.17379e-17
3573.78588 1.40893e-17
3575.25612 1.69328e-17
3576.72636 1.82332e-17
3578.19660 2.04965e-17
3579.66684 2.78538e-17
3581.13708 2.08400e-17
3582.60732 2.25992e-17
3584.07756 2.29492e-17
3585.54780 1.08697e-17
3587.01804 2.23385e-17
3588.48828 2.69968e-17
3589.95852 1.90282e-17
3591.42876 2.20580e-17
3592.89900 2.42239e-17
3594.36924 2.22843e-17
3595.83948 1.88382e-17
3597.30972 1.31915e-17
3598.77996 1.61033e-17
3600.25020 1.84913e-17
3601.72044 2.08783e-17
3603.19068 2.32644e-17
3604.66092 2.56496e-17
3606.13116 2.80339e-17
3607.60140 2.80286e-17
3609.07164 1.97917e-17
3610.54188 1.59466e-17
3612.01212 1.80429e-17
3613.48236 2.73035e-17
3614.95260 1.79096e-17
3616.42284 2.14062e-17
3617.89308 2.78402e-17
3619.36332 1.80200e-17
3620.83356 2.05625e-17
3622.30380 1.61721e-17
3623.77404 2.60096e-17
3625.24428 2.68505e-17
3626.71452 2.03411e-17
3628.18476 1.86689e-17
3629.64479 1.49403e-17
3631.11503 1.70547e-17
3632.58527 1.99949e-17
3634.05551 2.22590e-17
3635.52575 2.18299e-17
3636.99599 2.36067e-17
3638.46623 2.06622e-17
3639.93647 1.88626e-17
3641.40671 1.83455e-17
3642.87695 1.69011e-17
3644.34719 2.02701e-17
3645.81743 2.85867e-17
3647.28767 2.92309e-17
3648.75791 2.37277e-17
3650.22815 2.53025e-17
3651.69839 1.85052e-17
3653.16863 2.53332e-17
3654.63887 2.62600e-17
3656.10911 2.31534e-17
3657.57935 1.98152e-17
3659.04959 1.84235e-17
3660.51983 2.99791e-17
3661.99007 2.57648e-17
3663.46031 1.87284e-17
3664.93055 1.99458e-17
3666.40079 2.61829e-17
3667.87103 1.91635e-17
3669.34127 1.49656e-17
3670.81151 1.66831e-17
3672.28175 2.03728e-17
3673.75199 1.74014e-17
3675.22223 1.70683e-17
3676.69247 2.02447e-17
3678.16271 2.14543e-17
3679.63295 1.82904e-17
3681.10319 1.51162e-17
3682.57343 1.75896e-17
3684.04367 2.33259e-17
3685.51391 2.03452e-17
3686.98415 2.07612e-17
3688.45439 1.82462e-17
3689.92463 2.14185e-17
3691.39487 2.76042e-17
3692.86511 2.77906e-17
3694.32514 2.21564e-17
3695.79538 1.06576e-17
3697.26562 1.83010e-17
3698.73586 2.40753e-17
3700.20610 1.56596e-17
3701.67634 1.73409e-17
3703.14658 1.44906e-17
3704.61682 1.58327e-17
3706.08706 2.15784e-17
3707.55730 2.02088e-17
3709.02754 1.87275e-17
3710.49778 2.20053e-17
3711.96802 2.20204e-17
3713.43826 2.05230e-17
3714.90850 1.49556e-17
3716.37874 2.43060e-17
3717.84898 2.03102e-17
3719.31922 1.89387e-17
3720.78946 1.93802e-17
3722.25970 2.92105e-17
3723.72994 2.27097e-17
3725.20018 1.90320e-17
3726.67042 2.34121e-17
3728.14066 1.78760e-17
3729.61090 1.93552e-17
3731.08114 1.57811e-17
3732.55138 2.09912e-17
3734.02162 1.34530e-17
3735.49186 1.27140e-17
3736.96210 1.55747e-17
3738.43234 1.87812e-17
3739.90258 1.66778e-17
3741.37282 1.57474e-17
3742.84306 1.68501e-17
3744.31330 1.74949e-17
3745.78354 1.94352e-17
3747.25378 1.78491e-17
3748.72402 1.68782e-17
3750.19426 2.05666e-17
3751.66450 2.12547e-17
3753.13474 1.97742e-17
3754.60498 1.94645e-17
3756.06501 1.68521e-17
3757.53525 1.58854e-17
3759.00549 1.62791e-17
3760.47573 1.70185e-17
3761.94597 1.22448e-17
3763.41621 1.44895e-17
3764.88645 1.84853e-17
3766.35669 1.76411e-17
3767.82693 1.31590e-17
3769.29717 1.13430e-17
3770.76741 1.74299e-17
3772.23765 1.25190e-17
3773.70789 1.00537e-17
3775.17813 1.37301e-17
3776.64837 1.31559e-17
3778.11861 1.29501e-17
3779.58885 1.08094e-17
3781.05909 1.30642e-17
3782.52933 1.56461e-17
3783.99957 1.12228e-17
3785.46981 1.15840e-17
3786.94005 1.09116e-17
3788.41029 1.27319e-17
3789.88053 1.32946e-17
3791.35077 8.68648e-18
3792.82101 1.15595e-17
3794.29125 1.26607e-17
3795.76149 1.41566e-17
3797.23173 1.30570e-17
3798.70197 1.07998e-17
3800.17221 7.33190e-18
3801.64245 1.01890e-17
3803.11269 1.15275e-17
3804.58293 1.15804e-17
3806.05317 9.86920e-18
3807.52341 7.84482e-18
3808.99365 1.24937e-17
3810.46389 1.19915e-17
3811.93413 4.37607e-18
3813.40437 7.81851e-18
3814.87461 9.01440e-18
3816.34485 1.26130e-17
3817.80488 1.42577e-17
3819.27512 1.03324e-17
3820.74536 6.68910e-18
3822.21560 1.03294e-17
3823.68584 8.34091e-18
3825.15608 6.83156e-18
3826.62632 9.31039e-18
3828.09656 8.28623e-18
3829.56680 7.61163e-18
3831.03704 8.99863e-18
3832.50728 1.03127e-17
3833.97752 6.55817e-18
3835.44776 6.34582e-18
3836.91800 8.30617e-18
3838.38824 7.13359e-18
3839.85848 5.99835e-18
3841.32872 8.14920e-18
3842.79896 9.04132e-18
3844.26920 9.36686e-18
3845.73944 9.83237e-18
3847.20968 7.92248e-18
3848.67992 7.35634e-18
3850.15016 8.58640e-18
3851.62040 8.32811e-18
3853.09064 7.47532e-18
3854.56088 7.43008e-18
3856.03112 8.91719e-18
3857.50136 8.47833e-18
3858.97160 7.32578e-18
3860.44184 6.64344e-18
3861.91208 8.20624e-18
3863.38232 7.61420e-18
3864.85256 1.07196e-17
3866.32280 1.03348e-17
3867.79304 5.32193e-18
3869.26328 9.02633e-18
3870.73352 1.20341e-17
3872.20376 7.77642e-18
3873.67400 5.23580e-18
3875.14424 6.62407e-18
3876.61448 5.08415e-18
3878.08472 7.70046e-18
3879.55496 6.73729e-18
3881.01499 6.59532e-18
3882.48523 7.02169e-18
3883.95547 6.38288e-18
3885.42571 7.45478e-18
3886.89595 6.40739e-18
3888.36619 8.11981e-18
3889.83643 7.62595e-18
3891.30667 7.76218e-18
3892.77691 1.27908e-17
3894.24715 1.02706e-17
3895.71739 9.77831e-18
3897.18763 9.78681e-18
3898.65787 9.74314e-18
3900.12811 9.45211e-18
3901.59835 9.11422e-18
3903.06859 1.07395e-17
3904.53883 7.55115e-18
3906.00907 1.06565e-17
3907.47931 1.36595e-17
3908.94955 1.53838e-17
3910.41979 1.14089e-17
3911.89003 1.16952e-17
3913.36027 1.15053e-17
3914.83051 9.95520e-18
3916.30075 9.91164e-18
3917.77099 1.18378e-17
3919.24123 1.45453e-17
3920.71147 9.45896e-18
3922.18171 1.19702e-17
3923.65195 1.24229e-17
3925.12219 1.63476e-17
3926.59243 1.36027e-17
3928.06267 1.27649e-17
3929.53291 1.36148e-17
3931.00315 1.18927e-17
3932.47339 1.24110e-17
3933.94363 1.39951e-17
3935.41387 1.50001e-17
3936.88411 1.57941e-17
3938.35435 1.63519e-17
3939.82459 1.23194e-17
3941.29483 1.62865e-17
3942.76507 1.63707e-17
3944.22510 1.64659e-17
3945.69534 1.63647e-17
3947.16558 1.66498e-17
3948.63582 1.68535e-17
3950.10606 1.86795e-17
3951.57630 2.03198e-17
3953.04654 1.92284e-17
3954.51678 1.92702e-17
3955.98702 1.68680e-17
3957.45726 2.13944e-17
3958.92750 2.12913e-17
3960.39774 1.84116e-17
3961.86798 1.94759e-17
3963.33822 2.01240e-17
3964.80846 1.90245e-17
3966.27870 2.00609e-17
3967.74894 2.05676e-17
3969.21918 2.10066e-17
3970.68942 2.07847e-17
3972.15966 2.28833e-17
3973.62990 2.59369e-17
3975.10014 2.33740e-17
3976.57038 2.32203e-17
3978.04062 2.24576e-17
3979.51086 2.20459e-17
3980.98110 2.29073e-17
3982.45134 2.38194e-17
3983.92158 2.52338e-17
3985.39182 2.42361e-17
3986.86206 2.66086e-17
3988.33230 2.63359e-17
3989.80254 2.69371e-17
3991.27278 2.82963e-17
3992.74302 2.72326e-17
3994.21326 2.76940e-17
3995.68350 2.75968e-17
3997.15374 2.55454e-17
3998.62398 2.50136e-17
4000.09422 2.52766e-17
4001.56446 2.60970e-17
4003.03470 2.77597e-17
4004.50494 2.67494e-17
4005.96497 2.48307e-17
4007.43521 2.23329e-17
4008.90545 2.15545e-17
4010.37569 2.34990e-17
4011.84593 2.49841e-17
4013.31617 2.57752e-17
4014.78641 2.65662e-17
4016.25665 2.73570e-17
4017.72689 2.81476e-17
4019.19713 2.81444e-17
4020.66737 2.51988e-17
4022.13761 2.79637e-17
4023.60785 2.80653e-17
4025.07809 2.86154e-17
4026.54833 2.75515e-17
4028.01857 2.45628e-17
4029.48881 2.55436e-17
4030.95905 2.53767e-17
4032.42929 2.56227e-17
4033.89953 2.40045e-17
4035.36977 2.56934e-17
4036.84001 2.87135e-17
4038.31025 2.81307e-17
4039.78049 2.71447e-17
4041.25073 2.70549e-17
4042.72097 2.86674e-17
4044.19121 2.86363e-17
4045.66145 2.60817e-17
4047.13169 2.70394e-17
4048.60193 3.00957e-17
4050.07217 2.83885e-17
4051.54241 2.73980e-17
4053.01265 2.99526e-17
4054.48289 2.88661e-17
4055.95313 2.68914e-17
4057.42337 2.85297e-17
4058.89361 2.89654e-17
4060.36385 2.76770e-17
4061.83409 2.43001e-17
4063.30433 2.50218e-17
4064.77457 2.85011e-17
4066.24481 2.53368e-17
4067.70484 2.61879e-17
4069.17508 2.69245e-17
4070.64532 2.59916e-17
4072.11556 2.41246e-17
4073.58580 2.54315e-17
4075.05604 2.72588e-17
4076.52628 2.69750e-17
4077.99652 2.71010e-17
4079.46676 2.74024e-17
4080.93700 2.57580e-17
4082.40724 2.54563e-17
4083.87748 2.43309e-17
4085.34772 2.48047e-17
4086.81796 2.73599e-17
4088.28820 2.76117e-17
4089.75844 2.62259e-17
4091.22868 2.67198e-17
4092.69892 2.66477e-17
4094.16916 2.91064e-17
4095.63940 2.87828e-17
4097.10964 2.80726e-17
4098.57988 2.83576e-17
4100.05012 2.73196e-17
4101.52036 2.52778e-17
4102.99060 2.63542e-17
4104.46084 2.44226e-17
4105.93108 2.19941e-17
4107.40132 2.52305e-17
4108.87156 2.35473e-17
4110.34180 2.24045e-17
4111.81204 2.37734e-17
4113.28228 2.40739e-17
4114.75252 2.35809e-17
4116.22276 2.20265e-17
4117.69300 2.15634e-17
4119.16324 1.96691e-17
4120.63348 1.78249e-17
4122.10372 2.11431e-17
4123.57396 2.32382e-17
4125.04420 2.36489e-17
4126.51444 2.32663e-17
4127.98468 2.33679e-17
4129.45492 2.28021e-17
4130.91495 2.04732e-17
4132.38519 2.05771e-17
4133.85543 1.99757e-17
4135.32567 2.09414e-17
4136.79591 2.32924e-17
4138.26615 2.12387e-17
4139.73639 2.10826e-17
4141.20663 2.20243e-17
4142.67687 2.13648e-17
4144.14711 2.05546e-17
4145.61735 2.30794e-17
4147.08759 2.40575e-17
4148.55783 2.21186e-17
4150.02807 2.10114e-17
4151.49831 1.87920e-17
4152.96855 1.97736e-17
4154.43879 1.85121e-17
4155.90903 2.03542e-17
4157.37927 1.99167e-17
4158.84951 2.11658e-17
4160.31975 2.04975e-17
4161.78999 2.12359e-17
4163.26023 1.94262e-17
4164.73047 1.91163e-17
4166.20071 2.02161e-17
4167.67095 2.02063e-17
4169.14119 1.93791e-17
4170.61143 1.84958e-17
4172.08167 1.86712e-17
4173.55191 1.93273e-17
4175.02215 1.89727e-17
4176.49239 1.73213e-17
4177.96263 1.97572e-17
4179.43287 1.87608e-17
4180.90311 1.80500e-17
4182.37335 1.88020e-17
4183.84359 1.97919e-17
4185.31383 2.01173e-17
4186.78407 2.04503e-17
4188.25431 2.01262e-17
4189.72455 1.91281e-17
4191.19479 2.01178e-17
4192.66503 1.83508e-17
4194.12506 1.85830e-17
4195.59530 1.79240e-17
4197.06554 2.12997e-17
4198.53578 2.16692e-17
4200.00602 1.92858e-17
4201.47626 1.86521e-17
4202.94650 1.99674e-17
4204.41674 1.78727e-17
4205.88698 1.79781e-17
4207.35722 1.93800e-17
4208.82746 1.86535e-17
4210.29770 2.00752e-17
4211.76794 2.04879e-17
4213.23818 2.02698e-17
4214.70842 2.01326e-17
4216.17866 1.94371e-17
4217.64890 2.11318e-17
4219.11914 2.28457e-17
4220.58938 2.28276e-17
4222.05962 2.08080e-17
4223.52986 1.98195e-17
4225.00010 2.06333e-17
4226.47034 1.96751e-17
4227.94058 2.02202e-17
4229.41082 1.92741e-17
4230.88106 1.86017e-17
4232.35130 1.99330e-17
4233.82154 2.17632e-17
4235.29178 1.98661e-17
4236.76202 1.85604e-17
4238.23226 2.04513e-17
4239.70250 2.23863e-17
4241.17274 2.24340e-17
4242.64298 2.11955e-17
4244.11322 2.02735e-17
4245.58346 1.98751e-17
4247.05370 1.82472e-17
4248.52394 1.93609e-17
4249.99418 2.05415e-17
4251.46442 2.01322e-17
4252.93466 2.10195e-17
4254.40490 2.13531e-17
4255.86493 1.92053e-17
4257.33517 1.76778e-17
4258.80541 1.94885e-17
4260.27565 2.14865e-17
4261.74589 2.10419e-17
4263.21613 2.10012e-17
4264.68637 2.08363e-17
4266.15661 1.98588e-17
4267.62685 1.98011e-17
4269.09709 1.97434e-17
4270.56733 1.96857e-17
4272.03757 1.96281e-17
4273.50781 1.95704e-17
4274.97805 1.95128e-17
4276.44829 1.94551e-17
4277.91853 1.93975e-17
4279.38877 1.93953e-17
4280.85901 2.02691e-17
4282.32925 2.09466e-17
4283.79949 2.05285e-17
4285.26973 1.99151e-17
4286.73997 1.94184e-17
4288.21021 1.90060e-17
4289.68045 2.01071e-17
4291.15069 1.93584e-17
4292.62093 1.82767e-17
4294.09117 1.87449e-17
4295.56141 1.82991e-17
4297.03165 1.85361e-17
4298.50189 1.83904e-17
4299.97213 1.81008e-17
4301.44237 1.93420e-17
4302.91261 1.95229e-17
4304.38285 2.00548e-17
4305.85309 2.09233e-17
4307.32333 1.81082e-17
4308.79357 1.74175e-17
4310.26381 1.74849e-17
4311.73405 1.72433e-17
4313.20429 1.95636e-17
4314.67453 2.09743e-17
4316.14477 2.05631e-17
4317.60480 1.84412e-17
4319.07504 1.65131e-17
4320.54528 1.71190e-17
4322.01552 1.84434e-17
4323.48576 1.86766e-17
4324.95600 1.93742e-17
4326.42624 2.07814e-17
4327.89648 2.18983e-17
4329.36672 2.02442e-17
4330.83696 1.95717e-17
4332.30720 1.84302e-17
4333.77744 1.99856e-17
4335.24768 2.23211e-17
4336.71792 1.94262e-17
4338.18816 1.95723e-17
4339.65840 2.05072e-17
4341.12864 2.11895e-17
4342.59888 1.89465e-17
4344.06912 1.78342e-17
4345.53936 1.96237e-17
4347.00960 2.03394e-17
4348.47984 1.85081e-17
4349.95008 1.96054e-17
4351.42032 1.98662e-17
4352.89056 1.90183e-17
4354.36080 1.78324e-17
4355.83104 1.96183e-17
4357.30128 2.10133e-17
4358.77152 2.10506e-17
4360.24176 1.94765e-17
4361.71200 1.95688e-17
4363.18224 1.82090e-17
4364.65248 1.95604e-17
4366.12272 1.77751e-17
4367.59296 1.62717e-17
4369.06320 1.96547e-17
4370.53344 2.07715e-17
4372.00368 2.04481e-17
4373.47392 1.96311e-17
4374.94416 1.82812e-17
4376.41440 1.96107e-17
4377.88464 2.12533e-17
4379.35488 2.14688e-17
4380.81491 2.08788e-17
4382.28515 2.04382e-17
4383.75539 1.97977e-17
4385.22563 1.89608e-17
4386.69587 1.83298e-17
4388.16611 1.83303e-17
4389.63635 1.85621e-17
4391.10659 1.97058e-17
4392.57683 2.15352e-17
4394.04707 1.89883e-17
4395.51731 1.81052e-17
4396.98755 1.76759e-17
4398.45779 1.87079e-17
4399.92803 1.90279e-17
4401.39827 1.99155e-17
4402.86851 1.89853e-17
4404.33875 1.82710e-17
4405.80899 1.79790e-17
4407.27923 1.71045e-17
4408.74947 1.86781e-17
4410.21971 1.79237e-17
4411.68995 1.78199e-17
4413.16019 1.93010e-17
4414.63043 1.68428e-17
4416.10067 1.78455e-17
4417.57091 1.96615e-17
4419.04115 1.80250e-17
4420.51139 1.66850e-17
4421.98163 1.62965e-17
4423.45187 1.63529e-17
4424.92211 1.69372e-17
4426.39235 1.72534e-17
4427.86259 1.62937e-17
4429.33283 1.53304e-17
4430.80307 1.47456e-17
4432.27331 1.51586e-17
4433.74355 1.50080e-17
4435.21379 1.66529e-17
4436.68403 1.53902e-17
4438.15427 1.57548e-17
4439.62451 1.46646e-17
4441.09475 1.46441e-17
4442.56499 1.62398e-17
4444.02502 1.61834e-17
4445.49526 1.46702e-17
4446.96550 1.52007e-17
4448.43574 1.35543e-17
4449.90598 1.42845e-17
4451.37622 1.39103e-17
4452.84646 1.32168e-17
4454.31670 1.43908e-17
4455.78694 1.34924e-17
4457.25718 1.33303e-17
4458.72742 1.48762e-17
4460.19766 1.55933e-17
4461.66790 1.39910e-17
4463.13814 1.45631e-17
4464.60838 1.52396e-17
4466.07862 1.36974e-17
4467.54886 1.27698e-17
4469.01910 1.32087e-17
4470.48934 1.35802e-17
4471.95958 1.36376e-17
4473.42982 1.26954e-17
4474.90006 1.29365e-17
4476.37030 1.29446e-17
4477.84054 1.32508e-17
4479.31078 1.46016e-17
4480.78102 1.48111e-17
4482.25126 1.47019e-17
4483.72150 1.35167e-17
4485.19174 1.26836e-17
4486.66198 1.49694e-17
4488.13222 1.50665e-17
4489.60246 1.35737e-17
4491.07270 1.36031e-17
4492.54294 1.37169e-17
4494.01318 1.28922e-17
4495.48342 1.11596e-17
4496.95366 1.23644e-17
4498.42390 1.44278e-17
4499.89414 1.47354e-17
4501.36438 1.41232e-17
4502.83462 1.37213e-17
4504.29465 1.46768e-17
4505.76489 1.52915e-17
4507.23513 1.28508e-17
4508.70537 1.26600e-17
4510.17561 1.43417e-17
4511.64585 1.48095e-17
4513.11609 1.44161e-17
4514.58633 1.42271e-17
4516.05657 1.48996e-17
4517.52681 1.45663e-17
4518.99705 1.21143e-17
4520.46729 1.22208e-17
4521.93753 1.48623e-17
4523.40777 1.48041e-17
4524.87801 1.49090e-17
4526.34825 1.47333e-17
4527.81849 1.31546e-17
4529.28873 1.35739e-17
4530.75897 1.44540e-17
4532.22921 1.46586e-17
4533.69945 1.42219e-17
4535.16969 1.43374e-17
4536.63993 1.45115e-17
4538.11017 1.52491e-17
4539.58041 1.54704e-17
4541.05065 1.56954e-17
4542.52089 1.63808e-17
4543.99113 1.66673e-17
4545.46137 1.69538e-17
4546.93161 1.72402e-17
4548.40185 1.75265e-17
4549.87209 1.75242e-17
4551.34233 1.54130e-17
4552.81257 1.69044e-17
4554.28281 1.95685e-17
4555.75305 1.81295e-17
4557.22329 1.63949e-17
4558.69353 1.54518e-17
4560.16377 1.60068e-17
4561.63401 1.95497e-17
4563.10425 2.00450e-17
4564.57449 1.82825e-17
4566.04473 1.79075e-17
4567.50476 1.92368e-17
4568.97500 1.86991e-17
4570.44524 1.89798e-17
4571.91548 2.00244e-17
4573.38572 1.83838e-17
4574.85596 1.75795e-17
4576.32620 1.86359e-17
4577.79644 1.91888e-17
4579.26668 2.04002e-17
4580.73692 1.95874e-17
4582.20716 1.73495e-17
4583.67740 1.89236e-17
4585.14764 2.09479e-17
4586.61788 2.03951e-17
4588.08812 1.88616e-17
4589.55836 2.00865e-17
4591.02860 2.04794e-17
4592.49884 1.85581e-17
4593.96908 2.03187e-17
4595.43932 2.12697e-17
4596.90956 2.08117e-17
4598.37980 2.07532e-17
4599.85004 1.96391e-17
4601.32028 2.12424e-17
4602.79052 2.13205e-17
4604.26076 1.97252e-17
4605.73100 2.00993e-17
4607.20124 2.11611e-17
4608.67148 2.35171e-17
4610.14172 2.69406e-17
4611.61196 2.98196e-17
4613.08220 3.03848e-17
4614.55244 2.84525e-17
4616.02268 2.49861e-17
4617.49292 2.43873e-17
4618.96316 2.42042e-17
4620.43340 2.24802e-17
4621.90364 2.18897e-17
4623.37388 2.08256e-17
4624.84412 1.98054e-17
4626.31436 2.01869e-17
4627.78460 2.10814e-17
4629.25484 2.16337e-17
4630.72508 2.08017e-17
4632.18511 2.13389e-17
4633.65535 2.24456e-17
4635.12559 2.11450e-17
4636.59583 2.05002e-17
4638.06607 2.13000e-17
4639.53631 2.19391e-17
4641.00655 2.22346e-17
4642.47679 2.18179e-17
4643.94703 2.12654e-17
4645.41727 2.13962e-17
4646.88751 2.33184e-17
4648.35775 2.39802e-17
4649.82799 2.28167e-17
4651.29823 2.25727e-17
4652.76847 2.15757e-17
4654.23871 2.17258e-17
4655.70895 2.31527e-17
4657.17919 2.40042e-17
4658.64943 2.35193e-17
4660.11967 2.23497e-17
4661.58991 2.23939e-17
4663.06015 2.20286e-17
4664.53039 2.30040e-17
4666.00063 2.38606e-17
4667.47087 2.29319e-17
4668.94111 2.24422e-17
4670.41135 2.22637e-17
4671.88159 2.24580e-17
4673.35183 2.29368e-17
4674.82207 2.32514e-17
4676.29231 2.39579e-17
4677.76255 2.43854e-17
4679.23279 2.49293e-17
4680.70303 2.51076e-17
4682.17327 2.40934e-17
4683.64351 2.27949e-17
4685.11375 2.29819e-17
4686.58399 2.31432e-17
4688.05423 2.30176e-17
4689.52447 2.35132e-17
4690.99471 2.41078e-17
4692.45474 2.40557e-17
4693.92498 2.34064e-17
4695.39522 2.34882e-17
4696.86546 2.30186e-17
4698.33570 2.18617e-17
4699.80594 2.33669e-17
4701.27618 2.44344e-17
4702.74642 2.38535e-17
4704.21666 2.41192e-17
4705.68690 2.43280e-17
4707.15714 2.43359e-17
4708.62738 2.35732e-17
4710.09762 2.28118e-17
4711.56786 2.39626e-17
4713.03810 2.40327e-17
4714.50834 2.29163e-17
4715.97858 2.35398e-17
4717.44882 2.45098e-17
4718.91906 2.40430e-17
4720.38930 2.35237e-17
4721.85954 2.30798e-17
4723.32978 2.20475e-17
4724.80002 2.18308e-17
4726.27026 2.31813e-17
4727.74050 2.34415e-17
4729.21074 2.27083e-17
4730.68098 2.30426e-17
4732.15122 2.36802e-17
4733.62146 2.43369e-17
4735.09170 2.48339e-17
4736.56194 2.47948e-17
4738.03218 2.32590e-17
4739.50242 2.21749e-17
4740.97266 2.27416e-17
4742.44290 2.34887e-17
4743.91314 2.36108e-17
4745.38338 2.35603e-17
4746.85362 2.41724e-17
4748.32386 2.41603e-17
4749.79410 2.18545e-17
4751.26434 2.22458e-17
4752.73458 2.34381e-17
4754.20482 2.32860e-17
4755.66485 2.29250e-17
4757.13509 2.13970e-17
4758.60533 2.20297e-17
4760.07557 2.32126e-17
4761.54581 2.19929e-17
4763.01605 2.07475e-17
4764.48629 2.15650e-17
4765.95653 2.25312e-17
4767.42677 2.20787e-17
4768.89701 2.06016e-17
4770.36725 2.00983e-17
4771.83749 2.07665e-17
4773.30773 2.11299e-17
4774.77797 2.09063e-17
4776.24821 2.14046e-17
4777.71845 2.14025e-17
4779.18869 2.09426e-17
4780.65893 2.07397e-17
4782.12917 2.04404e-17
4783.59941 2.04474e-17
4785.06965 2.06958e-17
4786.53989 2.07429e-17
4788.01013 2.09481e-17
4789.48037 2.17327e-17
4790.95061 2.01061e-17
4792.42085 1.83870e-17
4793.89109 1.93955e-17
4795.36133 2.01250e-17
4796.83157 2.00131e-17
4798.30181 1.94542e-17
4799.77205 1.93614e-17
4801.24229 1.99477e-17
4802.71253 1.94490e-17
4804.18277 1.83983e-17
4805.65301 1.88679e-17
4807.12325 1.84327e-17
4808.59349 1.75863e-17
4810.06373 1.75448e-17
4811.53397 1.76959e-17
4813.00421 1.81408e-17
4814.47445 1.80862e-17
4815.94469 1.77737e-17
4817.41493 1.78453e-17
4818.87496 1.73161e-17
4820.34520 1.70226e-17
4821.81544 1.69780e-17
4823.28568 1.73750e-17
4824.75592 1.82636e-17
4826.22616 1.73579e-17
4827.69640 1.56122e-17
4829.16664 1.46689e-17
4830.63688 1.57118e-17
4832.10712 1.63915e-17
4833.57736 1.66161e-17
4835.04760 1.60802e-17
4836.51784 1.50560e-17
4837.98808 1.53454e-17
4839.45832 1.54843e-17
4840.92856 1.43440e-17
4842.39880 1.39701e-17
4843.86904 1.51227e-17
4845.33928 1.42315e-17
4846.80952 1.20781e-17
4848.27976 1.19658e-17
4849.75000 1.36942e-17
4851.22024 1.47728e-17
4852.69048 1.37627e-17
4854.16072 1.29405e-17
4855.63096 1.37085e-17
4857.10120 1.32314e-17
4858.57144 1.17615e-17
4860.04168 1.25416e-17
4861.51192 1.33374e-17
4862.98216 1.38319e-17
4864.45240 1.37799e-17
4865.92264 1.31260e-17
4867.39288 1.26523e-17
4868.86312 1.26783e-17
4870.33336 1.25024e-17
4871.80360 1.16903e-17
4873.27384 1.18943e-17
4874.74408 1.29232e-17
4876.21432 1.32346e-17
4877.68456 1.25769e-17
4879.14459 1.17208e-17
4880.61483 1.18631e-17
4882.08507 1.26188e-17
4883.55531 1.20006e-17
4885.02555 1.12848e-17
4886.49579 1.16938e-17
4887.96603 1.25402e-17
4889.43627 1.34421e-17
4890.90651 1.30756e-17
4892.37675 1.27368e-17
4893.84699 1.21635e-17
4895.31723 1.22113e-17
4896.78747 1.34244e-17
4898.25771 1.22759e-17
4899.72795 1.19179e-17
4901.19819 1.27566e-17
4902.66843 1.26557e-17
4904.13867 1.21129e-17
4905.60891 1.18024e-17
4907.07915 1.30467e-17
4908.54939 1.38135e-17
4910.01963 1.33414e-17
4911.48987 1.39265e-17
4912.96011 1.33638e-17
4914.43035 1.17148e-17
4915.90059 1.19181e-17
4917.37083 1.23775e-17
4918.84107 1.26042e-17
4920.31131 1.33877e-17
4921.78155 1.30270e-17
4923.25179 1.22895e-17
4924.72203 1.20793e-17
4926.19227 1.21565e-17
4927.66251 1.23812e-17
4929.13275 1.28567e-17
4930.60299 1.25329e-17
4932.07323 1.13957e-17
4933.54347 1.18506e-17
4935.01371 1.27512e-17
4936.48395 1.12594e-17
4937.95419 9.95967e-18
4939.42443 1.06597e-17
4940.89467 1.15849e-17
4942.36491 1.15788e-17
4943.83515 1.05064e-17
4945.29518 1.12900e-17
4946.76542 1.26824e-17
4948.23566 1.21752e-17
4949.70590 1.11148e-17
4951.17614 1.16552e-17
4952.64638 1.27332e-17
4954.11662 1.09977e-17
4955.58686 1.02309e-17
4957.05710 1.06058e-17
4958.52734 1.05655e-17
4959.99758 1.12146e-17
4961.46782 1.10265e-17
4962.93806 1.08701e-17
4964.40830 1.14401e-17
4965.87854 1.08412e-17
4967.34878 1.15441e-17
4968.81902 1.32996e-17
4970.28926 1.28829e-17
4971.75950 1.23855e-17
4973.22974 1.20165e-17
4974.69998 1.14287e-17
4976.17022 1.20666e-17
4977.64046 1.31659e-17
4979.11070 1.28268e-17
4980.58094 1.23420e-17
4982.05118 1.28783e-17
4983.52142 1.37255e-17
4984.99166 1.33073e-17
4986.46190 1.31898e-17
4987.93214 1.41007e-17
4989.40238 1.37297e-17
4990.87262 1.30692e-17
4992.34286 1.31607e-17
4993.81310 1.35774e-17
4995.28334 1.35702e-17
4996.75358 1.37032e-17
4998.22382 1.47088e-17
4999.69406 1.53547e-17
5001.16430 1.50348e-17
5002.63454 1.45896e-17
5004.10478 1.46778e-17
5005.56481 1.49996e-17
5007.03505 1.44348e-17
5008.50529 1.48438e-17
5009.97553 1.72147e-17
5011.44577 1.72831e-17
5012.91601 1.55643e-17
5014.38625 1.62222e-17
5015.85649 1.64992e-17
5017.32673 1.56745e-17
5018.79697 1.52962e-17
5020.26721 1.59952e-17
5021.73745 1.64466e-17
5023.20769 1.57391e-17
5024.67793 1.63936e-17
5026.14817 1.64189e-17
5027.61841 1.62859e-17
5029.08865 1.71783e-17
5030.55889 1.75914e-17
5032.02913 1.67637e-17
5033.49937 1.64078e-17
5034.96961 1.69517e-17
5036.43985 1.70358e-17
5037.91009 1.66080e-17
5039.38033 1.66079e-17
5040.85057 1.74469e-17
5042.32081 1.81817e-17
5043.79105 1.74738e-17
5045.26129 1.64774e-17
5046.73153 1.61518e-17
5048.20177 1.60024e-17
5049.67201 1.53190e-17
5051.14225 1.61116e-17
5052.61249 1.69178e-17
5054.08273 1.64196e-17
5055.55297 1.63442e-17
5057.02321 1.67438e-17
5058.49345 1.61204e-17
5059.96369 1.47001e-17
5061.43393 1.37850e-17
5062.90417 1.44493e-17
5064.37441 1.57464e-17
5065.84465 1.63487e-17
5067.30468 1.55231e-17
5068.77492 1.46261e-17
5070.24516 1.40471e-17
5071.71540 1.42277e-17
5073.18564 1.46828e-17
5074.65588 1.42101e-17
5076.12612 1.35754e-17
5077.59636 1.29533e-17
5079.06660 1.24469e-17
5080.53684 1.30033e-17
5082.00708 1.37723e-17
5083.47732 1.38411e-17
5084.94756 1.28920e-17
5086.41780 1.26480e-17
5087.88804 1.25234e-17
5089.35828 1.23662e-17
5090.82852 1.23186e-17
5092.29876 1.15607e-17
5093.76900 1.20348e-17
5095.23924 1.34703e-17
5096.70948 1.34115e-17
5098.17972 1.20737e-17
5099.64996 1.16928e-17
5101.12020 1.24901e-17
5102.59044 1.24784e-17
5104.06068 1.17255e-17
5105.53092 1.18933e-17
5107.00116 1.10491e-17
5108.47140 1.10768e-17
5109.94164 1.17962e-17
5111.41188 1.07591e-17
5112.88212 1.12581e-17
5114.35236 1.20496e-17
5115.82260 1.17153e-17
5117.29284 1.16404e-17
5118.76308 1.20954e-17
5120.23332 1.21465e-17
5121.70356 1.17908e-17
5123.17380 1.20929e-17
5124.64404 1.24032e-17
5126.11428 1.21829e-17
5127.58452 1.22084e-17
5129.05476 1.25918e-17
5130.52500 1.24786e-17
5131.99524 1.29770e-17
5133.45527 1.32251e-17
5134.92551 1.30420e-17
5136.39575 1.33666e-17
5137.86599 1.33950e-17
5139.33623 1.31260e-17
5140.80647 1.24508e-17
5142.27671 1.26680e-17
5143.74695 1.36368e-17
5145.21719 1.39616e-17
5146.68743 1.37701e-17
5148.15767 1.31852e-17
5149.62791 1.30842e-17
5151.09815 1.35066e-17
5152.56839 1.34006e-17
5154.03863 1.39328e-17
5155.50887 1.41766e-17
5156.97911 1.37656e-17
5158.44935 1.33771e-17
5159.91959 1.39176e-17
5161.38983 1.50587e-17
5162.86007 1.35467e-17
5164.33031 1.32033e-17
5165.80055 1.46517e-17
5167.27079 1.44143e-17
5168.74103 1.40422e-17
5170.21127 1.41923e-17
5171.68151 1.42740e-17
5173.15175 1.49273e-17
5174.62199 1.42036e-17
5176.09223 1.47499e-17
5177.56247 1.53980e-17
5179.03271 1.40038e-17
5180.50295 1.44808e-17
5181.97319 1.52531e-17
5183.44343 1.48436e-17
5184.91367 1.49032e-17
5186.38391 1.45308e-17
5187.85415 1.40837e-17
5189.32439 1.44425e-17
5190.79463 1.56219e-17
5192.25466 1.53818e-17
5193.72490 1.49950e-17
5195.19514 1.47134e-17
5196.66538 1.50395e-17
5198.13562 1.57000e-17
5199.60586 1.57658e-17
5201.07610 1.56518e-17
5202.54634 1.52658e-17
5204.01658 1.53090e-17
5205.48682 1.60515e-17
5206.95706 1.61301e-17
5208.42730 1.58727e-17
5209.89754 1.57791e-17
5211.36778 1.50049e-17
5212.83802 1.50116e-17
5214.30826 1.49713e-17
5215.77850 1.39944e-17
5217.24874 1.30741e-17
5218.71898 1.38557e-17
5220.18922 1.56325e-17
5221.65946 1.51745e-17
5223.12970 1.48514e-17
5224.59994 1.47459e-17
5226.07018 1.42264e-17
5227.54042 1.52276e-17
5229.01066 1.58013e-17
5230.48090 1.58596e-17
5231.95114 1.64578e-17
5233.42138 1.62120e-17
5234.89162 1.59176e-17
5236.36186 1.60266e-17
5237.83210 1.57573e-17
5239.30234 1.55936e-17
5240.77258 1.69707e-17
5242.24282 1.71829e-17
5243.71306 1.58217e-17
5245.18330 1.55083e-17
5246.65354 1.51097e-17
5248.12378 1.53773e-17
5249.59402 1.50686e-17
5251.06426 1.44764e-17
5252.53450 1.45376e-17
5254.00474 1.46145e-17
5255.47498 1.53530e-17
5256.93501 1.61668e-17
5258.40525 1.62074e-17
5259.87549 1.53538e-17
5261.34573 1.42147e-17
5262.81597 1.47980e-17
5264.28621 1.63444e-17
5265.75645 1.67641e-17
5267.22669 1.72633e-17
5268.69693 1.74700e-17
5270.16717 1.63889e-17
5271.63741 1.55330e-17
5273.10765 1.53543e-17
5274.57789 1.59591e-17
5276.04813 1.62363e-17
5277.51837 1.50879e-17
5278.98861 1.57077e-17
5280.45885 1.74803e-17
5281.92909 1.68693e-17
5283.39933 1.74701e-17
5284.86957 1.71989e-17
5286.33981 1.63939e-17
5287.81005 1.68560e-17
5289.28029 1.67843e-17
5290.75053 1.71943e-17
5292.22077 1.72181e-17
5293.69101 1.70124e-17
5295.16125 1.69999e-17
5296.63149 1.72615e-17
5298.10173 1.72079e-17
5299.57197 1.69872e-17
5301.04221 1.64269e-17
5302.51245 1.70925e-17
5303.98269 1.73111e-17
5305.45293 1.71314e-17
5306.92317 1.76307e-17
5308.39341 1.72375e-17
5309.86365 1.77934e-17
5311.33389 1.80544e-17
5312.80413 1.73879e-17
5314.27437 1.74319e-17
5315.74461 1.89375e-17
5317.21485 1.91299e-17
5318.68509 1.79572e-17
5320.14512 1.94483e-17
5321.61536 1.90479e-17
5323.08560 1.81469e-17
5324.55584 1.91298e-17
5326.02608 1.84834e-17
5327.49632 1.79842e-17
5328.96656 1.85730e-17
5330.43680 1.94885e-17
5331.90704 2.00107e-17
5333.37728 1.91866e-17
5334.84752 1.81393e-17
5336.31776 1.95046e-17
5337.78800 1.98773e-17
5339.25824 1.85366e-17
5340.72848 1.90435e-17
5342.19872 1.90156e-17
5343.66896 2.00317e-17
5345.13920 2.07383e-17
5346.60944 1.93419e-17
5348.07968 1.89232e-17
5349.54992 1.92263e-17
5351.02016 1.91555e-17
5352.49040 1.77460e-17
5353.96064 1.91397e-17
5355.43088 1.99757e-17
5356.90112 2.02849e-17
5358.37136 1.98672e-17
5359.84160 1.98505e-17
5361.31184 1.89439e-17
5362.78208 1.92873e-17
5364.25232 1.99552e-17
5365.72256 1.90620e-17
5367.19280 1.88913e-17
5368.66304 2.01581e-17
5370.13328 2.09247e-17
5371.60352 2.07989e-17
5373.07376 2.00048e-17
5374.54400 1.99175e-17
5376.01424 2.00898e-17
5377.48448 1.90531e-17
5378.95472 1.92568e-17
5380.41475 1.95666e-17
5381.88499 1.89776e-17
5383.35523 1.83782e-17
5384.82547 1.81981e-17
5386.29571 1.91097e-17
5387.76595 1.93813e-17
5389.23619 1.91096e-17
5390.70643 2.04867e-17
5392.17667 2.05113e-17
5393.64691 2.05276e-17
5395.11715 1.92685e-17
5396.58739 1.91056e-17
5398.05763 1.91297e-17
5399.52787 1.86258e-17
5400.99811 1.95236e-17
5402.46835 1.96630e-17
5403.93859 1.89358e-17
5405.40883 1.88723e-17
5406.87907 2.04798e-17
5408.34931 2.07658e-17
5409.81955 1.95626e-17
5411.28979 2.02594e-17
5412.76003 1.95961e-17
5414.23027 1.89900e-17
5415.70051 1.93833e-17
5417.17075 1.94634e-17
5418.64099 2.01035e-17
5420.11123 2.03113e-17
5421.58147 1.97382e-17
5423.05171 1.91094e-17
5424.52195 1.92435e-17
5425.99219 2.04218e-17
5427.46243 2.01481e-17
5428.93267 2.05547e-17
5430.40291 2.01655e-17
5431.87315 1.84301e-17
5433.34339 1.91897e-17
5434.81363 2.00118e-17
5436.28387 1.93927e-17
5437.75411 1.95294e-17
5439.22435 1.99872e-17
5440.69459 1.97933e-17
5442.16483 2.02620e-17
5443.62486 2.08583e-17
5445.09510 2.07161e-17
5446.56534 1.99135e-17
5448.03558 1.87574e-17
5449.50582 1.87486e-17
5450.97606 1.88551e-17
5452.44630 1.89096e-17
5453.91654 1.84569e-17
5455.38678 1.89842e-17
5456.85702 1.92943e-17
5458.32726 1.94325e-17
5459.79750 1.87713e-17
5461.26774 1.86121e-17
5462.73798 1.86093e-17
5464.20822 1.78594e-17
5465.67846 1.89761e-17
5467.14870 1.89614e-17
5468.61894 1.89229e-17
5470.08918 1.91435e-17
5471.55942 1.78790e-17
5473.02966 1.71151e-17
5474.49990 1.82897e-17
5475.97014 1.95696e-17
5477.44038 1.85384e-17
5478.91062 1.77862e-17
5480.38086 1.87591e-17
5481.85110 1.85734e-17
5483.32134 1.81752e-17
5484.79158 1.92544e-17
5486.26182 1.84703e-17
5487.73206 1.72839e-17
5489.20230 1.88959e-17
5490.67254 1.92581e-17
5492.14278 1.81297e-17
5493.61302 1.87544e-17
5495.08326 1.89600e-17
5496.55350 1.77813e-17
5498.02374 1.77081e-17
5499.49398 1.80249e-17
5500.96422 1.78447e-17
5502.43446 1.86311e-17
5503.90470 1.85216e-17
5505.37494 1.78253e-17
5506.83497 1.79153e-17
5508.30521 1.81991e-17
5509.77545 1.79902e-17
5511.24569 1.71211e-17
5512.71593 1.78935e-17
5514.18617 1.83992e-17
5515.65641 1.77403e-17
5517.12665 1.81042e-17
5518.59689 1.85042e-17
5520.06713 1.86554e-17
5521.53737 1.82438e-17
5523.00761 1.78774e-17
5524.47785 1.83005e-17
5525.94809 1.79554e-17
5527.41833 1.75870e-17
5528.88857 1.71408e-17
5530.35881 1.72333e-17
5531.82905 1.70529e-17
5533.29929 1.74459e-17
5534.76953 1.87992e-17
5536.23977 1.98886e-17
5537.71001 1.80138e-17
5539.18025 1.72872e-17
5540.65049 1.80374e-17
5542.12073 1.66565e-17
5543.59097 1.27985e-17
5545.06121 1.32541e-17
5546.53145 1.65805e-17
5548.00169 1.78949e-17
5549.47193 1.77232e-17
5550.94217 1.66057e-17
5552.41241 1.85670e-17
5553.88265 1.81909e-17
5555.35289 1.75113e-17
5556.82313 1.68053e-17
5558.29337 1.66869e-17
5559.76361 1.83746e-17
5561.23385 1.81316e-17
5562.70409 1.75573e-17
5564.17433 1.71900e-17
5565.64457 1.59540e-17
5567.10460 1.67090e-17
5568.57484 1.81928e-17
5570.04508 1.82964e-17
5571.51532 1.80007e-17
5572.98556 1.71143e-17
5574.45580 1.73557e-17
5575.92604 1.74361e-17
5577.39628 1.64631e-17
5578.86652 1.52337e-17
5580.33676 1.51604e-17
5581.80700 1.56946e-17
5583.27724 1.63561e-17
5584.74748 1.68247e-17
5586.21772 1.69986e-17
5587.68796 1.80544e-17
5589.15820 1.88655e-17
5590.62844 1.90351e-17
5592.09868 1.92046e-17
5593.56892 1.93741e-17
5595.03916 1.95436e-17
5596.50940 1.97130e-17
5597.97964 1.97111e-17
5599.44988 1.76908e-17
5600.92012 1.77881e-17
5602.39036 1.71451e-17
5603.86060 1.66949e-17
5605.33084 1.70107e-17
5606.80108 1.50893e-17
5608.27132 1.54805e-17
5609.74156 1.63243e-17
5611.21180 1.58962e-17
5612.68204 1.71222e-17
5614.15228 1.56740e-17
5615.62252 1.55181e-17
5617.09276 1.55742e-17
5618.56300 1.61223e-17
5620.03324 1.66284e-17
5621.50348 1.48214e-17
5622.97372 1.45661e-17
5624.44396 1.56383e-17
5625.91420 1.51736e-17
5627.38444 1.58810e-17
5628.85468 1.61227e-17
5630.31471 1.49336e-17
5631.79516 1.41675e-17
5633.25519 1.47118e-17
5634.72543 1.65957e-17
5636.19567 1.63784e-17
5637.66591 1.58170e-17
5639.13615 1.48156e-17
5640.60639 1.47335e-17
5642.07663 1.47370e-17
5643.54687 1.43440e-17
5645.01711 1.45733e-17
5646.48735 1.48229e-17
5647.95759 1.52123e-17
5649.42783 1.56852e-17
5650.89807 1.61850e-17
5652.36831 1.50202e-17
5653.83855 1.61094e-17
5655.30879 1.61549e-17
5656.77903 1.49933e-17
5658.24927 1.45227e-17
5659.71951 1.39957e-17
5661.18975 1.45243e-17
5662.65999 1.42705e-17
5664.13023 1.41571e-17
5665.60047 1.46360e-17
5667.07071 1.47121e-17
5668.54095 1.44405e-17
5670.01119 1.39497e-17
5671.48143 1.43311e-17
5672.95167 1.41246e-17
5674.42191 1.34391e-17
5675.89215 1.36049e-17
5677.36239 1.35301e-17
5678.83263 1.43340e-17
5680.30287 1.44183e-17
5681.77311 1.36057e-17
5683.24335 1.39575e-17
5684.71359 1.39344e-17
5686.18383 1.34815e-17
5687.65407 1.32769e-17
5689.12431 1.21677e-17
5690.59455 1.17218e-17
5692.06479 1.33518e-17
5693.52482 1.33832e-17
5694.99506 1.25236e-17
5696.46530 1.31463e-17
5697.93554 1.30752e-17
5699.40578 1.25567e-17
5700.87602 1.26253e-17
5702.34626 1.25227e-17
5703.81650 1.20501e-17
5705.28674 1.20419e-17
5706.75698 1.28159e-17
5708.22722 1.20785e-17
5709.69746 1.22744e-17
5711.16770 1.27457e-17
5712.63794 1.29154e-17
5714.10818 1.25248e-17
5715.57842 1.26302e-17
5717.04866 1.17223e-17
5718.51890 1.15343e-17
5719.98914 1.23427e-17
5721.45938 1.19185e-17
5722.92962 1.14758e-17
5724.39986 1.14361e-17
5725.87010 1.08644e-17
5727.34034 1.17649e-17
5728.81058 1.15948e-17
5730.28082 1.08844e-17
5731.75106 1.16236e-17
5733.22130 1.16360e-17
5734.69154 1.15729e-17
5736.16178 1.17500e-17
5737.63202 1.17909e-17
5739.10226 1.10835e-17
5740.57250 9.96861e-18
5742.04274 9.78056e-18
5743.51298 1.08146e-17
5744.98322 1.10195e-17
5746.45346 1.11775e-17
5747.92370 1.12671e-17
5749.39394 1.03443e-17
5750.86418 1.05010e-17
5752.33442 1.06380e-17
5753.80466 1.09447e-17
5755.27490 1.10761e-17
5756.73493 1.09252e-17
5758.20517 1.13964e-17
5759.67541 1.09168e-17
5761.14565 1.03542e-17
5762.61589 9.99980e-18
5764.08613 1.00820e-17
5765.55637 9.47289e-18
5767.02661 9.58798e-18
5768.49685 9.02796e-18
5769.96709 9.33197e-18
5771.43733 1.07779e-17
5772.90757 1.09072e-17
5774.37781 1.00450e-17
5775.84805 1.01914e-17
5777.31829 1.05378e-17
5778.78853 9.42411e-18
5780.25877 8.82607e-18
5781.72901 9.23124e-18
5783.19925 9.94196e-18
5784.66949 1.04605e-17
5786.13973 9.68282e-18
5787.60997 9.13934e-18
5789.08021 9.00095e-18
5790.55045 9.44692e-18
5792.02069 9.28857e-18
5793.49093 9.07281e-18
5794.96117 8.15931e-18
5796.43141 8.23532e-18
5797.90165 8.21239e-18
5799.37189 8.30238e-18
5800.84213 8.24007e-18
5802.31237 8.54753e-18
5803.78261 8.35328e-18
5805.25285 8.68788e-18
5806.72309 8.67308e-18
5808.19333 9.51925e-18
5809.66357 1.00958e-17
5811.13381 1.07258e-17
5812.60405 1.05404e-17
5814.07429 9.73456e-18
5815.54453 9.42388e-18
5817.00456 9.89887e-18
5818.47480 8.95358e-18
5819.95525 9.23626e-18
5821.41528 9.44324e-18
5822.88552 8.97312e-18
5824.35576 8.39729e-18
5825.82600 9.04490e-18
5827.29624 9.44477e-18
5828.76648 1.10124e-17
5830.23672 1.01333e-17
5831.70696 9.90621e-18
5833.17720 9.91267e-18
5834.64744 9.84222e-18
5836.11768 9.53297e-18
5837.58792 1.05335e-17
5839.05816 9.59108e-18
5840.52840 1.00240e-17
5841.99864 9.95088e-18
5843.46888 9.77920e-18
5844.93912 9.71068e-18
5846.40936 9.76745e-18
5847.87960 9.94678e-18
5849.34984 1.06381e-17
5850.82008 9.88567e-18
5852.29032 1.06736e-17
5853.76056 1.05277e-17
5855.23080 1.15978e-17
5856.70104 1.01207e-17
5858.17128 8.81722e-18
5859.64152 1.06173e-17
5861.11176 1.19485e-17
5862.58200 1.06034e-17
5864.05224 1.09253e-17
5865.52248 1.23118e-17
5866.99272 1.18194e-17
5868.46296 1.19650e-17
5869.93320 1.13591e-17
5871.40344 1.11978e-17
5872.87368 1.17395e-17
5874.34392 1.27531e-17
5875.81416 1.06327e-17
5877.28440 1.10516e-17
5878.75464 1.23838e-17
5880.22488 1.19880e-17
5881.68491 1.18046e-17
5883.15515 1.20392e-17
5884.62539 1.20518e-17
5886.09563 1.10003e-17
5887.56587 1.19261e-17
5889.03611 1.14912e-17
5890.50635 1.21068e-17
5891.97659 1.24558e-17
5893.44683 1.26754e-17
5894.91707 1.23410e-17
5896.38731 1.28058e-17
5897.85755 1.31395e-17
5899.32779 1.24373e-17
5900.79803 1.18945e-17
5902.26827 1.23998e-17
5903.73851 1.30662e-17
5905.20875 1.31645e-17
5906.67899 1.29049e-17
5908.14923 1.24489e-17
5909.61947 1.30975e-17
5911.08971 1.38118e-17
5912.55995 1.52061e-17
5914.03019 1.49917e-17
5915.50043 1.37923e-17
5916.97067 1.29955e-17
5918.44091 1.47022e-17
5919.91115 1.46332e-17
5921.38139 1.40407e-17
5922.85163 1.50097e-17
5924.32187 1.51750e-17
5925.79211 1.48732e-17
5927.26235 1.37521e-17
5928.73259 1.44613e-17
5930.20283 1.43853e-17
5931.67307 1.41753e-17
5933.14331 1.34835e-17
5934.61355 1.29005e-17
5936.08379 1.38319e-17
5937.55403 1.48176e-17
5939.02427 1.54845e-17
5940.49451 1.44987e-17
5941.96475 1.41219e-17
5943.43499 1.53364e-17
5944.89502 1.62846e-17
5946.36526 1.51518e-17
5947.83550 1.46181e-17
5949.30574 1.52704e-17
5950.77598 1.53875e-17
5952.24622 1.59535e-17
5953.71646 1.72658e-17
5955.18670 1.67738e-17
5956.65694 1.56116e-17
5958.12718 1.63197e-17
5959.59742 1.66024e-17
5961.06766 1.64477e-17
5962.53790 1.50107e-17
5964.00814 1.47335e-17
5965.47838 1.59029e-17
5966.94862 1.56502e-17
5968.41886 1.55487e-17
5969.88910 1.52355e-17
5971.35934 1.51037e-17
5972.82958 1.46461e-17
5974.29982 1.49261e-17
5975.77006 1.58057e-17
5977.24030 1.60666e-17
5978.71054 1.65423e-17
5980.18078 1.54922e-17
5981.65102 1.51411e-17
5983.12126 1.56271e-17
5984.59150 1.55393e-17
5986.06174 1.52941e-17
5987.53198 1.63612e-17
5989.00222 1.58286e-17
5990.47246 1.50847e-17
5991.94270 1.63414e-17
5993.41294 1.55206e-17
5994.88318 1.68520e-17
5996.35342 1.78827e-17
5997.82366 1.54009e-17
5999.29390 1.57203e-17
6000.76414 1.64333e-17
6002.23438 1.59026e-17
6003.70462 1.63433e-17
6005.16465 1.63532e-17
6006.64510 1.69379e-17
6008.10513 1.61336e-17
6009.57537 1.60578e-17
6011.04561 1.53766e-17
6012.51585 1.52880e-17
6013.98609 1.40286e-17
6015.45633 1.27345e-17
6016.92657 1.27000e-17
6018.39681 1.39720e-17
6019.86705 1.40409e-17
6021.33729 1.43088e-17
6022.80753 1.52249e-17
6024.27777 1.50316e-17
6025.74801 1.56940e-17
6027.21825 1.57666e-17
6028.68849 1.62543e-17
6030.15873 1.61362e-17
6031.62897 1.58598e-17
6033.09921 1.51471e-17
6034.56945 1.47100e-17
6036.03969 1.49325e-17
6037.50993 1.64801e-17
6038.98017 1.57560e-17
6040.45041 1.53668e-17
6041.92065 1.51442e-17
6043.39089 1.49736e-17
6044.86113 1.45297e-17
6046.33137 1.39237e-17
6047.80161 1.52513e-17
6049.27185 1.47321e-17
6050.74209 1.54608e-17
6052.21233 1.54493e-17
6053.68257 1.51104e-17
6055.15281 1.47554e-17
6056.62305 1.64963e-17
6058.09329 1.56907e-17
6059.56353 1.52683e-17
6061.03377 1.58806e-17
6062.50401 1.50474e-17
6063.97425 1.49658e-17
6065.44449 1.46215e-17
6066.91473 1.40382e-17
6068.37476 1.47711e-17
6069.84500 1.36107e-17
6071.31524 1.43480e-17
6072.78548 1.44889e-17
6074.25572 1.49577e-17
6075.72596 1.36282e-17
6077.19620 1.45020e-17
6078.66644 1.32540e-17
6080.13668 1.48343e-17
6081.60692 1.45033e-17
6083.07716 1.33360e-17
6084.54740 1.33474e-17
6086.01764 1.50908e-17
6087.48788 1.50197e-17
6088.95812 1.45759e-17
6090.42836 1.39135e-17
6091.89860 1.44988e-17
6093.36884 1.42632e-17
6094.83908 1.34767e-17
6096.30932 1.36639e-17
6097.77956 1.43814e-17
6099.24980 1.42985e-17
6100.72004 1.40661e-17
6102.19028 1.28116e-17
6103.66052 1.30696e-17
6105.13076 1.36750e-17
6106.60100 1.30788e-17
6108.07124 1.32108e-17
6109.54148 1.25531e-17
6111.01172 1.38810e-17
6112.48196 1.35481e-17
6113.95220 1.23013e-17
6115.42244 1.40074e-17
6116.89268 1.44343e-17
6118.36292 1.46160e-17
6119.83316 1.42861e-17
6121.30340 1.40697e-17
6122.77364 1.22037e-17
6124.24388 1.25591e-17
6125.71412 1.27277e-17
6127.18436 1.23362e-17
6128.65460 1.33494e-17
6130.12484 1.33176e-17
6131.58487 1.28573e-17
6133.05511 1.29591e-17
6134.52535 1.25655e-17
6135.99559 1.31507e-17
6137.46583 1.44174e-17
6138.93607 1.45559e-17
6140.40631 1.47543e-17
6141.87655 1.47985e-17
6143.34679 1.42949e-17
6144.81703 1.40192e-17
6146.28727 1.30069e-17
6147.75751 1.24681e-17
6149.22775 1.25604e-17
6150.69799 1.31993e-17
6152.16823 1.32140e-17
6153.63847 1.21007e-17
6155.10871 1.26905e-17
6156.57895 1.35949e-17
6158.04919 1.35611e-17
6159.51943 1.35638e-17
6160.98967 1.32118e-17
6162.45991 1.30947e-17
6163.93015 1.27680e-17
6165.40039 1.26046e-17
6166.87063 1.28749e-17
6168.34087 1.27165e-17
6169.81111 1.27692e-17
6171.28135 1.25735e-17
6172.75159 1.29329e-17
6174.22183 1.33481e-17
6175.69207 1.28794e-17
6177.16231 1.29426e-17
6178.63255 1.31287e-17
6180.10279 1.25673e-17
6181.57303 1.22093e-17
6183.04327 1.25150e-17
6184.51351 1.23129e-17
6185.98375 1.25754e-17
6187.45399 1.29509e-17
6188.92423 1.24785e-17
6190.39447 1.31379e-17
6191.85450 1.35826e-17
6193.32474 1.24519e-17
6194.79498 1.27922e-17
6196.26522 1.31746e-17
6197.73546 1.30021e-17
6199.20570 1.25666e-17
6200.67594 1.22591e-17
6202.14618 1.24920e-17
6203.61642 1.22980e-17
6205.08666 1.28510e-17
6206.55690 1.31576e-17
6208.02714 1.24649e-17
6209.49738 1.27451e-17
6210.96762 1.32593e-17
6212.43786 1.34123e-17
6213.90810 1.31420e-17
6215.37834 1.32581e-17
6216.84858 1.27957e-17
6218.31882 1.28702e-17
6219.78906 1.27359e-17
6221.25930 1.34787e-17
6222.72954 1.36748e-17
6224.19978 1.36044e-17
6225.67002 1.27908e-17
6227.14026 1.25219e-17
6228.61050 1.23669e-17
6230.08074 1.27872e-17
6231.55098 1.30850e-17
6233.02122 1.28335e-17
6234.49146 1.22211e-17
6235.96170 1.25328e-17
6237.43194 1.20552e-17
6238.90218 1.23928e-17
6240.37242 1.32226e-17
6241.84266 1.32011e-17
6243.31290 1.33203e-17
6244.78314 1.27157e-17
6246.25338 1.23248e-17
6247.72362 1.22350e-17
6249.19386 1.24702e-17
6250.66410 1.28857e-17
6252.13434 1.30648e-17
6253.60458 1.24050e-17
6255.07482 1.25076e-17
6256.53485 1.21169e-17
6258.00509 1.19448e-17
6259.47533 1.29609e-17
6260.94557 1.34623e-17
6262.41581 1.27378e-17
6263.88605 1.18863e-17
6265.35629 1.19294e-17
6266.82653 1.17766e-17
6268.29677 1.18335e-17
6269.76701 1.19729e-17
6271.23725 1.22127e-17
6272.70749 1.23748e-17
6274.17773 1.19512e-17
6275.64797 1.12449e-17
6277.11821 1.20588e-17
6278.58845 1.19594e-17
6280.05869 1.12427e-17
6281.52893 1.13286e-17
6282.99917 1.10815e-17
6284.46941 1.04342e-17
6285.93965 1.06408e-17
6287.40989 1.10722e-17
6288.88013 1.11928e-17
6290.35037 1.03576e-17
6291.82061 9.74790e-18
6293.29085 9.40698e-18
6294.76109 1.03874e-17
6296.23133 1.15987e-17
6297.70157 1.20434e-17
6299.17181 1.28175e-17
6300.64205 1.05186e-17
6302.11229 9.67148e-18
6303.58253 8.64528e-18
6305.05277 8.98184e-18
6306.52301 1.00938e-17
6307.99325 9.21142e-18
6309.46349 9.55856e-18
6310.93373 9.95787e-18
6312.40397 1.04238e-17
6313.87421 9.19882e-18
6315.34445 9.17701e-18
6316.81469 9.99729e-18
6318.27472 9.88464e-18
6319.74496 9.23241e-18
6321.21520 9.22153e-18
6322.68544 1.00572e-17
6324.15568 9.74666e-18
6325.62592 1.02439e-17
6327.09616 1.02003e-17
6328.56640 9.42892e-18
6330.03664 9.78939e-18
6331.50688 9.26808e-18
6332.97712 9.05392e-18
6334.44736 9.24468e-18
6335.91760 9.94443e-18
6337.38784 1.08392e-17
6338.85808 9.90754e-18
6340.32832 8.89239e-18
6341.79856 8.81089e-18
6343.26880 8.75009e-18
6344.73904 8.67728e-18
6346.20928 9.58199e-18
6347.67952 1.04728e-17
6349.14976 1.06540e-17
6350.62000 1.02756e-17
6352.09024 1.06534e-17
6353.56048 1.11809e-17
6355.03072 1.06974e-17
6356.50096 9.59470e-18
6357.97120 9.02367e-18
6359.44144 1.03900e-17
6360.91168 1.09604e-17
6362.38192 1.03415e-17
6363.85216 1.03208e-17
6365.32240 1.03040e-17
6366.79264 1.06172e-17
6368.26288 1.06739e-17
6369.73312 1.01364e-17
6371.20336 1.06712e-17
6372.67360 1.12283e-17
6374.14384 1.05955e-17
6375.61408 1.00045e-17
6377.08432 1.02022e-17
6378.54435 1.02925e-17
6380.01459 9.81205e-18
6381.49504 1.00607e-17
6382.95507 1.01432e-17
6384.42531 1.00298e-17
6385.89555 1.01523e-17
6387.36579 1.00706e-17
6388.83603 1.04374e-17
6390.30627 9.94740e-18
6391.77651 9.83763e-18
6393.24675 1.04258e-17
6394.71699 1.10180e-17
6396.18723 1.17145e-17
6397.65747 1.07334e-17
6399.12771 1.05200e-17
6400.59795 1.13749e-17
6402.06819 1.13881e-17
6403.53843 1.16310e-17
6405.00867 1.06532e-17
6406.47891 1.03036e-17
6407.94915 1.09990e-17
6409.41939 1.09475e-17
6410.88963 1.13640e-17
6412.35987 1.10633e-17
6413.83011 1.06630e-17
6415.30035 1.03856e-17
6416.77059 1.12226e-17
6418.24083 1.20596e-17
6419.71107 1.28964e-17
6421.18131 1.28956e-17
6422.65155 1.24161e-17
6424.12179 1.18426e-17
6425.59203 1.18123e-17
6427.06227 1.25866e-17
6428.53251 1.19752e-17
6430.00275 1.10216e-17
6431.47299 1.05520e-17
6432.94323 1.15628e-17
6434.41347 1.14475e-17
6435.88371 1.12910e-17
6437.35395 1.22962e-17
6438.82419 1.18455e-17
6440.29443 1.16256e-17
6441.76467 1.23642e-17
6443.23491 1.20914e-17
6444.70515 1.31767e-17
6446.16518 1.29529e-17
6447.63542 1.28876e-17
6449.10566 1.25172e-17
6450.57590 1.28177e-17
6452.04614 1.25945e-17
6453.51638 1.22397e-17
6454.98662 1.22688e-17
6456.45686 1.25651e-17
6457.92710 1.22197e-17
6459.39734 1.12115e-17
6460.86758 1.16525e-17
6462.33782 1.25767e-17
6463.80806 1.26112e-17
6465.27830 1.21979e-17
6466.74854 1.18748e-17
6468.21878 1.27527e-17
6469.68902 1.30232e-17
6471.15926 1.25896e-17
6472.62950 1.21239e-17
6474.09974 1.23422e-17
6475.56998 1.20282e-17
6477.04022 1.15308e-17
6478.51046 1.21790e-17
6479.98070 1.19338e-17
6481.45094 1.09570e-17
6482.92118 1.11680e-17
6484.39142 1.17201e-17
6485.86166 1.18768e-17
6487.33190 1.21976e-17
6488.80214 1.18783e-17
6490.27238 1.23986e-17
6491.74262 1.27884e-17
6493.21286 1.22804e-17
6494.68310 1.24757e-17
6496.15334 1.25735e-17
6497.62358 1.24480e-17
6499.09382 1.25114e-17
6500.56406 1.22164e-17
6502.03430 1.24178e-17
6503.50454 1.24856e-17
6504.97478 1.17098e-17
6506.43481 1.18634e-17
6507.90505 1.22529e-17
6509.37529 1.25321e-17
6510.84553 1.27646e-17
6512.31577 1.33607e-17
6513.78601 1.24655e-17
6515.25625 1.15291e-17
6516.72649 1.14379e-17
6518.19673 1.18302e-17
6519.66697 1.07444e-17
6521.13721 1.08709e-17
6522.60745 1.20792e-17
6524.07769 1.23928e-17
6525.54793 1.20998e-17
6527.01817 1.12436e-17
6528.48841 1.09917e-17
6529.95865 1.25435e-17
6531.42889 1.28329e-17
6532.89913 1.26407e-17
6534.36937 1.25955e-17
6535.83961 1.23376e-17
6537.30985 1.25410e-17
6538.78009 1.18370e-17
6540.25033 1.09214e-17
6541.72057 1.15719e-17
6543.19081 1.16683e-17
6544.66105 1.16235e-17
6546.13129 1.13156e-17
6547.60153 1.11688e-17
6549.07177 1.17745e-17
6550.54201 1.20443e-17
6552.01225 1.22279e-17
6553.48249 1.19087e-17
6554.95273 1.12115e-17
6556.42297 1.11043e-17
6557.89321 1.06730e-17
6559.36345 1.12620e-17
6560.83369 1.15650e-17
6562.30393 1.10504e-17
6563.77417 1.01173e-17
6565.24441 1.04880e-17
6566.71465 1.02902e-17
6568.18489 1.01487e-17
6569.64492 1.10170e-17
6571.11516 1.04952e-17
6572.58540 1.01583e-17
6574.05564 1.02816e-17
6575.52588 1.03781e-17
6576.99612 1.01520e-17
6578.46636 9.29016e-18
6579.93660 9.94418e-18
6581.40684 1.07838e-17
6582.87708 1.03570e-17
6584.34732 1.02366e-17
6585.81756 8.96563e-18
6587.28780 8.48614e-18
6588.75804 9.47475e-18
6590.22828 9.81270e-18
6591.69852 1.03281e-17
6593.16876 1.04127e-17
6594.63900 9.40672e-18
6596.10924 9.17210e-18
6597.57948 1.00329e-17
6599.04972 1.06111e-17
6600.51996 9.63031e-18
6601.99020 9.32423e-18
6603.46044 1.00852e-17
6604.93068 1.00322e-17
6606.40092 9.74400e-18
6607.87116 1.00495e-17
6609.34140 1.02592e-17
6610.81164 1.02236e-17
6612.28188 9.48973e-18
6613.75212 9.13666e-18
6615.22236 9.91385e-18
6616.69260 1.00646e-17
6618.16284 9.27103e-18
6619.63308 9.98221e-18
6621.10332 1.08863e-17
6622.57356 1.00656e-17
6624.04380 9.28812e-18
6625.51404 9.77539e-18
6626.98428 9.58512e-18
6628.45452 8.43605e-18
6629.92476 9.13703e-18
6631.39500 9.73377e-18
6632.85503 9.74169e-18
6634.32527 9.65751e-18
6635.79551 9.96940e-18
6637.26575 9.94927e-18
6638.73599 9.44316e-18
6640.20623 9.81999e-18
6641.67647 1.01848e-17
6643.14671 1.03145e-17
6644.61695 1.01796e-17
6646.08719 9.98879e-18
6647.55743 1.00650e-17
6649.02767 1.02014e-17
6650.49791 1.04811e-17
6651.96815 1.03956e-17
6653.43839 1.02104e-17
6654.90863 1.09625e-17
6656.37887 1.05397e-17
6657.84911 1.00016e-17
6659.31935 1.02959e-17
6660.78959 1.06934e-17
6662.25983 1.09688e-17
6663.73007 1.13478e-17
6665.20031 1.08192e-17
6666.67055 1.02718e-17
6668.14079 1.13589e-17
6669.61103 1.18429e-17
6671.08127 1.14969e-17
6672.55151 1.14302e-17
6674.02175 1.14880e-17
6675.49199 1.20753e-17
6676.96223 1.20967e-17
6678.43247 1.22437e-17
6679.90271 1.28507e-17
6681.37295 1.17193e-17
6682.84319 1.07381e-17
6684.31343 1.08788e-17
6685.78367 1.17782e-17
6687.25391 1.10873e-17
6688.72415 1.13659e-17
6690.19439 1.18930e-17
6691.66463 1.18507e-17
6693.12466 1.18299e-17
6694.59490 1.24572e-17
6696.06514 1.22321e-17
6697.53538 1.21647e-17
6699.00562 1.18507e-17
6700.47586 1.10041e-17
6701.94610 1.16525e-17
6703.41634 1.33102e-17
6704.88658 1.29656e-17
6706.35682 1.17511e-17
6707.82706 1.18169e-17
6709.29730 1.16495e-17
6710.76754 1.20462e-17
6712.23778 1.19471e-17
6713.70802 1.29095e-17
6715.17826 1.36103e-17
6716.64850 1.19982e-17
6718.11874 1.15408e-17
6719.58898 1.14998e-17
6721.05922 1.10066e-17
6722.52946 1.13756e-17
6723.99970 1.20016e-17
6725.46994 1.22106e-17
6726.94018 1.15894e-17
6728.41042 1.06851e-17
6729.88066 1.17118e-17
6731.35090 1.21414e-17
6732.82114 1.19668e-17
6734.29138 1.19722e-17
6735.76162 1.19072e-17
6737.23186 1.21872e-17
6738.70210 1.18334e-17
6740.17234 1.14303e-17
6741.64258 1.09183e-17
6743.11282 1.13109e-17
6744.58306 1.18360e-17
6746.05330 1.15767e-17
6747.52354 1.20686e-17
6748.99378 1.20751e-17
6750.46402 1.18233e-17
6751.93426 1.20054e-17
6753.40450 1.17977e-17
6754.87474 1.16400e-17
6756.34498 1.16272e-17
6757.80501 1.18073e-17
6759.27525 1.16862e-17
6760.74549 1.18746e-17
6762.21573 1.24201e-17
6763.68597 1.19167e-17
6765.15621 1.11071e-17
6766.62645 1.12166e-17
6768.09669 1.17085e-17
6769.56693 1.21657e-17
6771.03717 1.21507e-17
6772.50741 1.19407e-17
6773.97765 1.24209e-17
6775.44789 1.23127e-17
6776.91813 1.19779e-17
6778.38837 1.24890e-17
6779.85861 1.22524e-17
6781.32885 1.18658e-17
6782.79909 1.23254e-17
6784.26933 1.21455e-17
6785.73957 1.12643e-17
6787.20981 1.13330e-17
6788.68005 1.19135e-17
6790.15029 1.12235e-17
6791.62053 1.02071e-17
6793.09077 1.05801e-17
6794.56101 1.12694e-17
6796.03125 1.13605e-17
6797.50149 1.19289e-17
6798.97173 1.26165e-17
6800.44197 1.23576e-17
6801.91221 1.17270e-17
6803.38245 1.15517e-17
6804.85269 1.19587e-17
6806.32293 1.16253e-17
6807.79317 1.16342e-17
6809.26341 1.21079e-17
6810.73365 1.12376e-17
6812.20389 1.09742e-17
6813.67413 1.13549e-17
6815.14437 1.07956e-17
6816.61461 1.06486e-17
6818.08485 1.09900e-17
6819.54488 1.10556e-17
6821.01512 1.12529e-17
6822.48536 1.07740e-17
6823.95560 1.05466e-17
6825.42584 1.11741e-17
6826.89608 1.16890e-17
6828.36632 1.14501e-17
6829.83656 1.11494e-17
6831.30680 1.06687e-17
6832.77704 9.63324e-18
6834.24728 1.03608e-17
6835.71752 1.04780e-17
6837.18776 9.99750e-18
6838.65800 1.06981e-17
6840.12824 1.09061e-17
6841.59848 1.02752e-17
6843.06872 1.00868e-17
6844.53896 1.06244e-17
6846.00920 1.07242e-17
6847.47944 9.84487e-18
6848.94968 1.00174e-17
6850.41992 1.07121e-17
6851.89016 1.07362e-17
6853.36040 1.06994e-17
6854.83064 1.04199e-17
6856.30088 1.04264e-17
6857.77112 1.14924e-17
6859.24136 1.17174e-17
6860.71160 1.07984e-17
6862.18184 1.04466e-17
6863.65208 1.10910e-17
6865.12232 1.02794e-17
6866.59256 1.01859e-17
6868.06280 1.06915e-17
6869.53304 9.99838e-18
6871.00328 1.00100e-17
6872.47352 1.02508e-17
6873.94376 1.02793e-17
6875.41400 1.02553e-17
6876.88424 1.04205e-17
6878.35448 1.01894e-17
6879.81451 9.90651e-18
6881.28475 1.04719e-17
6882.75499 1.09270e-17
6884.22523 1.08025e-17
6885.69547 1.01987e-17
6887.16571 1.05567e-17
6888.63595 9.87592e-18
6890.10619 9.08617e-18
6891.57643 1.03675e-17
6893.04667 1.04951e-17
6894.51691 1.02034e-17
6895.98715 1.03496e-17
6897.45739 1.01936e-17
6898.92763 1.01113e-17
6900.39787 1.00968e-17
6901.86811 1.04647e-17
6903.33835 1.06983e-17
6904.80859 1.00877e-17
6906.27883 9.88478e-18
6907.74907 9.95761e-18
6909.21931 9.25439e-18
6910.68955 9.70350e-18
6912.15979 1.03061e-17
6913.63003 9.57520e-18
6915.10027 9.74631e-18
6916.57051 1.00933e-17
6918.04075 9.77777e-18
6919.51099 9.53973e-18
6920.98123 1.03877e-17
6922.45147 1.07489e-17
6923.92171 1.02498e-17
6925.39195 1.03435e-17
6926.86219 1.07033e-17
6928.33243 1.02427e-17
6929.80267 9.69070e-18
6931.27291 9.84650e-18
6932.74315 9.70593e-18
6934.21339 9.91982e-18
6935.68363 1.06546e-17
6937.15387 1.02545e-17
6938.62411 9.96560e-18
6940.09435 1.02523e-17
6941.56459 1.03278e-17
6943.03483 9.62624e-18
6944.50507 9.04085e-18
6945.96510 9.42574e-18
6947.43534 1.01496e-17
6948.90558 1.00968e-17
6950.37582 9.75883e-18
6951.84606 9.54016e-18
6953.31630 8.91914e-18
6954.78654 8.97658e-18
6956.25678 9.83229e-18
6957.72702 9.83842e-18
6959.19726 9.44972e-18
6960.66750 9.52365e-18
6962.13774 9.73738e-18
6963.60798 9.28516e-18
6965.07822 8.91930e-18
6966.54846 9.00396e-18
6968.01870 9.49703e-18
6969.48894 9.77998e-18
6970.95918 9.19420e-18
6972.42942 8.89801e-18
6973.89966 9.66173e-18
6975.36990 9.39632e-18
6976.84014 8.64565e-18
6978.31038 1.00905e-17
6979.78062 1.17779e-17
6981.25086 1.18242e-17
6982.72110 1.09066e-17
6984.19134 1.01712e-17
6985.66158 9.53602e-18
6987.13182 9.22897e-18
6988.60206 9.31871e-18
6990.07230 8.68301e-18
6991.54254 8.92658e-18
6993.01278 8.80414e-18
6994.48302 8.92133e-18
6995.95326 9.71959e-18
6997.42350 9.69888e-18
6998.89374 9.70194e-18
7000.36398 9.77423e-18
7001.83422 9.50801e-18
7003.30446 9.13366e-18
7004.77470 9.17195e-18
7006.24494 9.38374e-18
7007.70497 1.02688e-17
7009.17521 9.80712e-18
7010.64545 8.72446e-18
7012.11569 9.20512e-18
7013.58593 9.81388e-18
7015.05617 8.58748e-18
7016.52641 8.17118e-18
7017.99665 8.92606e-18
7019.46689 8.88851e-18
7020.93713 9.28170e-18
7022.40737 1.03298e-17
7023.87761 9.88205e-18
7025.34785 9.54839e-18
7026.81809 9.28959e-18
7028.28833 9.26109e-18
7029.75857 1.00414e-17
7031.22881 9.25857e-18
7032.69905 7.93769e-18
7034.16929 8.62229e-18
7035.63953 1.00349e-17
7037.10977 9.81246e-18
7038.58001 9.81879e-18
7040.05025 1.10814e-17
7041.52049 1.02979e-17
7042.99073 9.06846e-18
7044.46097 9.31242e-18
7045.93121 9.84446e-18
7047.40145 9.66885e-18
7048.87169 9.27873e-18
7050.34193 9.24650e-18
7051.81217 9.32276e-18
7053.28241 8.99178e-18
7054.75265 8.50577e-18
7056.22289 8.66655e-18
7057.69313 9.28405e-18
7059.16337 9.55126e-18
7060.63361 9.86815e-18
7062.10385 9.83932e-18
7063.57409 9.53968e-18
7065.04433 9.70456e-18
7066.51457 1.00326e-17
7067.97460 1.04648e-17
7069.44484 9.88667e-18
7070.91508 9.34551e-18
7072.38532 9.08064e-18
7073.85556 8.97744e-18
7075.32580 9.38947e-18
7076.79604 8.95822e-18
7078.26628 9.61846e-18
7079.73652 1.07996e-17
7081.20676 1.00626e-17
7082.67700 9.18145e-18
7084.14724 9.41701e-18
7085.61748 9.89323e-18
7087.08772 9.43713e-18
7088.55796 8.93909e-18
7090.02820 9.47751e-18
7091.49844 9.78715e-18
7092.96868 9.33536e-18
7094.43892 8.63588e-18
7095.90916 9.06179e-18
7097.37940 9.69452e-18
7098.84964 9.23217e-18
7100.31988 9.25998e-18
7101.79012 1.00118e-17
7103.26036 9.74357e-18
7104.73060 8.69973e-18
7106.20084 8.68120e-18
7107.67108 9.53171e-18
7109.14132 1.00069e-17
7110.61156 9.97450e-18
7112.08180 1.00179e-17
7113.55204 9.82416e-18
7115.02228 9.66273e-18
7116.49252 9.73935e-18
7117.96276 9.76664e-18
7119.43300 9.92064e-18
7120.90324 9.81960e-18
7122.37348 9.36352e-18
7123.84372 9.55349e-18
7125.31396 9.55151e-18
7126.78420 9.01678e-18
7128.25444 8.74068e-18
7129.72468 8.56714e-18
7131.19492 9.63257e-18
7132.66516 1.04703e-17
7134.12519 9.80613e-18
7135.59543 9.56436e-18
7137.06567 1.00333e-17
7138.53591 9.58431e-18
7140.00615 9.11442e-18
7141.47639 9.77585e-18
7142.94663 9.96495e-18
7144.41687 1.02067e-17
7145.88711 1.02541e-17
7147.35735 9.30054e-18
7148.82759 8.97988e-18
7150.29783 8.87834e-18
7151.76807 8.66626e-18
7153.23831 9.06537e-18
7154.70855 9.39671e-18
7156.17879 9.58989e-18
7157.64903 9.39548e-18
7159.11927 9.13229e-18
7160.58951 9.63187e-18
7162.05975 9.71021e-18
7163.52999 9.86825e-18
7165.00023 1.00641e-17
7166.47047 9.92646e-18
7167.94071 1.00622e-17
7169.41095 9.30372e-18
7170.88119 8.60539e-18
7172.35143 9.41610e-18
7173.82167 1.02709e-17
7175.29191 1.01999e-17
7176.76215 9.72656e-18
7178.23239 9.54744e-18
7179.70263 1.03229e-17
7181.17287 1.00792e-17
7182.64311 1.01864e-17
7184.11335 1.10491e-17
7185.58359 9.96592e-18
7187.05383 9.95742e-18
7188.52407 1.01142e-17
7189.99431 9.50545e-18
7191.46455 9.91978e-18
7192.93479 9.82403e-18
7194.39482 1.01009e-17
7195.86506 1.04847e-17
7197.33530 8.87210e-18
7198.80554 8.55608e-18
7200.27578 1.00522e-17
7201.74602 9.96746e-18
7203.21626 9.50220e-18
7204.68650 9.64965e-18
7206.15674 9.24165e-18
7207.62698 9.52534e-18
7209.09722 9.52436e-18
7210.56746 9.48056e-18
7212.03770 9.72027e-18
7213.50794 9.29440e-18
7214.97818 9.35661e-18
7216.44842 9.22565e-18
7217.91866 9.95428e-18
7219.38890 1.06778e-17
7220.85914 1.02383e-17
7222.32938 9.14783e-18
7223.79962 8.84299e-18
7225.26986 1.01715e-17
7226.74010 1.05121e-17
7228.21034 9.49955e-18
7229.68058 9.13793e-18
7231.15082 9.52554e-18
7232.62106 9.82323e-18
7234.09130 9.03559e-18
7235.56154 8.35107e-18
7237.03178 8.70963e-18
7238.50202 9.55538e-18
7239.97226 9.70375e-18
7241.44250 1.04413e-17
7242.91274 9.88918e-18
7244.38298 8.08194e-18
7245.85322 9.27447e-18
7247.32346 9.59764e-18
7248.79370 8.76914e-18
7250.26394 8.58499e-18
7251.73418 8.59074e-18
7253.20442 8.82785e-18
7254.67466 9.25992e-18
7256.14490 9.89278e-18
7257.60493 9.37437e-18
7259.07517 8.64481e-18
7260.54541 9.25436e-18
7262.01565 9.21671e-18
7263.48589 8.71800e-18
7264.95613 8.64723e-18
7266.42637 9.00293e-18
7267.89661 9.16591e-18
7269.36685 8.85089e-18
7270.83709 8.16758e-18
7272.30733 8.43046e-18
7273.77757 1.05386e-17
7275.24781 1.06123e-17
7276.71805 8.77516e-18
7278.18829 8.99118e-18
7279.65853 8.98170e-18
7281.12877 8.39513e-18
7282.59901 8.90819e-18
7284.06925 9.11925e-18
7285.53949 9.83751e-18
7287.00973 1.05139e-17
7288.47997 1.06276e-17
7289.95021 9.67216e-18
7291.42045 9.55246e-18
7292.89069 1.00327e-17
7294.36093 8.98406e-18
7295.83117 8.96299e-18
7297.30141 9.79450e-18
7298.77165 9.96681e-18
7300.24189 9.93372e-18
7301.71213 9.84765e-18
7303.18237 9.57272e-18
7304.65261 9.17525e-18
7306.12285 8.96936e-18
7307.59309 9.36207e-18
7309.06333 9.76723e-18
7310.53357 1.07245e-17
7312.00381 1.03618e-17
7313.47405 9.74590e-18
7314.94429 9.54324e-18
7316.41453 9.46922e-18
7317.88477 9.10667e-18
7319.35501 8.91973e-18
7320.81504 9.42694e-18
7322.28528 9.73748e-18
7323.75552 9.94014e-18
7325.22576 1.02022e-17
7326.69600 9.73042e-18
7328.16624 9.65996e-18
7329.63648 8.66346e-18
7331.10672 8.48913e-18
7332.57696 1.01321e-17
7334.04720 9.86245e-18
7335.51744 9.57379e-18
7336.98768 1.03955e-17
7338.45792 1.05294e-17
7339.92816 9.41562e-18
7341.39840 9.49826e-18
7342.86864 1.03780e-17
7344.33888 9.17763e-18
7345.80912 8.97703e-18
7347.27936 8.53963e-18
7348.74960 8.86337e-18
7350.21984 9.29236e-18
7351.69008 8.36859e-18
7353.16032 9.02283e-18
7354.63056 9.76696e-18
7356.10080 9.54431e-18
7357.57104 9.41159e-18
7359.04128 1.01315e-17
7360.51152 1.00538e-17
7361.98176 1.01727e-17
7363.45200 1.04424e-17
7364.92224 1.06707e-17
7366.39248 1.05348e-17
7367.86272 1.00359e-17
7369.33296 1.01166e-17
7370.80320 1.02035e-17
7372.27344 1.01559e-17
7373.74368 8.89982e-18
7375.21392 9.61363e-18
7376.68416 1.06143e-17
7378.15440 1.02346e-17
7379.62464 9.88977e-18
7381.08467 9.69278e-18
7382.55491 9.26480e-18
7384.02515 9.52130e-18
7385.49539 9.86019e-18
7386.96563 9.52764e-18
7388.43587 9.49902e-18
7389.90611 9.80725e-18
7391.37635 9.48425e-18
7392.84659 9.71733e-18
7394.31683 9.81102e-18
7395.78707 9.21302e-18
7397.25731 9.37800e-18
7398.72755 9.93893e-18
7400.19779 1.07746e-17
7401.66803 1.15972e-17
7403.13827 1.03166e-17
7404.60851 8.56184e-18
7406.07875 8.97802e-18
7407.54899 9.83580e-18
7409.01923 1.02036e-17
7410.48947 9.19112e-18
7411.86848 9.19112e-18
7413.52607 9.35345e-18
7415.18366 9.33215e-18
7416.84125 9.31079e-18
7418.50888 9.04661e-18
7420.16647 8.78255e-18
7421.82406 8.95486e-18
7423.48165 9.12715e-18
7425.14929 9.20626e-18
7426.80688 9.28534e-18
7428.46447 9.25534e-18
7430.13211 9.22527e-18
7431.78970 9.00730e-18
7433.44729 8.78937e-18
7435.10488 8.71663e-18
7436.77251 8.64397e-18
7438.43010 8.83292e-18
7440.08769 9.02178e-18
7441.74528 8.90328e-18
7443.41292 8.78482e-18
7445.07051 8.79475e-18
7446.72810 8.80470e-18
7448.39573 8.90780e-18
7450.05332 9.01088e-18
7451.71091 9.00835e-18
7453.36850 9.00583e-18
7455.03614 9.03365e-18
7456.69373 9.06150e-18
7458.35132 9.16818e-18
7460.00891 9.27483e-18
7461.67655 9.29141e-18
7463.33414 9.30798e-18
7464.99173 9.25491e-18
7466.65936 9.20178e-18
7468.31695 8.87532e-18
7469.97454 8.54895e-18
7471.63213 8.51908e-18
7473.29977 8.48928e-18
7474.95736 8.64440e-18
7476.61495 8.79945e-18
7478.28258 8.78983e-18
7479.94017 8.78017e-18
7481.59776 8.60240e-18
7483.25535 8.42472e-18
7484.92299 8.59675e-18
7486.58058 8.76875e-18
7488.23817 8.84148e-18
7489.89576 8.91422e-18
7491.56340 9.00068e-18
7493.22099 9.08706e-18
7494.87858 8.96205e-18
7496.54621 8.83704e-18
7498.20380 8.72809e-18
7499.86139 8.61910e-18
7501.51898 8.41199e-18
7503.18662 8.20497e-18
7504.84421 8.26500e-18
7506.50180 8.32502e-18
7508.16943 8.36689e-18
7509.82702 8.40875e-18
7511.48461 8.36693e-18
7513.14220 8.32518e-18
7514.80984 8.52060e-18
7516.46743 8.71590e-18
7518.12502 8.48612e-18
7519.78261 8.25644e-18
7521.45025 8.34100e-18
7523.10784 8.42556e-18
7524.76543 8.50363e-18
7526.43306 8.58167e-18
7528.09065 8.55165e-18
7529.74824 8.52157e-18
7531.40583 8.31249e-18
7533.07347 8.10352e-18
7534.73106 8.24822e-18
7536.38865 8.39288e-18
7538.04624 8.43320e-18
7539.71387 8.47348e-18
7541.37146 8.44600e-18
7543.02905 8.41845e-18
7544.69669 8.21077e-18
7546.35428 8.00318e-18
7548.01187 8.12606e-18
7549.66946 8.24892e-18
7551.33710 8.23569e-18
7552.99469 8.22247e-18
7554.65228 8.20924e-18
7556.30987 8.19603e-18
7557.97750 8.18280e-18
7559.63509 8.16958e-18
7561.29268 8.15636e-18
7562.96032 8.14314e-18
7564.61791 8.12991e-18
7566.27550 8.11670e-18
7567.93309 8.10347e-18
7569.60072 8.09026e-18
7571.25831 8.07703e-18
7572.91590 8.06381e-18
7574.58354 8.05060e-18
7576.24113 8.03737e-18
7577.89872 8.02416e-18
7579.55631 8.01094e-18
7581.22395 7.99773e-18
7582.88154 7.98451e-18
7584.53913 7.97130e-18
7586.19672 7.95807e-18
7587.86435 7.94487e-18
7589.52194 7.93164e-18
7591.17953 7.91842e-18
7592.84717 7.90522e-18
7594.50476 7.89199e-18
7596.16235 7.87879e-18
7597.81994 7.86557e-18
7599.48757 7.85236e-18
7601.14516 7.83914e-18
7602.80275 7.82593e-18
7604.46034 7.81271e-18
7606.12798 7.79951e-18
7607.78557 7.78630e-18
7609.44316 7.77309e-18
7611.11080 7.75988e-18
7612.76839 7.74666e-18
7614.42598 7.73346e-18
7616.08357 7.72025e-18
7617.75120 7.70704e-18
7619.40879 7.69383e-18
7621.06638 7.68062e-18
7622.72397 7.66741e-18
7624.39161 7.65421e-18
7626.04920 7.64099e-18
7627.70679 7.62779e-18
7629.37442 7.61459e-18
7631.03201 7.60138e-18
7632.68960 7.58817e-18
7634.34719 7.57498e-18
7636.01483 7.56176e-18
7637.67242 7.54856e-18
7639.33001 7.53536e-18
7640.99765 7.52215e-18
7642.65524 7.50895e-18
7644.31283 7.49575e-18
7645.97042 7.48255e-18
7647.63805 7.46934e-18
7649.29564 7.45614e-18
7650.95323 7.44294e-18
7652.61082 7.42973e-18
7654.27846 7.41653e-18
7655.93605 7.40334e-18
7657.59364 7.39014e-18
7659.26127 7.37694e-18
7660.91886 7.36374e-18
7662.57645 7.35054e-18
7664.23404 7.33734e-18
7665.90168 7.32415e-18
7667.55927 7.31095e-18
7669.21686 7.29774e-18
7670.87445 7.28455e-18
7672.54209 7.27136e-18
7674.19968 7.25816e-18
7675.85727 7.24497e-18
7677.52490 7.23178e-18
7679.18249 7.21857e-18
7680.84008 7.20538e-18
7682.49767 7.04379e-18
7684.16531 7.02720e-18
7685.82290 7.01072e-18
7687.48049 7.36344e-18
7689.13808 7.71600e-18
7690.80571 7.57719e-18
7692.46330 7.43842e-18
7694.12089 7.45991e-18
7695.78853 7.48136e-18
7697.44612 7.40190e-18
7699.10371 7.32253e-18
7700.76130 7.56152e-18
7702.42894 7.80034e-18
7704.08653 7.51298e-18
7705.74412 7.22574e-18
7707.40171 7.41105e-18
7709.06934 7.59628e-18
7710.72693 7.56603e-18
7712.38452 7.53582e-18
7714.05216 7.64326e-18
7715.70975 7.75060e-18
7717.36734 7.58795e-18
7719.02493 7.42538e-18
7720.69256 7.55274e-18
7722.35015 7.68001e-18
7724.00774 7.47733e-18
7725.67538 7.27467e-18
7727.33297 7.11635e-18
7728.99056 6.95815e-18
7730.64815 7.17366e-18
7732.31579 7.38911e-18
7733.97338 7.45162e-18
7735.63097 7.51408e-18
7737.28856 7.41289e-18
7738.95619 7.31173e-18
7740.61378 7.37964e-18
7742.27137 7.44754e-18
7743.93901 7.47191e-18
7745.59660 7.49634e-18
7747.25419 7.66562e-18
7748.91178 7.83476e-18
7750.57941 7.55087e-18
7752.23700 7.26704e-18
7753.89459 7.16652e-18
7755.55218 7.06610e-18
7757.21982 7.23927e-18
7758.87741 7.41251e-18
7760.53500 7.81264e-18
7762.20264 8.21259e-18
7763.86023 8.05181e-18
7765.51782 7.89109e-18
7767.17541 7.92494e-18
7768.84304 7.95877e-18
7770.50063 7.91720e-18
7772.15822 7.87562e-18
7773.81581 7.81045e-18
7775.48345 7.74527e-18
7777.14104 7.66154e-18
7778.79863 7.57788e-18
7780.46626 7.69719e-18
7782.12385 7.81643e-18
7783.78144 7.65954e-18
7785.43903 7.50277e-18
7787.10667 7.70320e-18
7788.76426 7.90359e-18
7790.42185 8.03033e-18
7792.07944 8.15702e-18
7793.74708 8.07735e-18
7795.40467 7.99773e-18
7797.06226 8.04864e-18
7798.72989 8.09957e-18
7800.38748 8.14947e-18
7802.04507 8.19932e-18
7803.70266 8.13262e-18
7805.37030 8.06595e-18
7807.02789 8.10594e-18
7808.68548 8.14588e-18
7810.35311 8.03398e-18
7812.01070 7.92222e-18
7813.66829 8.25095e-18
7815.32588 8.57952e-18
7816.99352 8.38220e-18
7818.65111 8.18493e-18
7820.30870 8.12490e-18
7821.96629 8.06484e-18
7823.63393 7.88186e-18
7825.29152 7.69894e-18
7826.94911 7.70123e-18
7828.61674 7.70351e-18
7830.27433 7.65962e-18
7831.93192 7.61577e-18
7833.58951 7.74531e-18
7835.25715 7.87485e-18
7836.91474 8.03556e-18
7838.57233 8.19611e-18
7840.22992 7.86951e-18
7841.89755 7.54308e-18
7843.55514 7.69514e-18
7845.21273 7.84713e-18
7846.88037 7.82947e-18
7848.53796 7.81183e-18
7850.19555 7.98493e-18
7851.85314 8.15808e-18
7853.52078 8.59386e-18
7855.17837 9.02943e-18
7856.83596 8.77645e-18
7858.50359 8.52349e-18
7860.16118 8.31530e-18
7861.81877 8.10726e-18
7863.47636 8.35413e-18
7865.14400 8.60086e-18
7866.80159 8.40432e-18
7868.45918 8.20788e-18
7870.11677 8.31177e-18
7871.78440 8.41557e-18
7873.44199 8.27435e-18
7875.09958 8.13317e-18
7876.76722 8.12743e-18
7878.42481 8.12173e-18
7880.08240 8.23189e-18
7881.73999 8.34197e-18
7883.40763 8.17232e-18
7885.06522 8.00283e-18
7886.72281 8.30478e-18
7888.38040 8.60661e-18
7890.04803 8.51119e-18
7891.70562 8.41573e-18
7893.36321 8.13932e-18
7895.03085 7.86301e-18
7896.68844 7.80898e-18
7898.34603 7.75496e-18
7900.00362 7.72160e-18
7901.67125 7.68832e-18
7903.32884 7.87839e-18
7904.98643 8.06839e-18
7906.64402 8.07042e-18
7908.31166 8.07243e-18
7909.96925 7.97853e-18
7911.62684 7.88460e-18
7913.29448 7.67463e-18
7914.95207 7.46482e-18
7916.60966 7.73811e-18
7918.26725 8.01127e-18
7919.93488 7.86264e-18
7921.59247 7.71414e-18
7923.25006 7.96052e-18
7924.90765 8.20681e-18
7926.57529 8.18846e-18
7928.23288 8.17006e-18
7929.89047 7.95949e-18
7931.55810 7.74894e-18
7933.21569 7.63478e-18
7934.87328 7.52069e-18
7936.53087 7.64261e-18
7938.19851 7.76443e-18
7939.85610 7.59014e-18
7941.51369 7.41593e-18
7943.18133 7.52181e-18
7944.83892 7.62776e-18
7946.49651 7.96929e-18
7948.15410 8.31062e-18
7949.82173 8.04310e-18
7951.47932 7.77557e-18
7953.13691 7.48133e-18
7954.79450 7.18731e-18
7956.46214 7.48532e-18
7958.11973 7.78313e-18
7959.77732 7.43402e-18
7961.44495 7.08509e-18
7963.10254 7.32322e-18
7964.76013 7.56126e-18
7966.41772 7.51967e-18
7968.08536 7.47809e-18
7969.74295 7.50264e-18
7971.40054 7.52720e-18
7973.05813 7.61539e-18
7974.72577 7.70349e-18
7976.38336 7.46896e-18
7978.04095 7.23448e-18
7979.70858 7.11928e-18
7981.36617 7.00421e-18
7983.02376 7.27430e-18
7984.68135 7.54431e-18
7986.34899 7.62501e-18
7988.00658 7.70562e-18
7989.66417 7.56975e-18
7991.33180 7.43396e-18
7992.98939 7.57258e-18
7994.64698 7.71103e-18
7996.30457 7.36850e-18
7997.97221 7.02619e-18
7999.62980 7.28674e-18
8001.28739 7.54714e-18
8002.94498 7.35304e-18
8004.61262 7.15900e-18
8006.27021 7.09512e-18
8007.92780 7.03139e-18
8009.59543 7.35207e-18
8011.25302 7.67255e-18
8012.91061 7.40680e-18
8014.56820 7.14116e-18
8016.23584 7.16771e-18
8017.89343 7.19429e-18
8019.55102 7.31279e-18
8021.20861 7.43126e-18
8022.87624 7.43757e-18
8024.53383 7.44379e-18
8026.19142 7.27117e-18
8027.85906 7.09856e-18
8029.51665 7.03114e-18
8031.17424 6.96371e-18
8032.83183 6.83583e-18
8034.49947 6.70806e-18
8036.15706 6.93135e-18
8037.81465 7.15457e-18
8039.47224 7.15320e-18
8041.13987 7.15180e-18
8042.79746 7.06475e-18
8044.45505 6.97772e-18
8046.12269 6.88207e-18
8047.78028 6.78649e-18
8049.43787 6.94603e-18
8051.09546 7.10549e-18
8052.76309 7.05684e-18
8054.42068 7.00815e-18
8056.07827 6.84710e-18
8057.73586 6.68613e-18
8059.40350 6.78086e-18
8061.06109 6.87558e-18
8062.71868 6.90501e-18
8064.38632 6.93436e-18
8066.04391 6.75164e-18
8067.70150 6.56897e-18
8069.35909 6.50808e-18
8071.02672 6.44725e-18
8072.68431 6.55425e-18
8074.34190 6.66125e-18
8076.00954 6.76626e-18
8077.66713 6.87124e-18
8079.32472 6.85715e-18
8080.98231 6.84300e-18
8082.64994 6.60075e-18
8084.30753 6.35852e-18
8085.96512 6.23988e-18
8087.62271 6.12128e-18
8089.29035 6.19367e-18
8090.94794 6.26607e-18
8092.60553 6.34580e-18
8094.27317 6.42552e-18
8095.93076 6.42971e-18
8097.58835 6.43389e-18
8099.24594 6.42804e-18
8100.91357 6.42222e-18
8102.57116 6.47368e-18
8104.22875 6.52509e-18
8105.88634 6.41166e-18
8107.55398 6.29830e-18
8109.21157 6.39541e-18
8110.86916 6.49241e-18
8112.53679 6.25292e-18
8114.19438 6.01359e-18
8115.85197 6.21605e-18
8117.50956 6.41852e-18
8119.17720 6.67119e-18
8120.83479 6.92368e-18
8122.49238 6.69350e-18
8124.16002 6.46328e-18
8125.81761 6.13068e-18
8127.47520 5.79822e-18
8129.13279 5.88214e-18
8130.80042 5.96608e-18
8132.45801 6.15750e-18
8134.11560 6.34885e-18
8135.77319 6.37466e-18
8137.44083 6.40046e-18
8139.09842 6.43838e-18
8140.75601 6.47627e-18
8142.41360 6.40836e-18
8144.08123 6.34041e-18
8145.73882 6.11362e-18
8147.39641 5.88700e-18
8149.06405 6.11915e-18
8150.72164 6.35120e-18
8152.37923 6.30573e-18
8154.03682 6.26020e-18
8155.70446 6.02691e-18
8157.36205 5.79374e-18
8159.01964 5.94385e-18
8160.68727 6.09391e-18
8162.34486 6.17173e-18
8164.00245 6.24946e-18
8165.66004 6.06332e-18
8167.32768 5.87734e-18
8168.98527 6.18151e-18
8170.64286 6.48555e-18
8172.30045 6.47393e-18
8173.96808 6.46213e-18
8175.62567 5.94642e-18
8177.28326 5.43093e-18
8178.95090 5.58512e-18
8180.60849 5.73933e-18
8182.26608 5.94310e-18
8183.92367 6.14682e-18
8185.59131 6.24204e-18
8187.24890 6.33710e-18
8188.90649 5.94924e-18
8190.56408 5.56154e-18
8192.23171 5.62080e-18
8193.88930 5.68013e-18
8195.54689 5.97264e-18
8197.21453 6.26503e-18
8198.87212 6.26486e-18
8200.52971 6.26464e-18
8202.18730 6.13860e-18
8203.85493 6.01260e-18
8205.51252 6.03667e-18
8207.17011 6.06074e-18
8208.82770 6.09000e-18
8210.49534 6.11913e-18
8212.15293 5.78790e-18
8213.81052 5.45682e-18
8215.47816 5.61081e-18
8217.13575 5.76471e-18
8218.79334 5.62400e-18
8220.45093 5.48342e-18
8222.11856 5.70817e-18
8223.77615 5.93278e-18
8225.43374 5.77898e-18
8227.09133 5.62528e-18
8228.75897 5.74961e-18
8230.41656 5.87387e-18
8232.07415 5.76531e-18
8233.74178 5.65679e-18
8235.39937 5.65242e-18
8237.05696 5.64802e-18
8238.71455 5.52850e-18
8240.38219 5.40900e-18
8242.03978 5.30092e-18
8243.69737 5.19299e-18
8245.36501 5.51186e-18
8247.02260 5.83060e-18
8248.68019 5.75379e-18
8250.33778 5.67702e-18
8252.00541 5.69923e-18
8253.66300 5.72129e-18
8255.32059 5.30916e-18
8256.97818 4.89730e-18
8258.64582 5.23968e-18
8260.30341 5.58196e-18
8261.96100 5.67520e-18
8263.62863 5.76837e-18
8265.28622 5.65948e-18
8266.94381 5.55058e-18
8268.60140 5.36868e-18
8270.26904 5.18687e-18
8271.92663 5.16942e-18
8273.58422 5.15199e-18
8275.25186 5.21076e-18
8276.90945 5.26947e-18
8278.56704 5.18562e-18
8280.22463 5.10176e-18
8281.89226 4.98507e-18
8283.54985 4.86846e-18
8285.20744 5.00575e-18
8286.86503 5.14295e-18
8288.53267 5.05418e-18
8290.19026 4.96547e-18
8291.84785 5.06235e-18
8293.51548 5.15924e-18
8295.17307 5.24198e-18
8296.83066 5.32468e-18
8298.48825 5.27930e-18
8300.15589 5.23384e-18
8301.81348 4.98414e-18
8303.47107 4.73454e-18
8305.12866 4.79969e-18
8306.79630 4.86479e-18
8308.45389 4.82191e-18
8310.11148 4.77902e-18
8311.77911 4.68747e-18
8313.43670 4.59597e-18
8315.09429 4.68599e-18
8316.75188 4.77601e-18
8318.41952 4.92033e-18
8320.07711 5.06457e-18
8321.73470 4.96813e-18
8323.40233 4.87165e-18
8325.05992 4.59443e-18
8326.71751 4.31736e-18
8328.37510 4.42438e-18
8330.04274 4.53141e-18
8331.70033 4.63041e-18
8333.35792 4.72939e-18
8335.01551 4.74646e-18
8336.68315 4.76354e-18
8338.34074 4.79958e-18
8339.99833 4.83563e-18
8341.65592 4.91335e-18
8343.32355 4.99114e-18
8344.98114 5.21043e-18
8346.63873 5.42961e-18
8348.30637 5.29326e-18
8349.96396 5.15686e-18
8351.62155 4.87436e-18
8353.27914 4.59197e-18
8354.94677 4.65713e-18
8356.60436 4.72230e-18
8358.26195 4.86865e-18
8359.92959 5.01495e-18
8361.58718 4.98858e-18
8363.24477 4.96216e-18
8364.90236 4.81698e-18
8366.57000 4.67181e-18
8368.22759 4.56795e-18
8369.88518 4.46420e-18
8371.54277 4.66964e-18
8373.21040 4.87491e-18
8374.86799 4.56461e-18
8376.52558 4.25452e-18
8378.19322 4.54652e-18
8379.85081 4.83838e-18
8381.50840 4.68757e-18
8383.16599 4.53683e-18
8384.83362 4.62149e-18
8386.49121 4.70605e-18
8388.14880 4.50811e-18
8389.81644 4.31032e-18
8391.47403 4.51254e-18
8393.13162 4.71476e-18
8394.78921 4.89435e-18
8396.45685 5.07384e-18
8398.11444 4.97147e-18
8399.77203 4.86912e-18
8401.42962 4.78397e-18
8403.09725 4.69888e-18
8404.75484 4.78253e-18
8406.41243 4.86625e-18
8408.08007 5.10687e-18
8409.73766 5.34732e-18
8411.39525 5.13328e-18
8413.05284 4.91932e-18
8414.72047 4.93409e-18
8416.37806 4.94880e-18
8418.03565 4.81209e-18
8419.69324 4.67542e-18
8421.36088 4.64452e-18
8423.01847 4.61366e-18
8424.67606 4.67340e-18
8426.34370 4.73303e-18
8428.00129 4.44756e-18
8429.65888 4.16228e-18
8431.31647 4.39581e-18
8432.98410 4.62931e-18
8434.64169 4.80484e-18
8436.29928 4.98028e-18
8437.95687 4.94154e-18
8439.62451 4.90280e-18
8441.28210 4.83475e-18
8442.93969 4.76662e-18
8444.60732 4.46966e-18
8446.26491 4.17284e-18
8447.92250 4.28580e-18
8449.58009 4.39878e-18
8451.24773 4.65675e-18
8452.90532 4.91464e-18
8454.56291 4.99520e-18
8456.22050 5.07566e-18
8457.88814 4.88629e-18
8459.54573 4.69694e-18
8461.20332 4.60598e-18
8462.87095 4.51508e-18
8464.52854 4.59136e-18
8466.18613 4.66760e-18
8467.84372 4.68487e-18
8469.51136 4.70212e-18
8471.16895 4.68797e-18
8472.82654 4.67380e-18
8474.48413 4.63606e-18
8476.15176 4.59837e-18
8477.80935 4.69809e-18
8479.46694 4.79789e-18
8481.13458 5.08681e-18
8482.79217 5.37554e-18
8484.44976 5.14157e-18
8486.10735 4.90769e-18
8487.77499 4.89502e-18
8489.43258 4.88247e-18
8491.09017 5.18006e-18
8492.75780 5.47746e-18
8494.41539 5.23702e-18
8496.07298 4.99668e-18
8497.73057 5.05092e-18
8499.39821 5.10514e-18
8501.05580 5.11926e-18
8502.71339 5.13338e-18
8504.37098 5.12771e-18
8506.03861 5.12202e-18
8507.69620 5.09523e-18
8509.35379 5.06847e-18
8511.01138 5.13031e-18
8512.67902 5.19210e-18
8514.33661 5.13108e-18
8515.99420 5.07013e-18
8517.66184 5.22077e-18
8519.31943 5.37132e-18
8520.97702 5.22946e-18
8522.63461 5.08762e-18
8524.30224 4.97683e-18
8525.95983 4.86618e-18
8527.61742 5.13527e-18
8529.28506 5.40430e-18
8530.94265 5.59059e-18
8532.60024 5.77671e-18
8534.25783 5.48927e-18
8535.92546 5.20203e-18
8537.58305 5.47221e-18
8539.24064 5.74224e-18
8540.89823 5.57773e-18
8542.56587 5.41329e-18
8544.22346 5.39943e-18
8545.88105 5.38559e-18
8547.54869 5.40156e-18
8549.20628 5.41762e-18
8550.86387 5.67880e-18
8552.52146 5.93988e-18
8554.18909 5.93630e-18
8555.84668 5.93277e-18
8557.50427 6.07665e-18
8559.17191 6.22041e-18
8560.82950 6.08510e-18
8562.48709 5.94982e-18
8564.14468 5.84394e-18
8565.81231 5.73817e-18
8567.46990 5.91822e-18
8569.12749 6.09821e-18
8570.78508 6.08240e-18
8572.45272 6.06653e-18
8574.11031 5.87837e-18
8575.76790 5.69023e-18
8577.43554 5.57281e-18
8579.09313 5.45548e-18
8580.75072 5.60300e-18
8582.40831 5.75042e-18
8584.07594 5.68727e-18
8585.73353 5.62418e-18
8587.39112 5.76434e-18
8589.04871 5.90452e-18
8590.71635 6.06720e-18
8592.37394 6.22976e-18
8594.03153 6.05974e-18
8595.69916 5.88975e-18
8597.35675 5.79406e-18
8599.01434 5.69844e-18
8600.67193 5.74470e-18
8602.33957 5.79105e-18
8603.99716 6.06993e-18
8605.65475 6.34864e-18
8607.32239 6.23903e-18
8608.97998 6.12938e-18
8610.63757 5.96650e-18
8612.29516 5.80367e-18
8613.96279 5.81647e-18
8615.62038 5.82927e-18
8617.27797 5.85398e-18
8618.93556 5.87869e-18
8620.60320 5.85691e-18
8622.26079 5.83521e-18
8623.91838 6.09123e-18
8625.58601 6.34720e-18
8627.24360 6.46342e-18
8628.90119 6.57952e-18
8630.55878 6.39003e-18
8632.22642 6.20057e-18
8633.88401 6.07869e-18
8635.54160 5.95694e-18
8637.20924 6.17504e-18
8638.86683 6.39310e-18
8640.52442 6.49219e-18
8642.18201 6.59109e-18
8643.84964 6.16015e-18
8645.50723 5.72938e-18
8647.16482 5.80127e-18
8648.82241 5.87322e-18
8650.49005 6.15293e-18
8652.14764 6.43251e-18
8653.80523 6.43223e-18
8655.46282 6.43190e-18
8657.13045 6.32483e-18
8658.78804 6.21785e-18
8660.44563 6.32433e-18
8662.11327 6.43067e-18
8663.77086 6.19751e-18
8665.42845 5.96445e-18
8667.08604 6.01882e-18
8668.75368 6.07315e-18
8670.41127 6.05480e-18
8672.06886 6.03649e-18
8673.73649 6.10096e-18
8675.39408 6.16535e-18
8677.05167 6.01527e-18
8678.70926 5.86529e-18
8680.37690 5.97480e-18
8682.03449 6.08428e-18
8683.69208 6.13305e-18
8685.34967 6.18172e-18
8687.01730 5.97230e-18
8688.67489 5.76302e-18
8690.33248 5.96024e-18
8691.99007 6.15742e-18
8693.65771 6.23244e-18
8695.31530 6.30736e-18
8696.97289 6.15339e-18
8698.64053 5.99950e-18
8700.29812 6.03992e-18
8701.95571 6.08038e-18
8703.61330 6.19435e-18
8705.28093 6.30823e-18
8706.93852 6.20134e-18
8708.59611 6.09445e-18
8710.26375 5.98747e-18
8711.92134 5.88060e-18
8713.57893 6.01817e-18
8715.23652 6.15567e-18
8716.90415 6.08003e-18
8718.56174 6.00439e-18
8720.21933 5.90408e-18
8721.87692 5.80380e-18
8723.54456 5.84101e-18
8725.20215 5.87826e-18
8726.85974 5.98804e-18
8728.52738 6.09784e-18
8730.18497 6.24747e-18
8731.84256 6.39698e-18
8733.50015 6.21745e-18
8735.16778 6.03804e-18
8736.82537 6.15526e-18
8738.48296 6.27240e-18
8740.14055 6.13521e-18
8741.80819 5.99811e-18
8743.46578 6.13179e-18
8745.12337 6.26532e-18
8746.79100 5.96544e-18
8748.44859 5.66573e-18
8750.10618 5.77490e-18
8751.76377 5.88419e-18
8753.43141 6.31387e-18
8755.08900 6.74338e-18
8756.74659 6.78370e-18
8758.40418 6.82382e-18
8760.07182 6.35646e-18
8761.72941 5.88925e-18
8763.38700 5.82524e-18
8765.05463 5.76128e-18
8766.71222 5.84109e-18
8768.36981 5.92083e-18
8770.02740 5.83011e-18
8771.69504 5.73944e-18
8773.35263 5.75059e-18
8775.01022 5.76171e-18
8776.67785 5.74038e-18
8778.33544 5.71906e-18
8779.99303 5.71529e-18
8781.65062 5.71154e-18
8783.31826 5.77604e-18
8784.97585 5.84041e-18
8786.63344 5.57862e-18
8788.29103 5.31689e-18
8789.95867 5.21114e-18
8791.61626 5.10556e-18
8793.27385 5.45393e-18
8794.94148 5.80211e-18
8796.59907 5.63558e-18
8798.25666 5.46911e-18
8799.91425 5.43573e-18
8801.58189 5.40235e-18
8803.23948 5.37351e-18
8804.89707 5.34466e-18
8806.56470 5.36359e-18
8808.22229 5.38254e-18
8809.87988 5.47127e-18
8811.53747 5.55999e-18
8813.20511 5.57316e-18
8814.86270 5.58635e-18
8816.52029 5.65483e-18
8818.17788 5.72328e-18
8819.84552 5.75294e-18
8821.50311 5.78260e-18
8823.16070 5.77324e-18
8824.82833 5.76389e-18
8826.48592 5.75917e-18
8828.14351 5.75423e-18
8829.80110 5.25091e-18
8831.46874 4.74796e-18
8833.12633 5.19803e-18
8834.78392 5.64788e-18
8836.44151 5.54080e-18
8838.10914 5.43377e-18
8839.76673 5.42517e-18
8841.42432 5.41654e-18
8843.09196 5.31641e-18
8844.74955 5.21632e-18
8846.40714 5.20982e-18
8848.06473 5.20334e-18
8849.73237 5.20538e-18
8851.38996 5.20747e-18
8853.04755 5.33167e-18
8854.71518 5.45575e-18
8856.37277 5.30373e-18
8858.03036 5.15175e-18
8859.68795 5.04684e-18
8861.35559 4.94196e-18
8863.01318 4.93235e-18
8864.67077 4.92279e-18
8866.32836 5.00154e-18
8867.99599 5.08031e-18
8869.65358 5.19743e-18
8871.31117 5.31450e-18
8872.97881 5.30891e-18
8874.63640 5.30325e-18
8876.29399 5.11204e-18
8877.95158 4.92098e-18
8879.61922 5.07675e-18
8881.27681 5.23243e-18
8882.93440 5.17858e-18
8884.60203 5.12482e-18
8886.25962 5.26788e-18
8887.91721 5.41091e-18
8889.57480 5.43713e-18
8891.24244 5.46323e-18
8892.90003 5.17120e-18
8894.55762 4.87932e-18
8896.21521 4.98594e-18
8897.88284 5.09251e-18
8899.54043 5.09404e-18
8901.19802 5.09555e-18
8902.85561 5.06566e-18
8904.52325 5.03576e-18
8906.18084 5.01618e-18
8907.83843 4.99655e-18
8909.50607 4.78995e-18
8911.16366 4.58346e-18
8912.82125 4.63557e-18
8914.47884 4.68759e-18
8916.14647 4.53895e-18
8917.80406 4.39046e-18
8919.46165 4.59925e-18
8921.11924 4.80792e-18
8922.78688 4.74503e-18
8924.44447 4.68230e-18
8926.10206 5.03853e-18
8927.76969 5.39459e-18
8929.42728 5.33838e-18
8931.08487 5.28199e-18
8932.74246 4.81551e-18
8934.41010 4.34922e-18
8936.06769 4.32420e-18
8937.72528 4.29930e-18
8939.38287 4.56313e-18
8941.05051 4.82672e-18
8942.70810 4.51730e-18
8944.36569 4.20803e-18
8946.03332 4.29173e-18
8947.69091 4.37533e-18
8949.34850 4.26734e-18
8951.00609 4.15947e-18
8952.67373 4.34989e-18
8954.33132 4.54011e-18
8955.98891 4.22262e-18
8957.64650 3.90534e-18
8959.31413 4.08088e-18
8960.97172 4.25638e-18
8962.62931 4.38236e-18
8964.29695 4.50836e-18
8965.95454 4.69478e-18
8967.61213 4.88105e-18
8969.26972 4.74972e-18
8970.93736 4.61842e-18
8972.59495 4.59629e-18
8974.25254 4.57414e-18
8975.92017 4.53534e-18
8977.57776 4.49651e-18
8979.23535 4.38390e-18
8980.89294 4.27139e-18
8982.56058 4.37188e-18
8984.21817 4.47236e-18
8985.87576 4.59987e-18
8987.53335 4.72725e-18
8989.20098 4.51986e-18
8990.85857 4.31253e-18
8992.51616 4.24360e-18
8994.18380 4.17473e-18
8995.84139 4.26130e-18
8997.49898 4.34786e-18
8999.15657 4.42843e-18
9000.82421 4.50904e-18
9002.48180 4.65197e-18
9004.13939 4.79483e-18
9005.79698 4.73616e-18
9007.46461 4.67750e-18
9009.12220 4.64770e-18
9010.77979 4.61797e-18
9012.44743 4.75011e-18
9014.10502 4.88211e-18
9015.76261 4.63768e-18
9017.42020 4.39339e-18
9019.08783 4.43865e-18
9020.74542 4.48384e-18
9022.40301 4.35763e-18
9024.07065 4.23148e-18
9025.72824 4.26857e-18
9027.38583 4.30567e-18
9029.04342 4.39593e-18
9030.71106 4.48624e-18
9032.36865 4.68083e-18
9034.02624 4.87524e-18
9035.68383 4.61852e-18
9037.35146 4.36188e-18
9039.00905 4.28256e-18
9040.66664 4.20334e-18
9042.33428 4.35092e-18
9043.99187 4.49836e-18
9045.64946 4.29857e-18
9047.30705 4.09878e-18
9048.97468 3.88816e-18
9050.63227 3.67775e-18
9052.28986 4.00184e-18
9053.95750 4.32582e-18
9055.61509 4.37338e-18
9057.27268 4.42082e-18
9058.93027 4.18392e-18
9060.59791 3.94709e-18
9062.25550 3.89629e-18
9063.91309 3.84555e-18
9065.57068 3.89617e-18
9067.23831 3.94672e-18
9068.89590 3.77850e-18
9070.55349 3.61042e-18
9072.21108 3.79779e-18
9073.87872 3.98508e-18
9075.53631 3.98809e-18
9077.19390 3.99111e-18
9078.86153 4.02881e-18
9080.51912 4.06635e-18
9082.17671 3.74432e-18
9083.83430 3.42252e-18
9085.50194 3.65985e-18
9087.15953 3.89715e-18
9088.81712 4.04906e-18
9090.48476 4.20084e-18
9092.14235 4.05785e-18
9093.79994 3.91509e-18
9095.45753 4.19587e-18
9097.12516 4.47641e-18
9098.78275 4.16882e-18
9100.44034 3.86144e-18
9102.09793 4.05295e-18
9103.76557 4.24455e-18
9105.42316 4.62119e-18
9107.08075 4.99759e-18
9108.74838 4.79762e-18
9110.40597 4.59765e-18
9112.06356 4.32773e-18
9113.72115 4.05791e-18
9115.38879 3.97818e-18
9117.04638 3.89853e-18
9118.70397 3.99126e-18
9120.36156 4.08393e-18
9122.02920 4.03624e-18
9123.68679 3.98859e-18
9125.34438 4.08041e-18
9127.01201 4.17222e-18
9128.66960 4.29222e-18
9130.32719 4.41218e-18
9131.98478 4.47352e-18
9133.65242 4.53484e-18
9135.31001 4.52664e-18
9136.96760 4.51847e-18
9138.63523 4.59650e-18
9140.29282 4.67444e-18
9141.95041 4.52483e-18
9143.60800 4.37529e-18
9145.27564 4.40878e-18
9146.93323 4.44222e-18
9148.59082 4.37839e-18
9150.24841 4.31450e-18
9151.91605 4.13657e-18
9153.57364 3.95884e-18
9155.23123 4.27678e-18
9156.89886 4.59457e-18
9158.55645 4.62912e-18
9160.21404 4.66360e-18
9161.87163 4.58099e-18
9163.53927 4.49831e-18
9165.19686 4.24583e-18
9166.85445 3.99352e-18
9168.51204 4.17348e-18
9170.17967 4.35338e-18
9171.83726 4.36056e-18
9173.49485 4.36773e-18
9175.15244 4.31898e-18
9176.82008 4.27034e-18
9178.47767 4.49640e-18
9180.13526 4.72241e-18
9181.80290 4.78865e-18
9183.46049 4.85484e-18
9185.11808 4.76819e-18
9186.77567 4.68161e-18
9188.44330 4.73696e-18
9190.10089 4.79224e-18
9191.75848 4.72556e-18
9193.42612 4.65884e-18
9195.08371 4.46781e-18
9196.74130 4.27696e-18
9198.39889 4.55241e-18
9200.06652 4.82775e-18
9201.72411 4.83795e-18
9203.38170 4.84805e-18
9205.03929 4.62124e-18
9206.70693 4.39451e-18
9208.36452 4.38853e-18
9210.02211 4.38263e-18
9211.68975 4.57414e-18
9213.34734 4.76554e-18
9215.00493 4.71286e-18
9216.66252 4.66017e-18
9218.33015 4.57401e-18
9219.98774 4.48784e-18
9221.64533 4.39657e-18
9223.31297 4.30536e-18
9224.97056 4.37494e-18
9226.62815 4.44439e-18
9228.28574 4.19510e-18
9229.95337 3.94607e-18
9231.61096 4.34926e-18
9233.26855 4.75235e-18
9234.92614 4.94737e-18
9236.59378 5.14218e-18
9238.25137 4.84807e-18
9239.90896 4.55404e-18
9241.56655 4.40248e-18
9243.23419 4.25111e-18
9244.89178 4.54926e-18
9246.54937 4.84720e-18
9248.21700 4.62484e-18
9249.87459 4.40258e-18
9251.53218 4.41848e-18
9253.18977 4.43435e-18
9254.85741 4.38399e-18
9256.51500 4.33368e-18
9258.17259 4.39420e-18
9259.84022 4.45473e-18
9261.49781 4.56537e-18
9263.15540 4.67593e-18
9264.81299 4.59460e-18
9266.48063 4.51318e-18
9268.13822 4.22738e-18
9269.79581 3.94184e-18
9271.45340 4.26952e-18
9273.12104 4.59700e-18
9274.77863 4.44124e-18
9276.43622 4.28564e-18
9278.10385 4.52144e-18
9279.76144 4.75703e-18
9281.41903 4.52599e-18
9283.07662 4.29506e-18
9284.74426 4.30116e-18
9286.40185 4.30731e-18
9288.05944 4.41609e-18
9289.71703 4.52468e-18
9291.38466 4.16646e-18
9293.04225 3.80842e-18
9294.69984 3.91514e-18
9296.36748 4.02187e-18
9298.02507 4.17738e-18
9299.68266 4.33282e-18
9301.34025 4.34102e-18
9303.00789 4.34919e-18
9304.66548 4.32397e-18
9306.32307 4.29869e-18
9307.99070 4.12717e-18
9309.64829 3.95568e-18
9311.30588 3.87512e-18
9312.96347 3.79465e-18
9314.63111 3.87104e-18
9316.28870 3.94731e-18
9317.94629 3.70373e-18
9319.60388 3.46013e-18
9321.27151 3.13361e-18
9322.92910 2.80738e-18
9324.58669 3.15564e-18
9326.25433 3.50376e-18
9327.91192 3.55178e-18
9329.56951 3.59983e-18
9331.22710 3.71286e-18
9332.89474 3.82576e-18
9334.55233 3.63499e-18
9336.20992 3.44433e-18
9337.87755 3.51121e-18
9339.53514 3.57808e-18
9341.19273 3.61599e-18
9342.85032 3.65398e-18
9344.51796 3.85668e-18
9346.17555 4.05933e-18
9347.83314 4.10782e-18
9349.49073 4.15608e-18
9351.15836 3.64387e-18
9352.81595 3.13186e-18
9354.47354 3.04172e-18
9356.13113 2.95182e-18
9357.79877 3.43435e-18
9359.45636 3.91667e-18
9361.11395 3.87150e-18
9362.78159 3.82645e-18
9364.43918 4.04036e-18
9366.09677 4.25418e-18
9367.75436 4.25398e-18
9369.42199 4.25377e-18
9371.07958 4.22164e-18
9372.73717 4.18928e-18
9374.40481 3.57320e-18
9376.06240 2.95740e-18
9377.71999 2.97329e-18
9379.37758 2.98929e-18
9381.04521 3.24612e-18
9382.70280 3.50285e-18
9384.36039 3.51544e-18
9386.01798 3.52802e-18
9387.68562 3.53016e-18
9389.34321 3.53228e-18
9391.00080 3.51838e-18
9392.66844 3.50456e-18
9394.32603 3.66649e-18
9395.98362 3.82827e-18
9397.64121 3.66239e-18
9399.30884 3.49657e-18
9400.96643 3.50658e-18
9402.62402 3.51660e-18
9404.28161 3.56326e-18
9405.94925 3.60986e-18
9407.60684 3.51637e-18
9409.26443 3.42301e-18
9410.93206 3.60849e-18
9412.58965 3.79389e-18
9414.24724 3.82880e-18
9415.90483 3.86363e-18
9417.57247 3.71684e-18
9419.23006 3.57010e-18
9420.88765 3.52789e-18
9422.54524 3.48562e-18
9424.21288 3.33386e-18
9425.87047 3.18234e-18
9427.52806 3.59450e-18
9429.19569 4.00637e-18
9430.85328 3.75646e-18
9432.51087 3.50661e-18
9434.16846 3.42695e-18
9435.83610 3.34713e-18
9437.49369 2.90798e-18
9439.15128 2.46893e-18
9440.80887 2.30656e-18
9442.47650 2.14456e-18
9444.13409 2.86505e-18
9445.79168 3.58522e-18
9447.45932 3.57207e-18
9449.11691 3.55895e-18
9450.77450 3.64797e-18
9452.43209 3.73686e-18
9454.09973 3.52162e-18
9455.75732 3.30639e-18
9457.41491 3.04227e-18
9459.07250 2.77831e-18
9460.74013 2.84956e-18
9462.39772 2.92089e-18
9464.05531 3.17355e-18
9465.72295 3.42596e-18
9467.38054 3.08820e-18
9469.03813 2.75071e-18
9470.69572 2.99658e-18
9472.36335 3.24247e-18
9474.02094 3.51963e-18
9475.67853 3.79674e-18
9477.34617 3.93903e-18
9479.00376 4.08119e-18
9480.66135 3.92716e-18
9482.31894 3.77321e-18
9483.98658 3.77682e-18
9485.64417 3.78033e-18
9487.30176 3.52497e-18
9488.95935 3.26971e-18
9490.62698 3.24299e-18
9492.28457 3.21626e-18
9493.94216 3.13301e-18
9495.60980 3.04999e-18
9497.26739 3.45611e-18
9498.92498 3.86198e-18
9500.58257 3.68262e-18
9502.25020 3.50336e-18
9503.90779 3.55660e-18
9505.56538 3.60987e-18
9507.23302 3.69386e-18
9508.89061 3.77769e-18
9510.54820 3.50832e-18
9512.20579 3.23901e-18
9513.87343 3.12306e-18
9515.53102 3.00713e-18
9517.18861 2.94889e-18
9518.84620 2.89085e-18
9520.51383 3.25994e-18
9522.17142 3.62876e-18
9523.82901 3.40451e-18
9525.49665 3.18040e-18
9527.15424 3.26493e-18
9528.81183 3.34937e-18
9530.46942 3.22267e-18
9532.13705 3.09608e-18
9533.79464 3.24417e-18
9535.45223 3.39219e-18
9537.10982 3.42680e-18
9538.77746 3.46143e-18
9540.43505 3.54368e-18
9542.09264 3.62589e-18
9543.76028 3.58712e-18
9545.41787 3.54825e-18
9547.07546 3.26377e-18
9548.73305 2.97935e-18
9550.40068 2.83418e-18
9552.05827 2.68938e-18
9553.71586 3.39145e-18
9555.37345 4.09308e-18
9557.04109 3.77276e-18
9558.69868 3.45255e-18
9560.35627 3.40670e-18
9562.02390 3.36094e-18
9563.68149 3.49767e-18
9565.33908 3.63427e-18
9566.99667 3.44559e-18
9568.66431 3.25700e-18
9570.32190 3.28421e-18
9571.97949 3.31146e-18
9573.64713 3.39537e-18
9575.30472 3.47911e-18
9576.96231 3.21539e-18
9578.61990 2.95178e-18
9580.28753 2.95137e-18
9581.94512 2.95100e-18
9583.60271 3.04474e-18
9585.27035 3.13840e-18
9586.92794 3.02105e-18
9588.58553 2.90374e-18
9590.24312 2.86142e-18
9591.91075 2.81923e-18
9593.56834 3.08501e-18
9595.22593 3.35062e-18
9596.88352 3.22727e-18
9598.55116 3.10406e-18
9600.20875 3.32233e-18
9601.86634 3.54050e-18
9603.52393 3.53476e-18
9605.19157 3.52909e-18
9606.84916 3.68014e-18
9608.50675 3.83095e-18
9610.17438 3.43345e-18
9611.83197 3.03611e-18
9613.48956 3.02126e-18
9615.14715 3.00639e-18
9616.81479 2.97377e-18
9618.47238 2.94119e-18
9620.12997 2.99571e-18
9621.79760 3.05025e-18
9623.45519 3.11983e-18
9625.11278 3.18942e-18
9626.77037 3.25580e-18
9628.43801 3.32218e-18
9630.09560 3.40960e-18
9631.75319 3.49697e-18
9633.41078 3.48824e-18
9635.07842 3.47959e-18
9636.73601 3.66529e-18
9638.39360 3.85079e-18
9640.06123 3.62618e-18
9641.71882 3.40171e-18
9643.37641 3.47943e-18
9645.03400 3.55697e-18
9646.70164 3.24589e-18
9648.35923 2.93504e-18
9650.01682 3.13785e-18
9651.67441 3.34054e-18
9653.34204 3.31306e-18
9654.99963 3.28549e-18
9656.65722 3.05703e-18
9658.31481 2.82872e-18
9659.98245 2.92353e-18
9661.64004 3.01845e-18
9663.29763 3.34111e-18
9664.96527 3.66345e-18
9666.62286 3.22630e-18
9668.28045 2.78946e-18
9669.93804 3.01885e-18
9671.60567 3.24824e-18
9673.26326 3.48286e-18
9674.92085 3.71739e-18
9676.58849 3.77847e-18
9678.24608 3.83944e-18
9679.90367 3.66945e-18
9681.56126 3.49971e-18
9683.22889 3.86485e-18
9684.88648 4.22970e-18
9686.54407 3.94411e-18
9688.20166 3.65846e-18
9689.86930 3.25781e-18
9691.52689 2.85753e-18
9693.18448 3.23950e-18
9694.85212 3.62133e-18
9696.50971 3.67091e-18
9698.16730 3.72059e-18
9699.82489 3.99030e-18
9701.49252 4.25954e-18
9703.15011 3.48886e-18
9704.80770 2.71862e-18
9706.46529 2.88709e-18
9708.13293 3.05552e-18
9709.79052 3.12622e-18
9711.44811 3.19675e-18
9713.11574 2.85939e-18
9714.77333 2.52233e-18
9716.43092 2.86539e-18
9718.08851 3.20845e-18
9719.75615 3.52067e-18
9721.41374 3.83260e-18
9723.07133 3.53102e-18
9724.73897 3.22962e-18
9726.39656 3.29383e-18
9728.05415 3.35806e-18
9729.71174 3.45766e-18
9731.37937 3.55712e-18
9733.03696 3.35750e-18
9734.69455 3.15800e-18
9736.35214 3.24486e-18
9738.01978 3.33174e-18
9739.67737 3.47599e-18
9741.33496 3.62017e-18
9743.00259 3.61776e-18
9744.66018 3.61528e-18
9746.31777 3.42954e-18
9747.97536 3.24382e-18
9749.64300 3.08558e-18
9751.30059 2.92757e-18
9752.95818 3.25063e-18
9754.62582 3.57340e-18
9756.28341 3.31467e-18
9757.94100 3.05611e-18
9759.59859 3.17780e-18
9761.26622 3.29946e-18
9762.92381 3.38949e-18
9764.58140 3.47947e-18
9766.23899 3.42197e-18
9767.90663 3.36458e-18
9769.56422 3.51856e-18
9771.22181 3.67242e-18
9772.87940 3.55033e-18
9774.54703 3.42822e-18
9776.20462 3.23925e-18
9777.86221 3.05028e-18
9779.52985 2.89092e-18
9781.18744 2.73176e-18
9782.84503 3.01753e-18
9784.50262 3.30314e-18
9786.17026 3.23674e-18
9787.82785 3.17074e-18
9789.48544 3.95575e-18
9791.15307 4.74021e-18
9792.81066 4.34397e-18
9794.46825 3.94783e-18
9796.12584 3.74660e-18
9797.79348 3.54551e-18
9799.45107 3.66580e-18
9801.10866 3.78571e-18
9802.76625 3.10716e-18
9804.43388 2.42882e-18
9806.09147 2.20618e-18
9807.74906 1.98390e-18
9809.41670 2.50264e-18
9811.07429 3.02119e-18
9812.73188 3.12904e-18
9814.38947 3.23687e-18
9816.05711 3.34733e-18
9817.71470 3.45769e-18
9819.37229 3.37262e-18
9821.03992 3.28748e-18
9822.69751 3.02760e-18
9824.35510 2.76802e-18
9826.01269 3.15247e-18
9827.68033 3.53665e-18
9829.33792 3.32480e-18
9830.99551 3.11312e-18
9832.65310 3.23069e-18
9834.32073 3.34816e-18
9835.97832 3.25309e-18
9837.63591 3.15796e-18
9839.30355 2.95651e-18
9840.96114 2.75533e-18
9842.61873 3.13765e-18
9844.27632 3.51998e-18
9845.94396 3.92188e-18
9847.60155 4.32349e-18
9849.25914 4.13875e-18
9850.91673 3.95400e-18
9852.58436 3.76665e-18
9854.24195 3.57930e-18
9855.89954 3.41332e-18
9857.56718 3.24741e-18
9859.22477 3.21999e-18
9860.88236 3.19258e-18
9862.53995 3.18447e-18
9864.20758 3.17665e-18
9865.86517 3.79977e-18
9867.52276 4.42255e-18
9869.18035 4.26190e-18
9870.84799 4.10140e-18
9872.50558 4.24774e-18
9874.16317 4.39420e-18
9875.83081 4.79367e-18
9877.48840 5.19263e-18
9879.14599 4.51457e-18
9880.80358 3.83654e-18
9882.47121 3.18569e-18
9884.12880 2.53540e-18
9885.78639 3.06230e-18
9887.44398 3.58909e-18
9889.11162 3.86980e-18
9890.76921 4.15041e-18
9892.42680 4.23597e-18
9894.09443 4.32155e-18
9895.75202 4.45175e-18
9897.40961 4.58192e-18
9899.06720 4.65131e-18
9900.73484 4.72029e-18
9902.39243 3.89905e-18
9904.05002 3.07816e-18
9905.70761 2.99877e-18
9907.37525 2.91936e-18
9909.03284 2.79509e-18
9910.69043 2.67088e-18
9912.35806 2.70302e-18
9914.01565 2.73537e-18
9915.67324 3.19635e-18
9917.33083 3.65701e-18
9918.99847 3.49763e-18
9920.65606 3.33836e-18
9922.31365 3.41041e-18
9923.98128 3.48248e-18
9925.63887 3.57414e-18
9927.29646 3.66585e-18
9928.95405 3.84010e-18
9930.62169 4.01392e-18
9932.27928 3.21142e-18
9933.93687 2.40921e-18
9935.59446 2.18361e-18
9937.26210 1.95849e-18
9938.91969 2.71576e-18
9940.57728 3.47281e-18
9942.23487 3.78308e-18
9943.90250 4.09321e-18
9945.56009 4.09544e-18
9947.21768 4.09741e-18
9948.88532 3.53095e-18
9950.54291 2.96506e-18
9952.20050 3.61852e-18
9953.85809 4.27166e-18
9955.52572 4.26157e-18
9957.18331 4.25126e-18
9958.84090 3.79433e-18
9960.50854 3.33754e-18
9962.16613 3.13831e-18
9963.82372 2.93914e-18
9965.48131 2.82516e-18
9967.14895 2.71112e-18
9968.80654 2.43608e-18
9970.46413 2.16112e-18
9972.12172 2.02974e-18
9973.78935 1.89843e-18
9975.44694 1.91612e-18
9977.10453 1.93407e-18
9978.77217 2.47371e-18
9980.42976 3.01307e-18
9982.08735 2.98541e-18
9983.74494 2.95785e-18
9985.41257 3.16153e-18
9987.07016 3.36526e-18
9988.72775 3.68332e-18
9990.39539 4.00118e-18
9992.05298 3.89566e-18
9993.71057 3.78999e-18
9995.36816 3.41137e-18
9997.03580 3.03263e-18
9998.69339 2.34601e-18
