# wavelength flux
3485.00480 1.72258e-17
3486.47202 1.47076e-17
3487.93924 1.05159e-17
3489.40645 1.49844e-17
3490.88386 1.94210e-17
3492.35107 1.97425e-17
3493.81829 1.30621e-17
3495.28550 1.60338e-17
3496.76291 1.37931e-17
3498.23013 6.05392e-18
3499.69734 4.84427e-18
3501.17475 1.09401e-17
3502.64196 2.28017e-17
3504.10918 1.63823e-17
3505.57640 1.61623e-17
3507.05380 1.27893e-17
3508.52102 1.37315e-17
3509.98823 1.53901e-17
3511.45545 1.30675e-17
3512.93285 1.64387e-17
3514.40007 1.80845e-17
3515.86728 1.66339e-17
3517.34469 2.07723e-17
3518.81191 2.25074e-17
3520.27912 2.48252e-17
3521.74634 2.53758e-17
3523.22374 2.12990e-17
3524.69096 2.03072e-17
3526.15817 2.15030e-17
3527.62539 1.81775e-17
3529.10280 1.93714e-17
3530.57001 2.26679e-17
3532.03723 2.35065e-17
3533.51463 2.30292e-17
3534.98185 1.79531e-17
3536.44906 1.29304e-17
3537.91628 1.54446e-17
3539.39369 1.69179e-17
3540.86090 1.70713e-17
3542.32812 2.17335e-17
3543.79533 2.63482e-17
3545.27274 2.27774e-17
3546.73995 1.62911e-17
3548.20717 2.14111e-17
3549.68458 2.22404e-17
3551.15179 1.65538e-17
3552.61901 1.49630e-17
3554.08622 1.65386e-17
3555.56363 2.30954e-17
3557.03084 2.90134e-17
3558.49806 2.00209e-17
3559.96528 1.51715e-17
3561.44268 1.90542e-17
3562.90990 2.65171e-17
3564.37711 2.32119e-17
3565.85452 2.12529e-17
3567.32173 1.97668e-17
3568.78895 1.95891e-17
3570.25617 1.75612e-17
3571.73357 1.63553e-17
3573.20079 1.74511e-17
3574.66800 1.94312e-17
3576.13522 1.63442e-17
3577.61262 2.09665e-17
3579.07984 2.41234e-17
3580.54706 1.88464e-17
3582.02446 1.63894e-17
3583.49168 1.71275e-17
3584.95889 1.88079e-17
3586.42611 2.09336e-17
3587.90351 1.72221e-17
3589.37073 1.47312e-17
3590.83795 1.44530e-17
3592.30516 1.40734e-17
3593.78257 1.77366e-17
3595.24978 2.53030e-17
3596.71700 2.06962e-17
3598.19440 1.51574e-17
3599.66162 1.63579e-17
3601.12884 2.09225e-17
3602.59605 2.11359e-17
3604.07346 1.63162e-17
3605.54067 1.79397e-17
3607.00789 1.80889e-17
3608.47511 1.67558e-17
3609.95251 1.79612e-17
3611.41973 2.03099e-17
3612.88694 1.83916e-17
3614.36435 1.54373e-17
3615.83156 1.37668e-17
3617.29878 1.62723e-17
3618.76600 1.96871e-17
3620.24340 1.41286e-17
3621.71062 1.52380e-17
3623.17783 1.98886e-17
3624.64505 1.93373e-17
3626.12245 2.06773e-17
3627.58967 2.00968e-17
3629.05689 2.13596e-17
3630.53429 1.76004e-17
3632.00151 1.53664e-17
3633.46872 1.32070e-17
3634.93594 1.36241e-17
3636.41334 2.21765e-17
3637.88056 2.45361e-17
3639.34778 1.78103e-17
3640.81499 1.56041e-17
3642.29240 1.47524e-17
3643.75961 1.33488e-17
3645.22683 1.29980e-17
3646.70423 1.44424e-17
3648.17145 1.32530e-17
3649.63867 1.58041e-17
3651.10588 2.20866e-17
3652.58329 2.11873e-17
3654.05050 1.42718e-17
3655.51772 1.70997e-17
3656.98493 2.07140e-17
3658.46234 2.01331e-17
3659.92956 1.98761e-17
3661.39677 1.81364e-17
3662.87418 1.62969e-17
3664.34139 1.48798e-17
3665.80861 1.36062e-17
3667.27582 1.23876e-17
3668.75323 1.38551e-17
3670.22045 1.72533e-17
3671.68766 1.48289e-17
3673.15488 1.51746e-17
3674.63228 1.61774e-17
3676.09950 1.32331e-17
3677.56671 1.54109e-17
3679.04412 1.98854e-17
3680.51134 2.23525e-17
3681.97855 1.91604e-17
3683.44577 1.72513e-17
3684.92317 1.91081e-17
3686.39039 2.01175e-17
3687.85760 2.16602e-17
3689.33501 1.93336e-17
3690.80223 1.51725e-17
3692.26944 1.88989e-17
3693.73666 1.82675e-17
3695.21406 1.74232e-17
3696.68128 1.34627e-17
3698.14849 1.39979e-17
3699.61571 1.50127e-17
3701.09312 1.73288e-17
3702.56033 2.04368e-17
3704.02755 2.17105e-17
3705.49476 2.15123e-17
3706.97217 1.84777e-17
3708.43938 1.94159e-17
3709.90660 1.74772e-17
3711.38401 1.58505e-17
3712.85122 2.04478e-17
3714.31844 1.96716e-17
3715.78565 1.47256e-17
3717.26306 1.85871e-17
3718.73027 1.97080e-17
3720.19749 1.64392e-17
3721.67490 1.43644e-17
3723.14211 1.65734e-17
3724.60933 2.08865e-17
3726.07654 1.75397e-17
3727.55395 1.48346e-17
3729.02116 1.83514e-17
3730.48838 1.81824e-17
3731.95560 1.92948e-17
3733.43300 2.30033e-17
3734.90022 1.95751e-17
3736.36743 1.48723e-17
3737.84484 1.62599e-17
3739.31205 1.90425e-17
3740.77927 1.90738e-17
3742.24649 1.75866e-17
3743.72389 1.76039e-17
3745.19111 1.94503e-17
3746.65832 1.86059e-17
3748.12554 1.75337e-17
3749.60295 1.95465e-17
3751.07016 2.16989e-17
3752.53738 1.70020e-17
3754.01478 1.39518e-17
3755.48200 1.69914e-17
3756.94921 1.76350e-17
3758.41643 1.88471e-17
3759.89383 1.99550e-17
3761.36105 1.86277e-17
3762.82827 1.93901e-17
3764.29548 1.98126e-17
3765.77289 2.01396e-17
3767.24010 1.81375e-17
3768.70732 1.75628e-17
3770.18472 2.06067e-17
3771.65194 2.06258e-17
3773.11916 1.75846e-17
3774.58637 1.75559e-17
3776.06378 1.96241e-17
3777.53099 1.80854e-17
3778.99821 1.96489e-17
3780.46543 2.21367e-17
3781.94283 1.92262e-17
3783.41005 1.78766e-17
3784.87726 1.78792e-17
3786.35467 2.02675e-17
3787.82188 2.12261e-17
3789.28910 1.83899e-17
3790.75632 1.74660e-17
3792.23372 1.58449e-17
3793.70094 1.57443e-17
3795.16815 1.74189e-17
3796.63537 1.58568e-17
3798.11277 1.38207e-17
3799.57999 1.51656e-17
3801.04721 1.56390e-17
3802.52461 1.65862e-17
3803.99183 1.54615e-17
3805.45904 1.71283e-17
3806.92626 1.54802e-17
3808.40366 1.30379e-17
3809.87088 1.56192e-17
3811.33810 1.42759e-17
3812.80531 9.55138e-18
3814.28272 9.77296e-18
3815.74993 1.37846e-17
3817.21715 1.27661e-17
3818.69455 9.94043e-18
3820.16177 1.15547e-17
3821.62899 1.26579e-17
3823.09620 9.71972e-18
3824.57361 1.11560e-17
3826.04082 1.39246e-17
3827.50804 1.55113e-17
3828.97525 1.15522e-17
3830.45266 1.19382e-17
3831.91988 1.22032e-17
3833.38709 8.44809e-18
3834.86450 1.19516e-17
3836.33171 1.19973e-17
3837.79893 9.32448e-18
3839.26615 6.22770e-18
3840.74355 7.68701e-18
3842.21077 7.68847e-18
3843.67798 3.68273e-18
3845.14520 6.84562e-18
3846.62260 9.68010e-18
3848.08982 8.30780e-18
3849.55703 7.59933e-18
3851.03444 6.36649e-18
3852.50166 6.59055e-18
3853.96887 7.67799e-18
3855.43609 7.34113e-18
3856.91349 8.40407e-18
3858.38071 9.39048e-18
3859.84792 9.99536e-18
3861.31514 8.51950e-18
3862.79255 7.21818e-18
3864.25976 5.37665e-18
3865.72698 6.35201e-18
3867.20438 1.06785e-17
3868.67160 1.05326e-17
3870.13881 6.11701e-18
3871.60603 5.69405e-18
3873.08344 7.81266e-18
3874.55065 6.69593e-18
3876.01787 5.34453e-18
3877.48508 6.56751e-18
3878.96249 8.10256e-18
3880.42970 9.75320e-18
3881.89692 8.35828e-18
3883.37433 4.92854e-18
3884.84154 5.02505e-18
3886.30876 4.15733e-18
3887.77597 4.75766e-18
3889.25338 5.76036e-18
3890.72059 7.78535e-18
3892.18781 9.80353e-18
3893.65503 8.51618e-18
3895.13243 7.03266e-18
3896.59965 8.05486e-18
3898.06686 8.64083e-18
3899.54427 8.27656e-18
3901.01148 9.04511e-18
3902.47870 7.70865e-18
3903.94592 6.12540e-18
3905.42332 6.34923e-18
3906.89054 6.35108e-18
3908.35775 7.77851e-18
3909.82497 8.69835e-18
3911.30237 1.11680e-17
3912.76959 1.23667e-17
3914.23681 1.41324e-17
3915.71421 1.20423e-17
3917.18143 1.13613e-17
3918.64864 1.12341e-17
3920.11586 8.59450e-18
3921.59326 9.14556e-18
3923.06048 8.97006e-18
3924.52770 1.05029e-17
3925.99491 1.10424e-17
3927.47232 1.14677e-17
3928.93953 1.09251e-17
3930.40675 1.13630e-17
3931.88415 1.18292e-17
3933.35137 1.22102e-17
3934.81859 1.40463e-17
3936.28580 1.40284e-17
3937.76321 1.44180e-17
3939.23042 1.61590e-17
3940.69764 1.41090e-17
3942.16486 1.34410e-17
3943.64226 1.21136e-17
3945.10948 1.09657e-17
3946.57669 1.40644e-17
3948.05410 1.66163e-17
3949.52131 1.66078e-17
3950.98853 1.47577e-17
3952.45575 1.42971e-17
3953.93315 1.67614e-17
3955.40037 1.67833e-17
3956.86758 1.44721e-17
3958.34499 1.17826e-17
3959.81220 1.21860e-17
3961.27942 1.54101e-17
3962.74664 1.67123e-17
3964.22404 1.54957e-17
3965.69126 1.54773e-17
3967.15847 1.59547e-17
3968.62569 1.73222e-17
3970.10309 1.73078e-17
3971.57031 1.42909e-17
3973.03753 1.45274e-17
3974.50474 1.66168e-17
3975.98215 1.97189e-17
3977.44936 2.21288e-17
3978.91658 2.08290e-17
3980.39398 2.23484e-17
3981.86120 2.41737e-17
3983.32842 2.37435e-17
3984.79563 2.35520e-17
3986.27304 2.21191e-17
3987.74025 1.97120e-17
3989.20747 1.96025e-17
3990.68487 2.05571e-17
3992.15209 2.17648e-17
3993.61931 2.22360e-17
3995.08652 2.29029e-17
3996.56393 2.46790e-17
3998.03114 2.07083e-17
3999.49836 1.90254e-17
4000.96557 2.16045e-17
4002.44298 2.18405e-17
4003.91020 1.99097e-17
4005.37741 1.93172e-17
4006.85482 2.22730e-17
4008.32203 2.37842e-17
4009.78925 2.22888e-17
4011.25646 2.24164e-17
4012.73387 2.38532e-17
4014.20109 2.55354e-17
4015.66830 2.42718e-17
4017.13552 2.23901e-17
4018.61292 2.09716e-17
4020.08014 2.17585e-17
4021.54735 2.29112e-17
4023.02476 2.24028e-17
4024.49198 2.41140e-17
4025.95919 2.19148e-17
4027.42641 1.95273e-17
4028.90381 2.23392e-17
4030.37103 2.16074e-17
4031.83824 2.10341e-17
4033.30546 2.14587e-17
4034.78287 2.37811e-17
4036.25008 2.46361e-17
4037.71730 2.15788e-17
4039.19470 1.92394e-17
4040.66192 1.96685e-17
4042.12913 2.13777e-17
4043.59635 2.24015e-17
4045.07376 2.17486e-17
4046.54097 2.17337e-17
4048.00819 2.29187e-17
4049.47540 2.00021e-17
4050.95281 2.11723e-17
4052.42002 2.29511e-17
4053.88724 2.33752e-17
4055.36465 2.18749e-17
4056.83186 2.20806e-17
4058.29908 2.20883e-17
4059.76629 1.99654e-17
4061.24370 2.05792e-17
4062.71091 2.36464e-17
4064.17813 2.48676e-17
4065.64535 2.24141e-17
4067.12275 2.24100e-17
4068.58997 2.55314e-17
4070.05718 2.57401e-17
4071.53459 2.24126e-17
4073.00180 2.08719e-17
4074.46902 2.16492e-17
4075.93624 2.15149e-17
4077.41364 2.26021e-17
4078.88086 2.30651e-17
4080.34807 2.22560e-17
4081.81529 2.13693e-17
4083.29269 2.15764e-17
4084.75991 2.30460e-17
4086.22713 2.32264e-17
4087.70453 2.26892e-17
4089.17175 2.15834e-17
4090.63896 2.23421e-17
4092.10618 2.20142e-17
4093.58358 1.87968e-17
4095.05080 1.84591e-17
4096.51802 2.08428e-17
4097.98523 2.15440e-17
4099.46264 2.11439e-17
4100.92985 1.95217e-17
4102.39707 1.86031e-17
4103.87447 2.02886e-17
4105.34169 2.28059e-17
4106.80891 2.33930e-17
4108.27612 2.23531e-17
4109.75353 2.16245e-17
4111.22074 1.90603e-17
4112.68796 1.74519e-17
4114.15518 1.73111e-17
4115.63258 1.54001e-17
4117.09980 1.46515e-17
4118.56701 1.71354e-17
4120.04442 1.99263e-17
4121.51163 1.84105e-17
4122.97885 1.63274e-17
4124.44607 1.78432e-17
4125.92347 1.92479e-17
4127.39069 1.81249e-17
4128.85790 1.78015e-17
4130.32512 1.68969e-17
4131.80252 1.67581e-17
4133.26974 1.74987e-17
4134.73696 1.79607e-17
4136.21436 1.73767e-17
4137.68158 1.68586e-17
4139.14879 1.65706e-17
4140.61601 1.65252e-17
4142.09341 1.87831e-17
4143.56063 1.77962e-17
4145.02785 1.64436e-17
4146.49506 1.55854e-17
4147.97247 1.67880e-17
4149.43968 1.91028e-17
4150.90690 1.92266e-17
4152.38430 1.73428e-17
4153.85152 1.64854e-17
4155.31874 1.70815e-17
4156.78595 1.77540e-17
4158.26336 1.71083e-17
4159.73057 1.73473e-17
4161.19779 1.55795e-17
4162.66500 1.42186e-17
4164.14241 1.52467e-17
4165.60963 1.65828e-17
4167.07684 1.83125e-17
4168.55425 1.76912e-17
4170.02146 1.59892e-17
4171.48868 1.41836e-17
4172.95590 1.47659e-17
4174.43330 1.51880e-17
4175.90052 1.56134e-17
4177.36773 1.55145e-17
4178.83495 1.73761e-17
4180.31235 1.68148e-17
4181.77957 1.60064e-17
4183.24678 1.70863e-17
4184.72419 1.69711e-17
4186.19141 1.66115e-17
4187.65862 1.76683e-17
4189.12584 1.66098e-17
4190.60324 1.57390e-17
4192.07046 1.53088e-17
4193.53767 1.40013e-17
4195.00489 1.47068e-17
4196.48230 1.57118e-17
4197.94951 1.56023e-17
4199.41673 1.35985e-17
4200.89413 1.38212e-17
4202.36135 1.50767e-17
4203.82856 1.51811e-17
4205.29578 1.53462e-17
4206.77319 1.57125e-17
4208.24040 1.52432e-17
4209.70762 1.49582e-17
4211.17483 1.53594e-17
4212.65224 1.61495e-17
4214.11945 1.67169e-17
4215.58667 1.44704e-17
4217.06408 1.37240e-17
4218.53129 1.63647e-17
4219.99851 1.69345e-17
4221.46572 1.51047e-17
4222.94313 1.52464e-17
4224.41035 1.61872e-17
4225.87756 1.73873e-17
4227.35497 1.79782e-17
4228.82218 1.56152e-17
4230.28940 1.35140e-17
4231.75661 1.48506e-17
4233.23402 1.61411e-17
4234.70123 1.49079e-17
4236.16845 1.41433e-17
4237.63567 1.48815e-17
4239.11307 1.60651e-17
4240.58029 1.64089e-17
4242.04750 1.66459e-17
4243.52491 1.70189e-17
4244.99212 1.65644e-17
4246.45934 1.58073e-17
4247.92656 1.51796e-17
4249.40396 1.52950e-17
4250.87118 1.56989e-17
4252.33839 1.58227e-17
4253.80561 1.53045e-17
4255.28301 1.61339e-17
4256.75023 1.79043e-17
4258.21745 1.65286e-17
4259.68466 1.44540e-17
4261.16207 1.52916e-17
4262.62928 1.62601e-17
4264.09650 1.53955e-17
4265.57390 1.47845e-17
4267.04112 1.65817e-17
4268.50834 1.78187e-17
4269.97555 1.79586e-17
4271.45296 1.83696e-17
4272.92017 1.78660e-17
4274.38739 1.72072e-17
4275.85461 1.57457e-17
4277.33201 1.56497e-17
4278.79923 1.63395e-17
4280.26644 1.51193e-17
4281.74385 1.59971e-17
4283.21106 1.72364e-17
4284.67828 1.57926e-17
4286.14550 1.49158e-17
4287.62290 1.58780e-17
4289.09012 1.67432e-17
4290.55733 1.52532e-17
4292.03474 1.42122e-17
4293.50195 1.54212e-17
4294.96917 1.51305e-17
4296.43639 1.50068e-17
4297.91379 1.55519e-17
4299.38101 1.57014e-17
4300.84822 1.49516e-17
4302.31544 1.53874e-17
4303.79284 1.64782e-17
4305.26006 1.65332e-17
4306.72728 1.70668e-17
4308.20468 1.69891e-17
4309.67190 1.56798e-17
4311.13911 1.54144e-17
4312.60633 1.67264e-17
4314.08373 1.67457e-17
4315.55095 1.55147e-17
4317.01817 1.50468e-17
4318.48538 1.44826e-17
4319.96279 1.45045e-17
4321.43000 1.62953e-17
4322.89722 1.76085e-17
4324.37462 1.64590e-17
4325.84184 1.66809e-17
4327.30906 1.61585e-17
4328.77627 1.56768e-17
4330.25368 1.66467e-17
4331.72089 1.58916e-17
4333.18811 1.58382e-17
4334.65532 1.59480e-17
4336.13273 1.49386e-17
4337.59995 1.57043e-17
4339.06716 1.68118e-17
4340.54457 1.64214e-17
4342.01178 1.75260e-17
4343.47900 1.89976e-17
4344.94621 1.74050e-17
4346.42362 1.54400e-17
4347.89084 1.56479e-17
4349.35805 1.60768e-17
4350.82527 1.66945e-17
4352.30267 1.73405e-17
4353.76989 1.76751e-17
4355.23710 1.71409e-17
4356.71451 1.45938e-17
4358.18173 1.32409e-17
4359.64894 1.45756e-17
4361.11616 1.59450e-17
4362.59356 1.65163e-17
4364.06078 1.59364e-17
4365.52799 1.52472e-17
4366.99521 1.52164e-17
4368.47262 1.55776e-17
4369.93983 1.57220e-17
4371.40705 1.55832e-17
4372.88445 1.63782e-17
4374.35167 1.64561e-17
4375.81888 1.55759e-17
4377.28610 1.62376e-17
4378.76351 1.57241e-17
4380.23072 1.53327e-17
4381.69794 1.62764e-17
4383.16515 1.57620e-17
4384.64256 1.43095e-17
4386.10977 1.45267e-17
4387.57699 1.71451e-17
4389.05440 1.73862e-17
4390.52161 1.47545e-17
4391.98883 1.46774e-17
4393.45604 1.46432e-17
4394.93345 1.41583e-17
4396.40067 1.53277e-17
4397.86788 1.59180e-17
4399.33510 1.51943e-17
4400.81250 1.47477e-17
4402.27972 1.59559e-17
4403.74693 1.72802e-17
4405.22434 1.51981e-17
4406.69155 1.46943e-17
4408.15877 1.68673e-17
4409.62599 1.68690e-17
4411.10339 1.58557e-17
4412.57061 1.47330e-17
4414.03782 1.33123e-17
4415.50504 1.41551e-17
4416.98244 1.49987e-17
4418.44966 1.47713e-17
4419.91688 1.63254e-17
4421.39428 1.60483e-17
4422.86150 1.48917e-17
4424.32871 1.49217e-17
4425.79593 1.42928e-17
4427.27333 1.48457e-17
4428.74055 1.54039e-17
4430.20777 1.50680e-17
4431.68517 1.55920e-17
4433.15239 1.44036e-17
4434.61960 1.30401e-17
4436.08682 1.35038e-17
4437.56423 1.33717e-17
4439.03144 1.34076e-17
4440.49866 1.43392e-17
4441.96587 1.44466e-17
4443.44328 1.35962e-17
4444.91049 1.30259e-17
4446.37771 1.32048e-17
4447.84493 1.29259e-17
4449.32233 1.38116e-17
4450.78955 1.32452e-17
4452.25676 1.09085e-17
4453.73417 1.04143e-17
4455.20138 1.19235e-17
4456.66860 1.26464e-17
4458.13582 1.10039e-17
4459.61322 1.01578e-17
4461.08044 1.00780e-17
4462.54765 1.11160e-17
4464.01487 1.15733e-17
4465.49227 1.10304e-17
4466.95949 1.12324e-17
4468.42671 1.01751e-17
4469.90411 1.04499e-17
4471.37133 9.97156e-18
4472.83854 8.39238e-18
4474.30576 8.97601e-18
4475.78316 1.00484e-17
4477.25038 9.98377e-18
4478.71760 1.02104e-17
4480.18481 1.13057e-17
4481.66222 1.05936e-17
4483.12943 8.90546e-18
4484.59665 8.90880e-18
4486.07405 1.02926e-17
4487.54127 1.03870e-17
4489.00849 1.00908e-17
4490.47570 9.93020e-18
4491.95311 9.48518e-18
4493.42032 9.81377e-18
4494.88754 1.01846e-17
4496.36494 1.02698e-17
4497.83216 1.04927e-17
4499.29938 1.06845e-17
4500.76659 1.00097e-17
4502.24400 9.64476e-18
4503.71121 1.11382e-17
4505.17843 1.12682e-17
4506.64564 1.03068e-17
4508.12305 1.01295e-17
4509.59027 1.03878e-17
4511.05748 1.07033e-17
4512.52470 1.09198e-17
4514.00210 1.02969e-17
4515.46932 1.00653e-17
4516.93653 1.01566e-17
4518.41394 1.02149e-17
4519.88116 1.16528e-17
4521.34837 1.22053e-17
4522.81559 1.09791e-17
4524.29299 1.02665e-17
4525.76021 1.12161e-17
4527.22743 1.21893e-17
4528.70483 1.22113e-17
4530.17205 1.12620e-17
4531.63926 1.08045e-17
4533.10648 1.16850e-17
4534.58388 1.22936e-17
4536.05110 1.16788e-17
4537.51832 1.06517e-17
4538.98553 1.09232e-17
4540.46294 1.16450e-17
4541.93015 1.11181e-17
4543.39737 1.06974e-17
4544.87477 1.12577e-17
4546.34199 1.18062e-17
4547.80920 1.22974e-17
4549.27642 1.20379e-17
4550.75383 1.22747e-17
4552.22104 1.27605e-17
4553.68826 1.21645e-17
4555.15547 1.19279e-17
4556.63288 1.24838e-17
4558.10009 1.34334e-17
4559.56731 1.32246e-17
4561.04472 1.25874e-17
4562.51193 1.34491e-17
4563.97915 1.40039e-17
4565.44636 1.31101e-17
4566.92377 1.30448e-17
4568.39098 1.34239e-17
4569.85820 1.25590e-17
4571.32542 1.27937e-17
4572.80282 1.38043e-17
4574.27004 1.42041e-17
4575.73725 1.38708e-17
4577.21466 1.32070e-17
4578.68187 1.43122e-17
4580.14909 1.53624e-17
4581.61631 1.46293e-17
4583.09371 1.46690e-17
4584.56093 1.51045e-17
4586.02814 1.42632e-17
4587.49536 1.45090e-17
4588.97277 1.52046e-17
4590.43998 1.46350e-17
4591.90720 1.43163e-17
4593.38460 1.51517e-17
4594.85182 1.58870e-17
4596.31903 1.52103e-17
4597.78625 1.42101e-17
4599.26365 1.48687e-17
4600.73087 1.68566e-17
4602.19809 1.66275e-17
4603.66530 1.53789e-17
4605.14271 1.63470e-17
4606.60992 1.67545e-17
4608.07714 1.58929e-17
4609.55454 1.48059e-17
4611.02176 1.45636e-17
4612.48898 1.62774e-17
4613.95619 1.69761e-17
4615.43360 1.62539e-17
4616.90081 1.56786e-17
4618.36803 1.47527e-17
4619.83525 1.52541e-17
4621.31265 1.59515e-17
4622.77987 1.59851e-17
4624.24708 1.65914e-17
4625.72449 1.59171e-17
4627.19170 1.57678e-17
4628.65892 1.70070e-17
4630.12614 1.75369e-17
4631.60354 1.67966e-17
4633.07076 1.72723e-17
4634.53797 1.89671e-17
4636.00519 1.69881e-17
4637.48259 1.50115e-17
4638.94981 1.61364e-17
4640.41703 1.65979e-17
4641.89443 1.71690e-17
4643.36165 1.76691e-17
4644.82886 1.78430e-17
4646.29608 1.82543e-17
4647.77348 1.76413e-17
4649.24070 1.72921e-17
4650.70792 1.80298e-17
4652.17513 1.92888e-17
4653.65254 1.93070e-17
4655.11975 1.77843e-17
4656.58697 1.76039e-17
4658.06437 1.77363e-17
4659.53159 1.73378e-17
4660.99881 1.76917e-17
4662.46602 1.83239e-17
4663.94343 1.81149e-17
4665.41064 1.84174e-17
4666.87786 1.81776e-17
4668.34507 1.68746e-17
4669.82248 1.73651e-17
4671.28970 1.77551e-17
4672.75691 1.70904e-17
4674.23432 1.67530e-17
4675.70153 1.61963e-17
4677.16875 1.67577e-17
4678.63597 1.81945e-17
4680.11337 1.82425e-17
4681.58059 1.74337e-17
4683.04780 1.66188e-17
4684.51502 1.61211e-17
4685.99242 1.61827e-17
4687.45964 1.71898e-17
4688.92685 1.66024e-17
4690.40426 1.60101e-17
4691.87148 1.62861e-17
4693.33869 1.68094e-17
4694.80591 1.76873e-17
4696.28331 1.70048e-17
4697.75053 1.65381e-17
4699.21774 1.66552e-17
4700.68496 1.63168e-17
4702.16237 1.70826e-17
4703.62958 1.76207e-17
4705.09680 1.64850e-17
4706.57420 1.59160e-17
4708.04142 1.68196e-17
4709.50863 1.69233e-17
4710.97585 1.67338e-17
4712.45326 1.73058e-17
4713.92047 1.68658e-17
4715.38769 1.68280e-17
4716.85490 1.62679e-17
4718.33231 1.54569e-17
4719.79952 1.60776e-17
4721.26674 1.65479e-17
4722.74415 1.74014e-17
4724.21136 1.81325e-17
4725.67858 1.78799e-17
4727.14579 1.63646e-17
4728.62320 1.40536e-17
4730.09041 1.41477e-17
4731.55763 1.51494e-17
4733.02485 1.55550e-17
4734.50225 1.58566e-17
4735.96947 1.65522e-17
4737.43668 1.63083e-17
4738.91409 1.55897e-17
4740.38130 1.61321e-17
4741.84852 1.61962e-17
4743.31574 1.72254e-17
4744.79314 1.72891e-17
4746.26036 1.58981e-17
4747.72757 1.61068e-17
4749.19479 1.76961e-17
4750.67220 1.77031e-17
4752.13941 1.75168e-17
4753.60663 1.81784e-17
4755.08403 1.73120e-17
4756.55125 1.61682e-17
4758.01846 1.56141e-17
4759.48568 1.59059e-17
4760.96308 1.65281e-17
4762.43030 1.69268e-17
4763.89752 1.73255e-17
4765.37492 1.64041e-17
4766.84214 1.61267e-17
4768.30935 1.71267e-17
4769.77657 1.69711e-17
4771.25397 1.60254e-17
4772.72119 1.61673e-17
4774.18841 1.67982e-17
4775.65562 1.66979e-17
4777.13303 1.68372e-17
4778.60024 1.71667e-17
4780.06746 1.62557e-17
4781.54486 1.55704e-17
4783.01208 1.61736e-17
4784.47930 1.63339e-17
4785.94651 1.63639e-17
4787.42392 1.49144e-17
4788.89113 1.46193e-17
4790.35835 1.55642e-17
4791.82557 1.54076e-17
4793.30297 1.63170e-17
4794.77019 1.58278e-17
4796.23740 1.50340e-17
4797.70462 1.53352e-17
4799.18202 1.58671e-17
4800.64924 1.55226e-17
4802.11646 1.44761e-17
4803.59386 1.51673e-17
4805.06108 1.44845e-17
4806.52829 1.41723e-17
4807.99551 1.62003e-17
4809.47291 1.64324e-17
4810.94013 1.51250e-17
4812.40735 1.40009e-17
4813.87456 1.38192e-17
4815.35197 1.40581e-17
4816.81918 1.39101e-17
4818.28640 1.39473e-17
4819.76380 1.47864e-17
4821.23102 1.54724e-17
4822.69824 1.39533e-17
4824.16545 1.32103e-17
4825.64286 1.47230e-17
4827.11007 1.48978e-17
4828.57729 1.41797e-17
4830.05469 1.39453e-17
4831.52191 1.35548e-17
4832.98913 1.37336e-17
4834.45634 1.38856e-17
4835.93375 1.30507e-17
4837.40096 1.26280e-17
4838.86818 1.33577e-17
4840.33540 1.36068e-17
4841.81280 1.29540e-17
4843.28002 1.22326e-17
4844.74723 1.20135e-17
4846.22464 1.23450e-17
4847.69185 1.15055e-17
4849.15907 1.16152e-17
4850.62628 1.19903e-17
4852.10369 1.13929e-17
4853.57091 1.24018e-17
4855.03812 1.22439e-17
4856.50534 1.13847e-17
4857.98274 1.16622e-17
4859.44996 1.11615e-17
4860.91717 1.00853e-17
4862.39458 9.83280e-18
4863.86180 1.04257e-17
4865.32901 1.11550e-17
4866.79623 1.11061e-17
4868.27363 1.00393e-17
4869.74085 9.08608e-18
4871.20806 8.69325e-18
4872.67528 9.12469e-18
4874.15269 9.94718e-18
4875.61990 1.04257e-17
4877.08712 9.94255e-18
4878.56452 9.72181e-18
4880.03174 1.00782e-17
4881.49895 9.23227e-18
4882.96617 8.43143e-18
4884.44358 8.78667e-18
4885.91079 8.62889e-18
4887.37801 8.56064e-18
4888.84522 9.12695e-18
4890.32263 9.30974e-18
4891.78984 9.44319e-18
4893.25706 9.13609e-18
4894.73447 8.61037e-18
4896.20168 8.96548e-18
4897.66890 8.77106e-18
4899.13611 8.17695e-18
4900.61352 8.99092e-18
4902.08073 9.67916e-18
4903.54795 9.30653e-18
4905.01517 9.17737e-18
4906.49257 9.53875e-18
4907.95979 9.26524e-18
4909.42700 8.41859e-18
4910.90441 8.95207e-18
4912.37162 9.58837e-18
4913.83884 9.36201e-18
4915.30606 1.02604e-17
4916.78346 1.00345e-17
4918.25068 8.54894e-18
4919.71789 9.04404e-18
4921.18511 1.07108e-17
4922.66251 1.06994e-17
4924.12973 9.94962e-18
4925.59695 9.81459e-18
4927.07435 1.01420e-17
4928.54157 1.06520e-17
4930.00878 9.99544e-18
4931.47600 9.11950e-18
4932.95340 9.61131e-18
4934.42062 9.61853e-18
4935.88784 9.92170e-18
4937.35505 1.09007e-17
4938.83246 1.03444e-17
4940.29967 1.00471e-17
4941.76689 1.00524e-17
4943.24429 9.48329e-18
4944.71151 9.30699e-18
4946.17873 9.53806e-18
4947.64594 1.04992e-17
4949.12335 1.08027e-17
4950.59056 9.87057e-18
4952.05778 9.38480e-18
4953.52500 8.86149e-18
4955.00240 8.47657e-18
4956.46962 9.19126e-18
4957.93683 9.31055e-18
4959.41424 9.01118e-18
4960.88145 9.07210e-18
4962.34867 8.31052e-18
4963.81589 8.64884e-18
4965.29329 9.75589e-18
4966.76051 9.28827e-18
4968.22772 9.53077e-18
4969.70513 9.88361e-18
4971.17234 8.85676e-18
4972.63956 8.94025e-18
4974.10678 9.14854e-18
4975.58418 8.44992e-18
4977.05140 7.85945e-18
4978.51861 7.94031e-18
4979.98583 8.22005e-18
4981.46323 8.38246e-18
4982.93045 8.99874e-18
4984.39767 8.87376e-18
4985.86488 8.86473e-18
4987.34229 9.96049e-18
4988.80950 1.06441e-17
4990.27672 1.09542e-17
4991.75412 1.07906e-17
4993.22134 9.47736e-18
4994.68856 9.16857e-18
4996.15577 9.38671e-18
4997.63318 9.27401e-18
4999.10039 9.24445e-18
5000.56761 9.11145e-18
5002.03482 9.84573e-18
5003.51223 9.92025e-18
5004.97945 1.04060e-17
5006.44666 1.08212e-17
5007.92407 1.00992e-17
5009.39128 1.05074e-17
5010.85850 1.03021e-17
5012.32571 1.00970e-17
5013.80312 1.02820e-17
5015.27034 1.05251e-17
5016.73755 1.07459e-17
5018.20477 1.10411e-17
5019.68217 1.14858e-17
5021.14939 1.14623e-17
5022.61660 1.13360e-17
5024.09401 1.17064e-17
5025.56123 1.08064e-17
5027.02844 8.92890e-18
5028.49566 8.59847e-18
5029.97306 9.30856e-18
5031.44028 1.13433e-17
5032.90749 1.26431e-17
5034.38490 1.20598e-17
5035.85212 1.28138e-17
5037.31933 1.29194e-17
5038.78655 1.26886e-17
5040.26395 1.35463e-17
5041.73117 1.31402e-17
5043.19838 1.32270e-17
5044.66560 1.34990e-17
5046.14301 1.33605e-17
5047.61022 1.33853e-17
5049.07744 1.36102e-17
5050.54465 1.27683e-17
5052.02206 1.22910e-17
5053.48927 1.35692e-17
5054.95649 1.34799e-17
5056.43390 1.40144e-17
5057.90111 1.47296e-17
5059.36833 1.34731e-17
5060.83554 1.31446e-17
5062.31295 1.33557e-17
5063.78017 1.33448e-17
5065.24738 1.37760e-17
5066.72479 1.39699e-17
5068.19200 1.28911e-17
5069.65922 1.27910e-17
5071.12643 1.37723e-17
5072.60384 1.39428e-17
5074.07105 1.36795e-17
5075.53827 1.31655e-17
5077.00549 1.30856e-17
5078.48289 1.35287e-17
5079.95011 1.31699e-17
5081.41732 1.19078e-17
5082.89473 1.16416e-17
5084.36194 1.27951e-17
5085.82916 1.32987e-17
5087.29638 1.24756e-17
5088.77378 1.16631e-17
5090.24100 1.14150e-17
5091.70821 1.16932e-17
5093.17543 1.17596e-17
5094.65283 1.15163e-17
5096.12005 1.10176e-17
5097.58727 1.04065e-17
5099.06467 1.05060e-17
5100.53189 1.03409e-17
5101.99910 9.71290e-18
5103.46632 9.65166e-18
5104.94372 1.03665e-17
5106.41094 1.08559e-17
5107.87816 9.86217e-18
5109.34537 8.95094e-18
5110.82278 9.75291e-18
5112.28999 1.05419e-17
5113.75721 1.05198e-17
5115.23462 9.91455e-18
5116.70183 9.05652e-18
5118.16905 8.49425e-18
5119.63626 7.82525e-18
5121.11367 8.64790e-18
5122.58088 9.69354e-18
5124.04810 8.80797e-18
5125.51532 8.75100e-18
5126.99272 9.11429e-18
5128.45994 8.55269e-18
5129.92715 8.37010e-18
5131.40456 9.03734e-18
5132.87177 9.32045e-18
5134.33899 8.20178e-18
5135.80621 7.97194e-18
5137.28361 8.91506e-18
5138.75083 8.91811e-18
5140.21804 8.65238e-18
5141.68526 9.00990e-18
5143.16266 9.45437e-18
5144.62988 9.43362e-18
5146.09710 9.27749e-18
5147.57450 9.06517e-18
5149.04172 9.02632e-18
5150.50893 9.67002e-18
5151.97615 9.55065e-18
5153.45355 9.26083e-18
5154.92077 1.00564e-17
5156.38799 1.00032e-17
5157.85520 9.36071e-18
5159.33261 9.31134e-18
5160.79982 9.05341e-18
5162.26704 8.91858e-18
5163.74444 9.88057e-18
5165.21166 1.08896e-17
5166.67888 1.05431e-17
5168.14609 1.02310e-17
5169.62350 1.01623e-17
5171.09071 1.03199e-17
5172.55793 1.03619e-17
5174.02514 1.00166e-17
5175.50255 1.09471e-17
5176.96977 1.10901e-17
5178.43698 1.04096e-17
5179.91439 1.08661e-17
5181.38160 1.07269e-17
5182.84882 1.08769e-17
5184.31603 1.15203e-17
5185.79344 1.03292e-17
5187.26066 9.88664e-18
5188.72787 1.11477e-17
5190.19509 1.16650e-17
5191.67249 1.12505e-17
5193.13971 1.08543e-17
5194.60692 1.09380e-17
5196.08433 1.15957e-17
5197.55155 1.24569e-17
5199.01876 1.26430e-17
5200.48598 1.18238e-17
5201.96338 1.15339e-17
5203.43060 1.22704e-17
5204.89782 1.25249e-17
5206.36503 1.21916e-17
5207.84244 1.18988e-17
5209.30965 1.19695e-17
5210.77687 1.24173e-17
5212.25427 1.20239e-17
5213.72149 1.14421e-17
5215.18870 1.20816e-17
5216.65592 1.23075e-17
5218.13333 1.20651e-17
5219.60054 1.22714e-17
5221.06776 1.23337e-17
5222.53497 1.25913e-17
5224.01238 1.31750e-17
5225.47959 1.27616e-17
5226.94681 1.21874e-17
5228.42422 1.23496e-17
5229.89143 1.16019e-17
5231.35865 1.19465e-17
5232.82586 1.26368e-17
5234.30327 1.16562e-17
5235.77048 1.18207e-17
5237.23770 1.30052e-17
5238.70492 1.29542e-17
5240.18232 1.26002e-17
5241.64954 1.25655e-17
5243.11675 1.27575e-17
5244.59416 1.16403e-17
5246.06137 1.11356e-17
5247.52859 1.19048e-17
5248.99581 1.18196e-17
5250.47321 1.19943e-17
5251.94043 1.28204e-17
5253.40764 1.29043e-17
5254.87486 1.25207e-17
5256.35226 1.20055e-17
5257.81948 1.21012e-17
5259.28670 1.25436e-17
5260.76410 1.21130e-17
5262.23132 1.12590e-17
5263.69853 1.18253e-17
5265.16575 1.21261e-17
5266.64315 1.23477e-17
5268.11037 1.25258e-17
5269.57759 1.14277e-17
5271.04480 1.15148e-17
5272.52221 1.24183e-17
5273.98942 1.24101e-17
5275.45664 1.27803e-17
5276.93404 1.25594e-17
5278.40126 1.13303e-17
5279.86848 1.20698e-17
5281.33569 1.29642e-17
5282.81310 1.30976e-17
5284.28031 1.31149e-17
5285.74753 1.30175e-17
5287.22493 1.32547e-17
5288.69215 1.35419e-17
5290.15937 1.35730e-17
5291.62658 1.26414e-17
5293.10399 1.21915e-17
5294.57120 1.22183e-17
5296.03842 1.23627e-17
5297.50564 1.28999e-17
5298.98304 1.30259e-17
5300.45026 1.32015e-17
5301.91747 1.30583e-17
5303.39488 1.25570e-17
5304.86209 1.37643e-17
5306.32931 1.41352e-17
5307.79653 1.31813e-17
5309.27393 1.28754e-17
5310.74115 1.27117e-17
5312.20836 1.29428e-17
5313.67558 1.36734e-17
5315.15298 1.30145e-17
5316.62020 1.35995e-17
5318.08742 1.40103e-17
5319.56482 1.29048e-17
5321.03204 1.28549e-17
5322.49925 1.27296e-17
5323.96647 1.36575e-17
5325.44387 1.34879e-17
5326.91109 1.33288e-17
5328.37831 1.43619e-17
5329.84552 1.41889e-17
5331.32293 1.40043e-17
5332.79014 1.45713e-17
5334.25736 1.43946e-17
5335.72457 1.39148e-17
5337.20198 1.41745e-17
5338.66920 1.41936e-17
5340.13641 1.39413e-17
5341.61382 1.37298e-17
5343.08103 1.48057e-17
5344.54825 1.50813e-17
5346.01546 1.40236e-17
5347.49287 1.33120e-17
5348.96009 1.43122e-17
5350.42730 1.53838e-17
5351.89452 1.52441e-17
5353.37192 1.55823e-17
5354.83914 1.45490e-17
5356.30635 1.40757e-17
5357.78376 1.40711e-17
5359.25098 1.37873e-17
5360.71819 1.35230e-17
5362.18541 1.37770e-17
5363.66281 1.47463e-17
5365.13003 1.47351e-17
5366.59724 1.42513e-17
5368.07465 1.49265e-17
5369.54187 1.45713e-17
5371.00908 1.41907e-17
5372.47630 1.40000e-17
5373.95370 1.40094e-17
5375.42092 1.42447e-17
5376.88813 1.50502e-17
5378.35535 1.50876e-17
5379.83276 1.40331e-17
5381.29997 1.41464e-17
5382.76719 1.49486e-17
5384.24459 1.54078e-17
5385.71181 1.57325e-17
5387.17902 1.49163e-17
5388.64624 1.41709e-17
5390.12365 1.43195e-17
5391.59086 1.39412e-17
5393.05808 1.38247e-17
5394.52529 1.45554e-17
5396.00270 1.53652e-17
5397.46991 1.58525e-17
5398.93713 1.50498e-17
5400.41454 1.34227e-17
5401.88175 1.41250e-17
5403.34897 1.47376e-17
5404.81618 1.48333e-17
5406.29359 1.54606e-17
5407.76080 1.60221e-17
5409.22802 1.52339e-17
5410.69524 1.46653e-17
5412.17264 1.50455e-17
5413.63986 1.47185e-17
5415.10707 1.43398e-17
5416.58448 1.40419e-17
5418.05170 1.36162e-17
5419.51891 1.34954e-17
5420.98613 1.43896e-17
5422.46353 1.53309e-17
5423.93075 1.46351e-17
5425.39796 1.32804e-17
5426.86518 1.43356e-17
5428.34258 1.48075e-17
5429.80980 1.38871e-17
5431.27702 1.35212e-17
5432.75442 1.40288e-17
5434.22164 1.42913e-17
5435.68885 1.44385e-17
5437.15607 1.53438e-17
5438.63347 1.46447e-17
5440.10069 1.33074e-17
5441.56791 1.31635e-17
5443.03512 1.35731e-17
5444.51253 1.38603e-17
5445.97974 1.42204e-17
5447.44696 1.40054e-17
5448.92436 1.34531e-17
5450.39158 1.40238e-17
5451.85880 1.39373e-17
5453.32601 1.37599e-17
5454.80342 1.42773e-17
5456.27063 1.35579e-17
5457.73785 1.30061e-17
5459.20507 1.32796e-17
5460.68247 1.31664e-17
5462.14969 1.37866e-17
5463.61690 1.43078e-17
5465.09431 1.31491e-17
5466.56152 1.26401e-17
5468.02874 1.33412e-17
5469.49596 1.36451e-17
5470.97336 1.39121e-17
5472.44058 1.38278e-17
5473.90779 1.29240e-17
5475.37501 1.27757e-17
5476.85241 1.30975e-17
5478.31963 1.32086e-17
5479.78685 1.31154e-17
5481.26425 1.25885e-17
5482.73147 1.25393e-17
5484.19868 1.29661e-17
5485.66590 1.21916e-17
5487.14330 1.16994e-17
5488.61052 1.26695e-17
5490.07774 1.24380e-17
5491.54495 1.23617e-17
5493.02236 1.30377e-17
5494.48957 1.29911e-17
5495.95679 1.23780e-17
5497.43419 1.23889e-17
5498.90141 1.30617e-17
5500.36863 1.31982e-17
5501.83584 1.31147e-17
5503.31325 1.21127e-17
5504.78046 1.14428e-17
5506.24768 1.17186e-17
5507.72508 1.17344e-17
5509.19230 1.15174e-17
5510.65952 1.15189e-17
5512.12673 1.19184e-17
5513.60414 1.25271e-17
5515.07135 1.20313e-17
5516.53857 1.13909e-17
5518.00578 1.20443e-17
5519.48319 1.27072e-17
5520.95041 1.26818e-17
5522.41762 1.23893e-17
5523.88484 1.22272e-17
5525.36224 1.25024e-17
5526.82946 1.20629e-17
5528.29667 1.22844e-17
5529.77408 1.27610e-17
5531.24130 1.23467e-17
5532.70851 1.24245e-17
5534.17573 1.26568e-17
5535.65313 1.24011e-17
5537.12035 1.23890e-17
5538.58756 1.25992e-17
5540.05478 1.23726e-17
5541.53219 1.23304e-17
5542.99940 1.21096e-17
5544.46662 1.19562e-17
5545.94402 1.25650e-17
5547.41124 1.25057e-17
5548.87845 1.28918e-17
5550.34567 1.32175e-17
5551.82308 1.21325e-17
5553.29029 1.23442e-17
5554.75751 1.31204e-17
5556.23491 1.22417e-17
5557.70213 1.17324e-17
5559.16934 1.13095e-17
5560.63656 1.14964e-17
5562.11397 1.23970e-17
5563.58118 1.28000e-17
5565.04840 1.29258e-17
5566.51561 1.30823e-17
5567.99302 1.26376e-17
5569.46023 1.24474e-17
5570.92745 1.22529e-17
5572.40486 1.03404e-17
5573.87207 1.10971e-17
5575.33929 1.22754e-17
5576.80650 1.00020e-17
5578.28391 9.71450e-18
5579.75112 1.16633e-17
5581.21834 1.35759e-17
5582.68556 1.30526e-17
5584.16296 1.24212e-17
5585.63018 1.27679e-17
5587.09739 1.26265e-17
5588.56461 1.20328e-17
5590.04201 1.18237e-17
5591.50923 1.24861e-17
5592.97645 1.27381e-17
5594.45385 1.19473e-17
5595.92107 1.16853e-17
5597.38828 1.16559e-17
5598.85550 1.20649e-17
5600.33290 1.27157e-17
5601.80012 1.22999e-17
5603.26734 1.23233e-17
5604.74474 1.30026e-17
5606.21196 1.24114e-17
5607.67917 1.15471e-17
5609.14639 1.14742e-17
5610.62379 1.22580e-17
5612.09101 1.25802e-17
5613.55823 1.27164e-17
5615.02544 1.17252e-17
5616.50285 1.17480e-17
5617.97006 1.25404e-17
5619.43728 1.20257e-17
5620.91468 1.18768e-17
5622.38190 1.18383e-17
5623.84912 1.24781e-17
5625.31633 1.25822e-17
5626.79374 1.20271e-17
5628.26095 1.16206e-17
5629.72817 1.25689e-17
5631.19539 1.27251e-17
5632.67279 1.21721e-17
5634.14001 1.13862e-17
5635.60722 1.14663e-17
5637.08463 1.20469e-17
5638.55184 1.17002e-17
5640.01906 1.14006e-17
5641.48628 1.22319e-17
5642.96368 1.27106e-17
5644.43090 1.16304e-17
5645.89811 1.09186e-17
5647.36533 1.16179e-17
5648.84273 1.19064e-17
5650.30995 1.15900e-17
5651.77717 1.18976e-17
5653.25457 1.27211e-17
5654.72179 1.20878e-17
5656.18900 1.16231e-17
5657.65622 1.11870e-17
5659.13362 1.19729e-17
5660.60084 1.15623e-17
5662.06806 1.07718e-17
5663.53527 1.07390e-17
5665.01268 1.15107e-17
5666.47989 1.23508e-17
5667.94711 1.15353e-17
5669.42451 1.12325e-17
5670.89173 1.20039e-17
5672.35895 1.13915e-17
5673.82616 1.04850e-17
5675.30357 1.07614e-17
5676.77078 1.11631e-17
5678.23800 1.10434e-17
5679.70521 1.05020e-17
5681.18262 1.14303e-17
5682.64984 1.10602e-17
5684.11705 1.08450e-17
5685.59446 1.18045e-17
5687.06167 1.20150e-17
5688.52889 1.16856e-17
5689.99610 1.08250e-17
5691.47351 1.06168e-17
5692.94073 1.10068e-17
5694.40794 1.17813e-17
5695.87516 1.14353e-17
5697.35256 1.13895e-17
5698.81978 1.13379e-17
5700.28699 1.06743e-17
5701.76440 1.03457e-17
5703.23162 1.05915e-17
5704.69883 1.09921e-17
5706.16605 1.12928e-17
5707.64345 1.12696e-17
5709.11067 1.15021e-17
5710.57788 1.11977e-17
5712.04510 1.03958e-17
5713.52251 1.09731e-17
5714.98972 1.13092e-17
5716.45694 1.08074e-17
5717.93434 1.09211e-17
5719.40156 1.13591e-17
5720.86877 1.14569e-17
5722.33599 1.09481e-17
5723.81340 1.07188e-17
5725.28061 1.10258e-17
5726.74783 1.08068e-17
5728.21504 1.08228e-17
5729.69245 1.23121e-17
5731.15967 1.24342e-17
5732.62688 1.19543e-17
5734.10429 1.18036e-17
5735.57150 1.09580e-17
5737.03872 1.00723e-17
5738.50593 1.02143e-17
5739.98334 1.10750e-17
5741.45055 1.07499e-17
5742.91777 1.09764e-17
5744.38499 1.12404e-17
5745.86239 1.06589e-17
5747.32961 1.10032e-17
5748.79682 1.17932e-17
5750.27423 1.14684e-17
5751.74144 1.10835e-17
5753.20866 1.15999e-17
5754.67588 1.16751e-17
5756.15328 1.11715e-17
5757.62050 1.10794e-17
5759.08771 1.12773e-17
5760.55493 1.05785e-17
5762.03233 1.00837e-17
5763.49955 1.00539e-17
5764.96677 1.03687e-17
5766.44417 1.05025e-17
5767.91139 1.09207e-17
5769.37860 1.10724e-17
5770.84582 1.09806e-17
5772.32322 1.09567e-17
5773.79044 1.05582e-17
5775.25766 1.08304e-17
5776.72487 1.00299e-17
5778.20228 9.32462e-18
5779.66949 1.04707e-17
5781.13671 1.06739e-17
5782.61412 1.04586e-17
5784.08133 1.07256e-17
5785.54855 1.09945e-17
5787.01576 1.05092e-17
5788.49317 9.56151e-18
5789.96038 9.54640e-18
5791.42760 1.00241e-17
5792.89482 1.06966e-17
5794.37222 1.03727e-17
5795.83944 1.00759e-17
5797.30665 1.02482e-17
5798.78406 1.00931e-17
5800.25127 9.37528e-18
5801.71849 9.63065e-18
5803.18571 9.73259e-18
5804.66311 9.71375e-18
5806.13033 9.46084e-18
5807.59754 9.12448e-18
5809.06476 9.24502e-18
5810.54216 9.75572e-18
5812.00938 9.12752e-18
5813.47660 9.17198e-18
5814.95400 8.83016e-18
5816.42122 7.94976e-18
5817.88843 8.06848e-18
5819.35565 7.60720e-18
5820.83305 8.19119e-18
5822.30027 9.05520e-18
5823.76749 8.49195e-18
5825.24489 8.20583e-18
5826.71211 7.82593e-18
5828.17932 7.82955e-18
5829.64654 7.46011e-18
5831.12394 7.10149e-18
5832.59116 7.71793e-18
5834.05838 7.85651e-18
5835.52559 8.00947e-18
5837.00300 7.55616e-18
5838.47021 6.67616e-18
5839.93743 7.59489e-18
5841.41483 8.03335e-18
5842.88205 7.37206e-18
5844.34927 7.40276e-18
5845.81648 7.65175e-18
5847.29389 7.61599e-18
5848.76110 7.56471e-18
5850.22832 7.34586e-18
5851.69553 7.46838e-18
5853.17294 7.53375e-18
5854.64016 7.32208e-18
5856.10737 7.57241e-18
5857.58478 7.35939e-18
5859.05199 7.89650e-18
5860.51921 7.58270e-18
5861.98642 7.69348e-18
5863.46383 8.45873e-18
5864.93105 8.29731e-18
5866.39826 8.27822e-18
5867.86548 7.91856e-18
5869.34288 9.03316e-18
5870.81010 9.03185e-18
5872.27732 8.50187e-18
5873.74453 9.36549e-18
5875.22194 1.00039e-17
5876.68915 1.00944e-17
5878.15637 9.42486e-18
5879.63377 9.13734e-18
5881.10099 9.69107e-18
5882.56820 1.04154e-17
5884.03542 1.08257e-17
5885.51283 1.07990e-17
5886.98004 1.08356e-17
5888.44726 1.07606e-17
5889.92466 1.07801e-17
5891.39188 1.05645e-17
5892.85909 1.04964e-17
5894.32631 1.02822e-17
5895.80372 9.20517e-18
5897.27093 1.10260e-17
5898.73815 1.24639e-17
5900.20536 1.14110e-17
5901.68277 1.08627e-17
5903.14998 1.12138e-17
5904.61720 1.17402e-17
5906.09461 1.11262e-17
5907.56182 1.05692e-17
5909.02904 1.10851e-17
5910.49625 1.26573e-17
5911.97366 1.30198e-17
5913.44087 1.16006e-17
5914.90809 1.21373e-17
5916.37531 1.33642e-17
5917.85271 1.31242e-17
5919.31993 1.34169e-17
5920.78714 1.36451e-17
5922.26455 1.39709e-17
5923.73176 1.44914e-17
5925.19898 1.39980e-17
5926.66620 1.36119e-17
5928.14360 1.38240e-17
5929.61082 1.41837e-17
5931.07803 1.38408e-17
5932.54525 1.32170e-17
5934.02265 1.36118e-17
5935.48987 1.42906e-17
5936.95709 1.34152e-17
5938.43449 1.31900e-17
5939.90171 1.38769e-17
5941.36892 1.47840e-17
5942.83614 1.46454e-17
5944.31354 1.35746e-17
5945.78076 1.37836e-17
5947.24798 1.39677e-17
5948.71519 1.41768e-17
5950.19260 1.48426e-17
5951.65981 1.49475e-17
5953.12703 1.54630e-17
5954.60443 1.56534e-17
5956.07165 1.47691e-17
5957.53887 1.45555e-17
5959.00608 1.46063e-17
5960.48349 1.47651e-17
5961.95070 1.50005e-17
5963.41792 1.43336e-17
5964.88514 1.34636e-17
5966.36254 1.36608e-17
5967.82976 1.47903e-17
5969.29697 1.49173e-17
5970.77438 1.40364e-17
5972.24159 1.41937e-17
5973.70881 1.49281e-17
5975.17603 1.47419e-17
5976.65343 1.44834e-17
5978.12065 1.38442e-17
5979.58786 1.34406e-17
5981.05508 1.40831e-17
5982.53248 1.45455e-17
5983.99970 1.41403e-17
5985.46692 1.37945e-17
5986.94432 1.41288e-17
5988.41154 1.36036e-17
5989.87875 1.35806e-17
5991.34597 1.43316e-17
5992.82337 1.43798e-17
5994.29059 1.38706e-17
5995.75781 1.29376e-17
5997.22502 1.24711e-17
5998.70243 1.24178e-17
6000.16964 1.23794e-17
6001.63686 1.29559e-17
6003.11426 1.32461e-17
6004.58148 1.33739e-17
6006.04870 1.38049e-17
6007.51591 1.40736e-17
6008.99332 1.35523e-17
6010.46053 1.38868e-17
6011.92775 1.52960e-17
6013.39496 1.43776e-17
6014.87237 1.39398e-17
6016.33959 1.38581e-17
6017.80680 1.35962e-17
6019.28421 1.43087e-17
6020.75142 1.38812e-17
6022.21864 1.31469e-17
6023.68585 1.42988e-17
6025.16326 1.41520e-17
6026.63048 1.32780e-17
6028.09769 1.36105e-17
6029.56491 1.42490e-17
6031.04231 1.43046e-17
6032.50953 1.39298e-17
6033.97674 1.51416e-17
6035.45415 1.45277e-17
6036.92137 1.27432e-17
6038.38858 1.24002e-17
6039.85580 1.22228e-17
6041.33320 1.23499e-17
6042.80042 1.32869e-17
6044.26763 1.35234e-17
6045.74504 1.32828e-17
6047.21226 1.24630e-17
6048.67947 1.22616e-17
6050.14669 1.22113e-17
6051.62409 1.18026e-17
6053.09131 1.21727e-17
6054.55852 1.25815e-17
6056.02574 1.33182e-17
6057.50315 1.29661e-17
6058.97036 1.24927e-17
6060.43758 1.25330e-17
6061.90479 1.25603e-17
6063.38220 1.30169e-17
6064.84941 1.28281e-17
6066.31663 1.28774e-17
6067.79404 1.23801e-17
6069.26125 1.15140e-17
6070.72847 1.18729e-17
6072.19568 1.22276e-17
6073.67309 1.16221e-17
6075.14030 1.11837e-17
6076.60752 1.14594e-17
6078.07474 1.22911e-17
6079.55214 1.25596e-17
6081.01936 1.18882e-17
6082.48657 1.25615e-17
6083.96398 1.27571e-17
6085.43120 1.16042e-17
6086.89841 1.12228e-17
6088.36563 1.09875e-17
6089.84303 1.17629e-17
6091.31025 1.16286e-17
6092.77746 1.21271e-17
6094.25487 1.17555e-17
6095.72208 1.03748e-17
6097.18930 1.12331e-17
6098.65652 1.14373e-17
6100.13392 1.04974e-17
6101.60114 1.09769e-17
6103.06835 1.18974e-17
6104.53557 1.14705e-17
6106.01297 1.13915e-17
6107.48019 1.15037e-17
6108.94741 1.17456e-17
6110.42481 1.19286e-17
6111.89203 1.15720e-17
6113.35924 1.17242e-17
6114.82646 1.16933e-17
6116.30386 1.13122e-17
6117.77108 1.15722e-17
6119.23830 1.16333e-17
6120.70551 1.04853e-17
6122.18292 1.07311e-17
6123.65013 1.14185e-17
6125.11735 1.20937e-17
6126.58457 1.17750e-17
6128.06197 1.16986e-17
6129.52919 1.16844e-17
6130.99640 1.15396e-17
6132.47381 1.09760e-17
6133.94102 1.06174e-17
6135.40824 1.03966e-17
6136.87546 1.14571e-17
6138.35286 1.16576e-17
6139.82008 1.10048e-17
6141.28729 1.13114e-17
6142.75451 1.11369e-17
6144.23191 1.07292e-17
6145.69913 1.07483e-17
6147.16635 1.18908e-17
6148.64375 1.13667e-17
6150.11097 1.00057e-17
6151.57818 1.03759e-17
6153.04540 1.11875e-17
6154.52280 1.12432e-17
6155.99002 1.04259e-17
6157.45724 1.03341e-17
6158.93464 1.09550e-17
6160.40186 1.16000e-17
6161.86907 1.17856e-17
6163.33629 1.09386e-17
6164.81369 1.04754e-17
6166.28091 1.10390e-17
6167.74813 1.04321e-17
6169.21534 9.66863e-18
6170.69275 1.04463e-17
6172.15996 1.11068e-17
6173.62718 1.11065e-17
6175.10458 1.06675e-17
6176.57180 1.03317e-17
6178.03902 1.05095e-17
6179.50623 1.09547e-17
6180.98364 1.11597e-17
6182.45085 1.15633e-17
6183.91807 1.10197e-17
6185.38528 1.01292e-17
6186.86269 1.02454e-17
6188.32991 1.07031e-17
6189.79712 1.10304e-17
6191.27453 1.09800e-17
6192.74174 1.11717e-17
6194.20896 1.17490e-17
6195.67617 1.12078e-17
6197.15358 1.03382e-17
6198.62080 1.03749e-17
6200.08801 1.06722e-17
6201.55523 1.06791e-17
6203.03263 1.07958e-17
6204.49985 1.00089e-17
6205.96706 9.68024e-18
6207.44447 1.06028e-17
6208.91169 1.07659e-17
6210.37890 9.73647e-18
6211.84612 9.71164e-18
6213.32352 1.11674e-17
6214.79074 1.12295e-17
6216.25795 1.14068e-17
6217.72517 1.13058e-17
6219.20258 1.06592e-17
6220.66979 9.85874e-18
6222.13701 1.00416e-17
6223.61441 9.83294e-18
6225.08163 1.07686e-17
6226.54884 1.01611e-17
6228.01606 9.66517e-18
6229.49347 1.01762e-17
6230.96068 1.03879e-17
6232.42790 1.12947e-17
6233.89511 1.10693e-17
6235.37252 1.07668e-17
6236.83973 1.07149e-17
6238.30695 1.06421e-17
6239.78436 1.05962e-17
6241.25157 1.03996e-17
6242.71879 1.01508e-17
6244.18600 1.02430e-17
6245.66341 1.03551e-17
6247.13062 9.94792e-18
6248.59784 1.00182e-17
6250.06506 1.01386e-17
6251.54246 1.02038e-17
6253.00968 9.48519e-18
6254.47689 1.05139e-17
6255.95430 9.68997e-18
6257.42151 9.00672e-18
6258.88873 1.02494e-17
6260.35595 1.03854e-17
6261.83335 9.72766e-18
6263.30057 9.92430e-18
6264.76778 1.07043e-17
6266.23500 1.01878e-17
6267.71240 1.00024e-17
6269.17962 1.01949e-17
6270.64684 1.02664e-17
6272.12424 9.91707e-18
6273.59146 9.57830e-18
6275.05867 1.00892e-17
6276.52589 9.35988e-18
6278.00329 9.74646e-18
6279.47051 1.03486e-17
6280.93773 1.01624e-17
6282.41513 1.04459e-17
6283.88235 1.04288e-17
6285.34956 1.02127e-17
6286.81678 1.08378e-17
6288.29418 1.03923e-17
6289.76140 9.41323e-18
6291.22862 8.89002e-18
6292.69583 8.82811e-18
6294.17324 9.07024e-18
6295.64045 9.44086e-18
6297.10767 1.09035e-17
6298.57489 9.81364e-18
6300.05229 8.81803e-18
6301.51951 1.08809e-17
6302.98672 1.05120e-17
6304.46413 9.51712e-18
6305.93134 8.86960e-18
6307.39856 7.95723e-18
6308.86578 7.78157e-18
6310.34318 7.98123e-18
6311.81040 8.05958e-18
6313.27761 8.00379e-18
6314.74483 8.71688e-18
6316.22223 9.01009e-18
6317.68945 8.45291e-18
6319.15667 8.54719e-18
6320.63407 9.20418e-18
6322.10129 9.12190e-18
6323.56850 8.28056e-18
6325.03572 7.94109e-18
6326.51312 8.27343e-18
6327.98034 9.35745e-18
6329.44756 8.96785e-18
6330.91477 8.56480e-18
6332.39218 8.66851e-18
6333.85939 8.48753e-18
6335.32661 7.85163e-18
6336.80401 7.65635e-18
6338.27123 8.42138e-18
6339.73845 8.41291e-18
6341.20566 7.56095e-18
6342.68307 7.56713e-18
6344.15028 8.08976e-18
6345.61750 8.45412e-18
6347.08471 8.40528e-18
6348.56212 7.51843e-18
6350.02934 7.32649e-18
6351.49655 8.08151e-18
6352.97396 7.99776e-18
6354.44117 8.61743e-18
6355.90839 8.76503e-18
6357.37560 7.94377e-18
6358.85301 8.32664e-18
6360.32023 8.45604e-18
6361.78744 7.82294e-18
6363.25466 7.40068e-18
6364.73206 7.87686e-18
6366.19928 8.31635e-18
6367.66649 7.99844e-18
6369.14390 8.05947e-18
6370.61112 8.11232e-18
6372.07833 7.74036e-18
6373.54555 7.84945e-18
6375.02295 7.75842e-18
6376.49017 7.26379e-18
6377.95738 8.00865e-18
6379.43479 8.86686e-18
6380.90201 8.32892e-18
6382.36922 7.88402e-18
6383.83644 8.77225e-18
6385.31384 8.84870e-18
6386.78106 8.15202e-18
6388.24827 7.78598e-18
6389.71549 6.91156e-18
6391.19290 6.86528e-18
6392.66011 7.41247e-18
6394.12733 8.27034e-18
6395.60473 8.00092e-18
6397.07195 8.13996e-18
6398.53917 8.62800e-18
6400.00638 8.76782e-18
6401.48379 8.64365e-18
6402.95100 8.18760e-18
6404.41822 8.13162e-18
6405.88543 8.12427e-18
6407.36284 7.81880e-18
6408.83005 8.42983e-18
6410.29727 8.79412e-18
6411.76449 8.84364e-18
6413.24189 8.24630e-18
6414.70911 8.28856e-18
6416.17632 8.13337e-18
6417.65373 8.49350e-18
6419.12094 8.84857e-18
6420.58816 8.66000e-18
6422.05538 9.29880e-18
6423.53278 9.60433e-18
6425.00000 9.11539e-18
6426.46721 1.02634e-17
6427.94462 9.32414e-18
6429.41183 7.91464e-18
6430.87905 8.23692e-18
6432.34627 9.08889e-18
6433.82367 8.99738e-18
6435.29089 9.51898e-18
6436.75810 9.47524e-18
6438.22532 9.28932e-18
6439.70272 9.58409e-18
6441.16994 9.26905e-18
6442.63716 9.21546e-18
6444.11456 1.00667e-17
6445.58178 1.07893e-17
6447.04899 1.05578e-17
6448.51621 9.29506e-18
6449.99361 9.12661e-18
6451.46083 8.44381e-18
6452.92805 8.69760e-18
6454.39526 8.89352e-18
6455.87267 9.35587e-18
6457.33988 9.71513e-18
6458.80710 9.43591e-18
6460.28450 9.78588e-18
6461.75172 1.01345e-17
6463.21894 9.42340e-18
6464.68615 1.03365e-17
6466.16356 1.04153e-17
6467.63077 1.04035e-17
6469.09799 1.01033e-17
6470.56521 9.76643e-18
6472.04261 9.93379e-18
6473.50983 1.01796e-17
6474.97704 9.99223e-18
6476.45445 1.02529e-17
6477.92166 1.02409e-17
6479.38888 1.00743e-17
6480.85610 9.07876e-18
6482.33350 9.14591e-18
6483.80072 9.52870e-18
6485.26793 9.76472e-18
6486.73515 9.90295e-18
6488.21255 9.15503e-18
6489.67977 9.83029e-18
6491.14699 1.02711e-17
6492.62439 1.01091e-17
6494.09161 9.27767e-18
6495.55882 8.86335e-18
6497.02604 1.02320e-17
6498.50344 1.11254e-17
6499.97066 9.96364e-18
6501.43788 9.63500e-18
6502.90509 9.40234e-18
6504.38250 9.65527e-18
6505.84971 1.02515e-17
6507.31693 1.01276e-17
6508.79433 1.04725e-17
6510.26155 1.01899e-17
6511.72877 9.96004e-18
6513.19598 8.86896e-18
6514.67339 8.73836e-18
6516.14060 9.22476e-18
6517.60782 9.42576e-18
6519.07503 9.10889e-18
6520.55244 9.44951e-18
6522.01966 9.81192e-18
6523.48687 1.02094e-17
6524.96428 9.90071e-18
6526.43149 9.41303e-18
6527.89871 9.16321e-18
6529.36592 8.91663e-18
6530.84333 8.72668e-18
6532.31055 9.58936e-18
6533.77776 1.07280e-17
6535.24498 1.02528e-17
6536.72238 9.36957e-18
6538.18960 8.81726e-18
6539.65682 9.17435e-18
6541.13422 9.97376e-18
6542.60144 1.01412e-17
6544.06865 1.00421e-17
6545.53587 9.59666e-18
6547.01327 1.02966e-17
6548.48049 1.06035e-17
6549.94770 9.92265e-18
6551.41492 9.88605e-18
6552.89233 9.64461e-18
6554.35954 8.89872e-18
6555.82676 8.80616e-18
6557.30416 8.55489e-18
6558.77138 8.82055e-18
6560.23859 9.91593e-18
6561.70581 1.03627e-17
6563.18322 9.62452e-18
6564.65043 9.46627e-18
6566.11765 9.64493e-18
6567.58486 9.15721e-18
6569.06227 9.40229e-18
6570.52948 9.32588e-18
6571.99670 8.85907e-18
6573.47411 8.73427e-18
6574.94132 9.37358e-18
6576.40854 9.95161e-18
6577.87575 9.64900e-18
6579.35316 9.67397e-18
6580.82037 9.74054e-18
6582.28759 8.82633e-18
6583.75481 7.62546e-18
6585.23221 8.29609e-18
6586.69943 9.34845e-18
6588.16664 9.12742e-18
6589.64405 9.33297e-18
6591.11126 9.60365e-18
6592.57848 9.05761e-18
6594.04570 9.19210e-18
6595.52310 9.03691e-18
6596.99032 8.28815e-18
6598.45753 8.39119e-18
6599.92475 8.84713e-18
6601.40215 9.12908e-18
6602.86937 8.94457e-18
6604.33659 8.58833e-18
6605.81399 8.97461e-18
6607.28121 8.88364e-18
6608.74842 9.31456e-18
6610.21564 9.73765e-18
6611.69304 8.97363e-18
6613.16026 8.00740e-18
6614.62748 7.23440e-18
6616.10488 7.33522e-18
6617.57210 7.88644e-18
6619.03931 8.96432e-18
6620.50653 8.07245e-18
6621.98393 6.95634e-18
6623.45115 7.77390e-18
6624.91837 8.79369e-18
6626.38558 8.61801e-18
6627.86299 7.37870e-18
6629.33020 7.43605e-18
6630.79742 7.31741e-18
6632.27482 6.87169e-18
6633.74204 7.17584e-18
6635.20926 7.70903e-18
6636.67647 8.04323e-18
6638.15388 7.61916e-18
6639.62109 7.82138e-18
6641.08831 7.54034e-18
6642.55553 7.09250e-18
6644.03293 6.83312e-18
6645.50015 7.36611e-18
6646.96736 7.17621e-18
6648.44477 6.94215e-18
6649.91198 6.79064e-18
6651.37920 7.35978e-18
6652.84642 7.50182e-18
6654.32382 7.14739e-18
6655.79104 7.38959e-18
6657.25825 7.46502e-18
6658.72547 7.41570e-18
6660.20287 7.40736e-18
6661.67009 7.51393e-18
6663.13731 7.37709e-18
6664.60452 7.30273e-18
6666.08193 7.38266e-18
6667.54914 6.95407e-18
6669.01636 6.82766e-18
6670.49376 6.60633e-18
6671.96098 7.41009e-18
6673.42820 7.47795e-18
6674.89541 7.16398e-18
6676.37282 7.69826e-18
6677.84003 7.82027e-18
6679.30725 8.02974e-18
6680.77446 7.68984e-18
6682.25187 7.10766e-18
6683.71909 7.09500e-18
6685.18630 7.44186e-18
6686.66371 7.36241e-18
6688.13092 8.76877e-18
6689.59814 8.99396e-18
6691.06535 7.49022e-18
6692.54276 7.65482e-18
6694.00998 8.30179e-18
6695.47719 7.85838e-18
6696.95460 8.23695e-18
6698.42181 8.54616e-18
6699.88903 8.66502e-18
6701.35624 8.62612e-18
6702.83365 8.38754e-18
6704.30087 8.19654e-18
6705.76808 9.18655e-18
6707.23530 9.41379e-18
6708.71270 8.54431e-18
6710.17992 8.61164e-18
6711.64713 8.57401e-18
6713.12454 8.72533e-18
6714.59176 9.17841e-18
6716.05897 8.59725e-18
6717.52619 9.15705e-18
6719.00359 9.65472e-18
6720.47081 9.27453e-18
6721.93802 8.98061e-18
6723.40524 9.05438e-18
6724.88265 9.88619e-18
6726.34986 9.71180e-18
6727.81708 9.62151e-18
6729.29448 9.27534e-18
6730.76170 9.28279e-18
6732.22891 9.16042e-18
6733.69613 9.54130e-18
6735.17354 9.91893e-18
6736.64075 9.54415e-18
6738.10797 9.72495e-18
6739.57518 1.00564e-17
6741.05259 9.33267e-18
6742.51980 9.49301e-18
6743.98702 9.45279e-18
6745.46443 9.89575e-18
6746.93164 1.01202e-17
6748.39886 1.00339e-17
6749.86607 9.52772e-18
6751.34348 9.43366e-18
6752.81069 9.90825e-18
6754.27791 9.96241e-18
6755.74513 9.80646e-18
6757.22253 1.02286e-17
6758.68975 1.09092e-17
6760.15696 1.11347e-17
6761.63437 1.09341e-17
6763.10158 9.96951e-18
6764.56880 1.02144e-17
6766.03602 1.02866e-17
6767.51342 9.79366e-18
6768.98064 1.02474e-17
6770.44785 1.02326e-17
6771.91507 9.45653e-18
6773.39247 1.05302e-17
6774.85969 1.07270e-17
6776.32691 1.00735e-17
6777.80431 1.06024e-17
6779.27153 9.79949e-18
6780.73874 9.57601e-18
6782.20596 1.03393e-17
6783.68336 1.00142e-17
6785.15058 9.90122e-18
6786.61780 1.06756e-17
6788.08501 9.92138e-18
6789.56242 9.57736e-18
6791.02963 1.01403e-17
6792.49685 1.02619e-17
6793.97425 1.01337e-17
6795.44147 9.57316e-18
6796.90869 9.89293e-18
6798.37590 9.68882e-18
6799.85331 9.38171e-18
6801.32052 1.00899e-17
6802.78774 1.08157e-17
6804.25496 1.03509e-17
6805.73236 9.68614e-18
6807.19958 1.01662e-17
6808.66679 1.03769e-17
6810.14420 9.85443e-18
6811.61141 9.96968e-18
6813.07863 1.01627e-17
6814.54585 9.69622e-18
6816.02325 9.81749e-18
6817.49047 9.86887e-18
6818.95768 1.01159e-17
6820.43509 1.01787e-17
6821.90230 9.74509e-18
6823.36952 9.93689e-18
6824.83674 1.10312e-17
6826.31414 1.05420e-17
6827.78136 8.84514e-18
6829.24857 9.35697e-18
6830.71579 1.03234e-17
6832.19319 1.02690e-17
6833.66041 8.63817e-18
6835.12763 8.12532e-18
6836.60503 9.04622e-18
6838.07225 1.01818e-17
6839.53946 1.08259e-17
6841.00668 1.08798e-17
6842.48408 1.02232e-17
6843.95130 8.96527e-18
6845.41852 8.96568e-18
6846.88573 8.96610e-18
6848.36314 8.96652e-18
6849.83035 8.96693e-18
6851.29757 8.96735e-18
6852.76478 8.96776e-18
6854.24219 8.96818e-18
6855.70941 8.96859e-18
6857.17662 8.96901e-18
6858.65403 8.96942e-18
6860.12124 8.96984e-18
6861.58846 8.97025e-18
6863.05567 8.97067e-18
6864.53308 8.97108e-18
6866.00030 8.97150e-18
6867.46751 8.97191e-18
6868.93473 8.97233e-18
6870.41213 8.97274e-18
6871.87935 8.97316e-18
6873.34656 8.97357e-18
6874.82397 8.97399e-18
6876.29119 8.97440e-18
6877.75840 8.97482e-18
6879.22562 8.97523e-18
6880.70302 8.97565e-18
6882.17024 8.97606e-18
6883.63745 8.97648e-18
6885.11486 8.97689e-18
6886.58208 8.97730e-18
6888.04929 8.97772e-18
6889.51651 8.97813e-18
6890.99391 8.97855e-18
6892.46113 8.97896e-18
6893.92834 8.97938e-18
6895.39556 8.97979e-18
6896.87297 8.98020e-18
6898.34018 8.98062e-18
6899.80740 8.98103e-18
6901.27461 8.98144e-18
6902.75202 8.98186e-18
6904.21923 8.98227e-18
6905.68645 8.98269e-18
6907.16386 8.98310e-18
6908.63107 8.98351e-18
6910.09829 8.98393e-18
6911.56550 8.98434e-18
6913.04291 8.98475e-18
6914.51012 8.98517e-18
6915.97734 8.98558e-18
6917.45475 8.98599e-18
6918.92196 8.98640e-18
6920.38918 8.98682e-18
6921.85639 8.98723e-18
6923.33380 8.98764e-18
6924.80102 8.98806e-18
6926.26823 8.98847e-18
6927.73545 8.98888e-18
6929.21285 8.98930e-18
6930.68007 8.98971e-18
6932.14728 8.99012e-18
6933.62469 8.99053e-18
6935.09190 8.99094e-18
6936.55912 9.67397e-18
6938.02634 8.18421e-18
6939.50374 7.65838e-18
6940.97096 8.82089e-18
6942.43817 8.87500e-18
6943.90539 8.68241e-18
6945.38279 8.34539e-18
6946.85001 8.16461e-18
6948.31723 7.77541e-18
6949.79463 7.22415e-18
6951.26185 8.20853e-18
6952.72906 8.69111e-18
6954.19628 8.09310e-18
6955.67368 6.93361e-18
6957.14090 7.41210e-18
6958.60812 7.24852e-18
6960.07533 7.85880e-18
6961.55274 8.19180e-18
6963.01995 8.51210e-18
6964.48717 8.08949e-18
6965.96457 8.16425e-18
6967.43179 8.92185e-18
6968.89901 8.91130e-18
6970.36622 8.50325e-18
6971.84363 9.13478e-18
6973.31084 8.75230e-18
6974.77806 8.70098e-18
6976.24528 8.09872e-18
6977.72268 8.25290e-18
6979.18990 7.90566e-18
6980.65711 7.74388e-18
6982.13452 8.67089e-18
6983.60173 8.81463e-18
6985.06895 8.69096e-18
6986.53617 8.22394e-18
6988.01357 7.73912e-18
6989.48079 7.42483e-18
6990.94800 7.52028e-18
6992.41522 7.59543e-18
6993.89262 8.04596e-18
6995.35984 8.19061e-18
6996.82706 8.18546e-18
6998.30446 7.82843e-18
6999.77168 8.31040e-18
7001.23889 8.66541e-18
7002.70611 8.21588e-18
7004.18351 8.29127e-18
7005.65073 8.64491e-18
7007.11795 6.81195e-18
7008.58516 6.97512e-18
7010.06257 8.18357e-18
7011.52978 8.15375e-18
7012.99700 7.77065e-18
7014.47440 7.23809e-18
7015.94162 8.01706e-18
7017.40884 7.47004e-18
7018.87605 8.31591e-18
7020.35346 7.95707e-18
7021.82067 7.20030e-18
7023.28789 7.30763e-18
7024.75510 7.23525e-18
7026.23251 6.70895e-18
7027.69973 6.70058e-18
7029.16694 7.12980e-18
7030.64435 7.26935e-18
7032.11156 7.13336e-18
7033.57878 7.08717e-18
7035.04599 7.24441e-18
7036.52340 7.26845e-18
7037.99062 7.81746e-18
7039.45783 7.19578e-18
7040.92505 6.40298e-18
7042.40245 7.35198e-18
7043.86967 7.22652e-18
7045.33688 7.31176e-18
7046.81429 7.28750e-18
7048.28151 7.31916e-18
7049.74872 7.28233e-18
7051.21594 7.40675e-18
7052.69334 7.36216e-18
7054.16056 6.93400e-18
7055.62777 7.22553e-18
7057.09499 7.47614e-18
7058.57240 6.73022e-18
7060.03961 6.37453e-18
7061.50683 6.91392e-18
7062.98423 7.32740e-18
7064.45145 7.16166e-18
7065.91867 6.89475e-18
7067.38588 7.68706e-18
7068.86329 7.05047e-18
7070.33050 6.83939e-18
7071.79772 7.35523e-18
7073.26493 6.78913e-18
7074.74234 7.44867e-18
7076.20955 7.49518e-18
7077.67677 7.02075e-18
7079.15418 7.52833e-18
7080.62139 7.71509e-18
7082.08861 7.88410e-18
7083.55582 8.36960e-18
7085.03323 8.40647e-18
7086.50044 8.31030e-18
7087.96766 8.37327e-18
7089.43488 7.99270e-18
7090.91228 7.85974e-18
7092.37950 7.98681e-18
7093.84671 7.40324e-18
7095.32412 7.81017e-18
7096.79133 8.34914e-18
7098.25855 8.06105e-18
7099.72577 8.38539e-18
7101.20317 8.31048e-18
7102.67039 8.55555e-18
7104.13760 9.16627e-18
7105.60482 9.12533e-18
7107.08222 8.84227e-18
7108.54944 8.34995e-18
7110.01666 8.67205e-18
7111.49406 9.43756e-18
7112.96128 9.57895e-18
7114.42849 9.45628e-18
7115.89571 9.53686e-18
7117.37311 9.89475e-18
7118.84033 9.10480e-18
7120.30755 8.73893e-18
7121.77476 8.96834e-18
7123.25217 8.47541e-18
7124.71938 9.10052e-18
7126.18660 9.86867e-18
7127.66400 1.01311e-17
7129.13122 9.80336e-18
7130.59844 9.06441e-18
7132.06565 8.57251e-18
7133.54306 9.01061e-18
7135.01027 9.05684e-18
7136.47749 8.75370e-18
7137.94471 9.20772e-18
7139.42211 9.01734e-18
7140.88933 9.39272e-18
7142.35654 9.39951e-18
7143.83395 9.15638e-18
7145.30116 9.25951e-18
7146.76838 9.38895e-18
7148.23560 9.71408e-18
7149.71300 8.51164e-18
7151.18022 8.12203e-18
7152.64743 9.54391e-18
7154.12484 9.79398e-18
7155.59205 9.21889e-18
7157.05927 8.90077e-18
7158.52649 8.73206e-18
7160.00389 8.75356e-18
7161.47111 9.10396e-18
7162.93832 8.72935e-18
7164.40554 9.36075e-18
7165.88294 8.86364e-18
7167.35016 9.14903e-18
7168.81738 9.08633e-18
7170.29478 8.06064e-18
7171.76200 8.87149e-18
7173.22921 9.47745e-18
7174.69643 8.35396e-18
7176.17383 8.07152e-18
7177.64105 8.53744e-18
7179.10827 8.55584e-18
7180.57548 8.27204e-18
7182.05289 9.11314e-18
7183.52010 9.19426e-18
7184.98732 8.81949e-18
7186.46472 8.14292e-18
7187.93194 8.19173e-18
7189.39916 8.45708e-18
7190.86637 8.46108e-18
7192.34378 8.55105e-18
7193.81099 8.07129e-18
7195.27821 8.32961e-18
7196.74542 8.96974e-18
7198.22283 8.11896e-18
7199.69005 8.43058e-18
7201.15726 8.72865e-18
7202.62448 9.16008e-18
7204.10188 8.55758e-18
7205.56910 8.62202e-18
7207.03631 8.01515e-18
7208.51372 7.26875e-18
7209.98094 8.54028e-18
7211.44815 9.07711e-18
7212.91537 9.03572e-18
7214.39277 8.56787e-18
7215.85999 7.82185e-18
7217.32720 7.89279e-18
7218.80461 8.78325e-18
7220.27183 7.67778e-18
7221.73904 7.57572e-18
7223.20626 8.57541e-18
7224.68366 7.74764e-18
7226.15088 8.69231e-18
7227.61809 8.36758e-18
7229.08531 7.92574e-18
7230.56272 8.60475e-18
7232.02993 8.07739e-18
7233.49715 7.73218e-18
7234.97455 8.33433e-18
7236.44177 8.27766e-18
7237.90898 7.85003e-18
7239.37620 9.23239e-18
7240.85361 8.14304e-18
7242.32082 6.30317e-18
7243.78804 7.10964e-18
7245.25525 8.09110e-18
7246.73266 8.86230e-18
7248.19987 7.89790e-18
7249.66709 7.94666e-18
7251.14450 7.56952e-18
7252.61171 8.04814e-18
7254.07893 6.42271e-18
7255.54614 6.81369e-18
7257.02355 7.74040e-18
7258.49076 7.02564e-18
7259.95798 7.07775e-18
7261.42520 7.83469e-18
7262.90260 7.12727e-18
7264.36982 6.79312e-18
7265.83703 7.35929e-18
7267.31444 7.43612e-18
7268.78165 7.63721e-18
7270.24887 7.89636e-18
7271.71609 7.23195e-18
7273.19349 8.66726e-18
7274.66071 8.21543e-18
7276.12792 6.29430e-18
7277.59514 6.98528e-18
7279.07254 7.41711e-18
7280.53976 6.84569e-18
7282.00698 7.56237e-18
7283.48438 8.29427e-18
7284.95160 8.52840e-18
7286.41881 7.55645e-18
7287.88603 7.63782e-18
7289.36343 7.83993e-18
7290.83065 6.88662e-18
7292.29787 6.40004e-18
7293.76508 6.34452e-18
7295.24249 7.72602e-18
7296.70970 8.21634e-18
7298.17692 6.98767e-18
7299.65432 7.34549e-18
7301.12154 7.26197e-18
7302.58876 7.51809e-18
7304.05597 8.12388e-18
7305.53338 8.26094e-18
7307.00059 7.79597e-18
7308.46781 7.31508e-18
7309.93503 7.25712e-18
7311.41243 7.76673e-18
7312.87965 8.97019e-18
7314.34686 8.63531e-18
7315.82427 8.20394e-18
7317.29148 7.34186e-18
7318.75870 8.34310e-18
7320.22592 8.76090e-18
7321.70332 7.61990e-18
7323.17054 7.44176e-18
7324.63775 6.84305e-18
7326.10497 7.48330e-18
7327.58237 8.30060e-18
7329.04959 9.32633e-18
7330.51681 7.94651e-18
7331.99421 7.67042e-18
7333.46143 6.99222e-18
7334.92864 7.32439e-18
7336.39586 7.69196e-18
7337.87326 7.36873e-18
7339.34048 7.36686e-18
7340.80770 7.20458e-18
7342.27491 7.01851e-18
7343.75232 5.85615e-18
7345.21953 7.55459e-18
7346.68675 7.83326e-18
7348.16415 8.18849e-18
7349.63137 8.35162e-18
7351.09859 7.63442e-18
7352.56580 7.75518e-18
7354.04321 8.12165e-18
7355.51042 8.70425e-18
7356.97764 8.93165e-18
7358.45504 8.48531e-18
7359.92226 8.45028e-18
7361.38948 9.11486e-18
7362.85669 8.61827e-18
7364.33410 7.92914e-18
7365.80131 8.89658e-18
7367.26853 8.64176e-18
7368.73574 8.76939e-18
7370.21315 8.44767e-18
7371.68037 9.10227e-18
7373.14758 8.02366e-18
7374.62499 7.50553e-18
7376.09220 7.73833e-18
7377.55942 8.65968e-18
7379.02663 8.77207e-18
7380.50404 7.96888e-18
7381.97126 8.98923e-18
7383.43847 8.27811e-18
7384.90569 8.63576e-18
7386.38309 8.21617e-18
7387.85031 8.03793e-18
7389.31752 8.51407e-18
7390.78474 8.02310e-18
7392.26215 7.12797e-18
7393.72936 7.06628e-18
7395.19658 8.20905e-18
7396.67398 7.81954e-18
7398.14120 8.72274e-18
7399.60841 8.24958e-18
7401.07563 7.73371e-18
7402.55304 8.91381e-18
7404.02025 8.99392e-18
7405.48747 8.71514e-18
7406.95468 7.70290e-18
7408.43209 7.48540e-18
7409.89930 6.78190e-18
7411.36652 7.96764e-18
7412.22211 7.96764e-18
7413.91970 8.40389e-18
7415.61729 8.77619e-18
7417.31488 9.41028e-18
7419.01247 1.00613e-17
7420.71005 9.72160e-18
7422.40764 8.33863e-18
7424.10523 7.40043e-18
7425.80282 7.67037e-18
7427.50041 8.42540e-18
7429.19800 9.03867e-18
7430.89558 9.32734e-18
7432.59317 9.27273e-18
7434.29076 9.18536e-18
7435.98835 9.33558e-18
7437.68594 9.69863e-18
7439.38352 1.01538e-17
7441.09116 1.05538e-17
7442.78874 1.07179e-17
7444.48633 1.02540e-17
7446.18392 9.00222e-18
7447.88151 7.88860e-18
7449.57910 7.89824e-18
7451.27669 8.68759e-18
7452.97427 9.38226e-18
7454.67186 9.39832e-18
7456.36945 8.46313e-18
7458.06704 7.10027e-18
7459.76463 6.26354e-18
7461.46221 6.18940e-18
7463.15980 6.55343e-18
7464.85739 7.21769e-18
7466.55498 8.15426e-18
7468.25257 9.08012e-18
7469.95015 9.53970e-18
7471.64774 9.40477e-18
7473.34533 8.91544e-18
7475.04292 8.44826e-18
7476.74051 8.54356e-18
7478.43809 9.15087e-18
7480.13568 9.27933e-18
7481.83327 8.61438e-18
7483.53086 8.11536e-18
7485.22845 8.33884e-18
7486.92604 8.88765e-18
7488.62362 9.38301e-18
7490.32121 9.71870e-18
7492.01880 9.78538e-18
7493.71639 9.34426e-18
7495.41398 8.39928e-18
7497.11156 7.65679e-18
7498.80915 7.69668e-18
7500.50674 8.22360e-18
7502.20433 8.76712e-18
7503.90192 9.10772e-18
7505.59950 9.18748e-18
7507.29709 9.38525e-18
7508.99468 1.00715e-17
7510.69227 1.07546e-17
7512.38986 1.06662e-17
7514.08745 9.56510e-18
7515.78503 7.65849e-18
7517.48262 5.99595e-18
7519.18021 5.96896e-18
7520.87780 7.22906e-18
7522.58543 8.10273e-18
7524.28302 8.19557e-18
7525.98061 8.28474e-18
7527.67819 8.59098e-18
7529.37578 8.81129e-18
7531.07337 8.81511e-18
7532.77096 8.62084e-18
7534.46855 8.34785e-18
7536.16614 8.27493e-18
7537.86372 8.48764e-18
7539.56131 8.73714e-18
7541.25890 8.85697e-18
7542.95649 8.88079e-18
7544.65408 8.84647e-18
7546.35166 8.78828e-18
7548.04925 8.70428e-18
7549.74684 8.45287e-18
7551.44443 8.44554e-18
7553.14202 8.43822e-18
7554.83960 8.43089e-18
7556.53719 8.42357e-18
7558.23478 8.41625e-18
7559.93237 8.40892e-18
7561.62996 8.40160e-18
7563.32754 8.39427e-18
7565.02513 8.38695e-18
7566.72272 8.37962e-18
7568.42031 8.37230e-18
7570.11790 8.36498e-18
7571.81549 8.35765e-18
7573.51307 8.35033e-18
7575.21066 8.34301e-18
7576.90825 8.33569e-18
7578.60584 8.32838e-18
7580.30343 8.32106e-18
7582.00101 8.31374e-18
7583.69860 8.30642e-18
7585.39619 8.29910e-18
7587.09378 8.29178e-18
7588.79137 8.28447e-18
7590.48895 8.27715e-18
7592.18654 8.26983e-18
7593.88413 8.26252e-18
7595.58172 8.25521e-18
7597.27931 8.24789e-18
7598.97689 8.24057e-18
7600.67448 8.23326e-18
7602.37207 8.22595e-18
7604.06966 8.21864e-18
7605.76725 8.21133e-18
7607.47488 8.20402e-18
7609.17247 8.19671e-18
7610.87006 8.18939e-18
7612.56764 8.18208e-18
7614.26523 8.17477e-18
7615.96282 8.16746e-18
7617.66041 8.16015e-18
7619.35800 8.15285e-18
7621.05559 8.14553e-18
7622.75317 8.13823e-18
7624.45076 8.13092e-18
7626.14835 8.12362e-18
7627.84594 8.11631e-18
7629.54353 8.10901e-18
7631.24111 8.10170e-18
7632.93870 8.09439e-18
7634.63629 8.08709e-18
7636.33388 8.07979e-18
7638.03147 8.07248e-18
7639.72905 8.06518e-18
7641.42664 8.05788e-18
7643.12423 8.05058e-18
7644.82182 8.04328e-18
7646.51941 8.03597e-18
7648.21699 8.02867e-18
7649.91458 8.02138e-18
7651.61217 8.01408e-18
7653.30976 8.00677e-18
7655.00735 7.99948e-18
7656.70494 7.99218e-18
7658.40252 7.98489e-18
7660.10011 7.97758e-18
7661.79770 7.97029e-18
7663.49529 7.96299e-18
7665.19288 7.95570e-18
7666.89046 7.94840e-18
7668.58805 7.94111e-18
7670.28564 7.93382e-18
7671.98323 7.92652e-18
7673.68082 7.91923e-18
7675.37840 7.91194e-18
7677.07599 7.90464e-18
7678.77358 7.89735e-18
7680.47117 7.89006e-18
7682.16876 7.88972e-18
7683.86634 7.80293e-18
7685.56393 7.65802e-18
7687.26152 7.49632e-18
7688.96915 7.41509e-18
7690.66674 7.51382e-18
7692.36433 7.72688e-18
7694.06192 7.87094e-18
7695.75951 7.85596e-18
7697.45709 7.69126e-18
7699.15468 7.44112e-18
7700.85227 7.22504e-18
7702.54986 7.21974e-18
7704.24745 7.65077e-18
7705.94504 8.40204e-18
7707.64262 8.89538e-18
7709.34021 8.89326e-18
7711.03780 8.74438e-18
7712.73539 8.60856e-18
7714.43298 8.21677e-18
7716.13056 7.54211e-18
7717.82815 7.12912e-18
7719.52574 7.21637e-18
7721.22333 7.13434e-18
7722.92092 6.53119e-18
7724.61850 6.28824e-18
7726.31609 7.04784e-18
7728.01368 8.10081e-18
7729.71127 8.67238e-18
7731.40886 8.89475e-18
7733.10644 9.04592e-18
7734.80403 8.83586e-18
7736.50162 8.01635e-18
7738.19921 7.29871e-18
7739.89680 7.52455e-18
7741.59439 8.27871e-18
7743.29197 8.65182e-18
7744.98956 8.63978e-18
7746.68715 8.72361e-18
7748.38474 8.97145e-18
7750.08233 9.19635e-18
7751.77991 9.26914e-18
7753.47750 9.10565e-18
7755.17509 8.85809e-18
7756.87268 8.89038e-18
7758.57027 9.31804e-18
7760.26785 9.98072e-18
7761.96544 1.04639e-17
7763.66303 1.00287e-17
7765.36062 8.78885e-18
7767.05821 8.14673e-18
7768.75579 8.64522e-18
7770.46343 9.26246e-18
7772.16102 9.32766e-18
7773.85860 9.04450e-18
7775.55619 8.62891e-18
7777.25378 8.15658e-18
7778.95137 7.75748e-18
7780.64896 7.70105e-18
7782.34654 8.08997e-18
7784.04413 8.55776e-18
7785.74172 8.74470e-18
7787.43931 8.60571e-18
7789.13690 8.24548e-18
7790.83448 8.02695e-18
7792.53207 8.25107e-18
7794.22966 8.47496e-18
7795.92725 8.18880e-18
7797.62484 8.08379e-18
7799.32243 9.09314e-18
7801.02001 1.05465e-17
7802.71760 1.10846e-17
7804.41519 1.05221e-17
7806.11278 9.47284e-18
7807.81037 8.58997e-18
7809.50795 8.50074e-18
7811.20554 8.96677e-18
7812.90313 8.96294e-18
7814.60072 8.47430e-18
7816.29831 8.53473e-18
7817.99589 9.20691e-18
7819.69348 9.40962e-18
7821.39107 8.91482e-18
7823.08866 8.67953e-18
7824.78625 9.01740e-18
7826.48384 9.17304e-18
7828.18142 8.79523e-18
7829.87901 8.36382e-18
7831.57660 8.12279e-18
7833.27419 7.66221e-18
7834.97178 6.86363e-18
7836.66936 6.42477e-18
7838.36695 6.82865e-18
7840.06454 7.81329e-18
7841.76213 8.88446e-18
7843.45972 9.23794e-18
7845.15730 8.40901e-18
7846.85489 7.25956e-18
7848.55248 6.81467e-18
7850.25007 7.11404e-18
7851.94766 7.82001e-18
7853.64524 8.72736e-18
7855.35288 9.62635e-18
7857.05047 1.01006e-17
7858.74805 9.78678e-18
7860.44564 8.99333e-18
7862.14323 8.38098e-18
7863.84082 8.01815e-18
7865.53841 7.56114e-18
7867.23599 7.09685e-18
7868.93358 7.01695e-18
7870.63117 7.14503e-18
7872.32876 6.81064e-18
7874.02635 6.10985e-18
7875.72393 5.96884e-18
7877.42152 6.67736e-18
7879.11911 7.72899e-18
7880.81670 8.45925e-18
7882.51429 7.92521e-18
7884.21188 6.27161e-18
7885.90946 5.59031e-18
7887.60705 6.83265e-18
7889.30464 8.44300e-18
7891.00223 9.18625e-18
7892.69982 9.07862e-18
7894.39740 8.40439e-18
7896.09499 7.76535e-18
7897.79258 7.60319e-18
7899.49017 7.56870e-18
7901.18776 7.33041e-18
7902.88534 7.28745e-18
7904.58293 7.79693e-18
7906.28052 8.47260e-18
7907.97811 8.77468e-18
7909.67570 8.40856e-18
7911.37328 7.35720e-18
7913.07087 6.31819e-18
7914.76846 6.15357e-18
7916.46605 6.89396e-18
7918.16364 8.01204e-18
7919.86123 8.64100e-18
7921.55881 7.89194e-18
7923.25640 6.31579e-18
7924.95399 5.53842e-18
7926.65158 6.06992e-18
7928.34917 7.33720e-18
7930.04675 8.62021e-18
7931.74434 9.03793e-18
7933.44193 8.51906e-18
7935.13952 8.07644e-18
7936.84715 8.05284e-18
7938.54474 7.75900e-18
7940.24233 7.08255e-18
7941.93992 6.85147e-18
7943.63750 7.45891e-18
7945.33509 8.51648e-18
7947.03268 9.46051e-18
7948.73027 9.44735e-18
7950.42786 8.18670e-18
7952.12544 6.75653e-18
7953.82303 6.09207e-18
7955.52062 6.11188e-18
7957.21821 6.52033e-18
7958.91580 7.02219e-18
7960.61338 7.38913e-18
7962.31097 7.81064e-18
7964.00856 8.45802e-18
7965.70615 8.83612e-18
7967.40374 8.41887e-18
7969.10133 7.51785e-18
7970.79891 6.75066e-18
7972.49650 6.36324e-18
7974.19409 6.35443e-18
7975.89168 6.51264e-18
7977.58927 6.50917e-18
7979.28685 6.33386e-18
7980.98444 6.21293e-18
7982.68203 6.13480e-18
7984.37962 5.91002e-18
7986.07721 5.51189e-18
7987.77479 5.06292e-18
7989.47238 4.79771e-18
7991.16997 5.06722e-18
7992.86756 5.83992e-18
7994.56515 6.58020e-18
7996.26273 6.92770e-18
7997.96032 6.82393e-18
7999.65791 6.35746e-18
8001.35550 5.86151e-18
8003.05309 5.51101e-18
8004.75068 5.06518e-18
8006.44826 4.42626e-18
8008.14585 3.93829e-18
8009.84344 3.81522e-18
8011.54103 3.78186e-18
8013.23862 3.62525e-18
8014.93620 3.58683e-18
8016.63379 3.87891e-18
8018.34143 4.30231e-18
8020.03901 4.61209e-18
8021.73660 4.84181e-18
8023.43419 5.07280e-18
8025.13178 5.16331e-18
8026.82937 4.95194e-18
8028.52695 4.59791e-18
8030.22454 4.35695e-18
8031.92213 4.10446e-18
8033.61972 3.56199e-18
8035.31731 2.90299e-18
8037.01489 2.56501e-18
8038.71248 2.59376e-18
8040.41007 2.73407e-18
8042.10766 2.95297e-18
8043.80525 3.39843e-18
8045.50283 4.06996e-18
8047.20042 4.82445e-18
8048.89801 5.41999e-18
8050.59560 5.50529e-18
8052.29319 4.97209e-18
8053.99078 4.06622e-18
8055.68836 3.07156e-18
8057.38595 2.23883e-18
8059.08354 1.87012e-18
8060.78113 2.41907e-18
8062.47872 3.81156e-18
8064.17630 4.87742e-18
8065.87389 4.83802e-18
8067.57148 4.17396e-18
8069.26907 3.48737e-18
8070.96666 3.04950e-18
8072.66424 3.02202e-18
8074.36183 3.47962e-18
8076.05942 4.30795e-18
8077.75701 4.92189e-18
8079.45460 4.80376e-18
8081.15218 4.26125e-18
8082.84977 3.82918e-18
8084.54736 3.50191e-18
8086.24495 3.08985e-18
8087.94254 2.71139e-18
8089.64013 2.60026e-18
8091.33771 2.84148e-18
8093.03530 3.39463e-18
8094.73289 4.04033e-18
8096.43048 4.44611e-18
8098.12807 4.49126e-18
8099.82565 4.26751e-18
8101.52324 3.92041e-18
8103.22083 3.64836e-18
8104.92846 3.47357e-18
8106.62605 3.18490e-18
8108.32364 2.84422e-18
8110.02123 2.88943e-18
8111.71882 3.36792e-18
8113.41640 3.75417e-18
8115.11399 3.61961e-18
8116.81158 2.67453e-18
8118.50917 1.18483e-18
8120.20676 5.58676e-19
8121.90434 1.48719e-18
8123.60193 2.72360e-18
8125.29952 3.23543e-18
8126.99711 3.33491e-18
8128.69470 3.43698e-18
8130.39228 3.53995e-18
8132.08987 3.57743e-18
8133.78746 3.49676e-18
8135.48505 3.26191e-18
8137.18264 2.86605e-18
8138.88023 2.37223e-18
8140.57781 2.11464e-18
8142.27540 2.39845e-18
8143.97299 2.91629e-18
8145.67058 3.12413e-18
8147.36817 2.88482e-18
8149.06575 2.35483e-18
8150.76334 1.88360e-18
8152.46093 1.91117e-18
8154.15852 2.41157e-18
8155.85611 2.95818e-18
8157.55369 3.38827e-18
8159.25128 3.79435e-18
8160.94887 4.13304e-18
8162.64646 4.23883e-18
8164.34405 4.14185e-18
8166.04163 4.10620e-18
8167.73922 4.16304e-18
8169.43681 4.00091e-18
8171.13440 3.45845e-18
8172.83199 2.63086e-18
8174.52958 1.70111e-18
8176.22716 9.54904e-19
8177.92475 6.36235e-19
8179.62234 9.18415e-19
8181.31993 1.71705e-18
8183.01752 2.40367e-18
8184.71510 2.49768e-18
8186.41269 2.10360e-18
8188.12032 1.54821e-18
8189.81791 1.48887e-18
8191.51550 2.31582e-18
8193.21309 3.20112e-18
8194.91068 3.19632e-18
8196.60827 2.39902e-18
8198.30585 1.35955e-18
8200.00344 7.61433e-19
8201.70103 1.15075e-18
8203.39862 1.99015e-18
8205.09621 2.27477e-18
8206.79379 2.15738e-18
8208.49138 2.47220e-18
8210.18897 3.25385e-18
8211.88656 3.96172e-18
8213.58415 4.26747e-18
8215.28173 4.02883e-18
8216.97932 3.44155e-18
8218.67691 3.06926e-18
8220.37450 3.02366e-18
8222.07209 2.84761e-18
8223.76967 2.41953e-18
8225.46726 2.09178e-18
8227.16485 1.99651e-18
8228.86244 1.89963e-18
8230.56003 1.76487e-18
8232.25762 1.95278e-18
8233.95520 2.57331e-18
8235.65279 3.17302e-18
8237.35038 3.44614e-18
8239.04797 3.59574e-18
8240.74556 3.77823e-18
8242.44314 3.80246e-18
8244.14073 3.53887e-18
8245.83832 3.19648e-18
8247.53591 2.98573e-18
8249.23350 2.90491e-18
8250.93108 2.86133e-18
8252.62867 2.57843e-18
8254.32626 1.87783e-18
8256.02385 1.31825e-18
8257.72144 1.56580e-18
8259.41903 2.29819e-18
8261.11661 2.75861e-18
8262.81420 2.67096e-18
8264.51179 2.12096e-18
8266.20938 1.56439e-18
8267.91701 1.66032e-18
8269.60455 2.31313e-18
8271.30214 2.78900e-18
8273.00977 2.78122e-18
8274.70736 2.41481e-18
8276.40495 1.92327e-18
8278.10254 1.68293e-18
8279.80013 1.83037e-18
8281.49772 2.14843e-18
8283.19530 2.50920e-18
8284.89289 2.95074e-18
8286.59048 3.40933e-18
8288.28807 3.65735e-18
8289.98566 3.60862e-18
8291.68324 3.44684e-18
8293.38083 3.33931e-18
8295.07842 3.35198e-18
8296.77601 3.48702e-18
8298.47360 3.62990e-18
8300.17118 3.66985e-18
8301.86877 3.58168e-18
8303.56636 3.37569e-18
8305.26395 3.10154e-18
8306.96154 2.80981e-18
8308.65912 2.49689e-18
8310.35671 2.15639e-18
8312.05430 1.79827e-18
8313.75189 1.47237e-18
8315.44948 1.41878e-18
8317.14707 1.86876e-18
8318.84465 2.59912e-18
8320.54224 3.16708e-18
8322.23983 3.42573e-18
8323.93742 3.45549e-18
8325.63501 3.43558e-18
8327.33259 3.60775e-18
8329.03018 3.93165e-18
8330.72777 4.10276e-18
8332.42536 3.96868e-18
8334.12295 3.54336e-18
8335.82053 3.02079e-18
8337.51812 2.82451e-18
8339.21571 2.96941e-18
8340.91330 2.86966e-18
8342.61089 2.36736e-18
8344.30847 2.01009e-18
8346.00606 2.16930e-18
8347.70365 2.87470e-18
8349.40124 3.91265e-18
8351.09883 4.62206e-18
8352.79642 4.60147e-18
8354.50405 4.17445e-18
8356.20164 3.73824e-18
8357.89922 3.52768e-18
8359.59681 3.65466e-18
8361.29440 3.99735e-18
8362.99199 4.34088e-18
8364.68958 4.40926e-18
8366.38717 4.02948e-18
8368.08475 3.43981e-18
8369.78234 2.99163e-18
8371.47993 2.73006e-18
8373.17752 2.59908e-18
8374.87511 2.83441e-18
8376.57269 3.69729e-18
8378.27028 4.85165e-18
8379.96787 5.65063e-18
8381.66546 5.95189e-18
8383.36305 5.98596e-18
8385.06063 5.80091e-18
8386.75822 5.32838e-18
8388.45581 4.49043e-18
8390.15340 3.18852e-18
8391.85099 1.96734e-18
8393.54857 2.06829e-18
8395.24616 3.56197e-18
8396.94375 4.98383e-18
8398.64134 5.46878e-18
8400.33893 5.12635e-18
8402.03652 4.31714e-18
8403.73410 3.80514e-18
8405.43169 3.93530e-18
8407.12928 4.07366e-18
8408.82687 3.80668e-18
8410.52446 3.45621e-18
8412.22204 3.32612e-18
8413.91963 3.45924e-18
8415.61722 3.80848e-18
8417.31481 4.18844e-18
8419.01240 4.43290e-18
8420.70998 4.59604e-18
8422.40757 4.75483e-18
8424.10516 4.75969e-18
8425.80275 4.49267e-18
8427.50034 4.29473e-18
8429.19792 4.54856e-18
8430.89551 4.96364e-18
8432.59310 5.01943e-18
8434.29069 4.76793e-18
8435.99832 4.56795e-18
8437.69591 4.58498e-18
8439.39350 4.82891e-18
8441.09109 5.02572e-18
8442.77863 4.71359e-18
8444.48626 4.03516e-18
8446.18385 3.68268e-18
8447.88144 3.93456e-18
8449.57903 4.61066e-18
8451.27662 5.41479e-18
8452.97420 5.90073e-18
8454.67179 5.90703e-18
8456.36938 5.72839e-18
8458.06697 5.50533e-18
8459.76456 5.07666e-18
8461.46214 4.41688e-18
8463.15973 3.72455e-18
8464.85732 3.23294e-18
8466.55491 3.23714e-18
8468.25250 3.81627e-18
8469.95008 4.58261e-18
8471.64767 5.14073e-18
8473.34526 5.27227e-18
8475.04285 4.95771e-18
8476.74044 4.62759e-18
8478.43802 4.67442e-18
8480.13561 4.95424e-18
8481.83320 5.17337e-18
8483.53079 5.13186e-18
8485.22838 4.75581e-18
8486.92597 4.35730e-18
8488.62355 4.34893e-18
8490.32114 4.67577e-18
8492.01873 5.04926e-18
8493.71632 5.47813e-18
8495.41391 6.10915e-18
8497.11149 6.77162e-18
8498.80908 7.10572e-18
8500.50667 6.97842e-18
8502.20426 6.47632e-18
8503.90185 5.93067e-18
8505.59943 5.89596e-18
8507.29702 6.44191e-18
8508.99461 7.04806e-18
8510.69220 7.42655e-18
8512.38979 7.64211e-18
8514.08737 7.63135e-18
8515.78496 7.13520e-18
8517.49260 6.18669e-18
8519.19018 5.27108e-18
8520.87773 4.80587e-18
8522.58536 5.05837e-18
8524.27290 5.92836e-18
8525.98054 6.54071e-18
8527.67812 6.32494e-18
8529.37571 5.76987e-18
8531.07330 5.42825e-18
8532.77089 5.45537e-18
8534.46848 5.80654e-18
8536.16606 6.05334e-18
8537.86365 5.82948e-18
8539.56124 5.47033e-18
8541.25883 5.43435e-18
8542.95642 5.62193e-18
8544.65401 5.73608e-18
8546.35159 5.67680e-18
8548.04918 5.46232e-18
8549.74677 5.21194e-18
8551.44436 5.10463e-18
8553.14195 5.22029e-18
8554.83953 5.54124e-18
8556.53712 6.00673e-18
8558.23471 6.51158e-18
8559.93230 6.85902e-18
8561.62989 6.79958e-18
8563.32747 6.43405e-18
8565.02506 6.24186e-18
8566.72265 6.39278e-18
8568.42024 6.64707e-18
8570.11783 6.87301e-18
8571.81542 7.10290e-18
8573.51300 7.32069e-18
8575.21059 7.46118e-18
8576.90818 7.43330e-18
8578.60577 7.06307e-18
8580.30336 6.37140e-18
8582.00094 5.80006e-18
8583.69853 5.64564e-18
8585.39612 5.71881e-18
8587.09371 5.81751e-18
8588.79130 5.94345e-18
8590.48888 6.12762e-18
8592.18647 6.44263e-18
8593.88406 6.87491e-18
8595.58165 7.03167e-18
8597.27924 6.58043e-18
8598.97682 5.81133e-18
8600.67441 5.21681e-18
8602.37200 5.08456e-18
8604.07963 5.50094e-18
8605.76718 6.09743e-18
8607.47481 6.32658e-18
8609.17240 6.26359e-18
8610.86999 6.36422e-18
8612.56757 6.62601e-18
8614.26516 6.73471e-18
8615.96275 6.60677e-18
8617.66034 6.35458e-18
8619.35793 6.34773e-18
8621.05551 7.18549e-18
8622.75310 8.80767e-18
8624.45069 1.03912e-17
8626.14828 1.11343e-17
8627.84587 1.02977e-17
8629.54346 8.03540e-18
8631.24104 5.86011e-18
8632.93863 4.78522e-18
8634.63622 4.78091e-18
8636.33381 5.45583e-18
8638.03140 5.84459e-18
8639.72898 5.45510e-18
8641.42657 5.13294e-18
8643.12416 5.53193e-18
8644.82175 6.29549e-18
8646.51934 6.93070e-18
8648.21692 7.07416e-18
8649.91451 6.58227e-18
8651.61210 5.89652e-18
8653.30969 5.54050e-18
8655.00728 5.61611e-18
8656.70486 6.02422e-18
8658.40245 6.59077e-18
8660.10004 7.10363e-18
8661.79763 7.45149e-18
8663.49522 7.59366e-18
8665.19281 7.41854e-18
8666.89039 6.83989e-18
8668.58798 6.12057e-18
8670.28557 5.72877e-18
8671.98316 5.74785e-18
8673.68075 5.92948e-18
8675.37833 6.17058e-18
8677.07592 6.49717e-18
8678.77351 6.90605e-18
8680.47110 7.38387e-18
8682.16869 7.83661e-18
8683.86627 8.07317e-18
8685.56386 7.96805e-18
8687.26145 7.48313e-18
8688.96908 6.76017e-18
8690.66667 6.21258e-18
8692.36426 6.09667e-18
8694.06185 6.34348e-18
8695.75944 6.77797e-18
8697.45702 7.10456e-18
8699.15461 7.11679e-18
8700.85220 6.85967e-18
8702.54979 6.47535e-18
8704.24738 6.18282e-18
8705.94496 6.16152e-18
8707.64255 6.48504e-18
8709.34014 7.07349e-18
8711.03773 7.41014e-18
8712.73532 7.06894e-18
8714.43291 6.56477e-18
8716.13049 6.60582e-18
8717.82808 6.98414e-18
8719.52567 7.13727e-18
8721.22326 7.00520e-18
8722.92085 6.80787e-18
8724.61843 6.79049e-18
8726.31602 7.17492e-18
8728.01361 7.68862e-18
8729.71120 7.71156e-18
8731.40879 7.29549e-18
8733.10637 7.08584e-18
8734.80396 7.26173e-18
8736.50155 7.52209e-18
8738.19914 7.65312e-18
8739.89673 7.52917e-18
8741.59431 7.15969e-18
8743.29190 6.76145e-18
8744.98949 6.48724e-18
8746.68708 6.36458e-18
8748.38467 6.35758e-18
8750.08226 6.33578e-18
8751.77984 6.21254e-18
8753.47743 5.97121e-18
8755.17502 5.74489e-18
8756.87261 6.02199e-18
8758.57020 7.02174e-18
8760.26778 8.18775e-18
8761.96537 8.93258e-18
8763.66296 9.02029e-18
8765.36055 8.45965e-18
8767.05814 7.75731e-18
8768.75572 7.37991e-18
8770.45331 6.96147e-18
8772.16095 6.01112e-18
8773.85853 4.76587e-18
8775.55612 3.77542e-18
8777.25371 3.63524e-18
8778.95130 4.73792e-18
8780.64889 6.28164e-18
8782.34647 6.87110e-18
8784.04406 6.50595e-18
8785.74165 6.19572e-18
8787.43924 6.18016e-18
8789.13683 6.08521e-18
8790.83441 5.87176e-18
8792.53200 5.75445e-18
8794.22959 5.77182e-18
8795.92718 5.80495e-18
8797.62477 5.69744e-18
8799.32236 5.22648e-18
8801.01994 4.51550e-18
8802.71753 4.22357e-18
8804.41512 4.56052e-18
8806.11271 4.92328e-18
8807.81030 4.92466e-18
8809.50788 4.70594e-18
8811.20547 4.44052e-18
8812.90306 4.27977e-18
8814.60065 4.28224e-18
8816.29824 4.24028e-18
8817.99582 4.01156e-18
8819.69341 3.77005e-18
8821.39100 3.71424e-18
8823.08859 3.90831e-18
8824.78618 4.32624e-18
8826.48376 4.80076e-18
8828.18135 5.14092e-18
8829.87894 5.26005e-18
8831.57653 5.16135e-18
8833.27412 5.00415e-18
8834.97171 4.98546e-18
8836.66929 5.04037e-18
8838.36688 4.97250e-18
8840.06447 4.85234e-18
8841.76206 4.89509e-18
8843.45965 4.96603e-18
8845.15723 4.70062e-18
8846.85482 4.15469e-18
8848.55241 3.75773e-18
8850.25000 3.78196e-18
8851.94759 4.32346e-18
8853.65522 5.23357e-18
8855.34276 6.04266e-18
8857.05040 6.60233e-18
8858.74798 7.27833e-18
8860.44557 8.05309e-18
8862.14316 8.25997e-18
8863.84075 7.63707e-18
8865.53834 6.66036e-18
8867.23592 5.81557e-18
8868.93351 5.51301e-18
8870.63110 5.81831e-18
8872.32869 5.96862e-18
8874.02628 5.48400e-18
8875.72386 5.00703e-18
8877.42145 5.17758e-18
8879.11904 6.00591e-18
8880.81663 7.21060e-18
8882.51422 8.11183e-18
8884.21181 8.13183e-18
8885.90939 7.56969e-18
8887.60698 7.00617e-18
8889.30457 6.50181e-18
8891.00216 5.96008e-18
8892.69975 5.78510e-18
8894.39733 6.46040e-18
8896.09492 7.56797e-18
8897.79251 8.19249e-18
8899.49010 8.18964e-18
8901.18769 7.99183e-18
8902.88527 7.45517e-18
8904.58286 6.03707e-18
8906.28045 4.41483e-18
8907.97804 4.36596e-18
8909.67563 5.90643e-18
8911.37321 7.05046e-18
8913.07080 6.76668e-18
8914.76839 5.30018e-18
8916.46598 3.37019e-18
8918.16357 2.45120e-18
8919.86116 2.99636e-18
8921.55874 3.50681e-18
8923.25633 3.14035e-18
8924.95392 2.67269e-18
8926.65151 2.73270e-18
8928.34910 3.32406e-18
8930.04668 4.23760e-18
8931.74427 4.90026e-18
8933.44186 4.91944e-18
8935.14949 4.63054e-18
8936.83704 4.44682e-18
8938.53462 4.41270e-18
8940.24226 4.47452e-18
8941.93985 4.54987e-18
8943.63743 4.60398e-18
8945.33502 4.99624e-18
8947.03261 6.05288e-18
8948.73020 7.17115e-18
8950.42779 7.45782e-18
8952.12537 7.07359e-18
8953.82296 6.74698e-18
8955.52055 6.50910e-18
8957.21814 5.96540e-18
8958.91573 5.17061e-18
8960.61331 4.49547e-18
8962.31090 4.14205e-18
8964.00849 4.15367e-18
8965.70608 4.44290e-18
8967.40367 4.78026e-18
8969.10125 4.89614e-18
8970.79884 4.48057e-18
8972.49643 3.73288e-18
8974.19402 3.59357e-18
8975.89161 4.35413e-18
8977.58920 5.17693e-18
8979.28678 5.53132e-18
8980.98437 5.65282e-18
8982.68196 5.63514e-18
8984.37955 5.02387e-18
8986.07714 3.83498e-18
8987.77472 3.35835e-18
8989.47231 4.39516e-18
8991.16990 5.90909e-18
8992.86749 6.83667e-18
8994.56508 7.35380e-18
8996.26266 7.81112e-18
8997.96025 7.98836e-18
8999.65784 7.62913e-18
9001.35543 6.87033e-18
9003.05302 5.98995e-18
9004.75061 5.23916e-18
9006.44819 4.78425e-18
9008.14578 4.45443e-18
9009.84337 3.93619e-18
9011.54096 3.25352e-18
9013.23855 2.66991e-18
9014.93613 2.46363e-18
9016.63372 2.88322e-18
9018.33131 3.85593e-18
9020.02890 4.99313e-18
9021.72649 5.95383e-18
9023.43412 6.49077e-18
9025.13171 6.33529e-18
9026.82930 5.20847e-18
9028.52688 3.57804e-18
9030.22447 2.88869e-18
9031.92206 3.60694e-18
9033.61965 4.61921e-18
9035.31724 5.20877e-18
9037.01482 5.54285e-18
9038.71241 5.75559e-18
9040.41000 5.83235e-18
9042.10759 5.75884e-18
9043.80518 5.46258e-18
9045.50276 4.94667e-18
9047.20035 4.46494e-18
9048.89794 4.17147e-18
9050.59553 3.72894e-18
9052.29312 2.91900e-18
9053.99070 2.29415e-18
9055.68829 2.40712e-18
9057.38588 3.06727e-18
9059.08347 3.80093e-18
9060.78106 4.18731e-18
9062.47865 3.94939e-18
9064.17623 3.16996e-18
9065.87382 2.21663e-18
9067.57141 1.91586e-18
9069.26900 3.09761e-18
9070.96659 4.86462e-18
9072.66417 5.24946e-18
9074.36176 4.20342e-18
9076.05935 3.26229e-18
9077.75694 3.06504e-18
9079.45453 3.40416e-18
9081.15211 4.05468e-18
9082.84970 4.70329e-18
9084.54729 4.92252e-18
9086.24488 4.19423e-18
9087.94247 2.78651e-18
9089.64005 2.09246e-18
9091.33764 2.77030e-18
9093.03523 4.20403e-18
9094.73282 5.66820e-18
9096.43041 6.38933e-18
9098.12800 6.10053e-18
9099.82558 5.63816e-18
9101.52317 5.70127e-18
9103.22076 6.27578e-18
9104.92839 7.10171e-18
9106.62598 7.60286e-18
9108.32357 7.37844e-18
9110.01111 6.80399e-18
9111.71875 6.36293e-18
9113.41633 6.10839e-18
9115.11392 5.92996e-18
9116.81151 5.61668e-18
9118.50910 5.01443e-18
9120.20669 4.45269e-18
9121.90427 4.39334e-18
9123.60186 4.78620e-18
9125.29945 5.27423e-18
9126.99704 5.46575e-18
9128.69463 5.03490e-18
9130.39221 4.41163e-18
9132.08980 4.55326e-18
9133.78739 5.30632e-18
9135.48498 5.54222e-18
9137.18257 5.20306e-18
9138.88015 5.31339e-18
9140.57774 6.00946e-18
9142.27533 6.40190e-18
9143.97292 6.20778e-18
9145.67051 5.94002e-18
9147.36810 5.96047e-18
9149.06568 6.42655e-18
9150.76327 7.13297e-18
9152.46086 7.19692e-18
9154.15845 6.23333e-18
9155.85604 5.03616e-18
9157.55362 4.14941e-18
9159.25121 3.05949e-18
9160.94880 1.60009e-18
9162.64639 9.53055e-19
9164.34398 1.90654e-18
9166.04156 3.57713e-18
9167.73915 4.80354e-18
9169.43674 4.81153e-18
9171.13433 3.40930e-18
9172.83192 1.97399e-18
9174.52950 2.03098e-18
9176.22709 3.16560e-18
9177.92468 4.17381e-18
9179.62227 4.54069e-18
9181.31986 4.23568e-18
9183.01745 3.89815e-18
9184.71503 4.47919e-18
9186.42267 5.72222e-18
9188.11021 6.51653e-18
9189.81784 6.48346e-18
9191.50539 5.88480e-18
9193.21302 5.33799e-18
9194.91061 5.80775e-18
9196.60820 7.07681e-18
9198.30578 7.56534e-18
9200.00337 6.83430e-18
9201.70096 5.93702e-18
9203.39855 5.54687e-18
9205.09614 5.78675e-18
9206.79372 6.38978e-18
9208.49131 6.38152e-18
9210.18890 5.42262e-18
9211.88649 4.54644e-18
9213.58408 4.43802e-18
9215.28166 4.63988e-18
9216.97925 4.81835e-18
9218.67684 5.46661e-18
9220.37443 6.72762e-18
9222.07202 7.42879e-18
9223.76960 6.65664e-18
9225.46719 5.02608e-18
9227.16478 3.52995e-18
9228.86237 2.92070e-18
9230.55996 3.54580e-18
9232.25755 4.56586e-18
9233.95513 4.89175e-18
9235.65272 4.73780e-18
9237.35031 4.90713e-18
9239.04790 5.68836e-18
9240.74549 6.99845e-18
9242.44307 8.37978e-18
9244.14066 9.12878e-18
9245.83825 8.97332e-18
9247.53584 8.06491e-18
9249.23343 6.71290e-18
9250.93101 5.38115e-18
9252.62860 4.42514e-18
9254.32619 4.01195e-18
9256.02378 4.21332e-18
9257.72137 5.00212e-18
9259.41895 5.95172e-18
9261.11654 6.11230e-18
9262.81413 5.25317e-18
9264.51172 4.30544e-18
9266.20931 3.91345e-18
9267.91694 4.09547e-18
9269.60448 4.59971e-18
9271.31212 4.66861e-18
9272.99966 3.97797e-18
9274.70729 3.40152e-18
9276.40488 3.60369e-18
9278.10247 4.22690e-18
9279.80006 4.75538e-18
9281.49764 4.77346e-18
9283.19523 4.15370e-18
9284.89282 3.68085e-18
9286.59041 4.11102e-18
9288.28800 4.87851e-18
9289.98559 5.13730e-18
9291.68317 5.28014e-18
9293.38076 6.02072e-18
9295.07835 6.63064e-18
9296.77594 5.94704e-18
9298.47353 4.95302e-18
9300.17111 5.66229e-18
9301.86870 7.41930e-18
9303.56629 7.77974e-18
9305.26388 6.56822e-18
9306.96147 5.48558e-18
9308.65905 5.16816e-18
9310.35664 5.28579e-18
9312.05423 5.38502e-18
9313.75182 4.74181e-18
9315.44941 3.81439e-18
9317.14700 4.69616e-18
9318.84458 7.63385e-18
9320.54217 1.01264e-17
9322.23976 1.04041e-17
9323.93735 8.04279e-18
9325.63494 3.75320e-18
9327.33252 2.68037e-19
9329.03011 -8.23783e-19
9330.72770 -1.08915e-18
9332.42529 -1.83236e-18
9334.12288 -2.49167e-18
9335.82046 -2.32825e-18
9337.51805 -9.13006e-19
9339.21564 1.78528e-18
9340.91323 4.88963e-18
9342.61082 7.36399e-18
9344.30840 8.70607e-18
9346.00599 8.77769e-18
9347.70358 7.70561e-18
9349.41121 5.91587e-18
9351.09876 4.36750e-18
9352.80639 4.02572e-18
9354.49393 4.75816e-18
9356.20157 5.71456e-18
9357.89915 6.19428e-18
9359.59674 5.70841e-18
9361.29433 4.49835e-18
9362.99192 3.43586e-18
9364.68951 2.68079e-18
9366.38709 1.72271e-18
9368.08468 7.16784e-19
9369.78227 4.52173e-19
9371.47986 1.29723e-18
9373.17745 3.18168e-18
9374.87504 5.24674e-18
9376.57262 5.47945e-18
9378.27021 3.58444e-18
9379.96780 2.11855e-18
9381.66539 2.57109e-18
9383.36298 4.17825e-18
9385.06056 5.94656e-18
9386.75815 6.73611e-18
9388.45574 6.17290e-18
9390.15333 5.91843e-18
9391.85092 7.08008e-18
9393.54850 8.23923e-18
9395.24609 8.11304e-18
9396.94368 7.44614e-18
9398.64127 7.21879e-18
9400.33886 7.50446e-18
9402.03644 7.96929e-18
9403.73403 7.77175e-18
9405.43162 6.23294e-18
9407.12921 4.09807e-18
9408.82680 2.70637e-18
9410.52439 2.84054e-18
9412.22197 4.67657e-18
9413.91956 7.22022e-18
9415.61715 8.78033e-18
9417.31474 8.59140e-18
9419.01233 6.79404e-18
9420.70991 4.46435e-18
9422.40750 3.45012e-18
9424.10509 3.77160e-18
9425.80268 3.51767e-18
9427.50027 2.46066e-18
9429.19785 2.35020e-18
9430.89544 3.47993e-18
9432.59303 4.21738e-18
9434.29062 4.07154e-18
9435.98821 4.33268e-18
9437.69584 5.55883e-18
9439.39343 7.00337e-18
9441.09102 7.91527e-18
9442.78860 7.61143e-18
9444.48619 6.06186e-18
9446.18378 4.64002e-18
9447.88137 4.38192e-18
9449.57896 4.96450e-18
9451.27654 5.75527e-18
9452.97413 6.09898e-18
9454.67172 5.61116e-18
9456.36931 4.67858e-18
9458.06690 3.94832e-18
9459.76449 4.11901e-18
9461.46207 5.53430e-18
9463.15966 7.18453e-18
9464.85725 7.73871e-18
9466.55484 7.31553e-18
9468.25243 6.75352e-18
9469.95001 6.32840e-18
9471.64760 5.96831e-18
9473.34519 5.45753e-18
9475.04278 4.49549e-18
9476.74037 3.17181e-18
9478.43795 1.93030e-18
9480.13554 1.65414e-18
9481.83313 3.54231e-18
9483.53072 6.84523e-18
9485.22831 8.69829e-18
9486.92589 8.22487e-18
9488.62348 7.12342e-18
9490.32107 6.39058e-18
9492.01866 5.96395e-18
9493.71625 5.68796e-18
9495.41384 5.14007e-18
9497.11142 4.33302e-18
9498.80901 4.26619e-18
9500.50660 5.32106e-18
9502.20419 6.36249e-18
9503.90178 6.60089e-18
9505.59936 6.63803e-18
9507.29695 6.93038e-18
9508.99454 6.83450e-18
9510.69213 5.84050e-18
9512.38972 4.51263e-18
9514.08730 3.51860e-18
9515.78489 2.66886e-18
9517.48248 1.74715e-18
9519.19011 1.77984e-18
9520.88770 3.70535e-18
9522.58529 6.05416e-18
9524.28288 6.65570e-18
9525.98047 5.74983e-18
9527.67805 4.90867e-18
9529.37564 4.89481e-18
9531.07323 5.84818e-18
9532.77082 7.21023e-18
9534.46841 7.85002e-18
9536.16599 7.49304e-18
9537.86358 6.70060e-18
9539.56117 5.95604e-18
9541.25876 5.66994e-18
9542.95635 5.79544e-18
9544.65394 5.69754e-18
9546.35152 5.06436e-18
9548.04911 4.05575e-18
9549.74670 2.96966e-18
9551.44429 2.23731e-18
9553.14188 2.27425e-18
9554.83946 3.59272e-18
9556.53705 5.81702e-18
9558.23464 6.68650e-18
9559.93223 5.23202e-18
9561.62982 3.95939e-18
9563.32740 4.66062e-18
9565.02499 5.90197e-18
9566.72258 6.15538e-18
9568.42017 5.43106e-18
9570.11776 4.24944e-18
9571.81534 3.45402e-18
9573.51293 3.78690e-18
9575.21052 5.25087e-18
9576.90811 7.38669e-18
9578.60570 9.41270e-18
9580.30329 1.05160e-17
9582.00087 1.04023e-17
9583.69846 9.21740e-18
9585.39605 7.39755e-18
9587.09364 5.57290e-18
9588.79123 4.31161e-18
9590.48881 4.00546e-18
9592.18640 4.33971e-18
9593.88399 4.41899e-18
9595.58158 4.37776e-18
9597.27917 5.34305e-18
9598.97675 7.04696e-18
9600.67434 7.71054e-18
9602.38198 6.94998e-18
9604.07956 6.15285e-18
9605.76711 6.01078e-18
9607.47474 6.17018e-18
9609.17233 6.27701e-18
9610.86992 5.98571e-18
9612.56750 5.21718e-18
9614.26509 4.40426e-18
9615.96268 3.95750e-18
9617.66027 4.15057e-18
9619.35786 4.93395e-18
9621.05544 5.62291e-18
9622.75303 5.62030e-18
9624.45062 4.77120e-18
9626.14821 3.34492e-18
9627.84580 2.45272e-18
9629.54339 3.02882e-18
9631.24097 4.70476e-18
9632.93856 6.60716e-18
9634.63615 7.97506e-18
9636.33374 8.27641e-18
9638.03133 7.63761e-18
9639.72891 6.59387e-18
9641.42650 5.64533e-18
9643.12409 5.18313e-18
9644.82168 5.13539e-18
9646.51927 5.10547e-18
9648.21685 5.09157e-18
9649.91444 5.37718e-18
9651.61203 6.15159e-18
9653.30962 7.52492e-18
9655.00721 8.59471e-18
9656.70479 7.44192e-18
9658.40238 4.57221e-18
9660.09997 3.37159e-18
9661.79756 5.22771e-18
9663.49515 8.76321e-18
9665.19274 1.22599e-17
9666.89032 1.35791e-17
9668.58791 1.20549e-17
9670.28550 9.74961e-18
9671.98309 8.30202e-18
9673.68068 7.88818e-18
9675.37826 8.19335e-18
9677.07585 8.27292e-18
9678.77344 7.36327e-18
9680.47103 5.40768e-18
9682.16862 2.86160e-18
9683.86620 1.08077e-18
9685.56379 1.09504e-18
9687.26138 2.28272e-18
9688.96901 3.51274e-18
9690.66660 3.90763e-18
9692.36419 3.04793e-18
9694.06178 1.90433e-18
9695.75937 1.81983e-18
9697.45695 2.50667e-18
9699.15454 2.86035e-18
9700.85213 2.57490e-18
9702.54972 1.88719e-18
9704.24731 1.31491e-18
9705.94489 1.55545e-18
9707.64248 2.49246e-18
9709.34007 3.29017e-18
9711.03766 3.56027e-18
9712.73525 3.36833e-18
9714.43283 3.03865e-18
9716.13042 3.21685e-18
9717.82801 3.95249e-18
9719.52560 4.49810e-18
9721.22319 4.40693e-18
9722.92078 3.67078e-18
9724.61836 2.65901e-18
9726.31595 2.37288e-18
9728.01354 3.20970e-18
9729.71113 4.33516e-18
9731.40872 5.03664e-18
9733.10630 5.14918e-18
9734.80389 4.79742e-18
9736.50148 4.61584e-18
9738.19907 5.03096e-18
9739.89666 5.68449e-18
9741.59424 6.04487e-18
9743.29183 5.51395e-18
9744.98942 3.91298e-18
9746.68701 2.61091e-18
9748.38460 2.94609e-18
9750.08219 3.95548e-18
9751.77977 3.99763e-18
9753.47736 2.89539e-18
9755.17495 1.35055e-18
9756.87254 6.73349e-19
9758.57013 2.19934e-18
9760.26771 4.94150e-18
9761.96530 6.39370e-18
9763.66289 5.72115e-18
9765.36048 3.57441e-18
9767.05807 1.36829e-18
9768.75565 1.21019e-18
9770.45324 3.13144e-18
9772.16088 4.82617e-18
9773.85846 5.40955e-18
9775.55605 5.78213e-18
9777.25364 6.46690e-18
9778.95123 7.51501e-18
9780.64882 8.74003e-18
9782.34640 9.55688e-18
9784.04399 9.51383e-18
9785.74158 8.40686e-18
9787.43917 6.47841e-18
9789.13676 4.80676e-18
9790.83434 4.04906e-18
9792.53193 3.63871e-18
9794.22952 3.00420e-18
9795.92711 2.07308e-18
9797.62470 1.04813e-18
9799.32228 7.53848e-19
9801.01987 1.70256e-18
9802.71746 2.74872e-18
9804.41505 2.69457e-18
9806.11264 2.26774e-18
9807.81023 2.65791e-18
9809.50781 3.76516e-18
9811.20540 4.86017e-18
9812.90299 5.08886e-18
9814.60058 3.78227e-18
9816.29817 1.83667e-18
9817.99575 1.04377e-18
9819.69334 1.57408e-18
9821.39093 2.34822e-18
9823.08852 3.02110e-18
9824.78611 3.82807e-18
9826.48369 4.48057e-18
9828.18128 4.28186e-18
9829.87887 3.47750e-18
9831.57646 3.34116e-18
9833.27405 4.35936e-18
9834.97163 5.98983e-18
9836.66922 7.48911e-18
9838.36681 7.83499e-18
9840.06440 6.77549e-18
9841.76199 5.41714e-18
9843.45958 4.58476e-18
9845.15716 4.29074e-18
9846.85475 4.37168e-18
9848.55234 4.48037e-18
9850.24993 4.36933e-18
9851.94752 4.23540e-18
9853.65515 4.21122e-18
9855.34269 3.90487e-18
9857.05033 3.06536e-18
9858.74791 2.31822e-18
9860.44550 2.25939e-18
9862.14309 2.26428e-18
9863.84068 1.64497e-18
9865.53827 1.50941e-18
9867.23585 3.20422e-18
9868.93344 5.32210e-18
9870.63103 5.58212e-18
9872.32862 5.23535e-18
9874.02621 7.15320e-18
9875.72379 1.04283e-17
9877.42138 1.17207e-17
9879.11897 9.55128e-18
9880.81656 4.13838e-18
9882.51415 -1.95420e-18
9884.21173 -4.02395e-18
9885.90932 -1.52330e-18
9887.60691 1.43456e-18
9889.30450 2.50013e-18
9891.00209 1.54218e-18
9892.69968 -3.68734e-19
9894.39726 -2.64003e-19
9896.09485 2.63430e-18
9897.79244 5.33432e-18
9899.49003 5.74177e-18
9901.18762 3.74760e-18
9902.88520 2.52896e-19
9904.58279 -2.12193e-18
9906.28038 -1.82449e-18
9907.97797 -4.30656e-19
9909.67556 4.62334e-19
9911.37314 8.52031e-19
9913.07073 1.10163e-18
9914.76832 1.61260e-18
9916.46591 2.65517e-18
9918.16350 3.95795e-18
9919.86108 5.04783e-18
9921.55867 5.49572e-18
9923.25626 5.06756e-18
9924.95385 4.08773e-18
9926.65144 3.15636e-18
9928.34903 2.80395e-18
9930.04661 3.32676e-18
9931.74420 3.97927e-18
9933.44179 3.47854e-18
9935.14942 2.16300e-18
9936.83697 1.56228e-18
9938.54460 1.90660e-18
9940.23214 2.30388e-18
9941.93978 2.27231e-18
9943.63736 1.68757e-18
9945.33495 8.57786e-19
9947.03254 6.90241e-19
9948.73013 1.07699e-18
9950.42772 4.67371e-19
9952.12530 -1.40109e-18
9953.82289 -2.78142e-18
9955.52048 -2.60981e-18
9957.21807 -1.17882e-18
9958.91566 1.06014e-18
9960.61324 3.58496e-18
9962.31083 5.95782e-18
9964.00842 8.20838e-18
9965.70601 1.01073e-17
9967.40360 1.04947e-17
9969.10118 8.71494e-18
9970.79877 5.66921e-18
9972.49636 2.69957e-18
9974.19395 1.16399e-18
9975.89154 1.83315e-18
9977.58913 3.75470e-18
9979.28671 5.39271e-18
9980.98430 5.99234e-18
9982.68189 5.34125e-18
9984.37948 3.60915e-18
9986.07707 1.35047e-18
9987.77465 -6.04085e-19
9989.47224 -1.41063e-18
9991.16983 -6.91881e-19
9992.86742 1.39608e-18
9994.56501 3.46644e-18
9996.26259 3.30491e-18
9997.96018 1.49234e-18
9999.65777 1.26870e-18
