# wavelength flux
3485.00480 1.25506e-17
3486.47202 1.11453e-17
3487.93924 1.66207e-17
3489.40645 1.12723e-17
3490.88386 1.24653e-17
3492.35107 1.73459e-17
3493.81829 1.41518e-17
3495.28550 8.49467e-18
3496.76291 1.21294e-17
3498.23013 1.16477e-17
3499.69734 1.30433e-17
3501.17475 1.89847e-17
3502.64196 1.76667e-17
3504.10918 1.59456e-17
3505.57640 1.57789e-17
3507.05380 1.44060e-17
3508.52102 1.30217e-17
3509.98823 1.33081e-17
3511.45545 1.66143e-17
3512.93285 1.53600e-17
3514.40007 1.25338e-17
3515.86728 1.52915e-17
3517.34469 1.35623e-17
3518.81191 1.32860e-17
3520.27912 1.52792e-17
3521.74634 1.49765e-17
3523.22374 1.97467e-17
3524.69096 1.75325e-17
3526.15817 1.47214e-17
3527.62539 1.98286e-17
3529.10280 2.21780e-17
3530.57001 2.09609e-17
3532.03723 1.97441e-17
3533.51463 1.85275e-17
3534.98185 1.73111e-17
3536.44906 1.60949e-17
3537.91628 1.60934e-17
3539.39369 1.72489e-17
3540.86090 1.62376e-17
3542.32812 1.64161e-17
3543.79533 1.82925e-17
3545.27274 1.61585e-17
3546.73995 1.74958e-17
3548.20717 1.46203e-17
3549.68458 1.65940e-17
3551.15179 2.06514e-17
3552.61901 2.11902e-17
3554.08622 2.02004e-17
3555.56363 1.75688e-17
3557.03084 1.93597e-17
3558.49806 1.99780e-17
3559.96528 1.91736e-17
3561.44268 2.04230e-17
3562.90990 1.86518e-17
3564.37711 1.37450e-17
3565.85452 1.41074e-17
3567.32173 1.83450e-17
3568.78895 1.79152e-17
3570.25617 1.55029e-17
3571.73357 1.76514e-17
3573.20079 1.50848e-17
3574.66800 1.23117e-17
3576.13522 1.37756e-17
3577.61262 1.78664e-17
3579.07984 1.92238e-17
3580.54706 1.79539e-17
3582.02446 1.75831e-17
3583.49168 1.64539e-17
3584.95889 1.58222e-17
3586.42611 1.26471e-17
3587.90351 1.32011e-17
3589.37073 1.58856e-17
3590.83795 1.48343e-17
3592.30516 1.45369e-17
3593.78257 1.73309e-17
3595.24978 1.54835e-17
3596.71700 1.06546e-17
3598.19440 1.10374e-17
3599.66162 1.45115e-17
3601.12884 1.46148e-17
3602.59605 1.59143e-17
3604.07346 1.66991e-17
3605.54067 1.41188e-17
3607.00789 1.44755e-17
3608.47511 1.92059e-17
3609.95251 1.84880e-17
3611.41973 1.22008e-17
3612.88694 1.24109e-17
3614.36435 1.59289e-17
3615.83156 1.64912e-17
3617.29878 1.52929e-17
3618.76600 1.32208e-17
3620.24340 1.52058e-17
3621.71062 1.25554e-17
3623.17783 1.41367e-17
3624.64505 1.83750e-17
3626.12245 1.97221e-17
3627.58967 1.64125e-17
3629.05689 1.13247e-17
3630.53429 1.34576e-17
3632.00151 1.64190e-17
3633.46872 1.70044e-17
3634.93594 1.44995e-17
3636.41334 9.75151e-18
3637.88056 1.60244e-17
3639.34778 1.63612e-17
3640.81499 1.52824e-17
3642.29240 1.58915e-17
3643.75961 1.48861e-17
3645.22683 1.65614e-17
3646.70423 1.76721e-17
3648.17145 1.68779e-17
3649.63867 1.56440e-17
3651.10588 1.62579e-17
3652.58329 1.99495e-17
3654.05050 1.97110e-17
3655.51772 1.70327e-17
3656.98493 1.74120e-17
3658.46234 1.78817e-17
3659.92956 1.95341e-17
3661.39677 1.66910e-17
3662.87418 1.66884e-17
3664.34139 1.75437e-17
3665.80861 1.52106e-17
3667.27582 1.28284e-17
3668.75323 1.25053e-17
3670.22045 1.64031e-17
3671.68766 1.90382e-17
3673.15488 1.53374e-17
3674.63228 1.43756e-17
3676.09950 1.78180e-17
3677.56671 1.71014e-17
3679.04412 1.30422e-17
3680.51134 1.16430e-17
3681.97855 1.50911e-17
3683.44577 1.41879e-17
3684.92317 1.40642e-17
3686.39039 1.67894e-17
3687.85760 1.55559e-17
3689.33501 1.40818e-17
3690.80223 1.47548e-17
3692.26944 1.55022e-17
3693.73666 1.48571e-17
3695.21406 1.64009e-17
3696.68128 1.77498e-17
3698.14849 1.94992e-17
3699.61571 1.91029e-17
3701.09312 1.79779e-17
3702.56033 1.49948e-17
3704.02755 1.42285e-17
3705.49476 1.81647e-17
3706.97217 1.57608e-17
3708.43938 1.36754e-17
3709.90660 1.66773e-17
3711.38401 1.56163e-17
3712.85122 1.47036e-17
3714.31844 1.49590e-17
3715.78565 1.58794e-17
3717.26306 1.55817e-17
3718.73027 1.52094e-17
3720.19749 1.39568e-17
3721.67490 1.36883e-17
3723.14211 1.77356e-17
3724.60933 2.01396e-17
3726.07654 1.71414e-17
3727.55395 1.48920e-17
3729.02116 1.89772e-17
3730.48838 1.59293e-17
3731.95560 9.64994e-18
3733.43300 9.89318e-18
3734.90022 1.42738e-17
3736.36743 1.56898e-17
3737.84484 1.27530e-17
3739.31205 1.20221e-17
3740.77927 1.60178e-17
3742.24649 1.51539e-17
3743.72389 1.05445e-17
3745.19111 1.19648e-17
3746.65832 1.30545e-17
3748.12554 1.26232e-17
3749.60295 1.47413e-17
3751.07016 1.48801e-17
3752.53738 1.48847e-17
3754.01478 1.60318e-17
3755.48200 1.33925e-17
3756.94921 1.36931e-17
3758.41643 1.55903e-17
3759.89383 1.29532e-17
3761.36105 1.30511e-17
3762.82827 1.73233e-17
3764.29548 1.76210e-17
3765.77289 1.36976e-17
3767.24010 1.31922e-17
3768.70732 1.51820e-17
3770.18472 1.42396e-17
3771.65194 1.32315e-17
3773.11916 1.51816e-17
3774.58637 1.61124e-17
3776.06378 1.67327e-17
3777.53099 1.88545e-17
3778.99821 1.92137e-17
3780.46543 1.69124e-17
3781.94283 1.60831e-17
3783.41005 1.63024e-17
3784.87726 1.61717e-17
3786.35467 1.71927e-17
3787.82188 1.83640e-17
3789.28910 1.90576e-17
3790.75632 1.93546e-17
3792.23372 2.03160e-17
3793.70094 1.93212e-17
3795.16815 1.75371e-17
3796.63537 1.44997e-17
3798.11277 1.45415e-17
3799.57999 1.77453e-17
3801.04721 1.63442e-17
3802.52461 1.69228e-17
3803.99183 1.61568e-17
3805.45904 1.48629e-17
3806.92626 1.75781e-17
3808.40366 1.60406e-17
3809.87088 1.48356e-17
3811.33810 1.59093e-17
3812.80531 1.61321e-17
3814.28272 1.50847e-17
3815.74993 1.45247e-17
3817.21715 1.60964e-17
3818.69455 1.50678e-17
3820.16177 1.41812e-17
3821.62899 1.39730e-17
3823.09620 1.40945e-17
3824.57361 1.28447e-17
3826.04082 1.19724e-17
3827.50804 1.34867e-17
3828.97525 1.43149e-17
3830.45266 1.40907e-17
3831.91988 1.36058e-17
3833.38709 1.27216e-17
3834.86450 1.23286e-17
3836.33171 1.10499e-17
3837.79893 1.00331e-17
3839.26615 9.64168e-18
3840.74355 1.15577e-17
3842.21077 1.19823e-17
3843.67798 1.05687e-17
3845.14520 1.14154e-17
3846.62260 1.12534e-17
3848.08982 8.99817e-18
3849.55703 7.58086e-18
3851.03444 7.95179e-18
3852.50166 8.27893e-18
3853.96887 6.91778e-18
3855.43609 7.05768e-18
3856.91349 7.90229e-18
3858.38071 8.34704e-18
3859.84792 9.30912e-18
3861.31514 8.88903e-18
3862.79255 9.27293e-18
3864.25976 9.36601e-18
3865.72698 8.34760e-18
3867.20438 8.33611e-18
3868.67160 8.00387e-18
3870.13881 8.09372e-18
3871.60603 7.64854e-18
3873.08344 6.55266e-18
3874.55065 7.81015e-18
3876.01787 7.76789e-18
3877.48508 6.37869e-18
3878.96249 5.11289e-18
3880.42970 6.69184e-18
3881.89692 6.62698e-18
3883.37433 6.13226e-18
3884.84154 9.42812e-18
3886.30876 7.99989e-18
3887.77597 6.84252e-18
3889.25338 7.50048e-18
3890.72059 6.11235e-18
3892.18781 6.57678e-18
3893.65503 7.82470e-18
3895.13243 8.84519e-18
3896.59965 7.32934e-18
3898.06686 7.28174e-18
3899.54427 7.08384e-18
3901.01148 7.43117e-18
3902.47870 7.93970e-18
3903.94592 8.30622e-18
3905.42332 7.84385e-18
3906.89054 5.94684e-18
3908.35775 5.52819e-18
3909.82497 7.04218e-18
3911.30237 9.79567e-18
3912.76959 1.12340e-17
3914.23681 8.92029e-18
3915.71421 7.85889e-18
3917.18143 7.29792e-18
3918.64864 8.73111e-18
3920.11586 1.00863e-17
3921.59326 1.01220e-17
3923.06048 9.59522e-18
3924.52770 1.00940e-17
3925.99491 1.03937e-17
3927.47232 1.12174e-17
3928.93953 9.33868e-18
3930.40675 8.72749e-18
3931.88415 9.34838e-18
3933.35137 8.59840e-18
3934.81859 9.65762e-18
3936.28580 1.01579e-17
3937.76321 1.22884e-17
3939.23042 1.25955e-17
3940.69764 1.15582e-17
3942.16486 1.17393e-17
3943.64226 1.21083e-17
3945.10948 1.13939e-17
3946.57669 1.17362e-17
3948.05410 1.28357e-17
3949.52131 1.57294e-17
3950.98853 1.64855e-17
3952.45575 1.60414e-17
3953.93315 1.75565e-17
3955.40037 1.78673e-17
3956.86758 1.38766e-17
3958.34499 1.39715e-17
3959.81220 1.64026e-17
3961.27942 1.46934e-17
3962.74664 1.57706e-17
3964.22404 1.67780e-17
3965.69126 1.60143e-17
3967.15847 1.46283e-17
3968.62569 1.45851e-17
3970.10309 1.61509e-17
3971.57031 1.59995e-17
3973.03753 1.63906e-17
3974.50474 1.72344e-17
3975.98215 1.65440e-17
3977.44936 1.49486e-17
3978.91658 1.49905e-17
3980.39398 1.73398e-17
3981.86120 1.92815e-17
3983.32842 1.83242e-17
3984.79563 1.58675e-17
3986.27304 1.72581e-17
3987.74025 1.98743e-17
3989.20747 1.93564e-17
3990.68487 1.88764e-17
3992.15209 1.97813e-17
3993.61931 1.92987e-17
3995.08652 1.98402e-17
3996.56393 2.06642e-17
3998.03114 2.06047e-17
3999.49836 2.01375e-17
4000.96557 1.79493e-17
4002.44298 1.61471e-17
4003.91020 1.68155e-17
4005.37741 1.84664e-17
4006.85482 1.87807e-17
4008.32203 1.96886e-17
4009.78925 2.04951e-17
4011.25646 2.02347e-17
4012.73387 1.91803e-17
4014.20109 1.72592e-17
4015.66830 1.76355e-17
4017.13552 1.88949e-17
4018.61292 1.91552e-17
4020.08014 1.94904e-17
4021.54735 1.91995e-17
4023.02476 2.06364e-17
4024.49198 2.12820e-17
4025.95919 2.11524e-17
4027.42641 2.08103e-17
4028.90381 2.13093e-17
4030.37103 1.90163e-17
4031.83824 1.88876e-17
4033.30546 1.90844e-17
4034.78287 2.07240e-17
4036.25008 2.09119e-17
4037.71730 2.03132e-17
4039.19470 2.10547e-17
4040.66192 2.13672e-17
4042.12913 2.03001e-17
4043.59635 2.03681e-17
4045.07376 2.13969e-17
4046.54097 2.31372e-17
4048.00819 2.11702e-17
4049.47540 2.08901e-17
4050.95281 2.13406e-17
4052.42002 2.02519e-17
4053.88724 2.09596e-17
4055.36465 2.19031e-17
4056.83186 2.12073e-17
4058.29908 2.18338e-17
4059.76629 2.03074e-17
4061.24370 1.97525e-17
4062.71091 1.93357e-17
4064.17813 2.15903e-17
4065.64535 2.24764e-17
4067.12275 2.09740e-17
4068.58997 2.10025e-17
4070.05718 2.07130e-17
4071.53459 2.00419e-17
4073.00180 2.15474e-17
4074.46902 2.21722e-17
4075.93624 2.03474e-17
4077.41364 2.00916e-17
4078.88086 2.11326e-17
4080.34807 2.25471e-17
4081.81529 2.17086e-17
4083.29269 2.07926e-17
4084.75991 1.90764e-17
4086.22713 1.94856e-17
4087.70453 2.01840e-17
4089.17175 1.99262e-17
4090.63896 2.04486e-17
4092.10618 2.00525e-17
4093.58358 2.06533e-17
4095.05080 2.04826e-17
4096.51802 1.96055e-17
4097.98523 2.01956e-17
4099.46264 2.05894e-17
4100.92985 2.10720e-17
4102.39707 2.09002e-17
4103.87447 2.06961e-17
4105.34169 1.99963e-17
4106.80891 1.84578e-17
4108.27612 1.87544e-17
4109.75353 1.88103e-17
4111.22074 1.77295e-17
4112.68796 1.76685e-17
4114.15518 1.89892e-17
4115.63258 1.96635e-17
4117.09980 1.81434e-17
4118.56701 1.75433e-17
4120.04442 1.84543e-17
4121.51163 1.89914e-17
4122.97885 1.86317e-17
4124.44607 1.79691e-17
4125.92347 1.80437e-17
4127.39069 1.81964e-17
4128.85790 1.81004e-17
4130.32512 1.82014e-17
4131.80252 1.81808e-17
4133.26974 1.78225e-17
4134.73696 1.61062e-17
4136.21436 1.48625e-17
4137.68158 1.66209e-17
4139.14879 1.81519e-17
4140.61601 1.64214e-17
4142.09341 1.49951e-17
4143.56063 1.60267e-17
4145.02785 1.67489e-17
4146.49506 1.65375e-17
4147.97247 1.68820e-17
4149.43968 1.70378e-17
4150.90690 1.73021e-17
4152.38430 1.76332e-17
4153.85152 1.71748e-17
4155.31874 1.61027e-17
4156.78595 1.47461e-17
4158.26336 1.57918e-17
4159.73057 1.65838e-17
4161.19779 1.56646e-17
4162.66500 1.53654e-17
4164.14241 1.44261e-17
4165.60963 1.51615e-17
4167.07684 1.64546e-17
4168.55425 1.56070e-17
4170.02146 1.53486e-17
4171.48868 1.65075e-17
4172.95590 1.68380e-17
4174.43330 1.64064e-17
4175.90052 1.43949e-17
4177.36773 1.45524e-17
4178.83495 1.51342e-17
4180.31235 1.56868e-17
4181.77957 1.56338e-17
4183.24678 1.48330e-17
4184.72419 1.45655e-17
4186.19141 1.59915e-17
4187.65862 1.71297e-17
4189.12584 1.61696e-17
4190.60324 1.60541e-17
4192.07046 1.61599e-17
4193.53767 1.44847e-17
4195.00489 1.45792e-17
4196.48230 1.61354e-17
4197.94951 1.53981e-17
4199.41673 1.48556e-17
4200.89413 1.51480e-17
4202.36135 1.50783e-17
4203.82856 1.54301e-17
4205.29578 1.51675e-17
4206.77319 1.59688e-17
4208.24040 1.69490e-17
4209.70762 1.55716e-17
4211.17483 1.53982e-17
4212.65224 1.58268e-17
4214.11945 1.48853e-17
4215.58667 1.45333e-17
4217.06408 1.41972e-17
4218.53129 1.32334e-17
4219.99851 1.36713e-17
4221.46572 1.55097e-17
4222.94313 1.55739e-17
4224.41035 1.36633e-17
4225.87756 1.38395e-17
4227.35497 1.45354e-17
4228.82218 1.37487e-17
4230.28940 1.47579e-17
4231.75661 1.53119e-17
4233.23402 1.54868e-17
4234.70123 1.51598e-17
4236.16845 1.27667e-17
4237.63567 1.32035e-17
4239.11307 1.58773e-17
4240.58029 1.67099e-17
4242.04750 1.55326e-17
4243.52491 1.39012e-17
4244.99212 1.34828e-17
4246.45934 1.46294e-17
4247.92656 1.60339e-17
4249.40396 1.62560e-17
4250.87118 1.57965e-17
4252.33839 1.51200e-17
4253.80561 1.57678e-17
4255.28301 1.56326e-17
4256.75023 1.64300e-17
4258.21745 1.60027e-17
4259.68466 1.52792e-17
4261.16207 1.63835e-17
4262.62928 1.65681e-17
4264.09650 1.58385e-17
4265.57390 1.59574e-17
4267.04112 1.65066e-17
4268.50834 1.55129e-17
4269.97555 1.40509e-17
4271.45296 1.45110e-17
4272.92017 1.52492e-17
4274.38739 1.60593e-17
4275.85461 1.55743e-17
4277.33201 1.49198e-17
4278.79923 1.63993e-17
4280.26644 1.67362e-17
4281.74385 1.61327e-17
4283.21106 1.55795e-17
4284.67828 1.53210e-17
4286.14550 1.54584e-17
4287.62290 1.54180e-17
4289.09012 1.47206e-17
4290.55733 1.44246e-17
4292.03474 1.56426e-17
4293.50195 1.53068e-17
4294.96917 1.46775e-17
4296.43639 1.54761e-17
4297.91379 1.58725e-17
4299.38101 1.51229e-17
4300.84822 1.41403e-17
4302.31544 1.47725e-17
4303.79284 1.57938e-17
4305.26006 1.54137e-17
4306.72728 1.49902e-17
4308.20468 1.56822e-17
4309.67190 1.52553e-17
4311.13911 1.47015e-17
4312.60633 1.51168e-17
4314.08373 1.37316e-17
4315.55095 1.33303e-17
4317.01817 1.50588e-17
4318.48538 1.57164e-17
4319.96279 1.52687e-17
4321.43000 1.53493e-17
4322.89722 1.54814e-17
4324.37462 1.49761e-17
4325.84184 1.51559e-17
4327.30906 1.53896e-17
4328.77627 1.52505e-17
4330.25368 1.51759e-17
4331.72089 1.53260e-17
4333.18811 1.56085e-17
4334.65532 1.63577e-17
4336.13273 1.57462e-17
4337.59995 1.49407e-17
4339.06716 1.48917e-17
4340.54457 1.44549e-17
4342.01178 1.45919e-17
4343.47900 1.54730e-17
4344.94621 1.54724e-17
4346.42362 1.47657e-17
4347.89084 1.44814e-17
4349.35805 1.51260e-17
4350.82527 1.56330e-17
4352.30267 1.53349e-17
4353.76989 1.55720e-17
4355.23710 1.62958e-17
4356.71451 1.46962e-17
4358.18173 1.38153e-17
4359.64894 1.54176e-17
4361.11616 1.48396e-17
4362.59356 1.44288e-17
4364.06078 1.47128e-17
4365.52799 1.43203e-17
4366.99521 1.37348e-17
4368.47262 1.42658e-17
4369.93983 1.59932e-17
4371.40705 1.62392e-17
4372.88445 1.50242e-17
4374.35167 1.46784e-17
4375.81888 1.41378e-17
4377.28610 1.34080e-17
4378.76351 1.46509e-17
4380.23072 1.46295e-17
4381.69794 1.35105e-17
4383.16515 1.42463e-17
4384.64256 1.48835e-17
4386.10977 1.50008e-17
4387.57699 1.49622e-17
4389.05440 1.41258e-17
4390.52161 1.37965e-17
4391.98883 1.49050e-17
4393.45604 1.56438e-17
4394.93345 1.53288e-17
4396.40067 1.47212e-17
4397.86788 1.57121e-17
4399.33510 1.55185e-17
4400.81250 1.46915e-17
4402.27972 1.49272e-17
4403.74693 1.50560e-17
4405.22434 1.43908e-17
4406.69155 1.35179e-17
4408.15877 1.33522e-17
4409.62599 1.33657e-17
4411.10339 1.36813e-17
4412.57061 1.52360e-17
4414.03782 1.52408e-17
4415.50504 1.35331e-17
4416.98244 1.36164e-17
4418.44966 1.40978e-17
4419.91688 1.39595e-17
4421.39428 1.41815e-17
4422.86150 1.45046e-17
4424.32871 1.45102e-17
4425.79593 1.45192e-17
4427.27333 1.43620e-17
4428.74055 1.34220e-17
4430.20777 1.32793e-17
4431.68517 1.27629e-17
4433.15239 1.22469e-17
4434.61960 1.27777e-17
4436.08682 1.32550e-17
4437.56423 1.33730e-17
4439.03144 1.37773e-17
4440.49866 1.38224e-17
4441.96587 1.27831e-17
4443.44328 1.22723e-17
4444.91049 1.23355e-17
4446.37771 1.25074e-17
4447.84493 1.22393e-17
4449.32233 1.15754e-17
4450.78955 1.08751e-17
4452.25676 1.12047e-17
4453.73417 1.13921e-17
4455.20138 1.21584e-17
4456.66860 1.19698e-17
4458.13582 1.16549e-17
4459.61322 1.16678e-17
4461.08044 1.14424e-17
4462.54765 1.15315e-17
4464.01487 1.14462e-17
4465.49227 1.10893e-17
4466.95949 1.06018e-17
4468.42671 1.07326e-17
4469.90411 1.12821e-17
4471.37133 1.08089e-17
4472.83854 1.00006e-17
4474.30576 1.05985e-17
4475.78316 1.17448e-17
4477.25038 1.10929e-17
4478.71760 1.07977e-17
4480.18481 1.14687e-17
4481.66222 1.08539e-17
4483.12943 1.03119e-17
4484.59665 1.08879e-17
4486.07405 1.09526e-17
4487.54127 1.20196e-17
4489.00849 1.23516e-17
4490.47570 1.11138e-17
4491.95311 1.05404e-17
4493.42032 1.10578e-17
4494.88754 1.14266e-17
4496.36494 1.15759e-17
4497.83216 1.08021e-17
4499.29938 1.07718e-17
4500.76659 1.14035e-17
4502.24400 1.12549e-17
4503.71121 1.08777e-17
4505.17843 1.07035e-17
4506.64564 1.16190e-17
4508.12305 1.23930e-17
4509.59027 1.17935e-17
4511.05748 1.18496e-17
4512.52470 1.15788e-17
4514.00210 1.25727e-17
4515.46932 1.22999e-17
4516.93653 1.03259e-17
4518.41394 1.09508e-17
4519.88116 1.16893e-17
4521.34837 1.17107e-17
4522.81559 1.21126e-17
4524.29299 1.17609e-17
4525.76021 1.07897e-17
4527.22743 1.02120e-17
4528.70483 1.09299e-17
4530.17205 1.22277e-17
4531.63926 1.27942e-17
4533.10648 1.28024e-17
4534.58388 1.22838e-17
4536.05110 1.15874e-17
4537.51832 1.17577e-17
4538.98553 1.21217e-17
4540.46294 1.18551e-17
4541.93015 1.10540e-17
4543.39737 1.14136e-17
4544.87477 1.22460e-17
4546.34199 1.17059e-17
4547.80920 1.12353e-17
4549.27642 1.11174e-17
4550.75383 1.18113e-17
4552.22104 1.22872e-17
4553.68826 1.13562e-17
4555.15547 1.12221e-17
4556.63288 1.23462e-17
4558.10009 1.31149e-17
4559.56731 1.34728e-17
4561.04472 1.33443e-17
4562.51193 1.31629e-17
4563.97915 1.20287e-17
4565.44636 1.15897e-17
4566.92377 1.26216e-17
4568.39098 1.32893e-17
4569.85820 1.30196e-17
4571.32542 1.30157e-17
4572.80282 1.32998e-17
4574.27004 1.28715e-17
4575.73725 1.21285e-17
4577.21466 1.26869e-17
4578.68187 1.34063e-17
4580.14909 1.39270e-17
4581.61631 1.34190e-17
4583.09371 1.24152e-17
4584.56093 1.32295e-17
4586.02814 1.36251e-17
4587.49536 1.33920e-17
4588.97277 1.40018e-17
4590.43998 1.38866e-17
4591.90720 1.34009e-17
4593.38460 1.38763e-17
4594.85182 1.39101e-17
4596.31903 1.36392e-17
4597.78625 1.42277e-17
4599.26365 1.45179e-17
4600.73087 1.47375e-17
4602.19809 1.43936e-17
4603.66530 1.46444e-17
4605.14271 1.54216e-17
4606.60992 1.53714e-17
4608.07714 1.54316e-17
4609.55454 1.54108e-17
4611.02176 1.56829e-17
4612.48898 1.55817e-17
4613.95619 1.46927e-17
4615.43360 1.52047e-17
4616.90081 1.66573e-17
4618.36803 1.59226e-17
4619.83525 1.54000e-17
4621.31265 1.55427e-17
4622.77987 1.44332e-17
4624.24708 1.54574e-17
4625.72449 1.66025e-17
4627.19170 1.60548e-17
4628.65892 1.63944e-17
4630.12614 1.61082e-17
4631.60354 1.51559e-17
4633.07076 1.51906e-17
4634.53797 1.62208e-17
4636.00519 1.60200e-17
4637.48259 1.50413e-17
4638.94981 1.59554e-17
4640.41703 1.67376e-17
4641.89443 1.61100e-17
4643.36165 1.56700e-17
4644.82886 1.56737e-17
4646.29608 1.60184e-17
4647.77348 1.62018e-17
4649.24070 1.58250e-17
4650.70792 1.60187e-17
4652.17513 1.62203e-17
4653.65254 1.63171e-17
4655.11975 1.73504e-17
4656.58697 1.76723e-17
4658.06437 1.61554e-17
4659.53159 1.62993e-17
4660.99881 1.76720e-17
4662.46602 1.70642e-17
4663.94343 1.58002e-17
4665.41064 1.58653e-17
4666.87786 1.73304e-17
4668.34507 1.74740e-17
4669.82248 1.66979e-17
4671.28970 1.72698e-17
4672.75691 1.75859e-17
4674.23432 1.63507e-17
4675.70153 1.54965e-17
4677.16875 1.58952e-17
4678.63597 1.67413e-17
4680.11337 1.70051e-17
4681.58059 1.62352e-17
4683.04780 1.64208e-17
4684.51502 1.65364e-17
4685.99242 1.64210e-17
4687.45964 1.66735e-17
4688.92685 1.63721e-17
4690.40426 1.66816e-17
4691.87148 1.73701e-17
4693.33869 1.70786e-17
4694.80591 1.61321e-17
4696.28331 1.64182e-17
4697.75053 1.67634e-17
4699.21774 1.64797e-17
4700.68496 1.68070e-17
4702.16237 1.66177e-17
4703.62958 1.71096e-17
4705.09680 1.77221e-17
4706.57420 1.66215e-17
4708.04142 1.57602e-17
4709.50863 1.62889e-17
4710.97585 1.65755e-17
4712.45326 1.63346e-17
4713.92047 1.72241e-17
4715.38769 1.73588e-17
4716.85490 1.64674e-17
4718.33231 1.74486e-17
4719.79952 1.83828e-17
4721.26674 1.74237e-17
4722.74415 1.63081e-17
4724.21136 1.59837e-17
4725.67858 1.72474e-17
4727.14579 1.78164e-17
4728.62320 1.69879e-17
4730.09041 1.68482e-17
4731.55763 1.69865e-17
4733.02485 1.69083e-17
4734.50225 1.67612e-17
4735.96947 1.72918e-17
4737.43668 1.76170e-17
4738.91409 1.68684e-17
4740.38130 1.65044e-17
4741.84852 1.68497e-17
4743.31574 1.65867e-17
4744.79314 1.69145e-17
4746.26036 1.77121e-17
4747.72757 1.77775e-17
4749.19479 1.73005e-17
4750.67220 1.63890e-17
4752.13941 1.70206e-17
4753.60663 1.80337e-17
4755.08403 1.70319e-17
4756.55125 1.64396e-17
4758.01846 1.72400e-17
4759.48568 1.70908e-17
4760.96308 1.67679e-17
4762.43030 1.68036e-17
4763.89752 1.65191e-17
4765.37492 1.66432e-17
4766.84214 1.65380e-17
4768.30935 1.61437e-17
4769.77657 1.59396e-17
4771.25397 1.59650e-17
4772.72119 1.61712e-17
4774.18841 1.67438e-17
4775.65562 1.70855e-17
4777.13303 1.67888e-17
4778.60024 1.57722e-17
4780.06746 1.55942e-17
4781.54486 1.64040e-17
4783.01208 1.64051e-17
4784.47930 1.58941e-17
4785.94651 1.60074e-17
4787.42392 1.65436e-17
4788.89113 1.65264e-17
4790.35835 1.59794e-17
4791.82557 1.61634e-17
4793.30297 1.70642e-17
4794.77019 1.63634e-17
4796.23740 1.56645e-17
4797.70462 1.53109e-17
4799.18202 1.51868e-17
4800.64924 1.58448e-17
4802.11646 1.57032e-17
4803.59386 1.56673e-17
4805.06108 1.57954e-17
4806.52829 1.58453e-17
4807.99551 1.56445e-17
4809.47291 1.55187e-17
4810.94013 1.55105e-17
4812.40735 1.54625e-17
4813.87456 1.58088e-17
4815.35197 1.54810e-17
4816.81918 1.52412e-17
4818.28640 1.51225e-17
4819.76380 1.50624e-17
4821.23102 1.57484e-17
4822.69824 1.54645e-17
4824.16545 1.43529e-17
4825.64286 1.45776e-17
4827.11007 1.53149e-17
4828.57729 1.52670e-17
4830.05469 1.48788e-17
4831.52191 1.38694e-17
4832.98913 1.40290e-17
4834.45634 1.48317e-17
4835.93375 1.49279e-17
4837.40096 1.49034e-17
4838.86818 1.44587e-17
4840.33540 1.40232e-17
4841.81280 1.40372e-17
4843.28002 1.37686e-17
4844.74723 1.34554e-17
4846.22464 1.37299e-17
4847.69185 1.34667e-17
4849.15907 1.31805e-17
4850.62628 1.30968e-17
4852.10369 1.32417e-17
4853.57091 1.36177e-17
4855.03812 1.31857e-17
4856.50534 1.23228e-17
4857.98274 1.16298e-17
4859.44996 1.17741e-17
4860.91717 1.19963e-17
4862.39458 1.18689e-17
4863.86180 1.24595e-17
4865.32901 1.27283e-17
4866.79623 1.26353e-17
4868.27363 1.23542e-17
4869.74085 1.19437e-17
4871.20806 1.23441e-17
4872.67528 1.20737e-17
4874.15269 1.12176e-17
4875.61990 1.09520e-17
4877.08712 1.08527e-17
4878.56452 1.15529e-17
4880.03174 1.20626e-17
4881.49895 1.12660e-17
4882.96617 1.11717e-17
4884.44358 1.14449e-17
4885.91079 1.08522e-17
4887.37801 1.11582e-17
4888.84522 1.17574e-17
4890.32263 1.11550e-17
4891.78984 1.10262e-17
4893.25706 1.07446e-17
4894.73447 9.71978e-18
4896.20168 9.51604e-18
4897.66890 9.66840e-18
4899.13611 9.53290e-18
4900.61352 9.81613e-18
4902.08073 1.04613e-17
4903.54795 1.08093e-17
4905.01517 1.01807e-17
4906.49257 9.45684e-18
4907.95979 9.57349e-18
4909.42700 1.01596e-17
4910.90441 1.07881e-17
4912.37162 1.07589e-17
4913.83884 1.02744e-17
4915.30606 9.89940e-18
4916.78346 1.04801e-17
4918.25068 1.06253e-17
4919.71789 9.91918e-18
4921.18511 9.50597e-18
4922.66251 9.47329e-18
4924.12973 9.72288e-18
4925.59695 1.00400e-17
4927.07435 1.04103e-17
4928.54157 1.02549e-17
4930.00878 1.03584e-17
4931.47600 1.09408e-17
4932.95340 1.12814e-17
4934.42062 1.14096e-17
4935.88784 1.13234e-17
4937.35505 1.08793e-17
4938.83246 1.07024e-17
4940.29967 1.07947e-17
4941.76689 1.05653e-17
4943.24429 1.02333e-17
4944.71151 1.01525e-17
4946.17873 1.08075e-17
4947.64594 1.06160e-17
4949.12335 1.04103e-17
4950.59056 1.07422e-17
4952.05778 1.06181e-17
4953.52500 1.00567e-17
4955.00240 1.00893e-17
4956.46962 1.04637e-17
4957.93683 1.02185e-17
4959.41424 1.06021e-17
4960.88145 1.07635e-17
4962.34867 1.02565e-17
4963.81589 1.01480e-17
4965.29329 1.03046e-17
4966.76051 9.91227e-18
4968.22772 8.99697e-18
4969.70513 8.97714e-18
4971.17234 1.00379e-17
4972.63956 9.97959e-18
4974.10678 9.24701e-18
4975.58418 9.55933e-18
4977.05140 1.00476e-17
4978.51861 9.92051e-18
4979.98583 9.75553e-18
4981.46323 9.98862e-18
4982.93045 1.01607e-17
4984.39767 9.90445e-18
4985.86488 9.50105e-18
4987.34229 9.70320e-18
4988.80950 1.02881e-17
4990.27672 9.86364e-18
4991.75412 9.22128e-18
4993.22134 9.33315e-18
4994.68856 9.82439e-18
4996.15577 1.00247e-17
4997.63318 9.95805e-18
4999.10039 9.88883e-18
5000.56761 9.79321e-18
5002.03482 1.00169e-17
5003.51223 9.93642e-18
5004.97945 9.82607e-18
5006.44666 1.03495e-17
5007.92407 1.10700e-17
5009.39128 1.09658e-17
5010.85850 1.03785e-17
5012.32571 1.03174e-17
5013.80312 1.02781e-17
5015.27034 1.02115e-17
5016.73755 1.02942e-17
5018.20477 1.02524e-17
5019.68217 1.07118e-17
5021.14939 1.14965e-17
5022.61660 1.13289e-17
5024.09401 1.10203e-17
5025.56123 1.14789e-17
5027.02844 1.13870e-17
5028.49566 1.10378e-17
5029.97306 1.13954e-17
5031.44028 1.19406e-17
5032.90749 1.19146e-17
5034.38490 1.17234e-17
5035.85212 1.23551e-17
5037.31933 1.21677e-17
5038.78655 1.18178e-17
5040.26395 1.20343e-17
5041.73117 1.21861e-17
5043.19838 1.27190e-17
5044.66560 1.27140e-17
5046.14301 1.27937e-17
5047.61022 1.29895e-17
5049.07744 1.34170e-17
5050.54465 1.37934e-17
5052.02206 1.36765e-17
5053.48927 1.36533e-17
5054.95649 1.33147e-17
5056.43390 1.28486e-17
5057.90111 1.31010e-17
5059.36833 1.35319e-17
5060.83554 1.33929e-17
5062.31295 1.45985e-17
5063.78017 1.52952e-17
5065.24738 1.41661e-17
5066.72479 1.37959e-17
5068.19200 1.43238e-17
5069.65922 1.41932e-17
5071.12643 1.35137e-17
5072.60384 1.37892e-17
5074.07105 1.38621e-17
5075.53827 1.33890e-17
5077.00549 1.35784e-17
5078.48289 1.38815e-17
5079.95011 1.41025e-17
5081.41732 1.43987e-17
5082.89473 1.38361e-17
5084.36194 1.34496e-17
5085.82916 1.37536e-17
5087.29638 1.41867e-17
5088.77378 1.43399e-17
5090.24100 1.38829e-17
5091.70821 1.41132e-17
5093.17543 1.39044e-17
5094.65283 1.32561e-17
5096.12005 1.32235e-17
5097.58727 1.29094e-17
5099.06467 1.27974e-17
5100.53189 1.31720e-17
5101.99910 1.35020e-17
5103.46632 1.31555e-17
5104.94372 1.27234e-17
5106.41094 1.31108e-17
5107.87816 1.37304e-17
5109.34537 1.37343e-17
5110.82278 1.24476e-17
5112.28999 1.19378e-17
5113.75721 1.24987e-17
5115.23462 1.26314e-17
5116.70183 1.25189e-17
5118.16905 1.20186e-17
5119.63626 1.19037e-17
5121.11367 1.25116e-17
5122.58088 1.21173e-17
5124.04810 1.09148e-17
5125.51532 1.08760e-17
5126.99272 1.08674e-17
5128.45994 1.10285e-17
5129.92715 1.09175e-17
5131.40456 9.64696e-18
5132.87177 9.90133e-18
5134.33899 1.05862e-17
5135.80621 1.05302e-17
5137.28361 1.05713e-17
5138.75083 1.01803e-17
5140.21804 1.00819e-17
5141.68526 1.03891e-17
5143.16266 1.07041e-17
5144.62988 1.06007e-17
5146.09710 1.03553e-17
5147.57450 1.03136e-17
5149.04172 9.95607e-18
5150.50893 1.01579e-17
5151.97615 1.04063e-17
5153.45355 9.71598e-18
5154.92077 9.34170e-18
5156.38799 9.11837e-18
5157.85520 9.64955e-18
5159.33261 1.07238e-17
5160.79982 1.05560e-17
5162.26704 9.92277e-18
5163.74444 9.62417e-18
5165.21166 9.85493e-18
5166.67888 1.07936e-17
5168.14609 1.09941e-17
5169.62350 1.00588e-17
5171.09071 1.00650e-17
5172.55793 1.06279e-17
5174.02514 1.04341e-17
5175.50255 1.03241e-17
5176.96977 1.11700e-17
5178.43698 1.12420e-17
5179.91439 1.06188e-17
5181.38160 1.08714e-17
5182.84882 1.11157e-17
5184.31603 1.12320e-17
5185.79344 1.10873e-17
5187.26066 1.10382e-17
5188.72787 1.10870e-17
5190.19509 1.13007e-17
5191.67249 1.06781e-17
5193.13971 1.07790e-17
5194.60692 1.21290e-17
5196.08433 1.18393e-17
5197.55155 1.13759e-17
5199.01876 1.14127e-17
5200.48598 1.18076e-17
5201.96338 1.17024e-17
5203.43060 1.17188e-17
5204.89782 1.18588e-17
5206.36503 1.18485e-17
5207.84244 1.23837e-17
5209.30965 1.25895e-17
5210.77687 1.20877e-17
5212.25427 1.18373e-17
5213.72149 1.22014e-17
5215.18870 1.20731e-17
5216.65592 1.17031e-17
5218.13333 1.14103e-17
5219.60054 1.13958e-17
5221.06776 1.21251e-17
5222.53497 1.23300e-17
5224.01238 1.24017e-17
5225.47959 1.32489e-17
5226.94681 1.32381e-17
5228.42422 1.30026e-17
5229.89143 1.26259e-17
5231.35865 1.25462e-17
5232.82586 1.23711e-17
5234.30327 1.22221e-17
5235.77048 1.22292e-17
5237.23770 1.18401e-17
5238.70492 1.22942e-17
5240.18232 1.29528e-17
5241.64954 1.23601e-17
5243.11675 1.17111e-17
5244.59416 1.21576e-17
5246.06137 1.23654e-17
5247.52859 1.28690e-17
5248.99581 1.29274e-17
5250.47321 1.20286e-17
5251.94043 1.16952e-17
5253.40764 1.23986e-17
5254.87486 1.24822e-17
5256.35226 1.26144e-17
5257.81948 1.23690e-17
5259.28670 1.26144e-17
5260.76410 1.26122e-17
5262.23132 1.20527e-17
5263.69853 1.19178e-17
5265.16575 1.19874e-17
5266.64315 1.18254e-17
5268.11037 1.16216e-17
5269.57759 1.23257e-17
5271.04480 1.22001e-17
5272.52221 1.18012e-17
5273.98942 1.20176e-17
5275.45664 1.25310e-17
5276.93404 1.26204e-17
5278.40126 1.18413e-17
5279.86848 1.14235e-17
5281.33569 1.11591e-17
5282.81310 1.11178e-17
5284.28031 1.16595e-17
5285.74753 1.23528e-17
5287.22493 1.25108e-17
5288.69215 1.23016e-17
5290.15937 1.15983e-17
5291.62658 1.14268e-17
5293.10399 1.18893e-17
5294.57120 1.14061e-17
5296.03842 1.15226e-17
5297.50564 1.24092e-17
5298.98304 1.23073e-17
5300.45026 1.21909e-17
5301.91747 1.24424e-17
5303.39488 1.25232e-17
5304.86209 1.24035e-17
5306.32931 1.21063e-17
5307.79653 1.16496e-17
5309.27393 1.17980e-17
5310.74115 1.18924e-17
5312.20836 1.15353e-17
5313.67558 1.20956e-17
5315.15298 1.25562e-17
5316.62020 1.24557e-17
5318.08742 1.20739e-17
5319.56482 1.10399e-17
5321.03204 1.10013e-17
5322.49925 1.22234e-17
5323.96647 1.27113e-17
5325.44387 1.24797e-17
5326.91109 1.26244e-17
5328.37831 1.27572e-17
5329.84552 1.31621e-17
5331.32293 1.28129e-17
5332.79014 1.21312e-17
5334.25736 1.26803e-17
5335.72457 1.31656e-17
5337.20198 1.30104e-17
5338.66920 1.24774e-17
5340.13641 1.19375e-17
5341.61382 1.23627e-17
5343.08103 1.28024e-17
5344.54825 1.30290e-17
5346.01546 1.33925e-17
5347.49287 1.31123e-17
5348.96009 1.34278e-17
5350.42730 1.35471e-17
5351.89452 1.31852e-17
5353.37192 1.29999e-17
5354.83914 1.32585e-17
5356.30635 1.35735e-17
5357.78376 1.32946e-17
5359.25098 1.29285e-17
5360.71819 1.31884e-17
5362.18541 1.29378e-17
5363.66281 1.25064e-17
5365.13003 1.27638e-17
5366.59724 1.30874e-17
5368.07465 1.32182e-17
5369.54187 1.37039e-17
5371.00908 1.39352e-17
5372.47630 1.36228e-17
5373.95370 1.32577e-17
5375.42092 1.32920e-17
5376.88813 1.37528e-17
5378.35535 1.40159e-17
5379.83276 1.36369e-17
5381.29997 1.38894e-17
5382.76719 1.37839e-17
5384.24459 1.28489e-17
5385.71181 1.34426e-17
5387.17902 1.44302e-17
5388.64624 1.43129e-17
5390.12365 1.39095e-17
5391.59086 1.42528e-17
5393.05808 1.46399e-17
5394.52529 1.42327e-17
5396.00270 1.38469e-17
5397.46991 1.41696e-17
5398.93713 1.40627e-17
5400.41454 1.41504e-17
5401.88175 1.45799e-17
5403.34897 1.43466e-17
5404.81618 1.41106e-17
5406.29359 1.36673e-17
5407.76080 1.36687e-17
5409.22802 1.42879e-17
5410.69524 1.39543e-17
5412.17264 1.33722e-17
5413.63986 1.40233e-17
5415.10707 1.44438e-17
5416.58448 1.41432e-17
5418.05170 1.42165e-17
5419.51891 1.35620e-17
5420.98613 1.26838e-17
5422.46353 1.30151e-17
5423.93075 1.30183e-17
5425.39796 1.25159e-17
5426.86518 1.30728e-17
5428.34258 1.39719e-17
5429.80980 1.37009e-17
5431.27702 1.31877e-17
5432.75442 1.33135e-17
5434.22164 1.33303e-17
5435.68885 1.31733e-17
5437.15607 1.35612e-17
5438.63347 1.35905e-17
5440.10069 1.28722e-17
5441.56791 1.30399e-17
5443.03512 1.38789e-17
5444.51253 1.37879e-17
5445.97974 1.33855e-17
5447.44696 1.37930e-17
5448.92436 1.42665e-17
5450.39158 1.37562e-17
5451.85880 1.28590e-17
5453.32601 1.35764e-17
5454.80342 1.44883e-17
5456.27063 1.33385e-17
5457.73785 1.30152e-17
5459.20507 1.37036e-17
5460.68247 1.28875e-17
5462.14969 1.25667e-17
5463.61690 1.31795e-17
5465.09431 1.29836e-17
5466.56152 1.26092e-17
5468.02874 1.31940e-17
5469.49596 1.35700e-17
5470.97336 1.32493e-17
5472.44058 1.34939e-17
5473.90779 1.36771e-17
5475.37501 1.35011e-17
5476.85241 1.31553e-17
5478.31963 1.33250e-17
5479.78685 1.30527e-17
5481.26425 1.21928e-17
5482.73147 1.22731e-17
5484.19868 1.25854e-17
5485.66590 1.28640e-17
5487.14330 1.30589e-17
5488.61052 1.28126e-17
5490.07774 1.20779e-17
5491.54495 1.25054e-17
5493.02236 1.29928e-17
5494.48957 1.25629e-17
5495.95679 1.29107e-17
5497.43419 1.27907e-17
5498.90141 1.25277e-17
5500.36863 1.27755e-17
5501.83584 1.29143e-17
5503.31325 1.29312e-17
5504.78046 1.23329e-17
5506.24768 1.21206e-17
5507.72508 1.23406e-17
5509.19230 1.22834e-17
5510.65952 1.22067e-17
5512.12673 1.21085e-17
5513.60414 1.23840e-17
5515.07135 1.23949e-17
5516.53857 1.19905e-17
5518.00578 1.15817e-17
5519.48319 1.17346e-17
5520.95041 1.18649e-17
5522.41762 1.22436e-17
5523.88484 1.23152e-17
5525.36224 1.23866e-17
5526.82946 1.26385e-17
5528.29667 1.24639e-17
5529.77408 1.20432e-17
5531.24130 1.16901e-17
5532.70851 1.20544e-17
5534.17573 1.26795e-17
5535.65313 1.23632e-17
5537.12035 1.20452e-17
5538.58756 1.15503e-17
5540.05478 1.18012e-17
5541.53219 1.22670e-17
5542.99940 1.19481e-17
5544.46662 1.12870e-17
5545.94402 1.10218e-17
5547.41124 1.16135e-17
5548.87845 1.22801e-17
5550.34567 1.24859e-17
5551.82308 1.24383e-17
5553.29029 1.19291e-17
5554.75751 1.20830e-17
5556.23491 1.23306e-17
5557.70213 1.21706e-17
5559.16934 1.23503e-17
5560.63656 1.28187e-17
5562.11397 1.26007e-17
5563.58118 1.22327e-17
5565.04840 1.20208e-17
5566.51561 1.16364e-17
5567.99302 1.20649e-17
5569.46023 1.24455e-17
5570.92745 1.25821e-17
5572.40486 1.34454e-17
5573.87207 1.40567e-17
5575.33929 1.29644e-17
5576.80650 1.47658e-17
5578.28391 1.51348e-17
5579.75112 1.32558e-17
5581.21834 1.30101e-17
5582.68556 1.26473e-17
5584.16296 1.29524e-17
5585.63018 1.31424e-17
5587.09739 1.27082e-17
5588.56461 1.28441e-17
5590.04201 1.27810e-17
5591.50923 1.23423e-17
5592.97645 1.22398e-17
5594.45385 1.20917e-17
5595.92107 1.23149e-17
5597.38828 1.32518e-17
5598.85550 1.32651e-17
5600.33290 1.29633e-17
5601.80012 1.34477e-17
5603.26734 1.27130e-17
5604.74474 1.22312e-17
5606.21196 1.24702e-17
5607.67917 1.16361e-17
5609.14639 1.20392e-17
5610.62379 1.21958e-17
5612.09101 1.19484e-17
5613.55823 1.18510e-17
5615.02544 1.25975e-17
5616.50285 1.33391e-17
5617.97006 1.25662e-17
5619.43728 1.23603e-17
5620.91468 1.27214e-17
5622.38190 1.23452e-17
5623.84912 1.16949e-17
5625.31633 1.13948e-17
5626.79374 1.19506e-17
5628.26095 1.30280e-17
5629.72817 1.29837e-17
5631.19539 1.26430e-17
5632.67279 1.25263e-17
5634.14001 1.21900e-17
5635.60722 1.12988e-17
5637.08463 1.11614e-17
5638.55184 1.23251e-17
5640.01906 1.25725e-17
5641.48628 1.23062e-17
5642.96368 1.21860e-17
5644.43090 1.19977e-17
5645.89811 1.15389e-17
5647.36533 1.15319e-17
5648.84273 1.19066e-17
5650.30995 1.19144e-17
5651.77717 1.21493e-17
5653.25457 1.24361e-17
5654.72179 1.21131e-17
5656.18900 1.15202e-17
5657.65622 1.13853e-17
5659.13362 1.16664e-17
5660.60084 1.17836e-17
5662.06806 1.17089e-17
5663.53527 1.14233e-17
5665.01268 1.16734e-17
5666.47989 1.19362e-17
5667.94711 1.19607e-17
5669.42451 1.17725e-17
5670.89173 1.13135e-17
5672.35895 1.15910e-17
5673.82616 1.18234e-17
5675.30357 1.18048e-17
5676.77078 1.17132e-17
5678.23800 1.16031e-17
5679.70521 1.16417e-17
5681.18262 1.12517e-17
5682.64984 1.14008e-17
5684.11705 1.18963e-17
5685.59446 1.16898e-17
5687.06167 1.14495e-17
5688.52889 1.15528e-17
5689.99610 1.20889e-17
5691.47351 1.16943e-17
5692.94073 1.07229e-17
5694.40794 1.07835e-17
5695.87516 1.08645e-17
5697.35256 1.12339e-17
5698.81978 1.15656e-17
5700.28699 1.11398e-17
5701.76440 1.07057e-17
5703.23162 1.08495e-17
5704.69883 1.14314e-17
5706.16605 1.15002e-17
5707.64345 1.11175e-17
5709.11067 1.10742e-17
5710.57788 1.14713e-17
5712.04510 1.13738e-17
5713.52251 1.09350e-17
5714.98972 1.12676e-17
5716.45694 1.17559e-17
5717.93434 1.15175e-17
5719.40156 1.13564e-17
5720.86877 1.09768e-17
5722.33599 1.05477e-17
5723.81340 1.09641e-17
5725.28061 1.09352e-17
5726.74783 1.08750e-17
5728.21504 1.13181e-17
5729.69245 1.12710e-17
5731.15967 1.08893e-17
5732.62688 1.10606e-17
5734.10429 1.13320e-17
5735.57150 1.13738e-17
5737.03872 1.11729e-17
5738.50593 1.10048e-17
5739.98334 1.07530e-17
5741.45055 1.08162e-17
5742.91777 1.10892e-17
5744.38499 1.10560e-17
5745.86239 1.12849e-17
5747.32961 1.15546e-17
5748.79682 1.15042e-17
5750.27423 1.10822e-17
5751.74144 1.09849e-17
5753.20866 1.08889e-17
5754.67588 1.06589e-17
5756.15328 1.06582e-17
5757.62050 1.07205e-17
5759.08771 1.07299e-17
5760.55493 1.04626e-17
5762.03233 1.04583e-17
5763.49955 1.09471e-17
5764.96677 1.16161e-17
5766.44417 1.26232e-17
5767.91139 1.18350e-17
5769.37860 1.13554e-17
5770.84582 1.18129e-17
5772.32322 1.21755e-17
5773.79044 1.12213e-17
5775.25766 1.02692e-17
5776.72487 1.00932e-17
5778.20228 9.98642e-18
5779.66949 1.02504e-17
5781.13671 1.02536e-17
5782.61412 1.01492e-17
5784.08133 9.46650e-18
5785.54855 9.11532e-18
5787.01576 9.75580e-18
5788.49317 9.57715e-18
5789.96038 9.16717e-18
5791.42760 9.53570e-18
5792.89482 9.32040e-18
5794.37222 9.24311e-18
5795.83944 9.11857e-18
5797.30665 9.13886e-18
5798.78406 9.21283e-18
5800.25127 8.48606e-18
5801.71849 8.28670e-18
5803.18571 8.60216e-18
5804.66311 8.39512e-18
5806.13033 7.86953e-18
5807.59754 7.85206e-18
5809.06476 8.13126e-18
5810.54216 7.85858e-18
5812.00938 7.90817e-18
5813.47660 7.36080e-18
5814.95400 7.56344e-18
5816.42122 7.62528e-18
5817.88843 7.28701e-18
5819.35565 7.02016e-18
5820.83305 7.21512e-18
5822.30027 7.13197e-18
5823.76749 6.81545e-18
5825.24489 5.84562e-18
5826.71211 5.80992e-18
5828.17932 6.59135e-18
5829.64654 6.95380e-18
5831.12394 6.89906e-18
5832.59116 6.48178e-18
5834.05838 6.03937e-18
5835.52559 6.40072e-18
5837.00300 6.62705e-18
5838.47021 6.80128e-18
5839.93743 6.82318e-18
5841.41483 6.47123e-18
5842.88205 6.34475e-18
5844.34927 6.48375e-18
5845.81648 7.05383e-18
5847.29389 7.31698e-18
5848.76110 6.66970e-18
5850.22832 6.12932e-18
5851.69553 6.87702e-18
5853.17294 7.20910e-18
5854.64016 7.00229e-18
5856.10737 7.13552e-18
5857.58478 7.06729e-18
5859.05199 6.93108e-18
5860.51921 6.53986e-18
5861.98642 6.96549e-18
5863.46383 7.60115e-18
5864.93105 7.82885e-18
5866.39826 7.39080e-18
5867.86548 7.16504e-18
5869.34288 7.54125e-18
5870.81010 7.90510e-18
5872.27732 8.16612e-18
5873.74453 8.29295e-18
5875.22194 8.31777e-18
5876.68915 9.06492e-18
5878.15637 8.70965e-18
5879.63377 8.19651e-18
5881.10099 8.92919e-18
5882.56820 8.86825e-18
5884.03542 8.81604e-18
5885.51283 9.67775e-18
5886.98004 1.04037e-17
5888.44726 9.88819e-18
5889.92466 1.03318e-17
5891.39188 1.03550e-17
5892.85909 9.63511e-18
5894.32631 1.00953e-17
5895.80372 1.05812e-17
5897.27093 1.03302e-17
5898.73815 1.04900e-17
5900.20536 1.08861e-17
5901.68277 1.07532e-17
5903.14998 1.04322e-17
5904.61720 1.04939e-17
5906.09461 1.10739e-17
5907.56182 1.14150e-17
5909.02904 1.11808e-17
5910.49625 1.13949e-17
5911.97366 1.16283e-17
5913.44087 1.17528e-17
5914.90809 1.19816e-17
5916.37531 1.17014e-17
5917.85271 1.15557e-17
5919.31993 1.20217e-17
5920.78714 1.26516e-17
5922.26455 1.31168e-17
5923.73176 1.24035e-17
5925.19898 1.22358e-17
5926.66620 1.28780e-17
5928.14360 1.28809e-17
5929.61082 1.26381e-17
5931.07803 1.23256e-17
5932.54525 1.31002e-17
5934.02265 1.35054e-17
5935.48987 1.30793e-17
5936.95709 1.34821e-17
5938.43449 1.37406e-17
5939.90171 1.37660e-17
5941.36892 1.38142e-17
5942.83614 1.35704e-17
5944.31354 1.36439e-17
5945.78076 1.38372e-17
5947.24798 1.40426e-17
5948.71519 1.40247e-17
5950.19260 1.41313e-17
5951.65981 1.45106e-17
5953.12703 1.42891e-17
5954.60443 1.43080e-17
5956.07165 1.45083e-17
5957.53887 1.45068e-17
5959.00608 1.41238e-17
5960.48349 1.39213e-17
5961.95070 1.34330e-17
5963.41792 1.35120e-17
5964.88514 1.41967e-17
5966.36254 1.43239e-17
5967.82976 1.39837e-17
5969.29697 1.33603e-17
5970.77438 1.37064e-17
5972.24159 1.40096e-17
5973.70881 1.40498e-17
5975.17603 1.46769e-17
5976.65343 1.44762e-17
5978.12065 1.34611e-17
5979.58786 1.29633e-17
5981.05508 1.30864e-17
5982.53248 1.32559e-17
5983.99970 1.30990e-17
5985.46692 1.33123e-17
5986.94432 1.37546e-17
5988.41154 1.39507e-17
5989.87875 1.39137e-17
5991.34597 1.34637e-17
5992.82337 1.30889e-17
5994.29059 1.30104e-17
5995.75781 1.20169e-17
5997.22502 1.22870e-17
5998.70243 1.30631e-17
6000.16964 1.26573e-17
6001.63686 1.25856e-17
6003.11426 1.29544e-17
6004.58148 1.34311e-17
6006.04870 1.33755e-17
6007.51591 1.30362e-17
6008.99332 1.31179e-17
6010.46053 1.29663e-17
6011.92775 1.29617e-17
6013.39496 1.28945e-17
6014.87237 1.32198e-17
6016.33959 1.36077e-17
6017.80680 1.29891e-17
6019.28421 1.29031e-17
6020.75142 1.30381e-17
6022.21864 1.27126e-17
6023.68585 1.26788e-17
6025.16326 1.25769e-17
6026.63048 1.26320e-17
6028.09769 1.29078e-17
6029.56491 1.28260e-17
6031.04231 1.23394e-17
6032.50953 1.30994e-17
6033.97674 1.30254e-17
6035.45415 1.22097e-17
6036.92137 1.23243e-17
6038.38858 1.23089e-17
6039.85580 1.25245e-17
6041.33320 1.25558e-17
6042.80042 1.29528e-17
6044.26763 1.28169e-17
6045.74504 1.25712e-17
6047.21226 1.24246e-17
6048.67947 1.25594e-17
6050.14669 1.22066e-17
6051.62409 1.21445e-17
6053.09131 1.23672e-17
6054.55852 1.21182e-17
6056.02574 1.17520e-17
6057.50315 1.20516e-17
6058.97036 1.17018e-17
6060.43758 1.15311e-17
6061.90479 1.20149e-17
6063.38220 1.22109e-17
6064.84941 1.26182e-17
6066.31663 1.19539e-17
6067.79404 1.19658e-17
6069.26125 1.23875e-17
6070.72847 1.19471e-17
6072.19568 1.18394e-17
6073.67309 1.18003e-17
6075.14030 1.20674e-17
6076.60752 1.22766e-17
6078.07474 1.17382e-17
6079.55214 1.14448e-17
6081.01936 1.19972e-17
6082.48657 1.19362e-17
6083.96398 1.13133e-17
6085.43120 1.16326e-17
6086.89841 1.16675e-17
6088.36563 1.14376e-17
6089.84303 1.12400e-17
6091.31025 1.11764e-17
6092.77746 1.13698e-17
6094.25487 1.11537e-17
6095.72208 1.10890e-17
6097.18930 1.14117e-17
6098.65652 1.17110e-17
6100.13392 1.16590e-17
6101.60114 1.12592e-17
6103.06835 1.10527e-17
6104.53557 1.04185e-17
6106.01297 1.05958e-17
6107.48019 1.06246e-17
6108.94741 1.01130e-17
6110.42481 1.04503e-17
6111.89203 1.09227e-17
6113.35924 1.06141e-17
6114.82646 1.04131e-17
6116.30386 1.03835e-17
6117.77108 1.03264e-17
6119.23830 1.06833e-17
6120.70551 1.07878e-17
6122.18292 1.10194e-17
6123.65013 1.09549e-17
6125.11735 1.04042e-17
6126.58457 1.01754e-17
6128.06197 1.02620e-17
6129.52919 1.04886e-17
6130.99640 1.06069e-17
6132.47381 1.02905e-17
6133.94102 9.68817e-18
6135.40824 9.76761e-18
6136.87546 1.00915e-17
6138.35286 1.04163e-17
6139.82008 1.10818e-17
6141.28729 1.08921e-17
6142.75451 1.02226e-17
6144.23191 1.03861e-17
6145.69913 1.06186e-17
6147.16635 1.01063e-17
6148.64375 1.00454e-17
6150.11097 1.02525e-17
6151.57818 9.86185e-18
6153.04540 9.86850e-18
6154.52280 9.92171e-18
6155.99002 1.01625e-17
6157.45724 1.03967e-17
6158.93464 9.97650e-18
6160.40186 9.66404e-18
6161.86907 1.00982e-17
6163.33629 1.05642e-17
6164.81369 9.87680e-18
6166.28091 9.38801e-18
6167.74813 9.81131e-18
6169.21534 9.83810e-18
6170.69275 9.60145e-18
6172.15996 9.42282e-18
6173.62718 9.39287e-18
6175.10458 9.96255e-18
6176.57180 1.01156e-17
6178.03902 9.70629e-18
6179.50623 9.58225e-18
6180.98364 9.55291e-18
6182.45085 1.01333e-17
6183.91807 1.00336e-17
6185.38528 9.97705e-18
6186.86269 1.05076e-17
6188.32991 9.78403e-18
6189.79712 9.78521e-18
6191.27453 9.73120e-18
6192.74174 9.62764e-18
6194.20896 1.02267e-17
6195.67617 1.00264e-17
6197.15358 1.00201e-17
6198.62080 9.96000e-18
6200.08801 9.65350e-18
6201.55523 9.37690e-18
6203.03263 9.90161e-18
6204.49985 1.00259e-17
6205.96706 1.04964e-17
6207.44447 1.02164e-17
6208.91169 9.60026e-18
6210.37890 9.29714e-18
6211.84612 9.44194e-18
6213.32352 9.21660e-18
6214.79074 9.40765e-18
6216.25795 9.77811e-18
6217.72517 9.73229e-18
6219.20258 9.64700e-18
6220.66979 9.99896e-18
6222.13701 9.87655e-18
6223.61441 9.91266e-18
6225.08163 9.84020e-18
6226.54884 9.96934e-18
6228.01606 1.01701e-17
6229.49347 1.00688e-17
6230.96068 9.38292e-18
6232.42790 9.02682e-18
6233.89511 1.00354e-17
6235.37252 1.04150e-17
6236.83973 9.36831e-18
6238.30695 8.54673e-18
6239.78436 9.64933e-18
6241.25157 9.96154e-18
6242.71879 1.03616e-17
6244.18600 1.02055e-17
6245.66341 9.33514e-18
6247.13062 9.28090e-18
6248.59784 1.03591e-17
6250.06506 9.34328e-18
6251.54246 9.27820e-18
6253.00968 1.00201e-17
6254.47689 9.97373e-18
6255.95430 9.89071e-18
6257.42151 9.58544e-18
6258.88873 9.48104e-18
6260.35595 9.63000e-18
6261.83335 9.90442e-18
6263.30057 1.00147e-17
6264.76778 9.35435e-18
6266.23500 9.35323e-18
6267.71240 9.45431e-18
6269.17962 9.37043e-18
6270.64684 9.93163e-18
6272.12424 9.53409e-18
6273.59146 9.26160e-18
6275.05867 9.36444e-18
6276.52589 9.24961e-18
6278.00329 9.36925e-18
6279.47051 9.32899e-18
6280.93773 9.73821e-18
6282.41513 9.58501e-18
6283.88235 9.73378e-18
6285.34956 9.71989e-18
6286.81678 9.95419e-18
6288.29418 9.55482e-18
6289.76140 9.29156e-18
6291.22862 9.33134e-18
6292.69583 9.48600e-18
6294.17324 8.98724e-18
6295.64045 9.00496e-18
6297.10767 1.02149e-17
6298.57489 1.01840e-17
6300.05229 9.69959e-18
6301.51951 1.02273e-17
6302.98672 9.40852e-18
6304.46413 8.80795e-18
6305.93134 9.70905e-18
6307.39856 9.55715e-18
6308.86578 9.43247e-18
6310.34318 9.68979e-18
6311.81040 9.16895e-18
6313.27761 9.18877e-18
6314.74483 9.46181e-18
6316.22223 9.20158e-18
6317.68945 9.37564e-18
6319.15667 9.13442e-18
6320.63407 8.91289e-18
6322.10129 9.52036e-18
6323.56850 9.55524e-18
6325.03572 9.03748e-18
6326.51312 9.02915e-18
6327.98034 9.03536e-18
6329.44756 8.73381e-18
6330.91477 8.98424e-18
6332.39218 8.98419e-18
6333.85939 8.46250e-18
6335.32661 8.42386e-18
6336.80401 8.87268e-18
6338.27123 9.04888e-18
6339.73845 8.62733e-18
6341.20566 8.46837e-18
6342.68307 8.81212e-18
6344.15028 9.15845e-18
6345.61750 8.72751e-18
6347.08471 8.05495e-18
6348.56212 8.24649e-18
6350.02934 8.13431e-18
6351.49655 7.99249e-18
6352.97396 8.38183e-18
6354.44117 8.18426e-18
6355.90839 7.94937e-18
6357.37560 7.95208e-18
6358.85301 8.52484e-18
6360.32023 8.63904e-18
6361.78744 8.20597e-18
6363.25466 7.60421e-18
6364.73206 7.14352e-18
6366.19928 7.57229e-18
6367.66649 8.05285e-18
6369.14390 7.95650e-18
6370.61112 7.94428e-18
6372.07833 8.29337e-18
6373.54555 7.66033e-18
6375.02295 7.51939e-18
6376.49017 7.69414e-18
6377.95738 7.64294e-18
6379.43479 7.35438e-18
6380.90201 7.23556e-18
6382.36922 7.90013e-18
6383.83644 7.82313e-18
6385.31384 7.69394e-18
6386.78106 8.15613e-18
6388.24827 7.89052e-18
6389.71549 7.56681e-18
6391.19290 7.66444e-18
6392.66011 7.71998e-18
6394.12733 8.07029e-18
6395.60473 7.79835e-18
6397.07195 7.36704e-18
6398.53917 7.48704e-18
6400.00638 7.70399e-18
6401.48379 7.60036e-18
6402.95100 7.80593e-18
6404.41822 8.21136e-18
6405.88543 7.83847e-18
6407.36284 7.38847e-18
6408.83005 7.71963e-18
6410.29727 8.03314e-18
6411.76449 8.37023e-18
6413.24189 8.42389e-18
6414.70911 8.19890e-18
6416.17632 7.34740e-18
6417.65373 7.55782e-18
6419.12094 8.14622e-18
6420.58816 7.94866e-18
6422.05538 7.89596e-18
6423.53278 7.97529e-18
6425.00000 8.17157e-18
6426.46721 8.48117e-18
6427.94462 8.42237e-18
6429.41183 7.64031e-18
6430.87905 7.90717e-18
6432.34627 8.40032e-18
6433.82367 8.27458e-18
6435.29089 8.47258e-18
6436.75810 8.39420e-18
6438.22532 8.04392e-18
6439.70272 8.15007e-18
6441.16994 8.30181e-18
6442.63716 8.57416e-18
6444.11456 8.79725e-18
6445.58178 8.87766e-18
6447.04899 8.61380e-18
6448.51621 8.50522e-18
6449.99361 8.70379e-18
6451.46083 8.71335e-18
6452.92805 8.37092e-18
6454.39526 8.74387e-18
6455.87267 8.91434e-18
6457.33988 8.51893e-18
6458.80710 8.33102e-18
6460.28450 8.29021e-18
6461.75172 8.23226e-18
6463.21894 8.90023e-18
6464.68615 9.23778e-18
6466.16356 9.36178e-18
6467.63077 9.03843e-18
6469.09799 8.85474e-18
6470.56521 8.46883e-18
6472.04261 8.48605e-18
6473.50983 8.72550e-18
6474.97704 8.92906e-18
6476.45445 8.94321e-18
6477.92166 9.23883e-18
6479.38888 8.87514e-18
6480.85610 8.55149e-18
6482.33350 8.66961e-18
6483.80072 8.99758e-18
6485.26793 9.12350e-18
6486.73515 9.39678e-18
6488.21255 9.34340e-18
6489.67977 8.80957e-18
6491.14699 8.93290e-18
6492.62439 9.42714e-18
6494.09161 9.84028e-18
6495.55882 9.46242e-18
6497.02604 9.29985e-18
6498.50344 9.70888e-18
6499.97066 9.58267e-18
6501.43788 9.44518e-18
6502.90509 9.01557e-18
6504.38250 8.82500e-18
6505.84971 9.00041e-18
6507.31693 9.37678e-18
6508.79433 9.16438e-18
6510.26155 8.99581e-18
6511.72877 9.19540e-18
6513.19598 8.86074e-18
6514.67339 8.91377e-18
6516.14060 8.95003e-18
6517.60782 9.09771e-18
6519.07503 9.28389e-18
6520.55244 8.96383e-18
6522.01966 9.01525e-18
6523.48687 9.07956e-18
6524.96428 8.97595e-18
6526.43149 8.77858e-18
6527.89871 9.24046e-18
6529.36592 9.14875e-18
6530.84333 8.57263e-18
6532.31055 8.51168e-18
6533.77776 8.52582e-18
6535.24498 8.92597e-18
6536.72238 9.51725e-18
6538.18960 9.28783e-18
6539.65682 8.61524e-18
6541.13422 8.48103e-18
6542.60144 8.51108e-18
6544.06865 8.30824e-18
6545.53587 8.53374e-18
6547.01327 8.72264e-18
6548.48049 8.40239e-18
6549.94770 8.50435e-18
6551.41492 9.04800e-18
6552.89233 9.04274e-18
6554.35954 8.60692e-18
6555.82676 8.58305e-18
6557.30416 8.65577e-18
6558.77138 8.48289e-18
6560.23859 8.76465e-18
6561.70581 8.96196e-18
6563.18322 8.83528e-18
6564.65043 9.26378e-18
6566.11765 8.81469e-18
6567.58486 8.20366e-18
6569.06227 8.80415e-18
6570.52948 8.97542e-18
6571.99670 8.44857e-18
6573.47411 8.64457e-18
6574.94132 9.00532e-18
6576.40854 9.30578e-18
6577.87575 8.83920e-18
6579.35316 8.44502e-18
6580.82037 8.57820e-18
6582.28759 8.60342e-18
6583.75481 8.60072e-18
6585.23221 8.86468e-18
6586.69943 8.59354e-18
6588.16664 8.29052e-18
6589.64405 8.31930e-18
6591.11126 8.71438e-18
6592.57848 8.37255e-18
6594.04570 8.17095e-18
6595.52310 8.19668e-18
6596.99032 8.00180e-18
6598.45753 8.39652e-18
6599.92475 8.23260e-18
6601.40215 8.06622e-18
6602.86937 8.70877e-18
6604.33659 8.31794e-18
6605.81399 7.71700e-18
6607.28121 8.08316e-18
6608.74842 7.76809e-18
6610.21564 7.41451e-18
6611.69304 7.32492e-18
6613.16026 7.25840e-18
6614.62748 7.07439e-18
6616.10488 7.08178e-18
6617.57210 6.86910e-18
6619.03931 6.91102e-18
6620.50653 6.97210e-18
6621.98393 6.57676e-18
6623.45115 6.59101e-18
6624.91837 6.95215e-18
6626.38558 7.44244e-18
6627.86299 7.58368e-18
6629.33020 6.82602e-18
6630.79742 6.27805e-18
6632.27482 6.65456e-18
6633.74204 6.91595e-18
6635.20926 6.72880e-18
6636.67647 6.91349e-18
6638.15388 6.88063e-18
6639.62109 6.79512e-18
6641.08831 6.39666e-18
6642.55553 6.31409e-18
6644.03293 6.56160e-18
6645.50015 6.30840e-18
6646.96736 6.33594e-18
6648.44477 6.31142e-18
6649.91198 6.73378e-18
6651.37920 6.32689e-18
6652.84642 6.25159e-18
6654.32382 6.38969e-18
6655.79104 6.29523e-18
6657.25825 6.02388e-18
6658.72547 5.98384e-18
6660.20287 6.08899e-18
6661.67009 6.14240e-18
6663.13731 6.43502e-18
6664.60452 6.81124e-18
6666.08193 6.52297e-18
6667.54914 6.22871e-18
6669.01636 6.12864e-18
6670.49376 6.29436e-18
6671.96098 6.58317e-18
6673.42820 6.77424e-18
6674.89541 6.67362e-18
6676.37282 6.57676e-18
6677.84003 6.79139e-18
6679.30725 7.14730e-18
6680.77446 7.00264e-18
6682.25187 6.75429e-18
6683.71909 6.83776e-18
6685.18630 7.34312e-18
6686.66371 7.74382e-18
6688.13092 7.10125e-18
6689.59814 7.42931e-18
6691.06535 7.62814e-18
6692.54276 7.68009e-18
6694.00998 7.15817e-18
6695.47719 7.16785e-18
6696.95460 7.63026e-18
6698.42181 7.93891e-18
6699.88903 8.30265e-18
6701.35624 8.35670e-18
6702.83365 7.94020e-18
6704.30087 7.95657e-18
6705.76808 8.47902e-18
6707.23530 8.34320e-18
6708.71270 8.26760e-18
6710.17992 7.93852e-18
6711.64713 8.14808e-18
6713.12454 8.70383e-18
6714.59176 8.94342e-18
6716.05897 8.79985e-18
6717.52619 8.88684e-18
6719.00359 8.48228e-18
6720.47081 8.67756e-18
6721.93802 8.99522e-18
6723.40524 9.22366e-18
6724.88265 8.94763e-18
6726.34986 8.92161e-18
6727.81708 8.84626e-18
6729.29448 9.49263e-18
6730.76170 9.59114e-18
6732.22891 9.30790e-18
6733.69613 9.56064e-18
6735.17354 9.69446e-18
6736.64075 9.48234e-18
6738.10797 9.54117e-18
6739.57518 9.61495e-18
6741.05259 9.83953e-18
6742.51980 1.05310e-17
6743.98702 1.02071e-17
6745.46443 9.73457e-18
6746.93164 9.77406e-18
6748.39886 1.03656e-17
6749.86607 1.00775e-17
6751.34348 9.57080e-18
6752.81069 9.81525e-18
6754.27791 9.96926e-18
6755.74513 9.85498e-18
6757.22253 9.60380e-18
6758.68975 9.59405e-18
6760.15696 9.94227e-18
6761.63437 1.03707e-17
6763.10158 1.04228e-17
6764.56880 1.01594e-17
6766.03602 9.80433e-18
6767.51342 9.74682e-18
6768.98064 9.92085e-18
6770.44785 9.93109e-18
6771.91507 9.90284e-18
6773.39247 9.83881e-18
6774.85969 1.05061e-17
6776.32691 1.07092e-17
6777.80431 1.03924e-17
6779.27153 1.03982e-17
6780.73874 1.01120e-17
6782.20596 1.00829e-17
6783.68336 1.03252e-17
6785.15058 1.03358e-17
6786.61780 1.00151e-17
6788.08501 9.89714e-18
6789.56242 1.02832e-17
6791.02963 1.03947e-17
6792.49685 1.01409e-17
6793.97425 1.01400e-17
6795.44147 1.00340e-17
6796.90869 1.00750e-17
6798.37590 9.85257e-18
6799.85331 9.35309e-18
6801.32052 9.59482e-18
6802.78774 1.02275e-17
6804.25496 1.02959e-17
6805.73236 1.00995e-17
6807.19958 9.32703e-18
6808.66679 9.64737e-18
6810.14420 9.95424e-18
6811.61141 9.28779e-18
6813.07863 9.54423e-18
6814.54585 9.82810e-18
6816.02325 9.32325e-18
6817.49047 9.43644e-18
6818.95768 9.76531e-18
6820.43509 9.65616e-18
6821.90230 9.84833e-18
6823.36952 9.58456e-18
6824.83674 9.16583e-18
6826.31414 9.32971e-18
6827.78136 9.36264e-18
6829.24857 9.20009e-18
6830.71579 8.56334e-18
6832.19319 8.96175e-18
6833.66041 9.74183e-18
6835.12763 1.01352e-17
6836.60503 9.49459e-18
6838.07225 8.75180e-18
6839.53946 8.98195e-18
6841.00668 9.17266e-18
6842.48408 8.89539e-18
6843.95130 8.96697e-18
6845.41852 8.95807e-18
6846.88573 8.94916e-18
6848.36314 8.94025e-18
6849.83035 8.93134e-18
6851.29757 8.92243e-18
6852.76478 8.91352e-18
6854.24219 8.90462e-18
6855.70941 8.89571e-18
6857.17662 8.88680e-18
6858.65403 8.87790e-18
6860.12124 8.86899e-18
6861.58846 8.86009e-18
6863.05567 8.85118e-18
6864.53308 8.84228e-18
6866.00030 8.83338e-18
6867.46751 8.82447e-18
6868.93473 8.81557e-18
6870.41213 8.80667e-18
6871.87935 8.79777e-18
6873.34656 8.78887e-18
6874.82397 8.77997e-18
6876.29119 8.77107e-18
6877.75840 8.76217e-18
6879.22562 8.75326e-18
6880.70302 8.74437e-18
6882.17024 8.73547e-18
6883.63745 8.72657e-18
6885.11486 8.71767e-18
6886.58208 8.70877e-18
6888.04929 8.69988e-18
6889.51651 8.69098e-18
6890.99391 8.68208e-18
6892.46113 8.67319e-18
6893.92834 8.66429e-18
6895.39556 8.65540e-18
6896.87297 8.64650e-18
6898.34018 8.63761e-18
6899.80740 8.62871e-18
6901.27461 8.61982e-18
6902.75202 8.61093e-18
6904.21923 8.60203e-18
6905.68645 8.59314e-18
6907.16386 8.58425e-18
6908.63107 8.57536e-18
6910.09829 8.56647e-18
6911.56550 8.55758e-18
6913.04291 8.54869e-18
6914.51012 8.53980e-18
6915.97734 8.53091e-18
6917.45475 8.52202e-18
6918.92196 8.51313e-18
6920.38918 8.50424e-18
6921.85639 8.49536e-18
6923.33380 8.48647e-18
6924.80102 8.47758e-18
6926.26823 8.46869e-18
6927.73545 8.45981e-18
6929.21285 8.45092e-18
6930.68007 8.44204e-18
6932.14728 8.43315e-18
6933.62469 8.42427e-18
6935.09190 8.41538e-18
6936.55912 8.69948e-18
6938.02634 7.59643e-18
6939.50374 8.12564e-18
6940.97096 9.02403e-18
6942.43817 8.98573e-18
6943.90539 8.01240e-18
6945.38279 7.93226e-18
6946.85001 8.44365e-18
6948.31723 8.79912e-18
6949.79463 8.49438e-18
6951.26185 8.21278e-18
6952.72906 7.68065e-18
6954.19628 7.33921e-18
6955.67368 7.87708e-18
6957.14090 8.04439e-18
6958.60812 8.51273e-18
6960.07533 8.30467e-18
6961.55274 7.77810e-18
6963.01995 7.61063e-18
6964.48717 8.33069e-18
6965.96457 7.49493e-18
6967.43179 7.86438e-18
6968.89901 8.47693e-18
6970.36622 8.32758e-18
6971.84363 8.07872e-18
6973.31084 7.60639e-18
6974.77806 7.49505e-18
6976.24528 7.49555e-18
6977.72268 8.07780e-18
6979.18990 8.15327e-18
6980.65711 7.93005e-18
6982.13452 7.76255e-18
6983.60173 7.82431e-18
6985.06895 7.80018e-18
6986.53617 7.61358e-18
6988.01357 7.56857e-18
6989.48079 8.00986e-18
6990.94800 7.44025e-18
6992.41522 7.44781e-18
6993.89262 8.49339e-18
6995.35984 7.97399e-18
6996.82706 7.36142e-18
6998.30446 7.03421e-18
6999.77168 7.29317e-18
7001.23889 7.44513e-18
7002.70611 6.77164e-18
7004.18351 6.79309e-18
7005.65073 7.60640e-18
7007.11795 7.62945e-18
7008.58516 6.77894e-18
7010.06257 6.95654e-18
7011.52978 7.12678e-18
7012.99700 7.10791e-18
7014.47440 7.51059e-18
7015.94162 7.24597e-18
7017.40884 6.93918e-18
7018.87605 6.99196e-18
7020.35346 6.95477e-18
7021.82067 6.71842e-18
7023.28789 6.62236e-18
7024.75510 6.76701e-18
7026.23251 7.13023e-18
7027.69973 7.28720e-18
7029.16694 7.09786e-18
7030.64435 6.85749e-18
7032.11156 6.65247e-18
7033.57878 6.26371e-18
7035.04599 6.58692e-18
7036.52340 7.16843e-18
7037.99062 6.72694e-18
7039.45783 6.02871e-18
7040.92505 5.97941e-18
7042.40245 6.35094e-18
7043.86967 6.51334e-18
7045.33688 6.92848e-18
7046.81429 7.27791e-18
7048.28151 7.30445e-18
7049.74872 6.64690e-18
7051.21594 6.53135e-18
7052.69334 7.03100e-18
7054.16056 6.55954e-18
7055.62777 5.89349e-18
7057.09499 6.49980e-18
7058.57240 6.34016e-18
7060.03961 6.27259e-18
7061.50683 7.57344e-18
7062.98423 7.43909e-18
7064.45145 6.93473e-18
7065.91867 6.99821e-18
7067.38588 6.87794e-18
7068.86329 6.98196e-18
7070.33050 6.80339e-18
7071.79772 6.67859e-18
7073.26493 6.99023e-18
7074.74234 7.44604e-18
7076.20955 7.83092e-18
7077.67677 7.33740e-18
7079.15418 7.01258e-18
7080.62139 7.40769e-18
7082.08861 7.08927e-18
7083.55582 7.34280e-18
7085.03323 7.98586e-18
7086.50044 7.86698e-18
7087.96766 7.82131e-18
7089.43488 7.57256e-18
7090.91228 7.75716e-18
7092.37950 8.32391e-18
7093.84671 8.31533e-18
7095.32412 8.01704e-18
7096.79133 7.71053e-18
7098.25855 7.82991e-18
7099.72577 8.21928e-18
7101.20317 8.44075e-18
7102.67039 8.22913e-18
7104.13760 8.04546e-18
7105.60482 8.37472e-18
7107.08222 8.47504e-18
7108.54944 8.92536e-18
7110.01666 8.73295e-18
7111.49406 8.09724e-18
7112.96128 8.57947e-18
7114.42849 8.91137e-18
7115.89571 8.54956e-18
7117.37311 8.52490e-18
7118.84033 8.58172e-18
7120.30755 8.54297e-18
7121.77476 8.74178e-18
7123.25217 9.35876e-18
7124.71938 9.22126e-18
7126.18660 8.87866e-18
7127.66400 9.24022e-18
7129.13122 9.53445e-18
7130.59844 9.30942e-18
7132.06565 8.62285e-18
7133.54306 8.43946e-18
7135.01027 8.43145e-18
7136.47749 8.48333e-18
7137.94471 8.82928e-18
7139.42211 9.09333e-18
7140.88933 9.04355e-18
7142.35654 8.91145e-18
7143.83395 8.59003e-18
7145.30116 8.74460e-18
7146.76838 9.37295e-18
7148.23560 9.20754e-18
7149.71300 8.65006e-18
7151.18022 8.42021e-18
7152.64743 8.79823e-18
7154.12484 9.34277e-18
7155.59205 9.38479e-18
7157.05927 9.14174e-18
7158.52649 9.36446e-18
7160.00389 9.11467e-18
7161.47111 8.73528e-18
7162.93832 9.11517e-18
7164.40554 9.53140e-18
7165.88294 9.49669e-18
7167.35016 9.13061e-18
7168.81738 9.02207e-18
7170.29478 8.48161e-18
7171.76200 8.75536e-18
7173.22921 9.36931e-18
7174.69643 9.21381e-18
7176.17383 9.21740e-18
7177.64105 9.09552e-18
7179.10827 8.90261e-18
7180.57548 8.58100e-18
7182.05289 8.82080e-18
7183.52010 9.11012e-18
7184.98732 8.88129e-18
7186.46472 8.89686e-18
7187.93194 8.69017e-18
7189.39916 8.90307e-18
7190.86637 8.66128e-18
7192.34378 8.63197e-18
7193.81099 8.72894e-18
7195.27821 9.18795e-18
7196.74542 8.87728e-18
7198.22283 8.28272e-18
7199.69005 8.52945e-18
7201.15726 8.39815e-18
7202.62448 8.43376e-18
7204.10188 9.04589e-18
7205.56910 8.34720e-18
7207.03631 7.51801e-18
7208.51372 7.96249e-18
7209.98094 8.73771e-18
7211.44815 8.71295e-18
7212.91537 8.46973e-18
7214.39277 8.21777e-18
7215.85999 7.85106e-18
7217.32720 8.37148e-18
7218.80461 8.92760e-18
7220.27183 8.27745e-18
7221.73904 7.97989e-18
7223.20626 7.49092e-18
7224.68366 7.80020e-18
7226.15088 7.92572e-18
7227.61809 8.13580e-18
7229.08531 8.28197e-18
7230.56272 8.07223e-18
7232.02993 7.72892e-18
7233.49715 8.20953e-18
7234.97455 8.54910e-18
7236.44177 8.42464e-18
7237.90898 8.05498e-18
7239.37620 7.79626e-18
7240.85361 7.65376e-18
7242.32082 7.61587e-18
7243.78804 6.96201e-18
7245.25525 7.37801e-18
7246.73266 7.82906e-18
7248.19987 7.54199e-18
7249.66709 7.69628e-18
7251.14450 7.59398e-18
7252.61171 7.77678e-18
7254.07893 7.47966e-18
7255.54614 7.60890e-18
7257.02355 7.08165e-18
7258.49076 7.73583e-18
7259.95798 7.82630e-18
7261.42520 6.93266e-18
7262.90260 7.38421e-18
7264.36982 7.78728e-18
7265.83703 7.17495e-18
7267.31444 6.94336e-18
7268.78165 7.59251e-18
7270.24887 7.61872e-18
7271.71609 7.77843e-18
7273.19349 8.22103e-18
7274.66071 8.44406e-18
7276.12792 8.20005e-18
7277.59514 7.57834e-18
7279.07254 7.80850e-18
7280.53976 7.50991e-18
7282.00698 7.41895e-18
7283.48438 7.73540e-18
7284.95160 7.79809e-18
7286.41881 7.78581e-18
7287.88603 7.44572e-18
7289.36343 7.21047e-18
7290.83065 7.35358e-18
7292.29787 7.57396e-18
7293.76508 6.86604e-18
7295.24249 6.33402e-18
7296.70970 6.93624e-18
7298.17692 7.36782e-18
7299.65432 7.37172e-18
7301.12154 7.69447e-18
7302.58876 7.75365e-18
7304.05597 7.63782e-18
7305.53338 7.54034e-18
7307.00059 7.00918e-18
7308.46781 7.40393e-18
7309.93503 7.62167e-18
7311.41243 7.50707e-18
7312.87965 7.44071e-18
7314.34686 7.38490e-18
7315.82427 7.41915e-18
7317.29148 7.68872e-18
7318.75870 8.05695e-18
7320.22592 7.38093e-18
7321.70332 7.41284e-18
7323.17054 7.78394e-18
7324.63775 8.13729e-18
7326.10497 7.92160e-18
7327.58237 7.75982e-18
7329.04959 7.58247e-18
7330.51681 7.77734e-18
7331.99421 7.46317e-18
7333.46143 7.53130e-18
7334.92864 8.14374e-18
7336.39586 7.70052e-18
7337.87326 8.32840e-18
7339.34048 7.80817e-18
7340.80770 7.10755e-18
7342.27491 7.38610e-18
7343.75232 8.09367e-18
7345.21953 7.21635e-18
7346.68675 7.55749e-18
7348.16415 7.33968e-18
7349.63137 7.44079e-18
7351.09859 7.27533e-18
7352.56580 6.90377e-18
7354.04321 7.04890e-18
7355.51042 7.37572e-18
7356.97764 8.07221e-18
7358.45504 7.57132e-18
7359.92226 7.13440e-18
7361.38948 7.72508e-18
7362.85669 7.68704e-18
7364.33410 7.70541e-18
7365.80131 7.97975e-18
7367.26853 8.11390e-18
7368.73574 7.54763e-18
7370.21315 7.96929e-18
7371.68037 7.77388e-18
7373.14758 7.79570e-18
7374.62499 7.70138e-18
7376.09220 7.49744e-18
7377.55942 7.38985e-18
7379.02663 7.70745e-18
7380.50404 8.16880e-18
7381.97126 7.47330e-18
7383.43847 7.25814e-18
7384.90569 7.38114e-18
7386.38309 7.76203e-18
7387.85031 7.75904e-18
7389.31752 7.44056e-18
7390.78474 7.68404e-18
7392.26215 7.42213e-18
7393.72936 7.36774e-18
7395.19658 7.80515e-18
7396.67398 7.48575e-18
7398.14120 7.32822e-18
7399.60841 7.72237e-18
7401.07563 7.83008e-18
7402.55304 7.82291e-18
7404.02025 7.80943e-18
7405.48747 7.38382e-18
7406.95468 7.67670e-18
7408.43209 7.94094e-18
7409.89930 7.75739e-18
7411.36652 7.55624e-18
7411.86848 7.55624e-18
7413.52607 7.68969e-18
7415.18366 7.67219e-18
7416.84125 7.65462e-18
7418.50888 7.43744e-18
7420.16647 7.22035e-18
7421.82406 7.36201e-18
7423.48165 7.50365e-18
7425.14929 7.56868e-18
7426.80688 7.63370e-18
7428.46447 7.60903e-18
7430.13211 7.58432e-18
7431.78970 7.40511e-18
7433.44729 7.22595e-18
7435.10488 7.16615e-18
7436.77251 7.10641e-18
7438.43010 7.26175e-18
7440.08769 7.41702e-18
7441.74528 7.31960e-18
7443.41292 7.22221e-18
7445.07051 7.23038e-18
7446.72810 7.23856e-18
7448.39573 7.32332e-18
7450.05332 7.40806e-18
7451.71091 7.40598e-18
7453.36850 7.40391e-18
7455.03614 7.42678e-18
7456.69373 7.44968e-18
7458.35132 7.53738e-18
7460.00891 7.62506e-18
7461.67655 7.63869e-18
7463.33414 7.65231e-18
7464.99173 7.60868e-18
7466.65936 7.56500e-18
7468.31695 7.29661e-18
7469.97454 7.02830e-18
7471.63213 7.00374e-18
7473.29977 6.97924e-18
7474.95736 7.10676e-18
7476.61495 7.23424e-18
7478.28258 7.22633e-18
7479.94017 7.21839e-18
7481.59776 7.07224e-18
7483.25535 6.92616e-18
7484.92299 7.06759e-18
7486.58058 7.20900e-18
7488.23817 7.26880e-18
7489.89576 7.32859e-18
7491.56340 7.39967e-18
7493.22099 7.47069e-18
7494.87858 7.36791e-18
7496.54621 7.26514e-18
7498.20380 7.17557e-18
7499.86139 7.08597e-18
7501.51898 6.91570e-18
7503.18662 6.74550e-18
7504.84421 6.79485e-18
7506.50180 6.84420e-18
7508.16943 6.87862e-18
7509.82702 6.91304e-18
7511.48461 6.87865e-18
7513.14220 6.84433e-18
7514.80984 7.00499e-18
7516.46743 7.16555e-18
7518.12502 6.97664e-18
7519.78261 6.78781e-18
7521.45025 6.85734e-18
7523.10784 6.92686e-18
7524.76543 6.99104e-18
7526.43306 7.05520e-18
7528.09065 7.03051e-18
7529.74824 7.00579e-18
7531.40583 6.83390e-18
7533.07347 6.66210e-18
7534.73106 6.78106e-18
7536.38865 6.89999e-18
7538.04624 6.93313e-18
7539.71387 6.96625e-18
7541.37146 6.94366e-18
7543.02905 6.92101e-18
7544.69669 6.75027e-18
7546.35428 6.57961e-18
7548.01187 6.68063e-18
7549.66946 6.78164e-18
7551.33710 6.77076e-18
7552.99469 6.75989e-18
7554.65228 6.74901e-18
7556.30987 6.73815e-18
7557.97750 6.72727e-18
7559.63509 6.71641e-18
7561.29268 6.70554e-18
7562.96032 6.69467e-18
7564.61791 6.68380e-18
7566.27550 6.67293e-18
7567.93309 6.66206e-18
7569.60072 6.65119e-18
7571.25831 6.64032e-18
7572.91590 6.62945e-18
7574.58354 6.61859e-18
7576.24113 6.60772e-18
7577.89872 6.59685e-18
7579.55631 6.58599e-18
7581.22395 6.57512e-18
7582.88154 6.56426e-18
7584.53913 6.55339e-18
7586.19672 6.54252e-18
7587.86435 6.53166e-18
7589.52194 6.52079e-18
7591.17953 6.50993e-18
7592.84717 6.49907e-18
7594.50476 6.48820e-18
7596.16235 6.47734e-18
7597.81994 6.46648e-18
7599.48757 6.45561e-18
7601.14516 6.44475e-18
7602.80275 6.43388e-18
7604.46034 6.42302e-18
7606.12798 6.41217e-18
7607.78557 6.40130e-18
7609.44316 6.39045e-18
7611.11080 6.37958e-18
7612.76839 6.36872e-18
7614.42598 6.35786e-18
7616.08357 6.34700e-18
7617.75120 6.33614e-18
7619.40879 6.32528e-18
7621.06638 6.31443e-18
7622.72397 6.30356e-18
7624.39161 6.29271e-18
7626.04920 6.28184e-18
7627.70679 6.27099e-18
7629.37442 6.26013e-18
7631.03201 6.24928e-18
7632.68960 6.23842e-18
7634.34719 6.22757e-18
7636.01483 6.21671e-18
7637.67242 6.20585e-18
7639.33001 6.19500e-18
7640.99765 6.18414e-18
7642.65524 6.17329e-18
7644.31283 6.16243e-18
7645.97042 6.15158e-18
7647.63805 6.14073e-18
7649.29564 6.12987e-18
7650.95323 6.11902e-18
7652.61082 6.10816e-18
7654.27846 6.09731e-18
7655.93605 6.08646e-18
7657.59364 6.07561e-18
7659.26127 6.06476e-18
7660.91886 6.05391e-18
7662.57645 6.04306e-18
7664.23404 6.03220e-18
7665.90168 6.02136e-18
7667.55927 6.01050e-18
7669.21686 5.99965e-18
7670.87445 5.98880e-18
7672.54209 5.97796e-18
7674.19968 5.96711e-18
7675.85727 5.95626e-18
7677.52490 5.94542e-18
7679.18249 5.93456e-18
7680.84008 5.92372e-18
7682.49767 5.79087e-18
7684.16531 5.77723e-18
7685.82290 5.76368e-18
7687.48049 6.05366e-18
7689.13808 6.34351e-18
7690.80571 6.22939e-18
7692.46330 6.11530e-18
7694.12089 6.13297e-18
7695.78853 6.15060e-18
7697.44612 6.08528e-18
7699.10371 6.02003e-18
7700.76130 6.21651e-18
7702.42894 6.41285e-18
7704.08653 6.17660e-18
7705.74412 5.94046e-18
7707.40171 6.09280e-18
7709.06934 6.24508e-18
7710.72693 6.22022e-18
7712.38452 6.19538e-18
7714.05216 6.28370e-18
7715.70975 6.37196e-18
7717.36734 6.23823e-18
7719.02493 6.10458e-18
7720.69256 6.20929e-18
7722.35015 6.31392e-18
7724.00774 6.14729e-18
7725.67538 5.98068e-18
7727.33297 5.85052e-18
7728.99056 5.72046e-18
7730.64815 5.89763e-18
7732.31579 6.07476e-18
7733.97338 6.12616e-18
7735.63097 6.17750e-18
7737.28856 6.09431e-18
7738.95619 6.01115e-18
7740.61378 6.06698e-18
7742.27137 6.12280e-18
7743.93901 6.14284e-18
7745.59660 6.16292e-18
7747.25419 6.30209e-18
7748.91178 6.44115e-18
7750.57941 6.20775e-18
7752.23700 5.97441e-18
7753.89459 5.89177e-18
7755.55218 5.80921e-18
7757.21982 5.95157e-18
7758.87741 6.09400e-18
7760.53500 6.42296e-18
7762.20264 6.75177e-18
7763.86023 6.61959e-18
7765.51782 6.48745e-18
7767.17541 6.51529e-18
7768.84304 6.54309e-18
7770.50063 6.50892e-18
7772.15822 6.47474e-18
7773.81581 6.42116e-18
7775.48345 6.36757e-18
7777.14104 6.29873e-18
7778.79863 6.22995e-18
7780.46626 6.32805e-18
7782.12385 6.42608e-18
7783.78144 6.29709e-18
7785.43903 6.16821e-18
7787.10667 6.33299e-18
7788.76426 6.49773e-18
7790.42185 6.60193e-18
7792.07944 6.70608e-18
7793.74708 6.64058e-18
7795.40467 6.57512e-18
7797.06226 6.61698e-18
7798.72989 6.65885e-18
7800.38748 6.69987e-18
7802.04507 6.74085e-18
7803.70266 6.68602e-18
7805.37030 6.63121e-18
7807.02789 6.66409e-18
7808.68548 6.69692e-18
7810.35311 6.60493e-18
7812.01070 6.51304e-18
7813.66829 6.78331e-18
7815.32588 7.05343e-18
7816.99352 6.89121e-18
7818.65111 6.72902e-18
7820.30870 6.67967e-18
7821.96629 6.63030e-18
7823.63393 6.47987e-18
7825.29152 6.32949e-18
7826.94911 6.33137e-18
7828.61674 6.33324e-18
7830.27433 6.29715e-18
7831.93192 6.26111e-18
7833.58951 6.36760e-18
7835.25715 6.47410e-18
7836.91474 6.60623e-18
7838.57233 6.73822e-18
7840.22992 6.46972e-18
7841.89755 6.20135e-18
7843.55514 6.32636e-18
7845.21273 6.45132e-18
7846.88037 6.43679e-18
7848.53796 6.42230e-18
7850.19555 6.56460e-18
7851.85314 6.70695e-18
7853.52078 7.06522e-18
7855.17837 7.42331e-18
7856.83596 7.21533e-18
7858.50359 7.00737e-18
7860.16118 6.83621e-18
7861.81877 6.66518e-18
7863.47636 6.86813e-18
7865.14400 7.07097e-18
7866.80159 6.90939e-18
7868.45918 6.74790e-18
7870.11677 6.83330e-18
7871.78440 6.91864e-18
7873.44199 6.80254e-18
7875.09958 6.68647e-18
7876.76722 6.68175e-18
7878.42481 6.67707e-18
7880.08240 6.76763e-18
7881.73999 6.85813e-18
7883.40763 6.71866e-18
7885.06522 6.57932e-18
7886.72281 6.82756e-18
7888.38040 7.07570e-18
7890.04803 6.99726e-18
7891.70562 6.91877e-18
7893.36321 6.69153e-18
7895.03085 6.46436e-18
7896.68844 6.41995e-18
7898.34603 6.37554e-18
7900.00362 6.34812e-18
7901.67125 6.32075e-18
7903.32884 6.47701e-18
7904.98643 6.63322e-18
7906.64402 6.63489e-18
7908.31166 6.63654e-18
7909.96925 6.55934e-18
7911.62684 6.48212e-18
7913.29448 6.30950e-18
7914.95207 6.13700e-18
7916.60966 6.36169e-18
7918.26725 6.58626e-18
7919.93488 6.46406e-18
7921.59247 6.34198e-18
7923.25006 6.54453e-18
7924.90765 6.74701e-18
7926.57529 6.73193e-18
7928.23288 6.71680e-18
7929.89047 6.54369e-18
7931.55810 6.37059e-18
7933.21569 6.27673e-18
7934.87328 6.18294e-18
7936.53087 6.28317e-18
7938.19851 6.38332e-18
7939.85610 6.24003e-18
7941.51369 6.09682e-18
7943.18133 6.18386e-18
7944.83892 6.27097e-18
7946.49651 6.55174e-18
7948.15410 6.83236e-18
7949.82173 6.61242e-18
7951.47932 6.39248e-18
7953.13691 6.15058e-18
7954.79450 5.90886e-18
7956.46214 6.15386e-18
7958.11973 6.39870e-18
7959.77732 6.11168e-18
7961.44495 5.82482e-18
7963.10254 6.02059e-18
7964.76013 6.21629e-18
7966.41772 6.18210e-18
7968.08536 6.14792e-18
7969.74295 6.16810e-18
7971.40054 6.18829e-18
7973.05813 6.26080e-18
7974.72577 6.33323e-18
7976.38336 6.14041e-18
7978.04095 5.94764e-18
7979.70858 5.85293e-18
7981.36617 5.75833e-18
7983.02376 5.98037e-18
7984.68135 6.20236e-18
7986.34899 6.26870e-18
7988.00658 6.33498e-18
7989.66417 6.22328e-18
7991.33180 6.11163e-18
7992.98939 6.22560e-18
7994.64698 6.33942e-18
7996.30457 6.05782e-18
7997.97221 5.77640e-18
7999.62980 5.99061e-18
8001.28739 6.20469e-18
8002.94498 6.04511e-18
8004.61262 5.88558e-18
8006.27021 5.83307e-18
8007.92780 5.78067e-18
8009.59543 6.04431e-18
8011.25302 6.30779e-18
8012.91061 6.08931e-18
8014.56820 5.87092e-18
8016.23584 5.89275e-18
8017.89343 5.91459e-18
8019.55102 6.01202e-18
8021.20861 6.10942e-18
8022.87624 6.11460e-18
8024.53383 6.11972e-18
8026.19142 5.97780e-18
8027.85906 5.83590e-18
8029.51665 5.78047e-18
8031.17424 5.72503e-18
8032.83183 5.61990e-18
8034.49947 5.51485e-18
8036.15706 5.69843e-18
8037.81465 5.88194e-18
8039.47224 5.88081e-18
8041.13987 5.87967e-18
8042.79746 5.80810e-18
8044.45505 5.73655e-18
8046.12269 5.65791e-18
8047.78028 5.57934e-18
8049.43787 5.71049e-18
8051.09546 5.84159e-18
8052.76309 5.80159e-18
8054.42068 5.76157e-18
8056.07827 5.62916e-18
8057.73586 5.49683e-18
8059.40350 5.57471e-18
8061.06109 5.65258e-18
8062.71868 5.67677e-18
8064.38632 5.70091e-18
8066.04391 5.55069e-18
8067.70150 5.40051e-18
8069.35909 5.35045e-18
8071.02672 5.30044e-18
8072.68431 5.38840e-18
8074.34190 5.47638e-18
8076.00954 5.56271e-18
8077.66713 5.64901e-18
8079.32472 5.63743e-18
8080.98231 5.62579e-18
8082.64994 5.42663e-18
8084.30753 5.22749e-18
8085.96512 5.12995e-18
8087.62271 5.03245e-18
8089.29035 5.09197e-18
8090.94794 5.15149e-18
8092.60553 5.21704e-18
8094.27317 5.28258e-18
8095.93076 5.28602e-18
8097.58835 5.28946e-18
8099.24594 5.28465e-18
8100.91357 5.27986e-18
8102.57116 5.32217e-18
8104.22875 5.36443e-18
8105.88634 5.27118e-18
8107.55398 5.17799e-18
8109.21157 5.25782e-18
8110.86916 5.33756e-18
8112.53679 5.14068e-18
8114.19438 4.94392e-18
8115.85197 5.11037e-18
8117.50956 5.27682e-18
8119.17720 5.48454e-18
8120.83479 5.69213e-18
8122.49238 5.50288e-18
8124.16002 5.31362e-18
8125.81761 5.04018e-18
8127.47520 4.76686e-18
8129.13279 4.83585e-18
8130.80042 4.90486e-18
8132.45801 5.06223e-18
8134.11560 5.21954e-18
8135.77319 5.24076e-18
8137.44083 5.26197e-18
8139.09842 5.29315e-18
8140.75601 5.32429e-18
8142.41360 5.26846e-18
8144.08123 5.21260e-18
8145.73882 5.02616e-18
8147.39641 4.83984e-18
8149.06405 5.03070e-18
8150.72164 5.22147e-18
8152.37923 5.18409e-18
8154.03682 5.14666e-18
8155.70446 4.95486e-18
8157.36205 4.76318e-18
8159.01964 4.88658e-18
8160.68727 5.00995e-18
8162.34486 5.07393e-18
8164.00245 5.13783e-18
8165.66004 4.98480e-18
8167.32768 4.83190e-18
8168.98527 5.08197e-18
8170.64286 5.33193e-18
8172.30045 5.32237e-18
8173.96808 5.31268e-18
8175.62567 4.88869e-18
8177.28326 4.46490e-18
8178.95090 4.59166e-18
8180.60849 4.71844e-18
8182.26608 4.88596e-18
8183.92367 5.05345e-18
8185.59131 5.13173e-18
8187.24890 5.20989e-18
8188.90649 4.89101e-18
8190.56408 4.57227e-18
8192.23171 4.62099e-18
8193.88930 4.66977e-18
8195.54689 4.91025e-18
8197.21453 5.15063e-18
8198.87212 5.15049e-18
8200.52971 5.15031e-18
8202.18730 5.04669e-18
8203.85493 4.94310e-18
8205.51252 4.96289e-18
8207.17011 4.98268e-18
8208.82770 5.00673e-18
8210.49534 5.03068e-18
8212.15293 4.75837e-18
8213.81052 4.48618e-18
8215.47816 4.61278e-18
8217.13575 4.73931e-18
8218.79334 4.62363e-18
8220.45093 4.50805e-18
8222.11856 4.69282e-18
8223.77615 4.87748e-18
8225.43374 4.75103e-18
8227.09133 4.62468e-18
8228.75897 4.72689e-18
8230.41656 4.82905e-18
8232.07415 4.73980e-18
8233.74178 4.65058e-18
8235.39937 4.64699e-18
8237.05696 4.64338e-18
8238.71455 4.54511e-18
8240.38219 4.44687e-18
8242.03978 4.35801e-18
8243.69737 4.26928e-18
8245.36501 4.53143e-18
8247.02260 4.79348e-18
8248.68019 4.73033e-18
8250.33778 4.66722e-18
8252.00541 4.68548e-18
8253.66300 4.70361e-18
8255.32059 4.36478e-18
8256.97818 4.02619e-18
8258.64582 4.30767e-18
8260.30341 4.58906e-18
8261.96100 4.66572e-18
8263.62863 4.74231e-18
8265.28622 4.65279e-18
8266.94381 4.56326e-18
8268.60140 4.41372e-18
8270.26904 4.26425e-18
8271.92663 4.24990e-18
8273.58422 4.23558e-18
8275.25186 4.28389e-18
8276.90945 4.33216e-18
8278.56704 4.26322e-18
8280.22463 4.19428e-18
8281.89226 4.09834e-18
8283.54985 4.00248e-18
8285.20744 4.11534e-18
8286.86503 4.22814e-18
8288.53267 4.15516e-18
8290.19026 4.08223e-18
8291.84785 4.16188e-18
8293.51548 4.24153e-18
8295.17307 4.30956e-18
8296.83066 4.37755e-18
8298.48825 4.34024e-18
8300.15589 4.30287e-18
8301.81348 4.09758e-18
8303.47107 3.89238e-18
8305.12866 3.94594e-18
8306.79630 3.99946e-18
8308.45389 3.96421e-18
8310.11148 3.92895e-18
8311.77911 3.85368e-18
8313.43670 3.77846e-18
8315.09429 3.85247e-18
8316.75188 3.92647e-18
8318.41952 4.04512e-18
8320.07711 4.16370e-18
8321.73470 4.08442e-18
8323.40233 4.00510e-18
8325.05992 3.77719e-18
8326.71751 3.54941e-18
8328.37510 3.63739e-18
8330.04274 3.72538e-18
8331.70033 3.80677e-18
8333.35792 3.88815e-18
8335.01551 3.90218e-18
8336.68315 3.91622e-18
8338.34074 3.94585e-18
8339.99833 3.97549e-18
8341.65592 4.03938e-18
8343.32355 4.10333e-18
8344.98114 4.28362e-18
8346.63873 4.46381e-18
8348.30637 4.35172e-18
8349.96396 4.23958e-18
8351.62155 4.00732e-18
8353.27914 3.77517e-18
8354.94677 3.82874e-18
8356.60436 3.88231e-18
8358.26195 4.00264e-18
8359.92959 4.12291e-18
8361.58718 4.10123e-18
8363.24477 4.07951e-18
8364.90236 3.96015e-18
8366.57000 3.84081e-18
8368.22759 3.75542e-18
8369.88518 3.67012e-18
8371.54277 3.83903e-18
8373.21040 4.00778e-18
8374.86799 3.75267e-18
8376.52558 3.49774e-18
8378.19322 3.73781e-18
8379.85081 3.97775e-18
8381.50840 3.85376e-18
8383.16599 3.72984e-18
8384.83362 3.79944e-18
8386.49121 3.86895e-18
8388.14880 3.70623e-18
8389.81644 3.54361e-18
8391.47403 3.70987e-18
8393.13162 3.87612e-18
8394.78921 4.02376e-18
8396.45685 4.17133e-18
8398.11444 4.08717e-18
8399.77203 4.00302e-18
8401.42962 3.93301e-18
8403.09725 3.86306e-18
8404.75484 3.93184e-18
8406.41243 4.00066e-18
8408.08007 4.19848e-18
8409.73766 4.39616e-18
8411.39525 4.22020e-18
8413.05284 4.04429e-18
8414.72047 4.05644e-18
8416.37806 4.06853e-18
8418.03565 3.95613e-18
8419.69324 3.84377e-18
8421.36088 3.81837e-18
8423.01847 3.79300e-18
8424.67606 3.84211e-18
8426.34370 3.89114e-18
8428.00129 3.65644e-18
8429.65888 3.42191e-18
8431.31647 3.61390e-18
8432.98410 3.80587e-18
8434.64169 3.95018e-18
8436.29928 4.09441e-18
8437.95687 4.06256e-18
8439.62451 4.03071e-18
8441.28210 3.97476e-18
8442.93969 3.91875e-18
8444.60732 3.67461e-18
8446.26491 3.43059e-18
8447.92250 3.52345e-18
8449.58009 3.61635e-18
8451.24773 3.82842e-18
8452.90532 4.04044e-18
8454.56291 4.10667e-18
8456.22050 4.17283e-18
8457.88814 4.01713e-18
8459.54573 3.86147e-18
8461.20332 3.78669e-18
8462.87095 3.71195e-18
8464.52854 3.77466e-18
8466.18613 3.83735e-18
8467.84372 3.85154e-18
8469.51136 3.86572e-18
8471.16895 3.85410e-18
8472.82654 3.84245e-18
8474.48413 3.81141e-18
8476.15176 3.78043e-18
8477.80935 3.86241e-18
8479.46694 3.94446e-18
8481.13458 4.18199e-18
8482.79217 4.41936e-18
8484.44976 4.22701e-18
8486.10735 4.03473e-18
8487.77499 4.02431e-18
8489.43258 4.01399e-18
8491.09017 4.25865e-18
8492.75780 4.50315e-18
8494.41539 4.30548e-18
8496.07298 4.10789e-18
8497.73057 4.15249e-18
8499.39821 4.19706e-18
8501.05580 4.20867e-18
8502.71339 4.22028e-18
8504.37098 4.21561e-18
8506.03861 4.21093e-18
8507.69620 4.18891e-18
8509.35379 4.16691e-18
8511.01138 4.21775e-18
8512.67902 4.26855e-18
8514.33661 4.21839e-18
8515.99420 4.16828e-18
8517.66184 4.29212e-18
8519.31943 4.41589e-18
8520.97702 4.29927e-18
8522.63461 4.18265e-18
8524.30224 4.09157e-18
8525.95983 4.00060e-18
8527.61742 4.22183e-18
8529.28506 4.44301e-18
8530.94265 4.59616e-18
8532.60024 4.74917e-18
8534.25783 4.51286e-18
8535.92546 4.27671e-18
8537.58305 4.49884e-18
8539.24064 4.72084e-18
8540.89823 4.58558e-18
8542.56587 4.45039e-18
8544.22346 4.43900e-18
8545.88105 4.42763e-18
8547.54869 4.44075e-18
8549.20628 4.45395e-18
8550.86387 4.66868e-18
8552.52146 4.88332e-18
8554.18909 4.88037e-18
8555.84668 4.87747e-18
8557.50427 4.99576e-18
8559.17191 5.11395e-18
8560.82950 5.00271e-18
8562.48709 4.89149e-18
8564.14468 4.80444e-18
8565.81231 4.71749e-18
8567.46990 4.86551e-18
8569.12749 5.01348e-18
8570.78508 5.00048e-18
8572.45272 4.98744e-18
8574.11031 4.83275e-18
8575.76790 4.67807e-18
8577.43554 4.58154e-18
8579.09313 4.48508e-18
8580.75072 4.60636e-18
8582.40831 4.72756e-18
8584.07594 4.67564e-18
8585.73353 4.62377e-18
8587.39112 4.73900e-18
8589.04871 4.85425e-18
8590.71635 4.98799e-18
8592.37394 5.12163e-18
8594.03153 4.98185e-18
8595.69916 4.84210e-18
8597.35675 4.76344e-18
8599.01434 4.68482e-18
8600.67193 4.72286e-18
8602.33957 4.76096e-18
8603.99716 4.99023e-18
8605.65475 5.21937e-18
8607.32239 5.12926e-18
8608.97998 5.03911e-18
8610.63757 4.90520e-18
8612.29516 4.77133e-18
8613.96279 4.78186e-18
8615.62038 4.79238e-18
8617.27797 4.81270e-18
8618.93556 4.83301e-18
8620.60320 4.81510e-18
8622.26079 4.79727e-18
8623.91838 5.00775e-18
8625.58601 5.21818e-18
8627.24360 5.31373e-18
8628.90119 5.40918e-18
8630.55878 5.25339e-18
8632.22642 5.09764e-18
8633.88401 4.99744e-18
8635.54160 4.89734e-18
8637.20924 5.07665e-18
8638.86683 5.25592e-18
8640.52442 5.33738e-18
8642.18201 5.41869e-18
8643.84964 5.06440e-18
8645.50723 4.71026e-18
8647.16482 4.76936e-18
8648.82241 4.82851e-18
8650.49005 5.05847e-18
8652.14764 5.28832e-18
8653.80523 5.28809e-18
8655.46282 5.28782e-18
8657.13045 5.19980e-18
8658.78804 5.11184e-18
8660.44563 5.19938e-18
8662.11327 5.28681e-18
8663.77086 5.09513e-18
8665.42845 4.90352e-18
8667.08604 4.94821e-18
8668.75368 4.99288e-18
8670.41127 4.97780e-18
8672.06886 4.96274e-18
8673.73649 5.01574e-18
8675.39408 5.06868e-18
8677.05167 4.94530e-18
8678.70926 4.82200e-18
8680.37690 4.91203e-18
8682.03449 5.00203e-18
8683.69208 5.04213e-18
8685.34967 5.08214e-18
8687.01730 4.90997e-18
8688.67489 4.73792e-18
8690.33248 4.90006e-18
8691.99007 5.06216e-18
8693.65771 5.12384e-18
8695.31530 5.18543e-18
8696.97289 5.05885e-18
8698.64053 4.93233e-18
8700.29812 4.96557e-18
8701.95571 4.99882e-18
8703.61330 5.09252e-18
8705.28093 5.18614e-18
8706.93852 5.09827e-18
8708.59611 5.01039e-18
8710.26375 4.92244e-18
8711.92134 4.83458e-18
8713.57893 4.94768e-18
8715.23652 5.06072e-18
8716.90415 4.99854e-18
8718.56174 4.93635e-18
8720.21933 4.85388e-18
8721.87692 4.77145e-18
8723.54456 4.80204e-18
8725.20215 4.83266e-18
8726.85974 4.92291e-18
8728.52738 5.01318e-18
8730.18497 5.13620e-18
8731.84256 5.25911e-18
8733.50015 5.11151e-18
8735.16778 4.96402e-18
8736.82537 5.06039e-18
8738.48296 5.15669e-18
8740.14055 5.04390e-18
8741.80819 4.93119e-18
8743.46578 5.04109e-18
8745.12337 5.15087e-18
8746.79100 4.90433e-18
8748.44859 4.65793e-18
8750.10618 4.74768e-18
8751.76377 4.83754e-18
8753.43141 5.19078e-18
8755.08900 5.54390e-18
8756.74659 5.57704e-18
8758.40418 5.61003e-18
8760.07182 5.22580e-18
8761.72941 4.84169e-18
8763.38700 4.78907e-18
8765.05463 4.73649e-18
8766.71222 4.80210e-18
8768.36981 4.86766e-18
8770.02740 4.79307e-18
8771.69504 4.71853e-18
8773.35263 4.72770e-18
8775.01022 4.73684e-18
8776.67785 4.71931e-18
8778.33544 4.70177e-18
8779.99303 4.69867e-18
8781.65062 4.69560e-18
8783.31826 4.74862e-18
8784.97585 4.80154e-18
8786.63344 4.58632e-18
8788.29103 4.37114e-18
8789.95867 4.28421e-18
8791.61626 4.19740e-18
8793.27385 4.48381e-18
8794.94148 4.77006e-18
8796.59907 4.63315e-18
8798.25666 4.49628e-18
8799.91425 4.46884e-18
8801.58189 4.44140e-18
8803.23948 4.41769e-18
8804.89707 4.39398e-18
8806.56470 4.40954e-18
8808.22229 4.42511e-18
8809.87988 4.49806e-18
8811.53747 4.57100e-18
8813.20511 4.58183e-18
8814.86270 4.59268e-18
8816.52029 4.64897e-18
8818.17788 4.70524e-18
8819.84552 4.72963e-18
8821.50311 4.75401e-18
8823.16070 4.74632e-18
8824.82833 4.73863e-18
8826.48592 4.73475e-18
8828.14351 4.73069e-18
8829.80110 4.31690e-18
8831.46874 3.90341e-18
8833.12633 4.27342e-18
8834.78392 4.64326e-18
8836.44151 4.55522e-18
8838.10914 4.46723e-18
8839.76673 4.46016e-18
8841.42432 4.45307e-18
8843.09196 4.37075e-18
8844.74955 4.28846e-18
8846.40714 4.28312e-18
8848.06473 4.27779e-18
8849.73237 4.27947e-18
8851.38996 4.28119e-18
8853.04755 4.38329e-18
8854.71518 4.48530e-18
8856.37277 4.36033e-18
8858.03036 4.23538e-18
8859.68795 4.14913e-18
8861.35559 4.06290e-18
8863.01318 4.05501e-18
8864.67077 4.04714e-18
8866.32836 4.11188e-18
8867.99599 4.17665e-18
8869.65358 4.27293e-18
8871.31117 4.36918e-18
8872.97881 4.36458e-18
8874.63640 4.35993e-18
8876.29399 4.20273e-18
8877.95158 4.04565e-18
8879.61922 4.17372e-18
8881.27681 4.30171e-18
8882.93440 4.25744e-18
8884.60203 4.21324e-18
8886.25962 4.33085e-18
8887.91721 4.44844e-18
8889.57480 4.47000e-18
8891.24244 4.49146e-18
8892.90003 4.25137e-18
8894.55762 4.01141e-18
8896.21521 4.09906e-18
8897.88284 4.18668e-18
8899.54043 4.18794e-18
8901.19802 4.18917e-18
8902.85561 4.16460e-18
8904.52325 4.14002e-18
8906.18084 4.12393e-18
8907.83843 4.10778e-18
8909.50607 3.93793e-18
8911.16366 3.76818e-18
8912.82125 3.81101e-18
8914.47884 3.85378e-18
8916.14647 3.73158e-18
8917.80406 3.60951e-18
8919.46165 3.78115e-18
8921.11924 3.95271e-18
8922.78688 3.90100e-18
8924.44447 3.84943e-18
8926.10206 4.14229e-18
8927.76969 4.43502e-18
8929.42728 4.38881e-18
8931.08487 4.34245e-18
8932.74246 3.95895e-18
8934.41010 3.57559e-18
8936.06769 3.55503e-18
8937.72528 3.53456e-18
8939.38287 3.75146e-18
8941.05051 3.96816e-18
8942.70810 3.71378e-18
8944.36569 3.45953e-18
8946.03332 3.52833e-18
8947.69091 3.59706e-18
8949.34850 3.50828e-18
8951.00609 3.41960e-18
8952.67373 3.57615e-18
8954.33132 3.73253e-18
8955.98891 3.47152e-18
8957.64650 3.21067e-18
8959.31413 3.35499e-18
8960.97172 3.49927e-18
8962.62931 3.60285e-18
8964.29695 3.70643e-18
8965.95454 3.85969e-18
8967.61213 4.01283e-18
8969.26972 3.90486e-18
8970.93736 3.79692e-18
8972.59495 3.77872e-18
8974.25254 3.76051e-18
8975.92017 3.72861e-18
8977.57776 3.69669e-18
8979.23535 3.60411e-18
8980.89294 3.51161e-18
8982.56058 3.59422e-18
8984.21817 3.67683e-18
8985.87576 3.78167e-18
8987.53335 3.88639e-18
8989.20098 3.71589e-18
8990.85857 3.54544e-18
8992.51616 3.48877e-18
8994.18380 3.43214e-18
8995.84139 3.50332e-18
8997.49898 3.57448e-18
8999.15657 3.64072e-18
9000.82421 3.70699e-18
9002.48180 3.82450e-18
9004.13939 3.94195e-18
9005.79698 3.89371e-18
9007.46461 3.84548e-18
9009.12220 3.82099e-18
9010.77979 3.79654e-18
9012.44743 3.90518e-18
9014.10502 4.01370e-18
9015.76261 3.81275e-18
9017.42020 3.61191e-18
9019.08783 3.64912e-18
9020.74542 3.68627e-18
9022.40301 3.58252e-18
9024.07065 3.47880e-18
9025.72824 3.50929e-18
9027.38583 3.53979e-18
9029.04342 3.61400e-18
9030.71106 3.68824e-18
9032.36865 3.84822e-18
9034.02624 4.00805e-18
9035.68383 3.79700e-18
9037.35146 3.58601e-18
9039.00905 3.52080e-18
9040.66664 3.45566e-18
9042.33428 3.57699e-18
9043.99187 3.69821e-18
9045.64946 3.53396e-18
9047.30705 3.36970e-18
9048.97468 3.19655e-18
9050.63227 3.02357e-18
9052.28986 3.29001e-18
9053.95750 3.55636e-18
9055.61509 3.59546e-18
9057.27268 3.63446e-18
9058.93027 3.43970e-18
9060.59791 3.24499e-18
9062.25550 3.20324e-18
9063.91309 3.16152e-18
9065.57068 3.20314e-18
9067.23831 3.24469e-18
9068.89590 3.10639e-18
9070.55349 2.96821e-18
9072.21108 3.12226e-18
9073.87872 3.27623e-18
9075.53631 3.27870e-18
9077.19390 3.28119e-18
9078.86153 3.31218e-18
9080.51912 3.34304e-18
9082.17671 3.07829e-18
9083.83430 2.81374e-18
9085.50194 3.00885e-18
9087.15953 3.20394e-18
9088.81712 3.32883e-18
9090.48476 3.45361e-18
9092.14235 3.33605e-18
9093.79994 3.21869e-18
9095.45753 3.44953e-18
9097.12516 3.68016e-18
9098.78275 3.42728e-18
9100.44034 3.17459e-18
9102.09793 3.33203e-18
9103.76557 3.48954e-18
9105.42316 3.79919e-18
9107.08075 4.10864e-18
9108.74838 3.94424e-18
9110.40597 3.77984e-18
9112.06356 3.55793e-18
9113.72115 3.33610e-18
9115.38879 3.27056e-18
9117.04638 3.20508e-18
9118.70397 3.28131e-18
9120.36156 3.35750e-18
9122.02920 3.31829e-18
9123.68679 3.27912e-18
9125.34438 3.35460e-18
9127.01201 3.43008e-18
9128.66960 3.52874e-18
9130.32719 3.62736e-18
9131.98478 3.67779e-18
9133.65242 3.72820e-18
9135.31001 3.72146e-18
9136.96760 3.71474e-18
9138.63523 3.77889e-18
9140.29282 3.84297e-18
9141.95041 3.71997e-18
9143.60800 3.59703e-18
9145.27564 3.62456e-18
9146.93323 3.65206e-18
9148.59082 3.59958e-18
9150.24841 3.54705e-18
9151.91605 3.40078e-18
9153.57364 3.25466e-18
9155.23123 3.51604e-18
9156.89886 3.77731e-18
9158.55645 3.80571e-18
9160.21404 3.83406e-18
9161.87163 3.76614e-18
9163.53927 3.69817e-18
9165.19686 3.49060e-18
9166.85445 3.28317e-18
9168.51204 3.43112e-18
9170.17967 3.57901e-18
9171.83726 3.58492e-18
9173.49485 3.59081e-18
9175.15244 3.55074e-18
9176.82008 3.51075e-18
9178.47767 3.69660e-18
9180.13526 3.88240e-18
9181.80290 3.93687e-18
9183.46049 3.99128e-18
9185.11808 3.92005e-18
9186.77567 3.84886e-18
9188.44330 3.89436e-18
9190.10089 3.93981e-18
9191.75848 3.88500e-18
9193.42612 3.83014e-18
9195.08371 3.67309e-18
9196.74130 3.51619e-18
9198.39889 3.74264e-18
9200.06652 3.96901e-18
9201.72411 3.97740e-18
9203.38170 3.98570e-18
9205.03929 3.79923e-18
9206.70693 3.61283e-18
9208.36452 3.60792e-18
9210.02211 3.60307e-18
9211.68975 3.76051e-18
9213.34734 3.91786e-18
9215.00493 3.87456e-18
9216.66252 3.83124e-18
9218.33015 3.76040e-18
9219.98774 3.68956e-18
9221.64533 3.61452e-18
9223.31297 3.53954e-18
9224.97056 3.59674e-18
9226.62815 3.65384e-18
9228.28574 3.44889e-18
9229.95337 3.24416e-18
9231.61096 3.57563e-18
9233.26855 3.90702e-18
9234.92614 4.06735e-18
9236.59378 4.22751e-18
9238.25137 3.98572e-18
9239.90896 3.74398e-18
9241.56655 3.61938e-18
9243.23419 3.49494e-18
9244.89178 3.74006e-18
9246.54937 3.98500e-18
9248.21700 3.80219e-18
9249.87459 3.61946e-18
9251.53218 3.63254e-18
9253.18977 3.64559e-18
9254.85741 3.60418e-18
9256.51500 3.56282e-18
9258.17259 3.61257e-18
9259.84022 3.66234e-18
9261.49781 3.75330e-18
9263.15540 3.84420e-18
9264.81299 3.77733e-18
9266.48063 3.71039e-18
9268.13822 3.47543e-18
9269.79581 3.24068e-18
9271.45340 3.51008e-18
9273.12104 3.77930e-18
9274.77863 3.65125e-18
9276.43622 3.52332e-18
9278.10385 3.71718e-18
9279.76144 3.91087e-18
9281.41903 3.72093e-18
9283.07662 3.53107e-18
9284.74426 3.53609e-18
9286.40185 3.54114e-18
9288.05944 3.63057e-18
9289.71703 3.71985e-18
9291.38466 3.42534e-18
9293.04225 3.13100e-18
9294.69984 3.21873e-18
9296.36748 3.30648e-18
9298.02507 3.43433e-18
9299.68266 3.56211e-18
9301.34025 3.56885e-18
9303.00789 3.57557e-18
9304.66548 3.55484e-18
9306.32307 3.53406e-18
9307.99070 3.39304e-18
9309.64829 3.25206e-18
9311.30588 3.18583e-18
9312.96347 3.11967e-18
9314.63111 3.18247e-18
9316.28870 3.24517e-18
9317.94629 3.04493e-18
9319.60388 2.84466e-18
9321.27151 2.57622e-18
9322.92910 2.30802e-18
9324.58669 2.59432e-18
9326.25433 2.88052e-18
9327.91192 2.92001e-18
9329.56951 2.95951e-18
9331.22710 3.05243e-18
9332.89474 3.14525e-18
9334.55233 2.98841e-18
9336.20992 2.83166e-18
9337.87755 2.88665e-18
9339.53514 2.94162e-18
9341.19273 2.97279e-18
9342.85032 3.00402e-18
9344.51796 3.17067e-18
9346.17555 3.33727e-18
9347.83314 3.37714e-18
9349.49073 3.41681e-18
9351.15836 2.99572e-18
9352.81595 2.57478e-18
9354.47354 2.50067e-18
9356.13113 2.42676e-18
9357.79877 2.82346e-18
9359.45636 3.21999e-18
9361.11395 3.18285e-18
9362.78159 3.14582e-18
9364.43918 3.32168e-18
9366.09677 3.49746e-18
9367.75436 3.49730e-18
9369.42199 3.49713e-18
9371.07958 3.47071e-18
9372.73717 3.44410e-18
9374.40481 2.93761e-18
9376.06240 2.43135e-18
9377.71999 2.44442e-18
9379.37758 2.45756e-18
9381.04521 2.66872e-18
9382.70280 2.87978e-18
9384.36039 2.89013e-18
9386.01798 2.90047e-18
9387.68562 2.90223e-18
9389.34321 2.90397e-18
9391.00080 2.89254e-18
9392.66844 2.88119e-18
9394.32603 3.01431e-18
9395.98362 3.14731e-18
9397.64121 3.01094e-18
9399.30884 2.87462e-18
9400.96643 2.88285e-18
9402.62402 2.89108e-18
9404.28161 2.92944e-18
9405.94925 2.96775e-18
9407.60684 2.89089e-18
9409.26443 2.81414e-18
9410.93206 2.96662e-18
9412.58965 3.11905e-18
9414.24724 3.14775e-18
9415.90483 3.17639e-18
9417.57247 3.05570e-18
9419.23006 2.93507e-18
9420.88765 2.90036e-18
9422.54524 2.86561e-18
9424.21288 2.74084e-18
9425.87047 2.61628e-18
9427.52806 2.95512e-18
9429.19569 3.29373e-18
9430.85328 3.08827e-18
9432.51087 2.88287e-18
9434.16846 2.81738e-18
9435.83610 2.75176e-18
9437.49369 2.39072e-18
9439.15128 2.02977e-18
9440.80887 1.89628e-18
9442.47650 1.76310e-18
9444.13409 2.35543e-18
9445.79168 2.94750e-18
9447.45932 2.93669e-18
9449.11691 2.92590e-18
9450.77450 2.99909e-18
9452.43209 3.07216e-18
9454.09973 2.89521e-18
9455.75732 2.71826e-18
9457.41491 2.50112e-18
9459.07250 2.28412e-18
9460.74013 2.34269e-18
9462.39772 2.40133e-18
9464.05531 2.60905e-18
9465.72295 2.81656e-18
9467.38054 2.53889e-18
9469.03813 2.26142e-18
9470.69572 2.46356e-18
9472.36335 2.66571e-18
9474.02094 2.89357e-18
9475.67853 3.12139e-18
9477.34617 3.23837e-18
9479.00376 3.35525e-18
9480.66135 3.22862e-18
9482.31894 3.10205e-18
9483.98658 3.10501e-18
9485.64417 3.10790e-18
9487.30176 2.89797e-18
9488.95935 2.68811e-18
9490.62698 2.66614e-18
9492.28457 2.64416e-18
9493.94216 2.57572e-18
9495.60980 2.50747e-18
9497.26739 2.84135e-18
9498.92498 3.17503e-18
9500.58257 3.02757e-18
9502.25020 2.88020e-18
9503.90779 2.92397e-18
9505.56538 2.96776e-18
9507.23302 3.03681e-18
9508.89061 3.10573e-18
9510.54820 2.88427e-18
9512.20579 2.66287e-18
9513.87343 2.56755e-18
9515.53102 2.47223e-18
9517.18861 2.42436e-18
9518.84620 2.37663e-18
9520.51383 2.68007e-18
9522.17142 2.98329e-18
9523.82901 2.79893e-18
9525.49665 2.61469e-18
9527.15424 2.68418e-18
9528.81183 2.75360e-18
9530.46942 2.64943e-18
9532.13705 2.54536e-18
9533.79464 2.66711e-18
9535.45223 2.78880e-18
9537.10982 2.81726e-18
9538.77746 2.84573e-18
9540.43505 2.91335e-18
9542.09264 2.98093e-18
9543.76028 2.94906e-18
9545.41787 2.91710e-18
9547.07546 2.68322e-18
9548.73305 2.44940e-18
9550.40068 2.33005e-18
9552.05827 2.21100e-18
9553.71586 2.78819e-18
9555.37345 3.36502e-18
9557.04109 3.10167e-18
9558.69868 2.83842e-18
9560.35627 2.80073e-18
9562.02390 2.76311e-18
9563.68149 2.87552e-18
9565.33908 2.98782e-18
9566.99667 2.83270e-18
9568.66431 2.67766e-18
9570.32190 2.70003e-18
9571.97949 2.72243e-18
9573.64713 2.79141e-18
9575.30472 2.86026e-18
9576.96231 2.64345e-18
9578.61990 2.42673e-18
9580.28753 2.42639e-18
9581.94512 2.42609e-18
9583.60271 2.50315e-18
9585.27035 2.58015e-18
9586.92794 2.48368e-18
9588.58553 2.38724e-18
9590.24312 2.35244e-18
9591.91075 2.31775e-18
9593.56834 2.53626e-18
9595.22593 2.75463e-18
9596.88352 2.65321e-18
9598.55116 2.55192e-18
9600.20875 2.73137e-18
9601.86634 2.91073e-18
9603.52393 2.90601e-18
9605.19157 2.90135e-18
9606.84916 3.02553e-18
9608.50675 3.14952e-18
9610.17438 2.82272e-18
9611.83197 2.49606e-18
9613.48956 2.48385e-18
9615.14715 2.47163e-18
9616.81479 2.44481e-18
9618.47238 2.41802e-18
9620.12997 2.46285e-18
9621.79760 2.50768e-18
9623.45519 2.56489e-18
9625.11278 2.62210e-18
9626.77037 2.67667e-18
9628.43801 2.73125e-18
9630.09560 2.80311e-18
9631.75319 2.87494e-18
9633.41078 2.86777e-18
9635.07842 2.86065e-18
9636.73601 3.01332e-18
9638.39360 3.16582e-18
9640.06123 2.98117e-18
9641.71882 2.79662e-18
9643.37641 2.86052e-18
9645.03400 2.92427e-18
9646.70164 2.66852e-18
9648.35923 2.41297e-18
9650.01682 2.57970e-18
9651.67441 2.74634e-18
9653.34204 2.72374e-18
9654.99963 2.70108e-18
9656.65722 2.51325e-18
9658.31481 2.32556e-18
9659.98245 2.40350e-18
9661.64004 2.48154e-18
9663.29763 2.74681e-18
9664.96527 3.01181e-18
9666.62286 2.65242e-18
9668.28045 2.29328e-18
9669.93804 2.48187e-18
9671.60567 2.67046e-18
9673.26326 2.86334e-18
9674.92085 3.05615e-18
9676.58849 3.10637e-18
9678.24608 3.15650e-18
9679.90367 3.01674e-18
9681.56126 2.87719e-18
9683.22889 3.17738e-18
9684.88648 3.47734e-18
9686.54407 3.24255e-18
9688.20166 3.00771e-18
9689.86930 2.67832e-18
9691.52689 2.34924e-18
9693.18448 2.66327e-18
9694.85212 2.97719e-18
9696.50971 3.01795e-18
9698.16730 3.05879e-18
9699.82489 3.28052e-18
9701.49252 3.50187e-18
9703.15011 2.86828e-18
9704.80770 2.23504e-18
9706.46529 2.37355e-18
9708.13293 2.51202e-18
9709.79052 2.57014e-18
9711.44811 2.62813e-18
9713.11574 2.35077e-18
9714.77333 2.07367e-18
9716.43092 2.35571e-18
9718.08851 2.63774e-18
9719.75615 2.89442e-18
9721.41374 3.15088e-18
9723.07133 2.90293e-18
9724.73897 2.65515e-18
9726.39656 2.70794e-18
9728.05415 2.76074e-18
9729.71174 2.84263e-18
9731.37937 2.92439e-18
9733.03696 2.76028e-18
9734.69455 2.59627e-18
9736.35214 2.66768e-18
9738.01978 2.73910e-18
9739.67737 2.85770e-18
9741.33496 2.97623e-18
9743.00259 2.97425e-18
9744.66018 2.97221e-18
9746.31777 2.81951e-18
9747.97536 2.66682e-18
9749.64300 2.53673e-18
9751.30059 2.40682e-18
9752.95818 2.67242e-18
9754.62582 2.93778e-18
9756.28341 2.72507e-18
9757.94100 2.51250e-18
9759.59859 2.61254e-18
9761.26622 2.71257e-18
9762.92381 2.78659e-18
9764.58140 2.86055e-18
9766.23899 2.81328e-18
9767.90663 2.76610e-18
9769.56422 2.89269e-18
9771.22181 3.01918e-18
9772.87940 2.91881e-18
9774.54703 2.81842e-18
9776.20462 2.66306e-18
9777.86221 2.50771e-18
9779.52985 2.37669e-18
9781.18744 2.24585e-18
9782.84503 2.48078e-18
9784.50262 2.71559e-18
9786.17026 2.66100e-18
9787.82785 2.60674e-18
9789.48544 3.25212e-18
9791.15307 3.89704e-18
9792.81066 3.57128e-18
9794.46825 3.24561e-18
9796.12584 3.08017e-18
9797.79348 2.91485e-18
9799.45107 3.01374e-18
9801.10866 3.11233e-18
9802.76625 2.55447e-18
9804.43388 1.99679e-18
9806.09147 1.81376e-18
9807.74906 1.63101e-18
9809.41670 2.05748e-18
9811.07429 2.48379e-18
9812.73188 2.57246e-18
9814.38947 2.66111e-18
9816.05711 2.75192e-18
9817.71470 2.84265e-18
9819.37229 2.77271e-18
9821.03992 2.70272e-18
9822.69751 2.48906e-18
9824.35510 2.27566e-18
9826.01269 2.59172e-18
9827.68033 2.90756e-18
9829.33792 2.73340e-18
9830.99551 2.55937e-18
9832.65310 2.65603e-18
9834.32073 2.75260e-18
9835.97832 2.67444e-18
9837.63591 2.59624e-18
9839.30355 2.43061e-18
9840.96114 2.26522e-18
9842.61873 2.57954e-18
9844.27632 2.89386e-18
9845.94396 3.22427e-18
9847.60155 3.55445e-18
9849.25914 3.40257e-18
9850.91673 3.25068e-18
9852.58436 3.09665e-18
9854.24195 2.94263e-18
9855.89954 2.80617e-18
9857.56718 2.66977e-18
9859.22477 2.64723e-18
9860.88236 2.62469e-18
9862.53995 2.61803e-18
9864.20758 2.61160e-18
9865.86517 3.12389e-18
9867.52276 3.63588e-18
9869.18035 3.50381e-18
9870.84799 3.37186e-18
9872.50558 3.49217e-18
9874.16317 3.61257e-18
9875.83081 3.94099e-18
9877.48840 4.26899e-18
9879.14599 3.71154e-18
9880.80358 3.15411e-18
9882.47121 2.61903e-18
9884.12880 2.08441e-18
9885.78639 2.51759e-18
9887.44398 2.95068e-18
9889.11162 3.18146e-18
9890.76921 3.41215e-18
9892.42680 3.48249e-18
9894.09443 3.55285e-18
9895.75202 3.65989e-18
9897.40961 3.76691e-18
9899.06720 3.82396e-18
9900.73484 3.88066e-18
9902.39243 3.20550e-18
9904.05002 2.53063e-18
9905.70761 2.46536e-18
9907.37525 2.40007e-18
9909.03284 2.29791e-18
9910.69043 2.19579e-18
9912.35806 2.22222e-18
9914.01565 2.24882e-18
9915.67324 2.62779e-18
9917.33083 3.00652e-18
9918.99847 2.87548e-18
9920.65606 2.74455e-18
9922.31365 2.80378e-18
9923.98128 2.86303e-18
9925.63887 2.93839e-18
9927.29646 3.01378e-18
9928.95405 3.15704e-18
9930.62169 3.29994e-18
9932.27928 2.64019e-18
9933.93687 1.98067e-18
9935.59446 1.79520e-18
9937.26210 1.61012e-18
9938.91969 2.23269e-18
9940.57728 2.85508e-18
9942.23487 3.11016e-18
9943.90250 3.36513e-18
9945.56009 3.36696e-18
9947.21768 3.36858e-18
9948.88532 2.90287e-18
9950.54291 2.43765e-18
9952.20050 2.97487e-18
9953.85809 3.51184e-18
9955.52572 3.50354e-18
9957.18331 3.49507e-18
9958.84090 3.11941e-18
9960.50854 2.74387e-18
9962.16613 2.58008e-18
9963.82372 2.41634e-18
9965.48131 2.32263e-18
9967.14895 2.22888e-18
9968.80654 2.00276e-18
9970.46413 1.77671e-18
9972.12172 1.66870e-18
9973.78935 1.56075e-18
9975.44694 1.57529e-18
9977.10453 1.59005e-18
9978.77217 2.03370e-18
9980.42976 2.47712e-18
9982.08735 2.45437e-18
9983.74494 2.43172e-18
9985.41257 2.59917e-18
9987.07016 2.76666e-18
9988.72775 3.02815e-18
9990.39539 3.28947e-18
9992.05298 3.20271e-18
9993.71057 3.11584e-18
9995.36816 2.80457e-18
9997.03580 2.49320e-18
9998.69339 1.92871e-18
