# wavelength flux
3484.99972 1.24573e-17
3486.46996 1.73637e-17
3487.94020 2.09785e-17
3489.41044 4.25110e-18
3490.88068 8.69878e-18
3492.35092 1.11049e-17
3493.82116 1.66049e-17
3495.29140 2.45756e-17
3496.76164 9.03161e-18
3498.23188 1.92891e-17
3499.70212 2.98211e-17
3501.17236 4.30392e-18
3502.64260 1.63754e-17
3504.11284 3.18563e-17
3505.58308 1.62052e-17
3507.05332 1.67588e-17
3508.52356 7.83667e-18
3509.99380 1.19770e-17
3511.46404 2.79367e-17
3512.93428 3.31313e-17
3514.40452 1.98982e-17
3515.87476 2.13739e-18
3517.34500 1.21018e-17
3518.80503 2.01418e-17
3520.27527 5.50597e-18
3521.74551 1.62619e-17
3523.21575 1.82998e-17
3524.68599 1.25045e-17
3526.15623 2.44471e-17
3527.62647 2.35532e-17
3529.09671 1.47567e-17
3530.56695 1.04883e-17
3532.03719 1.36587e-17
3533.50743 2.73947e-17
3534.97767 3.34207e-17
3536.44791 2.16025e-17
3537.91815 1.44889e-17
3539.38839 3.27373e-17
3540.85863 2.20431e-17
3542.32887 1.04101e-17
3543.79911 1.24623e-17
3545.26935 2.65578e-17
3546.73959 1.60255e-17
3548.20983 2.02018e-17
3549.68007 1.10506e-17
3551.15031 2.02691e-17
3552.62055 2.10535e-17
3554.09079 1.76600e-17
3555.56103 3.23173e-17
3557.03127 3.04847e-17
3558.50151 1.15882e-17
3559.97175 1.87688e-17
3561.44199 6.63041e-18
3562.91223 1.45353e-17
3564.38247 1.85543e-17
3565.85271 1.74713e-17
3567.32295 2.85564e-17
3568.79319 1.82556e-17
3570.26343 1.45074e-17
3571.73367 2.59287e-17
3573.20391 2.29471e-17
3574.67415 2.10003e-17
3576.14439 2.15315e-17
3577.61463 1.96300e-17
3579.08487 1.66588e-17
3580.55511 1.33739e-17
3582.01514 2.14542e-17
3583.48538 1.44946e-17
3584.95562 2.15012e-17
3586.42586 2.29058e-17
3587.89610 8.49447e-18
3589.36634 9.53129e-18
3590.83658 2.20955e-17
3592.30682 2.82078e-17
3593.77706 2.03514e-17
3595.24730 1.39934e-17
3596.71754 1.51375e-17
3598.18778 1.60222e-17
3599.65802 1.30468e-17
3601.12826 2.43353e-17
3602.59850 2.42583e-17
3604.06874 2.15920e-17
3605.53898 1.08493e-17
3607.00922 1.64631e-17
3608.47946 2.10978e-17
3609.94970 3.22934e-17
3611.41994 3.15967e-17
3612.89018 1.64511e-17
3614.36042 1.33767e-17
3615.83066 1.27115e-17
3617.30090 1.53126e-17
3618.77114 1.53869e-17
3620.24138 2.20123e-17
3621.71162 1.80271e-17
3623.18186 1.28789e-17
3624.65210 2.20670e-17
3626.12234 2.18894e-17
3627.59258 2.38579e-17
3629.06282 5.74457e-18
3630.53306 1.06534e-17
3632.00330 1.04902e-17
3633.47354 1.22595e-17
3634.94378 1.97832e-17
3636.41402 1.31480e-17
3637.88426 1.84199e-17
3639.35450 1.85195e-17
3640.82474 1.33584e-17
3642.29498 2.49443e-17
3643.75501 2.14670e-17
3645.22525 1.32365e-17
3646.69549 1.35279e-17
3648.16573 2.52325e-17
3649.63597 1.80843e-17
3651.10621 1.84827e-17
3652.57645 1.50193e-17
3654.04669 1.22831e-17
3655.51693 1.40779e-17
3656.98717 2.02268e-17
3658.45741 2.52847e-17
3659.92765 1.56326e-17
3661.39789 8.71620e-18
3662.86813 1.37730e-17
3664.33837 2.32819e-17
3665.80861 2.63726e-17
3667.27885 1.97603e-17
3668.74909 2.11184e-17
3670.21933 1.68607e-17
3671.68957 1.84182e-17
3673.15981 1.29899e-17
3674.63005 1.41172e-17
3676.10029 1.85589e-17
3677.57053 2.05075e-17
3679.04077 1.11418e-17
3680.51101 8.82977e-18
3681.98125 1.55965e-17
3683.45149 1.85013e-17
3684.92173 1.99956e-17
3686.39197 2.45857e-17
3687.86221 1.64078e-17
3689.33245 1.14038e-17
3690.80269 1.88518e-17
3692.27293 1.71190e-17
3693.74317 1.31200e-17
3695.21341 1.10276e-17
3696.68365 1.83843e-17
3698.15389 2.49313e-17
3699.62413 1.67144e-17
3701.09437 1.62352e-17
3702.56461 1.50268e-17
3704.03485 9.55491e-18
3705.49488 1.83968e-17
3706.96512 1.10619e-17
3708.43536 1.64321e-17
3709.90560 1.86050e-17
3711.37584 1.96115e-17
3712.84608 1.83759e-17
3714.31632 1.78044e-17
3715.78656 1.34541e-17
3717.25680 8.91321e-18
3718.72704 1.52120e-17
3720.19728 1.08912e-17
3721.66752 1.07439e-17
3723.13776 1.61974e-17
3724.60800 8.88955e-18
3726.07824 9.37147e-18
3727.54848 1.29014e-17
3729.01872 1.50518e-17
3730.48896 1.57977e-17
3731.95920 1.08242e-17
3733.42944 1.32466e-17
3734.89968 1.27967e-17
3736.36992 1.52907e-17
3737.84016 1.72141e-17
3739.31040 2.12790e-17
3740.78064 2.21118e-17
3742.25088 1.97680e-17
3743.72112 1.24936e-17
3745.19136 1.25937e-17
3746.66160 1.55549e-17
3748.13184 1.35074e-17
3749.60208 1.43968e-17
3751.07232 1.33637e-17
3752.54256 1.54137e-17
3754.01280 1.58845e-17
3755.48304 1.64645e-17
3756.95328 1.36144e-17
3758.42352 1.58711e-17
3759.89376 1.13330e-17
3761.36400 1.72566e-17
3762.83424 1.42339e-17
3764.30448 8.84667e-18
3765.77472 1.45441e-17
3767.24496 1.68861e-17
3768.70499 1.39948e-17
3770.17523 1.70764e-17
3771.64547 1.52935e-17
3773.11571 1.21550e-17
3774.58595 1.74425e-17
3776.05619 1.93883e-17
3777.52643 1.80032e-17
3778.99667 1.22238e-17
3780.46691 1.03959e-17
3781.93715 1.54636e-17
3783.40739 1.44312e-17
3784.87763 1.41642e-17
3786.34787 1.21702e-17
3787.81811 1.63798e-17
3789.28835 1.74285e-17
3790.75859 1.49086e-17
3792.22883 1.11006e-17
3793.69907 8.21255e-18
3795.16931 1.51246e-17
3796.63955 1.04683e-17
3798.10979 9.21131e-18
3799.58003 2.81315e-18
3801.05027 9.78415e-18
3802.52051 1.43490e-17
3803.99075 6.33137e-18
3805.46099 7.17090e-18
3806.93123 9.06173e-18
3808.40147 4.73869e-18
3809.87171 6.45457e-18
3811.34195 1.06879e-17
3812.81219 9.03785e-18
3814.28243 6.19387e-18
3815.75267 8.56711e-18
3817.22291 6.59615e-18
3818.69315 4.48368e-18
3820.16339 7.31123e-18
3821.63363 6.92846e-18
3823.10387 4.17460e-18
3824.57411 4.00247e-18
3826.04435 5.95013e-18
3827.51459 3.48712e-18
3828.98483 4.36965e-18
3830.44486 7.62880e-18
3831.91510 5.79943e-18
3833.38534 1.03035e-17
3834.85558 1.09814e-17
3836.32582 5.25943e-18
3837.79606 4.16517e-18
3839.26630 7.27631e-18
3840.73654 7.23394e-18
3842.20678 7.94790e-18
3843.67702 6.28163e-18
3845.14726 5.10820e-18
3846.61750 1.11638e-17
3848.08774 7.50653e-18
3849.55798 1.87109e-18
3851.02822 7.66113e-18
3852.49846 7.40757e-18
3853.96870 -3.18904e-19
3855.43894 5.17276e-18
3856.90918 8.19297e-18
3858.37942 7.81672e-18
3859.84966 1.10380e-17
3861.31990 9.01021e-18
3862.79014 9.86574e-18
3864.26038 9.71669e-18
3865.73062 8.15838e-18
3867.20086 4.50425e-18
3868.67110 4.51399e-18
3870.14134 9.48981e-18
3871.61158 4.93373e-18
3873.08182 8.03682e-18
3874.55206 1.03418e-17
3876.02230 9.52416e-18
3877.49254 6.91686e-18
3878.96278 5.68436e-18
3880.43302 3.07925e-18
3881.90326 6.23652e-18
3883.37350 7.46479e-18
3884.84374 5.80042e-18
3886.31398 2.61296e-18
3887.78422 6.19562e-18
3889.25446 8.01701e-18
3890.72470 1.26593e-17
3892.19494 8.50295e-18
3893.65497 2.00748e-18
3895.12521 3.42574e-18
3896.59545 6.33202e-18
3898.06569 5.02801e-18
3899.53593 8.20071e-18
3901.00617 1.04378e-17
3902.47641 1.00123e-17
3903.94665 6.03195e-18
3905.41689 5.82596e-18
3906.88713 5.10865e-18
3908.35737 9.01874e-18
3909.82761 5.90514e-18
3911.29785 5.36580e-18
3912.76809 1.29601e-17
3914.23833 9.40333e-18
3915.70857 7.91759e-18
3917.17881 8.93780e-18
3918.64905 7.88583e-18
3920.11929 9.94222e-18
3921.58953 1.26016e-17
3923.05977 9.06892e-18
3924.53001 7.18853e-18
3926.00025 1.02842e-17
3927.47049 8.56738e-18
3928.94073 6.90177e-18
3930.41097 8.98138e-18
3931.88121 9.16448e-18
3933.35145 1.23524e-17
3934.82169 9.51194e-18
3936.29193 1.10603e-17
3937.76217 1.06247e-17
3939.23241 1.14957e-17
3940.70265 1.39363e-17
3942.17289 1.33782e-17
3943.64313 1.52716e-17
3945.11337 1.21549e-17
3946.58361 7.08226e-18
3948.05385 1.13784e-17
3949.52409 1.40583e-17
3950.99433 1.19468e-17
3952.46457 8.73839e-18
3953.93481 1.45824e-17
3955.39484 1.89804e-17
3956.86508 1.83616e-17
3958.33532 1.92787e-17
3959.80556 1.73150e-17
3961.27580 1.35042e-17
3962.74604 1.55094e-17
3964.21628 1.88260e-17
3965.68652 1.79315e-17
3967.15676 1.67610e-17
3968.62700 2.15309e-17
3970.09724 3.14206e-17
3971.56748 2.49415e-17
3973.03772 2.08110e-17
3974.50796 2.65039e-17
3975.97820 1.93665e-17
3977.44844 1.55906e-17
3978.91868 2.19592e-17
3980.38892 2.15106e-17
3981.85916 1.76810e-17
3983.32940 2.11481e-17
3984.79964 2.34078e-17
3986.26988 2.27894e-17
3987.74012 2.09263e-17
3989.21036 1.95543e-17
3990.68060 2.24641e-17
3992.15084 2.64024e-17
3993.62108 2.26787e-17
3995.09132 1.97175e-17
3996.56156 2.36378e-17
3998.03180 2.48362e-17
3999.50204 2.50070e-17
4000.97228 2.35813e-17
4002.44252 2.39776e-17
4003.91276 2.39692e-17
4005.38300 2.19528e-17
4006.85324 2.37045e-17
4008.32348 2.31920e-17
4009.79372 2.44377e-17
4011.26396 2.48231e-17
4012.73420 2.63380e-17
4014.20444 2.99393e-17
4015.67468 2.18220e-17
4017.13471 2.12400e-17
4018.60495 2.55990e-17
4020.07519 2.33935e-17
4021.54543 2.20668e-17
4023.01567 2.61400e-17
4024.48591 2.82378e-17
4025.95615 2.41830e-17
4027.42639 2.31008e-17
4028.89663 2.41550e-17
4030.36687 2.38458e-17
4031.83711 2.52815e-17
4033.30735 2.63816e-17
4034.77759 2.71829e-17
4036.24783 2.24219e-17
4037.71807 2.07259e-17
4039.18831 2.50471e-17
4040.65855 2.77183e-17
4042.12879 2.74962e-17
4043.59903 2.80119e-17
4045.06927 2.72498e-17
4046.53951 2.34619e-17
4048.00975 2.28737e-17
4049.47999 2.50124e-17
4050.95023 2.27529e-17
4052.42047 2.27740e-17
4053.89071 2.71709e-17
4055.36095 3.02942e-17
4056.83119 2.49634e-17
4058.30143 2.33919e-17
4059.77167 2.42108e-17
4061.24191 2.50602e-17
4062.71215 2.75014e-17
4064.18239 2.52758e-17
4065.65263 2.72284e-17
4067.12287 2.88794e-17
4068.59311 2.71331e-17
4070.06335 2.93721e-17
4071.53359 2.84102e-17
4073.00383 2.88199e-17
4074.47407 3.05583e-17
4075.94431 3.58404e-17
4077.41455 3.54134e-17
4078.88479 3.83898e-17
4080.35503 4.38433e-17
4081.81506 4.12986e-17
4083.28530 3.85112e-17
4084.75554 3.29711e-17
4086.22578 2.72574e-17
4087.69602 2.81099e-17
4089.16626 2.69624e-17
4090.63650 2.66314e-17
4092.10674 2.74710e-17
4093.57698 2.26907e-17
4095.04722 2.33323e-17
4096.51746 2.68691e-17
4097.98770 2.52861e-17
4099.45794 2.74611e-17
4100.92818 2.94186e-17
4102.39842 2.79504e-17
4103.86866 2.70540e-17
4105.33890 2.55129e-17
4106.80914 2.41098e-17
4108.27938 2.40674e-17
4109.74962 2.58674e-17
4111.21986 2.45171e-17
4112.69010 2.62002e-17
4114.16034 2.52296e-17
4115.63058 2.24978e-17
4117.10082 2.30473e-17
4118.57106 2.18398e-17
4120.04130 2.26816e-17
4121.51154 2.38308e-17
4122.98178 2.40638e-17
4124.45202 2.21695e-17
4125.92226 2.40562e-17
4127.39250 2.29940e-17
4128.86274 2.09333e-17
4130.33298 2.07759e-17
4131.80322 1.89026e-17
4133.27346 2.00799e-17
4134.74370 2.27870e-17
4136.21394 2.21232e-17
4137.68418 2.05180e-17
4139.15442 2.21583e-17
4140.62466 2.15651e-17
4142.09490 1.83865e-17
4143.55493 1.80016e-17
4145.02517 2.19473e-17
4146.49541 2.20060e-17
4147.96565 2.06363e-17
4149.43589 1.92979e-17
4150.90613 2.05824e-17
4152.37637 2.42686e-17
4153.84661 2.19983e-17
4155.31685 2.13675e-17
4156.78709 1.85506e-17
4158.25733 2.01409e-17
4159.72757 2.09811e-17
4161.19781 2.01045e-17
4162.66805 2.04345e-17
4164.13829 2.03850e-17
4165.60853 1.84422e-17
4167.07877 1.88398e-17
4168.54901 1.64132e-17
4170.01925 1.71832e-17
4171.48949 2.17281e-17
4172.95973 2.23505e-17
4174.42997 2.13620e-17
4175.90021 1.96759e-17
4177.37045 1.65810e-17
4178.84069 2.01014e-17
4180.31093 1.99588e-17
4181.78117 1.99024e-17
4183.25141 1.86786e-17
4184.72165 1.83313e-17
4186.19189 1.79702e-17
4187.66213 1.69939e-17
4189.13237 1.74658e-17
4190.60261 1.77610e-17
4192.07285 1.64229e-17
4193.54309 1.97100e-17
4195.01333 1.83049e-17
4196.48357 1.91622e-17
4197.95381 1.57241e-17
4199.42405 1.41066e-17
4200.89429 1.73743e-17
4202.36453 1.83284e-17
4203.83477 1.65157e-17
4205.29480 1.49322e-17
4206.76504 1.42646e-17
4208.23528 1.44091e-17
4209.70552 1.68926e-17
4211.17576 1.67892e-17
4212.64600 1.61497e-17
4214.11624 1.70315e-17
4215.58648 1.56357e-17
4217.05672 1.60940e-17
4218.52696 1.93280e-17
4219.99720 2.12324e-17
4221.46744 1.73429e-17
4222.93768 1.53880e-17
4224.40792 1.94474e-17
4225.87816 1.82446e-17
4227.34840 1.73179e-17
4228.81864 1.51372e-17
4230.28888 1.56720e-17
4231.75912 1.77020e-17
4233.22936 1.63751e-17
4234.69960 1.53846e-17
4236.16984 1.65350e-17
4237.64008 1.44790e-17
4239.11032 1.51159e-17
4240.58056 1.84464e-17
4242.05080 1.92608e-17
4243.52104 1.63645e-17
4244.99128 1.77984e-17
4246.46152 2.01459e-17
4247.93176 2.10110e-17
4249.40200 2.18156e-17
4250.87224 2.08748e-17
4252.34248 1.96584e-17
4253.81272 1.72466e-17
4255.28296 1.67306e-17
4256.75320 1.83174e-17
4258.22344 1.65664e-17
4259.69368 1.78948e-17
4261.16392 2.12027e-17
4262.63416 2.03765e-17
4264.10440 1.65122e-17
4265.56443 1.71806e-17
4267.03467 2.21395e-17
4268.50491 2.16715e-17
4269.97515 1.87574e-17
4271.44539 1.56672e-17
4272.91563 1.70915e-17
4274.38587 1.92449e-17
4275.85611 1.99265e-17
4277.32635 1.89805e-17
4278.79659 1.60626e-17
4280.26683 1.80907e-17
4281.73707 2.01779e-17
4283.20731 1.95430e-17
4284.67755 1.78134e-17
4286.14779 1.77404e-17
4287.61803 1.73507e-17
4289.08827 1.95094e-17
4290.55851 2.15227e-17
4292.02875 1.85069e-17
4293.49899 1.76903e-17
4294.96923 1.81726e-17
4296.43947 1.95541e-17
4297.90971 2.12201e-17
4299.37995 1.84662e-17
4300.85019 1.62910e-17
4302.32043 1.81715e-17
4303.79067 2.03333e-17
4305.26091 1.96922e-17
4306.73115 1.85108e-17
4308.20139 1.92659e-17
4309.67163 2.16695e-17
4311.14187 1.99993e-17
4312.61211 1.80803e-17
4314.08235 1.80382e-17
4315.55259 1.84508e-17
4317.02283 1.95679e-17
4318.49307 1.98822e-17
4319.96331 1.89107e-17
4321.43355 1.81152e-17
4322.90379 1.48379e-17
4324.37403 1.71179e-17
4325.84427 1.78397e-17
4327.31451 1.79346e-17
4328.78475 1.75625e-17
4330.25499 1.64043e-17
4331.71502 1.88010e-17
4333.18526 1.83912e-17
4334.65550 1.80126e-17
4336.12574 1.92866e-17
4337.59598 1.77099e-17
4339.06622 1.75656e-17
4340.53646 1.80793e-17
4342.00670 1.86526e-17
4343.47694 1.68689e-17
4344.94718 1.68614e-17
4346.41742 1.83229e-17
4347.88766 1.79060e-17
4349.35790 1.98023e-17
4350.82814 1.76948e-17
4352.29838 1.44602e-17
4353.76862 1.70115e-17
4355.23886 2.09790e-17
4356.70910 1.94873e-17
4358.17934 1.87530e-17
4359.64958 2.06323e-17
4361.11982 1.94061e-17
4362.59006 1.56153e-17
4364.06030 1.72153e-17
4365.53054 1.75229e-17
4367.00078 1.56941e-17
4368.47102 1.43664e-17
4369.94126 1.60807e-17
4371.41150 1.83696e-17
4372.88174 1.72336e-17
4374.35198 1.73460e-17
4375.82222 1.66407e-17
4377.29246 1.53280e-17
4378.76270 1.46517e-17
4380.23294 1.79541e-17
4381.70318 1.93270e-17
4383.17342 1.88645e-17
4384.64366 1.70918e-17
4386.11390 1.51976e-17
4387.58414 1.53832e-17
4389.05438 1.81993e-17
4390.52462 1.67308e-17
4391.99486 1.77533e-17
4393.45489 1.99810e-17
4394.92513 1.85406e-17
4396.39537 1.84228e-17
4397.86561 1.64240e-17
4399.33585 1.70380e-17
4400.80609 1.91090e-17
4402.27633 1.79629e-17
4403.74657 1.84202e-17
4405.21681 1.53376e-17
4406.68705 1.69763e-17
4408.15729 2.18647e-17
4409.62753 1.99757e-17
4411.09777 1.92832e-17
4412.56801 1.89740e-17
4414.03825 1.74926e-17
4415.50849 1.61470e-17
4416.97873 1.64374e-17
4418.44897 1.43146e-17
4419.91921 1.55503e-17
4421.38945 1.82184e-17
4422.85969 1.82623e-17
4424.32993 1.91228e-17
4425.80017 1.83299e-17
4427.27041 1.63696e-17
4428.74065 1.74991e-17
4430.21089 1.86197e-17
4431.68113 1.84794e-17
4433.15137 1.84539e-17
4434.62161 1.67108e-17
4436.09185 1.68018e-17
4437.56209 1.68387e-17
4439.03233 1.76839e-17
4440.50257 1.81922e-17
4441.97281 1.73799e-17
4443.44305 1.67321e-17
4444.91329 1.70526e-17
4446.38353 1.76049e-17
4447.85377 1.68407e-17
4449.32401 1.54127e-17
4450.79425 1.49917e-17
4452.26449 1.50972e-17
4453.72452 1.54995e-17
4455.20497 1.45005e-17
4456.66500 1.49068e-17
4458.13524 1.63817e-17
4459.60548 1.69743e-17
4461.07572 1.52737e-17
4462.54596 1.49869e-17
4464.01620 1.44330e-17
4465.48644 1.42176e-17
4466.95668 1.50684e-17
4468.42692 1.24405e-17
4469.89716 1.00785e-17
4471.36740 1.19456e-17
4472.83764 1.57864e-17
4474.30788 1.43802e-17
4475.77812 1.26084e-17
4477.24836 1.34049e-17
4478.71860 1.24553e-17
4480.18884 1.34899e-17
4481.65908 1.45686e-17
4483.12932 1.34066e-17
4484.59956 1.28505e-17
4486.06980 1.42468e-17
4487.54004 1.33813e-17
4489.01028 1.23081e-17
4490.48052 1.22858e-17
4491.95076 1.09201e-17
4493.42100 9.84550e-18
4494.89124 1.04642e-17
4496.36148 1.46801e-17
4497.83172 1.48698e-17
4499.30196 1.29523e-17
4500.77220 1.29499e-17
4502.24244 1.08093e-17
4503.71268 1.10597e-17
4505.18292 1.25108e-17
4506.65316 1.04409e-17
4508.12340 1.19960e-17
4509.59364 1.36130e-17
4511.06388 1.25744e-17
4512.53412 1.35861e-17
4514.00436 1.49701e-17
4515.47460 1.60178e-17
4516.94484 1.37814e-17
4518.41508 1.08354e-17
4519.87511 1.27697e-17
4521.34535 1.27473e-17
4522.81559 1.06331e-17
4524.28583 1.05849e-17
4525.75607 1.21221e-17
4527.22631 1.34723e-17
4528.69655 1.27697e-17
4530.16679 1.20036e-17
4531.63703 1.23194e-17
4533.10727 1.21946e-17
4534.57751 1.17520e-17
4536.04775 1.16564e-17
4537.51799 1.13013e-17
4538.98823 1.10273e-17
4540.45847 1.15440e-17
4541.92871 1.20023e-17
4543.39895 1.37895e-17
4544.86919 1.55725e-17
4546.33943 1.49486e-17
4547.80967 1.39608e-17
4549.27991 1.41173e-17
4550.75015 1.42743e-17
4552.22039 1.40346e-17
4553.69063 1.33848e-17
4555.16087 1.37410e-17
4556.63111 1.45592e-17
4558.10135 1.38402e-17
4559.57159 1.35859e-17
4561.04183 1.67383e-17
4562.51207 1.85969e-17
4563.98231 1.59111e-17
4565.45255 1.50570e-17
4566.92279 1.70966e-17
4568.39303 1.76979e-17
4569.86327 1.72083e-17
4571.33351 1.75802e-17
4572.80375 1.92376e-17
4574.27399 1.87793e-17
4575.74423 1.62954e-17
4577.21447 1.61610e-17
4578.68471 1.62712e-17
4580.14474 1.49992e-17
4581.61498 1.63422e-17
4583.08522 2.06120e-17
4584.55546 1.89080e-17
4586.02570 1.57147e-17
4587.49594 1.71000e-17
4588.96618 1.81700e-17
4590.43642 2.01373e-17
4591.90666 2.07063e-17
4593.37690 2.00308e-17
4594.84714 2.21090e-17
4596.31738 2.43618e-17
4597.78762 2.35459e-17
4599.25786 2.03372e-17
4600.72810 1.75559e-17
4602.19834 1.78407e-17
4603.66858 1.81692e-17
4605.13882 1.81055e-17
4606.60906 1.94126e-17
4608.07930 2.01352e-17
4609.54954 2.05301e-17
4611.01978 2.17422e-17
4612.49002 2.10481e-17
4613.96026 1.90108e-17
4615.43050 2.11545e-17
4616.90074 2.38663e-17
4618.37098 2.30586e-17
4619.84122 2.01755e-17
4621.31146 1.89250e-17
4622.78170 2.12430e-17
4624.25194 1.99793e-17
4625.72218 1.85933e-17
4627.19242 2.08700e-17
4628.66266 2.02702e-17
4630.13290 2.13515e-17
4631.60314 2.30533e-17
4633.07338 2.25728e-17
4634.54362 2.25651e-17
4636.01386 2.34746e-17
4637.48410 2.41368e-17
4638.95434 2.28207e-17
4640.42458 2.17908e-17
4641.89482 2.48233e-17
4643.35485 2.56569e-17
4644.82509 2.33027e-17
4646.29533 2.43201e-17
4647.76557 2.42494e-17
4649.23581 2.30160e-17
4650.70605 2.25537e-17
4652.17629 2.32635e-17
4653.64653 2.38122e-17
4655.11677 2.29928e-17
4656.58701 2.30565e-17
4658.05725 2.29102e-17
4659.52749 2.44195e-17
4660.99773 2.59474e-17
4662.46797 2.45409e-17
4663.93821 2.42834e-17
4665.40845 2.44461e-17
4666.87869 2.37505e-17
4668.34893 2.43930e-17
4669.81917 2.59612e-17
4671.28941 2.52451e-17
4672.75965 2.53088e-17
4674.22989 2.62355e-17
4675.70013 2.56382e-17
4677.17037 2.42423e-17
4678.64061 2.26990e-17
4680.11085 2.42065e-17
4681.58109 2.56754e-17
4683.05133 2.32627e-17
4684.52157 2.26038e-17
4685.99181 2.40381e-17
4687.46205 2.56882e-17
4688.93229 2.66159e-17
4690.40253 2.51053e-17
4691.87277 2.43270e-17
4693.34301 2.47597e-17
4694.81325 2.37641e-17
4696.28349 2.24832e-17
4697.75373 2.38694e-17
4699.22397 2.51314e-17
4700.69421 2.69466e-17
4702.16445 2.62920e-17
4703.63469 2.39305e-17
4705.10493 2.57143e-17
4706.56496 2.53919e-17
4708.03520 2.38152e-17
4709.50544 2.46359e-17
4710.97568 2.56414e-17
4712.44592 2.82309e-17
4713.91616 2.79296e-17
4715.38640 2.45547e-17
4716.85664 2.46990e-17
4718.32688 2.61449e-17
4719.79712 2.51469e-17
4721.26736 2.45129e-17
4722.73760 2.46961e-17
4724.20784 2.53539e-17
4725.67808 2.63618e-17
4727.14832 2.68888e-17
4728.61856 2.55779e-17
4730.08880 2.46032e-17
4731.55904 2.52430e-17
4733.02928 2.45667e-17
4734.49952 2.39188e-17
4735.96976 2.43117e-17
4737.44000 2.52416e-17
4738.91024 2.65935e-17
4740.38048 2.51916e-17
4741.85072 2.43850e-17
4743.32096 2.52317e-17
4744.79120 2.35498e-17
4746.26144 2.21364e-17
4747.73168 2.22799e-17
4749.20192 2.39515e-17
4750.67216 2.58795e-17
4752.14240 2.40266e-17
4753.61264 2.14648e-17
4755.08288 2.08552e-17
4756.55312 2.31544e-17
4758.02336 2.53983e-17
4759.49360 2.35313e-17
4760.96384 2.38050e-17
4762.43408 2.43132e-17
4763.90432 2.35206e-17
4765.37456 2.40409e-17
4766.83459 2.57391e-17
4768.30483 2.55581e-17
4769.77507 2.17445e-17
4771.24531 2.05374e-17
4772.71555 2.30790e-17
4774.18579 2.41532e-17
4775.65603 2.30730e-17
4777.12627 2.28590e-17
4778.59651 2.27924e-17
4780.06675 2.20181e-17
4781.53699 2.01600e-17
4783.00723 2.13171e-17
4784.47747 2.25112e-17
4785.94771 2.30919e-17
4787.41795 2.27949e-17
4788.88819 1.92452e-17
4790.35843 1.98187e-17
4791.82867 2.13857e-17
4793.29891 2.04819e-17
4794.76915 2.11287e-17
4796.23939 2.16702e-17
4797.70963 2.06159e-17
4799.17987 2.11949e-17
4800.65011 2.15087e-17
4802.12035 2.14106e-17
4803.59059 2.16091e-17
4805.06083 2.12895e-17
4806.53107 2.09881e-17
4808.00131 2.04253e-17
4809.47155 1.99224e-17
4810.94179 1.82607e-17
4812.41203 1.94141e-17
4813.88227 2.15234e-17
4815.35251 2.06069e-17
4816.82275 2.06342e-17
4818.29299 2.01933e-17
4819.76323 1.99207e-17
4821.23347 2.15561e-17
4822.70371 1.97236e-17
4824.17395 1.88133e-17
4825.64419 1.98493e-17
4827.11443 1.78793e-17
4828.58467 1.78138e-17
4830.05491 1.92027e-17
4831.52515 1.84337e-17
4832.98518 1.73863e-17
4834.45542 1.65228e-17
4835.92566 1.72558e-17
4837.39590 1.94573e-17
4838.86614 1.96494e-17
4840.33638 1.98380e-17
4841.80662 1.81533e-17
4843.27686 1.60357e-17
4844.74710 1.65721e-17
4846.21734 1.76785e-17
4847.68758 1.67517e-17
4849.15782 1.62916e-17
4850.62806 1.66954e-17
4852.09830 1.63516e-17
4853.56854 1.61724e-17
4855.03878 1.72278e-17
4856.50902 1.65024e-17
4857.97926 1.38805e-17
4859.44950 1.29381e-17
4860.91974 1.32914e-17
4862.38998 1.55475e-17
4863.86022 1.44477e-17
4865.33046 1.23416e-17
4866.80070 1.31569e-17
4868.27094 1.35513e-17
4869.74118 1.33835e-17
4871.21142 1.34571e-17
4872.68166 1.20966e-17
4874.15190 1.20792e-17
4875.62214 1.27869e-17
4877.09238 1.27876e-17
4878.56262 1.23201e-17
4880.03286 1.14335e-17
4881.50310 1.20741e-17
4882.97334 1.16834e-17
4884.44358 1.12069e-17
4885.91382 1.13119e-17
4887.38406 1.15960e-17
4888.85430 1.25308e-17
4890.32454 1.15606e-17
4891.79478 9.72478e-18
4893.25481 9.94341e-18
4894.72505 1.05406e-17
4896.19529 1.25776e-17
4897.66553 1.23695e-17
4899.13577 1.13211e-17
4900.60601 1.10246e-17
4902.07625 1.03035e-17
4903.54649 1.09744e-17
4905.01673 1.23814e-17
4906.48697 1.27998e-17
4907.95721 1.24347e-17
4909.42745 1.26954e-17
4910.89769 1.30703e-17
4912.36793 1.29229e-17
4913.83817 1.20088e-17
4915.30841 1.22749e-17
4916.77865 1.18078e-17
4918.24889 1.15805e-17
4919.71913 1.19292e-17
4921.18937 1.24409e-17
4922.65961 1.43906e-17
4924.12985 1.56445e-17
4925.60009 1.81558e-17
4927.07033 1.93661e-17
4928.54057 1.91247e-17
4930.01081 1.70368e-17
4931.48105 1.55996e-17
4932.95129 1.86736e-17
4934.42153 3.22869e-17
4935.89177 3.36615e-17
4937.36201 2.07911e-17
4938.83225 1.46011e-17
4940.30249 1.38414e-17
4941.77273 1.33017e-17
4943.24297 1.19497e-17
4944.71321 1.18322e-17
4946.18345 1.27902e-17
4947.65369 1.28865e-17
4949.12393 1.34602e-17
4950.59417 1.31504e-17
4952.06441 1.42267e-17
4953.53465 1.27637e-17
4954.99468 1.08257e-17
4956.46492 1.14620e-17
4957.93516 1.19915e-17
4959.40540 1.37218e-17
4960.87564 1.36903e-17
4962.34588 1.03707e-17
4963.81612 1.05152e-17
4965.28636 1.26614e-17
4966.75660 1.26969e-17
4968.22684 1.16975e-17
4969.69708 1.05103e-17
4971.16732 1.01142e-17
4972.63756 1.11208e-17
4974.10780 1.18033e-17
4975.57804 1.24465e-17
4977.04828 1.22010e-17
4978.51852 1.12808e-17
4979.98876 1.12461e-17
4981.45900 1.11216e-17
4982.92924 1.03542e-17
4984.39948 1.06467e-17
4985.86972 1.22829e-17
4987.33996 1.21464e-17
4988.81020 1.27415e-17
4990.28044 1.34045e-17
4991.75068 1.06624e-17
4993.22092 9.70950e-18
4994.69116 1.27425e-17
4996.16140 1.32058e-17
4997.63164 1.27006e-17
4999.10188 1.35996e-17
5000.57212 1.41335e-17
5002.04236 1.27193e-17
5003.51260 1.22934e-17
5004.98284 1.28740e-17
5006.45308 1.35898e-17
5007.92332 1.43376e-17
5009.39356 1.34514e-17
5010.86380 1.35808e-17
5012.33404 1.40879e-17
5013.80428 1.39251e-17
5015.27452 1.40768e-17
5016.74476 1.50916e-17
5018.21500 1.43716e-17
5019.68524 1.37370e-17
5021.14527 1.54875e-17
5022.61551 1.59924e-17
5024.08575 1.59950e-17
5025.55599 1.59011e-17
5027.02623 1.70725e-17
5028.49647 1.70589e-17
5029.96671 1.58142e-17
5031.43695 1.52259e-17
5032.90719 1.56330e-17
5034.37743 1.69356e-17
5035.84767 1.83060e-17
5037.31791 1.74800e-17
5038.78815 1.68149e-17
5040.25839 1.86420e-17
5041.72863 1.91714e-17
5043.19887 1.86131e-17
5044.66911 1.79551e-17
5046.13935 1.68777e-17
5047.60959 1.66770e-17
5049.07983 1.86766e-17
5050.55007 1.96713e-17
5052.02031 1.94600e-17
5053.49055 1.87141e-17
5054.96079 1.81788e-17
5056.43103 1.76427e-17
5057.90127 1.67215e-17
5059.37151 1.72405e-17
5060.84175 1.72445e-17
5062.31199 1.80856e-17
5063.78223 2.00827e-17
5065.25247 1.92965e-17
5066.72271 1.84790e-17
5068.19295 1.97658e-17
5069.66319 1.99846e-17
5071.13343 1.81611e-17
5072.60367 1.65705e-17
5074.07391 1.58202e-17
5075.54415 1.68547e-17
5077.01439 1.73959e-17
5078.48463 1.65318e-17
5079.95487 1.73646e-17
5081.41490 1.84507e-17
5082.88514 1.74195e-17
5084.35538 1.53043e-17
5085.82562 1.56145e-17
5087.29586 1.61667e-17
5088.76610 1.48523e-17
5090.23634 1.54787e-17
5091.70658 1.61056e-17
5093.17682 1.59270e-17
5094.64706 1.71187e-17
5096.11730 1.74106e-17
5097.58754 1.59180e-17
5099.05778 1.41482e-17
5100.52802 1.39926e-17
5101.99826 1.41344e-17
5103.46850 1.41538e-17
5104.93874 1.48072e-17
5106.40898 1.38380e-17
5107.87922 1.25214e-17
5109.34946 1.21304e-17
5110.81970 1.22419e-17
5112.28994 1.20594e-17
5113.76018 1.21626e-17
5115.23042 1.35125e-17
5116.70066 1.38051e-17
5118.17090 1.27018e-17
5119.64114 1.26548e-17
5121.11138 1.33103e-17
5122.58162 1.18650e-17
5124.05186 1.13195e-17
5125.52210 1.18862e-17
5126.99234 1.16112e-17
5128.46258 1.17647e-17
5129.93282 1.28058e-17
5131.40306 1.33785e-17
5132.87330 1.28134e-17
5134.34354 1.17750e-17
5135.81378 1.19082e-17
5137.28402 1.28441e-17
5138.75426 1.17671e-17
5140.22450 1.00401e-17
5141.69474 1.16924e-17
5143.16498 1.24711e-17
5144.62501 1.07404e-17
5146.09525 1.14050e-17
5147.56549 1.30262e-17
5149.03573 1.32943e-17
5150.50597 1.25831e-17
5151.97621 1.30794e-17
5153.44645 1.28720e-17
5154.91669 1.31808e-17
5156.38693 1.36366e-17
5157.85717 1.25678e-17
5159.32741 1.19337e-17
5160.79765 1.24002e-17
5162.26789 1.36564e-17
5163.73813 1.47191e-17
5165.20837 1.40916e-17
5166.67861 1.36060e-17
5168.14885 1.54316e-17
5169.61909 1.41951e-17
5171.08933 1.24356e-17
5172.55957 1.32923e-17
5174.02981 1.31669e-17
5175.50005 1.41303e-17
5176.97029 1.43857e-17
5178.44053 1.39880e-17
5179.91077 1.29621e-17
5181.38101 1.24955e-17
5182.85125 1.39904e-17
5184.32149 1.53569e-17
5185.79173 1.54127e-17
5187.26197 1.42499e-17
5188.73221 1.33799e-17
5190.20245 1.34817e-17
5191.67269 1.35987e-17
5193.14293 1.47410e-17
5194.61317 1.60817e-17
5196.08341 1.46978e-17
5197.55365 1.38254e-17
5199.02389 1.49533e-17
5200.49413 1.41633e-17
5201.96437 1.37331e-17
5203.43461 1.50063e-17
5204.90485 1.60178e-17
5206.37509 1.49063e-17
5207.83512 1.46030e-17
5209.30536 1.63880e-17
5210.77560 1.65666e-17
5212.24584 1.68304e-17
5213.71608 1.66252e-17
5215.18632 1.54766e-17
5216.65656 1.50084e-17
5218.12680 1.38304e-17
5219.59704 1.40834e-17
5221.06728 1.58676e-17
5222.53752 1.56147e-17
5224.00776 1.52797e-17
5225.47800 1.58961e-17
5226.94824 1.57674e-17
5228.41848 1.43659e-17
5229.88872 1.46516e-17
5231.35896 1.54417e-17
5232.82920 1.41900e-17
5234.29944 1.47177e-17
5235.76968 1.44339e-17
5237.23992 1.43254e-17
5238.71016 1.54440e-17
5240.18040 1.53569e-17
5241.65064 1.46354e-17
5243.12088 1.63655e-17
5244.59112 1.50234e-17
5246.06136 1.42425e-17
5247.53160 1.39340e-17
5249.00184 1.51780e-17
5250.47208 1.58238e-17
5251.94232 1.53275e-17
5253.41256 1.45218e-17
5254.88280 1.33589e-17
5256.35304 1.47317e-17
5257.82328 1.55494e-17
5259.29352 1.35365e-17
5260.76376 1.51194e-17
5262.23400 1.52663e-17
5263.70424 1.49258e-17
5265.17448 1.40212e-17
5266.64472 1.33039e-17
5268.10475 1.38294e-17
5269.57499 1.38633e-17
5271.04523 1.40648e-17
5272.51547 1.54593e-17
5273.98571 1.62698e-17
5275.45595 1.52781e-17
5276.92619 1.65678e-17
5278.39643 1.63535e-17
5279.86667 1.58574e-17
5281.33691 1.37564e-17
5282.80715 1.40595e-17
5284.27739 1.48594e-17
5285.74763 1.41523e-17
5287.21787 1.48031e-17
5288.68811 1.71572e-17
5290.15835 1.73118e-17
5291.62859 1.58851e-17
5293.09883 1.58908e-17
5294.56907 1.52379e-17
5296.03931 1.52876e-17
5297.50955 1.65364e-17
5298.97979 1.65456e-17
5300.45003 1.65745e-17
5301.92027 1.61356e-17
5303.39051 1.49794e-17
5304.86075 1.54234e-17
5306.33099 1.67171e-17
5307.80123 1.77659e-17
5309.27147 1.75731e-17
5310.74171 1.53354e-17
5312.21195 1.61862e-17
5313.68219 1.51152e-17
5315.15243 1.48307e-17
5316.62267 1.61109e-17
5318.09291 1.69972e-17
5319.56315 1.65027e-17
5321.03339 1.76597e-17
5322.50363 1.73141e-17
5323.97387 1.57586e-17
5325.44411 1.72685e-17
5326.91435 1.66526e-17
5328.38459 1.73114e-17
5329.85483 1.68256e-17
5331.31486 1.73048e-17
5332.78510 1.74972e-17
5334.25534 1.77910e-17
5335.72558 1.88728e-17
5337.19582 1.91296e-17
5338.66606 1.82319e-17
5340.13630 1.77324e-17
5341.60654 1.76994e-17
5343.07678 1.87075e-17
5344.54702 2.09128e-17
5346.01726 1.87110e-17
5347.48750 1.84489e-17
5348.95774 1.90383e-17
5350.42798 1.93110e-17
5351.89822 2.11522e-17
5353.36846 2.17728e-17
5354.83870 1.89457e-17
5356.30894 1.76906e-17
5357.77918 1.71838e-17
5359.24942 1.71497e-17
5360.71966 1.78996e-17
5362.18990 1.81049e-17
5363.66014 1.94831e-17
5365.13038 1.97305e-17
5366.60062 1.87387e-17
5368.07086 1.91517e-17
5369.54110 1.87570e-17
5371.01134 1.80874e-17
5372.48158 1.91930e-17
5373.95182 2.02549e-17
5375.42206 1.93226e-17
5376.89230 1.85165e-17
5378.36254 2.14604e-17
5379.83278 2.09826e-17
5381.30302 1.97046e-17
5382.77326 2.02755e-17
5384.24350 1.90029e-17
5385.71374 1.76518e-17
5387.18398 1.91709e-17
5388.65422 1.92032e-17
5390.12446 2.01322e-17
5391.59470 1.94210e-17
5393.06494 1.92781e-17
5394.52497 2.04159e-17
5395.99521 1.98603e-17
5397.46545 1.99212e-17
5398.93569 2.05777e-17
5400.40593 2.10220e-17
5401.87617 2.06027e-17
5403.34641 2.09685e-17
5404.81665 1.96277e-17
5406.28689 1.94826e-17
5407.75713 2.01222e-17
5409.22737 2.01357e-17
5410.69761 2.01768e-17
5412.16785 1.88453e-17
5413.63809 1.89512e-17
5415.10833 1.98621e-17
5416.57857 1.97364e-17
5418.04881 2.10352e-17
5419.51905 2.14339e-17
5420.98929 2.08648e-17
5422.45953 2.05106e-17
5423.92977 1.97225e-17
5425.40001 1.95681e-17
5426.87025 2.14118e-17
5428.34049 2.25181e-17
5429.81073 2.09907e-17
5431.28097 1.93393e-17
5432.75121 1.87307e-17
5434.22145 1.96705e-17
5435.69169 2.00790e-17
5437.16193 1.99507e-17
5438.63217 2.03133e-17
5440.10241 1.88388e-17
5441.57265 1.87006e-17
5443.04289 2.05636e-17
5444.51313 1.95878e-17
5445.98337 2.02408e-17
5447.45361 2.10188e-17
5448.92385 1.93079e-17
5450.39409 1.97696e-17
5451.86433 2.08253e-17
5453.33457 2.03804e-17
5454.79460 1.98650e-17
5456.26484 2.01186e-17
5457.73508 2.06917e-17
5459.20532 2.08944e-17
5460.67556 2.02493e-17
5462.14580 2.01146e-17
5463.61604 2.05721e-17
5465.08628 2.15386e-17
5466.55652 2.08176e-17
5468.02676 1.91464e-17
5469.49700 1.98184e-17
5470.96724 2.00716e-17
5472.43748 2.03963e-17
5473.90772 1.93455e-17
5475.37796 1.88709e-17
5476.84820 1.90307e-17
5478.31844 1.92516e-17
5479.78868 2.01352e-17
5481.25892 1.88438e-17
5482.72916 2.02640e-17
5484.19940 2.00977e-17
5485.66964 1.84597e-17
5487.13988 1.76334e-17
5488.61012 1.81102e-17
5490.08036 1.97852e-17
5491.55060 1.95842e-17
5493.02084 1.98921e-17
5494.49108 1.94343e-17
5495.96132 1.81029e-17
5497.43156 1.72102e-17
5498.90180 1.74580e-17
5500.37204 1.85503e-17
5501.84228 1.88823e-17
5503.31252 1.85199e-17
5504.78276 1.74533e-17
5506.25300 1.80079e-17
5507.72324 1.84531e-17
5509.19348 1.86082e-17
5510.66372 1.88587e-17
5512.13396 1.98463e-17
5513.60420 1.87934e-17
5515.07444 1.63048e-17
5516.54468 1.67652e-17
5518.00471 1.84623e-17
5519.47495 1.99145e-17
5520.94519 1.90898e-17
5522.41543 1.92926e-17
5523.88567 1.77686e-17
5525.35591 1.75805e-17
5526.82615 1.88285e-17
5528.29639 1.83734e-17
5529.76663 1.75219e-17
5531.23687 1.73568e-17
5532.70711 1.73041e-17
5534.17735 1.82124e-17
5535.64759 1.92797e-17
5537.11783 1.71525e-17
5538.58807 1.87747e-17
5540.05831 1.87715e-17
5541.52855 1.67882e-17
5542.99879 1.76551e-17
5544.46903 1.88536e-17
5545.93927 1.98879e-17
5547.40951 1.85080e-17
5548.87975 1.82857e-17
5550.34999 1.78281e-17
5551.82023 1.85141e-17
5553.29047 1.71266e-17
5554.76071 1.77802e-17
5556.23095 1.78012e-17
5557.70119 1.86356e-17
5559.17143 1.92357e-17
5560.64167 2.00495e-17
5562.11191 2.01522e-17
5563.58215 1.83785e-17
5565.05239 1.70749e-17
5566.52263 1.96523e-17
5567.99287 1.99185e-17
5569.46311 1.73612e-17
5570.93335 1.79720e-17
5572.40359 1.81515e-17
5573.87383 1.82514e-17
5575.34407 1.86039e-17
5576.81431 1.90286e-17
5578.28455 2.04920e-17
5579.75479 2.02981e-17
5581.22503 1.89579e-17
5582.68506 1.74439e-17
5584.15530 1.71551e-17
5585.62554 1.74994e-17
5587.09578 1.69263e-17
5588.56602 1.90596e-17
5590.03626 1.97454e-17
5591.50650 1.85448e-17
5592.97674 1.74081e-17
5594.44698 1.79298e-17
5595.91722 1.67656e-17
5597.38746 1.80936e-17
5598.85770 1.86250e-17
5600.32794 1.75019e-17
5601.79818 1.69980e-17
5603.26842 1.59827e-17
5604.73866 1.83522e-17
5606.20890 1.79564e-17
5607.67914 1.69494e-17
5609.14938 1.77604e-17
5610.61962 1.81848e-17
5612.08986 1.62607e-17
5613.56010 1.67239e-17
5615.03034 1.86280e-17
5616.50058 1.69110e-17
5617.97082 1.79730e-17
5619.44106 1.80707e-17
5620.91130 1.68553e-17
5622.38154 1.72610e-17
5623.85178 1.81385e-17
5625.32202 1.84533e-17
5626.79226 1.79358e-17
5628.26250 1.84564e-17
5629.73274 1.63969e-17
5631.20298 1.74181e-17
5632.67322 1.65787e-17
5634.14346 1.63407e-17
5635.61370 1.67958e-17
5637.08394 1.64118e-17
5638.55418 1.80361e-17
5640.02442 1.70396e-17
5641.49466 1.55541e-17
5642.96490 1.69460e-17
5644.42493 1.82129e-17
5645.89517 1.72462e-17
5647.36541 1.53941e-17
5648.83565 1.67163e-17
5650.30589 1.70820e-17
5651.77613 1.73473e-17
5653.24637 1.56017e-17
5654.71661 1.55541e-17
5656.18685 1.62677e-17
5657.65709 1.50441e-17
5659.12733 1.61943e-17
5660.59757 1.63070e-17
5662.06781 1.57296e-17
5663.53805 1.63177e-17
5665.00829 1.57879e-17
5666.47853 1.50682e-17
5667.94877 1.70278e-17
5669.41901 1.70325e-17
5670.88925 1.52143e-17
5672.35949 1.46180e-17
5673.82973 1.38626e-17
5675.29997 1.42799e-17
5676.77021 1.44102e-17
5678.24045 1.48810e-17
5679.71069 1.39227e-17
5681.18093 1.51646e-17
5682.65117 1.68552e-17
5684.12141 1.72557e-17
5685.59165 1.70983e-17
5687.06189 1.36235e-17
5688.53213 1.46798e-17
5690.00237 1.57537e-17
5691.47261 1.43721e-17
5692.94285 1.42430e-17
5694.41309 1.57898e-17
5695.88333 1.60183e-17
5697.35357 1.43230e-17
5698.82381 1.27369e-17
5700.29405 1.34160e-17
5701.76429 1.52580e-17
5703.23453 1.53672e-17
5704.70477 1.47973e-17
5706.16480 1.32445e-17
5707.63504 1.27687e-17
5709.10528 1.35295e-17
5710.57552 1.44963e-17
5712.04576 1.39444e-17
5713.51600 1.27797e-17
5714.98624 1.30116e-17
5716.45648 1.29690e-17
5717.92672 1.22426e-17
5719.39696 1.17706e-17
5720.86720 1.38515e-17
5722.33744 1.50914e-17
5723.80768 1.51803e-17
5725.27792 1.52693e-17
5726.74816 1.53582e-17
5728.21840 1.54472e-17
5729.68864 1.54458e-17
5731.15888 1.26983e-17
5732.62912 1.21180e-17
5734.09936 1.21844e-17
5735.56960 1.27628e-17
5737.03984 1.31221e-17
5738.51008 1.22906e-17
5739.98032 1.21232e-17
5741.45056 1.23413e-17
5742.92080 1.30227e-17
5744.39104 1.17409e-17
5745.86128 1.00075e-17
5747.33152 1.09756e-17
5748.80176 1.22879e-17
5750.27200 1.11687e-17
5751.74224 1.04178e-17
5753.21248 1.08166e-17
5754.68272 1.05450e-17
5756.15296 9.68485e-18
5757.62320 1.04207e-17
5759.09344 9.24197e-18
5760.56368 9.34822e-18
5762.03392 8.58380e-18
5763.50416 1.13199e-17
5764.97440 1.04491e-17
5766.44464 8.77553e-18
5767.91488 9.02187e-18
5769.37491 1.03847e-17
5770.84515 1.02887e-17
5772.31539 9.54331e-18
5773.78563 1.00675e-17
5775.25587 1.04582e-17
5776.72611 1.10453e-17
5778.19635 1.08619e-17
5779.66659 9.62869e-18
5781.13683 8.90031e-18
5782.60707 8.23818e-18
5784.07731 9.21671e-18
5785.54755 8.85271e-18
5787.01779 7.40185e-18
5788.48803 8.32035e-18
5789.95827 8.71303e-18
5791.42851 8.89484e-18
5792.89875 9.83629e-18
5794.36899 9.07631e-18
5795.83923 1.00112e-17
5797.30947 9.64519e-18
5798.77971 8.64861e-18
5800.24995 9.28487e-18
5801.72019 9.49496e-18
5803.19043 8.60568e-18
5804.66067 9.70424e-18
5806.13091 8.97525e-18
5807.60115 9.12894e-18
5809.07139 8.56181e-18
5810.54163 8.34387e-18
5812.01187 8.38130e-18
5813.48211 8.60026e-18
5814.95235 8.18383e-18
5816.42259 1.06390e-17
5817.89283 9.84296e-18
5819.36307 8.10387e-18
5820.83331 7.43319e-18
5822.30355 8.59015e-18
5823.77379 9.48282e-18
5825.24403 1.05122e-17
5826.71427 9.53267e-18
5828.18451 1.07081e-17
5829.65475 1.01369e-17
5831.12499 9.77832e-18
5832.58502 9.37672e-18
5834.05526 9.40275e-18
5835.52550 9.47771e-18
5836.99574 9.53988e-18
5838.46598 9.45336e-18
5839.93622 9.79861e-18
5841.40646 9.13291e-18
5842.87670 8.48353e-18
5844.34694 8.21357e-18
5845.81718 9.95641e-18
5847.28742 8.81395e-18
5848.75766 9.87729e-18
5850.22790 7.61633e-18
5851.69814 7.71480e-18
5853.16838 9.55563e-18
5854.63862 1.05351e-17
5856.10886 8.63223e-18
5857.57910 1.03598e-17
5859.04934 1.22928e-17
5860.51958 1.21418e-17
5861.98982 1.20391e-17
5863.46006 1.14482e-17
5864.93030 1.01223e-17
5866.40054 1.23550e-17
5867.87078 1.26404e-17
5869.34102 1.06672e-17
5870.81126 9.87226e-18
5872.28150 1.17015e-17
5873.75174 1.20131e-17
5875.22198 9.64469e-18
5876.69222 1.26014e-17
5878.16246 1.43431e-17
5879.63270 1.26028e-17
5881.10294 1.26218e-17
5882.57318 1.24744e-17
5884.04342 1.09941e-17
5885.51366 1.17339e-17
5886.98390 1.26877e-17
5888.45414 1.26836e-17
5889.92438 1.45789e-17
5891.39462 1.64912e-17
5892.85465 1.25817e-17
5894.32489 1.03963e-17
5895.79513 1.11518e-17
5897.26537 1.32721e-17
5898.73561 1.31223e-17
5900.20585 1.22337e-17
5901.67609 1.29167e-17
5903.14633 1.40008e-17
5904.61657 1.50825e-17
5906.08681 1.30282e-17
5907.55705 1.40713e-17
5909.02729 1.48840e-17
5910.49753 1.18574e-17
5911.96777 1.12186e-17
5913.43801 1.15461e-17
5914.90825 1.29884e-17
5916.37849 1.34420e-17
5917.84873 1.37620e-17
5919.31897 1.46115e-17
5920.78921 1.41572e-17
5922.25945 1.27160e-17
5923.72969 1.19178e-17
5925.19993 1.30594e-17
5926.67017 1.43811e-17
5928.14041 1.62780e-17
5929.61065 1.57618e-17
5931.08089 1.44446e-17
5932.55113 1.52996e-17
5934.02137 1.51362e-17
5935.49161 1.44895e-17
5936.96185 1.55320e-17
5938.43209 1.55099e-17
5939.90233 1.42213e-17
5941.37257 1.48379e-17
5942.84281 1.57560e-17
5944.31305 1.46945e-17
5945.78329 1.50480e-17
5947.25353 1.58353e-17
5948.72377 1.49344e-17
5950.19401 1.46095e-17
5951.66425 1.45878e-17
5953.13449 1.51331e-17
5954.60473 1.47813e-17
5956.06476 1.53180e-17
5957.53500 1.62467e-17
5959.00524 1.50743e-17
5960.47548 1.46397e-17
5961.94572 1.55413e-17
5963.41596 1.60666e-17
5964.88620 1.63567e-17
5966.35644 1.75761e-17
5967.82668 1.65148e-17
5969.29692 1.54221e-17
5970.76716 1.52453e-17
5972.23740 1.60140e-17
5973.70764 1.57395e-17
5975.17788 1.59522e-17
5976.64812 1.63662e-17
5978.11836 1.60546e-17
5979.58860 1.72742e-17
5981.05884 1.62035e-17
5982.52908 1.59498e-17
5983.99932 1.70951e-17
5985.46956 1.68791e-17
5986.93980 1.53937e-17
5988.41004 1.61163e-17
5989.88028 1.55868e-17
5991.35052 1.53038e-17
5992.82076 1.45820e-17
5994.29100 1.55124e-17
5995.76124 1.46059e-17
5997.23148 1.50061e-17
5998.70172 1.62977e-17
6000.17196 1.66848e-17
6001.64220 1.75135e-17
6003.11244 1.57363e-17
6004.58268 1.52876e-17
6006.05292 1.65035e-17
6007.52316 1.53834e-17
6008.99340 1.58742e-17
6010.46364 1.56232e-17
6011.93388 1.60871e-17
6013.40412 1.55095e-17
6014.87436 1.41999e-17
6016.34460 1.36376e-17
6017.81484 1.54085e-17
6019.27487 1.40289e-17
6020.74511 1.37972e-17
6022.21535 1.45655e-17
6023.68559 1.45229e-17
6025.15583 1.43608e-17
6026.62607 1.47200e-17
6028.09631 1.52543e-17
6029.56655 1.63693e-17
6031.03679 1.49530e-17
6032.50703 1.53395e-17
6033.97727 1.67069e-17
6035.44751 1.61715e-17
6036.91775 1.64190e-17
6038.38799 1.49412e-17
6039.85823 1.47552e-17
6041.32847 1.61128e-17
6042.79871 1.66783e-17
6044.26895 1.45194e-17
6045.73919 1.47414e-17
6047.20943 1.50090e-17
6048.67967 1.52090e-17
6050.14991 1.54523e-17
6051.62015 1.58512e-17
6053.09039 1.61364e-17
6054.56063 1.68881e-17
6056.03087 1.65702e-17
6057.50111 1.53827e-17
6058.97135 1.47162e-17
6060.44159 1.50847e-17
6061.91183 1.60917e-17
6063.38207 1.55739e-17
6064.85231 1.59340e-17
6066.32255 1.41599e-17
6067.79279 1.41333e-17
6069.26303 1.49579e-17
6070.73327 1.50276e-17
6072.20351 1.52913e-17
6073.67375 1.32908e-17
6075.14399 1.31069e-17
6076.61423 1.47769e-17
6078.08447 1.42143e-17
6079.54450 1.49272e-17
6081.01474 1.46993e-17
6082.48498 1.25688e-17
6083.95522 1.48155e-17
6085.42546 1.50902e-17
6086.89570 1.35615e-17
6088.36594 1.27171e-17
6089.83618 1.41709e-17
6091.30642 1.49342e-17
6092.77666 1.30724e-17
6094.24690 1.41243e-17
6095.71714 1.46347e-17
6097.18738 1.34169e-17
6098.65762 1.35687e-17
6100.12786 1.44387e-17
6101.59810 1.50204e-17
6103.06834 1.51272e-17
6104.53858 1.45730e-17
6106.00882 1.34407e-17
6107.47906 1.37353e-17
6108.94930 1.26207e-17
6110.41954 1.26621e-17
6111.88978 1.22631e-17
6113.36002 1.33506e-17
6114.83026 1.37229e-17
6116.30050 1.41575e-17
6117.77074 1.31829e-17
6119.24098 1.17699e-17
6120.71122 1.25761e-17
6122.18146 1.39641e-17
6123.65170 1.25871e-17
6125.12194 1.28189e-17
6126.59218 1.26081e-17
6128.06242 1.29630e-17
6129.53266 1.30851e-17
6131.00290 1.43255e-17
6132.47314 1.47507e-17
6133.94338 1.31867e-17
6135.41362 1.31739e-17
6136.88386 1.31796e-17
6138.35410 1.38509e-17
6139.82434 1.43041e-17
6141.29458 1.30284e-17
6142.76482 1.25607e-17
6144.22485 1.27077e-17
6145.69509 1.24513e-17
6147.16533 1.31090e-17
6148.63557 1.36898e-17
6150.10581 1.37381e-17
6151.57605 1.29763e-17
6153.04629 1.31457e-17
6154.51653 1.36898e-17
6155.98677 1.32249e-17
6157.45701 1.36142e-17
6158.92725 1.35803e-17
6160.39749 1.36693e-17
6161.86773 1.27582e-17
6163.33797 1.25332e-17
6164.80821 1.40291e-17
6166.27845 1.43500e-17
6167.74869 1.32482e-17
6169.21893 1.29765e-17
6170.68917 1.35089e-17
6172.15941 1.24205e-17
6173.62965 1.23759e-17
6175.09989 1.29582e-17
6176.57013 1.37083e-17
6178.04037 1.33190e-17
6179.51061 1.34870e-17
6180.98085 1.28781e-17
6182.45109 1.14132e-17
6183.92133 1.15563e-17
6185.39157 1.22933e-17
6186.86181 1.25163e-17
6188.33205 1.25797e-17
6189.80229 1.30655e-17
6191.27253 1.33633e-17
6192.74277 1.24891e-17
6194.21301 1.30294e-17
6195.68325 1.22618e-17
6197.15349 1.11859e-17
6198.62373 1.31412e-17
6200.09397 1.34896e-17
6201.56421 1.46904e-17
6203.03445 1.56606e-17
6204.50469 1.55943e-17
6205.97493 1.70660e-17
6207.43496 1.60396e-17
6208.90520 1.71513e-17
6210.37544 1.45029e-17
6211.84568 1.40228e-17
6213.31592 1.35441e-17
6214.78616 1.25018e-17
6216.25640 1.24370e-17
6217.72664 1.16086e-17
6219.19688 1.15835e-17
6220.66712 1.21917e-17
6222.13736 1.37028e-17
6223.60760 1.28213e-17
6225.07784 1.17043e-17
6226.54808 1.29017e-17
6228.01832 1.41215e-17
6229.48856 1.22560e-17
6230.95880 1.23871e-17
6232.42904 1.27489e-17
6233.89928 1.23405e-17
6235.36952 1.19400e-17
6236.83976 1.23957e-17
6238.31000 1.28891e-17
6239.78024 1.35424e-17
6241.25048 1.21727e-17
6242.72072 1.25562e-17
6244.19096 1.31869e-17
6245.66120 1.26817e-17
6247.13144 1.16772e-17
6248.60168 1.29040e-17
6250.07192 1.23788e-17
6251.54216 1.19117e-17
6253.01240 1.30990e-17
6254.48264 1.31138e-17
6255.95288 1.26854e-17
6257.42312 1.42051e-17
6258.89336 1.32845e-17
6260.36360 1.49647e-17
6261.83384 1.42039e-17
6263.30408 1.31890e-17
6264.77432 1.36009e-17
6266.24456 1.32348e-17
6267.70459 1.23365e-17
6269.17483 1.36143e-17
6270.64507 1.27993e-17
6272.11531 1.25014e-17
6273.58555 1.18088e-17
6275.05579 1.24321e-17
6276.52603 1.23169e-17
6277.99627 1.27221e-17
6279.46651 1.23135e-17
6280.93675 1.16101e-17
6282.40699 1.19967e-17
6283.87723 1.19800e-17
6285.34747 1.17429e-17
6286.81771 1.35738e-17
6288.28795 1.12835e-17
6289.75819 1.04687e-17
6291.22843 1.16812e-17
6292.69867 1.15815e-17
6294.16891 1.22259e-17
6295.63915 1.21757e-17
6297.10939 1.21522e-17
6298.57963 1.29660e-17
6300.04987 1.29607e-17
6301.52011 1.29522e-17
6302.99035 1.28282e-17
6304.46059 1.23630e-17
6305.93083 1.07701e-17
6307.40107 1.09012e-17
6308.87131 1.21751e-17
6310.34155 1.15538e-17
6311.81179 9.78328e-18
6313.28203 1.05972e-17
6314.75227 1.08571e-17
6316.22251 1.02757e-17
6317.69275 1.00026e-17
6319.16299 1.13121e-17
6320.63323 1.23841e-17
6322.10347 1.08991e-17
6323.57371 1.04466e-17
6325.04395 1.01488e-17
6326.51419 9.81136e-18
6327.98443 9.90170e-18
6329.45467 1.02985e-17
6330.92491 1.03429e-17
6332.39515 9.89463e-18
6333.85518 1.02158e-17
6335.32542 1.01429e-17
6336.79566 9.57153e-18
6338.26590 1.00355e-17
6339.73614 1.12283e-17
6341.20638 9.75132e-18
6342.67662 9.61434e-18
6344.14686 1.00276e-17
6345.61710 1.09488e-17
6347.08734 1.19576e-17
6348.55758 1.06669e-17
6350.02782 9.89403e-18
6351.49806 1.07017e-17
6352.96830 1.13489e-17
6354.43854 1.06296e-17
6355.90878 1.03006e-17
6357.37902 1.02145e-17
6358.84926 9.32802e-18
6360.31950 9.47698e-18
6361.78974 1.05279e-17
6363.25998 1.00375e-17
6364.73022 9.53450e-18
6366.20046 1.00693e-17
6367.67070 1.00213e-17
6369.14094 9.77808e-18
6370.61118 9.53409e-18
6372.08142 1.03810e-17
6373.55166 1.08793e-17
6375.02190 1.03626e-17
6376.49214 1.03546e-17
6377.96238 1.01838e-17
6379.43262 9.71024e-18
6380.90286 9.18965e-18
6382.37310 9.86113e-18
6383.84334 1.09312e-17
6385.31358 1.14113e-17
6386.78382 1.11240e-17
6388.25406 1.00202e-17
6389.72430 9.49680e-18
6391.19454 1.07638e-17
6392.66478 1.19251e-17
6394.12481 1.10035e-17
6395.59505 9.76421e-18
6397.06529 9.71809e-18
6398.53553 1.06047e-17
6400.00577 1.07895e-17
6401.47601 1.02852e-17
6402.94625 1.00193e-17
6404.41649 1.05698e-17
6405.88673 1.10035e-17
6407.35697 1.12468e-17
6408.82721 1.13781e-17
6410.29745 1.10988e-17
6411.76769 1.14181e-17
6413.23793 1.05970e-17
6414.70817 1.09233e-17
6416.17841 1.10572e-17
6417.64865 1.03259e-17
6419.11889 1.04086e-17
6420.58913 9.84855e-18
6422.05937 9.70469e-18
6423.52961 9.51034e-18
6424.99985 9.75046e-18
6426.47009 1.07388e-17
6427.94033 1.17682e-17
6429.41057 1.13704e-17
6430.88081 1.02538e-17
6432.35105 9.25750e-18
6433.82129 1.01498e-17
6435.29153 1.23347e-17
6436.76177 1.27088e-17
6438.23201 1.23992e-17
6439.70225 1.00761e-17
6441.17249 1.08640e-17
6442.64273 1.15097e-17
6444.11297 1.14873e-17
6445.58321 1.14909e-17
6447.05345 1.09980e-17
6448.52369 1.19513e-17
6449.99393 1.23642e-17
6451.46417 1.20885e-17
6452.93441 1.16527e-17
6454.40465 1.08868e-17
6455.86468 1.10908e-17
6457.33492 1.31774e-17
6458.80516 1.32677e-17
6460.27540 1.18700e-17
6461.74564 1.17244e-17
6463.21588 1.21364e-17
6464.68612 1.19012e-17
6466.15636 1.19020e-17
6467.62660 1.17259e-17
6469.09684 1.21701e-17
6470.56708 1.10526e-17
6472.03732 1.13929e-17
6473.50756 1.06097e-17
6474.97780 1.05351e-17
6476.44804 1.13395e-17
6477.91828 1.06732e-17
6479.38852 1.03639e-17
6480.85876 1.11122e-17
6482.32900 1.20603e-17
6483.79924 1.27827e-17
6485.26948 1.27400e-17
6486.73972 1.13755e-17
6488.20996 1.13546e-17
6489.68020 1.19205e-17
6491.15044 1.13878e-17
6492.62068 1.30460e-17
6494.09092 1.26507e-17
6495.56116 1.11707e-17
6497.03140 1.21170e-17
6498.50164 1.23977e-17
6499.97188 1.26306e-17
6501.44212 1.12761e-17
6502.91236 1.10028e-17
6504.38260 1.27529e-17
6505.85284 1.31853e-17
6507.32308 1.26641e-17
6508.79332 1.27849e-17
6510.26356 1.32639e-17
6511.73380 1.34008e-17
6513.20404 1.29029e-17
6514.67428 1.21270e-17
6516.14452 1.20165e-17
6517.61476 1.21992e-17
6519.08500 1.16993e-17
6520.54503 1.11685e-17
6522.01527 1.19635e-17
6523.48551 1.22885e-17
6524.95575 1.18953e-17
6526.42599 1.19906e-17
6527.89623 1.20797e-17
6529.36647 1.28976e-17
6530.83671 1.27157e-17
6532.30695 1.28602e-17
6533.77719 1.27067e-17
6535.24743 1.19260e-17
6536.71767 1.02511e-17
6538.18791 1.01792e-17
6539.65815 1.18254e-17
6541.12839 1.18544e-17
6542.59863 1.22933e-17
6544.06887 1.24111e-17
6545.53911 1.17023e-17
6547.00935 1.23523e-17
6548.47959 1.13538e-17
6549.94983 1.03925e-17
6551.42007 1.14751e-17
6552.89031 1.17863e-17
6554.36055 1.12976e-17
6555.83079 1.12166e-17
6557.30103 1.07312e-17
6558.77127 1.10937e-17
6560.24151 1.14010e-17
6561.71175 1.09470e-17
6563.18199 1.08923e-17
6564.65223 1.20237e-17
6566.12247 1.19702e-17
6567.59271 1.12425e-17
6569.06295 1.09119e-17
6570.53319 1.13642e-17
6572.00343 1.19234e-17
6573.47367 1.13415e-17
6574.94391 1.14196e-17
6576.41415 1.11952e-17
6577.88439 1.15514e-17
6579.35463 1.11925e-17
6580.81466 1.01066e-17
6582.28490 1.03127e-17
6583.75514 9.49536e-18
6585.22538 8.57827e-18
6586.69562 9.71525e-18
6588.16586 1.01236e-17
6589.63610 9.06341e-18
6591.10634 8.99365e-18
6592.57658 9.13800e-18
6594.04682 9.38162e-18
6595.51706 9.36167e-18
6596.98730 8.63933e-18
6598.45754 8.43353e-18
6599.92778 8.57006e-18
6601.39802 9.36925e-18
6602.86826 1.00072e-17
6604.33850 9.84164e-18
6605.80874 1.03281e-17
6607.27898 1.07653e-17
6608.74922 9.50497e-18
6610.21946 8.64995e-18
6611.68970 9.88342e-18
6613.15994 1.03209e-17
6614.63018 1.00925e-17
6616.10042 1.00068e-17
6617.57066 9.21844e-18
6619.04090 9.84175e-18
6620.51114 1.07427e-17
6621.98138 9.58245e-18
6623.45162 8.36211e-18
6624.92186 8.70143e-18
6626.39210 9.72064e-18
6627.86234 1.10878e-17
6629.33258 1.04425e-17
6630.80282 9.37457e-18
6632.27306 9.95949e-18
6633.74330 1.04269e-17
6635.21354 1.04220e-17
6636.68378 8.97006e-18
6638.15402 8.78363e-18
6639.62426 1.00477e-17
6641.09450 1.01388e-17
6642.56474 1.00903e-17
6644.02477 1.05183e-17
6645.49501 1.10651e-17
6646.96525 1.08815e-17
6648.43549 1.01879e-17
6649.90573 9.85405e-18
6651.37597 1.01194e-17
6652.84621 1.13454e-17
6654.31645 1.07831e-17
6655.78669 1.04744e-17
6657.25693 1.13180e-17
6658.72717 1.15533e-17
6660.19741 1.11005e-17
6661.66765 9.86511e-18
6663.13789 9.38928e-18
6664.60813 9.92875e-18
6666.07837 1.02693e-17
6667.54861 1.09886e-17
6669.01885 1.17479e-17
6670.48909 1.12731e-17
6671.95933 1.18561e-17
6673.42957 1.12070e-17
6674.89981 1.00376e-17
6676.37005 1.05529e-17
6677.84029 1.09388e-17
6679.31053 1.01896e-17
6680.78077 1.09557e-17
6682.25101 1.18741e-17
6683.72125 1.10871e-17
6685.19149 1.04560e-17
6686.66173 1.09391e-17
6688.13197 1.15485e-17
6689.60221 1.13970e-17
6691.07245 1.18879e-17
6692.54269 1.31883e-17
6694.01293 1.31602e-17
6695.48317 1.15555e-17
6696.95341 1.10345e-17
6698.42365 1.12744e-17
6699.89389 1.10087e-17
6701.36413 1.17877e-17
6702.83437 1.30697e-17
6704.30461 1.26709e-17
6705.77485 1.29621e-17
6707.24509 1.31294e-17
6708.70512 1.19628e-17
6710.17536 1.16304e-17
6711.64560 1.29254e-17
6713.11584 1.27366e-17
6714.58608 1.14091e-17
6716.05632 1.16754e-17
6717.52656 1.29232e-17
6718.99680 1.39265e-17
6720.46704 1.31254e-17
6721.93728 1.21945e-17
6723.40752 1.14251e-17
6724.87776 1.29168e-17
6726.34800 1.58441e-17
6727.81824 1.53027e-17
6729.28848 1.31855e-17
6730.75872 1.20114e-17
6732.22896 1.23618e-17
6733.69920 1.29353e-17
6735.16944 1.29151e-17
6736.63968 1.30930e-17
6738.10992 1.17924e-17
6739.58016 1.15278e-17
6741.05040 1.31566e-17
6742.52064 1.38017e-17
6743.99088 1.24167e-17
6745.46112 1.13058e-17
6746.93136 1.05447e-17
6748.40160 1.06537e-17
6749.87184 1.23356e-17
6751.34208 1.24624e-17
6752.81232 1.25726e-17
6754.28256 1.27152e-17
6755.75280 1.21705e-17
6757.22304 1.22327e-17
6758.69328 1.25558e-17
6760.16352 1.28661e-17
6761.63376 1.26390e-17
6763.10400 1.30637e-17
6764.57424 1.30009e-17
6766.04448 1.26174e-17
6767.50451 1.25393e-17
6768.97475 1.14678e-17
6770.44499 1.17299e-17
6771.91523 1.23712e-17
6773.38547 1.22570e-17
6774.85571 1.23339e-17
6776.32595 1.16281e-17
6777.79619 1.17674e-17
6779.26643 1.25857e-17
6780.73667 1.25145e-17
6782.20691 1.19595e-17
6783.67715 1.19512e-17
6785.14739 1.22217e-17
6786.61763 1.20309e-17
6788.08787 1.23035e-17
6789.55811 1.18714e-17
6791.02835 1.16247e-17
6792.49859 1.17803e-17
6793.96883 1.18683e-17
6795.43907 1.15760e-17
6796.90931 1.26792e-17
6798.37955 1.38578e-17
6799.84979 1.26534e-17
6801.32003 1.20049e-17
6802.79027 1.16409e-17
6804.26051 1.13457e-17
6805.73075 1.22842e-17
6807.20099 1.22383e-17
6808.67123 1.13613e-17
6810.14147 1.10998e-17
6811.61171 1.14531e-17
6813.08195 1.18536e-17
6814.55219 1.16853e-17
6816.02243 1.19106e-17
6817.49267 1.24290e-17
6818.96291 1.21089e-17
6820.43315 1.10447e-17
6821.90339 1.08972e-17
6823.37363 1.10856e-17
6824.84387 1.15038e-17
6826.31411 1.16377e-17
6827.78435 1.10620e-17
6829.25459 1.12243e-17
6830.72483 1.08322e-17
6832.19507 1.10553e-17
6833.65510 1.16884e-17
6835.12534 1.19212e-17
6836.59558 1.22372e-17
6838.06582 1.18415e-17
6839.53606 1.08249e-17
6841.00630 1.04461e-17
6842.47654 1.14796e-17
6843.94678 1.13564e-17
6845.41702 1.02685e-17
6846.88726 1.05298e-17
6848.35750 1.11971e-17
6849.82774 1.07635e-17
6851.29798 1.05359e-17
6852.76822 1.12575e-17
6854.23846 1.09604e-17
6855.70870 1.09181e-17
6857.17894 1.18919e-17
6858.64918 1.08276e-17
6860.11942 1.05485e-17
6861.58966 1.22017e-17
6863.05990 1.12698e-17
6864.53014 1.04435e-17
6866.00038 1.15532e-17
6867.47062 1.15207e-17
6868.94086 1.13405e-17
6870.41110 1.11222e-17
6871.88134 1.06315e-17
6873.35158 1.10667e-17
6874.82182 1.09558e-17
6876.29206 1.09003e-17
6877.76230 1.16219e-17
6879.23254 1.16715e-17
6880.70278 1.07753e-17
6882.17302 1.16221e-17
6883.64326 1.25937e-17
6885.11350 1.11555e-17
6886.58374 1.10894e-17
6888.05398 1.14380e-17
6889.52422 9.85815e-18
6890.99446 1.00604e-17
6892.46470 1.03668e-17
6893.93494 1.05958e-17
6895.39497 1.16971e-17
6896.86521 1.08829e-17
6898.33545 1.03894e-17
6899.80569 1.03470e-17
6901.27593 1.04843e-17
6902.74617 1.03909e-17
6904.21641 9.74837e-18
6905.68665 1.00076e-17
6907.15689 9.57175e-18
6908.62713 9.16504e-18
6910.09737 1.01834e-17
6911.56761 1.14290e-17
6913.03785 1.11771e-17
6914.50809 9.58875e-18
6915.97833 9.09107e-18
6917.44857 1.03510e-17
6918.91881 1.11834e-17
6920.38905 1.08864e-17
6921.85929 1.02131e-17
6923.32953 8.90807e-18
6924.79977 8.44495e-18
6926.27001 9.41578e-18
6927.74025 9.11792e-18
6929.21049 8.10250e-18
6930.68073 9.67602e-18
6932.15097 1.03768e-17
6933.62121 9.31232e-18
6935.09145 8.84895e-18
6936.56169 9.14438e-18
6938.03193 1.08690e-17
6939.50217 1.16280e-17
6940.97241 1.00895e-17
6942.44265 9.28346e-18
6943.91289 9.44882e-18
6945.38313 9.85683e-18
6946.85337 1.05164e-17
6948.32361 1.02803e-17
6949.79385 1.05443e-17
6951.26409 1.00468e-17
6952.73433 9.02658e-18
6954.20457 9.12017e-18
6955.66460 8.20426e-18
6957.13484 8.90852e-18
6958.60508 1.08420e-17
6960.07532 1.11785e-17
6961.54556 9.89095e-18
6963.01580 8.43429e-18
6964.48604 8.87887e-18
6965.95628 9.94876e-18
6967.42652 1.00268e-17
6968.89676 9.40207e-18
6970.36700 9.84400e-18
6971.83724 1.04078e-17
6973.30748 9.58548e-18
6974.77772 9.36796e-18
6976.24796 9.25233e-18
6977.71820 9.22160e-18
6979.18844 1.00644e-17
6980.65868 9.82808e-18
6982.12892 8.63671e-18
6983.59916 7.63501e-18
6985.06940 8.56634e-18
6986.53964 9.61133e-18
6988.00988 8.51192e-18
6989.48012 8.36229e-18
6990.95036 9.34900e-18
6992.42060 8.89316e-18
6993.89084 8.69904e-18
6995.36108 8.91752e-18
6996.83132 9.58876e-18
6998.30156 9.04883e-18
6999.77180 8.14186e-18
7001.24204 9.15597e-18
7002.71228 9.42792e-18
7004.18252 9.45563e-18
7005.65276 9.42020e-18
7007.12300 9.27862e-18
7008.59324 9.77504e-18
7010.06348 1.02294e-17
7011.53372 1.02505e-17
7013.00396 9.55591e-18
7014.47420 9.52950e-18
7015.94444 9.19614e-18
7017.41468 8.17356e-18
7018.87471 8.86177e-18
7020.35516 9.83518e-18
7021.81519 9.05472e-18
7023.28543 8.71991e-18
7024.75567 9.22725e-18
7026.22591 9.38922e-18
7027.69615 9.06040e-18
7029.16639 8.70352e-18
7030.63663 8.80829e-18
7032.10687 9.07733e-18
7033.57711 9.93446e-18
7035.04735 9.84455e-18
7036.51759 8.96036e-18
7037.98783 8.12305e-18
7039.45807 9.14864e-18
7040.92831 9.33985e-18
7042.39855 8.96089e-18
7043.86879 1.01795e-17
7045.33903 1.02194e-17
7046.80927 9.54349e-18
7048.27951 8.75221e-18
7049.74975 9.31440e-18
7051.21999 1.00599e-17
7052.69023 8.93066e-18
7054.16047 7.93176e-18
7055.63071 9.33954e-18
7057.10095 9.61854e-18
7058.57119 8.80319e-18
7060.04143 9.91350e-18
7061.51167 9.83544e-18
7062.98191 8.08396e-18
7064.45215 8.12470e-18
7065.92239 8.55813e-18
7067.39263 8.17086e-18
7068.86287 8.50164e-18
7070.33311 9.93223e-18
7071.80335 1.00144e-17
7073.27359 9.57272e-18
7074.74383 1.01270e-17
7076.21407 9.44225e-18
7077.68431 9.30034e-18
7079.15455 1.03952e-17
7080.62479 1.01640e-17
7082.08482 9.16046e-18
7083.55506 9.74189e-18
7085.02530 1.07103e-17
7086.49554 1.07280e-17
7087.96578 9.98150e-18
7089.43602 9.50208e-18
7090.90626 9.39093e-18
7092.37650 9.31062e-18
7093.84674 9.52862e-18
7095.31698 9.72127e-18
7096.78722 9.98171e-18
7098.25746 9.42752e-18
7099.72770 8.90237e-18
7101.19794 9.06895e-18
7102.66818 9.89916e-18
7104.13842 1.00322e-17
7105.60866 9.76296e-18
7107.07890 9.90967e-18
7108.54914 9.60427e-18
7110.01938 9.22039e-18
7111.48962 9.12173e-18
7112.95986 9.80384e-18
7114.43010 1.01116e-17
7115.90034 9.89622e-18
7117.37058 9.38790e-18
7118.84082 8.76686e-18
7120.31106 8.85514e-18
7121.78130 9.10910e-18
7123.25154 1.01245e-17
7124.72178 1.10301e-17
7126.19202 1.05755e-17
7127.66226 1.00112e-17
7129.13250 9.44129e-18
7130.60274 9.59906e-18
7132.07298 1.08936e-17
7133.54322 1.05019e-17
7135.01346 9.53613e-18
7136.48370 9.71343e-18
7137.95394 9.98324e-18
7139.42418 1.09563e-17
7140.89442 1.06843e-17
7142.36466 9.11156e-18
7143.83490 8.44179e-18
7145.29493 8.97474e-18
7146.76517 9.67159e-18
7148.23541 9.46519e-18
7149.70565 9.78058e-18
7151.17589 1.03452e-17
7152.64613 1.00043e-17
7154.11637 9.58023e-18
7155.58661 9.57853e-18
7157.05685 9.76391e-18
7158.52709 1.05858e-17
7159.99733 1.10929e-17
7161.46757 1.05679e-17
7162.93781 1.02564e-17
7164.40805 1.00556e-17
7165.87829 1.00469e-17
7167.34853 9.98371e-18
7168.81877 9.52613e-18
7170.28901 9.78620e-18
7171.75925 9.64264e-18
7173.22949 8.91125e-18
7174.69973 9.74079e-18
7176.16997 1.00426e-17
7177.64021 9.34318e-18
7179.11045 1.01341e-17
7180.58069 9.89847e-18
7182.05093 9.54618e-18
7183.52117 1.11770e-17
7184.99141 1.14333e-17
7186.46165 1.00824e-17
7187.93189 9.38702e-18
7189.40213 1.02298e-17
7190.87237 1.04652e-17
7192.34261 1.02381e-17
7193.81285 1.00168e-17
7195.28309 1.06412e-17
7196.75333 1.13101e-17
7198.22357 1.05501e-17
7199.69381 1.03683e-17
7201.16405 9.86317e-18
7202.63429 9.44976e-18
7204.10453 9.88846e-18
7205.56456 9.68325e-18
7207.04501 8.01899e-18
7208.50504 7.99156e-18
7209.97528 9.50464e-18
7211.44552 9.34225e-18
7212.91576 9.50475e-18
7214.38600 8.96842e-18
7215.85624 8.95146e-18
7217.32648 1.00788e-17
7218.79672 1.05251e-17
7220.26696 9.56731e-18
7221.73720 8.59470e-18
7223.20744 8.98403e-18
7224.67768 9.51677e-18
7226.14792 9.98526e-18
7227.61816 9.26532e-18
7229.08840 8.86844e-18
7230.55864 9.21168e-18
7232.02888 8.81926e-18
7233.49912 9.83531e-18
7234.96936 1.09327e-17
7236.43960 1.02282e-17
7237.90984 1.04590e-17
7239.38008 1.12491e-17
7240.85032 9.17739e-18
7242.32056 8.78839e-18
7243.79080 1.01676e-17
7245.26104 1.11042e-17
7246.73128 1.17354e-17
7248.20152 9.55974e-18
7249.67176 8.87734e-18
7251.14200 9.29394e-18
7252.61224 8.58672e-18
7254.08248 8.43521e-18
7255.55272 8.03024e-18
7257.02296 8.63873e-18
7258.49320 1.02993e-17
7259.96344 9.42890e-18
7261.43368 9.36268e-18
7262.90392 9.63538e-18
7264.37416 9.05738e-18
7265.84440 9.70586e-18
7267.31464 9.60737e-18
7268.77467 9.86717e-18
7270.24491 9.77392e-18
7271.71515 8.67657e-18
7273.18539 9.15664e-18
7274.65563 8.26578e-18
7276.12587 7.86320e-18
7277.59611 9.04621e-18
7279.06635 9.94777e-18
7280.53659 9.91078e-18
7282.00683 9.70576e-18
7283.47707 1.08951e-17
7284.94731 1.07338e-17
7286.41755 8.25060e-18
7287.88779 9.03178e-18
7289.35803 1.01541e-17
7290.82827 1.02405e-17
7292.29851 8.70826e-18
7293.76875 8.98866e-18
7295.23899 9.87931e-18
7296.70923 1.08195e-17
7298.17947 1.08640e-17
7299.64971 9.53408e-18
7301.11995 9.37506e-18
7302.59019 9.34543e-18
7304.06043 9.90745e-18
7305.53067 9.10860e-18
7307.00091 9.49778e-18
7308.47115 9.77606e-18
7309.94139 9.76120e-18
7311.41163 1.07799e-17
7312.88187 9.62281e-18
7314.35211 8.96939e-18
7315.82235 9.44196e-18
7317.29259 8.77270e-18
7318.76283 1.08892e-17
7320.23307 1.09605e-17
7321.70331 1.04488e-17
7323.17355 9.82687e-18
7324.64379 9.99700e-18
7326.11403 9.53771e-18
7327.58427 9.14948e-18
7329.05451 9.96584e-18
7330.52475 1.00644e-17
7331.99499 9.59212e-18
7333.45502 8.11239e-18
7334.92526 7.87350e-18
7336.39550 9.58362e-18
7337.86574 9.69061e-18
7339.33598 1.08706e-17
7340.80622 1.11461e-17
7342.27646 9.89742e-18
7343.74670 1.06040e-17
7345.21694 1.06234e-17
7346.68718 9.10153e-18
7348.15742 9.13208e-18
7349.62766 9.82029e-18
7351.09790 1.01028e-17
7352.56814 9.60854e-18
7354.03838 1.00508e-17
7355.50862 1.08207e-17
7356.97886 1.05266e-17
7358.44910 1.09665e-17
7359.91934 1.01251e-17
7361.38958 8.68678e-18
7362.85982 7.29484e-18
7364.33006 8.99776e-18
7365.80030 1.08405e-17
7367.27054 1.07282e-17
7368.74078 1.16618e-17
7370.21102 1.23460e-17
7371.68126 9.89278e-18
7373.15150 9.23299e-18
7374.62174 1.00276e-17
7376.09198 8.85622e-18
7377.56222 9.82844e-18
7379.03246 9.86760e-18
7380.50270 9.78842e-18
7381.97294 9.88331e-18
7383.44318 1.00708e-17
7384.91342 1.10100e-17
7386.38366 1.05789e-17
7387.85390 9.20901e-18
7389.32414 9.43327e-18
7390.79438 9.45521e-18
7392.25441 1.07358e-17
7393.72465 1.02096e-17
7395.20510 1.02679e-17
7396.66513 8.84805e-18
7398.13537 1.07346e-17
7399.60561 1.09203e-17
7401.07585 9.53681e-18
7402.54609 1.05716e-17
7404.01633 1.08702e-17
7405.48657 1.02299e-17
7406.95681 9.32406e-18
7408.42705 1.01812e-17
7409.89729 1.00113e-17
7411.36753 8.81448e-18
7411.86848 8.81448e-18
7413.52607 8.97015e-18
7415.18366 8.94973e-18
7416.84125 8.92925e-18
7418.50888 8.67589e-18
7420.16647 8.42266e-18
7421.82406 8.58791e-18
7423.48165 8.75313e-18
7425.14929 8.82900e-18
7426.80688 8.90484e-18
7428.46447 8.87606e-18
7430.13211 8.84723e-18
7431.78970 8.63819e-18
7433.44729 8.42919e-18
7435.10488 8.35943e-18
7436.77251 8.28975e-18
7438.43010 8.47096e-18
7440.08769 8.65208e-18
7441.74528 8.53843e-18
7443.41292 8.42483e-18
7445.07051 8.43436e-18
7446.72810 8.44390e-18
7448.39573 8.54277e-18
7450.05332 8.64163e-18
7451.71091 8.63920e-18
7453.36850 8.63678e-18
7455.03614 8.66347e-18
7456.69373 8.69017e-18
7458.35132 8.79248e-18
7460.00891 8.89476e-18
7461.67655 8.91066e-18
7463.33414 8.92655e-18
7464.99173 8.87565e-18
7466.65936 8.82470e-18
7468.31695 8.51162e-18
7469.97454 8.19863e-18
7471.63213 8.16998e-18
7473.29977 8.14140e-18
7474.95736 8.29016e-18
7476.61495 8.43886e-18
7478.28258 8.42964e-18
7479.94017 8.42037e-18
7481.59776 8.24989e-18
7483.25535 8.07949e-18
7484.92299 8.24446e-18
7486.58058 8.40942e-18
7488.23817 8.47917e-18
7489.89576 8.54892e-18
7491.56340 8.63184e-18
7493.22099 8.71469e-18
7494.87858 8.59479e-18
7496.54621 8.47491e-18
7498.20380 8.37043e-18
7499.86139 8.26590e-18
7501.51898 8.06728e-18
7503.18662 7.86874e-18
7504.84421 7.92631e-18
7506.50180 7.98387e-18
7508.16943 8.02403e-18
7509.82702 8.06417e-18
7511.48461 8.02406e-18
7513.14220 7.98402e-18
7514.80984 8.17144e-18
7516.46743 8.35874e-18
7518.12502 8.13837e-18
7519.78261 7.91810e-18
7521.45025 7.99920e-18
7523.10784 8.08029e-18
7524.76543 8.15516e-18
7526.43306 8.23001e-18
7528.09065 8.20121e-18
7529.74824 8.17237e-18
7531.40583 7.97185e-18
7533.07347 7.77145e-18
7534.73106 7.91022e-18
7536.38865 8.04895e-18
7538.04624 8.08762e-18
7539.71387 8.12625e-18
7541.37146 8.09989e-18
7543.02905 8.07348e-18
7544.69669 7.87430e-18
7546.35428 7.67522e-18
7548.01187 7.79306e-18
7549.66946 7.91089e-18
7551.33710 7.89821e-18
7552.99469 7.88552e-18
7554.65228 7.87284e-18
7556.30987 7.86016e-18
7557.97750 7.84748e-18
7559.63509 7.83480e-18
7561.29268 7.82212e-18
7562.96032 7.80945e-18
7564.61791 7.79676e-18
7566.27550 7.78409e-18
7567.93309 7.77140e-18
7569.60072 7.75873e-18
7571.25831 7.74604e-18
7572.91590 7.73337e-18
7574.58354 7.72070e-18
7576.24113 7.70801e-18
7577.89872 7.69534e-18
7579.55631 7.68266e-18
7581.22395 7.66999e-18
7582.88154 7.65732e-18
7584.53913 7.64464e-18
7586.19672 7.63196e-18
7587.86435 7.61930e-18
7589.52194 7.60661e-18
7591.17953 7.59394e-18
7592.84717 7.58127e-18
7594.50476 7.56859e-18
7596.16235 7.55593e-18
7597.81994 7.54325e-18
7599.48757 7.53058e-18
7601.14516 7.51791e-18
7602.80275 7.50523e-18
7604.46034 7.49256e-18
7606.12798 7.47990e-18
7607.78557 7.46722e-18
7609.44316 7.45456e-18
7611.11080 7.44189e-18
7612.76839 7.42922e-18
7614.42598 7.41655e-18
7616.08357 7.40388e-18
7617.75120 7.39122e-18
7619.40879 7.37854e-18
7621.06638 7.36588e-18
7622.72397 7.35321e-18
7624.39161 7.34055e-18
7626.04920 7.32787e-18
7627.70679 7.31521e-18
7629.37442 7.30255e-18
7631.03201 7.28989e-18
7632.68960 7.27722e-18
7634.34719 7.26457e-18
7636.01483 7.25189e-18
7637.67242 7.23923e-18
7639.33001 7.22657e-18
7640.99765 7.21391e-18
7642.65524 7.20124e-18
7644.31283 7.18858e-18
7645.97042 7.17592e-18
7647.63805 7.16326e-18
7649.29564 7.15060e-18
7650.95323 7.13794e-18
7652.61082 7.12527e-18
7654.27846 7.11261e-18
7655.93605 7.09996e-18
7657.59364 7.08730e-18
7659.26127 7.07464e-18
7660.91886 7.06199e-18
7662.57645 7.04933e-18
7664.23404 7.03666e-18
7665.90168 7.02401e-18
7667.55927 7.01135e-18
7669.21686 6.99869e-18
7670.87445 6.98604e-18
7672.54209 6.97339e-18
7674.19968 6.96073e-18
7675.85727 6.94808e-18
7677.52490 6.93543e-18
7679.18249 6.92277e-18
7680.84008 6.91012e-18
7682.49767 6.75515e-18
7684.16531 6.73924e-18
7685.82290 6.72343e-18
7687.48049 7.06169e-18
7689.13808 7.39981e-18
7690.80571 7.26669e-18
7692.46330 7.13361e-18
7694.12089 7.15421e-18
7695.78853 7.17478e-18
7697.44612 7.09858e-18
7699.10371 7.02247e-18
7700.76130 7.25166e-18
7702.42894 7.48070e-18
7704.08653 7.20511e-18
7705.74412 6.92964e-18
7707.40171 7.10735e-18
7709.06934 7.28500e-18
7710.72693 7.25599e-18
7712.38452 7.22701e-18
7714.05216 7.33005e-18
7715.70975 7.43299e-18
7717.36734 7.27700e-18
7719.02493 7.12110e-18
7720.69256 7.24324e-18
7722.35015 7.36530e-18
7724.00774 7.17092e-18
7725.67538 6.97656e-18
7727.33297 6.82473e-18
7728.99056 6.67302e-18
7730.64815 6.87969e-18
7732.31579 7.08631e-18
7733.97338 7.14627e-18
7735.63097 7.20616e-18
7737.28856 7.10911e-18
7738.95619 7.01210e-18
7740.61378 7.07723e-18
7742.27137 7.14235e-18
7743.93901 7.16572e-18
7745.59660 7.18915e-18
7747.25419 7.35150e-18
7748.91178 7.51371e-18
7750.57941 7.24145e-18
7752.23700 6.96925e-18
7753.89459 6.87285e-18
7755.55218 6.77654e-18
7757.21982 6.94261e-18
7758.87741 7.10875e-18
7760.53500 7.49249e-18
7762.20264 7.87605e-18
7763.86023 7.72186e-18
7765.51782 7.56772e-18
7767.17541 7.60019e-18
7768.84304 7.63263e-18
7770.50063 7.59276e-18
7772.15822 7.55289e-18
7773.81581 7.49039e-18
7775.48345 7.42788e-18
7777.14104 7.34758e-18
7778.79863 7.26735e-18
7780.46626 7.38177e-18
7782.12385 7.49613e-18
7783.78144 7.34566e-18
7785.43903 7.19532e-18
7787.10667 7.38753e-18
7788.76426 7.57971e-18
7790.42185 7.70126e-18
7792.07944 7.82275e-18
7793.74708 7.74635e-18
7795.40467 7.66999e-18
7797.06226 7.71882e-18
7798.72989 7.76766e-18
7800.38748 7.81551e-18
7802.04507 7.86332e-18
7803.70266 7.79935e-18
7805.37030 7.73542e-18
7807.02789 7.77377e-18
7808.68548 7.81207e-18
7810.35311 7.70476e-18
7812.01070 7.59757e-18
7813.66829 7.91284e-18
7815.32588 8.22794e-18
7816.99352 8.03871e-18
7818.65111 7.84952e-18
7820.30870 7.79195e-18
7821.96629 7.73435e-18
7823.63393 7.55887e-18
7825.29152 7.38345e-18
7826.94911 7.38564e-18
7828.61674 7.38783e-18
7830.27433 7.34573e-18
7831.93192 7.30369e-18
7833.58951 7.42791e-18
7835.25715 7.55215e-18
7836.91474 7.70627e-18
7838.57233 7.86024e-18
7840.22992 7.54703e-18
7841.89755 7.23397e-18
7843.55514 7.37980e-18
7845.21273 7.52557e-18
7846.88037 7.50862e-18
7848.53796 7.49171e-18
7850.19555 7.65771e-18
7851.85314 7.82377e-18
7853.52078 8.24169e-18
7855.17837 8.65942e-18
7856.83596 8.41680e-18
7858.50359 8.17421e-18
7860.16118 7.97455e-18
7861.81877 7.77504e-18
7863.47636 8.01179e-18
7865.14400 8.24841e-18
7866.80159 8.05992e-18
7868.45918 7.87153e-18
7870.11677 7.97116e-18
7871.78440 8.07071e-18
7873.44199 7.93528e-18
7875.09958 7.79988e-18
7876.76722 7.79438e-18
7878.42481 7.78891e-18
7880.08240 7.89456e-18
7881.73999 8.00012e-18
7883.40763 7.83743e-18
7885.06522 7.67488e-18
7886.72281 7.96446e-18
7888.38040 8.25392e-18
7890.04803 8.16241e-18
7891.70562 8.07086e-18
7893.36321 7.80578e-18
7895.03085 7.54079e-18
7896.68844 7.48898e-18
7898.34603 7.43717e-18
7900.00362 7.40518e-18
7901.67125 7.37326e-18
7903.32884 7.55554e-18
7904.98643 7.73776e-18
7906.64402 7.73971e-18
7908.31166 7.74163e-18
7909.96925 7.65158e-18
7911.62684 7.56150e-18
7913.29448 7.36013e-18
7914.95207 7.15892e-18
7916.60966 7.42101e-18
7918.26725 7.68298e-18
7919.93488 7.54044e-18
7921.59247 7.39802e-18
7923.25006 7.63430e-18
7924.90765 7.87050e-18
7926.57529 7.85291e-18
7928.23288 7.83526e-18
7929.89047 7.63332e-18
7931.55810 7.43140e-18
7933.21569 7.32191e-18
7934.87328 7.21250e-18
7936.53087 7.32942e-18
7938.19851 7.44625e-18
7939.85610 7.27910e-18
7941.51369 7.11204e-18
7943.18133 7.21358e-18
7944.83892 7.31519e-18
7946.49651 7.64272e-18
7948.15410 7.97006e-18
7949.82173 7.71350e-18
7951.47932 7.45693e-18
7953.13691 7.17476e-18
7954.79450 6.89278e-18
7956.46214 7.17858e-18
7958.11973 7.46419e-18
7959.77732 7.12938e-18
7961.44495 6.79475e-18
7963.10254 7.02312e-18
7964.76013 7.25141e-18
7966.41772 7.21152e-18
7968.08536 7.17165e-18
7969.74295 7.19519e-18
7971.40054 7.21874e-18
7973.05813 7.30333e-18
7974.72577 7.38782e-18
7976.38336 7.16290e-18
7978.04095 6.93802e-18
7979.70858 6.82754e-18
7981.36617 6.71719e-18
7983.02376 6.97621e-18
7984.68135 7.23516e-18
7986.34899 7.31255e-18
7988.00658 7.38986e-18
7989.66417 7.25955e-18
7991.33180 7.12932e-18
7992.98939 7.26227e-18
7994.64698 7.39504e-18
7996.30457 7.06655e-18
7997.97221 6.73826e-18
7999.62980 6.98814e-18
8001.28739 7.23787e-18
8002.94498 7.05172e-18
8004.61262 6.86563e-18
8006.27021 6.80437e-18
8007.92780 6.74325e-18
8009.59543 7.05079e-18
8011.25302 7.35814e-18
8012.91061 7.10328e-18
8014.56820 6.84852e-18
8016.23584 6.87399e-18
8017.89343 6.89947e-18
8019.55102 7.01312e-18
8021.20861 7.12674e-18
8022.87624 7.13278e-18
8024.53383 7.13876e-18
8026.19142 6.97320e-18
8027.85906 6.80767e-18
8029.51665 6.74301e-18
8031.17424 6.67834e-18
8032.83183 6.55570e-18
8034.49947 6.43317e-18
8036.15706 6.64732e-18
8037.81465 6.86138e-18
8039.47224 6.86007e-18
8041.13987 6.85873e-18
8042.79746 6.77525e-18
8044.45505 6.69178e-18
8046.12269 6.60005e-18
8047.78028 6.50839e-18
8049.43787 6.66139e-18
8051.09546 6.81431e-18
8052.76309 6.76766e-18
8054.42068 6.72096e-18
8056.07827 6.56651e-18
8057.73586 6.41214e-18
8059.40350 6.50299e-18
8061.06109 6.59383e-18
8062.71868 6.62205e-18
8064.38632 6.65020e-18
8066.04391 6.47497e-18
8067.70150 6.29978e-18
8069.35909 6.24139e-18
8071.02672 6.18305e-18
8072.68431 6.28566e-18
8074.34190 6.38828e-18
8076.00954 6.48899e-18
8077.66713 6.58966e-18
8079.32472 6.57616e-18
8080.98231 6.56258e-18
8082.64994 6.33026e-18
8084.30753 6.09795e-18
8085.96512 5.98417e-18
8087.62271 5.87044e-18
8089.29035 5.93986e-18
8090.94794 6.00930e-18
8092.60553 6.08576e-18
8094.27317 6.16221e-18
8095.93076 6.16623e-18
8097.58835 6.17024e-18
8099.24594 6.16463e-18
8100.91357 6.15905e-18
8102.57116 6.20840e-18
8104.22875 6.25770e-18
8105.88634 6.14892e-18
8107.55398 6.04021e-18
8109.21157 6.13333e-18
8110.86916 6.22636e-18
8112.53679 5.99668e-18
8114.19438 5.76716e-18
8115.85197 5.96133e-18
8117.50956 6.15550e-18
8119.17720 6.39781e-18
8120.83479 6.63996e-18
8122.49238 6.41921e-18
8124.16002 6.19843e-18
8125.81761 5.87945e-18
8127.47520 5.56062e-18
8129.13279 5.64110e-18
8130.80042 5.72160e-18
8132.45801 5.90518e-18
8134.11560 6.08868e-18
8135.77319 6.11343e-18
8137.44083 6.13818e-18
8139.09842 6.17455e-18
8140.75601 6.21088e-18
8142.41360 6.14575e-18
8144.08123 6.08059e-18
8145.73882 5.86309e-18
8147.39641 5.64576e-18
8149.06405 5.86840e-18
8150.72164 6.09094e-18
8152.37923 6.04733e-18
8154.03682 6.00367e-18
8155.70446 5.77993e-18
8157.36205 5.55632e-18
8159.01964 5.70028e-18
8160.68727 5.84419e-18
8162.34486 5.91882e-18
8164.00245 5.99336e-18
8165.66004 5.81485e-18
8167.32768 5.63650e-18
8168.98527 5.92820e-18
8170.64286 6.21978e-18
8172.30045 6.20864e-18
8173.96808 6.19732e-18
8175.62567 5.70274e-18
8177.28326 5.20838e-18
8178.95090 5.35625e-18
8180.60849 5.50414e-18
8182.26608 5.69956e-18
8183.92367 5.89493e-18
8185.59131 5.98625e-18
8187.24890 6.07742e-18
8188.90649 5.70545e-18
8190.56408 5.33363e-18
8192.23171 5.39047e-18
8193.88930 5.44737e-18
8195.54689 5.72789e-18
8197.21453 6.00830e-18
8198.87212 6.00814e-18
8200.52971 6.00793e-18
8202.18730 5.88705e-18
8203.85493 5.76621e-18
8205.51252 5.78930e-18
8207.17011 5.81238e-18
8208.82770 5.84044e-18
8210.49534 5.86838e-18
8212.15293 5.55072e-18
8213.81052 5.23321e-18
8215.47816 5.38089e-18
8217.13575 5.52848e-18
8218.79334 5.39354e-18
8220.45093 5.25872e-18
8222.11856 5.47425e-18
8223.77615 5.68967e-18
8225.43374 5.54216e-18
8227.09133 5.39476e-18
8228.75897 5.51400e-18
8230.41656 5.63316e-18
8232.07415 5.52905e-18
8233.74178 5.42498e-18
8235.39937 5.42079e-18
8237.05696 5.41658e-18
8238.71455 5.30195e-18
8240.38219 5.18735e-18
8242.03978 5.08370e-18
8243.69737 4.98018e-18
8245.36501 5.28599e-18
8247.02260 5.59167e-18
8248.68019 5.51801e-18
8250.33778 5.44439e-18
8252.00541 5.46569e-18
8253.66300 5.48684e-18
8255.32059 5.09159e-18
8256.97818 4.69661e-18
8258.64582 5.02496e-18
8260.30341 5.35322e-18
8261.96100 5.44264e-18
8263.62863 5.53199e-18
8265.28622 5.42756e-18
8266.94381 5.32312e-18
8268.60140 5.14868e-18
8270.26904 4.97432e-18
8271.92663 4.95758e-18
8273.58422 4.94087e-18
8275.25186 4.99723e-18
8276.90945 5.05354e-18
8278.56704 4.97312e-18
8280.22463 4.89270e-18
8281.89226 4.78079e-18
8283.54985 4.66895e-18
8285.20744 4.80062e-18
8286.86503 4.93220e-18
8288.53267 4.84706e-18
8290.19026 4.76199e-18
8291.84785 4.85490e-18
8293.51548 4.94782e-18
8295.17307 5.02717e-18
8296.83066 5.10648e-18
8298.48825 5.06296e-18
8300.15589 5.01937e-18
8301.81348 4.77989e-18
8303.47107 4.54053e-18
8305.12866 4.60301e-18
8306.79630 4.66543e-18
8308.45389 4.62432e-18
8310.11148 4.58319e-18
8311.77911 4.49539e-18
8313.43670 4.40763e-18
8315.09429 4.49397e-18
8316.75188 4.58030e-18
8318.41952 4.71870e-18
8320.07711 4.85703e-18
8321.73470 4.76455e-18
8323.40233 4.67202e-18
8325.05992 4.40615e-18
8326.71751 4.14044e-18
8328.37510 4.24308e-18
8330.04274 4.34572e-18
8331.70033 4.44067e-18
8333.35792 4.53559e-18
8335.01551 4.55196e-18
8336.68315 4.56834e-18
8338.34074 4.60290e-18
8339.99833 4.63747e-18
8341.65592 4.71201e-18
8343.32355 4.78661e-18
8344.98114 4.99692e-18
8346.63873 5.20711e-18
8348.30637 5.07635e-18
8349.96396 4.94554e-18
8351.62155 4.67461e-18
8353.27914 4.40380e-18
8354.94677 4.46628e-18
8356.60436 4.52878e-18
8358.26195 4.66914e-18
8359.92959 4.80944e-18
8361.58718 4.78415e-18
8363.24477 4.75882e-18
8364.90236 4.61959e-18
8366.57000 4.48037e-18
8368.22759 4.38076e-18
8369.88518 4.28126e-18
8371.54277 4.47829e-18
8373.21040 4.67514e-18
8374.86799 4.37756e-18
8376.52558 4.08017e-18
8378.19322 4.36021e-18
8379.85081 4.64011e-18
8381.50840 4.49548e-18
8383.16599 4.35092e-18
8384.83362 4.43211e-18
8386.49121 4.51320e-18
8388.14880 4.32338e-18
8389.81644 4.13369e-18
8391.47403 4.32763e-18
8393.13162 4.52155e-18
8394.78921 4.69379e-18
8396.45685 4.86592e-18
8398.11444 4.76775e-18
8399.77203 4.66959e-18
8401.42962 4.58793e-18
8403.09725 4.50632e-18
8404.75484 4.58655e-18
8406.41243 4.66684e-18
8408.08007 4.89759e-18
8409.73766 5.12819e-18
8411.39525 4.92293e-18
8413.05284 4.71774e-18
8414.72047 4.73190e-18
8416.37806 4.74600e-18
8418.03565 4.61489e-18
8419.69324 4.48383e-18
8421.36088 4.45420e-18
8423.01847 4.42460e-18
8424.67606 4.48189e-18
8426.34370 4.53907e-18
8428.00129 4.26530e-18
8429.65888 3.99172e-18
8431.31647 4.21568e-18
8432.98410 4.43961e-18
8434.64169 4.60795e-18
8436.29928 4.77620e-18
8437.95687 4.73905e-18
8439.62451 4.70189e-18
8441.28210 4.63663e-18
8442.93969 4.57129e-18
8444.60732 4.28650e-18
8446.26491 4.00185e-18
8447.92250 4.11017e-18
8449.58009 4.21853e-18
8451.24773 4.46592e-18
8452.90532 4.71324e-18
8454.56291 4.79050e-18
8456.22050 4.86767e-18
8457.88814 4.68605e-18
8459.54573 4.50447e-18
8461.20332 4.41723e-18
8462.87095 4.33005e-18
8464.52854 4.40321e-18
8466.18613 4.47633e-18
8467.84372 4.49289e-18
8469.51136 4.50943e-18
8471.16895 4.49587e-18
8472.82654 4.48228e-18
8474.48413 4.44608e-18
8476.15176 4.40993e-18
8477.80935 4.50557e-18
8479.46694 4.60128e-18
8481.13458 4.87836e-18
8482.79217 5.15525e-18
8484.44976 4.93087e-18
8486.10735 4.70658e-18
8487.77499 4.69443e-18
8489.43258 4.68239e-18
8491.09017 4.96779e-18
8492.75780 5.25300e-18
8494.41539 5.02242e-18
8496.07298 4.79192e-18
8497.73057 4.84394e-18
8499.39821 4.89594e-18
8501.05580 4.90948e-18
8502.71339 4.92302e-18
8504.37098 4.91758e-18
8506.03861 4.91212e-18
8507.69620 4.88643e-18
8509.35379 4.86077e-18
8511.01138 4.92008e-18
8512.67902 4.97934e-18
8514.33661 4.92082e-18
8515.99420 4.86237e-18
8517.66184 5.00683e-18
8519.31943 5.15121e-18
8520.97702 5.01516e-18
8522.63461 4.87914e-18
8524.30224 4.77289e-18
8525.95983 4.66677e-18
8527.61742 4.92483e-18
8529.28506 5.18284e-18
8530.94265 5.36149e-18
8532.60024 5.53999e-18
8534.25783 5.26433e-18
8535.92546 4.98886e-18
8537.58305 5.24797e-18
8539.24064 5.50693e-18
8540.89823 5.34916e-18
8542.56587 5.19146e-18
8544.22346 5.17817e-18
8545.88105 5.16490e-18
8547.54869 5.18021e-18
8549.20628 5.19561e-18
8550.86387 5.44609e-18
8552.52146 5.69647e-18
8554.18909 5.69303e-18
8555.84668 5.68966e-18
8557.50427 5.82763e-18
8559.17191 5.96550e-18
8560.82950 5.83574e-18
8562.48709 5.70600e-18
8564.14468 5.60446e-18
8565.81231 5.50303e-18
8567.46990 5.67570e-18
8569.12749 5.84831e-18
8570.78508 5.83315e-18
8572.45272 5.81793e-18
8574.11031 5.63748e-18
8575.76790 5.45705e-18
8577.43554 5.34444e-18
8579.09313 5.23192e-18
8580.75072 5.37339e-18
8582.40831 5.51477e-18
8584.07594 5.45421e-18
8585.73353 5.39370e-18
8587.39112 5.52813e-18
8589.04871 5.66256e-18
8590.71635 5.81857e-18
8592.37394 5.97447e-18
8594.03153 5.81142e-18
8595.69916 5.64840e-18
8597.35675 5.55663e-18
8599.01434 5.46492e-18
8600.67193 5.50929e-18
8602.33957 5.55374e-18
8603.99716 5.82119e-18
8605.65475 6.08848e-18
8607.32239 5.98336e-18
8608.97998 5.87821e-18
8610.63757 5.72200e-18
8612.29516 5.56584e-18
8613.96279 5.57812e-18
8615.62038 5.59039e-18
8617.27797 5.61410e-18
8618.93556 5.63779e-18
8620.60320 5.61690e-18
8622.26079 5.59609e-18
8623.91838 5.84162e-18
8625.58601 6.08710e-18
8627.24360 6.19856e-18
8628.90119 6.30990e-18
8630.55878 6.12817e-18
8632.22642 5.94648e-18
8633.88401 5.82959e-18
8635.54160 5.71283e-18
8637.20924 5.92199e-18
8638.86683 6.13112e-18
8640.52442 6.22614e-18
8642.18201 6.32100e-18
8643.84964 5.90771e-18
8645.50723 5.49460e-18
8647.16482 5.56354e-18
8648.82241 5.63254e-18
8650.49005 5.90079e-18
8652.14764 6.16891e-18
8653.80523 6.16864e-18
8655.46282 6.16833e-18
8657.13045 6.06565e-18
8658.78804 5.96305e-18
8660.44563 6.06517e-18
8662.11327 6.16715e-18
8663.77086 5.94355e-18
8665.42845 5.72004e-18
8667.08604 5.77217e-18
8668.75368 5.82428e-18
8670.41127 5.80669e-18
8672.06886 5.78912e-18
8673.73649 5.85095e-18
8675.39408 5.91270e-18
8677.05167 5.76877e-18
8678.70926 5.62494e-18
8680.37690 5.72996e-18
8682.03449 5.83495e-18
8683.69208 5.88173e-18
8685.34967 5.92840e-18
8687.01730 5.72756e-18
8688.67489 5.52686e-18
8690.33248 5.71600e-18
8691.99007 5.90509e-18
8693.65771 5.97704e-18
8695.31530 6.04889e-18
8696.97289 5.90123e-18
8698.64053 5.75364e-18
8700.29812 5.79242e-18
8701.95571 5.83121e-18
8703.61330 5.94051e-18
8705.28093 6.04972e-18
8706.93852 5.94722e-18
8708.59611 5.84471e-18
8710.26375 5.74211e-18
8711.92134 5.63962e-18
8713.57893 5.77155e-18
8715.23652 5.90342e-18
8716.90415 5.83088e-18
8718.56174 5.75834e-18
8720.21933 5.66214e-18
8721.87692 5.56597e-18
8723.54456 5.60166e-18
8725.20215 5.63738e-18
8726.85974 5.74266e-18
8728.52738 5.84796e-18
8730.18497 5.99146e-18
8731.84256 6.13484e-18
8733.50015 5.96266e-18
8735.16778 5.79061e-18
8736.82537 5.90303e-18
8738.48296 6.01537e-18
8740.14055 5.88380e-18
8741.80819 5.75232e-18
8743.46578 5.88052e-18
8745.12337 6.00857e-18
8746.79100 5.72099e-18
8748.44859 5.43356e-18
8750.10618 5.53825e-18
8751.76377 5.64307e-18
8753.43141 6.05513e-18
8755.08900 6.46705e-18
8756.74659 6.50571e-18
8758.40418 6.54419e-18
8760.07182 6.09598e-18
8761.72941 5.64791e-18
8763.38700 5.58653e-18
8765.05463 5.52519e-18
8766.71222 5.60173e-18
8768.36981 5.67820e-18
8770.02740 5.59120e-18
8771.69504 5.50425e-18
8773.35263 5.51494e-18
8775.01022 5.52560e-18
8776.67785 5.50515e-18
8778.33544 5.48470e-18
8779.99303 5.48108e-18
8781.65062 5.47749e-18
8783.31826 5.53934e-18
8784.97585 5.60108e-18
8786.63344 5.35002e-18
8788.29103 5.09901e-18
8789.95867 4.99760e-18
8791.61626 4.89634e-18
8793.27385 5.23044e-18
8794.94148 5.56435e-18
8796.59907 5.40464e-18
8798.25666 5.24499e-18
8799.91425 5.21298e-18
8801.58189 5.18097e-18
8803.23948 5.15331e-18
8804.89707 5.12565e-18
8806.56470 5.14380e-18
8808.22229 5.16197e-18
8809.87988 5.24707e-18
8811.53747 5.33214e-18
8813.20511 5.34478e-18
8814.86270 5.35743e-18
8816.52029 5.42310e-18
8818.17788 5.48874e-18
8819.84552 5.51719e-18
8821.50311 5.54563e-18
8823.16070 5.53666e-18
8824.82833 5.52769e-18
8826.48592 5.52316e-18
8828.14351 5.51843e-18
8829.80110 5.03574e-18
8831.46874 4.55339e-18
8833.12633 4.98502e-18
8834.78392 5.41643e-18
8836.44151 5.31374e-18
8838.10914 5.21110e-18
8839.76673 5.20285e-18
8841.42432 5.19458e-18
8843.09196 5.09855e-18
8844.74955 5.00256e-18
8846.40714 4.99633e-18
8848.06473 4.99011e-18
8849.73237 4.99207e-18
8851.38996 4.99408e-18
8853.04755 5.11319e-18
8854.71518 5.23218e-18
8856.37277 5.08639e-18
8858.03036 4.94064e-18
8859.68795 4.84002e-18
8861.35559 4.73945e-18
8863.01318 4.73023e-18
8864.67077 4.72106e-18
8866.32836 4.79658e-18
8867.99599 4.87213e-18
8869.65358 4.98444e-18
8871.31117 5.09672e-18
8872.97881 5.09136e-18
8874.63640 5.08593e-18
8876.29399 4.90256e-18
8877.95158 4.71932e-18
8879.61922 4.86872e-18
8881.27681 5.01802e-18
8882.93440 4.96637e-18
8884.60203 4.91481e-18
8886.25962 5.05201e-18
8887.91721 5.18918e-18
8889.57480 5.21433e-18
8891.24244 5.23936e-18
8892.90003 4.95930e-18
8894.55762 4.67937e-18
8896.21521 4.78162e-18
8897.88284 4.88383e-18
8899.54043 4.88530e-18
8901.19802 4.88674e-18
8902.85561 4.85807e-18
8904.52325 4.82940e-18
8906.18084 4.81063e-18
8907.83843 4.79179e-18
8909.50607 4.59366e-18
8911.16366 4.39564e-18
8912.82125 4.44561e-18
8914.47884 4.49550e-18
8916.14647 4.35295e-18
8917.80406 4.21055e-18
8919.46165 4.41078e-18
8921.11924 4.61090e-18
8922.78688 4.55059e-18
8924.44447 4.49042e-18
8926.10206 4.83206e-18
8927.76969 5.17353e-18
8929.42728 5.11962e-18
8931.08487 5.06554e-18
8932.74246 4.61818e-18
8934.41010 4.17099e-18
8936.06769 4.14700e-18
8937.72528 4.12312e-18
8939.38287 4.37614e-18
8941.05051 4.62893e-18
8942.70810 4.33219e-18
8944.36569 4.03559e-18
8946.03332 4.11586e-18
8947.69091 4.19603e-18
8949.34850 4.09247e-18
8951.00609 3.98902e-18
8952.67373 4.17164e-18
8954.33132 4.35406e-18
8955.98891 4.04958e-18
8957.64650 3.74530e-18
8959.31413 3.91365e-18
8960.97172 4.08196e-18
8962.62931 4.20278e-18
8964.29695 4.32361e-18
8965.95454 4.50239e-18
8967.61213 4.68103e-18
8969.26972 4.55508e-18
8970.93736 4.42917e-18
8972.59495 4.40794e-18
8974.25254 4.38670e-18
8975.92017 4.34949e-18
8977.57776 4.31225e-18
8979.23535 4.20426e-18
8980.89294 4.09636e-18
8982.56058 4.19272e-18
8984.21817 4.28909e-18
8985.87576 4.41138e-18
8987.53335 4.53354e-18
8989.20098 4.33464e-18
8990.85857 4.13581e-18
8992.51616 4.06971e-18
8994.18380 4.00365e-18
8995.84139 4.08668e-18
8997.49898 4.16969e-18
8999.15657 4.24696e-18
9000.82421 4.32427e-18
9002.48180 4.46134e-18
9004.13939 4.59835e-18
9005.79698 4.54208e-18
9007.46461 4.48582e-18
9009.12220 4.45725e-18
9010.77979 4.42873e-18
9012.44743 4.55546e-18
9014.10502 4.68205e-18
9015.76261 4.44764e-18
9017.42020 4.21335e-18
9019.08783 4.25676e-18
9020.74542 4.30010e-18
9022.40301 4.17906e-18
9024.07065 4.05808e-18
9025.72824 4.09365e-18
9027.38583 4.12923e-18
9029.04342 4.21579e-18
9030.71106 4.30240e-18
9032.36865 4.48901e-18
9034.02624 4.67546e-18
9035.68383 4.42926e-18
9037.35146 4.18314e-18
9039.00905 4.10707e-18
9040.66664 4.03109e-18
9042.33428 4.17262e-18
9043.99187 4.31402e-18
9045.64946 4.12242e-18
9047.30705 3.93081e-18
9048.97468 3.72882e-18
9050.63227 3.52705e-18
9052.28986 3.83785e-18
9053.95750 4.14855e-18
9055.61509 4.19417e-18
9057.27268 4.23966e-18
9058.93027 4.01247e-18
9060.59791 3.78534e-18
9062.25550 3.73663e-18
9063.91309 3.68796e-18
9065.57068 3.73651e-18
9067.23831 3.78499e-18
9068.89590 3.62366e-18
9070.55349 3.46247e-18
9072.21108 3.64216e-18
9073.87872 3.82178e-18
9075.53631 3.82466e-18
9077.19390 3.82756e-18
9078.86153 3.86372e-18
9080.51912 3.89972e-18
9082.17671 3.59088e-18
9083.83430 3.28227e-18
9085.50194 3.50988e-18
9087.15953 3.73745e-18
9088.81712 3.88314e-18
9090.48476 4.02869e-18
9092.14235 3.89156e-18
9093.79994 3.75465e-18
9095.45753 4.02393e-18
9097.12516 4.29297e-18
9098.78275 3.99798e-18
9100.44034 3.70321e-18
9102.09793 3.88687e-18
9103.76557 4.07061e-18
9105.42316 4.43182e-18
9107.08075 4.79279e-18
9108.74838 4.60102e-18
9110.40597 4.40924e-18
9112.06356 4.15038e-18
9113.72115 3.89162e-18
9115.38879 3.81516e-18
9117.04638 3.73878e-18
9118.70397 3.82770e-18
9120.36156 3.91658e-18
9122.02920 3.87084e-18
9123.68679 3.82514e-18
9125.34438 3.91320e-18
9127.01201 4.00125e-18
9128.66960 4.11633e-18
9130.32719 4.23138e-18
9131.98478 4.29020e-18
9133.65242 4.34901e-18
9135.31001 4.34114e-18
9136.96760 4.33331e-18
9138.63523 4.40814e-18
9140.29282 4.48289e-18
9141.95041 4.33941e-18
9143.60800 4.19600e-18
9145.27564 4.22811e-18
9146.93323 4.26019e-18
9148.59082 4.19897e-18
9150.24841 4.13770e-18
9151.91605 3.96706e-18
9153.57364 3.79662e-18
9155.23123 4.10152e-18
9156.89886 4.40630e-18
9158.55645 4.43942e-18
9160.21404 4.47249e-18
9161.87163 4.39327e-18
9163.53927 4.31398e-18
9165.19686 4.07184e-18
9166.85445 3.82987e-18
9168.51204 4.00246e-18
9170.17967 4.17498e-18
9171.83726 4.18187e-18
9173.49485 4.18874e-18
9175.15244 4.14199e-18
9176.82008 4.09535e-18
9178.47767 4.31215e-18
9180.13526 4.52889e-18
9181.80290 4.59242e-18
9183.46049 4.65589e-18
9185.11808 4.57280e-18
9186.77567 4.48976e-18
9188.44330 4.54284e-18
9190.10089 4.59586e-18
9191.75848 4.53192e-18
9193.42612 4.46793e-18
9195.08371 4.28472e-18
9196.74130 4.10170e-18
9198.39889 4.36586e-18
9200.06652 4.62991e-18
9201.72411 4.63970e-18
9203.38170 4.64938e-18
9205.03929 4.43187e-18
9206.70693 4.21443e-18
9208.36452 4.20869e-18
9210.02211 4.20304e-18
9211.68975 4.38670e-18
9213.34734 4.57025e-18
9215.00493 4.51974e-18
9216.66252 4.46921e-18
9218.33015 4.38657e-18
9219.98774 4.30393e-18
9221.64533 4.21640e-18
9223.31297 4.12893e-18
9224.97056 4.19566e-18
9226.62815 4.26226e-18
9228.28574 4.02319e-18
9229.95337 3.78437e-18
9231.61096 4.17104e-18
9233.26855 4.55760e-18
9234.92614 4.74463e-18
9236.59378 4.93146e-18
9238.25137 4.64940e-18
9239.90896 4.36742e-18
9241.56655 4.22207e-18
9243.23419 4.07690e-18
9244.89178 4.36284e-18
9246.54937 4.64857e-18
9248.21700 4.43532e-18
9249.87459 4.22217e-18
9251.53218 4.23742e-18
9253.18977 4.25264e-18
9254.85741 4.20434e-18
9256.51500 4.15609e-18
9258.17259 4.21413e-18
9259.84022 4.27218e-18
9261.49781 4.37828e-18
9263.15540 4.48432e-18
9264.81299 4.40632e-18
9266.48063 4.32824e-18
9268.13822 4.05415e-18
9269.79581 3.78030e-18
9271.45340 4.09456e-18
9273.12104 4.40862e-18
9274.77863 4.25925e-18
9276.43622 4.11002e-18
9278.10385 4.33616e-18
9279.76144 4.56210e-18
9281.41903 4.34052e-18
9283.07662 4.11905e-18
9284.74426 4.12491e-18
9286.40185 4.13080e-18
9288.05944 4.23512e-18
9289.71703 4.33927e-18
9291.38466 3.99572e-18
9293.04225 3.65236e-18
9294.69984 3.75470e-18
9296.36748 3.85706e-18
9298.02507 4.00620e-18
9299.68266 4.15527e-18
9301.34025 4.16313e-18
9303.00789 4.17097e-18
9304.66548 4.14678e-18
9306.32307 4.12254e-18
9307.99070 3.95804e-18
9309.64829 3.79358e-18
9311.30588 3.71633e-18
9312.96347 3.63915e-18
9314.63111 3.71241e-18
9316.28870 3.78555e-18
9317.94629 3.55196e-18
9319.60388 3.31834e-18
9321.27151 3.00520e-18
9322.92910 2.69234e-18
9324.58669 3.02632e-18
9326.25433 3.36018e-18
9327.91192 3.40624e-18
9329.56951 3.45232e-18
9331.22710 3.56071e-18
9332.89474 3.66899e-18
9334.55233 3.48603e-18
9336.20992 3.30318e-18
9337.87755 3.36732e-18
9339.53514 3.43145e-18
9341.19273 3.46781e-18
9342.85032 3.50424e-18
9344.51796 3.69864e-18
9346.17555 3.89298e-18
9347.83314 3.93949e-18
9349.49073 3.98577e-18
9351.15836 3.49455e-18
9352.81595 3.00352e-18
9354.47354 2.91707e-18
9356.13113 2.83086e-18
9357.79877 3.29362e-18
9359.45636 3.75617e-18
9361.11395 3.71285e-18
9362.78159 3.66965e-18
9364.43918 3.87479e-18
9366.09677 4.07985e-18
9367.75436 4.07966e-18
9369.42199 4.07946e-18
9371.07958 4.04864e-18
9372.73717 4.01761e-18
9374.40481 3.42677e-18
9376.06240 2.83621e-18
9377.71999 2.85145e-18
9379.37758 2.86679e-18
9381.04521 3.11310e-18
9382.70280 3.35931e-18
9384.36039 3.37138e-18
9386.01798 3.38345e-18
9387.68562 3.38550e-18
9389.34321 3.38753e-18
9391.00080 3.37420e-18
9392.66844 3.36095e-18
9394.32603 3.51624e-18
9395.98362 3.67139e-18
9397.64121 3.51231e-18
9399.30884 3.35329e-18
9400.96643 3.36289e-18
9402.62402 3.37250e-18
9404.28161 3.41724e-18
9405.94925 3.46193e-18
9407.60684 3.37228e-18
9409.26443 3.28274e-18
9410.93206 3.46061e-18
9412.58965 3.63842e-18
9414.24724 3.67190e-18
9415.90483 3.70531e-18
9417.57247 3.56453e-18
9419.23006 3.42380e-18
9420.88765 3.38332e-18
9422.54524 3.34279e-18
9424.21288 3.19724e-18
9425.87047 3.05193e-18
9427.52806 3.44720e-18
9429.19569 3.84219e-18
9430.85328 3.60252e-18
9432.51087 3.36291e-18
9434.16846 3.28652e-18
9435.83610 3.20997e-18
9437.49369 2.78881e-18
9439.15128 2.36776e-18
9440.80887 2.21204e-18
9442.47650 2.05668e-18
9444.13409 2.74765e-18
9445.79168 3.43831e-18
9447.45932 3.42569e-18
9449.11691 3.41311e-18
9450.77450 3.49848e-18
9452.43209 3.58372e-18
9454.09973 3.37731e-18
9455.75732 3.17090e-18
9457.41491 2.91760e-18
9459.07250 2.66446e-18
9460.74013 2.73279e-18
9462.39772 2.80119e-18
9464.05531 3.04350e-18
9465.72295 3.28557e-18
9467.38054 2.96165e-18
9469.03813 2.63798e-18
9470.69572 2.87378e-18
9472.36335 3.10959e-18
9474.02094 3.37540e-18
9475.67853 3.64115e-18
9477.34617 3.77762e-18
9479.00376 3.91395e-18
9480.66135 3.76623e-18
9482.31894 3.61859e-18
9483.98658 3.62205e-18
9485.64417 3.62542e-18
9487.30176 3.38053e-18
9488.95935 3.13573e-18
9490.62698 3.11010e-18
9492.28457 3.08446e-18
9493.94216 3.00463e-18
9495.60980 2.92501e-18
9497.26739 3.31448e-18
9498.92498 3.70372e-18
9500.58257 3.53172e-18
9502.25020 3.35980e-18
9503.90779 3.41086e-18
9505.56538 3.46194e-18
9507.23302 3.54249e-18
9508.89061 3.62288e-18
9510.54820 3.36455e-18
9512.20579 3.10628e-18
9513.87343 2.99509e-18
9515.53102 2.88390e-18
9517.18861 2.82805e-18
9518.84620 2.77238e-18
9520.51383 3.12635e-18
9522.17142 3.48006e-18
9523.82901 3.26500e-18
9525.49665 3.05007e-18
9527.15424 3.13114e-18
9528.81183 3.21212e-18
9530.46942 3.09061e-18
9532.13705 2.96921e-18
9533.79464 3.11122e-18
9535.45223 3.25318e-18
9537.10982 3.28638e-18
9538.77746 3.31959e-18
9540.43505 3.39847e-18
9542.09264 3.47730e-18
9543.76028 3.44013e-18
9545.41787 3.40284e-18
9547.07546 3.13002e-18
9548.73305 2.85726e-18
9550.40068 2.71804e-18
9552.05827 2.57917e-18
9553.71586 3.25248e-18
9555.37345 3.92535e-18
9557.04109 3.61815e-18
9558.69868 3.31107e-18
9560.35627 3.26710e-18
9562.02390 3.22321e-18
9563.68149 3.35434e-18
9565.33908 3.48534e-18
9566.99667 3.30439e-18
9568.66431 3.12353e-18
9570.32190 3.14963e-18
9571.97949 3.17577e-18
9573.64713 3.25623e-18
9575.30472 3.33654e-18
9576.96231 3.08362e-18
9578.61990 2.83082e-18
9580.28753 2.83042e-18
9581.94512 2.83007e-18
9583.60271 2.91997e-18
9585.27035 3.00979e-18
9586.92794 2.89725e-18
9588.58553 2.78475e-18
9590.24312 2.74416e-18
9591.91075 2.70370e-18
9593.56834 2.95859e-18
9595.22593 3.21332e-18
9596.88352 3.09502e-18
9598.55116 2.97686e-18
9600.20875 3.18619e-18
9601.86634 3.39542e-18
9603.52393 3.38991e-18
9605.19157 3.38447e-18
9606.84916 3.52933e-18
9608.50675 3.67396e-18
9610.17438 3.29275e-18
9611.83197 2.91170e-18
9613.48956 2.89745e-18
9615.14715 2.88319e-18
9616.81479 2.85191e-18
9618.47238 2.82066e-18
9620.12997 2.87295e-18
9621.79760 2.92525e-18
9623.45519 2.99199e-18
9625.11278 3.05872e-18
9626.77037 3.12238e-18
9628.43801 3.18604e-18
9630.09560 3.26988e-18
9631.75319 3.35366e-18
9633.41078 3.34530e-18
9635.07842 3.33700e-18
9636.73601 3.51509e-18
9638.39360 3.69299e-18
9640.06123 3.47758e-18
9641.71882 3.26231e-18
9643.37641 3.33685e-18
9645.03400 3.41121e-18
9646.70164 3.11288e-18
9648.35923 2.81477e-18
9650.01682 3.00926e-18
9651.67441 3.20365e-18
9653.34204 3.17729e-18
9654.99963 3.15085e-18
9656.65722 2.93175e-18
9658.31481 2.71281e-18
9659.98245 2.80373e-18
9661.64004 2.89475e-18
9663.29763 3.20420e-18
9664.96527 3.51333e-18
9666.62286 3.09409e-18
9668.28045 2.67515e-18
9669.93804 2.89514e-18
9671.60567 3.11513e-18
9673.26326 3.34013e-18
9674.92085 3.56505e-18
9676.58849 3.62363e-18
9678.24608 3.68211e-18
9679.90367 3.51908e-18
9681.56126 3.35629e-18
9683.22889 3.70647e-18
9684.88648 4.05638e-18
9686.54407 3.78249e-18
9688.20166 3.50854e-18
9689.86930 3.12431e-18
9691.52689 2.74043e-18
9693.18448 3.10675e-18
9694.85212 3.47294e-18
9696.50971 3.52049e-18
9698.16730 3.56813e-18
9699.82489 3.82679e-18
9701.49252 4.08499e-18
9703.15011 3.34590e-18
9704.80770 2.60722e-18
9706.46529 2.76878e-18
9708.13293 2.93031e-18
9709.79052 2.99811e-18
9711.44811 3.06575e-18
9713.11574 2.74221e-18
9714.77333 2.41897e-18
9716.43092 2.74797e-18
9718.08851 3.07697e-18
9719.75615 3.37639e-18
9721.41374 3.67555e-18
9723.07133 3.38632e-18
9724.73897 3.09727e-18
9726.39656 3.15886e-18
9728.05415 3.22045e-18
9729.71174 3.31597e-18
9731.37937 3.41135e-18
9733.03696 3.21991e-18
9734.69455 3.02859e-18
9736.35214 3.11189e-18
9738.01978 3.19521e-18
9739.67737 3.33355e-18
9741.33496 3.47182e-18
9743.00259 3.46951e-18
9744.66018 3.46713e-18
9746.31777 3.28901e-18
9747.97536 3.11090e-18
9749.64300 2.95914e-18
9751.30059 2.80760e-18
9752.95818 3.11742e-18
9754.62582 3.42697e-18
9756.28341 3.17884e-18
9757.94100 2.93087e-18
9759.59859 3.04757e-18
9761.26622 3.16425e-18
9762.92381 3.25060e-18
9764.58140 3.33688e-18
9766.23899 3.28174e-18
9767.90663 3.22671e-18
9769.56422 3.37438e-18
9771.22181 3.52193e-18
9772.87940 3.40484e-18
9774.54703 3.28774e-18
9776.20462 3.10651e-18
9777.86221 2.92529e-18
9779.52985 2.77245e-18
9781.18744 2.61982e-18
9782.84503 2.89387e-18
9784.50262 3.16779e-18
9786.17026 3.10410e-18
9787.82785 3.04080e-18
9789.48544 3.79365e-18
9791.15307 4.54596e-18
9792.81066 4.16596e-18
9794.46825 3.78605e-18
9796.12584 3.59307e-18
9797.79348 3.40022e-18
9799.45107 3.51558e-18
9801.10866 3.63058e-18
9802.76625 2.97983e-18
9804.43388 2.32929e-18
9806.09147 2.11578e-18
9807.74906 1.90260e-18
9809.41670 2.40009e-18
9811.07429 2.89738e-18
9812.73188 3.00081e-18
9814.38947 3.10423e-18
9816.05711 3.21016e-18
9817.71470 3.31600e-18
9819.37229 3.23442e-18
9821.03992 3.15277e-18
9822.69751 2.90353e-18
9824.35510 2.65459e-18
9826.01269 3.02328e-18
9827.68033 3.39172e-18
9829.33792 3.18856e-18
9830.99551 2.98554e-18
9832.65310 3.09830e-18
9834.32073 3.21096e-18
9835.97832 3.11978e-18
9837.63591 3.02855e-18
9839.30355 2.83535e-18
9840.96114 2.64242e-18
9842.61873 3.00907e-18
9844.27632 3.37574e-18
9845.94396 3.76117e-18
9847.60155 4.14632e-18
9849.25914 3.96915e-18
9850.91673 3.79197e-18
9852.58436 3.61230e-18
9854.24195 3.43263e-18
9855.89954 3.27345e-18
9857.56718 3.11433e-18
9859.22477 3.08804e-18
9860.88236 3.06175e-18
9862.53995 3.05397e-18
9864.20758 3.04647e-18
9865.86517 3.64406e-18
9867.52276 4.24132e-18
9869.18035 4.08725e-18
9870.84799 3.93333e-18
9872.50558 4.07367e-18
9874.16317 4.21413e-18
9875.83081 4.59723e-18
9877.48840 4.97984e-18
9879.14599 4.32957e-18
9880.80358 3.67933e-18
9882.47121 3.05514e-18
9884.12880 2.43150e-18
9885.78639 2.93681e-18
9887.44398 3.44202e-18
9889.11162 3.71122e-18
9890.76921 3.98034e-18
9892.42680 4.06238e-18
9894.09443 4.14446e-18
9895.75202 4.26933e-18
9897.40961 4.39416e-18
9899.06720 4.46071e-18
9900.73484 4.52686e-18
9902.39243 3.73927e-18
9904.05002 2.95202e-18
9905.70761 2.87588e-18
9907.37525 2.79973e-18
9909.03284 2.68055e-18
9910.69043 2.56143e-18
9912.35806 2.59225e-18
9914.01565 2.62328e-18
9915.67324 3.06536e-18
9917.33083 3.50715e-18
9918.99847 3.35430e-18
9920.65606 3.20156e-18
9922.31365 3.27065e-18
9923.98128 3.33977e-18
9925.63887 3.42768e-18
9927.29646 3.51563e-18
9928.95405 3.68274e-18
9930.62169 3.84943e-18
9932.27928 3.07982e-18
9933.93687 2.31048e-18
9935.59446 2.09413e-18
9937.26210 1.87823e-18
9938.91969 2.60447e-18
9940.57728 3.33050e-18
9942.23487 3.62806e-18
9943.90250 3.92548e-18
9945.56009 3.92761e-18
9947.21768 3.92950e-18
9948.88532 3.38625e-18
9950.54291 2.84355e-18
9952.20050 3.47024e-18
9953.85809 4.09662e-18
9955.52572 4.08693e-18
9957.18331 4.07705e-18
9958.84090 3.63884e-18
9960.50854 3.20077e-18
9962.16613 3.00971e-18
9963.82372 2.81870e-18
9965.48131 2.70939e-18
9967.14895 2.60002e-18
9968.80654 2.33625e-18
9970.46413 2.07256e-18
9972.12172 1.94656e-18
9973.78935 1.82064e-18
9975.44694 1.83760e-18
9977.10453 1.85482e-18
9978.77217 2.37235e-18
9980.42976 2.88960e-18
9982.08735 2.86307e-18
9983.74494 2.83664e-18
9985.41257 3.03198e-18
9987.07016 3.22735e-18
9988.72775 3.53238e-18
9990.39539 3.83722e-18
9992.05298 3.73602e-18
9993.71057 3.63468e-18
9995.36816 3.27158e-18
9997.03580 2.90835e-18
9998.69339 2.24987e-18
