# wavelength flux
3484.99972 3.62718e-17
3486.46996 3.05177e-17
3487.94020 1.60367e-17
3489.41044 1.57060e-17
3490.88068 2.69268e-17
3492.35092 2.37428e-17
3493.82116 1.88513e-17
3495.29140 1.57165e-17
3496.76164 1.65490e-17
3498.23188 1.93084e-17
3499.70212 2.20943e-17
3501.17236 2.15302e-17
3502.64260 2.07605e-17
3504.11284 2.63917e-17
3505.58308 2.14456e-17
3507.05332 1.99195e-17
3508.52356 1.58637e-17
3509.99380 2.70013e-18
3511.46404 1.58027e-17
3512.93428 2.44322e-17
3514.40452 1.41755e-17
3515.87476 1.71042e-17
3517.34500 2.12096e-17
3518.80503 1.79666e-17
3520.27527 1.94846e-17
3521.74551 2.96053e-17
3523.21575 3.17097e-17
3524.68599 2.98532e-17
3526.15623 2.92109e-17
3527.62647 2.03555e-17
3529.09671 1.10634e-17
3530.56695 1.50560e-17
3532.03719 2.22871e-17
3533.50743 2.59675e-17
3534.97767 2.22023e-17
3536.44791 1.29766e-17
3537.91815 7.61756e-18
3539.38839 1.20643e-17
3540.85863 1.55473e-17
3542.32887 2.00855e-17
3543.79911 1.48320e-17
3545.26935 7.24297e-18
3546.73959 4.79712e-18
3548.20983 1.24637e-17
3549.68007 9.21224e-18
3551.15031 1.08900e-17
3552.62055 1.65936e-17
3554.09079 1.91170e-17
3555.56103 1.99927e-17
3557.03127 1.94264e-17
3558.50151 2.63909e-17
3559.97175 2.84640e-17
3561.44199 2.64228e-17
3562.91223 2.52100e-17
3564.38247 2.64706e-17
3565.85271 2.25996e-17
3567.32295 1.91835e-17
3568.79319 1.86056e-17
3570.26343 1.71857e-17
3571.73367 1.51208e-17
3573.20391 1.14306e-17
3574.67415 5.68229e-18
3576.14439 1.07133e-17
3577.61463 1.61835e-17
3579.08487 2.18903e-17
3580.55511 2.50538e-17
3582.01514 2.06932e-17
3583.48538 1.46371e-17
3584.95562 1.08599e-17
3586.42586 1.34285e-17
3587.89610 1.54294e-17
3589.36634 8.84318e-18
3590.83658 1.49694e-17
3592.30682 3.35329e-17
3593.77706 3.04515e-17
3595.24730 1.62290e-17
3596.71754 1.61894e-17
3598.18778 2.03301e-17
3599.65802 2.61652e-17
3601.12826 3.04721e-17
3602.59850 2.62254e-17
3604.06874 2.52489e-17
3605.53898 2.34270e-17
3607.00922 2.72312e-17
3608.47946 3.54203e-17
3609.94970 3.24500e-17
3611.41994 2.50752e-17
3612.89018 2.11491e-17
3614.36042 1.93534e-17
3615.83066 2.16363e-17
3617.30090 2.23906e-17
3618.77114 2.13811e-17
3620.24138 2.87054e-17
3621.71162 3.10905e-17
3623.18186 2.43413e-17
3624.65210 2.29826e-17
3626.12234 2.98572e-17
3627.59258 3.38944e-17
3629.06282 2.52200e-17
3630.53306 2.41545e-17
3632.00330 2.53656e-17
3633.47354 2.09766e-17
3634.94378 1.69515e-17
3636.41402 2.59044e-17
3637.88426 2.09564e-17
3639.35450 1.52728e-17
3640.82474 1.86724e-17
3642.29498 2.27262e-17
3643.75501 1.86051e-17
3645.22525 2.31385e-17
3646.69549 1.57069e-17
3648.16573 1.28714e-17
3649.63597 1.45675e-17
3651.10621 2.32950e-17
3652.57645 2.58299e-17
3654.04669 2.06146e-17
3655.51693 1.31125e-17
3656.98717 1.91391e-17
3658.45741 3.25640e-17
3659.92765 2.57811e-17
3661.39789 1.58732e-17
3662.86813 1.41104e-17
3664.33837 2.02587e-17
3665.80861 1.93766e-17
3667.27885 1.53240e-17
3668.74909 2.02795e-17
3670.21933 2.22993e-17
3671.68957 2.49139e-17
3673.15981 2.17335e-17
3674.63005 2.01006e-17
3676.10029 2.69359e-17
3677.57053 3.55467e-17
3679.04077 3.16951e-17
3680.51101 2.30881e-17
3681.98125 1.91756e-17
3683.45149 2.16545e-17
3684.92173 1.78973e-17
3686.39197 1.81754e-17
3687.86221 1.95800e-17
3689.33245 1.94054e-17
3690.80269 2.67026e-17
3692.27293 2.52324e-17
3693.74317 1.66955e-17
3695.21341 1.63671e-17
3696.68365 2.02616e-17
3698.15389 1.57126e-17
3699.62413 1.91663e-17
3701.09437 2.48027e-17
3702.56461 2.55616e-17
3704.03485 1.79453e-17
3705.49488 2.09282e-17
3706.96512 2.31481e-17
3708.43536 2.10230e-17
3709.90560 2.10365e-17
3711.37584 2.45643e-17
3712.84608 1.78399e-17
3714.31632 1.03654e-17
3715.78656 1.92348e-17
3717.25680 2.43705e-17
3718.72704 2.41074e-17
3720.19728 2.20821e-17
3721.66752 1.58505e-17
3723.13776 1.30000e-17
3724.60800 1.83761e-17
3726.07824 2.34837e-17
3727.54848 2.15152e-17
3729.01872 2.03624e-17
3730.48896 2.52827e-17
3731.95920 2.42414e-17
3733.42944 2.27539e-17
3734.89968 1.70551e-17
3736.36992 1.29482e-17
3737.84016 1.79960e-17
3739.31040 1.60828e-17
3740.78064 1.28301e-17
3742.25088 1.71987e-17
3743.72112 1.87307e-17
3745.19136 1.31958e-17
3746.66160 1.51553e-17
3748.13184 1.13536e-17
3749.60208 1.61137e-17
3751.07232 1.57344e-17
3752.54256 1.64478e-17
3754.01280 2.04657e-17
3755.48304 1.86511e-17
3756.95328 1.57116e-17
3758.42352 1.36914e-17
3759.89376 1.92644e-17
3761.36400 1.81791e-17
3762.83424 1.87496e-17
3764.30448 1.90327e-17
3765.77472 1.56852e-17
3767.24496 1.72455e-17
3768.70499 1.19575e-17
3770.17523 1.54024e-17
3771.64547 2.04214e-17
3773.11571 1.63283e-17
3774.58595 1.49059e-17
3776.05619 1.14758e-17
3777.52643 8.68245e-18
3778.99667 1.14189e-17
3780.46691 1.10848e-17
3781.93715 8.52470e-18
3783.40739 9.32911e-18
3784.87763 1.52063e-17
3786.34787 1.40246e-17
3787.81811 7.34999e-18
3789.28835 1.01969e-17
3790.75859 1.26752e-17
3792.22883 1.16209e-17
3793.69907 1.25542e-17
3795.16931 1.10977e-17
3796.63955 1.60400e-17
3798.10979 1.85613e-17
3799.58003 8.36575e-18
3801.05027 9.12752e-18
3802.52051 1.25496e-17
3803.99075 1.50790e-17
3805.46099 1.49267e-17
3806.93123 8.13003e-18
3808.40147 6.90431e-18
3809.87171 1.47861e-17
3811.34195 1.69209e-17
3812.81219 1.16812e-17
3814.28243 1.02291e-17
3815.75267 1.34980e-17
3817.22291 1.47796e-17
3818.69315 1.35160e-17
3820.16339 9.87315e-18
3821.63363 1.24134e-17
3823.10387 1.33849e-17
3824.57411 7.97697e-18
3826.04435 1.01848e-17
3827.51459 1.47270e-17
3828.98483 1.11309e-17
3830.44486 1.17866e-17
3831.91510 9.03155e-18
3833.38534 1.16715e-17
3834.85558 1.56742e-17
3836.32582 1.53208e-17
3837.79606 7.69084e-18
3839.26630 9.43108e-18
3840.73654 1.38985e-17
3842.20678 8.65611e-18
3843.67702 8.74187e-18
3845.14726 8.62134e-18
3846.61750 1.52811e-17
3848.08774 1.55005e-17
3849.55798 1.13156e-17
3851.02822 1.12616e-17
3852.49846 1.02799e-17
3853.96870 1.31480e-17
3855.43894 1.47955e-17
3856.90918 1.07832e-17
3858.37942 8.80602e-18
3859.84966 8.94524e-18
3861.31990 1.07270e-17
3862.79014 1.05919e-17
3864.26038 1.23127e-17
3865.73062 1.18764e-17
3867.20086 1.26803e-17
3868.67110 1.31793e-17
3870.14134 1.23339e-17
3871.61158 9.58044e-18
3873.08182 1.16051e-17
3874.55206 1.37253e-17
3876.02230 1.23561e-17
3877.49254 1.17718e-17
3878.96278 1.16845e-17
3880.43302 1.46760e-17
3881.90326 1.15096e-17
3883.37350 1.16439e-17
3884.84374 1.24897e-17
3886.31398 1.23917e-17
3887.78422 1.38927e-17
3889.25446 1.46300e-17
3890.72470 1.56020e-17
3892.19494 1.59814e-17
3893.65497 1.42105e-17
3895.12521 1.31461e-17
3896.59545 1.47689e-17
3898.06569 1.64480e-17
3899.53593 1.38329e-17
3901.00617 1.58836e-17
3902.47641 1.98017e-17
3903.94665 1.61528e-17
3905.41689 1.76131e-17
3906.88713 1.57596e-17
3908.35737 1.57611e-17
3909.82761 2.40557e-17
3911.29785 1.88853e-17
3912.76809 1.57497e-17
3914.23833 1.13137e-17
3915.70857 1.49467e-17
3917.17881 1.95027e-17
3918.64905 1.82264e-17
3920.11929 2.12950e-17
3921.58953 1.96189e-17
3923.05977 1.33422e-17
3924.53001 1.36265e-17
3926.00025 2.59670e-17
3927.47049 1.99700e-17
3928.94073 1.68092e-17
3930.41097 1.87525e-17
3931.88121 1.21340e-17
3933.35145 1.78638e-17
3934.82169 1.84678e-17
3936.29193 1.83736e-17
3937.76217 2.18429e-17
3939.23241 1.91834e-17
3940.70265 2.27665e-17
3942.17289 2.23280e-17
3943.64313 1.97436e-17
3945.11337 2.47441e-17
3946.58361 2.72144e-17
3948.05385 2.70132e-17
3949.52409 2.67306e-17
3950.99433 2.54794e-17
3952.46457 2.38732e-17
3953.93481 2.71795e-17
3955.39484 2.71894e-17
3956.86508 2.31176e-17
3958.33532 2.59807e-17
3959.80556 2.79105e-17
3961.27580 2.66449e-17
3962.74604 3.04056e-17
3964.21628 2.60858e-17
3965.68652 2.10110e-17
3967.15676 2.31133e-17
3968.62700 3.10175e-17
3970.09724 2.82556e-17
3971.56748 2.55584e-17
3973.03772 3.03749e-17
3974.50796 2.93474e-17
3975.97820 2.65620e-17
3977.44844 2.72249e-17
3978.91868 2.67155e-17
3980.38892 2.91975e-17
3981.85916 2.78121e-17
3983.32940 3.02014e-17
3984.79964 2.60946e-17
3986.26988 2.28119e-17
3987.74012 2.45777e-17
3989.21036 2.70787e-17
3990.68060 2.83579e-17
3992.15084 2.72516e-17
3993.62108 2.58247e-17
3995.09132 2.89693e-17
3996.56156 2.85561e-17
3998.03180 2.34074e-17
3999.50204 2.55530e-17
4000.97228 2.90884e-17
4002.44252 3.07926e-17
4003.91276 2.86068e-17
4005.38300 2.92606e-17
4006.85324 2.87818e-17
4008.32348 2.63406e-17
4009.79372 3.17535e-17
4011.26396 3.18079e-17
4012.73420 2.81517e-17
4014.20444 2.85321e-17
4015.67468 2.56987e-17
4017.13471 2.64564e-17
4018.60495 2.62479e-17
4020.07519 2.50696e-17
4021.54543 2.71290e-17
4023.01567 2.51180e-17
4024.48591 2.94850e-17
4025.95615 3.77842e-17
4027.42639 3.37410e-17
4028.89663 3.16006e-17
4030.36687 3.05332e-17
4031.83711 3.01493e-17
4033.30735 2.79052e-17
4034.77759 2.94086e-17
4036.24783 3.12996e-17
4037.71807 2.85566e-17
4039.18831 2.56068e-17
4040.65855 2.73592e-17
4042.12879 2.89584e-17
4043.59903 2.95476e-17
4045.06927 2.95302e-17
4046.53951 2.66660e-17
4048.00975 2.65329e-17
4049.47999 2.67998e-17
4050.95023 2.90143e-17
4052.42047 2.83817e-17
4053.89071 2.75856e-17
4055.36095 3.09370e-17
4056.83119 3.28723e-17
4058.30143 2.63164e-17
4059.77167 2.77795e-17
4061.24191 2.69197e-17
4062.71215 2.83250e-17
4064.18239 3.07617e-17
4065.65263 3.21380e-17
4067.12287 3.21027e-17
4068.59311 3.18405e-17
4070.06335 2.95031e-17
4071.53359 2.52079e-17
4073.00383 2.53735e-17
4074.47407 2.71882e-17
4075.94431 2.95166e-17
4077.41455 2.75508e-17
4078.88479 3.03780e-17
4080.35503 2.71769e-17
4081.81506 2.42224e-17
4083.28530 2.91974e-17
4084.75554 2.73142e-17
4086.22578 2.58669e-17
4087.69602 2.61723e-17
4089.16626 2.68959e-17
4090.63650 2.42860e-17
4092.10674 2.22210e-17
4093.57698 2.39090e-17
4095.04722 2.54955e-17
4096.51746 2.71723e-17
4097.98770 2.53016e-17
4099.45794 2.33705e-17
4100.92818 2.39934e-17
4102.39842 2.56742e-17
4103.86866 2.45538e-17
4105.33890 2.48974e-17
4106.80914 2.27961e-17
4108.27938 1.80694e-17
4109.74962 2.32751e-17
4111.21986 2.72973e-17
4112.69010 2.56862e-17
4114.16034 2.25960e-17
4115.63058 1.97478e-17
4117.10082 2.12850e-17
4118.57106 2.43124e-17
4120.04130 2.44748e-17
4121.51154 2.20140e-17
4122.98178 2.42624e-17
4124.45202 2.19668e-17
4125.92226 1.98814e-17
4127.39250 2.54611e-17
4128.86274 2.12112e-17
4130.33298 2.03018e-17
4131.80322 2.13356e-17
4133.27346 2.36665e-17
4134.74370 2.29915e-17
4136.21394 2.24040e-17
4137.68418 2.70622e-17
4139.15442 2.33564e-17
4140.62466 2.14750e-17
4142.09490 2.43482e-17
4143.55493 2.30360e-17
4145.02517 2.25991e-17
4146.49541 2.29313e-17
4147.96565 2.26513e-17
4149.43589 2.26904e-17
4150.90613 2.32362e-17
4152.37637 2.27975e-17
4153.84661 2.23561e-17
4155.31685 2.44213e-17
4156.78709 2.37706e-17
4158.25733 2.51599e-17
4159.72757 2.31066e-17
4161.19781 2.00245e-17
4162.66805 2.15399e-17
4164.13829 2.39185e-17
4165.60853 2.26084e-17
4167.07877 2.23373e-17
4168.54901 2.41929e-17
4170.01925 2.34705e-17
4171.48949 2.37123e-17
4172.95973 2.28974e-17
4174.42997 1.74894e-17
4175.90021 2.10057e-17
4177.37045 2.35018e-17
4178.84069 2.21529e-17
4180.31093 2.52490e-17
4181.78117 2.41041e-17
4183.25141 1.98694e-17
4184.72165 1.85496e-17
4186.19189 1.98915e-17
4187.66213 2.24910e-17
4189.13237 2.14981e-17
4190.60261 2.28884e-17
4192.07285 2.24316e-17
4193.54309 1.92015e-17
4195.01333 2.11499e-17
4196.48357 2.43735e-17
4197.95381 2.59954e-17
4199.42405 2.37863e-17
4200.89429 2.33530e-17
4202.36453 2.20970e-17
4203.83477 2.26558e-17
4205.29480 2.09031e-17
4206.76504 2.06841e-17
4208.23528 2.17668e-17
4209.70552 2.17316e-17
4211.17576 2.37950e-17
4212.64600 2.52786e-17
4214.11624 2.06995e-17
4215.58648 2.42328e-17
4217.05672 2.58882e-17
4218.52696 2.07728e-17
4219.99720 2.16231e-17
4221.46744 2.85179e-17
4222.93768 2.15072e-17
4224.40792 2.18389e-17
4225.87816 2.17178e-17
4227.34840 2.22761e-17
4228.81864 2.24646e-17
4230.28888 1.99369e-17
4231.75912 1.91404e-17
4233.22936 2.31594e-17
4234.69960 2.08177e-17
4236.16984 2.62106e-17
4237.64008 2.30857e-17
4239.11032 2.19066e-17
4240.58056 1.93111e-17
4242.05080 2.15755e-17
4243.52104 2.08540e-17
4244.99128 1.85858e-17
4246.46152 2.17360e-17
4247.93176 2.02187e-17
4249.40200 1.95484e-17
4250.87224 2.34239e-17
4252.34248 2.55959e-17
4253.81272 2.58503e-17
4255.28296 2.57023e-17
4256.75320 1.95789e-17
4258.22344 1.99874e-17
4259.69368 2.12504e-17
4261.16392 2.34266e-17
4262.63416 2.35171e-17
4264.10440 2.27292e-17
4265.56443 2.27807e-17
4267.03467 2.28421e-17
4268.50491 2.20532e-17
4269.97515 2.13287e-17
4271.44539 1.83971e-17
4272.91563 1.98916e-17
4274.38587 1.99619e-17
4275.85611 2.17829e-17
4277.32635 2.25806e-17
4278.79659 1.78471e-17
4280.26683 1.95731e-17
4281.73707 2.21035e-17
4283.20731 2.55744e-17
4284.67755 2.41564e-17
4286.14779 1.92966e-17
4287.61803 2.20673e-17
4289.08827 1.83958e-17
4290.55851 2.01389e-17
4292.02875 2.21634e-17
4293.49899 2.13794e-17
4294.96923 2.09750e-17
4296.43947 2.10834e-17
4297.90971 2.37260e-17
4299.37995 2.06842e-17
4300.85019 2.15934e-17
4302.32043 2.47018e-17
4303.79067 2.22514e-17
4305.26091 2.09916e-17
4306.73115 2.07708e-17
4308.20139 2.20203e-17
4309.67163 2.39615e-17
4311.14187 2.10665e-17
4312.61211 2.03668e-17
4314.08235 2.11109e-17
4315.55259 2.00150e-17
4317.02283 2.10542e-17
4318.49307 1.66355e-17
4319.96331 1.88725e-17
4321.43355 2.33935e-17
4322.90379 2.22928e-17
4324.37403 2.20350e-17
4325.84427 2.27091e-17
4327.31451 2.20468e-17
4328.78475 2.17251e-17
4330.25499 2.21981e-17
4331.71502 2.03931e-17
4333.18526 1.90516e-17
4334.65550 1.89734e-17
4336.12574 1.90617e-17
4337.59598 2.15501e-17
4339.06622 2.01505e-17
4340.53646 1.88622e-17
4342.00670 2.11158e-17
4343.47694 2.57086e-17
4344.94718 2.29640e-17
4346.41742 2.11736e-17
4347.88766 2.26550e-17
4349.35790 2.01128e-17
4350.82814 1.82798e-17
4352.29838 2.01955e-17
4353.76862 2.30318e-17
4355.23886 2.22755e-17
4356.70910 2.19159e-17
4358.17934 2.05462e-17
4359.64958 1.89764e-17
4361.11982 1.97576e-17
4362.59006 1.95222e-17
4364.06030 2.00183e-17
4365.53054 1.97347e-17
4367.00078 2.11281e-17
4368.47102 2.13305e-17
4369.94126 2.01785e-17
4371.41150 2.05003e-17
4372.88174 1.96201e-17
4374.35198 1.94185e-17
4375.82222 1.82764e-17
4377.29246 1.73429e-17
4378.76270 2.03567e-17
4380.23294 2.23747e-17
4381.70318 2.28983e-17
4383.17342 2.11480e-17
4384.64366 2.20239e-17
4386.11390 2.03402e-17
4387.58414 1.85896e-17
4389.05438 1.82709e-17
4390.52462 1.48785e-17
4391.99486 1.53347e-17
4393.45489 1.87104e-17
4394.92513 1.99033e-17
4396.39537 1.64798e-17
4397.86561 1.47135e-17
4399.33585 1.54566e-17
4400.80609 1.82237e-17
4402.27633 2.00974e-17
4403.74657 1.74364e-17
4405.21681 1.69986e-17
4406.68705 1.73290e-17
4408.15729 1.85113e-17
4409.62753 2.14389e-17
4411.09777 2.23461e-17
4412.56801 1.79493e-17
4414.03825 1.95702e-17
4415.50849 1.77728e-17
4416.97873 1.60579e-17
4418.44897 1.64926e-17
4419.91921 1.51885e-17
4421.38945 1.37159e-17
4422.85969 1.54173e-17
4424.32993 1.68157e-17
4425.80017 1.68610e-17
4427.27041 1.88911e-17
4428.74065 1.58110e-17
4430.21089 1.53018e-17
4431.68113 1.43304e-17
4433.15137 1.51171e-17
4434.62161 1.35272e-17
4436.09185 1.35395e-17
4437.56209 1.55085e-17
4439.03233 1.66885e-17
4440.50257 1.80768e-17
4441.97281 1.51505e-17
4443.44305 1.40662e-17
4444.91329 1.52149e-17
4446.38353 1.58668e-17
4447.85377 1.59424e-17
4449.32401 1.65901e-17
4450.79425 1.37653e-17
4452.26449 1.52518e-17
4453.72452 1.56828e-17
4455.20497 1.62703e-17
4456.66500 1.34922e-17
4458.13524 1.25053e-17
4459.60548 1.39222e-17
4461.07572 1.81604e-17
4462.54596 1.70714e-17
4464.01620 1.34780e-17
4465.48644 1.60261e-17
4466.95668 1.46269e-17
4468.42692 1.39809e-17
4469.89716 1.62884e-17
4471.36740 1.67962e-17
4472.83764 1.60363e-17
4474.30788 1.68515e-17
4475.77812 1.44811e-17
4477.24836 1.54341e-17
4478.71860 1.60713e-17
4480.18884 1.30245e-17
4481.65908 1.66322e-17
4483.12932 1.45605e-17
4484.59956 1.52214e-17
4486.06980 1.43970e-17
4487.54004 1.68994e-17
4489.01028 1.63240e-17
4490.48052 1.71691e-17
4491.95076 1.83443e-17
4493.42100 1.69941e-17
4494.89124 1.59871e-17
4496.36148 1.46603e-17
4497.83172 1.66011e-17
4499.30196 1.95219e-17
4500.77220 1.63288e-17
4502.24244 1.63294e-17
4503.71268 1.88869e-17
4505.18292 1.76985e-17
4506.65316 1.63551e-17
4508.12340 1.64764e-17
4509.59364 1.89199e-17
4511.06388 1.72177e-17
4512.53412 1.78300e-17
4514.00436 1.81128e-17
4515.47460 1.62698e-17
4516.94484 1.68912e-17
4518.41508 1.70017e-17
4519.87511 1.75589e-17
4521.34535 1.80573e-17
4522.81559 1.93580e-17
4524.28583 1.79695e-17
4525.75607 1.74291e-17
4527.22631 1.66641e-17
4528.69655 2.08535e-17
4530.16679 2.05713e-17
4531.63703 1.65029e-17
4533.10727 1.64163e-17
4534.57751 2.01416e-17
4536.04775 2.04846e-17
4537.51799 2.12784e-17
4538.98823 1.95044e-17
4540.45847 1.96261e-17
4541.92871 2.06455e-17
4543.39895 1.90050e-17
4544.86919 1.93897e-17
4546.33943 2.04990e-17
4547.80967 2.14515e-17
4549.27991 2.31002e-17
4550.75015 2.14697e-17
4552.22039 2.09666e-17
4553.69063 2.38836e-17
4555.16087 2.09695e-17
4556.63111 2.01288e-17
4558.10135 1.96698e-17
4559.57159 2.01598e-17
4561.04183 2.17476e-17
4562.51207 2.02867e-17
4563.98231 2.12481e-17
4565.45255 2.16802e-17
4566.92279 2.41217e-17
4568.39303 2.27372e-17
4569.86327 2.00257e-17
4571.33351 2.15195e-17
4572.80375 2.37489e-17
4574.27399 2.37380e-17
4575.74423 2.19587e-17
4577.21447 2.27144e-17
4578.68471 2.22196e-17
4580.14474 2.10734e-17
4581.61498 2.36463e-17
4583.08522 2.31252e-17
4584.55546 2.43071e-17
4586.02570 2.50364e-17
4587.49594 2.18561e-17
4588.96618 2.21484e-17
4590.43642 2.25561e-17
4591.90666 2.15265e-17
4593.37690 2.02010e-17
4594.84714 2.07459e-17
4596.31738 2.53316e-17
4597.78762 2.29049e-17
4599.25786 2.17986e-17
4600.72810 2.34189e-17
4602.19834 2.21915e-17
4603.66858 2.25227e-17
4605.13882 2.26005e-17
4606.60906 2.43465e-17
4608.07930 2.34025e-17
4609.54954 2.24799e-17
4611.01978 2.34383e-17
4612.49002 2.46530e-17
4613.96026 2.24003e-17
4615.43050 2.48313e-17
4616.90074 2.50822e-17
4618.37098 2.46621e-17
4619.84122 2.55729e-17
4621.31146 2.24113e-17
4622.78170 2.32871e-17
4624.25194 2.37242e-17
4625.72218 2.53552e-17
4627.19242 2.43442e-17
4628.66266 2.14610e-17
4630.13290 2.45068e-17
4631.60314 2.68129e-17
4633.07338 2.52811e-17
4634.54362 2.42128e-17
4636.01386 2.48004e-17
4637.48410 2.30359e-17
4638.95434 2.35974e-17
4640.42458 2.28358e-17
4641.89482 2.36322e-17
4643.35485 2.63355e-17
4644.82509 2.51030e-17
4646.29533 2.04136e-17
4647.76557 2.22996e-17
4649.23581 2.31567e-17
4650.70605 1.94047e-17
4652.17629 2.21446e-17
4653.64653 2.41487e-17
4655.11677 2.42093e-17
4656.58701 2.27916e-17
4658.05725 2.29164e-17
4659.52749 2.42709e-17
4660.99773 2.35582e-17
4662.46797 2.36252e-17
4663.93821 2.24426e-17
4665.40845 2.16235e-17
4666.87869 2.37577e-17
4668.34893 2.15994e-17
4669.81917 2.25440e-17
4671.28941 2.28161e-17
4672.75965 2.22394e-17
4674.22989 2.31497e-17
4675.70013 2.36660e-17
4677.17037 2.23337e-17
4678.64061 2.35258e-17
4680.11085 2.19124e-17
4681.58109 2.26425e-17
4683.05133 2.40416e-17
4684.52157 2.45194e-17
4685.99181 2.39687e-17
4687.46205 2.53316e-17
4688.93229 2.56823e-17
4690.40253 2.21167e-17
4691.87277 2.22642e-17
4693.34301 2.49530e-17
4694.81325 2.57266e-17
4696.28349 2.49783e-17
4697.75373 2.33372e-17
4699.22397 2.19987e-17
4700.69421 2.26974e-17
4702.16445 2.18123e-17
4703.63469 2.04177e-17
4705.10493 2.13654e-17
4706.56496 2.30515e-17
4708.03520 2.41181e-17
4709.50544 2.46258e-17
4710.97568 2.36731e-17
4712.44592 2.36482e-17
4713.91616 2.30515e-17
4715.38640 2.33686e-17
4716.85664 2.34986e-17
4718.32688 2.23665e-17
4719.79712 2.14953e-17
4721.26736 2.00717e-17
4722.73760 2.14881e-17
4724.20784 2.33390e-17
4725.67808 2.39618e-17
4727.14832 2.29181e-17
4728.61856 2.22722e-17
4730.08880 2.30714e-17
4731.55904 2.33181e-17
4733.02928 2.11415e-17
4734.49952 1.98185e-17
4735.96976 2.17292e-17
4737.44000 2.25052e-17
4738.91024 2.34092e-17
4740.38048 2.46054e-17
4741.85072 2.10816e-17
4743.32096 1.91175e-17
4744.79120 2.16962e-17
4746.26144 2.23237e-17
4747.73168 2.20087e-17
4749.20192 2.17946e-17
4750.67216 2.13495e-17
4752.14240 2.35965e-17
4753.61264 2.27939e-17
4755.08288 2.02266e-17
4756.55312 2.01807e-17
4758.02336 2.22582e-17
4759.49360 2.05552e-17
4760.96384 2.00805e-17
4762.43408 2.33747e-17
4763.90432 2.22054e-17
4765.37456 2.10669e-17
4766.83459 2.04284e-17
4768.30483 2.11517e-17
4769.77507 2.01393e-17
4771.24531 1.98403e-17
4772.71555 2.11397e-17
4774.18579 2.02120e-17
4775.65603 1.96412e-17
4777.12627 1.98528e-17
4778.59651 1.90267e-17
4780.06675 1.77743e-17
4781.53699 1.82307e-17
4783.00723 1.90031e-17
4784.47747 1.88176e-17
4785.94771 1.92953e-17
4787.41795 1.78014e-17
4788.88819 1.90035e-17
4790.35843 2.09929e-17
4791.82867 1.93398e-17
4793.29891 1.71673e-17
4794.76915 1.59385e-17
4796.23939 1.74286e-17
4797.70963 1.89987e-17
4799.17987 1.88570e-17
4800.65011 1.67339e-17
4802.12035 1.63751e-17
4803.59059 1.71897e-17
4805.06083 1.50908e-17
4806.53107 1.46317e-17
4808.00131 1.58005e-17
4809.47155 1.64988e-17
4810.94179 1.74583e-17
4812.41203 1.61518e-17
4813.88227 1.49576e-17
4815.35251 1.58652e-17
4816.82275 1.57458e-17
4818.29299 1.62434e-17
4819.76323 1.54583e-17
4821.23347 1.40462e-17
4822.70371 1.68556e-17
4824.17395 1.78952e-17
4825.64419 1.57764e-17
4827.11443 1.57534e-17
4828.58467 1.44998e-17
4830.05491 1.24232e-17
4831.52515 1.34007e-17
4832.98518 1.31937e-17
4834.45542 1.25434e-17
4835.92566 1.38209e-17
4837.39590 1.49821e-17
4838.86614 1.59219e-17
4840.33638 1.46041e-17
4841.80662 1.26176e-17
4843.27686 1.26549e-17
4844.74710 1.35121e-17
4846.21734 1.35796e-17
4847.68758 1.30941e-17
4849.15782 1.32831e-17
4850.62806 1.39942e-17
4852.09830 1.50666e-17
4853.56854 1.31900e-17
4855.03878 1.07205e-17
4856.50902 1.27939e-17
4857.97926 1.57550e-17
4859.44950 1.57307e-17
4860.91974 1.55999e-17
4862.38998 1.48605e-17
4863.86022 1.40467e-17
4865.33046 1.34737e-17
4866.80070 1.40208e-17
4868.27094 1.53418e-17
4869.74118 1.41579e-17
4871.21142 1.32959e-17
4872.68166 1.41440e-17
4874.15190 1.45562e-17
4875.62214 1.40158e-17
4877.09238 1.32533e-17
4878.56262 1.17707e-17
4880.03286 1.28683e-17
4881.50310 1.44418e-17
4882.97334 1.33719e-17
4884.44358 1.38080e-17
4885.91382 1.29106e-17
4887.38406 1.08086e-17
4888.85430 1.25211e-17
4890.32454 1.30190e-17
4891.79478 1.19505e-17
4893.25481 1.24083e-17
4894.72505 1.36063e-17
4896.19529 1.38122e-17
4897.66553 1.24649e-17
4899.13577 1.36315e-17
4900.60601 1.31293e-17
4902.07625 1.23282e-17
4903.54649 1.41892e-17
4905.01673 1.40182e-17
4906.48697 1.28453e-17
4907.95721 1.25971e-17
4909.42745 1.34998e-17
4910.89769 1.31313e-17
4912.36793 1.24799e-17
4913.83817 1.30865e-17
4915.30841 1.24526e-17
4916.77865 1.18981e-17
4918.24889 1.41449e-17
4919.71913 1.52199e-17
4921.18937 1.30201e-17
4922.65961 1.23938e-17
4924.12985 1.27977e-17
4925.60009 1.29488e-17
4927.07033 1.20498e-17
4928.54057 1.01051e-17
4930.01081 1.08031e-17
4931.48105 1.29723e-17
4932.95129 1.18516e-17
4934.42153 1.03274e-17
4935.89177 1.12178e-17
4937.36201 1.15212e-17
4938.83225 1.13734e-17
4940.30249 1.24675e-17
4941.77273 1.40129e-17
4943.24297 1.45697e-17
4944.71321 1.55473e-17
4946.18345 1.40198e-17
4947.65369 1.33024e-17
4949.12393 1.41169e-17
4950.59417 1.30197e-17
4952.06441 1.39387e-17
4953.53465 1.51958e-17
4954.99468 1.46530e-17
4956.46492 1.48942e-17
4957.93516 1.49314e-17
4959.40540 1.40021e-17
4960.87564 1.37430e-17
4962.34588 1.31906e-17
4963.81612 1.31056e-17
4965.28636 1.55952e-17
4966.75660 1.58404e-17
4968.22684 1.29580e-17
4969.69708 1.22586e-17
4971.16732 1.26171e-17
4972.63756 1.37493e-17
4974.10780 1.47257e-17
4975.57804 1.60859e-17
4977.04828 1.60596e-17
4978.51852 1.51864e-17
4979.98876 1.56835e-17
4981.45900 1.63228e-17
4982.92924 1.73680e-17
4984.39948 1.62241e-17
4985.86972 1.50027e-17
4987.33996 1.57065e-17
4988.81020 1.59627e-17
4990.28044 1.48311e-17
4991.75068 1.42223e-17
4993.22092 1.59006e-17
4994.69116 1.62517e-17
4996.16140 1.54464e-17
4997.63164 1.58624e-17
4999.10188 1.55095e-17
5000.57212 1.56474e-17
5002.04236 1.42109e-17
5003.51260 1.42814e-17
5004.98284 1.73902e-17
5006.45308 1.76712e-17
5007.92332 1.65854e-17
5009.39356 1.65436e-17
5010.86380 1.69242e-17
5012.33404 1.65898e-17
5013.80428 1.44570e-17
5015.27452 1.33175e-17
5016.74476 1.49937e-17
5018.21500 1.60160e-17
5019.68524 1.48679e-17
5021.14527 1.51232e-17
5022.61551 1.46735e-17
5024.08575 1.41862e-17
5025.55599 1.44116e-17
5027.02623 1.39796e-17
5028.49647 1.40121e-17
5029.96671 1.39952e-17
5031.43695 1.40763e-17
5032.90719 1.30763e-17
5034.37743 1.28281e-17
5035.84767 1.36644e-17
5037.31791 1.35699e-17
5038.78815 1.39716e-17
5040.25839 1.35737e-17
5041.72863 1.28368e-17
5043.19887 1.32861e-17
5044.66911 1.28723e-17
5046.13935 1.19397e-17
5047.60959 1.22142e-17
5049.07983 1.17610e-17
5050.55007 1.22464e-17
5052.02031 1.21291e-17
5053.49055 1.18521e-17
5054.96079 1.33434e-17
5056.43103 1.30688e-17
5057.90127 1.13718e-17
5059.37151 1.11670e-17
5060.84175 1.32013e-17
5062.31199 1.35757e-17
5063.78223 1.32199e-17
5065.25247 1.25387e-17
5066.72271 1.17228e-17
5068.19295 1.14550e-17
5069.66319 1.22636e-17
5071.13343 1.30462e-17
5072.60367 1.30044e-17
5074.07391 1.18501e-17
5075.54415 1.22068e-17
5077.01439 1.19484e-17
5078.48463 1.24132e-17
5079.95487 1.31760e-17
5081.41490 1.22773e-17
5082.88514 1.27500e-17
5084.35538 1.35800e-17
5085.82562 1.38149e-17
5087.29586 1.39321e-17
5088.76610 1.22530e-17
5090.23634 1.09227e-17
5091.70658 1.22882e-17
5093.17682 1.41724e-17
5094.64706 1.36436e-17
5096.11730 1.36364e-17
5097.58754 1.34744e-17
5099.05778 1.37337e-17
5100.52802 1.31970e-17
5101.99826 1.30506e-17
5103.46850 1.42784e-17
5104.93874 1.41198e-17
5106.40898 1.21649e-17
5107.87922 1.23811e-17
5109.34946 1.38253e-17
5110.81970 1.36003e-17
5112.28994 1.19023e-17
5113.76018 1.26726e-17
5115.23042 1.33962e-17
5116.70066 1.38270e-17
5118.17090 1.45062e-17
5119.64114 1.58640e-17
5121.11138 1.48019e-17
5122.58162 1.47732e-17
5124.05186 1.46718e-17
5125.52210 1.40111e-17
5126.99234 1.34603e-17
5128.46258 1.15364e-17
5129.93282 1.23215e-17
5131.40306 1.33583e-17
5132.87330 1.43338e-17
5134.34354 1.46843e-17
5135.81378 1.42571e-17
5137.28402 1.50019e-17
5138.75426 1.52450e-17
5140.22450 1.50492e-17
5141.69474 1.50731e-17
5143.16498 1.46366e-17
5144.62501 1.48287e-17
5146.09525 1.43814e-17
5147.56549 1.46973e-17
5149.03573 1.42352e-17
5150.50597 1.51517e-17
5151.97621 1.58391e-17
5153.44645 1.48913e-17
5154.91669 1.46303e-17
5156.38693 1.54117e-17
5157.85717 1.56862e-17
5159.32741 1.52810e-17
5160.79765 1.58683e-17
5162.26789 1.38330e-17
5163.73813 1.32884e-17
5165.20837 1.33699e-17
5166.67861 1.46995e-17
5168.14885 1.58826e-17
5169.61909 1.54652e-17
5171.08933 1.52124e-17
5172.55957 1.59809e-17
5174.02981 1.51738e-17
5175.50005 1.48039e-17
5176.97029 1.53189e-17
5178.44053 1.63756e-17
5179.91077 1.59421e-17
5181.38101 1.36444e-17
5182.85125 1.37863e-17
5184.32149 1.43665e-17
5185.79173 1.32867e-17
5187.26197 1.40268e-17
5188.73221 1.58966e-17
5190.20245 1.57054e-17
5191.67269 1.56827e-17
5193.14293 1.52184e-17
5194.61317 1.41307e-17
5196.08341 1.39665e-17
5197.55365 1.44881e-17
5199.02389 1.57385e-17
5200.49413 1.52475e-17
5201.96437 1.42537e-17
5203.43461 1.62214e-17
5204.90485 1.53163e-17
5206.37509 1.49657e-17
5207.83512 1.64094e-17
5209.30536 1.71660e-17
5210.77560 1.61041e-17
5212.24584 1.56386e-17
5213.71608 1.55169e-17
5215.18632 1.40513e-17
5216.65656 1.48368e-17
5218.12680 1.53689e-17
5219.59704 1.46171e-17
5221.06728 1.65375e-17
5222.53752 1.74419e-17
5224.00776 1.68569e-17
5225.47800 1.66115e-17
5226.94824 1.70815e-17
5228.41848 1.61597e-17
5229.88872 1.58723e-17
5231.35896 1.59151e-17
5232.82920 1.60072e-17
5234.29944 1.44549e-17
5235.76968 1.52952e-17
5237.23992 1.76386e-17
5238.71016 1.60472e-17
5240.18040 1.38045e-17
5241.65064 1.47785e-17
5243.12088 1.65244e-17
5244.59112 1.61493e-17
5246.06136 1.61547e-17
5247.53160 1.73113e-17
5249.00184 1.75243e-17
5250.47208 1.69128e-17
5251.94232 1.74619e-17
5253.41256 1.74806e-17
5254.88280 1.59011e-17
5256.35304 1.52166e-17
5257.82328 1.73119e-17
5259.29352 1.82221e-17
5260.76376 1.86965e-17
5262.23400 1.81271e-17
5263.70424 1.81225e-17
5265.17448 1.75837e-17
5266.64472 1.65703e-17
5268.10475 1.76086e-17
5269.57499 1.87981e-17
5271.04523 1.87807e-17
5272.51547 1.80792e-17
5273.98571 1.80000e-17
5275.45595 1.66018e-17
5276.92619 1.69830e-17
5278.39643 1.86427e-17
5279.86667 1.87305e-17
5281.33691 1.87084e-17
5282.80715 1.81011e-17
5284.27739 1.71205e-17
5285.74763 1.66721e-17
5287.21787 1.77138e-17
5288.68811 1.86579e-17
5290.15835 1.68175e-17
5291.62859 1.77883e-17
5293.09883 1.90795e-17
5294.56907 1.89167e-17
5296.03931 1.81325e-17
5297.50955 1.75630e-17
5298.97979 1.73854e-17
5300.45003 1.85965e-17
5301.92027 2.14204e-17
5303.39051 2.06261e-17
5304.86075 1.90394e-17
5306.33099 1.90410e-17
5307.80123 1.83659e-17
5309.27147 1.81869e-17
5310.74171 1.80750e-17
5312.21195 1.82731e-17
5313.68219 1.84168e-17
5315.15243 1.93917e-17
5316.62267 1.89722e-17
5318.09291 1.82704e-17
5319.56315 1.88159e-17
5321.03339 1.86797e-17
5322.50363 1.96034e-17
5323.97387 1.95788e-17
5325.44411 1.77506e-17
5326.91435 1.73272e-17
5328.38459 1.84059e-17
5329.85483 1.96314e-17
5331.31486 1.90032e-17
5332.78510 1.74679e-17
5334.25534 1.86074e-17
5335.72558 2.06366e-17
5337.19582 1.93673e-17
5338.66606 1.88950e-17
5340.13630 1.93737e-17
5341.60654 1.88456e-17
5343.07678 1.83247e-17
5344.54702 1.78410e-17
5346.01726 1.73311e-17
5347.48750 1.86240e-17
5348.95774 1.96748e-17
5350.42798 1.92228e-17
5351.89822 1.80231e-17
5353.36846 1.81086e-17
5354.83870 1.81627e-17
5356.30894 1.75175e-17
5357.77918 1.85135e-17
5359.24942 1.95631e-17
5360.71966 1.88198e-17
5362.18990 1.74252e-17
5363.66014 1.65951e-17
5365.13038 1.71001e-17
5366.60062 1.80586e-17
5368.07086 1.82003e-17
5369.54110 1.94538e-17
5371.01134 2.01657e-17
5372.48158 1.75164e-17
5373.95182 1.69747e-17
5375.42206 1.93575e-17
5376.89230 1.96617e-17
5378.36254 1.89037e-17
5379.83278 1.98523e-17
5381.30302 1.96638e-17
5382.77326 1.84131e-17
5384.24350 1.77922e-17
5385.71374 1.74942e-17
5387.18398 1.79178e-17
5388.65422 1.94189e-17
5390.12446 2.00019e-17
5391.59470 1.82928e-17
5393.06494 1.82074e-17
5394.52497 1.89350e-17
5395.99521 1.76990e-17
5397.46545 1.77303e-17
5398.93569 1.81741e-17
5400.40593 1.81468e-17
5401.87617 1.82477e-17
5403.34641 1.79271e-17
5404.81665 1.85272e-17
5406.28689 1.86915e-17
5407.75713 1.78369e-17
5409.22737 1.84693e-17
5410.69761 1.87439e-17
5412.16785 1.74014e-17
5413.63809 1.82552e-17
5415.10833 1.94001e-17
5416.57857 1.82562e-17
5418.04881 1.71602e-17
5419.51905 1.73030e-17
5420.98929 1.76925e-17
5422.45953 1.69914e-17
5423.92977 1.63778e-17
5425.40001 1.66273e-17
5426.87025 1.67979e-17
5428.34049 1.67082e-17
5429.81073 1.75375e-17
5431.28097 1.90643e-17
5432.75121 1.89211e-17
5434.22145 1.75881e-17
5435.69169 1.71345e-17
5437.16193 1.69077e-17
5438.63217 1.70901e-17
5440.10241 1.71129e-17
5441.57265 1.67302e-17
5443.04289 1.67244e-17
5444.51313 1.69497e-17
5445.98337 1.78689e-17
5447.45361 1.75576e-17
5448.92385 1.71431e-17
5450.39409 1.81865e-17
5451.86433 1.89733e-17
5453.33457 1.85450e-17
5454.79460 1.70050e-17
5456.26484 1.60760e-17
5457.73508 1.75533e-17
5459.20532 1.91091e-17
5460.67556 1.77555e-17
5462.14580 1.64936e-17
5463.61604 1.59696e-17
5465.08628 1.70432e-17
5466.55652 1.89041e-17
5468.02676 1.79479e-17
5469.49700 1.70422e-17
5470.96724 1.72747e-17
5472.43748 1.77066e-17
5473.90772 1.77017e-17
5475.37796 1.73903e-17
5476.84820 1.71998e-17
5478.31844 1.69875e-17
5479.78868 1.65977e-17
5481.25892 1.62793e-17
5482.72916 1.63347e-17
5484.19940 1.70200e-17
5485.66964 1.92385e-17
5487.13988 1.78811e-17
5488.61012 1.58028e-17
5490.08036 1.66578e-17
5491.55060 1.72453e-17
5493.02084 1.67507e-17
5494.49108 1.52700e-17
5495.96132 1.48370e-17
5497.43156 1.52606e-17
5498.90180 1.62846e-17
5500.37204 1.64446e-17
5501.84228 1.56986e-17
5503.31252 1.63409e-17
5504.78276 1.70172e-17
5506.25300 1.65134e-17
5507.72324 1.63857e-17
5509.19348 1.70061e-17
5510.66372 1.71416e-17
5512.13396 1.71907e-17
5513.60420 1.63936e-17
5515.07444 1.69131e-17
5516.54468 1.65245e-17
5518.00471 1.66019e-17
5519.47495 1.73267e-17
5520.94519 1.73318e-17
5522.41543 1.79293e-17
5523.88567 1.75083e-17
5525.35591 1.59464e-17
5526.82615 1.49524e-17
5528.29639 1.59346e-17
5529.76663 1.63546e-17
5531.23687 1.69928e-17
5532.70711 1.71113e-17
5534.17735 1.65149e-17
5535.64759 1.50792e-17
5537.11783 1.38637e-17
5538.58807 1.49160e-17
5540.05831 1.51191e-17
5541.52855 1.52815e-17
5542.99879 1.66792e-17
5544.46903 1.63553e-17
5545.93927 1.58485e-17
5547.40951 1.64590e-17
5548.87975 1.68753e-17
5550.34999 1.63730e-17
5551.82023 1.57553e-17
5553.29047 1.49113e-17
5554.76071 1.61187e-17
5556.23095 1.77013e-17
5557.70119 1.73259e-17
5559.17143 1.70520e-17
5560.64167 1.61090e-17
5562.11191 1.49609e-17
5563.58215 1.59681e-17
5565.05239 1.53084e-17
5566.52263 1.49513e-17
5567.99287 1.57540e-17
5569.46311 1.57386e-17
5570.93335 1.62120e-17
5572.40359 1.67081e-17
5573.87383 1.55393e-17
5575.34407 1.70430e-17
5576.81431 1.89827e-17
5578.28455 1.83389e-17
5579.75479 2.01770e-17
5581.22503 2.07700e-17
5582.68506 1.79137e-17
5584.15530 1.57645e-17
5585.62554 1.41817e-17
5587.09578 1.40778e-17
5588.56602 1.38638e-17
5590.03626 1.40289e-17
5591.50650 1.46975e-17
5592.97674 1.49156e-17
5594.44698 1.44057e-17
5595.91722 1.48022e-17
5597.38746 1.40913e-17
5598.85770 1.33745e-17
5600.32794 1.43442e-17
5601.79818 1.53651e-17
5603.26842 1.46488e-17
5604.73866 1.34077e-17
5606.20890 1.36590e-17
5607.67914 1.42233e-17
5609.14938 1.58697e-17
5610.61962 1.56425e-17
5612.08986 1.44142e-17
5613.56010 1.31851e-17
5615.03034 1.39411e-17
5616.50058 1.42640e-17
5617.97082 1.39045e-17
5619.44106 1.32675e-17
5620.91130 1.26556e-17
5622.38154 1.25038e-17
5623.85178 1.15772e-17
5625.32202 1.15811e-17
5626.79226 1.32430e-17
5628.26250 1.33178e-17
5629.73274 1.10076e-17
5631.20298 1.19312e-17
5632.67322 1.31924e-17
5634.14346 1.30565e-17
5635.61370 1.26031e-17
5637.08394 1.24241e-17
5638.55418 1.25027e-17
5640.02442 1.27107e-17
5641.49466 1.40707e-17
5642.96490 1.39946e-17
5644.42493 1.20202e-17
5645.89517 1.20300e-17
5647.36541 1.41061e-17
5648.83565 1.50917e-17
5650.30589 1.41916e-17
5651.77613 1.29339e-17
5653.24637 1.09572e-17
5654.71661 1.14387e-17
5656.18685 1.27049e-17
5657.65709 1.32604e-17
5659.12733 1.35303e-17
5660.59757 1.31568e-17
5662.06781 1.20864e-17
5663.53805 1.25210e-17
5665.00829 1.20028e-17
5666.47853 1.13318e-17
5667.94877 1.26296e-17
5669.41901 1.20373e-17
5670.88925 1.05584e-17
5672.35949 1.16329e-17
5673.82973 1.31253e-17
5675.29997 1.37275e-17
5676.77021 1.45483e-17
5678.24045 1.40011e-17
5679.71069 1.27689e-17
5681.18093 1.29362e-17
5682.65117 1.22322e-17
5684.12141 1.09807e-17
5685.59165 1.20520e-17
5687.06189 1.30319e-17
5688.53213 1.21351e-17
5690.00237 1.08098e-17
5691.47261 9.47524e-18
5692.94285 1.06803e-17
5694.41309 1.20434e-17
5695.88333 1.12497e-17
5697.35357 1.19326e-17
5698.82381 1.31358e-17
5700.29405 1.23069e-17
5701.76429 1.12507e-17
5703.23453 1.09068e-17
5704.70477 1.18735e-17
5706.16480 1.34969e-17
5707.63504 1.24058e-17
5709.10528 1.07800e-17
5710.57552 1.00321e-17
5712.04576 1.06918e-17
5713.51600 1.15584e-17
5714.98624 9.99943e-18
5716.45648 1.01574e-17
5717.92672 1.17568e-17
5719.39696 1.08112e-17
5720.86720 1.07042e-17
5722.33744 1.11761e-17
5723.80768 1.03887e-17
5725.27792 1.06439e-17
5726.74816 1.12505e-17
5728.21840 1.00978e-17
5729.68864 9.76261e-18
5731.15888 1.01724e-17
5732.62912 1.02884e-17
5734.09936 1.05712e-17
5735.56960 1.11266e-17
5737.03984 1.09566e-17
5738.51008 1.00309e-17
5739.98032 9.03214e-18
5741.45056 1.03289e-17
5742.92080 1.06026e-17
5744.39104 9.47046e-18
5745.86128 9.81238e-18
5747.33152 9.57376e-18
5748.80176 1.01721e-17
5750.27200 1.00566e-17
5751.74224 9.06679e-18
5753.21248 1.06491e-17
5754.68272 1.13376e-17
5756.15296 1.11276e-17
5757.62320 1.15373e-17
5759.09344 1.15139e-17
5760.56368 9.78572e-18
5762.03392 8.40980e-18
5763.50416 9.65837e-18
5764.97440 9.90617e-18
5766.44464 8.36984e-18
5767.91488 9.14938e-18
5769.37491 1.12309e-17
5770.84515 1.07437e-17
5772.31539 1.02694e-17
5773.78563 1.05839e-17
5775.25587 9.26586e-18
5776.72611 8.88386e-18
5778.19635 8.33764e-18
5779.66659 9.51155e-18
5781.13683 1.03385e-17
5782.60707 1.00449e-17
5784.07731 1.01946e-17
5785.54755 1.04039e-17
5787.01779 1.03987e-17
5788.48803 1.11974e-17
5789.95827 9.67791e-18
5791.42851 9.30921e-18
5792.89875 1.16693e-17
5794.36899 1.21309e-17
5795.83923 1.04923e-17
5797.30947 9.99387e-18
5798.77971 1.11146e-17
5800.24995 9.39056e-18
5801.72019 9.55402e-18
5803.19043 1.04132e-17
5804.66067 1.06329e-17
5806.13091 1.12587e-17
5807.60115 1.22227e-17
5809.07139 1.02335e-17
5810.54163 9.68930e-18
5812.01187 1.14668e-17
5813.48211 1.00443e-17
5814.95235 9.64301e-18
5816.42259 9.87711e-18
5817.89283 1.10305e-17
5819.36307 1.16786e-17
5820.83331 1.22798e-17
5822.30355 1.18436e-17
5823.77379 1.18165e-17
5825.24403 1.21634e-17
5826.71427 1.14775e-17
5828.18451 1.06823e-17
5829.65475 1.15254e-17
5831.12499 1.17342e-17
5832.58502 1.04798e-17
5834.05526 1.18386e-17
5835.52550 1.21111e-17
5836.99574 1.12611e-17
5838.46598 1.07459e-17
5839.93622 1.03370e-17
5841.40646 1.04669e-17
5842.87670 1.24083e-17
5844.34694 1.31788e-17
5845.81718 1.19525e-17
5847.28742 1.19413e-17
5848.75766 1.22126e-17
5850.22790 1.23163e-17
5851.69814 1.27851e-17
5853.16838 1.23012e-17
5854.63862 1.18754e-17
5856.10886 1.22730e-17
5857.57910 1.16729e-17
5859.04934 1.27337e-17
5860.51958 1.26745e-17
5861.98982 1.21630e-17
5863.46006 1.21233e-17
5864.93030 1.21879e-17
5866.40054 1.14935e-17
5867.87078 1.29038e-17
5869.34102 1.37093e-17
5870.81126 1.18839e-17
5872.28150 1.05000e-17
5873.75174 1.20582e-17
5875.22198 1.30651e-17
5876.69222 1.19144e-17
5878.16246 1.27865e-17
5879.63270 1.22315e-17
5881.10294 1.26762e-17
5882.57318 1.32819e-17
5884.04342 1.31010e-17
5885.51366 1.32874e-17
5886.98390 1.33142e-17
5888.45414 1.20974e-17
5889.92438 1.26799e-17
5891.39462 1.16250e-17
5892.85465 1.07901e-17
5894.32489 1.17303e-17
5895.79513 1.16489e-17
5897.26537 1.12149e-17
5898.73561 1.12777e-17
5900.20585 1.18892e-17
5901.67609 1.28445e-17
5903.14633 1.39699e-17
5904.61657 1.35920e-17
5906.08681 1.44082e-17
5907.55705 1.60124e-17
5909.02729 1.39638e-17
5910.49753 1.29301e-17
5911.96777 1.22897e-17
5913.43801 1.20282e-17
5914.90825 1.34446e-17
5916.37849 1.33796e-17
5917.84873 1.32262e-17
5919.31897 1.38736e-17
5920.78921 1.38810e-17
5922.25945 1.34248e-17
5923.72969 1.40913e-17
5925.19993 1.55239e-17
5926.67017 1.59796e-17
5928.14041 1.53854e-17
5929.61065 1.59111e-17
5931.08089 1.60587e-17
5932.55113 1.53335e-17
5934.02137 1.44237e-17
5935.49161 1.32177e-17
5936.96185 1.37533e-17
5938.43209 1.47300e-17
5939.90233 1.35338e-17
5941.37257 1.36688e-17
5942.84281 1.58794e-17
5944.31305 1.48267e-17
5945.78329 1.31856e-17
5947.25353 1.44259e-17
5948.72377 1.59706e-17
5950.19401 1.55738e-17
5951.66425 1.50253e-17
5953.13449 1.54447e-17
5954.60473 1.64410e-17
5956.06476 1.58061e-17
5957.53500 1.45006e-17
5959.00524 1.44612e-17
5960.47548 1.40709e-17
5961.94572 1.54882e-17
5963.41596 1.52544e-17
5964.88620 1.51841e-17
5966.35644 1.50269e-17
5967.82668 1.64271e-17
5969.29692 1.69216e-17
5970.76716 1.48258e-17
5972.23740 1.55572e-17
5973.70764 1.50205e-17
5975.17788 1.51658e-17
5976.64812 1.44273e-17
5978.11836 1.36468e-17
5979.58860 1.56695e-17
5981.05884 1.57386e-17
5982.52908 1.42166e-17
5983.99932 1.58992e-17
5985.46956 1.65253e-17
5986.93980 1.63207e-17
5988.41004 1.55639e-17
5989.88028 1.66044e-17
5991.35052 1.50406e-17
5992.82076 1.50381e-17
5994.29100 1.45961e-17
5995.76124 1.53867e-17
5997.23148 1.71200e-17
5998.70172 1.80212e-17
6000.17196 1.62012e-17
6001.64220 1.59907e-17
6003.11244 1.63599e-17
6004.58268 1.59150e-17
6006.05292 1.47977e-17
6007.52316 1.54797e-17
6008.99340 1.55114e-17
6010.46364 1.60433e-17
6011.93388 1.37920e-17
6013.40412 1.31508e-17
6014.87436 1.30237e-17
6016.34460 1.41878e-17
6017.81484 1.31773e-17
6019.27487 1.44038e-17
6020.74511 1.51685e-17
6022.21535 1.33683e-17
6023.68559 1.30060e-17
6025.15583 1.40191e-17
6026.62607 1.34197e-17
6028.09631 1.36442e-17
6029.56655 1.41428e-17
6031.03679 1.47788e-17
6032.50703 1.56839e-17
6033.97727 1.54564e-17
6035.44751 1.42115e-17
6036.91775 1.38664e-17
6038.38799 1.50029e-17
6039.85823 1.43189e-17
6041.32847 1.43091e-17
6042.79871 1.47513e-17
6044.26895 1.39796e-17
6045.73919 1.40613e-17
6047.20943 1.43938e-17
6048.67967 1.46056e-17
6050.14991 1.42045e-17
6051.62015 1.46007e-17
6053.09039 1.40768e-17
6054.56063 1.43744e-17
6056.03087 1.28326e-17
6057.50111 1.18594e-17
6058.97135 1.47179e-17
6060.44159 1.56889e-17
6061.91183 1.29968e-17
6063.38207 1.38759e-17
6064.85231 1.41759e-17
6066.32255 1.17214e-17
6067.79279 1.26937e-17
6069.26303 1.32792e-17
6070.73327 1.34518e-17
6072.20351 1.44547e-17
6073.67375 1.40463e-17
6075.14399 1.44995e-17
6076.61423 1.49302e-17
6078.08447 1.44798e-17
6079.54450 1.41086e-17
6081.01474 1.46268e-17
6082.48498 1.41992e-17
6083.95522 1.33706e-17
6085.42546 1.40924e-17
6086.89570 1.35441e-17
6088.36594 1.28652e-17
6089.83618 1.34008e-17
6091.30642 1.33232e-17
6092.77666 1.34073e-17
6094.24690 1.47841e-17
6095.71714 1.39801e-17
6097.18738 1.30930e-17
6098.65762 1.33616e-17
6100.12786 1.38556e-17
6101.59810 1.42349e-17
6103.06834 1.39127e-17
6104.53858 1.39522e-17
6106.00882 1.26110e-17
6107.47906 1.37743e-17
6108.94930 1.49514e-17
6110.41954 1.43478e-17
6111.88978 1.35231e-17
6113.36002 1.31164e-17
6114.83026 1.44602e-17
6116.30050 1.40395e-17
6117.77074 1.26107e-17
6119.24098 1.23666e-17
6120.71122 1.34324e-17
6122.18146 1.32915e-17
6123.65170 1.38475e-17
6125.12194 1.45401e-17
6126.59218 1.22374e-17
6128.06242 1.28114e-17
6129.53266 1.44173e-17
6131.00290 1.41342e-17
6132.47314 1.38476e-17
6133.94338 1.32713e-17
6135.41362 1.25605e-17
6136.88386 1.19302e-17
6138.35410 1.25113e-17
6139.82434 1.35073e-17
6141.29458 1.35581e-17
6142.76482 1.21204e-17
6144.22485 1.06732e-17
6145.69509 1.25534e-17
6147.16533 1.39285e-17
6148.63557 1.31030e-17
6150.10581 1.44441e-17
6151.57605 1.41515e-17
6153.04629 1.31652e-17
6154.51653 1.30167e-17
6155.98677 1.14075e-17
6157.45701 1.21234e-17
6158.92725 1.55303e-17
6160.39749 1.40073e-17
6161.86773 1.22574e-17
6163.33797 1.24745e-17
6164.80821 1.19387e-17
6166.27845 1.33079e-17
6167.74869 1.36168e-17
6169.21893 1.31141e-17
6170.68917 1.31867e-17
6172.15941 1.33429e-17
6173.62965 1.19353e-17
6175.09989 1.09529e-17
6176.57013 1.26461e-17
6178.04037 1.12663e-17
6179.51061 1.22197e-17
6180.98085 1.46857e-17
6182.45109 1.42940e-17
6183.92133 1.35177e-17
6185.39157 1.34148e-17
6186.86181 1.22048e-17
6188.33205 1.19965e-17
6189.80229 1.17475e-17
6191.27253 1.14112e-17
6192.74277 1.13674e-17
6194.21301 1.24423e-17
6195.68325 1.24715e-17
6197.15349 1.20412e-17
6198.62373 1.14476e-17
6200.09397 1.04664e-17
6201.56421 1.11331e-17
6203.03445 1.29017e-17
6204.50469 1.25663e-17
6205.97493 1.23733e-17
6207.43496 1.15519e-17
6208.90520 1.08335e-17
6210.37544 1.08618e-17
6211.84568 1.15476e-17
6213.31592 1.31911e-17
6214.78616 1.21727e-17
6216.25640 1.19769e-17
6217.72664 1.28595e-17
6219.19688 1.23308e-17
6220.66712 1.28367e-17
6222.13736 1.14988e-17
6223.60760 1.01212e-17
6225.07784 1.05259e-17
6226.54808 1.08229e-17
6228.01832 1.18463e-17
6229.48856 1.11905e-17
6230.95880 1.16609e-17
6232.42904 1.18697e-17
6233.89928 1.16972e-17
6235.36952 1.22671e-17
6236.83976 1.10518e-17
6238.31000 1.16629e-17
6239.78024 1.07538e-17
6241.25048 9.96179e-18
6242.72072 1.10671e-17
6244.19096 1.04576e-17
6245.66120 1.12587e-17
6247.13144 1.01223e-17
6248.60168 1.02434e-17
6250.07192 9.39454e-18
6251.54216 9.82921e-18
6253.01240 9.78428e-18
6254.48264 1.05139e-17
6255.95288 9.90651e-18
6257.42312 1.09730e-17
6258.89336 9.74294e-18
6260.36360 9.79441e-18
6261.83384 1.07397e-17
6263.30408 1.00069e-17
6264.77432 9.26671e-18
6266.24456 1.01131e-17
6267.70459 9.39864e-18
6269.17483 8.07970e-18
6270.64507 8.12909e-18
6272.11531 8.08944e-18
6273.58555 8.61233e-18
6275.05579 8.08098e-18
6276.52603 6.76439e-18
6277.99627 8.66554e-18
6279.46651 9.54189e-18
6280.93675 9.28307e-18
6282.40699 8.73796e-18
6283.87723 9.01571e-18
6285.34747 7.42938e-18
6286.81771 9.68467e-18
6288.28795 9.54764e-18
6289.75819 9.81985e-18
6291.22843 9.31382e-18
6292.69867 8.59355e-18
6294.16891 9.26974e-18
6295.63915 9.46300e-18
6297.10939 9.78338e-18
6298.57963 1.03972e-17
6300.04987 9.77506e-18
6301.52011 9.21711e-18
6302.99035 1.04493e-17
6304.46059 1.06161e-17
6305.93083 9.01914e-18
6307.40107 9.26097e-18
6308.87131 8.27345e-18
6310.34155 8.19293e-18
6311.81179 8.32129e-18
6313.28203 9.11420e-18
6314.75227 1.06890e-17
6316.22251 1.06806e-17
6317.69275 1.01732e-17
6319.16299 9.06046e-18
6320.63323 9.67978e-18
6322.10347 9.01789e-18
6323.57371 9.38433e-18
6325.04395 1.00299e-17
6326.51419 9.29181e-18
6327.98443 1.02649e-17
6329.45467 9.64969e-18
6330.92491 9.21428e-18
6332.39515 9.06057e-18
6333.85518 8.70567e-18
6335.32542 8.55956e-18
6336.79566 9.64318e-18
6338.26590 1.07537e-17
6339.73614 9.77572e-18
6341.20638 1.05009e-17
6342.67662 1.00282e-17
6344.14686 9.03635e-18
6345.61710 9.36869e-18
6347.08734 8.40152e-18
6348.55758 1.01009e-17
6350.02782 1.01194e-17
6351.49806 9.53521e-18
6352.96830 1.03864e-17
6354.43854 9.89975e-18
6355.90878 1.04753e-17
6357.37902 1.05967e-17
6358.84926 1.08114e-17
6360.31950 9.80708e-18
6361.78974 1.03403e-17
6363.25998 1.10208e-17
6364.73022 1.07820e-17
6366.20046 8.83254e-18
6367.67070 9.05655e-18
6369.14094 9.83894e-18
6370.61118 9.49720e-18
6372.08142 1.04290e-17
6373.55166 9.65346e-18
6375.02190 9.64569e-18
6376.49214 9.84935e-18
6377.96238 1.04553e-17
6379.43262 9.17227e-18
6380.90286 1.09562e-17
6382.37310 1.20075e-17
6383.84334 1.11390e-17
6385.31358 9.35252e-18
6386.78382 1.04138e-17
6388.25406 1.06162e-17
6389.72430 1.02776e-17
6391.19454 9.43228e-18
6392.66478 1.12620e-17
6394.12481 1.21711e-17
6395.59505 1.12985e-17
6397.06529 1.00440e-17
6398.53553 9.73858e-18
6400.00577 1.03661e-17
6401.47601 1.02542e-17
6402.94625 9.85300e-18
6404.41649 9.54805e-18
6405.88673 1.00458e-17
6407.35697 9.71775e-18
6408.82721 1.11452e-17
6410.29745 1.06592e-17
6411.76769 9.55027e-18
6413.23793 1.00474e-17
6414.70817 1.05242e-17
6416.17841 1.11221e-17
6417.64865 1.11260e-17
6419.11889 1.13055e-17
6420.58913 1.05620e-17
6422.05937 1.08400e-17
6423.52961 1.02416e-17
6424.99985 1.13146e-17
6426.47009 1.02672e-17
6427.94033 9.53591e-18
6429.41057 1.06963e-17
6430.88081 9.54628e-18
6432.35105 9.74519e-18
6433.82129 1.09080e-17
6435.29153 1.10704e-17
6436.76177 1.17690e-17
6438.23201 9.97728e-18
6439.70225 1.00379e-17
6441.17249 1.00663e-17
6442.64273 9.98730e-18
6444.11297 1.04508e-17
6445.58321 1.07126e-17
6447.05345 1.16310e-17
6448.52369 1.15293e-17
6449.99393 9.19768e-18
6451.46417 1.07311e-17
6452.93441 9.70472e-18
6454.40465 9.97114e-18
6455.86468 1.03377e-17
6457.33492 1.05867e-17
6458.80516 1.07316e-17
6460.27540 1.05627e-17
6461.74564 9.83520e-18
6463.21588 9.81131e-18
6464.68612 1.03261e-17
6466.15636 1.13933e-17
6467.62660 1.20815e-17
6469.09684 1.17447e-17
6470.56708 1.10788e-17
6472.03732 1.09455e-17
6473.50756 1.08668e-17
6474.97780 9.16132e-18
6476.44804 9.62367e-18
6477.91828 9.93587e-18
6479.38852 1.02574e-17
6480.85876 1.10979e-17
6482.32900 1.20141e-17
6483.79924 9.95957e-18
6485.26948 9.89982e-18
6486.73972 9.67106e-18
6488.20996 1.11127e-17
6489.68020 1.12670e-17
6491.15044 1.02459e-17
6492.62068 9.81963e-18
6494.09092 1.03396e-17
6495.56116 1.21539e-17
6497.03140 1.10280e-17
6498.50164 1.05016e-17
6499.97188 1.13310e-17
6501.44212 1.19745e-17
6502.91236 1.11955e-17
6504.38260 9.31958e-18
6505.85284 9.69699e-18
6507.32308 9.89255e-18
6508.79332 1.01326e-17
6510.26356 9.83582e-18
6511.73380 8.90474e-18
6513.20404 1.04197e-17
6514.67428 1.15080e-17
6516.14452 1.15370e-17
6517.61476 1.07331e-17
6519.08500 9.66764e-18
6520.54503 1.07643e-17
6522.01527 1.08312e-17
6523.48551 9.70251e-18
6524.95575 1.01182e-17
6526.42599 1.03651e-17
6527.89623 9.91850e-18
6529.36647 9.57079e-18
6530.83671 1.14934e-17
6532.30695 1.21667e-17
6533.77719 1.01511e-17
6535.24743 1.12618e-17
6536.71767 1.11937e-17
6538.18791 9.29415e-18
6539.65815 1.04582e-17
6541.12839 9.57190e-18
6542.59863 8.23035e-18
6544.06887 9.00091e-18
6545.53911 8.43174e-18
6547.00935 7.49714e-18
6548.47959 6.97689e-18
6549.94983 9.00528e-18
6551.42007 1.08636e-17
6552.89031 9.85473e-18
6554.36055 8.59821e-18
6555.83079 1.00910e-17
6557.30103 8.89239e-18
6558.77127 8.12740e-18
6560.24151 8.26099e-18
6561.71175 8.19934e-18
6563.18199 9.90784e-18
6564.65223 9.27472e-18
6566.12247 9.49460e-18
6567.59271 9.11636e-18
6569.06295 9.79668e-18
6570.53319 1.02892e-17
6572.00343 9.17231e-18
6573.47367 9.16486e-18
6574.94391 8.45763e-18
6576.41415 8.99778e-18
6577.88439 8.73562e-18
6579.35463 8.59442e-18
6580.81466 8.28321e-18
6582.28490 9.27620e-18
6583.75514 9.05283e-18
6585.22538 8.93061e-18
6586.69562 8.44482e-18
6588.16586 8.19514e-18
6589.63610 8.97310e-18
6591.10634 9.02281e-18
6592.57658 9.22034e-18
6594.04682 1.02200e-17
6595.51706 9.19308e-18
6596.98730 9.01663e-18
6598.45754 1.07596e-17
6599.92778 1.05050e-17
6601.39802 1.01725e-17
6602.86826 9.66580e-18
6604.33850 8.69448e-18
6605.80874 8.98707e-18
6607.27898 8.26822e-18
6608.74922 8.85322e-18
6610.21946 8.49656e-18
6611.68970 7.75211e-18
6613.15994 9.41944e-18
6614.63018 1.05693e-17
6616.10042 9.21263e-18
6617.57066 9.83905e-18
6619.04090 8.19944e-18
6620.51114 8.93688e-18
6621.98138 9.13990e-18
6623.45162 9.32258e-18
6624.92186 1.04697e-17
6626.39210 9.10995e-18
6627.86234 9.32299e-18
6629.33258 9.39668e-18
6630.80282 8.91139e-18
6632.27306 8.27384e-18
6633.74330 8.02720e-18
6635.21354 8.82152e-18
6636.68378 9.56057e-18
6638.15402 9.20510e-18
6639.62426 1.01333e-17
6641.09450 1.02360e-17
6642.56474 1.04746e-17
6644.02477 1.02723e-17
6645.49501 9.32732e-18
6646.96525 9.38695e-18
6648.43549 8.31860e-18
6649.90573 1.02925e-17
6651.37597 9.73029e-18
6652.84621 9.69145e-18
6654.31645 9.39678e-18
6655.78669 9.84385e-18
6657.25693 1.10160e-17
6658.72717 1.09179e-17
6660.19741 1.15752e-17
6661.66765 1.13856e-17
6663.13789 9.70239e-18
6664.60813 1.01466e-17
6666.07837 1.13744e-17
6667.54861 1.07183e-17
6669.01885 8.20700e-18
6670.48909 8.47108e-18
6671.95933 9.28333e-18
6673.42957 1.14750e-17
6674.89981 8.94261e-18
6676.37005 8.83637e-18
6677.84029 9.98329e-18
6679.31053 9.07128e-18
6680.78077 1.05205e-17
6682.25101 1.15471e-17
6683.72125 1.02296e-17
6685.19149 9.55239e-18
6686.66173 9.05901e-18
6688.13197 9.44875e-18
6689.60221 1.06547e-17
6691.07245 1.10291e-17
6692.54269 1.04045e-17
6694.01293 1.01462e-17
6695.48317 1.04506e-17
6696.95341 9.32894e-18
6698.42365 1.13439e-17
6699.89389 1.16818e-17
6701.36413 1.01813e-17
6702.83437 9.00852e-18
6704.30461 1.01230e-17
6705.77485 8.51727e-18
6707.24509 7.22364e-18
6708.70512 9.29138e-18
6710.17536 1.06674e-17
6711.64560 1.11114e-17
6713.11584 9.79538e-18
6714.58608 1.03688e-17
6716.05632 1.20378e-17
6717.52656 1.12193e-17
6718.99680 1.09589e-17
6720.46704 1.06828e-17
6721.93728 9.77841e-18
6723.40752 1.09544e-17
6724.87776 1.17080e-17
6726.34800 1.08430e-17
6727.81824 1.00214e-17
6729.28848 9.39847e-18
6730.75872 9.83838e-18
6732.22896 1.02223e-17
6733.69920 9.80381e-18
6735.16944 1.02875e-17
6736.63968 9.75215e-18
6738.10992 1.03142e-17
6739.58016 1.07053e-17
6741.05040 1.04210e-17
6742.52064 1.04486e-17
6743.99088 1.04617e-17
6745.46112 9.77242e-18
6746.93136 9.87789e-18
6748.40160 1.12641e-17
6749.87184 1.07155e-17
6751.34208 1.03352e-17
6752.81232 1.09462e-17
6754.28256 1.11557e-17
6755.75280 1.30032e-17
6757.22304 1.29257e-17
6758.69328 1.05181e-17
6760.16352 1.02691e-17
6761.63376 1.05182e-17
6763.10400 1.08434e-17
6764.57424 1.06755e-17
6766.04448 1.06114e-17
6767.50451 1.12554e-17
6768.97475 1.02176e-17
6770.44499 9.82712e-18
6771.91523 1.02583e-17
6773.38547 1.04132e-17
6774.85571 1.03830e-17
6776.32595 9.62639e-18
6777.79619 1.04076e-17
6779.26643 1.14954e-17
6780.73667 1.06249e-17
6782.20691 1.01237e-17
6783.67715 1.10593e-17
6785.14739 1.10453e-17
6786.61763 1.13439e-17
6788.08787 1.09428e-17
6789.55811 9.90622e-18
6791.02835 1.02164e-17
6792.49859 1.05767e-17
6793.96883 1.08304e-17
6795.43907 1.10539e-17
6796.90931 1.08359e-17
6798.37955 9.90948e-18
6799.84979 9.29241e-18
6801.32003 8.73918e-18
6802.79027 9.20453e-18
6804.26051 9.80276e-18
6805.73075 9.37703e-18
6807.20099 9.03378e-18
6808.67123 9.21661e-18
6810.14147 9.76692e-18
6811.61171 1.04886e-17
6813.08195 1.06236e-17
6814.55219 1.03616e-17
6816.02243 9.45685e-18
6817.49267 1.04636e-17
6818.96291 1.04281e-17
6820.43315 9.78346e-18
6821.90339 9.26650e-18
6823.37363 9.29617e-18
6824.84387 9.24204e-18
6826.31411 9.28851e-18
6827.78435 9.97399e-18
6829.25459 1.01156e-17
6830.72483 1.05434e-17
6832.19507 1.02292e-17
6833.65510 9.84047e-18
6835.12534 8.95852e-18
6836.59558 9.48156e-18
6838.06582 1.09913e-17
6839.53606 1.03291e-17
6841.00630 9.26114e-18
6842.47654 8.98574e-18
6843.94678 9.10777e-18
6845.41702 9.09859e-18
6846.88726 9.71538e-18
6848.35750 9.84750e-18
6849.82774 1.01278e-17
6851.29798 9.26470e-18
6852.76822 9.72493e-18
6854.23846 9.97500e-18
6855.70870 9.67234e-18
6857.17894 8.58598e-18
6858.64918 9.29854e-18
6860.11942 9.17228e-18
6861.58966 8.36876e-18
6863.05990 8.53517e-18
6864.53014 1.03268e-17
6866.00038 9.94812e-18
6867.47062 7.92753e-18
6868.94086 7.81859e-18
6870.41110 7.95033e-18
6871.88134 1.05788e-17
6873.35158 9.87730e-18
6874.82182 8.63437e-18
6876.29206 8.54198e-18
6877.76230 8.12104e-18
6879.23254 8.23065e-18
6880.70278 8.84370e-18
6882.17302 9.37294e-18
6883.64326 9.42791e-18
6885.11350 8.15527e-18
6886.58374 8.17656e-18
6888.05398 9.80088e-18
6889.52422 9.94140e-18
6890.99446 9.37381e-18
6892.46470 9.78803e-18
6893.93494 9.41761e-18
6895.39497 8.17913e-18
6896.86521 8.36253e-18
6898.33545 9.32712e-18
6899.80569 8.19554e-18
6901.27593 8.75180e-18
6902.74617 1.07944e-17
6904.21641 1.08041e-17
6905.68665 1.02383e-17
6907.15689 9.19486e-18
6908.62713 8.59145e-18
6910.09737 8.09531e-18
6911.56761 8.87698e-18
6913.03785 1.00991e-17
6914.50809 8.44521e-18
6915.97833 8.13511e-18
6917.44857 8.13600e-18
6918.91881 9.59578e-18
6920.38905 8.04873e-18
6921.85929 8.08662e-18
6923.32953 8.81096e-18
6924.79977 8.83143e-18
6926.27001 8.89294e-18
6927.74025 8.16262e-18
6929.21049 8.48164e-18
6930.68073 8.51656e-18
6932.15097 1.05278e-17
6933.62121 9.35010e-18
6935.09145 8.32264e-18
6936.56169 8.69678e-18
6938.03193 9.24430e-18
6939.50217 9.01697e-18
6940.97241 1.01618e-17
6942.44265 9.14077e-18
6943.91289 9.77684e-18
6945.38313 9.23601e-18
6946.85337 7.78095e-18
6948.32361 8.20731e-18
6949.79385 9.31265e-18
6951.26409 9.28952e-18
6952.73433 9.81384e-18
6954.20457 9.59661e-18
6955.66460 7.84402e-18
6957.13484 7.74451e-18
6958.60508 9.19226e-18
6960.07532 9.26782e-18
6961.54556 8.38805e-18
6963.01580 8.89288e-18
6964.48604 9.68754e-18
6965.95628 8.87537e-18
6967.42652 8.12617e-18
6968.89676 8.32165e-18
6970.36700 8.58733e-18
6971.83724 8.89391e-18
6973.30748 7.82689e-18
6974.77772 6.52722e-18
6976.24796 7.25018e-18
6977.71820 8.93601e-18
6979.18844 8.40642e-18
6980.65868 8.14780e-18
6982.12892 8.83166e-18
6983.59916 9.48089e-18
6985.06940 8.79441e-18
6986.53964 7.44092e-18
6988.00988 7.94476e-18
6989.48012 8.84164e-18
6990.95036 9.16627e-18
6992.42060 8.76854e-18
6993.89084 7.57118e-18
6995.36108 7.59323e-18
6996.83132 8.20070e-18
6998.30156 7.96420e-18
6999.77180 8.81895e-18
7001.24204 9.29520e-18
7002.71228 9.00597e-18
7004.18252 7.51754e-18
7005.65276 7.45626e-18
7007.12300 8.81327e-18
7008.59324 8.82261e-18
7010.06348 8.65542e-18
7011.53372 8.86750e-18
7013.00396 9.10949e-18
7014.47420 8.41569e-18
7015.94444 7.58792e-18
7017.41468 8.57870e-18
7018.87471 9.34983e-18
7020.35516 8.42127e-18
7021.81519 8.59285e-18
7023.28543 9.13276e-18
7024.75567 9.01423e-18
7026.22591 9.24588e-18
7027.69615 8.47096e-18
7029.16639 7.90568e-18
7030.63663 7.94339e-18
7032.10687 7.74962e-18
7033.57711 8.05377e-18
7035.04735 8.35947e-18
7036.51759 8.39835e-18
7037.98783 8.83596e-18
7039.45807 9.20362e-18
7040.92831 8.79608e-18
7042.39855 9.40079e-18
7043.86879 1.04088e-17
7045.33903 9.76673e-18
7046.80927 8.99248e-18
7048.27951 8.52216e-18
7049.74975 7.94303e-18
7051.21999 8.46455e-18
7052.69023 9.45302e-18
7054.16047 8.67110e-18
7055.63071 7.87046e-18
7057.10095 8.09121e-18
7058.57119 8.11152e-18
7060.04143 9.24826e-18
7061.51167 9.94272e-18
7062.98191 8.59974e-18
7064.45215 8.08139e-18
7065.92239 9.44340e-18
7067.39263 9.02002e-18
7068.86287 8.09874e-18
7070.33311 8.28190e-18
7071.80335 8.37188e-18
7073.27359 8.72676e-18
7074.74383 9.18133e-18
7076.21407 9.49747e-18
7077.68431 8.60274e-18
7079.15455 8.60741e-18
7080.62479 8.92806e-18
7082.08482 8.43911e-18
7083.55506 7.99385e-18
7085.02530 8.55838e-18
7086.49554 9.07875e-18
7087.96578 9.28387e-18
7089.43602 9.33426e-18
7090.90626 9.14058e-18
7092.37650 9.46042e-18
7093.84674 9.54555e-18
7095.31698 9.01451e-18
7096.78722 8.53228e-18
7098.25746 8.70088e-18
7099.72770 8.53299e-18
7101.19794 8.41602e-18
7102.66818 9.32566e-18
7104.13842 8.64281e-18
7105.60866 8.66208e-18
7107.07890 9.27701e-18
7108.54914 9.69692e-18
7110.01938 1.05096e-17
7111.48962 9.58067e-18
7112.95986 9.48492e-18
7114.43010 1.11195e-17
7115.90034 1.02647e-17
7117.37058 9.47548e-18
7118.84082 1.01703e-17
7120.31106 9.86416e-18
7121.78130 7.99899e-18
7123.25154 7.82210e-18
7124.72178 8.41521e-18
7126.19202 8.32124e-18
7127.66226 8.36094e-18
7129.13250 9.46027e-18
7130.60274 8.95491e-18
7132.07298 8.49258e-18
7133.54322 9.37767e-18
7135.01346 8.61784e-18
7136.48370 8.54776e-18
7137.95394 9.32095e-18
7139.42418 8.68268e-18
7140.89442 8.93207e-18
7142.36466 9.60296e-18
7143.83490 9.42497e-18
7145.29493 9.32168e-18
7146.76517 9.68314e-18
7148.23541 8.21840e-18
7149.70565 8.78371e-18
7151.17589 9.45579e-18
7152.64613 9.69925e-18
7154.11637 9.62950e-18
7155.58661 8.58781e-18
7157.05685 8.12432e-18
7158.52709 8.99628e-18
7159.99733 9.37584e-18
7161.46757 8.27716e-18
7162.93781 8.74983e-18
7164.40805 8.60024e-18
7165.87829 8.17026e-18
7167.34853 9.60622e-18
7168.81877 1.01117e-17
7170.28901 8.53936e-18
7171.75925 8.04197e-18
7173.22949 1.01687e-17
7174.69973 9.80081e-18
7176.16997 9.48995e-18
7177.64021 8.99598e-18
7179.11045 8.05677e-18
7180.58069 8.73194e-18
7182.05093 9.91469e-18
7183.52117 8.17711e-18
7184.99141 7.51359e-18
7186.46165 8.69245e-18
7187.93189 9.83998e-18
7189.40213 8.64993e-18
7190.87237 9.05379e-18
7192.34261 9.41317e-18
7193.81285 9.67193e-18
7195.28309 9.71611e-18
7196.75333 8.93777e-18
7198.22357 9.07529e-18
7199.69381 8.25765e-18
7201.16405 6.73542e-18
7202.63429 6.88173e-18
7204.10453 7.35158e-18
7205.56456 9.09999e-18
7207.04501 8.68661e-18
7208.50504 7.33449e-18
7209.97528 8.10757e-18
7211.44552 7.69843e-18
7212.91576 8.13761e-18
7214.38600 8.39800e-18
7215.85624 8.76388e-18
7217.32648 8.11186e-18
7218.79672 8.24514e-18
7220.26696 7.74802e-18
7221.73720 9.10725e-18
7223.20744 9.10337e-18
7224.67768 8.91710e-18
7226.14792 8.18426e-18
7227.61816 7.74500e-18
7229.08840 7.57931e-18
7230.55864 8.04059e-18
7232.02888 8.28288e-18
7233.49912 7.91573e-18
7234.96936 7.74764e-18
7236.43960 8.58275e-18
7237.90984 9.99806e-18
7239.38008 1.05468e-17
7240.85032 9.17934e-18
7242.32056 8.25335e-18
7243.79080 7.84227e-18
7245.26104 9.34550e-18
7246.73128 1.00881e-17
7248.20152 9.05378e-18
7249.67176 8.18187e-18
7251.14200 8.14861e-18
7252.61224 8.61272e-18
7254.08248 9.63846e-18
7255.55272 8.15602e-18
7257.02296 7.56947e-18
7258.49320 7.06045e-18
7259.96344 7.60520e-18
7261.43368 8.44734e-18
7262.90392 8.96697e-18
7264.37416 8.23753e-18
7265.84440 7.45578e-18
7267.31464 7.44441e-18
7268.77467 8.00650e-18
7270.24491 9.35623e-18
7271.71515 9.32513e-18
7273.18539 9.87899e-18
7274.65563 9.82844e-18
7276.12587 8.07594e-18
7277.59611 7.86409e-18
7279.06635 8.39534e-18
7280.53659 8.49393e-18
7282.00683 7.46860e-18
7283.47707 8.52088e-18
7284.94731 8.41191e-18
7286.41755 7.62596e-18
7287.88779 7.69886e-18
7289.35803 8.97587e-18
7290.82827 9.83496e-18
7292.29851 9.61964e-18
7293.76875 9.28100e-18
7295.23899 8.34621e-18
7296.70923 8.30527e-18
7298.17947 9.58773e-18
7299.64971 1.09641e-17
7301.11995 9.23658e-18
7302.59019 7.85013e-18
7304.06043 9.64999e-18
7305.53067 9.85663e-18
7307.00091 9.25455e-18
7308.47115 8.84734e-18
7309.94139 7.73188e-18
7311.41163 8.89869e-18
7312.88187 9.90249e-18
7314.35211 9.59104e-18
7315.82235 8.83857e-18
7317.29259 1.00322e-17
7318.76283 9.94728e-18
7320.23307 9.92204e-18
7321.70331 9.19704e-18
7323.17355 8.87769e-18
7324.64379 9.10211e-18
7326.11403 8.91077e-18
7327.58427 8.44862e-18
7329.05451 8.35089e-18
7330.52475 9.94728e-18
7331.99499 8.86263e-18
7333.45502 7.26563e-18
7334.92526 7.67759e-18
7336.39550 8.12464e-18
7337.86574 9.42372e-18
7339.33598 1.02331e-17
7340.80622 9.30216e-18
7342.27646 8.19613e-18
7343.74670 8.99000e-18
7345.21694 8.87845e-18
7346.68718 9.25980e-18
7348.15742 8.89119e-18
7349.62766 7.80041e-18
7351.09790 7.35476e-18
7352.56814 8.68941e-18
7354.03838 9.60001e-18
7355.50862 9.02896e-18
7356.97886 8.44343e-18
7358.44910 8.78457e-18
7359.91934 9.16094e-18
7361.38958 9.17333e-18
7362.85982 9.42756e-18
7364.33006 9.69454e-18
7365.80030 1.04578e-17
7367.27054 1.00149e-17
7368.74078 8.79211e-18
7370.21102 9.13290e-18
7371.68126 8.32717e-18
7373.15150 7.99043e-18
7374.62174 7.84552e-18
7376.09198 8.43775e-18
7377.56222 9.13024e-18
7379.03246 9.05958e-18
7380.50270 8.38862e-18
7381.97294 8.05790e-18
7383.44318 9.03951e-18
7384.91342 1.02416e-17
7386.38366 9.92725e-18
7387.85390 9.71510e-18
7389.32414 9.33706e-18
7390.79438 8.36457e-18
7392.25441 7.49740e-18
7393.72465 9.22498e-18
7395.20510 1.03031e-17
7396.66513 9.38018e-18
7398.13537 8.59939e-18
7399.60561 8.73998e-18
7401.07585 8.73800e-18
7402.54609 9.90791e-18
7404.01633 1.07870e-17
7405.48657 8.84910e-18
7406.95681 8.54267e-18
7408.42705 9.20078e-18
7409.89729 8.97231e-18
7411.36753 8.19151e-18
7412.22211 8.19151e-18
7413.91970 8.64002e-18
7415.61729 9.02278e-18
7417.31488 9.67468e-18
7419.01247 1.03440e-17
7420.71005 9.99475e-18
7422.40764 8.57293e-18
7424.10523 7.60837e-18
7425.80282 7.88589e-18
7427.50041 8.66213e-18
7429.19800 9.29263e-18
7430.89558 9.58941e-18
7432.59317 9.53327e-18
7434.29076 9.44344e-18
7435.98835 9.59789e-18
7437.68594 9.97113e-18
7439.38352 1.04391e-17
7441.09116 1.08503e-17
7442.78874 1.10190e-17
7444.48633 1.05422e-17
7446.18392 9.25516e-18
7447.88151 8.11025e-18
7449.57910 8.12016e-18
7451.27669 8.93169e-18
7452.97427 9.64588e-18
7454.67186 9.66239e-18
7456.36945 8.70092e-18
7458.06704 7.29977e-18
7459.76463 6.43952e-18
7461.46221 6.36331e-18
7463.15980 6.73756e-18
7464.85739 7.42049e-18
7466.55498 8.38337e-18
7468.25257 9.33525e-18
7469.95015 9.80774e-18
7471.64774 9.66902e-18
7473.34533 9.16594e-18
7475.04292 8.68563e-18
7476.74051 8.78361e-18
7478.43809 9.40799e-18
7480.13568 9.54006e-18
7481.83327 8.85642e-18
7483.53086 8.34338e-18
7485.22845 8.57314e-18
7486.92604 9.13737e-18
7488.62362 9.64665e-18
7490.32121 9.99177e-18
7492.01880 1.00603e-17
7493.71639 9.60681e-18
7495.41398 8.63528e-18
7497.11156 7.87193e-18
7498.80915 7.91294e-18
7500.50674 8.45466e-18
7502.20433 9.01345e-18
7503.90192 9.36363e-18
7505.59950 9.44562e-18
7507.29709 9.64895e-18
7508.99468 1.03545e-17
7510.69227 1.10568e-17
7512.38986 1.09659e-17
7514.08745 9.83385e-18
7515.78503 7.87368e-18
7517.48262 6.16442e-18
7519.18021 6.13668e-18
7520.87780 7.43217e-18
7522.58543 8.33040e-18
7524.28302 8.42584e-18
7525.98061 8.51752e-18
7527.67819 8.83236e-18
7529.37578 9.05887e-18
7531.07337 9.06279e-18
7532.77096 8.86306e-18
7534.46855 8.58240e-18
7536.16614 8.50743e-18
7537.86372 8.72613e-18
7539.56131 8.98263e-18
7541.25890 9.10583e-18
7542.95649 9.13032e-18
7544.65408 9.09503e-18
7546.35166 9.03521e-18
7548.04925 8.94885e-18
7549.74684 8.69037e-18
7551.44443 8.68284e-18
7553.14202 8.67531e-18
7554.83960 8.66778e-18
7556.53719 8.66025e-18
7558.23478 8.65272e-18
7559.93237 8.64519e-18
7561.62996 8.63766e-18
7563.32754 8.63012e-18
7565.02513 8.62260e-18
7566.72272 8.61507e-18
7568.42031 8.60754e-18
7570.11790 8.60002e-18
7571.81549 8.59248e-18
7573.51307 8.58495e-18
7575.21066 8.57743e-18
7576.90825 8.56990e-18
7578.60584 8.56238e-18
7580.30343 8.55486e-18
7582.00101 8.54733e-18
7583.69860 8.53980e-18
7585.39619 8.53229e-18
7587.09378 8.52476e-18
7588.79137 8.51724e-18
7590.48895 8.50972e-18
7592.18654 8.50219e-18
7593.88413 8.49467e-18
7595.58172 8.48716e-18
7597.27931 8.47963e-18
7598.97689 8.47211e-18
7600.67448 8.46460e-18
7602.37207 8.45708e-18
7604.06966 8.44956e-18
7605.76725 8.44205e-18
7607.47488 8.43453e-18
7609.17247 8.42701e-18
7610.87006 8.41950e-18
7612.56764 8.41198e-18
7614.26523 8.40446e-18
7615.96282 8.39694e-18
7617.66041 8.38943e-18
7619.35800 8.38192e-18
7621.05559 8.37440e-18
7622.75317 8.36690e-18
7624.45076 8.35938e-18
7626.14835 8.35187e-18
7627.84594 8.34435e-18
7629.54353 8.33685e-18
7631.24111 8.32934e-18
7632.93870 8.32182e-18
7634.63629 8.31432e-18
7636.33388 8.30681e-18
7638.03147 8.29930e-18
7639.72905 8.29179e-18
7641.42664 8.28429e-18
7643.12423 8.27678e-18
7644.82182 8.26927e-18
7646.51941 8.26176e-18
7648.21699 8.25426e-18
7649.91458 8.24676e-18
7651.61217 8.23925e-18
7653.30976 8.23174e-18
7655.00735 8.22425e-18
7656.70494 8.21674e-18
7658.40252 8.20924e-18
7660.10011 8.20173e-18
7661.79770 8.19424e-18
7663.49529 8.18673e-18
7665.19288 8.17923e-18
7666.89046 8.17173e-18
7668.58805 8.16424e-18
7670.28564 8.15674e-18
7671.98323 8.14923e-18
7673.68082 8.14174e-18
7675.37840 8.13424e-18
7677.07599 8.12674e-18
7678.77358 8.11925e-18
7680.47117 8.11175e-18
7682.16876 8.11140e-18
7683.86634 8.02217e-18
7685.56393 7.87319e-18
7687.26152 7.70695e-18
7688.96915 7.62344e-18
7690.66674 7.72494e-18
7692.36433 7.94399e-18
7694.06192 8.09209e-18
7695.75951 8.07669e-18
7697.45709 7.90736e-18
7699.15468 7.65019e-18
7700.85227 7.42805e-18
7702.54986 7.42259e-18
7704.24745 7.86574e-18
7705.94504 8.63812e-18
7707.64262 9.14532e-18
7709.34021 9.14314e-18
7711.03780 8.99007e-18
7712.73539 8.85044e-18
7714.43298 8.44764e-18
7716.13056 7.75402e-18
7717.82815 7.32943e-18
7719.52574 7.41913e-18
7721.22333 7.33480e-18
7722.92092 6.71469e-18
7724.61850 6.46493e-18
7726.31609 7.24586e-18
7728.01368 8.32842e-18
7729.71127 8.91606e-18
7731.40886 9.14467e-18
7733.10644 9.30009e-18
7734.80403 9.08413e-18
7736.50162 8.24158e-18
7738.19921 7.50378e-18
7739.89680 7.73597e-18
7741.59439 8.51132e-18
7743.29197 8.89492e-18
7744.98956 8.88253e-18
7746.68715 8.96872e-18
7748.38474 9.22352e-18
7750.08233 9.45474e-18
7751.77991 9.52958e-18
7753.47750 9.36149e-18
7755.17509 9.10698e-18
7756.87268 9.14018e-18
7758.57027 9.57985e-18
7760.26785 1.02612e-17
7761.96544 1.07579e-17
7763.66303 1.03105e-17
7765.36062 9.03580e-18
7767.05821 8.37563e-18
7768.75579 8.88813e-18
7770.46343 9.52271e-18
7772.16102 9.58975e-18
7773.85860 9.29863e-18
7775.55619 8.87136e-18
7777.25378 8.38576e-18
7778.95137 7.97545e-18
7780.64896 7.91742e-18
7782.34654 8.31727e-18
7784.04413 8.79821e-18
7785.74172 8.99041e-18
7787.43931 8.84751e-18
7789.13690 8.47715e-18
7790.83448 8.25249e-18
7792.53207 8.48290e-18
7794.22966 8.71309e-18
7795.92725 8.41888e-18
7797.62484 8.31093e-18
7799.32243 9.34863e-18
7801.02001 1.08428e-17
7802.71760 1.13961e-17
7804.41519 1.08178e-17
7806.11278 9.73900e-18
7807.81037 8.83132e-18
7809.50795 8.73958e-18
7811.20554 9.21871e-18
7812.90313 9.21477e-18
7814.60072 8.71241e-18
7816.29831 8.77453e-18
7817.99589 9.46560e-18
7819.69348 9.67401e-18
7821.39107 9.16530e-18
7823.08866 8.92340e-18
7824.78625 9.27076e-18
7826.48384 9.43078e-18
7828.18142 9.04236e-18
7829.87901 8.59883e-18
7831.57660 8.35102e-18
7833.27419 7.87750e-18
7834.97178 7.05648e-18
7836.66936 6.60529e-18
7838.36695 7.02052e-18
7840.06454 8.03282e-18
7841.76213 9.13409e-18
7843.45972 9.49750e-18
7845.15730 8.64528e-18
7846.85489 7.46354e-18
7848.55248 7.00615e-18
7850.25007 7.31393e-18
7851.94766 8.03973e-18
7853.64524 8.97258e-18
7855.35288 9.89683e-18
7857.05047 1.03844e-17
7858.74805 1.00618e-17
7860.44564 9.24602e-18
7862.14323 8.61646e-18
7863.84082 8.24344e-18
7865.53841 7.77359e-18
7867.23599 7.29625e-18
7868.93358 7.21411e-18
7870.63117 7.34578e-18
7872.32876 7.00200e-18
7874.02635 6.28152e-18
7875.72393 6.13655e-18
7877.42152 6.86498e-18
7879.11911 7.94616e-18
7880.81670 8.69693e-18
7882.51429 8.14789e-18
7884.21188 6.44783e-18
7885.90946 5.74738e-18
7887.60705 7.02463e-18
7889.30464 8.68023e-18
7891.00223 9.44436e-18
7892.69982 9.33370e-18
7894.39740 8.64053e-18
7896.09499 7.98353e-18
7897.79258 7.81682e-18
7899.49017 7.78136e-18
7901.18776 7.53637e-18
7902.88534 7.49221e-18
7904.58293 8.01600e-18
7906.28052 8.71066e-18
7907.97811 9.02123e-18
7909.67570 8.64482e-18
7911.37328 7.56392e-18
7913.07087 6.49571e-18
7914.76846 6.32647e-18
7916.46605 7.08766e-18
7918.16364 8.23716e-18
7919.86123 8.88379e-18
7921.55881 8.11368e-18
7923.25640 6.49325e-18
7924.95399 5.69403e-18
7926.65158 6.24046e-18
7928.34917 7.54335e-18
7930.04675 8.86242e-18
7931.74434 9.29187e-18
7933.44193 8.75842e-18
7935.13952 8.30337e-18
7936.84715 8.27910e-18
7938.54474 7.97700e-18
7940.24233 7.28155e-18
7941.93992 7.04398e-18
7943.63750 7.66848e-18
7945.33509 8.75577e-18
7947.03268 9.72633e-18
7948.73027 9.71279e-18
7950.42786 8.41672e-18
7952.12544 6.94637e-18
7953.82303 6.26325e-18
7955.52062 6.28361e-18
7957.21821 6.70353e-18
7958.91580 7.21949e-18
7960.61338 7.59675e-18
7962.31097 8.03010e-18
7964.00856 8.69567e-18
7965.70615 9.08439e-18
7967.40374 8.65542e-18
7969.10133 7.72908e-18
7970.79891 6.94034e-18
7972.49650 6.54204e-18
7974.19409 6.53297e-18
7975.89168 6.69563e-18
7977.58927 6.69206e-18
7979.28685 6.51182e-18
7980.98444 6.38750e-18
7982.68203 6.30718e-18
7984.37962 6.07608e-18
7986.07721 5.66676e-18
7987.77479 5.20517e-18
7989.47238 4.93252e-18
7991.16997 5.20960e-18
7992.86756 6.00400e-18
7994.56515 6.76509e-18
7996.26273 7.12235e-18
7997.96032 7.01566e-18
7999.65791 6.53609e-18
8001.35550 6.02621e-18
8003.05309 5.66586e-18
8004.75068 5.20749e-18
8006.44826 4.55062e-18
8008.14585 4.04894e-18
8009.84344 3.92241e-18
8011.54103 3.88812e-18
8013.23862 3.72711e-18
8014.93620 3.68761e-18
8016.63379 3.98790e-18
8018.34143 4.42320e-18
8020.03901 4.74167e-18
8021.73660 4.97785e-18
8023.43419 5.21533e-18
8025.13178 5.30838e-18
8026.82937 5.09107e-18
8028.52695 4.72710e-18
8030.22454 4.47937e-18
8031.92213 4.21979e-18
8033.61972 3.66208e-18
8035.31731 2.98455e-18
8037.01489 2.63708e-18
8038.71248 2.66664e-18
8040.41007 2.81089e-18
8042.10766 3.03594e-18
8043.80525 3.49392e-18
8045.50283 4.18432e-18
8047.20042 4.96000e-18
8048.89801 5.57227e-18
8050.59560 5.65997e-18
8052.29319 5.11179e-18
8053.99078 4.18047e-18
8055.68836 3.15787e-18
8057.38595 2.30173e-18
8059.08354 1.92267e-18
8060.78113 2.48704e-18
8062.47872 3.91865e-18
8064.17630 5.01446e-18
8065.87389 4.97395e-18
8067.57148 4.29123e-18
8069.26907 3.58535e-18
8070.96666 3.13518e-18
8072.66424 3.10693e-18
8074.36183 3.57738e-18
8076.05942 4.42900e-18
8077.75701 5.06018e-18
8079.45460 4.93874e-18
8081.15218 4.38098e-18
8082.84977 3.93677e-18
8084.54736 3.60031e-18
8086.24495 3.17666e-18
8087.94254 2.78758e-18
8089.64013 2.67332e-18
8091.33771 2.92132e-18
8093.03530 3.49001e-18
8094.73289 4.15386e-18
8096.43048 4.57103e-18
8098.12807 4.61746e-18
8099.82565 4.38742e-18
8101.52324 4.03056e-18
8103.22083 3.75087e-18
8104.92846 3.57117e-18
8106.62605 3.27439e-18
8108.32364 2.92414e-18
8110.02123 2.97061e-18
8111.71882 3.46255e-18
8113.41640 3.85965e-18
8115.11399 3.72131e-18
8116.81158 2.74967e-18
8118.50917 1.21812e-18
8120.20676 5.74373e-19
8121.90434 1.52897e-18
8123.60193 2.80012e-18
8125.29952 3.32634e-18
8126.99711 3.42861e-18
8128.69470 3.53355e-18
8130.39228 3.63941e-18
8132.08987 3.67795e-18
8133.78746 3.59501e-18
8135.48505 3.35356e-18
8137.18264 2.94657e-18
8138.88023 2.43888e-18
8140.57781 2.17406e-18
8142.27540 2.46584e-18
8143.97299 2.99823e-18
8145.67058 3.21191e-18
8147.36817 2.96587e-18
8149.06575 2.42099e-18
8150.76334 1.93652e-18
8152.46093 1.96487e-18
8154.15852 2.47933e-18
8155.85611 3.04130e-18
8157.55369 3.48347e-18
8159.25128 3.90096e-18
8160.94887 4.24917e-18
8162.64646 4.35793e-18
8164.34405 4.25823e-18
8166.04163 4.22158e-18
8167.73922 4.28001e-18
8169.43681 4.11332e-18
8171.13440 3.55562e-18
8172.83199 2.70478e-18
8174.52958 1.74890e-18
8176.22716 9.81734e-19
8177.92475 6.54111e-19
8179.62234 9.44220e-19
8181.31993 1.76529e-18
8183.01752 2.47121e-18
8184.71510 2.56786e-18
8186.41269 2.16271e-18
8188.12032 1.59171e-18
8189.81791 1.53070e-18
8191.51550 2.38089e-18
8193.21309 3.29107e-18
8194.91068 3.28613e-18
8196.60827 2.46642e-18
8198.30585 1.39775e-18
8200.00344 7.82828e-19
8201.70103 1.18308e-18
8203.39862 2.04607e-18
8205.09621 2.33868e-18
8206.79379 2.21800e-18
8208.49138 2.54166e-18
8210.18897 3.34528e-18
8211.88656 4.07303e-18
8213.58415 4.38737e-18
8215.28173 4.14203e-18
8216.97932 3.53825e-18
8218.67691 3.15549e-18
8220.37450 3.10862e-18
8222.07209 2.92762e-18
8223.76967 2.48751e-18
8225.46726 2.15056e-18
8227.16485 2.05261e-18
8228.86244 1.95300e-18
8230.56003 1.81445e-18
8232.25762 2.00765e-18
8233.95520 2.64561e-18
8235.65279 3.26217e-18
8237.35038 3.54297e-18
8239.04797 3.69677e-18
8240.74556 3.88439e-18
8242.44314 3.90930e-18
8244.14073 3.63831e-18
8245.83832 3.28630e-18
8247.53591 3.06962e-18
8249.23350 2.98653e-18
8250.93108 2.94173e-18
8252.62867 2.65088e-18
8254.32626 1.93060e-18
8256.02385 1.35529e-18
8257.72144 1.60980e-18
8259.41903 2.36276e-18
8261.11661 2.83612e-18
8262.81420 2.74601e-18
8264.51179 2.18056e-18
8266.20938 1.60835e-18
8267.91701 1.70697e-18
8269.60455 2.37812e-18
8271.30214 2.86736e-18
8273.00977 2.85937e-18
8274.70736 2.48266e-18
8276.40495 1.97731e-18
8278.10254 1.73021e-18
8279.80013 1.88180e-18
8281.49772 2.20879e-18
8283.19530 2.57970e-18
8284.89289 3.03365e-18
8286.59048 3.50512e-18
8288.28807 3.76011e-18
8289.98566 3.71001e-18
8291.68324 3.54369e-18
8293.38083 3.43313e-18
8295.07842 3.44616e-18
8296.77601 3.58500e-18
8298.47360 3.73189e-18
8300.17118 3.77296e-18
8301.86877 3.68231e-18
8303.56636 3.47054e-18
8305.26395 3.18868e-18
8306.96154 2.88876e-18
8308.65912 2.56705e-18
8310.35671 2.21698e-18
8312.05430 1.84879e-18
8313.75189 1.51374e-18
8315.44948 1.45864e-18
8317.14707 1.92127e-18
8318.84465 2.67215e-18
8320.54224 3.25607e-18
8322.23983 3.52198e-18
8323.93742 3.55258e-18
8325.63501 3.53211e-18
8327.33259 3.70912e-18
8329.03018 4.04212e-18
8330.72777 4.21803e-18
8332.42536 4.08019e-18
8334.12295 3.64292e-18
8335.82053 3.10567e-18
8337.51812 2.90387e-18
8339.21571 3.05284e-18
8340.91330 2.95029e-18
8342.61089 2.43388e-18
8344.30847 2.06656e-18
8346.00606 2.23025e-18
8347.70365 2.95547e-18
8349.40124 4.02258e-18
8351.09883 4.75193e-18
8352.79642 4.73076e-18
8354.50405 4.29174e-18
8356.20164 3.84327e-18
8357.89922 3.62680e-18
8359.59681 3.75735e-18
8361.29440 4.10967e-18
8362.99199 4.46285e-18
8364.68958 4.53315e-18
8366.38717 4.14270e-18
8368.08475 3.53646e-18
8369.78234 3.07569e-18
8371.47993 2.80677e-18
8373.17752 2.67211e-18
8374.87511 2.91405e-18
8376.57269 3.80117e-18
8378.27028 4.98797e-18
8379.96787 5.80940e-18
8381.66546 6.11912e-18
8383.36305 6.15415e-18
8385.06063 5.96390e-18
8386.75822 5.47809e-18
8388.45581 4.61660e-18
8390.15340 3.27811e-18
8391.85099 2.02261e-18
8393.54857 2.12640e-18
8395.24616 3.66206e-18
8396.94375 5.12387e-18
8398.64134 5.62244e-18
8400.33893 5.27039e-18
8402.03652 4.43844e-18
8403.73410 3.91206e-18
8405.43169 4.04587e-18
8407.12928 4.18812e-18
8408.82687 3.91364e-18
8410.52446 3.55332e-18
8412.22204 3.41958e-18
8413.91963 3.55644e-18
8415.61722 3.91549e-18
8417.31481 4.30612e-18
8419.01240 4.55746e-18
8420.70998 4.72518e-18
8422.40757 4.88843e-18
8424.10516 4.89342e-18
8425.80275 4.61891e-18
8427.50034 4.41540e-18
8429.19792 4.67636e-18
8430.89551 5.10310e-18
8432.59310 5.16046e-18
8434.29069 4.90189e-18
8435.99832 4.69629e-18
8437.69591 4.71381e-18
8439.39350 4.96459e-18
8441.09109 5.16693e-18
8442.77863 4.84603e-18
8444.48626 4.14854e-18
8446.18385 3.78615e-18
8447.88144 4.04511e-18
8449.57903 4.74021e-18
8451.27662 5.56694e-18
8452.97420 6.06653e-18
8454.67179 6.07300e-18
8456.36938 5.88935e-18
8458.06697 5.66002e-18
8459.76456 5.21930e-18
8461.46214 4.54098e-18
8463.15973 3.82920e-18
8464.85732 3.32378e-18
8466.55491 3.32810e-18
8468.25250 3.92350e-18
8469.95008 4.71137e-18
8471.64767 5.28517e-18
8473.34526 5.42041e-18
8475.04285 5.09701e-18
8476.74044 4.75761e-18
8478.43802 4.80576e-18
8480.13561 5.09344e-18
8481.83320 5.31873e-18
8483.53079 5.27605e-18
8485.22838 4.88944e-18
8486.92597 4.47972e-18
8488.62355 4.47112e-18
8490.32114 4.80715e-18
8492.01873 5.19114e-18
8493.71632 5.63205e-18
8495.41391 6.28080e-18
8497.11149 6.96189e-18
8498.80908 7.30537e-18
8500.50667 7.17450e-18
8502.20426 6.65828e-18
8503.90185 6.09731e-18
8505.59943 6.06162e-18
8507.29702 6.62291e-18
8508.99461 7.24609e-18
8510.69220 7.63522e-18
8512.38979 7.85684e-18
8514.08737 7.84577e-18
8515.78496 7.33568e-18
8517.49260 6.36052e-18
8519.19018 5.41918e-18
8520.87773 4.94090e-18
8522.58536 5.20050e-18
8524.27290 6.09494e-18
8525.98054 6.72449e-18
8527.67812 6.50266e-18
8529.37571 5.93199e-18
8531.07330 5.58077e-18
8532.77089 5.60865e-18
8534.46848 5.96969e-18
8536.16606 6.22342e-18
8537.86365 5.99327e-18
8539.56124 5.62404e-18
8541.25883 5.58704e-18
8542.95642 5.77990e-18
8544.65401 5.89725e-18
8546.35159 5.83631e-18
8548.04918 5.61580e-18
8549.74677 5.35838e-18
8551.44436 5.24806e-18
8553.14195 5.36696e-18
8554.83953 5.69693e-18
8556.53712 6.17550e-18
8558.23471 6.69453e-18
8559.93230 7.05174e-18
8561.62989 6.99063e-18
8563.32747 6.61483e-18
8565.02506 6.41724e-18
8566.72265 6.57240e-18
8568.42024 6.83383e-18
8570.11783 7.06612e-18
8571.81542 7.30248e-18
8573.51300 7.52638e-18
8575.21059 7.67082e-18
8576.90818 7.64216e-18
8578.60577 7.26152e-18
8580.30336 6.55042e-18
8582.00094 5.96303e-18
8583.69853 5.80427e-18
8585.39612 5.87950e-18
8587.09371 5.98097e-18
8588.79130 6.11045e-18
8590.48888 6.29979e-18
8592.18647 6.62366e-18
8593.88406 7.06808e-18
8595.58165 7.22925e-18
8597.27924 6.76533e-18
8598.97682 5.97462e-18
8600.67441 5.36339e-18
8602.37200 5.22742e-18
8604.07963 5.65551e-18
8605.76718 6.26876e-18
8607.47481 6.50434e-18
8609.17240 6.43958e-18
8610.86999 6.54303e-18
8612.56757 6.81218e-18
8614.26516 6.92394e-18
8615.96275 6.79241e-18
8617.66034 6.53313e-18
8619.35793 6.52608e-18
8621.05551 7.38738e-18
8622.75310 9.05514e-18
8624.45069 1.06832e-17
8626.14828 1.14472e-17
8627.84587 1.05871e-17
8629.54346 8.26118e-18
8631.24104 6.02477e-18
8632.93863 4.91967e-18
8634.63622 4.91525e-18
8636.33381 5.60913e-18
8638.03140 6.00880e-18
8639.72898 5.60838e-18
8641.42657 5.27716e-18
8643.12416 5.68736e-18
8644.82175 6.47238e-18
8646.51934 7.12544e-18
8648.21692 7.27293e-18
8649.91451 6.76722e-18
8651.61210 6.06220e-18
8653.30969 5.69617e-18
8655.00728 5.77391e-18
8656.70486 6.19348e-18
8658.40245 6.77595e-18
8660.10004 7.30322e-18
8661.79763 7.66086e-18
8663.49522 7.80702e-18
8665.19281 7.62698e-18
8666.89039 7.03208e-18
8668.58798 6.29255e-18
8670.28557 5.88973e-18
8671.98316 5.90935e-18
8673.68075 6.09608e-18
8675.37833 6.34395e-18
8677.07592 6.67972e-18
8678.77351 7.10009e-18
8680.47110 7.59134e-18
8682.16869 8.05680e-18
8683.86627 8.30000e-18
8685.56386 8.19193e-18
8687.26145 7.69339e-18
8688.96908 6.95011e-18
8690.66667 6.38714e-18
8692.36426 6.26797e-18
8694.06185 6.52171e-18
8695.75944 6.96842e-18
8697.45702 7.30417e-18
8699.15461 7.31675e-18
8700.85220 7.05241e-18
8702.54979 6.65730e-18
8704.24738 6.35654e-18
8705.94496 6.33464e-18
8707.64255 6.66725e-18
8709.34014 7.27223e-18
8711.03773 7.61834e-18
8712.73532 7.26756e-18
8714.43291 6.74923e-18
8716.13049 6.79143e-18
8717.82808 7.18038e-18
8719.52567 7.33781e-18
8721.22326 7.20203e-18
8722.92085 6.99916e-18
8724.61843 6.98128e-18
8726.31602 7.37651e-18
8728.01361 7.90465e-18
8729.71120 7.92823e-18
8731.40879 7.50047e-18
8733.10637 7.28494e-18
8734.80396 7.46576e-18
8736.50155 7.73344e-18
8738.19914 7.86816e-18
8739.89673 7.74072e-18
8741.59431 7.36085e-18
8743.29190 6.95143e-18
8744.98949 6.66952e-18
8746.68708 6.54341e-18
8748.38467 6.53621e-18
8750.08226 6.51380e-18
8751.77984 6.38710e-18
8753.47743 6.13898e-18
8755.17502 5.90631e-18
8756.87261 6.19120e-18
8758.57020 7.21903e-18
8760.26778 8.41781e-18
8761.96537 9.18356e-18
8763.66296 9.27374e-18
8765.36055 8.69734e-18
8767.05814 7.97527e-18
8768.75572 7.58726e-18
8770.45331 7.15707e-18
8772.16095 6.18001e-18
8773.85853 4.89978e-18
8775.55612 3.88150e-18
8777.25371 3.73738e-18
8778.95130 4.87105e-18
8780.64889 6.45814e-18
8782.34647 7.06416e-18
8784.04406 6.68875e-18
8785.74165 6.36981e-18
8787.43924 6.35380e-18
8789.13683 6.25619e-18
8790.83441 6.03674e-18
8792.53200 5.91613e-18
8794.22959 5.93400e-18
8795.92718 5.96805e-18
8797.62477 5.85752e-18
8799.32236 5.37333e-18
8801.01994 4.64237e-18
8802.71753 4.34224e-18
8804.41512 4.68866e-18
8806.11271 5.06161e-18
8807.81030 5.06303e-18
8809.50788 4.83817e-18
8811.20547 4.56529e-18
8812.90306 4.40002e-18
8814.60065 4.40256e-18
8816.29824 4.35942e-18
8817.99582 4.12428e-18
8819.69341 3.87598e-18
8821.39100 3.81860e-18
8823.08859 4.01813e-18
8824.78618 4.44779e-18
8826.48376 4.93565e-18
8828.18135 5.28536e-18
8829.87894 5.40784e-18
8831.57653 5.30637e-18
8833.27412 5.14476e-18
8834.97171 5.12554e-18
8836.66929 5.18199e-18
8838.36688 5.11221e-18
8840.06447 4.98868e-18
8841.76206 5.03263e-18
8843.45965 5.10556e-18
8845.15723 4.83269e-18
8846.85482 4.27143e-18
8848.55241 3.86332e-18
8850.25000 3.88822e-18
8851.94759 4.44494e-18
8853.65522 5.38061e-18
8855.34276 6.21244e-18
8857.05040 6.78784e-18
8858.74798 7.48283e-18
8860.44557 8.27936e-18
8862.14316 8.49205e-18
8863.84075 7.85165e-18
8865.53834 6.84750e-18
8867.23592 5.97897e-18
8868.93351 5.66791e-18
8870.63110 5.98179e-18
8872.32869 6.13632e-18
8874.02628 5.63808e-18
8875.72386 5.14771e-18
8877.42145 5.32305e-18
8879.11904 6.17467e-18
8880.81663 7.41319e-18
8882.51422 8.33975e-18
8884.21181 8.36031e-18
8885.90939 7.78238e-18
8887.60698 7.20303e-18
8889.30457 6.68449e-18
8891.00216 6.12754e-18
8892.69975 5.94765e-18
8894.39733 6.64193e-18
8896.09492 7.78061e-18
8897.79251 8.42267e-18
8899.49010 8.41974e-18
8901.18769 8.21638e-18
8902.88527 7.66464e-18
8904.58286 6.20669e-18
8906.28045 4.53887e-18
8907.97804 4.48863e-18
8909.67563 6.07238e-18
8911.37321 7.24856e-18
8913.07080 6.95681e-18
8914.76839 5.44910e-18
8916.46598 3.46489e-18
8918.16357 2.52008e-18
8919.86116 3.08055e-18
8921.55874 3.60534e-18
8923.25633 3.22859e-18
8924.95392 2.74778e-18
8926.65151 2.80948e-18
8928.34910 3.41745e-18
8930.04668 4.35667e-18
8931.74427 5.03795e-18
8933.44186 5.05766e-18
8935.14949 4.76064e-18
8936.83704 4.57176e-18
8938.53462 4.53668e-18
8940.24226 4.60024e-18
8941.93985 4.67771e-18
8943.63743 4.73334e-18
8945.33502 5.13663e-18
8947.03261 6.22295e-18
8948.73020 7.37264e-18
8950.42779 7.66737e-18
8952.12537 7.27234e-18
8953.82296 6.93655e-18
8955.52055 6.69199e-18
8957.21814 6.13301e-18
8958.91573 5.31589e-18
8960.61331 4.62178e-18
8962.31090 4.25843e-18
8964.00849 4.27038e-18
8965.70608 4.56774e-18
8967.40367 4.91457e-18
8969.10125 5.03371e-18
8970.79884 4.60647e-18
8972.49643 3.83776e-18
8974.19402 3.69454e-18
8975.89161 4.47647e-18
8977.58920 5.32239e-18
8979.28678 5.68674e-18
8980.98437 5.81165e-18
8982.68196 5.79347e-18
8984.37955 5.16502e-18
8986.07714 3.94273e-18
8987.77472 3.45272e-18
8989.47231 4.51865e-18
8991.16990 6.07512e-18
8992.86749 7.02876e-18
8994.56508 7.56042e-18
8996.26266 8.03059e-18
8997.96025 8.21281e-18
8999.65784 7.84349e-18
9001.35543 7.06337e-18
9003.05302 6.15825e-18
9004.75061 5.38637e-18
9006.44819 4.91867e-18
9008.14578 4.57959e-18
9009.84337 4.04678e-18
9011.54096 3.34493e-18
9013.23855 2.74493e-18
9014.93613 2.53285e-18
9016.63372 2.96423e-18
9018.33131 3.96427e-18
9020.02890 5.13342e-18
9021.72649 6.12112e-18
9023.43412 6.67315e-18
9025.13171 6.51329e-18
9026.82930 5.35482e-18
9028.52688 3.67857e-18
9030.22447 2.96986e-18
9031.92206 3.70828e-18
9033.61965 4.74900e-18
9035.31724 5.35513e-18
9037.01482 5.69859e-18
9038.71241 5.91730e-18
9040.41000 5.99623e-18
9042.10759 5.92064e-18
9043.80518 5.61607e-18
9045.50276 5.08566e-18
9047.20035 4.59039e-18
9048.89794 4.28868e-18
9050.59553 3.83371e-18
9052.29312 3.00102e-18
9053.99070 2.35861e-18
9055.68829 2.47475e-18
9057.38588 3.15345e-18
9059.08347 3.90773e-18
9060.78106 4.30496e-18
9062.47865 4.06036e-18
9064.17623 3.25903e-18
9065.87382 2.27891e-18
9067.57141 1.96969e-18
9069.26900 3.18465e-18
9070.96659 5.00130e-18
9072.66417 5.39695e-18
9074.36176 4.32152e-18
9076.05935 3.35395e-18
9077.75694 3.15115e-18
9079.45453 3.49980e-18
9081.15211 4.16861e-18
9082.84970 4.83544e-18
9084.54729 5.06083e-18
9086.24488 4.31208e-18
9087.94247 2.86480e-18
9089.64005 2.15126e-18
9091.33764 2.84813e-18
9093.03523 4.32216e-18
9094.73282 5.82746e-18
9096.43041 6.56885e-18
9098.12800 6.27194e-18
9099.82558 5.79658e-18
9101.52317 5.86146e-18
9103.22076 6.45211e-18
9104.92839 7.30125e-18
9106.62598 7.81648e-18
9108.32357 7.58576e-18
9110.01111 6.99516e-18
9111.71875 6.54171e-18
9113.41633 6.28002e-18
9115.11392 6.09658e-18
9116.81151 5.77449e-18
9118.50910 5.15533e-18
9120.20669 4.57780e-18
9121.90427 4.51678e-18
9123.60186 4.92068e-18
9125.29945 5.42242e-18
9126.99704 5.61932e-18
9128.69463 5.17637e-18
9130.39221 4.53559e-18
9132.08980 4.68119e-18
9133.78739 5.45541e-18
9135.48498 5.69794e-18
9137.18257 5.34925e-18
9138.88015 5.46269e-18
9140.57774 6.17831e-18
9142.27533 6.58178e-18
9143.97292 6.38220e-18
9145.67051 6.10692e-18
9147.36810 6.12794e-18
9149.06568 6.60711e-18
9150.76327 7.33339e-18
9152.46086 7.39914e-18
9154.15845 6.40847e-18
9155.85604 5.17767e-18
9157.55362 4.26600e-18
9159.25121 3.14545e-18
9160.94880 1.64505e-18
9162.64639 9.79833e-19
9164.34398 1.96011e-18
9166.04156 3.67764e-18
9167.73915 4.93851e-18
9169.43674 4.94672e-18
9171.13433 3.50509e-18
9172.83192 2.02945e-18
9174.52950 2.08805e-18
9176.22709 3.25455e-18
9177.92468 4.29108e-18
9179.62227 4.66827e-18
9181.31986 4.35469e-18
9183.01745 4.00768e-18
9184.71503 4.60504e-18
9186.42267 5.88300e-18
9188.11021 6.69963e-18
9189.81784 6.66563e-18
9191.50539 6.05015e-18
9193.21302 5.48797e-18
9194.91061 5.97093e-18
9196.60820 7.27565e-18
9198.30578 7.77791e-18
9200.00337 7.02633e-18
9201.70096 6.10383e-18
9203.39855 5.70272e-18
9205.09614 5.94934e-18
9206.79372 6.56932e-18
9208.49131 6.56082e-18
9210.18890 5.57498e-18
9211.88649 4.67419e-18
9213.58408 4.56272e-18
9215.28166 4.77024e-18
9216.97925 4.95373e-18
9218.67684 5.62021e-18
9220.37443 6.91665e-18
9222.07202 7.63752e-18
9223.76960 6.84367e-18
9225.46719 5.16730e-18
9227.16478 3.62913e-18
9228.86237 3.00276e-18
9230.55996 3.64543e-18
9232.25755 4.69415e-18
9233.95513 5.02919e-18
9235.65272 4.87092e-18
9237.35031 5.04501e-18
9239.04790 5.84819e-18
9240.74549 7.19509e-18
9242.44307 8.61523e-18
9244.14066 9.38527e-18
9245.83825 9.22545e-18
9247.53584 8.29152e-18
9249.23343 6.90151e-18
9250.93101 5.53235e-18
9252.62860 4.54948e-18
9254.32619 4.12468e-18
9256.02378 4.33170e-18
9257.72137 5.14266e-18
9259.41895 6.11895e-18
9261.11654 6.28404e-18
9262.81413 5.40078e-18
9264.51172 4.42641e-18
9266.20931 4.02341e-18
9267.91694 4.21054e-18
9269.60448 4.72895e-18
9271.31212 4.79978e-18
9272.99966 4.08975e-18
9274.70729 3.49710e-18
9276.40488 3.70494e-18
9278.10247 4.34567e-18
9279.80006 4.88899e-18
9281.49764 4.90758e-18
9283.19523 4.27041e-18
9284.89282 3.78428e-18
9286.59041 4.22653e-18
9288.28800 5.01559e-18
9289.98559 5.28165e-18
9291.68317 5.42850e-18
9293.38076 6.18989e-18
9295.07835 6.81695e-18
9296.77594 6.11414e-18
9298.47353 5.09219e-18
9300.17111 5.82139e-18
9301.86870 7.62776e-18
9303.56629 7.99833e-18
9305.26388 6.75277e-18
9306.96147 5.63971e-18
9308.65905 5.31338e-18
9310.35664 5.43431e-18
9312.05423 5.53633e-18
9313.75182 4.87504e-18
9315.44941 3.92157e-18
9317.14700 4.82811e-18
9318.84458 7.84834e-18
9320.54217 1.04109e-17
9322.23976 1.06964e-17
9323.93735 8.26877e-18
9325.63494 3.85866e-18
9327.33252 2.75568e-19
9329.03011 -8.46929e-19
9330.72770 -1.11976e-18
9332.42529 -1.88384e-18
9334.12288 -2.56168e-18
9335.82046 -2.39367e-18
9337.51805 -9.38659e-19
9339.21564 1.83544e-18
9340.91323 5.02701e-18
9342.61082 7.57090e-18
9344.30840 8.95068e-18
9346.00599 9.02432e-18
9347.70358 7.92212e-18
9349.41121 6.08209e-18
9351.09876 4.49022e-18
9352.80639 4.13883e-18
9354.49393 4.89185e-18
9356.20157 5.87512e-18
9357.89915 6.36832e-18
9359.59674 5.86880e-18
9361.29433 4.62474e-18
9362.99192 3.53240e-18
9364.68951 2.75612e-18
9366.38709 1.77112e-18
9368.08468 7.36924e-19
9369.78227 4.64878e-19
9371.47986 1.33368e-18
9373.17745 3.27108e-18
9374.87504 5.39416e-18
9376.57262 5.63341e-18
9378.27021 3.68516e-18
9379.96780 2.17808e-18
9381.66539 2.64333e-18
9383.36298 4.29565e-18
9385.06056 6.11365e-18
9386.75815 6.92538e-18
9388.45574 6.34635e-18
9390.15333 6.08472e-18
9391.85092 7.27901e-18
9393.54850 8.47073e-18
9395.24609 8.34099e-18
9396.94368 7.65536e-18
9398.64127 7.42162e-18
9400.33886 7.71531e-18
9402.03644 8.19321e-18
9403.73403 7.99012e-18
9405.43162 6.40806e-18
9407.12921 4.21321e-18
9408.82680 2.78241e-18
9410.52439 2.92036e-18
9412.22197 4.80797e-18
9413.91956 7.42309e-18
9415.61715 9.02703e-18
9417.31474 8.83279e-18
9419.01233 6.98494e-18
9420.70991 4.58979e-18
9422.40750 3.54706e-18
9424.10509 3.87757e-18
9425.80268 3.61650e-18
9427.50027 2.52980e-18
9429.19785 2.41623e-18
9430.89544 3.57771e-18
9432.59303 4.33587e-18
9434.29062 4.18594e-18
9435.98821 4.45442e-18
9437.69584 5.71502e-18
9439.39343 7.20015e-18
9441.09102 8.13767e-18
9442.78860 7.82529e-18
9444.48619 6.23218e-18
9446.18378 4.77039e-18
9447.88137 4.50504e-18
9449.57896 5.10399e-18
9451.27654 5.91698e-18
9452.97413 6.27035e-18
9454.67172 5.76882e-18
9456.36931 4.81004e-18
9458.06690 4.05926e-18
9459.76449 4.23475e-18
9461.46207 5.68980e-18
9463.15966 7.38640e-18
9464.85725 7.95615e-18
9466.55484 7.52108e-18
9468.25243 6.94327e-18
9469.95001 6.50621e-18
9471.64760 6.13601e-18
9473.34519 5.61088e-18
9475.04278 4.62181e-18
9476.74037 3.26093e-18
9478.43795 1.98454e-18
9480.13554 1.70061e-18
9481.83313 3.64184e-18
9483.53072 7.03756e-18
9485.22831 8.94269e-18
9486.92589 8.45597e-18
9488.62348 7.32357e-18
9490.32107 6.57014e-18
9492.01866 6.13152e-18
9493.71625 5.84778e-18
9495.41384 5.28450e-18
9497.11142 4.45476e-18
9498.80901 4.38605e-18
9500.50660 5.47057e-18
9502.20419 6.54126e-18
9503.90178 6.78636e-18
9505.59936 6.82454e-18
9507.29695 7.12510e-18
9508.99454 7.02653e-18
9510.69213 6.00461e-18
9512.38972 4.63942e-18
9514.08730 3.61746e-18
9515.78489 2.74385e-18
9517.48248 1.79624e-18
9519.19011 1.82985e-18
9520.88770 3.80946e-18
9522.58529 6.22427e-18
9524.28288 6.84270e-18
9525.98047 5.91139e-18
9527.67805 5.04659e-18
9529.37564 5.03234e-18
9531.07323 6.01250e-18
9532.77082 7.41282e-18
9534.46841 8.07059e-18
9536.16599 7.70357e-18
9537.86358 6.88887e-18
9539.56117 6.12339e-18
9541.25876 5.82925e-18
9542.95635 5.95828e-18
9544.65394 5.85763e-18
9546.35152 5.20666e-18
9548.04911 4.16971e-18
9549.74670 3.05310e-18
9551.44429 2.30018e-18
9553.14188 2.33815e-18
9554.83946 3.69367e-18
9556.53705 5.98046e-18
9558.23464 6.87437e-18
9559.93223 5.37902e-18
9561.62982 4.07064e-18
9563.32740 4.79157e-18
9565.02499 6.06780e-18
9566.72258 6.32834e-18
9568.42017 5.58366e-18
9570.11776 4.36884e-18
9571.81534 3.55107e-18
9573.51293 3.89331e-18
9575.21052 5.39840e-18
9576.90811 7.59423e-18
9578.60570 9.67718e-18
9580.30329 1.08114e-17
9582.00087 1.06946e-17
9583.69846 9.47639e-18
9585.39605 7.60540e-18
9587.09364 5.72949e-18
9588.79123 4.43276e-18
9590.48881 4.11800e-18
9592.18640 4.46165e-18
9593.88399 4.54315e-18
9595.58158 4.50077e-18
9597.27917 5.49318e-18
9598.97675 7.24496e-18
9600.67434 7.92719e-18
9602.38198 7.14525e-18
9604.07956 6.32572e-18
9605.76711 6.17967e-18
9607.47474 6.34354e-18
9609.17233 6.45338e-18
9610.86992 6.15389e-18
9612.56750 5.36377e-18
9614.26509 4.52801e-18
9615.96268 4.06869e-18
9617.66027 4.26720e-18
9619.35786 5.07258e-18
9621.05544 5.78089e-18
9622.75303 5.77822e-18
9624.45062 4.90526e-18
9626.14821 3.43890e-18
9627.84580 2.52163e-18
9629.54339 3.11393e-18
9631.24097 4.83696e-18
9632.93856 6.79280e-18
9634.63615 8.19914e-18
9636.33374 8.50896e-18
9638.03133 7.85221e-18
9639.72891 6.77914e-18
9641.42650 5.80394e-18
9643.12409 5.32876e-18
9644.82168 5.27968e-18
9646.51927 5.24892e-18
9648.21685 5.23463e-18
9649.91444 5.52827e-18
9651.61203 6.32444e-18
9653.30962 7.73636e-18
9655.00721 8.83620e-18
9656.70479 7.65102e-18
9658.40238 4.70067e-18
9660.09997 3.46632e-18
9661.79756 5.37460e-18
9663.49515 9.00944e-18
9665.19274 1.26044e-17
9666.89032 1.39606e-17
9668.58791 1.23936e-17
9670.28550 1.00236e-17
9671.98309 8.53528e-18
9673.68068 8.10981e-18
9675.37826 8.42357e-18
9677.07585 8.50537e-18
9678.77344 7.57016e-18
9680.47103 5.55962e-18
9682.16862 2.94200e-18
9683.86620 1.11113e-18
9685.56379 1.12580e-18
9687.26138 2.34686e-18
9688.96901 3.61144e-18
9690.66660 4.01743e-18
9692.36419 3.13357e-18
9694.06178 1.95783e-18
9695.75937 1.87096e-18
9697.45695 2.57710e-18
9699.15454 2.94072e-18
9700.85213 2.64725e-18
9702.54972 1.94022e-18
9704.24731 1.35186e-18
9705.94489 1.59915e-18
9707.64248 2.56249e-18
9709.34007 3.38261e-18
9711.03766 3.66030e-18
9712.73525 3.46297e-18
9714.43283 3.12402e-18
9716.13042 3.30723e-18
9717.82801 4.06355e-18
9719.52560 4.62449e-18
9721.22319 4.53075e-18
9722.92078 3.77392e-18
9724.61836 2.73372e-18
9726.31595 2.43955e-18
9728.01354 3.29988e-18
9729.71113 4.45697e-18
9731.40872 5.17816e-18
9733.10630 5.29386e-18
9734.80389 4.93222e-18
9736.50148 4.74553e-18
9738.19907 5.17232e-18
9739.89666 5.84421e-18
9741.59424 6.21472e-18
9743.29183 5.66888e-18
9744.98942 4.02293e-18
9746.68701 2.68427e-18
9748.38460 3.02887e-18
9750.08219 4.06662e-18
9751.77977 4.10995e-18
9753.47736 2.97674e-18
9755.17495 1.38849e-18
9756.87254 6.92268e-19
9758.57013 2.26114e-18
9760.26771 5.08034e-18
9761.96530 6.57334e-18
9763.66289 5.88190e-18
9765.36048 3.67484e-18
9767.05807 1.40673e-18
9768.75565 1.24419e-18
9770.45324 3.21942e-18
9772.16088 4.96177e-18
9773.85846 5.56154e-18
9775.55605 5.94460e-18
9777.25364 6.64861e-18
9778.95123 7.72616e-18
9780.64882 8.98560e-18
9782.34640 9.82540e-18
9784.04399 9.78115e-18
9785.74158 8.64307e-18
9787.43917 6.66043e-18
9789.13676 4.94182e-18
9790.83434 4.16283e-18
9792.53193 3.74095e-18
9794.22952 3.08861e-18
9795.92711 2.13133e-18
9797.62470 1.07758e-18
9799.32228 7.75030e-19
9801.01987 1.75040e-18
9802.71746 2.82595e-18
9804.41505 2.77028e-18
9806.11264 2.33146e-18
9807.81023 2.73259e-18
9809.50781 3.87095e-18
9811.20540 4.99673e-18
9812.90299 5.23184e-18
9814.60058 3.88854e-18
9816.29817 1.88828e-18
9817.99575 1.07310e-18
9819.69334 1.61830e-18
9821.39093 2.41420e-18
9823.08852 3.10599e-18
9824.78611 3.93562e-18
9826.48369 4.60647e-18
9828.18128 4.40216e-18
9829.87887 3.57520e-18
9831.57646 3.43504e-18
9833.27405 4.48185e-18
9834.97163 6.15813e-18
9836.66922 7.69954e-18
9838.36681 8.05513e-18
9840.06440 6.96586e-18
9841.76199 5.56934e-18
9843.45958 4.71357e-18
9845.15716 4.41130e-18
9846.85475 4.49452e-18
9848.55234 4.60625e-18
9850.24993 4.49210e-18
9851.94752 4.35440e-18
9853.65515 4.32955e-18
9855.34269 4.01459e-18
9857.05033 3.15149e-18
9858.74791 2.38336e-18
9860.44550 2.32287e-18
9862.14309 2.32790e-18
9863.84068 1.69119e-18
9865.53827 1.55182e-18
9867.23585 3.29425e-18
9868.93344 5.47163e-18
9870.63103 5.73896e-18
9872.32862 5.38245e-18
9874.02621 7.35418e-18
9875.72379 1.07213e-17
9877.42138 1.20501e-17
9879.11897 9.81964e-18
9880.81656 4.25466e-18
9882.51415 -2.00911e-18
9884.21173 -4.13702e-18
9885.90932 -1.56610e-18
9887.60691 1.47487e-18
9889.30450 2.57037e-18
9891.00209 1.58551e-18
9892.69968 -3.79095e-19
9894.39726 -2.71421e-19
9896.09485 2.70832e-18
9897.79244 5.48420e-18
9899.49003 5.90310e-18
9901.18762 3.85290e-18
9902.88520 2.60002e-19
9904.58279 -2.18155e-18
9906.28038 -1.87575e-18
9907.97797 -4.42757e-19
9909.67556 4.75324e-19
9911.37314 8.75971e-19
9913.07073 1.13258e-18
9914.76832 1.65791e-18
9916.46591 2.72977e-18
9918.16350 4.06916e-18
9919.86108 5.18966e-18
9921.55867 5.65014e-18
9923.25626 5.20994e-18
9924.95385 4.20259e-18
9926.65144 3.24504e-18
9928.34903 2.88273e-18
9930.04661 3.42024e-18
9931.74420 4.09108e-18
9933.44179 3.57628e-18
9935.14942 2.22378e-18
9936.83697 1.60618e-18
9938.54460 1.96018e-18
9940.23214 2.36861e-18
9941.93978 2.33616e-18
9943.63736 1.73498e-18
9945.33495 8.81887e-19
9947.03254 7.09635e-19
9948.73013 1.10725e-18
9950.42772 4.80503e-19
9952.12530 -1.44046e-18
9953.82289 -2.85957e-18
9955.52048 -2.68314e-18
9957.21807 -1.21195e-18
9958.91566 1.08993e-18
9960.61324 3.68568e-18
9962.31083 6.12521e-18
9964.00842 8.43901e-18
9965.70601 1.03913e-17
9967.40360 1.07896e-17
9969.10118 8.95980e-18
9970.79877 5.82850e-18
9972.49636 2.77542e-18
9974.19395 1.19669e-18
9975.89154 1.88466e-18
9977.58913 3.86020e-18
9979.28671 5.54423e-18
9980.98430 6.16071e-18
9982.68189 5.49132e-18
9984.37948 3.71056e-18
9986.07707 1.38842e-18
9987.77465 -6.21058e-19
9989.47224 -1.45026e-18
9991.16983 -7.11321e-19
9992.86742 1.43530e-18
9994.56501 3.56384e-18
9996.26259 3.39777e-18
9997.96018 1.53427e-18
9999.65777 1.30435e-18
