# wavelength flux
3799.99774 5.62950e-18
3801.52609 5.49061e-18
3803.04425 5.35173e-18
3804.56241 5.29802e-18
3806.09076 5.24431e-18
3807.60892 5.57080e-18
3809.12708 5.89725e-18
3810.65543 5.38699e-18
3812.17359 4.87678e-18
3813.69175 4.16052e-18
3815.22010 3.44435e-18
3816.73827 4.12982e-18
3818.26662 4.81521e-18
3819.78478 5.14045e-18
3821.30294 5.46566e-18
3822.83129 4.57960e-18
3824.34945 3.69365e-18
3825.86761 2.40938e-18
3827.39596 1.12526e-18
3828.91412 1.83697e-18
3830.43228 2.54860e-18
3831.96063 2.41027e-18
3833.47879 2.27196e-18
3834.99695 1.99428e-18
3836.52530 1.71663e-18
3838.04346 1.73418e-18
3839.56163 1.75174e-18
3841.08998 1.35610e-18
3842.60814 9.60506e-19
3844.13649 7.72536e-19
3845.65465 5.84589e-19
3847.17281 8.44131e-19
3848.70116 1.10365e-18
3850.21932 1.80885e-18
3851.73748 2.51398e-18
3853.26583 7.40770e-19
3854.78399 -1.03225e-18
3856.30215 3.07589e-19
3857.83050 1.64730e-18
3859.34866 1.76237e-18
3860.87701 1.87742e-18
3862.39517 1.06164e-18
3863.91334 2.45935e-19
3865.44169 4.54059e-19
3866.95985 6.62167e-19
3868.47801 1.16499e-18
3870.00636 1.66776e-18
3871.52452 2.08704e-18
3873.04268 2.50626e-18
3874.57103 1.69101e-18
3876.08919 8.75835e-19
3877.60735 3.44552e-19
3879.13570 -1.86669e-19
3880.65386 5.83099e-19
3882.18221 1.35280e-18
3883.70037 1.57950e-18
3885.21853 1.80618e-18
3886.74688 1.23671e-18
3888.26505 6.67294e-19
3889.78321 6.87296e-19
3891.31156 7.07303e-19
3892.82972 7.61283e-19
3894.34788 8.15257e-19
3895.87623 1.30512e-18
3897.39439 1.79494e-18
3898.91255 1.00353e-18
3900.44090 2.12201e-19
3901.95906 6.95236e-19
3903.47722 1.17823e-18
3905.00557 1.30544e-18
3906.52373 1.43262e-18
3908.05208 1.70192e-18
3909.57024 1.97120e-18
3911.08841 2.71658e-18
3912.61676 3.46188e-18
3914.13492 3.05171e-18
3915.65308 2.64157e-18
3917.18143 3.02386e-18
3918.69959 3.40611e-18
3920.21775 3.12393e-18
3921.74610 2.84178e-18
3923.26426 2.37334e-18
3924.78242 1.90495e-18
3926.31077 1.08683e-18
3927.82893 2.68801e-19
3929.35728 9.85097e-19
3930.87544 1.70134e-18
3932.39360 1.66938e-18
3933.92195 1.63741e-18
3935.44012 1.83341e-18
3936.95828 2.02940e-18
3938.48663 2.22461e-18
3940.00479 2.41980e-18
3941.52295 2.75179e-18
3943.05130 3.08375e-18
3944.56946 3.42529e-18
3946.09781 3.76679e-18
3947.61597 3.70142e-18
3949.13413 3.63604e-18
3950.66248 3.42545e-18
3952.18064 3.21488e-18
3953.69880 3.70026e-18
3955.22715 4.18561e-18
3956.74531 3.84881e-18
3958.26348 3.51203e-18
3959.79183 2.90822e-18
3961.30999 2.30447e-18
3962.82815 2.98655e-18
3964.35650 3.66859e-18
3965.87466 3.76536e-18
3967.39282 3.86211e-18
3968.92117 4.60112e-18
3970.43933 5.34006e-18
3971.96768 5.35326e-18
3973.48584 5.36644e-18
3975.00400 5.67803e-18
3976.53235 5.98959e-18
3978.05051 6.19311e-18
3979.56867 6.39660e-18
3981.09702 6.79707e-18
3982.61519 7.19751e-18
3984.13335 6.99566e-18
3985.66170 6.79382e-18
3987.17986 6.88717e-18
3988.69802 6.98052e-18
3990.22637 7.40287e-18
3991.74453 7.82517e-18
3993.27288 8.47432e-18
3994.79104 9.12341e-18
3996.30920 8.82767e-18
3997.83755 8.53194e-18
3999.35571 8.27780e-18
4000.87387 8.02369e-18
4002.40222 7.68288e-18
4003.92038 7.34211e-18
4005.43855 8.10712e-18
4006.96690 8.87208e-18
4008.48506 8.83614e-18
4010.00322 8.80019e-18
4011.53157 9.39630e-18
4013.04973 9.99238e-18
4014.57808 9.53854e-18
4016.09624 9.08472e-18
4017.61440 9.78234e-18
4019.14275 1.04799e-17
4020.66091 1.00087e-17
4022.17907 9.53759e-18
4023.70742 9.88269e-18
4025.22558 1.02278e-17
4026.74374 9.13331e-18
4028.27209 8.03891e-18
4029.79026 8.60158e-18
4031.31861 9.16424e-18
4032.83677 9.18981e-18
4034.35493 9.21536e-18
4035.88328 9.44043e-18
4037.40144 9.66548e-18
4038.91960 9.30975e-18
4040.44795 8.95403e-18
4041.96611 8.85841e-18
4043.48427 8.76281e-18
4045.01262 8.98552e-18
4046.53078 9.20823e-18
4048.04894 9.86686e-18
4049.57729 1.05254e-17
4051.09545 1.04153e-17
4052.62380 1.03052e-17
4054.14197 1.02304e-17
4055.66013 1.01556e-17
4057.18848 9.49784e-18
4058.70664 8.84016e-18
4060.22480 9.47769e-18
4061.75315 1.01152e-17
4063.27131 1.08213e-17
4064.78947 1.15273e-17
4066.31782 1.12380e-17
4067.83598 1.09488e-17
4069.35414 1.09039e-17
4070.88249 1.08591e-17
4072.40065 1.01901e-17
4073.91881 9.52107e-18
4075.44716 1.08945e-17
4076.96533 1.22679e-17
4078.49368 1.20835e-17
4080.01184 1.18991e-17
4081.53000 1.10503e-17
4083.05835 1.02016e-17
4084.57651 1.04683e-17
4086.09467 1.07351e-17
4087.62302 1.12718e-17
4089.14118 1.18084e-17
4090.65934 1.24246e-17
4092.18769 1.30408e-17
4093.70585 1.23723e-17
4095.22401 1.17038e-17
4096.75236 1.09053e-17
4098.27052 1.01069e-17
4099.79887 1.04235e-17
4101.31704 1.07401e-17
4102.83520 1.08235e-17
4104.36355 1.09070e-17
4105.88171 1.16208e-17
4107.39987 1.23346e-17
4108.92822 1.12438e-17
4110.44638 1.01530e-17
4111.96454 1.03844e-17
4113.49289 1.06158e-17
4115.01105 1.10578e-17
4116.52921 1.14998e-17
4118.05756 1.17870e-17
4119.57572 1.20742e-17
4121.10407 1.16870e-17
4122.62223 1.12998e-17
4124.14040 1.14845e-17
4125.66875 1.16691e-17
4127.18691 1.14338e-17
4128.70507 1.11986e-17
4130.23342 1.02996e-17
4131.75158 9.40063e-18
4133.26974 9.60973e-18
4134.79809 9.81885e-18
4136.31625 1.04301e-17
4137.84460 1.10414e-17
4139.36276 1.08141e-17
4140.88092 1.05868e-17
4142.40927 1.06716e-17
4143.92743 1.07564e-17
4145.44560 1.01871e-17
4146.97394 9.61779e-18
4148.49211 9.90476e-18
4150.01027 1.01918e-17
4151.53862 1.02631e-17
4153.05678 1.03345e-17
4154.57494 1.00297e-17
4156.10329 9.72490e-18
4157.62145 1.00580e-17
4159.14980 1.03910e-17
4160.66796 9.66406e-18
4162.18612 8.93711e-18
4163.71447 9.22181e-18
4165.23263 9.50652e-18
4166.75079 9.25138e-18
4168.27914 8.99624e-18
4169.79730 8.01735e-18
4171.31547 7.03852e-18
4172.84382 7.46437e-18
4174.36198 7.89025e-18
4175.88014 8.51911e-18
4177.40849 9.14791e-18
4178.92665 8.47577e-18
4180.45500 7.80362e-18
4181.97316 7.78481e-18
4183.49132 7.76602e-18
4185.01967 8.68656e-18
4186.53783 9.60707e-18
4188.05599 9.59113e-18
4189.58434 9.57516e-18
4191.10250 8.80683e-18
4192.62067 8.03854e-18
4194.14901 8.87895e-18
4195.66718 9.71934e-18
4197.18534 9.76907e-18
4198.71369 9.81876e-18
4200.23185 9.48223e-18
4201.75001 9.14571e-18
4203.27836 9.24367e-18
4204.79652 9.34163e-18
4206.32487 9.66736e-18
4207.84303 9.99305e-18
4209.36119 1.02450e-17
4210.88954 1.04970e-17
4212.40770 1.01306e-17
4213.92586 9.76428e-18
4215.45421 9.43276e-18
4216.97237 9.10127e-18
4218.49054 8.80353e-18
4220.01889 8.50582e-18
4221.53705 8.59043e-18
4223.06540 8.67505e-18
4224.58356 9.44552e-18
4226.10172 1.02159e-17
4227.63007 9.60914e-18
4229.14823 9.00232e-18
4230.66639 9.29969e-18
4232.19474 9.59708e-18
4233.71290 9.83265e-18
4235.23106 1.00682e-17
4236.75941 9.36658e-18
4238.27757 8.66498e-18
4239.79573 8.54094e-18
4241.32408 8.41694e-18
4242.84225 8.48211e-18
4244.37060 8.54728e-18
4245.88876 8.40482e-18
4247.40692 8.26236e-18
4248.93527 8.43870e-18
4250.45343 8.61505e-18
4251.97159 8.90147e-18
4253.49994 9.18787e-18
4255.01810 9.11349e-18
4256.53626 9.03910e-18
4258.06461 8.70356e-18
4259.58277 8.36803e-18
4261.10093 8.40980e-18
4262.62928 8.45157e-18
4264.14744 8.80538e-18
4265.66561 9.15916e-18
4267.19396 9.47600e-18
4268.71212 9.79280e-18
4270.24047 9.47132e-18
4271.75863 9.14984e-18
4273.27679 9.42008e-18
4274.80514 9.69032e-18
4276.32330 9.27581e-18
4277.84146 8.86131e-18
4279.36981 8.83178e-18
4280.88797 8.80227e-18
4282.40613 8.91975e-18
4283.93448 9.03722e-18
4285.45264 8.61445e-18
4286.98099 8.19170e-18
4288.49915 9.17237e-18
4290.01732 1.01530e-17
4291.54567 9.59242e-18
4293.06383 9.03178e-18
4294.58199 9.19807e-18
4296.11034 9.36438e-18
4297.62850 9.48366e-18
4299.14666 9.60293e-18
4300.67501 8.83527e-18
4302.19317 8.06764e-18
4303.71133 8.25928e-18
4305.23968 8.45095e-18
4306.75784 8.58920e-18
4308.28619 8.72743e-18
4309.80435 8.74693e-18
4311.32251 8.76643e-18
4312.85087 8.32861e-18
4314.36903 7.89080e-18
4315.88719 7.43567e-18
4317.41554 6.98059e-18
4318.93370 7.41469e-18
4320.45186 7.84881e-18
4321.98021 7.96960e-18
4323.49837 8.09037e-18
4325.01653 7.48854e-18
4326.54488 6.88674e-18
4328.06304 7.09128e-18
4329.58120 7.29585e-18
4331.10955 7.55555e-18
4332.62771 7.81522e-18
4334.15606 7.81430e-18
4335.67422 7.81335e-18
4337.19239 7.65308e-18
4338.72074 7.49281e-18
4340.23890 7.82862e-18
4341.75706 8.16441e-18
4343.28541 8.12114e-18
4344.80357 8.07784e-18
4346.32173 7.59143e-18
4347.85008 7.10504e-18
4349.36824 6.94621e-18
4350.89659 6.78742e-18
4352.41475 7.12171e-18
4353.93291 7.45600e-18
4355.46126 7.74822e-18
4356.97942 8.04041e-18
4358.49758 8.11806e-18
4360.02593 8.19568e-18
4361.54410 8.13905e-18
4363.06226 8.08241e-18
4364.59061 8.23933e-18
4366.10877 8.39623e-18
4367.62693 8.19604e-18
4369.15528 7.99584e-18
4370.67344 7.97402e-18
4372.19160 7.95221e-18
4373.71995 7.83575e-18
4375.23811 7.71928e-18
4376.76646 7.83449e-18
4378.28462 7.94970e-18
4379.80278 8.31930e-18
4381.33113 8.68888e-18
4382.84929 8.54748e-18
4384.36746 8.40606e-18
4385.89581 8.47022e-18
4387.41397 8.53438e-18
4388.93213 8.23642e-18
4390.46048 7.93847e-18
4391.97864 7.70609e-18
4393.49680 7.47375e-18
4395.02515 8.25725e-18
4396.54331 9.04074e-18
4398.07166 8.47679e-18
4399.58982 7.91281e-18
4401.10798 7.92614e-18
4402.63633 7.93950e-18
4404.15449 7.87931e-18
4405.67265 7.81911e-18
4407.20100 7.55649e-18
4408.71917 7.29389e-18
4410.23733 7.42787e-18
4411.76568 7.56188e-18
4413.28384 7.72247e-18
4414.81219 7.88305e-18
4416.33035 7.86854e-18
4417.84851 7.85402e-18
4419.37686 7.60646e-18
4420.89502 7.35890e-18
4422.41318 7.39883e-18
4423.94153 7.43877e-18
4425.45969 7.24005e-18
4426.97785 7.04133e-18
4428.50620 7.37779e-18
4430.02437 7.71426e-18
4431.54253 7.54142e-18
4433.07088 7.36856e-18
4434.58904 7.13751e-18
4436.10720 6.90648e-18
4437.63555 6.92256e-18
4439.15371 6.93866e-18
4440.68206 7.00742e-18
4442.20022 7.07619e-18
4443.71838 7.16440e-18
4445.24673 7.25260e-18
4446.76489 6.59808e-18
4448.28305 5.94358e-18
4449.81140 5.75321e-18
4451.32956 5.56289e-18
4452.84772 5.89281e-18
4454.37607 6.22273e-18
4455.89424 6.19916e-18
4457.41240 6.17556e-18
4458.94075 5.79148e-18
4460.45891 5.40741e-18
4461.98726 5.34417e-18
4463.50542 5.28096e-18
4465.02358 5.53875e-18
4466.55193 5.79654e-18
4468.07009 5.49811e-18
4469.58825 5.19968e-18
4471.11660 5.34448e-18
4472.63476 5.48931e-18
4474.15292 5.26857e-18
4475.68127 5.04783e-18
4477.19943 5.68622e-18
4478.72778 6.32461e-18
4480.24595 6.34073e-18
4481.76411 6.35680e-18
4483.29246 6.15809e-18
4484.81062 5.95937e-18
4486.32878 6.27140e-18
4487.85713 6.58344e-18
4489.37529 6.24354e-18
4490.89345 5.90363e-18
4492.42180 6.17562e-18
4493.93996 6.44763e-18
4495.45812 6.26122e-18
4496.98647 6.07480e-18
4498.50463 6.33612e-18
4500.02279 6.59746e-18
4501.55114 7.17227e-18
4503.06931 7.74704e-18
4504.59766 7.65330e-18
4506.11582 7.55950e-18
4507.63398 7.44174e-18
4509.16233 7.32398e-18
4510.68049 7.82390e-18
4512.19865 8.32382e-18
4513.72700 8.21594e-18
4515.24516 8.10802e-18
4516.76332 7.99612e-18
4518.29167 7.88422e-18
4519.80983 8.24296e-18
4521.32799 8.60169e-18
4522.85634 8.47895e-18
4524.37450 8.35617e-18
4525.90285 8.44860e-18
4527.42102 8.54105e-18
4528.93918 8.41178e-18
4530.46753 8.28251e-18
4531.98569 8.76680e-18
4533.50385 9.25108e-18
4535.03220 9.06315e-18
4536.55036 8.87519e-18
4538.06852 8.83172e-18
4539.59687 8.78827e-18
4541.11503 9.08755e-18
4542.63319 9.38682e-18
4544.16154 9.44449e-18
4545.67970 9.50213e-18
4547.20805 9.03235e-18
4548.72621 8.56258e-18
4550.24438 8.77414e-18
4551.77273 8.98574e-18
4553.29089 8.74963e-18
4554.80905 8.51351e-18
4556.33740 8.75629e-18
4557.85556 8.99908e-18
4559.37372 8.63740e-18
4560.90207 8.27570e-18
4562.42023 8.34902e-18
4563.93839 8.42238e-18
4565.46674 8.69994e-18
4566.98490 8.97750e-18
4568.51325 8.79250e-18
4570.03141 8.60747e-18
4571.54958 8.37542e-18
4573.07792 8.14339e-18
4574.59609 8.30654e-18
4576.11425 8.46970e-18
4577.64260 8.56553e-18
4579.16076 8.66133e-18
4580.67892 8.73621e-18
4582.20727 8.81108e-18
4583.72543 8.88546e-18
4585.25378 8.95984e-18
4586.77194 8.47317e-18
4588.29010 7.98649e-18
4589.81845 8.52605e-18
4591.33661 9.06564e-18
4592.85477 8.79766e-18
4594.38312 8.52962e-18
4595.90128 8.42174e-18
4597.41945 8.31388e-18
4598.94780 8.72508e-18
4600.46596 9.13628e-18
4601.98412 9.16752e-18
4603.51247 9.19871e-18
4605.03063 9.31762e-18
4606.54879 9.43653e-18
4608.07714 9.41943e-18
4609.59530 9.40231e-18
4611.12365 9.50626e-18
4612.64181 9.61020e-18
4614.15997 9.42407e-18
4615.68832 9.23792e-18
4617.20648 9.27836e-18
4618.72465 9.31881e-18
4620.25299 9.82896e-18
4621.77116 1.03391e-17
4623.28932 1.01175e-17
4624.81767 9.89579e-18
4626.33583 1.02568e-17
4627.86418 1.06177e-17
4629.38234 1.05285e-17
4630.90050 1.04393e-17
4632.42885 1.07630e-17
4633.94701 1.10867e-17
4635.46517 1.12479e-17
4636.99352 1.14090e-17
4638.51168 1.08994e-17
4640.02984 1.03897e-17
4641.55819 1.07257e-17
4643.07635 1.10618e-17
4644.59452 1.11252e-17
4646.12287 1.11886e-17
4647.64103 1.12410e-17
4649.16938 1.12933e-17
4650.68754 1.14185e-17
4652.20570 1.15436e-17
4653.73405 1.14061e-17
4655.25221 1.12685e-17
4656.77037 1.09278e-17
4658.29872 1.05872e-17
4659.81688 1.10348e-17
4661.33504 1.14824e-17
4662.86339 1.16371e-17
4664.38155 1.17918e-17
4665.89971 1.16354e-17
4667.42807 1.14789e-17
4668.94623 1.11857e-17
4670.46439 1.08924e-17
4671.99274 1.08996e-17
4673.51090 1.09068e-17
4675.03925 1.08483e-17
4676.55741 1.07897e-17
4678.07557 1.10478e-17
4679.60392 1.13059e-17
4681.12208 1.17544e-17
4682.64024 1.22029e-17
4684.16859 1.22175e-17
4685.68675 1.22320e-17
4687.20491 1.17962e-17
4688.73326 1.13603e-17
4690.25142 1.09102e-17
4691.77977 1.04602e-17
4693.29794 1.02998e-17
4694.81610 1.01393e-17
4696.34445 1.06256e-17
4697.86261 1.11119e-17
4699.38077 1.12194e-17
4700.90912 1.13269e-17
4702.42728 1.08495e-17
4703.94544 1.03720e-17
4705.47379 1.04893e-17
4706.99195 1.06066e-17
4708.51011 1.07057e-17
4710.03846 1.08048e-17
4711.55662 1.09001e-17
4713.07478 1.09952e-17
4714.60313 1.09036e-17
4716.12130 1.08120e-17
4717.64965 1.08157e-17
4719.16781 1.08195e-17
4720.68597 1.13830e-17
4722.21432 1.19464e-17
4723.73248 1.23042e-17
4725.25064 1.26619e-17
4726.77899 1.26155e-17
4728.29715 1.25691e-17
4729.81531 1.23929e-17
4731.34366 1.22168e-17
4732.86182 1.19546e-17
4734.37998 1.16924e-17
4735.90833 1.20809e-17
4737.42649 1.24694e-17
4738.95485 1.25311e-17
4740.47301 1.25927e-17
4741.99117 1.28907e-17
4743.51952 1.31888e-17
4745.03768 1.34717e-17
4746.55584 1.37546e-17
4748.08419 1.31906e-17
4749.60235 1.26265e-17
4751.12051 1.25699e-17
4752.64886 1.25133e-17
4754.16702 1.32667e-17
4755.69537 1.40201e-17
4757.21353 1.41079e-17
4758.73169 1.41956e-17
4760.26004 1.37575e-17
4761.77820 1.33194e-17
4763.29637 1.30217e-17
4764.82472 1.27240e-17
4766.34288 1.30788e-17
4767.86104 1.34336e-17
4769.38939 1.28085e-17
4770.90755 1.21834e-17
4772.42571 1.22981e-17
4773.95406 1.24128e-17
4775.47222 1.23562e-17
4776.99038 1.22995e-17
4778.51873 1.23616e-17
4780.03689 1.24237e-17
4781.56524 1.24379e-17
4783.08340 1.24521e-17
4784.60156 1.21905e-17
4786.12991 1.19289e-17
4787.64808 1.18125e-17
4789.16624 1.16961e-17
4790.69459 1.19753e-17
4792.21275 1.22545e-17
4793.73091 1.25495e-17
4795.25926 1.28446e-17
4796.77742 1.25103e-17
4798.29558 1.21761e-17
4799.82393 1.21870e-17
4801.34209 1.21981e-17
4802.87044 1.23980e-17
4804.38860 1.25978e-17
4805.90676 1.26491e-17
4807.43511 1.27003e-17
4808.95327 1.24430e-17
4810.47144 1.21856e-17
4811.99979 1.20607e-17
4813.51795 1.19358e-17
4815.03611 1.19967e-17
4816.56446 1.20576e-17
4818.08262 1.18696e-17
4819.61097 1.16816e-17
4821.12913 1.15307e-17
4822.64729 1.13797e-17
4824.17564 1.18846e-17
4825.69380 1.23895e-17
4827.21196 1.24050e-17
4828.74031 1.24206e-17
4830.25847 1.21814e-17
4831.77663 1.19423e-17
4833.30498 1.16644e-17
4834.82315 1.13866e-17
4836.34131 1.12942e-17
4837.86966 1.12018e-17
4839.38782 1.09285e-17
4840.90598 1.06552e-17
4842.43433 1.07532e-17
4843.95249 1.08512e-17
4845.48084 1.09157e-17
4846.99900 1.09801e-17
4848.51716 1.10044e-17
4850.04551 1.10287e-17
4851.56367 1.08142e-17
4853.08183 1.05998e-17
4854.61018 1.03721e-17
4856.12835 1.01444e-17
4857.64651 1.00672e-17
4859.17486 9.99011e-18
4860.69302 1.01994e-17
4862.21118 1.04086e-17
4863.73953 1.05434e-17
4865.25769 1.06782e-17
4866.78604 1.06993e-17
4868.30420 1.07204e-17
4869.82236 1.08368e-17
4871.35071 1.09532e-17
4872.86887 1.08141e-17
4874.38703 1.06749e-17
4875.91538 1.03731e-17
4877.43354 1.00714e-17
4878.95170 9.95036e-18
4880.48005 9.82932e-18
4881.99822 9.86598e-18
4883.52657 9.90265e-18
4885.04473 9.72194e-18
4886.56289 9.54123e-18
4888.09124 9.38875e-18
4889.60940 9.23630e-18
4891.12756 9.47070e-18
4892.65591 9.70512e-18
4894.17407 9.36946e-18
4895.69223 9.03377e-18
4897.22058 8.92861e-18
4898.73874 8.82349e-18
4900.25690 8.78433e-18
4901.78525 8.74519e-18
4903.30342 8.67236e-18
4904.82158 8.59953e-18
4906.34993 8.86296e-18
4907.86809 9.12640e-18
4909.39644 8.69978e-18
4910.91460 8.27313e-18
4912.43276 8.07551e-18
4913.96111 7.87795e-18
4915.47927 7.82576e-18
4916.99743 7.77359e-18
4918.52578 7.64370e-18
4920.04394 7.51382e-18
4921.56210 7.44643e-18
4923.09045 7.37906e-18
4924.60861 7.22391e-18
4926.12677 7.06876e-18
4927.65512 6.97757e-18
4929.17329 6.88639e-18
4930.70164 6.85601e-18
4932.21980 6.82564e-18
4933.73796 6.89740e-18
4935.26631 6.96917e-18
4936.78447 7.05147e-18
4938.30263 7.13376e-18
4939.83098 6.91342e-18
4941.34914 6.69307e-18
4942.86730 6.85343e-18
4944.39565 7.01383e-18
4945.91381 7.00401e-18
4947.43197 6.99417e-18
4948.96032 6.61676e-18
4950.47848 6.23934e-18
4952.00683 6.00881e-18
4953.52500 5.77833e-18
4955.04316 5.92562e-18
4956.57151 6.07294e-18
4958.08967 6.22268e-18
4959.60783 6.37240e-18
4961.13618 6.22761e-18
4962.65434 6.08279e-18
4964.17250 5.72960e-18
4965.70085 5.37642e-18
4967.21901 5.33981e-18
4968.73717 5.30325e-18
4970.26552 5.37926e-18
4971.78368 5.45528e-18
4973.31203 5.65944e-18
4974.83019 5.86358e-18
4976.34836 5.74926e-18
4977.87671 5.63490e-18
4979.39487 5.59793e-18
4980.91303 5.56097e-18
4982.44138 5.60355e-18
4983.95954 5.64613e-18
4985.47770 5.88925e-18
4987.00605 6.13236e-18
4988.52421 6.22019e-18
4990.04237 6.30798e-18
4991.57072 6.24759e-18
4993.08888 6.18719e-18
4994.61723 6.08974e-18
4996.13539 5.99230e-18
4997.65355 6.17097e-18
4999.18190 6.34966e-18
5000.70007 6.66151e-18
5002.21823 6.97334e-18
5003.74658 6.77511e-18
5005.26474 6.57682e-18
5006.78290 6.18923e-18
5008.31125 5.80165e-18
5009.82941 6.05963e-18
5011.35776 6.31767e-18
5012.87592 7.05923e-18
5014.39408 7.80077e-18
5015.92243 7.96861e-18
5017.44059 8.13634e-18
5018.95875 7.93620e-18
5020.48710 7.73604e-18
5022.00526 7.73794e-18
5023.52343 7.73987e-18
5025.05178 8.00557e-18
5026.56994 8.27129e-18
5028.08810 8.38804e-18
5029.61645 8.50476e-18
5031.13461 8.45507e-18
5032.66296 8.40537e-18
5034.18112 8.61247e-18
5035.69928 8.81958e-18
5037.22763 9.09488e-18
5038.74579 9.37017e-18
5040.26395 9.38512e-18
5041.79230 9.40004e-18
5043.31046 9.66902e-18
5044.82862 9.93800e-18
5046.35697 1.01775e-17
5047.87514 1.04170e-17
5049.39330 1.04029e-17
5050.92165 1.03888e-17
5052.43981 1.06566e-17
5053.96816 1.09243e-17
5055.48632 1.14735e-17
5057.00448 1.20227e-17
5058.53283 1.22881e-17
5060.05099 1.25535e-17
5061.56915 1.28311e-17
5063.09750 1.31088e-17
5064.61566 1.37373e-17
5066.13382 1.43657e-17
5067.66217 1.46676e-17
5069.18033 1.49694e-17
5070.69850 1.52586e-17
5072.22685 1.55478e-17
5073.74501 1.59373e-17
5075.26317 1.63269e-17
5076.79152 1.67674e-17
5078.30968 1.72078e-17
5079.83803 1.71892e-17
5081.35619 1.71706e-17
5082.87435 1.69403e-17
5084.40270 1.67101e-17
5085.92086 1.72984e-17
5087.43902 1.78867e-17
5088.96737 1.79578e-17
5090.48553 1.80287e-17
5092.00369 1.83907e-17
5093.53204 1.87527e-17
5095.05021 1.89315e-17
5096.57856 1.91104e-17
5098.09672 1.86660e-17
5099.61488 1.82217e-17
5101.14323 1.85511e-17
5102.66139 1.88806e-17
5104.17955 1.92896e-17
5105.70790 1.96985e-17
5107.22606 1.94640e-17
5108.74422 1.92294e-17
5110.27257 1.94961e-17
5111.79073 1.97628e-17
5113.30889 1.97156e-17
5114.83724 1.96684e-17
5116.35540 1.95540e-17
5117.87357 1.94395e-17
5119.40192 1.87485e-17
5120.92008 1.80576e-17
5122.44843 1.83525e-17
5123.96659 1.86476e-17
5125.48475 1.87174e-17
5127.01310 1.87872e-17
5128.53126 1.84589e-17
5130.04942 1.81307e-17
5131.57777 1.80634e-17
5133.09593 1.79961e-17
5134.61409 1.77869e-17
5136.14244 1.75778e-17
5137.66060 1.70761e-17
5139.17876 1.65745e-17
5140.70712 1.63060e-17
5142.22528 1.60376e-17
5143.75363 1.60299e-17
5145.27179 1.60222e-17
5146.78995 1.59278e-17
5148.31830 1.58333e-17
5149.83646 1.55119e-17
5151.35462 1.51906e-17
5152.88297 1.51210e-17
5154.40113 1.50514e-17
5155.91929 1.43908e-17
5157.44764 1.37301e-17
5158.96580 1.33278e-17
5160.49415 1.29255e-17
5162.01231 1.32780e-17
5163.53047 1.36305e-17
5165.05882 1.31007e-17
5166.57699 1.25708e-17
5168.09515 1.21868e-17
5169.62350 1.18028e-17
5171.14166 1.16546e-17
5172.65982 1.15065e-17
5174.18817 1.12043e-17
5175.70633 1.09021e-17
5177.22449 1.11346e-17
5178.75284 1.13672e-17
5180.27100 1.10320e-17
5181.78916 1.06968e-17
5183.31751 1.07555e-17
5184.83567 1.08142e-17
5186.36402 1.09382e-17
5187.88218 1.10622e-17
5189.40035 1.08134e-17
5190.92870 1.05646e-17
5192.44686 1.09899e-17
5193.96502 1.14153e-17
5195.49337 1.09607e-17
5197.01153 1.05060e-17
5198.52969 1.04511e-17
5200.05804 1.03963e-17
5201.57620 1.05785e-17
5203.09436 1.07608e-17
5204.62271 1.03984e-17
5206.14087 1.00359e-17
5207.66922 1.01585e-17
5209.18738 1.02812e-17
5210.70554 1.07356e-17
5212.23389 1.11900e-17
5213.75206 1.10436e-17
5215.27022 1.08972e-17
5216.79857 1.09618e-17
5218.31673 1.10265e-17
5219.83489 1.10910e-17
5221.36324 1.11555e-17
5222.88140 1.11872e-17
5224.40975 1.12189e-17
5225.92791 1.13744e-17
5227.44607 1.15300e-17
5228.97442 1.16740e-17
5230.49258 1.18180e-17
5232.01074 1.21081e-17
5233.53909 1.23982e-17
5235.05725 1.19217e-17
5236.57542 1.14450e-17
5238.10377 1.15014e-17
5239.62193 1.15578e-17
5241.14009 1.15338e-17
5242.66844 1.15098e-17
5244.18660 1.12015e-17
5245.70476 1.08932e-17
5247.23311 1.14398e-17
5248.75127 1.19865e-17
5250.27962 1.20083e-17
5251.79778 1.20300e-17
5253.31594 1.19126e-17
5254.84429 1.17953e-17
5256.36245 1.20102e-17
5257.88062 1.22252e-17
5259.40896 1.22080e-17
5260.92713 1.21907e-17
5262.44529 1.26664e-17
5263.97364 1.31420e-17
5265.49180 1.26670e-17
5267.00996 1.21919e-17
5268.53831 1.21778e-17
5270.05647 1.21638e-17
5271.58482 1.18639e-17
5273.10298 1.15640e-17
5274.62114 1.16807e-17
5276.14949 1.17974e-17
5277.66765 1.16141e-17
5279.18581 1.14307e-17
5280.71416 1.12679e-17
5282.23232 1.11051e-17
5283.75049 1.09531e-17
5285.27884 1.08012e-17
5286.79700 1.11188e-17
5288.32535 1.14365e-17
5289.84351 1.12467e-17
5291.36167 1.10569e-17
5292.89002 1.10781e-17
5294.40818 1.10993e-17
5295.92634 1.12570e-17
5297.45469 1.14147e-17
5298.97285 1.15269e-17
5300.49101 1.16390e-17
5302.01936 1.15643e-17
5303.53752 1.14896e-17
5305.05568 1.14517e-17
5306.58403 1.14138e-17
5308.10220 1.12451e-17
5309.62036 1.10764e-17
5311.14871 1.11468e-17
5312.66687 1.12174e-17
5314.19522 1.12431e-17
5315.71338 1.12689e-17
5317.23154 1.10370e-17
5318.75989 1.08050e-17
5320.27805 1.06487e-17
5321.79621 1.04924e-17
5323.32456 1.05065e-17
5324.84272 1.05206e-17
5326.36088 1.07775e-17
5327.88923 1.10345e-17
5329.40740 1.13163e-17
5330.92556 1.15980e-17
5332.45391 1.08521e-17
5333.97207 1.01062e-17
5335.50042 1.05378e-17
5337.01858 1.09696e-17
5338.53674 1.08168e-17
5340.06509 1.06639e-17
5341.58325 1.06952e-17
5343.10141 1.07266e-17
5344.62976 1.07445e-17
5346.14792 1.07624e-17
5347.66608 1.07852e-17
5349.19443 1.08081e-17
5350.71259 1.06408e-17
5352.23075 1.04735e-17
5353.75910 1.07081e-17
5355.27727 1.09428e-17
5356.80562 1.07084e-17
5358.32378 1.04740e-17
5359.84194 1.04955e-17
5361.37029 1.05171e-17
5362.88845 1.09559e-17
5364.40661 1.13947e-17
5365.93496 1.14323e-17
5367.45312 1.14699e-17
5368.97128 1.14200e-17
5370.49963 1.13702e-17
5372.01779 1.13583e-17
5373.53595 1.13464e-17
5375.06430 1.13258e-17
5376.58246 1.13052e-17
5378.11082 1.16156e-17
5379.62898 1.19260e-17
5381.14714 1.22822e-17
5382.67549 1.26383e-17
5384.19365 1.20868e-17
5385.71181 1.15351e-17
5387.24016 1.16010e-17
5388.75832 1.16669e-17
5390.27648 1.16796e-17
5391.80483 1.16923e-17
5393.32299 1.20838e-17
5394.84115 1.24752e-17
5396.36950 1.27509e-17
5397.88766 1.30266e-17
5399.41601 1.31051e-17
5400.93417 1.31836e-17
5402.45234 1.29949e-17
5403.98069 1.28062e-17
5405.49885 1.31152e-17
5407.01701 1.34242e-17
5408.54536 1.36090e-17
5410.06352 1.37937e-17
5411.58168 1.38477e-17
5413.11003 1.39017e-17
5414.62819 1.33515e-17
5416.14635 1.28012e-17
5417.67470 1.26429e-17
5419.19286 1.24848e-17
5420.72121 1.22457e-17
5422.23937 1.20066e-17
5423.75753 1.19314e-17
5425.28588 1.18563e-17
5426.80405 1.23820e-17
5428.32221 1.29077e-17
5429.85056 1.34419e-17
5431.36872 1.39760e-17
5432.88688 1.34719e-17
5434.41523 1.29677e-17
5435.93339 1.27699e-17
5437.46174 1.25722e-17
5438.97990 1.31998e-17
5440.49806 1.38276e-17
5442.02641 1.36872e-17
5443.54457 1.35467e-17
5445.06273 1.34096e-17
5446.59108 1.32725e-17
5448.10924 1.30815e-17
5449.62741 1.28905e-17
5451.15576 1.30010e-17
5452.67392 1.31115e-17
5454.19208 1.28460e-17
5455.72043 1.25804e-17
5457.23859 1.26389e-17
5458.76694 1.26976e-17
5460.28510 1.28042e-17
5461.80326 1.29109e-17
5463.33161 1.26395e-17
5464.84977 1.23681e-17
5466.36793 1.26824e-17
5467.89628 1.29968e-17
5469.41444 1.30519e-17
5470.93260 1.31068e-17
5472.46095 1.33308e-17
5473.97912 1.35548e-17
5475.49728 1.34913e-17
5477.02563 1.34278e-17
5478.54379 1.34884e-17
5480.07214 1.35489e-17
5481.59030 1.34267e-17
5483.10846 1.33045e-17
5484.63681 1.33384e-17
5486.15497 1.33722e-17
5487.67313 1.33321e-17
5489.20148 1.32919e-17
5490.71964 1.36315e-17
5492.23780 1.39711e-17
5493.76615 1.43236e-17
5495.28431 1.46760e-17
5496.80248 1.46246e-17
5498.33083 1.45732e-17
5499.84899 1.42555e-17
5501.37734 1.39377e-17
5502.89550 1.41131e-17
5504.41366 1.42886e-17
5505.94201 1.43302e-17
5507.46017 1.43717e-17
5508.97833 1.43704e-17
5510.50668 1.43690e-17
5512.02484 1.45769e-17
5513.54300 1.47848e-17
5515.07135 1.48300e-17
5516.58951 1.48751e-17
5518.10767 1.46917e-17
5519.63602 1.45082e-17
5521.15419 1.41937e-17
5522.67235 1.38792e-17
5524.20070 1.38200e-17
5525.71886 1.37608e-17
5527.24721 1.37328e-17
5528.76537 1.37049e-17
5530.28353 1.37476e-17
5531.81188 1.37903e-17
5533.33004 1.36653e-17
5534.84820 1.35403e-17
5536.37655 1.30381e-17
5537.89471 1.25359e-17
5539.41287 1.24355e-17
5540.94122 1.23352e-17
5542.45938 1.25424e-17
5543.98773 1.27496e-17
5545.50590 1.24013e-17
5547.02406 1.20529e-17
5548.55241 1.19702e-17
5550.07057 1.18875e-17
5551.58873 1.17696e-17
5553.11708 1.16516e-17
5554.63524 1.19962e-17
5556.15340 1.23410e-17
5557.68175 1.22119e-17
5559.19991 1.20827e-17
5560.71807 1.13692e-17
5562.24642 1.06557e-17
5563.76458 1.12641e-17
5565.29293 1.18727e-17
5566.81110 1.21767e-17
5568.32926 1.24805e-17
5569.85761 1.21514e-17
5571.37577 1.18221e-17
5572.89393 1.27654e-17
5574.42228 1.37089e-17
5575.94044 1.35866e-17
5577.45860 1.34641e-17
5578.98695 1.29540e-17
5580.50511 1.24437e-17
5582.02327 1.27037e-17
5583.55162 1.29639e-17
5585.06978 1.32736e-17
5586.58794 1.35832e-17
5588.11629 1.43703e-17
5589.63445 1.51574e-17
5591.16280 1.51882e-17
5592.68097 1.52188e-17
5594.19913 1.50712e-17
5595.72748 1.49235e-17
5597.24564 1.52678e-17
5598.76380 1.56122e-17
5600.29215 1.57482e-17
5601.81031 1.58840e-17
5603.32847 1.61836e-17
5604.85682 1.64832e-17
5606.37498 1.68906e-17
5607.90333 1.72981e-17
5609.42149 1.74756e-17
5610.93965 1.76531e-17
5612.46800 1.77674e-17
5613.98617 1.78817e-17
5615.50433 1.77925e-17
5617.03268 1.77033e-17
5618.55084 1.78363e-17
5620.06900 1.79693e-17
5621.59735 1.80782e-17
5623.11551 1.81871e-17
5624.63367 1.80431e-17
5626.16202 1.78990e-17
5627.68018 1.80213e-17
5629.20853 1.81437e-17
5630.72669 1.83553e-17
5632.24485 1.85668e-17
5633.77320 1.88052e-17
5635.29136 1.90436e-17
5636.80952 1.87950e-17
5638.33787 1.85463e-17
5639.85604 1.81499e-17
5641.37420 1.77535e-17
5642.90255 1.77854e-17
5644.42071 1.78173e-17
5645.93887 1.80733e-17
5647.46722 1.83293e-17
5648.98538 1.80378e-17
5650.50354 1.77463e-17
5652.03189 1.75579e-17
5653.55005 1.73696e-17
5655.07840 1.73366e-17
5656.59656 1.73036e-17
5658.11472 1.70034e-17
5659.64307 1.67032e-17
5661.16123 1.65879e-17
5662.67940 1.64727e-17
5664.20775 1.62469e-17
5665.72591 1.60210e-17
5667.24407 1.59017e-17
5668.77242 1.57823e-17
5670.29058 1.54491e-17
5671.80874 1.51158e-17
5673.33709 1.45549e-17
5674.85525 1.39941e-17
5676.38360 1.37957e-17
5677.90176 1.35973e-17
5679.41992 1.32576e-17
5680.94827 1.29179e-17
5682.46643 1.33185e-17
5683.98459 1.37192e-17
5685.51294 1.37888e-17
5687.03111 1.38583e-17
5688.54927 1.35505e-17
5690.07762 1.32425e-17
5691.59578 1.34658e-17
5693.12413 1.36893e-17
5694.64229 1.33597e-17
5696.16045 1.30300e-17
5697.68880 1.29068e-17
5699.20696 1.27836e-17
5700.72512 1.30171e-17
5702.25347 1.32506e-17
5703.77163 1.32604e-17
5705.28979 1.32702e-17
5706.81814 1.29920e-17
5708.33630 1.27137e-17
5709.85447 1.27902e-17
5711.38282 1.28668e-17
5712.90098 1.31169e-17
5714.41914 1.33670e-17
5715.94749 1.35125e-17
5717.46565 1.36580e-17
5718.99400 1.37102e-17
5720.51216 1.37625e-17
5722.03032 1.35952e-17
5723.55867 1.34279e-17
5725.07683 1.38245e-17
5726.59499 1.42213e-17
5728.12334 1.42196e-17
5729.64150 1.42177e-17
5731.15967 1.42371e-17
5732.68801 1.42566e-17
5734.20618 1.43632e-17
5735.72434 1.44698e-17
5737.25269 1.42538e-17
5738.77085 1.40378e-17
5740.29920 1.43730e-17
5741.81736 1.47083e-17
5743.33552 1.49989e-17
5744.86387 1.52895e-17
5746.38203 1.51750e-17
5747.90019 1.50604e-17
5749.42854 1.49932e-17
5750.94670 1.49260e-17
5752.46486 1.46648e-17
5753.99321 1.44035e-17
5755.51137 1.44714e-17
5757.02954 1.45393e-17
5758.55789 1.46409e-17
5760.07605 1.47424e-17
5761.60440 1.43349e-17
5763.12256 1.39273e-17
5764.64072 1.40012e-17
5766.16907 1.40752e-17
5767.68723 1.42998e-17
5769.20539 1.45244e-17
5770.73374 1.41303e-17
5772.25190 1.37361e-17
5773.77006 1.36288e-17
5775.29841 1.35215e-17
5776.81657 1.35709e-17
5778.33473 1.36204e-17
5779.86308 1.32641e-17
5781.38125 1.29078e-17
5782.90960 1.23193e-17
5784.42776 1.17309e-17
5785.94592 1.16507e-17
5787.47427 1.15707e-17
5788.99243 1.12773e-17
5790.51059 1.09839e-17
5792.03894 1.06205e-17
5793.55710 1.02571e-17
5795.07526 1.01604e-17
5796.60361 1.00637e-17
5798.12177 9.81739e-18
5799.63993 9.57102e-18
5801.16828 9.50408e-18
5802.68644 9.43719e-18
5804.21479 9.05429e-18
5805.73296 8.67134e-18
5807.25112 8.19756e-18
5808.77947 7.72379e-18
5810.29763 7.46570e-18
5811.81579 7.20768e-18
5813.34414 6.93996e-18
5814.86230 6.67226e-18
5816.38046 6.54271e-18
5817.90881 6.41321e-18
5819.42697 6.12840e-18
5820.94513 5.84358e-18
5822.47348 5.68175e-18
5823.99164 5.51997e-18
5825.51999 5.44390e-18
5827.03815 5.36785e-18
5828.55632 5.46568e-18
5830.08467 5.56354e-18
5831.60283 5.58570e-18
5833.12099 5.60784e-18
5834.64934 5.61770e-18
5836.16750 5.62756e-18
5837.68566 5.43763e-18
5839.21401 5.24766e-18
5840.73217 5.24525e-18
5842.25033 5.24289e-18
5843.77868 5.53851e-18
5845.29684 5.83419e-18
5846.82519 6.03547e-18
5848.34335 6.23671e-18
5849.86151 6.04178e-18
5851.38987 5.84677e-18
5852.90803 5.70276e-18
5854.42619 5.55878e-18
5855.95454 5.75282e-18
5857.47270 5.94693e-18
5858.99086 5.77647e-18
5860.51921 5.60594e-18
5862.03737 5.66399e-18
5863.56572 5.72209e-18
5865.08388 6.16349e-18
5866.60204 6.60495e-18
5868.13039 6.93957e-18
5869.64855 7.27414e-18
5871.16671 7.22830e-18
5872.69506 7.18238e-18
5874.21322 7.00262e-18
5875.73139 6.82283e-18
5877.25974 7.23576e-18
5878.77790 7.64880e-18
5880.29606 7.67559e-18
5881.82441 7.70229e-18
5883.34257 8.22425e-18
5884.87092 8.74630e-18
5886.38908 8.90446e-18
5887.90724 9.06251e-18
5889.43559 8.94242e-18
5890.95375 8.82228e-18
5892.47191 8.81075e-18
5894.00026 8.79925e-18
5895.51842 9.24348e-18
5897.03658 9.68780e-18
5898.56493 9.98213e-18
5900.08310 1.02764e-17
5901.60126 1.08202e-17
5903.12961 1.13639e-17
5904.64777 1.15104e-17
5906.17612 1.16567e-17
5907.69428 1.17538e-17
5909.21244 1.18508e-17
5910.74079 1.24898e-17
5912.25895 1.31289e-17
5913.77711 1.38303e-17
5915.30546 1.45316e-17
5916.82362 1.43856e-17
5918.34178 1.42394e-17
5919.87013 1.40150e-17
5921.38829 1.37906e-17
5922.90646 1.44501e-17
5924.43481 1.51097e-17
5925.95297 1.53989e-17
5927.47113 1.56878e-17
5928.99948 1.62370e-17
5930.51764 1.67862e-17
5932.04599 1.77310e-17
5933.56415 1.86757e-17
5935.08231 1.86018e-17
5936.61066 1.85277e-17
5938.12882 1.84638e-17
5939.64698 1.83999e-17
5941.17533 1.85974e-17
5942.69349 1.87950e-17
5944.21165 1.90769e-17
5945.74000 1.93587e-17
5947.25817 1.95467e-17
5948.78652 1.97347e-17
5950.30468 1.95911e-17
5951.82284 1.94475e-17
5953.35119 1.97254e-17
5954.86935 2.00034e-17
5956.38751 2.04245e-17
5957.91586 2.08457e-17
5959.43402 2.11071e-17
5960.95218 2.13685e-17
5962.48053 2.12961e-17
5963.99869 2.12236e-17
5965.51685 2.13758e-17
5967.04520 2.15280e-17
5968.56336 2.14015e-17
5970.09171 2.12749e-17
5971.60988 2.13447e-17
5973.12804 2.14145e-17
5974.65639 2.15383e-17
5976.17455 2.16622e-17
5977.69271 2.16484e-17
5979.22106 2.16345e-17
5980.73922 2.17837e-17
5982.25738 2.19329e-17
5983.78573 2.16162e-17
5985.30389 2.12993e-17
5986.82205 2.14159e-17
5988.35040 2.15325e-17
5989.86856 2.18834e-17
5991.38672 2.22343e-17
5992.91507 2.17454e-17
5994.43324 2.12563e-17
5995.96159 2.09554e-17
5997.47975 2.06546e-17
5998.99791 2.11047e-17
6000.52626 2.15549e-17
6002.04442 2.12227e-17
6003.56258 2.08904e-17
6005.09093 2.09575e-17
6006.60909 2.10247e-17
6008.12725 2.10824e-17
6009.65560 2.11402e-17
6011.17376 2.12783e-17
6012.70211 2.14164e-17
6014.22027 2.12256e-17
6015.73843 2.10348e-17
6017.26678 2.11101e-17
6018.78495 2.11856e-17
6020.30311 2.18243e-17
6021.83146 2.24632e-17
6023.34962 2.21985e-17
6024.86778 2.19335e-17
6026.39613 2.14506e-17
6027.91429 2.09676e-17
6029.43245 2.09709e-17
6030.96080 2.09744e-17
6032.47896 2.04132e-17
6034.00731 1.98519e-17
6035.52547 1.96221e-17
6037.04363 1.93924e-17
6038.57198 1.93925e-17
6040.09015 1.93926e-17
6041.60831 1.92281e-17
6043.13666 1.90636e-17
6044.65482 1.89436e-17
6046.17298 1.88237e-17
6047.70133 1.85652e-17
6049.21949 1.83067e-17
6050.73765 1.84409e-17
6052.26600 1.85753e-17
6053.78416 1.87889e-17
6055.30232 1.90025e-17
6056.83067 1.88968e-17
6058.34883 1.87911e-17
6059.87718 1.87275e-17
6061.39534 1.86640e-17
6062.91350 1.85957e-17
6064.44185 1.85275e-17
6065.96002 1.84625e-17
6067.47818 1.83976e-17
6069.00653 1.82944e-17
6070.52469 1.81911e-17
6072.04285 1.83484e-17
6073.57120 1.85057e-17
6075.08936 1.85959e-17
6076.61771 1.86861e-17
6078.13587 1.87014e-17
6079.65403 1.87167e-17
6081.18238 1.90600e-17
6082.70054 1.94034e-17
6084.21870 1.85910e-17
6085.74705 1.77784e-17
6087.26521 1.73202e-17
6088.78338 1.68622e-17
6090.31173 1.68095e-17
6091.82989 1.67570e-17
6093.34805 1.71320e-17
6094.87640 1.75070e-17
6096.39456 1.74390e-17
6097.92291 1.73709e-17
6099.44107 1.71810e-17
6100.95923 1.69911e-17
6102.48758 1.70603e-17
6104.00574 1.71296e-17
6105.52390 1.67570e-17
6107.05225 1.63843e-17
6108.57041 1.63736e-17
6110.08857 1.63631e-17
6111.61692 1.62311e-17
6113.13509 1.60992e-17
6114.65325 1.61299e-17
6116.18160 1.61607e-17
6117.69976 1.58905e-17
6119.21792 1.56203e-17
6120.74627 1.56619e-17
6122.26443 1.57036e-17
6123.79278 1.54978e-17
6125.31094 1.52920e-17
6126.82910 1.50929e-17
6128.35745 1.48938e-17
6129.87561 1.50166e-17
6131.39377 1.51394e-17
6132.92212 1.47932e-17
6134.44028 1.44469e-17
6135.95845 1.45034e-17
6137.48680 1.45600e-17
6139.00496 1.45019e-17
6140.52312 1.44438e-17
6142.05147 1.43234e-17
6143.56963 1.42031e-17
6145.09798 1.40956e-17
6146.61614 1.39882e-17
6148.13430 1.40114e-17
6149.66265 1.40345e-17
6151.18081 1.37887e-17
6152.69897 1.35429e-17
6154.22732 1.35591e-17
6155.74548 1.35755e-17
6157.26364 1.37453e-17
6158.79199 1.39152e-17
6160.31016 1.35701e-17
6161.82832 1.32248e-17
6163.35667 1.28940e-17
6164.87483 1.25632e-17
6166.40318 1.25897e-17
6167.92134 1.26163e-17
6169.43950 1.23495e-17
6170.96785 1.20825e-17
6172.48601 1.16849e-17
6174.00417 1.12872e-17
6175.53252 1.17264e-17
6177.05068 1.21658e-17
6178.56884 1.22984e-17
6180.09719 1.24309e-17
6181.61535 1.21269e-17
6183.13352 1.18227e-17
6184.66187 1.19644e-17
6186.18003 1.21062e-17
6187.70838 1.18470e-17
6189.22654 1.15877e-17
6190.74470 1.17666e-17
6192.27305 1.19457e-17
6193.79121 1.18999e-17
6195.30937 1.18541e-17
6196.83772 1.21247e-17
6198.35588 1.23952e-17
6199.87404 1.21335e-17
6201.40239 1.18715e-17
6202.92055 1.20310e-17
6204.43872 1.21905e-17
6205.96706 1.23835e-17
6207.48523 1.25764e-17
6209.01358 1.25065e-17
6210.53174 1.24365e-17
6212.04990 1.23757e-17
6213.57825 1.23149e-17
6215.09641 1.27251e-17
6216.61457 1.31355e-17
6218.14292 1.30638e-17
6219.66108 1.29919e-17
6221.17924 1.31157e-17
6222.70759 1.32395e-17
6224.22575 1.31125e-17
6225.74391 1.29855e-17
6227.27226 1.31827e-17
6228.79042 1.33799e-17
6230.31877 1.39762e-17
6231.83694 1.45726e-17
6233.35510 1.42346e-17
6234.88345 1.38964e-17
6236.40161 1.37367e-17
6237.91977 1.35771e-17
6239.44812 1.37109e-17
6240.96628 1.38448e-17
6242.48444 1.37657e-17
6244.01279 1.36865e-17
6245.53095 1.35143e-17
6247.04911 1.33421e-17
6248.57746 1.32972e-17
6250.09562 1.32524e-17
6251.62397 1.32405e-17
6253.14213 1.32286e-17
6254.66030 1.31442e-17
6256.18865 1.30599e-17
6257.70681 1.30158e-17
6259.22497 1.29717e-17
6260.75332 1.28036e-17
6262.27148 1.26355e-17
6263.78964 1.24514e-17
6265.31799 1.22674e-17
6266.83615 1.22961e-17
6268.35431 1.23249e-17
6269.88266 1.22632e-17
6271.40082 1.22014e-17
6272.92917 1.19270e-17
6274.44733 1.16525e-17
6275.96549 1.13875e-17
6277.49384 1.11225e-17
6279.01201 1.12179e-17
6280.53017 1.13134e-17
6282.05852 1.14280e-17
6283.57668 1.15426e-17
6285.09484 1.13534e-17
6286.62319 1.11641e-17
6288.14135 1.12106e-17
6289.66970 1.12571e-17
6291.18786 1.16465e-17
6292.70602 1.20359e-17
6294.23437 1.20568e-17
6295.75253 1.20776e-17
6297.27069 1.21828e-17
6298.79904 1.22880e-17
6300.31720 1.17393e-17
6301.83537 1.11905e-17
6303.36372 1.12775e-17
6304.88188 1.13646e-17
6306.40004 1.14307e-17
6307.92839 1.14967e-17
6309.44655 1.15716e-17
6310.97490 1.16465e-17
6312.49306 1.17868e-17
6314.01122 1.19271e-17
6315.53957 1.19866e-17
6317.05773 1.20461e-17
6318.57589 1.26375e-17
6320.10424 1.32290e-17
6321.62240 1.34416e-17
6323.14056 1.36540e-17
6324.66892 1.34858e-17
6326.18708 1.33175e-17
6327.70524 1.32148e-17
6329.23359 1.31121e-17
6330.75175 1.33190e-17
6332.26991 1.35261e-17
6333.79826 1.33618e-17
6335.31642 1.31975e-17
6336.84477 1.32239e-17
6338.36293 1.32503e-17
6339.88109 1.36398e-17
6341.40944 1.40293e-17
6342.92760 1.42144e-17
6344.44576 1.43994e-17
6345.97411 1.45439e-17
6347.49227 1.46883e-17
6349.01044 1.44341e-17
6350.53879 1.41797e-17
6352.05695 1.37639e-17
6353.58530 1.33480e-17
6355.10346 1.34576e-17
6356.62162 1.35673e-17
6358.14997 1.37936e-17
6359.66813 1.40198e-17
6361.18629 1.39055e-17
6362.71464 1.37910e-17
6364.23280 1.33811e-17
6365.75096 1.29712e-17
6367.27931 1.31247e-17
6368.79747 1.32785e-17
6370.31563 1.35431e-17
6371.84398 1.38077e-17
6373.36215 1.35452e-17
6374.89050 1.32826e-17
6376.40866 1.31591e-17
6377.92682 1.30358e-17
6379.45517 1.26736e-17
6380.97333 1.23113e-17
6382.49149 1.23204e-17
6384.01984 1.23296e-17
6385.53800 1.25725e-17
6387.05616 1.28154e-17
6388.58451 1.26881e-17
6390.10267 1.25606e-17
6391.62083 1.23015e-17
6393.14918 1.20424e-17
6394.66734 1.20845e-17
6396.18551 1.21267e-17
6397.71386 1.20122e-17
6399.23202 1.18976e-17
6400.76037 1.17838e-17
6402.27853 1.16700e-17
6403.79669 1.14518e-17
6405.32504 1.12335e-17
6406.84320 1.16289e-17
6408.36136 1.20244e-17
6409.88971 1.21353e-17
6411.40787 1.22461e-17
6412.92603 1.17651e-17
6414.45438 1.12839e-17
6415.97254 1.14426e-17
6417.50089 1.16014e-17
6419.01905 1.14200e-17
6420.53722 1.12386e-17
6422.06557 1.10538e-17
6423.58373 1.08690e-17
6425.10189 1.10604e-17
6426.63024 1.12520e-17
6428.14840 1.12911e-17
6429.66656 1.13302e-17
6431.19491 1.12913e-17
6432.71307 1.12523e-17
6434.23123 1.12142e-17
6435.75958 1.11762e-17
6437.27774 1.14317e-17
6438.80609 1.16872e-17
6440.32425 1.17738e-17
6441.84242 1.18604e-17
6443.37076 1.18386e-17
6444.88893 1.18168e-17
6446.40709 1.17254e-17
6447.93544 1.16339e-17
6449.45360 1.15339e-17
6450.97176 1.14339e-17
6452.50011 1.15116e-17
6454.01827 1.15894e-17
6455.53643 1.16685e-17
6457.06478 1.17475e-17
6458.58294 1.15128e-17
6460.10110 1.12779e-17
6461.62945 1.11162e-17
6463.14761 1.09545e-17
6464.67596 1.13057e-17
6466.19412 1.16570e-17
6467.71229 1.16246e-17
6469.24064 1.15920e-17
6470.75880 1.12694e-17
6472.27696 1.09468e-17
6473.80531 1.09161e-17
6475.32347 1.08855e-17
6476.84163 1.04126e-17
6478.36998 9.93956e-18
6479.88814 1.01924e-17
6481.41649 1.04456e-17
6482.93465 1.03306e-17
6484.45281 1.02155e-17
6485.98116 1.02042e-17
6487.49932 1.01929e-17
6489.01748 1.04084e-17
6490.54583 1.06241e-17
6492.06400 1.05024e-17
6493.58216 1.03806e-17
6495.11051 1.05193e-17
6496.62867 1.06581e-17
6498.14683 1.07880e-17
6499.67518 1.09179e-17
6501.19334 1.10413e-17
6502.71150 1.11646e-17
6504.23985 1.11159e-17
6505.75801 1.10672e-17
6507.28636 1.07656e-17
6508.80452 1.04640e-17
6510.32268 1.04705e-17
6511.85103 1.04771e-17
6513.36919 1.06343e-17
6514.88736 1.07915e-17
6516.41571 1.09384e-17
6517.93387 1.10852e-17
6519.45203 1.12087e-17
6520.98038 1.13321e-17
6522.49854 1.13688e-17
6524.01670 1.14055e-17
6525.54505 1.13415e-17
6527.06321 1.12775e-17
6528.59156 1.13531e-17
6530.10972 1.14288e-17
6531.62788 1.10637e-17
6533.15623 1.06985e-17
6534.67439 1.08528e-17
6536.19255 1.10072e-17
6537.72090 1.10754e-17
6539.23907 1.11436e-17
6540.75723 1.12824e-17
6542.28558 1.14212e-17
6543.80374 1.15628e-17
6545.33209 1.17043e-17
6546.85025 1.17073e-17
6548.36841 1.17103e-17
6549.89676 1.15534e-17
6551.41492 1.13966e-17
6552.93308 1.13602e-17
6554.46143 1.13238e-17
6555.97959 1.15728e-17
6557.49775 1.18219e-17
6559.02610 1.18454e-17
6560.54426 1.18689e-17
6562.06243 1.14822e-17
6563.59078 1.10954e-17
6565.10894 1.14010e-17
6566.62710 1.17068e-17
6568.15545 1.16813e-17
6569.67361 1.16556e-17
6571.20196 1.14888e-17
6572.72012 1.13220e-17
6574.23828 1.15078e-17
6575.76663 1.16937e-17
6577.28479 1.18338e-17
6578.80295 1.19739e-17
6580.33130 1.19079e-17
6581.84946 1.18419e-17
6583.36762 1.17808e-17
6584.89597 1.17198e-17
6586.41414 1.20423e-17
6587.93230 1.23649e-17
6589.46065 1.25519e-17
6590.97881 1.27388e-17
6592.50716 1.25268e-17
6594.02532 1.23146e-17
6595.54348 1.22562e-17
6597.07183 1.21978e-17
6598.58999 1.21587e-17
6600.10815 1.21197e-17
6601.63650 1.20355e-17
6603.15466 1.19513e-17
6604.67282 1.16624e-17
6606.20117 1.13734e-17
6607.71933 1.12494e-17
6609.24768 1.11254e-17
6610.76585 1.08071e-17
6612.28401 1.04887e-17
6613.81236 1.04089e-17
6615.33052 1.03293e-17
6616.84868 1.05061e-17
6618.37703 1.06829e-17
6619.89519 1.02125e-17
6621.41335 9.74187e-18
6622.94170 9.48985e-18
6624.45986 9.23791e-18
6625.97802 9.28515e-18
6627.50637 9.33249e-18
6629.02453 9.02491e-18
6630.54270 8.71722e-18
6632.07104 8.69213e-18
6633.58921 8.66714e-18
6635.11756 8.85656e-18
6636.63572 9.04603e-18
6638.15388 8.75268e-18
6639.68223 8.45917e-18
6641.20039 8.22121e-18
6642.71855 7.98329e-18
6644.24690 8.02358e-18
6645.76506 8.06397e-18
6647.28322 7.90320e-18
6648.81157 7.74238e-18
6650.32973 7.74008e-18
6651.84789 7.73784e-18
6653.37624 7.69262e-18
6654.89440 7.64738e-18
6656.42275 7.46138e-18
6657.94092 7.27533e-18
6659.45908 7.44320e-18
6660.98743 7.61118e-18
6662.50559 7.57772e-18
6664.02375 7.54419e-18
6665.55210 7.25807e-18
6667.07026 6.97189e-18
6668.58842 7.03234e-18
6670.11677 7.09291e-18
6671.63493 7.53469e-18
6673.16328 7.97658e-18
6674.68144 8.58953e-18
6676.19960 9.20252e-18
6677.72795 9.64266e-18
6679.24611 1.00827e-17
6680.76428 1.00930e-17
6682.29263 1.01032e-17
6683.81079 1.01167e-17
6685.32895 1.01303e-17
6686.85730 1.05723e-17
6688.37546 1.10145e-17
6689.89362 1.14176e-17
6691.42197 1.18207e-17
6692.94013 1.23323e-17
6694.45829 1.28440e-17
6695.98664 1.30632e-17
6697.50480 1.32822e-17
6699.03315 1.33058e-17
6700.55131 1.33293e-17
6702.06947 1.34366e-17
6703.59782 1.35440e-17
6705.11599 1.37530e-17
6706.63415 1.39621e-17
6708.16250 1.41744e-17
6709.68066 1.43866e-17
6711.19882 1.43752e-17
6712.72717 1.43638e-17
6714.24533 1.45104e-17
6715.77368 1.46571e-17
6717.29184 1.49481e-17
6718.81000 1.52391e-17
6720.33835 1.54473e-17
6721.85651 1.56555e-17
6723.37467 1.59240e-17
6724.90302 1.61925e-17
6726.42118 1.64277e-17
6727.93935 1.66629e-17
6729.46770 1.66800e-17
6730.98586 1.66969e-17
6732.50402 1.67985e-17
6734.03237 1.69002e-17
6735.55053 1.70908e-17
6737.06869 1.72815e-17
6738.59704 1.72402e-17
6740.11520 1.71988e-17
6741.64355 1.74377e-17
6743.16171 1.76766e-17
6744.67987 1.79254e-17
6746.20822 1.81742e-17
6747.72638 1.80921e-17
6749.24454 1.80099e-17
6750.77290 1.80397e-17
6752.29106 1.80696e-17
6753.80922 1.81200e-17
6755.33757 1.81703e-17
6756.85573 1.82585e-17
6758.38408 1.83466e-17
6759.90224 1.81727e-17
6761.42040 1.79988e-17
6762.94875 1.75656e-17
6764.46691 1.71324e-17
6765.98507 1.73814e-17
6767.51342 1.76306e-17
6769.03158 1.80679e-17
6770.54974 1.85052e-17
6772.07809 1.82772e-17
6773.59625 1.80490e-17
6775.11442 1.80197e-17
6776.64277 1.79905e-17
6778.16093 1.84671e-17
6779.68928 1.89439e-17
6781.20744 1.87875e-17
6782.72560 1.86308e-17
6784.25395 1.82183e-17
6785.77211 1.78058e-17
6787.29027 1.76695e-17
6788.81862 1.75334e-17
6790.33678 1.75267e-17
6791.85494 1.75202e-17
6793.38329 1.77141e-17
6794.90145 1.79080e-17
6796.41961 1.80333e-17
6797.94796 1.81586e-17
6799.46613 1.81608e-17
6800.98429 1.81629e-17
6802.51264 1.84512e-17
6804.03080 1.87396e-17
6805.55915 1.86355e-17
6807.07731 1.85314e-17
6808.59547 1.80213e-17
6810.12382 1.75111e-17
6811.64198 1.79833e-17
6813.16014 1.84558e-17
6814.68849 1.84464e-17
6816.20665 1.84368e-17
6817.72481 1.86364e-17
6819.25316 1.88360e-17
6820.77132 1.82003e-17
6822.29967 1.75644e-17
6823.81784 1.79185e-17
6825.33600 1.82730e-17
6826.86435 1.83914e-17
6828.38251 1.85097e-17
6829.90067 1.81994e-17
6831.42902 1.78889e-17
6832.94718 1.73967e-17
6834.46534 1.69045e-17
6835.99369 1.69693e-17
6837.51185 1.70343e-17
6839.03001 1.72171e-17
6840.55836 1.73999e-17
6842.07652 1.72078e-17
6843.60487 1.70155e-17
6845.12303 1.69651e-17
6846.64120 1.69147e-17
6848.16955 1.68642e-17
6849.68771 1.68138e-17
6851.20587 1.67634e-17
6852.73422 1.67130e-17
6854.25238 1.66626e-17
6855.77054 1.66122e-17
6857.29889 1.65618e-17
6858.81705 1.65114e-17
6860.33521 1.64610e-17
6861.86356 1.64106e-17
6863.38172 1.63602e-17
6864.89988 1.63098e-17
6866.42823 1.62594e-17
6867.94639 1.62090e-17
6869.47474 1.61586e-17
6870.99291 1.61083e-17
6872.51107 1.60579e-17
6874.03942 1.60075e-17
6875.55758 1.59571e-17
6877.07574 1.59067e-17
6878.60409 1.58564e-17
6880.12225 1.58060e-17
6881.64041 1.57556e-17
6883.16876 1.57053e-17
6884.68692 1.56549e-17
6886.21527 1.56046e-17
6887.73343 1.55542e-17
6889.25159 1.55039e-17
6890.77994 1.54535e-17
6892.29810 1.54032e-17
6893.81627 1.53528e-17
6895.34462 1.53025e-17
6896.86278 1.52522e-17
6898.38094 1.52018e-17
6899.90929 1.51515e-17
6901.42745 1.51011e-17
6902.94561 1.50508e-17
6904.47396 1.50005e-17
6905.99212 1.49502e-17
6907.51028 1.48998e-17
6909.03863 1.48495e-17
6910.55679 1.47992e-17
6912.08514 1.47489e-17
6913.60330 1.46986e-17
6915.12147 1.46483e-17
6916.64981 1.45980e-17
6918.16798 1.45477e-17
6919.68614 1.44974e-17
6921.21449 1.44471e-17
6922.73265 1.43968e-17
6924.25081 1.43465e-17
6925.77916 1.42962e-17
6927.29732 1.42459e-17
6928.81548 1.41956e-17
6930.34383 1.41453e-17
6931.86199 1.40951e-17
6933.39034 1.40448e-17
6934.90850 1.39945e-17
6936.42666 1.39443e-17
6937.95501 1.37558e-17
6939.47317 1.36803e-17
6940.99134 1.36048e-17
6942.51969 1.36449e-17
6944.03785 1.36851e-17
6945.55601 1.34574e-17
6947.08436 1.32296e-17
6948.60252 1.29177e-17
6950.13087 1.26057e-17
6951.64903 1.31236e-17
6953.16719 1.36417e-17
6954.69554 1.36829e-17
6956.21370 1.37239e-17
6957.73186 1.34507e-17
6959.26021 1.31774e-17
6960.77837 1.27049e-17
6962.29653 1.22323e-17
6963.82488 1.23278e-17
6965.34305 1.24234e-17
6966.86121 1.25000e-17
6968.38956 1.25766e-17
6969.90772 1.28763e-17
6971.42588 1.31760e-17
6972.95423 1.31204e-17
6974.47239 1.30647e-17
6976.00074 1.24838e-17
6977.51890 1.19027e-17
6979.03706 1.18033e-17
6980.56541 1.17040e-17
6982.08357 1.18470e-17
6983.60173 1.19902e-17
6985.13008 1.18808e-17
6986.64824 1.17713e-17
6988.16641 1.16839e-17
6989.69476 1.15964e-17
6991.21292 1.15456e-17
6992.73108 1.14948e-17
6994.25943 1.12962e-17
6995.77759 1.10977e-17
6997.30594 1.06970e-17
6998.82410 1.02962e-17
7000.34226 1.00222e-17
7001.87061 9.74816e-18
7003.38877 9.78480e-18
7004.90693 9.82155e-18
7006.43528 9.83423e-18
7007.95344 9.84690e-18
7009.47160 9.65170e-18
7010.99995 9.45643e-18
7012.51812 9.27378e-18
7014.04647 9.09114e-18
7015.56463 8.99408e-18
7017.08279 8.89705e-18
7018.61114 8.39612e-18
7020.12930 7.89506e-18
7021.64746 7.87613e-18
7023.17581 7.85738e-18
7024.69397 7.90612e-18
7026.21213 7.95489e-18
7027.74048 7.75863e-18
7029.25864 7.56229e-18
7030.77680 7.59861e-18
7032.30515 7.63502e-18
7033.82331 7.44712e-18
7035.34148 7.25915e-18
7036.86983 7.27523e-18
7038.38799 7.29139e-18
7039.91634 7.31359e-18
7041.43450 7.33578e-18
7042.95266 7.61354e-18
7044.48101 7.89140e-18
7045.99917 7.79379e-18
7047.51733 7.69605e-18
7049.04568 7.62610e-18
7050.56384 7.55617e-18
7052.08200 7.86167e-18
7053.61035 8.16730e-18
7055.12851 8.07857e-18
7056.64667 7.98968e-18
7058.17502 8.22020e-18
7059.69319 8.45085e-18
7061.22154 8.40652e-18
7062.73970 8.36209e-18
7064.25786 8.47399e-18
7065.78621 8.58594e-18
7067.30437 8.72513e-18
7068.82253 8.86431e-18
7070.35088 9.06346e-18
7071.86904 9.26262e-18
7073.38720 9.85576e-18
7074.91555 1.04490e-17
7076.43371 1.08216e-17
7077.96206 1.11941e-17
7079.48022 1.12776e-17
7080.99838 1.13609e-17
7082.52673 1.13534e-17
7084.04490 1.13458e-17
7085.56306 1.17988e-17
7087.09141 1.22519e-17
7088.60957 1.24248e-17
7090.12773 1.25975e-17
7091.65608 1.28102e-17
7093.17424 1.30228e-17
7094.69240 1.29720e-17
7096.22075 1.29211e-17
7097.73891 1.31559e-17
7099.25707 1.33908e-17
7100.78542 1.34386e-17
7102.30358 1.34863e-17
7103.83193 1.36334e-17
7105.35009 1.37806e-17
7106.86826 1.39437e-17
7108.39661 1.41068e-17
7109.91477 1.40709e-17
7111.43293 1.40350e-17
7112.96128 1.42406e-17
7114.47944 1.44463e-17
7115.99760 1.49237e-17
7117.52595 1.54012e-17
7119.04411 1.56942e-17
7120.56227 1.59871e-17
7122.09062 1.54895e-17
7123.60878 1.49917e-17
7125.13713 1.50652e-17
7126.65529 1.51388e-17
7128.17345 1.54122e-17
7129.70180 1.56857e-17
7131.21997 1.58668e-17
7132.73813 1.60479e-17
7134.26648 1.59081e-17
7135.78464 1.57681e-17
7137.30280 1.60593e-17
7138.83115 1.63506e-17
7140.34931 1.61228e-17
7141.86747 1.58948e-17
7143.39582 1.61912e-17
7144.91398 1.64878e-17
7146.44233 1.64725e-17
7147.96049 1.64571e-17
7149.47865 1.65083e-17
7151.00700 1.65595e-17
7152.52517 1.68113e-17
7154.04333 1.70632e-17
7155.57168 1.71515e-17
7157.08984 1.72396e-17
7158.60800 1.69096e-17
7160.13635 1.65794e-17
7161.65451 1.68874e-17
7163.18286 1.71957e-17
7164.70102 1.69882e-17
7166.21918 1.67805e-17
7167.74753 1.62974e-17
7169.26569 1.58143e-17
7170.78385 1.60934e-17
7172.31220 1.63729e-17
7173.83036 1.64077e-17
7175.34852 1.64423e-17
7176.87687 1.62880e-17
7178.39504 1.61337e-17
7179.91320 1.60532e-17
7181.44155 1.59728e-17
7182.95971 1.56833e-17
7184.48806 1.53937e-17
7186.00622 1.51099e-17
7187.52438 1.48260e-17
7189.05273 1.53104e-17
7190.57089 1.57952e-17
7192.08905 1.57269e-17
7193.61740 1.56584e-17
7195.13556 1.51975e-17
7196.65372 1.47366e-17
7198.18207 1.48475e-17
7199.70023 1.49587e-17
7201.21840 1.48440e-17
7202.74675 1.47292e-17
7204.26491 1.48926e-17
7205.78307 1.50561e-17
7207.31142 1.50623e-17
7208.82958 1.50685e-17
7210.35793 1.51121e-17
7211.87609 1.51558e-17
7213.39425 1.54831e-17
7214.92260 1.58105e-17
7216.44076 1.58951e-17
7217.95892 1.59796e-17
7219.48727 1.57951e-17
7221.00543 1.56105e-17
7222.52359 1.54602e-17
7224.05194 1.53100e-17
7225.57011 1.51225e-17
7227.09846 1.49351e-17
7228.61662 1.45920e-17
7230.13478 1.42489e-17
7231.66313 1.38669e-17
7233.18129 1.34849e-17
7234.69945 1.38267e-17
7236.22780 1.41688e-17
7237.74596 1.45980e-17
7239.26412 1.50272e-17
7240.79247 1.44420e-17
7242.31063 1.38564e-17
7243.82879 1.37766e-17
7245.35714 1.36970e-17
7246.87530 1.34158e-17
7248.40365 1.31345e-17
7249.92182 1.27941e-17
7251.43998 1.24536e-17
7252.96833 1.23278e-17
7254.48649 1.22021e-17
7256.00465 1.24958e-17
7257.53300 1.27896e-17
7259.05116 1.26847e-17
7260.56932 1.25796e-17
7262.09767 1.23523e-17
7263.61583 1.21250e-17
7265.13399 1.16823e-17
7266.66234 1.12395e-17
7268.18050 1.12499e-17
7269.69866 1.12605e-17
7271.22701 1.13270e-17
7272.74518 1.13935e-17
7274.27353 1.13493e-17
7275.79169 1.13051e-17
7277.30985 1.12141e-17
7278.83820 1.11231e-17
7280.35636 1.13020e-17
7281.87452 1.14810e-17
7283.40287 1.12936e-17
7284.92103 1.11061e-17
7286.43919 1.09299e-17
7287.96754 1.07536e-17
7289.48570 1.11198e-17
7291.01405 1.14863e-17
7292.53221 1.14967e-17
7294.05037 1.15070e-17
7295.57872 1.15089e-17
7297.09689 1.15109e-17
7298.61505 1.15785e-17
7300.14340 1.16462e-17
7301.66156 1.13173e-17
7303.17972 1.09883e-17
7304.70807 1.14363e-17
7306.22623 1.18847e-17
7307.74439 1.19881e-17
7309.27274 1.20914e-17
7310.79090 1.18913e-17
7312.30906 1.16911e-17
7313.83741 1.15194e-17
7315.35557 1.13476e-17
7316.88392 1.16196e-17
7318.40208 1.18916e-17
7319.92025 1.18358e-17
7321.44860 1.17799e-17
7322.96676 1.20281e-17
7324.48492 1.22765e-17
7326.01327 1.23446e-17
7327.53143 1.24126e-17
7329.04959 1.23696e-17
7330.57794 1.23266e-17
7332.09610 1.21956e-17
7333.61426 1.20646e-17
7335.14261 1.22726e-17
7336.66077 1.24809e-17
7338.18912 1.27460e-17
7339.70728 1.30112e-17
7341.22545 1.27574e-17
7342.75379 1.25034e-17
7344.27196 1.23270e-17
7345.79012 1.21505e-17
7347.31847 1.21283e-17
7348.83663 1.21061e-17
7350.35479 1.21177e-17
7351.88314 1.21294e-17
7353.40130 1.22667e-17
7354.92965 1.24041e-17
7356.44781 1.19944e-17
7357.96597 1.15846e-17
7359.49432 1.13921e-17
7361.01248 1.11998e-17
7362.53064 1.14798e-17
7364.05899 1.17600e-17
7365.57715 1.15614e-17
7367.09532 1.13625e-17
7368.62367 1.12823e-17
7370.14183 1.12021e-17
7371.65999 1.09486e-17
7373.18834 1.06951e-17
7374.70650 1.08645e-17
7376.22466 1.10342e-17
7377.75301 1.12895e-17
7379.27117 1.15449e-17
7380.79952 1.15427e-17
7382.31768 1.15404e-17
7383.83584 1.16791e-17
7385.36419 1.18179e-17
7386.88235 1.18899e-17
7388.40051 1.19618e-17
7389.92886 1.16174e-17
7391.44703 1.12729e-17
7392.96519 1.16373e-17
7394.49354 1.20020e-17
7396.01170 1.21373e-17
7397.52986 1.22725e-17
7399.05821 1.22291e-17
7400.57637 1.21855e-17
7402.10472 1.22334e-17
7403.62288 1.22812e-17
7405.14104 1.23368e-17
7406.66939 1.23925e-17
7408.18755 1.24256e-17
7409.70571 1.24588e-17
7411.23406 1.24258e-17
7412.75222 1.23928e-17
7414.27039 1.29204e-17
7415.79874 1.34483e-17
7417.31690 1.30828e-17
7418.84525 1.27169e-17
7420.36341 1.26021e-17
7421.88157 1.24873e-17
7423.40992 1.26495e-17
7424.92808 1.28117e-17
7426.44624 1.29939e-17
7427.97459 1.31760e-17
7429.49275 1.32452e-17
7431.01091 1.33143e-17
7432.53926 1.32307e-17
7434.05742 1.31470e-17
7435.57558 1.31035e-17
7437.10393 1.30600e-17
7438.62210 1.31627e-17
7440.14026 1.32654e-17
7441.66861 1.29157e-17
7443.18677 1.25658e-17
7444.71512 1.26531e-17
7446.23328 1.27406e-17
7447.75144 1.27347e-17
7449.27979 1.27288e-17
7450.79795 1.25044e-17
7452.31611 1.22799e-17
7453.84446 1.25819e-17
7455.36262 1.28841e-17
7456.88078 1.30372e-17
7458.40913 1.31903e-17
7459.92729 1.28490e-17
7461.44546 1.25076e-17
7462.97381 1.24620e-17
7464.49197 1.24166e-17
7466.02032 1.23559e-17
7467.53848 1.22951e-17
7469.05664 1.19796e-17
7470.58499 1.16640e-17
7472.10315 1.20855e-17
7473.62131 1.25073e-17
7475.14966 1.27800e-17
7476.66782 1.30527e-17
7478.18598 1.23038e-17
7479.71433 1.15544e-17
7481.23249 1.17543e-17
7482.76084 1.19546e-17
7484.27900 1.16105e-17
7485.79717 1.12662e-17
7487.32552 1.09826e-17
7488.84368 1.06990e-17
7490.36184 1.07592e-17
7491.89019 1.08195e-17
7493.40835 1.08799e-17
7494.92651 1.09403e-17
7496.45486 1.07540e-17
7497.97302 1.05676e-17
7499.49118 1.05451e-17
7501.01953 1.05227e-17
7502.53769 1.06197e-17
7504.05585 1.07168e-17
7505.58420 1.05291e-17
7507.10236 1.03413e-17
7508.63071 1.04676e-17
7510.14888 1.05941e-17
7511.66704 1.03516e-17
7513.19539 1.01090e-17
7514.71355 1.01902e-17
7516.23171 1.02716e-17
7517.76006 1.03506e-17
7519.27822 1.04296e-17
7520.79638 1.01709e-17
7522.32473 9.91210e-18
7523.84289 1.00290e-17
7525.36105 1.01461e-17
7526.88940 1.02312e-17
7528.40756 1.03163e-17
7529.93591 1.01930e-17
7531.45407 1.00697e-17
7532.97224 9.97911e-18
7534.50059 9.88856e-18
7536.01875 1.03374e-17
7537.53691 1.07866e-17
7539.06526 1.04709e-17
7540.58342 1.01550e-17
7542.10158 1.03548e-17
7543.62993 1.05548e-17
7545.14809 1.04887e-17
7546.66625 1.04226e-17
7548.19460 1.03678e-17
7549.71276 1.03130e-17
7551.24111 1.03169e-17
7552.75927 1.03208e-17
7554.27743 1.03247e-17
7555.80578 1.03285e-17
7557.32395 1.03324e-17
7558.84211 1.03363e-17
7560.37046 1.03401e-17
7561.88862 1.03440e-17
7563.40678 1.03479e-17
7564.93513 1.03518e-17
7566.45329 1.03556e-17
7567.97145 1.03595e-17
7569.49980 1.03634e-17
7571.01796 1.03672e-17
7572.54631 1.03711e-17
7574.06447 1.03750e-17
7575.58263 1.03788e-17
7577.11098 1.03827e-17
7578.62914 1.03866e-17
7580.14731 1.03904e-17
7581.67566 1.03943e-17
7583.19382 1.03982e-17
7584.71198 1.04020e-17
7586.24033 1.04059e-17
7587.75849 1.04098e-17
7589.28684 1.04136e-17
7590.80500 1.04175e-17
7592.32316 1.04214e-17
7593.85151 1.04252e-17
7595.36967 1.04291e-17
7596.88783 1.04329e-17
7598.41618 1.04368e-17
7599.93434 1.04407e-17
7601.45250 1.04445e-17
7602.98085 1.04484e-17
7604.49902 1.04523e-17
7606.01718 1.04561e-17
7607.54553 1.04600e-17
7609.06369 1.04638e-17
7610.59204 1.04677e-17
7612.11020 1.04716e-17
7613.62836 1.04754e-17
7615.15671 1.04793e-17
7616.67487 1.04831e-17
7618.19303 1.04870e-17
7619.72138 1.04909e-17
7621.23954 1.04947e-17
7622.75770 1.04986e-17
7624.28605 1.05024e-17
7625.80422 1.05063e-17
7627.32238 1.05101e-17
7628.85073 1.05140e-17
7630.36889 1.05179e-17
7631.89724 1.05217e-17
7633.41540 1.05256e-17
7634.93356 1.05294e-17
7636.46191 1.05333e-17
7637.98007 1.05371e-17
7639.49823 1.05410e-17
7641.02658 1.05449e-17
7642.54474 1.05487e-17
7644.06290 1.05526e-17
7645.59125 1.05564e-17
7647.10941 1.05603e-17
7648.62757 1.05641e-17
7650.15592 1.05680e-17
7651.67409 1.05718e-17
7653.20244 1.05757e-17
7654.72060 1.05795e-17
7656.23876 1.05834e-17
7657.76711 1.05872e-17
7659.28527 1.05911e-17
7660.80343 1.05949e-17
7662.33178 1.05988e-17
7663.84994 1.06026e-17
7665.36810 1.06065e-17
7666.89645 1.06103e-17
7668.41461 1.06142e-17
7669.93277 1.06180e-17
7671.46112 1.06219e-17
7672.97928 1.06257e-17
7674.50763 1.06296e-17
7676.02580 1.06334e-17
7677.54396 1.06373e-17
7679.07231 1.06411e-17
7680.59047 1.06450e-17
7682.10863 1.04157e-17
7683.63698 1.01862e-17
7685.15514 1.03652e-17
7686.67330 1.05444e-17
7688.20165 1.08312e-17
7689.71981 1.11181e-17
7691.23797 1.09164e-17
7692.76632 1.07145e-17
7694.28448 1.05078e-17
7695.81283 1.03012e-17
7697.33099 1.02084e-17
7698.84916 1.01156e-17
7700.37751 1.04080e-17
7701.89567 1.07004e-17
7703.41383 1.06614e-17
7704.94218 1.06223e-17
7706.46034 1.03373e-17
7707.97850 1.00522e-17
7709.50685 1.04025e-17
7711.02501 1.07532e-17
7712.54317 1.05746e-17
7714.07152 1.03958e-17
7715.58968 9.72286e-18
7717.10784 9.04969e-18
7718.63619 8.98766e-18
7720.15435 8.92592e-18
7721.68270 9.24072e-18
7723.20087 9.55568e-18
7724.71903 9.50904e-18
7726.24738 9.46223e-18
7727.76554 9.40830e-18
7729.28370 9.35438e-18
7730.81205 9.25866e-18
7732.33021 9.16292e-18
7733.84837 9.20526e-18
7735.37672 9.24766e-18
7736.89488 9.15933e-18
7738.42323 9.07094e-18
7739.94139 8.83829e-18
7741.45955 8.60559e-18
7742.98790 8.57508e-18
7744.50606 8.54468e-18
7746.02423 8.36529e-18
7747.55258 8.18584e-18
7749.07074 7.79214e-18
7750.58890 7.39836e-18
7752.11725 7.23633e-18
7753.63541 7.07442e-18
7755.15357 7.95546e-18
7756.68192 8.83695e-18
7758.20008 8.97133e-18
7759.72843 9.10535e-18
7761.24659 8.57999e-18
7762.76475 8.05434e-18
7764.29310 7.93498e-18
7765.81126 7.81582e-18
7767.32942 7.64885e-18
7768.85777 7.48186e-18
7770.37594 7.69628e-18
7771.89410 7.91086e-18
7773.42245 7.54095e-18
7774.94061 7.17077e-18
7776.45877 7.19693e-18
7777.98712 7.22329e-18
7779.50528 7.25001e-18
7781.02344 7.27674e-18
7782.55179 7.27471e-18
7784.06995 7.27265e-18
7785.59830 7.45867e-18
7787.11646 7.64476e-18
7788.63462 7.79873e-18
7790.16297 7.95268e-18
7791.68113 7.89088e-18
7793.19930 7.82897e-18
7794.72765 7.82862e-18
7796.24581 7.82830e-18
7797.76397 7.77564e-18
7799.29232 7.72296e-18
7800.81048 7.56650e-18
7802.32864 7.41000e-18
7803.85699 7.43856e-18
7805.37515 7.46721e-18
7806.90350 7.25861e-18
7808.42166 7.04991e-18
7809.93982 7.38573e-18
7811.46817 7.72179e-18
7812.98633 7.93316e-18
7814.50449 8.14445e-18
7816.03284 8.66468e-18
7817.55101 9.18503e-18
7819.06917 8.76187e-18
7820.59752 8.33827e-18
7822.11568 8.46193e-18
7823.64403 8.58585e-18
7825.16219 8.90507e-18
7826.68035 9.22436e-18
7828.20870 9.12430e-18
7829.72686 9.02403e-18
7831.24502 9.06303e-18
7832.77337 9.10209e-18
7834.29153 9.29321e-18
7835.80969 9.48439e-18
7837.33804 9.36495e-18
7838.85620 9.24537e-18
7840.37437 9.31235e-18
7841.90272 9.37943e-18
7843.42088 9.56141e-18
7844.93904 9.74344e-18
7846.46739 9.69971e-18
7847.98555 9.65587e-18
7849.51390 9.70946e-18
7851.03206 9.76309e-18
7852.55022 9.59728e-18
7854.07857 9.43136e-18
7855.59673 9.25072e-18
7857.11489 9.07008e-18
7858.64324 9.43917e-18
7860.16140 9.80851e-18
7861.67956 9.59238e-18
7863.20791 9.37598e-18
7864.72608 9.44349e-18
7866.24424 9.51115e-18
7867.77259 1.02951e-17
7869.29075 1.10793e-17
7870.81910 1.08623e-17
7872.33726 1.06448e-17
7873.85542 1.05997e-17
7875.38377 1.05546e-17
7876.90193 1.10578e-17
7878.42009 1.15613e-17
7879.94844 1.12582e-17
7881.46660 1.09548e-17
7882.98476 1.07518e-17
7884.51311 1.05490e-17
7886.03127 1.06145e-17
7887.55962 1.06802e-17
7889.07779 1.07224e-17
7890.59595 1.07645e-17
7892.12430 1.07775e-17
7893.64246 1.07904e-17
7895.16062 1.07041e-17
7896.68897 1.06177e-17
7898.20713 1.06804e-17
7899.72529 1.07433e-17
7901.25364 1.10500e-17
7902.77180 1.13568e-17
7904.28996 1.13749e-17
7905.81831 1.13929e-17
7907.33647 1.09060e-17
7908.85463 1.04188e-17
7910.38298 1.01328e-17
7911.90115 9.84690e-18
7913.42950 1.03380e-17
7914.94766 1.08294e-17
7916.46582 1.12642e-17
7917.99417 1.16990e-17
7919.51233 1.13690e-17
7921.03049 1.10386e-17
7922.55884 1.09173e-17
7924.07700 1.07962e-17
7925.59516 1.04801e-17
7927.12351 1.01640e-17
7928.64167 1.03354e-17
7930.15983 1.05070e-17
7931.68818 1.05073e-17
7933.20634 1.05076e-17
7934.73469 1.09336e-17
7936.25286 1.13599e-17
7937.77102 1.07806e-17
7939.29937 1.02009e-17
7940.81753 1.03198e-17
7942.33569 1.04390e-17
7943.86404 1.12595e-17
7945.38220 1.20804e-17
7946.90036 1.18517e-17
7948.42871 1.16226e-17
7949.94687 1.13948e-17
7951.46503 1.11671e-17
7952.99338 1.10207e-17
7954.51154 1.08743e-17
7956.03989 1.05813e-17
7957.55805 1.02883e-17
7959.07622 1.04337e-17
7960.60457 1.05792e-17
7962.12273 1.05910e-17
7963.64089 1.06027e-17
7965.16924 1.04925e-17
7966.68740 1.03823e-17
7968.20556 1.02027e-17
7969.73391 1.00230e-17
7971.25207 9.86310e-18
7972.77023 9.70318e-18
7974.29858 9.89596e-18
7975.81674 1.00889e-17
7977.34509 1.01188e-17
7978.86325 1.01485e-17
7980.38141 9.87187e-18
7981.90976 9.59507e-18
7983.42793 9.91292e-18
7984.94609 1.02311e-17
7986.47444 1.03328e-17
7987.99260 1.04345e-17
7989.51076 1.00966e-17
7991.03911 9.75852e-18
7992.55727 1.00546e-17
7994.07543 1.03510e-17
7995.60378 1.01667e-17
7997.12194 9.98215e-18
7998.65029 9.82924e-18
8000.16845 9.67635e-18
8001.68661 9.99607e-18
8003.21496 1.03160e-17
8004.73312 1.04394e-17
8006.25129 1.05626e-17
8007.77964 1.03495e-17
8009.29780 1.01362e-17
8010.81596 1.02978e-17
8012.34431 1.04596e-17
8013.86247 1.06329e-17
8015.39082 1.08063e-17
8016.90898 1.04509e-17
8018.42714 1.00952e-17
8019.95549 1.03853e-17
8021.47365 1.06756e-17
8022.99181 1.08243e-17
8024.52016 1.09729e-17
8026.03832 1.04209e-17
8027.55648 9.86858e-18
8029.08483 1.03569e-17
8030.60300 1.08458e-17
8032.12116 1.05750e-17
8033.64951 1.03037e-17
8035.16767 1.05056e-17
8036.69602 1.07077e-17
8038.21418 1.08269e-17
8039.73234 1.09461e-17
8041.26069 1.08174e-17
8042.77885 1.06886e-17
8044.29701 1.07647e-17
8045.82536 1.08410e-17
8047.34352 1.07266e-17
8048.86168 1.06122e-17
8050.39003 1.03844e-17
8051.90819 1.01565e-17
8053.42636 1.00188e-17
8054.95471 9.88108e-18
8056.47287 1.01401e-17
8058.00122 1.03994e-17
8059.51938 1.05925e-17
8061.03754 1.07856e-17
8062.56589 1.08203e-17
8064.08405 1.08549e-17
8065.60221 1.10407e-17
8067.13056 1.12267e-17
8068.64872 1.10930e-17
8070.16688 1.09591e-17
8071.69523 1.07050e-17
8073.21339 1.04509e-17
8074.73155 1.05861e-17
8076.25990 1.07214e-17
8077.77807 1.08487e-17
8079.30642 1.09760e-17
8080.82458 1.08948e-17
8082.34274 1.08135e-17
8083.87109 1.07241e-17
8085.38925 1.06347e-17
8086.90741 1.04142e-17
8088.43576 1.01938e-17
8089.95392 1.05658e-17
8091.47208 1.09381e-17
8093.00043 1.09571e-17
8094.51859 1.09759e-17
8096.03675 1.08521e-17
8097.56510 1.07282e-17
8099.08326 1.06084e-17
8100.61161 1.04885e-17
8102.12978 1.04365e-17
8103.64794 1.03845e-17
8105.17629 1.03884e-17
8106.69445 1.03924e-17
8108.21261 1.03568e-17
8109.74096 1.03212e-17
8111.25912 1.05318e-17
8112.77728 1.07425e-17
8114.30563 1.09912e-17
8115.82379 1.12399e-17
8117.34195 1.10198e-17
8118.87030 1.07994e-17
8120.38846 1.04230e-17
8121.90662 1.00465e-17
8123.43497 9.87990e-18
8124.95314 9.71341e-18
8126.48149 9.87127e-18
8127.99965 1.00293e-17
8128.41774 1.00293e-17
8130.41615 1.00965e-17
8132.41456 1.01711e-17
8134.42307 1.02180e-17
8136.42149 1.02222e-17
8138.41990 1.01961e-17
8140.41831 1.01525e-17
8142.41673 1.01299e-17
8144.42523 1.02145e-17
8146.42365 1.03166e-17
8148.42206 1.03914e-17
8150.42048 1.04076e-17
8152.41889 1.03547e-17
8154.42740 1.02384e-17
8156.42581 1.01213e-17
8158.42423 1.01150e-17
8160.42264 1.01180e-17
8162.43115 1.00950e-17
8164.42956 1.00171e-17
8166.42797 9.84960e-18
8168.42639 9.61952e-18
8170.42480 9.41438e-18
8172.43331 9.35621e-18
8174.43172 9.35575e-18
8176.43014 9.39730e-18
8178.42855 9.43417e-18
8180.43706 9.42658e-18
8182.43547 9.36896e-18
8184.43389 9.29739e-18
8186.43230 9.24608e-18
8188.43071 9.22100e-18
8190.43922 9.24195e-18
8192.43764 9.31617e-18
8194.43605 9.47558e-18
8196.43446 9.67680e-18
8198.43288 9.87857e-18
8200.44138 1.00181e-17
8202.43980 1.00976e-17
8204.43821 1.00680e-17
8206.43663 9.96981e-18
8208.44513 9.79366e-18
8210.44355 9.59717e-18
8212.44196 9.41645e-18
8214.44038 9.29927e-18
8216.43879 9.22679e-18
8218.44730 9.20566e-18
8220.44571 9.23767e-18
8222.44412 9.36620e-18
8224.44254 9.50370e-18
8226.44095 9.58014e-18
8228.44946 9.55681e-18
8230.44787 9.47468e-18
8232.44629 9.35487e-18
8234.44470 9.21794e-18
8236.45321 9.09453e-18
8238.45162 8.98576e-18
8240.45004 8.89618e-18
8242.44845 8.82434e-18
8244.44686 8.76388e-18
8246.45537 8.70899e-18
8248.45378 8.66176e-18
8250.45220 8.60485e-18
8252.45061 8.57984e-18
8254.45912 8.64984e-18
8256.45753 8.74758e-18
8258.45595 8.79458e-18
8260.45436 8.73200e-18
8262.45278 8.61443e-18
8264.46128 8.45815e-18
8266.45970 8.31665e-18
8268.45811 8.28215e-18
8270.45653 8.27214e-18
8272.45494 8.18154e-18
8274.46345 8.00671e-18
8276.46186 7.85276e-18
8278.46027 7.82783e-18
8280.45869 7.87643e-18
8282.46720 8.04128e-18
8284.46561 8.20234e-18
8286.46402 8.25064e-18
8288.46244 8.18739e-18
8290.46085 8.11191e-18
8292.46936 8.09384e-18
8294.46777 8.05738e-18
8296.46619 7.92460e-18
8298.46460 7.76620e-18
8300.46301 7.61057e-18
8302.47152 7.48433e-18
8304.46994 7.39172e-18
8306.46835 7.34325e-18
8308.46676 7.32455e-18
8310.47527 7.34243e-18
8312.47368 7.33474e-18
8314.47210 7.22838e-18
8316.47051 7.06784e-18
8318.46893 6.89758e-18
8320.47743 6.75918e-18
8322.47585 6.64521e-18
8324.47426 6.57336e-18
8326.47268 6.52047e-18
8328.47109 6.47966e-18
8330.47960 6.43129e-18
8332.47801 6.33861e-18
8334.47642 6.23427e-18
8336.47484 6.19467e-18
8338.48335 6.28087e-18
8340.48176 6.35703e-18
8342.48017 6.25438e-18
8344.47859 6.09416e-18
8346.47700 5.94763e-18
8348.48551 5.81719e-18
8350.48392 5.64274e-18
8352.48234 5.42315e-18
8354.48075 5.24204e-18
8356.48926 5.24649e-18
8358.48767 5.29178e-18
8360.48609 5.32011e-18
8362.48450 5.29727e-18
8364.48291 5.20529e-18
8366.49142 5.05352e-18
8368.48983 4.90037e-18
8370.48825 4.82265e-18
8372.48666 4.75878e-18
8374.48508 4.67811e-18
8376.49358 4.58650e-18
8378.49200 4.48244e-18
8380.49041 4.38334e-18
8382.48883 4.30905e-18
8384.49733 4.28569e-18
8386.49575 4.28596e-18
8388.49416 4.29784e-18
8390.49257 4.30995e-18
8392.49099 4.31524e-18
8394.49950 4.30458e-18
8396.49791 4.26312e-18
8398.49632 4.19900e-18
8400.49474 4.16684e-18
8402.50324 4.28920e-18
8404.50166 4.43209e-18
8406.50007 4.51233e-18
8408.49849 4.55336e-18
8410.49690 4.61711e-18
8412.50541 4.72052e-18
8414.50382 4.81124e-18
8416.50224 4.82917e-18
8418.50065 4.84053e-18
8420.49906 4.90430e-18
8422.50757 4.97464e-18
8424.50598 5.00176e-18
8426.50440 4.97636e-18
8428.50281 4.93316e-18
8430.51132 4.90375e-18
8432.50973 4.89814e-18
8434.50815 4.96056e-18
8436.50656 5.04534e-18
8438.50497 5.11373e-18
8440.51348 5.16890e-18
8442.51190 5.24464e-18
8444.51031 5.36154e-18
8446.50872 5.48987e-18
8448.50714 5.60745e-18
8450.51564 5.71171e-18
8452.51406 5.76729e-18
8454.51247 5.82905e-18
8456.51089 5.96724e-18
8458.51939 6.20942e-18
8460.51781 6.47222e-18
8462.51622 6.67136e-18
8464.51464 6.82678e-18
8466.51305 6.92479e-18
8468.52156 6.96633e-18
8470.51997 6.94189e-18
8472.51839 6.87340e-18
8474.51680 6.78512e-18
8476.52531 6.71704e-18
8478.52372 6.68904e-18
8480.52213 6.78219e-18
8482.52055 6.89532e-18
8484.51896 6.94952e-18
8486.52747 6.92456e-18
8488.52588 6.85926e-18
8490.52430 6.78677e-18
8492.52271 6.73498e-18
8494.52113 6.75551e-18
8496.52963 6.84144e-18
8498.52805 7.03655e-18
8500.52646 7.26624e-18
8502.52487 7.45188e-18
8504.53338 7.52679e-18
8506.53180 7.55717e-18
8508.53021 7.57299e-18
8510.52862 7.60389e-18
8512.52704 7.71651e-18
8514.53554 7.84668e-18
8516.53396 7.93549e-18
8518.53237 7.93473e-18
8520.53079 7.86119e-18
8522.52920 7.70099e-18
8524.53771 7.54156e-18
8526.53612 7.46292e-18
8528.53454 7.46571e-18
8530.53295 7.58293e-18
8532.54146 7.75293e-18
8534.53987 7.88001e-18
8536.53828 7.86496e-18
8538.53670 7.84213e-18
8540.53511 7.95120e-18
8542.54362 8.09090e-18
8544.54203 8.19392e-18
8546.54045 8.27215e-18
8548.53886 8.37517e-18
8550.53728 8.53308e-18
8552.54578 8.71455e-18
8554.54420 8.91480e-18
8556.54261 9.09029e-18
8558.54102 9.18919e-18
8560.54953 9.23862e-18
8562.54795 9.26958e-18
8564.54636 9.31395e-18
8566.54477 9.36564e-18
8568.54319 9.43451e-18
8570.55169 9.54400e-18
8572.55011 9.74905e-18
8574.54852 9.98507e-18
8576.54694 1.01924e-17
8578.54535 1.03573e-17
8580.55386 1.05275e-17
8582.55227 1.07376e-17
8584.55069 1.09556e-17
8586.54910 1.11846e-17
8588.55761 1.13762e-17
8590.55602 1.14537e-17
8592.55443 1.14833e-17
8594.55285 1.15817e-17
8596.55126 1.18286e-17
8598.55977 1.20930e-17
8600.55818 1.22128e-17
8602.55660 1.23178e-17
8604.55501 1.24826e-17
8606.55343 1.26676e-17
8608.56193 1.28012e-17
8610.56035 1.28603e-17
8612.55876 1.29081e-17
8614.55717 1.30056e-17
8616.56568 1.31365e-17
8618.56409 1.33323e-17
8620.56251 1.35423e-17
8622.56092 1.37124e-17
8624.55934 1.38405e-17
8626.56784 1.39897e-17
8628.56626 1.42157e-17
8630.56467 1.44341e-17
8632.56309 1.45323e-17
8634.57159 1.46292e-17
8636.57001 1.48328e-17
8638.56842 1.51229e-17
8640.56684 1.53983e-17
8642.56525 1.55895e-17
8644.57376 1.57831e-17
8646.57217 1.60748e-17
8648.57058 1.63812e-17
8650.56900 1.67127e-17
8652.56741 1.69593e-17
8654.57592 1.70008e-17
8656.57433 1.68069e-17
8658.57275 1.65635e-17
8660.57116 1.64866e-17
8662.57967 1.64921e-17
8664.57808 1.66174e-17
8666.57650 1.67887e-17
8668.57491 1.69508e-17
8670.57332 1.70566e-17
8672.58183 1.71413e-17
8674.58025 1.72124e-17
8676.57866 1.72161e-17
8678.57707 1.70523e-17
8680.57549 1.68346e-17
8682.58399 1.66367e-17
8684.58241 1.65086e-17
8686.58082 1.64233e-17
8688.57924 1.63899e-17
8690.58774 1.64178e-17
8692.58616 1.65614e-17
8694.58457 1.67246e-17
8696.58299 1.68425e-17
8698.58140 1.69067e-17
8700.58991 1.69454e-17
8702.58832 1.69758e-17
8704.58673 1.70017e-17
8706.58515 1.70418e-17
8708.59366 1.70813e-17
8710.59207 1.71195e-17
8712.59048 1.71444e-17
8714.58890 1.71146e-17
8716.58731 1.70732e-17
8718.59582 1.71172e-17
8720.59423 1.73848e-17
8722.59265 1.77227e-17
8724.59106 1.80803e-17
8726.58947 1.83602e-17
8728.59798 1.84617e-17
8730.59640 1.84047e-17
8732.59481 1.83129e-17
8734.59322 1.82962e-17
8736.60173 1.82554e-17
8738.60014 1.81078e-17
8740.59856 1.79223e-17
8742.59697 1.77087e-17
8744.59539 1.75345e-17
8746.60389 1.74507e-17
8748.60231 1.75003e-17
8750.60072 1.76062e-17
8752.59914 1.77144e-17
8754.60764 1.77890e-17
8756.60606 1.77754e-17
8758.60447 1.76847e-17
8760.60288 1.75276e-17
8762.60130 1.73416e-17
8764.60981 1.71566e-17
8766.60822 1.70292e-17
8768.60663 1.69535e-17
8770.60505 1.69695e-17
8772.60346 1.70255e-17
8774.61197 1.70881e-17
8776.61038 1.71230e-17
8778.60880 1.71367e-17
8780.60721 1.71168e-17
8782.61572 1.70763e-17
8784.61413 1.69976e-17
8786.61254 1.69422e-17
8788.61096 1.69593e-17
8790.60937 1.70537e-17
8792.61788 1.72031e-17
8794.61629 1.73797e-17
8796.61471 1.75594e-17
8798.61312 1.77188e-17
8800.61154 1.78045e-17
8802.62004 1.77512e-17
8804.61846 1.75850e-17
8806.61687 1.73283e-17
8808.61529 1.70422e-17
8810.62379 1.67736e-17
8812.62221 1.66317e-17
8814.62062 1.64985e-17
8816.61903 1.62864e-17
8818.61745 1.60397e-17
8820.62596 1.57775e-17
8822.62437 1.55660e-17
8824.62278 1.54468e-17
8826.62120 1.54984e-17
8828.62970 1.56650e-17
8830.62812 1.60316e-17
8832.62653 1.63456e-17
8834.62495 1.63633e-17
8836.62336 1.61284e-17
8838.63187 1.58575e-17
8840.63028 1.57323e-17
8842.62870 1.56412e-17
8844.62711 1.55704e-17
8846.62552 1.54790e-17
8848.63403 1.52869e-17
8850.63244 1.50783e-17
8852.63086 1.49805e-17
8854.62927 1.50357e-17
8856.63778 1.50901e-17
8858.63619 1.49631e-17
8860.63461 1.47776e-17
8862.63302 1.45656e-17
8864.63144 1.43532e-17
8866.63994 1.41499e-17
8868.63836 1.39683e-17
8870.63677 1.37964e-17
8872.63518 1.36291e-17
8874.63360 1.34672e-17
8876.64211 1.32915e-17
8878.64052 1.31425e-17
8880.63893 1.30664e-17
8882.63735 1.30461e-17
8884.64585 1.30326e-17
8886.64427 1.29768e-17
8888.64268 1.29036e-17
8890.64110 1.27943e-17
8892.63951 1.27008e-17
8894.64802 1.26672e-17
8896.64643 1.26853e-17
8898.64485 1.27429e-17
8900.64326 1.27999e-17
8902.65177 1.28119e-17
8904.65018 1.26645e-17
8906.64859 1.24932e-17
8908.64701 1.23347e-17
8910.64542 1.22790e-17
8912.65393 1.24409e-17
8914.65234 1.27726e-17
8916.65076 1.30694e-17
8918.64917 1.30726e-17
8920.64759 1.29169e-17
8922.65609 1.25756e-17
8924.65451 1.21648e-17
8926.65292 1.17734e-17
8928.65133 1.14390e-17
8930.65984 1.10787e-17
8932.65826 1.06676e-17
8934.65667 1.03440e-17
8936.65508 1.03307e-17
8938.65350 1.04241e-17
8940.66200 1.05276e-17
8942.66042 1.05655e-17
8944.65883 1.05300e-17
8946.65725 1.04066e-17
8948.66575 1.02723e-17
8950.66417 1.02510e-17
8952.66258 1.02237e-17
8954.66100 1.00950e-17
8956.65941 9.94055e-18
8958.66792 9.87876e-18
8960.66633 9.92328e-18
8962.66474 9.93000e-18
8964.66316 9.72324e-18
8966.66157 9.51149e-18
8968.67008 9.47606e-18
8970.66849 9.49686e-18
8972.66691 9.46298e-18
8974.66532 9.33233e-18
8976.67383 9.16299e-18
8978.67224 8.98752e-18
8980.67066 8.80290e-18
8982.66907 8.59043e-18
8984.66748 8.42458e-18
8986.67599 8.39344e-18
8988.67441 8.44974e-18
8990.67282 8.49673e-18
8992.67123 8.45230e-18
8994.66965 8.38520e-18
8996.67815 8.33201e-18
8998.67657 8.28862e-18
9000.67498 8.24417e-18
9002.67340 8.23856e-18
9004.68190 8.33679e-18
9006.68032 8.52318e-18
9008.67873 8.67953e-18
9010.67714 8.64190e-18
9012.67556 8.52789e-18
9014.68407 8.35868e-18
9016.68248 8.18968e-18
9018.68089 8.07144e-18
9020.67931 8.00452e-18
9022.67772 7.91362e-18
9024.68623 7.73109e-18
9026.68464 7.57346e-18
9028.68306 7.57102e-18
9030.68147 7.62870e-18
9032.68998 7.67790e-18
9034.68839 7.70650e-18
9036.68681 7.75755e-18
9038.68522 7.84999e-18
9040.68363 7.95189e-18
9042.69214 8.02798e-18
9044.69056 8.09988e-18
9046.68897 8.18038e-18
9048.68738 8.26076e-18
9050.68580 8.32376e-18
9052.69430 8.36656e-18
9054.69272 8.41446e-18
9056.69113 8.51203e-18
9058.68955 8.58633e-18
9060.69805 8.54539e-18
9062.69647 8.48233e-18
9064.69488 8.50465e-18
9066.69330 8.63236e-18
9068.69171 8.76664e-18
9070.70022 8.81467e-18
9072.69863 8.82458e-18
9074.69704 8.78856e-18
9076.69546 8.74336e-18
9078.69387 8.69629e-18
9080.70238 8.69462e-18
9082.70079 8.78102e-18
9084.69921 8.99093e-18
9086.69762 9.21308e-18
9088.70613 9.33154e-18
9090.70454 9.36853e-18
9092.70296 9.28922e-18
9094.70137 9.14672e-18
9096.69978 8.98441e-18
9098.70829 8.87207e-18
9100.70671 8.81468e-18
9102.70512 8.88206e-18
9104.70353 8.99529e-18
9106.70195 9.11476e-18
9108.71045 9.22978e-18
9110.70887 9.36002e-18
9112.70728 9.48130e-18
9114.70570 9.55539e-18
9116.71420 9.52157e-18
9118.71262 9.47145e-18
9120.71103 9.50388e-18
9122.70945 9.53983e-18
9124.70786 9.51887e-18
9126.71637 9.40909e-18
9128.71478 9.21825e-18
9130.71319 8.95509e-18
9132.71161 8.70805e-18
9134.72012 8.60875e-18
9136.71853 8.58323e-18
9138.71694 8.63154e-18
9140.71536 8.67560e-18
9142.71377 8.63796e-18
9144.72228 8.47240e-18
9146.72069 8.30431e-18
9148.71911 8.27006e-18
9150.71752 8.32766e-18
9152.71593 8.56614e-18
9154.72444 8.81957e-18
9156.72286 8.91225e-18
9158.72127 8.77325e-18
9160.71968 8.58296e-18
9162.72819 8.51003e-18
9164.72660 8.47086e-18
9166.72502 8.44890e-18
9168.72343 8.45430e-18
9170.72185 8.50956e-18
9172.73035 8.59646e-18
9174.72877 8.68444e-18
9176.72718 8.73266e-18
9178.72559 8.75139e-18
9180.73410 8.70797e-18
9182.73252 8.66035e-18
9184.73093 8.64267e-18
9186.72934 8.67939e-18
9188.72776 8.77907e-18
9190.73626 8.93465e-18
9192.73468 9.08221e-18
9194.73309 9.08879e-18
9196.73151 9.08887e-18
9198.72992 9.18002e-18
9200.73843 9.30542e-18
9202.73684 9.36337e-18
9204.73526 9.32418e-18
9206.73367 9.29253e-18
9208.74218 9.39189e-18
9210.74059 9.49686e-18
9212.73901 9.50261e-18
9214.73742 9.48930e-18
9216.73583 9.54354e-18
9218.74434 9.68649e-18
9220.74275 9.86044e-18
9222.74117 1.00163e-17
9224.73958 1.01341e-17
9226.73800 1.01419e-17
9228.74650 1.01092e-17
9230.74492 1.00941e-17
9232.74333 1.00943e-17
9234.74175 1.00589e-17
9236.75025 9.95974e-18
9238.74867 9.85008e-18
9240.74708 9.77083e-18
9242.74549 9.73533e-18
9244.74391 9.77745e-18
9246.75242 9.87454e-18
9248.75083 1.00074e-17
9250.74924 1.01346e-17
9252.74766 1.02321e-17
9254.75616 1.02197e-17
9256.75458 1.02155e-17
9258.75299 1.03356e-17
9260.75141 1.04941e-17
9262.74982 1.06093e-17
9264.75833 1.06212e-17
9266.75674 1.05549e-17
9268.75516 1.04021e-17
9270.75357 1.02234e-17
9272.75198 1.00645e-17
9274.76049 9.95187e-18
9276.75890 9.90774e-18
9278.75732 9.93700e-18
9280.75573 1.00367e-17
9282.76424 1.01834e-17
9284.76265 1.03009e-17
9286.76107 1.02304e-17
9288.75948 1.01232e-17
9290.75790 1.00873e-17
9292.76640 1.00942e-17
9294.76482 1.00423e-17
9296.76323 9.90160e-18
9298.76164 9.78071e-18
9300.76006 9.80249e-18
9302.76857 9.92232e-18
9304.76698 1.02528e-17
9306.76539 1.05604e-17
9308.76381 1.06133e-17
9310.77231 1.03243e-17
9312.77073 9.89181e-18
9314.76914 9.47398e-18
9316.76756 9.22098e-18
9318.76597 9.54107e-18
9320.77448 9.98622e-18
9322.77289 1.01676e-17
9324.77131 9.99457e-18
9326.76972 9.73082e-18
9328.77823 9.56343e-18
9330.77664 9.41837e-18
9332.77505 9.27254e-18
9334.77347 9.21025e-18
9336.77188 9.35528e-18
9338.78039 9.60158e-18
9340.77880 9.82743e-18
9342.77722 9.86792e-18
9344.77563 9.72573e-18
9346.77405 9.09465e-18
9348.78255 8.58122e-18
9350.78097 8.74427e-18
9352.77938 9.27843e-18
9354.77779 9.77390e-18
9356.78630 9.95398e-18
9358.78471 1.00141e-17
9360.78313 1.00077e-17
9362.78154 9.93403e-18
9364.77996 9.78627e-18
9366.78846 9.62653e-18
9368.78688 9.43101e-18
9370.78529 9.34180e-18
9372.78371 9.53547e-18
9374.79221 1.02084e-17
9376.79063 1.09084e-17
9378.78904 1.12064e-17
9380.78746 1.12014e-17
9382.78587 1.08167e-17
9384.79438 1.02589e-17
9386.79279 9.74147e-18
9388.79120 9.50345e-18
9390.78962 9.36955e-18
9392.78803 9.24899e-18
9394.79654 9.18824e-18
9396.79495 9.23257e-18
9398.79337 9.30890e-18
9400.79178 9.30870e-18
9402.80029 9.22612e-18
9404.79870 9.23285e-18
9406.79712 9.57995e-18
9408.79553 9.93671e-18
9410.79394 1.00567e-17
9412.80245 1.00212e-17
9414.80086 9.93297e-18
9416.79928 9.83511e-18
9418.79769 9.66759e-18
9420.79611 9.40685e-18
9422.80461 9.20215e-18
9424.80303 9.26422e-18
9426.80144 9.43441e-18
9428.79986 9.65416e-18
9430.80836 9.79587e-18
9432.80678 9.77514e-18
9434.80519 9.51464e-18
9436.80361 9.22466e-18
9438.80202 9.14479e-18
9440.81053 9.17861e-18
9442.80894 9.39148e-18
9444.80735 9.61828e-18
9446.80577 9.68822e-18
9448.81428 9.49545e-18
9450.81269 9.21813e-18
9452.81110 8.96863e-18
9454.80952 8.87759e-18
9456.80793 9.30112e-18
9458.81644 9.80825e-18
9460.81485 9.93268e-18
9462.81327 9.55544e-18
9464.81168 9.08302e-18
9466.81009 8.87921e-18
9468.81860 8.86331e-18
9470.81702 9.20377e-18
9472.81543 9.68784e-18
9474.81384 1.02454e-17
9476.82235 1.06550e-17
9478.82076 1.07878e-17
9480.81918 1.04674e-17
9482.81759 9.97711e-18
9484.81601 9.49605e-18
9486.82451 9.14292e-18
9488.82293 9.11302e-18
9490.82134 9.30258e-18
9492.81976 9.56899e-18
9494.81817 9.71662e-18
9496.82668 9.70866e-18
9498.82509 9.28123e-18
9500.82350 8.79150e-18
9502.82192 8.42919e-18
9504.83043 8.25923e-18
9506.82884 8.30807e-18
9508.82725 8.53326e-18
9510.82567 8.81188e-18
9512.82408 8.98222e-18
9514.83259 9.06288e-18
9516.83100 8.91291e-18
9518.82942 8.74262e-18
9520.82783 8.76935e-18
9522.82624 8.97217e-18
9524.83475 9.14127e-18
9526.83317 9.08317e-18
9528.83158 8.91819e-18
9530.82999 8.61350e-18
9532.83850 8.33568e-18
9534.83691 8.25428e-18
9536.83533 8.31078e-18
9538.83374 8.35390e-18
9540.83216 8.26707e-18
9542.84066 8.13586e-18
9544.83908 7.96229e-18
9546.83749 7.83647e-18
9548.83591 7.86932e-18
9550.83432 7.99036e-18
9552.84283 8.12770e-18
9554.84124 8.19704e-18
9556.83965 8.19491e-18
9558.83807 8.05491e-18
9560.84658 7.88028e-18
9562.84499 7.75704e-18
9564.84340 7.65291e-18
9566.84182 7.53062e-18
9568.84023 7.38265e-18
9570.84874 7.22185e-18
9572.84715 7.06231e-18
9574.84557 6.94006e-18
9576.84398 6.89411e-18
9578.84239 6.93884e-18
9580.85090 7.14082e-18
9582.84931 7.40755e-18
9584.84773 7.63482e-18
9586.84614 7.69894e-18
9588.85465 7.65991e-18
9590.85306 7.46271e-18
9592.85148 7.24916e-18
9594.84989 7.09384e-18
9596.84831 7.05320e-18
9598.85681 7.16618e-18
9600.85523 7.40986e-18
9602.85364 7.66366e-18
9604.85206 7.76415e-18
9606.86056 7.77995e-18
9608.85898 7.63843e-18
9610.85739 7.50302e-18
9612.85580 7.54377e-18
9614.85422 7.77229e-18
9616.86273 8.01885e-18
9618.86114 8.11578e-18
9620.85955 8.10803e-18
9622.85797 7.88911e-18
9624.85638 7.64075e-18
9626.86489 7.49182e-18
9628.86330 7.49344e-18
9630.86172 7.61541e-18
9632.86013 7.81276e-18
9634.86864 7.95622e-18
9636.86705 7.72332e-18
9638.86547 7.48613e-18
9640.86388 7.51008e-18
9642.86229 7.71969e-18
9644.87080 7.93751e-18
9646.86921 8.03223e-18
9648.86763 8.06777e-18
9650.86604 8.03184e-18
9652.86446 7.96230e-18
9654.87296 7.85831e-18
9656.87138 7.78624e-18
9658.86979 7.81130e-18
9660.86821 7.93854e-18
9662.87671 8.09095e-18
9664.87513 8.18880e-18
9666.87354 8.24870e-18
9668.87195 8.24296e-18
9670.87037 8.19433e-18
9672.87888 8.09717e-18
9674.87729 7.99858e-18
9676.87570 7.94349e-18
9678.87412 7.98408e-18
9680.88262 8.05253e-18
9682.88104 8.09522e-18
9684.87945 8.12313e-18
9686.87787 8.12145e-18
9688.87628 8.11425e-18
9690.88479 8.14325e-18
9692.88320 8.21566e-18
9694.88162 8.26222e-18
9696.88003 8.18092e-18
9698.87844 8.05480e-18
9700.88695 7.88718e-18
9702.88536 7.74991e-18
9704.88378 7.69567e-18
9706.88219 7.75795e-18
9708.89070 7.89757e-18
9710.88911 8.09733e-18
9712.88753 8.25380e-18
9714.88594 8.18314e-18
9716.88436 8.05893e-18
9718.89286 8.05571e-18
9720.89128 8.17217e-18
9722.88969 8.23219e-18
9724.88810 8.10947e-18
9726.89661 8.02228e-18
9728.89503 8.25337e-18
9730.89344 8.54315e-18
9732.89185 8.73317e-18
9734.89027 8.78816e-18
9736.89877 8.75984e-18
9738.89719 8.69758e-18
9740.89560 8.65823e-18
9742.89402 8.80939e-18
9744.89243 8.95092e-18
9746.90094 8.96727e-18
9748.89935 8.86201e-18
9750.89776 8.64372e-18
9752.89618 8.38460e-18
9754.90469 8.18269e-18
9756.90310 8.21492e-18
9758.90151 8.28421e-18
9760.89993 8.27779e-18
9762.89834 8.18699e-18
9764.90685 7.97553e-18
9766.90526 7.71419e-18
9768.90368 7.52061e-18
9770.90209 7.53563e-18
9772.90051 7.60437e-18
9774.90901 7.60456e-18
9776.90743 7.59463e-18
9778.90584 7.59358e-18
9780.90425 7.63485e-18
9782.91276 7.75463e-18
9784.91118 7.96096e-18
9786.90959 8.15573e-18
9788.90800 8.18484e-18
9790.90642 8.15602e-18
9792.91492 8.11502e-18
9794.91334 8.05404e-18
9796.91175 7.92310e-18
9798.91017 7.73902e-18
9800.91867 7.57932e-18
9802.91709 7.55801e-18
9804.91550 7.59036e-18
9806.91392 7.65883e-18
9808.91233 7.72533e-18
9810.92084 7.75273e-18
9812.91925 7.74550e-18
9814.91766 7.76656e-18
9816.91608 7.87616e-18
9818.91449 7.96265e-18
9820.92300 7.92548e-18
9822.92141 7.79428e-18
9824.91983 7.54710e-18
9826.91824 7.26108e-18
9828.92675 7.00719e-18
9830.92516 6.88249e-18
9832.92358 6.84007e-18
9834.92199 6.88550e-18
9836.92040 7.00063e-18
9838.92891 7.24432e-18
9840.92733 7.46912e-18
9842.92574 7.48979e-18
9844.92415 7.25206e-18
9846.92257 7.03020e-18
9848.93107 7.18526e-18
9850.92949 7.41029e-18
9852.92790 7.57395e-18
9854.92632 7.64996e-18
9856.93482 7.64794e-18
9858.93324 7.57050e-18
9860.93165 7.43999e-18
9862.93007 7.28225e-18
9864.92848 7.10907e-18
9866.93699 6.90069e-18
9868.93540 6.75643e-18
9870.93381 6.79118e-18
9872.93223 6.96294e-18
9874.94074 7.13928e-18
9876.93915 7.19467e-18
9878.93756 7.22350e-18
9880.93598 7.29286e-18
9882.93439 7.33867e-18
9884.94290 7.32760e-18
9886.94131 7.24623e-18
9888.93973 7.06705e-18
9890.93814 6.82974e-18
9892.93655 6.65648e-18
9894.94506 6.79975e-18
9896.94348 6.97650e-18
9898.94189 6.99979e-18
9900.94030 6.93030e-18
9902.94881 6.88007e-18
9904.94722 6.88663e-18
9906.94564 6.86822e-18
9908.94405 6.74787e-18
9910.94247 6.68537e-18
9912.95097 6.86823e-18
9914.94939 7.15088e-18
9916.94780 7.46563e-18
9918.94621 7.67277e-18
9920.95472 7.68791e-18
9922.95314 7.39852e-18
9924.95155 7.06791e-18
9926.94996 6.99914e-18
9928.94838 7.01864e-18
9930.95689 7.03544e-18
9932.95530 7.03438e-18
9934.95371 7.07982e-18
9936.95213 7.16656e-18
9938.95054 7.20019e-18
9940.95905 6.93234e-18
9942.95746 6.73233e-18
9944.95588 6.91468e-18
9946.95429 7.30235e-18
9948.96280 7.71835e-18
9950.96121 7.91727e-18
9952.95963 7.81628e-18
9954.95804 7.09498e-18
9956.95645 6.40210e-18
9958.96496 6.36562e-18
9960.96337 6.66960e-18
9962.96179 7.06726e-18
9964.96020 7.32274e-18
9966.95862 7.41003e-18
9968.96712 7.19495e-18
9970.96554 6.93686e-18
9972.96395 6.91757e-18
9974.96236 6.96934e-18
9976.97087 6.94932e-18
9978.96929 6.91064e-18
9980.96770 7.03025e-18
9982.96611 7.37786e-18
9984.96453 7.69045e-18
9986.97304 7.57118e-18
9988.97145 7.33708e-18
9990.96986 7.11518e-18
9992.96828 6.93766e-18
9994.97678 6.74251e-18
9996.97520 6.55891e-18
9998.97361 6.45843e-18
10000.97203 6.56844e-18
10002.97044 6.73757e-18
