# wavelength flux
3484.99972 2.25778e-17
3486.46996 2.87929e-17
3487.94020 3.56281e-17
3489.41044 1.27191e-17
3490.88068 9.64053e-18
3492.35092 1.51470e-17
3493.82116 3.78142e-17
3495.29140 3.75183e-17
3496.76164 1.27790e-17
3498.23188 2.43366e-18
3499.70212 3.35814e-17
3501.17236 3.51602e-17
3502.64260 3.32685e-17
3504.11284 2.87928e-17
3505.58308 3.80743e-17
3507.05332 2.90051e-17
3508.52356 1.55622e-17
3509.99380 2.51535e-17
3511.46404 3.88489e-17
3512.93428 2.55087e-17
3514.40452 4.16119e-17
3515.87476 4.27348e-17
3517.34500 2.87408e-17
3518.80503 1.98359e-17
3520.27527 2.87226e-17
3521.74551 3.31493e-17
3523.21575 2.29217e-17
3524.68599 2.06058e-17
3526.15623 1.72764e-17
3527.62647 2.05263e-17
3529.09671 2.60037e-17
3530.56695 2.95291e-17
3532.03719 9.58224e-18
3533.50743 8.58732e-18
3534.97767 2.13480e-17
3536.44791 2.84202e-17
3537.91815 4.11545e-17
3539.38839 2.18569e-17
3540.85863 2.87973e-17
3542.32887 2.65275e-17
3543.79911 1.99976e-17
3545.26935 3.37625e-17
3546.73959 3.13634e-17
3548.20983 1.60387e-17
3549.68007 2.95489e-17
3551.15031 1.57957e-17
3552.62055 1.77096e-17
3554.09079 2.31794e-17
3555.56103 1.16690e-17
3557.03127 1.37259e-17
3558.50151 2.88632e-17
3559.97175 3.67404e-17
3561.44199 4.11984e-17
3562.91223 3.74452e-17
3564.38247 2.37401e-17
3565.85271 1.01158e-17
3567.32295 2.32765e-17
3568.79319 3.39568e-17
3570.26343 2.41489e-17
3571.73367 2.09423e-17
3573.20391 2.67295e-17
3574.67415 2.86578e-17
3576.14439 3.43137e-17
3577.61463 2.27636e-17
3579.08487 3.43019e-17
3580.55511 1.84616e-17
3582.01514 1.17443e-17
3583.48538 2.38154e-17
3584.95562 1.84305e-17
3586.42586 1.93111e-17
3587.89610 2.63812e-17
3589.36634 3.03914e-17
3590.83658 2.22969e-17
3592.30682 2.72936e-17
3593.77706 2.28148e-17
3595.24730 2.09602e-17
3596.71754 1.45151e-17
3598.18778 2.32275e-17
3599.65802 4.21818e-17
3601.12826 2.47731e-17
3602.59850 9.95426e-18
3604.06874 1.80241e-17
3605.53898 1.40654e-17
3607.00922 2.50163e-17
3608.47946 3.63246e-17
3609.94970 1.45748e-17
3611.41994 1.55910e-17
3612.89018 2.95410e-17
3614.36042 2.58234e-17
3615.83066 2.02810e-17
3617.30090 1.71083e-17
3618.77114 2.41585e-17
3620.24138 1.57314e-17
3621.71162 2.41103e-17
3623.18186 2.70740e-17
3624.65210 3.27050e-17
3626.12234 1.94407e-17
3627.59258 2.90172e-17
3629.06282 1.72984e-17
3630.53306 1.53536e-17
3632.00330 3.16491e-17
3633.47354 2.61266e-17
3634.94378 1.91015e-17
3636.41402 2.11332e-17
3637.88426 1.52705e-17
3639.35450 3.29504e-17
3640.82474 1.29300e-17
3642.29498 1.48301e-17
3643.75501 2.54636e-17
3645.22525 2.62061e-17
3646.69549 2.60902e-17
3648.16573 1.68469e-17
3649.63597 2.16241e-17
3651.10621 2.64182e-17
3652.57645 2.25713e-17
3654.04669 2.13951e-17
3655.51693 2.37462e-17
3656.98717 2.16789e-17
3658.45741 2.23665e-17
3659.92765 2.28542e-17
3661.39789 2.57476e-17
3662.86813 2.95734e-17
3664.33837 2.72027e-17
3665.80861 1.75752e-17
3667.27885 1.61988e-17
3668.74909 1.25951e-17
3670.21933 2.12862e-17
3671.68957 2.73697e-17
3673.15981 1.76195e-17
3674.63005 2.00304e-17
3676.10029 2.85551e-17
3677.57053 2.56531e-17
3679.04077 2.28100e-17
3680.51101 1.87516e-17
3681.98125 1.86494e-17
3683.45149 2.02781e-17
3684.92173 3.44614e-17
3686.39197 2.45435e-17
3687.86221 1.31177e-17
3689.33245 1.40229e-17
3690.80269 2.14042e-17
3692.27293 1.98455e-17
3693.74317 2.40899e-17
3695.21341 2.34704e-17
3696.68365 2.59156e-17
3698.15389 1.92038e-17
3699.62413 1.98585e-17
3701.09437 2.64678e-17
3702.56461 3.04909e-17
3704.03485 1.73021e-17
3705.49488 2.77576e-17
3706.96512 1.73508e-17
3708.43536 2.34420e-17
3709.90560 2.64077e-17
3711.37584 2.34481e-17
3712.84608 2.06815e-17
3714.31632 2.00407e-17
3715.78656 1.97994e-17
3717.25680 2.20777e-17
3718.72704 1.79613e-17
3720.19728 1.78546e-17
3721.66752 2.11484e-17
3723.13776 2.10987e-17
3724.60800 2.75670e-17
3726.07824 1.83298e-17
3727.54848 1.36756e-17
3729.01872 1.43307e-17
3730.48896 1.60469e-17
3731.95920 1.44177e-17
3733.42944 1.96106e-17
3734.89968 1.42155e-17
3736.36992 1.80197e-17
3737.84016 1.89373e-17
3739.31040 1.40577e-17
3740.78064 1.38713e-17
3742.25088 2.17868e-17
3743.72112 2.29379e-17
3745.19136 1.76352e-17
3746.66160 1.67222e-17
3748.13184 1.83372e-17
3749.60208 1.67158e-17
3751.07232 1.85514e-17
3752.54256 1.51668e-17
3754.01280 1.26552e-17
3755.48304 2.32580e-17
3756.95328 2.19436e-17
3758.42352 1.98020e-17
3759.89376 1.35889e-17
3761.36400 1.41506e-17
3762.83424 2.09199e-17
3764.30448 1.81945e-17
3765.77472 1.35599e-17
3767.24496 1.98384e-17
3768.70499 1.94800e-17
3770.17523 1.38444e-17
3771.64547 1.60428e-17
3773.11571 1.37271e-17
3774.58595 8.22928e-18
3776.05619 1.40992e-17
3777.52643 1.82510e-17
3778.99667 9.37519e-18
3780.46691 1.48234e-17
3781.93715 1.39173e-17
3783.40739 1.72810e-17
3784.87763 1.61097e-17
3786.34787 1.51614e-17
3787.81811 1.43212e-17
3789.28835 8.34572e-18
3790.75859 1.05702e-17
3792.22883 1.12093e-17
3793.69907 8.11068e-18
3795.16931 1.01579e-17
3796.63955 1.25605e-17
3798.10979 1.02085e-17
3799.58003 8.94180e-18
3801.05027 1.08558e-17
3802.52051 9.25645e-18
3803.99075 9.72095e-18
3805.46099 7.58851e-18
3806.93123 9.90307e-18
3808.40147 1.15643e-17
3809.87171 7.43439e-18
3811.34195 1.16158e-17
3812.81219 1.44269e-17
3814.28243 9.65118e-18
3815.75267 8.13007e-18
3817.22291 1.31554e-17
3818.69315 1.16580e-17
3820.16339 1.05799e-17
3821.63363 1.05326e-17
3823.10387 1.42191e-17
3824.57411 1.39516e-17
3826.04435 1.43964e-17
3827.51459 1.32643e-17
3828.98483 1.05357e-17
3830.44486 7.44507e-18
3831.91510 8.76877e-18
3833.38534 1.41552e-17
3834.85558 1.24848e-17
3836.32582 1.03278e-17
3837.79606 1.30548e-17
3839.26630 1.37535e-17
3840.73654 7.61597e-18
3842.20678 7.42154e-18
3843.67702 8.97728e-18
3845.14726 1.18855e-17
3846.61750 1.32779e-17
3848.08774 8.18206e-18
3849.55798 1.18393e-17
3851.02822 1.06957e-17
3852.49846 5.91994e-18
3853.96870 9.58286e-18
3855.43894 6.91623e-18
3856.90918 8.29052e-18
3858.37942 1.04763e-17
3859.84966 6.17710e-18
3861.31990 1.20827e-17
3862.79014 1.42108e-17
3864.26038 1.05837e-17
3865.73062 1.13925e-17
3867.20086 1.22077e-17
3868.67110 9.38496e-18
3870.14134 8.86806e-18
3871.61158 1.04724e-17
3873.08182 1.33048e-17
3874.55206 1.28454e-17
3876.02230 7.52994e-18
3877.49254 8.87046e-18
3878.96278 1.02347e-17
3880.43302 1.22730e-17
3881.90326 6.14247e-18
3883.37350 9.93926e-18
3884.84374 1.52293e-17
3886.31398 1.06775e-17
3887.78422 1.10250e-17
3889.25446 1.23146e-17
3890.72470 9.43510e-18
3892.19494 1.07527e-17
3893.65497 9.43954e-18
3895.12521 1.16799e-17
3896.59545 9.54122e-18
3898.06569 1.29600e-17
3899.53593 1.39532e-17
3901.00617 1.08514e-17
3902.47641 1.08447e-17
3903.94665 1.16782e-17
3905.41689 1.19770e-17
3906.88713 1.13009e-17
3908.35737 1.85016e-17
3909.82761 1.21402e-17
3911.29785 8.20064e-18
3912.76809 1.22975e-17
3914.23833 1.60649e-17
3915.70857 1.47987e-17
3917.17881 1.68718e-17
3918.64905 1.47439e-17
3920.11929 1.43481e-17
3921.58953 1.45951e-17
3923.05977 1.29786e-17
3924.53001 1.68461e-17
3926.00025 1.83105e-17
3927.47049 1.58374e-17
3928.94073 1.39466e-17
3930.41097 1.30872e-17
3931.88121 1.61621e-17
3933.35145 1.63165e-17
3934.82169 1.99804e-17
3936.29193 1.82038e-17
3937.76217 1.43345e-17
3939.23241 1.29794e-17
3940.70265 2.01925e-17
3942.17289 1.95736e-17
3943.64313 1.71112e-17
3945.11337 2.06365e-17
3946.58361 1.85082e-17
3948.05385 1.56616e-17
3949.52409 2.18665e-17
3950.99433 2.17353e-17
3952.46457 2.32619e-17
3953.93481 1.94315e-17
3955.39484 1.85046e-17
3956.86508 1.73704e-17
3958.33532 2.24305e-17
3959.80556 2.41006e-17
3961.27580 2.47299e-17
3962.74604 2.59738e-17
3964.21628 2.64235e-17
3965.68652 2.03083e-17
3967.15676 1.82782e-17
3968.62700 2.12418e-17
3970.09724 2.29866e-17
3971.56748 2.22170e-17
3973.03772 2.34211e-17
3974.50796 2.52874e-17
3975.97820 2.16884e-17
3977.44844 2.13724e-17
3978.91868 2.26125e-17
3980.38892 2.00629e-17
3981.85916 2.13452e-17
3983.32940 2.82511e-17
3984.79964 3.54382e-17
3986.26988 3.69121e-17
3987.74012 3.96346e-17
3989.21036 2.98589e-17
3990.68060 2.28433e-17
3992.15084 2.44819e-17
3993.62108 2.42998e-17
3995.09132 3.12407e-17
3996.56156 2.77561e-17
3998.03180 2.50987e-17
3999.50204 2.17874e-17
4000.97228 2.03903e-17
4002.44252 2.40649e-17
4003.91276 2.48657e-17
4005.38300 2.50738e-17
4006.85324 2.46723e-17
4008.32348 2.33385e-17
4009.79372 2.77200e-17
4011.26396 2.49090e-17
4012.73420 2.54952e-17
4014.20444 2.31763e-17
4015.67468 2.23079e-17
4017.13471 2.23647e-17
4018.60495 2.43639e-17
4020.07519 2.33669e-17
4021.54543 3.03064e-17
4023.01567 2.68080e-17
4024.48591 2.75879e-17
4025.95615 3.10652e-17
4027.42639 2.12849e-17
4028.89663 2.41762e-17
4030.36687 2.86391e-17
4031.83711 2.76181e-17
4033.30735 2.54250e-17
4034.77759 2.28506e-17
4036.24783 2.61080e-17
4037.71807 2.45811e-17
4039.18831 2.54277e-17
4040.65855 3.00143e-17
4042.12879 2.81807e-17
4043.59903 2.79561e-17
4045.06927 3.08543e-17
4046.53951 2.17833e-17
4048.00975 2.17177e-17
4049.47999 2.53125e-17
4050.95023 2.63175e-17
4052.42047 2.20681e-17
4053.89071 2.44660e-17
4055.36095 2.69858e-17
4056.83119 2.87981e-17
4058.30143 2.63471e-17
4059.77167 2.21379e-17
4061.24191 2.33533e-17
4062.71215 2.30618e-17
4064.18239 2.45664e-17
4065.65263 2.34554e-17
4067.12287 2.43514e-17
4068.59311 2.29762e-17
4070.06335 2.24323e-17
4071.53359 2.33128e-17
4073.00383 2.20952e-17
4074.47407 2.85309e-17
4075.94431 2.79081e-17
4077.41455 2.57707e-17
4078.88479 2.75653e-17
4080.35503 2.66655e-17
4081.81506 2.62152e-17
4083.28530 2.59216e-17
4084.75554 2.23107e-17
4086.22578 2.41121e-17
4087.69602 2.86137e-17
4089.16626 2.71122e-17
4090.63650 2.51969e-17
4092.10674 2.48495e-17
4093.57698 2.26972e-17
4095.04722 2.38435e-17
4096.51746 2.46062e-17
4097.98770 2.19565e-17
4099.45794 2.22616e-17
4100.92818 2.42737e-17
4102.39842 2.66521e-17
4103.86866 2.55087e-17
4105.33890 2.32042e-17
4106.80914 2.25632e-17
4108.27938 2.14851e-17
4109.74962 2.16507e-17
4111.21986 2.14010e-17
4112.69010 1.99994e-17
4114.16034 2.00994e-17
4115.63058 2.13675e-17
4117.10082 2.39927e-17
4118.57106 2.44268e-17
4120.04130 2.21071e-17
4121.51154 2.14833e-17
4122.98178 2.11988e-17
4124.45202 2.10446e-17
4125.92226 1.88947e-17
4127.39250 1.76777e-17
4128.86274 2.00358e-17
4130.33298 2.15247e-17
4131.80322 1.73929e-17
4133.27346 1.98486e-17
4134.74370 2.38665e-17
4136.21394 2.36611e-17
4137.68418 2.25812e-17
4139.15442 2.14256e-17
4140.62466 2.15826e-17
4142.09490 2.15516e-17
4143.55493 2.26216e-17
4145.02517 2.13330e-17
4146.49541 2.28117e-17
4147.96565 2.13907e-17
4149.43589 2.08185e-17
4150.90613 2.27543e-17
4152.37637 2.26309e-17
4153.84661 1.98589e-17
4155.31685 2.10000e-17
4156.78709 1.80143e-17
4158.25733 1.82588e-17
4159.72757 1.79240e-17
4161.19781 2.04311e-17
4162.66805 1.87410e-17
4164.13829 1.84805e-17
4165.60853 1.75096e-17
4167.07877 2.02247e-17
4168.54901 2.11927e-17
4170.01925 1.76834e-17
4171.48949 1.87797e-17
4172.95973 1.72927e-17
4174.42997 1.95613e-17
4175.90021 1.84153e-17
4177.37045 2.00578e-17
4178.84069 2.01228e-17
4180.31093 1.89775e-17
4181.78117 1.96933e-17
4183.25141 1.99167e-17
4184.72165 1.81554e-17
4186.19189 1.93485e-17
4187.66213 1.60921e-17
4189.13237 1.96044e-17
4190.60261 1.95197e-17
4192.07285 1.76942e-17
4193.54309 1.87888e-17
4195.01333 1.83717e-17
4196.48357 1.74874e-17
4197.95381 1.85263e-17
4199.42405 1.90376e-17
4200.89429 1.70897e-17
4202.36453 1.73064e-17
4203.83477 1.88745e-17
4205.29480 1.91266e-17
4206.76504 2.28490e-17
4208.23528 2.07719e-17
4209.70552 1.92670e-17
4211.17576 1.99682e-17
4212.64600 2.10856e-17
4214.11624 2.06363e-17
4215.58648 2.25681e-17
4217.05672 2.38242e-17
4218.52696 2.20209e-17
4219.99720 2.20350e-17
4221.46744 2.25427e-17
4222.93768 1.98227e-17
4224.40792 2.26587e-17
4225.87816 2.20243e-17
4227.34840 2.13005e-17
4228.81864 2.21539e-17
4230.28888 2.26184e-17
4231.75912 2.00085e-17
4233.22936 1.98752e-17
4234.69960 2.10981e-17
4236.16984 2.18438e-17
4237.64008 1.91246e-17
4239.11032 2.21923e-17
4240.58056 2.29717e-17
4242.05080 1.82468e-17
4243.52104 1.70624e-17
4244.99128 1.95010e-17
4246.46152 2.09657e-17
4247.93176 1.89777e-17
4249.40200 2.02278e-17
4250.87224 2.05057e-17
4252.34248 2.08596e-17
4253.81272 2.18487e-17
4255.28296 2.31396e-17
4256.75320 2.17102e-17
4258.22344 1.95150e-17
4259.69368 2.00566e-17
4261.16392 1.97493e-17
4262.63416 1.96310e-17
4264.10440 1.79701e-17
4265.56443 1.96685e-17
4267.03467 2.10538e-17
4268.50491 2.06104e-17
4269.97515 1.96380e-17
4271.44539 1.70249e-17
4272.91563 1.75321e-17
4274.38587 2.04484e-17
4275.85611 2.05370e-17
4277.32635 1.92751e-17
4278.79659 2.08720e-17
4280.26683 2.12351e-17
4281.73707 1.96605e-17
4283.20731 1.86890e-17
4284.67755 2.06926e-17
4286.14779 2.08337e-17
4287.61803 1.82278e-17
4289.08827 1.84636e-17
4290.55851 1.90183e-17
4292.02875 1.96490e-17
4293.49899 2.00346e-17
4294.96923 1.83718e-17
4296.43947 1.96200e-17
4297.90971 1.84614e-17
4299.37995 1.52295e-17
4300.85019 1.53296e-17
4302.32043 1.75506e-17
4303.79067 1.96818e-17
4305.26091 1.99892e-17
4306.73115 2.12628e-17
4308.20139 2.11017e-17
4309.67163 1.92578e-17
4311.14187 1.94059e-17
4312.61211 1.95684e-17
4314.08235 1.83866e-17
4315.55259 1.98997e-17
4317.02283 2.24137e-17
4318.49307 2.04694e-17
4319.96331 1.71527e-17
4321.43355 1.92553e-17
4322.90379 1.98033e-17
4324.37403 1.91815e-17
4325.84427 2.01874e-17
4327.31451 1.80368e-17
4328.78475 1.77401e-17
4330.25499 1.88798e-17
4331.71502 1.94873e-17
4333.18526 2.04607e-17
4334.65550 2.09181e-17
4336.12574 2.07857e-17
4337.59598 2.13184e-17
4339.06622 2.12081e-17
4340.53646 2.22512e-17
4342.00670 2.13247e-17
4343.47694 2.19598e-17
4344.94718 2.25659e-17
4346.41742 1.96487e-17
4347.88766 1.96030e-17
4349.35790 2.05232e-17
4350.82814 1.94650e-17
4352.29838 2.03957e-17
4353.76862 2.23805e-17
4355.23886 1.91625e-17
4356.70910 1.71138e-17
4358.17934 1.57575e-17
4359.64958 1.73832e-17
4361.11982 2.02037e-17
4362.59006 2.26703e-17
4364.06030 2.12529e-17
4365.53054 1.98336e-17
4367.00078 1.94591e-17
4368.47102 1.83905e-17
4369.94126 1.86940e-17
4371.41150 1.70555e-17
4372.88174 1.77928e-17
4374.35198 1.71914e-17
4375.82222 2.04288e-17
4377.29246 2.09152e-17
4378.76270 1.92104e-17
4380.23294 1.94622e-17
4381.70318 1.96435e-17
4383.17342 2.00215e-17
4384.64366 2.20256e-17
4386.11390 2.01368e-17
4387.58414 1.76933e-17
4389.05438 2.01471e-17
4390.52462 1.93451e-17
4391.99486 1.78657e-17
4393.45489 2.06177e-17
4394.92513 2.05857e-17
4396.39537 1.95198e-17
4397.86561 1.97679e-17
4399.33585 1.89455e-17
4400.80609 1.69653e-17
4402.27633 1.73301e-17
4403.74657 1.72788e-17
4405.21681 1.70328e-17
4406.68705 1.89660e-17
4408.15729 1.86415e-17
4409.62753 1.73046e-17
4411.09777 1.75214e-17
4412.56801 1.78416e-17
4414.03825 1.81200e-17
4415.50849 1.73537e-17
4416.97873 1.55636e-17
4418.44897 1.24873e-17
4419.91921 1.43929e-17
4421.38945 1.51636e-17
4422.85969 1.32805e-17
4424.32993 1.55985e-17
4425.80017 1.77177e-17
4427.27041 1.58089e-17
4428.74065 1.34722e-17
4430.21089 1.44946e-17
4431.68113 1.58571e-17
4433.15137 1.63901e-17
4434.62161 1.39730e-17
4436.09185 1.38229e-17
4437.56209 1.44455e-17
4439.03233 1.36449e-17
4440.50257 1.38870e-17
4441.97281 1.34843e-17
4443.44305 1.30056e-17
4444.91329 1.31595e-17
4446.38353 1.39782e-17
4447.85377 1.22867e-17
4449.32401 1.18077e-17
4450.79425 1.54301e-17
4452.26449 1.67018e-17
4453.72452 1.48011e-17
4455.20497 1.36262e-17
4456.66500 1.39785e-17
4458.13524 1.34293e-17
4459.60548 1.48525e-17
4461.07572 1.52384e-17
4462.54596 1.43466e-17
4464.01620 1.42521e-17
4465.48644 1.35707e-17
4466.95668 1.39371e-17
4468.42692 1.46183e-17
4469.89716 1.57298e-17
4471.36740 1.44644e-17
4472.83764 1.25588e-17
4474.30788 1.36357e-17
4475.77812 1.32048e-17
4477.24836 1.18934e-17
4478.71860 1.23825e-17
4480.18884 1.62263e-17
4481.65908 1.72811e-17
4483.12932 1.46064e-17
4484.59956 1.32042e-17
4486.06980 1.26750e-17
4487.54004 1.27593e-17
4489.01028 1.40814e-17
4490.48052 1.42713e-17
4491.95076 1.30843e-17
4493.42100 1.28865e-17
4494.89124 1.34968e-17
4496.36148 1.51066e-17
4497.83172 1.64170e-17
4499.30196 1.54607e-17
4500.77220 1.25785e-17
4502.24244 1.22680e-17
4503.71268 1.27154e-17
4505.18292 1.43062e-17
4506.65316 1.67233e-17
4508.12340 1.70924e-17
4509.59364 1.71960e-17
4511.06388 1.41172e-17
4512.53412 1.25050e-17
4514.00436 1.60400e-17
4515.47460 1.52369e-17
4516.94484 1.60532e-17
4518.41508 1.79766e-17
4519.87511 1.48622e-17
4521.34535 1.29678e-17
4522.81559 1.57920e-17
4524.28583 1.64181e-17
4525.75607 1.50303e-17
4527.22631 1.38993e-17
4528.69655 1.64401e-17
4530.16679 1.77230e-17
4531.63703 1.70298e-17
4533.10727 1.92373e-17
4534.57751 1.81990e-17
4536.04775 1.57497e-17
4537.51799 1.67967e-17
4538.98823 1.87581e-17
4540.45847 1.81798e-17
4541.92871 1.72876e-17
4543.39895 1.95695e-17
4544.86919 1.90320e-17
4546.33943 1.65206e-17
4547.80967 1.55060e-17
4549.27991 1.72593e-17
4550.75015 1.83913e-17
4552.22039 1.65063e-17
4553.69063 1.67257e-17
4555.16087 1.82065e-17
4556.63111 1.96401e-17
4558.10135 1.85876e-17
4559.57159 1.69893e-17
4561.04183 1.93345e-17
4562.51207 1.86365e-17
4563.98231 1.69809e-17
4565.45255 1.70051e-17
4566.92279 1.71538e-17
4568.39303 1.87937e-17
4569.86327 1.87229e-17
4571.33351 1.83931e-17
4572.80375 1.90893e-17
4574.27399 1.85766e-17
4575.74423 1.98554e-17
4577.21447 2.02995e-17
4578.68471 1.81821e-17
4580.14474 1.90766e-17
4581.61498 2.07689e-17
4583.08522 1.98720e-17
4584.55546 1.90276e-17
4586.02570 1.93057e-17
4587.49594 1.81856e-17
4588.96618 1.83495e-17
4590.43642 2.10103e-17
4591.90666 1.96928e-17
4593.37690 1.82335e-17
4594.84714 1.93301e-17
4596.31738 2.04055e-17
4597.78762 2.22972e-17
4599.25786 2.10662e-17
4600.72810 2.04931e-17
4602.19834 2.16537e-17
4603.66858 1.87261e-17
4605.13882 1.78039e-17
4606.60906 1.97633e-17
4608.07930 1.84063e-17
4609.54954 1.94253e-17
4611.01978 2.26058e-17
4612.49002 2.10877e-17
4613.96026 1.94944e-17
4615.43050 2.09084e-17
4616.90074 2.11652e-17
4618.37098 1.97442e-17
4619.84122 2.03810e-17
4621.31146 2.06668e-17
4622.78170 2.08137e-17
4624.25194 2.06923e-17
4625.72218 1.84494e-17
4627.19242 1.98690e-17
4628.66266 2.17175e-17
4630.13290 2.23036e-17
4631.60314 2.30353e-17
4633.07338 2.26487e-17
4634.54362 2.13086e-17
4636.01386 2.06314e-17
4637.48410 2.13111e-17
4638.95434 2.26061e-17
4640.42458 2.36422e-17
4641.89482 2.27550e-17
4643.35485 2.18742e-17
4644.82509 2.18752e-17
4646.29533 2.28933e-17
4647.76557 2.30160e-17
4649.23581 2.15237e-17
4650.70605 2.13480e-17
4652.17629 2.19631e-17
4653.64653 2.13427e-17
4655.11677 2.13001e-17
4656.58701 2.12985e-17
4658.05725 2.09451e-17
4659.52749 2.21817e-17
4660.99773 2.25079e-17
4662.46797 2.14870e-17
4663.93821 2.23955e-17
4665.40845 2.22637e-17
4666.87869 2.16068e-17
4668.34893 2.11486e-17
4669.81917 2.08675e-17
4671.28941 2.18246e-17
4672.75965 2.14750e-17
4674.22989 2.17172e-17
4675.70013 2.32737e-17
4677.17037 2.38688e-17
4678.64061 2.27129e-17
4680.11085 2.12724e-17
4681.58109 2.05204e-17
4683.05133 2.17646e-17
4684.52157 2.17413e-17
4685.99181 2.11833e-17
4687.46205 2.25956e-17
4688.93229 2.24185e-17
4690.40253 2.10233e-17
4691.87277 2.00920e-17
4693.34301 2.14091e-17
4694.81325 2.41886e-17
4696.28349 2.47951e-17
4697.75373 2.52424e-17
4699.22397 2.46257e-17
4700.69421 2.27172e-17
4702.16445 2.23980e-17
4703.63469 2.21795e-17
4705.10493 2.19913e-17
4706.56496 2.24288e-17
4708.03520 2.16629e-17
4709.50544 2.17234e-17
4710.97568 2.36486e-17
4712.44592 2.33402e-17
4713.91616 2.27628e-17
4715.38640 2.27165e-17
4716.85664 2.23397e-17
4718.32688 2.12473e-17
4719.79712 2.13677e-17
4721.26736 2.23246e-17
4722.73760 2.08235e-17
4724.20784 2.10595e-17
4725.67808 2.11125e-17
4727.14832 2.08915e-17
4728.61856 2.07501e-17
4730.08880 2.09645e-17
4731.55904 2.20112e-17
4733.02928 2.20973e-17
4734.49952 2.13167e-17
4735.96976 2.11601e-17
4737.44000 2.26401e-17
4738.91024 2.28240e-17
4740.38048 2.28169e-17
4741.85072 2.18017e-17
4743.32096 2.09142e-17
4744.79120 2.09983e-17
4746.26144 1.99485e-17
4747.73168 2.06426e-17
4749.20192 1.98825e-17
4750.67216 1.82033e-17
4752.14240 2.07325e-17
4753.61264 2.20859e-17
4755.08288 2.11722e-17
4756.55312 2.03016e-17
4758.02336 2.00050e-17
4759.49360 2.11745e-17
4760.96384 2.14530e-17
4762.43408 2.16458e-17
4763.90432 2.13480e-17
4765.37456 1.91018e-17
4766.83459 1.85161e-17
4768.30483 1.90839e-17
4769.77507 2.04081e-17
4771.24531 1.98512e-17
4772.71555 1.75020e-17
4774.18579 1.88626e-17
4775.65603 1.99806e-17
4777.12627 1.99767e-17
4778.59651 1.91791e-17
4780.06675 1.78741e-17
4781.53699 1.99465e-17
4783.00723 2.04097e-17
4784.47747 1.94905e-17
4785.94771 1.99110e-17
4787.41795 1.75838e-17
4788.88819 1.69538e-17
4790.35843 1.84243e-17
4791.82867 1.74819e-17
4793.29891 1.80022e-17
4794.76915 1.74617e-17
4796.23939 1.65384e-17
4797.70963 1.81676e-17
4799.17987 1.92021e-17
4800.65011 1.93990e-17
4802.12035 1.69278e-17
4803.59059 1.54731e-17
4805.06083 1.65699e-17
4806.53107 1.73952e-17
4808.00131 1.69944e-17
4809.47155 1.57838e-17
4810.94179 1.61766e-17
4812.41203 1.66477e-17
4813.88227 1.56161e-17
4815.35251 1.55064e-17
4816.82275 1.59792e-17
4818.29299 1.49172e-17
4819.76323 1.37438e-17
4821.23347 1.56103e-17
4822.70371 1.47769e-17
4824.17395 1.26181e-17
4825.64419 1.44866e-17
4827.11443 1.45162e-17
4828.58467 1.17257e-17
4830.05491 1.29088e-17
4831.52515 1.33822e-17
4832.98518 1.28768e-17
4834.45542 1.45944e-17
4835.92566 1.39570e-17
4837.39590 1.37057e-17
4838.86614 1.38889e-17
4840.33638 1.28667e-17
4841.80662 1.43087e-17
4843.27686 1.43035e-17
4844.74710 1.32045e-17
4846.21734 1.19689e-17
4847.68758 1.26560e-17
4849.15782 1.41768e-17
4850.62806 1.20463e-17
4852.09830 1.19441e-17
4853.56854 1.29944e-17
4855.03878 1.34639e-17
4856.50902 1.18435e-17
4857.97926 1.08666e-17
4859.44950 1.24801e-17
4860.91974 1.31777e-17
4862.38998 1.32602e-17
4863.86022 1.32991e-17
4865.33046 1.18096e-17
4866.80070 1.16095e-17
4868.27094 1.20866e-17
4869.74118 1.22862e-17
4871.21142 1.21728e-17
4872.68166 1.16417e-17
4874.15190 1.27861e-17
4875.62214 1.28558e-17
4877.09238 1.25214e-17
4878.56262 1.34409e-17
4880.03286 1.36632e-17
4881.50310 1.43774e-17
4882.97334 1.31611e-17
4884.44358 1.13567e-17
4885.91382 1.23502e-17
4887.38406 1.17597e-17
4888.85430 1.21333e-17
4890.32454 1.41523e-17
4891.79478 1.42187e-17
4893.25481 1.29481e-17
4894.72505 1.25946e-17
4896.19529 1.20580e-17
4897.66553 1.29296e-17
4899.13577 1.41126e-17
4900.60601 1.37514e-17
4902.07625 1.19841e-17
4903.54649 1.13771e-17
4905.01673 1.21171e-17
4906.48697 1.33743e-17
4907.95721 1.08755e-17
4909.42745 1.04221e-17
4910.89769 1.26924e-17
4912.36793 1.23425e-17
4913.83817 1.20825e-17
4915.30841 1.02439e-17
4916.77865 6.90354e-18
4918.24889 7.04781e-18
4919.71913 9.81102e-18
4921.18937 1.03189e-17
4922.65961 1.27231e-17
4924.12985 1.27595e-17
4925.60009 1.02652e-17
4927.07033 9.59696e-18
4928.54057 1.08247e-17
4930.01081 1.14897e-17
4931.48105 1.06506e-17
4932.95129 1.04944e-17
4934.42153 8.86122e-18
4935.89177 9.53872e-18
4937.36201 1.22709e-17
4938.83225 1.26204e-17
4940.30249 1.06650e-17
4941.77273 1.09085e-17
4943.24297 1.15341e-17
4944.71321 1.13545e-17
4946.18345 1.19047e-17
4947.65369 1.08790e-17
4949.12393 1.13012e-17
4950.59417 1.25681e-17
4952.06441 1.16136e-17
4953.53465 1.12870e-17
4954.99468 1.14633e-17
4956.46492 1.17184e-17
4957.93516 1.02596e-17
4959.40540 1.06488e-17
4960.87564 1.18876e-17
4962.34588 1.16789e-17
4963.81612 1.13126e-17
4965.28636 1.20935e-17
4966.75660 1.42623e-17
4968.22684 1.36698e-17
4969.69708 1.22958e-17
4971.16732 1.22258e-17
4972.63756 1.38010e-17
4974.10780 1.34539e-17
4975.57804 1.29965e-17
4977.04828 1.29071e-17
4978.51852 1.25479e-17
4979.98876 1.29362e-17
4981.45900 1.30255e-17
4982.92924 1.20216e-17
4984.39948 1.24639e-17
4985.86972 1.42699e-17
4987.33996 1.46273e-17
4988.81020 1.40829e-17
4990.28044 1.43689e-17
4991.75068 1.37132e-17
4993.22092 1.37630e-17
4994.69116 1.49456e-17
4996.16140 1.59736e-17
4997.63164 1.40668e-17
4999.10188 1.26610e-17
5000.57212 1.34446e-17
5002.04236 1.46696e-17
5003.51260 1.55046e-17
5004.98284 1.90343e-17
5006.45308 2.26753e-17
5007.92332 2.08193e-17
5009.39356 2.03016e-17
5010.86380 1.92680e-17
5012.33404 1.72920e-17
5013.80428 1.52322e-17
5015.27452 1.45392e-17
5016.74476 1.58091e-17
5018.21500 1.59137e-17
5019.68524 1.58198e-17
5021.14527 1.65999e-17
5022.61551 1.64382e-17
5024.08575 1.58081e-17
5025.55599 1.52251e-17
5027.02623 1.51310e-17
5028.49647 1.51229e-17
5029.96671 1.56335e-17
5031.43695 1.67654e-17
5032.90719 1.55705e-17
5034.37743 1.31210e-17
5035.84767 1.41426e-17
5037.31791 1.51893e-17
5038.78815 1.46399e-17
5040.25839 1.30260e-17
5041.72863 1.29274e-17
5043.19887 1.49930e-17
5044.66911 1.57958e-17
5046.13935 1.46801e-17
5047.60959 1.44521e-17
5049.07983 1.42242e-17
5050.55007 1.39964e-17
5052.02031 1.37686e-17
5053.49055 1.35409e-17
5054.96079 1.35391e-17
5056.43103 1.53492e-17
5057.90127 1.49961e-17
5059.37151 1.31729e-17
5060.84175 1.24985e-17
5062.31199 1.42816e-17
5063.78223 1.41980e-17
5065.25247 1.34361e-17
5066.72271 1.18521e-17
5068.19295 1.04467e-17
5069.66319 1.09470e-17
5071.13343 1.14251e-17
5072.60367 1.17738e-17
5074.07391 1.16074e-17
5075.54415 1.19211e-17
5077.01439 1.28462e-17
5078.48463 1.24827e-17
5079.95487 1.16580e-17
5081.41490 1.21424e-17
5082.88514 1.39006e-17
5084.35538 1.34700e-17
5085.82562 1.16041e-17
5087.29586 1.08337e-17
5088.76610 1.13172e-17
5090.23634 1.24284e-17
5091.70658 1.15077e-17
5093.17682 1.07969e-17
5094.64706 1.11949e-17
5096.11730 9.80006e-18
5097.58754 9.48173e-18
5099.05778 1.19032e-17
5100.52802 1.29781e-17
5101.99826 1.22437e-17
5103.46850 1.16180e-17
5104.93874 1.26454e-17
5106.40898 1.24025e-17
5107.87922 1.19091e-17
5109.34946 1.27489e-17
5110.81970 1.17655e-17
5112.28994 1.11661e-17
5113.76018 1.25681e-17
5115.23042 1.30724e-17
5116.70066 1.23508e-17
5118.17090 1.15230e-17
5119.64114 1.28498e-17
5121.11138 1.24034e-17
5122.58162 1.14560e-17
5124.05186 1.32739e-17
5125.52210 1.25448e-17
5126.99234 1.16733e-17
5128.46258 1.18256e-17
5129.93282 1.21624e-17
5131.40306 1.33107e-17
5132.87330 1.30297e-17
5134.34354 1.31314e-17
5135.81378 1.35165e-17
5137.28402 1.27273e-17
5138.75426 1.25743e-17
5140.22450 1.33426e-17
5141.69474 1.48677e-17
5143.16498 1.49967e-17
5144.62501 1.39169e-17
5146.09525 1.41962e-17
5147.56549 1.36830e-17
5149.03573 1.37665e-17
5150.50597 1.47569e-17
5151.97621 1.54418e-17
5153.44645 1.51422e-17
5154.91669 1.36936e-17
5156.38693 1.36068e-17
5157.85717 1.27835e-17
5159.32741 1.27329e-17
5160.79765 1.30441e-17
5162.26789 1.39823e-17
5163.73813 1.58445e-17
5165.20837 1.47547e-17
5166.67861 1.34638e-17
5168.14885 1.27713e-17
5169.61909 1.40884e-17
5171.08933 1.54897e-17
5172.55957 1.43897e-17
5174.02981 1.49111e-17
5175.50005 1.54732e-17
5176.97029 1.49855e-17
5178.44053 1.38671e-17
5179.91077 1.38710e-17
5181.38101 1.43771e-17
5182.85125 1.51882e-17
5184.32149 1.52148e-17
5185.79173 1.41591e-17
5187.26197 1.36612e-17
5188.73221 1.44510e-17
5190.20245 1.54678e-17
5191.67269 1.60071e-17
5193.14293 1.63627e-17
5194.61317 1.49373e-17
5196.08341 1.47349e-17
5197.55365 1.48273e-17
5199.02389 1.45025e-17
5200.49413 1.55788e-17
5201.96437 1.67211e-17
5203.43461 1.53020e-17
5204.90485 1.52923e-17
5206.37509 1.53668e-17
5207.83512 1.41548e-17
5209.30536 1.53649e-17
5210.77560 1.43852e-17
5212.24584 1.42521e-17
5213.71608 1.43676e-17
5215.18632 1.42283e-17
5216.65656 1.33951e-17
5218.12680 1.43286e-17
5219.59704 1.60098e-17
5221.06728 1.57492e-17
5222.53752 1.32173e-17
5224.00776 1.37934e-17
5225.47800 1.66302e-17
5226.94824 1.51300e-17
5228.41848 1.43939e-17
5229.88872 1.50944e-17
5231.35896 1.45337e-17
5232.82920 1.43420e-17
5234.29944 1.43192e-17
5235.76968 1.44152e-17
5237.23992 1.49492e-17
5238.71016 1.54600e-17
5240.18040 1.63435e-17
5241.65064 1.72320e-17
5243.12088 1.63423e-17
5244.59112 1.63094e-17
5246.06136 1.42444e-17
5247.53160 1.40772e-17
5249.00184 1.35056e-17
5250.47208 1.41913e-17
5251.94232 1.69073e-17
5253.41256 1.59733e-17
5254.88280 1.58904e-17
5256.35304 1.58046e-17
5257.82328 1.64594e-17
5259.29352 1.43283e-17
5260.76376 1.38176e-17
5262.23400 1.43529e-17
5263.70424 1.39371e-17
5265.17448 1.54274e-17
5266.64472 1.49388e-17
5268.10475 1.57916e-17
5269.57499 1.57960e-17
5271.04523 1.58944e-17
5272.51547 1.48180e-17
5273.98571 1.64807e-17
5275.45595 1.72916e-17
5276.92619 1.65213e-17
5278.39643 1.61351e-17
5279.86667 1.67065e-17
5281.33691 1.74127e-17
5282.80715 1.54963e-17
5284.27739 1.47477e-17
5285.74763 1.55685e-17
5287.21787 1.60971e-17
5288.68811 1.63650e-17
5290.15835 1.88529e-17
5291.62859 1.77860e-17
5293.09883 1.82533e-17
5294.56907 1.99057e-17
5296.03931 1.95420e-17
5297.50955 1.96143e-17
5298.97979 1.70290e-17
5300.45003 1.54246e-17
5301.92027 1.68519e-17
5303.39051 1.72295e-17
5304.86075 1.67901e-17
5306.33099 1.64517e-17
5307.80123 1.89986e-17
5309.27147 1.98725e-17
5310.74171 1.70256e-17
5312.21195 1.65412e-17
5313.68219 1.65832e-17
5315.15243 1.85310e-17
5316.62267 1.90977e-17
5318.09291 1.78555e-17
5319.56315 1.59678e-17
5321.03339 1.73933e-17
5322.50363 1.78556e-17
5323.97387 1.95216e-17
5325.44411 1.91134e-17
5326.91435 1.83232e-17
5328.38459 1.91865e-17
5329.85483 2.09138e-17
5331.31486 2.00648e-17
5332.78510 1.77999e-17
5334.25534 1.64377e-17
5335.72558 1.74028e-17
5337.19582 1.80539e-17
5338.66606 1.83332e-17
5340.13630 1.81180e-17
5341.60654 1.79770e-17
5343.07678 1.75221e-17
5344.54702 1.88736e-17
5346.01726 1.92575e-17
5347.48750 1.93324e-17
5348.95774 1.72273e-17
5350.42798 1.77172e-17
5351.89822 1.73460e-17
5353.36846 1.73548e-17
5354.83870 1.80840e-17
5356.30894 1.81291e-17
5357.77918 1.89876e-17
5359.24942 1.85703e-17
5360.71966 1.87928e-17
5362.18990 1.81875e-17
5363.66014 1.81010e-17
5365.13038 1.84283e-17
5366.60062 1.76593e-17
5368.07086 1.80868e-17
5369.54110 1.79945e-17
5371.01134 1.92277e-17
5372.48158 1.87546e-17
5373.95182 1.88229e-17
5375.42206 1.94863e-17
5376.89230 1.95877e-17
5378.36254 1.84714e-17
5379.83278 1.91364e-17
5381.30302 1.75797e-17
5382.77326 1.70513e-17
5384.24350 1.90137e-17
5385.71374 1.74021e-17
5387.18398 1.86910e-17
5388.65422 1.92715e-17
5390.12446 1.85852e-17
5391.59470 1.90118e-17
5393.06494 1.87467e-17
5394.52497 1.88843e-17
5395.99521 1.74164e-17
5397.46545 1.72993e-17
5398.93569 1.73015e-17
5400.40593 1.83333e-17
5401.87617 1.71975e-17
5403.34641 1.58596e-17
5404.81665 1.82353e-17
5406.28689 1.85568e-17
5407.75713 1.86093e-17
5409.22737 1.83019e-17
5410.69761 1.84339e-17
5412.16785 1.74554e-17
5413.63809 1.85105e-17
5415.10833 1.89478e-17
5416.57857 1.85467e-17
5418.04881 1.74182e-17
5419.51905 1.83260e-17
5420.98929 1.78360e-17
5422.45953 1.81677e-17
5423.92977 1.88813e-17
5425.40001 1.71570e-17
5426.87025 1.63476e-17
5428.34049 1.65879e-17
5429.81073 1.72695e-17
5431.28097 1.76350e-17
5432.75121 1.74701e-17
5434.22145 1.85553e-17
5435.69169 1.77601e-17
5437.16193 1.70842e-17
5438.63217 1.83959e-17
5440.10241 2.01780e-17
5441.57265 1.91387e-17
5443.04289 1.81733e-17
5444.51313 1.83194e-17
5445.98337 1.76115e-17
5447.45361 1.74839e-17
5448.92385 1.65180e-17
5450.39409 1.59953e-17
5451.86433 1.57441e-17
5453.33457 1.45399e-17
5454.79460 1.77276e-17
5456.26484 1.93370e-17
5457.73508 1.73143e-17
5459.20532 1.76345e-17
5460.67556 1.90556e-17
5462.14580 1.75786e-17
5463.61604 1.71451e-17
5465.08628 1.72875e-17
5466.55652 1.53202e-17
5468.02676 1.67739e-17
5469.49700 1.75207e-17
5470.96724 1.68076e-17
5472.43748 1.57395e-17
5473.90772 1.65875e-17
5475.37796 1.79355e-17
5476.84820 1.50772e-17
5478.31844 1.40159e-17
5479.78868 1.43214e-17
5481.25892 1.69433e-17
5482.72916 1.87802e-17
5484.19940 1.68758e-17
5485.66964 1.59699e-17
5487.13988 1.68150e-17
5488.61012 1.77058e-17
5490.08036 1.67372e-17
5491.55060 1.63733e-17
5493.02084 1.68463e-17
5494.49108 1.67474e-17
5495.96132 1.77447e-17
5497.43156 1.75757e-17
5498.90180 1.62762e-17
5500.37204 1.63541e-17
5501.84228 1.62440e-17
5503.31252 1.66655e-17
5504.78276 1.70355e-17
5506.25300 1.80321e-17
5507.72324 1.71470e-17
5509.19348 1.48520e-17
5510.66372 1.59141e-17
5512.13396 1.57780e-17
5513.60420 1.66144e-17
5515.07444 1.74944e-17
5516.54468 1.61870e-17
5518.00471 1.73000e-17
5519.47495 1.74894e-17
5520.94519 1.68816e-17
5522.41543 1.78421e-17
5523.88567 1.70781e-17
5525.35591 1.57984e-17
5526.82615 1.61933e-17
5528.29639 1.61829e-17
5529.76663 1.58788e-17
5531.23687 1.50700e-17
5532.70711 1.50039e-17
5534.17735 1.59945e-17
5535.64759 1.62175e-17
5537.11783 1.60639e-17
5538.58807 1.61745e-17
5540.05831 1.58283e-17
5541.52855 1.52142e-17
5542.99879 1.60846e-17
5544.46903 1.68849e-17
5545.93927 1.70505e-17
5547.40951 1.68034e-17
5548.87975 1.73002e-17
5550.34999 1.55921e-17
5551.82023 1.71059e-17
5553.29047 1.59963e-17
5554.76071 1.56808e-17
5556.23095 1.59426e-17
5557.70119 1.58181e-17
5559.17143 1.65844e-17
5560.64167 1.53566e-17
5562.11191 1.52127e-17
5563.58215 1.55657e-17
5565.05239 1.70630e-17
5566.52263 1.59573e-17
5567.99287 1.68083e-17
5569.46311 1.74492e-17
5570.93335 1.67162e-17
5572.40359 1.64337e-17
5573.87383 1.80351e-17
5575.34407 2.00091e-17
5576.81431 1.89091e-17
5578.28455 1.64760e-17
5579.75479 1.61192e-17
5581.22503 1.33250e-17
5582.68506 1.49805e-17
5584.15530 1.74176e-17
5585.62554 1.56570e-17
5587.09578 1.55037e-17
5588.56602 1.65659e-17
5590.03626 1.41962e-17
5591.50650 1.30755e-17
5592.97674 1.39375e-17
5594.44698 1.57837e-17
5595.91722 1.63307e-17
5597.38746 1.59704e-17
5598.85770 1.61021e-17
5600.32794 1.68863e-17
5601.79818 1.65212e-17
5603.26842 1.61583e-17
5604.73866 1.50946e-17
5606.20890 1.45426e-17
5607.67914 1.39510e-17
5609.14938 1.42577e-17
5610.61962 1.58521e-17
5612.08986 1.42816e-17
5613.56010 1.47790e-17
5615.03034 1.42325e-17
5616.50058 1.47742e-17
5617.97082 1.37581e-17
5619.44106 1.49890e-17
5620.91130 1.55764e-17
5622.38154 1.46891e-17
5623.85178 1.53241e-17
5625.32202 1.40237e-17
5626.79226 1.32763e-17
5628.26250 1.33363e-17
5629.73274 1.37773e-17
5631.20298 1.44508e-17
5632.67322 1.36976e-17
5634.14346 1.49674e-17
5635.61370 1.52063e-17
5637.08394 1.39408e-17
5638.55418 1.39166e-17
5640.02442 1.35182e-17
5641.49466 1.39668e-17
5642.96490 1.30582e-17
5644.42493 1.41928e-17
5645.89517 1.27059e-17
5647.36541 1.28916e-17
5648.83565 1.36337e-17
5650.30589 1.43944e-17
5651.77613 1.29813e-17
5653.24637 1.26598e-17
5654.71661 1.31578e-17
5656.18685 1.21601e-17
5657.65709 1.15195e-17
5659.12733 1.26148e-17
5660.59757 1.48839e-17
5662.06781 1.46709e-17
5663.53805 1.38844e-17
5665.00829 1.29731e-17
5666.47853 1.16675e-17
5667.94877 1.16178e-17
5669.41901 1.21065e-17
5670.88925 1.23189e-17
5672.35949 1.36232e-17
5673.82973 1.29506e-17
5675.29997 1.20278e-17
5676.77021 1.11608e-17
5678.24045 1.07444e-17
5679.71069 1.16283e-17
5681.18093 1.21492e-17
5682.65117 1.26549e-17
5684.12141 1.13430e-17
5685.59165 1.27709e-17
5687.06189 1.36540e-17
5688.53213 1.24683e-17
5690.00237 1.18337e-17
5691.47261 1.15159e-17
5692.94285 1.21725e-17
5694.41309 1.19258e-17
5695.88333 1.00794e-17
5697.35357 1.26745e-17
5698.82381 1.34074e-17
5700.29405 1.14295e-17
5701.76429 1.02155e-17
5703.23453 1.07867e-17
5704.70477 1.12900e-17
5706.16480 1.00932e-17
5707.63504 1.00290e-17
5709.10528 1.18142e-17
5710.57552 1.19876e-17
5712.04576 1.15301e-17
5713.51600 1.21709e-17
5714.98624 1.20412e-17
5716.45648 1.20145e-17
5717.92672 1.08292e-17
5719.39696 1.05005e-17
5720.86720 1.13156e-17
5722.33744 1.19914e-17
5723.80768 1.12873e-17
5725.27792 1.03138e-17
5726.74816 1.05357e-17
5728.21840 1.24565e-17
5729.68864 1.13235e-17
5731.15888 1.19004e-17
5732.62912 1.34541e-17
5734.09936 1.14369e-17
5735.56960 1.05499e-17
5737.03984 1.02487e-17
5738.51008 1.14525e-17
5739.98032 1.24649e-17
5741.45056 1.22442e-17
5742.92080 1.20708e-17
5744.39104 1.14033e-17
5745.86128 1.07298e-17
5747.33152 1.06375e-17
5748.80176 1.06785e-17
5750.27200 1.07785e-17
5751.74224 1.16102e-17
5753.21248 1.07730e-17
5754.68272 9.65812e-18
5756.15296 1.07562e-17
5757.62320 1.03076e-17
5759.09344 9.81340e-18
5760.56368 9.86516e-18
5762.03392 1.04825e-17
5763.50416 1.09600e-17
5764.97440 1.10853e-17
5766.44464 1.11384e-17
5767.91488 1.15975e-17
5769.37491 1.10056e-17
5770.84515 9.13253e-18
5772.31539 9.38113e-18
5773.78563 1.14214e-17
5775.25587 9.79309e-18
5776.72611 8.72170e-18
5778.19635 1.05872e-17
5779.66659 1.03368e-17
5781.13683 8.76287e-18
5782.60707 9.20596e-18
5784.07731 9.63689e-18
5785.54755 9.37345e-18
5787.01779 7.64721e-18
5788.48803 8.96566e-18
5789.95827 8.06013e-18
5791.42851 8.84855e-18
5792.89875 9.27560e-18
5794.36899 7.86715e-18
5795.83923 8.19264e-18
5797.30947 9.79328e-18
5798.77971 1.18657e-17
5800.24995 1.02798e-17
5801.72019 9.15592e-18
5803.19043 1.14271e-17
5804.66067 1.13230e-17
5806.13091 8.92695e-18
5807.60115 1.10084e-17
5809.07139 1.11752e-17
5810.54163 9.40412e-18
5812.01187 1.12370e-17
5813.48211 1.10081e-17
5814.95235 8.77782e-18
5816.42259 1.10291e-17
5817.89283 1.02150e-17
5819.36307 9.65352e-18
5820.83331 1.08387e-17
5822.30355 8.40412e-18
5823.77379 1.01268e-17
5825.24403 1.14454e-17
5826.71427 1.06614e-17
5828.18451 1.13790e-17
5829.65475 1.20642e-17
5831.12499 1.01958e-17
5832.58502 1.02117e-17
5834.05526 9.94757e-18
5835.52550 1.04019e-17
5836.99574 1.13928e-17
5838.46598 1.09082e-17
5839.93622 1.04447e-17
5841.40646 9.18061e-18
5842.87670 9.38608e-18
5844.34694 1.24369e-17
5845.81718 1.15318e-17
5847.28742 1.21483e-17
5848.75766 1.23056e-17
5850.22790 1.13294e-17
5851.69814 1.01009e-17
5853.16838 1.40731e-17
5854.63862 1.22121e-17
5856.10886 1.11317e-17
5857.57910 1.09781e-17
5859.04934 1.16081e-17
5860.51958 1.24328e-17
5861.98982 1.23205e-17
5863.46006 1.15043e-17
5864.93030 1.18369e-17
5866.40054 1.12803e-17
5867.87078 9.60896e-18
5869.34102 1.18800e-17
5870.81126 1.05029e-17
5872.28150 1.31803e-17
5873.75174 1.25449e-17
5875.22198 1.22327e-17
5876.69222 1.33178e-17
5878.16246 1.40937e-17
5879.63270 1.39679e-17
5881.10294 1.38037e-17
5882.57318 1.25663e-17
5884.04342 1.13427e-17
5885.51366 1.23146e-17
5886.98390 1.50374e-17
5888.45414 1.32604e-17
5889.92438 1.10885e-17
5891.39462 1.16521e-17
5892.85465 1.04446e-17
5894.32489 1.27950e-17
5895.79513 1.60137e-17
5897.26537 1.69186e-17
5898.73561 1.59341e-17
5900.20585 1.44300e-17
5901.67609 1.32096e-17
5903.14633 1.35613e-17
5904.61657 1.42751e-17
5906.08681 1.37978e-17
5907.55705 1.35567e-17
5909.02729 1.50553e-17
5910.49753 1.46632e-17
5911.96777 1.40207e-17
5913.43801 1.54380e-17
5914.90825 1.43683e-17
5916.37849 1.58728e-17
5917.84873 1.47886e-17
5919.31897 1.40715e-17
5920.78921 1.56422e-17
5922.25945 1.56300e-17
5923.72969 1.40976e-17
5925.19993 1.48443e-17
5926.67017 1.44354e-17
5928.14041 1.34622e-17
5929.61065 1.47445e-17
5931.08089 1.69820e-17
5932.55113 1.48796e-17
5934.02137 1.46906e-17
5935.49161 1.71079e-17
5936.96185 1.63405e-17
5938.43209 1.50052e-17
5939.90233 1.46748e-17
5941.37257 1.77416e-17
5942.84281 1.71244e-17
5944.31305 1.44185e-17
5945.78329 1.58671e-17
5947.25353 1.59321e-17
5948.72377 1.35242e-17
5950.19401 1.39194e-17
5951.66425 1.43866e-17
5953.13449 1.31143e-17
5954.60473 1.56765e-17
5956.06476 1.64292e-17
5957.53500 1.56260e-17
5959.00524 1.57178e-17
5960.47548 1.61260e-17
5961.94572 1.73644e-17
5963.41596 1.61506e-17
5964.88620 1.66844e-17
5966.35644 1.72893e-17
5967.82668 1.64011e-17
5969.29692 1.53891e-17
5970.76716 1.50546e-17
5972.23740 1.76954e-17
5973.70764 1.79135e-17
5975.17788 1.53392e-17
5976.64812 1.43799e-17
5978.11836 1.48524e-17
5979.58860 1.54425e-17
5981.05884 1.46417e-17
5982.52908 1.56022e-17
5983.99932 1.42515e-17
5985.46956 1.54916e-17
5986.93980 1.47256e-17
5988.41004 1.48440e-17
5989.88028 1.50882e-17
5991.35052 1.44174e-17
5992.82076 1.55672e-17
5994.29100 1.65892e-17
5995.76124 1.71350e-17
5997.23148 1.64930e-17
5998.70172 1.59922e-17
6000.17196 1.44547e-17
6001.64220 1.61224e-17
6003.11244 1.43089e-17
6004.58268 1.48884e-17
6006.05292 1.61425e-17
6007.52316 1.53176e-17
6008.99340 1.35955e-17
6010.46364 1.46379e-17
6011.93388 1.60456e-17
6013.40412 1.60711e-17
6014.87436 1.49142e-17
6016.34460 1.42750e-17
6017.81484 1.50778e-17
6019.27487 1.31913e-17
6020.74511 1.44986e-17
6022.21535 1.47100e-17
6023.68559 1.40834e-17
6025.15583 1.62453e-17
6026.62607 1.39675e-17
6028.09631 1.53598e-17
6029.56655 1.75613e-17
6031.03679 1.69752e-17
6032.50703 1.74156e-17
6033.97727 1.32956e-17
6035.44751 1.42451e-17
6036.91775 1.47478e-17
6038.38799 1.53786e-17
6039.85823 1.49144e-17
6041.32847 1.46689e-17
6042.79871 1.36878e-17
6044.26895 1.59029e-17
6045.73919 1.56297e-17
6047.20943 1.66066e-17
6048.67967 1.51225e-17
6050.14991 1.70270e-17
6051.62015 1.61068e-17
6053.09039 1.55664e-17
6054.56063 1.57836e-17
6056.03087 1.42093e-17
6057.50111 1.46269e-17
6058.97135 1.47433e-17
6060.44159 1.38705e-17
6061.91183 1.38099e-17
6063.38207 1.55769e-17
6064.85231 1.50981e-17
6066.32255 1.38712e-17
6067.79279 1.42256e-17
6069.26303 1.49242e-17
6070.73327 1.45147e-17
6072.20351 1.52400e-17
6073.67375 1.42555e-17
6075.14399 1.39694e-17
6076.61423 1.40896e-17
6078.08447 1.41508e-17
6079.54450 1.40913e-17
6081.01474 1.41361e-17
6082.48498 1.50712e-17
6083.95522 1.58709e-17
6085.42546 1.50857e-17
6086.89570 1.57153e-17
6088.36594 1.43302e-17
6089.83618 1.39123e-17
6091.30642 1.37518e-17
6092.77666 1.32734e-17
6094.24690 1.28807e-17
6095.71714 1.50232e-17
6097.18738 1.50934e-17
6098.65762 1.35402e-17
6100.12786 1.44279e-17
6101.59810 1.51438e-17
6103.06834 1.23247e-17
6104.53858 1.50765e-17
6106.00882 1.53568e-17
6107.47906 1.38115e-17
6108.94930 1.48493e-17
6110.41954 1.36291e-17
6111.88978 1.41851e-17
6113.36002 1.39810e-17
6114.83026 1.35318e-17
6116.30050 1.27261e-17
6117.77074 1.30639e-17
6119.24098 1.34766e-17
6120.71122 1.38940e-17
6122.18146 1.37295e-17
6123.65170 1.51582e-17
6125.12194 1.42214e-17
6126.59218 1.32743e-17
6128.06242 1.36702e-17
6129.53266 1.27648e-17
6131.00290 1.35496e-17
6132.47314 1.50630e-17
6133.94338 1.40308e-17
6135.41362 1.38033e-17
6136.88386 1.46625e-17
6138.35410 1.38558e-17
6139.82434 1.25561e-17
6141.29458 1.16400e-17
6142.76482 1.24814e-17
6144.22485 1.19215e-17
6145.69509 1.10348e-17
6147.16533 1.23274e-17
6148.63557 1.30797e-17
6150.10581 1.38067e-17
6151.57605 1.41935e-17
6153.04629 1.24267e-17
6154.51653 1.34323e-17
6155.98677 1.45579e-17
6157.45701 1.24757e-17
6158.92725 1.32631e-17
6160.39749 1.33970e-17
6161.86773 1.24622e-17
6163.33797 1.21956e-17
6164.80821 1.20137e-17
6166.27845 1.33600e-17
6167.74869 1.32220e-17
6169.21893 1.21077e-17
6170.68917 1.24722e-17
6172.15941 1.31905e-17
6173.62965 1.29590e-17
6175.09989 1.33317e-17
6176.57013 1.30730e-17
6178.04037 1.24483e-17
6179.51061 1.43860e-17
6180.98085 1.39739e-17
6182.45109 1.24217e-17
6183.92133 1.26063e-17
6185.39157 1.31279e-17
6186.86181 1.30187e-17
6188.33205 1.39276e-17
6189.80229 1.38048e-17
6191.27253 1.38425e-17
6192.74277 1.31452e-17
6194.21301 1.34771e-17
6195.68325 1.29274e-17
6197.15349 1.31190e-17
6198.62373 1.26627e-17
6200.09397 1.06217e-17
6201.56421 1.06467e-17
6203.03445 1.19175e-17
6204.50469 1.27775e-17
6205.97493 1.23639e-17
6207.43496 1.12077e-17
6208.90520 1.11404e-17
6210.37544 1.33712e-17
6211.84568 1.35324e-17
6213.31592 1.34735e-17
6214.78616 1.32427e-17
6216.25640 1.16880e-17
6217.72664 1.12384e-17
6219.19688 1.25336e-17
6220.66712 1.18840e-17
6222.13736 1.15223e-17
6223.60760 1.20723e-17
6225.07784 1.30961e-17
6226.54808 1.24563e-17
6228.01832 1.30521e-17
6229.48856 1.25730e-17
6230.95880 1.19157e-17
6232.42904 1.24216e-17
6233.89928 1.25624e-17
6235.36952 1.16703e-17
6236.83976 1.09618e-17
6238.31000 1.14410e-17
6239.78024 1.07115e-17
6241.25048 1.17135e-17
6242.72072 1.16526e-17
6244.19096 1.05790e-17
6245.66120 1.09152e-17
6247.13144 1.12448e-17
6248.60168 1.09886e-17
6250.07192 1.10715e-17
6251.54216 1.18772e-17
6253.01240 1.22832e-17
6254.48264 1.21938e-17
6255.95288 1.18844e-17
6257.42312 1.27445e-17
6258.89336 1.17527e-17
6260.36360 1.11907e-17
6261.83384 1.14836e-17
6263.30408 1.01501e-17
6264.77432 9.91657e-18
6266.24456 1.08372e-17
6267.70459 1.12842e-17
6269.17483 1.10358e-17
6270.64507 9.34129e-18
6272.11531 1.02337e-17
6273.58555 9.99525e-18
6275.05579 9.90823e-18
6276.52603 1.04304e-17
6277.99627 9.81626e-18
6279.46651 9.90242e-18
6280.93675 1.01187e-17
6282.40699 1.08587e-17
6283.87723 1.05502e-17
6285.34747 1.06964e-17
6286.81771 1.16337e-17
6288.28795 1.06977e-17
6289.75819 8.88636e-18
6291.22843 9.12608e-18
6292.69867 1.07780e-17
6294.16891 1.10971e-17
6295.63915 8.50736e-18
6297.10939 8.91667e-18
6298.57963 1.27675e-17
6300.04987 1.27371e-17
6301.52011 9.02896e-18
6302.99035 8.49284e-18
6304.46059 1.00759e-17
6305.93083 1.08832e-17
6307.40107 1.06373e-17
6308.87131 9.90908e-18
6310.34155 9.71924e-18
6311.81179 9.85331e-18
6313.28203 9.86308e-18
6314.75227 1.06518e-17
6316.22251 1.00453e-17
6317.69275 9.69154e-18
6319.16299 1.03281e-17
6320.63323 1.06944e-17
6322.10347 1.08720e-17
6323.57371 1.02722e-17
6325.04395 8.82379e-18
6326.51419 8.41282e-18
6327.98443 9.97085e-18
6329.45467 1.15284e-17
6330.92491 1.09868e-17
6332.39515 9.07873e-18
6333.85518 9.32822e-18
6335.32542 9.66835e-18
6336.79566 8.79566e-18
6338.26590 9.79082e-18
6339.73614 9.76352e-18
6341.20638 8.66954e-18
6342.67662 9.32466e-18
6344.14686 1.06937e-17
6345.61710 9.48214e-18
6347.08734 8.21201e-18
6348.55758 9.59599e-18
6350.02782 9.99899e-18
6351.49806 9.70872e-18
6352.96830 1.09678e-17
6354.43854 1.12118e-17
6355.90878 1.07195e-17
6357.37902 1.09406e-17
6358.84926 9.99270e-18
6360.31950 9.70332e-18
6361.78974 1.06240e-17
6363.25998 1.01430e-17
6364.73022 9.54588e-18
6366.20046 8.93231e-18
6367.67070 9.09723e-18
6369.14094 1.13586e-17
6370.61118 1.05403e-17
6372.08142 9.05029e-18
6373.55166 9.17061e-18
6375.02190 9.57518e-18
6376.49214 1.07386e-17
6377.96238 1.16447e-17
6379.43262 1.09201e-17
6380.90286 1.03897e-17
6382.37310 1.09646e-17
6383.84334 1.03259e-17
6385.31358 1.10237e-17
6386.78382 1.06328e-17
6388.25406 1.08786e-17
6389.72430 1.25668e-17
6391.19454 1.25473e-17
6392.66478 1.14885e-17
6394.12481 1.06655e-17
6395.59505 9.55862e-18
6397.06529 1.08077e-17
6398.53553 1.11068e-17
6400.00577 1.11999e-17
6401.47601 1.12178e-17
6402.94625 1.09696e-17
6404.41649 1.08649e-17
6405.88673 1.17081e-17
6407.35697 1.10515e-17
6408.82721 1.08142e-17
6410.29745 1.14465e-17
6411.76769 1.11795e-17
6413.23793 1.10212e-17
6414.70817 1.09673e-17
6416.17841 1.07575e-17
6417.64865 1.08182e-17
6419.11889 1.09770e-17
6420.58913 1.08728e-17
6422.05937 1.10860e-17
6423.52961 1.31863e-17
6424.99985 1.26340e-17
6426.47009 1.03399e-17
6427.94033 1.06979e-17
6429.41057 1.13159e-17
6430.88081 1.06840e-17
6432.35105 9.91557e-18
6433.82129 1.09024e-17
6435.29153 1.18251e-17
6436.76177 1.15485e-17
6438.23201 1.27950e-17
6439.70225 1.34424e-17
6441.17249 1.23718e-17
6442.64273 1.16972e-17
6444.11297 1.23796e-17
6445.58321 1.28863e-17
6447.05345 1.26024e-17
6448.52369 1.20568e-17
6449.99393 1.18173e-17
6451.46417 1.23724e-17
6452.93441 1.17412e-17
6454.40465 1.10348e-17
6455.86468 1.08700e-17
6457.33492 1.09383e-17
6458.80516 1.14476e-17
6460.27540 1.10575e-17
6461.74564 1.22526e-17
6463.21588 1.16899e-17
6464.68612 1.19531e-17
6466.15636 1.27367e-17
6467.62660 1.17654e-17
6469.09684 1.11202e-17
6470.56708 1.15527e-17
6472.03732 1.27333e-17
6473.50756 1.23862e-17
6474.97780 1.16971e-17
6476.44804 1.15742e-17
6477.91828 1.17030e-17
6479.38852 1.23459e-17
6480.85876 1.18763e-17
6482.32900 1.06034e-17
6483.79924 1.11616e-17
6485.26948 1.21296e-17
6486.73972 1.17182e-17
6488.20996 1.15387e-17
6489.68020 1.26263e-17
6491.15044 1.32177e-17
6492.62068 1.23909e-17
6494.09092 1.17292e-17
6495.56116 1.12356e-17
6497.03140 1.29140e-17
6498.50164 1.30703e-17
6499.97188 1.19111e-17
6501.44212 1.16037e-17
6502.91236 1.29631e-17
6504.38260 1.29364e-17
6505.85284 1.23321e-17
6507.32308 1.19263e-17
6508.79332 1.03821e-17
6510.26356 9.84733e-18
6511.73380 1.07970e-17
6513.20404 1.06277e-17
6514.67428 1.07500e-17
6516.14452 1.11113e-17
6517.61476 1.16134e-17
6519.08500 1.17620e-17
6520.54503 1.09246e-17
6522.01527 1.03580e-17
6523.48551 1.06925e-17
6524.95575 1.12661e-17
6526.42599 1.17016e-17
6527.89623 1.14928e-17
6529.36647 1.07228e-17
6530.83671 1.12808e-17
6532.30695 1.17919e-17
6533.77719 1.08678e-17
6535.24743 1.02288e-17
6536.71767 1.09935e-17
6538.18791 1.19835e-17
6539.65815 1.14715e-17
6541.12839 1.14633e-17
6542.59863 1.19422e-17
6544.06887 1.14200e-17
6545.53911 1.03939e-17
6547.00935 1.00627e-17
6548.47959 1.14384e-17
6549.94983 1.10514e-17
6551.42007 9.85815e-18
6552.89031 1.06201e-17
6554.36055 1.12805e-17
6555.83079 1.15714e-17
6557.30103 1.12671e-17
6558.77127 1.06521e-17
6560.24151 1.18732e-17
6561.71175 1.33868e-17
6563.18199 1.23370e-17
6564.65223 1.15407e-17
6566.12247 1.15777e-17
6567.59271 1.05761e-17
6569.06295 1.12738e-17
6570.53319 1.14700e-17
6572.00343 1.08586e-17
6573.47367 1.12909e-17
6574.94391 1.06714e-17
6576.41415 9.74382e-18
6577.88439 8.42989e-18
6579.35463 9.71177e-18
6580.81466 1.07610e-17
6582.28490 8.91247e-18
6583.75514 8.87582e-18
6585.22538 9.29450e-18
6586.69562 9.68580e-18
6588.16586 1.05270e-17
6589.63610 9.47175e-18
6591.10634 8.39258e-18
6592.57658 9.98180e-18
6594.04682 1.12221e-17
6595.51706 1.10399e-17
6596.98730 9.72860e-18
6598.45754 8.86204e-18
6599.92778 9.93066e-18
6601.39802 1.10560e-17
6602.86826 1.07140e-17
6604.33850 1.11871e-17
6605.80874 1.08079e-17
6607.27898 9.88334e-18
6608.74922 8.72907e-18
6610.21946 8.87822e-18
6611.68970 8.78195e-18
6613.15994 8.49280e-18
6614.63018 9.49032e-18
6616.10042 1.01757e-17
6617.57066 9.59767e-18
6619.04090 9.89840e-18
6620.51114 1.03281e-17
6621.98138 1.04266e-17
6623.45162 9.16776e-18
6624.92186 8.97660e-18
6626.39210 1.00286e-17
6627.86234 1.03297e-17
6629.33258 8.67372e-18
6630.80282 9.26808e-18
6632.27306 1.09514e-17
6633.74330 1.06814e-17
6635.21354 1.12934e-17
6636.68378 1.12656e-17
6638.15402 1.01034e-17
6639.62426 8.90498e-18
6641.09450 9.67448e-18
6642.56474 1.12040e-17
6644.02477 1.04690e-17
6645.49501 1.11649e-17
6646.96525 1.10078e-17
6648.43549 1.11120e-17
6649.90573 1.20637e-17
6651.37597 1.18493e-17
6652.84621 1.15763e-17
6654.31645 1.10422e-17
6655.78669 1.10149e-17
6657.25693 1.11539e-17
6658.72717 1.07578e-17
6660.19741 1.14620e-17
6661.66765 1.16312e-17
6663.13789 1.20631e-17
6664.60813 1.23433e-17
6666.07837 1.12380e-17
6667.54861 1.07524e-17
6669.01885 1.10035e-17
6670.48909 1.03567e-17
6671.95933 1.09413e-17
6673.42957 1.13164e-17
6674.89981 1.07973e-17
6676.37005 1.16706e-17
6677.84029 1.08420e-17
6679.31053 1.03026e-17
6680.78077 1.15562e-17
6682.25101 1.25116e-17
6683.72125 1.15249e-17
6685.19149 1.10089e-17
6686.66173 1.12135e-17
6688.13197 1.13891e-17
6689.60221 1.18738e-17
6691.07245 1.27728e-17
6692.54269 1.23936e-17
6694.01293 1.09826e-17
6695.48317 1.14557e-17
6696.95341 1.25637e-17
6698.42365 1.32287e-17
6699.89389 1.28603e-17
6701.36413 1.26825e-17
6702.83437 1.32363e-17
6704.30461 1.26833e-17
6705.77485 1.19756e-17
6707.24509 1.17317e-17
6708.70512 1.17915e-17
6710.17536 1.20887e-17
6711.64560 1.19764e-17
6713.11584 1.21210e-17
6714.58608 1.28398e-17
6716.05632 1.27244e-17
6717.52656 1.19927e-17
6718.99680 1.17579e-17
6720.46704 1.15526e-17
6721.93728 1.15186e-17
6723.40752 1.21001e-17
6724.87776 1.21480e-17
6726.34800 1.13051e-17
6727.81824 1.16650e-17
6729.28848 1.21505e-17
6730.75872 1.23495e-17
6732.22896 1.26065e-17
6733.69920 1.19926e-17
6735.16944 1.15008e-17
6736.63968 1.25467e-17
6738.10992 1.21434e-17
6739.58016 1.03894e-17
6741.05040 1.12331e-17
6742.52064 1.17523e-17
6743.99088 1.14692e-17
6745.46112 1.23667e-17
6746.93136 1.28037e-17
6748.40160 1.32207e-17
6749.87184 1.36628e-17
6751.34208 1.21888e-17
6752.81232 1.18927e-17
6754.28256 1.31014e-17
6755.75280 1.23575e-17
6757.22304 1.16214e-17
6758.69328 1.06471e-17
6760.16352 1.15235e-17
6761.63376 1.29987e-17
6763.10400 1.19712e-17
6764.57424 1.13793e-17
6766.04448 1.19635e-17
6767.50451 1.11379e-17
6768.97475 1.03550e-17
6770.44499 1.11890e-17
6771.91523 1.15682e-17
6773.38547 1.13480e-17
6774.85571 1.13382e-17
6776.32595 1.14658e-17
6777.79619 1.28063e-17
6779.26643 1.33256e-17
6780.73667 1.22752e-17
6782.20691 1.13091e-17
6783.67715 1.09427e-17
6785.14739 1.09075e-17
6786.61763 1.00779e-17
6788.08787 9.53525e-18
6789.55811 1.02161e-17
6791.02835 1.17658e-17
6792.49859 1.20464e-17
6793.96883 1.05249e-17
6795.43907 1.02401e-17
6796.90931 1.20258e-17
6798.37955 1.30661e-17
6799.84979 1.10845e-17
6801.32003 1.01284e-17
6802.79027 1.17969e-17
6804.26051 1.16020e-17
6805.73075 1.08057e-17
6807.20099 1.14440e-17
6808.67123 1.13812e-17
6810.14147 1.06226e-17
6811.61171 1.02436e-17
6813.08195 9.52439e-18
6814.55219 1.00288e-17
6816.02243 1.18707e-17
6817.49267 1.15823e-17
6818.96291 1.02119e-17
6820.43315 1.01034e-17
6821.90339 1.11366e-17
6823.37363 1.11971e-17
6824.84387 1.13004e-17
6826.31411 1.18765e-17
6827.78435 1.17336e-17
6829.25459 1.11372e-17
6830.72483 9.72815e-18
6832.19507 1.05960e-17
6833.65510 1.22182e-17
6835.12534 9.80472e-18
6836.59558 9.36024e-18
6838.06582 1.17426e-17
6839.53606 1.07932e-17
6841.00630 9.12107e-18
6842.47654 9.92713e-18
6843.94678 1.06644e-17
6845.41702 1.07548e-17
6846.88726 1.02498e-17
6848.35750 1.01939e-17
6849.82774 1.16285e-17
6851.29798 1.13932e-17
6852.76822 1.04468e-17
6854.23846 1.00626e-17
6855.70870 1.02590e-17
6857.17894 1.05473e-17
6858.64918 1.01722e-17
6860.11942 1.01398e-17
6861.58966 1.04685e-17
6863.05990 1.07383e-17
6864.53014 9.88352e-18
6866.00038 9.22922e-18
6867.47062 1.14553e-17
6868.94086 1.25313e-17
6870.41110 1.10052e-17
6871.88134 1.03879e-17
6873.35158 1.07423e-17
6874.82182 1.10502e-17
6876.29206 1.06269e-17
6877.76230 1.12419e-17
6879.23254 1.14632e-17
6880.70278 1.05445e-17
6882.17302 1.01891e-17
6883.64326 1.10423e-17
6885.11350 1.11875e-17
6886.58374 1.00453e-17
6888.05398 1.00148e-17
6889.52422 9.38949e-18
6890.99446 8.66511e-18
6892.46470 9.28031e-18
6893.93494 1.02044e-17
6895.39497 1.07479e-17
6896.86521 1.03703e-17
6898.33545 1.01080e-17
6899.80569 1.01376e-17
6901.27593 1.02908e-17
6902.74617 1.15114e-17
6904.21641 1.03519e-17
6905.68665 8.57756e-18
6907.15689 9.63884e-18
6908.62713 1.01577e-17
6910.09737 1.02152e-17
6911.56761 1.09192e-17
6913.03785 1.04394e-17
6914.50809 8.96825e-18
6915.97833 9.51053e-18
6917.44857 1.00825e-17
6918.91881 9.22808e-18
6920.38905 9.37130e-18
6921.85929 1.06307e-17
6923.32953 1.03205e-17
6924.79977 8.46942e-18
6926.27001 7.72646e-18
6927.74025 8.69947e-18
6929.21049 1.06172e-17
6930.68073 1.10364e-17
6932.15097 1.02628e-17
6933.62121 1.06975e-17
6935.09145 1.04894e-17
6936.56169 9.08981e-18
6938.03193 8.79146e-18
6939.50217 9.38065e-18
6940.97241 9.17367e-18
6942.44265 9.31584e-18
6943.91289 1.04587e-17
6945.38313 1.04638e-17
6946.85337 9.18777e-18
6948.32361 9.06102e-18
6949.79385 9.91291e-18
6951.26409 1.07109e-17
6952.73433 1.10636e-17
6954.20457 1.05749e-17
6955.66460 9.11129e-18
6957.13484 8.99592e-18
6958.60508 9.77100e-18
6960.07532 8.44886e-18
6961.54556 8.04162e-18
6963.01580 8.98067e-18
6964.48604 8.79538e-18
6965.95628 8.70275e-18
6967.42652 9.50033e-18
6968.89676 9.80121e-18
6970.36700 8.77690e-18
6971.83724 7.91469e-18
6973.30748 8.81700e-18
6974.77772 1.03937e-17
6976.24796 1.07372e-17
6977.71820 9.72572e-18
6979.18844 9.05264e-18
6980.65868 9.39156e-18
6982.12892 9.45189e-18
6983.59916 9.60492e-18
6985.06940 9.08578e-18
6986.53964 8.09127e-18
6988.00988 8.60669e-18
6989.48012 9.06004e-18
6990.95036 9.17941e-18
6992.42060 9.49085e-18
6993.89084 1.00805e-17
6995.36108 9.90016e-18
6996.83132 9.49443e-18
6998.30156 1.02637e-17
6999.77180 1.08130e-17
7001.24204 9.82619e-18
7002.71228 8.89503e-18
7004.18252 9.64242e-18
7005.65276 9.77029e-18
7007.12300 9.15681e-18
7008.59324 8.37716e-18
7010.06348 8.25195e-18
7011.53372 8.89867e-18
7013.00396 9.89875e-18
7014.47420 1.05027e-17
7015.94444 9.35277e-18
7017.41468 9.08391e-18
7018.87471 8.75045e-18
7020.35516 8.85430e-18
7021.81519 1.06703e-17
7023.28543 1.11123e-17
7024.75567 9.65255e-18
7026.22591 8.45414e-18
7027.69615 8.49131e-18
7029.16639 8.88570e-18
7030.63663 8.87752e-18
7032.10687 9.80264e-18
7033.57711 9.96986e-18
7035.04735 9.46743e-18
7036.51759 8.87275e-18
7037.98783 8.21976e-18
7039.45807 8.86228e-18
7040.92831 9.73139e-18
7042.39855 8.18417e-18
7043.86879 7.90408e-18
7045.33903 9.93524e-18
7046.80927 1.00491e-17
7048.27951 9.23288e-18
7049.74975 9.28651e-18
7051.21999 9.73415e-18
7052.69023 1.01841e-17
7054.16047 9.69453e-18
7055.63071 9.16396e-18
7057.10095 9.25305e-18
7058.57119 9.40016e-18
7060.04143 8.58549e-18
7061.51167 8.44259e-18
7062.98191 9.06140e-18
7064.45215 8.80879e-18
7065.92239 9.83503e-18
7067.39263 1.09458e-17
7068.86287 9.87922e-18
7070.33311 8.98910e-18
7071.80335 9.89312e-18
7073.27359 9.94680e-18
7074.74383 8.99235e-18
7076.21407 9.52351e-18
7077.68431 9.76853e-18
7079.15455 9.14314e-18
7080.62479 8.82186e-18
7082.08482 8.80916e-18
7083.55506 1.01405e-17
7085.02530 1.13315e-17
7086.49554 1.02299e-17
7087.96578 9.96412e-18
7089.43602 1.05819e-17
7090.90626 1.03241e-17
7092.37650 9.78916e-18
7093.84674 9.26141e-18
7095.31698 9.49393e-18
7096.78722 9.31073e-18
7098.25746 9.29708e-18
7099.72770 8.99046e-18
7101.19794 9.19683e-18
7102.66818 9.82122e-18
7104.13842 9.54967e-18
7105.60866 9.21955e-18
7107.07890 9.10816e-18
7108.54914 9.81145e-18
7110.01938 1.05432e-17
7111.48962 1.16452e-17
7112.95986 1.40861e-17
7114.43010 1.48595e-17
7115.90034 1.20845e-17
7117.37058 1.09611e-17
7118.84082 1.13979e-17
7120.31106 1.04287e-17
7121.78130 8.97160e-18
7123.25154 8.43496e-18
7124.72178 8.19738e-18
7126.19202 9.11700e-18
7127.66226 1.04129e-17
7129.13250 9.91098e-18
7130.60274 8.40074e-18
7132.07298 9.12698e-18
7133.54322 9.71281e-18
7135.01346 9.53105e-18
7136.48370 9.63523e-18
7137.95394 9.70778e-18
7139.42418 1.03893e-17
7140.89442 1.03791e-17
7142.36466 9.67601e-18
7143.83490 9.57698e-18
7145.29493 8.72655e-18
7146.76517 9.18266e-18
7148.23541 9.47076e-18
7149.70565 9.78145e-18
7151.17589 9.45849e-18
7152.64613 8.79237e-18
7154.11637 9.72566e-18
7155.58661 9.98579e-18
7157.05685 9.99348e-18
7158.52709 9.95793e-18
7159.99733 9.01896e-18
7161.46757 9.15271e-18
7162.93781 9.14483e-18
7164.40805 8.65913e-18
7165.87829 9.06615e-18
7167.34853 8.51484e-18
7168.81877 8.25013e-18
7170.28901 8.49915e-18
7171.75925 9.09379e-18
7173.22949 9.90539e-18
7174.69973 9.74886e-18
7176.16997 9.85865e-18
7177.64021 9.66889e-18
7179.11045 8.74037e-18
7180.58069 8.51106e-18
7182.05093 9.84815e-18
7183.52117 1.03971e-17
7184.99141 1.01812e-17
7186.46165 9.77760e-18
7187.93189 8.50893e-18
7189.40213 9.38078e-18
7190.87237 1.08120e-17
7192.34261 9.02060e-18
7193.81285 9.15923e-18
7195.28309 1.02857e-17
7196.75333 9.50155e-18
7198.22357 9.30093e-18
7199.69381 8.58085e-18
7201.16405 8.36369e-18
7202.63429 9.56280e-18
7204.10453 1.03443e-17
7205.56456 1.02015e-17
7207.04501 9.51080e-18
7208.50504 8.11970e-18
7209.97528 8.16878e-18
7211.44552 9.51026e-18
7212.91576 1.06131e-17
7214.38600 9.07452e-18
7215.85624 9.40289e-18
7217.32648 1.05678e-17
7218.79672 1.01177e-17
7220.26696 9.16451e-18
7221.73720 9.01607e-18
7223.20744 8.06916e-18
7224.67768 8.19226e-18
7226.14792 9.55295e-18
7227.61816 9.64721e-18
7229.08840 1.08141e-17
7230.55864 9.75061e-18
7232.02888 9.46876e-18
7233.49912 9.42671e-18
7234.96936 8.54907e-18
7236.43960 9.90094e-18
7237.90984 1.06587e-17
7239.38008 9.60370e-18
7240.85032 1.01253e-17
7242.32056 9.48963e-18
7243.79080 9.49280e-18
7245.26104 9.85022e-18
7246.73128 1.05764e-17
7248.20152 1.18879e-17
7249.67176 1.02508e-17
7251.14200 9.79340e-18
7252.61224 9.88122e-18
7254.08248 8.23262e-18
7255.55272 9.42303e-18
7257.02296 1.21132e-17
7258.49320 1.18222e-17
7259.96344 9.87776e-18
7261.43368 9.41751e-18
7262.90392 9.21532e-18
7264.37416 8.63636e-18
7265.84440 8.73230e-18
7267.31464 9.87730e-18
7268.77467 8.79553e-18
7270.24491 7.97239e-18
7271.71515 9.33206e-18
7273.18539 9.22169e-18
7274.65563 8.48909e-18
7276.12587 1.06862e-17
7277.59611 1.15709e-17
7279.06635 9.88534e-18
7280.53659 7.85790e-18
7282.00683 7.58610e-18
7283.47707 7.86937e-18
7284.94731 8.33763e-18
7286.41755 9.25043e-18
7287.88779 9.67084e-18
7289.35803 9.44981e-18
7290.82827 8.83858e-18
7292.29851 9.52608e-18
7293.76875 8.57424e-18
7295.23899 8.81286e-18
7296.70923 1.01029e-17
7298.17947 1.08930e-17
7299.64971 9.74923e-18
7301.11995 9.48453e-18
7302.59019 9.66263e-18
7304.06043 1.02287e-17
7305.53067 9.62586e-18
7307.00091 7.99159e-18
7308.47115 8.87885e-18
7309.94139 1.06729e-17
7311.41163 1.13802e-17
7312.88187 1.20239e-17
7314.35211 1.16686e-17
7315.82235 1.11811e-17
7317.29259 1.07384e-17
7318.76283 1.07013e-17
7320.23307 1.00300e-17
7321.70331 1.01859e-17
7323.17355 1.02480e-17
7324.64379 9.81333e-18
7326.11403 9.89254e-18
7327.58427 1.11474e-17
7329.05451 9.71587e-18
7330.52475 1.00744e-17
7331.99499 1.04339e-17
7333.45502 8.38557e-18
7334.92526 9.41182e-18
7336.39550 9.91028e-18
7337.86574 1.02062e-17
7339.33598 8.23505e-18
7340.80622 8.52983e-18
7342.27646 1.08456e-17
7343.74670 9.91643e-18
7345.21694 9.64542e-18
7346.68718 1.03126e-17
7348.15742 8.78629e-18
7349.62766 8.09762e-18
7351.09790 9.02960e-18
7352.56814 8.87457e-18
7354.03838 8.89223e-18
7355.50862 9.19221e-18
7356.97886 1.06606e-17
7358.44910 1.11177e-17
7359.91934 1.01466e-17
7361.38958 1.09399e-17
7362.85982 1.02955e-17
7364.33006 1.00260e-17
7365.80030 1.06251e-17
7367.27054 9.58659e-18
7368.74078 9.14641e-18
7370.21102 9.80024e-18
7371.68126 8.69303e-18
7373.15150 9.66266e-18
7374.62174 9.59158e-18
7376.09198 9.16800e-18
7377.56222 1.00679e-17
7379.03246 1.02452e-17
7380.50270 9.95482e-18
7381.97294 9.31801e-18
7383.44318 8.29555e-18
7384.91342 8.79024e-18
7386.38366 9.91291e-18
7387.85390 1.07975e-17
7389.32414 1.15037e-17
7390.79438 9.93645e-18
7392.25441 9.84318e-18
7393.72465 8.43813e-18
7395.20510 8.73284e-18
7396.66513 1.04757e-17
7398.13537 1.14904e-17
7399.60561 1.10557e-17
7401.07585 8.34822e-18
7402.54609 8.03984e-18
7404.01633 9.47518e-18
7405.48657 1.06173e-17
7407.12935 1.06173e-17
7408.82694 9.23048e-18
7410.52453 8.49948e-18
7412.22211 8.77303e-18
7413.91970 9.25338e-18
7415.61729 9.66331e-18
7417.31488 1.03615e-17
7419.01247 1.10783e-17
7420.71005 1.07043e-17
7422.40764 9.18152e-18
7424.10523 8.14849e-18
7425.80282 8.44571e-18
7427.50041 9.27706e-18
7429.19800 9.95232e-18
7430.89558 1.02702e-17
7432.59317 1.02100e-17
7434.29076 1.01138e-17
7435.98835 1.02792e-17
7437.68594 1.06790e-17
7439.38352 1.11802e-17
7441.09116 1.16206e-17
7442.78874 1.18012e-17
7444.48633 1.12905e-17
7446.18392 9.91219e-18
7447.88151 8.68601e-18
7449.57910 8.69662e-18
7451.27669 9.56576e-18
7452.97427 1.03306e-17
7454.67186 1.03483e-17
7456.36945 9.31861e-18
7458.06704 7.81798e-18
7459.76463 6.89667e-18
7461.46221 6.81504e-18
7463.15980 7.21587e-18
7464.85739 7.94727e-18
7466.55498 8.97851e-18
7468.25257 9.99796e-18
7469.95015 1.05040e-17
7471.64774 1.03554e-17
7473.34533 9.81663e-18
7475.04292 9.30223e-18
7476.74051 9.40716e-18
7478.43809 1.00759e-17
7480.13568 1.02173e-17
7481.83327 9.48514e-18
7483.53086 8.93569e-18
7485.22845 9.18175e-18
7486.92604 9.78603e-18
7488.62362 1.03315e-17
7490.32121 1.07011e-17
7492.01880 1.07745e-17
7493.71639 1.02888e-17
7495.41398 9.24830e-18
7497.11156 8.43076e-18
7498.80915 8.47469e-18
7500.50674 9.05486e-18
7502.20433 9.65332e-18
7503.90192 1.00284e-17
7505.59950 1.01162e-17
7507.29709 1.03339e-17
7508.99468 1.10895e-17
7510.69227 1.18417e-17
7512.38986 1.17444e-17
7514.08745 1.05320e-17
7515.78503 8.43263e-18
7517.48262 6.60204e-18
7519.18021 6.57232e-18
7520.87780 7.95979e-18
7522.58543 8.92177e-18
7524.28302 9.02400e-18
7525.98061 9.12219e-18
7527.67819 9.45937e-18
7529.37578 9.70196e-18
7531.07337 9.70617e-18
7532.77096 9.49226e-18
7534.46855 9.19167e-18
7536.16614 9.11138e-18
7537.86372 9.34560e-18
7539.56131 9.62031e-18
7541.25890 9.75226e-18
7542.95649 9.77849e-18
7544.65408 9.74069e-18
7546.35166 9.67663e-18
7548.04925 9.58413e-18
7549.74684 9.30731e-18
7551.44443 9.29924e-18
7553.14202 9.29118e-18
7554.83960 9.28310e-18
7556.53719 9.27504e-18
7558.23478 9.26698e-18
7559.93237 9.25891e-18
7561.62996 9.25085e-18
7563.32754 9.24278e-18
7565.02513 9.23472e-18
7566.72272 9.22666e-18
7568.42031 9.21860e-18
7570.11790 9.21054e-18
7571.81549 9.20247e-18
7573.51307 9.19440e-18
7575.21066 9.18634e-18
7576.90825 9.17828e-18
7578.60584 9.17023e-18
7580.30343 9.16217e-18
7582.00101 9.15411e-18
7583.69860 9.14605e-18
7585.39619 9.13800e-18
7587.09378 9.12994e-18
7588.79137 9.12189e-18
7590.48895 9.11383e-18
7592.18654 9.10577e-18
7593.88413 9.09772e-18
7595.58172 9.08966e-18
7597.27931 9.08160e-18
7598.97689 9.07355e-18
7600.67448 9.06550e-18
7602.37207 9.05745e-18
7604.06966 9.04940e-18
7605.76725 9.04135e-18
7607.47488 9.03330e-18
7609.17247 9.02525e-18
7610.87006 9.01720e-18
7612.56764 9.00915e-18
7614.26523 9.00110e-18
7615.96282 8.99305e-18
7617.66041 8.98500e-18
7619.35800 8.97696e-18
7621.05559 8.96891e-18
7622.75317 8.96087e-18
7624.45076 8.95282e-18
7626.14835 8.94478e-18
7627.84594 8.93672e-18
7629.54353 8.92868e-18
7631.24111 8.92064e-18
7632.93870 8.91259e-18
7634.63629 8.90455e-18
7636.33388 8.89651e-18
7638.03147 8.88847e-18
7639.72905 8.88043e-18
7641.42664 8.87239e-18
7643.12423 8.86435e-18
7644.82182 8.85631e-18
7646.51941 8.84827e-18
7648.21699 8.84023e-18
7649.91458 8.83220e-18
7651.61217 8.82416e-18
7653.30976 8.81612e-18
7655.00735 8.80809e-18
7656.70494 8.80005e-18
7658.40252 8.79202e-18
7660.10011 8.78398e-18
7661.79770 8.77595e-18
7663.49529 8.76791e-18
7665.19288 8.75988e-18
7666.89046 8.75185e-18
7668.58805 8.74382e-18
7670.28564 8.73579e-18
7671.98323 8.72775e-18
7673.68082 8.71973e-18
7675.37840 8.71170e-18
7677.07599 8.70366e-18
7678.77358 8.69564e-18
7680.47117 8.68761e-18
7682.16876 8.68723e-18
7683.86634 8.59167e-18
7685.56393 8.43211e-18
7687.26152 8.25407e-18
7688.96915 8.16463e-18
7690.66674 8.27334e-18
7692.36433 8.50794e-18
7694.06192 8.66655e-18
7695.75951 8.65006e-18
7697.45709 8.46871e-18
7699.15468 8.19329e-18
7700.85227 7.95537e-18
7702.54986 7.94953e-18
7704.24745 8.42413e-18
7705.94504 9.25134e-18
7707.64262 9.79455e-18
7709.34021 9.79221e-18
7711.03780 9.62828e-18
7712.73539 9.47873e-18
7714.43298 9.04735e-18
7716.13056 8.30448e-18
7717.82815 7.84975e-18
7719.52574 7.94581e-18
7721.22333 7.85550e-18
7722.92092 7.19137e-18
7724.61850 6.92388e-18
7726.31609 7.76025e-18
7728.01368 8.91966e-18
7729.71127 9.54901e-18
7731.40886 9.79386e-18
7733.10644 9.96031e-18
7734.80403 9.72901e-18
7736.50162 8.82666e-18
7738.19921 8.03648e-18
7739.89680 8.28515e-18
7741.59439 9.11554e-18
7743.29197 9.52637e-18
7744.98956 9.51311e-18
7746.68715 9.60542e-18
7748.38474 9.87830e-18
7750.08233 1.01259e-17
7751.77991 1.02061e-17
7753.47750 1.00261e-17
7755.17509 9.75349e-18
7756.87268 9.78905e-18
7758.57027 1.02599e-17
7760.26785 1.09896e-17
7761.96544 1.15216e-17
7763.66303 1.10424e-17
7765.36062 9.67725e-18
7767.05821 8.97022e-18
7768.75579 9.51910e-18
7770.46343 1.01987e-17
7772.16102 1.02705e-17
7773.85860 9.95875e-18
7775.55619 9.50114e-18
7777.25378 8.98107e-18
7778.95137 8.54163e-18
7780.64896 8.47949e-18
7782.34654 8.90772e-18
7784.04413 9.42280e-18
7785.74172 9.62864e-18
7787.43931 9.47560e-18
7789.13690 9.07895e-18
7790.83448 8.83834e-18
7792.53207 9.08511e-18
7794.22966 9.33163e-18
7795.92725 9.01654e-18
7797.62484 8.90092e-18
7799.32243 1.00123e-17
7801.02001 1.16126e-17
7802.71760 1.22051e-17
7804.41519 1.15857e-17
7806.11278 1.04304e-17
7807.81037 9.45826e-18
7809.50795 9.36001e-18
7811.20554 9.87315e-18
7812.90313 9.86894e-18
7814.60072 9.33090e-18
7816.29831 9.39744e-18
7817.99589 1.01376e-17
7819.69348 1.03608e-17
7821.39107 9.81595e-18
7823.08866 9.55688e-18
7824.78625 9.92890e-18
7826.48384 1.01003e-17
7828.18142 9.68428e-18
7829.87901 9.20926e-18
7831.57660 8.94386e-18
7833.27419 8.43673e-18
7834.97178 7.55742e-18
7836.66936 7.07420e-18
7838.36695 7.51891e-18
7840.06454 8.60307e-18
7841.76213 9.78253e-18
7843.45972 1.01717e-17
7845.15730 9.25901e-18
7846.85489 7.99338e-18
7848.55248 7.50352e-18
7850.25007 7.83315e-18
7851.94766 8.61048e-18
7853.64524 9.60955e-18
7855.35288 1.05994e-17
7857.05047 1.11216e-17
7858.74805 1.07760e-17
7860.44564 9.90240e-18
7862.14323 9.22815e-18
7863.84082 8.82864e-18
7865.53841 8.32544e-18
7867.23599 7.81422e-18
7868.93358 7.72624e-18
7870.63117 7.86726e-18
7872.32876 7.49907e-18
7874.02635 6.72745e-18
7875.72393 6.57219e-18
7877.42152 7.35232e-18
7879.11911 8.51026e-18
7880.81670 9.31433e-18
7882.51429 8.72631e-18
7884.21188 6.90556e-18
7885.90946 6.15539e-18
7887.60705 7.52331e-18
7889.30464 9.29644e-18
7891.00223 1.01148e-17
7892.69982 9.99631e-18
7894.39740 9.25393e-18
7896.09499 8.55029e-18
7897.79258 8.37174e-18
7899.49017 8.33376e-18
7901.18776 8.07139e-18
7902.88534 8.02409e-18
7904.58293 8.58506e-18
7906.28052 9.32903e-18
7907.97811 9.66165e-18
7909.67570 9.25852e-18
7911.37328 8.10088e-18
7913.07087 6.95685e-18
7914.76846 6.77559e-18
7916.46605 7.59082e-18
7918.16364 8.82192e-18
7919.86123 9.51445e-18
7921.55881 8.68968e-18
7923.25640 6.95421e-18
7924.95399 6.09825e-18
7926.65158 6.68348e-18
7928.34917 8.07886e-18
7930.04675 9.49157e-18
7931.74434 9.95151e-18
7933.44193 9.38018e-18
7935.13952 8.89283e-18
7936.84715 8.86684e-18
7938.54474 8.54330e-18
7940.24233 7.79847e-18
7941.93992 7.54404e-18
7943.63750 8.21287e-18
7945.33509 9.37735e-18
7947.03268 1.04168e-17
7948.73027 1.04023e-17
7950.42786 9.01423e-18
7952.12544 7.43949e-18
7953.82303 6.70788e-18
7955.52062 6.72968e-18
7957.21821 7.17942e-18
7958.91580 7.73201e-18
7960.61338 8.13605e-18
7962.31097 8.60016e-18
7964.00856 9.31298e-18
7965.70615 9.72930e-18
7967.40374 9.26987e-18
7969.10133 8.27777e-18
7970.79891 7.43304e-18
7972.49650 7.00646e-18
7974.19409 6.99675e-18
7975.89168 7.17095e-18
7977.58927 7.16713e-18
7979.28685 6.97410e-18
7980.98444 6.84095e-18
7982.68203 6.75493e-18
7984.37962 6.50742e-18
7986.07721 6.06904e-18
7987.77479 5.57469e-18
7989.47238 5.28268e-18
7991.16997 5.57943e-18
7992.86756 6.43023e-18
7994.56515 7.24534e-18
7996.26273 7.62797e-18
7997.96032 7.51371e-18
7999.65791 7.00009e-18
8001.35550 6.45401e-18
8003.05309 6.06808e-18
8004.75068 5.57718e-18
8006.44826 4.87367e-18
8008.14585 4.33638e-18
8009.84344 4.20087e-18
8011.54103 4.16414e-18
8013.23862 3.99170e-18
8014.93620 3.94940e-18
8016.63379 4.27100e-18
8018.34143 4.73720e-18
8020.03901 5.07829e-18
8021.73660 5.33123e-18
8023.43419 5.58557e-18
8025.13178 5.68523e-18
8026.82937 5.45249e-18
8028.52695 5.06268e-18
8030.22454 4.79736e-18
8031.92213 4.51935e-18
8033.61972 3.92205e-18
8035.31731 3.19643e-18
8037.01489 2.82429e-18
8038.71248 2.85595e-18
8040.41007 3.01043e-18
8042.10766 3.25147e-18
8043.80525 3.74195e-18
8045.50283 4.48136e-18
8047.20042 5.31211e-18
8048.89801 5.96785e-18
8050.59560 6.06177e-18
8052.29319 5.47468e-18
8053.99078 4.47724e-18
8055.68836 3.38204e-18
8057.38595 2.46513e-18
8059.08354 2.05916e-18
8060.78113 2.66360e-18
8062.47872 4.19684e-18
8064.17630 5.37044e-18
8065.87389 5.32705e-18
8067.57148 4.59587e-18
8069.26907 3.83988e-18
8070.96666 3.35775e-18
8072.66424 3.32749e-18
8074.36183 3.83134e-18
8076.05942 4.74341e-18
8077.75701 5.41940e-18
8079.45460 5.28934e-18
8081.15218 4.69198e-18
8082.84977 4.21624e-18
8084.54736 3.85590e-18
8086.24495 3.40218e-18
8087.94254 2.98547e-18
8089.64013 2.86311e-18
8091.33771 3.12870e-18
8093.03530 3.73777e-18
8094.73289 4.44874e-18
8096.43048 4.89553e-18
8098.12807 4.94525e-18
8099.82565 4.69888e-18
8101.52324 4.31669e-18
8103.22083 4.01714e-18
8104.92846 3.82469e-18
8106.62605 3.50684e-18
8108.32364 3.13173e-18
8110.02123 3.18150e-18
8111.71882 3.70835e-18
8113.41640 4.13365e-18
8115.11399 3.98549e-18
8116.81158 2.94488e-18
8118.50917 1.30459e-18
8120.20676 6.15148e-19
8121.90434 1.63752e-18
8123.60193 2.99891e-18
8125.29952 3.56248e-18
8126.99711 3.67201e-18
8128.69470 3.78440e-18
8130.39228 3.89777e-18
8132.08987 3.93904e-18
8133.78746 3.85022e-18
8135.48505 3.59164e-18
8137.18264 3.15575e-18
8138.88023 2.61202e-18
8140.57781 2.32839e-18
8142.27540 2.64089e-18
8143.97299 3.21108e-18
8145.67058 3.43993e-18
8147.36817 3.17642e-18
8149.06575 2.59286e-18
8150.76334 2.07399e-18
8152.46093 2.10436e-18
8154.15852 2.65534e-18
8155.85611 3.25720e-18
8157.55369 3.73077e-18
8159.25128 4.17789e-18
8160.94887 4.55082e-18
8162.64646 4.66730e-18
8164.34405 4.56052e-18
8166.04163 4.52127e-18
8167.73922 4.58385e-18
8169.43681 4.40533e-18
8171.13440 3.80804e-18
8172.83199 2.89680e-18
8174.52958 1.87306e-18
8176.22716 1.05143e-18
8177.92475 7.00547e-19
8179.62234 1.01125e-18
8181.31993 1.89061e-18
8183.01752 2.64664e-18
8184.71510 2.75015e-18
8186.41269 2.31624e-18
8188.12032 1.70471e-18
8189.81791 1.63937e-18
8191.51550 2.54991e-18
8193.21309 3.52470e-18
8194.91068 3.51942e-18
8196.60827 2.64151e-18
8198.30585 1.49698e-18
8200.00344 8.38401e-19
8201.70103 1.26707e-18
8203.39862 2.19132e-18
8205.09621 2.50471e-18
8206.79379 2.37545e-18
8208.49138 2.72209e-18
8210.18897 3.58276e-18
8211.88656 4.36218e-18
8213.58415 4.69883e-18
8215.28173 4.43607e-18
8216.97932 3.78944e-18
8218.67691 3.37950e-18
8220.37450 3.32930e-18
8222.07209 3.13546e-18
8223.76967 2.66410e-18
8225.46726 2.30323e-18
8227.16485 2.19832e-18
8228.86244 2.09165e-18
8230.56003 1.94326e-18
8232.25762 2.15017e-18
8233.95520 2.83342e-18
8235.65279 3.49375e-18
8237.35038 3.79448e-18
8239.04797 3.95921e-18
8240.74556 4.16014e-18
8242.44314 4.18682e-18
8244.14073 3.89659e-18
8245.83832 3.51959e-18
8247.53591 3.28753e-18
8249.23350 3.19855e-18
8250.93108 3.15056e-18
8252.62867 2.83907e-18
8254.32626 2.06765e-18
8256.02385 1.45150e-18
8257.72144 1.72408e-18
8259.41903 2.53049e-18
8261.11661 3.03746e-18
8262.81420 2.94095e-18
8264.51179 2.33536e-18
8266.20938 1.72252e-18
8267.91701 1.82815e-18
8269.60455 2.54694e-18
8271.30214 3.07092e-18
8273.00977 3.06235e-18
8274.70736 2.65890e-18
8276.40495 2.11768e-18
8278.10254 1.85304e-18
8279.80013 2.01539e-18
8281.49772 2.36559e-18
8283.19530 2.76284e-18
8284.89289 3.24901e-18
8286.59048 3.75395e-18
8288.28807 4.02705e-18
8289.98566 3.97339e-18
8291.68324 3.79525e-18
8293.38083 3.67685e-18
8295.07842 3.69080e-18
8296.77601 3.83950e-18
8298.47360 3.99682e-18
8300.17118 4.04080e-18
8301.86877 3.94372e-18
8303.56636 3.71692e-18
8305.26395 3.41505e-18
8306.96154 3.09384e-18
8308.65912 2.74929e-18
8310.35671 2.37436e-18
8312.05430 1.98004e-18
8313.75189 1.62120e-18
8315.44948 1.56219e-18
8317.14707 2.05766e-18
8318.84465 2.86185e-18
8320.54224 3.48722e-18
8322.23983 3.77201e-18
8323.93742 3.80478e-18
8325.63501 3.78286e-18
8327.33259 3.97243e-18
8329.03018 4.32907e-18
8330.72777 4.51747e-18
8332.42536 4.36985e-18
8334.12295 3.90154e-18
8335.82053 3.32614e-18
8337.51812 3.11002e-18
8339.21571 3.26956e-18
8340.91330 3.15973e-18
8342.61089 2.60666e-18
8344.30847 2.21327e-18
8346.00606 2.38857e-18
8347.70365 3.16528e-18
8349.40124 4.30815e-18
8351.09883 5.08927e-18
8352.79642 5.06660e-18
8354.50405 4.59642e-18
8356.20164 4.11611e-18
8357.89922 3.88426e-18
8359.59681 4.02408e-18
8361.29440 4.40141e-18
8362.99199 4.77967e-18
8364.68958 4.85496e-18
8366.38717 4.43679e-18
8368.08475 3.78751e-18
8369.78234 3.29403e-18
8371.47993 3.00602e-18
8373.17752 2.86180e-18
8374.87511 3.12092e-18
8376.57269 4.07102e-18
8378.27028 5.34207e-18
8379.96787 6.22181e-18
8381.66546 6.55352e-18
8383.36305 6.59104e-18
8385.06063 6.38728e-18
8386.75822 5.86699e-18
8388.45581 4.94434e-18
8390.15340 3.51082e-18
8391.85099 2.16620e-18
8393.54857 2.27736e-18
8395.24616 3.92203e-18
8396.94375 5.48761e-18
8398.64134 6.02158e-18
8400.33893 5.64453e-18
8402.03652 4.75353e-18
8403.73410 4.18977e-18
8405.43169 4.33309e-18
8407.12928 4.48543e-18
8408.82687 4.19147e-18
8410.52446 3.80557e-18
8412.22204 3.66233e-18
8413.91963 3.80891e-18
8415.61722 4.19346e-18
8417.31481 4.61182e-18
8419.01240 4.88099e-18
8420.70998 5.06062e-18
8422.40757 5.23546e-18
8424.10516 5.24081e-18
8425.80275 4.94681e-18
8427.50034 4.72885e-18
8429.19792 5.00834e-18
8430.89551 5.46537e-18
8432.59310 5.52681e-18
8434.29069 5.24988e-18
8435.99832 5.02969e-18
8437.69591 5.04844e-18
8439.39350 5.31703e-18
8441.09109 5.53374e-18
8442.77863 5.19005e-18
8444.48626 4.44304e-18
8446.18385 4.05493e-18
8447.88144 4.33228e-18
8449.57903 5.07672e-18
8451.27662 5.96213e-18
8452.97420 6.49719e-18
8454.67179 6.50412e-18
8456.36938 6.30744e-18
8458.06697 6.06183e-18
8459.76456 5.58982e-18
8461.46214 4.86335e-18
8463.15973 4.10103e-18
8464.85732 3.55973e-18
8466.55491 3.56436e-18
8468.25250 4.20203e-18
8469.95008 5.04583e-18
8471.64767 5.66037e-18
8473.34526 5.80520e-18
8475.04285 5.45885e-18
8476.74044 5.09536e-18
8478.43802 5.14692e-18
8480.13561 5.45503e-18
8481.83320 5.69631e-18
8483.53079 5.65060e-18
8485.22838 5.23654e-18
8486.92597 4.79774e-18
8488.62355 4.78853e-18
8490.32114 5.14841e-18
8492.01873 5.55966e-18
8493.71632 6.03188e-18
8495.41391 6.72668e-18
8497.11149 7.45612e-18
8498.80908 7.82399e-18
8500.50667 7.68382e-18
8502.20426 7.13096e-18
8503.90185 6.53016e-18
8505.59943 6.49194e-18
8507.29702 7.09307e-18
8508.99461 7.76050e-18
8510.69220 8.17725e-18
8512.38979 8.41460e-18
8514.08737 8.40274e-18
8515.78496 7.85645e-18
8517.49260 6.81205e-18
8519.19018 5.80389e-18
8520.87773 5.29165e-18
8522.58536 5.56968e-18
8524.27290 6.52762e-18
8525.98054 7.20186e-18
8527.67812 6.96428e-18
8529.37571 6.35311e-18
8531.07330 5.97695e-18
8532.77089 6.00681e-18
8534.46848 6.39348e-18
8536.16606 6.66523e-18
8537.86365 6.41873e-18
8539.56124 6.02329e-18
8541.25883 5.98366e-18
8542.95642 6.19021e-18
8544.65401 6.31590e-18
8546.35159 6.25063e-18
8548.04918 6.01447e-18
8549.74677 5.73877e-18
8551.44436 5.62062e-18
8553.14195 5.74797e-18
8554.83953 6.10136e-18
8556.53712 6.61390e-18
8558.23471 7.16978e-18
8559.93230 7.55234e-18
8561.62989 7.48690e-18
8563.32747 7.08442e-18
8565.02506 6.87281e-18
8566.72265 7.03898e-18
8568.42024 7.31897e-18
8570.11783 7.56775e-18
8571.81542 7.82088e-18
8573.51300 8.06068e-18
8575.21059 8.21538e-18
8576.90818 8.18468e-18
8578.60577 7.77702e-18
8580.30336 7.01543e-18
8582.00094 6.38635e-18
8583.69853 6.21632e-18
8585.39612 6.29689e-18
8587.09371 6.40556e-18
8588.79130 6.54423e-18
8590.48888 6.74702e-18
8592.18647 7.09387e-18
8593.88406 7.56984e-18
8595.58165 7.74245e-18
8597.27924 7.24560e-18
8598.97682 6.39876e-18
8600.67441 5.74414e-18
8602.37200 5.59852e-18
8604.07963 6.05699e-18
8605.76718 6.71378e-18
8607.47481 6.96609e-18
8609.17240 6.89673e-18
8610.86999 7.00753e-18
8612.56757 7.29578e-18
8614.26516 7.41547e-18
8615.96275 7.27460e-18
8617.66034 6.99692e-18
8619.35793 6.98937e-18
8621.05551 7.91181e-18
8622.75310 9.69797e-18
8624.45069 1.14416e-17
8626.14828 1.22598e-17
8627.84587 1.13387e-17
8629.54346 8.84764e-18
8631.24104 6.45247e-18
8632.93863 5.26892e-18
8634.63622 5.26418e-18
8636.33381 6.00732e-18
8638.03140 6.43537e-18
8639.72898 6.00652e-18
8641.42657 5.65179e-18
8643.12416 6.09111e-18
8644.82175 6.93185e-18
8646.51934 7.63128e-18
8648.21692 7.78923e-18
8649.91451 7.24763e-18
8651.61210 6.49256e-18
8653.30969 6.10055e-18
8655.00728 6.18380e-18
8656.70486 6.63316e-18
8658.40245 7.25698e-18
8660.10004 7.82168e-18
8661.79763 8.20471e-18
8663.49522 8.36125e-18
8665.19281 8.16842e-18
8666.89039 7.53129e-18
8668.58798 6.73926e-18
8670.28557 6.30785e-18
8671.98316 6.32886e-18
8673.68075 6.52884e-18
8675.37833 6.79432e-18
8677.07592 7.15392e-18
8678.77351 7.60413e-18
8680.47110 8.13025e-18
8682.16869 8.62876e-18
8683.86627 8.88922e-18
8685.56386 8.77348e-18
8687.26145 8.23954e-18
8688.96908 7.44350e-18
8690.66667 6.84056e-18
8692.36426 6.71294e-18
8694.06185 6.98469e-18
8695.75944 7.46311e-18
8697.45702 7.82270e-18
8699.15461 7.83617e-18
8700.85220 7.55306e-18
8702.54979 7.12990e-18
8704.24738 6.80779e-18
8705.94496 6.78434e-18
8707.64255 7.14056e-18
8709.34014 7.78849e-18
8711.03773 8.15917e-18
8712.73532 7.78349e-18
8714.43291 7.22836e-18
8716.13049 7.27356e-18
8717.82808 7.69012e-18
8719.52567 7.85873e-18
8721.22326 7.71330e-18
8722.92085 7.49603e-18
8724.61843 7.47689e-18
8726.31602 7.90017e-18
8728.01361 8.46580e-18
8729.71120 8.49106e-18
8731.40879 8.03293e-18
8733.10637 7.80210e-18
8734.80396 7.99576e-18
8736.50155 8.28244e-18
8738.19914 8.42672e-18
8739.89673 8.29024e-18
8741.59431 7.88340e-18
8743.29190 7.44491e-18
8744.98949 7.14299e-18
8746.68708 7.00793e-18
8748.38467 7.00022e-18
8750.08226 6.97622e-18
8751.77984 6.84052e-18
8753.47743 6.57479e-18
8755.17502 6.32560e-18
8756.87261 6.63071e-18
8758.57020 7.73151e-18
8760.26778 9.01539e-18
8761.96537 9.83551e-18
8763.66296 9.93209e-18
8765.36055 9.31477e-18
8767.05814 8.54143e-18
8768.75572 8.12589e-18
8770.45331 7.66516e-18
8772.16095 6.61873e-18
8773.85853 5.24762e-18
8775.55612 4.15705e-18
8777.25371 4.00270e-18
8778.95130 5.21684e-18
8780.64889 6.91661e-18
8782.34647 7.56565e-18
8784.04406 7.16358e-18
8785.74165 6.82200e-18
8787.43924 6.80486e-18
8789.13683 6.70032e-18
8790.83441 6.46529e-18
8792.53200 6.33612e-18
8794.22959 6.35526e-18
8795.92718 6.39172e-18
8797.62477 6.27335e-18
8799.32236 5.75478e-18
8801.01994 4.97193e-18
8802.71753 4.65050e-18
8804.41512 5.02151e-18
8806.11271 5.42094e-18
8807.81030 5.42246e-18
8809.50788 5.18163e-18
8811.20547 4.88938e-18
8812.90306 4.71238e-18
8814.60065 4.71510e-18
8816.29824 4.66890e-18
8817.99582 4.41706e-18
8819.69341 4.15114e-18
8821.39100 4.08968e-18
8823.08859 4.30338e-18
8824.78618 4.76354e-18
8826.48376 5.28603e-18
8828.18135 5.66057e-18
8829.87894 5.79175e-18
8831.57653 5.68307e-18
8833.27412 5.50999e-18
8834.97171 5.48940e-18
8836.66929 5.54986e-18
8838.36688 5.47513e-18
8840.06447 5.34283e-18
8841.76206 5.38990e-18
8843.45965 5.46801e-18
8845.15723 5.17577e-18
8846.85482 4.57466e-18
8848.55241 4.13757e-18
8850.25000 4.16424e-18
8851.94759 4.76049e-18
8853.65522 5.76259e-18
8855.34276 6.65347e-18
8857.05040 7.26971e-18
8858.74798 8.01404e-18
8860.44557 8.86712e-18
8862.14316 9.09491e-18
8863.84075 8.40905e-18
8865.53834 7.33361e-18
8867.23592 6.40343e-18
8868.93351 6.07028e-18
8870.63110 6.40644e-18
8872.32869 6.57194e-18
8874.02628 6.03833e-18
8875.72386 5.51315e-18
8877.42145 5.70094e-18
8879.11904 6.61301e-18
8880.81663 7.93946e-18
8882.51422 8.93179e-18
8884.21181 8.95381e-18
8885.90939 8.33485e-18
8887.60698 7.71437e-18
8889.30457 7.15903e-18
8891.00216 6.56253e-18
8892.69975 6.36988e-18
8894.39733 7.11344e-18
8896.09492 8.33296e-18
8897.79251 9.02060e-18
8899.49010 9.01747e-18
8901.18769 8.79967e-18
8902.88527 8.20876e-18
8904.58286 6.64731e-18
8906.28045 4.86109e-18
8907.97804 4.80728e-18
8909.67563 6.50347e-18
8911.37321 7.76314e-18
8913.07080 7.45068e-18
8914.76839 5.83594e-18
8916.46598 3.71086e-18
8918.16357 2.69898e-18
8919.86116 3.29923e-18
8921.55874 3.86128e-18
8923.25633 3.45779e-18
8924.95392 2.94285e-18
8926.65151 3.00893e-18
8928.34910 3.66006e-18
8930.04668 4.66595e-18
8931.74427 5.39559e-18
8933.44186 5.41671e-18
8935.14949 5.09861e-18
8936.83704 4.89631e-18
8938.53462 4.85874e-18
8940.24226 4.92682e-18
8941.93985 5.00978e-18
8943.63743 5.06936e-18
8945.33502 5.50128e-18
8947.03261 6.66472e-18
8948.73020 7.89603e-18
8950.42779 8.21168e-18
8952.12537 7.78861e-18
8953.82296 7.42898e-18
8955.52055 7.16706e-18
8957.21814 6.56840e-18
8958.91573 5.69327e-18
8960.61331 4.94988e-18
8962.31090 4.56074e-18
8964.00849 4.57354e-18
8965.70608 4.89200e-18
8967.40367 5.26346e-18
8969.10125 5.39106e-18
8970.79884 4.93348e-18
8972.49643 4.11020e-18
8974.19402 3.95682e-18
8975.89161 4.79426e-18
8977.58920 5.70023e-18
8979.28678 6.09044e-18
8980.98437 6.22423e-18
8982.68196 6.20475e-18
8984.37955 5.53169e-18
8986.07714 4.22262e-18
8987.77472 3.69783e-18
8989.47231 4.83943e-18
8991.16990 6.50640e-18
8992.86749 7.52774e-18
8994.56508 8.09714e-18
8996.26266 8.60069e-18
8997.96025 8.79584e-18
8999.65784 8.40031e-18
9001.35543 7.56481e-18
9003.05302 6.59543e-18
9004.75061 5.76875e-18
9006.44819 5.26785e-18
9008.14578 4.90469e-18
9009.84337 4.33407e-18
9011.54096 3.58239e-18
9013.23855 2.93980e-18
9014.93613 2.71266e-18
9016.63372 3.17466e-18
9018.33131 4.24570e-18
9020.02890 5.49784e-18
9021.72649 6.55566e-18
9023.43412 7.14687e-18
9025.13171 6.97567e-18
9026.82930 5.73496e-18
9028.52688 3.93971e-18
9030.22447 3.18069e-18
9031.92206 3.97153e-18
9033.61965 5.08613e-18
9035.31724 5.73529e-18
9037.01482 6.10314e-18
9038.71241 6.33738e-18
9040.41000 6.42190e-18
9042.10759 6.34095e-18
9043.80518 6.01476e-18
9045.50276 5.44669e-18
9047.20035 4.91627e-18
9048.89794 4.59314e-18
9050.59553 4.10587e-18
9052.29312 3.21406e-18
9053.99070 2.52605e-18
9055.68829 2.65044e-18
9057.38588 3.37731e-18
9059.08347 4.18514e-18
9060.78106 4.61057e-18
9062.47865 4.34861e-18
9064.17623 3.49039e-18
9065.87382 2.44069e-18
9067.57141 2.10952e-18
9069.26900 3.41073e-18
9070.96659 5.35635e-18
9072.66417 5.78009e-18
9074.36176 4.62831e-18
9076.05935 3.59205e-18
9077.75694 3.37486e-18
9079.45453 3.74826e-18
9081.15211 4.46454e-18
9082.84970 5.17871e-18
9084.54729 5.42010e-18
9086.24488 4.61819e-18
9087.94247 3.06817e-18
9089.64005 2.30398e-18
9091.33764 3.05032e-18
9093.03523 4.62899e-18
9094.73282 6.24116e-18
9096.43041 7.03517e-18
9098.12800 6.71719e-18
9099.82558 6.20808e-18
9101.52317 6.27757e-18
9103.22076 6.91015e-18
9104.92839 7.81957e-18
9106.62598 8.37137e-18
9108.32357 8.12427e-18
9110.01111 7.49175e-18
9111.71875 7.00611e-18
9113.41633 6.72584e-18
9115.11392 6.52938e-18
9116.81151 6.18443e-18
9118.50910 5.52131e-18
9120.20669 4.90278e-18
9121.90427 4.83743e-18
9123.60186 5.27000e-18
9125.29945 5.80736e-18
9126.99704 6.01824e-18
9128.69463 5.54384e-18
9130.39221 4.85757e-18
9132.08980 5.01351e-18
9133.78739 5.84269e-18
9135.48498 6.10244e-18
9137.18257 5.72900e-18
9138.88015 5.85049e-18
9140.57774 6.61691e-18
9142.27533 7.04902e-18
9143.97292 6.83528e-18
9145.67051 6.54045e-18
9147.36810 6.56297e-18
9149.06568 7.07616e-18
9150.76327 7.85399e-18
9152.46086 7.92441e-18
9154.15845 6.86341e-18
9155.85604 5.54523e-18
9157.55362 4.56884e-18
9159.25121 3.36875e-18
9160.94880 1.76183e-18
9162.64639 1.04939e-18
9164.34398 2.09926e-18
9166.04156 3.93872e-18
9167.73915 5.28909e-18
9169.43674 5.29790e-18
9171.13433 3.75392e-18
9172.83192 2.17352e-18
9174.52950 2.23628e-18
9176.22709 3.48559e-18
9177.92468 4.59571e-18
9179.62227 4.99967e-18
9181.31986 4.66383e-18
9183.01745 4.29219e-18
9184.71503 4.93196e-18
9186.42267 6.30064e-18
9188.11021 7.17524e-18
9189.81784 7.13882e-18
9191.50539 6.47965e-18
9193.21302 5.87757e-18
9194.91061 6.39481e-18
9196.60820 7.79215e-18
9198.30578 8.33006e-18
9200.00337 7.52513e-18
9201.70096 6.53715e-18
9203.39855 6.10756e-18
9205.09614 6.37169e-18
9206.79372 7.03568e-18
9208.49131 7.02658e-18
9210.18890 5.97075e-18
9211.88649 5.00601e-18
9213.58408 4.88663e-18
9215.28166 5.10889e-18
9216.97925 5.30540e-18
9218.67684 6.01919e-18
9220.37443 7.40767e-18
9222.07202 8.17971e-18
9223.76960 7.32951e-18
9225.46719 5.53413e-18
9227.16478 3.88676e-18
9228.86237 3.21593e-18
9230.55996 3.90422e-18
9232.25755 5.02739e-18
9233.95513 5.38622e-18
9235.65272 5.21671e-18
9237.35031 5.40316e-18
9239.04790 6.26336e-18
9240.74549 7.70587e-18
9242.44307 9.22683e-18
9244.14066 1.00515e-17
9245.83825 9.88037e-18
9247.53584 8.88013e-18
9249.23343 7.39146e-18
9250.93101 5.92509e-18
9252.62860 4.87245e-18
9254.32619 4.41749e-18
9256.02378 4.63921e-18
9257.72137 5.50774e-18
9259.41895 6.55333e-18
9261.11654 6.73015e-18
9262.81413 5.78418e-18
9264.51172 4.74065e-18
9266.20931 4.30903e-18
9267.91694 4.50945e-18
9269.60448 5.06467e-18
9271.31212 5.14052e-18
9272.99966 4.38008e-18
9274.70729 3.74536e-18
9276.40488 3.96796e-18
9278.10247 4.65417e-18
9279.80006 5.23606e-18
9281.49764 5.25598e-18
9283.19523 4.57357e-18
9284.89282 4.05292e-18
9286.59041 4.52657e-18
9288.28800 5.37165e-18
9289.98559 5.65659e-18
9291.68317 5.81387e-18
9293.38076 6.62931e-18
9295.07835 7.30088e-18
9296.77594 6.54818e-18
9298.47353 5.45368e-18
9300.17111 6.23465e-18
9301.86870 8.16926e-18
9303.56629 8.56613e-18
9305.26388 7.23215e-18
9306.96147 6.04008e-18
9308.65905 5.69057e-18
9310.35664 5.82009e-18
9312.05423 5.92936e-18
9313.75182 5.22112e-18
9315.44941 4.19996e-18
9317.14700 5.17086e-18
9318.84458 8.40550e-18
9320.54217 1.11500e-17
9322.23976 1.14558e-17
9323.93735 8.85578e-18
9325.63494 4.13259e-18
9327.33252 2.95131e-19
9329.03011 -9.07053e-19
9330.72770 -1.19925e-18
9332.42529 -2.01758e-18
9334.12288 -2.74354e-18
9335.82046 -2.56360e-18
9337.51805 -1.00529e-18
9339.21564 1.96574e-18
9340.91323 5.38388e-18
9342.61082 8.10836e-18
9344.30840 9.58610e-18
9346.00599 9.66496e-18
9347.70358 8.48451e-18
9349.41121 6.51386e-18
9351.09876 4.80898e-18
9352.80639 4.43265e-18
9354.49393 5.23913e-18
9356.20157 6.29220e-18
9357.89915 6.82041e-18
9359.59674 6.28543e-18
9361.29433 4.95306e-18
9362.99192 3.78316e-18
9364.68951 2.95177e-18
9366.38709 1.89685e-18
9368.08468 7.89238e-19
9369.78227 4.97880e-19
9371.47986 1.42836e-18
9373.17745 3.50330e-18
9374.87504 5.77709e-18
9376.57262 6.03333e-18
9378.27021 3.94677e-18
9379.96780 2.33270e-18
9381.66539 2.83099e-18
9383.36298 4.60060e-18
9385.06056 6.54766e-18
9386.75815 7.41702e-18
9388.45574 6.79688e-18
9390.15333 6.51668e-18
9391.85092 7.79575e-18
9393.54850 9.07207e-18
9395.24609 8.93313e-18
9396.94368 8.19882e-18
9398.64127 7.94849e-18
9400.33886 8.26303e-18
9402.03644 8.77485e-18
9403.73403 8.55734e-18
9405.43162 6.86298e-18
9407.12921 4.51231e-18
9408.82680 2.97994e-18
9410.52439 3.12767e-18
9412.22197 5.14929e-18
9413.91956 7.95006e-18
9415.61715 9.66787e-18
9417.31474 9.45984e-18
9419.01233 7.48080e-18
9420.70991 4.91562e-18
9422.40750 3.79886e-18
9424.10509 4.15284e-18
9425.80268 3.87324e-18
9427.50027 2.70939e-18
9429.19785 2.58776e-18
9430.89544 3.83169e-18
9432.59303 4.64368e-18
9434.29062 4.48310e-18
9435.98821 4.77064e-18
9437.69584 6.12073e-18
9439.39343 7.71129e-18
9441.09102 8.71537e-18
9442.78860 8.38081e-18
9444.48619 6.67461e-18
9446.18378 5.10904e-18
9447.88137 4.82485e-18
9449.57896 5.46632e-18
9451.27654 6.33703e-18
9452.97413 6.71549e-18
9454.67172 6.17835e-18
9456.36931 5.15150e-18
9458.06690 4.34742e-18
9459.76449 4.53537e-18
9461.46207 6.09372e-18
9463.15966 7.91076e-18
9464.85725 8.52096e-18
9466.55484 8.05501e-18
9468.25243 7.43618e-18
9469.95001 6.96809e-18
9471.64760 6.57160e-18
9473.34519 6.00919e-18
9475.04278 4.94991e-18
9476.74037 3.49243e-18
9478.43795 2.12542e-18
9480.13554 1.82134e-18
9481.83313 3.90038e-18
9483.53072 7.53716e-18
9485.22831 9.57753e-18
9486.92589 9.05626e-18
9488.62348 7.84347e-18
9490.32107 7.03655e-18
9492.01866 6.56680e-18
9493.71625 6.26292e-18
9495.41384 5.65965e-18
9497.11142 4.77101e-18
9498.80901 4.69742e-18
9500.50660 5.85893e-18
9502.20419 7.00562e-18
9503.90178 7.26813e-18
9505.59936 7.30902e-18
9507.29695 7.63092e-18
9508.99454 7.52534e-18
9510.69213 6.43088e-18
9512.38972 4.96878e-18
9514.08730 3.87427e-18
9515.78489 2.93863e-18
9517.48248 1.92376e-18
9519.19011 1.95975e-18
9520.88770 4.07989e-18
9522.58529 6.66613e-18
9524.28288 7.32847e-18
9525.98047 6.33104e-18
9527.67805 5.40485e-18
9529.37564 5.38959e-18
9531.07323 6.43933e-18
9532.77082 7.93906e-18
9534.46841 8.64352e-18
9536.16599 8.25045e-18
9537.86358 7.37792e-18
9539.56117 6.55809e-18
9541.25876 6.24307e-18
9542.95635 6.38126e-18
9544.65394 6.27346e-18
9546.35152 5.57628e-18
9548.04911 4.46571e-18
9549.74670 3.26984e-18
9551.44429 2.46347e-18
9553.14188 2.50414e-18
9554.83946 3.95589e-18
9556.53705 6.40502e-18
9558.23464 7.36239e-18
9559.93223 5.76088e-18
9561.62982 4.35962e-18
9563.32740 5.13172e-18
9565.02499 6.49855e-18
9566.72258 6.77759e-18
9568.42017 5.98005e-18
9570.11776 4.67899e-18
9571.81534 3.80316e-18
9573.51293 4.16969e-18
9575.21052 5.78164e-18
9576.90811 8.13335e-18
9578.60570 1.03642e-17
9580.30329 1.15789e-17
9582.00087 1.14538e-17
9583.69846 1.01491e-17
9585.39605 8.14531e-18
9587.09364 6.13622e-18
9588.79123 4.74744e-18
9590.48881 4.41034e-18
9592.18640 4.77838e-18
9593.88399 4.86567e-18
9595.58158 4.82028e-18
9597.27917 5.88314e-18
9598.97675 7.75928e-18
9600.67434 8.48994e-18
9602.38198 7.65250e-18
9604.07956 6.77479e-18
9605.76711 6.61836e-18
9607.47474 6.79387e-18
9609.17233 6.91151e-18
9610.86992 6.59076e-18
9612.56750 5.74454e-18
9614.26509 4.84946e-18
9615.96268 4.35753e-18
9617.66027 4.57013e-18
9619.35786 5.43269e-18
9621.05544 6.19128e-18
9622.75303 6.18841e-18
9624.45062 5.25349e-18
9626.14821 3.68303e-18
9627.84580 2.70064e-18
9629.54339 3.33498e-18
9631.24097 5.18033e-18
9632.93856 7.27503e-18
9634.63615 8.78120e-18
9636.33374 9.11301e-18
9638.03133 8.40964e-18
9639.72891 7.26040e-18
9641.42650 6.21597e-18
9643.12409 5.70706e-18
9644.82168 5.65449e-18
9646.51927 5.62154e-18
9648.21685 5.60624e-18
9649.91444 5.92072e-18
9651.61203 6.77341e-18
9653.30962 8.28556e-18
9655.00721 9.46349e-18
9656.70479 8.19417e-18
9658.40238 5.03438e-18
9660.09997 3.71239e-18
9661.79756 5.75614e-18
9663.49515 9.64902e-18
9665.19274 1.34992e-17
9666.89032 1.49517e-17
9668.58791 1.32735e-17
9670.28550 1.07351e-17
9671.98309 9.14121e-18
9673.68068 8.68553e-18
9675.37826 9.02156e-18
9677.07585 9.10917e-18
9678.77344 8.10757e-18
9680.47103 5.95430e-18
9682.16862 3.15086e-18
9683.86620 1.19001e-18
9685.56379 1.20573e-18
9687.26138 2.51347e-18
9688.96901 3.86781e-18
9690.66660 4.30263e-18
9692.36419 3.35602e-18
9694.06178 2.09682e-18
9695.75937 2.00378e-18
9697.45695 2.76005e-18
9699.15454 3.14948e-18
9700.85213 2.83518e-18
9702.54972 2.07795e-18
9704.24731 1.44783e-18
9705.94489 1.71268e-18
9707.64248 2.74440e-18
9709.34007 3.62275e-18
9711.03766 3.92015e-18
9712.73525 3.70881e-18
9714.43283 3.34580e-18
9716.13042 3.54202e-18
9717.82801 4.35202e-18
9719.52560 4.95278e-18
9721.22319 4.85239e-18
9722.92078 4.04183e-18
9724.61836 2.92779e-18
9726.31595 2.61274e-18
9728.01354 3.53414e-18
9729.71113 4.77337e-18
9731.40872 5.54576e-18
9733.10630 5.66967e-18
9734.80389 5.28236e-18
9736.50148 5.08242e-18
9738.19907 5.53951e-18
9739.89666 6.25909e-18
9741.59424 6.65590e-18
9743.29183 6.07132e-18
9744.98942 4.30852e-18
9746.68701 2.87483e-18
9748.38460 3.24389e-18
9750.08219 4.35531e-18
9751.77977 4.40172e-18
9753.47736 3.18806e-18
9755.17495 1.48706e-18
9756.87254 7.41413e-19
9758.57013 2.42166e-18
9760.26771 5.44100e-18
9761.96530 7.03999e-18
9763.66289 6.29946e-18
9765.36048 3.93572e-18
9767.05807 1.50660e-18
9768.75565 1.33252e-18
9770.45324 3.44797e-18
9772.16088 5.31401e-18
9773.85846 5.95636e-18
9775.55605 6.36661e-18
9777.25364 7.12059e-18
9778.95123 8.27464e-18
9780.64882 9.62349e-18
9782.34640 1.05229e-17
9784.04399 1.04755e-17
9785.74158 9.25665e-18
9787.43917 7.13326e-18
9789.13676 5.29264e-18
9790.83434 4.45835e-18
9792.53193 4.00652e-18
9794.22952 3.30787e-18
9795.92711 2.28263e-18
9797.62470 1.15408e-18
9799.32228 8.30049e-19
9801.01987 1.87466e-18
9802.71746 3.02656e-18
9804.41505 2.96694e-18
9806.11264 2.49697e-18
9807.81023 2.92657e-18
9809.50781 4.14575e-18
9811.20540 5.35145e-18
9812.90299 5.60325e-18
9814.60058 4.16459e-18
9816.29817 2.02233e-18
9817.99575 1.14928e-18
9819.69334 1.73319e-18
9821.39093 2.58558e-18
9823.08852 3.32648e-18
9824.78611 4.21502e-18
9826.48369 4.93348e-18
9828.18128 4.71468e-18
9829.87887 3.82901e-18
9831.57646 3.67890e-18
9833.27405 4.80001e-18
9834.97163 6.59530e-18
9836.66922 8.24613e-18
9838.36681 8.62697e-18
9840.06440 7.46037e-18
9841.76199 5.96472e-18
9843.45958 5.04819e-18
9845.15716 4.72446e-18
9846.85475 4.81359e-18
9848.55234 4.93325e-18
9850.24993 4.81099e-18
9851.94752 4.66352e-18
9853.65515 4.63691e-18
9855.34269 4.29958e-18
9857.05033 3.37522e-18
9858.74791 2.55256e-18
9860.44550 2.48777e-18
9862.14309 2.49316e-18
9863.84068 1.81125e-18
9865.53827 1.66199e-18
9867.23585 3.52811e-18
9868.93344 5.86007e-18
9870.63103 6.14637e-18
9872.32862 5.76455e-18
9874.02621 7.87626e-18
9875.72379 1.14824e-17
9877.42138 1.29055e-17
9879.11897 1.05167e-17
9880.81656 4.55670e-18
9882.51415 -2.15173e-18
9884.21173 -4.43071e-18
9885.90932 -1.67728e-18
9887.60691 1.57957e-18
9889.30450 2.75284e-18
9891.00209 1.69806e-18
9892.69968 -4.06007e-19
9894.39726 -2.90690e-19
9896.09485 2.90058e-18
9897.79244 5.87353e-18
9899.49003 6.32216e-18
9901.18762 4.12642e-18
9902.88520 2.78459e-19
9904.58279 -2.33641e-18
9906.28038 -2.00891e-18
9907.97797 -4.74188e-19
9909.67556 5.09068e-19
9911.37314 9.38156e-19
9913.07073 1.21298e-18
9914.76832 1.77561e-18
9916.46591 2.92356e-18
9918.16350 4.35803e-18
9919.86108 5.55807e-18
9921.55867 6.05125e-18
9923.25626 5.57980e-18
9924.95385 4.50093e-18
9926.65144 3.47541e-18
9928.34903 3.08738e-18
9930.04661 3.66304e-18
9931.74420 4.38151e-18
9933.44179 3.83016e-18
9935.14942 2.38164e-18
9936.83697 1.72020e-18
9938.54460 2.09933e-18
9940.23214 2.53676e-18
9941.93978 2.50200e-18
9943.63736 1.85815e-18
9945.33495 9.44493e-19
9947.03254 7.60012e-19
9948.73013 1.18585e-18
9950.42772 5.14614e-19
9952.12530 -1.54272e-18
9953.82289 -3.06257e-18
9955.52048 -2.87361e-18
9957.21807 -1.29798e-18
9958.91566 1.16730e-18
9960.61324 3.94733e-18
9962.31083 6.56005e-18
9964.00842 9.03810e-18
9965.70601 1.11290e-17
9967.40360 1.15555e-17
9969.10118 9.59586e-18
9970.79877 6.24227e-18
9972.49636 2.97245e-18
9974.19395 1.28165e-18
9975.89154 2.01845e-18
9977.58913 4.13423e-18
9979.28671 5.93782e-18
9980.98430 6.59806e-18
9982.68189 5.88116e-18
9984.37948 3.97397e-18
9986.07707 1.48698e-18
9987.77465 -6.65147e-19
9989.47224 -1.55322e-18
9991.16983 -7.61818e-19
9992.86742 1.53720e-18
9994.56501 3.81684e-18
9996.26259 3.63898e-18
9997.96018 1.64319e-18
9999.65777 1.39694e-18
