# wavelength flux
3485.00480 1.46503e-17
3486.47202 2.46130e-17
3487.93924 1.60349e-17
3489.40645 2.20135e-17
3490.88386 1.95133e-17
3492.35107 1.56131e-17
3493.81829 1.85254e-17
3495.28550 1.76929e-17
3496.76291 1.55483e-17
3498.23013 1.92444e-17
3499.69734 1.76521e-17
3501.17475 1.80281e-17
3502.64196 1.67930e-17
3504.10918 1.89977e-17
3505.57640 1.95702e-17
3507.05380 1.99176e-17
3508.52102 2.06489e-17
3509.98823 2.46439e-17
3511.45545 2.03267e-17
3512.93285 1.90756e-17
3514.40007 2.84110e-17
3515.86728 2.89029e-17
3517.34469 2.52552e-17
3518.81191 2.67496e-17
3520.27912 2.20637e-17
3521.74634 2.71209e-17
3523.22374 3.35587e-17
3524.69096 2.51197e-17
3526.15817 2.54807e-17
3527.62539 2.86174e-17
3529.10280 2.50994e-17
3530.57001 2.57777e-17
3532.03723 2.33869e-17
3533.51463 1.80499e-17
3534.98185 2.32371e-17
3536.44906 2.65268e-17
3537.91628 2.23797e-17
3539.39369 2.36816e-17
3540.86090 3.13807e-17
3542.32812 2.85211e-17
3543.79533 2.08540e-17
3545.27274 1.76795e-17
3546.73995 2.09905e-17
3548.20717 1.95676e-17
3549.68458 2.40502e-17
3551.15179 2.46922e-17
3552.61901 2.40058e-17
3554.08622 1.98644e-17
3555.56363 2.40731e-17
3557.03084 2.30634e-17
3558.49806 1.48207e-17
3559.96528 1.55906e-17
3561.44268 2.30857e-17
3562.90990 1.33591e-17
3564.37711 1.28710e-17
3565.85452 2.18437e-17
3567.32173 1.94736e-17
3568.78895 1.83393e-17
3570.25617 1.86842e-17
3571.73357 1.96576e-17
3573.20079 1.71117e-17
3574.66800 2.14084e-17
3576.13522 1.83825e-17
3577.61262 1.95301e-17
3579.07984 1.60114e-17
3580.54706 1.97983e-17
3582.02446 1.73160e-17
3583.49168 1.72748e-17
3584.95889 1.80372e-17
3586.42611 1.97216e-17
3587.90351 1.91916e-17
3589.37073 1.74082e-17
3590.83795 1.73785e-17
3592.30516 1.96753e-17
3593.78257 2.10801e-17
3595.24978 1.86305e-17
3596.71700 1.86974e-17
3598.19440 2.10378e-17
3599.66162 1.89567e-17
3601.12884 1.72370e-17
3602.59605 1.74511e-17
3604.07346 2.01257e-17
3605.54067 1.96002e-17
3607.00789 2.02026e-17
3608.47511 1.97873e-17
3609.95251 1.73240e-17
3611.41973 1.75800e-17
3612.88694 1.47579e-17
3614.36435 1.54689e-17
3615.83156 2.00295e-17
3617.29878 1.35886e-17
3618.76600 1.77593e-17
3620.24340 2.38660e-17
3621.71062 1.98123e-17
3623.17783 1.91623e-17
3624.64505 2.20673e-17
3626.12245 2.16912e-17
3627.58967 1.78161e-17
3629.05689 1.62716e-17
3630.53429 1.64694e-17
3632.00151 1.94909e-17
3633.46872 1.45451e-17
3634.93594 1.98842e-17
3636.41334 1.95564e-17
3637.88056 1.72465e-17
3639.34778 1.34010e-17
3640.81499 1.17592e-17
3642.29240 1.88622e-17
3643.75961 1.85117e-17
3645.22683 1.21703e-17
3646.70423 1.33167e-17
3648.17145 1.79631e-17
3649.63867 1.33893e-17
3651.10588 1.78230e-17
3652.58329 2.26832e-17
3654.05050 1.67617e-17
3655.51772 1.62623e-17
3656.98493 1.79829e-17
3658.46234 1.55782e-17
3659.92956 1.92532e-17
3661.39677 2.12409e-17
3662.87418 1.52388e-17
3664.34139 1.62595e-17
3665.80861 1.60267e-17
3667.27582 1.31714e-17
3668.75323 1.47111e-17
3670.22045 2.09322e-17
3671.68766 2.18990e-17
3673.15488 1.78585e-17
3674.63228 1.99591e-17
3676.09950 1.92688e-17
3677.56671 1.74793e-17
3679.04412 1.85730e-17
3680.51134 1.63199e-17
3681.97855 1.63440e-17
3683.44577 1.64563e-17
3684.92317 1.56562e-17
3686.39039 1.67683e-17
3687.85760 1.58630e-17
3689.33501 1.53306e-17
3690.80223 1.83175e-17
3692.26944 1.82224e-17
3693.73666 1.68078e-17
3695.21406 1.57434e-17
3696.68128 1.59537e-17
3698.14849 1.95478e-17
3699.61571 1.83576e-17
3701.09312 2.01800e-17
3702.56033 1.72014e-17
3704.02755 1.63527e-17
3705.49476 1.69788e-17
3706.97217 1.96903e-17
3708.43938 1.83962e-17
3709.90660 1.50423e-17
3711.38401 1.82409e-17
3712.85122 1.69715e-17
3714.31844 1.81559e-17
3715.78565 1.80532e-17
3717.26306 1.61446e-17
3718.73027 1.94307e-17
3720.19749 1.47955e-17
3721.67490 1.53484e-17
3723.14211 1.74084e-17
3724.60933 2.12738e-17
3726.07654 1.69041e-17
3727.55395 1.70201e-17
3729.02116 2.17265e-17
3730.48838 1.89127e-17
3731.95560 1.80998e-17
3733.43300 1.71756e-17
3734.90022 1.88441e-17
3736.36743 1.83522e-17
3737.84484 1.97333e-17
3739.31205 1.88962e-17
3740.77927 1.85890e-17
3742.24649 2.03710e-17
3743.72389 2.11565e-17
3745.19111 2.09838e-17
3746.65832 2.13676e-17
3748.12554 2.02120e-17
3749.60295 2.10296e-17
3751.07016 2.03068e-17
3752.53738 2.05688e-17
3754.01478 1.89569e-17
3755.48200 1.96125e-17
3756.94921 2.12943e-17
3758.41643 2.20497e-17
3759.89383 2.33486e-17
3761.36105 2.06732e-17
3762.82827 2.02531e-17
3764.29548 2.08890e-17
3765.77289 2.16744e-17
3767.24010 2.11188e-17
3768.70732 2.15830e-17
3770.18472 2.15695e-17
3771.65194 2.39046e-17
3773.11916 2.31538e-17
3774.58637 2.32228e-17
3776.06378 2.38961e-17
3777.53099 2.25919e-17
3778.99821 2.07213e-17
3780.46543 2.12753e-17
3781.94283 1.98147e-17
3783.41005 2.04693e-17
3784.87726 1.92799e-17
3786.35467 1.74043e-17
3787.82188 1.76996e-17
3789.28910 2.11499e-17
3790.75632 2.36905e-17
3792.23372 1.64015e-17
3793.70094 1.62552e-17
3795.16815 1.70406e-17
3796.63537 1.61914e-17
3798.11277 1.30295e-17
3799.57999 1.43653e-17
3801.04721 1.23821e-17
3802.52461 1.27232e-17
3803.99183 9.73245e-18
3805.45904 1.10194e-17
3806.92626 1.37004e-17
3808.40366 1.23883e-17
3809.87088 1.16482e-17
3811.33810 9.43313e-18
3812.80531 1.04598e-17
3814.28272 8.18782e-18
3815.74993 7.98921e-18
3817.21715 8.72091e-18
3818.69455 1.03297e-17
3820.16177 1.18516e-17
3821.62899 7.51961e-18
3823.09620 9.73621e-18
3824.57361 1.01035e-17
3826.04082 5.43735e-18
3827.50804 2.52227e-18
3828.97525 5.96642e-18
3830.45266 8.70660e-18
3831.91988 9.12044e-18
3833.38709 9.09316e-18
3834.86450 4.59633e-18
3836.33171 6.75275e-18
3837.79893 5.32292e-18
3839.26615 5.24116e-18
3840.74355 7.13599e-18
3842.21077 5.56381e-18
3843.67798 6.12080e-18
3845.14520 8.30848e-18
3846.62260 8.43602e-18
3848.08982 7.78576e-18
3849.55703 6.70341e-18
3851.03444 4.60090e-18
3852.50166 6.95202e-18
3853.96887 7.85525e-18
3855.43609 6.39087e-18
3856.91349 5.12800e-18
3858.38071 4.35026e-18
3859.84792 4.92598e-18
3861.31514 5.94320e-18
3862.79255 5.90248e-18
3864.25976 5.73738e-18
3865.72698 5.99956e-18
3867.20438 6.84761e-18
3868.67160 6.51025e-18
3870.13881 5.79104e-18
3871.60603 6.57832e-18
3873.08344 5.71285e-18
3874.55065 5.40722e-18
3876.01787 5.45722e-18
3877.48508 6.86128e-18
3878.96249 7.56111e-18
3880.42970 5.24497e-18
3881.89692 5.13443e-18
3883.37433 7.02578e-18
3884.84154 4.42985e-18
3886.30876 5.56024e-18
3887.77597 6.59955e-18
3889.25338 3.95372e-18
3890.72059 4.79919e-18
3892.18781 6.71035e-18
3893.65503 6.74337e-18
3895.13243 6.68152e-18
3896.59965 7.21581e-18
3898.06686 6.64105e-18
3899.54427 9.00000e-18
3901.01148 7.66201e-18
3902.47870 6.25038e-18
3903.94592 7.50573e-18
3905.42332 7.02976e-18
3906.89054 6.79538e-18
3908.35775 7.47761e-18
3909.82497 1.08767e-17
3911.30237 1.04897e-17
3912.76959 7.82245e-18
3914.23681 1.03823e-17
3915.71421 7.50906e-18
3917.18143 6.26323e-18
3918.64864 8.55942e-18
3920.11586 1.01010e-17
3921.59326 7.31285e-18
3923.06048 8.33492e-18
3924.52770 9.07583e-18
3925.99491 1.00713e-17
3927.47232 1.15242e-17
3928.93953 1.14493e-17
3930.40675 9.45269e-18
3931.88415 9.17633e-18
3933.35137 1.02735e-17
3934.81859 1.30961e-17
3936.28580 1.27754e-17
3937.76321 1.42383e-17
3939.23042 1.31051e-17
3940.69764 1.36550e-17
3942.16486 1.39997e-17
3943.64226 1.40721e-17
3945.10948 1.35929e-17
3946.57669 1.46143e-17
3948.05410 1.42608e-17
3949.52131 1.61972e-17
3950.98853 1.57379e-17
3952.45575 1.71465e-17
3953.93315 1.62233e-17
3955.40037 1.58484e-17
3956.86758 1.67113e-17
3958.34499 1.94258e-17
3959.81220 2.00367e-17
3961.27942 1.77486e-17
3962.74664 2.08363e-17
3964.22404 2.20230e-17
3965.69126 2.09612e-17
3967.15847 1.98125e-17
3968.62569 1.93561e-17
3970.10309 2.12365e-17
3971.57031 2.30190e-17
3973.03753 2.32081e-17
3974.50474 2.39290e-17
3975.98215 2.36293e-17
3977.44936 2.25940e-17
3978.91658 2.33591e-17
3980.39398 2.54782e-17
3981.86120 2.56334e-17
3983.32842 2.58791e-17
3984.79563 2.71094e-17
3986.27304 2.86582e-17
3987.74025 2.92210e-17
3989.20747 2.67161e-17
3990.68487 2.58878e-17
3992.15209 2.85528e-17
3993.61931 2.91934e-17
3995.08652 2.62085e-17
3996.56393 2.60901e-17
3998.03114 2.82499e-17
3999.49836 2.98345e-17
4000.96557 2.85619e-17
4002.44298 2.86267e-17
4003.91020 2.79467e-17
4005.37741 2.61168e-17
4006.85482 2.95909e-17
4008.32203 3.17127e-17
4009.78925 2.95331e-17
4011.25646 2.76978e-17
4012.73387 2.76490e-17
4014.20109 2.84459e-17
4015.66830 3.10758e-17
4017.13552 3.22266e-17
4018.61292 2.95836e-17
4020.08014 2.74414e-17
4021.54735 3.04833e-17
4023.02476 3.09022e-17
4024.49198 2.92846e-17
4025.95919 2.80468e-17
4027.42641 2.51209e-17
4028.90381 2.72696e-17
4030.37103 3.03963e-17
4031.83824 2.96272e-17
4033.30546 2.81764e-17
4034.78287 2.88091e-17
4036.25008 2.87443e-17
4037.71730 2.73738e-17
4039.19470 2.73548e-17
4040.66192 2.77932e-17
4042.12913 3.01277e-17
4043.59635 2.84267e-17
4045.07376 3.01436e-17
4046.54097 2.94827e-17
4048.00819 2.83022e-17
4049.47540 2.90101e-17
4050.95281 3.19291e-17
4052.42002 2.98158e-17
4053.88724 3.02137e-17
4055.36465 2.97558e-17
4056.83186 2.95131e-17
4058.29908 2.95234e-17
4059.76629 3.03659e-17
4061.24370 2.89328e-17
4062.71091 2.91909e-17
4064.17813 3.16845e-17
4065.64535 3.08489e-17
4067.12275 2.98020e-17
4068.58997 2.79293e-17
4070.05718 2.93291e-17
4071.53459 2.90922e-17
4073.00180 2.79711e-17
4074.46902 2.94710e-17
4075.93624 3.01465e-17
4077.41364 2.86326e-17
4078.88086 2.86399e-17
4080.34807 2.86528e-17
4081.81529 2.90218e-17
4083.29269 2.70987e-17
4084.75991 2.80813e-17
4086.22713 2.85167e-17
4087.70453 2.79402e-17
4089.17175 2.82308e-17
4090.63896 3.01517e-17
4092.10618 2.89365e-17
4093.58358 2.88562e-17
4095.05080 2.77594e-17
4096.51802 2.63213e-17
4097.98523 2.85928e-17
4099.46264 2.89836e-17
4100.92985 2.71210e-17
4102.39707 2.46182e-17
4103.87447 2.39953e-17
4105.34169 2.72896e-17
4106.80891 2.56258e-17
4108.27612 2.68879e-17
4109.75353 2.93600e-17
4111.22074 2.73503e-17
4112.68796 2.52585e-17
4114.15518 2.47687e-17
4115.63258 2.65397e-17
4117.09980 2.54788e-17
4118.56701 2.50279e-17
4120.04442 2.40649e-17
4121.51163 2.41288e-17
4122.97885 2.60226e-17
4124.44607 2.44639e-17
4125.92347 2.01863e-17
4127.39069 2.09982e-17
4128.85790 2.15465e-17
4130.32512 2.26393e-17
4131.80252 2.24464e-17
4133.26974 2.11253e-17
4134.73696 2.10966e-17
4136.21436 2.01666e-17
4137.68158 1.98325e-17
4139.14879 1.95194e-17
4140.61601 2.03951e-17
4142.09341 2.08069e-17
4143.56063 2.00463e-17
4145.02785 1.86510e-17
4146.49506 1.89213e-17
4147.97247 1.89153e-17
4149.43968 1.89590e-17
4150.90690 1.80983e-17
4152.38430 1.91455e-17
4153.85152 2.00174e-17
4155.31874 1.89697e-17
4156.78595 1.96424e-17
4158.26336 2.04492e-17
4159.73057 1.96180e-17
4161.19779 1.82251e-17
4162.66500 1.82750e-17
4164.14241 1.85067e-17
4165.60963 1.95417e-17
4167.07684 1.92358e-17
4168.55425 1.98875e-17
4170.02146 1.95041e-17
4171.48868 1.79603e-17
4172.95590 1.75389e-17
4174.43330 1.78182e-17
4175.90052 1.92616e-17
4177.36773 1.98183e-17
4178.83495 1.90932e-17
4180.31235 1.75846e-17
4181.77957 1.64770e-17
4183.24678 1.73914e-17
4184.72419 1.76595e-17
4186.19141 1.79817e-17
4187.65862 1.76579e-17
4189.12584 1.65796e-17
4190.60324 1.75501e-17
4192.07046 1.82057e-17
4193.53767 1.76360e-17
4195.00489 1.69148e-17
4196.48230 1.65653e-17
4197.94951 1.72101e-17
4199.41673 1.46091e-17
4200.89413 1.51155e-17
4202.36135 1.73822e-17
4203.82856 1.58176e-17
4205.29578 1.57927e-17
4206.77319 1.50128e-17
4208.24040 1.60746e-17
4209.70762 1.60932e-17
4211.17483 1.64619e-17
4212.65224 1.44116e-17
4214.11945 1.33306e-17
4215.58667 1.40461e-17
4217.06408 1.55283e-17
4218.53129 1.41530e-17
4219.99851 1.52331e-17
4221.46572 1.53088e-17
4222.94313 1.58819e-17
4224.41035 1.65175e-17
4225.87756 1.75181e-17
4227.35497 1.75052e-17
4228.82218 1.57323e-17
4230.28940 1.70484e-17
4231.75661 1.73255e-17
4233.23402 1.73361e-17
4234.70123 1.75551e-17
4236.16845 1.63501e-17
4237.63567 1.82622e-17
4239.11307 1.80872e-17
4240.58029 1.69071e-17
4242.04750 1.71167e-17
4243.52491 1.76445e-17
4244.99212 1.88589e-17
4246.45934 1.87898e-17
4247.92656 1.92622e-17
4249.40396 1.74621e-17
4250.87118 1.83703e-17
4252.33839 1.90737e-17
4253.80561 1.96174e-17
4255.28301 1.90887e-17
4256.75023 1.74566e-17
4258.21745 1.94018e-17
4259.68466 1.96434e-17
4261.16207 1.86547e-17
4262.62928 1.76731e-17
4264.09650 1.78394e-17
4265.57390 1.87110e-17
4267.04112 1.69159e-17
4268.50834 1.77900e-17
4269.97555 1.81686e-17
4271.45296 1.86163e-17
4272.92017 1.82645e-17
4274.38739 1.74170e-17
4275.85461 1.69585e-17
4277.33201 1.59092e-17
4278.79923 1.70650e-17
4280.26644 1.80061e-17
4281.74385 1.89354e-17
4283.21106 1.81966e-17
4284.67828 1.73464e-17
4286.14550 1.69782e-17
4287.62290 1.75557e-17
4289.09012 1.67213e-17
4290.55733 1.80250e-17
4292.03474 1.87451e-17
4293.50195 1.69983e-17
4294.96917 1.71059e-17
4296.43639 1.84624e-17
4297.91379 1.84202e-17
4299.38101 1.74252e-17
4300.84822 1.78806e-17
4302.31544 1.71077e-17
4303.79284 1.72292e-17
4305.26006 1.79583e-17
4306.72728 1.71639e-17
4308.20468 1.66985e-17
4309.67190 1.73227e-17
4311.13911 1.80193e-17
4312.60633 1.84935e-17
4314.08373 1.89943e-17
4315.55095 1.88685e-17
4317.01817 1.73946e-17
4318.48538 1.71268e-17
4319.96279 1.87389e-17
4321.43000 1.91542e-17
4322.89722 1.77843e-17
4324.37462 1.70880e-17
4325.84184 1.66319e-17
4327.30906 1.78934e-17
4328.77627 1.89051e-17
4330.25368 1.76657e-17
4331.72089 1.73452e-17
4333.18811 1.75213e-17
4334.65532 1.74104e-17
4336.13273 1.67285e-17
4337.59995 1.69465e-17
4339.06716 1.59961e-17
4340.54457 1.58382e-17
4342.01178 1.69544e-17
4343.47900 1.66281e-17
4344.94621 1.74565e-17
4346.42362 1.72846e-17
4347.89084 1.70952e-17
4349.35805 1.81300e-17
4350.82527 1.75848e-17
4352.30267 1.72116e-17
4353.76989 1.89515e-17
4355.23710 1.92640e-17
4356.71451 1.70918e-17
4358.18173 1.58107e-17
4359.64894 1.78774e-17
4361.11616 1.91532e-17
4362.59356 1.73568e-17
4364.06078 1.75996e-17
4365.52799 1.80282e-17
4366.99521 1.73464e-17
4368.47262 1.71743e-17
4369.93983 1.73257e-17
4371.40705 1.75428e-17
4372.88445 1.74286e-17
4374.35167 1.86746e-17
4375.81888 1.85802e-17
4377.28610 1.73525e-17
4378.76351 1.75999e-17
4380.23072 1.76306e-17
4381.69794 1.81360e-17
4383.16515 1.81753e-17
4384.64256 1.74830e-17
4386.10977 1.73951e-17
4387.57699 1.65321e-17
4389.05440 1.59331e-17
4390.52161 1.73257e-17
4391.98883 1.69569e-17
4393.45604 1.64326e-17
4394.93345 1.72871e-17
4396.40067 1.70729e-17
4397.86788 1.78084e-17
4399.33510 1.81692e-17
4400.81250 1.64750e-17
4402.27972 1.65421e-17
4403.74693 1.76671e-17
4405.22434 1.91618e-17
4406.69155 1.93904e-17
4408.15877 1.92407e-17
4409.62599 1.86860e-17
4411.10339 1.78269e-17
4412.57061 1.88487e-17
4414.03782 1.94496e-17
4415.50504 1.88820e-17
4416.98244 1.81485e-17
4418.44966 1.84642e-17
4419.91688 1.79783e-17
4421.39428 1.74508e-17
4422.86150 1.71037e-17
4424.32871 1.75858e-17
4425.79593 1.78797e-17
4427.27333 1.77489e-17
4428.74055 1.69693e-17
4430.20777 1.72983e-17
4431.68517 1.71340e-17
4433.15239 1.62103e-17
4434.61960 1.68989e-17
4436.08682 1.61304e-17
4437.56423 1.54559e-17
4439.03144 1.66852e-17
4440.49866 1.52653e-17
4441.96587 1.48871e-17
4443.44328 1.48152e-17
4444.91049 1.48445e-17
4446.37771 1.45060e-17
4447.84493 1.50797e-17
4449.32233 1.39183e-17
4450.78955 1.37433e-17
4452.25676 1.43074e-17
4453.73417 1.32245e-17
4455.20138 1.20014e-17
4456.66860 1.33600e-17
4458.13582 1.35201e-17
4459.61322 1.27540e-17
4461.08044 1.39777e-17
4462.54765 1.33337e-17
4464.01487 1.22192e-17
4465.49227 1.14024e-17
4466.95949 1.25329e-17
4468.42671 1.19238e-17
4469.90411 1.05007e-17
4471.37133 1.06751e-17
4472.83854 1.03876e-17
4474.30576 1.10617e-17
4475.78316 1.07818e-17
4477.25038 1.02821e-17
4478.71760 1.05023e-17
4480.18481 1.01553e-17
4481.66222 1.00101e-17
4483.12943 1.00807e-17
4484.59665 9.61057e-18
4486.07405 9.36531e-18
4487.54127 9.41800e-18
4489.00849 9.96872e-18
4490.47570 1.13129e-17
4491.95311 1.10295e-17
4493.42032 9.73378e-18
4494.88754 9.15308e-18
4496.36494 1.04278e-17
4497.83216 1.04243e-17
4499.29938 9.83972e-18
4500.76659 9.92314e-18
4502.24400 9.12200e-18
4503.71121 8.75906e-18
4505.17843 9.37297e-18
4506.64564 9.85242e-18
4508.12305 9.63194e-18
4509.59027 1.07877e-17
4511.05748 1.04249e-17
4512.52470 9.70592e-18
4514.00210 1.05966e-17
4515.46932 1.00280e-17
4516.93653 1.08814e-17
4518.41394 1.19879e-17
4519.88116 1.22577e-17
4521.34837 9.80306e-18
4522.81559 9.90331e-18
4524.29299 1.02646e-17
4525.76021 9.89227e-18
4527.22743 1.04414e-17
4528.70483 1.07517e-17
4530.17205 1.12284e-17
4531.63926 1.16034e-17
4533.10648 1.17115e-17
4534.58388 1.18406e-17
4536.05110 1.16824e-17
4537.51832 1.20086e-17
4538.98553 1.06646e-17
4540.46294 1.09968e-17
4541.93015 1.18380e-17
4543.39737 1.25496e-17
4544.87477 1.16910e-17
4546.34199 1.14850e-17
4547.80920 1.24594e-17
4549.27642 1.25044e-17
4550.75383 1.13228e-17
4552.22104 1.14644e-17
4553.68826 1.33027e-17
4555.15547 1.36270e-17
4556.63288 1.29664e-17
4558.10009 1.19772e-17
4559.56731 1.28349e-17
4561.04472 1.33902e-17
4562.51193 1.37141e-17
4563.97915 1.34497e-17
4565.44636 1.34080e-17
4566.92377 1.39061e-17
4568.39098 1.38064e-17
4569.85820 1.42854e-17
4571.32542 1.40643e-17
4572.80282 1.44742e-17
4574.27004 1.49576e-17
4575.73725 1.50039e-17
4577.21466 1.51519e-17
4578.68187 1.51014e-17
4580.14909 1.57353e-17
4581.61631 1.63033e-17
4583.09371 1.65602e-17
4584.56093 1.65982e-17
4586.02814 1.64100e-17
4587.49536 1.66087e-17
4588.97277 1.63940e-17
4590.43998 1.58142e-17
4591.90720 1.64951e-17
4593.38460 1.62495e-17
4594.85182 1.71973e-17
4596.31903 1.60468e-17
4597.78625 1.54121e-17
4599.26365 1.58396e-17
4600.73087 1.68980e-17
4602.19809 1.77507e-17
4603.66530 1.79809e-17
4605.14271 1.79907e-17
4606.60992 1.86885e-17
4608.07714 1.87633e-17
4609.55454 1.91434e-17
4611.02176 1.78415e-17
4612.48898 1.76914e-17
4613.95619 1.86185e-17
4615.43360 1.93809e-17
4616.90081 1.91870e-17
4618.36803 1.89806e-17
4619.83525 2.00694e-17
4621.31265 1.93702e-17
4622.77987 1.83444e-17
4624.24708 1.86158e-17
4625.72449 1.93574e-17
4627.19170 2.03332e-17
4628.65892 2.08393e-17
4630.12614 2.05346e-17
4631.60354 2.11253e-17
4633.07076 2.06092e-17
4634.53797 1.96964e-17
4636.00519 1.97918e-17
4637.48259 2.09319e-17
4638.94981 2.10621e-17
4640.41703 2.11891e-17
4641.89443 2.21798e-17
4643.36165 2.16826e-17
4644.82886 2.15745e-17
4646.29608 2.17391e-17
4647.77348 2.17968e-17
4649.24070 2.14301e-17
4650.70792 2.13350e-17
4652.17513 2.12370e-17
4653.65254 2.18630e-17
4655.11975 2.20895e-17
4656.58697 2.21909e-17
4658.06437 2.18443e-17
4659.53159 2.12706e-17
4660.99881 2.16216e-17
4662.46602 2.11280e-17
4663.94343 2.11916e-17
4665.41064 2.18436e-17
4666.87786 2.18521e-17
4668.34507 2.14291e-17
4669.82248 2.18665e-17
4671.28970 2.24978e-17
4672.75691 2.20880e-17
4674.23432 2.14031e-17
4675.70153 2.17646e-17
4677.16875 2.13897e-17
4678.63597 2.09922e-17
4680.11337 2.18528e-17
4681.58059 2.16247e-17
4683.04780 2.21466e-17
4684.51502 2.17166e-17
4685.99242 2.11914e-17
4687.45964 2.00453e-17
4688.92685 1.95295e-17
4690.40426 1.99775e-17
4691.87148 1.95659e-17
4693.33869 2.05153e-17
4694.80591 2.06167e-17
4696.28331 2.04119e-17
4697.75053 2.04497e-17
4699.21774 2.03661e-17
4700.68496 2.07206e-17
4702.16237 2.00768e-17
4703.62958 1.94412e-17
4705.09680 1.99355e-17
4706.57420 1.98187e-17
4708.04142 1.97164e-17
4709.50863 1.93610e-17
4710.97585 1.90848e-17
4712.45326 1.92692e-17
4713.92047 1.98590e-17
4715.38769 1.95123e-17
4716.85490 1.84888e-17
4718.33231 1.94396e-17
4719.79952 1.97289e-17
4721.26674 1.94490e-17
4722.74415 1.95479e-17
4724.21136 1.97528e-17
4725.67858 1.95592e-17
4727.14579 1.88607e-17
4728.62320 1.90626e-17
4730.09041 1.95452e-17
4731.55763 2.07536e-17
4733.02485 2.07725e-17
4734.50225 1.96908e-17
4735.96947 1.92216e-17
4737.43668 1.91492e-17
4738.91409 1.90334e-17
4740.38130 1.91977e-17
4741.84852 1.90862e-17
4743.31574 1.94070e-17
4744.79314 1.98384e-17
4746.26036 1.99988e-17
4747.72757 1.97834e-17
4749.19479 1.96056e-17
4750.67220 1.95541e-17
4752.13941 1.96255e-17
4753.60663 1.98835e-17
4755.08403 1.97555e-17
4756.55125 1.91260e-17
4758.01846 1.88741e-17
4759.48568 1.86497e-17
4760.96308 1.80726e-17
4762.43030 1.83583e-17
4763.89752 1.90580e-17
4765.37492 1.94392e-17
4766.84214 1.89379e-17
4768.30935 1.88088e-17
4769.77657 1.88938e-17
4771.25397 1.81890e-17
4772.72119 1.80119e-17
4774.18841 1.87055e-17
4775.65562 1.89786e-17
4777.13303 1.88656e-17
4778.60024 1.89626e-17
4780.06746 1.91352e-17
4781.54486 1.85334e-17
4783.01208 1.79429e-17
4784.47930 1.83559e-17
4785.94651 1.79962e-17
4787.42392 1.81643e-17
4788.89113 1.87333e-17
4790.35835 1.87416e-17
4791.82557 1.80416e-17
4793.30297 1.77087e-17
4794.77019 1.78403e-17
4796.23740 1.74773e-17
4797.70462 1.77492e-17
4799.18202 1.76172e-17
4800.64924 1.72066e-17
4802.11646 1.73632e-17
4803.59386 1.73156e-17
4805.06108 1.76686e-17
4806.52829 1.79092e-17
4807.99551 1.78838e-17
4809.47291 1.69745e-17
4810.94013 1.57069e-17
4812.40735 1.63375e-17
4813.87456 1.75257e-17
4815.35197 1.73216e-17
4816.81918 1.69820e-17
4818.28640 1.76055e-17
4819.76380 1.78317e-17
4821.23102 1.71028e-17
4822.69824 1.64330e-17
4824.16545 1.58619e-17
4825.64286 1.50437e-17
4827.11007 1.53624e-17
4828.57729 1.56361e-17
4830.05469 1.57770e-17
4831.52191 1.57917e-17
4832.98913 1.55951e-17
4834.45634 1.53213e-17
4835.93375 1.53139e-17
4837.40096 1.48848e-17
4838.86818 1.43562e-17
4840.33540 1.47859e-17
4841.81280 1.51476e-17
4843.28002 1.44774e-17
4844.74723 1.38501e-17
4846.22464 1.40990e-17
4847.69185 1.44093e-17
4849.15907 1.44053e-17
4850.62628 1.44174e-17
4852.10369 1.40828e-17
4853.57091 1.31442e-17
4855.03812 1.24542e-17
4856.50534 1.19524e-17
4857.98274 1.14572e-17
4859.44996 1.18093e-17
4860.91717 1.23701e-17
4862.39458 1.16259e-17
4863.86180 1.12499e-17
4865.32901 1.16125e-17
4866.79623 1.16857e-17
4868.27363 1.15051e-17
4869.74085 1.10624e-17
4871.20806 1.00016e-17
4872.67528 9.76699e-18
4874.15269 1.00994e-17
4875.61990 9.15783e-18
4877.08712 9.18888e-18
4878.56452 9.05395e-18
4880.03174 8.44708e-18
4881.49895 8.67184e-18
4882.96617 9.24013e-18
4884.44358 9.63578e-18
4885.91079 9.19770e-18
4887.37801 8.40379e-18
4888.84522 8.32721e-18
4890.32263 8.93172e-18
4891.78984 9.48573e-18
4893.25706 9.14418e-18
4894.73447 8.60318e-18
4896.20168 9.31777e-18
4897.66890 9.86167e-18
4899.13611 8.99981e-18
4900.61352 8.43759e-18
4902.08073 9.33661e-18
4903.54795 9.74158e-18
4905.01517 9.10447e-18
4906.49257 8.90310e-18
4907.95979 9.17048e-18
4909.42700 9.70995e-18
4910.90441 1.01680e-17
4912.37162 1.04506e-17
4913.83884 1.09766e-17
4915.30606 1.10108e-17
4916.78346 1.03587e-17
4918.25068 1.06959e-17
4919.71789 1.14616e-17
4921.18511 1.12378e-17
4922.66251 1.09660e-17
4924.12973 1.10407e-17
4925.59695 1.12258e-17
4927.07435 1.11915e-17
4928.54157 1.11209e-17
4930.00878 1.13175e-17
4931.47600 1.11937e-17
4932.95340 1.12713e-17
4934.42062 1.14498e-17
4935.88784 1.18739e-17
4937.35505 1.17748e-17
4938.83246 1.16143e-17
4940.29967 1.19109e-17
4941.76689 1.19041e-17
4943.24429 1.09940e-17
4944.71151 1.05302e-17
4946.17873 1.14761e-17
4947.64594 1.10070e-17
4949.12335 1.00963e-17
4950.59056 1.04497e-17
4952.05778 1.11297e-17
4953.52500 1.07752e-17
4955.00240 1.03719e-17
4956.46962 1.02019e-17
4957.93683 9.65998e-18
4959.41424 9.13514e-18
4960.88145 9.52387e-18
4962.34867 9.65923e-18
4963.81589 9.01076e-18
4965.29329 9.36500e-18
4966.76051 9.58801e-18
4968.22772 9.80472e-18
4969.70513 1.00961e-17
4971.17234 9.41678e-18
4972.63956 8.60561e-18
4974.10678 8.98149e-18
4975.58418 9.17922e-18
4977.05140 8.48747e-18
4978.51861 8.92744e-18
4979.98583 9.50776e-18
4981.46323 9.55355e-18
4982.93045 9.83618e-18
4984.39767 9.19104e-18
4985.86488 8.77371e-18
4987.34229 9.41450e-18
4988.80950 9.22605e-18
4990.27672 8.97937e-18
4991.75412 9.68538e-18
4993.22134 9.35424e-18
4994.68856 8.96356e-18
4996.15577 9.31637e-18
4997.63318 9.29335e-18
4999.10039 1.00022e-17
5000.56761 1.04934e-17
5002.03482 1.04448e-17
5003.51223 1.08517e-17
5004.97945 1.08981e-17
5006.44666 1.08211e-17
5007.92407 1.10234e-17
5009.39128 1.12562e-17
5010.85850 1.13066e-17
5012.32571 1.14410e-17
5013.80312 1.10494e-17
5015.27034 1.06512e-17
5016.73755 1.12557e-17
5018.20477 1.19016e-17
5019.68217 1.29922e-17
5021.14939 1.32069e-17
5022.61660 1.32744e-17
5024.09401 1.34401e-17
5025.56123 1.30070e-17
5027.02844 1.37343e-17
5028.49566 1.39084e-17
5029.97306 1.40181e-17
5031.44028 1.45480e-17
5032.90749 1.44520e-17
5034.38490 1.43968e-17
5035.85212 1.47772e-17
5037.31933 1.51171e-17
5038.78655 1.51055e-17
5040.26395 1.50475e-17
5041.73117 1.54961e-17
5043.19838 1.60252e-17
5044.66560 1.63081e-17
5046.14301 1.59665e-17
5047.61022 1.61405e-17
5049.07744 1.59210e-17
5050.54465 1.58971e-17
5052.02206 1.60457e-17
5053.48927 1.59604e-17
5054.95649 1.59167e-17
5056.43390 1.59411e-17
5057.90111 1.62602e-17
5059.36833 1.70274e-17
5060.83554 1.63874e-17
5062.31295 1.63640e-17
5063.78017 1.68907e-17
5065.24738 1.66173e-17
5066.72479 1.63597e-17
5068.19200 1.65511e-17
5069.65922 1.67781e-17
5071.12643 1.58250e-17
5072.60384 1.54052e-17
5074.07105 1.55056e-17
5075.53827 1.59508e-17
5077.00549 1.63331e-17
5078.48289 1.62405e-17
5079.95011 1.50449e-17
5081.41732 1.40566e-17
5082.89473 1.44434e-17
5084.36194 1.51050e-17
5085.82916 1.42571e-17
5087.29638 1.35040e-17
5088.77378 1.40229e-17
5090.24100 1.37797e-17
5091.70821 1.37220e-17
5093.17543 1.29368e-17
5094.65283 1.25048e-17
5096.12005 1.28071e-17
5097.58727 1.25227e-17
5099.06467 1.20811e-17
5100.53189 1.11436e-17
5101.99910 1.09028e-17
5103.46632 1.11335e-17
5104.94372 1.08152e-17
5106.41094 1.00418e-17
5107.87816 1.06706e-17
5109.34537 1.15971e-17
5110.82278 1.08858e-17
5112.28999 1.05946e-17
5113.75721 1.07395e-17
5115.23462 9.59729e-18
5116.70183 8.98540e-18
5118.16905 9.08903e-18
5119.63626 9.07132e-18
5121.11367 9.08808e-18
5122.58088 9.08572e-18
5124.04810 9.18269e-18
5125.51532 9.23974e-18
5126.99272 8.72169e-18
5128.45994 9.38853e-18
5129.92715 9.61592e-18
5131.40456 8.81154e-18
5132.87177 8.05731e-18
5134.33899 8.69403e-18
5135.80621 8.79760e-18
5137.28361 8.99834e-18
5138.75083 9.14894e-18
5140.21804 8.64791e-18
5141.68526 8.74902e-18
5143.16266 8.98426e-18
5144.62988 9.14696e-18
5146.09710 9.20146e-18
5147.57450 8.98640e-18
5149.04172 9.02515e-18
5150.50893 9.38450e-18
5151.97615 9.06610e-18
5153.45355 8.87200e-18
5154.92077 9.01398e-18
5156.38799 9.33527e-18
5157.85520 9.66386e-18
5159.33261 9.46710e-18
5160.79982 9.90171e-18
5162.26704 1.00047e-17
5163.74444 9.50409e-18
5165.21166 9.95976e-18
5166.67888 1.07439e-17
5168.14609 1.10210e-17
5169.62350 1.08823e-17
5171.09071 1.11495e-17
5172.55793 1.10745e-17
5174.02514 1.15031e-17
5175.50255 1.14473e-17
5176.96977 1.14151e-17
5178.43698 1.18830e-17
5179.91439 1.16657e-17
5181.38160 1.14287e-17
5182.84882 1.14662e-17
5184.31603 1.15924e-17
5185.79344 1.16585e-17
5187.26066 1.23329e-17
5188.72787 1.29260e-17
5190.19509 1.28396e-17
5191.67249 1.18811e-17
5193.13971 1.19728e-17
5194.60692 1.22892e-17
5196.08433 1.22479e-17
5197.55155 1.24970e-17
5199.01876 1.31072e-17
5200.48598 1.37444e-17
5201.96338 1.33478e-17
5203.43060 1.27639e-17
5204.89782 1.33482e-17
5206.36503 1.41969e-17
5207.84244 1.33388e-17
5209.30965 1.35992e-17
5210.77687 1.40566e-17
5212.25427 1.42547e-17
5213.72149 1.38244e-17
5215.18870 1.32672e-17
5216.65592 1.32663e-17
5218.13333 1.35891e-17
5219.60054 1.29345e-17
5221.06776 1.30666e-17
5222.53497 1.43659e-17
5224.01238 1.44086e-17
5225.47959 1.38526e-17
5226.94681 1.33609e-17
5228.42422 1.32765e-17
5229.89143 1.27334e-17
5231.35865 1.22167e-17
5232.82586 1.26071e-17
5234.30327 1.29251e-17
5235.77048 1.31271e-17
5237.23770 1.26302e-17
5238.70492 1.27451e-17
5240.18232 1.29759e-17
5241.64954 1.26675e-17
5243.11675 1.28623e-17
5244.59416 1.30742e-17
5246.06137 1.32623e-17
5247.52859 1.25998e-17
5248.99581 1.32777e-17
5250.47321 1.31399e-17
5251.94043 1.23210e-17
5253.40764 1.29160e-17
5254.87486 1.31231e-17
5256.35226 1.24430e-17
5257.81948 1.27214e-17
5259.28670 1.32331e-17
5260.76410 1.29544e-17
5262.23132 1.31917e-17
5263.69853 1.30047e-17
5265.16575 1.21914e-17
5266.64315 1.19812e-17
5268.11037 1.17565e-17
5269.57759 1.20342e-17
5271.04480 1.22094e-17
5272.52221 1.24251e-17
5273.98942 1.20061e-17
5275.45664 1.26106e-17
5276.93404 1.31514e-17
5278.40126 1.25138e-17
5279.86848 1.19599e-17
5281.33569 1.25036e-17
5282.81310 1.28825e-17
5284.28031 1.26590e-17
5285.74753 1.26734e-17
5287.22493 1.28716e-17
5288.69215 1.20910e-17
5290.15937 1.20477e-17
5291.62658 1.31347e-17
5293.10399 1.32471e-17
5294.57120 1.29317e-17
5296.03842 1.27498e-17
5297.50564 1.29504e-17
5298.98304 1.23905e-17
5300.45026 1.30854e-17
5301.91747 1.53439e-17
5303.39488 1.58869e-17
5304.86209 1.38342e-17
5306.32931 1.48131e-17
5307.79653 1.41318e-17
5309.27393 1.40696e-17
5310.74115 1.43092e-17
5312.20836 1.48203e-17
5313.67558 1.40836e-17
5315.15298 1.37756e-17
5316.62020 1.46953e-17
5318.08742 1.49650e-17
5319.56482 1.49208e-17
5321.03204 1.50375e-17
5322.49925 1.49294e-17
5323.96647 1.53542e-17
5325.44387 1.59085e-17
5326.91109 1.54286e-17
5328.37831 1.49008e-17
5329.84552 1.44237e-17
5331.32293 1.43898e-17
5332.79014 1.48744e-17
5334.25736 1.46176e-17
5335.72457 1.46735e-17
5337.20198 1.42923e-17
5338.66920 1.46193e-17
5340.13641 1.53727e-17
5341.61382 1.56638e-17
5343.08103 1.57874e-17
5344.54825 1.51824e-17
5346.01546 1.51544e-17
5347.49287 1.53071e-17
5348.96009 1.50174e-17
5350.42730 1.57858e-17
5351.89452 1.59705e-17
5353.37192 1.56475e-17
5354.83914 1.55242e-17
5356.30635 1.53890e-17
5357.78376 1.51314e-17
5359.25098 1.56284e-17
5360.71819 1.62505e-17
5362.18541 1.53385e-17
5363.66281 1.53872e-17
5365.13003 1.64301e-17
5366.59724 1.66484e-17
5368.07465 1.62412e-17
5369.54187 1.56418e-17
5371.00908 1.60467e-17
5372.47630 1.66896e-17
5373.95370 1.54797e-17
5375.42092 1.48613e-17
5376.88813 1.56233e-17
5378.35535 1.60474e-17
5379.83276 1.62672e-17
5381.29997 1.61308e-17
5382.76719 1.64526e-17
5384.24459 1.66493e-17
5385.71181 1.62167e-17
5387.17902 1.63503e-17
5388.64624 1.61876e-17
5390.12365 1.57120e-17
5391.59086 1.64328e-17
5393.05808 1.62420e-17
5394.52529 1.55613e-17
5396.00270 1.60543e-17
5397.46991 1.64267e-17
5398.93713 1.63013e-17
5400.41454 1.64469e-17
5401.88175 1.62182e-17
5403.34897 1.57211e-17
5404.81618 1.63828e-17
5406.29359 1.65401e-17
5407.76080 1.61173e-17
5409.22802 1.56587e-17
5410.69524 1.50450e-17
5412.17264 1.54719e-17
5413.63986 1.61261e-17
5415.10707 1.60855e-17
5416.58448 1.62900e-17
5418.05170 1.61779e-17
5419.51891 1.56990e-17
5420.98613 1.55363e-17
5422.46353 1.56990e-17
5423.93075 1.56140e-17
5425.39796 1.53015e-17
5426.86518 1.55096e-17
5428.34258 1.58912e-17
5429.80980 1.58929e-17
5431.27702 1.58526e-17
5432.75442 1.58254e-17
5434.22164 1.54520e-17
5435.68885 1.52703e-17
5437.15607 1.51318e-17
5438.63347 1.48397e-17
5440.10069 1.46588e-17
5441.56791 1.50655e-17
5443.03512 1.53566e-17
5444.51253 1.53425e-17
5445.97974 1.51983e-17
5447.44696 1.43347e-17
5448.92436 1.41476e-17
5450.39158 1.44101e-17
5451.85880 1.42097e-17
5453.32601 1.43224e-17
5454.80342 1.47607e-17
5456.27063 1.56271e-17
5457.73785 1.59225e-17
5459.20507 1.50678e-17
5460.68247 1.44444e-17
5462.14969 1.42717e-17
5463.61690 1.46968e-17
5465.09431 1.49532e-17
5466.56152 1.43879e-17
5468.02874 1.39519e-17
5469.49596 1.40231e-17
5470.97336 1.41124e-17
5472.44058 1.40772e-17
5473.90779 1.39729e-17
5475.37501 1.38692e-17
5476.85241 1.35305e-17
5478.31963 1.37410e-17
5479.78685 1.36284e-17
5481.26425 1.41567e-17
5482.73147 1.45785e-17
5484.19868 1.34136e-17
5485.66590 1.33463e-17
5487.14330 1.33728e-17
5488.61052 1.30025e-17
5490.07774 1.35638e-17
5491.54495 1.38234e-17
5493.02236 1.35186e-17
5494.48957 1.33023e-17
5495.95679 1.31055e-17
5497.43419 1.26948e-17
5498.90141 1.34437e-17
5500.36863 1.36622e-17
5501.83584 1.30472e-17
5503.31325 1.29434e-17
5504.78046 1.29114e-17
5506.24768 1.25184e-17
5507.72508 1.27798e-17
5509.19230 1.31935e-17
5510.65952 1.30720e-17
5512.12673 1.34202e-17
5513.60414 1.31805e-17
5515.07135 1.25431e-17
5516.53857 1.29523e-17
5518.00578 1.31501e-17
5519.48319 1.24595e-17
5520.95041 1.25767e-17
5522.41762 1.33328e-17
5523.88484 1.29435e-17
5525.36224 1.27724e-17
5526.82946 1.29747e-17
5528.29667 1.28120e-17
5529.77408 1.33174e-17
5531.24130 1.34551e-17
5532.70851 1.28210e-17
5534.17573 1.25522e-17
5535.65313 1.30959e-17
5537.12035 1.30307e-17
5538.58756 1.27266e-17
5540.05478 1.28677e-17
5541.53219 1.31290e-17
5542.99940 1.24731e-17
5544.46662 1.19378e-17
5545.94402 1.25133e-17
5547.41124 1.27175e-17
5548.87845 1.25920e-17
5550.34567 1.23580e-17
5551.82308 1.23099e-17
5553.29029 1.26699e-17
5554.75751 1.28647e-17
5556.23491 1.25775e-17
5557.70213 1.25824e-17
5559.16934 1.27924e-17
5560.63656 1.29460e-17
5562.11397 1.34011e-17
5563.58118 1.30137e-17
5565.04840 1.26405e-17
5566.51561 1.32556e-17
5567.99302 1.27755e-17
5569.46023 1.29381e-17
5570.92745 1.32716e-17
5572.40486 1.31912e-17
5573.87207 1.37837e-17
5575.33929 1.31486e-17
5576.80650 1.35065e-17
5578.28391 1.38168e-17
5579.75112 1.24746e-17
5581.21834 1.13128e-17
5582.68556 1.13360e-17
5584.16296 1.27818e-17
5585.63018 1.32456e-17
5587.09739 1.34410e-17
5588.56461 1.24001e-17
5590.04201 1.25477e-17
5591.50923 1.35312e-17
5592.97645 1.31316e-17
5594.45385 1.30003e-17
5595.92107 1.27665e-17
5597.38828 1.24905e-17
5598.85550 1.27242e-17
5600.33290 1.24481e-17
5601.80012 1.23727e-17
5603.26734 1.33684e-17
5604.74474 1.34334e-17
5606.21196 1.24578e-17
5607.67917 1.22065e-17
5609.14639 1.29167e-17
5610.62379 1.23854e-17
5612.09101 1.16499e-17
5613.55823 1.20841e-17
5615.02544 1.24654e-17
5616.50285 1.25703e-17
5617.97006 1.26132e-17
5619.43728 1.25438e-17
5620.91468 1.24521e-17
5622.38190 1.26486e-17
5623.84912 1.20629e-17
5625.31633 1.18995e-17
5626.79374 1.21630e-17
5628.26095 1.27688e-17
5629.72817 1.28312e-17
5631.19539 1.21840e-17
5632.67279 1.21255e-17
5634.14001 1.21609e-17
5635.60722 1.22608e-17
5637.08463 1.18553e-17
5638.55184 1.20629e-17
5640.01906 1.20698e-17
5641.48628 1.22151e-17
5642.96368 1.21639e-17
5644.43090 1.10331e-17
5645.89811 1.06801e-17
5647.36533 1.11792e-17
5648.84273 1.15175e-17
5650.30995 1.18801e-17
5651.77717 1.21467e-17
5653.25457 1.14607e-17
5654.72179 1.11158e-17
5656.18900 1.14602e-17
5657.65622 1.17160e-17
5659.13362 1.20511e-17
5660.60084 1.20825e-17
5662.06806 1.20455e-17
5663.53527 1.19526e-17
5665.01268 1.22838e-17
5666.47989 1.21317e-17
5667.94711 1.16207e-17
5669.42451 1.15042e-17
5670.89173 1.15515e-17
5672.35895 1.14243e-17
5673.82616 1.20553e-17
5675.30357 1.18288e-17
5676.77078 1.06261e-17
5678.23800 1.08548e-17
5679.70521 1.12575e-17
5681.18262 1.18302e-17
5682.64984 1.19136e-17
5684.11705 1.13722e-17
5685.59446 1.12896e-17
5687.06167 1.19464e-17
5688.52889 1.22696e-17
5689.99610 1.16527e-17
5691.47351 1.16439e-17
5692.94073 1.18218e-17
5694.40794 1.18460e-17
5695.87516 1.19523e-17
5697.35256 1.13928e-17
5698.81978 1.09743e-17
5700.28699 1.07672e-17
5701.76440 1.11824e-17
5703.23162 1.17053e-17
5704.69883 1.16211e-17
5706.16605 1.11955e-17
5707.64345 1.05459e-17
5709.11067 1.10984e-17
5710.57788 1.16933e-17
5712.04510 1.14721e-17
5713.52251 1.13035e-17
5714.98972 1.12645e-17
5716.45694 1.13039e-17
5717.93434 1.10190e-17
5719.40156 1.07392e-17
5720.86877 1.07514e-17
5722.33599 1.07270e-17
5723.81340 1.12199e-17
5725.28061 1.16277e-17
5726.74783 1.13065e-17
5728.21504 1.16647e-17
5729.69245 1.17570e-17
5731.15967 1.13359e-17
5732.62688 1.14166e-17
5734.10429 1.16883e-17
5735.57150 1.13516e-17
5737.03872 1.09244e-17
5738.50593 1.12192e-17
5739.98334 1.13904e-17
5741.45055 1.12683e-17
5742.91777 1.09975e-17
5744.38499 1.12214e-17
5745.86239 1.12922e-17
5747.32961 1.09432e-17
5748.79682 1.10544e-17
5750.27423 1.06866e-17
5751.74144 1.06575e-17
5753.20866 1.11208e-17
5754.67588 1.06090e-17
5756.15328 1.03690e-17
5757.62050 1.11070e-17
5759.08771 1.08770e-17
5760.55493 1.03386e-17
5762.03233 1.10435e-17
5763.49955 1.13095e-17
5764.96677 1.07399e-17
5766.44417 9.99115e-18
5767.91139 9.78920e-18
5769.37860 1.01215e-17
5770.84582 1.06765e-17
5772.32322 1.05515e-17
5773.79044 1.01251e-17
5775.25766 1.03855e-17
5776.72487 9.84795e-18
5778.20228 9.67456e-18
5779.66949 1.04427e-17
5781.13671 1.03944e-17
5782.61412 9.63390e-18
5784.08133 9.18669e-18
5785.54855 9.09790e-18
5787.01576 8.88584e-18
5788.49317 9.17608e-18
5789.96038 9.44437e-18
5791.42760 9.45401e-18
5792.89482 9.48025e-18
5794.37222 9.53695e-18
5795.83944 9.30121e-18
5797.30665 9.17708e-18
5798.78406 9.68009e-18
5800.25127 9.60513e-18
5801.71849 8.99450e-18
5803.18571 8.87073e-18
5804.66311 9.19497e-18
5806.13033 9.37763e-18
5807.59754 9.24677e-18
5809.06476 8.94321e-18
5810.54216 8.71043e-18
5812.00938 8.94110e-18
5813.47660 9.26559e-18
5814.95400 8.48643e-18
5816.42122 8.01792e-18
5817.88843 8.58997e-18
5819.35565 8.88065e-18
5820.83305 9.09842e-18
5822.30027 8.90213e-18
5823.76749 8.41493e-18
5825.24489 8.22702e-18
5826.71211 8.03240e-18
5828.17932 7.67904e-18
5829.64654 7.58118e-18
5831.12394 7.59811e-18
5832.59116 7.43357e-18
5834.05838 7.60858e-18
5835.52559 7.46135e-18
5837.00300 7.27982e-18
5838.47021 7.31673e-18
5839.93743 7.42327e-18
5841.41483 7.59487e-18
5842.88205 7.42703e-18
5844.34927 7.40703e-18
5845.81648 7.18407e-18
5847.29389 6.90854e-18
5848.76110 6.58507e-18
5850.22832 6.54874e-18
5851.69553 6.79999e-18
5853.17294 6.77372e-18
5854.64016 7.27119e-18
5856.10737 7.15119e-18
5857.58478 6.75652e-18
5859.05199 7.12494e-18
5860.51921 7.70832e-18
5861.98642 7.52846e-18
5863.46383 7.27791e-18
5864.93105 8.31690e-18
5866.39826 7.87925e-18
5867.86548 7.11338e-18
5869.34288 7.42746e-18
5870.81010 7.64545e-18
5872.27732 7.81481e-18
5873.74453 7.86685e-18
5875.22194 7.88444e-18
5876.68915 8.21929e-18
5878.15637 8.48912e-18
5879.63377 8.34991e-18
5881.10099 8.83975e-18
5882.56820 9.08900e-18
5884.03542 8.67832e-18
5885.51283 8.69284e-18
5886.98004 9.32260e-18
5888.44726 9.41280e-18
5889.92466 1.02318e-17
5891.39188 1.10727e-17
5892.85909 1.03621e-17
5894.32631 9.45912e-18
5895.80372 9.36386e-18
5897.27093 9.93458e-18
5898.73815 1.02271e-17
5900.20536 1.03936e-17
5901.68277 1.10185e-17
5903.14998 1.12843e-17
5904.61720 1.11301e-17
5906.09461 1.13419e-17
5907.56182 1.16222e-17
5909.02904 1.17311e-17
5910.49625 1.18661e-17
5911.97366 1.16858e-17
5913.44087 1.20693e-17
5914.90809 1.21538e-17
5916.37531 1.16306e-17
5917.85271 1.13557e-17
5919.31993 1.20383e-17
5920.78714 1.27712e-17
5922.26455 1.25907e-17
5923.73176 1.29166e-17
5925.19898 1.31834e-17
5926.66620 1.31788e-17
5928.14360 1.29934e-17
5929.61082 1.25613e-17
5931.07803 1.26676e-17
5932.54525 1.28401e-17
5934.02265 1.28306e-17
5935.48987 1.32404e-17
5936.95709 1.36241e-17
5938.43449 1.32272e-17
5939.90171 1.28862e-17
5941.36892 1.28096e-17
5942.83614 1.30635e-17
5944.31354 1.34703e-17
5945.78076 1.32150e-17
5947.24798 1.31935e-17
5948.71519 1.33308e-17
5950.19260 1.37281e-17
5951.65981 1.38354e-17
5953.12703 1.31516e-17
5954.60443 1.34583e-17
5956.07165 1.34207e-17
5957.53887 1.30509e-17
5959.00608 1.35758e-17
5960.48349 1.37436e-17
5961.95070 1.38222e-17
5963.41792 1.39156e-17
5964.88514 1.33576e-17
5966.36254 1.35036e-17
5967.82976 1.42313e-17
5969.29697 1.40215e-17
5970.77438 1.35439e-17
5972.24159 1.31383e-17
5973.70881 1.28167e-17
5975.17603 1.28960e-17
5976.65343 1.27421e-17
5978.12065 1.23521e-17
5979.58786 1.28372e-17
5981.05508 1.30384e-17
5982.53248 1.25207e-17
5983.99970 1.26202e-17
5985.46692 1.28848e-17
5986.94432 1.31592e-17
5988.41154 1.29566e-17
5989.87875 1.27690e-17
5991.34597 1.26583e-17
5992.82337 1.28365e-17
5994.29059 1.27731e-17
5995.75781 1.15609e-17
5997.22502 1.16405e-17
5998.70243 1.24187e-17
6000.16964 1.22318e-17
6001.63686 1.15141e-17
6003.11426 1.17022e-17
6004.58148 1.30531e-17
6006.04870 1.29620e-17
6007.51591 1.21904e-17
6008.99332 1.23546e-17
6010.46053 1.26568e-17
6011.92775 1.26149e-17
6013.39496 1.24891e-17
6014.87237 1.27078e-17
6016.33959 1.27335e-17
6017.80680 1.25630e-17
6019.28421 1.24724e-17
6020.75142 1.19669e-17
6022.21864 1.16544e-17
6023.68585 1.14232e-17
6025.16326 1.13821e-17
6026.63048 1.15556e-17
6028.09769 1.18487e-17
6029.56491 1.20708e-17
6031.04231 1.22981e-17
6032.50953 1.27151e-17
6033.97674 1.21934e-17
6035.45415 1.21832e-17
6036.92137 1.20768e-17
6038.38858 1.16478e-17
6039.85580 1.18464e-17
6041.33320 1.16453e-17
6042.80042 1.15814e-17
6044.26763 1.17688e-17
6045.74504 1.16301e-17
6047.21226 1.16564e-17
6048.67947 1.17348e-17
6050.14669 1.15841e-17
6051.62409 1.16633e-17
6053.09131 1.19425e-17
6054.55852 1.15540e-17
6056.02574 1.09775e-17
6057.50315 1.11841e-17
6058.97036 1.16985e-17
6060.43758 1.14806e-17
6061.90479 1.09711e-17
6063.38220 1.13114e-17
6064.84941 1.16621e-17
6066.31663 1.12052e-17
6067.79404 1.11437e-17
6069.26125 1.12302e-17
6070.72847 1.12420e-17
6072.19568 1.11078e-17
6073.67309 1.12515e-17
6075.14030 1.13832e-17
6076.60752 1.14575e-17
6078.07474 1.14672e-17
6079.55214 1.08287e-17
6081.01936 1.02546e-17
6082.48657 1.07278e-17
6083.96398 1.13012e-17
6085.43120 1.11744e-17
6086.89841 1.08178e-17
6088.36563 1.06853e-17
6089.84303 1.03277e-17
6091.31025 1.00665e-17
6092.77746 1.01937e-17
6094.25487 9.88833e-18
6095.72208 1.02946e-17
6097.18930 1.06805e-17
6098.65652 1.04129e-17
6100.13392 1.05246e-17
6101.60114 9.99271e-18
6103.06835 9.79000e-18
6104.53557 1.05117e-17
6106.01297 1.04091e-17
6107.48019 9.95515e-18
6108.94741 9.97604e-18
6110.42481 1.01116e-17
6111.89203 1.03602e-17
6113.35924 9.89507e-18
6114.82646 9.34784e-18
6116.30386 1.00153e-17
6117.77108 1.06742e-17
6119.23830 1.02775e-17
6120.70551 1.00007e-17
6122.18292 9.72624e-18
6123.65013 9.63341e-18
6125.11735 1.01638e-17
6126.58457 1.00010e-17
6128.06197 9.31271e-18
6129.52919 9.22772e-18
6130.99640 9.72631e-18
6132.47381 1.00261e-17
6133.94102 9.77903e-18
6135.40824 9.81364e-18
6136.87546 1.04649e-17
6138.35286 1.02189e-17
6139.82008 9.75550e-18
6141.28729 9.92942e-18
6142.75451 9.70117e-18
6144.23191 9.73092e-18
6145.69913 1.00193e-17
6147.16635 9.78579e-18
6148.64375 9.80910e-18
6150.11097 1.00126e-17
6151.57818 9.53510e-18
6153.04540 9.22438e-18
6154.52280 9.49186e-18
6155.99002 9.35449e-18
6157.45724 9.19522e-18
6158.93464 9.35712e-18
6160.40186 9.58298e-18
6161.86907 9.74593e-18
6163.33629 9.78603e-18
6164.81369 9.75011e-18
6166.28091 9.23141e-18
6167.74813 8.77116e-18
6169.21534 8.87285e-18
6170.69275 9.24674e-18
6172.15996 9.04013e-18
6173.62718 9.06349e-18
6175.10458 9.44610e-18
6176.57180 9.51863e-18
6178.03902 9.52047e-18
6179.50623 9.22890e-18
6180.98364 9.34374e-18
6182.45085 9.57914e-18
6183.91807 9.34790e-18
6185.38528 8.78102e-18
6186.86269 8.61248e-18
6188.32991 9.07154e-18
6189.79712 9.40149e-18
6191.27453 9.42754e-18
6192.74174 9.18475e-18
6194.20896 8.94060e-18
6195.67617 8.63001e-18
6197.15358 8.75824e-18
6198.62080 9.14458e-18
6200.08801 9.27728e-18
6201.55523 9.69126e-18
6203.03263 9.41856e-18
6204.49985 8.74818e-18
6205.96706 9.12640e-18
6207.44447 9.83480e-18
6208.91169 9.56773e-18
6210.37890 8.71009e-18
6211.84612 8.36924e-18
6213.32352 8.98913e-18
6214.79074 9.47881e-18
6216.25795 9.76640e-18
6217.72517 1.00339e-17
6219.20258 9.37107e-18
6220.66979 8.46696e-18
6222.13701 8.21482e-18
6223.61441 8.36391e-18
6225.08163 8.67084e-18
6226.54884 8.98757e-18
6228.01606 8.60770e-18
6229.49347 8.15473e-18
6230.96068 8.78017e-18
6232.42790 9.10923e-18
6233.89511 9.40748e-18
6235.37252 9.40351e-18
6236.83973 8.86898e-18
6238.30695 8.74996e-18
6239.78436 8.85082e-18
6241.25157 8.86578e-18
6242.71879 8.96518e-18
6244.18600 9.37780e-18
6245.66341 9.05170e-18
6247.13062 8.96975e-18
6248.59784 9.52368e-18
6250.06506 9.13979e-18
6251.54246 8.80604e-18
6253.00968 9.02746e-18
6254.47689 9.12714e-18
6255.95430 9.51847e-18
6257.42151 9.63507e-18
6258.88873 9.30086e-18
6260.35595 9.08394e-18
6261.83335 9.04932e-18
6263.30057 9.28262e-18
6264.76778 9.31207e-18
6266.23500 9.23914e-18
6267.71240 9.07492e-18
6269.17962 8.91288e-18
6270.64684 9.19156e-18
6272.12424 9.52008e-18
6273.59146 9.54102e-18
6275.05867 9.15100e-18
6276.52589 9.20523e-18
6278.00329 9.49835e-18
6279.47051 9.46719e-18
6280.93773 9.18154e-18
6282.41513 8.96107e-18
6283.88235 8.65227e-18
6285.34956 8.57513e-18
6286.81678 8.93290e-18
6288.29418 8.73264e-18
6289.76140 8.76675e-18
6291.22862 9.01808e-18
6292.69583 8.49308e-18
6294.17324 8.76623e-18
6295.64045 9.15429e-18
6297.10767 9.22727e-18
6298.57489 8.89096e-18
6300.05229 8.24840e-18
6301.51951 8.35622e-18
6302.98672 8.16217e-18
6304.46413 8.36743e-18
6305.93134 8.44514e-18
6307.39856 8.19634e-18
6308.86578 8.03845e-18
6310.34318 7.89531e-18
6311.81040 7.91993e-18
6313.27761 7.45676e-18
6314.74483 6.87743e-18
6316.22223 7.24155e-18
6317.68945 7.48458e-18
6319.15667 7.45114e-18
6320.63407 7.78010e-18
6322.10129 7.49661e-18
6323.56850 7.28302e-18
6325.03572 7.57955e-18
6326.51312 7.42588e-18
6327.98034 7.13040e-18
6329.44756 7.14896e-18
6330.91477 7.33347e-18
6332.39218 7.35012e-18
6333.85939 6.63033e-18
6335.32661 6.52519e-18
6336.80401 6.99335e-18
6338.27123 6.47565e-18
6339.73845 6.11940e-18
6341.20566 6.66482e-18
6342.68307 7.37593e-18
6344.15028 6.85452e-18
6345.61750 5.78070e-18
6347.08471 6.18960e-18
6348.56212 6.64205e-18
6350.02934 6.13148e-18
6351.49655 6.01541e-18
6352.97396 6.39184e-18
6354.44117 6.37049e-18
6355.90839 6.23110e-18
6357.37560 6.23713e-18
6358.85301 6.60249e-18
6360.32023 7.08331e-18
6361.78744 7.03176e-18
6363.25466 7.15257e-18
6364.73206 7.08126e-18
6366.19928 6.62986e-18
6367.66649 6.31679e-18
6369.14390 6.14742e-18
6370.61112 6.17657e-18
6372.07833 6.26816e-18
6373.54555 6.17866e-18
6375.02295 6.06281e-18
6376.49017 6.29105e-18
6377.95738 6.54290e-18
6379.43479 6.28098e-18
6380.90201 6.17714e-18
6382.36922 6.47000e-18
6383.83644 6.78497e-18
6385.31384 7.19386e-18
6386.78106 6.76724e-18
6388.24827 6.15040e-18
6389.71549 6.06171e-18
6391.19290 6.24653e-18
6392.66011 6.67576e-18
6394.12733 6.93324e-18
6395.60473 6.86830e-18
6397.07195 6.80025e-18
6398.53917 6.89128e-18
6400.00638 7.41255e-18
6401.48379 7.46211e-18
6402.95100 7.12003e-18
6404.41822 6.80173e-18
6405.88543 6.81431e-18
6407.36284 7.52992e-18
6408.83005 7.47473e-18
6410.29727 7.30659e-18
6411.76449 7.37928e-18
6413.24189 7.12148e-18
6414.70911 7.39978e-18
6416.17632 7.42982e-18
6417.65373 7.20593e-18
6419.12094 6.94818e-18
6420.58816 7.02924e-18
6422.05538 7.39123e-18
6423.53278 7.44016e-18
6425.00000 7.50293e-18
6426.46721 7.75676e-18
6427.94462 7.42471e-18
6429.41183 7.19738e-18
6430.87905 7.78803e-18
6432.34627 7.45848e-18
6433.82367 7.72617e-18
6435.29089 8.39723e-18
6436.75810 8.03096e-18
6438.22532 8.09497e-18
6439.70272 8.29384e-18
6441.16994 8.15005e-18
6442.63716 8.19104e-18
6444.11456 8.69079e-18
6445.58178 8.97210e-18
6447.04899 8.46968e-18
6448.51621 8.56233e-18
6449.99361 8.54570e-18
6451.46083 8.47689e-18
6452.92805 8.60839e-18
6454.39526 8.33971e-18
6455.87267 8.24565e-18
6457.33988 8.29033e-18
6458.80710 8.72434e-18
6460.28450 8.73951e-18
6461.75172 8.19621e-18
6463.21894 8.39935e-18
6464.68615 8.47882e-18
6466.16356 8.57837e-18
6467.63077 8.56613e-18
6469.09799 8.37022e-18
6470.56521 8.65761e-18
6472.04261 8.77737e-18
6473.50983 9.31799e-18
6474.97704 8.89358e-18
6476.45445 8.10063e-18
6477.92166 8.26817e-18
6479.38888 8.36151e-18
6480.85610 8.69418e-18
6482.33350 8.26587e-18
6483.80072 8.09903e-18
6485.26793 8.53699e-18
6486.73515 8.60234e-18
6488.21255 8.60643e-18
6489.67977 8.54508e-18
6491.14699 8.54951e-18
6492.62439 8.75028e-18
6494.09161 8.55110e-18
6495.55882 8.58936e-18
6497.02604 8.81415e-18
6498.50344 8.80437e-18
6499.97066 8.80093e-18
6501.43788 8.76950e-18
6502.90509 8.85953e-18
6504.38250 8.94143e-18
6505.84971 9.18839e-18
6507.31693 9.27343e-18
6508.79433 8.69949e-18
6510.26155 8.47060e-18
6511.72877 8.87186e-18
6513.19598 8.74512e-18
6514.67339 8.54299e-18
6516.14060 8.71892e-18
6517.60782 8.94612e-18
6519.07503 9.18741e-18
6520.55244 8.96719e-18
6522.01966 8.52651e-18
6523.48687 8.48847e-18
6524.96428 8.29638e-18
6526.43149 8.63226e-18
6527.89871 9.17182e-18
6529.36592 8.72164e-18
6530.84333 8.90524e-18
6532.31055 9.33703e-18
6533.77776 9.04962e-18
6535.24498 8.87276e-18
6536.72238 8.69609e-18
6538.18960 8.53272e-18
6539.65682 8.70628e-18
6541.13422 8.74534e-18
6542.60144 8.54544e-18
6544.06865 8.76441e-18
6545.53587 9.03711e-18
6547.01327 8.71361e-18
6548.48049 8.56437e-18
6549.94770 8.71369e-18
6551.41492 8.39762e-18
6552.89233 8.27933e-18
6554.35954 9.12094e-18
6555.82676 9.19449e-18
6557.30416 8.44127e-18
6558.77138 8.78014e-18
6560.23859 8.81765e-18
6561.70581 8.23419e-18
6563.18322 8.33670e-18
6564.65043 8.31893e-18
6566.11765 7.97519e-18
6567.58486 8.04831e-18
6569.06227 8.31279e-18
6570.52948 8.32316e-18
6571.99670 7.99245e-18
6573.47411 7.88043e-18
6574.94132 8.43087e-18
6576.40854 8.95612e-18
6577.87575 8.81600e-18
6579.35316 8.26643e-18
6580.82037 7.75120e-18
6582.28759 7.78712e-18
6583.75481 7.79862e-18
6585.23221 7.89439e-18
6586.69943 7.82130e-18
6588.16664 7.85559e-18
6589.64405 8.07591e-18
6591.11126 7.76448e-18
6592.57848 7.82856e-18
6594.04570 7.99197e-18
6595.52310 7.84718e-18
6596.99032 7.98348e-18
6598.45753 7.89928e-18
6599.92475 7.77077e-18
6601.40215 7.51824e-18
6602.86937 6.89891e-18
6604.33659 7.31039e-18
6605.81399 7.76887e-18
6607.28121 7.39199e-18
6608.74842 7.26007e-18
6610.21564 7.48311e-18
6611.69304 7.52017e-18
6613.16026 7.51437e-18
6614.62748 7.36627e-18
6616.10488 6.60667e-18
6617.57210 6.56458e-18
6619.03931 7.37016e-18
6620.50653 7.49584e-18
6621.98393 7.27355e-18
6623.45115 7.02988e-18
6624.91837 6.63269e-18
6626.38558 7.21878e-18
6627.86299 7.39934e-18
6629.33020 7.03298e-18
6630.79742 7.18847e-18
6632.27482 7.28535e-18
6633.74204 7.25902e-18
6635.20926 7.16526e-18
6636.67647 6.77471e-18
6638.15388 6.54192e-18
6639.62109 6.66350e-18
6641.08831 7.22461e-18
6642.55553 7.56392e-18
6644.03293 7.04036e-18
6645.50015 7.12461e-18
6646.96736 7.19138e-18
6648.44477 6.64014e-18
6649.91198 6.75394e-18
6651.37920 7.22487e-18
6652.84642 7.01774e-18
6654.32382 6.50901e-18
6655.79104 6.34960e-18
6657.25825 6.90984e-18
6658.72547 7.17758e-18
6660.20287 6.48598e-18
6661.67009 6.26495e-18
6663.13731 6.64779e-18
6664.60452 6.03001e-18
6666.08193 5.97451e-18
6667.54914 6.67837e-18
6669.01636 6.65745e-18
6670.49376 6.80380e-18
6671.96098 6.57535e-18
6673.42820 5.94142e-18
6674.89541 6.42336e-18
6676.37282 6.94890e-18
6677.84003 6.53754e-18
6679.30725 5.58995e-18
6680.77446 5.86459e-18
6682.25187 6.09587e-18
6683.71909 6.47869e-18
6685.18630 6.90163e-18
6686.66371 6.57284e-18
6688.13092 6.71198e-18
6689.59814 6.94874e-18
6691.06535 6.98645e-18
6692.54276 7.21198e-18
6694.00998 7.54526e-18
6695.47719 7.36060e-18
6696.95460 7.19469e-18
6698.42181 7.54178e-18
6699.88903 7.28296e-18
6701.35624 6.99726e-18
6702.83365 7.35521e-18
6704.30087 7.69423e-18
6705.76808 7.60397e-18
6707.23530 7.46103e-18
6708.71270 7.19893e-18
6710.17992 7.44956e-18
6711.64713 7.98010e-18
6713.12454 7.94942e-18
6714.59176 7.54128e-18
6716.05897 7.74272e-18
6717.52619 7.78695e-18
6719.00359 7.53240e-18
6720.47081 7.90217e-18
6721.93802 8.26068e-18
6723.40524 8.47315e-18
6724.88265 8.28622e-18
6726.34986 8.01481e-18
6727.81708 8.45906e-18
6729.29448 8.32172e-18
6730.76170 8.41789e-18
6732.22891 8.99293e-18
6733.69613 8.99849e-18
6735.17354 8.82287e-18
6736.64075 8.68426e-18
6738.10797 8.35918e-18
6739.57518 7.86106e-18
6741.05259 8.00298e-18
6742.51980 8.34211e-18
6743.98702 8.48237e-18
6745.46443 8.97337e-18
6746.93164 9.23006e-18
6748.39886 9.28465e-18
6749.86607 9.25539e-18
6751.34348 8.94237e-18
6752.81069 9.01561e-18
6754.27791 9.21596e-18
6755.74513 9.09199e-18
6757.22253 9.08121e-18
6758.68975 9.02950e-18
6760.15696 8.81505e-18
6761.63437 8.66091e-18
6763.10158 8.81328e-18
6764.56880 8.74347e-18
6766.03602 8.52040e-18
6767.51342 8.62539e-18
6768.98064 8.98030e-18
6770.44785 9.50425e-18
6771.91507 9.44061e-18
6773.39247 8.87813e-18
6774.85969 8.94411e-18
6776.32691 9.08544e-18
6777.80431 8.87444e-18
6779.27153 8.98079e-18
6780.73874 9.18121e-18
6782.20596 8.78178e-18
6783.68336 8.36328e-18
6785.15058 8.74217e-18
6786.61780 8.91961e-18
6788.08501 8.60383e-18
6789.56242 8.61279e-18
6791.02963 8.62933e-18
6792.49685 8.78725e-18
6793.97425 8.90137e-18
6795.44147 8.79139e-18
6796.90869 8.92419e-18
6798.37590 8.87951e-18
6799.85331 8.71685e-18
6801.32052 8.87416e-18
6802.78774 9.17540e-18
6804.25496 8.87445e-18
6805.73236 8.41544e-18
6807.19958 8.50681e-18
6808.66679 8.84280e-18
6810.14420 8.74733e-18
6811.61141 8.34701e-18
6813.07863 8.40566e-18
6814.54585 8.73701e-18
6816.02325 8.60946e-18
6817.49047 8.61435e-18
6818.95768 8.54835e-18
6820.43509 8.32528e-18
6821.90230 8.38836e-18
6823.36952 8.76970e-18
6824.83674 9.20814e-18
6826.31414 8.73807e-18
6827.78136 8.19289e-18
6829.24857 8.55683e-18
6830.71579 9.08044e-18
6832.19319 8.49241e-18
6833.66041 7.98476e-18
6835.12763 8.22253e-18
6836.60503 7.83636e-18
6838.07225 7.52803e-18
6839.53946 7.87766e-18
6841.00668 7.97771e-18
6842.48408 7.84872e-18
6843.95130 7.77619e-18
6845.41852 7.77646e-18
6846.88573 7.77672e-18
6848.36314 7.77698e-18
6849.83035 7.77725e-18
6851.29757 7.77751e-18
6852.76478 7.77777e-18
6854.24219 7.77804e-18
6855.70941 7.77830e-18
6857.17662 7.77856e-18
6858.65403 7.77883e-18
6860.12124 7.77909e-18
6861.58846 7.77935e-18
6863.05567 7.77962e-18
6864.53308 7.77988e-18
6866.00030 7.78014e-18
6867.46751 7.78041e-18
6868.93473 7.78067e-18
6870.41213 7.78093e-18
6871.87935 7.78120e-18
6873.34656 7.78146e-18
6874.82397 7.78172e-18
6876.29119 7.78198e-18
6877.75840 7.78225e-18
6879.22562 7.78251e-18
6880.70302 7.78277e-18
6882.17024 7.78304e-18
6883.63745 7.78330e-18
6885.11486 7.78356e-18
6886.58208 7.78382e-18
6888.04929 7.78409e-18
6889.51651 7.78435e-18
6890.99391 7.78461e-18
6892.46113 7.78487e-18
6893.92834 7.78514e-18
6895.39556 7.78540e-18
6896.87297 7.78566e-18
6898.34018 7.78592e-18
6899.80740 7.78619e-18
6901.27461 7.78645e-18
6902.75202 7.78671e-18
6904.21923 7.78697e-18
6905.68645 7.78723e-18
6907.16386 7.78750e-18
6908.63107 7.78776e-18
6910.09829 7.78802e-18
6911.56550 7.78828e-18
6913.04291 7.78854e-18
6914.51012 7.78880e-18
6915.97734 7.78907e-18
6917.45475 7.78933e-18
6918.92196 7.78959e-18
6920.38918 7.78985e-18
6921.85639 7.79011e-18
6923.33380 7.79037e-18
6924.80102 7.79064e-18
6926.26823 7.79090e-18
6927.73545 7.79116e-18
6929.21285 7.79142e-18
6930.68007 7.79168e-18
6932.14728 7.79194e-18
6933.62469 7.79220e-18
6935.09190 7.79246e-18
6936.55912 7.89802e-18
6938.02634 7.36334e-18
6939.50374 7.44945e-18
6940.97096 7.42284e-18
6942.43817 7.58515e-18
6943.90539 7.67046e-18
6945.38279 6.93299e-18
6946.85001 6.93707e-18
6948.31723 7.27839e-18
6949.79463 7.23728e-18
6951.26185 7.14959e-18
6952.72906 7.19292e-18
6954.19628 7.65752e-18
6955.67368 7.57436e-18
6957.14090 6.92752e-18
6958.60812 6.81787e-18
6960.07533 7.23581e-18
6961.55274 7.57368e-18
6963.01995 7.63196e-18
6964.48717 7.49882e-18
6965.96457 6.92386e-18
6967.43179 6.60688e-18
6968.89901 7.26533e-18
6970.36622 7.52738e-18
6971.84363 7.55340e-18
6973.31084 6.99423e-18
6974.77806 6.77439e-18
6976.24528 7.67710e-18
6977.72268 7.39101e-18
6979.18990 7.47075e-18
6980.65711 7.51650e-18
6982.13452 6.82867e-18
6983.60173 7.05423e-18
6985.06895 6.95063e-18
6986.53617 6.62342e-18
6988.01357 7.04398e-18
6989.48079 7.38976e-18
6990.94800 6.92380e-18
6992.41522 7.04129e-18
6993.89262 7.39414e-18
6995.35984 6.89044e-18
6996.82706 7.16948e-18
6998.30446 8.04800e-18
6999.77168 7.81899e-18
7001.23889 7.47956e-18
7002.70611 7.40726e-18
7004.18351 7.21331e-18
7005.65073 7.04927e-18
7007.11795 6.92310e-18
7008.58516 6.69790e-18
7010.06257 7.03246e-18
7011.52978 7.33382e-18
7012.99700 6.86278e-18
7014.47440 6.33371e-18
7015.94162 6.45722e-18
7017.40884 6.84303e-18
7018.87605 7.20326e-18
7020.35346 6.73587e-18
7021.82067 6.42229e-18
7023.28789 6.66144e-18
7024.75510 6.50837e-18
7026.23251 6.38470e-18
7027.69973 6.44981e-18
7029.16694 6.26983e-18
7030.64435 6.13223e-18
7032.11156 6.18590e-18
7033.57878 6.26094e-18
7035.04599 6.35434e-18
7036.52340 6.62618e-18
7037.99062 6.56252e-18
7039.45783 6.95719e-18
7040.92505 7.50462e-18
7042.40245 6.79133e-18
7043.86967 6.39809e-18
7045.33688 6.61631e-18
7046.81429 6.33476e-18
7048.28151 6.14572e-18
7049.74872 6.27507e-18
7051.21594 6.36459e-18
7052.69334 6.01272e-18
7054.16056 5.62481e-18
7055.62777 5.95165e-18
7057.09499 6.34726e-18
7058.57240 6.33087e-18
7060.03961 6.49071e-18
7061.50683 6.85127e-18
7062.98423 6.77691e-18
7064.45145 6.42821e-18
7065.91867 6.61580e-18
7067.38588 6.89202e-18
7068.86329 6.72904e-18
7070.33050 6.07766e-18
7071.79772 5.43054e-18
7073.26493 5.86534e-18
7074.74234 6.88222e-18
7076.20955 7.22033e-18
7077.67677 7.00395e-18
7079.15418 7.06991e-18
7080.62139 6.82141e-18
7082.08861 6.42074e-18
7083.55582 6.74926e-18
7085.03323 7.02933e-18
7086.50044 7.02119e-18
7087.96766 7.06054e-18
7089.43488 6.93999e-18
7090.91228 6.80576e-18
7092.37950 6.71224e-18
7093.84671 7.20266e-18
7095.32412 7.81962e-18
7096.79133 7.04800e-18
7098.25855 6.22848e-18
7099.72577 6.91523e-18
7101.20317 7.69494e-18
7102.67039 7.61147e-18
7104.13760 7.39516e-18
7105.60482 7.35309e-18
7107.08222 7.34383e-18
7108.54944 7.49703e-18
7110.01666 7.38716e-18
7111.49406 7.36411e-18
7112.96128 7.79727e-18
7114.42849 7.61829e-18
7115.89571 7.45733e-18
7117.37311 7.64066e-18
7118.84033 7.88783e-18
7120.30755 7.77080e-18
7121.77476 7.62223e-18
7123.25217 7.82424e-18
7124.71938 7.88903e-18
7126.18660 7.69288e-18
7127.66400 7.40617e-18
7129.13122 7.86977e-18
7130.59844 7.71529e-18
7132.06565 7.08693e-18
7133.54306 7.29202e-18
7135.01027 7.20262e-18
7136.47749 7.45967e-18
7137.94471 7.98302e-18
7139.42211 8.13937e-18
7140.88933 7.88688e-18
7142.35654 7.43494e-18
7143.83395 7.69729e-18
7145.30116 8.27963e-18
7146.76838 8.11064e-18
7148.23560 7.24315e-18
7149.71300 7.12603e-18
7151.18022 7.89978e-18
7152.64743 8.16398e-18
7154.12484 7.85060e-18
7155.59205 7.84783e-18
7157.05927 8.15036e-18
7158.52649 7.77590e-18
7160.00389 7.65948e-18
7161.47111 8.02699e-18
7162.93832 7.79762e-18
7164.40554 7.60079e-18
7165.88294 7.67560e-18
7167.35016 7.74839e-18
7168.81738 7.84475e-18
7170.29478 8.16928e-18
7171.76200 8.59309e-18
7173.22921 8.60953e-18
7174.69643 8.18045e-18
7176.17383 7.77290e-18
7177.64105 7.74607e-18
7179.10827 8.04844e-18
7180.57548 8.44334e-18
7182.05289 8.23871e-18
7183.52010 7.97538e-18
7184.98732 8.69722e-18
7186.46472 8.25699e-18
7187.93194 7.83283e-18
7189.39916 8.13285e-18
7190.86637 7.81094e-18
7192.34378 7.83532e-18
7193.81099 8.30545e-18
7195.27821 8.10628e-18
7196.74542 7.24111e-18
7198.22283 7.40393e-18
7199.69005 8.18838e-18
7201.15726 7.98442e-18
7202.62448 7.81062e-18
7204.10188 7.98660e-18
7205.56910 7.84154e-18
7207.03631 7.21457e-18
7208.51372 7.41881e-18
7209.98094 7.96703e-18
7211.44815 7.29198e-18
7212.91537 6.87406e-18
7214.39277 8.04672e-18
7215.85999 8.21049e-18
7217.32720 7.91806e-18
7218.80461 7.57006e-18
7220.27183 7.18258e-18
7221.73904 7.02547e-18
7223.20626 7.36643e-18
7224.68366 7.31431e-18
7226.15088 7.05961e-18
7227.61809 6.92358e-18
7229.08531 7.41331e-18
7230.56272 7.52175e-18
7232.02993 7.01945e-18
7233.49715 6.88775e-18
7234.97455 7.03249e-18
7236.44177 8.02656e-18
7237.90898 8.01219e-18
7239.37620 7.91661e-18
7240.85361 7.88054e-18
7242.32082 7.92510e-18
7243.78804 7.45404e-18
7245.25525 7.66259e-18
7246.73266 7.16507e-18
7248.19987 7.19625e-18
7249.66709 7.21737e-18
7251.14450 7.20480e-18
7252.61171 7.35425e-18
7254.07893 6.58097e-18
7255.54614 6.56472e-18
7257.02355 6.61398e-18
7258.49076 6.35354e-18
7259.95798 6.32640e-18
7261.42520 6.67555e-18
7262.90260 6.55241e-18
7264.36982 6.76336e-18
7265.83703 6.58763e-18
7267.31444 6.48576e-18
7268.78165 6.08868e-18
7270.24887 6.64098e-18
7271.71609 7.27188e-18
7273.19349 6.64877e-18
7274.66071 6.50552e-18
7276.12792 6.64147e-18
7277.59514 7.67828e-18
7279.07254 7.32146e-18
7280.53976 6.31625e-18
7282.00698 6.25605e-18
7283.48438 6.13628e-18
7284.95160 6.08794e-18
7286.41881 6.26304e-18
7287.88603 5.98418e-18
7289.36343 6.80281e-18
7290.83065 7.31259e-18
7292.29787 6.76284e-18
7293.76508 6.37919e-18
7295.24249 6.91485e-18
7296.70970 7.06634e-18
7298.17692 6.72246e-18
7299.65432 6.31724e-18
7301.12154 6.64600e-18
7302.58876 6.88816e-18
7304.05597 7.28535e-18
7305.53338 7.22765e-18
7307.00059 6.18096e-18
7308.46781 6.19164e-18
7309.93503 7.07122e-18
7311.41243 7.05695e-18
7312.87965 7.25229e-18
7314.34686 7.21742e-18
7315.82427 7.03071e-18
7317.29148 7.43502e-18
7318.75870 6.99285e-18
7320.22592 6.39332e-18
7321.70332 6.65016e-18
7323.17054 6.83936e-18
7324.63775 6.28056e-18
7326.10497 6.23570e-18
7327.58237 6.43363e-18
7329.04959 6.74564e-18
7330.51681 7.40780e-18
7331.99421 7.07668e-18
7333.46143 6.60293e-18
7334.92864 6.37174e-18
7336.39586 6.79927e-18
7337.87326 7.12167e-18
7339.34048 7.72090e-18
7340.80770 8.99230e-18
7342.27491 7.88601e-18
7343.75232 7.66563e-18
7345.21953 9.30140e-18
7346.68675 8.33019e-18
7348.16415 6.89911e-18
7349.63137 7.00491e-18
7351.09859 6.94706e-18
7352.56580 6.27903e-18
7354.04321 6.90959e-18
7355.51042 7.03549e-18
7356.97764 6.96050e-18
7358.45504 7.60341e-18
7359.92226 6.97405e-18
7361.38948 7.06520e-18
7362.85669 7.27226e-18
7364.33410 6.48215e-18
7365.80131 6.39016e-18
7367.26853 7.02428e-18
7368.73574 6.91035e-18
7370.21315 6.92389e-18
7371.68037 7.32098e-18
7373.14758 7.17519e-18
7374.62499 6.94486e-18
7376.09220 6.82333e-18
7377.55942 6.72329e-18
7379.02663 6.53598e-18
7380.50404 6.76339e-18
7381.97126 6.83464e-18
7383.43847 6.86374e-18
7384.90569 6.53764e-18
7386.38309 6.92858e-18
7387.85031 6.91444e-18
7389.31752 6.50800e-18
7390.78474 6.57275e-18
7392.26215 6.14665e-18
7393.72936 6.57208e-18
7395.19658 6.61363e-18
7396.67398 7.06303e-18
7398.14120 6.67390e-18
7399.60841 6.58608e-18
7401.07563 6.64399e-18
7402.55304 6.74541e-18
7404.02025 7.21329e-18
7405.48747 6.58031e-18
7406.95468 6.51020e-18
7408.43209 6.85234e-18
7409.89930 6.45499e-18
7411.36652 5.76886e-18
7412.22211 5.76886e-18
7413.91970 6.08472e-18
7415.61729 6.35428e-18
7417.31488 6.81338e-18
7419.01247 7.28475e-18
7420.71005 7.03879e-18
7422.40764 6.03747e-18
7424.10523 5.35818e-18
7425.80282 5.55363e-18
7427.50041 6.10029e-18
7429.19800 6.54432e-18
7430.89558 6.75333e-18
7432.59317 6.71379e-18
7434.29076 6.65053e-18
7435.98835 6.75930e-18
7437.68594 7.02216e-18
7439.38352 7.35175e-18
7441.09116 7.64132e-18
7442.78874 7.76011e-18
7444.48633 7.42430e-18
7446.18392 6.51794e-18
7447.88151 5.71164e-18
7449.57910 5.71861e-18
7451.27669 6.29013e-18
7452.97427 6.79310e-18
7454.67186 6.80473e-18
7456.36945 6.12761e-18
7458.06704 5.14085e-18
7459.76463 4.53503e-18
7461.46221 4.48135e-18
7463.15980 4.74492e-18
7464.85739 5.22587e-18
7466.55498 5.90398e-18
7468.25257 6.57434e-18
7469.95015 6.90709e-18
7471.64774 6.80939e-18
7473.34533 6.45510e-18
7475.04292 6.11684e-18
7476.74051 6.18585e-18
7478.43809 6.62556e-18
7480.13568 6.71857e-18
7481.83327 6.23712e-18
7483.53086 5.87582e-18
7485.22845 6.03762e-18
7486.92604 6.43498e-18
7488.62362 6.79364e-18
7490.32121 7.03669e-18
7492.01880 7.08497e-18
7493.71639 6.76558e-18
7495.41398 6.08138e-18
7497.11156 5.54380e-18
7498.80915 5.57268e-18
7500.50674 5.95418e-18
7502.20433 6.34771e-18
7503.90192 6.59432e-18
7505.59950 6.65207e-18
7507.29709 6.79526e-18
7508.99468 7.29212e-18
7510.69227 7.78675e-18
7512.38986 7.72272e-18
7514.08745 6.92548e-18
7515.78503 5.54503e-18
7517.48262 4.34129e-18
7519.18021 4.32175e-18
7520.87780 5.23410e-18
7522.58543 5.86667e-18
7524.28302 5.93389e-18
7525.98061 5.99845e-18
7527.67819 6.22018e-18
7529.37578 6.37970e-18
7531.07337 6.38246e-18
7532.77096 6.24180e-18
7534.46855 6.04414e-18
7536.16614 5.99135e-18
7537.86372 6.14536e-18
7539.56131 6.32601e-18
7541.25890 6.41277e-18
7542.95649 6.43002e-18
7544.65408 6.40516e-18
7546.35166 6.36304e-18
7548.04925 6.30222e-18
7549.74684 6.12018e-18
7551.44443 6.11488e-18
7553.14202 6.10958e-18
7554.83960 6.10427e-18
7556.53719 6.09897e-18
7558.23478 6.09367e-18
7559.93237 6.08836e-18
7561.62996 6.08306e-18
7563.32754 6.07775e-18
7565.02513 6.07245e-18
7566.72272 6.06715e-18
7568.42031 6.06185e-18
7570.11790 6.05655e-18
7571.81549 6.05124e-18
7573.51307 6.04594e-18
7575.21066 6.04064e-18
7576.90825 6.03534e-18
7578.60584 6.03005e-18
7580.30343 6.02475e-18
7582.00101 6.01945e-18
7583.69860 6.01415e-18
7585.39619 6.00885e-18
7587.09378 6.00355e-18
7588.79137 5.99826e-18
7590.48895 5.99296e-18
7592.18654 5.98766e-18
7593.88413 5.98236e-18
7595.58172 5.97707e-18
7597.27931 5.97177e-18
7598.97689 5.96647e-18
7600.67448 5.96118e-18
7602.37207 5.95589e-18
7604.06966 5.95059e-18
7605.76725 5.94530e-18
7607.47488 5.94001e-18
7609.17247 5.93471e-18
7610.87006 5.92942e-18
7612.56764 5.92412e-18
7614.26523 5.91883e-18
7615.96282 5.91354e-18
7617.66041 5.90824e-18
7619.35800 5.90296e-18
7621.05559 5.89766e-18
7622.75317 5.89238e-18
7624.45076 5.88708e-18
7626.14835 5.88179e-18
7627.84594 5.87650e-18
7629.54353 5.87121e-18
7631.24111 5.86593e-18
7632.93870 5.86063e-18
7634.63629 5.85535e-18
7636.33388 5.85006e-18
7638.03147 5.84477e-18
7639.72905 5.83948e-18
7641.42664 5.83420e-18
7643.12423 5.82891e-18
7644.82182 5.82362e-18
7646.51941 5.81834e-18
7648.21699 5.81305e-18
7649.91458 5.80777e-18
7651.61217 5.80248e-18
7653.30976 5.79720e-18
7655.00735 5.79191e-18
7656.70494 5.78663e-18
7658.40252 5.78135e-18
7660.10011 5.77606e-18
7661.79770 5.77078e-18
7663.49529 5.76549e-18
7665.19288 5.76021e-18
7666.89046 5.75493e-18
7668.58805 5.74965e-18
7670.28564 5.74437e-18
7671.98323 5.73908e-18
7673.68082 5.73381e-18
7675.37840 5.72853e-18
7677.07599 5.72324e-18
7678.77358 5.71797e-18
7680.47117 5.71269e-18
7682.16876 5.71244e-18
7683.86634 5.64960e-18
7685.56393 5.54468e-18
7687.26152 5.42761e-18
7688.96915 5.36880e-18
7690.66674 5.44028e-18
7692.36433 5.59454e-18
7694.06192 5.69884e-18
7695.75951 5.68800e-18
7697.45709 5.56875e-18
7699.15468 5.38764e-18
7700.85227 5.23119e-18
7702.54986 5.22735e-18
7704.24745 5.53944e-18
7705.94504 6.08338e-18
7707.64262 6.44058e-18
7709.34021 6.43904e-18
7711.03780 6.33125e-18
7712.73539 6.23291e-18
7714.43298 5.94924e-18
7716.13056 5.46076e-18
7717.82815 5.16174e-18
7719.52574 5.22491e-18
7721.22333 5.16552e-18
7722.92092 4.72881e-18
7724.61850 4.55292e-18
7726.31609 5.10289e-18
7728.01368 5.86528e-18
7729.71127 6.27912e-18
7731.40886 6.44012e-18
7733.10644 6.54958e-18
7734.80403 6.39748e-18
7736.50162 5.80412e-18
7738.19921 5.28453e-18
7739.89680 5.44805e-18
7741.59439 5.99409e-18
7743.29197 6.26423e-18
7744.98956 6.25551e-18
7746.68715 6.31621e-18
7748.38474 6.49565e-18
7750.08233 6.65849e-18
7751.77991 6.71120e-18
7753.47750 6.59282e-18
7755.17509 6.41358e-18
7756.87268 6.43696e-18
7758.57027 6.74660e-18
7760.26785 7.22641e-18
7761.96544 7.57622e-18
7763.66303 7.26116e-18
7765.36062 6.36345e-18
7767.05821 5.89853e-18
7768.75579 6.25945e-18
7770.46343 6.70636e-18
7772.16102 6.75357e-18
7773.85860 6.54855e-18
7775.55619 6.24764e-18
7777.25378 5.90566e-18
7778.95137 5.61670e-18
7780.64896 5.57584e-18
7782.34654 5.85743e-18
7784.04413 6.19613e-18
7785.74172 6.33148e-18
7787.43931 6.23085e-18
7789.13690 5.97002e-18
7790.83448 5.81181e-18
7792.53207 5.97407e-18
7794.22966 6.13618e-18
7795.92725 5.92899e-18
7797.62484 5.85296e-18
7799.32243 6.58376e-18
7801.02001 7.63605e-18
7802.71760 8.02568e-18
7804.41519 7.61840e-18
7806.11278 6.85868e-18
7807.81037 6.21945e-18
7809.50795 6.15484e-18
7811.20554 6.49226e-18
7812.90313 6.48949e-18
7814.60072 6.13570e-18
7816.29831 6.17945e-18
7817.99589 6.66614e-18
7819.69348 6.81291e-18
7821.39107 6.45465e-18
7823.08866 6.28429e-18
7824.78625 6.52892e-18
7826.48384 6.64161e-18
7828.18142 6.36807e-18
7829.87901 6.05571e-18
7831.57660 5.88119e-18
7833.27419 5.54772e-18
7834.97178 4.96952e-18
7836.66936 4.65177e-18
7838.36695 4.94419e-18
7840.06454 5.65710e-18
7841.76213 6.43267e-18
7843.45972 6.68860e-18
7845.15730 6.08843e-18
7846.85489 5.25619e-18
7848.55248 4.93407e-18
7850.25007 5.15082e-18
7851.94766 5.66197e-18
7853.64524 6.31893e-18
7855.35288 6.96983e-18
7857.05047 7.31322e-18
7858.74805 7.08598e-18
7860.44564 6.51150e-18
7862.14323 6.06813e-18
7863.84082 5.80543e-18
7865.53841 5.47454e-18
7867.23599 5.13838e-18
7868.93358 5.08052e-18
7870.63117 5.17326e-18
7872.32876 4.93115e-18
7874.02635 4.42376e-18
7875.72393 4.32166e-18
7877.42152 4.83465e-18
7879.11911 5.59607e-18
7880.81670 6.12480e-18
7882.51429 5.73814e-18
7884.21188 4.54087e-18
7885.90946 4.04758e-18
7887.60705 4.94708e-18
7889.30464 6.11304e-18
7891.00223 6.65118e-18
7892.69982 6.57325e-18
7894.39740 6.08508e-18
7896.09499 5.62239e-18
7897.79258 5.50499e-18
7899.49017 5.48001e-18
7901.18776 5.30748e-18
7902.88534 5.27638e-18
7904.58293 5.64526e-18
7906.28052 6.13447e-18
7907.97811 6.35319e-18
7909.67570 6.08810e-18
7911.37328 5.32688e-18
7913.07087 4.57460e-18
7914.76846 4.45541e-18
7916.46605 4.99148e-18
7918.16364 5.80101e-18
7919.86123 6.25640e-18
7921.55881 5.71405e-18
7923.25640 4.57286e-18
7924.95399 4.01001e-18
7926.65158 4.39484e-18
7928.34917 5.31240e-18
7930.04675 6.24135e-18
7931.74434 6.54379e-18
7933.44193 6.16811e-18
7935.13952 5.84764e-18
7936.84715 5.83055e-18
7938.54474 5.61779e-18
7940.24233 5.12802e-18
7941.93992 4.96071e-18
7943.63750 5.40052e-18
7945.33509 6.16624e-18
7947.03268 6.84975e-18
7948.73027 6.84022e-18
7950.42786 5.92746e-18
7952.12544 4.89197e-18
7953.82303 4.41088e-18
7955.52062 4.42522e-18
7957.21821 4.72095e-18
7958.91580 5.08432e-18
7960.61338 5.35000e-18
7962.31097 5.65519e-18
7964.00856 6.12392e-18
7965.70615 6.39767e-18
7967.40374 6.09557e-18
7969.10133 5.44319e-18
7970.79891 4.88772e-18
7972.49650 4.60722e-18
7974.19409 4.60084e-18
7975.89168 4.71539e-18
7977.58927 4.71287e-18
7979.28685 4.58594e-18
7980.98444 4.49839e-18
7982.68203 4.44182e-18
7984.37962 4.27907e-18
7986.07721 3.99081e-18
7987.77479 3.66574e-18
7989.47238 3.47372e-18
7991.16997 3.66885e-18
7992.86756 4.22831e-18
7994.56515 4.76430e-18
7996.26273 5.01590e-18
7997.96032 4.94077e-18
7999.65791 4.60303e-18
8001.35550 4.24395e-18
8003.05309 3.99017e-18
8004.75068 3.66737e-18
8006.44826 3.20477e-18
8008.14585 2.85146e-18
8009.84344 2.76235e-18
8011.54103 2.73820e-18
8013.23862 2.62481e-18
8014.93620 2.59700e-18
8016.63379 2.80847e-18
8018.34143 3.11503e-18
8020.03901 3.33932e-18
8021.73660 3.50564e-18
8023.43419 3.67289e-18
8025.13178 3.73842e-18
8026.82937 3.58538e-18
8028.52695 3.32905e-18
8030.22454 3.15459e-18
8031.92213 2.97178e-18
8033.61972 2.57901e-18
8035.31731 2.10187e-18
8037.01489 1.85716e-18
8038.71248 1.87798e-18
8040.41007 1.97956e-18
8042.10766 2.13806e-18
8043.80525 2.46059e-18
8045.50283 2.94680e-18
8047.20042 3.49307e-18
8048.89801 3.92427e-18
8050.59560 3.98603e-18
8052.29319 3.59997e-18
8053.99078 2.94409e-18
8055.68836 2.22392e-18
8057.38595 1.62099e-18
8059.08354 1.35404e-18
8060.78113 1.75150e-18
8062.47872 2.75970e-18
8064.17630 3.53143e-18
8065.87389 3.50290e-18
8067.57148 3.02210e-18
8069.26907 2.52498e-18
8070.96666 2.20795e-18
8072.66424 2.18805e-18
8074.36183 2.51937e-18
8076.05942 3.11911e-18
8077.75701 3.56362e-18
8079.45460 3.47810e-18
8081.15218 3.08530e-18
8082.84977 2.77246e-18
8084.54736 2.53551e-18
8086.24495 2.23716e-18
8087.94254 1.96315e-18
8089.64013 1.88269e-18
8091.33771 2.05733e-18
8093.03530 2.45784e-18
8094.73289 2.92535e-18
8096.43048 3.21914e-18
8098.12807 3.25184e-18
8099.82565 3.08983e-18
8101.52324 2.83852e-18
8103.22083 2.64154e-18
8104.92846 2.51499e-18
8106.62605 2.30599e-18
8108.32364 2.05932e-18
8110.02123 2.09205e-18
8111.71882 2.43849e-18
8113.41640 2.71815e-18
8115.11399 2.62073e-18
8116.81158 1.93645e-18
8118.50917 8.57859e-19
8120.20676 4.04502e-19
8121.90434 1.07678e-18
8123.60193 1.97198e-18
8125.29952 2.34257e-18
8126.99711 2.41459e-18
8128.69470 2.48850e-18
8130.39228 2.56305e-18
8132.08987 2.59019e-18
8133.78746 2.53178e-18
8135.48505 2.36174e-18
8137.18264 2.07512e-18
8138.88023 1.71758e-18
8140.57781 1.53108e-18
8142.27540 1.73656e-18
8143.97299 2.11150e-18
8145.67058 2.26199e-18
8147.36817 2.08871e-18
8149.06575 1.70498e-18
8150.76334 1.36379e-18
8152.46093 1.38376e-18
8154.15852 1.74607e-18
8155.85611 2.14183e-18
8157.55369 2.45323e-18
8159.25128 2.74724e-18
8160.94887 2.99247e-18
8162.64646 3.06906e-18
8164.34405 2.99885e-18
8166.04163 2.97304e-18
8167.73922 3.01419e-18
8169.43681 2.89680e-18
8171.13440 2.50404e-18
8172.83199 1.90484e-18
8174.52958 1.23166e-18
8176.22716 6.91385e-19
8177.92475 4.60657e-19
8179.62234 6.64966e-19
8181.31993 1.24320e-18
8183.01752 1.74035e-18
8184.71510 1.80841e-18
8186.41269 1.52309e-18
8188.12032 1.12096e-18
8189.81791 1.07799e-18
8191.51550 1.67674e-18
8193.21309 2.31773e-18
8194.91068 2.31425e-18
8196.60827 1.73697e-18
8198.30585 9.84362e-19
8200.00344 5.51305e-19
8201.70103 8.33182e-19
8203.39862 1.44094e-18
8205.09621 1.64701e-18
8206.79379 1.56202e-18
8208.49138 1.78996e-18
8210.18897 2.35591e-18
8211.88656 2.86843e-18
8213.58415 3.08980e-18
8215.28173 2.91702e-18
8216.97932 2.49181e-18
8218.67691 2.22225e-18
8220.37450 2.18924e-18
8222.07209 2.06178e-18
8223.76967 1.75183e-18
8225.46726 1.51453e-18
8227.16485 1.44554e-18
8228.86244 1.37540e-18
8230.56003 1.27783e-18
8232.25762 1.41388e-18
8233.95520 1.86317e-18
8235.65279 2.29738e-18
8237.35038 2.49513e-18
8239.04797 2.60345e-18
8240.74556 2.73557e-18
8242.44314 2.75312e-18
8244.14073 2.56227e-18
8245.83832 2.31437e-18
8247.53591 2.16178e-18
8249.23350 2.10326e-18
8250.93108 2.07171e-18
8252.62867 1.86688e-18
8254.32626 1.35962e-18
8256.02385 9.54459e-19
8257.72144 1.13370e-18
8259.41903 1.66397e-18
8261.11661 1.99734e-18
8262.81420 1.93387e-18
8264.51179 1.53565e-18
8266.20938 1.13268e-18
8267.91701 1.20213e-18
8269.60455 1.67479e-18
8271.30214 2.01934e-18
8273.00977 2.01371e-18
8274.70736 1.74841e-18
8276.40495 1.39252e-18
8278.10254 1.21850e-18
8279.80013 1.32525e-18
8281.49772 1.55554e-18
8283.19530 1.81675e-18
8284.89289 2.13644e-18
8286.59048 2.46848e-18
8288.28807 2.64805e-18
8289.98566 2.61277e-18
8291.68324 2.49564e-18
8293.38083 2.41778e-18
8295.07842 2.42695e-18
8296.77601 2.52473e-18
8298.47360 2.62818e-18
8300.17118 2.65710e-18
8301.86877 2.59326e-18
8303.56636 2.44413e-18
8305.26395 2.24562e-18
8306.96154 2.03441e-18
8308.65912 1.80784e-18
8310.35671 1.56131e-18
8312.05430 1.30201e-18
8313.75189 1.06605e-18
8315.44948 1.02725e-18
8317.14707 1.35305e-18
8318.84465 1.88186e-18
8320.54224 2.29308e-18
8322.23983 2.48035e-18
8323.93742 2.50190e-18
8325.63501 2.48748e-18
8327.33259 2.61214e-18
8329.03018 2.84666e-18
8330.72777 2.97054e-18
8332.42536 2.87347e-18
8334.12295 2.56552e-18
8335.82053 2.18716e-18
8337.51812 2.04505e-18
8339.21571 2.14996e-18
8340.91330 2.07774e-18
8342.61089 1.71405e-18
8344.30847 1.45538e-18
8346.00606 1.57065e-18
8347.70365 2.08139e-18
8349.40124 2.83290e-18
8351.09883 3.34654e-18
8352.79642 3.33163e-18
8354.50405 3.02245e-18
8356.20164 2.70662e-18
8357.89922 2.55417e-18
8359.59681 2.64611e-18
8361.29440 2.89423e-18
8362.99199 3.14295e-18
8364.68958 3.19246e-18
8366.38717 2.91749e-18
8368.08475 2.49055e-18
8369.78234 2.16605e-18
8371.47993 1.97666e-18
8373.17752 1.88183e-18
8374.87511 2.05222e-18
8376.57269 2.67697e-18
8378.27028 3.51277e-18
8379.96787 4.09126e-18
8381.66546 4.30938e-18
8383.36305 4.33405e-18
8385.06063 4.20007e-18
8386.75822 3.85794e-18
8388.45581 3.25124e-18
8390.15340 2.30860e-18
8391.85099 1.42442e-18
8393.54857 1.49752e-18
8395.24616 2.57900e-18
8396.94375 3.60848e-18
8398.64134 3.95960e-18
8400.33893 3.71166e-18
8402.03652 3.12577e-18
8403.73410 2.75506e-18
8405.43169 2.84930e-18
8407.12928 2.94948e-18
8408.82687 2.75618e-18
8410.52446 2.50242e-18
8412.22204 2.40823e-18
8413.91963 2.50462e-18
8415.61722 2.75748e-18
8417.31481 3.03258e-18
8419.01240 3.20958e-18
8420.70998 3.32770e-18
8422.40757 3.44267e-18
8424.10516 3.44619e-18
8425.80275 3.25286e-18
8427.50034 3.10954e-18
8429.19792 3.29332e-18
8430.89551 3.59385e-18
8432.59310 3.63425e-18
8434.29069 3.45215e-18
8435.99832 3.30736e-18
8437.69591 3.31969e-18
8439.39350 3.49631e-18
8441.09109 3.63881e-18
8442.77863 3.41281e-18
8444.48626 2.92160e-18
8446.18385 2.66639e-18
8447.88144 2.84877e-18
8449.57903 3.33828e-18
8451.27662 3.92051e-18
8452.97420 4.27234e-18
8454.67179 4.27690e-18
8456.36938 4.14757e-18
8458.06697 3.98606e-18
8459.76456 3.67569e-18
8461.46214 3.19798e-18
8463.15973 2.69671e-18
8464.85732 2.34076e-18
8466.55491 2.34381e-18
8468.25250 2.76312e-18
8469.95008 3.31797e-18
8471.64767 3.72207e-18
8473.34526 3.81731e-18
8475.04285 3.58956e-18
8476.74044 3.35054e-18
8478.43802 3.38445e-18
8480.13561 3.58705e-18
8481.83320 3.74571e-18
8483.53079 3.71565e-18
8485.22838 3.44338e-18
8486.92597 3.15484e-18
8488.62355 3.14878e-18
8490.32114 3.38543e-18
8492.01873 3.65585e-18
8493.71632 3.96637e-18
8495.41391 4.42325e-18
8497.11149 4.90290e-18
8498.80908 5.14480e-18
8500.50667 5.05263e-18
8502.20426 4.68909e-18
8503.90185 4.29402e-18
8505.59943 4.26889e-18
8507.29702 4.66417e-18
8508.99461 5.10305e-18
8510.69220 5.37709e-18
8512.38979 5.53317e-18
8514.08737 5.52537e-18
8515.78496 5.16614e-18
8517.49260 4.47938e-18
8519.19018 3.81645e-18
8520.87773 3.47962e-18
8522.58536 3.66244e-18
8524.27290 4.29235e-18
8525.98054 4.73571e-18
8527.67812 4.57949e-18
8529.37571 4.17760e-18
8531.07330 3.93025e-18
8532.77089 3.94988e-18
8534.46848 4.20415e-18
8536.16606 4.38284e-18
8537.86365 4.22075e-18
8539.56124 3.96072e-18
8541.25883 3.93466e-18
8542.95642 4.07048e-18
8544.65401 4.15313e-18
8546.35159 4.11021e-18
8548.04918 3.95492e-18
8549.74677 3.77363e-18
8551.44436 3.69594e-18
8553.14195 3.77968e-18
8554.83953 4.01206e-18
8556.53712 4.34909e-18
8558.23471 4.71462e-18
8559.93230 4.96618e-18
8561.62989 4.92314e-18
8563.32747 4.65849e-18
8565.02506 4.51933e-18
8566.72265 4.62860e-18
8568.42024 4.81272e-18
8570.11783 4.97630e-18
8571.81542 5.14276e-18
8573.51300 5.30044e-18
8575.21059 5.40217e-18
8576.90818 5.38198e-18
8578.60577 5.11392e-18
8580.30336 4.61312e-18
8582.00094 4.19946e-18
8583.69853 4.08765e-18
8585.39612 4.14063e-18
8587.09371 4.21209e-18
8588.79130 4.30328e-18
8590.48888 4.43662e-18
8592.18647 4.66470e-18
8593.88406 4.97768e-18
8595.58165 5.09119e-18
8597.27924 4.76447e-18
8598.97682 4.20762e-18
8600.67441 3.77716e-18
8602.37200 3.68141e-18
8604.07963 3.98288e-18
8605.76718 4.41476e-18
8607.47481 4.58068e-18
8609.17240 4.53507e-18
8610.86999 4.60792e-18
8612.56757 4.79747e-18
8614.26516 4.87618e-18
8615.96275 4.78354e-18
8617.66034 4.60095e-18
8619.35793 4.59598e-18
8621.05551 5.20255e-18
8622.75310 6.37707e-18
8624.45069 7.52362e-18
8626.14828 8.06165e-18
8627.84587 7.45594e-18
8629.54346 5.81792e-18
8631.24104 4.24293e-18
8632.93863 3.46467e-18
8634.63622 3.46156e-18
8636.33381 3.95022e-18
8638.03140 4.23169e-18
8639.72898 3.94969e-18
8641.42657 3.71644e-18
8643.12416 4.00532e-18
8644.82175 4.55816e-18
8646.51934 5.01808e-18
8648.21692 5.12195e-18
8649.91451 4.76580e-18
8651.61210 4.26930e-18
8653.30969 4.01152e-18
8655.00728 4.06627e-18
8656.70486 4.36175e-18
8658.40245 4.77196e-18
8660.10004 5.14329e-18
8661.79763 5.39515e-18
8663.49522 5.49809e-18
8665.19281 5.37129e-18
8666.89039 4.95233e-18
8668.58798 4.43152e-18
8670.28557 4.14784e-18
8671.98316 4.16165e-18
8673.68075 4.29315e-18
8675.37833 4.46772e-18
8677.07592 4.70418e-18
8678.77351 5.00023e-18
8680.47110 5.34619e-18
8682.16869 5.67399e-18
8683.86627 5.84527e-18
8685.56386 5.76916e-18
8687.26145 5.41806e-18
8688.96908 4.89461e-18
8690.66667 4.49813e-18
8692.36426 4.41421e-18
8694.06185 4.59291e-18
8695.75944 4.90750e-18
8697.45702 5.14396e-18
8699.15461 5.15281e-18
8700.85220 4.96665e-18
8702.54979 4.68839e-18
8704.24738 4.47659e-18
8705.94496 4.46116e-18
8707.64255 4.69540e-18
8709.34014 5.12146e-18
8711.03773 5.36521e-18
8712.73532 5.11817e-18
8714.43291 4.75313e-18
8716.13049 4.78285e-18
8717.82808 5.05677e-18
8719.52567 5.16765e-18
8721.22326 5.07202e-18
8722.92085 4.92915e-18
8724.61843 4.91656e-18
8726.31602 5.19490e-18
8728.01361 5.56684e-18
8729.71120 5.58345e-18
8731.40879 5.28220e-18
8733.10637 5.13041e-18
8734.80396 5.25776e-18
8736.50155 5.44626e-18
8738.19914 5.54114e-18
8739.89673 5.45139e-18
8741.59431 5.18387e-18
8743.29190 4.89553e-18
8744.98949 4.69700e-18
8746.68708 4.60819e-18
8748.38467 4.60312e-18
8750.08226 4.58734e-18
8751.77984 4.49811e-18
8753.47743 4.32337e-18
8755.17502 4.15951e-18
8756.87261 4.36014e-18
8758.57020 5.08399e-18
8760.26778 5.92823e-18
8761.96537 6.46751e-18
8763.66296 6.53102e-18
8765.36055 6.12509e-18
8767.05814 5.61657e-18
8768.75572 5.34332e-18
8770.45331 5.04036e-18
8772.16095 4.35227e-18
8773.85853 3.45066e-18
8775.55612 2.73354e-18
8777.25371 2.63204e-18
8778.95130 3.43043e-18
8780.64889 4.54814e-18
8782.34647 4.97493e-18
8784.04406 4.71054e-18
8785.74165 4.48593e-18
8787.43924 4.47466e-18
8789.13683 4.40591e-18
8790.83441 4.25137e-18
8792.53200 4.16643e-18
8794.22959 4.17901e-18
8795.92718 4.20299e-18
8797.62477 4.12515e-18
8799.32236 3.78416e-18
8801.01994 3.26938e-18
8802.71753 3.05802e-18
8804.41512 3.30198e-18
8806.11271 3.56463e-18
8807.81030 3.56563e-18
8809.50788 3.40727e-18
8811.20547 3.21510e-18
8812.90306 3.09871e-18
8814.60065 3.10050e-18
8816.29824 3.07012e-18
8817.99582 2.90452e-18
8819.69341 2.72965e-18
8821.39100 2.68924e-18
8823.08859 2.82976e-18
8824.78618 3.13235e-18
8826.48376 3.47592e-18
8828.18135 3.72221e-18
8829.87894 3.80846e-18
8831.57653 3.73700e-18
8833.27412 3.62319e-18
8834.97171 3.60965e-18
8836.66929 3.64941e-18
8838.36688 3.60027e-18
8840.06447 3.51327e-18
8841.76206 3.54422e-18
8843.45965 3.59558e-18
8845.15723 3.40342e-18
8846.85482 3.00815e-18
8848.55241 2.72073e-18
8850.25000 2.73827e-18
8851.94759 3.13034e-18
8853.65522 3.78929e-18
8855.34276 4.37510e-18
8857.05040 4.78033e-18
8858.74798 5.26978e-18
8860.44557 5.83073e-18
8862.14316 5.98052e-18
8863.84075 5.52952e-18
8865.53834 4.82235e-18
8867.23592 4.21069e-18
8868.93351 3.99162e-18
8870.63110 4.21267e-18
8872.32869 4.32150e-18
8874.02628 3.97061e-18
8875.72386 3.62527e-18
8877.42145 3.74875e-18
8879.11904 4.34850e-18
8880.81663 5.22073e-18
8882.51422 5.87326e-18
8884.21181 5.88774e-18
8885.90939 5.48073e-18
8887.60698 5.07272e-18
8889.30457 4.70754e-18
8891.00216 4.31531e-18
8892.69975 4.18862e-18
8894.39733 4.67757e-18
8896.09492 5.47949e-18
8897.79251 5.93166e-18
8899.49010 5.92959e-18
8901.18769 5.78638e-18
8902.88527 5.39781e-18
8904.58286 4.37105e-18
8906.28045 3.19649e-18
8907.97804 3.16111e-18
8909.67563 4.27647e-18
8911.37321 5.10479e-18
8913.07080 4.89933e-18
8914.76839 3.83752e-18
8916.46598 2.44014e-18
8918.16357 1.77476e-18
8919.86116 2.16947e-18
8921.55874 2.53906e-18
8923.25633 2.27373e-18
8924.95392 1.93512e-18
8926.65151 1.97858e-18
8928.34910 2.40674e-18
8930.04668 3.06818e-18
8931.74427 3.54797e-18
8933.44186 3.56185e-18
8935.14949 3.35268e-18
8936.83704 3.21966e-18
8938.53462 3.19495e-18
8940.24226 3.23972e-18
8941.93985 3.29427e-18
8943.63743 3.33345e-18
8945.33502 3.61746e-18
8947.03261 4.38251e-18
8948.73020 5.19217e-18
8950.42779 5.39973e-18
8952.12537 5.12154e-18
8953.82296 4.88506e-18
8955.52055 4.71283e-18
8957.21814 4.31916e-18
8958.91573 3.74371e-18
8960.61331 3.25488e-18
8962.31090 2.99899e-18
8964.00849 3.00741e-18
8965.70608 3.21682e-18
8967.40367 3.46108e-18
8969.10125 3.54499e-18
8970.79884 3.24410e-18
8972.49643 2.70274e-18
8974.19402 2.60188e-18
8975.89161 3.15255e-18
8977.58920 3.74829e-18
8979.28678 4.00488e-18
8980.98437 4.09285e-18
8982.68196 4.08004e-18
8984.37955 3.63746e-18
8986.07714 2.77666e-18
8987.77472 2.43157e-18
8989.47231 3.18226e-18
8991.16990 4.27840e-18
8992.86749 4.95000e-18
8994.56508 5.32442e-18
8996.26266 5.65553e-18
8997.96025 5.78386e-18
8999.65784 5.52377e-18
9001.35543 4.97437e-18
9003.05302 4.33694e-18
9004.75061 3.79334e-18
9006.44819 3.46397e-18
9008.14578 3.22517e-18
9009.84337 2.84994e-18
9011.54096 2.35567e-18
9013.23855 1.93311e-18
9014.93613 1.78376e-18
9016.63372 2.08755e-18
9018.33131 2.79183e-18
9020.02890 3.61520e-18
9021.72649 4.31079e-18
9023.43412 4.69955e-18
9025.13171 4.58698e-18
9026.82930 3.77112e-18
9028.52688 2.59063e-18
9030.22447 2.09152e-18
9031.92206 2.61155e-18
9033.61965 3.34448e-18
9035.31724 3.77134e-18
9037.01482 4.01323e-18
9038.71241 4.16725e-18
9040.41000 4.22283e-18
9042.10759 4.16961e-18
9043.80518 3.95511e-18
9045.50276 3.58157e-18
9047.20035 3.23278e-18
9048.89794 3.02030e-18
9050.59553 2.69988e-18
9052.29312 2.11346e-18
9053.99070 1.66105e-18
9055.68829 1.74284e-18
9057.38588 2.22081e-18
9059.08347 2.75201e-18
9060.78106 3.03176e-18
9062.47865 2.85950e-18
9064.17623 2.29517e-18
9065.87382 1.60492e-18
9067.57141 1.38715e-18
9069.26900 2.24279e-18
9070.96659 3.52216e-18
9072.66417 3.80080e-18
9074.36176 3.04343e-18
9076.05935 2.36201e-18
9077.75694 2.21920e-18
9079.45453 2.46473e-18
9081.15211 2.93574e-18
9082.84970 3.40535e-18
9084.54729 3.56408e-18
9086.24488 3.03677e-18
9087.94247 2.01753e-18
9089.64005 1.51502e-18
9091.33764 2.00579e-18
9093.03523 3.04387e-18
9094.73282 4.10398e-18
9096.43041 4.62610e-18
9098.12800 4.41701e-18
9099.82558 4.08223e-18
9101.52317 4.12792e-18
9103.22076 4.54389e-18
9104.92839 5.14189e-18
9106.62598 5.50474e-18
9108.32357 5.34226e-18
9110.01111 4.92633e-18
9111.71875 4.60699e-18
9113.41633 4.42269e-18
9115.11392 4.29351e-18
9116.81151 4.06668e-18
9118.50910 3.63063e-18
9120.20669 3.22391e-18
9121.90427 3.18094e-18
9123.60186 3.46538e-18
9125.29945 3.81873e-18
9126.99704 3.95740e-18
9128.69463 3.64545e-18
9130.39221 3.19418e-18
9132.08980 3.29672e-18
9133.78739 3.84197e-18
9135.48498 4.01277e-18
9137.18257 3.76720e-18
9138.88015 3.84709e-18
9140.57774 4.35107e-18
9142.27533 4.63521e-18
9143.97292 4.49466e-18
9145.67051 4.30079e-18
9147.36810 4.31559e-18
9149.06568 4.65305e-18
9150.76327 5.16453e-18
9152.46086 5.21083e-18
9154.15845 4.51316e-18
9155.85604 3.64636e-18
9157.55362 3.00432e-18
9159.25121 2.21518e-18
9160.94880 1.15852e-18
9162.64639 6.90046e-19
9164.34398 1.38040e-18
9166.04156 2.58997e-18
9167.73915 3.47794e-18
9169.43674 3.48372e-18
9171.13433 2.46846e-18
9172.83192 1.42924e-18
9174.52950 1.47051e-18
9176.22709 2.29201e-18
9177.92468 3.02199e-18
9179.62227 3.28762e-18
9181.31986 3.06679e-18
9183.01745 2.82241e-18
9184.71503 3.24310e-18
9186.42267 4.14310e-18
9188.11021 4.71821e-18
9189.81784 4.69426e-18
9191.50539 4.26081e-18
9193.21302 3.86490e-18
9194.91061 4.20502e-18
9196.60820 5.12387e-18
9198.30578 5.47758e-18
9200.00337 4.94828e-18
9201.70096 4.29862e-18
9203.39855 4.01613e-18
9205.09614 4.18981e-18
9206.79372 4.62643e-18
9208.49131 4.62045e-18
9210.18890 3.92617e-18
9211.88649 3.29179e-18
9213.58408 3.21329e-18
9215.28166 3.35944e-18
9216.97925 3.48866e-18
9218.67684 3.95802e-18
9220.37443 4.87104e-18
9222.07202 5.37871e-18
9223.76960 4.81965e-18
9225.46719 3.63906e-18
9227.16478 2.55581e-18
9228.86237 2.11469e-18
9230.55996 2.56729e-18
9232.25755 3.30585e-18
9233.95513 3.54180e-18
9235.65272 3.43034e-18
9237.35031 3.55294e-18
9239.04790 4.11858e-18
9240.74549 5.06713e-18
9242.44307 6.06727e-18
9244.14066 6.60957e-18
9245.83825 6.49701e-18
9247.53584 5.83929e-18
9249.23343 4.86038e-18
9250.93101 3.89615e-18
9252.62860 3.20396e-18
9254.32619 2.90480e-18
9256.02378 3.05059e-18
9257.72137 3.62171e-18
9259.41895 4.30926e-18
9261.11654 4.42553e-18
9262.81413 3.80349e-18
9264.51172 3.11730e-18
9266.20931 2.83348e-18
9267.91694 2.96527e-18
9269.60448 3.33036e-18
9271.31212 3.38024e-18
9272.99966 2.88020e-18
9274.70729 2.46283e-18
9276.40488 2.60920e-18
9278.10247 3.06043e-18
9279.80006 3.44306e-18
9281.49764 3.45616e-18
9283.19523 3.00743e-18
9284.89282 2.66507e-18
9286.59041 2.97653e-18
9288.28800 3.53222e-18
9289.98559 3.71959e-18
9291.68317 3.82301e-18
9293.38076 4.35922e-18
9295.07835 4.80083e-18
9296.77594 4.30587e-18
9298.47353 3.58617e-18
9300.17111 4.09970e-18
9301.86870 5.37184e-18
9303.56629 5.63281e-18
9305.26388 4.75563e-18
9306.96147 3.97176e-18
9308.65905 3.74194e-18
9310.35664 3.82710e-18
9312.05423 3.89895e-18
9313.75182 3.43324e-18
9315.44941 2.76176e-18
9317.14700 3.40019e-18
9318.84458 5.52718e-18
9320.54217 7.33188e-18
9322.23976 7.53295e-18
9323.93735 5.82327e-18
9325.63494 2.71746e-18
9327.33252 1.94069e-19
9329.03011 -5.96449e-19
9330.72770 -7.88587e-19
9332.42529 -1.32669e-18
9334.12288 -1.80406e-18
9335.82046 -1.68574e-18
9337.51805 -6.61049e-19
9339.21564 1.29261e-18
9340.91323 3.54027e-18
9342.61082 5.33179e-18
9344.30840 6.30351e-18
9346.00599 6.35536e-18
9347.70358 5.57914e-18
9349.41121 4.28330e-18
9351.09876 3.16223e-18
9352.80639 2.91477e-18
9354.49393 3.44508e-18
9356.20157 4.13755e-18
9357.89915 4.48488e-18
9359.59674 4.13310e-18
9361.29433 3.25697e-18
9362.99192 2.48769e-18
9364.68951 1.94099e-18
9366.38709 1.24731e-18
9368.08468 5.18977e-19
9369.78227 3.27390e-19
9371.47986 9.39240e-19
9373.17745 2.30365e-18
9374.87504 3.79883e-18
9376.57262 3.96732e-18
9378.27021 2.59527e-18
9379.96780 1.53391e-18
9381.66539 1.86156e-18
9383.36298 3.02521e-18
9385.06056 4.30553e-18
9386.75815 4.87719e-18
9388.45574 4.46941e-18
9390.15333 4.28516e-18
9391.85092 5.12623e-18
9393.54850 5.96550e-18
9395.24609 5.87413e-18
9396.94368 5.39128e-18
9398.64127 5.22667e-18
9400.33886 5.43350e-18
9402.03644 5.77006e-18
9403.73403 5.62703e-18
9405.43162 4.51287e-18
9407.12921 2.96715e-18
9408.82680 1.95951e-18
9410.52439 2.05666e-18
9412.22197 3.38601e-18
9413.91956 5.22770e-18
9415.61715 6.35728e-18
9417.31474 6.22048e-18
9419.01233 4.91913e-18
9420.70991 3.23235e-18
9422.40750 2.49801e-18
9424.10509 2.73077e-18
9425.80268 2.54692e-18
9427.50027 1.78161e-18
9429.19785 1.70163e-18
9430.89544 2.51960e-18
9432.59303 3.05353e-18
9434.29062 2.94794e-18
9435.98821 3.13702e-18
9437.69584 4.02479e-18
9439.39343 5.07069e-18
9441.09102 5.73094e-18
9442.78860 5.51095e-18
9444.48619 4.38900e-18
9446.18378 3.35954e-18
9447.88137 3.17267e-18
9449.57896 3.59447e-18
9451.27654 4.16702e-18
9452.97413 4.41589e-18
9454.67172 4.06268e-18
9456.36931 3.38746e-18
9458.06690 2.85872e-18
9459.76449 2.98231e-18
9461.46207 4.00703e-18
9463.15966 5.20186e-18
9464.85725 5.60311e-18
9466.55484 5.29671e-18
9468.25243 4.88979e-18
9469.95001 4.58199e-18
9471.64760 4.32127e-18
9473.34519 3.95145e-18
9475.04278 3.25490e-18
9476.74037 2.29651e-18
9478.43795 1.39761e-18
9480.13554 1.19766e-18
9481.83313 2.56476e-18
9483.53072 4.95619e-18
9485.22831 6.29787e-18
9486.92589 5.95510e-18
9488.62348 5.15761e-18
9490.32107 4.62701e-18
9492.01866 4.31812e-18
9493.71625 4.11829e-18
9495.41384 3.72160e-18
9497.11142 3.13726e-18
9498.80901 3.08887e-18
9500.50660 3.85264e-18
9502.20419 4.60667e-18
9503.90178 4.77928e-18
9505.59936 4.80617e-18
9507.29695 5.01784e-18
9508.99454 4.94842e-18
9510.69213 4.22874e-18
9512.38972 3.26731e-18
9514.08730 2.54759e-18
9515.78489 1.93235e-18
9517.48248 1.26500e-18
9519.19011 1.28867e-18
9520.88770 2.68281e-18
9522.58529 4.38343e-18
9524.28288 4.81896e-18
9525.98047 4.16309e-18
9527.67805 3.55405e-18
9529.37564 3.54402e-18
9531.07323 4.23429e-18
9532.77082 5.22047e-18
9534.46841 5.68370e-18
9536.16599 5.42523e-18
9537.86358 4.85148e-18
9539.56117 4.31239e-18
9541.25876 4.10524e-18
9542.95635 4.19611e-18
9544.65394 4.12523e-18
9546.35152 3.66678e-18
9548.04911 2.93651e-18
9549.74670 2.15014e-18
9551.44429 1.61990e-18
9553.14188 1.64664e-18
9554.83946 2.60126e-18
9556.53705 4.21173e-18
9558.23464 4.84127e-18
9559.93223 3.78817e-18
9561.62982 2.86674e-18
9563.32740 3.37445e-18
9565.02499 4.27324e-18
9566.72258 4.45672e-18
9568.42017 3.93228e-18
9570.11776 3.07675e-18
9571.81534 2.50084e-18
9573.51293 2.74186e-18
9575.21052 3.80182e-18
9576.90811 5.34823e-18
9578.60570 6.81514e-18
9580.30329 7.61394e-18
9582.00087 7.53166e-18
9583.69846 6.67373e-18
9585.39605 5.35609e-18
9587.09364 4.03498e-18
9588.79123 3.12177e-18
9590.48881 2.90010e-18
9592.18640 3.14211e-18
9593.88399 3.19951e-18
9595.58158 3.16966e-18
9597.27917 3.86856e-18
9598.97675 5.10225e-18
9600.67434 5.58271e-18
9602.38198 5.03204e-18
9604.07956 4.45488e-18
9605.76711 4.35202e-18
9607.47474 4.46743e-18
9609.17233 4.54478e-18
9610.86992 4.33387e-18
9612.56750 3.77743e-18
9614.26509 3.18885e-18
9615.96268 2.86537e-18
9617.66027 3.00517e-18
9619.35786 3.57236e-18
9621.05544 4.07119e-18
9622.75303 4.06930e-18
9624.45062 3.45452e-18
9626.14821 2.42184e-18
9627.84580 1.77586e-18
9629.54339 2.19298e-18
9631.24097 3.40642e-18
9632.93856 4.78382e-18
9634.63615 5.77423e-18
9636.33374 5.99242e-18
9638.03133 5.52991e-18
9639.72891 4.77420e-18
9641.42650 4.08742e-18
9643.12409 3.75278e-18
9644.82168 3.71821e-18
9646.51927 3.69654e-18
9648.21685 3.68648e-18
9649.91444 3.89327e-18
9651.61203 4.45398e-18
9653.30962 5.44832e-18
9655.00721 6.22288e-18
9656.70479 5.38822e-18
9658.40238 3.31044e-18
9660.09997 2.44115e-18
9661.79756 3.78505e-18
9663.49515 6.34488e-18
9665.19274 8.87661e-18
9666.89032 9.83172e-18
9668.58791 8.72821e-18
9670.28550 7.05907e-18
9671.98309 6.01096e-18
9673.68068 5.71132e-18
9675.37826 5.93228e-18
9677.07585 5.98989e-18
9678.77344 5.33127e-18
9680.47103 3.91535e-18
9682.16862 2.07190e-18
9683.86620 7.82515e-19
9685.56379 7.92846e-19
9687.26138 1.65277e-18
9688.96901 2.54335e-18
9690.66660 2.82927e-18
9692.36419 2.20681e-18
9694.06178 1.37880e-18
9695.75937 1.31762e-18
9697.45695 1.81492e-18
9699.15454 2.07100e-18
9700.85213 1.86432e-18
9702.54972 1.36639e-18
9704.24731 9.52045e-19
9705.94489 1.12620e-18
9707.64248 1.80463e-18
9709.34007 2.38220e-18
9711.03766 2.57776e-18
9712.73525 2.43879e-18
9714.43283 2.20009e-18
9716.13042 2.32912e-18
9717.82801 2.86175e-18
9719.52560 3.25679e-18
9721.22319 3.19077e-18
9722.92078 2.65778e-18
9724.61836 1.92522e-18
9726.31595 1.71805e-18
9728.01354 2.32394e-18
9729.71113 3.13882e-18
9731.40872 3.64671e-18
9733.10630 3.72819e-18
9734.80389 3.47351e-18
9736.50148 3.34204e-18
9738.19907 3.64260e-18
9739.89666 4.11578e-18
9741.59424 4.37671e-18
9743.29183 3.99230e-18
9744.98942 2.83314e-18
9746.68701 1.89039e-18
9748.38460 2.13308e-18
9750.08219 2.86391e-18
9751.77977 2.89443e-18
9753.47736 2.09636e-18
9755.17495 9.77845e-19
9756.87254 4.87529e-19
9758.57013 1.59241e-18
9760.26771 3.57782e-18
9761.96530 4.62927e-18
9763.66289 4.14232e-18
9765.36048 2.58800e-18
9767.05807 9.90691e-19
9768.75565 8.76222e-19
9770.45324 2.26727e-18
9772.16088 3.49432e-18
9773.85846 3.91671e-18
9775.55605 4.18647e-18
9777.25364 4.68227e-18
9778.95123 5.44114e-18
9780.64882 6.32810e-18
9782.34640 6.91953e-18
9784.04399 6.88836e-18
9785.74158 6.08687e-18
9787.43917 4.69060e-18
9789.13676 3.48027e-18
9790.83434 2.93167e-18
9792.53193 2.63456e-18
9794.22952 2.17515e-18
9795.92711 1.50098e-18
9797.62470 7.58886e-19
9799.32228 5.45814e-19
9801.01987 1.23272e-18
9802.71746 1.99017e-18
9804.41505 1.95096e-18
9806.11264 1.64193e-18
9807.81023 1.92442e-18
9809.50781 2.72611e-18
9811.20540 3.51894e-18
9812.90299 3.68452e-18
9814.60058 2.73850e-18
9816.29817 1.32982e-18
9817.99575 7.55728e-19
9819.69334 1.13969e-18
9821.39093 1.70019e-18
9823.08852 2.18739e-18
9824.78611 2.77166e-18
9826.48369 3.24410e-18
9828.18128 3.10022e-18
9829.87887 2.51783e-18
9831.57646 2.41912e-18
9833.27405 3.15633e-18
9834.97163 4.33686e-18
9836.66922 5.42239e-18
9838.36681 5.67281e-18
9840.06440 4.90570e-18
9841.76199 3.92220e-18
9843.45958 3.31953e-18
9845.15716 3.10665e-18
9846.85475 3.16526e-18
9848.55234 3.24395e-18
9850.24993 3.16355e-18
9851.94752 3.06658e-18
9853.65515 3.04908e-18
9855.34269 2.82727e-18
9857.05033 2.21943e-18
9858.74791 1.67848e-18
9860.44550 1.63588e-18
9862.14309 1.63942e-18
9863.84068 1.19102e-18
9865.53827 1.09287e-18
9867.23585 2.31997e-18
9868.93344 3.85339e-18
9870.63103 4.04166e-18
9872.32862 3.79058e-18
9874.02621 5.17917e-18
9875.72379 7.55046e-18
9877.42138 8.48623e-18
9879.11897 6.91547e-18
9880.81656 2.99634e-18
9882.51415 -1.41491e-18
9884.21173 -2.91349e-18
9885.90932 -1.10292e-18
9887.60691 1.03867e-18
9889.30450 1.81018e-18
9891.00209 1.11659e-18
9892.69968 -2.66977e-19
9894.39726 -1.91148e-19
9896.09485 1.90733e-18
9897.79244 3.86224e-18
9899.49003 4.15725e-18
9901.18762 2.71340e-18
9902.88520 1.83106e-19
9904.58279 -1.53635e-18
9906.28038 -1.32100e-18
9907.97797 -3.11811e-19
9909.67556 3.34746e-19
9911.37314 6.16901e-19
9913.07073 7.97619e-19
9914.76832 1.16758e-18
9916.46591 1.92244e-18
9918.16350 2.86570e-18
9919.86108 3.65481e-18
9921.55867 3.97910e-18
9923.25626 3.66910e-18
9924.95385 2.95967e-18
9926.65144 2.28532e-18
9928.34903 2.03016e-18
9930.04661 2.40870e-18
9931.74420 2.88114e-18
9933.44179 2.51859e-18
9935.14942 1.56609e-18
9936.83697 1.13115e-18
9938.54460 1.38045e-18
9940.23214 1.66809e-18
9941.93978 1.64524e-18
9943.63736 1.22186e-18
9945.33495 6.21068e-19
9947.03254 4.99759e-19
9948.73013 7.79777e-19
9950.42772 3.38393e-19
9952.12530 -1.01444e-18
9953.82289 -2.01385e-18
9955.52048 -1.88959e-18
9957.21807 -8.53512e-19
9958.91566 7.67580e-19
9960.61324 2.59564e-18
9962.31083 4.31367e-18
9964.00842 5.94316e-18
9965.70601 7.31808e-18
9967.40360 7.59853e-18
9969.10118 6.30993e-18
9970.79877 4.10471e-18
9972.49636 1.95459e-18
9974.19395 8.42768e-19
9975.89154 1.32727e-18
9977.58913 2.71854e-18
9979.28671 3.90452e-18
9980.98430 4.33867e-18
9982.68189 3.86726e-18
9984.37948 2.61315e-18
9986.07707 9.77791e-19
9987.77465 -4.37379e-19
9989.47224 -1.02134e-18
9991.16983 -5.00947e-19
9992.86742 1.01081e-18
9994.56501 2.50983e-18
9996.26259 2.39288e-18
9997.96018 1.08051e-18
9999.65777 9.18585e-19
